BOXY.EXE: ISS Imagent and Oximeter Data Acquisition Program Version 0.80
Ascii Record File

#ACQ INFORMATION
2  Detector Channels 
16  External MUX Channels 
1  Auxiliary Channels 
5000  Waveform (CCF) Frequency (Hz)
1  Waveforms Skipped 
30  Waveforms Averaged 
1  Cycles Averaged 
16  Acquisitions per Waveform 
10.0806  Updata Rate (Hz) 

#FILE INFORMATION
TRUE -- External MUX Channel results are PARSED.
FALSE -- AC DC and Phase are NOT grouped.
TRUE -- Companion Program Settings File CREATED.
FALSE -- AC data not excluded
FALSE -- DC data not excluded
FALSE -- Phase data not excluded
FALSE -- Auxillary Chn. data not excluded
Tab delimiters

#CALIBRATION STATE
TRUE -- Waveform Calibration Values APPLIED.


#AUX CALIBRATION VALUES
Val Type	aux-1	

Term	1.0000e+00	
Factor	0.0000e+00	


#WF CALIBRATION VALUES
A = Detector Channel
Val Type	A-AC1	A-AC2	A-AC3	A-AC4	A-AC5	A-AC6	A-AC7	A-AC8	A-AC9	A-AC10	A-AC11	A-AC12	A-AC13	A-AC14	A-AC15	A-AC16	A-DC1	A-DC2	A-DC3	A-DC4	A-DC5	A-DC6	A-DC7	A-DC8	A-DC9	A-DC10	A-DC11	A-DC12	A-DC13	A-DC14	A-DC15	A-DC16	A-Ph1	A-Ph2	A-Ph3	A-Ph4	A-Ph5	A-Ph6	A-Ph7	A-Ph8	A-Ph9	A-Ph10	A-Ph11	A-Ph12	A-Ph13	A-Ph14	A-Ph15	A-Ph16	

Term	0.00000e+00	0.00000e+00	0.00000e+00	0.00000e+00	0.00000e+00	0.00000e+00	0.00000e+00	0.00000e+00	0.00000e+00	0.00000e+00	0.00000e+00	0.00000e+00	0.00000e+00	0.00000e+00	0.00000e+00	0.00000e+00	0.00000e+00	0.00000e+00	0.00000e+00	0.00000e+00	0.00000e+00	0.00000e+00	0.00000e+00	0.00000e+00	0.00000e+00	0.00000e+00	0.00000e+00	0.00000e+00	0.00000e+00	0.00000e+00	0.00000e+00	0.00000e+00	0.00000e+00	0.00000e+00	0.00000e+00	0.00000e+00	0.00000e+00	0.00000e+00	0.00000e+00	0.00000e+00	0.00000e+00	0.00000e+00	0.00000e+00	0.00000e+00	0.00000e+00	0.00000e+00	0.00000e+00	0.00000e+00	
Factor	1.00000e+00	1.00000e+00	1.00000e+00	1.00000e+00	1.00000e+00	1.00000e+00	1.00000e+00	1.00000e+00	1.00000e+00	1.00000e+00	1.00000e+00	1.00000e+00	1.00000e+00	1.00000e+00	1.00000e+00	1.00000e+00	1.00000e+00	1.00000e+00	1.00000e+00	1.00000e+00	1.00000e+00	1.00000e+00	1.00000e+00	1.00000e+00	1.00000e+00	1.00000e+00	1.00000e+00	1.00000e+00	1.00000e+00	1.00000e+00	1.00000e+00	1.00000e+00	X	X	X	X	X	X	X	X	X	X	X	X	X	X	X	X	

B = Detector Channel
Val Type	B-AC1	B-AC2	B-AC3	B-AC4	B-AC5	B-AC6	B-AC7	B-AC8	B-AC9	B-AC10	B-AC11	B-AC12	B-AC13	B-AC14	B-AC15	B-AC16	B-DC1	B-DC2	B-DC3	B-DC4	B-DC5	B-DC6	B-DC7	B-DC8	B-DC9	B-DC10	B-DC11	B-DC12	B-DC13	B-DC14	B-DC15	B-DC16	B-Ph1	B-Ph2	B-Ph3	B-Ph4	B-Ph5	B-Ph6	B-Ph7	B-Ph8	B-Ph9	B-Ph10	B-Ph11	B-Ph12	B-Ph13	B-Ph14	B-Ph15	B-Ph16	

Term	0.00000e+00	0.00000e+00	0.00000e+00	0.00000e+00	0.00000e+00	0.00000e+00	0.00000e+00	0.00000e+00	0.00000e+00	0.00000e+00	0.00000e+00	0.00000e+00	0.00000e+00	0.00000e+00	0.00000e+00	0.00000e+00	0.00000e+00	0.00000e+00	0.00000e+00	0.00000e+00	0.00000e+00	0.00000e+00	0.00000e+00	0.00000e+00	0.00000e+00	0.00000e+00	0.00000e+00	0.00000e+00	0.00000e+00	0.00000e+00	0.00000e+00	0.00000e+00	-1.88609e+02	-1.27598e+02	-1.28064e+02	-1.86550e+02	-7.56069e+01	-6.93013e+01	-1.58582e+02	-1.62015e+02	-8.04884e+01	-6.78725e+01	-1.72035e+02	-1.71270e+02	-1.83419e+02	-1.77402e+02	-7.72896e+01	-1.49868e+02	
Factor	3.27749e-05	1.39329e-04	3.88666e-05	2.88475e-01	1.43949e-06	1.41513e-06	1.57872e-01	4.58217e-02	1.50912e-06	1.47195e-06	7.41059e-02	2.49279e-02	3.53259e-02	7.84877e-03	1.37570e-06	1.11498e-02	1.92326e-05	3.85017e-05	1.09289e-05	1.54926e-01	3.98288e-07	4.44642e-07	7.99822e-02	2.48168e-02	3.58251e-07	4.44534e-07	3.89740e-02	1.31152e-02	1.93336e-02	4.30545e-03	3.87079e-07	5.92357e-03	X	X	X	X	X	X	X	X	X	X	X	X	X	X	X	X	



#DISTANCE SETTINGS
A = Detector Channel
A-1	A-2	A-3	A-4	A-5	A-6	A-7	A-8	A-9	A-10	A-11	A-12	A-13	A-14	A-15	A-16	

2.5000e+00	3.0000e+00	2.5000e+00	3.0000e+00	2.0000e+00	3.0000e+00	1.5000e+00	3.0000e+00	3.0000e+00	3.0000e+00	3.0000e+00	3.0000e+00	3.0000e+00	3.0000e+00	1.5000e+00	3.0000e+00	

B = Detector Channel
B-1	B-2	B-3	B-4	B-5	B-6	B-7	B-8	B-9	B-10	B-11	B-12	B-13	B-14	B-15	B-16	

1.0000e+01	1.0000e+01	1.0000e+01	1.4400e+00	1.0000e+01	1.0000e+01	1.5100e+00	1.9400e+00	1.0000e+01	1.0000e+01	1.9900e+00	2.4900e+00	2.4100e+00	2.9000e+00	1.0000e+01	2.9800e+00	




#DATA BEGINS
time	group	step	mark	flag	A-AC1	A-AC2	A-AC3	A-AC4	A-AC5	A-AC6	A-AC7	A-AC8	A-AC9	A-AC10	A-AC11	A-AC12	A-AC13	A-AC14	A-AC15	A-AC16	A-DC1	A-DC2	A-DC3	A-DC4	A-DC5	A-DC6	A-DC7	A-DC8	A-DC9	A-DC10	A-DC11	A-DC12	A-DC13	A-DC14	A-DC15	A-DC16	A-Ph1	A-Ph2	A-Ph3	A-Ph4	A-Ph5	A-Ph6	A-Ph7	A-Ph8	A-Ph9	A-Ph10	A-Ph11	A-Ph12	A-Ph13	A-Ph14	A-Ph15	A-Ph16	B-AC1	B-AC2	B-AC3	B-AC4	B-AC5	B-AC6	B-AC7	B-AC8	B-AC9	B-AC10	B-AC11	B-AC12	B-AC13	B-AC14	B-AC15	B-AC16	B-DC1	B-DC2	B-DC3	B-DC4	B-DC5	B-DC6	B-DC7	B-DC8	B-DC9	B-DC10	B-DC11	B-DC12	B-DC13	B-DC14	B-DC15	B-DC16	B-Ph1	B-Ph2	B-Ph3	B-Ph4	B-Ph5	B-Ph6	B-Ph7	B-Ph8	B-Ph9	B-Ph10	B-Ph11	B-Ph12	B-Ph13	B-Ph14	B-Ph15	B-Ph16	aux-1	digaux	

28840.115	1	1	0	768	0.065477	0.22878	0.22635	0.17952	0.16425	0.10426	0.11258	0.27071	0.13502	0.24481	0.22689	0.31363	0.20403	0.20776	0.084558	0.13962	-1.9729	-2.8688	-2.8	-2.4229	-2.9854	-2.5333	-2.45	-3.2896	-2.3458	-2.6437	-3.1312	-2.3438	-3.0146	-2.6937	-2.4042	-3.175	340.040	427.812	445.766	192.261	255.031	494.536	165.851	469.427	346.937	157.858	386.368	155.868	170.854	469.329	397.272	423.555	0.0010819	0.00056399	0.00016378	1353.8	4.1597e-06	4.9136e-06	1355.3	367.78	6.886e-06	3.9377e-06	417.67	140.98	122.89	41.725	5.9605e-06	51.834	0.00069474	0.00052523	0.00014925	1381.6	5.8714e-06	5.3181e-06	1379.9	375.19	6.2089e-06	5.9929e-06	428.2	143.97	125.06	43.178	6.2497e-06	53.55	494.793	242.856	241.575	166.962	301.863	310.338	166.441	171.350	272.893	295.921	170.828	175.155	175.397	180.364	277.956	179.689	-8191	255	
28840.213	1	1	0	0	0.19848	0.071431	0.2677	0.19156	0.19495	0.15397	0.30616	0.22342	0.21857	0.15974	0.29171	0.068893	0.014948	0.1432	0.23866	0.14369	-2.0354	-2.7104	-2.9042	-2.5729	-2.9271	-2.7062	-2.6042	-3.2292	-2.5229	-2.5021	-3.3292	-2.3896	-2.9542	-3.2104	-2.225	-3.2646	424.151	345.457	455.394	462.330	265.633	506.184	478.752	188.965	503.368	457.115	460.419	366.898	217.574	461.151	462.343	160.529	0.0010859	0.00043774	0.00014283	1361.1	5.2102e-06	5.5131e-06	1358.2	367.08	7.1394e-06	5.9001e-06	416.5	141.38	122.37	41.929	6.1037e-06	51.754	0.00070119	0.00050991	0.00014727	1381.4	6.0913e-06	5.7692e-06	1379.9	374.74	6.094e-06	5.9169e-06	427.86	144.17	125.12	43.163	6.3739e-06	53.485	493.603	234.536	243.621	166.655	306.000	306.222	166.597	171.474	272.402	302.506	170.923	175.033	175.013	180.542	275.247	179.453	-8191	255	
28840.309	1	1	0	0	0.10914	0.24672	0.10991	0.12854	0.16697	0.12479	0.1552	0.21397	0.26621	0.04988	0.12512	0.27248	0.25253	0.19165	0.34042	0.049914	-2.0854	-2.3646	-3.2646	-2.3729	-2.6896	-2.9896	-2.5708	-3.2313	-2.6979	-2.3208	-3.2625	-2.4813	-2.5979	-2.8479	-2.1917	-2.9854	306.820	440.847	224.738	416.789	452.684	167.704	463.222	170.910	471.171	483.935	410.370	458.955	429.510	353.225	394.238	395.793	0.0010714	0.00042872	0.00011886	1357.6	5.4562e-06	4.9275e-06	1355.8	367.94	7.7173e-06	6.0204e-06	417.34	140.62	123	42.001	4.8184e-06	51.734	0.00070988	0.00052058	0.00014171	1380.3	6.0988e-06	5.5451e-06	1380	375.03	6.0731e-06	6.3244e-06	427.93	143.65	125.33	43.214	5.9933e-06	53.407	496.301	242.980	259.417	166.844	271.065	302.058	166.691	171.418	279.160	295.853	170.976	174.881	175.384	180.328	284.458	179.704	-8191	255	
28840.404	1	1	0	0	0.11964	0.12605	0.18755	0.071088	0.22288	0.17524	0.1016	0.30548	0.13386	0.20153	0.29253	0.090881	0.17909	0.24045	0.16574	0.058817	-2.2458	-2.3542	-3.1229	-2.4833	-2.5563	-3.0333	-2.3542	-3.1312	-2.6333	-2.3708	-3.2417	-2.6375	-2.6083	-3.0646	-2.3208	-2.9708	409.285	439.360	185.804	188.000	251.317	399.251	218.713	476.149	273.795	458.775	428.343	461.948	442.233	452.169	502.528	512.774	0.0011243	0.00059416	0.00013303	1360.8	5.1975e-06	4.1071e-06	1356.8	368.96	6.4066e-06	6.1661e-06	420.97	141.31	123.27	41.872	5.6387e-06	52.063	0.00072327	0.00054953	0.00014608	1380.6	5.8648e-06	5.5747e-06	1379.4	376.01	5.7268e-06	5.9956e-06	428.84	144.06	125.56	43.267	6.1441e-06	53.519	493.198	245.335	237.109	166.856	307.029	302.289	166.632	171.451	283.764	300.045	170.884	175.208	175.167	180.275	280.780	179.343	-8191	255	
28840.502	1	1	0	0	0.22096	0.24196	0.12292	0.26512	0.074345	0.21351	0.35444	0.2402	0.095352	0.14829	0.0075918	0.19021	0.22763	0.16202	0.15779	0.50365	-2.5333	-2.1771	-2.9458	-2.5792	-2.4646	-3.1479	-2.4708	-2.9437	-3.0104	-2.3187	-3.1958	-2.4708	-2.6688	-3.25	-2.3542	-2.9271	443.765	457.746	441.799	491.630	499.759	486.730	434.869	483.334	342.877	276.175	346.868	428.302	464.287	485.947	294.858	475.178	0.0010966	0.00062547	0.00011799	1359	5.5085e-06	4.8782e-06	1358.3	370.27	6.3435e-06	5.4525e-06	422.11	140.76	123.04	41.827	5.5872e-06	51.705	0.00070539	0.00054368	0.00014381	1382.7	5.9668e-06	5.4858e-06	1380	376.35	6.0007e-06	6.0401e-06	429.54	143.94	125.64	43.192	6.1425e-06	53.59	492.672	240.445	242.012	166.856	287.007	300.374	166.574	171.746	260.997	303.657	171.201	174.724	175.214	180.496	293.684	179.552	-8191	255	
28840.598	1	1	0	0	0.19566	0.072453	0.15453	0.20551	0.064277	0.15079	0.18111	0.28274	0.33444	0.3455	0.41671	0.17097	0.26679	0.17522	0.27775	0.34152	-2.5083	-2.2167	-3.0792	-2.6667	-2.3812	-3.0521	-2.6333	-2.95	-2.9208	-2.3063	-3.0187	-2.7167	-2.4896	-3.2458	-2.3146	-2.6437	241.305	432.676	191.698	507.885	437.241	315.581	443.097	499.960	456.801	176.498	445.509	384.373	477.991	500.123	360.019	452.164	0.0011262	0.00047431	0.00012634	1352.3	4.4405e-06	4.7541e-06	1356.4	367.56	6.6937e-06	4.894e-06	417.49	140.22	123.38	41.769	5.6796e-06	51.68	0.00070471	0.00054199	0.00013862	1380.5	5.8382e-06	5.5553e-06	1378.9	375.03	5.9365e-06	6.0503e-06	428.64	143.82	125.4	43.212	5.9538e-06	53.51	495.707	242.490	260.716	166.926	279.122	298.051	166.695	171.474	277.466	310.826	170.924	174.874	175.311	180.709	278.660	179.452	-8191	255	
28840.717	1	1	0	0	0.020585	0.071791	0.37462	0.075116	0.22587	0.30995	0.50648	0.27189	0.32767	0.066628	0.099183	0.088602	0.091351	0.33918	0.33423	0.13433	-2.5	-2.1771	-2.8375	-2.8292	-2.2521	-3.1458	-2.7687	-2.7729	-2.9708	-2.3375	-3.0646	-2.8292	-2.4542	-3.3542	-2.5542	-2.6771	351.034	510.715	234.761	456.496	472.170	302.497	458.736	463.138	487.589	169.587	245.005	502.111	331.992	174.190	194.510	435.027	0.0010587	0.0004753	0.00016374	1355.5	5.2942e-06	2.1337e-06	1354	368.83	6.2647e-06	5.3853e-06	419.41	141.53	122.69	42.009	5.7603e-06	51.869	0.00070323	0.00056124	0.00014094	1378.7	5.9129e-06	5.823e-06	1378.5	375.92	5.8888e-06	6.0475e-06	428.93	144.2	125.28	43.296	5.8425e-06	53.506	495.777	244.588	240.858	166.967	293.042	306.659	166.516	171.364	274.376	307.847	171.071	174.969	175.215	180.455	293.015	179.754	-8191	255	
28840.812	1	1	0	0	0.064982	0.12959	0.12609	0.14173	0.23427	0.13031	0.10828	0.33098	0.14849	0.099972	0.32131	0.16081	0.23644	0.12115	0.13574	0.2244	-2.6146	-2.3229	-2.8792	-3.1	-2.3667	-3.1354	-2.8563	-2.6729	-3.2396	-2.2292	-2.9125	-2.9917	-2.35	-3.1562	-2.7604	-2.5729	173.579	498.548	451.361	158.696	508.917	465.749	338.781	463.486	344.931	222.983	179.770	287.015	168.124	252.914	478.436	468.037	0.0011048	0.00050986	0.00017634	1351.9	5.9754e-06	3.9759e-06	1350.4	368.29	5.7447e-06	5.0494e-06	418.25	141.52	123.27	41.861	6.7099e-06	51.527	0.00069482	0.00054705	0.00014324	1378.1	6.0664e-06	5.7498e-06	1378.3	375.71	5.8843e-06	6.2735e-06	428.34	144.03	125.51	43.291	6.0699e-06	53.445	494.122	242.455	248.624	166.705	300.692	309.000	166.682	171.466	280.970	295.291	170.924	174.880	175.348	180.460	291.265	179.815	-8191	255	
28840.908	1	1	0	0	0.14406	0.25332	0.16297	0.074433	0.11614	0.11268	0.2202	0.24743	0.15338	0.20249	0.20464	0.22171	0.2256	0.19097	0.16546	0.09119	-2.6896	-2.2375	-2.6562	-3.0708	-2.1562	-3.1063	-2.8333	-2.4083	-3.1417	-2.4979	-2.725	-3.1063	-2.3104	-2.9708	-2.8104	-2.4479	458.143	211.647	409.477	445.529	216.293	461.064	492.925	474.094	248.149	442.346	175.375	486.591	445.189	201.215	486.704	418.883	0.0011511	0.00042538	0.00015632	1358.8	5.4217e-06	4.7142e-06	1352.2	367.16	6.9308e-06	5.183e-06	420.37	140.81	122.91	41.947	5.7497e-06	51.501	0.00069534	0.00053999	0.00015494	1379.2	6.1577e-06	6.0462e-06	1378.3	375.32	5.8216e-06	5.8215e-06	428.92	144.11	125.39	43.205	5.8255e-06	53.446	494.535	256.498	242.305	166.874	287.062	317.061	166.550	171.244	274.930	308.797	171.025	175.055	174.862	180.497	279.299	179.543	-8191	255	
28841.004	1	1	0	0	0.057576	0.20624	0.20006	0.10006	0.1041	0.36013	0.32719	0.26196	0.17051	0.035298	0.22247	0.10479	0.36332	0.13776	0.16207	0.24299	-2.8083	-2.5792	-2.5271	-3.2	-2.2938	-2.9979	-3.1188	-2.4479	-3.1583	-2.6604	-2.7833	-3.3688	-2.3438	-2.9979	-2.8417	-2.5021	204.532	416.797	290.747	291.952	327.964	491.381	471.953	465.734	387.892	418.104	508.042	208.863	442.359	467.179	332.473	430.053	0.0010868	0.00038982	0.00015063	1359.3	4.9571e-06	3.7308e-06	1350.3	367.5	6.6966e-06	5.3245e-06	418.4	140.89	122.81	41.784	5.6864e-06	51.804	0.00067855	0.00052186	0.00014998	1380.9	5.9312e-06	5.5506e-06	1378.3	375.12	5.8223e-06	5.6447e-06	428.34	144	124.91	43.161	5.6425e-06	53.397	492.861	249.108	231.982	166.822	291.590	314.349	166.703	171.238	269.674	309.029	171.100	174.722	175.290	180.583	290.198	179.661	-8191	255	
28841.100	1	1	0	0	0.15507	0.078211	0.16185	0.39751	0.0988	0.11743	0.1871	0.34321	0.096815	0.21993	0.1115	0.15016	0.061356	0.14289	0.227	0.24974	-2.7625	-2.6562	-2.2979	-3.1396	-2.4604	-2.8958	-3.2854	-2.4958	-2.9083	-2.5854	-2.4854	-3.3	-2.6958	-2.9125	-2.8812	-2.4896	438.973	452.851	384.590	439.421	218.307	377.057	396.193	417.112	398.305	165.118	196.706	171.799	410.179	200.477	423.447	180.200	0.0010884	0.0005435	0.0001181	1356.8	4.5998e-06	4.1742e-06	1353.8	366.12	7.163e-06	4.6469e-06	420.04	140.64	123.08	41.803	6.3017e-06	51.642	0.00070976	0.00052675	0.00015036	1378.6	6.0324e-06	5.7146e-06	1380.3	374.86	5.7619e-06	5.7595e-06	428.39	143.96	125.18	43.165	5.9626e-06	53.475	493.704	254.004	237.134	166.849	296.816	305.538	166.537	171.461	282.240	307.220	170.889	174.987	175.126	180.550	285.833	179.493	-8191	255	
28841.195	1	1	0	0	0.12156	0.30406	0.17283	0.075488	0.20632	0.20141	0.24908	0.18208	0.17494	0.19157	0.25819	0.1439	0.058873	0.15879	0.19075	0.14554	-2.6458	-2.8458	-2.3187	-3.1896	-2.4104	-2.625	-3.05	-2.3937	-2.8208	-2.8271	-2.5396	-3.1396	-2.6021	-2.6437	-3.0125	-2.2438	280.277	488.745	267.628	380.830	226.113	230.057	448.432	440.032	352.171	188.568	440.266	211.168	505.068	420.165	309.794	418.333	0.0010663	0.0003501	0.00017836	1350	4.8816e-06	6.1664e-06	1351.7	369.25	8.1836e-06	4.1355e-06	418.71	140.84	122.83	41.944	4.7412e-06	51.681	0.00068171	0.00052932	0.0001518	1379.4	6.1311e-06	6.1546e-06	1378.2	376.1	5.8783e-06	5.8503e-06	428.06	143.96	125.2	43.195	5.7796e-06	53.359	492.521	237.003	249.425	166.790	306.067	310.667	166.590	171.537	272.938	305.830	171.062	174.776	175.088	180.657	282.469	179.376	-8191	255	
28841.316	1	1	0	0	0.16193	0.077755	0.19997	0.17274	0.080949	0.2578	0.11952	0.36125	0.26447	0.043343	0.099082	0.11628	0.084668	0.030559	0.087433	0.1336	-2.5083	-2.7833	-2.3479	-3.1437	-2.4688	-2.3583	-3.1312	-2.3688	-2.725	-2.7021	-2.2604	-3.0208	-2.7125	-2.5667	-2.9313	-2.3417	393.347	440.722	361.887	234.652	294.392	212.695	457.681	459.528	284.595	353.974	495.771	434.625	225.920	472.135	401.789	431.988	0.0010891	0.00043543	0.00011271	1355.5	5.402e-06	3.7477e-06	1349.4	367.24	5.8914e-06	5.4813e-06	418.33	140.56	122.65	41.757	5.9029e-06	51.658	0.00070043	0.00052844	0.00015257	1378.8	6.0025e-06	6.1018e-06	1377.9	374.53	6.147e-06	5.9456e-06	427.99	143.73	124.96	43.152	6.2118e-06	53.352	496.160	242.959	251.599	166.597	303.794	271.884	166.692	171.251	265.456	296.547	171.084	174.999	175.055	180.435	288.948	179.664	-8191	255	
28841.412	1	1	0	0	0.16322	0.1982	0.33343	0.07626	0.15051	0.061466	0.063786	0.15618	0.12764	0.44095	0.044302	0.2283	0.2799	0.22933	0.31629	0.14649	-2.3542	-2.8146	-2.1854	-3.0125	-2.5187	-2.3646	-3.1937	-2.6833	-2.5687	-3.1604	-2.4396	-3.2167	-2.7938	-2.5729	-3.1125	-2.4167	225.148	217.823	318.137	349.084	480.227	160.292	355.077	163.357	375.329	432.124	501.966	194.671	206.385	505.528	443.913	455.230	0.0010881	0.00046337	0.00017355	1362.6	4.5096e-06	4.3963e-06	1356.6	366.45	7.0168e-06	5.1134e-06	417.75	140.82	122.76	41.81	5.7715e-06	51.483	0.00069894	0.00056726	0.00016136	1382	5.888e-06	6.1148e-06	1379.2	374.77	6.0485e-06	5.8151e-06	427.72	144.07	125.04	43.205	5.8159e-06	53.302	495.929	233.643	250.123	166.827	279.382	293.720	166.412	171.449	272.265	305.280	170.958	175.080	175.270	180.528	280.602	179.479	-8191	255	
28841.510	1	1	0	0	0.020325	0.14292	0.28354	0.18966	0.10208	0.12878	0.1802	0.17635	0.26093	0.29315	0.38555	0.1734	0.016338	0.30613	0.11831	0.18478	-2.1125	-2.9875	-2.1771	-2.975	-2.6542	-2.3396	-3.2958	-2.6708	-2.5687	-3.0438	-2.5417	-3.0354	-2.8792	-2.3271	-2.9708	-2.825	207.900	186.550	389.558	179.347	421.550	250.288	165.191	474.607	460.131	250.562	456.973	492.989	343.612	490.238	381.326	435.347	0.0010769	0.00051308	0.00013039	1353	4.5937e-06	4.3334e-06	1350	366.97	7.276e-06	5.3341e-06	416.72	140	122.38	41.814	5.0429e-06	51.532	0.00070359	0.00053782	0.00015521	1377.1	5.8905e-06	6.1583e-06	1377.2	374.88	6.1567e-06	5.7817e-06	427.77	143.77	124.99	43.188	5.915e-06	53.364	494.770	234.834	249.066	166.972	292.413	298.048	166.737	171.466	273.508	309.135	171.056	175.013	175.483	180.541	285.530	179.326	-8191	255	
28841.604	1	1	0	0	0.13118	0.077822	0.20039	0.15348	0.23024	0.21184	0.16143	0.19375	0.16268	0.13931	0.23259	0.27478	0.043961	0.2176	0.20611	0.10003	-1.8687	-3.2521	-2.3937	-2.7979	-2.9688	-2.3187	-3.1375	-2.8187	-2.4	-3.1437	-2.3625	-2.8729	-3.0312	-2.2125	-3.0229	-2.8854	429.908	188.456	496.820	457.195	232.337	356.029	386.021	183.019	318.468	230.413	310.538	433.486	281.010	497.561	457.434	217.056	0.0011001	0.00048552	0.00011128	1361.3	4.4504e-06	4.9603e-06	1357.2	367.15	5.1139e-06	5.4477e-06	418.35	141.17	122.82	41.767	5.7782e-06	51.637	0.00070764	0.00052154	0.00014658	1379.7	5.9096e-06	6.0657e-06	1379.3	374.98	6.1813e-06	5.6502e-06	428.24	143.99	125.15	43.139	5.7973e-06	53.422	495.617	239.664	246.302	166.990	289.417	286.309	166.783	171.205	278.239	308.530	170.797	175.122	175.147	180.678	292.559	179.615	-8191	255	
28841.678	1	1	0	0	0.081145	0.24467	0.011904	0.22702	0.14776	0.11281	0.23041	0.17627	0.22318	0.21201	0.048237	0.094099	0.34439	0.35792	0.42215	0.35412	-1.9667	-3.1979	-2.3667	-2.6542	-2.9104	-2.2917	-3.2604	-3.0354	-2.3021	-3.2854	-2.7021	-2.6542	-3.2229	-2.4479	-2.8354	-3.0479	425.608	421.727	413.302	421.013	457.310	269.008	475.979	153.810	298.022	432.792	506.848	512.748	464.185	157.637	163.890	469.784	0.0011275	0.00066526	0.00015892	1355.2	5.8715e-06	4.8999e-06	1354.8	369.15	7.2917e-06	4.763e-06	417.08	140.63	122.57	41.781	5.4675e-06	51.466	0.00072751	0.00050622	0.00015187	1378.7	5.9478e-06	5.9795e-06	1379.1	375.55	5.8059e-06	5.8354e-06	427.96	143.95	124.9	43.184	5.9546e-06	53.302	493.388	249.664	239.605	166.915	289.166	295.388	166.811	171.465	270.128	298.969	171.048	175.288	175.078	180.826	283.489	179.602	-8191	255	
28841.797	1	1	0	0	0.18863	0.12543	0.35521	0.10695	0.026616	0.19104	0.28923	0.28253	0.13956	0.22833	0.18265	0.28241	0.17655	0.1444	0.33315	0.13357	-2.0833	-3.0417	-2.4229	-2.6396	-3.0708	-2.3354	-3.0521	-3.0167	-2.4146	-3.0375	-2.6979	-2.6771	-3.3771	-2.4562	-2.7271	-3.0125	207.116	321.657	510.445	275.622	243.524	466.222	420.222	466.210	502.932	457.625	448.007	458.738	192.306	468.735	210.889	425.446	0.0011068	0.00058048	0.00012345	1353	4.7478e-06	4.7164e-06	1355.8	367.35	8.0363e-06	4.3646e-06	419.51	140.54	122.98	41.828	5.2722e-06	51.609	0.00071742	0.00052836	0.00014346	1376.7	5.8615e-06	5.9925e-06	1380.4	374.55	5.9186e-06	5.5557e-06	428.65	143.84	125.18	43.161	5.9642e-06	53.385	494.424	249.808	235.278	167.099	283.652	306.402	166.957	171.466	281.127	311.771	170.901	175.108	175.381	180.237	283.432	179.657	-8191	255	
28841.893	1	1	0	0	0.16501	0.050506	0.1286	0.15124	0.094271	0.034324	0.36977	0.34127	0.20007	0.07955	0.37113	0.12468	0.056328	0.16398	0.14408	0.024831	-1.8458	-3.0854	-2.3646	-2.45	-3.0708	-2.3833	-2.7938	-3.1271	-2.2792	-3.0042	-2.8458	-2.6	-3.0396	-2.5771	-2.6958	-3.1083	243.621	358.901	231.592	447.260	231.939	217.706	390.512	157.040	310.195	396.760	393.661	491.366	183.541	471.246	274.037	380.959	0.0011041	0.00049987	0.00011191	1360.8	6.0972e-06	4.6605e-06	1357.5	367.77	7.0181e-06	6.1228e-06	416.07	141.33	123.28	41.881	4.969e-06	51.521	0.00071697	0.00052787	0.00014417	1378.8	6.0009e-06	5.9656e-06	1380.8	375.39	6.1828e-06	5.9447e-06	427.52	144.18	125.02	43.107	5.965e-06	53.328	494.750	243.875	250.602	167.017	294.893	289.912	166.590	171.574	282.742	309.402	170.961	175.237	175.353	180.602	290.288	179.528	-8191	255	
28841.988	1	1	0	0	0.080415	0.051035	0.25798	0.10868	0.13304	0.040959	0.21038	0.29105	0.30046	0.090925	0.090394	0.19669	0.084993	0.086964	0.12354	0.32094	-2.1188	-2.9917	-2.7646	-2.3417	-3.0896	-2.6042	-2.8688	-3.2583	-2.2583	-2.8937	-2.9542	-2.6	-3.1688	-2.6542	-2.5625	-3.175	351.148	181.729	301.719	354.649	285.338	448.847	386.687	425.595	236.402	245.415	508.906	495.423	247.067	508.201	360.633	393.844	0.0011478	0.0004336	0.00012984	1357.1	5.4875e-06	4.4832e-06	1349.8	367.94	6.9608e-06	5.9107e-06	418.04	140.74	122.43	41.893	5.6471e-06	51.867	0.0007231	0.00053606	0.00014879	1378.1	6.21e-06	5.7248e-06	1378.3	375.76	6.0216e-06	5.9549e-06	427.48	144.02	125.03	43.176	6.0086e-06	53.472	496.803	251.834	252.387	166.962	284.025	304.722	166.699	171.379	270.141	306.413	171.146	175.097	175.351	180.417	290.924	179.758	-8191	255	
28842.086	1	1	0	0	0.090084	0.15639	0.16523	0.30504	0.078283	0.15017	0.20213	0.3427	0.19352	0.078778	0.17344	0.25613	0.13009	0.12828	0.25075	0.42323	-1.8792	-2.7542	-2.75	-2.3125	-3.0479	-2.8208	-2.7333	-3.3292	-2.475	-2.7604	-3.0833	-2.5417	-3.0375	-2.8083	-2.4771	-3.2479	341.822	224.168	362.541	472.028	444.904	209.276	449.641	445.745	330.161	369.545	164.270	154.945	504.904	204.648	234.635	428.183	0.0011044	0.00040304	0.0001303	1355.6	6.0596e-06	4.1044e-06	1358.9	367.46	7.5608e-06	4.4112e-06	417.44	140.77	122.96	41.642	5.2866e-06	51.734	0.00071677	0.00050782	0.00014474	1380.9	5.7387e-06	5.7655e-06	1379.7	374.99	6.0918e-06	5.7271e-06	427.86	143.57	125.13	42.996	5.7796e-06	53.373	495.205	241.749	246.169	166.983	291.076	304.544	166.730	171.667	269.887	293.905	171.147	175.145	175.321	180.521	281.296	179.719	-8191	255	
28842.205	1	1	0	0	0.28135	0.098419	0.3108	0.29034	0.049525	0.20302	0.30911	0.20506	0.12609	0.11951	0.090672	0.088342	0.2339	0.24366	0.21646	0.44548	-1.8604	-2.6979	-2.8708	-2.4354	-3.0125	-2.8417	-2.6917	-3.4479	-2.4354	-2.5375	-3.2625	-2.575	-3.0771	-2.9917	-2.5125	-3.1896	176.879	338.785	344.568	173.199	187.387	324.784	475.560	456.839	321.924	187.884	455.960	271.707	495.806	465.909	295.058	452.242	0.001107	0.0006115	0.00014526	1348.6	4.4497e-06	4.1839e-06	1353.6	366	6.8432e-06	4.6742e-06	418.43	140.38	123.43	41.583	6.1213e-06	51.596	0.00072162	0.00058354	0.0001393	1376.4	5.7511e-06	5.8276e-06	1376.5	374.12	5.8962e-06	5.8178e-06	427.39	143.54	125.33	43.027	6.1005e-06	53.356	495.778	240.375	251.906	166.999	277.934	289.787	166.911	171.455	276.581	295.631	170.881	175.210	175.284	180.647	277.049	179.543	-8191	255	
28842.277	1	1	0	0	0.0088241	0.056776	0.063578	0.30604	0.07927	0.19804	0.22529	0.10979	0.034385	0.261	0.06974	0.40757	0.17623	0.10494	0.068774	0.14458	-2.0875	-2.5	-3.2625	-2.6021	-2.7896	-3.0542	-2.725	-3.3417	-2.4938	-2.4792	-3.2375	-2.5396	-2.8458	-3.1583	-2.0583	-3.2062	223.694	188.800	334.195	458.782	512.300	507.813	398.268	234.539	417.283	388.344	471.545	497.946	440.260	278.641	189.167	442.335	0.0010931	0.00053087	0.00010837	1356.8	6.6692e-06	4.5717e-06	1353.4	367.24	7.1865e-06	5.3329e-06	417.89	140.86	122.95	41.667	5.5152e-06	51.424	0.00070956	0.00055587	0.00014729	1375.3	5.9278e-06	5.823e-06	1377.4	375.18	5.8664e-06	5.8549e-06	427.57	143.59	125.11	43.056	5.9384e-06	53.217	493.635	261.105	246.146	167.038	299.648	307.767	166.624	171.526	284.826	302.572	170.876	174.926	175.357	180.533	291.839	179.643	-8191	255	
28842.396	1	1	0	0	0.156	0.26792	0.10018	0.31167	0.052329	0.19935	0.26374	0.21916	0.19989	0.27651	0.18614	0.12823	0.19067	0.05783	0.11823	0.14527	-2.2333	-2.4896	-3.0542	-2.2792	-2.7188	-3.0229	-2.5375	-3.1146	-2.6958	-2.5208	-3.4521	-2.5792	-2.8604	-3.1208	-2.3208	-3.2396	479.212	365.479	259.313	466.787	491.719	334.941	502.397	439.187	513.539	343.478	167.328	357.270	237.729	190.221	338.855	470.793	0.0011262	0.00050922	0.0001447	1355.6	4.8558e-06	4.6819e-06	1354.5	366.84	6.3712e-06	4.3164e-06	417.17	140.11	122.96	41.395	4.4081e-06	51.082	0.00070552	0.00053541	0.00014647	1375.8	6.1643e-06	5.8211e-06	1376.8	374.05	6.0082e-06	5.9855e-06	427.22	143.06	124.59	42.78	6.336e-06	53.065	494.140	259.262	257.694	167.008	290.576	310.063	166.414	171.606	275.032	296.111	171.141	174.972	175.413	180.337	305.043	179.460	-8191	255	
28842.494	1	1	0	0	0.14717	0.1069	0.057715	0.22753	0.033042	0.23786	0.12356	0.15595	0.12377	0.18181	0.085294	0.089245	0.14107	0.16192	0.16639	0.12349	-2.3688	-2.2854	-3.1625	-2.7125	-2.6437	-3.125	-2.3979	-3.2271	-2.8646	-2.4458	-3.3104	-2.5771	-2.6312	-3.175	-2.3396	-3.0583	316.169	400.519	245.184	479.920	165.516	158.598	406.320	479.315	415.486	274.077	445.005	189.935	433.996	191.443	175.415	470.407	0.0010628	0.00045721	0.00011176	1353.9	4.5199e-06	4.1605e-06	1353.6	365.44	5.1331e-06	5.4798e-06	417.75	139.88	122.52	41.819	4.6503e-06	51.444	0.0006937	0.00055699	0.00013616	1375	6.0175e-06	5.5793e-06	1375.8	373.58	5.8716e-06	6.0966e-06	427.82	142.91	124.62	42.965	6.0473e-06	53.144	493.950	237.421	235.955	166.807	295.225	292.701	166.640	171.740	280.398	303.946	171.140	174.898	175.410	180.404	280.449	179.935	-8191	255	
28842.590	1	1	0	0	0.10134	0.26182	0.10808	0.28568	0.19329	0.056478	0.097751	0.42069	0.10239	0.17116	0.31364	0.30613	0.1488	0.22348	0.078513	0.093926	-2.6354	-2.4688	-3.1688	-2.7313	-2.4958	-3.0438	-2.5604	-2.7167	-2.9417	-2.1917	-3.1542	-2.9854	-2.7021	-3.2438	-2.3854	-2.8667	452.870	481.657	190.251	185.467	379.746	197.434	346.494	423.381	359.507	416.118	492.092	165.800	493.542	190.603	339.621	187.730	0.0010557	0.00056097	0.00014713	1351.4	5.7551e-06	4.3899e-06	1354.1	366.61	8.0305e-06	4.0203e-06	416.92	140.57	121.88	41.737	5.7628e-06	51.862	0.00069378	0.00056405	0.00014565	1377.3	6.2465e-06	5.5775e-06	1377.9	374.32	6.047e-06	5.6789e-06	427.45	143.5	124.75	42.959	5.9312e-06	53.324	493.490	241.053	245.542	167.036	292.360	304.003	166.759	171.650	270.056	323.684	171.247	174.767	175.339	180.548	286.398	179.637	-8191	255	
28842.686	1	1	0	0	0.037448	0.093856	0.20414	0.2803	0.21921	0.14499	0.22706	0.13984	0.036764	0.080803	0.29999	0.045315	0.16422	0.15039	0.15281	0.02954	-2.6937	-2.2896	-2.8521	-2.8417	-2.3729	-3.0792	-2.7062	-2.6813	-3.1271	-2.2646	-3.1354	-2.8083	-2.4917	-3.3479	-2.7042	-2.65	475.517	390.472	349.048	446.414	415.621	282.226	424.484	427.113	276.597	169.141	463.476	502.679	200.514	194.340	180.900	190.932	0.0010953	0.00057838	0.00012473	1357.7	5.9971e-06	3.542e-06	1348.4	366.65	6.924e-06	5.0544e-06	417.17	139.86	121.6	41.598	6.2861e-06	51.443	0.0006949	0.00054071	0.00014897	1378.2	6.117e-06	5.9184e-06	1374.8	373.92	5.8888e-06	6.2818e-06	427.95	143.09	124.48	42.926	6.1199e-06	53.183	495.837	257.913	248.231	167.137	293.146	306.994	166.720	171.383	275.886	297.023	171.020	175.010	175.188	180.689	289.817	179.713	-8191	255	
28842.805	1	1	0	0	0.33498	0.16059	0.12095	0.12031	0.12731	0.23649	0.22556	0.22726	0.077145	0.27584	0.21277	0.37712	0.087009	0.20682	0.28446	0.24691	-2.6792	-2.4667	-2.7833	-2.8479	-2.2625	-3.1479	-2.8646	-2.7208	-3.1167	-2.225	-2.8125	-3.0583	-2.3146	-3.0396	-2.6417	-2.6354	377.362	387.470	399.807	171.414	335.887	342.364	496.418	437.941	425.921	224.209	310.718	466.770	408.918	169.385	224.311	431.375	0.0010787	0.00055536	0.00016265	1350.5	6.3156e-06	5.5494e-06	1348.7	365.13	7.0438e-06	5.6419e-06	416.58	139.33	121.87	41.476	3.6535e-06	51.207	0.00068576	0.0005683	0.00015551	1375.6	6.4647e-06	6.0499e-06	1373.5	373.3	5.9932e-06	6.4615e-06	425.84	142.56	124.18	42.662	6.215e-06	52.98	495.712	243.617	240.995	166.877	309.167	295.926	166.637	171.673	278.520	297.933	171.011	174.979	175.391	180.470	292.776	179.396	-8191	255	
28842.900	1	1	0	0	0.31748	0.1521	0.35616	0.085591	0.34085	0.2348	0.1376	0.48127	0.12512	0.029311	0.017346	0.32389	0.27214	0.033271	0.19762	0.19954	-2.7125	-2.5521	-2.6688	-2.8896	-2.4042	-2.9583	-2.8125	-2.5771	-3.0375	-2.4271	-2.7854	-3.2167	-2.4271	-3.1458	-2.6771	-2.45	449.171	421.664	156.096	481.255	508.119	168.753	438.944	452.463	359.817	237.038	279.546	417.451	466.414	245.516	391.701	487.585	0.0010546	0.00049812	0.00014653	1352.9	6.1765e-06	5.1219e-06	1346.3	365.33	6.2207e-06	5.351e-06	418.12	139.97	121.55	41.527	3.5171e-06	51.122	0.00067715	0.00056565	0.00015628	1377.5	6.4456e-06	5.8433e-06	1372.4	372.77	5.9425e-06	5.8966e-06	426.56	143	124.27	42.79	5.9271e-06	52.984	494.855	238.613	251.253	166.920	294.628	313.882	166.430	171.527	287.669	302.424	170.955	174.848	175.149	180.475	291.259	179.766	-8191	255	
28842.973	1	1	0	0	0.097942	0.25721	0.13934	0.19316	0.05147	0.081577	0.25129	0.23118	0.12269	0.029263	0.19906	0.19409	0.12555	0.18401	0.058689	0.26888	-2.7667	-2.4437	-2.5667	-3.3229	-2.3792	-2.8958	-3.0812	-2.4229	-3.1521	-2.5625	-2.7812	-3.3229	-2.6521	-2.8625	-2.8771	-2.2229	472.841	498.944	265.173	158.440	388.266	300.092	462.014	413.950	225.799	319.825	445.148	492.450	496.555	217.953	210.378	164.718	0.0010729	0.00047124	0.00011847	1347.2	4.4273e-06	3.8114e-06	1352.5	366.25	7.3549e-06	3.712e-06	418.01	139.69	122.72	41.509	4.9422e-06	51.284	0.00069458	0.00056854	0.00015326	1376.1	6.1718e-06	5.7424e-06	1375.2	373.25	6.0432e-06	6.1475e-06	426.81	142.94	124.52	42.727	6.0457e-06	52.978	495.633	236.855	238.459	166.847	296.107	301.658	166.613	171.503	280.212	293.128	171.392	174.942	175.637	180.803	286.561	179.302	-8191	255	
28843.094	1	1	0	0	0.18802	0.26238	0.11948	0.31421	0.17991	0.28372	0.069493	0.23536	0.085728	0.19506	0.026438	0.32855	0.39047	0.30809	0.24724	0.10601	-2.6354	-2.4958	-2.6083	-3.1562	-2.4062	-2.7896	-3.1229	-2.2938	-3.1375	-2.6333	-2.6292	-3.0417	-2.3708	-2.7271	-2.8187	-2.4437	193.864	231.585	512.634	504.552	372.139	168.450	494.469	470.464	512.842	462.435	175.770	425.645	203.576	347.963	241.181	376.897	0.0011059	0.00051127	0.00016558	1350.8	4.2025e-06	5.2382e-06	1351.4	366.15	7.5541e-06	5.6111e-06	414.9	139.42	121.9	41.54	6.1794e-06	51.154	0.00071798	0.00052394	0.00015474	1375.1	6.1743e-06	6.0583e-06	1374	373.01	6.0044e-06	5.8817e-06	426.09	142.85	124.57	42.845	5.9699e-06	53.016	495.729	241.703	250.461	167.004	282.404	303.429	166.598	171.353	272.044	289.031	171.202	174.951	175.358	180.889	286.728	179.574	-8191	255	
28843.189	1	1	0	0	0.21345	0.18649	0.13307	0.077628	0.033761	0.12571	0.2247	0.19915	0.11087	0.074422	0.20113	0.29272	0.09134	0.22835	0.20533	0.31967	-2.5	-2.5208	-2.2625	-3.2521	-2.4417	-2.8167	-3.3042	-2.3833	-2.9896	-2.7083	-2.4708	-3.2771	-2.3958	-2.7125	-3.1875	-2.4417	361.344	180.971	328.009	446.341	276.133	437.442	432.853	510.836	185.727	222.640	157.075	462.512	181.507	484.509	438.705	476.207	0.0010569	0.00063296	0.00017214	1351.4	4.9645e-06	5.2429e-06	1354.5	367.54	5.9758e-06	5.304e-06	416.52	140.28	121.97	41.431	5.157e-06	51.174	0.00068945	0.00052362	0.00015678	1376.7	6.2266e-06	6.2574e-06	1377.5	373.98	6.0552e-06	5.9123e-06	427.03	143.26	124.49	42.842	5.8441e-06	52.984	494.392	242.489	241.254	166.939	295.116	297.114	166.510	171.498	259.694	291.139	171.142	174.913	175.390	180.564	292.486	179.698	-8191	255	
28843.285	1	1	0	0	0.12217	0.17612	0.34954	0.37103	0.10463	0.15019	0.31321	0.13639	0.034171	0.28132	0.21878	0.20737	0.22129	0.2911	0.11516	0.24392	-2.4875	-2.7854	-2.2938	-3.2604	-2.6667	-2.6667	-3.1708	-2.5667	-2.9021	-2.9229	-2.4375	-3.2062	-2.6542	-2.5375	-3.225	-2.5125	419.881	377.363	288.841	458.671	411.902	433.369	209.963	183.151	418.346	499.329	180.399	441.934	446.461	493.973	437.332	469.738	0.0010672	0.00050024	0.00015157	1351.1	6.1224e-06	6.0629e-06	1350.4	367.43	7.1623e-06	3.9631e-06	416.51	140.14	121.81	41.456	6.0985e-06	51.276	0.00068965	0.00053493	0.00016569	1374.4	5.8357e-06	6.1981e-06	1374.6	374.07	5.9664e-06	6.1966e-06	426.53	143.31	124.14	42.835	5.9505e-06	53.001	495.910	237.281	239.526	166.926	291.797	295.434	166.579	171.205	286.006	299.262	171.339	174.958	175.545	180.507	295.823	179.222	-8191	255	
28843.383	1	1	0	0	0.16458	0.065238	0.40064	0.11328	0.22084	0.18693	0.16313	0.34959	0.25172	0.0572	0.26577	0.12866	0.084505	0.17587	0.096437	0.10417	-2.3583	-2.9375	-2.2521	-3.1646	-2.5625	-2.2771	-3.3354	-2.475	-2.5729	-3.1146	-2.4417	-3.175	-2.7833	-2.45	-3.1479	-2.3812	307.406	510.327	234.205	155.540	401.037	358.003	455.192	469.646	433.492	335.047	460.578	472.467	412.623	195.208	470.991	357.993	0.0010922	0.00044498	0.00016658	1353.1	4.9034e-06	5.0104e-06	1348.5	366.65	6.1496e-06	4.8654e-06	414.79	140.42	121.64	41.579	5.4869e-06	50.986	0.00071032	0.00052852	0.00015455	1375.4	5.8664e-06	6.0351e-06	1374.8	373.08	6.2627e-06	5.8623e-06	425.87	143.07	124.27	42.85	5.932e-06	52.879	494.008	249.342	232.874	166.902	280.229	288.325	166.751	171.577	281.161	302.326	170.728	174.763	175.118	180.606	282.940	179.258	-8191	255	
28843.502	1	1	0	0	0.17362	0.49998	0.1677	0.21569	0.1581	0.078838	0.20878	0.080016	0.15947	0.12793	0.14283	0.0688	0.13003	0.17474	0.22526	0.37782	-2.1688	-3.0312	-2.175	-3.1854	-2.9333	-2.325	-3.2	-2.6125	-2.4333	-3.1354	-2.4271	-3.1229	-2.875	-2.3833	-3.0917	-2.6875	309.391	460.833	346.909	183.872	462.141	375.119	419.283	398.084	300.647	185.156	235.637	487.596	305.800	172.592	335.784	490.307	0.0010975	0.00062841	0.00015268	1346.8	5.4414e-06	3.8212e-06	1350.5	365.65	8.1536e-06	4.9059e-06	417.16	140.17	121.64	41.453	5.918e-06	51.206	0.00072282	0.0005152	0.00015647	1374.2	6.0282e-06	6.124e-06	1375.5	372.9	6.4075e-06	5.9179e-06	425.88	143.14	124.1	42.77	5.7884e-06	52.957	493.132	247.025	250.676	166.835	286.112	307.779	166.555	171.378	276.704	308.908	170.708	175.033	175.112	180.401	284.178	179.564	-8191	255	
28843.574	1	1	0	0	0.12677	0.15908	0.17504	0.024604	0.23781	0.12295	0.33349	0.26236	0.13875	0.10572	0.20992	0.14555	0.10399	0.23033	0.16714	0.039671	-2.1479	-3.0687	-2.2854	-2.9104	-2.8292	-2.1521	-3.3875	-2.5958	-2.475	-3.1667	-2.4354	-2.8083	-2.9271	-2.3812	-2.875	-2.75	216.350	299.792	400.791	400.386	506.692	173.351	472.352	504.685	188.138	445.957	454.289	438.565	380.049	164.751	437.220	251.490	0.0010955	0.00047003	0.00017214	1353.5	5.187e-06	4.9297e-06	1352.8	364.86	7.1154e-06	4.8272e-06	417.15	139.74	122.45	41.516	6.7901e-06	51.194	0.0007197	0.00051664	0.00015883	1374.7	5.942e-06	6.1555e-06	1376.2	372.85	6.1261e-06	6.1864e-06	426.8	143.02	124.65	42.796	5.711e-06	52.985	496.346	245.241	228.299	166.758	296.608	310.272	166.516	171.209	270.474	294.097	170.909	174.813	174.874	180.032	295.935	179.454	-8191	255	
28843.670	1	1	0	0	0.022269	0.2639	0.20996	0.4593	0.23785	0.2751	0.56532	0.1219	0.38251	0.20173	0.15055	0.2649	0.22445	0.2989	0.17193	0.035965	-2.0333	-3.0979	-2.3042	-2.6437	-2.9938	-2.35	-3.1104	-2.9062	-2.4958	-3.1063	-2.6	-2.7188	-3.2562	-2.4188	-2.9437	-3.0563	266.879	157.675	365.349	155.291	349.243	357.974	420.315	379.580	410.400	424.912	452.644	169.840	162.572	483.378	432.651	396.243	0.0011147	0.0004508	0.00011273	1348	5.0858e-06	4.6922e-06	1351.6	365.23	6.5804e-06	4.1538e-06	415.53	139.29	122.11	41.516	5.3077e-06	51.291	0.00071617	0.00052226	0.00016489	1374.3	5.8507e-06	5.9091e-06	1375.5	372.84	6.141e-06	5.615e-06	426.28	142.85	124.27	42.797	6.0255e-06	52.953	494.917	241.143	239.199	166.911	299.328	301.694	166.529	171.138	280.626	308.602	170.700	174.897	175.073	180.692	273.584	179.424	-8191	255	
28843.766	1	1	0	0	0.19087	0.21968	0.20029	0.136	0.044779	0.15319	0.36102	0.50915	0.11767	0.1665	0.086727	0.10958	0.24173	0.13772	0.10088	0.384	-1.7792	-3.0458	-2.425	-2.4896	-2.9854	-2.3458	-2.8125	-2.9625	-2.2646	-2.9979	-2.7271	-2.675	-3.1958	-2.3854	-2.6792	-3.2167	254.097	327.077	275.083	199.456	395.622	356.103	485.617	431.069	328.784	354.856	366.959	403.792	490.192	511.964	219.125	385.462	0.0010885	0.00057305	0.00012852	1352.3	5.8441e-06	4.3771e-06	1346.2	365.65	6.4099e-06	5.6937e-06	417.52	139.82	121.95	41.475	4.7751e-06	51.239	0.00071505	0.00054769	0.00014857	1376.1	6.0905e-06	6.0221e-06	1374.2	373.56	6.188e-06	5.9114e-06	426.12	143.3	124.19	42.771	6.1537e-06	53.005	494.447	239.462	248.299	167.012	283.267	301.764	166.564	171.290	277.214	297.940	170.747	175.024	175.361	180.318	283.859	179.383	-8191	255	
28843.885	1	1	0	0	0.22403	0.27403	0.13069	0.12249	0.17736	0.07912	0.42165	0.22795	0.084807	0.087175	0.1991	0.1327	0.045566	0.46316	0.10358	0.17001	-1.6896	-3.0458	-2.4437	-2.6708	-3.1458	-2.3083	-2.8167	-3.1021	-2.3312	-3.15	-2.9396	-2.5771	-3.2021	-2.3729	-2.8354	-3.0375	274.371	316.893	437.839	472.713	504.810	407.198	487.170	397.393	249.797	395.152	451.187	356.642	309.414	473.359	293.508	415.242	0.0011104	0.00054065	0.00013624	1359.1	4.9412e-06	4.8549e-06	1350.5	364.6	7.0587e-06	4.4183e-06	417.53	140.31	121.84	41.198	5.3208e-06	51.19	0.00072948	0.00054624	0.0001523	1378	5.8623e-06	6.0833e-06	1374.9	372.69	6.2664e-06	5.7641e-06	426.3	142.98	124.2	42.696	6.1449e-06	52.978	494.265	243.661	243.117	166.993	291.308	299.919	166.607	171.306	280.232	297.890	170.730	174.762	175.062	180.155	281.385	179.446	-8191	255	
28843.980	1	1	0	0	0.10012	0.21117	0.073571	0.099408	0.1652	0.21477	0.30556	0.48736	0.18387	0.13672	0.25425	0.10721	0.14653	0.12074	0.12215	0.14568	-1.7146	-3.0208	-2.7667	-2.4833	-3.1104	-2.5958	-2.8354	-3.3063	-2.3104	-3.0583	-2.9625	-2.3521	-3.2062	-2.5792	-2.5563	-3.1625	230.576	162.663	241.311	210.135	326.237	358.279	484.224	468.313	479.931	406.134	434.945	202.064	427.422	223.371	475.389	440.203	0.0010681	0.00060618	0.00013354	1349.6	5.6925e-06	3.2211e-06	1349.2	366.26	7.5269e-06	5.4816e-06	415.46	140.13	122.22	41.381	5.7662e-06	51.347	0.00071277	0.00056188	0.00015212	1373.8	5.766e-06	6.2926e-06	1376.2	373.01	6.1037e-06	6.0095e-06	426.1	143.19	124.45	42.746	6.1037e-06	52.996	495.262	241.630	235.597	166.892	275.193	311.196	166.698	171.567	268.008	295.434	170.775	174.922	175.066	180.460	282.864	179.310	-8191	255	
28844.076	1	1	0	0	0.11789	0.14062	0.23682	0.021862	0.086502	0.18552	0.23319	0.44459	0.25004	0.14141	0.28229	0.14097	0.12299	0.16112	0.16099	0.09373	-1.8687	-2.8125	-2.9396	-2.3146	-3.1604	-2.6667	-2.6479	-3.2521	-2.3729	-2.8333	-3.1458	-2.4125	-3.1	-2.875	-2.4583	-3.275	176.716	386.160	391.508	438.730	467.420	502.897	465.133	442.111	481.273	476.199	481.091	485.148	497.731	168.246	412.957	328.221	0.0010768	0.00057532	0.00013244	1347.5	4.025e-06	4.811e-06	1345.1	364.54	8.1179e-06	4.7992e-06	417.76	139.94	122.08	41.268	6.0055e-06	51.302	0.0007096	0.00057343	0.00015048	1374.8	6.0009e-06	6.4408e-06	1374.7	373	6.2298e-06	6.0781e-06	426.31	142.84	124.5	42.694	6.1384e-06	52.976	494.450	251.216	254.399	166.781	281.085	300.577	166.541	171.426	275.533	302.062	170.802	174.948	175.475	180.357	272.716	179.601	-8191	255	
28844.174	1	1	0	0	0.043848	0.079023	0.26447	0.12005	0.10582	0.14483	0.39413	0.29168	0.14509	0.30753	0.21088	0.16791	0.13562	0.2551	0.12712	0.2134	-1.9813	-2.6521	-3.0375	-2.5792	-2.8167	-2.7479	-2.5833	-3.2583	-2.3125	-2.6937	-3.2792	-2.1875	-3.0083	-2.8812	-2.2708	-3.1312	168.009	373.317	262.694	435.071	453.440	239.363	410.661	463.819	296.885	432.558	187.407	435.386	495.816	497.727	437.633	490.925	0.0011012	0.00046084	0.00015427	1348.6	3.9832e-06	3.8429e-06	1351.1	365.03	7.7676e-06	5.5034e-06	416.74	139.48	122.51	41.374	5.6419e-06	51.38	0.00070692	0.00058651	0.00015278	1373.6	5.8963e-06	5.998e-06	1375.6	372.88	6.2992e-06	6.2466e-06	426.12	142.77	124.48	42.786	6.2666e-06	52.996	492.191	254.644	247.358	167.045	284.957	311.315	166.607	171.293	276.096	310.281	170.967	174.926	175.440	180.466	279.364	179.595	-8191	255	
28844.270	1	1	0	0	0.09744	0.18949	0.27077	0.27584	0.10354	0.31452	0.2488	0.26047	0.085977	0.22997	0.1025	0.30821	0.18353	0.23548	0.063497	0.25766	-2.2188	-2.5312	-3.0521	-2.3792	-2.6917	-2.9125	-2.4771	-3.1917	-2.55	-2.6167	-3.3458	-2.6646	-2.8292	-3.0708	-2.3771	-3.0979	417.900	208.344	249.017	483.835	158.867	407.721	429.270	464.507	379.202	509.699	424.437	459.183	309.345	488.923	256.075	449.434	0.0011732	0.00040962	0.00015235	1351.3	6.0646e-06	4.45e-06	1351.7	365.17	6.6709e-06	4.9278e-06	417.83	139.62	121.95	41.421	6.0065e-06	51.368	0.00072435	0.0005659	0.00015148	1374.6	6.1204e-06	6.0045e-06	1376.5	373	6.0559e-06	6.2012e-06	427.01	142.74	124.28	42.869	5.9917e-06	52.989	494.637	255.632	242.049	166.870	291.492	299.995	166.617	171.281	277.164	308.864	170.989	174.764	175.373	180.494	294.286	179.745	-8191	255	
28844.365	1	1	0	0	0.10745	0.10149	0.16354	0.14081	0.20885	0.31068	0.071913	0.27337	0.14181	0.34447	0.21187	0.2977	0.07493	0.078105	0.18278	0.066669	-2.2229	-2.4	-3.2042	-2.4938	-2.8375	-3.1917	-2.5187	-3.2333	-2.8292	-2.5083	-3.4062	-2.5583	-2.8125	-3.1542	-2.3812	-3.1042	466.492	286.466	345.963	233.286	382.354	437.788	449.591	462.533	335.266	344.434	174.405	161.654	265.937	488.638	439.655	439.852	0.0011173	0.00047371	0.00012911	1351.8	3.2791e-06	4.6085e-06	1352.8	365.3	7.1123e-06	6.1287e-06	418.22	140.18	121.67	41.491	5.0822e-06	51.527	0.00072006	0.00053148	0.00014934	1374.6	5.8855e-06	5.8294e-06	1374.5	372.93	6.0112e-06	6.1364e-06	427.15	142.93	124.21	42.824	6.1546e-06	53.085	496.146	240.181	250.454	166.939	297.669	289.864	166.491	171.497	295.527	301.596	170.925	174.892	175.385	180.527	284.250	179.763	-8191	255	
28844.486	1	1	0	0	0.17487	0.090435	0.1414	0.19649	0.079792	0.15135	0.24	0.31241	0.090737	0.1791	0.14661	0.072881	0.074068	0.18235	0.05738	0.1357	-2.3521	-2.5771	-2.9604	-2.5479	-2.6021	-3.1479	-2.55	-3.1479	-2.8854	-2.2125	-3.2354	-2.8458	-2.5417	-3.2479	-2.425	-3.0104	156.523	389.154	268.942	172.703	354.264	179.455	457.599	470.551	511.663	269.075	493.940	332.888	184.345	385.174	222.069	444.874	0.0010722	0.0005295	0.0001347	1347.1	4.3062e-06	4.6581e-06	1348.6	365.73	6.6052e-06	5.4319e-06	416.95	139.71	122.23	41.502	5.2897e-06	51.257	0.00069698	0.00054424	0.00014435	1374.1	6.4365e-06	6.0416e-06	1373.2	373.65	6.0485e-06	6.5578e-06	426.38	142.87	124.38	42.824	6.2287e-06	53.068	493.400	223.439	237.776	166.811	288.554	296.752	166.559	171.452	267.122	311.418	170.832	174.929	174.813	180.622	273.613	179.610	-8191	255	
28844.582	1	1	0	0	0.31686	0.092352	0.017727	0.059695	0.20337	0.15939	0.29003	0.10744	0.15222	0.13879	0.26867	0.25106	0.068874	0.12186	0.22273	0.37075	-2.4542	-2.3833	-3.0458	-2.7625	-2.4125	-3.1917	-2.5625	-3.075	-2.9771	-2.3458	-3.2	-2.6792	-2.5125	-3.1667	-2.3063	-2.9229	272.485	244.104	402.555	181.960	294.078	477.422	457.749	460.027	437.696	279.262	449.085	414.137	462.350	397.917	351.509	470.698	0.0010657	0.00048875	0.00011293	1352.1	4.7669e-06	4.6609e-06	1348.5	365.8	8.3266e-06	4.894e-06	414.71	140.55	122.64	41.479	4.9245e-06	51.475	0.00070972	0.00056445	0.0001423	1376.2	6.2481e-06	5.8202e-06	1376.5	373.8	6.0701e-06	6.3763e-06	426.36	143.18	124.6	42.802	6.2175e-06	53.174	493.216	244.907	249.936	166.773	291.234	285.793	166.564	171.424	275.541	288.378	171.030	175.008	175.354	180.578	289.521	179.586	-8191	255	
28844.678	1	1	0	0	0.085094	0.19299	0.093045	0.44711	0.097087	0.18401	0.30015	0.12133	0.20121	0.14885	0.11362	0.012147	0.50927	0.26756	0.23562	0.018696	-2.5208	-2.2167	-3.0833	-2.8292	-2.4375	-3.1229	-2.6	-2.8708	-3.0458	-2.3208	-3.3104	-2.7875	-2.4708	-3.3021	-2.3833	-2.7458	175.094	383.582	427.414	472.120	286.586	272.656	464.663	451.780	216.407	319.751	237.801	484.304	477.937	488.735	207.785	213.822	0.0011216	0.00049811	0.00014272	1350.8	4.6311e-06	5.3928e-06	1347.6	364.95	4.9562e-06	5.2556e-06	417.16	140.54	122.69	41.612	5.984e-06	51.306	0.00070523	0.00058394	0.0001526	1374.7	6.2506e-06	5.8026e-06	1372.6	372.99	5.7395e-06	6.292e-06	426.42	143.15	124.39	42.844	6.2223e-06	53.052	494.118	250.400	243.594	166.879	297.708	303.422	166.455	171.618	269.247	299.186	170.966	174.894	175.181	180.500	293.040	179.695	-8191	255	
28844.799	1	1	0	0	0.025411	0.18603	0.060685	0.072216	0.11985	0.23453	0.37071	0.18598	0.11726	0.068838	0.22046	0.3107	0.2874	0.15335	0.34406	0.15823	-2.8167	-2.1854	-3	-3.1167	-2.4604	-3.1771	-2.8771	-2.4562	-3.1292	-2.3729	-2.8917	-2.8771	-2.4104	-3.0979	-2.7479	-2.6917	464.229	278.749	383.636	454.017	394.256	228.874	455.467	470.919	194.973	445.413	482.653	498.544	163.282	215.983	407.597	445.611	0.0010583	0.00051962	0.00013663	1358.8	4.5252e-06	4.9214e-06	1350	366.62	7.5684e-06	4.2944e-06	416.59	139.75	121.98	41.426	4.722e-06	51.361	0.00068929	0.00053525	0.00014649	1377	6.1992e-06	5.9165e-06	1373.4	373.78	5.7686e-06	6.4587e-06	426.58	142.96	124.29	42.773	6.0941e-06	53.064	495.161	232.694	237.967	166.943	282.530	286.960	166.489	171.523	271.725	303.501	171.066	174.718	175.227	180.472	278.412	179.461	-8191	255	
28844.869	1	1	0	0	0.12208	0.086965	0.23159	0.082296	0.21135	0.069168	0.18271	0.27379	0.11964	0.16283	0.18132	0.12016	0.046259	0.0095764	0.2738	0.1294	-2.7375	-2.2188	-2.7292	-3.0438	-2.2854	-2.9729	-2.7938	-2.5083	-3.1333	-2.4188	-2.7271	-3.0146	-2.3396	-3.1562	-2.8187	-2.5708	242.283	323.874	297.649	229.228	229.337	208.507	497.004	480.624	429.440	501.558	501.978	448.446	456.907	510.526	259.246	493.412	0.001076	0.00044385	0.00013515	1353.7	4.8562e-06	5.3816e-06	1343	366.48	7.2184e-06	4.501e-06	418.78	140.4	122.51	41.652	5.3221e-06	51.337	0.00070892	0.00056413	0.00015207	1376	6.0822e-06	5.9332e-06	1371.9	373.39	5.7596e-06	6.4133e-06	426.94	143.09	124.54	42.939	6.1384e-06	53.017	493.915	243.968	259.687	166.882	290.272	306.413	166.784	171.472	275.652	282.566	170.840	174.684	175.485	180.506	276.651	179.569	-8191	255	
28844.967	1	1	0	0	0.18293	0.14724	0.21831	0.3093	0.17363	0.17977	0.35152	0.29836	0.20952	0.054714	0.18294	0.16341	0.2435	0.10454	0.11224	0.17075	-2.6167	-2.5125	-2.6354	-3.0938	-2.1729	-2.9792	-2.9979	-2.4979	-3.1229	-2.575	-2.8292	-3.175	-2.4521	-3.0021	-2.8042	-2.3917	465.879	424.689	230.743	204.805	487.446	424.568	465.456	356.281	429.945	451.472	383.620	200.760	178.424	385.913	254.485	455.426	0.0010961	0.00051958	0.00015195	1346.8	4.3059e-06	5.1002e-06	1351.9	366.53	6.4221e-06	4.9668e-06	416.18	140.58	121.99	41.47	4.5349e-06	51.268	0.00069305	0.0005768	0.00015726	1373.8	6.1262e-06	6.174e-06	1375.2	373.81	5.8343e-06	6.304e-06	426.46	143.41	124.58	42.859	5.7981e-06	53.061	493.559	252.884	242.875	166.820	290.054	301.431	166.340	171.188	275.039	311.842	171.092	175.021	175.400	180.401	285.163	179.369	-8191	255	
28845.062	1	1	0	0	0.24098	0.12833	0.13715	0.27269	0.12499	0.074291	0.24301	0.065696	0.13488	0.11666	0.3364	0.113	0.15555	0.13162	0.19545	0.13888	-2.8333	-2.6167	-2.5187	-3.2042	-2.4	-2.7687	-3.0938	-2.6646	-2.9521	-2.6312	-2.6271	-3.2687	-2.4542	-2.8354	-3.0875	-2.4938	323.126	395.783	170.922	175.704	238.846	221.050	436.978	178.580	329.518	254.689	502.512	330.856	350.533	477.064	328.589	492.983	0.0010867	0.00055654	0.00011583	1353.3	5.1515e-06	5.0574e-06	1352	367.71	7.4456e-06	3.8145e-06	415.12	140.05	122.2	41.55	6.0157e-06	51.196	0.00069021	0.00055194	0.00015335	1376.2	6.1311e-06	6.074e-06	1376.8	374.04	6.0126e-06	6.1559e-06	426.28	143.3	124.65	42.87	6.1529e-06	53.056	493.203	238.444	233.373	166.767	287.355	316.052	166.559	171.474	272.607	319.344	170.824	174.976	175.244	180.560	280.428	179.698	-8191	255	
28845.182	1	1	0	0	0.13944	0.21025	0.1168	0.28986	0.1759	0.049796	0.31876	0.27354	0.35404	0.19657	0.11532	0.2148	0.17741	0.14126	0.27256	0.31907	-2.7917	-2.6146	-2.3167	-3.1292	-2.4188	-2.6458	-3.2875	-2.4083	-2.8667	-2.6708	-2.5062	-3.2042	-2.4604	-2.7521	-2.9646	-2.4771	176.932	224.619	246.310	418.379	217.373	312.450	492.325	178.460	418.536	400.408	180.262	436.190	502.949	252.970	314.775	443.346	0.001118	0.00045991	0.00014642	1353.6	5.3661e-06	4.2801e-06	1347.8	365.15	5.924e-06	5.0747e-06	417.99	140.27	121.99	41.571	5.1367e-06	51.342	0.00070736	0.00057753	0.0001615	1378.1	6.0075e-06	5.6914e-06	1376.3	372.61	5.7887e-06	6.0558e-06	426.79	143.27	124.57	42.862	5.9433e-06	52.985	494.529	243.341	241.676	166.751	285.110	308.274	166.664	171.287	265.025	295.512	170.901	175.092	175.635	180.778	288.977	179.601	-8191	255	
28845.277	1	1	0	0	0.2193	0.15116	0.27325	0.12395	0.13905	0.087161	0.13101	0.11987	0.077278	0.19154	0.16906	0.35957	0.10782	0.081782	0.094227	0.19329	-2.5021	-2.8021	-2.2958	-3.1396	-2.525	-2.3479	-3.2812	-2.4521	-2.9062	-3.0083	-2.5583	-3.2	-2.6521	-2.9	-3.0917	-2.4313	402.394	277.226	429.867	203.810	363.525	430.084	390.089	433.075	337.894	316.465	466.720	424.072	153.609	428.701	341.347	461.401	0.0011148	0.00060574	0.0001655	1353.6	5.769e-06	4.7949e-06	1347.1	365.27	5.1901e-06	6.0303e-06	416.25	139.93	121.63	41.434	4.3971e-06	51.656	0.00072042	0.00054793	0.00015471	1378.4	6.4805e-06	6.25e-06	1375.5	373.6	5.9186e-06	5.6835e-06	426.49	143.11	124.19	42.86	5.7675e-06	53.198	495.580	239.392	245.605	166.961	287.400	298.970	166.516	171.540	263.422	308.213	170.987	175.087	175.344	180.596	267.500	179.740	-8191	255	
28845.375	1	1	0	0	0.2113	0.23387	0.20639	0.095687	0.092829	0.20301	0.2123	0.29772	0.21292	0.11024	0.21404	0.17846	0.18601	0.27151	0.094475	0.21734	-2.5875	-2.9083	-2.0875	-3.0229	-2.7479	-2.4333	-3.3146	-2.4979	-2.7146	-3.0375	-2.4938	-3.1542	-2.8208	-2.5167	-3.3896	-2.4229	371.790	511.580	449.025	489.304	169.496	496.009	503.028	475.848	387.281	416.326	464.573	436.256	485.656	408.098	182.291	430.191	0.0010593	0.00052574	0.00013091	1354.4	6.5582e-06	4.43e-06	1354.1	366.14	6.7301e-06	5.3694e-06	416.53	140.17	122.22	41.55	3.7112e-06	51.295	0.0007086	0.00054656	0.00015458	1376.8	6.1162e-06	6.1731e-06	1375.9	373.57	6.1671e-06	5.753e-06	426.28	143.06	124.49	42.888	5.8215e-06	53.065	496.324	248.654	245.966	166.998	289.621	304.992	166.570	171.484	269.046	310.947	171.115	175.160	175.297	180.978	298.232	179.546	-8191	255	
28845.445	1	1	0	0	0.35213	0.15964	0.20875	0.051972	0.32027	0.16695	0.19888	0.18177	0.085396	0.094403	0.14962	0.1937	0.28586	0.16478	0.04772	0.22767	-2.2083	-3.0062	-2.2687	-3.1333	-2.7729	-2.4646	-3.3875	-2.5312	-2.5333	-3.1542	-2.4417	-3.0292	-3.0854	-2.3708	-3.0187	-2.6146	442.993	231.109	246.069	276.285	247.681	425.312	452.593	500.273	321.535	477.564	216.254	399.593	204.130	457.635	241.705	471.787	0.001048	0.00069917	0.00013182	1351.5	5.142e-06	3.741e-06	1353.9	367.5	6.8105e-06	5.2911e-06	414.85	140.32	122.15	41.629	6.2474e-06	51.555	0.00069097	0.00056229	0.00015642	1376.7	5.9503e-06	6.0508e-06	1377.1	373.67	6.203e-06	6.1586e-06	426.28	143.45	124.45	42.919	5.957e-06	53.192	493.786	238.959	241.403	167.088	296.937	313.365	166.590	171.564	269.734	293.788	170.883	175.031	175.373	180.642	284.045	179.320	-8191	255	
28845.566	1	1	0	0	0.12742	0.14369	0.14126	0.15172	0.17343	0.13129	0.25922	0.26028	0.11695	0.059302	0.070537	0.22997	0.20947	0.21977	0.19605	0.22441	-2.2	-2.9458	-2.3375	-2.9875	-2.9479	-2.1542	-3.225	-2.7396	-2.4958	-3.175	-2.4437	-3.0146	-2.9021	-2.4313	-3.0021	-2.875	329.100	413.975	413.270	410.185	418.934	324.414	459.300	411.112	508.580	455.652	420.892	154.301	475.409	186.310	317.077	445.703	0.0010867	0.00051406	0.00018173	1347.8	4.9421e-06	3.8235e-06	1351.3	366.75	6.0443e-06	3.7953e-06	416.08	140.02	122.42	41.456	5.184e-06	51.544	0.00072238	0.00055643	0.00016002	1376.9	5.771e-06	6.2259e-06	1377.3	373.19	6.091e-06	5.9947e-06	426.47	143.13	124.48	42.891	6.1618e-06	53.133	494.323	252.782	251.140	167.259	301.741	297.051	166.746	171.568	272.027	290.598	171.194	174.911	175.233	180.690	292.465	179.507	-8191	255	
28845.662	1	1	0	0	0.18721	0.089646	0.20461	0.32666	0.30528	0.065628	0.11055	0.10745	0.27155	0.30494	0.25942	0.2618	0.33872	0.17351	0.13246	0.27849	-1.9604	-3.0812	-2.3896	-2.7292	-2.8583	-2.3292	-3.2792	-2.9083	-2.5938	-3.0146	-2.6333	-2.5521	-3.1125	-2.275	-2.9354	-2.7938	466.758	207.482	196.920	429.207	427.609	286.345	460.078	375.308	308.146	282.889	502.586	163.304	504.199	408.938	505.030	429.588	0.0011204	0.00038717	0.00012102	1350.2	6.5208e-06	4.381e-06	1354.8	365.2	7.3537e-06	5.2189e-06	417.46	140	122.21	41.596	5.5118e-06	51.463	0.00072964	0.00052868	0.00016122	1375.3	6.1793e-06	6.3639e-06	1377.3	373.43	6.4739e-06	6.0642e-06	427.07	143.32	124.66	42.896	6.132e-06	53.171	494.467	261.715	235.013	166.990	298.860	305.556	166.880	171.255	286.651	299.046	171.330	175.266	175.204	180.531	276.345	179.791	-8191	255	
28845.760	1	1	0	0	0.1441	0.047508	0.15732	0.031741	0.10989	0.19583	0.15278	0.24226	0.29791	0.20987	0.23425	0.34422	0.16142	0.18813	0.1556	0.33148	-2.1104	-3.0271	-2.4833	-2.65	-3.0604	-2.2646	-3.2687	-2.9917	-2.4208	-3.1583	-2.6896	-2.6833	-3.0604	-2.45	-2.8042	-3.0563	401.990	179.189	359.963	478.047	323.380	442.558	510.146	418.093	477.415	263.110	435.913	462.810	513.042	416.920	313.426	496.960	0.0011044	0.00046587	0.00012337	1356.5	3.2863e-06	5.0117e-06	1349.6	364.91	6.4746e-06	5.5387e-06	415.78	140.77	121.86	41.462	4.7815e-06	51.384	0.00073973	0.00054528	0.00016705	1376.2	5.781e-06	6.5585e-06	1374.6	372.87	6.2679e-06	6.5254e-06	425.82	143.29	124.34	42.837	6.415e-06	53.058	494.562	231.476	240.773	167.008	290.212	311.280	166.718	171.668	273.294	309.145	170.912	175.367	175.308	180.572	296.332	179.643	-8191	255	
28845.879	1	1	0	0	0.024527	0.090996	0.12817	0.20189	0.3626	0.15286	0.2866	0.24863	0.30997	0.070493	0.28122	0.09731	0.10247	0.25292	0.10036	0.027754	-1.7833	-3.0062	-2.5208	-2.5771	-2.8375	-2.4521	-2.925	-3.2146	-2.2667	-3.0021	-2.6771	-2.6729	-3.1292	-2.5396	-2.7667	-3.0563	257.453	314.947	240.941	436.520	398.511	389.611	461.958	413.194	495.881	196.737	173.866	293.861	255.845	503.571	394.273	197.085	0.001089	0.0005277	0.00014447	1352.3	6.5879e-06	4.3051e-06	1356.3	366.17	6.6932e-06	4.3924e-06	416.64	139.75	122.22	41.373	5.6765e-06	51.294	0.00073144	0.0005675	0.00015701	1376	6.4133e-06	6.5835e-06	1377.3	373.62	6.5411e-06	6.2976e-06	425.95	142.99	124.41	42.811	6.6271e-06	52.98	495.613	237.994	228.312	167.133	286.714	317.291	166.685	171.385	275.630	324.439	171.096	175.097	175.304	180.596	273.033	179.579	-8191	255	
28845.975	1	1	0	0	0.19342	0.11406	0.10674	0.32069	0.081321	0.026195	0.12307	0.37604	0.17568	0.13446	0.19941	0.19974	0.10614	0.44595	0.18644	0.15758	-1.8	-3.0417	-2.7333	-2.5062	-3.0833	-2.3771	-2.7083	-3.1208	-2.4083	-2.8688	-2.9542	-2.425	-3.1437	-2.5125	-2.6271	-3.2167	179.252	376.156	386.993	488.736	412.897	258.797	325.389	478.207	450.335	219.187	399.452	498.847	344.400	471.295	424.516	471.043	0.0010972	0.00057665	0.00015007	1356.1	6.0897e-06	5.4268e-06	1352.3	365.55	7.1474e-06	4.0717e-06	415.54	139.25	122.08	41.28	5.5314e-06	51.215	0.00073741	0.00059164	0.00017372	1377.6	6.2938e-06	6.7215e-06	1375.9	373.34	6.6754e-06	6.4531e-06	426.02	142.75	124.33	42.68	6.9787e-06	53.02	494.319	254.629	248.176	166.932	275.303	302.251	166.666	171.208	276.476	312.788	170.799	174.819	175.457	180.547	296.253	179.577	-8191	255	
28846.070	1	1	0	0	0.26783	0.11796	0.075871	0.09491	0.17949	0.30103	0.17142	0.36327	0.10367	0.16005	0.2338	0.16094	0.11549	0.15399	0.18727	0.043391	-1.8375	-2.8438	-2.9625	-2.2812	-3.1	-2.5042	-2.6417	-3.2667	-2.3063	-2.7438	-3.0833	-2.2354	-3.2812	-2.6708	-2.2875	-3.3583	224.466	369.516	369.822	486.773	326.211	184.464	460.888	404.381	233.364	413.570	485.060	465.155	498.607	407.451	223.535	432.341	0.0011354	0.00060541	0.00013834	1356.6	5.8052e-06	3.6273e-06	1350.1	365.48	6.0927e-06	3.9795e-06	415.26	139.95	122.55	41.564	5.1964e-06	51.443	0.0007548	0.00062846	0.00016594	1377.8	6.3701e-06	6.7595e-06	1375	373.03	6.6463e-06	6.6523e-06	426.58	143	124.4	42.907	6.8416e-06	53.011	495.950	240.540	233.728	166.761	286.898	288.435	166.631	171.486	268.393	274.067	170.941	174.844	175.112	180.172	283.916	179.266	-8191	255	
28846.168	1	1	0	0	0.45744	0.15014	0.16942	0.055073	0.10543	0.17951	0.13276	0.11612	0.09495	0.14717	0.19103	0.050602	0.23364	0.21401	0.10753	0.15859	-1.9229	-2.625	-2.8	-2.3958	-3.0417	-2.6229	-2.6958	-3.0896	-2.3521	-2.6021	-3.0854	-2.3083	-2.9292	-2.9125	-2.3958	-3.4021	422.719	350.459	206.347	467.998	159.732	501.265	403.000	508.701	409.344	483.494	472.628	223.049	449.671	163.014	350.195	471.844	0.0010719	0.00052353	0.00012688	1348.2	4.8179e-06	4.4949e-06	1352.9	365.61	7.7947e-06	3.6275e-06	417.15	140.09	121.87	41.457	6.534e-06	51.181	0.00073749	0.00058795	0.0001661	1374	6.3676e-06	6.6854e-06	1376.9	373.08	6.8971e-06	6.9273e-06	426.74	142.96	124.55	42.798	7.0626e-06	53.019	494.655	254.123	249.568	166.931	298.872	301.147	166.469	171.285	272.081	318.546	170.786	174.819	175.424	180.448	284.345	179.466	-8191	255	
28846.264	1	1	0	0	0.25162	0.25108	0.17946	0.26002	0.097275	0.097136	0.21983	0.4776	0.043794	0.23403	0.23867	0.26018	0.17832	0.10265	0.37387	0.10588	-2.0292	-2.6813	-3.0542	-2.5333	-2.8021	-2.8604	-2.5354	-3.2521	-2.5354	-2.6063	-3.2438	-2.3937	-3	-3.0333	-2.1646	-3.0542	256.686	298.988	406.286	507.664	461.331	387.171	452.154	457.209	186.950	453.282	511.082	446.022	499.942	511.898	320.137	181.441	0.0011532	0.00057778	0.00015743	1352.3	6.0215e-06	4.924e-06	1348.3	365.35	6.7864e-06	5.2852e-06	417.26	140.14	121.91	41.318	4.995e-06	51.167	0.00077996	0.00062998	0.00016448	1377.8	6.8655e-06	6.8818e-06	1375.1	373.03	6.8463e-06	6.8523e-06	426.62	143.11	124.41	42.772	6.6182e-06	52.995	491.807	251.372	239.502	166.862	289.785	297.666	166.291	171.386	276.164	300.035	170.757	174.900	175.257	180.437	280.710	179.601	-8191	255	
28846.359	1	1	0	0	0.19691	0.17895	0.13838	0.26872	0.028945	0.24202	0.30392	0.2114	0.12465	0.24394	0.11305	0.13474	0.063469	0.22438	0.20359	0.29124	-2.3979	-2.2938	-3.0583	-2.3083	-2.7833	-2.7	-2.3917	-3.2396	-2.6542	-2.5083	-3.1646	-2.3458	-2.7333	-3.1729	-2.3208	-3.0771	172.541	221.156	291.693	498.090	219.301	438.322	410.987	457.512	417.880	377.291	349.157	477.915	439.608	493.902	342.516	424.532	0.0010927	0.00052862	0.0001254	1350	5.4234e-06	5.4909e-06	1347.5	364.87	7.1623e-06	5.2936e-06	417.69	140.21	121.65	41.448	5.223e-06	51.195	0.00074779	0.00062814	0.00017097	1375.1	6.6033e-06	6.3695e-06	1372.9	372.86	6.8724e-06	7.2135e-06	426.73	142.85	124.36	42.814	6.7602e-06	52.978	495.486	239.290	229.049	166.856	290.422	305.489	166.465	171.278	263.823	301.778	170.874	174.742	175.541	180.389	280.269	179.446	-8191	255	
28846.479	1	1	0	0	0.23393	0.059341	0.30326	0.31733	0.20445	0.31196	0.23196	0.21752	0.038867	0.22015	0.083558	0.12327	0.066506	0.20098	0.10751	0.11249	-2.1937	-2.3125	-2.9771	-2.6042	-2.6437	-3.15	-2.3917	-2.9938	-2.7333	-2.3104	-3.2208	-2.3667	-2.575	-3.0917	-2.3958	-2.9708	204.909	450.541	206.041	484.923	408.230	358.437	508.209	457.906	175.643	247.403	208.110	489.815	231.124	447.391	491.642	189.994	0.001065	0.00058967	0.00016786	1350	6.4644e-06	4.2451e-06	1348.7	367.11	7.0844e-06	5.2864e-06	415.63	139.96	122.19	41.398	5.5181e-06	51.428	0.00073665	0.0006299	0.00016553	1376.6	7.2372e-06	6.6826e-06	1374	373.43	6.4694e-06	6.8662e-06	426.31	143.08	124.4	42.866	6.7158e-06	53.203	492.596	249.729	221.784	166.566	291.174	292.384	166.490	171.342	269.425	303.986	170.777	174.715	175.319	180.557	272.451	179.697	-8191	255	
28846.574	1	1	0	0	0.021958	0.12679	0.18145	0.13139	0.081356	0.14212	0.44478	0.13212	0.072354	0.20993	0.28344	0.20523	0.20114	0.078017	0.13155	0.36137	-2.3312	-2.475	-3.0958	-2.6063	-2.5771	-2.9958	-2.5417	-2.9625	-3.0167	-2.3333	-3.2479	-2.6646	-2.5354	-3.1354	-2.2271	-2.8375	448.548	220.702	438.156	494.927	214.229	350.037	479.411	506.574	414.423	449.418	435.847	170.843	160.297	172.803	502.603	447.153	0.0010599	0.00058213	0.00017689	1352	7.4206e-06	3.9366e-06	1345.4	365.94	6.5625e-06	4.5984e-06	417.68	140.06	122.52	41.672	4.6613e-06	51.103	0.00070343	0.00063544	0.00016737	1375	6.8995e-06	6.5288e-06	1374.5	373.68	6.5694e-06	6.6245e-06	426.93	143.23	124.68	42.896	6.6618e-06	53.075	494.277	240.545	247.309	166.855	302.775	300.437	166.434	171.267	277.326	291.523	171.097	174.708	175.127	180.463	285.332	179.721	-8191	255	
28846.670	1	1	0	0	0.041014	0.073932	0.17367	0.128	0.092386	0.060692	0.3022	0.19935	0.18645	0.22274	0.18514	0.24929	0.34021	0.39546	0.14886	0.31176	-2.4146	-2.2083	-3.0812	-2.7521	-2.3375	-3.0271	-2.6208	-2.7062	-2.9313	-2.2042	-3.0917	-2.875	-2.3479	-3.3417	-2.4083	-2.7812	500.918	443.916	365.973	494.296	309.606	495.767	442.302	466.642	192.590	210.594	427.326	501.528	447.411	480.105	352.053	370.496	0.0011097	0.00047272	0.00014713	1344.1	4.5354e-06	6.4206e-06	1348.6	367.23	6.5692e-06	3.9731e-06	416.43	139.88	121.82	41.259	4.5852e-06	51.556	0.0007451	0.00064041	0.0001648	1374.2	6.439e-06	6.4482e-06	1374.1	373.6	6.4008e-06	7.0644e-06	426.68	142.93	124.33	42.768	6.5586e-06	53.14	494.227	255.050	237.894	166.822	298.768	299.693	166.432	171.438	277.392	301.418	170.932	175.020	175.314	180.465	283.555	179.547	-8191	255	
28846.742	1	1	0	0	0.19374	0.19972	0.049605	0.18014	0.13169	0.2275	0.12502	0.032266	0.16191	0.22039	0.13723	0.18584	0.35478	0.12115	0.33209	0.15271	-2.7292	-2.2708	-2.7896	-2.9021	-2.4229	-3.0375	-2.4875	-2.8229	-3.0333	-2.1521	-3.0938	-2.9708	-2.3125	-3.1625	-2.4792	-2.6125	501.029	272.296	457.151	479.072	194.554	499.347	414.637	187.989	391.773	463.603	193.526	377.960	454.854	505.878	290.170	400.280	0.0010911	0.00052574	0.00015538	1349.3	4.8177e-06	3.8244e-06	1354.8	366.38	8.2941e-06	4.7492e-06	416.28	140.19	122.82	41.654	4.4442e-06	51.366	0.00073024	0.00064683	0.00017466	1375.3	6.9119e-06	6.5705e-06	1376.6	373.21	6.2701e-06	6.8606e-06	427.24	143.07	124.72	42.875	6.6199e-06	53.122	495.107	246.006	248.629	166.958	270.779	285.076	166.499	171.284	271.188	300.493	170.967	174.643	175.302	180.398	282.729	179.381	-8191	255	
28846.840	1	1	0	0	0.20375	0.18486	0.10281	0.16765	0.1341	0.17995	0.20883	0.052367	0.16653	0.166	0.24627	0.15597	0.22158	0.30021	0.018922	0.13919	-2.6375	-2.275	-2.5625	-2.7979	-2.2479	-3.0625	-2.6479	-2.3729	-3.0979	-2.3	-2.9188	-3.0021	-2.3583	-3.2396	-2.6417	-2.6458	382.240	216.754	279.312	412.840	196.744	424.520	464.709	359.541	469.224	203.369	175.172	418.371	450.895	462.544	208.660	227.766	0.0010928	0.00054481	0.00013236	1349.6	5.3811e-06	5.1348e-06	1349.9	364.85	7.3893e-06	5.2387e-06	416.18	139.31	122.71	41.713	4.8818e-06	51.281	0.00073016	0.00065156	0.00016776	1374.3	6.8074e-06	6.4992e-06	1375.9	373.42	6.4455e-06	6.8514e-06	426.23	142.87	124.84	42.942	6.644e-06	53.168	495.331	257.904	250.583	166.433	285.408	310.526	166.643	171.431	277.856	292.358	170.931	174.805	175.106	180.305	281.296	179.788	-8191	255	
28846.957	1	1	0	0	0.1435	0.11137	0.17014	0.26241	0.14631	0.068713	0.2581	0.38306	0.12239	0.023473	0.27307	0.18245	0.094236	0.24006	0.14744	0.055139	-2.6937	-2.3167	-2.6	-3.0354	-2.2104	-3.1167	-2.9	-2.6271	-3.2438	-2.6625	-2.875	-3.3729	-2.3708	-3.1625	-2.7208	-2.5792	406.658	155.318	167.781	183.926	365.141	465.658	435.993	492.697	346.540	366.058	445.788	191.349	281.591	422.079	489.882	213.085	0.0011456	0.00043357	0.00016168	1359.1	5.7995e-06	6.1056e-06	1348.1	366.03	6.9254e-06	3.361e-06	415.01	140.02	121.91	41.569	4.7809e-06	51.53	0.0007328	0.00063119	0.00017466	1376.6	6.9468e-06	6.7419e-06	1375.4	373.6	6.4843e-06	6.7986e-06	426.52	143.21	124.42	42.886	6.5989e-06	53.168	492.547	249.501	258.712	166.987	292.952	285.581	166.612	171.638	270.537	297.864	171.069	175.094	175.302	180.695	270.904	179.718	-8191	255	
28847.055	1	1	0	0	0.35288	0.18051	0.16015	0.1775	0.078316	0.30856	0.22404	0.088683	0.072728	0.17371	0.20936	0.18574	0.16892	0.07015	0.23441	0.097331	-2.5771	-2.5042	-2.6021	-3.1042	-2.2562	-2.85	-3.1458	-2.3646	-3.0875	-2.5187	-2.5229	-3.3021	-2.3583	-2.8458	-2.9042	-2.2687	237.168	485.049	417.821	473.861	248.883	333.923	457.333	455.292	366.220	490.596	509.787	184.037	504.326	477.676	384.675	411.445	0.001097	0.00056081	0.00014245	1348.6	4.8701e-06	4.7773e-06	1351	365.51	7.8629e-06	5.2144e-06	416.14	140.97	122.01	41.755	5.4572e-06	51.464	0.00072775	0.00062654	0.00017391	1374	6.9427e-06	6.7938e-06	1373.5	373.55	6.3343e-06	6.894e-06	427.06	143.39	124.62	43.009	6.7263e-06	53.254	496.003	249.251	250.929	166.952	288.390	302.521	166.608	171.510	280.007	306.689	171.087	175.058	175.290	180.420	268.021	179.580	-8191	255	
28847.150	1	1	0	0	0.075239	0.14102	0.36484	0.22839	0.031668	0.093397	0.23904	0.20825	0.18428	0.29157	0.1032	0.15333	0.066531	0.19083	0.21702	0.33337	-2.6937	-2.7604	-2.5187	-3.1958	-2.4979	-2.7146	-3.1917	-2.4188	-2.9292	-2.8604	-2.3896	-3.2354	-2.4313	-2.75	-2.9938	-2.2479	259.633	265.538	239.329	172.436	268.627	424.473	498.477	495.717	417.910	375.417	480.173	368.463	434.891	413.817	319.327	437.407	0.0010976	0.00037808	0.00013173	1354	5.0022e-06	5.6366e-06	1356	365.15	8.2367e-06	4.985e-06	417.97	140.39	122.36	41.689	5.8949e-06	51.354	0.00072952	0.00058547	0.00016571	1377	6.6008e-06	6.7048e-06	1377.3	373.57	6.3724e-06	6.3568e-06	427.18	143.52	124.66	42.972	6.8255e-06	53.118	495.301	241.812	238.755	167.131	291.711	289.432	166.599	171.358	279.769	305.211	170.930	174.808	175.089	180.541	291.045	179.808	-8191	255	
28847.271	1	1	0	0	0.18008	0.26666	0.10918	0.13367	0.13267	0.227	0.12293	0.19039	0.096491	0.12968	0.17945	0.24924	0.12233	0.29422	0.22557	0.040444	-2.5583	-2.6708	-2.3292	-3.1437	-2.3229	-2.4979	-3.1688	-2.4604	-2.9271	-2.8771	-2.4667	-3.1188	-2.4625	-2.6667	-3.0896	-2.4833	311.643	399.164	489.637	257.402	328.390	267.221	460.652	457.379	238.754	311.117	405.925	399.916	399.964	507.537	253.558	374.089	0.001176	0.0005232	0.00010315	1350.6	6.5436e-06	5.1869e-06	1351.5	365.69	6.4555e-06	5.0341e-06	416.71	140.4	121.7	41.673	5.873e-06	51.223	0.00073869	0.00060223	0.0001737	1376.3	6.6506e-06	6.6622e-06	1377.3	373.57	6.456e-06	6.3855e-06	427.02	143.5	124.33	42.915	6.2852e-06	53.082	496.982	242.598	228.955	166.880	301.673	297.543	166.626	171.333	280.741	298.758	171.009	175.003	175.145	180.623	288.432	179.331	-8191	255	
28847.344	1	1	0	0	0.062697	0.14277	0.10696	0.17823	0.1717	0.18184	0.098696	0.17719	0.17831	0.083127	0.29239	0.11276	0.059346	0.12962	0.08166	0.088695	-2.3042	-2.875	-2.3563	-3.2646	-2.5146	-2.4813	-3.2625	-2.4229	-2.6104	-2.9938	-2.25	-3.1271	-2.4792	-2.5417	-3.175	-2.5229	374.473	451.393	188.909	159.128	312.364	292.032	513.047	451.758	445.571	336.648	467.357	505.573	461.298	259.798	510.648	425.579	0.0010636	0.00048378	0.00014416	1352	4.1671e-06	4.0283e-06	1354	366.09	6.1744e-06	4.7641e-06	417.69	140.43	122.54	41.46	5.7255e-06	51.435	0.00073032	0.00057007	0.00017532	1375.4	6.4962e-06	6.9735e-06	1376.1	373.31	6.6515e-06	6.6161e-06	427.84	143.36	124.49	42.881	6.3537e-06	53.128	495.188	236.293	237.085	167.118	290.842	295.455	166.763	171.296	273.976	306.250	170.966	175.076	175.411	180.600	274.729	179.344	-8191	255	
28847.439	1	1	0	0	0.23564	0.36757	0.14283	0.086318	0.21296	0.23575	0.25515	0.1935	0.096116	0.30215	0.27857	0.30941	0.13875	0.17739	0.15115	0.10131	-2.4104	-2.8271	-2.2271	-3.0458	-2.6542	-2.4167	-3.4542	-2.6125	-2.6958	-3.1229	-2.4313	-2.9167	-2.6896	-2.4354	-3.0083	-2.6021	185.789	257.188	317.878	440.284	459.197	190.248	453.308	370.458	446.786	335.102	453.351	460.531	490.017	469.178	259.824	336.217	0.0010825	0.00060148	0.00017736	1356.2	4.8606e-06	3.9173e-06	1352.3	364.93	6.6426e-06	5.7307e-06	415.63	140.19	122.53	41.603	5.0063e-06	51.206	0.0007417	0.0005963	0.00016778	1378.3	6.7485e-06	6.2963e-06	1377.1	373.18	6.5881e-06	6.3457e-06	426.77	143.18	124.62	42.873	6.215e-06	53.07	494.616	249.329	236.040	167.077	288.997	306.651	166.423	171.429	269.487	307.824	171.207	175.038	175.057	180.387	283.772	179.619	-8191	255	
28847.561	1	1	0	0	0.087499	0.21802	0.27935	0.38107	0.29612	0.15108	0.27307	0.19836	0.13769	0.26351	0.023677	0.22929	0.32883	0.40724	0.051713	0.15874	-2.2458	-2.9167	-2.2146	-2.8667	-2.6854	-2.3292	-3.3292	-2.5646	-2.5417	-3.0438	-2.3229	-2.9396	-2.8104	-2.3229	-3.2167	-2.8479	279.909	374.454	492.003	498.787	460.895	231.719	407.127	456.687	345.097	188.131	303.664	421.712	474.172	497.035	481.760	440.928	0.0011488	0.00063019	0.00015868	1352.9	5.4935e-06	4.544e-06	1353.1	364.69	6.4446e-06	4.2444e-06	416.83	140.65	121.82	41.672	5.2335e-06	51.332	0.00074695	0.00057825	0.00017095	1375.6	6.4091e-06	6.7715e-06	1378.7	373.23	6.4858e-06	6.455e-06	426.11	143.32	124.43	42.921	6.5142e-06	53.098	495.689	248.741	232.104	166.709	283.788	294.334	166.640	171.456	281.936	303.842	171.249	174.974	175.485	180.467	290.514	179.649	-8191	255	
28847.654	1	1	0	0	0.21611	0.29341	0.25665	0.16626	0.20105	0.15953	0.25504	0.19661	0.16996	0.15825	0.16262	0.25197	0.11575	0.070785	0.17277	0.079919	-2.0083	-2.9	-2.2896	-2.8187	-2.8708	-2.2438	-3.2417	-2.8479	-2.2687	-2.9667	-2.4167	-2.8667	-2.9271	-2.4813	-3.0604	-2.775	458.037	161.010	359.046	364.342	314.339	346.785	483.063	181.648	326.698	220.169	457.599	457.239	499.838	459.700	496.066	389.928	0.0010514	0.0004746	0.00011219	1356	4.5257e-06	5.6435e-06	1355.7	364.87	7.3486e-06	4.1042e-06	417.44	140.03	122.07	41.38	4.4046e-06	51.14	0.00072723	0.00058531	0.00017029	1377.9	6.5552e-06	6.5742e-06	1377.9	373.13	6.662e-06	6.1883e-06	426.61	143.14	124.36	42.826	6.182e-06	52.959	496.637	232.592	249.921	166.912	300.263	301.226	166.557	171.325	280.575	300.716	171.055	174.996	175.381	180.690	276.996	179.581	-8191	255	
28847.750	1	1	0	0	0.18912	0.14966	0.10525	0.070769	0.19535	0.21551	0.1339	0.044724	0.5011	0.23499	0.12913	0.31258	0.26851	0.22037	0.05725	0.2403	-2.0271	-3.1021	-2.5333	-2.7271	-3.0396	-2.2417	-3.1958	-2.9083	-2.2542	-3.0375	-2.4833	-2.6167	-3.125	-2.5021	-2.9146	-2.9708	291.761	233.842	157.179	219.481	420.443	474.487	485.759	382.959	401.728	380.062	192.250	467.612	461.791	424.974	198.533	177.569	0.0010842	0.00054139	0.00014618	1352.6	4.8722e-06	5.4009e-06	1353.1	366.04	6.4845e-06	5.7829e-06	415.02	140.21	122.33	41.507	4.1443e-06	51.773	0.00075348	0.00060536	0.0001627	1375.3	6.288e-06	6.8707e-06	1376	373.58	6.8157e-06	6.3383e-06	426.22	143.53	124.44	42.882	6.3013e-06	53.26	495.528	244.648	247.419	167.067	294.978	302.729	166.721	171.561	264.610	307.436	170.842	175.170	175.473	180.450	291.029	179.685	-8191	255	
28847.848	1	1	0	0	0.31089	0.17088	0.13473	0.33643	0.19736	0.14262	0.11656	0.076239	0.13191	0.35234	0.14559	0.31242	0.18733	0.11585	0.081753	0.096911	-1.7417	-3.0021	-2.4792	-2.5167	-3.0021	-2.3042	-2.9854	-3.0083	-2.1604	-2.9354	-2.8125	-2.425	-3.3063	-2.4062	-2.7188	-2.8792	459.551	353.492	485.797	447.356	349.504	246.424	167.678	449.010	178.805	390.711	473.327	410.990	473.069	157.470	251.779	498.254	0.0010648	0.00044605	0.00016765	1359.8	4.4235e-06	3.4199e-06	1351	366.92	5.869e-06	6.1785e-06	416.97	140.44	122.38	41.391	6.168e-06	51.638	0.0007292	0.00059293	0.00016357	1378.9	6.5668e-06	6.5863e-06	1377.2	373.26	6.5717e-06	6.3874e-06	426.43	143.41	124.58	42.851	6.5368e-06	53.126	493.943	241.758	239.934	167.202	294.285	294.730	166.744	171.239	276.383	293.831	170.727	175.145	175.083	180.527	294.879	179.485	-8191	255	
28847.967	1	1	0	0	0.17249	0.060451	0.26618	0.077563	0.069175	0.048225	0.031038	0.1281	0.18585	0.17706	0.2408	0.12841	0.10214	0.2033	0.079824	0.070469	-1.9667	-3.0312	-2.8187	-2.3229	-3.05	-2.4271	-2.975	-3.1771	-2.3063	-3.0708	-2.8083	-2.4917	-3.15	-2.6042	-2.6188	-3.1813	291.644	194.681	189.445	451.540	299.566	181.888	493.335	389.015	431.951	401.236	486.832	170.542	471.172	160.079	293.933	168.599	0.0010454	0.00056566	0.00013846	1356.1	5.1452e-06	5.0553e-06	1349.7	366.52	6.8032e-06	3.8854e-06	416.48	139.58	122.63	41.512	4.8302e-06	51.329	0.00073569	0.00058458	0.0001691	1379.5	6.2589e-06	6.3575e-06	1375.5	373.32	6.7082e-06	6.7254e-06	426.08	142.96	124.96	42.83	6.7126e-06	53.107	496.577	251.633	243.963	167.021	287.284	285.466	166.790	171.260	261.395	298.862	171.020	174.902	175.199	180.486	293.493	179.640	-8191	255	
28848.039	1	1	0	0	0.17761	0.19504	0.0182	0.077783	0.08385	0.14724	0.32484	0.24539	0.16087	0.18009	0.18942	0.097432	0.24335	0.11752	0.027735	0.05271	-1.6896	-2.9938	-2.9667	-2.4188	-3.3625	-2.5396	-2.7021	-3.2167	-2.275	-2.7583	-2.9125	-2.4813	-3.1917	-2.7438	-2.2875	-3.1667	333.197	468.169	449.686	158.039	362.779	417.705	422.590	417.121	298.205	240.949	497.581	470.133	511.763	456.154	374.204	223.685	0.0011038	0.00056155	0.00015544	1354.9	6.0981e-06	5.2219e-06	1349.9	365.53	5.5996e-06	4.1828e-06	416.9	140.48	122.36	41.468	5.2172e-06	51.344	0.0007417	0.00061667	0.00016259	1376.7	6.5925e-06	6.4399e-06	1374.8	373.29	6.6396e-06	6.4365e-06	426.67	143.26	124.69	42.898	6.6779e-06	53.141	494.444	240.699	245.376	166.923	291.001	294.826	166.840	171.602	279.190	298.457	170.941	175.104	175.283	180.460	290.524	179.853	-8191	255	
28848.135	1	1	0	0	0.099363	0.16723	0.37913	0.30185	0.19405	0.16498	0.16919	0.060738	0.11552	0.080054	0.14745	0.20979	0.34679	0.26475	0.14321	0.12785	-1.9312	-2.7708	-2.7771	-2.3542	-2.9104	-2.6292	-2.5708	-3.1854	-2.325	-2.5104	-3.0396	-2.5125	-3.0146	-2.6771	-2.2	-3.1625	177.884	438.559	460.840	496.456	230.682	434.090	396.524	271.219	323.475	359.790	410.152	196.184	501.934	496.498	232.584	225.594	0.001058	0.0005338	0.00014641	1353.7	4.8081e-06	4.7096e-06	1350	366.29	7.8934e-06	6.0586e-06	417.32	139.96	121.89	41.597	5.0263e-06	51.613	0.00071746	0.00059052	0.00016817	1375.1	6.3353e-06	6.3964e-06	1375.4	373.6	6.6448e-06	6.3726e-06	427.11	143.33	124.51	42.905	6.4932e-06	53.241	495.275	251.068	235.649	166.961	287.556	295.378	166.837	171.381	270.057	311.740	171.125	174.977	175.626	180.701	286.338	179.629	-8191	255	
28848.256	1	1	0	0	0.2	0.14395	0.17116	0.27284	0.20352	0.101	0.37053	0.073537	0.20107	0.15345	0.10143	0.38398	0.15229	0.041058	0.16505	0.066657	-1.9458	-2.6667	-2.9729	-2.4021	-2.975	-2.7062	-2.4667	-3.1146	-2.4375	-2.65	-2.9667	-2.4208	-2.9875	-2.9354	-2.0625	-3.2271	502.024	223.681	357.322	161.400	418.244	239.222	494.680	485.789	275.821	354.330	502.941	461.958	250.542	209.714	390.089	386.319	0.00109	0.00046705	0.00011497	1353.6	5.1137e-06	4.0711e-06	1350.2	367.02	7.2778e-06	5.5456e-06	415.23	140.73	122.04	41.36	5.2926e-06	51.408	0.00073296	0.00058402	0.00016434	1375.1	6.6531e-06	6.3788e-06	1376.7	374.02	6.4858e-06	6.4606e-06	426.43	143.53	124.71	42.829	6.7965e-06	53.083	494.174	239.627	234.780	166.952	284.760	310.727	166.621	171.451	278.029	289.592	171.224	175.105	175.228	180.542	290.395	179.319	-8191	255	
28848.352	1	1	0	0	0.035265	0.05599	0.042297	0.10413	0.11652	0.32613	0.39264	0.28518	0.13756	0.10785	0.19916	0.080225	0.12395	0.077088	0.042758	0.2725	-2.0917	-2.3479	-3.1188	-2.3042	-2.6083	-2.7792	-2.5687	-3.2042	-2.5271	-2.325	-3.3125	-2.4646	-2.8604	-3.0604	-2.1833	-3.2	295.650	243.295	304.138	419.501	253.915	303.810	442.902	506.675	297.094	486.031	169.401	173.346	218.037	483.859	472.052	489.549	0.0011201	0.00048292	0.00010637	1353.6	5.8743e-06	5.6695e-06	1352.8	366.65	7.452e-06	5.005e-06	418.83	139.86	122.28	41.493	5.7653e-06	51.549	0.00075031	0.00058065	0.00015574	1374.8	6.1262e-06	6.6909e-06	1376.3	373.65	6.5254e-06	6.7717e-06	426.89	143.07	124.5	42.871	6.5368e-06	53.202	493.365	249.270	248.954	167.016	286.881	298.197	166.586	171.472	275.121	312.173	171.134	174.716	175.211	180.467	282.998	179.536	-8191	255	
28848.447	1	1	0	0	0.28748	0.43098	0.095117	0.40342	0.14529	0.30218	0.14138	0.048556	0.11686	0.19919	0.19165	0.19719	0.13587	0.10323	0.19321	0.14611	-2.3771	-2.2896	-3.125	-2.5771	-2.6188	-2.8833	-2.3042	-3.1125	-2.7562	-2.2438	-3.1437	-2.5167	-2.5333	-3.1958	-2.275	-2.9917	392.074	230.221	246.373	452.281	436.502	430.495	399.100	357.866	361.594	302.920	489.749	510.914	484.517	483.809	449.323	508.024	0.0010763	0.00054178	0.00012912	1348.3	5.0045e-06	3.7185e-06	1347.5	366.07	6.0428e-06	4.9659e-06	415.77	140.06	122.67	41.546	7.0091e-06	51.494	0.00071088	0.00060504	0.0001605	1374.6	6.5751e-06	6.0499e-06	1373.6	373.53	6.45e-06	6.8403e-06	426.39	143.12	124.48	42.87	6.6473e-06	53.09	494.607	242.781	241.277	166.927	291.204	304.254	166.891	171.575	281.869	306.736	171.334	174.950	175.687	180.607	287.725	179.655	-8191	255	
28848.568	1	1	0	0	0.09518	0.12733	0.12504	0.22861	0.046959	0.25033	0.14969	0.38261	0.1406	0.039243	0.14818	0.30019	0.1643	0.28864	0.087689	0.32371	-2.4813	-2.2604	-3.0458	-2.7062	-2.7625	-3.0458	-2.4854	-3.0062	-2.775	-2.2292	-3.2917	-2.6063	-2.6646	-3.1854	-2.2271	-2.9813	493.847	338.211	167.873	455.033	405.312	471.154	361.774	475.877	190.219	431.293	368.817	429.880	182.250	464.099	308.426	458.315	0.0010836	0.0005005	0.00016616	1348.3	6.7572e-06	5.1417e-06	1358.6	366.06	8.1328e-06	4.1575e-06	417.88	139.97	122.05	41.5	5.2022e-06	51.564	0.00072944	0.00060785	0.00015505	1374.6	6.7335e-06	6.4455e-06	1376.5	373.62	6.5209e-06	6.9755e-06	427.42	143.21	124.45	42.886	6.6215e-06	53.176	496.407	251.003	252.719	167.072	279.892	301.774	166.735	171.597	284.811	299.142	171.019	175.008	175.397	180.741	284.883	179.975	-8191	255	
28848.641	1	1	0	0	0.23229	0.094256	0.21436	0.21294	0.065436	0.18816	0.28451	0.13612	0.24007	0.18525	0.23122	0.056852	0.055565	0.056888	0.1703	0.1588	-2.4146	-2.2812	-3.0979	-2.6854	-2.6292	-3.0375	-2.6542	-2.8229	-2.9188	-2.2313	-3.1333	-2.7792	-2.3958	-3.2104	-2.2458	-2.7729	360.331	480.322	483.323	501.534	391.725	374.609	422.729	174.111	343.794	217.512	155.044	486.388	240.130	162.350	447.412	457.863	0.0010904	0.00051733	0.0001613	1348.7	6.2271e-06	5.1911e-06	1346.4	364.03	6.9011e-06	5.5632e-06	417.24	139.64	122.51	41.493	5.3604e-06	51.609	0.00073412	0.00060295	0.00016678	1375	6.8041e-06	6.4334e-06	1374	372.81	6.4209e-06	6.9301e-06	425.92	143	124.49	42.824	6.619e-06	53.234	495.701	238.564	226.698	166.860	286.357	309.179	166.727	171.810	275.011	291.305	171.050	174.963	175.529	180.727	293.520	180.035	-8191	255	
28848.736	1	1	0	0	0.048032	0.39226	0.29768	0.074	0.23023	0.27691	0.39678	0.048272	0.21246	0.083304	0.45106	0.1564	0.10054	0.11873	0.16445	0.30506	-2.5083	-2.1979	-2.8792	-2.8625	-2.4292	-3.0354	-2.6542	-2.8063	-3.0771	-2.0792	-3.0083	-2.8333	-2.3187	-3.325	-2.5229	-2.5271	275.014	450.918	165.673	367.866	217.299	492.359	378.271	476.265	490.652	347.171	164.944	451.465	487.578	199.386	477.082	475.175	0.0010748	0.00064962	0.00013769	1355.4	4.6427e-06	4.4061e-06	1348.7	367.66	6.2045e-06	4.3999e-06	417.29	140.52	122.19	41.547	5.9395e-06	51.425	0.00072411	0.00060536	0.00016698	1377.9	7.1136e-06	6.6205e-06	1374.3	374.25	6.5552e-06	6.7588e-06	426.77	143.13	124.44	42.841	6.4779e-06	53.186	494.805	245.176	237.152	166.727	300.978	321.854	166.670	171.383	279.433	305.540	171.022	174.927	175.574	180.552	282.673	179.592	-8191	255	
28848.830	1	1	0	0	0.17767	0.15788	0.13921	0.35866	0.066836	0.14248	0.27329	0.27613	0.095389	0.19373	0.19755	0.24917	0.2055	0.16451	0.052587	0.17566	-2.6146	-2.4229	-2.7667	-2.9333	-2.3875	-3.1646	-2.6833	-2.4979	-3.2229	-2.3833	-2.8604	-3.1646	-2.3396	-2.9042	-2.6167	-2.3396	390.594	242.438	252.069	439.904	437.015	300.519	471.418	471.252	207.955	406.071	175.687	468.402	394.743	470.590	244.243	502.553	0.0011063	0.00059947	0.00010072	1351.1	6.4751e-06	5.1302e-06	1348.3	365.89	7.6335e-06	5.7368e-06	416.4	139.92	122.02	41.322	4.2026e-06	51.587	0.00073256	0.00061065	0.00016883	1373.9	7.0497e-06	6.4269e-06	1376.8	373.41	6.4634e-06	6.756e-06	426.41	142.95	124.27	42.772	6.4916e-06	53.088	494.799	244.762	241.074	166.946	291.233	298.983	166.684	171.676	282.029	289.053	171.152	175.149	175.256	180.664	285.940	179.537	-8191	255	
28848.930	1	1	0	0	0.035058	0.20355	0.1762	0.21199	0.11895	0.21523	0.20553	0.34506	0.18117	0.19467	0.15872	0.23668	0.10556	0.29819	0.38149	0.039503	-2.6792	-2.2687	-2.575	-3.0542	-2.2958	-2.9375	-2.9562	-2.3937	-3.1312	-2.4167	-2.6667	-3.1604	-2.3958	-2.8979	-2.7104	-2.55	393.798	438.787	390.259	458.127	243.970	287.703	426.857	460.530	180.987	336.523	337.188	510.353	207.197	485.499	439.803	424.623	0.0010715	0.00052818	0.00014255	1355	5.2046e-06	3.8288e-06	1351.1	364.32	7.2357e-06	4.9173e-06	416.45	140.04	121.49	41.275	4.9147e-06	51.087	0.00071161	0.00061442	0.00016803	1377.6	6.8124e-06	6.4482e-06	1376.6	373.15	6.3545e-06	7.3283e-06	426.23	143.03	124.27	42.764	6.5158e-06	52.846	494.668	234.045	238.860	166.985	303.398	302.972	166.685	171.427	273.530	318.578	171.428	174.871	175.294	180.677	287.148	179.688	-8191	255	
28849.049	1	1	0	0	0.017561	0.21725	0.14473	0.20096	0.075045	0.15436	0.18888	0.43104	0.1896	0.087993	0.20965	0.15136	0.24221	0.22276	0.26219	0.088337	-2.8646	-2.2958	-2.5021	-3.1667	-2.2729	-2.975	-3.1479	-2.4688	-3.0604	-2.4604	-2.7646	-3.4021	-2.3104	-2.9354	-2.8479	-2.3229	389.592	316.075	343.273	491.256	445.366	400.868	376.364	469.584	178.301	445.080	484.389	275.446	450.040	301.549	468.978	357.031	0.0011159	0.00041038	0.00013791	1354.6	5.2428e-06	3.1051e-06	1349.7	364.54	6.9359e-06	5.5899e-06	416.72	139.76	121.81	41.515	5.4105e-06	51.49	0.00072198	0.00061226	0.00017029	1377.9	6.8597e-06	6.2519e-06	1375.9	373	6.4336e-06	6.4911e-06	426.7	142.87	124.37	42.843	6.5013e-06	53.063	494.779	239.624	238.423	166.765	304.473	302.477	166.431	171.306	277.965	306.093	170.711	174.856	174.858	180.655	274.667	179.524	-8191	255	
28849.145	1	1	0	0	0.10155	0.10742	0.27012	0.27022	0.19298	0.045604	0.33198	0.13819	0.21841	0.079551	0.30676	0.13639	0.18271	0.12859	0.19787	0.33985	-2.7188	-2.5083	-2.5979	-3.3104	-2.4458	-2.7667	-3.1521	-2.4146	-3.075	-2.7896	-2.5687	-3.1729	-2.5479	-2.9021	-3.2083	-2.3083	256.593	500.133	264.346	460.555	186.449	503.990	401.047	439.008	481.482	183.404	501.073	489.521	420.950	510.380	157.979	434.638	0.0010376	0.00058492	0.00014697	1350.7	5.4502e-06	3.8945e-06	1348.2	366.82	6.4778e-06	4.3419e-06	415.08	139.85	122.09	41.412	5.1028e-06	51.082	0.0007076	0.00059597	0.00016737	1375.5	6.9335e-06	6.627e-06	1376	373.51	6.7127e-06	6.543e-06	425.72	142.93	124.24	42.791	6.4505e-06	52.975	496.686	245.835	254.065	166.761	292.924	309.844	166.408	171.240	295.119	311.441	171.122	174.927	175.015	180.678	296.425	179.623	-8191	255	
28849.240	1	1	0	0	0.019833	0.20714	0.29013	0.066969	0.041778	0.23369	0.071108	0.46792	0.16302	0.079728	0.2854	0.20741	0.24293	0.21627	0.18878	0.31867	-2.5896	-2.7792	-2.1958	-3.1125	-2.4729	-2.6021	-3.1937	-2.6104	-3.0104	-2.7812	-2.4896	-3.2104	-2.4417	-2.6437	-3.1188	-2.3417	501.952	506.656	396.546	211.851	436.135	310.290	379.122	453.337	341.346	343.289	160.832	323.996	272.625	418.639	277.016	440.406	0.0010673	0.00050227	0.00014118	1357.3	5.773e-06	4.6154e-06	1347.5	364.49	6.3829e-06	4.6133e-06	415.7	140.1	121.7	41.418	6.7032e-06	51.222	0.00071481	0.00058555	0.00017532	1378.6	6.6887e-06	6.8132e-06	1372.6	372.82	6.5664e-06	6.23e-06	425.87	143.08	124.13	42.766	6.2747e-06	52.916	495.696	247.629	245.087	166.705	296.910	284.918	166.736	171.291	273.009	309.096	170.719	174.673	175.126	180.663	273.836	179.276	-8191	255	
28849.336	1	1	0	0	0.17845	0.10746	0.24603	0.080894	0.1167	0.059152	0.31179	0.20339	0.075629	0.12243	0.12616	0.13384	0.20918	0.077739	0.23673	0.18321	-2.3833	-2.8375	-2.2375	-3.1542	-2.5792	-2.3917	-3.2229	-2.5542	-2.8479	-2.8729	-2.3896	-3.0833	-2.5146	-2.5479	-3.0229	-2.45	164.148	394.807	347.049	160.596	392.262	357.546	430.043	411.758	280.487	321.393	189.527	441.859	156.798	437.123	326.790	361.312	0.0010996	0.00053418	0.00014914	1348.7	5.0073e-06	4.5526e-06	1351.6	365.36	7.9017e-06	4.7589e-06	416.14	139.91	121.84	41.547	4.7981e-06	51.278	0.0007316	0.00054833	0.00017614	1374.1	6.6249e-06	6.741e-06	1375.9	373.21	6.647e-06	6.2605e-06	426.29	142.98	124.3	42.753	6.1167e-06	53.048	493.832	231.881	230.283	166.856	288.133	303.863	166.479	171.504	285.633	303.417	170.751	174.969	175.077	180.523	293.799	179.397	-8191	255	
28849.432	1	1	0	0	0.11738	0.13978	0.3688	0.20634	0.25287	0.36471	0.25248	0.10883	0.14864	0.093647	0.028377	0.19159	0.21633	0.22476	0.12573	0.025404	-2.3604	-2.9521	-2.2062	-3.1271	-2.5125	-2.35	-3.3438	-2.4562	-2.6417	-3.0521	-2.3667	-3.0708	-2.75	-2.4188	-2.9771	-2.6375	438.617	329.778	417.129	284.567	481.432	304.439	503.232	456.939	404.531	154.299	199.195	464.163	459.907	475.097	185.544	351.085	0.0010911	0.00054997	0.00015157	1348.6	6.0355e-06	4.7503e-06	1348.6	364.95	5.6105e-06	6.4392e-06	416.46	139.2	121.44	41.408	6.7615e-06	51.031	0.00074089	0.00059493	0.00016566	1374.4	6.663e-06	6.653e-06	1376.2	373.17	6.5955e-06	6.7226e-06	426.42	142.63	124.33	42.742	6.7279e-06	52.834	493.828	241.988	256.254	166.660	272.666	298.428	166.644	171.148	278.283	303.241	170.661	174.910	174.908	180.644	289.302	179.501	-8191	255	
28849.527	1	1	0	0	0.25715	0.12853	0.22594	0.27143	0.12914	0.22651	0.1483	0.14317	0.22757	0.17949	0.29028	0.083716	0.19916	0.39678	0.060173	0.097653	-2.2146	-2.8979	-2.3521	-2.9854	-2.5833	-2.2833	-3.0354	-2.4854	-2.5062	-3.2667	-2.35	-2.8708	-2.7625	-2.3937	-3.2021	-2.5208	411.538	235.795	232.477	495.007	238.273	412.298	425.774	482.702	289.193	160.833	451.992	461.308	455.756	482.409	187.061	322.965	0.0010754	0.00060545	0.0001351	1348.8	4.8033e-06	3.982e-06	1350.4	366.05	6.4232e-06	5.233e-06	417.74	140.03	121.97	41.389	6.1921e-06	51.01	0.00074442	0.00057119	0.00016316	1374.3	6.7352e-06	6.5474e-06	1376.1	373.13	6.7232e-06	6.6856e-06	426.88	143.13	124.26	42.801	6.6844e-06	52.858	494.039	243.951	247.244	166.628	294.208	309.599	166.577	171.337	289.660	294.953	170.768	174.951	174.909	180.574	280.483	179.371	-8191	255	
28849.648	1	1	0	0	0.1706	0.23781	0.13542	0.24464	0.16858	0.17792	0.16695	0.11036	0.39198	0.20854	0.2635	0.076988	0.1037	0.17004	0.04446	0.18265	-2.1583	-3.1125	-2.3146	-2.9792	-2.8375	-2.2083	-3.3021	-2.8688	-2.3187	-3.0062	-2.3604	-2.8	-3.1208	-2.3146	-2.825	-2.725	231.361	157.312	266.197	206.843	411.674	393.212	459.888	452.159	169.092	374.644	476.182	404.094	445.020	495.591	272.713	204.909	0.0010557	0.00055461	0.00014753	1354.3	5.0604e-06	4.5143e-06	1355.4	363.64	6.1804e-06	6.3274e-06	416.92	140.28	122.11	41.569	4.781e-06	51.422	0.0007419	0.00058025	0.0001742	1375.5	6.3477e-06	6.6428e-06	1377.6	372.41	6.8075e-06	6.7791e-06	426.02	143.41	124.11	42.815	6.411e-06	52.991	492.819	254.153	238.086	166.842	288.252	316.055	166.619	171.296	274.172	301.387	170.899	175.105	175.221	180.451	283.507	179.650	-8191	255	
28849.742	1	1	0	0	0.20785	0.039478	0.12282	0.18643	0.18964	0.17413	0.12861	0.12244	0.22987	0.097133	0.19024	0.1269	0.17605	0.10814	0.24801	0.081699	-1.8833	-2.9979	-2.2542	-2.7958	-3.2833	-2.2438	-3.1896	-3.0563	-2.2875	-3.0708	-2.575	-2.6417	-3.0333	-2.4938	-2.8438	-2.9	363.068	312.764	451.679	161.306	258.768	484.275	416.648	214.490	260.214	482.011	171.329	445.959	472.160	450.007	359.820	418.797	0.0011225	0.00051254	0.00018814	1354.1	4.8312e-06	5.635e-06	1356.3	365.66	6.088e-06	5.7264e-06	417.22	140.25	122.18	41.506	5.0016e-06	51.293	0.00077047	0.00061202	0.00017343	1376.6	6.5568e-06	6.9568e-06	1379.1	372.84	6.7523e-06	6.6439e-06	426.84	143.24	124.52	42.828	6.6368e-06	52.941	493.804	239.206	252.051	167.127	302.931	308.915	166.627	171.478	269.666	310.390	170.790	174.974	175.263	180.623	281.890	179.681	-8191	255	
28849.840	1	1	0	0	0.25549	0.06174	0.24782	0.2156	0.18408	0.20573	0.17343	0.085628	0.13717	0.063698	0.40046	0.20744	0.11227	0.3313	0.078468	0.31342	-1.8771	-3.0312	-2.475	-2.5417	-2.9479	-2.3021	-3.0062	-3.0646	-2.1125	-3.0833	-2.6979	-2.6396	-3.0938	-2.5604	-2.825	-2.9521	477.890	461.115	284.839	501.576	434.891	496.173	477.042	204.240	210.473	158.017	453.908	424.499	344.348	503.541	202.048	460.279	0.0010938	0.00045749	0.00012982	1353.4	5.3995e-06	5.2768e-06	1355.3	364.29	6.0739e-06	5.4124e-06	416.24	140.21	122.6	41.504	5.562e-06	51.279	0.00074494	0.00059397	0.00017275	1378	6.7535e-06	6.9587e-06	1378.2	372.55	6.6672e-06	6.6411e-06	426.79	143.35	124.29	42.893	6.4553e-06	53.063	494.569	227.758	238.806	167.062	296.832	305.067	166.782	171.727	275.995	297.432	171.372	175.251	175.340	181.170	290.744	180.027	-8191	255	
28849.936	1	1	0	0	0.055672	0.033994	0.0774	0.23289	0.30365	0.12132	0.12019	0.31012	0.3055	0.080111	0.24702	0.29356	0.082258	0.26731	0.26986	0.10197	-2.0229	-3.0792	-2.6021	-2.4604	-3.05	-2.4604	-2.7417	-3.0104	-2.2396	-3.0729	-2.6063	-2.5083	-3.1646	-2.5583	-2.6292	-3.0542	350.162	191.265	249.752	507.588	492.131	421.065	399.688	468.213	230.644	475.826	164.356	193.778	500.216	485.466	297.289	348.291	0.0011261	0.00049155	0.00013628	1355.6	5.9908e-06	5.7103e-06	1357.6	366.57	7.2215e-06	3.2637e-06	417.74	141.91	122.8	41.445	3.9226e-06	51.262	0.00075095	0.00059589	0.00017213	1379.8	6.6182e-06	6.8271e-06	1379.6	373.44	6.6276e-06	6.3568e-06	427.05	143.84	124.76	42.863	6.5384e-06	53.086	493.020	242.755	245.344	167.610	280.998	276.333	167.058	171.841	278.357	293.860	171.003	175.024	175.513	180.848	288.381	180.160	-8191	255	
#DATA ENDS
