BOXY.EXE: ISS Imagent and Oximeter Data Acquisition Program Version 0.80
Ascii Record File

#ACQ INFORMATION
2  Detector Channels 
16  External MUX Channels 
1  Auxiliary Channels 
5000  Waveform (CCF) Frequency (Hz)
1  Waveforms Skipped 
30  Waveforms Averaged 
1  Cycles Averaged 
16  Acquisitions per Waveform 
10.0806  Updata Rate (Hz) 

#FILE INFORMATION
TRUE -- External MUX Channel results are PARSED.
FALSE -- AC DC and Phase are NOT grouped.
TRUE -- Companion Program Settings File CREATED.
FALSE -- AC data not excluded
FALSE -- DC data not excluded
FALSE -- Phase data not excluded
FALSE -- Auxillary Chn. data not excluded
Tab delimiters

#CALIBRATION STATE
TRUE -- Waveform Calibration Values APPLIED.


#AUX CALIBRATION VALUES
Val Type	aux-1	

Term	1.0000e+00	
Factor	0.0000e+00	


#WF CALIBRATION VALUES
A = Detector Channel
Val Type	A-AC1	A-AC2	A-AC3	A-AC4	A-AC5	A-AC6	A-AC7	A-AC8	A-AC9	A-AC10	A-AC11	A-AC12	A-AC13	A-AC14	A-AC15	A-AC16	A-DC1	A-DC2	A-DC3	A-DC4	A-DC5	A-DC6	A-DC7	A-DC8	A-DC9	A-DC10	A-DC11	A-DC12	A-DC13	A-DC14	A-DC15	A-DC16	A-Ph1	A-Ph2	A-Ph3	A-Ph4	A-Ph5	A-Ph6	A-Ph7	A-Ph8	A-Ph9	A-Ph10	A-Ph11	A-Ph12	A-Ph13	A-Ph14	A-Ph15	A-Ph16	

Term	0.00000e+00	0.00000e+00	0.00000e+00	0.00000e+00	0.00000e+00	0.00000e+00	0.00000e+00	0.00000e+00	0.00000e+00	0.00000e+00	0.00000e+00	0.00000e+00	0.00000e+00	0.00000e+00	0.00000e+00	0.00000e+00	0.00000e+00	0.00000e+00	0.00000e+00	0.00000e+00	0.00000e+00	0.00000e+00	0.00000e+00	0.00000e+00	0.00000e+00	0.00000e+00	0.00000e+00	0.00000e+00	0.00000e+00	0.00000e+00	0.00000e+00	0.00000e+00	0.00000e+00	0.00000e+00	0.00000e+00	0.00000e+00	0.00000e+00	0.00000e+00	0.00000e+00	0.00000e+00	0.00000e+00	0.00000e+00	0.00000e+00	0.00000e+00	0.00000e+00	0.00000e+00	0.00000e+00	0.00000e+00	
Factor	1.00000e+00	1.00000e+00	1.00000e+00	1.00000e+00	1.00000e+00	1.00000e+00	1.00000e+00	1.00000e+00	1.00000e+00	1.00000e+00	1.00000e+00	1.00000e+00	1.00000e+00	1.00000e+00	1.00000e+00	1.00000e+00	1.00000e+00	1.00000e+00	1.00000e+00	1.00000e+00	1.00000e+00	1.00000e+00	1.00000e+00	1.00000e+00	1.00000e+00	1.00000e+00	1.00000e+00	1.00000e+00	1.00000e+00	1.00000e+00	1.00000e+00	1.00000e+00	X	X	X	X	X	X	X	X	X	X	X	X	X	X	X	X	

B = Detector Channel
Val Type	B-AC1	B-AC2	B-AC3	B-AC4	B-AC5	B-AC6	B-AC7	B-AC8	B-AC9	B-AC10	B-AC11	B-AC12	B-AC13	B-AC14	B-AC15	B-AC16	B-DC1	B-DC2	B-DC3	B-DC4	B-DC5	B-DC6	B-DC7	B-DC8	B-DC9	B-DC10	B-DC11	B-DC12	B-DC13	B-DC14	B-DC15	B-DC16	B-Ph1	B-Ph2	B-Ph3	B-Ph4	B-Ph5	B-Ph6	B-Ph7	B-Ph8	B-Ph9	B-Ph10	B-Ph11	B-Ph12	B-Ph13	B-Ph14	B-Ph15	B-Ph16	

Term	0.00000e+00	0.00000e+00	0.00000e+00	0.00000e+00	0.00000e+00	0.00000e+00	0.00000e+00	0.00000e+00	0.00000e+00	0.00000e+00	0.00000e+00	0.00000e+00	0.00000e+00	0.00000e+00	0.00000e+00	0.00000e+00	0.00000e+00	0.00000e+00	0.00000e+00	0.00000e+00	0.00000e+00	0.00000e+00	0.00000e+00	0.00000e+00	0.00000e+00	0.00000e+00	0.00000e+00	0.00000e+00	0.00000e+00	0.00000e+00	0.00000e+00	0.00000e+00	-1.96768e+02	-1.29699e+02	-1.34807e+02	-1.86339e+02	-7.54990e+01	-7.41266e+01	-1.58506e+02	-1.62015e+02	-8.93850e+01	-6.60437e+01	-1.71896e+02	-1.71132e+02	-1.83122e+02	-1.77420e+02	-7.77319e+01	-1.49721e+02	
Factor	4.32825e-05	1.44022e-04	4.41656e-05	2.97642e-01	1.53383e-06	1.64817e-06	1.64269e-01	5.16134e-02	1.72359e-06	1.70877e-06	8.37101e-02	2.83187e-02	3.98013e-02	9.20130e-03	1.82911e-06	1.31369e-02	6.94130e-06	8.10315e-06	2.27153e-06	1.56454e-01	8.77933e-08	8.93870e-08	8.17851e-02	2.74120e-02	8.57484e-08	8.94539e-08	4.31033e-02	1.45842e-02	2.12693e-02	4.93711e-03	8.74364e-08	6.82897e-03	X	X	X	X	X	X	X	X	X	X	X	X	X	X	X	X	



#DISTANCE SETTINGS
A = Detector Channel
A-1	A-2	A-3	A-4	A-5	A-6	A-7	A-8	A-9	A-10	A-11	A-12	A-13	A-14	A-15	A-16	

2.5000e+00	3.0000e+00	2.5000e+00	3.0000e+00	2.0000e+00	3.0000e+00	1.5000e+00	3.0000e+00	3.0000e+00	3.0000e+00	3.0000e+00	3.0000e+00	3.0000e+00	3.0000e+00	1.5000e+00	3.0000e+00	

B = Detector Channel
B-1	B-2	B-3	B-4	B-5	B-6	B-7	B-8	B-9	B-10	B-11	B-12	B-13	B-14	B-15	B-16	

1.0000e+01	1.0000e+01	1.0000e+01	1.4400e+00	1.0000e+01	1.0000e+01	1.5100e+00	1.9400e+00	1.0000e+01	1.0000e+01	1.9900e+00	2.4900e+00	2.4100e+00	2.9000e+00	1.0000e+01	2.9800e+00	




#DATA BEGINS
time	group	step	mark	flag	A-AC1	A-AC2	A-AC3	A-AC4	A-AC5	A-AC6	A-AC7	A-AC8	A-AC9	A-AC10	A-AC11	A-AC12	A-AC13	A-AC14	A-AC15	A-AC16	A-DC1	A-DC2	A-DC3	A-DC4	A-DC5	A-DC6	A-DC7	A-DC8	A-DC9	A-DC10	A-DC11	A-DC12	A-DC13	A-DC14	A-DC15	A-DC16	A-Ph1	A-Ph2	A-Ph3	A-Ph4	A-Ph5	A-Ph6	A-Ph7	A-Ph8	A-Ph9	A-Ph10	A-Ph11	A-Ph12	A-Ph13	A-Ph14	A-Ph15	A-Ph16	B-AC1	B-AC2	B-AC3	B-AC4	B-AC5	B-AC6	B-AC7	B-AC8	B-AC9	B-AC10	B-AC11	B-AC12	B-AC13	B-AC14	B-AC15	B-AC16	B-DC1	B-DC2	B-DC3	B-DC4	B-DC5	B-DC6	B-DC7	B-DC8	B-DC9	B-DC10	B-DC11	B-DC12	B-DC13	B-DC14	B-DC15	B-DC16	B-Ph1	B-Ph2	B-Ph3	B-Ph4	B-Ph5	B-Ph6	B-Ph7	B-Ph8	B-Ph9	B-Ph10	B-Ph11	B-Ph12	B-Ph13	B-Ph14	B-Ph15	B-Ph16	aux-1	digaux	

21315.441	1	1	0	256	0.16453	0.16081	0.36754	0.11169	0.072967	0.088888	0.21831	0.29547	0.089088	0.27692	0.29193	0.051865	0.29942	0.089027	0.32848	0.15693	-1.8396	-1.8604	-2.6521	-2.1104	-2.3354	-2.7083	-1.9438	-2.6417	-2.3125	-1.9854	-2.7812	-2.0187	-2.2042	-2.6146	-1.9083	-2.5604	210.994	-30.149	46.408	102.704	271.554	200.325	238.334	231.867	170.124	267.413	-70.632	270.497	264.255	124.729	-77.250	214.083	0.00023423	0.00040579	0.00019196	944.37	2.3495e-06	3.4412e-06	1013.6	200.72	2.4172e-06	3.1938e-06	249.92	71.566	57.002	16.848	2.6404e-06	23.586	0.00032307	0.00032402	9.0166e-05	947.36	3.6162e-06	3.4807e-06	1014.5	202.49	3.413e-06	3.5155e-06	252.25	73.211	58.052	17.359	3.4548e-06	24.4	100.555	-74.720	2.961	-76.968	43.604	4.471	-76.692	-69.203	86.948	72.668	-69.276	-62.666	-62.111	-55.234	100.082	-55.427	-8191	255	
21315.539	1	1	0	0	0.12603	0.31563	0.090178	0.4206	0.12202	0.1404	0.2414	0.056635	0.14258	0.28793	0.15681	0.23116	0.10558	0.26917	0.15991	0.21333	-1.8375	-1.9458	-2.7583	-2.1542	-2.1458	-2.6937	-2.0583	-2.6333	-2.5667	-1.9917	-2.7104	-2.1875	-2.0958	-2.7292	-1.9479	-2.45	-79.209	-42.759	245.994	187.621	50.116	183.563	82.420	-11.380	173.626	222.027	-39.430	222.361	209.955	14.409	173.085	-66.278	0.00014241	0.00057999	7.6615e-05	949.09	8.1466e-07	3.5345e-06	1013.9	200.28	2.0589e-06	3.9982e-06	250.86	71.549	56.491	16.882	3.5706e-06	23.507	0.00029749	0.00031303	8.8566e-05	943.91	3.5094e-06	3.5911e-06	1014.6	201.88	3.5571e-06	3.6333e-06	251.86	73.16	58.01	17.341	3.4033e-06	24.324	119.096	2.149	-26.417	-76.930	262.599	36.837	-76.906	-69.059	80.445	35.470	-69.343	-62.773	-62.834	-55.442	43.055	-55.605	-8191	255	
21315.658	1	1	0	0	0.12236	0.3106	0.23869	0.067947	0.19127	0.088799	0.21327	0.075686	0.037102	0.13383	0.3623	0.24228	0.15141	0.13586	0.13095	0.15591	-1.9042	-1.6792	-2.6083	-2.1021	-1.9188	-2.6729	-1.8542	-2.4292	-2.625	-1.8083	-2.6542	-2.3542	-1.9479	-2.6146	-1.9542	-2.3667	-16.928	-27.706	35.263	199.345	-24.937	-27.034	248.361	-27.584	160.140	-86.777	194.805	254.978	64.420	21.635	114.531	-66.552	0.0001834	0.0001459	0.00010727	944.85	3.5471e-06	4.0335e-06	1030.7	204.46	1.1648e-06	3.7912e-06	254.32	72.713	57.132	17.094	3.5937e-06	24.107	0.00030309	0.00031273	8.8803e-05	941.39	3.5772e-06	3.4459e-06	1019.1	202.91	3.5246e-06	3.4798e-06	252.72	73.4	58.078	17.379	3.42e-06	24.45	130.292	-25.451	-33.146	-76.800	98.038	104.659	-77.119	-69.453	47.476	84.681	-70.125	-63.437	-63.479	-55.719	64.067	-56.054	-8191	255	
21315.730	1	1	0	0	0.23784	0.17198	0.11514	0.11836	0.32913	0.16086	0.19264	0.42938	0.18099	0.095527	0.070042	0.15256	0.27838	0.20898	0.16561	0.2958	-2.2146	-1.8333	-2.4833	-2.3729	-2.0354	-2.6729	-2.1667	-2.3667	-2.7083	-1.9021	-2.5958	-2.3667	-1.925	-2.7646	-2.0729	-2.3896	165.094	116.202	267.585	27.810	14.030	112.695	218.153	261.627	-71.762	174.816	266.092	206.055	222.137	100.508	118.164	173.989	0.00010984	0.00042722	6.051e-05	958.72	1.5045e-06	1.2701e-06	1022.7	203.77	1.8348e-06	1.1957e-06	254.01	72.117	57.217	17.014	2.9726e-06	23.896	0.00030747	0.00031881	8.5149e-05	943.88	3.4142e-06	3.3462e-06	1014.8	202.29	3.2283e-06	3.443e-06	251.81	73.11	57.762	17.3	3.3512e-06	24.379	97.345	19.564	-25.635	-77.369	70.040	110.981	-77.336	-69.770	37.563	38.305	-69.678	-63.584	-63.320	-55.543	77.355	-56.351	-8191	255	
21315.826	1	1	0	0	0.2583	0.091693	0.24001	0.095101	0.24097	0.052679	0.073527	0.20204	0.17422	0.31025	0.24552	0.28956	0.34588	0.051739	0.051027	0.15786	-2.1813	-1.8542	-2.6	-2.1729	-1.7625	-2.7417	-2.2292	-2.0792	-2.7021	-1.9042	-2.6312	-2.4917	-2.0458	-2.7438	-1.9208	-2.0292	173.979	163.691	-15.057	267.734	97.409	-54.307	212.506	255.314	216.117	125.616	222.100	148.045	190.717	221.064	264.972	225.083	0.00012935	0.00034787	4.4185e-05	965.65	1.8482e-06	5.7304e-06	1027.2	203.33	7.8353e-07	1.7076e-06	251.97	72.47	57.157	17.003	4.8827e-06	23.704	0.00029991	0.00032009	8.725e-05	945.4	3.5386e-06	3.3421e-06	1014.2	202.14	3.3449e-06	3.5057e-06	251.64	73.219	57.598	17.311	3.471e-06	24.211	91.985	18.693	-43.969	-77.420	102.628	64.400	-77.120	-69.705	124.766	93.711	-69.813	-63.704	-62.965	-55.197	20.134	-56.244	-8191	255	
21315.924	1	1	0	0	0.2134	0.082118	0.13641	0.02768	0.12568	0.12401	0.22616	0.21102	0.20191	0.12218	0.012642	0.078161	0.13322	0.14567	0.31166	0.2471	-2.2396	-1.9688	-2.4375	-2.5229	-1.7292	-2.5479	-2.2125	-1.9625	-2.7625	-1.9271	-2.4125	-2.6979	-1.8021	-2.5458	-2.275	-1.9792	42.042	93.493	128.098	161.736	95.791	-32.888	145.052	219.639	110.048	36.240	265.700	-16.507	-72.118	266.616	-24.321	127.790	0.00019166	0.00022069	6.2386e-05	955.13	1.6317e-06	3.9855e-06	1025.9	202.6	4.2215e-06	2.5735e-06	251.22	72.241	57.331	17.14	4.3459e-06	24.05	0.00030796	0.00032671	9.0691e-05	941.26	3.6912e-06	3.6084e-06	1012.5	201.53	3.9037e-06	3.9621e-06	251.27	73.302	58.044	17.373	4.3456e-06	24.463	127.670	-30.647	-47.172	-77.172	53.274	80.055	-77.094	-69.687	-25.115	112.450	-69.682	-63.278	-63.098	-55.712	44.973	-56.144	-8191	255	
21316.043	1	1	0	0	0.10958	0.27074	0.14467	0.25672	0.12102	0.073025	0.24229	0.30758	0.20247	0.091514	0.28457	0.11356	0.22648	0.091408	0.085774	0.14924	-2.2146	-2.0875	-2.1271	-2.6813	-1.7771	-2.5396	-2.5375	-2.1021	-2.7521	-2.0521	-2.3854	-2.7708	-1.975	-2.5771	-2.4875	-2.0146	143.973	-45.784	113.016	202.378	28.263	167.677	240.831	72.569	164.871	136.242	180.627	121.708	237.586	216.488	-48.825	234.550	0.00019065	0.00042559	0.00013918	971.55	1.2784e-06	4.8262e-06	1037	203.59	3.1645e-06	5.5997e-06	254.45	73.439	57.826	17.188	2.6307e-06	24.301	0.00037606	0.00040666	0.00011268	955.22	4.4498e-06	4.296e-06	1027.3	203.34	4.1918e-06	4.3497e-06	253.52	73.837	58.488	17.465	4.2126e-06	24.64	98.128	31.520	-7.975	-77.121	21.227	71.391	-77.141	-69.679	41.126	70.784	-69.769	-63.278	-62.665	-55.599	12.350	-56.009	-8191	255	
21316.139	1	1	0	0	0.11697	0.13951	0.36005	0.15315	0.21305	0.11889	0.12379	0.31853	0.078993	0.040743	0.21807	0.228	0.091036	0.1854	0.047415	0.0094954	-2.2458	-2.1271	-2.0187	-2.6104	-1.7208	-2.5208	-2.5187	-1.9604	-2.5708	-2.2125	-2.1854	-2.8542	-2.0479	-2.3604	-2.4625	-1.8646	156.125	270.733	118.231	216.427	-45.973	137.468	252.802	110.996	-15.503	178.104	254.999	-35.158	94.406	-67.500	120.733	145.792	0.00013326	0.0003221	0.00013554	967.56	5.9703e-07	2.9356e-06	1036	204.76	2.1678e-06	2.0091e-06	256.02	72.987	57.769	17.218	1.9115e-06	24.025	0.00036623	0.00038696	0.00010997	953.56	4.3255e-06	4.3289e-06	1026.6	203.66	4.1808e-06	4.3079e-06	254.54	73.729	58.376	17.548	4.2011e-06	24.567	114.155	-59.094	16.219	-77.235	72.128	51.073	-77.051	-69.798	-39.939	94.226	-69.730	-63.586	-63.236	-55.745	65.063	-55.950	-8191	255	
21316.234	1	1	0	0	0.11752	0.24762	0.14775	0.19537	0.11307	0.18865	0.23775	0.15373	0.18285	0.068608	0.23362	0.20564	0.13325	0.12244	0.33914	0.24287	-2.1937	-2.2833	-2.0146	-2.9292	-1.9458	-2.3542	-2.8375	-1.9146	-2.4479	-2.2625	-1.8563	-2.6708	-2.0396	-2.3	-2.8604	-1.8417	115.439	174.809	223.151	148.178	12.842	227.203	197.091	-36.653	215.578	45.370	180.438	81.279	220.141	232.969	152.804	182.463	9.5955e-05	0.00059525	4.1045e-05	966.6	2.4039e-06	2.327e-06	1033.7	203.64	1.5926e-06	4.7895e-06	252.88	72.675	57.407	17.26	1.3631e-06	23.924	0.00036155	0.00039341	0.00010847	956.2	4.2474e-06	4.3502e-06	1027.1	203.66	4.3914e-06	4.4246e-06	253.56	73.573	58.394	17.572	4.6201e-06	24.59	132.507	-1.513	-9.824	-77.159	-66.072	33.342	-77.086	-69.166	260.133	97.097	-69.911	-63.430	-62.443	-55.177	3.195	-55.572	-8191	255	
21316.330	1	1	0	0	0.10535	0.30501	0.3061	0.029289	0.12293	0.22928	0.30871	0.035826	0.09785	0.27029	0.32326	0.070094	0.2227	0.35048	0.1761	0.39764	-2.1333	-2.3688	-1.9417	-2.7146	-2.2042	-2.1813	-3.0167	-1.925	-2.4313	-2.4729	-1.9229	-2.8604	-2.3583	-2.0812	-2.6167	-2.1208	28.913	-82.947	-60.375	136.098	-33.715	74.514	216.986	27.256	5.473	11.330	-87.386	-21.286	-59.384	67.985	1.259	226.908	0.00016049	0.00034829	7.3791e-05	968.86	2.316e-06	6.3169e-06	1047.3	204.96	1.4499e-06	2.426e-06	255.99	73.524	57.178	17.272	8.586e-06	24.253	0.00041772	0.00045703	0.00012932	961.65	5.1483e-06	5.2338e-06	1037.3	205.11	5.2607e-06	5.2496e-06	255.91	74.402	58.85	17.641	5.0977e-06	24.886	107.262	-1.582	-5.743	-77.176	131.012	68.383	-77.331	-69.408	261.842	39.411	-70.045	-62.997	-62.553	-55.356	74.901	-56.265	-8191	255	
21316.426	1	1	0	0	0.084958	0.24995	0.25678	0.0977	0.15051	0.22532	0.048551	0.19527	0.11746	0.25775	0.15263	0.21508	0.022399	0.027245	0.33827	0.23266	-2.2292	-2.3458	-1.8958	-2.875	-2.2458	-1.9917	-2.9604	-2.1167	-2.3563	-2.6875	-1.8958	-2.7667	-2.2292	-2.0375	-2.7604	-1.9708	-79.893	-27.763	147.622	267.661	108.917	-47.723	130.012	-64.879	28.984	-77.296	90.932	135.407	67.352	-35.969	181.152	223.099	0.00022149	8.1887e-05	7.7837e-05	976.58	4.2626e-06	3.9314e-06	1049.1	206.47	1.8715e-06	4.171e-06	256.07	73.39	57.978	17.427	3.2663e-06	24.252	0.00043989	0.00046028	0.00013356	970.25	5.1985e-06	5.1809e-06	1043	206.54	5.1097e-06	5.1773e-06	256.7	74.513	59.114	17.78	5.166e-06	24.865	115.230	-54.827	45.686	-76.882	113.499	47.702	-76.918	-69.553	100.348	89.361	-69.694	-63.181	-62.766	-55.397	73.839	-56.146	-8191	255	
21316.523	1	1	0	0	0.26713	0.10984	0.017515	0.1449	0.18462	0.15031	0.11268	0.11202	0.19039	0.058396	0.46185	0.15941	0.11131	0.23685	0.084206	0.28481	-1.9229	-2.6229	-2.0292	-2.6083	-2.4396	-2.1958	-2.9667	-2.1292	-2.2042	-2.775	-2.0187	-2.5771	-2.4417	-1.8271	-2.6667	-2.1083	-78.250	-77.020	72.911	-68.740	66.913	25.242	146.514	-71.239	180.506	211.741	236.628	155.261	-57.994	-13.314	173.860	184.784	0.00017808	0.00064788	8.8023e-05	971.88	4.0785e-06	4.8447e-06	1050.5	205.29	2.1243e-06	4.5875e-06	254.59	73.332	57.936	17.226	7.6587e-06	24.501	0.00046113	0.00048416	0.00013678	969.43	5.255e-06	5.2954e-06	1044.6	206.04	5.2098e-06	5.1533e-06	256.44	74.625	59.313	17.702	5.1352e-06	24.935	116.913	-3.002	-0.815	-77.213	83.666	58.495	-77.100	-69.629	14.384	60.855	-69.973	-63.134	-62.685	-55.751	59.079	-56.438	-8191	255	
21316.643	1	1	0	0	0.057732	0.039728	0.20073	0.13942	0.30749	0.15306	0.046114	0.10433	0.20595	0.16266	0.24355	0.10872	0.13956	0.17381	0.16367	0.068771	-1.7917	-2.4854	-1.9583	-2.55	-2.5417	-1.8563	-2.8021	-2.2354	-2.1917	-2.8146	-2.125	-2.2812	-2.6146	-2.1188	-2.7958	-2.2188	261.501	-58.682	72.631	243.277	67.535	123.540	44.641	-28.449	155.619	38.367	-14.102	106.932	181.164	130.753	14.064	-5.770	0.00014666	0.00020269	0.00011212	990.93	3.9233e-06	1.4735e-06	1057.3	207.84	2.0256e-06	4.6386e-06	259.38	74.375	58.991	17.323	5.539e-06	24.328	0.00043964	0.00047501	0.00013343	975.55	5.186e-06	5.2798e-06	1046.6	206.93	5.097e-06	5.1093e-06	258.59	75.105	59.634	17.731	5.2336e-06	24.93	131.567	50.612	-38.931	-77.798	14.403	38.555	-77.260	-69.712	42.906	71.363	-70.027	-63.902	-63.770	-55.586	38.940	-56.427	-8191	255	
21316.738	1	1	0	0	0.17555	0.15768	0.34455	0.24703	0.22293	0.26215	0.10495	0.042636	0.232	0.16429	0.12499	0.16425	0.078253	0.18049	0.055887	0.11567	-1.7083	-2.7646	-2.0771	-2.3979	-2.4208	-2.0229	-2.6125	-2.4667	-2.0125	-2.6125	-2.0167	-2.4333	-2.6521	-1.9771	-2.5396	-2.5958	86.284	259.639	178.456	214.293	-62.819	125.552	216.743	-76.793	6.715	-70.275	10.935	241.777	241.224	104.024	93.499	159.847	0.00015315	0.00032051	3.9174e-05	998.41	2.4137e-06	5.9677e-06	1062.7	207.96	3.0331e-06	3.9698e-06	258.38	73.957	58.966	17.51	2.6362e-06	24.061	0.00044617	0.0004723	0.00013168	979.35	5.1032e-06	5.0472e-06	1050.6	207.39	4.9698e-06	5.0398e-06	258.01	74.935	59.631	17.816	4.6403e-06	24.892	141.493	-28.908	-39.740	-77.286	125.787	80.939	-77.488	-69.745	135.456	7.445	-70.153	-63.272	-63.042	-55.698	85.518	-56.506	-8191	255	
21316.834	1	1	0	0	0.41229	0.15461	0.25954	0.073995	0.17211	0.11385	0.056035	0.10812	0.13265	0.1303	0.19022	0.09871	0.068473	0.040942	0.081037	0.26558	-1.625	-2.5667	-1.9646	-2.4313	-2.6458	-1.8396	-2.6833	-2.5125	-1.8438	-2.7229	-2.3312	-2.0896	-2.6521	-1.8042	-2.425	-2.5146	59.922	0.011	-79.743	44.112	-30.911	-31.697	-43.949	46.510	88.121	-33.921	129.722	-24.415	237.045	153.962	-23.798	145.483	0.00015811	0.00022253	4.8148e-05	996.97	3.3126e-06	3.3842e-06	1059.5	208.6	1.4879e-06	4.1984e-06	259.08	74.41	59.122	17.496	4.7909e-06	24.352	0.00040079	0.00042753	0.00012131	980.02	4.5907e-06	4.8087e-06	1050.4	207.46	4.595e-06	4.5635e-06	258.09	75.153	59.684	17.824	4.6008e-06	24.917	107.945	-45.021	-28.783	-77.169	34.493	90.106	-77.433	-69.822	93.994	67.437	-69.749	-63.097	-63.024	-55.537	41.172	-56.497	-8191	255	
21316.930	1	1	0	0	0.1359	0.15114	0.22518	0.16995	0.14233	0.16228	0.25583	0.12551	0.10143	0.081122	0.15235	0.13531	0.26844	0.045068	0.060616	0.14171	-1.6042	-2.7917	-2.1521	-2.0042	-2.9021	-1.9604	-2.7042	-2.6417	-1.9062	-2.8187	-2.3979	-2.0625	-2.8563	-1.9813	-2.3292	-2.6125	236.172	-19.842	137.194	110.679	156.324	14.961	-42.939	240.536	109.752	177.577	258.012	-58.800	49.051	142.507	161.813	-60.768	0.00017903	0.00042421	7.9997e-05	993.25	3.5875e-07	1.7058e-06	1063.3	208.23	1.4291e-06	3.1934e-06	259.6	74.556	58.489	17.434	2.4772e-06	24.474	0.00040609	0.00040813	0.00011823	978.34	4.6841e-06	4.701e-06	1050.3	207.54	4.5761e-06	4.5931e-06	258.48	75.2	59.41	17.795	4.6536e-06	24.95	117.409	-1.040	31.323	-77.290	179.099	-31.925	-77.172	-69.571	121.602	28.773	-70.047	-63.522	-63.179	-56.043	42.797	-56.213	-8191	255	
21317.025	1	1	0	0	0.19565	0.25386	0.083372	0.28577	0.19939	0.13416	0.21377	0.18558	0.10398	0.092676	0.087371	0.13123	0.11583	0.26468	0.26985	0.15576	-1.5875	-2.6833	-2.3604	-1.8438	-2.6271	-2.1042	-2.4313	-2.8812	-1.8937	-2.4292	-2.4854	-2.0438	-2.7396	-2.0875	-2.0458	-2.6083	-22.248	174.471	253.024	-54.423	-46.566	110.858	216.830	17.230	168.486	-84.289	-49.506	56.676	179.816	-49.551	-64.029	151.868	0.0001081	0.00026421	8.6618e-05	993.07	2.6533e-06	2.6707e-06	1060.6	209.2	2.1098e-06	1.8389e-06	259.31	74.645	58.512	17.543	3.7927e-06	24.267	0.00040802	0.00042231	0.00011943	979.66	4.4888e-06	4.6388e-06	1048.7	207.48	4.736e-06	4.6717e-06	258.69	75.024	59.679	17.827	4.5778e-06	24.857	106.095	10.978	72.515	-77.419	-9.109	105.590	-77.134	-69.971	-47.833	218.145	-70.420	-63.474	-63.235	-55.985	13.887	-56.417	-8191	255	
21317.121	1	1	0	0	0.20821	0.052607	0.084105	0.16247	0.29481	0.028091	0.36235	0.096317	0.33257	0.36746	0.077368	0.12172	0.15334	0.27735	0.12319	0.21285	-1.4604	-2.5417	-2.3042	-2.0438	-2.8208	-2.3021	-2.3208	-2.8292	-1.8229	-2.3521	-2.8354	-1.9396	-2.7729	-2.3667	-1.9479	-2.7729	32.379	90.679	159.390	215.636	110.363	-58.560	223.614	260.367	130.965	-65.295	45.710	32.735	-48.011	216.777	183.000	166.796	0.00018534	0.00022537	2.5292e-05	988.44	4.2235e-06	3.6271e-06	1059.6	207.64	5.8036e-07	4.6064e-06	260.49	74.211	59.403	17.64	4.0867e-06	24.462	0.00040544	0.00043507	0.00011868	977.11	4.7024e-06	4.706e-06	1048.8	207.14	4.7985e-06	4.698e-06	258.75	75.017	59.895	17.862	4.7427e-06	24.918	128.756	-1.715	-10.945	-77.535	12.105	73.084	-77.225	-69.748	50.929	99.197	-70.049	-63.183	-62.997	-55.660	37.383	-56.213	-8191	255	
21317.219	1	1	0	0	0.33433	0.084546	0.20029	0.37445	0.11434	0.29859	0.48042	0.10502	0.17184	0.27147	0.047251	0.1038	0.16075	0.092607	0.15838	0.21231	-1.425	-2.2438	-2.5167	-2.025	-2.5479	-2.1604	-2.075	-2.8229	-1.9792	-2.3312	-2.5812	-1.8729	-2.8771	-2.3063	-2.0125	-2.8146	227.159	-9.450	184.676	233.344	109.252	254.999	210.934	65.054	137.137	-30.494	260.763	-67.189	-46.860	-18.138	236.015	-57.760	0.0002283	0.00011272	0.00010927	1000.2	3.9629e-06	3.5943e-06	1060.8	209.27	1.7264e-06	3.9192e-06	259.42	74.261	58.707	17.587	3.0527e-06	24.628	0.00040863	0.00042871	0.00012093	979.48	4.6419e-06	4.7113e-06	1049.9	208.08	4.7342e-06	4.7304e-06	258.21	74.917	59.817	17.83	4.6788e-06	24.94	124.754	-67.949	-79.491	-77.295	26.804	48.457	-77.181	-69.367	18.003	76.969	-70.061	-63.378	-63.004	-55.759	59.635	-56.118	-8191	255	
21317.340	1	1	0	0	0.13496	0.20358	0.092976	0.20882	0.089074	0.16777	0.35986	0.11315	0.047639	0.14448	0.08444	0.26611	0.084992	0.04141	0.078891	0.17859	-1.6	-2.2938	-2.4688	-1.9438	-2.8292	-2.5458	-2.2229	-2.5771	-2.2583	-2.0729	-2.7438	-1.9667	-2.4229	-2.45	-1.9562	-2.7604	85.395	127.342	50.531	198.517	255.682	217.641	224.332	234.150	101.165	43.713	262.597	244.808	221.639	259.335	-41.030	180.635	0.0002313	0.00021564	0.00016242	992.52	2.6064e-06	4.6485e-06	1065.4	208.8	1.056e-06	4.2294e-06	259.89	74.091	58.971	17.603	4.8255e-06	24.483	0.00040748	0.00041995	0.00011378	979.31	4.6679e-06	4.6066e-06	1051.2	207.9	4.6704e-06	4.6516e-06	259	74.938	59.676	17.81	4.5749e-06	24.988	127.318	7.259	-1.227	-77.221	68.518	22.830	-76.989	-69.325	27.527	73.477	-69.687	-63.329	-63.241	-55.356	76.224	-56.499	-8191	255	
21317.434	1	1	0	0	0.18675	0.10291	0.18141	0.17747	0.065283	0.089524	0.06952	0.13723	0.059564	0.22059	0.2237	0.27069	0.09863	0.26466	0.13531	0.14704	-1.9188	-2.0354	-2.7396	-1.9104	-2.6208	-2.5729	-1.9958	-2.8458	-2.2417	-2.1479	-2.7208	-2.0333	-2.6312	-2.6104	-1.7583	-2.7583	19.306	5.281	165.937	177.510	225.542	125.333	240.099	-87.679	170.686	217.031	-35.068	137.271	151.434	99.640	-25.384	-71.750	0.00019601	0.00036053	4.1044e-05	993.9	7.2222e-07	1.526e-06	1061.2	208.84	3.1305e-06	3.1431e-06	259.28	74.426	59.125	17.322	5.6714e-06	24.586	0.00038951	0.0004175	0.00011108	980.34	4.634e-06	4.5135e-06	1051.6	207.86	4.4019e-06	4.4768e-06	258.5	74.935	59.632	17.745	4.6288e-06	24.972	81.044	13.241	-16.933	-77.312	25.922	46.283	-76.996	-69.854	90.315	53.306	-70.020	-63.390	-63.149	-56.127	44.457	-55.959	-8191	255	
21317.529	1	1	0	0	0.27136	0.089664	0.25166	0.25757	0.055744	0.22729	0.061042	0.14953	0.22712	0.012234	0.089111	0.42267	0.09829	0.23029	0.23212	0.015389	-1.8083	-1.7313	-2.8625	-1.9937	-2.2687	-2.6667	-2.2125	-2.7687	-2.2833	-2.0854	-2.6646	-1.9521	-2.1542	-2.8083	-2.0146	-2.4979	-13.587	213.009	141.992	248.633	57.810	-84.929	150.902	-50.247	190.668	-25.794	32.306	195.489	105.113	94.687	261.593	-22.739	0.00015712	0.00029473	5.4178e-05	990.75	3.497e-06	1.0237e-06	1065.9	207.24	6.8839e-07	6.4567e-06	259.95	74.424	58.428	17.549	3.0406e-06	24.538	0.00039312	0.00041338	0.0001159	977.72	4.5943e-06	4.5472e-06	1051.7	207.03	4.6102e-06	4.5541e-06	258.76	75.032	59.503	17.8	4.5866e-06	24.951	123.227	-36.916	-14.227	-77.161	56.132	13.290	-76.884	-69.699	-32.522	63.457	-69.750	-63.960	-62.548	-55.229	95.697	-55.787	-8191	255	
21317.604	1	1	0	0	0.24017	0.083773	0.13773	0.1291	0.15067	0.24739	0.21997	0.19309	0.10265	0.20277	0.31493	0.25723	0.054336	0.05119	0.059984	0.26309	-2.1042	-2.0667	-2.8896	-2.0542	-2.0312	-2.8333	-2.1021	-2.5417	-2.4104	-1.8	-2.8312	-2.2188	-2.2687	-2.7292	-2.0833	-2.6063	236.190	173.064	-52.240	245.395	224.842	-15.003	228.827	238.427	21.374	170.313	-26.537	98.767	208.349	219.824	-47.812	189.809	0.00010151	7.7335e-05	0.00014344	995.7	2.1372e-06	2.0549e-06	1059.8	208.73	1.875e-06	4.3601e-06	258.77	74.207	59.125	17.539	4.1415e-06	24.508	0.00039052	0.00040784	0.00011594	979.43	4.5828e-06	4.6042e-06	1048.1	207.73	4.5736e-06	4.6986e-06	259.08	75.03	59.719	17.844	4.8321e-06	25.004	109.801	145.108	-10.080	-77.139	39.631	48.014	-77.011	-69.571	30.586	90.989	-69.885	-63.533	-63.149	-55.451	19.846	-56.012	-8191	255	
21317.723	1	1	0	0	0.22328	0.12145	0.15217	0.12724	0.28433	0.3109	0.25133	0.25847	0.35937	0.052188	0.17178	0.15622	0.086313	0.1728	0.1396	0.16956	-2.2396	-1.8917	-2.6021	-2.2708	-2.0083	-2.6646	-2.1479	-2.3646	-2.4875	-1.9917	-2.6542	-2.4083	-2.0875	-2.6813	-2.1375	-2.4042	272.283	175.745	221.238	35.295	50.270	-50.809	197.426	62.925	-61.277	85.811	5.411	-86.227	-72.855	-11.082	28.057	152.678	0.00014305	0.00048233	9.8452e-05	987.83	2.6871e-06	9.2122e-07	1064.8	208.11	2.5489e-06	3.8126e-06	260.67	74.337	58.068	17.405	4.2725e-06	24.299	0.00041597	0.00043717	0.00012623	978.42	4.925e-06	4.6317e-06	1051	208.06	4.6997e-06	4.9692e-06	259.32	75.121	59.407	17.806	4.7587e-06	24.908	104.439	22.674	19.178	-77.328	45.841	51.545	-77.104	-69.506	-68.659	79.455	-69.980	-63.609	-62.913	-54.949	57.196	-55.971	-8191	255	
21317.818	1	1	0	0	0.11783	0.13998	0.1834	0.17171	0.37567	0.14612	0.10052	0.22515	0.13736	0.094569	0.15548	0.24895	0.19564	0.070816	0.20866	0.31238	-2.3333	-1.9125	-2.5938	-2.4729	-1.7729	-2.6646	-2.1208	-2.2208	-2.6437	-2.1271	-2.7313	-2.6312	-1.8479	-2.6792	-1.9875	-2.0521	197.508	247.685	225.225	57.997	22.462	63.316	102.504	195.955	40.699	128.684	136.335	219.679	-14.278	14.543	174.811	244.919	9.8131e-05	5.6808e-05	0.00012438	993.31	3.5404e-06	3.5096e-06	1061.6	208.41	1.6235e-06	2.513e-06	259.92	73.881	58.975	17.381	2.905e-06	24.369	0.00041301	0.00043576	0.00012178	981.6	4.929e-06	4.698e-06	1052.1	207.68	4.7814e-06	4.8359e-06	259.72	74.956	59.746	17.803	4.9576e-06	24.868	162.579	-41.641	4.875	-76.895	95.565	117.386	-77.187	-69.360	224.964	180.096	-69.873	-63.562	-62.844	-55.289	95.350	-56.588	-8191	255	
21317.914	1	1	0	0	0.14639	0.11335	0.045529	0.18339	0.37393	0.25564	0.14224	0.24978	0.17011	0.22774	0.22184	0.29568	0.30333	0.18405	0.22495	0.25545	-2.1896	-1.8625	-2.4375	-2.4271	-1.8792	-2.6896	-2.3104	-2.1417	-2.6583	-1.7854	-2.4271	-2.6854	-1.8458	-2.6521	-2.1667	-2.0396	270.823	-3.584	115.374	244.490	23.735	193.952	187.930	-50.594	43.134	172.244	204.521	240.415	78.533	220.950	110.369	128.172	0.0001358	0.00029371	5.1732e-05	994.84	9.1894e-07	1.8653e-06	1065	209.21	3.3416e-06	3.4201e-06	259.51	74.643	58.403	17.499	1.6338e-06	24.434	0.00041714	0.00044854	0.00012639	981.98	4.9497e-06	5.0029e-06	1051	208.22	4.9252e-06	4.9684e-06	259.42	75.169	59.675	17.832	4.9773e-06	24.908	132.095	42.507	4.111	-77.294	97.399	-7.397	-77.359	-69.590	31.199	30.959	-70.010	-63.549	-62.839	-55.601	11.296	-56.079	-8191	255	
21318.010	1	1	0	0	0.17704	0.09929	0.17629	0.16116	0.15854	0.10428	0.22732	0.26853	0.078686	0.2394	0.12747	0.23399	0.15435	0.19903	0.14331	0.20385	-2.2917	-2.0146	-2.3375	-2.7	-1.8375	-2.6229	-2.45	-2.1188	-2.8187	-1.9625	-2.1604	-2.6792	-1.8583	-2.6312	-2.4688	-1.9604	111.884	123.704	-29.578	-48.813	31.699	160.806	-72.402	-59.649	231.712	-46.203	179.078	120.334	259.096	-77.277	118.033	-37.854	0.00013803	0.00036903	0.00010983	999.78	5.3802e-07	5.7091e-06	1066.3	209.28	2.8101e-06	1.4326e-06	258.79	74.236	58.962	17.494	5.8947e-06	24.461	0.00042018	0.00045519	0.00013105	982.33	5.0256e-06	4.9925e-06	1054.3	208.15	4.8934e-06	5.1294e-06	259.59	75.106	59.712	17.831	5.2422e-06	24.967	111.039	41.250	26.264	-77.047	54.233	95.492	-77.211	-69.535	79.666	68.131	-69.797	-63.481	-63.028	-55.509	73.810	-56.077	-8191	255	
21318.131	1	1	0	0	0.28697	0.10873	0.10339	0.19071	0.20943	0.27129	0.12888	0.23063	0.20408	0.14895	0.16631	0.012364	0.29676	0.19418	0.021696	0.23815	-2.2917	-2.0812	-2.2479	-2.7354	-2.0104	-2.5875	-2.6708	-1.9917	-2.6437	-2.2	-2.0938	-2.7417	-2.1813	-2.3771	-2.2604	-1.9583	80.924	244.634	169.590	-56.177	-47.898	157.888	250.712	-12.688	-8.246	124.589	217.363	-18.434	258.653	130.924	149.988	113.665	0.00013781	0.00038766	6.1025e-05	1002	2.2264e-06	4.5031e-06	1067.5	209.55	3.5298e-06	3.89e-06	259.77	74.656	58.812	17.568	5.2635e-06	24.379	0.00044887	0.00048641	0.00013356	987.49	5.4543e-06	5.3027e-06	1056.4	208.45	5.2923e-06	5.367e-06	259.39	75.321	59.849	17.896	5.2491e-06	24.959	113.986	21.042	16.571	-77.126	-12.714	131.848	-77.364	-69.827	-7.233	97.312	-69.879	-63.164	-63.631	-55.627	66.637	-56.689	-8191	255	
21318.227	1	1	0	0	0.11818	0.051221	0.11185	0.29757	0.19852	0.0967	0.11801	0.079262	0.052662	0.17324	0.21074	0.051145	0.022283	0.15225	0.13383	0.17309	-2.3375	-2.1875	-2.0458	-2.7375	-2.0854	-2.3563	-2.625	-1.9375	-2.5375	-2.2875	-2.1729	-2.5875	-2.1813	-2.2917	-2.3854	-1.9562	70.655	-55.737	112.240	232.615	182.669	22.646	238.568	185.138	-9.884	118.711	271.838	66.196	42.206	191.471	-48.829	67.105	0.00016828	0.00045158	0.00010304	998.59	5.6492e-06	3.7539e-06	1074	210.43	1.9821e-06	8.9419e-07	259.42	74.91	58.957	17.597	3.2621e-06	24.585	0.00045129	0.0004887	0.00013763	989.54	5.3594e-06	5.3882e-06	1061.3	208.9	5.1976e-06	5.3298e-06	260.06	75.399	59.901	17.913	5.2855e-06	25.046	101.718	0.093	-14.150	-77.128	91.999	68.941	-77.217	-69.433	-53.305	114.315	-70.136	-63.790	-62.966	-55.906	98.207	-56.307	-8191	255	
21318.322	1	1	0	0	0.089313	0.095735	0.25775	0.3056	0.10967	0.27308	0.085207	0.10105	0.17776	0.062234	0.17421	0.10204	0.074151	0.1812	0.03476	0.28543	-2.1083	-2.3458	-1.9979	-2.8	-2.1	-2.2667	-2.8271	-1.9542	-2.4917	-2.3729	-1.9979	-2.6437	-2.1792	-2.1292	-2.6729	-1.9479	168.639	-60.374	193.522	-68.718	247.836	176.393	187.476	225.633	165.708	-10.934	141.986	69.227	-27.563	186.712	221.997	118.584	0.00012545	0.00018304	0.000103	1006.7	1.0824e-06	9.4614e-07	1073.1	209.9	3.0794e-06	2.2939e-06	260.73	74.517	59.019	17.664	3.1104e-06	24.386	0.00046504	0.00050094	0.00013947	992.91	5.445e-06	5.5254e-06	1063.4	209.4	5.5417e-06	5.6207e-06	261.58	75.545	60.032	17.991	5.7041e-06	25.048	113.397	-75.008	0.983	-77.140	-42.784	-85.107	-77.145	-69.828	-3.466	22.839	-69.896	-62.757	-62.995	-55.543	68.586	-56.246	-8191	255	
21318.420	1	1	0	0	0.18481	0.096101	0.1797	0.2182	0.15545	0.096089	0.27815	0.097327	0.14563	0.203	0.066274	0.12859	0.0592	0.26143	0.19581	0.11529	-2.0646	-2.5146	-1.8937	-2.775	-2.1437	-2.0729	-2.7604	-1.9375	-2.3854	-2.6667	-1.9104	-2.8208	-2.3333	-2.0479	-2.6813	-2.025	168.874	55.108	186.279	-51.878	-59.224	-56.297	175.006	171.926	123.771	123.192	145.709	12.965	-39.046	256.593	118.868	14.339	9.1645e-05	0.00043768	2.4816e-05	1011.5	3.3373e-06	2.1462e-06	1078.2	208.57	1.9448e-06	2.4179e-06	262.41	74.772	59.391	17.702	4.3911e-06	24.421	0.00048256	0.00051632	0.00014525	998.41	5.9875e-06	5.8556e-06	1068.2	209.7	5.6512e-06	5.8753e-06	263.02	76.034	60.559	18.076	5.7992e-06	25.163	116.490	-15.408	97.491	-77.449	67.933	31.038	-77.328	-69.533	-67.310	146.583	-70.171	-63.631	-62.919	-55.625	80.405	-56.310	-8191	255	
21318.514	1	1	0	0	0.20643	0.13272	0.064456	0.12788	0.24481	0.2018	0.32491	0.15519	0.075234	0.12536	0.45655	0.041542	0.11725	0.066049	0.080612	0.16884	-2.0729	-2.6146	-1.9833	-2.9625	-2.4333	-2.1729	-2.8354	-2.2104	-2.2833	-2.6125	-1.9937	-2.6708	-2.5104	-2.0271	-2.8292	-2.2292	217.905	44.697	47.254	-2.318	142.234	93.554	206.518	239.674	145.248	263.614	216.019	11.740	179.897	-32.262	69.660	182.419	0.00013741	0.00011423	5.7013e-05	1018.5	4.171e-06	1.7087e-06	1079.8	210.69	4.3625e-06	4.1239e-06	264.85	75.351	59.73	17.635	1.835e-06	24.549	0.00050625	0.00055152	0.00015045	1003.6	6.1075e-06	6.2454e-06	1073.4	210.75	6.3459e-06	6.3242e-06	264.33	76.262	60.9	18.126	5.8464e-06	25.294	123.280	-47.993	14.068	-77.102	29.130	105.693	-77.357	-69.639	44.572	-9.595	-70.035	-63.464	-62.858	-55.256	92.822	-56.421	-8191	255	
21318.609	1	1	0	0	0.18661	0.12773	0.22483	0.18732	0.058242	0.287	0.1803	0.15107	0.13061	0.25621	0.17959	0.20462	0.065215	0.21865	0.11277	0.19834	-1.6708	-2.6792	-2.1146	-2.6875	-2.4375	-2.1729	-2.7604	-2.2167	-2.0583	-2.5292	-2.0479	-2.6833	-2.3333	-2.1208	-2.7667	-2.1813	215.518	57.232	243.875	-15.258	-88.088	152.270	231.795	178.107	-2.979	209.414	163.978	-83.797	-70.712	207.285	-5.674	265.677	0.00015825	0.00014269	9.6887e-05	1016.2	2.9268e-06	5.5602e-06	1085.3	212.3	4.3392e-07	3.7417e-06	264.12	75.676	60.017	17.751	4.8822e-06	24.822	0.00050447	0.0005312	0.00015242	1007.1	5.7602e-06	5.775e-06	1075.3	211.01	5.6367e-06	5.9347e-06	263.93	76.413	60.986	18.125	5.7178e-06	25.338	108.430	-63.682	-59.984	-78.138	10.288	-14.620	-78.219	-71.034	95.115	-1.522	-71.188	-64.458	-64.322	-56.562	48.920	-57.115	-8191	255	
21318.730	1	1	0	0	0.097059	0.059514	0.13728	0.12415	0.13622	0.085349	0.14749	0.084481	0.22577	0.13058	0.25132	0.081198	0.15008	0.34666	0.2141	0.10022	-1.5208	-2.6854	-1.9771	-2.5125	-2.6333	-1.6917	-2.7854	-2.0771	-1.8583	-2.6083	-1.8312	-2.4458	-2.6437	-1.8917	-2.6396	-2.1833	-59.648	27.896	17.184	158.363	214.178	-49.288	169.952	225.486	203.670	137.950	194.939	245.384	253.698	250.403	-24.841	35.958	0.00018442	0.00031043	8.6971e-05	1019.5	1.4726e-06	4.4942e-06	1085.4	211.94	2.4451e-06	3.0152e-06	264.19	75.439	59.898	17.753	2.7904e-06	24.486	0.00048864	0.0005135	0.00014703	1005.4	5.6601e-06	5.8195e-06	1075.4	211.35	5.6805e-06	5.7006e-06	263.57	76.645	60.798	18.12	5.9298e-06	25.219	116.717	-15.168	-69.174	-78.265	-39.181	37.769	-78.381	-70.662	96.293	39.624	-71.168	-64.126	-64.164	-56.741	129.040	-57.554	-8191	255	
21318.826	1	1	0	0	0.087735	0.041006	0.057476	0.10139	0.20318	0.085724	0.16807	0.37619	0.18968	0.077853	0.19648	0.17778	0.055702	0.065111	0.16625	0.14367	-1.6063	-2.8042	-2.1271	-2.1625	-2.6104	-2.0208	-2.6437	-2.5667	-1.9896	-3.0125	-2.1729	-2.3542	-2.7313	-1.8104	-2.4521	-2.4458	-45.960	136.722	86.655	243.030	134.674	61.137	245.514	233.040	7.952	50.584	229.030	-63.527	-25.442	229.929	-12.313	-81.576	0.00011049	0.00032576	3.9051e-05	1021.4	2.2302e-06	3.1239e-06	1089.5	211.7	5.2513e-06	9.6259e-07	261.41	75.595	60.06	17.793	2.9354e-06	24.736	0.00049146	0.00052856	0.00014994	1008.9	5.9354e-06	5.8802e-06	1077.1	211.5	5.7591e-06	5.8999e-06	263.6	76.4	60.878	18.12	5.8196e-06	25.254	123.116	28.931	70.789	-78.053	3.757	26.314	-78.038	-70.924	-9.884	-40.177	-71.311	-64.487	-64.170	-56.311	40.668	-57.600	-8191	255	
21318.898	1	1	0	0	0.046348	0.26294	0.11695	0.22095	0.2312	0.044431	0.28671	0.38952	0.215	0.079922	0.20939	0.13581	0.19905	0.14779	0.21292	0.052194	-1.4562	-2.6188	-2.1542	-2.2646	-2.8396	-1.8958	-2.8375	-2.5167	-1.9542	-2.7542	-2.3021	-2.0896	-2.8104	-1.9583	-2.3312	-2.675	99.769	144.332	252.352	-39.132	229.589	-52.906	172.727	170.949	-28.156	131.852	133.221	138.540	70.312	226.131	154.490	-31.767	0.00010735	0.0003186	9.1586e-05	1015.7	4.168e-06	2.3627e-06	1085.1	212.02	3.5594e-06	4.5828e-06	264.06	75.657	60.106	17.698	4.6391e-06	24.776	0.00049672	0.00052993	0.00014965	1005.4	5.8772e-06	5.7899e-06	1076.2	211.03	5.7684e-06	5.7802e-06	264.2	76.469	61.001	18.077	5.657e-06	25.254	97.903	33.532	12.430	-78.533	46.380	34.608	-78.275	-70.838	26.906	54.947	-71.207	-64.461	-63.663	-57.166	91.060	-57.220	-8191	255	
21319.020	1	1	0	0	0.09115	0.23066	0.28612	0.18733	0.12634	0.33474	0.17474	0.042666	0.048011	0.2169	0.3861	0.16519	0.069933	0.16924	0.077111	0.11231	-1.3104	-2.4875	-2.2479	-2.0958	-2.7458	-1.9792	-2.4479	-2.675	-1.8937	-2.6604	-2.3312	-2.0729	-2.7542	-2.1021	-2.2333	-2.8146	-66.882	-37.060	94.316	-6.556	-52.797	223.546	164.977	175.743	46.695	16.790	205.422	78.078	-49.065	171.557	53.629	24.731	0.00012048	0.00016619	9.2089e-05	1023.3	3.0191e-06	2.7815e-06	1081.9	211.74	3.5527e-06	3.3682e-06	264.27	75.437	60.086	17.745	3.2065e-06	24.625	0.0004953	0.00052404	0.00015024	1006.7	5.6963e-06	5.701e-06	1077	210.92	5.6655e-06	5.7196e-06	263.7	76.145	61.017	18.162	5.7125e-06	25.171	127.741	271.232	-13.728	-78.085	88.296	20.181	-78.222	-70.667	34.395	-42.465	-70.795	-64.599	-64.214	-56.549	115.055	-57.201	-8191	255	
21319.115	1	1	0	0	0.2422	0.024482	0.10068	0.10175	0.21711	0.21769	0.21917	0.10155	0.27265	0.15405	0.18647	0.14204	0.26302	0.19561	0.12498	0.34721	-1.5688	-2.6667	-2.2875	-2.1875	-2.7979	-2.1792	-2.4479	-2.7313	-1.9646	-2.4667	-2.5271	-1.7188	-2.5	-2.2062	-2.1833	-2.8688	97.512	-55.341	127.775	226.456	89.432	14.635	249.256	218.190	32.687	77.207	195.272	188.233	43.354	223.088	52.158	91.237	0.00010453	0.00041097	8.3055e-05	1015.2	2.9371e-06	3.1002e-06	1088.5	212	3.4223e-06	6.911e-06	264.8	75.191	59.327	17.741	2.055e-06	24.591	0.00048164	0.00051472	0.00015076	1005.9	5.6733e-06	5.6414e-06	1075.7	211.03	5.6535e-06	5.7634e-06	264.06	76.162	60.744	18.124	5.7096e-06	25.23	125.095	-35.709	-21.692	-78.153	35.613	75.916	-78.270	-70.542	22.268	48.581	-71.048	-64.304	-64.038	-56.677	146.103	-56.947	-8191	255	
21319.211	1	1	0	0	0.18452	0.27013	0.064644	0.18907	0.17027	0.094968	0.094764	0.22803	0.20323	0.22331	0.31357	0.26128	0.050324	0.26355	0.2227	0.21531	-1.7375	-2.4125	-2.5229	-1.925	-2.7271	-2.2042	-2.1292	-2.8604	-2.0792	-2.5333	-2.7583	-1.8167	-2.6479	-2.2375	-2.0604	-2.6146	133.094	-5.968	167.787	-16.095	-40.942	51.013	241.072	212.625	98.178	-76.253	235.124	210.093	-48.018	270.846	43.916	192.426	0.00019207	0.00040681	2.6555e-05	1019.9	1.983e-06	3.5248e-06	1083.8	211.68	1.5995e-06	1.0375e-06	264.4	75.479	59.104	17.826	2.9641e-06	24.844	0.00048158	0.00052308	0.00014344	1005.5	5.6899e-06	5.6716e-06	1075.7	210.95	5.5485e-06	5.7215e-06	264.6	76.234	60.663	18.113	5.6958e-06	25.251	101.660	18.036	29.606	-78.127	28.750	10.650	-78.247	-70.591	261.168	27.965	-70.813	-64.373	-63.488	-56.641	151.558	-57.091	-8191	255	
21319.309	1	1	0	0	0.05719	0.15707	0.22747	0.32268	0.2114	0.16675	0.093556	0.20424	0.13482	0.11215	0.14187	0.12092	0.11427	0.14385	0.11262	0.050151	-1.8	-2.0083	-2.6063	-1.9625	-2.3438	-2.4083	-2.2917	-2.6542	-1.9042	-2.3354	-2.7438	-1.9896	-2.5875	-2.5292	-1.8979	-2.7562	234.314	92.959	169.439	100.460	243.356	141.473	122.722	256.219	256.705	254.820	148.110	-54.975	-34.158	254.166	209.121	-4.269	0.00017986	0.00027017	9.1701e-05	1028.8	2.5813e-06	3.8955e-06	1084.7	211.81	3.3933e-06	2.1529e-06	263.28	75.058	59.938	17.827	1.546e-06	24.749	0.00048057	0.00052335	0.00014711	1010.4	5.5875e-06	5.691e-06	1075.6	211.14	5.5592e-06	5.565e-06	263.73	76.178	60.806	18.14	5.6109e-06	25.179	113.820	8.097	8.775	-78.554	145.706	86.585	-78.025	-70.422	194.016	144.948	-70.712	-64.540	-64.389	-56.468	132.919	-56.933	-8191	255	
21319.428	1	1	0	0	0.11086	0.13868	0.077567	0.45853	0.11697	0.026587	0.10518	0.40951	0.15154	0.18262	0.063561	0.2848	0.11293	0.051079	0.13834	0.13311	-1.7458	-2.2021	-2.7833	-1.9229	-2.5167	-2.3563	-2.0604	-2.7479	-2.1521	-2.1375	-2.9	-2.0312	-2.3125	-2.5042	-1.9729	-2.7833	246.539	130.344	-74.026	200.322	-25.416	36.975	211.365	229.097	-9.596	-71.980	245.200	169.071	192.369	-16.773	122.858	-23.938	0.0001517	0.00025076	0.00010734	1014.1	1.3266e-06	1.9091e-06	1085.2	211.63	5.2513e-06	4.955e-06	264.48	75.474	59.439	17.68	1.7005e-06	24.503	0.00044941	0.00050927	0.00013834	1005.1	5.4843e-06	5.3565e-06	1073	210.86	5.2462e-06	5.2584e-06	263.57	76.083	60.602	18.031	5.2624e-06	25.177	131.286	71.101	249.868	-78.263	67.054	31.266	-78.110	-70.532	50.943	90.471	-70.875	-64.045	-63.861	-56.554	43.421	-57.371	-8191	255	
21319.523	1	1	0	0	0.21399	0.18271	0.23882	0.21007	0.13784	0.15145	0.10108	0.084082	0.11208	0.049154	0.13588	0.0036249	0.23216	0.17681	0.24314	0.033817	-1.8583	-2.0021	-2.7146	-1.7917	-2.3896	-2.7438	-2.0312	-2.5667	-2.3063	-2.0312	-2.8625	-2.0917	-2.3146	-2.7396	-2.0208	-2.6688	83.269	181.974	221.366	200.824	-21.296	144.108	257.604	230.747	206.920	185.769	-72.853	-28.797	97.684	11.217	47.162	-12.160	0.00020549	0.00030763	0.00010385	1011.5	2.1618e-06	1.1269e-06	1083.5	209.67	3.2288e-06	6.2976e-06	263.05	74.843	59.478	17.623	2.9302e-06	24.685	0.00044291	0.00048408	0.00013191	1001.6	5.1836e-06	5.1809e-06	1071.3	209.99	5.0216e-06	5.1855e-06	262.62	75.971	60.413	18	5.0469e-06	25.171	115.396	9.374	-26.748	-78.090	9.175	161.873	-78.273	-70.329	2.637	40.621	-70.929	-64.516	-64.054	-56.592	76.966	-57.195	-8191	255	
21319.594	1	1	0	0	0.36412	0.095026	0.1638	0.28276	0.16563	0.1923	0.27028	0.066912	0.28464	0.044541	0.050568	0.14322	0.10886	0.12106	0.0014794	0.24534	-1.9813	-1.8563	-2.7938	-2.2125	-2.0417	-2.8771	-2.2167	-2.6271	-2.4688	-1.9646	-2.5646	-2.1688	-2.0812	-2.8125	-1.9333	-2.7354	72.595	46.940	124.949	106.101	235.773	212.428	158.518	80.075	-12.185	-77.746	167.494	95.133	226.520	151.677	180.000	-65.646	0.00016102	0.00030388	0.00010431	1021.2	3.4084e-06	3.8828e-06	1080.5	210.35	1.2916e-06	3.2407e-06	264.02	74.745	59.736	17.679	2.1905e-06	24.586	0.00042838	0.0004711	0.00012888	1004	5.3561e-06	5.0962e-06	1070.7	209.92	5.0493e-06	5.2998e-06	263.27	75.826	60.628	18.077	5.2363e-06	25.142	105.004	34.733	-20.650	-78.490	51.096	84.361	-78.182	-70.380	155.194	77.843	-70.800	-64.442	-63.800	-56.745	119.349	-57.152	-8191	255	
21319.689	1	1	0	0	0.25289	0.066533	0.16453	0.14283	0.20693	0.27645	0.080072	0.069378	0.050242	0.26527	0.22285	0.15283	0.064189	0.18698	0.052156	0.09321	-2.1354	-2.0208	-2.6583	-2.1854	-1.9833	-2.7313	-2.0687	-2.5	-2.5917	-1.9792	-2.6833	-2.1271	-1.6542	-2.6396	-2.0312	-2.2625	42.756	-24.128	32.123	160.312	203.538	198.717	193.878	-20.819	60.897	271.078	31.272	210.569	216.446	257.956	43.318	94.034	0.00015846	0.00035054	7.6268e-05	1012.6	1.2517e-06	2.4754e-06	1083.5	211.23	2.646e-06	5.0885e-06	261.17	75.486	59.1	17.59	2.0479e-06	24.432	0.00042786	0.00046929	0.00012656	999.01	5.2116e-06	5.0284e-06	1070.3	210.42	4.8846e-06	5.0027e-06	262.26	75.836	60.027	17.925	4.8345e-06	25.018	77.492	0.318	-54.807	-78.342	133.531	117.660	-78.282	-70.455	86.293	23.464	-70.748	-64.147	-63.888	-56.231	95.606	-56.330	-8191	255	
21319.811	1	1	0	0	0.19183	0.13682	0.39917	0.2033	0.089486	0.20882	0.1932	0.11075	0.14939	0.16835	0.15231	0.19285	0.12131	0.063891	0.20226	0.22789	-2.1	-1.7917	-2.5708	-2.3604	-1.8333	-2.7896	-2.35	-2.3146	-2.6083	-1.8979	-2.5854	-2.4208	-2.0021	-2.6417	-2.1021	-2.2167	189.451	53.013	206.278	247.060	262.480	-6.917	193.838	102.668	127.647	109.357	-52.267	231.136	37.767	55.197	129.792	160.788	0.00015628	0.00018303	9.9179e-05	1008.8	2.7774e-06	4.2179e-06	1080.6	210.69	3.555e-06	3.1533e-06	262.08	74.421	59.863	17.748	3.7326e-06	24.417	0.00041181	0.00045346	0.00012161	998.18	4.8747e-06	4.8582e-06	1069.3	209.67	4.9439e-06	4.9544e-06	262	75.461	60.54	18.002	4.9485e-06	25.088	104.090	-21.999	-45.861	-78.170	31.156	86.332	-77.982	-70.319	76.019	28.354	-70.592	-64.416	-63.892	-55.982	-34.195	-57.171	-8191	255	
21319.906	1	1	0	0	0.26592	0.17999	0.32592	0.15925	0.33641	0.017326	0.24371	0.096962	0.15633	0.39974	0.41456	0.26453	0.19157	0.066226	0.28524	0.055021	-2.3229	-1.9104	-2.2958	-2.55	-1.875	-2.6312	-2.3312	-2.2042	-2.7583	-1.9625	-2.5271	-2.5375	-2.0646	-2.6667	-2.2125	-2.1813	65.277	168.784	-62.910	246.917	260.798	114.698	219.692	165.078	-59.087	233.573	245.501	166.635	181.162	53.332	148.535	192.257	0.00010518	9.0962e-05	8.4033e-05	1017.1	1.4562e-06	1.755e-06	1082.9	209.17	2.3163e-06	3.0997e-06	262.45	74.709	59.739	17.678	5.5078e-06	24.35	0.00040861	0.00044258	0.00012368	999.54	5.0481e-06	4.7971e-06	1068.8	209.24	4.8987e-06	4.9075e-06	262.11	75.547	60.381	17.978	4.8299e-06	24.972	88.340	-7.990	-51.909	-78.405	-61.317	33.181	-78.052	-70.465	110.935	59.286	-70.384	-64.158	-63.965	-56.584	20.893	-57.398	-8191	255	
21320.004	1	1	0	0	0.013845	0.27162	0.16185	0.22927	0.10097	0.2551	0.31847	0.10044	0.081848	0.16247	0.15382	0.017307	0.11992	0.087883	0.028892	0.15618	-2.2479	-1.9771	-2.25	-2.6146	-1.7875	-2.7958	-2.6417	-2.1146	-2.6562	-1.9146	-2.3875	-2.5938	-1.725	-2.6771	-2.2313	-2.0187	262.375	59.733	216.742	237.282	57.727	-83.087	206.515	250.742	142.030	14.198	164.646	157.505	-83.972	255.375	154.187	-28.591	0.00015133	0.00056848	4.8419e-05	1011.7	4.2997e-06	2.6244e-06	1075.1	210.86	3.484e-06	5.9937e-06	263.02	74.664	59.376	17.639	2.5819e-06	24.48	0.00042317	0.00045312	0.00012414	995.39	4.9986e-06	4.888e-06	1066.6	209.58	4.9041e-06	5.1924e-06	262.14	75.622	60.203	17.974	4.8806e-06	25.021	80.630	-22.664	-63.713	-78.313	20.236	110.116	-78.000	-70.553	-51.933	91.465	-70.521	-64.167	-64.037	-56.011	69.221	-56.760	-8191	255	
21320.123	1	1	0	0	0.14553	0.32652	0.18933	0.33803	0.33289	0.17066	0.25234	0.17992	0.12973	0.026634	0.15422	0.086811	0.068187	0.096949	0.1385	0.14416	-2.225	-2.15	-2.3187	-2.8458	-1.8625	-2.6188	-2.4979	-2.1396	-2.7917	-2.0812	-2.0792	-2.7646	-1.9188	-2.5042	-2.5833	-1.9646	131.154	139.225	-78.085	155.583	200.292	-67.800	211.741	237.243	-8.889	80.718	56.122	-82.334	114.085	263.778	15.787	219.309	0.00010422	0.00062073	9.7391e-05	1011.8	1.7709e-06	3.103e-06	1073.7	210.55	4.0813e-06	2.7833e-06	261.95	74.575	59.058	17.512	5.7437e-06	24.335	0.00042103	0.00045079	0.00012422	996.12	4.9179e-06	4.8265e-06	1064.5	209.32	4.92e-06	4.8134e-06	261.68	75.476	60.128	17.894	4.7746e-06	24.928	114.692	9.768	-5.671	-78.249	27.337	-29.855	-77.759	-70.010	24.592	123.990	-70.645	-63.900	-64.005	-56.146	63.033	-56.756	-8191	255	
21320.195	1	1	0	0	0.16889	0.092206	0.046889	0.26775	0.22154	0.37755	0.2246	0.14333	0.18233	0.22682	0.087361	0.36924	0.26467	0.069059	0.24256	0.21596	-2.2458	-2.3667	-2.075	-2.7875	-1.9542	-2.6479	-2.6375	-1.9	-2.5875	-2.0042	-2.1833	-2.7354	-2.0146	-2.3292	-2.5854	-1.9854	-77.076	34.098	202.970	262.611	238.055	170.911	175.978	7.079	228.147	155.676	132.475	202.017	191.519	159.382	125.759	165.340	0.00016191	0.00029301	0.00011177	1015.3	4.9141e-06	5.0733e-06	1082	209.04	4.4155e-06	3.0163e-06	262.23	74.849	59.446	17.746	3.728e-06	24.4	0.00040215	0.00043372	0.00012058	998.45	4.8841e-06	4.8461e-06	1066	209	4.7903e-06	4.7975e-06	261.85	75.694	60.219	17.97	4.7363e-06	25.031	85.761	28.708	1.454	-77.934	58.208	126.504	-77.738	-70.064	82.043	115.630	-70.578	-63.707	-63.969	-56.504	47.621	-56.594	-8191	255	
21320.293	1	1	0	0	0.09594	0.12718	0.19296	0.30059	0.15977	0.081502	0.20556	0.072691	0.13759	0.17841	0.24005	0.052107	0.087001	0.078208	0.33902	0.18703	-2.2625	-2.4354	-1.9271	-2.6479	-2.0167	-2.1729	-2.8125	-2.1292	-2.4646	-2.4792	-1.8708	-2.5708	-1.9208	-2.2042	-2.7521	-2.0979	13.927	-78.028	163.845	209.014	208.457	93.611	-8.014	215.875	38.421	-39.809	162.091	-22.676	-74.771	-49.708	11.930	32.078	8.7847e-05	0.00021912	0.00010584	1015.9	1.0923e-06	2.2103e-06	1082.7	211.29	5.1987e-06	2.6142e-06	261.22	74.707	59.241	17.644	5.1905e-06	24.424	0.00040394	0.00042651	0.00012211	997.76	4.6496e-06	4.7303e-06	1067.7	209.59	4.6293e-06	4.7519e-06	261.31	75.723	60.028	17.94	4.6733e-06	24.968	98.999	0.932	58.639	-77.899	50.881	120.352	-77.615	-70.361	-6.879	176.494	-70.823	-64.290	-63.926	-56.509	87.181	-57.363	-8191	255	
21320.410	1	1	0	0	0.29522	0.10534	0.13523	0.18208	0.1858	0.16806	0.28133	0.27724	0.22712	0.06502	0.046184	0.13645	0.12525	0.22244	0.25028	0.27164	-1.9042	-2.3292	-1.9542	-2.6792	-2.0979	-2.1479	-2.7771	-2.0354	-2.4083	-2.45	-1.8667	-2.5396	-2.0521	-2.1417	-2.7583	-1.9875	201.425	218.976	-15.682	256.598	144.831	-42.653	215.559	239.557	-36.790	194.918	99.454	26.107	-75.294	-84.786	198.372	97.957	9.9425e-05	0.00011637	6.5396e-05	1013.1	3.1815e-06	3.6366e-06	1074	210.3	3.5335e-06	3.1452e-06	261.39	74.485	59.063	17.501	1.2655e-06	24.446	0.0004031	0.00041329	0.00011673	997.28	4.6199e-06	4.6513e-06	1062.8	209.11	4.3898e-06	4.5851e-06	261.67	75.518	60.217	17.855	4.3438e-06	24.979	141.524	49.849	-2.388	-78.537	68.099	116.055	-78.321	-70.617	34.955	55.101	-70.928	-63.866	-64.531	-56.671	139.095	-57.450	-8191	255	
21320.508	1	1	0	0	0.26584	0.11071	0.2117	0.10114	0.04394	0.088034	0.11535	0.17214	0.013247	0.10198	0.30117	0.11975	0.15675	0.12481	0.28548	0.17744	-2.075	-2.425	-1.75	-2.8063	-2.1271	-1.8854	-2.7938	-1.9771	-2.3354	-2.5438	-1.9375	-2.6979	-2.3937	-2.2062	-2.7438	-2.1542	191.620	-51.420	202.652	220.515	238.726	206.417	213.813	268.183	235.272	63.517	162.551	74.222	-10.870	-33.029	91.123	-41.842	0.00016407	0.0005248	0.00015453	1007.1	3.626e-06	1.6686e-06	1073.8	209.88	2.8014e-06	6.1371e-06	260.59	74.824	59.174	17.451	9.8265e-07	24.349	0.00039438	0.00041362	0.00011886	994.22	4.5406e-06	4.5608e-06	1063	208.84	4.5488e-06	4.4358e-06	260.61	75.51	59.963	17.863	4.5119e-06	24.925	114.481	-20.514	-40.004	-78.197	134.189	66.802	-78.417	-70.414	34.962	58.191	-70.790	-64.249	-64.241	-56.682	67.891	-57.357	-8191	255	
21320.604	1	1	0	0	0.2672	0.17889	0.16375	0.012122	0.18713	0.12773	0.35289	0.091001	0.079963	0.27284	0.10789	0.032506	0.12524	0.25822	0.28318	0.16741	-1.6292	-2.725	-1.8896	-2.6583	-2.6042	-2.0583	-2.9521	-2.1375	-2.2938	-2.6708	-2.0312	-2.6083	-2.5187	-1.8917	-2.6042	-2.4208	130.615	128.684	227.023	-53.871	136.043	163.061	181.752	222.477	63.029	212.557	-79.413	63.884	255.998	174.382	52.774	264.863	0.00018316	0.00050296	2.7693e-05	1009.9	7.0669e-06	2.7445e-06	1073.8	209.57	2.5895e-06	3.4176e-06	262.1	74.176	59.055	17.537	2.9403e-06	24.524	0.00039685	0.0004047	0.00011935	994.83	4.7577e-06	4.6362e-06	1063.2	208.46	4.6572e-06	4.7569e-06	261.31	75.32	59.983	17.918	4.6758e-06	24.97	114.522	-15.830	-22.632	-78.173	100.375	78.709	-78.101	-70.643	151.148	67.924	-70.673	-64.337	-64.052	-56.804	50.388	-57.098	-8191	255	
21320.725	1	1	0	0	0.2239	0.21995	0.24035	0.24565	0.1531	0.20591	0.26977	0.22037	0.12089	0.10587	0.16383	0.08926	0.18592	0.11426	0.071925	0.052701	-1.8958	-2.6271	-1.8542	-2.4375	-2.6271	-1.8667	-2.8979	-2.4062	-2.1417	-2.7146	-1.9833	-2.5542	-2.2146	-1.8104	-2.6958	-2.3229	266.436	245.955	11.708	246.037	42.764	106.098	263.716	166.795	241.362	137.791	-49.631	-81.210	265.432	94.429	199.295	57.244	0.00013387	0.00012839	0.00010129	1010.9	2.8331e-06	4.197e-06	1073.3	210.13	2.2709e-06	9.6359e-07	261.27	74.798	59.644	17.469	2.7638e-06	24.146	0.00040242	0.00042445	0.00011645	992.98	4.7551e-06	4.7848e-06	1064.7	209.29	4.7115e-06	4.8081e-06	260.71	75.496	60.203	17.844	4.979e-06	24.875	119.852	-55.102	89.966	-77.718	39.155	38.315	-78.262	-70.674	70.754	91.319	-70.820	-64.204	-63.627	-56.529	-15.462	-57.336	-8191	255	
21320.795	1	1	0	0	0.049619	0.17884	0.10862	0.14948	0.079904	0.13217	0.13742	0.23088	0.12631	0.30915	0.020071	0.30703	0.13862	0.049675	0.12446	0.12042	-1.7375	-2.6833	-1.9104	-2.5729	-2.6104	-2.0521	-2.8896	-2.3125	-1.9479	-2.7938	-2.0604	-2.1417	-2.675	-1.9854	-2.4396	-2.4521	-26.751	-67.952	142.120	-81.705	70.252	152.047	96.323	236.867	-31.798	227.662	-22.553	249.490	21.009	146.107	225.016	30.343	0.0002093	0.00024599	5.3557e-05	1016.9	1.9388e-06	4.6431e-06	1072.9	210.13	5.4648e-07	3.5123e-06	260.86	74.798	59.298	17.655	3.8403e-06	24.572	0.00043735	0.00046041	0.00013204	996.22	5.0735e-06	5.1487e-06	1064	209.24	5.1896e-06	5.1246e-06	260.76	75.582	60.257	17.943	4.9524e-06	25.004	108.549	-3.585	54.895	-77.955	123.679	113.212	-77.963	-70.473	38.561	82.437	-70.789	-63.769	-64.291	-56.713	90.231	-57.058	-8191	255	
21320.891	1	1	0	0	0.19525	0.11292	0.32232	0.080106	0.14283	0.18916	0.35735	0.17069	0.20152	0.17589	0.14382	0.072631	0.10757	0.16628	0.23773	0.062733	-1.5479	-2.5667	-2.0938	-2.1292	-2.8312	-1.8271	-2.6417	-2.6708	-1.7062	-2.7188	-2.2479	-2.0938	-2.7229	-1.9188	-2.5187	-2.5417	37.664	237.507	9.433	-40.673	-20.045	127.249	185.172	-83.945	187.330	135.269	151.094	20.026	166.751	-69.483	258.167	161.608	0.00018123	0.00055349	0.00019277	1014.2	2.3092e-06	3.8675e-06	1075.3	209.97	1.7352e-06	3.0228e-06	261.62	75.242	59.808	17.61	3.3821e-06	24.654	0.00042531	0.00044951	0.000126	997.53	4.8502e-06	4.839e-06	1065.1	209.04	4.8185e-06	4.8411e-06	261.25	75.784	60.296	17.973	4.9103e-06	25.093	101.264	41.806	-1.801	-78.022	45.026	69.085	-77.947	-70.431	127.561	-3.659	-70.874	-63.741	-63.548	-56.265	82.192	-56.634	-8191	255	
21320.988	1	1	0	0	0.10419	0.081731	0.14634	0.037508	0.076618	0.10768	0.2068	0.26702	0.14095	0.11162	0.28732	0.19161	0.31623	0.20948	0.11917	0.26003	-1.4604	-2.3083	-2.1104	-2.0875	-2.5917	-2.0021	-2.6354	-2.8	-1.975	-2.6604	-2.4083	-2.0979	-2.5792	-2.0646	-2.2042	-2.7062	-23.965	85.667	85.286	106.300	-48.052	-26.036	156.968	135.122	216.109	266.643	184.459	-34.725	260.228	268.745	270.634	34.559	0.00014832	0.00049985	7.7439e-05	1012.4	4.1933e-06	2.2009e-06	1072.9	210.88	1.2227e-06	4.0942e-06	261.16	75.026	59.544	17.637	6.5418e-06	24.509	0.00042403	0.00046973	0.00013055	996.78	4.9907e-06	4.9746e-06	1065.1	208.97	5.1903e-06	5.0057e-06	261.2	75.909	60.486	17.914	4.8017e-06	25.016	125.746	-4.622	22.929	-77.699	-39.627	25.810	-77.661	-70.221	226.693	90.730	-70.709	-63.999	-63.900	-56.205	52.481	-57.438	-8191	255	
21321.084	1	1	0	0	0.13488	0.034531	0.19777	0.058773	0.32439	0.19517	0.37442	0.30862	0.19055	0.19012	0.1582	0.14051	0.10701	0.13682	0.12952	0.23561	-1.5438	-2.6708	-2.4729	-1.9792	-2.7	-2.1167	-2.3875	-2.7812	-2.0229	-2.5479	-2.4354	-2.1312	-2.6479	-2.2104	-2.2521	-2.9521	-23.297	-31.965	183.133	162.076	127.911	-36.959	238.722	169.533	233.015	-0.768	-83.493	-72.892	246.632	221.043	40.551	267.947	0.00018097	0.00045787	7.8178e-05	1017.8	3.3876e-06	2.7442e-06	1076.5	209.01	1.8473e-06	2.3471e-06	260.07	75.523	59.123	17.659	8.8163e-07	24.505	0.00042252	0.00043784	0.00012501	996.41	4.7118e-06	4.777e-06	1065	208.59	4.4564e-06	4.5239e-06	260.35	75.791	60.013	17.856	4.376e-06	24.914	112.379	-12.398	1.146	-77.546	47.384	36.523	-77.822	-70.418	-33.256	50.773	-70.560	-63.892	-63.946	-56.553	36.868	-57.245	-8191	255	
21321.203	1	1	0	0	0.1835	0.13325	0.057639	0.15391	0.11079	0.12631	0.12609	0.075498	0.20278	0.11345	0.11284	0.024246	0.097406	0.13277	0.25296	0.12784	-1.5792	-2.4813	-2.3396	-1.9167	-2.5875	-2.2646	-2.2687	-2.7875	-1.8979	-2.3438	-2.6979	-1.9646	-2.5958	-2.2646	-1.9542	-2.6312	264.656	41.019	231.961	142.416	22.218	61.727	148.545	74.569	137.729	130.779	61.786	68.687	-76.326	221.505	34.133	174.315	0.0001366	0.00026848	7.1917e-05	1001	2.8634e-06	4.1876e-06	1067.5	208.2	1.1024e-06	2.4997e-07	261.96	74.847	58.999	17.538	3.4678e-06	24.472	0.00036977	0.00038667	0.00010893	987.62	4.2878e-06	4.3213e-06	1058.2	207.84	4.2744e-06	4.2496e-06	260.62	75.594	59.731	17.814	4.4562e-06	24.944	147.519	24.451	11.729	-78.144	95.094	72.020	-77.632	-70.031	229.991	94.245	-70.600	-63.827	-63.868	-56.856	40.770	-57.060	-8191	255	
21321.299	1	1	0	0	0.25003	0.1614	0.20614	0.28843	0.33762	0.25371	0.33691	0.16378	0.092726	0.16017	0.22651	0.13997	0.16668	0.14348	0.11464	0.39292	-1.6354	-2.4375	-2.4521	-1.9479	-2.5042	-2.325	-2.3375	-2.7729	-1.8479	-2.2125	-2.7	-1.9583	-2.4958	-2.3292	-1.9083	-2.7687	243.702	145.958	-36.088	228.538	172.175	-50.511	184.692	-58.435	29.151	164.521	169.017	167.894	88.146	107.189	108.313	236.098	0.00019528	0.00028643	5.453e-05	999.41	1.7478e-06	3.5809e-06	1064.4	208.16	2.5646e-06	4.5236e-06	259.81	74.506	59.131	17.501	3.6152e-06	24.582	0.00037817	0.0003995	0.00010777	987.08	4.3727e-06	4.4325e-06	1055.5	207.7	4.4879e-06	4.6274e-06	259.7	75.143	59.805	17.82	4.5558e-06	24.881	116.159	-15.559	-51.073	-77.910	41.061	103.265	-77.840	-70.491	17.431	21.927	-70.929	-63.782	-64.211	-56.327	57.532	-56.848	-8191	255	
21321.395	1	1	0	0	0.10396	0.15797	0.29789	0.093255	0.099442	0.1015	0.091238	0.23236	0.065592	0.081134	0.13014	0.22099	0.11771	0.1837	0.21239	0.21775	-1.7271	-2.1833	-2.6958	-1.95	-2.4833	-2.4042	-2.0875	-2.7083	-2.0521	-2.0833	-2.6708	-1.9917	-2.3688	-2.5146	-1.7604	-2.6917	-11.874	189.101	-71.721	90.910	180.715	-56.980	204.014	219.810	233.636	174.425	214.233	152.369	176.077	190.945	237.180	239.435	0.00021562	0.0003551	5.6915e-05	998.96	3.1129e-06	1.0651e-06	1066.3	208.76	6.5626e-06	4.0507e-06	259.25	74.157	59.218	17.483	3.2684e-06	24.467	0.00038702	0.00042346	0.00011465	986.08	4.4502e-06	4.598e-06	1055.6	207.78	4.2922e-06	4.3406e-06	259.66	75.107	59.687	17.775	4.3418e-06	24.854	96.425	21.798	21.225	-78.209	2.602	251.707	-78.471	-70.622	93.753	71.410	-71.205	-64.485	-64.394	-56.303	9.373	-57.257	-8191	255	
21321.492	1	1	0	0	0.077107	0.14665	0.10237	0.2309	0.11746	0.26287	0.42516	0.2858	0.14964	0.29534	0.10551	0.051659	0.1773	0.16984	0.085678	0.40904	-1.95	-2.0938	-2.6042	-1.9854	-2.3042	-2.7417	-2.0729	-2.5979	-2.2708	-2.1813	-2.7646	-2.0833	-2.2854	-2.7104	-1.95	-2.5312	84.020	81.579	18.431	229.194	33.711	23.736	207.866	-26.263	257.986	11.888	234.721	-75.860	55.179	264.820	186.501	29.407	0.00014151	0.00013601	5.5871e-05	999.96	1.7358e-07	2.4005e-06	1067.2	209.46	2.7439e-06	5.5031e-07	260.13	74.218	58.442	17.49	2.4127e-06	24.276	0.00035732	0.00038674	0.00010699	985.59	4.1042e-06	4.0299e-06	1054.7	207.78	4.2149e-06	4.0875e-06	258.84	74.884	59.344	17.709	4.0423e-06	24.755	120.576	-3.310	10.961	-78.200	56.782	94.763	-78.412	-70.290	-6.218	220.598	-71.148	-64.550	-64.681	-56.700	260.192	-57.073	-8191	255	
21321.588	1	1	0	0	0.093778	0.26087	0.12981	0.41779	0.0308	0.33312	0.28069	0.21596	0.24182	0.15433	0.064172	0.21033	0.077222	0.086653	0.14003	0.19386	-1.9958	-1.9792	-2.8063	-2.0187	-2.1646	-2.5521	-2.15	-2.7396	-2.4646	-1.8708	-2.7771	-2.1042	-2.2104	-2.7896	-1.8333	-2.4437	210.915	248.721	78.714	219.556	262.910	227.838	183.843	144.148	185.073	-75.347	-35.312	38.800	131.619	260.368	11.325	147.633	0.00017479	0.00041601	0.00011538	993.88	2.5537e-06	2.9073e-06	1059.4	207.03	2.963e-06	5.3339e-06	259.4	74.465	58.262	17.353	1.5292e-06	24.377	0.00034907	0.00037063	0.00010287	980.46	4.1109e-06	4.0243e-06	1049	206.61	4.0284e-06	4.1758e-06	258.37	74.906	59.425	17.731	4.3095e-06	24.773	130.601	-5.656	-3.600	-78.403	109.069	51.156	-78.039	-70.253	66.733	92.504	-70.792	-64.752	-63.870	-56.936	36.047	-56.821	-8191	255	
21321.684	1	1	0	0	0.1305	0.061741	0.02968	0.31206	0.06654	0.10821	0.21204	0.11707	0.19717	0.12556	0.077016	0.10035	0.06588	0.16689	0.12264	0.10071	-2.0854	-1.9417	-2.6917	-2.2417	-2.1396	-2.7854	-2.1479	-2.4979	-2.5479	-2.0563	-2.5604	-2.2667	-1.9979	-2.9167	-2.0583	-2.4979	230.943	-66.063	139.078	239.850	168.661	-2.351	220.380	175.725	75.188	-72.766	233.187	-70.863	121.907	168.004	214.801	192.285	7.0511e-05	0.00039124	0.00012168	1001.3	2.2707e-06	5.7541e-06	1060	207.66	3.266e-06	4.1703e-06	258.78	74.098	58.886	17.561	2.2621e-06	24.401	0.00037966	0.00039538	0.00011349	983.34	4.3445e-06	4.3209e-06	1049.8	207.3	4.4536e-06	4.4151e-06	258.37	74.587	59.491	17.771	4.1771e-06	24.827	101.134	-34.732	-34.137	-78.252	69.866	51.398	-78.286	-70.521	36.462	49.233	-70.603	-63.940	-63.941	-56.350	42.570	-57.120	-8191	255	
21321.805	1	1	0	0	0.24821	0.24993	0.20175	0.14401	0.19914	0.12154	0.046216	0.1848	0.24342	0.030006	0.035936	0.19814	0.16615	0.19117	0.19466	0.14947	-2.1958	-2.0458	-2.8146	-2.3917	-2.0312	-2.8438	-2.1625	-2.3875	-2.5604	-1.875	-2.6458	-2.5583	-1.9375	-2.7562	-2.25	-2.5604	10.973	256.884	232.045	236.430	43.813	242.172	216.669	119.798	78.179	2.125	182.244	267.201	15.436	252.625	138.783	221.920	0.00018171	0.00029526	2.4768e-05	998.9	1.4456e-06	6.5555e-07	1065.3	208.34	2.5011e-06	2.8692e-06	260.31	74.141	58.5	17.535	2.3225e-06	24.379	0.00036339	0.00038115	0.00010765	980.77	4.0937e-06	4.0762e-06	1050.4	207.15	3.9932e-06	4.2379e-06	258.42	74.774	59.334	17.795	4.2084e-06	24.765	111.436	20.294	6.649	-77.958	175.867	161.916	-78.218	-70.107	-21.516	99.393	-70.724	-64.145	-63.703	-56.397	44.302	-56.707	-8191	255	
21321.900	1	1	0	0	0.25077	0.27403	0.14733	0.32322	0.057691	0.21268	0.12181	0.18615	0.21057	0.16649	0.23233	0.10864	0.31007	0.11497	0.2261	0.11456	-2.3771	-1.9813	-2.5354	-2.4875	-1.9875	-2.6437	-2.2104	-2.1708	-2.8896	-1.9417	-2.5896	-2.5458	-1.9562	-2.8104	-2.1979	-2.1708	8.488	220.137	85.393	270.138	237.902	48.962	-24.954	-82.584	88.868	126.637	218.819	103.507	-53.785	-41.423	80.383	18.567	0.00013017	0.00029045	0.00010689	988.79	3.4833e-06	2.6929e-06	1062.2	206.27	3.2976e-06	3.9601e-06	258.08	74.16	58.887	17.521	4.7745e-06	24.26	0.00035784	0.00037293	0.00010232	977.33	4.1001e-06	4.0742e-06	1048.7	206.49	4.0647e-06	4.1695e-06	257.88	74.71	59.318	17.751	4.0887e-06	24.801	109.082	47.030	25.661	-77.957	59.966	-25.369	-77.898	-70.132	110.651	30.705	-70.821	-64.091	-63.681	-56.366	9.750	-57.004	-8191	255	
21321.996	1	1	0	0	0.15353	0.12514	0.20727	0.1337	0.19596	0.029626	0.067929	0.1603	0.19105	0.12121	0.21137	0.10067	0.16651	0.020256	0.013101	0.15712	-2.4146	-2.0687	-2.4875	-2.5708	-1.9604	-2.7042	-2.475	-2.1292	-2.5938	-1.9688	-2.4021	-2.75	-2.0062	-2.5979	-2.2812	-2.0333	11.455	229.891	70.714	239.922	189.778	-57.670	105.881	243.218	260.070	93.605	222.182	-61.822	188.282	-76.346	153.043	201.475	9.294e-05	0.00050778	0.00010704	995.06	3.594e-06	1.9458e-06	1059.5	207.77	2.0667e-06	3.4675e-06	259.51	74.005	58.676	17.371	1.6964e-06	24.393	0.00036105	0.00037423	0.00010575	980.23	4.2984e-06	4.0584e-06	1050	207.1	4.1815e-06	4.1799e-06	258.34	74.747	59.432	17.667	4.0405e-06	24.777	120.982	1.217	41.615	-78.177	11.429	13.659	-78.003	-70.082	259.774	84.286	-70.741	-64.219	-64.084	-56.476	-51.615	-56.825	-8191	255	
21322.092	1	1	0	0	0.053521	0.028506	0.13202	0.13202	0.07615	0.2394	0.14082	0.022136	0.034446	0.25394	0.15923	0.21182	0.074833	0.053773	0.11441	0.065375	-2.4896	-1.9854	-2.175	-2.5938	-1.8771	-2.7604	-2.5292	-2.0646	-2.8438	-2.1146	-2.225	-2.6625	-1.9646	-2.3375	-2.3542	-1.9312	150.085	155.214	-65.767	-69.060	-59.409	131.009	142.085	-71.424	105.952	113.599	-73.162	-25.004	196.646	0.111	-86.360	87.741	0.00014908	0.00020968	0.00011227	990.87	3.5244e-06	5.798e-06	1064.1	207.38	2.7948e-06	3.5013e-06	258.99	73.87	58.309	17.536	1.8013e-06	24.069	0.00034863	0.00037296	0.00010169	976.63	4.1084e-06	4.0868e-06	1046.9	206.58	3.9928e-06	4.0964e-06	259.07	74.435	59.121	17.748	4.1418e-06	24.722	99.443	-48.181	-12.483	-77.901	65.293	50.250	-78.063	-70.425	-8.260	119.249	-70.731	-64.492	-64.411	-56.503	59.193	-56.911	-8191	255	
21322.189	1	1	0	0	0.11304	0.13678	0.19503	0.082218	0.35066	0.084689	0.149	0.041454	0.17409	0.12562	0.14378	0.12015	0.091282	0.30231	0.029504	0.1249	-2.4667	-2.0208	-2.1312	-2.7708	-2.025	-2.3521	-2.4062	-2.1	-2.5854	-2.2792	-2.1854	-2.8729	-1.9458	-2.5375	-2.4479	-2.0146	-11.519	45.555	-3.920	-54.888	-63.504	128.783	163.079	175.539	-70.688	28.283	256.844	45.012	269.429	-32.923	71.965	159.089	0.00014736	8.7279e-05	0.00010462	996.87	4.6765e-06	2.3705e-06	1057.2	207.92	1.8128e-06	3.7532e-06	258.93	73.591	58.984	17.528	4.0074e-06	24.051	0.00036076	0.00038637	0.00010928	981.37	4.1742e-06	4.133e-06	1047.4	206.97	4.0923e-06	4.0709e-06	258.43	74.684	59.524	17.747	4.1742e-06	24.641	113.039	39.307	37.496	-78.157	44.543	24.064	-78.233	-70.770	44.313	64.759	-71.054	-64.330	-63.594	-56.607	70.713	-56.750	-8191	255	
21322.285	1	1	0	0	0.079154	0.22881	0.48406	0.37107	0.14214	0.11659	0.045813	0.048562	0.14912	0.19578	0.11718	0.076793	0.11374	0.12579	0.062372	0.16956	-2.2604	-2.3354	-2.0604	-2.7208	-1.9312	-2.3937	-2.85	-1.7792	-2.6188	-2.3292	-2.2229	-2.6917	-2.0396	-2.2062	-2.6188	-2.0292	104.136	173.815	89.870	17.444	205.197	112.773	-70.975	34.728	24.580	237.700	-87.022	197.790	158.818	-7.527	141.590	74.834	0.00016068	0.00032269	4.8958e-05	997.32	3.4003e-06	4.2992e-06	1057	206.45	1.6574e-06	2.5882e-06	258.07	74.129	59.008	17.458	2.5269e-06	24.034	0.0003537	0.00038318	0.00010851	979.04	4.0533e-06	3.9736e-06	1044.6	206.03	3.9355e-06	3.9744e-06	257.36	74.745	59.238	17.678	3.8467e-06	24.618	107.595	28.424	40.514	-77.997	39.394	47.051	-78.106	-70.352	4.860	39.136	-70.786	-64.272	-64.206	-56.487	86.342	-56.940	-8191	255	
21322.381	1	1	0	0	0.11328	0.19618	0.14829	0.24991	0.34089	0.1377	0.11349	0.026825	0.28797	0.13573	0.19453	0.16922	0.16084	0.1028	0.075073	0.11124	-1.9958	-2.4146	-1.9667	-2.5729	-2.0729	-2.0854	-2.875	-2.05	-2.5896	-2.6437	-2.0021	-2.7458	-2.1042	-2.3458	-2.8521	-2.1333	16.319	-2.517	206.419	63.475	168.347	176.321	-75.624	185.985	22.866	-84.242	239.580	113.108	232.707	212.326	196.988	248.920	0.00019293	0.00054186	6.5933e-05	992.57	3.1913e-06	1.2211e-06	1059.6	207.51	1.0467e-06	4.5394e-06	257.63	73.903	58.566	17.292	2.5968e-06	24.17	0.00034313	0.00035066	9.9403e-05	975.39	3.9884e-06	3.9146e-06	1045.2	206.62	3.9344e-06	3.9906e-06	257.19	74.726	59.039	17.638	3.87e-06	24.688	130.034	17.711	15.287	-77.922	59.614	51.423	-77.726	-70.294	3.069	38.029	-70.611	-64.100	-63.689	-56.322	40.501	-57.089	-8191	255	
21322.500	1	1	0	0	0.29033	0.3169	0.025363	0.16215	0.12247	0.056978	0.18129	0.24255	0.27868	0.12542	0.1137	0.26248	0.19856	0.23204	0.28061	0.14564	-2.1417	-2.5333	-1.9188	-2.6792	-2.25	-2.1229	-2.8979	-1.9604	-2.3542	-2.6208	-1.7854	-2.7021	-2.2333	-2.0604	-2.625	-2.0542	179.832	117.617	113.384	221.641	-19.750	47.275	128.049	189.537	88.876	29.549	236.565	174.438	241.802	108.920	50.544	177.411	0.00012657	0.00032337	8.1259e-05	991.72	1.3812e-06	1.6231e-06	1054.6	206.28	3.8594e-06	3.3385e-06	259.43	74.151	58.632	17.271	4.8809e-06	24.02	0.00033829	0.00035769	9.9304e-05	972.92	3.9214e-06	3.9403e-06	1043.2	205.75	3.8857e-06	3.9123e-06	258.32	74.725	59.033	17.656	3.857e-06	24.529	132.820	-12.628	-24.414	-77.882	44.425	94.762	-77.863	-70.377	-8.275	131.092	-70.446	-63.920	-63.544	-56.201	68.723	-56.877	-8191	255	
21322.596	1	1	0	0	0.25224	0.018941	0.17719	0.1259	0.20706	0.16241	0.23668	0.14156	0.19289	0.11025	0.058652	0.16938	0.11487	0.31252	0.042788	0.065016	-1.7521	-2.6771	-1.8167	-2.4896	-2.2687	-2.0521	-2.9542	-2.1521	-2.1542	-2.7021	-1.9354	-2.5229	-2.4833	-2.0812	-2.7583	-2.0938	246.308	182.104	52.436	260.681	-1.480	-54.845	245.350	253.781	-80.170	-3.424	103.000	263.764	261.557	234.574	256.982	-66.386	0.00015755	0.00034281	7.1145e-05	988.07	7.0263e-07	1.2062e-06	1058.9	207.73	3.2057e-06	3.8018e-06	258.85	73.966	58.593	17.451	4.5062e-06	24.175	0.0003503	0.00034401	0.00010254	971.78	3.9213e-06	3.936e-06	1042.6	205.98	3.9014e-06	3.8642e-06	257.29	74.658	59.05	17.681	3.8308e-06	24.668	123.847	69.832	-19.254	-77.708	4.583	91.328	-78.020	-70.135	-58.515	75.479	-70.870	-64.005	-63.454	-56.297	9.736	-56.978	-8191	255	
21322.691	1	1	0	0	0.12467	0.10144	0.17101	0.17697	0.27629	0.28526	0.14738	0.28015	0.12095	0.089565	0.17519	0.077925	0.28163	0.2812	0.13083	0.31368	-1.6167	-2.7167	-1.8438	-2.6375	-2.5354	-1.8188	-3.0271	-2.3229	-1.9896	-2.7646	-2.1417	-2.4458	-2.5271	-1.725	-2.6188	-2.4604	265.170	100.527	93.344	-49.027	78.383	225.298	221.472	197.454	141.373	178.313	228.956	11.275	265.056	262.083	135.984	221.020	0.00019622	0.00045875	2.3574e-05	995.49	5.0907e-06	1.7231e-06	1054.6	207.23	5.8026e-07	4.4056e-06	258.67	73.375	58.728	17.212	3.9953e-06	24.026	0.00034866	0.00035959	9.6545e-05	976.44	3.9505e-06	3.8388e-06	1043.3	205.99	3.878e-06	3.9054e-06	257.41	74.444	59.072	17.554	3.9304e-06	24.609	91.703	-5.793	212.074	-77.791	56.668	32.812	-77.531	-70.318	4.446	81.804	-70.536	-63.801	-63.417	-56.141	45.071	-56.901	-8191	255	
21322.764	1	1	0	0	0.27737	0.22025	0.13908	0.089313	0.30319	0.21181	0.045351	0.1756	0.27669	0.40553	0.15958	0.35904	0.25487	0.07678	0.1089	0.24966	-1.575	-3.0625	-2.0229	-2.3354	-2.5479	-1.8021	-2.8729	-2.3583	-1.8521	-2.6437	-2.2354	-2.1813	-2.6667	-1.8729	-2.4813	-2.3708	134.780	11.681	-6.765	267.563	-81.351	-0.014	-63.061	218.311	173.154	69.217	49.441	186.095	105.996	235.463	213.661	210.906	0.00016634	0.00023044	1.677e-05	990.02	4.3561e-06	2.1272e-06	1052	207.32	2.8153e-06	2.2934e-06	257.9	73.798	58.057	17.235	3.0103e-06	24.245	0.00034968	0.00035414	0.00010117	972.28	4.2262e-06	4.1818e-06	1042.7	205.86	4.0877e-06	4.0625e-06	257.04	74.46	58.96	17.564	4.205e-06	24.616	126.146	-23.745	-87.943	-77.820	27.796	34.018	-77.849	-70.270	33.132	64.397	-70.882	-64.223	-63.855	-56.409	45.916	-56.438	-8191	255	
21322.885	1	1	0	0	0.051099	0.12836	0.17414	0.15614	0.14961	0.090081	0.17411	0.030966	0.058592	0.21	0.13874	0.16412	0.050096	0.35554	0.161	0.10608	-1.4958	-2.8229	-1.9271	-2.2687	-2.675	-1.8979	-2.7958	-2.4625	-2.0083	-2.5333	-2.0792	-2.1458	-2.5312	-1.8438	-2.3125	-2.4813	211.057	261.060	-30.719	250.347	-40.652	116.051	231.632	265.335	123.013	32.131	-75.970	6.283	-42.621	-52.602	-46.006	-84.131	0.00012809	0.00026297	5.8101e-05	984.9	2.5823e-06	2.8718e-06	1054.2	205.34	4.9423e-06	4.0193e-06	257.94	73.569	58.035	17.201	6.5821e-06	23.944	0.00037231	0.00039145	0.00010767	972.56	4.1927e-06	4.2632e-06	1041.9	205.43	4.2263e-06	4.2241e-06	256.52	74.422	58.925	17.603	4.105e-06	24.565	108.628	-42.261	88.513	-77.899	83.159	113.915	-77.564	-70.380	9.917	104.019	-70.612	-64.207	-64.492	-56.405	90.858	-56.746	-8191	255	
21322.980	1	1	0	0	0.36179	0.16919	0.21035	0.27247	0.18649	0.13575	0.22929	0.047045	0.34006	0.17513	0.17591	0.14693	0.42005	0.11839	0.30283	0.22974	-1.4771	-2.5021	-2.0875	-1.9	-2.7438	-1.8979	-2.5667	-2.5854	-1.9625	-2.6813	-2.5146	-2.2	-2.7062	-1.9833	-2.3271	-2.6813	114.842	108.224	-41.635	249.260	-44.318	109.570	231.770	-24.264	-83.142	-6.641	-3.836	-20.209	-25.156	20.748	149.513	-63.175	0.00012514	0.00032995	6.5459e-05	992.7	1.9344e-06	5.0827e-06	1051.9	205.64	3.5924e-06	1.6975e-06	259.26	73.89	58.455	17.206	1.4449e-06	24.204	0.00037649	0.00038855	0.00010662	975.34	4.0778e-06	4.3049e-06	1039.9	205.35	4.1847e-06	4.1235e-06	257.84	74.358	59.137	17.587	4.0274e-06	24.641	148.197	-28.721	31.225	-77.820	131.750	50.601	-77.696	-70.303	6.613	146.541	-70.822	-63.923	-63.742	-56.326	42.059	-56.194	-8191	255	
21323.076	1	1	0	0	0.32979	0.1792	0.32511	0.14896	0.28646	0.12562	0.29017	0.35036	0.17789	0.23535	0.15734	0.11162	0.058179	0.26611	0.19766	0.16729	-1.5854	-2.6521	-2.2833	-2.0417	-2.8375	-2.0958	-2.5479	-2.7771	-1.8333	-2.6417	-2.3792	-2.0875	-2.7104	-2.0167	-2.2771	-2.725	-68.077	63.210	87.841	-19.477	62.997	101.888	227.932	181.986	61.138	121.079	11.861	-14.493	174.174	2.128	-55.995	203.082	3.7049e-05	0.00019679	7.4942e-05	989.6	1.9586e-06	3.7767e-06	1049.3	207.21	1.1669e-06	2.2885e-06	257.45	73.323	58.096	17.376	2.6522e-06	24.09	0.00037239	0.00038493	0.00010887	973.65	4.2885e-06	4.3053e-06	1040.9	205.81	4.1381e-06	4.0726e-06	257.2	74.295	58.818	17.62	4.2456e-06	24.574	88.749	15.162	-3.630	-77.838	51.314	29.345	-77.778	-70.316	-64.128	177.682	-70.186	-63.998	-63.863	-56.437	63.942	-56.675	-8191	255	
21323.174	1	1	0	0	0.086569	0.13782	0.23062	0.36099	0.22457	0.1518	0.13642	0.22508	0.14229	0.048344	0.3489	0.23773	0.12433	0.11328	0.11392	0.06981	-1.5292	-2.5729	-2.5354	-1.8646	-2.7646	-2.1854	-2.1896	-2.6104	-1.9917	-2.4021	-2.6208	-1.7479	-2.7958	-2.2292	-2.0271	-2.7542	24.029	214.420	-29.071	180.655	159.353	-5.967	68.118	260.103	136.221	190.211	-38.454	252.621	113.085	184.563	270.003	196.732	0.0001633	0.00013383	0.00016499	989.43	4.875e-07	3.3898e-06	1054.3	206.61	2.1641e-06	4.79e-06	258.48	73.481	58.305	17.326	4.3622e-06	24.052	0.00036371	0.00038441	0.00010395	976.57	4.1621e-06	4.1638e-06	1041.2	206.02	4.2613e-06	4.2709e-06	258.06	74.278	59.038	17.598	4.3157e-06	24.617	107.501	76.773	-8.755	-78.114	134.963	63.252	-77.642	-70.414	43.180	84.133	-70.346	-64.090	-63.553	-56.084	23.250	-56.631	-8191	255	
21323.293	1	1	0	0	0.13826	0.12979	0.19986	0.29948	0.14483	0.066276	0.071719	0.23061	0.24112	0.13142	0.14627	0.10373	0.43884	0.15496	0.3578	0.13978	-1.5187	-2.2417	-2.5771	-1.8792	-2.6083	-2.2979	-2.2167	-2.825	-1.9271	-2.3458	-2.6792	-1.8604	-2.7208	-2.2833	-2.1271	-2.7979	-45.330	132.812	98.157	-83.031	133.867	19.831	226.825	146.584	95.311	-1.987	250.988	-3.032	238.423	199.329	176.184	219.373	8.1973e-05	0.00011779	0.00011042	988.09	8.8379e-07	3.2128e-06	1055	207.46	2.8775e-06	3.5728e-06	258.39	73.612	58.748	17.27	7.3324e-06	23.984	0.00035975	0.00037109	0.00010666	974.07	4.063e-06	4.1377e-06	1042.5	205.97	4.2394e-06	4.1523e-06	256.8	74.31	58.954	17.61	4.1148e-06	24.586	155.979	6.230	-19.107	-78.198	76.758	133.293	-78.011	-70.044	223.031	-29.566	-70.381	-63.929	-63.752	-56.190	41.859	-57.022	-8191	255	
21323.365	1	1	0	0	0.073898	0.14358	0.1261	0.012606	0.18889	0.18742	0.34218	0.16808	0.11634	0.075934	0.17655	0.11108	0.17237	0.15145	0.15786	0.063671	-1.4854	-2.2792	-2.6813	-1.8229	-2.5438	-2.4792	-2.0958	-2.6958	-1.9208	-2.0563	-2.8354	-1.9167	-2.5021	-2.6562	-1.9062	-2.6688	233.525	165.993	33.739	225.231	67.572	182.506	178.969	-71.153	1.210	244.073	10.463	154.133	-54.457	198.635	266.224	-21.367	0.00018323	0.00018756	0.00013529	989.96	1.2339e-06	1.9345e-06	1053.8	207.34	3.5953e-06	4.0976e-06	259.83	73.106	58.329	17.293	4.1469e-06	24.031	0.00034975	0.00036967	0.00010236	973.84	4.0295e-06	4.044e-06	1040.8	206.12	3.98e-06	3.9719e-06	257.49	74.206	58.971	17.608	3.9785e-06	24.53	117.676	11.759	-36.615	-78.104	98.120	80.495	-77.552	-70.198	15.013	122.268	-70.865	-64.176	-63.308	-56.493	58.561	-56.734	-8191	255	
21323.484	1	1	0	0	0.20269	0.21042	0.14403	0.13857	0.24262	0.14013	0.20601	0.26318	0.30709	0.12624	0.09401	0.095385	0.1126	0.097754	0.38942	0.048228	-1.7583	-2.2292	-2.8063	-1.9521	-2.2917	-2.5271	-2.0083	-2.6604	-2.1875	-2.0833	-2.6937	-1.9958	-2.3146	-2.4958	-1.8813	-2.4917	-37.852	-31.010	7.884	-32.148	-39.295	150.328	164.899	231.258	222.857	74.293	8.665	44.093	194.528	128.249	240.592	-6.330	0.00014587	7.8637e-05	0.00010432	987.03	3.3242e-06	4.0407e-06	1055.6	207.33	3.058e-06	2.3983e-06	257.65	73.791	58.16	17.374	2.0095e-06	24.344	0.00034631	0.00036863	0.00010352	971.51	3.993e-06	3.9571e-06	1042.1	206.09	3.9316e-06	4.0884e-06	257.21	74.296	58.953	17.558	4.0441e-06	24.6	105.874	17.755	-1.240	-78.091	118.707	71.902	-78.106	-70.500	35.028	137.713	-70.803	-64.526	-63.662	-56.034	79.616	-57.017	-8191	255	
21323.580	1	1	0	0	0.17732	0.28334	0.30067	0.25671	0.23415	0.18172	0.32475	0.22562	0.11396	0.26627	0.03123	0.19433	0.13769	0.25026	0.11653	0.24537	-2.0021	-2.0229	-2.7313	-1.9667	-2.1458	-2.6104	-2.0792	-2.675	-2.5	-1.8104	-2.8208	-2.0646	-2.1708	-2.6542	-1.85	-2.5167	-52.107	32.552	224.935	175.391	-43.583	121.034	207.640	-62.950	-55.438	243.444	-1.998	146.553	155.403	271.109	3.408	-33.793	0.00012449	0.00050135	9.7679e-05	989.16	2.5429e-06	1.5031e-06	1048.9	206.59	2.0165e-06	3.2159e-06	257.86	74.114	58.236	17.317	3.761e-06	24.188	0.00035953	0.00036761	0.00010352	972.42	4.0908e-06	4.1185e-06	1038.6	205.74	3.9335e-06	4.1003e-06	257.19	74.387	58.988	17.603	3.9968e-06	24.568	96.143	8.311	-83.484	-78.370	26.591	89.444	-78.330	-70.860	40.907	70.495	-71.152	-64.536	-64.341	-56.991	97.152	-57.046	-8191	255	
21323.676	1	1	0	0	0.13943	0.10343	0.11875	0.11603	0.10748	0.027336	0.073228	0.10915	0.25353	0.18415	0.097049	0.19861	0.24791	0.21507	0.22765	0.25256	-2.0438	-2.0854	-2.6437	-2.3292	-2.2104	-2.7583	-2.1792	-2.6312	-2.4375	-2.0979	-2.8396	-2.3271	-2.0021	-2.5479	-1.9625	-2.4917	210.154	161.638	140.105	250.529	36.519	178.061	-64.199	-87.685	-55.093	31.249	100.507	-29.267	144.816	10.871	215.904	-77.496	0.00014272	0.00033519	3.4307e-05	986.91	2.9975e-06	2.7559e-06	1047.2	206.32	1.0545e-06	1.4705e-06	257.23	74.266	58.739	17.372	3.5214e-06	24.031	0.00035496	0.00037038	0.0001004	970.12	4.0731e-06	3.8474e-06	1039.4	206.2	3.8903e-06	3.9874e-06	256.78	74.472	58.963	17.568	3.8915e-06	24.603	82.577	5.637	18.296	-78.468	11.233	-26.870	-78.684	-70.634	-31.879	-20.489	-71.402	-64.870	-64.452	-57.163	44.828	-57.357	-8191	255	
21323.773	1	1	0	0	0.09139	0.099789	0.15777	0.21745	0.19834	0.06583	0.17847	0.02105	0.064025	0.25439	0.050721	0.057384	0.053038	0.083396	0.12884	0.070257	-2.0646	-1.9167	-2.5875	-2.2146	-1.9729	-2.675	-2.0312	-2.3063	-2.4813	-1.9125	-2.7208	-2.3312	-1.9896	-2.5729	-2.0729	-2.475	-33.045	-47.071	235.176	264.394	48.159	50.282	198.460	40.992	38.605	113.816	221.827	206.505	63.921	138.198	29.775	-88.584	0.00017389	0.00035659	9.9726e-05	981.65	2.4235e-06	5.4247e-06	1053	207.1	7.57e-07	2.7265e-06	258.89	73.91	58.291	17.409	2.0585e-06	24.076	0.00034626	0.00036169	9.8476e-05	969.24	4.0992e-06	3.9811e-06	1040.2	205.69	4.0098e-06	4.0653e-06	257.36	74.167	59.049	17.633	4.0742e-06	24.572	140.923	-11.793	-18.613	-78.636	4.932	106.585	-78.843	-70.783	-22.534	-9.555	-71.415	-65.164	-64.405	-56.807	54.686	-57.798	-8191	255	
21323.893	1	1	0	0	0.15811	0.087179	0.2421	0.39689	0.22091	0.11287	0.1659	0.18501	0.17268	0.090549	0.11505	0.2217	0.040082	0.13007	0.23943	0.20038	-2.2479	-1.9438	-2.4458	-2.4813	-1.9937	-2.7812	-2.1104	-2.1979	-2.85	-2.1312	-2.4083	-2.3896	-1.7917	-2.5938	-2.1771	-2.1271	245.205	-85.236	143.218	230.368	1.778	-84.741	8.024	196.321	236.817	221.803	3.256	206.143	147.766	244.035	186.452	201.949	0.00012432	0.00024245	7.6387e-05	985.2	2.1833e-06	2.2139e-06	1051.1	205.58	6.5911e-07	4.2751e-06	258.22	73.395	58.104	17.219	2.9836e-06	23.924	0.00034631	0.00037084	0.00010036	970.39	4.0974e-06	4.0284e-06	1041.1	205.79	4.018e-06	4.0344e-06	257.19	74.15	59.027	17.584	3.9968e-06	24.529	105.010	-8.274	-28.802	-78.724	89.178	63.647	-78.803	-71.141	158.549	79.413	-71.695	-65.002	-64.616	-56.565	45.773	-57.638	-8191	255	
21323.965	1	1	0	0	0.1214	0.23162	0.20069	0.18802	0.11045	0.09431	0.24517	0.14871	0.044577	0.24911	0.18266	0.14912	0.07708	0.18567	0.15519	0.18106	-2.3021	-1.8312	-2.4104	-2.6188	-1.875	-2.6646	-2.3896	-2.0917	-2.5312	-1.8687	-2.3708	-2.6458	-1.7042	-2.7229	-2.1875	-1.8958	257.759	2.885	250.371	121.110	-78.162	-33.853	195.200	-23.582	5.374	65.326	257.894	65.101	-67.498	188.561	72.889	241.646	0.00012293	0.00057955	7.9078e-05	982.69	9.6246e-07	4.406e-06	1050	205.71	3.8113e-06	3.574e-06	258.78	73.681	58.29	17.334	1.4918e-06	23.983	0.00034803	0.00036989	0.00010508	969.92	4.1594e-06	3.9652e-06	1038.6	205.39	3.9551e-06	4.0903e-06	257.62	74.195	59.104	17.617	4.0379e-06	24.521	107.712	13.018	8.988	-78.723	48.389	30.510	-78.601	-71.074	263.013	-80.185	-71.523	-64.697	-64.755	-56.923	-42.163	-57.603	-8191	255	
21324.061	1	1	0	0	0.2158	0.10879	0.12743	0.058988	0.16411	0.10809	0.18614	0.039369	0.089737	0.13916	0.22696	0.10433	0.19137	0.149	0.26147	0.14991	-2.2708	-1.8208	-2.2521	-2.7021	-1.7917	-2.525	-2.5312	-2.0729	-2.6958	-2.1125	-2.125	-2.7583	-1.8937	-2.4229	-2.3104	-1.8083	79.401	212.930	261.087	166.938	96.948	51.844	160.396	-35.069	-24.157	154.999	223.542	177.141	214.883	212.949	-67.712	267.030	0.00010545	0.00019892	8.6719e-05	983.35	2.41e-06	6.4416e-06	1048.3	206.26	2.0181e-06	2.7038e-06	257.11	73.49	57.441	17.325	6.1059e-06	24.094	0.0003467	0.00037761	0.00010229	970.09	4.0884e-06	4.0567e-06	1038.8	205.79	4.0395e-06	4.0987e-06	256.73	74.428	58.689	17.594	4.0408e-06	24.594	139.919	-47.848	22.821	-78.815	80.331	14.902	-78.625	-71.279	25.202	73.328	-71.082	-64.608	-64.783	-57.203	20.800	-57.633	-8191	255	
21324.182	1	1	0	0	0.25085	0.16769	0.19074	0.16979	0.14486	0.044425	0.05318	0.073676	0.040893	0.31245	0.16832	0.44957	0.1496	0.046235	0.10965	0.16068	-2.2333	-2.0792	-2.1312	-2.65	-1.8062	-2.4	-2.6271	-1.9583	-2.7521	-2.0542	-2.0479	-2.5854	-1.9333	-2.6	-2.4292	-2.0583	24.833	-35.025	-28.476	-32.465	26.235	138.385	-44.562	21.574	157.292	166.806	259.742	117.165	170.318	179.359	13.851	243.692	0.00018464	0.00027634	9.7946e-05	982.33	2.2325e-06	2.1112e-06	1047.9	206.88	4.1859e-06	3.1328e-06	256.41	73.761	58.104	17.409	7.729e-07	24.019	0.0003452	0.00037832	0.00010063	970.42	4.2596e-06	4.0559e-06	1037.9	206.17	4.0555e-06	4.1497e-06	256.97	74.398	59.092	17.652	3.8696e-06	24.507	109.606	-57.213	-27.274	-78.854	121.775	137.902	-78.968	-71.220	42.807	73.313	-71.284	-64.791	-64.420	-57.204	104.085	-57.572	-8191	255	
21324.275	1	1	0	0	0.18122	0.097839	0.20317	0.24086	0.2189	0.15797	0.14901	0.18955	0.09776	0.080549	0.13888	0.13458	0.12076	0.094281	0.19938	0.032702	-2.3354	-2.2521	-1.9583	-2.8417	-1.9146	-2.1562	-2.8021	-1.9583	-2.6396	-2.2438	-2.1021	-2.8104	-2.0833	-2.3604	-2.7958	-1.7292	255.321	189.732	261.841	247.437	-1.052	260.659	-74.870	210.387	124.520	-42.176	123.245	22.172	90.949	161.040	-20.959	27.409	0.00011229	0.00033181	0.00017425	983.83	3.4749e-06	2.3715e-06	1050.8	204.42	3.0628e-06	3.7785e-06	257.18	73.849	58.364	17.303	4.4459e-06	24.159	0.00035247	0.00036417	0.00010416	970.46	3.9992e-06	3.9025e-06	1038.7	205.22	3.9855e-06	3.8579e-06	256.18	74.42	59.032	17.601	3.892e-06	24.574	72.026	-18.109	-20.242	-78.827	31.401	-10.182	-78.736	-71.032	45.864	90.217	-71.287	-64.834	-64.772	-56.809	21.326	-58.021	-8191	255	
21324.371	1	1	0	0	0.18346	0.049412	0.077555	0.2251	0.14477	0.25511	0.40171	0.1505	0.19452	0.093049	0.052549	0.024854	0.17506	0.23997	0.14781	0.18896	-2.1708	-2.5	-1.9792	-2.7417	-2.0208	-2.2021	-2.7146	-1.8542	-2.5312	-2.5104	-1.9104	-2.7667	-2.1771	-2.0979	-2.4813	-1.9813	22.940	-0.855	-48.079	-44.602	114.336	210.545	268.798	243.803	47.402	95.439	229.893	193.478	-56.391	-5.102	34.773	237.018	0.00018154	9.1372e-05	0.00010203	985.09	2.2212e-06	2.3573e-06	1052.5	206.85	4.1128e-06	3.1686e-06	256.28	73.827	58.088	17.223	5.1084e-06	24.049	0.0003403	0.00036143	0.00010103	971.89	4.0725e-06	4.0963e-06	1040.3	205.81	4.0504e-06	3.9267e-06	256.64	74.403	58.881	17.593	3.8596e-06	24.592	112.124	163.138	37.690	-78.864	101.673	26.094	-78.572	-70.826	-61.873	123.979	-71.449	-64.808	-64.388	-56.583	17.193	-57.670	-8191	255	
21324.469	1	1	0	0	0.10492	0.05957	0.37523	0.32089	0.15193	0.17698	0.22549	0.19057	0.090281	0.1842	0.23884	0.25688	0.099039	0.088192	0.11477	0.1699	-1.9833	-2.5354	-1.9438	-2.7833	-2.1417	-2.025	-2.7917	-1.9021	-2.3854	-2.6521	-2.075	-2.55	-2.0958	-1.9479	-2.6417	-2.1146	8.684	25.274	145.695	207.453	101.581	255.567	161.041	191.711	208.256	23.594	226.941	173.556	-2.488	158.566	193.568	204.193	0.00010923	0.00023479	6.9358e-05	985.19	4.675e-06	2.6811e-06	1049.7	205.67	7.8619e-07	4.0096e-06	257.8	73.268	58.29	17.404	5.8785e-06	24.058	0.00034746	0.00035598	0.00010257	971.02	4.0667e-06	3.9911e-06	1039.2	205.24	4.0073e-06	4.0318e-06	256.89	74.242	58.999	17.642	3.8811e-06	24.565	115.291	-63.697	-19.657	-78.774	69.613	51.187	-78.778	-71.352	27.514	57.968	-71.477	-64.425	-64.778	-56.943	38.983	-57.674	-8191	255	
21324.590	1	1	0	0	0.21251	0.14668	0.13343	0.24056	0.17679	0.21548	0.19842	0.24116	0.11262	0.090371	0.090696	0.12874	0.061568	0.041219	0.31473	0.15033	-1.7708	-2.525	-1.8646	-2.5854	-2.1813	-1.9479	-2.9562	-1.9667	-2.2188	-2.6646	-2.0083	-2.6292	-2.3333	-2.0187	-2.8479	-2.1104	228.620	175.479	249.405	-66.652	-27.918	93.613	235.034	7.269	80.802	-23.036	224.758	71.079	-26.495	-48.748	147.134	137.959	0.00015732	0.00043386	8.6539e-05	985.62	1.7273e-06	3.4145e-06	1049.6	206.14	3.0689e-06	2.646e-06	257.8	73.578	58.286	17.33	3.7491e-06	24.164	0.00034717	0.00035022	0.00010184	970.75	3.9736e-06	3.8699e-06	1039.3	205.2	3.9544e-06	3.9932e-06	256.82	74.275	58.964	17.626	3.8525e-06	24.562	118.369	8.452	6.525	-78.932	8.675	31.612	-78.872	-71.112	70.755	51.529	-71.670	-64.358	-64.999	-57.003	48.879	-57.700	-8191	255	
21324.660	1	1	0	0	0.27879	0.14696	0.44681	0.24368	0.024452	0.12819	0.16578	0.15095	0.18805	0.14738	0.23449	0.20483	0.020201	0.12325	0.034797	0.40784	-1.9167	-2.6875	-1.9937	-2.4771	-2.4979	-2.0833	-2.9521	-2.1146	-2.0229	-2.5979	-1.9958	-2.45	-2.5042	-2.0187	-2.6437	-2.3125	203.025	233.840	130.344	253.970	223.690	90.611	116.339	120.390	208.641	95.863	107.296	-17.383	254.490	202.271	-65.360	104.935	0.00013556	0.00026658	6.6367e-05	987.07	4.3499e-06	4.0803e-06	1045.8	206.36	2.938e-06	2.8723e-06	258.06	73.857	58.346	17.233	3.4685e-06	24	0.00033978	0.00034957	9.9346e-05	972.13	3.8271e-06	3.8788e-06	1039.3	205.32	3.9298e-06	3.9945e-06	257.34	74.497	59.002	17.562	3.9898e-06	24.545	89.228	1.928	23.818	-78.627	48.582	69.548	-78.610	-71.204	-17.151	77.475	-71.358	-64.797	-64.215	-56.650	38.335	-57.224	-8191	255	
21324.758	1	1	0	0	0.11073	0.078879	0.27054	0.12214	0.19575	0.17666	0.11959	0.1175	0.13002	0.043913	0.35417	0.17793	0.12344	0.1584	0.11022	0.11876	-1.6063	-2.5667	-1.9396	-2.2146	-2.4667	-1.9979	-2.7271	-2.3271	-2.0333	-2.8083	-1.9438	-2.425	-2.4875	-1.9625	-2.5396	-2.3375	11.857	63.728	117.925	216.028	79.826	-65.994	174.522	20.797	42.836	186.424	255.021	264.566	3.644	-28.674	31.975	-47.019	0.00016236	0.00027956	4.6526e-05	980.12	1.6095e-06	1.6488e-06	1049.7	205.12	5.4888e-06	1.6151e-06	258.61	73.216	58.742	17.128	3.0656e-06	24.113	0.00035696	0.00036113	0.00010088	969.82	4.0473e-06	4.0582e-06	1037.1	204.89	3.8949e-06	3.9485e-06	257.04	74.001	59.296	17.534	3.8002e-06	24.586	131.053	-48.704	-9.002	-78.586	80.402	64.763	-78.622	-71.144	46.754	83.216	-71.605	-64.573	-64.404	-56.807	71.858	-57.313	-8191	255	
21324.854	1	1	0	0	0.16847	0.081542	0.21645	0.22473	0.14697	0.21864	0.10002	0.18482	0.17097	0.2102	0.25654	0.14954	0.055384	0.28308	0.071714	0.36741	-1.65	-2.6604	-2.0333	-2.2812	-2.5417	-1.95	-2.6042	-2.5438	-1.8917	-2.7021	-2.2167	-2.1875	-2.6833	-1.8438	-2.4896	-2.5479	-10.453	77.258	-41.696	248.803	261.881	4.535	224.875	259.528	203.571	230.156	247.365	42.278	27.076	58.514	141.525	210.103	0.00011471	0.00025296	3.511e-05	987.09	3.8519e-06	4.0702e-06	1051.7	206.64	2.8793e-06	1.6861e-06	256.24	73.793	58.113	17.311	3.7357e-06	23.975	0.00035084	0.00035104	9.9455e-05	969.64	3.8856e-06	3.9934e-06	1038.1	205.47	3.9518e-06	3.8596e-06	256.42	74.328	58.959	17.584	3.8753e-06	24.524	108.842	-7.783	-43.330	-78.256	30.788	102.439	-78.400	-70.964	16.132	66.127	-71.285	-64.467	-64.831	-56.868	-22.254	-57.039	-8191	255	
21324.975	1	1	0	0	0.083238	0.21726	0.29171	0.10675	0.23569	0.080432	0.15114	0.17052	0.015526	0.093816	0.05757	0.10802	0.20998	0.13014	0.054103	0.09177	-1.4542	-2.5167	-2.1271	-2.1396	-2.825	-2.0729	-2.6271	-2.65	-2.0104	-2.5083	-2.3	-1.9854	-2.6458	-1.9854	-2.3875	-2.5979	81.513	94.030	258.811	85.686	141.356	151.939	178.108	243.823	-73.731	-67.989	196.120	252.047	238.750	-27.743	225.670	56.682	5.2373e-05	6.0324e-05	9.8252e-05	982.12	3.7908e-06	5.2513e-06	1048.6	206.89	7.0237e-07	1.5563e-06	255.86	73.876	58.482	17.442	6.2155e-07	24.134	0.0003415	0.00034781	0.0001013	969.85	3.8393e-06	3.8813e-06	1037.9	205.73	3.8058e-06	3.8461e-06	256.32	74.411	58.879	17.631	3.9804e-06	24.547	129.102	187.369	-26.379	-78.479	40.373	47.679	-78.405	-71.025	79.416	37.780	-71.744	-64.755	-64.138	-56.933	81.215	-57.291	-8191	255	
21325.070	1	1	0	0	0.0051855	0.21035	0.18392	0.16891	0.093812	0.22495	0.18896	0.095252	0.18617	0.15808	0.1534	0.18539	0.23582	0.16144	0.27845	0.090559	-1.4896	-2.5896	-2.2542	-2.0292	-2.7438	-1.9813	-2.5333	-2.6437	-2.025	-2.5229	-2.4813	-2.0833	-2.7104	-2.1396	-2.0104	-2.7375	235.857	226.911	147.449	-57.272	53.581	113.028	114.112	213.124	71.843	235.931	74.919	207.853	159.142	151.258	104.486	-38.171	0.00018369	0.00022102	4.0787e-05	977.63	2.5431e-06	3.3742e-06	1051.2	206.16	9.7015e-07	3.2929e-06	256.93	73.648	58.476	17.142	2.3439e-06	24.074	0.0003395	0.00035487	0.00010002	967.62	3.8781e-06	3.953e-06	1039	205.23	4.0555e-06	3.8169e-06	256.6	74.314	58.988	17.512	4.0481e-06	24.535	139.395	38.200	-30.085	-78.534	71.738	40.227	-78.688	-71.003	51.234	75.804	-71.433	-64.633	-64.291	-56.527	35.397	-57.452	-8191	255	
21325.166	1	1	0	0	0.094377	0.041847	0.19082	0.33907	0.049147	0.21463	0.28287	0.18698	0.091018	0.083667	0.19741	0.21686	0.2778	0.17101	0.099782	0.16792	-1.4833	-2.5583	-2.3604	-1.9896	-2.5979	-2.0229	-2.3917	-2.725	-1.925	-2.5729	-2.4542	-1.8521	-2.7208	-2.1292	-1.8125	-2.6375	212.185	2.855	111.513	-76.703	232.994	-38.044	192.126	46.699	163.360	216.548	206.641	190.016	202.019	239.180	106.502	244.945	0.00012992	0.00040185	7.8579e-05	977.66	2.542e-06	3.7661e-06	1052.6	205.95	2.8607e-06	3.3473e-06	256.11	73.725	58.586	17.279	4.2774e-06	24.074	0.00035445	0.00035735	9.8812e-05	967.05	3.9602e-06	3.9736e-06	1038.3	205.15	4.0089e-06	4.0752e-06	256.38	74.23	58.931	17.496	4.0407e-06	24.552	117.306	-50.391	51.025	-78.189	88.350	109.651	-78.428	-71.018	8.193	51.267	-71.511	-64.511	-64.230	-56.907	5.921	-57.382	-8191	255	
21325.262	1	1	0	0	0.044989	0.10702	0.11689	0.19637	0.066643	0.19951	0.24898	0.25681	0.082002	0.42558	0.1284	0.34646	0.076858	0.37474	0.34468	0.1504	-1.5458	-2.3708	-2.5042	-1.8854	-2.4167	-2.2375	-2.1417	-2.8354	-2	-2.3292	-2.6125	-1.9625	-2.6479	-2.3167	-2.1021	-2.8312	-85.295	36.273	132.421	-41.472	66.206	225.475	181.849	201.636	120.730	116.685	-54.245	230.248	242.666	-64.686	89.816	239.028	0.00017021	0.0003153	6.4329e-05	985.24	3.2874e-06	9.5262e-07	1050.2	206.91	4.2405e-06	5.2968e-06	254.25	73.145	58.399	17.298	6.8212e-06	23.971	0.00035208	0.00035019	0.00010224	969.13	3.9591e-06	3.9632e-06	1037.2	205.58	3.9909e-06	3.9479e-06	255.84	74.022	58.949	17.559	3.8927e-06	24.469	124.956	41.477	-28.549	-78.605	38.440	114.460	-78.482	-70.986	57.320	41.357	-71.269	-64.723	-64.477	-57.262	48.776	-57.502	-8191	255	
#DATA ENDS
