BOXY.EXE: ISS Imagent and Oximeter Data Acquisition Program Version 0.80
Ascii Record File

#ACQ INFORMATION
2  Detector Channels 
16  External MUX Channels 
1  Auxiliary Channels 
5000  Waveform (CCF) Frequency (Hz)
1  Waveforms Skipped 
30  Waveforms Averaged 
1  Cycles Averaged 
16  Acquisitions per Waveform 
10.0806  Updata Rate (Hz) 

#FILE INFORMATION
TRUE -- External MUX Channel results are PARSED.
FALSE -- AC DC and Phase are NOT grouped.
TRUE -- Companion Program Settings File CREATED.
FALSE -- AC data not excluded
FALSE -- DC data not excluded
FALSE -- Phase data not excluded
FALSE -- Auxillary Chn. data not excluded
Tab delimiters

#CALIBRATION STATE
TRUE -- Waveform Calibration Values APPLIED.


#AUX CALIBRATION VALUES
Val Type	aux-1	

Term	1.0000e+00	
Factor	0.0000e+00	


#WF CALIBRATION VALUES
A = Detector Channel
Val Type	A-AC1	A-AC2	A-AC3	A-AC4	A-AC5	A-AC6	A-AC7	A-AC8	A-AC9	A-AC10	A-AC11	A-AC12	A-AC13	A-AC14	A-AC15	A-AC16	A-DC1	A-DC2	A-DC3	A-DC4	A-DC5	A-DC6	A-DC7	A-DC8	A-DC9	A-DC10	A-DC11	A-DC12	A-DC13	A-DC14	A-DC15	A-DC16	A-Ph1	A-Ph2	A-Ph3	A-Ph4	A-Ph5	A-Ph6	A-Ph7	A-Ph8	A-Ph9	A-Ph10	A-Ph11	A-Ph12	A-Ph13	A-Ph14	A-Ph15	A-Ph16	

Term	0.00000e+00	0.00000e+00	0.00000e+00	0.00000e+00	0.00000e+00	0.00000e+00	0.00000e+00	0.00000e+00	0.00000e+00	0.00000e+00	0.00000e+00	0.00000e+00	0.00000e+00	0.00000e+00	0.00000e+00	0.00000e+00	0.00000e+00	0.00000e+00	0.00000e+00	0.00000e+00	0.00000e+00	0.00000e+00	0.00000e+00	0.00000e+00	0.00000e+00	0.00000e+00	0.00000e+00	0.00000e+00	0.00000e+00	0.00000e+00	0.00000e+00	0.00000e+00	0.00000e+00	0.00000e+00	0.00000e+00	0.00000e+00	0.00000e+00	0.00000e+00	0.00000e+00	0.00000e+00	0.00000e+00	0.00000e+00	0.00000e+00	0.00000e+00	0.00000e+00	0.00000e+00	0.00000e+00	0.00000e+00	
Factor	1.00000e+00	1.00000e+00	1.00000e+00	1.00000e+00	1.00000e+00	1.00000e+00	1.00000e+00	1.00000e+00	1.00000e+00	1.00000e+00	1.00000e+00	1.00000e+00	1.00000e+00	1.00000e+00	1.00000e+00	1.00000e+00	1.00000e+00	1.00000e+00	1.00000e+00	1.00000e+00	1.00000e+00	1.00000e+00	1.00000e+00	1.00000e+00	1.00000e+00	1.00000e+00	1.00000e+00	1.00000e+00	1.00000e+00	1.00000e+00	1.00000e+00	1.00000e+00	X	X	X	X	X	X	X	X	X	X	X	X	X	X	X	X	

B = Detector Channel
Val Type	B-AC1	B-AC2	B-AC3	B-AC4	B-AC5	B-AC6	B-AC7	B-AC8	B-AC9	B-AC10	B-AC11	B-AC12	B-AC13	B-AC14	B-AC15	B-AC16	B-DC1	B-DC2	B-DC3	B-DC4	B-DC5	B-DC6	B-DC7	B-DC8	B-DC9	B-DC10	B-DC11	B-DC12	B-DC13	B-DC14	B-DC15	B-DC16	B-Ph1	B-Ph2	B-Ph3	B-Ph4	B-Ph5	B-Ph6	B-Ph7	B-Ph8	B-Ph9	B-Ph10	B-Ph11	B-Ph12	B-Ph13	B-Ph14	B-Ph15	B-Ph16	

Term	0.00000e+00	0.00000e+00	0.00000e+00	0.00000e+00	0.00000e+00	0.00000e+00	0.00000e+00	0.00000e+00	0.00000e+00	0.00000e+00	0.00000e+00	0.00000e+00	0.00000e+00	0.00000e+00	0.00000e+00	0.00000e+00	0.00000e+00	0.00000e+00	0.00000e+00	0.00000e+00	0.00000e+00	0.00000e+00	0.00000e+00	0.00000e+00	0.00000e+00	0.00000e+00	0.00000e+00	0.00000e+00	0.00000e+00	0.00000e+00	0.00000e+00	0.00000e+00	-1.96768e+02	-1.29699e+02	-1.34807e+02	-1.86339e+02	-7.54990e+01	-7.41266e+01	-1.58506e+02	-1.62015e+02	-8.93850e+01	-6.60437e+01	-1.71896e+02	-1.71132e+02	-1.83122e+02	-1.77420e+02	-7.77319e+01	-1.49721e+02	
Factor	4.32825e-05	1.44022e-04	4.41656e-05	2.97642e-01	1.53383e-06	1.64817e-06	1.64269e-01	5.16134e-02	1.72359e-06	1.70877e-06	8.37101e-02	2.83187e-02	3.98013e-02	9.20130e-03	1.82911e-06	1.31369e-02	6.94130e-06	8.10315e-06	2.27153e-06	1.56454e-01	8.77933e-08	8.93870e-08	8.17851e-02	2.74120e-02	8.57484e-08	8.94539e-08	4.31033e-02	1.45842e-02	2.12693e-02	4.93711e-03	8.74364e-08	6.82897e-03	X	X	X	X	X	X	X	X	X	X	X	X	X	X	X	X	



#DISTANCE SETTINGS
A = Detector Channel
A-1	A-2	A-3	A-4	A-5	A-6	A-7	A-8	A-9	A-10	A-11	A-12	A-13	A-14	A-15	A-16	

2.5000e+00	3.0000e+00	2.5000e+00	3.0000e+00	2.0000e+00	3.0000e+00	1.5000e+00	3.0000e+00	3.0000e+00	3.0000e+00	3.0000e+00	3.0000e+00	3.0000e+00	3.0000e+00	1.5000e+00	3.0000e+00	

B = Detector Channel
B-1	B-2	B-3	B-4	B-5	B-6	B-7	B-8	B-9	B-10	B-11	B-12	B-13	B-14	B-15	B-16	

1.0000e+01	1.0000e+01	1.0000e+01	1.4400e+00	1.0000e+01	1.0000e+01	1.5100e+00	1.9400e+00	1.0000e+01	1.0000e+01	1.9900e+00	2.4900e+00	2.4100e+00	2.9000e+00	1.0000e+01	2.9800e+00	




#DATA BEGINS
time	group	step	mark	flag	A-AC1	A-AC2	A-AC3	A-AC4	A-AC5	A-AC6	A-AC7	A-AC8	A-AC9	A-AC10	A-AC11	A-AC12	A-AC13	A-AC14	A-AC15	A-AC16	A-DC1	A-DC2	A-DC3	A-DC4	A-DC5	A-DC6	A-DC7	A-DC8	A-DC9	A-DC10	A-DC11	A-DC12	A-DC13	A-DC14	A-DC15	A-DC16	A-Ph1	A-Ph2	A-Ph3	A-Ph4	A-Ph5	A-Ph6	A-Ph7	A-Ph8	A-Ph9	A-Ph10	A-Ph11	A-Ph12	A-Ph13	A-Ph14	A-Ph15	A-Ph16	B-AC1	B-AC2	B-AC3	B-AC4	B-AC5	B-AC6	B-AC7	B-AC8	B-AC9	B-AC10	B-AC11	B-AC12	B-AC13	B-AC14	B-AC15	B-AC16	B-DC1	B-DC2	B-DC3	B-DC4	B-DC5	B-DC6	B-DC7	B-DC8	B-DC9	B-DC10	B-DC11	B-DC12	B-DC13	B-DC14	B-DC15	B-DC16	B-Ph1	B-Ph2	B-Ph3	B-Ph4	B-Ph5	B-Ph6	B-Ph7	B-Ph8	B-Ph9	B-Ph10	B-Ph11	B-Ph12	B-Ph13	B-Ph14	B-Ph15	B-Ph16	aux-1	digaux	

21348.285	1	1	0	256	0.16722	0.16963	0.01799	0.13255	0.071782	0.19672	0.066479	0.35417	0.08214	0.24316	0.13012	0.053869	0.2078	0.030535	0.15819	0.020391	-2.4167	-2.1479	-2.2229	-2.5208	-1.8875	-2.5625	-2.7542	-1.825	-2.7188	-2.2083	-2.1375	-2.8146	-1.9604	-2.4271	-2.5104	-1.9271	171.597	80.981	29.004	-77.049	180.617	-42.444	227.344	197.834	-70.964	200.272	53.479	80.394	182.350	-82.915	83.231	-29.761	0.00017332	0.0002392	3.0254e-05	993.48	2.8077e-06	3.2583e-06	1073.2	205.84	3.0647e-06	4.738e-06	259.29	73.353	58.17	16.821	6.0625e-06	23.241	0.00062235	0.00069714	0.0002022	985.13	7.9243e-06	7.7476e-06	1065	205.74	7.9926e-06	8.0479e-06	259.85	74.836	59.463	17.352	8.2587e-06	24.355	140.538	270.597	69.070	-78.094	61.824	47.676	-77.989	-70.436	35.318	44.655	-70.672	-64.058	-64.275	-55.950	9.233	-56.217	-8191	255	
21348.383	1	1	0	0	0.29582	0.15698	0.17573	0.1983	0.097982	0.20097	0.15035	0.21883	0.14595	0.063884	0.29279	0.25526	0.20119	0.13227	0.050982	0.054111	-2.0125	-2.1396	-2.0333	-2.7	-1.7958	-2.3375	-2.8646	-1.8896	-2.6604	-2.3542	-2.0187	-2.7938	-2.1167	-2.3542	-2.5646	-2.0187	-80.831	97.446	193.437	187.119	-11.766	232.715	189.094	214.145	-14.483	136.302	228.350	261.557	78.528	-8.409	192.714	-57.205	0.00010846	0.00035411	4.4029e-05	1003.5	5.4292e-06	1.7592e-06	1076.2	205.53	4.6253e-06	2.5652e-06	259.66	73.594	57.8	16.718	3.5368e-06	23.868	0.00070625	0.00079627	0.00022541	991.75	8.546e-06	9.0497e-06	1068.1	206.28	8.8403e-06	9.2042e-06	261.48	75.124	59.892	17.309	8.8393e-06	24.463	78.873	53.811	246.660	-78.188	28.956	20.782	-78.054	-70.349	10.202	125.354	-70.427	-64.215	-63.891	-56.211	71.925	-56.838	-8191	255	
21348.502	1	1	0	0	0.19857	0.16512	0.19965	0.12605	0.11882	0.053062	0.28885	0.080369	0.1937	0.32944	0.36402	0.2075	0.22197	0.13812	0.085844	0.12245	-2.1333	-2.3333	-1.8937	-2.8479	-2.1729	-2.2625	-2.7729	-2.0167	-2.7208	-2.5229	-2	-2.7542	-2.1583	-2.1229	-2.8042	-2.1833	142.176	231.086	187.455	3.828	138.134	270.733	230.393	243.777	270.080	123.604	265.490	159.709	-18.284	84.551	82.355	51.420	0.00021249	6.7533e-05	0.00013187	1005	1.4238e-06	6.3971e-06	1079.7	205.91	2.2558e-06	4.3005e-06	259.36	73.844	58.233	16.824	1.71e-06	23.461	0.00073092	0.00082677	0.00022649	995.12	8.7744e-06	8.9962e-06	1070	206.43	8.4496e-06	8.6614e-06	260.75	75.31	59.886	17.335	8.4294e-06	24.361	118.872	246.267	64.838	-77.761	139.612	36.155	-78.089	-70.394	42.990	67.599	-70.349	-64.043	-63.536	-56.001	70.542	-56.798	-8191	255	
21348.598	1	1	0	0	0.17456	0.2125	0.19422	0.088931	0.14495	0.32933	0.22606	0.27241	0.19247	0.098038	0.22545	0.32989	0.17753	0.13691	0.22002	0.17974	-1.9562	-2.4667	-1.8333	-2.7	-2.2208	-2.1604	-3.0021	-2.1833	-2.5229	-2.7146	-2.0958	-2.7333	-2.4188	-1.9604	-2.7354	-2.1375	-12.230	-85.536	232.377	-47.610	89.952	216.930	239.617	246.227	-11.424	-22.466	268.446	223.447	203.456	120.404	-32.791	5.338	8.579e-05	0.00047436	0.000163	1002.3	5.6322e-06	1.6205e-06	1079.7	205.96	3.1628e-06	3.6324e-06	260.19	73.855	58.333	16.848	1.5218e-07	23.692	0.00070905	0.00077218	0.0002128	993.63	8.2718e-06	8.2005e-06	1070.6	206.4	8.0648e-06	8.2689e-06	260.62	75.052	59.813	17.361	8.4759e-06	24.493	127.451	-18.206	66.157	-77.903	122.566	245.744	-77.828	-70.386	59.313	4.077	-70.554	-63.716	-64.001	-56.516	19.919	-56.731	-8191	255	
21348.695	1	1	0	0	0.13644	0.1888	0.28312	0.33624	0.064498	0.33057	0.23237	0.24875	0.283	0.012266	0.25014	0.30854	0.17319	0.33333	0.21473	0.21806	-1.9917	-2.625	-1.8458	-2.7875	-2.4604	-2.0146	-2.8417	-1.9833	-2.3542	-2.7208	-1.9271	-2.6208	-2.3271	-1.9875	-2.6375	-2.2583	82.020	-25.656	114.144	270.272	20.913	183.150	170.989	223.413	50.728	79.009	246.199	220.391	-7.881	-36.806	135.886	183.235	0.00015442	0.00027529	8.6162e-05	1001.9	4.3236e-06	6.7109e-06	1086.4	206.09	3.6601e-06	4.0156e-06	260.79	74.358	58.155	17.185	6.2419e-06	23.893	0.00071714	0.00078867	0.00022298	995.68	8.6787e-06	8.8907e-06	1074.8	206.82	8.9664e-06	8.8039e-06	261.81	75.633	59.945	17.688	8.4338e-06	24.878	111.660	-53.753	9.931	-78.202	34.429	69.972	-78.043	-70.470	95.008	94.905	-70.483	-64.240	-63.907	-56.584	0.547	-57.048	-8191	255	
21348.766	1	1	0	0	0.25599	0.31435	0.1031	0.075095	0.17281	0.17771	0.165	0.16965	0.30439	0.16733	0.046585	0.16956	0.21223	0.20782	0.082006	0.036424	-2.0104	-2.8646	-1.9333	-2.6125	-2.4229	-1.9833	-2.7458	-2.2	-1.9	-2.6479	-2.0312	-2.5563	-2.5146	-2.0021	-2.7833	-2.3479	-46.614	228.916	-68.705	90.151	50.275	264.619	140.308	236.226	258.754	74.233	213.367	263.182	-26.657	176.816	131.414	270.614	0.00018312	0.00036213	0.00013324	1006.6	2.565e-06	3.8957e-06	1080	207.59	2.926e-06	3.1968e-06	259.74	74.394	58.037	17.339	4.3062e-06	24.33	0.00068312	0.00073725	0.00021242	1000.2	7.9462e-06	7.9992e-06	1075.1	207.4	7.9024e-06	7.9864e-06	260.73	75.694	59.792	17.844	7.7405e-06	25.011	115.937	-6.959	41.066	-78.062	65.601	91.928	-78.017	-70.560	61.910	63.319	-70.382	-64.132	-63.886	-56.066	64.073	-57.170	-8191	255	
21348.861	1	1	0	0	0.16994	0.046381	0.13667	0.22536	0.072475	0.12025	0.069773	0.070394	0.39585	0.16443	0.089671	0.093653	0.08848	0.19672	0.24819	0.082539	-1.6542	-2.7854	-2.0854	-2.4271	-2.575	-1.9625	-2.7729	-2.5938	-2.1208	-2.7771	-2.1937	-2.2562	-2.6875	-1.9708	-2.6042	-2.3625	5.421	243.380	-32.104	237.455	204.326	-10.728	89.466	8.862	114.264	33.570	-58.238	163.399	26.212	169.121	-68.724	249.432	0.00013189	0.0006459	0.00010956	1005.3	5.06e-07	4.4814e-06	1083.8	206.52	4.4981e-06	3.6287e-06	258.44	74.039	58.06	17.222	3.2906e-06	24.198	0.00065118	0.00070752	0.0001994	996.03	7.844e-06	7.8811e-06	1071.9	206.42	7.5878e-06	7.6891e-06	259.94	75.308	59.722	17.704	7.2552e-06	24.898	55.617	25.021	-27.482	-78.250	147.188	65.231	-77.828	-70.348	209.438	82.715	-70.357	-64.045	-63.220	-56.126	47.062	-56.918	-8191	255	
21348.982	1	1	0	0	0.1806	0.16539	0.10651	0.084863	0.31797	0.079868	0.21337	0.080978	0.21364	0.10655	0.1802	0.12701	0.17816	0.2235	0.1717	0.11933	-1.4937	-2.7896	-2.0625	-2.3083	-2.5708	-1.925	-2.65	-2.5854	-2.0729	-2.7125	-2.3125	-2.2167	-2.75	-2.0104	-2.325	-2.375	-34.047	59.851	-84.347	102.462	41.260	170.245	92.608	41.899	42.136	67.560	257.663	-59.702	-72.362	-22.270	193.235	211.429	0.00013782	7.6041e-05	5.4651e-05	1000.7	3.4807e-06	2.7847e-06	1078	205.23	2.4969e-06	3.5089e-06	258.89	73.712	57.307	17.21	3.188e-06	24.166	0.00060525	0.00065387	0.00018523	991.21	7.1447e-06	7.1647e-06	1069.3	205.68	7.1914e-06	7.2044e-06	259.69	75.025	59.502	17.744	7.1568e-06	24.904	113.944	207.865	210.559	-77.644	6.927	61.549	-77.805	-70.511	-36.562	5.438	-70.495	-64.176	-63.492	-56.315	25.390	-57.176	-8191	255	
21349.076	1	1	0	0	0.15059	0.20919	0.38554	0.097287	0.079829	0.49091	0.14519	0.21803	0.18043	0.17053	0.097	0.1445	0.14458	0.083959	0.22491	0.085057	-1.4354	-2.6271	-2.2417	-2.0312	-2.7042	-2.0958	-2.5125	-2.5896	-1.7563	-2.8354	-2.3625	-2.1688	-2.7979	-2.0563	-2.3208	-2.7354	-10.391	64.731	15.033	168.738	238.782	-50.746	155.760	-73.484	269.412	203.399	117.503	-56.659	202.618	-0.129	240.510	106.967	0.0001664	0.00014668	6.1012e-05	1006.2	4.5733e-06	5.1188e-06	1076.3	205.71	1.0232e-06	5.005e-06	258.74	73.333	57.719	17.233	5.7684e-06	24.295	0.00060193	0.00065504	0.00019128	989.35	7.4341e-06	7.3968e-06	1068.3	206.23	7.2275e-06	7.2873e-06	259.86	74.98	59.273	17.715	7.1822e-06	24.894	110.936	58.774	93.340	-77.636	-31.696	56.689	-77.875	-70.341	-87.609	8.304	-70.723	-63.730	-63.723	-56.283	7.330	-56.704	-8191	255	
21349.174	1	1	0	0	0.11557	0.18789	0.10979	0.10801	0.14154	0.36317	0.22779	0.16977	0.20897	0.22576	0.19046	0.18138	0.037537	0.44133	0.062295	0.15166	-1.6083	-2.6542	-2.1958	-2.1021	-2.7021	-2.3292	-2.4583	-2.9417	-1.9958	-2.4792	-2.4771	-1.9542	-2.6771	-2.1208	-2.2125	-2.6542	238.600	125.578	-77.512	-50.272	150.486	142.039	183.950	-2.823	228.661	188.673	67.909	164.280	180.128	147.429	-53.722	183.628	0.00014884	0.00019262	5.9334e-05	999.96	1.0669e-06	2.7009e-06	1074	204.95	1.5764e-06	3.6596e-06	258.64	74.068	58.213	17.248	3.765e-06	24.229	0.00061228	0.00066655	0.00018363	989.31	7.2236e-06	7.369e-06	1066.3	206.21	7.2752e-06	7.259e-06	259.91	75.057	59.529	17.682	7.4596e-06	24.848	94.129	-7.963	17.611	-77.984	21.894	-78.863	-77.509	-70.251	209.296	44.556	-70.583	-63.975	-63.939	-56.153	95.146	-57.084	-8191	255	
21349.295	1	1	0	0	0.32088	0.25086	0.05124	0.17883	0.014329	0.17307	0.32507	0.35525	0.14949	0.099792	0.10023	0.29647	0.04452	0.20554	0.21371	0.12855	-1.6313	-2.6729	-2.2792	-2	-2.7792	-2.1813	-2.3208	-2.7271	-2.0167	-2.5771	-2.5312	-1.9854	-2.5833	-2.2229	-2.1917	-2.8833	107.354	-58.158	65.404	226.375	218.890	-20.228	267.114	207.816	73.424	134.983	209.646	214.932	265.831	264.125	-22.870	-66.798	0.00013207	0.00040994	7.7273e-06	1003.1	7.9025e-07	2.9215e-06	1078	205.42	5.1269e-07	4.8443e-06	257.13	73.855	57.941	17.087	1.6987e-06	24.334	0.00060788	0.00066545	0.00019043	991.02	7.3805e-06	7.5649e-06	1066.8	205.76	7.5494e-06	7.5797e-06	258.58	74.852	59.507	17.629	7.9522e-06	24.867	105.981	37.724	143.390	-77.853	-70.332	120.191	-77.591	-70.325	158.866	68.901	-70.479	-63.726	-63.591	-56.547	72.142	-56.447	-8191	255	
21349.365	1	1	0	0	0.17268	0.26353	0.14747	0.23137	0.28141	0.054697	0.11009	0.097131	0.054532	0.21441	0.156	0.094798	0.21794	0.21151	0.33607	0.1118	-1.6167	-2.4167	-2.5333	-2.1042	-2.6396	-2.2667	-2.1354	-2.8812	-1.9583	-2.2583	-2.625	-2.0042	-2.5729	-2.3937	-1.9917	-2.8917	31.706	-46.075	127.975	-81.647	202.034	205.723	-84.807	9.715	28.234	205.088	-83.031	-33.793	73.624	116.441	125.510	138.756	5.7239e-05	0.00066232	6.4796e-05	995.19	5.3815e-06	2.8159e-06	1074.7	206.04	2.1208e-06	2.6415e-06	259.11	73.635	58.216	17.088	3.697e-06	24.119	0.00069481	0.00076921	0.00021294	989.53	8.4183e-06	8.4346e-06	1069	206.63	8.1545e-06	8.5069e-06	260.18	75.05	59.826	17.653	8.3906e-06	24.935	97.860	17.202	-86.865	-77.458	-68.775	26.775	-77.539	-69.868	-55.138	110.059	-70.211	-63.755	-63.669	-56.031	15.639	-56.680	-8191	255	
21349.463	1	1	0	0	0.20091	0.074748	0.27922	0.18881	0.26938	0.18039	0.24087	0.14404	0.050706	0.12753	0.027865	0.19381	0.18377	0.1592	0.18865	0.10065	-1.5625	-2.2438	-2.5646	-2.0979	-2.5958	-2.6208	-2.1063	-2.8104	-2.1437	-2.1604	-2.7083	-2.0333	-2.65	-2.4667	-2.0708	-3.0042	271.728	68.346	261.595	209.995	269.908	164.727	228.168	140.216	9.076	-51.759	-13.230	223.094	207.503	71.773	45.863	111.065	0.00010609	0.00043481	7.7939e-05	999.62	3.1105e-06	3.1929e-06	1079.4	206.45	5.7941e-06	3.7428e-06	259.35	73.934	57.829	17.123	4.7368e-06	24.23	0.0006508	0.0007554	0.00020638	991.26	8.0102e-06	8.1633e-06	1068.8	206.75	8.2642e-06	8.3583e-06	259.62	75.155	59.731	17.671	8.1207e-06	24.893	102.880	70.721	7.973	-77.952	3.086	123.176	-77.651	-70.179	115.899	52.360	-70.313	-63.510	-63.715	-55.858	33.858	-56.129	-8191	255	
21349.582	1	1	0	0	0.049797	0.094483	0.19382	0.11844	0.15723	0.047407	0.26043	0.14309	0.15905	0.2267	0.19051	0.13063	0.17343	0.096453	0.09381	0.010614	-1.7333	-2.3063	-2.9437	-2.0292	-2.4896	-2.5958	-2.2854	-2.6125	-2.1521	-2.0146	-2.7792	-2.0333	-2.3646	-2.6583	-1.8896	-2.8563	-45.759	119.467	57.964	162.416	263.438	113.222	165.250	162.482	177.754	-18.580	253.431	240.513	-10.388	80.915	-59.436	161.587	0.00015353	0.00024316	0.00011015	1002.8	4.7351e-06	4.0596e-06	1078.5	206.89	9.5201e-07	4.6268e-06	257.62	73.488	58.228	17.256	1.9425e-06	24.011	0.00068772	0.00073722	0.00020733	993.38	7.9854e-06	8.0085e-06	1071.5	206.89	7.9669e-06	8.3146e-06	260.09	74.929	59.857	17.714	8.2314e-06	24.918	143.071	16.296	-13.840	-77.746	144.054	21.938	-77.636	-70.114	82.078	104.250	-70.153	-63.807	-63.096	-56.130	46.411	-56.798	-8191	255	
21349.680	1	1	0	0	0.075853	0.3134	0.11925	0.067864	0.068457	0.16628	0.24337	0.055696	0.101	0.17433	0.078161	0.034281	0.2956	0.074224	0.10036	0.21805	-2.0333	-1.9438	-2.7375	-2.0896	-2.4229	-2.8625	-2.2646	-2.5479	-2.2542	-2.0104	-2.7917	-2.0208	-2.1729	-2.6562	-2.0042	-2.625	-88.177	-13.012	-82.595	-66.224	18.221	86.934	193.279	97.739	240.805	136.705	123.348	118.131	-79.125	-44.893	38.365	-24.352	0.00022358	0.0001179	9.192e-05	1004	1.9927e-06	1.4975e-06	1078.9	206.65	3.9432e-06	7.8741e-06	257.85	74.19	58.157	17.073	2.6661e-06	24.387	0.00069089	0.0007724	0.00021308	994.52	8.5028e-06	8.5616e-06	1071.2	206.91	8.2204e-06	8.4936e-06	259.35	75.399	60.001	17.712	8.6414e-06	25.091	132.402	240.539	-7.416	-77.667	113.751	49.020	-77.769	-70.281	207.110	25.780	-70.288	-63.620	-62.924	-55.803	-47.679	-56.387	-8191	255	
21349.775	1	1	0	0	0.19486	0.15298	0.03315	0.18245	0.18095	0.043506	0.39084	0.13878	0.045468	0.37248	0.30214	0.044237	0.1417	0.22073	0.11765	0.043111	-1.9875	-2.0458	-2.6229	-2.1917	-2.1708	-2.7646	-2.1521	-2.5083	-2.4042	-1.9708	-2.9792	-2.3271	-2.2146	-2.6875	-1.9875	-2.5396	259.231	189.522	-76.280	134.928	86.794	36.226	238.492	106.141	247.291	153.545	250.923	243.559	-73.363	-45.431	3.840	199.746	0.00016879	0.00045833	0.00011628	1007.1	2.5729e-06	1.9987e-06	1081.8	207.09	5.6395e-06	5.5556e-06	260.02	74.134	58.369	17.248	4.3572e-06	24.143	0.00070626	0.00078663	0.00021474	995.68	8.7554e-06	8.5292e-06	1071.8	207.32	8.4067e-06	8.7067e-06	260.35	75.32	60.042	17.74	8.4881e-06	24.969	125.330	-0.394	-83.177	-77.870	-38.019	91.020	-77.551	-70.382	46.808	124.580	-70.107	-63.905	-63.241	-55.961	31.354	-56.297	-8191	255	
21349.896	1	1	0	0	0.16506	0.018084	0.014621	0.36491	0.060693	0.062394	0.11755	0.029524	0.16689	0.18264	0.088099	0.34642	0.10462	0.32967	0.073854	0.095267	-2.1229	-1.9083	-2.7812	-2.2021	-2.0812	-2.8917	-2.2062	-2.5938	-2.4417	-1.9	-2.5687	-2.4875	-2.1437	-2.8042	-2.2188	-2.5	56.264	-31.542	102.215	261.404	227.646	54.514	30.751	63.570	-8.240	123.491	244.813	214.026	235.696	214.595	-65.636	-78.142	0.00022168	0.00029172	6.4332e-05	1002.4	4.1498e-06	1.9243e-06	1079.3	206.6	4.6332e-06	8.3747e-06	260.19	73.662	58.651	17.205	3.1661e-06	24.051	0.0006985	0.00078043	0.00021554	994.79	8.3294e-06	8.3998e-06	1071.2	207.22	8.3305e-06	8.6112e-06	261.03	75.387	59.943	17.817	8.233e-06	24.868	108.831	-15.508	-9.692	-77.901	33.908	28.220	-77.762	-70.184	6.468	57.548	-70.056	-63.850	-63.364	-56.643	24.044	-56.198	-8191	255	
21349.990	1	1	0	0	0.032547	0.23444	0.24943	0.15669	0.33673	0.092711	0.28103	0.21218	0.28853	0.069398	0.1464	0.072256	0.20619	0.20869	0.18441	0.23164	-2.1854	-1.8937	-2.6917	-2.4625	-1.8875	-2.6771	-2.1792	-2.3729	-2.8063	-1.8271	-2.6583	-2.4375	-1.9625	-2.6458	-2.2583	-2.2938	-45.888	97.773	213.770	142.547	-21.888	206.136	225.471	128.074	258.686	136.933	266.951	117.168	111.827	138.961	236.387	-25.343	9.1601e-05	0.00035649	0.00017138	1004.1	8.7856e-07	6.4255e-06	1080.7	205.83	4.2441e-06	4.068e-06	260.02	74.241	58.899	17.173	6.5293e-06	24.225	0.0006868	0.00077973	0.00021588	996.06	8.4073e-06	8.5551e-06	1072.3	206.69	8.3333e-06	8.576e-06	261.63	75.524	60.107	17.731	8.603e-06	24.956	136.754	85.638	14.256	-77.572	36.791	59.207	-77.611	-70.002	-15.773	5.625	-70.501	-64.196	-63.165	-55.944	85.263	-56.740	-8191	255	
21350.062	1	1	0	0	0.084146	0.34894	0.14309	0.1462	0.22204	0.021884	0.28431	0.17227	0.17698	0.031861	0.22416	0.03634	0.12447	0.22917	0.06152	0.05893	-2.4042	-2.1854	-2.5187	-2.5062	-1.9354	-2.7458	-2.3896	-2.2417	-2.9021	-2.0708	-2.6063	-2.5375	-1.9167	-2.8729	-2.3812	-2.1354	66.624	-13.981	271.280	149.349	59.846	-62.015	145.601	241.727	-55.966	225.803	210.723	-43.301	156.317	-23.088	126.504	-0.703	0.0001691	0.00070587	8.3873e-05	1010.8	2.8511e-06	2.3427e-06	1080.4	207.23	3.3238e-06	3.013e-06	262.08	73.877	58.049	17.325	4.7101e-06	24.23	0.00071556	0.00079573	0.00022037	998.24	8.7417e-06	8.689e-06	1074.4	207.37	8.3682e-06	8.8179e-06	261.68	75.494	60.017	17.77	8.5686e-06	24.965	95.898	6.710	-52.618	-77.807	101.647	77.305	-77.483	-70.015	34.321	114.588	-70.467	-63.931	-62.903	-55.986	122.495	-56.352	-8191	255	
21350.158	1	1	0	0	0.19556	0.097941	0.061658	0.16075	0.10337	0.19896	0.22596	0.21671	0.231	0.21743	0.11362	0.31593	0.026262	0.081726	0.18712	0.22509	-2.3	-1.9562	-2.5417	-2.6917	-2	-2.725	-2.4521	-2.1562	-2.7521	-1.8937	-2.3667	-2.7917	-1.9833	-2.6354	-2.225	-2.1208	193.241	147.551	154.427	-5.106	196.407	-84.949	248.881	-37.947	221.442	-50.604	206.408	237.219	218.059	-52.067	166.396	258.003	0.00015217	0.00051673	0.00010313	1010.9	7.6524e-07	8.0218e-06	1077.7	207.42	4.1463e-06	1.4587e-06	261.09	73.881	58.627	17.252	2.1661e-06	24.197	0.00069196	0.00076011	0.00022519	998.81	8.5052e-06	8.6525e-06	1071.9	207.65	8.5652e-06	8.5995e-06	262.24	75.386	60.271	17.756	8.662e-06	24.979	88.908	-32.860	-56.681	-77.810	266.630	47.381	-77.621	-69.732	86.899	78.059	-70.151	-63.624	-63.402	-55.931	36.739	-56.473	-8191	255	
21350.279	1	1	0	0	0.1785	0.17459	0.12611	0.15165	0.044731	0.10248	0.12414	0.15036	0.16888	0.14609	0.2198	0.049104	0.1277	0.091602	0.21955	0.1227	-2.2854	-1.9667	-2.3792	-2.7729	-1.9438	-2.5271	-2.5875	-2.15	-2.7125	-2.3167	-2.2062	-2.7896	-1.9417	-2.4958	-2.5167	-2.0083	124.118	101.151	5.401	181.916	187.212	65.384	188.751	256.420	221.286	232.935	31.554	58.333	216.175	85.240	136.840	220.502	0.00019299	0.00019975	4.1302e-05	1014.7	7.1561e-07	2.0612e-06	1084.1	207.75	2.4061e-06	1.4818e-06	258.89	74.049	58.506	17.138	2.1006e-06	24.187	0.00070937	0.00081347	0.00022908	998.36	8.8979e-06	8.975e-06	1074.5	207.62	8.7615e-06	8.699e-06	261.82	75.383	60.218	17.816	8.815e-06	25.029	126.694	-1.303	-35.920	-77.620	185.995	99.393	-77.455	-70.060	28.004	103.416	-69.870	-63.843	-63.809	-56.018	51.245	-56.463	-8191	255	
21350.375	1	1	0	0	0.04852	0.28778	0.082259	0.07716	0.15706	0.23397	0.17314	0.353	0.012908	0.13634	0.19006	0.020619	0.12973	0.28336	0.25476	0.3245	-2.3875	-2.1333	-2.2167	-2.9271	-2.0396	-2.3667	-2.7833	-1.9854	-2.7833	-2.25	-2.2792	-2.8	-2.0208	-2.4813	-2.675	-1.9958	123.454	145.972	190.778	227.085	142.150	236.638	194.870	217.375	-4.014	214.598	-11.043	84.193	18.786	256.100	33.675	247.772	0.00022916	0.00025221	9.0226e-05	1002.5	1.5245e-06	5.7899e-06	1084.8	206.07	1.6955e-06	4.1629e-06	260.25	74.25	58.251	17.167	3.2593e-06	24.207	0.00070927	0.000801	0.00022137	997.3	8.8256e-06	8.7786e-06	1076	207.71	8.4184e-06	8.8187e-06	261.08	75.41	60.009	17.746	8.2214e-06	24.961	90.780	142.636	47.248	-77.626	57.072	36.712	-77.498	-70.171	90.029	99.121	-69.998	-63.765	-63.458	-55.804	30.088	-56.376	-8191	255	
21350.471	1	1	0	0	0.065965	0.20126	0.26859	0.28324	0.17572	0.093987	0.32119	0.30208	0.041353	0.048176	0.34864	0.22796	0.089269	0.14501	0.13856	0.25278	-2.2062	-2.4854	-2.0771	-2.8958	-2.0083	-2.4583	-2.9021	-1.85	-2.7125	-2.1813	-1.8917	-2.8812	-2.1875	-2.1104	-2.9188	-1.9583	45.908	131.376	158.153	221.815	154.483	52.404	172.095	229.230	-39.729	198.730	-46.042	258.551	126.882	-48.324	118.345	93.911	0.00016673	0.0001077	0.00014085	1008.4	2.1952e-06	1.1871e-06	1083	206.86	3.0361e-06	6.3415e-06	258.4	74.249	58.126	17.185	2.1854e-06	24.29	0.00069367	0.00075425	0.00021208	997.34	7.9779e-06	8.2588e-06	1075.4	207.41	7.9196e-06	8.3805e-06	260.63	75.313	59.969	17.696	8.3524e-06	24.951	142.008	189.835	15.304	-77.658	28.345	23.821	-77.432	-69.921	34.686	90.200	-70.011	-64.091	-63.544	-56.094	15.628	-56.597	-8191	255	
21350.566	1	1	0	0	0.14331	0.075449	0.18558	0.093915	0.14348	0.11073	0.18764	0.13218	0.003896	0.27911	0.2036	0.20529	0.36841	0.098907	0.048213	0.30472	-2.2812	-2.6104	-2.0208	-2.95	-2.2333	-2.4479	-3.0083	-2.2	-2.5833	-2.5896	-1.8521	-2.875	-2.2604	-2.2208	-2.8354	-2.2042	-49.409	-24.169	41.024	77.835	92.697	126.530	260.737	166.752	-49.027	116.136	-25.829	166.591	-87.502	262.784	-15.961	198.701	9.8169e-05	0.00047277	0.00012087	1008	5.5023e-06	5.225e-06	1082.2	207.32	1.2676e-06	2.2768e-06	259.65	74.419	58.739	17.079	6.4018e-06	24.29	0.00067662	0.00075709	0.00021625	996.75	8.3111e-06	8.6231e-06	1075.3	207.69	8.222e-06	8.3926e-06	261.39	75.477	60.129	17.719	8.1921e-06	25.084	162.765	-12.422	0.910	-77.196	55.191	10.604	-77.438	-69.955	240.866	-9.371	-69.901	-63.850	-63.561	-55.818	5.892	-56.583	-8191	255	
21350.662	1	1	0	0	0.073089	0.091232	0.1588	0.046983	0.18174	0.13685	0.22528	0.062853	0.12571	0.013604	0.20161	0.14137	0.1447	0.27204	0.18983	0.21161	-2.0146	-2.7542	-1.9438	-2.725	-2.2146	-1.9958	-3.0062	-2.2354	-2.3312	-2.6667	-1.9917	-2.7979	-2.3792	-2.1188	-2.8521	-2.1417	-8.630	102.719	99.030	169.313	135.879	-24.911	262.273	-82.894	96.535	184.315	98.554	264.934	47.014	266.794	34.867	225.170	7.1566e-05	0.00024449	0.00013216	1001.4	1.901e-06	4.5631e-06	1082.8	207.24	5.2003e-07	3.3944e-06	261.54	74.374	58.186	17.116	6.4271e-06	24.182	0.00070367	0.00077753	0.00021684	997.22	8.3115e-06	8.6605e-06	1074.2	207.48	8.2133e-06	8.5112e-06	261.92	75.484	59.932	17.728	8.1624e-06	24.944	95.193	-37.570	-7.164	-77.692	265.837	43.163	-77.383	-69.647	246.701	62.416	-70.066	-63.352	-63.646	-56.020	107.205	-56.977	-8191	255	
21350.760	1	1	0	0	0.15883	0.10354	0.097726	0.22233	0.038993	0.12773	0.19482	0.19571	0.19093	0.15333	0.11736	0.11204	0.08023	0.19359	0.1662	0.23928	-1.7938	-2.775	-1.9917	-2.6479	-2.4583	-2.0958	-3.0438	-2.1479	-2.1312	-2.7229	-2.0812	-2.625	-2.4708	-1.8854	-2.7917	-2.35	26.592	146.297	-39.961	-77.099	138.460	138.352	190.235	135.134	41.360	155.547	185.935	174.434	-81.884	152.802	55.001	255.971	6.912e-05	9.3922e-05	0.00020589	1008.5	2.7951e-06	2.4419e-06	1078.6	207.43	2.2558e-06	6.0284e-06	259.03	74.286	58.278	17.023	3.6957e-06	24.203	0.00070123	0.00075189	0.00021115	997.14	8.2149e-06	8.2795e-06	1072.7	207.68	8.0443e-06	8.1779e-06	260.8	75.267	59.898	17.649	7.966e-06	24.931	102.356	17.493	-2.709	-77.608	66.992	260.542	-78.064	-70.407	119.579	122.674	-70.754	-63.747	-63.971	-56.156	134.545	-56.917	-8191	255	
21350.855	1	1	0	0	0.25581	0.18891	0.21152	0.20498	0.093815	0.16915	0.23019	0.0087129	0.053147	0.055948	0.23161	0.44231	0.17239	0.18064	0.35305	0.12384	-1.7375	-2.7417	-2.1437	-2.4604	-2.5708	-2.1104	-2.7521	-2.2896	-2.0375	-2.9167	-2.1479	-2.5458	-2.6437	-2.0542	-2.9521	-2.3771	172.216	26.965	106.205	216.302	159.223	-32.017	158.335	80.000	102.485	216.832	158.940	189.203	190.707	204.379	191.870	116.813	0.00014149	0.00046363	3.9248e-05	1004.5	5.9097e-06	4.1187e-06	1082.5	206.85	2e-06	3.2815e-06	261.52	74.231	58.538	17.283	4.8924e-06	24.076	0.00066298	0.00073448	0.00020525	997.6	7.9758e-06	7.9162e-06	1073.1	207.23	7.9132e-06	8.0775e-06	261.34	75.456	59.962	17.741	7.9483e-06	24.855	120.175	31.611	104.016	-77.952	-2.136	58.316	-77.780	-70.342	26.041	68.295	-70.813	-64.084	-63.480	-56.388	85.474	-57.101	-8191	255	
21350.977	1	1	0	0	0.22252	0.18426	0.025276	0.074161	0.097412	0.33959	0.22587	0.14596	0.33965	0.22687	0.098436	0.24491	0.31648	0.34647	0.12911	0.12569	-1.7354	-2.7542	-2.025	-2.3229	-2.7521	-2.0229	-2.8167	-2.3646	-2.0917	-2.9146	-2.2521	-2.3375	-2.7979	-2.1917	-2.5083	-2.4042	5.887	205.421	65.308	255.302	74.998	163.098	182.849	160.068	-29.517	109.172	68.235	234.467	-8.170	216.402	-33.423	173.112	0.00021661	0.00016279	4.9494e-05	1005.5	2.6394e-06	1.3213e-06	1079.7	207.32	5.5155e-06	1.6335e-06	258.94	73.713	58.063	17.214	5.848e-06	24.066	0.00068667	0.00072332	0.00020469	995.15	7.9764e-06	7.9765e-06	1073.9	207.69	7.9292e-06	8.084e-06	260.59	75.331	59.73	17.686	8.0808e-06	24.852	121.212	11.720	37.044	-77.713	54.466	52.947	-77.717	-70.060	17.853	70.877	-70.695	-63.997	-63.569	-56.602	26.873	-56.730	-8191	255	
21351.070	1	1	0	0	0.1404	0.22506	0.15869	0.080309	0.28488	0.060146	0.052241	0.27031	0.41812	0.17744	0.22966	0.072988	0.16468	0.08938	0.18769	0.26871	-1.7437	-2.6958	-2.075	-2.1292	-2.8625	-2.2104	-2.6417	-2.5479	-1.8188	-2.6979	-2.3521	-2.1146	-2.6729	-1.9542	-2.5771	-2.5563	7.716	80.432	207.090	235.490	243.426	168.465	-76.262	209.069	-72.754	84.595	117.399	245.670	65.148	188.625	221.351	157.152	0.00015327	0.00023481	3.856e-05	1003.5	8.5847e-07	4.0913e-06	1080.8	205.69	5.2136e-06	6.5743e-06	260.67	73.553	58.42	17.042	5.722e-06	24.156	0.00069079	0.00075866	0.00021019	995.16	8.3411e-06	8.3974e-06	1072.4	207.28	8.1499e-06	8.393e-06	260.79	75.152	59.999	17.683	8.2667e-06	24.921	119.825	-8.041	7.037	-77.950	121.025	66.027	-77.692	-70.356	53.123	40.213	-69.925	-63.468	-63.797	-55.962	51.934	-57.060	-8191	255	
21351.168	1	1	0	0	0.060111	0.099954	0.19119	0.24577	0.14365	0.085478	0.17541	0.13322	0.1084	0.21584	0.16375	0.13375	0.15958	0.15869	0.082467	0.047991	-1.5104	-2.7146	-2.2917	-2.0292	-2.6354	-2.0083	-2.7146	-2.5833	-2.0958	-2.7	-2.3833	-2.25	-2.8646	-2.1937	-2.3646	-2.6562	-5.599	244.198	4.418	216.565	185.716	55.579	224.784	205.479	226.942	128.060	177.173	208.739	175.677	160.428	212.063	-24.440	0.00013508	0.00036928	2.199e-05	998.24	1.7447e-06	9.1768e-06	1079.8	207.69	1.5032e-06	5.0945e-06	258.84	74.152	58.159	17.071	4.9044e-06	23.945	0.00068185	0.00074736	0.00021052	993.54	8.0494e-06	8.4644e-06	1073	207.35	8.2099e-06	8.3267e-06	260.55	75.361	60	17.688	8.1884e-06	24.881	153.600	-63.118	49.614	-77.528	37.560	63.301	-77.714	-70.474	-55.491	125.271	-70.365	-64.127	-63.462	-56.359	25.219	-56.506	-8191	255	
21351.264	1	1	0	0	0.081912	0.034051	0.16245	0.32322	0.34199	0.23539	0.3785	0.23879	0.17308	0.22057	0.1892	0.1097	0.045484	0.15468	0.053637	0.14932	-1.5646	-2.6979	-2.4604	-1.9333	-2.8	-2.1562	-2.6604	-2.7188	-2.0771	-2.6396	-2.5104	-1.8687	-2.8021	-2.3125	-2.3438	-2.7104	167.018	-56.286	181.110	173.769	-73.432	17.971	145.092	-74.333	155.469	-45.542	194.801	6.493	-54.731	33.864	106.924	241.256	0.00013141	0.00066089	0.00011472	1001.1	1.7755e-06	5.4956e-06	1083.4	206.72	3.0006e-06	5.9565e-06	260.77	74.094	58.681	17.307	4.208e-06	24.05	0.00067069	0.00072702	0.00020431	993.79	7.8427e-06	8.0789e-06	1074.6	206.94	7.7106e-06	7.9349e-06	260.93	75.217	60.092	17.746	7.623e-06	24.832	124.969	-8.286	62.166	-77.624	82.486	39.771	-77.864	-70.209	-17.164	35.115	-70.740	-63.953	-63.715	-55.813	84.087	-56.917	-8191	255	
21351.359	1	1	0	0	0.13485	0.2702	0.1191	0.1563	0.11401	0.37494	0.24473	0.22549	0.12131	0.25945	0.13003	0.19267	0.30332	0.30278	0.087889	0.13742	-1.6333	-2.6708	-2.4188	-1.9917	-2.5021	-2.2646	-2.3167	-2.825	-1.9771	-2.6583	-2.6896	-2.1625	-2.9042	-2.2104	-2.2313	-2.9188	72.216	92.549	91.465	246.400	168.896	8.617	127.689	220.107	133.905	135.763	218.695	82.998	245.008	-67.669	-27.585	256.074	0.00011152	0.00025518	0.00015932	1002.5	2.8189e-06	3.8515e-06	1085.7	206.18	1.9823e-06	3.8755e-06	258.92	73.477	58.248	17.207	1.2473e-06	24.262	0.000653	0.00070396	0.00019662	994.6	7.8641e-06	7.8996e-06	1072.3	206.73	7.8187e-06	7.9787e-06	260.38	75.141	59.777	17.657	7.8358e-06	24.94	129.410	60.811	-37.848	-77.713	74.422	-6.152	-77.611	-70.460	25.985	65.299	-70.333	-63.925	-62.902	-56.124	45.353	-56.610	-8191	255	
21351.453	1	1	0	0	0.27278	0.25708	0.025824	0.10199	0.10553	0.069653	0.01674	0.090139	0.17524	0.25466	0.06842	0.17126	0.10511	0.17721	0.056951	0.19186	-1.5458	-2.4333	-2.7375	-2.0687	-2.5417	-2.3021	-2.2875	-2.9104	-2.2125	-2.4	-2.7542	-2.0896	-2.5438	-2.6125	-2.025	-2.8625	72.015	233.911	-48.548	75.684	170.744	7.550	-64.749	103.288	232.424	154.382	-44.746	203.775	204.089	236.572	169.217	-48.647	0.00019952	0.0001319	0.00016344	998.69	6.5443e-06	5.2051e-06	1077.9	206.21	2.1433e-06	2.601e-06	258.97	73.396	58.177	17.054	7.2396e-06	24.168	0.00065154	0.00070977	0.00020391	990.8	7.7754e-06	8.0849e-06	1070.3	206.92	7.4646e-06	7.8132e-06	260.28	75.073	59.776	17.625	7.6443e-06	24.888	89.960	81.163	2.965	-77.847	38.674	46.210	-77.783	-70.231	133.062	17.871	-70.360	-63.914	-63.486	-55.819	78.623	-56.453	-8191	255	
21351.574	1	1	0	0	0.3241	0.10382	0.21709	0.056804	0.12564	0.098043	0.17591	0.29342	0.19982	0.18299	0.16988	0.15005	0.29885	0.17548	0.067726	0.12506	-1.6229	-2.2938	-2.5542	-2.0417	-2.7583	-2.6312	-2.1958	-2.9083	-2.2229	-2.2646	-2.6979	-2.0938	-2.6667	-2.6729	-1.9125	-2.6979	152.978	98.347	158.086	143.725	59.396	-62.384	183.499	226.605	81.392	153.044	203.226	214.179	147.875	200.759	-14.949	165.829	0.00016314	0.00026906	0.00014972	1001.5	1.6003e-06	4.4542e-06	1079.3	205.66	3.1549e-06	4.3412e-06	260.5	73.993	58.682	17.155	3.5807e-06	24.341	0.00065227	0.00072148	0.00020035	994.52	7.7578e-06	7.9597e-06	1072.1	206.38	7.6809e-06	8.0384e-06	260.81	75.216	59.793	17.678	7.6973e-06	24.911	107.317	-18.754	-19.272	-77.607	201.351	121.323	-77.574	-70.365	99.424	49.660	-70.230	-63.812	-63.361	-56.360	24.209	-56.802	-8191	255	
21351.670	1	1	0	0	0.09384	0.23543	0.22902	0.25624	0.02582	0.24933	0.20427	0.30922	0.14359	0.23479	0.068174	0.18844	0.089412	0.20066	0.19213	0.16924	-1.9167	-2.0583	-2.7646	-2.0854	-2.4646	-2.55	-2.1854	-2.8396	-2.3063	-2.1188	-2.5771	-2.0229	-2.4708	-2.6104	-1.8375	-2.6729	260.425	180.505	150.215	238.493	156.569	-69.999	204.775	124.685	134.299	114.691	99.344	128.711	209.015	252.404	155.844	262.932	0.00010395	0.00036665	0.00010269	1005.3	6.0197e-06	3.935e-06	1083	207.23	3.1269e-06	7.8768e-06	259.86	74.338	58.155	17.174	1.077e-06	24.167	0.00065727	0.00071878	0.0001944	993.36	7.8454e-06	7.7817e-06	1072.6	207.1	7.7072e-06	7.9556e-06	260.03	75.395	59.82	17.653	7.7707e-06	24.909	127.703	27.543	29.722	-77.662	42.435	-8.886	-77.783	-69.940	-79.733	100.468	-70.060	-63.412	-63.451	-56.264	100.485	-56.515	-8191	255	
21351.766	1	1	0	0	0.21294	0.092911	0.11689	0.27486	0.29661	0.18069	0.37846	0.15699	0.29189	0.28054	0.18367	0.16667	0.19841	0.24422	0.12103	0.16731	-1.8625	-2.2271	-2.675	-2.1417	-2.4208	-2.625	-2.1396	-2.8229	-2.4667	-1.9	-2.9833	-2.2271	-2.4375	-2.7958	-2.0271	-2.7687	131.205	222.781	230.459	188.838	-15.650	187.480	174.036	182.946	68.013	207.805	249.552	58.035	176.363	-74.601	78.833	-84.686	0.0001015	0.00028676	0.00011997	1002.5	1.4932e-06	4.0639e-06	1079.4	206.5	3.4933e-06	2.8469e-06	259.99	73.917	58.284	17.194	6.8234e-06	24.365	0.00063714	0.00072402	0.00020098	991.81	7.7618e-06	7.8372e-06	1071.2	206.82	7.6414e-06	7.947e-06	260.44	75.134	59.905	17.656	7.8396e-06	24.905	106.119	271.792	-20.676	-77.907	42.472	105.647	-77.633	-70.105	119.745	-6.665	-70.153	-63.921	-63.483	-55.645	60.483	-56.658	-8191	255	
21351.861	1	1	0	0	0.34487	0.064809	0.096609	0.19725	0.11231	0.17436	0.012046	0.26772	0.33734	0.33942	0.26987	0.16814	0.084953	0.13452	0.18712	0.23767	-2.0958	-2.1229	-2.7646	-2.2771	-2.0979	-2.7125	-2.0583	-2.4562	-2.5521	-1.9854	-2.675	-2.35	-2.2188	-2.6125	-1.9062	-2.6021	44.680	67.531	86.633	-3.773	-18.044	44.344	269.348	170.611	-79.940	64.422	147.687	-73.434	28.457	206.210	5.797	245.531	8.1783e-05	0.00023731	8.2165e-05	1001.4	1.6315e-06	2.9891e-06	1082.8	206.01	9.1929e-07	2.686e-06	259.23	74.194	58.081	17.142	6.1781e-06	23.866	0.00068087	0.00073185	0.0002064	994.47	7.9685e-06	8.3087e-06	1071.8	207	7.9634e-06	8.1028e-06	260.35	75.294	59.748	17.668	7.9594e-06	24.781	101.999	107.706	-57.216	-77.566	130.653	72.411	-77.782	-70.037	216.511	49.162	-70.062	-63.629	-63.599	-56.088	67.615	-56.589	-8191	255	
21351.959	1	1	0	0	0.13589	0.042324	0.084605	0.05715	0.14187	0.14958	0.13249	0.27148	0.25364	0.20722	0.20696	0.15202	0.12603	0.17331	0.27794	0.20314	-2.2542	-2.1354	-2.6354	-2.4688	-1.9292	-2.6437	-2.0875	-2.5271	-2.6458	-1.9604	-2.5771	-2.4958	-2.0833	-2.6792	-2.1083	-2.2396	116.843	-87.292	-64.480	-75.042	108.880	-6.401	246.788	242.094	7.976	222.558	245.320	-47.998	246.318	-38.618	174.757	90.954	0.00015292	0.00019508	0.00011089	997.02	5.8696e-06	4.4252e-06	1080.2	207.27	4.122e-06	2.3502e-06	259.13	74.1	58.225	17.136	3.0496e-06	24.047	0.00066091	0.00072309	0.00020405	990.82	7.9396e-06	8.1212e-06	1070.3	206.92	7.9076e-06	8.2107e-06	260.26	75.259	59.926	17.638	8.3347e-06	24.858	116.942	-49.130	26.130	-77.851	89.144	51.953	-77.899	-69.968	119.075	90.781	-69.756	-63.766	-64.135	-56.186	211.400	-56.555	-8191	255	
21352.055	1	1	0	0	0.097011	0.32411	0.037149	0.07637	0.050815	0.10771	0.49112	0.2037	0.15023	0.21197	0.21398	0.10151	0.097427	0.025532	0.1599	0.14542	-2.25	-1.9521	-2.4458	-2.4125	-1.9625	-2.6896	-2.3104	-2.1521	-2.7438	-2.0146	-2.6542	-2.5104	-1.9396	-2.6083	-2.2125	-2.3521	-23.999	258.013	238.598	117.436	-58.540	239.766	195.220	252.502	46.287	129.654	-19.405	157.326	222.940	64.999	102.658	-61.174	0.00017067	0.00026366	0.00012445	999.05	3.0783e-06	4.1183e-06	1084.9	206.5	3.9376e-06	3.415e-06	261.95	73.654	58.618	17.178	4.0537e-06	24.045	0.00067798	0.00076754	0.00021559	993.32	8.5547e-06	8.397e-06	1073.4	206.95	8.4178e-06	8.6724e-06	261.53	75.204	60.071	17.656	8.4928e-06	24.979	106.522	263.344	-48.140	-77.912	118.687	37.304	-77.486	-69.972	72.192	53.406	-70.459	-63.734	-63.708	-56.047	59.603	-56.295	-8191	255	
21352.150	1	1	0	0	0.12435	0.18131	0.17664	0.085726	0.10079	0.063929	0.43259	0.23902	0.04657	0.095448	0.13578	0.095436	0.15188	0.084948	0.034513	0.074252	-2.4688	-1.8583	-2.2875	-2.6771	-1.9208	-2.8396	-2.4479	-2.1562	-2.675	-2.2083	-2.475	-2.6771	-1.8833	-2.7354	-2.2875	-2.1417	-2.216	220.163	-17.721	234.942	156.189	173.926	193.515	145.939	176.513	-15.930	235.290	32.288	67.698	162.354	-9.684	113.180	0.00015476	0.00025238	2.6294e-05	1006.5	3.4529e-06	2.2338e-06	1081.4	208.33	2.9562e-06	4.7883e-06	259.89	73.845	57.804	17.069	2.0334e-06	24.214	0.00070451	0.00078872	0.00022392	995.6	8.845e-06	8.9253e-06	1073	207.94	8.6002e-06	8.9541e-06	261.96	75.364	59.906	17.704	8.6498e-06	24.911	94.267	-52.380	-6.225	-77.808	83.625	113.486	-77.571	-70.159	6.167	20.654	-70.228	-63.772	-63.133	-55.968	-46.767	-56.869	-8191	255	
21352.246	1	1	0	0	0.14008	0.30211	0.055148	0.34099	0.2947	0.050917	0.18701	0.13403	0.059603	0.19458	0.29464	0.13153	0.12844	0.34156	0.10037	0.14384	-2.475	-2.1458	-2.1729	-2.6562	-2.0792	-2.7521	-2.4938	-2.0708	-2.625	-2.1646	-2.4417	-2.8146	-1.9875	-2.625	-2.4	-2.1542	173.568	-66.579	117.621	253.008	-15.068	180.455	221.460	247.675	35.160	214.840	-69.106	209.905	129.385	-51.867	55.959	266.756	0.00012782	9.8019e-05	2.7263e-05	1003	6.6044e-06	1.6546e-06	1081.6	207.49	5.4339e-06	2.8545e-06	260.11	74.065	58.339	16.977	2.9923e-06	24.246	0.00073106	0.00081735	0.00022715	996.08	9.0531e-06	8.9192e-06	1075.7	208.08	8.6935e-06	9.0177e-06	261.14	75.467	60.325	17.639	9.0517e-06	25.034	94.588	-70.319	-61.420	-77.883	16.083	84.639	-77.939	-70.253	115.022	99.397	-70.702	-64.046	-63.762	-56.247	84.023	-56.723	-8191	255	
21352.365	1	1	0	0	0.12996	0.16419	0.12162	0.13899	0.12534	0.40042	0.15772	0.19915	0.17256	0.16771	0.27295	0.32543	0.083035	0.18273	0.075752	0.17824	-2.3	-2.0354	-2.3333	-2.6021	-1.925	-2.525	-2.5563	-1.9583	-2.5771	-2.1396	-2.3083	-2.75	-2.1	-2.5062	-2.4896	-2.0187	83.655	180.612	192.251	205.228	-19.965	169.846	-37.022	267.463	236.017	11.730	234.419	216.073	-20.019	256.754	41.148	158.163	0.00012568	0.00042752	0.00012858	1004.6	5.0118e-06	3.315e-06	1083.2	208.23	4.1e-06	4.9316e-06	260.44	74.338	58.814	17.283	2.9393e-06	24.114	0.00074023	0.00083616	0.00023341	1000.4	9.3096e-06	9.3074e-06	1077.9	208.15	9.1779e-06	9.6733e-06	262.88	75.743	60.63	17.82	9.518e-06	25.048	115.616	27.415	13.053	-77.774	67.806	75.951	-78.088	-70.305	82.965	36.357	-70.587	-64.123	-63.669	-56.308	47.675	-56.552	-8191	255	
21352.463	1	1	0	0	0.062737	0.20301	0.067794	0.056407	0.066291	0.10192	0.23547	0.2141	0.17364	0.17093	0.094474	0.18388	0.17123	0.087325	0.21872	0.34276	-2.3312	-2.1729	-1.9958	-2.9958	-2.25	-2.7	-2.6396	-2.0375	-2.7208	-2.3146	-2.1083	-2.8979	-2.1604	-2.2396	-2.7167	-2.1917	-78.170	170.095	-43.797	-52.892	-41.929	200.678	52.378	242.651	55.530	16.608	69.366	141.650	191.666	39.799	239.818	235.458	0.00019351	5.9857e-05	8.7297e-05	1011.7	4.1288e-06	2.5566e-06	1089.6	207.65	5.1615e-06	5.7073e-06	261.13	74.113	58.962	17.393	5.1951e-06	24.024	0.00079719	0.00087774	0.00024552	1006	9.7564e-06	9.814e-06	1082.8	208.56	9.4095e-06	9.7395e-06	263.12	75.85	60.81	17.845	9.4677e-06	25.054	112.871	-33.503	-8.027	-77.736	59.571	16.682	-77.792	-70.325	4.832	1.777	-70.491	-64.181	-64.362	-56.212	-13.987	-56.828	-8191	255	
21352.535	1	1	0	0	0.27056	0.26847	0.14519	0.31208	0.091128	0.13494	0.052154	0.041852	0.2579	0.11906	0.27204	0.2841	0.1676	0.048236	0.13935	0.12325	-2.425	-2.4854	-2.0917	-2.7208	-1.9708	-2.4396	-2.9229	-2.175	-2.5917	-2.8312	-2.1958	-2.7833	-2.1479	-2.4813	-2.8729	-2.0021	242.197	-81.980	48.669	-59.572	215.783	212.412	209.444	-53.328	145.227	-15.029	-3.239	241.364	-8.267	156.926	121.115	169.384	0.00011196	0.00043383	3.6663e-05	1014.8	6.9332e-06	2.6103e-06	1090.5	208.44	5.1501e-06	6.8743e-06	261.36	74.814	58.342	17.279	1.9648e-06	24.185	0.00079024	0.00087627	0.00024156	1010.9	9.6256e-06	9.6205e-06	1084.6	208.97	9.1581e-06	9.5011e-06	263.23	75.991	60.487	17.819	9.1604e-06	25.076	94.515	-26.775	243.206	-77.953	44.582	61.367	-77.872	-70.442	23.052	32.888	-70.376	-63.990	-63.720	-56.259	61.679	-56.624	-8191	255	
21352.654	1	1	0	0	0.15041	0.23229	0.12277	0.020824	0.28066	0.051102	0.21867	0.32268	0.13595	0.063827	0.15643	0.321	0.047416	0.25259	0.31172	0.067968	-2.2458	-2.4125	-1.9354	-2.7812	-2.3208	-2.3354	-2.8958	-1.9646	-2.6667	-2.5979	-2	-2.7646	-2.3021	-2.0938	-2.8042	-2.0833	172.461	269.374	100.318	44.161	192.860	1.852	219.333	183.967	-32.943	126.341	144.680	248.244	91.893	228.341	92.960	7.064	0.00023049	0.00029408	0.00013832	1012.7	4.3394e-06	1.867e-06	1088.6	207.22	4.9494e-06	3.88e-06	262.48	74.281	58.707	17.276	5.9994e-06	24.337	0.00077151	0.00085083	0.00024169	1008	9.3906e-06	9.3348e-06	1083.3	208.77	8.7821e-06	9.1375e-06	263.07	75.944	60.602	17.862	8.9181e-06	25.057	124.303	13.475	113.236	-77.460	100.230	166.826	-77.638	-70.283	-43.535	16.438	-70.445	-63.825	-63.362	-56.319	69.170	-56.833	-8191	255	
21352.750	1	1	0	0	0.11928	0.10514	0.065071	0.25464	0.0449	0.11141	0.20212	0.11666	0.24217	0.064003	0.12048	0.23847	0.13697	0.39725	0.14496	0.21192	-2.25	-2.7375	-1.975	-2.7083	-2.55	-2.0417	-2.9708	-2.2896	-2.35	-2.7146	-1.9979	-2.7521	-2.475	-1.9896	-2.6729	-2.0938	140.338	212.279	118.048	60.820	231.716	156.750	206.769	160.915	-35.020	-85.472	95.149	113.780	-85.515	-66.405	127.898	199.049	0.00013747	0.00061191	0.00014091	1015.2	4.5479e-06	1.9944e-06	1084.9	208.1	4.5591e-06	3.1129e-06	262.63	74.915	58.517	17.225	3.4762e-06	24.145	0.0007659	0.0008351	0.00023571	1007.5	9.234e-06	9.165e-06	1081.7	208.56	9.0747e-06	8.934e-06	263.05	76.147	60.519	17.793	8.9708e-06	25.077	93.611	1.858	12.287	-77.558	179.134	27.112	-77.689	-70.376	-50.658	87.534	-70.337	-63.836	-63.434	-55.562	52.857	-57.136	-8191	255	
21352.848	1	1	0	0	0.089196	0.11065	0.37502	0.11043	0.21086	0.34389	0.33829	0.15521	0.24024	0.14268	0.086009	0.11802	0.15634	0.11109	0.11823	0.13513	-1.8896	-2.8271	-2.1333	-2.7375	-2.6083	-2.1167	-2.8021	-2.2833	-2.1813	-2.6771	-1.9333	-2.6229	-2.6167	-1.9333	-2.5292	-2.3333	56.593	-61.155	149.107	-62.545	-2.845	-30.024	240.030	225.702	-72.704	253.127	163.968	151.342	270.750	193.062	58.567	-82.898	9.7226e-05	0.00019001	0.00015494	1008	1.9901e-06	2.2929e-06	1092.6	208.9	2.6386e-06	3.1282e-06	261.92	74.132	58.688	17.219	3.2033e-06	24.289	0.00074564	0.00081666	0.00023099	1003.8	8.9482e-06	9.0452e-06	1083.2	208.98	8.8096e-06	8.9174e-06	262.46	75.928	60.636	17.754	8.9367e-06	25.087	85.078	-12.616	-20.592	-77.657	68.083	-70.369	-77.555	-70.010	134.985	81.076	-69.996	-63.500	-63.839	-55.710	-32.777	-56.422	-8191	255	
21352.967	1	1	0	0	0.17223	0.066149	0.12011	0.13109	0.15862	0.45104	0.14789	0.11525	0.34531	0.26979	0.25041	0.033136	0.054998	0.13477	0.175	0.15933	-1.8813	-2.8083	-2.0542	-2.4583	-2.6021	-1.8646	-2.8354	-2.3042	-2.2021	-2.7562	-2.1646	-2.5229	-2.7708	-1.9417	-2.7812	-2.5354	187.340	-51.734	143.776	-51.544	268.228	35.862	165.679	244.631	105.432	91.758	-18.065	269.509	-84.910	59.495	200.363	240.385	0.00015534	8.9074e-05	0.00011195	1011.3	2.0454e-06	1.8123e-06	1089.9	209.07	5.2788e-06	3.9997e-06	261.06	74.538	58.785	17.371	2.9376e-06	24.127	0.00075077	0.00081258	0.00023145	1004.4	9.0167e-06	9.302e-06	1082.8	208.93	8.9527e-06	9.2833e-06	262.68	75.866	60.609	17.819	9.2063e-06	25.076	155.599	37.669	-52.392	-77.637	68.590	162.844	-77.672	-70.427	65.642	61.474	-70.537	-64.105	-64.053	-56.438	-27.006	-56.706	-8191	255	
21353.062	1	1	0	0	0.15773	0.092559	0.13587	0.2035	0.28716	0.20185	0.065753	0.30456	0.17626	0.25156	0.056589	0.26522	0.31905	0.21929	0.18661	0.02337	-1.5833	-2.9854	-2.1542	-2.4083	-2.8646	-1.9104	-2.7562	-2.6521	-1.8542	-2.6979	-2.2646	-2.3521	-2.8604	-1.9083	-2.4229	-2.575	190.456	133.701	180.441	-21.867	70.390	21.425	171.313	-25.024	24.971	-10.634	76.065	173.555	267.777	-56.912	82.206	32.548	0.00022482	0.00017668	7.0607e-05	1016.4	2.0143e-06	4.5251e-06	1094.7	209.03	2.8761e-06	1.2202e-06	261.02	74.398	58.643	17.261	7.7548e-06	23.999	0.00077239	0.00086586	0.00024462	1007.5	9.6726e-06	9.5648e-06	1085	209.22	9.331e-06	9.5231e-06	262.97	75.863	60.5	17.834	9.4557e-06	25.047	124.651	95.940	-17.983	-77.513	11.333	54.547	-77.499	-70.173	12.394	-47.840	-70.207	-64.431	-63.858	-56.137	56.766	-56.621	-8191	255	
21353.160	1	1	0	0	0.11459	0.12292	0.17086	0.13147	0.30282	0.059481	0.22328	0.017001	0.11666	0.18588	0.19292	0.13058	0.20129	0.27886	0.14689	0.087521	-1.5562	-2.6229	-2.0979	-2.1146	-2.7042	-1.9979	-2.5771	-2.7271	-2.1167	-2.7438	-2.2854	-2.1729	-2.7771	-1.975	-2.5104	-2.4938	-1.226	5.856	76.360	159.420	45.159	159.934	219.289	219.682	79.712	38.023	-52.901	-33.320	186.716	-64.932	242.383	-28.264	0.00012807	0.00033579	5.0228e-05	1013.6	4.458e-06	2.885e-06	1093.8	208.21	3.9822e-06	4.1538e-06	262.07	74.093	58.787	17.268	6.1556e-06	24.343	0.00077309	0.00085691	0.00024252	1006.3	9.5704e-06	9.6773e-06	1084.6	208.85	9.3666e-06	9.7307e-06	262.86	76.014	60.822	17.9	9.5388e-06	25.092	83.008	16.061	-66.065	-77.712	22.113	63.633	-77.461	-70.778	-15.246	-18.726	-70.198	-63.992	-63.558	-56.080	16.862	-56.796	-8191	255	
21353.256	1	1	0	0	0.24259	0.048318	0.17823	0.079702	0.16017	0.19566	0.15345	0.11572	0.12003	0.19208	0.24527	0.04428	0.16824	0.03748	0.11119	0.20894	-1.5354	-2.5229	-2.3083	-2.3229	-2.7792	-2.1354	-2.4854	-2.7458	-1.7917	-2.7458	-2.4458	-2.2292	-2.8312	-2.175	-2.3958	-2.9062	166.342	173.358	187.743	259.875	103.190	25.673	73.326	94.802	65.691	-55.648	91.259	-86.068	124.268	269.904	169.794	105.564	0.00017021	9.7075e-05	0.0001055	1012.3	5.4509e-07	2.5112e-06	1095.2	208.32	5.5632e-06	2.156e-06	260.21	74.556	59.362	17.325	2.5411e-06	24.056	0.00081651	0.00086781	0.00024486	1008.8	9.6514e-06	9.7771e-06	1086.3	209.23	9.5102e-06	9.864e-06	262.75	76.116	61.039	17.866	9.6945e-06	25.046	110.020	250.560	10.847	-77.778	178.732	26.072	-77.416	-70.322	46.033	47.391	-70.483	-63.644	-63.704	-56.625	105.130	-56.921	-8191	255	
21353.350	1	1	0	0	0.17469	0.073348	0.12251	0.13066	0.41112	0.053134	0.22826	0.28518	0.11752	0.22259	0.065226	0.047964	0.14557	0.14222	0.14658	0.11129	-1.6833	-2.7479	-2.4021	-2.1021	-2.7687	-2.1208	-2.3208	-2.8375	-1.9583	-2.7167	-2.5604	-2.0417	-2.6708	-2.225	-2.2458	-2.8583	-45.057	238.157	-23.135	-53.787	-6.006	38.203	164.115	262.361	50.488	10.435	-76.172	7.756	-61.258	143.364	184.607	24.509	0.00011823	0.00033946	9.9627e-05	1016.2	1.395e-06	2.19e-06	1093.6	208.38	4.5047e-06	5.7552e-06	264.57	74.975	58.753	17.305	3.1198e-06	24.364	0.00080011	0.00087431	0.000247	1008.1	9.6225e-06	9.8354e-06	1085.6	209.37	9.5125e-06	9.4083e-06	263.81	76.091	60.614	17.873	9.4619e-06	25.13	133.577	9.339	-9.590	-77.552	81.038	48.805	-77.437	-70.186	11.485	62.552	-70.526	-63.261	-63.627	-56.389	-16.133	-56.669	-8191	255	
21353.445	1	1	0	0	0.20641	0.030373	0.17857	0.23238	0.15536	0.14807	0.31909	0.31619	0.056276	0.096661	0.20684	0.10876	0.26034	0.12198	0.15817	0.22469	-1.6271	-2.5104	-2.6896	-2.0479	-2.6771	-2.2146	-2.2167	-2.7708	-2.0896	-2.4437	-2.7812	-2.0062	-2.7042	-2.4667	-2.0646	-2.8896	263.879	264.441	-79.804	168.035	23.114	-17.420	186.658	260.589	-0.648	-4.031	155.910	222.158	-81.829	266.443	125.438	0.703	0.00010959	9.2331e-05	7.1125e-05	1014.4	3.6617e-06	2.6575e-06	1095	208.86	1.2113e-06	2.7425e-06	260.97	74.048	58.594	17.262	1.3934e-06	24.266	0.00080538	0.00086408	0.00024587	1009.1	9.517e-06	9.6603e-06	1087	209.87	9.1688e-06	9.6545e-06	264.04	76.058	60.799	17.848	9.5076e-06	25.154	109.085	65.292	-73.290	-77.923	59.583	71.921	-77.658	-69.954	-39.253	50.458	-70.400	-63.814	-63.185	-56.166	250.907	-56.660	-8191	255	
21353.543	1	1	0	0	0.19158	0.35937	0.18365	0.26662	0.18967	0.12694	0.27194	0.05979	0.14556	0.1115	0.23108	0.11299	0.10266	0.061571	0.076724	0.094826	-1.5646	-2.6583	-2.5479	-2.15	-2.6292	-2.2812	-2.1417	-2.8083	-2.2125	-2.3042	-2.7687	-2.1458	-2.6021	-2.3333	-2.1646	-2.7146	17.990	267.375	108.818	-6.019	201.658	10.767	220.338	236.220	110.638	174.392	179.366	30.476	175.568	247.140	-77.805	113.472	0.00010675	0.00022715	6.9122e-05	1006.1	4.2439e-06	2.0274e-06	1088.2	208.89	3.426e-06	4.7132e-06	263.16	74.535	59.218	17.447	2.0332e-06	24.123	0.000794	0.00087742	0.00024048	1005.9	9.4425e-06	9.3733e-06	1085.1	210.07	9.3173e-06	9.5643e-06	263.64	76.277	60.779	17.941	9.5102e-06	25.078	115.306	12.176	9.847	-77.925	-11.404	115.241	-77.393	-70.067	96.042	91.684	-70.436	-64.102	-63.577	-56.188	40.001	-56.396	-8191	255	
21353.662	1	1	0	0	0.042504	0.13343	0.14087	0.29497	0.1184	0.21062	0.3409	0.10597	0.10245	0.10198	0.19435	0.27842	0.028227	0.24121	0.19912	0.1583	-1.7854	-2.2104	-2.7646	-2.0896	-2.3917	-2.3646	-2.0333	-2.8042	-2.2438	-2.1479	-2.6188	-2.0854	-2.5479	-2.5396	-1.975	-2.8146	-83.124	187.262	226.383	248.420	182.632	154.844	229.390	-19.792	68.779	203.913	134.296	182.044	162.715	-62.101	-71.580	175.901	0.0001583	0.00024094	6.1789e-05	1012.1	3.2289e-07	4.9427e-06	1093.6	209.62	4.563e-06	2.6417e-06	260.76	74.442	59.143	17.281	5.3533e-06	24.273	0.00078949	0.00088885	0.00024286	1008.5	9.5373e-06	9.5709e-06	1086.8	209.99	9.592e-06	9.5695e-06	263.75	76.146	60.858	17.873	9.4788e-06	25.094	153.736	39.286	82.713	-77.799	71.614	68.658	-77.806	-70.128	69.825	166.892	-70.481	-64.285	-63.902	-56.009	97.501	-56.756	-8191	255	
21353.760	1	1	0	0	0.22468	0.068634	0.20063	0.16427	0.17445	0.10061	0.12796	0.062147	0.046477	0.11578	0.13457	0.16137	0.15145	0.20682	0.11146	0.20819	-1.9312	-2.0187	-2.7646	-2.0979	-2.45	-2.7188	-2.2729	-2.5625	-2.2708	-2.0687	-2.8896	-1.9833	-2.3375	-2.8479	-1.925	-2.7562	257.862	-47.572	72.302	229.049	-19.828	213.980	174.034	187.377	-34.154	143.314	73.511	222.637	239.260	-5.776	68.247	-71.672	0.00017199	0.00042515	9.6681e-05	1012.5	4.2724e-06	5.1105e-06	1096	209.04	4.6296e-06	4.1104e-06	259.78	74.475	58.776	17.26	3.4597e-06	24.392	0.00078628	0.00086915	0.00024427	1008.4	9.6655e-06	9.5333e-06	1086.8	209.53	9.0838e-06	9.6088e-06	263.51	76.109	60.709	17.866	9.1952e-06	25.078	100.753	-46.100	-8.893	-77.661	-13.654	70.819	-77.833	-70.047	4.975	68.272	-70.435	-63.678	-63.292	-56.350	91.099	-56.838	-8191	255	
21353.830	1	1	0	0	0.11305	0.054685	0.089563	0.032576	0.1506	0.24716	0.326	0.10618	0.12766	0.033065	0.24914	0.24752	0.1848	0.17426	0.22268	0.19699	-2.0708	-2.1479	-2.9542	-2.3187	-2.3375	-2.7021	-2.2771	-2.8187	-2.4854	-2.0292	-2.875	-2.1771	-2.4313	-2.7958	-1.9375	-2.8021	232.468	-29.923	168.455	196.430	105.054	88.129	172.365	-15.536	87.167	85.200	250.152	265.627	-66.408	262.816	108.046	139.137	0.00012736	0.00029388	7.8354e-05	1020	3.9135e-06	3.2564e-06	1096.2	209.1	4.4198e-06	2.9983e-06	261.9	74.47	59.334	17.199	7.165e-06	24.142	0.00074937	0.00082696	0.00023211	1009.3	9.0021e-06	9.0223e-06	1086.3	209.24	8.8333e-06	9.1152e-06	263.54	75.842	60.729	17.747	8.7914e-06	25.016	80.626	-13.634	-32.067	-78.172	77.698	-11.887	-77.529	-69.921	-4.726	-8.061	-70.793	-63.766	-63.833	-55.757	51.688	-56.218	-8191	255	
21353.928	1	1	0	0	0.15626	0.14599	0.089483	0.292	0.18801	0.3093	0.33293	0.18186	0.15313	0.077629	0.17591	0.084343	0.075461	0.21447	0.14397	0.32804	-2.0812	-2.0021	-2.6021	-2.2208	-2.2	-2.8458	-2.3312	-2.6167	-2.7854	-2.2125	-2.6646	-2.1146	-2.1813	-2.7083	-1.8896	-2.5604	56.537	225.931	17.425	186.803	266.557	-46.504	129.602	255.022	-51.011	222.773	164.957	-68.862	2.894	256.631	-54.826	76.557	0.00019726	0.00043729	0.0002329	1014.8	3.6216e-06	1.329e-06	1093.9	207.79	5.8359e-06	1.2535e-06	263.46	75.097	58.506	17.272	4.6207e-06	24.119	0.00071135	0.00080517	0.00022553	1007.4	8.7985e-06	8.9933e-06	1085.9	209.13	8.493e-06	8.9569e-06	263.79	76.153	60.535	17.817	8.8983e-06	25.047	80.014	23.783	31.517	-77.835	52.551	98.253	-77.564	-69.978	43.039	39.094	-70.116	-63.999	-63.819	-56.171	40.815	-56.538	-8191	255	
21354.049	1	1	0	0	0.14563	0.2081	0.068738	0.17825	0.13944	0.22457	0.13218	0.16326	0.15824	0.083538	0.071198	0.058408	0.37454	0.26806	0.11925	0.065133	-2.2667	-2.05	-2.6854	-2.3792	-2.1813	-2.9417	-2.275	-2.5042	-2.6125	-1.9625	-2.5917	-2.5917	-2.0021	-2.6917	-2.0375	-2.3542	205.949	142.100	264.318	-57.039	62.635	52.110	185.760	260.246	1.509	-31.201	190.538	8.554	4.282	220.446	176.686	220.367	0.00018615	3.3436e-05	0.00014639	1015.8	2.3325e-06	2.8207e-06	1092.2	208.81	2.1775e-06	2.5771e-06	261.65	74.216	58.968	17.363	4.1167e-06	23.997	0.00073115	0.00081661	0.00022183	1005.2	8.8241e-06	8.6594e-06	1084	209.55	8.4535e-06	8.7948e-06	262.8	75.888	60.555	17.793	8.3919e-06	24.908	144.377	-50.152	19.718	-78.138	57.258	99.006	-77.682	-70.291	-52.237	-13.997	-70.275	-63.912	-63.665	-55.846	52.555	-56.184	-8191	255	
21354.145	1	1	0	0	0.14387	0.12698	0.10886	0.14596	0.27806	0.13502	0.26207	0.23243	0.23509	0.31005	0.20082	0.32712	0.20103	0.071746	0.15913	0.24897	-2.3375	-1.9396	-2.5375	-2.4604	-2.2333	-2.8896	-2.475	-2.3625	-2.9146	-1.9083	-2.4854	-2.7333	-1.95	-2.6688	-2.4229	-2.2542	-80.466	37.854	79.765	229.582	240.387	71.490	186.568	213.627	39.183	224.449	-19.671	-62.856	21.300	-49.083	-52.607	172.354	5.4304e-05	0.0004574	0.00013126	1013.5	1.9223e-06	1.6811e-06	1093.4	208.45	2.2591e-06	2.2843e-06	263.66	74.575	58.461	17.215	1.9678e-06	24.128	0.00071419	0.00078749	0.00022094	1004.4	8.6775e-06	8.8784e-06	1083.3	209.04	8.5145e-06	8.894e-06	263.43	75.844	60.598	17.764	8.756e-06	24.942	103.530	-24.489	24.551	-77.584	253.008	-11.249	-77.798	-69.883	101.401	95.558	-70.245	-63.535	-63.215	-55.876	192.663	-56.396	-8191	255	
21354.240	1	1	0	0	0.29275	0.10989	0.24414	0.10328	0.10435	0.034261	0.079516	0.28435	0.10526	0.07389	0.072076	0.09364	0.06061	0.16671	0.077963	0.069621	-2.3896	-2.0792	-2.5083	-2.8979	-2.1396	-3.0229	-2.5083	-2.2604	-2.7521	-2.2229	-2.6458	-2.8896	-2.0146	-2.9313	-2.3458	-1.9979	-79.764	143.411	192.150	61.006	193.313	228.678	207.633	223.732	-83.828	238.062	74.713	163.494	41.279	-50.865	144.744	-41.577	0.00012923	0.00027038	0.00021838	1012.5	2.1701e-06	2.1303e-06	1089.2	209.35	5.977e-07	1.4834e-06	261.77	74.403	58.781	17.301	4.6778e-06	24.112	0.00074529	0.00081408	0.00022799	1005.2	8.952e-06	9.1007e-06	1081.8	209.68	8.8217e-06	8.9916e-06	263.27	75.945	60.616	17.794	8.7156e-06	24.978	120.527	34.620	31.355	-77.713	-19.694	107.611	-77.647	-70.111	-81.086	214.441	-69.909	-63.627	-63.950	-55.963	37.104	-56.776	-8191	255	
21354.336	1	1	0	0	0.48568	0.068024	0.020232	0.047963	0.1758	0.25816	0.16666	0.21943	0.21176	0.34458	0.29923	0.20146	0.2757	0.047952	0.31424	0.13893	-2.325	-2.1188	-2.3937	-2.8083	-2.0854	-2.5833	-2.775	-2.2021	-2.7875	-2.1312	-2.4646	-2.7208	-1.9937	-2.6063	-2.4333	-2.275	15.915	-34.816	271.358	121.720	221.877	-67.141	10.613	249.731	-83.846	84.672	-49.122	188.267	-76.822	190.298	74.428	-57.646	0.00012417	0.00033899	6.8498e-05	1008.3	2.4733e-06	4.9515e-06	1089.3	208.55	4.6097e-06	2.892e-06	263.01	74.548	58.964	17.12	1.077e-06	24.114	0.00074035	0.00082034	0.00023204	1004.8	8.7938e-06	8.9056e-06	1081.2	209.42	8.6727e-06	9.0676e-06	263.47	75.867	60.501	17.74	8.9369e-06	24.851	131.511	-71.565	28.295	-77.665	-62.355	25.091	-77.646	-69.721	89.457	27.584	-70.066	-63.515	-63.159	-55.909	-34.511	-56.457	-8191	255	
21354.455	1	1	0	0	0.12684	0.073815	0.16722	0.31124	0.18671	0.17281	0.25728	0.15203	0.087578	0.085471	0.25974	0.16512	0.26819	0.27025	0.082259	0.060433	-2.4729	-2.1333	-2.2583	-2.7104	-1.8229	-2.3625	-2.6208	-1.8333	-2.6917	-2.3083	-2.2125	-2.8542	-2.0604	-2.3937	-2.4854	-1.9667	232.638	94.828	-51.057	242.904	184.073	-36.502	195.794	234.279	222.639	136.027	180.711	173.597	-55.803	-23.823	218.436	77.828	0.00031399	0.00023186	4.404e-05	1007.8	3.4651e-06	4.1626e-06	1089.9	207.41	4.8305e-06	4.4218e-06	261.11	74.787	58.818	17.089	4.1231e-06	23.964	0.00072836	0.00081585	0.00023061	1003.6	9.1287e-06	9.1179e-06	1082.7	209.01	8.896e-06	8.904e-06	262.56	75.877	60.773	17.65	8.9273e-06	24.903	131.981	47.222	203.626	-77.610	105.175	12.334	-77.530	-70.043	-66.473	30.098	-69.814	-63.713	-63.984	-55.389	38.074	-56.214	-8191	255	
21354.527	1	1	0	0	0.12949	0.17411	0.15719	0.023825	0.26795	0.20113	0.039355	0.09135	0.026017	0.19371	0.080514	0.14135	0.12745	0.27908	0.086883	0.14237	-2.2292	-2.325	-2.3229	-2.9437	-2.0042	-2.3958	-2.8167	-1.9542	-2.5687	-2.4188	-1.9667	-2.8063	-2.1604	-2.3	-2.6917	-1.8771	187.461	202.599	29.531	253.768	55.314	17.762	121.595	121.864	42.255	90.868	48.974	-28.425	162.029	170.805	57.660	127.340	0.00016046	0.00045117	0.00011478	1010.3	3.8967e-07	9.3195e-06	1091.8	208.27	5.8656e-06	8.5295e-07	262.96	74.4	58.804	17.246	1.6246e-06	24.045	0.00073659	0.00083287	0.00023101	1006.2	9.1623e-06	9.2305e-06	1083.4	209.18	8.7862e-06	9.2376e-06	263.34	75.89	60.715	17.712	9.0351e-06	24.824	109.130	6.084	-6.647	-77.623	164.214	67.932	-77.634	-69.897	57.254	-32.639	-69.951	-63.589	-63.166	-55.500	86.183	-56.296	-8191	255	
21354.646	1	1	0	0	0.11659	0.26471	0.18234	0.0297	0.12564	0.19533	0.18989	0.29684	0.32406	0.15352	0.045844	0.12604	0.056879	0.2398	0.31306	0.15451	-2.4562	-2.4271	-1.9917	-2.8937	-2.1875	-2.4042	-2.8083	-2.0938	-2.8104	-2.6771	-1.8	-2.8333	-2.3937	-2.2687	-2.8083	-2.1958	6.250	145.768	145.592	270.627	-38.081	190.100	-84.740	96.754	-58.256	241.180	216.046	-73.439	0.593	-47.567	161.872	-21.146	0.00020923	0.00040456	4.4367e-05	1010.9	6.3345e-06	1.2106e-07	1091.5	208.38	8.714e-06	6.4486e-06	261.35	74.541	58.258	17.063	5.2671e-06	23.83	0.00074644	0.00082369	0.00022887	1005	9.0356e-06	9.0724e-06	1082.1	209.13	8.8969e-06	9.0169e-06	263.02	75.763	60.289	17.62	8.7538e-06	24.795	127.088	-60.541	-60.938	-77.764	14.701	159.720	-77.478	-69.854	40.977	6.387	-70.008	-63.715	-63.442	-56.045	61.699	-56.135	-8191	255	
21354.742	1	1	0	0	0.13947	0.35552	0.13336	0.20896	0.129	0.019572	0.34068	0.16363	0.19319	0.23322	0.29975	0.079041	0.081598	0.18284	0.13759	0.23611	-2.0083	-2.4146	-2.0312	-2.7313	-2.4292	-2.1479	-2.9479	-2.1208	-2.3583	-2.4729	-2.1104	-2.9688	-2.4521	-2.1583	-2.8521	-2.2208	118.721	49.055	217.731	223.071	164.599	146.755	184.288	-74.499	-15.170	-23.217	211.621	177.596	176.459	-74.248	233.392	151.800	0.00016816	3.84e-05	7.1232e-06	1009.3	2.9458e-06	1.3125e-06	1091	206.74	1.9965e-06	6.0098e-06	259.8	74.786	58.731	17.04	6.8652e-06	23.892	0.00072833	0.00081047	0.00023074	1005.1	9.0246e-06	8.916e-06	1083.4	208.75	8.6783e-06	8.7324e-06	262.57	75.831	60.405	17.655	8.9293e-06	24.775	95.259	213.270	96.220	-77.492	9.609	250.175	-77.500	-69.860	8.406	113.384	-70.223	-63.616	-62.869	-55.934	119.707	-56.328	-8191	255	
21354.840	1	1	0	0	0.23116	0.16985	0.10035	0.27845	0.37023	0.10165	0.22345	0.13712	0.25064	0.25498	0.089239	0.30794	0.18793	0.19929	0.19783	0.21478	-2	-2.5958	-1.8	-2.5625	-2.3438	-2.15	-2.8729	-2.2958	-2.3354	-2.875	-1.9521	-2.6208	-2.55	-1.9542	-2.7917	-2.4104	60.714	-8.166	53.117	-85.399	-62.787	-78.608	223.589	176.556	71.650	244.920	139.279	260.041	-84.563	-80.891	-51.362	123.849	0.00013675	0.00027259	9.2879e-05	1015.5	1.757e-06	1.6067e-06	1091	207.76	2.0957e-06	4.3538e-06	260.96	74.804	58.89	17.067	4.7188e-06	23.907	0.000747	0.00082856	0.00023227	1007	8.8883e-06	9.1603e-06	1083	208.56	8.667e-06	8.9061e-06	261.99	76.008	60.443	17.635	8.5414e-06	24.654	102.696	0.906	-6.197	-77.144	55.821	235.280	-77.263	-70.169	13.207	109.845	-70.412	-63.410	-63.482	-55.815	90.664	-56.049	-8191	255	
21354.936	1	1	0	0	0.20622	0.13418	0.17483	0.24724	0.10279	0.11549	0.20467	0.1825	0.21309	0.32126	0.016816	0.036626	0.12537	0.14538	0.14785	0.12459	-1.6729	-2.6625	-2.0208	-2.7042	-2.5812	-1.8729	-2.8479	-2.2938	-2.0604	-2.5729	-2.1562	-2.3812	-2.4771	-1.8771	-2.7	-2.3521	108.800	19.438	68.374	196.860	80.430	-67.719	159.371	190.401	-27.665	181.773	266.095	233.456	176.211	254.819	265.660	157.423	0.00022918	0.00015467	0.00015019	1006.7	2.7369e-06	4.6404e-06	1088.1	208.26	4.4409e-06	3.2951e-06	259.06	74.203	58.308	16.921	7.1699e-06	23.967	0.00072081	0.00076993	0.00022178	1004.1	8.4763e-06	8.5061e-06	1078.7	208.93	8.4453e-06	8.5712e-06	261.16	75.863	60.15	17.579	8.4684e-06	24.678	98.842	20.968	54.581	-77.576	117.389	92.594	-77.323	-70.035	69.640	58.187	-70.762	-64.527	-64.043	-56.632	13.508	-57.336	-8191	255	
21355.057	1	1	0	0	0.084611	0.15859	0.23274	0.060755	0.25246	0.14583	0.084718	0.090639	0.14009	0.10744	0.10563	0.060387	0.11641	0.048298	0.034566	0.064805	-1.7292	-2.5625	-2.0375	-2.5438	-2.7062	-2.2167	-2.8875	-2.3583	-1.8625	-2.7625	-2.0167	-2.3937	-2.5292	-1.7292	-2.6083	-2.4062	236.059	126.235	78.486	177.193	204.589	-69.359	240.976	69.285	62.368	135.023	92.196	259.927	225.303	-4.857	222.597	228.579	0.00018969	0.00040481	6.3587e-05	1008.2	2.1818e-06	3.8009e-06	1087.5	209.86	3.7862e-06	2.4602e-06	260.91	75.127	57.82	17.094	3.2942e-06	23.805	0.0007197	0.00079038	0.00022217	1004.7	8.6652e-06	8.686e-06	1079.8	209.12	8.4055e-06	8.7005e-06	262.5	75.943	60.167	17.603	8.5323e-06	24.626	121.431	-35.015	16.538	-78.012	54.716	9.374	-78.295	-70.552	94.472	-1.342	-70.913	-64.278	-64.058	-56.923	78.784	-57.472	-8191	255	
21355.129	1	1	0	0	0.2106	0.055613	0.099767	0.30433	0.11682	0.23875	0.17703	0.28206	0.14337	0.048713	0.073871	0.34893	0.14093	0.285	0.35936	0.28109	-1.6458	-2.6354	-2.0146	-2.2354	-2.7208	-2.075	-2.7271	-2.4146	-1.9083	-2.7979	-2.2146	-2.2938	-2.6667	-2.025	-2.6229	-2.6271	104.238	177.244	267.072	227.206	49.222	74.866	-0.419	255.196	119.031	121.137	56.197	107.349	108.932	-70.293	121.243	152.131	0.00017544	0.00031209	0.0001179	1009.7	6.3687e-06	5.5616e-06	1085.6	207.95	2.5729e-06	4.4796e-06	261.35	74.574	58.425	16.984	3.9099e-06	23.865	0.00069857	0.00077426	0.0002206	1002.8	8.4876e-06	8.5951e-06	1078.1	208.23	8.5221e-06	8.5971e-06	262.37	75.573	60.158	17.548	8.5301e-06	24.619	103.486	-19.458	37.801	-78.303	75.064	8.898	-78.467	-70.759	-65.045	60.076	-70.962	-64.268	-64.115	-56.643	77.104	-57.057	-8191	255	
21355.225	1	1	0	0	0.11676	0.15676	0.092925	0.15402	0.080103	0.13878	0.03951	0.097558	0.094022	0.27723	0.41151	0.24207	0.046038	0.25273	0.23552	0.25246	-1.6604	-2.7542	-2.1188	-2.2667	-2.6875	-2.2375	-2.7229	-2.6104	-1.7708	-2.675	-2.1562	-2.0875	-2.7271	-1.8813	-2.2812	-2.5104	225.800	105.739	133.568	214.892	-54.844	-25.671	-69.380	141.658	-31.933	100.939	231.899	-30.258	134.763	231.183	231.569	155.738	0.00019795	0.00032087	0.00010488	1011.7	5.1069e-06	5.8302e-06	1086.9	208.36	3.3602e-06	4.9768e-06	261.01	74.033	59.175	17.059	4.0967e-06	23.604	0.00069169	0.00076544	0.00021712	1002.4	8.3905e-06	8.4089e-06	1078.6	208.64	8.1825e-06	8.5229e-06	261.99	75.388	60.305	17.558	8.1902e-06	24.583	106.050	23.853	-59.732	-78.399	53.588	-11.927	-78.073	-70.563	263.940	119.782	-71.154	-64.224	-64.170	-56.567	96.622	-56.722	-8191	255	
21355.320	1	1	0	0	0.12896	0.15435	0.20546	0.088054	0.017272	0.18048	0.11335	0.3234	0.17704	0.045456	0.18177	0.47363	0.071549	0.118	0.052242	0.16552	-1.7521	-2.6958	-2.4188	-2.1896	-2.8229	-2.1021	-2.3875	-2.5708	-2.0229	-2.6729	-2.5125	-2.0292	-2.6771	-2.2979	-2.2917	-2.8292	-55.811	14.790	-34.061	-45.992	179.068	-20.969	235.535	202.080	148.221	242.768	151.263	234.752	220.773	71.651	17.583	-30.478	0.0001714	0.00014016	6.9867e-05	1014.1	3.1602e-06	4.6611e-06	1084.9	207.94	8.3336e-07	8.3431e-07	261.84	74.707	58.321	16.964	1.3466e-06	23.772	0.00068822	0.00074917	0.00021256	1003.1	8.3453e-06	8.4921e-06	1077.4	208.01	8.3233e-06	8.3e-06	262.37	75.742	60.257	17.537	8.303e-06	24.566	81.147	47.372	4.422	-78.423	95.015	77.407	-78.157	-70.661	61.066	-32.476	-71.045	-64.456	-64.366	-57.122	184.071	-57.143	-8191	255	
21355.439	1	1	0	0	0.11659	0.15847	0.20213	0.34399	0.13701	0.11587	0.37236	0.068346	0.25989	0.019355	0.19297	0.19674	0.22505	0.12092	0.21027	0.13801	-1.5083	-2.5917	-2.3438	-2.1229	-2.8	-2.0312	-2.4292	-2.9021	-1.8375	-2.5896	-2.6979	-1.8104	-2.8729	-2.2646	-2.1521	-2.7521	149.715	44.270	-69.025	243.432	-54.972	235.039	175.507	124.341	-25.640	142.419	190.925	2.323	-88.627	36.410	205.559	108.428	0.00019426	0.00050163	8.9101e-05	1011.9	3.5976e-06	4.8276e-06	1084.1	207.68	1.9788e-06	5.8646e-07	259.88	73.457	58.871	17.1	2.5949e-06	23.756	0.00069287	0.00074898	0.00021332	999.49	8.1604e-06	8.5257e-06	1077.6	208.13	8.3469e-06	8.5013e-06	261.59	75.429	60.26	17.56	8.3584e-06	24.575	98.068	-22.256	17.508	-78.101	164.346	61.861	-78.021	-71.058	61.022	55.543	-71.072	-64.297	-64.281	-57.031	104.276	-57.191	-8191	255	
21355.535	1	1	0	0	0.21172	0.26068	0.028948	0.056416	0.20774	0.037697	0.15839	0.14108	0.17045	0.11256	0.039986	0.17081	0.1492	0.29971	0.23802	0.16769	-1.5938	-2.3604	-2.6688	-2.0687	-2.7458	-2.3354	-2.3771	-2.9083	-2.0417	-2.4354	-2.5271	-1.9062	-2.7042	-2.3292	-2.1875	-2.7875	156.240	261.416	145.202	243.509	32.891	158.406	263.292	165.954	39.477	12.622	-60.104	-47.576	-33.840	258.563	81.500	114.351	0.00018703	0.00051282	6.2903e-05	1010.3	1.0266e-06	3.6312e-06	1085.3	208.04	1.3862e-06	5.875e-06	260.26	74.108	58.632	17.01	3.814e-06	23.838	0.00070395	0.00078136	0.00022005	1000.5	8.2983e-06	8.4674e-06	1077	208.24	8.2924e-06	8.6239e-06	261.97	75.483	60.311	17.536	8.501e-06	24.582	138.180	-45.359	39.395	-78.258	-4.576	178.266	-78.304	-70.487	268.302	85.495	-71.088	-65.000	-64.433	-56.306	49.235	-57.154	-8191	255	
21355.631	1	1	0	0	0.0918	0.06646	0.24716	0.33418	0.0057901	0.27052	0.35499	0.24432	0.30192	0.14361	0.12195	0.25488	0.16415	0.024967	0.10315	0.11439	-1.8354	-2.2062	-2.7125	-2.0729	-2.5438	-2.4958	-2.4208	-2.7875	-2.0021	-2.3187	-2.8875	-2.075	-2.6271	-2.4854	-1.9917	-2.8271	-11.363	115.356	239.571	-26.135	122.854	-35.100	239.542	147.081	213.800	258.396	223.786	178.641	222.025	120.971	27.441	3.680	9.4791e-05	0.00019264	7.0387e-05	1004.9	1.3367e-06	1.2154e-06	1079.3	207.59	1.5783e-06	1.9745e-06	259.73	74.119	58.491	17.092	4.7096e-06	23.745	0.00070218	0.00077942	0.00021604	997.17	8.4223e-06	8.5316e-06	1075.6	208.37	8.2874e-06	8.6198e-06	261.9	75.393	60.217	17.566	8.3558e-06	24.553	119.998	186.001	65.178	-78.419	117.966	170.846	-77.913	-70.407	155.068	-62.445	-70.785	-64.681	-64.149	-56.559	70.004	-57.067	-8191	255	
21355.729	1	1	0	0	0.16837	0.18533	0.2631	0.17251	0.090169	0.21305	0.018774	0.15117	0.076146	0.31227	0.33807	0.047051	0.16152	0.38912	0.37108	0.2157	-1.6812	-2.2625	-2.7792	-2.1396	-2.5604	-2.5854	-2.0312	-2.7313	-2.1854	-2.2479	-2.7104	-2.0125	-2.6583	-2.5583	-1.8958	-2.75	119.178	263.063	95.047	-5.243	70.759	-74.614	23.711	228.410	-10.998	28.107	260.262	-13.654	8.323	-57.509	-16.472	101.238	0.00017151	0.00022119	3.4348e-05	1007	3.2385e-06	1.6853e-06	1083.6	207.04	2.0359e-06	4.1208e-06	260.92	74.211	58.982	16.901	4.248e-06	23.564	0.00070002	0.00077876	0.0002118	1000.7	8.3859e-06	8.4486e-06	1075.6	208.18	8.2601e-06	8.7188e-06	261.95	75.466	60.376	17.487	8.4256e-06	24.496	129.181	-67.405	-68.672	-78.173	72.995	74.932	-78.333	-70.684	140.385	86.128	-70.840	-64.270	-63.831	-56.658	28.294	-57.187	-8191	255	
21355.824	1	1	0	0	0.20331	0.13481	0.2993	0.14732	0.17018	0.11145	0.12269	0.10863	0.048676	0.12885	0.34707	0.095629	0.21496	0.17347	0.21845	0.17373	-1.8354	-2.1375	-2.6729	-2.1083	-2.4938	-2.6875	-2.1333	-2.7604	-2.2083	-1.8854	-2.6708	-2.1937	-2.2771	-2.6104	-2.0292	-2.7042	251.913	191.493	117.793	15.357	-72.205	217.855	246.676	-88.073	-18.174	89.266	-71.154	243.092	-78.993	178.741	-81.396	240.205	0.00015483	0.00017712	2.5127e-05	1007.7	1.9089e-06	2.897e-06	1085.6	207.73	2.2427e-06	2.7374e-06	260.75	73.802	58.316	17.001	6.9694e-07	23.725	0.00070563	0.00077638	0.00021926	1000.2	8.4622e-06	8.4681e-06	1076.3	208.08	8.1095e-06	8.5956e-06	261.95	75.358	60.182	17.501	8.4719e-06	24.522	93.825	141.316	-64.032	-77.918	64.887	94.062	-78.432	-70.323	149.175	11.709	-71.161	-64.610	-63.911	-56.907	28.432	-57.451	-8191	255	
21355.920	1	1	0	0	0.11932	0.10428	0.37927	0.17402	0.29222	0.21106	0.34871	0.25027	0.064674	0.14541	0.067035	0.22048	0.11178	0.18071	0.069696	0.25358	-2.1583	-2.0229	-2.8146	-2.2313	-2.4458	-2.8271	-1.9417	-2.6396	-2.5896	-1.9438	-2.8896	-2.3896	-2.0833	-2.7	-2.075	-2.55	108.187	267.621	253.434	57.303	179.235	23.492	210.870	234.307	181.121	216.542	11.110	210.312	103.100	-25.616	114.018	-51.887	9.1269e-05	6.5976e-05	7.0115e-05	1013.8	3.5522e-06	7.9582e-06	1085	207.57	3.2043e-06	4.3868e-06	259.3	73.624	58.64	17.056	4.4526e-06	23.74	0.00069106	0.00077453	0.00021623	999.61	8.2336e-06	8.4231e-06	1075.9	208.37	8.267e-06	8.658e-06	261.43	75.303	60.158	17.471	8.334e-06	24.528	127.246	-75.388	216.522	-78.061	207.182	84.606	-78.236	-70.505	56.115	49.394	-70.537	-64.198	-64.296	-56.950	-49.087	-56.758	-8191	255	
21356.016	1	1	0	0	0.044209	0.27725	0.14898	0.23012	0.17166	0.1954	0.17515	0.097239	0.25616	0.12402	0.13672	0.137	0.17768	0.18288	0.18959	0.13777	-2.1229	-2.1813	-2.8	-2.2979	-2.3375	-2.8917	-2.1125	-2.5583	-2.6937	-1.9521	-2.7479	-2.5167	-2.1437	-2.6771	-2.0375	-2.55	155.916	49.577	-81.650	252.698	225.295	121.275	239.360	205.826	-26.074	78.846	270.230	253.691	-1.591	-17.378	-84.019	103.376	0.00015163	0.00022803	8.9774e-05	1013.8	2.23e-06	2.5154e-06	1084.3	208.35	2.4038e-06	3.3474e-06	259.99	73.859	58.372	17.047	7.1081e-06	23.646	0.0006999	0.00076938	0.00021246	1003	8.4757e-06	8.6344e-06	1075.2	208.51	8.284e-06	8.4869e-06	261.24	75.362	60.283	17.5	8.3356e-06	24.49	131.363	-11.028	-49.279	-78.168	116.230	89.775	-77.981	-70.620	177.488	54.642	-70.717	-64.086	-63.963	-56.503	5.516	-57.021	-8191	255	
21356.137	1	1	0	0	0.13043	0.18854	0.37743	0.051974	0.13749	0.18292	0.21461	0.18467	0.07936	0.053644	0.1204	0.14491	0.077326	0.047737	0.088941	0.11616	-2.3854	-1.9917	-2.6688	-2.4396	-2.1229	-2.6375	-2.3563	-2.3771	-2.7875	-2.1396	-2.7458	-2.3688	-1.9979	-2.9354	-2.0458	-2.4688	200.869	213.488	-53.634	31.375	15.623	-85.836	212.731	190.881	-60.254	160.466	-38.397	-55.611	235.875	33.764	60.604	152.552	0.00019084	0.00055054	0.00012912	1003.3	4.4532e-06	3.8522e-06	1087.5	206.96	4.315e-06	4.9143e-06	260.54	73.709	58.342	17.003	4.4817e-06	23.62	0.00070247	0.00077588	0.00021866	996.92	8.595e-06	8.4765e-06	1077.2	208.02	8.0657e-06	8.2346e-06	261.9	75.282	60.198	17.515	8.085e-06	24.456	125.428	-19.160	25.980	-78.113	109.642	106.940	-78.103	-70.508	8.471	51.063	-70.645	-63.867	-63.783	-56.409	7.471	-56.704	-8191	255	
21356.232	1	1	0	0	0.24338	0.03333	0.13739	0.12708	0.13256	0.26151	0.19762	0.22981	0.1796	0.13953	0.089243	0.36183	0.10932	0.17108	0.1118	0.34642	-2.2	-1.9625	-2.6042	-2.4771	-2.0958	-2.9271	-2.2938	-2.3604	-2.8375	-2.0646	-2.7583	-2.65	-2.1021	-2.875	-2.3729	-2.2917	6.021	-83.707	12.525	-65.963	26.132	-69.351	256.881	190.640	127.779	45.484	-61.565	224.535	244.116	-87.180	163.891	266.303	0.0001595	0.00021625	9.3565e-05	1007.5	6.0425e-06	1.9983e-06	1082.7	207.93	3.4155e-06	2.6426e-06	260.27	74.016	58.765	16.968	6.9469e-06	23.683	0.0006726	0.00075115	0.00021131	997.47	8.4779e-06	8.3864e-06	1076.1	208.44	8.2245e-06	8.448e-06	261.27	75.427	60.085	17.501	8.3474e-06	24.486	94.111	-16.610	259.384	-77.960	58.859	55.007	-78.062	-70.494	16.207	57.357	-70.468	-64.027	-63.793	-56.588	95.655	-56.483	-8191	255	
21356.328	1	1	0	0	0.19566	0.13224	0.10425	0.075345	0.063965	0.24598	0.26847	0.33682	0.4077	0.082182	0.31702	0.14648	0.097291	0.13749	0.12889	0.18735	-2.4479	-2.2062	-2.5979	-2.7146	-2	-2.5938	-2.4146	-2.1375	-2.8792	-1.9021	-2.7167	-2.6646	-1.875	-2.675	-2.375	-2.225	219.380	248.860	-3.690	188.752	30.976	14.229	192.359	-81.134	-27.114	71.891	264.461	149.277	237.588	173.394	241.347	187.009	7.6008e-05	0.00063232	2.3717e-05	1014.3	9.0416e-07	5.9924e-06	1088.1	208.1	3.6458e-06	4.3799e-06	260.13	74.077	57.86	17.065	1.2129e-06	23.714	0.00067451	0.00077556	0.00021372	1001.5	8.3513e-06	8.4873e-06	1076.8	208.28	8.0639e-06	8.377e-06	261.78	75.42	59.781	17.544	8.2081e-06	24.454	103.128	44.409	190.543	-78.011	1.009	130.279	-78.157	-70.409	169.398	109.800	-70.464	-64.387	-64.197	-55.993	51.267	-56.751	-8191	255	
21356.426	1	1	0	0	0.1478	0.06542	0.034394	0.010232	0.16693	0.24674	0.26383	0.24584	0.087004	0.24932	0.1488	0.26502	0.24265	0.059203	0.22791	0.064134	-2.4229	-2.1542	-2.3104	-2.6833	-1.9792	-2.6729	-2.6625	-1.9458	-2.7708	-2.2167	-2.2604	-2.7521	-2.1417	-2.6562	-2.6271	-2.1417	19.013	-77.866	34.168	-84.005	217.369	226.385	205.245	139.530	266.044	216.193	253.213	214.238	220.613	147.764	-6.762	57.220	0.00011771	0.00042012	0.00012611	1005.8	3.5671e-06	1.9091e-06	1089.2	207.59	4.8513e-06	3.6355e-06	260.11	73.631	58.915	16.942	2.3565e-06	23.695	0.00067682	0.00075088	0.00021401	994.78	8.3082e-06	8.3616e-06	1076.9	207.79	8.0759e-06	8.3438e-06	261.44	75.249	60.133	17.473	8.2296e-06	24.453	122.550	-23.452	14.330	-78.141	40.756	-29.157	-78.015	-70.499	6.324	14.565	-70.267	-64.134	-64.189	-56.035	138.017	-57.159	-8191	255	
21356.520	1	1	0	0	0.073794	0.043984	0.064981	0.013778	0.21724	0.1841	0.1437	0.29672	0.36511	0.1029	0.20672	0.028306	0.29244	0.3123	0.02751	0.28257	-2.3708	-2.0687	-2.2229	-2.8792	-2.0438	-2.5146	-2.8208	-1.9083	-2.7917	-2.3958	-2.3563	-2.9	-2.1104	-2.4104	-2.6813	-1.9771	-38.656	139.211	-49.310	215.333	201.958	109.124	5.338	201.970	222.049	-17.353	269.705	268.699	207.842	252.198	4.786	217.706	4.0213e-05	0.00050914	0.0001875	1005.2	4.0551e-06	2.0175e-06	1083.1	208.16	2.2966e-06	6.0129e-06	260.08	74.362	58.456	16.969	5.5077e-06	23.56	0.00068275	0.00075069	0.00021323	997.5	8.2034e-06	8.3804e-06	1074.5	208.13	8.1141e-06	8.3093e-06	261.28	75.642	60.086	17.454	8.1483e-06	24.399	122.608	11.878	-44.812	-78.150	46.648	76.698	-77.734	-70.098	-52.662	99.222	-70.275	-64.183	-63.729	-56.389	47.879	-57.022	-8191	255	
21356.615	1	1	0	0	0.12974	0.15078	0.040692	0.25095	0.16068	0.035445	0.098183	0.17162	0.077119	0.21988	0.041992	0.23186	0.29094	0.068085	0.11997	0.14912	-2.4021	-2.3937	-2.1042	-2.6917	-1.9854	-2.5812	-2.8396	-2.2	-2.8396	-2.2042	-2.1458	-2.7646	-2.4375	-2.2667	-2.7521	-1.975	9.258	25.408	266.766	252.714	173.897	-56.247	189.440	-28.366	158.280	30.529	26.154	-85.095	216.490	144.929	142.325	271.246	0.00018726	0.00021263	0.00011557	1010.4	3.5405e-06	1.6752e-06	1089	207.67	8.4801e-07	3.807e-06	261.5	74.098	58.507	16.914	6.7758e-06	23.902	0.00067751	0.00074741	0.00021207	1000.1	8.2156e-06	8.467e-06	1076.7	207.86	8.0103e-06	8.3341e-06	262.23	75.438	60.08	17.516	8.2565e-06	24.547	133.120	73.571	14.347	-77.720	28.959	38.824	-77.955	-70.250	-80.576	85.539	-70.758	-63.716	-63.923	-56.346	70.901	-56.557	-8191	255	
21356.736	1	1	0	0	0.25787	0.15582	0.081405	0.21826	0.36947	0.09751	0.16222	0.13782	0.12565	0.20746	0.2032	0.18362	0.28668	0.079854	0.12426	0.40831	-2.2042	-2.5667	-2.1021	-2.85	-2.0938	-2.3583	-2.8729	-2.2521	-2.6937	-2.5667	-2.0917	-2.7896	-2.0292	-2.35	-2.8104	-2.1208	99.467	181.628	258.391	201.885	155.307	200.259	229.535	100.116	36.596	142.326	248.902	-69.644	163.537	251.998	-65.687	110.801	9.3615e-05	0.00031039	2.7766e-05	1006.4	1.5051e-06	1.1078e-06	1086.1	207.96	5.1605e-06	7.7816e-06	259.73	73.771	58.702	16.994	3.5311e-06	23.672	0.00069299	0.00074107	0.00021055	997.74	8.1597e-06	8.2514e-06	1075.2	207.97	8.0564e-06	8.3869e-06	261.27	75.222	60.11	17.485	8.1988e-06	24.402	145.533	8.837	-51.744	-77.965	83.734	172.220	-77.739	-70.333	-20.828	65.891	-70.508	-63.925	-63.584	-56.431	42.825	-57.064	-8191	255	
21356.832	1	1	0	0	0.031956	0.22886	0.13708	0.33104	0.20136	0.20203	0.018407	0.34922	0.17224	0.19666	0.096717	0.19438	0.20201	0.17981	0.14687	0.077334	-2.2771	-2.6271	-2.0563	-2.7417	-2.5583	-2.2062	-3.0625	-2.3229	-2.5417	-2.7646	-2.1312	-2.7333	-2.325	-2.1771	-2.8396	-2.1396	167.866	189.769	12.719	-82.648	89.800	82.914	-71.339	241.068	243.414	101.226	-26.668	16.341	184.440	110.356	154.858	16.893	6.7747e-05	0.00020004	0.00011638	1001.2	2.0706e-06	3.5122e-06	1084.4	207.96	4.7044e-06	2.0005e-06	259.88	74.049	57.741	17.042	4.9557e-06	23.662	0.00068541	0.00075704	0.00021103	998.1	8.2052e-06	8.3305e-06	1074.2	207.79	8.3512e-06	8.2849e-06	261.18	75.401	60.049	17.539	8.2261e-06	24.48	88.076	-6.679	269.855	-77.876	-24.825	60.083	-78.089	-70.657	181.760	131.216	-70.445	-64.051	-63.918	-56.337	-16.817	-57.014	-8191	255	
21356.930	1	1	0	0	0.18838	0.38052	0.21732	0.16683	0.10605	0.13987	0.047596	0.16784	0.048152	0.087255	0.12238	0.29468	0.17744	0.041096	0.017502	0.095932	-1.9937	-2.7667	-2.0062	-2.9062	-2.3917	-2.1479	-2.9938	-2.3396	-2.4896	-2.6646	-2.1312	-2.7438	-2.3917	-2.0271	-2.5896	-2.3958	-58.007	0.886	120.931	206.699	54.892	118.913	-78.834	-55.386	11.404	38.411	-0.698	210.476	63.843	-9.954	17.471	78.866	3.6633e-05	0.00044655	8.9628e-05	1000.3	3.2282e-06	2.0392e-06	1082.4	206.94	3.2347e-06	5.0142e-06	258.56	73.758	58.363	16.939	9.2748e-06	23.604	0.00069028	0.00075739	0.00021327	999.29	8.3268e-06	8.4556e-06	1074.5	207.5	8.2713e-06	8.4912e-06	260.74	75.563	60.009	17.474	8.1986e-06	24.389	112.480	81.814	-16.923	-77.946	-56.095	198.069	-77.966	-70.198	28.979	93.436	-70.503	-64.305	-63.984	-56.477	44.209	-56.613	-8191	255	
21357.000	1	1	0	0	0.11723	0.26381	0.34853	0.14487	0.19761	0.026836	0.26466	0.12562	0.18979	0.15045	0.23432	0.15398	0.14779	0.10436	0.039485	0.15379	-1.9021	-2.8937	-1.9104	-2.6646	-2.6417	-2.0396	-3.0438	-2.2375	-2.125	-2.7229	-2.1625	-2.4792	-2.6979	-2.1167	-2.8187	-2.4021	113.079	189.211	95.534	184.684	-7.371	-87.850	166.759	13.733	47.304	50.565	194.386	-33.720	8.894	-36.203	133.339	129.656	0.00012783	0.00018176	5.8848e-05	1010.4	6.5742e-06	1.6459e-06	1081.5	206.01	2.9762e-06	4.9915e-06	260.79	74.279	58.18	16.884	8.622e-06	23.718	0.00069788	0.00076203	0.00021003	998.6	8.5238e-06	8.4871e-06	1075.2	207.42	8.2011e-06	8.4562e-06	261.76	75.567	59.89	17.473	8.305e-06	24.496	94.831	56.992	-9.391	-77.940	40.934	267.902	-77.789	-70.531	90.384	245.820	-70.379	-63.812	-64.072	-56.158	58.470	-57.235	-8191	255	
21357.121	1	1	0	0	0.44597	0.15942	0.11025	0.10383	0.056056	0.24137	0.15402	0.35575	0.21454	0.13563	0.15956	0.32833	0.16799	0.039911	0.1574	0.35614	-1.8771	-2.7396	-1.8729	-2.6146	-2.6229	-2.1042	-3.075	-2.3812	-2.0563	-2.7958	-2.2542	-2.4542	-2.6917	-1.9042	-2.6312	-2.5	209.324	90.278	-1.975	176.413	206.501	23.354	130.985	119.048	239.805	-36.294	167.942	222.908	36.943	-84.276	172.834	143.489	0.00012564	0.00036957	7.624e-05	1008.1	3.4156e-06	5.7182e-06	1085.5	206.78	4.1595e-06	3.793e-06	260.37	73.784	58.548	16.891	4.9624e-06	23.674	0.00070062	0.00076767	0.00021225	996.62	8.5348e-06	8.602e-06	1076.1	207.9	8.3524e-06	8.388e-06	261.55	75.445	60.016	17.482	8.1979e-06	24.454	90.861	4.619	-51.436	-78.066	11.710	-1.404	-77.930	-70.295	128.694	-35.342	-70.482	-63.997	-63.820	-56.039	11.726	-56.946	-8191	255	
21357.217	1	1	0	0	0.1279	0.047539	0.18357	0.27402	0.30057	0.066509	0.20023	0.083798	0.20226	0.18484	0.17087	0.24178	0.11882	0.15694	0.20082	0.12684	-1.8271	-2.9667	-2.1042	-2.3646	-2.8292	-2.2458	-2.7583	-2.6458	-2.2021	-2.8729	-2.2646	-2.5417	-2.7021	-1.9521	-2.5125	-2.5187	90.182	48.559	110.495	190.855	255.283	-70.444	150.416	243.781	29.336	242.519	16.760	243.903	130.974	212.546	178.857	237.229	0.00021309	0.00046686	7.4054e-05	1006.5	6.5457e-06	1.7297e-06	1080.4	208.08	2.2262e-06	4.06e-06	261.86	74.257	58.343	16.896	7.9516e-06	23.732	0.00069696	0.00077508	0.00021028	1000.3	8.2934e-06	8.5506e-06	1075.1	208.06	8.2962e-06	8.4759e-06	261.86	75.355	60.022	17.456	8.3285e-06	24.432	142.478	3.088	-0.030	-77.924	73.466	237.689	-77.860	-70.445	-44.449	-36.589	-70.898	-63.512	-63.706	-56.388	48.848	-57.194	-8191	255	
21357.312	1	1	0	0	0.31831	0.3405	0.37272	0.2503	0.14756	0.066273	0.12161	0.10857	0.12603	0.011161	0.059533	0.13717	0.03406	0.22186	0.16799	0.073712	-1.6958	-2.9125	-2.3521	-2.4521	-2.8208	-2.0354	-2.8667	-2.6688	-2.0396	-2.8583	-2.475	-2.3812	-2.7542	-2.1437	-2.475	-2.7667	263.692	125.286	266.815	231.621	214.603	-58.970	214.062	-27.246	-34.523	199.925	215.474	-18.067	15.736	-79.208	-3.688	184.378	0.00016609	8.7046e-05	0.00018576	1002.4	3.1346e-06	1.2653e-06	1083.7	206.78	2.6715e-06	8.6667e-07	260.14	74.104	58.415	16.909	3.039e-06	23.573	0.00069695	0.00074576	0.00021473	998.02	8.3899e-06	8.3154e-06	1075.4	207.6	8.1602e-06	8.1677e-06	262.05	75.444	60.052	17.455	8.0565e-06	24.39	115.826	76.450	-19.286	-78.038	48.114	40.030	-77.779	-70.296	-20.926	-30.256	-70.604	-63.714	-63.688	-56.658	125.622	-56.282	-8191	255	
21357.408	1	1	0	0	0.14643	0.067627	0.1524	0.06295	0.31163	0.15238	0.38249	0.16455	0.10753	0.10416	0.12916	0.28582	0.13695	0.097102	0.12587	0.16033	-1.5312	-2.65	-2.3875	-2.2479	-2.9146	-2.1396	-2.5187	-2.6875	-2.0708	-2.7542	-2.5292	-2.1625	-2.9354	-2.1229	-2.5104	-2.7625	170.846	65.708	111.017	239.587	45.050	16.774	254.818	246.673	40.653	138.279	-37.352	187.719	265.141	2.214	229.219	-82.455	0.00015767	0.00056494	0.00011101	1009	2.7418e-06	3.8862e-06	1083.7	207.15	2.367e-06	2.9913e-06	260.37	73.955	58.718	16.93	2.3734e-06	23.789	0.00067825	0.00074351	0.0002067	999.78	8.0144e-06	8.016e-06	1075.2	207.54	7.8588e-06	7.8956e-06	261.66	75.314	59.984	17.469	7.7939e-06	24.406	98.199	-69.020	8.419	-78.098	83.724	12.785	-77.853	-70.557	1.306	50.668	-70.881	-64.012	-63.776	-56.413	69.690	-57.025	-8191	255	
21357.527	1	1	0	0	0.12827	0.31758	0.19616	0.0038347	0.25746	0.10352	0.32022	0.15575	0.2217	0.22319	0.34608	0.058442	0.10319	0.11027	0.2265	0.12495	-1.6104	-2.5958	-2.5333	-2.15	-2.625	-2.3917	-2.4917	-2.8187	-1.9	-2.625	-2.5938	-2.1854	-2.8333	-2.4083	-2.4146	-2.8229	246.757	191.948	44.366	22.451	170.407	74.166	239.797	4.214	237.314	159.026	213.875	124.317	89.815	182.682	164.559	217.803	0.00020336	0.00049981	0.0001382	1009.1	5.793e-06	3.4649e-06	1086.8	207.6	1.3159e-06	6.6614e-06	260.67	74.162	58.319	16.99	5.2146e-06	23.757	0.00067024	0.00072896	0.00020537	997.93	8.0514e-06	8.0553e-06	1074.9	207.96	7.817e-06	8.0602e-06	262	75.492	60.018	17.487	7.8842e-06	24.452	100.828	18.264	-49.099	-77.986	6.351	51.972	-78.121	-70.532	-47.123	54.020	-70.685	-63.998	-63.895	-56.353	15.028	-56.636	-8191	255	
21357.623	1	1	0	0	0.19695	0.2796	0.19322	0.13393	0.1632	0.22517	0.37137	0.079455	0.19486	0.066894	0.17189	0.22647	0.1529	0.20334	0.20386	0.041193	-1.4	-2.6354	-2.5	-1.9333	-2.7812	-2.3	-2.3917	-2.9042	-2.0604	-2.4792	-2.7562	-2.1562	-2.8333	-2.2313	-2.1292	-2.825	217.192	241.529	41.183	-36.098	232.825	124.401	260.406	194.017	86.549	199.974	207.172	-40.755	113.975	268.621	147.455	69.150	7.0851e-05	0.00016704	0.00016472	1004.9	3.2502e-06	4.7619e-06	1084.5	208	3.0992e-06	4.107e-06	259.28	73.782	58.076	16.897	5.0986e-06	23.597	0.00065506	0.0007256	0.0002042	997.7	7.9676e-06	7.9273e-06	1073.5	207.93	7.8599e-06	7.8595e-06	260.71	75.203	59.946	17.468	7.7835e-06	24.387	31.114	-44.474	34.798	-77.935	120.454	94.813	-77.885	-70.439	25.642	61.864	-70.976	-64.288	-63.708	-56.547	18.392	-56.565	-8191	255	
21357.697	1	1	0	0	0.10146	0.16087	0.095927	0.0648	0.10772	0.17456	0.062858	0.037406	0.11784	0.15061	0.24149	0.12429	0.14795	0.21298	0.12912	0.16085	-1.7583	-2.3312	-2.7646	-1.9854	-2.5854	-2.3563	-2.2062	-2.75	-2.0812	-2.3333	-2.8125	-1.95	-2.7062	-2.5896	-1.9375	-2.7	197.901	-85.824	96.088	-9.901	197.630	53.952	-23.651	27.681	156.103	-14.406	-73.417	226.346	267.996	-20.948	154.731	-73.684	1.3096e-05	0.0002307	0.0001098	1006.8	1.9264e-06	3.533e-06	1083.5	208.84	3.0064e-06	2.7039e-06	259.17	74.169	58.447	16.913	2.3199e-06	23.656	0.00064917	0.00071613	0.00020349	996.93	7.7811e-06	8.0342e-06	1074.8	208.21	7.7969e-06	8.0725e-06	261.34	75.256	60.199	17.474	7.8585e-06	24.415	135.894	-7.341	19.738	-78.106	183.763	71.551	-78.150	-70.835	-2.418	20.802	-71.378	-64.844	-64.147	-56.522	166.739	-57.402	-8191	255	
21357.816	1	1	0	0	0.1845	0.057018	0.12158	0.3041	0.085181	0.097914	0.25862	0.16781	0.27931	0.22593	0.09392	0.15593	0.27686	0.26725	0.14387	0.12828	-1.7083	-2.2271	-2.6188	-2.0583	-2.5792	-2.5333	-2.2875	-2.8042	-2.25	-2.0083	-2.7667	-1.9562	-2.6208	-2.6083	-2.025	-2.8438	245.516	136.352	217.747	209.596	163.056	16.942	212.782	229.697	124.410	-15.373	-78.689	108.915	-85.253	-87.445	-70.536	164.889	0.00011261	0.00015393	9.8407e-05	1004.9	1.9184e-06	1.9845e-06	1087.2	208	3.4822e-06	6.1777e-06	261.84	74.188	58.123	16.916	2.414e-06	23.898	0.00065163	0.00074279	0.00019937	997.5	7.9886e-06	8.0355e-06	1077.2	207.77	7.9433e-06	8.033e-06	261.51	75.357	59.959	17.407	7.8831e-06	24.492	138.925	-40.491	-7.356	-78.546	54.073	82.015	-78.454	-70.685	82.385	77.377	-71.230	-64.404	-64.363	-56.537	-69.350	-57.249	-8191	255	
21357.912	1	1	0	0	0.30939	0.17907	0.12932	0.097115	0.086112	0.13841	0.24283	0.095633	0.030195	0.096647	0.37305	0.076649	0.1493	0.32319	0.040159	0.17879	-2.1042	-2.2104	-2.85	-2.2354	-2.5187	-2.7083	-2.1	-2.7958	-2.3312	-2.0312	-2.7896	-2.1	-2.2708	-2.8625	-1.9958	-2.8208	115.127	180.099	52.597	255.378	134.748	-66.462	154.356	-56.962	186.974	50.631	216.518	-50.324	210.233	-0.453	107.747	70.231	0.00019784	0.00054353	6.0193e-05	1005.1	2.7988e-06	1.6222e-06	1083.8	207.4	1.5516e-06	4.8002e-06	261.34	73.837	58.285	17.028	6.9816e-06	23.825	0.00065587	0.0007211	0.00020128	996.09	8.1202e-06	7.9333e-06	1073.8	207.45	7.6338e-06	7.9532e-06	261.87	75.294	60.026	17.449	7.9798e-06	24.394	134.623	36.091	-74.779	-78.662	147.901	184.369	-78.316	-70.631	56.254	91.377	-71.135	-64.295	-63.847	-56.601	34.189	-56.966	-8191	255	
21358.010	1	1	0	0	0.10275	0.15037	0.13145	0.15977	0.21807	0.17431	0.20504	0.092634	0.2032	0.026085	0.22015	0.3222	0.17235	0.057963	0.19714	0.34121	-2.1479	-1.8271	-2.7417	-2.0833	-2.1437	-2.7479	-2.0667	-2.7	-2.5083	-2.0021	-2.8833	-2.2229	-2.0979	-2.9542	-1.9937	-2.6562	-14.484	-15.659	182.259	-24.409	69.690	77.623	252.563	242.328	85.095	-16.045	-12.436	230.081	181.037	93.309	195.183	85.959	0.00020778	0.00020696	0.00011244	1002.8	4.5575e-06	2.883e-06	1082.8	208.21	4.6084e-06	7.2677e-06	259.83	74.484	58.331	17.041	5.5738e-06	23.735	0.00065283	0.00072373	0.00020105	996.04	8.0155e-06	7.8789e-06	1072.9	207.97	7.861e-06	7.8891e-06	261.25	75.493	59.817	17.456	7.95e-06	24.436	146.415	-80.198	-44.670	-78.442	77.851	56.914	-78.355	-70.438	-35.138	22.352	-71.002	-64.610	-64.146	-56.917	71.566	-56.847	-8191	255	
21358.131	1	1	0	0	0.3617	0.075256	0.21559	0.12881	0.096019	0.23627	0.40793	0.22584	0.18474	0.26563	0.058783	0.23745	0.15649	0.082182	0.092468	0.24971	-2.3312	-1.7042	-2.6604	-2.4917	-2.2354	-2.8771	-2.2188	-2.55	-2.65	-1.9688	-3.0042	-2.2708	-2.0417	-2.9688	-1.9625	-2.4	10.821	-73.139	124.392	260.029	138.423	-62.994	151.989	-84.686	-10.113	196.690	164.834	165.665	6.521	51.694	-57.708	53.745	0.00019025	0.00060051	4.9495e-05	998.56	1.7576e-06	4.6434e-06	1082.8	207.33	2.8899e-06	8.3895e-07	261.22	73.939	58.617	16.941	5.1393e-06	23.646	0.0006493	0.00073244	0.00020039	994.87	7.7816e-06	7.9852e-06	1072.9	207.61	7.6505e-06	7.9006e-06	261.28	75.313	60.03	17.484	7.7512e-06	24.407	132.866	-29.573	-27.430	-78.443	137.648	213.441	-78.205	-70.700	-38.731	86.669	-70.894	-64.525	-64.661	-56.867	45.080	-57.282	-8191	255	
#DATA ENDS
