BOXY.EXE: ISS Imagent and Oximeter Data Acquisition Program Version 0.80
Ascii Record File

#ACQ INFORMATION
2  Detector Channels 
16  External MUX Channels 
1  Auxiliary Channels 
5000  Waveform (CCF) Frequency (Hz)
1  Waveforms Skipped 
30  Waveforms Averaged 
1  Cycles Averaged 
16  Acquisitions per Waveform 
10.0806  Updata Rate (Hz) 

#FILE INFORMATION
TRUE -- External MUX Channel results are PARSED.
FALSE -- AC DC and Phase are NOT grouped.
TRUE -- Companion Program Settings File CREATED.
FALSE -- AC data not excluded
FALSE -- DC data not excluded
FALSE -- Phase data not excluded
FALSE -- Auxillary Chn. data not excluded
Tab delimiters

#CALIBRATION STATE
TRUE -- Waveform Calibration Values APPLIED.


#AUX CALIBRATION VALUES
Val Type	aux-1	

Term	1.0000e+00	
Factor	0.0000e+00	


#WF CALIBRATION VALUES
A = Detector Channel
Val Type	A-AC1	A-AC2	A-AC3	A-AC4	A-AC5	A-AC6	A-AC7	A-AC8	A-AC9	A-AC10	A-AC11	A-AC12	A-AC13	A-AC14	A-AC15	A-AC16	A-DC1	A-DC2	A-DC3	A-DC4	A-DC5	A-DC6	A-DC7	A-DC8	A-DC9	A-DC10	A-DC11	A-DC12	A-DC13	A-DC14	A-DC15	A-DC16	A-Ph1	A-Ph2	A-Ph3	A-Ph4	A-Ph5	A-Ph6	A-Ph7	A-Ph8	A-Ph9	A-Ph10	A-Ph11	A-Ph12	A-Ph13	A-Ph14	A-Ph15	A-Ph16	

Term	0.00000e+00	0.00000e+00	0.00000e+00	0.00000e+00	0.00000e+00	0.00000e+00	0.00000e+00	0.00000e+00	0.00000e+00	0.00000e+00	0.00000e+00	0.00000e+00	0.00000e+00	0.00000e+00	0.00000e+00	0.00000e+00	0.00000e+00	0.00000e+00	0.00000e+00	0.00000e+00	0.00000e+00	0.00000e+00	0.00000e+00	0.00000e+00	0.00000e+00	0.00000e+00	0.00000e+00	0.00000e+00	0.00000e+00	0.00000e+00	0.00000e+00	0.00000e+00	0.00000e+00	0.00000e+00	0.00000e+00	0.00000e+00	0.00000e+00	0.00000e+00	0.00000e+00	0.00000e+00	0.00000e+00	0.00000e+00	0.00000e+00	0.00000e+00	0.00000e+00	0.00000e+00	0.00000e+00	0.00000e+00	
Factor	1.00000e+00	1.00000e+00	1.00000e+00	1.00000e+00	1.00000e+00	1.00000e+00	1.00000e+00	1.00000e+00	1.00000e+00	1.00000e+00	1.00000e+00	1.00000e+00	1.00000e+00	1.00000e+00	1.00000e+00	1.00000e+00	1.00000e+00	1.00000e+00	1.00000e+00	1.00000e+00	1.00000e+00	1.00000e+00	1.00000e+00	1.00000e+00	1.00000e+00	1.00000e+00	1.00000e+00	1.00000e+00	1.00000e+00	1.00000e+00	1.00000e+00	1.00000e+00	X	X	X	X	X	X	X	X	X	X	X	X	X	X	X	X	

B = Detector Channel
Val Type	B-AC1	B-AC2	B-AC3	B-AC4	B-AC5	B-AC6	B-AC7	B-AC8	B-AC9	B-AC10	B-AC11	B-AC12	B-AC13	B-AC14	B-AC15	B-AC16	B-DC1	B-DC2	B-DC3	B-DC4	B-DC5	B-DC6	B-DC7	B-DC8	B-DC9	B-DC10	B-DC11	B-DC12	B-DC13	B-DC14	B-DC15	B-DC16	B-Ph1	B-Ph2	B-Ph3	B-Ph4	B-Ph5	B-Ph6	B-Ph7	B-Ph8	B-Ph9	B-Ph10	B-Ph11	B-Ph12	B-Ph13	B-Ph14	B-Ph15	B-Ph16	

Term	0.00000e+00	0.00000e+00	0.00000e+00	0.00000e+00	0.00000e+00	0.00000e+00	0.00000e+00	0.00000e+00	0.00000e+00	0.00000e+00	0.00000e+00	0.00000e+00	0.00000e+00	0.00000e+00	0.00000e+00	0.00000e+00	0.00000e+00	0.00000e+00	0.00000e+00	0.00000e+00	0.00000e+00	0.00000e+00	0.00000e+00	0.00000e+00	0.00000e+00	0.00000e+00	0.00000e+00	0.00000e+00	0.00000e+00	0.00000e+00	0.00000e+00	0.00000e+00	-1.96768e+02	-1.29699e+02	-1.34807e+02	-1.86339e+02	-7.54990e+01	-7.41266e+01	-1.58506e+02	-1.62015e+02	-8.93850e+01	-6.60437e+01	-1.71896e+02	-1.71132e+02	-1.83122e+02	-1.77420e+02	-7.77319e+01	-1.49721e+02	
Factor	4.32825e-05	1.44022e-04	4.41656e-05	2.97642e-01	1.53383e-06	1.64817e-06	1.64269e-01	5.16134e-02	1.72359e-06	1.70877e-06	8.37101e-02	2.83187e-02	3.98013e-02	9.20130e-03	1.82911e-06	1.31369e-02	6.94130e-06	8.10315e-06	2.27153e-06	1.56454e-01	8.77933e-08	8.93870e-08	8.17851e-02	2.74120e-02	8.57484e-08	8.94539e-08	4.31033e-02	1.45842e-02	2.12693e-02	4.93711e-03	8.74364e-08	6.82897e-03	X	X	X	X	X	X	X	X	X	X	X	X	X	X	X	X	



#DISTANCE SETTINGS
A = Detector Channel
A-1	A-2	A-3	A-4	A-5	A-6	A-7	A-8	A-9	A-10	A-11	A-12	A-13	A-14	A-15	A-16	

2.5000e+00	3.0000e+00	2.5000e+00	3.0000e+00	2.0000e+00	3.0000e+00	1.5000e+00	3.0000e+00	3.0000e+00	3.0000e+00	3.0000e+00	3.0000e+00	3.0000e+00	3.0000e+00	1.5000e+00	3.0000e+00	

B = Detector Channel
B-1	B-2	B-3	B-4	B-5	B-6	B-7	B-8	B-9	B-10	B-11	B-12	B-13	B-14	B-15	B-16	

1.0000e+01	1.0000e+01	1.0000e+01	1.4400e+00	1.0000e+01	1.0000e+01	1.5100e+00	1.9400e+00	1.0000e+01	1.0000e+01	1.9900e+00	2.4900e+00	2.4100e+00	2.9000e+00	1.0000e+01	2.9800e+00	




#DATA BEGINS
time	group	step	mark	flag	A-AC1	A-AC2	A-AC3	A-AC4	A-AC5	A-AC6	A-AC7	A-AC8	A-AC9	A-AC10	A-AC11	A-AC12	A-AC13	A-AC14	A-AC15	A-AC16	A-DC1	A-DC2	A-DC3	A-DC4	A-DC5	A-DC6	A-DC7	A-DC8	A-DC9	A-DC10	A-DC11	A-DC12	A-DC13	A-DC14	A-DC15	A-DC16	A-Ph1	A-Ph2	A-Ph3	A-Ph4	A-Ph5	A-Ph6	A-Ph7	A-Ph8	A-Ph9	A-Ph10	A-Ph11	A-Ph12	A-Ph13	A-Ph14	A-Ph15	A-Ph16	B-AC1	B-AC2	B-AC3	B-AC4	B-AC5	B-AC6	B-AC7	B-AC8	B-AC9	B-AC10	B-AC11	B-AC12	B-AC13	B-AC14	B-AC15	B-AC16	B-DC1	B-DC2	B-DC3	B-DC4	B-DC5	B-DC6	B-DC7	B-DC8	B-DC9	B-DC10	B-DC11	B-DC12	B-DC13	B-DC14	B-DC15	B-DC16	B-Ph1	B-Ph2	B-Ph3	B-Ph4	B-Ph5	B-Ph6	B-Ph7	B-Ph8	B-Ph9	B-Ph10	B-Ph11	B-Ph12	B-Ph13	B-Ph14	B-Ph15	B-Ph16	aux-1	digaux	

21714.836	1	1	0	256	0.17074	0.18855	0.21784	0.11181	0.077857	0.23559	0.24482	0.20482	0.26046	0.053581	0.19057	0.17807	0.31738	0.12633	0.28196	0.0052957	-2.4	-2.0062	-2.6417	-2.5542	-1.9146	-2.9854	-2.3625	-2.2854	-2.7188	-1.85	-2.5438	-2.5563	-1.9208	-2.8083	-2.2479	-2.1375	189.187	110.870	26.757	-17.332	-65.506	108.209	162.145	-112.087	65.814	-105.926	128.289	65.280	-30.171	-78.610	97.753	154.752	0.0001715	0.0001917	0.00029986	1056.9	1.4921e-05	5.216e-06	965.09	259.01	1.2518e-05	8.953e-06	262.88	75.053	77.156	17.778	4.7213e-06	18.085	0.004996	0.0058287	0.001621	1142.1	6.3119e-05	6.3828e-05	1001.3	273.25	6.0871e-05	6.3514e-05	287.22	84.111	90.323	20.903	6.1538e-05	22.61	175.439	22.814	-50.967	-102.941	148.089	71.856	-104.081	-98.180	3.304	41.509	-99.914	-96.383	-94.600	-89.857	-51.276	-91.637	-8191	255	
21714.932	1	1	0	0	0.10722	0.30753	0.19132	0.29104	0.20284	0.012869	0.32743	0.14067	0.13913	0.15956	0.16636	0.19435	0.2218	0.17951	0.2779	0.27459	-2.4271	-2.1167	-2.5333	-2.6125	-2.1125	-2.8521	-2.3208	-2.2313	-2.9479	-2.2	-2.5458	-2.8167	-1.9188	-2.7	-2.3812	-2.0521	193.775	228.395	-28.497	201.645	15.804	182.243	152.038	201.443	-72.499	80.920	-64.957	162.973	237.306	234.969	-112.176	-88.638	0.00039045	0.00031768	0.00014946	1063.3	1.1929e-05	2.4199e-06	964.79	259.08	9.339e-06	1.548e-05	263.41	74.849	76.92	17.791	7.114e-06	17.972	0.004932	0.0057014	0.0016031	1144.2	6.1635e-05	6.2447e-05	1001.6	273.33	6.0158e-05	6.2771e-05	288.11	83.944	90.353	20.894	6.1981e-05	22.59	134.399	47.300	-17.922	-103.406	156.345	-21.491	-104.026	-98.367	-32.318	27.129	-99.845	-96.368	-94.616	-89.473	62.502	-92.203	-8191	255	
21715.027	1	1	0	0	0.15409	0.1542	0.098048	0.10132	0.16681	0.01323	0.20794	0.31324	0.1019	0.42715	0.20294	0.237	0.40175	0.11105	0.16093	0.094549	-2.3438	-2.1021	-2.3146	-2.5917	-1.8333	-2.6	-2.7062	-1.9729	-2.6583	-2.15	-2.2604	-2.7521	-2.05	-2.6333	-2.4396	-2.0625	13.092	209.956	188.709	175.767	-86.385	92.038	236.849	215.888	116.609	6.624	-113.955	189.170	-116.336	7.147	67.896	-94.538	0.00017197	0.00043173	1.7086e-05	1063.6	3.4055e-06	6.725e-06	961.03	259.15	4.3e-06	7.0443e-06	263.17	74.894	75.904	17.546	8.3265e-06	17.97	0.0049575	0.0057974	0.0016226	1147.5	6.3227e-05	6.4177e-05	1000.9	272.82	6.2374e-05	6.4714e-05	287.81	84.283	90.463	20.898	6.5171e-05	22.759	198.968	-15.515	-104.229	-103.080	60.631	133.604	-103.862	-98.383	25.916	5.822	-99.957	-96.139	-94.842	-89.472	51.359	-91.731	-8191	255	
21715.148	1	1	0	0	0.18565	0.24159	0.1495	0.08744	0.076111	0.072388	0.21178	0.1515	0.32172	0.19117	0.066094	0.17743	0.082427	0.070823	0.27634	0.24968	-2.475	-1.8792	-2.1125	-2.8354	-1.95	-2.4437	-2.6688	-2.0938	-2.8125	-2.2333	-2.1708	-2.7	-2.1833	-2.4125	-2.6625	-2.0208	-108.722	-53.428	-81.947	222.619	233.342	217.783	143.327	146.573	-112.408	116.202	232.705	-53.487	155.280	-54.318	18.424	110.520	0.00034422	0.00019268	7.6923e-05	1060	9.5256e-06	1.1425e-05	959.19	256.29	4.0447e-06	1.4757e-05	262.53	75.262	76.919	17.686	1.119e-05	17.97	0.0051706	0.0059565	0.0016817	1148	6.4291e-05	6.52e-05	1001.3	271.88	6.234e-05	6.5158e-05	288.15	84.714	90.668	20.857	6.4008e-05	22.736	-21.109	24.934	-82.081	-102.968	-66.884	-35.134	-104.188	-98.549	33.637	-1.934	-100.054	-95.696	-94.581	-89.487	25.638	-91.496	-8191	255	
21715.244	1	1	0	0	0.26272	0.20278	0.23389	0.36756	0.33702	0.075095	0.38132	0.23877	0.13913	0.090818	0.18086	0.21594	0.17389	0.13422	0.1268	0.043899	-2.2521	-2.1917	-1.9667	-3.0417	-1.9875	-2.2646	-2.725	-1.9958	-2.5917	-2.2208	-2.1292	-2.8042	-1.9896	-2.6271	-2.6312	-2.1354	-110.838	86.265	-39.099	239.595	58.896	102.870	218.379	-96.779	170.592	192.681	107.740	234.909	-49.275	177.369	-8.101	190.268	0.00032314	0.00037055	0.00014456	1057.4	5.4586e-06	2.2916e-06	956.98	257.65	9.062e-06	1.3592e-05	262.81	75.982	77.618	17.611	6.982e-06	17.955	0.0051483	0.0059942	0.0016765	1149.5	6.4799e-05	6.6418e-05	1001.6	272.88	6.408e-05	6.613e-05	289.17	85.207	91.39	21.029	6.5533e-05	22.916	124.836	4.114	171.623	-103.015	171.691	164.941	-104.037	-98.299	-55.659	34.564	-99.796	-96.660	-94.512	-89.606	-49.394	-91.817	-8191	255	
21715.340	1	1	0	0	0.15955	0.34119	0.12041	0.092918	0.081438	0.070776	0.36227	0.29608	0.039115	0.20803	0.087222	0.15922	0.3026	0.31022	0.28851	0.19442	-2.4542	-2.5583	-2.1083	-2.8542	-2.0646	-2.3625	-2.8146	-2.1167	-2.6771	-2.5771	-2.0583	-2.8271	-2.05	-2.2854	-2.7729	-2.1	119.121	-16.596	209.147	-65.411	176.867	100.175	180.182	-115.358	121.317	159.964	126.474	-79.076	-66.729	239.650	-44.405	77.415	0.00022309	0.00079137	0.00014101	1058.6	7.8234e-06	2.4661e-06	959.71	257.32	3.5781e-06	1.6476e-07	261.06	75.477	77.078	17.542	1.1445e-05	18.042	0.0051847	0.0060708	0.001712	1150.6	6.6365e-05	6.7785e-05	1005	273.57	6.5021e-05	6.8542e-05	289.75	85.641	91.871	21.08	6.6804e-05	22.949	98.877	-73.073	42.860	-102.915	57.287	-106.080	-103.952	-98.328	-87.563	156.161	-99.611	-96.616	-94.587	-89.311	50.897	-91.631	-8191	255	
21715.436	1	1	0	0	0.14744	0.24193	0.084204	0.14743	0.17468	0.24882	0.2228	0.14732	0.28742	0.1369	0.15919	0.2113	0.33123	0.2933	0.048743	0.21329	-2.0958	-2.7146	-2.1188	-2.9396	-2.2	-2.0917	-2.8187	-2.2542	-2.4646	-2.5417	-2.0604	-2.7333	-2.5354	-2.0542	-2.8021	-2.1104	165.080	-101.616	200.978	85.648	152.781	196.085	197.465	-99.348	-34.522	165.750	-42.873	200.091	231.482	241.052	67.321	43.256	0.00037024	0.0012643	6.9482e-05	1064.4	9.5939e-06	7.6012e-06	965.67	257.37	1.0509e-05	5.5935e-06	264.79	75.883	77.384	17.639	1.3267e-05	18.129	0.0053316	0.0061954	0.0017385	1154.1	6.6509e-05	6.8115e-05	1010.3	273.94	6.5083e-05	6.8748e-05	292.08	85.834	92.488	21.203	6.7944e-05	23.164	120.568	-14.593	-10.655	-103.100	55.603	67.366	-103.792	-98.443	-45.870	23.866	-99.685	-96.114	-94.815	-89.492	89.463	-92.018	-8191	255	
21715.531	1	1	0	0	0.15234	0.04231	0.10982	0.18893	0.11561	0.17421	0.055858	0.07997	0.094087	0.26703	0.069753	0.074605	0.17239	0.17922	0.2191	0.14439	-2.1417	-2.6625	-1.9292	-2.6833	-2.4125	-2.1375	-3.1292	-2.2687	-2.2333	-2.7438	-2.0792	-2.7313	-2.3417	-1.9125	-2.8688	-2.1333	173.997	-41.497	38.282	189.550	-67.940	-104.488	200.386	214.719	154.097	100.324	118.622	28.299	-59.462	6.409	69.828	174.079	0.0004575	0.00028707	0.00014147	1055.9	1.061e-05	5.9821e-06	968.01	258.38	1.0529e-05	1.6727e-05	265.08	76.134	77.866	17.692	7.3234e-06	18.349	0.0054083	0.0063773	0.0017842	1156.5	6.8771e-05	7.0426e-05	1013	274.55	6.664e-05	6.9327e-05	292.61	86.189	92.318	21.254	6.7457e-05	23.202	112.845	37.417	223.204	-102.877	-34.243	143.594	-103.395	-98.285	-11.485	77.539	-99.773	-96.345	-94.910	-89.231	23.156	-92.349	-8191	255	
21715.629	1	1	0	0	0.16234	0.1144	0.056553	0.12123	0.22706	0.10558	0.2164	0.36894	0.076766	0.090586	0.21183	0.34166	0.084347	0.056591	0.088205	0.1224	-1.625	-2.6396	-2.0021	-2.6146	-2.4021	-2.05	-3.0187	-2.1979	-2.2396	-2.8438	-1.9583	-2.5271	-2.5333	-2.1375	-2.6667	-2.2542	55.820	82.903	-7.984	-65.536	185.045	71.133	217.740	-95.112	-26.101	235.806	156.065	149.034	183.869	55.153	16.094	129.311	0.00022922	0.0008724	0.00012074	1062	6.6806e-06	5.7708e-06	972.81	259.73	1.5279e-05	1.9045e-05	265.32	76.459	77.494	17.809	4.6544e-06	18.365	0.0054119	0.0061877	0.0017337	1156.2	6.703e-05	6.9389e-05	1016.1	275.29	6.6034e-05	6.8392e-05	293.45	86.604	92.585	21.302	6.6265e-05	23.247	99.178	-15.130	231.351	-102.838	-19.960	5.889	-103.681	-98.508	-21.877	-40.800	-99.940	-96.288	-95.090	-89.251	-71.745	-91.770	-8191	255	
21715.746	1	1	0	0	0.11289	0.1425	0.22874	0.19798	0.16969	0.21752	0.38111	0.09548	0.12073	0.11331	0.11116	0.11549	0.091706	0.14655	0.19284	0.27533	-1.4646	-2.7125	-2.0771	-2.4542	-2.5021	-1.975	-3.1021	-2.3771	-1.9792	-2.6896	-2.1188	-2.3458	-2.8104	-1.8854	-2.6375	-2.4604	111.438	10.239	79.703	208.618	92.668	159.841	235.338	174.190	-83.976	-21.026	-55.009	-82.906	-39.962	142.156	207.660	78.887	0.00028274	0.00078405	0.00031401	1068.7	8.0671e-06	8.8753e-06	973.99	260.57	1.4188e-05	6.7575e-06	269.56	77.681	78.654	17.954	3.6089e-06	18.37	0.0053334	0.0061773	0.0017207	1164	6.694e-05	6.9128e-05	1017.1	276.37	6.6872e-05	6.9141e-05	295.5	87.339	93.388	21.404	6.7378e-05	23.31	62.823	215.777	-19.320	-102.570	23.719	84.465	-103.695	-98.532	32.743	56.422	-100.511	-96.833	-95.165	-90.323	-75.830	-92.609	-8191	255	
21715.844	1	1	0	0	0.17769	0.13801	0.32742	0.26521	0.12633	0.13201	0.10742	0.18075	0.13589	0.19078	0.15772	0.014407	0.15572	0.065815	0.18114	0.077347	-1.6938	-2.9313	-2.0875	-2.4604	-2.6542	-2.075	-2.6646	-2.5917	-1.875	-2.7292	-2.3146	-2.3083	-2.8063	-1.8438	-2.5625	-2.6937	-61.259	67.286	43.445	165.242	121.528	187.613	214.254	194.147	-113.132	177.834	-95.332	-27.182	3.447	81.003	208.266	84.440	0.00049633	0.0010183	0.00011305	1073.5	9.0961e-06	1.4313e-05	977.44	262.28	9.3504e-06	6.4337e-06	267.61	77.562	78.549	17.78	5.4455e-06	18.535	0.0054015	0.006217	0.0017406	1165.2	6.7834e-05	6.9754e-05	1019.6	277.98	6.7207e-05	6.9636e-05	295.79	87.578	93.733	21.394	6.8832e-05	23.53	151.080	-55.834	139.930	-103.881	-78.362	104.944	-104.263	-99.470	176.258	-30.877	-100.714	-97.411	-95.618	-90.242	32.030	-92.992	-8191	255	
21715.939	1	1	0	0	0.03134	0.063539	0.14125	0.24998	0.23151	0.21225	0.29519	0.19627	0.084077	0.080834	0.29596	0.15579	0.10833	0.17246	0.029742	0.20127	-1.6354	-2.6417	-2.0917	-2.2896	-2.7812	-2.0271	-2.7479	-2.7396	-2.0042	-2.7042	-2.45	-2.0833	-2.8021	-2.0687	-2.5458	-2.6146	175.360	225.565	109.933	-107.280	153.984	-8.965	195.719	-53.639	-85.899	134.252	185.320	190.741	114.063	44.609	-37.358	118.654	0.00017308	0.0014706	0.00031079	1069.8	2.8672e-06	4.4955e-06	979.05	262.9	9.0557e-06	1.375e-05	270.67	78.503	78.511	17.868	5.7242e-06	18.715	0.0054977	0.0063981	0.0017794	1170.2	6.874e-05	7.0182e-05	1023.2	278.35	6.7583e-05	7.0284e-05	298.03	87.954	93.699	21.466	6.9297e-05	23.612	108.116	106.457	223.617	-103.921	99.067	-62.018	-104.798	-99.612	32.506	224.278	-100.874	-97.140	-95.607	-90.323	220.594	-92.933	-8191	255	
21716.012	1	1	0	0	0.15585	0.093937	0.073795	0.02071	0.13532	0.077485	0.27535	0.27222	0.17707	0.026423	0.13358	0.11007	0.27537	0.29177	0.2292	0.16429	-1.7	-2.5771	-2.45	-2.1937	-2.825	-2.0708	-2.4521	-2.7646	-2.0083	-2.7792	-2.5042	-1.9875	-2.7458	-2.0563	-2.3729	-2.7583	-82.298	-55.220	103.377	164.620	180.993	136.378	110.413	133.948	112.734	51.248	237.948	203.492	170.626	135.206	38.971	-96.436	0.00024124	0.00039464	0.00031681	1079.1	4.039e-06	7.7198e-06	985.42	261.53	8.4932e-06	4.7189e-06	270.32	78.076	78.767	17.814	7.733e-06	18.642	0.0054915	0.0063413	0.0017729	1171.1	6.8865e-05	6.956e-05	1025.8	278.08	6.7442e-05	6.9975e-05	297.5	87.695	93.512	21.433	6.8387e-05	23.599	157.371	125.193	-74.766	-103.716	-68.132	130.642	-104.846	-99.690	142.452	171.958	-101.004	-97.380	-95.722	-90.674	142.952	-92.991	-8191	255	
21716.133	1	1	0	0	0.16238	0.16482	0.16772	0.24311	0.42522	0.085771	0.10039	0.097358	0.14424	0.19842	0.035018	0.1361	0.031836	0.023972	0.078173	0.070041	-1.65	-2.6375	-2.4521	-2.2271	-2.8083	-2.1854	-2.2604	-2.6625	-1.8583	-2.5312	-2.6333	-1.9042	-2.8396	-2.2938	-2.2167	-2.8229	213.131	238.708	191.459	196.777	108.598	208.305	111.087	174.864	184.669	-75.007	94.798	53.924	48.069	30.361	-110.731	127.617	0.00014249	0.00083627	0.00015466	1079.6	7.8397e-06	3.7447e-06	979.6	262.21	8.9758e-06	9.9634e-06	270.02	77.603	78.464	17.824	6.1445e-06	18.624	0.0054255	0.0063095	0.0017867	1170.5	6.8311e-05	6.9782e-05	1024.4	278.56	6.7371e-05	6.9936e-05	297.41	87.697	93.533	21.409	6.946e-05	23.658	92.912	-2.266	29.928	-103.972	210.425	123.710	-104.851	-99.217	124.200	-36.880	-101.224	-97.094	-95.398	-90.324	98.194	-93.028	-8191	255	
21716.229	1	1	0	0	0.10225	0.091835	0.078335	0.10905	0.12511	0.18318	0.18525	0.26933	0.13765	0.1028	0.028625	0.31359	0.18224	0.051375	0.090427	0.22985	-1.8062	-2.4562	-2.6583	-1.9917	-2.6646	-2.2625	-2.1854	-2.8812	-1.8687	-2.4667	-2.6771	-1.8729	-2.6646	-2.3917	-2.1604	-2.7396	-20.530	78.991	9.840	218.377	118.192	138.847	187.465	208.816	-116.166	157.549	127.931	114.619	142.429	46.683	-48.431	40.999	0.00030885	0.00074251	0.00019918	1079	1.0875e-05	5.9735e-06	980.6	262.36	1.326e-05	1.0637e-05	269.94	77.816	78.598	18.02	1.7897e-05	18.509	0.005515	0.0064557	0.0018097	1175.9	6.9782e-05	7.0709e-05	1026.4	279.01	6.8252e-05	7.2022e-05	298.32	87.946	93.875	21.591	7.0937e-05	23.719	123.731	-20.933	-36.398	-103.746	-5.793	41.769	-104.621	-99.473	-115.670	106.951	-100.830	-97.252	-95.332	-91.107	-15.427	-93.034	-8191	255	
21716.324	1	1	0	0	0.11783	0.17726	0.14167	0.45829	0.053949	0.3812	0.3245	0.20264	0.18809	0.22784	0.12057	0.098701	0.12448	0.28019	0.02337	0.29276	-1.7333	-2.2896	-2.6021	-1.9208	-2.6604	-2.4604	-2.25	-3.0042	-2.3354	-2.275	-2.9271	-2.0875	-2.7562	-2.6583	-1.9604	-2.9042	234.592	-51.987	98.178	171.929	-40.665	133.701	114.146	231.712	-113.541	42.751	241.213	61.240	237.460	135.377	110.963	141.067	0.00034628	0.00069343	0.0004426	1073.5	3.0345e-06	3.8552e-06	979.83	261.72	5.3853e-06	1.1605e-05	269.18	77.508	78.143	17.865	7.09e-06	18.569	0.0056197	0.0066042	0.0018598	1174.6	7.0489e-05	7.2901e-05	1026.9	279.2	7.0159e-05	7.3192e-05	298.88	87.833	93.891	21.646	7.1936e-05	23.914	-103.169	128.114	-14.561	-103.991	136.114	13.589	-104.640	-99.179	142.924	-56.690	-101.130	-97.497	-95.602	-90.442	124.923	-92.935	-8191	255	
21716.420	1	1	0	0	0.32081	0.35679	0.11799	0.12225	0.16647	0.10708	0.21054	0.22425	0.19431	0.079559	0.056668	0.029898	0.2056	0.21201	0.055257	0.12248	-1.9083	-2.2438	-2.8854	-2.2687	-2.5375	-2.6646	-2.3271	-2.9146	-2.3854	-2.0917	-2.7833	-2.1271	-2.6208	-2.7375	-1.9375	-2.9021	201.951	-8.441	-21.486	207.510	-53.739	180.707	191.060	234.003	175.744	-0.577	62.076	205.767	213.338	204.645	190.012	234.689	0.00032377	0.0015178	0.000276	1077.8	8.575e-06	7.7551e-06	978.8	261.99	2.0223e-05	1.4874e-05	270.52	77.22	78.391	18.07	1.2761e-05	18.524	0.005692	0.0067213	0.0018814	1175	7.1666e-05	7.389e-05	1026.4	278.69	7.0157e-05	7.3889e-05	299.2	88.089	94.243	21.693	7.2108e-05	23.764	199.182	-58.390	101.613	-103.925	6.443	204.197	-104.344	-98.951	-13.719	27.990	-100.800	-97.043	-95.383	-90.488	120.602	-92.599	-8191	255	
21716.539	1	1	0	0	0.020086	0.17072	0.094959	0.33339	0.17658	0.19998	0.3853	0.16696	0.27928	0.032757	0.10291	0.23072	0.19633	0.13915	0.15779	0.10195	-1.9521	-2.1396	-2.75	-2.2708	-2.4042	-2.7417	-2.225	-2.9917	-2.5812	-1.9479	-2.8312	-2.275	-2.5458	-2.6937	-1.9542	-2.6292	-59.497	130.249	159.725	166.304	-35.877	-20.832	179.270	190.375	41.393	35.406	-71.290	159.040	-53.103	-107.877	142.545	-61.350	7.2765e-05	0.0011097	0.00012699	1079.2	4.2945e-06	8.0662e-06	977.37	262.36	3.7781e-06	6.0585e-06	270.48	77.681	78.507	17.759	1.2649e-05	18.627	0.0057731	0.0066789	0.0018697	1173.7	7.2294e-05	7.4029e-05	1024	278.99	7.054e-05	7.3861e-05	299.3	87.985	94.475	21.643	7.1974e-05	23.834	-103.859	-49.739	-107.418	-103.950	82.017	-47.491	-104.383	-98.797	57.675	160.086	-100.306	-97.051	-95.413	-90.380	67.484	-92.819	-8191	255	
21716.635	1	1	0	0	0.29385	0.17506	0.096412	0.14127	0.29398	0.19034	0.17418	0.29742	0.086631	0.1335	0.30651	0.28841	0.1499	0.21298	0.16533	0.18012	-2.2625	-2.2542	-2.8333	-2.2313	-2.0938	-2.8375	-2.15	-2.7458	-2.4688	-1.9979	-2.9271	-2.0917	-2.3125	-2.7562	-1.9542	-2.4771	-102.378	161.438	-26.354	169.905	-87.738	191.342	153.250	68.248	216.215	188.505	140.949	142.092	169.295	168.768	189.616	202.953	0.00038264	0.00033471	7.9585e-05	1079.6	6.333e-06	3.9403e-06	983.76	262.79	1.1573e-06	1.1602e-05	270.06	77.991	79.744	17.86	1.1961e-05	18.661	0.0057826	0.0067453	0.0018749	1175.8	7.3195e-05	7.4872e-05	1026.6	280.39	7.1941e-05	7.4569e-05	300.23	88.153	94.998	21.698	7.2593e-05	23.919	135.103	63.455	-49.464	-103.625	-46.175	-60.564	-104.366	-99.178	17.272	128.590	-100.232	-96.598	-95.060	-90.417	41.539	-92.561	-8191	255	
21716.709	1	1	0	0	0.11037	0.13563	0.062097	0.18306	0.36628	0.14212	0.4134	0.10208	0.13072	0.13487	0.17	0.15531	0.070197	0.28213	0.15558	0.34877	-2.1667	-1.9979	-2.8104	-2.5167	-2.3187	-2.7917	-2.1833	-2.6188	-2.7875	-2.175	-2.875	-2.4083	-2.0833	-2.7625	-2.0896	-2.4708	139.140	231.410	106.345	62.960	223.887	138.397	191.943	223.621	82.760	-48.474	153.090	107.047	-83.031	-8.733	-27.312	229.260	0.00033227	0.00084664	0.00013493	1070.6	8.7242e-06	5.6794e-06	974.22	262.02	1.1071e-05	2.4968e-06	271.47	78.094	79.233	17.947	1.7233e-05	18.722	0.0058391	0.0067804	0.0018679	1175.1	7.4102e-05	7.4631e-05	1026.8	280.97	7.2067e-05	7.531e-05	300.79	88.542	95.152	21.738	7.3191e-05	24.018	171.931	-115.839	85.109	-103.487	-84.056	-116.403	-104.159	-98.833	22.676	44.309	-100.015	-96.757	-94.809	-90.154	-64.674	-92.128	-8191	255	
21716.828	1	1	0	0	0.16414	0.16699	0.080063	0.068036	0.15567	0.055524	0.21092	0.24237	0.24323	0.1794	0.28608	0.15512	0.14668	0.13785	0.12664	0.23316	-2.3729	-2.0104	-2.6271	-2.5521	-1.9167	-2.9375	-2.275	-2.3833	-2.6937	-1.9833	-2.7479	-2.5333	-2.0396	-2.8479	-2.2875	-2.1167	50.889	-108.961	-71.912	-35.892	242.210	-20.870	169.103	107.422	90.252	86.531	-76.392	186.563	204.201	154.864	-45.261	126.998	0.0004825	0.00042605	8.7574e-05	1083.6	1.3258e-05	8.382e-06	983.88	264.86	6.9191e-06	1.1239e-05	271.4	77.81	79.068	18.036	1.2832e-05	18.64	0.0058492	0.0068007	0.0019106	1180	7.4569e-05	7.5021e-05	1031.1	281.55	7.1994e-05	7.5028e-05	301.73	88.88	95.058	21.798	7.2861e-05	24.006	138.966	-17.236	-101.094	-102.952	-93.899	-26.007	-104.098	-98.885	115.950	189.010	-100.371	-96.584	-94.904	-90.153	-87.755	-92.514	-8191	255	
21716.924	1	1	0	0	0.1137	0.17976	0.15873	0.17621	0.15841	0.074605	0.23948	0.086891	0.1323	0.1351	0.20066	0.21433	0.071401	0.06719	0.26977	0.076527	-2.4625	-1.9937	-2.5312	-2.5917	-1.8937	-2.8063	-2.4625	-2.1854	-2.8063	-2.0833	-2.4667	-2.475	-1.9688	-2.6312	-2.1417	-2.1063	198.663	116.517	120.550	6.623	-21.864	-91.403	141.481	178.980	-110.633	94.229	-114.191	200.225	-104.795	165.683	220.273	83.904	0.00026479	0.00087411	0.00012711	1076.8	5.7851e-06	5.5118e-06	980.95	263.63	5.7793e-06	1.1108e-05	271.99	77.489	78.643	17.908	8.8113e-06	18.739	0.0058371	0.0067361	0.0018702	1177.9	7.3013e-05	7.3334e-05	1028.8	281.07	7.1043e-05	7.3435e-05	301.3	88.301	94.859	21.658	7.1512e-05	23.937	143.799	-21.472	36.234	-103.519	95.704	-63.321	-104.455	-99.185	-23.418	61.367	-100.607	-96.527	-94.962	-89.759	72.988	-92.018	-8191	255	
21717.020	1	1	0	0	0.17625	0.3739	0.24156	0.11346	0.13571	0.30661	0.26326	0.23273	0.24666	0.20251	0.060055	0.13601	0.086859	0.15176	0.11435	0.009522	-2.4417	-2.0021	-2.4562	-2.8187	-1.9208	-2.7	-2.4354	-2.1292	-2.8396	-2.0062	-2.4313	-2.7062	-1.9312	-2.6771	-2.3229	-2.2083	95.322	-44.485	146.441	-13.403	133.329	-9.488	-85.804	177.969	-49.072	-107.334	82.295	-85.817	241.187	155.295	174.782	-59.992	0.00030767	9.0594e-05	0.00018237	1074.6	6.3615e-06	9.6399e-06	984.78	262.98	7.7656e-06	2.0351e-06	271.29	77.529	78.638	18.01	1.9752e-05	18.597	0.0057616	0.0066579	0.0018784	1179.5	7.2135e-05	7.2809e-05	1030.2	280.06	7.0788e-05	7.2965e-05	299.97	88.174	94.618	21.734	7.3051e-05	23.912	79.457	77.662	119.902	-103.276	-6.820	-73.787	-104.269	-98.722	-88.356	-82.950	-100.122	-96.737	-95.182	-90.068	81.334	-92.645	-8191	255	
21717.115	1	1	0	0	0.25468	0.22435	0.14016	0.26188	0.074182	0.28261	0.28298	0.25686	0.16938	0.34767	0.082971	0.25749	0.1096	0.075307	0.26056	0.13121	-2.35	-2.2229	-2.4208	-2.8375	-1.8646	-2.6625	-2.6646	-2.2313	-2.8417	-1.9896	-2.3438	-2.5979	-2.0792	-2.5229	-2.4958	-2.0792	213.065	-30.064	158.987	200.782	-32.639	-48.421	146.275	-100.120	-105.495	35.405	66.695	-6.629	178.463	155.888	21.954	172.813	0.00032123	0.0011089	0.00015636	1075.8	8.4463e-06	1.0468e-05	979.86	261.18	1.1794e-05	6.0201e-06	269.46	77.542	78.655	17.868	1.7022e-05	18.336	0.0057952	0.0067403	0.001904	1178.9	7.3187e-05	7.4372e-05	1030	279.41	7.2184e-05	7.474e-05	300.68	88.318	94.703	21.752	7.5629e-05	24.078	120.206	-76.315	190.622	-103.548	-47.695	-26.994	-104.424	-98.828	-66.660	-1.609	-100.409	-97.158	-94.896	-89.999	-12.921	-92.349	-8191	255	
21717.236	1	1	0	0	0.16231	0.20635	0.2449	0.21325	0.17703	0.1345	0.1933	0.1969	0.16584	0.15541	0.23873	0.12247	0.13291	0.087967	0.14354	0.11827	-2.5375	-2.3354	-2.2875	-2.9083	-2.0667	-2.5854	-2.6896	-2.1063	-2.8063	-2.375	-2.2292	-3.0292	-1.9021	-2.4729	-2.55	-1.9875	204.644	10.469	-43.876	77.420	-33.511	112.365	165.444	203.598	31.874	64.955	-84.479	13.247	-94.570	119.902	124.417	174.920	0.00046448	0.00090558	0.00021361	1077.9	8.9732e-06	2.0611e-05	976.89	261.93	8.5396e-06	4.3799e-06	271.81	77.049	78.216	17.87	1.6097e-05	18.534	0.0060186	0.0070174	0.0019956	1182	7.6161e-05	7.7913e-05	1029.1	279.86	7.4844e-05	7.8088e-05	301.74	88.227	94.803	21.93	7.7334e-05	24.15	198.367	-50.609	-52.159	-103.542	-65.817	197.266	-104.463	-98.522	61.273	-113.051	-99.886	-96.555	-94.891	-89.145	-2.332	-91.868	-8191	255	
21717.309	1	1	0	0	0.071688	0.26212	0.064442	0.17393	0.14261	0.24752	0.1355	0.12503	0.14773	0.049758	0.13574	0.22108	0.32527	0.11968	0.34238	0.051799	-2.2875	-2.3125	-2.0896	-2.9229	-1.9167	-2.2687	-2.7958	-2.0792	-2.5083	-2.5125	-2.0187	-2.85	-2.1562	-2.4479	-2.6771	-1.9146	214.639	-82.102	215.156	217.545	-56.286	-20.071	-113.707	-91.836	152.955	-61.365	173.512	131.454	173.046	-35.933	-40.555	-90.625	0.00031633	0.00031014	0.00023575	1063.5	9.1773e-06	6.7198e-06	980.9	262.06	4.1883e-06	2.8886e-06	267.81	76.615	78.059	17.983	6.1864e-06	18.45	0.0060969	0.0071441	0.0020086	1176.2	7.6683e-05	7.8632e-05	1029.2	279.92	7.4674e-05	7.8475e-05	300.92	88.128	94.617	21.785	7.5984e-05	23.952	224.064	179.795	-11.336	-103.622	152.570	-20.894	-104.278	-98.954	194.388	172.163	-100.178	-96.784	-95.559	-89.950	2.634	-92.239	-8191	255	
21717.430	1	1	0	0	0.21143	0.21039	0.26948	0.28756	0.084051	0.11573	0.25223	0.36369	0.20235	0.020163	0.17364	0.091125	0.065329	0.27196	0.25883	0.1989	-2.2875	-2.4896	-2.0229	-2.8688	-2.0792	-2.2562	-2.7542	-2.0854	-2.6333	-2.6104	-2.0042	-2.8604	-2.2542	-2.025	-2.6813	-1.9917	237.147	-51.252	-89.745	-58.466	208.872	121.660	-105.704	-80.163	-69.529	-115.625	141.117	216.375	-13.183	-36.640	101.831	-67.817	0.00033434	0.00022272	0.00020006	1072.4	4.0591e-06	1.0975e-05	975.83	260.68	5.1908e-06	1.0369e-05	266.51	76.529	77.885	17.676	4.7084e-06	18.25	0.0060299	0.0071066	0.0019831	1176.9	7.6318e-05	7.8441e-05	1025.7	279.35	7.4231e-05	7.8388e-05	299.04	87.741	94.594	21.746	7.5558e-05	23.859	112.214	172.641	-113.726	-103.077	12.235	96.406	-103.991	-98.865	7.236	89.402	-100.033	-96.617	-95.566	-89.949	38.120	-92.018	-8191	255	
21717.523	1	1	0	0	0.2139	0.16286	0.049404	0.29688	0.098206	0.042549	0.088891	0.031689	0.2427	0.18764	0.063148	0.24055	0.12595	0.11521	0.25604	0.075231	-2.2271	-2.9062	-1.9375	-2.7833	-2.2917	-2.2	-3.0208	-2.1396	-2.2542	-2.6229	-2.0417	-2.8312	-2.4	-2.0542	-2.8542	-2.1208	-44.148	-71.056	21.903	184.821	108.787	197.817	227.040	115.221	194.006	125.179	-106.875	63.731	227.884	232.004	-37.951	-47.303	0.00027407	5.9938e-05	0.00036181	1074.3	1.0153e-05	1.5216e-05	974.77	261.07	7.0605e-06	9.3328e-06	269.06	76.903	77.314	17.637	1.2082e-05	18.51	0.0060479	0.0069846	0.0019485	1173.1	7.5959e-05	7.8056e-05	1024.3	279.21	7.4075e-05	7.7671e-05	299.62	88.019	94.602	21.743	7.6819e-05	23.984	73.680	-13.830	5.809	-103.443	-90.309	105.954	-104.336	-98.970	181.538	-87.158	-100.183	-96.659	-94.906	-89.207	163.669	-92.536	-8191	255	
21717.619	1	1	0	0	0.21251	0.19979	0.16604	0.20943	0.25445	0.3513	0.24358	0.13942	0.13741	0.18386	0.12219	0.15201	0.096166	0.25449	0.15941	0.086255	-2.0729	-2.6083	-2.0396	-2.6583	-2.275	-2.0896	-3.0458	-2.3063	-2.1104	-2.8417	-2.0917	-2.6375	-2.7021	-2.2125	-2.6063	-2.3125	-49.815	174.732	85.806	234.788	110.815	36.673	215.775	233.516	-86.059	209.150	124.516	-106.019	-74.385	156.749	108.475	-77.456	0.00042426	0.00016976	0.00010364	1077	1.2991e-06	5.1049e-06	971.9	260.38	9.5835e-06	7.3723e-06	269.9	76.228	77.892	17.752	5.2255e-06	18.318	0.0061379	0.0071278	0.0019958	1179.5	7.8054e-05	7.9467e-05	1024.4	279.16	7.7317e-05	8.0353e-05	300.32	88.166	95.173	21.8	7.8206e-05	24.168	124.004	75.005	-32.310	-103.001	-110.643	-45.776	-104.252	-98.648	-32.463	58.934	-100.657	-96.808	-94.832	-89.483	50.682	-92.650	-8191	255	
21717.717	1	1	0	0	0.24855	0.14482	0.28914	0.2099	0.29143	0.17251	0.20988	0.29031	0.14492	0.092695	0.2575	0.39071	0.098881	0.19592	0.058398	0.057506	-1.8917	-2.7958	-1.9208	-2.6083	-2.5833	-2.1208	-2.8958	-2.3125	-2.2188	-2.7875	-2.0833	-2.3396	-2.6312	-2.0104	-2.7875	-2.4792	138.972	165.662	222.978	-49.891	20.454	131.822	160.296	165.156	-26.657	-97.129	200.538	193.769	-50.889	177.564	161.713	229.389	0.00032515	0.00017808	0.00023876	1069.4	4.5968e-06	9.4702e-06	973.34	260.03	7.2111e-06	5.4772e-06	267.14	76.415	78.035	17.609	2.3826e-06	18.075	0.0062994	0.0073238	0.0020448	1179.3	7.9473e-05	8.1229e-05	1022.5	279.32	7.7998e-05	7.9996e-05	299.38	87.873	94.955	21.74	7.8113e-05	23.966	204.487	-12.276	-95.634	-103.308	216.496	39.614	-103.991	-99.006	-24.836	125.368	-100.130	-96.882	-95.201	-89.745	-113.792	-92.674	-8191	255	
21717.836	1	1	0	0	0.065295	0.30744	0.075395	0.26507	0.065507	0.26006	0.17462	0.12228	0.33118	0.11944	0.084454	0.026785	0.24933	0.16198	0.089706	0.29907	-1.7208	-2.8479	-2.05	-2.4583	-2.6104	-1.875	-2.9875	-2.3875	-2.1479	-2.75	-2.2417	-2.1583	-2.5583	-1.9667	-2.7604	-2.625	207.828	137.989	95.462	180.784	-103.175	45.189	-50.724	168.821	-72.558	90.402	-65.474	-5.013	194.306	158.610	7.174	-92.807	0.00023772	0.00066404	0.00012841	1064.4	4.5384e-06	6.9354e-06	963.49	258.51	1.842e-05	8.0963e-06	265.24	75.339	77.063	17.619	6.6611e-06	18.138	0.0062984	0.0072491	0.0020281	1174.1	7.9196e-05	8.0303e-05	1018.5	278.1	7.8165e-05	8.0838e-05	297.96	87.31	94.249	21.722	7.8891e-05	23.957	50.634	85.461	159.539	-103.465	141.462	66.596	-104.135	-98.519	-15.000	103.580	-100.286	-96.760	-95.392	-90.304	57.533	-91.978	-8191	255	
21717.908	1	1	0	0	0.17345	0.061525	0.20817	0.17941	0.33516	0.10613	0.28416	0.23526	0.16077	0.090715	0.035452	0.092794	0.10188	0.21476	0.071098	0.1356	-1.6333	-2.875	-2.2687	-2.3646	-2.8521	-2.1	-2.7479	-2.6063	-2.0646	-2.8396	-2.2729	-2.2438	-2.8146	-2.1625	-2.675	-2.5417	185.930	-107.707	-55.468	-57.702	54.007	-23.595	199.578	190.173	223.427	51.252	-34.266	-88.568	71.957	98.571	215.184	153.453	0.00049774	0.00040432	0.00027293	1058.7	1.5402e-05	1.5174e-05	959.17	258.45	7.6359e-06	8.324e-06	263.31	75.826	77.253	17.651	1.0128e-05	18.141	0.0063095	0.0073003	0.0020465	1172.6	7.9885e-05	8.0723e-05	1014.5	277.05	7.7565e-05	8.0294e-05	296.6	87.078	94.451	21.627	7.8506e-05	23.879	108.975	-94.037	68.283	-102.983	-20.034	2.279	-104.135	-98.828	39.891	120.067	-100.281	-96.718	-95.170	-89.706	222.797	-92.186	-8191	255	
21718.004	1	1	0	0	0.36949	0.12635	0.043332	0.24504	0.11337	0.24572	0.097048	0.3794	0.11746	0.10827	0.1274	0.20065	0.1347	0.06989	0.16542	0.059462	-1.4937	-2.8271	-2.2542	-2.2687	-2.7021	-2.1083	-2.5833	-2.7	-1.9521	-2.7583	-2.3792	-1.9729	-2.8271	-2.075	-2.2729	-2.5771	49.847	-67.326	-39.429	146.572	114.191	200.220	160.634	183.271	41.379	204.867	-92.617	135.064	179.657	-55.820	81.869	-14.407	0.00030685	0.00046144	0.00015813	1055.8	6.8484e-06	8.904e-06	964.16	256.91	5.5417e-06	3.6866e-06	265.61	75.633	77.36	17.584	1.2363e-05	18.165	0.006243	0.0071979	0.0020245	1167.9	7.7984e-05	8.0138e-05	1014.7	277.01	7.6943e-05	8.0553e-05	297.54	87.349	94.241	21.643	7.8323e-05	23.849	113.650	76.803	6.095	-103.550	-15.035	-111.882	-104.669	-99.136	-13.200	-116.529	-100.403	-97.031	-95.452	-90.027	184.900	-92.738	-8191	255	
21718.100	1	1	0	0	0.032934	0.2234	0.37136	0.37019	0.21644	0.26678	0.23574	0.3199	0.1335	0.14617	0.19134	0.068695	0.24113	0.076187	0.10236	0.15723	-1.6792	-2.5167	-2.3563	-2.2896	-2.9562	-1.9833	-2.3583	-2.6521	-1.9375	-2.5458	-2.4625	-2.0146	-2.85	-2.0563	-2.3667	-2.7229	178.924	-110.344	9.398	-51.599	137.152	144.105	167.938	224.143	-100.423	23.477	174.548	229.589	128.316	-56.145	35.417	-30.460	0.0004206	0.0016362	0.00024574	1057.6	4.3534e-06	1.6187e-06	966.42	257.47	1.2608e-05	4.0452e-06	267.27	76.067	77.407	17.695	9.672e-06	18.092	0.0062216	0.0071907	0.0020407	1170.1	7.8829e-05	8.0493e-05	1015.3	277.39	7.7503e-05	8.0492e-05	298.26	87.425	94.268	21.68	7.9001e-05	23.939	104.238	-57.027	155.686	-103.448	-32.773	133.220	-104.385	-98.966	237.801	57.489	-100.356	-96.635	-95.470	-90.181	64.527	-92.417	-8191	255	
21718.221	1	1	0	0	0.10558	0.055942	0.20655	0.34613	0.075319	0.12323	0.19434	0.10134	0.054563	0.23091	0.13526	0.19903	0.15646	0.20389	0.019211	0.081036	-1.5312	-2.5771	-2.5521	-2.1188	-2.9	-2.4104	-2.3479	-2.8229	-2.0438	-2.6083	-2.8063	-2.0208	-2.8	-2.3542	-2.2812	-2.9271	-90.191	6.180	75.925	192.716	232.640	141.423	158.943	223.140	203.443	222.189	117.394	160.347	206.230	-15.536	-21.476	22.633	0.00014855	0.00065576	0.00012577	1055.2	1.3045e-05	1.0201e-05	955.91	256.53	5.0013e-06	2.2663e-06	264.47	74.908	76.436	17.475	6.5851e-06	18.06	0.0062387	0.007288	0.0020496	1170	7.9045e-05	8.0857e-05	1011	276.26	7.6623e-05	8.0899e-05	296.5	86.621	93.622	21.623	7.9653e-05	23.747	91.078	209.201	-54.735	-103.857	13.661	-22.407	-104.395	-98.922	-36.170	37.568	-100.501	-96.923	-95.134	-90.055	86.259	-92.526	-8191	255	
21718.316	1	1	0	0	0.20091	0.13973	0.1872	0.25461	0.182	0.14144	0.29667	0.23142	0.066878	0.11924	0.053296	0.16307	0.093381	0.14084	0.085751	0.16671	-1.8354	-2.7021	-2.7479	-1.9813	-2.7208	-2.2875	-2.2021	-2.8521	-1.9833	-2.5021	-2.6667	-2.1729	-2.5896	-2.2875	-2.1375	-2.7521	31.551	-81.874	-12.493	191.658	35.006	144.661	137.494	190.082	-22.672	-60.563	185.080	123.898	83.386	-53.440	227.061	224.590	0.00012349	0.00063621	9.653e-05	1044.8	3.0356e-06	8.771e-06	950.39	257.06	1.3205e-05	6.01e-07	261.81	74.718	75.575	17.513	1.2961e-05	18.137	0.0062703	0.0073683	0.0020701	1162.7	7.9325e-05	8.1208e-05	1006.9	275.43	7.7973e-05	8.1267e-05	295.14	86.143	93.431	21.595	7.9474e-05	23.826	-1.734	143.281	18.481	-103.251	67.240	61.859	-104.287	-98.968	-74.288	-74.929	-100.501	-97.097	-95.504	-90.432	-43.391	-92.838	-8191	255	
21718.412	1	1	0	0	0.22693	0.30314	0.10746	0.27801	0.22493	0.051122	0.18494	0.12115	0.088983	0.26828	0.1487	0.082945	0.12951	0.068463	0.13108	0.15544	-1.6667	-2.1562	-2.5979	-2.0375	-2.4667	-2.5062	-2.2021	-3.0604	-2.1708	-2.2875	-2.6979	-1.7854	-2.5667	-2.5583	-2.0438	-2.8792	-68.883	-75.036	-7.951	175.863	233.639	-16.407	146.880	197.535	-9.499	98.259	164.937	-40.178	88.200	23.901	108.024	-104.747	0.00024572	0.0010645	0.00013744	1045.8	1.3978e-05	1.0257e-05	954.3	255.35	2.8691e-06	7.0182e-06	262.78	74.419	75.68	17.311	1.1995e-05	17.943	0.00632	0.0073712	0.0020699	1159.4	8.0175e-05	8.1737e-05	1007.1	275.12	7.8362e-05	8.1675e-05	295.58	86.266	93.721	21.629	8.0433e-05	23.921	162.383	209.927	116.537	-103.567	-70.632	123.386	-104.210	-98.994	181.114	62.405	-100.530	-96.818	-95.036	-90.139	44.351	-92.627	-8191	255	
21718.510	1	1	0	0	0.18462	0.026665	0.054751	0.51152	0.076705	0.15698	0.34887	0.20716	0.13763	0.2203	0.076956	0.22855	0.081111	0.24175	0.13045	0.14515	-1.8354	-2.2833	-2.8312	-2.1479	-2.7729	-2.7562	-2.2938	-2.8229	-2.3104	-2.0812	-2.9354	-2.1625	-2.6021	-2.7292	-1.9604	-2.8604	72.211	9.576	53.771	206.719	-59.069	-92.269	179.965	220.675	57.670	-14.569	-81.627	167.906	-58.702	218.213	6.220	-42.063	1.8386e-05	0.00081123	7.6071e-05	1046.2	7.6621e-06	3.1584e-06	948.19	254.88	8.2598e-06	9.4081e-06	260.39	73.35	74.434	17.077	1.2545e-05	17.585	0.0064692	0.0076345	0.002136	1164.2	8.355e-05	8.5607e-05	1008.4	275.32	8.3552e-05	8.8451e-05	296.73	86.828	94.961	21.987	9.0308e-05	24.524	72.002	-51.182	-71.447	-103.412	81.576	62.235	-104.188	-98.902	24.107	42.795	-100.216	-96.523	-95.426	-90.285	39.875	-92.323	-8191	255	
21718.604	1	1	0	0	0.25595	0.18551	0.16239	0.019351	0.20325	0.11902	0.11687	0.15752	0.17391	0.088535	0.19645	0.056316	0.065893	0.21515	0.18909	0.078208	-1.875	-2.0021	-2.775	-2.1875	-2.2188	-2.6333	-2.0417	-2.8083	-2.2646	-2.1792	-2.8167	-2.025	-2.3583	-2.6688	-1.9708	-2.6042	39.397	125.784	142.558	-6.907	7.122	62.759	82.563	240.100	-112.833	-91.122	81.002	101.991	231.348	83.061	-64.946	147.646	0.00028265	0.00096033	0.00011976	1039.3	1.2855e-05	7.2885e-06	941.84	251.98	3.1485e-06	9.287e-06	258.5	72.778	74.706	17.161	1.5775e-05	17.535	0.0073249	0.0085558	0.0023781	1172.9	9.2386e-05	9.4506e-05	1005.4	274.97	9.1271e-05	9.4585e-05	296.52	86.879	95.425	22.039	9.1554e-05	24.459	123.490	230.491	-75.072	-103.494	92.419	240.604	-104.649	-98.832	-84.447	-14.227	-100.296	-96.968	-94.722	-90.232	110.550	-92.388	-8191	255	
21718.699	1	1	0	0	0.25792	0.18775	0.11125	0.28301	0.23689	0.18549	0.33619	0.40094	0.17879	0.15845	0.27247	0.061899	0.37235	0.087032	0.13453	0.12486	-2.0375	-2.1125	-2.9562	-2.3	-2.075	-2.7604	-2.2271	-2.6937	-2.5083	-1.9896	-2.7417	-2.1688	-2.1771	-2.7229	-1.8354	-2.5875	84.838	-6.123	-18.864	228.314	223.379	194.960	173.444	-111.096	114.881	131.245	171.334	-1.878	-107.864	115.565	229.710	-93.182	0.00011589	0.0009816	0.00029086	1031.8	1.2991e-05	2.8363e-06	939.93	251.19	9.9695e-06	6.6548e-06	257.34	73.354	75.127	17.096	1.0182e-05	17.437	0.0073745	0.0085608	0.0023692	1167.7	9.2308e-05	9.2327e-05	1000.8	273.7	8.6654e-05	8.9783e-05	294.84	86.341	94.549	21.711	8.6403e-05	24.066	52.211	-64.469	-107.429	-103.748	42.079	126.340	-104.456	-99.258	45.777	14.016	-100.633	-96.507	-95.906	-90.005	228.400	-92.352	-8191	255	
21718.799	1	1	0	0	0.24456	0.15119	0.16943	0.2645	0.12881	0.13992	0.073186	0.12629	0.020546	0.11687	0.13152	0.25294	0.15329	0.27331	0.16561	0.16888	-2.0792	-1.8125	-2.7917	-2.3375	-2.0875	-2.7417	-2.3021	-2.5458	-2.7042	-1.9937	-2.7896	-2.4521	-2.0896	-2.7708	-2.2062	-2.4229	153.753	225.092	-73.674	161.911	-18.209	8.562	163.082	155.899	49.432	240.984	199.239	-109.030	186.490	-61.009	56.503	32.698	0.00011663	0.0011963	0.00031986	1049.8	8.4677e-06	1.2662e-05	944.45	253.68	1.1022e-05	7.4935e-06	258.9	73.783	75.366	17.237	7.2638e-06	17.711	0.006907	0.0079833	0.0022365	1165.4	8.6075e-05	8.6699e-05	1003.4	274.75	8.2542e-05	8.5056e-05	294.26	86.195	94.081	21.616	8.3908e-05	23.989	84.815	56.683	213.690	-103.622	24.361	-110.698	-104.527	-98.826	-70.385	56.092	-100.571	-96.808	-94.932	-90.097	44.458	-92.016	-8191	255	
21718.918	1	1	0	0	0.1135	0.048568	0.20813	0.2824	0.49179	0.077802	0.16262	0.18426	0.31683	0.22006	0.10422	0.20287	0.11781	0.2192	0.22072	0.085211	-2.2021	-1.9625	-2.8	-2.5333	-1.9354	-2.8083	-2.2417	-2.3375	-2.8042	-2.0354	-2.5625	-2.6813	-1.8583	-2.6604	-2.2271	-2.3083	-6.972	46.263	-68.005	213.483	-66.733	-37.896	151.259	-35.987	14.484	15.056	211.233	119.028	138.712	-92.323	131.770	215.421	0.00049426	0.00090351	2.5054e-05	1039.6	2.6274e-06	9.4818e-06	949.37	254.74	8.9858e-06	1.3822e-05	260.45	73.899	75.348	17.261	1.682e-05	17.793	0.0066946	0.0077044	0.0021563	1163.5	8.3823e-05	8.5239e-05	1004.9	275.24	8.0942e-05	8.4608e-05	295.35	86.369	93.899	21.627	8.3141e-05	24.035	119.690	35.742	-114.662	-103.522	159.792	40.480	-104.339	-98.634	126.173	-7.457	-100.422	-97.093	-95.468	-90.001	-2.913	-92.168	-8191	255	
21719.014	1	1	0	0	0.13369	0.13099	0.045553	0.10918	0.14592	0.086389	0.36628	0.23658	0.085996	0.16807	0.27517	0.097313	0.096773	0.24659	0.023105	0.0024968	-2.2104	-1.9562	-2.6437	-2.4875	-2.0625	-2.7083	-2.4313	-2.3521	-2.7812	-2.0354	-2.5646	-2.5771	-2.0354	-2.7292	-2.2396	-2.2917	81.486	-54.692	141.372	58.891	40.389	-44.432	178.896	157.620	95.580	-10.745	-109.364	131.638	238.059	144.376	95.964	28.472	0.00015708	0.00041507	0.00024845	1040.7	6.3387e-06	6.8692e-06	952.16	255.36	8.2682e-06	9.5627e-06	261.48	74.311	76.024	17.272	9.1247e-06	17.938	0.0066001	0.0077065	0.0021719	1164.5	8.2972e-05	8.4915e-05	1008.1	275.73	8.0948e-05	8.4103e-05	296.57	86.53	93.882	21.633	8.2042e-05	23.964	21.480	133.496	-73.272	-103.592	81.468	227.506	-104.379	-98.374	-22.846	-35.510	-100.600	-96.768	-94.948	-89.863	53.574	-92.130	-8191	255	
21719.109	1	1	0	0	0.10173	0.1204	0.11595	0.1339	0.25509	0.037973	0.12369	0.13138	0.11387	0.10387	0.15404	0.045281	0.36602	0.30264	0.22883	0.16819	-2.4292	-2.0042	-2.4146	-2.6625	-2.0208	-2.725	-2.4104	-2.1333	-2.7167	-1.9771	-2.3458	-2.8542	-2.15	-2.7417	-2.5833	-2.0833	3.569	158.926	221.959	177.895	-20.140	-23.560	136.235	219.841	38.220	218.609	102.342	139.838	192.439	-93.168	171.096	163.710	0.0002581	0.00097565	0.00030258	1045.6	5.0581e-06	1.3111e-05	952.75	254.76	8.2932e-06	4.8097e-06	260.39	74.162	75.39	17.333	1.543e-05	18.037	0.0064813	0.007573	0.0021347	1165	8.1749e-05	8.304e-05	1008.5	274.91	7.9537e-05	8.3069e-05	294.95	86.172	93.404	21.609	8.0357e-05	23.788	139.049	151.221	234.474	-103.465	-19.170	86.913	-104.349	-99.156	155.120	122.593	-100.316	-96.725	-95.481	-89.544	99.705	-92.746	-8191	255	
21719.205	1	1	0	0	0.17104	0.31006	0.25716	0.23417	0.13393	0.27818	0.087196	0.24368	0.132	0.23085	0.40583	0.18796	0.35469	0.24559	0.21532	0.13964	-2.4646	-2.175	-2.4208	-2.9271	-2.1542	-2.75	-2.7958	-2.15	-2.9313	-2.2542	-2.3833	-2.7792	-2.1896	-2.6083	-2.6208	-2.1167	209.175	46.500	-54.800	-112.108	-76.623	-34.958	164.898	196.690	83.452	-39.928	-107.380	172.201	122.727	-54.800	174.651	242.453	0.00032462	0.00073903	4.0344e-05	1044.8	8.7548e-06	3.6911e-06	951.73	254.94	3.8695e-06	2.1105e-05	266.23	75.035	76.267	17.401	3.5177e-06	17.903	0.0063747	0.0074925	0.0021012	1163.5	8.0182e-05	8.1841e-05	1005.2	274.83	7.8063e-05	8.1319e-05	295.49	86.409	93.553	21.61	7.9492e-05	23.803	172.712	141.758	232.766	-103.311	54.400	-49.162	-104.460	-98.730	46.413	122.111	-100.216	-96.708	-95.066	-89.715	238.501	-92.234	-8191	255	
21719.301	1	1	0	0	0.17932	0.11232	0.091007	0.19581	0.23794	0.27644	0.16458	0.083737	0.17971	0.12018	0.15051	0.23386	0.077344	0.2434	0.0097633	0.10526	-2.2479	-2.2333	-2.1896	-2.9938	-2.1146	-2.5542	-2.6688	-2.1021	-2.7604	-2.2792	-2.0167	-2.9938	-2.0479	-2.2354	-2.675	-1.8333	86.489	-110.964	-5.349	-68.937	148.809	241.428	69.297	235.945	111.621	169.226	65.000	60.582	211.665	209.656	147.205	180.422	0.00058765	0.00084623	0.00014063	1042.2	7.5583e-06	1.1688e-05	958.02	255.94	1.002e-05	2.5001e-06	265.08	74.483	76.269	17.429	8.5201e-06	17.984	0.0063533	0.0074385	0.0020829	1160.2	8.0417e-05	8.2644e-05	1009.7	275.3	7.847e-05	8.2416e-05	296.56	86.49	94.088	21.677	8.0106e-05	23.851	152.304	181.919	-91.355	-103.241	90.763	-32.754	-104.482	-98.879	72.419	-28.051	-100.254	-97.278	-95.353	-90.001	54.019	-93.214	-8191	255	
21719.398	1	1	0	0	0.14064	0.013954	0.25847	0.065966	0.30669	0.27071	0.16064	0.062964	0.17117	0.09847	0.063649	0.28607	0.37622	0.087097	0.18052	0.10973	-2.225	-2.1937	-1.9125	-2.9021	-1.8021	-2.4521	-2.7729	-1.9896	-2.6625	-2.4479	-2.0417	-2.7271	-2.1937	-2.0229	-2.6708	-2.0271	-33.993	163.028	150.418	-97.403	142.275	209.868	192.410	-94.353	10.010	93.460	241.664	221.533	-93.101	1.320	-31.368	176.573	0.00010416	0.00073796	0.00020476	1048.5	1.6241e-05	1.3131e-05	953.51	254.25	2.0076e-05	1.899e-05	263.27	75.017	76.019	17.478	9.1051e-06	17.836	0.0063652	0.0074133	0.0020763	1164.6	8.0556e-05	8.2664e-05	1010.3	275.08	7.8518e-05	8.2385e-05	296.14	86.845	94.204	21.655	7.98e-05	23.776	-21.418	178.218	-12.560	-103.749	-16.235	-16.179	-105.036	-99.201	-52.097	18.594	-101.260	-97.160	-95.686	-90.238	69.426	-92.673	-8191	255	
21719.518	1	1	0	0	0.42719	0.096581	0.2561	0.25078	0.15643	0.028785	0.37615	0.1528	0.15723	0.1696	0.17344	0.39544	0.16818	0.17044	0.26073	0.079603	-2.1375	-2.3708	-1.8646	-2.8104	-2.2792	-2.1771	-2.8646	-2.1063	-2.4792	-2.6333	-2.0271	-2.8563	-2.3979	-2.2708	-2.8312	-2.1208	17.610	-114.233	-10.893	176.309	-90.398	-58.116	208.052	111.820	109.953	-74.355	44.096	-106.966	180.507	123.487	203.028	-7.695	0.0002936	0.0006095	0.0001385	1051.4	3.6396e-06	3.6891e-06	958.13	256.52	1.4579e-05	5.2132e-06	263.86	75.187	75.736	17.415	5.2389e-06	17.827	0.0063304	0.0073575	0.0020532	1163.3	7.949e-05	8.1681e-05	1009.9	275.51	7.6924e-05	8.0396e-05	295.31	86.61	93.447	21.528	7.7987e-05	23.661	170.249	-40.182	155.045	-103.776	196.237	-93.335	-104.840	-99.504	196.719	65.729	-100.958	-97.121	-95.544	-90.766	-62.825	-92.478	-8191	255	
21719.613	1	1	0	0	0.13223	0.14229	0.17052	0.29322	0.12798	0.10516	0.2863	0.1165	0.083175	0.1707	0.14837	0.19375	0.065532	0.26124	0.058149	0.33865	-2.0146	-2.2958	-1.9312	-2.6896	-2.4437	-2.1271	-2.9833	-2.1792	-2.4229	-2.7542	-2.0875	-2.75	-2.3354	-1.8833	-2.8146	-2.1458	-45.463	215.991	41.702	185.603	-112.712	117.583	222.228	147.184	7.507	30.805	145.141	-62.707	101.440	78.856	51.090	-84.297	0.00050948	0.00054735	0.0005269	1052.5	1.987e-06	1.573e-05	954.85	255.08	1.6169e-05	6.5637e-06	262.07	74.607	75.656	17.366	1.095e-05	17.717	0.0061847	0.00714	0.0020015	1158.1	7.8001e-05	7.9074e-05	1007.5	273.96	7.7034e-05	8.0358e-05	293.57	86.282	92.966	21.496	7.8767e-05	23.672	176.682	-85.965	-35.439	-104.049	162.947	168.610	-104.670	-99.317	-21.230	80.701	-100.474	-97.778	-95.938	-90.031	92.255	-93.088	-8191	255	
21719.709	1	1	0	0	0.1325	0.093553	0.14963	0.32475	0.093991	0.038946	0.15164	0.39826	0.14648	0.20587	0.074794	0.11278	0.067834	0.2136	0.047419	0.2455	-1.9146	-2.7542	-1.8854	-2.6021	-2.3271	-2.0417	-2.9458	-2.2792	-2.4021	-2.725	-2.0458	-2.7	-2.4021	-2.0208	-2.6604	-2.4583	111.807	-67.343	8.231	-108.185	37.868	67.311	4.753	191.336	-21.801	140.650	23.960	-82.763	-92.592	38.300	73.929	-42.777	0.000161	0.00091366	0.00044308	1041.4	5.3497e-06	1.0663e-05	950.89	251.68	1.9014e-05	1.187e-05	257.76	73.105	74.885	17.332	3.1298e-06	17.769	0.006318	0.0073408	0.002059	1156.9	8.0049e-05	8.1342e-05	1005.2	271.87	7.8164e-05	8.1426e-05	292.22	85.6	92.905	21.492	7.952e-05	23.618	156.255	8.601	-17.582	-104.082	-69.134	-32.531	-105.003	-99.602	-67.709	-10.395	-101.299	-97.411	-96.169	-90.244	-25.671	-92.651	-8191	255	
21719.805	1	1	0	0	0.20928	0.050906	0.083934	0.20833	0.092819	0.19028	0.21146	0.38762	0.18572	0.12594	0.23895	0.20961	0.031042	0.039694	0.018279	0.07554	-2.075	-2.8021	-1.8521	-2.5604	-2.4875	-1.9396	-2.7	-2.3333	-2.2646	-2.7687	-2.0042	-2.2958	-2.6937	-1.8521	-2.6229	-2.1937	189.002	-102.226	213.647	-102.637	68.571	70.954	200.496	207.556	-97.366	-115.812	-12.893	199.443	-15.152	161.004	20.968	-67.902	0.00018221	0.00055372	0.00013564	1046.7	6.0813e-07	8.4474e-06	952	251.02	5.1262e-06	1.1618e-05	259.05	73.994	75.424	17.197	1.3944e-05	17.829	0.0063681	0.0072989	0.0020473	1155.8	7.8572e-05	7.8923e-05	1004.1	271.02	7.6152e-05	7.871e-05	292.28	85.594	92.37	21.337	7.7614e-05	23.615	162.077	-106.015	149.294	-103.953	27.544	61.026	-104.774	-99.447	1.667	128.128	-100.835	-97.400	-95.526	-90.422	8.666	-92.897	-8191	255	
21719.900	1	1	0	0	0.20336	0.36444	0.2338	0.14144	0.23119	0.10244	0.30693	0.026368	0.12128	0.21254	0.058966	0.22435	0.11122	0.2091	0.19673	0.18076	-1.6021	-2.5021	-1.8687	-2.4146	-2.6125	-1.9	-2.7271	-2.4688	-2.0896	-2.7854	-2.1229	-2.4021	-2.6896	-1.875	-2.5	-2.4562	201.321	222.683	59.208	198.652	-52.143	220.266	-89.047	72.641	39.283	150.734	-50.076	130.648	90.055	67.454	99.634	172.880	0.00013605	0.00030162	0.00026736	1047.3	1.6263e-05	7.7759e-06	958.84	253.55	3.6492e-06	4.3546e-06	261.57	74.799	75.944	17.489	6.5345e-06	18.107	0.0061699	0.0071306	0.0020064	1155.7	7.6199e-05	7.7647e-05	1007.4	272.16	7.311e-05	7.5324e-05	292.07	85.869	92.169	21.25	7.3887e-05	23.401	130.942	126.285	3.777	-103.817	224.517	188.647	-104.945	-99.550	-56.517	129.733	-101.010	-97.176	-95.659	-91.410	-4.080	-93.154	-8191	255	
21719.996	1	1	0	0	0.13608	0.21477	0.1697	0.15714	0.2034	0.13182	0.24983	0.13502	0.25564	0.14522	0.13323	0.099052	0.27033	0.19902	0.091795	0.079677	-1.625	-2.8625	-2.0208	-2.1958	-2.6813	-1.9875	-2.5708	-2.6312	-2.1229	-2.625	-2.3438	-2.1833	-2.8917	-2.1042	-2.55	-2.4896	186.151	117.994	67.365	146.158	160.767	95.888	-112.635	216.681	-64.233	-31.469	-97.463	201.426	-63.582	162.825	76.329	4.525	3.729e-05	0.00026231	0.00015398	1054.4	4.6944e-06	8.9552e-06	963.46	254.48	7.5906e-06	1.7047e-05	263.64	74.991	76.621	17.345	4.7784e-06	17.891	0.0058585	0.0068223	0.0018897	1156	7.2904e-05	7.4411e-05	1009.8	272.41	7.0235e-05	7.2561e-05	291.98	85.832	91.987	21.068	6.9529e-05	23.138	103.273	-44.678	-104.643	-104.181	72.803	144.575	-104.769	-99.405	36.024	-15.695	-101.269	-97.102	-96.309	-90.642	213.141	-92.702	-8191	255	
21720.094	1	1	0	0	0.36991	0.2219	0.19778	0.36091	0.17088	0.12848	0.13969	0.094627	0.25615	0.22409	0.1329	0.37635	0.11544	0.17143	0.15088	0.14405	-1.5438	-2.6125	-2.2771	-2.0104	-2.7229	-2.0854	-2.6583	-2.7375	-2.0812	-2.7125	-2.4792	-2.0083	-2.9042	-2.125	-2.4146	-2.7542	88.404	92.392	234.522	211.101	91.611	135.837	-61.116	195.333	-58.339	199.570	93.930	-116.343	72.883	227.465	209.065	157.531	0.00035262	0.00087841	0.00019404	1060.7	8.8042e-06	8.3056e-06	967.34	258.07	1.1362e-05	6.395e-06	266.21	76.205	77.188	17.558	8.8852e-06	18.266	0.0055084	0.0063972	0.0017851	1153.4	6.8976e-05	7.0407e-05	1013.4	274.03	6.7592e-05	7.0366e-05	293.55	86.273	92.45	21.074	6.9016e-05	23.154	219.782	-24.821	26.053	-103.715	69.161	-76.740	-104.601	-99.524	-14.137	100.476	-101.381	-97.477	-96.117	-90.699	10.758	-93.296	-8191	255	
21720.189	1	1	0	0	0.347	0.24868	0.10664	0.043746	0.18225	0.12795	0.13028	0.14335	0.19	0.07049	0.11267	0.089463	0.17596	0.017414	0.036528	0.12522	-1.7	-2.6229	-2.3667	-2.2083	-2.75	-2	-2.6146	-2.8729	-1.9312	-2.725	-2.6604	-2.0333	-2.8438	-2.3021	-2.3375	-2.6771	193.902	228.988	81.322	-42.289	1.962	-58.414	211.231	151.653	-66.359	75.496	153.761	75.228	189.714	-94.762	-48.430	104.148	9.1813e-05	0.001054	0.00020572	1060.1	7.3664e-06	8.5499e-06	978.66	258.92	7.9217e-06	2.6008e-05	268.18	76.96	78.035	17.505	1.1145e-05	18.259	0.0054666	0.0063121	0.0017682	1154.3	6.8345e-05	6.8872e-05	1017.6	275.04	6.6164e-05	6.9246e-05	294.99	86.705	92.478	21.035	6.7864e-05	23.216	-95.922	81.259	-75.859	-103.974	-114.345	58.748	-104.779	-99.353	-34.490	21.021	-100.975	-97.103	-95.828	-90.934	-81.192	-92.797	-8191	255	
21720.311	1	1	0	0	0.40159	0.047683	0.069409	0.047763	0.13986	0.1377	0.23188	0.12607	0.084781	0.15375	0.2305	0.1186	0.10784	0.26192	0.36924	0.26649	-1.7062	-2.5917	-2.5875	-2.0625	-2.9042	-2.3479	-2.4958	-2.9833	-1.8583	-2.475	-2.5812	-2.0146	-2.6063	-2.175	-1.9646	-2.8063	85.240	37.915	135.576	206.441	-86.930	223.100	211.319	176.058	48.106	200.258	86.880	177.161	-45.131	224.701	-96.619	142.373	0.00041655	0.00060298	0.0002248	1065.5	1.1064e-05	4.7751e-06	976.17	260.64	9.9331e-06	6.3226e-06	269.51	77.077	78.431	17.558	7.2519e-06	18.209	0.0054164	0.0063408	0.0017578	1156.9	6.8228e-05	6.919e-05	1020.2	276.46	6.6383e-05	6.9348e-05	296.46	86.979	92.742	21.108	6.7846e-05	23.187	112.324	-56.643	-26.430	-103.825	234.470	68.247	-104.649	-99.401	-70.549	42.552	-101.151	-97.441	-95.954	-90.844	30.686	-93.079	-8191	255	
21720.406	1	1	0	0	0.20965	0.17465	0.089579	0.1023	0.12346	0.24345	0.14417	0.4641	0.1167	0.19474	0.093448	0.072661	0.21466	0.20972	0.24838	0.0060508	-1.5354	-2.2958	-2.5563	-2.175	-2.7479	-2.5062	-2.2625	-2.8958	-2.1396	-2.4917	-2.8125	-2.0812	-2.7562	-2.5083	-2.1542	-3.0438	15.107	220.698	-45.887	-112.949	237.185	-23.757	135.004	200.115	-89.191	224.950	21.784	-112.572	182.868	227.773	49.279	84.638	0.00021545	0.00031435	7.0755e-05	1068.3	1.0027e-05	1.2921e-05	980.91	261.02	1.4948e-05	1.1117e-05	266.79	77.824	78.339	17.499	4.3349e-06	18.243	0.0054297	0.0062353	0.0017696	1158.1	6.7928e-05	6.9457e-05	1020	277.13	6.6091e-05	6.9315e-05	295.56	86.92	92.879	21.084	6.7461e-05	23.152	192.093	114.220	91.713	-103.691	50.640	88.361	-104.673	-99.325	47.804	188.289	-100.747	-97.390	-95.111	-90.462	155.926	-92.560	-8191	255	
21720.479	1	1	0	0	0.19633	0.20673	0.073741	0.34753	0.11392	0.090588	0.28196	0.33194	0.12327	0.067276	0.082073	0.23312	0.11377	0.11629	0.23411	0.055447	-1.7458	-2.5229	-2.8104	-2.0708	-2.7792	-2.5438	-1.9792	-2.8792	-2.0521	-2.2854	-2.8125	-1.9417	-2.3979	-2.4021	-2.0646	-2.9021	-52.132	137.450	169.491	165.778	29.370	-105.056	201.787	182.595	-78.643	38.871	121.820	9.884	155.901	-72.122	168.807	145.173	0.00051595	0.001263	0.00025413	1065	2.268e-06	1.0842e-05	973.7	259.31	6.3244e-06	7.0679e-06	267.25	76.686	77.595	17.567	5.3446e-06	17.966	0.0053664	0.0062838	0.0017453	1153.5	6.8223e-05	6.9377e-05	1017.9	275.54	6.7525e-05	7.0554e-05	295.33	86.618	92.778	21.159	6.946e-05	23.134	97.548	-32.082	-68.930	-103.730	230.961	216.244	-104.553	-99.193	52.892	-55.225	-100.894	-97.305	-95.610	-90.275	-102.177	-93.107	-8191	255	
21720.600	1	1	0	0	0.37299	0.20899	0.11796	0.19507	0.28493	0.18459	0.051788	0.30626	0.18045	0.11977	0.080652	0.2838	0.095427	0.17784	0.31522	0.086275	-1.7167	-2.1021	-2.6333	-1.8854	-2.4458	-2.5687	-1.9604	-2.7708	-2.2708	-2.2167	-2.6979	-1.9813	-2.3187	-2.4813	-1.8875	-2.7708	23.831	107.004	237.487	-55.710	-104.213	119.539	191.032	242.394	177.112	179.521	-31.791	-104.532	-27.147	147.321	-18.450	-76.896	0.00023714	6.7502e-05	0.0002981	1067.1	4.8426e-07	5.9566e-06	972.26	259.13	1.5892e-05	1.0798e-05	268.47	76.107	77.225	17.583	1.632e-06	18.09	0.0055522	0.0064666	0.001799	1159.4	6.9802e-05	7.1387e-05	1018.1	275.88	6.7801e-05	7.1528e-05	295.55	86.628	92.831	21.198	6.9973e-05	23.254	207.996	214.731	3.648	-104.035	186.579	47.074	-104.720	-99.446	-43.544	-39.862	-100.803	-97.643	-95.846	-90.534	15.183	-92.364	-8191	255	
21720.693	1	1	0	0	0.088054	0.082583	0.14693	0.29178	0.092937	0.15331	0.24162	0.13188	0.28535	0.11251	0.17542	0.12173	0.018606	0.049557	0.27677	0.0753	-1.875	-1.9958	-2.8187	-2.1063	-2.5125	-2.7958	-2.1188	-2.6813	-2.2958	-1.9208	-2.6937	-2.15	-2.4125	-2.7188	-1.8875	-2.5833	39.600	-41.959	5.249	160.590	187.100	-9.408	199.572	199.265	58.403	49.624	161.422	97.559	64.009	112.256	-11.628	47.794	0.00045042	0.00065839	0.0001391	1061.4	1.0211e-05	1.1584e-05	973.52	260.05	4.6961e-06	1.0299e-05	269.65	77.203	77.74	17.482	7.8947e-06	18.146	0.0055848	0.0065256	0.0018211	1159.6	7.0012e-05	7.1295e-05	1018.4	276.41	6.8745e-05	7.219e-05	296.85	87.001	93.219	21.244	7.0255e-05	23.392	194.052	234.561	-63.265	-103.829	-0.583	-26.625	-104.582	-99.438	233.301	102.221	-101.054	-97.470	-95.778	-90.906	-59.816	-93.095	-8191	255	
21720.789	1	1	0	0	0.069462	0.22103	0.058016	0.26617	0.27334	0.12982	0.44328	0.35373	0.32659	0.18055	0.19103	0.081321	0.34816	0.17328	0.20595	0.18784	-2.1333	-1.9979	-2.6521	-2.1146	-2.2396	-2.8146	-2.1375	-2.6271	-2.5833	-2.0083	-2.9083	-2.3833	-2.15	-2.6417	-2.0208	-2.5438	69.355	219.233	-2.088	180.190	111.643	-91.763	167.634	185.104	96.024	0.237	84.450	4.699	-0.265	159.537	32.035	152.988	0.0002436	0.00090908	3.6734e-05	1065.1	8.8107e-06	9.1652e-06	976.4	260.99	7.0611e-06	1.4774e-05	266.87	76.117	78.035	17.63	7.8576e-06	18.186	0.0055724	0.0065063	0.0018158	1159.8	6.9884e-05	7.113e-05	1020.8	276.71	6.8576e-05	7.2033e-05	295.58	86.601	93.1	21.229	6.953e-05	23.242	241.694	160.560	135.399	-103.807	175.889	83.803	-104.922	-99.572	131.093	53.333	-100.916	-97.427	-95.689	-90.613	203.926	-93.394	-8191	255	
21720.910	1	1	0	0	0.10451	0.18979	0.17814	0.17421	0.13652	0.082613	0.18376	0.059675	0.10365	0.038762	0.043378	0.095438	0.13702	0.31066	0.16497	0.096946	-2.2458	-2.0479	-2.7042	-2.2687	-2.0854	-2.9583	-2.2167	-2.5708	-2.7458	-1.8042	-2.8083	-2.2729	-2.0729	-2.7375	-1.9167	-2.4708	-62.658	171.097	26.393	223.497	157.687	-111.676	-113.930	238.704	188.120	230.312	-25.772	-33.001	-66.583	209.840	-93.420	97.963	0.00042716	0.00070275	0.00034651	1062.5	2.0151e-06	7.3814e-06	979.88	260.85	7.1031e-06	2.3733e-06	267.54	76.666	77.148	17.461	5.2165e-06	18.341	0.0055328	0.0064285	0.0017936	1156.3	6.9123e-05	7.0336e-05	1020.6	277.31	6.652e-05	6.9359e-05	295.4	86.463	92.413	21.134	6.8356e-05	23.304	147.695	66.271	105.268	-103.961	70.857	-11.608	-104.862	-99.464	-59.313	76.528	-100.659	-97.630	-96.080	-90.874	61.153	-92.782	-8191	255	
21721.006	1	1	0	0	0.13009	0.048817	0.18801	0.019405	0.092993	0.034084	0.16991	0.30001	0.092998	0.04752	0.16928	0.18132	0.17163	0.080788	0.091295	0.18744	-2.2604	-1.8542	-2.7458	-2.4375	-1.9354	-2.8438	-2.2854	-2.2271	-2.5396	-2.0083	-2.7062	-2.5375	-2.275	-2.6937	-2.1479	-2.1792	-26.192	-92.633	148.197	-25.834	220.069	-16.588	190.293	-100.732	146.961	233.978	118.105	173.198	85.716	0.572	215.145	127.483	4.8792e-05	0.00022966	0.0004377	1064	6.5332e-06	4.3045e-06	975.82	260.22	2.4773e-06	1.3677e-05	267.97	76.753	77.861	17.745	9.3742e-06	18.181	0.0054653	0.0064019	0.0017765	1157.1	6.9479e-05	7.0226e-05	1018.9	276.55	6.7442e-05	7.0262e-05	296.68	86.784	93.024	21.216	6.8837e-05	23.247	-17.037	44.006	-18.286	-103.702	-34.914	-112.916	-104.750	-99.098	101.410	27.262	-100.817	-97.341	-95.682	-90.385	157.208	-93.501	-8191	255	
21721.078	1	1	0	0	0.26439	0.10324	0.15496	0.31018	0.12821	0.043306	0.1656	0.076859	0.1346	0.075249	0.27863	0.27935	0.23375	0.1129	0.15707	0.11264	-2.4208	-2.0042	-2.5062	-2.5917	-1.8583	-2.8646	-2.325	-2.2458	-2.7458	-2.0438	-2.5771	-2.5458	-1.9062	-2.8625	-2.425	-2.0208	62.781	76.034	-59.322	174.318	37.922	-48.872	177.871	183.278	-30.733	178.099	206.231	115.246	161.518	-22.534	87.738	169.987	0.00038951	0.00052365	0.00022909	1064.6	5.4959e-06	7.2158e-06	979.54	261.14	6.8814e-06	3.2851e-06	269.73	76.428	77.751	17.643	8.4181e-06	18.417	0.0055199	0.0064095	0.0017845	1158	6.9509e-05	7.0845e-05	1018.7	276.99	6.734e-05	7.0356e-05	296.79	86.51	92.835	21.179	6.8302e-05	23.215	108.692	-78.104	-2.365	-104.019	-37.105	-112.464	-104.754	-99.053	-79.064	209.651	-100.786	-97.578	-95.462	-90.625	80.450	-92.784	-8191	255	
21721.197	1	1	0	0	0.12603	0.20944	0.027207	0.2948	0.24851	0.20377	0.038936	0.10672	0.11022	0.038834	0.34454	0.06347	0.26066	0.07759	0.074634	0.13681	-2.2687	-2.0083	-2.3646	-2.6688	-1.9833	-2.6542	-2.5375	-2.2458	-2.7979	-2.1896	-2.3479	-2.6021	-1.8292	-2.5708	-2.3271	-1.9	52.266	77.965	238.977	192.053	-59.904	-64.971	134.671	114.657	209.005	6.587	163.697	216.576	-84.542	214.138	-23.105	4.253	0.00018703	0.0004601	0.0002627	1069.6	1.0346e-05	1.9829e-05	980.41	262.34	1.7566e-05	9.6144e-06	271.12	77.076	78.825	17.647	4.9909e-06	18.356	0.0054688	0.0063455	0.0017753	1160	6.8224e-05	6.9621e-05	1020.3	276.81	6.6295e-05	6.8651e-05	296.56	86.662	92.946	21.126	6.6003e-05	23.031	161.045	87.386	65.907	-104.169	103.585	56.789	-104.868	-99.307	-74.256	-13.754	-101.043	-97.631	-95.656	-90.718	-66.892	-93.500	-8191	255	
21721.295	1	1	0	0	0.21492	0.099433	0.19133	0.22932	0.1274	0.20143	0.26014	0.3248	0.085394	0.055604	0.23179	0.18821	0.36785	0.10294	0.17096	0.13899	-2.4125	-1.8542	-2.2833	-2.9292	-2.0229	-2.5729	-2.5646	-1.9375	-2.6937	-2.1708	-2.2104	-2.7833	-2.0042	-2.4729	-2.5208	-1.9646	48.139	99.876	77.791	144.905	-87.761	195.552	170.898	210.840	-29.489	-35.055	235.133	-17.187	179.271	-66.450	-60.904	49.685	0.0002011	0.00037172	0.00020357	1062.5	9.8092e-06	1.346e-05	987.25	262.04	1.0537e-05	5.272e-06	271.59	77.835	78.373	17.778	8.6434e-06	18.388	0.0052524	0.0061249	0.00172	1156.9	6.5224e-05	6.6344e-05	1021.8	277.58	6.3767e-05	6.5952e-05	297.12	87.024	92.693	21.116	6.4815e-05	23.068	213.929	190.408	-5.280	-104.390	85.643	67.660	-104.805	-99.056	147.782	15.971	-100.956	-97.383	-95.196	-90.243	132.648	-92.974	-8191	255	
21721.391	1	1	0	0	0.18344	0.084518	0.19795	0.21508	0.055105	0.072043	0.2517	0.22624	0.13293	0.090744	0.21404	0.087039	0.17498	0.11272	0.29812	0.27394	-2.3312	-2.2375	-2.0167	-2.6937	-1.8354	-2.4833	-2.8063	-1.9083	-2.7396	-2.3187	-2.2521	-2.85	-1.9208	-2.2896	-2.6312	-1.9917	-35.010	40.103	22.332	151.968	76.550	58.730	241.609	142.291	-61.462	143.494	89.236	-77.388	61.146	14.734	-66.613	181.919	0.00038843	0.00055871	0.00018767	1072.4	4.6788e-06	1.2402e-05	985.89	264.45	2.3664e-06	3.1985e-06	272.3	78.198	78.653	17.789	9.2772e-06	18.422	0.0051965	0.0060127	0.0016952	1160.2	6.5095e-05	6.6028e-05	1022.5	278.82	6.31e-05	6.5006e-05	297.62	87.241	92.83	21.05	6.4558e-05	23.008	105.667	-42.438	-27.283	-103.837	85.254	-87.356	-104.833	-99.174	-72.048	23.541	-100.944	-97.325	-95.675	-90.322	240.713	-93.134	-8191	255	
21721.486	1	1	0	0	0.026285	0.048312	0.12011	0.12318	0.3013	0.16491	0.34631	0.18668	0.20073	0.22629	0.058932	0.10202	0.29294	0.28927	0.026869	0.26229	-2.2729	-2.3438	-2.0458	-2.8625	-2.2438	-2.5146	-2.9688	-2.1479	-2.5521	-2.5542	-2.1208	-2.9167	-2.1542	-2.3354	-2.8604	-2.025	-86.261	28.776	68.536	80.473	-5.387	166.741	157.645	230.558	195.444	61.496	-69.751	38.875	32.924	160.992	120.514	-90.579	0.00053827	0.00074615	0.00013865	1068.1	1.0047e-05	1.2894e-06	987.12	264.99	1.6338e-05	6.7124e-06	271.16	78.301	79.307	17.757	6.0598e-06	18.535	0.0051312	0.005944	0.0016944	1155.2	6.4367e-05	6.5159e-05	1023.8	279.11	6.2134e-05	6.4429e-05	298.19	87.49	92.877	21.072	6.3604e-05	23.096	169.736	-21.984	-44.595	-103.623	-21.921	87.979	-104.675	-99.566	-44.982	106.288	-100.768	-97.282	-95.063	-89.919	-2.400	-93.087	-8191	255	
21721.605	1	1	0	0	0.080286	0.32596	0.037416	0.054264	0.27006	0.2741	0.2744	0.26038	0.092697	0.12	0.22895	0.26885	0.20322	0.12399	0.2256	0.077053	-2.3833	-2.5979	-2.0479	-2.875	-2.125	-2.1188	-2.9396	-2.075	-2.5208	-2.7104	-2.0958	-2.8125	-2.2104	-2.2667	-2.8708	-2.1417	30.083	196.896	-43.659	43.916	22.941	67.439	153.171	178.462	227.409	-111.410	192.245	103.083	186.314	183.717	139.815	210.723	0.00032192	0.00073295	0.00039165	1076.6	1.4873e-06	5.2399e-06	988.94	264.91	5.7277e-06	4.5754e-06	274.62	79.072	79.806	17.857	1.0962e-05	18.298	0.0050962	0.0059421	0.0016669	1163.4	6.3683e-05	6.517e-05	1028.7	279.93	6.2366e-05	6.5732e-05	300.22	88.033	93.474	21.226	6.4208e-05	23.102	109.692	175.407	-88.442	-103.683	202.229	-96.256	-104.962	-99.510	111.898	70.458	-100.855	-97.243	-96.098	-89.844	-112.275	-93.048	-8191	255	
21721.701	1	1	0	0	0.25559	0.24982	0.22403	0.070494	0.138	0.29383	0.1715	0.28267	0.093649	0.14161	0.32581	0.063453	0.13703	0.084537	0.12287	0.19442	-2.0792	-2.6729	-1.8937	-2.9104	-2.5125	-2.2917	-2.8438	-2.2583	-2.5396	-2.8021	-1.9729	-2.9062	-2.5187	-2.0896	-2.8479	-2.2479	-70.678	189.061	82.409	-78.456	-58.399	112.371	217.208	111.758	212.702	-19.742	-50.758	126.599	106.510	24.392	-109.579	100.927	0.00016677	0.00075306	0.00013093	1079.4	1.2594e-05	6.9424e-06	992.8	265	1.2209e-05	9.8968e-07	274.66	78.603	79.195	18.058	1.4631e-05	18.59	0.0050673	0.0059144	0.0016581	1160.3	6.3533e-05	6.493e-05	1029.2	279.68	6.2513e-05	6.4764e-05	299.64	87.817	93.166	21.241	6.4301e-05	23.041	-73.485	-105.218	45.289	-103.974	-36.382	134.695	-104.556	-99.205	3.797	-108.393	-100.824	-97.538	-95.656	-90.307	-1.091	-93.073	-8191	255	
21721.773	1	1	0	0	0.044837	0.042038	0.06901	0.16172	0.12312	0.21824	0.061993	0.22663	0.35252	0.14167	0.17184	0.32792	0.14587	0.057197	0.29019	0.3013	-2.0458	-2.65	-2.0708	-2.5708	-2.5438	-1.9771	-2.9833	-2.2333	-2.4125	-2.9146	-2.2375	-2.6875	-2.45	-1.9896	-2.9688	-2.2958	-9.535	38.538	229.620	-104.897	237.093	34.458	9.957	108.493	-56.996	14.712	181.224	-17.675	139.497	-94.637	233.860	-85.702	0.0001474	0.00041598	0.00025421	1073.4	5.3693e-06	7.5168e-06	985.68	265.33	4.2249e-06	1.2701e-05	274.61	78.725	80.324	17.899	9.7388e-06	18.456	0.0050843	0.0058697	0.0016653	1157.6	6.364e-05	6.5003e-05	1025.4	280.08	6.3003e-05	6.4895e-05	299.9	87.806	93.278	21.186	6.2788e-05	22.965	128.176	118.417	-49.844	-103.665	207.220	-46.624	-104.815	-99.308	45.865	38.483	-100.896	-97.374	-95.611	-90.008	51.440	-93.270	-8191	255	
21721.869	1	1	0	0	0.19486	0.15177	0.025797	0.076245	0.14796	0.15491	0.30326	0.14697	0.15206	0.10684	0.14847	0.13942	0.11426	0.1863	0.16125	0.1162	-1.7812	-2.725	-2.0583	-2.6458	-2.5896	-2.0042	-2.95	-2.5854	-2.0021	-2.7958	-2.1312	-2.4479	-2.5917	-2.0604	-2.6937	-2.4333	132.928	216.060	145.290	175.275	213.763	88.401	187.666	142.058	-67.189	-9.854	167.235	155.935	232.846	149.792	-79.420	-94.608	0.0002001	0.00077703	0.00030055	1079	1.1101e-05	1.111e-05	994.7	266.74	5.5669e-06	1.4187e-06	275.87	79.098	80.428	17.923	1.2653e-05	18.559	0.004953	0.005741	0.001604	1157.5	6.1434e-05	6.2977e-05	1027.9	280.59	6.026e-05	6.2503e-05	299.89	88.093	93.456	21.137	6.0972e-05	22.976	207.954	-25.104	-71.403	-103.400	73.741	-41.569	-104.471	-99.492	2.027	219.732	-100.888	-97.495	-95.991	-90.385	55.941	-92.843	-8191	255	
21721.990	1	1	0	0	0.21744	0.016359	0.20087	0.23401	0.19733	0.10237	0.47304	0.27311	0.21816	0.051033	0.33254	0.088483	0.20037	0.18859	0.16947	0.27081	-1.6854	-2.8479	-2.0875	-2.5375	-2.9042	-2.2313	-2.8771	-2.3917	-2.0958	-2.5563	-2.0708	-2.2167	-2.8438	-2.025	-2.6542	-2.6625	62.482	-96.006	54.572	-43.254	201.259	-37.474	168.979	172.520	239.651	-83.682	217.238	127.744	214.157	-87.918	22.353	-47.328	0.00010443	0.00065693	0.00047648	1080.7	1.6787e-05	7.4307e-06	990.25	268.95	2.9326e-06	1.7037e-05	278.74	80.345	80.696	17.937	1.5047e-05	18.507	0.0048885	0.0056609	0.0015698	1158.7	6.104e-05	6.1756e-05	1025.9	281.25	5.923e-05	6.1507e-05	301.02	88.36	93.688	21.069	5.9948e-05	22.932	-72.148	-103.308	-81.109	-103.816	31.952	72.087	-104.789	-99.588	101.261	240.816	-100.711	-97.155	-95.367	-90.659	-36.187	-92.589	-8191	255	
21722.086	1	1	0	0	0.18446	0.25897	0.22795	0.17139	0.12166	0.077641	0.12376	0.25646	0.34707	0.12043	0.39348	0.17008	0.072049	0.16149	0.062858	0.24668	-1.6187	-2.7833	-2.0104	-2.3833	-2.4938	-1.9375	-2.7396	-2.6833	-2.1333	-2.7792	-2.1854	-2.1667	-2.8396	-2.0667	-2.3833	-2.5604	239.417	45.124	141.870	207.459	-84.730	15.253	-103.321	-97.456	-105.011	-55.248	207.203	44.456	-50.988	8.181	13.822	115.608	0.00014328	0.00073143	0.00040507	1077.8	1.0582e-05	3.8433e-06	997.22	269.47	1.56e-05	1.4938e-05	280.01	79.654	80.673	18.013	3.9537e-06	18.361	0.0047808	0.0055179	0.0015383	1156.6	5.9543e-05	6.0268e-05	1029.8	281.96	5.734e-05	5.9144e-05	300.77	87.914	93.232	21.047	5.7659e-05	22.746	-9.727	-5.180	-90.170	-103.830	-26.953	138.437	-104.392	-99.340	-12.628	49.170	-100.949	-97.453	-95.668	-90.528	77.481	-92.777	-8191	255	
21722.182	1	1	0	0	0.088018	0.17385	0.080159	0.10476	0.23796	0.16285	0.10393	0.1074	0.13496	0.22523	0.17971	0.023968	0.12407	0.21489	0.1252	0.13156	-1.5979	-2.7833	-2.1833	-2.2229	-2.7438	-2.0417	-2.6229	-2.6625	-2.0125	-2.7	-2.2854	-2.1396	-2.8312	-2.1333	-2.3854	-2.7958	152.664	117.752	157.238	132.241	-72.681	-2.299	171.475	91.303	206.066	-11.947	163.150	160.255	224.048	44.508	54.728	111.782	0.00023896	0.0005531	0.00039702	1080.6	4.3971e-06	7.0658e-06	994.25	268.25	6.512e-06	9.5798e-06	277.81	78.82	80.854	18.151	5.9281e-06	18.53	0.004644	0.0053897	0.0014852	1156.2	5.8122e-05	5.8844e-05	1026	280.9	5.6461e-05	5.8271e-05	298.71	87.474	92.665	20.928	5.7524e-05	22.645	102.141	154.773	-6.417	-103.728	9.425	-26.025	-104.395	-99.366	-38.468	236.338	-100.738	-97.217	-95.544	-90.516	-54.901	-92.640	-8191	255	
21722.279	1	1	0	0	0.36349	0.21883	0.1198	0.35866	0.21398	0.14513	0.11898	0.10106	0.10024	0.10649	0.22345	0.14189	0.29696	0.22427	0.20078	0.23158	-1.5979	-2.75	-2.4083	-2.1667	-2.75	-2.2271	-2.6188	-2.6958	-1.9417	-2.3937	-2.6312	-2.2	-2.7812	-2.1958	-2.2188	-2.7354	-13.038	-102.226	-80.476	220.791	217.761	216.910	65.816	209.902	-31.219	9.051	215.814	189.639	197.372	117.541	-117.186	150.310	0.00013786	0.0003303	0.00021014	1082	5.8396e-06	6.5811e-06	994.32	268.69	3.8075e-06	1.3754e-05	278.11	79.204	81.349	18.036	1.5642e-05	18.513	0.0045971	0.0052993	0.0014644	1153.5	5.6607e-05	5.7884e-05	1024.4	280.96	5.496e-05	5.7376e-05	298.81	87.494	92.871	20.882	5.6184e-05	22.576	152.808	147.277	141.967	-103.929	103.849	35.691	-104.458	-99.322	241.569	-19.392	-100.958	-97.165	-95.354	-90.532	18.969	-93.105	-8191	255	
21722.375	1	1	0	0	0.3248	0.075135	0.21253	0.37007	0.22382	0.13865	0.16306	0.25331	0.11831	0.19549	0.12267	0.27701	0.25482	0.17102	0.18809	0.25133	-1.4479	-2.6292	-2.6	-2.1542	-2.7229	-2.2562	-2.3063	-2.7646	-1.8875	-2.5062	-2.5625	-1.9229	-2.7854	-2.3229	-2.1208	-2.6354	181.681	208.317	121.438	178.200	-16.466	126.469	-107.197	217.212	63.427	-9.704	213.998	205.467	139.679	-64.850	62.352	187.563	0.00019309	0.00080493	0.00015792	1076.4	1.8397e-06	9.109e-06	994.69	269.32	1.3222e-06	9.278e-06	276.69	79.977	81.498	18.044	9.5552e-06	18.541	0.0044975	0.0051799	0.0014433	1150.2	5.5944e-05	5.6622e-05	1023.8	280.9	5.4731e-05	5.7058e-05	298.27	87.456	92.841	20.837	5.5824e-05	22.536	123.793	-78.259	-49.351	-103.753	81.751	222.751	-104.647	-99.396	-96.731	86.462	-100.780	-97.308	-95.405	-90.265	219.077	-92.696	-8191	255	
21722.471	1	1	0	0	0.4001	0.15691	0.075275	0.18404	0.27037	0.078636	0.25853	0.29566	0.1595	0.17851	0.05976	0.072059	0.12875	0.1273	0.28189	0.26765	-1.5083	-2.4167	-2.5708	-1.9562	-2.5958	-2.2417	-2.2104	-2.8729	-2.0125	-2.3688	-2.6583	-1.8958	-2.5333	-2.5417	-2.1021	-2.7604	36.215	-15.521	-15.984	228.198	-34.848	-27.771	134.770	196.346	91.034	-33.649	22.219	160.494	-84.887	201.296	230.571	207.569	0.00023236	0.0011216	0.0002087	1083.2	8.6472e-06	1.0567e-05	994.06	268.12	3.7526e-06	3.2328e-06	275.7	78.906	80.746	17.979	7.7846e-06	18.529	0.0044629	0.0051669	0.0014671	1152.1	5.5889e-05	5.6953e-05	1025	280.13	5.5591e-05	5.751e-05	297.99	87.333	92.218	20.913	5.7319e-05	22.642	216.029	239.405	193.708	-103.733	9.094	7.471	-104.884	-99.357	232.533	143.680	-100.598	-97.267	-95.890	-90.218	118.959	-92.586	-8191	255	
21722.590	1	1	0	0	0.14687	0.2873	0.082841	0.16126	0.35552	0.114	0.31478	0.19774	0.14704	0.17097	0.13599	0.24307	0.05146	0.15297	0.17906	0.097876	-1.8813	-2.2271	-2.7583	-2.0312	-2.5312	-2.4917	-2.1667	-3.0417	-2.2292	-2.1896	-2.6708	-2.0312	-2.5938	-2.4333	-2.0958	-2.8354	91.689	-92.559	152.430	197.967	132.562	-86.032	196.653	179.873	225.520	96.275	-24.141	223.915	-103.293	-100.343	137.424	171.826	0.00016361	0.00077378	0.00014227	1079.9	7.661e-06	9.5271e-06	989.91	266.74	3.3176e-06	1.0535e-05	275.55	78.77	79.611	17.961	1.0022e-05	18.514	0.0045071	0.0052923	0.0014694	1148.5	5.6988e-05	5.7848e-05	1019.2	279.05	5.5215e-05	5.7988e-05	297.16	86.502	92.002	20.815	5.6722e-05	22.527	128.101	150.245	12.794	-104.052	-51.223	43.891	-104.359	-99.272	-86.681	16.875	-100.408	-97.267	-95.381	-90.205	-55.812	-92.727	-8191	255	
21722.686	1	1	0	0	0.1853	0.20041	0.20961	0.082214	0.26081	0.14016	0.12472	0.27415	0.18322	0.40982	0.088309	0.051951	0.0073453	0.084154	0.085807	0.27144	-1.8062	-2.1688	-2.7646	-2.1646	-2.3625	-2.6208	-2.1	-2.8812	-2.2167	-2.0521	-2.8167	-1.9458	-2.4396	-2.4271	-2.0563	-2.6375	130.792	174.189	-64.192	168.080	208.258	170.836	218.862	180.141	143.490	126.640	126.008	89.993	-67.280	20.926	64.000	84.333	4.9376e-05	0.00026716	2.3187e-05	1075.5	1.7806e-06	5.4433e-06	987.86	265.85	6.4506e-06	8.4186e-06	275.6	78.673	80.153	17.954	1.0655e-05	18.476	0.004494	0.0052559	0.001466	1143.7	5.6627e-05	5.759e-05	1017.4	278.49	5.5235e-05	5.8485e-05	296.95	86.451	91.751	20.817	5.6175e-05	22.541	198.824	170.443	231.651	-103.742	-33.699	188.160	-104.769	-99.207	130.315	78.754	-100.804	-97.303	-95.639	-91.030	-25.312	-92.855	-8191	255	
21722.781	1	1	0	0	0.072289	0.19727	0.094573	0.056962	0.20774	0.24199	0.24931	0.36707	0.22106	0.10654	0.15672	0.10368	0.12602	0.27978	0.28946	0.064645	-1.9146	-2.0708	-2.7562	-2.1167	-2.2354	-2.8104	-2.0667	-2.7104	-2.4042	-1.8917	-2.8854	-2.0979	-2.2562	-2.7646	-1.9688	-2.6083	76.112	167.365	196.537	-25.815	-32.570	-110.240	140.210	178.800	-56.650	186.208	-85.363	-77.818	170.679	242.078	171.975	27.395	0.00023238	0.0005824	0.00028598	1072.7	1.1362e-06	1.357e-05	982.83	267.49	5.2549e-06	9.6192e-06	274.41	79.175	79.495	17.844	6.3257e-06	18.32	0.004467	0.0052923	0.0014671	1143.4	5.665e-05	5.8039e-05	1012.7	278.62	5.5374e-05	5.8215e-05	295.83	86.608	91.729	20.757	5.6901e-05	22.356	72.036	7.121	-66.548	-103.974	0.181	85.934	-104.576	-99.103	62.430	204.780	-100.778	-97.280	-95.415	-90.000	140.577	-92.753	-8191	255	
21722.879	1	1	0	0	0.089891	0.22922	0.09781	0.16074	0.072059	0.19545	0.16949	0.15387	0.17782	0.060867	0.072397	0.05023	0.099657	0.089391	0.28572	0.12549	-1.9854	-2.0938	-2.6042	-2.1125	-2.1854	-2.7729	-2.0812	-2.5417	-2.6562	-1.9271	-2.6813	-2.175	-2.0958	-2.8812	-2.0583	-2.5958	-64.524	-50.757	88.986	54.067	86.191	-82.808	-103.558	204.550	28.089	95.209	17.433	192.782	19.412	166.813	135.559	44.469	0.00042005	0.00027742	0.00029122	1069.2	7.2886e-06	8.0902e-06	984.83	265.3	9.1723e-06	2.9349e-06	274.49	78.768	79.709	17.885	1.6707e-05	18.589	0.0045438	0.0052879	0.0014654	1143.1	5.732e-05	5.828e-05	1013.7	277.72	5.5983e-05	5.8544e-05	296.28	86.592	91.815	20.811	5.7095e-05	22.579	185.840	-11.368	13.009	-104.094	62.541	24.392	-104.742	-98.915	28.913	98.558	-100.829	-97.745	-95.698	-90.331	25.461	-92.642	-8191	255	
21722.998	1	1	0	0	0.054696	0.11358	0.091693	0.38684	0.076054	0.23243	0.24346	0.28941	0.17782	0.22165	0.31006	0.18945	0.20884	0.12753	0.29712	0.27388	-2.1312	-1.6938	-2.7208	-2.2917	-1.9	-2.8187	-2.1104	-2.5354	-2.6437	-1.8833	-2.7229	-2.4813	-1.9937	-2.7021	-2.1208	-2.2729	-76.651	168.544	-103.475	148.469	36.396	220.252	241.324	180.818	140.260	-107.231	195.592	184.525	93.659	199.462	92.008	11.907	0.00045337	0.0001367	0.00023624	1081.1	3.0702e-06	2.0591e-05	982.81	264.49	3.7749e-06	7.8773e-06	274.95	77.987	79.236	17.866	8.2484e-06	18.277	0.0046106	0.0053391	0.0014698	1145.7	5.7193e-05	5.8899e-05	1013.7	277.57	5.6169e-05	5.8667e-05	295.9	86.235	91.564	20.763	5.709e-05	22.515	150.810	42.605	174.689	-103.483	136.801	-26.276	-104.250	-99.207	97.302	-54.782	-100.691	-97.150	-95.044	-90.572	-55.465	-92.511	-8191	255	
21723.070	1	1	0	0	0.1412	0.055266	0.061751	0.17653	0.19148	0.13016	0.15396	0.10971	0.022677	0.21028	0.12847	0.30825	0.26732	0.2406	0.075489	0.1509	-2.2542	-2.0417	-2.6312	-2.4229	-1.9854	-2.6604	-2.2604	-2.2792	-2.5062	-1.9438	-2.6417	-2.4521	-1.9667	-2.6771	-2.1	-2.1229	155.781	201.978	54.259	151.834	188.496	159.586	173.315	-99.131	-16.035	-42.907	28.090	144.655	-100.273	170.657	211.841	166.768	0.00027836	0.00071909	0.00031045	1073.4	6.05e-08	1.6513e-06	979.39	264.87	9.1822e-06	8.8593e-06	273.74	78.144	79.416	17.733	6.2604e-06	18.058	0.0045802	0.0053152	0.0014863	1144.1	5.8035e-05	5.8263e-05	1011.8	277.3	5.6369e-05	5.8602e-05	294.7	86.13	91.668	20.692	5.7538e-05	22.405	157.053	229.984	-88.102	-103.693	-105.512	106.037	-104.322	-98.921	-24.190	-32.169	-100.316	-96.872	-95.451	-89.988	42.762	-92.833	-8191	255	
21723.168	1	1	0	0	0.036417	0.045834	0.18388	0.10168	0.3626	0.056159	0.28812	0.32076	0.1846	0.032043	0.071515	0.20915	0.094876	0.19732	0.18361	0.19556	-2.4875	-2.0583	-2.4792	-2.4062	-1.9583	-2.8167	-2.4521	-2.2062	-2.8125	-2.0375	-2.5333	-2.5458	-1.7729	-2.8042	-2.4042	-1.9688	49.467	-38.874	-41.290	219.756	242.123	-103.751	216.458	196.545	51.623	-9.868	180.204	177.405	-112.539	-65.070	71.904	177.591	0.00026576	0.0010018	0.0001821	1073.3	6.8622e-06	1.1847e-05	978.13	264.98	1.8597e-05	6.6772e-06	272.75	78.452	79.798	17.901	1.6944e-05	18.305	0.0046122	0.0053083	0.001497	1141.6	5.8362e-05	5.8846e-05	1011	277.03	5.6802e-05	5.8837e-05	295.51	86.368	91.784	20.789	5.7879e-05	22.519	204.919	34.109	-107.747	-103.894	-31.230	112.924	-104.676	-98.933	0.889	109.058	-100.469	-97.397	-95.341	-90.112	50.307	-92.724	-8191	255	
21723.264	1	1	0	0	0.21999	0.15506	0.16394	0.084932	0.10896	0.025936	0.2721	0.3055	0.356	0.24792	0.38033	0.086346	0.19547	0.33614	0.067007	0.094277	-2.4771	-1.9167	-2.3688	-2.5792	-2.0271	-2.725	-2.5667	-1.9958	-2.6813	-2.1063	-2.3271	-2.6708	-1.8646	-2.4354	-2.3479	-2.0687	49.478	130.924	17.960	-71.988	-29.813	37.474	194.172	192.854	118.464	98.541	222.575	211.037	213.544	189.472	-8.312	144.507	0.00050142	0.0010231	0.00026027	1068.8	3.9156e-06	1.2077e-06	979.48	263.68	6.5885e-06	1.1114e-05	273.37	78.645	78.987	17.895	6.5411e-06	18.637	0.0046545	0.0053351	0.0015093	1143.1	5.8701e-05	5.8606e-05	1014	277.08	5.6849e-05	5.9237e-05	295.86	86.629	91.753	20.834	5.8688e-05	22.606	115.303	-115.382	131.093	-103.301	-113.399	73.864	-104.480	-99.122	-106.839	47.693	-100.629	-97.211	-95.307	-90.179	125.388	-93.001	-8191	255	
21723.383	1	1	0	0	0.16552	0.14415	0.152	0.053825	0.26151	0.1803	0.17461	0.43437	0.21072	0.052185	0.18751	0.14156	0.069273	0.098887	0.047429	0.37244	-2.3125	-2.075	-2.0542	-2.6146	-1.7646	-2.7104	-2.7104	-2.0687	-2.875	-2.1063	-2.225	-2.875	-2.1479	-2.5521	-2.7021	-1.9854	18.103	-38.281	95.606	183.488	66.156	51.708	222.981	161.502	62.816	122.818	-81.276	207.536	-92.058	-33.362	205.026	-48.039	0.00030083	0.0016477	0.00018475	1070.5	5.3434e-06	4.1928e-06	982.17	264.71	6.4963e-06	2.2531e-06	274.91	78.037	80.039	17.839	6.2369e-06	18.152	0.0046394	0.0053624	0.0015192	1144.3	5.8755e-05	5.9533e-05	1015.4	277.38	5.737e-05	5.9403e-05	297.29	86.714	91.693	20.833	5.951e-05	22.617	109.200	-78.979	-49.226	-103.650	-7.785	208.734	-104.986	-99.309	95.140	167.504	-100.957	-97.033	-95.438	-90.000	-7.352	-93.120	-8191	255	
21723.479	1	1	0	0	0.22661	0.21242	0.17679	0.082092	0.23162	0.03114	0.018191	0.1328	0.036209	0.17844	0.16653	0.16717	0.10506	0.16624	0.25191	0.099885	-2.3021	-2.2812	-2.1271	-2.8208	-2.1	-2.5104	-2.7562	-2.0521	-2.5708	-2.1813	-2.1646	-2.8104	-2.3187	-2.5083	-2.7146	-1.9042	153.676	-33.813	40.884	217.783	149.350	159.629	194.607	233.724	-37.845	-94.681	208.727	88.389	203.100	164.263	223.405	-14.201	0.00024979	0.0014638	0.0001822	1073.1	5.0578e-06	7.1593e-06	981.64	264.93	1.0738e-05	3.7326e-06	273.51	78.634	78.867	17.915	1.2288e-05	18.373	0.0046618	0.0054747	0.0015396	1146.7	5.8473e-05	5.9855e-05	1014.9	277.1	5.6505e-05	5.9473e-05	296.53	86.565	91.712	20.807	5.8532e-05	22.589	160.804	187.586	174.007	-104.132	110.720	84.837	-104.579	-99.038	-34.509	123.472	-100.377	-97.214	-95.111	-90.249	-85.135	-92.271	-8191	255	
21723.574	1	1	0	0	0.23255	0.1649	0.14767	0.28791	0.17443	0.11934	0.022087	0.32685	0.17367	0.097128	0.24373	0.044492	0.11979	0.25122	0.3122	0.030308	-2.3187	-2.3833	-1.9854	-2.6312	-2.0312	-2.2833	-2.8312	-2.175	-2.7458	-2.5854	-1.9604	-2.675	-2.1354	-2.1937	-2.7792	-2.0854	154.174	189.614	226.938	211.862	-112.141	-66.575	-116.116	149.397	-97.144	-88.992	35.480	-115.273	64.011	18.067	70.383	159.460	0.00017919	0.00038744	0.00039224	1072.2	7.8291e-06	1.0761e-05	975.44	265.64	1.7055e-06	8.7089e-06	275.2	78.223	79.242	17.939	1.3562e-05	18.349	0.0046297	0.0053554	0.0015298	1143.8	5.8589e-05	5.9672e-05	1012.8	277.81	5.6943e-05	5.9314e-05	296.75	86.331	91.395	20.85	5.8386e-05	22.512	128.577	-48.664	-52.612	-103.502	63.047	15.947	-104.654	-99.082	55.553	67.590	-100.924	-96.997	-96.176	-89.963	-68.706	-93.054	-8191	255	
21723.672	1	1	0	0	0.16935	0.15433	0.3225	0.18031	0.02467	0.18047	0.34343	0.25064	0.19208	0.26917	0.13954	0.074819	0.11052	0.22027	0.11389	0.36707	-2.3083	-2.5375	-2.0771	-2.7667	-1.9292	-2.1	-3.0167	-2.1458	-2.1875	-2.5125	-1.9562	-2.7854	-2.275	-2.2229	-2.7625	-2.0333	15.960	149.436	99.146	-17.163	-4.566	-114.844	198.983	187.383	-86.072	211.967	159.307	-66.247	146.708	-54.598	136.343	225.105	0.00020831	0.000697	0.00030155	1067.2	1.5065e-06	4.9727e-06	981.11	264.63	7.4367e-06	1.2457e-05	273.88	78.357	79.534	17.852	6.1971e-06	18.367	0.0045953	0.0053983	0.0015214	1142.6	5.8223e-05	5.9879e-05	1014.8	276.99	5.6655e-05	5.9681e-05	295.85	86.307	91.748	20.836	5.8083e-05	22.564	158.462	-102.460	-70.088	-103.461	-115.898	37.209	-104.601	-99.186	51.931	46.013	-100.519	-97.339	-95.833	-90.366	114.816	-92.485	-8191	255	
21723.766	1	1	0	0	0.088153	0.23206	0.15414	0.29333	0.030479	0.13567	0.1277	0.11782	0.10163	0.09896	0.27145	0.084923	0.052023	0.087014	0.18728	0.057116	-2.0125	-2.5812	-1.825	-2.7708	-2.3063	-1.9167	-2.9875	-2.2062	-2.3396	-2.6333	-2.0083	-2.6458	-2.4167	-2.1375	-2.7167	-1.9813	25.150	60.569	170.141	211.229	-4.797	15.228	195.930	118.072	43.810	51.231	-78.721	132.130	200.256	41.725	-39.089	47.934	0.0002886	0.00053565	0.00038663	1076.8	1.2567e-05	8.3538e-06	985.34	264.85	1.2837e-05	1.5343e-05	274.24	78.477	79.797	17.867	1.2117e-05	18.498	0.0046566	0.0054395	0.001524	1144.6	5.8844e-05	5.9621e-05	1015.3	277.09	5.7141e-05	5.9487e-05	297.01	86.607	91.988	20.792	5.7304e-05	22.54	192.572	222.894	-100.587	-103.389	101.271	7.785	-104.565	-99.479	-56.856	-7.545	-100.848	-97.486	-95.503	-89.917	138.183	-92.899	-8191	255	
21723.861	1	1	0	0	0.28488	0.17015	0.07358	0.27788	0.16424	0.24074	0.23191	0.1936	0.14617	0.13848	0.088359	0.1783	0.18133	0.080496	0.13218	0.1375	-1.8813	-2.7062	-1.8604	-2.5917	-2.4396	-2.0333	-2.9562	-2.05	-2.0167	-2.7292	-1.9625	-2.5458	-2.5375	-2.0229	-2.6875	-2.1604	-81.461	140.078	86.490	196.757	39.233	14.676	192.076	181.622	136.718	3.036	187.552	176.686	202.468	188.355	148.764	225.338	0.00030868	0.0012173	0.00021612	1071.6	1.0843e-05	8.4505e-06	982.78	266.03	8.5229e-06	3.3583e-06	274.56	78.842	79.797	17.992	7.1672e-06	18.318	0.004653	0.0053714	0.0014853	1143.5	5.8149e-05	5.8998e-05	1017.1	277.92	5.6974e-05	5.9027e-05	296.24	86.508	91.778	20.83	5.7025e-05	22.454	158.044	-25.444	24.961	-103.544	32.565	93.498	-104.554	-99.079	61.791	-28.638	-100.356	-97.475	-95.697	-90.875	136.527	-92.687	-8191	255	
21723.959	1	1	0	0	0.034618	0.16685	0.22681	0.23639	0.34065	0.24067	0.2488	0.30585	0.10179	0.11717	0.13912	0.24901	0.034486	0.23331	0.19123	0.21756	-1.6938	-2.825	-1.8542	-2.3417	-2.4938	-1.9542	-2.8104	-2.4208	-2.0896	-2.7542	-2.1458	-2.4292	-2.6771	-1.8833	-2.7062	-2.3271	126.710	152.773	25.778	201.517	25.793	-64.330	220.263	215.473	41.317	140.418	174.323	-53.446	-82.966	87.725	-112.749	102.923	0.00011827	0.00047439	0.00038364	1070.2	8.9929e-06	7.0783e-06	983.96	266.16	1.0852e-05	8.9797e-06	273.41	78.155	79.482	17.855	3.4879e-06	18.187	0.0046051	0.0052833	0.0014783	1143.2	5.7916e-05	5.8536e-05	1014.5	277.58	5.6483e-05	5.8261e-05	295.33	86.31	91.589	20.727	5.6636e-05	22.362	131.219	-32.656	-81.719	-103.595	222.199	-114.386	-104.465	-99.070	-3.766	18.900	-100.483	-97.087	-95.076	-90.598	199.808	-92.941	-8191	255	
21724.078	1	1	0	0	0.061316	0.11336	0.13737	0.14482	0.17686	0.23465	0.1396	0.062225	0.20813	0.075856	0.28979	0.14512	0.18	0.069144	0.3169	0.1961	-1.5187	-2.75	-1.9896	-2.5542	-2.6208	-1.9667	-2.8312	-2.4188	-2.0146	-2.6792	-2.0146	-2.2521	-2.5292	-1.8583	-2.5083	-2.5687	69.449	84.180	96.275	-103.061	205.002	112.848	213.383	-24.019	129.594	-93.622	195.765	102.857	-37.609	236.887	-79.089	132.565	0.00016692	0.00082596	0.00014029	1073.6	1.0663e-05	5.765e-06	978.72	264.64	7.7252e-06	7.1534e-06	273.55	78.702	79.449	17.847	8.319e-06	18.476	0.0045305	0.0052302	0.0014711	1143.4	5.7754e-05	5.8376e-05	1011.6	277.08	5.724e-05	5.8337e-05	295.34	86.527	91.424	20.728	5.6754e-05	22.527	177.860	-42.921	123.781	-103.306	2.145	65.381	-104.628	-99.278	43.271	242.081	-100.503	-96.825	-95.471	-90.076	217.797	-92.491	-8191	255	
21724.176	1	1	0	0	0.11672	0.13954	0.11358	0.052153	0.06118	0.17631	0.3247	0.20433	0.050226	0.13089	0.085188	0.086215	0.060578	0.079333	0.22264	0.068206	-1.7	-2.6792	-2.2958	-2.2854	-2.8708	-1.9979	-2.7167	-2.5625	-1.8979	-2.6958	-2.2333	-2.2354	-2.7687	-2.2062	-2.3167	-2.6458	50.466	60.765	19.398	122.681	115.985	229.666	195.599	-96.474	-36.370	43.786	107.954	74.416	-73.405	114.692	41.057	164.353	0.00052835	0.0011268	0.00018714	1067.7	7.2269e-06	1.7555e-05	983.82	265.69	1.4393e-05	1.5247e-05	273.48	79.871	80.713	17.978	1.1521e-05	18.413	0.0045845	0.0052455	0.0014649	1141.1	5.6756e-05	5.7659e-05	1015.4	278.52	5.5742e-05	5.7543e-05	297.74	87.209	92.324	20.836	5.6698e-05	22.49	156.523	52.672	-4.867	-103.479	-35.531	-10.575	-104.504	-99.007	-44.930	-35.198	-100.686	-97.587	-95.540	-90.636	15.604	-92.501	-8191	255	
21724.271	1	1	0	0	0.15409	0.088369	0.22392	0.28705	0.15527	0.28004	0.19869	0.19146	0.11036	0.34041	0.22118	0.24042	0.18087	0.20082	0.18217	0.33519	-1.4292	-2.5604	-2.3563	-2.2292	-2.8187	-1.9979	-2.5083	-2.6729	-1.9021	-2.7583	-2.3688	-2.0563	-2.7625	-1.9917	-2.4938	-2.7646	-27.935	218.267	121.343	-114.108	43.691	95.121	222.644	97.860	152.507	185.022	195.784	14.614	233.370	1.551	185.377	57.759	0.00020696	0.00048248	0.0002429	1073.3	5.2955e-06	5.3404e-06	990	268	1.9304e-05	1.6141e-05	276.63	79.38	80.544	18.016	1.5186e-05	18.441	0.0045481	0.005195	0.0014689	1146.6	5.6315e-05	5.7132e-05	1022.3	280.15	5.4918e-05	5.7393e-05	298.9	87.381	92.307	20.837	5.6646e-05	22.535	116.471	-7.615	149.954	-103.458	-10.989	-93.531	-104.453	-99.024	-83.174	22.776	-100.632	-97.132	-95.510	-90.933	-4.055	-92.901	-8191	255	
21724.367	1	1	0	0	0.33951	0.26232	0.12912	0.21673	0.088439	0.22558	0.10519	0.046883	0.17496	0.051307	0.060029	0.13402	0.071769	0.055638	0.27864	0.20082	-1.6417	-2.6896	-2.2708	-2.1271	-2.6771	-2.0958	-2.4125	-2.7292	-1.7563	-2.6646	-2.5604	-2.0333	-2.8021	-2.1708	-2.2104	-3.0125	111.974	189.778	51.250	-52.119	23.965	87.100	192.191	37.329	112.266	-78.323	27.712	-94.221	0.495	21.373	19.661	62.724	0.00033662	0.00031079	0.00015487	1073.1	6.1352e-06	6.1412e-06	990.44	267.47	6.1911e-06	9.357e-06	274.88	78.362	79.395	17.932	6.2845e-06	18.254	0.0044937	0.0051902	0.0014611	1145.5	5.6532e-05	5.7162e-05	1017.4	279	5.5173e-05	5.7689e-05	296.9	86.406	91.794	20.788	5.7254e-05	22.403	144.918	-63.789	162.836	-103.682	0.805	-38.853	-104.316	-99.028	-91.002	104.547	-100.317	-97.239	-95.312	-90.189	182.008	-92.459	-8191	255	
21724.465	1	1	0	0	0.23247	0.23038	0.20786	0.41015	0.12038	0.22108	0.25523	0.21816	0.12693	0.10125	0.21883	0.0688	0.059874	0.29262	0.20114	0.043581	-1.3854	-2.4333	-2.4708	-2.0229	-2.7292	-2.1708	-2.1688	-2.6688	-2.0104	-2.3979	-2.5146	-1.8167	-2.8021	-2.1708	-2.0646	-2.7	112.223	-62.852	24.463	221.968	205.202	-116.111	102.641	212.929	-114.562	-53.128	149.991	108.795	-98.113	83.605	-47.515	125.176	0.00030985	0.00073473	0.00031483	1061.1	1.89e-05	1.0678e-05	980.15	263.83	2.5719e-06	1.0212e-05	270.75	77.403	78.342	17.639	1.2505e-05	18.1	0.0045131	0.005274	0.0014795	1139.1	5.7688e-05	5.9186e-05	1011.5	276.13	5.7511e-05	6.0694e-05	294.26	85.767	90.865	20.656	5.9454e-05	22.353	132.541	67.813	-114.954	-103.660	60.718	23.798	-104.308	-99.234	-68.369	241.530	-100.594	-97.181	-94.749	-90.150	65.370	-93.271	-8191	255	
21724.561	1	1	0	0	0.33418	0.16939	0.19697	0.22666	0.080475	0.067654	0.24154	0.19032	0.19265	0.3437	0.27735	0.25104	0.13099	0.14997	0.29736	0.26491	-1.5312	-2.2562	-2.4292	-1.9792	-2.775	-2.4396	-2.2	-2.95	-2.1562	-2.2938	-2.6167	-1.9688	-2.7146	-2.4917	-1.9771	-2.725	115.041	-35.157	-45.190	-77.803	-44.216	-10.411	182.598	141.632	230.533	-79.645	46.581	-16.430	-54.669	232.062	-117.023	36.920	0.00024519	0.00012731	0.00019288	1063.9	3.9696e-06	5.9737e-06	972.32	263.51	2.595e-06	6.6169e-06	269.64	77.716	78.149	17.807	3.8348e-06	18.062	0.0046418	0.0054049	0.0015308	1137.6	5.8112e-05	5.9845e-05	1008.7	275.78	5.7177e-05	6.073e-05	294.38	85.519	90.965	20.778	5.8986e-05	22.358	150.825	37.228	68.267	-103.571	21.176	98.590	-104.215	-99.204	61.831	105.450	-100.764	-96.913	-95.164	-89.874	-41.965	-93.411	-8191	255	
21724.680	1	1	0	0	0.1548	0.22133	0.16608	0.13872	0.19062	0.17244	0.25815	0.25764	0.17998	0.097731	0.069203	0.33758	0.13064	0.11646	0.17469	0.054642	-1.6458	-1.9979	-2.6417	-2.1271	-2.3292	-2.3229	-2.1458	-2.6188	-2.0229	-2.2687	-2.7562	-1.9667	-2.5083	-2.5896	-2.0229	-2.7417	193.474	-24.343	16.287	120.412	222.186	103.520	103.386	185.068	-56.518	105.492	99.866	120.365	-65.341	120.724	-15.011	-15.000	0.00017996	0.00028665	0.00013846	1063.9	1.1254e-05	9.4386e-06	974.27	262.38	9.3284e-06	1.6833e-05	271.49	76.903	77.956	17.742	1.2544e-05	18.162	0.0046516	0.0054789	0.0015372	1137.6	5.8518e-05	5.9867e-05	1009.2	275.65	5.805e-05	6.0934e-05	294.85	85.449	91.093	20.813	5.9697e-05	22.448	179.709	2.974	-50.006	-103.545	161.535	-50.365	-104.635	-99.194	-113.677	18.429	-100.817	-97.197	-95.214	-90.284	16.609	-92.854	-8191	255	
#DATA ENDS
