BOXY.EXE: ISS Imagent and Oximeter Data Acquisition Program Version 0.80
Ascii Record File

#ACQ INFORMATION
2  Detector Channels 
16  External MUX Channels 
1  Auxiliary Channels 
5000  Waveform (CCF) Frequency (Hz)
1  Waveforms Skipped 
30  Waveforms Averaged 
1  Cycles Averaged 
16  Acquisitions per Waveform 
10.0806  Updata Rate (Hz) 

#FILE INFORMATION
TRUE -- External MUX Channel results are PARSED.
FALSE -- AC DC and Phase are NOT grouped.
TRUE -- Companion Program Settings File CREATED.
FALSE -- AC data not excluded
FALSE -- DC data not excluded
FALSE -- Phase data not excluded
FALSE -- Auxillary Chn. data not excluded
Tab delimiters

#CALIBRATION STATE
TRUE -- Waveform Calibration Values APPLIED.


#AUX CALIBRATION VALUES
Val Type	aux-1	

Term	1.0000e+00	
Factor	0.0000e+00	


#WF CALIBRATION VALUES
A = Detector Channel
Val Type	A-AC1	A-AC2	A-AC3	A-AC4	A-AC5	A-AC6	A-AC7	A-AC8	A-AC9	A-AC10	A-AC11	A-AC12	A-AC13	A-AC14	A-AC15	A-AC16	A-DC1	A-DC2	A-DC3	A-DC4	A-DC5	A-DC6	A-DC7	A-DC8	A-DC9	A-DC10	A-DC11	A-DC12	A-DC13	A-DC14	A-DC15	A-DC16	A-Ph1	A-Ph2	A-Ph3	A-Ph4	A-Ph5	A-Ph6	A-Ph7	A-Ph8	A-Ph9	A-Ph10	A-Ph11	A-Ph12	A-Ph13	A-Ph14	A-Ph15	A-Ph16	

Term	0.00000e+00	0.00000e+00	0.00000e+00	0.00000e+00	0.00000e+00	0.00000e+00	0.00000e+00	0.00000e+00	0.00000e+00	0.00000e+00	0.00000e+00	0.00000e+00	0.00000e+00	0.00000e+00	0.00000e+00	0.00000e+00	0.00000e+00	0.00000e+00	0.00000e+00	0.00000e+00	0.00000e+00	0.00000e+00	0.00000e+00	0.00000e+00	0.00000e+00	0.00000e+00	0.00000e+00	0.00000e+00	0.00000e+00	0.00000e+00	0.00000e+00	0.00000e+00	0.00000e+00	0.00000e+00	0.00000e+00	0.00000e+00	0.00000e+00	0.00000e+00	0.00000e+00	0.00000e+00	0.00000e+00	0.00000e+00	0.00000e+00	0.00000e+00	0.00000e+00	0.00000e+00	0.00000e+00	0.00000e+00	
Factor	1.00000e+00	1.00000e+00	1.00000e+00	1.00000e+00	1.00000e+00	1.00000e+00	1.00000e+00	1.00000e+00	1.00000e+00	1.00000e+00	1.00000e+00	1.00000e+00	1.00000e+00	1.00000e+00	1.00000e+00	1.00000e+00	1.00000e+00	1.00000e+00	1.00000e+00	1.00000e+00	1.00000e+00	1.00000e+00	1.00000e+00	1.00000e+00	1.00000e+00	1.00000e+00	1.00000e+00	1.00000e+00	1.00000e+00	1.00000e+00	1.00000e+00	1.00000e+00	X	X	X	X	X	X	X	X	X	X	X	X	X	X	X	X	

B = Detector Channel
Val Type	B-AC1	B-AC2	B-AC3	B-AC4	B-AC5	B-AC6	B-AC7	B-AC8	B-AC9	B-AC10	B-AC11	B-AC12	B-AC13	B-AC14	B-AC15	B-AC16	B-DC1	B-DC2	B-DC3	B-DC4	B-DC5	B-DC6	B-DC7	B-DC8	B-DC9	B-DC10	B-DC11	B-DC12	B-DC13	B-DC14	B-DC15	B-DC16	B-Ph1	B-Ph2	B-Ph3	B-Ph4	B-Ph5	B-Ph6	B-Ph7	B-Ph8	B-Ph9	B-Ph10	B-Ph11	B-Ph12	B-Ph13	B-Ph14	B-Ph15	B-Ph16	

Term	0.00000e+00	0.00000e+00	0.00000e+00	0.00000e+00	0.00000e+00	0.00000e+00	0.00000e+00	0.00000e+00	0.00000e+00	0.00000e+00	0.00000e+00	0.00000e+00	0.00000e+00	0.00000e+00	0.00000e+00	0.00000e+00	0.00000e+00	0.00000e+00	0.00000e+00	0.00000e+00	0.00000e+00	0.00000e+00	0.00000e+00	0.00000e+00	0.00000e+00	0.00000e+00	0.00000e+00	0.00000e+00	0.00000e+00	0.00000e+00	0.00000e+00	0.00000e+00	-1.51084e+02	-1.28834e+02	-1.28025e+02	-1.86409e+02	-7.68898e+01	-6.93831e+01	-1.58531e+02	-1.62015e+02	-7.47914e+01	-6.79359e+01	-1.72014e+02	-1.71423e+02	-1.83400e+02	-1.77421e+02	-7.05656e+01	-1.49763e+02	
Factor	2.11876e-05	1.39541e-04	4.21210e-05	2.80485e-01	1.28048e-06	1.60148e-06	1.54187e-01	4.54447e-02	1.08396e-06	1.57593e-06	7.46426e-02	2.54121e-02	3.58899e-02	8.15869e-03	1.32146e-06	1.15051e-02	9.79520e-06	1.44465e-05	4.03494e-06	1.49735e-01	1.53051e-07	1.61647e-07	7.78450e-02	2.45314e-02	1.47844e-07	1.59374e-07	3.90137e-02	1.33397e-02	1.96024e-02	4.44578e-03	1.52412e-07	6.08456e-03	X	X	X	X	X	X	X	X	X	X	X	X	X	X	X	X	



#DISTANCE SETTINGS
A = Detector Channel
A-1	A-2	A-3	A-4	A-5	A-6	A-7	A-8	A-9	A-10	A-11	A-12	A-13	A-14	A-15	A-16	

2.5000e+00	3.0000e+00	2.5000e+00	3.0000e+00	2.0000e+00	3.0000e+00	1.5000e+00	3.0000e+00	3.0000e+00	3.0000e+00	3.0000e+00	3.0000e+00	3.0000e+00	3.0000e+00	1.5000e+00	3.0000e+00	

B = Detector Channel
B-1	B-2	B-3	B-4	B-5	B-6	B-7	B-8	B-9	B-10	B-11	B-12	B-13	B-14	B-15	B-16	

1.0000e+01	1.0000e+01	1.0000e+01	1.4400e+00	1.0000e+01	1.0000e+01	1.5100e+00	1.9400e+00	1.0000e+01	1.0000e+01	1.9900e+00	2.4900e+00	2.4100e+00	2.9000e+00	1.0000e+01	2.9800e+00	




#DATA BEGINS
time	group	step	mark	flag	A-AC1	A-AC2	A-AC3	A-AC4	A-AC5	A-AC6	A-AC7	A-AC8	A-AC9	A-AC10	A-AC11	A-AC12	A-AC13	A-AC14	A-AC15	A-AC16	A-DC1	A-DC2	A-DC3	A-DC4	A-DC5	A-DC6	A-DC7	A-DC8	A-DC9	A-DC10	A-DC11	A-DC12	A-DC13	A-DC14	A-DC15	A-DC16	A-Ph1	A-Ph2	A-Ph3	A-Ph4	A-Ph5	A-Ph6	A-Ph7	A-Ph8	A-Ph9	A-Ph10	A-Ph11	A-Ph12	A-Ph13	A-Ph14	A-Ph15	A-Ph16	B-AC1	B-AC2	B-AC3	B-AC4	B-AC5	B-AC6	B-AC7	B-AC8	B-AC9	B-AC10	B-AC11	B-AC12	B-AC13	B-AC14	B-AC15	B-AC16	B-DC1	B-DC2	B-DC3	B-DC4	B-DC5	B-DC6	B-DC7	B-DC8	B-DC9	B-DC10	B-DC11	B-DC12	B-DC13	B-DC14	B-DC15	B-DC16	B-Ph1	B-Ph2	B-Ph3	B-Ph4	B-Ph5	B-Ph6	B-Ph7	B-Ph8	B-Ph9	B-Ph10	B-Ph11	B-Ph12	B-Ph13	B-Ph14	B-Ph15	B-Ph16	aux-1	digaux	

29113.316	1	1	0	256	0.2125	0.21035	0.13994	0.084716	0.11603	0.17087	0.19051	0.17681	0.17995	0.34188	0.13549	0.045003	0.10502	0.23199	0.2188	0.36096	-2.625	-1.9688	-2.5875	-2.7521	-2.2875	-3	-2.5042	-2.2896	-3	-1.975	-2.7854	-2.7854	-2.1604	-2.9021	-2.5333	-2.3937	454.570	394.688	387.333	156.903	269.892	212.094	448.815	475.943	315.997	213.124	453.110	209.596	497.660	203.985	369.098	435.930	0.0003466	0.00033866	0.00010399	1022	3.4574e-06	1.045e-06	1130.5	209.16	2.7598e-06	2.1433e-06	275.73	79.525	61.723	17.305	1.2837e-06	24.511	0.00060624	0.0007663	0.00020525	1012.5	8.1365e-06	8.3743e-06	1126.3	209.3	7.9128e-06	8.5869e-06	276.97	80.258	62.094	17.722	8.5989e-06	25.294	168.244	255.581	219.029	157.017	251.573	351.027	156.768	164.610	290.497	376.247	164.435	170.558	170.626	178.453	321.319	178.032	-8191	255	
29113.412	1	1	0	0	0.17355	0.19328	0.12864	0.22175	0.1097	0.35963	0.25076	0.28818	0.18793	0.17303	0.23754	0.16998	0.0898	0.1475	0.1926	0.17019	-2.3563	-2.1875	-2.6063	-2.8833	-2.0333	-2.8438	-2.5833	-2.2042	-2.8688	-2.2667	-2.4958	-2.9229	-2.0438	-2.9583	-2.6437	-2.4	404.084	422.685	475.041	164.432	224.218	337.773	448.991	497.126	428.846	410.395	457.593	504.351	150.520	222.187	431.338	435.407	0.00031271	0.00050347	7.8498e-05	1020.8	3.454e-06	5.2775e-06	1144.6	211.34	2.2102e-06	3.4582e-06	278.02	80.549	61.579	17.352	3.0333e-06	24.668	0.00066899	0.00086146	0.00023188	1016.2	9.4767e-06	9.6042e-06	1136.8	210.75	9.0887e-06	9.2543e-06	278.8	81.01	62.267	17.834	9.1533e-06	25.494	170.899	271.273	274.759	157.084	333.439	305.237	156.800	164.852	341.223	327.294	164.738	170.593	170.639	178.623	335.576	178.307	-8191	255	
29113.510	1	1	0	0	0.045423	0.15304	0.055583	0.091177	0.038718	0.22359	0.24911	0.21464	0.27405	0.14006	0.32331	0.10983	0.13286	0.022573	0.13083	0.083327	-2.6312	-2.2417	-2.5354	-2.8792	-2.1042	-2.8292	-2.8042	-2.3229	-3.0521	-2.4917	-2.375	-3.0417	-2.0708	-2.8042	-2.6625	-2.2354	281.538	352.668	472.871	377.957	347.009	393.165	431.556	411.172	398.610	453.893	171.707	443.096	324.262	411.219	289.808	219.226	0.00032556	0.00035277	0.00010538	1037	1.9602e-06	2.013e-06	1153.7	212.09	4.4856e-06	6.1872e-06	277.29	79.958	61.714	17.549	4.2375e-06	24.803	0.00069419	0.00087413	0.00024709	1025.8	9.5309e-06	9.5284e-06	1143.7	211.31	9.531e-06	9.7175e-06	278.29	80.967	62.695	17.841	9.2758e-06	25.457	171.737	235.324	228.742	157.128	300.744	291.080	157.026	164.754	283.953	313.920	164.565	170.794	170.481	178.774	270.486	178.340	-8191	255	
29113.631	1	1	0	0	0.10824	0.1652	0.15054	0.077137	0.17378	0.21373	0.10805	0.46647	0.23613	0.39925	0.11232	0.065689	0.13561	0.14498	0.045348	0.17323	-2.5563	-2.4688	-2.2458	-3.1521	-2.1271	-2.6875	-3.0354	-2.1292	-2.9771	-2.3042	-2.5312	-2.9437	-2.3563	-2.6958	-2.8438	-2.1417	225.204	196.572	421.482	266.938	401.237	323.415	436.860	503.047	294.357	347.985	199.856	299.753	194.250	235.444	399.980	410.599	0.00032239	0.00060019	8.0099e-05	1032.9	3.3718e-06	2.5911e-06	1151.4	212.42	3.6188e-06	1.6226e-06	279.6	79.971	62.016	17.286	1.9595e-06	24.806	0.00071787	0.0008915	0.00024448	1025.7	9.5529e-06	9.5395e-06	1141.2	211.55	8.9159e-06	9.0538e-06	279.11	81.12	62.635	17.815	8.5979e-06	25.525	175.614	225.818	238.270	157.225	297.420	227.771	156.828	164.947	279.210	378.458	164.506	170.815	171.195	178.681	222.897	177.808	-8191	255	
29113.727	1	1	0	0	0.027603	0.22434	0.077561	0.051253	0.032609	0.12555	0.10819	0.16918	0.11835	0.16266	0.20172	0.15718	0.25432	0.27034	0.1749	0.067966	-2.4458	-2.6333	-2.1771	-3.0167	-2.2229	-2.6583	-3.0208	-2.1792	-2.8146	-2.5333	-2.2958	-3.0646	-2.3	-2.4417	-2.8708	-2.1042	235.772	404.633	250.658	167.077	217.282	219.240	151.954	162.787	152.734	500.706	503.336	191.533	441.939	427.952	496.835	147.985	0.00036644	9.2445e-05	7.6795e-05	1041.5	1.5197e-06	1.9244e-06	1158.8	211.68	2.9064e-06	4.0488e-07	277.04	80.008	61.409	17.465	3.8775e-06	24.751	0.00064181	0.00080416	0.00022486	1028.3	8.7676e-06	8.7556e-06	1144.7	210.86	8.0618e-06	8.4057e-06	278.49	80.966	62.415	17.786	8.2944e-06	25.32	170.656	204.118	242.318	157.535	390.758	290.221	156.926	164.957	261.860	211.450	163.801	170.452	170.861	178.594	270.535	178.059	-8191	255	
29113.822	1	1	0	0	0.19072	0.10892	0.20185	0.087058	0.24544	0.10981	0.30113	0.35411	0.065163	0.22882	0.12285	0.36171	0.14489	0.16844	0.19949	0.26033	-2.2125	-2.5	-2.225	-3.0167	-2.325	-2.4188	-3.1042	-2.2458	-2.6083	-2.5917	-2.0062	-2.9417	-2.4521	-2.3583	-2.9708	-2.1979	387.994	447.257	437.005	337.117	447.287	229.798	420.315	501.740	170.007	391.776	340.652	504.673	218.418	469.958	463.995	170.740	0.00039509	0.00024377	0.00011068	1034.4	5.6684e-06	6.7032e-06	1150.8	208.79	2.2423e-06	4.3634e-06	280.19	79.877	61.725	17.514	2.8831e-06	24.73	0.00063583	0.00079146	0.00021928	1024.4	8.6014e-06	8.9691e-06	1143.5	210.27	8.2316e-06	8.8775e-06	279.51	80.877	62.34	17.859	8.6973e-06	25.359	166.402	309.075	203.445	156.901	275.398	282.880	157.054	164.621	281.569	328.728	164.683	170.689	171.107	179.088	266.094	178.286	-8191	255	
29113.920	1	1	0	0	0.10927	0.078819	0.08472	0.23442	0.21344	0.11813	0.089955	0.13363	0.15609	0.21272	0.16612	0.21847	0.19891	0.15871	0.23333	0.13607	-2.3063	-2.7458	-2.0563	-2.9604	-2.4208	-2.3312	-3.0771	-2.3583	-2.4771	-2.7792	-2.3729	-2.9188	-2.5083	-2.2	-2.7542	-2.3187	271.076	247.599	440.496	428.394	437.545	259.383	200.622	488.139	211.937	483.868	154.975	171.629	349.717	295.030	338.846	374.617	0.00032786	0.00013076	3.839e-05	1040.2	1.1071e-06	2.3145e-06	1152.5	210.07	2.8634e-06	6.9851e-06	278.15	79.914	61.936	17.657	3.4396e-06	24.895	0.00066136	0.0008242	0.00023461	1027.3	8.8202e-06	9.3883e-06	1143.2	210.47	8.7185e-06	9.2327e-06	279.3	80.931	62.632	17.928	9.0806e-06	25.462	175.632	291.204	223.228	156.671	297.134	347.235	157.236	164.820	334.244	333.579	164.633	171.082	170.934	178.739	291.513	177.759	-8191	255	
29114.016	1	1	0	0	0.035896	0.05172	0.056874	0.12216	0.18304	0.056739	0.24454	0.053578	0.27455	0.15505	0.13512	0.16533	0.31977	0.20795	0.27348	0.35358	-1.9771	-2.6792	-1.9917	-2.7854	-2.6042	-2.0771	-3.1312	-2.3875	-2.5042	-2.8312	-2.0729	-2.7896	-2.7313	-2.2729	-2.9542	-2.3146	420.572	424.225	419.762	497.164	372.643	452.197	501.631	171.736	397.569	381.621	460.076	447.363	155.673	478.053	330.891	199.664	0.00035858	0.00041352	2.9918e-05	1040.2	3.6051e-06	3.5148e-06	1153.9	210.74	2.4482e-06	5.0052e-06	277.75	80.56	61.808	17.376	4.4399e-06	24.836	0.00069013	0.00085261	0.00023518	1029.3	9.2978e-06	9.9056e-06	1144	210.48	9.2585e-06	9.7019e-06	278.91	81.22	62.576	17.868	9.4422e-06	25.495	171.506	215.586	294.089	156.813	304.649	304.987	157.128	164.508	247.184	305.564	164.442	170.414	170.890	178.353	285.129	178.291	-8191	255	
29114.109	1	1	0	0	0.10658	0.15136	0.074169	0.15051	0.16829	0.20923	0.40467	0.24417	0.17014	0.14613	0.038187	0.34701	0.34086	0.18128	0.087496	0.21111	-2.1437	-3.0292	-2.3063	-2.7167	-2.8396	-2.0792	-3.1958	-2.6771	-2.0417	-2.9458	-2.3458	-2.5646	-2.7792	-2.0792	-2.7333	-2.4792	174.843	174.550	161.644	222.841	254.950	362.435	433.540	430.731	175.034	158.027	319.953	393.797	404.742	463.440	300.595	165.694	0.00031837	0.00025796	1.6249e-05	1031.3	3.3908e-06	5.3527e-06	1156.7	212.33	4.1043e-06	4.6087e-06	279.25	80.534	61.778	17.481	5.8872e-06	24.533	0.00071387	0.00088861	0.00025419	1027.1	9.7796e-06	1.0398e-05	1146.2	211.78	9.763e-06	1.023e-05	279.53	81.172	62.871	17.919	9.6594e-06	25.451	166.257	232.047	358.799	156.739	269.357	272.752	156.541	164.118	254.182	330.848	163.962	169.968	170.214	178.338	273.225	178.125	-8191	255	
29114.230	1	1	0	0	0.12726	0.11732	0.25424	0.10885	0.42005	0.12057	0.1373	0.33912	0.11757	0.18522	0.096203	0.048994	0.039759	0.17095	0.22061	0.15676	-1.9854	-2.8958	-2.0979	-2.5187	-2.8271	-2.4708	-3.1437	-2.4708	-2.125	-2.9562	-2.3667	-2.5083	-2.925	-2.2062	-2.6792	-2.6458	202.693	431.012	364.280	233.936	471.671	396.176	395.017	437.821	207.947	441.688	497.995	475.195	326.409	372.331	173.947	462.917	0.000299	0.00036389	0.00012313	1035.4	2.7495e-06	6.4544e-06	1150.9	211.57	4.0336e-06	7.5222e-06	278.86	80.1	62.336	17.46	4.067e-06	24.745	0.00072703	0.00092509	0.00025763	1028.6	9.8137e-06	1.0076e-05	1144.3	211.54	9.5532e-06	9.9828e-06	279.75	81.034	63.023	17.878	9.394e-06	25.453	165.350	235.039	224.856	156.584	284.708	237.017	156.613	163.928	298.667	317.764	163.915	170.096	169.870	178.279	242.752	178.010	-8191	255	
29114.326	1	1	0	0	0.17007	0.26246	0.17429	0.41303	0.16891	0.20566	0.18162	0.29593	0.29782	0.095389	0.31366	0.20355	0.13832	0.15552	0.14061	0.18741	-1.7854	-2.7812	-2.0854	-2.5312	-3.0167	-2.2313	-3.1104	-2.6937	-2.1167	-2.9333	-2.5104	-2.3458	-3.0604	-2.2104	-2.6271	-2.9188	299.294	229.025	404.728	372.730	296.711	224.480	472.594	484.078	280.906	205.163	185.657	373.326	490.935	208.516	412.393	346.139	0.00038451	0.00059042	0.00011534	1035.7	3.7421e-06	4.5697e-06	1155.6	211.64	3.2419e-06	5.3301e-06	278.36	80.464	61.976	17.435	2.9809e-06	24.754	0.00070595	0.00090989	0.00024767	1030.8	9.6514e-06	1.0173e-05	1146.5	211.58	9.7593e-06	9.6664e-06	279.24	81.184	62.791	17.945	9.8683e-06	25.574	173.728	247.323	283.200	156.644	316.587	298.234	156.929	163.932	293.379	253.009	163.863	170.037	170.607	178.544	259.920	177.800	-8191	255	
29114.422	1	1	0	0	0.10702	0.13064	0.09245	0.19137	0.23825	0.10623	0.17202	0.024759	0.14792	0.068464	0.2205	0.19699	0.11526	0.21123	0.032208	0.21298	-1.8188	-3.0479	-2.2687	-2.3875	-2.9167	-2.3146	-2.9583	-2.8375	-2.0646	-2.9625	-2.5229	-2.2833	-3.0146	-2.3229	-2.6917	-2.975	233.763	465.885	319.511	375.654	427.607	320.013	476.659	418.414	272.824	194.362	399.189	425.221	396.958	474.346	229.196	496.478	0.00035285	0.00034911	6.6202e-05	1035.3	4.6878e-06	3.5109e-06	1149.5	210.93	2.4036e-06	5.2138e-06	278.87	80.353	61.919	17.578	6.1746e-06	24.552	0.00073562	0.00090324	0.0002517	1031.4	9.7356e-06	1.0279e-05	1145.8	211.73	9.7325e-06	9.9938e-06	279.63	81.153	62.898	17.969	9.7629e-06	25.461	167.779	288.192	286.838	156.901	282.487	315.531	156.857	164.074	257.182	268.567	163.728	170.692	170.436	178.145	326.922	177.675	-8191	255	
29114.494	1	1	0	0	0.055167	0.033514	0.19665	0.12002	0.18167	0.092398	0.15102	0.20607	0.13632	0.24111	0.13578	0.13884	0.082664	0.13722	0.16142	0.18358	-1.8896	-2.6583	-2.5896	-2.3417	-3.0083	-2.3958	-2.5708	-3.0333	-2.1167	-2.8979	-2.7062	-2.2021	-3.0854	-2.475	-2.3812	-2.8417	362.281	188.635	470.306	500.593	308.465	414.640	496.949	458.590	308.590	482.207	496.806	148.885	342.371	212.899	489.244	429.421	0.00039887	0.00027626	6.2443e-05	1035.8	4.0281e-06	2.7565e-06	1159.8	210.63	4.2246e-06	3.0832e-06	277.31	80.507	62.024	17.47	4.9052e-06	25.025	0.00073697	0.00092334	0.00026362	1029.7	1.009e-05	1.025e-05	1149.2	211.6	1.0033e-05	9.9801e-06	279.65	81.23	62.936	17.916	1.0254e-05	25.633	168.374	242.503	212.436	156.824	274.498	336.308	156.885	164.314	258.594	268.897	163.679	170.261	170.150	178.058	272.289	177.981	-8191	255	
29114.613	1	1	0	0	0.257	0.27032	0.051958	0.1456	0.14486	0.066825	0.31759	0.15385	0.15856	0.14791	0.22885	0.19208	0.15593	0.13192	0.32723	0.13042	-1.8333	-2.7438	-2.6125	-1.9771	-2.8542	-2.2333	-2.4083	-3.0062	-2.1	-2.7521	-2.9521	-2.0583	-2.7604	-2.4938	-2.3042	-3.0125	400.326	482.436	457.095	161.068	208.232	260.142	149.691	437.880	299.191	380.677	467.529	331.388	418.356	255.401	373.624	459.607	0.00031275	7.6721e-05	0.0001279	1039.7	2.0448e-06	4.177e-06	1158.9	212.57	3.5553e-06	4.6907e-06	277.75	80.529	62.486	17.527	3.0273e-06	24.695	0.00073552	0.00093842	0.00025661	1032	1.0302e-05	1.0508e-05	1149.3	211.87	9.7805e-06	1.0234e-05	279.95	81.426	63.1	17.964	9.9217e-06	25.547	170.990	469.340	264.084	156.597	244.656	272.295	156.998	164.201	282.625	306.419	164.107	170.607	170.686	178.208	267.802	177.854	-8191	255	
29114.711	1	1	0	0	0.24191	0.12533	0.064839	0.12226	0.17005	0.11489	0.23376	0.17628	0.074707	0.15045	0.19059	0.12419	0.058246	0.18576	0.2151	0.024133	-1.925	-2.5896	-2.8375	-2.35	-2.9125	-2.4958	-2.2979	-2.9125	-2.2917	-2.6063	-2.9896	-2.3375	-2.7708	-2.5667	-2.0521	-2.9875	323.784	251.397	486.924	445.484	339.099	330.441	399.906	439.073	364.226	360.300	311.945	463.800	225.222	160.750	235.962	423.113	0.00037644	9.8602e-05	0.00014269	1041.9	9.0423e-07	3.9075e-06	1156.4	212.2	3.2024e-06	4.963e-06	278.3	80.713	62.207	17.646	3.6283e-06	24.851	0.00073303	0.000946	0.00025931	1033.4	1.015e-05	1.033e-05	1147.3	212.28	1.0005e-05	1.0243e-05	279.74	81.593	63.154	18.007	1.0089e-05	25.566	174.627	255.656	229.334	156.852	354.266	285.692	156.635	164.636	251.180	275.318	164.125	170.581	170.996	178.271	268.528	178.063	-8191	255	
29114.807	1	1	0	0	0.082884	0.080009	0.16703	0.27074	0.033252	0.1792	0.18749	0.28243	0.31176	0.089953	0.09926	0.01302	0.046921	0.39029	0.28189	0.2093	-1.9729	-2.5229	-3.0417	-2.1646	-2.8937	-2.6333	-2.3854	-3.1229	-2.3312	-2.4083	-3.0792	-2.15	-2.7479	-2.9333	-2.1688	-3.1125	217.378	381.812	468.810	191.846	308.267	380.474	165.524	477.782	260.080	469.172	207.952	258.805	170.209	481.863	361.043	259.345	0.00034596	0.00013758	0.00015584	1039	3.2475e-06	3.3372e-06	1161.5	213.58	2.2665e-06	3.3512e-06	279.12	80.709	61.719	17.582	2.2253e-06	24.767	0.00075654	0.00096093	0.00025994	1033.4	9.9103e-06	1.0611e-05	1149.9	212.81	9.8221e-06	1.0579e-05	279.9	81.557	62.854	17.944	9.982e-06	25.569	175.526	274.134	260.095	157.085	346.928	280.448	156.717	164.218	277.575	240.399	163.782	170.461	170.272	178.253	240.120	177.728	-8191	255	
29114.902	1	1	0	0	0.2583	0.043001	0.11239	0.054176	0.12645	0.059499	0.18318	0.15513	0.089921	0.10456	0.17451	0.044143	0.30741	0.19858	0.24814	0.10381	-1.8729	-2.2521	-2.8104	-2.375	-2.6167	-2.7812	-2.3333	-2.8625	-2.6083	-2.4458	-2.9667	-2.2792	-2.3875	-2.8271	-2.0479	-2.8479	344.461	490.344	278.866	365.144	348.367	400.695	418.669	441.009	212.061	155.615	189.802	443.057	423.716	489.330	317.361	307.607	0.0003346	0.00029827	0.00012881	1043.2	2.7553e-06	3.7363e-06	1156.8	210.38	2.4677e-06	4.8373e-06	278.87	80.552	62.28	17.665	2.5782e-06	24.565	0.00072893	0.00095762	0.00025876	1036.6	1.0155e-05	1.0319e-05	1150.5	211.79	9.6995e-06	1.0384e-05	280.5	81.513	63.251	18.012	1.0271e-05	25.596	172.185	251.973	222.636	156.615	296.512	246.926	156.699	164.426	209.066	331.617	163.927	170.201	170.622	178.291	352.103	177.469	-8191	255	
29115.021	1	1	0	0	0.12102	0.23111	0.25964	0.063635	0.12401	0.11357	0.19998	0.19088	0.14158	0.17469	0.15831	0.26783	0.10906	0.096195	0.14345	0.11431	-2.1833	-2.15	-2.9229	-2.1333	-2.4542	-2.975	-2.3875	-2.8333	-2.6521	-1.9854	-2.9479	-2.3	-2.4437	-3.0729	-2.0312	-2.7562	361.905	241.757	373.685	351.248	198.898	400.856	412.827	444.018	372.004	476.820	452.746	459.066	399.012	492.548	178.712	503.794	0.00035911	0.00030997	0.00015159	1048.3	1.4601e-06	1.8456e-06	1160.2	212.84	4.36e-06	1.9302e-06	280.34	81.095	62.032	17.332	2.7613e-06	24.652	0.00074646	0.00097661	0.00026977	1038.2	1.0598e-05	1.0893e-05	1153.9	212.68	1.0265e-05	1.105e-05	281.2	81.759	63.28	17.941	1.0413e-05	25.588	175.188	193.842	255.008	157.072	406.052	261.570	156.960	164.220	272.645	318.096	164.070	170.243	170.130	178.145	285.863	177.695	-8191	255	
29115.117	1	1	0	0	0.15677	0.46335	0.11518	0.16252	0.35853	0.31467	0.33314	0.1307	0.28011	0.14463	0.24309	0.31506	0.34306	0.12373	0.26979	0.29055	-2.2687	-2.0375	-2.8812	-2.1958	-2.3438	-2.9875	-2.4292	-2.8042	-2.5625	-2.1	-3.0125	-2.6375	-2.475	-3.1667	-2.1583	-2.6729	252.988	208.777	501.009	392.447	195.106	506.398	441.796	380.285	294.738	377.195	195.964	392.220	370.699	412.671	357.685	358.703	0.00034743	0.00024098	6.288e-05	1037.9	3.4777e-06	1.4384e-06	1160.6	214.76	5.0594e-06	4.2862e-06	280.84	80.081	61.82	17.604	3.2403e-06	25.035	0.00075554	0.0010004	0.00027609	1037.8	1.0776e-05	1.0676e-05	1154.7	213.58	1.0066e-05	1.0605e-05	281.61	81.634	63.174	18.071	1.0253e-05	25.71	175.596	235.062	306.443	156.461	298.044	337.298	156.550	164.504	289.280	278.355	164.112	170.138	170.412	178.204	288.184	177.122	-8191	255	
29115.191	1	1	0	0	0.15356	0.030851	0.13761	0.24007	0.1605	0.14091	0.29165	0.13762	0.38066	0.057029	0.34243	0.29279	0.34954	0.12075	0.19621	0.11559	-2.4479	-2.2208	-2.8542	-2.5312	-2.2146	-2.9958	-2.4375	-2.5479	-2.6479	-2.1229	-2.9354	-2.325	-2.2313	-3.0271	-2.325	-2.6021	437.464	446.041	311.978	405.932	291.971	484.974	477.611	385.691	304.848	318.409	481.249	471.751	429.914	291.934	502.428	285.173	0.0003161	0.00041372	0.00011935	1051.9	1.0853e-06	8.4486e-07	1159.3	214.08	3.4656e-06	2.0995e-06	280.5	80.127	61.485	17.728	3.1999e-06	24.761	0.00077437	0.0010025	0.00027521	1043.6	1.0614e-05	1.0903e-05	1157.4	213.94	1.038e-05	1.0474e-05	282.57	81.595	63.143	18.107	1.063e-05	25.656	164.738	295.142	167.873	156.369	262.000	372.088	156.401	164.230	285.646	281.176	164.058	169.927	170.477	178.537	225.020	177.833	-8191	255	
29115.311	1	1	0	0	0.17354	0.18304	0.093624	0.14249	0.30799	0.14589	0.15537	0.25092	0.27192	0.21344	0.13378	0.10438	0.11298	0.06573	0.16338	0.08737	-2.4667	-2.1146	-2.8958	-2.5979	-2.4104	-3.0917	-2.4938	-2.7125	-2.8812	-1.925	-2.8792	-2.9542	-2.0646	-3.0771	-2.2146	-2.4167	480.371	472.334	176.615	421.729	460.407	241.418	364.924	450.118	259.929	318.467	274.774	450.915	359.829	439.326	365.160	405.819	0.00036155	0.0005363	7.229e-06	1054.7	2.306e-06	1.1921e-06	1163.8	212.44	3.0109e-06	2.6306e-06	282.46	81.629	61.91	17.669	3.1148e-06	24.883	0.00077319	0.00097327	0.00026374	1042.7	1.0555e-05	1.0564e-05	1157.6	212.9	9.9681e-06	1.07e-05	282.58	81.977	63.301	18.061	1.0588e-05	25.668	169.096	215.472	160.380	156.366	258.164	377.125	156.449	163.991	252.426	329.574	163.965	170.416	170.109	178.512	344.364	177.776	-8191	255	
29115.406	1	1	0	0	0.2023	0.22689	0.16542	0.31398	0.33219	0.28808	0.18102	0.23695	0.28377	0.26675	0.14571	0.19104	0.16517	0.19165	0.12279	0.20461	-2.5875	-2.0938	-2.7375	-2.8979	-2.0396	-3.0187	-2.4333	-2.3354	-2.8438	-2.2125	-2.7271	-2.8167	-2.2021	-2.9792	-2.4958	-2.1833	421.471	396.890	402.581	171.004	475.594	323.246	355.855	433.472	245.954	157.038	250.375	411.743	284.856	212.453	387.976	373.090	0.00034975	0.00051379	5.2671e-05	1057.9	4.9017e-06	4.6389e-06	1161.6	212.76	3.7247e-06	1.9859e-06	282.07	81.19	61.878	17.539	3.6064e-06	25.067	0.00076815	0.00098639	0.00027057	1045.1	1.0422e-05	1.0764e-05	1156.9	213.05	1.0438e-05	1.0552e-05	281.79	81.793	63.272	18.025	1.0554e-05	25.743	173.420	243.115	263.990	156.345	302.370	270.405	156.482	164.216	247.060	330.576	163.626	170.179	170.251	178.363	317.695	177.816	-8191	255	
29115.504	1	1	0	0	0.24139	0.30847	0.030199	0.23578	0.052852	0.1339	0.22029	0.29285	0.040224	0.31896	0.088857	0.32268	0.34209	0.074293	0.16233	0.27079	-2.4958	-2.1125	-2.4667	-2.9458	-2.0333	-2.7979	-2.7521	-2.3208	-2.9979	-2.2542	-2.5583	-2.9021	-2.2604	-2.8042	-2.5792	-2.0104	260.195	361.694	207.641	482.916	386.829	275.033	429.375	214.966	354.291	457.151	266.299	476.090	469.178	436.915	159.287	374.689	0.00032552	0.00063598	2.1876e-05	1049.8	1.1042e-06	4.03e-06	1165.5	213.9	6.1656e-06	2.6074e-06	280.54	81.476	62.651	17.511	6.0302e-06	24.873	0.0007575	0.00098916	0.00027232	1041.8	1.0412e-05	1.1071e-05	1157.8	213.68	1.0217e-05	1.0701e-05	281.81	81.887	63.397	18.05	1.0473e-05	25.698	174.693	233.704	265.535	156.699	315.666	282.892	156.779	164.277	308.706	311.274	163.929	170.096	170.261	178.283	298.066	177.534	-8191	255	
29115.600	1	1	0	0	0.04974	0.073592	0.091539	0.24894	0.24495	0.11965	0.14172	0.26831	0.15585	0.16272	0.11587	0.16625	0.21748	0.11789	0.12001	0.23721	-2.4479	-2.4271	-2.325	-2.975	-2.1958	-2.7833	-2.9521	-2.25	-2.8812	-2.3333	-2.3937	-3.0187	-2.25	-2.85	-2.6188	-2.2417	361.738	193.745	221.970	450.525	383.070	209.066	357.018	205.343	473.533	399.258	465.096	382.505	497.044	231.514	415.013	358.417	0.00031922	0.00049725	0.00013833	1049.6	2.1493e-06	3.8953e-06	1165.2	213.26	4.3271e-06	3.5103e-06	279.48	81.369	62.264	17.634	3.0855e-06	25.015	0.00075372	0.00097101	0.00027932	1042.9	1.0675e-05	1.0717e-05	1158	213.13	9.9216e-06	1.0451e-05	281.85	82.054	63.321	18.047	1.0398e-05	25.689	182.543	232.275	251.439	157.246	253.800	273.458	156.704	164.342	290.708	282.667	164.211	170.196	170.964	178.295	334.957	177.563	-8191	255	
29115.719	1	1	0	0	0.15029	0.12091	0.076453	0.083094	0.16286	0.072566	0.36508	0.29425	0.086582	0.11451	0.26981	0.21006	0.31418	0.26386	0.16501	0.25479	-2.7417	-2.4188	-2.1333	-3.0583	-2.1583	-2.7062	-2.825	-2.4333	-2.8125	-2.6854	-2.2687	-3.0208	-2.1167	-2.5292	-2.9042	-2.2771	266.335	197.783	194.539	503.253	180.232	368.925	427.182	466.000	155.775	408.743	377.758	429.169	349.313	381.798	251.080	259.421	0.00033218	0.00068011	0.00012024	1046.7	3.8403e-06	3.6965e-06	1168.1	212.69	2.5777e-06	4.6372e-06	278.25	80.931	62.344	17.66	4.6686e-06	25.137	0.00076505	0.00097634	0.00027537	1042.4	1.0478e-05	1.0814e-05	1159.3	212.94	9.8782e-06	1.0847e-05	280.53	81.913	63.354	18.041	1.0317e-05	25.648	172.065	238.601	225.032	156.657	323.146	214.548	156.467	163.951	271.958	293.236	163.872	170.756	170.226	177.797	274.106	177.934	-8191	255	
29115.791	1	1	0	0	0.34605	0.13025	0.24538	0.14763	0.1117	0.11985	0.44985	0.25742	0.11619	0.15398	0.2054	0.27239	0.18934	0.30502	0.081387	0.10471	-2.3646	-2.5542	-2.15	-3.0479	-2.4917	-2.5062	-3.0083	-2.4708	-2.8229	-2.7396	-2.0604	-2.8708	-2.1375	-2.3563	-2.7396	-2.3021	234.100	209.933	284.212	493.408	214.212	308.990	444.844	423.515	439.627	257.689	193.652	436.462	496.980	368.055	494.461	349.160	0.00036089	0.00048879	0.00016039	1051.1	2.3853e-06	1.2778e-06	1164.3	213.07	2.6922e-06	6.7597e-06	282.45	81.224	62.221	17.792	3.9431e-06	24.945	0.00076474	0.00098028	0.00027639	1043.8	1.0584e-05	1.0713e-05	1157.7	213.29	1.0088e-05	1.0771e-05	282.51	82.04	63.252	18.079	1.028e-05	25.684	169.553	257.498	227.016	157.149	256.666	310.947	156.838	164.128	285.674	281.095	163.876	170.305	170.582	177.945	329.262	177.570	-8191	255	
29115.912	1	1	0	0	0.073451	0.1246	0.24575	0.17311	0.12628	0.27077	0.17207	0.34433	0.095691	0.2681	0.27476	0.15302	0.21399	0.28283	0.10955	0.0978	-2.3042	-2.5604	-2.1083	-3.0542	-2.2604	-2.3708	-2.9146	-2.2687	-2.5646	-2.6688	-2.2417	-2.9125	-2.3937	-2.0979	-2.9021	-2.2896	343.214	256.121	351.414	303.040	350.958	310.538	451.437	371.076	453.813	172.623	465.920	496.045	466.332	409.800	374.022	234.657	0.00030002	0.00062468	0.00015132	1050.7	3.6581e-06	3.7644e-06	1168.4	214.8	3.1406e-06	4.0124e-06	279.8	81.183	62.412	17.648	1.2654e-06	24.792	0.0007426	0.00096021	0.00027169	1043.3	1.0362e-05	1.0915e-05	1161.6	213.56	1.0203e-05	1.0825e-05	281.7	81.89	63.335	18.091	1.018e-05	25.647	181.548	265.812	254.077	156.415	306.749	258.244	156.318	164.088	252.109	314.747	164.297	170.130	170.435	178.003	214.276	177.644	-8191	255	
29116.008	1	1	0	0	0.06299	0.22485	0.37139	0.29363	0.086531	0.18987	0.14	0.093767	0.10385	0.098664	0.22587	0.15064	0.096099	0.26927	0.092467	0.42341	-2.1729	-2.75	-2.0229	-2.7938	-2.4792	-2.1854	-2.8854	-2.2167	-2.5042	-2.8937	-2.2875	-2.9062	-2.6396	-2.1562	-2.9688	-2.2958	189.355	494.425	375.625	472.835	328.448	431.764	425.936	369.364	438.554	422.112	492.785	164.269	404.460	338.886	463.307	421.623	0.00030544	0.00024537	5.2542e-05	1056.1	2.9871e-06	4.8329e-06	1164.4	212.23	4.2657e-06	4.176e-06	280.72	81.421	62.427	17.543	2.4861e-06	25.002	0.00075566	0.00098028	0.0002743	1046.5	1.037e-05	1.0864e-05	1158.3	212.66	1.0406e-05	1.0623e-05	281.44	82.026	63.453	18.069	1.0352e-05	25.731	168.930	251.372	223.633	156.561	314.236	351.557	156.693	164.329	301.419	198.723	163.870	170.072	170.534	178.393	267.277	177.328	-8191	255	
29116.102	1	1	0	0	0.28567	0.15502	0.21753	0.065488	0.084498	0.23336	0.31511	0.15143	0.22273	0.046633	0.24265	0.14736	0.18651	0.19167	0.19863	0.067878	-2.1146	-2.9625	-2.0271	-2.8583	-2.6104	-2.2667	-3.1	-2.3125	-2.3521	-2.9271	-2.1708	-2.7333	-2.85	-2.0396	-2.875	-2.5646	385.599	359.144	472.776	156.810	328.701	484.983	441.661	262.152	427.927	285.253	446.798	466.222	453.950	482.406	201.477	439.846	0.0003125	0.000396	9.009e-05	1049.1	4.2552e-06	4.9612e-06	1170.4	213.71	2.6777e-06	3.9428e-06	280.4	80.93	63.017	17.574	2.6484e-06	24.975	0.00078284	0.00097366	0.00027848	1041.9	1.0432e-05	1.1005e-05	1161.2	213.35	1.0217e-05	1.0716e-05	281.76	81.737	63.487	18.029	1.0086e-05	25.651	169.371	261.418	227.823	156.595	218.723	376.988	156.897	164.141	264.936	320.599	164.249	170.345	170.189	178.774	304.315	177.466	-8191	255	
29116.197	1	1	0	0	0.39778	0.19779	0.28452	0.12503	0.1668	0.12983	0.27857	0.11505	0.22867	0.047298	0.17164	0.061475	0.14066	0.28638	0.069845	0.18214	-1.8979	-2.9562	-2.1292	-2.8104	-2.8292	-2.2562	-3.0312	-2.5083	-2.3667	-2.7833	-2.4958	-2.6896	-2.7125	-2.0604	-2.8521	-2.5167	319.240	391.903	368.183	163.532	443.625	215.108	465.767	446.735	389.571	354.022	456.517	471.741	202.326	466.418	250.821	417.499	0.00038548	0.00022291	6.7339e-05	1051.5	4.7236e-06	3.1719e-06	1166.6	212.73	5.0243e-06	2.0363e-06	281.67	81.047	62.129	17.474	4.8282e-06	24.983	0.00076456	0.00095461	0.00027719	1044.4	1.0721e-05	1.1239e-05	1158.9	213.18	1.0326e-05	1.0681e-05	282.05	82.009	63.28	18.056	1.0218e-05	25.693	171.732	318.112	176.260	156.604	294.127	294.154	156.675	164.132	253.609	267.650	164.517	170.608	170.767	178.188	244.456	177.901	-8191	255	
29116.318	1	1	0	0	0.094628	0.21884	0.065733	0.13866	0.28958	0.16198	0.44469	0.33291	0.062964	0.35808	0.021655	0.071764	0.26552	0.10998	0.20152	0.27644	-1.7146	-3.0729	-2.2375	-2.4437	-2.8083	-2.0042	-2.8792	-2.6562	-2.1604	-2.7583	-2.3875	-2.4	-2.9958	-2.0979	-2.6813	-2.7125	307.329	321.653	240.161	204.793	320.610	413.771	428.756	424.598	182.697	164.355	384.493	489.525	486.463	309.010	323.084	383.295	0.00033811	0.00015328	9.465e-05	1056.8	3.9463e-06	6.7156e-07	1166.1	213.77	3.534e-06	1.8373e-06	280.83	81.228	62.839	17.669	2.0638e-06	25.069	0.00077439	0.0009445	0.00027676	1045.6	1.0353e-05	1.0998e-05	1161	213.75	1.0399e-05	1.0405e-05	281.78	82.028	63.475	18.053	1.0619e-05	25.701	180.068	246.426	237.103	157.009	226.017	365.318	156.640	164.323	255.133	310.628	163.994	170.367	170.096	178.501	330.617	177.004	-8191	255	
29116.414	1	1	0	0	0.05329	0.13239	0.24735	0.32555	0.10046	0.28204	0.27489	0.090098	0.11557	0.11407	0.19338	0.14053	0.086225	0.29381	0.17477	0.1033	-1.7812	-2.7938	-2.2229	-2.3688	-2.8375	-2.4042	-2.8708	-2.9313	-2.1042	-2.8979	-2.4813	-2.4521	-2.9271	-2.3792	-2.5563	-2.8771	447.187	212.687	213.903	449.063	493.267	357.461	434.483	467.170	277.433	224.663	270.201	381.675	493.784	159.350	203.143	171.942	0.00037469	0.00019259	7.1405e-05	1045.9	5.5158e-06	4.1439e-06	1166.4	213.33	3.1936e-06	4.7673e-06	281.8	80.822	62.67	17.564	5.3988e-06	24.812	0.00077913	0.00094916	0.00027499	1043.7	1.0328e-05	1.0811e-05	1160.4	213.6	1.0195e-05	1.0287e-05	281.88	81.65	63.417	17.979	1.0498e-05	25.627	164.336	243.059	241.875	156.908	284.389	255.394	156.621	164.417	275.226	304.743	164.146	170.543	170.862	178.422	308.559	177.998	-8191	255	
29116.486	1	1	0	0	0.38441	0.078752	0.24455	0.3441	0.092278	0.051999	0.18739	0.14708	0.16192	0.061035	0.11138	0.11357	0.038556	0.26992	0.22881	0.31	-1.9104	-2.8354	-2.5062	-2.1771	-2.9771	-2.1875	-2.8271	-2.7062	-2.0687	-2.8917	-2.6896	-2.4208	-3	-2.2687	-2.35	-3.0229	445.846	281.322	379.815	474.755	193.292	370.968	444.293	441.618	197.349	438.956	412.624	316.773	466.546	268.256	244.969	461.203	0.00034924	0.00069586	9.352e-05	1050.7	6.8287e-06	2.2912e-06	1170.7	213.43	4.1064e-06	2.7219e-06	281.63	80.979	62.156	17.535	9.4184e-07	24.801	0.00077062	0.00098007	0.00027118	1044.4	1.0109e-05	1.0969e-05	1161.3	213.53	9.8994e-06	1.0532e-05	282.04	81.745	63.258	18.003	1.0472e-05	25.632	169.808	250.727	183.606	156.958	284.631	307.189	156.776	164.562	274.530	261.347	164.057	170.566	170.422	178.662	335.747	178.238	-8191	255	
29116.582	1	1	0	0	0.029917	0.17858	0.21871	0.34202	0.19238	0.13386	0.2289	0.37249	0.076018	0.18589	0.1871	0.26181	0.50705	0.078	0.23958	0.056357	-1.8146	-2.7792	-2.6708	-1.9896	-2.8521	-2.2542	-2.5812	-2.9958	-2.1042	-2.7083	-2.8021	-2.1875	-2.975	-2.4021	-2.1813	-3.075	274.663	378.194	433.284	506.384	372.749	165.151	413.555	435.787	260.095	246.785	327.151	490.541	205.372	475.497	295.077	369.899	0.00037917	0.00034879	0.00014385	1053	2.3458e-06	5.2626e-06	1166.2	212.92	1.9562e-06	3.1504e-06	279.45	80.987	62.333	17.517	4.0268e-06	24.731	0.00077535	0.00096292	0.00028174	1043.5	1.0422e-05	1.0784e-05	1157.7	212.88	1.0122e-05	1.0724e-05	281.17	81.845	63.304	17.959	1.0255e-05	25.586	169.869	279.748	255.429	156.894	215.118	308.881	157.025	164.459	294.838	252.167	164.354	170.449	170.679	178.713	309.789	178.466	-8191	255	
29116.703	1	1	0	0	0.016295	0.095638	0.22275	0.28331	0.15186	0.23107	0.075853	0.20072	0.088493	0.08419	0.1937	0.13157	0.22605	0.14496	0.21023	0.15332	-1.6812	-2.7042	-2.8271	-2.1625	-2.9042	-2.4417	-2.3625	-2.9854	-2.0812	-2.5104	-2.9042	-1.9979	-2.8583	-2.5375	-2.15	-2.8792	213.299	421.858	402.938	441.902	258.008	291.129	481.389	352.156	153.447	418.797	371.149	364.526	195.460	184.709	495.375	465.868	0.00032288	7.4018e-05	0.00011572	1055.5	2.8409e-06	1.1054e-06	1166.1	211.93	2.5897e-06	1.4286e-06	280.71	80.915	61.99	17.554	6.0929e-06	24.839	0.00075611	0.00096617	0.000267	1044	1.0406e-05	1.0559e-05	1159.2	212.78	1.0247e-05	1.0642e-05	281.46	81.741	63.146	17.963	1.0396e-05	25.604	171.534	190.493	227.537	157.141	264.408	282.028	157.320	164.767	230.129	232.014	164.092	170.820	170.816	178.734	290.448	178.114	-8191	255	
29116.801	1	1	0	0	0.045118	0.11624	0.196	0.23978	0.022528	0.30272	0.099511	0.20216	0.14498	0.097442	0.30493	0.1856	0.29941	0.11641	0.21903	0.13757	-1.9125	-2.4188	-2.625	-2.25	-2.9688	-2.4792	-2.325	-3.1208	-2.3167	-2.6042	-3.0292	-2.3104	-2.7896	-2.5646	-2.0667	-2.9583	219.763	261.267	403.012	158.410	326.379	314.805	465.803	409.635	203.742	239.557	468.650	482.696	176.577	469.358	263.675	468.193	0.00033095	0.00022197	0.0001119	1056.7	4.3039e-06	1.3685e-06	1170.4	212.56	2.397e-06	6.9008e-06	280.01	80.739	62.277	17.459	2.3147e-06	24.759	0.00075962	0.00097132	0.00027214	1045.2	1.02e-05	1.0602e-05	1160	213.21	1.0345e-05	1.051e-05	281.52	81.808	63.168	17.976	1.033e-05	25.632	174.240	246.160	217.322	157.306	251.308	346.972	157.153	164.626	296.876	246.722	164.180	170.534	170.887	178.913	367.023	178.479	-8191	255	
29116.896	1	1	0	0	0.14398	0.12118	0.15492	0.21914	0.29274	0.083157	0.053642	0.41212	0.21586	0.27406	0.21016	0.05552	0.17048	0.25601	0.027391	0.17993	-1.8896	-2.4167	-2.8792	-2.2354	-2.8667	-2.5938	-2.2021	-3.0708	-2.4688	-2.4104	-2.9437	-2.1083	-2.775	-2.8604	-2.1854	-2.8646	199.121	168.792	446.156	412.236	444.548	161.280	394.704	482.337	154.298	438.053	421.745	203.885	319.768	243.595	314.328	427.869	0.00035603	0.00035101	0.00013145	1051.8	3.047e-06	3.6842e-06	1171.1	213.72	2.7466e-06	4.1138e-06	279.65	80.614	62.651	17.623	3.8109e-06	24.929	0.00076494	0.0010061	0.00026581	1044.1	1.0652e-05	1.1004e-05	1160.8	213.55	1.0424e-05	1.0974e-05	281.01	81.81	63.351	18.031	1.0552e-05	25.65	173.992	223.055	224.563	156.812	198.567	219.309	157.102	165.031	233.621	333.645	164.682	170.790	171.130	178.517	288.129	178.606	-8191	255	
29116.992	1	1	0	0	0.17274	0.15836	0.091797	0.1333	0.14022	0.18891	0.039967	0.14466	0.20881	0.092206	0.1707	0.10764	0.27837	0.062305	0.2916	0.028179	-1.9521	-2.2687	-2.9646	-2.1937	-2.4083	-2.7021	-2.3563	-2.8542	-2.4896	-2.1937	-3.125	-2.2396	-2.5958	-3.0896	-2.1896	-2.8937	452.154	439.064	297.520	466.245	222.512	483.044	217.893	446.045	423.344	285.125	449.543	298.367	361.332	449.846	441.189	325.374	0.00034665	0.00029234	8.7658e-05	1051.4	3.2256e-06	1.4252e-06	1167.2	212.61	1.2525e-06	5.1772e-06	281.57	80.928	62.259	17.63	4.4207e-06	24.933	0.00078066	0.00098344	0.00027588	1043.5	1.0467e-05	1.0661e-05	1159.1	213.21	1.0198e-05	1.0954e-05	281.79	81.692	63.289	17.96	1.0278e-05	25.664	169.627	184.248	282.976	156.888	294.568	422.063	156.990	164.047	366.134	248.080	163.865	170.290	170.825	177.970	327.208	178.058	-8191	255	
29117.088	1	1	0	0	0.34918	0.059776	0.16398	0.20125	0.15037	0.26101	0.41412	0.29778	0.23427	0.082249	0.05255	0.284	0.13231	0.16837	0.12186	0.14076	-2.1	-2.2333	-2.875	-2.3354	-2.4792	-3.0646	-2.2208	-2.8396	-2.6312	-2.3542	-3.1271	-2.2854	-2.5333	-3.0563	-2.3729	-2.6792	482.189	486.914	272.715	343.521	263.175	496.579	461.474	414.578	259.539	442.238	441.352	204.046	197.666	382.905	188.732	229.010	0.00033628	0.00056905	8.1165e-05	1053.1	1.4354e-06	2.5924e-06	1163.1	212.44	3.9763e-06	3.2884e-06	281.03	80.639	61.952	17.435	1.5643e-06	24.67	0.00076641	0.0009684	0.00026908	1041.2	1.0466e-05	1.0776e-05	1157.6	212.87	1.0399e-05	1.079e-05	281.67	81.689	63.091	17.959	1.0345e-05	25.519	169.566	260.059	222.719	156.545	226.546	277.309	156.746	164.307	295.651	307.447	164.057	170.116	171.137	178.686	254.798	177.539	-8191	255	
29117.184	1	1	0	0	0.11642	0.18126	0.094109	0.28119	0.25604	0.071215	0.19595	0.47644	0.25176	0.089095	0.079744	0.1963	0.17683	0.16287	0.12288	0.12918	-2.4792	-2.1167	-2.9688	-2.4417	-2.2313	-2.9854	-2.1604	-2.6875	-2.9146	-2.0375	-2.9062	-2.4583	-2.3312	-3.1229	-2.3146	-2.6729	294.367	430.515	185.892	451.704	178.704	167.881	408.175	165.133	353.999	187.741	181.398	320.016	250.200	446.739	300.965	211.619	0.00032563	0.00040117	9.8949e-05	1041.7	2.5318e-06	2.7895e-06	1156	212.21	2.5995e-06	5.6547e-06	280.43	80.711	62.457	17.573	2.3908e-06	24.757	0.00075248	0.0009501	0.00026464	1037.1	1.0554e-05	1.0433e-05	1153.5	212.55	1.0196e-05	1.0559e-05	281.11	81.573	63.338	17.954	1.0639e-05	25.567	178.295	180.603	277.436	156.624	287.486	250.741	156.800	164.244	291.180	296.989	164.141	170.281	170.539	178.318	299.233	178.190	-8191	255	
29117.279	1	1	0	0	0.027919	0.22479	0.1326	0.12385	0.21634	0.064999	0.21311	0.15059	0.044899	0.035349	0.20537	0.08804	0.025441	0.18418	0.083065	0.23653	-2.3625	-1.9688	-2.925	-2.4792	-2.1771	-2.8792	-2.3312	-2.7438	-2.9188	-2.075	-2.9062	-2.7521	-2.2104	-2.7917	-2.3875	-2.5917	157.521	343.861	406.049	184.295	489.150	296.051	428.169	314.482	333.247	151.767	483.713	419.448	412.604	199.837	406.900	385.316	0.00034912	0.00037129	0.00010882	1045.1	3.1635e-06	2.3153e-06	1167.5	212.11	4.575e-06	3.4941e-07	282	80.471	62.318	17.429	2.8106e-06	24.916	0.00076641	0.00096912	0.0002697	1040.7	1.0505e-05	1.0671e-05	1156.9	212.45	1.0173e-05	1.0821e-05	282.06	81.671	63.199	17.942	1.0223e-05	25.58	179.366	211.874	485.663	156.896	255.853	483.879	156.718	164.349	283.264	364.253	163.997	170.391	170.581	179.150	254.444	178.164	-8191	255	
29117.398	1	1	0	0	0.13218	0.27315	0.15487	0.078823	0.093431	0.12492	0.19944	0.2906	0.062884	0.25302	0.096501	0.32015	0.14676	0.1144	0.17137	0.093613	-2.4437	-2.2396	-2.7062	-2.8271	-2.0687	-2.9417	-2.5646	-2.4833	-2.7792	-2.1625	-2.7562	-2.5229	-2.0417	-2.9542	-2.3854	-2.3563	293.425	492.427	410.773	176.535	282.954	461.581	437.167	347.979	389.226	495.201	357.613	447.273	451.506	362.743	252.189	420.296	0.00030415	0.00051056	5.9619e-05	1051.9	2.0477e-06	1.3298e-06	1167.1	212.56	2.5741e-06	3.4479e-06	279.75	80.764	62.239	17.493	4.0787e-06	24.653	0.00074252	0.0009522	0.00026218	1039.8	1.0099e-05	1.048e-05	1156.7	212.93	9.7935e-06	1.0539e-05	280.97	81.532	63.076	17.935	1.025e-05	25.499	171.835	261.883	205.923	157.135	305.948	329.346	156.805	164.265	267.304	256.705	163.935	170.418	170.770	178.045	278.592	177.833	-8191	255	
29117.496	1	1	0	0	0.041758	0.12121	0.22722	0.18976	0.32954	0.15782	0.12196	0.14478	0.12642	0.13512	0.28967	0.17915	0.095806	0.26897	0.12482	0.10265	-2.4562	-2.1583	-2.6729	-2.8271	-1.9792	-2.8854	-2.6021	-2.3333	-2.85	-2.0729	-2.5583	-2.8375	-2.1813	-2.8896	-2.4333	-2.1979	370.242	248.502	351.378	438.247	504.889	392.834	464.401	458.871	478.277	334.671	335.302	489.681	272.568	216.539	276.466	170.736	0.00031723	0.00014043	0.00010495	1050.2	1.793e-06	4.898e-06	1162.2	213.1	1.8101e-06	1.8707e-06	279.36	80.681	62.176	17.372	2.1504e-06	24.664	0.00075168	0.00094552	0.0002713	1039	1.0255e-05	1.0668e-05	1154.5	212.62	9.893e-06	1.0493e-05	280.76	81.524	63.109	17.933	9.9601e-06	25.491	168.357	241.378	296.076	156.818	299.818	284.238	156.776	164.449	313.768	490.514	164.349	170.066	170.612	178.178	321.073	178.216	-8191	255	
29117.592	1	1	0	0	0.16874	0.18011	0.028015	0.045041	0.081129	0.16719	0.093881	0.13915	0.21125	0.30761	0.24733	0.25568	0.11742	0.083579	0.20612	0.13766	-2.6583	-2.4146	-2.4271	-2.8458	-2.1	-2.7896	-2.7646	-2.3125	-2.7479	-2.2062	-2.2958	-2.8917	-2.2	-2.7583	-2.7771	-2.1813	262.764	486.443	403.215	486.465	480.048	376.521	185.492	251.683	165.390	375.916	284.098	468.986	213.900	276.624	324.738	457.823	0.00033339	0.00046825	0.00010303	1047.8	3.8001e-06	5.138e-06	1167.1	212.86	2.982e-06	3.0964e-06	281.23	80.419	62.51	17.45	4.5042e-06	24.717	0.00074697	0.00092786	0.00026647	1037.8	1.0112e-05	1.0469e-05	1156.3	212.84	9.4848e-06	9.9373e-06	281.05	81.594	63.02	17.937	9.4546e-06	25.433	173.054	267.819	258.939	157.011	262.747	276.267	156.920	164.860	283.726	296.207	164.541	170.420	170.513	178.453	276.957	177.562	-8191	255	
29117.688	1	1	0	0	0.22553	0.12771	0.028869	0.16023	0.10547	0.20866	0.078603	0.22435	0.15549	0.28686	0.13524	0.18592	0.18043	0.047886	0.10458	0.08308	-2.5667	-2.3292	-2.2354	-2.9813	-2.2229	-2.7292	-2.8625	-2.2417	-2.9583	-2.2375	-2.5625	-3.15	-2.1104	-2.5271	-2.7271	-2.1688	201.737	306.786	220.924	444.923	487.715	442.868	495.808	381.866	405.804	293.011	429.520	153.903	286.214	491.662	192.466	240.486	0.00034729	0.00017657	0.00020896	1057.5	3.804e-06	2.2803e-06	1166.2	211.62	2.7803e-06	4.0898e-06	277.91	81.046	62.395	17.587	1.4468e-06	24.679	0.00070983	0.00090029	0.00024891	1043.2	9.4432e-06	9.8009e-06	1157.1	212.57	9.1494e-06	9.7338e-06	280.35	81.643	63.195	17.925	9.0787e-06	25.478	178.555	229.291	214.928	157.057	254.566	300.776	156.439	164.462	274.485	309.465	164.208	170.344	170.591	179.001	184.543	178.082	-8191	255	
29117.783	1	1	0	0	0.22841	0.061426	0.031534	0.11981	0.074643	0.03059	0.21323	0.34599	0.19595	0.1865	0.27411	0.17591	0.12198	0.17081	0.14919	0.15733	-2.3333	-2.3396	-2.1229	-2.9167	-2.2354	-2.6417	-2.8875	-2.1917	-2.5917	-2.5167	-2.2313	-2.9875	-2.3146	-2.5563	-2.8896	-2.1604	424.142	365.838	275.913	491.486	504.922	211.606	410.370	500.069	441.677	223.122	386.450	158.640	185.858	177.919	300.677	425.714	0.00034896	0.00049669	0.00013134	1047.6	2.2589e-06	3.9066e-06	1162.9	212.46	3.6767e-06	6.4197e-06	279.97	80.81	62.114	17.494	4.1135e-06	24.599	0.00067948	0.00088069	0.00024121	1038.4	9.2379e-06	9.5234e-06	1153.7	212.38	8.8975e-06	9.2942e-06	280.87	81.525	62.92	17.854	8.4627e-06	25.383	172.514	244.846	251.112	156.614	263.155	268.448	156.659	164.336	269.805	287.094	164.458	170.570	170.932	179.013	316.352	177.425	-8191	255	
29117.881	1	1	0	0	0.026329	0.10881	0.049979	0.14441	0.30955	0.1221	0.18219	0.22634	0.13284	0.16419	0.15083	0.16383	0.051959	0.18723	0.18035	0.24418	-2.4437	-2.5792	-2.0979	-2.9042	-2.2875	-2.2896	-2.8688	-2.2146	-2.6771	-2.5604	-2.3896	-2.9021	-2.1312	-2.4875	-2.8208	-2.2542	155.530	445.196	325.580	416.955	403.202	192.922	458.324	484.926	324.742	436.933	407.324	385.642	481.399	426.139	424.290	190.521	0.0003127	0.00037533	6.5251e-05	1048.8	3.2985e-06	7.7811e-06	1164.6	212.68	6.4206e-06	4.8156e-06	280.11	80.69	62.068	17.56	4.7917e-06	24.743	0.00064159	0.00078264	0.00022031	1036.2	8.4168e-06	8.666e-06	1153.2	212.33	8.0628e-06	8.7181e-06	280.25	81.346	62.814	17.917	8.4541e-06	25.397	166.066	259.011	218.838	157.067	271.838	292.963	156.691	164.493	270.897	324.178	163.929	170.557	170.252	178.164	305.238	177.656	-8191	255	
29118.002	1	1	0	0	0.1414	0.012849	0.18603	0.17799	0.33184	0.12229	0.20639	0.1953	0.10003	0.065064	0.19367	0.23516	0.13105	0.4358	0.17298	0.13013	-2.325	-2.5938	-2.1646	-3.0833	-2.2812	-2.4188	-3.1375	-2.1521	-2.6229	-2.7083	-2.0271	-2.8271	-2.5583	-2.2167	-2.9188	-2.2625	426.381	460.061	367.566	186.896	363.917	440.047	469.447	473.675	198.337	347.216	348.917	420.894	281.889	216.639	341.808	454.535	0.00034807	0.00053465	9.3279e-05	1040.4	2.5162e-06	2.0372e-06	1159.8	213.24	4.0548e-06	2.7007e-06	280.34	80.809	61.97	17.49	3.4449e-06	24.611	0.00064683	0.00079152	0.00021394	1035.3	8.4867e-06	8.6677e-06	1153.2	212.26	8.1613e-06	8.2277e-06	279.47	81.461	62.825	17.871	7.926e-06	25.371	174.744	220.371	305.913	156.903	266.383	244.482	156.807	164.216	255.513	323.652	164.018	170.212	170.356	178.727	268.804	178.140	-8191	255	
29118.096	1	1	0	0	0.23929	0.28968	0.12205	0.19829	0.13262	0.14378	0.30687	0.46318	0.19175	0.23503	0.22597	0.22479	0.067597	0.14262	0.17455	0.13589	-2.1479	-2.9458	-2.1375	-2.8146	-2.7313	-2.1833	-3.1167	-2.2896	-2.4688	-2.8625	-2.2792	-2.7896	-2.6813	-2.1417	-2.7104	-2.4146	261.426	216.841	151.692	153.885	216.147	222.225	437.819	480.051	260.310	407.220	149.550	475.571	361.476	505.882	347.971	425.429	0.00030381	0.00026177	5.4062e-05	1043.9	4.0122e-06	3.805e-06	1158.9	211.14	4.2195e-06	2.6903e-06	279.64	80.814	62.307	17.437	4.2273e-06	24.814	0.0006074	0.00074631	0.00020923	1035.2	8.5039e-06	8.375e-06	1152.3	211.5	8.2913e-06	8.5604e-06	280.36	81.479	62.798	17.874	8.4525e-06	25.448	174.889	238.184	308.642	157.099	262.896	282.553	156.612	164.306	258.374	292.713	164.025	170.935	170.354	178.718	298.144	177.809	-8191	255	
29118.191	1	1	0	0	0.063709	0.22245	0.10145	0.082156	0.21986	0.11543	0.47711	0.0749	0.27107	0.14176	0.21982	0.10138	0.096021	0.18761	0.057212	0.18975	-1.9562	-2.6625	-2.0333	-2.6958	-2.7708	-2.0125	-2.9583	-2.4646	-2.2021	-2.8937	-2.3417	-2.7833	-2.5354	-2.0792	-2.9104	-2.5292	429.955	360.394	371.019	211.327	224.919	265.380	402.571	400.852	154.731	182.881	467.463	312.926	319.044	498.369	421.148	149.638	0.00033013	0.00029812	0.00014824	1049.3	2.5934e-06	3.8996e-06	1163.6	213.97	4.5535e-06	3.7512e-06	278.43	81.076	62.14	17.486	3.35e-06	24.621	0.00066746	0.0008019	0.00022929	1039.6	8.7497e-06	9.0987e-06	1155.4	212.65	8.7139e-06	8.6909e-06	279.75	81.686	62.931	17.869	8.4023e-06	25.312	171.125	249.194	249.868	156.973	255.450	311.150	156.636	164.632	269.970	297.821	164.230	170.604	171.345	178.789	295.776	178.161	-8191	255	
29118.287	1	1	0	0	0.15806	0.11406	0.14218	0.090316	0.15611	0.19257	0.11604	0.18904	0.58986	0.17858	0.08731	0.2165	0.19903	0.17167	0.062799	0.33763	-1.9104	-3.0042	-2.0708	-2.7229	-2.8854	-2.0771	-2.8646	-2.4667	-1.9979	-2.7313	-2.1958	-2.5771	-3.0708	-1.9792	-2.8354	-2.6167	395.403	169.032	504.025	421.436	201.246	239.737	365.402	390.368	464.976	447.429	357.555	476.284	429.072	473.245	378.985	411.530	0.00030891	0.00029735	0.00015902	1049.9	1.7852e-06	4.5312e-06	1166.8	211.95	4.2707e-06	3.9382e-06	280.26	81.061	62.194	17.399	3.9626e-06	24.595	0.00065254	0.00079341	0.00022823	1038.8	8.9509e-06	8.8896e-06	1157.3	211.5	8.9153e-06	9.0299e-06	281.07	81.548	63.106	17.88	8.536e-06	25.376	173.154	231.704	221.882	156.408	301.556	299.786	156.702	164.138	247.636	281.774	164.128	170.451	170.532	178.420	303.169	177.626	-8191	255	
29118.361	1	1	0	0	0.022289	0.14442	0.12565	0.12275	0.40326	0.18044	0.33058	0.19655	0.22874	0.045184	0.26043	0.021445	0.12469	0.042438	0.14744	0.025953	-1.5521	-2.7604	-2.2646	-2.375	-2.7792	-2.1417	-2.9417	-2.6354	-2.1208	-2.9292	-2.5583	-2.2479	-2.9354	-2.0979	-2.7562	-2.9104	272.199	282.093	250.288	268.819	259.661	188.749	423.850	463.313	389.843	164.421	505.255	435.797	217.025	201.099	230.884	281.614	0.00035981	0.00043757	4.5891e-05	1044	3.9422e-06	4.1316e-06	1161.8	212.58	2.2646e-06	3.2245e-06	279.2	80.537	62.292	17.452	3.1049e-06	24.772	0.00066585	0.00079516	0.00023016	1036.7	8.7727e-06	9.2614e-06	1154	212.23	8.8482e-06	8.8778e-06	280.28	81.636	62.909	17.909	8.8627e-06	25.388	166.536	230.061	283.824	156.329	239.770	276.859	156.489	164.084	321.456	289.281	163.950	170.294	170.164	178.069	308.589	177.988	-8191	255	
29118.480	1	1	0	0	0.097756	0.21232	0.1424	0.11391	0.048542	0.22856	0.33454	0.15787	0.21572	0.14679	0.22891	0.25626	0.16567	0.076104	0.25234	0.3197	-1.6917	-3.0646	-2.3479	-2.3604	-2.9667	-2.3563	-2.7375	-2.7479	-2.1917	-2.7896	-2.4333	-2.325	-2.9646	-2.2396	-2.3312	-2.7812	474.581	149.839	460.212	242.195	222.354	240.979	472.493	440.675	445.448	328.472	436.323	443.660	150.788	148.808	224.021	367.634	0.000317	8.8569e-05	5.8699e-05	1049.1	4.5148e-06	4.0279e-06	1158.7	212.74	1.1782e-06	1.3914e-06	277.34	80.556	62.224	17.541	4.5285e-06	24.769	0.00067962	0.00081695	0.00022962	1037.8	8.7319e-06	9.0977e-06	1153.2	212.6	8.6138e-06	8.5408e-06	279.91	81.552	63.021	17.859	8.7849e-06	25.454	175.655	186.272	336.958	156.581	283.962	300.985	156.451	164.264	225.896	258.791	163.702	170.130	170.685	178.124	269.565	177.075	-8191	255	
29118.576	1	1	0	0	0.11585	0.27538	0.15778	0.071844	0.028358	0.31477	0.23641	0.10062	0.1849	0.14285	0.27489	0.21343	0.056799	0.016806	0.10057	0.13156	-1.55	-2.7479	-2.5729	-2.2292	-2.8042	-2.2083	-2.6688	-3.0208	-2.1375	-2.9271	-2.7958	-2.1667	-2.9146	-2.3542	-2.3333	-2.9583	168.486	333.296	471.990	430.010	285.388	254.217	453.035	415.862	343.670	188.507	153.837	485.993	329.053	394.763	486.165	493.408	0.0003567	0.00027851	4.3871e-05	1040.5	3.7947e-06	7.3117e-06	1169	211.73	1.9706e-06	3.75e-06	276.53	80.721	61.407	17.531	3.6708e-06	24.688	0.00064208	0.00079392	0.00022828	1035.8	8.7966e-06	9.0809e-06	1155.7	212.05	8.7709e-06	8.9827e-06	279.27	81.395	62.702	17.898	8.7538e-06	25.394	174.819	231.421	237.312	156.914	264.256	252.713	156.585	163.805	273.111	335.607	163.903	170.188	170.381	178.462	289.399	177.986	-8191	255	
29118.672	1	1	0	0	0.18036	0.21997	0.12937	0.16955	0.099628	0.13348	0.13618	0.40785	0.28527	0.21327	0.26267	0.21298	0.15284	0.1882	0.37152	0.045001	-1.6729	-2.6417	-2.7625	-2.1188	-2.7708	-2.3792	-2.5104	-3.0021	-2.1771	-2.55	-2.7521	-2.1104	-3.025	-2.4437	-2.1792	-3.0187	442.108	322.393	178.819	500.469	338.950	229.813	436.487	481.383	384.271	366.185	149.921	424.554	472.698	302.307	343.497	178.543	0.00031092	0.00021626	9.3026e-05	1041	3.8545e-06	3.5502e-06	1162.3	213.47	3.8769e-06	2.2153e-06	279.58	80.629	62.085	17.515	4.3356e-06	24.678	0.00067038	0.00080825	0.00023183	1032.9	8.7172e-06	8.8125e-06	1154	212.9	8.4127e-06	8.9817e-06	280.08	81.463	62.972	17.87	8.7186e-06	25.427	170.601	273.208	223.858	156.306	331.728	307.729	156.501	164.246	264.463	274.852	163.784	169.934	170.611	178.022	285.168	177.630	-8191	255	
29118.793	1	1	0	0	0.11805	0.22114	0.030933	0.22351	0.084049	0.1034	0.097214	0.079453	0.24516	0.16205	0.24541	0.1701	0.085421	0.17574	0.094232	0.20943	-1.8667	-2.5646	-2.85	-2.1125	-2.7896	-2.575	-2.2271	-2.9729	-2.2479	-2.5458	-2.9167	-2.3292	-2.8708	-2.5604	-2.3563	-2.8583	348.066	455.289	301.432	456.865	340.313	404.325	417.687	492.541	298.939	414.677	425.342	452.696	478.833	495.660	244.311	344.587	0.00031367	0.00044846	8.8618e-05	1039.3	3.6582e-06	3.4827e-06	1163	212.71	2.9498e-06	1.4827e-06	280.64	80.73	62.11	17.574	3.1252e-06	24.602	0.0006703	0.00082589	0.00022902	1036.9	8.6808e-06	9.1681e-06	1152.8	212.53	8.6606e-06	9.0591e-06	280.53	81.28	62.955	17.866	8.6602e-06	25.361	174.601	251.616	226.936	156.558	262.528	307.072	156.713	164.220	228.145	183.226	164.045	170.030	170.232	178.322	362.421	178.000	-8191	255	
29118.889	1	1	0	0	0.17215	0.10704	0.23304	0.24455	0.10931	0.012966	0.13155	0.24251	0.087119	0.13288	0.29738	0.191	0.12408	0.21233	0.14661	0.1379	-1.9688	-2.4875	-3.1625	-2.2771	-2.7375	-2.5792	-2.2667	-3.0125	-2.3021	-2.4479	-2.9083	-2.1708	-2.6813	-2.7542	-2.0458	-2.9	404.107	325.011	305.118	504.816	442.752	158.965	186.986	436.748	473.223	175.754	474.408	456.720	483.627	405.794	491.418	451.812	0.00035212	0.00012164	8.8153e-05	1048.5	1.5526e-06	2.1812e-06	1158.5	212.94	3.4022e-06	5.2858e-07	279.34	80.36	61.7	17.362	2.5619e-06	24.642	0.0006654	0.00084045	0.00022159	1037.8	8.6585e-06	8.9859e-06	1150.9	212.19	8.6585e-06	9.0428e-06	279.93	81.383	62.577	17.847	8.8866e-06	25.396	167.071	268.904	275.207	156.439	210.065	227.370	156.442	164.179	266.727	348.820	164.028	169.682	170.086	178.316	202.839	177.471	-8191	255	
29118.961	1	1	0	0	0.1902	0.3733	0.1657	0.12373	0.19812	0.23846	0.14644	0.15173	0.11875	0.19854	0.15578	0.1543	0.24938	0.17793	0.061032	0.30462	-1.8667	-2.3479	-2.9562	-2.3208	-2.4104	-2.7	-2.3438	-2.9646	-2.4146	-2.3646	-3.0563	-2.4688	-2.7042	-2.8812	-1.9771	-2.8042	407.009	200.957	380.998	409.477	478.221	356.450	309.656	150.004	355.080	209.088	241.547	340.707	206.388	443.423	236.004	415.985	0.00031432	0.00020371	9.9062e-05	1038.2	1.4976e-06	4.134e-06	1162.7	211.61	3.8921e-06	4.4604e-06	279.23	80.176	62.111	17.45	4.3111e-06	24.443	0.00066487	0.00084073	0.00023366	1033.7	8.9971e-06	9.3243e-06	1151	212.06	8.94e-06	9.5571e-06	280.13	81.413	63.011	17.882	9.2895e-06	25.4	172.803	194.473	205.286	156.160	216.581	286.190	156.576	164.417	246.536	318.947	163.853	169.778	170.943	178.020	284.355	177.581	-8191	255	
29119.080	1	1	0	0	0.27374	0.2483	0.17237	0.37664	0.13806	0.075584	0.31106	0.15526	0.25562	0.12521	0.27609	0.17091	0.1996	0.14041	0.095395	0.30528	-2.1646	-2.0521	-2.775	-2.3667	-2.4125	-2.7229	-2.1562	-2.9	-2.7125	-2.1792	-3.05	-2.3375	-2.4646	-2.875	-1.9333	-2.8479	446.066	473.900	149.426	476.314	320.093	425.306	437.495	472.002	207.148	461.358	488.012	457.614	472.976	425.867	329.043	453.844	0.00031192	0.00027269	4.4451e-05	1042.8	2.0599e-06	2.6886e-06	1155.2	211.51	4.0047e-06	2.1944e-06	278.67	80.4	61.867	17.53	3.1427e-06	24.655	0.00070481	0.00088428	0.00024861	1034.3	9.528e-06	9.879e-06	1150.5	212.35	9.4029e-06	9.5548e-06	280.55	81.356	62.884	17.929	9.8455e-06	25.479	174.749	288.850	255.567	156.332	240.344	334.256	156.465	164.040	246.641	308.386	163.709	170.046	170.124	177.758	298.434	177.664	-8191	255	
29119.176	1	1	0	0	0.16152	0.17099	0.27056	0.069283	0.13839	0.082125	0.35072	0.11437	0.044827	0.17125	0.33656	0.069756	0.18332	0.1537	0.14044	0.20168	-2.2625	-2.1771	-3.0312	-2.3688	-2.3417	-2.8083	-2.3479	-2.7188	-2.6146	-2.0646	-3.0563	-2.5687	-2.1708	-3.0833	-2.2417	-2.7146	459.333	410.887	474.796	169.623	238.640	244.048	456.219	353.297	291.029	165.025	501.312	474.988	278.250	206.940	470.171	496.987	0.00028472	0.00045448	0.00010836	1046.9	3.3853e-06	1.1513e-06	1160.3	212.93	4.1641e-06	3.9058e-06	279.95	80.19	61.986	17.514	4.3321e-06	24.698	0.0007265	0.00094143	0.00026679	1039.4	1.0357e-05	1.0688e-05	1152.3	212.76	1.0002e-05	1.061e-05	281.19	81.524	63.156	17.895	1.0183e-05	25.454	167.219	217.119	273.123	156.331	308.238	227.388	156.180	163.872	310.554	350.308	163.767	169.737	170.345	178.184	289.267	177.509	-8191	255	
29119.273	1	1	0	0	0.17843	0.16161	0.084248	0.21781	0.081179	0.23892	0.071053	0.11785	0.08789	0.10851	0.014538	0.1709	0.083408	0.019273	0.37696	0.097241	-2.3688	-2.2229	-2.6625	-2.3812	-2.3271	-2.8417	-2.175	-2.4	-2.7792	-2.1021	-2.7667	-2.6646	-2.1688	-2.925	-2.1604	-2.4437	298.556	259.053	210.926	199.390	302.097	197.339	190.799	418.054	350.906	266.679	437.341	160.765	291.111	243.017	201.546	417.188	0.00030969	0.00054112	0.00010337	1049.1	8.9241e-07	4.2207e-06	1160.7	211.85	3.7978e-06	4.9112e-06	279.16	79.771	61.966	17.434	3.0779e-06	24.713	0.00074319	0.0009256	0.00025771	1038.7	1.0433e-05	1.0709e-05	1152.7	212.35	1.0082e-05	1.0716e-05	280.71	81.212	63.129	17.898	1.0748e-05	25.525	172.456	239.759	262.951	156.269	273.453	299.017	156.282	164.077	275.499	387.284	163.729	169.662	170.217	177.896	336.143	177.389	-8191	255	
29119.393	1	1	0	0	0.27246	0.09871	0.19873	0.22255	0.017511	0.18549	0.099393	0.122	0.20283	0.2043	0.38617	0.18953	0.17683	0.05705	0.19147	0.31621	-2.4375	-2.0083	-2.7354	-2.5917	-2.2396	-2.9917	-2.4062	-2.3833	-2.8229	-1.975	-2.7562	-2.5312	-2.2917	-3.0042	-2.4188	-2.35	197.151	434.531	328.430	459.909	333.254	396.097	454.396	145.856	228.809	202.233	458.202	478.322	486.555	361.234	481.355	272.464	0.00028674	0.0001979	4.2044e-05	1048	3.2696e-06	1.6216e-06	1160.3	213.15	1.4085e-06	3.5334e-06	278.79	80.578	61.807	17.415	5.6122e-06	24.649	0.00080417	0.0010389	0.00028372	1039.3	1.1154e-05	1.15e-05	1153.2	212.66	1.0883e-05	1.1431e-05	280.49	81.649	63.173	17.957	1.0966e-05	25.545	166.394	479.171	211.995	156.417	217.479	289.418	156.296	163.826	280.829	310.228	163.747	169.615	170.357	178.258	266.061	177.115	-8191	255	
29119.488	1	1	0	0	0.26538	0.17174	0.034009	0.082233	0.19206	0.18728	0.21282	0.29949	0.14572	0.18799	0.13489	0.49061	0.11154	0.15613	0.034556	0.33283	-2.625	-2.0854	-2.6083	-2.6625	-1.8687	-2.9	-2.4813	-2.4562	-2.9	-2.2854	-2.6146	-2.8125	-2.0917	-2.8812	-2.3167	-2.3479	473.865	215.710	482.348	456.290	176.798	353.932	439.866	331.680	151.504	153.064	466.047	472.172	189.068	433.905	366.767	473.802	0.00035915	0.00024814	7.1949e-05	1045.6	3.9292e-06	3.2109e-06	1162.3	212.26	4.7184e-07	2.5363e-06	278.36	80.242	61.989	17.555	5.2216e-06	24.748	0.0007958	0.0010136	0.00027572	1037	1.0816e-05	1.1045e-05	1152.4	212.95	1.0324e-05	1.1294e-05	280.5	81.504	63.049	17.966	1.0555e-05	25.429	180.708	259.319	227.859	156.091	270.629	269.403	155.924	164.045	446.740	327.671	163.617	170.016	169.941	178.084	311.404	177.095	-8191	255	
29119.586	1	1	0	0	0.1354	0.27402	0.12385	0.29984	0.12408	0.085931	0.17949	0.066927	0.1078	0.075547	0.069813	0.11557	0.16143	0.24846	0.13899	0.14436	-2.7167	-2.2875	-2.3917	-2.8	-2.0875	-3.0687	-2.5521	-2.3333	-2.8667	-2.2771	-2.5021	-3.0438	-2.1146	-2.8958	-2.7792	-2.2021	459.276	366.474	494.171	502.027	297.002	237.107	173.243	256.739	384.357	354.464	151.959	402.025	300.195	451.153	288.693	341.454	0.00036667	0.00026666	0.00010074	1038	3.3263e-06	4.9119e-06	1160.4	212.69	3.3085e-06	4.2865e-06	277.1	80.375	61.688	17.432	1.5402e-06	24.727	0.00078541	0.00099416	0.0002826	1032.9	1.0754e-05	1.1156e-05	1152.3	212.43	1.0685e-05	1.1423e-05	279.95	81.375	62.996	17.922	1.0954e-05	25.491	175.417	229.712	298.244	156.299	300.238	328.961	156.177	164.020	360.775	270.108	163.657	170.095	170.249	178.211	356.838	177.433	-8191	255	
29119.682	1	1	0	0	0.20485	0.22946	0.057033	0.16425	0.17076	0.066711	0.35954	0.29771	0.10668	0.33691	0.10555	0.062387	0.16953	0.26319	0.092671	0.064695	-2.5792	-2.4437	-2.3625	-3.0208	-2.1688	-2.7167	-3.0292	-2.0417	-2.8	-2.6083	-2.5417	-2.8583	-2.2313	-2.6813	-2.7125	-2	496.690	428.489	353.239	369.267	269.256	419.119	436.072	455.432	459.020	242.241	369.155	204.134	483.511	264.494	252.049	176.723	0.00026694	0.0004518	6.8706e-05	1041.1	6.2661e-06	3.1023e-06	1153.8	211.73	3.0752e-06	3.9255e-06	279.74	80.123	61.927	17.485	1.2234e-06	24.623	0.00078502	0.0010234	0.00028282	1033.4	1.0802e-05	1.1366e-05	1148.9	212.27	1.0359e-05	1.0774e-05	280.71	81.275	62.969	17.932	1.0561e-05	25.477	169.115	254.060	224.486	156.388	279.364	222.877	156.445	163.964	279.230	354.411	163.833	169.857	170.657	177.739	281.710	177.747	-8191	255	
29119.777	1	1	0	0	0.35661	0.17558	0.066418	0.23434	0.13624	0.1845	0.19039	0.20146	0.16833	0.089332	0.27683	0.085476	0.13399	0.16443	0.15906	0.19387	-2.2896	-2.4562	-2.1396	-2.8354	-2.1917	-2.5875	-2.9625	-2.1188	-2.9729	-2.6958	-2.3729	-2.9271	-2.1771	-2.5	-2.7146	-2.2438	476.017	498.842	427.281	455.999	224.878	384.678	379.385	425.404	293.320	373.560	462.170	237.119	293.466	451.030	484.719	214.447	0.0003136	0.00027999	0.00014816	1041.2	2.3361e-06	1.7736e-06	1157.1	211.42	4.3353e-06	5.5495e-06	279.46	80.311	61.822	17.367	1.3538e-06	24.824	0.00076396	0.00098263	0.0002671	1034.7	1.0675e-05	1.11e-05	1150.4	211.93	1.0428e-05	1.0697e-05	280.57	81.341	62.895	17.903	9.9411e-06	25.495	178.997	184.282	180.283	156.434	297.839	334.878	156.404	164.515	302.942	318.623	163.871	169.709	170.096	178.101	399.979	177.800	-8191	255	
29119.873	1	1	0	0	0.091245	0.25791	0.17989	0.13596	0.10146	0.18679	0.20736	0.0698	0.11175	0.29747	0.13244	0.12893	0.17618	0.082376	0.034762	0.067218	-2.3812	-2.5312	-2.1229	-2.9562	-2.2062	-2.5625	-3.0583	-2.1063	-2.6688	-2.6083	-2.2062	-2.975	-2.4021	-2.3667	-2.9979	-2.3833	266.582	160.611	408.372	213.383	357.662	500.955	470.684	222.067	160.059	379.907	463.524	396.662	447.193	308.979	331.063	439.685	0.00033373	0.0002002	0.00012536	1041.6	2.1907e-06	3.9648e-06	1158.1	212.65	2.285e-06	3.4025e-06	277.81	80.481	62.277	17.539	3.6196e-06	24.497	0.00077629	0.00099118	0.00027349	1035.3	1.0466e-05	1.0834e-05	1149.4	212.58	1.0401e-05	1.073e-05	279.87	81.424	62.929	17.96	1.0307e-05	25.444	175.944	282.476	244.031	156.339	233.171	280.005	156.429	164.084	269.419	324.446	163.626	169.989	170.516	177.976	305.706	177.559	-8191	255	
29119.969	1	1	0	0	0.17266	0.17653	0.067689	0.08073	0.078966	0.085148	0.19622	0.37632	0.094056	0.23378	0.23709	0.049496	0.18991	0.16536	0.039444	0.20983	-2.4979	-2.7042	-2.2479	-2.875	-2.4333	-2.2646	-3.0667	-2.1688	-2.7458	-2.7458	-1.9354	-2.9813	-2.2771	-2.3125	-2.9	-2.1167	239.698	226.767	486.691	442.436	411.816	229.832	412.523	468.203	166.618	495.798	194.443	264.658	416.611	164.743	271.392	222.219	0.00033683	0.00036958	6.4363e-05	1041.9	4.1202e-06	1.4681e-06	1157.1	212.22	1.2157e-06	3.4657e-06	280.09	80.68	61.753	17.493	3.8341e-06	24.364	0.00076598	0.00098296	0.00027401	1036	1.0594e-05	1.0741e-05	1148.3	211.83	1.0193e-05	1.0747e-05	280.55	81.248	62.854	17.925	1.0268e-05	25.382	169.894	274.787	227.336	156.224	247.908	309.976	156.153	163.956	259.883	286.181	163.830	169.990	170.219	177.624	322.002	177.306	-8191	255	
29120.064	1	1	0	0	0.40085	0.0082841	0.12171	0.18303	0.24863	0.23117	0.17424	0.039313	0.12662	0.25347	0.099211	0.11496	0.13071	0.22569	0.17149	0.084071	-2.1292	-2.7375	-1.8896	-2.7604	-2.4167	-2.2438	-3.1104	-2.4562	-2.4104	-2.9313	-2.2708	-2.9917	-2.6063	-2.3542	-3.0458	-2.2396	220.422	328.438	395.674	197.461	277.640	282.952	483.310	468.901	421.648	386.559	417.880	443.978	222.483	482.462	285.732	163.786	0.00030188	0.00056245	0.00011526	1040.9	3.5818e-06	2.0979e-06	1152.1	211.79	1.7545e-06	3.255e-06	277.15	80.836	61.695	17.567	5.5576e-06	24.759	0.00075103	0.0009377	0.00026983	1032.7	1.0241e-05	1.0729e-05	1147.4	211.83	1.0119e-05	1.0564e-05	279.15	81.555	62.766	17.921	1.0235e-05	25.47	176.549	262.599	285.427	156.615	275.047	337.628	156.423	163.991	289.502	359.047	163.629	170.047	170.256	178.230	283.964	177.433	-8191	255	
29120.184	1	1	0	0	0.19949	0.10283	0.21055	0.23189	0.032362	0.1376	0.24092	0.34342	0.11352	0.10975	0.19666	0.14414	0.11485	0.24503	0.1412	0.21527	-2.075	-3.0125	-2.2729	-2.9	-2.65	-2.1417	-3.0833	-2.4688	-2.4354	-3.1021	-2.2062	-2.8125	-2.7667	-2.2917	-2.925	-2.3729	372.467	259.610	169.774	427.694	378.219	451.705	459.207	444.434	183.666	276.902	431.883	308.466	452.582	464.902	252.010	379.911	0.00034995	0.00023953	7.5237e-05	1041.9	5.1088e-06	1.6105e-06	1155.4	211.89	5.2614e-06	3.6044e-06	278.28	80.045	62.229	17.411	2.2001e-06	24.521	0.00076209	0.00097402	0.00027102	1033.4	1.0261e-05	1.1125e-05	1148.4	212.14	1.0241e-05	1.043e-05	279.73	81.357	63.051	17.917	1.0388e-05	25.49	178.277	238.324	162.342	156.503	312.480	339.957	156.284	163.940	282.971	333.890	163.738	169.952	169.507	178.206	266.214	177.744	-8191	255	
29120.256	1	1	0	0	0.058858	0.070096	0.26435	0.1521	0.28746	0.13112	0.18988	0.26494	0.24748	0.11475	0.24791	0.15636	0.15155	0.14881	0.11188	0.21104	-1.8729	-2.8396	-2.2229	-2.6458	-2.7875	-2.1583	-3.1125	-2.5542	-2.1708	-3.0583	-2.1625	-2.4521	-2.7687	-1.9854	-2.8396	-2.4813	208.141	428.858	412.067	432.642	213.518	335.584	503.924	456.649	293.196	424.925	290.453	472.287	337.341	475.236	315.155	388.782	0.00032675	0.00013697	0.00013453	1044.1	3.6826e-06	2.0165e-06	1155.5	211.85	4.6003e-06	2.1319e-06	278.73	80.568	61.496	17.446	5.0966e-06	24.554	0.00075025	0.00097095	0.00027723	1036.3	1.0422e-05	1.1199e-05	1148.4	212.02	1.021e-05	1.018e-05	280.03	81.47	62.666	17.94	1.0482e-05	25.378	174.442	258.655	238.570	156.329	317.167	416.429	156.453	163.697	264.570	376.194	163.601	169.951	169.891	178.095	298.354	177.507	-8191	255	
29120.354	1	1	0	0	0.17765	0.1204	0.22141	0.15031	0.087586	0.27085	0.20728	0.31682	0.31403	0.19258	0.093948	0.12133	0.018685	0.078064	0.15361	0.087664	-1.7292	-2.8812	-2.2938	-2.6417	-2.7979	-2.1146	-2.8396	-2.6208	-2.2583	-2.8729	-2.2812	-2.2875	-2.8958	-2.2083	-2.9	-2.6708	203.016	364.067	418.936	484.887	459.235	251.493	165.661	448.191	428.971	235.951	326.116	155.043	354.323	161.934	229.383	486.772	0.00034686	0.00043018	8.2934e-05	1047.1	4.5348e-06	5.1288e-06	1154.8	212.26	3.6197e-06	5.0898e-06	279.09	80.855	61.523	17.515	1.8835e-06	24.544	0.00075433	0.00097541	0.0002705	1037	9.9521e-06	1.0688e-05	1147.6	211.76	1.0164e-05	1.0299e-05	279.54	81.561	62.702	17.915	1.002e-05	25.388	173.176	254.108	238.213	156.459	269.142	341.536	156.582	163.880	270.803	305.982	163.434	170.291	169.977	177.984	271.188	177.948	-8191	255	
29120.473	1	1	0	0	0.22884	0.12268	0.10725	0.13602	0.039466	0.22068	0.049413	0.22673	0.19224	0.07669	0.41803	0.080913	0.075736	0.15016	0.36425	0.10828	-1.9438	-2.8792	-2.3917	-2.4396	-3.1021	-2.1583	-3.1229	-2.8229	-2.2	-2.9333	-2.4333	-2.4104	-3.1	-2.325	-2.7479	-2.7583	215.592	491.467	394.927	435.543	501.443	305.410	330.746	458.940	270.066	437.213	382.612	184.638	441.185	415.898	462.986	432.664	0.00038485	0.00045965	0.00010874	1038.5	1.9052e-06	5.1653e-06	1156.5	213.29	3.7871e-06	6.06e-06	277.76	80.524	61.808	17.332	3.3796e-06	24.489	0.00074695	0.00095067	0.00026857	1034	1.0329e-05	1.0792e-05	1148.9	212.52	9.9561e-06	1.0479e-05	279.58	81.502	63.017	17.833	1.0388e-05	25.346	173.326	223.169	212.078	156.617	277.355	273.496	156.552	163.703	238.174	325.267	163.781	169.900	170.207	178.467	258.922	177.501	-8191	255	
29120.568	1	1	0	0	0.15383	0.18877	0.056017	0.05531	0.17909	0.14453	0.24417	0.16381	0.47203	0.11527	0.23178	0.28642	0.13514	0.19901	0.13437	0.18402	-1.7333	-2.7875	-2.4958	-2.3833	-2.9146	-2.2458	-2.6708	-3.0375	-2.0812	-2.825	-2.6271	-2.2208	-2.9667	-2.3542	-2.4458	-3.1292	447.393	306.217	405.236	420.174	447.038	158.210	460.781	483.232	396.396	474.717	479.921	386.464	376.837	187.355	361.985	184.046	0.00034695	0.00045481	0.0001293	1037.9	3.9461e-06	4.2294e-06	1161.9	211.25	1.5102e-06	1.839e-06	279.1	80.012	61.834	17.465	3.169e-06	24.581	0.00078184	0.00099973	0.00026362	1033	1.0338e-05	1.0732e-05	1150.5	211.58	1.0234e-05	1.0379e-05	279.31	81.258	62.702	17.864	9.8731e-06	25.395	172.765	154.608	227.684	156.375	256.911	317.492	156.650	163.990	290.668	454.618	163.885	170.324	170.454	177.947	296.064	176.963	-8191	255	
29120.664	1	1	0	0	0.15476	0.064844	0.15813	0.14106	0.16304	0.11753	0.1632	0.084836	0.13835	0.15796	0.23976	0.27664	0.068794	0.25836	0.19542	0.18356	-1.7646	-2.6583	-2.7042	-2.2146	-3.0458	-2.4896	-2.6604	-3.1562	-2.2208	-2.6833	-2.95	-2.1646	-2.9917	-2.475	-2.2521	-3.2083	410.033	211.505	439.551	416.531	191.246	370.432	159.993	462.906	148.542	221.241	473.629	403.003	360.586	355.065	210.644	175.140	0.00031004	0.00036636	5.6754e-05	1042.5	4.6811e-06	3.3781e-06	1152.8	211.51	2.8073e-06	3.967e-06	278.51	80.589	62.59	17.469	2.4871e-06	24.895	0.00073125	0.00093204	0.00025077	1033.7	1.004e-05	1.0336e-05	1147.5	211.39	9.795e-06	1.0169e-05	279.24	81.337	63.091	17.861	1.0099e-05	25.479	171.542	224.266	301.284	156.360	280.829	288.929	156.531	163.745	278.736	350.080	163.614	169.869	170.337	177.968	351.626	177.483	-8191	255	
29120.762	1	1	0	0	0.29011	0.11663	0.25903	0.12803	0.12947	0.16202	0.33529	0.12677	0.06421	0.17322	0.22197	0.0055259	0.10754	0.12819	0.15003	0.01031	-1.8104	-2.6167	-2.6521	-2.2167	-2.8625	-2.4625	-2.5062	-3.0292	-2.2542	-2.6542	-2.95	-2.1104	-2.8854	-2.6063	-2.1437	-3.0563	427.088	337.989	502.405	440.777	232.809	423.977	459.399	161.388	297.067	185.746	477.115	204.429	436.608	429.360	433.955	360.836	0.00037879	0.00025617	9.8003e-05	1041.6	1.388e-06	3.7772e-06	1157.9	212.57	3.5657e-06	5.8661e-06	278.8	80.638	61.993	17.384	1.4784e-06	24.919	0.00074166	0.00095512	0.00026267	1036.1	1.0241e-05	1.0575e-05	1149.2	212.1	9.8782e-06	1.0673e-05	279.22	81.382	62.979	17.852	1.0256e-05	25.519	170.406	197.652	282.830	156.524	235.704	272.392	156.640	163.885	274.940	298.938	163.543	170.065	170.417	178.077	267.378	177.549	-8191	255	
29120.857	1	1	0	0	0.21439	0.15323	0.098191	0.056612	0.29938	0.19115	0.36761	0.16056	0.14383	0.16629	0.32873	0.35005	0.11723	0.27047	0.26684	0.13593	-1.7792	-2.2438	-2.7438	-2.125	-2.7208	-2.5354	-2.2792	-2.9562	-2.2208	-2.1667	-2.9688	-2.1708	-2.8708	-2.6729	-2.0062	-3.0833	473.499	151.011	341.954	182.272	363.134	441.057	420.090	393.260	388.889	420.364	426.387	427.144	198.483	417.006	440.367	486.815	0.00029119	0.00021126	0.00013366	1041.5	3.2433e-06	5.1294e-06	1153.9	211.28	2.212e-06	2.2594e-06	277.55	80.025	61.979	17.394	3.7838e-06	24.647	0.00075172	0.0009426	0.00026667	1034.5	9.9263e-06	1.009e-05	1146.5	211.68	9.2618e-06	9.8968e-06	279.15	81.067	62.584	17.804	9.3378e-06	25.401	164.163	291.742	303.270	156.284	277.036	288.504	156.555	163.887	296.485	322.186	163.678	170.126	170.404	178.101	318.272	177.638	-8191	255	
29120.953	1	1	0	0	0.14349	0.18752	0.35961	0.29488	0.17158	0.11944	0.18739	0.036361	0.14325	0.16719	0.23191	0.16308	0.2464	0.2949	0.26355	0.29033	-2.125	-2.3271	-2.9396	-2.1104	-2.5771	-2.8167	-2.3104	-2.9417	-2.3187	-2.3417	-2.9688	-2.2667	-2.55	-2.7292	-1.9896	-2.8708	247.525	163.403	242.075	165.186	495.688	414.205	394.112	497.159	288.143	279.039	462.116	162.673	488.433	166.314	182.979	484.546	0.00039591	0.00047762	6.6191e-05	1036.6	3.7377e-06	1.4117e-06	1151.9	211.57	4.5605e-06	2.5061e-07	277.2	80.493	61.948	17.459	3.1391e-06	24.673	0.00071007	0.00086917	0.00024293	1029.5	9.6562e-06	9.7807e-06	1144.7	211.49	9.742e-06	1.0154e-05	278.9	81.224	62.875	17.882	9.8185e-06	25.401	173.225	234.049	244.843	156.209	310.671	392.691	156.513	164.229	291.493	296.070	163.955	169.839	169.902	177.604	296.849	177.292	-8191	255	
29121.074	1	1	0	0	0.14133	0.26374	0.12505	0.39285	0.15901	0.12058	0.2378	0.2997	0.21416	0.05681	0.26611	0.082184	0.051895	0.25081	0.23225	0.097254	-2.1104	-2.1021	-2.8667	-2.0938	-2.4917	-3.0146	-2.1604	-2.9708	-2.4	-2.2938	-3.2625	-2.3479	-2.5312	-2.8875	-2.3104	-2.8521	396.591	308.815	234.211	499.849	343.529	452.927	424.891	435.362	422.825	487.754	151.987	425.347	405.341	440.868	417.932	360.945	0.0003671	0.0002709	0.00013541	1044.8	2.456e-06	4.4259e-06	1158	212.1	4.1553e-06	2.9562e-06	277.22	79.81	60.943	17.435	3.27e-06	24.634	0.00074486	0.00093607	0.0002628	1035.3	1.0057e-05	1.0692e-05	1149.4	211.53	1.0128e-05	1.0511e-05	279.48	81.266	62.566	17.883	9.9452e-06	25.429	175.340	239.586	240.508	156.417	288.678	276.344	156.232	163.891	306.086	313.148	163.979	169.661	170.576	177.845	336.743	177.378	-8191	255	
29121.170	1	1	0	0	0.12491	0.11991	0.13206	0.24779	0.19677	0.18812	0.071139	0.24028	0.094827	0.16425	0.25133	0.19803	0.10798	0.076487	0.31586	0.29865	-2.2812	-2.175	-2.9479	-2.2625	-2.4688	-2.9583	-2.2354	-2.6979	-2.65	-2.1375	-3.0271	-2.3354	-2.3875	-2.8688	-2.0833	-2.6688	360.073	392.049	467.244	312.839	369.567	260.833	414.265	238.616	472.380	157.287	233.439	387.306	274.235	354.223	482.127	503.208	0.00034331	0.00024768	0.00010062	1037.7	7.1608e-07	3.7436e-06	1154.7	210.69	3.1223e-06	2.8491e-06	277.88	79.84	62.099	17.326	1.8623e-06	24.631	0.00072856	0.00093457	0.00025687	1030.2	9.8258e-06	1.0018e-05	1145.1	211.31	9.527e-06	1.0154e-05	278.57	80.981	62.705	17.786	9.6835e-06	25.371	174.228	209.360	200.048	156.208	316.005	301.129	156.467	163.980	241.751	348.520	163.877	169.943	170.461	177.852	237.195	177.557	-8191	255	
29121.266	1	1	0	0	0.031812	0.25684	0.05546	0.12889	0.12094	0.23472	0.31784	0.14215	0.097069	0.17871	0.21293	0.30838	0.35552	0.23802	0.13608	0.14054	-2.4292	-2.1813	-2.8979	-2.5625	-2.1	-3.0354	-2.3021	-2.5146	-2.6688	-2.1792	-2.8646	-2.55	-2.1271	-2.9354	-2.2562	-2.5604	146.342	331.516	377.553	432.043	171.353	398.608	450.764	488.230	295.687	207.786	177.185	491.842	469.122	259.621	429.369	490.706	0.00031883	0.00022711	7.4793e-05	1034.3	4.6231e-06	3.3084e-06	1153.8	211.76	2.584e-06	5.1537e-06	276.92	80.11	61.596	17.57	3.3779e-06	24.61	0.00070481	0.00090005	0.0002467	1026	9.4907e-06	9.8524e-06	1145.4	211.32	9.3157e-06	1.001e-05	278.34	81.171	62.649	17.839	9.754e-06	25.422	171.143	267.908	219.877	156.190	294.132	288.515	156.313	164.037	301.509	264.036	163.607	169.788	170.154	177.916	334.538	177.602	-8191	255	
29121.361	1	1	0	0	0.14854	0.11137	0.17603	0.18736	0.15883	0.12902	0.34342	0.29616	0.10416	0.2499	0.23476	0.016558	0.074655	0.061568	0.2684	0.25904	-2.4833	-2.125	-2.7833	-2.6042	-2.3729	-2.9562	-2.5062	-2.4313	-2.9	-2.1146	-2.7625	-2.6917	-2.1646	-2.9042	-2.3854	-2.4146	475.883	187.821	239.419	453.155	324.706	380.122	431.670	398.305	390.675	467.719	430.275	286.333	189.600	338.824	399.519	483.838	0.00034188	0.00041493	7.4422e-05	1039.5	3.2022e-06	4.9905e-06	1156	211.66	2.6516e-06	5.1119e-06	277.57	79.839	61.699	17.475	3.2399e-06	24.688	0.00072129	0.00090908	0.00025202	1030.5	9.7248e-06	9.9969e-06	1142.4	211.35	9.4448e-06	1.0119e-05	278.1	80.994	62.734	17.854	9.6861e-06	25.402	176.252	235.807	188.711	156.745	279.626	329.556	156.273	164.188	311.134	289.696	164.024	169.932	170.462	178.160	256.435	177.531	-8191	255	
29121.480	1	1	0	0	0.06615	0.16483	0.11939	0.099821	0.075403	0.026633	0.036211	0.12991	0.25806	0.3716	0.26563	0.16736	0.12845	0.22213	0.34667	0.19012	-2.5229	-1.9542	-2.7104	-2.75	-1.9479	-2.8937	-2.4979	-2.3958	-2.9125	-2.0354	-2.8	-2.8833	-2.0958	-2.825	-2.2396	-2.3125	210.888	158.237	485.460	362.419	362.039	236.600	354.580	463.541	399.402	427.515	309.549	157.208	192.794	463.645	356.701	146.632	0.00033577	0.00014623	7.8443e-05	1037	3.9752e-06	2.466e-06	1154.2	212.56	2.458e-06	2.4763e-06	279.25	79.718	62.098	17.294	1.6464e-06	24.58	0.00072772	0.00091816	0.00024907	1029.5	9.8488e-06	9.9423e-06	1144.5	211.45	9.4377e-06	1.024e-05	279.36	80.935	62.873	17.75	9.4514e-06	25.372	175.874	205.156	239.480	156.229	237.371	255.792	156.208	164.076	249.056	334.640	163.847	169.664	170.511	178.113	337.479	177.862	-8191	255	
29121.553	1	1	0	0	0.11706	0.15204	0.14731	0.31893	0.069645	0.099667	0.23002	0.24102	0.20214	0.065989	0.093882	0.1352	0.17172	0.1015	0.057072	0.26914	-2.4417	-2.1229	-2.6458	-2.9437	-2.1708	-2.9	-2.5417	-2.3479	-2.9396	-2.1375	-2.4667	-2.8063	-2.275	-2.9313	-2.5146	-2.1146	247.940	172.360	205.992	207.842	475.296	232.210	468.247	471.454	457.980	471.742	214.259	317.872	483.323	494.225	399.705	448.469	0.00031544	0.00011445	0.00018744	1039.6	1.6276e-06	1.3721e-06	1149.3	211.67	1.932e-06	4.2469e-06	277.47	80.406	62.028	17.304	3.4151e-06	24.561	0.0007026	0.00092391	0.00025164	1028.7	9.6945e-06	1.0024e-05	1142.9	211.58	9.6592e-06	9.7992e-06	279.19	81.132	62.566	17.854	9.6832e-06	25.332	181.253	243.481	220.807	156.303	226.179	248.951	156.353	164.015	320.098	258.039	163.603	170.103	170.169	178.158	273.816	177.638	-8191	255	
29121.648	1	1	0	0	0.12046	0.28119	0.045465	0.29319	0.18885	0.021744	0.14005	0.011544	0.032681	0.22084	0.085566	0.071393	0.17842	0.32207	0.29789	0.18787	-2.6562	-2.1396	-2.2854	-2.8292	-2.0771	-2.6208	-2.8604	-2.0604	-2.7646	-2.2833	-2.2958	-2.9229	-2.0854	-2.7271	-2.5604	-2.2521	319.220	486.333	331.097	407.160	154.433	201.264	294.355	459.357	293.235	411.800	310.091	441.021	202.560	499.051	481.816	402.693	0.00035781	0.00036345	5.6477e-05	1044.9	2.0601e-06	3.0312e-06	1149.6	209.67	3.0611e-06	2.6086e-06	278.74	80.086	61.659	17.498	4.241e-06	24.538	0.00071491	0.00092954	0.00025554	1031.1	9.9843e-06	1.0267e-05	1142.5	210.82	9.414e-06	1.0149e-05	279	80.873	62.523	17.826	9.613e-06	25.309	180.640	217.488	307.669	156.303	207.764	280.247	156.200	164.329	306.439	359.181	163.817	170.201	170.781	178.399	271.326	177.558	-8191	255	
29121.744	1	1	0	0	0.13893	0.23546	0.10201	0.25244	0.070437	0.17356	0.18707	0.029975	0.24221	0.18173	0.062384	0.10268	0.022334	0.13592	0.17058	0.32002	-2.6917	-2.2208	-2.1354	-2.8146	-2.1396	-2.6417	-2.9021	-2.2313	-2.8688	-2.625	-2.1667	-2.9333	-2.1167	-2.4958	-2.7854	-2.1604	455.852	419.236	430.937	432.184	443.767	283.447	367.499	303.943	460.796	505.364	486.642	388.636	189.275	426.182	246.955	447.462	0.00037659	0.00023872	0.00013295	1038.6	3.5707e-06	1.8105e-06	1155.7	210.63	3.5806e-06	1.8962e-06	278.3	80.318	61.387	17.584	4.9749e-06	24.409	0.00071938	0.00087708	0.00025028	1028.4	9.6537e-06	1.0005e-05	1146.1	211.35	9.4417e-06	9.9738e-06	278.58	81.103	62.343	17.879	9.2743e-06	25.259	170.879	207.760	254.711	156.154	291.306	150.903	156.061	163.804	257.768	321.401	163.855	170.228	170.110	178.273	257.012	177.313	-8191	255	
29121.865	1	1	0	0	0.079226	0.057163	0.13694	0.015094	0.18353	0.20982	0.27034	0.14767	0.17074	0.19502	0.33758	0.16846	0.10892	0.23475	0.19639	0.1382	-2.3125	-2.5021	-2.0771	-3.1417	-2.4562	-2.425	-3.0438	-1.9292	-2.6521	-2.7292	-2.3229	-2.975	-2.2938	-2.5229	-3.0229	-2.15	421.385	273.875	342.094	346.744	401.626	255.783	442.327	387.577	264.164	331.471	156.339	174.437	454.396	408.413	370.663	400.370	0.00037677	0.00015573	6.1641e-05	1036.8	3.3975e-06	6.1469e-06	1149.1	210.77	4.8235e-06	2.1391e-06	278.55	80.237	61.642	17.438	2.7105e-06	24.633	0.00072466	0.0009172	0.00025514	1029.4	9.7713e-06	1.0069e-05	1142.8	211.33	9.5286e-06	1.0291e-05	279.2	80.97	62.668	17.816	9.5511e-06	25.391	166.186	175.124	226.208	156.097	268.775	269.823	156.616	164.061	266.169	294.510	163.643	170.190	170.307	178.321	255.757	177.622	-8191	255	
29121.963	1	1	0	0	0.065589	0.4047	0.15843	0.04362	0.028969	0.12786	0.16575	0.26545	0.21334	0.1236	0.14902	0.16529	0.026569	0.10302	0.22408	0.13635	-2.3854	-2.525	-2.1063	-3.15	-2.4896	-2.1896	-2.9604	-2.2562	-2.6271	-2.7667	-2.1292	-2.8917	-2.3729	-2.3563	-2.7792	-2.3667	376.674	467.642	292.244	497.858	423.011	148.534	383.383	405.967	180.172	492.751	160.938	164.227	475.336	165.330	327.829	212.645	0.00032169	0.00042555	0.00010554	1037.3	4.1869e-06	3.5958e-06	1151.1	211.96	3.7182e-06	4.8261e-06	275.29	80.523	61.785	17.459	2.5974e-06	24.433	0.00071901	0.00089439	0.00025844	1030.4	9.8252e-06	9.9009e-06	1144.9	211.61	9.2951e-06	9.8692e-06	277.64	81.259	62.518	17.8	9.3708e-06	25.325	168.243	214.447	210.395	156.456	287.258	218.147	156.182	163.761	307.176	317.778	163.568	170.109	169.824	178.243	289.098	177.733	-8191	255	
29122.057	1	1	0	0	0.11592	0.054159	0.19886	0.23106	0.25119	0.06528	0.091862	0.08016	0.036652	0.026675	0.17811	0.16448	0.14471	0.13214	0.21345	0.29485	-2.2458	-2.6917	-2.025	-2.6813	-2.5792	-2.1375	-2.9313	-2.4	-2.3875	-3.0333	-2.2042	-2.7708	-2.4292	-2.1188	-2.8625	-2.3812	504.569	339.689	458.475	430.808	286.370	251.219	389.243	398.901	202.631	259.754	175.284	388.518	146.469	295.108	384.925	419.566	0.0003292	0.0006679	9.6402e-05	1040.2	3.1659e-06	2.9732e-06	1146	211.97	3.2468e-06	4.657e-06	276.88	79.882	61.663	17.607	4.0919e-06	24.598	0.00070558	0.00086691	0.00024728	1028.1	9.4882e-06	9.7251e-06	1142.8	211.37	9.386e-06	9.4539e-06	277.88	80.906	62.351	17.844	9.2803e-06	25.271	181.014	261.472	222.015	156.273	277.672	275.207	156.404	163.946	290.942	344.891	163.992	169.932	170.224	177.947	315.060	177.447	-8191	255	
29122.154	1	1	0	0	0.23173	0.13192	0.19324	0.34691	0.13949	0.24973	0.26287	0.24149	0.16158	0.18238	0.18651	0.23548	0.37829	0.049669	0.13619	0.090461	-1.9312	-2.8875	-1.9583	-2.8604	-2.6354	-2.3312	-3.0521	-2.4437	-2.325	-2.7938	-2.2583	-2.8792	-2.6188	-2.0896	-2.9104	-2.5312	421.925	303.813	232.554	465.459	327.122	199.218	441.345	448.441	188.380	476.140	327.870	164.229	179.092	282.455	332.750	226.967	0.00035855	9.6719e-05	0.00011092	1033.5	2.1711e-06	4.2484e-07	1152.3	209.56	2.0048e-06	2.8894e-06	277.64	80.07	62.105	17.395	4.0321e-06	24.722	0.00070015	0.00085439	0.00024408	1027	9.4971e-06	1.0085e-05	1144.1	210.28	9.2501e-06	9.7524e-06	277.96	80.981	62.708	17.786	9.0777e-06	25.32	175.621	505.087	244.778	156.305	305.852	351.760	156.602	164.014	254.534	306.123	163.468	170.049	169.965	178.423	298.512	177.427	-8191	255	
29122.248	1	1	0	0	0.026299	0.20643	0.079632	0.1856	0.16083	0.10221	0.136	0.14496	0.1778	0.33379	0.12351	0.14969	0.14813	0.076716	0.15703	0.23122	-1.975	-2.8417	-2.0417	-2.7729	-2.6958	-2.1333	-3.1958	-2.5354	-2.1958	-2.9458	-2.5021	-2.525	-2.75	-2.1417	-2.8104	-2.3875	498.225	243.089	419.477	295.072	215.549	425.657	362.190	282.407	222.734	456.648	483.452	386.160	287.330	433.074	492.391	357.175	0.00030796	0.0001826	7.9944e-05	1037.6	2.2089e-06	3.4367e-06	1154.3	210.63	1.7675e-06	2.1984e-06	277.33	80.199	61.269	17.374	1.9146e-06	24.828	0.00070325	0.00087985	0.00025281	1029.7	9.3498e-06	9.7645e-06	1142.6	210.62	9.0481e-06	9.5419e-06	277.5	80.878	62.448	17.804	9.306e-06	25.336	173.331	239.690	218.849	156.281	286.879	334.249	156.244	164.107	269.759	337.402	163.471	170.027	169.887	178.033	427.379	177.350	-8191	255	
29122.346	1	1	0	0	0.088905	0.15711	0.10735	0.19904	0.17579	0.1451	0.23574	0.22209	0.11959	0.12177	0.033754	0.21762	0.077745	0.03478	0.071144	0.23179	-1.8604	-2.9521	-2.0917	-2.3271	-2.8271	-2.1917	-2.8667	-2.7687	-2.0979	-2.9792	-2.1479	-2.3979	-2.7854	-1.9667	-2.625	-2.6354	424.621	419.502	313.031	180.738	147.882	185.422	469.265	491.162	167.968	285.366	487.338	189.165	306.112	161.721	291.956	174.828	0.00036482	0.00037446	0.00019597	1037.2	5.0054e-06	4.31e-06	1151	210.09	3.9046e-06	1.3104e-06	277.01	80.054	61.519	17.404	1.869e-06	24.57	0.00069925	0.00087103	0.00024369	1025.5	9.2207e-06	9.8777e-06	1142.4	210.42	9.1664e-06	9.6152e-06	277.54	80.835	62.252	17.72	9.0348e-06	25.252	171.212	244.179	232.993	156.300	297.441	305.116	156.071	163.510	288.643	274.465	163.308	169.676	170.041	177.551	264.385	176.746	-8191	255	
29122.441	1	1	0	0	0.25294	0.031053	0.25102	0.084244	0.33991	0.35791	0.2775	0.21945	0.40175	0.29792	0.14063	0.081627	0.074154	0.16632	0.28637	0.15508	-1.6458	-2.8167	-2.0729	-2.5292	-2.8958	-2.1937	-2.7896	-2.7687	-1.9792	-2.9396	-2.7229	-2.3229	-2.975	-2.1792	-2.7021	-2.8937	247.180	467.043	330.182	383.426	266.893	414.303	422.716	452.197	203.892	315.196	382.570	455.639	433.731	475.685	263.589	367.714	0.00028399	0.00036595	0.00014347	1036.3	6.2515e-06	6.5578e-06	1150.6	211.16	1.8052e-06	5.7897e-06	275.93	80.343	61.48	17.383	3.8484e-06	24.413	0.00069636	0.0008834	0.00024145	1028.9	9.2599e-06	9.8147e-06	1143	210.78	9.3669e-06	9.5392e-06	277.83	81.121	62.219	17.802	9.2727e-06	25.318	174.325	230.885	244.605	156.050	293.077	305.820	156.159	163.541	243.606	285.051	163.591	170.057	169.938	177.745	297.203	177.367	-8191	255	
29122.562	1	1	0	0	0.14174	0.1182	0.13743	0.24948	0.1331	0.058114	0.34278	0.22617	0.075263	0.0186	0.25794	0.055658	0.054732	0.20416	0.11091	0.23178	-1.6771	-2.8333	-2.5583	-2.3458	-2.8958	-2.1792	-2.7875	-2.7167	-2.1646	-2.8521	-2.4583	-2.2708	-2.7458	-2.1958	-2.4458	-2.9167	272.483	152.354	252.225	449.948	313.244	152.216	467.489	408.163	447.794	280.327	440.211	210.153	455.609	193.978	399.089	334.244	0.00032214	0.00031174	0.00017352	1027	2.3081e-06	5.3855e-06	1146.5	209.05	2.6546e-06	3.2229e-06	275.09	79.422	61.245	17.309	2.4109e-06	24.534	0.00071293	0.00087564	0.00024029	1024.2	9.6706e-06	9.5304e-06	1140.9	210.46	9.0777e-06	9.496e-06	276.7	80.755	62.386	17.739	9.3819e-06	25.276	176.038	246.191	245.858	155.965	262.562	298.461	155.673	163.665	265.153	289.817	163.217	169.724	169.914	177.480	355.071	177.818	-8191	255	
29122.658	1	1	0	0	0.27919	0.19342	0.23598	0.15225	0.11304	0.19728	0.24374	0.32364	0.070805	0.12561	0.22699	0.11269	0.16088	0.14756	0.29444	0.21952	-1.5604	-2.7521	-2.4792	-2.0812	-2.8812	-2.3896	-2.6396	-3.0104	-1.9792	-2.5417	-2.8937	-2.225	-2.825	-2.2604	-2.45	-2.9562	415.148	342.265	379.658	471.244	303.140	391.829	449.342	462.293	489.877	241.999	297.121	468.083	379.809	352.501	355.425	350.873	0.0003468	0.00027611	0.0001661	1033.9	4.7585e-06	3.0204e-06	1149.3	210.71	3.3463e-06	4.3336e-06	275.18	79.582	61.343	17.328	3.6205e-06	24.373	0.00069354	0.00088951	0.00024055	1026.8	9.3425e-06	9.9571e-06	1141.6	210.69	9.4017e-06	9.664e-06	276.73	80.771	62.286	17.775	9.6991e-06	25.209	170.144	195.064	254.405	156.021	267.979	271.430	155.983	163.771	303.923	298.531	163.237	169.858	170.070	177.746	317.003	177.211	-8191	255	
29122.754	1	1	0	0	0.23605	0.23258	0.091775	0.27574	0.32636	0.10851	0.042374	0.16811	0.14345	0.12111	0.03139	0.045867	0.16006	0.24577	0.1599	0.16845	-1.6604	-2.75	-2.6021	-2.2542	-2.7625	-2.5125	-2.4688	-3.025	-2.3187	-2.5146	-3.0271	-2.0687	-2.7292	-2.5187	-2.1646	-2.95	477.528	318.186	490.724	461.554	360.709	169.243	476.766	154.210	160.041	306.364	218.103	226.017	219.244	184.057	152.109	467.215	0.00034553	0.00011953	2.7954e-05	1031.8	2.6637e-06	3.1828e-06	1147.3	210.92	2.4763e-06	2.8703e-06	274.47	80.063	60.886	17.274	2.6893e-06	24.361	0.00070544	0.00091494	0.00024422	1025.2	9.33e-06	9.9194e-06	1141.5	210.85	9.6419e-06	1.0036e-05	276.85	80.814	62.264	17.733	9.5889e-06	25.208	171.734	290.331	388.852	155.930	317.365	354.135	156.064	163.785	305.983	286.972	163.585	169.661	170.034	178.121	286.096	176.849	-8191	255	
29122.850	1	1	0	0	0.088139	0.16997	0.12199	0.29313	0.026582	0.16824	0.19457	0.24883	0.21049	0.082588	0.23886	0.29354	0.30934	0.12177	0.21381	0.22534	-1.8771	-2.4896	-2.85	-2.0854	-2.7417	-2.5312	-2.3625	-3.1333	-2.2583	-2.3375	-3.0125	-2.0729	-2.7417	-2.5646	-2.225	-3.0479	254.955	165.669	423.887	474.196	214.733	154.223	401.186	427.350	343.093	415.886	181.950	400.093	425.693	340.690	238.579	182.804	0.00035382	9.585e-05	0.00018433	1027.4	4.5706e-06	1.401e-06	1143.2	211.94	2.9568e-06	3.3073e-06	275.79	79.666	61.619	17.346	3.0559e-06	24.569	0.00069864	0.00088009	0.0002468	1024.6	9.5137e-06	9.7207e-06	1138.9	211.36	9.5646e-06	9.7019e-06	277.17	80.509	62.505	17.807	9.4044e-06	25.282	171.012	304.686	244.227	156.368	266.765	404.928	156.253	163.920	320.951	319.542	163.528	169.637	169.943	177.479	268.677	177.148	-8191	255	
29122.945	1	1	0	0	0.072485	0.35482	0.25883	0.24152	0.1766	0.1025	0.31419	0.19653	0.061754	0.15202	0.046678	0.16517	0.10676	0.29139	0.010145	0.1908	-1.9521	-2.3604	-2.9437	-2.1708	-2.6437	-2.7083	-2.3271	-3.0979	-2.4354	-2.3417	-3.1896	-2.1458	-2.6729	-2.7812	-2.1542	-2.9833	406.197	458.984	395.104	480.509	485.709	371.293	416.891	180.100	221.210	413.777	443.494	420.837	276.055	387.758	148.657	481.145	0.00030705	0.00013671	7.6654e-05	1035.8	3.6995e-06	4.1125e-06	1150.3	209.88	3.3465e-06	4.1009e-06	274.81	80.383	61.162	17.258	1.2409e-06	24.408	0.00069795	0.00090423	0.00024329	1026.1	9.4168e-06	9.8854e-06	1141.2	210.31	9.2917e-06	9.6269e-06	276.41	80.862	62.346	17.767	9.5153e-06	25.309	176.636	165.061	187.551	156.034	235.217	332.647	156.043	163.736	277.800	342.817	163.502	169.412	169.858	177.566	332.583	177.480	-8191	255	
29123.043	1	1	0	0	0.17589	0.19428	0.061628	0.16157	0.14384	0.36244	0.11626	0.1544	0.016615	0.24783	0.072838	0.23857	0.23943	0.32115	0.20063	0.10248	-1.8813	-2.1208	-2.8	-2.1396	-2.5333	-2.6958	-2.1542	-2.9688	-2.4854	-2.0604	-2.9188	-2.3438	-2.5375	-3.0333	-2.1771	-2.8146	440.207	359.704	477.744	468.535	319.706	450.257	476.558	455.387	287.778	217.032	487.714	501.852	407.240	481.710	450.987	177.647	0.00039346	0.00018378	0.0001307	1032.7	4.5631e-06	2.0312e-06	1145.6	211.28	3.7545e-06	2.8682e-06	275.7	80.245	61.217	17.256	1.826e-06	24.665	0.00069487	0.00087802	0.00024066	1023.8	9.2586e-06	9.4628e-06	1139.2	211.24	9.1297e-06	9.5973e-06	276.27	80.759	62.231	17.7	9.0294e-06	25.272	169.051	257.246	217.194	156.342	263.891	228.750	156.238	163.870	304.418	280.766	163.768	169.567	169.722	178.108	233.182	177.383	-8191	255	
29123.160	1	1	0	0	0.24677	0.10889	0.078595	0.35166	0.27818	0.10694	0.28192	0.26096	0.061241	0.1341	0.19336	0.065451	0.096817	0.19223	0.22331	0.24781	-2.0667	-1.9271	-2.9562	-2.3271	-2.3292	-3.0312	-2.2958	-2.8208	-2.8229	-2.0125	-2.8333	-2.3	-2.4229	-2.9688	-2.0479	-2.6979	210.728	351.640	296.946	468.465	497.334	414.858	433.736	349.089	298.887	215.386	201.851	459.126	226.756	404.848	151.190	265.348	0.0002906	0.00044507	8.3624e-05	1035.9	2.067e-06	5.1746e-06	1146.7	209.58	5.0411e-06	5.5185e-06	275.74	79.231	61.306	17.156	1.6364e-06	24.53	0.0006833	0.00083874	0.00023953	1024.9	8.9831e-06	9.3708e-06	1138.2	210.35	8.7373e-06	9.5774e-06	276.38	80.497	62.086	17.644	9.3041e-06	25.174	169.169	268.071	234.681	156.273	291.524	298.493	156.252	163.931	300.263	324.912	163.652	169.529	169.944	177.930	225.345	177.343	-8191	255	
#DATA ENDS
