BOXY.EXE: ISS Imagent and Oximeter Data Acquisition Program Version 0.80
Ascii Record File

#ACQ INFORMATION
2  Detector Channels 
16  External MUX Channels 
1  Auxiliary Channels 
5000  Waveform (CCF) Frequency (Hz)
1  Waveforms Skipped 
30  Waveforms Averaged 
1  Cycles Averaged 
16  Acquisitions per Waveform 
10.0806  Updata Rate (Hz) 

#FILE INFORMATION
TRUE -- External MUX Channel results are PARSED.
FALSE -- AC DC and Phase are NOT grouped.
TRUE -- Companion Program Settings File CREATED.
FALSE -- AC data not excluded
FALSE -- DC data not excluded
FALSE -- Phase data not excluded
FALSE -- Auxillary Chn. data not excluded
Tab delimiters

#CALIBRATION STATE
TRUE -- Waveform Calibration Values APPLIED.


#AUX CALIBRATION VALUES
Val Type	aux-1	

Term	1.0000e+00	
Factor	0.0000e+00	


#WF CALIBRATION VALUES
A = Detector Channel
Val Type	A-AC1	A-AC2	A-AC3	A-AC4	A-AC5	A-AC6	A-AC7	A-AC8	A-AC9	A-AC10	A-AC11	A-AC12	A-AC13	A-AC14	A-AC15	A-AC16	A-DC1	A-DC2	A-DC3	A-DC4	A-DC5	A-DC6	A-DC7	A-DC8	A-DC9	A-DC10	A-DC11	A-DC12	A-DC13	A-DC14	A-DC15	A-DC16	A-Ph1	A-Ph2	A-Ph3	A-Ph4	A-Ph5	A-Ph6	A-Ph7	A-Ph8	A-Ph9	A-Ph10	A-Ph11	A-Ph12	A-Ph13	A-Ph14	A-Ph15	A-Ph16	

Term	0.00000e+00	0.00000e+00	0.00000e+00	0.00000e+00	0.00000e+00	0.00000e+00	0.00000e+00	0.00000e+00	0.00000e+00	0.00000e+00	0.00000e+00	0.00000e+00	0.00000e+00	0.00000e+00	0.00000e+00	0.00000e+00	0.00000e+00	0.00000e+00	0.00000e+00	0.00000e+00	0.00000e+00	0.00000e+00	0.00000e+00	0.00000e+00	0.00000e+00	0.00000e+00	0.00000e+00	0.00000e+00	0.00000e+00	0.00000e+00	0.00000e+00	0.00000e+00	0.00000e+00	0.00000e+00	0.00000e+00	0.00000e+00	0.00000e+00	0.00000e+00	0.00000e+00	0.00000e+00	0.00000e+00	0.00000e+00	0.00000e+00	0.00000e+00	0.00000e+00	0.00000e+00	0.00000e+00	0.00000e+00	
Factor	1.00000e+00	1.00000e+00	1.00000e+00	1.00000e+00	1.00000e+00	1.00000e+00	1.00000e+00	1.00000e+00	1.00000e+00	1.00000e+00	1.00000e+00	1.00000e+00	1.00000e+00	1.00000e+00	1.00000e+00	1.00000e+00	1.00000e+00	1.00000e+00	1.00000e+00	1.00000e+00	1.00000e+00	1.00000e+00	1.00000e+00	1.00000e+00	1.00000e+00	1.00000e+00	1.00000e+00	1.00000e+00	1.00000e+00	1.00000e+00	1.00000e+00	1.00000e+00	X	X	X	X	X	X	X	X	X	X	X	X	X	X	X	X	

B = Detector Channel
Val Type	B-AC1	B-AC2	B-AC3	B-AC4	B-AC5	B-AC6	B-AC7	B-AC8	B-AC9	B-AC10	B-AC11	B-AC12	B-AC13	B-AC14	B-AC15	B-AC16	B-DC1	B-DC2	B-DC3	B-DC4	B-DC5	B-DC6	B-DC7	B-DC8	B-DC9	B-DC10	B-DC11	B-DC12	B-DC13	B-DC14	B-DC15	B-DC16	B-Ph1	B-Ph2	B-Ph3	B-Ph4	B-Ph5	B-Ph6	B-Ph7	B-Ph8	B-Ph9	B-Ph10	B-Ph11	B-Ph12	B-Ph13	B-Ph14	B-Ph15	B-Ph16	

Term	0.00000e+00	0.00000e+00	0.00000e+00	0.00000e+00	0.00000e+00	0.00000e+00	0.00000e+00	0.00000e+00	0.00000e+00	0.00000e+00	0.00000e+00	0.00000e+00	0.00000e+00	0.00000e+00	0.00000e+00	0.00000e+00	0.00000e+00	0.00000e+00	0.00000e+00	0.00000e+00	0.00000e+00	0.00000e+00	0.00000e+00	0.00000e+00	0.00000e+00	0.00000e+00	0.00000e+00	0.00000e+00	0.00000e+00	0.00000e+00	0.00000e+00	0.00000e+00	-2.55034e+02	-1.42192e+02	-1.58171e+02	-1.83275e+02	-9.83914e+01	-9.52191e+01	-1.58166e+02	-1.62015e+02	-1.11076e+02	-8.25393e+01	-1.72759e+02	-1.71492e+02	-1.85060e+02	-1.78311e+02	-8.15946e+01	-1.51161e+02	
Factor	6.84074e-05	1.16036e-04	3.77825e-05	1.75057e-01	1.19124e-06	1.02847e-06	2.01126e-01	6.52604e-02	1.39494e-06	1.20521e-06	1.15205e-01	3.44855e-02	6.48392e-02	1.06986e-02	1.09788e-06	1.56755e-02	7.61801e-07	7.68646e-07	2.13154e-07	8.53154e-02	8.43469e-09	8.40861e-09	9.13502e-02	3.13959e-02	8.44513e-09	8.40387e-09	5.21703e-02	1.57552e-02	2.79534e-02	5.07005e-03	8.41014e-09	7.10043e-03	X	X	X	X	X	X	X	X	X	X	X	X	X	X	X	X	



#DISTANCE SETTINGS
A = Detector Channel
A-1	A-2	A-3	A-4	A-5	A-6	A-7	A-8	A-9	A-10	A-11	A-12	A-13	A-14	A-15	A-16	

2.5000e+00	3.0000e+00	2.5000e+00	3.0000e+00	2.0000e+00	3.0000e+00	1.5000e+00	3.0000e+00	3.0000e+00	3.0000e+00	3.0000e+00	3.0000e+00	3.0000e+00	3.0000e+00	1.5000e+00	3.0000e+00	

B = Detector Channel
B-1	B-2	B-3	B-4	B-5	B-6	B-7	B-8	B-9	B-10	B-11	B-12	B-13	B-14	B-15	B-16	

1.0000e+01	1.0000e+01	1.0000e+01	1.4400e+00	1.0000e+01	1.0000e+01	1.5100e+00	1.9400e+00	1.0000e+01	1.0000e+01	1.9900e+00	2.4900e+00	2.4100e+00	2.9000e+00	1.0000e+01	2.9800e+00	




#DATA BEGINS
time	group	step	mark	flag	A-AC1	A-AC2	A-AC3	A-AC4	A-AC5	A-AC6	A-AC7	A-AC8	A-AC9	A-AC10	A-AC11	A-AC12	A-AC13	A-AC14	A-AC15	A-AC16	A-DC1	A-DC2	A-DC3	A-DC4	A-DC5	A-DC6	A-DC7	A-DC8	A-DC9	A-DC10	A-DC11	A-DC12	A-DC13	A-DC14	A-DC15	A-DC16	A-Ph1	A-Ph2	A-Ph3	A-Ph4	A-Ph5	A-Ph6	A-Ph7	A-Ph8	A-Ph9	A-Ph10	A-Ph11	A-Ph12	A-Ph13	A-Ph14	A-Ph15	A-Ph16	B-AC1	B-AC2	B-AC3	B-AC4	B-AC5	B-AC6	B-AC7	B-AC8	B-AC9	B-AC10	B-AC11	B-AC12	B-AC13	B-AC14	B-AC15	B-AC16	B-DC1	B-DC2	B-DC3	B-DC4	B-DC5	B-DC6	B-DC7	B-DC8	B-DC9	B-DC10	B-DC11	B-DC12	B-DC13	B-DC14	B-DC15	B-DC16	B-Ph1	B-Ph2	B-Ph3	B-Ph4	B-Ph5	B-Ph6	B-Ph7	B-Ph8	B-Ph9	B-Ph10	B-Ph11	B-Ph12	B-Ph13	B-Ph14	B-Ph15	B-Ph16	aux-1	digaux	

1981.877	1	1	0	256	0.27036	0.27816	0.32843	0.12457	0.35949	0.19922	0.066714	0.11166	0.1568	0.22858	0.16227	0.058648	0.19657	0.098679	0.27082	0.089474	-2.3	-2.2125	-2.1229	-2.7458	-2.0917	-2.4	-2.7896	-2.0312	-2.7021	-2.4875	-1.8896	-2.9542	-2.0167	-2.3	-2.8187	-1.7792	275.841	324.241	366.185	467.774	291.603	397.724	206.210	516.436	318.319	486.048	519.984	425.208	192.431	528.186	232.948	400.917	0.0012331	0.00066237	0.00018386	568.21	1.8917e-06	5.8744e-06	777.14	138.42	6.588e-06	2.831e-06	236.39	76.448	37.424	12.829	2.1611e-06	29.893	0.00048753	0.00046769	0.0001158	570.87	4.4922e-06	4.134e-06	766.03	140.03	3.6769e-06	3.3568e-06	230.38	74.419	41.244	13.471	2.7749e-06	29.061	426.311	312.857	284.995	191.907	261.458	186.192	192.021	197.741	210.108	200.221	197.767	202.646	203.223	209.171	210.485	207.215	-8191	255	
1981.973	1	1	0	0	0.089039	0.088274	0.089571	0.17315	0.3497	0.19714	0.031624	0.175	0.05805	0.12887	0.12741	0.17498	0.17154	0.21597	0.068034	0.20255	-2.1021	-2.3417	-2.0438	-2.8521	-2.2104	-1.9896	-2.8208	-1.8229	-2.6042	-2.3354	-2.0271	-2.7667	-2.2167	-2.1875	-2.6646	-1.8917	423.076	291.558	340.108	224.767	219.157	323.236	415.765	341.062	392.076	192.638	322.383	297.319	207.693	284.230	351.274	508.761	0.00098349	0.00039458	7.6426e-05	572.14	9.6737e-07	3.0858e-06	777.27	145.3	8.0009e-06	8.0985e-07	249.01	83.454	41.845	14.61	7.1044e-06	33.533	0.00027946	0.00026858	6.6533e-05	563.72	3.0021e-06	2.8903e-06	750.76	143.76	3.0965e-06	3.0292e-06	239.21	80.856	44.439	15.229	2.9612e-06	32.908	424.118	322.738	290.845	192.412	339.665	238.816	191.795	197.710	194.539	248.851	197.856	202.439	201.814	209.295	284.270	207.198	-8191	255	
1982.093	1	1	0	0	0.097781	0.059762	0.11341	0.2656	0.2584	0.034162	0.17899	0.2006	0.16118	0.13593	0.097125	0.019722	0.17525	0.11929	0.1749	0.051074	-1.925	-2.5479	-1.6562	-2.7021	-2.1917	-2.1208	-3	-1.95	-2.2438	-2.7188	-1.8958	-2.8333	-2.3875	-2.1292	-2.8083	-2.0187	169.686	17.627	-94.487	177.572	106.291	-55.618	-49.323	-92.230	68.064	79.174	155.665	48.012	-165.451	-172.545	108.078	-33.092	0.001231	0.00037295	0.00011897	548.63	5.4485e-06	2.3023e-06	721.63	143.88	6.16e-06	5.2048e-06	249.65	87.362	43.565	16.447	1.2924e-06	37.872	0.00032175	0.00031614	8.1214e-05	549.63	3.8193e-06	3.8076e-06	710.33	147.55	4.3666e-06	4.2929e-06	248.36	87.902	51.984	17.8	4.5494e-06	38.248	84.941	84.485	-134.285	-167.497	-174.039	98.021	-167.450	-161.490	71.417	-23.449	-162.121	-157.335	-157.151	-149.786	-130.169	-152.198	-8191	255	
1982.190	1	1	0	0	0.019193	0.071064	0.34547	0.02953	0.28804	0.17352	0.14047	0.15532	0.10124	0.24174	0.25428	0.20757	0.20268	0.1574	0.22233	0.1645	-1.7708	-2.575	-2.1458	-2.5708	-2.475	-1.9188	-2.9146	-2.1312	-2.3958	-2.7938	-1.9854	-2.8042	-2.4917	-1.8146	-2.7667	-2.2896	38.270	-148.230	-148.258	163.214	-87.487	-136.400	102.381	-24.055	144.066	50.423	-69.671	-125.343	-32.169	-59.408	-129.112	-2.276	0.0012806	0.00061334	0.000113	530.48	7.2078e-06	3.8303e-06	698.55	157.59	1.2336e-05	8.9407e-06	272.58	99.472	50.371	19.725	1.0558e-05	42.845	0.00048365	0.0004607	0.00012737	552.28	5.8687e-06	5.6529e-06	713.73	170.24	6.8171e-06	6.4909e-06	286.91	104.28	67.741	22.416	7.9865e-06	46.053	65.638	-22.778	25.860	-166.903	-13.110	-99.960	-167.374	-161.301	-116.057	15.152	-161.914	-157.349	-157.032	-151.032	-177.897	-152.859	-8191	255	
1982.261	1	1	0	0	0.24154	0.16317	0.17826	0.3419	0.13584	0.21206	0.060957	0.10441	0.20736	0.097398	0.14789	0.10387	0.1674	0.18332	0.1222	0.13928	-1.7188	-2.675	-2.0229	-2.6125	-2.6271	-1.8896	-2.7792	-2.2687	-2.2896	-2.7417	-1.9333	-2.6104	-2.5938	-1.7313	-2.85	-2.1792	172.460	-166.023	-57.021	140.874	10.710	-74.281	146.274	-115.938	123.843	125.045	-64.400	141.238	173.992	19.963	160.633	-144.815	0.0016445	0.00037579	0.00010967	531.74	4.2418e-06	2.8518e-06	699.96	166.17	7.2054e-06	2.041e-06	281.86	103.27	53.161	20.462	9.3515e-06	43.676	0.0008103	0.00075468	0.00022734	593.45	9.6925e-06	8.8849e-06	757.92	191.09	1.0254e-05	9.47e-06	317.92	114.1	79.017	24.671	1.1099e-05	49.234	90.443	41.673	160.338	-167.603	-68.655	81.017	-167.802	-161.587	-55.093	4.002	-162.519	-157.838	-158.139	-150.981	-149.374	-153.514	-8191	255	
1982.382	1	1	0	0	0.014646	0.12125	0.068599	0.1021	0.27142	0.2009	0.30652	0.15822	0.03032	0.07277	0.24499	0.087708	0.14261	0.33938	0.11155	0.23748	-1.8021	-2.8042	-1.8708	-2.5521	-2.7625	-1.9042	-2.7917	-2.3542	-2.1188	-2.8375	-2.1688	-2.45	-2.6604	-1.9937	-2.8375	-2.4375	-107.755	-101.640	152.814	151.322	-156.315	11.421	104.759	159.552	-46.505	-70.993	-70.360	106.330	-43.686	-168.480	58.642	86.342	0.0012541	0.00046546	0.00031817	520.08	6.6258e-06	4.0739e-06	696.71	164.34	1.781e-05	7.3753e-06	284.42	103.07	53.089	20.683	7.9112e-06	44.048	0.0010016	0.00093655	0.00028967	600.67	1.0961e-05	1.024e-05	771.73	195.05	1.0539e-05	1.0172e-05	324.11	114.49	77.928	24.842	1.1184e-05	49.011	63.846	-84.263	-167.766	-166.951	-31.618	-136.011	-167.610	-161.861	-56.211	-104.126	-162.991	-157.475	-158.437	-150.976	-26.536	-153.521	-8191	255	
1982.478	1	1	0	0	0.11017	0.28014	0.17098	0.15499	0.26056	0.24446	0.17106	0.2913	0.083761	0.16435	0.15908	0.12287	0.11318	0.1579	0.14363	0.22503	-1.6417	-2.8625	-2.2646	-2.3812	-3.0896	-1.8521	-2.7479	-2.4604	-2.0062	-2.725	-2.2313	-2.2042	-2.7375	-1.8875	-2.45	-2.5583	-146.351	-154.261	-55.934	-146.529	98.916	158.859	178.429	45.752	-166.286	-124.159	109.278	-10.120	111.978	157.268	-177.724	124.310	0.0011249	0.0011887	0.00024327	518.17	8.9768e-06	6.7461e-06	696.26	166.41	1.7206e-05	1.6414e-05	286.06	103.35	52.468	20.456	7.8228e-06	43.609	0.00092202	0.00094575	0.00028499	595.14	1.0142e-05	1.037e-05	769.25	193.94	9.8528e-06	1.0577e-05	325.57	114.69	77.082	25.195	1.1481e-05	48.946	92.853	-176.252	-32.212	-167.446	-28.563	-157.943	-167.606	-161.916	-13.326	-141.769	-162.515	-157.716	-157.415	-151.673	-173.478	-153.445	-8191	255	
1982.574	1	1	0	0	0.087475	0.069627	0.14574	0.16455	0.17439	0.1332	0.12635	0.12462	0.16637	0.11015	0.191	0.15497	0.23284	0.075653	0.15233	0.3653	-1.3937	-2.6729	-2.375	-2.1229	-2.9	-2.0708	-2.4042	-2.7083	-1.7687	-2.7313	-2.2458	-2.0021	-2.7958	-2.0417	-2.4188	-2.8312	-50.270	38.197	158.683	157.545	-31.004	133.251	76.235	45.586	90.050	122.633	95.495	104.189	69.932	-166.837	40.794	111.127	0.0012625	0.0011588	0.00012021	513.51	1.1156e-05	5.0378e-07	689.72	165.19	1.0114e-05	1.7084e-05	286.94	103.93	53.661	20.507	3.5676e-06	43.762	0.00094132	0.0010416	0.00030346	598.5	1.0877e-05	1.2113e-05	777.11	198.47	1.1488e-05	1.3013e-05	338.93	118.36	83.946	26.95	1.3603e-05	50.618	70.483	122.873	22.822	-167.213	-127.866	-59.496	-167.578	-161.218	97.896	174.990	-162.939	-157.546	-157.716	-151.352	-50.691	-153.152	-8191	255	
1982.693	1	1	0	0	0.0068038	0.3118	0.22378	0.20918	0.15591	0.19429	0.14898	0.20571	0.2742	0.094821	0.076471	0.37161	0.067783	0.15472	0.3111	0.059149	-1.3979	-2.6979	-2.3688	-1.9292	-2.9375	-1.9333	-2.4083	-2.6958	-1.8458	-2.4521	-2.5854	-1.9625	-2.8458	-2.2875	-2.0479	-2.8396	3.914	-71.105	-112.630	49.432	170.568	-58.286	-148.193	-173.011	134.337	-7.690	145.686	64.943	30.792	136.798	-118.398	68.079	0.0021619	0.0016818	0.00043374	503.88	1.0087e-05	3.3211e-06	677.03	164.06	1.4831e-05	5.9466e-06	286.95	104.95	53.52	20.865	4.0244e-06	44.436	0.0011317	0.001272	0.00035513	603.26	1.3076e-05	1.4462e-05	790.06	202.38	1.3614e-05	1.4992e-05	351	120.57	91.166	28.285	1.5304e-05	51.984	49.072	164.444	-134.174	-166.777	-165.199	-87.386	-167.464	-161.284	157.893	-104.851	-162.613	-157.224	-156.560	-150.791	169.487	-152.975	-8191	255	
1982.789	1	1	0	0	0.2681	0.11904	0.11175	0.28675	0.073713	0.28377	0.16816	0.15919	0.15771	0.22636	0.12904	0.38651	0.14561	0.24202	0.1181	0.14834	-1.6042	-2.6583	-2.4292	-1.9854	-2.7375	-2.2833	-2.2604	-2.9042	-1.7417	-2.4625	-2.6396	-1.7625	-2.775	-2.1688	-1.9333	-2.7812	119.915	-47.146	41.213	168.003	6.892	56.342	51.140	90.815	141.935	9.432	-48.029	102.647	5.451	2.679	-20.924	5.538	0.002065	0.00046708	0.00026921	489.32	8.5097e-07	5.2652e-06	672.28	165.5	1.3642e-05	1.0308e-05	289.37	104.52	52.533	20.933	7.3168e-06	44.729	0.001362	0.001461	0.00040058	605.28	1.5591e-05	1.6408e-05	802.69	206.19	1.577e-05	1.6223e-05	357.29	121.42	95.96	28.751	1.5293e-05	52.457	52.709	-25.362	-148.806	-166.999	107.148	-78.819	-167.169	-160.793	-145.686	97.717	-161.760	-157.626	-156.669	-150.365	-97.782	-152.643	-8191	255	
1982.861	1	1	0	0	0.36742	0.11753	0.17625	0.16204	0.14841	0.064999	0.16054	0.21694	0.077993	0.079274	0.16034	0.47216	0.30858	0.15141	0.21327	0.14134	-1.4958	-2.3521	-2.7354	-2.0958	-2.6458	-2.2021	-2.1083	-2.8458	-2.0312	-2.2729	-2.7792	-1.7938	-2.6375	-2.3146	-1.9875	-2.9125	134.686	-168.096	166.871	180.344	167.916	-111.194	173.703	78.875	-26.444	166.920	128.643	104.943	-8.151	118.436	-17.399	163.316	0.0011119	0.00024451	0.0004178	490.82	1.2289e-05	1.3118e-05	674.58	166.03	1.338e-05	1.2246e-05	290.15	105.88	54.402	21.664	1.2723e-05	45.784	0.001428	0.0014353	0.00038236	601.37	1.5446e-05	1.5448e-05	786.37	204.91	1.5658e-05	1.549e-05	351.19	123.12	97.672	29.188	1.4494e-05	53.784	57.275	-60.772	-9.327	-166.797	-148.782	-174.031	-166.911	-161.142	43.868	20.487	-161.831	-157.365	-157.033	-150.714	-68.224	-153.047	-8191	255	
1982.957	1	1	0	0	0.16894	0.080579	0.13048	0.067724	0.26333	0.063521	0.34699	0.0941	0.13034	0.086553	0.1813	0.13941	0.39569	0.25246	0.1071	0.16826	-1.7812	-2.175	-2.8396	-1.8604	-2.8521	-2.3375	-2.025	-2.6937	-2.1333	-2.1292	-2.7896	-1.7125	-2.4688	-2.6125	-2.0021	-2.9333	-96.733	63.030	-78.641	-100.636	101.888	-153.201	-44.500	-167.736	143.657	166.567	153.098	164.923	-84.489	-162.723	73.264	-20.729	0.0016401	0.0007221	0.00051479	490.34	1.0897e-05	6.8637e-06	673.63	169.01	7.4006e-06	1.128e-05	292.78	107.09	54.326	21.962	2.6713e-06	46.374	0.0014475	0.0014001	0.00035375	600.09	1.5064e-05	1.4581e-05	771.5	206.31	1.4601e-05	1.4132e-05	343.09	122.91	92.83	28.386	1.2601e-05	53.556	88.720	-172.953	-52.010	-167.266	159.364	120.681	-166.999	-160.797	-71.484	-77.920	-161.906	-157.470	-156.832	-150.440	-122.449	-152.435	-8191	255	
1983.078	1	1	0	0	0.13685	0.06824	0.033981	0.15395	0.027873	0.17786	0.27605	0.1814	0.23392	0.27749	0.37458	0.093976	0.26176	0.13447	0.099289	0.1815	-1.7188	-2.2188	-2.7542	-1.8979	-2.5979	-2.4979	-1.9542	-2.8146	-2.175	-2.0604	-2.8396	-1.8333	-2.5104	-2.7771	-2.0604	-2.7938	124.288	131.587	-78.313	-141.246	-135.042	-101.053	-135.679	-145.920	-150.365	-8.670	38.952	102.385	-138.468	34.776	-53.656	120.887	0.0013291	0.0010268	0.00023763	484.37	1.1326e-05	7.854e-06	670.75	166.94	1.3395e-05	7.3122e-06	291.78	106.69	54.147	21.977	7.0873e-06	46.527	0.0013118	0.0012712	0.00032401	598.52	1.4634e-05	1.4237e-05	765.43	208.87	1.5163e-05	1.4554e-05	346.99	126.03	96.38	28.876	1.371e-05	55.144	54.870	-141.387	-151.567	-166.340	-26.048	7.932	-166.796	-160.382	-54.065	20.836	-161.760	-156.912	-157.032	-150.555	125.373	-152.073	-8191	255	
1983.174	1	1	0	0	0.42098	0.14935	0.032839	0.24101	0.2027	0.096055	0.050004	0.12255	0.13608	0.26408	0.1544	0.068824	0.094421	0.1277	0.049929	0.10918	-2.1312	-1.8167	-2.6854	-2.0687	-2.4958	-2.8667	-2.1021	-2.5979	-2.4854	-2.1188	-2.9396	-2.1229	-2.1792	-2.9313	-1.8958	-2.5896	60.845	-32.602	164.600	87.115	-34.900	21.865	174.212	160.079	-168.226	-55.729	-162.069	89.428	82.847	-148.642	56.994	100.946	0.0012203	0.0010809	0.00039333	484.67	4.7928e-06	9.8182e-06	669.71	166.47	6.0497e-06	6.7464e-06	291.51	108.88	54.659	22.035	1.7616e-05	47.289	0.0013928	0.0012919	0.00034816	609.55	1.5219e-05	1.427e-05	777.65	212	1.5486e-05	1.4291e-05	353.86	128.6	97.474	29.108	1.4966e-05	56.323	72.400	-23.989	170.738	-166.187	61.498	-13.790	-167.148	-160.665	25.887	42.730	-161.949	-157.096	-156.398	-150.342	-158.275	-152.118	-8191	255	
1983.270	1	1	0	0	0.23227	0.14533	0.15638	0.14852	0.33954	0.16893	0.077615	0.056639	0.16025	0.16252	0.14745	0.33662	0.14036	0.33918	0.13634	0.2075	-1.9479	-1.8937	-2.6333	-2.1146	-2.1146	-2.8312	-1.8417	-2.6021	-2.5563	-1.825	-2.875	-2.2521	-2.0271	-2.8521	-1.8563	-2.4896	-55.323	156.685	3.042	170.151	79.374	24.218	25.188	43.712	1.679	43.435	-42.285	167.768	65.192	142.700	38.434	174.739	0.0012209	0.00096942	0.00022591	483.81	1.188e-05	1.4747e-05	669.08	165.35	4.9318e-06	1.2926e-05	294.3	108.9	55.298	22.449	7.1281e-06	47.287	0.0014697	0.0013314	0.00039623	623.53	1.6481e-05	1.5132e-05	801.71	218.92	1.7071e-05	1.5417e-05	369.76	132.64	102.37	29.892	1.711e-05	57.542	72.660	-135.236	155.406	-166.637	-17.690	34.069	-167.076	-160.717	60.263	-80.404	-161.710	-157.621	-156.289	-150.446	-122.890	-152.380	-8191	255	
1983.366	1	1	0	0	0.087957	0.36462	0.16463	0.11035	0.21547	0.067352	0.064766	0.12084	0.10387	0.22754	0.064483	0.067769	0.097692	0.047981	0.064479	0.14702	-2.1542	-1.6792	-2.8125	-2.3625	-1.9688	-2.9771	-1.9125	-2.3479	-2.575	-1.9062	-2.7562	-2.3292	-1.9792	-2.8104	-1.9625	-2.4396	29.701	-62.988	15.613	-92.800	-52.712	31.525	164.466	171.461	90.353	162.986	180.177	-174.893	-70.517	165.384	176.843	53.340	0.0015622	0.00098349	0.00077904	481.75	6.5908e-06	4.8381e-06	671.02	166.72	9.6633e-06	6.9193e-06	293.48	109.19	55.476	22.423	1.4139e-05	47.633	0.001531	0.0013904	0.00043515	629	1.6562e-05	1.5657e-05	813.7	220.16	1.6934e-05	1.6061e-05	376.32	133.24	101.91	30.502	1.8321e-05	58.108	75.735	169.257	121.903	-166.701	-46.682	-116.456	-167.124	-161.128	-103.420	-82.739	-161.649	-156.861	-155.852	-150.946	-74.369	-152.500	-8191	255	
1983.462	1	1	0	0	0.22004	0.30424	0.0376	0.066462	0.13058	0.076298	0.1923	0.24802	0.27305	0.082899	0.054669	0.24662	0.10108	0.33407	0.21065	0.052757	-2.3917	-1.7854	-2.5792	-2.5958	-1.6417	-2.9521	-2.1667	-2.2667	-2.7292	-1.9396	-2.6333	-2.6104	-1.8937	-2.8042	-2.1167	-2.1083	4.455	-25.456	47.174	43.621	-92.736	-117.289	90.892	-106.295	120.245	-152.292	119.936	-159.765	64.998	149.494	-64.108	162.244	0.0012928	0.00015841	0.00038182	481.22	7.7779e-06	1.043e-05	661.81	166.7	7.4248e-06	1.4703e-05	293.32	109.01	55.153	22.567	6.2159e-06	47.34	0.0015129	0.0015001	0.0004574	630.34	1.6207e-05	1.6625e-05	816.58	220.25	1.6482e-05	1.7079e-05	379.24	133.59	101.02	31.258	1.9099e-05	58.543	97.386	127.247	40.567	-167.077	-173.351	-130.218	-167.242	-160.844	12.155	-112.705	-161.983	-157.085	-156.875	-150.871	150.464	-152.593	-8191	255	
1983.558	1	1	0	0	0.05647	0.22447	0.16512	0.22208	0.19324	0.081311	0.1994	0.046175	0.09436	0.29069	0.29436	0.13221	0.11038	0.14367	0.1124	0.22936	-2.1875	-1.8312	-2.5458	-2.7062	-1.7417	-2.7438	-2.2875	-2.2479	-2.85	-2.0667	-2.3917	-2.6646	-1.8771	-2.8708	-2.3312	-2.1354	91.930	134.311	80.224	168.322	50.005	-84.597	102.443	131.224	57.544	119.776	-84.347	-39.241	56.520	-98.136	30.907	40.918	0.0012599	0.0013287	3.2476e-05	475.32	1.3171e-05	4.8258e-06	663.99	166.97	1.0047e-05	1.3024e-05	292.72	108.89	55.507	22.375	7.0198e-06	47.028	0.0015337	0.0016685	0.00048334	636.78	1.6737e-05	1.8612e-05	828.17	222.6	1.709e-05	1.9051e-05	384.41	134.13	103.43	32.218	1.9833e-05	58.438	90.817	-167.470	58.135	-166.775	-130.979	85.451	-166.930	-160.126	41.658	-100.898	-161.676	-156.807	-155.991	-150.634	3.693	-151.918	-8191	255	
1983.655	1	1	0	0	0.32211	0.28127	0.14371	0.094268	0.27251	0.25048	0.088376	0.29742	0.26472	0.15435	0.07352	0.23892	0.25203	0.11595	0.23687	0.21026	-2.2771	-2.1229	-2.2396	-3.0167	-1.7396	-2.8438	-2.3792	-2.0896	-2.8583	-2.1417	-2.4792	-2.8125	-1.8833	-2.6521	-2.4375	-2.1208	-109.313	123.910	138.815	-31.604	92.731	-105.198	-129.641	129.404	-89.346	-152.191	-157.781	-60.642	74.476	45.248	32.720	101.579	0.00090154	0.00027212	0.00015549	479.68	1.0165e-05	6.7773e-06	660.65	165.14	4.6612e-06	2.3765e-06	289.99	107.87	55.104	22.295	2.2469e-06	46.948	0.0016218	0.0018112	0.00049861	636.79	1.7598e-05	1.969e-05	827.93	220.19	1.7791e-05	1.9527e-05	380.66	131.62	104.98	32.234	1.9333e-05	57.365	48.383	49.361	-73.268	-166.291	-140.320	-168.392	-166.821	-160.292	-134.767	-176.680	-161.999	-157.209	-157.937	-150.560	139.532	-152.633	-8191	255	
1983.773	1	1	0	0	0.19011	0.18886	0.057707	0.12783	0.1063	0.055677	0.16443	0.16751	0.27719	0.040261	0.062938	0.1035	0.40821	0.20747	0.0075889	0.16426	-2.2875	-2.2229	-2.0792	-2.6937	-2.0563	-2.4646	-2.5604	-1.8667	-2.8063	-2.1708	-2.1063	-2.7583	-1.8396	-2.5208	-2.5333	-2.1729	155.717	21.909	-160.029	126.364	-71.945	6.411	-124.737	-38.241	8.961	-13.210	-123.869	91.269	-44.545	-120.521	93.642	-62.608	0.0026349	0.00091183	0.00045152	476.28	1.2096e-05	9.2216e-06	659.69	167.46	3.7943e-06	1.0889e-05	292.16	108.5	55.438	22.295	1.554e-05	47.359	0.0016654	0.00181	0.00048421	627.03	1.8503e-05	1.9585e-05	824.57	218.2	1.8639e-05	1.9379e-05	377.65	130.62	107.29	31.935	1.8396e-05	56.766	60.901	-100.442	-129.483	-166.694	-155.793	38.256	-166.965	-160.430	-163.287	-156.188	-161.633	-157.148	-158.100	-150.620	78.367	-152.634	-8191	255	
1983.870	1	1	0	0	0.15019	0.028289	0.20487	0.16438	0.08899	0.039393	0.16616	0.2378	0.16279	0.10818	0.20014	0.18746	0.096043	0.050844	0.074481	0.3312	-2.3208	-2.1854	-2.1312	-2.7438	-1.9167	-2.55	-2.6479	-2.0479	-2.5542	-2.3417	-2.2188	-2.8104	-2.0979	-2.3083	-2.6646	-1.9917	-65.787	-154.962	43.116	-176.499	82.330	-40.765	58.032	119.621	-89.298	-168.094	123.764	114.965	73.158	163.893	-74.673	45.009	0.0016694	0.0013972	0.00045163	477.43	1.1673e-05	1.4244e-06	662.54	165.85	5.4166e-06	1.4132e-05	292.6	108.68	55.606	22.492	1.3374e-05	47.665	0.0016752	0.0017099	0.00045086	614.47	1.8178e-05	1.8235e-05	807.99	214.34	1.8027e-05	1.806e-05	367.16	129.23	105.52	31.076	1.657e-05	56.368	71.596	-20.504	-67.641	-166.258	151.489	-31.005	-167.026	-160.892	74.473	-10.904	-161.542	-157.198	-157.141	-150.498	9.823	-152.737	-8191	255	
1983.966	1	1	0	0	0.35475	0.1329	0.22594	0.091083	0.1371	0.18235	0.21324	0.081974	0.08704	0.18943	0.14084	0.16024	0.3249	0.25011	0.037452	0.089232	-2.2458	-2.3521	-1.9396	-2.7042	-2.125	-2.325	-2.7896	-2.1417	-2.6625	-2.6479	-2.0187	-2.9146	-2.1417	-2.1604	-2.6875	-2.1271	-177.741	27.516	55.345	163.299	-170.906	-117.888	151.049	87.779	154.046	157.851	-155.805	31.879	-107.068	94.417	-92.369	-143.010	0.0016579	0.00066997	0.00061303	477.22	7.1453e-06	5.1646e-06	659.2	167.37	3.4347e-05	7.8122e-07	292.9	108.57	55.624	22.534	6.9037e-06	47.75	0.0016117	0.0015942	0.00040758	609.03	1.775e-05	1.7213e-05	789.31	214.8	1.7703e-05	1.7237e-05	358.89	129.89	104.17	30.687	1.5379e-05	56.65	76.418	-17.552	-23.561	-166.946	-104.825	132.773	-166.999	-161.084	-2.762	174.633	-161.680	-157.590	-157.392	-151.000	32.026	-152.650	-8191	255	
1984.062	1	1	0	0	0.19445	0.21012	0.14951	0.19101	0.12477	0.27939	0.21745	0.057578	0.19683	0.20901	0.2356	0.30904	0.14675	0.031916	0.21104	0.20761	-1.9521	-2.4875	-1.7375	-2.7979	-2.1604	-2.2521	-2.7729	-2.1167	-2.4521	-2.7438	-2.0042	-2.7104	-2.3458	-2.1937	-2.9667	-2.3375	-85.764	-95.814	-126.189	141.763	47.645	146.835	-149.036	132.410	-163.527	-40.176	-55.780	160.281	-169.040	80.733	-78.803	160.647	0.0014958	0.00065508	0.00024094	475.73	8.3264e-06	1.6493e-06	655.35	166.13	9.4398e-06	3.0975e-06	289.43	109.16	55.703	22.747	4.9836e-06	47.802	0.0015524	0.0015134	0.00037574	607.47	1.6897e-05	1.6195e-05	773.39	214.24	1.6526e-05	1.5884e-05	350.54	129.26	99.988	29.917	1.4365e-05	56.621	80.630	-89.490	-14.144	-166.922	-61.008	8.391	-167.103	-161.013	-110.716	-98.247	-161.624	-157.323	-155.910	-149.639	-0.956	-152.924	-8191	255	
1984.158	1	1	0	0	0.11554	0.0172	0.20887	0.23713	0.23021	0.28358	0.14184	0.06648	0.10217	0.3658	0.028415	0.08072	0.21773	0.20374	0.076331	0.14415	-1.8646	-2.6833	-1.8563	-2.7583	-2.1542	-2	-3.0958	-1.9083	-2.4	-2.9167	-1.8083	-2.9292	-2.4146	-1.8813	-2.8146	-2.1562	157.159	-86.512	-9.094	134.263	128.469	33.979	-14.245	-75.626	-87.500	143.598	123.049	112.909	-68.495	117.589	70.105	-28.701	0.0015748	0.0019008	0.00039878	471.01	1.256e-05	3.8527e-06	658.33	166.56	9.5185e-06	9.5712e-06	292.03	109.47	56.278	22.577	1.6297e-05	47.622	0.0014463	0.0013855	0.00035814	601.53	1.5935e-05	1.4799e-05	768.1	213.24	1.5626e-05	1.4586e-05	349.97	128.53	96.488	28.83	1.3612e-05	55.456	61.643	-28.530	93.382	-166.958	-91.954	-31.816	-167.130	-161.377	-33.770	29.261	-162.795	-157.350	-156.711	-151.108	-136.630	-153.123	-8191	255	
1984.254	1	1	0	0	0.12933	0.14513	0.1252	0.2387	0.067774	0.14389	0.089672	0.23759	0.17522	0.20222	0.13176	0.29154	0.23901	0.15613	0.24573	0.15169	-1.6229	-2.825	-1.6875	-2.5354	-2.3625	-1.9833	-2.8792	-2.0792	-2.1937	-2.9604	-1.9271	-2.6063	-2.4354	-1.8188	-2.7583	-2.1792	-142.115	-28.081	67.955	-18.359	181.005	157.545	-174.387	52.387	-83.832	-173.155	-10.113	138.387	112.993	90.071	14.907	85.089	0.0013317	0.00094476	0.00053892	472.72	1.4795e-05	1.1863e-05	664.41	166.53	6.0032e-06	5.304e-06	294.28	109.58	55.232	22.172	7.046e-06	47.581	0.0012724	0.0011622	0.000321	580.28	1.3205e-05	1.1814e-05	750.53	202.96	1.2706e-05	1.1419e-05	338.5	122.64	85.441	26.672	1.1495e-05	52.877	71.587	-97.601	135.500	-166.532	53.888	24.277	-166.974	-160.993	-19.382	78.821	-162.479	-157.209	-157.275	-150.703	-172.359	-152.746	-8191	255	
1984.375	1	1	0	0	0.15281	0.18088	0.27344	0.012939	0.22973	0.090131	0.28727	0.12359	0.10668	0.081377	0.19805	0.15798	0.23754	0.18238	0.10502	0.087326	-1.6167	-2.7396	-1.975	-2.4021	-2.6021	-1.8896	-2.8	-2.2979	-1.725	-2.6792	-2.0021	-2.5583	-2.5438	-1.7938	-2.8292	-2.3958	-32.449	119.216	25.529	-124.437	-67.005	-32.015	94.967	33.363	14.752	-92.021	133.415	50.511	149.180	-152.469	0.689	151.022	0.0011476	0.00080134	7.9031e-05	471.92	2.7518e-06	3.8042e-06	661.66	163.8	8.8774e-06	1.0481e-05	291.16	108.49	54.621	21.684	8.6048e-06	46.71	0.0010171	0.00091603	0.00027787	555.58	1.0621e-05	9.5371e-06	732.26	191.02	9.8907e-06	9.2768e-06	326.45	118.06	77.164	25.248	1.041e-05	50.798	87.198	12.386	-108.165	-166.819	-35.849	-122.895	-167.371	-161.538	-32.666	99.619	-162.098	-157.307	-156.661	-150.615	-63.648	-152.949	-8191	255	
1984.471	1	1	0	0	0.17901	0.14885	0.097011	0.13503	0.10879	0.22772	0.20568	0.29912	0.37384	0.11578	0.35617	0.12534	0.15742	0.13789	0.23059	0.23295	-1.4813	-2.6375	-2.1583	-2.475	-2.55	-1.9771	-2.6792	-2.3229	-1.9042	-2.8646	-2.225	-2.2354	-2.8688	-1.8271	-2.6667	-2.4792	52.198	11.822	138.008	-169.872	81.649	-31.455	58.435	-77.821	121.227	-53.147	113.844	178.646	-116.218	62.991	-38.638	128.673	0.0013845	0.0011439	0.00028948	474.77	8.2723e-06	7.3839e-06	663.71	161.57	1.7276e-05	3.8103e-06	287.3	107.89	52.697	21.263	2.2424e-06	45.879	0.00087197	0.00085569	0.00026416	548.08	9.5998e-06	9.4923e-06	732.27	187.69	9.4436e-06	9.6288e-06	324.99	116.15	74.564	25.128	1.0388e-05	49.9	93.556	-174.275	106.899	-166.546	-77.465	-129.030	-166.914	-161.077	42.727	-49.231	-162.211	-157.597	-157.634	-151.520	50.552	-153.108	-8191	255	
1984.565	1	1	0	0	0.09913	0.2035	0.13311	0.086653	0.11582	0.11201	0.13056	0.15299	0.25321	0.28483	0.20987	0.078436	0.22516	0.19464	0.10601	0.048225	-1.5042	-2.7687	-1.7687	-2.3042	-2.9958	-1.6958	-2.5479	-2.6125	-1.7979	-2.7375	-2.1854	-2.1542	-2.6833	-2.1063	-2.2812	-2.6437	-63.552	-96.012	99.551	144.148	137.092	174.289	-7.440	-72.658	-141.343	-119.693	-168.059	-121.657	149.374	28.118	13.185	-164.265	0.0010534	0.00060868	9.602e-05	480.82	8.3556e-06	2.5854e-06	668.35	160.46	2.0058e-05	1.2011e-05	288.82	106.79	52.982	20.984	5.6983e-06	45.87	0.0008278	0.00089462	0.00026355	549.5	9.1338e-06	9.8066e-06	731.9	184.8	8.6157e-06	9.5053e-06	318.94	113.42	69.972	24.421	8.7196e-06	48.341	79.907	158.703	-61.752	-167.056	-51.032	101.077	-167.356	-160.804	-46.768	-147.414	-162.205	-157.577	-158.107	-151.281	-77.705	-153.035	-8191	255	
1984.661	1	1	0	0	0.11798	0.15983	0.22466	0.11648	0.06631	0.1842	0.065138	0.1009	0.28317	0.087954	0.26796	0.30669	0.088503	0.14426	0.1948	0.12922	-1.4417	-2.9604	-2.1771	-2.1813	-2.6458	-1.9688	-2.3833	-2.5375	-1.9188	-2.6	-2.4104	-1.9625	-2.6854	-2.2208	-2.1583	-2.8042	-37.606	51.116	107.140	-178.506	-131.183	107.924	-170.381	-138.181	56.228	86.369	-9.104	-115.137	-17.204	-3.432	58.721	105.920	0.0012875	0.00019874	0.00014972	478.28	7.1749e-06	2.8976e-06	664.8	162.93	4.8828e-06	5.7703e-06	288.34	106.84	53.952	21.386	4.6592e-06	46.83	0.00068625	0.00076119	0.00020928	525.83	7.1639e-06	7.9121e-06	705.93	177.07	6.951e-06	7.7944e-06	307.59	110.63	67.356	24.187	7.6063e-06	48.072	78.848	54.427	-115.876	-166.746	-83.373	-66.310	-167.254	-161.161	-90.500	-147.693	-162.261	-157.226	-156.499	-150.662	-49.826	-152.733	-8191	255	
1984.758	1	1	0	0	0.24505	0.045214	0.21324	0.053167	0.071514	0.32118	0.22355	0.09498	0.10805	0.25065	0.094388	0.12509	0.2236	0.16734	0.26791	0.24386	-1.5333	-2.5896	-2.2625	-2.0375	-2.9125	-2.0708	-2.1333	-2.7979	-1.6854	-2.5729	-2.4938	-1.9229	-2.8812	-2.2792	-2.0979	-2.7208	-50.002	-125.790	-94.214	-112.285	129.530	21.811	-149.210	150.121	101.456	74.277	-148.605	97.479	-21.347	91.092	-89.616	-164.772	0.0014006	0.00040053	0.00031298	483.42	6.6562e-06	5.0697e-06	668.59	164.27	1.174e-05	3.7022e-06	291.69	107.82	53.239	21.494	3.7738e-06	46.85	0.00065079	0.00071579	0.00019534	521.91	7.4347e-06	8.122e-06	707.09	178.76	7.8035e-06	8.3698e-06	312.49	111.72	71.231	24.8	8.2412e-06	48.668	59.003	20.654	-72.185	-166.417	-125.633	48.986	-166.701	-160.914	110.745	22.898	-162.030	-157.213	-157.143	-150.885	-59.148	-152.461	-8191	255	
1984.854	1	1	0	0	0.20463	0.065605	0.20704	0.2667	0.27364	0.16596	0.3283	0.099712	0.15397	0.045152	0.29462	0.06623	0.077401	0.12217	0.33296	0.18963	-1.6542	-2.4479	-2.4583	-2.0229	-2.6396	-2.3312	-2.1729	-2.8063	-2.0646	-2.3875	-2.6875	-2.1146	-2.7896	-2.3604	-1.8563	-2.9188	-121.961	47.047	-145.632	-145.641	146.226	100.958	94.687	156.556	-25.577	165.296	48.219	96.103	36.397	88.089	47.298	-165.730	0.001301	0.00068385	0.00028105	482.44	4.8259e-06	2.1468e-06	664.84	162.29	3.573e-06	5.9681e-06	288.61	105.75	51.737	20.494	7.3857e-06	44.942	0.00075466	0.00078154	0.00020953	524.84	8.3382e-06	8.4377e-06	705.18	177.23	8.1346e-06	8.0566e-06	304.78	108.86	68.934	23.48	7.2613e-06	46.399	50.334	-68.460	-81.053	-166.902	-65.590	107.325	-166.897	-161.011	-52.794	75.827	-162.225	-157.523	-157.807	-151.014	-47.430	-152.764	-8191	255	
1984.950	1	1	0	0	0.19404	0.08405	0.15425	0.3264	0.11146	0.080491	0.14816	0.041592	0.10234	0.087548	0.096339	0.074048	0.045992	0.15797	0.07519	0.13147	-1.4167	-2.4354	-2.6813	-2.0604	-2.7104	-2.3208	-2.0396	-2.9146	-2.1229	-2.2938	-2.7833	-1.7854	-2.8688	-2.3563	-1.8958	-2.9854	70.790	7.163	-88.070	-114.688	169.619	100.707	101.283	117.030	-146.839	-31.302	-39.403	140.149	65.018	-68.732	7.758	174.753	0.0014713	0.00064913	0.00023133	480.35	5.1999e-06	9.9934e-06	663.03	158.82	1.4962e-06	3.2124e-06	281.47	103.19	50.44	19.867	7.772e-06	43.76	0.00071096	0.00068999	0.00017936	517.86	7.6781e-06	7.5185e-06	691.07	172.79	7.7975e-06	7.5955e-06	295.7	106.6	68.029	22.665	6.9954e-06	45.85	45.030	-143.045	-119.124	-166.731	-84.760	-67.320	-167.463	-160.980	120.506	67.572	-161.926	-157.283	-156.185	-150.526	-46.875	-152.405	-8191	255	
1985.046	1	1	0	0	0.12441	0.23512	0.15766	0.33124	0.22336	0.083401	0.13801	0.17431	0.12124	0.075545	0.2185	0.13214	0.16063	0.16855	0.11851	0.084285	-1.8583	-2.0375	-2.5479	-1.7563	-2.6771	-2.3625	-1.9479	-2.9833	-2.2042	-2.0042	-2.7792	-2.0083	-2.3438	-2.7167	-2.1042	-2.7771	-130.336	-89.569	109.028	-73.253	-35.951	74.403	55.087	-101.173	124.764	174.807	141.925	-174.681	-79.944	-154.362	-103.129	85.488	0.0014042	0.00086238	0.00024759	476.87	1.1288e-05	2.0259e-06	661.21	157.45	1.1401e-05	4.0549e-06	278.36	101.53	49.626	19.473	5.3855e-07	43.115	0.0007409	0.00071185	0.00018285	523.65	8.2385e-06	8.0136e-06	690.04	174.97	8.4614e-06	8.0182e-06	295.54	107.21	69.105	22.655	7.4955e-06	46	76.325	-81.468	-161.676	-166.875	-63.185	-144.218	-167.109	-161.198	-83.370	82.808	-162.111	-157.114	-157.465	-150.544	-170.103	-152.436	-8191	255	
1985.167	1	1	0	0	0.13393	0.12559	0.081382	0.31914	0.32359	0.1039	0.26478	0.23602	0.24718	0.22163	0.15768	0.062149	0.060722	0.035329	0.092645	0.098997	-1.7875	-1.9667	-2.8521	-1.8312	-2.4854	-2.6188	-1.7729	-2.7375	-2.5396	-2.1146	-2.8917	-2.1188	-2.4771	-2.75	-1.8875	-2.7833	169.163	-108.589	126.627	-115.287	-163.954	-26.162	85.590	-37.502	-156.926	-5.198	158.347	123.959	91.418	-80.928	89.357	149.137	0.0013432	0.0008713	0.0003443	477.83	1.0076e-05	7.2226e-06	662.15	157.66	4.4712e-06	5.9423e-06	280.28	101.32	49.639	19.492	6.3766e-06	43.303	0.00079371	0.00074785	0.00019575	536.61	8.7452e-06	8.3315e-06	700.7	178.9	8.8781e-06	8.2637e-06	301.47	108.66	70.034	22.562	7.985e-06	46.499	93.370	-25.816	173.949	-166.423	-61.286	-10.317	-167.192	-161.369	-37.306	-55.832	-161.817	-157.329	-156.803	-150.688	-117.382	-152.139	-8191	255	
1985.263	1	1	0	0	0.10398	0.051067	0.02809	0.15039	0.15479	0.14651	0.083317	0.25351	0.18164	0.25284	0.10469	0.35276	0.049411	0.18866	0.098747	0.15476	-1.9312	-1.7792	-2.9125	-2.0687	-2.2438	-2.8063	-1.9875	-2.5833	-2.675	-1.8333	-2.9208	-2.5021	-2.1833	-2.7667	-2.0354	-2.6833	-146.274	-177.439	-107.715	-64.648	70.591	148.212	174.914	89.227	87.793	-117.911	63.137	-68.937	-161.605	-51.621	24.320	91.833	0.0009807	0.00069239	0.00031713	484.19	1.184e-05	5.4201e-06	669.67	160.18	6.886e-06	7.9716e-06	287.85	103.85	51.772	19.97	6.4486e-06	44.014	0.00080041	0.0007351	0.00020711	546.37	8.8729e-06	8.21e-06	716.7	182.85	9.2963e-06	8.4705e-06	313.91	112.67	73.816	23.416	9.3715e-06	48.088	90.274	-87.326	-136.275	-166.375	-54.780	40.463	-166.760	-161.104	-141.428	71.669	-161.869	-157.441	-157.125	-150.843	-165.144	-152.788	-8191	255	
1985.359	1	1	0	0	0.092647	0.078745	0.15144	0.12131	0.050727	0.15698	0.087278	0.2619	0.30303	0.11747	0.022787	0.12967	0.30944	0.057847	0.090745	0.13923	-2.0625	-1.8667	-2.8333	-2.3167	-2.1292	-2.9771	-2.1	-2.4792	-2.6708	-1.9604	-2.8396	-2.4792	-2.0208	-2.9042	-2.0083	-2.4062	-129.734	-141.141	-1.474	138.124	88.317	-157.571	105.298	97.598	-64.217	-160.648	106.204	-24.642	-61.060	-138.719	-30.975	-113.068	0.0014962	0.0006023	0.00010546	494.2	6.9783e-06	3.72e-06	671.81	162.54	6.6097e-06	1.5954e-05	291.87	105.07	51.964	19.847	8.9784e-06	44.233	0.0008745	0.00078404	0.00023937	557.77	9.244e-06	8.4858e-06	729.7	185.74	9.326e-06	8.4582e-06	320.84	113.66	73.674	23.499	1.0091e-05	48.096	105.002	-31.392	18.506	-166.743	73.009	169.996	-167.121	-161.079	-27.335	-164.550	-162.354	-157.481	-157.430	-150.934	-106.967	-152.659	-8191	255	
1985.455	1	1	0	0	0.24511	0.35635	0.13761	0.10749	0.32961	0.17271	0.32288	0.22927	0.2636	0.041433	0.080286	0.21753	0.30166	0.039148	0.17212	0.15011	-2.2958	-1.9417	-2.9333	-2.5187	-2.0042	-2.6229	-1.9813	-2.4896	-2.7104	-1.8792	-2.5062	-2.5583	-1.8521	-2.8375	-1.9188	-2.4792	87.344	-29.075	175.343	151.631	-27.320	107.445	91.782	111.457	27.368	-18.977	-156.212	162.529	8.794	83.611	23.422	-174.966	0.0013502	0.0010868	0.00041048	494.72	6.0984e-06	9.4922e-06	680.05	164.11	1.3968e-05	1.0953e-05	292.37	104.37	51.453	19.731	3.6819e-06	43.591	0.00087592	0.00081823	0.00025524	564.45	9.2415e-06	8.9733e-06	744.9	186.74	9.1736e-06	9.1394e-06	324.86	113.49	73.391	23.861	1.0829e-05	48.097	80.201	166.213	157.070	-167.040	13.522	-120.663	-167.899	-161.566	-51.961	-123.404	-162.280	-157.809	-157.921	-151.578	-33.281	-152.699	-8191	255	
1985.550	1	1	0	0	0.14785	0.054645	0.13306	0.39153	0.106	0.082672	0.16636	0.36317	0.14738	0.25286	0.31284	0.032375	0.15573	0.18966	0.17803	0.081011	-2.2729	-1.8188	-2.5104	-2.1896	-1.8958	-2.9562	-2.2146	-2.3312	-2.8229	-1.9792	-2.7458	-2.4208	-2.0458	-2.8812	-2.175	-2.0521	21.034	68.657	108.195	99.146	151.747	19.135	67.058	129.471	39.692	35.644	-74.071	140.831	-1.223	-49.743	87.753	125.968	0.0011701	0.001286	0.00022433	497.33	6.6372e-06	5.9666e-06	682.83	162.54	7.2388e-06	2.4631e-06	290.09	104.33	51.98	19.619	8.5345e-06	43.507	0.00090619	0.00094193	0.00028478	576.74	9.9038e-06	1.0775e-05	761.21	190.68	1.0114e-05	1.0971e-05	332.54	115.76	75.74	24.866	1.1691e-05	48.65	91.386	-166.040	-164.393	-167.155	142.317	45.125	-167.880	-161.411	-139.159	179.095	-162.301	-157.988	-157.289	-150.919	76.488	-152.814	-8191	255	
1985.646	1	1	0	0	0.10917	0.082585	0.059983	0.46476	0.10348	0.21148	0.34116	0.084952	0.060884	0.53378	0.10792	0.16353	0.09409	0.11328	0.30369	0.075277	-2.3396	-1.9958	-2.4437	-2.8688	-1.9	-2.6479	-2.25	-2.1562	-2.9875	-1.8875	-2.5792	-2.7562	-1.9979	-2.8625	-2.3042	-2.1167	-155.223	141.113	83.592	-113.872	-122.312	-61.105	149.478	-43.446	-178.208	97.743	-99.905	102.126	125.953	165.587	-3.838	-55.015	0.0017361	0.00023466	0.00053765	498.82	5.1712e-06	8.7902e-06	692.34	163.8	4.5007e-06	7.7803e-06	291.01	103.28	51.244	19.478	5.7573e-06	42.996	0.0009403	0.0010482	0.00029206	578.5	1.0194e-05	1.1468e-05	768.06	191	1.0376e-05	1.167e-05	333.24	114.49	76.291	24.752	1.1333e-05	47.675	67.616	-38.608	41.958	-166.802	173.607	4.734	-167.333	-161.503	-80.092	-167.923	-162.211	-157.450	-157.744	-151.222	-72.559	-152.481	-8191	255	
1985.744	1	1	0	0	0.082911	0.24725	0.14602	0.056045	0.12551	0.018266	0.25597	0.1925	0.1036	0.26804	0.3518	0.061735	0.077103	0.16943	0.067905	0.13826	-2.4813	-2.1854	-2.2875	-2.6667	-2.1479	-2.5396	-2.4833	-2.0375	-2.8375	-2.4021	-2.225	-2.7521	-2.0687	-2.5375	-2.5271	-1.8375	15.926	174.379	100.384	155.710	60.448	98.034	120.887	178.713	-93.679	124.965	139.795	-132.770	-5.467	12.596	-122.900	125.927	0.0021235	0.00078853	0.0001072	503.05	1.0998e-05	8.7636e-06	685.07	162.5	4.8993e-06	1.7103e-06	288.36	102.47	51.224	19.368	6.408e-06	43.169	0.00095075	0.0010536	0.00028411	577.27	1.0505e-05	1.1586e-05	762.55	188.56	1.0856e-05	1.1708e-05	330.07	112.88	78.603	24.738	1.1449e-05	47.461	59.662	-126.307	-173.574	-167.075	-160.176	121.949	-167.266	-161.419	94.317	26.955	-162.185	-157.302	-158.118	-151.161	6.434	-152.957	-8191	255	
1985.862	1	1	0	0	0.19234	0.22348	0.083815	0.43409	0.2349	0.38088	0.18405	0.30409	0.098806	0.21131	0.18676	0.025723	0.25537	0.2993	0.23281	0.06564	-2.4979	-2.2958	-2.0771	-2.8833	-1.7437	-2.4708	-2.6917	-2.0229	-2.8	-2.2354	-2.1188	-2.9333	-2.0104	-2.3312	-2.6729	-1.8229	149.491	42.395	-12.181	51.641	-113.076	91.746	152.175	121.437	-125.737	96.947	106.190	85.843	32.133	25.770	-149.863	-168.089	0.0019252	8.6366e-05	0.0001987	506.6	8.367e-06	3.3237e-06	686.41	163.22	1.1271e-05	1.8654e-06	291.04	103.68	50.612	19.396	1.291e-05	43.183	0.0010322	0.0010856	0.00028733	578.9	1.1515e-05	1.1908e-05	766.12	189.32	1.187e-05	1.2174e-05	333.77	114.39	82.273	25.097	1.1745e-05	48.055	57.237	93.872	-80.648	-167.326	-118.431	48.794	-167.926	-161.904	-131.951	27.893	-162.539	-158.321	-157.902	-151.319	-3.919	-153.491	-8191	255	
1985.959	1	1	0	0	0.2368	0.1465	0.086724	0.17043	0.10111	0.049221	0.23999	0.15337	0.19922	0.23699	0.19908	0.20283	0.058239	0.12207	0.27192	0.22831	-2.4833	-2.2875	-1.825	-2.8729	-1.8875	-2.3271	-2.8021	-1.8771	-2.7458	-2.3979	-2.2104	-2.9188	-1.9813	-2.2833	-2.7625	-2.1167	261.500	249.879	220.432	472.042	186.084	250.793	497.175	260.062	520.520	300.830	450.030	377.914	428.212	494.712	450.298	499.037	0.0019265	0.0012048	0.00012264	507.1	9.5621e-06	7.9062e-06	694.09	164.23	1.2098e-05	3.1719e-06	293.61	103.97	50.955	19.65	5.4941e-06	43.083	0.0011412	0.0011406	0.00029641	590	1.2728e-05	1.2565e-05	776.91	194.87	1.3173e-05	1.2906e-05	338.19	117.42	87.332	25.771	1.2287e-05	49.543	419.308	303.215	249.784	192.108	484.322	330.690	192.360	197.980	194.011	310.906	197.748	201.889	200.973	208.247	184.025	206.118	-8191	255	
1986.055	1	1	0	0	0.1851	0.050659	0.1623	0.12195	0.10096	0.31469	0.15083	0.21768	0.075272	0.025618	0.13149	0.10281	0.33771	0.4199	0.13788	0.11075	-2.2146	-2.5021	-1.5854	-2.7604	-2.3375	-2.0625	-2.7375	-1.7979	-2.4313	-2.7188	-1.8646	-2.8646	-2.2167	-1.9354	-2.6271	-1.925	282.449	503.206	278.842	525.518	472.050	372.353	478.265	495.562	254.105	331.736	539.278	532.916	460.742	510.772	258.288	232.419	0.0012206	0.00048546	0.00020303	510.64	8.0776e-06	1.302e-05	692.15	163.76	8.9581e-06	8.5056e-06	291.76	103.54	51.019	19.621	3.3342e-06	42.996	0.0012732	0.0012436	0.00031223	611.04	1.4253e-05	1.3691e-05	784.28	202.54	1.4543e-05	1.4058e-05	341.86	121.07	91.675	26.414	1.3316e-05	51.135	437.965	519.154	231.359	192.174	322.976	432.538	191.738	197.602	302.312	261.085	196.932	201.565	202.140	208.543	419.843	206.164	-8191	255	
1986.151	1	1	0	0	0.084527	0.19015	0.078703	0.14975	0.14653	0.10111	0.17299	0.37433	0.18653	0.12865	0.16221	0.11344	0.12524	0.20951	0.081004	0.056349	-2.1479	-2.4437	-1.8	-2.8771	-2.2687	-1.9813	-2.8563	-1.9333	-2.3708	-2.7875	-1.9229	-2.7271	-2.3	-2.15	-2.8167	-2.1146	14.799	-69.224	28.253	111.630	161.104	-12.753	69.115	25.645	-115.568	150.574	104.931	-133.605	84.759	118.339	76.127	131.904	0.0012899	0.0010996	0.00035576	511.52	1.0662e-05	7.3716e-06	693.48	164.32	1.217e-05	9.8394e-06	295.09	103.86	51.189	19.372	5.9208e-06	42.508	0.0013882	0.0013514	0.00034145	635.35	1.5588e-05	1.4603e-05	797.42	210.09	1.5528e-05	1.4726e-05	349.64	123.73	93.887	26.311	1.4182e-05	51.881	87.372	-37.938	-144.939	-168.114	-111.668	50.152	-168.255	-161.872	-113.511	38.679	-163.153	-158.388	-158.460	-150.990	94.790	-153.687	-8191	255	
1986.247	1	1	0	0	0.13431	0.066839	0.22365	0.2292	0.15222	0.23062	0.24379	0.09239	0.030903	0.18541	0.15876	0.26914	0.20781	0.11489	0.15005	0.23944	-1.8312	-2.8083	-1.6	-2.55	-2.3875	-1.85	-2.9375	-2.2333	-2.2687	-2.7062	-1.9333	-2.575	-2.3688	-2.0958	-2.8917	-2.0021	514.536	439.985	243.127	503.668	424.864	515.727	288.649	226.082	357.926	271.595	337.268	498.226	252.892	443.813	399.902	534.295	0.0012184	0.0013817	0.00042621	518.03	1.0031e-05	1.8729e-05	700.45	165.71	6.2787e-06	1.4148e-05	294.08	103.87	51.426	19.403	2.5923e-06	42.81	0.0014219	0.0013399	0.00036318	649.08	1.5805e-05	1.4467e-05	812.76	213.73	1.5695e-05	1.4607e-05	357.89	125.22	95.058	26.208	1.54e-05	52.6	448.154	285.547	510.552	192.401	364.709	320.479	192.177	197.730	303.205	293.619	196.647	201.805	202.741	208.802	253.166	206.526	-8191	255	
1986.343	1	1	0	0	0.047229	0.068953	0.045193	0.039534	0.11649	0.037237	0.14701	0.042657	0.21113	0.07666	0.10164	0.13758	0.27135	0.22252	0.1244	0.14202	-1.9	-2.575	-1.8	-2.55	-2.6354	-2.0583	-2.8896	-2.2792	-2.2313	-2.9583	-2.0729	-2.4688	-2.6167	-1.8271	-2.6375	-2.5771	41.453	-138.452	77.123	114.163	177.411	47.296	51.360	-125.912	102.344	82.420	159.814	70.160	139.928	95.536	-49.173	126.975	0.0013415	0.00071862	0.00051561	517.53	1.3461e-05	8.1903e-06	702.56	165.44	7.4483e-06	1.1458e-05	294.04	104.42	52.063	19.414	6.8909e-06	42.692	0.0014368	0.0013291	0.00039856	654.3	1.5955e-05	1.4474e-05	828.54	214.83	1.5617e-05	1.4268e-05	362.65	124.66	91.922	25.712	1.5066e-05	51.364	91.722	-166.289	-166.050	-167.128	59.656	11.904	-167.988	-161.517	-94.114	-54.681	-162.931	-157.730	-158.746	-151.497	-92.214	-153.211	-8191	255	
1986.464	1	1	0	0	0.077203	0.179	0.19603	0.34704	0.17612	0.20051	0.085654	0.14825	0.12195	0.09645	0.051011	0.045358	0.20057	0.24252	0.28807	0.065138	-1.6667	-2.7417	-1.9688	-2.2	-2.675	-2.0396	-2.6813	-2.3438	-2.1917	-2.7229	-2.0979	-2.3979	-2.6792	-1.8813	-2.6312	-2.5854	-86.554	90.493	-84.310	-149.815	-25.777	-95.590	11.423	-151.880	168.973	108.695	83.436	99.252	-165.711	-160.447	-56.557	131.632	0.0014699	0.00041641	0.00070656	521.27	6.7368e-06	4.2771e-06	700.4	164.24	1.2796e-05	1.6137e-06	293.02	103.14	51.392	18.803	6.4165e-06	42.654	0.0012696	0.0011939	0.00036624	629.28	1.3486e-05	1.2663e-05	807.38	204.66	1.2954e-05	1.2748e-05	352.26	119.81	84.718	24.928	1.4208e-05	50.07	80.336	-5.605	88.238	-167.276	-6.070	168.795	-167.245	-161.685	-45.176	-119.060	-162.382	-157.245	-156.871	-150.557	3.435	-152.932	-8191	255	
1986.558	1	1	0	0	0.080871	0.124	0.10226	0.18069	0.19249	0.090977	0.1187	0.21481	0.11858	0.07516	0.056517	0.23954	0.21655	0.046751	0.22793	0.13813	-1.5667	-2.6562	-2.2542	-2.2167	-2.6063	-2.2104	-2.6542	-2.3917	-2.0812	-2.8458	-2.2396	-2.4313	-2.9208	-1.8229	-2.5833	-2.4771	179.178	163.380	-54.363	166.848	75.214	72.131	-153.726	75.445	156.252	-155.735	-77.115	-153.024	89.868	-84.776	-148.504	-18.198	0.0010142	0.0013622	0.00012517	522.01	1.0412e-05	4.7299e-06	703.64	164.82	6.6551e-06	7.2823e-06	295.91	104.44	51.629	19.135	7.7378e-06	43.077	0.001166	0.001223	0.00037188	630.82	1.3089e-05	1.3554e-05	811.69	204.44	1.2646e-05	1.3563e-05	353.51	119.84	82.511	25.447	1.4088e-05	50.687	73.927	160.016	30.697	-166.978	-76.888	-69.173	-167.186	-161.821	-78.572	167.580	-162.499	-157.582	-156.986	-152.014	-23.750	-152.734	-8191	255	
1986.632	1	1	0	0	0.10985	0.022109	0.22209	0.17886	0.20592	0.16787	0.023868	0.2265	0.1763	0.063792	0.082404	0.20751	0.047664	0.18972	0.072194	0.063913	-1.65	-2.7313	-2.0292	-2.2292	-2.95	-1.9021	-2.4042	-2.7542	-2.125	-2.7812	-2.3854	-2.2708	-2.8417	-1.9271	-2.3604	-2.7313	-18.088	-73.243	165.700	149.356	32.961	-152.406	-83.310	78.208	-155.756	41.976	-133.274	111.074	149.185	-4.971	47.385	59.232	0.0014267	0.00047906	3.8789e-05	513.69	1.3329e-05	6.7015e-06	699.59	166.17	1.0613e-05	7.8245e-06	295.48	105.65	51.152	19.331	1.2576e-05	43.865	0.0011782	0.0013305	0.00038517	629.17	1.3541e-05	1.5134e-05	816.99	206.16	1.3221e-05	1.4621e-05	356.16	121.06	85.047	26.326	1.4236e-05	51.01	82.008	176.571	125.853	-167.384	-110.166	-75.849	-167.633	-161.956	-110.533	-41.229	-162.506	-157.616	-158.595	-152.106	-14.376	-153.655	-8191	255	
1986.726	1	1	0	0	0.16609	0.058632	0.14787	0.11497	0.042699	0.065827	0.28755	0.065527	0.12561	0.22224	0.0037755	0.34024	0.0055064	0.044822	0.15535	0.092315	-1.4979	-2.6896	-2.2479	-2.1083	-2.9667	-2.0792	-2.3396	-2.8583	-1.9958	-2.6167	-2.3667	-2.1208	-2.9229	-2.0583	-2.2729	-2.8042	467.278	339.882	503.322	389.587	347.944	441.911	397.053	255.322	397.510	261.938	350.860	533.119	299.738	246.795	470.437	287.260	0.0017272	0.00040639	0.00021902	499.2	1.3035e-05	8.1303e-06	691.46	164.7	2.0364e-05	7.7231e-07	295.14	105.91	51.683	19.488	3.2406e-06	44.148	0.0011816	0.0013446	0.00037004	607.18	1.3691e-05	1.522e-05	808.28	203.65	1.4038e-05	1.5338e-05	358.71	121.77	89.487	27.104	1.4598e-05	51.318	415.740	373.774	361.561	192.245	231.694	215.906	191.658	197.552	521.125	358.429	196.400	201.539	201.166	207.787	394.295	205.699	-8191	255	
1986.847	1	1	0	0	0.15848	0.1017	0.16141	0.062264	0.28025	0.11405	0.13732	0.022964	0.2013	0.27025	0.073049	0.083003	0.22412	0.17838	0.024904	0.21729	-1.4333	-2.4458	-2.6417	-1.8792	-2.8563	-2.1229	-1.9625	-2.7625	-1.7458	-2.3667	-2.5771	-1.8312	-2.7687	-2.2875	-1.95	-2.7167	372.778	361.178	206.212	492.480	181.520	471.676	442.109	256.123	434.627	222.390	407.235	473.016	395.971	421.566	185.045	522.497	0.0011671	0.001556	0.00025987	498.36	6.5572e-06	6.8891e-06	689.14	163.38	8.53e-06	1.1349e-05	296.27	105.49	52.313	19.508	7.8892e-06	43.927	0.0012837	0.0013676	0.00036787	601.92	1.4389e-05	1.5085e-05	801.74	200.63	1.4685e-05	1.5163e-05	356.39	121.26	93.158	27.179	1.4705e-05	51.504	379.875	249.150	272.468	191.626	425.326	294.613	191.482	197.185	426.644	421.528	196.469	201.678	202.040	208.146	297.172	206.265	-8191	255	
1986.943	1	1	0	0	0.090444	0.26296	0.069795	0.23401	0.08038	0.099704	0.12919	0.22773	0.16314	0.10711	0.17934	0.093098	0.044808	0.17956	0.078026	0.26803	-1.5583	-2.5292	-2.7833	-1.7667	-2.8604	-2.2917	-2.0583	-2.7729	-2.0667	-2.2604	-2.7417	-1.9937	-2.4646	-2.5333	-1.8729	-2.8187	200.443	537.434	484.504	435.295	475.290	190.864	497.916	443.360	465.223	407.678	379.212	232.936	242.797	439.401	283.004	346.549	0.00046204	0.0012629	0.00058006	498.05	5.1192e-06	4.9512e-06	690.16	163.22	1.4815e-05	4.4948e-06	294.4	105.23	50.74	19.401	1.1683e-05	43.937	0.0013978	0.0014056	0.00036984	603.3	1.5255e-05	1.5075e-05	794.35	200.13	1.5045e-05	1.4657e-05	348.47	120.15	91.181	26.462	1.3278e-05	51.117	445.094	518.258	281.166	191.890	376.809	342.188	191.949	197.535	527.107	223.391	196.921	201.206	201.468	208.698	372.293	206.780	-8191	255	
1987.039	1	1	0	0	0.162	0.11845	0.1817	0.17761	0.22787	0.089304	0.31226	0.043721	0.12764	0.28209	0.063238	0.15685	0.21901	0.065065	0.061412	0.091226	-1.8563	-2.0771	-2.5271	-1.85	-2.5062	-2.4271	-2.0271	-2.7687	-2.25	-2.0417	-2.8292	-1.9521	-2.7	-2.5708	-2.0458	-2.7042	87.893	-168.245	89.757	178.669	-54.081	165.166	100.310	82.637	117.694	-22.699	-97.579	122.090	-87.778	-99.248	174.697	90.997	0.00096976	0.00054901	0.00036282	495.78	3.4364e-06	1.0427e-05	687.44	161.71	7.5713e-06	9.06e-06	290.84	105.46	50.716	19.355	1.1185e-05	44.296	0.0013509	0.0013045	0.00033467	599.59	1.4722e-05	1.4355e-05	782.06	201.39	1.5009e-05	1.4404e-05	344.22	122.32	91.962	26.471	1.3066e-05	52.226	81.581	127.048	-69.821	-167.052	56.591	-98.083	-167.806	-161.931	-127.560	-49.743	-162.388	-157.789	-156.808	-150.480	23.882	-152.871	-8191	255	
1987.135	1	1	0	0	0.11185	0.18367	0.062125	0.32735	0.16362	0.11094	0.27632	0.25308	0.31129	0.25303	0.12092	0.13571	0.14343	0.26953	0.075293	0.20413	-1.9542	-2.325	-2.6646	-1.8979	-2.5708	-2.8083	-1.9042	-2.4813	-2.1437	-2.0438	-2.9646	-2.0354	-2.1229	-2.5271	-1.9708	-2.65	46.032	-152.049	163.135	131.605	-137.265	24.699	-107.591	63.107	-120.943	158.120	83.611	72.744	-151.864	90.379	-150.459	132.631	0.0013524	0.00076158	0.00032497	492.98	1.2985e-05	9.4412e-06	680.23	162.03	7.8348e-06	8.9091e-06	290.51	105.42	51.46	19.607	8.516e-06	44.46	0.0013696	0.0013054	0.00033533	608.37	1.498e-05	1.4402e-05	779.02	205.23	1.5213e-05	1.4299e-05	345.38	123.92	91.811	26.505	1.3294e-05	52.933	90.035	-28.256	-147.987	-167.463	-18.773	-39.828	-167.522	-161.722	-111.172	-27.506	-162.733	-158.655	-157.691	-151.382	-127.422	-153.576	-8191	255	
1987.256	1	1	0	0	0.074254	0.18307	0.075943	0.080487	0.12837	0.1391	0.28069	0.16599	0.31315	0.055283	0.36869	0.054583	0.23854	0.10819	0.039047	0.25258	-1.7271	-1.9	-2.8104	-2.1292	-2.3854	-2.7938	-1.8792	-2.5687	-2.3708	-1.9354	-2.7958	-2.4583	-2.2958	-2.975	-1.7729	-2.5375	90.280	-88.857	140.009	-3.761	147.760	-32.957	172.389	24.416	105.941	28.760	-115.822	95.615	-139.352	12.952	-58.171	80.330	0.0020565	0.00098071	0.00024868	488.09	4.4003e-06	9.6363e-07	679.55	161.22	1.3351e-05	8.7277e-06	294.53	105.94	52.019	19.959	1.1409e-05	45.535	0.0013497	0.0012529	0.00033904	607.97	1.4448e-05	1.3503e-05	778.46	203.65	1.4413e-05	1.3e-05	347.22	124.3	88.828	25.98	1.3197e-05	52.845	52.400	-61.524	88.725	-167.577	27.493	-160.951	-167.628	-161.754	-57.326	-71.076	-162.958	-158.066	-157.013	-151.446	-125.059	-152.921	-8191	255	
1987.327	1	1	0	0	0.18308	0.030592	0.213	0.21355	0.086422	0.17561	0.13039	0.17118	0.29139	0.084814	0.10558	0.083759	0.046256	0.11547	0.13144	0.25953	-1.9167	-1.9354	-2.5958	-2.05	-2.3271	-2.8	-1.9021	-2.4375	-2.3833	-1.8979	-2.6375	-2.2562	-2.1229	-2.8146	-1.7792	-2.5312	48.949	145.392	-75.676	135.644	116.759	-59.730	168.994	-99.506	63.598	-106.521	-11.099	-171.896	-133.088	82.635	-16.726	-162.161	0.0013044	0.00036372	0.00030156	486.22	1.59e-05	9.281e-06	684.14	160.86	1.1381e-05	5.1634e-06	293.07	107.46	51.27	20.093	4.4685e-06	45.482	0.0012407	0.0010994	0.00032523	591.44	1.2806e-05	1.1661e-05	773.74	197.56	1.2784e-05	1.1526e-05	344.83	122.57	84.894	25.462	1.3276e-05	52.428	80.502	-103.224	123.918	-167.745	70.758	10.483	-167.921	-161.855	-75.529	-36.288	-162.867	-158.481	-158.403	-151.824	160.466	-153.412	-8191	255	
1987.424	1	1	0	0	0.097578	0.15154	0.045575	0.20488	0.067405	0.16292	0.15857	0.10927	0.027905	0.22494	0.34792	0.13721	0.32097	0.2577	0.12617	0.18269	-2.3875	-1.8188	-2.6583	-2.4479	-1.9729	-2.9104	-1.8771	-2.5687	-2.5417	-1.9583	-2.8542	-2.4917	-1.9583	-2.5563	-2.0125	-2.4604	73.769	-153.766	75.186	120.288	49.259	56.636	123.180	7.944	-68.372	-96.144	-174.157	112.007	8.789	122.232	156.156	114.412	0.0011639	0.00021265	0.00059333	485.21	1.3879e-05	9.1733e-06	678.58	160.36	2.9406e-06	4.1748e-06	295.09	107.81	52.614	20.234	7.53e-06	45.961	0.0011669	0.0010688	0.00033301	585.69	1.2171e-05	1.1466e-05	774.66	195.63	1.2e-05	1.1329e-05	345.19	121.66	81.995	25.577	1.3297e-05	52.324	89.755	55.017	152.341	-167.427	54.973	-133.878	-167.832	-161.555	-95.096	-127.642	-162.876	-158.370	-157.830	-151.977	-89.474	-153.480	-8191	255	
1987.544	1	1	0	0	0.22974	0.039595	0.20749	0.25714	0.19681	0.27406	0.11727	0.1102	0.061207	0.18856	0.32465	0.35337	0.14978	0.1271	0.047168	0.13676	-2.5292	-1.6625	-2.3937	-2.4771	-1.7479	-2.8729	-2.0708	-2.0625	-2.8229	-2.1146	-2.6833	-2.7729	-1.7875	-2.8417	-2.1792	-2.0583	20.031	-70.468	-165.888	153.925	0.363	-167.636	122.392	109.312	-6.982	-163.931	-128.484	134.790	7.405	76.677	5.725	164.757	0.0012512	0.00056258	0.00034299	483.53	2.0016e-06	1.1119e-05	682.53	161.51	1.1169e-05	1.7576e-05	293.56	107.88	52.041	20.328	5.2651e-06	45.849	0.0011102	0.0011098	0.00033977	584.12	1.1653e-05	1.2057e-05	776.46	194.32	1.1242e-05	1.1881e-05	343.53	121.16	80.471	26.038	1.3535e-05	52.426	73.868	-171.361	106.635	-167.455	74.293	-117.647	-167.986	-161.747	-29.252	-140.771	-162.129	-157.513	-158.249	-151.415	43.295	-152.911	-8191	255	
1987.639	1	1	0	0	0.11685	0.17388	0.12221	0.14116	0.23431	0.14286	0.30099	0.20016	0.040698	0.30284	0.036987	0.15355	0.1092	0.13432	0.061773	0.025973	-2.5396	-1.8667	-2.5812	-2.7375	-1.8	-2.9646	-2.1479	-1.9917	-2.9938	-2.0646	-2.2729	-2.4729	-1.8125	-2.7771	-2.0875	-1.9521	-52.020	91.315	-95.955	144.707	-112.100	115.574	120.214	-86.468	84.330	54.419	149.516	170.687	-173.931	-76.607	97.160	-59.057	0.001685	0.0012285	0.00011018	481.92	1.1562e-05	7.7082e-06	683.81	161.18	1.2327e-05	1.0107e-05	294.49	107.31	51.03	19.895	1.9598e-06	45.227	0.0011115	0.0012392	0.00036284	592.86	1.2701e-05	1.4428e-05	794.96	199.61	1.2771e-05	1.4092e-05	352.55	122.47	83.04	26.592	1.3914e-05	51.823	73.765	152.982	-82.497	-167.329	-6.543	-56.917	-167.194	-161.239	-169.071	-175.756	-162.112	-157.764	-157.990	-151.392	-164.764	-152.833	-8191	255	
1987.735	1	1	0	0	0.080332	0.20695	0.14839	0.19683	0.14043	0.050747	0.15567	0.098276	0.11817	0.15672	0.21825	0.10224	0.29783	0.12783	0.15777	0.11784	-2.4021	-1.7542	-2.1875	-2.5062	-2.1042	-2.6458	-2.3625	-1.8896	-2.9437	-2.0708	-2.0812	-2.9042	-1.8729	-2.625	-2.4688	-2.025	367.965	496.473	526.198	242.530	340.666	360.552	515.357	343.351	271.328	222.451	205.345	329.388	356.195	219.092	405.202	487.497	0.0015734	0.00019253	0.00015394	480.88	9.2923e-06	3.2077e-06	674.31	158.85	1.198e-05	3.066e-06	292.23	105.4	49.889	19.682	1.526e-06	44.498	0.0011624	0.0013204	0.00036466	593.03	1.3524e-05	1.5373e-05	800.74	200.04	1.4651e-05	1.638e-05	360.37	123.54	91.347	27.767	1.5638e-05	52.116	429.053	188.535	273.856	192.401	185.890	477.707	191.923	197.924	186.866	254.274	196.780	201.934	201.808	208.353	379.351	206.739	-8191	255	
1987.855	1	1	0	0	0.102	0.14325	0.095236	0.18425	0.14606	0.14105	0.098987	0.18639	0.060312	0.13134	0.13628	0.1147	0.086898	0.21587	0.1152	0.16804	-2.3125	-1.8958	-2.1208	-3.0563	-2.0292	-2.3896	-2.5917	-1.925	-2.6417	-2.0354	-2.1854	-2.8104	-1.9875	-2.5062	-2.6771	-2.0354	220.821	510.743	318.549	538.318	433.451	422.301	265.290	400.078	336.128	271.269	446.324	476.708	450.124	480.183	310.003	324.097	0.0018483	0.00060465	8.487e-05	483.23	7.3944e-06	2.5962e-07	676.74	158.43	2.2502e-05	3.5673e-06	288.06	104.73	49.134	19.43	2.4017e-06	44.188	0.0013399	0.0014233	0.0003748	590.09	1.4436e-05	1.5261e-05	792.6	196.04	1.4786e-05	1.528e-05	349.91	120.27	90.395	26.822	1.45e-05	51.235	426.410	217.088	395.888	191.810	535.961	308.295	191.642	197.869	245.591	462.019	196.946	201.421	200.714	208.043	258.129	206.271	-8191	255	
1987.927	1	1	0	0	0.20731	0.2514	0.14194	0.22872	0.1796	0.24238	0.094853	0.19185	0.15002	0.24782	0.072306	0.27283	0.11157	0.13832	0.21788	0.18377	-2.3104	-2.3604	-2.0646	-2.8479	-1.9667	-2.4167	-2.6	-1.9	-2.95	-2.1583	-1.9083	-2.9875	-1.7979	-2.45	-2.7396	-1.7896	384.702	184.116	185.271	229.718	266.969	189.459	524.700	253.228	206.110	344.929	531.447	217.338	192.498	440.660	412.298	485.765	0.0021517	0.00078897	0.0005426	484.24	6.1135e-06	6.9054e-06	678.99	158.65	1.8837e-05	1.5723e-05	288.84	105.67	49.902	19.418	2.5466e-06	44.846	0.0013651	0.001386	0.00035928	587.86	1.5161e-05	1.5025e-05	786.92	196.25	1.5333e-05	1.5093e-05	347.75	121.46	92.875	26.953	1.4334e-05	52.183	430.258	280.384	303.275	191.958	289.128	502.175	191.756	197.689	515.685	377.318	197.140	201.857	201.737	208.400	217.381	206.308	-8191	255	
1988.023	1	1	0	0	0.29725	0.19954	0.15142	0.17778	0.1165	0.214	0.1722	0.20207	0.035835	0.23888	0.215	0.33284	0.041041	0.099603	0.18947	0.16061	-2.2479	-2.4625	-1.8792	-2.8708	-2.0833	-2.2583	-2.9042	-1.8021	-2.5396	-2.5375	-2.2771	-2.8917	-2.2208	-2.325	-2.6667	-2.1021	318.238	386.884	498.569	525.234	195.134	438.947	413.872	281.355	281.204	390.279	296.674	480.518	524.350	504.590	472.414	200.484	0.0020484	0.0006353	0.00041334	481.17	8.0238e-06	5.8154e-06	677	158.69	4.876e-06	2.7688e-06	290.73	105.66	50.039	19.657	1.4304e-05	44.715	0.0014482	0.001413	0.00035874	599.8	1.6159e-05	1.554e-05	790.77	202.2	1.6328e-05	1.5704e-05	349.06	124.93	96.339	27.287	1.4478e-05	53.477	422.436	416.799	257.026	191.668	226.809	363.240	192.070	197.719	531.310	417.721	197.122	201.477	201.120	208.154	338.847	206.080	-8191	255	
1988.144	1	1	0	0	0.25851	0.094788	0.23543	0.20289	0.32497	0.27655	0.097564	0.13043	0.12163	0.049647	0.10143	0.16659	0.061943	0.18111	0.29972	0.14816	-2.2313	-2.2771	-1.7188	-2.7875	-2.075	-2.2396	-2.7792	-1.9667	-2.2938	-2.5625	-1.9625	-2.8583	-2.0875	-1.8854	-2.8812	-1.8875	228.551	260.744	223.653	482.102	186.882	332.753	186.153	228.954	448.245	397.364	449.384	432.732	315.675	346.946	341.920	275.958	0.0012279	0.00061652	0.00029188	482.57	9.5636e-06	5.6166e-06	674.82	158.32	1.5845e-05	1.5081e-05	288.88	105.06	49.84	19.546	4.9903e-06	44.218	0.0014844	0.0014191	0.00035268	607.98	1.599e-05	1.5013e-05	782.25	203.56	1.5621e-05	1.4865e-05	345.23	124.86	93.284	26.627	1.3926e-05	53.252	457.623	270.658	354.041	192.012	244.699	389.259	191.852	197.347	332.620	357.201	196.931	201.841	201.185	208.189	236.714	206.420	-8191	255	
1988.240	1	1	0	0	0.12339	0.18976	0.282	0.16016	0.21929	0.13789	0.29002	0.22232	0.10101	0.064834	0.14815	0.21586	0.2628	0.14474	0.042689	0.23035	-1.8271	-2.5771	-1.6792	-2.6625	-2.4625	-2.0625	-2.7333	-2.1208	-2.2021	-2.6833	-2.0875	-2.7375	-2.2854	-1.7771	-2.9062	-2.0479	-8.556	134.947	-57.917	-154.104	100.201	-70.221	-179.617	-160.001	-53.593	-120.961	-129.128	160.929	103.297	98.678	-90.787	121.858	0.00093908	0.0019777	0.0001684	483.3	6.2896e-06	1.4679e-05	682.05	157.16	8.458e-06	1.5374e-05	288.87	105.6	50.19	19.563	1.5625e-05	44.468	0.0013979	0.001319	0.00034461	608.06	1.5151e-05	1.3869e-05	782.63	203.06	1.4969e-05	1.399e-05	347.34	125.12	91.588	26.12	1.455e-05	53.49	61.229	-68.884	112.526	-167.952	-35.116	-3.835	-168.202	-161.704	-56.168	-23.866	-162.660	-158.010	-158.571	-151.394	-123.099	-153.412	-8191	255	
1988.336	1	1	0	0	0.19387	0.16401	0.11858	0.2652	0.15992	0.070129	0.068031	0.071291	0.32233	0.21893	0.057183	0.11917	0.076576	0.19652	0.11643	0.094866	-1.7667	-2.7208	-1.7938	-2.4958	-2.3438	-1.8875	-2.7562	-2.1208	-1.8563	-2.7667	-1.9542	-2.625	-2.4188	-1.9375	-2.6979	-2.1312	234.025	431.832	384.457	461.393	399.781	281.139	213.266	465.052	221.934	190.776	434.725	327.648	187.798	223.245	461.753	265.651	0.00087394	0.0010395	0.0006113	481.95	6.9337e-06	6.2644e-06	678.16	158.18	2.3294e-05	8.9017e-06	288.48	105.11	49.864	19.427	2.2454e-06	44.353	0.0013744	0.0012747	0.00036816	608.43	1.5119e-05	1.3535e-05	794.15	203.5	1.486e-05	1.3571e-05	352.77	124.69	91.157	25.937	1.5573e-05	53.796	423.993	283.779	533.092	192.197	235.947	221.378	191.619	197.692	268.998	425.959	196.880	201.960	201.505	207.933	408.360	206.680	-8191	255	
1988.432	1	1	0	0	0.15187	0.10697	0.28633	0.081581	0.18898	0.11179	0.083066	0.20487	0.21318	0.22746	0.066854	0.074636	0.069389	0.22939	0.18585	0.32113	-1.5083	-2.9146	-1.8729	-2.3208	-2.4271	-1.8625	-2.7958	-2.1208	-1.9188	-2.975	-1.9292	-2.2292	-2.7375	-1.8521	-2.7229	-2.35	185.597	290.468	184.365	205.541	520.056	275.734	532.119	197.220	493.475	477.386	364.219	394.492	453.108	477.535	221.395	519.309	0.001122	0.0010673	0.00030187	481	1.9198e-06	3.6435e-06	683.54	157.56	1.3184e-05	1.0258e-06	289.98	104.04	50.444	19.055	1.1943e-05	43.872	0.0014008	0.0013212	0.00040708	614.87	1.5458e-05	1.422e-05	810.68	204.93	1.4893e-05	1.4038e-05	356.97	123.28	88.3	25.661	1.5386e-05	52.286	424.592	520.273	307.422	192.499	248.868	500.033	192.057	197.875	318.234	321.406	197.229	202.235	202.430	207.912	346.981	206.531	-8191	255	
1988.528	1	1	0	0	0.265	0.040215	0.29782	0.10408	0.31539	0.11674	0.30405	0.11102	0.032284	0.1986	0.20625	0.069758	0.16492	0.16581	0.089399	0.069815	-1.3396	-2.7667	-2.1854	-2.1229	-2.7458	-1.9438	-2.4792	-2.4292	-2.05	-2.7188	-2.2896	-2.2188	-2.7354	-2.0271	-2.5729	-2.6063	516.833	311.580	209.704	187.425	389.334	508.757	410.686	250.102	320.451	291.358	216.350	203.485	338.842	420.301	428.796	363.791	0.0012253	0.0010942	0.00030959	483.64	9.7481e-06	7.3699e-06	675.82	154.24	8.0352e-06	1.1694e-05	288.11	103.69	49.756	19.114	1.4039e-05	43.85	0.0012563	0.0012628	0.00039181	602.45	1.3908e-05	1.401e-05	797.88	197.98	1.3124e-05	1.3603e-05	347.63	120.12	82.154	25.204	1.3824e-05	50.68	474.080	485.505	267.512	192.371	344.126	235.643	192.078	197.974	239.566	227.755	196.672	202.126	201.597	207.846	319.894	206.632	-8191	255	
1988.623	1	1	0	0	0.2368	0.18177	0.36453	0.051112	0.22668	0.18639	0.083503	0.026344	0.20471	0.2154	0.094303	0.043306	0.11355	0.15199	0.18918	0.23603	-1.3625	-2.7583	-2.3458	-2.1458	-2.5687	-1.6917	-2.6833	-2.5625	-1.8021	-2.5979	-2.3375	-2.0396	-2.5	-1.9625	-2.5563	-2.7042	-167.889	69.630	-110.860	139.398	169.292	135.369	-108.572	-135.994	106.015	125.008	-149.667	-92.661	-100.150	82.781	132.359	178.506	0.0011914	0.00094135	0.00018397	482.42	5.8551e-06	6.9712e-06	681.41	155.5	8.9581e-06	4.0203e-06	288.81	105.34	49.352	19.453	6.129e-06	44.778	0.0010734	0.0011722	0.00033993	581.52	1.1748e-05	1.2989e-05	779.86	192.2	1.1778e-05	1.3184e-05	343.74	119.46	80.827	25.873	1.3706e-05	51.511	101.725	136.666	63.422	-167.719	-79.394	165.528	-167.588	-161.900	-111.946	-132.064	-162.579	-157.933	-157.527	-152.003	73.099	-153.301	-8191	255	
1988.719	1	1	0	0	0.12809	0.2158	0.23398	0.1165	0.14102	0.22951	0.11588	0.15081	0.030001	0.27625	0.242	0.19553	0.14281	0.15151	0.067073	0.16226	-1.4354	-2.8792	-2.2771	-2.0042	-2.925	-2.0896	-2.5542	-2.5604	-1.6542	-2.6417	-2.4146	-2.0396	-2.9313	-2.2208	-2.1896	-2.6771	118.838	63.131	-139.109	-151.449	-19.797	142.051	83.513	136.097	-142.104	10.523	-117.431	-87.595	-70.653	-174.082	-161.829	128.065	0.0015682	0.00099586	0.00014417	480.45	4.3663e-06	6.4502e-06	682.04	156.72	7.964e-06	7.2424e-06	291.66	106.02	50.24	19.355	8.4077e-06	44.256	0.0011152	0.0012649	0.00034773	580.91	1.2465e-05	1.4002e-05	786.41	194.15	1.2708e-05	1.4402e-05	349.56	120.75	85.787	26.601	1.4473e-05	51.483	55.908	-113.722	-23.961	-167.275	161.166	-15.879	-167.653	-161.371	-61.870	-141.119	-162.409	-157.573	-158.247	-151.579	29.693	-152.773	-8191	255	
1988.817	1	1	0	0	0.29401	0.20326	0.18535	0.12688	0.22886	0.23144	0.20129	0.24766	0.26317	0.094571	0.055627	0.16682	0.097933	0.2207	0.13801	0.19437	-1.4896	-2.6979	-2.3396	-1.9271	-2.925	-1.9833	-2.1896	-2.7062	-1.9396	-2.5979	-2.4313	-2.0604	-2.85	-2.0417	-2.0375	-2.9271	-7.968	13.984	-5.781	-17.454	92.712	45.082	115.886	178.841	177.446	170.125	-123.299	-61.511	29.324	153.057	20.784	83.180	0.0015981	0.00089819	0.00022736	481.66	1.3782e-05	3.8934e-06	680.69	156.44	1.679e-05	4.5192e-06	284.82	103.64	48.365	19.068	1.4263e-05	43.787	0.001262	0.0013807	0.00037203	584.08	1.3974e-05	1.4919e-05	786.18	192.18	1.3787e-05	1.4352e-05	343.39	117.7	86.351	26.067	1.3838e-05	50.225	72.170	-73.574	172.816	-167.249	-119.121	123.632	-167.433	-161.483	-168.679	143.215	-162.229	-157.343	-158.605	-151.024	-24.340	-152.547	-8191	255	
1988.936	1	1	0	0	0.28662	0.10262	0.058765	0.30539	0.13834	0.24073	0.24346	0.10594	0.11077	0.14629	0.18935	0.16032	0.11601	0.13762	0.38452	0.2209	-1.4667	-2.4167	-2.4917	-1.8083	-2.8354	-2.2188	-2.0146	-2.8604	-1.9854	-2.3208	-2.65	-1.8958	-2.625	-2.3542	-1.825	-2.9333	232.055	357.867	258.237	434.427	398.011	331.335	462.264	234.047	310.737	403.289	272.553	237.767	183.148	417.548	371.005	519.932	0.0019736	0.00032705	0.00010707	476.1	1.9252e-05	5.6679e-06	670.98	156.86	5.3253e-06	7.8433e-06	288.63	104.3	49.812	19.113	8.3602e-06	43.91	0.0012958	0.0013368	0.00035567	578.33	1.4523e-05	1.467e-05	779.44	192.25	1.4402e-05	1.4263e-05	342.5	118.23	87.725	25.829	1.3002e-05	50.386	422.133	205.581	276.863	192.971	479.880	528.148	192.851	197.777	223.736	333.383	197.355	202.072	202.322	208.648	352.665	206.673	-8191	255	
1989.032	1	1	0	0	0.058573	0.12651	0.092097	0.0344	0.12723	0.19932	0.12168	0.22165	0.11235	0.3035	0.25645	0.26917	0.050535	0.013936	0.028765	0.097988	-1.5896	-2.2104	-2.6208	-2.0042	-2.6792	-2.3229	-1.9312	-2.7188	-2.1396	-2.2562	-2.6958	-1.7854	-2.6792	-2.5375	-1.6333	-2.7812	295.864	300.930	337.067	533.004	452.380	510.459	357.810	214.453	431.239	438.307	421.191	201.136	345.149	253.871	428.873	532.482	0.0015513	0.0003536	0.00044529	480.53	9.1827e-06	1.1595e-05	677.57	156.25	1.0259e-05	1.0322e-05	284.54	103.12	48.614	18.994	5.9175e-06	43.774	0.0012941	0.0012618	0.00032518	577.45	1.395e-05	1.3552e-05	765.13	190.35	1.3664e-05	1.2999e-05	330.78	116.66	83.641	24.765	1.1448e-05	49.633	428.871	186.456	332.494	192.011	366.043	339.632	192.069	197.703	430.701	370.966	197.150	201.773	201.754	207.963	301.361	206.358	-8191	255	
1989.128	1	1	0	0	0.28429	0.13968	0.11051	0.28698	0.22278	0.084639	0.17869	0.05922	0.13071	0.16381	0.094785	0.15464	0.09722	0.23229	0.17365	0.060368	-1.65	-2.2104	-2.8667	-2.05	-2.3875	-2.575	-2.0062	-2.7	-2.2771	-2.1042	-2.9	-2.0167	-2.4	-2.4313	-1.8646	-2.7458	503.747	408.291	465.480	522.748	261.139	325.506	443.330	354.611	406.213	326.614	343.909	463.270	192.950	467.973	365.143	521.936	0.0014992	0.001052	0.00022076	480.14	8.4503e-06	1.4252e-05	674.72	155.41	7.2786e-06	4.162e-06	282.36	102.71	48.25	18.632	5.7324e-06	43.511	0.0011818	0.0011304	0.00028372	569.73	1.2354e-05	1.1751e-05	741.61	185.84	1.1589e-05	1.0749e-05	315.34	113.81	76.609	23.404	9.6203e-06	48.407	424.551	521.261	377.286	191.995	222.943	362.878	192.001	197.617	428.262	330.048	196.986	201.762	201.619	208.508	523.615	206.894	-8191	255	
1989.224	1	1	0	0	0.10035	0.095428	0.17188	0.081261	0.22933	0.01821	0.20492	0.18524	0.17091	0.085385	0.09586	0.26902	0.12998	0.17746	0.1678	0.17691	-1.8729	-1.8479	-2.7375	-2.1271	-2.2021	-2.7104	-2.1063	-2.6854	-2.2479	-2.0438	-2.8667	-1.9271	-2.3708	-2.7458	-1.8375	-2.7812	358.290	364.137	351.182	321.859	428.803	389.489	451.501	389.273	396.913	526.927	287.485	531.504	539.708	245.749	461.129	322.747	0.00074401	0.001393	0.00025754	479.98	8.8215e-06	1.5896e-06	672.9	155.51	6.4907e-06	6.1777e-06	285.61	103.48	49.704	18.758	4.6148e-06	43.596	0.00099174	0.00091565	0.00023869	555.82	1.0574e-05	9.9946e-06	732.48	184.95	1.0964e-05	1.0139e-05	320.21	115.96	79.719	24.125	1.1838e-05	50.421	415.006	297.123	182.074	192.459	361.695	277.389	192.459	197.980	413.126	309.247	197.110	202.105	202.278	208.634	214.940	207.542	-8191	255	
1989.320	1	1	0	0	0.095314	0.13069	0.28992	0.037895	0.16585	0.28263	0.10801	0.12636	0.11308	0.19938	0.060644	0.2084	0.21566	0.086265	0.05764	0.27169	-1.9854	-2.0271	-2.7458	-2.0812	-2.2208	-2.7333	-1.9771	-2.4792	-2.5125	-1.8875	-2.7729	-2.4167	-1.9438	-2.8312	-2.1771	-2.4375	459.226	500.615	487.475	438.343	446.094	200.216	323.738	229.812	465.371	500.302	261.914	193.601	481.340	238.520	247.887	445.365	0.0012118	0.00054381	0.00022793	480.12	2.077e-07	7.2002e-06	675.87	156.52	4.4059e-06	5.8364e-06	286.88	103.04	49.328	18.733	9.4469e-06	43.639	0.0011913	0.0011012	0.00030881	583.82	1.3135e-05	1.205e-05	765.66	193.71	1.3335e-05	1.2171e-05	338.31	119.61	85.214	24.548	1.3182e-05	50.882	413.972	271.008	338.226	192.374	349.353	423.476	192.181	197.974	497.760	463.719	197.134	202.623	202.725	208.837	510.277	207.160	-8191	255	
1989.417	1	1	0	0	0.21048	0.18656	0.018715	0.23655	0.12386	0.19052	0.078003	0.22815	0.18865	0.33145	0.14286	0.19642	0.23035	0.12957	0.074973	0.3301	-2.2333	-2.1292	-2.6771	-2.2958	-2.1333	-2.75	-2	-2.5083	-2.6271	-1.9146	-2.7812	-2.5042	-2.1146	-2.9146	-2.0687	-2.4271	-134.740	157.323	36.424	62.254	-48.958	-55.047	-155.662	84.970	100.504	-103.097	109.617	54.426	-141.494	126.074	-25.387	113.325	0.0013637	0.00053504	0.0002399	482.25	4.7841e-06	1.1737e-06	680.05	153.88	1.0035e-05	1.6602e-05	286.24	103.23	49.486	18.608	9.1345e-06	43.386	0.0012232	0.0011052	0.00033445	587.28	1.3084e-05	1.201e-05	776.15	192.61	1.2847e-05	1.1817e-05	338.31	118.14	81.275	24.124	1.3053e-05	50.032	89.416	-115.349	79.707	-167.917	12.214	98.230	-167.854	-161.687	-62.123	-174.147	-162.712	-158.088	-156.745	-151.897	-79.622	-152.643	-8191	255	
1989.537	1	1	0	0	0.11087	0.26227	0.097192	0.12758	0.02213	0.062242	0.19113	0.29104	0.046155	0.08138	0.31885	0.17385	0.22064	0.10843	0.17932	0.11969	-2.2583	-1.8958	-2.5854	-2.3896	-1.875	-2.9083	-1.8458	-2.1958	-2.7375	-1.8438	-2.6708	-2.4833	-1.9146	-2.9104	-2.1729	-2.3375	-6.374	61.628	-60.192	171.636	2.090	-5.064	-143.620	21.173	159.420	47.899	41.707	-16.019	159.162	153.109	-161.180	-26.869	0.00086307	0.0021022	0.00024163	479.3	6.0217e-06	3.4862e-06	680.26	154.98	1.0828e-05	1.5897e-05	285.95	102.4	48.514	18.668	6.3203e-06	43.4	0.0011146	0.0010619	0.00032515	577.28	1.173e-05	1.1623e-05	771.67	189.38	1.1735e-05	1.1728e-05	336.3	116.71	77.661	24.09	1.2575e-05	49.489	74.592	146.716	-26.087	-167.445	-45.416	54.349	-167.977	-161.801	-91.023	177.482	-162.527	-158.323	-157.607	-151.460	1.579	-153.078	-8191	255	
1989.632	1	1	0	0	0.26516	0.31144	0.2885	0.11021	0.30169	0.11588	0.24269	0.29442	0.14848	0.21447	0.20485	0.15919	0.25899	0.17836	0.34684	0.12376	-2.3417	-1.8354	-2.3646	-2.5167	-1.7979	-2.9896	-2.3875	-2.1937	-2.7938	-2.1437	-2.4417	-2.5875	-1.6958	-2.6104	-2.1542	-2.1292	145.319	-123.318	-83.298	171.268	175.065	-121.815	132.264	27.587	128.612	-45.472	-124.464	175.910	-53.603	-49.791	47.124	113.487	0.0009164	0.00031601	0.00016832	476.45	1.3107e-05	9.2628e-06	677.63	155.01	9.38e-06	1.5713e-05	287.76	103.41	48.341	18.936	1.0584e-06	43.472	0.0010419	0.0010916	0.00032004	574.85	1.1457e-05	1.2397e-05	774.23	191.35	1.1892e-05	1.2871e-05	341.73	118.83	80.03	25.134	1.3521e-05	50.412	91.015	-119.021	57.300	-167.752	-24.153	-151.715	-167.577	-161.844	-81.866	-103.188	-162.386	-157.915	-157.938	-151.257	-115.576	-152.882	-8191	255	
1989.728	1	1	0	0	0.24087	0.082964	0.25743	0.17547	0.12103	0.12096	0.18328	0.02512	0.097573	0.092525	0.081608	0.11117	0.076811	0.096835	0.23962	0.34435	-2.4708	-1.9292	-2.4062	-2.7375	-1.9083	-2.5938	-2.3688	-1.85	-2.9104	-2.0625	-2.4	-2.6604	-1.8312	-2.7417	-2.5438	-2.1688	-154.989	-47.996	-55.884	-165.313	-46.319	-35.299	180.484	-74.145	-163.616	-163.100	43.716	-105.042	99.483	-97.754	-35.535	90.667	0.0013548	0.00037864	0.00016007	481.6	7.6174e-06	4.4394e-06	683.19	154.99	7.7971e-06	8.2255e-06	290.11	104	49.34	18.803	4.683e-06	43.663	0.0011059	0.0012209	0.00034095	581.02	1.2055e-05	1.3298e-05	782.36	190.96	1.2186e-05	1.3391e-05	342.91	118.46	81.659	25.441	1.3718e-05	50.403	76.743	153.240	-34.985	-167.439	148.827	-34.414	-167.757	-161.215	-131.505	135.330	-162.181	-157.216	-158.327	-151.294	-17.164	-152.564	-8191	255	
1989.799	1	1	0	0	0.22241	0.08202	0.24166	0.1593	0.091336	0.23989	0.1891	0.2776	0.21592	0.15766	0.077244	0.063829	0.089562	0.28262	0.19394	0.40252	-2.3187	-2.0854	-2.2542	-2.6604	-2.0146	-2.6021	-2.4813	-1.9937	-2.7104	-2.1583	-2.1646	-2.9104	-1.9542	-2.5604	-2.4104	-2.1229	90.249	170.536	19.840	-152.247	160.703	-9.325	-65.181	-88.728	74.218	111.502	-54.302	-47.079	-32.568	159.860	-15.196	137.493	0.0017635	0.00086853	8.0949e-05	477.84	7.2051e-06	3.1339e-06	677.34	155.36	2.4697e-05	1.4945e-06	288.33	104.64	48.697	19.148	8.3232e-06	43.993	0.0011628	0.0012645	0.00034893	577.53	1.2951e-05	1.3977e-05	785.15	190.96	1.3273e-05	1.4101e-05	346.21	118.93	85.438	25.936	1.3922e-05	50.466	66.469	171.705	-119.382	-166.911	129.685	-88.429	-167.193	-160.898	-121.589	-80.729	-162.548	-157.315	-158.504	-150.635	-10.557	-152.518	-8191	255	
1989.920	1	1	0	0	0.23251	0.17077	0.3867	0.050548	0.082395	0.19088	0.066833	0.19692	0.11692	0.16814	0.033847	0.03496	0.066434	0.2623	0.3569	0.06767	-2.4375	-2.0917	-1.9688	-2.7354	-2.0438	-2.6083	-2.5917	-1.8813	-2.7771	-2.1458	-2.2	-2.8563	-1.9875	-2.4875	-2.5771	-2.0792	104.681	78.663	-129.848	-155.501	-149.196	-48.725	137.105	-104.085	19.210	-49.278	-126.839	135.692	-155.266	-38.684	-75.233	153.958	0.001573	0.00061138	0.00041388	478.73	7.988e-06	9.072e-06	678.13	155.62	5.4051e-06	4.5814e-06	289.6	104.67	49.102	19.062	7.0017e-06	44.354	0.0012404	0.0012902	0.00034914	574.19	1.3677e-05	1.3804e-05	779.36	189.9	1.359e-05	1.3848e-05	342.54	118.66	86.187	25.843	1.334e-05	50.44	46.175	158.286	-70.580	-167.128	-138.807	110.471	-167.390	-161.576	-78.571	-170.614	-161.945	-157.506	-158.779	-150.828	-2.000	-153.065	-8191	255	
1990.016	1	1	0	0	0.14725	0.099329	0.072425	0.15516	0.17223	0.15688	0.19248	0.12937	0.21925	0.062612	0.3277	0.0078116	0.3363	0.078473	0.15863	0.16584	-2.2479	-2.4021	-1.7354	-2.9521	-2.0042	-2.5042	-2.9458	-1.9083	-2.6104	-2.35	-2	-3.0375	-2.1854	-2.3375	-2.8063	-2.1542	64.852	-145.476	99.471	-127.309	-117.357	150.355	4.834	142.920	-41.695	16.324	156.898	82.777	129.671	126.115	-163.248	84.843	0.00099956	0.0004639	0.00034367	476.69	1.2929e-05	4.087e-06	677.44	156.67	5.7628e-06	1.2773e-05	288.93	105.19	50.166	19.285	4.8147e-06	44.692	0.0012644	0.0012866	0.00033861	576.98	1.4183e-05	1.4149e-05	776.21	193.73	1.4264e-05	1.4238e-05	342.88	120.57	88.564	26.081	1.2933e-05	51.574	54.382	90.770	-11.884	-167.083	137.000	-59.825	-167.161	-161.583	-130.273	56.569	-161.728	-157.489	-157.403	-150.690	-9.945	-152.756	-8191	255	
1990.112	1	1	0	0	0.25343	0.24892	0.023913	0.1598	0.26963	0.24212	0.16824	0.091021	0.24069	0.21203	0.27775	0.016006	0.15956	0.27555	0.21171	0.30674	-2.1917	-2.325	-1.7208	-2.8042	-2.1625	-2.2729	-2.725	-1.8937	-2.5729	-2.6354	-1.9104	-2.8333	-2.0021	-2.1333	-2.7438	-2.0021	-126.796	-93.106	136.056	-130.341	-65.811	82.249	-96.172	85.473	118.688	-56.034	162.977	115.927	67.083	173.452	74.064	-118.265	0.0014812	0.00085587	0.00022657	480.41	1.0974e-05	6.959e-06	680.32	157.75	8.3922e-06	1.3959e-05	291.95	106.68	50.48	19.344	1.873e-05	45.12	0.0012937	0.0012812	0.00032317	586.44	1.4352e-05	1.403e-05	773.5	197.35	1.4487e-05	1.4241e-05	344.01	123.35	90.835	26.525	1.3515e-05	53.18	65.291	-140.896	-51.214	-166.615	-73.090	-41.907	-167.099	-161.594	-16.967	-89.328	-162.006	-157.484	-157.726	-150.326	47.337	-152.844	-8191	255	
1990.208	1	1	0	0	0.20794	0.083823	0.13556	0.17044	0.14281	0.10946	0.020236	0.080893	0.14286	0.014607	0.12646	0.14202	0.11327	0.1604	0.21131	0.023833	-1.9312	-2.5875	-1.75	-2.8896	-2.3	-2.2583	-2.95	-1.9396	-2.3167	-2.7562	-1.8583	-2.8271	-2.3396	-2.0333	-2.8438	-2.0938	326.486	238.956	487.558	463.553	287.054	333.219	239.948	412.895	283.170	481.335	237.630	455.446	183.876	429.054	360.028	267.783	0.0013336	0.00074846	0.0002199	478.19	1.9939e-05	1.2022e-05	679.49	156.05	2.1091e-05	8.6847e-06	291.12	106.19	49.836	19.122	7.2726e-06	44.221	0.0014077	0.0013783	0.00035618	604.02	1.5893e-05	1.5081e-05	787.44	204.48	1.6084e-05	1.5254e-05	352.57	126.54	94.74	26.68	1.4771e-05	53.873	431.499	302.241	193.828	193.067	265.624	361.044	192.202	197.882	305.766	395.974	197.194	202.211	201.736	208.950	232.458	206.967	-8191	255	
1990.329	1	1	0	0	0.030376	0.11525	0.30988	0.2879	0.14114	0.28569	0.24244	0.15695	0.15219	0.10144	0.35099	0.3777	0.19126	0.29751	0.18051	0.29193	-2.0625	-2.7313	-1.8354	-2.8271	-2.3271	-1.9125	-2.9708	-2.0187	-2.4375	-2.9021	-1.8729	-2.8333	-2.5917	-1.6667	-2.8917	-2.2604	116.414	-37.941	44.265	168.081	110.173	-56.267	-104.955	25.462	-89.689	2.641	38.676	135.775	97.464	63.734	44.206	4.312	0.0015209	0.00065155	0.00013705	475.34	5.5465e-06	3.109e-06	683.17	157.34	1.572e-05	1.2324e-05	290.78	106.13	49.74	19.25	1.512e-05	44.563	0.0014572	0.0013592	0.00037294	607.09	1.5561e-05	1.4023e-05	790.32	202	1.4931e-05	1.3634e-05	350.41	123.95	90.072	25.496	1.4118e-05	52.604	87.117	-6.082	45.870	-167.237	-73.577	-18.906	-167.483	-161.638	-83.918	11.239	-162.873	-157.754	-157.068	-151.003	162.735	-153.070	-8191	255	
1990.425	1	1	0	0	0.087725	0.14767	0.32673	0.3165	0.052535	0.22505	0.33474	0.18347	0.17392	0.2331	0.27426	0.13774	0.16724	0.14355	0.10285	0.20349	-1.7104	-2.8	-1.9229	-2.4125	-2.5083	-1.8667	-2.9417	-2.4708	-2.0687	-3.0854	-2.1083	-2.4479	-2.6208	-2.0604	-2.6458	-2.175	106.272	-111.177	126.956	105.530	174.304	176.933	118.280	95.495	100.346	-47.288	-89.893	-101.860	-175.643	-26.320	70.843	173.015	0.0010689	0.00089814	0.00052428	480.74	7.9043e-06	7.2094e-06	681.69	156.51	1.0606e-05	1.0383e-05	291.19	105.01	50.063	19.194	4.1452e-06	44.248	0.0013096	0.0011878	0.00035452	594.63	1.3964e-05	1.2575e-05	785.81	196.8	1.3566e-05	1.2361e-05	346.76	121.5	84.848	24.837	1.3692e-05	51.574	95.521	-124.678	152.638	-167.040	-106.961	-97.649	-167.550	-161.917	-55.391	-121.782	-162.763	-157.564	-158.149	-151.197	-160.301	-152.905	-8191	255	
1990.497	1	1	0	0	0.21192	0.29143	0.11671	0.10692	0.18334	0.09695	0.13185	0.18439	0.23356	0.11985	0.049724	0.047406	0.10374	0.13653	0.19632	0.22372	-1.6146	-2.7521	-1.7604	-2.2438	-2.7562	-1.8625	-2.7271	-2.3917	-1.9979	-2.8458	-2.2604	-2.4604	-2.7354	-1.9229	-2.6	-2.5938	142.495	88.476	52.516	108.609	-171.908	83.241	84.137	129.789	-60.157	149.888	33.986	-172.338	46.024	-54.442	-79.479	-32.320	0.0008746	0.0015737	0.00013777	482.94	7.941e-06	8.9734e-06	689.05	156.27	6.1324e-06	1.235e-05	289.25	104.44	49.804	18.767	2.591e-06	43.74	0.0011964	0.0011371	0.00035161	591.28	1.3167e-05	1.2758e-05	789.6	196.28	1.3105e-05	1.2954e-05	348.21	121.35	84.034	25.152	1.4295e-05	51.693	92.446	-123.669	-57.063	-167.512	-25.537	-116.477	-167.753	-161.343	-80.237	-176.434	-162.781	-158.125	-158.029	-151.535	-45.539	-153.137	-8191	255	
1990.618	1	1	0	0	0.10307	0.18183	0.22711	0.23594	0.25983	0.13135	0.14757	0.17119	0.36229	0.10953	0.21598	0.14019	0.061405	0.30565	0.18824	0.019747	-1.4917	-2.9396	-1.9667	-2.1979	-2.5542	-2.0187	-2.5812	-2.4625	-1.8833	-2.8792	-2.1854	-2.1333	-2.5604	-1.8937	-2.4104	-2.7208	279.471	273.947	452.824	228.660	406.420	419.032	480.774	433.589	525.597	305.777	452.684	324.583	421.997	506.995	539.308	284.513	0.001277	0.00038861	0.00024768	476.76	1.3239e-05	6.2939e-06	681.64	154.87	9.4507e-06	1.5074e-05	289.89	104.13	49.782	19.012	6.719e-06	44.089	0.0012025	0.0012559	0.00037364	595.58	1.3429e-05	1.414e-05	796.74	198.66	1.3527e-05	1.4492e-05	354.32	122.89	85.763	26.304	1.5252e-05	52.359	424.870	463.058	361.704	192.742	309.511	199.355	192.286	197.908	215.660	190.338	197.360	202.150	201.883	208.519	218.432	206.913	-8191	255	
1990.712	1	1	0	0	0.38037	0.1341	0.27677	0.097439	0.1139	0.040759	0.16792	0.16123	0.071089	0.26095	0.25824	0.29174	0.16744	0.20059	0.27944	0.022073	-1.5375	-2.7042	-2.1875	-2.0208	-2.5042	-1.9083	-2.5104	-2.7479	-1.9896	-2.9667	-2.2188	-2.2687	-2.8854	-2.0458	-2.3042	-2.8375	519.902	243.456	534.804	282.236	242.708	227.712	493.975	440.292	385.659	240.382	185.512	464.695	448.115	274.190	330.614	358.046	0.0014291	0.0021039	0.00026521	479.73	1.2983e-06	8.8612e-06	676.54	156.54	8.3019e-06	8.2102e-06	290.34	105.09	49.358	18.949	6.558e-06	44.271	0.0012537	0.0013764	0.00039533	600.9	1.4043e-05	1.5573e-05	804.82	201.28	1.4485e-05	1.6085e-05	361.99	124.42	90.602	27.359	1.6493e-05	53.185	438.165	189.882	300.768	192.746	271.358	290.268	192.361	197.973	527.787	366.831	197.046	202.411	201.569	208.393	351.716	206.820	-8191	255	
1990.808	1	1	0	0	0.17131	0.042562	0.036482	0.32521	0.2228	0.066713	0.11908	0.11724	0.092501	0.15774	0.26745	0.2704	0.059105	0.17424	0.22862	0.10051	-1.6125	-2.7229	-2.4375	-2.0146	-2.8792	-2.0458	-2.2333	-2.7125	-1.9479	-2.7812	-2.5146	-1.9521	-2.8167	-2.1167	-2.2208	-2.7083	217.684	245.637	228.941	218.045	372.292	323.419	534.023	286.204	534.434	375.362	208.949	481.746	387.499	426.457	317.799	256.826	0.001891	0.00046066	0.00016741	482.05	6.7374e-06	2.8776e-06	679.56	156.4	5.4575e-06	1.104e-05	290.55	105.68	48.791	19.057	2.1063e-06	44.036	0.0013973	0.0015266	0.00042164	602.73	1.5541e-05	1.675e-05	813.17	201.27	1.5698e-05	1.681e-05	365.33	124.88	94.469	27.821	1.7023e-05	53.039	411.632	366.626	352.514	192.371	197.656	483.467	192.097	197.898	347.230	430.767	197.449	202.090	201.739	208.162	434.401	206.614	-8191	255	
1990.904	1	1	0	0	0.10676	0.1178	0.068817	0.33362	0.19453	0.1083	0.18381	0.1901	0.11327	0.14598	0.19467	0.093114	0.13596	0.23043	0.21624	0.23805	-1.6063	-2.4333	-2.5396	-1.9771	-2.8354	-2.1917	-2.2396	-2.9229	-2	-2.5896	-2.7	-2.0396	-2.7417	-2.3042	-2.1146	-2.9375	513.166	534.875	302.058	360.867	379.586	198.052	191.166	521.751	460.371	483.561	455.232	221.270	396.531	189.832	319.655	464.908	0.0012197	0.00031416	0.00040772	474.62	5.4869e-06	6.2881e-06	677.02	155.34	6.2145e-06	1.4406e-06	288.61	105.22	49.655	18.826	1.1756e-05	43.75	0.0015286	0.001593	0.00043887	605.13	1.698e-05	1.7578e-05	816.44	201.48	1.706e-05	1.7174e-05	364.01	123.89	96.139	27.426	1.5981e-05	52.133	425.966	219.788	307.099	192.231	227.787	270.997	192.689	197.934	212.385	202.726	197.551	202.121	201.779	208.658	346.698	207.052	-8191	255	
1991.025	1	1	0	0	0.059702	0.14049	0.17167	0.15328	0.12695	0.1997	0.16836	0.094311	0.15815	0.14571	0.13153	0.18493	0.21392	0.0052026	0.12829	0.26129	-1.425	-2.4104	-2.6937	-1.8667	-2.675	-2.4625	-1.9833	-2.9583	-2.0646	-2.4042	-2.6583	-1.9083	-2.7521	-2.525	-1.875	-3.0708	-101.957	8.129	-16.694	85.542	119.849	-7.617	77.184	-89.795	-9.883	-54.891	19.605	158.918	-14.054	-51.120	127.399	17.196	0.0015755	0.0011264	0.00035923	476.83	4.1424e-06	3.686e-06	678.45	154.81	1.0155e-05	8.9005e-06	289.9	105.5	49.998	19.071	2.7388e-06	44.325	0.0014904	0.0014862	0.00039452	593.6	1.6048e-05	1.6072e-05	794.18	196.92	1.5863e-05	1.5608e-05	352.17	123.03	92.75	26.723	1.4279e-05	52.132	74.603	20.834	-130.736	-167.254	-52.342	-140.696	-167.864	-161.963	-89.363	-83.370	-162.460	-158.345	-157.870	-151.583	70.467	-153.180	-8191	255	
1991.095	1	1	0	0	0.35122	0.094233	0.17981	0.10683	0.18092	0.064203	0.22499	0.10221	0.0894	0.5481	0.33889	0.11499	0.15759	0.17867	0.095128	0.121	-1.7583	-2.1667	-2.6208	-2.2062	-2.4521	-2.6708	-2.0271	-2.8583	-1.9396	-2.3333	-2.6479	-1.9021	-2.4042	-2.5938	-1.8292	-2.8083	-13.658	-109.370	-43.857	0.869	-43.377	97.951	151.094	164.488	113.995	-36.137	40.621	173.845	-102.332	173.365	156.285	60.594	0.0013996	0.00085266	0.0002106	475.77	5.4394e-06	4.5564e-06	679.12	156.86	9.6163e-06	1.3273e-05	290.68	106.39	50.289	19.191	1.2084e-05	44.564	0.0014258	0.0013994	0.00035621	592.15	1.5334e-05	1.5205e-05	782.56	198.34	1.5456e-05	1.5142e-05	348.2	124.46	92.678	26.789	1.4098e-05	53.142	84.842	-80.239	-107.520	-167.709	-49.857	151.804	-167.234	-161.783	-97.874	45.968	-161.990	-157.776	-157.665	-151.001	-23.681	-153.371	-8191	255	
1991.215	1	1	0	0	0.24373	0.17885	0.25438	0.2733	0.23409	0.031893	0.21334	0.19103	0.076197	0.20138	0.43267	0.33731	0.13112	0.35565	0.072577	0.13951	-1.7021	-2.2771	-2.6333	-2.1437	-2.4167	-2.625	-2.0104	-2.7917	-2.3667	-1.8167	-2.8979	-1.9729	-2.3354	-2.6125	-2.0271	-2.7646	3.723	-50.970	-92.851	-45.488	-0.646	149.512	165.293	46.081	-58.949	95.594	142.676	96.848	91.630	53.635	-65.595	-137.794	0.0010515	0.00042985	4.0118e-05	476.36	6.2368e-07	1.0083e-05	676.5	155.65	1.0115e-05	2.2938e-05	292.74	105.85	49.775	19.156	4.1237e-06	44.138	0.0014455	0.0014135	0.00036299	606.38	1.6308e-05	1.5972e-05	793.58	204.66	1.6746e-05	1.6034e-05	355.6	127.4	96.611	27.207	1.5342e-05	54.246	48.030	-0.196	-88.915	-167.695	-135.754	-32.586	-167.641	-161.908	-74.175	57.409	-162.383	-158.064	-157.322	-151.497	-131.106	-152.824	-8191	255	
1991.312	1	1	0	0	0.1129	0.13351	0.17606	0.21493	0.13237	0.1076	0.13031	0.13914	0.096334	0.1547	0.2144	0.068299	0.20167	0.061583	0.15566	0.15036	-2.0333	-1.8396	-2.8458	-2.0312	-2.325	-2.6083	-2.3271	-2.6333	-2.6167	-2.1437	-2.9896	-2.2667	-2.2208	-2.75	-1.9854	-2.5917	124.811	69.543	111.322	111.187	-69.336	-155.660	-86.532	-172.022	-33.404	-102.215	-94.077	-32.302	-167.599	-67.613	76.564	-23.362	0.0018981	0.00088053	0.00013161	474.92	7.2234e-06	5.4263e-06	677.26	154.82	6.8289e-06	4.9835e-06	290.27	105.88	50.033	19.115	2.5832e-06	44.249	0.0015569	0.0014591	0.00040164	620.39	1.7339e-05	1.6236e-05	807.2	209.65	1.7814e-05	1.6298e-05	365.57	130.21	100.43	27.441	1.7308e-05	55.382	78.341	-43.721	140.810	-167.270	-136.176	26.801	-167.064	-161.172	-159.921	37.288	-161.930	-156.777	-157.018	-150.723	131.650	-152.287	-8191	255	
1991.408	1	1	0	0	0.17518	0.14754	0.31631	0.073733	0.17128	0.12622	0.10245	0.14295	0.15399	0.13889	0.020143	0.43747	0.057491	0.21711	0.31909	0.19686	-2.0771	-1.8854	-2.8229	-2.2333	-2.1646	-2.7438	-2.1354	-2.5187	-2.4771	-1.95	-2.925	-2.2625	-2.1521	-2.9708	-2.0042	-2.4625	113.817	68.246	-119.971	139.587	-53.989	45.120	-149.447	-134.733	-66.149	108.679	118.616	166.450	-47.424	112.000	23.966	-173.983	0.0011862	0.00039811	0.00014029	474.95	1.0426e-05	3.796e-06	672.5	154.81	2.3162e-05	8.5489e-06	291.81	105.83	50.445	18.96	1.0216e-05	44.162	0.0016478	0.0014926	0.0004432	628.02	1.7856e-05	1.631e-05	821.9	211.25	1.801e-05	1.643e-05	372.24	130.47	100.05	27.275	1.814e-05	55.342	88.503	-149.211	164.853	-167.095	-75.949	-53.812	-167.303	-160.731	-47.924	-105.890	-161.846	-157.402	-156.974	-151.325	-41.657	-152.516	-8191	255	
1991.504	1	1	0	0	0.26044	0.39423	0.21535	0.21273	0.12056	0.037135	0.15533	0.23364	0.12574	0.042135	0.22988	0.15992	0.18937	0.29772	0.11217	0.1642	-2.4458	-1.9271	-2.8542	-2.425	-2.1708	-2.6104	-2.0208	-2.4	-2.6688	-1.825	-2.7729	-2.4437	-1.9708	-2.9271	-2.1354	-2.2854	-155.784	81.862	-63.293	-122.183	-30.633	177.322	109.204	-111.262	164.057	96.359	-124.600	-168.541	146.268	-27.448	-127.121	165.690	0.0010971	0.00081375	0.00018599	475.57	8.4238e-06	4.3619e-06	675.8	154.5	1.6461e-05	1.0931e-05	289.96	105.32	50.414	19.076	5.9232e-06	44.106	0.0016085	0.0014979	0.00045856	630.48	1.7307e-05	1.6609e-05	830.48	211.31	1.7466e-05	1.6892e-05	375.79	130.69	99.045	27.941	1.9226e-05	55.863	81.900	-149.432	162.142	-167.059	75.574	-104.024	-167.189	-161.169	-41.790	-166.147	-162.336	-157.984	-157.645	-151.378	109.146	-152.806	-8191	255	
1991.624	1	1	0	0	0.24118	0.21152	0.12101	0.039671	0.24742	0.078128	0.21002	0.14848	0.2363	0.25683	0.22904	0.1436	0.23761	0.095738	0.19939	0.33706	-2.3063	-1.9042	-2.425	-2.4417	-1.9146	-2.7333	-2.2062	-2.1937	-2.8333	-2.0333	-2.6167	-2.5062	-1.9542	-2.8646	-2.2646	-1.9604	4.005	-62.636	45.855	-47.795	-50.725	-61.402	32.240	110.702	15.439	-18.308	101.124	148.742	147.516	-103.321	65.480	67.365	0.0012414	0.00080516	0.00037604	474.01	4.5333e-06	4.4933e-06	675.51	154.1	1.1978e-05	8.1837e-06	290.68	104.51	49.162	18.831	1.226e-06	44.152	0.0016235	0.0016423	0.00049205	638.35	1.7678e-05	1.8376e-05	842.06	214.77	1.786e-05	1.8927e-05	382.26	131.85	99.647	28.803	1.994e-05	56.128	120.997	-116.313	73.364	-167.697	-60.010	-76.466	-167.687	-161.439	-76.531	149.140	-163.003	-158.215	-158.460	-152.059	108.175	-153.274	-8191	255	
1991.721	1	1	0	0	0.21331	0.10709	0.083474	0.19866	0.03336	0.22424	0.17573	0.13365	0.19342	0.16378	0.1271	0.29142	0.38207	0.093664	0.057625	0.11129	-2.5563	-1.9771	-2.4188	-2.6354	-1.9229	-2.8854	-2.4625	-2.125	-2.7396	-2.05	-2.4458	-2.7792	-1.9479	-2.8042	-2.3646	-2.3167	-142.665	-87.786	90.271	-119.306	28.946	60.331	-45.644	-169.570	117.970	-148.762	117.854	92.637	122.975	69.568	67.356	-80.071	0.00096082	0.00084564	0.00043195	470.43	2.2821e-06	2.7142e-06	673.03	153.91	1.1133e-05	2.4054e-07	286.06	105.03	48.738	19.293	2.9226e-06	44.055	0.0016253	0.0017742	0.00050101	638.02	1.7838e-05	1.9532e-05	844.5	214.03	1.8035e-05	1.9878e-05	382.75	131.42	101.03	29.474	2.0093e-05	55.819	80.690	82.042	-170.401	-167.112	93.583	-114.269	-167.707	-161.257	-96.738	164.678	-162.345	-157.624	-158.603	-151.771	-49.938	-153.225	-8191	255	
#DATA ENDS
