BOXY.EXE: ISS Imagent and Oximeter Data Acquisition Program Version 0.80
Ascii Record File

#ACQ INFORMATION
2  Detector Channels 
16  External MUX Channels 
1  Auxiliary Channels 
5000  Waveform (CCF) Frequency (Hz)
1  Waveforms Skipped 
30  Waveforms Averaged 
1  Cycles Averaged 
16  Acquisitions per Waveform 
10.0806  Updata Rate (Hz) 

#FILE INFORMATION
TRUE -- External MUX Channel results are PARSED.
FALSE -- AC DC and Phase are NOT grouped.
TRUE -- Companion Program Settings File CREATED.
FALSE -- AC data not excluded
FALSE -- DC data not excluded
FALSE -- Phase data not excluded
FALSE -- Auxillary Chn. data not excluded
Tab delimiters

#CALIBRATION STATE
TRUE -- Waveform Calibration Values APPLIED.


#AUX CALIBRATION VALUES
Val Type	aux-1	

Term	1.0000e+00	
Factor	0.0000e+00	


#WF CALIBRATION VALUES
A = Detector Channel
Val Type	A-AC1	A-AC2	A-AC3	A-AC4	A-AC5	A-AC6	A-AC7	A-AC8	A-AC9	A-AC10	A-AC11	A-AC12	A-AC13	A-AC14	A-AC15	A-AC16	A-DC1	A-DC2	A-DC3	A-DC4	A-DC5	A-DC6	A-DC7	A-DC8	A-DC9	A-DC10	A-DC11	A-DC12	A-DC13	A-DC14	A-DC15	A-DC16	A-Ph1	A-Ph2	A-Ph3	A-Ph4	A-Ph5	A-Ph6	A-Ph7	A-Ph8	A-Ph9	A-Ph10	A-Ph11	A-Ph12	A-Ph13	A-Ph14	A-Ph15	A-Ph16	

Term	0.00000e+00	0.00000e+00	0.00000e+00	0.00000e+00	0.00000e+00	0.00000e+00	0.00000e+00	0.00000e+00	0.00000e+00	0.00000e+00	0.00000e+00	0.00000e+00	0.00000e+00	0.00000e+00	0.00000e+00	0.00000e+00	0.00000e+00	0.00000e+00	0.00000e+00	0.00000e+00	0.00000e+00	0.00000e+00	0.00000e+00	0.00000e+00	0.00000e+00	0.00000e+00	0.00000e+00	0.00000e+00	0.00000e+00	0.00000e+00	0.00000e+00	0.00000e+00	0.00000e+00	0.00000e+00	0.00000e+00	0.00000e+00	0.00000e+00	0.00000e+00	0.00000e+00	0.00000e+00	0.00000e+00	0.00000e+00	0.00000e+00	0.00000e+00	0.00000e+00	0.00000e+00	0.00000e+00	0.00000e+00	
Factor	1.00000e+00	1.00000e+00	1.00000e+00	1.00000e+00	1.00000e+00	1.00000e+00	1.00000e+00	1.00000e+00	1.00000e+00	1.00000e+00	1.00000e+00	1.00000e+00	1.00000e+00	1.00000e+00	1.00000e+00	1.00000e+00	1.00000e+00	1.00000e+00	1.00000e+00	1.00000e+00	1.00000e+00	1.00000e+00	1.00000e+00	1.00000e+00	1.00000e+00	1.00000e+00	1.00000e+00	1.00000e+00	1.00000e+00	1.00000e+00	1.00000e+00	1.00000e+00	X	X	X	X	X	X	X	X	X	X	X	X	X	X	X	X	

B = Detector Channel
Val Type	B-AC1	B-AC2	B-AC3	B-AC4	B-AC5	B-AC6	B-AC7	B-AC8	B-AC9	B-AC10	B-AC11	B-AC12	B-AC13	B-AC14	B-AC15	B-AC16	B-DC1	B-DC2	B-DC3	B-DC4	B-DC5	B-DC6	B-DC7	B-DC8	B-DC9	B-DC10	B-DC11	B-DC12	B-DC13	B-DC14	B-DC15	B-DC16	B-Ph1	B-Ph2	B-Ph3	B-Ph4	B-Ph5	B-Ph6	B-Ph7	B-Ph8	B-Ph9	B-Ph10	B-Ph11	B-Ph12	B-Ph13	B-Ph14	B-Ph15	B-Ph16	

Term	0.00000e+00	0.00000e+00	0.00000e+00	0.00000e+00	0.00000e+00	0.00000e+00	0.00000e+00	0.00000e+00	0.00000e+00	0.00000e+00	0.00000e+00	0.00000e+00	0.00000e+00	0.00000e+00	0.00000e+00	0.00000e+00	0.00000e+00	0.00000e+00	0.00000e+00	0.00000e+00	0.00000e+00	0.00000e+00	0.00000e+00	0.00000e+00	0.00000e+00	0.00000e+00	0.00000e+00	0.00000e+00	0.00000e+00	0.00000e+00	0.00000e+00	0.00000e+00	-1.52421e+02	-1.26321e+02	-1.29806e+02	-1.86538e+02	-8.17425e+01	-9.44387e+01	-1.58482e+02	-1.62015e+02	-7.12364e+01	-6.93310e+01	-1.71970e+02	-1.71209e+02	-1.83751e+02	-1.77240e+02	-8.25703e+01	-1.49604e+02	
Factor	2.27753e-05	1.29415e-04	3.73414e-05	2.99145e-01	1.07142e-06	1.26760e-06	1.64991e-01	5.09512e-02	1.01362e-06	1.41088e-06	8.41624e-02	2.77432e-02	4.04098e-02	8.88480e-03	1.04482e-06	1.27305e-02	1.79682e-06	1.89931e-06	5.29689e-07	1.50663e-01	2.07622e-08	2.08323e-08	7.96040e-02	2.61946e-02	2.06444e-08	2.08380e-08	4.16293e-02	1.37790e-02	2.05187e-02	4.56761e-03	2.07884e-08	6.31791e-03	X	X	X	X	X	X	X	X	X	X	X	X	X	X	X	X	



#DISTANCE SETTINGS
A = Detector Channel
A-1	A-2	A-3	A-4	A-5	A-6	A-7	A-8	A-9	A-10	A-11	A-12	A-13	A-14	A-15	A-16	

2.5000e+00	3.0000e+00	2.5000e+00	3.0000e+00	2.0000e+00	3.0000e+00	1.5000e+00	3.0000e+00	3.0000e+00	3.0000e+00	3.0000e+00	3.0000e+00	3.0000e+00	3.0000e+00	1.5000e+00	3.0000e+00	

B = Detector Channel
B-1	B-2	B-3	B-4	B-5	B-6	B-7	B-8	B-9	B-10	B-11	B-12	B-13	B-14	B-15	B-16	

1.0000e+01	1.0000e+01	1.0000e+01	1.4400e+00	1.0000e+01	1.0000e+01	1.5100e+00	1.9400e+00	1.0000e+01	1.0000e+01	1.9900e+00	2.4900e+00	2.4100e+00	2.9000e+00	1.0000e+01	2.9800e+00	




#DATA BEGINS
time	group	step	mark	flag	A-AC1	A-AC2	A-AC3	A-AC4	A-AC5	A-AC6	A-AC7	A-AC8	A-AC9	A-AC10	A-AC11	A-AC12	A-AC13	A-AC14	A-AC15	A-AC16	A-DC1	A-DC2	A-DC3	A-DC4	A-DC5	A-DC6	A-DC7	A-DC8	A-DC9	A-DC10	A-DC11	A-DC12	A-DC13	A-DC14	A-DC15	A-DC16	A-Ph1	A-Ph2	A-Ph3	A-Ph4	A-Ph5	A-Ph6	A-Ph7	A-Ph8	A-Ph9	A-Ph10	A-Ph11	A-Ph12	A-Ph13	A-Ph14	A-Ph15	A-Ph16	B-AC1	B-AC2	B-AC3	B-AC4	B-AC5	B-AC6	B-AC7	B-AC8	B-AC9	B-AC10	B-AC11	B-AC12	B-AC13	B-AC14	B-AC15	B-AC16	B-DC1	B-DC2	B-DC3	B-DC4	B-DC5	B-DC6	B-DC7	B-DC8	B-DC9	B-DC10	B-DC11	B-DC12	B-DC13	B-DC14	B-DC15	B-DC16	B-Ph1	B-Ph2	B-Ph3	B-Ph4	B-Ph5	B-Ph6	B-Ph7	B-Ph8	B-Ph9	B-Ph10	B-Ph11	B-Ph12	B-Ph13	B-Ph14	B-Ph15	B-Ph16	aux-1	digaux	

8084.660	1	1	0	256	0.14744	0.16941	0.097774	0.31842	0.17559	0.13943	0.32243	0.21562	0.16911	0.19567	0.1786	0.24369	0.31179	0.073306	0.21961	0.014506	-2.2958	-2.0563	-2.4229	-2.6396	-1.9125	-2.6896	-2.525	-2.4688	-2.7292	-2.2354	-2.4542	-2.6083	-1.9854	-2.8438	-2.3146	-2.15	180.013	340.589	486.274	470.028	381.819	345.589	388.451	491.783	272.170	497.827	302.827	490.746	147.261	214.492	239.809	350.480	0.00075616	0.00053829	0.0002255	1395.3	5.5112e-06	4.7747e-06	1399.1	375.73	3.7501e-06	2.42e-06	432.48	146.43	127.6	43.898	5.6601e-06	54.317	0.00035036	0.00033206	9.1158e-05	1390.7	3.6442e-06	3.6241e-06	1398.5	376.15	3.5683e-06	3.6319e-06	432.39	146.6	126.18	44.179	3.6029e-06	54.62	163.556	191.455	228.167	153.438	284.945	268.373	153.174	158.105	350.764	301.718	157.388	161.479	161.723	167.115	256.816	166.258	-8191	255	
8084.780	1	1	0	0	0.12236	0.17795	0.18605	0.21394	0.12833	0.16251	0.12464	0.26478	0.3226	0.099867	0.033109	0.10502	0.070703	0.19023	0.19171	0.22315	-2.3521	-1.9042	-2.3292	-2.7979	-1.8833	-2.6708	-2.6104	-2.1188	-2.9062	-2.3312	-2.4	-2.8042	-2.0208	-2.6083	-2.5875	-2.2417	192.852	452.161	197.951	473.365	327.434	312.849	466.835	468.686	216.808	214.990	497.042	266.073	351.296	214.342	441.885	182.999	0.00072785	0.00062821	0.00015766	1402.7	5.1544e-06	2.3901e-06	1395.4	374.46	1.9903e-06	7.2688e-06	432.39	146.39	126.76	43.873	2.9981e-06	54.036	0.00034648	0.0003267	9.0972e-05	1391.5	3.5394e-06	3.5296e-06	1396.9	375.94	3.5519e-06	3.5641e-06	432.11	146.25	126.03	44.235	3.6049e-06	54.37	170.106	209.644	203.073	153.695	276.270	235.146	153.426	158.139	272.966	321.125	157.536	161.330	161.972	167.059	273.639	166.121	-8191	255	
8084.876	1	1	0	0	0.18445	0.2124	0.11672	0.11852	0.050964	0.05136	0.31249	0.15687	0.37646	0.086185	0.24781	0.098775	0.30055	0.091956	0.10191	0.1453	-2.375	-2.1521	-2.3396	-2.625	-1.7979	-2.4604	-2.7333	-2.1188	-2.7083	-2.1854	-2.3229	-2.9125	-1.95	-2.4979	-2.5542	-2.1333	421.854	240.076	393.148	189.062	352.696	486.823	484.616	408.928	274.256	314.147	495.896	179.395	413.602	219.051	292.742	389.108	0.00070345	0.00013177	0.00022217	1404.1	5.3825e-06	4.1374e-06	1406.6	375	6.9772e-06	7.7759e-06	431.21	145.73	127.51	43.915	8.5468e-06	54.206	0.00034871	0.0003262	9.1344e-05	1390.8	3.6033e-06	3.5742e-06	1401.9	375.73	3.6058e-06	3.5488e-06	431.57	146.24	126	44.194	3.6131e-06	54.586	168.969	217.746	238.687	153.317	263.830	258.339	153.070	157.949	287.018	299.210	157.671	161.212	161.822	166.657	271.990	165.922	-8191	255	
8084.973	1	1	0	0	0.14482	0.15254	0.48468	0.1983	0.051328	0.14259	0.25121	0.13065	0.09792	0.11868	0.10556	0.12214	0.17082	0.040705	0.18592	0.0090081	-2.3563	-2.2833	-2.1021	-2.7771	-2.0708	-2.5563	-2.875	-2.2354	-2.6708	-2.3604	-2.1125	-2.8875	-2.3167	-2.5479	-2.5792	-2.0292	363.299	385.819	432.561	454.814	290.606	145.069	496.753	241.669	302.204	154.436	157.818	215.906	205.704	252.066	393.014	157.568	0.0007301	0.00015878	7.6092e-05	1399.3	2.5764e-06	3.3188e-06	1399.2	373.98	2.8507e-06	6.6255e-06	432.26	146.12	126.75	43.791	5.862e-06	54.087	0.00034743	0.00032495	9.0748e-05	1390	3.5224e-06	3.555e-06	1399.9	374.62	3.5302e-06	3.5306e-06	431.33	146.21	125.72	44.153	3.4951e-06	54.342	166.342	198.426	179.728	153.542	259.463	273.070	152.806	157.763	260.246	290.580	157.468	161.221	161.862	166.729	248.773	165.893	-8191	255	
8085.069	1	1	0	0	0.23043	0.29357	0.14405	0.015929	0.11894	0.15229	0.087382	0.25143	0.2971	0.22114	0.21553	0.024619	0.28017	0.17185	0.15379	0.15361	-2.3812	-2.5271	-1.9562	-2.8396	-2.3229	-2.3083	-2.7979	-2.0958	-2.4646	-2.4271	-2.2354	-2.7542	-2.25	-2.2104	-2.6792	-2.1396	474.564	238.452	256.229	350.157	192.449	284.718	362.478	471.835	309.980	313.507	364.037	177.989	369.899	143.139	219.096	199.423	0.00073968	0.00052727	0.00013492	1401.5	1.9305e-06	5.9956e-06	1395.7	374.21	4.7896e-06	3.6943e-06	430.57	145.84	127.98	44.099	5.6495e-06	54.385	0.00034251	0.00031842	8.8627e-05	1389.7	3.478e-06	3.4889e-06	1397.2	374.62	3.4865e-06	3.4959e-06	430.88	146.41	126.42	44.318	3.4656e-06	54.619	161.900	253.581	224.672	153.654	230.477	271.108	153.042	157.820	302.442	272.271	157.698	161.515	161.600	166.842	232.744	166.039	-8191	255	
8085.165	1	1	0	0	0.037265	0.25191	0.061773	0.1293	0.28535	0.094887	0.1022	0.15384	0.13015	0.0034447	0.08682	0.20503	0.095694	0.32263	0.25914	0.20105	-2.125	-2.5104	-1.8479	-2.7208	-2.0792	-2.0729	-2.925	-2.0979	-2.375	-2.6521	-2.0146	-2.7021	-2.2062	-2.2896	-2.9188	-2.1604	475.753	155.661	460.806	186.925	326.160	293.175	186.545	231.400	477.929	415.884	154.801	185.270	401.813	428.237	201.158	260.436	0.00074427	0.0010515	0.00017566	1406.2	3.6007e-06	4.6589e-06	1393.9	375.09	6.4255e-06	2.1172e-06	429.76	146.23	127.2	43.916	3.3477e-06	53.903	0.00033663	0.00031796	8.7037e-05	1393.2	3.4408e-06	3.4773e-06	1398.4	375.46	3.4312e-06	3.4589e-06	430.63	146.19	125.73	44.121	3.4858e-06	54.31	173.109	232.262	236.929	153.334	298.778	260.536	153.035	157.811	293.190	307.155	157.504	161.321	161.044	166.807	262.188	165.874	-8191	255	
8085.261	1	1	0	0	0.17361	0.18773	0.10069	0.30043	0.22244	0.23038	0.23937	0.21632	0.14472	0.08161	0.23747	0.22122	0.10104	0.17357	0.19692	0.2332	-1.8833	-2.5958	-1.8208	-2.7375	-2.4313	-1.9937	-2.9188	-2.2333	-2.2458	-2.5333	-2.0542	-2.8104	-2.4125	-2.0792	-2.8542	-2.4375	146.199	362.746	254.946	472.180	336.659	315.459	450.093	463.558	241.163	463.547	414.186	332.050	249.571	454.033	162.081	490.170	0.00075197	0.00053336	9.3021e-05	1394.7	1.7302e-06	2.7584e-06	1396.3	371.77	5.7138e-06	2.0133e-06	430.46	145.9	126.37	43.787	3.9291e-06	53.949	0.00034068	0.000319	8.9694e-05	1385.5	3.5397e-06	3.5457e-06	1396.4	373.73	3.5712e-06	3.5544e-06	429.28	145.82	125.06	43.988	3.5878e-06	54.221	169.529	238.621	217.926	153.353	293.122	302.501	153.161	157.909	313.800	367.680	157.476	161.270	161.429	167.082	270.619	166.096	-8191	255	
8085.380	1	1	0	0	0.25487	0.28789	0.047036	0.04218	0.24936	0.2922	0.29102	0.45577	0.088975	0.11012	0.12817	0.10913	0.2122	0.095005	0.27915	0.29226	-1.9937	-2.6792	-1.9792	-2.8104	-2.6229	-2.05	-2.8521	-2.3792	-2.2792	-2.7479	-2.1333	-2.5292	-2.5625	-2.0958	-2.7792	-2.4062	325.926	189.079	448.112	323.709	382.448	167.546	450.534	468.521	264.794	333.850	237.766	378.468	455.131	465.965	161.439	432.124	0.00072778	0.00042863	3.1205e-05	1401.4	3.3154e-06	3.57e-06	1399.4	373.25	5.0056e-06	1.5578e-07	429.69	145.58	126.11	43.666	5.6045e-06	53.78	0.00034524	0.00031868	8.9356e-05	1387.2	3.5721e-06	3.4978e-06	1397.3	374.19	3.5647e-06	3.5212e-06	430.04	145.95	125.1	43.96	3.5606e-06	54.086	168.684	183.063	349.727	153.324	259.813	229.331	153.009	157.798	269.104	287.157	157.378	161.448	161.877	166.975	257.430	165.958	-8191	255	
8085.476	1	1	0	0	0.39648	0.13817	0.15111	0.2703	0.084281	0.10179	0.37147	0.32336	0.029348	0.078918	0.048368	0.22634	0.12091	0.36416	0.1368	0.081076	-1.8125	-2.6917	-2.0667	-2.4479	-2.675	-1.9896	-3.0167	-2.5104	-2.0229	-2.7896	-2.1417	-2.4479	-2.65	-2.0521	-2.4917	-2.6188	365.694	359.198	495.735	464.527	477.369	365.703	471.481	471.750	483.506	293.789	481.927	144.738	415.244	166.568	377.454	445.306	0.00071657	0.00034306	0.00016585	1395.7	3.2252e-06	5.2139e-06	1394.8	370.93	6.922e-06	1.1082e-06	428.13	144.32	125.58	43.286	6.7335e-06	53.194	0.00034856	0.00032884	9.2153e-05	1388.6	3.6599e-06	3.6129e-06	1396.7	372.24	3.7138e-06	3.691e-06	428.57	144.6	124.44	43.576	3.7695e-06	53.689	168.177	239.254	272.525	153.346	240.821	284.050	152.960	157.725	279.406	450.900	157.300	161.290	161.713	166.738	291.342	166.251	-8191	255	
8085.572	1	1	0	0	0.10006	0.17986	0.20598	0.11284	0.031334	0.22421	0.16381	0.30684	0.37063	0.092094	0.20661	0.36117	0.18587	0.22024	0.18471	0.29293	-1.7417	-2.8063	-1.9271	-2.2625	-2.7687	-2.1	-2.8229	-2.6833	-2.1	-2.5875	-2.1896	-2.475	-2.7562	-2.0479	-2.5729	-2.6542	168.009	463.042	477.810	338.941	368.370	398.590	475.247	451.313	458.754	154.063	148.992	415.897	228.079	351.366	409.760	441.742	0.000705	0.00083563	0.00012542	1393	7.9876e-07	2.5595e-06	1394.9	368.82	1.593e-06	4.0519e-06	425.29	143.75	124.97	42.918	5.0813e-06	53.351	0.00037053	0.00034801	9.7751e-05	1388.5	3.8497e-06	3.859e-06	1394.9	371.18	3.9399e-06	3.866e-06	427.04	144.18	124.16	43.32	3.8983e-06	53.671	163.637	207.556	253.002	153.557	295.343	252.812	153.288	157.902	263.383	273.270	157.099	161.594	161.788	167.107	263.424	166.304	-8191	255	
8085.668	1	1	0	0	0.21294	0.1925	0.26714	0.18154	0.20898	0.28495	0.10729	0.29822	0.1582	0.044928	0.20114	0.055099	0.047028	0.30525	0.064705	0.30199	-1.5958	-2.6854	-2.1417	-2.1458	-2.8125	-1.9917	-2.6667	-2.5958	-1.8083	-2.6729	-2.3375	-2.2167	-2.7792	-2.0646	-2.5375	-2.6688	312.379	225.452	393.723	468.808	442.094	358.754	168.515	437.553	247.286	488.212	422.289	224.755	185.623	466.491	449.243	428.583	0.0007429	0.00037284	0.00015079	1391.8	2.9359e-06	5.6936e-06	1392.5	369.96	7.6094e-06	4.5371e-06	427.18	144.23	124.9	43.075	5.3668e-06	53.173	0.00037528	0.00035052	9.8764e-05	1387	3.9015e-06	3.8473e-06	1393.7	371.2	3.9023e-06	3.8173e-06	427.43	144.54	124.06	43.379	3.828e-06	53.534	164.002	230.495	203.095	153.615	253.401	287.831	153.184	157.987	287.042	336.225	157.455	161.535	161.630	167.041	253.810	166.031	-8191	255	
8085.764	1	1	0	0	0.26237	0.31441	0.19048	0.31446	0.26601	0.19865	0.23606	0.1899	0.19701	0.20772	0.21958	0.3342	0.18339	0.21426	0.23701	0.20489	-1.4458	-2.6396	-2.2812	-2.1083	-2.7438	-1.9667	-2.5312	-2.7313	-1.8958	-2.875	-2.5521	-2.0542	-2.7646	-2.0917	-2.0833	-2.8229	155.593	238.329	228.987	462.382	206.147	439.865	477.423	427.401	259.021	148.792	405.006	144.510	487.001	452.288	177.308	435.139	0.00069555	0.00059831	0.00011532	1391.2	1.801e-06	4.0312e-06	1381.6	367.45	4.4644e-06	5.619e-06	426.46	143.76	124.3	42.718	2.4105e-06	52.682	0.00036581	0.00034822	9.6311e-05	1383.3	3.797e-06	3.8319e-06	1387.1	369.45	3.8429e-06	3.8831e-06	425.84	143.49	123.26	43.05	3.9785e-06	53.242	161.382	230.866	230.835	153.677	282.724	255.154	153.195	157.908	311.566	272.974	157.316	161.594	162.080	167.263	275.662	166.075	-8191	255	
8085.861	1	1	0	0	0.090618	0.19795	0.12042	0.1301	0.13248	0.30813	0.27095	0.31502	0.044275	0.19651	0.2044	0.17353	0.02739	0.094605	0.14816	0.12097	-1.6146	-2.4208	-2.4083	-2.0563	-2.7542	-2.2625	-2.2604	-2.8104	-2.0271	-2.6354	-2.7	-2.1937	-2.975	-2.2625	-2.0604	-2.8833	157.318	394.704	316.262	277.699	331.750	488.892	421.503	424.280	306.087	400.807	370.140	459.452	479.067	365.109	395.595	357.015	0.00073985	0.00082631	0.00014071	1386.7	3.73e-06	9.3232e-07	1382.5	367.3	4.9976e-06	4.2945e-06	423.27	142.24	123.6	42.47	5.0358e-06	52.499	0.00037909	0.0003565	0.00010091	1377.7	3.9778e-06	3.9555e-06	1385.1	368.21	4.0653e-06	4.0793e-06	424.54	142.92	123	42.942	4.1737e-06	53.117	172.423	220.613	224.975	153.600	311.486	141.329	153.277	158.132	272.543	313.864	157.636	161.555	162.077	166.999	260.731	166.155	-8191	255	
8085.957	1	1	0	0	0.33222	0.21837	0.15139	0.070966	0.12156	0.26547	0.36856	0.04529	0.31529	0.053375	0.37286	0.13082	0.41938	0.083897	0.078158	0.32217	-1.5708	-2.3521	-2.3688	-2.1437	-2.7854	-2.2771	-2.3833	-2.925	-2.1729	-2.4729	-2.8646	-2.0729	-2.8146	-2.5438	-1.9604	-3.0167	297.206	451.275	153.556	483.396	337.023	318.208	399.723	241.709	328.237	409.928	468.411	358.141	433.573	416.758	384.859	449.244	0.000706	0.00048062	8.9472e-05	1387.7	6.1344e-06	2.8872e-06	1383.9	364.8	3.304e-06	6.3853e-06	422.83	142.11	123.43	42.217	4.3608e-06	52.557	0.00039503	0.00037966	0.00010683	1380.6	4.1792e-06	4.1745e-06	1387.2	366.89	4.2413e-06	4.2583e-06	424.18	142.57	123.29	42.842	4.4083e-06	53.103	167.158	231.997	215.154	153.705	281.070	301.277	153.341	158.066	247.659	328.262	157.628	161.322	161.995	167.548	299.539	166.211	-8191	255	
8086.053	1	1	0	0	0.061481	0.038285	0.041017	0.06374	0.060961	0.1176	0.10417	0.33927	0.16338	0.079167	0.20972	0.10489	0.24653	0.13955	0.093567	0.19062	-1.5896	-2.3187	-2.5771	-2.1063	-2.7188	-2.45	-2.1771	-3.0312	-2.2229	-2.2833	-2.8896	-2.0792	-2.7396	-2.6292	-1.8687	-2.9188	446.185	141.746	479.431	357.993	268.338	444.662	466.879	480.046	329.446	140.721	398.607	425.766	480.023	462.309	394.609	441.333	0.0006759	0.00022562	7.5641e-05	1390.1	3.6235e-06	7.796e-06	1384.2	365.81	4.7718e-06	5.6773e-06	423.34	141.47	123.1	42.337	1.8428e-06	52.5	0.00041479	0.00040019	0.00011156	1382.4	4.4179e-06	4.4243e-06	1386	367.52	4.4198e-06	4.453e-06	424.5	142.5	123.11	42.898	4.3733e-06	53.114	170.881	490.179	248.480	153.537	278.683	276.165	153.133	157.954	330.728	256.893	157.536	161.547	161.648	167.129	221.644	166.432	-8191	255	
8086.172	1	1	0	0	0.27512	0.041198	0.19286	0.23907	0.0086825	0.13574	0.080114	0.093194	0.16068	0.13994	0.14362	0.26966	0.21641	0.30477	0.27968	0.13211	-1.7875	-2.2271	-2.6979	-2.1646	-2.4083	-2.6646	-2.0542	-2.9229	-2.3833	-1.9833	-2.8875	-2.1042	-2.525	-2.825	-1.9271	-2.8271	205.413	481.151	294.020	372.879	325.343	478.810	422.847	316.456	407.688	314.897	439.295	366.663	426.465	454.026	456.119	496.930	0.00070251	0.00029021	0.00017364	1386.6	5.3616e-06	5.0746e-06	1384.8	364.63	5.8655e-06	3.4275e-06	423.43	142.09	123.31	42.36	3.6207e-06	52.66	0.00041788	0.00040199	0.00010989	1383	4.4255e-06	4.3385e-06	1386.8	366.81	4.3868e-06	4.3228e-06	423.85	142.68	123.12	42.831	4.4157e-06	53.233	168.959	202.724	242.304	153.518	235.199	329.669	153.087	157.986	261.249	322.664	157.446	161.256	162.126	167.046	214.520	166.133	-8191	255	
8086.245	1	1	0	0	0.16245	0.21166	0.14292	0.38572	0.19016	0.17844	0.33607	0.1944	0.14079	0.23375	0.11291	0.18793	0.28918	0.16114	0.32444	0.35223	-2.0167	-2.1583	-2.6375	-2.325	-2.3812	-2.5438	-2.0625	-2.8063	-2.3521	-1.9979	-2.8833	-2.1375	-2.3688	-2.7729	-1.8771	-2.725	483.248	276.796	175.160	421.315	353.356	312.865	436.350	470.810	488.227	356.087	356.017	468.134	196.160	492.037	224.185	453.401	0.00076088	0.00037664	9.0726e-05	1382.2	5.2539e-06	6.7224e-06	1379.1	365.56	5.0327e-06	8.4236e-07	422.49	142.5	123.53	42.56	1.2332e-06	52.401	0.00041397	0.00040104	0.00011138	1380.5	4.3746e-06	4.333e-06	1383.9	366.41	4.3203e-06	4.3644e-06	424.33	142.54	123.06	42.917	4.3799e-06	53.146	171.354	224.178	254.600	153.354	300.600	259.628	153.106	158.194	249.883	267.681	157.753	161.439	161.996	167.113	262.327	166.516	-8191	255	
8086.341	1	1	0	0	0.12465	0.25634	0.21102	0.10714	0.16737	0.16598	0.06524	0.2469	0.066015	0.11601	0.12119	0.15997	0.057391	0.13374	0.054881	0.3464	-1.9979	-2.0167	-2.8042	-2.2	-2.1792	-2.7583	-2.1146	-2.8625	-2.5438	-2.15	-2.6792	-2.2354	-2.1562	-2.5917	-2.0354	-2.525	212.141	429.082	335.288	197.585	278.163	465.101	461.046	431.682	256.645	255.042	364.639	410.909	428.347	207.494	419.449	469.722	0.00078831	9.8276e-05	0.00028219	1392.6	4.0952e-06	3.6384e-06	1384.6	364.84	6.6845e-06	1.1179e-05	422.3	141.73	122.51	42.437	7.7225e-07	52.479	0.00041769	0.00039491	0.00010747	1383.8	4.3121e-06	4.2745e-06	1386.3	366.57	4.2525e-06	4.2525e-06	424.38	142.3	122.85	42.854	4.2832e-06	53.043	167.581	191.391	199.617	153.432	297.597	325.023	153.197	158.129	261.570	283.485	157.572	161.566	162.008	167.166	203.617	166.329	-8191	255	
8086.460	1	1	0	0	0.16062	0.025312	0.12426	0.10227	0.17255	0.094025	0.19252	0.16612	0.10009	0.24654	0.25902	0.087298	0.079229	0.24344	0.17937	0.16462	-2.2167	-1.9125	-2.5542	-2.3229	-2.0875	-2.8521	-2.2188	-2.4938	-2.6083	-1.7854	-2.8479	-2.4875	-2.0979	-2.9146	-1.9125	-2.5354	456.646	231.434	498.247	193.128	262.196	279.832	406.326	405.546	321.520	469.816	381.443	376.876	324.466	418.257	221.778	372.294	0.00070797	0.00050127	0.00017422	1379.9	7.0046e-06	7.3958e-06	1378.7	364.38	3.7251e-06	1.0609e-06	421.66	140.99	123.01	42.463	4.9819e-06	52.558	0.00040206	0.00038355	0.00010628	1377.7	4.2905e-06	4.2187e-06	1383.1	366.15	4.2399e-06	4.3102e-06	423.29	142.08	122.62	42.792	4.292e-06	53.06	165.912	244.370	191.856	153.534	260.553	239.456	153.216	158.153	295.992	268.353	157.656	161.501	162.041	167.289	293.389	166.356	-8191	255	
8086.556	1	1	0	0	0.42101	0.095776	0.047734	0.13723	0.075276	0.20955	0.43114	0.12845	0.069594	0.10638	0.17446	0.20629	0.10351	0.07363	0.26401	0.097708	-2.0417	-1.6917	-2.7354	-2.2188	-1.9479	-2.65	-2.1021	-2.4792	-2.65	-1.8062	-2.7458	-2.4875	-2.0708	-2.7313	-2.1604	-2.2167	156.497	423.369	393.062	347.321	169.604	437.646	401.950	443.437	420.338	361.794	446.862	149.443	419.065	370.610	166.756	258.460	0.00074716	0.00018324	0.00022399	1373.1	4.5266e-06	2.0691e-06	1386.7	364.5	6.3065e-06	6.9039e-06	422.73	141.05	123.22	42.299	3.1864e-06	52.516	0.00041273	0.00039269	0.0001079	1374.7	4.3015e-06	4.2683e-06	1384.8	365.56	4.2999e-06	4.3093e-06	423.4	142.06	122.55	42.821	4.3497e-06	53.008	167.366	330.360	199.588	153.480	288.735	228.783	153.190	158.345	271.191	323.976	157.606	161.590	161.741	167.186	258.596	166.555	-8191	255	
8086.653	1	1	0	0	0.11352	0.020174	0.12196	0.34046	0.19533	0.12153	0.19695	0.21974	0.090191	0.068736	0.095596	0.062784	0.094492	0.44242	0.15027	0.16002	-2.3917	-1.9167	-2.6813	-2.475	-2.0667	-2.7125	-2.3	-2.275	-2.8229	-2.025	-2.6396	-2.7521	-1.9229	-2.7167	-2.25	-2.2542	227.618	239.813	210.562	151.420	363.261	162.024	430.348	465.841	358.458	452.931	420.203	398.979	225.298	439.718	159.583	182.864	0.00070532	0.00058246	0.00011546	1377.5	7.6722e-06	1.3767e-06	1377.8	363.86	5.7147e-06	6.3759e-06	419.99	141.26	122.65	42.18	1.865e-06	52.132	0.00040973	0.00039269	0.00010945	1375.4	4.3426e-06	4.3326e-06	1382.4	365.88	4.3757e-06	4.3069e-06	422.71	141.8	122.45	42.714	4.3357e-06	52.872	171.912	183.828	189.152	153.444	278.861	306.263	153.190	158.154	261.740	319.446	157.751	161.775	162.012	167.157	261.878	166.009	-8191	255	
8086.773	1	1	0	0	0.038904	0.19204	0.16863	0.22118	0.064185	0.12641	0.17171	0.26944	0.10279	0.32117	0.34994	0.20008	0.17692	0.21589	0.41858	0.22337	-2.2812	-1.8833	-2.2271	-2.6083	-1.7521	-2.6833	-2.4188	-2.2667	-2.7271	-2.0396	-2.4521	-2.6771	-2.0854	-2.6958	-2.4396	-2.2396	360.917	393.144	347.968	399.981	488.368	160.841	471.448	478.788	208.527	325.043	429.092	450.932	389.436	497.735	414.238	459.632	0.00071395	0.001131	0.00030678	1381.1	4.9567e-06	4.9806e-06	1380.9	363.67	7.1379e-06	1.3654e-06	421.75	141.22	122.35	42.341	4.1e-06	52.29	0.00041209	0.00039606	0.00011008	1375.6	4.3284e-06	4.2561e-06	1381.2	365.34	4.2903e-06	4.2879e-06	422.93	141.48	122.51	42.721	4.3488e-06	52.946	168.677	234.217	231.204	153.501	279.736	245.173	153.321	158.110	273.508	464.037	157.751	161.544	162.207	167.294	287.156	166.423	-8191	255	
8086.845	1	1	0	0	0.31261	0.23269	0.18635	0.29487	0.14828	0.10947	0.32105	0.16841	0.084701	0.1725	0.13321	0.11186	0.21135	0.1418	0.13422	0.21007	-2.2354	-2.0375	-2.3479	-2.7271	-2.0625	-2.575	-2.7521	-1.9375	-2.8563	-2.2812	-2.3354	-2.8604	-2.0292	-2.5604	-2.6333	-2.2021	336.148	325.528	340.514	460.220	384.649	153.317	439.800	441.247	436.440	410.532	390.364	140.499	447.879	445.255	450.941	202.820	0.00070131	0.00033853	6.7142e-05	1380.8	7.6553e-06	3.346e-06	1374.6	363.57	5.1711e-06	4.3208e-06	423.17	141.58	122.49	42.164	5.2615e-06	52.429	0.00041304	0.00039289	0.00011105	1376.2	4.3607e-06	4.2994e-06	1380.6	364.99	4.3794e-06	4.2875e-06	423.91	141.66	122.59	42.68	4.3628e-06	52.954	163.436	231.363	179.982	153.345	251.545	264.722	153.411	158.261	278.252	307.728	157.589	161.498	162.026	167.384	271.262	166.135	-8191	255	
8086.941	1	1	0	0	0.16658	0.17617	0.14634	0.15457	0.24194	0.071516	0.18521	0.21416	0.059228	0.07096	0.14272	0.21264	0.048997	0.029266	0.12746	0.33181	-2.3312	-2.1125	-2.0625	-2.8625	-1.7958	-2.4792	-2.6813	-2.0958	-2.8292	-2.3063	-2.2042	-2.9562	-2.0521	-2.3354	-2.5312	-2.0146	402.493	256.509	256.117	145.466	377.630	169.303	444.219	461.654	453.494	278.717	142.089	449.787	350.268	443.276	168.466	427.193	0.00073978	0.00051225	0.00023229	1385.8	6.3238e-06	5.2633e-06	1378	363.53	4.0619e-06	3.8475e-06	422.52	141.02	122.19	42.341	4.7825e-06	52.377	0.00040841	0.00039068	0.00010845	1376	4.3159e-06	4.2232e-06	1381.9	365.38	4.238e-06	4.2605e-06	423.09	141.57	122.25	42.787	4.3418e-06	52.968	167.633	261.955	246.184	153.612	277.278	295.277	153.334	158.353	313.361	289.677	157.774	161.570	162.029	167.248	294.378	166.758	-8191	255	
8087.062	1	1	0	0	0.22909	0.16963	0.1504	0.1548	0.12868	0.050831	0.11757	0.11396	0.2021	0.13883	0.09515	0.13874	0.22415	0.094716	0.18749	0.014705	-2.3063	-2.2812	-2.1479	-2.6729	-2.0229	-2.3354	-3.1229	-2.1375	-2.5938	-2.3896	-2.3167	-2.6708	-2.2042	-2.3708	-2.6833	-2.1521	175.470	298.411	346.837	424.276	456.211	245.091	346.667	419.417	364.879	298.851	169.816	258.298	288.010	181.134	197.995	474.680	0.00061451	0.00044429	8.9632e-05	1381.9	4.3029e-06	8.0056e-06	1372.8	362.55	3.8544e-06	3.9162e-06	420.54	141.66	122.56	42.107	1.5195e-06	52.428	0.00040564	0.0003924	0.00010992	1379.1	4.3093e-06	4.3401e-06	1380.6	365.29	4.2693e-06	4.3302e-06	422.9	141.93	122.4	42.701	4.3409e-06	52.901	167.112	190.078	252.927	153.386	282.730	268.875	153.231	158.346	272.040	415.721	157.598	161.607	161.650	167.268	256.969	166.090	-8191	255	
8087.158	1	1	0	0	0.033705	0.25936	0.13562	0.14615	0.33585	0.28088	0.11642	0.28386	0.069805	0.10816	0.15595	0.26982	0.31005	0.10495	0.12513	0.32517	-2.0208	-2.3271	-1.8958	-2.875	-2.1146	-2.275	-2.9708	-1.9146	-2.6146	-2.6	-2.1229	-2.8937	-2.3208	-2.2271	-2.7583	-2.1708	227.988	465.604	244.542	465.584	421.257	383.769	396.563	437.785	169.725	420.461	426.490	483.529	213.873	439.632	242.213	499.741	0.00071118	0.00055396	9.8968e-05	1370.6	2.8558e-06	5.3695e-06	1377.4	362.45	6.6679e-06	5.0845e-06	422.22	140.58	122.44	42.145	3.085e-06	52.369	0.00041007	0.00039735	0.0001114	1375	4.3456e-06	4.3577e-06	1379.7	364.52	4.3931e-06	4.3503e-06	422.04	141.43	122.33	42.653	4.3625e-06	52.78	163.362	237.964	233.030	153.685	252.372	231.699	153.275	158.228	286.291	341.055	157.706	161.636	162.025	167.357	277.932	166.058	-8191	255	
8087.252	1	1	0	0	0.12427	0.149	0.28401	0.17563	0.10328	0.1933	0.31369	0.15709	0.19355	0.034247	0.39907	0.14704	0.11741	0.18197	0.14124	0.30378	-2.2958	-2.6021	-1.8604	-2.8146	-2.3958	-2.1813	-2.9625	-2.2354	-2.4792	-2.6188	-2.0375	-2.8333	-2.4771	-2.0125	-2.9313	-2.1708	175.794	183.543	348.489	499.724	201.955	235.012	459.736	405.894	176.976	471.524	466.688	436.594	432.735	152.137	404.449	393.999	0.00061773	0.00033383	0.00020448	1380.6	3.8008e-06	5.1169e-06	1380.9	363.9	5.5178e-06	6.7813e-06	419.71	141.4	122.59	42.225	3.9891e-06	52.253	0.00041186	0.00040135	0.00011197	1375.6	4.343e-06	4.3838e-06	1381.1	365.02	4.4207e-06	4.3824e-06	421.9	141.63	122.48	42.686	4.4267e-06	52.843	163.718	235.318	231.802	153.601	241.492	252.431	153.201	157.931	219.845	274.297	157.753	161.519	161.812	167.126	241.663	166.347	-8191	255	
8087.350	1	1	0	0	0.15647	0.059082	0.35151	0.25056	0.090872	0.067298	0.34031	0.15525	0.188	0.21405	0.28285	0.09309	0.088236	0.25771	0.19759	0.15676	-1.9	-2.5875	-1.7396	-2.5583	-2.3812	-1.8979	-2.9813	-2.1604	-2.2208	-2.6458	-2.1333	-2.5917	-2.4479	-2.0292	-2.7625	-2.1188	429.911	498.173	417.596	201.335	141.318	345.040	451.342	422.617	392.929	484.918	425.608	465.526	161.492	346.675	468.555	452.671	0.00065369	0.00073073	0.00016909	1387.3	7.4804e-07	2.071e-06	1374.2	362.8	6.1026e-06	2.6984e-06	418.7	140.98	122.89	42.317	5.1277e-06	51.907	0.00041547	0.00040553	0.00011132	1379.2	4.4261e-06	4.3619e-06	1380.2	364.99	4.4068e-06	4.4168e-06	421.7	141.87	122.27	42.75	4.4324e-06	52.699	167.513	262.839	223.188	153.808	239.921	193.501	153.254	158.109	296.896	225.891	157.854	161.413	161.726	167.363	256.152	166.150	-8191	255	
8087.469	1	1	0	0	0.09031	0.18494	0.089987	0.25407	0.14502	0.29414	0.3416	0.083123	0.13902	0.035606	0.45731	0.11695	0.047649	0.15889	0.2124	0.082546	-1.7563	-2.7583	-2.0563	-2.9542	-2.4646	-1.8292	-3.0917	-2.4604	-2.1729	-2.5896	-2.2875	-2.5021	-2.4521	-2.0438	-2.7313	-2.4083	174.812	446.794	192.597	151.961	498.253	338.660	449.909	146.595	150.763	181.564	167.019	149.768	421.150	146.031	262.015	367.499	0.00068835	0.00063263	0.00014675	1372.2	5.4929e-06	2.3036e-06	1374	361.83	5.1113e-06	5.4209e-06	418.62	140.68	122.46	42.185	5.2037e-06	52.349	0.00042372	0.00040426	0.00011204	1374.5	4.464e-06	4.4545e-06	1379.8	364.34	4.4629e-06	4.4464e-06	421.61	141.47	122.2	42.668	4.5109e-06	52.829	161.872	224.500	212.439	153.566	287.316	234.009	153.238	158.009	296.316	312.699	157.443	161.742	162.104	167.282	270.192	166.250	-8191	255	
8087.541	1	1	0	0	0.12342	0.012496	0.26785	0.073602	0.10967	0.19955	0.19636	0.13683	0.13918	0.21386	0.31525	0.16274	0.052187	0.28163	0.15706	0.10107	-1.6313	-2.7687	-1.9271	-2.5187	-2.5625	-2.0396	-2.7708	-2.4875	-1.9521	-2.8042	-2.3333	-2.3458	-2.7146	-1.9458	-2.7062	-2.4396	264.823	428.792	148.403	177.744	299.122	332.111	414.909	409.473	191.758	211.396	142.251	462.935	430.489	171.920	494.594	193.366	0.00077585	0.00041307	0.0002051	1378.3	5.1457e-06	4.4913e-06	1375.2	363.3	2.7437e-06	3.1934e-06	419.76	140.36	121.71	42.054	1.1914e-06	51.797	0.00042244	0.00040939	0.00011279	1375.7	4.4659e-06	4.4723e-06	1377.5	364.77	4.4645e-06	4.3783e-06	420.92	141.47	122.04	42.573	4.4069e-06	52.658	169.124	204.352	240.890	153.614	276.618	254.992	153.160	158.062	241.135	283.739	157.666	161.896	162.196	167.352	284.516	166.133	-8191	255	
8087.637	1	1	0	0	0.11451	0.17931	0.088747	0.15272	0.096937	0.10302	0.14311	0.10289	0.039824	0.11611	0.068688	0.23525	0.072133	0.22718	0.30515	0.10491	-1.5583	-2.7687	-2.0396	-2.3937	-2.6875	-2.0708	-2.7687	-2.5875	-1.7437	-2.65	-2.3708	-2.4583	-2.9375	-2.1875	-2.5917	-2.5812	221.257	215.744	298.136	240.328	157.828	204.728	418.209	450.555	149.037	496.134	390.421	454.350	335.627	221.050	370.862	473.560	0.00066996	0.00048916	0.00026677	1371.8	4.6551e-06	3.6362e-06	1369.9	363.03	6.0377e-06	6.4377e-06	419.22	140.71	121.83	42.002	3.9626e-06	52.476	0.00041385	0.00040083	0.00011162	1373.9	4.4335e-06	4.375e-06	1376.9	363.98	4.4003e-06	4.2722e-06	421.37	141.34	121.92	42.554	4.3312e-06	52.792	165.213	245.865	244.774	153.866	230.275	338.723	153.287	158.315	258.594	331.513	157.753	161.753	162.084	167.058	293.123	166.091	-8191	255	
8087.733	1	1	0	0	0.23993	0.2808	0.22876	0.25336	0.13672	0.24235	0.089341	0.3016	0.16578	0.081369	0.25775	0.1747	0.1937	0.070064	0.15222	0.21265	-1.225	-2.7375	-2.0708	-2.2375	-2.9167	-1.9312	-2.5083	-2.6625	-1.9708	-2.6833	-2.5771	-2.1604	-2.6312	-1.9125	-2.3125	-2.625	309.461	299.171	286.332	483.528	377.422	259.739	208.843	151.318	370.822	430.431	452.708	155.671	146.432	324.255	377.923	470.598	0.00075451	0.00052492	0.00018347	1374.8	4.3231e-06	5.7007e-06	1373.3	362.81	3.6932e-06	7.3905e-06	420.28	140.15	121.81	42.117	3.4949e-06	52.254	0.00040681	0.00038945	0.00010962	1370.4	4.2986e-06	4.3394e-06	1375.9	363.93	4.2949e-06	4.2689e-06	421.15	141.37	121.49	42.583	4.3428e-06	52.707	163.404	273.353	241.803	153.800	270.978	272.268	153.254	158.032	271.487	266.850	157.640	161.965	161.994	167.340	140.871	166.466	-8191	255	
8087.854	1	1	0	0	0.31563	0.11184	0.3304	0.3074	0.15632	0.40034	0.13388	0.1148	0.14455	0.14547	0.18944	0.27896	0.024441	0.11683	0.087779	0.27059	-1.6042	-2.5146	-2.2833	-2.0875	-2.4917	-1.9104	-2.4479	-2.6312	-2.0083	-2.6458	-2.6583	-2.0271	-2.9333	-2.1083	-2.2875	-2.8167	300.709	372.090	484.308	140.736	230.312	489.114	450.894	452.977	283.983	315.159	437.450	418.342	424.781	172.534	475.952	449.691	0.00071981	0.0002605	0.00017531	1375	5.5823e-06	2.5928e-06	1369.2	363.07	6.8118e-06	5.8377e-06	420.28	140.56	122.12	42.171	5.5818e-06	52.046	0.00040339	0.00039	0.00010789	1369.8	4.2853e-06	4.2608e-06	1374.6	364.43	4.2626e-06	4.2331e-06	421.48	141.24	121.78	42.528	4.249e-06	52.679	167.928	275.034	228.068	153.554	271.690	341.869	153.495	158.010	292.572	235.150	157.557	161.760	161.885	167.038	261.028	166.156	-8191	255	
8087.950	1	1	0	0	0.26754	0.13716	0.21835	0.045432	0.067878	0.21135	0.2077	0.20695	0.086512	0.20718	0.16479	0.084919	0.20399	0.20442	0.05362	0.27331	-1.5729	-2.4688	-2.4625	-1.9417	-2.6875	-2.2354	-2.4375	-2.8583	-1.9729	-2.6229	-2.6625	-2.0604	-2.7875	-2.3667	-2.2042	-2.8521	271.271	292.236	250.096	422.973	142.646	311.722	460.874	440.171	482.675	206.611	492.105	494.284	499.329	341.198	434.351	384.972	0.00070115	0.00044225	0.00014671	1368.8	4.6019e-06	5.667e-06	1371.8	361.94	4.7178e-06	8.1404e-06	419.07	140.39	122.56	41.96	2.9539e-06	52.164	0.00040071	0.0003866	0.0001077	1370.2	4.2271e-06	4.1994e-06	1376.1	364.35	4.1854e-06	4.1683e-06	421.21	141.12	122.33	42.48	4.1897e-06	52.746	168.206	189.024	496.215	153.524	266.470	253.379	153.287	158.168	268.567	272.392	157.402	161.660	162.144	167.201	231.951	166.415	-8191	255	
8088.046	1	1	0	0	0.16407	0.046297	0.43061	0.037713	0.076795	0.11328	0.091306	0.16078	0.16646	0.06566	0.22999	0.35887	0.12292	0.099481	0.14183	0.13705	-1.5396	-2.4417	-2.4521	-2.0438	-2.7208	-2.5146	-2.3771	-3.0833	-2.0833	-2.4562	-2.8646	-1.9708	-2.7313	-2.3958	-2.0146	-2.7396	204.801	475.289	423.943	357.798	171.939	431.983	438.074	157.591	286.352	193.519	470.174	164.458	190.668	443.557	233.952	484.844	0.00077455	0.00063147	0.00017115	1372.5	3.669e-06	1.4574e-06	1376.6	361.6	4.5686e-06	7.3047e-06	419.84	140.78	121.87	42.012	3.1021e-06	52.173	0.00039103	0.00038072	0.00010582	1371	4.1363e-06	4.1536e-06	1377	363.88	4.1393e-06	4.1089e-06	420.87	141.26	121.93	42.539	4.1683e-06	52.72	164.358	205.314	213.750	153.444	235.272	207.031	153.535	158.194	265.413	305.617	157.660	161.524	161.968	167.253	262.807	166.324	-8191	255	
8088.142	1	1	0	0	0.16475	0.096986	0.099743	0.25108	0.21181	0.18266	0.13231	0.18717	0.18833	0.22355	0.27933	0.17112	0.23325	0.24224	0.12081	0.1166	-1.6417	-2.1708	-2.5729	-1.9375	-2.7333	-2.2146	-2.2875	-2.8625	-2.1688	-2.0917	-2.9292	-2.0229	-2.6208	-2.5896	-1.7604	-2.8208	296.070	460.192	294.574	433.618	185.429	155.007	492.518	173.043	164.277	460.132	414.584	447.958	202.076	456.977	229.154	274.404	0.00079687	0.00052086	0.00017558	1382.6	5.3562e-06	3.6192e-06	1376	362.39	3.4217e-06	2.4542e-06	419.77	141.08	122.56	42.215	5.789e-06	52.393	0.00039552	0.00037988	0.00010736	1374.4	4.1174e-06	4.1146e-06	1377.6	363.95	4.1061e-06	4.1363e-06	421.52	141.39	121.97	42.571	4.1084e-06	52.75	167.471	206.328	260.331	153.602	294.963	189.725	153.298	158.116	259.676	461.534	157.535	161.796	161.965	167.105	236.658	166.070	-8191	255	
8088.238	1	1	0	0	0.15966	0.077196	0.30277	0.13446	0.20211	0.2028	0.32273	0.14361	0.15303	0.15685	0.1019	0.1924	0.13911	0.061105	0.32913	0.24134	-1.7271	-2.2396	-2.6292	-2.2542	-2.3604	-2.5083	-2.2104	-2.8125	-2.025	-2.125	-2.7667	-2.0417	-2.3979	-2.6625	-1.8312	-2.7479	443.176	272.777	495.031	275.046	146.528	234.254	392.722	453.854	433.141	409.227	179.171	464.215	340.448	185.530	241.416	496.068	0.00068594	0.00046333	0.00017399	1374.5	1.8679e-06	7.0951e-06	1374	362.87	3.3089e-06	4.8577e-06	420.94	140.59	121.84	42.206	3.44e-06	52.322	0.00039717	0.00037405	0.00010337	1370.6	4.1185e-06	4.0565e-06	1377.9	363.78	4.0754e-06	4.0753e-06	421.47	141.08	121.86	42.516	4.0705e-06	52.71	171.248	212.219	241.651	153.503	249.439	242.767	153.094	158.210	304.241	305.422	157.816	161.599	162.182	167.318	257.935	166.443	-8191	255	
8088.334	1	1	0	0	0.071359	0.15637	0.015003	0.21163	0.29025	0.21249	0.16554	0.19703	0.14875	0.19475	0.4244	0.18472	0.17513	0.17676	0.037499	0.031462	-1.8917	-2.1125	-2.7146	-2.2542	-2.3479	-2.9042	-2.0542	-2.9021	-2.5312	-1.8146	-2.8375	-2.2271	-2.3583	-2.5812	-1.9083	-2.625	252.111	315.772	236.301	488.935	473.156	483.542	147.033	461.571	147.991	397.696	447.971	455.361	436.803	482.829	396.468	459.357	0.00074432	0.00042418	7.0487e-05	1376.1	3.8129e-06	4.8981e-06	1369.5	361.98	3.3463e-06	6.9532e-06	420.37	140.98	122.6	42.115	3.3578e-06	52.348	0.00038582	0.00036752	0.00010248	1370.7	4.0448e-06	4.0542e-06	1373.9	363.73	3.9974e-06	4.0439e-06	420.95	141.34	121.95	42.48	4.0472e-06	52.665	170.536	298.753	180.615	153.467	204.740	286.207	153.182	158.034	241.465	320.589	157.564	161.714	162.136	167.335	273.994	166.435	-8191	255	
8088.453	1	1	0	0	0.24767	0.11335	0.34191	0.11589	0.039218	0.14386	0.30346	0.22786	0.22376	0.12887	0.1937	0.37411	0.3487	0.087794	0.13474	0.10663	-1.9146	-1.8896	-2.7646	-2.1479	-2.1042	-2.675	-2.1292	-2.5896	-2.5146	-1.7938	-2.9542	-2.3917	-2.1813	-2.775	-2.0187	-2.7708	410.233	423.773	356.404	239.231	458.085	282.880	411.855	391.790	495.839	174.183	199.492	173.795	420.028	158.595	494.336	377.138	0.00061873	0.00030512	0.00011562	1368.4	5.0767e-06	1.7124e-06	1367.8	363.83	6.252e-06	2.136e-06	420.56	140.48	121.91	42.289	1.4789e-06	52.265	0.00038323	0.00036924	0.00010156	1367.7	4.0076e-06	3.974e-06	1372.8	364.75	4.01e-06	4.0136e-06	421.36	141.05	121.63	42.582	4.0935e-06	52.661	166.871	233.463	221.631	153.424	311.022	294.731	153.321	158.055	281.914	298.847	157.661	161.629	162.255	167.273	300.737	166.593	-8191	255	
8088.549	1	1	0	0	0.25966	0.061486	0.1048	0.13697	0.080496	0.2139	0.28203	0.35293	0.061946	0.19028	0.11624	0.3634	0.24136	0.166	0.11389	0.32504	-2.3146	-1.7083	-2.5938	-2.2833	-1.9229	-2.9708	-2.0854	-2.3375	-2.5438	-1.9896	-2.5521	-2.3396	-2.0563	-2.9021	-2.0125	-2.2354	264.856	224.927	192.051	435.468	292.610	475.930	371.041	473.266	171.493	159.010	434.413	440.491	440.864	219.228	456.200	449.859	0.00069078	0.00041673	0.00013113	1370.8	5.1352e-06	5.1941e-06	1367.8	361.23	3.2258e-06	2.9485e-06	422.25	140.33	122.59	42.271	4.421e-06	52.375	0.00038493	0.00037131	0.00010134	1369.7	4.0249e-06	3.9732e-06	1373.2	363.92	4.0424e-06	3.9731e-06	421.16	141.15	121.67	42.556	4.0139e-06	52.76	166.755	213.925	231.436	153.806	318.039	213.851	153.263	158.212	270.956	300.062	157.758	161.804	162.233	167.547	245.016	166.650	-8191	255	
8088.645	1	1	0	0	0.01453	0.20017	0.15724	0.16735	0.053775	0.043203	0.3403	0.16952	0.073001	0.37498	0.16297	0.32626	0.34248	0.15123	0.31117	0.19791	-2.2958	-1.7917	-2.6292	-2.7917	-2.1167	-2.8542	-2.1896	-2.325	-2.7146	-1.8167	-2.7	-2.7229	-1.9958	-2.7083	-2.0854	-2.2271	165.188	363.471	316.877	436.765	247.453	395.655	447.064	409.830	438.569	405.174	429.321	446.212	465.057	429.940	327.049	460.980	0.00073543	0.00078443	0.00010809	1369.3	2.2305e-06	8.4296e-07	1367.7	363.33	5.0905e-06	3.7995e-06	420.92	140.49	122.57	42.158	3.8151e-06	51.925	0.00037968	0.00036944	0.00010094	1366.1	4.0142e-06	3.9766e-06	1371.7	364.15	3.933e-06	3.96e-06	421.12	141.18	121.75	42.502	3.9239e-06	52.569	167.191	210.525	227.701	153.748	270.281	372.519	153.291	158.181	300.792	301.517	157.789	161.733	162.454	167.527	237.244	166.750	-8191	255	
8088.742	1	1	0	0	0.24682	0.14264	0.25076	0.26284	0.10199	0.26612	0.33305	0.16842	0.045288	0.16963	0.21165	0.052018	0.30555	0.44987	0.23395	0.2231	-2.3312	-1.8188	-2.4	-2.5167	-1.6896	-2.8438	-2.3479	-2.2354	-2.7875	-2.0062	-2.5854	-2.7146	-1.95	-2.8708	-2.2938	-2.1458	412.137	231.588	448.481	446.608	158.412	166.166	414.406	451.552	324.567	389.653	431.522	315.504	493.649	425.330	468.578	271.672	0.00065815	5.2624e-05	0.0001042	1373.4	3.5807e-06	3.985e-06	1371	362.82	6.1427e-06	5.0381e-06	420.52	140.98	122.46	42.113	2.7974e-06	51.995	0.00037784	0.00035964	9.8195e-05	1367.1	3.9287e-06	3.9305e-06	1375.3	363.9	3.9172e-06	3.9574e-06	421.14	141.05	121.52	42.488	3.9724e-06	52.546	164.591	356.034	397.046	153.640	277.762	267.283	153.155	158.246	250.179	293.968	157.920	161.750	162.051	167.597	338.900	166.443	-8191	255	
8088.838	1	1	0	0	0.080691	0.17861	0.16461	0.088178	0.34851	0.32436	0.24995	0.20981	0.2097	0.10856	0.20815	0.43104	0.2555	0.075661	0.021047	0.055627	-2.3354	-1.875	-2.3667	-2.5625	-1.8271	-2.5625	-2.5833	-2.1229	-2.7396	-2.2583	-2.4	-2.8083	-2.025	-2.6167	-2.425	-1.8833	193.171	205.249	451.260	186.149	182.277	288.597	450.753	467.898	177.616	443.012	458.500	485.443	368.694	432.553	364.862	378.717	0.00073817	0.00061213	0.00020996	1375.2	3.9383e-06	9.1748e-07	1377.4	363.47	7.3761e-06	1.3652e-06	419.54	140.24	121.44	42.113	2.1544e-06	52.426	0.00037392	0.0003528	0.00010007	1370.4	3.8866e-06	3.9432e-06	1374.7	364.26	3.9623e-06	3.937e-06	420.28	141.11	121.35	42.435	3.9608e-06	52.6	169.052	221.468	238.418	153.695	273.520	371.674	153.441	158.388	264.010	172.557	158.083	161.759	162.184	167.562	259.741	166.555	-8191	255	
8088.934	1	1	0	0	0.059155	0.17995	0.075508	0.46061	0.2711	0.17268	0.25473	0.19143	0.23403	0.073739	0.18741	0.12185	0.24	0.05826	0.096111	0.47124	-2.4771	-1.9688	-2.125	-2.8917	-1.7375	-2.5708	-2.6521	-2.2958	-2.8354	-2.2687	-2.1917	-2.9667	-2.0479	-2.425	-2.6604	-2.1833	332.448	298.636	198.249	494.067	486.180	413.830	466.801	455.150	334.612	410.761	395.806	147.105	475.786	251.024	401.298	454.906	0.00073912	0.00062186	0.00014449	1378.4	4.6377e-06	6.0643e-06	1368.6	361.23	3.0405e-06	3.63e-06	418.78	140.45	121.26	41.962	1.396e-06	52.17	0.00037271	0.00036115	9.995e-05	1367.7	3.9294e-06	3.8844e-06	1371.3	363.02	3.9041e-06	3.8868e-06	419.85	140.98	121.17	42.405	3.8897e-06	52.52	163.687	221.667	208.389	153.950	217.547	256.133	153.582	158.552	291.590	299.318	158.087	162.017	162.187	167.555	219.063	166.666	-8191	255	
8089.030	1	1	0	0	0.16163	0.15328	0.12361	0.17311	0.16238	0.22413	0.23897	0.12891	0.16681	0.072218	0.13864	0.11759	0.20454	0.14945	0.28999	0.30624	-2.2229	-2.2292	-2.0938	-2.7771	-1.8292	-2.3271	-2.6937	-1.95	-2.6104	-2.2479	-2.3208	-2.9896	-2.0146	-2.3896	-2.7313	-1.8604	234.475	236.112	269.236	226.768	361.924	408.410	425.608	178.875	479.692	314.504	144.341	231.785	481.637	454.431	367.171	169.502	0.00074492	0.00050968	0.00013671	1367.6	4.3088e-06	2.6519e-06	1373.3	362.82	4.4926e-06	6.3753e-06	418.92	141.11	122.3	42.284	3.0947e-06	52.062	0.0003733	0.00035597	9.8971e-05	1365	3.8788e-06	3.921e-06	1374.4	363.8	3.8863e-06	3.8506e-06	420.28	141.04	121.52	42.448	3.9074e-06	52.507	169.995	267.088	205.143	153.952	284.468	259.300	153.443	158.471	291.302	266.093	157.891	161.997	162.307	167.649	294.669	166.482	-8191	255	
8089.149	1	1	0	0	0.22127	0.24704	0.1661	0.068365	0.044383	0.20398	0.059099	0.15762	0.015579	0.27441	0.23646	0.077212	0.14979	0.060318	0.23159	0.1008	-1.9562	-2.3208	-2.1312	-2.8146	-2	-2.2458	-2.9146	-2.2854	-2.5438	-2.4083	-2.0187	-2.95	-2.3063	-2.225	-2.7188	-2.1271	403.620	434.522	294.355	342.844	156.964	298.357	429.024	386.531	303.080	453.120	392.503	348.554	424.978	156.091	291.154	176.119	0.00070837	0.00060544	0.00015147	1365.6	4.9771e-06	2.4214e-06	1370	362.37	5.0251e-06	8.3723e-06	420.91	140.51	123.15	41.866	2.8064e-06	51.883	0.00036795	0.00035574	9.8599e-05	1365.1	3.9436e-06	3.8996e-06	1371.9	363.02	3.9087e-06	3.8812e-06	421.02	140.81	121.68	42.344	3.9006e-06	52.392	171.280	180.001	206.590	154.035	247.084	215.880	153.550	158.551	289.907	257.708	158.303	161.848	162.243	167.857	248.891	166.703	-8191	255	
8089.245	1	1	0	0	0.30359	0.090608	0.068654	0.15096	0.19214	0.13518	0.35385	0.035216	0.14621	0.17333	0.14464	0.28648	0.11527	0.12938	0.1568	0.33742	-2.1625	-2.4583	-1.9354	-2.8479	-2.2896	-2.2125	-2.9604	-2.2062	-2.5417	-2.6021	-2.1	-2.9042	-2.2771	-2.1917	-2.6375	-2.1	214.972	350.917	259.061	484.101	473.327	257.676	414.705	144.724	341.791	332.222	319.846	430.042	254.602	389.714	264.037	152.188	0.00067879	0.00040606	9.8397e-05	1379	2.7679e-06	5.0755e-06	1374.4	362.85	3.7249e-06	5.0551e-06	417.25	140.86	122.8	42.026	5.0988e-06	52.062	0.0003716	0.00036015	9.9825e-05	1369.8	3.8566e-06	3.9124e-06	1371.5	363.34	3.9005e-06	3.8594e-06	419.8	140.97	121.65	42.411	3.8942e-06	52.58	166.209	230.975	197.669	153.986	269.290	267.136	153.703	158.492	258.789	294.634	157.971	162.191	162.376	167.630	286.996	166.708	-8191	255	
8089.341	1	1	0	0	0.19094	0.096696	0.20264	0.030124	0.16907	0.01863	0.13615	0.31073	0.099076	0.26144	0.20558	0.3581	0.12583	0.12271	0.22432	0.19923	-1.8896	-2.4146	-1.9937	-2.6625	-2.4604	-1.8687	-2.9313	-2.2625	-2.3396	-2.7188	-2.1813	-2.5292	-2.5208	-2.1021	-2.7	-2.2646	237.944	323.265	149.867	233.467	412.812	239.117	414.453	407.836	272.621	240.808	464.982	453.760	194.248	143.902	428.544	204.543	0.00068028	0.00063577	7.5095e-05	1374.9	2.1737e-06	5.4098e-06	1369.3	361.73	4.713e-06	5.1685e-06	419.64	141.51	121.61	42.163	5.4775e-06	51.88	0.00036973	0.00035657	9.9003e-05	1365.1	3.904e-06	3.8946e-06	1371.9	362.84	3.8479e-06	3.8857e-06	420.26	141.22	121.22	42.416	3.8736e-06	52.395	168.019	187.509	176.315	153.984	276.270	288.221	153.743	158.649	246.622	335.772	158.003	161.822	162.628	167.569	263.547	166.539	-8191	255	
8089.415	1	1	0	0	0.049772	0.061346	0.062071	0.42584	0.18815	0.081941	0.2634	0.36639	0.14249	0.098181	0.35176	0.33606	0.26516	0.14763	0.36302	0.32521	-2.0021	-2.5938	-1.9562	-2.65	-2.4562	-1.9667	-3.0083	-2.3021	-2.2792	-2.6729	-2.0854	-2.3646	-2.6375	-2.0458	-2.6333	-2.3917	273.266	332.860	173.081	142.142	233.809	251.894	435.049	444.987	265.257	399.203	498.810	495.004	422.107	443.380	143.072	490.131	0.00066885	0.00039562	0.00015311	1378.2	3.9442e-06	7.2559e-06	1374.5	361.66	8.2474e-06	3.5194e-06	421.1	141.34	122.11	42.024	6.1411e-06	52.145	0.00036898	0.00034815	9.7577e-05	1369.2	3.8231e-06	3.856e-06	1373.8	363.15	3.8702e-06	3.8544e-06	420.52	141.23	121.36	42.334	3.872e-06	52.513	167.140	234.957	220.223	153.844	285.198	273.510	153.533	158.473	284.747	298.454	158.181	161.968	162.571	167.318	273.943	166.463	-8191	255	
8089.534	1	1	0	0	0.078263	0.12318	0.041661	0.064614	0.10499	0.24395	0.1999	0.33442	0.4364	0.043207	0.23466	0.53631	0.15835	0.13063	0.011155	0.22634	-1.5979	-2.6604	-1.9979	-2.5312	-2.4896	-1.8458	-2.8542	-2.325	-2.0292	-2.925	-2.3063	-2.2687	-2.5875	-1.8667	-2.6396	-2.4688	313.126	493.661	402.248	469.043	191.489	263.650	459.228	437.875	493.427	269.696	480.026	433.102	162.672	309.956	188.004	449.763	0.00068887	0.00022268	0.0002773	1372.8	6.132e-06	4.5744e-06	1370.3	360.45	5.3766e-06	5.5915e-06	419.21	140.33	122.08	42.184	3.4882e-06	51.845	0.00037162	0.0003535	9.8429e-05	1366.7	3.8917e-06	3.8574e-06	1372.9	362.66	3.9159e-06	3.8376e-06	419.02	140.77	121.28	42.426	3.8721e-06	52.413	162.531	191.647	221.199	153.827	249.134	264.834	153.668	158.511	283.900	274.756	157.957	162.243	162.351	167.525	313.129	166.628	-8191	255	
8089.630	1	1	0	0	0.1651	0.13815	0.13774	0.24346	0.12561	0.19012	0.21152	0.21023	0.14642	0.23193	0.26455	0.16057	0.081502	0.12848	0.12898	0.11986	-1.6667	-2.7271	-1.9396	-2.4771	-2.6167	-2.1729	-2.8792	-2.4417	-1.8604	-2.8125	-2.3167	-2.3563	-2.7667	-2.0083	-2.4896	-2.5312	230.477	209.573	291.957	322.590	246.607	193.809	384.386	454.904	145.242	488.858	434.431	433.260	479.185	403.891	262.648	391.205	0.00070588	0.00039859	0.00010046	1370.5	5.3821e-06	1.5289e-06	1373	362.16	3.6552e-06	6.1854e-06	418.27	140.68	122.53	42.103	2.6418e-06	52.072	0.0003728	0.0003515	9.8827e-05	1366.5	3.8806e-06	3.8489e-06	1373.1	363.33	3.9414e-06	3.8579e-06	419.64	140.89	121.58	42.501	3.9148e-06	52.539	168.583	236.918	194.263	154.104	246.167	242.546	153.572	158.661	256.301	304.042	158.057	161.994	162.459	167.607	264.739	166.771	-8191	255	
8089.726	1	1	0	0	0.065377	0.40338	0.15018	0.016681	0.099436	0.17695	0.20812	0.071626	0.14877	0.1191	0.20488	0.19484	0.15451	0.19959	0.28058	0.17624	-1.5354	-2.9417	-2.2646	-2.2354	-2.8979	-2.0958	-2.6542	-2.6562	-2.0104	-2.575	-2.4708	-2.25	-2.7604	-2.0625	-2.3583	-2.8875	409.833	487.842	435.428	173.775	198.713	224.145	390.860	428.061	291.441	259.911	493.543	443.369	361.479	458.398	373.349	316.956	0.00063152	0.00030963	6.8414e-05	1381.9	1.851e-06	1.4547e-06	1373.1	362.14	8.0819e-06	9.0401e-07	419.86	140.89	122.52	42.078	3.7199e-06	52.241	0.00036819	0.00035802	9.8879e-05	1371	3.8918e-06	3.9052e-06	1375.3	363.09	3.9017e-06	3.9016e-06	419.81	141.1	121.46	42.444	3.8325e-06	52.587	163.495	247.383	269.480	154.175	282.232	215.113	153.621	158.479	264.014	186.036	157.856	161.939	162.588	167.463	284.635	166.601	-8191	255	
8089.822	1	1	0	0	0.2608	0.065526	0.19761	0.31023	0.18547	0.23971	0.25699	0.42656	0.31815	0.20312	0.10216	0.23488	0.13739	0.25778	0.066578	0.24891	-1.375	-2.7333	-2.2896	-2.0312	-2.8125	-2.0333	-2.4146	-2.6937	-2	-2.6417	-2.4417	-2.0896	-2.6083	-2.1583	-2.2979	-2.5458	250.499	213.297	294.193	209.186	148.929	449.143	413.416	466.936	377.905	461.493	402.692	485.787	255.231	417.615	457.837	455.158	0.00065717	0.00062672	0.00011868	1375.6	2.0423e-06	3.7487e-06	1372.8	363.68	2.6717e-06	3.6758e-06	420.91	141.53	123.17	42.274	3.6127e-06	52.147	0.00036174	0.00034024	9.4474e-05	1366.1	3.669e-06	3.623e-06	1373.1	364.25	3.6067e-06	3.5128e-06	420.75	141.56	121.96	42.578	3.5462e-06	52.575	161.129	268.333	211.648	154.082	246.344	250.947	153.763	158.407	241.424	274.887	157.964	161.933	162.182	167.292	278.425	166.552	-8191	255	
8089.943	1	1	0	0	0.1331	0.052252	0.22805	0.28219	0.10699	0.15499	0.21762	0.26136	0.060808	0.10482	0.22339	0.21922	0.25613	0.16299	0.21973	0.073636	-1.4146	-2.5667	-2.525	-2.2083	-2.7188	-2.1625	-2.3625	-2.7542	-1.8833	-2.525	-2.6667	-2.0062	-2.8896	-2.3396	-2.0417	-2.8104	426.804	263.700	195.327	157.805	411.551	142.488	394.778	399.410	299.712	250.821	468.497	392.439	155.179	197.654	414.854	369.811	0.00075088	0.00056748	0.00014738	1366.8	3.9544e-06	4.7677e-06	1371	362.76	4.9162e-06	5.2128e-06	421.81	141.08	122.09	42.142	7.4423e-06	52.068	0.0003397	0.00031951	8.8685e-05	1362.1	3.5277e-06	3.5076e-06	1369.4	363.4	3.5668e-06	3.5965e-06	419.76	141.02	121.23	42.388	3.6868e-06	52.475	169.449	241.485	213.255	153.965	279.775	289.990	153.635	158.543	250.324	287.027	157.851	161.994	162.237	167.364	241.583	166.431	-8191	255	
8090.014	1	1	0	0	0.11398	0.081262	0.015954	0.18525	0.31069	0.1211	0.2424	0.20761	0.19679	0.37947	0.24976	0.054049	0.038192	0.074524	0.15376	0.087528	-1.5083	-2.3958	-2.4667	-1.8917	-2.8042	-2.3729	-2.2708	-2.9708	-1.8896	-2.4125	-2.775	-1.8604	-2.7458	-2.2417	-1.9979	-2.8479	260.649	312.398	321.522	409.517	356.521	448.303	462.806	431.143	376.139	334.953	483.634	489.065	381.283	401.427	413.238	211.192	0.0006807	0.00020553	0.00017395	1367.2	6.9239e-06	2.4775e-06	1366.5	362.76	5.7432e-06	2.1289e-06	420.93	140.61	122.55	42.135	3.2581e-06	51.917	0.00035534	0.00033674	9.283e-05	1361.5	3.7621e-06	3.6854e-06	1366.1	362.98	3.7649e-06	3.7479e-06	419.5	140.77	121.37	42.418	3.8264e-06	52.469	169.421	271.141	205.944	153.861	264.109	258.617	153.736	158.447	269.892	247.003	157.949	161.810	162.247	167.515	244.661	166.531	-8191	255	
8090.135	1	1	0	0	0.035675	0.13629	0.15135	0.27684	0.21031	0.15875	0.24996	0.26938	0.32392	0.13969	0.22553	0.062121	0.17249	0.25935	0.21382	0.13027	-1.6729	-2.2854	-2.7271	-1.9792	-2.5812	-2.5792	-2.1792	-2.8958	-2.1396	-2.1979	-2.7104	-2.1292	-2.6292	-2.4854	-1.9896	-2.8708	296.677	369.849	363.547	389.767	438.993	300.796	457.996	160.927	415.807	232.704	413.490	430.627	433.553	479.129	439.455	488.614	0.00068911	0.00045747	0.00020852	1367.7	4.2954e-06	4.9632e-06	1364.6	361.26	4.3598e-06	2.2375e-06	419.72	140.34	122.04	41.967	1.2597e-06	51.884	0.00036339	0.00034711	9.7446e-05	1361.2	3.8532e-06	3.8225e-06	1368.2	362.38	3.8742e-06	3.8527e-06	419.73	140.77	121.4	42.341	3.9809e-06	52.395	171.793	241.252	224.437	154.123	283.926	315.115	153.622	158.421	303.585	333.601	157.971	161.802	162.539	167.475	253.066	166.410	-8191	255	
8090.231	1	1	0	0	0.25068	0.14991	0.09805	0.12414	0.27973	0.3063	0.28623	0.17764	0.1221	0.058099	0.2412	0.063392	0.13214	0.29557	0.29845	0.038952	-1.525	-2.1063	-2.7167	-2.1708	-2.5458	-2.5146	-2.1021	-2.7646	-2.1542	-2.1979	-2.9208	-2.0917	-2.5708	-2.6229	-1.8979	-2.8187	325.832	260.524	328.940	411.411	186.978	486.215	167.869	475.587	404.693	327.786	428.524	255.100	211.458	500.444	230.255	496.748	0.00071239	0.0007437	7.0748e-05	1369.2	3.3218e-06	6.4086e-06	1371	361.56	2.2789e-06	3.3252e-06	417.88	140.32	121.74	41.861	3.4578e-06	52.068	0.00038137	0.00036202	0.00010095	1364.9	3.9879e-06	4.0258e-06	1369.6	363.66	3.9446e-06	3.9528e-06	418.81	140.56	121.12	42.347	3.8934e-06	52.495	164.732	268.124	343.309	153.846	220.236	258.886	153.629	158.665	297.515	313.862	158.142	162.132	162.272	167.465	216.261	166.670	-8191	255	
8090.325	1	1	0	0	0.30718	0.031888	0.071	0.15747	0.11036	0.095292	0.50391	0.088255	0.085405	0.17267	0.059086	0.084763	0.13776	0.27399	0.20104	0.10321	-1.7854	-2.1312	-2.7687	-2.1542	-2.3458	-2.5417	-2.0958	-2.9479	-2.2375	-2.0875	-2.7938	-2.1667	-2.3625	-2.8604	-1.8583	-2.6083	310.338	371.688	365.969	182.247	304.162	245.979	473.166	473.946	234.376	331.088	457.795	336.884	242.093	447.604	458.808	223.031	0.00073715	0.0004306	0.00010574	1373.6	3.7696e-06	6.1551e-06	1367.9	362.29	6.7717e-06	3.5992e-06	419.95	140.34	122.42	42.066	4.3809e-06	52.125	0.00037561	0.0003546	9.7677e-05	1365.2	3.8018e-06	3.819e-06	1368.7	363.64	3.817e-06	3.8035e-06	419.56	140.71	121.17	42.397	3.8612e-06	52.523	161.575	284.918	197.079	154.184	234.902	232.372	153.662	158.529	259.280	224.166	158.131	162.020	162.605	167.616	284.852	166.803	-8191	255	
8090.423	1	1	0	0	0.12195	0.32424	0.29941	0.31911	0.34388	0.2326	0.064585	0.19995	0.13792	0.2916	0.35171	0.20348	0.47487	0.2843	0.091693	0.17075	-1.9521	-2.0771	-2.575	-2.1604	-2.2396	-2.7917	-2.3208	-2.9417	-2.6167	-2.1396	-2.8563	-2.3021	-2.1312	-3.0187	-1.9521	-2.7062	180.702	495.971	330.919	411.105	373.018	233.310	231.703	232.408	381.556	277.567	445.248	167.624	490.724	177.964	168.165	481.179	0.00073577	0.00048208	0.00016899	1378.5	5.0113e-06	4.5826e-06	1371.7	362.54	5.0632e-06	1.1284e-05	419.46	140.69	121.59	42.053	1.1772e-06	52.14	0.00037491	0.00034876	9.8489e-05	1364.1	3.9039e-06	3.8283e-06	1369.7	363.44	3.8992e-06	3.8994e-06	419.66	140.68	121.17	42.401	3.9119e-06	52.59	162.072	222.833	222.376	153.956	275.966	235.209	153.540	158.752	293.349	306.096	158.042	162.178	162.470	167.741	189.094	166.838	-8191	255	
8090.542	1	1	0	0	0.1435	0.050451	0.17033	0.18521	0.13997	0.18042	0.10434	0.13341	0.13774	0.20307	0.21495	0.27287	0.16654	0.1943	0.22071	0.05716	-2.0938	-1.9604	-2.7375	-2.4646	-2.1833	-2.8375	-2.2583	-2.5333	-2.6354	-2.0875	-2.7458	-2.2979	-2.2708	-2.9167	-2.075	-2.7083	239.446	213.493	218.780	398.205	381.014	329.732	366.562	158.415	439.719	271.337	498.103	438.747	496.715	419.912	430.397	396.056	0.00063904	0.00022769	0.00012288	1374.2	7.0805e-06	2.8706e-06	1366.5	362.02	4.7498e-06	4.0207e-06	421.52	140.8	122.45	41.894	3.5212e-06	52.02	0.00037045	0.00035158	9.8264e-05	1365.6	3.8207e-06	3.8248e-06	1370.7	363.14	3.8125e-06	3.8172e-06	420.15	140.82	121.3	42.355	3.8677e-06	52.503	165.581	245.396	246.881	154.029	272.054	332.596	153.577	158.697	276.469	286.368	158.018	161.942	162.769	167.746	272.089	166.762	-8191	255	
8090.638	1	1	0	0	0.13842	0.31813	0.10137	0.26113	0.15919	0.30347	0.038713	0.040055	0.18563	0.15892	0.022104	0.15621	0.034964	0.31224	0.19317	0.40979	-2.1521	-1.9104	-2.4896	-2.3625	-2.0792	-2.8	-2.3375	-2.4604	-2.8042	-1.8438	-2.7	-2.6063	-2.1063	-2.8896	-2.1958	-2.225	164.633	276.177	227.537	421.930	449.609	459.043	164.593	318.860	231.307	210.231	191.621	427.618	243.937	466.082	416.511	494.598	0.00067222	0.0003525	7.1748e-05	1361.9	4.5137e-06	6.0003e-06	1368.6	361.91	8.8609e-06	2.2791e-06	419.76	140.74	121.6	42.051	3.4991e-06	51.784	0.00037124	0.00035496	9.8172e-05	1362.4	3.9004e-06	3.8096e-06	1369.6	362.78	3.9076e-06	3.8683e-06	419.72	140.75	121.28	42.344	3.9479e-06	52.435	168.913	262.627	209.503	154.074	261.414	265.119	153.687	158.525	283.138	297.077	158.201	161.983	162.463	167.656	269.321	166.850	-8191	255	
8090.710	1	1	0	0	0.24733	0.31675	0.16473	0.28294	0.28162	0.13723	0.26828	0.41231	0.018917	0.16551	0.36695	0.18534	0.31578	0.069577	0.16625	0.15179	-2.4062	-1.7125	-2.6083	-2.6333	-1.8667	-2.9125	-2.4208	-2.4208	-2.8146	-2.2021	-2.6479	-2.8729	-2.0417	-2.9083	-2.35	-2.2729	377.496	359.306	494.397	416.705	411.102	470.365	463.660	166.383	309.706	244.396	165.410	472.896	175.454	497.982	482.242	405.884	0.00074682	0.00067186	9.3219e-05	1366.1	1.4428e-06	4.731e-06	1366.3	361.39	3.521e-06	5.1343e-06	417.61	139.98	122.17	42.059	1.7893e-06	51.735	0.00037882	0.00035819	0.00010095	1361.4	3.9547e-06	3.9504e-06	1368	362.94	3.9737e-06	4.0453e-06	419.07	140.33	121.42	42.351	4.0395e-06	52.349	168.628	250.325	215.773	153.681	209.192	306.977	153.910	158.630	222.191	274.848	158.218	162.028	162.486	167.784	281.280	166.840	-8191	255	
8090.831	1	1	0	0	0.14473	0.049863	0.28457	0.063371	0.23929	0.19373	0.19473	0.22856	0.034746	0.072738	0.18271	0.20624	0.14777	0.039867	0.14225	0.32515	-2.3333	-1.5104	-2.3438	-2.7083	-2.0292	-2.8708	-2.4542	-2.2083	-2.6979	-2.0708	-2.4417	-2.7521	-2.0042	-2.75	-2.4104	-2.2917	474.842	422.383	315.419	238.192	183.676	288.849	146.205	447.677	428.213	167.026	375.507	488.154	455.013	297.592	175.544	377.828	0.00065944	0.00029181	0.00018588	1372.7	3.1008e-06	2.6994e-06	1373.8	361.99	6.7415e-06	1.8514e-06	421.07	139.64	121.9	41.994	3.5881e-06	51.976	0.00038963	0.00037454	0.00010403	1365.4	4.1697e-06	4.1681e-06	1370.4	363.27	4.1475e-06	4.1324e-06	420.42	140.51	121.45	42.386	4.2546e-06	52.511	168.136	298.791	235.408	153.918	293.745	237.612	153.660	158.604	294.751	319.586	158.010	162.257	162.479	168.041	270.638	166.749	-8191	255	
8090.927	1	1	0	0	0.094631	0.2726	0.12423	0.41151	0.14288	0.12982	0.28245	0.14917	0.16154	0.18213	0.35637	0.24547	0.11774	0.05859	0.21525	0.10453	-2.5104	-1.9562	-2.4646	-2.9208	-1.9562	-2.8063	-2.8438	-2.1	-2.6917	-2.0479	-2.45	-2.8792	-2.0229	-2.7979	-2.4917	-2.1917	378.841	253.167	286.641	178.594	378.819	152.378	389.163	476.118	339.320	475.443	470.903	482.136	394.162	391.217	274.246	327.268	0.00072452	0.00037443	8.8883e-05	1376.5	1.7179e-06	1.7252e-06	1368.1	362.88	4.2462e-06	8.505e-06	420.43	140.7	122.55	41.985	3.9419e-06	51.921	0.0004044	0.00039003	0.00010744	1368.8	4.2519e-06	4.1697e-06	1371.3	363.86	4.1574e-06	4.1784e-06	420.15	140.91	121.59	42.432	4.1216e-06	52.583	165.181	267.164	298.712	153.970	297.209	268.980	153.755	158.592	245.629	319.423	158.139	161.839	161.693	166.990	268.595	166.163	-8191	255	
8091.023	1	1	0	0	0.26129	0.051727	0.065795	0.050602	0.19282	0.14225	0.21351	0.2182	0.18121	0.2703	0.096224	0.1886	0.39194	0.2611	0.22856	0.14809	-2.4479	-2.2375	-2.1146	-2.9771	-2.0687	-2.6437	-2.8625	-2.0438	-2.7604	-2.2646	-2.3396	-2.8417	-2.0812	-2.5833	-2.7771	-1.9188	176.146	487.543	253.777	199.381	271.898	482.983	143.073	423.900	229.671	445.671	254.599	368.599	168.586	468.278	360.231	195.330	0.00067937	0.00066126	0.00013239	1377.3	5.3917e-06	5.8649e-06	1367	361.38	3.7579e-06	6.5329e-06	420.41	139.61	121.94	42.08	6.0267e-06	52.142	0.00038894	0.00037942	0.00010509	1370.5	4.1165e-06	4.1484e-06	1371.1	363.37	4.1089e-06	4.1863e-06	420.37	140.61	121.15	42.323	4.1744e-06	52.474	169.158	240.762	257.543	153.424	295.128	290.410	153.185	158.000	253.710	325.685	157.692	161.671	161.985	167.167	282.596	166.474	-8191	255	
8091.119	1	1	0	0	0.27851	0.29251	0.29414	0.1798	0.12693	0.13925	0.10627	0.23118	0.11893	0.064804	0.25838	0.092253	0.21391	0.10742	0.26637	0.10002	-2.325	-2.3354	-2.1292	-2.7687	-2.1562	-2.4021	-2.7875	-2.1208	-2.5729	-2.4208	-2.1833	-2.85	-2.0938	-2.5812	-2.7271	-2.1271	330.126	396.709	327.749	451.690	187.403	406.304	485.714	461.271	418.723	242.693	460.495	436.880	472.355	302.909	149.526	433.412	0.00072373	0.00061943	0.0002202	1367.4	2.2622e-06	5.2477e-06	1368.5	362.16	5.9331e-06	7.201e-06	418.29	140.69	122.31	41.938	1.0774e-06	51.836	0.00039961	0.00038137	0.00010643	1364.3	4.1333e-06	4.2044e-06	1368.8	363.32	4.1389e-06	4.1657e-06	419.7	140.94	121.53	42.396	4.0877e-06	52.396	165.266	239.481	243.484	153.892	230.519	245.771	153.237	158.216	256.782	316.038	158.047	161.903	162.182	167.403	250.767	166.270	-8191	255	
8091.238	1	1	0	0	0.24909	0.28104	0.098396	0.20043	0.23922	0.067697	0.21267	0.22741	0.13458	0.13882	0.12694	0.14967	0.22072	0.31754	0.30372	0.07663	-2.2	-2.2333	-2.1292	-2.8187	-2.2125	-2.1708	-3.0792	-2.1479	-2.475	-2.6229	-2.0542	-2.8917	-2.2625	-2.4208	-2.8292	-2.0812	279.746	148.977	202.394	428.116	145.182	224.823	451.211	381.407	299.853	240.359	379.045	432.636	389.989	469.778	422.789	348.872	0.00064212	0.00072767	0.00019482	1374.9	3.8363e-06	3.3426e-06	1368.1	364.27	5.5321e-06	4.7901e-06	418.96	140.01	121.59	41.955	4.8527e-06	51.769	0.00039125	0.00037477	0.00010377	1365.9	4.0927e-06	4.1522e-06	1370.7	364.1	4.1402e-06	4.1208e-06	420.15	140.75	121.16	42.362	4.1518e-06	52.362	167.050	223.602	272.042	153.670	304.824	285.966	153.580	158.288	259.424	310.924	157.836	161.722	162.118	167.349	226.198	166.646	-8191	255	
8091.311	1	1	0	0	0.26853	0.19875	0.32481	0.1294	0.11662	0.079893	0.32259	0.048485	0.068524	0.077625	0.19368	0.059232	0.051464	0.10331	0.11939	0.24304	-1.9583	-2.7604	-2.0542	-2.9375	-2.3104	-1.9688	-2.9604	-2.1208	-2.3979	-2.6854	-2.1146	-2.6417	-2.4542	-2.1937	-2.7812	-2.2812	166.528	488.103	393.908	498.733	203.793	433.132	429.697	436.051	215.542	205.506	159.436	289.046	418.868	315.894	176.291	499.434	0.00071103	0.00055765	0.00016447	1372	5.4173e-06	8.0839e-06	1365.1	361.57	6.6782e-06	1.2841e-06	419.31	140.44	121.41	41.917	2.666e-06	51.95	0.00039485	0.00037995	0.00010599	1366.7	4.1638e-06	4.2091e-06	1370.2	363.67	4.1975e-06	4.1647e-06	420.68	140.83	121.39	42.32	4.1166e-06	52.379	166.156	234.807	245.288	153.984	321.103	288.615	153.687	158.140	245.360	377.752	158.109	161.616	162.643	167.264	195.583	166.249	-8191	255	
8091.406	1	1	0	0	0.042902	0.22876	0.062757	0.14472	0.16382	0.21769	0.19194	0.23922	0.19489	0.16739	0.17981	0.20552	0.13872	0.49706	0.19171	0.35181	-1.8833	-2.3854	-1.9021	-2.6896	-2.3604	-2.0167	-3.0625	-2.3229	-2.275	-2.675	-2.1208	-2.6813	-2.5354	-2.0333	-2.7375	-2.2917	230.641	447.777	278.070	432.698	458.657	483.965	337.506	496.422	164.962	149.195	383.777	190.543	499.732	482.914	493.062	481.582	0.00069501	0.00041875	0.00017875	1373.2	4.0883e-06	5.5335e-06	1367.6	363.44	3.8037e-06	4.9265e-06	419.07	141.04	121.89	42.125	5.4541e-06	51.945	0.00039394	0.00038288	0.00010655	1369.7	4.1604e-06	4.1674e-06	1370.4	363.42	4.1344e-06	4.1089e-06	420.37	141.05	121.51	42.45	4.1713e-06	52.45	167.497	172.743	207.138	154.073	296.545	301.840	153.644	158.280	274.621	277.520	157.904	161.889	162.106	167.595	252.129	166.641	-8191	255	
8091.504	1	1	0	0	0.10936	0.085491	0.25056	0.0596	0.1662	0.20422	0.12692	0.2765	0.1761	0.078094	0.16217	0.041053	0.39433	0.12622	0.052744	0.28696	-1.8062	-2.6729	-1.925	-2.5521	-2.5438	-2.0417	-2.9188	-2.4333	-2.1167	-2.6771	-2.2104	-2.5729	-2.5438	-2.1042	-2.7979	-2.3146	280.878	367.209	280.528	162.099	338.620	402.711	152.380	406.953	297.489	175.505	283.111	302.721	486.205	464.808	419.313	434.419	0.00069723	0.00064161	0.00016385	1375.3	1.4467e-06	4.0875e-06	1362	362.24	3.2079e-06	4.1538e-06	417.61	140.61	121.44	41.974	3.1272e-06	51.9	0.0004	0.00038045	0.00010576	1367.5	4.2074e-06	4.2295e-06	1369	363.75	4.1723e-06	4.162e-06	419.92	140.85	121.33	42.358	4.2062e-06	52.445	169.936	223.268	224.472	154.029	211.998	250.029	153.450	158.332	286.135	279.580	157.850	161.897	162.471	167.450	312.913	166.464	-8191	255	
8091.623	1	1	0	0	0.10082	0.27367	0.05403	0.22811	0.17077	0.3287	0.34676	0.26664	0.096929	0.21744	0.011445	0.24255	0.013353	0.35977	0.18608	0.2191	-1.8042	-2.725	-2.0271	-2.3312	-2.6937	-2.1646	-3.0417	-2.5375	-2.1542	-2.9542	-2.4208	-2.3875	-2.6875	-1.9688	-2.5917	-2.4417	479.036	388.204	366.726	478.044	220.651	339.735	470.936	456.265	404.078	447.748	481.074	449.560	383.225	416.910	211.452	154.577	0.00072751	0.00065074	0.00014186	1370.8	1.5415e-06	4.2154e-06	1362.3	361.34	4.6793e-06	5.0952e-06	418.44	140.65	121.31	42.058	5.5463e-06	51.685	0.00039765	0.00037963	0.00010513	1365.4	4.1548e-06	4.1031e-06	1370.4	363.37	4.1318e-06	4.079e-06	420.19	140.87	121.45	42.401	4.1572e-06	52.359	171.408	268.462	179.401	153.803	287.408	218.474	153.750	158.572	312.818	306.982	158.082	161.858	162.427	167.323	253.659	166.394	-8191	255	
8091.719	1	1	0	0	0.40815	0.16394	0.19604	0.28932	0.12475	0.13248	0.1841	0.040401	0.13872	0.071544	0.27386	0.1483	0.077432	0.095901	0.082814	0.21921	-1.3729	-2.8875	-2.0625	-2.3917	-2.8229	-2.1104	-2.6896	-2.5542	-2.0271	-2.7979	-2.3479	-2.2458	-2.8312	-2.1979	-2.4604	-2.6521	217.743	152.238	423.671	352.636	170.383	293.664	417.449	447.321	349.312	472.383	490.286	207.155	172.383	160.365	233.516	446.386	0.00066096	0.00063816	0.00015399	1371	6.1462e-06	3.1761e-06	1368.5	362.35	4.7836e-06	2.5484e-06	419.97	140.41	121.85	41.988	5.8948e-06	51.858	0.00039366	0.00037725	0.00010467	1367.5	4.1485e-06	4.1361e-06	1372.4	363.18	4.1899e-06	4.1735e-06	420.28	140.98	121.49	42.33	4.2428e-06	52.413	160.568	232.595	247.085	153.683	262.744	283.226	153.668	158.300	281.604	215.518	157.598	161.896	162.148	167.519	259.181	166.317	-8191	255	
8091.815	1	1	0	0	0.087927	0.20979	0.16143	0.13199	0.1691	0.18278	0.16512	0.29701	0.20161	0.09	0.050497	0.13375	0.28507	0.14084	0.10615	0.17558	-1.7229	-2.7958	-2.1958	-2.2354	-2.6583	-2.1104	-2.6479	-2.6958	-2.0292	-2.575	-2.425	-2.2042	-2.8396	-2.2854	-2.3438	-2.8458	406.809	492.677	342.833	385.333	238.783	458.681	203.045	408.722	307.693	198.213	366.375	390.495	184.981	489.482	318.882	409.896	0.00071865	0.00076169	8.1475e-05	1369.5	2.5478e-06	3.3322e-06	1372.3	362.16	6.1004e-06	6.7833e-06	417.44	140.06	121.79	41.922	5.7403e-06	51.876	0.00039985	0.00038424	0.00010884	1368.4	4.2466e-06	4.2193e-06	1374.1	363.91	4.1968e-06	4.1546e-06	419.43	140.84	121.48	42.392	4.2168e-06	52.473	167.785	177.113	434.301	153.769	278.343	302.436	153.438	158.174	243.864	233.047	157.795	161.847	162.135	167.271	279.648	166.353	-8191	255	
8091.936	1	1	0	0	0.084566	0.099348	0.35098	0.22181	0.11456	0.22837	0.1976	0.092707	0.20464	0.20088	0.11334	0.27803	0.27163	0.14883	0.1482	0.2378	-1.7167	-2.6479	-2.2812	-1.9833	-2.9083	-2.0875	-2.4562	-2.9792	-1.8229	-2.6083	-2.3958	-2.025	-2.675	-1.9979	-2.4417	-3.0208	246.607	438.968	494.370	475.863	410.015	476.614	397.935	214.361	469.786	321.606	478.597	416.739	381.326	185.525	392.819	447.428	0.00065093	0.00055895	8.2e-05	1376.7	1.5272e-06	2.1061e-06	1369	362.15	6.9141e-06	4.8898e-06	418.43	140.28	122.33	41.884	1.3667e-06	52.053	0.00040409	0.00038611	0.0001066	1373.1	4.1749e-06	4.1662e-06	1372.7	363.49	4.1537e-06	4.1771e-06	419.84	141.01	121.61	42.342	4.2104e-06	52.519	158.234	261.079	300.801	153.531	238.953	297.626	153.338	158.296	270.648	187.291	157.838	161.963	162.129	167.349	321.838	166.204	-8191	255	
8092.007	1	1	0	0	0.33677	0.083123	0.15279	0.31084	0.14901	0.15257	0.32455	0.23383	0.28394	0.080463	0.20406	0.19525	0.033855	0.20249	0.3631	0.15831	-1.5083	-2.5292	-2.4688	-2.1188	-2.7438	-2.2417	-2.3792	-3.0333	-2.0729	-2.4542	-2.5854	-1.8229	-2.7104	-2.2562	-2.1208	-2.7667	313.160	199.782	451.766	490.595	351.127	332.046	387.893	425.793	302.092	483.312	162.880	181.179	188.890	449.323	203.345	377.568	0.00068346	0.00082994	8.3373e-05	1378.9	3.2726e-06	1.5278e-06	1364.6	362.77	5.602e-06	4.8408e-06	418.49	139.9	122.42	41.915	5.4388e-06	51.835	0.00039733	0.00037922	0.00010422	1368.9	4.1557e-06	4.0912e-06	1370.9	363.37	4.0569e-06	4.1152e-06	419.63	140.75	121.52	42.408	4.1205e-06	52.406	167.712	226.319	179.739	153.598	234.928	216.131	153.407	158.340	291.320	251.892	157.652	161.726	162.159	167.014	282.525	166.352	-8191	255	
8092.103	1	1	0	0	0.24551	0.16797	0.017673	0.073732	0.16174	0.18089	0.23978	0.31554	0.30675	0.16867	0.10457	0.21125	0.21931	0.11918	0.27093	0.1731	-1.4604	-2.325	-2.6292	-2.0479	-2.7125	-2.15	-2.2313	-2.7938	-1.8813	-2.4625	-2.6167	-2.0167	-2.5104	-2.4208	-1.8104	-2.9562	307.455	234.266	148.236	265.979	283.624	249.341	401.949	416.677	332.404	384.000	297.394	149.478	448.739	460.597	350.079	294.014	0.00071189	0.00053679	0.00010098	1367.7	5.2364e-06	5.4302e-06	1367.1	361.71	4.8991e-06	7.5039e-06	416.74	139.72	122.17	41.936	6.1186e-06	51.838	0.00039136	0.00037686	0.00010407	1364.2	4.0741e-06	4.071e-06	1367.4	363.37	4.1064e-06	4.0695e-06	418.66	140.27	121.23	42.28	4.0347e-06	52.433	169.282	221.228	189.279	153.553	298.939	272.683	153.551	158.241	237.936	289.294	157.808	161.928	162.647	167.258	274.669	166.659	-8191	255	
8092.224	1	1	0	0	0.15026	0.12249	0.038785	0.3496	0.17552	0.05659	0.20007	0.14391	0.12487	0.21288	0.076527	0.28093	0.034171	0.21168	0.25178	0.24396	-1.8229	-2.2396	-2.7208	-2.3063	-2.6521	-2.5958	-2.3083	-2.7958	-2.2021	-2.0208	-2.9771	-2.0438	-2.4625	-2.6063	-1.9104	-2.8625	383.498	325.575	305.314	474.432	194.964	147.944	479.384	427.110	418.864	379.319	170.764	442.060	229.379	406.757	301.395	402.664	0.0007328	0.00059047	1.2257e-05	1374.1	2.32e-06	2.7121e-06	1363.6	362.99	1.9332e-06	6.6668e-06	418.58	140	121.76	41.971	3.5106e-06	52.063	0.00037981	0.00036769	0.00010187	1364.6	3.9921e-06	4.0015e-06	1367.6	363.22	3.9627e-06	3.9084e-06	420.03	140.49	121.4	42.33	3.9651e-06	52.389	166.550	163.001	415.149	154.027	296.177	273.012	153.493	158.209	301.399	324.901	158.043	161.919	162.525	167.353	255.468	166.292	-8191	255	
8092.318	1	1	0	0	0.27434	0.10617	0.2424	0.40579	0.19931	0.18311	0.31382	0.19651	0.058114	0.13797	0.21187	0.27405	0.070716	0.17481	0.046467	0.36214	-1.8792	-2.0854	-2.6813	-2.0771	-2.6375	-2.5729	-2.0125	-2.7687	-2.1667	-1.9917	-3.0479	-2.0667	-2.55	-2.7313	-1.7687	-2.7729	225.895	446.911	237.953	387.167	310.036	265.818	467.905	445.604	256.701	205.691	390.543	479.012	478.213	417.326	355.896	452.118	0.00067913	0.00038896	8.9788e-05	1369.2	5.3055e-06	4.2757e-06	1368.7	362.24	4.6382e-06	4.0936e-06	421	140.5	121.97	42.154	4.6291e-06	51.932	0.00037403	0.00036259	0.0001002	1362.6	3.9718e-06	3.9252e-06	1367.6	363.46	3.956e-06	3.9738e-06	419.7	140.71	121.25	42.34	3.9903e-06	52.382	170.136	230.960	196.394	153.678	259.749	287.064	153.446	158.550	314.799	351.589	158.155	162.265	162.411	167.398	294.502	166.735	-8191	255	
8092.415	1	1	0	0	0.2155	0.16484	0.041771	0.17955	0.22659	0.20843	0.17935	0.16764	0.13103	0.19361	0.065421	0.35081	0.35311	0.29456	0.2427	0.081759	-2.0542	-2.0479	-2.7729	-2.0896	-2.2979	-2.6625	-2.1813	-2.8438	-2.6479	-1.9521	-2.9375	-2.1708	-2.2021	-2.6208	-2.0354	-2.7854	400.729	239.447	417.372	475.688	332.046	451.944	362.956	143.030	160.119	238.464	429.915	499.811	409.579	463.575	240.731	143.639	0.00069587	0.00067318	4.5307e-05	1370.5	3.7061e-06	3.71e-06	1366.2	361.07	5.665e-06	7.0259e-07	418.64	140.51	122.19	41.988	3.8815e-06	51.92	0.0003788	0.00036146	9.9942e-05	1363.5	3.9652e-06	3.959e-06	1369.1	363.41	3.9282e-06	3.9478e-06	419.09	140.48	121.44	42.296	3.9712e-06	52.43	166.715	221.876	249.563	153.746	233.591	286.131	153.467	158.537	254.381	405.149	158.009	161.872	162.381	167.402	296.483	166.520	-8191	255	
8092.511	1	1	0	0	0.17522	0.13428	0.32545	0.26247	0.056443	0.21539	0.35354	0.33489	0.26205	0.27663	0.081994	0.20293	0.055264	0.15969	0.17582	0.25407	-1.9521	-1.9292	-2.6208	-2.1562	-2.2604	-2.8396	-2.2979	-2.6167	-2.5667	-1.9917	-2.9771	-2.4021	-2.1937	-2.9062	-2.25	-2.6021	423.301	329.814	414.542	375.993	302.625	419.838	425.010	455.513	205.826	377.200	392.085	309.126	167.526	374.714	455.566	376.408	0.00064644	0.00035646	0.00018169	1364.7	3.7568e-06	4.1945e-06	1359.7	361.77	3.6037e-06	1.0668e-05	418.54	139.92	121.39	42.06	1.0099e-06	51.898	0.00037911	0.00036329	0.00010135	1362	3.9389e-06	3.94e-06	1365.4	363.34	4.0008e-06	3.9688e-06	419.81	140.42	121.19	42.384	3.9236e-06	52.315	167.113	226.984	219.686	153.665	281.813	308.293	153.402	158.419	278.902	252.510	158.020	161.771	162.231	167.393	223.294	166.827	-8191	255	
8092.607	1	1	0	0	0.070267	0.34605	0.14565	0.097492	0.19041	0.15326	0.34519	0.056458	0.21439	0.21027	0.40623	0.38646	0.15774	0.17504	0.17582	0.25765	-2.2562	-1.8771	-2.7229	-2.4521	-2.0563	-2.8167	-2.4729	-2.5792	-2.5542	-1.8354	-2.8833	-2.5583	-2.1792	-2.85	-2.0667	-2.2687	319.930	456.700	223.402	498.357	365.944	455.509	443.248	254.091	327.259	202.789	397.197	481.278	413.845	144.319	223.918	446.707	0.00063991	0.0005204	5.6376e-05	1370.4	6.7432e-06	4.9737e-06	1365.9	362	5.0533e-06	3.7418e-06	420.13	140.75	121.81	41.862	2.4088e-06	52.118	0.00037836	0.00035899	0.00010022	1361.8	3.9901e-06	3.9141e-06	1368	363.53	3.9676e-06	3.9587e-06	420.47	140.8	121.15	42.354	3.9705e-06	52.503	165.323	209.457	488.324	153.537	232.588	277.874	153.612	158.313	252.324	277.272	158.006	161.784	162.232	167.413	232.844	166.593	-8191	255	
8092.703	1	1	0	0	0.098374	0.15312	0.20476	0.23855	0.20742	0.062954	0.194	0.20873	0.19834	0.11493	0.18523	0.21198	0.1788	0.091478	0.2045	0.10909	-2.2354	-1.8	-2.7458	-2.4542	-2.0646	-2.6646	-2.3063	-2.5812	-2.725	-1.8833	-2.7021	-2.5396	-2.0125	-2.75	-2.1604	-2.4104	308.375	182.269	292.976	451.913	373.778	498.598	413.882	179.297	452.637	217.883	241.386	382.913	479.938	264.506	174.387	491.359	0.00076189	0.00057962	0.00011958	1367.4	3.8845e-06	4.7415e-06	1370.8	361.84	4.9861e-06	3.1284e-06	420.38	140.69	122.67	42.208	2.7575e-06	52.073	0.00038324	0.00036181	0.0001017	1363.5	4.007e-06	3.9128e-06	1370.5	363.25	4.0211e-06	3.9991e-06	419.88	140.9	121.66	42.456	3.9251e-06	52.463	167.320	180.934	260.253	153.634	268.682	301.875	153.596	158.430	303.351	225.826	157.844	162.037	162.293	167.621	258.479	166.794	-8191	255	
8092.799	1	1	0	0	0.2248	0.33382	0.30495	0.035855	0.12317	0.15081	0.33332	0.099626	0.10175	0.15537	0.047625	0.19055	0.18587	0.25063	0.19033	0.2573	-2.3438	-1.8542	-2.3771	-2.5917	-1.8229	-2.8354	-2.5687	-2.1604	-2.7771	-1.8625	-2.4583	-2.7833	-2.1583	-2.6167	-2.3271	-2.2729	148.334	219.447	367.733	473.559	327.865	258.087	462.874	363.180	373.453	379.206	471.084	416.188	243.721	490.302	146.007	482.354	0.00070649	0.00077974	0.00018059	1375.9	1.5388e-06	4.9319e-06	1367	362.35	5.6427e-06	5.3419e-06	421.33	140.93	121.52	41.925	3.8421e-06	52.064	0.0003796	0.00036161	0.0001011	1365.9	3.9626e-06	3.9301e-06	1367.9	363.82	3.8838e-06	3.9462e-06	421.37	141.04	121.4	42.396	3.9419e-06	52.521	168.722	202.822	234.206	153.805	285.765	240.603	153.600	158.357	260.659	299.653	158.061	161.754	162.424	167.387	221.275	166.092	-8191	255	
8092.895	1	1	0	0	0.092735	0.30961	0.14088	0.41557	0.32726	0.19683	0.36851	0.13967	0.14199	0.22461	0.29496	0.060327	0.19466	0.19955	0.19286	0.24777	-2.4521	-1.9417	-2.4167	-2.7458	-2.0062	-2.6979	-2.6813	-2.2292	-2.6771	-2.0375	-2.4271	-2.8375	-1.8125	-2.4167	-2.4458	-2.2125	167.590	153.565	442.527	494.541	181.132	154.101	458.529	462.499	301.102	276.063	455.928	468.204	446.872	150.616	144.942	466.965	0.00068304	0.00060406	0.00011256	1373.9	5.8873e-06	4.2488e-06	1366.9	363.17	4.8169e-06	2.462e-06	419.57	139.56	121.92	42.287	2.2441e-06	52.227	0.00038178	0.00035623	0.00010008	1368.2	4.0024e-06	3.9361e-06	1370.4	364.34	3.9883e-06	3.9669e-06	419.78	140.85	121.54	42.495	3.9988e-06	52.514	168.262	229.725	275.559	153.678	278.667	245.461	153.177	158.376	282.863	241.469	157.681	161.549	162.505	167.319	314.652	166.009	-8191	255	
8093.016	1	1	0	0	0.20027	0.14637	0.1372	0.22767	0.23951	0.29358	0.3579	0.38528	0.097834	0.2575	0.17579	0.16108	0.12053	0.2175	0.14592	0.12672	-2.4729	-2.1708	-2.0333	-2.8729	-1.9792	-2.4688	-2.5687	-2.25	-2.8667	-2.3688	-2.1771	-2.8563	-2.0438	-2.5854	-2.4792	-2.0646	498.749	249.394	368.283	455.606	473.231	315.444	436.484	440.323	379.034	478.381	171.466	149.811	484.358	183.360	194.995	197.879	0.00072229	0.00050481	7.1854e-05	1371.8	5.7289e-06	5.7314e-06	1365.6	361.38	4.4424e-06	4.1893e-06	419.36	140.51	122.9	42.191	3.702e-06	51.978	0.00038149	0.0003676	0.00010192	1366.9	4.007e-06	4.0068e-06	1370.8	364.1	3.97e-06	3.9709e-06	420.57	140.89	121.64	42.484	4.0155e-06	52.493	163.187	200.081	220.590	153.632	212.129	251.601	153.238	158.410	299.304	247.199	157.765	161.545	162.282	167.298	245.410	166.497	-8191	255	
8093.112	1	1	0	0	0.027984	0.12527	0.094797	0.095012	0.30762	0.28736	0.15467	0.28254	0.15371	0.08081	0.11572	0.33535	0.28599	0.041719	0.21321	0.067031	-2.1979	-2.2313	-2.1063	-2.8042	-1.8896	-2.4583	-2.7687	-2.1292	-2.6917	-2.2896	-2.2333	-2.7875	-2.1417	-2.5292	-2.7438	-2.0521	193.315	473.012	303.353	428.765	182.725	453.031	441.455	454.591	248.325	201.885	404.119	445.585	496.001	175.605	360.298	141.649	0.00066945	0.0004409	0.00016765	1374.8	4.6596e-06	5.8083e-06	1371.7	363.91	6.6771e-06	5.9869e-06	420.61	140.74	122.52	42.076	5.6688e-06	51.945	0.00038018	0.00036069	0.00010131	1369.6	3.9727e-06	3.9719e-06	1370.4	364.32	3.9886e-06	3.9563e-06	421.23	140.99	121.63	42.465	4.0028e-06	52.37	170.472	219.438	269.941	153.792	276.392	282.955	153.133	158.360	258.731	261.127	157.938	161.863	162.237	167.678	272.590	166.228	-8191	255	
8093.184	1	1	0	0	0.22409	0.10737	0.015388	0.26475	0.098905	0.31519	0.32233	0.1461	0.21943	0.31363	0.11674	0.21427	0.21253	0.11389	0.34601	0.45303	-2.3104	-2.3854	-2.0771	-2.9208	-2.1167	-2.2521	-2.775	-1.925	-2.7375	-2.3792	-2.1729	-2.8458	-2.2396	-2.3187	-2.9354	-2.0312	377.932	281.408	469.823	243.376	423.768	329.756	443.396	174.688	152.861	218.556	247.750	393.345	468.767	168.201	371.781	485.702	0.00068718	0.00018234	0.00020634	1376.7	1.3491e-06	2.5656e-06	1370.5	361.61	3.954e-06	8.3393e-06	418.44	140.63	121.68	42.083	3.3064e-06	52.252	0.00037921	0.00036185	0.00010132	1366.9	3.9542e-06	3.9993e-06	1372.4	363.36	3.9321e-06	3.939e-06	420.56	141.12	121.41	42.46	3.9752e-06	52.55	166.079	241.201	251.253	153.873	282.083	260.933	153.409	158.183	290.389	243.812	157.813	161.886	162.101	167.514	322.124	166.342	-8191	255	
8093.304	1	1	0	0	0.11921	0.14379	0.34164	0.25246	0.40445	0.12997	0.36359	0.2633	0.095042	0.36036	0.14023	0.47763	0.1517	0.086082	0.03603	0.22879	-2.0812	-2.4479	-1.9021	-2.8	-2.3312	-2.0104	-2.9146	-1.975	-2.5396	-2.5708	-2.1771	-2.8958	-2.3479	-2.0667	-2.7896	-2.2083	371.790	381.540	269.229	480.624	338.683	204.622	431.655	431.346	147.507	477.458	149.369	440.662	214.550	146.047	249.734	401.640	0.00070216	0.00068402	0.00011834	1377.5	4.7291e-06	6.4156e-06	1370.2	363.08	6.5003e-06	3.3336e-06	420.32	140.23	122.71	42.075	1.9482e-06	52.093	0.00038126	0.00036326	9.9836e-05	1367.5	3.9568e-06	3.9573e-06	1372.5	364.18	3.9326e-06	3.9783e-06	420.59	140.95	121.55	42.512	3.9848e-06	52.475	162.851	250.266	200.445	153.895	274.423	265.885	153.414	158.426	290.584	298.576	158.053	161.845	162.100	167.237	235.403	166.431	-8191	255	
8093.399	1	1	0	0	0.1734	0.15275	0.15709	0.24158	0.12136	0.16711	0.28525	0.19273	0.53314	0.23171	0.10769	0.15187	0.27652	0.15615	0.22715	0.10003	-2.0021	-2.575	-1.8062	-2.7812	-2.3583	-2	-2.8563	-2.2	-2.4146	-2.5563	-1.9958	-2.7354	-2.3812	-2.0292	-2.7958	-2.1292	189.121	408.834	267.640	390.084	378.036	167.437	409.064	436.868	215.596	404.716	353.135	475.343	428.915	205.062	290.545	405.102	0.00065504	0.00063078	6.362e-05	1378.2	3.804e-06	4.0765e-06	1374.3	361.23	5.1416e-06	7.2643e-06	421.2	141.12	121.35	42.263	2.2517e-06	52.09	0.00037868	0.00035876	0.00010041	1368.5	3.9582e-06	3.9495e-06	1372.9	364.15	3.9293e-06	3.9533e-06	420.67	141	121.27	42.487	3.9633e-06	52.545	168.389	256.763	311.655	153.969	230.412	258.132	153.419	158.328	248.960	324.726	158.137	161.977	162.424	167.652	227.469	166.449	-8191	255	
8093.497	1	1	0	0	0.18286	0.13698	0.084099	0.24919	0.14182	0.25237	0.20428	0.29488	0.20825	0.24429	0.17465	0.30037	0.11777	0.073555	0.35869	0.22897	-1.9104	-2.7667	-1.8896	-2.5583	-2.3167	-2.0896	-2.9521	-2.4021	-2.1479	-2.8083	-2.2542	-2.6167	-2.7333	-2.0938	-2.7479	-2.3667	226.662	354.420	500.159	475.800	413.766	332.163	409.483	482.456	256.828	351.473	369.362	140.909	392.905	189.667	330.333	447.485	0.00067866	0.00050018	0.0001503	1375.4	6.8863e-06	5.1269e-07	1371.2	363.43	6.7488e-06	1.9756e-06	419.22	140.82	122.57	42.143	6.1166e-06	51.902	0.00038178	0.00036169	0.00010098	1366.5	3.9533e-06	3.9415e-06	1370.7	364.16	3.9384e-06	3.8897e-06	420.19	141.07	121.46	42.476	3.942e-06	52.525	162.422	224.838	193.346	154.055	242.961	302.349	153.764	158.428	242.971	296.210	158.130	161.807	161.933	167.562	268.569	166.615	-8191	255	
8093.616	1	1	0	0	0.13088	0.11305	0.21798	0.12066	0.12955	0.17194	0.22475	0.12328	0.096797	0.24273	0.068927	0.25555	0.18179	0.04647	0.3645	0.28844	-1.8979	-2.7667	-1.8646	-2.55	-2.65	-2.0438	-2.8146	-2.5062	-2.1	-2.8792	-2.2146	-2.5687	-2.5875	-1.9479	-2.6521	-2.3063	297.715	454.798	227.231	459.511	263.879	482.465	399.908	449.229	410.783	445.350	264.498	437.625	148.872	196.810	314.242	372.645	0.00072627	0.00025015	0.00015854	1376	4.8819e-06	5.1831e-06	1375.9	362.35	7.3996e-06	2.1707e-07	421.46	140.96	122.11	42.16	5.7874e-07	52.217	0.0003755	0.00035397	0.00010006	1368.8	3.9244e-06	3.9509e-06	1373.3	363.79	3.8969e-06	3.8951e-06	420.79	141.4	121.75	42.484	3.9058e-06	52.44	165.107	167.984	247.137	154.036	239.088	297.176	153.711	158.228	294.836	432.434	158.114	161.791	162.185	167.622	250.353	166.545	-8191	255	
8093.712	1	1	0	0	0.099434	0.043787	0.1514	0.24431	0.10047	0.10889	0.09749	0.32181	0.098635	0.17618	0.27999	0.019409	0.14176	0.060387	0.23377	0.1197	-1.4792	-2.6146	-1.9417	-2.5479	-2.6688	-2.0396	-2.7667	-2.5479	-2.1625	-2.6979	-2.2562	-2.4104	-2.6458	-2.0167	-2.6583	-2.3958	358.307	228.439	176.873	392.508	333.485	207.871	183.060	393.812	285.363	411.870	493.575	368.606	406.193	374.768	261.555	240.395	0.00070493	0.00030659	5.7544e-05	1380.2	3.2006e-06	4.9845e-06	1370.5	362.62	4.5241e-06	2.772e-06	419.4	140.91	122.57	42.211	7.4378e-06	51.959	0.00037744	0.00035524	0.00010124	1367.5	3.9217e-06	3.9327e-06	1374.4	364.28	3.9827e-06	3.8597e-06	420.49	141.05	121.92	42.491	3.9136e-06	52.47	165.688	274.365	209.690	154.028	248.515	232.107	153.965	158.464	268.895	318.021	157.926	162.294	162.219	167.666	261.817	166.736	-8191	255	
8093.808	1	1	0	0	0.25666	0.057119	0.050073	0.089006	0.14212	0.28026	0.047957	0.15489	0.25471	0.34722	0.13766	0.17498	0.073683	0.098038	0.14187	0.045009	-1.6771	-2.6479	-2.2	-2.1917	-2.6958	-1.8104	-2.8625	-2.6229	-2.0792	-2.7812	-2.4333	-2.1833	-2.7313	-2.1417	-2.5687	-2.7833	298.747	358.806	450.906	491.026	223.929	208.696	219.827	282.227	453.467	193.125	374.185	450.342	447.568	289.371	220.804	460.333	0.00069787	0.00052343	0.00017235	1378.4	9.2564e-07	8.7587e-06	1367.9	363.44	6.3045e-06	5.5522e-06	419.87	141.16	121.79	42.128	6.0094e-06	52.215	0.00037646	0.0003567	9.8776e-05	1369.1	3.9003e-06	3.9134e-06	1373.1	364.43	3.9051e-06	3.8658e-06	420.03	141.38	121.48	42.481	3.9252e-06	52.549	164.348	202.721	228.092	153.889	235.205	273.523	153.624	158.555	269.819	333.971	157.834	161.784	162.129	167.755	280.681	166.841	-8191	255	
8093.904	1	1	0	0	0.3264	0.10398	0.057626	0.22819	0.061406	0.24184	0.21891	0.42124	0.19704	0.19011	0.12107	0.12636	0.081583	0.016536	0.25522	0.17663	-1.5229	-2.6813	-2.1792	-2.2729	-2.6063	-2.1292	-2.5667	-2.6688	-1.9646	-2.6583	-2.4458	-2.2625	-2.9104	-2.2708	-2.325	-2.7812	162.740	366.782	255.097	460.771	404.638	411.747	456.985	403.613	189.288	456.425	160.190	145.932	486.868	324.219	444.148	340.457	0.00073283	0.00041783	0.00010152	1373.4	2.95e-06	2.6404e-06	1374.6	363.05	3.0999e-06	3.7088e-06	420.39	140.96	121.78	42.204	4.2417e-06	52.05	0.00037351	0.00035358	9.87e-05	1367.3	3.9366e-06	3.9185e-06	1373.5	364.45	3.9539e-06	3.9165e-06	420.81	141.13	121.31	42.494	3.9014e-06	52.463	168.286	194.930	285.900	154.061	257.994	234.297	153.689	158.666	216.295	260.504	158.060	162.224	162.256	167.353	261.461	166.752	-8191	255	
8094.000	1	1	0	0	0.17582	0.017209	0.31008	0.13911	0.16035	0.25358	0.18853	0.4196	0.067813	0.1047	0.063853	0.15771	0.1893	0.11256	0.1815	0.16944	-1.4042	-2.3708	-2.4042	-2.2667	-2.5771	-2.1	-2.4	-2.8688	-1.9833	-2.4875	-2.6083	-2.0875	-2.7458	-2.1833	-2.2188	-2.9958	173.695	265.180	308.929	227.106	446.159	327.304	388.627	429.448	245.897	429.905	414.368	375.636	227.448	337.787	351.591	480.267	0.00068492	0.00022511	7.624e-05	1374.6	5.2714e-06	3.1824e-06	1369.4	363.41	3.4232e-06	6.2239e-07	419.96	140.39	122.57	42.201	3.821e-06	52.14	0.00037571	0.00035602	9.9169e-05	1366.8	3.9653e-06	3.8854e-06	1372.9	364.27	3.92e-06	3.9374e-06	420.71	141.2	121.8	42.468	3.9594e-06	52.59	165.842	225.296	229.277	154.240	243.592	239.729	153.710	158.515	266.761	304.558	158.103	162.043	162.229	167.469	279.900	166.772	-8191	255	
8094.096	1	1	0	0	0.10359	0.12989	0.31849	0.052307	0.20287	0.11841	0.16905	0.32016	0.15158	0.10609	0.11121	0.25894	0.03831	0.27173	0.1445	0.045707	-1.5771	-2.4771	-2.55	-2.2396	-2.725	-2.3438	-2.3812	-2.8333	-2.0563	-2.4854	-2.65	-2.0187	-2.6583	-2.2208	-2.0292	-2.9854	400.431	146.354	482.026	403.314	208.051	387.811	462.487	461.335	151.062	302.676	304.964	376.816	154.081	490.038	477.315	269.785	0.00072374	0.00033036	0.00014527	1376.4	2.6907e-06	1.7824e-06	1368.1	363.22	4.6064e-06	3.972e-06	420.88	140.67	122.19	42.305	4.2827e-06	52.123	0.00037675	0.00035755	0.00010095	1368.3	3.9266e-06	3.9415e-06	1372.1	364.43	3.9599e-06	3.9368e-06	420.48	140.92	121.67	42.571	3.9763e-06	52.585	167.438	225.672	245.579	154.209	229.577	458.365	153.855	158.454	284.026	229.301	157.958	162.256	162.156	167.643	343.773	166.866	-8191	255	
8094.192	1	1	0	0	0.080782	0.17897	0.21846	0.20903	0.18746	0.044723	0.39658	0.21587	0.17446	0.0761	0.38079	0.49259	0.13722	0.11856	0.03736	0.049741	-1.5812	-2.3125	-2.8625	-2.1292	-2.6437	-2.2812	-2.325	-2.9354	-2.2292	-2.4146	-2.7938	-1.9708	-2.8792	-2.6708	-2.1083	-2.9354	339.421	485.068	267.613	311.306	377.861	200.253	408.954	474.702	384.180	269.555	176.642	473.393	351.710	376.676	175.832	276.746	0.00060188	0.00026133	7.5421e-05	1372.8	3.3966e-06	2.7688e-06	1371.8	364.01	3.7896e-06	4.9049e-06	422.09	140.92	122.8	42.194	3.6985e-06	52.18	0.0003789	0.00036118	0.00010169	1367.4	3.9747e-06	3.9931e-06	1372.6	364.82	3.9831e-06	3.9608e-06	421.36	140.98	121.63	42.512	3.9618e-06	52.517	165.846	218.978	250.748	153.762	348.457	241.237	153.767	158.725	254.897	217.415	158.059	162.268	162.428	167.623	242.681	166.784	-8191	255	
8094.311	1	1	0	0	0.29978	0.1545	0.23581	0.25676	0.12505	0.24025	0.14247	0.1943	0.067292	0.18036	0.15013	0.31585	0.17404	0.14995	0.14185	0.18784	-1.4729	-2.2333	-2.6167	-1.9729	-2.375	-2.5708	-2.2396	-2.9583	-2.3208	-2.0938	-2.9896	-2.0083	-2.4396	-2.6562	-1.9896	-2.7875	211.212	162.214	312.150	404.572	144.938	413.704	153.995	493.094	329.351	463.958	232.436	429.862	150.651	187.168	166.418	437.422	0.000713	0.000578	0.00016177	1374	2.7185e-06	2.7737e-06	1369.1	363.7	5.7123e-06	1.455e-06	420.03	141	122.51	42.013	5.4479e-06	51.931	0.00037686	0.00035946	9.9583e-05	1366.1	3.9388e-06	3.9564e-06	1371.1	364.66	3.8641e-06	3.9502e-06	420.98	141.01	121.84	42.422	4.0042e-06	52.433	164.534	235.318	235.164	153.911	285.489	291.150	153.597	158.516	279.098	334.055	158.373	161.939	162.399	167.406	314.753	166.788	-8191	255	
8094.408	1	1	0	0	0.063086	0.062356	0.09322	0.32677	0.32891	0.19746	0.17859	0.28826	0.21421	0.16803	0.18012	0.11175	0.16084	0.14742	0.14305	0.11635	-1.7521	-1.9625	-2.6396	-2.0542	-2.4292	-2.5875	-2.0958	-2.8604	-2.2583	-1.975	-2.9958	-2.1604	-2.3146	-2.5646	-1.9562	-2.7458	216.753	317.907	209.665	443.747	338.345	417.070	389.440	406.431	404.905	169.264	453.799	464.124	469.806	478.729	417.445	147.900	0.00070626	0.00041713	0.00018638	1373.2	6.9854e-06	5.8586e-06	1369.2	362.42	1.7328e-06	4.4018e-06	419.27	141.01	122.15	42.24	6.1065e-06	52.234	0.00038025	0.00036037	9.9179e-05	1367.5	3.9109e-06	4.0043e-06	1369.8	364.52	4.0215e-06	4.0188e-06	420.38	141.1	121.6	42.585	4.0124e-06	52.606	173.806	261.532	220.046	154.111	277.884	247.835	153.743	158.385	271.331	289.898	157.937	161.908	162.551	167.692	306.629	166.769	-8191	255	
8094.479	1	1	0	0	0.091222	0.079943	0.43447	0.22509	0.12744	0.27742	0.3418	0.23916	0.28789	0.060185	0.23086	0.10191	0.21648	0.34213	0.09404	0.22651	-2.0687	-1.85	-2.6542	-2.2854	-2.2729	-2.7167	-2.1542	-2.8812	-2.4854	-1.9646	-2.7583	-2.3729	-2.2771	-2.8292	-2.05	-2.7812	492.875	299.371	207.610	498.447	426.978	323.353	468.428	446.500	487.741	441.633	399.242	457.848	481.552	411.245	244.747	484.775	0.00069319	0.00035027	9.0876e-05	1369.7	5.7165e-06	4.8907e-06	1371.6	362.96	5.187e-06	1.7222e-06	420.3	140.65	121.86	42.025	3.9265e-06	52.018	0.00038526	0.00036745	0.00010102	1367.5	4.0137e-06	3.9707e-06	1372.5	364.47	4.0096e-06	3.964e-06	420.75	141.3	121.47	42.472	3.9625e-06	52.528	163.641	216.736	197.739	153.612	289.975	310.213	153.661	158.509	265.315	281.852	158.250	162.123	162.374	167.889	227.346	166.776	-8191	255	
#DATA ENDS
