BOXY.EXE: ISS Imagent and Oximeter Data Acquisition Program Version 0.80
Ascii Record File

#ACQ INFORMATION
2  Detector Channels 
16  External MUX Channels 
1  Auxiliary Channels 
5000  Waveform (CCF) Frequency (Hz)
1  Waveforms Skipped 
30  Waveforms Averaged 
1  Cycles Averaged 
16  Acquisitions per Waveform 
10.0806  Updata Rate (Hz) 

#FILE INFORMATION
TRUE -- External MUX Channel results are PARSED.
FALSE -- AC DC and Phase are NOT grouped.
TRUE -- Companion Program Settings File CREATED.
FALSE -- AC data not excluded
FALSE -- DC data not excluded
FALSE -- Phase data not excluded
FALSE -- Auxillary Chn. data not excluded
Tab delimiters

#CALIBRATION STATE
TRUE -- Waveform Calibration Values APPLIED.


#AUX CALIBRATION VALUES
Val Type	aux-1	

Term	1.0000e+00	
Factor	0.0000e+00	


#WF CALIBRATION VALUES
A = Detector Channel
Val Type	A-AC1	A-AC2	A-AC3	A-AC4	A-AC5	A-AC6	A-AC7	A-AC8	A-AC9	A-AC10	A-AC11	A-AC12	A-AC13	A-AC14	A-AC15	A-AC16	A-DC1	A-DC2	A-DC3	A-DC4	A-DC5	A-DC6	A-DC7	A-DC8	A-DC9	A-DC10	A-DC11	A-DC12	A-DC13	A-DC14	A-DC15	A-DC16	A-Ph1	A-Ph2	A-Ph3	A-Ph4	A-Ph5	A-Ph6	A-Ph7	A-Ph8	A-Ph9	A-Ph10	A-Ph11	A-Ph12	A-Ph13	A-Ph14	A-Ph15	A-Ph16	

Term	0.00000e+00	0.00000e+00	0.00000e+00	0.00000e+00	0.00000e+00	0.00000e+00	0.00000e+00	0.00000e+00	0.00000e+00	0.00000e+00	0.00000e+00	0.00000e+00	0.00000e+00	0.00000e+00	0.00000e+00	0.00000e+00	0.00000e+00	0.00000e+00	0.00000e+00	0.00000e+00	0.00000e+00	0.00000e+00	0.00000e+00	0.00000e+00	0.00000e+00	0.00000e+00	0.00000e+00	0.00000e+00	0.00000e+00	0.00000e+00	0.00000e+00	0.00000e+00	0.00000e+00	0.00000e+00	0.00000e+00	0.00000e+00	0.00000e+00	0.00000e+00	0.00000e+00	0.00000e+00	0.00000e+00	0.00000e+00	0.00000e+00	0.00000e+00	0.00000e+00	0.00000e+00	0.00000e+00	0.00000e+00	
Factor	1.00000e+00	1.00000e+00	1.00000e+00	1.00000e+00	1.00000e+00	1.00000e+00	1.00000e+00	1.00000e+00	1.00000e+00	1.00000e+00	1.00000e+00	1.00000e+00	1.00000e+00	1.00000e+00	1.00000e+00	1.00000e+00	1.00000e+00	1.00000e+00	1.00000e+00	1.00000e+00	1.00000e+00	1.00000e+00	1.00000e+00	1.00000e+00	1.00000e+00	1.00000e+00	1.00000e+00	1.00000e+00	1.00000e+00	1.00000e+00	1.00000e+00	1.00000e+00	X	X	X	X	X	X	X	X	X	X	X	X	X	X	X	X	

B = Detector Channel
Val Type	B-AC1	B-AC2	B-AC3	B-AC4	B-AC5	B-AC6	B-AC7	B-AC8	B-AC9	B-AC10	B-AC11	B-AC12	B-AC13	B-AC14	B-AC15	B-AC16	B-DC1	B-DC2	B-DC3	B-DC4	B-DC5	B-DC6	B-DC7	B-DC8	B-DC9	B-DC10	B-DC11	B-DC12	B-DC13	B-DC14	B-DC15	B-DC16	B-Ph1	B-Ph2	B-Ph3	B-Ph4	B-Ph5	B-Ph6	B-Ph7	B-Ph8	B-Ph9	B-Ph10	B-Ph11	B-Ph12	B-Ph13	B-Ph14	B-Ph15	B-Ph16	

Term	0.00000e+00	0.00000e+00	0.00000e+00	0.00000e+00	0.00000e+00	0.00000e+00	0.00000e+00	0.00000e+00	0.00000e+00	0.00000e+00	0.00000e+00	0.00000e+00	0.00000e+00	0.00000e+00	0.00000e+00	0.00000e+00	0.00000e+00	0.00000e+00	0.00000e+00	0.00000e+00	0.00000e+00	0.00000e+00	0.00000e+00	0.00000e+00	0.00000e+00	0.00000e+00	0.00000e+00	0.00000e+00	0.00000e+00	0.00000e+00	0.00000e+00	0.00000e+00	-1.96768e+02	-1.29699e+02	-1.34807e+02	-1.86339e+02	-7.54990e+01	-7.41266e+01	-1.58506e+02	-1.62015e+02	-8.93850e+01	-6.60437e+01	-1.71896e+02	-1.71132e+02	-1.83122e+02	-1.77420e+02	-7.77319e+01	-1.49721e+02	
Factor	4.32825e-05	1.44022e-04	4.41656e-05	2.97642e-01	1.53383e-06	1.64817e-06	1.64269e-01	5.16134e-02	1.72359e-06	1.70877e-06	8.37101e-02	2.83187e-02	3.98013e-02	9.20130e-03	1.82911e-06	1.31369e-02	6.94130e-06	8.10315e-06	2.27153e-06	1.56454e-01	8.77933e-08	8.93870e-08	8.17851e-02	2.74120e-02	8.57484e-08	8.94539e-08	4.31033e-02	1.45842e-02	2.12693e-02	4.93711e-03	8.74364e-08	6.82897e-03	X	X	X	X	X	X	X	X	X	X	X	X	X	X	X	X	



#DISTANCE SETTINGS
A = Detector Channel
A-1	A-2	A-3	A-4	A-5	A-6	A-7	A-8	A-9	A-10	A-11	A-12	A-13	A-14	A-15	A-16	

2.5000e+00	3.0000e+00	2.5000e+00	3.0000e+00	2.0000e+00	3.0000e+00	1.5000e+00	3.0000e+00	3.0000e+00	3.0000e+00	3.0000e+00	3.0000e+00	3.0000e+00	3.0000e+00	1.5000e+00	3.0000e+00	

B = Detector Channel
B-1	B-2	B-3	B-4	B-5	B-6	B-7	B-8	B-9	B-10	B-11	B-12	B-13	B-14	B-15	B-16	

1.0000e+01	1.0000e+01	1.0000e+01	1.4400e+00	1.0000e+01	1.0000e+01	1.5100e+00	1.9400e+00	1.0000e+01	1.0000e+01	1.9900e+00	2.4900e+00	2.4100e+00	2.9000e+00	1.0000e+01	2.9800e+00	




#DATA BEGINS
time	group	step	mark	flag	A-AC1	A-AC2	A-AC3	A-AC4	A-AC5	A-AC6	A-AC7	A-AC8	A-AC9	A-AC10	A-AC11	A-AC12	A-AC13	A-AC14	A-AC15	A-AC16	A-DC1	A-DC2	A-DC3	A-DC4	A-DC5	A-DC6	A-DC7	A-DC8	A-DC9	A-DC10	A-DC11	A-DC12	A-DC13	A-DC14	A-DC15	A-DC16	A-Ph1	A-Ph2	A-Ph3	A-Ph4	A-Ph5	A-Ph6	A-Ph7	A-Ph8	A-Ph9	A-Ph10	A-Ph11	A-Ph12	A-Ph13	A-Ph14	A-Ph15	A-Ph16	B-AC1	B-AC2	B-AC3	B-AC4	B-AC5	B-AC6	B-AC7	B-AC8	B-AC9	B-AC10	B-AC11	B-AC12	B-AC13	B-AC14	B-AC15	B-AC16	B-DC1	B-DC2	B-DC3	B-DC4	B-DC5	B-DC6	B-DC7	B-DC8	B-DC9	B-DC10	B-DC11	B-DC12	B-DC13	B-DC14	B-DC15	B-DC16	B-Ph1	B-Ph2	B-Ph3	B-Ph4	B-Ph5	B-Ph6	B-Ph7	B-Ph8	B-Ph9	B-Ph10	B-Ph11	B-Ph12	B-Ph13	B-Ph14	B-Ph15	B-Ph16	aux-1	digaux	

21538.512	1	1	0	768	0.11832	0.2532	0.14766	0.11645	0.21838	0.090625	0.32918	0.18275	0.14276	0.13791	0.42315	0.32372	0.098964	0.27582	0.42252	0.14524	-1.9708	-2.9896	-2.5146	-2.6104	-2.975	-2.325	-2.8479	-3.0396	-2.1854	-3.0938	-2.6167	-2.6854	-3.1813	-2.6542	-2.7167	-3.0938	-14.055	-128.436	183.984	162.286	159.558	189.617	164.658	147.679	150.594	-18.498	140.564	-129.596	-45.052	-116.433	51.007	29.973	0.00065469	0.0010323	0.00017179	1756.7	8.1135e-06	7.2894e-06	1567.5	505.95	9.493e-06	7.4033e-06	484.97	155.04	161.93	58.133	1.2557e-05	56.902	0.00078503	0.0008311	0.00022155	1427.6	8.5939e-06	9.2087e-06	1281.1	412.19	9.174e-06	8.6198e-06	401.13	127.03	132.83	47.774	8.6879e-06	47.178	143.836	-17.898	-44.781	-131.414	-3.037	0.477	-132.039	-125.635	-4.364	51.650	-127.889	-123.193	-121.600	-115.701	-33.896	-119.677	-8191	255	
21538.607	1	1	0	0	0.17381	0.074841	0.015407	0.17147	0.084467	0.20698	0.24969	0.034497	0.20287	0.35314	0.091175	0.25829	0.18174	0.12456	0.12891	0.18268	-1.9625	-2.8063	-2.6229	-2.5375	-3.0771	-2.4542	-2.9625	-3.0833	-2.1875	-3.0833	-2.7625	-2.5167	-3.1562	-2.4875	-2.6688	-3.0979	20.255	-75.972	-57.104	-115.627	-84.288	116.466	-136.144	14.860	-42.859	25.342	-138.293	155.932	-138.289	172.302	134.259	63.809	0.00087761	0.0013824	0.00038334	1762.5	1.1129e-05	7.5577e-06	1562.5	510.02	7.6592e-06	8.6924e-06	494.8	157.31	165.26	59.83	1.6584e-05	58.882	0.00080697	0.00085375	0.00022257	1430.2	9.3767e-06	9.2082e-06	1281.3	415.49	9.0013e-06	9.144e-06	405.27	129	134.99	49.371	9.0085e-06	48.659	144.335	-57.052	-46.521	-130.968	-52.251	-56.839	-132.012	-125.890	-13.841	11.394	-127.241	-124.000	-120.957	-115.966	24.610	-118.751	-8191	255	
21538.701	1	1	0	0	0.20647	0.25099	0.084336	0.35081	0.11346	0.16308	0.27297	0.27194	0.11537	0.36233	0.093372	0.27876	0.053554	0.16933	0.16401	0.1148	-1.9667	-2.7646	-2.7292	-2.4875	-3.0979	-2.5229	-2.7083	-3.3521	-2.3833	-2.9396	-2.7979	-2.4104	-3.2375	-2.5729	-2.5604	-3.0438	-139.067	98.088	39.456	160.409	121.002	24.733	147.982	174.087	134.498	203.518	190.281	170.294	206.246	135.519	106.589	-142.799	0.0008152	0.00077013	0.00023158	1784.6	7.9513e-06	7.0731e-06	1571.7	508.63	1.2973e-05	1.6295e-05	489.47	158.06	164.01	60.264	9.2632e-06	59	0.00085161	0.00085814	0.00023521	1448	9.5384e-06	9.0316e-06	1284	416.36	9.6251e-06	9.5086e-06	404.44	129.79	135.04	49.798	9.377e-06	49.094	141.274	-95.851	-76.586	-131.227	25.126	-24.792	-132.224	-125.645	48.580	-7.784	-127.522	-123.346	-121.251	-115.991	-107.546	-119.703	-8191	255	
21538.799	1	1	0	0	0.24471	0.016472	0.18905	0.44715	0.21562	0.25806	0.16405	0.085222	0.21571	0.25805	0.060418	0.14092	0.23779	0.22913	0.27092	0.32125	-2.0021	-2.6937	-2.8167	-2.2833	-3.0333	-2.7167	-2.6958	-3.0479	-2.2896	-2.7083	-3.1604	-2.5083	-3.1625	-2.8958	-2.2729	-3.1479	-113.085	211.122	149.443	167.217	-85.320	202.110	184.482	186.612	116.275	-25.413	183.984	186.806	140.715	181.280	-89.274	155.470	0.00072625	0.0013729	8.2347e-05	1759	7.9909e-06	8.3825e-06	1569.1	507.6	4.8846e-06	1.4137e-05	490.16	156.98	164.44	60.356	9.7142e-06	59.131	0.00083514	0.00084786	0.00023921	1436.3	9.6649e-06	9.2437e-06	1279.3	415.36	9.5733e-06	9.2287e-06	401.7	128.82	134.88	49.946	9.3706e-06	48.928	162.439	-75.928	-132.088	-131.544	30.027	73.679	-132.218	-125.847	-33.067	-21.571	-127.802	-124.205	-121.666	-115.885	19.781	-119.230	-8191	255	
21538.895	1	1	0	0	0.16631	0.19875	0.1582	0.38961	0.074659	0.25032	0.15829	0.30769	0.0936	0.42119	0.35632	0.33065	0.18943	0.32891	0.16054	0.10779	-1.9813	-2.7104	-3.0542	-2.4792	-2.9167	-2.775	-2.5833	-3.3354	-2.3937	-2.6521	-3.3021	-2.1708	-2.9667	-3.0104	-2.2354	-3.1417	180.799	-70.814	-23.928	204.562	166.714	123.322	-98.363	179.236	-108.302	85.412	190.596	193.920	186.436	-127.402	79.862	121.952	0.00079221	0.00070555	0.00027513	1757	3.9356e-06	4.2988e-06	1561.2	510	1.186e-05	8.5763e-06	487.59	155.9	164.05	60.074	6.8411e-06	58.882	0.0008511	0.00083945	0.00024431	1430.3	9.1921e-06	9.0503e-06	1271.9	415.24	9.706e-06	9.4545e-06	399.33	128.04	135.13	49.661	9.4787e-06	48.736	148.152	7.600	-63.607	-131.372	-5.458	23.782	-131.879	-125.687	-74.253	40.936	-127.867	-124.005	-122.141	-115.803	-64.442	-119.568	-8191	255	
21538.992	1	1	0	0	0.054293	0.15598	0.19303	0.22916	0.29551	0.33193	0.16625	0.1981	0.29123	0.074469	0.12284	0.23525	0.035052	0.024571	0.31623	0.1323	-2.1375	-2.4604	-3.0667	-2.4229	-2.6646	-2.8729	-2.4271	-3.1083	-2.4833	-2.475	-3.1667	-2.4688	-2.7854	-3.075	-2.3375	-3.0625	-74.693	59.061	77.272	-139.875	-63.175	142.169	167.209	123.293	7.342	139.874	113.159	150.635	-123.384	-115.215	-41.506	76.270	0.0009777	0.00076356	0.00013433	1752.5	3.4189e-06	5.49e-06	1548.8	507.69	7.0202e-06	6.5469e-06	487.08	155.25	164.2	60.803	1.5224e-05	59.361	0.00082778	0.00086182	0.00024689	1431.3	9.2454e-06	9.3452e-06	1268.8	414.57	9.3296e-06	9.3541e-06	399.78	128.27	135.21	50.169	9.5486e-06	49.123	156.307	-45.653	-71.252	-131.612	66.528	72.582	-131.966	-125.781	-34.781	-34.153	-127.215	-123.790	-121.224	-116.052	7.721	-119.525	-8191	255	
21539.111	1	1	0	0	0.21283	0.1962	0.26731	0.12306	0.26349	0.15379	0.17901	0.1829	0.41427	0.11593	0.014596	0.2663	0.18373	0.15125	0.12123	0.080036	-2.2479	-2.5062	-3.0896	-2.4479	-2.5396	-2.9375	-2.325	-3.0167	-2.8312	-2.1875	-3.0979	-2.3667	-2.525	-3.0417	-2.3979	-2.8896	-52.639	-66.000	109.271	203.513	-114.748	-137.097	160.857	168.925	-136.536	10.054	-77.047	203.761	-128.230	-118.766	8.563	178.216	0.0010079	0.00057877	0.00029265	1749	5.6759e-06	5.018e-06	1557.6	508.63	8.098e-06	1.3275e-05	493.13	158.92	164.48	61.311	8.8244e-06	60.463	0.00085962	0.00085689	0.00025453	1427.5	9.0797e-06	9.8626e-06	1271.6	416.12	9.3896e-06	1.0053e-05	403.2	130.25	135.86	50.897	1.0285e-05	49.968	147.407	-44.938	-71.460	-131.435	1.862	-56.712	-132.099	-125.765	-35.563	25.984	-127.534	-124.051	-121.447	-115.928	1.065	-119.330	-8191	255	
21539.207	1	1	0	0	0.19696	0.082758	0.05619	0.097028	0.15064	0.19825	0.29166	0.2964	0.15749	0.2455	0.16753	0.034197	0.053196	0.21493	0.011924	0.043005	-2.4021	-2.2771	-2.9917	-2.7104	-2.5812	-2.9688	-2.3312	-2.9521	-2.8833	-2.3125	-3.0938	-2.6271	-2.5917	-3.1437	-2.5021	-2.9417	-20.486	-30.662	205.287	204.822	-90.696	166.487	190.056	176.286	-139.009	207.388	144.575	-32.980	-69.335	-125.301	-26.243	166.877	0.00081681	0.0010725	0.00028729	1757	5.1078e-06	6.1976e-06	1559.8	515.14	1.3267e-05	8.5396e-06	497.74	159.55	166.66	63.404	6.9086e-06	61.654	0.00083968	0.00091488	0.00026357	1433.7	9.5486e-06	9.9797e-06	1275.1	420.18	9.7119e-06	1.0386e-05	407.66	131.29	137.74	52.223	1.0019e-05	51.324	147.780	-54.381	-82.276	-131.327	-71.023	-11.428	-132.297	-125.449	-60.011	-13.864	-127.530	-123.502	-121.519	-115.967	-75.923	-119.263	-8191	255	
21539.303	1	1	0	0	0.17167	0.10771	0.43776	0.12839	0.23889	0.26405	0.23789	0.28704	0.24295	0.12502	0.17447	0.080591	0.40251	0.082824	0.22855	0.31785	-2.5	-2.2979	-2.9188	-2.875	-2.2896	-2.9854	-2.5146	-3.0583	-2.9979	-2.1604	-3.1312	-2.675	-2.4979	-3.1479	-2.3312	-2.7188	-25.732	126.854	72.110	-118.963	-110.850	103.797	109.341	187.317	20.236	22.086	179.427	151.604	146.304	-0.026	-88.573	64.034	0.00083488	0.0010859	0.00038215	1766.7	5.215e-06	8.7847e-06	1573.1	516.76	1.6662e-05	4.9288e-06	499.09	161.41	169.79	64.375	8.8132e-06	63.546	0.00085784	0.00093602	0.00025007	1440.1	1.0006e-05	1.0333e-05	1279.4	423.11	9.8348e-06	1.0559e-05	408.66	132.85	139.34	53.238	1.0019e-05	52.485	135.099	-47.907	-40.253	-131.328	-4.983	-3.376	-132.375	-125.570	-8.743	89.243	-127.530	-124.254	-121.086	-115.751	5.716	-119.315	-8191	255	
21539.398	1	1	0	0	0.12324	0.083748	0.051071	0.47736	0.27835	0.078336	0.2447	0.27261	0.31584	0.22314	0.17283	0.18091	0.033501	0.22058	0.038163	0.21606	-2.5938	-2.2062	-3.2708	-2.8292	-2.2812	-3.1583	-2.65	-2.6521	-3.0667	-2.3708	-3	-2.9375	-2.5271	-3.125	-2.4646	-2.7354	175.397	-10.265	-95.632	163.296	212.255	193.676	91.636	144.478	77.341	-81.507	141.432	210.938	-119.092	199.432	199.233	181.278	0.00088399	0.00096826	0.00023677	1763.2	1.6461e-06	5.3268e-06	1562.3	524.06	8.1294e-06	1.2537e-05	501.8	163.11	171.42	64.934	1.3984e-05	64.31	0.00089277	0.00093502	0.00024012	1441	1.0092e-05	1.0238e-05	1277.6	426.88	1.0258e-05	1.0247e-05	412.32	134.15	141.2	53.907	9.6927e-06	53.39	131.570	-69.901	4.993	-131.049	89.232	-12.965	-132.164	-125.507	-43.582	-33.269	-127.650	-124.417	-121.342	-115.939	25.962	-119.374	-8191	255	
21539.494	1	1	0	0	0.10971	0.11895	0.084238	0.31302	0.1288	0.19713	0.49224	0.22242	0.11667	0.086692	0.37088	0.059596	0.092289	0.34545	0.19176	0.24839	-2.6542	-2.5187	-2.8167	-2.9896	-2.4562	-3.05	-2.6896	-2.4021	-3.0375	-2.3104	-2.8375	-2.9979	-2.1875	-2.9896	-2.4667	-2.4229	212.084	127.000	-37.648	-64.284	154.636	-68.127	193.708	123.999	-109.407	-3.702	162.588	184.956	-76.281	-131.227	-124.536	-103.126	0.00085248	0.00034175	0.00032621	1784	6.2777e-06	6.6312e-06	1558.1	526.45	1.7434e-05	1.0756e-05	507.25	165.56	173.89	66.502	1.142e-05	64.438	0.0008978	0.00093732	0.00024867	1451.4	1.0282e-05	1.0139e-05	1280.1	430.4	1.0418e-05	1.0026e-05	414.6	135.97	142.87	55.028	1.0117e-05	53.713	138.517	-96.628	-86.703	-131.324	-58.889	-30.033	-132.046	-125.602	-45.530	-7.039	-127.498	-123.507	-121.086	-115.860	-23.726	-119.514	-8191	255	
21539.592	1	1	0	0	0.12863	0.17154	0.050638	0.22086	0.34341	0.15227	0.28478	0.41469	0.11067	0.099359	0.24329	0.11386	0.09216	0.18196	0.35776	0.11464	-2.5958	-2.3438	-2.7146	-3.0146	-2.2396	-3.0333	-2.825	-2.4979	-3.2062	-2.4833	-2.8479	-3.0479	-2.5042	-2.8812	-2.7417	-2.4	122.831	-33.917	-78.214	-139.979	161.434	-42.600	183.165	168.043	-51.555	95.781	189.856	159.706	-116.020	146.320	-126.932	67.751	0.0010852	0.00094699	7.3287e-05	1781.2	7.2821e-06	7.4689e-06	1580.4	529.99	1.2837e-05	1.0951e-05	512.84	167.48	173.69	68.112	1.8744e-05	66.928	0.00091791	0.00095818	0.00025479	1453.2	1.0631e-05	1.0677e-05	1290.6	433.64	1.0367e-05	1.0424e-05	419.76	138.12	144.36	56.315	1.0595e-05	55.459	142.176	-66.222	28.327	-130.916	-41.661	-52.840	-132.169	-125.422	-58.304	50.993	-127.298	-124.041	-121.363	-115.733	-8.722	-119.248	-8191	255	
21539.711	1	1	0	0	0.11795	0.18043	0.084243	0.19515	0.17179	0.25058	0.22104	0.24092	0.19385	0.11509	0.28468	0.24004	0.090438	0.12164	0.067662	0.06611	-2.725	-2.425	-2.7938	-3.1292	-2.4208	-3.0104	-3.0333	-2.3312	-2.8833	-2.5896	-2.7313	-3.3229	-2.4625	-2.9875	-2.8396	-2.5792	-75.579	42.278	51.072	161.735	6.605	-99.150	90.956	172.127	163.175	39.671	194.442	164.659	84.650	-62.953	134.529	-51.438	0.001132	0.00049929	0.00025605	1780.6	8.1498e-06	8.1646e-06	1577.4	532.03	1.1177e-05	3.5776e-06	515.64	169.6	176.74	69.113	8.7939e-06	67.037	0.00090875	0.00091036	0.00026484	1456.7	1.056e-05	1.0047e-05	1291	435.4	1.0181e-05	1.0231e-05	421.7	139.29	145.81	57.015	1.016e-05	55.92	131.140	-73.844	-103.156	-131.040	26.234	1.537	-132.078	-125.340	-31.566	73.037	-127.509	-123.915	-120.802	-115.692	-42.600	-119.078	-8191	255	
21539.807	1	1	0	0	0.26845	0.20503	0.11657	0.28202	0.35896	0.18495	0.45603	0.31184	0.24735	0.16588	0.14517	0.14606	0.27141	0.24386	0.10158	0.087713	-2.6979	-2.4896	-2.5375	-3.0292	-2.2417	-2.85	-3.0229	-2.5021	-3.0667	-2.7229	-2.5125	-3.1312	-2.3187	-2.8583	-2.9125	-2.4333	-85.027	-72.262	101.623	-3.565	-47.712	15.520	144.646	165.186	44.222	-51.726	-40.425	215.194	211.940	148.822	-71.739	206.547	0.00078933	0.0012866	0.0001812	1790.2	9.6396e-06	1.4813e-05	1576.3	532.07	1.2958e-05	1.4284e-05	511.83	169.72	176.33	69.242	1.1358e-05	67.333	0.00092081	0.00090762	0.00026599	1453.6	1.0501e-05	1.0287e-05	1287.7	435.19	9.8232e-06	1.0021e-05	420.53	139.26	145.71	57.309	1.0357e-05	55.796	141.383	-91.127	-55.725	-131.141	-16.421	-17.284	-131.757	-125.615	-54.973	-72.196	-126.822	-123.442	-121.412	-115.271	-76.145	-119.374	-8191	255	
21539.902	1	1	0	0	0.081912	0.30422	0.032888	0.28008	0.20704	0.081672	0.15307	0.30989	0.16205	0.14812	0.31466	0.13072	0.13663	0.10049	0.11073	0.31438	-2.6646	-2.7167	-2.35	-2.9583	-2.5042	-2.6625	-3.0771	-2.3979	-2.9292	-2.7354	-2.4938	-3.1917	-2.5708	-2.5917	-3.1063	-2.3979	-115.900	-87.609	66.910	-142.199	148.129	129.148	155.655	209.965	216.361	102.078	163.042	-142.702	125.536	-44.513	210.474	59.221	0.00078717	0.00078011	0.00026503	1782.7	3.9581e-06	1.1938e-05	1571.4	536.77	1.3076e-05	7.2268e-06	518.51	171.73	181.46	70.18	1.4446e-05	68.192	0.00088072	0.00093348	0.00026562	1455.1	9.8908e-06	9.9041e-06	1287.1	438.28	9.7662e-06	1.0298e-05	424.25	141.23	148.08	57.829	1.0907e-05	56.499	146.474	-43.541	-39.197	-130.592	142.395	-20.794	-132.269	-125.307	-2.262	18.165	-127.654	-123.986	-121.067	-115.813	-51.247	-119.484	-8191	255	
21539.998	1	1	0	0	0.26527	0.036792	0.21994	0.24609	0.11619	0.18186	0.23383	0.13757	0.18042	0.030699	0.19763	0.33453	0.28163	0.45931	0.18615	0.44221	-2.6333	-2.825	-2.3667	-3.0812	-2.6083	-2.6271	-3.4042	-2.5896	-2.7917	-2.9604	-2.3958	-3.1312	-2.6958	-2.5375	-3.15	-2.4062	-95.355	52.653	-1.231	130.689	161.435	64.166	158.365	138.181	131.588	-130.609	163.478	155.075	105.564	167.493	-87.613	202.689	0.00073458	0.001191	0.00022301	1808.5	1.0477e-05	1.0828e-05	1581.9	537.19	1.685e-05	8.9644e-06	518.6	171.22	180.2	70.004	1.2995e-05	68.41	0.00093786	0.00098649	0.00026493	1468.2	1.0448e-05	1.0428e-05	1297.8	440.36	9.5738e-06	1.088e-05	426.1	140.91	148.63	58.098	1.0519e-05	56.87	147.280	-59.320	-95.917	-130.819	-47.269	-85.707	-131.904	-125.489	-85.222	73.346	-127.948	-123.897	-121.554	-115.757	-46.321	-119.570	-8191	255	
21540.072	1	1	0	0	0.030208	0.12889	0.35394	0.14284	0.24281	0.28214	0.33539	0.57401	0.26441	0.14328	0.36782	0.20383	0.064972	0.30751	0.13829	0.16889	-2.45	-2.9562	-2.3417	-3.0271	-2.7167	-2.5542	-3.2812	-2.45	-2.5625	-2.8812	-2.2792	-3.1333	-2.6729	-2.6667	-3.0938	-2.4313	105.790	160.527	183.532	176.874	42.631	44.482	175.103	146.639	140.583	-126.070	169.986	174.681	145.338	-128.282	62.826	181.843	0.00099981	0.0015198	0.00029449	1810.6	8.795e-06	1.4464e-05	1592.2	539.76	6.6959e-06	1.2154e-05	520.67	172.85	181.85	70.222	1.0278e-05	68.487	0.00089653	0.00096429	0.00026798	1472.3	9.8574e-06	1.064e-05	1300.1	441.88	1.0185e-05	1.0268e-05	427.85	141.99	148.83	58.142	1.0099e-05	56.835	143.297	-57.331	-93.127	-131.067	-23.302	-10.313	-132.357	-125.595	18.472	5.700	-127.702	-123.719	-121.906	-115.792	-23.300	-119.076	-8191	255	
21540.191	1	1	0	0	0.081857	0.40963	0.18446	0.12699	0.30299	0.050819	0.18668	0.55499	0.1421	0.15086	0.21033	0.33287	0.21444	0.102	0.20415	0.19269	-2.1708	-2.8354	-2.075	-3.0229	-2.7396	-2.2438	-3.3083	-2.5708	-2.5187	-3.0458	-2.3187	-2.8396	-2.9417	-2.4958	-2.9813	-2.5187	97.210	-77.401	124.962	202.758	27.137	-143.144	134.505	116.015	-64.158	133.801	163.260	181.304	177.719	74.212	-72.686	170.633	0.0010043	0.000991	0.00018152	1798.3	5.5562e-06	7.9363e-06	1573.1	540.18	9.9739e-06	7.2097e-06	521.54	171.36	180.19	70.03	1.5493e-05	67.445	0.00090457	0.00095487	0.00025833	1466.4	1.0147e-05	1.0589e-05	1291.8	441.68	1.0052e-05	1.0401e-05	426.14	140.63	147.91	57.763	9.4433e-06	55.865	143.360	-80.446	-40.346	-131.091	-30.139	-14.625	-132.053	-125.604	-60.932	35.826	-127.453	-123.645	-121.527	-115.811	-31.448	-119.684	-8191	255	
21540.287	1	1	0	0	0.17171	0.2357	0.11244	0.070511	0.24534	0.25599	0.1312	0.31348	0.43789	0.17954	0.13742	0.31355	0.34896	0.18883	0.21137	0.14233	-2.1333	-3.0438	-2.3854	-2.9875	-2.8063	-2.2854	-3.1937	-2.8521	-2.3771	-3.0271	-2.5417	-2.9688	-3.0354	-2.5271	-3.0229	-2.8479	-49.600	199.315	-140.552	-83.104	144.828	-84.182	123.815	137.880	69.784	156.359	36.556	200.558	173.065	162.851	201.745	123.439	0.00084204	0.0013977	0.00016949	1803.2	9.2225e-06	5.9275e-06	1585.4	540.17	2.0515e-05	8.7434e-06	520.23	171.25	182.18	69.343	1.3241e-05	67.157	0.00091874	0.0009272	0.00025914	1466.3	1.0114e-05	1.0162e-05	1297.8	442.83	1.0078e-05	1.0368e-05	425.85	140.94	149.28	57.537	9.6426e-06	55.857	139.697	-54.521	-49.184	-130.901	4.582	123.075	-131.896	-125.510	-63.180	-22.863	-127.952	-123.820	-121.302	-115.503	-43.515	-119.458	-8191	255	
21540.383	1	1	0	0	0.14886	0.15856	0.082763	0.09143	0.20147	0.14586	0.25108	0.3284	0.10173	0.21551	0.37052	0.29152	0.092095	0.34226	0.20449	0.23805	-2.0417	-3.025	-2.4458	-2.8625	-2.9292	-2.3708	-3.1396	-3.0417	-2.4104	-3.0312	-2.575	-2.8583	-3.0812	-2.5667	-3.0625	-2.9604	-12.105	22.767	-134.975	-119.227	-114.050	-65.606	170.665	189.088	75.444	98.394	215.335	183.508	-114.816	181.144	183.026	132.687	0.00083625	0.0013839	0.00030071	1802.8	7.5455e-06	1.6784e-05	1594.2	545.87	1.1507e-05	7.8226e-06	518.94	171.12	180.51	69.814	9.1735e-06	68.135	0.00090152	0.00096223	0.00024761	1472.3	9.8674e-06	1.0167e-05	1299.3	445.3	9.8534e-06	1.0039e-05	428.13	140.93	148.36	57.815	9.7894e-06	56.407	140.996	-43.867	-104.880	-131.236	72.976	25.090	-131.937	-125.864	-72.373	0.098	-127.628	-123.569	-121.401	-115.918	-32.218	-119.148	-8191	255	
21540.479	1	1	0	0	0.27872	0.078633	0.044603	0.37971	0.24476	0.0934	0.38162	0.2748	0.12988	0.15448	0.3584	0.097004	0.084327	0.36936	0.18192	0.19944	-1.8333	-2.9958	-2.4083	-2.6354	-2.9667	-2.3458	-3.0563	-2.9458	-2.3417	-3.0104	-2.7062	-2.4938	-3.0604	-2.4813	-2.7854	-3.1146	46.751	68.459	-130.543	-134.982	-13.216	-39.290	132.219	197.789	186.681	-83.694	144.025	202.213	149.662	173.926	-34.536	-1.557	0.0010525	0.0010888	0.00047492	1814.9	6.8425e-06	1.0523e-05	1601.1	544.5	5.6416e-06	4.7794e-06	518.8	171.86	181.64	70.195	8.2729e-06	67.736	0.00090047	0.00088843	0.0002486	1475.5	1.0497e-05	1.0061e-05	1302.9	445.17	1.0262e-05	9.9275e-06	427.14	141.3	148.75	57.765	9.7694e-06	56.269	155.174	-42.326	-90.590	-131.099	29.203	-38.369	-132.136	-125.555	-56.687	-29.294	-127.505	-123.802	-121.567	-115.813	-7.529	-119.509	-8191	255	
21540.600	1	1	0	0	0.046637	0.19838	0.4728	0.14798	0.061586	0.25822	0.27333	0.4004	0.11798	0.26958	0.37891	0.26665	0.055876	0.12372	0.021746	0.28896	-2	-3.0375	-2.5083	-2.5875	-3.0563	-2.3542	-2.9229	-3.2229	-2.0979	-3.1125	-2.8708	-2.5208	-2.9833	-2.5208	-2.8146	-3.0896	97.378	-107.098	72.838	175.141	-128.919	84.982	84.311	148.503	-104.126	128.563	152.445	204.040	180.686	147.388	80.324	191.903	0.00097567	0.0013713	6.0831e-05	1799.7	9.0011e-06	1.5131e-06	1588.5	537.83	6.4705e-06	9.1535e-06	517.44	169.56	179.63	68.966	7.7383e-06	66.447	0.00090506	0.00086275	0.00025663	1470.9	9.9508e-06	1.0012e-05	1296.3	441.53	9.693e-06	9.6334e-06	424.74	139.33	147.37	57.04	9.8898e-06	55.141	139.509	-45.462	-50.608	-130.661	-12.290	7.961	-131.747	-125.584	-10.961	-55.639	-127.446	-123.762	-121.434	-115.484	-12.194	-119.626	-8191	255	
21540.672	1	1	0	0	0.22305	0.20181	0.13657	0.1975	0.071411	0.05647	0.19715	0.12938	0.10681	0.056141	0.17077	0.0085164	0.095024	0.3504	0.33421	0.10391	-1.8354	-2.7875	-2.6958	-2.4083	-3.0583	-2.4562	-2.7313	-3.2188	-2.2708	-2.8312	-3.0396	-2.3625	-3.0104	-2.65	-2.4396	-3.0875	145.864	14.363	-35.507	197.642	-127.027	72.679	173.313	-70.485	-35.218	187.839	150.793	-50.209	143.911	196.281	131.642	-38.122	0.00086462	0.0011927	0.00030288	1786.3	8.6176e-06	7.9949e-06	1569	536.36	7.6163e-06	9.0743e-06	507.66	168.2	176.84	67.889	8.7828e-06	65.706	0.00083874	0.00082978	0.00025502	1458.2	9.4435e-06	9.449e-06	1279.9	437.4	9.3142e-06	9.2561e-06	416.52	137.87	145.43	56.27	9.4431e-06	54.398	154.766	-76.402	-56.440	-130.900	-38.447	29.884	-132.101	-125.328	-101.316	29.386	-127.577	-123.369	-121.502	-115.873	-17.994	-119.669	-8191	255	
21540.793	1	1	0	0	0.051432	0.13714	0.17502	0.18863	0.20395	0.24776	0.19421	0.22348	0.15405	0.16659	0.14076	0.20172	0.34371	0.21524	0.11805	0.18565	-1.8042	-2.8854	-2.7792	-2.3875	-2.8292	-2.4354	-2.6167	-3.1958	-2.4042	-2.8021	-2.9104	-2.4583	-3.2083	-2.6875	-2.5917	-3.3542	40.252	133.907	117.851	-44.018	67.916	12.293	172.824	126.710	-50.355	201.840	125.946	-114.952	178.393	-142.458	88.620	155.217	0.001114	0.00029772	0.00024989	1781.8	1.3973e-05	2.1777e-06	1549	529.3	1.3052e-05	4.4806e-06	508.81	166.18	175.51	67.276	1.2724e-05	64.878	0.00086477	0.00083675	0.00025094	1449.7	9.3882e-06	9.8823e-06	1275.7	432.29	9.3243e-06	9.6625e-06	413.62	136.45	144.24	55.527	1.0064e-05	53.604	155.361	84.276	-6.120	-130.839	-18.998	-58.714	-132.214	-125.547	-56.088	106.301	-127.250	-123.585	-121.337	-115.756	35.036	-119.790	-8191	255	
21540.887	1	1	0	0	0.2364	0.094692	0.21798	0.2869	0.092281	0.1136	0.26867	0.090115	0.33157	0.22252	0.14188	0.13941	0.18342	0.21291	0.11865	0.19908	-2.0479	-2.7521	-3.0687	-2.3042	-3.0708	-2.5625	-2.5625	-3.2125	-2.4292	-2.6917	-3.2479	-2.3625	-2.9688	-2.6312	-2.2771	-3.1167	155.861	97.537	58.158	105.835	56.963	66.052	159.212	144.407	158.766	-5.623	186.118	86.263	-130.150	198.848	117.075	146.633	0.00095903	0.00074806	0.00035554	1787.1	6.4569e-06	1.0635e-05	1562.1	527	8.8331e-07	7.6946e-06	503.87	165.72	174.89	66.594	4.8733e-06	65.321	0.00083971	0.00090028	0.00025487	1445.7	9.0637e-06	9.8491e-06	1273.1	430.12	9.3585e-06	9.823e-06	413.02	135.49	143.52	55.2	9.9929e-06	53.785	135.556	-51.357	-59.300	-130.947	18.976	17.300	-131.969	-125.566	103.414	-1.300	-127.226	-123.468	-121.253	-115.579	-42.322	-118.938	-8191	255	
21540.982	1	1	0	0	0.14184	0.18033	0.041416	0.13998	0.086476	0.14927	0.21713	0.10602	0.19082	0.1738	0.13466	0.17616	0.10577	0.12939	0.28845	0.13596	-2.1	-2.5062	-3.0083	-2.4229	-2.8146	-2.8187	-2.4708	-3.2667	-2.3792	-2.3937	-3.0062	-2.4896	-2.7938	-2.9125	-2.325	-3.0812	141.067	45.469	-52.168	105.839	-112.098	-68.572	151.882	124.039	215.239	-93.134	178.307	200.930	-103.305	-100.495	-112.321	39.572	0.0010727	0.00031259	0.00029241	1775	2.9691e-06	1.104e-05	1560.6	527.63	5.3799e-06	7.0074e-06	504.56	165.52	174.29	66.689	1.3432e-05	64.421	0.00087592	0.00090224	0.00024473	1441.8	9.264e-06	9.9499e-06	1272.7	430.69	9.5215e-06	1.0055e-05	414.67	135.94	143.36	55.164	9.7972e-06	53.374	138.155	-103.170	-42.814	-130.975	36.278	60.934	-131.716	-125.823	-9.288	-17.282	-127.726	-124.044	-121.769	-115.844	12.716	-119.020	-8191	255	
21541.078	1	1	0	0	0.11695	0.077014	0.1236	0.18165	0.081603	0.045903	0.2552	0.23956	0.034578	0.14001	0.3203	0.32934	0.19195	0.24246	0.26937	0.20344	-1.9813	-2.3479	-2.9292	-2.5312	-2.8333	-3.025	-2.4333	-3.0896	-2.6792	-2.3667	-3.1917	-2.4104	-2.7375	-3.0125	-2.1521	-3.0354	-18.228	205.385	184.386	176.685	-87.554	156.907	148.797	186.951	17.773	-30.391	-121.837	164.698	-131.725	185.945	-131.625	92.531	0.00095665	0.0014011	0.00024503	1765.9	1.1322e-05	1.9772e-06	1542.9	522.65	6.2624e-06	4.2543e-06	501.45	162.66	170.78	65.877	1.5052e-05	62.741	0.00086682	0.0008771	0.0002426	1434.3	9.2408e-06	1.0156e-05	1263.2	427.45	9.6571e-06	1.0461e-05	409.81	133.43	141.89	54.558	9.4067e-06	52.36	129.755	-92.169	-67.849	-131.466	30.167	24.431	-132.102	-125.518	-6.065	1.436	-127.740	-124.122	-121.636	-115.849	-52.102	-119.223	-8191	255	
21541.199	1	1	0	0	0.019192	0.28233	0.11516	0.37482	0.038467	0.09203	0.19038	0.40766	0.16773	0.11371	0.40986	0.12493	0.12591	0.095319	0.29055	0.17062	-2.2479	-2.3042	-3.0625	-2.3958	-2.5833	-2.9875	-2.5167	-3.1417	-2.6646	-2.0958	-3.025	-2.7042	-2.6771	-3.0021	-2.3292	-3.0958	-75.446	151.350	-139.981	103.991	-80.464	-54.671	152.524	186.590	65.568	-110.340	151.713	114.046	141.754	53.150	-39.382	113.094	0.00084491	0.0011599	0.0001796	1770	1.5211e-05	8.0117e-06	1549.7	524.08	8.715e-06	7.7258e-06	501.12	164.03	173.24	66.518	6.7848e-06	63.46	0.00086525	0.0009206	0.00023985	1437	9.491e-06	9.9927e-06	1261.7	428.14	9.5808e-06	9.9305e-06	410.33	134.31	142.95	54.684	9.4366e-06	52.825	137.452	-96.853	-2.232	-131.498	19.366	8.738	-131.812	-125.276	-98.911	-20.329	-127.604	-123.789	-121.236	-115.575	-94.840	-119.087	-8191	255	
21541.297	1	1	0	0	0.21641	0.26219	0.052314	0.47683	0.34454	0.15919	0.33146	0.093878	0.057891	0.23395	0.081013	0.29217	0.12969	0.13036	0.048734	0.054922	-2.2208	-2.1562	-2.8729	-2.5271	-2.5083	-3.0833	-2.3875	-2.9271	-2.8521	-2.3833	-3.2833	-2.8271	-2.4437	-3.1083	-2.1583	-2.8187	190.999	56.478	5.791	157.750	137.165	188.365	202.197	-142.714	-28.397	206.305	183.509	81.867	134.731	47.398	-119.832	-99.486	0.00081356	0.0010842	0.00034984	1770	1.038e-05	1.4683e-05	1545.4	519.61	8.0213e-06	7.2675e-06	499.99	162.59	173.19	65.561	1.1266e-05	63.741	0.00085794	0.00091508	0.00024281	1440.5	9.9649e-06	9.7104e-06	1263.7	425.13	9.8612e-06	9.8705e-06	409.16	133.63	141.65	54.25	9.308e-06	52.74	136.437	-51.805	-67.779	-130.857	-68.041	16.259	-131.932	-125.419	-1.755	-68.860	-127.297	-123.563	-121.166	-115.802	-46.702	-119.362	-8191	255	
21541.393	1	1	0	0	0.097374	0.058794	0.29073	0.27383	0.11762	0.079744	0.33535	0.11952	0.18155	0.10248	0.26704	0.21391	0.084244	0.26684	0.16282	0.1471	-2.5167	-2.0875	-2.9229	-2.7062	-2.4146	-2.9479	-2.4875	-2.6646	-2.8729	-2.3125	-2.8937	-2.7687	-2.35	-3.0625	-2.4229	-2.6417	-77.980	72.127	82.295	-88.804	198.235	183.624	203.318	163.916	-23.702	123.187	185.671	147.773	-55.785	155.633	80.084	126.360	0.00077396	0.00085166	0.00019131	1769.2	4.0981e-06	1.2349e-05	1538.8	522.55	5.1318e-06	5.3223e-06	498.26	164	173.97	65.933	3.973e-06	64.571	0.00087501	0.00088324	0.00024587	1437.8	1.011e-05	9.3821e-06	1262.5	427.48	9.596e-06	9.6137e-06	410.3	135.15	143.43	54.759	9.3894e-06	53.422	131.544	-47.271	-47.848	-131.098	-31.389	7.363	-132.020	-125.214	-20.554	9.246	-127.293	-123.442	-121.054	-115.334	114.466	-119.026	-8191	255	
21541.488	1	1	0	0	0.1493	0.20335	0.10195	0.19313	0.22402	0.1533	0.40274	0.25606	0.17386	0.21874	0.19259	0.47627	0.24057	0.17875	0.11043	0.14967	-2.6042	-2.3625	-2.9604	-2.6917	-2.2521	-3.1354	-2.6167	-2.75	-3.1	-2.2104	-3.2417	-2.7958	-2.3479	-2.9	-2.4313	-2.5083	141.235	94.451	6.327	-105.553	-55.327	-29.466	167.148	127.282	-24.460	83.292	119.938	122.328	0.122	184.083	115.087	156.887	0.00079681	0.00076409	0.00018275	1766	1.0386e-05	5.0932e-06	1558	524.23	7.5925e-06	6.5189e-06	504.53	163.8	173.97	66.493	8.1223e-06	63.966	0.0008993	0.00086179	0.00024594	1441.4	1.0147e-05	9.4411e-06	1270.7	428.16	9.6481e-06	9.1903e-06	411.78	135.15	143.14	54.657	9.4519e-06	52.797	137.776	-98.074	-51.994	-130.914	42.249	-117.098	-131.917	-125.127	-48.877	29.263	-127.711	-123.500	-122.028	-115.612	-5.570	-118.841	-8191	255	
21541.584	1	1	0	0	0.17723	0.3352	0.28411	0.24793	0.14384	0.15529	0.38962	0.37576	0.13282	0.35552	0.033361	0.065648	0.22291	0.094378	0.08144	0.17741	-2.6708	-2.3021	-2.7667	-2.9083	-2.2333	-3.0917	-2.9125	-2.7896	-3.1375	-2.3312	-2.9708	-2.9688	-2.5792	-3.1813	-2.4875	-2.4667	135.033	88.422	138.587	134.933	188.591	103.252	142.717	157.327	-114.309	-127.585	91.440	56.334	153.450	149.869	15.263	115.625	0.00086787	0.00051675	0.00022731	1768.2	1.3364e-05	5.7561e-06	1547.2	518.9	1.011e-05	6.4745e-06	498.18	163.93	172.85	66.111	1.6503e-06	63.511	0.0008705	0.00088449	0.00025254	1438.3	9.769e-06	9.291e-06	1264.4	425.3	9.3832e-06	9.5444e-06	410.2	134.48	142.56	54.442	9.579e-06	52.602	150.776	6.116	-45.441	-130.433	91.349	-4.579	-132.146	-125.349	-36.296	-14.909	-127.295	-123.334	-121.219	-115.386	41.567	-119.071	-8191	255	
21541.680	1	1	0	0	0.17298	0.13228	0.12308	0.1855	0.10623	0.073159	0.25276	0.026514	0.29555	0.20082	0.07262	0.24959	0.077887	0.25678	0.12056	0.29452	-2.7646	-2.4313	-2.7458	-2.9917	-2.3042	-2.9146	-2.9667	-2.3229	-3.2417	-2.4	-2.7875	-2.9771	-2.1875	-3.0875	-2.7708	-2.4917	63.952	87.451	-14.495	-115.619	-96.328	53.524	178.408	-101.423	-34.482	214.729	106.347	74.411	195.778	203.487	156.085	131.463	0.000604	0.0011592	7.9878e-05	1778.1	4.4032e-06	7.1242e-06	1560.2	526.87	5.9225e-06	1.0648e-05	503.02	163.97	174.49	66.212	1.299e-05	64.302	0.00083997	0.00085595	0.00024753	1449.5	9.7176e-06	9.5426e-06	1271.4	429.17	9.2735e-06	9.4629e-06	412.25	134.59	142.69	54.701	9.6433e-06	52.964	126.100	-125.603	-24.068	-130.743	105.598	32.430	-132.062	-125.306	-39.619	39.146	-126.955	-123.701	-121.155	-115.473	-9.262	-119.562	-8191	255	
21541.775	1	1	0	0	0.076951	0.053044	0.10887	0.051631	0.10391	0.068455	0.030326	0.12305	0.25796	0.43211	0.091534	0.12046	0.13741	0.11131	0.21148	0.29031	-2.5	-2.4958	-2.3167	-3.0875	-2.3187	-2.8146	-2.95	-2.475	-2.9646	-2.6312	-2.6729	-2.9167	-2.3458	-2.8167	-2.8167	-2.4833	-90.100	5.144	87.688	115.401	-129.115	144.429	-136.578	150.211	12.140	127.679	24.612	172.193	201.929	-130.408	-3.358	130.937	0.00076125	0.00070949	0.00014486	1758.2	9.2358e-06	2.7989e-06	1564.2	527.21	9.8419e-06	5.8495e-06	501.2	164.63	172.77	66.096	1.5423e-05	64.115	0.00079689	0.00085826	0.00025456	1446	9.3372e-06	9.951e-06	1276.1	429.94	9.3528e-06	9.5106e-06	411.57	134.83	142.47	54.635	1.0147e-05	53.163	159.189	-55.026	-64.314	-130.872	88.606	-15.544	-131.645	-125.144	210.723	88.370	-127.378	-123.302	-121.176	-115.217	-12.951	-118.637	-8191	255	
21541.895	1	1	0	0	0.16622	0.10962	0.12592	0.28743	0.035961	0.09013	0.16756	0.34446	0.16219	0.056986	0.32842	0.034057	0.12514	0.24301	0.17109	0.21881	-2.6125	-2.5042	-2.4479	-3.2125	-2.4938	-2.9813	-3.0958	-2.3729	-2.9708	-2.7208	-2.4458	-3.2583	-2.4479	-2.8438	-3.1229	-2.3688	-131.185	-53.247	61.623	121.840	-42.767	-59.335	139.412	177.751	48.544	78.627	179.736	-41.429	75.677	202.784	-61.838	194.558	0.00091839	0.00045701	0.00029845	1786.9	5.3775e-06	2.9361e-06	1562.1	527.42	4.5969e-06	4.41e-06	503.02	165.21	173.54	65.962	6.5975e-06	63.907	0.00085517	0.00088935	0.00025496	1452.9	9.2673e-06	1.0042e-05	1278.8	428.81	9.4443e-06	9.8287e-06	411.21	134.43	142.61	54.57	9.6563e-06	52.596	145.675	-11.826	-83.633	-131.025	-43.002	-14.100	-131.978	-125.575	-115.107	20.980	-127.798	-123.210	-121.248	-115.688	-21.440	-119.256	-8191	255	
21541.967	1	1	0	0	0.20161	0.12399	0.22515	0.20633	0.12346	0.041911	0.22639	0.35963	0.12018	0.17207	0.3663	0.066148	0.1266	0.20849	0.15725	0.17702	-2.4417	-2.7375	-2.3271	-3.1875	-2.2583	-2.5479	-3.1667	-2.375	-3.0208	-2.7479	-2.4104	-3.1333	-2.4333	-2.5708	-3.0479	-2.5125	214.215	70.775	-130.082	191.551	94.799	-4.956	146.757	-131.414	137.641	58.260	213.779	97.720	159.693	-123.016	119.554	-110.678	0.00085503	0.00049397	0.00035298	1772.4	1.2723e-05	6.5282e-06	1551.6	519.13	1.5729e-05	9.6605e-06	499	163.73	173.25	66.064	1.0697e-05	63.211	0.00086249	0.0009049	0.00024447	1446.3	9.774e-06	1.0067e-05	1270.5	425.51	9.7705e-06	9.4978e-06	409.08	134.2	142.31	54.616	9.4858e-06	52.434	137.889	-22.376	-62.183	-130.960	19.160	49.947	-131.915	-125.549	-44.715	-0.450	-127.186	-123.468	-121.608	-115.483	-60.512	-119.003	-8191	255	
21542.062	1	1	0	0	0.097923	0.13861	0.22815	0.13563	0.24913	0.1122	0.20492	0.26176	0.043195	0.31767	0.1656	0.25606	0.091816	0.10011	0.12002	0.15639	-2.4521	-2.7021	-2.3021	-3.0833	-2.5312	-2.5438	-3.1792	-2.2646	-2.7833	-3.0396	-2.5062	-3.1333	-2.5687	-2.4167	-2.975	-2.3875	-86.325	198.921	115.742	209.508	41.589	-129.317	128.754	174.657	96.327	120.967	194.209	211.609	167.342	-108.388	131.332	89.781	0.00077479	0.00060385	0.000231	1770	1.0874e-05	4.5087e-06	1556	521.26	1.3146e-05	7.1279e-06	498.85	164.54	173.02	66.388	1.0486e-05	63.952	0.0008474	0.00088397	0.00025379	1445.9	9.4488e-06	9.9004e-06	1271.6	428.32	9.8966e-06	9.8392e-06	410.46	134.64	142.49	54.8	9.1961e-06	52.689	140.046	-6.320	-72.695	-130.788	-22.145	-29.294	-131.588	-125.604	-53.065	14.018	-126.944	-123.655	-121.043	-115.348	-32.492	-119.375	-8191	255	
21542.158	1	1	0	0	0.14873	0.10303	0.19324	0.39801	0.02723	0.20532	0.25809	0.26021	0.24516	0.16656	0.34006	0.42428	0.058077	0.1948	0.13245	0.38918	-2.3896	-2.9646	-2.1937	-3.0708	-2.5542	-2.3458	-3.2729	-2.6479	-2.4521	-3.0833	-2.4354	-2.9146	-2.7812	-2.2625	-2.9833	-2.4479	99.965	-104.567	108.840	182.343	116.815	-73.826	179.484	157.696	-30.077	109.322	100.643	208.692	-135.040	41.415	179.462	111.077	0.00075281	0.00059006	0.00029229	1781.3	2.1991e-06	1.1994e-05	1564.2	523.15	2.332e-06	9.3653e-06	499.75	163.46	175.36	66.328	9.6341e-06	64.804	0.000881	0.00091002	0.00024322	1448.5	1.001e-05	9.946e-06	1275.6	427.84	1.0129e-05	9.6964e-06	411.6	135.08	143.47	54.842	9.4575e-06	53.279	140.065	-27.198	-88.299	-131.178	54.489	12.650	-132.052	-125.417	5.632	-13.668	-127.107	-123.330	-121.186	-115.226	-122.277	-119.012	-8191	255	
21542.279	1	1	0	0	0.30932	0.20217	0.20242	0.072548	0.16255	0.21271	0.094863	0.30151	0.25964	0.10779	0.35293	0.10254	0.28061	0.19511	0.094754	0.40215	-2.3021	-2.9125	-2.2833	-3.0146	-2.7729	-2.2417	-3.1646	-2.3958	-2.4313	-2.9854	-2.2604	-2.9667	-2.9896	-2.4854	-2.8521	-2.5021	-26.137	-5.484	105.501	138.369	-6.192	-106.960	-67.169	157.127	-18.199	130.368	91.182	167.491	197.183	215.961	-65.870	-123.948	0.00087379	0.0012873	7.6902e-05	1792.2	7.1498e-06	3.7093e-06	1573.1	529.85	9.3764e-06	9.767e-06	507.25	166.9	176.16	67.52	4.0542e-06	64.404	0.00087262	0.00089109	0.00023696	1461.6	9.6993e-06	9.7471e-06	1286.3	433.35	1.001e-05	9.3515e-06	416.08	137.11	144.54	55.605	9.2324e-06	53.423	150.764	-48.607	-61.104	-131.363	14.609	-23.140	-131.909	-125.524	-51.492	7.166	-127.339	-123.858	-121.446	-115.511	-9.755	-119.238	-8191	255	
21542.377	1	1	0	0	0.067229	0.29729	0.31206	0.16839	0.074145	0.12358	0.37274	0.1891	0.13484	0.10844	0.50852	0.13004	0.25854	0.20974	0.1422	0.2082	-2.0042	-3.0354	-2.25	-3.025	-2.7125	-2.1292	-3.1188	-2.6792	-2.5021	-3.2333	-2.6125	-2.8854	-3.1188	-2.3417	-2.9979	-2.8854	48.338	-32.365	208.584	178.792	95.269	38.239	158.404	196.761	44.626	-110.807	139.955	90.008	184.794	198.628	193.880	149.450	0.00071293	0.0010147	0.00013906	1787.6	9.1036e-06	6.7739e-06	1578.6	524.83	7.7479e-06	1.1359e-05	502.74	164.36	174.86	66.022	1.3828e-05	63.386	0.00091713	0.00086943	0.0002435	1460.8	9.8656e-06	9.5486e-06	1287.8	431.81	9.8922e-06	9.0736e-06	411.99	134.87	143.94	54.76	9.3983e-06	52.604	125.224	-52.256	171.812	-130.825	-34.185	67.972	-132.050	-125.267	-88.252	-23.135	-127.458	-123.526	-121.562	-115.532	-40.923	-119.289	-8191	255	
21542.473	1	1	0	0	0.29731	0.20269	0.63922	0.22663	0.1537	0.27233	0.16002	0.41089	0.18669	0.016788	0.41883	0.22	0.20829	0.14669	0.15996	0.15373	-1.9604	-3.0604	-2.3292	-2.7792	-2.9292	-2.4396	-2.9958	-2.8688	-2.2062	-3.1771	-2.4604	-2.6083	-3.1479	-2.625	-3.0396	-2.9417	198.654	13.991	-33.891	107.141	201.522	-112.274	86.352	146.370	-0.077	137.429	172.218	-93.812	152.215	133.909	10.388	22.084	0.00080784	0.00080146	7.1262e-05	1775.4	6.7171e-06	6.467e-06	1560.5	519.11	8.966e-06	9.9478e-06	493.54	159.76	169.89	64.609	7.9131e-06	62.051	0.00085608	0.00087045	0.00024319	1450.4	9.7582e-06	9.2478e-06	1271.7	424.65	9.1965e-06	9.4227e-06	404.65	131.98	140.06	53.459	9.3661e-06	51.219	152.609	-78.693	165.447	-130.638	-7.783	-19.241	-131.928	-125.575	-70.025	-39.645	-127.137	-123.298	-121.485	-115.405	-100.327	-119.013	-8191	255	
21542.568	1	1	0	0	0.18018	0.14585	0.23249	0.2217	0.18862	0.091699	0.14629	0.40368	0.18353	0.018677	0.19061	0.21035	0.17403	0.074588	0.1536	0.35738	-1.7437	-3.0062	-2.5021	-2.7604	-3.05	-2.2958	-2.7375	-2.9688	-2.3396	-2.75	-2.7062	-2.4354	-3.075	-2.3729	-2.7167	-2.8833	-42.415	64.557	157.166	-140.769	-116.633	-50.760	126.655	135.141	-140.908	-139.710	156.502	160.270	-99.636	176.049	174.081	157.181	0.00072996	0.0006233	0.00019677	1790.6	2.9024e-06	6.5324e-06	1548	518.91	6.5929e-06	2.1129e-05	496.97	161.53	171.65	64.768	6.7437e-06	62.972	0.00083204	0.00086155	0.00024679	1448.6	9.2774e-06	9.4689e-06	1268.3	424.01	9.2371e-06	9.6023e-06	406.72	132.37	140.79	53.819	9.9752e-06	52.158	155.766	-116.644	-127.111	-131.137	-55.535	42.015	-131.831	-125.175	-51.635	62.637	-127.111	-123.633	-121.607	-115.422	-52.713	-118.944	-8191	255	
21542.664	1	1	0	0	0.40836	0.17369	0.27263	0.13032	0.03958	0.043703	0.098995	0.081676	0.11682	0.14757	0.15018	0.14399	0.27638	0.1693	0.12708	0.22	-1.6562	-2.925	-2.5187	-2.3521	-3.0229	-2.3208	-2.9458	-3.1729	-2.1875	-2.9917	-2.6312	-2.5312	-2.925	-2.4083	-2.6792	-2.9479	159.360	184.422	4.311	-113.550	-97.039	9.974	194.174	203.733	121.533	90.556	173.290	-133.501	211.215	-47.409	105.583	169.621	0.00083166	0.0004474	0.00020007	1795.2	1.0413e-05	8.6073e-06	1573.4	533.58	9.4418e-06	5.1481e-06	510.24	168.14	178.58	69.054	6.1568e-06	66.698	0.00085744	0.00086867	0.00025745	1456.5	9.2595e-06	9.3702e-06	1285.6	434.97	9.4163e-06	9.8878e-06	419.37	138.15	147.22	57.02	1.0039e-05	55.203	140.575	-57.865	-51.579	-130.641	10.628	-61.176	-131.878	-125.824	-44.991	-6.002	-127.297	-123.609	-120.989	-115.629	205.392	-119.460	-8191	255	
21542.762	1	1	0	0	0.15363	0.052995	0.08323	0.048056	0.056174	0.18311	0.28236	0.27208	0.15108	0.36544	0.035027	0.24035	0.080394	0.33466	0.2794	0.26948	-1.7292	-2.8917	-2.6417	-2.3312	-3.0563	-2.5604	-2.7125	-3.1646	-2.3438	-2.8063	-2.7854	-2.4083	-3.0083	-2.5187	-2.5833	-2.9521	115.333	5.149	-143.350	123.459	72.382	48.701	184.722	103.917	90.364	187.099	146.917	159.567	-37.364	150.264	103.674	179.582	0.00071967	0.00043684	0.00038783	1815.6	7.2985e-06	9.2177e-06	1605.4	549.95	1.2197e-05	7.2203e-06	526.09	173.21	183.76	71.238	1.5023e-05	68.589	0.00086986	0.00090683	0.00025556	1477.4	9.363e-06	9.8802e-06	1312.7	448.33	9.5343e-06	9.8832e-06	432.16	142.92	151.32	58.821	9.8406e-06	56.852	145.065	-87.519	-31.704	-130.734	24.561	-28.675	-131.783	-125.445	-21.914	72.090	-127.385	-123.328	-120.904	-115.471	-32.497	-119.071	-8191	255	
21542.881	1	1	0	0	0.15917	0.1443	0.14414	0.28468	0.28819	0.055261	0.35208	0.20718	0.0089491	0.082012	0.15804	0.20271	0.13575	0.28995	0.15702	0.072425	-1.7479	-2.8354	-2.6917	-2.45	-2.9813	-2.6417	-2.7042	-3.0938	-2.0583	-2.8375	-3.1354	-2.3917	-3.0417	-2.7375	-2.1625	-3.175	-99.730	73.854	121.899	179.712	168.840	56.983	143.283	168.959	169.967	-30.342	185.309	-125.201	162.366	178.204	-88.953	-13.999	0.0010546	0.0010703	0.00019864	1817.1	3.0034e-06	3.8906e-06	1607.4	548.5	1.0393e-05	8.6864e-06	523.53	172.31	182.66	70.672	9.4388e-06	66.825	0.00087178	0.00087828	0.00025812	1480.2	9.5528e-06	1.0037e-05	1313.3	449.21	9.8437e-06	1.0124e-05	428.4	141.23	149.86	58.271	9.789e-06	55.663	151.177	-51.568	208.871	-130.551	127.621	-69.554	-131.638	-125.408	-93.703	20.740	-127.514	-123.305	-121.014	-115.405	-16.784	-119.118	-8191	255	
21542.977	1	1	0	0	0.16655	0.19997	0.19628	0.24514	0.13688	0.16795	0.29592	0.48541	0.20438	0.23159	0.23112	0.042474	0.15194	0.25518	0.11643	0.19758	-1.8146	-2.6042	-2.9604	-2.3146	-2.9	-2.6521	-2.45	-3.2062	-2.4396	-2.7229	-3.0333	-2.3083	-3.0479	-2.9542	-2.2021	-3.0062	132.345	107.421	-38.006	193.698	55.813	-113.684	145.620	181.554	149.110	-16.606	148.065	79.564	131.940	146.930	76.799	-105.800	0.00093427	0.00075193	0.00026457	1821.3	1.0875e-05	3.7338e-06	1602.2	545.87	1.0136e-05	1.5285e-05	519.92	173.55	182.31	70.014	4.6821e-06	68.021	0.00089398	0.00091446	0.00025168	1484.8	1.0011e-05	1.0305e-05	1309.5	445.6	9.7837e-06	9.9721e-06	427.81	141.23	150.04	58.111	9.7721e-06	56.186	130.093	-105.207	-31.096	-130.770	-47.038	-90.023	-131.706	-125.394	-21.899	-44.734	-127.506	-123.978	-120.649	-115.515	91.038	-118.872	-8191	255	
21543.072	1	1	0	0	0.20766	0.13573	0.14931	0.044911	0.07533	0.21564	0.29804	0.22124	0.040221	0.12726	0.16629	0.19749	0.12779	0.1665	0.14061	0.14475	-1.8292	-2.4354	-2.8896	-2.3146	-2.9333	-2.7708	-2.4208	-3.2208	-2.3312	-2.45	-3.2667	-2.3563	-2.8979	-2.9958	-2.2333	-2.9521	14.403	-4.088	92.408	-134.771	-3.643	-18.053	100.202	216.618	-53.025	82.938	136.176	-132.632	-68.492	-134.475	-6.757	134.932	0.00088711	0.00068647	0.00032564	1821.9	1.1929e-05	6.9203e-06	1611.6	549.78	1.1591e-05	1.4487e-05	522.23	172.28	182.06	70.621	1.5957e-05	67.877	0.00088834	0.00095686	0.00024461	1487.7	1.0322e-05	1.0014e-05	1311	448.24	1.0154e-05	1.0173e-05	427.41	141.35	149.95	57.974	9.7302e-06	56.101	135.721	-41.259	-90.715	-130.593	-14.203	34.348	-131.541	-125.367	-45.436	4.466	-127.870	-123.532	-121.207	-115.837	30.982	-119.278	-8191	255	
21543.193	1	1	0	0	0.16962	0.27143	0.12564	0.15588	0.13489	0.066301	0.22863	0.36996	0.22393	0.086032	0.10341	0.1273	0.20531	0.42133	0.12049	0.25529	-2.0167	-2.3417	-3.1063	-2.4479	-2.8146	-2.8833	-2.4667	-3.0042	-2.6667	-2.3937	-3.1063	-2.4104	-2.7167	-3.0229	-2.4021	-3.175	-7.532	130.450	155.618	-140.703	-116.655	4.435	-71.806	142.544	143.520	-136.261	151.205	-37.435	-120.362	205.043	162.897	178.993	0.0011602	0.002267	4.6274e-05	1829.7	1.9214e-06	1.0427e-05	1607.5	548.6	1.3084e-05	1.1819e-05	521.29	171.3	182.04	69.805	1.7093e-05	67.433	0.00093509	0.0008985	0.00023289	1486.8	1.0371e-05	9.973e-06	1312.7	448.83	9.9838e-06	9.9365e-06	427.23	140.21	149.58	57.765	9.6845e-06	55.713	145.440	-34.989	39.037	-131.020	206.516	-11.384	-131.838	-125.144	-60.914	9.938	-127.369	-123.666	-120.680	-115.789	-29.695	-118.760	-8191	255	
21543.264	1	1	0	0	0.17871	0.11341	0.19224	0.27679	0.10398	0.13379	0.18874	0.16611	0.24637	0.21175	0.35192	0.21773	0.090383	0.36624	0.31025	0.21984	-2.2938	-2.3833	-2.8417	-2.6188	-2.4396	-3.075	-2.4271	-3.0229	-2.6771	-2.2708	-3.1104	-2.3771	-2.5708	-3.2167	-2.2208	-2.9167	6.160	60.956	-59.674	71.431	183.029	-101.492	108.065	41.414	97.086	91.822	171.690	-120.579	192.951	182.316	186.039	83.579	0.00098187	0.00098218	0.00034865	1827.9	5.4855e-06	8.9437e-06	1594.9	543.28	8.861e-06	7.9028e-06	516.51	167.5	179.8	69.028	8.763e-06	66.538	0.00088445	0.00089746	0.00024176	1488.4	9.7072e-06	9.313e-06	1302.5	445.61	9.5324e-06	9.4081e-06	423.04	138.14	148.01	57.316	9.5705e-06	55.164	141.271	-49.997	-13.316	-131.063	-69.952	35.678	-131.879	-125.188	-61.751	-8.534	-127.365	-123.621	-121.094	-115.595	42.192	-118.790	-8191	255	
21543.359	1	1	0	0	0.11078	0.098006	0.15861	0.38063	0.098948	0.083684	0.47277	0.046507	0.19208	0.28966	0.075096	0.25004	0.15618	0.21211	0.068251	0.19232	-2.4083	-2.3937	-2.975	-2.4958	-2.4708	-3.1458	-2.6229	-2.9896	-2.9854	-2.3125	-2.9083	-2.5333	-2.525	-3.2438	-2.2104	-2.7562	-78.315	-120.755	46.494	216.042	-57.267	137.684	123.888	147.676	-108.583	75.461	-131.765	151.620	177.173	125.696	-118.149	183.352	0.0007817	0.0010604	0.00026079	1820.4	5.836e-06	5.0736e-06	1588.7	546.46	6.1019e-06	1.8418e-06	516.69	168.08	180.43	69	5.5333e-06	66.09	0.00085741	0.00088954	0.00025014	1484.9	9.8799e-06	9.3205e-06	1301	446.65	9.9861e-06	9.4739e-06	422.38	137.96	147.97	56.986	9.5705e-06	54.686	158.925	-71.001	204.951	-130.787	11.842	-37.578	-131.608	-125.037	-53.809	6.725	-127.002	-123.341	-120.194	-115.035	-102.633	-119.131	-8191	255	
21543.457	1	1	0	0	0.060993	0.15298	0.13589	0.24323	0.10106	0.31113	0.40673	0.17626	0.10265	0.19421	0.25171	0.24858	0.11844	0.31592	0.21196	0.073897	-2.4354	-2.325	-2.8979	-2.775	-2.4854	-3.0938	-2.625	-3.025	-3.0854	-2.1021	-3.0375	-2.85	-2.2917	-3.1146	-2.2854	-2.7146	136.376	-117.446	192.913	188.966	7.521	72.207	186.767	157.680	5.638	187.475	110.633	123.611	189.191	-130.188	174.668	-56.953	0.00081218	0.00091674	0.00045948	1833.6	9.7404e-06	3.7308e-06	1590.9	543.73	2.2833e-06	7.3718e-06	513.54	166.99	179.63	68.051	7.9562e-06	65.473	0.00085126	0.00085952	0.00025629	1488.4	9.6435e-06	1.0133e-05	1300.5	446.68	9.3368e-06	9.5574e-06	422.81	137.6	147.7	56.341	9.8493e-06	54.244	148.446	-60.752	-71.456	-130.596	-24.123	59.810	-131.980	-124.953	-89.650	48.268	-127.593	-123.515	-120.472	-115.555	-94.219	-118.476	-8191	255	
21543.576	1	1	0	0	0.12367	0.090536	0.1744	0.25236	0.18851	0.17795	0.25919	0.45311	0.15301	0.064607	0.16238	0.051891	0.42244	0.31017	0.027128	0.19883	-2.5292	-2.2479	-2.85	-2.8646	-2.125	-3.1375	-2.6063	-2.8167	-3.0375	-2.1042	-2.9313	-2.9188	-2.2854	-3.3333	-2.5312	-2.5646	123.680	186.145	19.263	162.165	-48.207	-107.840	128.041	163.376	4.023	-70.751	100.253	77.083	-142.147	128.890	194.398	46.185	0.00094175	0.00096277	0.00027465	1836.3	3.9403e-06	5.7576e-06	1592.4	548.47	6.667e-06	2.6553e-06	519.44	167.28	179.97	68.37	6.1104e-06	65.153	0.00083841	0.00088505	0.00025934	1491	9.1974e-06	9.8024e-06	1308.7	448.22	9.259e-06	9.7069e-06	425.23	137.61	147.91	56.272	1.0103e-05	54.016	153.587	-59.982	-51.559	-130.446	93.487	35.655	-131.504	-125.412	-50.467	-95.658	-126.952	-122.852	-120.831	-115.445	-6.631	-118.805	-8191	255	
21543.674	1	1	0	0	0.10026	0.067792	0.27572	0.15449	0.12251	0.142	0.26411	0.47562	0.05032	0.08104	0.19091	0.12176	0.12792	0.13944	0.34859	0.24261	-2.4771	-2.3688	-2.7917	-2.8521	-2.1979	-2.9208	-2.9792	-2.5583	-3.175	-2.4458	-2.7438	-3.0604	-2.4396	-3.175	-2.5812	-2.65	131.833	25.702	-38.998	-114.371	114.925	82.026	156.206	159.297	145.164	120.229	105.643	169.430	54.886	-113.500	132.798	207.218	0.00082476	0.0005955	0.00020572	1839.8	8.8598e-06	9.5646e-06	1602.7	545.75	1.2008e-05	1.3738e-05	515.98	165.1	177.68	67.112	7.8575e-06	64.157	0.00082797	0.00090156	0.00025272	1493	9.8288e-06	9.9264e-06	1307	446.97	9.3203e-06	9.834e-06	422.18	135.67	145.8	55.52	9.6807e-06	52.858	138.460	-20.801	-64.859	-130.745	-25.718	-14.995	-131.658	-125.250	-3.413	16.043	-126.827	-123.515	-120.869	-114.907	45.706	-118.507	-8191	255	
21543.768	1	1	0	0	0.27001	0.13745	0.12146	0.30274	0.028955	0.10613	0.22619	0.28516	0.28718	0.19882	0.29692	0.18442	0.19323	0.28067	0.25315	0.090407	-2.5625	-2.5312	-2.6208	-3.0708	-2.5	-2.8604	-2.8333	-2.5812	-3.0271	-2.5438	-2.6208	-3.1729	-2.2583	-2.8958	-2.6188	-2.2542	-93.428	134.702	-54.014	169.821	-6.163	161.702	182.427	185.079	-112.433	116.138	-132.936	-87.679	51.636	144.797	95.525	-96.144	0.0008454	0.00063552	0.0002446	1822.1	1.0684e-05	8.6086e-06	1601.3	543.91	7.8909e-06	7.8503e-06	506.38	162.15	177.88	66.136	1.1943e-05	63.966	0.00084694	0.00090858	0.00025015	1485.8	9.7162e-06	9.5869e-06	1300.5	443.92	9.5445e-06	9.6157e-06	416.11	133.45	145	54.816	9.7063e-06	52.437	146.103	-113.505	-36.882	-130.445	16.072	34.059	-131.697	-125.032	-87.241	103.028	-126.963	-123.214	-120.554	-115.135	-61.907	-118.610	-8191	255	
21543.842	1	1	0	0	0.3711	0.22428	0.080828	0.069159	0.27718	0.097489	0.16025	0.27123	0.2762	0.2609	0.21424	0.088385	0.29578	0.23766	0.20215	0.30649	-2.7729	-2.4875	-2.4021	-3.0604	-2.3812	-2.8979	-3.2438	-2.4396	-2.9125	-2.3479	-2.5542	-3.2188	-2.3521	-2.8521	-2.7708	-2.2938	163.206	-76.256	99.245	141.398	95.497	-9.997	196.187	131.886	163.425	-131.583	179.400	-123.266	181.696	200.896	-73.661	80.945	0.00073954	0.00088161	0.00029609	1821.2	7.2959e-06	2.735e-06	1591.1	539.53	1.0999e-05	1.0922e-05	503.26	162.63	174.86	65.706	1.548e-05	62.657	0.00085378	0.00092192	0.00024277	1484.2	9.8863e-06	9.9065e-06	1295.3	441.15	9.6783e-06	1.0115e-05	415.14	133.18	144.18	54.392	9.2699e-06	51.946	148.832	-64.013	-61.012	-130.876	102.084	-13.860	-132.004	-124.893	-39.484	15.249	-126.576	-123.108	-121.172	-115.307	-2.395	-118.729	-8191	255	
21543.961	1	1	0	0	0.20294	0.3104	0.06237	0.13078	0.27784	0.10145	0.075455	0.32622	0.24823	0.18141	0.23938	0.1074	0.16441	0.095696	0.17216	0.011467	-2.6063	-2.3021	-2.3521	-3.2562	-2.4313	-2.6833	-3.0687	-2.3396	-2.9771	-2.6188	-2.3396	-3.1063	-2.4521	-2.7958	-2.9625	-2.4708	36.403	65.337	-136.928	150.134	65.645	73.325	113.469	158.667	150.737	132.039	163.408	160.111	173.166	-104.919	-115.312	9.448	0.001067	0.00089662	0.00041238	1835.3	6.4004e-06	5.7767e-06	1588	539.36	1.2054e-05	7.2438e-06	507.81	161.43	176.9	65.766	9.5072e-06	63.499	0.00085262	0.00087688	0.00024278	1490.4	9.9358e-06	9.7244e-06	1293.5	441.63	9.4168e-06	9.5511e-06	414.78	132.77	144.72	54.435	9.0402e-06	52.252	136.364	-51.138	-22.929	-130.672	-34.499	-27.305	-131.656	-125.157	-35.430	28.380	-126.391	-122.617	-120.849	-114.817	5.809	-117.893	-8191	255	
21544.057	1	1	0	0	0.10684	0.1534	0.18766	0.17024	0.23648	0.14099	0.28282	0.2624	0.25085	0.22064	0.064138	0.24641	0.15708	0.14384	0.16327	0.15855	-2.4562	-2.7562	-2.4313	-3.1188	-2.4979	-2.3125	-3.3312	-2.3688	-2.9292	-2.7729	-2.3063	-3.15	-2.6083	-2.5979	-2.9833	-2.3417	-82.620	178.898	-16.293	-74.984	38.327	196.447	123.599	191.642	153.339	114.147	-128.638	-133.851	146.186	194.887	-106.528	142.696	0.00091128	0.00053922	0.00022525	1827.4	8.137e-06	5.5335e-06	1579.3	538.09	5.2567e-06	9.9679e-06	509.67	160.57	173.65	65.834	9.1616e-06	62.492	0.00086406	0.00085839	0.00023767	1483.8	9.9093e-06	9.6167e-06	1289.1	440.32	9.8997e-06	9.1603e-06	413.66	132.15	142.66	54.341	8.9222e-06	51.616	145.417	-18.146	-49.877	-130.017	-6.263	35.403	-131.440	-124.781	-70.094	-9.444	-126.953	-122.881	-120.549	-115.114	-25.294	-118.739	-8191	255	
21544.152	1	1	0	0	0.24702	0.19759	0.10263	0.14186	0.2552	0.27435	0.39396	0.38129	0.082175	0.21889	0.26295	0.15488	0.17861	0.15451	0.17944	0.33168	-2.5146	-2.7521	-2.3479	-3.0646	-2.4313	-2.3604	-3.2104	-2.4896	-2.7562	-2.8063	-2.3167	-3.1312	-2.7292	-2.3708	-3.0583	-2.4896	75.599	110.468	37.463	180.176	145.206	-105.973	-139.404	147.189	-107.445	-42.278	192.791	145.276	-97.809	47.751	-90.824	190.781	0.00088745	0.00059403	0.00034289	1823.3	2.396e-06	1.5622e-05	1567.4	535.19	1.5404e-05	1.7018e-06	505.17	159.74	172.18	65.634	1.024e-05	62.07	0.00088222	0.00087372	0.00024337	1475.3	9.7131e-06	9.2767e-06	1278.6	437.26	9.6781e-06	9.1752e-06	410.24	130.9	142.14	54.095	9.3429e-06	51.478	151.736	-76.030	-41.910	-130.722	36.817	-60.621	-131.156	-124.969	-28.645	-46.072	-126.386	-123.020	-121.339	-114.937	-18.392	-118.707	-8191	255	
21544.273	1	1	0	0	0.18445	0.23435	0.11968	0.15443	0.15477	0.12477	0.13541	0.070092	0.1109	0.19597	0.097337	0.060118	0.15673	0.2307	0.079268	0.20499	-2.3417	-2.9	-2.2667	-2.9833	-2.7	-2.3604	-3.3167	-2.6292	-2.6188	-3.0187	-2.4875	-3.0958	-2.7	-2.4979	-2.9917	-2.525	149.803	-26.028	204.020	37.801	136.510	84.194	164.562	126.266	120.462	90.122	201.435	67.678	195.908	207.472	4.228	-30.679	0.00089773	0.00017992	0.00021902	1807.1	4.4074e-06	6.805e-06	1564.6	536.92	9.5237e-06	7.8606e-06	497.49	158.67	172.32	65.428	2.6214e-05	62.198	0.00086652	0.00085319	0.00025105	1473.1	9.5441e-06	9.2747e-06	1275.5	436.67	9.6135e-06	9.1942e-06	408.05	130.45	141.65	54.015	9.4745e-06	51.516	128.786	6.306	-44.818	-130.648	4.595	-47.290	-131.222	-124.715	-23.155	-1.847	-126.799	-122.707	-120.498	-115.092	-13.687	-118.532	-8191	255	
21544.369	1	1	0	0	0.11897	0.12512	0.24456	0.17922	0.11615	0.21745	0.22386	0.32339	0.086779	0.055956	0.32788	0.10809	0.25756	0.18383	0.1853	0.18221	-2.1854	-2.9938	-2.2229	-2.8271	-3.0167	-2.0938	-3.3458	-2.6896	-2.5062	-2.9542	-2.4229	-2.8271	-3	-2.5958	-2.8792	-2.6813	42.038	-124.159	-71.647	-96.089	-101.968	75.997	174.791	143.163	19.684	193.834	147.235	178.750	194.710	-69.885	-51.995	208.511	0.00067661	0.00056283	0.00024072	1800.3	8.5875e-06	8.274e-06	1559	538.97	1.098e-05	8.6634e-06	501.66	161.52	174.4	65.912	4.6609e-06	62.853	0.00086412	0.00082311	0.00025413	1468.4	9.2554e-06	9.6734e-06	1279.2	439	9.2549e-06	9.3764e-06	410.07	132.12	142.86	54.462	1.0262e-05	52.105	156.949	5.793	-89.686	-130.494	-97.108	-1.846	-131.101	-124.603	-45.330	36.352	-126.920	-123.064	-120.828	-114.648	-59.624	-118.254	-8191	255	
21544.465	1	1	0	0	0.087505	0.10961	0.15268	0.075617	0.25833	0.21494	0.16547	0.38804	0.25497	0.11956	0.22174	0.11807	0.26407	0.22579	0.16828	0.12954	-1.8687	-3.0146	-2.2542	-2.7875	-2.8292	-2.45	-3.225	-2.8646	-2.4062	-3.2062	-2.5854	-2.8146	-2.9229	-2.1875	-2.9521	-2.7167	-41.203	75.742	30.897	36.685	123.626	68.249	147.328	161.470	150.293	-111.587	204.297	157.322	-124.056	134.769	-120.384	29.258	0.00083559	0.0015353	0.00046817	1833.4	7.5595e-06	6.6566e-06	1575.1	538.66	1.5483e-05	7.411e-06	508.21	161.41	175.24	65.608	1.3398e-05	62.664	0.00085647	0.00087241	0.00024353	1484.1	9.2035e-06	9.5856e-06	1286.1	441.17	9.3891e-06	9.8427e-06	415.84	132.65	143.63	54.329	9.8916e-06	51.951	157.233	-53.316	-90.051	-130.264	2.581	37.643	-131.323	-125.099	-48.587	-4.366	-126.539	-123.046	-120.646	-114.763	9.870	-118.431	-8191	255	
21544.561	1	1	0	0	0.16037	0.16936	0.096531	0.2012	0.26453	0.14386	0.24114	0.30271	0.16965	0.10294	0.32484	0.25657	0.057474	0.29131	0.15859	0.29095	-1.9146	-3.1229	-2.4729	-2.5563	-2.8208	-2.2958	-2.9667	-2.8021	-2.325	-2.9854	-2.65	-2.6083	-3.1937	-2.3125	-2.8146	-2.8646	-2.371	182.586	-57.833	212.917	-84.580	41.999	168.145	129.483	18.492	-142.363	95.086	189.049	-94.957	-139.193	89.813	127.025	0.00079344	0.00096936	0.0001528	1817.5	3.1643e-06	2.4785e-06	1564.8	541.7	5.4445e-06	8.8062e-06	504.2	160.86	173.94	64.633	1.6621e-05	62.502	0.00082295	0.00090536	0.00025115	1479.2	9.1393e-06	9.6393e-06	1284.1	440.44	9.1658e-06	9.6452e-06	411.95	131.52	143.48	53.49	9.3639e-06	51.402	152.094	-37.238	111.575	-130.025	-15.623	133.653	-130.892	-124.811	-70.938	18.272	-126.752	-122.718	-120.196	-114.741	42.258	-118.661	-8191	255	
21544.658	1	1	0	0	0.067587	0.23407	0.052442	0.33231	0.25479	0.16861	0.26246	0.62991	0.28985	0.17317	0.13506	0.27065	0.22603	0.12315	0.059589	0.22839	-1.8979	-3.0333	-2.5458	-2.5042	-3.0833	-2.3937	-2.9792	-2.8292	-2.3604	-3.1021	-2.8167	-2.2125	-2.9625	-2.5062	-2.6146	-3.1292	200.348	69.597	157.899	197.692	-115.871	-25.416	152.644	196.673	113.873	-64.232	-99.997	207.635	139.930	143.221	107.368	85.451	0.00098974	0.00068755	0.00023673	1815.2	1.0913e-05	4.7169e-06	1561.9	535.59	1.5608e-06	1.2187e-05	500.52	161.44	174.54	64.358	3.2671e-06	61.562	0.00083484	0.00086768	0.0002459	1475.6	9.3635e-06	9.6188e-06	1275.4	437.47	9.3607e-06	9.5553e-06	410.29	131.74	143.25	53.265	9.5706e-06	50.929	143.582	-108.557	-32.007	-130.405	-21.105	156.777	-131.465	-125.211	154.131	60.644	-126.839	-123.389	-120.709	-115.551	-105.383	-118.412	-8191	255	
21544.752	1	1	0	0	0.37697	0.22295	0.17576	0.30278	0.51398	0.39501	0.14957	0.39087	0.11043	0.043411	0.17255	0.29438	0.40878	0.2951	0.078901	0.10183	-1.7958	-2.7583	-2.3896	-2.4854	-2.9792	-2.3063	-2.8333	-3.1479	-2.1896	-2.9625	-2.8292	-2.3521	-2.8937	-2.2188	-2.5187	-3.1542	-142.958	4.697	122.378	213.708	193.325	28.309	183.879	170.813	-61.670	188.482	204.740	138.175	185.516	168.287	-60.427	-17.915	0.00087466	0.00054206	0.00026662	1788.1	5.3409e-06	8.968e-06	1567.5	534.46	5.637e-06	7.9117e-06	501.66	162.29	176.68	64.6	1.1095e-05	62.651	0.00083369	0.00087181	0.00024012	1469.1	9.3613e-06	9.3108e-06	1281.2	437.04	9.5604e-06	9.4351e-06	410.4	132.56	144.8	53.503	9.3267e-06	51.714	131.190	54.829	-75.801	-130.934	-47.212	-67.912	-131.484	-125.160	-3.168	-54.770	-126.984	-123.156	-121.014	-115.040	-7.442	-118.621	-8191	255	
21544.873	1	1	0	0	0.10394	0.17917	0.27815	0.22005	0.20924	0.1661	0.29656	0.14433	0.1508	0.28112	0.25344	0.089458	0.31706	0.18293	0.18327	0.20842	-1.75	-2.75	-2.7812	-2.3125	-3.0896	-2.5187	-2.6813	-3.0604	-2.1688	-2.9542	-2.7146	-2.3833	-3.1562	-2.575	-2.3354	-3.2146	-9.817	50.734	64.752	-105.979	-136.310	-141.681	132.186	173.842	-16.564	58.978	133.388	-91.361	151.750	184.287	81.258	179.606	0.00095662	0.00068322	0.0001105	1809.5	2.7899e-06	5.5864e-06	1579.6	535.76	5.8012e-06	5.9887e-06	503.47	162.17	175.41	64.933	2.6982e-06	61.941	0.00084853	0.00084202	0.00023457	1476.3	9.4941e-06	9.2918e-06	1288.6	439.19	9.612e-06	9.4296e-06	412.18	132.74	144.38	53.485	8.8538e-06	51.687	148.929	38.055	195.703	-130.286	-103.325	20.232	-131.373	-125.027	-34.966	48.531	-127.153	-123.026	-120.898	-114.781	9.741	-118.636	-8191	255	
21544.969	1	1	0	0	0.33384	0.24796	0.12841	0.10174	0.30146	0.17119	0.33464	0.14325	0.1447	0.059421	0.1986	0.38055	0.10542	0.31671	0.087136	0.25116	-1.8188	-2.6437	-2.8396	-2.2521	-2.9292	-2.5312	-2.4437	-3.1792	-2.1188	-2.625	-3.0938	-2.2729	-2.9625	-2.6688	-2.3312	-3.0521	131.147	-122.338	197.871	-72.949	131.290	162.714	188.530	205.000	35.865	109.177	163.166	181.219	215.620	154.569	-53.544	59.431	0.00063738	0.0011076	0.00016805	1812.9	7.8152e-06	1.1339e-05	1573.2	537.99	9.5925e-06	1.0041e-05	511.01	162.9	176.2	64.556	8.8437e-06	62.848	0.00084413	0.00088358	0.00023532	1478.9	9.4394e-06	9.2324e-06	1283.6	439.91	9.4579e-06	9.2281e-06	414.71	133.19	144.84	53.337	9.2287e-06	52.175	127.912	-18.314	-98.164	-130.524	19.642	8.039	-131.889	-124.821	-18.459	-4.232	-126.882	-122.644	-120.569	-114.885	14.300	-118.745	-8191	255	
21545.064	1	1	0	0	0.078438	0.050814	0.2752	0.46566	0.11672	0.072022	0.15036	0.030085	0.19227	0.084405	0.33736	0.19492	0.17099	0.27355	0.079404	0.19189	-1.9708	-2.4688	-2.7229	-2.375	-2.9917	-2.7021	-2.3854	-3.1562	-2.2771	-2.5125	-3.1604	-2.35	-2.8812	-2.7708	-2.4104	-3.1708	45.303	104.220	-15.853	170.867	94.521	126.177	163.337	-75.009	-0.349	184.389	177.045	164.939	192.422	157.548	-6.863	150.218	0.00075398	0.00063022	0.00027273	1819.5	7.3371e-06	1.2138e-05	1573.8	542.31	9.0843e-06	1.2475e-05	504.53	161.4	175.63	65.188	1.7782e-05	63.345	0.00085482	0.00082212	0.00022532	1487.8	9.5384e-06	9.2953e-06	1286.9	443	9.2742e-06	9.0512e-06	413.94	132.82	145.33	54.076	9.367e-06	52.425	149.470	-21.275	-44.701	-130.472	24.030	8.498	-131.620	-124.865	-33.101	-26.587	-127.258	-123.364	-120.948	-115.309	-19.685	-118.746	-8191	255	
21545.137	1	1	0	0	0.11584	0.1043	0.076865	0.086588	0.27119	0.15324	0.39462	0.33974	0.16125	0.1128	0.18051	0.2706	0.26741	0.16455	0.02829	0.11734	-1.9208	-2.3375	-2.95	-2.35	-2.8688	-2.8354	-2.2875	-2.9854	-2.7	-2.375	-3.1896	-2.3771	-2.8312	-2.9104	-2.0938	-3.0479	-16.471	-105.568	24.328	-41.213	182.843	54.584	129.968	135.723	112.402	121.085	170.061	29.972	162.372	170.699	-111.943	121.992	0.00091069	0.00038491	0.00026349	1839.6	7.124e-06	1.3976e-05	1574.8	541.21	7.3444e-06	1.2815e-05	507.4	161.26	178.57	65.753	8.3313e-06	63.725	0.00083278	0.00079951	0.00023379	1491.1	9.0795e-06	9.2521e-06	1291	442.53	9.251e-06	9.2523e-06	415.53	132.45	145.72	54.613	9.3384e-06	52.876	132.331	-74.188	-120.525	-130.641	-0.754	11.613	-131.588	-124.795	-47.563	-4.062	-127.063	-123.096	-121.062	-115.263	-54.259	-118.982	-8191	255	
21545.232	1	1	0	0	0.26357	0.023085	0.11454	0.13024	0.12789	0.093823	0.43914	0.42234	0.15194	0.17874	0.16223	0.19446	0.29312	0.21587	0.176	0.18065	-2.3104	-2.3667	-3.0854	-2.4833	-2.6979	-2.9875	-2.4375	-3.1208	-2.6562	-2.3187	-3.0208	-2.1312	-2.5708	-3	-2.1396	-2.8583	64.686	214.965	210.219	-68.813	-107.394	47.074	181.299	174.427	101.619	21.673	129.232	155.273	197.039	174.247	196.496	161.531	0.00091681	0.00077627	0.00041676	1836.4	6.5248e-06	9.3017e-06	1584.9	540.22	1.8551e-05	7.912e-06	503.97	161.73	175.79	66.203	9.4229e-06	63.256	0.00082787	0.00083532	0.00024607	1492	9.0204e-06	9.2592e-06	1290.9	442.61	9.2973e-06	8.7579e-06	414.34	132.19	143.88	54.466	9.3581e-06	52.602	152.108	-42.699	-93.007	-130.711	-19.030	34.042	-131.701	-125.240	-55.762	11.073	-127.224	-122.900	-120.793	-115.458	-5.773	-118.786	-8191	255	
21545.354	1	1	0	0	0.12016	0.25233	0.30921	0.44018	0.17693	0.44935	0.2728	0.21984	0.114	0.20615	0.21235	0.12686	0.26582	0.23444	0.050656	0.055135	-2.1167	-2.2708	-3.1042	-2.4542	-2.3979	-2.9938	-2.3979	-3.0333	-2.8937	-2.2438	-3.0229	-2.6021	-2.5917	-2.9479	-2.0062	-2.7896	35.081	173.786	45.995	195.515	2.301	153.052	-100.764	181.425	201.347	60.715	116.210	-132.173	-82.648	136.241	-134.765	165.824	0.00091434	0.00048798	0.00037612	1826.9	1.1134e-05	9.1604e-06	1593.7	541.88	1.2483e-05	9.1905e-06	501.06	158.64	173.49	64.391	9.5203e-06	62.527	0.00082341	0.00084594	0.00024188	1485.1	8.8891e-06	9.2469e-06	1295.4	442.5	8.9361e-06	9.5977e-06	410.46	130.36	142.62	53.373	9.391e-06	51.636	142.778	-132.211	-33.338	-130.839	-31.650	-17.552	-131.750	-125.024	-48.451	51.736	-126.751	-122.674	-120.770	-114.850	-59.300	-118.562	-8191	255	
21545.449	1	1	0	0	0.086798	0.21009	0.068686	0.41204	0.059764	0.088315	0.16555	0.32898	0.11702	0.18166	0.29182	0.1855	0.23412	0.21646	0.083121	0.1619	-2.4771	-2.1583	-2.9396	-2.6771	-2.4042	-2.9083	-2.4625	-2.8333	-2.8042	-2.2646	-2.9271	-2.7188	-2.3021	-2.9896	-2.3354	-2.5979	27.389	135.255	194.568	173.959	30.218	93.206	92.368	191.037	-139.666	108.029	-140.764	201.929	-65.854	181.588	105.542	-45.177	0.00093591	0.00068375	0.0002848	1820.7	6.4435e-06	5.8308e-06	1564.5	530.4	5.1508e-06	9.8912e-06	491.08	156.07	171.07	63.979	1.3921e-05	61.175	0.00079066	0.00084518	0.00023542	1481.8	9.243e-06	9.3166e-06	1278	434.57	9.0658e-06	9.7527e-06	404.85	127.99	140.98	52.785	9.6329e-06	50.705	147.377	-73.807	-23.435	-130.366	11.126	-37.753	-131.348	-124.920	-33.408	21.996	-127.342	-123.121	-120.942	-115.075	-31.977	-118.314	-8191	255	
21545.547	1	1	0	0	0.20515	0.06863	0.16449	0.16165	0.30236	0.21073	0.36626	0.36252	0.070973	0.20675	0.31543	0.28946	0.18817	0.10137	0.25702	0.10699	-2.3708	-1.9792	-2.6708	-2.6708	-2.1562	-3.0792	-2.675	-2.6813	-2.9833	-2.1625	-2.8354	-2.675	-2.2687	-3.1042	-2.4062	-2.5021	131.296	143.507	-85.356	9.627	215.527	-111.861	142.253	147.255	25.758	-12.107	173.185	134.201	178.179	148.788	27.517	153.548	0.00071938	0.00074189	0.00021393	1813.2	9.1494e-06	2.2719e-06	1573.6	537.23	8.7269e-06	5.1505e-06	504.39	159.87	174.8	65.117	6.2414e-06	63.768	0.00081867	0.00089467	0.00024003	1476.5	9.2768e-06	9.6598e-06	1287.3	438.74	9.2281e-06	9.6092e-06	411.51	131.21	144.05	53.789	9.5874e-06	52.373	149.808	-100.343	-58.829	-130.654	-16.348	182.210	-131.215	-124.733	-65.146	-108.749	-126.809	-123.143	-121.189	-114.660	-12.995	-118.324	-8191	255	
21545.664	1	1	0	0	0.076117	0.1917	0.26474	0.1985	0.19878	0.11164	0.26934	0.25272	0.12272	0.10544	0.13816	0.11383	0.1528	0.081952	0.46672	0.3125	-2.6437	-2.1625	-2.5604	-2.8187	-2.05	-3.0854	-2.6875	-2.7562	-3.0958	-2.2562	-3.0333	-2.8708	-2.3438	-3.1042	-2.4729	-2.3625	-134.193	11.344	83.337	165.599	114.725	135.060	141.417	158.379	-65.970	182.156	205.902	193.540	-68.172	110.285	-142.189	137.766	0.000785	0.0012556	0.0003634	1828.5	6.6088e-06	6.3656e-06	1589	548.41	1.2682e-05	1.0847e-05	511.61	163.87	180.6	65.844	1.1833e-05	64.402	0.00085609	0.00089842	0.00024014	1485	9.8753e-06	9.7423e-06	1296.3	446.39	9.5749e-06	9.7061e-06	420.36	135.42	148.55	54.557	9.6499e-06	53.556	141.980	-66.813	-46.068	-130.308	-60.245	-18.468	-131.657	-124.632	-8.302	-42.008	-126.713	-123.242	-120.733	-114.466	-24.322	-118.586	-8191	255	
21545.738	1	1	0	0	0.15407	0.13054	0.096423	0.079715	0.26152	0.11657	0.20778	0.31631	0.10081	0.1136	0.23431	0.1871	0.12515	0.28857	0.25128	0.025443	-2.4917	-2.3146	-2.8187	-2.9875	-2.1396	-2.9	-2.7562	-2.5542	-3.1479	-2.4479	-2.5792	-2.9813	-2.0833	-2.8542	-2.4917	-2.2687	138.067	20.266	-115.598	97.584	165.937	134.643	140.003	112.805	102.836	162.549	-120.433	169.160	-128.897	201.514	169.949	84.949	0.00079503	0.00032665	0.00024161	1845.3	1.0855e-05	1.2567e-05	1601.3	553.95	9.98e-06	1.3192e-05	527.52	171.38	186.81	66.732	4.0785e-06	67.341	0.00086996	0.00091301	0.00024325	1498.2	1.0007e-05	9.9989e-06	1311.2	453.78	9.7249e-06	9.6387e-06	431.97	140.43	153.21	55.246	9.4244e-06	55.281	138.139	2.742	-10.240	-130.764	11.361	-67.123	-131.657	-124.807	-7.448	27.558	-126.603	-122.931	-121.072	-114.582	-76.395	-118.022	-8191	255	
21545.834	1	1	0	0	0.16598	0.13195	0.11259	0.14749	0.062651	0.041898	0.24908	0.37703	0.16759	0.1768	0.17081	0.13741	0.10793	0.25358	0.086194	0.14005	-2.6333	-2.375	-2.3583	-2.9729	-2.0625	-2.8896	-3.075	-2.4896	-2.9125	-2.375	-2.425	-2.8458	-2.2271	-2.8479	-2.6063	-2.3563	40.699	-40.873	-59.019	129.559	49.995	-79.410	164.787	175.713	80.860	-86.719	217.085	-133.621	127.931	-138.165	-113.343	198.626	0.0010818	0.00041291	0.0003071	1846.8	8.9129e-06	5.3017e-06	1633.8	564.96	6.7504e-06	1.085e-05	531.03	173.55	186.54	67.061	1.5189e-05	67.511	0.00087547	0.0008874	0.00024118	1504	1.0051e-05	9.8657e-06	1325	462.41	9.6974e-06	9.4983e-06	433.44	141.78	153.86	55.433	9.2925e-06	55.654	128.656	-79.895	-78.746	-130.294	0.795	8.871	-131.307	-124.738	-58.682	54.395	-126.645	-123.047	-120.678	-114.839	2.905	-118.504	-8191	255	
21545.953	1	1	0	0	0.13361	0.26067	0.18538	0.20954	0.27049	0.19961	0.13269	0.069918	0.21654	0.041394	0.40659	0.10356	0.51752	0.092916	0.064871	0.084093	-2.55	-2.4062	-2.3167	-3.1	-2.2229	-2.7687	-2.7708	-2.3354	-2.8917	-2.3729	-2.3146	-2.9938	-2.3083	-2.8375	-2.8458	-2.35	216.878	-90.088	204.214	-141.833	-20.089	94.521	191.384	191.260	47.698	-115.770	174.456	-101.581	195.463	136.122	203.505	186.390	0.00094749	0.0009039	0.00016421	1851.6	7.3542e-06	5.777e-06	1624.4	567.63	1.2571e-05	4.5163e-06	531	173.82	188.71	67.096	1.0723e-05	67.62	0.00086371	0.00083111	0.0002423	1509.3	9.3273e-06	9.4694e-06	1323.9	463.91	9.3661e-06	8.9925e-06	435.17	142.47	155.19	55.488	9.2333e-06	55.898	143.969	-71.726	-98.674	-130.422	-52.542	34.858	-131.510	-124.999	-48.525	-25.489	-126.921	-123.265	-121.053	-114.362	5.287	-118.354	-8191	255	
21546.049	1	1	0	0	0.051838	0.17783	0.25515	0.11496	0.14035	0.060385	0.32895	0.26532	0.1475	0.11294	0.2699	0.077594	0.22377	0.43735	0.056574	0.1156	-2.4979	-2.4062	-2.2188	-2.9333	-2.225	-2.4875	-3.05	-2.3708	-2.7417	-2.5458	-2.1771	-2.8875	-2.3083	-2.4354	-2.9479	-2.2854	-15.041	138.036	-76.789	167.769	177.350	80.839	164.594	200.070	70.788	161.813	175.395	-125.301	165.730	190.660	-19.602	17.439	0.00074504	0.00039031	0.00045609	1868.5	1.4961e-05	1.7532e-05	1634.9	579.29	1.2517e-05	1.1786e-05	538.58	177.29	193.37	68.322	1.5397e-05	68.723	0.00084185	0.00082789	0.00023976	1514.8	9.3632e-06	9.2123e-06	1335	471.74	9.5022e-06	9.2682e-06	442.1	145.33	158.48	56.562	9.2435e-06	56.962	127.064	-84.878	-81.086	-130.398	11.145	-22.334	-131.087	-124.881	-76.560	16.411	-126.405	-123.241	-121.365	-114.989	-39.535	-118.277	-8191	255	
21546.145	1	1	0	0	0.35711	0.195	0.041284	0.25267	0.1115	0.10604	0.19272	0.59699	0.23203	0.30321	0.091006	0.15499	0.18544	0.32675	0.26218	0.10402	-2.2542	-2.6146	-2.2458	-3.0854	-2.3354	-2.3896	-3.1708	-2.4083	-2.6417	-2.8083	-2.5333	-3.0104	-2.5271	-2.4896	-3.0708	-2.3958	56.110	28.528	208.324	114.069	-121.698	166.787	201.912	157.077	-43.485	46.408	101.161	194.696	189.732	152.446	48.085	172.382	0.00086747	0.0010368	0.00016625	1872.7	8.6465e-06	1.2097e-05	1632	575.88	7.7802e-06	6.6165e-06	544.27	176.57	189.87	67.3	1.1174e-05	68.471	0.00080979	0.00082208	0.00024722	1516.8	9.1735e-06	8.8206e-06	1336.8	472.78	8.9923e-06	9.322e-06	444.07	144.87	157.16	55.836	9.397e-06	56.665	144.385	-24.131	-26.349	-130.288	2.885	-31.976	-131.292	-124.909	-126.421	28.920	-126.707	-123.243	-120.613	-114.350	34.020	-118.720	-8191	255	
21546.240	1	1	0	0	0.20259	0.08569	0.17659	0.25071	0.1563	0.095506	0.15525	0.045997	0.11073	0.29841	0.13795	0.32523	0.17228	0.25974	0.10737	0.27579	-2.3	-2.8208	-2.2917	-3.0146	-2.2958	-2.3271	-3.0917	-2.3583	-2.5167	-2.825	-2.35	-3.0417	-2.6292	-2.3708	-2.9417	-2.4167	30.118	70.960	74.475	-129.610	-125.121	0.107	203.787	108.096	1.363	-107.203	159.996	191.635	181.768	186.897	-28.720	195.400	0.0010461	0.00068717	0.00012294	1869.7	3.4922e-06	1.1916e-05	1635.4	572.76	6.457e-06	1.7657e-06	534.36	173.61	187.16	66.726	1.137e-05	67.19	0.00084675	0.00085789	0.00024306	1520.2	8.9569e-06	9.5894e-06	1337.4	469.69	8.977e-06	9.1019e-06	438.14	142.43	155.15	55.274	9.4335e-06	55.432	145.674	-20.200	-115.013	-130.202	-91.086	24.955	-131.007	-124.789	13.431	178.569	-126.904	-122.942	-120.513	-114.715	-45.412	-118.767	-8191	255	
21546.361	1	1	0	0	0.16258	0.17719	0.19308	0.24933	0.18392	0.13224	0.13945	0.1634	0.066819	0.17112	0.37933	0.11587	0.22625	0.30942	0.043847	0.1917	-2.0292	-2.8646	-2.1417	-2.6396	-2.6063	-2.3812	-2.9854	-2.5625	-2.4938	-2.8917	-2.2583	-2.85	-2.775	-2.1771	-2.8375	-2.5563	-23.702	-54.519	-93.688	165.805	204.717	138.324	195.613	174.249	135.934	-66.830	193.063	193.698	-112.769	202.464	-8.993	200.410	0.00079736	0.00078825	0.00038286	1857.8	5.015e-06	1.3815e-05	1603.7	564.55	1.5273e-05	7.5983e-06	523.58	167.54	183.83	66.231	9.6991e-06	65.666	0.00078521	0.00085897	0.00024137	1513.5	8.7951e-06	9.6486e-06	1311.9	463.47	8.9377e-06	9.2572e-06	429.1	139.03	152.17	54.884	9.3916e-06	54.409	150.087	-54.702	-65.767	-130.535	92.824	-36.997	-131.302	-124.803	-53.234	14.861	-126.363	-122.812	-120.550	-114.451	-33.642	-118.536	-8191	255	
21546.434	1	1	0	0	0.094152	0.08431	0.2069	0.25207	0.10062	0.031698	0.14242	0.34835	0.13581	0.26695	0.40663	0.25556	0.11516	0.07384	0.13404	0.061733	-2.275	-2.9667	-2.3187	-2.7521	-2.8104	-2.0812	-3.1104	-2.6625	-2.4104	-2.9208	-2.1896	-2.7646	-2.8771	-2.1479	-2.8229	-2.5958	96.335	-98.333	147.641	-138.936	73.274	36.640	215.693	148.294	213.106	-34.121	188.026	178.810	4.354	-120.761	-80.522	159.304	0.00077881	0.00083775	0.00025257	1854.1	3.8598e-06	1.3901e-05	1612.7	560.38	1.0298e-05	9.5451e-06	514.4	166.28	182.62	64.793	8.2703e-06	65.013	0.00082263	0.00086525	0.00025372	1504.9	9.0667e-06	9.7007e-06	1314.9	458.13	9.6805e-06	9.2628e-06	422.84	136.76	150.43	53.565	9.1644e-06	53.649	141.561	-32.250	-94.208	-130.804	33.019	11.958	-131.672	-125.167	-59.455	-6.011	-126.774	-123.170	-121.001	-114.662	76.547	-118.668	-8191	255	
21546.555	1	1	0	0	0.15906	0.40037	0.24715	0.23774	0.3354	0.12028	0.13751	0.25714	0.1751	0.17444	0.26843	0.36378	0.14494	0.12931	0.12046	0.075967	-1.9104	-2.7542	-2.0542	-2.4979	-2.7875	-2.2792	-3.0479	-2.7042	-2.1979	-3.0708	-2.4521	-2.6625	-2.9667	-2.3229	-2.9688	-2.675	29.164	85.870	82.235	184.939	133.984	135.185	-86.731	192.219	97.992	-141.601	191.076	209.360	67.200	111.880	-62.218	-140.696	0.00094118	0.00038288	0.00039159	1843.2	5.233e-06	8.6716e-06	1604.2	560.26	6.9716e-06	9.7535e-06	518.7	165.34	181.28	65.042	1.0125e-05	64.883	0.0008311	0.00085784	0.00023426	1498.9	9.2263e-06	9.3357e-06	1307.5	456.02	9.5063e-06	9.5663e-06	425.15	135.63	149.28	53.573	9.1369e-06	53.594	144.903	-5.738	-77.896	-130.740	-18.323	-8.947	-131.198	-125.284	-1.859	-17.886	-126.493	-122.679	-120.639	-114.536	-25.499	-118.026	-8191	255	
21546.648	1	1	0	0	0.19051	0.094203	0.13063	0.19754	0.090611	0.092471	0.22385	0.10352	0.19	0.25672	0.17778	0.078088	0.2931	0.069518	0.097093	0.2311	-1.9125	-3.025	-2.4083	-2.6188	-2.9917	-2.1708	-2.975	-2.9375	-2.3167	-3.1333	-2.6146	-2.5354	-3.0938	-2.4146	-2.6375	-2.8125	198.349	-92.933	26.070	163.530	90.280	188.312	129.923	163.460	30.480	92.695	129.617	178.178	151.985	97.591	-105.617	129.278	0.00089485	0.00062994	0.00021931	1846.5	2.343e-06	9.2293e-06	1601.4	558.23	1.059e-05	2.9916e-06	515.92	164.71	182.75	64.937	3.1924e-06	64.581	0.00084305	0.00084376	0.0002319	1502.4	9.6037e-06	9.1206e-06	1311	455.49	9.3058e-06	9.4221e-06	422.86	135.85	150.1	53.334	8.5021e-06	53.18	139.972	-94.717	-79.865	-130.314	-45.539	-19.377	-131.228	-125.046	-33.424	25.366	-126.193	-122.727	-120.711	-114.578	5.147	-118.334	-8191	255	
21546.744	1	1	0	0	0.1966	0.16759	0.089807	0.19048	0.31397	0.18035	0.2977	0.33497	0.26289	0.18026	0.25429	0.30906	0.43245	0.046003	0.14968	0.055062	-1.7208	-2.8125	-2.3479	-2.3667	-2.7771	-2.1208	-2.8146	-2.9875	-2.2396	-2.7979	-2.6521	-2.4646	-3.0229	-2.4292	-2.8208	-2.8937	-120.589	-41.387	18.428	167.662	-35.041	164.361	165.392	203.700	-138.120	70.107	177.083	196.036	185.857	-113.216	101.129	199.599	0.00074191	0.001319	0.00013342	1842.1	1.2486e-05	1.0231e-05	1601.8	557.72	5.5041e-06	1.6279e-05	516.2	166.97	181.89	64.516	5.2433e-06	63.531	0.00083693	0.0008274	0.00022072	1503.2	9.5216e-06	8.9069e-06	1308.6	456.39	9.6596e-06	8.8364e-06	422.31	137.12	150.27	53.154	8.7127e-06	52.77	152.118	-45.310	-109.190	-130.423	9.832	9.001	-131.056	-124.750	-17.537	-6.116	-126.605	-122.898	-120.938	-115.177	-61.782	-118.790	-8191	255	
21546.842	1	1	0	0	0.092237	0.33043	0.11915	0.24921	0.075901	0.3233	0.4587	0.12784	0.28972	0.12553	0.30426	0.088998	0.11193	0.46195	0.30075	0.50087	-1.7563	-2.7479	-2.4833	-2.4583	-2.9062	-2.3479	-2.5729	-3.1708	-2.2313	-2.7271	-2.7625	-2.2687	-3.1375	-2.4813	-2.3646	-3.325	165.412	-100.951	-39.032	-109.507	101.685	-141.854	167.055	70.007	94.819	215.850	122.277	213.860	176.043	-142.397	134.534	178.840	0.0010347	0.00066386	6.2527e-05	1840.4	9.2929e-06	6.0537e-06	1601.6	562.19	6.9157e-06	7.7714e-06	517.85	167.11	183.41	63.475	7.9615e-06	63.491	0.0008414	0.00084112	0.00022051	1502.3	9.1596e-06	8.5661e-06	1307.5	457.84	9.4395e-06	8.5639e-06	422.64	136.81	150.39	52.438	8.7941e-06	52.421	147.432	10.169	26.014	-130.529	-12.989	64.510	-132.019	-125.737	-11.616	59.847	-127.711	-123.650	-121.930	-115.611	35.214	-119.168	-8191	255	
21546.963	1	1	0	0	0.20612	0.17065	0.15462	0.43094	0.28265	0.15403	0.12843	0.14876	0.091587	0.038697	0.2449	0.19118	0.10859	0.30189	0.08999	0.098389	-1.9188	-2.7583	-2.7146	-2.3646	-3.0104	-2.3667	-2.5292	-3.2958	-2.2229	-2.6292	-2.9646	-2.2875	-3.1146	-2.6646	-2.4542	-2.9979	-137.918	205.264	-128.863	-121.425	82.622	36.883	209.597	199.941	89.393	198.234	170.979	-136.363	200.767	175.507	2.202	-26.485	0.0009343	0.00058546	0.00016668	1848.5	2.0675e-06	7.9605e-06	1603.7	557.27	4.6784e-06	1.5512e-05	517.89	167.85	182.58	63.657	8.9655e-06	63.128	0.00082908	0.00079683	0.00022243	1509	9.1069e-06	8.5737e-06	1311.4	455.42	9.2153e-06	8.7581e-06	423.65	137.44	150.45	52.282	8.9877e-06	52.231	152.592	-23.891	-107.775	-130.752	-34.422	-34.873	-131.786	-125.400	-8.225	36.594	-127.181	-123.574	-121.731	-115.923	-37.016	-118.845	-8191	255	
21547.033	1	1	0	0	0.24976	0.1996	0.19905	0.1132	0.19642	0.21466	0.36477	0.077527	0.11517	0.12098	0.090154	0.17859	0.21363	0.32804	0.10795	0.30661	-1.6958	-2.5583	-2.8438	-2.3375	-2.9	-2.6167	-2.55	-3.1708	-2.2667	-2.675	-3.0708	-2.2958	-3.0146	-2.7333	-2.3187	-3.1479	206.108	198.295	74.134	204.921	-55.734	81.306	171.694	162.803	64.749	-49.247	-142.937	-131.458	-109.412	-123.951	10.854	110.308	0.00051848	0.0010732	0.00036645	1864.7	1.1065e-05	4.8281e-06	1614.4	560.67	3.0673e-06	7.1705e-06	517.39	169.2	183.73	63.515	9.7343e-06	63.397	0.00079799	0.00081101	0.00023577	1513.4	8.6444e-06	8.6523e-06	1320.1	458.2	9.1578e-06	9.0702e-06	423.91	138.89	151.2	52.594	9.251e-06	52.793	144.255	-36.660	-51.217	-131.261	0.334	23.077	-131.669	-125.652	26.640	-35.779	-127.002	-123.673	-121.513	-115.648	56.139	-119.450	-8191	255	
21547.129	1	1	0	0	0.1336	0.079048	0.19096	0.16118	0.16577	0.10082	0.053423	0.2962	0.17204	0.065754	0.25012	0.32472	0.055988	0.058327	0.034355	0.43914	-1.8917	-2.5479	-3.0938	-2.4396	-2.8833	-2.7542	-2.3979	-3.1854	-2.5896	-2.5708	-3.0687	-2.3104	-2.8812	-2.9083	-2.0479	-3.1188	214.385	148.580	-113.071	114.294	-100.463	-32.193	56.035	192.845	200.524	161.927	112.873	-143.597	166.008	-127.759	195.155	173.625	0.0010669	0.0012686	0.00037765	1875.1	5.5816e-06	3.2846e-06	1613.9	561.28	1.0243e-05	9.382e-06	518.2	166.73	183.39	63.466	9.255e-06	63.54	0.00080266	0.00084458	0.00022577	1515.8	8.8095e-06	8.8421e-06	1316.1	459.06	8.8426e-06	9.2117e-06	425.18	137.45	151.7	52.509	9.2395e-06	52.495	162.851	-40.316	-120.651	-130.629	30.373	81.044	-131.726	-125.649	-61.942	-25.423	-127.013	-123.692	-121.402	-115.503	-18.908	-119.286	-8191	255	
21547.227	1	1	0	0	0.12379	0.37385	0.059988	0.20873	0.22308	0.34972	0.17534	0.13714	0.11528	0.15078	0.31523	0.18219	0.24944	0.12089	0.23133	0.33521	-1.9958	-2.3354	-3.0604	-2.2708	-2.7125	-3.0354	-2.3792	-3.2083	-2.6229	-2.4292	-3.2313	-2.4271	-2.6521	-2.9979	-2.3083	-3.0563	-27.912	-112.278	69.383	179.590	-54.525	92.312	180.663	150.503	-35.310	-116.898	121.031	38.977	192.791	133.395	144.075	22.336	0.00076425	0.00082611	0.00018253	1856.1	4.8804e-06	1.4232e-06	1611.9	560.2	1.5193e-05	2.5101e-06	517.76	167.45	184.83	63.009	7.7429e-06	63.47	0.00079608	0.00083132	0.00023716	1510.1	8.811e-06	8.8478e-06	1313.7	457.53	8.7531e-06	9.2764e-06	424.67	137.34	151.52	52.184	9.585e-06	52.228	153.914	-44.434	-57.057	-131.024	-66.237	-67.638	-131.576	-125.711	10.777	-132.572	-127.410	-123.947	-121.262	-115.303	-64.776	-118.775	-8191	255	
21547.322	1	1	0	0	0.10039	0.27784	0.066633	0.40102	0.15744	0.078972	0.35895	0.19685	0.16769	0.099142	0.22846	0.12878	0.097337	0.18465	0.15312	0.18409	-2.3688	-2.4542	-3.1229	-2.3521	-2.5438	-3.0042	-2.5333	-3.15	-2.7646	-2.4583	-3.1125	-2.6542	-2.6937	-2.8688	-2.1688	-2.9875	207.936	-93.811	54.118	127.280	-66.526	60.220	100.732	125.697	-126.593	160.816	-113.620	-90.965	-125.759	-111.586	-57.584	94.065	0.00079912	0.00028028	0.00016148	1872.6	8.862e-06	4.4184e-06	1596.4	562.48	8.5522e-06	1.1962e-05	524.15	169.07	185.25	63.619	1.5404e-05	63.628	0.00081228	0.00084085	0.00023273	1511.3	8.8704e-06	9.164e-06	1312	458.6	8.776e-06	9.2499e-06	426.85	138.51	151.97	52.574	9.0837e-06	52.686	146.376	42.004	-7.917	-131.161	-16.977	-108.227	-131.997	-125.354	-7.532	-5.896	-127.563	-123.563	-121.937	-115.277	3.827	-119.184	-8191	255	
21547.441	1	1	0	0	0.017038	0.19301	0.13809	0.17649	0.054635	0.082735	0.046419	0.33633	0.049582	0.017991	0.075353	0.080229	0.12106	0.2271	0.2392	0.34644	-2.3375	-2.1688	-2.9354	-2.5854	-2.7104	-2.9396	-2.5062	-3.0604	-2.7833	-2.1729	-2.9979	-2.5792	-2.5625	-3.0896	-2.2083	-2.7188	60.011	-112.179	189.080	44.548	168.532	87.150	205.446	184.128	-110.028	-53.815	155.369	115.855	-82.307	172.378	-0.668	68.936	0.00085055	0.00099546	0.00028381	1859	5.4253e-06	1.1111e-05	1620.7	565.35	1.0653e-05	1.531e-05	529.43	170.26	186.24	64.667	1.131e-05	65.132	0.00080863	0.0008873	0.00023459	1515.4	8.9317e-06	9.0767e-06	1320.6	462.09	8.9364e-06	9.3928e-06	432.71	140.19	153.26	53.378	8.8418e-06	53.771	137.631	-88.102	-61.321	-130.515	-21.455	-46.186	-131.663	-125.358	-42.764	19.206	-127.045	-123.445	-121.483	-115.686	-50.565	-118.862	-8191	255	
21547.539	1	1	0	0	0.31111	0.04815	0.011618	0.14629	0.23536	0.17912	0.10569	0.36806	0.31407	0.13339	0.18739	0.13276	0.14308	0.10374	0.21415	0.20321	-2.5729	-2.1354	-3.0854	-2.7208	-2.4292	-2.9896	-2.6562	-2.8229	-2.9313	-2.3688	-3.0479	-2.6729	-2.475	-3.2521	-2.4896	-2.5604	104.180	-139.663	18.395	153.456	-49.335	73.820	140.167	191.445	202.002	0.934	148.724	173.351	-51.994	-93.020	2.526	84.853	0.00082095	0.00040099	0.00026708	1859.4	8.1051e-06	8.009e-06	1640.3	574.16	8.9191e-06	1.4726e-05	534.32	171.25	187	65.339	1.3399e-05	65.37	0.00083773	0.00087948	0.00021777	1519.2	9.5627e-06	9.3305e-06	1337.4	466.69	9.4665e-06	9.4346e-06	436.12	140.72	153.98	53.916	8.9783e-06	54.024	144.762	-20.597	-95.351	-130.786	2.406	-29.444	-131.873	-125.457	-73.691	29.232	-126.965	-123.398	-121.118	-115.511	12.000	-118.943	-8191	255	
21547.635	1	1	0	0	0.17347	0.1017	0.085678	0.24959	0.30145	0.1807	0.18924	0.49748	0.075326	0.090606	0.23607	0.044693	0.2194	0.45713	0.18549	0.10455	-2.6708	-2.1729	-2.8042	-2.7833	-2.2479	-2.9792	-2.4896	-2.675	-2.8625	-2.2188	-2.9813	-2.8125	-2.3208	-3.3396	-2.4542	-2.4313	47.178	10.538	-24.406	169.936	-24.094	-105.709	186.148	163.405	158.409	-81.727	128.626	-53.113	145.782	174.536	186.111	164.749	0.00092882	0.00083789	0.00021244	1865.2	8.0673e-06	1.5513e-05	1621.4	568.7	5.2564e-06	8.5134e-06	530.62	169.8	186.23	64.651	3.2213e-06	64.405	0.00084577	0.00084408	0.00022887	1517.1	9.3988e-06	9.3532e-06	1325.5	464.15	9.3918e-06	8.8967e-06	433.06	139.6	152.9	53.566	9.1338e-06	53.69	157.635	-47.270	-77.986	-130.579	-2.738	41.183	-131.756	-125.215	-90.898	-12.568	-127.158	-123.538	-121.522	-115.065	31.293	-118.941	-8191	255	
21547.730	1	1	0	0	0.12981	0.017314	0.29965	0.19259	0.19254	0.10409	0.043704	0.3607	0.059121	0.10605	0.18039	0.31063	0.2801	0.062343	0.251	0.12697	-2.5375	-2.3958	-2.8229	-2.8479	-2.2583	-2.9083	-2.55	-2.7083	-3.1083	-2.3396	-2.7875	-3.0708	-2.2833	-3.0292	-2.6146	-2.4854	-128.346	79.295	22.899	-100.892	216.336	17.500	-83.493	178.212	167.788	-142.545	-117.354	196.543	138.104	183.257	171.954	183.956	0.0008803	0.00029808	0.00021245	1857.7	9.7531e-06	5.8117e-06	1607.3	565.68	4.3546e-06	7.6768e-06	524.39	168.5	184.82	64.571	8.8884e-06	64.313	0.00086439	0.00083191	0.00023449	1514	9.5175e-06	9.089e-06	1321.1	461.46	9.2962e-06	9.0004e-06	429.27	138.29	151.6	53.484	9.1557e-06	53.219	143.555	-103.312	-95.065	-131.117	59.878	46.230	-131.759	-125.333	-37.095	-7.645	-127.167	-123.444	-121.636	-114.952	-71.745	-118.856	-8191	255	
21547.824	1	1	0	0	0.3196	0.23474	0.27146	0.16479	0.02541	0.25217	0.091093	0.24532	0.072609	0.14837	0.2229	0.21417	0.27434	0.055129	0.07671	0.22211	-2.6625	-2.1688	-2.6771	-3.1208	-2.3438	-3.0146	-2.8208	-2.3875	-2.9917	-2.2708	-2.7562	-3.0542	-2.3521	-2.9938	-2.7917	-2.4229	168.025	-0.342	118.084	160.959	-59.885	171.122	10.479	178.903	174.510	44.013	174.450	-114.838	122.476	162.827	122.908	-130.664	0.00081657	0.00070383	0.0002403	1853.1	8.0501e-06	9.9703e-06	1617.3	560.41	1.9124e-05	8.6199e-06	521.94	168.14	182.65	64.497	1.048e-05	64.305	0.00085514	0.00080046	0.00023235	1510.9	9.1923e-06	8.8003e-06	1320.9	458.83	9.1803e-06	8.9847e-06	429.87	138.09	149.83	53.2	9.5825e-06	53.162	139.061	-48.835	-70.154	-130.585	-23.812	-42.486	-132.066	-124.928	-35.524	32.633	-126.817	-123.382	-120.939	-115.053	-53.173	-118.564	-8191	255	
21547.924	1	1	0	0	0.072639	0.21922	0.22048	0.24425	0.23531	0.12566	0.16404	0.3032	0.072465	0.16138	0.18067	0.30921	0.22768	0.20871	0.23603	0.11494	-2.6771	-2.3771	-2.4917	-3.125	-2.1188	-2.8104	-3.1312	-2.3917	-3.0083	-2.4292	-2.5083	-3.1417	-2.4271	-2.9062	-2.8396	-2.3	119.963	-26.599	175.694	167.636	-108.754	29.507	143.261	183.913	-87.989	-52.074	171.537	174.316	61.057	198.739	50.936	-123.263	0.00073969	0.0001996	0.00029156	1875.7	4.6529e-06	1.3643e-05	1628.1	559.12	7.9509e-06	5.9865e-06	521.4	169.92	182.63	64.519	6.1711e-06	64.173	0.00079476	0.00081607	0.00022948	1523.2	8.9443e-06	9.2188e-06	1328.4	457.8	9.02e-06	8.7303e-06	428.06	138.68	149.75	53.234	9.3245e-06	53.086	146.614	73.622	-22.825	-130.850	-55.789	-15.445	-131.583	-125.343	-114.026	-44.168	-126.700	-123.137	-121.501	-115.150	1.673	-118.591	-8191	255	
21548.043	1	1	0	0	0.12016	0.24139	0.082877	0.087445	0.11445	0.26976	0.32052	0.23014	0.09799	0.17812	0.4431	0.094098	0.2537	0.13653	0.14609	0.22289	-2.5625	-2.4646	-2.4062	-3.2604	-2.2542	-2.8021	-3.2646	-2.5083	-3.0104	-2.4896	-2.4729	-3.0771	-2.5646	-2.775	-3.0354	-2.4229	182.860	15.879	-4.302	92.348	-95.447	-33.652	160.491	162.100	192.077	38.804	166.157	-114.822	197.431	174.023	62.930	68.484	0.00095442	0.00087406	0.0001508	1869.1	8.9176e-06	3.4937e-06	1625.4	562.86	1.0778e-05	4.8354e-06	518.13	168.08	182.08	63.935	1.4766e-05	63.757	0.00080619	0.00087887	0.00024485	1516.1	9.1565e-06	8.98e-06	1322.8	458.35	9.2876e-06	9.191e-06	424.89	137.48	149.2	53.013	9.4608e-06	52.926	164.319	-103.590	-86.481	-130.598	5.117	42.695	-131.499	-125.352	-68.761	87.543	-127.255	-123.218	-121.459	-115.122	-16.129	-118.753	-8191	255	
21548.139	1	1	0	0	0.17738	0.2176	0.16725	0.13678	0.14145	0.14822	0.25871	0.040564	0.073046	0.1002	0.35272	0.26611	0.099167	0.28491	0.19134	0.34618	-2.6437	-2.6	-2.3583	-3.2083	-2.5271	-2.4625	-3.0938	-2.2687	-2.8292	-2.7375	-2.2604	-3.0812	-2.3729	-2.5792	-2.9938	-2.2354	-37.989	177.867	4.577	-141.450	-11.941	119.267	157.764	139.228	133.925	-10.872	190.995	209.337	64.286	114.552	-3.399	110.195	0.00087136	0.00073645	0.00024386	1853.1	2.0992e-06	4.2834e-06	1614	563.64	7.2954e-06	9.4139e-06	516.99	167.35	182.08	64.435	9.5617e-06	64.229	0.00078189	0.00084702	0.00024526	1512.3	8.8794e-06	9.3126e-06	1318.5	459.17	8.8239e-06	9.5013e-06	424.91	136.87	149	53.008	9.2021e-06	52.836	147.457	-108.273	-73.393	-130.614	90.828	-19.655	-131.673	-125.211	2.759	3.893	-126.904	-122.971	-121.557	-115.179	0.262	-118.683	-8191	255	
21548.234	1	1	0	0	0.072559	0.15173	0.18228	0.040723	0.1929	0.14626	0.11827	0.2513	0.089889	0.21258	0.36299	0.077599	0.41606	0.14793	0.20913	0.24397	-2.5062	-2.8208	-2.3146	-3.0729	-2.525	-2.5521	-3.0958	-2.4417	-2.8479	-2.85	-2.3833	-3.1312	-2.5792	-2.4313	-3.0458	-2.3021	-0.102	23.971	-45.246	143.647	-56.687	-67.038	188.525	166.845	82.241	188.934	198.565	-142.791	163.252	138.846	199.737	208.959	0.00090221	0.000491	0.00031334	1875.1	5.9116e-06	7.654e-06	1609.7	556.27	1.0739e-05	1.0265e-05	516.47	165.01	180.66	62.954	1.0485e-05	63.23	0.00079669	0.00085736	0.0002423	1517.4	8.5474e-06	9.5931e-06	1316.5	454.61	9.3042e-06	8.9899e-06	423.3	135.77	147.89	52.36	9.1438e-06	52.156	134.035	-126.969	-31.706	-130.698	23.444	10.972	-131.491	-125.276	-4.631	46.425	-126.984	-123.121	-120.869	-115.141	14.745	-118.578	-8191	255	
21548.330	1	1	0	0	0.12633	0.15155	0.14007	0.17274	0.16359	0.13142	0.29037	0.15292	0.23919	0.059222	0.085791	0.11373	0.21744	0.27203	0.14758	0.31871	-2.2458	-2.9417	-2.2438	-2.9	-2.6208	-2.3646	-3.2979	-2.6104	-2.5812	-3.0187	-2.2687	-2.8604	-2.8729	-2.4813	-3.0563	-2.5646	10.516	-111.821	-45.951	159.616	-113.599	48.433	132.184	169.748	-118.288	81.079	111.395	102.517	-134.475	170.716	-118.431	103.578	0.00061445	0.00074548	0.00018422	1866.8	3.7997e-06	6.2898e-06	1617.3	560.23	1.042e-05	1.7602e-06	517.29	164.68	179.13	63.552	1.0084e-05	62.808	0.00081984	0.000854	0.00023488	1519.8	8.9994e-06	9.3525e-06	1316.4	455.53	8.7233e-06	8.8695e-06	421.92	134.47	147.01	52.158	8.6768e-06	51.834	150.078	-14.074	185.731	-130.415	1.902	41.244	-131.581	-125.253	-1.299	114.977	-127.146	-122.636	-121.034	-115.164	-24.636	-118.331	-8191	255	
#DATA ENDS
