BOXY.EXE: ISS Imagent and Oximeter Data Acquisition Program Version 0.80
Ascii Record File

#ACQ INFORMATION
2  Detector Channels 
16  External MUX Channels 
1  Auxiliary Channels 
5000  Waveform (CCF) Frequency (Hz)
1  Waveforms Skipped 
30  Waveforms Averaged 
1  Cycles Averaged 
16  Acquisitions per Waveform 
10.0806  Updata Rate (Hz) 

#FILE INFORMATION
TRUE -- External MUX Channel results are PARSED.
FALSE -- AC DC and Phase are NOT grouped.
TRUE -- Companion Program Settings File CREATED.
FALSE -- AC data not excluded
FALSE -- DC data not excluded
FALSE -- Phase data not excluded
FALSE -- Auxillary Chn. data not excluded
Tab delimiters

#CALIBRATION STATE
TRUE -- Waveform Calibration Values APPLIED.


#AUX CALIBRATION VALUES
Val Type	aux-1	

Term	1.0000e+00	
Factor	0.0000e+00	


#WF CALIBRATION VALUES
A = Detector Channel
Val Type	A-AC1	A-AC2	A-AC3	A-AC4	A-AC5	A-AC6	A-AC7	A-AC8	A-AC9	A-AC10	A-AC11	A-AC12	A-AC13	A-AC14	A-AC15	A-AC16	A-DC1	A-DC2	A-DC3	A-DC4	A-DC5	A-DC6	A-DC7	A-DC8	A-DC9	A-DC10	A-DC11	A-DC12	A-DC13	A-DC14	A-DC15	A-DC16	A-Ph1	A-Ph2	A-Ph3	A-Ph4	A-Ph5	A-Ph6	A-Ph7	A-Ph8	A-Ph9	A-Ph10	A-Ph11	A-Ph12	A-Ph13	A-Ph14	A-Ph15	A-Ph16	

Term	0.00000e+00	0.00000e+00	0.00000e+00	0.00000e+00	0.00000e+00	0.00000e+00	0.00000e+00	0.00000e+00	0.00000e+00	0.00000e+00	0.00000e+00	0.00000e+00	0.00000e+00	0.00000e+00	0.00000e+00	0.00000e+00	0.00000e+00	0.00000e+00	0.00000e+00	0.00000e+00	0.00000e+00	0.00000e+00	0.00000e+00	0.00000e+00	0.00000e+00	0.00000e+00	0.00000e+00	0.00000e+00	0.00000e+00	0.00000e+00	0.00000e+00	0.00000e+00	0.00000e+00	0.00000e+00	0.00000e+00	0.00000e+00	0.00000e+00	0.00000e+00	0.00000e+00	0.00000e+00	0.00000e+00	0.00000e+00	0.00000e+00	0.00000e+00	0.00000e+00	0.00000e+00	0.00000e+00	0.00000e+00	
Factor	1.00000e+00	1.00000e+00	1.00000e+00	1.00000e+00	1.00000e+00	1.00000e+00	1.00000e+00	1.00000e+00	1.00000e+00	1.00000e+00	1.00000e+00	1.00000e+00	1.00000e+00	1.00000e+00	1.00000e+00	1.00000e+00	1.00000e+00	1.00000e+00	1.00000e+00	1.00000e+00	1.00000e+00	1.00000e+00	1.00000e+00	1.00000e+00	1.00000e+00	1.00000e+00	1.00000e+00	1.00000e+00	1.00000e+00	1.00000e+00	1.00000e+00	1.00000e+00	X	X	X	X	X	X	X	X	X	X	X	X	X	X	X	X	

B = Detector Channel
Val Type	B-AC1	B-AC2	B-AC3	B-AC4	B-AC5	B-AC6	B-AC7	B-AC8	B-AC9	B-AC10	B-AC11	B-AC12	B-AC13	B-AC14	B-AC15	B-AC16	B-DC1	B-DC2	B-DC3	B-DC4	B-DC5	B-DC6	B-DC7	B-DC8	B-DC9	B-DC10	B-DC11	B-DC12	B-DC13	B-DC14	B-DC15	B-DC16	B-Ph1	B-Ph2	B-Ph3	B-Ph4	B-Ph5	B-Ph6	B-Ph7	B-Ph8	B-Ph9	B-Ph10	B-Ph11	B-Ph12	B-Ph13	B-Ph14	B-Ph15	B-Ph16	

Term	0.00000e+00	0.00000e+00	0.00000e+00	0.00000e+00	0.00000e+00	0.00000e+00	0.00000e+00	0.00000e+00	0.00000e+00	0.00000e+00	0.00000e+00	0.00000e+00	0.00000e+00	0.00000e+00	0.00000e+00	0.00000e+00	0.00000e+00	0.00000e+00	0.00000e+00	0.00000e+00	0.00000e+00	0.00000e+00	0.00000e+00	0.00000e+00	0.00000e+00	0.00000e+00	0.00000e+00	0.00000e+00	0.00000e+00	0.00000e+00	0.00000e+00	0.00000e+00	-2.55034e+02	-1.42192e+02	-1.58171e+02	-1.83275e+02	-9.83914e+01	-9.52191e+01	-1.58166e+02	-1.62015e+02	-1.11076e+02	-8.25393e+01	-1.72759e+02	-1.71492e+02	-1.85060e+02	-1.78311e+02	-8.15946e+01	-1.51161e+02	
Factor	6.84074e-05	1.16036e-04	3.77825e-05	1.75057e-01	1.19124e-06	1.02847e-06	2.01126e-01	6.52604e-02	1.39494e-06	1.20521e-06	1.15205e-01	3.44855e-02	6.48392e-02	1.06986e-02	1.09788e-06	1.56755e-02	7.61801e-07	7.68646e-07	2.13154e-07	8.53154e-02	8.43469e-09	8.40861e-09	9.13502e-02	3.13959e-02	8.44513e-09	8.40387e-09	5.21703e-02	1.57552e-02	2.79534e-02	5.07005e-03	8.41014e-09	7.10043e-03	X	X	X	X	X	X	X	X	X	X	X	X	X	X	X	X	



#DISTANCE SETTINGS
A = Detector Channel
A-1	A-2	A-3	A-4	A-5	A-6	A-7	A-8	A-9	A-10	A-11	A-12	A-13	A-14	A-15	A-16	

2.5000e+00	3.0000e+00	2.5000e+00	3.0000e+00	2.0000e+00	3.0000e+00	1.5000e+00	3.0000e+00	3.0000e+00	3.0000e+00	3.0000e+00	3.0000e+00	3.0000e+00	3.0000e+00	1.5000e+00	3.0000e+00	

B = Detector Channel
B-1	B-2	B-3	B-4	B-5	B-6	B-7	B-8	B-9	B-10	B-11	B-12	B-13	B-14	B-15	B-16	

1.0000e+01	1.0000e+01	1.0000e+01	1.4400e+00	1.0000e+01	1.0000e+01	1.5100e+00	1.9400e+00	1.0000e+01	1.0000e+01	1.9900e+00	2.4900e+00	2.4100e+00	2.9000e+00	1.0000e+01	2.9800e+00	




#DATA BEGINS
time	group	step	mark	flag	A-AC1	A-AC2	A-AC3	A-AC4	A-AC5	A-AC6	A-AC7	A-AC8	A-AC9	A-AC10	A-AC11	A-AC12	A-AC13	A-AC14	A-AC15	A-AC16	A-DC1	A-DC2	A-DC3	A-DC4	A-DC5	A-DC6	A-DC7	A-DC8	A-DC9	A-DC10	A-DC11	A-DC12	A-DC13	A-DC14	A-DC15	A-DC16	A-Ph1	A-Ph2	A-Ph3	A-Ph4	A-Ph5	A-Ph6	A-Ph7	A-Ph8	A-Ph9	A-Ph10	A-Ph11	A-Ph12	A-Ph13	A-Ph14	A-Ph15	A-Ph16	B-AC1	B-AC2	B-AC3	B-AC4	B-AC5	B-AC6	B-AC7	B-AC8	B-AC9	B-AC10	B-AC11	B-AC12	B-AC13	B-AC14	B-AC15	B-AC16	B-DC1	B-DC2	B-DC3	B-DC4	B-DC5	B-DC6	B-DC7	B-DC8	B-DC9	B-DC10	B-DC11	B-DC12	B-DC13	B-DC14	B-DC15	B-DC16	B-Ph1	B-Ph2	B-Ph3	B-Ph4	B-Ph5	B-Ph6	B-Ph7	B-Ph8	B-Ph9	B-Ph10	B-Ph11	B-Ph12	B-Ph13	B-Ph14	B-Ph15	B-Ph16	aux-1	digaux	

3147.635	1	1	0	256	0.26385	0.056167	0.26733	0.19346	0.15105	0.12017	0.20652	0.11823	0.31749	0.26455	0.087751	0.33615	0.37422	0.35714	0.12768	0.12419	-1.6187	-1.5896	-2.5083	-1.7042	-1.9125	-2.3604	-1.5042	-2.3979	-2.1229	-1.5583	-2.4542	-1.9438	-1.8354	-2.725	-1.6708	-1.9708	144.991	208.447	-83.759	221.021	239.693	175.458	-63.165	11.539	-108.397	-96.470	137.058	113.676	4.029	-13.146	211.663	151.624	0.00030166	0.0004471	0.00012901	512.62	8.3062e-07	3.599e-06	712.98	160.08	2.4938e-06	2.1217e-06	271.22	92.189	48.967	16.546	2.1962e-06	31.879	0.00022218	0.0002054	5.5498e-05	485.05	2.3767e-06	2.2334e-06	659	150.79	2.3769e-06	2.2483e-06	247.29	85.361	47.394	15.867	2.3248e-06	29.483	104.925	10.649	-102.226	-103.064	159.136	-13.480	-103.205	-97.803	207.029	48.429	-99.300	-96.624	-95.063	-89.481	27.496	-91.955	-8191	255	
3147.731	1	1	0	0	0.1085	0.14481	0.14714	0.34265	0.16252	0.40735	0.082857	0.15954	0.33545	0.15546	0.16306	0.055191	0.14484	0.12044	0.11602	0.1045	-1.7396	-1.3917	-2.2	-1.7042	-1.7812	-2.4167	-1.7146	-2.2521	-2.525	-1.2833	-2.4958	-1.9937	-1.8354	-2.5438	-1.3583	-1.8687	200.571	-108.385	174.335	186.103	124.496	128.276	108.529	99.259	-3.727	29.922	90.473	186.764	-61.627	-16.954	-56.884	-79.350	0.00054264	0.00031539	5.249e-05	509.81	1.6935e-06	4.2803e-06	704.6	159.96	6.8539e-06	1.629e-06	270.39	94.045	49.764	16.598	4.2509e-06	31.863	0.00022511	0.00020884	6.026e-05	483.99	2.4143e-06	2.2507e-06	656.72	151.34	2.4222e-06	2.2289e-06	247.51	85.998	47.326	15.856	2.4883e-06	29.56	77.983	187.812	110.738	-103.023	20.026	-57.956	-103.371	-97.635	225.524	-95.360	-99.431	-96.817	-95.008	-88.890	-81.436	-91.600	-8191	255	
3147.828	1	1	0	0	0.22516	0.13195	0.21938	0.11635	0.052472	0.091475	0.069808	0.23672	0.18805	0.10472	0.23893	0.20152	0.21463	0.19674	0.11097	0.14872	-1.7958	-1.3167	-2.3104	-2.0146	-1.7271	-2.4979	-1.5938	-2.0771	-2.2396	-1.4854	-2.1792	-2.0333	-1.5312	-2.4688	-1.6792	-1.8563	195.005	-22.789	-104.005	179.674	-90.882	37.365	9.254	171.042	53.746	117.755	237.337	38.944	235.643	56.762	199.111	150.860	0.00027067	0.00035943	2.571e-05	508.87	4.8625e-06	2.2539e-06	704.63	159.05	2.4668e-06	3.5951e-06	271	93.072	49.627	16.482	4.1165e-06	31.651	0.00022234	0.0002081	6.1932e-05	483.31	2.3796e-06	2.2576e-06	657.97	150.77	2.3722e-06	2.2231e-06	247.72	85.925	47.106	15.782	2.536e-06	29.317	47.161	10.119	178.318	-102.588	-1.673	20.994	-103.974	-97.709	44.011	-89.826	-99.248	-97.075	-94.583	-89.316	21.717	-91.510	-8191	255	
3147.946	1	1	0	0	0.2444	0.26575	0.2429	0.38684	0.18258	0.084467	0.26375	0.24878	0.085575	0.15659	0.18064	0.31821	0.1467	0.14946	0.14439	0.13772	-1.9396	-1.3833	-2.1167	-1.9542	-1.4104	-2.5396	-1.5729	-1.9354	-2.4271	-1.6875	-2.3083	-2.0854	-1.5396	-2.3625	-2.0563	-1.9062	130.835	-39.298	4.432	210.838	171.634	100.856	241.405	232.663	172.755	220.435	184.567	204.763	4.247	-37.929	84.258	-49.138	0.0005277	0.00032	6.5173e-05	511.9	8.3525e-06	1.4529e-06	704.18	160.18	3.0894e-06	1.3788e-06	269.97	92.27	49.745	16.521	1.4523e-06	31.476	0.00021416	0.00021349	6.3491e-05	482.22	2.3226e-06	2.3495e-06	657.34	150.63	2.325e-06	2.4026e-06	247.16	85.462	47.129	15.883	2.5528e-06	29.184	79.218	34.261	-78.239	-102.329	28.742	221.745	-103.126	-97.177	10.690	-15.679	-99.810	-96.949	-95.500	-89.598	-0.265	-91.877	-8191	255	
3148.043	1	1	0	0	0.17367	0.21598	0.11833	0.30381	0.26521	0.051537	0.20317	0.11727	0.37569	0.17718	0.36948	0.25097	0.0056926	0.078548	0.14506	0.11404	-2.2417	-1.4458	-2.3063	-2.125	-1.4417	-2.4021	-1.9146	-1.45	-2.4625	-1.525	-2.0187	-2.4958	-1.45	-2.4479	-1.8208	-1.7625	-61.194	205.377	80.605	145.268	-72.376	-38.915	-102.075	204.541	-110.384	95.750	225.670	121.122	11.734	-56.228	127.565	-102.660	0.00041352	0.00042409	0.00013369	508.76	3.8516e-06	1.955e-06	700.39	159.57	5.2512e-06	1.9884e-06	269.25	93.516	49.629	16.652	2.2989e-06	31.696	0.00021257	0.00022536	6.3817e-05	480.78	2.2983e-06	2.4648e-06	656.1	150.26	2.279e-06	2.4847e-06	247.4	85.816	47.208	16	2.4949e-06	29.208	81.005	197.239	-48.143	-102.585	-101.387	227.607	-103.156	-97.834	235.165	-15.549	-99.491	-96.676	-94.315	-89.431	-12.983	-91.549	-8191	255	
3148.139	1	1	0	0	0.15581	0.19143	0.047981	0.22801	0.28145	0.04633	0.30936	0.19571	0.092732	0.2554	0.088715	0.13568	0.037681	0.097347	0.12343	0.065971	-1.9542	-1.7333	-1.8542	-2.3458	-1.4875	-2.5438	-2.025	-1.6354	-2.5687	-1.9083	-2.0687	-2.2562	-1.5271	-2.3937	-2.0563	-1.3104	-19.101	73.776	223.311	162.735	51.055	122.660	86.286	-43.744	98.071	230.535	170.429	193.334	163.643	241.832	155.787	154.882	0.00028786	0.00033521	0.00013445	508.05	5.1497e-06	3.4378e-06	704.7	159.7	2.9669e-06	1.0984e-05	271.82	93.551	49.742	16.829	5.5968e-06	31.923	0.00021246	0.00023062	6.2581e-05	481.19	2.2874e-06	2.5171e-06	658.03	150.51	2.3032e-06	2.5496e-06	248.39	86.081	47.483	16.013	2.4939e-06	29.277	47.669	120.387	-26.047	-102.610	203.576	-80.383	-103.278	-97.570	-89.438	26.734	-99.586	-96.602	-94.292	-89.556	33.628	-91.120	-8191	255	
3148.235	1	1	0	0	0.32602	0.11749	0.18971	0.20414	0.14797	0.098629	0.32734	0.17661	0.174	0.16593	0.14118	0.28221	0.18914	0.20194	0.07508	0.22685	-2.0687	-1.7396	-1.9521	-2.5062	-1.5875	-2.3583	-2.2167	-1.4396	-2.4875	-1.8042	-1.8208	-2.5771	-1.4688	-2.1271	-2.1	-1.4021	121.606	203.396	106.071	-5.303	132.246	67.520	164.885	-3.152	188.241	205.441	171.520	20.809	46.996	66.069	159.780	156.492	0.00046338	0.00064815	0.00018082	510.18	5.8506e-06	2.8213e-06	701.49	159.88	5.5119e-06	3.8533e-06	269.11	92.986	48.299	16.391	2.9402e-06	31.283	0.00021716	0.00023262	6.1764e-05	480.79	2.3493e-06	2.5175e-06	654.71	150.19	2.3482e-06	2.487e-06	246.59	85.023	47.064	15.727	2.3275e-06	28.701	81.237	-7.944	-12.853	-102.410	139.330	107.393	-103.059	-97.781	-92.579	-6.574	-99.088	-96.330	-95.039	-89.193	-44.299	-91.845	-8191	255	
3148.331	1	1	0	0	0.10012	0.38176	0.20816	0.17474	0.30749	0.20323	0.071324	0.29792	0.15882	0.1682	0.421	0.057819	0.12043	0.31576	0.415	0.092179	-2.0104	-1.7667	-1.5167	-2.2542	-1.5854	-2.125	-2.2542	-1.3937	-2.25	-1.8083	-1.5458	-2.4021	-1.5729	-1.7042	-2.2125	-1.5479	222.003	191.629	201.720	199.785	119.913	-10.907	-92.454	173.248	-60.742	-108.497	-114.943	-92.067	145.442	-103.180	136.274	164.369	0.00055902	0.00031879	9.0681e-05	506.56	1.3308e-06	3.9208e-06	699.83	160.04	6.9207e-06	1.0301e-06	271.24	93.326	49.253	16.309	4.3101e-06	31.204	0.00022139	0.00022099	5.8273e-05	477.05	2.3887e-06	2.4292e-06	652.82	149.28	2.4158e-06	2.3824e-06	246.53	84.992	46.942	15.591	2.2265e-06	28.557	79.696	-110.405	-38.495	-102.618	-102.589	111.164	-103.005	-97.557	52.029	104.490	-99.149	-96.759	-95.245	-88.862	9.214	-91.208	-8191	255	
3148.427	1	1	0	0	0.097149	0.28036	0.1127	0.13174	0.027796	0.098774	0.26656	0.11755	0.26125	0.16308	0.065048	0.24098	0.31958	0.25	0.14933	0.17772	-1.8375	-1.9646	-1.3	-2.4479	-1.5292	-1.7313	-2.2812	-1.4688	-2.0292	-2.0771	-1.4333	-2.2687	-1.5125	-1.7083	-2.5167	-1.4542	143.489	-96.258	-1.676	208.489	156.253	136.380	201.835	110.875	0.294	29.990	166.570	-89.374	96.661	219.662	138.651	97.537	0.0006874	0.00034228	0.00026195	506.06	3.2345e-06	2.6443e-06	706.73	160.07	8.5095e-06	2.2729e-06	271.34	93.461	49.071	16.194	3.6062e-06	31.234	0.00021752	0.00020747	5.4789e-05	476.97	2.342e-06	2.2471e-06	652.99	149.3	2.3494e-06	2.2167e-06	246.18	85.361	46.882	15.464	2.095e-06	28.725	46.628	0.983	-78.613	-102.467	205.125	175.690	-102.737	-97.515	-90.410	187.342	-99.161	-96.411	-94.833	-88.802	-8.735	-91.133	-8191	255	
3148.523	1	1	0	0	0.12377	0.086355	0.14668	0.046102	0.10356	0.11495	0.3	0.20377	0.13026	0.13681	0.10382	0.090004	0.1465	0.31813	0.23653	0.16739	-1.6354	-2.0646	-1.4521	-2.325	-1.8208	-1.75	-2.4188	-1.7083	-2.0625	-2.2042	-1.5458	-2.4625	-1.7917	-1.625	-2.5563	-1.6104	169.306	185.883	-115.440	44.518	-101.297	151.284	137.845	163.606	170.759	50.050	163.152	199.673	229.269	-25.272	242.175	178.279	0.00047379	0.00059337	9.8603e-05	507.39	4.0083e-06	1.7239e-06	709.08	160.65	3.9598e-06	2.3717e-06	271.95	92.5	48.748	16.009	2.7637e-06	31.183	0.00021162	0.00020064	5.1624e-05	477.22	2.2887e-06	2.1787e-06	655.87	149.78	2.2098e-06	2.1169e-06	245.95	84.73	46.13	15.107	1.9451e-06	28.561	57.187	-41.798	-102.736	-102.574	5.799	236.695	-102.813	-97.527	193.326	12.330	-99.144	-96.115	-95.099	-88.962	19.711	-91.392	-8191	255	
3148.644	1	1	0	0	0.15354	0.17909	0.19143	0.20676	0.10645	0.11935	0.17924	0.14175	0.1573	0.31608	0.10668	0.055834	0.20036	0.15406	0.10557	0.094474	-1.6917	-2.2125	-1.4396	-2.3854	-1.7313	-1.5771	-2.3854	-1.4542	-1.7771	-2.3604	-1.6292	-2.3417	-1.9521	-1.6417	-2.6125	-1.6771	42.519	231.317	230.024	198.159	-35.540	215.986	188.469	117.807	219.581	-92.582	154.509	-59.335	194.110	125.095	-36.456	240.417	0.00065965	0.00083297	0.00018768	506.88	3.347e-06	5.6594e-06	705.74	159.03	2.7986e-06	8.8886e-06	271.82	92.21	48.433	15.799	3.1469e-06	30.796	0.00020007	0.00018943	4.9212e-05	476.87	2.1229e-06	1.9979e-06	651.9	148.83	2.0889e-06	1.9786e-06	245.04	84.278	45.504	14.947	1.9367e-06	28.309	53.859	-99.213	231.288	-102.172	-3.592	-3.645	-102.794	-97.662	-94.377	-6.165	-98.974	-96.178	-94.102	-88.617	124.946	-90.977	-8191	255	
3148.740	1	1	0	0	0.15763	0.13532	0.089726	0.12303	0.24692	0.21357	0.095747	0.20772	0.26592	0.22688	0.15646	0.12744	0.22567	0.26797	0.093358	0.11183	-1.525	-2.4458	-1.4833	-2.2687	-1.9854	-1.5667	-2.4979	-1.6875	-1.575	-2.3792	-1.5354	-2.1583	-2.1521	-1.4813	-2.3979	-1.8188	118.501	224.811	56.410	150.624	78.117	163.253	-72.937	162.867	235.010	96.116	187.704	224.123	216.510	-102.044	-81.914	156.073	0.00057249	0.00024585	7.6432e-05	507.17	4.58e-06	5.0697e-06	708.04	158.9	6.8425e-06	4.452e-06	271.99	92.169	47.447	15.73	2.651e-06	30.531	0.00018887	0.00017699	4.9303e-05	476.35	2.0473e-06	1.8781e-06	653.07	149.17	1.969e-06	1.8547e-06	245.23	83.947	44.558	14.724	1.8808e-06	27.953	93.911	-9.867	-65.057	-102.068	68.688	-44.247	-102.987	-97.767	-20.609	-26.172	-99.326	-96.038	-94.391	-88.587	40.214	-91.427	-8191	255	
3148.836	1	1	0	0	0.078613	0.13849	0.058954	0.21491	0.35286	0.10965	0.15361	0.26285	0.10024	0.014359	0.11266	0.073358	0.27016	0.044255	0.099381	0.13293	-1.2333	-2.4792	-1.4979	-2.1771	-2.0604	-1.5292	-2.35	-1.7812	-1.6646	-2.3354	-1.5875	-2.1292	-2.2542	-1.4542	-2.2958	-1.9458	188.842	-1.475	91.770	138.267	109.053	-101.372	-111.894	-112.637	167.735	183.443	111.474	159.301	203.882	142.689	244.478	-14.258	0.00036136	0.00061399	7.1643e-05	504.85	2.3645e-06	4.5515e-06	705.53	159.52	7.4603e-06	3.7489e-06	273.2	92.712	47.953	15.546	4.815e-07	30.479	0.00017441	0.00015867	4.801e-05	473.6	1.8533e-06	1.753e-06	651.59	148.38	1.8608e-06	1.7323e-06	245.89	84.085	44.345	14.563	1.8896e-06	27.826	78.383	-38.917	-82.724	-101.859	189.004	48.390	-102.353	-97.353	-78.640	-28.475	-98.911	-95.871	-93.993	-88.282	61.772	-90.808	-8191	255	
3148.932	1	1	0	0	0.23438	0.10356	0.25974	0.16359	0.16312	0.12448	0.023433	0.20425	0.26793	0.13134	0.27095	0.097056	0.35887	0.16759	0.11335	0.13343	-1.3646	-2.4229	-1.4312	-1.8667	-2.5021	-1.5396	-2.4854	-2.1208	-1.5521	-2.5333	-1.7188	-1.9979	-2.4813	-1.5938	-2.1083	-2.1625	62.039	57.238	-76.931	-12.506	7.784	-113.597	-35.448	210.223	-101.112	-107.436	31.671	231.065	-93.015	-87.351	25.026	-89.352	0.00028031	0.00034984	0.00010051	505.33	1.2761e-06	6.6537e-07	706.67	157.96	2.0653e-06	3.9733e-06	269.61	91.628	47.58	15.219	1.8654e-06	30.093	0.00016841	0.00015347	4.7838e-05	471.82	1.7524e-06	1.6643e-06	650.7	146.28	1.6801e-06	1.6396e-06	243.4	82.607	43.402	14.262	1.7905e-06	27.301	90.050	-67.983	-57.307	-101.478	10.688	-81.807	-102.296	-97.315	-22.367	181.111	-98.927	-96.361	-94.874	-88.882	-10.042	-91.227	-8191	255	
3149.027	1	1	0	0	0.18266	0.17087	0.074831	0.089546	0.18006	0.2655	0.30732	0.057429	0.11171	0.29012	0.35208	0.027337	0.10217	0.1104	0.096447	0.24	-1.2125	-2.4396	-1.6604	-1.7188	-2.5771	-1.6354	-2.2812	-2.15	-1.475	-2.4479	-1.8188	-1.5333	-2.2854	-1.2583	-1.9479	-2.1937	237.781	242.958	39.870	152.827	138.421	167.186	169.939	-107.744	48.602	133.670	153.503	231.086	-11.553	-54.849	-9.659	9.687	0.00044935	0.0001199	4.2408e-05	504.37	4.5448e-06	1.673e-06	701.96	157.66	2.6881e-06	3.4669e-06	270.32	90.837	47.306	15.117	1.1138e-06	29.929	0.00015148	0.00015389	4.5757e-05	468.68	1.6404e-06	1.7018e-06	646.6	146.03	1.5971e-06	1.6663e-06	242.82	82.252	42.755	14.17	1.7219e-06	27.081	80.036	-46.708	36.419	-102.189	23.607	96.508	-102.637	-97.415	151.477	-66.699	-99.007	-96.127	-94.702	-88.610	-99.403	-91.342	-8191	255	
3149.123	1	1	0	0	0.21127	0.062532	0.10985	0.2726	0.094206	0.093626	0.27892	0.028299	0.1245	0.17711	0.161	0.28415	0.15266	0.22387	0.085526	0.11329	-1.0312	-2.3	-2.0438	-1.775	-2.525	-1.6833	-2.1667	-2.3771	-1.6063	-2.3688	-1.925	-1.7958	-2.4062	-1.6083	-1.7417	-2.3479	34.978	195.440	112.236	-42.785	-63.699	214.218	150.954	-98.845	-66.041	69.863	-50.399	200.109	-53.182	116.513	18.263	56.339	0.00041334	5.7574e-05	0.00017178	502.12	2.7952e-06	2.3941e-06	705.55	158.07	4.0174e-07	1.0429e-06	270.39	91.206	46.451	15.104	3.6648e-06	29.684	0.00013835	0.00015342	4.3436e-05	467.14	1.5386e-06	1.6903e-06	648.53	145.6	1.5512e-06	1.6979e-06	242.71	82.103	42.682	14.151	1.6491e-06	26.924	92.237	0.411	-47.602	-102.065	180.304	76.660	-102.407	-97.237	-54.565	53.596	-99.070	-95.763	-94.143	-88.669	38.461	-90.476	-8191	255	
3149.244	1	1	0	0	0.18052	0.078938	0.22597	0.17682	0.044274	0.16784	0.10115	0.10371	0.10482	0.39755	0.033134	0.11901	0.1877	0.31276	0.18428	0.25143	-1.1417	-2.4229	-2.0021	-1.7104	-2.4917	-1.5583	-1.8438	-2.4021	-1.4583	-2.1542	-2.2375	-1.6979	-2.4542	-1.9813	-1.9646	-2.6417	-60.426	72.027	209.764	178.947	96.722	50.700	227.688	131.576	129.906	138.232	220.374	203.166	21.139	19.793	95.158	101.055	0.00051203	0.00049495	7.5925e-05	500.08	1.6021e-06	2.668e-06	705.99	157.42	3.0683e-06	3.2662e-06	270.09	90.927	46.241	14.9	1.0809e-06	29.621	0.00014331	0.00015362	4.1459e-05	465.18	1.5385e-06	1.7245e-06	646.38	144.69	1.5748e-06	1.7022e-06	241.38	81.64	42.464	14.005	1.5957e-06	26.786	101.337	-55.582	-42.155	-101.792	-66.012	4.402	-102.306	-97.216	-19.648	-6.182	-98.944	-95.742	-94.114	-88.367	-25.749	-90.684	-8191	255	
3149.340	1	1	0	0	0.27831	0.074769	0.097537	0.27076	0.17132	0.16701	0.20013	0.19055	0.35067	0.21137	0.46823	0.22625	0.15838	0.11771	0.044218	0.15975	-1.2604	-2.1896	-2.1458	-1.5792	-2.5542	-1.875	-1.9521	-2.5771	-1.4792	-2.2	-2.2854	-1.4792	-2.4292	-1.7896	-1.7792	-2.45	-103.778	-114.527	225.797	167.702	-13.761	17.925	236.005	-4.371	-17.704	-65.121	-37.933	-11.327	53.315	227.160	65.250	-8.939	0.00073456	0.00044743	0.00011623	500.27	1.9722e-06	3.1381e-06	702.45	155.39	4.3838e-06	7.2695e-07	266.07	90.171	46.863	14.839	4.1188e-06	29.688	0.00014914	0.00015099	4.1581e-05	463.44	1.5995e-06	1.6797e-06	642.64	143.68	1.6441e-06	1.6912e-06	239.12	81.039	42.856	13.988	1.5951e-06	26.756	73.306	144.408	-37.972	-102.085	-79.885	23.008	-102.432	-97.917	-45.835	54.403	-98.553	-95.297	-93.871	-88.881	-38.263	-90.641	-8191	255	
3149.411	1	1	0	0	0.088616	0.31966	0.12327	0.11324	0.19183	0.3655	0.12832	0.11861	0.16289	0.15033	0.21666	0.20159	0.12513	0.22476	0.055771	0.14665	-0.99792	-2.0646	-2.3271	-1.6708	-2.3458	-2.0125	-1.7042	-2.4792	-1.45	-1.9458	-2.5979	-1.4917	-2.5021	-1.9854	-1.6417	-2.5979	174.035	34.249	1.854	-101.846	221.408	140.536	204.874	-32.498	145.615	-62.461	169.886	217.407	219.042	195.561	-18.314	87.893	0.00062145	0.00050656	2.0788e-05	501.25	4.4222e-06	3.5185e-06	703.47	156.62	2.9808e-06	2.7911e-06	270.75	90.718	47.033	15.181	5.8691e-07	30.057	0.00015851	0.00015136	4.0355e-05	465.14	1.6944e-06	1.676e-06	644.4	144.92	1.7356e-06	1.6148e-06	241.19	81.802	43.316	14.162	1.5746e-06	27.117	72.351	-37.501	230.767	-101.519	99.189	-11.213	-102.000	-97.545	-20.558	110.500	-98.701	-95.864	-93.603	-88.772	-77.450	-91.136	-8191	255	
3149.508	1	1	0	0	0.1104	0.10654	0.12895	0.2687	0.082787	0.18485	0.13314	0.099073	0.075041	0.15906	0.18265	0.043811	0.10116	0.049786	0.093787	0.27143	-1.3125	-1.8958	-2.4562	-1.4917	-2.1292	-2.1063	-1.5333	-2.5917	-1.7042	-1.7646	-2.6021	-1.6187	-2.1583	-2.4021	-1.7104	-2.6917	-32.433	-74.534	186.709	202.799	180.513	117.028	153.460	215.966	4.288	56.910	236.719	-61.006	21.354	204.244	-56.591	173.493	0.00044872	0.00036807	0.00013717	502.41	3.0396e-06	1.7444e-06	708.78	157.6	3.1773e-06	7.6763e-06	271.83	91.59	47.554	15.136	4.2852e-06	29.743	0.00016023	0.00015089	3.8753e-05	466.76	1.7006e-06	1.6133e-06	648.4	146.06	1.6972e-06	1.6059e-06	242.24	82.49	43.366	14.122	1.4976e-06	27.077	86.873	-19.005	-77.088	-102.495	18.838	-89.497	-102.929	-97.893	82.051	11.089	-99.012	-96.321	-94.853	-88.817	102.905	-90.749	-8191	255	
3149.604	1	1	0	0	0.098899	0.31487	0.2342	0.17124	0.11294	0.26263	0.062509	0.11454	0.21408	0.12843	0.12464	0.33626	0.10665	0.13212	0.13826	0.26095	-1.4625	-1.8646	-2.4396	-1.6292	-2.3063	-2.2917	-1.4667	-2.4167	-1.7375	-1.5167	-2.4437	-1.7458	-2.0792	-2.525	-1.5896	-2.6167	87.755	65.379	69.811	228.816	43.880	169.948	-17.467	172.153	-91.502	217.608	-87.829	-74.933	-20.929	242.156	55.699	-45.847	0.00049982	0.00063027	0.00013226	504.27	3.7547e-06	9.3973e-07	700.55	158.25	3.9118e-06	2.8123e-06	270.36	90.652	47.334	15.226	5.6508e-07	30.294	0.00015815	0.00014369	3.7731e-05	468.73	1.6723e-06	1.6171e-06	645.22	146.11	1.718e-06	1.6021e-06	241.73	82.166	43.346	14.183	1.5443e-06	27.291	84.989	52.036	-38.148	-102.219	28.741	135.514	-102.517	-97.926	133.018	213.003	-98.805	-95.820	-94.520	-88.672	-94.838	-90.960	-8191	255	
3149.724	1	1	0	0	0.2035	0.4013	0.12146	0.2621	0.2148	0.18813	0.065759	0.14657	0.047577	0.081089	0.18217	0.23535	0.063173	0.13872	0.33231	0.16968	-1.7833	-1.5458	-2.5083	-1.6854	-1.7583	-2.3063	-1.3729	-2.1417	-1.85	-1.5771	-2.3771	-1.8083	-1.8771	-2.2958	-1.3438	-2.1167	-12.354	174.714	142.490	-27.147	212.813	41.847	94.458	-56.624	66.728	90.986	-81.940	46.620	-111.353	99.542	-51.687	152.585	0.00032563	0.0003973	0.00011282	502	3.0772e-06	3.8936e-06	704.94	157.47	1.7207e-06	3.3909e-06	271.09	90.98	48.253	15.424	2.7588e-06	30.233	0.00015984	0.00014522	3.9524e-05	468.08	1.7078e-06	1.6066e-06	646.24	146.53	1.7422e-06	1.6186e-06	242.37	82.751	43.862	14.371	1.6418e-06	27.565	85.199	-30.137	-108.270	-101.672	200.674	-36.740	-101.929	-96.962	-36.130	54.986	-99.112	-96.582	-94.945	-88.654	129.829	-91.187	-8191	255	
3149.821	1	1	0	0	0.13922	0.091585	0.22511	0.14877	0.19491	0.17183	0.17661	0.10265	0.16567	0.16677	0.091902	0.30095	0.23822	0.19671	0.095957	0.16582	-1.7729	-1.6521	-2.6396	-1.9896	-1.7979	-2.4125	-1.7833	-2.1917	-2.3187	-1.4438	-2.3958	-2.1437	-1.5708	-2.4958	-1.4917	-2.2583	-110.465	-93.056	171.492	17.553	16.345	53.087	232.880	217.678	89.710	129.871	228.647	189.574	162.031	158.109	-100.023	-87.523	0.00036949	0.00036738	0.00013902	506.05	5.8732e-07	3.5661e-06	704.58	158.63	4.3222e-06	4.6432e-06	272.34	91.248	47.942	15.36	2.2427e-06	30.25	0.00016036	0.00014295	4.2022e-05	471.79	1.7134e-06	1.5746e-06	646.89	147.05	1.7074e-06	1.5757e-06	243.6	83.017	43.619	14.36	1.7329e-06	27.611	44.306	-30.869	-94.156	-102.272	0.005	-43.305	-102.769	-97.565	-20.860	64.564	-99.410	-96.205	-94.049	-88.816	26.776	-91.362	-8191	255	
3149.917	1	1	0	0	0.3017	0.10502	0.15378	0.46545	0.11437	0.12532	0.30201	0.031751	0.27134	0.097819	0.060055	0.081729	0.039199	0.12117	0.040003	0.2496	-1.7521	-1.4396	-2.2271	-1.9354	-1.6958	-2.4729	-1.6542	-1.9083	-2.2375	-1.6333	-2.5125	-2.0521	-1.5625	-2.5	-1.6229	-1.7229	55.405	69.798	141.960	220.234	174.036	199.640	215.167	230.078	204.874	15.985	39.768	-71.314	-70.088	217.112	158.998	92.123	0.00049533	0.00015984	5.6452e-05	505.17	1.7801e-06	1.77e-06	706.67	158.53	4.7598e-06	3.1523e-06	269.96	91.465	47.734	15.466	3.8608e-06	30.259	0.00015822	0.00014528	4.4471e-05	470.77	1.7048e-06	1.5894e-06	648.66	146.97	1.67e-06	1.5775e-06	243.35	82.995	43.57	14.358	1.8192e-06	27.581	78.521	-42.283	-88.586	-102.110	-111.402	68.004	-102.589	-97.368	237.582	-99.626	-98.731	-95.938	-94.024	-88.354	195.762	-90.769	-8191	255	
3150.036	1	1	0	0	0.2071	0.15472	0.49082	0.11246	0.15343	0.12982	0.11422	0.20013	0.14388	0.17883	0.28664	0.11607	0.10572	0.34337	0.16691	0.15607	-1.8417	-1.2229	-2.0292	-2.1083	-1.4604	-2.3875	-1.7979	-1.9312	-2.3729	-1.4979	-2.3896	-2.2292	-1.5938	-2.5708	-1.9167	-2.0104	92.849	1.264	-112.219	168.249	219.237	4.810	-104.589	-67.122	-27.406	159.428	196.954	57.219	-110.186	242.070	43.135	178.962	0.00077437	0.00035575	0.00016519	507.17	5.7732e-06	1.7186e-06	706.46	158.08	2.2299e-06	2.9099e-06	270.86	91.371	48.31	15.414	1.7676e-06	30.118	0.00015505	0.0001481	4.5765e-05	471.03	1.6763e-06	1.6636e-06	649.02	146.63	1.6764e-06	1.6882e-06	243.69	82.96	43.679	14.423	1.8296e-06	27.279	75.843	14.137	-68.519	-102.402	234.832	55.527	-103.107	-97.150	-11.017	-77.739	-99.035	-95.819	-94.775	-88.573	29.409	-91.335	-8191	255	
3150.107	1	1	0	0	0.076232	0.21288	0.18554	0.29971	0.46434	0.27193	0.33599	0.2694	0.11756	0.21246	0.16737	0.082288	0.09839	0.2099	0.23723	0.13565	-2.1021	-1.5312	-2.2646	-2.1521	-1.4917	-2.4771	-1.8875	-1.5458	-2.5312	-1.5688	-2.0938	-2.2583	-1.4417	-2.3063	-2.0667	-1.6271	229.363	97.628	106.487	180.767	-79.724	68.613	218.214	146.377	240.754	86.536	127.528	51.594	133.567	-38.195	173.816	242.296	0.00035863	0.00039221	0.00011725	504.56	5.0497e-06	4.3205e-06	704.97	157.59	4.7723e-06	6.0044e-06	271.19	91.745	47.179	15.585	1.2276e-06	30.612	0.00015075	0.00015793	4.5717e-05	469.98	1.6141e-06	1.7558e-06	647.59	146.26	1.6348e-06	1.7787e-06	243.86	83.1	43.718	14.627	1.869e-06	27.653	114.262	-45.168	-62.566	-102.309	-25.785	-18.740	-102.566	-97.406	-39.367	-109.748	-98.696	-96.398	-95.008	-88.639	-81.318	-91.159	-8191	255	
3150.205	1	1	0	0	0.044439	0.23552	0.12574	0.23441	0.24131	0.20345	0.16949	0.2612	0.083948	0.016603	0.14445	0.11289	0.17831	0.37896	0.075441	0.033725	-1.9	-1.2833	-1.7646	-2.1896	-1.3958	-2.5229	-2.0229	-1.6458	-2.4167	-1.6542	-1.8375	-2.4062	-1.3396	-2.2271	-2.0062	-1.6875	110.417	-17.635	64.222	177.632	-43.033	113.534	240.024	-100.785	165.814	224.510	65.325	184.053	-54.835	221.477	229.061	19.300	0.00051894	0.00017971	0.00020049	503.44	2.2304e-06	2.8005e-06	704.2	158.78	2.8678e-06	1.9298e-06	272.33	91.479	47.794	15.494	2.2727e-06	30.594	0.00015214	0.00016765	4.5631e-05	468.54	1.6426e-06	1.7877e-06	647.33	146.33	1.6345e-06	1.8112e-06	243.26	82.623	43.512	14.526	1.7626e-06	27.565	89.919	75.595	-52.113	-102.082	188.414	-21.986	-102.608	-97.694	-88.483	206.773	-99.496	-96.670	-94.799	-88.629	-9.093	-91.512	-8191	255	
3150.324	1	1	0	0	0.20501	0.15041	0.13963	0.14962	0.05278	0.14537	0.1357	0.38248	0.20206	0.38691	0.15777	0.17749	0.080513	0.08537	0.16588	0.11386	-2.1188	-1.6292	-1.9646	-2.5896	-1.6833	-2.2354	-2.2542	-1.5187	-2.275	-1.6833	-1.5312	-2.375	-1.4542	-2.1042	-2.2417	-1.2938	-52.308	-111.950	135.672	162.641	189.835	217.575	132.293	214.713	96.562	222.596	77.472	109.428	189.673	204.765	-25.826	112.339	0.0005407	0.00026247	4.4327e-05	502.38	2.0512e-06	1.0225e-06	701.38	158.2	6.1279e-06	7.3437e-06	269	91.572	46.552	15.367	9.2464e-07	30.113	0.00015512	0.00016529	4.3571e-05	466.31	1.7026e-06	1.794e-06	644.08	145.81	1.701e-06	1.8155e-06	242.48	82.573	43.735	14.47	1.7281e-06	27.425	66.192	122.287	-27.377	-102.400	186.821	-98.289	-102.793	-97.471	155.431	61.204	-99.083	-96.089	-94.794	-88.697	151.257	-91.058	-8191	255	
3150.420	1	1	0	0	0.16614	0.14344	0.059335	0.26589	0.25894	0.077553	0.27809	0.11118	0.1258	0.07251	0.092672	0.25567	0.19254	0.1633	0.12572	0.24208	-2.0292	-1.9208	-1.7667	-2.4521	-1.4771	-2.1625	-2.5	-1.5521	-2.0083	-1.8438	-1.7771	-2.5	-1.6354	-1.975	-2.4062	-1.4354	-99.829	-29.242	203.802	183.395	220.934	88.006	148.803	-97.310	146.949	-2.701	-27.589	229.523	60.754	243.167	16.946	-103.048	0.00042974	0.00047521	8.9517e-05	503.41	1.4553e-06	6.9707e-06	701.69	158.01	8.1197e-07	2.24e-06	271.38	92.122	47.526	15.527	3.8932e-06	30.579	0.00016197	0.00016392	4.3888e-05	467.5	1.7532e-06	1.7874e-06	646.38	145.95	1.7708e-06	1.7984e-06	243.13	82.832	44.025	14.576	1.6943e-06	27.657	96.644	6.794	227.149	-102.063	184.517	-97.999	-102.389	-97.472	4.931	-79.074	-98.905	-95.756	-94.795	-88.870	21.545	-90.884	-8191	255	
3150.516	1	1	0	0	0.12994	0.10495	0.048678	0.25419	0.13262	0.2239	0.087537	0.11274	0.18218	0.33398	0.27526	0.16932	0.19652	0.20892	0.086698	0.21633	-1.8396	-1.825	-1.4604	-2.3917	-1.5354	-1.9854	-2.4354	-1.4958	-2.3812	-1.9646	-1.5458	-2.6229	-1.8167	-2.0667	-2.5312	-1.6833	-28.266	142.790	92.708	-75.005	76.327	206.606	22.341	76.883	-41.818	160.484	18.274	138.085	108.858	-91.800	85.970	160.842	0.00055398	0.00033442	0.00018565	506.6	2.6889e-06	2.8212e-06	709.94	159.8	2.6937e-06	3.4493e-06	273.39	91.957	47.77	15.436	3.8346e-06	30.37	0.00017093	0.00016614	4.3014e-05	470.46	1.8608e-06	1.7965e-06	650.99	147.68	1.8341e-06	1.7763e-06	244.41	83.269	44.259	14.493	1.6099e-06	27.53	86.138	9.598	-72.440	-102.437	52.634	-30.336	-102.937	-97.153	-72.700	41.308	-99.075	-96.150	-93.874	-89.046	10.239	-91.329	-8191	255	
3150.637	1	1	0	0	0.20877	0.21642	0.079866	0.24248	0.23962	0.10342	0.16101	0.17916	0.072717	0.12075	0.080609	0.20116	0.10345	0.2852	0.034654	0.071698	-2.0583	-2.225	-1.5729	-2.4292	-1.8854	-1.7042	-2.4854	-1.6229	-2.1083	-2.2438	-1.5167	-2.7021	-1.9042	-1.8167	-2.3521	-1.7208	194.018	199.719	129.172	186.286	-31.748	-85.266	210.827	-108.977	52.050	237.816	159.731	121.576	188.485	81.905	201.549	204.349	0.00040417	0.00048176	0.00011312	508.46	3.8589e-06	1.9351e-06	706.69	158.99	3.9863e-06	1.2674e-06	270.35	91.734	47.633	15.228	3.8064e-06	29.916	0.00016571	0.00015621	4.04e-05	470.8	1.7418e-06	1.6472e-06	649.05	146.77	1.7513e-06	1.6592e-06	242.08	82.689	43.625	14.312	1.5048e-06	27.173	52.516	-73.560	-28.487	-102.064	-39.656	-83.712	-102.876	-97.647	-111.007	104.989	-98.692	-95.776	-93.681	-88.154	-5.217	-90.676	-8191	255	
3150.709	1	1	0	0	0.30541	0.18761	0.29735	0.11292	0.11393	0.068853	0.1029	0.14738	0.16449	0.17854	0.32582	0.22634	0.43496	0.064599	0.063203	0.26504	-1.6854	-2.325	-1.4188	-2.3937	-1.8771	-1.8208	-2.5708	-1.7687	-2.025	-2.2333	-1.4646	-2.1667	-2.0208	-1.4208	-2.4	-1.5417	-35.856	207.440	-68.026	87.876	208.748	-21.730	217.971	172.172	135.145	-42.007	138.283	100.601	150.952	136.981	179.498	99.899	0.00037244	0.00035708	0.00011854	506.03	4.1398e-06	2.28e-06	703.51	158.82	4.6993e-06	2.2533e-06	271.38	92.376	48.24	15.342	6.45e-07	30.181	0.00015755	0.00014637	3.7556e-05	469.39	1.7132e-06	1.582e-06	645.4	146.87	1.6567e-06	1.5692e-06	242.22	83.283	43.663	14.286	1.5527e-06	27.443	77.835	228.802	-62.242	-101.743	100.523	71.581	-102.483	-97.319	-42.944	-58.648	-98.511	-95.773	-94.874	-88.509	-6.740	-90.957	-8191	255	
3150.805	1	1	0	0	0.13629	0.28897	0.10143	0.10294	0.18142	0.18276	0.26104	0.17909	0.20742	0.35172	0.11699	0.083947	0.13981	0.12906	0.023062	0.14114	-1.3312	-2.2542	-1.2896	-2.3354	-2.0833	-1.8396	-2.5833	-1.8771	-1.7667	-2.4354	-1.3729	-1.9979	-2.0187	-1.2479	-2.4021	-1.7708	220.234	145.542	-99.703	133.438	23.224	244.007	124.387	15.200	-28.178	125.656	-72.754	-60.622	165.301	11.060	4.722	-52.589	0.00047604	0.00067214	0.00014317	504.94	3.2937e-06	2.2524e-06	705.53	158.93	5.6658e-06	1.9767e-06	275.17	91.948	48.405	15.371	2.5192e-06	30.378	0.0001532	0.00014478	3.871e-05	470.81	1.6446e-06	1.5246e-06	648.49	147.36	1.6327e-06	1.5398e-06	244.33	83.281	43.694	14.252	1.5747e-06	27.501	87.901	-34.213	97.756	-101.573	-26.154	-16.834	-102.463	-96.999	210.553	111.439	-98.354	-95.972	-94.532	-88.909	151.471	-91.473	-8191	255	
3150.901	1	1	0	0	0.14507	0.20738	0.3733	0.17317	0.38901	0.07073	0.16516	0.049547	0.22942	0.2041	0.16499	0.10506	0.31986	0.30332	0.093986	0.11084	-1.3125	-2.3063	-1.45	-1.9604	-2.1771	-1.7771	-2.4271	-1.7854	-1.6021	-2.5271	-1.4625	-2.0104	-2.2042	-1.3687	-2.3854	-1.9104	-54.398	235.634	216.495	-44.722	75.979	24.464	71.452	182.507	94.534	209.448	202.851	228.898	12.859	214.418	-63.026	58.662	0.0003594	0.00033408	0.00010087	505.1	3.138e-06	2.6282e-06	704.73	159.28	1.5692e-06	2.0605e-06	271.33	91.376	47.497	15.103	2.9714e-06	29.995	0.00015163	0.00013777	4.0745e-05	469.78	1.6137e-06	1.4849e-06	648.52	146.8	1.6349e-06	1.4644e-06	243.15	82.464	43.014	14.054	1.6111e-06	27.056	52.872	-82.267	166.567	-102.153	21.858	57.175	-103.016	-97.802	50.609	121.124	-99.101	-96.174	-94.673	-89.154	126.854	-91.367	-8191	255	
3151.020	1	1	0	0	0.24646	0.066282	0.18062	0.37054	0.11535	0.14833	0.018457	0.062024	0.12269	0.20766	0.33169	0.15362	0.12454	0.11167	0.11379	0.1068	-1.0812	-2.3729	-1.4292	-1.9479	-2.2167	-1.4604	-2.5375	-1.9271	-1.3188	-2.3979	-1.7042	-1.8292	-2.5167	-1.5146	-2.3208	-1.8438	120.453	32.731	148.264	-57.473	29.849	100.138	244.422	-78.440	-66.881	49.506	185.267	-28.158	145.495	77.824	82.634	35.529	0.00039509	0.00029095	0.00011235	504.02	4.5327e-06	2.1618e-06	701.91	158.41	4.8499e-06	1.5568e-06	271.23	91.566	47.111	15.145	9.5522e-07	29.666	0.00014441	0.00013499	4.1343e-05	466.85	1.5435e-06	1.4491e-06	644.27	145.77	1.5136e-06	1.4439e-06	242.63	82.356	42.571	14.023	1.6345e-06	26.883	76.838	-51.631	-12.463	-101.742	10.981	106.939	-102.668	-97.396	4.218	31.406	-99.207	-95.831	-95.631	-88.261	-82.280	-91.039	-8191	255	
3151.116	1	1	0	0	0.21015	0.15161	0.28818	0.22256	0.35442	0.20669	0.40297	0.049352	0.32007	0.3245	0.077163	0.2084	0.17006	0.13689	0.23033	0.028512	-0.92917	-2.5979	-1.7979	-1.7979	-2.4125	-1.5771	-2.2208	-2.0083	-1.4312	-2.4708	-1.5646	-1.4208	-2.2083	-1.4188	-2.0271	-2.2042	-36.810	57.399	210.342	-102.828	172.802	163.331	103.218	-98.475	237.340	234.634	136.985	234.221	139.580	81.636	-83.772	223.712	0.00063736	0.00011961	0.00013989	503.91	3.8265e-06	9.5467e-07	706.17	156.53	2.9227e-07	2.7663e-06	272.36	91.031	47.583	15.153	3.358e-06	29.965	0.00013685	0.00013415	4.0892e-05	465.91	1.4677e-06	1.4859e-06	646.26	145.17	1.4691e-06	1.4942e-06	242.41	82.283	42.726	14.049	1.5929e-06	27.002	69.260	-113.072	-3.369	-101.876	8.388	-2.808	-102.701	-97.823	-114.731	-49.632	-99.228	-95.800	-94.456	-88.977	-13.294	-91.013	-8191	255	
3151.212	1	1	0	0	0.089769	0.37632	0.30588	0.077692	0.25698	0.07279	0.20854	0.099807	0.19513	0.24741	0.027753	0.069422	0.25341	0.19887	0.20208	0.22179	-0.775	-2.3125	-1.8417	-1.5417	-2.3667	-1.5417	-2.0187	-2.2667	-1.3708	-2.4188	-2.0021	-1.6646	-2.3521	-1.6375	-1.7979	-2.1042	81.010	-91.338	-7.478	213.496	-22.372	70.139	195.922	51.091	98.685	202.231	-3.461	202.396	-12.494	60.214	82.413	176.232	0.00051702	0.00056333	6.7114e-05	507.55	2.9546e-06	1.9299e-06	705.51	158.14	3.2712e-07	3.8005e-06	270.85	90.894	47.143	15.012	3.1903e-06	29.643	0.00013425	0.00013831	4.0527e-05	467.63	1.4275e-06	1.538e-06	647.76	145.58	1.3994e-06	1.5048e-06	242.57	82.273	42.27	13.967	1.4957e-06	26.709	77.331	29.059	178.646	-102.051	18.049	38.175	-102.477	-97.247	-73.511	-57.816	-99.083	-96.019	-94.508	-88.613	-91.072	-90.999	-8191	255	
3151.308	1	1	0	0	0.25901	0.10846	0.25985	0.24585	0.24128	0.44415	0.18733	0.092388	0.2169	0.20574	0.040231	0.08996	0.17774	0.24696	0.064843	0.17003	-1.0292	-2.1312	-1.8458	-1.5187	-2.2896	-1.5792	-1.7771	-2.2146	-1.2437	-2.1417	-1.95	-1.3375	-2.3042	-1.5833	-1.6646	-2.4083	167.446	75.154	-19.300	-18.744	105.079	148.324	183.665	106.596	-84.807	-0.024	70.481	-39.687	231.759	-100.915	44.007	77.564	0.00024159	0.00014104	8.6265e-05	506.09	3.4737e-06	2.6401e-06	700.66	156.89	1.0039e-06	2.2929e-06	270.21	89.938	46.389	14.838	3.2599e-06	29.225	0.00012781	0.00013997	3.7484e-05	465.23	1.3678e-06	1.5131e-06	643.34	144.24	1.3758e-06	1.5009e-06	240.06	81.122	41.495	13.772	1.4115e-06	26.304	75.486	16.966	5.930	-101.900	-101.906	-24.953	-102.538	-97.135	-16.169	-47.544	-99.048	-95.748	-94.641	-88.770	14.777	-91.040	-8191	255	
3151.404	1	1	0	0	0.27851	0.12595	0.28816	0.17256	0.14957	0.12447	0.17706	0.27098	0.11195	0.19124	0.20852	0.058364	0.099179	0.17232	0.18618	0.31296	-1.1271	-2.3417	-2.1833	-1.4958	-2.4604	-1.7854	-1.6979	-2.3812	-1.3917	-2.0854	-2.2208	-1.5042	-2.1083	-1.7729	-1.5292	-2.55	66.047	59.600	59.384	165.238	118.744	45.625	213.757	-97.662	-56.248	115.381	162.774	-43.228	238.360	193.575	-90.167	171.134	0.0004256	0.00033575	9.0834e-05	502.72	2.9207e-06	1.3434e-06	701.58	156.98	2.9108e-06	5.1601e-06	271.34	90.519	46.118	14.723	1.6233e-06	29.546	0.00012843	0.00013385	3.553e-05	463.6	1.3677e-06	1.4638e-06	643.29	143.78	1.4139e-06	1.4201e-06	240.11	81.015	41.632	13.63	1.3512e-06	26.29	59.397	59.550	225.808	-101.657	-115.477	45.201	-102.891	-97.660	84.465	14.442	-99.243	-95.921	-94.878	-88.665	-83.560	-91.011	-8191	255	
3151.501	1	1	0	0	0.24604	0.18002	0.15947	0.096932	0.10555	0.13717	0.25126	0.30694	0.2792	0.06884	0.058597	0.011262	0.41283	0.066637	0.11811	0.2196	-1.2354	-2.0229	-2.3208	-1.4792	-2.0375	-1.8438	-1.5	-2.1979	-1.4354	-1.7417	-2.1	-1.3833	-2.1958	-2.0396	-1.4646	-2.5208	141.517	-32.913	158.257	15.063	239.006	-95.962	142.156	106.067	212.556	57.776	188.588	91.953	-60.844	154.144	77.601	242.965	0.00052396	0.00058893	0.00018308	497.91	1.9879e-06	2.7174e-06	701.75	157.48	1.2445e-06	4.1263e-06	269.1	90.413	46.692	14.801	2.0415e-06	29.43	0.00013039	0.00012833	3.3405e-05	459.39	1.389e-06	1.3885e-06	640.78	143.55	1.4141e-06	1.3885e-06	239.49	80.857	41.808	13.532	1.2761e-06	26.247	90.171	-81.870	-75.945	-102.062	-42.499	-37.032	-102.667	-97.358	208.145	-26.910	-99.193	-96.260	-95.082	-88.820	-63.637	-91.790	-8191	255	
3151.597	1	1	0	0	0.1677	0.21286	0.13129	0.33875	0.17031	0.2177	0.087338	0.032478	0.056295	0.05495	0.25641	0.33059	0.18268	0.27068	0.095874	0.12276	-1.1292	-1.8208	-2.2188	-1.3479	-2.175	-2.0229	-1.4042	-2.5438	-1.6083	-1.6875	-2.5083	-1.4854	-2.2271	-2.2	-1.7146	-2.4333	-84.048	119.112	-81.825	194.650	169.716	17.969	-26.019	-50.312	111.229	-110.430	164.481	168.716	220.110	77.195	227.979	186.899	0.00029748	0.00017993	4.4219e-05	498.15	3.2265e-06	3.466e-06	696.68	155.49	2.2508e-06	6.4803e-06	269.3	89.454	45.761	14.398	1.6305e-06	29.377	0.00013104	0.00012314	3.2459e-05	459.28	1.4082e-06	1.3408e-06	636.65	142.86	1.41e-06	1.323e-06	238.08	80.367	41.504	13.415	1.2446e-06	26.173	83.734	-78.275	-32.510	-102.156	17.185	17.111	-102.554	-97.474	234.244	62.796	-99.180	-96.056	-95.596	-89.153	240.397	-91.574	-8191	255	
3151.717	1	1	0	0	0.25214	0.34823	0.15038	0.35091	0.054213	0.23003	0.20487	0.21682	0.37247	0.3043	0.12044	0.078874	0.20503	0.07833	0.16094	0.089471	-1.3167	-1.7333	-2.6354	-1.8396	-2.2	-1.925	-1.7062	-2.7438	-1.8604	-1.6875	-2.5083	-1.4583	-1.7979	-2.0896	-1.4604	-2.3708	25.446	-25.499	94.472	226.837	-43.067	56.396	235.954	-109.816	80.431	-39.362	176.336	176.191	18.257	165.252	92.486	-48.737	0.00034952	0.00050927	0.0001168	498.28	2.5404e-06	1.7043e-06	701.7	155.8	1.2612e-06	5.953e-06	268.65	88.715	46.91	14.452	9.7736e-07	29.034	0.00013097	0.000121	3.0858e-05	458.97	1.3723e-06	1.2997e-06	636.66	142.58	1.383e-06	1.3087e-06	237.45	80.064	41.354	13.362	1.2121e-06	26.161	84.856	-48.705	154.186	-101.821	-24.416	43.903	-102.791	-97.443	5.879	-18.251	-99.353	-96.085	-94.015	-88.783	40.528	-90.787	-8191	255	
3151.813	1	1	0	0	0.11624	0.12101	0.14098	0.19055	0.15634	0.22673	0.046366	0.078812	0.25061	0.26971	0.11664	0.10395	0.15154	0.25353	0.2611	0.12084	-1.3667	-1.4833	-2.425	-1.5938	-1.9688	-2.3396	-1.7313	-2.3708	-2.2687	-1.7375	-2.4437	-1.6083	-1.8771	-2.1792	-1.4	-2.2604	-58.127	88.031	113.823	202.001	173.080	202.061	214.154	-73.413	59.037	137.649	160.936	149.863	221.912	197.439	88.018	115.837	0.0004262	0.00043874	0.00010234	500.8	6.6239e-07	2.9668e-06	699.14	155.4	2.2443e-06	9.8307e-07	266	89.315	46.557	14.488	1.6936e-06	29.255	0.00012905	0.00011857	3.1228e-05	461.19	1.3777e-06	1.3108e-06	637.06	143.05	1.3728e-06	1.259e-06	237.53	80.446	41.367	13.443	1.2602e-06	26.3	93.946	-52.092	-47.244	-101.947	-109.259	102.562	-102.688	-97.566	83.392	1.291	-98.930	-95.840	-94.141	-88.253	-102.881	-90.553	-8191	255	
3151.908	1	1	0	0	0.084822	0.077716	0.40222	0.041741	0.15997	0.087134	0.13938	0.12517	0.19009	0.11986	0.17247	0.16928	0.036217	0.1828	0.079705	0.15775	-1.6417	-1.6521	-2.4375	-1.8312	-1.7646	-2.4208	-1.5438	-2.125	-2.0812	-1.2208	-2.5	-1.8563	-1.7479	-2.5062	-1.5646	-2.2792	125.561	-30.946	163.624	9.269	235.916	59.978	210.544	115.469	213.867	53.719	-0.756	89.178	42.010	26.915	182.857	115.289	0.00038227	0.00068563	0.00010521	494.58	3.0821e-06	4.3008e-06	701	157.99	2.7951e-06	3.2016e-06	268.4	89.6	46.736	14.637	1.0502e-06	29.413	0.00012798	0.00011671	3.3171e-05	459.35	1.3954e-06	1.2932e-06	640.33	144.08	1.3905e-06	1.2877e-06	239.73	80.976	41.561	13.568	1.3787e-06	26.505	75.512	-58.078	19.522	-102.231	-64.463	51.469	-102.082	-97.025	-109.919	38.278	-98.651	-95.717	-94.028	-88.105	-15.005	-90.636	-8191	255	
3152.006	1	1	0	0	0.083376	0.21585	0.12294	0.19096	0.20233	0.16806	0.25452	0.048244	0.18968	0.2638	0.1175	0.10872	0.14934	0.1105	0.14212	0.056339	-1.8292	-1.4104	-2.3063	-1.875	-1.5229	-2.3396	-1.4958	-1.9146	-2.0792	-1.2833	-2.3625	-1.8708	-1.525	-2.3333	-1.5	-1.9438	-86.414	-95.473	-64.147	104.546	207.990	81.156	21.085	-58.510	-74.673	109.055	36.199	182.938	-39.922	163.121	-114.396	-73.853	0.00044967	0.00028602	8.3443e-06	496.8	2.7677e-06	2.1582e-07	697.04	156.49	1.9132e-06	4.3502e-06	266.33	89.545	47.352	14.779	3.0513e-06	29.438	0.00012737	0.00011676	3.4991e-05	460.01	1.3641e-06	1.2631e-06	638.28	143.53	1.3761e-06	1.2884e-06	238.51	80.677	41.74	13.616	1.4638e-06	26.451	61.995	-73.233	105.925	-101.965	99.949	9.178	-102.804	-97.483	131.600	-78.100	-98.899	-96.152	-94.508	-88.668	12.333	-90.820	-8191	255	
3152.100	1	1	0	0	0.065422	0.1315	0.29945	0.086234	0.1393	0.1994	0.27913	0.069748	0.23307	0.13692	0.33482	0.080721	0.28306	0.073874	0.04292	0.14505	-1.9708	-1.2208	-2.1625	-2.0458	-1.2354	-2.425	-1.5438	-1.8083	-2.3479	-1.4792	-2.175	-2.0563	-1.4646	-2.3917	-1.6917	-1.7896	126.478	209.712	175.918	147.324	-15.358	37.300	54.792	164.869	55.923	86.322	132.180	-82.561	0.426	-2.922	166.536	183.041	0.00010783	5.9302e-05	0.00010954	497.68	2.9458e-06	8.5463e-07	696.56	157.2	2.4242e-06	2.8603e-06	268.69	89.599	47.245	14.799	3.4047e-06	29.685	0.00012917	0.00012134	3.7635e-05	460.35	1.3638e-06	1.3277e-06	637.69	143.47	1.3601e-06	1.3734e-06	240.2	81.004	41.999	13.813	1.5349e-06	26.697	35.052	76.579	45.593	-101.696	3.636	86.895	-102.830	-97.724	-22.401	57.918	-99.027	-96.022	-94.690	-88.779	44.593	-91.531	-8191	255	
3152.196	1	1	0	0	0.16337	0.20205	0.24403	0.18894	0.2409	0.084885	0.077698	0.34939	0.09844	0.30477	0.10832	0.18605	0.093764	0.10615	0.2288	0.19418	-1.9917	-1.2458	-2.0375	-2.1125	-1.4521	-2.525	-2.0229	-1.9021	-2.4688	-1.3687	-2.0167	-2.1292	-1.4354	-2.4125	-1.9813	-1.725	9.975	-53.342	126.567	233.916	-23.169	171.080	181.942	141.057	109.029	188.759	-70.383	218.209	15.537	158.675	145.053	148.876	0.00031433	0.00035066	9.7047e-05	497.11	4.4277e-06	1.211e-06	696.14	156.48	2.8887e-06	1.6373e-06	267.34	90.32	46.81	14.934	1.7723e-06	29.947	0.0001303	0.00013115	3.8989e-05	460.38	1.3911e-06	1.4303e-06	637.91	143.8	1.3917e-06	1.4835e-06	239.64	81.523	41.971	13.959	1.5893e-06	26.827	96.516	-49.467	-22.514	-102.384	-21.960	102.885	-102.498	-97.064	221.459	93.175	-99.121	-95.996	-95.075	-88.889	50.109	-91.110	-8191	255	
3152.317	1	1	0	0	0.093317	0.11504	0.12817	0.21344	0.16896	0.22631	0.11148	0.23294	0.073491	0.094675	0.2319	0.057225	0.02984	0.10285	0.19308	0.26157	-2.1	-1.3354	-1.9458	-2.0208	-1.2333	-2.4354	-2.0771	-1.7458	-2.5896	-1.7021	-2.1437	-2.4625	-1.4875	-2.325	-2.0583	-1.5146	101.439	77.127	-13.379	227.649	138.304	-91.347	214.944	189.130	-84.414	226.777	177.084	60.446	15.341	174.400	230.225	-112.209	0.00044218	0.0001937	6.1673e-05	494.68	4.3594e-06	9.8932e-07	697.44	155.96	1.583e-06	2.7375e-06	267.19	90.346	47.067	14.982	2.2711e-06	29.781	0.00013086	0.00014082	3.9383e-05	460.23	1.3915e-06	1.5594e-06	638.48	143.06	1.406e-06	1.5593e-06	238.95	81.126	41.917	13.959	1.5678e-06	26.62	59.434	-80.648	-53.321	-101.848	36.016	77.478	-102.778	-97.283	-11.093	162.146	-98.898	-96.069	-94.072	-88.215	-55.290	-91.059	-8191	255	
3152.413	1	1	0	0	0.12934	0.17584	0.22585	0.16792	0.10249	0.20373	0.36893	0.27093	0.10554	0.094132	0.23137	0.17314	0.13897	0.14032	0.4161	0.19579	-1.975	-1.6292	-1.7979	-2.4938	-1.6	-2.4479	-2.0958	-1.5438	-2.3458	-1.5417	-1.7437	-2.2667	-1.4188	-2.2917	-2.15	-1.4333	-109.035	237.418	94.397	-45.208	215.896	-96.465	240.714	224.242	231.118	24.666	-62.525	180.558	-45.521	222.501	114.989	167.147	0.00047924	0.00022649	4.0648e-05	494.96	4.8679e-06	4.4703e-06	696.24	155.56	4.1934e-06	2.0291e-06	266.84	89.528	46.59	14.902	1.6858e-06	29.292	0.00013254	0.00014712	3.903e-05	458.81	1.4498e-06	1.5707e-06	635.81	142.96	1.4343e-06	1.5911e-06	238.75	80.745	42.075	13.897	1.5038e-06	26.452	87.239	217.614	-98.537	-102.329	232.971	37.812	-103.013	-97.791	156.961	68.048	-99.246	-96.857	-95.456	-88.483	78.261	-91.544	-8191	255	
3152.509	1	1	0	0	0.15891	0.084175	0.36946	0.078944	0.17899	0.16219	0.29289	0.15792	0.19686	0.11966	0.049113	0.072615	0.27259	0.36763	0.23268	0.022095	-2.0208	-1.6187	-1.6063	-2.5604	-1.5854	-2.2042	-2.4542	-1.5708	-2.3354	-1.9229	-1.8458	-2.4333	-1.6063	-2.1479	-2.3187	-1.3833	83.639	-76.242	-79.294	202.428	31.157	30.259	164.215	229.031	-115.511	203.381	-104.306	184.889	77.209	-80.593	-80.580	-70.583	0.00058348	0.0003064	0.00013823	497.94	2.1899e-06	3.0833e-06	691.45	155.67	6.4966e-06	4.1071e-06	267.6	89.924	47.576	15.042	1.3957e-06	29.768	0.00014003	0.00014648	3.7984e-05	459.18	1.5346e-06	1.5919e-06	635.99	143.27	1.5488e-06	1.5895e-06	238.75	80.947	42.821	14.017	1.5289e-06	26.745	59.368	212.652	-33.596	-103.045	160.463	39.730	-103.268	-97.802	114.188	33.977	-99.295	-96.804	-94.323	-89.314	81.887	-91.416	-8191	255	
3152.581	1	1	0	0	0.20643	0.10753	0.083539	0.22082	0.097224	0.080507	0.077766	0.25772	0.23381	0.16929	0.19442	0.13052	0.10164	0.07456	0.19044	0.23407	-2.0042	-1.9646	-1.5167	-2.4437	-1.5104	-1.8229	-2.0875	-1.5417	-2.1521	-1.8979	-1.7042	-2.5354	-1.6125	-1.825	-2.3292	-1.4042	232.738	-87.110	-59.229	-51.275	-85.315	201.620	27.795	203.283	176.678	44.388	176.957	-93.968	-106.038	-59.467	-101.174	163.729	0.00066726	0.0005419	8.7215e-05	497.52	3.52e-06	1.0172e-06	702.78	156.35	2.6797e-06	3.1274e-06	268.35	90.648	46.899	15.038	3.0618e-06	29.962	0.00014794	0.00014587	3.865e-05	461.1	1.6228e-06	1.5776e-06	639.75	143.78	1.651e-06	1.5832e-06	239.9	81.56	42.813	14.083	1.505e-06	26.902	76.873	-39.075	-4.875	-102.506	-24.519	79.956	-103.480	-98.227	24.507	59.508	-99.516	-96.569	-95.122	-88.883	-38.595	-91.746	-8191	255	
3152.702	1	1	0	0	0.13172	0.07515	0.28037	0.14092	0.25449	0.19435	0.14024	0.15382	0.17608	0.19965	0.10592	0.043639	0.18131	0.22695	0.017699	0.16138	-1.7292	-1.9688	-1.225	-2.4646	-1.6875	-1.875	-2.5604	-1.6167	-2.2542	-2.1917	-1.5187	-2.6396	-1.9042	-1.7125	-2.6083	-1.825	-71.467	-17.192	-17.602	106.891	215.348	232.583	231.385	129.048	-42.698	223.002	-91.169	141.788	-38.019	109.192	32.167	-7.859	0.00047342	0.00027002	5.4956e-05	494.38	1.5836e-06	2.258e-06	693.56	154.77	4.0067e-06	2.1996e-06	267.63	89.947	46.498	14.913	3.4532e-06	29.736	0.00015265	0.00014306	3.6747e-05	460.01	1.6468e-06	1.5247e-06	634.89	143.04	1.64e-06	1.5304e-06	237.45	80.928	42.517	13.892	1.4239e-06	26.671	92.963	-1.086	-104.696	-102.314	235.938	66.731	-103.278	-97.936	80.311	112.722	-99.228	-96.453	-95.632	-88.725	3.689	-91.302	-8191	255	
3152.798	1	1	0	0	0.12407	0.22671	0.089927	0.024705	0.12595	0.17324	0.020929	0.1745	0.24558	0.31892	0.20557	0.27949	0.17577	0.27173	0.31767	0.13238	-1.9125	-2.3396	-1.6562	-2.5979	-1.9604	-1.9375	-2.5417	-1.5417	-1.9688	-2.2917	-1.2646	-2.45	-1.8667	-1.6375	-2.4646	-1.6396	161.131	-60.829	180.215	203.024	91.992	-94.392	-75.350	-58.513	89.658	55.149	-23.554	195.676	165.186	33.926	68.851	56.172	0.000324	0.00013357	9.1483e-05	496.39	5.2127e-06	2.0681e-06	695.21	154.63	3.0151e-06	1.5052e-06	267.79	89.9	46.641	14.918	3.1289e-07	29.368	0.00014835	0.00013782	3.5556e-05	460.83	1.5999e-06	1.474e-06	634.55	143.19	1.5752e-06	1.5059e-06	238.1	81.155	42.368	13.856	1.4374e-06	26.646	121.274	12.382	12.652	-102.645	2.106	218.485	-102.805	-97.528	118.501	40.407	-99.335	-96.332	-95.654	-88.777	34.578	-91.223	-8191	255	
3152.894	1	1	0	0	0.19562	0.11268	0.076826	0.29387	0.074692	0.20164	0.14095	0.026337	0.12742	0.18669	0.27898	0.042512	0.14441	0.067559	0.24884	0.13292	-1.5812	-2.3604	-1.5312	-2.3312	-1.8083	-1.5146	-2.4771	-1.5021	-1.8479	-2.3854	-1.5021	-2.2479	-1.9062	-1.4813	-2.55	-1.7313	121.471	207.438	28.109	204.174	102.407	-45.361	216.397	-16.783	-88.689	33.722	141.461	151.316	116.937	202.948	131.779	211.893	0.0005581	0.00026534	5.8832e-05	497.96	1.3758e-06	2.7647e-06	691.25	155.68	7.9432e-06	3.3895e-06	266.24	90.156	46.947	14.68	3.6457e-06	29.228	0.00014445	0.00013313	3.6467e-05	460.78	1.5436e-06	1.4384e-06	634.81	143.4	1.5527e-06	1.439e-06	238.1	81.417	42.246	13.705	1.472e-06	26.511	75.225	-8.930	-81.148	-102.439	-77.041	34.477	-102.791	-97.673	-27.461	19.757	-99.102	-96.144	-94.196	-88.507	231.104	-90.800	-8191	255	
3152.988	1	1	0	0	0.34924	0.11255	0.14984	0.16647	0.10927	0.14192	0.16695	0.10262	0.18369	0.19788	0.075349	0.029399	0.073832	0.11897	0.14773	0.16881	-1.4229	-2.3083	-1.5354	-2.1229	-2.0667	-1.3979	-2.3312	-1.8062	-1.7771	-2.45	-1.5729	-2.2583	-2.325	-1.5667	-2.4375	-2.0062	-101.960	-83.608	89.103	-65.949	196.407	178.149	131.663	5.577	2.731	96.940	-97.861	104.489	140.071	154.072	53.788	180.382	0.00063561	0.00045945	8.5198e-05	492.62	2.5884e-06	4.1101e-06	694.13	153.91	7.2711e-06	3.0224e-06	265.9	89.489	47.777	14.755	3.0975e-06	29.271	0.0001396	0.00013018	3.6995e-05	458.33	1.513e-06	1.3933e-06	634.37	142.73	1.4993e-06	1.3984e-06	237.15	81.094	42.179	13.649	1.5244e-06	26.444	70.667	80.791	83.606	-102.058	58.016	10.535	-103.181	-97.725	-0.250	57.939	-99.558	-96.191	-94.521	-89.161	12.832	-91.508	-8191	255	
3153.109	1	1	0	0	0.34842	0.13035	0.096025	0.21461	0.1749	0.15913	0.19252	0.21847	0.041897	0.075343	0.12146	0.1803	0.069438	0.44301	0.023242	0.36745	-1.3438	-2.4542	-1.4792	-2.1063	-2.1771	-1.5729	-2.3208	-1.825	-1.5688	-2.2438	-1.5104	-1.9646	-2.3083	-1.3396	-2.2542	-2.15	49.542	155.986	-55.135	198.145	103.770	67.313	156.128	143.216	128.274	198.276	186.611	-49.449	80.689	219.548	95.256	188.480	0.00066921	0.0003853	0.00011519	495.48	4.3904e-06	1.9188e-06	691.99	154.76	1.723e-06	5.201e-06	267.06	90.349	46.449	14.774	4.3217e-06	29.435	0.00013858	0.0001288	3.9235e-05	460.54	1.4919e-06	1.3932e-06	634.9	142.99	1.4567e-06	1.4071e-06	238.37	81.359	41.938	13.727	1.5941e-06	26.603	74.412	14.716	172.289	-101.928	-29.626	-16.981	-102.893	-97.606	44.000	56.139	-98.649	-96.026	-94.764	-88.789	12.622	-91.149	-8191	255	
3153.205	1	1	0	0	0.051617	0.1346	0.034553	0.16574	0.19107	0.2405	0.16772	0.17696	0.022943	0.13377	0.087296	0.11247	0.14612	0.11454	0.045855	0.11585	-1.075	-2.3792	-1.7958	-1.9479	-2.5104	-1.6896	-2.2771	-2.1437	-1.6167	-2.4833	-1.8687	-1.8833	-2.3479	-1.5021	-2.3	-2.1813	-90.021	16.948	207.468	206.313	83.725	19.687	228.345	129.487	11.506	-71.329	-56.152	-55.949	32.164	41.399	198.520	-49.234	0.00037463	0.00018715	0.00017053	499.73	9.5207e-07	4.6255e-06	697.9	155.17	3.5241e-06	2.2828e-06	264.77	90.802	46.204	15.018	2.2703e-06	29.415	0.00013579	0.00012969	3.9663e-05	461.2	1.4626e-06	1.4338e-06	638.85	142.98	1.429e-06	1.435e-06	238.64	81.657	41.738	13.878	1.5785e-06	26.663	91.001	46.071	-69.900	-101.597	93.039	-6.419	-102.400	-97.891	-21.466	208.849	-98.716	-95.516	-94.184	-87.894	19.901	-91.168	-8191	255	
3153.278	1	1	0	0	0.11704	0.079451	0.26585	0.13187	0.17162	0.050547	0.063447	0.35052	0.16577	0.13597	0.026307	0.079847	0.16738	0.3515	0.092366	0.20612	-0.95625	-2.1271	-1.5854	-1.7625	-2.4229	-1.5938	-2.2354	-2.3563	-1.7479	-2.5854	-1.8417	-1.5063	-2.4229	-1.5229	-2.0292	-2.2292	195.950	93.517	115.509	-74.987	197.580	-27.164	169.653	-31.484	-93.566	-76.293	202.994	-9.524	-103.128	-112.922	-29.239	237.944	0.00029169	0.00018663	0.00011718	495.71	5.9555e-06	8.3069e-07	693.37	155.33	1.5945e-06	2.0262e-06	265.56	90.606	47.159	14.771	2.4946e-06	29.269	0.00013309	0.00013614	4.0519e-05	460.18	1.4389e-06	1.5103e-06	638.38	143.67	1.4241e-06	1.5346e-06	238.58	81.542	41.863	13.798	1.5149e-06	26.338	75.264	180.740	221.342	-101.841	-52.877	46.845	-102.364	-97.448	112.517	182.368	-99.518	-96.132	-94.580	-88.753	-91.095	-90.972	-8191	255	
3153.397	1	1	0	0	0.13703	0.23557	0.22275	0.18566	0.17122	0.090383	0.12901	0.19559	0.15874	0.14578	0.20001	0.30825	0.45249	0.18446	0.10623	0.063237	-0.95	-2.3333	-1.9021	-1.8333	-2.5729	-1.7792	-2.1333	-2.3979	-1.4292	-2.2729	-1.9	-1.4354	-2.3937	-1.7583	-1.6875	-2.3958	34.505	122.386	218.679	59.048	111.967	193.261	-45.360	-94.538	65.803	-14.545	182.763	152.284	-104.406	207.717	147.427	71.139	0.00029851	0.00012555	0.00013747	495.55	4.1353e-06	2.1783e-06	697.28	154.77	4.8456e-06	3.1535e-06	265.41	89.626	45.821	14.483	3.7535e-06	29.261	0.00012957	0.0001402	3.8409e-05	458.47	1.391e-06	1.4982e-06	635.91	142.36	1.3828e-06	1.5159e-06	237.08	80.629	41.248	13.632	1.45e-06	26.194	92.399	-68.066	-24.819	-102.130	237.095	52.247	-102.476	-97.353	-111.339	-61.873	-98.935	-96.202	-94.573	-88.550	23.575	-90.623	-8191	255	
3153.493	1	1	0	0	0.14156	0.2282	0.275	0.154	0.15736	0.22174	0.18395	0.28517	0.14014	0.16246	0.18589	0.21288	0.19088	0.1667	0.072162	0.22776	-0.97708	-2.0917	-2.0042	-1.8771	-2.4833	-1.7687	-1.9729	-2.4104	-1.2729	-2.0604	-2.0833	-1.4729	-2.4521	-1.7958	-1.9292	-2.3042	-57.648	116.076	71.385	221.247	63.688	107.864	-103.118	192.013	101.112	-23.308	187.321	-75.423	20.505	-41.554	19.049	64.525	0.0006913	0.00013491	4.8145e-05	500.2	4.211e-06	8.6133e-07	697.36	154.72	3.2229e-06	3.2709e-06	268.24	89.962	46.122	14.651	2.3331e-06	29.384	0.00013153	0.0001403	3.7121e-05	459.95	1.4266e-06	1.5368e-06	638.33	142.27	1.419e-06	1.4989e-06	238.83	80.829	41.737	13.644	1.4076e-06	26.189	87.231	-90.251	30.787	-101.624	42.012	-89.105	-102.279	-97.400	-67.984	77.003	-98.970	-95.653	-93.718	-88.336	45.818	-90.764	-8191	255	
3153.590	1	1	0	0	0.10999	0.27551	0.33417	0.13356	0.092545	0.12524	0.19541	0.10587	0.22358	0.19016	0.20734	0.12503	0.059372	0.22703	0.12203	0.4676	-1.0333	-1.95	-2.1833	-1.4646	-2.3792	-1.8833	-1.6708	-2.7417	-1.4604	-2.0417	-2.2771	-1.3979	-2.1167	-1.9021	-1.3	-2.4042	160.387	-52.939	-41.385	144.956	-71.169	72.365	208.461	181.774	35.110	150.789	-95.483	166.355	-111.317	236.975	202.999	110.737	0.00021148	0.00029811	0.00012535	496.46	6.0548e-07	5.126e-06	695.56	155.54	2.5855e-06	4.9236e-07	267.64	90.126	46.17	14.568	7.8783e-07	29.008	0.00013506	0.00013538	3.6206e-05	457.58	1.4562e-06	1.4746e-06	637.89	142.17	1.467e-06	1.4416e-06	238.54	80.816	41.699	13.489	1.3566e-06	26.116	71.901	17.283	178.317	-102.151	-67.369	-1.158	-102.390	-97.407	-95.091	79.486	-99.635	-96.133	-94.801	-89.217	-24.384	-91.453	-8191	255	
3153.686	1	1	0	0	0.21015	0.25519	0.12176	0.22787	0.27552	0.15111	0.16563	0.26076	0.19004	0.13566	0.15101	0.15286	0.17764	0.086161	0.29277	0.22213	-1.2792	-2.0146	-2.3229	-1.5729	-2.3667	-1.9667	-1.5417	-2.4458	-1.5146	-1.8729	-2.4729	-1.5542	-2.2375	-2.0333	-1.2188	-2.3104	-3.429	132.029	-97.673	3.920	171.411	-47.726	205.897	218.617	242.652	-102.872	92.545	220.161	-109.823	-108.016	-96.387	201.851	0.00032661	7.2682e-05	7.6138e-05	495.09	2.9993e-06	3.3987e-06	694.49	154.4	1.7922e-06	2.1373e-06	266.03	89.418	46.047	14.366	2.1743e-06	28.762	0.00013683	0.00012617	3.3184e-05	456.05	1.4313e-06	1.3955e-06	633.02	141.2	1.4398e-06	1.3629e-06	236.54	79.892	40.998	13.295	1.2361e-06	25.769	52.396	-78.510	-103.671	-102.104	26.819	-13.849	-103.006	-98.077	192.633	121.527	-98.978	-95.809	-94.352	-88.190	-4.891	-90.739	-8191	255	
3153.806	1	1	0	0	0.071023	0.063687	0.2527	0.19734	0.058978	0.12628	0.19931	0.17396	0.016676	0.35429	0.33384	0.061962	0.17663	0.18936	0.18568	0.24948	-1.3312	-1.9417	-2.4125	-1.3438	-2.0417	-2.0479	-1.4729	-2.3625	-1.9208	-1.6979	-2.5542	-1.7354	-2.1521	-2.3229	-1.6417	-2.4562	81.511	71.844	-9.099	-58.782	166.638	-42.899	102.856	86.264	25.668	59.754	145.143	149.293	97.908	-53.714	106.467	221.660	0.00039789	0.0004397	6.8313e-05	493.09	2.42e-06	5.9999e-06	692.62	154.39	1.8048e-06	3.3566e-06	263.65	89.359	45.544	14.277	5.5967e-06	28.551	0.00013163	0.00012171	3.1661e-05	453.35	1.3688e-06	1.3073e-06	632.61	141.33	1.3662e-06	1.264e-06	234.92	79.957	40.806	13.138	1.1547e-06	25.598	32.853	-110.283	-56.110	-102.349	112.372	-14.734	-102.969	-97.687	117.860	-26.471	-98.919	-96.384	-94.719	-89.450	47.940	-90.873	-8191	255	
3153.878	1	1	0	0	0.257	0.057915	0.075865	0.11335	0.14995	0.11095	0.15677	0.13542	0.14459	0.12696	0.20865	0.23384	0.17638	0.13418	0.025969	0.053382	-1.3521	-1.3375	-2.4437	-1.4688	-2.0271	-2.2208	-1.4937	-2.5271	-1.8917	-1.5292	-2.3021	-1.5875	-1.8896	-2.2417	-1.2979	-2.1229	114.508	-109.822	117.771	184.748	69.701	95.649	88.296	29.237	-96.097	132.054	-104.112	65.343	169.543	113.070	223.552	89.239	0.00025495	7.084e-05	8.4759e-05	494.31	2.3887e-06	2.4527e-06	693.24	154.99	7.3187e-06	1.5032e-06	266.13	89.172	46.141	14.387	1.6349e-06	28.868	0.00012389	0.00011252	2.9356e-05	455.8	1.3114e-06	1.2344e-06	633.24	141.47	1.3086e-06	1.2221e-06	235.82	79.852	40.619	13.129	1.1805e-06	25.872	117.729	90.802	137.502	-102.194	-5.116	-3.267	-102.585	-97.706	-13.957	-46.924	-99.417	-96.072	-94.657	-88.714	154.530	-90.900	-8191	255	
3153.999	1	1	0	0	0.16359	0.019867	0.23564	0.29676	0.096513	0.3216	0.09181	0.097857	0.096456	0.094943	0.15399	0.13665	0.11867	0.099764	0.10515	0.16844	-1.5708	-1.3792	-2.3583	-1.5812	-1.9458	-2.4688	-1.3542	-2.3042	-2.0667	-1.4229	-2.1333	-1.4625	-1.4729	-2.2938	-1.4438	-1.9375	162.871	185.263	234.260	210.864	23.462	93.413	234.627	133.381	95.752	157.352	135.420	-31.951	131.012	-76.461	122.013	198.385	0.00030491	0.00021771	8.3085e-05	490.47	1.2681e-06	2.51e-06	695.74	153.11	2.679e-06	5.0041e-06	266.32	89.365	45.978	14.136	2.1818e-06	28.67	0.00011879	0.00011064	2.9854e-05	453.87	1.2572e-06	1.1693e-06	633.13	140.85	1.2559e-06	1.1784e-06	236.25	79.844	40.655	13.017	1.2368e-06	25.629	66.696	-90.053	-39.020	-102.216	235.957	-54.537	-102.976	-97.057	17.917	18.654	-99.117	-96.079	-94.884	-88.657	240.675	-90.899	-8191	255	
3154.093	1	1	0	0	0.26926	0.10739	0.22445	0.19472	0.051658	0.1686	0.046392	0.088877	0.30759	0.13094	0.054053	0.12669	0.19695	0.26776	0.18638	0.18586	-1.5938	-1.35	-2.55	-1.8792	-1.7208	-2.5938	-1.7354	-2.0625	-2.2625	-1.6479	-2.3417	-1.8708	-1.6688	-2.3688	-1.5	-2.0625	-106.327	150.637	-61.612	81.051	-21.685	-31.376	81.057	189.270	222.322	-67.159	114.241	73.246	-1.802	-64.719	-80.963	-73.688	0.00046216	0.00034497	0.00012719	490.55	4.5046e-06	1.1651e-06	689.44	154.31	3.9327e-06	1.2734e-06	265.78	87.907	45.946	14.421	3.7544e-06	28.739	0.00011701	0.00010496	3.0898e-05	454.47	1.2415e-06	1.1371e-06	632.38	141.21	1.2339e-06	1.1492e-06	236.09	79.558	40.436	13.159	1.3203e-06	25.777	79.798	-47.289	22.813	-102.568	-32.498	-55.523	-102.971	-97.654	-7.460	181.193	-100.050	-96.677	-94.955	-89.118	-0.534	-91.717	-8191	255	
3154.189	1	1	0	0	0.24922	0.23763	0.27588	0.093544	0.32138	0.10136	0.08136	0.20198	0.23465	0.10329	0.4137	0.23058	0.29227	0.067938	0.087128	0.090655	-1.9312	-1.6896	-2.375	-1.9	-1.5542	-2.3521	-1.525	-1.8646	-2.2583	-1.1875	-2.3125	-2.0083	-1.6146	-2.5479	-1.6896	-1.6458	-43.998	-53.468	-86.395	-47.748	-86.209	20.919	165.720	192.033	118.839	190.247	239.102	148.940	194.223	143.496	-56.016	-107.095	0.00027094	0.00051697	4.5385e-05	492.87	2.3103e-06	2.2164e-06	695.41	154.42	2.2419e-06	1.3236e-06	266.81	88.878	45.715	14.413	1.251e-06	29.182	0.00011735	0.00011058	3.3126e-05	455.72	1.2614e-06	1.1952e-06	632.7	141.53	1.254e-06	1.2017e-06	236.44	79.834	40.799	13.269	1.3478e-06	26.034	108.127	4.200	-19.303	-102.418	90.951	13.946	-102.922	-97.522	-95.528	-76.398	-99.335	-96.752	-94.875	-88.997	-82.486	-90.910	-8191	255	
3154.285	1	1	0	0	0.039814	0.14844	0.1021	0.31577	0.079949	0.25828	0.21895	0.19854	0.084656	0.086607	0.14706	0.23461	0.12804	0.22565	0.20197	0.013843	-1.95	-1.3958	-2.2896	-2.1208	-1.5208	-2.3625	-1.9083	-2.0333	-2.3667	-1.5708	-2.1146	-2.1792	-1.7188	-2.4604	-1.9375	-1.7542	-14.466	59.621	-115.589	-91.352	46.075	186.728	228.124	-48.002	-54.050	124.533	171.216	147.343	-74.412	160.405	168.407	196.259	0.00042428	0.00046227	0.00016501	493.96	2.9611e-06	2.4901e-06	691.12	155	4.5887e-06	4.5934e-06	264.47	89.257	46.251	14.457	2.5441e-06	28.91	0.0001166	0.00011261	3.4451e-05	454.55	1.2349e-06	1.272e-06	633.53	141.7	1.2372e-06	1.2683e-06	236.21	79.845	40.764	13.381	1.3842e-06	25.908	86.453	200.729	-43.583	-102.496	-5.640	-19.747	-103.322	-97.825	-48.615	81.294	-99.124	-96.468	-94.206	-88.170	49.146	-90.794	-8191	255	
3154.406	1	1	0	0	0.25791	0.1299	0.19582	0.20358	0.036438	0.34914	0.099754	0.10593	0.14944	0.21516	0.12239	0.081519	0.19847	0.068715	0.27169	0.13342	-1.8958	-1.5417	-1.9625	-2.2771	-1.4813	-2.375	-1.9667	-1.6792	-2.4375	-1.7	-2.1771	-2.3521	-1.4	-2.1583	-1.6875	-1.5646	-21.647	68.791	35.554	239.945	-85.760	73.777	133.161	18.759	-58.182	112.402	-15.043	193.351	-22.535	-88.768	162.415	217.455	0.00051138	0.00024597	0.00012926	488.51	2.8826e-06	1.4849e-06	687.02	152.33	1.9722e-06	4.0297e-06	263.87	88.655	45.735	14.365	2.398e-06	28.631	0.00011796	0.00012011	3.4036e-05	451.74	1.1983e-06	1.3237e-06	627.7	139.94	1.2169e-06	1.3318e-06	234.53	79.375	40.306	13.326	1.3673e-06	25.66	73.454	-108.510	-7.594	-102.342	215.649	180.339	-102.955	-97.464	-6.244	78.851	-98.913	-96.043	-94.215	-88.336	226.762	-91.120	-8191	255	
3154.502	1	1	0	0	0.10234	0.14966	0.13963	0.19484	0.1019	0.13234	0.18146	0.15529	0.055518	0.15066	0.06269	0.15765	0.26608	0.12421	0.12186	0.057198	-1.9042	-1.4688	-1.7125	-2.1625	-1.4792	-2.2896	-2.1437	-1.4438	-2.5396	-1.8312	-2.0917	-2.3479	-1.4833	-2.1937	-2.1125	-1.4562	192.740	-20.699	-73.272	20.253	160.560	181.483	116.886	109.472	165.094	0.894	123.282	209.889	-17.683	-1.962	149.798	-66.142	0.00047121	0.0005875	0.00011454	492.14	1.8985e-06	5.0791e-06	681.84	153.28	3.7912e-06	2.801e-06	264	88.517	46.123	14.534	5.0538e-07	28.525	0.00011671	0.00012609	3.3903e-05	451.41	1.2568e-06	1.3766e-06	625.38	139.89	1.2897e-06	1.4054e-06	234.1	79.331	40.865	13.459	1.3427e-06	25.8	54.878	11.816	-59.792	-101.829	-24.340	-38.712	-102.578	-97.000	-9.526	240.610	-99.012	-95.884	-94.542	-88.562	-18.909	-90.442	-8191	255	
3154.574	1	1	0	0	0.2615	0.17651	0.31092	0.24618	0.085472	0.18135	0.16208	0.12988	0.15825	0.097213	0.21566	0.15232	0.11401	0.18476	0.13702	0.25314	-2.0604	-1.5875	-1.8729	-2.3729	-1.5125	-2.2	-2.3917	-1.2958	-2.3396	-1.8354	-1.7062	-2.2354	-1.4729	-2.1	-2.175	-1.5063	42.099	182.589	-79.942	176.673	3.385	213.045	218.370	231.771	87.933	240.435	126.286	199.875	184.955	167.668	243.609	171.681	0.00032494	0.00020521	0.00013136	490.1	2.3951e-06	1.5133e-06	689.25	153.23	3.7988e-06	9.7506e-07	264.48	89.769	46.617	14.601	2.4496e-06	28.846	0.00012583	0.00013457	3.4778e-05	453.22	1.3469e-06	1.4678e-06	629.38	140.65	1.399e-06	1.4594e-06	235.69	80.216	41.746	13.613	1.3937e-06	25.931	60.408	206.151	28.282	-101.550	7.122	125.633	-103.200	-97.356	-15.573	218.933	-98.934	-96.217	-94.357	-88.448	-15.965	-90.914	-8191	255	
3154.670	1	1	0	0	0.10047	0.22899	0.32541	0.18718	0.13423	0.18221	0.25272	0.23534	0.13907	0.18158	0.27839	0.19925	0.13574	0.049482	0.077561	0.3345	-1.6938	-1.8333	-1.6708	-2.45	-1.4729	-1.8188	-2.3833	-1.4375	-2.2313	-1.9604	-1.5958	-2.4583	-1.6917	-2.0917	-2.2792	-1.3958	181.554	201.628	60.167	200.481	-26.551	64.261	149.726	-34.246	235.648	168.970	210.360	186.771	75.856	45.847	221.272	75.478	0.00053125	0.00014742	1.6353e-05	490.28	2.1309e-06	3.4346e-06	689.2	151.78	4.2227e-06	3.7275e-07	262.5	88.424	45.937	14.602	5.2498e-06	29.136	0.00013214	0.00013445	3.5302e-05	452.1	1.4429e-06	1.4381e-06	627.72	139.99	1.4698e-06	1.4419e-06	234.34	79.72	41.644	13.606	1.3732e-06	25.95	79.357	145.506	-106.164	-102.128	190.271	-20.727	-102.852	-97.269	-72.102	12.031	-99.200	-95.895	-94.248	-88.521	28.857	-90.864	-8191	255	
3154.791	1	1	0	0	0.18407	0.049408	0.12941	0.22008	0.17836	0.24547	0.034216	0.090172	0.024529	0.11061	0.065977	0.12472	0.24126	0.13381	0.013133	0.25235	-1.8792	-1.9292	-1.5146	-2.4417	-1.6375	-1.7917	-2.5292	-1.5854	-2.275	-2.0438	-1.6375	-2.4271	-1.5417	-1.7625	-2.4938	-1.4542	135.205	70.695	185.107	214.865	-86.613	19.912	203.622	-100.266	68.078	219.302	139.650	220.898	130.233	18.619	40.395	-42.285	0.00060851	0.00034562	7.1291e-05	489.4	2.6654e-06	3.8751e-06	682.3	152.37	1.6869e-06	8.3657e-07	262.81	88.734	46.209	14.665	3.0554e-06	29.08	0.00014137	0.00013423	3.485e-05	452.7	1.5425e-06	1.4469e-06	624.55	139.99	1.5122e-06	1.4379e-06	234.26	80.246	41.816	13.653	1.3829e-06	26.161	70.143	-55.986	63.608	-101.575	-45.985	-27.649	-102.690	-97.322	-48.317	48.756	-98.708	-95.808	-94.567	-88.432	46.943	-90.608	-8191	255	
3154.885	1	1	0	0	0.08354	0.32443	0.098746	0.11805	0.16294	0.22413	0.14138	0.21426	0.10356	0.19151	0.32383	0.12579	0.070182	0.2166	0.22682	0.11015	-1.6938	-2.0938	-1.4896	-2.4479	-1.6833	-1.7563	-2.7354	-1.625	-1.8625	-1.8625	-1.4062	-2.5375	-1.7354	-1.5333	-2.4125	-1.5021	-54.563	-6.544	165.305	240.343	62.936	79.308	229.854	174.565	96.620	40.781	213.141	108.500	57.331	125.431	170.199	83.713	0.00051352	0.00014399	3.9567e-05	489.38	4.9006e-06	2.983e-06	686.81	152.81	6.0219e-06	2.9887e-06	263.4	89.074	46.526	14.685	6.8479e-06	29.304	0.00014502	0.00013557	3.4267e-05	453.89	1.5541e-06	1.4682e-06	629.23	141.08	1.5456e-06	1.4957e-06	235.08	80.689	42.165	13.763	1.3758e-06	26.427	64.692	-83.752	107.792	-102.423	-66.401	28.518	-103.000	-98.062	-29.620	105.092	-98.845	-96.172	-95.430	-88.809	38.946	-91.769	-8191	255	
3154.981	1	1	0	0	0.06996	0.15143	0.014129	0.22178	0.17346	0.38638	0.24692	0.15471	0.114	0.084202	0.15501	0.24454	0.25592	0.11526	0.090045	0.10054	-1.4646	-2.4042	-1.2667	-2.3958	-2.1021	-1.5667	-2.4813	-1.6125	-1.7792	-1.9958	-1.4375	-2.25	-2.0687	-1.4271	-2.4562	-1.7	188.985	234.517	236.562	152.493	104.341	86.128	217.235	-69.186	-64.871	217.566	25.274	190.373	205.424	156.941	206.119	-90.977	0.00045547	0.00049661	0.00017231	494.1	3.5462e-06	4.6686e-06	687.65	153.75	3.5296e-06	1.2226e-06	262.41	89.33	46.552	14.868	2.2702e-06	29.39	0.00014671	0.00013587	3.596e-05	457.13	1.5868e-06	1.4715e-06	629.77	142	1.5885e-06	1.5073e-06	235.29	81.102	42.302	13.847	1.5063e-06	26.448	70.099	-35.187	-63.334	-102.516	7.686	50.321	-102.579	-97.359	-10.629	161.247	-99.039	-95.882	-94.299	-88.411	244.277	-91.457	-8191	255	
3155.079	1	1	0	0	0.33331	0.27523	0.19226	0.33746	0.017545	0.088971	0.18745	0.11648	0.23298	0.27195	0.13972	0.23037	0.19394	0.07213	0.22278	0.10218	-1.4917	-2.4688	-1.4167	-2.3312	-2.0896	-1.4333	-2.6188	-1.9813	-1.7625	-2.2958	-1.35	-2.1542	-2.275	-1.5271	-2.1937	-2.0417	166.882	122.427	216.676	-60.998	-71.745	-24.883	140.474	225.487	7.671	-94.789	232.220	-102.101	-65.105	206.503	128.939	204.808	0.00051043	0.00025211	2.3806e-05	491.69	3.7959e-06	3.9684e-06	684.14	153.4	3.7524e-06	2.412e-06	263.17	89.656	46.669	14.952	1.5059e-06	29.322	0.00014333	0.00013552	3.7658e-05	456.29	1.5734e-06	1.4554e-06	627.05	141.64	1.5714e-06	1.4868e-06	235.72	81.058	42.487	13.916	1.5903e-06	26.573	78.805	-37.369	-72.708	-102.172	24.319	17.771	-102.953	-97.556	35.284	44.035	-98.876	-96.138	-94.903	-88.964	-35.116	-91.193	-8191	255	
3155.175	1	1	0	0	0.30471	0.2109	0.048041	0.21505	0.14101	0.15756	0.22508	0.29505	0.03114	0.16069	0.11611	0.33568	0.19065	0.070605	0.045806	0.30761	-1.4813	-2.5333	-1.4958	-2.1208	-2.0208	-1.425	-2.3646	-1.7146	-1.6437	-2.3979	-1.6792	-2.2583	-2.3167	-1.1771	-2.2229	-1.8937	62.961	45.401	21.520	211.456	194.520	21.413	202.170	26.131	50.258	-61.536	219.569	-58.530	39.696	-71.440	53.004	87.544	0.00042705	0.00053994	8.3959e-05	490.36	2.6991e-06	2.1168e-06	689.16	153	4.8163e-06	1.1268e-06	261.92	89.611	46.143	15.079	9.1803e-07	29.378	0.00014827	0.00013832	4.1538e-05	457.23	1.6246e-06	1.504e-06	631.64	141.91	1.5961e-06	1.4929e-06	237.02	81.46	42.656	14.027	1.6987e-06	26.765	72.040	-73.949	-69.947	-102.024	-86.191	159.581	-102.844	-97.609	-34.311	34.676	-99.112	-95.838	-95.177	-89.164	86.139	-91.528	-8191	255	
3155.270	1	1	0	0	0.097269	0.11403	0.16544	0.12839	0.10963	0.17789	0.17228	0.2812	0.11352	0.21062	0.11539	0.094383	0.071365	0.07266	0.23675	0.2827	-1.2188	-2.4229	-1.6146	-2.1458	-2.2917	-1.5958	-2.2188	-1.9542	-1.4333	-2.3542	-1.3833	-1.8375	-2.4542	-1.3542	-2.1833	-1.9958	-107.087	30.025	192.450	-55.683	242.811	-50.822	94.527	239.700	173.434	53.206	94.883	122.629	86.134	15.002	120.160	137.569	0.00046215	0.0004855	7.4347e-05	495.96	1.6771e-06	2.9895e-06	692.44	154.85	1.424e-06	4.7769e-06	265.57	90.699	46.827	15.114	1.4421e-06	29.302	0.00015301	0.00014377	4.4446e-05	461.5	1.6565e-06	1.5717e-06	637.51	143.72	1.6125e-06	1.6106e-06	239.03	81.985	42.736	14.087	1.7516e-06	26.635	59.390	239.108	-115.535	-102.011	-26.215	-76.404	-103.194	-97.637	-28.883	161.201	-99.336	-95.827	-94.381	-89.169	-38.046	-91.175	-8191	255	
3155.366	1	1	0	0	0.19892	0.19309	0.21554	0.063522	0.32722	0.016813	0.28556	0.092329	0.23503	0.092374	0.10647	0.35026	0.31553	0.19003	0.13674	0.19261	-1.1771	-2.4062	-1.7875	-1.8687	-2.6	-1.4417	-2.3417	-2.2292	-1.5583	-2.4604	-1.8	-1.725	-2.4625	-1.4979	-2.1	-2.1188	-4.222	-76.836	-61.245	-46.000	9.528	202.114	195.011	145.906	217.211	190.779	182.345	93.513	-48.984	219.202	139.712	-17.614	0.00047161	0.00020673	1.9048e-05	489.39	6.916e-06	4.5773e-06	684.72	152.65	2.8788e-06	4.301e-06	265.76	89.743	46.784	14.961	3.4649e-06	29.227	0.00014356	0.00014709	4.3515e-05	455.9	1.5446e-06	1.6062e-06	630.32	141.63	1.5147e-06	1.6249e-06	237.36	81.354	42.567	14.047	1.7211e-06	26.524	78.985	187.280	-0.049	-102.126	-58.562	-65.734	-102.496	-97.329	-88.052	10.160	-99.690	-96.208	-94.898	-88.718	9.862	-91.542	-8191	255	
3155.486	1	1	0	0	0.10015	0.08365	0.20327	0.12251	0.085629	0.44841	0.13877	0.038577	0.27907	0.14007	0.16764	0.23344	0.23188	0.20995	0.14076	0.17737	-0.84792	-2.3708	-1.5958	-1.4417	-2.4188	-1.5896	-1.8854	-2.3021	-1.5167	-2.3458	-2.1104	-1.4937	-2.4479	-1.5312	-1.8792	-2.35	217.726	190.739	124.690	178.923	145.994	122.526	210.260	46.103	51.501	-65.307	-7.575	-114.845	-53.439	59.151	16.174	14.010	0.00047388	0.00021131	0.00016776	492.18	3.2827e-07	1.8716e-06	688.36	152.96	1.3522e-06	5.7001e-06	262.97	90.35	46.405	14.774	1.2217e-06	29.297	0.00014296	0.00015352	4.3009e-05	456.34	1.5259e-06	1.6598e-06	630.43	141.46	1.4865e-06	1.6507e-06	236.25	81.358	42.266	13.98	1.6314e-06	26.471	89.539	-32.062	240.933	-102.403	-3.935	-36.715	-103.189	-97.510	177.396	57.468	-99.541	-96.531	-94.889	-89.131	210.286	-91.073	-8191	255	
3155.583	1	1	0	0	0.22418	0.24194	0.036787	0.18317	0.099237	0.11215	0.049041	0.27904	0.22596	0.12396	0.05623	0.23626	0.071748	0.20243	0.16658	0.012489	-1.1354	-2.1542	-1.9417	-1.35	-2.3625	-1.5292	-1.8937	-2.2896	-1.4417	-1.9833	-2.1625	-1.3875	-2.525	-1.7083	-1.7604	-2.3375	-91.625	117.655	72.721	9.596	-67.729	-71.313	-101.595	-97.156	68.691	-88.525	-57.013	-12.319	-31.988	16.134	74.870	191.015	0.00045564	0.00032967	3.6201e-05	493.81	2.1432e-06	4.5657e-06	686.2	154.73	3.261e-06	2.2964e-06	263.92	89.809	47.401	14.839	2.1717e-06	29.267	0.00014221	0.00015409	4.0748e-05	456.96	1.5101e-06	1.686e-06	630.74	141.56	1.5217e-06	1.66e-06	237.21	81.026	42.459	13.941	1.5499e-06	26.405	83.908	-77.211	154.945	-102.272	-43.241	18.153	-103.440	-98.098	190.254	65.466	-99.750	-96.695	-94.900	-89.195	102.109	-91.628	-8191	255	
3155.679	1	1	0	0	0.18461	0.27396	0.22423	0.087717	0.20874	0.15596	0.11358	0.17869	0.32777	0.25204	0.10569	0.29128	0.20966	0.1745	0.17904	0.21735	-1.0854	-2.0917	-2.0917	-1.3583	-2.1875	-1.7812	-1.5792	-2.4021	-1.4146	-1.8646	-1.9646	-1.3354	-2.225	-1.6167	-1.5354	-2.4271	145.363	104.777	185.523	183.519	-114.937	-41.111	95.316	-75.167	171.704	234.038	-46.249	46.965	106.189	213.170	7.489	194.079	0.00028727	0.0004283	0.00010337	493.52	1.7757e-06	2.8492e-07	688.15	154.77	1.6539e-06	1.3436e-06	265.66	90.69	46.406	14.848	3.7495e-06	29.513	0.00014509	0.00015003	3.9923e-05	454.87	1.5991e-06	1.6695e-06	631.78	142.08	1.6335e-06	1.6323e-06	237.91	81.364	42.394	13.888	1.5455e-06	26.371	59.889	48.767	-93.430	-102.529	211.276	86.423	-102.764	-98.203	-61.360	18.528	-99.635	-96.772	-94.354	-89.692	67.054	-91.396	-8191	255	
3155.775	1	1	0	0	0.03198	0.25168	0.22515	0.30158	0.14727	0.20517	0.2332	0.088339	0.076263	0.19733	0.14019	0.042875	0.057502	0.29049	0.17971	0.082388	-1.0583	-2.0479	-2.2625	-1.5958	-2.2146	-2.0062	-1.6542	-2.5208	-1.375	-1.9042	-2.5521	-1.5021	-2.2146	-2.0646	-1.6396	-2.5167	124.740	4.824	72.433	177.565	62.174	124.211	6.420	155.402	29.463	14.014	145.133	81.018	-66.791	94.560	201.110	-32.673	0.00033364	0.00020129	4.6333e-05	490.58	2.2208e-06	4.8771e-06	688.09	152.51	1.7244e-06	4.043e-06	264.58	89.559	46.187	14.536	1.1002e-06	29.348	0.00015123	0.00014574	3.9228e-05	455.01	1.6476e-06	1.6064e-06	631.05	140.98	1.6494e-06	1.562e-06	236.79	80.896	42.532	13.717	1.4637e-06	26.322	77.268	-75.284	51.661	-102.439	37.706	27.564	-103.005	-98.221	122.938	-3.557	-99.403	-96.566	-94.608	-89.294	13.260	-91.359	-8191	255	
3155.871	1	1	0	0	0.1459	0.18377	0.15531	0.24313	0.30675	0.10505	0.18367	0.15929	0.11402	0.097484	0.29439	0.27101	0.21762	0.028719	0.07535	0.081933	-1.4937	-1.9854	-2.4583	-1.4292	-2.3	-2.0062	-1.4958	-2.5583	-1.65	-1.7458	-2.5375	-1.3396	-1.9229	-2.1396	-1.7188	-2.2729	226.671	159.700	-5.086	177.933	-94.536	99.457	136.300	209.783	58.274	158.137	225.369	162.559	206.137	211.847	146.952	32.183	0.00024559	6.2302e-05	0.00012225	492.54	3.4484e-06	3.3312e-06	689.91	152.59	8.073e-06	2.4361e-06	265.85	90.393	46.52	14.606	1.8357e-06	28.955	0.00015119	0.00013739	3.6515e-05	454.67	1.6028e-06	1.5138e-06	631.74	141.49	1.5839e-06	1.465e-06	237.42	81.262	42.148	13.645	1.3683e-06	26.243	53.577	104.073	-37.166	-102.470	48.073	-17.587	-103.411	-97.853	101.201	29.829	-99.172	-96.399	-94.080	-89.146	-40.533	-91.622	-8191	255	
3155.967	1	1	0	0	0.17041	0.096171	0.27663	0.19584	0.11496	0.21466	0.18682	0.047641	0.086844	0.24031	0.14922	0.14822	0.13944	0.17598	0.25128	0.03166	-1.4667	-1.8625	-2.25	-1.6562	-2.2208	-2.4229	-1.5542	-2.4813	-1.9771	-1.7	-2.5396	-1.4104	-2.0292	-2.3667	-1.5146	-2.3708	112.221	-0.612	61.707	168.892	-43.866	232.473	173.566	142.649	154.457	204.381	-110.071	76.384	102.845	207.354	225.076	-56.598	0.00044091	0.00041753	0.00014072	491.7	4.2115e-06	3.9706e-06	689.52	154.36	4.3167e-06	2.7092e-06	264.23	89.683	46.123	14.254	3.5705e-06	28.819	0.00014472	0.00013125	3.4315e-05	454.9	1.5229e-06	1.4232e-06	631.11	141.79	1.5037e-06	1.3687e-06	235.58	80.57	41.426	13.341	1.2932e-06	25.927	87.993	19.634	-89.138	-102.157	-84.823	76.913	-102.992	-97.803	-37.975	89.443	-98.953	-96.345	-95.564	-89.221	112.905	-91.897	-8191	255	
3156.086	1	1	0	0	0.06606	0.10721	0.16046	0.21287	0.18576	0.096637	0.22528	0.13709	0.080721	0.21056	0.075727	0.2556	0.21792	0.20544	0.12511	0.19131	-1.5938	-1.6375	-2.6	-1.7854	-2.0938	-2.2333	-1.7	-2.3167	-2.0354	-1.5187	-2.6458	-1.8312	-1.9979	-2.4021	-1.6917	-2.3312	-1.834	-104.478	-19.942	101.346	-61.185	15.743	155.682	148.011	-87.221	-110.586	22.198	226.012	105.161	37.309	216.181	-114.805	0.00042078	0.00037434	0.00010101	491.1	1.3401e-06	2.2766e-06	687.96	152.32	5.4077e-06	5.3604e-06	264.25	89.405	45.322	14.246	1.6001e-06	28.441	0.00013556	0.00011931	3.3146e-05	454.18	1.3968e-06	1.3205e-06	627.32	140.64	1.4154e-06	1.2897e-06	234.05	80.262	40.866	13.15	1.2945e-06	25.69	99.752	58.288	221.527	-102.376	11.261	60.386	-103.060	-97.830	-91.376	-41.260	-99.728	-95.987	-94.299	-89.550	62.724	-91.601	-8191	255	
3156.182	1	1	0	0	0.13006	0.096105	0.014792	0.28026	0.035422	0.080819	0.35731	0.29951	0.064781	0.018218	0.042365	0.19932	0.13858	0.11336	0.33216	0.067057	-1.8042	-1.6292	-2.4188	-1.8062	-1.9167	-2.4208	-1.5146	-2.1021	-2.1771	-1.5458	-2.5604	-1.9667	-1.5771	-2.4167	-1.5854	-2.075	153.757	-88.633	242.605	153.145	30.366	222.281	243.059	128.215	81.858	-44.751	157.861	104.842	11.480	14.413	141.723	155.834	0.00024789	0.0003901	8.5435e-05	486.14	5.185e-06	6.1504e-07	683.38	151.02	4.6737e-06	3.8461e-06	263.46	88.938	45.903	14.288	4.1524e-06	28.856	0.00012915	0.0001165	3.3112e-05	450.77	1.3324e-06	1.2357e-06	625.95	139.25	1.347e-06	1.2433e-06	234.37	79.903	40.778	13.163	1.3574e-06	25.794	67.648	-19.357	-22.298	-102.261	19.408	76.147	-102.954	-97.526	-50.540	45.176	-98.957	-96.121	-94.827	-89.075	78.569	-91.038	-8191	255	
3156.278	1	1	0	0	0.10897	0.24623	0.15547	0.047635	0.18404	0.32238	0.13952	0.35187	0.061651	0.40303	0.059953	0.030712	0.22555	0.1194	0.25091	0.16584	-1.8104	-1.3396	-2.4625	-1.975	-1.6542	-2.4771	-1.6375	-1.85	-2.0438	-1.3979	-2.2896	-1.7188	-1.5125	-2.475	-1.8687	-2.1771	-40.036	-68.815	4.309	215.189	123.415	238.098	-65.704	93.862	56.468	185.884	202.584	198.648	56.036	-66.496	224.226	197.843	0.00031134	0.00043237	8.9253e-05	490.89	5.6151e-06	3.4668e-06	685.51	151.45	2.8707e-06	3.117e-06	263.19	88.772	45.091	14.223	3.0384e-06	28.615	0.00012286	0.00011266	3.4427e-05	451.42	1.2949e-06	1.2154e-06	628.4	139.46	1.325e-06	1.2024e-06	234.59	80.154	40.432	13.155	1.369e-06	25.672	77.815	-39.480	25.749	-102.392	-5.104	-37.234	-102.455	-96.975	2.843	136.989	-99.127	-96.540	-95.211	-88.832	179.252	-91.009	-8191	255	
3156.374	1	1	0	0	0.13683	0.13402	0.093526	0.18995	0.26669	0.096119	0.34485	0.20442	0.2157	0.19005	0.17886	0.1534	0.13184	0.13039	0.14422	0.1658	-2.0104	-1.6562	-2.2125	-1.9708	-1.3229	-2.425	-1.8104	-1.8687	-2.2896	-1.5042	-2.2687	-2.0542	-1.3646	-2.3667	-1.5812	-1.6979	214.072	171.723	112.090	37.734	-79.904	-51.318	73.225	116.740	-39.769	-58.560	168.058	20.302	47.311	205.642	221.568	157.593	0.00041783	0.00031431	0.00011645	487.17	1.7128e-06	1.4651e-06	681.83	152.42	2.5989e-06	1.9041e-06	263.22	88.451	45.957	14.094	1.7726e-06	28.075	0.00011725	0.0001138	3.422e-05	448.83	1.2327e-06	1.2134e-06	625.5	139.12	1.2342e-06	1.2527e-06	233.45	79.266	40.354	13.018	1.372e-06	25.256	109.493	4.021	-86.342	-102.371	13.016	-3.680	-102.756	-97.425	-107.899	-50.737	-98.967	-96.259	-94.301	-89.000	217.614	-90.859	-8191	255	
3156.446	1	1	0	0	0.091527	0.15816	0.18712	0.12551	0.068182	0.26529	0.3277	0.073047	0.14663	0.32242	0.22366	0.16033	0.04317	0.21938	0.24934	0.17327	-1.7396	-1.3438	-2.0896	-2.0833	-1.4917	-2.2875	-1.6729	-1.775	-2.5958	-1.6021	-2.1354	-2.3104	-1.5646	-2.475	-1.8625	-1.7854	242.023	149.353	-58.887	119.687	18.043	30.823	144.958	208.398	94.457	5.269	-49.040	-16.100	181.436	-95.383	3.092	222.078	0.0004356	6.2356e-05	0.00015291	483.36	2.3931e-06	7.1232e-07	681.36	150.41	4.2769e-06	1.5638e-06	260.46	88.688	44.401	14.075	3.7696e-06	28.377	0.0001117	0.00011478	3.4344e-05	446.26	1.1967e-06	1.2615e-06	622.05	137.83	1.2118e-06	1.2836e-06	232.66	79.21	39.798	13.04	1.3377e-06	25.398	67.984	-48.128	-29.315	-102.470	119.418	145.822	-102.660	-97.582	-63.378	139.902	-99.203	-96.268	-94.757	-89.329	221.002	-90.903	-8191	255	
3156.567	1	1	0	0	0.054113	0.32954	0.066296	0.18407	0.087833	0.17642	0.14734	0.2048	0.086333	0.22808	0.2416	0.06927	0.15431	0.25302	0.094827	0.033119	-2.1417	-1.5542	-1.8687	-2.3021	-1.3667	-2.0208	-1.8521	-1.4688	-2.3104	-1.6812	-1.7542	-2.4396	-1.6354	-2.2604	-2.0083	-1.5063	-54.028	-54.583	3.130	199.819	-93.290	-15.432	49.554	119.037	38.157	97.158	-50.549	-39.391	241.493	-79.201	236.726	-99.882	0.0004236	0.00059457	0.00010872	484.44	2.8845e-06	4.0682e-06	682.65	151.57	7.4665e-06	2.3433e-06	261.93	88.539	44.913	14.049	5.982e-06	28.35	0.00011358	0.00012208	3.2944e-05	446.41	1.1947e-06	1.3232e-06	624.32	138.09	1.1987e-06	1.3326e-06	232.54	79.281	40.05	13.012	1.2622e-06	25.202	60.232	14.436	62.287	-102.067	-81.249	51.835	-102.801	-97.635	16.591	194.253	-99.162	-96.254	-94.908	-88.926	24.557	-90.602	-8191	255	
3156.663	1	1	0	0	0.28646	0.13463	0.1809	0.17838	0.041143	0.24107	0.23402	0.10378	0.22043	0.29354	0.041536	0.22905	0.057169	0.08669	0.065022	0.23386	-1.9396	-1.6208	-1.9312	-2.5396	-1.4042	-2.0583	-2.1188	-1.3333	-2.2271	-1.6021	-1.5729	-2.4354	-1.3042	-2.2375	-2.2396	-1.4479	241.767	-73.573	-57.409	157.605	-38.409	-33.786	202.758	223.260	209.615	-4.975	-110.156	-76.364	137.682	-25.201	7.183	220.050	0.0003909	0.00018564	0.000174	482.63	3.4577e-06	2.7264e-06	682.76	149.95	4.1643e-06	3.7904e-06	259.58	87.95	44.836	14.073	4.7005e-07	27.938	0.000114	0.00012371	3.2098e-05	446.38	1.2272e-06	1.319e-06	622.23	137.47	1.2488e-06	1.3594e-06	231.46	78.774	40.156	13.004	1.2848e-06	25.099	70.176	62.118	239.581	-102.084	2.042	52.192	-102.774	-97.514	33.804	-28.285	-99.375	-96.276	-95.047	-88.636	129.010	-91.323	-8191	255	
3156.759	1	1	0	0	0.17913	0.25055	0.16008	0.12029	0.2496	0.1931	0.26134	0.332	0.22934	0.15669	0.073013	0.10107	0.30029	0.17016	0.012004	0.15857	-2.3479	-1.7729	-1.6271	-2.5396	-1.6083	-2.1354	-2.5583	-1.5667	-2.5375	-1.8563	-1.5583	-2.4396	-1.4104	-1.8917	-2.0333	-1.3271	103.131	187.589	183.264	220.607	54.521	78.171	113.110	140.189	-35.730	-82.742	7.354	-51.834	-3.798	-101.417	1.279	-91.762	0.00035351	0.0001371	0.00012526	481.63	1.3678e-06	2.091e-06	685.13	150.2	4.2509e-06	3.931e-06	262.5	87.912	45.835	14.087	1.9523e-06	28.114	0.00012186	0.00012362	3.2104e-05	444.96	1.3351e-06	1.355e-06	622.8	137.93	1.3583e-06	1.3429e-06	231.64	79.147	40.73	13.083	1.2907e-06	25.241	82.496	-23.996	-46.924	-102.090	-77.715	86.096	-102.707	-97.694	-85.848	93.787	-99.165	-96.040	-95.427	-89.185	48.079	-91.490	-8191	255	
3156.880	1	1	0	0	0.36328	0.10106	0.0878	0.23756	0.26504	0.10246	0.28148	0.25687	0.19992	0.31878	0.085598	0.18884	0.14035	0.28318	0.084607	0.14267	-1.75	-1.8542	-1.5458	-2.2292	-1.6313	-1.8021	-2.2542	-1.6938	-2.2271	-1.9937	-1.3354	-2.2604	-1.4229	-1.6958	-2.2833	-1.5167	191.691	-31.156	-93.389	228.074	194.730	-25.728	119.264	125.271	-63.897	11.487	124.966	211.125	7.604	201.572	2.373	-55.589	0.00045745	0.00046822	0.00018521	487.7	1.5995e-06	1.7282e-06	683.38	150.66	2.1089e-06	6.48e-06	262.29	88.898	45.263	14.152	1.438e-06	28.357	0.000127	0.00012083	3.1438e-05	447.71	1.3891e-06	1.3161e-06	624.5	138.38	1.4037e-06	1.3312e-06	233.33	79.653	40.994	13.181	1.2672e-06	25.503	94.024	-66.938	-84.321	-102.407	-66.649	-65.731	-103.072	-97.677	47.800	64.386	-99.104	-96.154	-95.037	-88.722	6.087	-91.157	-8191	255	
3156.974	1	1	0	0	0.092052	0.054659	0.14622	0.080376	0.18887	0.23579	0.088446	0.10004	0.020086	0.23726	0.1009	0.26001	0.29306	0.33585	0.11349	0.15744	-1.8292	-2.1771	-1.5604	-2.4208	-1.6396	-1.8167	-2.375	-1.7104	-2.2542	-2.2417	-1.5417	-2.1958	-1.7917	-1.6396	-2.1667	-1.4479	-111.771	52.678	178.645	62.863	-88.175	44.048	202.599	-47.124	139.702	-52.037	143.215	-23.631	-3.743	178.320	44.873	-75.558	0.000294	0.00045259	3.065e-05	484.97	4.2653e-06	1.913e-06	681.17	152.29	1.0142e-06	6.3575e-06	262.47	89.216	45.432	14.175	6.1332e-06	28.411	0.00012868	0.00012112	3.112e-05	448.68	1.4082e-06	1.3063e-06	624.17	139.29	1.3829e-06	1.2999e-06	232.73	79.957	40.967	13.178	1.2149e-06	25.531	74.602	-47.045	64.815	-102.287	42.665	18.903	-102.881	-97.470	9.203	79.314	-98.975	-95.705	-95.174	-89.271	-19.725	-91.570	-8191	255	
3157.048	1	1	0	0	0.21114	0.314	0.28459	0.2157	0.022185	0.071673	0.10889	0.05199	0.058681	0.49525	0.015658	0.1504	0.22096	0.069443	0.035357	0.025981	-1.5146	-1.9521	-1.3854	-2.2958	-1.7521	-1.4458	-2.3187	-1.4229	-1.6792	-2.1708	-1.1979	-2.2125	-1.7917	-1.4	-2.4354	-1.4167	217.547	93.500	232.139	65.763	39.049	-89.538	109.680	-10.534	-83.705	62.326	142.342	67.568	93.422	-68.324	53.305	12.930	0.00064607	0.00034308	6.0515e-05	485.63	8.361e-07	5.6767e-06	681.17	151.97	3.03e-06	3.1415e-06	262.33	88.644	45.707	14.166	1.9178e-06	28.367	0.00012615	0.00011877	3.0841e-05	450.57	1.3913e-06	1.272e-06	623.66	138.9	1.3694e-06	1.2939e-06	232.13	79.56	40.868	13.047	1.2471e-06	25.511	86.584	25.650	63.589	-101.932	132.998	3.181	-103.209	-97.648	-73.983	46.767	-99.014	-95.971	-94.776	-88.974	-42.468	-91.378	-8191	255	
3157.166	1	1	0	0	0.036533	0.40667	0.19811	0.30985	0.24819	0.048122	0.18599	0.047123	0.071037	0.21648	0.11305	0.3654	0.15355	0.069415	0.091528	0.13738	-1.5792	-2.2333	-1.4417	-2.2521	-2.0875	-1.4813	-2.6104	-1.8375	-1.7313	-2.2021	-1.4583	-2.1729	-2.2083	-1.525	-2.5271	-1.8104	-92.377	233.207	162.075	221.483	141.611	242.257	145.063	205.020	-102.025	144.912	185.103	-112.187	187.207	137.195	98.418	57.287	0.00063606	0.00039542	7.8617e-05	486.1	4.7922e-06	2.3825e-06	689.18	150.5	7.0001e-06	4.3988e-06	261.75	88.829	45.608	14.244	3.0509e-06	28.426	0.00012471	0.00011715	3.1821e-05	449.05	1.3507e-06	1.2555e-06	624.88	138.94	1.3264e-06	1.2583e-06	233.04	79.683	40.667	13.121	1.2928e-06	25.534	74.283	-48.561	-44.699	-101.918	13.984	-15.392	-102.776	-97.732	33.377	105.722	-99.387	-96.137	-94.846	-89.169	18.478	-91.084	-8191	255	
3157.263	1	1	0	0	0.12968	0.27265	0.18377	0.26447	0.24601	0.17627	0.26133	0.089076	0.2171	0.20846	0.18324	0.25291	0.24379	0.033161	0.14623	0.11242	-1.4417	-2.4688	-1.4875	-2.2417	-2.1771	-1.55	-2.3375	-1.8354	-1.675	-2.4062	-1.5292	-1.9896	-2.1625	-1.3292	-2.1417	-1.8521	23.503	89.752	-0.297	206.071	141.037	-18.562	223.384	87.241	128.091	-54.369	-8.358	-59.773	119.558	183.746	188.299	156.107	0.00038684	0.00012068	9.1161e-05	489.74	4.7804e-07	5.1097e-07	687.28	150.82	3.7293e-06	5.5698e-06	262.85	88.537	45.728	14.278	1.6999e-06	28.333	0.0001241	0.00011134	3.3094e-05	450.69	1.3144e-06	1.1934e-06	626.11	139.51	1.2898e-06	1.2073e-06	233.65	79.732	40.783	13.115	1.3272e-06	25.52	92.725	-78.431	149.782	-102.535	-86.091	211.828	-102.727	-97.570	-100.904	-43.755	-99.380	-96.016	-94.978	-89.032	187.783	-91.149	-8191	255	
3157.359	1	1	0	0	0.20476	0.042281	0.056447	0.1653	0.18391	0.32207	0.15993	0.22773	0.33099	0.17988	0.17322	0.10765	0.21537	0.25036	0.060355	0.16398	-1.1854	-2.3667	-1.4042	-1.8667	-2.0333	-1.2437	-2.3438	-1.8104	-1.6208	-2.4271	-1.6104	-1.9125	-2.2562	-1.3	-2.1771	-1.9417	181.217	134.118	119.681	-110.348	-84.941	-63.427	-79.546	-114.627	215.480	230.955	107.128	-1.928	-84.265	175.004	28.545	-71.816	0.00040114	0.00032115	0.00010221	484.94	4.2561e-07	3.8671e-06	681.07	150.94	2.6889e-06	2.5761e-06	258.99	87.621	45.129	13.905	4.3285e-06	27.796	0.00011663	0.00010962	3.3398e-05	448.22	1.2798e-06	1.1896e-06	623.56	138.17	1.2257e-06	1.2001e-06	231.46	78.902	39.929	12.884	1.3704e-06	25.121	90.018	-85.497	190.602	-101.887	232.241	-10.992	-102.622	-97.712	-104.460	96.727	-99.555	-96.146	-95.285	-89.167	98.383	-91.653	-8191	255	
3157.479	1	1	0	0	0.11606	0.18453	0.073721	0.26571	0.15003	0.23039	0.14079	0.13582	0.23185	0.14107	0.17646	0.19671	0.14794	0.19964	0.18369	0.13923	-1.1146	-2.3896	-1.5646	-1.7229	-2.2271	-1.4875	-2.1437	-2.1437	-1.3937	-2.4229	-1.6688	-1.8708	-2.2896	-1.3625	-1.9958	-2.1813	-48.671	191.114	239.617	225.369	-45.306	151.933	162.199	179.391	196.670	-36.374	-72.583	9.542	-112.146	175.156	-103.865	-29.912	0.00042191	0.00027834	0.00022566	484.31	2.1966e-06	2.6425e-06	675.45	149.68	2.9551e-06	3.9728e-06	261.4	87.901	44.97	14.041	8.9146e-07	28.084	0.00011432	0.00011322	3.3876e-05	446.85	1.2349e-06	1.2354e-06	619.8	137.27	1.2016e-06	1.2705e-06	232.16	78.837	39.813	12.93	1.3402e-06	25.213	77.943	-111.799	-50.438	-102.871	82.620	24.290	-102.743	-97.566	-25.545	-12.427	-99.284	-95.913	-94.550	-88.683	-35.323	-91.527	-8191	255	
#DATA ENDS
