BOXY.EXE: ISS Imagent and Oximeter Data Acquisition Program Version 0.80
Ascii Record File

#ACQ INFORMATION
2  Detector Channels 
16  External MUX Channels 
1  Auxiliary Channels 
5000  Waveform (CCF) Frequency (Hz)
1  Waveforms Skipped 
30  Waveforms Averaged 
1  Cycles Averaged 
16  Acquisitions per Waveform 
10.0806  Updata Rate (Hz) 

#FILE INFORMATION
TRUE -- External MUX Channel results are PARSED.
FALSE -- AC DC and Phase are NOT grouped.
TRUE -- Companion Program Settings File CREATED.
FALSE -- AC data not excluded
FALSE -- DC data not excluded
FALSE -- Phase data not excluded
FALSE -- Auxillary Chn. data not excluded
Tab delimiters

#CALIBRATION STATE
TRUE -- Waveform Calibration Values APPLIED.


#AUX CALIBRATION VALUES
Val Type	aux-1	

Term	1.0000e+00	
Factor	0.0000e+00	


#WF CALIBRATION VALUES
A = Detector Channel
Val Type	A-AC1	A-AC2	A-AC3	A-AC4	A-AC5	A-AC6	A-AC7	A-AC8	A-AC9	A-AC10	A-AC11	A-AC12	A-AC13	A-AC14	A-AC15	A-AC16	A-DC1	A-DC2	A-DC3	A-DC4	A-DC5	A-DC6	A-DC7	A-DC8	A-DC9	A-DC10	A-DC11	A-DC12	A-DC13	A-DC14	A-DC15	A-DC16	A-Ph1	A-Ph2	A-Ph3	A-Ph4	A-Ph5	A-Ph6	A-Ph7	A-Ph8	A-Ph9	A-Ph10	A-Ph11	A-Ph12	A-Ph13	A-Ph14	A-Ph15	A-Ph16	

Term	0.00000e+00	0.00000e+00	0.00000e+00	0.00000e+00	0.00000e+00	0.00000e+00	0.00000e+00	0.00000e+00	0.00000e+00	0.00000e+00	0.00000e+00	0.00000e+00	0.00000e+00	0.00000e+00	0.00000e+00	0.00000e+00	0.00000e+00	0.00000e+00	0.00000e+00	0.00000e+00	0.00000e+00	0.00000e+00	0.00000e+00	0.00000e+00	0.00000e+00	0.00000e+00	0.00000e+00	0.00000e+00	0.00000e+00	0.00000e+00	0.00000e+00	0.00000e+00	0.00000e+00	0.00000e+00	0.00000e+00	0.00000e+00	0.00000e+00	0.00000e+00	0.00000e+00	0.00000e+00	0.00000e+00	0.00000e+00	0.00000e+00	0.00000e+00	0.00000e+00	0.00000e+00	0.00000e+00	0.00000e+00	
Factor	1.00000e+00	1.00000e+00	1.00000e+00	1.00000e+00	1.00000e+00	1.00000e+00	1.00000e+00	1.00000e+00	1.00000e+00	1.00000e+00	1.00000e+00	1.00000e+00	1.00000e+00	1.00000e+00	1.00000e+00	1.00000e+00	1.00000e+00	1.00000e+00	1.00000e+00	1.00000e+00	1.00000e+00	1.00000e+00	1.00000e+00	1.00000e+00	1.00000e+00	1.00000e+00	1.00000e+00	1.00000e+00	1.00000e+00	1.00000e+00	1.00000e+00	1.00000e+00	X	X	X	X	X	X	X	X	X	X	X	X	X	X	X	X	

B = Detector Channel
Val Type	B-AC1	B-AC2	B-AC3	B-AC4	B-AC5	B-AC6	B-AC7	B-AC8	B-AC9	B-AC10	B-AC11	B-AC12	B-AC13	B-AC14	B-AC15	B-AC16	B-DC1	B-DC2	B-DC3	B-DC4	B-DC5	B-DC6	B-DC7	B-DC8	B-DC9	B-DC10	B-DC11	B-DC12	B-DC13	B-DC14	B-DC15	B-DC16	B-Ph1	B-Ph2	B-Ph3	B-Ph4	B-Ph5	B-Ph6	B-Ph7	B-Ph8	B-Ph9	B-Ph10	B-Ph11	B-Ph12	B-Ph13	B-Ph14	B-Ph15	B-Ph16	

Term	0.00000e+00	0.00000e+00	0.00000e+00	0.00000e+00	0.00000e+00	0.00000e+00	0.00000e+00	0.00000e+00	0.00000e+00	0.00000e+00	0.00000e+00	0.00000e+00	0.00000e+00	0.00000e+00	0.00000e+00	0.00000e+00	0.00000e+00	0.00000e+00	0.00000e+00	0.00000e+00	0.00000e+00	0.00000e+00	0.00000e+00	0.00000e+00	0.00000e+00	0.00000e+00	0.00000e+00	0.00000e+00	0.00000e+00	0.00000e+00	0.00000e+00	0.00000e+00	-1.96768e+02	-1.29699e+02	-1.34807e+02	-1.86339e+02	-7.54990e+01	-7.41266e+01	-1.58506e+02	-1.62015e+02	-8.93850e+01	-6.60437e+01	-1.71896e+02	-1.71132e+02	-1.83122e+02	-1.77420e+02	-7.77319e+01	-1.49721e+02	
Factor	4.32825e-05	1.44022e-04	4.41656e-05	2.97642e-01	1.53383e-06	1.64817e-06	1.64269e-01	5.16134e-02	1.72359e-06	1.70877e-06	8.37101e-02	2.83187e-02	3.98013e-02	9.20130e-03	1.82911e-06	1.31369e-02	6.94130e-06	8.10315e-06	2.27153e-06	1.56454e-01	8.77933e-08	8.93870e-08	8.17851e-02	2.74120e-02	8.57484e-08	8.94539e-08	4.31033e-02	1.45842e-02	2.12693e-02	4.93711e-03	8.74364e-08	6.82897e-03	X	X	X	X	X	X	X	X	X	X	X	X	X	X	X	X	



#DISTANCE SETTINGS
A = Detector Channel
A-1	A-2	A-3	A-4	A-5	A-6	A-7	A-8	A-9	A-10	A-11	A-12	A-13	A-14	A-15	A-16	

2.5000e+00	3.0000e+00	2.5000e+00	3.0000e+00	2.0000e+00	3.0000e+00	1.5000e+00	3.0000e+00	3.0000e+00	3.0000e+00	3.0000e+00	3.0000e+00	3.0000e+00	3.0000e+00	1.5000e+00	3.0000e+00	

B = Detector Channel
B-1	B-2	B-3	B-4	B-5	B-6	B-7	B-8	B-9	B-10	B-11	B-12	B-13	B-14	B-15	B-16	

1.0000e+01	1.0000e+01	1.0000e+01	1.4400e+00	1.0000e+01	1.0000e+01	1.5100e+00	1.9400e+00	1.0000e+01	1.0000e+01	1.9900e+00	2.4900e+00	2.4100e+00	2.9000e+00	1.0000e+01	2.9800e+00	




#DATA BEGINS
time	group	step	mark	flag	A-AC1	A-AC2	A-AC3	A-AC4	A-AC5	A-AC6	A-AC7	A-AC8	A-AC9	A-AC10	A-AC11	A-AC12	A-AC13	A-AC14	A-AC15	A-AC16	A-DC1	A-DC2	A-DC3	A-DC4	A-DC5	A-DC6	A-DC7	A-DC8	A-DC9	A-DC10	A-DC11	A-DC12	A-DC13	A-DC14	A-DC15	A-DC16	A-Ph1	A-Ph2	A-Ph3	A-Ph4	A-Ph5	A-Ph6	A-Ph7	A-Ph8	A-Ph9	A-Ph10	A-Ph11	A-Ph12	A-Ph13	A-Ph14	A-Ph15	A-Ph16	B-AC1	B-AC2	B-AC3	B-AC4	B-AC5	B-AC6	B-AC7	B-AC8	B-AC9	B-AC10	B-AC11	B-AC12	B-AC13	B-AC14	B-AC15	B-AC16	B-DC1	B-DC2	B-DC3	B-DC4	B-DC5	B-DC6	B-DC7	B-DC8	B-DC9	B-DC10	B-DC11	B-DC12	B-DC13	B-DC14	B-DC15	B-DC16	B-Ph1	B-Ph2	B-Ph3	B-Ph4	B-Ph5	B-Ph6	B-Ph7	B-Ph8	B-Ph9	B-Ph10	B-Ph11	B-Ph12	B-Ph13	B-Ph14	B-Ph15	B-Ph16	aux-1	digaux	

21332.008	1	1	0	256	0.093015	0.18659	0.042195	0.049063	0.20493	0.16094	0.22423	0.43136	0.074593	0.20914	0.12331	0.21257	0.27009	0.11365	0.26365	0.31859	-2.175	-1.925	-2.4938	-2.6646	-1.7521	-2.5271	-2.3688	-2.3271	-2.7646	-2.0021	-2.3187	-2.7125	-1.8917	-2.7375	-2.3875	-2.1021	-63.501	212.374	221.948	99.950	120.991	261.200	175.805	201.527	-92.483	2.727	182.879	265.498	104.800	205.531	-34.998	224.169	0.00040992	0.00029459	0.00018294	1366.7	4.9945e-06	8.6768e-06	1367.9	366.83	4.9884e-06	3.6509e-06	419.28	140.2	122.02	42.501	4.7863e-06	52.027	0.0010582	0.001145	0.00031942	1395.9	1.2466e-05	1.2416e-05	1389.2	375.65	1.22e-05	1.2484e-05	429.1	144.85	126.88	43.932	1.2444e-05	54.109	133.261	1.684	-15.007	-80.477	26.610	57.549	-80.916	-75.862	-5.598	67.338	-76.444	-72.382	-71.981	-66.576	61.376	-67.674	-8191	255	
21332.129	1	1	0	0	0.22486	0.13035	0.24881	0.1521	0.1295	0.13884	0.076021	0.069804	0.13837	0.12235	0.17985	0.23201	0.13961	0.4105	0.23093	0.22162	-2.3125	-1.9854	-2.2875	-2.5729	-1.8813	-2.6167	-2.6833	-2.2687	-2.7313	-2.1917	-2.3438	-2.7771	-1.9562	-2.6271	-2.5938	-2.1292	225.131	56.908	13.173	247.894	236.401	-76.219	203.761	40.463	237.403	77.566	189.893	242.075	179.032	239.995	91.131	263.261	0.00041232	0.00051801	8.4169e-05	1367.2	4.4218e-06	5.3566e-06	1366.3	368.29	2.7527e-06	4.4967e-06	418.52	140.21	122.62	42.437	7.8469e-06	52.242	0.0010675	0.0011544	0.00032392	1393.8	1.2675e-05	1.2539e-05	1387.6	375.7	1.2281e-05	1.2704e-05	428.58	144.77	126.62	43.846	1.2355e-05	54.109	108.267	2.532	-31.132	-80.569	49.296	25.921	-80.770	-75.898	69.385	36.092	-76.307	-72.375	-71.779	-66.891	95.347	-67.600	-8191	255	
21332.225	1	1	0	0	0.17872	0.27293	0.19233	0.21242	0.34618	0.1456	0.19739	0.30554	0.18713	0.21327	0.20914	0.060466	0.14356	0.13244	0.066071	0.13828	-2.325	-2.1708	-2.0833	-2.7792	-1.9458	-2.3417	-2.6271	-2.0625	-2.4875	-2.1604	-2.1271	-2.7646	-1.9542	-2.3583	-2.6417	-1.8292	166.921	240.925	-5.410	185.047	264.653	54.270	248.825	220.686	-22.090	113.514	251.647	74.505	246.776	202.914	202.517	57.193	0.00038001	0.00039922	8.6131e-05	1360.8	6.1718e-06	6.0538e-06	1358.1	365.43	6.0314e-06	5.3055e-06	418.01	140.57	122.05	42.226	5.614e-06	51.983	0.0010589	0.0011424	0.0003262	1394.1	1.2496e-05	1.2518e-05	1384.4	374.05	1.2162e-05	1.2445e-05	427.97	144.59	126.33	43.573	1.2159e-05	53.86	130.594	4.046	13.138	-80.525	49.801	47.534	-80.868	-75.812	11.981	34.559	-76.274	-72.083	-71.616	-66.846	59.337	-67.823	-8191	255	
21332.297	1	1	0	0	0.39868	0.063669	0.20353	0.25052	0.27208	0.31081	0.080723	0.40569	0.16391	0.07232	0.22914	0.1478	0.093611	0.1478	0.1465	0.11737	-2.0875	-2.2396	-2.025	-2.8042	-1.9542	-2.3625	-2.6458	-2.0875	-2.75	-2.4333	-2.0833	-2.7521	-2.0896	-2.1458	-2.4813	-1.9813	201.047	168.974	70.099	-74.678	91.507	28.717	184.808	224.319	-3.857	17.363	-41.461	227.812	-59.003	-68.752	82.537	158.796	0.00038293	0.0007358	9.4638e-05	1363.9	3.3964e-06	7.1117e-06	1352.5	366.29	7.566e-06	8.8926e-06	416.79	139.97	121.94	42.078	1.0292e-05	51.954	0.0010268	0.0010919	0.00031185	1389.8	1.1886e-05	1.2187e-05	1379.7	374.1	1.1947e-05	1.215e-05	427.02	144.26	126.23	43.613	1.2087e-05	53.815	142.324	-10.760	-0.146	-80.497	-31.433	75.367	-80.797	-75.954	13.157	53.410	-76.175	-72.216	-72.105	-66.755	38.898	-67.742	-8191	255	
21332.418	1	1	0	0	0.034696	0.043373	0.31116	0.24998	0.074975	0.2284	0.31269	0.33072	0.19807	0.085717	0.11114	0.087658	0.24403	0.13602	0.18913	0.20773	-2.2313	-2.2896	-2.0083	-2.9604	-2.2458	-2.0729	-2.9167	-2.0083	-2.4313	-2.3104	-1.9667	-2.7104	-2.1583	-2.1896	-2.8104	-1.8708	9.490	30.155	183.582	239.704	119.065	186.503	148.255	248.362	5.296	-75.708	68.331	176.172	261.473	264.543	-14.048	224.471	0.00037368	0.00052097	0.00017264	1369.5	6.0151e-06	5.2589e-06	1350.6	365.89	5.1791e-06	9.6897e-06	415.77	139.98	121.9	42.196	1.7089e-06	51.967	0.0010359	0.0011122	0.00031274	1390.9	1.2132e-05	1.2453e-05	1379.6	373.59	1.1938e-05	1.2268e-05	426.67	144.29	126.19	43.557	1.2198e-05	53.752	112.982	-17.479	-29.743	-80.600	71.028	33.421	-80.751	-76.172	32.856	72.057	-76.161	-72.134	-71.814	-66.988	186.289	-67.645	-8191	255	
21332.512	1	1	0	0	0.27673	0.21082	0.15934	0.21664	0.068867	0.27287	0.22782	0.37533	0.093412	0.10203	0.32717	0.21115	0.10297	0.16421	0.14662	0.32487	-2.0771	-2.4667	-2.1063	-2.7021	-2.2417	-2.0979	-2.9583	-2.3667	-2.3479	-2.6937	-2.0479	-2.6625	-2.3208	-2.0229	-2.8229	-2.1813	141.799	236.918	139.232	257.203	-81.877	213.433	262.891	-45.510	257.851	-33.387	-92.079	231.481	148.290	203.063	114.944	-86.684	0.00034091	0.00047959	5.5917e-05	1360.5	5.1984e-06	7.6564e-06	1357.4	366.87	4.1275e-06	4.5825e-06	416.23	139.48	121.11	42.057	5.2925e-06	51.69	0.0010492	0.0011124	0.00031663	1390.3	1.2468e-05	1.2652e-05	1381.6	373.93	1.2539e-05	1.2998e-05	426.96	144.23	126	43.506	1.2825e-05	53.813	144.149	-44.710	45.821	-80.592	84.306	36.489	-80.550	-75.984	-9.778	24.183	-76.519	-72.066	-71.890	-66.884	44.693	-67.612	-8191	255	
21332.607	1	1	0	0	0.11496	0.26795	0.2334	0.035069	0.1814	0.40225	0.15797	0.065783	0.1667	0.041423	0.36007	0.14314	0.11076	0.23604	0.089379	0.1075	-1.9146	-2.6063	-2.0729	-2.6146	-2.4083	-2.0667	-3.0708	-2.0938	-2.0958	-2.6896	-2.0938	-2.5417	-2.3563	-1.9083	-2.8083	-2.3146	-85.230	-19.356	45.558	-70.974	148.460	71.167	259.425	85.763	83.078	182.661	247.896	229.842	245.681	147.111	149.642	139.459	0.00036963	0.00064448	0.00013414	1363.6	3.2954e-06	3.83e-06	1359.2	365.64	4.0918e-06	4.9086e-06	416.14	140.31	121.54	41.947	4.501e-06	51.94	0.0010943	0.0011828	0.000334	1393.5	1.3119e-05	1.316e-05	1384	374.15	1.2874e-05	1.3161e-05	426.4	144.35	126.28	43.457	1.3e-05	53.777	106.463	-19.080	11.503	-80.613	23.334	105.853	-80.645	-76.034	242.307	46.721	-76.477	-72.454	-71.869	-66.884	41.009	-67.718	-8191	255	
21332.729	1	1	0	0	0.22055	0.40043	0.21812	0.097565	0.20282	0.2905	0.28331	0.089017	0.28794	0.20866	0.20689	0.14109	0.16912	0.093577	0.17229	0.31735	-1.6833	-2.6458	-1.8667	-2.5292	-2.5479	-1.8792	-2.7562	-2.3854	-2.05	-2.8729	-2.1125	-2.3854	-2.5187	-1.9688	-2.5979	-2.4604	131.478	262.524	262.271	183.346	55.950	182.579	171.359	167.923	179.644	201.262	227.132	258.450	-72.271	7.323	-48.463	179.585	0.00034967	0.00062804	0.00012053	1367.7	3.8852e-06	8.6932e-06	1356	366.3	3.5572e-06	6.265e-06	417.46	140.46	121.27	42.164	6.6723e-06	51.887	0.0011393	0.0012216	0.00034206	1395.5	1.3526e-05	1.3699e-05	1384.5	374.6	1.3696e-05	1.381e-05	428.14	144.64	126.46	43.65	1.3473e-05	53.851	128.952	21.734	-9.052	-80.408	55.701	38.677	-80.822	-76.185	50.140	32.502	-76.330	-72.238	-72.074	-67.340	79.629	-67.748	-8191	255	
21332.824	1	1	0	0	0.41524	0.035585	0.03887	0.19102	0.20533	0.07485	0.35241	0.2945	0.17041	0.087266	0.14157	0.1938	0.28269	0.20198	0.31895	0.13257	-1.5375	-2.6688	-2.1333	-2.65	-2.5938	-1.9188	-2.8146	-2.4813	-2.1125	-2.7208	-2.2167	-2.3396	-2.7396	-1.9771	-2.6729	-2.3604	232.963	-89.541	-68.088	217.803	-89.673	-70.434	203.416	196.161	-11.387	243.904	236.513	129.810	178.686	-57.724	-36.091	147.863	0.00041578	0.00041607	0.00018197	1370.9	4.8236e-06	3.6819e-06	1358.4	367	4.848e-06	3.4929e-06	416.95	140.58	121.59	42.09	1.0083e-05	51.862	0.0011518	0.0012625	0.00034803	1398.1	1.3538e-05	1.3435e-05	1386.6	374.75	1.3231e-05	1.3601e-05	427.83	144.64	126.46	43.513	1.3226e-05	53.761	121.807	-18.871	-37.749	-80.420	45.501	58.545	-80.594	-75.942	16.664	102.862	-76.169	-72.159	-72.009	-67.022	46.461	-67.598	-8191	255	
21332.896	1	1	0	0	0.34986	0.081578	0.20104	0.23085	0.22032	0.03415	0.23062	0.090528	0.17161	0.10942	0.19386	0.092373	0.3277	0.17397	0.18803	0.24195	-1.5042	-2.6083	-2.2333	-2.3292	-2.6792	-1.8438	-2.6979	-2.5896	-1.9854	-2.7562	-2.2917	-2.2625	-2.7646	-2.0354	-2.5229	-2.6708	154.650	58.672	126.698	-54.067	-70.331	-56.110	206.272	166.546	-28.135	101.886	252.613	64.897	-69.120	-81.427	61.894	241.694	0.00044437	0.00037028	0.00017522	1362.3	8.6361e-06	8.2485e-06	1364.6	366.44	5.9885e-06	4.9826e-06	416.97	139.89	121.33	42.219	7.6133e-06	51.757	0.001121	0.0012026	0.00034034	1394.5	1.2951e-05	1.3145e-05	1388.9	374.26	1.2892e-05	1.297e-05	427.31	144.35	126.3	43.491	1.278e-05	53.764	119.327	68.408	10.788	-80.186	43.770	40.720	-80.575	-75.771	8.842	47.972	-76.295	-71.987	-71.983	-66.947	54.062	-67.667	-8191	255	
21332.992	1	1	0	0	0.22142	0.070542	0.024057	0.17364	0.19899	0.29287	0.069173	0.40096	0.099367	0.25131	0.10238	0.082408	0.22412	0.094212	0.1878	0.33902	-1.6125	-2.5938	-2.2521	-2.1958	-2.6708	-2.0604	-2.5563	-2.7167	-1.9354	-2.7042	-2.5167	-2.1833	-2.825	-2.1958	-2.375	-2.8833	-44.040	17.367	237.053	265.474	164.816	248.197	93.202	205.099	83.949	57.749	193.029	-70.926	-20.180	-58.300	60.606	189.593	0.00033103	0.00056334	0.00014649	1366.9	4.1287e-06	1.3383e-06	1364.9	366.26	4.0705e-06	5.9084e-06	417.23	140.42	121.16	41.948	7.2849e-06	51.947	0.0011157	0.0011949	0.00033506	1395.5	1.2914e-05	1.3286e-05	1389.7	374.88	1.3037e-05	1.329e-05	427.88	144.5	126.15	43.444	1.3181e-05	53.812	135.136	-47.279	-23.802	-80.521	9.901	-65.014	-80.513	-75.777	157.887	83.400	-76.303	-72.374	-71.871	-66.881	98.271	-67.677	-8191	255	
21333.113	1	1	0	0	0.085803	0.23365	0.085367	0.2103	0.13921	0.11064	0.044498	0.1172	0.22701	0.28125	0.045748	0.12749	0.23501	0.13093	0.17897	0.16901	-1.7292	-2.6583	-2.3521	-2.0667	-2.7625	-2.1688	-2.3417	-2.7854	-1.8417	-2.5938	-2.5687	-2.0333	-2.7417	-2.1979	-2.3312	-2.8167	95.277	175.839	159.084	255.475	-60.786	101.871	83.917	-77.697	138.703	-38.567	152.299	113.145	170.901	126.005	117.905	161.075	0.00034875	0.00046453	8.5851e-05	1373.9	4.3805e-07	6.9336e-06	1365.1	366.68	3.3743e-06	1.1509e-05	415.81	139.58	121.41	42.15	3.8747e-06	51.797	0.0011199	0.0011936	0.00033706	1398.1	1.315e-05	1.3127e-05	1389.3	374.95	1.2852e-05	1.3107e-05	426.96	144.08	126.33	43.584	1.3329e-05	53.679	116.579	-56.940	-48.405	-80.600	91.790	89.484	-80.565	-75.788	15.329	32.388	-76.334	-72.048	-71.701	-66.990	85.137	-67.669	-8191	255	
21333.209	1	1	0	0	0.11081	0.017379	0.051439	0.2034	0.31017	0.24271	0.27711	0.21393	0.19371	0.2643	0.15703	0.12422	0.33184	0.08831	0.33033	0.19825	-1.5958	-2.4562	-2.5312	-1.9271	-2.575	-2.1896	-2.3833	-2.8688	-1.8458	-2.4958	-2.7583	-2.2542	-2.725	-2.3021	-1.9479	-2.7667	-60.973	29.488	49.518	-51.496	166.738	102.916	194.234	166.447	153.960	165.563	184.870	228.965	251.188	-54.703	-29.289	-89.554	0.00043791	0.00024818	0.0003313	1365.5	7.3444e-06	6.2546e-06	1360.5	365.82	2.4095e-06	9.9066e-06	417.04	139.31	122.26	42.019	4.6639e-07	51.68	0.0011418	0.0012155	0.00034936	1394.6	1.3378e-05	1.3619e-05	1386.6	374.63	1.345e-05	1.3735e-05	427.85	144.13	126.73	43.608	1.4023e-05	53.858	120.780	-77.761	-5.135	-80.696	63.425	45.816	-80.752	-76.132	55.948	44.391	-76.529	-72.338	-71.974	-67.075	-30.629	-67.743	-8191	255	
21333.305	1	1	0	0	0.20593	0.13102	0.047108	0.14128	0.26122	0.18656	0.25524	0.20801	0.15576	0.097862	0.035962	0.18347	0.16644	0.078951	0.28794	0.25033	-1.6875	-2.3187	-2.4688	-1.9708	-2.7812	-2.2979	-2.3208	-2.8646	-2.0583	-2.4396	-2.7625	-2.0854	-2.7188	-2.6375	-1.8563	-2.8708	254.592	-44.660	75.844	238.382	146.351	54.719	190.627	-42.895	119.149	41.549	89.949	-66.192	153.688	230.408	196.497	195.478	0.00042584	0.00047163	0.00028432	1369	4.4109e-06	8.6709e-06	1363.6	366.83	8.3584e-06	7.6667e-06	417.39	139.96	121.81	42.264	5.396e-06	51.676	0.0011535	0.0012959	0.00035387	1400.2	1.3865e-05	1.4053e-05	1391.8	375.54	1.3581e-05	1.4383e-05	428.37	144.72	127	43.679	1.3964e-05	53.864	136.755	-21.416	-27.324	-80.465	65.927	70.700	-80.693	-75.967	-3.383	54.704	-76.550	-72.128	-72.060	-67.182	63.178	-67.923	-8191	255	
21333.400	1	1	0	0	0.25358	0.37854	0.11096	0.22564	0.24324	0.15548	0.076826	0.31388	0.080918	0.10577	0.11665	0.35358	0.16085	0.15236	0.27828	0.36778	-1.7042	-2.225	-2.525	-1.8729	-2.3208	-2.4625	-2.2458	-2.8438	-2.1354	-2.1917	-2.9792	-2.0271	-2.5604	-2.6354	-1.9333	-2.9542	221.742	55.020	260.135	160.271	208.135	239.413	171.274	187.260	216.875	-86.364	-56.702	234.329	-20.705	-25.708	48.258	214.933	0.00034367	0.00050637	4.7245e-05	1370.9	4.3668e-06	5.888e-06	1365.3	367.7	1.5707e-06	6.0344e-06	416.96	140.26	121.89	42.236	6.2888e-06	51.757	0.0011739	0.001278	0.00035781	1399.8	1.3529e-05	1.3742e-05	1390.8	375.5	1.3268e-05	1.3828e-05	429.28	144.52	126.66	43.682	1.33e-05	53.802	115.221	42.795	-56.452	-80.663	12.190	7.842	-80.475	-75.993	117.493	-2.483	-76.219	-72.371	-71.988	-67.070	27.851	-67.716	-8191	255	
21333.496	1	1	0	0	0.28688	0.14113	0.25542	0.12566	0.124	0.18082	0.36052	0.28212	0.074195	0.17776	0.32535	0.26461	0.060623	0.19848	0.18514	0.34006	-1.7437	-2.0333	-2.6625	-2.0667	-2.5167	-2.6125	-2.2625	-2.8375	-2.4521	-2.1688	-2.9125	-2.0729	-2.3542	-2.7792	-2.0104	-2.8083	-52.148	199.173	163.289	144.696	9.795	-7.624	214.299	258.720	57.245	219.569	235.101	6.647	-46.031	138.890	216.550	94.763	0.00040139	0.00049899	0.00019912	1373.9	8.7088e-06	2.3145e-06	1366.9	365.56	2.7314e-06	6.4063e-06	418.29	139.42	122.44	42.132	7.5506e-06	51.903	0.0011149	0.0012046	0.00033728	1399.3	1.2933e-05	1.3178e-05	1389.3	374.35	1.2737e-05	1.2984e-05	428.05	144.26	126.44	43.584	1.3026e-05	53.789	122.026	-58.616	-38.790	-80.648	32.978	74.815	-80.875	-75.870	90.880	78.683	-76.567	-72.366	-71.983	-67.199	32.893	-68.052	-8191	255	
21333.592	1	1	0	0	0.24205	0.14729	0.20999	0.14122	0.20634	0.12576	0.31935	0.3438	0.25422	0.22123	0.37888	0.17549	0.17578	0.20671	0.15005	0.058793	-2.0938	-1.8438	-2.8521	-2.1188	-2.2875	-2.6125	-1.9833	-2.6771	-2.4729	-1.8708	-2.8417	-2.0667	-2.2521	-2.9562	-1.9375	-2.7021	218.029	153.373	244.071	-46.673	243.179	162.888	226.383	249.253	105.285	107.607	218.936	-85.508	-50.999	218.405	-15.662	-67.886	0.00026802	0.00048286	0.00017905	1372.9	6.546e-06	1.9426e-06	1361.6	367.68	5.4413e-06	7.5361e-06	418.38	140.15	121.97	42.113	2.924e-06	51.994	0.0010782	0.0011914	0.0003289	1398	1.2912e-05	1.3113e-05	1389.2	375.17	1.3005e-05	1.3142e-05	428.23	144.3	126.43	43.57	1.2985e-05	53.835	133.167	-42.754	22.593	-80.536	29.148	18.720	-80.638	-76.064	-7.608	43.309	-76.260	-72.326	-71.837	-67.097	103.051	-67.740	-8191	255	
21333.689	1	1	0	0	0.086011	0.16906	0.2154	0.14909	0.23226	0.32717	0.27626	0.19503	0.14894	0.17163	0.17337	0.4611	0.057583	0.079584	0.18145	0.23921	-2.0104	-1.9562	-2.7	-2.3625	-2.0021	-2.8792	-2.0333	-2.5771	-2.5646	-1.9396	-2.9083	-2.4458	-2.0917	-2.7354	-2.1562	-2.5	95.986	-58.335	50.930	202.849	70.468	37.956	249.613	-85.709	25.794	242.698	257.208	212.566	-89.039	200.938	109.515	241.733	0.00040223	0.00052513	0.00019927	1363.5	4.5965e-06	5.6905e-06	1360.8	366.99	4.8199e-06	6.4891e-06	419.4	140.02	121.45	42.112	1.9622e-06	52.014	0.0010885	0.0011802	0.00033017	1395.9	1.2992e-05	1.2753e-05	1389.1	375.1	1.2691e-05	1.3129e-05	428.73	144.16	126.25	43.585	1.2625e-05	53.886	128.964	6.972	-5.691	-80.805	38.489	50.229	-80.903	-75.810	9.680	74.138	-76.526	-72.282	-71.990	-67.214	-39.399	-67.596	-8191	255	
21333.809	1	1	0	0	0.28092	0.071397	0.058989	0.28089	0.14026	0.20378	0.25304	0.39108	0.1252	0.054871	0.11727	0.23571	0.27597	0.13966	0.33232	0.13792	-2.1083	-1.9521	-2.6083	-2.2479	-2.1	-2.7396	-2.2792	-2.4708	-2.6229	-1.7708	-2.725	-2.5479	-2.1542	-2.7979	-2.1229	-2.1937	163.698	36.808	124.457	44.839	252.666	-92.807	219.556	218.454	102.653	29.141	216.767	-43.771	235.170	193.538	240.205	245.805	0.00037789	0.00041335	0.00012663	1374.1	1.9868e-06	4.627e-06	1357.5	366.95	8.0171e-06	2.6853e-06	417.75	139.67	122.14	42.232	4.8703e-06	51.853	0.001084	0.0011605	0.00032765	1399.2	1.286e-05	1.2811e-05	1386.4	374.57	1.2542e-05	1.2895e-05	428.1	144.2	126.46	43.577	1.2944e-05	53.809	118.034	-12.686	9.378	-80.582	31.572	32.356	-80.716	-76.080	16.567	128.830	-76.174	-72.323	-71.725	-67.050	55.413	-67.423	-8191	255	
21333.902	1	1	0	0	0.24633	0.21197	0.23201	0.082237	0.18481	0.22292	0.30964	0.15683	0.034964	0.23886	0.39513	0.26286	0.17463	0.11085	0.061997	0.098045	-2.1604	-2.0167	-2.6333	-2.4833	-2.1417	-2.7792	-2.4458	-2.3771	-2.7562	-1.9125	-2.6125	-2.5979	-1.85	-2.7729	-2.0417	-2.3292	67.071	189.384	-0.950	214.966	82.642	11.674	209.108	180.981	-50.183	-70.511	203.310	173.351	186.513	85.460	259.346	-37.101	0.00052832	0.00068666	0.00016803	1371.5	1.6597e-06	6.031e-06	1358.7	366.64	2.5572e-06	9.6956e-06	417.03	139.96	121.39	41.919	4.1895e-06	51.912	0.0010669	0.0011872	0.00033195	1397.3	1.2985e-05	1.2931e-05	1388.5	375.11	1.2695e-05	1.3143e-05	428.06	144.27	126.03	43.523	1.2953e-05	53.874	135.759	12.248	-6.309	-80.727	72.904	9.918	-81.019	-75.910	73.260	42.931	-76.583	-72.557	-71.969	-67.154	47.342	-67.750	-8191	255	
21333.998	1	1	0	0	0.18556	0.22304	0.21018	0.17125	0.16166	0.16121	0.21093	0.154	0.2634	0.24157	0.067224	0.18575	0.23915	0.21494	0.17683	0.14167	-2.2208	-1.7896	-2.4083	-2.5958	-1.6896	-2.6813	-2.6208	-2.3396	-2.6917	-2.0292	-2.5708	-2.7583	-1.9104	-2.6958	-2.4125	-2.1771	67.707	120.417	54.313	173.090	230.640	-21.876	150.077	209.391	190.068	17.968	-14.129	187.769	-59.779	230.792	-88.826	211.123	0.00033929	0.00064605	0.00021533	1372.9	5.9055e-06	5.666e-06	1361.5	366.49	4.1028e-06	6.9992e-06	418.28	139.88	121.71	42.214	7.8902e-06	51.95	0.0011043	0.0012068	0.00033458	1398.5	1.3027e-05	1.3121e-05	1387.7	374.77	1.2809e-05	1.3096e-05	427.98	144.21	126.27	43.534	1.285e-05	53.849	114.305	2.261	-8.622	-80.754	57.452	58.547	-80.608	-76.023	58.451	73.477	-76.282	-72.477	-71.732	-66.999	44.689	-67.793	-8191	255	
21334.096	1	1	0	0	0.13491	0.27094	0.27498	0.21795	0.14972	0.12297	0.32677	0.091832	0.35287	0.11853	0.054737	0.13074	0.24802	0.20287	0.090967	0.13723	-2.35	-2.0896	-2.3688	-2.6979	-1.9646	-2.4646	-2.5	-2.1708	-2.8125	-2.0854	-2.2521	-2.8667	-2.0292	-2.4562	-2.7333	-2.0646	10.234	6.756	175.778	-84.547	140.346	252.050	248.348	-51.754	199.006	237.057	219.632	153.431	224.054	-82.011	153.872	240.384	0.00035406	0.00040264	0.00012883	1364.5	5.8542e-06	4.0991e-06	1363	366	1.2782e-06	3.5953e-06	416.41	139.58	121.97	42.044	5.5344e-06	52.032	0.0010706	0.0011674	0.00032636	1395.3	1.2725e-05	1.2838e-05	1387	374.33	1.2195e-05	1.2493e-05	427.44	143.95	126.2	43.475	1.2563e-05	53.789	125.344	30.077	8.600	-80.635	41.594	121.474	-80.833	-75.950	-75.619	23.684	-76.335	-72.400	-72.079	-66.952	-16.663	-67.781	-8191	255	
21334.191	1	1	0	0	0.12264	0.034685	0.22729	0.016296	0.25798	0.082174	0.0395	0.19324	0.11062	0.12552	0.28594	0.23697	0.089456	0.14126	0.31211	0.16468	-2.325	-2.0167	-2.1354	-2.8771	-2.0375	-2.3854	-2.6146	-1.9188	-2.6229	-2.1896	-2.2938	-2.8792	-2.1562	-2.5583	-2.5729	-1.8687	-76.390	-91.545	101.717	172.330	30.523	33.586	213.254	-74.882	144.244	174.645	162.264	187.264	161.761	263.773	119.557	193.007	0.00040969	0.00035154	0.00015332	1374.1	4.5241e-06	6.0701e-06	1357.9	365.64	2.7233e-06	2.2508e-06	417.93	139.47	121.26	42.106	5.0383e-06	51.833	0.0010613	0.0011616	0.00032398	1396.4	1.241e-05	1.267e-05	1385.2	374	1.2131e-05	1.2593e-05	427.26	143.67	125.89	43.51	1.2206e-05	53.651	120.939	36.625	-36.876	-80.292	56.668	34.099	-80.742	-75.845	259.542	117.449	-76.358	-72.189	-72.091	-67.001	89.169	-67.529	-8191	255	
21334.287	1	1	0	0	0.20682	0.18262	0.33423	0.27707	0.22502	0.10171	0.2672	0.2068	0.14312	0.10069	0.31514	0.19928	0.22808	0.060867	0.25447	0.069664	-2.2875	-2.2667	-2.0312	-2.7083	-2.0438	-2.2792	-2.6521	-2.0375	-2.6708	-2.3854	-2.0729	-2.8187	-2.1854	-2.4562	-2.4167	-2.0667	131.892	68.425	-63.807	194.092	-12.158	57.549	206.699	227.168	103.617	-49.975	165.851	251.011	-21.695	120.456	-71.713	196.757	0.00030985	0.00029785	0.0002022	1373.8	5.6735e-06	3.1001e-06	1360.9	364.82	6.323e-06	7.732e-06	415.77	139.93	121.2	42.211	1.0906e-05	51.685	0.0010444	0.0011573	0.00031914	1395.4	1.2488e-05	1.2731e-05	1384.5	373.52	1.2243e-05	1.265e-05	426.75	143.92	125.83	43.507	1.2503e-05	53.628	114.178	5.654	3.888	-80.746	73.331	31.889	-80.754	-75.872	73.547	9.438	-76.311	-72.037	-72.080	-66.841	38.594	-67.348	-8191	255	
21334.408	1	1	0	0	0.17107	0.25398	0.17814	0.29028	0.041979	0.035302	0.1143	0.092438	0.21832	0.23372	0.085278	0.30415	0.11823	0.1858	0.17775	0.25559	-2.2083	-2.3583	-1.9292	-2.9042	-2.0812	-2.2792	-2.8604	-2.2104	-2.4437	-2.5083	-1.9562	-2.6688	-2.2188	-2.1125	-2.6813	-2.0958	151.168	222.286	210.632	-72.545	225.404	-90.470	148.936	184.925	-83.610	-34.170	26.334	255.928	124.943	-28.625	-4.067	249.427	0.00035548	0.00055415	0.00025447	1367.2	3.5611e-06	6.5575e-06	1360	365.63	4.9227e-06	5.9908e-06	416.06	140.24	121.2	41.908	1.6097e-06	51.847	0.0010546	0.001147	0.00031835	1393.2	1.2455e-05	1.2422e-05	1385.3	373.43	1.222e-05	1.2535e-05	426.75	144.02	125.75	43.399	1.2674e-05	53.673	113.727	-23.480	-20.211	-80.492	10.267	53.136	-80.570	-75.842	16.810	26.734	-76.467	-72.387	-72.057	-67.249	198.097	-67.683	-8191	255	
21334.506	1	1	0	0	0.072156	0.29558	0.28733	0.20223	0.0882	0.30784	0.27566	0.23915	0.11572	0.13807	0.17854	0.35477	0.31659	0.16783	0.15473	0.10689	-2.0458	-2.4792	-1.7833	-2.9208	-2.2208	-2.1604	-2.9917	-2.025	-2.4646	-2.625	-2.0167	-2.6146	-2.225	-2.1146	-2.7083	-2.1479	125.864	72.030	-38.705	-65.263	-44.520	124.897	207.095	248.720	-51.559	16.982	151.619	178.409	129.518	226.367	9.572	237.980	0.00035274	0.00060155	0.00020811	1363.2	3.5133e-06	7.8604e-06	1363.8	365.1	4.8303e-06	6.6668e-06	417.35	139.89	121.34	41.976	2.2735e-06	51.875	0.0010594	0.0011546	0.00032194	1391.4	1.267e-05	1.2881e-05	1385.2	373.21	1.2356e-05	1.2697e-05	426.47	143.81	125.79	43.399	1.2689e-05	53.642	133.915	-66.991	-19.113	-80.782	124.898	51.078	-80.998	-76.277	-2.092	45.897	-76.382	-72.480	-71.959	-67.132	96.676	-67.762	-8191	255	
21334.602	1	1	0	0	0.080948	0.14462	0.34554	0.2678	0.31337	0.24183	0.26437	0.24607	0.12698	0.16607	0.23754	0.15125	0.22585	0.19461	0.18467	0.060244	-1.8292	-2.7292	-1.925	-2.8	-2.3125	-2.0979	-3.0417	-2.125	-2.2562	-2.5146	-2.1771	-2.5854	-2.3958	-2.0271	-2.5896	-2.1937	98.835	203.534	109.103	224.250	75.775	241.027	-90.108	-55.472	52.506	225.964	214.488	-72.005	190.665	93.064	226.135	-84.109	0.00030824	0.00034176	0.00017066	1369.2	8.1176e-06	7.7371e-06	1366.3	364.68	5.0895e-06	4.8212e-06	416.22	139.85	121.73	41.989	3.9698e-06	51.651	0.0010612	0.0011462	0.00032018	1392	1.2688e-05	1.2681e-05	1386.9	373.01	1.2363e-05	1.2535e-05	425.7	144	125.91	43.406	1.24e-05	53.59	120.218	-10.491	-47.789	-80.849	88.767	68.721	-80.900	-76.037	12.704	44.956	-76.682	-72.416	-71.857	-67.194	40.950	-68.110	-8191	255	
21334.697	1	1	0	0	0.25086	0.12508	0.41423	0.20069	0.039752	0.10211	0.2953	0.2162	0.050761	0.081751	0.19361	0.077738	0.25308	0.26545	0.2026	0.16487	-1.8104	-2.5729	-1.9813	-2.5354	-2.3917	-1.8792	-2.8792	-2.1146	-2.175	-2.8917	-1.9417	-2.6917	-2.6562	-1.9958	-2.8604	-2.4667	75.796	41.619	-52.739	197.965	-24.382	58.300	205.900	216.393	124.036	229.482	199.344	76.428	230.485	204.172	120.040	246.910	0.00038767	0.00023291	8.2154e-05	1361.9	7.9837e-06	2.7666e-06	1355.8	363.59	4.5509e-06	7.5785e-06	418.27	138.84	121.38	41.926	3.5331e-06	51.782	0.0010523	0.0011318	0.00031732	1391.7	1.2214e-05	1.207e-05	1383	372.64	1.2223e-05	1.2271e-05	426.85	143.81	125.94	43.432	1.2155e-05	53.602	127.746	21.330	21.948	-80.882	30.502	46.129	-80.789	-76.093	25.272	92.769	-76.483	-72.310	-72.232	-67.246	19.130	-67.796	-8191	255	
21334.791	1	1	0	0	0.39981	0.21932	0.18275	0.28275	0.10169	0.21054	0.38476	0.29722	0.068777	0.019862	0.060416	0.18025	0.43289	0.18356	0.10544	0.10309	-1.7437	-2.7104	-1.9833	-2.3917	-2.5521	-1.9438	-2.8979	-2.2833	-1.95	-2.7271	-2.1396	-2.475	-2.8229	-2.1854	-2.6188	-2.4562	253.544	-68.980	206.087	180.783	151.558	-70.542	241.933	-90.449	164.532	-6.827	175.574	255.183	-79.254	-65.132	164.393	79.119	0.00038236	0.00092072	0.00020748	1361	3.1421e-06	7.7504e-06	1357.3	366.13	3.9969e-06	6.2222e-06	417.19	139.48	121.12	42.026	8.595e-06	51.692	0.0010559	0.0011325	0.00031293	1391.1	1.2303e-05	1.2742e-05	1384.2	373.37	1.2102e-05	1.2431e-05	426	143.72	125.75	43.392	1.224e-05	53.653	118.664	-0.211	-8.920	-80.560	60.588	40.162	-80.540	-76.009	49.811	27.608	-76.340	-72.165	-72.211	-67.108	19.831	-68.035	-8191	255	
21334.887	1	1	0	0	0.10906	0.075207	0.19299	0.29133	0.16918	0.14405	0.37474	0.14267	0.15784	0.21847	0.083927	0.13712	0.22612	0.10742	0.13347	0.11955	-1.5583	-2.7104	-2.1125	-2.3688	-2.7146	-1.8771	-2.9417	-2.5083	-1.9958	-2.7208	-2.5396	-2.2271	-2.7604	-2.1354	-2.6292	-2.6083	245.400	169.511	-87.537	227.581	70.918	218.666	180.361	-74.715	188.878	154.048	168.654	-78.293	134.125	-32.156	123.566	246.872	0.00029799	0.0004526	8.0901e-05	1364.9	2.3036e-06	6.6961e-06	1357.1	363.79	4.2634e-06	7.0132e-06	415.05	140.31	121.14	42.014	1.0205e-05	51.62	0.0010472	0.0011391	0.00031917	1393.6	1.2498e-05	1.2855e-05	1383.4	373.26	1.2438e-05	1.2731e-05	425.99	143.85	125.84	43.457	1.2783e-05	53.6	125.144	-26.610	19.423	-80.725	30.832	67.353	-80.807	-75.981	117.538	27.758	-76.509	-72.485	-71.866	-67.149	53.020	-67.822	-8191	255	
21334.984	1	1	0	0	0.19007	0.18449	0.21282	0.23917	0.16077	0.092244	0.26751	0.22477	0.37376	0.13872	0.25716	0.087042	0.069777	0.36923	0.087004	0.13695	-1.4646	-2.5563	-2.3083	-2.1917	-2.7354	-1.9021	-2.5458	-2.5875	-1.9083	-2.7687	-2.3583	-2.1354	-2.7854	-2.1125	-2.15	-2.6104	196.660	168.932	-55.373	249.292	130.629	20.285	159.856	208.967	-12.857	63.672	199.158	253.800	226.670	252.455	99.745	200.860	0.00037885	0.00038858	0.00014489	1368.2	3.2262e-06	6.938e-06	1353.7	364.66	4.4719e-06	4.5835e-06	415.12	139.54	121.63	41.888	5.1333e-06	51.706	0.0010874	0.0011532	0.00032665	1392.8	1.2629e-05	1.2638e-05	1384.3	373.17	1.2457e-05	1.2533e-05	425.94	143.67	125.85	43.365	1.2402e-05	53.54	122.970	-17.969	-4.999	-80.443	74.245	65.630	-80.916	-76.091	2.974	58.835	-76.358	-72.173	-72.338	-67.129	24.424	-67.676	-8191	255	
21335.080	1	1	0	0	0.061061	0.13627	0.19994	0.18769	0.091976	0.11526	0.24479	0.25565	0.14132	0.10484	0.3122	0.26546	0.34174	0.21785	0.089042	0.14245	-1.3937	-2.7396	-2.3417	-1.9708	-2.7667	-2.0979	-2.425	-2.75	-2.0438	-2.4646	-2.475	-2.1937	-2.6854	-2.2875	-2.1958	-2.5146	158.147	-45.719	55.558	188.678	265.762	129.818	247.481	205.829	-31.772	153.305	136.531	173.343	-77.182	218.611	210.639	253.639	0.00038849	0.00047119	0.00015803	1369.7	5.4732e-06	2.0892e-06	1358.1	365.42	5.1032e-06	5.1929e-06	415.7	139.56	121.48	41.995	5.3834e-06	51.664	0.0010581	0.0011306	0.00031582	1394.9	1.2371e-05	1.2546e-05	1383	373.03	1.228e-05	1.2727e-05	426.16	143.71	126.11	43.388	1.2439e-05	53.579	135.504	15.589	8.435	-80.630	52.868	7.535	-80.519	-76.046	-25.647	67.658	-76.337	-72.239	-72.054	-67.359	37.026	-67.871	-8191	255	
21335.176	1	1	0	0	0.08783	0.22644	0.012426	0.069221	0.33186	0.26313	0.35836	0.20274	0.22697	0.15395	0.083136	0.17284	0.16909	0.14607	0.063706	0.092628	-1.5708	-2.4104	-2.4583	-2.0229	-2.6875	-2.2333	-2.4396	-2.8583	-1.9354	-2.3583	-2.5229	-2.0521	-2.9229	-2.2708	-2.2125	-2.9875	-74.688	157.298	-64.896	210.881	252.127	164.550	197.860	242.991	106.571	199.417	148.446	-64.526	245.022	-42.702	58.313	160.382	0.00047137	0.0009633	0.00021464	1369.9	9.0631e-06	4.6316e-06	1360.7	365.32	4.7627e-06	7.6436e-06	416.83	139.33	120.72	41.996	4.7359e-06	51.658	0.0010742	0.0011601	0.00032549	1393.3	1.2271e-05	1.2603e-05	1384	373.33	1.2285e-05	1.2606e-05	426.79	143.76	125.79	43.374	1.2481e-05	53.696	133.635	-19.025	-17.942	-80.452	69.320	109.804	-80.758	-76.163	11.673	85.780	-76.581	-72.422	-71.971	-67.086	68.320	-67.803	-8191	255	
21335.297	1	1	0	0	0.21403	0.23247	0.17532	0.25667	0.28042	0.18361	0.41994	0.15648	0.21715	0.090768	0.11142	0.34881	0.04916	0.13771	0.18784	0.13709	-1.6542	-2.5042	-2.4167	-2.0687	-2.7917	-2.2062	-2.2875	-2.8125	-1.9146	-2.375	-2.6875	-1.9875	-2.7146	-2.5917	-2.0375	-2.7583	51.159	190.773	70.091	237.942	186.376	112.047	196.546	243.010	10.744	219.838	248.245	251.202	253.775	-31.991	-44.583	192.286	0.00039207	0.00047245	0.00017321	1365.5	3.6249e-06	3.4362e-06	1360.1	364.62	4.9678e-06	5.5564e-06	415.7	139.33	121.38	41.965	3.7435e-06	51.707	0.0010551	0.0011539	0.00032469	1395	1.2591e-05	1.2542e-05	1385.2	373.29	1.2581e-05	1.2814e-05	426.55	143.71	125.95	43.367	1.2695e-05	53.636	125.988	-48.262	-18.797	-80.838	30.013	13.560	-80.672	-76.158	7.040	88.072	-76.519	-72.282	-71.657	-67.319	-12.122	-67.793	-8191	255	
21335.393	1	1	0	0	0.23274	0.21924	0.28983	0.23681	0.08235	0.053283	0.18481	0.15111	0.18483	0.16899	0.23105	0.26148	0.21661	0.093357	0.14973	0.43607	-1.7083	-2.1063	-2.7125	-1.9104	-2.6125	-2.4333	-2.2313	-2.8521	-2.175	-2.1771	-2.7583	-2.1542	-2.5479	-2.6688	-1.9208	-2.8937	37.044	225.731	78.159	250.212	250.918	248.684	210.845	252.143	130.818	-55.435	165.405	180.649	235.093	-90.324	-91.379	223.769	0.00040382	0.00067623	0.00019292	1363.4	3.5471e-06	4.6745e-06	1357.8	364.88	7.9134e-06	2.8509e-06	415.9	139.63	121.34	41.851	9.8123e-06	51.771	0.0010692	0.0011571	0.00032442	1392	1.2815e-05	1.3015e-05	1384.7	373.38	1.2721e-05	1.2962e-05	426.48	143.76	125.79	43.388	1.2855e-05	53.7	123.401	4.297	9.549	-80.899	20.462	60.583	-80.687	-75.937	48.133	44.346	-76.438	-72.291	-71.850	-67.009	27.373	-67.713	-8191	255	
21335.488	1	1	0	0	0.15023	0.1946	0.2423	0.036022	0.12697	0.11426	0.24279	0.057907	0.077686	0.13953	0.19943	0.17635	0.034078	0.28311	0.0031074	0.063895	-1.8208	-2.2479	-2.6979	-1.9667	-2.3625	-2.4958	-2.1708	-2.9375	-2.2854	-2.0229	-2.8646	-1.9125	-2.4208	-2.5229	-1.9229	-2.7625	175.842	-23.480	82.148	179.532	-76.900	-45.544	168.391	-34.921	192.610	234.592	156.673	204.922	151.190	136.420	147.670	151.244	0.00037673	0.00055194	0.00016002	1367.3	3.8574e-06	6.062e-06	1360.2	365.19	1.6428e-06	7.5533e-06	416.55	138.74	121.51	41.846	6.8893e-06	51.901	0.0010813	0.0011626	0.00032524	1393.4	1.2573e-05	1.2644e-05	1382.9	373.54	1.2452e-05	1.2636e-05	425.71	143.43	125.7	43.346	1.2354e-05	53.604	123.715	32.904	-15.798	-80.464	95.215	70.568	-80.615	-75.897	-33.318	99.723	-76.621	-72.266	-71.713	-67.123	9.987	-67.680	-8191	255	
21335.586	1	1	0	0	0.061858	0.17445	0.14986	0.31154	0.17369	0.11309	0.16389	0.40679	0.13336	0.38205	0.29363	0.27823	0.19206	0.27907	0.31206	0.26892	-1.9708	-2.0354	-2.6042	-2.1625	-2.2062	-2.7271	-1.9937	-2.5792	-2.2521	-2.05	-2.7438	-2.0542	-2.275	-2.7333	-1.7479	-2.6021	-26.802	242.920	230.699	-18.595	247.905	103.310	239.116	234.669	191.053	130.567	224.610	-0.125	152.022	-63.531	-9.345	210.877	0.00048578	0.00064559	0.00015831	1361.5	5.992e-06	3.6122e-06	1364.9	365.04	6.6625e-06	7.044e-06	417.08	139.59	121.68	42.002	5.4605e-06	51.738	0.0010646	0.0011441	0.00031919	1388.7	1.25e-05	1.2526e-05	1384.2	373.17	1.2437e-05	1.2908e-05	426.95	143.55	126.01	43.409	1.2344e-05	53.564	111.150	-23.417	6.784	-80.603	44.327	40.648	-81.049	-76.527	0.354	75.379	-76.976	-73.215	-72.452	-67.612	66.802	-68.397	-8191	255	
21335.682	1	1	0	0	0.061011	0.19201	0.395	0.051545	0.084744	0.075104	0.32617	0.28378	0.016293	0.36229	0.21299	0.029915	0.1129	0.26533	0.21109	0.28935	-1.8833	-1.8937	-2.5875	-2.2333	-2.2125	-2.7479	-2.1625	-2.7083	-2.3812	-1.9813	-2.6042	-2.1083	-2.2354	-2.75	-1.95	-2.6875	123.350	114.103	27.906	20.567	-16.992	199.367	208.057	188.436	97.955	122.699	235.352	131.633	231.220	238.949	-73.834	95.118	0.00033253	0.00051328	0.00019294	1367.6	4.1054e-06	5.8785e-06	1360	365.26	6.3614e-06	8.909e-07	415.01	139.25	121.41	41.707	6.1679e-06	51.707	0.0010583	0.0011567	0.00031651	1392.7	1.2551e-05	1.2638e-05	1384.2	373.59	1.2413e-05	1.2519e-05	426.49	143.62	125.98	43.307	1.258e-05	53.58	124.105	-30.949	-2.341	-81.234	78.541	73.916	-81.239	-76.631	72.981	109.007	-77.167	-72.850	-72.677	-67.608	5.343	-68.382	-8191	255	
21335.777	1	1	0	0	0.20177	0.19934	0.097664	0.23396	0.11749	0.14423	0.44833	0.099518	0.15843	0.14171	0.080198	0.080759	0.28113	0.35194	0.1875	0.29115	-2.0208	-1.8542	-2.5229	-2.1854	-1.9958	-2.5854	-2.0312	-2.3083	-2.65	-1.9271	-2.7021	-2.5042	-1.9292	-2.6833	-2.05	-2.1896	191.152	-47.238	225.118	181.857	60.413	131.952	156.930	7.988	-43.766	230.165	-21.989	176.745	198.671	-93.489	79.802	149.264	0.00035299	0.00047567	0.0001529	1369.7	1.969e-06	5.444e-06	1360.2	364.18	1.5632e-06	6.633e-06	414.75	139.77	120.94	41.855	7.0519e-06	51.443	0.0010513	0.0011514	0.00032267	1391.5	1.2456e-05	1.2706e-05	1381.6	373.22	1.2454e-05	1.2581e-05	425.97	143.73	125.49	43.346	1.219e-05	53.494	118.736	-15.363	6.988	-81.199	40.961	65.179	-81.325	-76.566	103.989	48.305	-76.933	-72.940	-72.333	-67.628	31.917	-68.297	-8191	255	
21335.896	1	1	0	0	0.20708	0.24707	0.068173	0.051699	0.11805	0.23951	0.29411	0.19106	0.11418	0.078036	0.25007	0.21956	0.08641	0.23245	0.27569	0.081931	-2.1042	-1.9104	-2.5521	-2.3917	-1.9062	-2.7333	-2.3396	-2.3104	-2.5479	-1.8917	-2.7083	-2.4021	-1.9625	-2.6875	-2.2958	-2.2896	-88.467	-71.110	259.920	-20.010	136.882	199.826	217.225	-63.833	19.945	17.388	-93.859	211.114	-0.109	151.696	-38.886	213.957	0.00037074	0.00043047	6.2496e-05	1363.4	7.9896e-06	4.3563e-06	1350.5	365.41	3.4223e-06	6.0383e-06	414.96	138.76	120.89	41.703	2.6622e-06	51.954	0.0010529	0.0011345	0.00031581	1389.2	1.2262e-05	1.2238e-05	1379.3	372.88	1.1979e-05	1.2256e-05	424.95	143.18	125.45	43.298	1.2166e-05	53.575	120.029	-6.537	-61.034	-81.360	48.273	75.762	-81.404	-76.336	-3.729	75.007	-76.841	-73.088	-72.360	-67.645	-45.297	-67.981	-8191	255	
21335.992	1	1	0	0	0.12779	0.1314	0.11096	0.20216	0.1497	0.11391	0.21623	0.31527	0.067513	0.15307	0.22787	0.081788	0.099064	0.13829	0.068438	0.21756	-2.3583	-1.8604	-2.5354	-2.6521	-1.9188	-2.5479	-2.5167	-2.0438	-2.6688	-2.0479	-2.5458	-2.7438	-2.0854	-2.8563	-2.3104	-2.1333	171.513	-17.780	238.139	186.609	-30.662	246.459	-67.167	219.744	19.963	10.625	202.251	255.411	-36.286	130.840	49.604	174.941	0.00031285	0.00034697	8.8492e-05	1366.3	4.8332e-06	9.7018e-06	1350.2	364.91	7.187e-06	5.0235e-06	416.03	138.38	121.07	41.813	1.7939e-06	51.75	0.0010246	0.0011195	0.00031257	1390.2	1.2145e-05	1.222e-05	1379.9	373.27	1.1905e-05	1.2191e-05	426.23	143.45	125.7	43.304	1.2091e-05	53.523	142.261	-13.982	-21.488	-81.130	56.611	58.242	-81.348	-76.443	20.026	73.180	-76.844	-72.892	-72.488	-67.393	45.263	-68.033	-8191	255	
21336.088	1	1	0	0	0.17164	0.30429	0.13609	0.214	0.14621	0.098585	0.4348	0.1773	0.17653	0.17722	0.23718	0.10011	0.055975	0.13735	0.099266	0.11374	-2.3417	-1.9583	-2.4	-2.5812	-1.9792	-2.575	-2.5646	-2.2083	-2.8667	-2.1437	-2.2667	-2.7729	-1.9542	-2.5958	-2.3146	-2.0792	-43.588	46.895	67.848	99.980	207.210	193.093	197.569	-59.058	100.686	55.110	263.058	-93.415	-68.917	247.442	60.844	150.299	0.00035951	0.0002447	0.00014931	1359.1	4.7255e-06	1.0664e-05	1355.2	364.53	5.7664e-06	2.6181e-06	414.91	139.4	121.41	42.039	3.8344e-06	51.733	0.0010368	0.001135	0.00031477	1388.5	1.2256e-05	1.2221e-05	1378.7	372.63	1.1875e-05	1.2181e-05	426.02	143.62	125.54	43.3	1.2114e-05	53.489	124.397	89.809	4.187	-81.186	64.261	39.905	-81.202	-76.495	-26.141	44.846	-76.714	-72.781	-72.848	-67.572	-3.781	-68.351	-8191	255	
21336.186	1	1	0	0	0.37533	0.41344	0.044496	0.16254	0.18065	0.10297	0.3113	0.3619	0.14694	0.20518	0.1224	0.1992	0.057335	0.12473	0.15218	0.040406	-2.2062	-1.8813	-1.9333	-2.85	-1.9896	-2.4479	-2.5563	-2.0979	-2.5229	-2.15	-2.0958	-2.9521	-1.9604	-2.6063	-2.4813	-1.9854	46.941	231.707	154.165	227.907	234.441	4.589	204.600	218.361	217.862	241.675	110.660	-90.567	-67.627	-28.741	262.538	147.977	0.0003803	0.00058019	0.00021714	1365.8	5.424e-06	6.5562e-06	1352.9	363.84	3.932e-06	3.153e-06	415.8	139.1	121.28	41.797	3.5084e-06	51.618	0.0010279	0.0011001	0.00030845	1391.8	1.2064e-05	1.1994e-05	1379.9	372.55	1.2012e-05	1.2279e-05	425.7	143.44	125.79	43.277	1.2041e-05	53.493	118.849	1.328	-26.587	-80.969	39.259	25.875	-81.268	-76.473	43.265	48.947	-77.131	-72.894	-72.790	-67.687	54.185	-68.087	-8191	255	
21336.281	1	1	0	0	0.10433	0.071417	0.17035	0.34558	0.0878	0.18215	0.16741	0.04559	0.063415	0.051729	0.11867	0.16746	0.15487	0.29068	0.054167	0.066443	-2.3208	-1.9833	-2.1333	-2.7604	-1.95	-2.4854	-2.5271	-2.0646	-2.6833	-2.2771	-1.9562	-2.8604	-2.325	-2.1083	-2.4729	-1.9521	4.642	95.146	-29.363	257.403	-81.471	95.499	244.676	-42.318	68.891	-41.048	216.071	-92.698	147.706	-94.379	-65.383	-40.514	0.0003339	0.00076137	0.00016938	1368.5	4.8605e-06	4.6616e-06	1354.5	363.97	4.1059e-06	5.328e-06	415.75	139.19	120.45	41.769	3.2691e-06	51.756	0.0010305	0.0011154	0.0003156	1392	1.2128e-05	1.2265e-05	1380	372.4	1.1849e-05	1.2293e-05	425.93	143.53	125.38	43.23	1.1922e-05	53.471	122.491	25.367	-72.042	-81.146	32.387	63.813	-81.283	-76.551	244.968	-9.777	-76.777	-73.041	-72.518	-67.655	120.078	-68.440	-8191	255	
21336.377	1	1	0	0	0.10664	0.22453	0.08795	0.1535	0.026395	0.020712	0.23951	0.18757	0.23668	0.12448	0.03108	0.12409	0.1819	0.085827	0.20275	0.31555	-2.2896	-2.5354	-1.8625	-2.7562	-2.1625	-2.2687	-2.9146	-1.9896	-2.5479	-2.4062	-2.0687	-2.9104	-2.3542	-2.2687	-2.6562	-2.1604	54.111	103.395	159.107	260.162	123.949	76.194	244.407	-51.146	-91.146	26.921	-85.380	191.110	7.429	252.094	39.811	190.345	0.00035888	0.00019984	0.00021214	1362.8	6.0708e-06	3.3893e-06	1356.3	363.41	4.1103e-06	4.2248e-06	415.95	139.69	120.88	41.849	4.154e-06	51.644	0.001028	0.0011047	0.000311	1388.4	1.1887e-05	1.1955e-05	1381	371.94	1.1984e-05	1.2269e-05	425.51	143.65	125.56	43.268	1.2078e-05	53.504	109.237	44.086	1.498	-81.047	31.781	-10.628	-81.298	-76.331	8.327	66.611	-77.086	-72.847	-72.352	-67.726	-0.810	-68.608	-8191	255	
21336.473	1	1	0	0	0.27423	0.17133	0.11553	0.12634	0.17423	0.25771	0.34409	0.25806	0.044765	0.37479	0.090038	0.049348	0.076113	0.29122	0.11717	0.25276	-2.1354	-2.3646	-1.8771	-2.925	-2.0583	-2.1229	-2.8937	-1.9958	-2.3292	-2.5187	-1.9208	-2.8917	-2.35	-2.1167	-2.7021	-2.1229	-93.439	148.445	28.545	-45.552	142.254	-60.714	190.596	206.209	-81.586	213.428	35.132	178.143	22.719	-76.014	-80.340	175.862	0.00043926	0.00033977	8.2846e-05	1363	3.9897e-06	1.0866e-05	1354.4	364.97	3.8447e-06	1.8669e-06	414.71	138.8	121.19	41.974	5.3402e-06	51.635	0.0010218	0.0011237	0.00031106	1389.1	1.2272e-05	1.237e-05	1379.3	372.69	1.1824e-05	1.228e-05	425.56	143.4	125.52	43.363	1.205e-05	53.495	113.489	-31.046	34.840	-81.063	56.303	46.760	-81.341	-76.429	81.373	4.460	-76.793	-72.811	-72.451	-67.717	50.549	-68.375	-8191	255	
21336.594	1	1	0	0	0.35354	0.21143	0.093947	0.21003	0.062044	0.27778	0.19301	0.37864	0.18762	0.15361	0.22506	0.31778	0.073239	0.19131	0.10932	0.17109	-1.9625	-2.5854	-1.9937	-2.5625	-2.4542	-2.1604	-3.1104	-2.1875	-2.0625	-2.6896	-2.1104	-2.6896	-2.5375	-2.1063	-2.6042	-2.3167	90.880	-10.458	-31.693	-33.411	106.330	-37.144	229.576	179.115	221.325	-89.288	209.700	219.167	-89.234	102.536	-77.197	262.707	0.00046469	0.00027732	8.015e-05	1366.4	6.0906e-06	6.9825e-06	1354.8	363.79	5.5339e-06	7.5095e-06	414.32	139.8	121.73	41.912	6.9621e-06	51.869	0.0010194	0.0011188	0.00031395	1392.8	1.2373e-05	1.2459e-05	1381.3	372.11	1.2146e-05	1.2416e-05	425.4	143.79	125.83	43.324	1.214e-05	53.509	122.846	-16.784	-25.719	-81.224	32.476	59.474	-81.171	-76.419	262.886	24.591	-76.949	-72.952	-72.333	-67.462	48.366	-68.424	-8191	255	
21336.664	1	1	0	0	0.1875	0.15579	0.23562	0.17333	0.35862	0.2413	0.17354	0.31266	0.26265	0.12975	0.14737	0.26545	0.34723	0.2298	0.079699	0.20732	-1.8042	-2.5521	-1.8958	-2.6667	-2.4229	-1.9917	-2.7729	-2.3396	-2.1208	-2.9021	-1.8708	-2.7875	-2.6521	-2.0479	-2.7562	-2.3021	121.643	262.348	-27.229	198.320	55.183	30.408	116.148	209.146	-12.565	-52.075	210.670	150.637	40.158	-55.390	129.628	179.142	0.00032349	0.0004525	0.00026165	1356	4.4128e-06	1.0244e-05	1352.6	365.02	2.6898e-06	4.2973e-06	415.62	139.62	120.87	41.88	4.8058e-06	51.755	0.0010392	0.0011127	0.00031747	1391.4	1.2242e-05	1.2433e-05	1381.4	372.64	1.1962e-05	1.2388e-05	425.39	143.69	125.48	43.285	1.2108e-05	53.544	136.948	-28.217	4.888	-80.896	43.051	60.069	-81.221	-76.703	8.034	45.469	-76.844	-72.787	-72.369	-67.355	23.929	-68.355	-8191	255	
21336.762	1	1	0	0	0.11377	0.10836	0.036927	0.20406	0.13255	0.1997	0.42269	0.17662	0.24244	0.14554	0.48323	0.33529	0.12066	0.12793	0.015716	0.14912	-1.7833	-2.6937	-1.8792	-2.5646	-2.5208	-1.6333	-2.7667	-2.5229	-2.1167	-2.6479	-2.2	-2.2104	-2.5833	-1.7167	-2.5229	-2.3833	171.185	221.302	73.943	242.194	221.589	-73.081	214.537	46.362	93.807	253.348	224.553	251.691	167.444	216.211	-34.308	-71.252	0.00044165	0.00070743	9.9312e-05	1364.2	4.6889e-06	6.2e-06	1354.5	365.21	5.8396e-06	5.0484e-06	414.56	139	121.77	42.043	3.876e-06	51.315	0.0010404	0.0011225	0.00031566	1390.8	1.1956e-05	1.205e-05	1381.4	372.59	1.1815e-05	1.2063e-05	424.94	143.45	125.8	43.252	1.1601e-05	53.347	128.528	-13.664	-24.255	-80.987	61.329	5.953	-81.399	-76.546	32.490	38.454	-76.698	-72.673	-72.399	-67.489	78.767	-68.100	-8191	255	
21336.857	1	1	0	0	0.23391	0.10926	0.093961	0.24712	0.25991	0.20606	0.49341	0.25417	0.1089	0.16087	0.25446	0.26758	0.067777	0.14958	0.33324	0.20662	-1.6125	-2.6854	-1.9583	-2.3042	-2.7125	-1.8229	-2.525	-2.4562	-1.8687	-2.7646	-2.1312	-2.2729	-2.6042	-1.925	-2.5167	-2.5854	-55.316	13.804	76.786	230.078	-59.714	151.915	227.170	185.662	179.435	8.843	244.651	209.562	167.464	-49.054	222.895	186.606	0.00041286	0.00032433	0.00010162	1361.9	5.4234e-06	4.7569e-06	1360.6	363.42	4.5528e-06	3.0307e-06	413.84	139.37	121.06	41.97	6.5863e-06	51.56	0.0010084	0.001077	0.00030431	1389.7	1.1697e-05	1.1905e-05	1381.9	372.05	1.1757e-05	1.189e-05	424.26	143.36	125.47	43.278	1.1572e-05	53.356	121.579	-29.446	-40.220	-81.289	38.517	88.101	-81.226	-76.322	38.366	13.540	-76.774	-72.582	-71.910	-67.379	61.090	-68.015	-8191	255	
21336.977	1	1	0	0	0.095892	0.21311	0.22302	0.28621	0.068008	0.30356	0.52583	0.13808	0.16056	0.22638	0.30657	0.10254	0.18298	0.078244	0.018418	0.39301	-1.5042	-2.5583	-2.1688	-2.0875	-2.6333	-1.9646	-2.5604	-2.625	-1.8229	-2.6063	-2.3208	-2.0938	-2.6125	-1.8125	-2.2188	-2.6125	109.091	-20.512	-24.987	-58.197	89.468	206.315	228.982	214.677	51.560	257.879	253.537	-47.941	85.553	221.885	136.690	229.559	0.00054998	0.00026827	4.5705e-05	1369	4.2943e-06	3.3787e-06	1354.8	363.63	2.3377e-06	5.4687e-06	415.83	139.17	121.01	41.882	1.1393e-05	51.438	0.0010136	0.0010725	0.00030967	1390.5	1.1903e-05	1.1908e-05	1380.9	371.98	1.1667e-05	1.1867e-05	424.75	143.43	125.32	43.284	1.1897e-05	53.425	122.897	-12.571	4.978	-81.232	32.793	8.973	-81.094	-76.259	95.923	59.935	-76.740	-72.797	-72.171	-67.435	13.536	-68.183	-8191	255	
21337.072	1	1	0	0	0.13408	0.16932	0.1839	0.17536	0.22221	0.20171	0.15827	0.15822	0.26948	0.13138	0.26071	0.25639	0.079541	0.082195	0.086464	0.092191	-1.3708	-2.4646	-2.2479	-2.0083	-2.5875	-1.9771	-2.4833	-2.8292	-1.8604	-2.5604	-2.6646	-1.8125	-2.7771	-2.05	-2.1792	-2.7833	35.274	-51.877	231.412	-54.626	134.685	227.505	193.246	170.767	41.504	35.111	208.551	-76.050	-41.168	-40.434	15.689	104.479	0.00037971	0.00058748	0.00015778	1366.2	4.9378e-06	4.8343e-06	1356	365.04	1.8682e-06	1.1876e-05	413.26	138.95	121.6	41.86	4.3546e-06	51.617	0.0010238	0.00108	0.00030639	1387.3	1.1947e-05	1.212e-05	1379.4	372.23	1.1763e-05	1.1877e-05	423.75	143.47	125.55	43.231	1.1777e-05	53.409	120.619	-64.166	-20.747	-81.042	23.538	49.955	-81.123	-76.378	-59.222	29.368	-77.124	-72.608	-72.554	-67.247	39.913	-68.340	-8191	255	
21337.170	1	1	0	0	0.25069	0.11856	0.11003	0.30919	0.078924	0.039228	0.49024	0.24493	0.1175	0.068949	0.30843	0.16052	0.1162	0.31735	0.058676	0.1966	-1.4312	-2.5979	-2.4021	-1.9312	-2.7375	-2.1333	-2.4521	-2.7062	-1.9937	-2.4854	-2.5875	-1.7875	-2.8479	-2.2333	-1.9646	-2.8875	-94.111	-66.796	229.400	262.002	223.058	34.221	179.522	230.111	121.185	86.746	-91.123	265.636	139.130	-30.177	234.531	228.849	0.0003542	0.00042087	0.00010792	1364.6	2.0689e-06	6.4992e-06	1353.1	363.78	4.1853e-06	3.1297e-06	416.15	139.28	121.25	41.794	9.6385e-06	51.511	0.0010125	0.0010728	0.00030326	1390.4	1.1834e-05	1.1896e-05	1377	372	1.1662e-05	1.1954e-05	425.14	143.22	125.5	43.287	1.183e-05	53.415	117.265	-13.634	-2.048	-80.818	4.986	63.103	-81.153	-76.159	13.873	64.640	-76.801	-72.703	-72.418	-67.473	80.241	-68.218	-8191	255	
21337.289	1	1	0	0	0.39269	0.10089	0.15044	0.26096	0.074818	0.086667	0.23346	0.14133	0.16733	0.043389	0.20987	0.19457	0.10681	0.2532	0.16581	0.16602	-1.6771	-2.425	-2.5771	-1.9229	-2.4583	-2.0542	-2.2833	-2.8	-1.8542	-2.3417	-2.8063	-1.9146	-2.6875	-2.3354	-1.775	-2.8979	-13.716	235.189	22.609	145.420	243.685	40.049	149.571	207.498	-60.324	-37.839	237.075	215.026	159.371	-72.319	160.665	-23.411	0.00043201	0.0006095	0.00017995	1364.6	2.9552e-06	6.6317e-06	1353.1	364.7	2.1896e-06	7.1263e-06	414.07	139.18	121.25	41.825	5.8152e-06	51.543	0.0010366	0.001096	0.00030195	1387.1	1.2025e-05	1.213e-05	1380.5	372.44	1.1822e-05	1.2147e-05	424.93	143.34	125.37	43.166	1.19e-05	53.419	120.989	-48.104	19.168	-80.969	34.175	60.637	-81.070	-76.388	0.713	83.920	-76.853	-72.622	-71.966	-67.359	81.613	-67.716	-8191	255	
21337.361	1	1	0	0	0.15866	0.1716	0.12012	0.15766	0.090961	0.18495	0.25448	0.19842	0.21103	0.16757	0.31712	0.37602	0.19585	0.20361	0.12052	0.24061	-1.5521	-2.225	-2.7292	-1.9646	-2.5625	-2.3187	-1.9583	-2.8812	-2.075	-1.9646	-2.775	-1.8417	-2.6542	-2.575	-1.9833	-2.7167	-32.948	226.033	-72.163	-36.816	46.061	-75.900	204.675	259.335	56.925	205.850	218.841	104.695	11.822	148.710	88.536	-90.124	0.00035942	0.00060894	0.00023603	1361.5	4.4749e-06	7.5741e-06	1357.3	364.4	3.1513e-06	3.3925e-06	414.33	139.5	121.01	41.761	5.6914e-06	51.672	0.0010295	0.0010953	0.00030357	1387.6	1.1799e-05	1.1669e-05	1379.7	371.96	1.1507e-05	1.174e-05	424.02	143.36	125.42	43.172	1.1745e-05	53.451	115.755	9.541	-26.811	-81.025	70.042	61.494	-80.966	-76.364	203.407	52.226	-76.500	-72.538	-72.248	-67.323	22.358	-67.977	-8191	255	
21337.457	1	1	0	0	0.18503	0.13074	0.25109	0.17897	0.1031	0.27624	0.39645	0.17075	0.077993	0.068797	0.25462	0.14039	0.49734	0.22406	0.28332	0.22437	-1.6708	-1.9833	-2.625	-2.075	-2.3937	-2.6458	-2.1083	-2.7792	-2.1708	-1.8292	-2.725	-1.9521	-2.4625	-2.6208	-1.9438	-2.7521	213.379	240.738	87.447	166.857	262.534	-34.078	233.576	152.438	192.054	221.571	201.319	-61.366	-62.218	198.591	99.137	236.523	0.0004912	0.00036863	9.1101e-05	1368.4	8.8348e-06	5.6407e-06	1359.1	363.93	2.1381e-06	3.2263e-06	415.33	139.03	120.76	41.801	7.7952e-06	51.42	0.0010091	0.0010731	0.00030132	1387.4	1.153e-05	1.1719e-05	1380.8	371.81	1.1604e-05	1.1797e-05	424.92	143.09	125.19	43.204	1.1774e-05	53.415	123.333	33.483	8.169	-81.001	19.025	30.053	-81.255	-76.215	-14.002	43.854	-76.664	-72.922	-72.401	-67.405	9.311	-68.070	-8191	255	
21337.578	1	1	0	0	0.071063	0.047046	0.16889	0.14633	0.031792	0.09738	0.18119	0.21117	0.14126	0.031105	0.050243	0.22555	0.03713	0.27261	0.31132	0.12587	-1.9188	-2.0062	-2.6833	-1.9729	-2.2375	-2.5958	-2.2042	-2.6958	-2.1708	-1.8312	-2.925	-2.1104	-2.3042	-2.5146	-1.7188	-2.5687	45.555	242.357	224.587	-34.936	2.961	225.318	115.216	-80.492	177.839	4.281	223.556	202.711	253.976	236.553	14.317	172.320	0.00037356	0.00053992	6.3666e-05	1360.4	3.5016e-06	5.712e-06	1353.3	363.6	8.2773e-06	2.5835e-06	413.64	138.82	120.64	41.781	4.4445e-06	51.235	0.00099525	0.0010764	0.00030235	1387.8	1.149e-05	1.1635e-05	1378.5	371.55	1.1225e-05	1.1433e-05	424.23	143	125.16	43.14	1.1556e-05	53.257	119.228	-15.757	4.147	-80.849	91.686	11.573	-80.964	-76.312	-10.296	12.091	-76.836	-72.745	-72.380	-67.515	18.142	-68.153	-8191	255	
21337.674	1	1	0	0	0.088336	0.18074	0.070561	0.16633	0.17375	0.10759	0.15628	0.18686	0.071168	0.061126	0.049421	0.32594	0.15943	0.2866	0.33682	0.17119	-1.8771	-1.6604	-2.5083	-2.2438	-2.0604	-2.7375	-2.0771	-2.6312	-2.3854	-1.8208	-2.6875	-2.2042	-2.2458	-2.8292	-2.0687	-2.4646	240.737	95.091	45.821	132.197	121.357	17.458	181.019	260.475	193.257	128.981	69.460	239.190	-34.874	178.091	190.745	-57.834	0.00047852	0.00046352	0.00024531	1355.3	7.5008e-06	3.5895e-06	1348.3	363.36	3.0619e-06	4.0437e-06	415.29	138.59	120.63	41.751	7.2116e-06	51.482	0.00095965	0.0010436	0.00029325	1383.5	1.1368e-05	1.1407e-05	1375.5	371.32	1.1099e-05	1.1486e-05	424.53	142.81	124.95	43.154	1.1506e-05	53.258	138.397	2.713	-14.407	-81.319	53.500	53.516	-81.031	-76.320	96.453	84.793	-76.916	-73.017	-72.170	-67.646	66.129	-68.184	-8191	255	
21337.770	1	1	0	0	0.054261	0.078998	0.18959	0.2067	0.031056	0.19143	0.080239	0.42261	0.29178	0.10173	0.088524	0.12484	0.16005	0.32749	0.26713	0.16312	-1.9958	-1.8021	-2.4958	-2.1125	-1.9771	-2.4417	-2.1562	-2.3875	-2.3792	-1.9625	-2.7812	-2.4167	-2.0021	-2.5917	-2.15	-2.3979	260.400	81.195	147.865	209.859	118.909	151.325	177.359	159.715	257.528	67.523	211.076	-89.513	178.127	-48.468	40.829	251.063	0.00040272	0.00037569	0.00019559	1358.2	3.7525e-06	6.4336e-06	1350.7	364.88	2.4039e-06	3.8798e-06	415.74	139.33	120.89	41.652	3.7177e-06	51.523	0.00098626	0.0010537	0.0002939	1384.4	1.1464e-05	1.1395e-05	1376.2	371.96	1.1388e-05	1.1614e-05	424.13	143.06	125	43.086	1.1387e-05	53.346	131.384	21.497	-5.976	-81.214	-6.021	62.100	-81.236	-76.169	78.931	94.703	-76.842	-72.758	-72.392	-67.382	105.842	-68.328	-8191	255	
21337.889	1	1	0	0	0.28837	0.12869	0.07147	0.23907	0.10533	0.1858	0.04504	0.23549	0.16205	0.14622	0.21709	0.4866	0.15763	0.11168	0.24822	0.44724	-2.2542	-1.7896	-2.6125	-2.2125	-2.075	-2.9771	-2.2979	-2.2854	-2.8479	-2.075	-2.5417	-2.5938	-2.0771	-2.9083	-2.1625	-2.1562	97.122	-13.927	25.334	83.989	149.613	117.675	-52.353	225.594	83.410	170.778	235.634	224.563	238.161	206.520	150.956	135.407	0.00031391	0.00039025	0.0001829	1358.6	7.1245e-06	3.5222e-06	1351.6	363.91	7.8239e-07	5.0563e-06	414.91	138.81	120.1	41.675	5.6291e-06	51.272	0.00096838	0.0010484	0.00029506	1384.6	1.1225e-05	1.1451e-05	1376.5	371.41	1.1312e-05	1.1706e-05	423.74	142.91	124.81	43.097	1.137e-05	53.186	133.802	32.582	0.403	-80.925	77.492	40.429	-81.109	-76.138	13.522	26.471	-76.683	-72.696	-72.255	-67.417	17.243	-68.040	-8191	255	
21337.961	1	1	0	0	0.12748	0.32161	0.13412	0.14284	0.18011	0.22078	0.30929	0.003697	0.082223	0.1102	0.099555	0.23604	0.18822	0.22377	0.0858	0.065023	-2.3646	-1.9958	-2.4479	-2.5792	-1.8438	-2.5479	-2.4688	-2.2313	-2.6521	-1.9188	-2.5708	-2.7938	-2.1146	-2.6312	-2.2333	-2.1375	94.370	110.084	-8.630	-0.028	-4.169	61.027	220.780	-15.229	86.837	-85.363	216.203	-62.603	104.344	214.268	-40.734	93.516	0.00040189	0.00061051	0.00012519	1359	3.252e-06	8.1343e-06	1349.6	364.74	4.8863e-06	5.8064e-06	412.8	138.72	120.04	41.755	1.6574e-06	51.63	0.00096995	0.0010441	0.00029118	1384.3	1.1599e-05	1.1424e-05	1375.3	371.62	1.124e-05	1.1543e-05	423.99	142.93	125.19	43.094	1.1405e-05	53.303	132.790	26.997	-30.830	-81.003	76.820	33.635	-81.072	-76.105	33.909	15.832	-76.304	-72.681	-72.494	-67.430	155.833	-67.972	-8191	255	
21338.057	1	1	0	0	0.19473	0.0553	0.17909	0.22888	0.44037	0.12655	0.062381	0.21231	0.21354	0.17871	0.14953	0.080544	0.15228	0.21544	0.026725	0.048841	-2.275	-1.875	-2.1708	-2.8979	-1.7938	-2.6604	-2.5062	-2.1833	-2.7542	-2.0125	-2.4167	-2.7542	-2.0021	-2.6583	-2.4167	-2.2958	194.682	-38.603	21.300	153.043	23.508	1.078	199.285	228.631	263.260	-60.462	-76.787	-21.860	40.024	164.507	-69.409	-72.802	0.0003846	0.00052475	8.3136e-05	1360.5	4.3651e-06	5.1347e-06	1355.2	364.25	3.4199e-06	6.3035e-06	413.63	138.82	120.67	41.726	4.6551e-06	51.386	0.00096954	0.0010306	0.00029308	1383.6	1.1477e-05	1.1476e-05	1376.6	371.36	1.1139e-05	1.1582e-05	423.75	142.86	125.01	43.168	1.141e-05	53.256	126.304	-20.393	-30.623	-80.853	32.573	83.279	-81.226	-76.346	42.937	71.556	-76.798	-72.809	-72.216	-67.417	-25.456	-68.040	-8191	255	
21338.152	1	1	0	0	0.03099	0.31478	0.26569	0.25896	0.066732	0.11428	0.37726	0.16171	0.15626	0.08784	0.079526	0.12864	0.24638	0.054908	0.1575	0.097483	-2.3708	-2.0729	-2.1917	-2.7167	-1.9333	-2.6937	-2.7604	-2.1292	-2.6646	-2.2562	-2.3125	-2.7167	-2.0938	-2.5958	-2.5917	-2.0625	250.296	-44.525	252.715	212.703	116.645	187.556	219.318	232.847	259.698	184.147	243.079	102.252	228.173	148.527	22.950	158.555	0.00026072	0.00013696	0.00011081	1356.3	7.0899e-06	3.5902e-06	1350.3	364.14	5.5312e-06	8.1249e-06	412.51	138.76	120.74	41.571	7.1796e-06	51.492	0.00097038	0.0010596	0.00029894	1383.9	1.1398e-05	1.1589e-05	1373.5	371.6	1.1331e-05	1.167e-05	423.27	142.96	124.95	43.084	1.1471e-05	53.251	118.817	-3.734	-1.621	-80.902	49.977	64.707	-80.912	-76.174	-14.548	90.132	-76.833	-72.955	-72.635	-67.541	70.825	-68.010	-8191	255	
21338.273	1	1	0	0	0.02445	0.15746	0.38817	0.36098	0.12221	0.2186	0.085021	0.17724	0.21638	0.21368	0.12761	0.054217	0.22061	0.31897	0.074545	0.26824	-2.4021	-2.1792	-2.1188	-2.7417	-2.0271	-2.4542	-2.8708	-1.9438	-2.625	-2.4375	-1.95	-2.6521	-2.1	-2.4375	-2.6125	-1.9125	-15.920	218.986	146.653	229.674	11.786	-36.233	190.041	245.141	217.505	202.563	-24.390	147.776	-83.711	233.217	233.156	197.210	0.00033874	0.00035422	0.00014739	1356	4.0624e-06	2.3325e-06	1349.3	363.82	3.1705e-06	7.2093e-06	414.12	138.26	119.97	41.739	7.9157e-06	51.61	0.00097985	0.0010486	0.00029462	1383.1	1.1365e-05	1.1376e-05	1374.6	371.37	1.1285e-05	1.1429e-05	423.93	142.74	124.64	43.152	1.1316e-05	53.311	130.038	13.069	-14.552	-80.922	101.972	77.307	-80.987	-76.085	-18.812	83.179	-76.826	-72.346	-72.140	-67.018	38.729	-67.951	-8191	255	
21338.369	1	1	0	0	0.13912	0.25212	0.037941	0.13031	0.11488	0.28757	0.30787	0.2216	0.17506	0.11721	0.09275	0.17364	0.2541	0.13027	0.20034	0.17205	-2.25	-2.5458	-1.7833	-2.8979	-1.8833	-2.225	-2.8854	-2.1771	-2.6312	-2.3812	-2.1875	-2.5875	-2.2792	-2.2458	-2.75	-1.8813	33.432	139.005	105.799	244.943	7.720	-57.030	214.612	-75.727	187.946	120.737	210.427	222.788	-57.133	-56.782	119.838	151.316	0.00040792	0.00073225	0.00013975	1359.6	5.5038e-06	4.602e-06	1352.8	361.93	5.4151e-06	4.1582e-06	414.31	138.43	121.15	41.731	5.1433e-06	51.567	0.00096501	0.0010331	0.00028871	1382.1	1.1481e-05	1.1366e-05	1373.7	370.5	1.1152e-05	1.1286e-05	423.8	142.86	124.96	43.065	1.1104e-05	53.327	134.167	27.155	26.658	-80.740	88.712	43.917	-81.018	-76.148	-13.555	41.883	-76.656	-72.462	-72.351	-67.248	-12.014	-67.996	-8191	255	
21338.467	1	1	0	0	0.15153	0.30343	0.015489	0.12688	0.20136	0.068979	0.10357	0.18771	0.095587	0.19201	0.29047	0.18882	0.20938	0.20303	0.23279	0.27579	-2.1167	-2.3792	-1.7229	-2.9271	-1.9542	-2.125	-2.7604	-2.1854	-2.3667	-2.4792	-1.8646	-2.7021	-2.3229	-2.0542	-2.8625	-2.0208	-87.614	265.622	-86.357	-74.616	12.894	182.862	180.630	214.446	176.251	91.677	-60.746	247.479	195.926	-61.534	103.861	230.698	0.00031916	0.00088478	0.00018523	1351.8	3.7079e-06	6.4644e-06	1351.9	362.69	3.4648e-06	5.088e-06	412.85	138.23	120.16	41.726	2.0796e-06	51.532	0.00095935	0.001036	0.00029122	1382	1.1088e-05	1.1261e-05	1373.7	370.97	1.1109e-05	1.1335e-05	423.2	142.73	124.73	43.142	1.0999e-05	53.24	118.490	-19.318	-26.662	-80.636	16.116	59.470	-80.952	-76.112	27.681	64.259	-76.736	-72.491	-72.128	-67.240	21.489	-67.913	-8191	255	
21338.562	1	1	0	0	0.10361	0.18595	0.025637	0.18017	0.065676	0.097642	0.17311	0.20314	0.061051	0.2244	0.40986	0.060354	0.065444	0.32266	0.025493	0.056927	-1.8896	-2.4562	-1.9042	-2.6083	-2.3187	-1.9958	-2.8771	-2.1792	-2.1312	-2.6833	-2.1333	-2.8396	-2.4979	-1.9125	-2.7542	-2.2938	-41.664	155.441	-44.662	254.432	-60.322	100.563	226.995	249.325	180.237	208.671	79.472	248.738	-90.862	214.363	265.377	254.730	0.00038408	0.00044913	0.0001696	1352.8	7.7059e-06	2.6168e-06	1354.5	363.85	2.0683e-06	5.3252e-06	413.56	138.61	120.94	41.582	3.2117e-06	51.418	0.00095875	0.0010331	0.00028476	1380.6	1.1028e-05	1.1156e-05	1374.4	371.3	1.0846e-05	1.1269e-05	422.75	142.75	124.67	43.079	1.0989e-05	53.235	147.973	-8.354	-29.202	-80.679	43.295	64.801	-80.861	-76.178	56.073	73.709	-76.736	-72.535	-72.164	-66.862	80.920	-67.681	-8191	255	
21338.658	1	1	0	0	0.1984	0.11857	0.18715	0.062344	0.21416	0.20237	0.26453	0.22873	0.17724	0.15686	0.26259	0.16131	0.20836	0.26871	0.0076249	0.15895	-1.8125	-2.5333	-1.9937	-2.6312	-2.3833	-1.8729	-3.0125	-2.3021	-2.1104	-2.7188	-1.9604	-2.6042	-2.5	-2.0542	-2.6729	-2.2896	114.226	223.744	7.114	-80.678	189.895	61.121	252.159	208.163	-75.235	87.747	-83.655	167.136	20.665	198.866	91.207	114.329	0.00039214	0.00049624	3.2717e-05	1357.2	2.4586e-06	4.9086e-06	1345.9	363.43	4.7176e-06	7.1953e-06	411.73	138.38	120.62	41.739	3.0273e-07	51.485	0.00095167	0.0010135	0.00028679	1381.5	1.121e-05	1.0986e-05	1370.8	370.81	1.0865e-05	1.1218e-05	421.63	142.62	124.73	43.075	1.1192e-05	53.24	115.046	-33.985	196.255	-80.675	111.520	46.973	-81.066	-76.170	22.349	53.941	-76.282	-72.558	-71.920	-66.993	120.350	-68.013	-8191	255	
21338.754	1	1	0	0	0.31264	0.094482	0.19469	0.14821	0.28101	0.28222	0.2891	0.20595	0.28371	0.063835	0.13334	0.056843	0.16233	0.13898	0.16641	0.17804	-1.8875	-2.5021	-2.1917	-2.5812	-2.625	-1.8937	-2.7562	-2.3937	-2.0521	-2.6708	-2.2188	-2.4604	-2.5333	-1.85	-2.575	-2.4521	186.741	-70.518	30.581	-72.569	210.843	161.288	169.402	247.032	212.357	-64.152	15.356	169.351	137.411	185.545	103.205	205.718	0.00040444	0.00028084	0.00013296	1359.5	6.0165e-06	2.4126e-06	1351.4	362.99	1.4668e-06	3.597e-06	413.22	138.8	121.1	41.605	3.8742e-06	51.425	0.0009577	0.0010286	0.00028805	1382.7	1.1245e-05	1.1288e-05	1373.6	370.73	1.1141e-05	1.1264e-05	422.96	142.76	124.7	42.99	1.0957e-05	53.196	127.380	-2.005	-48.180	-80.930	77.757	-6.984	-80.782	-76.148	-26.782	63.591	-76.668	-72.311	-71.876	-67.238	65.916	-67.681	-8191	255	
21338.852	1	1	0	0	0.21536	0.42732	0.17939	0.23325	0.1898	0.14259	0.28246	0.35905	0.15925	0.18106	0.27372	0.17801	0.2678	0.18581	0.050965	0.13818	-1.5187	-2.6083	-1.9792	-2.1458	-2.7583	-1.9625	-2.7438	-2.5563	-2.025	-2.7354	-2.0521	-2.35	-2.8	-2.1792	-2.4854	-2.7146	259.536	59.438	207.767	-79.073	209.880	-14.921	192.090	178.552	186.209	120.605	-89.147	221.582	204.349	67.215	-93.605	70.341	0.00034712	0.00055787	0.0001265	1358.5	2.383e-06	1.7712e-06	1348.9	362	2.9406e-06	5.8415e-06	413.69	138.66	120.84	41.645	8.0263e-06	51.494	0.00093102	0.0010083	0.00028199	1382.7	1.0947e-05	1.0946e-05	1372.7	370.3	1.09e-05	1.0797e-05	422.8	142.67	124.75	43.079	1.0675e-05	53.12	133.213	29.260	15.023	-80.523	26.425	71.515	-81.043	-76.005	-38.397	51.694	-76.465	-72.422	-71.825	-66.938	78.888	-67.673	-8191	255	
21338.969	1	1	0	0	0.32064	0.13301	0.24272	0.011289	0.11823	0.19835	0.34631	0.20631	0.037301	0.21704	0.18815	0.25439	0.12015	0.2962	0.10942	0.34037	-1.5667	-2.7458	-2.175	-2.0896	-2.6167	-1.9229	-2.7917	-2.7271	-1.7958	-2.5896	-2.3125	-2.2875	-2.8375	-2.0438	-2.4646	-2.6854	208.956	67.126	139.843	-51.337	222.660	83.925	209.671	199.761	81.675	64.882	224.859	260.566	210.111	258.312	95.336	255.354	0.00043042	0.00055058	0.00022215	1360.1	7.3226e-06	3.1372e-06	1346	363.74	3.8583e-06	4.0495e-06	412.29	138	120.57	41.745	5.858e-06	51.317	0.00093528	0.00099757	0.000278	1379.4	1.0926e-05	1.1084e-05	1371.4	370.84	1.0979e-05	1.1044e-05	422.5	142.54	124.84	42.957	1.102e-05	53.079	133.070	-27.249	-5.459	-80.408	44.672	39.963	-80.574	-76.045	-44.050	39.056	-76.722	-72.252	-71.776	-67.021	71.260	-67.845	-8191	255	
21339.066	1	1	0	0	0.21806	0.12218	0.15929	0.13407	0.32548	0.22982	0.11941	0.38737	0.28723	0.10093	0.16417	0.15209	0.11497	0.2229	0.19996	0.25141	-1.5854	-2.5938	-2.2083	-2.1729	-2.7875	-2.0583	-2.475	-2.7083	-1.95	-2.7104	-2.4646	-2.1271	-2.7917	-2.2708	-2.2667	-2.6396	214.951	247.644	36.098	215.464	-8.841	-82.510	258.765	208.160	68.152	-51.890	-88.328	-51.845	194.855	182.805	182.300	252.042	0.00035666	0.00031803	0.00013792	1354.1	4.9887e-06	7.0133e-06	1344.4	361.61	1.9521e-06	6.2308e-06	413	138.85	120.8	41.704	4.4367e-06	51.397	0.00094266	0.0010061	0.00028181	1377.4	1.0682e-05	1.0992e-05	1370.4	369.85	1.0748e-05	1.0813e-05	421.47	142.84	124.61	42.973	1.0673e-05	53.186	108.952	-0.990	8.145	-80.556	53.312	66.009	-80.719	-75.919	90.582	69.294	-76.407	-72.288	-71.650	-66.993	35.177	-67.808	-8191	255	
21339.162	1	1	0	0	0.27177	0.30221	0.29055	0.15755	0.16862	0.12946	0.32742	0.098415	0.10369	0.15168	0.26666	0.18584	0.039868	0.23476	0.16734	0.033004	-1.525	-2.6708	-2.4771	-2.1354	-2.6917	-2.25	-2.2708	-2.8604	-1.8396	-2.5771	-2.6604	-2.0771	-2.8479	-2.3021	-2.1292	-2.6833	175.681	34.943	257.703	-82.727	-90.136	94.637	234.682	231.646	125.041	235.175	163.691	-51.454	81.241	-87.332	-24.106	210.295	0.00038434	0.00033899	0.0001178	1351.1	2.9754e-06	3.7358e-06	1346	364.71	2.6311e-06	9.1222e-06	411.64	138.46	120.66	41.967	8.4769e-06	51.444	0.00094702	0.00098025	0.00028263	1379.8	1.0927e-05	1.0998e-05	1369.6	370.74	1.0683e-05	1.1057e-05	422.55	142.48	124.82	43.045	1.0938e-05	53.172	127.766	21.952	-14.773	-80.395	131.684	17.593	-80.816	-76.127	61.379	51.290	-76.709	-72.491	-71.520	-67.025	74.885	-67.947	-8191	255	
21339.258	1	1	0	0	0.10685	0.049981	0.13177	0.017812	0.30815	0.076804	0.1876	0.25428	0.078765	0.28023	0.0060559	0.11114	0.025049	0.13004	0.096726	0.12446	-1.5208	-2.5187	-2.4208	-1.9688	-2.6833	-2.1146	-2.2854	-2.925	-2.0333	-2.5	-2.6854	-2.25	-2.7542	-2.5625	-2.1979	-2.9333	247.371	3.520	237.783	54.396	102.614	253.314	243.281	227.673	47.358	10.753	-36.495	145.168	9.542	105.272	99.502	191.578	0.00047152	0.0005629	0.00012872	1346.4	4.9297e-06	1.2417e-06	1347.9	362.31	3.6722e-06	4.1274e-06	412.86	138.2	120.8	41.519	5.7096e-06	51.53	0.0009293	0.0009948	0.00027924	1376.2	1.098e-05	1.0857e-05	1370.2	370.16	1.0881e-05	1.1022e-05	422.44	142.36	124.57	42.941	1.0937e-05	53.146	132.803	-13.519	-0.323	-80.676	63.305	80.097	-80.592	-76.107	19.853	53.452	-76.620	-72.069	-71.707	-67.109	58.613	-67.754	-8191	255	
21339.354	1	1	0	0	0.19012	0.23214	0.1208	0.21232	0.14019	0.058318	0.28247	0.10268	0.13241	0.1702	0.14751	0.19642	0.12787	0.15517	0.15881	0.22847	-1.6542	-2.4042	-2.7125	-2.0583	-2.6083	-2.6271	-2.2208	-2.9833	-2.1396	-2.3979	-2.8375	-1.9896	-2.4417	-2.6333	-1.9333	-2.8833	46.277	95.294	-68.871	-74.370	229.058	254.947	202.903	156.018	48.124	-48.599	230.579	194.979	264.499	218.556	162.207	228.111	0.00040023	0.00022503	0.00021105	1347.8	3.7512e-06	5.2444e-06	1342.7	362.05	6.2564e-06	6.0332e-06	412	138.36	120.48	41.644	8.866e-06	51.303	0.00093112	0.00099664	0.0002784	1377.5	1.0724e-05	1.0737e-05	1367.6	369.65	1.0555e-05	1.0847e-05	422.59	142.45	124.45	42.953	1.07e-05	53.147	120.149	40.384	22.546	-80.644	64.443	45.483	-80.762	-75.907	-59.992	63.975	-76.285	-72.286	-72.079	-67.105	66.564	-67.851	-8191	255	
21339.449	1	1	0	0	0.11319	0.059757	0.092551	0.20854	0.14236	0.17999	0.32501	0.21878	0.21386	0.0030666	0.15256	0.1755	0.27908	0.076856	0.1362	0.069891	-1.5979	-2.0958	-2.6688	-1.9521	-2.5875	-2.4333	-2.1375	-2.7396	-2.3063	-2.2396	-2.9229	-1.9875	-2.4771	-2.5854	-1.9396	-2.7375	145.555	209.160	81.370	171.219	-66.727	-25.225	207.428	234.429	-58.051	246.346	182.423	225.913	-31.958	58.413	173.390	-26.775	0.00037938	0.00032632	0.00015635	1350.7	5.3546e-06	3.7245e-06	1342.9	362.26	6.649e-06	9.6114e-06	414.68	138.71	120.65	41.774	8.2714e-06	51.454	0.0009201	0.0009923	0.00028271	1376.5	1.0817e-05	1.0878e-05	1368.4	369.64	1.0676e-05	1.0909e-05	422.47	142.36	124.61	42.991	1.0808e-05	53.122	128.718	-21.019	-22.359	-80.805	19.699	51.566	-80.874	-75.975	122.143	48.898	-76.544	-72.238	-71.902	-67.071	25.944	-67.715	-8191	255	
21339.570	1	1	0	0	0.13367	0.27087	0.32518	0.21165	0.21519	0.25799	0.23228	0.23189	0.1402	0.28155	0.21318	0.10519	0.21099	0.19108	0.06828	0.19262	-1.7125	-1.8687	-2.7	-2.0687	-2.3312	-2.525	-2.2333	-2.8167	-2.4208	-2.1375	-2.8438	-2.2146	-2.3646	-2.5438	-2.0458	-2.7833	-52.551	243.889	80.728	174.415	158.283	70.696	259.362	196.769	-3.937	137.766	-82.513	-13.984	237.248	164.430	9.023	110.048	0.00027088	0.00067925	0.00023772	1353.5	4.725e-06	3.9377e-06	1345.8	362.35	3.0157e-06	5.5256e-06	412.24	137.81	120.74	41.85	5.6401e-06	51.118	0.00092747	0.00099419	0.00027834	1375.8	1.0702e-05	1.0838e-05	1370.7	369.97	1.0639e-05	1.1057e-05	421.76	142.06	124.67	43.003	1.0869e-05	53.096	147.569	30.133	-6.163	-80.888	33.890	15.624	-80.934	-75.918	65.016	71.722	-76.379	-72.421	-71.800	-67.073	31.417	-67.938	-8191	255	
21339.668	1	1	0	0	0.25	0.20405	0.05803	0.10977	0.059549	0.13031	0.16601	0.083342	0.18629	0.19265	0.30337	0.31821	0.062275	0.082697	0.19819	0.19032	-2.0042	-1.8542	-2.8292	-2.1854	-2.225	-2.8812	-2.0646	-2.5917	-2.2917	-1.8729	-2.7917	-2.1625	-2.0333	-2.85	-1.8604	-2.6042	245.840	202.587	202.760	253.306	166.645	237.972	243.219	-90.385	141.008	142.304	-79.395	218.289	22.811	172.576	38.249	150.193	0.00033711	0.00039104	0.00017057	1352.5	4.8955e-06	7.0362e-06	1344.6	362.47	5.1358e-06	2.4878e-06	411.73	138.73	120.51	41.594	6.5904e-06	51.431	0.00092056	0.00099802	0.00027457	1375.5	1.079e-05	1.0934e-05	1369.8	369.82	1.0668e-05	1.1068e-05	421.77	142.45	124.7	43.026	1.0713e-05	53.179	114.501	20.312	-34.715	-80.638	38.756	106.927	-80.562	-75.738	15.492	3.019	-76.685	-72.224	-71.737	-67.245	46.232	-67.733	-8191	255	
21339.762	1	1	0	0	0.020045	0.053403	0.11698	0.20182	0.35491	0.051063	0.090409	0.30214	0.19684	0.18189	0.19035	0.1059	0.12184	0.29144	0.2329	0.1786	-2.0667	-2.0312	-2.475	-2.4583	-1.925	-2.65	-2.1458	-2.4938	-2.55	-1.9188	-2.8292	-2.4083	-2.0708	-2.7333	-2.0208	-2.3417	256.958	191.897	91.544	-6.911	-1.404	261.221	132.176	219.515	133.706	-45.285	250.562	-35.930	249.882	-63.853	231.858	195.755	0.00040102	0.00031022	0.00016184	1354.2	2.3121e-06	4.2605e-06	1342.5	362.69	1.575e-06	5.9604e-06	413.07	138.46	120.46	41.749	3.6039e-06	51.278	0.00091747	0.0009884	0.00027568	1375.8	1.0735e-05	1.0909e-05	1367.4	370.37	1.0835e-05	1.0651e-05	422.31	142.26	124.65	43.008	1.0805e-05	53.015	100.741	-15.872	-33.896	-80.892	-1.285	39.520	-80.952	-75.925	58.105	54.069	-76.614	-72.606	-72.001	-67.175	20.901	-67.730	-8191	255	
21339.836	1	1	0	0	0.29839	0.18786	0.29318	0.21779	0.044686	0.12708	0.023573	0.14824	0.19636	0.096153	0.12934	0.09141	0.24238	0.18995	0.25243	0.42	-2.4208	-2.0438	-2.5271	-2.6625	-1.9125	-2.7271	-2.1542	-2.4708	-2.5646	-1.9813	-2.7146	-2.6271	-2.0646	-2.8396	-2.2562	-2.175	229.092	178.653	19.445	204.962	262.105	252.067	58.681	-93.764	-21.634	0.400	-53.201	-80.752	120.415	169.080	129.416	235.819	0.00040186	0.00053278	0.0001757	1354.5	1.4355e-06	6.0937e-06	1341.1	362.44	3.851e-06	3.5958e-06	412.47	138.73	120.32	41.473	2.8669e-06	51.518	0.00092675	0.0010007	0.00027764	1376.6	1.0838e-05	1.1001e-05	1366.9	370.22	1.0661e-05	1.0912e-05	422.04	142.39	124.23	42.917	1.0662e-05	53.145	118.525	4.915	-34.506	-80.881	123.118	75.129	-80.799	-75.867	44.941	49.920	-76.320	-72.520	-72.126	-67.135	-13.485	-67.879	-8191	255	
21339.932	1	1	0	0	0.090112	0.30093	0.21908	0.16069	0.25626	0.060105	0.18239	0.20015	0.16527	0.22024	0.11561	0.12098	0.13482	0.27603	0.30546	0.13326	-2.325	-1.8479	-2.6167	-2.6437	-1.9521	-2.7021	-2.5146	-2.225	-2.7958	-2.0333	-2.4562	-2.6771	-1.8062	-2.6937	-2.1875	-2.1521	154.949	161.047	48.559	189.047	22.599	146.101	200.121	235.858	254.569	98.471	194.788	145.912	-78.242	60.104	213.796	158.289	0.00048755	0.00029836	7.7515e-05	1353.5	4.4478e-06	5.1761e-06	1346.1	363.23	2.314e-06	6.3015e-06	413.44	137.94	120.77	41.614	8.4176e-06	51.167	0.00092632	0.00099888	0.00027239	1375.7	1.0759e-05	1.0659e-05	1366.8	370.1	1.0595e-05	1.0654e-05	421.8	142.28	124.36	42.948	1.0685e-05	52.972	113.848	-6.939	-0.438	-80.736	27.891	62.982	-80.946	-75.899	3.179	30.482	-76.670	-72.368	-72.023	-67.241	57.642	-67.684	-8191	255	
21340.051	1	1	0	0	0.080272	0.14537	0.26687	0.058824	0.26172	0.14509	0.11127	0.14056	0.20757	0.20957	0.21888	0.18836	0.11566	0.1659	0.23106	0.1344	-2.5375	-1.875	-2.3604	-2.6063	-1.7604	-2.6542	-2.4875	-2.1271	-2.6562	-2.0812	-2.4271	-2.6958	-2.0896	-2.825	-2.3833	-2.1583	233.708	136.718	-26.161	231.593	-79.615	193.369	-71.352	256.564	130.025	107.452	242.023	214.564	214.226	-57.561	255.203	171.749	0.00043284	0.00055864	0.00018152	1356.9	3.4407e-06	9.2584e-06	1343.7	363.06	4.9325e-06	4.4382e-06	412.64	137.84	120.72	41.447	6.2104e-06	51.431	0.00090864	0.00097211	0.00027349	1376.9	1.0724e-05	1.0766e-05	1365.5	370.18	1.0465e-05	1.0418e-05	421.97	142.08	124.35	42.906	1.0554e-05	52.921	126.415	-14.727	-8.064	-80.702	44.502	82.886	-80.951	-75.975	-1.477	67.017	-76.510	-72.435	-72.345	-67.037	68.012	-67.786	-8191	255	
21340.146	1	1	0	0	0.12887	0.080528	0.11945	0.39015	0.060287	0.14462	0.0081121	0.28507	0.23235	0.071635	0.33642	0.18599	0.12348	0.16424	0.1011	0.15764	-2.5646	-1.9396	-2.0333	-2.7917	-1.8312	-2.4604	-2.6854	-2.0438	-2.7125	-2.1604	-2.2354	-2.7333	-1.9	-2.5229	-2.3667	-2.125	175.769	203.359	118.939	-43.660	134.350	164.486	-72.665	205.034	60.849	193.135	174.022	118.167	202.025	229.285	96.300	205.899	0.00043594	0.00012019	4.0023e-05	1351.6	5.6002e-06	6.3174e-06	1343.3	362.11	2.3573e-06	4.3226e-06	410.57	138.26	120.08	41.557	7.6007e-06	51.393	0.00090917	0.00097189	0.00027048	1376.2	1.0619e-05	1.0543e-05	1365.2	369.35	1.0466e-05	1.0581e-05	420.83	142.02	124.19	42.912	1.0613e-05	53.022	119.563	-24.383	-60.230	-80.600	19.372	81.827	-81.013	-76.035	-0.093	37.612	-76.355	-72.635	-72.087	-66.911	37.177	-67.842	-8191	255	
21340.242	1	1	0	0	0.12883	0.069508	0.22745	0.29093	0.15993	0.14977	0.20327	0.38668	0.16818	0.19977	0.35959	0.16553	0.19947	0.18202	0.1059	0.2576	-2.2104	-2.0375	-2.1708	-2.7417	-1.9708	-2.4833	-2.8208	-2.2292	-2.5021	-2.3146	-2.2812	-2.9521	-2.1083	-2.5563	-2.7125	-2.0667	198.280	242.294	50.898	-45.283	133.633	85.500	223.015	251.530	229.331	46.127	223.212	242.241	149.687	-68.745	91.250	249.590	0.0004981	0.00061677	9.7974e-05	1352.8	3.7329e-06	8.4427e-06	1336.7	360.74	1.0639e-05	6.7317e-06	411.98	138.46	119.97	41.522	5.9051e-06	51.149	0.00089566	0.00097287	0.00027071	1375.5	1.058e-05	1.0604e-05	1365.7	368.74	1.0382e-05	1.068e-05	421.15	142.32	124.15	42.853	1.0534e-05	52.97	131.044	20.858	2.282	-80.560	58.668	62.752	-80.950	-76.068	-17.722	82.613	-76.525	-72.676	-72.083	-67.010	51.014	-67.934	-8191	255	
21340.363	1	1	0	0	0.33304	0.11381	0.35809	0.19965	0.19016	0.18721	0.16285	0.029276	0.055856	0.20304	0.047864	0.28865	0.02542	0.16151	0.15124	0.31306	-2.2958	-2.3979	-1.85	-2.8396	-1.9292	-2.1104	-2.775	-2.0104	-2.5208	-2.3792	-2.0146	-2.7833	-2.2438	-2.3063	-2.6833	-1.9021	177.859	159.071	230.242	187.607	85.712	162.521	186.281	192.838	36.053	177.257	151.104	234.333	180.315	-4.380	-50.787	-54.482	0.00039218	0.00025172	0.00021505	1360	1.0687e-06	6.9303e-06	1343.5	361.4	8.095e-06	3.7113e-06	413.83	138.83	120.12	41.585	9.2792e-06	51.21	0.00091295	0.00096569	0.00027486	1375	1.0594e-05	1.0489e-05	1364.7	369.79	1.0309e-05	1.0526e-05	421.57	142.13	124.25	42.976	1.0545e-05	52.923	102.596	27.089	-9.346	-80.825	237.417	15.639	-81.114	-76.297	34.184	94.280	-76.750	-72.629	-72.466	-67.340	42.042	-68.179	-8191	255	
21340.459	1	1	0	0	0.22176	0.1982	0.19257	0.13617	0.081877	0.24843	0.24303	0.21454	0.10119	0.15401	0.17705	0.17255	0.16031	0.29465	0.10667	0.049169	-2.0521	-2.5854	-1.9625	-2.7062	-2.2646	-2.2104	-2.8896	-2.1146	-2.4417	-2.4313	-1.9021	-2.7812	-2.3187	-2.2167	-2.6667	-2.1708	7.316	-66.124	-10.219	214.341	-14.566	225.051	222.100	149.731	181.512	81.393	245.559	246.001	168.025	181.439	6.250	103.549	0.00044788	0.00059271	0.00019392	1354.7	8.0218e-06	3.5355e-06	1345.1	361.05	3.6879e-06	9.6843e-06	412.07	137.86	119.51	41.683	4.6327e-06	51.354	0.00089696	0.00096817	0.00027424	1374.5	1.0571e-05	1.0616e-05	1365.8	368.8	1.0227e-05	1.0525e-05	421.58	142.21	124.05	42.907	1.0481e-05	53.006	117.642	-13.712	-12.853	-80.898	68.263	72.317	-81.092	-76.259	10.124	33.498	-76.923	-72.473	-72.088	-67.215	13.753	-68.091	-8191	255	
21340.531	1	1	0	0	0.073058	0.052838	0.039299	0.17669	0.18471	0.041604	0.20621	0.19359	0.35003	0.15302	0.083044	0.1463	0.24785	0.50664	0.033617	0.33417	-1.9521	-2.5312	-1.8271	-2.8729	-2.2729	-2.0604	-2.7625	-2.0646	-2.1688	-2.5354	-2.0271	-2.6333	-2.0896	-1.9604	-2.6979	-2.1583	149.274	92.732	199.623	-76.094	-4.882	-46.660	44.675	216.482	1.188	-6.499	243.824	221.763	262.401	208.878	229.612	199.154	0.00042823	0.00051696	0.00016148	1347	2.7141e-06	6.3839e-06	1338.5	360.87	4.4081e-06	1.7621e-06	412.36	137.94	120.26	41.701	3.5254e-06	51.561	0.00090039	0.00096974	0.00027068	1373.5	1.0586e-05	1.0709e-05	1365	369.13	1.0718e-05	1.0824e-05	421.37	142.08	124.42	42.965	1.0405e-05	53.045	113.203	-15.512	-41.394	-80.918	46.542	68.971	-81.187	-76.314	-26.308	96.841	-76.801	-72.765	-72.349	-67.304	41.337	-67.979	-8191	255	
21340.650	1	1	0	0	0.076752	0.1035	0.072622	0.22803	0.14998	0.22097	0.12496	0.37932	0.168	0.13298	0.13839	0.24632	0.09868	0.27697	0.087932	0.16969	-1.8042	-2.7188	-1.9125	-2.7167	-2.4167	-1.9708	-3.0083	-2.1771	-2.1625	-2.8854	-2.0875	-2.6437	-2.4042	-2.0729	-2.7417	-2.1167	186.348	62.930	81.512	-67.714	-65.703	-41.279	-43.712	227.049	192.545	28.649	240.338	208.164	181.310	176.947	-78.186	-89.302	0.00036987	0.00051511	0.00012042	1353.3	5.2161e-06	5.2771e-06	1344.8	360.58	4.5758e-06	7.3945e-06	411.35	137.7	119.7	41.44	6.1504e-06	51.412	0.00090665	0.00097206	0.00027094	1374.7	1.0606e-05	1.062e-05	1365.8	368.77	1.0384e-05	1.0612e-05	421.25	142.23	124.12	42.906	1.0604e-05	53.043	133.105	-1.478	19.933	-81.001	72.733	59.649	-81.301	-76.440	12.901	49.998	-76.705	-72.502	-72.408	-67.233	35.866	-68.300	-8191	255	
21340.746	1	1	0	0	0.1477	0.10208	0.15261	0.1493	0.078518	0.20088	0.17969	0.20521	0.23434	0.13118	0.15432	0.43506	0.22309	0.12662	0.19948	0.26303	-1.6729	-2.6333	-1.8667	-2.6542	-2.4417	-1.7333	-2.8438	-2.3375	-2.0563	-2.6188	-2.1125	-2.4042	-2.6292	-2.1063	-2.7146	-2.425	-18.407	17.623	152.651	182.442	217.077	65.285	190.003	234.112	217.122	56.883	-11.631	216.175	164.614	232.353	254.850	126.745	0.00046728	0.00049852	0.00013154	1351.9	2.0174e-06	2.7865e-06	1341.8	361.37	4.3729e-06	9.3346e-06	411.88	138.74	119.32	41.526	5.2257e-07	51.004	0.00091473	0.00096373	0.0002719	1375	1.0673e-05	1.06e-05	1365.2	369.03	1.0378e-05	1.0653e-05	420.96	142.35	123.7	42.846	1.0632e-05	52.852	133.257	-10.390	-14.577	-80.901	87.466	-37.902	-81.069	-76.419	36.158	88.126	-76.875	-72.480	-72.323	-67.209	102.758	-68.138	-8191	255	
21340.842	1	1	0	0	0.1818	0.25802	0.065843	0.15287	0.19472	0.39221	0.17676	0.34409	0.26635	0.08109	0.24824	0.14193	0.16219	0.35763	0.34441	0.050532	-1.5896	-2.6667	-1.8271	-2.3167	-2.6375	-1.9813	-2.7479	-2.5375	-1.8875	-2.8208	-2.3063	-2.3771	-2.7167	-2.0938	-2.5042	-2.4729	183.533	25.069	190.310	196.465	-18.121	170.580	199.677	169.613	-65.006	-84.110	246.729	-4.345	112.049	264.777	-38.616	232.906	0.0004637	0.0002767	0.00018199	1348.7	5.076e-06	5.6932e-06	1340.8	361.66	3.0883e-06	3.8146e-06	413.36	137.81	119.9	41.501	4.4749e-06	51.434	0.00091065	0.00095212	0.0002707	1376.7	1.0682e-05	1.0864e-05	1366.1	369.3	1.0414e-05	1.0607e-05	421.15	142.13	124.28	42.889	1.0545e-05	53.041	142.033	2.401	-24.670	-80.744	70.786	39.372	-80.780	-76.221	49.420	50.939	-76.780	-72.525	-71.868	-67.521	65.732	-67.745	-8191	255	
21340.939	1	1	0	0	0.10145	0.15439	0.078197	0.02669	0.1272	0.37978	0.073874	0.44237	0.066109	0.17181	0.21871	0.040065	0.10893	0.25684	0.15397	0.11733	-1.6063	-2.5646	-2.15	-2.2042	-2.5833	-1.9042	-2.7458	-2.6333	-2.0125	-2.7771	-2.3708	-2.1833	-2.7646	-2.0604	-2.4104	-2.6229	117.877	123.984	-52.836	72.453	202.580	174.332	224.201	178.881	178.731	128.734	184.937	-8.308	-90.525	-52.015	220.975	53.162	0.00042373	0.00043466	0.00013119	1351.8	1.5765e-06	6.3811e-06	1342.9	361.22	3.6908e-06	4.7532e-06	411.58	138.49	119.74	41.574	5.8566e-06	51.174	0.00091697	0.00095685	0.00026994	1376.3	1.039e-05	1.0536e-05	1366.8	368.44	1.0583e-05	1.0682e-05	421.53	142.19	124.07	42.962	1.0774e-05	52.993	120.222	-29.758	22.155	-80.727	143.632	17.112	-80.902	-76.034	20.065	66.451	-76.416	-72.481	-71.776	-67.030	76.364	-67.857	-8191	255	
21341.059	1	1	0	0	0.21238	0.2226	0.093268	0.2764	0.18873	0.03492	0.17018	0.059202	0.065591	0.080216	0.20833	0.064059	0.24579	0.33755	0.024052	0.23569	-1.4688	-2.6771	-2.2646	-2.0438	-2.6333	-2.2333	-2.5771	-2.7958	-1.8667	-2.6437	-2.4542	-1.9875	-2.8458	-2.0667	-2.2188	-2.7396	42.659	-69.434	93.882	-62.118	263.195	1.315	200.723	227.256	158.533	87.653	146.786	-84.132	122.906	228.110	96.829	214.464	0.00045819	0.00055786	0.00021281	1356.5	4.0779e-06	1.6782e-06	1345.1	361.41	5.619e-06	5.4023e-06	412.5	138.07	120.24	41.463	2.8175e-06	51.476	0.00092811	0.00098008	0.00027773	1374.8	1.077e-05	1.0974e-05	1366.2	369.25	1.0469e-05	1.0865e-05	421.55	142.33	124.35	42.825	1.0616e-05	53.086	132.387	-1.356	-22.717	-80.716	78.750	126.937	-80.805	-76.054	24.471	64.000	-76.826	-72.481	-71.936	-67.167	57.799	-67.797	-8191	255	
21341.131	1	1	0	0	0.050638	0.11675	0.1534	0.018734	0.11069	0.14809	0.015918	0.20493	0.26882	0.27805	0.29585	0.26407	0.20723	0.341	0.046259	0.20031	-1.4917	-2.5583	-2.3583	-2.0687	-2.6979	-2.1208	-2.425	-2.6375	-1.7771	-2.4083	-2.5125	-2.1	-2.7208	-2.2896	-2.1312	-2.7438	37.721	-91.199	246.833	109.296	183.518	60.153	161.200	168.298	41.472	33.191	227.141	178.274	242.317	256.810	240.819	253.458	0.00042408	0.00041661	0.00018229	1349.7	2.8747e-06	2.7821e-06	1344.2	360.15	1.0042e-06	2.8362e-06	411.76	138.17	119.82	41.685	5.7277e-06	51.196	0.00091547	0.00096326	0.00027179	1373.9	1.0619e-05	1.0533e-05	1367	368.99	1.0419e-05	1.0612e-05	421.1	141.97	123.95	42.927	1.0413e-05	52.95	120.132	-21.559	-2.980	-80.764	-7.037	32.772	-80.662	-76.062	-55.478	85.868	-76.554	-72.603	-71.702	-67.313	56.129	-67.833	-8191	255	
21341.252	1	1	0	0	0.061785	0.058225	0.26917	0.099907	0.09729	0.15036	0.31486	0.19871	0.42942	0.044397	0.18374	0.1571	0.13529	0.10716	0.10198	0.47044	-1.625	-2.3458	-2.5125	-2.1188	-2.4146	-2.2021	-2.2854	-2.7292	-1.8188	-2.4854	-2.5438	-2.0604	-2.7729	-2.3646	-2.1063	-2.8458	180.998	-65.607	144.143	-60.891	113.708	187.868	216.844	225.464	-2.524	7.801	203.596	168.296	142.722	155.562	144.984	197.479	0.00036989	0.00039965	0.00021822	1347.6	2.3838e-06	3.7944e-06	1340.2	361.55	4.1173e-06	8.9892e-06	412.1	137.55	120.38	41.616	7.682e-06	51.235	0.00089415	0.00096134	0.00026955	1371.1	1.0592e-05	1.0702e-05	1364.4	368.76	1.038e-05	1.0819e-05	421.22	141.92	124.42	42.898	1.0692e-05	53.018	131.341	-13.922	-37.573	-80.469	92.375	64.225	-80.797	-76.037	-32.369	86.577	-76.634	-72.394	-72.230	-67.215	70.038	-67.966	-8191	255	
21341.348	1	1	0	0	0.31329	0.072631	0.31248	0.11692	0.17488	0.26289	0.26675	0.21257	0.0031606	0.071366	0.24104	0.049945	0.21039	0.06239	0.14692	0.167	-1.65	-2.3875	-2.7188	-1.9896	-2.6063	-2.5625	-2.3354	-2.9146	-1.9104	-2.3708	-2.9521	-1.8271	-2.5833	-2.4938	-1.9354	-2.8688	49.752	22.635	50.868	257.253	86.401	-34.817	214.794	210.264	192.864	234.411	-61.460	145.308	216.834	-7.990	-90.788	247.842	0.00038809	0.00051742	0.00021067	1346	5.1653e-06	5.9039e-06	1335.5	362.85	3.3437e-06	3.9915e-06	412.36	138.44	120.67	41.595	5.1755e-06	51.116	0.00090588	0.00098386	0.00027769	1371.7	1.062e-05	1.065e-05	1364.5	369.41	1.0457e-05	1.079e-05	421.78	142.12	124.34	42.94	1.054e-05	52.941	131.492	-11.256	22.277	-80.566	53.771	39.830	-80.797	-76.135	26.064	45.055	-76.483	-72.500	-72.030	-67.192	77.240	-67.845	-8191	255	
21341.443	1	1	0	0	0.13695	0.25567	0.44964	0.15712	0.10523	0.082426	0.14724	0.13989	0.2043	0.10035	0.20903	0.12238	0.20092	0.14727	0.021431	0.2127	-1.6875	-1.95	-2.5625	-1.9375	-2.5	-2.4479	-2.0875	-2.9625	-2.2646	-2.1646	-2.8312	-2.0542	-2.4458	-2.4375	-1.9104	-2.7417	-53.484	-45.837	-39.078	-31.289	226.763	249.662	221.023	190.388	8.285	155.147	-63.237	240.318	253.246	148.333	51.984	112.497	0.00037225	0.00049191	0.00023644	1345.1	4.8797e-06	7.8881e-06	1341.9	362.23	2.6293e-06	7.8246e-06	411.98	137.88	119.85	41.776	6.8764e-06	51.269	0.00090821	0.00097248	0.00027264	1371	1.0625e-05	1.0782e-05	1365.6	369.41	1.0389e-05	1.0676e-05	421.54	141.85	124.33	42.891	1.0697e-05	53.029	128.823	-34.286	-14.551	-80.468	47.448	69.572	-80.969	-76.083	68.510	66.477	-76.368	-72.373	-72.154	-67.150	57.302	-67.720	-8191	255	
21341.539	1	1	0	0	0.13929	0.24198	0.1477	0.1812	0.23418	0.16027	0.2728	0.25284	0.097111	0.27299	0.083174	0.22897	0.21451	0.23187	0.17713	0.13596	-1.925	-1.9104	-2.7125	-1.8854	-2.5042	-2.6688	-2.1792	-2.8708	-2.3187	-1.9792	-3.0479	-1.9917	-2.3187	-2.7292	-1.8021	-2.6312	-92.911	159.463	132.750	197.468	-90.031	-54.639	181.307	-54.853	212.127	233.723	176.702	222.050	243.872	198.346	72.470	8.901	0.00031344	0.00034721	0.0001409	1352.3	4.1901e-06	1.0995e-05	1341.5	361.6	3.4154e-06	6.4591e-06	413.43	138.25	120.04	41.582	6.3595e-06	51.184	0.00091651	0.00098416	0.00027141	1374.4	1.0779e-05	1.0811e-05	1363	369.21	1.0528e-05	1.1046e-05	421.89	142.44	124.14	42.949	1.1e-05	53.043	134.353	-44.607	-26.833	-80.694	47.064	46.444	-80.762	-75.945	35.450	38.435	-76.393	-72.509	-72.100	-67.238	42.377	-67.711	-8191	255	
21341.635	1	1	0	0	0.14727	0.28759	0.094399	0.1697	0.1768	0.097694	0.15682	0.28359	0.22388	0.10173	0.032578	0.08788	0.18491	0.17527	0.094486	0.35207	-1.8687	-2.1063	-2.7729	-2.2125	-2.2979	-2.6896	-2.1188	-2.7	-2.5021	-1.9625	-2.7479	-2.0354	-2.1479	-2.6479	-1.8062	-2.5438	-43.152	-89.006	13.647	241.868	215.559	254.905	172.684	200.191	179.065	133.729	198.661	-78.708	255.979	252.879	-64.473	204.972	0.00038905	0.00041982	0.00017814	1344.8	4.6978e-06	1.0007e-05	1339.7	362.97	6.3832e-06	2.2562e-06	413.38	138.09	120.32	41.434	3.9733e-06	51.183	0.00093216	0.0010171	0.00027535	1373.2	1.1038e-05	1.1066e-05	1364.9	369.77	1.077e-05	1.1245e-05	421.71	142.37	124.36	42.847	1.0696e-05	53.024	121.624	1.170	-38.361	-80.991	-2.626	13.748	-80.857	-76.303	1.252	68.248	-76.757	-72.400	-72.138	-67.407	46.887	-67.826	-8191	255	
21341.754	1	1	0	0	0.063658	0.11913	0.3614	0.12453	0.1521	0.090547	0.21974	0.37554	0.07746	0.26601	0.17439	0.35148	0.23381	0.23282	0.17754	0.3617	-2.2375	-1.9292	-2.7021	-2.3271	-2.0021	-2.8792	-2.1104	-2.5062	-2.6083	-1.7625	-2.7208	-2.2146	-2.1042	-2.8896	-1.9917	-2.2208	-12.172	124.804	204.781	102.457	181.367	60.355	161.144	198.463	104.516	-51.525	249.966	199.420	221.030	188.216	145.119	201.979	0.00035995	0.000407	9.5221e-05	1352.3	8.48e-06	7.7403e-06	1339.6	361.4	5.1995e-06	1.037e-06	412.62	138.55	120.2	41.662	2.8079e-06	51.232	0.00094587	0.0010275	0.00028221	1375	1.0979e-05	1.0986e-05	1365.6	368.98	1.1006e-05	1.1054e-05	421.94	142.07	124.32	42.883	1.0817e-05	52.988	125.877	55.503	-23.120	-80.609	41.378	53.854	-80.845	-76.169	20.100	172.875	-76.211	-72.322	-72.069	-67.202	61.185	-67.835	-8191	255	
21341.828	1	1	0	0	0.039528	0.162	0.053865	0.17671	0.08071	0.077783	0.39589	0.16566	0.13988	0.11824	0.26546	0.2399	0.14939	0.23113	0.095091	0.099398	-2.1437	-1.8521	-2.6	-2.4083	-1.9729	-2.7292	-2.0958	-2.3125	-2.7208	-1.9688	-2.7479	-2.425	-2.0687	-2.7958	-1.9896	-2.425	125.856	159.844	68.010	7.902	237.440	-39.416	-92.414	-26.536	59.598	-79.814	227.344	185.487	265.430	174.497	108.306	-55.606	0.00039401	0.00026577	0.00011308	1352.1	5.0767e-06	5.2248e-06	1346	361.05	1.0442e-05	4.8659e-06	413.18	138.31	120.19	41.66	4.7295e-06	51.283	0.00092678	0.00099475	0.00028086	1373.4	1.0963e-05	1.0886e-05	1365.3	369.43	1.0724e-05	1.1068e-05	421.94	142.22	124.33	42.943	1.0932e-05	53.071	132.100	-44.474	-47.368	-80.669	19.936	37.558	-80.762	-76.123	-3.166	22.905	-76.565	-72.516	-71.861	-66.720	49.775	-68.081	-8191	255	
#DATA ENDS
