BOXY.EXE: ISS Imagent and Oximeter Data Acquisition Program Version 0.80
Ascii Record File

#ACQ INFORMATION
2  Detector Channels 
16  External MUX Channels 
1  Auxiliary Channels 
5000  Waveform (CCF) Frequency (Hz)
1  Waveforms Skipped 
30  Waveforms Averaged 
1  Cycles Averaged 
16  Acquisitions per Waveform 
10.0806  Updata Rate (Hz) 

#FILE INFORMATION
TRUE -- External MUX Channel results are PARSED.
FALSE -- AC DC and Phase are NOT grouped.
TRUE -- Companion Program Settings File CREATED.
FALSE -- AC data not excluded
FALSE -- DC data not excluded
FALSE -- Phase data not excluded
FALSE -- Auxillary Chn. data not excluded
Tab delimiters

#CALIBRATION STATE
TRUE -- Waveform Calibration Values APPLIED.


#AUX CALIBRATION VALUES
Val Type	aux-1	

Term	1.0000e+00	
Factor	0.0000e+00	


#WF CALIBRATION VALUES
A = Detector Channel
Val Type	A-AC1	A-AC2	A-AC3	A-AC4	A-AC5	A-AC6	A-AC7	A-AC8	A-AC9	A-AC10	A-AC11	A-AC12	A-AC13	A-AC14	A-AC15	A-AC16	A-DC1	A-DC2	A-DC3	A-DC4	A-DC5	A-DC6	A-DC7	A-DC8	A-DC9	A-DC10	A-DC11	A-DC12	A-DC13	A-DC14	A-DC15	A-DC16	A-Ph1	A-Ph2	A-Ph3	A-Ph4	A-Ph5	A-Ph6	A-Ph7	A-Ph8	A-Ph9	A-Ph10	A-Ph11	A-Ph12	A-Ph13	A-Ph14	A-Ph15	A-Ph16	

Term	0.00000e+00	0.00000e+00	0.00000e+00	0.00000e+00	0.00000e+00	0.00000e+00	0.00000e+00	0.00000e+00	0.00000e+00	0.00000e+00	0.00000e+00	0.00000e+00	0.00000e+00	0.00000e+00	0.00000e+00	0.00000e+00	0.00000e+00	0.00000e+00	0.00000e+00	0.00000e+00	0.00000e+00	0.00000e+00	0.00000e+00	0.00000e+00	0.00000e+00	0.00000e+00	0.00000e+00	0.00000e+00	0.00000e+00	0.00000e+00	0.00000e+00	0.00000e+00	0.00000e+00	0.00000e+00	0.00000e+00	0.00000e+00	0.00000e+00	0.00000e+00	0.00000e+00	0.00000e+00	0.00000e+00	0.00000e+00	0.00000e+00	0.00000e+00	0.00000e+00	0.00000e+00	0.00000e+00	0.00000e+00	
Factor	1.00000e+00	1.00000e+00	1.00000e+00	1.00000e+00	1.00000e+00	1.00000e+00	1.00000e+00	1.00000e+00	1.00000e+00	1.00000e+00	1.00000e+00	1.00000e+00	1.00000e+00	1.00000e+00	1.00000e+00	1.00000e+00	1.00000e+00	1.00000e+00	1.00000e+00	1.00000e+00	1.00000e+00	1.00000e+00	1.00000e+00	1.00000e+00	1.00000e+00	1.00000e+00	1.00000e+00	1.00000e+00	1.00000e+00	1.00000e+00	1.00000e+00	1.00000e+00	X	X	X	X	X	X	X	X	X	X	X	X	X	X	X	X	

B = Detector Channel
Val Type	B-AC1	B-AC2	B-AC3	B-AC4	B-AC5	B-AC6	B-AC7	B-AC8	B-AC9	B-AC10	B-AC11	B-AC12	B-AC13	B-AC14	B-AC15	B-AC16	B-DC1	B-DC2	B-DC3	B-DC4	B-DC5	B-DC6	B-DC7	B-DC8	B-DC9	B-DC10	B-DC11	B-DC12	B-DC13	B-DC14	B-DC15	B-DC16	B-Ph1	B-Ph2	B-Ph3	B-Ph4	B-Ph5	B-Ph6	B-Ph7	B-Ph8	B-Ph9	B-Ph10	B-Ph11	B-Ph12	B-Ph13	B-Ph14	B-Ph15	B-Ph16	

Term	0.00000e+00	0.00000e+00	0.00000e+00	0.00000e+00	0.00000e+00	0.00000e+00	0.00000e+00	0.00000e+00	0.00000e+00	0.00000e+00	0.00000e+00	0.00000e+00	0.00000e+00	0.00000e+00	0.00000e+00	0.00000e+00	0.00000e+00	0.00000e+00	0.00000e+00	0.00000e+00	0.00000e+00	0.00000e+00	0.00000e+00	0.00000e+00	0.00000e+00	0.00000e+00	0.00000e+00	0.00000e+00	0.00000e+00	0.00000e+00	0.00000e+00	0.00000e+00	-1.52421e+02	-1.26321e+02	-1.29806e+02	-1.86538e+02	-8.17425e+01	-9.44387e+01	-1.58482e+02	-1.62015e+02	-7.12364e+01	-6.93310e+01	-1.71970e+02	-1.71209e+02	-1.83751e+02	-1.77240e+02	-8.25703e+01	-1.49604e+02	
Factor	2.27753e-05	1.29415e-04	3.73414e-05	2.99145e-01	1.07142e-06	1.26760e-06	1.64991e-01	5.09512e-02	1.01362e-06	1.41088e-06	8.41624e-02	2.77432e-02	4.04098e-02	8.88480e-03	1.04482e-06	1.27305e-02	1.79682e-06	1.89931e-06	5.29689e-07	1.50663e-01	2.07622e-08	2.08323e-08	7.96040e-02	2.61946e-02	2.06444e-08	2.08380e-08	4.16293e-02	1.37790e-02	2.05187e-02	4.56761e-03	2.07884e-08	6.31791e-03	X	X	X	X	X	X	X	X	X	X	X	X	X	X	X	X	



#DISTANCE SETTINGS
A = Detector Channel
A-1	A-2	A-3	A-4	A-5	A-6	A-7	A-8	A-9	A-10	A-11	A-12	A-13	A-14	A-15	A-16	

2.5000e+00	3.0000e+00	2.5000e+00	3.0000e+00	2.0000e+00	3.0000e+00	1.5000e+00	3.0000e+00	3.0000e+00	3.0000e+00	3.0000e+00	3.0000e+00	3.0000e+00	3.0000e+00	1.5000e+00	3.0000e+00	

B = Detector Channel
B-1	B-2	B-3	B-4	B-5	B-6	B-7	B-8	B-9	B-10	B-11	B-12	B-13	B-14	B-15	B-16	

1.0000e+01	1.0000e+01	1.0000e+01	1.4400e+00	1.0000e+01	1.0000e+01	1.5100e+00	1.9400e+00	1.0000e+01	1.0000e+01	1.9900e+00	2.4900e+00	2.4100e+00	2.9000e+00	1.0000e+01	2.9800e+00	




#DATA BEGINS
time	group	step	mark	flag	A-AC1	A-AC2	A-AC3	A-AC4	A-AC5	A-AC6	A-AC7	A-AC8	A-AC9	A-AC10	A-AC11	A-AC12	A-AC13	A-AC14	A-AC15	A-AC16	A-DC1	A-DC2	A-DC3	A-DC4	A-DC5	A-DC6	A-DC7	A-DC8	A-DC9	A-DC10	A-DC11	A-DC12	A-DC13	A-DC14	A-DC15	A-DC16	A-Ph1	A-Ph2	A-Ph3	A-Ph4	A-Ph5	A-Ph6	A-Ph7	A-Ph8	A-Ph9	A-Ph10	A-Ph11	A-Ph12	A-Ph13	A-Ph14	A-Ph15	A-Ph16	B-AC1	B-AC2	B-AC3	B-AC4	B-AC5	B-AC6	B-AC7	B-AC8	B-AC9	B-AC10	B-AC11	B-AC12	B-AC13	B-AC14	B-AC15	B-AC16	B-DC1	B-DC2	B-DC3	B-DC4	B-DC5	B-DC6	B-DC7	B-DC8	B-DC9	B-DC10	B-DC11	B-DC12	B-DC13	B-DC14	B-DC15	B-DC16	B-Ph1	B-Ph2	B-Ph3	B-Ph4	B-Ph5	B-Ph6	B-Ph7	B-Ph8	B-Ph9	B-Ph10	B-Ph11	B-Ph12	B-Ph13	B-Ph14	B-Ph15	B-Ph16	aux-1	digaux	

8676.849	1	1	0	512	0.13737	0.13178	0.21876	0.15067	0.25851	0.14134	0.31071	0.23681	0.18807	0.20095	0.065494	0.11967	0.23197	0.054196	0.03892	0.2315	-2.5396	-2.3521	-2.7812	-2.7979	-2.2354	-3.0729	-2.5375	-2.6292	-3	-2.2875	-2.9958	-2.8396	-2.2021	-3.1083	-2.5417	-2.3771	-130.067	119.104	-43.178	46.600	-16.817	-107.678	-168.554	106.493	43.951	27.820	-150.487	-100.572	154.979	-107.682	136.290	133.211	0.00017766	0.00021058	5.8897e-05	419.04	1.7151e-06	1.0328e-06	397.07	117.31	1.1651e-06	1.3244e-06	109.66	39.475	40.699	16.552	4.0357e-07	16.664	6.7268e-05	6.3235e-05	1.7396e-05	386.22	6.7321e-07	6.8499e-07	366.5	109.04	7.038e-07	6.8431e-07	101.9	36.793	37.786	15.439	6.9737e-07	15.589	172.320	-71.663	-65.454	-161.546	-50.926	14.490	-163.298	-156.157	-82.797	-13.994	-159.380	-155.791	-152.198	-148.445	-127.753	-152.042	-8191	255	
8676.945	1	1	0	0	0.067137	0.085071	0.14243	0.31818	0.12536	0.38691	0.4002	0.11494	0.17211	0.2719	0.038803	0.10387	0.095228	0.20697	0.14863	0.086809	-2.5083	-2.1	-2.6813	-2.9958	-2.2604	-3.0187	-2.6583	-2.3812	-3.1146	-2.1937	-2.8604	-3.0208	-2.2104	-3.1833	-2.5875	-2.45	-36.540	-54.316	91.361	60.942	-92.151	-172.566	166.833	-151.699	-98.457	74.384	-91.939	7.449	-57.885	105.999	5.351	-89.824	0.00015215	0.00041574	8.1481e-05	422.07	1.9908e-06	8.4012e-07	394.39	117.24	2.2158e-06	3.7156e-06	110.34	39.971	41.88	16.804	2.3479e-06	17.136	6.972e-05	6.4968e-05	1.8139e-05	385.94	6.7326e-07	6.8747e-07	366.69	109.49	6.9159e-07	6.8752e-07	102.59	37.14	38.079	15.705	7.0707e-07	15.861	178.706	-99.649	-60.418	-162.300	-89.247	-103.945	-163.715	-156.265	-41.182	-9.367	-159.290	-156.242	-153.182	-148.349	-49.454	-151.753	-8191	255	
8677.041	1	1	0	0	0.29166	0.24654	0.094938	0.14225	0.012244	0.07979	0.11054	0.18792	0.28305	0.01413	0.02508	0.143	0.1074	0.099835	0.25957	0.084738	-2.5771	-2.3625	-2.7542	-2.9104	-2.1604	-2.9062	-2.775	-2.3312	-2.9979	-2.4583	-2.6063	-2.9021	-2.3146	-2.8979	-2.7792	-2.1896	89.939	-166.727	-134.731	-127.610	88.393	-6.062	-13.769	154.890	-139.545	72.513	108.672	88.617	6.193	31.001	-157.424	-34.555	0.00022545	0.0002219	7.2137e-05	424.79	1.2639e-06	1.5675e-06	394.99	117.26	9.9456e-07	2.2398e-06	108.47	39.677	41.601	16.938	2.6081e-06	17.12	6.8077e-05	6.4319e-05	1.7475e-05	388.98	6.3987e-07	6.6603e-07	367.11	109.4	6.8225e-07	6.6447e-07	101.42	36.9	38.274	15.761	6.1807e-07	15.933	180.505	-76.404	-97.111	-161.914	-117.759	-23.776	-164.051	-156.521	110.807	18.636	-159.086	-156.692	-153.085	-148.371	6.173	-152.172	-8191	255	
8677.137	1	1	0	0	0.10415	0.202	0.32883	0.16915	0.17849	0.16051	0.055439	0.12445	0.13944	0.13759	0.21226	0.10147	0.014889	0.11185	0.1129	0.062273	-2.4604	-2.4729	-2.3563	-3.0729	-2.1396	-2.8312	-2.7208	-2.3688	-3.0521	-2.5438	-2.4938	-3.1188	-2.2417	-2.7958	-2.9021	-2.2354	8.537	6.027	-104.534	58.182	119.015	-98.310	89.744	-120.555	32.699	68.068	-95.391	-104.417	74.725	68.564	-152.698	172.192	0.00018195	2.5766e-05	2.1023e-05	422.64	1.0796e-06	2.471e-06	392.34	118.08	1.1958e-06	3.1771e-06	110.57	40.44	41.788	17.169	1.8293e-06	17.553	6.6531e-05	5.9349e-05	1.5348e-05	385.07	6.3364e-07	5.9194e-07	365.12	109.71	6.1791e-07	6.3178e-07	102.25	37.356	38.517	16.02	6.1707e-07	16.235	172.651	-137.279	81.881	-162.080	48.231	-5.072	-163.906	-156.650	-82.235	-43.154	-159.576	-156.037	-153.262	-148.722	-8.715	-152.303	-8191	255	
8677.258	1	1	0	0	0.096102	0.1448	0.12426	0.11161	0.069974	0.097432	0.12171	0.45535	0.10929	0.42116	0.31629	0.13742	0.071257	0.061332	0.24326	0.31097	-2.8187	-2.5667	-2.2687	-3.0958	-2.3458	-2.7062	-3.0312	-2.1125	-2.8771	-2.7479	-2.4479	-3.1417	-2.4125	-2.6667	-3.0042	-2.1771	164.165	-161.944	120.350	53.988	143.873	80.878	125.254	-104.301	-142.732	-163.276	119.265	-121.493	112.858	-126.454	136.555	178.161	0.00019988	0.00010974	3.6592e-05	417.31	6.6185e-07	5.3072e-07	390.07	118.12	1.508e-06	2.7684e-06	110.61	40.338	41.968	17.418	2.7335e-06	17.355	6.5367e-05	5.506e-05	1.5072e-05	383.46	5.8921e-07	5.6225e-07	363.98	110.16	6.0643e-07	5.8754e-07	102.46	37.698	38.756	16.207	5.8935e-07	16.271	185.123	-93.485	-47.506	-162.703	-37.643	80.555	-163.820	-156.606	-71.759	-4.868	-159.220	-156.530	-153.224	-148.632	-54.711	-152.891	-8191	255	
8677.330	1	1	0	0	0.12149	0.053986	0.066701	0.037035	0.14049	0.23011	0.25509	0.30235	0.074129	0.074467	0.25246	0.18168	0.24084	0.067729	0.16178	0.22876	-2.4396	-2.8125	-2.3146	-3.0521	-2.3688	-2.5229	-3.1562	-2.4	-2.9125	-2.6146	-2.3583	-2.8583	-2.5938	-2.3167	-2.9792	-2.3104	-94.568	-120.530	22.422	174.085	19.980	97.395	116.260	156.224	-46.486	163.839	-10.570	-34.989	-129.091	66.923	105.223	117.911	0.00018277	0.00018691	5.6108e-05	416.83	6.0375e-07	1.5224e-06	395.71	118.92	2.8996e-06	1.3585e-06	112.24	40.956	42.674	17.214	2.5569e-06	17.869	6.4843e-05	5.2049e-05	1.4605e-05	383.17	6.4012e-07	6.0366e-07	365.12	110.68	6.5142e-07	5.7461e-07	103.46	37.945	39.084	16.124	6.159e-07	16.522	175.067	-166.618	-99.412	-162.001	-31.755	-56.775	-163.822	-157.139	-33.115	32.027	-159.843	-156.426	-153.051	-148.998	-54.443	-152.807	-8191	255	
8677.426	1	1	0	0	0.15953	0.16235	0.24883	0.098009	0.13509	0.17236	0.095899	0.086475	0.13473	0.28421	0.08661	0.072699	0.27231	0.15016	0.44601	0.059608	-2.2938	-2.7375	-2.2292	-2.9854	-2.5604	-2.3187	-3.0625	-2.1458	-2.6437	-2.9292	-2.3187	-2.9896	-2.6562	-2.4458	-3.1167	-2.5417	51.682	-116.874	21.062	39.143	-42.384	131.155	92.783	163.613	-63.510	25.438	149.302	-114.532	-67.197	159.090	165.010	134.963	0.00018829	0.00016392	2.8843e-05	417.41	1.6121e-06	2.3172e-06	395.59	118.9	6.0583e-07	1.6995e-06	112.97	41.514	42.664	17.4	1.0497e-06	17.914	6.4693e-05	5.3766e-05	1.5165e-05	382.92	6.361e-07	5.9329e-07	367.34	110.99	6.374e-07	5.8568e-07	104.21	38.503	39.009	16.27	6.2027e-07	16.569	168.884	-112.870	-11.179	-162.625	-61.732	12.097	-163.884	-156.736	-137.079	43.920	-160.191	-156.453	-153.203	-149.405	91.780	-152.549	-8191	255	
8677.522	1	1	0	0	0.22176	0.067171	0.2787	0.093979	0.35501	0.2027	0.20427	0.13539	0.16987	0.13753	0.039272	0.20209	0.16596	0.077769	0.13153	0.11273	-2.2562	-2.9437	-2.2125	-2.9229	-2.6167	-2.4688	-3.2646	-2.5083	-2.6646	-3.0667	-2.3375	-2.8438	-2.7958	-2.2958	-3.0375	-2.2604	34.840	-78.989	-62.353	82.447	-146.615	80.969	60.339	34.553	17.954	-36.148	-97.967	130.196	-110.267	45.666	145.811	133.691	0.00022217	0.00014443	5.3154e-05	424.02	6.4893e-07	2.132e-06	392.99	119.86	1.5507e-06	2.1576e-06	111.76	41.316	42.839	17.629	1.6359e-06	17.904	6.3375e-05	5.307e-05	1.6094e-05	386.19	6.0829e-07	5.942e-07	364.61	111.1	6.02e-07	5.9974e-07	103.63	38.353	39.286	16.349	6.0789e-07	16.518	172.577	-63.769	-117.099	-161.612	-93.478	14.241	-164.076	-157.294	-67.300	-110.422	-160.107	-156.196	-152.994	-149.256	-165.228	-153.208	-8191	255	
8677.641	1	1	0	0	0.26853	0.13462	0.23819	0.047348	0.15292	0.18564	0.20451	0.017127	0.14833	0.034295	0.069041	0.24952	0.050223	0.21785	0.069588	0.15858	-2.0979	-2.9479	-2.1792	-2.7354	-2.6354	-2.2271	-2.9146	-2.6375	-2.4917	-3.125	-2.5458	-2.7938	-2.8396	-2.1063	-3.0125	-2.7021	-155.250	129.586	114.530	124.957	132.092	145.666	-20.331	38.001	-111.688	-141.729	5.327	111.978	147.208	171.234	-128.249	-124.512	0.00017638	0.0002832	0.00010085	414.83	1.4104e-06	1.231e-06	393.68	120.58	6.0007e-07	2.6714e-06	113.6	41.692	43.516	17.897	9.1072e-07	17.932	6.4955e-05	5.5302e-05	1.4959e-05	384.06	6.2027e-07	5.9316e-07	365.21	111.94	5.8763e-07	5.855e-07	104.72	38.821	39.853	16.758	6.1018e-07	16.86	173.855	-71.779	-51.131	-162.535	42.674	-17.126	-164.047	-156.567	-73.608	79.631	-160.244	-156.599	-153.747	-149.352	-80.035	-153.070	-8191	255	
8677.737	1	1	0	0	0.20027	0.19541	0.12554	0.18828	0.13658	0.17585	0.41192	0.299	0.15465	0.16386	0.16768	0.13048	0.25667	0.30263	0.079738	0.15546	-2.0708	-3.0833	-2.5	-2.8708	-3.0271	-2.4146	-3.1	-2.5646	-2.3708	-3.15	-2.3583	-2.7375	-3.0187	-2.25	-2.8708	-2.7896	105.722	-12.784	55.305	131.201	-36.164	-53.094	177.857	25.046	106.534	-7.198	26.451	134.412	155.361	184.538	-109.295	7.358	0.00022755	0.0001306	5.3384e-05	415.07	1.2791e-06	1.6232e-06	394.76	119.62	1.2932e-06	2.05e-06	115.15	42.425	43.803	18.181	1.8995e-06	18.431	6.3503e-05	5.2263e-05	1.4508e-05	382.64	6.0163e-07	5.8265e-07	366.49	112.12	6.1434e-07	5.8116e-07	105.7	39.289	40.233	16.911	5.9026e-07	17.182	178.202	-160.717	-12.595	-162.093	-83.297	-93.965	-163.885	-156.947	-71.533	13.185	-160.039	-156.285	-153.431	-149.680	-78.264	-152.906	-8191	255	
8677.833	1	1	0	0	0.093251	0.098084	0.02993	0.30748	0.17984	0.3151	0.11482	0.12842	0.11821	0.16053	0.25704	0.21282	0.02176	0.11334	0.16315	0.10497	-1.9458	-3.0646	-2.4208	-2.5646	-2.8854	-2.3125	-2.9271	-2.8	-2.2562	-3.0979	-2.6083	-2.4167	-3.0146	-2.4396	-2.7875	-2.8917	99.162	-117.193	-39.449	122.742	50.656	44.386	172.818	-75.799	180.390	65.360	130.843	-80.322	151.767	-65.260	-115.300	-5.562	0.00021347	0.00030168	5.6937e-05	418.1	2.1114e-06	1.3777e-06	395.43	121.69	5.2363e-07	4.5234e-06	114.46	43.209	44.558	18.464	5.5546e-07	18.938	6.3038e-05	5.3351e-05	1.5376e-05	384.98	6.0033e-07	6.0696e-07	369.52	113.21	6.0462e-07	5.7187e-07	106.46	39.894	40.705	17.186	5.7991e-07	17.431	175.515	-147.218	-14.832	-163.142	-20.595	-25.965	-164.052	-156.900	146.981	-75.058	-159.445	-156.387	-152.786	-149.807	-40.695	-153.501	-8191	255	
8677.929	1	1	0	0	0.099413	0.29536	0.036799	0.14727	0.16986	0.18189	0.14401	0.12587	0.14587	0.044471	0.07553	0.095212	0.066354	0.066664	0.28433	0.1179	-1.8687	-2.8354	-2.5292	-2.3396	-3.1229	-2.1542	-2.7354	-2.8875	-2.1271	-2.9417	-2.5375	-2.3167	-2.9229	-2.4562	-2.5438	-2.8667	-25.579	-124.132	-4.054	174.997	161.467	-25.693	177.474	179.170	167.530	174.283	-51.582	9.797	-47.273	161.899	-56.402	75.307	0.00023625	0.00031095	0.0001073	420.01	1.0981e-06	1.7509e-06	401.12	122.73	3.7908e-06	7.8739e-07	116.17	43.279	45.176	18.767	2.329e-06	18.963	6.4098e-05	5.2152e-05	1.4664e-05	385.14	5.8251e-07	5.991e-07	370.7	113.9	5.9585e-07	5.9492e-07	107.51	40.252	41.39	17.471	6.0603e-07	17.684	175.062	-47.626	-117.786	-162.151	-56.282	140.069	-163.567	-157.078	-64.499	9.669	-160.213	-156.573	-153.005	-149.682	-84.968	-153.603	-8191	255	
8678.025	1	1	0	0	0.19379	0.211	0.10227	0.21506	0.070361	0.17053	0.2493	0.21019	0.17566	0.14685	0.043259	0.11748	0.24634	0.12948	0.071533	0.074317	-1.8333	-2.8312	-2.6229	-2.3708	-2.8083	-2.3625	-2.6125	-3.05	-2.3271	-2.9125	-2.85	-2.3771	-3.0729	-2.5979	-2.5229	-2.9521	76.885	-162.881	-81.416	182.258	58.613	17.218	129.887	95.618	-17.326	-36.948	75.952	-108.226	69.516	52.902	181.751	-104.385	0.00018736	0.00016882	5.6508e-05	415.67	5.8337e-07	2.0339e-06	397.27	125.7	1.2372e-06	1.6956e-06	120.74	45.351	47.109	20.107	8.5254e-07	20.556	6.5958e-05	5.0747e-05	1.4742e-05	383.74	5.909e-07	5.6581e-07	370.13	116.43	6.1224e-07	5.8086e-07	110.95	42.164	43.345	18.839	5.5011e-07	19.232	178.242	-116.864	-86.295	-162.468	-72.866	-76.231	-163.452	-156.936	15.430	-9.644	-160.229	-156.648	-153.953	-150.288	-71.200	-153.936	-8191	255	
8678.122	1	1	0	0	0.055217	0.27086	0.090615	0.031364	0.23435	0.11219	0.20213	0.16003	0.23769	0.34947	0.18013	0.089739	0.21908	0.10312	0.24965	0.11562	-1.7188	-2.8458	-2.9083	-2.2104	-3.1708	-2.6312	-2.625	-3.0854	-2.1646	-2.9521	-2.9271	-2.3333	-3.0333	-2.6917	-2.1896	-3.1271	-91.560	-139.045	126.792	-14.642	9.095	125.184	86.389	-42.700	152.524	-47.781	26.399	-11.834	-147.987	142.489	179.532	58.378	0.00023578	0.0002007	3.0337e-05	425.67	1.8696e-06	3.6052e-06	410.01	130.31	1.36e-06	3.4229e-06	123.06	47.118	48.426	20.869	1.5827e-06	21.731	6.1822e-05	4.9782e-05	1.3882e-05	391.29	5.5054e-07	5.4242e-07	379.53	120.77	5.8222e-07	5.4687e-07	113.51	43.612	44.602	19.411	5.6553e-07	19.997	172.026	-129.143	-55.028	-162.575	-33.497	-54.567	-164.052	-156.926	-75.523	-42.240	-160.110	-156.651	-153.528	-150.831	-52.568	-154.264	-8191	255	
8678.242	1	1	0	0	0.17331	0.22197	0.06503	0.18712	0.089728	0.071684	0.20054	0.10486	0.051083	0.07981	0.19252	0.26408	0.10658	0.037026	0.23472	0.1031	-1.8292	-2.6458	-2.9271	-2.1937	-3.0083	-2.7021	-2.2646	-3.0583	-2.475	-2.675	-2.9417	-2.0979	-2.9646	-2.6771	-2.3958	-3.0896	131.674	-106.145	-136.809	-172.802	57.183	-117.346	26.889	99.078	-132.569	163.393	157.581	-62.116	-120.588	-83.999	11.086	-65.964	0.00023825	0.00014579	5.3806e-05	430.84	2.0877e-06	3.0526e-06	412.4	132.32	1.8651e-06	3.0931e-06	124.73	48.061	49.723	21.462	1.569e-06	21.873	6.2211e-05	5.1095e-05	1.3242e-05	396.18	5.4073e-07	5.3044e-07	382.62	122.42	5.5925e-07	5.4005e-07	115.9	44.603	45.516	19.975	5.8052e-07	20.442	176.660	-92.915	-79.164	-162.423	-28.845	-58.106	-164.031	-157.307	-63.420	141.104	-160.725	-156.748	-153.373	-150.741	-46.599	-153.890	-8191	255	
8678.338	1	1	0	0	0.17655	0.11002	0.15444	0.22869	0.32986	0.21838	0.26009	0.28206	0.099256	0.05631	0.11287	0.28234	0.066302	0.19959	0.17005	0.10994	-2.0208	-2.5375	-2.9208	-2.1583	-2.8438	-2.825	-2.3396	-3.0021	-2.4542	-2.4313	-3.1333	-2.0438	-2.7667	-2.9125	-2.1562	-3.0458	-72.495	36.135	-0.322	-159.617	87.667	-49.261	121.985	12.341	78.408	-36.669	114.313	116.989	114.310	-91.210	-89.604	120.231	0.00024072	0.0001286	9.2836e-05	428.91	8.1203e-07	3.975e-06	414.9	132.69	1.0713e-06	3.859e-07	125.4	48.935	50.425	21.82	1.7776e-06	22.46	6.2207e-05	4.9133e-05	1.3902e-05	394.19	5.6581e-07	5.2736e-07	385.93	123.59	5.7112e-07	5.5681e-07	116.96	45.32	46.007	20.268	5.9442e-07	20.704	178.976	-54.805	-103.293	-161.837	-103.547	-67.561	-163.920	-157.340	-6.929	121.516	-160.259	-156.913	-154.274	-150.673	-130.036	-154.216	-8191	255	
8678.435	1	1	0	0	0.31058	0.096583	0.16374	0.13578	0.18269	0.093368	0.086247	0.43121	0.28648	0.15912	0.13244	0.21361	0.1282	0.4452	0.095064	0.031549	-2.1146	-2.3354	-2.975	-2.2708	-2.7687	-2.9333	-2.1354	-2.8896	-2.6708	-2.2292	-3.1292	-2.2958	-2.6583	-3.0396	-2.275	-2.9354	98.703	-42.538	-128.970	133.383	-47.278	173.802	-38.279	-169.934	145.438	11.569	-166.686	-169.236	-106.703	121.830	-76.878	181.688	0.0002467	0.00025049	0.00010309	428.23	1.4059e-06	1.3804e-06	415.76	134.01	2.2949e-06	2.5928e-06	126.84	49.087	50.083	21.971	1.0985e-06	22.324	6.3716e-05	4.5983e-05	1.4315e-05	395.89	5.7507e-07	5.2437e-07	384.95	123.87	6.0832e-07	5.7426e-07	116.89	45.313	45.944	20.286	5.9277e-07	20.731	182.835	-152.577	-70.257	-162.383	-158.737	-47.948	-163.695	-156.855	-41.114	-40.965	-159.906	-157.324	-153.913	-151.316	5.878	-154.230	-8191	255	
8678.531	1	1	0	0	0.13709	0.37445	0.14528	0.37712	0.17387	0.10622	0.25945	0.37995	0.14038	0.20375	0.15592	0.12081	0.061442	0.10179	0.15002	0.088231	-2.275	-2.3417	-2.8333	-2.2708	-2.5646	-3.0208	-2.1104	-2.8875	-2.8083	-2.325	-3.1	-2.5292	-2.7167	-3.0125	-2.3438	-2.8979	-38.204	35.403	153.386	18.619	157.336	153.958	-77.369	174.765	131.547	-92.901	-64.205	68.445	76.452	48.618	-70.212	-9.384	0.00022046	8.0456e-05	9.549e-05	431.21	8.9022e-07	3.325e-06	415.29	133.04	2.054e-06	1.7276e-06	127.28	49.111	50.665	21.991	7.9178e-07	22.752	6.2889e-05	5.1408e-05	1.4469e-05	394.28	5.425e-07	5.6304e-07	384.32	123.88	5.4037e-07	5.4378e-07	117.3	45.337	46.196	20.446	5.9225e-07	21.084	179.889	-51.056	-74.600	-162.344	-13.727	-46.982	-163.985	-157.269	-40.424	4.895	-159.880	-156.707	-153.566	-151.001	-36.782	-154.934	-8191	255	
8678.627	1	1	0	0	0.074415	0.066864	0.15044	0.33637	0.082859	0.079462	0.074736	0.044391	0.24173	0.086776	0.20054	0.12124	0.068182	0.30025	0.23994	0.34121	-2.4562	-2.2958	-3.1146	-2.4396	-2.3333	-2.9479	-2.2042	-2.8979	-2.8312	-2.2396	-3.1229	-2.3187	-2.4062	-2.8625	-2.5208	-2.6896	-57.686	-6.779	55.059	112.324	-120.198	128.711	83.729	-85.043	140.174	116.952	70.726	78.588	-136.096	-139.495	100.370	-135.822	0.000249	0.00022219	6.6082e-05	428.98	1.347e-06	4.9934e-07	417.28	134.56	1.9803e-06	2.6409e-06	130.14	50.957	52.172	23.459	1.2648e-06	24.463	6.257e-05	5.047e-05	1.3972e-05	397.7	5.7343e-07	5.2128e-07	387.08	125.24	5.4695e-07	5.7014e-07	120.1	47.189	47.872	21.768	5.7532e-07	22.666	183.051	-95.652	-91.668	-162.646	-79.364	-98.430	-163.994	-157.408	-81.435	-29.089	-159.986	-157.552	-153.851	-151.640	-72.087	-155.573	-8191	255	
8678.721	1	1	0	0	0.25471	0.2665	0.20174	0.13031	0.087643	0.078125	0.17336	0.091534	0.13681	0.10344	0.075501	0.15927	0.1747	0.081608	0.083766	0.11587	-2.5062	-2.0854	-2.9021	-2.75	-2.4021	-3.0771	-2.3167	-2.7167	-3.0104	-2.3417	-2.9792	-2.6708	-2.2479	-3.1625	-2.2917	-2.6479	154.458	-59.090	-129.642	92.883	-169.256	14.194	-162.937	-19.673	16.981	108.293	-174.163	11.379	-40.803	166.220	143.876	-150.190	0.0002615	0.00036994	4.1614e-05	443.97	2.0763e-06	1.6077e-06	425.49	137.84	1.6606e-06	2.8228e-06	133.46	52.746	54.095	24.299	3.1551e-06	25.063	6.1163e-05	5.1258e-05	1.2811e-05	403.56	5.194e-07	5.429e-07	393.55	128.78	5.2906e-07	5.4496e-07	123.1	48.901	49.462	22.535	5.4236e-07	23.277	174.117	-71.348	-44.134	-162.316	-64.365	-21.708	-164.062	-157.013	-6.519	-11.395	-159.793	-156.723	-154.553	-152.293	-28.657	-155.606	-8191	255	
8678.817	1	1	0	0	0.1071	0.093863	0.16837	0.10937	0.2884	0.091859	0.15101	0.085139	0.21126	0.030643	0.07757	0.060764	0.046287	0.14925	0.11519	0.20071	-2.4729	-2.3688	-2.8646	-2.7104	-2.2917	-3.1937	-2.3917	-2.5625	-2.9417	-2.5438	-2.8708	-2.8937	-2.1375	-2.8958	-2.7125	-2.4021	-59.084	-156.866	-80.859	179.415	-81.081	-106.278	20.206	118.341	181.032	-66.834	95.941	81.461	129.031	156.119	113.883	85.394	0.0003031	0.00013275	4.1763e-05	442.35	2.1822e-06	1.5699e-06	423.63	139.33	1.362e-06	2.4046e-06	134.03	52.898	54.793	23.974	9.0038e-07	24.86	6.1346e-05	4.971e-05	1.355e-05	404.07	5.4765e-07	5.1174e-07	393.64	129.72	5.1852e-07	5.2507e-07	123.07	48.761	49.679	22.419	5.1218e-07	23.065	179.419	-107.551	-93.931	-162.400	-65.439	-85.688	-164.097	-156.944	-54.927	-13.763	-160.108	-157.263	-154.198	-152.120	-32.932	-155.815	-8191	255	
8678.938	1	1	0	0	0.14134	0.072957	0.1035	0.09728	0.13414	0.11617	0.27933	0.10006	0.21902	0.14841	0.18077	0.096946	0.093457	0.057247	0.17349	0.20208	-2.8312	-2.1229	-2.6979	-2.7896	-2.2896	-2.8104	-2.5208	-2.4521	-3.1021	-2.4271	-2.5979	-3.0271	-2.1813	-3.0583	-2.6188	-2.3896	163.999	-51.794	-69.439	153.487	49.612	159.227	-16.762	77.292	87.387	-65.703	109.418	108.923	-33.752	-19.893	180.389	102.659	0.0002658	0.00042445	4.9689e-05	440.33	2.9624e-06	1.6574e-06	421.81	138.85	1.6501e-06	9.6144e-07	132.22	51.967	52.948	23.812	8.2403e-07	24.612	6.089e-05	4.9255e-05	1.3195e-05	402.08	5.5046e-07	4.959e-07	392.72	129.28	5.2389e-07	5.4226e-07	122.15	48.379	48.937	22.176	5.3244e-07	22.783	176.933	-125.971	-16.266	-162.461	-53.642	-79.414	-163.572	-157.441	-80.366	-33.145	-160.261	-157.276	-153.888	-151.978	60.358	-154.803	-8191	255	
8679.034	1	1	0	0	0.22827	0.041028	0.13176	0.15159	0.10499	0.053654	0.18165	0.15178	0.2291	0.17615	0.05362	0.2325	0.23241	0.10987	0.27501	0.17285	-2.7729	-2.5208	-2.5104	-2.8771	-2.1813	-2.9771	-2.8042	-2.3625	-2.8229	-2.5104	-2.5208	-3.0354	-2.2042	-2.9292	-2.8771	-2.2438	36.902	93.451	169.750	103.948	-123.917	10.502	67.192	-2.725	96.744	49.416	-138.644	112.709	129.826	115.302	-13.969	-139.485	0.00028317	0.00020835	5.1119e-05	439.65	1.808e-06	2.821e-07	425.09	139.4	2.1719e-06	3.5165e-06	132.57	53.018	53.577	23.631	3.3855e-06	24.344	6.132e-05	4.85e-05	1.3453e-05	402.97	5.5967e-07	5.3066e-07	393.86	129.41	5.4204e-07	5.5368e-07	122.79	48.684	49.023	22.048	5.573e-07	22.684	174.991	-107.411	-74.153	-162.512	-41.434	-141.461	-164.320	-156.909	-100.033	-9.254	-160.513	-157.344	-153.812	-151.993	-52.189	-154.852	-8191	255	
8679.130	1	1	0	0	0.15614	0.1872	0.077924	0.41958	0.08457	0.28273	0.10771	0.11985	0.092727	0.14748	0.14493	0.17038	0.12481	0.23345	0.14241	0.003017	-2.5687	-2.4083	-2.5354	-3.1063	-2.2229	-2.7667	-2.9021	-2.125	-3.0396	-2.5729	-2.4646	-3.0979	-2.275	-2.7896	-2.9021	-2.4813	10.490	155.782	118.641	-154.030	163.742	-70.944	-170.024	153.429	182.335	-46.798	29.999	98.926	65.117	174.422	17.350	167.478	0.00031276	0.00024084	7.1418e-05	439.01	8.4379e-07	6.5157e-07	423.36	138.76	3.5387e-06	8.6155e-07	133.99	52.129	53.223	23.573	2.1345e-06	24.153	6.2061e-05	4.9703e-05	1.3476e-05	403.6	5.399e-07	5.1525e-07	395.38	129.07	5.3422e-07	5.2824e-07	122.93	48.397	48.864	21.896	5.4007e-07	22.472	179.580	-63.882	-119.472	-161.783	-48.225	-120.379	-164.152	-157.058	-22.970	-44.902	-160.073	-157.095	-154.138	-151.351	-71.333	-154.615	-8191	255	
8679.202	1	1	0	0	0.11042	0.084259	0.13898	0.099037	0.23389	0.23275	0.25912	0.11081	0.073812	0.065541	0.083634	0.32479	0.049406	0.038632	0.22563	0.070998	-2.7792	-2.6271	-2.4542	-2.9813	-2.2188	-2.6542	-3.0771	-2.2687	-2.8875	-2.6979	-2.2917	-3.0771	-2.5458	-2.7	-3.0271	-2.3604	12.449	31.190	64.907	-88.015	-133.853	42.630	167.268	-150.691	-43.505	146.696	33.730	154.475	72.831	27.671	-66.762	90.068	0.00028536	0.00038518	4.4896e-05	438.78	6.7142e-07	1.3675e-06	426.4	136.68	2.3255e-06	3.0228e-06	131.49	51.233	52.526	23.185	1.9828e-06	23.83	6.0927e-05	4.8294e-05	1.3052e-05	400.7	5.6253e-07	5.3413e-07	394.65	127.37	5.4768e-07	5.0319e-07	121.53	47.625	48.121	21.569	5.3812e-07	22.143	181.023	-123.705	-118.510	-163.023	-54.642	-118.616	-163.646	-156.773	-21.412	-46.151	-159.854	-157.538	-154.434	-150.997	-80.265	-155.048	-8191	255	
8679.323	1	1	0	0	0.076276	0.12023	0.1899	0.13292	0.19943	0.14603	0.16507	0.3362	0.20322	0.10744	0.23192	0.29179	0.098478	0.087946	0.08249	0.10155	-2.4104	-2.7104	-2.3229	-3.1188	-2.5292	-2.5396	-3.0958	-2.2479	-2.9062	-2.9146	-2.3333	-3.0396	-2.6	-2.4542	-3.1146	-2.3333	177.153	-153.092	132.650	19.480	69.257	-119.044	48.213	114.050	117.223	133.606	34.578	81.272	-138.431	33.298	-46.118	-156.844	0.00029783	0.00014153	9.3518e-05	440.73	3.0195e-06	1.9934e-06	421.72	136.49	2.2075e-06	1.6508e-06	131.48	51.165	52.481	23.013	9.6823e-07	23.749	6.0268e-05	4.7554e-05	1.3543e-05	401.53	5.2416e-07	4.9846e-07	391.94	127.04	5.4037e-07	5.1305e-07	121.44	47.687	48.066	21.433	5.4033e-07	22.089	181.566	-82.294	-105.335	-162.438	2.486	-75.413	-164.290	-157.058	-42.800	100.033	-159.629	-156.796	-154.185	-151.392	-5.163	-155.300	-8191	255	
8679.419	1	1	0	0	0.088978	0.22125	0.15658	0.23309	0.012365	0.17003	0.15099	0.15412	0.18784	0.22607	0.24665	0.15234	0.15631	0.19749	0.14764	0.15044	-2.2854	-2.7208	-2.2396	-2.9708	-2.6208	-2.3229	-3.0896	-2.4333	-2.425	-3.0708	-2.3438	-2.9729	-2.7542	-2.4125	-2.9521	-2.4479	109.161	75.545	36.490	162.087	120.404	165.034	-140.174	91.252	-73.453	-55.217	129.374	37.871	16.515	-99.230	29.514	21.088	0.00028871	0.00022011	2.2186e-05	438.98	6.2528e-07	1.9899e-06	421.18	136.36	6.2324e-07	2.1544e-06	131.36	51.418	52.692	23.132	9.9091e-07	23.756	6.1927e-05	4.6529e-05	1.4464e-05	401.95	5.1001e-07	5.2519e-07	392.69	126.84	5.466e-07	5.0762e-07	121.37	47.646	48.117	21.567	5.6501e-07	22.129	182.768	-116.869	-117.586	-162.607	-30.552	-25.484	-163.901	-157.011	1.458	1.033	-160.050	-157.286	-154.014	-151.425	-139.797	-155.053	-8191	255	
8679.515	1	1	0	0	0.17595	0.17481	0.22584	0.25964	0.24992	0.24119	0.15399	0.22466	0.11657	0.13863	0.10763	0.062887	0.31958	0.15457	0.10762	0.19267	-2.4375	-3.1667	-2.2333	-2.9917	-2.5687	-2.1167	-3.2604	-2.4708	-2.5104	-2.8479	-2.3417	-2.9708	-2.6792	-2.3167	-2.9458	-2.5646	183.322	129.713	16.333	113.958	176.558	167.349	-80.426	114.052	-141.845	96.775	102.781	-27.122	25.653	-152.451	105.224	14.011	0.00027453	0.00022849	6.422e-05	437.6	1.5013e-06	1.7094e-06	426.25	136.82	2.5858e-06	6.0495e-07	131.75	51.263	52.369	22.685	2.6739e-06	23.83	6.2204e-05	4.7772e-05	1.3986e-05	400.23	5.2373e-07	5.3457e-07	393.59	126.89	5.4183e-07	5.0558e-07	121.38	47.682	47.721	21.181	5.5076e-07	22.002	175.822	-87.003	-94.673	-162.091	-65.295	-59.409	-163.838	-156.918	-76.314	-45.791	-160.364	-156.887	-154.370	-151.444	-68.969	-154.567	-8191	255	
8679.611	1	1	0	0	0.12927	0.18725	0.047578	0.1612	0.21783	0.12188	0.24433	0.20514	0.080763	0.10825	0.11343	0.14446	0.28207	0.15301	0.11706	0.24989	-2.0104	-2.9354	-2.2917	-2.6437	-2.7375	-2.2625	-3.0104	-2.6417	-2.3625	-3.1604	-2.3667	-2.7313	-3.0167	-2.3979	-2.9208	-2.5604	-132.969	126.679	-109.694	-57.814	59.552	36.033	90.722	160.793	40.176	-29.257	28.562	15.424	130.040	-89.458	68.748	169.754	0.00031629	0.0002583	7.8832e-05	438.99	2.2951e-06	1.8664e-06	424.88	138.05	1.8769e-06	2.3116e-06	132.41	51.571	52.78	22.779	2.9613e-07	23.703	6.0762e-05	4.9259e-05	1.4062e-05	402.79	5.4812e-07	5.5136e-07	394.96	127.66	5.6007e-07	5.3966e-07	122.27	47.907	48.071	21.222	5.7718e-07	21.964	174.968	-109.739	-139.780	-161.991	-35.799	-16.503	-163.899	-157.209	-77.394	-52.399	-160.052	-156.725	-154.119	-151.156	-83.972	-154.692	-8191	255	
8679.730	1	1	0	0	0.16181	0.15454	0.29312	0.096167	0.17418	0.23345	0.077194	0.1765	0.2203	0.1061	0.086875	0.050255	0.40409	0.11794	0.18628	0.033443	-1.8167	-3.0479	-2.4875	-2.5542	-3.0083	-2.1708	-2.8708	-2.8896	-2.2792	-3.0125	-2.3521	-2.4833	-2.9625	-2.2125	-2.8646	-2.825	149.828	98.336	-72.690	42.002	-76.858	-56.329	57.189	-75.359	-146.992	-37.929	24.670	110.504	117.342	156.435	-24.205	124.848	0.00023565	0.00029322	6.9828e-05	438.19	1.0604e-06	1.8242e-06	423.35	136.12	2.7823e-06	4.2157e-06	130.94	50.634	52.08	22.611	8.5549e-07	23.509	6.4285e-05	4.9299e-05	1.4046e-05	399	5.3021e-07	5.7406e-07	391.12	126.14	5.8725e-07	5.4153e-07	120.24	47.294	47.485	21.121	5.3651e-07	21.673	179.167	-106.290	-95.194	-162.162	151.318	-49.054	-163.856	-157.007	-36.634	-27.493	-160.055	-157.153	-153.827	-150.961	60.322	-154.805	-8191	255	
8679.826	1	1	0	0	0.1234	0.15509	0.11263	0.18786	0.15716	0.098316	0.23869	0.19875	0.10481	0.27037	0.094801	0.299	0.1621	0.18002	0.15527	0.051782	-1.9021	-3.0604	-2.425	-2.3958	-2.8	-2.3146	-2.8438	-2.9	-2.2667	-3.0167	-2.4917	-2.4458	-2.9437	-2.2729	-2.6417	-2.9542	94.329	-174.730	162.875	151.719	-92.375	92.216	155.686	144.425	63.527	-81.382	-56.851	181.020	54.052	116.305	78.830	-21.396	0.00028248	0.00020937	3.9181e-05	430.6	2.1487e-06	1.601e-06	421.54	135.17	2.3645e-06	2.8063e-06	130.62	50.836	51.699	22.465	1.6769e-06	23.211	6.4745e-05	4.9805e-05	1.4008e-05	397.93	5.3238e-07	5.5891e-07	390.36	125.51	5.7667e-07	5.3536e-07	120.73	47.053	47.294	20.837	5.3825e-07	21.539	180.316	-37.624	-71.787	-161.615	-41.408	52.647	-163.298	-156.870	-49.524	-39.048	-160.259	-156.701	-154.002	-151.152	-114.996	-154.523	-8191	255	
8679.922	1	1	0	0	0.09696	0.076822	0.1931	0.40575	0.14829	0.11706	0.18562	0.14678	0.056	0.2382	0.26836	0.18943	0.13463	0.11925	0.16809	0.18901	-1.8646	-2.8229	-2.6521	-2.2646	-3.0271	-2.3708	-2.6458	-2.7271	-2.2771	-2.8958	-2.6562	-2.3625	-3.0875	-2.3771	-2.5583	-3.0333	-96.070	-150.439	126.606	-20.259	154.059	18.140	148.845	-117.255	174.046	-116.901	50.546	129.376	184.416	-111.044	117.818	-124.955	0.00028294	0.00018913	8.1521e-05	435.53	2.748e-06	2.2197e-06	420.49	134.85	2.1201e-06	2.1757e-06	131.2	50.721	51.604	22.154	1.5057e-06	23.009	6.36e-05	4.9481e-05	1.345e-05	398.81	5.4215e-07	5.7185e-07	390.82	125.54	5.8389e-07	5.4022e-07	120.24	46.946	46.849	20.613	5.5219e-07	21.409	177.774	-129.983	-59.475	-161.996	-67.801	-64.118	-163.782	-157.283	-21.765	-25.073	-160.252	-156.978	-153.591	-151.481	-16.786	-154.506	-8191	255	
8680.018	1	1	0	0	0.16153	0.090014	0.13178	0.099514	0.20122	0.35359	0.06447	0.28219	0.30219	0.19101	0.076911	0.2745	0.19557	0.19067	0.17004	0.16135	-1.7521	-2.8896	-2.6396	-2.2938	-3.0208	-2.4354	-2.5312	-2.8354	-2.2375	-2.7687	-2.6917	-2.1125	-2.8604	-2.575	-2.3312	-3.0979	157.155	147.191	52.210	47.965	-139.605	34.081	179.126	46.394	-86.402	-90.446	-156.769	161.970	133.217	33.119	8.479	101.789	0.00024555	9.4071e-05	2.7534e-05	437.47	1.148e-06	1.784e-06	423.98	135.05	2.6825e-06	4.0603e-07	129.92	50.576	51.416	22.19	5.9422e-07	22.843	6.3192e-05	4.9453e-05	1.3184e-05	400.65	5.5967e-07	5.3904e-07	391.95	125.37	5.9034e-07	5.4678e-07	120.9	47.103	46.901	20.613	5.502e-07	21.433	181.746	48.221	-116.432	-162.034	-30.286	2.684	-163.369	-157.190	-62.917	-166.548	-160.010	-157.188	-153.686	-150.585	-133.294	-154.519	-8191	255	
8680.115	1	1	0	0	0.14503	0.21882	0.19528	0.090395	0.17678	0.060289	0.23624	0.24404	0.29445	0.065055	0.070159	0.28467	0.20758	0.2178	0.21558	0.1282	-1.8292	-2.7979	-2.7896	-2.2083	-2.8958	-2.5875	-2.4958	-3.1188	-2.2375	-2.7438	-3.0187	-2.1646	-2.9604	-2.6917	-2.3604	-3.1521	-90.626	0.515	-87.702	-61.881	51.718	66.264	-123.064	106.557	174.492	19.160	-134.429	63.909	135.037	99.477	125.126	-33.336	0.00026475	0.00013326	6.0287e-05	434.21	1.4268e-06	1.8657e-06	421.27	133.34	1.3705e-06	1.6476e-06	129.46	50.794	51.491	22.067	2.1497e-06	23.194	6.4397e-05	5.0518e-05	1.386e-05	397.65	5.5785e-07	5.4667e-07	391.6	124.84	5.5404e-07	5.2716e-07	119.67	46.817	46.788	20.538	5.6506e-07	21.334	174.352	-37.851	-96.808	-161.561	-44.475	-26.301	-163.506	-157.038	-50.431	-54.354	-159.585	-157.113	-153.692	-150.905	-82.600	-154.870	-8191	255	
8680.211	1	1	0	0	0.30095	0.21005	0.054608	0.31219	0.12746	0.33421	0.22397	0.092984	0.010234	0.11272	0.095046	0.10029	0.19554	0.068841	0.070744	0.11417	-2.0687	-2.5958	-2.8563	-2.2	-2.7729	-2.5708	-2.3021	-3.05	-2.2708	-2.4562	-2.9646	-2.2917	-2.7833	-2.7271	-2.3	-3.0792	45.605	12.922	-46.632	60.208	-26.615	-107.709	147.399	14.675	-97.590	75.504	126.813	92.547	38.246	-75.656	115.647	96.515	0.00028688	3.96e-05	5.7569e-05	435.52	1.04e-06	2.6545e-06	422.42	134.49	1.0113e-06	1.6687e-06	130.72	50.663	51.482	22.131	2.0171e-06	23.202	6.4128e-05	4.8559e-05	1.2713e-05	398.54	5.6516e-07	5.4437e-07	390.63	125.24	5.4961e-07	5.5646e-07	120.42	46.966	47.033	20.621	5.897e-07	21.48	178.773	-154.975	-63.618	-162.383	10.053	-25.740	-163.225	-156.540	5.510	-64.869	-159.821	-156.741	-153.659	-150.711	-12.438	-154.396	-8191	255	
8680.331	1	1	0	0	0.044673	0.35339	0.11046	0.053295	0.25313	0.062721	0.20039	0.057857	0.073417	0.10262	0.059627	0.096844	0.12042	0.052758	0.15296	0.084959	-2.1583	-2.6375	-3.0312	-2.2854	-2.6792	-2.8438	-2.1688	-2.9562	-2.3667	-2.3812	-2.7812	-2.1958	-2.7396	-2.8042	-2.0896	-2.9875	-168.368	113.290	164.028	-63.812	-24.721	33.838	178.211	-23.343	99.699	94.186	9.505	105.899	-93.933	59.905	-8.367	-141.902	0.00027813	0.00018793	9.2177e-05	433.12	9.1245e-07	4.0656e-06	420.02	134.41	1.4288e-06	1.8463e-06	130.56	51.051	51.144	22.193	1.9593e-06	23.226	6.1627e-05	4.9726e-05	1.3858e-05	397.72	4.9591e-07	5.1985e-07	390.56	125.25	5.4265e-07	5.5885e-07	120.44	47.076	46.851	20.624	5.8558e-07	21.6	179.930	-132.105	-84.971	-162.787	-106.640	-69.918	-163.679	-157.121	-65.031	-8.192	-160.050	-156.731	-153.665	-151.476	-50.957	-154.433	-8191	255	
8680.427	1	1	0	0	0.2157	0.30173	0.072129	0.25127	0.14697	0.28305	0.23095	0.028907	0.058494	0.081954	0.27329	0.097359	0.11835	0.073869	0.19357	0.058279	-2.1688	-2.3458	-2.9313	-2.2771	-2.6979	-2.9083	-2.1979	-2.925	-2.6354	-2.3104	-2.8896	-2.3812	-2.7271	-2.9479	-2.2354	-2.8479	-104.287	-155.300	-154.601	46.005	140.178	63.268	-76.838	-58.180	22.418	-23.560	173.433	132.889	-56.955	-35.618	89.583	15.648	0.00025159	0.00032943	7.6645e-05	433.65	1.2935e-06	2.1214e-06	423.59	135.89	2.5677e-06	2.6131e-06	131.05	51.231	51.389	22.127	1.1684e-06	23.182	6.0774e-05	5.1416e-05	1.3924e-05	397.71	5.6339e-07	5.6868e-07	391.96	125.99	5.2953e-07	5.7001e-07	121.02	47.412	47.099	20.644	5.6215e-07	21.444	174.987	-112.831	-102.049	-162.076	-0.010	-71.958	-162.948	-156.266	-110.854	-19.078	-159.379	-156.874	-153.761	-151.233	-71.815	-154.309	-8191	255	
8680.499	1	1	0	0	0.1299	0.14126	0.17803	0.19626	0.054534	0.087016	0.14579	0.12554	0.062906	0.19943	0.065248	0.29906	0.12524	0.02307	0.21364	0.29013	-2.4292	-2.2396	-2.8438	-2.3979	-2.4667	-3.1604	-2.1646	-2.8229	-2.725	-2.15	-3.0104	-2.3312	-2.4833	-2.9979	-2.3854	-2.8917	92.113	-130.882	158.255	-65.955	-85.605	94.417	114.577	87.410	-80.678	14.451	28.448	9.005	9.521	-169.368	122.180	162.236	0.00026278	0.00014329	0.00010064	439.05	1.5025e-06	6.409e-07	418.39	134.54	2.5344e-06	2.0143e-06	130.8	50.627	50.708	21.963	1.7537e-06	23.1	6.1301e-05	5.0577e-05	1.4051e-05	398.18	5.5578e-07	5.3526e-07	390.34	124.87	5.4656e-07	5.5377e-07	120.64	47.022	46.783	20.526	5.8095e-07	21.375	175.375	-73.211	-80.076	-162.589	-87.923	168.426	-163.632	-156.860	-52.418	-63.185	-159.585	-157.022	-153.803	-151.267	-39.780	-154.203	-8191	255	
8680.595	1	1	0	0	0.068621	0.2464	0.17189	0.1983	0.048122	0.22999	0.1095	0.04026	0.063124	0.12098	0.061654	0.18946	0.23355	0.1525	0.1961	0.07378	-2.4667	-2.3458	-2.8979	-2.5125	-2.3667	-3.0438	-2.1708	-2.6104	-3.0292	-2.3625	-2.9354	-2.7292	-2.4333	-3.0771	-2.4229	-2.5958	-14.072	169.280	87.469	-120.015	180.878	-69.558	138.822	-87.901	8.331	26.819	76.914	-168.413	144.513	87.138	88.097	81.223	0.00025908	7.5369e-05	8.0081e-05	429.86	2.0907e-06	1.2534e-06	415.57	133.47	1.3862e-06	1.2005e-06	127.86	49.764	49.979	21.797	2.4978e-06	22.961	6.4476e-05	5.2971e-05	1.3609e-05	396.71	5.6551e-07	5.0939e-07	386.51	124.28	5.4118e-07	5.4318e-07	119.13	46.262	46.164	20.31	5.5592e-07	21.247	180.900	5.989	-64.444	-162.126	-27.507	-68.704	-163.546	-157.004	-38.690	60.139	-160.088	-156.353	-154.182	-150.610	-42.306	-154.131	-8191	255	
8680.714	1	1	0	0	0.22311	0.079674	0.14639	0.4482	0.096124	0.15729	0.11734	0.16614	0.036147	0.12104	0.20095	0.20109	0.29071	0.38339	0.066489	0.1791	-2.3937	-2.1375	-2.7375	-2.5854	-2.3167	-3.1333	-2.5396	-2.5062	-3.1354	-2.3042	-2.7667	-2.9479	-2.2229	-3.0208	-2.5563	-2.5229	138.862	-26.272	-87.629	55.081	17.257	58.471	-115.105	-106.660	55.257	37.858	97.040	31.719	-92.959	172.398	-172.386	-64.205	0.0002561	0.00015747	4.4045e-05	434.11	4.951e-07	1.7095e-07	416.46	134.62	1.5977e-06	3.6733e-06	127.8	49.632	49.964	21.632	1.4008e-06	22.475	6.3087e-05	5.034e-05	1.3625e-05	395.06	5.7247e-07	5.5648e-07	387.08	124.32	5.6161e-07	5.8077e-07	119.2	46.218	46.112	20.123	5.3387e-07	20.987	177.183	-108.708	-92.527	-162.040	-107.579	129.410	-163.425	-156.720	-43.869	-46.401	-159.137	-156.621	-154.098	-150.914	-83.300	-153.873	-8191	255	
8680.810	1	1	0	0	0.25522	0.055266	0.27515	0.032684	0.031999	0.095361	0.093109	0.12045	0.18969	0.10735	0.071935	0.084713	0.15922	0.051295	0.025381	0.063891	-2.4396	-2.2646	-2.9354	-2.7417	-2.0875	-2.7812	-2.5438	-2.3792	-2.8667	-2.4146	-2.7562	-2.8187	-2.2438	-2.9313	-2.4667	-2.1646	-4.077	145.127	-93.865	58.465	-119.700	-78.321	105.987	-88.182	-149.098	-100.405	48.333	-112.934	71.472	-97.451	-40.734	-103.352	0.00028221	8.1085e-05	7.5405e-05	434.69	3.5134e-07	2.4242e-06	420.69	134.13	2.0653e-06	3.989e-06	129.66	50.103	50.028	21.745	2.1261e-06	22.744	6.2522e-05	5.0846e-05	1.3868e-05	396.11	5.7243e-07	5.4837e-07	388.85	124.31	5.5744e-07	5.6011e-07	119.9	46.431	46.062	20.209	5.5046e-07	21.058	178.446	-61.509	-86.742	-162.003	-148.234	-59.100	-163.835	-156.669	-69.565	-24.064	-159.574	-156.918	-153.903	-150.850	-75.283	-154.406	-8191	255	
8680.906	1	1	0	0	0.1031	0.11673	0.058553	0.25455	0.047482	0.14965	0.16024	0.25411	0.19129	0.23533	0.17444	0.13603	0.076626	0.16475	0.13461	0.17052	-2.6813	-2.2042	-2.5417	-2.8979	-2.0542	-2.7958	-2.6875	-2.2729	-3.0792	-2.4708	-2.6771	-2.8958	-2.2458	-2.8187	-2.5354	-2.3187	-171.281	155.115	-113.635	28.002	109.234	20.557	-148.503	124.254	-30.722	-121.485	-68.947	102.858	-152.190	3.768	-165.097	-88.678	0.00025338	4.9483e-05	4.3403e-05	435.42	2.0411e-06	2.6232e-06	419.5	133.38	8.1278e-07	2.0861e-06	129.65	50.07	50.057	21.756	6.9673e-07	22.557	6.217e-05	5.1562e-05	1.3581e-05	395.55	5.6962e-07	5.3339e-07	389.58	123.81	5.6312e-07	5.5564e-07	119.52	46.439	46.035	20.112	5.5982e-07	21.028	176.999	-61.763	-61.510	-162.493	-36.182	-90.010	-163.828	-157.240	4.653	-26.438	-159.919	-156.964	-153.426	-150.437	-28.118	-154.132	-8191	255	
8681.003	1	1	0	0	0.14895	0.26875	0.28702	0.19025	0.17452	0.17456	0.086251	0.26834	0.10435	0.1413	0.13238	0.058329	0.22794	0.13204	0.27378	0.075861	-2.7313	-2.3792	-2.4667	-2.9646	-2.2229	-2.7417	-2.8021	-2.1708	-3.0354	-2.4938	-2.3937	-2.9625	-2.4375	-2.7396	-2.8896	-2.1458	-33.890	32.947	69.916	-63.158	42.401	-93.254	14.617	106.872	-83.397	168.746	-174.011	-134.730	163.488	132.356	-152.081	-74.065	0.00030153	0.00033322	6.0976e-05	432.16	2.1309e-06	3.0383e-06	418.14	131.87	2.1546e-06	3.35e-07	129.85	50.255	49.804	21.503	2.5005e-06	22.532	6.4345e-05	5.0181e-05	1.3915e-05	395.48	5.4146e-07	5.3157e-07	387.42	123.17	5.6054e-07	5.3111e-07	119.06	46.207	45.839	19.97	5.4089e-07	20.858	-174.907	-87.672	-109.423	-162.224	-52.643	-47.345	-164.144	-157.196	-58.696	-100.202	-159.583	-156.508	-153.654	-150.594	-47.222	-153.990	-8191	255	
8681.099	1	1	0	0	0.095981	0.17406	0.035232	0.11338	0.18612	0.051406	0.20636	0.32021	0.019651	0.12525	0.22125	0.3369	0.077561	0.093706	0.2173	0.16165	-2.6813	-2.4646	-2.4396	-3.1375	-2.1146	-2.6458	-2.9104	-2.2188	-2.9646	-2.6729	-2.3708	-3.1604	-2.3854	-2.6167	-3.0104	-2.2	129.432	-82.469	-110.886	168.968	158.581	-105.125	88.064	157.676	132.426	31.676	94.375	156.452	148.461	-79.241	-107.780	-62.415	0.00028515	9.1687e-05	0.00010419	429.54	1.2087e-06	8.2505e-07	418.97	132.59	1.6712e-06	1.8625e-06	128.86	49.587	50.465	21.36	4.0564e-06	22.608	6.3821e-05	4.971e-05	1.4458e-05	394.17	5.5872e-07	5.468e-07	386.91	123.3	5.5624e-07	5.1956e-07	119.14	46.082	45.887	19.888	5.7532e-07	20.902	175.662	-71.816	-90.170	-162.070	-53.671	-73.654	-163.891	-156.494	-54.773	-103.376	-159.296	-156.542	-153.709	-151.025	-61.101	-153.890	-8191	255	
8681.195	1	1	0	0	0.087336	0.18156	0.16668	0.18316	0.087465	0.047033	0.20631	0.18516	0.2333	0.16708	0.13281	0.045366	0.023512	0.042767	0.095398	0.069901	-2.4417	-2.5646	-2.0667	-3.2333	-2.5271	-2.6375	-3.1125	-2.2729	-2.8833	-2.7917	-2.1875	-3.0396	-2.5083	-2.6583	-3.1229	-2.3417	92.425	179.077	-129.886	178.787	155.975	-94.271	176.069	91.797	139.611	169.285	177.305	110.340	159.507	108.775	33.762	5.895	0.00024271	0.00024675	8.1829e-05	429.22	9.4506e-07	2.8252e-06	418.75	133.14	2.4021e-07	2.0659e-06	128.53	50.004	50.262	21.574	5.8881e-07	22.383	6.193e-05	5.0055e-05	1.516e-05	395.28	5.5638e-07	5.7588e-07	388.44	123.26	5.4179e-07	5.4391e-07	118.91	46.326	45.882	19.974	5.5198e-07	20.873	182.404	-86.663	-63.080	-161.588	10.911	-80.855	-163.522	-156.952	-41.356	-35.305	-160.066	-156.157	-153.953	-150.928	-96.001	-153.657	-8191	255	
8681.291	1	1	0	0	0.061155	0.17628	0.13955	0.096347	0.20724	0.081069	0.20462	0.078456	0.16372	0.25397	0.19723	0.20886	0.15813	0.020387	0.020668	0.37469	-2.3708	-2.8438	-2.2146	-2.9854	-2.4396	-2.3875	-3.2396	-2.2917	-2.7708	-2.9354	-2.0917	-3.0938	-2.6104	-2.4708	-3.1542	-2.4	-33.783	75.569	48.714	42.248	135.404	-148.790	24.840	-33.210	109.814	102.462	46.329	52.239	-171.735	105.501	135.352	171.564	0.00026331	0.00013523	2.528e-05	430.04	2.3505e-06	3.4519e-06	420.19	132.64	1.0495e-06	2.6422e-06	129.62	49.491	49.857	21.479	1.5128e-06	22.676	5.9976e-05	4.8136e-05	1.4298e-05	394.16	5.6681e-07	5.5301e-07	389.22	123.58	5.6557e-07	5.5069e-07	119.75	46.448	45.948	19.983	5.5254e-07	21.028	182.823	-94.973	-169.903	-162.030	-34.425	-75.685	-163.537	-156.767	-65.800	-10.454	-159.777	-156.885	-153.587	-150.800	-51.207	-154.288	-8191	255	
8681.412	1	1	0	0	0.14191	0.12771	0.237	0.095126	0.24292	0.23425	0.077472	0.12829	0.081834	0.25231	0.049036	0.078366	0.26167	0.1787	0.16731	0.072115	-2.2125	-2.8375	-2.2417	-2.8542	-2.7562	-2.3771	-3.0208	-2.4417	-2.4979	-2.9542	-2.2208	-2.8792	-2.6083	-2.3833	-3.1354	-2.5187	72.658	56.538	-86.530	6.725	-24.843	25.870	-28.334	45.052	107.581	100.867	-86.868	94.737	-81.103	72.895	150.886	149.189	0.00023718	0.00013154	7.9309e-05	431.38	7.192e-07	3.0241e-06	416.04	132.53	1.061e-06	1.0273e-06	129.69	50.078	50.337	21.312	1.0585e-06	22.553	6.2477e-05	5.0059e-05	1.4662e-05	396.16	5.7256e-07	5.4897e-07	388.46	123.3	5.5675e-07	5.5394e-07	119.52	46.449	45.794	19.869	5.7978e-07	20.864	178.441	-146.947	-56.459	-162.243	-39.352	-86.958	-163.773	-157.204	-65.212	30.801	-159.355	-156.679	-153.276	-150.806	-97.675	-153.843	-8191	255	
8681.508	1	1	0	0	0.10835	0.098022	0.3799	0.19682	0.22092	0.25476	0.27819	0.19908	0.15025	0.25727	0.20232	0.036204	0.26191	0.23692	0.060071	0.020647	-2.0896	-2.9583	-2.2542	-2.7896	-2.6104	-2.2167	-2.9729	-2.6167	-2.2875	-3.2313	-2.1479	-2.8688	-2.8521	-2.2583	-2.8104	-2.4417	-80.994	47.402	184.772	-3.220	155.064	-129.865	118.469	113.872	-140.286	-85.926	133.238	-135.033	-52.252	180.813	161.048	128.138	0.00021294	0.00032635	4.2141e-05	423.92	2.5396e-06	1.6421e-06	417.43	132.22	2.4931e-06	1.7093e-06	129.23	50.056	49.418	21.254	1.2277e-06	22.462	6.2859e-05	5.345e-05	1.4539e-05	392.21	5.3869e-07	5.6e-07	387.52	122.58	5.8269e-07	5.4287e-07	118.91	46.476	45.417	19.825	5.7445e-07	20.919	184.072	-70.178	-129.103	-161.728	-22.984	-39.340	-163.227	-157.030	-92.922	-41.254	-159.678	-156.160	-153.937	-150.540	-65.667	-154.205	-8191	255	
8681.604	1	1	0	0	0.1033	0.024466	0.2838	0.02597	0.34159	0.2689	0.26063	0.3703	0.048035	0.30207	0.19114	0.10672	0.061489	0.26364	0.20782	0.39244	-2.0667	-2.8937	-2.1625	-2.5667	-2.8792	-2.1333	-3.0167	-2.7208	-2.4521	-3.0104	-2.5458	-2.6583	-2.925	-2.1375	-2.875	-2.7354	149.395	119.699	-130.329	10.636	-2.813	-164.270	66.579	118.488	-88.442	113.287	77.430	152.084	5.671	22.427	-58.547	115.114	0.00023836	7.5566e-05	3.7151e-05	429.54	5.1765e-07	2.4077e-06	417.52	132.7	7.0752e-07	3.5174e-06	130.13	50.226	50.404	21.399	2.1323e-06	22.697	6.1534e-05	5.1155e-05	1.4014e-05	394.37	5.5137e-07	5.7957e-07	388.98	123.41	5.8346e-07	5.6501e-07	120.09	46.61	46.022	19.951	5.3842e-07	21.15	185.128	-121.422	-112.869	-161.893	-40.113	-58.053	-163.321	-156.709	-59.346	-59.931	-159.712	-156.278	-153.643	-150.660	-49.056	-154.288	-8191	255	
8681.723	1	1	0	0	0.1157	0.1142	0.088239	0.24923	0.16952	0.2301	0.32689	0.28659	0.11319	0.074406	0.31148	0.083461	0.10249	0.26667	0.084321	0.020619	-1.7875	-3.0792	-2.3146	-2.4896	-2.8979	-2.2979	-2.8438	-2.6437	-2.1917	-2.8063	-2.4396	-2.5854	-2.9917	-2.175	-2.7083	-2.6792	-14.238	27.377	135.322	73.943	-29.249	45.654	31.534	168.368	-20.872	31.279	62.453	30.390	143.485	-147.950	93.665	63.192	0.00025601	9.9659e-05	6.4927e-05	433.11	1.7717e-06	1.378e-06	421.8	133.85	3.2553e-06	1.2749e-06	130.37	50.881	50.311	21.516	1.0515e-06	23.186	6.5831e-05	5.0858e-05	1.4293e-05	395.81	5.4998e-07	5.7883e-07	391.58	123.99	6.0204e-07	5.6658e-07	120.38	47.128	46.328	20.114	5.5951e-07	21.413	176.160	-70.751	-168.130	-162.091	-6.399	-55.666	-163.781	-156.731	-47.193	-72.353	-160.007	-156.473	-153.412	-150.902	-17.593	-153.733	-8191	255	
8681.795	1	1	0	0	0.15267	0.11272	0.15506	0.14445	0.12085	0.33047	0.19585	0.33441	0.28191	0.16221	0.1543	0.11853	0.12338	0.13398	0.058543	0.070942	-1.7437	-2.7667	-2.2958	-2.4229	-2.9271	-2.2542	-2.7271	-2.7917	-1.9625	-3.0104	-2.5104	-2.3875	-2.9625	-2.2854	-2.3833	-2.9042	162.207	-92.207	125.586	183.454	183.851	106.012	-140.751	149.559	-174.735	58.068	-162.763	54.818	-7.405	150.675	-171.859	157.037	0.00022989	0.00010085	5.9546e-05	428.23	9.287e-07	2.1605e-06	421.09	133.27	2.6082e-06	1.5363e-06	130	50.235	49.938	21.533	2.1303e-06	22.593	6.5049e-05	5.273e-05	1.4458e-05	395.51	5.4946e-07	5.616e-07	391.07	123	5.8333e-07	5.4669e-07	119.92	46.559	45.728	19.91	5.7315e-07	21.072	173.382	-106.877	-126.082	-161.489	-55.075	-16.934	-163.681	-157.266	-63.735	-2.344	-159.585	-156.103	-154.058	-150.613	0.349	-153.771	-8191	255	
8681.891	1	1	0	0	0.18493	0.13536	0.087596	0.17062	0.23339	0.032904	0.0021644	0.29874	0.30339	0.16227	0.3588	0.2039	0.069337	0.052168	0.11765	0.25188	-2.0667	-2.7979	-2.5354	-2.2771	-2.9688	-2.3	-2.6063	-2.8937	-2.2542	-2.8396	-2.6125	-2.1	-2.8708	-2.2687	-2.4	-3.0333	-75.260	38.530	-137.105	-107.524	38.124	-37.025	180.000	87.313	-29.583	162.201	45.026	-94.665	153.043	100.184	157.802	174.478	0.00025329	0.00036173	2.4829e-05	426.52	1.1134e-06	2.5017e-06	416.68	131.48	2.5292e-06	1.642e-06	128.49	49.769	49.394	21.023	8.6474e-07	22.448	6.4682e-05	5.123e-05	1.4238e-05	392.58	5.5007e-07	5.5058e-07	387.4	122.32	6.1241e-07	5.447e-07	118.71	46.009	45.285	19.664	6.195e-07	20.893	181.914	-113.915	-42.472	-161.651	-115.665	-62.128	-163.691	-156.583	3.478	-69.582	-159.406	-156.489	-153.075	-150.570	-74.776	-153.602	-8191	255	
8682.011	1	1	0	0	0.22963	0.046197	0.1955	0.13157	0.058467	0.23923	0.093439	0.12539	0.17667	0.17396	0.042112	0.095057	0.10085	0.038835	0.13695	0.33804	-1.8438	-2.8604	-2.5771	-2.0917	-3.0167	-2.5146	-2.3667	-2.9125	-2.3583	-2.6562	-2.8375	-2.1542	-2.9688	-2.4583	-2.3896	-2.9583	-143.747	86.444	-90.415	-109.930	33.996	-22.431	16.527	-165.336	83.305	-78.053	173.587	29.348	13.400	-48.847	-99.183	7.935	0.00023865	2.4763e-05	4.2801e-05	428.09	1.9326e-06	1.9437e-06	421.62	130.46	1.6093e-06	2.5294e-06	129.22	50.156	49.684	21.085	1.7095e-06	22.235	6.2402e-05	5.1448e-05	1.5306e-05	393.44	5.8891e-07	5.3795e-07	389.25	121.97	6.0845e-07	5.8563e-07	119.1	46.523	45.435	19.555	6.1057e-07	20.817	173.559	36.725	-13.174	-162.030	-11.992	-69.306	-163.233	-156.558	-86.227	-124.019	-159.589	-156.413	-153.869	-150.622	-34.815	-153.495	-8191	255	
8682.107	1	1	0	0	0.17786	0.108	0.015435	0.12541	0.10579	0.10432	0.097029	0.11425	0.1869	0.30323	0.15931	0.058666	0.088329	0.15979	0.14007	0.084211	-2.0062	-2.6208	-2.7812	-2.1229	-2.95	-2.5187	-2.2104	-3.1333	-2.3208	-2.6104	-2.8187	-2.1063	-2.9729	-2.6958	-2.4188	-2.9854	-165.648	-43.410	-36.107	-138.649	27.877	-77.956	26.605	133.451	-34.506	-57.499	144.498	-134.599	182.340	82.443	-10.189	134.566	0.00024193	0.00014909	8.3091e-05	426.19	1.8798e-06	1.2459e-06	417.72	132.36	4.6989e-07	3.1829e-06	130.74	50.075	49.732	21.159	1.9222e-06	22.651	6.3967e-05	5.3636e-05	1.4746e-05	393.97	5.704e-07	5.5149e-07	389.43	122.82	6.1636e-07	5.8095e-07	119.88	46.628	45.546	19.647	5.9585e-07	21.049	172.728	-20.860	-98.889	-161.640	-18.180	-17.760	-163.301	-156.523	-53.432	-56.531	-159.632	-156.402	-153.776	-150.027	-58.499	-153.902	-8191	255	
8682.204	1	1	0	0	0.090775	0.12391	0.20381	0.2616	0.13258	0.20584	0.086381	0.2902	0.14988	0.19153	0.20751	0.1761	0.21998	0.14466	0.50186	0.099991	-1.8646	-2.5271	-2.9667	-2.1125	-2.8646	-2.9271	-2.3187	-3.0479	-2.2917	-2.3937	-3	-2.3083	-2.6771	-2.7104	-2.2125	-2.9042	120.373	-50.669	-3.843	-112.160	-28.009	-14.221	61.417	10.927	53.463	71.023	-122.578	-150.416	59.622	-172.776	-127.511	-14.593	0.00026671	0.00020063	2.5071e-05	433.03	1.3813e-06	1.7733e-06	424.42	132.17	2.7307e-06	7.635e-07	130.38	49.668	49.608	21.024	1.9351e-06	22.611	6.3128e-05	5.3849e-05	1.4459e-05	396.09	5.5189e-07	5.5635e-07	392.45	122.72	6.0656e-07	5.45e-07	120.03	46.529	45.609	19.623	6.0862e-07	20.859	-169.207	-33.449	-118.810	-161.914	-26.215	-29.067	-163.710	-156.664	-51.211	-58.354	-158.699	-155.987	-153.469	-150.734	-51.246	-153.370	-8191	255	
8682.300	1	1	0	0	0.24426	0.1273	0.07081	0.13319	0.2376	0.19512	0.3569	0.091946	0.1732	0.15552	0.19902	0.17235	0.077589	0.11031	0.34343	0.12659	-2.0812	-2.4688	-3.1208	-2.4083	-2.6042	-2.9125	-2.3396	-3.0958	-2.4104	-2.2896	-3.0625	-2.3125	-2.8438	-3.0229	-2.1521	-2.8646	112.814	-157.238	-140.041	-120.388	104.085	-98.752	179.885	164.547	-95.511	-68.795	-60.615	116.263	130.390	-104.858	94.536	94.045	0.00027349	0.00028494	6.4266e-06	430.9	1.4e-06	3.0616e-06	419.97	131.53	1.4785e-06	1.4383e-06	129.44	49.692	48.802	20.817	1.1795e-06	22.485	6.6673e-05	5.1368e-05	1.4364e-05	393.57	5.4791e-07	5.57e-07	389.27	121.78	5.78e-07	5.9701e-07	119.53	45.998	44.921	19.368	5.9013e-07	20.767	179.527	-112.053	17.336	-161.587	151.324	-68.157	-163.461	-156.784	-50.798	31.474	-159.173	-156.625	-153.198	-150.098	-50.610	-153.706	-8191	255	
8682.396	1	1	0	0	0.097581	0.12306	0.21021	0.16426	0.27118	0.13146	0.08434	0.1348	0.15881	0.29357	0.1676	0.27958	0.1922	0.12249	0.20358	0.1045	-2.325	-2.3417	-3.1	-2.375	-2.6646	-2.9833	-2.2729	-2.8083	-2.6354	-2.2438	-3.0438	-2.45	-2.4604	-3.0812	-2.2812	-2.7354	10.416	182.018	-112.412	99.106	38.580	183.932	-64.608	121.819	-41.850	-160.041	99.589	-124.874	-146.801	-0.431	-66.544	36.601	0.00021366	0.00016464	1.6271e-05	427.9	9.6197e-07	2.7235e-06	415.97	131.25	6.2029e-07	2.7252e-06	129.13	50.058	48.482	20.638	2.109e-06	22.313	6.3289e-05	5.4344e-05	1.4792e-05	391.15	5.7702e-07	5.4489e-07	387.62	121.38	6.0922e-07	5.6605e-07	118.97	45.902	44.507	19.274	5.7813e-07	20.583	179.208	-56.057	-119.308	-161.716	-18.799	-75.637	-163.406	-156.383	-37.123	17.514	-159.065	-156.078	-152.807	-150.565	-40.231	-153.032	-8191	255	
8682.492	1	1	0	0	0.095227	0.2252	0.17074	0.10683	0.14175	0.32079	0.39767	0.24069	0.12967	0.15761	0.1933	0.11668	0.11178	0.049185	0.067722	0.20258	-2.3604	-2.4437	-3.1354	-2.4729	-2.4167	-2.95	-2.3229	-2.8646	-2.9188	-2.2625	-3.0146	-2.6646	-2.3104	-3.1792	-2.2292	-2.8146	-9.013	23.076	184.689	127.274	36.377	-71.885	140.128	-113.194	26.346	-140.001	-157.548	177.782	-75.448	-24.286	138.838	33.183	0.00025542	0.00019206	6.3764e-05	429.63	1.4629e-06	2.0044e-06	419.73	130.92	2.2405e-06	1.9887e-06	129.1	49.85	48.91	20.819	9.9958e-07	22.178	6.4566e-05	5.4819e-05	1.3298e-05	391.36	5.864e-07	5.6916e-07	388.27	121.6	6.1559e-07	5.8642e-07	119.22	46.135	44.777	19.3	5.6973e-07	20.717	179.539	-108.663	-66.395	-161.741	-3.605	-46.139	-163.129	-157.066	-58.013	-37.842	-159.834	-156.430	-153.859	-150.372	-90.472	-153.365	-8191	255	
8682.588	1	1	0	0	0.20983	0.10823	0.17282	0.15077	0.13819	0.1203	0.014668	0.23029	0.016826	0.20224	0.13588	0.11155	0.05119	0.14347	0.17011	0.20462	-2.5583	-2.2854	-3.1021	-2.6937	-2.3229	-3.0187	-2.3458	-2.5479	-2.8667	-2.3104	-2.9562	-2.825	-2.2958	-3.175	-2.5812	-2.6083	57.141	94.418	5.043	78.082	28.698	111.664	-165.025	-168.406	19.331	-63.847	96.841	-79.636	-134.970	-71.871	181.131	151.295	0.00023626	0.00017621	9.6877e-05	426.81	1.9282e-06	2.3846e-06	419.51	131.33	1.5527e-06	1.0807e-06	130.22	49.904	49.691	20.817	2.9528e-06	22.412	6.4386e-05	5.2552e-05	1.3889e-05	391.79	5.7334e-07	5.7988e-07	391.06	122	5.8892e-07	5.7152e-07	119.95	46.268	45.294	19.371	5.5986e-07	20.869	173.687	173.825	-78.979	-161.861	-82.563	-60.167	-163.810	-156.662	-55.766	-1.078	-159.279	-156.590	-153.524	-150.533	-50.560	-152.991	-8191	255	
8682.684	1	1	0	0	0.15745	0.24088	0.062436	0.13572	0.13082	0.12927	0.19325	0.076739	0.15482	0.051433	0.22188	0.14483	0.1397	0.087096	0.14631	0.17312	-2.4521	-2.0021	-2.7396	-2.6312	-2.2313	-3.0187	-2.4521	-2.5062	-3.1854	-2.2167	-2.9313	-2.7333	-2.2354	-3.0625	-2.6104	-2.3729	-133.625	-36.320	14.812	63.408	121.106	16.233	104.605	143.038	-107.767	-40.191	62.484	104.918	162.117	53.504	125.636	50.151	0.00025057	0.00023584	4.8734e-05	429.54	2.3391e-06	4.9099e-07	419.15	131.12	3.1838e-06	3.8878e-06	129.58	49.823	48.967	20.906	1.1214e-06	22.383	6.4008e-05	5.2136e-05	1.4442e-05	394.44	5.8489e-07	5.587e-07	389.24	121.79	5.814e-07	5.7113e-07	119.2	46.102	44.896	19.398	5.9225e-07	20.807	176.147	-101.419	-59.960	-161.913	-34.406	-49.468	-163.752	-156.407	-67.570	-28.959	-159.689	-156.841	-153.345	-150.770	-61.055	-153.630	-8191	255	
8682.803	1	1	0	0	0.043105	0.04027	0.24014	0.073253	0.10026	0.18607	0.22298	0.040245	0.23946	0.24164	0.22213	0.033471	0.22916	0.16728	0.12029	0.07337	-2.4854	-2.3354	-2.8271	-2.6396	-2.3125	-3.0271	-2.7875	-2.4375	-3.0292	-2.4271	-2.6437	-2.8812	-2.2562	-3.0042	-2.7188	-2.4562	2.373	1.599	150.628	-6.244	-100.822	177.458	170.707	22.984	-27.884	-166.898	120.019	-169.029	-86.597	106.460	-130.675	68.941	0.00026064	0.0002063	7.8998e-05	424.88	1.6756e-06	1.7988e-06	420.78	131.61	1.0275e-06	1.1579e-06	128.77	49.673	49.059	20.728	1.0661e-06	22.392	6.3708e-05	4.954e-05	1.3659e-05	389.75	5.9613e-07	5.5305e-07	389.35	121.61	5.7305e-07	5.763e-07	118.69	46.154	44.984	19.346	5.7861e-07	20.86	177.684	-93.852	-93.845	-161.909	-40.773	-8.128	-163.502	-156.721	-78.224	-1.343	-159.874	-156.515	-153.187	-150.583	6.063	-153.546	-8191	255	
8682.899	1	1	0	0	0.026666	0.13059	0.25105	0.14237	0.056359	0.2941	0.14084	0.15102	0.067307	0.086126	0.17968	0.091207	0.086075	0.10995	0.15361	0.11407	-2.6375	-2.425	-2.5896	-3.0354	-2.2562	-2.8312	-2.8646	-2.2833	-3.1688	-2.5625	-2.675	-3.1562	-2.4646	-2.7896	-2.7687	-2.3271	138.314	-161.490	-10.980	167.796	57.347	71.001	26.936	153.506	52.207	107.674	-155.077	121.126	56.357	71.660	-84.300	65.764	0.00027344	0.00025739	8.8753e-05	426.46	1.4814e-06	6.5416e-08	421.66	130.58	1.2179e-06	2.3174e-06	130.02	49.931	48.908	20.78	1.1541e-06	22.57	6.4895e-05	5.2864e-05	1.4115e-05	391.95	5.7585e-07	5.5535e-07	389.8	121.47	5.6712e-07	5.4513e-07	119.5	46.275	45	19.406	5.7783e-07	20.951	173.927	-109.182	-78.757	-161.516	-42.692	-144.134	-163.379	-156.607	-87.809	-20.456	-159.806	-156.470	-153.901	-150.666	-30.774	-153.252	-8191	255	
8682.996	1	1	0	0	0.14737	0.13714	0.30557	0.23087	0.22459	0.20703	0.12894	0.38921	0.024232	0.020968	0.36561	0.21444	0.36618	0.29392	0.060368	0.29378	-2.6917	-2.4292	-2.4396	-2.8396	-2.2875	-2.8396	-2.7313	-2.3104	-2.9604	-2.55	-2.4437	-3.0479	-2.4333	-2.6375	-2.9542	-2.1896	143.215	-7.590	133.246	173.043	93.752	-101.140	150.284	96.014	168.113	-138.648	97.351	-160.222	-128.762	-138.609	85.834	83.979	0.00027048	0.00020707	4.5349e-05	424.99	1.9355e-06	1.071e-06	420.63	131.1	2.1333e-06	2.6438e-06	128.7	49.778	49.049	20.841	1.1233e-06	22.294	6.4517e-05	4.8816e-05	1.4502e-05	390.53	5.8727e-07	5.593e-07	389.04	121.73	5.7787e-07	5.3797e-07	118.91	46.151	44.908	19.344	5.8108e-07	20.804	179.966	-97.083	-66.930	-162.334	-25.995	-56.386	-163.657	-156.477	-72.359	-12.421	-159.000	-156.155	-153.406	-149.997	-77.677	-153.588	-8191	255	
8683.092	1	1	0	0	0.19092	0.096158	0.089685	0.12973	0.39483	0.25115	0.13414	0.1725	0.12284	0.31036	0.33388	0.11634	0.10019	0.13552	0.059639	0.23101	-2.5458	-2.7188	-2.3896	-3.0667	-2.375	-2.5979	-2.9875	-2.2042	-2.9792	-2.4792	-2.3	-3.1583	-2.4104	-2.4667	-2.9729	-2.4021	-54.796	-143.760	131.312	-125.148	-140.819	27.347	-88.441	23.837	81.970	93.055	-36.999	-126.410	106.619	173.598	158.834	-124.908	0.00023375	0.00030629	6.2624e-05	423.16	4.9169e-07	1.4006e-06	418.48	131.82	1.9448e-06	2.6703e-06	129.53	49.65	49.132	20.623	1.158e-06	22.267	6.0789e-05	5.0767e-05	1.5021e-05	390.24	5.6975e-07	5.5049e-07	389.59	121.5	5.6037e-07	5.6623e-07	119.49	46.094	44.792	19.216	5.6484e-07	20.672	179.600	-96.379	-132.856	-162.462	-82.117	-100.197	-163.216	-156.556	-40.646	-34.159	-159.527	-156.417	-152.995	-150.469	-67.327	-153.467	-8191	255	
8683.188	1	1	0	0	0.041126	0.056188	0.14454	0.12905	0.36275	0.11678	0.044185	0.15745	0.073182	0.35625	0.26967	0.037788	0.11175	0.1028	0.19	0.068006	-2.6521	-2.6958	-2.2438	-2.9167	-2.4188	-2.4062	-3.0708	-2.0792	-2.7562	-2.9542	-2.2854	-2.9646	-2.5979	-2.4646	-2.8979	-2.3083	-147.794	40.439	12.199	22.617	101.443	20.031	-132.966	99.753	71.149	-7.082	149.644	-32.089	-145.975	-102.968	-64.394	-113.435	0.00025982	0.00022103	6.3289e-06	421.5	2.4283e-06	2.292e-06	418.3	129.43	1.4833e-06	1.1205e-06	130.15	49.942	49.12	20.616	1.6107e-06	22.294	6.0396e-05	5.2176e-05	1.4414e-05	389.86	5.614e-07	5.7992e-07	388.78	120.87	5.8535e-07	5.4009e-07	119.13	46.112	44.655	19.262	5.926e-07	20.741	180.738	-62.804	-52.371	-162.163	-56.548	-112.090	-163.204	-156.894	-112.164	-42.793	-159.424	-156.027	-152.789	-150.955	-108.292	-153.440	-8191	255	
8683.284	1	1	0	0	0.22064	0.10091	0.057739	0.15911	0.10126	0.27749	0.1238	0.028139	0.16273	0.13188	0.21119	0.19051	0.11176	0.15498	0.15841	0.032782	-2.3854	-2.7708	-2.1667	-2.7896	-2.3417	-2.3958	-3.1604	-2.2687	-2.6979	-3.0083	-2.3229	-3.1792	-2.6437	-2.0896	-2.9208	-2.4313	52.795	-132.854	63.602	-145.587	-143.071	-79.550	-174.048	4.974	55.762	68.795	46.358	103.713	38.316	108.701	-159.631	-158.035	0.00025138	0.00011454	4.932e-05	426.88	8.5725e-07	2.0257e-06	417.9	130	2.0364e-06	3.8736e-06	129.39	50.002	49.271	21.207	3.085e-06	22.759	6.2492e-05	5.2069e-05	1.4362e-05	390.86	5.5336e-07	5.7046e-07	388.33	121.12	6.155e-07	6.0322e-07	118.89	46.336	44.93	19.537	6.0295e-07	21.018	179.952	-69.776	-138.091	-161.857	59.745	-53.122	-163.263	-156.461	-81.871	-39.277	-159.086	-156.145	-153.024	-150.223	-46.717	-154.014	-8191	255	
8683.405	1	1	0	0	0.082937	0.14481	0.065103	0.22747	0.19224	0.29174	0.16073	0.25979	0.1809	0.040214	0.21562	0.19669	0.27515	0.07555	0.17521	0.059747	-2.1375	-2.9188	-2.1646	-2.9917	-2.7208	-2.3125	-3.1521	-2.5146	-2.5729	-2.9437	-2.0417	-2.7313	-2.7146	-2.1792	-2.7917	-2.4125	137.175	14.464	-154.647	-153.214	126.772	69.165	91.653	81.013	161.851	177.326	100.047	-56.153	-29.722	107.552	149.945	-34.945	0.00025204	0.00045554	6.0284e-05	425.72	8.8285e-07	1.0235e-06	422.64	131.24	2.0382e-06	1.6066e-06	131.2	50.7	49.347	21.065	1.0281e-06	22.953	6.6239e-05	5.658e-05	1.4957e-05	392.52	6.1482e-07	6.0522e-07	390.63	122.1	6.2415e-07	5.9883e-07	119.88	46.739	45.258	19.592	5.7961e-07	21.246	182.465	-105.589	-117.237	-161.313	-46.883	-26.820	-163.318	-157.219	-16.578	-8.108	-159.374	-156.442	-153.115	-150.443	171.093	-153.888	-8191	255	
8683.501	1	1	0	0	0.32386	0.11489	0.083227	0.23529	0.047953	0.15028	0.26892	0.32818	0.07964	0.18993	0.22191	0.16119	0.25451	0.21838	0.1803	0.19267	-1.9646	-2.9833	-2.1937	-2.6833	-2.7417	-2.275	-3.0646	-2.4437	-2.3021	-2.9729	-2.3583	-2.4917	-2.8417	-2.1521	-2.9458	-2.5021	-16.589	124.408	159.806	-114.587	161.053	-38.702	-169.577	94.091	106.176	-28.655	97.266	-18.185	14.494	-168.830	111.088	163.800	0.00027193	0.00019721	5.6664e-05	429.45	1.0454e-06	1.2241e-06	424.07	131.41	3.2984e-06	1.7178e-06	130.31	50.928	49.794	21.092	1.1037e-06	23.002	6.7336e-05	5.1558e-05	1.5124e-05	394.56	5.8324e-07	6.1173e-07	393.01	122.23	6.0363e-07	5.8116e-07	120.3	47.063	45.531	19.695	5.7991e-07	21.305	182.609	-100.020	-69.820	-161.448	-67.674	6.252	-163.515	-156.489	-49.612	7.167	-159.358	-156.122	-153.999	-150.865	-29.133	-154.147	-8191	255	
8683.595	1	1	0	0	0.13325	0.010742	0.24653	0.083464	0.19894	0.41557	0.41432	0.19768	0.1238	0.33188	0.091745	0.034886	0.093664	0.52548	0.19715	0.11162	-2.0583	-3.0417	-2.2	-2.6646	-2.9833	-2.0896	-2.9833	-2.5708	-2.3854	-2.9625	-2.3854	-2.6188	-3.0083	-2.3208	-2.9479	-2.7229	185.293	19.579	91.811	93.740	-8.752	64.883	-147.605	45.541	-90.989	31.383	-128.455	-58.118	81.419	180.481	60.205	-154.000	0.00024803	0.00024203	7.7905e-05	426.9	3.3143e-06	2.1041e-06	420.32	130.72	2.8466e-06	1.3276e-06	129.34	50.45	49.009	21.168	1.2261e-06	22.685	6.3761e-05	5.2358e-05	1.4355e-05	393.1	6.0807e-07	6.0778e-07	389.72	122.04	6.1353e-07	5.75e-07	119.32	46.701	45.106	19.639	5.9446e-07	21.096	169.742	-79.257	-60.284	-161.278	-22.952	-57.221	-163.472	-156.646	-45.819	28.303	-159.031	-156.174	-153.130	-150.819	-80.162	-153.737	-8191	255	
8683.693	1	1	0	0	0.15914	0.069317	0.16002	0.2298	0.15904	0.057805	0.18063	0.14025	0.0040979	0.079198	0.13823	0.16452	0.041702	0.37031	0.25514	0.11426	-1.9688	-3.05	-2.3354	-2.5667	-3.1896	-2.2146	-2.7313	-2.9479	-2.1792	-3.125	-2.6375	-2.5333	-3.0229	-2.3104	-2.8021	-2.9	56.638	110.496	130.459	100.030	105.019	35.240	55.354	-22.265	-48.784	80.331	46.573	69.206	138.629	160.276	-23.343	71.609	0.00024038	0.00011451	4.5093e-05	428.25	1.2506e-06	1.1401e-06	419.08	129.29	1.1943e-06	1.8002e-06	130.25	49.882	49.105	20.815	1.9079e-06	22.491	6.6187e-05	5.1262e-05	1.4532e-05	391.04	5.7766e-07	5.6998e-07	388.27	121.05	6.2011e-07	5.7413e-07	119.35	46.168	44.847	19.429	6.0031e-07	20.937	178.723	-105.147	54.419	-161.516	-7.361	17.671	-163.238	-156.556	36.659	-34.021	-159.177	-156.279	-153.254	-150.740	-26.858	-153.455	-8191	255	
8683.787	1	1	0	0	0.1458	0.065237	0.23774	0.26115	0.096351	0.12591	0.082729	0.38708	0.10583	0.1154	0.18484	0.14877	0.10613	0.14942	0.2748	0.094546	-1.9729	-2.9625	-2.6063	-2.3625	-3.0958	-2.5021	-2.7313	-2.8771	-2.3604	-3.0458	-2.7438	-2.3417	-3	-2.4354	-2.4833	-2.9729	156.185	-67.845	-13.100	-135.465	-161.593	129.293	-20.238	75.204	-3.178	46.029	153.640	-128.054	48.936	7.724	181.239	-122.172	0.00027085	7.9922e-05	7.736e-05	426.65	2.3681e-06	7.5287e-07	420.32	129.72	9.7716e-07	2.3455e-07	129.54	50.033	49.957	20.682	1.548e-06	22.587	6.4117e-05	5.1772e-05	1.464e-05	392.08	6.0855e-07	5.8022e-07	389.06	121.07	6.1912e-07	5.7404e-07	119.84	46.49	45.127	19.38	6.0074e-07	21.056	180.703	-44.399	-53.496	-161.446	-53.286	-75.082	-163.177	-156.984	-29.709	38.904	-159.096	-156.104	-153.745	-150.507	-125.936	-153.843	-8191	255	
8683.884	1	1	0	0	0.3834	0.16696	0.31154	0.11167	0.12712	0.15014	0.15731	0.23313	0.18033	0.36514	0.28088	0.29052	0.039892	0.11757	0.18408	0.037427	-1.8354	-2.9583	-2.6646	-2.3563	-3.0062	-2.3208	-2.6479	-2.9292	-2.3792	-2.9688	-2.8521	-2.3625	-2.9604	-2.5375	-2.5438	-3.0271	169.664	95.338	77.976	-85.252	14.848	92.500	82.144	109.774	-93.222	16.284	93.898	-170.828	70.363	122.035	-161.145	78.984	0.00028742	0.0001989	5.8539e-05	426.99	3.5319e-06	3.1645e-06	420.01	129.39	2.6267e-06	1.1042e-06	129.74	50.172	48.673	20.75	2.0834e-06	22.648	6.8418e-05	5.4965e-05	1.489e-05	393.53	6.2005e-07	6.1043e-07	390.93	120.9	5.8308e-07	5.8633e-07	119.74	46.609	44.865	19.332	6.2837e-07	20.977	183.471	-47.579	-137.345	-161.276	-41.858	-77.090	-163.315	-156.799	-82.730	-13.815	-159.301	-155.528	-153.374	-150.618	-9.629	-153.545	-8191	255	
8683.980	1	1	0	0	0.12619	0.12542	0.066129	0.19042	0.19308	0.076928	0.14141	0.097717	0.2953	0.079554	0.12524	0.09816	0.29051	0.24817	0.14191	0.084804	-2.0083	-2.7479	-2.7333	-2.3521	-2.9938	-2.6375	-2.4729	-3.1	-2.1979	-2.8021	-2.9938	-2.2979	-3.0271	-2.5979	-2.3604	-3.0792	-164.052	69.796	-72.553	-108.104	-13.451	175.583	76.380	133.004	123.938	-103.941	-98.902	117.431	172.389	-166.145	157.508	27.357	0.00025588	0.00031652	4.2983e-05	424.74	1.8004e-06	1.8559e-06	418.34	129.99	2.6624e-06	2.2433e-06	129.06	49.746	48.507	20.545	1.828e-06	22.121	6.622e-05	5.3612e-05	1.5337e-05	391.34	5.5184e-07	5.8417e-07	387.58	120.44	6.1017e-07	5.8325e-07	118.78	46.159	44.353	19.11	6.0109e-07	20.565	170.343	-91.889	-51.122	-161.996	-82.448	-61.050	-163.188	-156.493	-22.239	-83.995	-159.012	-155.755	-153.287	-150.004	-38.343	-153.485	-8191	255	
8684.100	1	1	0	0	0.12702	0.12103	0.15187	0.41471	0.070056	0.090425	0.20641	0.085063	0.076289	0.24732	0.25906	0.27669	0.24165	0.43689	0.46041	0.15785	-1.9896	-2.5375	-2.8771	-2.2333	-2.9896	-2.8146	-2.5292	-2.9625	-2.4562	-2.6125	-3.0375	-2.2396	-2.9292	-2.8479	-2.2687	-2.9771	175.207	115.994	-138.105	62.668	13.260	-135.933	146.436	142.696	22.017	151.944	82.740	100.633	141.498	44.184	-69.683	123.506	0.00025398	0.00012696	4.3102e-05	424.22	2.8376e-06	1.7654e-06	415.92	130.43	1.445e-06	1.7982e-06	127.31	49.23	48.346	20.269	1.0427e-06	22.022	6.3458e-05	5.472e-05	1.4422e-05	389.33	5.9363e-07	5.8691e-07	386.53	120.65	5.9533e-07	6.0113e-07	117.94	45.665	44.188	18.883	6.1088e-07	20.407	174.762	-46.134	28.448	-161.879	-29.055	-87.262	-162.881	-156.363	-35.398	9.503	-159.369	-155.496	-153.391	-150.222	-21.447	-153.243	-8191	255	
8684.197	1	1	0	0	0.16308	0.14242	0.39419	0.20287	0.061878	0.14388	0.26706	0.23014	0.19939	0.23071	0.33421	0.11293	0.17745	0.12531	0.019651	0.12178	-2.15	-2.35	-3.0042	-2.2542	-2.7292	-2.7604	-2.4375	-3.0146	-2.4479	-2.5583	-3.1875	-2.3896	-2.8729	-2.9271	-2.1771	-2.9208	129.176	80.154	122.372	111.659	42.016	-113.626	173.671	-74.924	-77.559	168.876	-135.448	144.067	-43.021	81.035	-111.153	-140.236	0.0002407	6.1797e-05	8.2844e-05	425.22	1.2243e-06	1.1297e-06	417.03	129.42	1.7444e-06	1.6202e-06	127.23	49.005	48.102	20.256	2.1571e-06	22.075	6.4083e-05	5.3707e-05	1.5114e-05	389.39	5.8887e-07	5.7875e-07	386.76	119.72	5.903e-07	5.7899e-07	117.82	45.613	44.176	18.876	5.9108e-07	20.54	175.931	-127.223	-66.133	-162.072	-84.937	-28.968	-162.937	-156.627	-48.468	-56.027	-159.371	-156.048	-153.095	-150.212	-38.396	-153.387	-8191	255	
8684.268	1	1	0	0	0.060159	0.028226	0.16232	0.077717	0.19189	0.095775	0.22997	0.037418	0.054258	0.26772	0.06184	0.27986	0.22689	0.035436	0.042217	0.18549	-2.1375	-2.4583	-3.0687	-2.3125	-2.6229	-2.9208	-2.2333	-2.9562	-2.6813	-2.4021	-2.9146	-2.3063	-2.6833	-3.0125	-2.4521	-2.9708	96.278	-66.627	64.971	0.347	-50.320	18.772	151.019	-62.103	66.411	39.800	-126.140	127.923	181.940	127.997	130.719	81.364	0.00025733	0.0001179	4.6853e-05	423.6	2.2241e-06	7.1334e-07	419.81	129.26	2.7062e-06	3.3701e-06	128.9	49.921	48.384	20.358	1.4711e-06	22.409	6.4e-05	5.4376e-05	1.4489e-05	389.64	5.7252e-07	5.6503e-07	388.22	120.53	5.8742e-07	5.9045e-07	118.92	46.025	44.267	18.956	5.9719e-07	20.692	180.099	-121.834	-97.681	-161.974	-44.869	-114.421	-163.111	-156.497	-65.675	-47.624	-159.277	-155.853	-153.654	-150.449	-106.968	-152.956	-8191	255	
8684.364	1	1	0	0	0.18135	0.24772	0.28622	0.13438	0.15136	0.19285	0.11697	0.23766	0.12388	0.085042	0.32586	0.30105	0.18515	0.36453	0.054649	0.37028	-2.4479	-2.1667	-2.9958	-2.4667	-2.7042	-3.0708	-2.4062	-2.825	-2.9458	-2.2438	-2.9	-2.3958	-2.5854	-2.9292	-2.3333	-2.7146	30.144	182.345	145.294	-47.468	180.039	-116.675	-170.668	130.449	-102.050	53.774	156.237	72.548	124.599	182.850	-137.884	177.031	0.0002746	0.00012061	2.0708e-05	430.02	2.6226e-06	3.3994e-06	420.81	129.54	1.2786e-06	1.3162e-06	129.06	49.802	48.3	20.401	1.1179e-06	22.107	6.4176e-05	5.4114e-05	1.5147e-05	392.21	5.986e-07	5.7944e-07	389.82	120.41	5.8643e-07	6.0087e-07	119.06	45.926	44.491	18.978	5.9823e-07	20.537	181.017	185.170	-116.868	-162.032	-29.805	-68.180	-163.533	-156.445	-33.275	-136.537	-159.057	-155.885	-153.224	-150.163	-123.563	-153.340	-8191	255	
8684.485	1	1	0	0	0.13441	0.03047	0.18763	0.33315	0.14776	0.21972	0.10127	0.025354	0.063335	0.21902	0.38985	0.37729	0.071048	0.16806	0.24912	0.2423	-2.6021	-2.2208	-2.9958	-2.4896	-2.3625	-3.0292	-2.3646	-2.6312	-2.6958	-2.3167	-3.0438	-2.6063	-2.3083	-3.075	-2.5	-2.6083	-41.575	-106.131	-80.491	86.305	156.810	-14.052	-155.548	155.035	176.717	123.182	135.967	99.286	92.046	-74.065	5.204	142.783	0.00020509	0.00028347	5.5482e-05	423.66	2.7359e-06	3.857e-06	418.47	129.42	8.8477e-07	3.6733e-06	128.15	49.46	48.796	20.382	1.7339e-06	22.247	6.5651e-05	5.3462e-05	1.3961e-05	389.22	5.8329e-07	5.6117e-07	388.09	119.95	5.8368e-07	6.1316e-07	117.89	45.693	44.356	18.994	5.8121e-07	20.668	-168.053	-60.586	-91.175	-161.733	-29.562	-41.539	-163.322	-156.199	-143.894	-34.145	-158.566	-155.756	-152.770	-150.607	-23.301	-152.858	-8191	255	
8684.581	1	1	0	0	0.10792	0.017809	0.12845	0.16061	0.36774	0.057031	0.15576	0.18423	0.1574	0.12928	0.20336	0.34553	0.11439	0.16091	0.23476	0.23557	-2.5479	-2.3646	-2.8937	-2.7313	-2.3792	-3.0438	-2.5292	-2.6188	-2.9188	-2.2	-2.8375	-2.7083	-2.2042	-3.0104	-2.3458	-2.3271	75.047	-171.304	-13.420	159.069	-109.624	-127.066	166.615	46.664	93.058	-0.066	-47.374	-144.163	72.841	-99.588	145.975	-142.285	0.00023674	0.00011803	5.9462e-05	427.79	2.6954e-06	3.5141e-06	418.05	129	3.4111e-06	2.9662e-06	128.03	49.104	48.666	20.435	1.4534e-06	22.291	6.6774e-05	5.3066e-05	1.4475e-05	390.78	6.0262e-07	6.0149e-07	388.04	120.18	6.0931e-07	5.8303e-07	118.41	45.785	44.383	18.987	6.1148e-07	20.563	178.837	-132.479	15.792	-162.060	-109.759	-75.090	-163.072	-156.360	-51.291	-29.586	-158.904	-156.196	-153.040	-150.149	-66.274	-153.040	-8191	255	
8684.677	1	1	0	0	0.069372	0.37131	0.086668	0.2059	0.19897	0.06265	0.17344	0.09845	0.25852	0.1853	0.028226	0.24561	0.19222	0.053616	0.073567	0.066267	-2.775	-2.1583	-2.8917	-2.9813	-2.3812	-3.2188	-2.6	-2.4104	-3.0792	-2.2	-2.7833	-2.8708	-2.0896	-2.9792	-2.7208	-2.4042	135.048	86.775	-51.092	34.434	122.080	147.348	124.569	-80.343	103.541	111.817	101.433	107.450	38.154	33.018	-135.907	175.566	0.00026501	9.5524e-05	6.6893e-06	422.91	2.8095e-06	1.4666e-06	416.9	129.68	1.2622e-06	2.7314e-06	127.31	49.511	48.731	20.405	1.617e-06	22.237	6.6037e-05	5.2745e-05	1.5042e-05	390.26	6.2256e-07	5.6351e-07	387.54	120.7	5.888e-07	6.0469e-07	118.66	46.035	44.428	19.073	6.2482e-07	20.724	171.306	-85.972	-170.228	-161.620	-53.588	-62.945	-163.077	-156.390	-22.149	-11.711	-159.233	-155.728	-153.658	-150.351	-60.876	-152.932	-8191	255	
8684.773	1	1	0	0	0.20148	0.23779	0.064068	0.17879	0.2904	0.13403	0.19815	0.17333	0.18328	0.25171	0.29155	0.28534	0.0067658	0.063899	0.30091	0.27514	-2.4688	-2.3271	-2.625	-3.0604	-2.3083	-2.9188	-2.7417	-2.3729	-2.9688	-2.5938	-2.725	-3.0125	-2.4604	-3.0042	-2.7646	-2.2542	17.397	-90.813	77.031	106.247	-104.019	75.924	144.836	149.164	-90.211	87.646	-112.596	158.563	28.385	-116.272	-56.404	169.235	0.00024132	0.00024105	1.4996e-05	424.08	2.2467e-06	2.351e-06	419.6	130.17	2.2821e-06	4.1404e-06	127.91	49.47	48.301	20.37	1.6662e-06	22.253	6.576e-05	5.5551e-05	1.5076e-05	390.78	6.2793e-07	5.8864e-07	389.15	120.67	5.9753e-07	5.967e-07	119.06	45.896	44.24	18.953	6.2084e-07	20.619	177.513	-136.828	-172.650	-161.113	-46.102	-7.715	-163.169	-156.446	-60.224	-2.466	-159.073	-155.992	-153.016	-150.053	-24.864	-153.309	-8191	255	
8684.892	1	1	0	0	0.16673	0.16405	0.1027	0.27327	0.070363	0.09331	0.098546	0.20317	0.13637	0.095788	0.18506	0.037343	0.26887	0.24501	0.10082	0.38462	-2.7229	-2.4604	-2.5396	-3.0792	-2.1562	-2.9375	-2.8771	-2.2667	-2.8792	-2.3792	-2.6521	-2.9188	-2.325	-2.7938	-3.0479	-2.2417	128.910	28.139	-169.353	132.100	184.528	-30.181	-75.670	29.198	-17.183	-33.866	-113.961	-64.564	12.074	108.158	58.612	111.457	0.00024186	0.00024445	4.4129e-05	424.1	8.29e-07	1.4347e-06	414.67	128.83	1.5702e-06	2.2357e-06	126.81	49.213	47.788	20.077	1.6191e-06	21.951	6.5711e-05	5.4941e-05	1.5176e-05	389.34	5.832e-07	5.8152e-07	387.22	119.5	5.6888e-07	5.8685e-07	117.48	45.396	43.764	18.763	6.1655e-07	20.305	178.730	-72.635	-72.195	-161.360	-54.807	-35.455	-163.070	-156.377	-79.054	-25.103	-158.756	-155.946	-153.465	-149.877	-26.322	-153.440	-8191	255	
8684.966	1	1	0	0	0.13121	0.061391	0.28208	0.1935	0.092894	0.11743	0.13953	0.17759	0.11501	0.17151	0.095437	0.16759	0.1966	0.11218	0.10879	0.036051	-2.55	-2.5229	-2.4521	-3.1125	-2.3646	-2.6875	-2.9417	-2.2646	-2.9771	-2.5458	-2.3146	-3.1312	-2.4792	-2.7146	-2.9208	-2.325	84.355	65.845	-19.338	183.916	107.199	-61.945	105.906	110.229	-2.791	-117.662	-170.094	138.392	184.677	-118.374	120.858	-123.457	0.00025557	0.00023769	3.6576e-05	428.74	2.0888e-06	1.2301e-06	411.43	128.08	2.0661e-06	1.4285e-06	127.18	48.296	47.487	20.008	1.7251e-06	21.927	6.2982e-05	5.3418e-05	1.5725e-05	391.37	5.9094e-07	5.6781e-07	384.64	119.25	5.9e-07	5.9605e-07	117.48	45.245	43.578	18.711	6.0867e-07	20.337	173.427	-112.931	-110.003	-161.654	-55.491	-134.123	-162.959	-155.948	-13.355	59.354	-159.077	-155.970	-153.539	-149.661	-55.856	-153.231	-8191	255	
8685.085	1	1	0	0	0.13863	0.079945	0.068688	0.18122	0.086471	0.059713	0.19544	0.081518	0.19484	0.076999	0.10252	0.017588	0.22126	0.2839	0.14444	0.099548	-2.5146	-2.5083	-2.2479	-2.9792	-2.4188	-2.4792	-3.0125	-2.2125	-3.0125	-2.8979	-2.4562	-3.1167	-2.3833	-2.5271	-3.0104	-2.3063	-97.820	161.767	98.302	73.217	78.332	184.398	65.865	-53.435	108.449	122.494	-136.654	-93.554	-19.317	112.376	47.037	-92.396	0.00020603	0.00033749	8.2992e-05	422.68	1.1674e-06	8.8309e-07	421.23	128.48	2.0092e-06	2e-06	128.46	49.197	47.109	20.174	9.7693e-07	21.858	6.5071e-05	5.0929e-05	1.5743e-05	388.75	6.031e-07	5.7792e-07	388.17	119.11	6.134e-07	5.8984e-07	118.17	45.615	43.727	18.735	5.8208e-07	20.325	-170.499	-44.012	-93.005	-161.847	-63.389	-71.195	-162.985	-156.117	-53.006	-9.842	-159.220	-156.105	-153.202	-150.280	-77.075	-153.762	-8191	255	
8685.181	1	1	0	0	0.096094	0.1297	0.23297	0.27012	0.07893	0.10969	0.10973	0.11391	0.19466	0.076701	0.23827	0.081031	0.26236	0.057277	0.096338	0.26456	-2.3208	-2.7646	-2.4375	-2.9333	-2.4271	-2.4979	-3.1792	-2.3917	-2.8312	-2.7062	-2.2333	-2.8958	-2.6104	-2.4604	-2.9042	-2.4458	102.623	-75.341	146.101	119.682	83.546	-147.920	136.264	173.704	-101.053	42.462	131.099	92.360	-53.249	-24.000	-100.763	110.902	0.00023568	0.00023564	7.574e-05	423.4	1.3236e-06	2.6064e-06	423.9	127.76	2.5475e-06	4.5124e-07	127.84	49.198	47.307	20.197	1.906e-06	22.036	6.5715e-05	5.5021e-05	1.5048e-05	389.61	5.9501e-07	5.9915e-07	390.46	119.04	6.0677e-07	6.027e-07	118.91	45.792	43.76	18.722	5.9836e-07	20.433	172.368	-100.782	-85.895	-161.235	5.301	-57.970	-162.951	-156.435	-60.359	-145.211	-158.836	-155.484	-152.991	-150.070	-72.917	-153.029	-8191	255	
8685.277	1	1	0	0	0.10985	0.17478	0.39377	0.086064	0.07407	0.17065	0.11644	0.39422	0.11346	0.055349	0.24482	0.17783	0.090718	0.31926	0.096944	0.14381	-2.3458	-2.8625	-2.2562	-2.9646	-2.8479	-2.3417	-2.9521	-2.4521	-2.5542	-3.0979	-2.2333	-2.7354	-2.5687	-2.3333	-2.9938	-2.4521	-86.803	49.214	158.570	-78.619	179.237	168.503	109.151	128.898	109.285	-65.890	100.749	-82.772	47.341	146.424	78.117	84.818	0.00025942	0.00024804	0.00011473	424.34	2.3962e-06	1.908e-06	419.45	127.29	1.7716e-06	1.0269e-06	127.66	49.176	47.605	19.847	1.4808e-06	21.858	6.558e-05	5.3648e-05	1.5204e-05	389.17	5.7568e-07	5.9932e-07	387.55	118.7	6.1404e-07	6.1142e-07	117.73	45.42	43.495	18.596	6.0295e-07	20.276	183.064	-57.909	-102.561	-161.489	-51.056	-5.249	-162.836	-156.354	-55.829	-74.917	-158.924	-156.439	-153.476	-150.129	-11.250	-153.285	-8191	255	
8685.373	1	1	0	0	0.17632	0.081082	0.14822	0.15677	0.28442	0.13824	0.11516	0.23861	0.18509	0.071982	0.063352	0.1953	0.079482	0.24845	0.22787	0.053945	-2.0792	-3.0271	-2.1688	-2.6708	-2.9979	-2.3312	-2.8375	-2.5208	-2.5958	-3.0646	-2.55	-2.8083	-2.7812	-2.3208	-2.925	-2.6042	-46.563	-153.914	-68.080	65.060	72.190	-122.823	112.371	-140.775	53.307	138.174	163.488	-172.528	0.179	139.897	64.049	-124.985	0.00024422	0.00022725	5.8183e-05	424.33	1.7948e-06	8.1361e-07	416.74	127.69	1.7851e-06	3.0417e-06	127.44	49.113	47.411	20.093	1.7321e-06	21.967	6.7564e-05	5.1641e-05	1.5142e-05	388.1	5.9025e-07	6.0943e-07	386.46	118.88	6.0712e-07	5.7513e-07	117.3	45.464	43.686	18.634	5.9931e-07	20.221	171.916	-122.419	-65.755	-161.242	-53.344	79.858	-162.841	-156.479	-5.444	-61.277	-159.154	-155.812	-153.584	-150.101	-97.441	-153.361	-8191	255	
8685.494	1	1	0	0	0.17204	0.1259	0.11364	0.15005	0.16727	0.24472	0.078583	0.068612	0.40772	0.082964	0.19973	0.36854	0.1823	0.25078	0.25905	0.19016	-1.8479	-2.7042	-2.3646	-2.8	-3.0125	-2.3187	-2.9542	-2.6646	-2.4167	-3.1271	-2.3937	-2.7146	-3.0187	-2.2021	-2.8896	-2.8208	69.752	66.424	72.769	-123.858	68.605	153.032	0.548	66.528	-137.423	58.056	159.064	99.703	-125.761	-83.169	-151.082	3.644	0.00022611	0.0001903	3.851e-05	421.18	6.0714e-07	7.3708e-07	416.74	127.95	1.974e-06	2.0248e-06	126.72	48.7	47.569	19.901	1.1697e-06	21.855	6.9833e-05	5.4027e-05	1.5122e-05	387.89	5.8195e-07	5.7384e-07	386.48	118.65	6.3262e-07	5.6953e-07	116.9	45.331	43.321	18.466	5.8467e-07	20.225	179.187	34.891	-113.710	-161.090	-120.444	-105.624	-162.929	-156.077	-59.535	5.601	-159.107	-155.728	-153.274	-150.014	13.281	-153.424	-8191	255	
8685.565	1	1	0	0	0.41102	0.26777	0.16039	0.033751	0.33948	0.29951	0.099174	0.12106	0.15431	0.16239	0.037999	0.14863	0.17183	0.32631	0.12814	0.24454	-1.9208	-3.0646	-2.5292	-2.5938	-2.8812	-2.3146	-2.8396	-2.8354	-2.2083	-2.9396	-2.475	-2.5542	-3.0271	-2.3063	-2.725	-2.8312	-152.845	-124.063	170.187	75.929	48.586	-64.445	78.690	-27.201	-50.658	41.773	-9.013	-86.733	-121.374	161.405	105.015	-139.624	0.0002349	0.00018965	1.6644e-05	422.68	1.6121e-06	1.2786e-06	418.2	126.81	1.645e-06	4.4419e-07	128.75	48.872	47.761	20.146	1.2471e-06	21.913	6.6052e-05	5.3078e-05	1.5447e-05	387.79	5.96e-07	5.6659e-07	386.64	118.01	6.3529e-07	5.7252e-07	118.26	45.476	43.631	18.576	6.0676e-07	20.234	171.230	-67.138	-51.976	-161.370	-74.527	-159.964	-163.012	-155.901	-41.433	-7.589	-158.757	-155.999	-153.244	-149.786	-59.571	-153.435	-8191	255	
8685.662	1	1	0	0	0.16593	0.24651	0.2147	0.23448	0.11999	0.035207	0.33164	0.16992	0.14153	0.16781	0.30843	0.23158	0.026137	0.11482	0.16969	0.2509	-1.9083	-3.0917	-2.3896	-2.2062	-2.925	-2.1708	-2.5521	-2.7396	-1.875	-2.9167	-2.4104	-2.4083	-2.8479	-2.3667	-2.5042	-2.9188	178.331	141.190	30.776	-116.458	-111.086	160.889	-153.290	95.332	154.495	-164.805	50.792	-23.764	1.777	176.980	-10.657	59.154	0.00025029	0.00011218	9.8748e-05	421.46	1.6624e-06	1.365e-06	420.63	127.49	1.1795e-06	1.9107e-06	128.67	48.818	47.676	19.892	2.4401e-06	21.808	6.5153e-05	5.1448e-05	1.534e-05	388.66	5.755e-07	5.7332e-07	388.49	118.65	6.3374e-07	5.9223e-07	117.68	45.27	43.524	18.506	6.094e-07	20.21	182.725	-56.156	-91.482	-161.282	-76.002	-72.114	-162.947	-156.409	-94.019	-47.036	-159.176	-156.106	-153.077	-149.598	-48.825	-152.637	-8191	255	
8685.782	1	1	0	0	0.10642	0.26327	0.12504	0.14389	0.078814	0.075081	0.14412	0.11444	0.21306	0.068968	0.11083	0.19852	0.23661	0.27146	0.16239	0.13855	-1.7375	-2.7687	-2.5271	-2.3604	-3.0104	-2.2896	-2.4813	-2.8021	-1.9875	-2.9292	-2.7396	-2.2146	-3.1208	-2.4792	-2.5563	-2.85	-72.111	-81.163	181.134	148.366	-172.378	-161.134	105.184	142.235	185.063	-146.444	-45.970	169.146	140.011	-169.137	168.241	26.309	0.00020881	9.5674e-05	1.84e-05	423.06	1.9792e-06	1.2209e-06	415.77	126.2	1.8684e-06	2.603e-06	126.34	48.91	47.174	19.841	3.8671e-06	21.676	6.2297e-05	5.1159e-05	1.4915e-05	387.52	5.8035e-07	6.0027e-07	385.73	117.99	6.1692e-07	5.8424e-07	116.98	45.074	43.342	18.478	6.1066e-07	20.141	176.221	-114.704	-134.375	-161.539	-77.111	-5.525	-162.741	-156.587	-60.400	-31.475	-159.010	-155.675	-152.790	-150.169	-71.532	-153.234	-8191	255	
8685.877	1	1	0	0	0.14032	0.032519	0.06897	0.065065	0.12646	0.21139	0.26435	0.17979	0.21304	0.11498	0.20491	0.10457	0.070027	0.13235	0.11395	0.13125	-1.8375	-2.6667	-2.4625	-2.3125	-2.8563	-2.4333	-2.4938	-2.9583	-2.2625	-2.8104	-2.7708	-2.2021	-2.9042	-2.4667	-2.2604	-2.8792	-3.693	5.406	-2.203	106.926	36.238	-120.944	100.951	123.274	-141.253	-79.806	132.411	-170.212	-15.375	-124.514	-18.286	78.081	0.00027457	0.0002257	3.788e-05	422.93	2.23e-06	2.9562e-06	416.2	128.12	9.4454e-07	1.544e-06	126.94	48.827	47.4	20.093	1.9373e-06	21.692	6.4809e-05	5.267e-05	1.508e-05	387.05	5.896e-07	6.0023e-07	385.87	118.7	6.0045e-07	6.0161e-07	116.88	45.169	43.485	18.537	6.2599e-07	20.18	181.652	-137.218	-156.809	-161.470	17.254	-72.398	-162.790	-156.398	8.790	-93.736	-159.460	-156.302	-152.695	-150.136	-19.119	-152.933	-8191	255	
8685.973	1	1	0	0	0.13249	0.12626	0.24558	0.30424	0.15649	0.066922	0.20092	0.028559	0.29439	0.10768	0.12439	0.032904	0.011279	0.10701	0.06265	0.17911	-1.6542	-2.3583	-2.6771	-2.1688	-2.7875	-2.5875	-2.1854	-3.0563	-2.2333	-2.5062	-2.7917	-2.1417	-2.9042	-2.7938	-2.3875	-2.8688	41.844	87.952	-51.348	-153.901	32.044	-147.532	77.084	-87.685	151.434	49.839	-10.173	-42.269	-156.624	-165.935	82.794	107.611	0.00024356	0.00015928	0.00011141	419.56	1.1214e-06	1.724e-06	417.12	127.87	1.0668e-06	1.2771e-06	127.95	49.015	47.77	20.054	6.0209e-07	21.925	6.0807e-05	5.159e-05	1.5087e-05	386.64	5.768e-07	5.8382e-07	386.92	118.72	6.1353e-07	5.8633e-07	117.83	45.473	43.673	18.693	6.1958e-07	20.43	175.121	-90.015	-89.833	-161.397	-90.600	-10.703	-163.031	-156.370	-41.138	-3.422	-159.651	-155.362	-152.908	-150.176	-16.290	-153.545	-8191	255	
8686.069	1	1	0	0	0.1688	0.14032	0.12653	0.19039	0.18088	0.17921	0.21105	0.098551	0.34729	0.13559	0.1977	0.20587	0.21959	0.1089	0.12911	0.29531	-1.9167	-2.3312	-2.8125	-2.125	-2.6875	-2.5292	-2.1813	-2.8604	-2.0875	-2.3729	-2.7917	-2.2792	-2.5563	-2.8292	-2.2646	-2.8979	98.504	-36.587	-41.480	82.029	-4.705	-53.084	73.946	65.253	-66.898	-124.760	-100.703	-81.982	26.908	167.696	-115.272	111.454	0.00022719	9.7833e-05	3.2156e-05	430.89	1.9328e-06	4.0388e-06	421.97	127.21	5.8733e-07	1.6419e-06	128.92	49.152	47.706	20.188	2.1243e-06	21.941	6.6175e-05	5.5207e-05	1.5754e-05	389.18	6.2723e-07	6.3552e-07	389.52	118.78	6.1787e-07	6.2796e-07	118.13	45.763	43.672	18.77	6.1759e-07	20.402	180.697	-40.583	-61.169	-161.814	-16.182	-88.125	-163.357	-156.567	-129.005	-80.540	-158.603	-156.256	-153.466	-150.190	-76.293	-152.851	-8191	255	
8686.188	1	1	0	0	0.25308	0.26474	0.18822	0.19074	0.05682	0.13575	0.16323	0.28162	0.078515	0.059025	0.11969	0.090264	0.1612	0.13054	0.090038	0.1037	-2.0104	-2.2146	-2.7604	-2.2396	-2.5208	-2.7458	-2.2667	-2.9688	-2.4917	-2.4083	-2.9542	-2.3208	-2.6958	-2.9437	-2.0563	-2.8625	-121.874	50.915	58.549	-17.893	-165.231	-145.768	57.979	52.450	89.114	-74.835	110.085	161.616	-3.802	103.088	146.039	-170.572	0.00021273	0.00028882	4.5236e-05	422.76	1.723e-06	1.5791e-06	418.48	128.8	2.5798e-06	4.2968e-07	126.89	49.115	47.535	20.056	1.5885e-06	21.827	6.5992e-05	5.6493e-05	1.5261e-05	389	6.2265e-07	5.8699e-07	388	118.92	6.346e-07	6.1507e-07	117.33	45.433	43.478	18.619	6.1594e-07	20.312	176.406	-97.133	-65.085	-161.463	-69.767	16.139	-163.217	-156.535	-57.389	5.194	-158.658	-155.666	-152.730	-150.074	-35.215	-153.104	-8191	255	
8686.259	1	1	0	0	0.14	0.45497	0.075211	0.17593	0.13498	0.057016	0.1331	0.21651	0.2124	0.14261	0.017635	0.32572	0.16743	0.13645	0.098833	0.11257	-2.2458	-1.9521	-3.1042	-2.2188	-2.3292	-2.8063	-2.0563	-2.6958	-2.6437	-2.0396	-2.8937	-2.3125	-2.4771	-2.8083	-2.0708	-2.6354	167.021	-95.459	24.377	23.692	-25.536	89.046	161.304	97.844	2.873	9.675	-164.475	116.998	82.458	-32.330	-95.407	53.605	0.00025054	0.00026172	5.2063e-05	421.64	1.4698e-06	2.2142e-06	417.59	127.98	8.6778e-07	1.231e-06	127.81	48.75	47.64	20.104	1.8186e-06	21.815	6.704e-05	5.6374e-05	1.4842e-05	387.29	6.265e-07	5.8448e-07	386.02	118.6	6.2024e-07	6.195e-07	117.33	45.232	43.421	18.599	6.4349e-07	20.226	172.497	-72.146	-87.149	-161.022	10.720	-1.336	-162.552	-156.384	-54.539	-3.301	-159.211	-156.602	-152.959	-150.052	-37.477	-153.265	-8191	255	
8686.356	1	1	0	0	0.13156	0.27454	0.073183	0.14909	0.36686	0.16221	0.15508	0.080385	0.074314	0.12176	0.099496	0.16627	0.22249	0.073126	0.13471	0.18121	-2.2292	-2.0625	-2.9083	-2.2854	-2.1354	-3.0146	-2.225	-2.7229	-2.6729	-2.1917	-2.8292	-2.5917	-2.3833	-3	-2.1292	-2.7083	-74.620	31.577	-122.788	-93.029	-4.496	105.284	-122.226	10.050	-61.416	-19.512	181.295	142.261	-58.200	149.274	52.275	-63.562	0.00022916	9.4428e-05	4.338e-05	419.53	2.8306e-06	2.028e-06	414.81	128.47	1.7439e-06	1.4411e-06	126.65	48.935	47.59	20.002	6.9743e-07	21.92	6.7796e-05	5.4391e-05	1.5016e-05	386.6	6.3467e-07	5.8374e-07	386.93	118.76	6.3258e-07	6.1233e-07	117.12	45.351	43.232	18.537	6.2881e-07	20.298	-171.725	-42.460	-79.279	-161.516	-24.940	-62.091	-163.024	-156.279	-57.174	-112.175	-158.737	-155.966	-152.815	-150.033	179.277	-152.552	-8191	255	
8686.453	1	1	0	0	0.12744	0.12741	0.22437	0.42482	0.20002	0.086178	0.2556	0.21842	0.013028	0.10208	0.15795	0.10261	0.12806	0.10161	0.053628	0.11499	-2.35	-2.0521	-2.7771	-2.5687	-2.35	-2.9938	-2.3375	-2.5042	-2.8708	-2.2271	-2.9813	-2.5917	-2.1271	-2.9292	-2.2333	-2.4313	-67.268	160.240	41.969	-89.893	-113.231	147.420	126.874	88.415	-119.266	-11.551	-4.624	144.066	-83.167	-36.424	15.500	71.204	0.00018975	0.00014804	2.8694e-05	420.29	1.0952e-06	6.0264e-07	418.83	127.13	1.1405e-06	1.688e-06	127.95	49.402	47.833	19.872	6.3699e-07	22.072	6.6295e-05	5.6568e-05	1.552e-05	387.17	6.0643e-07	6.1073e-07	388.53	118.72	6.22e-07	5.8728e-07	117.84	45.649	43.631	18.601	6.1772e-07	20.376	183.543	-72.928	-69.363	-161.573	18.596	24.513	-163.149	-156.090	-33.213	10.103	-159.369	-155.145	-152.890	-149.695	-81.205	-153.352	-8191	255	
8686.572	1	1	0	0	0.14818	0.12209	0.25766	0.1777	0.13174	0.064203	0.21024	0.11902	0.25265	0.15813	0.09107	0.15443	0.25007	0.078339	0.037391	0.14627	-2.5563	-2.2042	-2.5062	-2.5604	-2.0354	-2.9	-2.3604	-2.4729	-2.7104	-2.1604	-2.7958	-2.6604	-2.0604	-2.8896	-2.3688	-2.2521	15.988	-123.930	-83.403	138.789	158.570	-160.139	141.396	108.976	110.384	-86.067	39.070	-138.868	139.921	90.977	61.386	95.657	0.00026939	8.6554e-05	3.8641e-05	424.08	1.0992e-06	1.7605e-06	416.83	127.92	1.5415e-06	1.2485e-06	127.62	48.98	47.838	20.05	3.5374e-06	21.894	6.6299e-05	5.161e-05	1.536e-05	388.25	6.2105e-07	5.8508e-07	387.92	118.51	5.9512e-07	5.905e-07	117.72	45.306	43.622	18.65	6.428e-07	20.341	172.932	-21.613	-113.201	-161.570	-92.199	-68.703	-162.504	-155.680	-22.007	-49.651	-159.205	-155.327	-153.666	-149.726	-70.419	-152.941	-8191	255	
8686.668	1	1	0	0	0.072109	0.24366	0.15424	0.054499	0.14496	0.076697	0.11137	0.17972	0.075815	0.11261	0.11572	0.26166	0.26219	0.17211	0.023648	0.1638	-2.4396	-2.1917	-2.6958	-2.6979	-2.0062	-2.9333	-2.4208	-2.2146	-2.8688	-2.0646	-2.55	-2.9229	-2.1708	-2.9729	-2.5542	-2.175	168.079	6.525	3.621	-38.980	-145.052	-144.513	27.938	111.917	-146.332	38.144	158.932	6.786	130.947	-103.519	-144.331	63.421	0.00023968	0.00022406	4.3222e-05	423.85	2.6831e-06	1.6507e-06	413.92	127.34	2.2965e-06	1.1832e-06	126.45	48.645	47.019	19.795	1.7723e-06	21.809	6.2773e-05	5.5408e-05	1.5055e-05	388.53	6.0275e-07	5.7306e-07	385.82	118.43	5.8776e-07	6.2167e-07	117.15	45.203	43.304	18.555	6.1417e-07	20.178	179.083	-86.982	-55.554	-161.015	-80.851	-70.674	-163.053	-155.897	-91.197	-46.286	-159.110	-155.488	-153.304	-149.707	-63.475	-152.886	-8191	255	
#DATA ENDS
