BOXY.EXE: ISS Imagent and Oximeter Data Acquisition Program Version 0.80
Ascii Record File

#ACQ INFORMATION
2  Detector Channels 
16  External MUX Channels 
1  Auxiliary Channels 
5000  Waveform (CCF) Frequency (Hz)
1  Waveforms Skipped 
30  Waveforms Averaged 
1  Cycles Averaged 
16  Acquisitions per Waveform 
10.0806  Updata Rate (Hz) 

#FILE INFORMATION
TRUE -- External MUX Channel results are PARSED.
FALSE -- AC DC and Phase are NOT grouped.
TRUE -- Companion Program Settings File CREATED.
FALSE -- AC data not excluded
FALSE -- DC data not excluded
FALSE -- Phase data not excluded
FALSE -- Auxillary Chn. data not excluded
Tab delimiters

#CALIBRATION STATE
TRUE -- Waveform Calibration Values APPLIED.


#AUX CALIBRATION VALUES
Val Type	aux-1	

Term	1.0000e+00	
Factor	0.0000e+00	


#WF CALIBRATION VALUES
A = Detector Channel
Val Type	A-AC1	A-AC2	A-AC3	A-AC4	A-AC5	A-AC6	A-AC7	A-AC8	A-AC9	A-AC10	A-AC11	A-AC12	A-AC13	A-AC14	A-AC15	A-AC16	A-DC1	A-DC2	A-DC3	A-DC4	A-DC5	A-DC6	A-DC7	A-DC8	A-DC9	A-DC10	A-DC11	A-DC12	A-DC13	A-DC14	A-DC15	A-DC16	A-Ph1	A-Ph2	A-Ph3	A-Ph4	A-Ph5	A-Ph6	A-Ph7	A-Ph8	A-Ph9	A-Ph10	A-Ph11	A-Ph12	A-Ph13	A-Ph14	A-Ph15	A-Ph16	

Term	0.00000e+00	0.00000e+00	0.00000e+00	0.00000e+00	0.00000e+00	0.00000e+00	0.00000e+00	0.00000e+00	0.00000e+00	0.00000e+00	0.00000e+00	0.00000e+00	0.00000e+00	0.00000e+00	0.00000e+00	0.00000e+00	0.00000e+00	0.00000e+00	0.00000e+00	0.00000e+00	0.00000e+00	0.00000e+00	0.00000e+00	0.00000e+00	0.00000e+00	0.00000e+00	0.00000e+00	0.00000e+00	0.00000e+00	0.00000e+00	0.00000e+00	0.00000e+00	0.00000e+00	0.00000e+00	0.00000e+00	0.00000e+00	0.00000e+00	0.00000e+00	0.00000e+00	0.00000e+00	0.00000e+00	0.00000e+00	0.00000e+00	0.00000e+00	0.00000e+00	0.00000e+00	0.00000e+00	0.00000e+00	
Factor	1.00000e+00	1.00000e+00	1.00000e+00	1.00000e+00	1.00000e+00	1.00000e+00	1.00000e+00	1.00000e+00	1.00000e+00	1.00000e+00	1.00000e+00	1.00000e+00	1.00000e+00	1.00000e+00	1.00000e+00	1.00000e+00	1.00000e+00	1.00000e+00	1.00000e+00	1.00000e+00	1.00000e+00	1.00000e+00	1.00000e+00	1.00000e+00	1.00000e+00	1.00000e+00	1.00000e+00	1.00000e+00	1.00000e+00	1.00000e+00	1.00000e+00	1.00000e+00	X	X	X	X	X	X	X	X	X	X	X	X	X	X	X	X	

B = Detector Channel
Val Type	B-AC1	B-AC2	B-AC3	B-AC4	B-AC5	B-AC6	B-AC7	B-AC8	B-AC9	B-AC10	B-AC11	B-AC12	B-AC13	B-AC14	B-AC15	B-AC16	B-DC1	B-DC2	B-DC3	B-DC4	B-DC5	B-DC6	B-DC7	B-DC8	B-DC9	B-DC10	B-DC11	B-DC12	B-DC13	B-DC14	B-DC15	B-DC16	B-Ph1	B-Ph2	B-Ph3	B-Ph4	B-Ph5	B-Ph6	B-Ph7	B-Ph8	B-Ph9	B-Ph10	B-Ph11	B-Ph12	B-Ph13	B-Ph14	B-Ph15	B-Ph16	

Term	0.00000e+00	0.00000e+00	0.00000e+00	0.00000e+00	0.00000e+00	0.00000e+00	0.00000e+00	0.00000e+00	0.00000e+00	0.00000e+00	0.00000e+00	0.00000e+00	0.00000e+00	0.00000e+00	0.00000e+00	0.00000e+00	0.00000e+00	0.00000e+00	0.00000e+00	0.00000e+00	0.00000e+00	0.00000e+00	0.00000e+00	0.00000e+00	0.00000e+00	0.00000e+00	0.00000e+00	0.00000e+00	0.00000e+00	0.00000e+00	0.00000e+00	0.00000e+00	-1.88609e+02	-1.27598e+02	-1.28064e+02	-1.86550e+02	-7.56069e+01	-6.93013e+01	-1.58582e+02	-1.62015e+02	-8.04884e+01	-6.78725e+01	-1.72035e+02	-1.71270e+02	-1.83419e+02	-1.77402e+02	-7.72896e+01	-1.49868e+02	
Factor	3.27749e-05	1.39329e-04	3.88666e-05	2.88475e-01	1.43949e-06	1.41513e-06	1.57872e-01	4.58217e-02	1.50912e-06	1.47195e-06	7.41059e-02	2.49279e-02	3.53259e-02	7.84877e-03	1.37570e-06	1.11498e-02	1.92326e-05	3.85017e-05	1.09289e-05	1.54926e-01	3.98288e-07	4.44642e-07	7.99822e-02	2.48168e-02	3.58251e-07	4.44534e-07	3.89740e-02	1.31152e-02	1.93336e-02	4.30545e-03	3.87079e-07	5.92357e-03	X	X	X	X	X	X	X	X	X	X	X	X	X	X	X	X	



#DISTANCE SETTINGS
A = Detector Channel
A-1	A-2	A-3	A-4	A-5	A-6	A-7	A-8	A-9	A-10	A-11	A-12	A-13	A-14	A-15	A-16	

2.5000e+00	3.0000e+00	2.5000e+00	3.0000e+00	2.0000e+00	3.0000e+00	1.5000e+00	3.0000e+00	3.0000e+00	3.0000e+00	3.0000e+00	3.0000e+00	3.0000e+00	3.0000e+00	1.5000e+00	3.0000e+00	

B = Detector Channel
B-1	B-2	B-3	B-4	B-5	B-6	B-7	B-8	B-9	B-10	B-11	B-12	B-13	B-14	B-15	B-16	

1.0000e+01	1.0000e+01	1.0000e+01	1.4400e+00	1.0000e+01	1.0000e+01	1.5100e+00	1.9400e+00	1.0000e+01	1.0000e+01	1.9900e+00	2.4900e+00	2.4100e+00	2.9000e+00	1.0000e+01	2.9800e+00	




#DATA BEGINS
time	group	step	mark	flag	A-AC1	A-AC2	A-AC3	A-AC4	A-AC5	A-AC6	A-AC7	A-AC8	A-AC9	A-AC10	A-AC11	A-AC12	A-AC13	A-AC14	A-AC15	A-AC16	A-DC1	A-DC2	A-DC3	A-DC4	A-DC5	A-DC6	A-DC7	A-DC8	A-DC9	A-DC10	A-DC11	A-DC12	A-DC13	A-DC14	A-DC15	A-DC16	A-Ph1	A-Ph2	A-Ph3	A-Ph4	A-Ph5	A-Ph6	A-Ph7	A-Ph8	A-Ph9	A-Ph10	A-Ph11	A-Ph12	A-Ph13	A-Ph14	A-Ph15	A-Ph16	B-AC1	B-AC2	B-AC3	B-AC4	B-AC5	B-AC6	B-AC7	B-AC8	B-AC9	B-AC10	B-AC11	B-AC12	B-AC13	B-AC14	B-AC15	B-AC16	B-DC1	B-DC2	B-DC3	B-DC4	B-DC5	B-DC6	B-DC7	B-DC8	B-DC9	B-DC10	B-DC11	B-DC12	B-DC13	B-DC14	B-DC15	B-DC16	B-Ph1	B-Ph2	B-Ph3	B-Ph4	B-Ph5	B-Ph6	B-Ph7	B-Ph8	B-Ph9	B-Ph10	B-Ph11	B-Ph12	B-Ph13	B-Ph14	B-Ph15	B-Ph16	aux-1	digaux	

28971.830	1	1	0	256	0.22055	0.1669	0.066969	0.20025	0.26797	0.091458	0.34889	0.1927	0.044653	0.058344	0.20218	0.26555	0.026332	0.04862	0.08989	0.16699	-1.8417	-2.9208	-2.7417	-2.2854	-3.1708	-2.3708	-2.8438	-3.0542	-2.1417	-2.8958	-2.8937	-2.2146	-3.1917	-2.4125	-2.2729	-3.0896	89.279	-17.908	-56.111	243.135	195.192	131.238	211.105	-76.757	40.781	157.637	220.801	187.973	70.940	218.496	7.353	193.326	0.00042622	0.00047652	0.00011968	1397.8	7.4462e-06	6.1293e-06	1380.9	361.53	2.8533e-06	5.2168e-06	406.84	135.89	117.98	39.207	4.4442e-06	48.418	0.0010674	0.0015633	0.00044802	1417.7	1.6594e-05	1.8014e-05	1403	368.77	1.5959e-05	1.8144e-05	416.77	138.89	121.02	40.368	1.6873e-05	50.029	149.068	-25.518	-18.543	-99.798	31.103	30.217	-100.145	-94.970	9.384	51.545	-95.688	-91.741	-91.133	-86.625	18.255	-87.092	-8191	255	
28971.926	1	1	0	0	0.11341	0.13207	0.096278	0.15695	0.060387	0.085482	0.27662	0.059889	0.2731	0.20052	0.059717	0.27492	0.19999	0.36147	0.089045	0.15148	-1.9125	-2.8896	-2.7479	-2.3542	-3.0479	-2.6125	-2.6417	-3.1583	-2.125	-2.7625	-2.9771	-2.3354	-3.1688	-2.6208	-2.3312	-3.0833	137.153	159.424	29.412	199.472	86.019	229.458	154.307	245.687	196.696	4.369	189.802	151.324	33.739	195.404	167.517	180.479	0.00048728	0.00061714	0.00012336	1405.3	2.3578e-06	5.2127e-06	1386.3	362.84	1.91e-06	4.1917e-06	408.68	135.34	117.73	39.312	4.2004e-06	48.767	0.0010641	0.0016241	0.00044292	1422.3	1.6797e-05	1.853e-05	1408.4	369.28	1.5904e-05	1.8463e-05	417.37	138.73	120.87	40.414	1.7062e-05	50.122	143.613	-16.219	-24.309	-99.930	3.602	24.616	-99.775	-95.020	14.997	5.216	-95.794	-91.682	-91.581	-86.274	34.086	-87.064	-8191	255	
28972.023	1	1	0	0	0.20978	0.21147	0.17616	0.12292	0.13053	0.21509	0.40769	0.39824	0.23261	0.10468	0.13732	0.08875	0.087861	0.2893	0.17389	0.17916	-1.9854	-2.7125	-2.9271	-2.3479	-2.95	-2.525	-2.6104	-3.1167	-2.2646	-2.6271	-3.2354	-2.5062	-3.0292	-2.9542	-2.3396	-3.15	76.672	181.929	245.344	228.687	201.404	-25.126	170.137	225.263	94.184	127.373	219.449	199.453	-73.183	-24.374	126.056	-94.569	0.00042372	0.00055477	0.00013058	1401.6	5.5388e-06	4.5863e-06	1382.9	363.05	2.4678e-06	2.6576e-06	409.92	135.14	117.93	39.547	3.3347e-06	48.685	0.0010542	0.00159	0.00045883	1420.7	1.7215e-05	1.8291e-05	1406	370.19	1.5935e-05	1.8017e-05	416.77	138.73	120.99	40.48	1.7022e-05	50.031	139.039	-32.967	-38.600	-99.898	22.348	43.352	-100.009	-95.211	5.126	52.292	-95.758	-91.363	-91.003	-86.231	68.158	-87.065	-8191	255	
28972.143	1	1	0	0	0.14167	0.19172	0.11577	0.16752	0.095711	0.21223	0.24083	0.12515	0.16279	0.15492	0.23442	0.21952	0.14791	0.10815	0.15806	0.56484	-2.0854	-2.5292	-2.9	-2.3125	-3.0125	-3.0146	-2.5625	-3.25	-2.2875	-2.5438	-3.2625	-2.3812	-3.0958	-2.9896	-2.1562	-3.0396	-30.402	138.855	-39.029	243.242	192.047	125.195	-98.421	178.523	-90.314	-82.719	194.586	105.035	218.864	187.755	241.680	191.234	0.00039747	0.0004602	0.00013895	1402.5	4.5929e-06	3.1189e-06	1380.6	362.34	5.157e-06	4.5361e-06	408.12	134.91	117.94	39.494	4.0999e-06	48.859	0.0010639	0.0016334	0.00046024	1422	1.7063e-05	1.8412e-05	1404.6	369.56	1.5954e-05	1.8781e-05	417.16	138.5	121.08	40.499	1.6861e-05	50.067	142.974	-10.194	-5.043	-100.023	2.893	58.798	-100.047	-94.956	8.182	56.458	-95.818	-91.622	-91.685	-86.044	30.724	-86.805	-8191	255	
28972.238	1	1	0	0	0.35488	0.073964	0.050097	0.15532	0.268	0.015603	0.29928	0.24352	0.1258	0.12795	0.069128	0.13589	0.24175	0.099941	0.40619	0.27994	-2.1813	-2.4979	-3.1375	-2.3688	-2.8667	-3.0062	-2.4042	-3.1104	-2.3375	-2.3021	-3.25	-2.4708	-2.7708	-3.0646	-2.3417	-3.1625	-66.973	-40.201	-0.177	-39.193	-46.629	28.189	-107.970	234.774	161.040	-99.633	3.396	86.141	-64.341	-108.893	143.840	-94.513	0.00046427	0.00072137	0.00012505	1401.2	6.5854e-06	4.4444e-06	1388.1	361.41	4.8401e-06	4.9866e-06	409.33	135.3	117.48	39.376	4.3789e-06	48.62	0.0010707	0.0016324	0.00044285	1419.3	1.7384e-05	1.7625e-05	1405.8	369.1	1.5964e-05	1.8406e-05	417.21	138.71	120.98	40.435	1.6877e-05	50.043	139.919	-47.676	-7.832	-100.017	16.221	52.106	-99.834	-95.054	22.766	65.337	-95.838	-91.618	-91.103	-85.988	9.893	-86.918	-8191	255	
28972.336	1	1	0	0	0.13468	0.0856	0.15243	0.21114	0.11966	0.076798	0.13202	0.25173	0.099523	0.16351	0.31675	0.28491	0.081249	0.17262	0.083174	0.34229	-2.2313	-2.3312	-3.1458	-2.4292	-2.6208	-3.0646	-2.5646	-2.9854	-2.5729	-2.2083	-3.0854	-2.5167	-2.5375	-2.9667	-2.3979	-2.7333	140.237	-99.158	40.260	-42.274	153.651	224.360	168.774	194.652	34.673	157.607	223.858	226.346	195.516	233.992	43.111	211.069	0.00046852	0.00062854	0.00012397	1397.8	5.452e-06	3.8738e-06	1387.2	362.24	3.1062e-06	3.7208e-06	407.17	135.36	118.09	39.383	5.7462e-06	48.485	0.0010714	0.0016714	0.00045606	1419.4	1.8009e-05	1.852e-05	1406.9	369.37	1.6192e-05	1.8883e-05	416.48	138.9	121.02	40.435	1.6668e-05	50.005	142.119	-16.971	-26.709	-99.595	10.457	43.434	-99.891	-95.126	-1.595	58.059	-95.802	-91.465	-91.346	-86.113	20.989	-86.975	-8191	255	
28972.432	1	1	0	0	0.19157	0.17724	0.14729	0.052134	0.13783	0.10554	0.10914	0.48196	0.0068232	0.32347	0.11889	0.11002	0.028562	0.14909	0.083114	0.066988	-2.2667	-2.0833	-2.7792	-2.4208	-2.3583	-2.9396	-2.4021	-3.0104	-2.7271	-2.2167	-3.2417	-2.6771	-2.4854	-3.0958	-2.2667	-2.8875	224.480	113.159	152.044	-60.660	66.744	186.525	-91.235	189.333	-97.794	13.341	81.497	221.078	26.703	132.147	146.426	83.573	0.00040165	0.00053466	0.00013646	1395.3	4.3378e-06	4.9797e-06	1387	363.26	3.5962e-06	6.1338e-06	411.21	134.49	117.72	39.351	2.6704e-06	48.8	0.0010576	0.0016512	0.00045407	1419.1	1.7764e-05	1.8453e-05	1405.8	369.22	1.6191e-05	1.8543e-05	417.94	138.26	120.75	40.377	1.7163e-05	50.076	142.570	-10.714	-11.200	-100.025	35.823	60.025	-100.026	-95.156	1.518	9.608	-95.572	-91.730	-91.319	-86.280	-9.141	-87.149	-8191	255	
28972.527	1	1	0	0	0.085701	0.031641	0.1709	0.39829	0.12616	0.096271	0.24312	0.19911	0.083356	0.17816	0.21082	0.33108	0.16969	0.2339	0.26506	0.070322	-2.5812	-2.0479	-2.9104	-2.6958	-2.4062	-2.9229	-2.3812	-2.6604	-2.8917	-2.2792	-3.1188	-2.75	-2.3667	-3.0875	-2.5042	-2.6354	163.990	-37.801	-33.692	-93.041	-9.113	131.503	197.402	209.810	-111.223	-56.059	219.624	239.282	197.608	139.587	122.683	108.290	0.0004412	0.00061043	0.00020536	1396.1	4.8739e-06	6.3126e-06	1385.9	363.05	3.9622e-06	5.1655e-06	409.06	134.96	116.84	39.345	5.2535e-06	48.591	0.001075	0.0016274	0.00045908	1418.7	1.7267e-05	1.761e-05	1407.5	369.63	1.5871e-05	1.8382e-05	417.69	138.29	120.63	40.418	1.659e-05	49.988	140.694	-23.775	-37.216	-100.038	8.725	35.434	-99.984	-95.162	-24.046	54.898	-95.771	-91.479	-91.558	-85.984	20.256	-86.782	-8191	255	
28972.623	1	1	0	0	0.12342	0.070705	0.071002	0.12458	0.22948	0.21687	0.3896	0.35344	0.24276	0.11305	0.38741	0.24071	0.2628	0.18838	0.099012	0.16049	-2.4875	-2.325	-3.0167	-2.8271	-2.2396	-3.0958	-2.55	-2.6688	-2.9854	-2.2521	-2.9271	-2.8854	-2.2271	-3.0938	-2.2729	-2.5438	140.640	-42.867	99.245	204.681	-83.233	87.442	-58.824	207.131	140.351	213.471	193.092	203.735	210.574	209.224	-85.826	-73.277	0.00050387	0.00069605	0.00014027	1397.6	3.4659e-06	4.4264e-06	1386.2	361.6	1.3284e-06	6.4283e-06	408.4	135.16	117.76	39.142	4.0294e-06	48.77	0.0010917	0.0015961	0.00046412	1417.8	1.7478e-05	1.8397e-05	1405.7	369.01	1.5687e-05	1.8861e-05	416.91	138.3	120.68	40.324	1.7026e-05	50.016	138.324	-22.736	-3.102	-99.769	-4.060	49.234	-99.857	-95.077	39.347	36.376	-95.556	-91.818	-91.272	-86.226	26.496	-86.719	-8191	255	
28972.744	1	1	0	0	0.13174	0.077837	0.22772	0.14168	0.17589	0.09483	0.29224	0.075307	0.055436	0.20124	0.16888	0.14998	0.044792	0.11775	0.084314	0.23842	-2.6312	-2.2271	-2.7458	-2.8021	-2.1896	-2.9813	-2.5646	-2.6604	-3.0021	-2.1542	-2.6229	-2.9333	-2.1437	-3.0854	-2.6854	-2.3542	133.356	119.658	-30.868	-77.972	211.359	47.989	159.254	231.506	82.764	193.919	-33.382	-110.179	-6.685	120.766	-6.133	175.815	0.0004429	0.00055029	0.00010936	1400.2	5.8072e-06	4.0449e-06	1386.4	362.37	5.9043e-06	1.3789e-06	409.96	135.09	117.04	39.275	2.4859e-06	48.521	0.0010709	0.0016619	0.00046434	1419.1	1.7566e-05	1.8705e-05	1406	369.3	1.6331e-05	1.9674e-05	418.09	138.75	120.56	40.329	1.7111e-05	49.9	140.428	-19.997	-54.200	-100.047	12.666	50.635	-99.977	-95.086	-6.773	43.535	-95.578	-91.623	-91.360	-86.041	59.378	-87.202	-8191	255	
28972.838	1	1	0	0	0.07151	0.0167	0.15164	0.079682	0.13699	0.24057	0.4523	0.07734	0.14292	0.083998	0.11666	0.16667	0.25762	0.25574	0.27359	0.16938	-2.6833	-2.225	-2.6167	-2.9354	-2.2271	-2.8104	-2.7354	-2.3729	-3.0021	-2.4313	-2.7521	-2.9542	-2.1542	-2.9792	-2.6813	-2.0854	221.495	238.861	-23.024	-70.428	58.632	219.607	161.805	148.138	-3.675	139.463	-36.356	245.976	167.165	46.893	-88.045	-74.135	0.00039425	0.0005507	0.00012807	1398.1	4.7961e-06	3.627e-06	1385.3	362.05	2.309e-06	5.8857e-06	409.88	135.32	117.35	39.177	4.9243e-06	48.541	0.0010889	0.0017069	0.00046097	1420.3	1.7445e-05	1.8833e-05	1404.2	368.77	1.6523e-05	1.9121e-05	417.77	138.63	120.61	40.32	1.6739e-05	49.936	137.522	-19.922	-31.250	-100.153	25.215	25.626	-100.040	-95.189	-15.872	53.614	-95.800	-91.623	-91.681	-86.151	5.873	-86.745	-8191	255	
28972.936	1	1	0	0	0.094984	0.29761	0.1991	0.052509	0.060114	0.068882	0.1303	0.19515	0.24487	0.24651	0.31734	0.2502	0.037156	0.21352	0.088084	0.11333	-2.5167	-2.2667	-2.3729	-2.9625	-2.2833	-2.6729	-3.0583	-2.3958	-2.8187	-2.5021	-2.4562	-3.0563	-2.1167	-2.8937	-2.8563	-2.5229	30.848	144.952	-53.032	233.088	139.486	106.463	178.665	189.236	-92.981	122.211	-66.336	109.944	33.095	229.548	54.340	79.335	0.00037997	0.00044609	0.00010898	1395.5	5.2626e-06	4.2811e-06	1389.8	362.24	9.3708e-07	3.0899e-06	409.38	134.8	117.39	39.191	4.4635e-06	48.44	0.0010859	0.0016784	0.0004821	1421.2	1.7716e-05	1.9472e-05	1407.2	369.45	1.5918e-05	1.923e-05	417.4	138.48	120.64	40.38	1.6938e-05	49.916	142.765	-25.975	-26.222	-100.374	50.418	27.023	-99.973	-95.107	-79.311	57.365	-95.800	-91.765	-91.330	-86.220	55.549	-86.946	-8191	255	
28973.031	1	1	0	0	0.072266	0.19122	0.13971	0.20183	0.19101	0.062107	0.30199	0.15168	0.086379	0.11799	0.17322	0.14607	0.27956	0.020315	0.22873	0.12944	-2.6042	-2.5292	-2.3083	-2.9562	-2.3167	-2.5646	-3.2104	-2.4354	-2.8375	-2.475	-2.3479	-3.075	-2.3979	-2.6917	-2.8208	-2.2417	-108.752	195.100	-76.668	208.566	-10.710	24.160	207.990	152.192	89.387	98.807	144.474	166.425	209.720	67.993	129.791	173.442	0.00045224	0.00068723	8.2187e-05	1399	5.0592e-06	3.9499e-06	1382.5	361.73	4.1095e-06	5.8125e-06	408.57	134.88	116.64	39.112	2.9635e-06	48.3	0.0010467	0.0016548	0.00044784	1419.5	1.7689e-05	1.8556e-05	1404	369.76	1.6322e-05	1.8439e-05	417.27	138.36	120.45	40.313	1.7323e-05	49.829	140.271	-7.869	-12.689	-99.715	19.108	62.825	-100.132	-95.100	37.101	43.915	-95.589	-91.615	-91.240	-86.044	5.800	-86.967	-8191	255	
28973.102	1	1	0	0	0.14972	0.17025	0.16075	0.13186	0.12515	0.36578	0.15131	0.13351	0.29738	0.17504	0.17609	0.30919	0.090645	0.18991	0.14335	0.11994	-2.4813	-2.6104	-2.2583	-3.2	-2.4021	-2.5708	-3.2042	-2.5792	-2.8937	-2.7646	-2.5062	-3.0771	-2.6125	-2.4979	-3.0771	-2.3354	-31.959	137.955	-103.568	189.593	114.335	75.002	118.687	154.395	241.237	114.231	235.126	188.971	228.516	185.931	100.525	207.743	0.00042023	0.00046218	0.00013459	1398.2	2.6408e-06	3.5889e-06	1389	361.73	9.918e-07	5.8304e-06	407.86	134.36	117.46	39.159	7.1459e-06	48.343	0.0010989	0.0016366	0.0004663	1419.4	1.7535e-05	1.9088e-05	1406.7	369.01	1.6291e-05	1.8922e-05	416.67	138.24	120.46	40.297	1.6687e-05	49.832	147.449	-38.978	-40.609	-99.811	17.446	31.175	-99.905	-95.330	17.687	35.710	-95.711	-91.723	-91.336	-86.405	21.261	-87.100	-8191	255	
28973.223	1	1	0	0	0.11286	0.035031	0.017344	0.22027	0.10933	0.37713	0.1858	0.10639	0.055847	0.25549	0.19353	0.19752	0.21338	0.22684	0.073325	0.096623	-2.3729	-2.8292	-2.0854	-3.075	-2.5896	-2.3688	-3.3333	-2.3854	-2.7042	-2.7292	-2.4854	-3.1063	-2.5896	-2.3688	-3.0854	-2.4229	166.060	-76.585	140.082	226.994	36.944	-84.536	191.025	209.274	45.189	164.092	168.316	112.979	222.770	148.332	-75.797	106.779	0.00045849	0.00058261	0.00014042	1407.9	4.0241e-06	5.8847e-06	1383.9	361.69	4.199e-06	2.6012e-06	408.67	135.24	117.35	39.158	2.8206e-06	48.464	0.0010842	0.0016279	0.000477	1421.2	1.7551e-05	1.8898e-05	1405.2	368.82	1.6636e-05	1.8359e-05	416.92	138.37	120.44	40.267	1.6515e-05	49.856	146.494	-25.648	-23.901	-99.794	42.451	40.076	-99.910	-95.287	-26.480	41.661	-95.518	-91.581	-91.342	-86.283	42.254	-86.902	-8191	255	
28973.318	1	1	0	0	0.17027	0.15246	0.17516	0.15292	0.30476	0.20345	0.073228	0.24533	0.16552	0.20593	0.027774	0.16996	0.19159	0.041366	0.20171	0.13409	-2.2583	-2.8271	-2.0563	-3.2479	-2.6562	-2.0917	-3.2667	-2.6021	-2.7646	-3.1104	-2.3208	-3.1146	-2.8417	-2.2062	-2.9104	-2.575	-97.800	187.594	191.661	138.578	168.251	203.260	99.861	168.179	-4.157	46.339	-15.492	191.218	145.290	134.140	183.151	172.805	0.00044073	0.00058632	0.00012669	1401.6	3.6642e-06	3.3015e-06	1390.5	360.26	3.0758e-06	6.0921e-06	409.09	135.19	117.63	39.127	4.1764e-06	48.74	0.0011077	0.001577	0.0004691	1421.5	1.7755e-05	1.8791e-05	1408.3	368.59	1.6284e-05	1.8481e-05	417.19	138.6	120.68	40.251	1.6691e-05	49.927	145.720	-33.212	-28.359	-99.784	-16.973	77.830	-99.936	-95.169	-16.535	33.377	-95.597	-91.782	-91.084	-86.026	21.828	-86.855	-8191	255	
28973.414	1	1	0	0	0.17605	0.14156	0.080173	0.24229	0.084285	0.10735	0.051527	0.12744	0.080814	0.12167	0.20909	0.045697	0.27295	0.16133	0.1193	0.076078	-2.0938	-2.7854	-2.0604	-2.8875	-2.6708	-2.2271	-3.4062	-2.5583	-2.5708	-2.9958	-2.3312	-2.9521	-2.9	-2.4292	-2.8688	-2.5479	237.515	48.260	-110.628	246.646	-44.497	-37.464	-22.682	9.720	32.367	124.966	-90.897	246.609	159.227	-11.332	179.431	-94.415	0.00044288	0.00053129	0.00012959	1405.5	2.4506e-06	3.1612e-06	1385.3	361.69	7.0263e-06	5.7275e-06	409.54	135.1	117.4	39.162	5.2136e-06	48.404	0.0010956	0.0017185	0.00047607	1424.9	1.7439e-05	1.8671e-05	1407.7	368.89	1.6456e-05	1.8582e-05	417.03	138.35	120.54	40.328	1.7126e-05	49.782	137.280	-0.466	-27.625	-100.197	8.584	29.496	-100.061	-95.264	0.107	28.940	-95.448	-91.448	-91.556	-86.129	26.565	-86.980	-8191	255	
28973.512	1	1	0	0	0.070893	0.041813	0.22598	0.33304	0.14015	0.1543	0.23371	0.20965	0.453	0.11189	0.17479	0.18654	0.080021	0.12538	0.16545	0.4073	-1.9083	-3.0042	-2.3	-2.6646	-2.7729	-2.2	-3.1521	-2.7604	-2.2562	-3.1375	-2.5042	-2.7479	-3.0021	-2.2271	-3.0208	-2.7396	-92.896	-54.042	-38.779	-79.518	210.010	199.244	206.720	188.452	199.215	41.167	123.051	209.427	67.070	-36.015	-69.016	137.098	0.00045578	0.00039859	0.0001164	1396.3	7.5118e-06	4.9758e-06	1383.2	362.19	3.5704e-06	6.1369e-06	407.61	134.49	116.59	39.085	3.1229e-06	48.4	0.0010952	0.0016949	0.00048197	1421	1.7641e-05	1.9148e-05	1405.3	368.93	1.6493e-05	1.8757e-05	416.65	138.29	120.15	40.199	1.6977e-05	49.836	143.692	2.522	-37.048	-99.744	22.745	70.245	-99.772	-95.277	23.014	5.152	-95.552	-91.637	-91.355	-86.035	4.568	-87.277	-8191	255	
28973.633	1	1	0	0	0.11165	0.17004	0.21337	0.12403	0.15657	0.15257	0.37252	0.55713	0.22685	0.24762	0.078744	0.23549	0.25545	0.21825	0.26986	0.13959	-2.0042	-3.0125	-2.3167	-2.6146	-2.9333	-2.3375	-3.0604	-2.9646	-2.2917	-3.0625	-2.3438	-2.5625	-3.0625	-2.5125	-2.9833	-2.8521	235.019	48.310	245.617	-81.279	-108.373	202.791	237.248	193.276	180.852	-91.325	126.515	224.023	117.088	-55.074	73.338	243.959	0.0004523	0.00034585	9.2292e-05	1404.8	2.9728e-06	4.5158e-06	1385.3	361.34	7.0475e-06	6.6952e-06	409.16	135.08	117.44	39.111	3.8167e-06	48.374	0.0010826	0.0016205	0.00047299	1422.8	1.7243e-05	1.9172e-05	1405.7	368.44	1.6522e-05	1.902e-05	416.32	138.14	120.36	40.158	1.6901e-05	49.756	141.837	-19.191	-25.234	-99.750	49.560	41.770	-99.718	-95.200	-4.351	43.640	-95.824	-91.676	-91.652	-86.247	18.011	-87.029	-8191	255	
28973.703	1	1	0	0	0.18716	0.23667	0.10915	0.29699	0.098532	0.3139	0.253	0.29124	0.10931	0.029209	0.32134	0.30107	0.27669	0.14716	0.16131	0.13129	-1.925	-2.9896	-2.2229	-2.6875	-2.9854	-2.2292	-3.0604	-2.6979	-2.2146	-2.8792	-2.6958	-2.3812	-3.1104	-2.4708	-2.7146	-2.8583	98.449	-86.017	-57.658	232.297	48.413	-87.201	156.001	162.644	-17.672	-112.841	204.400	190.252	222.018	139.526	115.678	223.380	0.00041832	0.00045935	0.00014518	1396	4.386e-06	5.7235e-06	1383	362.18	5.1959e-06	2.8716e-06	407.43	134.56	116.86	39.167	3.5662e-06	48.227	0.001082	0.0016246	0.00047147	1421.1	1.689e-05	1.9047e-05	1404.2	368.83	1.6267e-05	1.847e-05	416.65	137.99	120.04	40.217	1.7222e-05	49.732	137.818	-28.740	-21.544	-99.685	9.881	34.902	-99.755	-95.009	-5.784	34.075	-95.665	-91.512	-91.119	-86.338	30.253	-86.747	-8191	255	
28973.824	1	1	0	0	0.084187	0.16373	0.26075	0.14572	0.25895	0.20355	0.2995	0.23261	0.17613	0.11905	0.13744	0.26876	0.18519	0.22039	0.20505	0.12578	-1.8771	-2.9938	-2.5375	-2.3625	-3.0687	-2.0979	-2.8021	-2.95	-2.1854	-2.9208	-2.6542	-2.3667	-2.8917	-2.4188	-2.5583	-2.9417	131.843	184.733	137.526	-74.911	-83.349	-82.985	202.711	189.697	226.547	-26.695	237.629	241.714	201.581	-98.703	206.348	238.632	0.00040192	0.00048464	0.00011245	1392.4	5.2463e-06	3.5395e-06	1384.1	361.53	3.2046e-06	4.2331e-06	408.02	134.53	116.73	39.21	2.8966e-06	47.979	0.0010959	0.0016698	0.00046216	1417.7	1.7394e-05	1.8682e-05	1405.8	368.63	1.6288e-05	1.8138e-05	416.14	138.01	120.32	40.251	1.7138e-05	49.684	133.105	-44.333	-27.260	-99.679	28.390	26.356	-99.718	-95.090	9.428	36.947	-95.773	-91.567	-91.033	-86.143	39.882	-86.860	-8191	255	
28973.920	1	1	0	0	0.19002	0.089322	0.21934	0.2407	0.13585	0.1885	0.23377	0.11007	0.26284	0.20401	0.14003	0.10271	0.14816	0.3107	0.0884	0.14889	-1.7687	-2.7917	-2.5938	-2.3104	-3.1896	-2.4104	-2.65	-3.1708	-2.3271	-3.0229	-2.8229	-2.3604	-3.0062	-2.6479	-2.3979	-3.0771	200.049	-21.882	-112.152	193.460	-47.137	-51.396	143.486	226.014	179.950	-80.385	-28.663	226.798	157.469	181.638	95.559	205.399	0.00041813	0.00032989	0.00012953	1398.7	5.425e-06	5.6348e-06	1385.9	361.97	8.3421e-07	4.9622e-06	405.19	134.43	117.81	39.123	5.1317e-06	48.466	0.0011067	0.0016269	0.00046589	1420.2	1.8219e-05	1.9033e-05	1406.8	368.76	1.6422e-05	1.9479e-05	415.38	138.14	120.7	40.27	1.7382e-05	49.807	140.500	-2.751	-26.600	-99.698	36.957	38.778	-99.986	-94.989	15.540	28.166	-95.526	-91.398	-91.009	-86.185	15.775	-86.609	-8191	255	
28974.016	1	1	0	0	0.34313	0.18659	0.065788	0.030218	0.091999	0.2117	0.41567	0.20733	0.14685	0.13038	0.13143	0.16058	0.13639	0.088166	0.078995	0.068034	-1.825	-2.8312	-2.7792	-2.275	-2.8604	-2.4208	-2.575	-3.0625	-2.2271	-2.75	-2.9729	-2.2771	-3.0542	-2.6583	-2.3396	-3.1458	10.279	138.486	32.039	-88.718	-9.285	-38.767	-104.374	132.014	91.066	126.435	205.757	57.865	37.755	111.344	239.597	202.676	0.00045865	0.00049253	0.00017766	1408.8	2.9415e-06	4.5174e-06	1389.6	362.37	3.6852e-06	4.2346e-06	408.88	134.66	117.27	39.086	5.2038e-06	48.403	0.0010742	0.0016496	0.00047766	1422.7	1.7851e-05	1.9056e-05	1407.6	369.26	1.6828e-05	1.886e-05	417.15	138.35	120.39	40.201	1.7628e-05	49.774	141.647	-9.462	-34.397	-99.798	31.766	61.067	-99.659	-95.202	2.926	37.516	-95.682	-91.616	-91.201	-86.301	35.551	-87.128	-8191	255	
28974.111	1	1	0	0	0.17194	0.11104	0.11324	0.35399	0.19603	0.16478	0.37197	0.5434	0.099635	0.14878	0.14145	0.16608	0.13133	0.24107	0.05827	0.42023	-1.8438	-2.7812	-2.8563	-2.3563	-2.7229	-2.525	-2.3104	-3.1333	-2.2542	-2.4833	-3.025	-2.3833	-2.9292	-2.9167	-2.3375	-3.0771	162.118	203.159	136.303	206.726	49.374	-101.575	196.125	223.137	243.191	100.259	120.137	212.394	-77.311	210.635	166.778	161.966	0.00045617	0.0003709	0.00014107	1402.3	2.8443e-06	4.7675e-06	1385.3	362.1	6.4412e-06	3.8118e-06	407.5	134.24	116.97	39.19	3.7326e-06	48.328	0.0011076	0.001667	0.00047996	1422.5	1.7999e-05	1.9975e-05	1408.3	368.83	1.6749e-05	1.9654e-05	417.15	138.03	120.52	40.225	1.7564e-05	49.78	145.140	-31.876	-16.682	-99.739	56.709	33.747	-99.918	-95.258	14.510	58.297	-95.866	-91.491	-90.944	-86.502	11.970	-86.855	-8191	255	
28974.232	1	1	0	0	0.24788	0.23329	0.13135	0.22627	0.29748	0.26004	0.3553	0.26932	0.18238	0.10469	0.27239	0.15415	0.238	0.32224	0.14772	0.22401	-1.95	-2.4542	-2.95	-2.1979	-2.6896	-2.7	-2.4208	-3.1792	-2.3771	-2.575	-2.9833	-2.4021	-2.8542	-2.7812	-2.1896	-3.1167	159.331	128.657	37.160	66.515	-19.558	91.279	-91.215	161.738	192.170	114.567	246.004	234.103	200.218	-74.007	64.378	-88.697	0.00041827	0.00051656	0.00018888	1398.9	4.9132e-06	5.9168e-06	1388.4	363.75	2.8516e-06	4.9318e-06	409.47	134.68	117.05	39.063	3.7838e-06	48.533	0.0011227	0.0017045	0.00049157	1423.3	1.812e-05	1.9917e-05	1412	370.01	1.7542e-05	1.9584e-05	418.15	138.33	120.64	40.208	1.812e-05	49.979	139.296	1.861	-39.495	-99.955	33.348	23.844	-99.841	-95.086	-41.834	41.400	-95.702	-91.862	-90.759	-86.042	-0.817	-86.790	-8191	255	
28974.303	1	1	0	0	0.073129	0.16817	0.12367	0.19475	0.22999	0.21149	0.33171	0.25441	0.29259	0.080362	0.24902	0.15171	0.2719	0.081693	0.30083	0.23954	-2.1208	-2.1958	-2.9146	-2.3417	-2.5354	-2.7729	-2.325	-3.1583	-2.5292	-2.3625	-3.0271	-2.2833	-2.7542	-2.8354	-2.1042	-2.9938	-16.785	18.161	-56.652	196.305	-62.140	71.862	185.139	205.115	177.681	126.378	155.713	-92.337	242.988	212.847	27.080	144.135	0.00038295	0.00066523	7.8641e-05	1410.6	5.6211e-06	6.4404e-06	1397.4	363.44	3.0561e-06	5.407e-06	411.08	134.87	118.4	39.295	4.7316e-06	48.625	0.0011105	0.0017768	0.00049433	1427.3	1.8802e-05	2.0039e-05	1416.5	370.13	1.7814e-05	2.0187e-05	418.21	138.55	121.22	40.348	1.8974e-05	50.018	142.532	-11.282	-4.819	-99.767	15.530	27.342	-100.032	-94.964	-6.975	28.303	-95.394	-91.483	-91.085	-86.221	44.260	-86.772	-8191	255	
28974.398	1	1	0	0	0.026748	0.1017	0.14858	0.13911	0.16541	0.13567	0.36929	0.13	0.13342	0.20047	0.14278	0.13142	0.20606	0.10683	0.10155	0.17509	-2.1021	-2.2083	-2.9062	-2.5375	-2.5125	-2.9188	-2.2375	-3.0667	-2.6667	-2.3542	-3.1167	-2.5396	-2.475	-3.0812	-2.125	-2.9271	-35.806	96.167	14.386	-49.756	-45.484	-63.517	196.931	57.495	119.876	-57.196	-99.248	245.951	234.630	-68.186	88.256	12.911	0.00037584	0.00040887	8.59e-05	1410.2	2.8228e-06	5.0807e-06	1400.5	362.57	3.0679e-06	5.6543e-06	409.38	135.37	117.5	39.324	4.4948e-06	48.73	0.001178	0.0017935	0.00051712	1430.5	1.8848e-05	2.0001e-05	1418.1	369.9	1.7568e-05	2.0686e-05	418.88	138.81	121.16	40.466	1.9167e-05	50.157	150.924	-18.232	-28.078	-99.819	-16.215	52.533	-99.878	-95.210	35.257	15.840	-95.661	-91.593	-91.382	-86.260	11.572	-87.183	-8191	255	
28974.520	1	1	0	0	0.21051	0.16429	0.063513	0.037014	0.074689	0.13034	0.44223	0.2544	0.075519	0.23418	0.19796	0.082969	0.11198	0.25544	0.073407	0.14002	-2.4333	-2.1021	-2.9583	-2.5208	-2.575	-3.1833	-2.4146	-2.7313	-2.6583	-2.1917	-3.0812	-2.5917	-2.4208	-2.9208	-2.4479	-2.6271	119.177	172.622	-48.029	68.256	131.139	202.889	183.250	-84.120	230.617	-47.800	158.422	47.586	195.900	-16.857	29.950	-89.394	0.00044932	0.00052503	0.00013457	1415.1	2.7899e-06	4.6838e-06	1401.8	366	5.31e-06	4.1246e-06	410.97	135.28	118.57	39.222	4.4917e-06	48.743	0.0011911	0.0019393	0.00052347	1436.5	2.0513e-05	2.1572e-05	1422.3	372.01	1.8492e-05	2.1916e-05	419.92	139.09	121.58	40.493	1.962e-05	50.178	141.240	-4.216	-28.342	-100.129	10.163	39.694	-99.900	-95.265	25.838	16.882	-95.768	-91.789	-91.358	-86.238	34.298	-86.476	-8191	255	
28974.615	1	1	0	0	0.11875	0.12238	0.087715	0.10307	0.16868	0.20106	0.35701	0.06164	0.22813	0.03085	0.11583	0.21625	0.34851	0.098389	0.19716	0.22656	-2.4938	-2.2667	-2.9229	-2.6292	-2.4125	-3.0479	-2.7	-2.7646	-2.8208	-1.8458	-2.9167	-2.5917	-2.2562	-3.1396	-2.3125	-2.5708	237.369	171.768	-28.123	188.365	-110.268	-33.381	226.512	133.898	19.781	226.340	135.312	70.172	-72.704	-42.278	32.815	195.308	0.00041612	0.00044378	0.00012374	1421	4.7788e-06	1.266e-06	1401.2	366.69	2.189e-06	7.3962e-06	413.22	135.37	118.84	39.367	2.6829e-06	48.569	0.0011898	0.0019309	0.00054417	1439.3	2.042e-05	2.144e-05	1426.2	372.97	1.8181e-05	2.191e-05	421.31	139.24	121.66	40.537	1.9708e-05	50.156	141.600	-22.292	-21.625	-99.974	10.232	41.403	-99.950	-95.121	-9.975	43.382	-95.848	-91.543	-91.256	-85.897	36.147	-86.951	-8191	255	
28974.711	1	1	0	0	0.035928	0.28299	0.11862	0.11545	0.18388	0.23128	0.31321	0.48114	0.068588	0.2889	0.21689	0.16121	0.1517	0.077232	0.18443	0.13791	-2.6813	-1.9188	-2.9771	-2.7708	-2.2542	-3.0458	-2.4396	-2.5792	-3.0292	-2.0938	-2.9625	-2.9313	-2.3937	-3.1646	-2.4104	-2.4854	210.064	-3.535	91.445	93.963	79.732	-54.286	193.765	238.174	245.191	16.103	225.288	225.088	233.660	139.930	111.081	-107.852	0.00046425	0.00050849	0.00014498	1414.1	4.3082e-06	2.947e-06	1408.5	365.94	1.3259e-06	3.7657e-06	412.94	136.06	118.19	39.46	4.242e-06	48.664	0.0012068	0.0018885	0.00054622	1442.6	2.0368e-05	2.1503e-05	1429.2	373.14	1.8955e-05	2.2429e-05	421.49	139.5	121.7	40.62	1.9645e-05	50.252	146.524	-2.615	-18.470	-99.791	27.286	12.150	-99.910	-95.052	62.280	47.125	-95.624	-91.928	-91.269	-86.223	19.005	-86.649	-8191	255	
28974.807	1	1	0	0	0.1678	0.22558	0.23816	0.15231	0.06964	0.095241	0.30464	0.17436	0.1281	0.25131	0.26911	0.094559	0.1149	0.2105	0.18804	0.18304	-2.5104	-2.0854	-2.8458	-2.85	-2.3167	-2.9875	-2.7313	-2.3688	-2.9625	-2.3312	-2.7104	-2.9042	-2.3104	-2.875	-2.4958	-2.35	-108.012	167.065	26.349	202.614	131.179	118.162	174.770	158.658	201.809	44.544	182.026	-92.902	-46.261	230.826	-82.835	230.711	0.00047706	0.00035763	0.00011085	1425.3	3.8754e-06	5.0351e-06	1403.1	366.92	3.7751e-06	5.8952e-06	411.86	135.73	118.95	39.384	3.8156e-06	48.591	0.0011877	0.0019424	0.00054581	1446.1	2.0623e-05	2.1494e-05	1426.9	373.4	1.8492e-05	2.2172e-05	421.59	139.35	121.82	40.617	1.9319e-05	50.137	140.898	-33.356	-7.076	-99.886	45.323	29.969	-100.058	-95.014	8.877	26.523	-95.633	-91.577	-91.201	-86.275	5.942	-86.880	-8191	255	
28974.928	1	1	0	0	0.19183	0.29638	0.21642	0.045286	0.12667	0.35501	0.32026	0.291	0.11494	0.0093313	0.36691	0.29869	0.2035	0.11422	0.15971	0.12917	-2.6104	-2.3104	-2.5604	-2.8417	-2.1188	-2.8396	-2.9729	-2.4021	-2.975	-2.4583	-2.6688	-3.0417	-2.3	-2.7521	-2.4437	-2.2458	72.262	-5.542	-76.765	-26.999	-60.281	19.840	170.239	176.348	109.884	139.243	123.570	219.149	-3.432	-55.541	-43.734	194.204	0.00044341	0.00046372	0.00013019	1427.3	4.0961e-06	4.0406e-06	1408.2	365.59	3.9804e-06	3.493e-06	414.16	136.1	118.42	39.579	3.1975e-06	48.945	0.0012358	0.0019941	0.00053809	1446.1	2.0874e-05	2.137e-05	1428.7	373.13	1.8432e-05	2.1966e-05	421.6	139.51	121.61	40.6	1.9449e-05	50.334	146.923	-31.225	-26.347	-99.727	19.546	30.627	-99.806	-95.234	-25.559	58.662	-95.599	-91.623	-91.667	-85.942	31.371	-86.931	-8191	255	
28974.998	1	1	0	0	0.081911	0.18873	0.19686	0.19559	0.19654	0.096044	0.36903	0.13583	0.15807	0.36702	0.24724	0.090473	0.30277	0.43177	0.13513	0.26818	-2.6125	-2.0792	-2.3688	-3.1146	-2.1604	-2.8646	-2.9396	-2.425	-2.9771	-2.4458	-2.5896	-3.1271	-2.2958	-2.7146	-2.7354	-2.2458	205.444	179.732	-15.818	-53.389	70.979	230.300	179.990	125.698	197.477	-20.100	220.861	-80.502	-79.930	146.298	100.297	-97.363	0.00039866	0.00026722	4.8099e-05	1421.8	2.3285e-06	4.1693e-06	1408.1	365.19	2.567e-06	4.6672e-06	412.87	135.72	117.94	39.312	2.0102e-06	48.923	0.0012072	0.0018998	0.00053465	1443.8	2.0219e-05	2.1121e-05	1429.7	372.78	1.8554e-05	2.1906e-05	421.74	139.53	121.72	40.545	1.9299e-05	50.296	136.500	-17.691	-32.590	-100.036	37.371	32.290	-99.980	-95.136	-37.471	42.450	-95.658	-91.565	-91.218	-85.858	52.510	-87.079	-8191	255	
28975.096	1	1	0	0	0.25992	0.1453	0.11109	0.074065	0.12761	0.20095	0.2373	0.17366	0.38062	0.41565	0.31989	0.054524	0.11502	0.26916	0.23357	0.30697	-2.6312	-2.4062	-2.4313	-2.9417	-2.1833	-2.7167	-3.0229	-2.2479	-2.8063	-2.4396	-2.3187	-3.1646	-2.4104	-2.8479	-2.7583	-2.4021	-40.728	-103.531	-13.304	244.474	-82.917	213.710	198.021	153.006	208.680	11.604	212.773	231.671	197.145	187.025	194.135	-103.753	0.00047935	0.00022677	0.00014014	1423.8	3.1754e-06	4.5915e-06	1406.6	366.78	3.6015e-06	4.724e-06	414.23	135.77	118.6	39.58	2.319e-06	48.619	0.0012236	0.001879	0.00053008	1444.7	1.9403e-05	2.1733e-05	1431.2	373.34	1.8791e-05	2.1944e-05	422	139.38	121.85	40.672	1.9287e-05	50.255	142.050	6.772	-22.675	-100.004	6.509	6.382	-99.939	-95.065	10.206	34.000	-95.463	-91.567	-91.306	-85.797	45.257	-86.891	-8191	255	
28975.191	1	1	0	0	0.32289	0.31517	0.093544	0.12516	0.027534	0.12216	0.051241	0.44481	0.29058	0.16657	0.10307	0.098259	0.089419	0.18717	0.17881	0.07099	-2.4667	-2.5708	-2.3771	-2.9729	-2.25	-2.3937	-3.1229	-2.3479	-2.8083	-2.6854	-2.1375	-3.0563	-2.4667	-2.4083	-2.8896	-2.1833	197.210	-45.001	24.914	185.371	-82.878	31.520	236.139	213.338	92.004	-63.741	-55.845	196.949	-90.091	-20.607	140.310	44.151	0.00044292	0.00041617	0.0001428	1421.6	6.4929e-06	3.2636e-06	1406.8	365.87	2.9657e-06	4.4683e-06	412.11	135.53	118.56	39.725	2.9002e-06	48.781	0.0011976	0.0019198	0.0005321	1445	2.0621e-05	2.1771e-05	1429.2	373.15	1.8269e-05	2.1089e-05	421.62	139.46	121.71	40.678	1.9272e-05	50.237	140.222	-30.520	-34.904	-99.755	38.777	36.251	-99.972	-95.137	11.942	42.387	-95.512	-91.364	-91.281	-86.043	28.273	-86.782	-8191	255	
28975.312	1	1	0	0	0.023576	0.073257	0.076445	0.1945	0.030581	0.22404	0.20085	0.086864	0.24792	0.27821	0.29219	0.21523	0.17175	0.15485	0.11662	0.092045	-2.475	-2.55	-2.1979	-3.0271	-2.3146	-2.4125	-3.3187	-2.45	-2.6667	-2.7396	-2.3583	-3.1562	-2.5396	-2.4396	-3.125	-2.4479	-89.975	211.366	-37.522	180.186	-82.258	-29.312	181.131	150.513	-76.021	209.697	193.206	208.518	242.107	-95.629	187.725	168.559	0.00045054	0.00067611	0.00011133	1425.6	3.0808e-06	6.0419e-06	1414.2	366.44	3.2623e-06	2.1251e-06	411.68	136.03	118.83	39.374	3.0557e-06	48.732	0.0011633	0.0019001	0.0005403	1447.9	2.0089e-05	2.174e-05	1432.2	373.11	1.8561e-05	2.0315e-05	421.19	139.49	121.76	40.516	1.8779e-05	50.234	147.411	-31.393	-49.019	-99.752	14.478	27.533	-99.856	-95.304	22.271	4.672	-95.484	-91.429	-91.325	-86.067	39.579	-86.783	-8191	255	
28975.408	1	1	0	0	0.19528	0.24268	0.30857	0.24484	0.21835	0.14195	0.098262	0.20594	0.29232	0.077215	0.30009	0.072234	0.10583	0.12696	0.040341	0.43512	-2.1771	-2.9479	-2.0312	-2.9396	-2.5333	-2.2375	-3.2375	-2.4229	-2.5917	-2.9229	-2.3	-3.0833	-2.7375	-2.4833	-2.9771	-2.4979	44.204	29.149	193.830	206.659	209.619	230.364	160.049	178.013	-108.763	-85.694	164.204	152.335	-19.231	21.077	55.647	175.124	0.0004133	0.0005527	0.00015078	1430	4.0747e-06	6.5485e-06	1408.5	364.49	6.1106e-06	2.2804e-06	411.96	135.98	118.2	39.283	3.6551e-06	48.721	0.001173	0.0018279	0.00054098	1445.9	1.9516e-05	2.1385e-05	1428.6	372.76	1.8506e-05	2.0758e-05	420.6	139.32	121.48	40.446	1.8743e-05	50.15	148.808	-47.073	-14.301	-99.774	67.207	51.982	-99.877	-95.261	-13.479	19.378	-95.656	-91.647	-91.223	-86.146	19.319	-86.951	-8191	255	
28975.504	1	1	0	0	0.15113	0.12852	0.085525	0.29686	0.17426	0.10337	0.32105	0.16066	0.20014	0.23079	0.19915	0.25485	0.049354	0.14581	0.15216	0.074033	-2.05	-2.8396	-2.2021	-2.9646	-2.6125	-2.0687	-3.1208	-2.4292	-2.5271	-2.9125	-2.35	-2.8979	-2.8604	-2.4375	-2.9896	-2.6813	-18.694	82.477	-66.079	181.633	-97.395	14.101	158.261	123.088	127.938	29.090	-104.499	191.827	64.455	-65.619	32.740	121.160	0.00044178	0.00047845	0.00011987	1426.8	5.2299e-06	4.4604e-06	1411.2	365.97	3.5993e-06	6.2387e-06	412.75	135.63	118.63	39.378	2.3726e-06	48.583	0.0012	0.0018257	0.00053595	1445.3	1.9229e-05	2.1386e-05	1429.8	373.03	1.8492e-05	2.156e-05	421.27	139.4	121.76	40.532	1.8843e-05	50.153	140.842	-23.729	-9.468	-99.695	33.427	41.188	-99.847	-95.173	-15.359	61.390	-95.306	-91.613	-91.268	-86.096	3.178	-86.806	-8191	255	
28975.600	1	1	0	0	0.11123	0.1058	0.070497	0.13358	0.11692	0.31736	0.15468	0.24562	0.24955	0.10242	0.25896	0.22314	0.089662	0.22558	0.32027	0.23963	-1.9438	-2.8396	-2.2292	-2.8417	-2.9604	-2.1208	-3.0875	-2.7562	-2.3875	-2.8708	-2.5312	-2.6625	-2.9333	-2.1521	-2.8479	-2.75	-65.003	-101.512	158.213	-63.721	88.862	-102.010	96.369	168.656	170.152	182.177	141.716	49.946	218.840	104.728	32.207	125.615	0.00042213	0.00041827	0.00016236	1426.6	5.1668e-06	4.3633e-06	1408.7	365.17	4.9672e-06	3.0918e-06	413.69	136.13	118.19	39.257	3.8743e-06	48.548	0.001219	0.0018443	0.00053351	1444.5	1.8773e-05	2.0882e-05	1428.7	372.52	1.8029e-05	2.0597e-05	421.41	139.31	121.62	40.499	1.8856e-05	50.064	140.337	-21.717	-39.292	-99.918	7.030	17.338	-99.738	-94.966	5.137	10.052	-95.441	-91.603	-91.297	-86.238	21.894	-86.727	-8191	255	
28975.697	1	1	0	0	0.14745	0.21214	0.22623	0.061508	0.11185	0.10094	0.26702	0.16548	0.31064	0.27852	0.22287	0.19534	0.20452	0.11071	0.19482	0.096903	-1.7563	-3.0125	-2.3563	-2.7583	-3.0187	-2.2812	-3.2292	-2.9542	-2.1708	-3.0708	-2.6104	-2.5563	-3.0583	-2.3167	-2.7396	-2.6833	-101.125	-51.682	71.519	81.347	97.510	-65.638	174.689	190.459	39.294	129.532	221.608	204.958	196.199	195.406	149.624	150.467	0.00043047	0.00052918	0.00010169	1426.9	5.3446e-06	7.5126e-06	1405.5	363.45	4.5221e-06	4.2936e-06	413.17	135.75	118.23	39.352	4.609e-06	48.626	0.0011741	0.0018466	0.00050958	1442.7	1.9075e-05	2.0882e-05	1427	371.9	1.8172e-05	2.0675e-05	421.23	139.25	121.71	40.517	1.9252e-05	50.194	143.206	-8.238	-0.045	-99.723	12.857	33.024	-99.772	-95.150	26.161	30.024	-95.868	-91.493	-91.218	-85.968	-6.096	-87.112	-8191	255	
28975.793	1	1	0	0	0.35358	0.013751	0.039859	0.039659	0.12721	0.1146	0.066419	0.099018	0.12824	0.17406	0.20624	0.047407	0.14215	0.41	0.081386	0.40237	-1.8062	-2.9729	-2.4542	-2.4542	-2.9833	-2.3417	-2.9979	-2.9833	-2.0167	-2.85	-2.6708	-2.4729	-2.9458	-2.3438	-2.5583	-2.9271	77.671	105.800	-15.417	233.468	-88.489	89.570	222.022	165.533	50.295	79.568	170.512	28.365	-103.809	215.351	-21.557	155.937	0.0004338	0.00055802	0.00013654	1432.8	1.7033e-06	6.3473e-06	1406.4	365.51	2.3342e-06	5.4896e-06	412.68	135.66	118.46	39.323	3.47e-06	48.752	0.0012097	0.0018022	0.00052891	1447.3	1.9358e-05	2.1334e-05	1427.8	372.67	1.8179e-05	2.1155e-05	420.6	139.25	121.72	40.509	1.8424e-05	50.161	145.980	-4.845	-54.401	-100.015	52.614	27.573	-99.722	-95.201	-4.683	52.565	-95.547	-91.472	-91.200	-86.001	10.855	-87.007	-8191	255	
28975.912	1	1	0	0	0.055919	0.10791	0.19548	0.22301	0.13181	0.039025	0.19616	0.27696	0.24005	0.30053	0.10264	0.10228	0.20713	0.22741	0.22245	0.20177	-1.9146	-2.9771	-2.4938	-2.4396	-2.9917	-2.3958	-2.8125	-2.8063	-2.1958	-2.9083	-2.5687	-2.3125	-3.0354	-2.4375	-2.5542	-2.9833	220.990	221.634	167.428	131.180	-109.570	150.897	196.382	223.895	31.029	82.423	-57.379	172.584	7.148	230.400	229.124	-54.026	0.00041092	0.00046745	0.00011674	1427.5	3.8924e-06	4.3693e-06	1407.5	366.23	4.609e-06	3.3468e-06	413.89	135.89	117.67	39.234	2.0911e-06	48.608	0.0012112	0.0018041	0.00051095	1446.5	1.9318e-05	2.0545e-05	1428.8	373.22	1.8759e-05	2.1141e-05	421.56	139.3	121.67	40.474	1.8693e-05	50.126	148.357	-33.109	-39.750	-99.427	21.233	52.326	-99.942	-95.200	17.536	13.108	-95.824	-91.554	-91.225	-86.249	14.739	-87.304	-8191	255	
28976.008	1	1	0	0	0.056394	0.19541	0.087226	0.41519	0.11088	0.11552	0.30412	0.26303	0.22602	0.30119	0.11857	0.22592	0.18991	0.023068	0.19119	0.097605	-1.7042	-2.8021	-2.5792	-2.2729	-2.9208	-2.3104	-2.7812	-3.1354	-2.0958	-2.8812	-2.8354	-2.3417	-3.1458	-2.5521	-2.4875	-3.2333	63.525	-50.514	-61.930	-65.686	231.949	-13.678	208.731	191.998	197.855	152.116	191.479	-60.147	44.334	207.260	19.233	77.162	0.00040418	0.00051497	0.00016353	1421.1	2.7614e-06	3.804e-06	1406.4	365.45	6.7337e-06	6.8462e-06	411.82	135.52	118	39.382	4.6061e-06	48.707	0.0011992	0.0018113	0.00050801	1443.2	1.9337e-05	2.0525e-05	1428.4	372.45	1.8004e-05	2.0754e-05	420.61	139.13	121.52	40.526	1.8731e-05	50.206	142.087	-19.431	-34.246	-100.028	26.721	39.103	-99.937	-95.384	13.042	27.134	-95.700	-91.736	-91.441	-86.243	31.639	-86.887	-8191	255	
28976.104	1	1	0	0	0.15021	0.13156	0.33433	0.1476	0.16157	0.20921	0.11691	0.092881	0.14963	0.28545	0.13521	0.15049	0.151	0.10852	0.33058	0.059473	-1.8687	-2.7354	-2.6771	-2.0583	-3.1562	-2.3833	-2.4521	-3.2125	-2.2729	-2.6771	-2.9188	-2.2333	-2.9479	-2.4271	-2.1833	-3.1417	72.738	-69.966	99.452	207.891	-39.634	-84.517	204.271	201.130	-26.643	-93.756	120.376	-30.812	-110.972	-47.107	175.090	23.684	0.00041647	0.00031576	0.00016471	1418.3	3.6854e-06	6.6366e-06	1408.3	365.23	2.6502e-06	2.2727e-06	413.36	135.12	117.97	39.274	9.494e-07	48.767	0.0011999	0.0017826	0.00050524	1443.8	1.9223e-05	2.0744e-05	1428.9	372.49	1.7786e-05	2.017e-05	420.8	139.41	121.28	40.409	1.8193e-05	50.232	142.975	-17.527	-8.095	-99.822	13.423	33.764	-99.742	-95.155	3.025	24.418	-95.611	-91.771	-91.497	-86.115	16.301	-86.991	-8191	255	
28976.225	1	1	0	0	0.10289	0.17154	0.17227	0.24769	0.10342	0.10579	0.18021	0.53172	0.072149	0.071953	0.16342	0.16092	0.099755	0.11633	0.080636	0.2633	-1.8958	-2.4604	-2.6125	-2.4188	-2.9354	-2.5854	-2.6792	-2.9917	-2.2896	-2.4667	-3.1708	-2.1917	-3.0375	-2.7604	-2.1417	-3.0312	70.213	-71.826	156.005	-25.676	-51.845	206.738	160.638	162.309	108.728	-20.724	-81.895	-101.882	-20.979	222.063	195.473	234.739	0.00038198	0.0004858	0.00010794	1417.6	5.1534e-06	3.8417e-06	1404.7	364.16	5.4838e-06	3.6472e-06	413.25	135.13	118.25	39.258	4.3951e-06	48.569	0.0011892	0.0017919	0.00049337	1439.7	1.9084e-05	2.0141e-05	1427.7	372.08	1.755e-05	2.1025e-05	420.57	139.07	121.67	40.414	1.8587e-05	50.154	143.051	-29.750	-28.371	-99.957	33.927	35.629	-99.902	-95.223	-0.248	17.917	-95.852	-91.390	-91.443	-86.428	22.490	-87.149	-8191	255	
28976.297	1	1	0	0	0.27844	0.14192	0.26989	0.2332	0.30328	0.046608	0.17643	0.14288	0.36585	0.16486	0.29046	0.19895	0.11031	0.15965	0.22498	0.18351	-2.0958	-2.3417	-3	-2.2792	-2.7292	-2.7708	-2.4313	-3.0062	-2.4646	-2.4396	-3.1646	-2.3688	-2.7792	-2.975	-2.1625	-3.1188	190.149	-105.573	-91.144	195.535	118.532	-49.469	201.084	2.115	60.556	157.970	219.229	135.727	199.031	81.699	66.364	58.385	0.00043477	0.00055096	0.00015306	1428.7	4.4835e-06	3.6173e-06	1403.7	365.17	4.3328e-06	4.6063e-06	413.04	136.21	118.69	39.336	3.4932e-06	48.822	0.001176	0.001823	0.00050175	1445.7	1.8897e-05	2.0558e-05	1427.4	372.67	1.7446e-05	2.0781e-05	421.05	139.15	121.68	40.475	1.8482e-05	50.179	141.857	-22.901	-37.176	-99.936	33.526	20.024	-99.913	-95.580	-48.641	21.243	-95.662	-91.486	-91.648	-86.275	49.634	-86.919	-8191	255	
28976.391	1	1	0	0	0.1387	0.22221	0.12692	0.17912	0.12009	0.077554	0.37806	0.33574	0.13834	0.25753	0.19465	0.17646	0.12864	0.090219	0.12269	0.12842	-2.05	-2.3021	-2.8375	-2.2042	-2.6625	-2.9979	-2.2833	-3.0729	-2.4458	-2.2875	-3.1104	-2.3042	-2.6917	-2.9354	-2.2104	-2.8729	72.994	165.425	-44.321	-112.664	-77.408	30.524	217.004	216.133	5.424	-35.878	239.507	-23.286	216.277	217.168	-85.820	239.402	0.00043734	0.00068208	0.00013987	1417	3.6499e-06	4.1108e-06	1404.9	365.59	3.1063e-06	4.8564e-06	413.5	135.64	118.6	39.407	4.6431e-06	48.521	0.001186	0.0018474	0.00051323	1440.9	1.9113e-05	2.0695e-05	1426.7	372.5	1.7339e-05	2.1176e-05	421.37	139.14	121.72	40.537	1.9153e-05	50.086	149.289	-15.785	-32.307	-100.071	28.856	37.033	-99.939	-95.286	19.448	33.892	-95.644	-91.630	-91.515	-86.414	25.189	-86.979	-8191	255	
28976.486	1	1	0	0	0.047624	0.36244	0.081429	0.24662	0.15707	0.070689	0.28169	0.24043	0.052949	0.18192	0.20123	0.2941	0.21802	0.16965	0.022721	0.095143	-2.2125	-2.1792	-3.1729	-2.3729	-2.4167	-2.9042	-2.2542	-3.0333	-2.6708	-2.1688	-3.2125	-2.3208	-2.5271	-2.925	-2.2583	-2.8208	143.029	108.708	43.011	-55.481	146.291	-109.071	232.839	218.837	172.307	9.922	203.404	-110.726	80.660	198.347	161.837	15.081	0.00044	0.00048401	0.00013091	1421	3.5183e-06	4.6427e-06	1404.7	366.94	2.7963e-06	4.7225e-06	412.21	136.2	117.73	39.497	3.483e-06	48.87	0.0011801	0.0018579	0.00049738	1443.9	1.9135e-05	2.0745e-05	1426.8	373.1	1.7743e-05	2.1207e-05	420.95	139.12	121.69	40.58	1.8651e-05	50.264	142.191	-6.305	-32.314	-99.776	13.375	70.295	-99.893	-95.197	40.312	36.970	-95.831	-91.986	-91.301	-86.309	11.464	-87.264	-8191	255	
28976.607	1	1	0	0	0.04051	0.14987	0.21386	0.10811	0.15445	0.0622	0.17079	0.29476	0.20636	0.20642	0.21707	0.19878	0.066347	0.11129	0.15568	0.40386	-2.1917	-2.0271	-2.9625	-2.5292	-2.3396	-2.9813	-2.3292	-2.8875	-2.5667	-2.2208	-2.9667	-2.6688	-2.45	-2.8688	-2.1688	-2.6625	-9.125	160.426	46.233	103.632	72.770	125.749	188.311	178.547	106.312	-28.153	-75.199	213.698	-88.481	-95.781	-31.051	69.055	0.00037799	0.00079807	8.47e-05	1426.8	5.1468e-06	5.8486e-06	1407.4	364.64	2.0962e-06	2.5809e-06	410.72	135.34	118.55	39.352	3.1209e-06	48.867	0.0011823	0.0018628	0.00050232	1441.9	1.9598e-05	2.0137e-05	1426.9	372.6	1.7738e-05	2.0865e-05	419.93	138.99	121.64	40.509	1.8531e-05	50.262	142.861	-10.423	5.155	-99.813	45.480	29.324	-99.985	-95.192	-6.397	28.968	-95.761	-91.517	-91.350	-86.134	59.843	-87.033	-8191	255	
28976.703	1	1	0	0	0.15024	0.048226	0.14882	0.11991	0.23973	0.16979	0.16543	0.58482	0.32179	0.20006	0.15593	0.10322	0.09073	0.05717	0.1582	0.26303	-2.2687	-2.0458	-2.9208	-2.3688	-2.4042	-3.0083	-2.4542	-2.8479	-2.85	-2.0875	-2.6604	-2.7188	-2.2604	-2.8875	-2.2438	-2.6167	50.363	15.593	-85.038	135.619	67.563	123.293	222.673	-91.096	166.156	-67.112	95.213	-88.461	145.496	215.382	97.644	214.854	0.00044674	0.00046842	0.00017804	1419.9	5.1844e-06	4.8299e-06	1401.2	365.08	3.6075e-06	5.3775e-06	412.63	135.97	117.63	39.473	2.0628e-06	48.68	0.001143	0.0018117	0.00049797	1439.1	1.9277e-05	2.0063e-05	1425.7	372.28	1.783e-05	2.1143e-05	420.14	139.19	121.43	40.578	1.8148e-05	50.171	143.391	-7.843	-20.065	-100.060	25.284	42.458	-100.196	-95.439	16.526	-8.593	-95.714	-91.564	-91.201	-86.237	6.841	-86.860	-8191	255	
28976.801	1	1	0	0	0.20838	0.060481	0.051725	0.23527	0.10986	0.090635	0.22475	0.20632	0.29969	0.25204	0.33664	0.16833	0.19943	0.26814	0.27062	0.30688	-2.5792	-1.9708	-2.7583	-2.7646	-2.0729	-2.7958	-2.3375	-2.5479	-2.8646	-2.2188	-2.9104	-2.8063	-2.2292	-2.9458	-2.2729	-2.4042	204.784	233.839	170.426	140.547	-73.774	95.992	226.085	165.113	-65.497	153.316	234.340	234.419	187.348	169.130	-13.569	193.848	0.00039094	0.00039639	0.00011119	1420.8	5.6438e-06	8.7443e-06	1405.2	366.98	4.6015e-06	5.4832e-06	411.89	135.35	118.16	39.34	3.3843e-06	48.716	0.0011678	0.0017818	0.00050608	1442.8	1.893e-05	2.014e-05	1424.6	372.46	1.7424e-05	2.0283e-05	420.34	139.19	121.53	40.494	1.8327e-05	50.198	144.008	8.296	-13.350	-100.111	44.398	23.563	-100.090	-95.103	-30.538	39.066	-95.605	-91.794	-91.227	-86.356	25.445	-86.666	-8191	255	
28976.871	1	1	0	0	0.24148	0.23159	0.096548	0.29952	0.33689	0.11649	0.22	0.070447	0.16881	0.031739	0.091766	0.2251	0.13786	0.1346	0.079947	0.32971	-2.5812	-2.1708	-2.8292	-2.8083	-2.325	-2.7396	-2.5563	-2.4104	-2.9521	-2.1875	-2.9625	-2.8854	-2.1063	-2.8937	-2.5104	-2.3042	53.289	172.976	-18.386	-91.673	38.891	119.874	154.478	-4.006	1.697	4.793	180.631	221.815	242.935	163.534	223.865	190.439	0.00044334	0.00070754	8.0952e-05	1423.9	4.2008e-06	4.6653e-06	1405.8	364.64	7.6145e-06	4.6962e-06	411.79	134.89	118.41	39.348	2.131e-06	48.771	0.0011289	0.001795	0.00050933	1442.6	1.9503e-05	1.9775e-05	1424.5	372.62	1.7644e-05	2.0186e-05	420.62	138.79	121.44	40.429	1.7983e-05	50.142	137.025	-20.835	-8.994	-100.031	23.388	60.254	-100.189	-95.219	31.790	53.001	-95.570	-91.757	-91.280	-86.000	22.667	-87.012	-8191	255	
28976.992	1	1	0	0	0.11722	0.19929	0.13523	0.20772	0.17213	0.054799	0.15586	0.080198	0.11124	0.13482	0.2769	0.18042	0.12456	0.09261	0.039388	0.2254	-2.6437	-2.1146	-2.4	-2.9688	-2.1729	-2.925	-2.8792	-2.4354	-2.9667	-2.3042	-2.5729	-2.8167	-2.1917	-2.8292	-2.6208	-2.2458	165.817	-112.915	-101.001	223.509	-89.029	81.458	232.827	64.669	141.251	81.673	156.528	-40.285	-113.088	-29.690	-104.793	182.897	0.00042845	0.00053632	0.00014503	1424.6	3.2009e-06	5.4425e-06	1400.5	366.67	3.5165e-06	5.1709e-06	410.96	135.66	119.06	39.29	1.9307e-06	48.68	0.0011516	0.0017661	0.00051252	1442.4	1.9274e-05	1.9725e-05	1425.2	372.9	1.7162e-05	2.0463e-05	420.26	139.22	121.68	40.501	1.88e-05	50.089	140.577	-37.526	-3.360	-100.095	50.290	33.991	-100.172	-95.133	-29.067	29.441	-95.512	-91.603	-91.393	-85.989	21.538	-87.109	-8191	255	
28977.088	1	1	0	0	0.087122	0.051929	0.15157	0.086698	0.17365	0.26776	0.07663	0.31719	0.083182	0.063997	0.22239	0.16955	0.016746	0.28915	0.16745	0.15718	-2.5604	-2.1604	-2.4417	-3.0417	-1.9562	-2.8479	-2.725	-2.4167	-2.9125	-2.3229	-2.4583	-2.9833	-1.9354	-2.7958	-2.7229	-2.2313	33.076	-55.439	-100.462	-105.328	149.621	176.124	-23.172	192.385	-39.108	-35.075	211.126	225.143	184.575	166.308	-1.409	-80.520	0.00040243	0.00048252	0.00017911	1421.2	3.0033e-06	5.7584e-06	1405.6	366.04	4.1661e-06	2.6164e-06	413.25	135.67	117.93	39.271	4.7252e-06	48.533	0.0011515	0.0017847	0.00051232	1442.8	1.8918e-05	2.0493e-05	1426.5	372.91	1.7241e-05	1.9953e-05	421.09	139.07	121.39	40.473	1.8625e-05	50.118	145.309	-3.036	-35.220	-99.992	41.859	23.364	-100.181	-95.135	18.000	-12.839	-95.652	-91.592	-91.640	-86.050	29.434	-86.997	-8191	255	
28977.184	1	1	0	0	0.13404	0.20434	0.03799	0.044059	0.23017	0.099364	0.10918	0.39294	0.14106	0.061112	0.15809	0.13187	0.086656	0.22984	0.23543	0.19134	-2.4958	-2.4188	-2.2292	-3.0875	-2.1104	-2.6188	-3.1021	-2.2042	-2.8187	-2.5312	-2.4771	-3.1854	-2.3937	-2.8271	-3.0604	-2.15	-31.936	102.559	57.723	238.029	169.527	-41.975	209.170	224.249	193.520	150.230	139.343	197.423	-16.735	164.660	174.214	207.649	0.00039205	0.00028522	0.00018622	1421.5	5.029e-06	6.4885e-06	1405.7	365.02	3.2908e-06	7.1076e-06	412.22	134.98	118.64	39.279	3.2373e-06	48.41	0.0011485	0.0018	0.00051113	1439.9	1.8618e-05	2.0064e-05	1424.7	372.18	1.7083e-05	2.0124e-05	420.54	139.04	121.68	40.432	1.8316e-05	49.962	138.887	-34.850	-50.293	-100.275	28.295	36.899	-99.715	-94.907	-20.962	29.830	-95.523	-91.761	-91.619	-86.075	13.699	-86.740	-8191	255	
28977.303	1	1	0	0	0.11005	0.070629	0.0885	0.29962	0.13568	0.086386	0.24146	0.44963	0.14558	0.074825	0.15939	0.2462	0.31274	0.35612	0.028514	0.26026	-2.3896	-2.4417	-2.3208	-3.075	-2.1063	-2.5479	-3.0792	-2.2833	-2.7771	-2.5917	-2.3708	-3.0604	-2.3208	-2.5542	-2.8396	-2.2875	117.940	77.189	118.337	-55.984	-19.410	-9.648	222.537	170.733	154.417	12.233	196.819	161.933	165.188	210.353	48.891	167.267	0.00036838	0.00028534	9.8009e-05	1415	3.8985e-06	2.4372e-06	1399.1	366.08	2.1581e-06	3.5024e-06	411.79	134.67	118.69	39.29	4.6505e-06	48.62	0.0011402	0.0017464	0.00050498	1438.2	1.8441e-05	2.0079e-05	1423.7	372.28	1.7106e-05	2.0163e-05	420.31	138.95	121.66	40.463	1.8435e-05	50.041	146.630	-14.800	-0.657	-100.063	24.271	35.854	-99.987	-94.968	-15.305	31.216	-95.626	-91.545	-91.289	-86.219	21.566	-86.959	-8191	255	
28977.398	1	1	0	0	0.16369	0.18643	0.19064	0.28732	0.17426	0.14988	0.29583	0.25211	0.25688	0.25197	0.11322	0.27192	0.074551	0.26298	0.29312	0.10576	-2.3229	-2.6437	-2.0667	-3.0021	-2.4562	-2.3896	-3.1521	-2.2896	-2.5771	-2.9104	-2.3271	-3.0083	-2.5854	-2.5396	-3.0104	-2.2479	57.591	-94.345	190.357	180.098	58.657	-51.806	193.745	235.322	105.125	23.638	-18.698	220.171	206.416	-99.835	153.296	98.784	0.00048991	0.00047697	9.4837e-05	1424.1	5.7544e-06	5.7476e-06	1401.3	365	4.3006e-06	4.8971e-06	411.85	135.21	118.01	39.348	2.8465e-06	48.748	0.0011269	0.0017226	0.00049973	1438.5	1.8503e-05	2.0006e-05	1422.9	371.76	1.6812e-05	2.0242e-05	419.83	138.83	121.16	40.499	1.7748e-05	49.977	144.000	-18.339	-27.398	-99.942	13.443	43.479	-99.951	-95.222	12.137	56.423	-95.564	-91.343	-91.276	-86.077	32.244	-86.950	-8191	255	
28977.473	1	1	0	0	0.18928	0.1497	0.04093	0.048778	0.11241	0.17738	0.33824	0.2104	0.091014	0.067041	0.037421	0.21393	0.1685	0.52696	0.062107	0.12796	-2.1188	-2.8354	-2.2125	-3.0854	-2.4333	-2.1667	-3.2417	-2.2396	-2.5021	-2.9208	-2.2667	-2.8688	-2.6833	-2.2479	-3.175	-2.5354	-20.249	-36.500	19.740	-1.484	25.005	52.002	192.827	-98.686	23.694	160.275	239.549	-3.682	-103.724	229.694	48.379	133.432	0.0004031	0.00028531	9.6602e-05	1419.6	4.9314e-06	4.5985e-06	1398.1	363.57	3.7025e-06	5.3294e-06	410.19	136.17	118.71	39.348	5.5026e-06	48.65	0.0011455	0.0017335	0.00051195	1440.5	1.815e-05	2.032e-05	1419.7	371.22	1.7098e-05	1.973e-05	418.87	139.11	121.41	40.418	1.7613e-05	50.029	141.824	-10.583	-46.025	-99.664	47.459	18.855	-99.976	-95.405	19.624	26.741	-95.454	-91.633	-90.954	-86.059	45.437	-86.896	-8191	255	
28977.592	1	1	0	0	0.16428	0.21498	0.32883	0.066225	0.099639	0.21059	0.21475	0.1621	0.25744	0.152	0.057501	0.10984	0.10816	0.034736	0.29925	0.17246	-1.9542	-3.1479	-1.9667	-2.8667	-2.7146	-2.1813	-3.1854	-2.4938	-2.4	-2.8937	-2.4208	-2.7708	-2.8812	-2.3312	-2.8542	-2.5521	-24.151	0.246	100.616	37.470	52.200	92.204	157.438	173.029	7.353	-44.089	205.756	-77.720	167.022	62.087	50.012	131.501	0.00044589	0.00056383	0.0001296	1420.4	1.9841e-06	4.1969e-06	1408.3	364.95	5.2853e-06	6.6434e-06	412.91	134.85	118.01	39.413	6.2032e-06	48.218	0.0011274	0.0017022	0.00048882	1439.2	1.827e-05	2.0009e-05	1425.4	371.75	1.72e-05	1.9519e-05	419.39	138.88	121.31	40.464	1.7523e-05	49.89	141.794	-0.545	-16.730	-99.897	28.856	33.417	-99.813	-95.267	-2.271	57.695	-95.523	-91.357	-91.206	-86.005	23.759	-86.653	-8191	255	
28977.688	1	1	0	0	0.052124	0.27165	0.35713	0.25499	0.083549	0.34603	0.41139	0.13575	0.15818	0.21991	0.20397	0.12247	0.14911	0.37496	0.11966	0.20485	-1.9229	-2.9604	-2.1833	-2.8063	-2.5812	-2.2333	-3.1104	-2.5625	-2.1792	-3.0021	-2.3958	-2.7125	-2.8333	-2.0938	-2.8458	-2.5667	105.565	204.756	-9.717	242.255	14.766	94.847	186.325	143.634	209.863	152.335	200.198	234.210	203.346	-110.179	146.609	174.151	0.00045016	0.00055435	0.00014522	1415.6	5.919e-06	6.4406e-06	1402	363.79	3.9177e-06	6.4889e-06	410.82	135.84	117.69	39.396	2.2034e-06	48.602	0.0011138	0.0017387	0.00050526	1439.1	1.8239e-05	2.0192e-05	1424.3	371.95	1.7137e-05	1.9808e-05	419.23	138.91	121.17	40.409	1.7664e-05	49.984	141.861	-22.119	-22.390	-99.777	27.216	43.420	-99.840	-95.102	-6.249	79.309	-95.557	-91.624	-91.031	-86.311	46.792	-86.959	-8191	255	
28977.783	1	1	0	0	0.1835	0.063901	0.15431	0.52111	0.11384	0.12243	0.048023	0.017728	0.13057	0.18323	0.18999	0.20101	0.16499	0.22442	0.15742	0.16309	-1.7521	-2.9229	-2.2417	-2.6875	-2.7833	-2.1562	-3.1146	-2.9125	-2.0729	-2.7854	-2.2729	-2.3771	-2.8083	-2.1833	-2.6854	-2.7812	230.942	-47.239	141.874	229.433	112.073	-32.811	184.500	-63.783	11.376	108.152	81.034	201.452	221.637	-73.744	88.768	120.721	0.00041518	0.0006645	0.00013123	1424.7	4.4729e-06	5.5843e-06	1401.8	365.58	5.4359e-06	3.9726e-06	409.85	135.59	117.67	39.232	5.2018e-06	48.631	0.0011152	0.0017187	0.00050526	1441.3	1.8713e-05	2.0003e-05	1423.9	371.53	1.7514e-05	1.9886e-05	419.17	139.07	121.19	40.361	1.8044e-05	50.019	148.806	-21.295	-21.694	-99.630	20.224	49.897	-99.678	-95.111	2.465	57.295	-95.259	-91.374	-91.255	-86.228	23.887	-86.806	-8191	255	
28977.904	1	1	0	0	0.19105	0.067403	0.10286	0.15845	0.1884	0.14496	0.16639	0.30749	0.12128	0.078026	0.38019	0.15771	0.10926	0.13668	0.096741	0.12925	-1.625	-2.8812	-2.2771	-2.5917	-2.9688	-1.8937	-2.9604	-3.0354	-2.1167	-2.825	-2.5833	-2.5438	-2.9354	-2.1437	-2.8688	-2.8417	-56.734	-99.106	203.000	-76.319	193.992	-70.460	197.084	240.743	99.308	-56.765	214.762	240.100	220.905	204.124	130.602	179.796	0.00044766	0.00019679	0.00016866	1417.6	3.9513e-06	5.5972e-06	1399.5	363.82	3.6527e-06	3.8617e-06	412.24	135.07	118.19	39.265	5.2331e-06	48.439	0.001128	0.001709	0.00049706	1437.3	1.8407e-05	2.0634e-05	1421.4	371.31	1.7227e-05	1.9303e-05	419.52	138.77	121.31	40.4	1.7758e-05	49.997	143.223	-20.265	-33.650	-99.715	15.102	12.611	-99.619	-95.087	24.340	-6.353	-95.546	-91.696	-91.084	-86.135	-13.017	-87.016	-8191	255	
28978.002	1	1	0	0	0.19571	0.141	0.24116	0.32737	0.10038	0.038057	0.18834	0.28728	0.26712	0.21145	0.14912	0.30381	0.18345	0.13931	0.16234	0.27139	-1.825	-2.8104	-2.4167	-2.3854	-2.9604	-2.0604	-2.7479	-2.9854	-2.2062	-2.7958	-2.625	-2.2708	-3.0271	-2.2188	-2.3146	-2.9604	122.681	73.017	42.085	183.745	86.914	135.310	-107.681	180.627	-99.973	96.517	237.058	-111.806	219.731	98.739	180.651	194.354	0.00037558	0.00041173	0.00012319	1417.1	6.0849e-06	3.4255e-06	1403.4	364.75	4.6873e-06	2.2666e-06	410.54	135.32	118.34	39.205	5.1634e-06	48.572	0.0011191	0.0017209	0.00047832	1439.9	1.7797e-05	1.9741e-05	1421.4	371.53	1.7329e-05	1.98e-05	419.09	138.86	121.25	40.31	1.774e-05	50.029	152.012	-16.687	-12.756	-99.571	2.586	50.247	-99.856	-95.192	12.408	8.702	-95.745	-91.583	-91.521	-86.031	9.137	-86.930	-8191	255	
28978.096	1	1	0	0	0.15101	0.17503	0.18309	0.050272	0.13962	0.18685	0.086291	0.21009	0.23776	0.15588	0.12546	0.263	0.061668	0.071522	0.14778	0.24992	-1.7625	-2.8146	-2.8583	-2.3375	-2.9583	-2.3083	-2.65	-2.9625	-2.1542	-2.8	-2.7979	-2.1771	-2.9437	-2.4521	-2.2687	-2.9896	41.565	-0.931	-58.199	32.457	230.891	90.359	101.874	221.707	155.256	229.952	-7.822	-93.637	25.987	-74.914	150.111	-65.657	0.00046328	0.00049922	6.8121e-05	1413.5	3.3649e-06	2.6326e-06	1398.7	363.58	1.8169e-06	4.6292e-06	411.44	135.24	118.21	39.278	3.4627e-06	48.586	0.0011467	0.0017276	0.00048358	1434.2	1.7767e-05	1.8995e-05	1419.3	371.08	1.6905e-05	1.9153e-05	419.07	138.81	121.09	40.422	1.7185e-05	49.963	137.109	-27.380	-82.599	-99.636	-0.513	28.332	-99.752	-95.172	3.425	46.605	-95.492	-91.524	-91.308	-86.280	10.463	-86.635	-8191	255	
28978.170	1	1	0	0	0.22227	0.21425	0.14993	0.20404	0.25514	0.07166	0.22951	0.13457	0.16049	0.070612	0.18715	0.13245	0.15282	0.26206	0.1437	0.13722	-1.8271	-2.575	-2.6771	-2.3146	-2.9792	-2.4313	-2.5979	-3.1896	-2.2604	-2.7458	-2.8063	-2.4062	-2.9375	-2.5875	-2.3375	-3.0542	11.346	210.745	202.147	233.788	-8.689	153.690	134.699	-109.505	-38.227	-48.247	183.648	194.053	-56.775	236.056	236.352	147.902	0.00037267	0.00029919	0.0001566	1414.6	3.9079e-06	3.3085e-06	1396.5	365.08	4.7019e-06	1.5776e-06	410.51	134.75	117.56	39.319	3.8552e-06	48.597	0.0010921	0.0016807	0.00047038	1436.7	1.7647e-05	1.9436e-05	1417.9	371.11	1.6966e-05	1.9267e-05	418.2	138.48	120.97	40.307	1.7669e-05	49.882	146.754	-11.779	-42.076	-99.654	54.051	68.994	-99.575	-95.054	10.610	-5.094	-95.542	-91.539	-91.080	-85.908	4.691	-86.802	-8191	255	
28978.287	1	1	0	0	0.13589	0.14452	0.20227	0.20305	0.1921	0.16046	0.48215	0.19072	0.060583	0.19859	0.079995	0.21445	0.34072	0.15799	0.058574	0.065922	-1.6042	-2.5604	-3.0125	-2.1312	-2.9417	-2.5542	-2.4167	-3.1292	-2.3	-2.5667	-3.0271	-2.4188	-2.9354	-2.6708	-2.2292	-3.0625	-37.970	-88.809	151.748	222.721	11.369	-44.204	184.913	192.975	170.070	165.405	238.040	186.487	-48.833	-45.907	141.157	74.364	0.00043157	0.0004869	0.00019094	1413.8	5.7174e-06	6.4956e-06	1398.2	363.94	1.9634e-06	4.9371e-06	411.18	134.89	118.11	39.263	2.4971e-06	48.568	0.0011176	0.0016984	0.0004745	1431.3	1.7725e-05	1.9286e-05	1418.5	370.87	1.6821e-05	1.9484e-05	419.2	138.65	121.21	40.358	1.7555e-05	49.981	143.530	-28.880	-11.583	-99.571	25.756	27.041	-99.790	-95.122	16.151	24.933	-95.580	-91.527	-91.498	-86.080	33.542	-86.665	-8191	255	
28978.385	1	1	0	0	0.045728	0.2196	0.059043	0.073657	0.1167	0.21825	0.24677	0.1655	0.17019	0.23882	0.17671	0.099324	0.17412	0.087499	0.20756	0.053366	-1.9167	-2.4875	-2.925	-2.2396	-2.7792	-2.75	-2.3063	-3.2958	-2.4875	-2.3917	-3.0458	-2.3771	-2.8125	-2.8063	-2.2521	-3.0687	-62.747	-8.090	115.368	175.688	-63.386	-48.535	149.885	182.583	48.578	-91.526	-23.759	182.966	87.057	77.213	192.585	-12.530	0.00043507	0.00067135	0.00014889	1414.2	5.8538e-06	4.0481e-06	1397.4	365.25	6.0668e-06	6.8343e-06	410.49	135.01	117.67	39.116	4.7135e-06	48.674	0.0011141	0.0016828	0.00048518	1432.8	1.8671e-05	1.9535e-05	1418.4	371.48	1.6889e-05	1.9424e-05	418.4	138.39	120.92	40.311	1.7239e-05	49.949	146.908	-20.060	-21.806	-99.705	16.390	51.985	-99.760	-95.140	-36.668	50.056	-95.507	-91.455	-91.057	-86.062	19.031	-86.530	-8191	255	
28978.480	1	1	0	0	0.17886	0.13784	0.1994	0.18875	0.21446	0.017634	0.33312	0.30863	0.10502	0.3268	0.23869	0.24933	0.021449	0.19363	0.18766	0.16048	-1.8146	-2.3063	-2.9437	-2.1729	-2.6875	-2.6625	-2.3333	-3.1396	-2.5854	-2.1896	-3.1063	-2.4979	-2.7958	-2.9292	-2.2042	-3.0583	45.523	-3.505	-94.624	-111.914	-83.468	178.387	-107.891	217.000	126.414	22.656	205.463	217.707	150.425	-56.556	-44.851	200.944	0.00044942	0.00027802	0.00011882	1410.2	3.219e-06	5.703e-06	1401.9	363.86	4.4164e-06	4.0642e-06	410.6	135.15	117.6	39.121	4.0417e-06	48.498	0.0011088	0.0017212	0.00047179	1433.3	1.8126e-05	1.9462e-05	1417.7	371.27	1.6827e-05	1.9628e-05	418.52	138.45	120.76	40.262	1.7412e-05	49.894	145.125	-11.167	-45.041	-99.817	55.443	41.582	-99.728	-95.098	18.950	34.746	-95.420	-91.525	-90.855	-85.984	25.747	-86.481	-8191	255	
28978.576	1	1	0	0	0.29723	0.10334	0.042845	0.029336	0.019669	0.023164	0.43826	0.37216	0.12365	0.3531	0.44537	0.26657	0.30517	0.17139	0.14774	0.35678	-2.0729	-2.2229	-2.9125	-2.1833	-2.5146	-2.8688	-2.1833	-2.9375	-2.5708	-2.0771	-3.275	-2.3208	-2.4583	-2.8438	-2.1937	-2.7854	21.866	246.261	147.176	181.014	-11.118	-98.017	179.919	182.184	-85.543	190.313	223.821	-87.630	236.867	-98.888	150.635	195.221	0.00037637	0.00035258	0.00013542	1408.6	3.3783e-06	3.2661e-06	1393	363.86	4.1447e-06	6.3857e-06	409.71	135.64	117.22	39.198	2.5938e-06	48.457	0.0011159	0.0017507	0.00046639	1431.8	1.7789e-05	1.9193e-05	1417.3	370.19	1.7077e-05	1.9641e-05	418.13	138.64	120.85	40.338	1.7252e-05	49.944	150.756	-12.313	-9.156	-99.616	2.206	58.101	-99.663	-94.893	6.717	24.481	-95.464	-91.185	-91.190	-85.930	39.333	-86.739	-8191	255	
28978.672	1	1	0	0	0.072345	0.21315	0.058919	0.15763	0.27325	0.0487	0.2411	0.22169	0.22081	0.5256	0.13338	0.11532	0.12369	0.048156	0.057608	0.14116	-2.3812	-2.0208	-2.8667	-2.4979	-2.2104	-2.9917	-2.4813	-2.8354	-2.8583	-2.2125	-2.975	-2.7229	-2.4292	-3.0104	-2.2083	-2.7104	-76.833	144.120	48.745	203.616	-36.546	238.696	191.185	-111.119	-27.288	228.280	-94.137	179.979	231.757	-111.867	-37.148	161.696	0.00042468	0.00056882	0.00014832	1411.8	4.1731e-06	4.628e-06	1395.8	363.19	1.3468e-06	4.0498e-06	411.29	134.68	118.11	39.297	4.515e-06	48.154	0.0011015	0.0017216	0.00046525	1433.3	1.8027e-05	1.8675e-05	1417.3	370.84	1.6683e-05	1.9396e-05	418.82	138.42	120.81	40.332	1.746e-05	49.845	151.153	-48.582	-7.350	-99.796	27.677	18.199	-99.747	-94.705	-8.688	24.317	-95.252	-91.277	-90.708	-85.783	-13.739	-86.473	-8191	255	
28978.768	1	1	0	0	0.16489	0.055442	0.10717	0.16273	0.25862	0.029038	0.13194	0.22503	0.19531	0.20486	0.32709	0.1271	0.21967	0.19211	0.009294	0.40776	-2.2125	-2.1604	-2.95	-2.7833	-2.1792	-3.0687	-2.3937	-2.7313	-2.9	-2.1437	-2.9854	-2.6562	-2.3854	-3.0083	-2.2375	-2.7333	-27.225	10.412	-13.915	-25.152	68.693	-105.550	175.896	176.542	112.626	42.227	236.210	162.465	245.820	212.758	-15.561	-103.170	0.00048126	0.00040123	0.00012907	1409.6	4.4237e-06	4.4221e-06	1393.5	363.52	3.9243e-06	3.9159e-06	412.09	134.59	117.88	38.896	3.8427e-06	48.637	0.0010954	0.0017358	0.0004885	1430	1.8327e-05	1.8602e-05	1415.1	370.42	1.6678e-05	1.8755e-05	418.47	138.05	121.08	40.264	1.7222e-05	49.862	147.224	-38.779	-14.712	-99.819	23.578	27.212	-99.710	-94.800	-12.279	31.922	-94.959	-91.503	-90.716	-85.775	31.215	-86.790	-8191	255	
28978.863	1	1	0	0	0.15542	0.15182	0.15868	0.17265	0.3167	0.10124	0.055242	0.18827	0.098238	0.15211	0.16577	0.24653	0.15879	0.18615	0.042233	0.027646	-2.3625	-2.25	-2.8021	-2.8479	-2.1604	-3.0354	-2.5396	-2.5938	-2.9854	-2.0396	-2.8542	-2.8583	-2.2604	-3.1104	-2.475	-2.4583	138.311	124.346	246.184	143.864	159.478	134.910	88.857	-103.805	188.337	38.661	242.284	202.949	213.166	237.450	-6.324	74.035	0.00038554	0.00044821	0.00013589	1411.2	7.0846e-06	4.7932e-06	1394.1	362.97	5.7996e-06	4.4243e-06	410.33	134.41	117.17	39.296	3.5587e-06	48.289	0.0010865	0.0016674	0.0004668	1429.6	1.8074e-05	1.9313e-05	1415.5	369.39	1.6248e-05	1.8892e-05	417.82	138.21	120.83	40.401	1.7456e-05	49.788	141.639	-21.483	-29.344	-99.738	25.590	25.701	-99.767	-94.994	12.749	47.088	-95.307	-91.645	-91.061	-85.830	31.298	-86.570	-8191	255	
28978.984	1	1	0	0	0.12954	0.1413	0.086371	0.13146	0.28378	0.096674	0.29466	0.23349	0.019179	0.17371	0.27998	0.40554	0.098612	0.3033	0.078321	0.27095	-2.4938	-2.1167	-2.6125	-2.8583	-2.2854	-2.9375	-2.6417	-2.3771	-2.9688	-2.2375	-2.65	-2.8021	-2.3208	-2.9542	-2.4979	-2.2771	101.014	192.016	104.172	163.219	73.678	53.074	161.264	176.796	82.812	11.457	-110.839	191.704	-0.719	182.235	-28.107	227.261	0.0004908	0.00040426	0.00012566	1409.1	3.4594e-06	4.6431e-06	1394	361.67	4.8512e-06	4.8591e-06	410.86	135.45	117.51	39.122	4.6357e-06	48.666	0.0010791	0.001662	0.00046978	1429.5	1.8057e-05	1.9034e-05	1414.2	369.57	1.6148e-05	1.9291e-05	417.92	138.4	120.5	40.204	1.7839e-05	49.877	143.909	-8.903	-44.861	-99.781	67.889	21.077	-100.019	-95.147	-15.257	33.666	-95.829	-91.779	-91.279	-86.180	30.519	-87.215	-8191	255	
28979.080	1	1	0	0	0.17231	0.18445	0.13123	0.32433	0.084912	0.20969	0.29814	0.15485	0.13688	0.19408	0.0992	0.18645	0.14214	0.094832	0.18426	0.38139	-2.4188	-2.175	-2.6083	-2.7875	-2.2562	-3.0312	-2.6292	-2.4583	-2.9604	-2.1813	-2.6208	-2.7938	-2.1188	-3.0062	-2.5563	-2.4833	82.603	38.849	-112.086	182.634	228.870	127.656	197.863	161.187	210.193	37.981	219.068	-71.249	238.457	223.365	23.794	4.676	0.00043408	0.00037724	0.00016021	1413.6	3.687e-06	2.6176e-06	1395	363.12	5.3688e-06	4.0331e-06	411.17	135.13	117.67	39.307	2.7388e-06	48.06	0.0010874	0.0017093	0.00047702	1432.2	1.7957e-05	1.9423e-05	1417.5	370.16	1.6712e-05	1.8815e-05	418.61	138.37	120.66	40.377	1.6895e-05	49.746	146.641	-40.018	-7.082	-99.869	18.796	32.359	-100.100	-95.433	7.593	41.000	-95.662	-91.873	-91.466	-86.241	49.710	-87.094	-8191	255	
28979.176	1	1	0	0	0.12301	0.13849	0.11196	0.29491	0.24613	0.11843	0.19858	0.22834	0.19953	0.20815	0.11853	0.11673	0.18102	0.20572	0.19745	0.22761	-2.6125	-2.2479	-2.5104	-3.0458	-2.1	-2.8125	-2.8958	-2.4062	-3.0417	-2.2542	-2.3958	-2.9833	-2.0438	-2.7396	-2.7708	-2.3	89.675	131.868	223.533	153.785	86.915	23.384	172.167	145.352	-39.939	212.331	-69.477	-112.859	74.884	206.532	244.161	193.377	0.00044931	0.00049517	0.0001305	1407.1	2.7839e-06	4.3048e-06	1395.1	362.96	4.155e-06	3.3357e-06	410.42	134.56	117.92	39.144	4.3423e-06	48.662	0.0011091	0.0016861	0.00048044	1428.2	1.7866e-05	1.9182e-05	1414.7	369.88	1.6432e-05	1.9161e-05	418.17	138.3	120.94	40.295	1.7406e-05	49.918	144.791	-23.550	-10.216	-100.270	23.059	9.204	-99.970	-95.328	-9.416	47.926	-95.965	-91.740	-91.307	-86.172	11.579	-86.938	-8191	255	
28979.273	1	1	0	0	0.04952	0.1792	0.13117	0.13658	0.34056	0.31803	0.24726	0.13288	0.20113	0.14235	0.40213	0.17188	0.3408	0.18557	0.28242	0.21585	-2.5896	-2.5333	-2.2438	-3.0792	-2.2021	-2.6167	-3.1042	-2.4813	-2.8521	-2.5979	-2.4958	-3.0208	-2.1708	-2.425	-2.8979	-2.3604	-1.133	233.590	234.925	153.522	-94.326	76.424	182.169	195.464	122.203	-60.372	169.720	111.867	62.644	203.957	66.920	144.071	0.00041562	0.00053733	0.00010382	1406.4	5.1832e-06	5.136e-06	1397.1	362.52	2.9149e-06	5.8005e-06	409.23	134.95	117.6	39.137	1.5924e-06	48.514	0.0011052	0.0016881	0.00047602	1429.6	1.8107e-05	1.9564e-05	1414	369.77	1.6188e-05	1.9462e-05	417.55	138.47	120.69	40.323	1.7156e-05	49.85	141.039	0.761	-16.758	-100.028	34.053	30.399	-100.231	-95.201	-23.619	30.196	-95.820	-91.736	-91.523	-86.082	-22.154	-87.001	-8191	255	
28979.393	1	1	0	0	0.12757	0.075094	0.18821	0.13756	0.085325	0.10356	0.18941	0.42792	0.13142	0.12885	0.18667	0.076169	0.19645	0.13788	0.079808	0.1443	-2.4271	-2.6167	-2.2687	-3.0687	-2.3021	-2.6104	-2.9833	-2.3479	-2.8	-2.7042	-2.5104	-2.9688	-2.3812	-2.5396	-2.9354	-2.2062	-54.138	218.788	218.208	243.143	246.460	-44.029	180.215	201.983	212.253	110.226	200.657	216.672	166.082	196.269	149.266	228.189	0.00050617	0.00063696	8.4799e-05	1409	7.0054e-06	4.7641e-06	1388.9	362.39	3.9747e-06	4.4806e-06	409.84	134.07	117.4	39.29	2.5083e-06	48.351	0.0011008	0.001659	0.000466	1430	1.7959e-05	1.8667e-05	1412.5	369.52	1.6737e-05	1.9347e-05	417.28	137.96	120.33	40.325	1.6752e-05	49.77	143.359	-25.883	-41.601	-100.181	22.177	52.764	-100.071	-95.327	-10.396	53.607	-95.807	-91.567	-91.274	-86.232	-17.564	-87.025	-8191	255	
28979.465	1	1	0	0	0.101	0.12059	0.093512	0.13091	0.08748	0.082863	0.31547	0.1072	0.074781	0.14426	0.20971	0.051758	0.39733	0.096872	0.059617	0.11879	-2.4042	-2.6458	-2.0958	-3.1	-2.2854	-2.2979	-3.0854	-2.2146	-2.6104	-2.9396	-2.1437	-2.9146	-2.2458	-2.4792	-2.9417	-2.3563	245.845	204.931	40.731	122.349	-43.184	89.985	190.095	-71.615	8.067	-108.312	-110.800	-108.463	242.349	-88.912	-113.017	105.398	0.00046649	0.00031081	0.00014576	1405.9	4.4487e-06	4.072e-06	1386.7	361.71	3.9681e-06	7.1156e-06	409.87	134.64	117.2	39.039	3.2993e-06	48.51	0.0010953	0.0015929	0.00045385	1424.4	1.7091e-05	1.885e-05	1410	368.68	1.6159e-05	1.8693e-05	417.37	138.15	120.34	40.188	1.6688e-05	49.953	137.029	-18.082	-13.661	-99.795	16.520	16.883	-100.056	-95.256	-20.301	40.706	-95.951	-91.902	-91.310	-86.314	18.454	-87.125	-8191	255	
28979.586	1	1	0	0	0.14276	0.16126	0.029181	0.084889	0.1338	0.20082	0.17973	0.33428	0.15157	0.13353	0.11348	0.14652	0.079835	0.28754	0.30215	0.061029	-2.2062	-2.7021	-2.2	-2.7854	-2.5854	-2.0896	-3.1146	-2.5292	-2.5146	-2.9271	-2.1604	-3.0125	-2.5417	-2.3354	-2.8646	-2.4896	-101.584	79.050	207.731	112.468	88.921	207.374	219.801	164.661	-82.548	206.940	200.785	123.698	142.317	220.420	-42.591	-69.145	0.00039457	0.00044901	0.00019549	1413.8	4.7364e-06	5.2358e-06	1389.4	363.37	5.0591e-06	5.7459e-06	408.71	134.81	118.18	39.187	2.7873e-06	48.303	0.001076	0.0016883	0.00047329	1429	1.753e-05	1.9032e-05	1411.9	369.56	1.6263e-05	1.8744e-05	417.05	138.16	120.61	40.292	1.6929e-05	49.766	145.291	-13.699	-30.685	-100.109	23.208	25.390	-100.036	-95.141	9.582	41.841	-95.752	-91.582	-91.256	-86.307	64.903	-86.859	-8191	255	
28979.682	1	1	0	0	0.21136	0.1561	0.098724	0.085622	0.1107	0.28368	0.094247	0.2041	0.2987	0.23588	0.3112	0.17501	0.13868	0.26149	0.1142	0.22516	-1.9188	-2.8625	-2.1542	-2.8	-2.6542	-2.3563	-3.25	-2.4875	-2.4271	-2.9021	-2.1708	-2.8604	-2.8625	-2.3521	-2.8958	-2.3896	65.508	179.143	-5.726	218.181	10.193	244.532	140.505	-109.675	-7.009	80.652	210.680	155.301	-112.876	244.467	55.053	158.257	0.00047213	0.00056738	0.0001459	1411	5.3692e-06	7.6983e-06	1397.1	361.08	3.5195e-06	4.7705e-06	409.68	134.6	117.6	39.091	5.5493e-06	48.161	0.0011135	0.0016334	0.00046858	1430.1	1.759e-05	1.8999e-05	1415.1	369.39	1.6806e-05	1.8358e-05	417.51	138.39	120.56	40.29	1.7026e-05	49.791	137.151	-17.021	-2.011	-100.227	31.434	38.947	-100.029	-95.426	-15.103	22.896	-95.499	-91.661	-91.207	-86.246	32.242	-87.070	-8191	255	
28979.777	1	1	0	0	0.21043	0.068184	0.20778	0.13835	0.021026	0.12829	0.38224	0.34508	0.073696	0.069939	0.17979	0.047303	0.23858	0.22887	0.15895	0.025717	-1.9417	-2.9813	-2.1229	-2.7083	-2.8229	-2.1229	-3.0625	-2.6625	-2.3312	-2.7896	-2.1312	-2.6604	-2.6958	-2.2812	-2.9146	-2.5187	-41.759	217.767	129.141	129.491	103.640	142.058	130.515	183.797	169.537	94.888	179.547	-84.016	154.552	-43.710	-111.442	-12.764	0.00048733	0.00046197	0.00020368	1408.1	3.9339e-06	4.3908e-06	1393.4	362.34	3.7259e-06	2.4881e-06	409.04	135.12	117.8	39.258	5.7594e-06	48.397	0.0011098	0.0016164	0.00046858	1428.1	1.7176e-05	1.888e-05	1413.6	369.26	1.7014e-05	1.8662e-05	417.13	138.33	120.6	40.224	1.7182e-05	49.801	143.643	-20.406	-10.907	-99.900	32.862	51.967	-99.805	-95.280	-34.021	68.906	-95.631	-91.786	-91.197	-86.330	20.549	-86.875	-8191	255	
28979.873	1	1	0	0	0.084568	0.02824	0.28911	0.2279	0.17747	0.31893	0.072412	0.33073	0.094853	0.014455	0.25759	0.40275	0.051919	0.068429	0.06456	0.32027	-1.7542	-2.8021	-2.325	-2.6771	-2.7833	-2.1188	-3.1958	-2.6167	-2.2396	-2.825	-2.2708	-2.5396	-3.0104	-2.2646	-2.6417	-2.7083	100.186	144.046	-53.348	-87.636	57.300	92.446	-15.049	175.751	64.525	206.620	-64.974	237.781	84.243	87.770	242.812	156.621	0.00042087	0.0005731	0.00015221	1407.1	3.3292e-06	4.8479e-06	1391.9	361	4.9855e-06	4.8393e-06	408.58	134.57	117.14	39.176	2.74e-06	48.341	0.001077	0.0016102	0.00045977	1426	1.7061e-05	1.9184e-05	1411.9	368.71	1.6327e-05	1.8286e-05	417.05	138.04	120.39	40.227	1.712e-05	49.788	140.368	-22.457	-38.767	-99.993	26.992	44.735	-99.967	-95.535	-4.481	42.841	-95.865	-91.642	-91.351	-86.358	58.649	-86.834	-8191	255	
28979.994	1	1	0	0	0.077627	0.16715	0.083523	0.15878	0.39603	0.10986	0.18473	0.29635	0.034917	0.031014	0.059976	0.30116	0.19473	0.10072	0.048603	0.14704	-1.6583	-2.9521	-2.3333	-2.3875	-3.0625	-2.1083	-3.0521	-2.9708	-2.025	-2.9521	-2.5687	-2.3688	-3.0625	-2.3104	-2.6458	-2.8438	-6.195	-23.310	208.221	-39.696	219.569	18.987	178.500	176.062	-43.995	83.386	99.093	173.283	-99.518	182.903	-40.001	72.432	0.00032043	0.00065901	0.00012281	1402.2	4.533e-06	4.1033e-06	1392	363.05	4.1142e-06	4.9263e-06	410.38	135.09	116.85	39.038	3.4106e-06	48.266	0.001085	0.001608	0.00045972	1424.2	1.718e-05	1.8933e-05	1412.1	368.72	1.6748e-05	1.8259e-05	416.74	138.13	120.42	40.151	1.709e-05	49.697	145.363	-30.266	-14.284	-99.912	15.188	34.837	-99.821	-95.137	-39.063	50.350	-95.686	-91.590	-91.296	-86.190	-2.001	-87.107	-8191	255	
28980.064	1	1	0	0	0.35389	0.28559	0.086908	0.21133	0.094367	0.10971	0.134	0.099078	0.16908	0.079449	0.1754	0.10661	0.11886	0.35025	0.22358	0.2127	-1.8479	-3.0771	-2.5062	-2.3042	-3.0021	-2.3354	-2.7812	-3.0375	-2.0875	-2.9417	-2.6521	-2.3292	-2.95	-2.3771	-2.5458	-2.9833	-3.380	22.883	22.877	220.731	213.500	204.924	243.963	217.225	136.737	90.533	224.892	5.374	-52.873	-92.660	198.028	194.896	0.00045232	0.00048427	8.5087e-05	1404.2	2.8979e-06	3.5538e-06	1390.7	362.97	5.7577e-06	4.8322e-06	405.98	134.92	117.12	39.085	5.6834e-06	48.179	0.0010578	0.0016467	0.00047259	1424.9	1.7356e-05	1.8941e-05	1411.1	368.82	1.6317e-05	1.8769e-05	416.02	138.18	120.43	40.218	1.6577e-05	49.762	138.477	-18.532	6.921	-99.959	41.107	36.024	-99.971	-95.333	-14.818	39.994	-95.696	-91.591	-91.465	-86.174	0.454	-87.105	-8191	255	
28980.162	1	1	0	0	0.16589	0.22854	0.23795	0.31787	0.088245	0.04744	0.36062	0.097942	0.37407	0.13221	0.18024	0.12955	0.22359	0.1411	0.10923	0.11558	-1.7917	-2.8021	-2.5167	-2.4208	-2.7896	-2.2729	-2.675	-2.8875	-2.1708	-2.6542	-2.8625	-2.1771	-2.9646	-2.3187	-2.3646	-3.0083	-104.575	56.436	225.202	187.701	115.126	-40.904	156.771	143.305	166.555	207.672	180.312	193.059	-40.955	-107.798	236.247	17.949	0.00042198	0.00036793	9.8589e-05	1408.8	4.8245e-06	2.6281e-06	1391	364.55	4.7014e-06	5.5944e-06	409.16	134.69	117.2	39.023	5.4998e-06	48.345	0.001104	0.0015785	0.00046143	1427.2	1.7326e-05	1.8882e-05	1413	369.96	1.6222e-05	1.8992e-05	417.09	138.02	120.56	40.131	1.7904e-05	49.78	139.923	-12.721	-21.123	-99.771	39.131	31.572	-100.041	-95.228	6.073	27.976	-95.846	-91.454	-91.354	-86.228	-8.816	-86.788	-8191	255	
28980.256	1	1	0	0	0.29853	0.18319	0.18441	0.11661	0.13723	0.047352	0.15757	0.13021	0.10173	0.13776	0.052327	0.28893	0.13344	0.12248	0.21107	0.087517	-1.6542	-2.7208	-2.5687	-2.3417	-2.8563	-2.3229	-2.5458	-3.2313	-2.1271	-2.5021	-3.0208	-2.1437	-3.1021	-2.75	-2.2833	-3.1375	62.138	174.047	-69.507	203.297	109.139	-34.165	139.502	184.714	-24.620	143.840	-93.394	111.575	-60.349	-71.468	149.252	-107.449	0.00043224	0.00049952	0.00014315	1408	5.1718e-06	6.0398e-06	1396.2	364.18	4.3826e-06	5.1486e-06	409.99	134.76	117.75	39.017	4.9577e-06	48.494	0.0010938	0.0016765	0.00047224	1426.4	1.7642e-05	1.8962e-05	1413.3	369.54	1.6134e-05	1.9088e-05	417.33	138.19	120.76	40.187	1.7856e-05	49.797	141.678	-15.243	-12.085	-99.879	26.918	15.062	-99.871	-95.238	-28.662	66.650	-95.812	-91.579	-90.965	-86.280	40.514	-86.813	-8191	255	
28980.354	1	1	0	0	0.1592	0.17313	0.15037	0.10144	0.31553	0.40276	0.19808	0.41982	0.164	0.19043	0.15845	0.25132	0.15395	0.31384	0.31947	0.073907	-1.7396	-2.5958	-2.7667	-2.3375	-2.8354	-2.5458	-2.4625	-3.1021	-2.3	-2.4292	-3.1042	-2.2229	-2.7604	-2.7833	-2.0917	-2.9625	38.550	-11.943	155.814	210.495	2.598	194.314	170.091	198.983	-87.097	19.930	214.032	-61.642	240.657	204.149	209.299	-80.536	0.00043527	0.00034062	0.00011651	1401	4.8787e-06	4.5253e-06	1388.4	361.92	3.0072e-06	5.1238e-06	408.25	133.82	117.13	38.992	3.1045e-06	48.071	0.0011018	0.001673	0.00046355	1422.3	1.726e-05	1.8555e-05	1408.9	369.24	1.6711e-05	1.9543e-05	416.25	137.88	120.63	40.141	1.7704e-05	49.698	151.309	-20.170	-22.013	-99.996	29.072	25.775	-99.826	-95.217	-13.234	24.660	-95.603	-91.663	-91.258	-86.175	37.646	-86.660	-8191	255	
28980.473	1	1	0	0	0.11717	0.16074	0.089168	0.46233	0.091569	0.097114	0.34554	0.080577	0.15993	0.16484	0.35621	0.2237	0.21611	0.17603	0.18141	0.33035	-1.7354	-2.3479	-2.7667	-2.3667	-2.6354	-2.7625	-2.5458	-2.9604	-2.2604	-2.5021	-3.1208	-2.2708	-2.6937	-2.7146	-2.2229	-2.8083	116.673	-82.672	-25.705	208.156	191.683	179.735	217.450	225.114	242.995	-106.906	231.564	-105.100	127.923	146.937	32.478	195.409	0.00041139	0.00059016	0.00017461	1408	3.842e-06	2.3914e-06	1388.4	363.97	5.4882e-06	4.2717e-06	408.49	134.45	116.62	39.068	3.5045e-06	48.479	0.0011226	0.0017045	0.00049114	1426.1	1.8537e-05	1.9285e-05	1409.3	369.66	1.7304e-05	2.0005e-05	417.05	138.15	120.55	40.24	1.792e-05	49.859	147.033	-6.787	-39.863	-99.909	24.194	31.474	-99.729	-95.132	19.040	50.721	-95.403	-91.766	-91.402	-85.980	65.560	-87.037	-8191	255	
28980.568	1	1	0	0	0.25649	0.17492	0.17768	0.34548	0.13515	0.069688	0.25971	0.44282	0.084667	0.16168	0.20305	0.34606	0.48721	0.19491	0.35711	0.28299	-2.0583	-2.4062	-2.7979	-2.3604	-2.6146	-2.7438	-2.2125	-3.0354	-2.5042	-2.125	-3.1125	-2.3396	-2.4667	-2.9396	-2.0438	-3.0271	48.916	6.179	-63.113	-90.789	238.004	-76.446	194.417	185.972	173.246	150.076	216.002	195.881	-107.747	233.876	236.632	200.664	0.00041251	0.00028361	0.0001722	1403.9	3.4688e-06	5.479e-06	1390.7	362.33	3.7111e-06	5.0169e-06	409.54	133.94	117.94	39.054	3.4211e-06	48.09	0.0011624	0.0017712	0.00049094	1427.7	1.8222e-05	1.9441e-05	1411.9	369.89	1.7247e-05	1.9902e-05	417.2	137.83	120.68	40.159	1.7358e-05	49.667	141.385	-19.680	-9.591	-99.815	26.142	33.551	-99.732	-95.002	-26.198	18.290	-95.745	-91.368	-91.207	-86.084	-2.939	-86.796	-8191	255	
28980.664	1	1	0	0	0.19104	0.096924	0.068039	0.15913	0.21325	0.07417	0.23103	0.17793	0.12111	0.16028	0.21944	0.20904	0.18693	0.28808	0.3573	0.22482	-2.2604	-2.4583	-2.9333	-2.4458	-2.5833	-2.9729	-2.4021	-2.8854	-2.5438	-2.1667	-2.975	-2.4437	-2.3208	-3.0042	-2.1979	-2.775	246.397	-53.436	-34.754	-36.692	-102.423	99.675	-63.978	171.159	89.508	1.649	202.671	96.001	202.720	226.777	49.393	204.620	0.00043526	0.00046178	0.00012627	1407.1	2.5693e-06	4.3828e-06	1387.6	363.14	2.2986e-06	5.3131e-06	410.51	134.19	117.34	38.984	3.0216e-06	48.284	0.001104	0.0017251	0.00047561	1424.3	1.8963e-05	1.9287e-05	1408.5	369.85	1.6662e-05	1.9635e-05	417.28	138.03	120.39	40.151	1.8227e-05	49.751	147.498	-20.157	8.605	-99.835	33.182	57.955	-99.831	-94.991	-3.013	27.254	-95.406	-91.687	-91.228	-85.935	-19.209	-86.745	-8191	255	
28980.762	1	1	0	0	0.2033	0.2543	0.1813	0.18332	0.019633	0.17354	0.32125	0.30517	0.15554	0.25114	0.020991	0.11823	0.069879	0.017722	0.17675	0.078125	-2.3229	-2.1188	-2.7812	-2.375	-2.3708	-2.9271	-2.5167	-2.9625	-2.5187	-2.0146	-3	-2.4667	-2.1854	-3.0083	-2.1396	-2.6229	132.804	-3.540	-36.646	227.053	93.727	-63.633	175.551	236.626	235.445	77.450	162.276	-96.607	75.953	-23.533	196.654	-74.426	0.00048581	0.00043672	0.00015588	1402.3	2.9486e-06	5.6266e-06	1388.9	362.68	4.2615e-06	3.1382e-06	409.13	134.76	117.7	39.141	4.0886e-06	48.275	0.0010928	0.0016877	0.0004854	1422.8	1.7962e-05	1.9567e-05	1409.8	368.8	1.6908e-05	1.9345e-05	416.26	137.99	120.35	40.152	1.7465e-05	49.614	144.382	-10.141	8.276	-99.793	53.504	32.446	-99.939	-95.110	-13.416	35.902	-95.590	-91.561	-91.229	-86.295	-28.917	-86.986	-8191	255	
28980.857	1	1	0	0	0.25439	0.24854	0.24437	0.044269	0.12312	0.049234	0.13243	0.27399	0.14488	0.22088	0.33119	0.080822	0.059376	0.26051	0.054995	0.24779	-2.3875	-2.1083	-2.8083	-2.45	-2.1354	-2.9979	-2.4333	-2.5875	-2.575	-1.9688	-2.9229	-2.6562	-2.1958	-3.0687	-2.3229	-2.5083	23.382	-58.613	16.363	146.676	175.031	74.855	-95.376	166.722	214.318	134.065	235.164	118.299	-105.344	239.393	-13.705	235.602	0.00044112	0.00052285	0.00010076	1405.4	6.4688e-06	3.0364e-06	1387.6	361.04	4.1503e-06	4.9891e-06	406.75	134.35	116.39	39.023	2.0738e-06	48.202	0.001106	0.0017258	0.00048201	1422.7	1.8247e-05	1.8301e-05	1409.3	368.72	1.6665e-05	1.8874e-05	415.75	137.67	120.1	40.189	1.767e-05	49.691	138.808	-25.037	11.115	-99.914	35.701	45.638	-99.782	-95.102	27.694	35.569	-95.623	-91.548	-91.642	-86.284	36.333	-86.928	-8191	255	
28980.953	1	1	0	0	0.20636	0.18192	0.25137	0.19407	0.19002	0.069863	0.24792	0.020195	0.026534	0.17138	0.23982	0.29852	0.14237	0.17599	0.24136	0.065925	-2.3333	-2.25	-2.8458	-2.5375	-2.0042	-3.0062	-2.6188	-2.5979	-3.1312	-2.1333	-2.7104	-2.8812	-1.9896	-3.0583	-2.4521	-2.4521	83.890	7.345	5.446	155.598	-106.879	17.302	195.405	194.317	57.704	-42.932	157.011	144.699	99.692	-72.307	-96.861	103.166	0.00041804	0.00053921	0.00018781	1398	3.7195e-06	5.7517e-06	1388.9	362.34	4.2041e-06	3.9575e-06	408.62	134.01	116.86	38.976	3.3994e-06	48.315	0.0010977	0.0017458	0.00047315	1422.5	1.7994e-05	1.8891e-05	1409.5	368.47	1.6474e-05	1.9765e-05	416.49	137.75	120.35	40.184	1.7771e-05	49.675	143.817	-9.207	-36.317	-99.912	3.913	36.740	-99.823	-94.842	-10.695	26.396	-95.505	-91.791	-91.003	-85.971	21.307	-86.633	-8191	255	
28981.074	1	1	0	0	0.11283	0.21285	0.23144	0.29408	0.15783	0.14879	0.14233	0.49338	0.067894	0.17082	0.31158	0.26724	0.07113	0.2953	0.079468	0.11474	-2.4813	-2.0125	-2.7125	-2.9146	-2.0458	-2.8688	-2.6083	-2.2833	-2.975	-2.25	-2.6792	-2.9104	-2.1646	-2.9854	-2.4729	-2.2229	163.031	122.832	-54.220	246.614	168.821	126.933	132.507	231.898	76.095	16.545	-67.399	-64.124	183.220	-47.976	169.204	-49.952	0.00040013	0.00062084	7.1785e-05	1403.3	3.9615e-06	6.2448e-06	1384.6	361.26	4.4117e-06	3.8191e-06	409.66	134.18	116.79	39.175	3.1681e-06	48.153	0.001117	0.0017094	0.00048568	1422.9	1.8125e-05	1.9587e-05	1409.3	368.97	1.6489e-05	1.926e-05	416.98	137.74	120.11	40.21	1.7615e-05	49.719	150.148	-29.200	-36.965	-99.820	42.394	39.310	-100.035	-94.988	5.236	35.163	-95.559	-91.371	-91.076	-86.205	48.733	-86.599	-8191	255	
28981.168	1	1	0	0	0.19857	0.21614	0.12653	0.096615	0.3241	0.0097761	0.34595	0.43227	0.23053	0.088018	0.089404	0.031665	0.061984	0.18302	0.20547	0.072224	-2.6167	-2.1146	-2.6333	-2.9542	-2.0187	-2.9562	-2.8583	-2.2521	-2.7812	-2.1312	-2.4542	-2.9833	-2.0354	-2.7438	-2.6208	-2.3167	190.975	-66.376	-45.680	-72.229	7.173	-82.209	216.635	209.248	244.902	198.815	162.343	141.459	110.320	202.399	-76.178	-86.483	0.00047144	0.0003234	0.00018426	1406.6	3.162e-06	4.4023e-06	1379.9	361.31	2.6256e-06	5.4629e-06	408.69	134.13	117.09	38.877	3.2239e-06	48.633	0.0011125	0.0017014	0.00048133	1422	1.8537e-05	1.9275e-05	1406	368.33	1.6834e-05	1.9157e-05	416.28	137.84	120.11	40.089	1.7197e-05	49.781	135.191	-14.195	-32.902	-99.816	-1.491	43.035	-99.831	-94.976	39.424	29.851	-95.288	-91.552	-91.151	-85.983	54.684	-86.632	-8191	255	
28981.266	1	1	0	0	0.056977	0.12871	0.11764	0.089046	0.17148	0.30194	0.23597	0.18285	0.078323	0.21006	0.12403	0.29759	0.038239	0.17169	0.046217	0.20537	-2.4792	-2.3375	-2.4188	-2.9833	-2.1292	-2.9188	-3	-2.325	-3.0208	-2.4167	-2.4729	-3.0521	-2.1083	-2.7812	-2.6813	-2.175	118.913	33.570	230.458	175.246	-7.495	88.680	51.681	214.837	126.333	181.215	223.400	195.831	120.941	-112.746	-61.363	243.602	0.00043232	0.00046108	0.00017216	1400.6	5.5064e-06	5.7583e-06	1385	361.6	5.8582e-06	5.7703e-06	407.18	133.57	117.32	38.896	3.4092e-06	48.293	0.0011246	0.001707	0.00049651	1421.4	1.8539e-05	1.9782e-05	1406.4	368.11	1.6806e-05	1.9136e-05	415.96	137.36	120.25	40.105	1.7094e-05	49.787	143.481	-28.468	-26.183	-99.611	52.911	28.866	-99.940	-94.812	-1.346	52.274	-95.397	-91.410	-91.250	-85.935	57.036	-86.647	-8191	255	
28981.361	1	1	0	0	0.091389	0.40239	0.15748	0.094624	0.22762	0.12326	0.34615	0.14591	0.066067	0.10007	0.24088	0.12993	0.33848	0.15731	0.090793	0.22417	-2.6542	-2.3021	-2.2896	-3.1208	-2.2583	-2.5271	-2.7938	-2.275	-2.7875	-2.4813	-2.4625	-2.9396	-2.0687	-2.4875	-2.7833	-2.075	68.147	140.503	-72.787	184.287	139.525	-7.210	173.755	154.222	176.188	108.186	183.137	161.992	199.034	240.883	149.238	161.027	0.00043556	0.00040081	0.00012594	1403.2	4.9815e-06	6.3873e-06	1389.7	362.43	3.5888e-06	6.2344e-06	407.2	134.21	117.36	38.978	5.5075e-06	48.232	0.0010959	0.0016914	0.00048738	1422.3	1.81e-05	1.9328e-05	1408.1	368.82	1.6806e-05	1.9687e-05	416.23	137.85	120.26	40.098	1.7603e-05	49.651	144.691	-26.096	-17.111	-100.108	0.570	63.976	-99.851	-95.119	5.700	61.487	-95.273	-91.287	-91.603	-85.891	10.245	-86.875	-8191	255	
28981.457	1	1	0	0	0.16624	0.10237	0.080927	0.13514	0.083808	0.21681	0.074161	0.21493	0.28785	0.42606	0.14247	0.084897	0.24887	0.11089	0.20381	0.045844	-2.3979	-2.5563	-2.1188	-3.0833	-2.2438	-2.3604	-2.9062	-2.3187	-2.8187	-2.6771	-2.2958	-2.9417	-2.4938	-2.55	-3.0979	-2.05	66.244	-13.629	169.395	-56.279	153.217	-73.561	236.615	168.228	-107.193	-87.996	176.285	-103.054	100.074	245.368	193.714	218.292	0.00041763	0.00048941	0.0001556	1399.3	4.3671e-06	4.0883e-06	1389.4	362.02	5.2122e-06	3.316e-06	406.64	134.15	116.91	39.278	3.3237e-06	48.244	0.0011093	0.00174	0.00049415	1423.5	1.8248e-05	1.965e-05	1408.3	368.23	1.6453e-05	1.9276e-05	415.76	137.89	120.24	40.212	1.7303e-05	49.611	146.648	-30.320	-26.274	-99.636	-6.741	9.810	-99.755	-94.923	-17.059	15.064	-95.272	-91.258	-91.266	-85.679	9.066	-86.853	-8191	255	
28981.553	1	1	0	0	0.1249	0.25228	0.063449	0.12007	0.20854	0.1323	0.21642	0.46619	0.060548	0.16129	0.13601	0.17332	0.11546	0.3687	0.1535	0.10194	-2.2542	-2.5687	-2.15	-3.0458	-2.4146	-2.3937	-3.2583	-2.2625	-2.6604	-2.8625	-2.2125	-3.1604	-2.4188	-2.3083	-3.0187	-2.4083	-60.126	-111.798	238.163	-89.152	-22.568	109.269	185.132	177.555	40.656	-71.315	230.742	26.556	67.822	-107.888	27.736	210.960	0.00043193	0.00044556	0.00015916	1403.2	5.1623e-06	5.315e-06	1386.6	362.2	3.1491e-06	5.7192e-06	407.32	134.89	116.87	39.069	3.6584e-06	48.119	0.0011276	0.0016693	0.00049494	1423.8	1.855e-05	1.9604e-05	1407.8	368.54	1.6815e-05	1.9415e-05	415.41	137.91	120.15	40.167	1.718e-05	49.658	147.151	-7.877	-28.368	-99.817	22.539	23.607	-99.708	-94.959	-4.499	36.026	-95.631	-91.235	-91.188	-85.968	29.284	-86.729	-8191	255	
28981.648	1	1	0	0	0.064425	0.16461	0.21223	0.26628	0.40789	0.18594	0.25201	0.19507	0.28451	0.12935	0.041724	0.21252	0.14779	0.18437	0.054432	0.31021	-2.1562	-2.8333	-2.2521	-3.0917	-2.3542	-2.1979	-3.2417	-2.5021	-2.5312	-2.8396	-2.6188	-2.9646	-2.7292	-2.3229	-3	-2.2062	-56.704	-85.478	-56.657	138.683	85.297	117.822	173.506	-101.234	72.615	99.281	73.592	184.980	246.138	175.835	187.594	113.909	0.00041027	0.00036639	8.688e-05	1414.6	1.7764e-06	3.9633e-06	1385.3	363.45	5.25e-06	5.234e-06	407.56	134.22	117.37	39.163	3.0638e-06	48.063	0.0011018	0.0016434	0.00048265	1426.2	1.7932e-05	1.9398e-05	1407.6	368.87	1.675e-05	1.8885e-05	416.55	137.72	120.5	40.208	1.7145e-05	49.634	144.101	-1.914	-24.184	-99.622	54.219	26.937	-99.718	-95.130	-7.234	4.583	-95.396	-91.489	-91.304	-85.836	51.028	-86.693	-8191	255	
#DATA ENDS
