BOXY.EXE: ISS Imagent and Oximeter Data Acquisition Program Version 0.80
Ascii Record File

#ACQ INFORMATION
2  Detector Channels 
16  External MUX Channels 
1  Auxiliary Channels 
5000  Waveform (CCF) Frequency (Hz)
1  Waveforms Skipped 
30  Waveforms Averaged 
1  Cycles Averaged 
16  Acquisitions per Waveform 
10.0806  Updata Rate (Hz) 

#FILE INFORMATION
TRUE -- External MUX Channel results are PARSED.
FALSE -- AC DC and Phase are NOT grouped.
TRUE -- Companion Program Settings File CREATED.
FALSE -- AC data not excluded
FALSE -- DC data not excluded
FALSE -- Phase data not excluded
FALSE -- Auxillary Chn. data not excluded
Tab delimiters

#CALIBRATION STATE
TRUE -- Waveform Calibration Values APPLIED.


#AUX CALIBRATION VALUES
Val Type	aux-1	

Term	1.0000e+00	
Factor	0.0000e+00	


#WF CALIBRATION VALUES
A = Detector Channel
Val Type	A-AC1	A-AC2	A-AC3	A-AC4	A-AC5	A-AC6	A-AC7	A-AC8	A-AC9	A-AC10	A-AC11	A-AC12	A-AC13	A-AC14	A-AC15	A-AC16	A-DC1	A-DC2	A-DC3	A-DC4	A-DC5	A-DC6	A-DC7	A-DC8	A-DC9	A-DC10	A-DC11	A-DC12	A-DC13	A-DC14	A-DC15	A-DC16	A-Ph1	A-Ph2	A-Ph3	A-Ph4	A-Ph5	A-Ph6	A-Ph7	A-Ph8	A-Ph9	A-Ph10	A-Ph11	A-Ph12	A-Ph13	A-Ph14	A-Ph15	A-Ph16	

Term	0.00000e+00	0.00000e+00	0.00000e+00	0.00000e+00	0.00000e+00	0.00000e+00	0.00000e+00	0.00000e+00	0.00000e+00	0.00000e+00	0.00000e+00	0.00000e+00	0.00000e+00	0.00000e+00	0.00000e+00	0.00000e+00	0.00000e+00	0.00000e+00	0.00000e+00	0.00000e+00	0.00000e+00	0.00000e+00	0.00000e+00	0.00000e+00	0.00000e+00	0.00000e+00	0.00000e+00	0.00000e+00	0.00000e+00	0.00000e+00	0.00000e+00	0.00000e+00	0.00000e+00	0.00000e+00	0.00000e+00	0.00000e+00	0.00000e+00	0.00000e+00	0.00000e+00	0.00000e+00	0.00000e+00	0.00000e+00	0.00000e+00	0.00000e+00	0.00000e+00	0.00000e+00	0.00000e+00	0.00000e+00	
Factor	1.00000e+00	1.00000e+00	1.00000e+00	1.00000e+00	1.00000e+00	1.00000e+00	1.00000e+00	1.00000e+00	1.00000e+00	1.00000e+00	1.00000e+00	1.00000e+00	1.00000e+00	1.00000e+00	1.00000e+00	1.00000e+00	1.00000e+00	1.00000e+00	1.00000e+00	1.00000e+00	1.00000e+00	1.00000e+00	1.00000e+00	1.00000e+00	1.00000e+00	1.00000e+00	1.00000e+00	1.00000e+00	1.00000e+00	1.00000e+00	1.00000e+00	1.00000e+00	X	X	X	X	X	X	X	X	X	X	X	X	X	X	X	X	

B = Detector Channel
Val Type	B-AC1	B-AC2	B-AC3	B-AC4	B-AC5	B-AC6	B-AC7	B-AC8	B-AC9	B-AC10	B-AC11	B-AC12	B-AC13	B-AC14	B-AC15	B-AC16	B-DC1	B-DC2	B-DC3	B-DC4	B-DC5	B-DC6	B-DC7	B-DC8	B-DC9	B-DC10	B-DC11	B-DC12	B-DC13	B-DC14	B-DC15	B-DC16	B-Ph1	B-Ph2	B-Ph3	B-Ph4	B-Ph5	B-Ph6	B-Ph7	B-Ph8	B-Ph9	B-Ph10	B-Ph11	B-Ph12	B-Ph13	B-Ph14	B-Ph15	B-Ph16	

Term	0.00000e+00	0.00000e+00	0.00000e+00	0.00000e+00	0.00000e+00	0.00000e+00	0.00000e+00	0.00000e+00	0.00000e+00	0.00000e+00	0.00000e+00	0.00000e+00	0.00000e+00	0.00000e+00	0.00000e+00	0.00000e+00	0.00000e+00	0.00000e+00	0.00000e+00	0.00000e+00	0.00000e+00	0.00000e+00	0.00000e+00	0.00000e+00	0.00000e+00	0.00000e+00	0.00000e+00	0.00000e+00	0.00000e+00	0.00000e+00	0.00000e+00	0.00000e+00	-2.55034e+02	-1.42192e+02	-1.58171e+02	-1.83275e+02	-9.83914e+01	-9.52191e+01	-1.58166e+02	-1.62015e+02	-1.11076e+02	-8.25393e+01	-1.72759e+02	-1.71492e+02	-1.85060e+02	-1.78311e+02	-8.15946e+01	-1.51161e+02	
Factor	6.84074e-05	1.16036e-04	3.77825e-05	1.75057e-01	1.19124e-06	1.02847e-06	2.01126e-01	6.52604e-02	1.39494e-06	1.20521e-06	1.15205e-01	3.44855e-02	6.48392e-02	1.06986e-02	1.09788e-06	1.56755e-02	7.61801e-07	7.68646e-07	2.13154e-07	8.53154e-02	8.43469e-09	8.40861e-09	9.13502e-02	3.13959e-02	8.44513e-09	8.40387e-09	5.21703e-02	1.57552e-02	2.79534e-02	5.07005e-03	8.41014e-09	7.10043e-03	X	X	X	X	X	X	X	X	X	X	X	X	X	X	X	X	



#DISTANCE SETTINGS
A = Detector Channel
A-1	A-2	A-3	A-4	A-5	A-6	A-7	A-8	A-9	A-10	A-11	A-12	A-13	A-14	A-15	A-16	

2.5000e+00	3.0000e+00	2.5000e+00	3.0000e+00	2.0000e+00	3.0000e+00	1.5000e+00	3.0000e+00	3.0000e+00	3.0000e+00	3.0000e+00	3.0000e+00	3.0000e+00	3.0000e+00	1.5000e+00	3.0000e+00	

B = Detector Channel
B-1	B-2	B-3	B-4	B-5	B-6	B-7	B-8	B-9	B-10	B-11	B-12	B-13	B-14	B-15	B-16	

1.0000e+01	1.0000e+01	1.0000e+01	1.4400e+00	1.0000e+01	1.0000e+01	1.5100e+00	1.9400e+00	1.0000e+01	1.0000e+01	1.9900e+00	2.4900e+00	2.4100e+00	2.9000e+00	1.0000e+01	2.9800e+00	




#DATA BEGINS
time	group	step	mark	flag	A-AC1	A-AC2	A-AC3	A-AC4	A-AC5	A-AC6	A-AC7	A-AC8	A-AC9	A-AC10	A-AC11	A-AC12	A-AC13	A-AC14	A-AC15	A-AC16	A-DC1	A-DC2	A-DC3	A-DC4	A-DC5	A-DC6	A-DC7	A-DC8	A-DC9	A-DC10	A-DC11	A-DC12	A-DC13	A-DC14	A-DC15	A-DC16	A-Ph1	A-Ph2	A-Ph3	A-Ph4	A-Ph5	A-Ph6	A-Ph7	A-Ph8	A-Ph9	A-Ph10	A-Ph11	A-Ph12	A-Ph13	A-Ph14	A-Ph15	A-Ph16	B-AC1	B-AC2	B-AC3	B-AC4	B-AC5	B-AC6	B-AC7	B-AC8	B-AC9	B-AC10	B-AC11	B-AC12	B-AC13	B-AC14	B-AC15	B-AC16	B-DC1	B-DC2	B-DC3	B-DC4	B-DC5	B-DC6	B-DC7	B-DC8	B-DC9	B-DC10	B-DC11	B-DC12	B-DC13	B-DC14	B-DC15	B-DC16	B-Ph1	B-Ph2	B-Ph3	B-Ph4	B-Ph5	B-Ph6	B-Ph7	B-Ph8	B-Ph9	B-Ph10	B-Ph11	B-Ph12	B-Ph13	B-Ph14	B-Ph15	B-Ph16	aux-1	digaux	

2100.654	1	1	0	256	0.28553	0.1285	0.29341	0.23845	0.1348	0.12113	0.11665	0.14225	0.17422	0.11934	0.19907	0.24867	0.1822	0.14197	0.11658	0.20907	-1.5375	-2.9708	-2.1875	-2.1937	-2.5958	-1.8188	-2.5292	-2.7479	-1.8167	-2.7729	-2.3208	-2.2167	-2.7042	-2.1833	-2.3604	-2.9854	382.295	343.054	432.185	412.108	106.784	181.479	200.732	432.669	265.312	349.467	443.403	336.332	260.070	236.422	199.934	421.964	0.0029054	0.00092301	0.00032325	879.14	5.8095e-06	4.4907e-06	1322.8	285.13	1.0533e-05	1.9273e-05	527.15	194.1	96.65	46.457	1.1222e-06	101.12	0.00056666	0.00063154	0.00017833	837.01	6.1239e-06	7.0318e-06	1229.9	271.05	6.1051e-06	7.0616e-06	486.53	177.08	94.247	44.249	6.7575e-06	91.021	407.958	158.478	443.727	101.974	208.319	200.607	101.985	107.693	215.316	205.837	106.552	111.457	113.014	117.270	442.983	115.454	-8191	255	
2100.774	1	1	0	0	0.1121	0.23978	0.1573	0.064023	0.14292	0.25004	0.1583	0.079915	0.14875	0.16722	0.21831	0.11662	0.28886	0.17004	0.067098	0.10847	-1.4125	-2.6104	-2.1458	-2.0438	-2.8688	-1.7437	-2.2646	-2.8688	-1.7208	-2.6104	-2.4042	-1.9	-2.7479	-2.25	-2.2417	-2.9792	372.848	345.176	233.029	266.537	189.818	99.178	341.667	346.072	374.661	213.765	394.728	343.479	124.429	431.380	157.991	312.658	0.0034354	0.00033104	0.0002481	870.09	1.087e-05	4.3494e-06	1307.7	282.7	1.4689e-05	9.4593e-06	526.53	198.63	99.658	46.501	6.9843e-06	101.06	0.00058183	0.00064672	0.00017229	825.39	6.2683e-06	7.0547e-06	1211.7	267.51	6.3118e-06	7.0696e-06	485.45	179.35	97.014	44.25	6.5302e-06	90.338	404.854	228.881	135.045	101.796	246.788	233.478	101.272	106.875	152.856	228.959	106.473	111.950	112.949	117.607	326.480	114.834	-8191	255	
2100.870	1	1	0	0	0.13554	0.27893	0.11456	0.1346	0.064501	0.093807	0.41302	0.2086	0.10567	0.21551	0.29964	0.23104	0.17484	0.32851	0.10006	0.38332	-1.6187	-2.525	-2.6229	-2.15	-2.6979	-2.425	-2.2125	-2.9313	-1.9146	-2.4437	-2.6229	-2.1063	-2.8021	-2.5021	-2.1479	-2.8688	295.082	209.402	350.293	432.349	146.832	116.065	435.433	93.316	166.633	342.705	408.533	93.824	189.707	405.759	130.995	323.418	0.0030028	0.00011703	0.0001964	859.78	1.4938e-05	1.8265e-06	1298.6	283.61	2.4103e-06	7.0745e-06	531.7	208.23	104.65	47.326	1.3887e-05	100.75	0.00061017	0.00061966	0.00016217	812.08	6.3825e-06	6.5474e-06	1200.3	266.15	6.289e-06	6.3672e-06	484.71	186.92	99.97	44.363	5.7673e-06	89.898	408.716	118.921	189.197	102.110	191.749	367.860	101.613	108.280	150.922	257.132	106.205	110.786	112.455	117.388	232.105	115.690	-8191	255	
2100.967	1	1	0	0	0.11969	0.16737	0.081784	0.12799	0.24397	0.26471	0.34021	0.11284	0.1949	0.063473	0.34083	0.29265	0.053459	0.044124	0.3496	0.53254	-1.675	-2.3875	-2.3792	-2.1146	-2.5583	-2.4562	-2.2542	-2.9875	-1.8625	-2.4042	-2.8125	-1.8146	-2.6583	-2.4271	-2.0375	-2.9771	107.924	259.930	294.576	392.967	434.781	299.820	438.655	252.911	196.622	186.928	378.219	375.048	251.382	352.057	365.769	373.303	0.0030046	0.00055816	0.00020223	847.95	8.561e-06	9.9359e-07	1288.1	282.18	4.436e-06	5.5348e-06	522.88	210.95	104.52	50.241	8.2331e-06	105.21	0.00058745	0.00055633	0.00014435	796.12	6.1925e-06	6.0142e-06	1185.5	262.62	6.2481e-06	5.8373e-06	476.66	189.95	100.06	46.354	5.3325e-06	93.599	424.879	239.428	354.882	101.939	194.236	101.484	102.187	108.084	105.216	322.075	106.479	111.626	113.147	117.039	251.535	115.063	-8191	255	
2101.063	1	1	0	0	0.18815	0.17519	0.24739	0.10048	0.25689	0.29199	0.26075	0.10631	0.26848	0.14603	0.13547	0.28696	0.21375	0.10453	0.014074	0.071572	-1.5146	-2.4271	-2.5292	-2.0833	-2.6896	-2.3646	-2.0333	-2.7333	-2.1125	-2.1083	-2.7812	-2.0438	-2.4708	-2.6813	-1.9813	-2.7896	375.948	276.295	116.002	383.903	338.144	431.898	348.737	437.228	107.482	349.861	423.198	377.278	203.601	425.886	195.334	344.383	0.0029215	0.0005875	0.00013168	824.15	1.6115e-05	7.5207e-06	1266.6	273.73	1.2528e-05	3.1011e-06	518.85	213.86	105.87	52.86	6.5063e-06	110.25	0.00058647	0.00052619	0.00013581	780.79	6.3572e-06	5.9673e-06	1160.9	258.49	6.532e-06	6.0456e-06	472.13	192.7	102.05	48.927	5.6207e-06	98.665	407.333	421.208	207.782	102.324	215.717	112.830	101.912	107.919	217.164	289.990	106.561	111.007	112.579	117.368	178.824	115.142	-8191	255	
2101.134	1	1	0	0	0.13152	0.070921	0.23211	0.28998	0.052122	0.10225	0.17873	0.17312	0.044454	0.17074	0.22648	0.25145	0.16137	0.33958	0.14382	0.35167	-1.8271	-2.0396	-2.5625	-1.925	-2.3854	-2.525	-2.0563	-2.7271	-2.1771	-2.1417	-2.9333	-2.0563	-2.4021	-2.6417	-1.7271	-2.9917	264.488	228.647	126.150	378.256	219.167	212.656	415.328	216.316	98.139	223.986	404.200	378.862	365.092	410.744	347.826	374.751	0.0032512	0.0013811	0.00043566	800.68	8.3799e-06	8.2e-06	1250.7	266.18	6.9222e-06	6.9439e-06	515.24	211.97	103.82	53.561	4.2565e-06	112.16	0.00063741	0.0005739	0.00015059	771	6.8818e-06	6.5657e-06	1152.2	256.83	7.1329e-06	6.5794e-06	471.86	194.01	102.88	50.099	6.5117e-06	101.43	409.231	279.759	236.995	101.534	286.878	399.576	101.876	108.092	327.792	284.762	106.742	111.188	113.205	117.220	128.512	115.017	-8191	255	
2101.253	1	1	0	0	0.1877	0.17786	0.29033	0.18869	0.20871	0.12141	0.21265	0.065525	0.41259	0.30171	0.29948	0.18547	0.23713	0.17283	0.12126	0.26422	-2.0833	-1.9104	-2.9021	-1.9333	-2.5312	-2.9729	-1.9771	-2.6083	-2.3646	-1.8292	-2.7021	-2.2958	-2.1125	-2.9104	-1.8896	-2.7062	289.216	381.252	245.402	334.663	287.541	326.181	378.598	447.207	92.268	429.546	432.795	332.621	315.051	205.255	397.648	431.375	0.0028078	0.00089777	0.00011258	773.55	1.4148e-05	5.8569e-06	1222	262.46	1.112e-05	4.5672e-06	511.75	210.89	102.05	54.099	1.3586e-05	113.04	0.00069756	0.00062578	0.00017716	763.27	7.6351e-06	7.1313e-06	1145.5	257.84	7.9604e-06	7.1204e-06	481.32	195.32	104.28	50.86	8.0911e-06	103.42	399.189	193.020	156.740	101.633	447.484	145.035	101.805	107.618	191.615	444.855	106.717	111.453	113.154	117.475	244.717	115.135	-8191	255	
2101.349	1	1	0	0	0.11957	0.18961	0.17614	0.25338	0.31979	0.065671	0.15647	0.34292	0.16025	0.28653	0.11179	0.28554	0.18044	0.13975	0.25983	0.135	-2.0229	-1.7125	-2.6729	-2.2313	-1.8563	-2.7208	-1.9771	-2.6542	-2.5125	-1.9792	-2.725	-2.3979	-1.8583	-2.8146	-1.9958	-2.5042	342.691	302.749	436.499	105.026	255.775	211.373	378.249	343.260	386.889	115.525	120.652	434.463	384.718	111.280	406.794	443.798	0.0034958	0.00076931	0.00020476	760.45	5.8744e-06	3.0387e-06	1204.5	263.26	1.2174e-05	1.3795e-05	520.15	209.74	100.84	54.179	4.4352e-06	113.07	0.00079146	0.00069896	0.00021798	759.75	8.8032e-06	8.1816e-06	1151.9	263.45	9.3789e-06	8.5704e-06	500.34	198.51	109.83	52.06	1.0761e-05	105.17	405.235	242.530	140.631	101.821	214.025	176.993	101.611	108.006	262.082	169.869	106.976	110.753	112.152	117.131	223.132	114.874	-8191	255	
2101.446	1	1	0	0	0.032488	0.22649	0.081798	0.10369	0.18602	0.31136	0.061289	0.19558	0.17173	0.3258	0.14386	0.24244	0.12041	0.2399	0.24819	0.0371	-2.1083	-1.5646	-2.6021	-2.3208	-1.9146	-2.7812	-2.0917	-2.3812	-2.6	-1.9583	-2.7375	-2.4917	-1.8271	-2.7875	-2.2458	-2.4188	433.002	303.749	115.137	407.779	218.618	417.551	91.129	387.074	398.366	90.603	228.271	427.541	110.300	354.415	155.982	294.726	0.0031554	0.0009876	0.00029499	739.53	9.8325e-06	1.8678e-05	1189.3	260.81	1.4348e-05	9.4225e-06	513.8	212.5	101.79	55.243	1.3044e-05	115.05	0.00098604	0.00092575	0.00029886	771.09	1.1274e-05	1.1061e-05	1172.9	271.79	1.2173e-05	1.1956e-05	521.2	206.43	119.81	55.152	1.4476e-05	109.31	396.496	414.023	120.527	101.949	284.720	158.338	102.017	108.532	158.847	197.654	106.409	110.758	112.533	116.844	134.183	114.757	-8191	255	
2101.543	1	1	0	0	0.29229	0.12226	0.22156	0.15265	0.020314	0.12858	0.16262	0.076618	0.21704	0.28418	0.32083	0.39133	0.12783	0.19975	0.24587	0.35358	-2.4771	-1.7188	-2.4917	-2.5083	-1.6479	-2.5958	-2.1375	-2.0417	-2.7708	-2.0438	-2.8	-2.6354	-1.8646	-2.925	-2.1396	-2.1917	441.206	145.063	109.705	118.724	336.333	338.625	112.855	148.863	374.393	109.411	400.803	396.566	212.367	93.907	130.769	408.475	0.0029341	0.0015706	0.00038578	728.39	3.9035e-06	1.8923e-05	1169.8	254.14	5.7851e-06	6.3139e-06	512.36	211.65	101.11	55.313	1.5615e-05	114.21	0.0012218	0.001244	0.00038167	791.34	1.3389e-05	1.4401e-05	1191.5	277	1.395e-05	1.5004e-05	530.13	209.5	123.86	56.825	1.6246e-05	109.69	409.794	156.632	190.857	102.431	422.525	192.054	102.285	108.032	143.216	125.366	107.495	111.309	112.586	117.426	235.234	114.369	-8191	255	
2101.662	1	1	0	0	0.067192	0.23387	0.072508	0.15082	0.13116	0.1136	0.039364	0.23807	0.371	0.1251	0.26087	0.18464	0.33242	0.18966	0.11489	0.14224	-2.4729	-1.8021	-2.2521	-2.5417	-1.9729	-2.9979	-2.5417	-2.1083	-2.7083	-2.0312	-2.4396	-2.875	-1.7375	-2.7771	-2.2875	-2.2021	372.739	377.213	362.322	94.719	360.768	172.450	92.460	357.201	101.089	410.661	410.300	338.287	431.814	405.388	391.251	114.527	0.0038508	0.0010778	0.00036008	722.31	1.255e-05	8.6769e-06	1164.9	252.07	1.8464e-05	1.5769e-05	505.78	210.95	102.15	54.652	5.6751e-06	112.1	0.0013191	0.0014538	0.00041007	796.94	1.429e-05	1.6122e-05	1197.9	277.36	1.4479e-05	1.6401e-05	530.08	208.86	125.17	56.849	1.6431e-05	108	394.231	153.890	158.091	102.202	154.290	256.358	102.125	108.212	178.007	250.641	107.088	111.207	112.584	116.945	436.510	114.773	-8191	255	
2101.734	1	1	0	0	0.071514	0.075096	0.092681	0.1337	0.067987	0.22183	0.3199	0.11244	0.16002	0.26404	0.20246	0.23561	0.1057	0.28791	0.18677	0.36323	-2.3229	-2.075	-2.2375	-2.8667	-1.8625	-2.825	-2.5979	-2.0104	-2.8167	-2.1521	-2.3854	-2.7375	-1.9146	-2.6063	-2.5083	-2.0083	418.168	141.822	441.462	336.787	98.031	390.875	382.348	411.667	180.661	248.928	334.701	94.775	149.524	134.343	155.168	375.472	0.0036923	0.0011583	0.00026707	721.94	1.5878e-05	2.9491e-06	1152.5	250.82	1.323e-05	6.0649e-06	498.12	207.08	100.04	54.485	1.2641e-05	111.77	0.001385	0.0015608	0.00042178	795.92	1.577e-05	1.7745e-05	1198.3	277.16	1.6835e-05	1.8522e-05	533.52	208.1	134.07	58.261	1.866e-05	109.19	405.231	329.105	258.880	101.900	222.043	214.626	101.274	107.559	229.093	288.476	106.929	111.326	112.433	116.975	217.631	114.579	-8191	255	
2101.855	1	1	0	0	0.11247	0.074589	0.033014	0.15618	0.20963	0.25711	0.056688	0.15183	0.04635	0.18804	0.1297	0.11532	0.33107	0.10225	0.10756	0.03161	-2.3333	-1.9792	-2.2188	-2.8438	-2.0062	-2.6437	-2.7229	-1.9583	-2.6833	-2.1167	-2.0458	-3.1875	-1.8021	-2.5292	-2.5896	-1.7729	152.482	139.506	162.201	382.406	209.854	346.565	417.482	269.320	223.607	424.700	433.959	388.940	434.514	124.081	132.272	339.263	0.0041613	0.00097056	0.00076974	717.44	1.2756e-05	1.2687e-05	1144.9	241.82	2.8362e-05	1.1366e-05	485.23	201.63	96.645	53.791	1.0271e-05	110.91	0.0016944	0.0017963	0.00048218	808.39	1.9286e-05	2.0141e-05	1212.6	276.48	2.0195e-05	2.0966e-05	533.12	207.83	143.48	59.011	2.0243e-05	109.67	406.475	146.343	200.076	101.830	188.016	279.892	102.299	107.842	147.687	143.819	106.759	111.871	112.584	117.600	413.101	114.508	-8191	255	
2101.951	1	1	0	0	0.17171	0.16694	0.25844	0.30893	0.2	0.27105	0.25766	0.19561	0.18887	0.08302	0.20132	0.11249	0.20292	0.1312	0.038569	0.15996	-2.2729	-2.3063	-1.8813	-2.8958	-2.1521	-2.5458	-2.8625	-1.9292	-2.6437	-2.3854	-2.0646	-2.9771	-2.1562	-2.3875	-2.8604	-2.1125	365.255	362.485	113.107	403.864	281.069	249.521	99.951	412.142	333.413	416.978	446.897	435.095	442.479	432.839	269.806	417.187	0.0045963	0.0009522	9.9128e-05	711.18	8.0333e-06	8.4437e-06	1129.3	236.55	6.2904e-06	2.2032e-06	472.57	197.9	94.932	53.195	1.3682e-05	110.88	0.0019042	0.0018847	0.00048738	811.09	2.0661e-05	2.0242e-05	1198.8	274.14	2.0805e-05	2.059e-05	518.67	204.65	142.68	57.896	1.899e-05	109.96	416.857	184.456	139.908	101.853	176.193	155.836	101.750	108.741	308.933	431.718	107.462	112.006	113.049	117.125	390.720	114.561	-8191	255	
2102.047	1	1	0	0	0.089619	0.36039	0.1355	0.22933	0.18454	0.073688	0.14989	0.19593	0.085608	0.27057	0.17255	0.24381	0.19756	0.11046	0.24696	0.2373	-2.3396	-2.6167	-1.9083	-3.0167	-2.2104	-2.2875	-2.8292	-2.0229	-2.6125	-2.5708	-2.0854	-2.8625	-2.2	-2.1667	-2.8	-2.1562	168.174	260.019	200.757	96.408	336.320	171.043	439.953	348.116	442.645	345.350	372.241	444.735	327.584	430.732	436.319	437.674	0.0033116	0.0007346	0.00034843	701.88	1.9293e-05	1.0832e-05	1113.6	226.82	1.2957e-05	1.4884e-05	458.49	192.13	91.295	52.032	1.3512e-05	108.97	0.0019304	0.0018857	0.0004669	809.17	2.0608e-05	1.9301e-05	1165.5	266.37	1.9939e-05	1.9168e-05	492.72	198.9	135.37	56.011	1.7361e-05	108.6	407.291	443.743	269.746	102.581	224.158	365.339	101.828	108.661	236.086	310.991	106.942	111.780	112.926	117.372	201.588	114.117	-8191	255	
2102.143	1	1	0	0	0.040852	0.15891	0.12701	0.24436	0.3633	0.23468	0.13867	0.14371	0.13973	0.21678	0.02461	0.023655	0.35821	0.039599	0.24157	0.34661	-2.1708	-2.6854	-1.9458	-2.8083	-2.3312	-2.0625	-2.9313	-1.9813	-2.5042	-2.6063	-2.0271	-2.8167	-2.3688	-1.9083	-2.8646	-2.2062	239.108	261.239	190.306	332.092	357.391	99.203	100.765	439.500	210.761	282.828	174.100	320.212	408.264	97.472	225.709	351.078	0.0025622	0.0010946	0.00044598	701.38	3.15e-06	2.0503e-05	1118.5	225.88	1.5052e-05	1.2121e-05	451.19	191.78	91.677	51.581	1.2597e-05	109.75	0.0017997	0.0017106	0.00042689	808.93	1.9288e-05	1.7898e-05	1156.3	265.79	1.8757e-05	1.7734e-05	484.84	198.23	131.41	54.56	1.6436e-05	108.49	414.221	303.566	155.387	102.015	279.393	351.269	102.156	108.231	218.441	385.176	107.221	111.339	112.444	117.294	232.390	114.477	-8191	255	
2102.264	1	1	0	0	0.32336	0.11902	0.20864	0.10284	0.3295	0.14216	0.11562	0.30847	0.14299	0.077165	0.10015	0.12837	0.32458	0.12121	0.043013	0.32092	-1.9583	-2.6	-1.8188	-2.7021	-2.5187	-1.9667	-2.9	-2.0458	-2.2771	-2.9604	-1.9083	-2.6125	-2.65	-2.1188	-2.8229	-2.5042	221.603	417.966	345.870	354.818	172.681	314.946	407.826	418.412	400.000	236.808	264.693	138.004	288.578	104.973	297.160	390.825	0.0034965	0.0015182	0.00038938	701.03	1.5424e-05	1.7247e-05	1122.4	229.75	1.581e-05	6.1577e-06	458.74	194.14	93.007	51.902	1.6668e-05	109.72	0.0016063	0.0014925	0.00039968	797.64	1.6983e-05	1.5316e-05	1149.8	263.21	1.6377e-05	1.5228e-05	488.18	198.09	127.17	53.884	1.6795e-05	108.45	401.080	399.456	124.115	102.106	147.402	305.665	102.041	107.954	164.629	434.665	107.393	111.589	112.883	117.251	204.139	114.911	-8191	255	
2102.335	1	1	0	0	0.070216	0.1164	0.18271	0.14557	0.054041	0.12572	0.17754	0.30434	0.16404	0.19191	0.0095068	0.23052	0.1451	0.161	0.14799	0.25036	-1.8271	-2.775	-1.9583	-2.4854	-2.5958	-1.8542	-2.8875	-2.3833	-2.1375	-2.8792	-2.0583	-2.6771	-2.6917	-2.1104	-2.7771	-2.5208	268.088	113.878	410.121	365.230	364.346	274.153	188.229	351.610	448.553	158.330	158.412	412.789	177.876	445.827	411.555	368.030	0.0028967	0.00049662	0.00043262	701.07	1.5247e-05	1.7605e-05	1110.2	231.79	2.0355e-05	1.127e-05	467.37	194.8	92.741	51.967	1.6947e-05	109.47	0.0015981	0.001489	0.00044444	802.07	1.7791e-05	1.5765e-05	1164.7	268.32	1.6985e-05	1.5597e-05	501.1	199.06	127.11	53.874	1.7547e-05	107.92	406.047	361.239	199.005	102.438	334.123	197.491	102.108	108.376	422.357	186.148	107.173	111.339	112.563	116.832	293.159	114.639	-8191	255	
2102.430	1	1	0	0	0.0047886	0.11668	0.3829	0.4834	0.19837	0.098068	0.131	0.08231	0.40905	0.0099605	0.20967	0.1732	0.12944	0.039347	0.33461	0.12716	-1.6437	-2.6542	-2.0563	-2.4792	-2.7438	-1.8854	-3.025	-2.3604	-2.0854	-2.9521	-2.2479	-2.5833	-2.8271	-1.9083	-2.5854	-2.6896	195.055	274.766	114.779	416.682	234.960	256.617	383.651	97.031	250.430	181.804	291.361	384.518	281.124	430.725	245.936	332.506	0.0032168	0.0019196	0.00042064	700.62	5.62e-06	1.448e-05	1120.3	236.36	2.4584e-05	1.0927e-05	476.33	197.55	93.906	52.089	8.7803e-06	108.69	0.0015168	0.0014332	0.00045226	792.19	1.6624e-05	1.5642e-05	1168.8	269.07	1.5918e-05	1.5639e-05	509.57	198.86	123.26	53.787	1.6885e-05	105.9	396.467	172.570	160.621	102.262	432.020	159.373	102.284	107.428	396.319	136.118	106.007	110.993	112.270	117.183	122.485	114.586	-8191	255	
2102.550	1	1	0	0	0.16172	0.061167	0.14168	0.17582	0.090287	0.22282	0.057763	0.19224	0.11191	0.32859	0.14465	0.24121	0.080526	0.10637	0.1709	0.30505	-1.6437	-2.8208	-2.1583	-2.2542	-2.9083	-1.8875	-2.8958	-2.6104	-2.0312	-2.6896	-2.3187	-2.4042	-2.8563	-2.1896	-2.5125	-2.7208	112.917	373.612	150.410	425.204	282.550	439.734	400.754	166.271	178.446	218.845	103.233	429.520	138.361	332.571	441.749	374.892	0.002157	0.0029386	0.0001527	704.29	1.0076e-05	2.0632e-05	1127.1	242.6	1.4588e-05	2.658e-05	482.32	199.18	95.106	51.753	8.6971e-06	107.3	0.0013569	0.0014104	0.00042494	779.18	1.4617e-05	1.5263e-05	1163.7	268.19	1.4117e-05	1.545e-05	510.16	198.02	119.65	53.494	1.5762e-05	103.9	398.366	129.435	115.707	102.426	124.705	198.059	101.717	107.776	213.316	183.507	106.891	111.400	113.093	117.190	268.016	114.041	-8191	255	
2102.647	1	1	0	0	0.17822	0.15693	0.088439	0.17514	0.28676	0.14379	0.0070937	0.064581	0.020518	0.24723	0.12918	0.23617	0.22492	0.16362	0.14487	0.39733	-1.6437	-2.7812	-2.15	-2.2396	-2.7625	-1.9937	-2.8521	-2.9	-1.9271	-2.7875	-2.5563	-2.3438	-2.9208	-2.1188	-2.5938	-2.8042	445.632	395.408	328.094	388.248	438.469	143.400	130.548	405.475	376.599	90.100	355.111	352.044	355.878	444.401	194.686	419.765	0.0032968	0.00068146	0.00016863	707.72	7.3974e-06	1.4192e-05	1133.1	246.89	1.2284e-05	8.8118e-06	487.43	199.83	96.053	51.511	1.1269e-05	106.98	0.0012442	0.0013972	0.00039784	772.7	1.3798e-05	1.5625e-05	1164.9	269.66	1.3886e-05	1.633e-05	515.69	199.2	122.59	54.36	1.6486e-05	104.05	405.490	149.586	110.092	102.199	264.716	206.196	102.194	108.069	196.815	151.067	107.369	111.763	112.928	117.133	247.108	114.771	-8191	255	
2102.743	1	1	0	0	0.053364	0.16677	0.27718	0.10981	0.11299	0.25885	0.2444	0.082163	0.28063	0.072706	0.11616	0.09682	0.053286	0.18462	0.23858	0.2005	-1.5042	-2.6979	-2.5042	-2.0167	-2.8875	-2.1	-2.4583	-2.8479	-2.0438	-2.6604	-2.5812	-2.1979	-2.6958	-2.3708	-2.2208	-2.9083	402.247	324.540	161.856	365.404	385.702	184.602	90.916	125.472	413.605	348.995	378.086	98.887	350.558	105.648	437.488	365.005	0.0033846	0.0021921	0.00026603	716.55	1.5948e-05	1.73e-06	1138.3	244.93	2.0575e-05	1.9401e-05	485.91	200.1	96.855	50.622	5.2709e-06	105.56	0.0013898	0.001585	0.00043025	785.63	1.6052e-05	1.8049e-05	1184.1	274.36	1.6895e-05	1.8714e-05	524.85	201.55	133.05	55.456	1.8515e-05	103.98	408.008	217.633	176.068	102.058	209.316	144.499	102.382	107.952	138.654	328.717	106.240	111.180	112.487	116.853	417.105	114.442	-8191	255	
2102.839	1	1	0	0	0.11976	0.033862	0.21939	0.058918	0.071344	0.23393	0.26825	0.24599	0.10319	0.13459	0.18464	0.21281	0.088276	0.29479	0.12945	0.23844	-1.4917	-2.5771	-2.375	-2.0771	-2.9979	-2.3604	-2.3792	-2.9562	-2.0563	-2.6021	-2.6854	-2.0938	-2.8417	-2.4208	-2.2562	-2.9146	346.618	356.693	193.242	127.942	316.069	341.334	317.724	414.672	378.808	439.787	421.296	414.186	443.619	417.588	338.267	379.879	0.0036625	0.0012065	3.7219e-05	714.51	8.0552e-06	7.4869e-06	1136.4	247.35	1.9678e-05	1.6526e-05	485.87	200.49	97.31	50.828	1.5178e-05	104.85	0.0017077	0.0017982	0.00048148	798.32	1.9235e-05	2.015e-05	1198.9	280.62	2.0089e-05	2.057e-05	535.82	205.12	144.22	56.686	2.028e-05	104.93	412.687	179.360	182.577	101.775	230.043	189.346	101.729	107.615	140.401	406.068	106.336	110.944	112.564	116.422	378.164	114.491	-8191	255	
2102.959	1	1	0	0	0.32768	0.07065	0.16305	0.12391	0.19961	0.16081	0.34772	0.024259	0.1313	0.20729	0.26983	0.19863	0.25003	0.17959	0.14606	0.25912	-1.5625	-2.3187	-2.8583	-1.9208	-2.6104	-2.4771	-2.1	-2.9667	-2.1458	-2.2562	-3.0042	-2.0812	-2.7062	-2.6854	-1.9229	-3.0521	108.653	253.809	322.675	341.459	207.081	349.066	373.920	358.241	428.822	449.149	122.928	154.674	410.159	438.577	424.175	401.196	0.0037481	0.0014544	0.00011483	714.18	1.7868e-05	1.6388e-05	1138.8	250.05	9.821e-06	7.2265e-06	491.36	200.3	98.845	50.351	1.3321e-05	103.54	0.0020424	0.0020409	0.00054481	834.88	2.3612e-05	2.3407e-05	1230.4	295.66	2.4439e-05	2.35e-05	553.34	212.94	157.52	57.82	2.1932e-05	107.31	402.264	143.806	178.281	101.448	203.567	405.187	101.649	107.536	145.190	400.898	106.468	111.124	113.196	116.526	294.428	114.834	-8191	255	
2103.031	1	1	0	0	0.24008	0.083225	0.029145	0.21414	0.40685	0.091864	0.040925	0.19369	0.24907	0.23342	0.12199	0.086109	0.044433	0.27193	0.088449	0.22521	-1.7208	-2.4	-2.65	-2.0542	-2.7083	-2.5062	-2.1292	-2.8104	-2.1437	-2.3417	-2.9208	-2.0938	-2.8208	-2.6875	-2.0208	-3.0396	443.134	252.638	285.111	415.793	317.811	368.789	127.283	390.966	282.161	237.474	368.303	126.602	168.019	325.364	408.578	106.143	0.0025613	0.00062884	0.000407	715.09	3.836e-06	1.119e-05	1144.7	249.51	3.5605e-05	6.6867e-06	491.65	201.72	98.69	49.788	7.3504e-06	103.58	0.0023163	0.0021944	0.00056586	864.17	2.5248e-05	2.4221e-05	1236.9	305.7	2.5577e-05	2.3935e-05	554.8	217.26	159.31	57.706	2.1911e-05	108.73	408.614	248.876	293.625	102.517	277.801	133.563	101.881	108.142	199.360	399.630	106.529	111.582	112.813	117.080	402.751	114.563	-8191	255	
2103.127	1	1	0	0	0.40952	0.24567	0.27032	0.24735	0.16984	0.087658	0.17639	0.03581	0.16662	0.15086	0.080916	0.3054	0.32304	0.11402	0.21197	0.44073	-1.9125	-2.2021	-2.7188	-2.1937	-2.4833	-2.6917	-1.9458	-2.8187	-2.2104	-2.2229	-3.0104	-2.2521	-2.5	-2.7854	-2.0938	-2.7708	405.532	305.055	151.215	364.188	343.890	164.816	232.121	130.358	429.893	349.609	319.098	399.516	376.343	128.159	184.484	360.923	0.0031773	0.00098936	0.00034815	718.49	2.3514e-05	4.4906e-06	1137.8	250.49	1.8758e-05	2.2516e-05	490.57	198.7	97.385	48.941	2.2789e-05	102.79	0.0023449	0.0022013	0.00057351	891.98	2.5772e-05	2.4619e-05	1239.7	313.49	2.6098e-05	2.4139e-05	558.85	219.64	160.34	57.26	2.3347e-05	109.73	392.060	424.596	227.854	102.114	146.293	434.811	101.964	107.600	278.854	265.353	107.302	111.692	112.274	116.582	207.385	114.879	-8191	255	
2103.223	1	1	0	0	0.37167	0.13118	0.18901	0.091511	0.079687	0.14169	0.18679	0.1299	0.18027	0.090493	0.11385	0.17006	0.1665	0.051412	0.32042	0.14039	-2.0812	-1.8625	-2.6833	-2.0167	-2.4021	-2.8542	-2.0563	-2.6583	-2.4062	-1.9542	-3.0687	-2.0396	-2.4542	-2.8187	-1.9646	-2.8896	379.346	246.577	187.607	195.709	306.076	205.507	396.705	424.115	278.773	325.190	389.295	339.032	244.071	313.612	186.385	154.654	0.0025854	0.0016216	0.00089982	714.43	2.0387e-05	8.713e-06	1138.5	249.34	1.7485e-05	1.0521e-05	490.73	199.02	96.924	48.982	4.4269e-05	101.64	0.002382	0.0021791	0.00060562	905.03	2.5654e-05	2.4112e-05	1259	317.95	2.586e-05	2.3358e-05	569.03	220.53	157.96	56.305	2.4544e-05	109.15	419.253	308.492	146.382	101.944	139.037	361.958	102.367	107.909	105.682	113.279	106.085	110.653	112.184	116.305	171.753	115.039	-8191	255	
2103.342	1	1	0	0	0.11987	0.18629	0.11088	0.28814	0.031538	0.029121	0.078864	0.15046	0.1399	0.10733	0.1579	0.1926	0.1031	0.12963	0.080933	0.29802	-2.1646	-2.0375	-2.7458	-2.375	-2.2062	-2.8958	-1.9771	-2.6729	-2.6896	-1.8833	-2.9188	-2.1958	-2.0458	-2.9104	-2.1104	-2.5104	117.570	251.617	300.192	335.347	251.598	289.598	233.968	391.338	247.520	126.200	108.639	373.119	394.968	411.420	317.988	416.544	0.0021338	0.0016244	0.00066921	722.84	1.1033e-05	1.3048e-05	1146.1	251.91	5.8636e-06	5.1297e-06	494.01	199.23	96.065	48.955	2.822e-05	101.62	0.0022954	0.0020319	0.00061708	894.99	2.3825e-05	2.198e-05	1267	311.97	2.4107e-05	2.1773e-05	573.51	218.73	154.7	56.179	2.6639e-05	109.1	396.320	339.141	437.998	102.021	352.631	249.741	101.842	108.214	180.716	378.291	106.718	111.639	112.236	117.227	201.557	115.417	-8191	255	
2103.438	1	1	0	0	0.23611	0.1558	0.25019	0.22005	0.031387	0.039399	0.34402	0.059697	0.22478	0.12333	0.11981	0.18128	0.25777	0.069723	0.35268	0.21784	-2.4458	-1.8417	-2.7792	-2.3604	-2.1167	-2.8583	-2.3792	-2.4562	-2.9688	-1.9917	-2.8063	-2.7438	-1.9083	-2.95	-2.2	-2.575	317.536	195.624	372.090	447.338	360.222	361.915	94.627	154.042	149.129	156.501	414.209	412.042	227.819	436.535	434.277	316.572	0.0038466	0.0011862	0.00073789	714.4	3.052e-05	1.7505e-05	1140.8	253.21	4.0773e-05	3.4093e-05	491.68	195.42	96.757	49.651	1.6442e-05	101.96	0.0023436	0.0021855	0.00070723	912.32	2.5583e-05	2.5022e-05	1309.2	321.65	2.6279e-05	2.5473e-05	599.37	222.14	161.9	59.053	3.1152e-05	111.89	407.148	126.240	142.903	102.580	331.553	167.799	101.662	107.790	344.201	244.144	107.022	111.257	111.470	116.792	191.706	114.915	-8191	255	
2103.535	1	1	0	0	0.11435	0.30795	0.12763	0.046145	0.1125	0.065262	0.16047	0.085568	0.131	0.17143	0.1136	0.23773	0.23139	0.19694	0.14437	0.091263	-2.5187	-1.9	-2.6833	-2.6063	-2.1729	-3.0104	-2.1937	-2.3	-2.8563	-2.0187	-2.5062	-2.5958	-1.975	-3.0167	-2.1646	-2.275	181.260	360.070	124.191	241.535	372.392	254.604	360.233	373.509	372.826	102.402	140.287	348.002	397.237	429.713	239.406	89.607	0.0027865	0.0013116	0.00052443	715.49	2.6362e-05	2.8338e-05	1135.8	251.14	2.2965e-05	2.9847e-05	490.79	196.68	95.209	50.061	8.1978e-06	101.79	0.002557	0.0026432	0.00081408	947.11	2.8107e-05	3.0249e-05	1355.4	331.41	2.8738e-05	3.0654e-05	618.05	226.78	166.2	61.708	3.2774e-05	112.7	381.444	186.537	131.646	101.966	362.684	215.296	101.700	107.188	294.881	185.878	107.369	110.879	112.995	117.470	258.920	114.159	-8191	255	
2103.631	1	1	0	0	0.18102	0.23182	0.026401	0.40987	0.072507	0.038773	0.21963	0.28809	0.1065	0.27446	0.27059	0.23407	0.23826	0.27295	0.061616	0.072437	-2.3187	-2.0062	-2.5417	-2.6729	-1.9479	-2.7562	-2.3958	-2.0812	-2.7	-2.0667	-2.7229	-2.9583	-1.7833	-2.9188	-2.5021	-2.1271	166.925	272.437	112.984	112.454	324.568	446.791	350.273	346.807	181.344	397.078	111.698	421.559	311.295	349.588	387.014	253.927	0.0025007	0.0032818	0.00039573	716.34	1.0744e-05	1.1737e-05	1140.6	248.63	1.2955e-05	3.5412e-05	493	195.77	97.282	49.583	2.1242e-05	101.31	0.0026063	0.0029153	0.00082339	948.33	2.8642e-05	3.3107e-05	1366.9	332.91	3.0282e-05	3.4512e-05	627.93	229.4	176.82	64.242	3.4904e-05	113.14	421.135	137.392	334.462	101.982	263.570	221.278	102.119	107.258	268.470	214.911	106.844	111.507	111.830	117.382	314.266	114.330	-8191	255	
2103.727	1	1	0	0	0.047213	0.18201	0.10833	0.14625	0.19173	0.23127	0.10452	0.014655	0.23067	0.07463	0.21795	0.30424	0.13307	0.28708	0.16797	0.20716	-2.5208	-2.05	-2.4271	-2.825	-1.8458	-2.8042	-2.5833	-2.0563	-2.95	-2.2042	-2.4771	-2.9771	-2.0708	-2.7042	-2.7208	-2.1	392.765	234.001	184.874	348.440	288.939	306.403	104.172	356.625	266.114	258.477	101.308	369.257	119.224	428.130	127.946	332.302	0.0037877	0.0015951	0.00061897	712.71	3.3365e-05	7.0364e-06	1139	247.31	3.2778e-05	1.8456e-05	485.94	194.42	97.019	48.062	8.6923e-06	98.646	0.0028719	0.0032309	0.00085134	947.23	3.0836e-05	3.4291e-05	1350.6	324.48	3.0406e-05	3.3396e-05	604.48	220.11	171.41	60.71	3.0258e-05	106.26	399.637	190.896	281.382	102.078	199.463	192.529	102.325	107.707	167.494	443.689	106.736	111.255	112.133	116.828	290.907	114.863	-8191	255	
2103.823	1	1	0	0	0.125	0.29653	0.098344	0.1671	0.21731	0.095576	0.31705	0.061009	0.095174	0.032476	0.16378	0.25949	0.15856	0.21366	0.25458	0.24028	-2.5417	-2.0625	-2.3875	-2.8	-2.0271	-2.5083	-2.8854	-1.9729	-2.8312	-2.1667	-2.4417	-3.1188	-2.1646	-2.6604	-2.7021	-2.1208	356.214	308.811	105.163	415.124	191.748	350.270	407.642	294.397	364.110	390.001	374.954	432.199	331.425	393.540	395.777	431.876	0.0037116	0.00048573	0.00048948	711.86	1.6749e-05	1.7885e-05	1133.6	248.03	2.2271e-05	1.8562e-05	483.87	193.76	95.688	46.934	6.628e-06	97.048	0.0026478	0.0028029	0.00071246	893.12	2.7666e-05	2.8351e-05	1283.1	304.53	2.6717e-05	2.724e-05	568.07	208.93	160.51	56.522	2.5238e-05	101.93	395.532	381.536	228.247	101.861	168.405	312.285	102.111	108.131	165.805	414.638	106.959	111.442	113.265	117.808	262.499	115.161	-8191	255	
2103.944	1	1	0	0	0.16165	0.095704	0.11021	0.033965	0.071991	0.21125	0.089177	0.17277	0.23534	0.26369	0.069963	0.33278	0.19845	0.062733	0.21623	0.31233	-2.3271	-2.1521	-2.0563	-2.9562	-2.075	-2.5021	-2.8875	-2.1813	-2.6771	-2.4688	-2.0917	-2.9437	-1.9646	-2.3104	-2.8292	-2.1708	98.882	136.844	138.929	129.844	358.185	349.712	96.127	273.229	272.014	268.315	426.111	393.635	211.621	291.384	203.887	400.995	0.0033313	0.00049847	7.0229e-05	715.31	2.1214e-05	2.5108e-05	1133.8	249.85	4.247e-05	2.0926e-05	484.32	192.2	93.176	46.54	8.7395e-06	95.752	0.0024096	0.0024125	0.00061189	864.88	2.6354e-05	2.5214e-05	1249.7	301.88	2.5977e-05	2.5375e-05	555.08	207.52	159.23	54.945	2.3189e-05	100.98	397.960	286.567	387.798	101.973	162.656	139.326	102.191	107.873	212.987	140.510	106.525	111.022	112.331	116.662	349.363	114.962	-8191	255	
2104.040	1	1	0	0	0.13499	0.20202	0.17579	0.20724	0.23582	0.13527	0.1006	0.22308	0.097217	0.231	0.011018	0.32549	0.15499	0.20613	0.098722	0.22143	-2.3354	-2.4542	-1.9667	-2.85	-2.2062	-2.3458	-2.8187	-2.1375	-2.7896	-2.7125	-1.9792	-3.15	-2.1771	-2.2646	-2.8833	-2.1521	406.378	360.207	353.368	352.685	346.943	216.753	385.860	436.936	331.333	357.076	443.340	134.122	318.604	125.583	147.742	293.681	0.003191	0.0012154	0.00034077	719.6	8.7565e-07	2.1532e-06	1136.7	250.85	3.8395e-05	1.3737e-05	484.7	191.59	94.566	46.404	1.7969e-05	96.132	0.0023357	0.0022255	0.0005523	863.54	2.5125e-05	2.3114e-05	1226.5	301.6	2.4229e-05	2.3187e-05	539.69	206.48	152.78	53.43	2.1077e-05	101.2	397.013	326.672	220.530	102.468	126.509	445.149	101.821	108.332	128.850	308.450	106.970	111.509	112.633	117.271	355.898	115.028	-8191	255	
2104.136	1	1	0	0	0.10198	0.10613	0.087098	0.1495	0.16937	0.25576	0.29603	0.31175	0.065753	0.19294	0.1954	0.13903	0.10879	0.1036	0.089737	0.17019	-2.1854	-2.4938	-1.8	-2.7208	-2.4458	-2.1063	-2.9333	-2.1042	-2.3521	-2.5979	-2.1354	-2.8312	-2.3396	-2.0521	-2.9042	-2.1625	408.185	423.366	208.068	132.154	142.272	285.019	407.536	393.278	158.956	166.971	360.504	355.538	382.152	92.695	173.283	377.808	0.0025227	0.00013992	0.00032671	723.71	1.2621e-05	7.1514e-06	1126.2	250.46	5.397e-06	1.3991e-05	483.01	190.96	93.81	45.844	7.075e-06	94.967	0.0021804	0.0021042	0.00052515	873.2	2.4055e-05	2.2204e-05	1218	304.99	2.3336e-05	2.2092e-05	534.98	206.64	148.92	52.416	2.0707e-05	100.71	414.001	150.426	335.625	101.742	345.146	373.077	101.714	107.790	214.108	265.189	106.335	110.620	112.968	116.486	116.794	114.741	-8191	255	
2104.255	1	1	0	0	0.10816	0.15027	0.058531	0.26571	0.024461	0.15494	0.085583	0.24814	0.088838	0.086032	0.29979	0.15421	0.20479	0.066128	0.16738	0.083938	-1.9667	-2.7542	-2.0187	-2.8292	-2.5833	-1.9896	-3.0333	-2.2021	-2.275	-2.9479	-2.1063	-2.7604	-2.7021	-2.1979	-2.9604	-2.2417	239.471	151.973	359.298	325.885	171.484	276.723	126.066	417.357	105.359	207.912	93.425	371.742	148.509	236.338	363.968	384.017	0.0030945	0.0016794	0.00035751	713.97	2.575e-05	4.5019e-06	1131	250.39	9.846e-06	1.8451e-05	479.29	189.13	94.076	46.155	1.8189e-05	95.132	0.0020757	0.0019626	0.00053157	872.34	2.3401e-05	2.1272e-05	1226.7	308.76	2.359e-05	2.2137e-05	547.24	208.49	150.89	52.324	2.2985e-05	101.67	416.657	396.531	124.702	102.045	362.716	169.642	101.541	107.641	306.003	441.238	106.660	111.213	112.686	117.212	192.096	114.958	-8191	255	
2104.327	1	1	0	0	0.11657	0.06964	0.18489	0.086945	0.23949	0.16303	0.21812	0.16686	0.10851	0.17947	0.077989	0.19654	0.11908	0.26879	0.13376	0.21107	-1.9937	-2.9292	-1.8937	-2.6771	-2.4583	-1.9292	-3.1375	-2.3167	-2.2958	-2.8375	-2.0792	-2.8083	-2.5771	-2.0563	-2.8958	-2.5104	284.061	195.118	172.657	424.564	398.879	310.097	380.853	360.947	91.094	325.360	377.863	398.585	254.477	400.272	167.703	407.792	0.0029296	0.0013876	0.0010404	706.86	1.9668e-05	6.6573e-06	1125.8	245.17	2.0975e-05	1.9044e-05	477.65	186.33	90.623	44.876	2.6532e-05	93.125	0.0021319	0.0019825	0.0005905	873.73	2.3909e-05	2.134e-05	1245.9	307.9	2.3783e-05	2.2287e-05	559.94	207.8	152.97	52.403	2.6255e-05	101.53	414.463	174.625	187.123	101.376	407.385	101.078	102.449	107.895	367.283	226.772	106.373	111.720	113.490	117.177	249.707	114.803	-8191	255	
2104.423	1	1	0	0	0.2472	0.23637	0.38454	0.25462	0.18908	0.091956	0.15115	0.038912	0.15598	0.20318	0.21804	0.015158	0.043628	0.060167	0.047071	0.28461	-1.4292	-2.8458	-1.9979	-2.5458	-2.4479	-1.8458	-2.7958	-2.3979	-2.0438	-2.9375	-2.1208	-2.4	-2.95	-2.1479	-2.7083	-2.7812	290.543	431.434	131.222	440.004	329.624	97.767	360.311	418.089	144.772	111.599	378.926	173.730	371.485	360.259	269.552	102.994	0.0029126	0.0025351	0.0011544	705.62	9.2221e-06	1.6301e-05	1119.9	245.61	3.603e-05	1.1298e-05	480.43	187.22	92.676	46.109	1.475e-05	94.565	0.0022382	0.0021394	0.00067432	882.88	2.4297e-05	2.2709e-05	1258.9	307.11	2.2988e-05	2.274e-05	565.7	206.93	148.5	53.467	2.6144e-05	101.57	413.383	122.302	149.336	102.041	323.415	169.330	102.140	107.836	342.578	218.111	106.909	111.173	113.672	116.593	124.366	115.075	-8191	255	
2104.519	1	1	0	0	0.3234	0.2156	0.18112	0.15252	0.22668	0.23556	0.054944	0.063471	0.22866	0.18111	0.23331	0.30356	0.054424	0.28584	0.15079	0.1694	-1.6271	-2.7875	-2.2583	-2.4146	-2.6604	-1.9583	-2.6917	-2.4958	-1.9813	-2.6979	-2.4125	-2.3104	-2.6417	-2.1792	-2.5708	-2.5312	240.181	100.572	307.290	234.244	184.510	303.086	101.824	104.842	242.846	108.348	385.810	375.623	328.070	440.315	260.188	92.456	0.0035501	0.0011103	0.00011014	704.3	4.6381e-06	2.0999e-05	1101	242.83	1.5028e-05	1.7668e-05	475.2	185.58	92.258	46.622	2.1919e-05	94.814	0.0021086	0.0022325	0.00068792	876.3	2.4208e-05	2.5125e-05	1269.7	308.27	2.3538e-05	2.5739e-05	573.08	206.14	148.89	55.238	2.6418e-05	101.89	424.529	321.658	193.130	102.462	259.101	183.795	102.546	108.106	392.151	269.482	107.022	111.473	113.043	117.112	349.182	114.811	-8191	255	
2104.615	1	1	0	0	0.18855	0.1961	0.20488	0.18665	0.1003	0.22555	0.2974	0.17697	0.050251	0.24339	0.22238	0.18118	0.22113	0.23486	0.088158	0.12064	-1.4896	-2.725	-2.4292	-2.1604	-2.7792	-1.9979	-2.6333	-2.7042	-1.8021	-2.8229	-2.2812	-2.1396	-2.9062	-2.2167	-2.6375	-2.9583	157.549	135.524	218.469	366.302	157.620	144.378	388.699	112.808	379.255	333.016	217.597	426.684	374.802	395.926	180.474	445.364	0.003138	0.0012999	0.00048781	699.98	1.6692e-06	1.4877e-05	1112.1	242.18	3.3526e-05	1.4762e-06	473.85	186.16	93.399	46.855	5.259e-06	96.087	0.0020381	0.0023179	0.00065931	861.01	2.2639e-05	2.5442e-05	1255.7	303.62	2.2837e-05	2.6258e-05	565.84	204.24	148.06	56.06	2.4781e-05	101.48	411.359	154.958	331.894	102.350	322.690	105.493	102.533	107.756	200.549	323.959	106.895	110.796	112.744	116.167	350.615	114.091	-8191	255	
2104.734	1	1	0	0	0.27619	0.2381	0.11515	0.21797	0.29651	0.17212	0.35176	0.14714	0.14068	0.35232	0.15993	0.12964	0.18836	0.16817	0.10472	0.31234	-1.8271	-2.6729	-2.4875	-2.025	-2.8875	-2.0812	-2.5292	-2.9542	-2.0396	-2.7042	-2.5417	-2.1333	-2.8917	-2.1208	-2.425	-3.1375	233.797	423.138	191.543	445.880	414.794	270.954	273.830	309.963	309.996	233.472	417.614	97.753	192.032	405.214	369.420	405.166	0.0045106	0.0020274	0.00059607	708.4	4.0816e-05	1.5267e-05	1117.3	243.82	4.8152e-05	1.308e-05	477.05	189.06	95.619	46.825	1.0364e-05	96.568	0.0020171	0.0023068	0.00061944	845.7	2.2307e-05	2.5407e-05	1242.4	296.31	2.2768e-05	2.5139e-05	554.05	201.07	146.05	55.212	2.2392e-05	99.751	398.092	197.543	183.091	102.027	189.789	180.793	102.108	107.644	190.558	372.429	106.581	111.811	112.352	116.407	158.089	115.389	-8191	255	
2104.830	1	1	0	0	0.18261	0.068441	0.24899	0.24058	0.16078	0.23251	0.31001	0.064061	0.11459	0.11376	0.12598	0.21134	0.20036	0.065914	0.1799	0.072071	-1.4562	-2.3896	-2.5729	-1.9729	-2.9104	-2.3333	-2.3312	-2.8104	-1.9833	-2.7208	-2.6479	-2.1104	-2.9125	-2.2687	-2.1188	-2.9604	269.619	235.307	170.607	428.033	267.690	231.666	326.776	384.835	133.047	233.107	272.511	156.285	176.685	113.837	335.351	339.730	0.0043988	0.0010741	0.00034866	700.67	2.555e-06	9.8929e-06	1121.1	245.57	2.816e-05	3.3946e-05	481.11	187.59	93.912	46.501	3.8816e-06	95.293	0.0020131	0.0021579	0.00056614	823.31	2.2197e-05	2.3283e-05	1217.8	288.32	2.2312e-05	2.262e-05	537.03	195.73	144.83	53.617	2.0582e-05	97.531	397.880	298.584	340.741	101.321	252.709	349.712	102.741	108.013	170.877	380.297	107.226	111.344	113.369	117.009	269.880	115.217	-8191	255	
2104.926	1	1	0	0	0.28017	0.20723	0.048906	0.20057	0.24794	0.30959	0.080155	0.22868	0.18138	0.10948	0.23642	0.26824	0.09624	0.33813	0.1242	0.061376	-1.7292	-2.4854	-2.6917	-1.8438	-2.5958	-2.2542	-2.1896	-3.1833	-1.95	-2.4792	-2.6833	-1.9875	-2.6813	-2.3708	-1.9729	-3.0958	125.583	310.203	191.022	95.060	212.651	207.776	315.699	147.482	240.258	328.585	406.015	422.159	449.998	100.068	213.085	207.536	0.0035868	0.0013555	0.00029849	707.34	1.6725e-05	6.6707e-06	1120.6	247.11	6.6332e-06	1.678e-05	473.77	185.53	93.221	45.688	1.3609e-05	94.291	0.00207	0.0020339	0.00053373	822.06	2.2417e-05	2.1607e-05	1193	283.62	2.1203e-05	1.9637e-05	515.16	190.68	136.83	50.66	1.6696e-05	94.166	409.687	339.927	282.009	102.400	188.217	105.225	102.205	108.184	253.706	216.878	106.524	111.691	112.877	116.730	324.271	114.915	-8191	255	
2105.022	1	1	0	0	0.2853	0.21539	0.14163	0.27127	0.10491	0.070557	0.049162	0.074081	0.060974	0.20322	0.31022	0.273	0.22533	0.14951	0.091026	0.10264	-1.7979	-2.3271	-2.925	-1.8438	-2.5771	-2.6146	-2.2687	-2.7479	-2.4542	-2.2229	-3.0479	-1.9688	-2.5771	-2.5542	-2.0312	-3.0125	357.846	183.409	186.169	91.958	248.540	242.845	243.203	435.283	296.487	404.056	395.677	116.803	346.108	392.725	169.173	384.244	0.0027473	0.00047596	0.00049956	728.3	3.5289e-06	8.0067e-06	1138.7	250.55	2.7532e-05	7.6178e-06	481.79	183.83	90.542	44.965	3.8767e-06	93.443	0.0017502	0.0016004	0.00041438	808.81	1.8563e-05	1.7315e-05	1162.8	279.57	1.8067e-05	1.6231e-05	500.12	186.76	127.31	48.445	1.4218e-05	92.826	396.461	195.201	218.458	101.939	230.966	204.803	101.717	107.747	395.283	356.614	106.603	111.492	113.254	117.175	407.410	115.318	-8191	255	
2105.118	1	1	0	0	0.096798	0.34435	0.11817	0.2868	0.10476	0.09047	0.26387	0.17206	0.29708	0.16796	0.28823	0.32459	0.11012	0.067493	0.071002	0.18084	-1.8958	-2.1229	-2.7812	-1.9062	-2.6271	-2.6708	-2.0375	-2.95	-2.3312	-2.1625	-2.775	-2.2479	-2.4521	-2.7687	-1.8708	-2.9646	427.101	171.273	267.461	146.084	359.604	377.265	386.054	360.005	320.142	256.915	331.114	423.061	228.783	209.197	96.005	354.936	0.0029859	0.00076565	0.00039422	743.1	9.6734e-06	1.2207e-05	1157	256.02	1.3484e-05	5.5991e-06	482.37	182.23	92.201	45.518	7.4213e-06	93.24	0.0015421	0.0013749	0.0003602	813.56	1.5893e-05	1.4802e-05	1154.8	279.38	1.5541e-05	1.3842e-05	490.95	184.15	120.08	47.381	1.3307e-05	92.261	420.367	292.405	407.701	102.154	316.842	384.212	102.202	107.917	382.429	125.785	106.442	111.723	112.396	117.408	231.510	115.114	-8191	255	
2105.215	1	1	0	0	0.13017	0.13216	0.082608	0.11027	0.18219	0.13936	0.25756	0.041577	0.051925	0.28656	0.062089	0.21049	0.17072	0.11649	0.32794	0.026753	-2.1771	-1.9917	-2.7542	-2.0812	-2.1896	-2.8104	-2.0292	-2.7917	-2.2667	-2.0312	-3.0333	-2.1688	-2.1229	-2.9208	-1.7917	-2.7646	184.322	270.923	427.509	131.054	223.058	257.443	413.839	205.279	199.834	195.445	434.404	347.564	303.527	449.135	132.863	365.698	0.0026508	0.0017755	0.00084755	741.82	5.8249e-06	8.3407e-06	1153.5	253.64	1.1113e-05	9.9335e-06	479.84	182.88	91.449	45.6	1.2404e-05	93.728	0.0013898	0.0012425	0.00035102	815.99	1.4831e-05	1.3913e-05	1158.5	279.69	1.5115e-05	1.3415e-05	493.12	184.86	117.62	47.121	1.3656e-05	91.826	396.759	259.800	115.260	102.199	444.758	321.285	101.636	107.717	207.128	219.127	107.026	111.391	112.573	117.133	225.029	114.733	-8191	255	
2105.335	1	1	0	0	0.03963	0.2246	0.112	0.18363	0.20934	0.12146	0.14595	0.11308	0.11967	0.093198	0.14685	0.18673	0.10697	0.24174	0.28069	0.12672	-2.1021	-1.8729	-2.7792	-2.3229	-2.2062	-2.9396	-1.9875	-2.4417	-2.6396	-1.8354	-2.825	-2.4271	-1.9937	-2.7896	-1.8417	-2.6375	128.954	413.772	211.197	370.585	356.564	392.098	443.950	372.754	281.032	177.637	344.867	439.661	284.775	343.265	402.314	399.480	0.0028656	0.00057128	0.00033151	744.59	1.1587e-05	2.2748e-06	1155.1	253.32	1.5009e-05	9.3356e-06	483.37	184.56	92.636	46.677	6.104e-06	95.539	0.0012505	0.0010941	0.00033637	796.95	1.2676e-05	1.1781e-05	1153	271.47	1.3038e-05	1.1709e-05	493.38	183.31	113.06	47.165	1.339e-05	91.945	409.501	282.444	125.344	101.947	222.228	283.641	101.561	107.290	166.535	166.545	106.650	111.797	113.307	117.210	183.414	115.357	-8191	255	
2105.431	1	1	0	0	0.39747	0.17289	0.089135	0.26171	0.12923	0.072549	0.039314	0.16132	0.1406	0.41602	0.29559	0.14492	0.15385	0.20578	0.071619	0.15642	-2.4437	-1.85	-2.6583	-2.4688	-2	-3.125	-2.0604	-2.5521	-3.0021	-1.9188	-2.85	-2.4688	-2.0896	-2.9229	-1.9188	-2.6375	186.422	294.927	430.908	343.863	239.219	318.655	372.028	324.589	189.233	246.704	433.418	183.364	279.934	434.026	218.436	412.001	0.0025158	0.0014961	0.00074213	745.74	7.112e-06	1.3174e-05	1168.6	257.85	1.2513e-05	1.7044e-05	488.5	186.6	93.425	46.985	8.9116e-06	95.155	0.0011163	0.00099879	0.00032045	777.43	1.0707e-05	1.0269e-05	1145.4	264.01	1.0218e-05	9.727e-06	482.47	179.17	103.91	46.43	1.1504e-05	90.3	416.813	94.226	98.015	102.276	196.615	206.086	102.003	108.153	406.251	270.792	106.443	111.284	112.916	117.348	239.131	115.555	-8191	255	
2105.528	1	1	0	0	0.16165	0.17146	0.17221	0.12615	0.010083	0.18003	0.18231	0.089579	0.10625	0.23395	0.24137	0.16964	0.23776	0.08145	0.11161	0.13967	-2.45	-1.7833	-2.7958	-2.7292	-1.9229	-2.7938	-2.2667	-2.3896	-2.7125	-2.0604	-2.6562	-2.7271	-2.0521	-2.9917	-2.0792	-2.3875	334.360	449.177	256.960	337.668	436.118	441.335	97.168	174.971	445.536	145.537	433.166	410.462	153.396	248.152	300.140	416.016	0.0033945	0.0020106	0.00053059	749.04	9.8116e-06	1.2649e-05	1163.6	255.18	2.6967e-06	1.7971e-05	489.59	185.98	94.089	46.831	6.5163e-06	95.003	0.00092326	0.00093624	0.00028935	764.43	9.5382e-06	1.0248e-05	1135.8	258.92	9.3444e-06	1.0059e-05	479.58	177.74	102.03	46.349	1.1032e-05	89.073	413.541	158.320	178.596	102.223	270.196	224.993	102.327	108.101	319.996	191.387	106.864	111.561	112.812	116.837	407.501	115.509	-8191	255	
2105.624	1	1	0	0	0.11815	0.21315	0.29513	0.24957	0.16176	0.0095506	0.25758	0.15034	0.072551	0.12013	0.15662	0.35805	0.23865	0.0053288	0.075299	0.18543	-2.35	-1.9021	-2.5333	-2.6437	-1.9125	-2.9417	-2.5729	-2.1917	-2.8292	-2.0875	-2.4667	-2.7521	-1.8292	-2.5667	-2.2958	-1.9354	103.191	279.366	414.778	273.341	331.063	368.130	427.118	189.716	347.746	410.139	361.404	328.495	376.535	433.515	107.468	134.733	0.0033348	0.00055062	5.6346e-05	738.64	1.3629e-05	7.227e-06	1157	254.59	6.4174e-06	1.4543e-05	491.18	187.73	95.478	45.878	1.5513e-05	94.271	0.00087508	0.00096781	0.00027304	753.55	8.9778e-06	1.0373e-05	1125.9	256.24	8.5937e-06	9.877e-06	472.08	176.39	99.594	45.532	9.5193e-06	86.663	392.805	165.409	162.423	102.193	207.056	174.943	101.662	107.961	208.999	166.018	106.828	111.735	112.839	117.196	257.059	115.204	-8191	255	
2105.718	1	1	0	0	0.14137	0.046693	0.12441	0.15233	0.10267	0.21954	0.19551	0.25357	0.18122	0.17077	0.09749	0.013692	0.1776	0.23933	0.33474	0.10701	-2.4167	-1.975	-2.1146	-2.8479	-1.8458	-2.7104	-2.4771	-1.9292	-2.9125	-1.9562	-2.575	-2.7958	-1.8875	-2.6417	-2.6021	-1.9125	201.966	257.521	309.558	316.946	231.813	307.879	290.333	351.381	226.263	355.891	358.474	431.599	159.254	107.658	407.743	97.787	0.003533	0.00051575	0.00017075	748.78	5.5058e-06	1.5398e-06	1174.6	258.43	2.8823e-05	8.5307e-06	491.59	187.38	94.776	45.754	1.0772e-05	93.6	0.00079355	0.00090317	0.0002346	745.67	8.4202e-06	9.7679e-06	1122.9	254.89	8.8185e-06	1.0064e-05	471.85	175.99	102.02	45.466	9.596e-06	86.491	406.513	214.942	298.193	102.679	235.950	316.242	102.019	108.127	168.075	189.759	106.800	111.148	112.825	117.548	163.515	115.253	-8191	255	
2105.814	1	1	0	0	0.33574	0.10578	0.052508	0.12741	0.12933	0.2595	0.24589	0.073398	0.087319	0.098629	0.030859	0.14479	0.11347	0.13765	0.065854	0.19384	-2.6896	-2.0396	-2.2396	-2.8312	-2.0687	-2.4833	-2.7667	-2.0292	-2.8396	-2.4208	-2.2292	-3.1063	-2.1125	-2.4062	-2.7	-1.9604	408.433	406.113	188.476	126.956	253.994	243.977	158.953	245.358	348.634	93.375	224.986	101.792	340.315	350.240	344.587	119.782	0.0033139	0.00023509	0.00018979	757.6	1.6059e-05	3.5596e-06	1176	259.36	1.5571e-05	5.4219e-06	486.46	185.68	95.493	45.271	7.8173e-06	92.433	0.00089096	0.00095286	0.00024278	755.19	9.8325e-06	1.0468e-05	1132.2	256.02	9.9126e-06	1.0054e-05	468.23	174.12	103.24	44.543	8.6449e-06	84.734	404.210	167.384	329.716	102.548	176.150	426.620	102.213	107.855	142.861	133.270	107.194	111.768	113.769	117.806	203.594	115.727	-8191	255	
2105.935	1	1	0	0	0.091553	0.074933	0.22087	0.070034	0.046661	0.26924	0.32158	0.16946	0.14624	0.24874	0.082705	0.1554	0.19217	0.29937	0.098207	0.17614	-2.4625	-2.3792	-1.9875	-2.9813	-2.0729	-2.4562	-2.85	-2.1188	-2.7625	-2.3354	-2.0896	-3.2292	-2.1063	-2.2167	-2.7833	-2.1167	276.453	250.890	448.880	112.744	95.233	307.808	397.006	450.072	381.435	416.439	243.508	206.117	416.324	430.038	156.265	449.504	0.0029985	0.0010869	0.00026651	755.29	1.2825e-05	2.7551e-06	1168.6	257.56	5.2763e-06	9.8726e-06	486.58	185.44	92.979	45.171	6.7945e-06	91.162	0.00085931	0.00083537	0.00020832	741.05	9.4408e-06	9.0155e-06	1111.8	253.33	9.5902e-06	9.1345e-06	461.47	174.01	103.86	44.194	8.4053e-06	84.487	412.209	203.188	99.296	102.445	240.941	128.760	102.523	108.362	116.300	341.990	107.038	111.757	112.680	117.546	127.413	115.191	-8191	255	
2106.031	1	1	0	0	0.32817	0.25256	0.22654	0.09798	0.1754	0.035678	0.27067	0.34798	0.36099	0.11488	0.27848	0.039972	0.24543	0.23281	0.13075	0.19948	-2.3646	-2.5708	-2.0667	-3.1271	-2.3354	-2.3417	-2.9417	-2.15	-2.4667	-2.4708	-2.0104	-2.9792	-2.4208	-2.2854	-2.8063	-2.0167	274.858	104.865	340.157	138.040	395.262	356.248	428.373	335.351	366.362	137.426	423.631	92.616	96.685	128.840	259.900	384.489	0.0031837	0.00063984	0.00021257	755.49	5.9258e-06	1.8516e-06	1168	257	1.1303e-05	7.5333e-06	483.6	187.46	93.616	44.879	8.4191e-06	90.891	0.00090276	0.00083489	0.0002052	747.68	9.6636e-06	8.7372e-06	1108.1	254.5	9.3479e-06	8.6904e-06	457.28	174.96	102.69	43.554	7.8263e-06	84.427	398.842	280.961	116.473	102.187	400.912	372.840	101.995	107.664	197.181	185.324	107.188	111.455	112.712	117.423	203.837	115.827	-8191	255	
2106.127	1	1	0	0	0.24425	0.10268	0.20603	0.37042	0.1648	0.037189	0.32278	0.10974	0.12481	0.22669	0.076423	0.17195	0.10711	0.16153	0.10369	0.14363	-2.0667	-2.675	-1.8667	-2.9125	-2.1104	-2.0687	-2.8396	-1.9375	-2.6542	-2.5792	-2.0479	-2.8104	-2.3396	-2.0125	-2.6708	-2.0833	103.194	337.608	399.575	351.459	404.195	121.868	377.025	176.922	115.089	259.927	419.346	388.749	154.321	361.153	432.411	265.459	0.0027608	0.00045907	0.00026241	756.06	3.1246e-06	5.4651e-06	1172.8	257.16	2.1989e-05	1.1181e-05	486.42	186.38	93.144	44.713	5.695e-06	91.32	0.00083484	0.00077392	0.00019145	750.67	9.0461e-06	8.0574e-06	1101.8	255.09	8.6977e-06	8.1074e-06	455.68	175.7	100.52	43.07	7.6569e-06	84.852	400.633	189.899	151.143	102.751	210.923	334.566	102.196	107.759	180.093	324.519	107.055	111.411	112.914	117.358	232.663	114.836	-8191	255	
2106.199	1	1	0	0	0.28972	0.34949	0.2245	0.17666	0.24798	0.072721	0.13816	0.14089	0.098438	0.079729	0.30027	0.24388	0.34924	0.28758	0.28024	0.26497	-1.9292	-2.7604	-1.9875	-2.8125	-2.3583	-1.9125	-2.8792	-2.0604	-2.3333	-2.8187	-1.8104	-2.6979	-2.3521	-2.0042	-2.6396	-2.25	406.936	170.031	434.694	427.550	335.695	419.530	444.596	175.239	245.302	426.228	339.553	98.927	367.664	427.117	178.675	404.226	0.0024723	0.00085952	0.00043804	747.6	5.6812e-06	2.5555e-06	1160.2	255.39	2.1976e-05	4.0157e-06	484.62	188.69	93.896	45.828	1.0931e-05	93.069	0.00078765	0.0007242	0.00019278	749.17	8.5516e-06	7.6122e-06	1099.3	255.43	8.2654e-06	7.6183e-06	456.71	177.13	98.72	43.569	7.688e-06	85.602	404.563	309.241	170.014	102.650	144.006	202.712	102.428	107.802	299.677	397.149	107.242	111.877	112.873	117.201	205.578	115.243	-8191	255	
2106.295	1	1	0	0	0.11415	0.21617	0.027986	0.24002	0.12266	0.15783	0.17355	0.14507	0.19151	0.27848	0.28129	0.052163	0.2523	0.25456	0.0039745	0.19189	-1.7792	-2.7979	-1.8687	-2.5875	-2.3917	-1.8542	-2.9083	-2.1979	-2.2854	-2.6479	-2.1896	-2.4896	-2.5917	-2.1292	-2.8563	-2.3667	171.840	93.167	384.347	352.520	243.353	386.579	185.603	426.096	240.124	431.822	385.919	420.552	360.350	421.177	211.924	444.226	0.0032088	0.00080842	0.00051725	736.25	2.8055e-06	9.3799e-06	1161.5	254.57	1.9455e-05	1.3153e-05	487.66	194.13	95.717	47.913	7.266e-06	96.612	0.0007231	0.00066738	0.00019708	732.93	7.9338e-06	7.109e-06	1097.5	252.97	7.793e-06	7.3745e-06	462.57	180.58	99.232	45.354	8.4118e-06	89.266	407.277	207.695	99.358	101.746	184.033	296.582	102.525	108.044	111.206	203.928	106.787	111.641	112.358	117.418	256.272	114.713	-8191	255	
2106.416	1	1	0	0	0.18034	0.24005	0.2559	0.0062574	0.13637	0.078601	0.078555	0.03785	0.11771	0.24249	0.12368	0.23123	0.16243	0.021825	0.14214	0.27858	-1.6625	-2.8375	-1.9521	-2.575	-2.6333	-1.9958	-2.8896	-2.5083	-1.9771	-2.8667	-2.1437	-2.3417	-2.6937	-2.0667	-2.9	-2.4958	118.974	412.228	390.244	377.114	172.467	128.766	439.939	404.784	227.150	308.346	343.469	375.166	127.496	228.172	291.951	397.751	0.0029237	0.00095938	0.00027848	716.32	1.0371e-05	5.9256e-06	1145.2	251	5.3119e-06	1.1504e-05	484.19	193.18	94.693	49.532	1.1245e-05	100.49	0.00071267	0.00067629	0.00021675	714.62	7.9757e-06	7.3693e-06	1092.3	248.91	7.748e-06	7.7085e-06	465.07	180.42	97.76	47.085	8.8755e-06	92.351	404.455	274.456	423.271	102.499	428.652	232.149	102.324	108.165	432.224	250.008	107.280	111.809	112.785	117.524	237.186	114.878	-8191	255	
2106.512	1	1	0	0	0.13426	0.074105	0.13259	0.07546	0.040409	0.14074	0.091306	0.20591	0.064157	0.19874	0.47429	0.18544	0.01622	0.091904	0.20428	0.075851	-1.5271	-2.9271	-2.0125	-2.3292	-2.8146	-1.9271	-2.8	-2.8396	-2.0417	-2.9292	-2.2167	-2.5125	-2.8042	-1.9792	-2.7458	-2.6604	193.749	219.832	209.857	265.222	284.899	438.168	429.967	438.361	404.563	328.807	421.379	108.390	157.642	369.562	320.734	335.146	0.002419	0.0017837	0.00027033	692.81	1.2987e-05	6.054e-06	1116.7	242.43	2.4991e-06	9.519e-06	476.24	191.52	93.291	50.372	2.938e-06	102.44	0.00068518	0.00071187	0.00022481	692.13	7.592e-06	7.8869e-06	1071.3	239.49	7.1722e-06	8.063e-06	455.8	177.92	95.124	48.034	8.4732e-06	93.435	411.241	134.291	141.107	101.946	149.338	160.639	101.945	108.459	378.480	427.018	106.819	111.345	112.682	117.091	148.555	114.749	-8191	255	
2106.608	1	1	0	0	0.15639	0.12073	0.15038	0.17019	0.10864	0.21471	0.2487	0.086124	0.027228	0.070417	0.12066	0.043272	0.056333	0.26466	0.066148	0.15972	-1.3396	-2.6917	-2.2229	-2.3458	-2.6625	-2.1771	-2.4354	-2.5354	-1.85	-2.7875	-2.4313	-2.1063	-2.6813	-1.9937	-2.4938	-2.7313	152.875	148.261	302.739	99.126	112.646	176.418	313.086	373.185	175.797	425.367	95.084	425.972	413.003	425.926	251.128	425.345	0.0029849	0.0013919	0.00020963	681.55	1.6291e-05	8.9977e-06	1101.1	233.52	1.4032e-05	1.0081e-05	461.99	188.23	92.508	50	5.6995e-06	102.05	0.00065566	0.00075644	0.00021646	678.91	7.1636e-06	8.1035e-06	1048.5	229.66	6.78e-06	8.1026e-06	440.04	173.37	93.477	47.857	7.826e-06	92.78	408.701	149.572	192.262	102.547	149.535	222.153	101.463	107.857	160.572	140.508	107.431	112.206	113.790	117.559	321.978	114.698	-8191	255	
2106.727	1	1	0	0	0.23204	0.10868	0.20226	0.15663	0.030208	0.18505	0.10586	0.48731	0.15151	0.06706	0.1678	0.21126	0.069654	0.38188	0.27649	0.057324	-1.3062	-2.7188	-2.5167	-2.1937	-2.7542	-2.075	-2.5104	-2.8271	-1.8417	-2.6937	-2.4104	-1.8417	-2.8583	-2.1854	-2.3187	-3.0083	268.627	306.597	101.761	437.141	397.511	389.153	142.019	362.117	256.933	191.543	112.842	432.568	227.981	421.168	328.218	98.521	0.0034365	0.00091059	0.00015776	680.5	7.0921e-06	8.6875e-06	1085.9	230.93	1.5943e-05	8.8196e-06	464.84	189.18	93.099	50.079	3.7664e-06	101.92	0.00066519	0.00078612	0.00020741	673.86	7.6689e-06	8.9221e-06	1042.1	229.09	7.8508e-06	9.0415e-06	443.87	174.64	97.501	48.453	8.1996e-06	93.038	399.692	259.968	152.320	102.443	280.439	196.553	101.957	107.799	175.428	240.091	106.757	111.291	112.964	117.789	102.035	114.827	-8191	255	
2106.800	1	1	0	0	0.044931	0.11384	0.20776	0.29145	0.070299	0.25016	0.085296	0.24556	0.077956	0.1836	0.16855	0.17325	0.30363	0.013364	0.10582	0.23925	-1.3833	-2.5583	-2.5563	-2.0458	-2.9313	-2.1312	-2.3021	-2.875	-2	-2.5187	-2.6729	-1.9167	-2.8646	-2.2708	-2.1333	-3.0667	221.268	237.521	389.031	437.658	198.621	247.056	112.608	151.468	438.625	184.987	369.326	345.052	297.080	309.841	225.919	444.991	0.003758	0.00043206	0.00016441	679.18	1.768e-05	7.2594e-06	1095.2	239.9	1.9589e-05	7.3854e-06	471.92	191.06	92.367	49.382	1.1275e-05	100.62	0.00077638	0.00084255	0.0002175	676.81	8.9759e-06	9.5053e-06	1049.9	237.49	9.0777e-06	9.3712e-06	452.16	176.57	101.28	48.096	8.2262e-06	91.884	411.521	437.497	300.934	102.238	179.249	196.694	102.137	108.526	199.510	216.572	107.522	111.814	113.535	117.363	165.343	115.014	-8191	255	
2106.896	1	1	0	0	0.20543	0.21468	0.31985	0.16406	0.37713	0.12342	0.22713	0.21946	0.22656	0.19535	0.13794	0.037525	0.11056	0.33326	0.23854	0.16773	-1.5771	-2.3438	-2.7521	-2.0771	-2.7208	-2.475	-2.2208	-2.8958	-1.9833	-2.4458	-2.7687	-2.0792	-2.7854	-2.3875	-1.9125	-2.9437	230.226	150.442	134.882	146.024	146.298	352.072	377.484	394.929	130.980	165.053	423.871	447.920	195.815	98.568	91.822	396.212	0.0033106	0.00017734	0.00028203	692.26	1.5043e-05	3.6247e-06	1106.3	244.17	1.4872e-05	6.7236e-06	474.89	191.27	94.108	49.019	8.2225e-06	100.17	0.00086359	0.00082295	0.00021072	685.07	9.3797e-06	8.9314e-06	1052.1	239.65	9.1992e-06	8.5013e-06	450.38	177.34	101.97	47.312	7.635e-06	91.57	405.459	158.502	203.391	102.054	237.581	164.312	102.506	108.617	190.713	336.537	107.131	112.026	113.469	116.677	211.777	115.313	-8191	255	
2107.015	1	1	0	0	0.21229	0.058744	0.1537	0.22759	0.17139	0.27105	0.17987	0.17453	0.10621	0.058696	0.18151	0.24155	0.065853	0.068728	0.077607	0.14792	-1.5542	-2.1229	-2.7	-2.0062	-2.5979	-2.5979	-2.15	-2.875	-1.9604	-2.1292	-3.0042	-2.1625	-2.4542	-2.55	-1.9271	-3.0458	101.550	131.985	364.242	412.935	366.277	200.016	416.414	367.815	94.017	99.795	160.643	404.585	258.767	422.418	326.486	320.651	0.0030633	0.0002537	0.00028636	696.58	4.8156e-06	4.8536e-06	1110.1	243.85	1.458e-05	2.3575e-06	477.63	189.84	93.52	48.513	4.4127e-06	97.912	0.00086529	0.00076129	0.00019893	690.35	9.237e-06	8.3831e-06	1049.8	242.41	9.1929e-06	8.0219e-06	450.65	178.5	101.54	46.619	7.2981e-06	90.468	398.018	195.425	120.475	102.521	226.759	297.426	102.242	108.038	212.111	190.688	106.852	111.599	112.330	117.691	218.467	115.157	-8191	255	
2107.111	1	1	0	0	0.091588	0.18225	0.12559	0.19138	0.24337	0.26791	0.26148	0.11741	0.11944	0.37642	0.060084	0.30848	0.16072	0.16728	0.10935	0.43466	-1.725	-2.05	-2.8187	-1.875	-2.4667	-2.6604	-1.9271	-2.7604	-2.2854	-1.9729	-2.7958	-2.1937	-2.3271	-2.9062	-1.7833	-2.9292	147.597	366.982	390.844	164.595	257.323	417.410	320.358	353.208	193.392	195.478	431.223	108.949	434.165	422.649	362.665	399.047	0.0027277	0.00067155	8.4544e-05	702.97	7.4162e-06	7.8177e-06	1123.5	246.56	1.5911e-05	5.706e-06	478.59	191.28	93.491	47.925	1.5403e-05	96.795	0.00083441	0.00071689	0.00019139	703.76	8.8424e-06	8.0751e-06	1054.9	246.5	8.7447e-06	7.5764e-06	450.31	178.87	99.239	45.818	7.2344e-06	89.317	412.493	285.668	173.376	101.821	278.664	194.566	102.567	107.876	228.457	260.445	107.350	112.071	112.864	117.426	199.517	115.617	-8191	255	
2107.208	1	1	0	0	0.13675	0.12417	0.25105	0.12701	0.10261	0.17138	0.35715	0.26088	0.22594	0.31873	0.14801	0.31611	0.094657	0.16026	0.21412	0.12975	-1.9583	-1.8458	-3.0062	-2.0167	-2.4188	-2.7375	-1.9979	-2.6375	-2.4208	-2.1125	-3.0125	-2.0479	-2.2604	-2.6646	-1.9042	-2.875	116.525	390.145	249.716	449.136	217.043	406.124	408.579	368.371	269.981	158.297	356.551	392.298	439.689	439.784	260.448	300.611	0.0030979	0.00077516	0.0002125	707.4	9.0809e-06	4.3591e-06	1128.9	248.38	1.7654e-05	6.7746e-06	478.77	192.76	93.838	47.651	1.2224e-05	95.67	0.00077336	0.00066283	0.00019074	711.58	7.9377e-06	7.3827e-06	1064.2	248.22	7.9158e-06	6.916e-06	451.05	179.72	97.355	45.15	7.652e-06	88.57	398.799	149.420	274.023	102.415	253.934	325.906	101.618	108.486	267.656	248.091	107.020	112.159	113.768	117.519	210.798	115.444	-8191	255	
2107.328	1	1	0	0	0.20072	0.059725	0.1743	0.17775	0.2072	0.28081	0.29575	0.20384	0.077058	0.3135	0.087033	0.039718	0.25431	0.23525	0.35105	0.24432	-2.0438	-1.9937	-2.7313	-2.4062	-2.3479	-3.0292	-1.8896	-2.6125	-2.6042	-1.9458	-2.8479	-2.3958	-1.8083	-3.0875	-1.9104	-2.5625	163.581	423.457	208.678	161.139	311.492	138.862	401.147	275.895	405.821	440.007	388.448	156.534	447.253	389.744	385.261	117.426	0.0034679	0.00034805	0.00065021	715.41	2.8143e-06	9.1546e-06	1114.9	249.55	1.2935e-06	2.6805e-06	479.5	189.41	94.368	47.088	1.1042e-05	94.828	0.0007333	0.00063137	0.00020516	712.79	7.6013e-06	7.2201e-06	1061.7	247.44	7.8507e-06	6.8796e-06	454.68	177.08	96.592	44.857	8.5248e-06	87.374	403.956	191.029	142.328	102.239	136.552	266.579	101.942	108.270	167.592	251.637	106.885	111.723	113.340	117.471	232.552	114.821	-8191	255	
2107.424	1	1	0	0	0.06862	0.27028	0.22323	0.092451	0.18037	0.18143	0.3901	0.27214	0.078241	0.24282	0.078737	0.22627	0.2914	0.094438	0.20288	0.27532	-2.3708	-1.9542	-2.7438	-2.5062	-2.1833	-2.9646	-2.2354	-2.3812	-2.6396	-1.7979	-2.7812	-2.5958	-1.975	-2.7792	-2.0125	-2.2771	340.606	329.321	287.830	407.334	237.260	438.709	415.560	365.998	350.570	233.304	319.062	111.071	122.477	111.033	420.918	405.716	0.0031298	0.00099738	0.0001055	702.58	1.1611e-06	1.2355e-05	1113.7	247.06	1.3451e-05	1.294e-05	475.02	189.63	93.871	47.251	7.526e-06	94.215	0.00071879	0.00064865	0.00022098	706.19	7.3018e-06	7.3858e-06	1067.7	245.48	7.6037e-06	7.2506e-06	456.14	176.8	95.839	45.13	9.2321e-06	86.82	404.461	171.931	194.679	102.244	138.347	172.016	102.363	108.526	119.306	184.171	107.488	111.635	113.014	117.315	162.983	115.209	-8191	255	
2107.496	1	1	0	0	0.26797	0.14673	0.11826	0.14314	0.033436	0.081366	0.27507	0.0125	0.038064	0.16626	0.19012	0.18706	0.29393	0.13194	0.02237	0.21099	-2.3833	-1.8542	-2.6333	-2.7875	-2.0438	-2.8583	-2.2521	-2.3833	-2.9042	-1.9312	-2.7313	-2.5021	-1.9875	-2.975	-2.2146	-2.4479	149.807	347.595	262.025	300.246	184.256	152.675	394.701	414.788	386.737	312.367	314.838	256.902	106.256	449.083	423.234	359.944	0.0026447	0.0014191	0.00019035	704.36	1.0844e-05	1.5971e-05	1103.2	246.77	1.1263e-05	2.7012e-05	475.34	189.76	94.173	46.748	9.1707e-07	93.634	0.00072334	0.00071722	0.00023615	704.37	7.395e-06	8.3709e-06	1072.2	244.32	7.7889e-06	8.4621e-06	459.32	176.72	96.954	45.504	9.6812e-06	86.201	408.128	125.828	239.191	102.400	370.217	161.666	102.200	108.620	99.989	189.024	107.578	112.054	113.232	117.905	277.915	115.211	-8191	255	
2107.617	1	1	0	0	0.25714	0.14156	0.36215	0.137	0.1747	0.11572	0.12352	0.20097	0.12715	0.18526	0.087496	0.23959	0.1127	0.04688	0.30486	0.096394	-2.3458	-1.8833	-2.6229	-2.6625	-1.8188	-2.9104	-2.3875	-2.1667	-2.5625	-2.0583	-2.4729	-2.7917	-1.95	-3.0104	-2.3292	-2.0438	279.557	266.081	99.380	95.745	352.823	355.033	157.828	351.104	199.301	262.924	279.603	104.310	103.286	392.942	367.931	371.565	0.0028606	0.0025578	0.00019741	701.33	1.1966e-05	5.5156e-06	1102	245.21	1.1087e-05	7.6049e-06	470.4	186.7	93.571	45.94	8.8829e-06	92.172	0.00075616	0.00085245	0.00024416	706.16	7.8988e-06	9.8233e-06	1073	244.1	8.5224e-06	9.9616e-06	457.86	176.02	98.552	45.863	9.8987e-06	85.315	403.273	147.691	266.438	102.292	193.703	303.398	102.098	108.172	232.390	332.542	107.240	111.387	112.400	117.441	290.998	114.865	-8191	255	
2107.711	1	1	0	0	0.2076	0.1559	0.42721	0.26553	0.099912	0.083121	0.17902	0.35883	0.055769	0.24805	0.16907	0.38616	0.14634	0.22378	0.11365	0.35761	-2.4271	-2.0875	-2.2354	-2.6208	-1.8771	-2.7646	-2.5583	-2.0667	-2.7771	-2.1354	-2.3354	-2.9229	-1.9229	-2.8875	-2.4396	-2.2021	120.094	96.471	95.821	373.710	435.269	180.952	409.346	324.886	279.898	176.850	399.990	424.782	120.618	435.285	220.133	449.029	0.0032938	0.001104	0.00015559	698.38	5.1242e-06	5.6176e-06	1090.9	245	2.3654e-05	1.1168e-05	467.37	186.87	94.773	46.145	4.4379e-06	92.099	0.00083731	0.00097786	0.0002486	703.08	9.0672e-06	1.0955e-05	1068.4	244.8	9.8006e-06	1.1438e-05	458.79	177.45	105.58	46.798	1.108e-05	85.942	402.449	334.641	282.227	101.653	116.301	119.900	102.059	108.228	203.799	203.763	107.245	111.310	112.616	117.204	254.496	114.715	-8191	255	
2107.807	1	1	0	0	0.081628	0.22611	0.09966	0.1158	0.037673	0.1317	0.18055	0.13265	0.031316	0.099334	0.080843	0.32389	0.16787	0.30669	0.096965	0.30287	-2.3937	-2.1521	-2.1625	-2.8563	-1.9042	-2.6042	-2.8979	-1.9333	-2.8583	-2.4104	-2.3479	-2.7792	-1.975	-2.6375	-2.6271	-2.0208	410.407	316.900	156.380	97.607	241.921	92.833	356.686	432.503	247.094	328.475	374.868	400.252	115.478	413.289	423.096	423.281	0.0040531	0.00071553	0.00017148	687.7	2.7668e-05	6.9863e-06	1090.4	242.64	8.8974e-06	8.9356e-06	470.65	185.52	93.928	45.352	1.1757e-05	91.502	0.001063	0.0011801	0.00028602	714.36	1.2324e-05	1.3478e-05	1088.8	250.73	1.3684e-05	1.4372e-05	476.11	182.12	119.98	48.237	1.4181e-05	88.641	403.404	271.888	202.316	102.443	168.373	360.142	101.684	107.921	230.994	356.484	106.748	111.291	111.867	117.721	256.455	115.121	-8191	255	
2107.903	1	1	0	0	0.23238	0.07706	0.17573	0.21617	0.34216	0.24034	0.25802	0.21028	0.15295	0.20349	0.13334	0.26445	0.082411	0.24272	0.10787	0.28733	-2.2812	-2.3333	-2.0521	-2.7396	-1.9813	-2.35	-2.9	-2.1833	-2.6917	-2.4667	-1.9333	-3.0958	-2.1542	-2.5083	-2.8021	-2.175	306.718	225.602	190.499	301.844	305.708	338.885	403.388	436.906	356.778	309.368	382.308	373.872	356.612	427.711	394.295	124.010	0.0036912	0.0010163	3.4468e-05	679.02	1.9832e-05	7.8577e-06	1084.9	237.24	8.0952e-06	1.5313e-05	466.25	185.53	93.506	45.234	1.7723e-05	93.114	0.0015047	0.0014994	0.00036726	745.24	1.7597e-05	1.6941e-05	1125.6	263.83	1.9426e-05	1.8719e-05	498.52	191.38	141.95	51.08	1.8673e-05	94.589	399.903	410.509	443.774	102.329	177.551	331.163	102.107	108.210	185.650	389.585	106.724	111.177	112.449	117.775	213.983	114.351	-8191	255	
2107.999	1	1	0	0	0.14577	0.0699	0.37014	0.08863	0.13774	0.16269	0.31287	0.39619	0.13835	0.10215	0.20913	0.27585	0.10478	0.11939	0.075959	0.074665	-2.2896	-2.3917	-1.95	-2.85	-2.0521	-2.3563	-2.7375	-1.9083	-2.5792	-2.5583	-2.2292	-2.825	-2.4417	-2.3354	-2.6896	-2.125	378.761	369.142	403.315	124.865	288.667	264.416	90.028	370.951	101.145	303.921	445.649	376.912	180.006	444.886	118.535	337.845	0.0035669	0.0013795	0.00019832	672.68	1.171e-05	1.4132e-05	1078.4	236.81	2.1524e-05	2.4417e-05	462.72	182.52	91.955	46.589	4.7576e-06	92.918	0.0020621	0.0019202	0.00047774	802.7	2.3929e-05	2.1363e-05	1169.2	288.9	2.5502e-05	2.3828e-05	526.87	203.7	164.47	55.39	2.5196e-05	103.44	396.970	335.704	362.609	101.795	213.063	366.198	101.591	107.840	331.804	379.510	107.232	111.245	112.650	117.007	285.113	114.587	-8191	255	
2108.096	1	1	0	0	0.26735	0.20325	0.028645	0.33789	0.23405	0.14085	0.17905	0.11147	0.013149	0.2173	0.049559	0.29064	0.17082	0.21754	0.044522	0.16947	-2.3937	-2.7083	-1.875	-2.8375	-2.1188	-2.1937	-2.9021	-2.2313	-2.6042	-2.675	-1.9896	-2.9792	-2.3292	-2.2479	-2.9021	-1.9729	194.198	115.326	432.122	96.757	434.039	360.493	93.867	98.041	212.925	435.791	306.665	438.082	263.214	370.105	308.292	90.672	0.0019207	0.0013009	0.00027026	679.91	1.0567e-05	2.2515e-05	1083.4	241.09	3.4423e-05	1.4397e-05	463.26	178.35	90.148	45.747	1.1726e-05	91.852	0.0028198	0.0026662	0.00067287	925.05	3.3112e-05	2.8897e-05	1260.2	330.45	3.283e-05	3.0626e-05	568.78	217.62	184.34	58.241	3.1893e-05	110.42	438.644	215.176	428.483	102.057	444.614	318.813	101.891	107.739	317.337	398.941	106.723	110.894	111.719	116.879	190.874	114.649	-8191	255	
2108.192	1	1	0	0	0.056458	0.19846	0.031519	0.32001	0.12513	0.09902	0.10318	0.26321	0.13808	0.12824	0.14971	0.085067	0.092547	0.34469	0.15885	0.064167	-2.1437	-2.5667	-1.9583	-2.7	-2.2521	-2.0312	-3.0833	-2.3729	-2.4604	-2.8438	-1.9854	-2.9417	-2.6688	-2.2062	-2.9125	-2.2458	110.735	446.022	194.763	336.716	164.729	134.541	266.852	300.454	226.355	222.742	331.399	206.316	137.390	424.730	311.875	157.475	0.0017584	0.0011856	0.0005821	680.2	1.2215e-05	9.6131e-06	1091.8	238.83	4.0698e-05	3.6935e-05	463.77	173.05	87.79	44.812	2.4781e-05	91.112	0.0032795	0.0031384	0.00083874	1004.7	3.7045e-05	3.2763e-05	1326.3	354.39	3.5321e-05	3.3244e-05	599.59	220.26	183.72	57.367	3.3705e-05	109.08	424.091	288.747	167.338	102.017	290.482	358.690	102.245	107.509	296.728	356.832	107.004	111.490	112.212	117.330	174.885	115.025	-8191	255	
2108.288	1	1	0	0	0.22185	0.013932	0.19304	0.086461	0.29288	0.19229	0.15866	0.37997	0.084382	0.16486	0.16987	0.17162	0.096121	0.20535	0.073305	0.32985	-2.0229	-2.7458	-2.0187	-2.7896	-2.3542	-1.9667	-2.8292	-2.2792	-2.225	-2.8	-2.2146	-2.5979	-2.4188	-1.9292	-3.0354	-2.5729	247.833	423.352	361.425	421.357	395.891	190.309	421.699	108.008	271.050	173.326	428.421	92.455	309.605	374.808	316.270	366.696	0.0020487	0.0010551	0.0016463	684.82	4.1794e-06	2.7297e-06	1108.6	240.95	1.4979e-05	3.941e-06	463.48	169	85.4	45.246	2.237e-05	90.291	0.0029455	0.0028183	0.00083847	976.92	3.3098e-05	2.9507e-05	1341.5	347	3.2314e-05	3.1004e-05	609.53	211.56	175.05	56.84	3.5574e-05	107.23	388.968	100.680	114.128	101.908	128.933	129.914	101.877	107.480	224.487	326.593	106.479	111.245	112.809	117.234	235.387	114.738	-8191	255	
2108.409	1	1	0	0	0.16455	0.079611	0.25365	0.097659	0.12813	0.21395	0.30491	0.1904	0.18592	0.13044	0.17611	0.10766	0.17091	0.090137	0.32773	0.25146	-1.7854	-2.7979	-2.0292	-2.425	-2.5333	-1.9875	-2.7646	-2.5979	-2.1979	-2.8688	-2.4125	-2.475	-2.7354	-1.7896	-2.6042	-2.6167	327.853	383.079	130.212	108.800	385.536	319.264	346.342	378.756	340.132	316.602	325.621	159.470	95.524	399.025	426.527	377.231	0.0017035	0.0006885	0.001085	697.19	1.4667e-05	1.1704e-05	1121.8	242.85	2.45e-05	1.3528e-05	468.26	165.03	85.924	45.215	1.1781e-05	91.12	0.0028674	0.0028175	0.00091396	971.66	3.2745e-05	3.0379e-05	1367.9	338.95	2.9502e-05	2.9461e-05	601.09	197.9	156.76	54.824	3.0562e-05	100.96	412.497	121.568	106.418	101.828	312.898	167.179	101.813	107.927	350.269	144.724	107.068	111.631	112.500	117.441	360.656	114.682	-8191	255	
2108.505	1	1	0	0	0.085668	0.3307	0.20007	0.2291	0.1027	0.18591	0.29688	0.49269	0.088243	0.18019	0.16555	0.097693	0.25535	0.40019	0.015534	0.19868	-1.6229	-2.6729	-2.4	-2.3833	-2.8083	-1.9125	-2.8271	-2.4146	-1.9937	-2.8563	-2.2167	-2.3667	-3.0292	-2.0438	-2.5146	-2.7	285.383	445.785	410.272	179.153	157.980	133.056	392.828	349.860	398.150	205.071	366.864	430.878	98.557	411.424	438.864	402.659	0.0015958	0.001889	0.00027599	724.34	3.9825e-06	3.5216e-05	1135.4	248.32	3.3067e-05	3.1014e-05	468.21	161.07	81.769	44.354	1.376e-05	88.986	0.0022438	0.0023967	0.00075004	907.1	2.5019e-05	2.5958e-05	1311.4	315.23	2.3727e-05	2.6587e-05	576.15	185.48	144.83	54.39	2.9044e-05	97.907	441.767	114.076	143.168	102.581	190.269	166.670	102.378	107.368	236.279	188.758	106.331	111.616	112.210	117.481	406.114	114.492	-8191	255	
2108.601	1	1	0	0	0.13551	0.28187	0.068595	0.28692	0.28091	0.086287	0.29645	0.14037	0.058177	0.043825	0.075595	0.43264	0.19398	0.1384	0.21538	0.32216	-1.6583	-2.9396	-2.2625	-2.3875	-2.8646	-1.9188	-2.625	-2.7979	-2.0187	-2.7083	-2.5021	-2.2604	-2.9229	-1.8729	-2.4854	-2.6792	282.286	215.192	308.904	101.481	135.907	167.980	371.195	425.724	204.681	122.862	322.832	332.114	353.771	393.459	160.817	396.823	0.002575	0.0046821	0.00054956	744.83	1.7116e-05	1.5967e-05	1154.9	250.22	2.8529e-05	2.3124e-05	465.62	155.54	81.209	43.341	1.6191e-05	86.517	0.0022024	0.0026131	0.00076881	926.25	2.6496e-05	3.0616e-05	1352	326.29	2.6901e-05	3.2449e-05	591.84	185.24	152.93	56.024	2.8207e-05	95.073	390.215	108.890	120.637	101.667	223.038	195.045	101.670	107.321	173.935	228.173	106.276	111.682	112.290	116.967	400.065	114.588	-8191	255	
2108.697	1	1	0	0	0.044749	0.29582	0.12235	0.41316	0.22599	0.04166	0.19153	0.11188	0.11148	0.084862	0.1589	0.084784	0.19654	0.28462	0.094106	0.19699	-1.6063	-2.7167	-2.5167	-2.2021	-2.8688	-2.0146	-2.4062	-2.8729	-1.9917	-2.7208	-2.3875	-2.0938	-2.6542	-2.3875	-2.1854	-2.8542	423.607	180.317	431.450	104.945	387.662	151.155	380.359	372.473	210.389	257.044	351.153	224.304	153.997	131.281	393.337	363.327	0.0037473	0.00084354	0.00032823	784.44	2.7032e-05	1.1657e-05	1197.5	261.05	3.6614e-05	1.8546e-05	473.42	156.01	82.619	43.26	1.9202e-05	86.895	0.0021068	0.0024433	0.00061054	895.12	2.0264e-05	2.237e-05	1260.4	289.24	1.6355e-05	1.7736e-05	494.89	157.4	108.52	46.335	1.2945e-05	83.706	401.469	153.919	438.029	101.882	155.540	249.944	101.890	107.479	187.511	177.497	106.133	111.570	112.541	116.792	257.483	114.956	-8191	255	
2108.791	1	1	0	0	0.09785	0.31438	0.46847	0.17671	0.19832	0.28425	0.14193	0.37689	0.094716	0.14975	0.28754	0.052393	0.10591	0.14878	0.13539	0.069241	-1.4229	-2.6521	-2.4188	-2.0875	-2.8187	-2.2354	-2.3979	-2.7479	-1.9688	-2.5271	-2.6167	-2.0479	-2.7917	-2.3812	-1.9667	-3.0646	439.062	404.054	326.989	323.636	328.986	214.037	392.798	379.132	238.475	204.311	355.358	366.448	387.005	153.889	203.248	390.484	0.003244	0.0011456	0.00035868	805.32	1.4869e-05	2.3206e-06	1212.8	263.41	1.6742e-05	7.2207e-06	481.25	158.2	82.799	44.527	3.3307e-06	90.029	0.0011806	0.001283	0.00032214	822.39	1.2822e-05	1.3542e-05	1192.8	268.84	1.1761e-05	1.1745e-05	469.65	151.85	98.618	44.447	9.0805e-06	83.51	393.885	378.533	182.589	101.870	191.585	398.901	102.034	107.410	191.893	301.693	106.512	111.607	112.860	117.629	405.903	114.899	-8191	255	
2108.888	1	1	0	0	0.064321	0.13424	0.064664	0.19857	0.11132	0.36421	0.10441	0.24409	0.36735	0.18131	0.15146	0.047252	0.057581	0.18614	0.063061	0.10006	-1.4792	-2.5583	-2.5938	-2.1396	-2.625	-2.2729	-2.3354	-2.9167	-2.0062	-2.4125	-2.8042	-2.0458	-2.5333	-2.5104	-1.9125	-2.9833	432.773	94.565	306.064	142.916	305.901	244.209	382.122	388.728	234.354	324.152	406.525	184.222	402.564	401.412	114.480	271.130	0.0028115	0.00091932	4.9907e-05	811.52	2.0595e-05	2.2062e-06	1241	269.48	1.1354e-05	8.2211e-06	488.89	163.25	86.063	46.405	1.8641e-06	93.586	0.00092723	0.00089678	0.00022839	799.13	1.0056e-05	9.7899e-06	1179.8	266.39	1.0422e-05	9.8176e-06	470.35	155.38	100.4	45.851	8.8008e-06	86.976	393.718	123.182	288.061	101.615	191.753	144.480	101.804	107.819	237.439	186.141	106.760	111.334	112.670	117.194	205.210	115.148	-8191	255	
2109.008	1	1	0	0	0.092956	0.21139	0.06671	0.16814	0.14511	0.11302	0.19069	0.16929	0.094185	0.066735	0.080503	0.17568	0.12988	0.17319	0.078649	0.12132	-1.5312	-2.3292	-2.7313	-1.925	-2.4792	-2.4708	-2.2	-2.7167	-2.075	-2.4	-2.7479	-2.1125	-2.7313	-2.6583	-1.775	-3.0417	120.511	336.797	285.957	282.313	227.970	150.471	394.372	404.007	191.121	436.947	141.712	423.720	235.817	424.328	388.511	357.651	0.0028174	0.00099431	0.00036353	801.95	1.031e-05	1.0236e-05	1226.5	268.45	1.0004e-05	1.232e-05	497.37	170.46	87.374	48.075	1.2715e-06	96.678	0.000981	0.00087317	0.00022881	795.1	1.0525e-05	9.5833e-06	1164.9	268.44	1.0512e-05	9.3813e-06	471.78	162.35	101.66	47.204	8.63e-06	90.313	409.289	356.420	125.410	102.464	189.115	207.267	102.080	107.356	272.017	234.844	106.117	111.671	113.155	116.974	143.159	115.118	-8191	255	
2109.104	1	1	0	0	0.082402	0.11239	0.07622	0.10679	0.19146	0.15727	0.25383	0.15979	0.18525	0.17069	0.25318	0.12585	0.15864	0.21211	0.2012	0.06499	-1.6875	-2.1792	-2.8625	-2.1688	-2.6188	-2.725	-1.9854	-2.775	-2.1333	-2.0333	-3.0146	-2.2646	-2.5625	-2.65	-1.8792	-2.875	194.249	319.605	156.265	387.097	167.325	98.798	358.480	223.320	274.839	239.340	429.958	390.639	125.029	424.122	412.059	170.093	0.0026513	0.0012445	0.00023713	773.31	6.6419e-06	5.7364e-06	1204.4	263.56	3.4893e-06	4.1614e-06	492.63	176.05	89.866	48.509	4.5563e-06	98.984	0.00097706	0.00086757	0.00023204	784.08	1.0822e-05	1.0167e-05	1148.9	268.61	1.1078e-05	9.7918e-06	475.04	169.93	103.59	47.919	8.9929e-06	92.546	405.615	292.446	139.134	102.206	202.172	148.698	101.777	107.581	207.519	99.723	106.504	111.482	112.485	116.933	169.824	114.857	-8191	255	
2109.200	1	1	0	0	0.045059	0.1472	0.11873	0.13191	0.1715	0.12962	0.069583	0.14487	0.21869	0.18394	0.31817	0.056322	0.093785	0.055897	0.17033	0.21648	-1.9688	-2.1292	-2.8604	-2.0833	-2.5479	-2.7167	-1.9979	-2.7042	-2.4813	-1.95	-2.8438	-2.0792	-2.3875	-2.7125	-1.8958	-2.7958	260.517	223.202	177.252	328.582	113.041	202.247	99.808	416.922	245.702	127.521	407.401	155.785	325.905	331.500	359.347	297.230	0.0026671	0.0013111	0.00073706	748.75	3.2528e-06	2.29e-06	1176.7	258.1	2.9313e-06	1.0984e-05	494.12	193.46	97.127	49.164	7.9485e-06	98.739	0.00093481	0.00082787	0.0002304	764.27	9.8334e-06	9.3194e-06	1129	263.99	1.0008e-05	8.8282e-06	475.63	184.47	105.56	47.227	8.9304e-06	92.223	418.309	420.284	156.815	102.024	339.543	181.006	102.196	108.477	372.652	239.575	106.744	111.001	113.134	116.984	205.294	114.999	-8191	255	
2109.297	1	1	0	0	0.27497	0.1722	0.0366	0.17776	0.11054	0.069411	0.089944	0.12869	0.023883	0.29107	0.2777	0.21169	0.12153	0.16542	0.15209	0.05596	-2.0042	-1.925	-2.9083	-2.0062	-2	-2.7979	-1.9979	-2.7188	-2.5396	-2.0354	-2.7875	-2.2208	-2.0792	-2.9375	-1.8083	-2.7188	428.447	127.979	354.225	283.316	185.728	117.939	179.661	367.164	190.074	144.289	100.914	429.558	380.668	108.463	249.522	158.822	0.002823	0.00071795	0.0004119	711.4	5.5911e-06	5.1561e-06	1150.4	246.79	6.6978e-06	3.7095e-06	486.98	199.58	95.507	51.891	1.0545e-05	107.51	0.00084904	0.0007312	0.00022724	721.44	8.5302e-06	7.9527e-06	1096.4	248.44	8.5432e-06	7.6721e-06	466.63	187.44	101.4	49.534	9.3866e-06	98.914	409.138	382.630	126.662	101.974	319.546	349.338	102.242	108.172	228.083	251.753	106.819	110.923	112.151	117.006	220.600	114.485	-8191	255	
2109.393	1	1	0	0	0.083543	0.12365	0.083533	0.31126	0.31142	0.19282	0.31906	0.25074	0.048124	0.17	0.17116	0.36204	0.06321	0.26307	0.046053	0.28764	-2.2958	-1.9083	-2.7333	-2.2313	-2.1604	-2.8354	-2.2542	-2.4875	-2.6188	-2.0812	-2.7792	-2.2354	-2.0417	-2.8083	-1.9979	-2.5542	418.424	339.297	192.649	351.887	181.201	274.012	108.383	397.699	97.004	430.717	373.246	405.356	112.927	417.378	143.407	419.678	0.0028732	0.00084326	0.00049266	694.46	4.7332e-06	6.0533e-06	1136.7	229.44	1.4822e-05	1.6867e-05	459.14	188.58	91.337	50.991	4.6519e-06	103.92	0.00083707	0.00075363	0.00025322	708.68	9.0638e-06	8.8625e-06	1102.4	234.45	9.0275e-06	8.4729e-06	448.44	178.91	98.89	49.017	1.0716e-05	96.722	393.177	189.714	131.013	102.063	443.081	214.343	102.003	108.754	230.468	200.084	106.209	111.155	112.495	117.495	374.330	114.372	-8191	255	
2109.489	1	1	0	0	0.25599	0.16643	0.20918	0.3534	0.031467	0.16693	0.15406	0.11719	0.21285	0.035024	0.17672	0.27631	0.10609	0.10811	0.11349	0.14149	-2.3792	-1.7083	-2.6	-2.3417	-1.975	-2.7938	-2.1521	-2.375	-2.6667	-2.1354	-2.5938	-2.575	-1.7604	-2.95	-2.2458	-2.2833	203.354	139.601	381.718	415.860	119.876	340.252	246.694	317.981	355.668	403.452	383.652	358.924	111.702	366.826	426.673	291.903	0.0026564	0.0009255	0.00015199	741.04	2.0898e-06	2.246e-05	1169.5	211.82	1.5466e-05	2.2629e-05	400.6	159.49	76.324	44.387	1.6355e-05	93.549	0.00090024	0.00089272	0.00029091	761.71	9.9024e-06	1.0894e-05	1160.4	225.83	1.1256e-05	1.1963e-05	421.64	159.69	95.566	45.826	1.3557e-05	89.53	391.482	192.672	284.734	102.371	305.725	227.550	101.494	108.319	193.119	205.732	107.175	111.857	113.214	117.426	222.430	115.158	-8191	255	
2109.585	1	1	0	0	0.28439	0.41427	0.090176	0.2142	0.1244	0.10943	0.32217	0.15675	0.14193	0.24452	0.2777	0.2386	0.10789	0.13002	0.26379	0.042385	-2.6312	-1.9979	-2.6583	-2.5042	-2.0271	-2.7687	-2.5333	-2.1542	-2.7938	-1.9688	-2.6854	-2.6292	-2.125	-2.7062	-2.3312	-2.1813	161.916	386.408	150.964	408.561	214.198	409.277	304.593	330.639	266.043	431.872	410.610	423.743	125.441	103.441	401.358	98.370	0.0030316	0.001556	0.00012466	826.27	8.3885e-06	2.3961e-05	1268.1	219.54	1.1511e-05	7.7277e-06	412.1	161.23	81.458	47.467	1.7111e-05	99.734	0.0010431	0.0011595	0.00033648	848.79	1.1168e-05	1.3458e-05	1263.9	236.08	1.205e-05	1.4126e-05	433.65	162.93	103.06	50.048	1.5057e-05	96.361	397.505	141.410	285.916	101.655	208.664	204.900	101.618	107.850	394.130	236.761	106.943	111.880	114.007	117.380	230.967	114.674	-8191	255	
2109.681	1	1	0	0	0.21854	0.1526	0.15894	0.14913	0.23804	0.11987	0.086448	0.2145	0.18548	0.22903	0.15405	0.13175	0.25443	0.15608	0.12417	0.2966	-2.3729	-2.0021	-2.4021	-2.9313	-1.9833	-2.6625	-2.475	-2.125	-2.9313	-2.0812	-2.4958	-2.8958	-1.9771	-2.7583	-2.4333	-2.1125	128.171	251.781	160.816	354.447	331.176	325.927	353.399	288.761	249.872	372.760	350.826	131.458	391.011	110.784	361.900	404.623	0.0030042	0.0011954	0.00041946	934.22	1.6905e-05	2.0298e-05	1418.7	243.09	1.3441e-05	6.0169e-06	436.76	175.66	88.896	51.417	4.0006e-06	105.74	0.0012969	0.0015381	0.0004054	979.22	1.5189e-05	1.8438e-05	1429.1	268.52	1.6425e-05	1.8664e-05	471.91	178.21	119.16	54.939	1.5818e-05	101.41	417.874	141.823	216.938	101.988	176.973	219.290	101.238	107.586	242.604	410.415	106.684	111.940	112.800	116.965	334.098	114.490	-8191	255	
2109.800	1	1	0	0	0.10665	0.20785	0.099058	0.12661	0.25454	0.065563	0.1648	0.17779	0.18105	0.22966	0.32323	0.27514	0.25799	0.1248	0.038158	0.087125	-2.4313	-2.0583	-2.1792	-2.8875	-1.8687	-2.6771	-2.7438	-2.2333	-2.8354	-1.9729	-2.2812	-2.8833	-2.0187	-2.6958	-2.7562	-1.9896	309.176	324.301	264.348	213.751	444.279	99.815	92.355	379.381	193.696	367.840	435.681	394.482	92.674	159.478	367.298	160.053	0.0045763	0.00042109	0.00010109	951.85	2.9919e-05	1.2402e-05	1389.6	259.93	2.4864e-05	5.1002e-06	460.14	189.59	98.2	54.08	4.195e-06	109.81	0.0014198	0.0015433	0.00037392	976.67	1.512e-05	1.6282e-05	1373	274.07	1.5928e-05	1.6827e-05	480.5	188.56	131.59	57.454	1.6391e-05	105.17	401.441	438.967	352.458	101.674	167.376	357.749	101.399	107.470	168.634	447.874	106.834	111.663	112.607	116.949	209.943	114.193	-8191	255	
2109.896	1	1	0	0	0.19399	0.30324	0.098939	0.10489	0.1801	0.08521	0.23319	0.12181	0.18528	0.095209	0.20289	0.2358	0.2073	0.07783	0.090074	0.19748	-2.5521	-2.3375	-1.8958	-2.9021	-2.15	-2.4562	-2.7562	-1.9917	-2.7479	-2.1792	-2.1375	-3.0354	-1.975	-2.3729	-2.6167	-2.1271	351.890	270.912	291.664	233.347	147.405	176.524	329.320	325.130	282.621	340.523	163.476	448.041	224.303	96.786	374.587	420.620	0.0033818	0.0018639	0.00053198	910.61	1.5103e-05	8.4942e-06	1329.9	262.59	1.8449e-05	1.4382e-05	470.94	199.66	103.05	57.396	8.9966e-06	116.88	0.0015685	0.0015144	0.0003518	931.92	1.4568e-05	1.3165e-05	1293.2	267.25	1.2936e-05	1.1899e-05	460.53	188.93	118.55	55.9	1.0205e-05	107.51	409.483	359.363	199.573	101.722	204.227	222.261	101.740	107.589	195.680	308.792	106.879	110.787	112.673	116.806	204.538	114.427	-8191	255	
2109.970	1	1	0	0	0.27529	0.27636	0.056872	0.090889	0.12977	0.29283	0.21002	0.19629	0.18359	0.074901	0.11988	0.095596	0.32635	0.088657	0.16033	0.076922	-2.2812	-2.4292	-1.8854	-2.8604	-1.9375	-2.3438	-2.7458	-1.9146	-2.6271	-2.6021	-2.0771	-2.8	-2.0292	-2.2167	-2.825	-2.0062	391.749	123.782	140.377	333.856	418.114	303.304	279.284	425.517	97.362	392.850	200.327	95.000	210.827	445.765	299.056	399.548	0.0036318	0.00057001	0.00023787	883.11	7.445e-06	1.5566e-05	1291.5	275.86	3.3784e-06	1.9093e-05	501.67	216.47	112.47	61.404	8.6495e-06	125.13	0.0011554	0.0010819	0.00027451	895.74	1.435e-05	1.3389e-05	1268.7	288.59	1.5013e-05	1.3134e-05	490.88	207.02	124.98	58.233	7.9018e-06	112.85	405.620	235.461	129.334	101.853	213.606	380.037	101.255	107.619	100.854	443.754	107.006	111.274	112.544	116.840	177.989	114.422	-8191	255	
2110.089	1	1	0	0	0.096413	0.074257	0.17354	0.12022	0.050956	0.041395	0.33218	0.22258	0.14118	0.15277	0.24038	0.16952	0.23841	0.15285	0.17381	0.3232	-2.2125	-2.7021	-1.8062	-2.8292	-2.1854	-2.1396	-2.8875	-2.0229	-2.7062	-2.6437	-1.95	-2.8875	-2.2333	-2.2083	-2.8563	-1.9688	153.423	305.121	187.075	421.236	139.502	137.666	362.699	357.523	381.177	366.982	400.102	424.546	143.067	428.181	156.683	420.226	0.0033904	0.00090342	0.00022504	852.57	7.4831e-06	8.5475e-06	1284.4	293.81	1.4557e-05	5.9195e-06	519.13	220.57	115.41	58.51	7.3681e-06	116.76	0.00072815	0.00059115	0.00014089	812.1	6.5908e-06	5.8144e-06	1183.6	281.05	7.8076e-06	7.746e-06	484.78	206.5	122.98	55.894	9.2386e-06	107.25	410.611	128.131	178.403	102.282	127.811	217.095	102.212	107.829	396.941	383.530	106.162	110.934	111.970	116.476	201.485	114.415	-8191	255	
2110.185	1	1	0	0	0.19931	0.14652	0.25034	0.02922	0.38672	0.19311	0.27754	0.11791	0.30384	0.098178	0.14284	0.12261	0.21006	0.19459	0.13392	0.27864	-2.0396	-2.4292	-1.7437	-2.7417	-2.2667	-1.9813	-2.8563	-2.1167	-1.9854	-2.6708	-1.8375	-2.6875	-2.5062	-2.0375	-2.7625	-2.2146	234.999	253.300	414.796	152.902	394.019	387.500	373.939	283.796	358.632	397.006	393.924	299.899	174.838	105.865	308.744	365.116	0.0039414	0.0013279	0.00012898	860.63	2.871e-06	6.6167e-06	1251.7	288.6	1.3213e-05	4.6168e-06	488.07	199.97	104.57	49.21	7.552e-06	96.221	0.00077825	0.00063844	0.00015189	819.32	5.9626e-06	5.1066e-06	1152.7	273.98	6.3509e-06	6.2476e-06	452.26	184.61	105.81	46.656	9.3827e-06	91.399	404.298	148.072	171.967	102.363	154.796	262.558	101.703	107.642	172.889	190.623	106.262	111.285	112.332	117.318	193.456	115.373	-8191	255	
2110.281	1	1	0	0	0.33701	0.17163	0.36426	0.35312	0.16203	0.22	0.35641	0.098103	0.3024	0.32246	0.19933	0.19314	0.21432	0.27725	0.1715	0.22792	-1.7896	-2.6625	-1.8354	-2.425	-2.4188	-1.8125	-2.9271	-2.375	-2.3312	-2.6937	-2.075	-2.7792	-2.5333	-1.9937	-2.6292	-2.3958	401.288	403.207	253.714	435.426	105.499	438.820	374.662	341.453	383.501	304.132	108.050	427.526	149.827	369.135	132.014	414.910	0.0031241	0.00028019	0.00043305	892.15	9.5012e-06	6.6053e-06	1272.5	278.78	7.4439e-06	1.0715e-05	468.02	177.78	92.474	40.763	1.9135e-05	81.863	0.001042	0.0010107	0.00029563	898.71	9.3022e-06	7.2783e-06	1194.8	269.31	6.2882e-06	6.2611e-06	440.3	169.23	104.78	41.261	1.5615e-05	85.503	394.783	201.618	119.375	102.291	157.085	231.832	101.513	107.298	187.331	202.088	106.553	111.437	112.641	117.540	262.397	115.294	-8191	255	
2110.377	1	1	0	0	0.29013	0.1593	0.10873	0.31274	0.047602	0.29136	0.14888	0.47615	0.20741	0.13816	0.37555	0.19221	0.04331	0.078772	0.18013	0.27738	-1.5542	-2.8458	-1.8583	-2.6396	-2.8104	-2.025	-3.0271	-2.3167	-2.1667	-2.7625	-2.0833	-2.4	-2.6833	-1.9479	-2.6958	-2.3146	162.829	96.405	392.745	374.925	185.376	140.002	291.915	443.373	213.289	406.310	409.592	433.948	213.483	202.508	295.354	364.308	0.0020297	0.002446	0.00044116	1062.7	4.0511e-06	3.2924e-06	1525.9	315.38	1.1164e-05	2.5924e-05	526.59	178.88	95.146	40.584	1.5992e-05	83.238	0.0018214	0.0020559	0.00077637	1284.2	3.3759e-05	3.2623e-05	1771.4	413.41	3.0278e-05	2.8064e-05	620.55	195.42	134.3	44.175	1.7595e-05	83.17	390.865	371.193	175.165	101.197	447.239	168.351	101.966	106.668	248.876	211.188	106.065	111.183	111.783	117.870	195.272	115.886	-8191	255	
2110.498	1	1	0	0	0.18931	0.16509	0.080798	0.073447	0.24198	0.15998	0.22738	0.091444	0.18951	0.2243	0.13793	0.070558	0.23816	0.26748	0.16607	0.13867	-1.5854	-2.8854	-1.9875	-2.4271	-2.6896	-1.9979	-2.7979	-2.5062	-1.9875	-2.8146	-2.2146	-2.2854	-2.7021	-2.2458	-2.5083	-2.7729	230.265	282.704	271.804	377.368	276.390	440.285	414.325	299.895	356.127	347.300	376.546	118.637	189.846	122.240	226.792	422.911	0.0025654	0.00081391	3.6784e-05	1038.2	2.4262e-06	2.292e-05	1472.5	300.19	2.6618e-06	1.2299e-05	506.17	159.22	84.17	41.266	1.1393e-05	84.947	0.0011834	0.0012238	0.00039089	1057.9	1.3569e-05	1.4183e-05	1467.3	314.81	1.2587e-05	1.3842e-05	519.14	158.77	104.1	42.861	1.3052e-05	81.462	412.227	174.556	448.675	101.824	442.842	194.850	101.310	106.672	255.630	216.405	106.239	111.774	112.065	117.580	357.950	115.275	-8191	255	
#DATA ENDS
