BOXY.EXE: ISS Imagent and Oximeter Data Acquisition Program Version 0.80
Ascii Record File

#ACQ INFORMATION
2  Detector Channels 
16  External MUX Channels 
1  Auxiliary Channels 
5000  Waveform (CCF) Frequency (Hz)
1  Waveforms Skipped 
30  Waveforms Averaged 
1  Cycles Averaged 
16  Acquisitions per Waveform 
10.0806  Updata Rate (Hz) 

#FILE INFORMATION
TRUE -- External MUX Channel results are PARSED.
FALSE -- AC DC and Phase are NOT grouped.
TRUE -- Companion Program Settings File CREATED.
FALSE -- AC data not excluded
FALSE -- DC data not excluded
FALSE -- Phase data not excluded
FALSE -- Auxillary Chn. data not excluded
Tab delimiters

#CALIBRATION STATE
TRUE -- Waveform Calibration Values APPLIED.


#AUX CALIBRATION VALUES
Val Type	aux-1	

Term	1.0000e+00	
Factor	0.0000e+00	


#WF CALIBRATION VALUES
A = Detector Channel
Val Type	A-AC1	A-AC2	A-AC3	A-AC4	A-AC5	A-AC6	A-AC7	A-AC8	A-AC9	A-AC10	A-AC11	A-AC12	A-AC13	A-AC14	A-AC15	A-AC16	A-DC1	A-DC2	A-DC3	A-DC4	A-DC5	A-DC6	A-DC7	A-DC8	A-DC9	A-DC10	A-DC11	A-DC12	A-DC13	A-DC14	A-DC15	A-DC16	A-Ph1	A-Ph2	A-Ph3	A-Ph4	A-Ph5	A-Ph6	A-Ph7	A-Ph8	A-Ph9	A-Ph10	A-Ph11	A-Ph12	A-Ph13	A-Ph14	A-Ph15	A-Ph16	

Term	0.00000e+00	0.00000e+00	0.00000e+00	0.00000e+00	0.00000e+00	0.00000e+00	0.00000e+00	0.00000e+00	0.00000e+00	0.00000e+00	0.00000e+00	0.00000e+00	0.00000e+00	0.00000e+00	0.00000e+00	0.00000e+00	0.00000e+00	0.00000e+00	0.00000e+00	0.00000e+00	0.00000e+00	0.00000e+00	0.00000e+00	0.00000e+00	0.00000e+00	0.00000e+00	0.00000e+00	0.00000e+00	0.00000e+00	0.00000e+00	0.00000e+00	0.00000e+00	0.00000e+00	0.00000e+00	0.00000e+00	0.00000e+00	0.00000e+00	0.00000e+00	0.00000e+00	0.00000e+00	0.00000e+00	0.00000e+00	0.00000e+00	0.00000e+00	0.00000e+00	0.00000e+00	0.00000e+00	0.00000e+00	
Factor	1.00000e+00	1.00000e+00	1.00000e+00	1.00000e+00	1.00000e+00	1.00000e+00	1.00000e+00	1.00000e+00	1.00000e+00	1.00000e+00	1.00000e+00	1.00000e+00	1.00000e+00	1.00000e+00	1.00000e+00	1.00000e+00	1.00000e+00	1.00000e+00	1.00000e+00	1.00000e+00	1.00000e+00	1.00000e+00	1.00000e+00	1.00000e+00	1.00000e+00	1.00000e+00	1.00000e+00	1.00000e+00	1.00000e+00	1.00000e+00	1.00000e+00	1.00000e+00	X	X	X	X	X	X	X	X	X	X	X	X	X	X	X	X	

B = Detector Channel
Val Type	B-AC1	B-AC2	B-AC3	B-AC4	B-AC5	B-AC6	B-AC7	B-AC8	B-AC9	B-AC10	B-AC11	B-AC12	B-AC13	B-AC14	B-AC15	B-AC16	B-DC1	B-DC2	B-DC3	B-DC4	B-DC5	B-DC6	B-DC7	B-DC8	B-DC9	B-DC10	B-DC11	B-DC12	B-DC13	B-DC14	B-DC15	B-DC16	B-Ph1	B-Ph2	B-Ph3	B-Ph4	B-Ph5	B-Ph6	B-Ph7	B-Ph8	B-Ph9	B-Ph10	B-Ph11	B-Ph12	B-Ph13	B-Ph14	B-Ph15	B-Ph16	

Term	0.00000e+00	0.00000e+00	0.00000e+00	0.00000e+00	0.00000e+00	0.00000e+00	0.00000e+00	0.00000e+00	0.00000e+00	0.00000e+00	0.00000e+00	0.00000e+00	0.00000e+00	0.00000e+00	0.00000e+00	0.00000e+00	0.00000e+00	0.00000e+00	0.00000e+00	0.00000e+00	0.00000e+00	0.00000e+00	0.00000e+00	0.00000e+00	0.00000e+00	0.00000e+00	0.00000e+00	0.00000e+00	0.00000e+00	0.00000e+00	0.00000e+00	0.00000e+00	-1.51084e+02	-1.28834e+02	-1.28025e+02	-1.86409e+02	-7.68898e+01	-6.93831e+01	-1.58531e+02	-1.62015e+02	-7.47914e+01	-6.79359e+01	-1.72014e+02	-1.71423e+02	-1.83400e+02	-1.77421e+02	-7.05656e+01	-1.49763e+02	
Factor	2.11876e-05	1.39541e-04	4.21210e-05	2.80485e-01	1.28048e-06	1.60148e-06	1.54187e-01	4.54447e-02	1.08396e-06	1.57593e-06	7.46426e-02	2.54121e-02	3.58899e-02	8.15869e-03	1.32146e-06	1.15051e-02	9.79520e-06	1.44465e-05	4.03494e-06	1.49735e-01	1.53051e-07	1.61647e-07	7.78450e-02	2.45314e-02	1.47844e-07	1.59374e-07	3.90137e-02	1.33397e-02	1.96024e-02	4.44578e-03	1.52412e-07	6.08456e-03	X	X	X	X	X	X	X	X	X	X	X	X	X	X	X	X	



#DISTANCE SETTINGS
A = Detector Channel
A-1	A-2	A-3	A-4	A-5	A-6	A-7	A-8	A-9	A-10	A-11	A-12	A-13	A-14	A-15	A-16	

2.5000e+00	3.0000e+00	2.5000e+00	3.0000e+00	2.0000e+00	3.0000e+00	1.5000e+00	3.0000e+00	3.0000e+00	3.0000e+00	3.0000e+00	3.0000e+00	3.0000e+00	3.0000e+00	1.5000e+00	3.0000e+00	

B = Detector Channel
B-1	B-2	B-3	B-4	B-5	B-6	B-7	B-8	B-9	B-10	B-11	B-12	B-13	B-14	B-15	B-16	

1.0000e+01	1.0000e+01	1.0000e+01	1.4400e+00	1.0000e+01	1.0000e+01	1.5100e+00	1.9400e+00	1.0000e+01	1.0000e+01	1.9900e+00	2.4900e+00	2.4100e+00	2.9000e+00	1.0000e+01	2.9800e+00	




#DATA BEGINS
time	group	step	mark	flag	A-AC1	A-AC2	A-AC3	A-AC4	A-AC5	A-AC6	A-AC7	A-AC8	A-AC9	A-AC10	A-AC11	A-AC12	A-AC13	A-AC14	A-AC15	A-AC16	A-DC1	A-DC2	A-DC3	A-DC4	A-DC5	A-DC6	A-DC7	A-DC8	A-DC9	A-DC10	A-DC11	A-DC12	A-DC13	A-DC14	A-DC15	A-DC16	A-Ph1	A-Ph2	A-Ph3	A-Ph4	A-Ph5	A-Ph6	A-Ph7	A-Ph8	A-Ph9	A-Ph10	A-Ph11	A-Ph12	A-Ph13	A-Ph14	A-Ph15	A-Ph16	B-AC1	B-AC2	B-AC3	B-AC4	B-AC5	B-AC6	B-AC7	B-AC8	B-AC9	B-AC10	B-AC11	B-AC12	B-AC13	B-AC14	B-AC15	B-AC16	B-DC1	B-DC2	B-DC3	B-DC4	B-DC5	B-DC6	B-DC7	B-DC8	B-DC9	B-DC10	B-DC11	B-DC12	B-DC13	B-DC14	B-DC15	B-DC16	B-Ph1	B-Ph2	B-Ph3	B-Ph4	B-Ph5	B-Ph6	B-Ph7	B-Ph8	B-Ph9	B-Ph10	B-Ph11	B-Ph12	B-Ph13	B-Ph14	B-Ph15	B-Ph16	aux-1	digaux	

29369.420	1	1	0	768	0.21065	0.19116	0.041489	0.11798	0.10103	0.13783	0.16522	0.34197	0.061177	0.22431	0.043207	0.095616	0.17929	0.10756	0.23476	0.079266	-2.7812	-2.2292	-3.1063	-2.7792	-2.575	-2.9917	-2.5917	-2.7521	-3.15	-2.3521	-3.1021	-2.8354	-2.6312	-3.2083	-2.475	-2.7125	300.957	351.106	176.139	400.912	305.641	363.718	398.247	461.061	440.781	529.107	276.860	527.937	448.101	382.085	306.210	411.205	0.00063698	0.0012742	0.00077429	686.32	1.8017e-05	4.8839e-05	513.58	194.23	2.1953e-05	3.1503e-05	152.77	59.97	71.861	24.611	3.2064e-05	21.877	0.1438	0.20955	0.058445	2893.7	0.0022235	0.0023229	1650.2	557.67	0.0021286	0.002284	719.51	255.21	357.64	89.932	0.0022004	111.87	330.849	316.290	523.708	185.458	328.340	488.326	184.312	190.326	407.395	275.554	188.497	190.736	192.538	198.900	463.772	194.827	-8191	255	
29369.516	1	1	0	0	0.38402	0.24124	0.26445	0.43372	0.095497	0.10614	0.30827	0.14054	0.04445	0.043414	0.19556	0.17526	0.12181	0.15673	0.16767	0.13367	-2.6479	-2.1458	-3.1375	-2.7646	-2.3208	-3.1	-2.6688	-2.6979	-2.9125	-2.2792	-2.8625	-2.8479	-2.3312	-2.9062	-2.6479	-2.5	383.930	201.361	237.609	513.258	270.432	305.589	493.792	501.305	276.179	481.299	429.229	529.821	417.743	380.731	200.916	498.808	0.00044013	0.0016901	0.0010124	697.33	4.9633e-06	5.0406e-06	513.18	194.97	2.9401e-05	6.8503e-05	152.78	59.994	72.128	25.161	1.9912e-05	22.878	0.14246	0.20848	0.058547	2905	0.0022169	0.0023309	1663.3	561.24	0.0021414	0.0023037	728.1	258.44	361.09	91.311	0.0022415	113.66	277.655	476.463	337.192	185.410	377.961	274.987	184.474	190.165	365.404	235.412	187.833	191.513	192.970	198.683	465.263	195.351	-8191	255	
29369.611	1	1	0	0	0.24371	0.10735	0.17686	0.1826	0.12471	0.12362	0.10181	0.27178	0.10319	0.10267	0.13671	0.044843	0.13755	0.13618	0.075607	0.2104	-2.6979	-2.2542	-2.8875	-2.9417	-2.2833	-3.1542	-2.8542	-2.4583	-3.2604	-2.3979	-2.825	-2.9792	-2.3854	-3.0167	-2.7896	-2.375	444.840	502.679	373.953	274.261	526.492	382.558	302.243	408.605	248.166	219.665	454.568	479.208	453.994	521.922	474.145	246.565	0.0012847	0.0027084	0.00061501	697.15	2.5957e-05	1.2769e-05	516.15	196.65	1.1646e-05	3.4408e-05	153.89	60.467	73.377	25.125	2.0455e-05	22.581	0.14376	0.21296	0.060131	2964.6	0.0022773	0.0024152	1708.4	576.58	0.0022162	0.0023897	748.6	263.39	366.16	92.353	0.0022472	112.65	227.547	269.329	365.795	185.245	454.014	196.886	184.041	190.282	228.246	181.541	188.251	189.968	192.122	198.142	386.605	194.189	-8191	255	
29369.707	1	1	0	0	0.061577	0.1041	0.19758	0.037724	0.12083	0.16614	0.1199	0.13028	0.12092	0.063387	0.27624	0.078447	0.34653	0.21032	0.056279	0.11554	-2.8625	-2.4917	-2.7292	-2.9625	-2.3208	-3.0896	-2.8563	-2.5521	-3.2229	-2.5521	-2.4875	-3.0271	-2.2875	-3.0687	-2.9583	-2.4583	348.694	241.390	185.813	332.364	482.876	434.370	270.259	485.055	465.293	296.975	519.221	369.342	179.585	266.884	224.640	486.293	0.00016614	0.0055608	0.00035879	693.71	2.303e-05	2.3698e-05	511.36	195.14	1.6087e-05	2.0279e-05	150.29	59.587	71.211	24.384	2.3903e-05	21.722	0.14126	0.20832	0.058001	2846.3	0.0021432	0.002269	1620.1	543.53	0.0020419	0.0022167	703.18	247.09	346.22	88.126	0.0021333	107.83	280.162	430.876	472.671	186.232	509.034	438.951	184.043	190.807	349.339	401.345	188.545	191.170	193.261	198.681	202.596	194.292	-8191	255	
29369.805	1	1	0	0	0.057179	0.11253	0.16868	0.016961	0.070082	0.15455	0.2887	0.14486	0.18443	0.15178	0.21739	0.20891	0.32061	0.1496	0.25876	0.24906	-2.7479	-2.6333	-2.4313	-3.2167	-2.475	-2.95	-2.9062	-2.4208	-3.2792	-2.5333	-2.5375	-3.0396	-2.4333	-2.9188	-2.9271	-2.3521	370.866	440.113	438.011	502.999	455.998	310.023	492.062	459.588	180.449	310.139	521.418	217.808	507.651	454.949	373.771	525.654	0.00025279	0.0019318	0.0012253	687.44	1.8386e-05	3.797e-05	506.51	194.43	1.3728e-05	1.0319e-05	153.18	60.51	71.294	24.777	2.2644e-05	21.692	0.1362	0.20217	0.056793	2810.6	0.0021308	0.0022748	1627.8	545.76	0.0020664	0.0022514	710.88	249.6	350.44	89.103	0.002156	108.97	281.200	440.532	310.137	184.580	381.128	321.383	184.484	189.914	366.165	444.526	187.736	190.434	193.061	198.647	457.151	196.327	-8191	255	
29369.900	1	1	0	0	0.25395	0.19782	0.33615	0.15118	0.28511	0.20193	0.23871	0.2114	0.30325	0.10172	0.13387	0.22856	0.27465	0.092493	0.20761	0.12309	-2.6333	-2.5875	-2.4354	-3.1167	-2.4771	-2.7812	-3.0917	-2.4083	-3.1042	-2.5687	-2.5396	-3.0833	-2.6083	-2.7354	-2.9958	-2.3312	363.108	419.972	219.350	174.932	530.468	516.346	202.156	458.339	224.554	287.078	434.846	381.839	418.058	203.192	254.262	223.316	0.00050332	0.00258	0.00067534	693.21	2.1625e-05	4.9872e-05	512.24	198.03	2.1724e-05	2.8371e-05	153.5	60.832	73.809	25.663	1.3628e-05	22.963	0.1385	0.20611	0.057533	2841.1	0.0021826	0.0023241	1653.3	557.12	0.0021369	0.0023317	733.21	259.79	366.86	93.549	0.0022652	114.49	273.496	262.871	396.175	186.148	389.487	246.185	184.270	189.591	243.168	343.846	187.591	190.467	192.540	198.069	238.051	194.594	-8191	255	
29370.021	1	1	0	0	0.13682	0.036725	0.064886	0.16761	0.25589	0.15292	0.23414	0.14701	0.11595	0.14077	0.13715	0.16378	0.13062	0.25028	0.059816	0.064798	-2.5958	-2.8	-2.4354	-3.3542	-2.4583	-2.7438	-3.0833	-2.4958	-2.9833	-2.8042	-2.4583	-3.2313	-2.5792	-2.5938	-3.2625	-2.4896	495.454	367.180	521.032	186.465	447.366	310.186	403.296	301.757	378.366	280.159	318.739	517.121	422.247	507.111	521.828	340.010	0.00055931	0.0013726	0.00082802	696.56	1.1173e-05	4.8392e-05	513.26	199.29	3.1902e-05	3.3253e-05	153.86	60.651	73.244	25.117	9.3542e-06	22.266	0.14659	0.21678	0.060186	2942.1	0.0022559	0.0023827	1665.8	558.44	0.0021267	0.0022905	713.48	251.71	354.1	89.624	0.0021439	108.92	246.966	227.562	220.956	185.411	372.505	270.116	184.620	189.837	290.714	322.468	188.197	190.743	192.820	198.613	426.702	195.469	-8191	255	
29370.117	1	1	0	0	0.17718	0.092795	0.30353	0.19607	0.19021	0.27959	0.38724	0.080406	0.354	0.18756	0.086488	0.47157	0.21597	0.079489	0.010832	0.061898	-2.4896	-2.95	-2.3271	-3.0833	-2.5458	-2.5604	-3.2854	-2.5854	-2.9958	-2.8875	-2.4042	-3.0125	-2.6688	-2.5771	-3.1063	-2.5542	361.943	415.962	469.856	427.481	468.825	513.640	484.177	461.676	286.492	347.264	216.429	529.253	297.646	510.918	214.849	416.113	0.00046293	0.002481	0.00067666	716.12	9.4739e-06	3.0053e-05	514.05	196.22	2.518e-05	4.2703e-06	152.75	60.513	73.087	25.218	2.1436e-05	22.019	0.13902	0.20514	0.05686	2836	0.0021636	0.002294	1626.3	550.46	0.002093	0.0022551	708.72	252.21	355.15	89.665	0.0021511	109.74	484.844	506.326	502.923	185.661	322.714	330.331	184.199	190.132	287.134	358.539	188.364	191.169	191.944	198.962	372.760	195.664	-8191	255	
29370.213	1	1	0	0	0.083465	0.1915	0.20937	0.1984	0.45282	0.12698	0.19677	0.18655	0.14691	0.1309	0.058614	0.088411	0.047017	0.10918	0.092792	0.044865	-2.3875	-3.0229	-2.3042	-3.1458	-2.6937	-2.4354	-3.3479	-2.5083	-2.4479	-3.0167	-2.4979	-2.9375	-2.9104	-2.525	-3.1375	-2.5729	218.679	465.677	196.722	445.252	312.452	329.287	446.016	369.507	335.896	404.314	189.780	426.651	458.932	249.316	344.424	210.286	0.00073307	0.0037034	0.0012508	709.91	3.0318e-05	1.5972e-05	521.42	198.39	1.8256e-05	1.2117e-05	151.23	60.95	74.24	25.54	4.3563e-06	22.25	0.14013	0.20567	0.057327	2871	0.0021955	0.0023106	1645.9	558.07	0.002125	0.0022776	716.13	255.79	358.82	90.198	0.0021717	111.03	494.327	298.308	381.464	184.821	515.334	207.865	184.067	189.493	329.960	176.190	188.262	190.637	193.155	198.389	516.212	194.576	-8191	255	
29370.309	1	1	0	0	0.083262	0.030992	0.1322	0.13757	0.14901	0.22421	0.060626	0.20537	0.025753	0.13464	0.075624	0.093217	0.21367	0.16346	0.21149	0.098308	-2.1771	-3.2375	-2.2625	-3.0125	-2.8271	-2.3625	-3.0417	-2.6083	-2.4875	-3.2354	-2.2979	-2.9917	-2.9021	-2.4229	-2.9938	-2.7271	326.626	323.545	204.352	506.054	207.772	266.047	519.179	520.666	411.364	254.131	506.536	186.311	300.665	238.961	233.650	235.727	0.0003523	0.0016267	0.0013744	711.41	1.4186e-05	5.7956e-05	518.92	199.45	1.9568e-05	1.0797e-05	154.71	61.532	73.468	25.465	3.8932e-05	22.856	0.14115	0.20625	0.057661	2887.5	0.0022006	0.002314	1654.8	560.85	0.0021377	0.0022947	723.62	258.21	362.23	91.591	0.0022244	113.49	269.727	527.966	237.498	184.814	352.853	426.125	184.072	189.527	221.645	244.592	187.610	190.235	193.753	198.567	359.113	195.721	-8191	255	
29370.406	1	1	0	0	0.085302	0.16627	0.075529	0.064282	0.058236	0.18767	0.13362	0.036625	0.13256	0.06652	0.10556	0.18612	0.21114	0.10133	0.14627	0.13843	-2.0792	-3.2542	-2.4479	-2.7896	-3.0312	-2.2042	-2.9625	-2.7208	-2.2646	-3.3104	-2.4583	-2.7812	-3.0729	-2.3896	-3.0812	-2.7292	394.054	480.174	173.136	433.089	402.205	515.090	500.415	379.291	213.018	355.710	393.742	377.865	280.102	449.580	299.080	200.051	6.589e-05	0.0057996	0.00056688	713.87	2.3815e-05	1.8898e-05	525.46	198.87	1.9949e-05	2.9316e-05	151.85	62.633	74.296	25.865	2.5736e-05	23.003	0.14465	0.21292	0.059924	2971.4	0.0022709	0.0023927	1695.8	570.54	0.0021715	0.0023227	728.74	258.58	360.13	90.766	0.0021926	111.52	240.220	285.738	502.705	185.468	304.420	409.615	183.964	189.630	442.815	414.853	187.304	190.942	192.613	198.204	521.565	194.699	-8191	255	
29370.502	1	1	0	0	0.1862	0.12686	0.15457	0.13149	0.13445	0.14099	0.039089	0.28769	0.18623	0.12159	0.058685	0.1453	0.2878	0.23122	0.29008	0.051149	-2.0021	-3.0667	-2.4875	-2.75	-3.1125	-2.2812	-3.0167	-2.875	-2.3792	-3.2313	-2.475	-2.4271	-3.1229	-2.2313	-2.9437	-2.9208	320.155	185.132	402.352	435.497	389.759	321.865	370.323	406.334	336.036	435.244	455.845	468.390	230.756	253.121	197.633	282.976	0.00057485	0.0021334	0.0014548	699.42	1.9412e-05	1.6693e-05	515.25	196.31	4.3085e-05	1.8663e-05	154.9	61.064	73.116	25.317	2.2041e-05	22.541	0.14006	0.20504	0.057661	2872.2	0.0021746	0.002301	1649	555.31	0.0020966	0.0022604	713.59	253.35	352.48	89.416	0.0021687	110.15	512.689	474.364	231.583	186.039	368.639	247.945	183.978	189.959	322.380	327.553	188.249	189.595	193.431	198.497	294.656	193.851	-8191	255	
29370.621	1	1	0	0	0.29573	0.18972	0.18566	0.13428	0.062806	0.14613	0.31996	0.106	0.19955	0.1156	0.2737	0.041924	0.038248	0.40335	0.12691	0.084424	-1.7396	-3.1813	-2.6229	-2.5667	-2.9625	-2.2562	-2.75	-3.1792	-2.3667	-3.2062	-2.6521	-2.4646	-3.1146	-2.4688	-2.7812	-3.1021	476.595	460.191	312.344	325.107	462.076	373.789	390.481	224.075	353.978	497.613	352.868	328.452	349.837	449.928	377.027	358.031	0.00085148	0.0025682	0.0017417	697.7	5.1225e-05	4.8001e-05	515.6	196.77	1.7247e-05	1.9444e-05	153.35	60.883	72.92	25.348	1.9129e-05	22.448	0.13884	0.20542	0.057758	2870.2	0.0021748	0.0023086	1650.5	555.23	0.0021025	0.0022801	717.42	253.92	354.78	90.095	0.0021897	110.81	487.703	291.899	471.269	185.622	508.309	227.498	183.848	189.604	366.570	337.269	187.779	190.705	192.893	197.522	346.137	194.287	-8191	255	
29370.717	1	1	0	0	0.32786	0.091258	0.15856	0.51238	0.21141	0.064496	0.28846	0.2563	0.2099	0.18468	0.13288	0.065976	0.096579	0.06101	0.11236	0.16783	-2.0271	-3.0062	-2.5938	-2.2521	-3.2313	-2.5229	-2.8688	-3.0708	-2.2729	-3.05	-3.0271	-2.6063	-3.3271	-2.6312	-2.4688	-2.9292	188.392	202.757	519.867	528.746	518.663	375.321	428.083	457.899	253.188	336.322	494.287	195.186	504.528	495.665	456.732	523.781	0.00038916	0.0032171	0.00049906	708.09	2.0586e-05	7.2544e-06	519.83	197.35	3.1995e-05	4.4286e-05	152.15	61.483	73.591	25.918	3.1409e-05	22.686	0.13995	0.20854	0.058571	2893.1	0.0022132	0.0023583	1674.8	563.35	0.0021542	0.0023581	738.16	261.64	368.75	93.881	0.0022987	115.77	491.492	171.810	523.795	184.997	459.661	442.324	183.980	189.575	304.418	284.686	188.102	190.323	192.727	197.859	451.218	195.128	-8191	255	
29370.812	1	1	0	0	0.13886	0.057126	0.037013	0.045018	0.23042	0.22844	0.11205	0.1409	0.023323	0.065089	0.21791	0.24455	0.056158	0.29242	0.086342	0.29776	-1.8833	-2.8417	-2.9625	-2.3375	-3.05	-2.5917	-2.5479	-3.1417	-2.3708	-2.8521	-3.0167	-2.4354	-3.2687	-2.6104	-2.4167	-2.9604	412.729	260.582	479.287	348.042	422.456	471.136	474.960	188.069	451.087	341.743	456.310	321.408	372.626	443.435	459.621	233.084	0.00045163	0.0030133	0.00122	702.33	5.8736e-06	4.5136e-06	513.62	199.91	1.634e-05	3.2845e-05	154.28	59.949	72.311	25.094	4.441e-06	21.861	0.14782	0.21888	0.061124	2980	0.0022982	0.002427	1697.2	567.07	0.0021664	0.0023314	723.19	253.11	354.21	89.463	0.0021447	108.11	280.299	257.027	370.683	185.511	516.362	195.767	184.632	189.834	288.652	370.212	187.329	190.270	192.794	198.103	487.500	195.233	-8191	255	
29370.908	1	1	0	0	0.21494	0.10583	0.076657	0.17681	0.19626	0.085624	0.32414	0.14724	0.20918	0.099118	0.31924	0.066233	0.18935	0.31369	0.13295	0.16687	-1.6958	-2.6333	-2.9083	-2.4	-2.975	-2.5792	-2.3688	-3.3896	-2.4562	-2.65	-3.0875	-2.3708	-3.1312	-2.7938	-2.2729	-3.1396	462.957	429.323	344.872	392.702	435.477	325.151	188.248	498.751	335.844	204.699	502.794	406.072	527.838	402.098	431.164	437.553	0.00075874	0.0020646	0.00045509	712.68	2.8077e-05	1.9841e-05	517.24	197.24	1.282e-05	1.6294e-05	152.07	59.694	72.07	24.789	4.4513e-06	21.994	0.13657	0.20186	0.056018	2789.9	0.002116	0.0022346	1602.5	539.14	0.0020273	0.0021911	689.67	243.75	342.71	86.9	0.0020736	105.75	176.863	370.508	450.247	184.906	392.413	368.693	183.814	189.936	485.135	389.667	186.986	190.973	193.071	198.421	246.119	195.107	-8191	255	
29371.006	1	1	0	0	0.16533	0.10489	0.067025	0.15329	0.12812	0.10943	0.059231	0.079858	0.049644	0.026329	0.21179	0.40132	0.023715	0.4159	0.13504	0.15136	-1.9208	-2.5021	-2.8688	-2.325	-2.8812	-2.7562	-2.4458	-3.3396	-2.6688	-2.4896	-3.125	-2.3833	-2.9708	-2.9437	-2.2146	-3.0333	190.285	279.837	201.405	519.504	228.727	327.337	333.986	266.691	313.735	304.734	192.175	426.509	271.244	517.573	244.969	452.649	0.00084204	0.0019747	0.00098832	709.42	2.3734e-05	2.5448e-05	511.69	197.42	2.9289e-05	1.0542e-05	151.44	59.893	72.037	24.6	1.9924e-05	21.977	0.13348	0.19719	0.054867	2763.7	0.0020864	0.0022039	1586.4	537.12	0.002007	0.0021707	684.42	242.58	341.2	86.54	0.0020655	105.8	426.299	213.263	241.320	185.047	248.157	215.539	184.068	190.373	173.815	451.449	187.772	190.579	193.219	198.434	409.193	194.109	-8191	255	
29371.102	1	1	0	0	0.22057	0.10934	0.17029	0.17318	0.082844	0.093981	0.15712	0.027276	0.13354	0.078795	0.20829	0.26621	0.25388	0.061014	0.042761	0.13675	-2.15	-2.5938	-3.0021	-2.2438	-2.8812	-2.9292	-2.3833	-3.0687	-2.5979	-2.5438	-3.1146	-2.2979	-2.8229	-2.8604	-2.0563	-3.125	381.960	362.522	354.189	380.106	443.046	396.365	425.493	348.369	225.156	512.909	391.319	449.018	376.721	394.304	411.469	527.603	0.00034525	0.0021109	0.00039228	712.4	9.3616e-06	1.6535e-05	511.73	197.4	2.9752e-05	1.0025e-05	152.82	60.402	73.324	25.379	4.5445e-05	22.519	0.1339	0.19786	0.055146	2785.4	0.0021182	0.0022417	1613.7	546.56	0.0020737	0.0022446	708.1	252.3	355.31	89.922	0.0021627	110.43	172.476	236.085	280.120	185.943	401.775	272.445	184.319	189.748	424.418	242.222	187.514	190.658	193.210	197.918	355.281	195.047	-8191	255	
29371.197	1	1	0	0	0.042001	0.067445	0.18686	0.099529	0.17976	0.2417	0.21678	0.25651	0.12458	0.10299	0.063666	0.27923	0.18587	0.22311	0.17949	0.29807	-2.2583	-2.5125	-3.0438	-2.55	-2.7833	-2.9458	-2.1958	-2.9813	-2.7646	-2.3833	-3.1083	-2.6396	-2.5812	-3.125	-2.1833	-2.8292	182.760	434.592	207.230	212.142	410.502	448.054	195.461	322.587	208.204	461.059	393.082	464.874	473.425	200.753	469.341	330.212	0.0010145	0.0045772	9.9103e-05	701.57	1.9279e-05	2.6157e-05	512.54	197.9	6.7366e-06	6.9431e-05	153.7	60.159	73.548	24.959	3.6476e-05	21.892	0.13974	0.20501	0.057042	2840.4	0.0021549	0.0022479	1611.4	543.35	0.0020231	0.0021623	686.07	241.91	338.33	85.158	0.0020186	103.77	510.736	365.263	483.419	185.306	293.986	354.462	184.198	189.736	290.723	238.242	186.395	190.266	193.552	198.002	268.507	195.649	-8191	255	
29371.295	1	1	0	0	0.3143	0.060455	0.18598	0.12564	0.0074847	0.15014	0.17884	0.14175	0.19036	0.26388	0.089925	0.063489	0.28655	0.085148	0.32425	0.037485	-2.2938	-2.2833	-3.2125	-2.6042	-2.5938	-3.0479	-2.5292	-2.9042	-2.8458	-2.2729	-3.3146	-2.6667	-2.3708	-2.9833	-2.4792	-2.7687	523.152	494.424	361.384	335.505	495.513	236.505	441.599	493.493	203.729	476.621	468.893	237.877	454.822	369.443	308.234	376.999	0.00016291	0.0021715	0.0013048	709.1	1.2472e-05	1.0415e-05	519.13	199.56	4.2597e-05	5.3107e-05	157.16	61.191	74.256	25.191	3.6867e-05	22.131	0.13015	0.19211	0.054156	2757.6	0.0020713	0.0021854	1598	540.99	0.0019976	0.0021499	688.57	243.15	340.16	85.904	0.0020398	105.03	492.535	343.979	301.306	185.547	324.905	319.664	184.730	190.092	410.662	524.003	187.961	189.972	192.622	198.175	333.274	195.816	-8191	255	
29371.391	1	1	0	0	0.04396	0.068309	0.20644	0.10667	0.11636	0.1776	0.30432	0.21286	0.088775	0.12245	0.18332	0.19127	0.20986	0.1515	0.31759	0.13407	-2.5625	-2.3208	-3.1167	-2.6354	-2.3958	-3.0708	-2.3979	-2.8187	-3.0563	-2.3146	-3.0583	-2.7125	-2.3604	-3.1562	-2.4167	-2.6667	423.455	274.597	219.173	359.208	272.486	516.130	478.143	475.358	172.725	503.569	530.004	229.338	483.367	202.906	494.890	516.578	0.0009265	0.0015498	0.00035867	711.56	3.7877e-05	1.4959e-05	526.24	199.41	3.8024e-05	7.357e-06	157.65	61.182	72.891	25.242	2.573e-05	22.629	0.13101	0.19252	0.054057	2742.9	0.0020459	0.0021621	1588.4	539.06	0.0019919	0.0021573	691.52	244.88	342.36	86.849	0.0020698	106.35	175.561	300.117	446.783	186.013	370.914	273.678	183.589	190.228	282.913	290.068	187.381	191.894	193.620	198.806	428.196	194.654	-8191	255	
29371.510	1	1	0	0	0.075484	0.090904	0.090383	0.34201	0.14939	0.10452	0.25461	0.30716	0.21123	0.13625	0.093182	0.19737	0.10783	0.084405	0.16801	0.31656	-2.6063	-2.2333	-2.8146	-2.9854	-2.125	-3.1604	-2.5625	-2.4625	-3.0854	-2.2562	-3.2458	-2.9875	-2.3729	-3	-2.4292	-2.6208	396.032	199.216	470.789	193.926	281.253	373.805	439.905	404.613	473.884	352.944	477.732	489.755	346.246	193.807	469.196	466.198	0.00029689	0.0016584	0.0014036	711.97	3.0431e-05	5.991e-05	526.72	200.01	6.6381e-06	2.579e-05	156.18	61.287	73.897	25.383	2.0146e-05	22.724	0.13283	0.19643	0.05511	2782.8	0.0020828	0.0022096	1609.1	545.14	0.0020117	0.0021786	696.69	246.39	343.98	87.484	0.0020883	107.16	518.398	213.339	324.373	184.931	439.427	371.719	184.202	190.133	278.579	194.861	188.382	191.120	193.397	198.782	242.170	194.976	-8191	255	
29371.582	1	1	0	0	0.082101	0.27062	0.3446	0.17106	0.45951	0.23512	0.0842	0.36308	0.11722	0.049117	0.28176	0.16608	0.17293	0.20428	0.24616	0.16634	-2.6229	-2.1375	-2.8854	-2.9354	-2.3042	-3.1521	-2.6646	-2.5958	-3.0812	-2.2604	-2.8083	-3.0062	-2.3812	-3.05	-2.5583	-2.4062	230.020	188.150	281.823	484.435	420.066	384.288	513.111	474.497	296.869	428.528	424.839	324.914	478.413	311.516	271.433	213.141	0.00068976	0.0023616	0.00089883	714.38	2.9255e-05	2.8434e-05	523.12	200.71	2.6594e-05	6.0386e-06	155.05	61.578	75.002	25.541	4.0836e-05	22.744	0.13401	0.19848	0.0555	2790.8	0.002095	0.0022175	1612	544.12	0.0020078	0.0021745	695.41	245.39	343.29	87.366	0.0020722	106.21	178.545	347.725	531.291	185.221	519.401	372.154	184.538	189.917	478.262	486.224	186.622	191.041	193.159	198.397	320.019	195.182	-8191	255	
29371.701	1	1	0	0	0.18456	0.10708	0.10016	0.24514	0.021553	0.16415	0.11188	0.16008	0.177	0.077299	0.12738	0.30804	0.28911	0.3191	0.11819	0.20056	-2.5938	-2.1625	-2.8771	-2.9583	-2.1562	-3.075	-2.6396	-2.3646	-2.9521	-2.3958	-2.6646	-3.0208	-2.1521	-3.0375	-2.7583	-2.2854	525.020	462.892	296.252	189.645	395.313	524.196	267.851	223.958	390.240	526.644	336.040	529.521	448.545	203.926	298.983	453.071	0.00021217	0.0045675	0.0018032	724.15	4.7418e-05	2e-05	525.92	200.47	3.7985e-05	3.8754e-05	155.45	61.503	75.216	25.431	9.8563e-06	22.336	0.13247	0.19568	0.054807	2754.8	0.0020573	0.0021772	1589.5	536.68	0.001979	0.0021379	684.88	241.92	339.35	86.067	0.002041	104.84	456.173	181.634	234.862	186.005	366.575	196.951	184.207	189.992	250.851	192.035	187.662	190.117	193.712	198.212	525.141	194.422	-8191	255	
29371.797	1	1	0	0	0.062559	0.27166	0.22082	0.056709	0.24825	0.20026	0.12373	0.070601	0.29511	0.09533	0.10224	0.11286	0.060899	0.18652	0.23586	0.16126	-2.6833	-2.5375	-2.5521	-3.1896	-2.1625	-2.8125	-2.7646	-2.4854	-3.1854	-2.6312	-2.6396	-3.0833	-2.3396	-2.8771	-2.8229	-2.3812	307.278	213.341	513.675	263.786	473.803	240.620	383.109	458.882	484.675	442.304	202.054	382.634	521.174	187.262	330.508	528.473	0.00039205	0.0053278	0.00064642	709.19	3.01e-05	2.98e-05	524.38	198.56	7.6148e-06	1.9753e-05	154.63	60.465	72.705	24.906	3.3331e-05	21.616	0.13163	0.19431	0.054223	2745.2	0.0020547	0.0021763	1582.9	535.52	0.0019734	0.00213	679.89	239.59	335.62	85.041	0.0020057	102.83	203.716	339.608	384.135	184.977	351.363	526.234	184.569	190.139	183.238	330.098	188.613	190.255	193.555	198.464	260.336	195.355	-8191	255	
29371.893	1	1	0	0	0.13343	0.035331	0.18372	0.17008	0.14173	0.1771	0.12523	0.045209	0.13413	0.084907	0.12856	0.057589	0.079521	0.06532	0.056272	0.16447	-2.7938	-2.6021	-2.5271	-2.9979	-2.3	-2.8375	-3.0646	-2.3771	-3.1792	-2.6333	-2.4104	-3.2604	-2.3854	-2.6646	-2.9375	-2.3604	363.497	459.452	425.384	460.646	367.123	227.300	503.962	421.777	489.112	191.323	414.462	333.956	226.544	456.651	274.120	269.411	0.00046264	0.0028105	0.00035919	711.67	4.6406e-07	3.589e-05	514.48	197.31	1.7935e-05	3.0533e-05	151.46	60.23	72.409	24.995	3.2949e-06	21.89	0.12876	0.18957	0.052642	2684.1	0.0019962	0.0021142	1548.6	526.23	0.0019396	0.0020906	671.49	238.49	334.45	85.118	0.0020115	103.71	482.741	303.776	323.542	185.278	415.773	486.159	183.541	190.063	229.535	285.717	187.884	190.780	192.839	199.052	293.733	195.622	-8191	255	
29371.988	1	1	0	0	0.28734	0.22958	0.16182	0.3115	0.26505	0.034527	0.099431	0.1869	0.13208	0.18592	0.16524	0.29003	0.027435	0.081898	0.13279	0.31429	-2.4375	-2.6667	-2.1708	-3.1604	-2.4958	-2.3542	-3.2646	-2.2313	-2.8729	-2.8375	-2.4271	-3.0354	-2.4875	-2.5583	-2.9	-2.4062	428.282	507.272	288.411	516.060	360.278	435.798	368.816	484.348	265.610	443.028	407.666	415.094	227.986	523.638	432.766	526.496	0.0002375	0.0074109	0.0004989	713.56	5.4581e-05	8.329e-05	517.35	198.2	4.2183e-05	3.0148e-05	155.36	59.513	72.835	24.789	1.6976e-05	22.135	0.13008	0.19175	0.05352	2721.6	0.0020375	0.0021542	1568.4	531.6	0.001969	0.0021224	678.37	241.31	337.24	85.605	0.0020385	104.82	185.582	246.936	190.133	185.494	259.733	355.392	184.189	189.821	235.719	329.400	187.780	190.522	192.512	199.074	521.094	195.766	-8191	255	
29372.109	1	1	0	0	0.22087	0.033263	0.071415	0.1326	0.19674	0.14418	0.2392	0.19594	0.29518	0.14052	0.079491	0.34238	0.17278	0.20412	0.29367	0.20383	-2.5229	-2.6583	-2.2833	-3.0438	-2.4604	-2.4	-3.2521	-2.3708	-2.7042	-2.6896	-2.3875	-2.9417	-2.5812	-2.4062	-3.0792	-2.5042	247.259	339.223	344.381	202.879	428.193	503.460	447.623	511.894	297.959	366.600	372.956	271.884	311.927	305.472	324.891	370.519	0.0002326	0.001217	0.00088724	711.12	7.1407e-06	4.7415e-05	518.24	198.11	6.1389e-06	9.5098e-06	150.97	59.689	72.399	24.929	2.9457e-05	21.899	0.13146	0.19349	0.054063	2745.2	0.0020495	0.0021608	1574.6	533.54	0.0019713	0.0021211	679.03	240.45	336.29	85.345	0.0020236	104.19	491.424	278.880	187.315	185.292	322.893	286.534	184.316	189.947	304.671	522.791	188.266	190.021	193.380	198.386	528.039	195.209	-8191	255	
29372.205	1	1	0	0	0.08468	0.1572	0.091346	0.061799	0.22047	0.37621	0.043926	0.17357	0.10635	0.20866	0.097054	0.14578	0.13358	0.1519	0.08467	0.17591	-2.3563	-2.9854	-2.1854	-3.0292	-2.6375	-2.1542	-3.1479	-2.375	-2.8563	-2.9375	-2.2625	-3.0187	-2.7896	-2.4083	-3.0771	-2.4146	361.675	255.985	481.962	402.868	420.753	490.937	519.807	448.488	378.551	429.759	183.917	229.823	260.127	254.779	315.627	479.608	0.0002604	0.0014321	0.00042257	722.79	3.7355e-05	2.9078e-05	522.9	198.74	2.5502e-05	1.2631e-05	151.64	60.026	71.851	24.869	8.9674e-06	21.858	0.13019	0.19151	0.053504	2721.2	0.0020255	0.0021361	1567.1	529.79	0.001945	0.0020874	670.7	237.22	330.45	84.032	0.0019823	102.16	416.304	511.685	334.690	185.234	443.372	330.742	184.113	190.139	258.717	529.811	189.177	190.452	193.348	199.072	466.190	194.799	-8191	255	
29372.277	1	1	0	0	0.22343	0.12151	0.13459	0.12701	0.1194	0.22757	0.26512	0.22983	0.11152	0.022691	0.15369	0.17269	0.12706	0.2766	0.20094	0.024556	-2.1604	-2.8417	-2.2333	-2.7917	-2.7375	-2.4667	-3.0417	-2.3521	-2.4313	-3.0667	-2.1792	-2.7479	-2.7771	-2.3	-3.0021	-2.6312	187.442	190.695	177.444	199.882	475.707	400.558	521.825	436.949	450.319	249.643	288.851	425.115	223.375	203.645	379.930	254.813	0.00046805	0.0027943	0.00089382	711.59	4.4165e-05	4.4538e-05	515.88	198.97	4.6708e-06	3.7442e-05	151.99	59.829	71.798	24.529	2.0602e-05	21.57	0.12727	0.18781	0.052501	2685.1	0.001984	0.0021027	1547.5	523.97	0.0019134	0.0020624	662.52	234.59	327.1	83.201	0.0019651	101.34	526.625	241.586	365.339	186.356	358.389	319.507	184.209	190.253	353.487	187.799	188.142	191.249	193.515	198.899	390.488	195.367	-8191	255	
29372.398	1	1	0	0	0.33679	0.070147	0.073301	0.065413	0.13246	0.21723	0.33396	0.049172	0.26568	0.10954	0.083135	0.16983	0.2242	0.25728	0.02917	0.19625	-1.8875	-3.0542	-2.3229	-2.6604	-2.9062	-2.1562	-2.8229	-2.6667	-2.3229	-3.1771	-2.2687	-2.7229	-2.9208	-2.1979	-2.7104	-2.6063	504.390	493.618	404.934	275.839	488.963	505.783	426.546	430.560	372.941	420.365	298.449	478.566	377.233	228.693	405.758	359.674	0.00060049	0.0050026	0.0013679	701.96	1.8457e-05	1.1708e-05	517.07	196.08	1.8767e-05	2.4887e-05	152.48	59.616	71.713	24.537	2.5402e-05	21.374	0.12615	0.18615	0.052018	2658.9	0.0019629	0.002084	1536.9	518.71	0.0018917	0.0020478	657.15	231.93	323.78	82.05	0.0019227	98.666	220.379	213.776	266.362	185.570	223.475	335.347	184.266	189.960	173.663	494.526	187.875	191.066	193.484	199.150	313.914	195.022	-8191	255	
29372.492	1	1	0	0	0.094207	0.14588	0.12012	0.21431	0.20495	0.10313	0.2048	0.17517	0.19813	0.15166	0.090352	0.10612	0.28477	0.092307	0.42201	0.058793	-1.7604	-2.8688	-2.3208	-2.4771	-2.8812	-2.2271	-3.0875	-2.9354	-2.4208	-3.1312	-2.3292	-2.6146	-2.9896	-2.2417	-2.8771	-2.8917	411.186	489.957	505.245	221.579	390.596	237.326	414.024	201.521	463.061	498.007	261.818	336.949	490.994	517.416	193.434	448.656	0.00083746	0.00097626	0.00013267	716.27	1.8815e-05	3.0733e-05	520.18	198.24	1.3075e-05	2.9931e-05	154.31	61.056	72.823	24.675	5.5011e-06	21.5	0.12242	0.17995	0.050029	2583.9	0.0018851	0.0020018	1501	508.91	0.0018298	0.0019823	644.6	228.42	320.06	81.46	0.0019046	98.579	172.449	306.670	228.050	185.627	520.084	442.782	184.113	190.395	353.258	313.417	187.998	191.147	193.469	199.179	252.049	196.117	-8191	255	
29372.590	1	1	0	0	0.10097	0.0043506	0.15963	0.38039	0.15341	0.34459	0.28248	0.091667	0.07	0.20797	0.07487	0.08234	0.10449	0.10151	0.1493	0.15773	-1.9333	-2.9562	-2.5208	-2.5479	-3.1458	-2.2958	-2.95	-3.0292	-2.3375	-3.0938	-2.7021	-2.2771	-3.0542	-2.3979	-2.6979	-2.9667	494.470	461.419	188.284	484.203	393.313	357.331	414.193	400.161	410.345	202.817	530.277	484.256	494.662	372.105	314.855	528.204	0.0006649	0.0011477	0.00067397	721.17	2.087e-05	3.8321e-05	525.82	201.33	1.2855e-05	3.8459e-05	152.34	60.376	73.118	24.767	6.5448e-06	21.716	0.12267	0.18105	0.050708	2622.8	0.0019251	0.0020431	1524.4	516.96	0.00187	0.0020232	654.85	232.17	324.75	82.55	0.0019342	100.29	529.663	314.639	308.456	185.480	455.981	316.447	184.633	190.611	489.121	358.285	188.743	191.474	193.667	198.607	303.375	194.868	-8191	255	
29372.686	1	1	0	0	0.013063	0.056914	0.09119	0.029801	0.11809	0.19095	0.33722	0.23676	0.084856	0.094198	0.20405	0.068598	0.26427	0.092997	0.15265	0.058177	-1.9438	-2.8688	-2.6354	-2.4021	-2.9437	-2.1146	-2.5792	-2.9792	-2.1875	-3.0521	-2.7833	-2.4125	-3.0333	-2.4833	-2.5375	-3.0917	271.344	220.565	396.432	209.077	316.297	492.032	215.905	209.801	332.074	182.265	502.465	183.843	467.157	293.079	194.466	488.276	0.00078319	0.0029595	0.00084682	723.74	1.1626e-05	1.2219e-05	526.09	201.37	1.8168e-05	3.344e-05	156.43	60.022	74.156	25.093	1.9578e-05	22.392	0.12478	0.18348	0.051144	2642.2	0.0019374	0.0020468	1526.6	519.28	0.0018806	0.0020335	657.24	233.69	328.22	83.213	0.0019528	101.32	196.390	365.966	187.866	185.683	456.770	254.047	184.665	189.828	356.944	297.569	187.573	191.379	193.115	198.926	392.793	195.556	-8191	255	
29372.807	1	1	0	0	0.17113	0.072102	0.22791	0.040848	0.087046	0.046476	0.25129	0.19819	0.14355	0.10249	0.051284	0.29243	0.18896	0.2164	0.25566	0.1236	-1.9688	-2.8937	-2.8292	-2.1688	-3.1188	-2.3458	-2.6521	-3.0021	-2.3958	-2.8271	-2.8646	-2.4083	-3.0646	-2.4521	-2.4208	-3.0667	246.996	383.961	260.416	254.436	204.181	442.548	475.609	468.218	365.734	348.127	196.527	437.397	217.826	252.806	361.396	415.592	0.0006523	0.0023908	0.0012754	715.73	5.2974e-05	4.3193e-05	523.57	200.31	4.7427e-06	4.624e-05	157.18	60.545	74.207	24.838	1.0403e-05	22.188	0.12591	0.18539	0.051604	2662.2	0.0019606	0.0020672	1533.5	521.13	0.0018824	0.0020347	657.19	233.42	326.69	82.977	0.0019481	101.44	261.478	381.811	484.729	185.783	370.317	312.202	184.400	190.025	208.539	428.789	187.946	190.650	193.473	197.931	333.097	195.126	-8191	255	
29372.879	1	1	0	0	0.2014	0.27821	0.069612	0.20898	0.024155	0.17161	0.20088	0.20708	0.24133	0.097817	0.12374	0.16774	0.051545	0.13326	0.35854	0.055003	-1.9021	-2.8396	-2.925	-2.3125	-3.0625	-2.7854	-2.4583	-3.1708	-2.4479	-2.6188	-2.9188	-2.1979	-3.0187	-2.7917	-2.4854	-3.0312	372.477	333.784	297.697	173.621	375.735	208.957	185.960	500.460	322.065	212.068	414.247	394.010	177.797	248.720	342.862	419.198	0.00025323	0.003378	0.0013707	717.7	2.6731e-05	2.2633e-05	527.01	200.28	8.0622e-06	2.4112e-05	156.53	60.824	73.258	24.827	3.6953e-05	21.924	0.12621	0.18545	0.051879	2673.4	0.0019721	0.0020762	1542	525.07	0.0019023	0.0020549	663.86	235.32	328.98	83.236	0.00196	101.61	521.527	493.070	387.892	184.551	186.984	252.153	184.514	189.753	225.239	408.428	188.140	190.173	193.469	198.519	174.113	195.728	-8191	255	
29372.975	1	1	0	0	0.27689	0.10619	0.058386	0.16363	0.33856	0.18221	0.10244	0.14638	0.14278	0.12821	0.10056	0.21538	0.035482	0.084066	0.11264	0.11348	-2.0125	-2.5396	-3.0125	-2.2979	-2.9896	-2.6625	-2.3229	-3.1542	-2.4771	-2.5604	-3.1021	-2.3771	-2.9479	-2.8646	-2.0687	-2.9771	522.899	453.491	394.023	358.212	313.563	314.989	485.292	422.529	418.009	509.318	298.744	241.314	462.781	475.193	523.368	422.232	0.00023535	0.0015887	0.0021689	716.68	1.8641e-05	1.8852e-05	523.44	198.59	4.0434e-05	1.2358e-05	154.25	60.226	74.188	24.765	4.5657e-05	21.953	0.12584	0.18512	0.051908	2662.6	0.0019646	0.0020721	1539.2	522.86	0.0018941	0.0020447	661.78	234.48	327.64	83.041	0.0019598	101.15	500.225	392.215	227.536	185.519	277.256	374.722	184.445	189.966	461.204	305.118	188.488	191.859	193.394	198.826	345.150	194.693	-8191	255	
29373.070	1	1	0	0	0.085304	0.065868	0.013789	0.039121	0.26873	0.15957	0.14669	0.23844	0.24486	0.071072	0.15776	0.1328	0.13845	0.32654	0.31213	0.15643	-1.8979	-2.4292	-3.1188	-2.4333	-2.8563	-2.9354	-2.1646	-3.1292	-2.4042	-2.6292	-3.0521	-2.3375	-2.5375	-2.9333	-2.3333	-3.1271	448.032	328.283	373.416	453.936	173.307	372.663	172.989	486.909	424.730	496.917	522.139	193.296	530.861	221.127	193.770	228.778	0.00027964	0.0042529	0.00061529	716.46	1.6911e-05	3.3274e-05	514.33	198.35	9.782e-06	3.766e-05	154.84	59.733	72.639	24.8	1.8951e-06	21.596	0.12533	0.18484	0.051738	2653.4	0.0019511	0.0020617	1533.2	520.72	0.0018825	0.0020392	659.68	232.96	325.26	82.828	0.0019543	100.72	412.029	292.850	426.068	185.038	213.207	354.954	183.964	190.665	520.410	407.771	188.316	190.451	193.036	198.989	413.762	196.393	-8191	255	
29373.189	1	1	0	0	0.089054	0.12388	0.15926	0.24109	0.1612	0.3127	0.053433	0.23579	0.21159	0.076099	0.21912	0.11368	0.19688	0.12323	0.14541	0.070038	-2.3083	-2.4104	-2.9125	-2.5292	-2.6167	-2.9979	-2.3333	-3.0167	-2.7667	-2.5104	-3.0771	-2.4271	-2.7021	-3.1	-2.2917	-2.8563	389.939	474.214	307.913	430.525	183.255	438.363	356.776	181.505	266.475	431.595	531.370	333.520	450.195	510.008	246.573	247.030	0.00022335	0.0039927	0.0004979	705.12	5.0868e-05	4.1159e-05	514.19	199.06	1.6846e-05	4.4912e-05	152.61	60.179	71.607	24.898	4.6532e-05	21.706	0.1247	0.1845	0.051535	2636.1	0.0019381	0.0020529	1524.1	517.82	0.0018687	0.0020382	658.46	232.41	325.9	83.048	0.0019646	101.27	314.877	527.256	205.096	185.457	217.647	335.878	184.485	190.536	467.788	246.704	189.062	191.166	192.716	198.810	286.571	196.267	-8191	255	
29373.287	1	1	0	0	0.086866	0.25713	0.16358	0.10069	0.14749	0.12281	0.18494	0.17297	0.30631	0.019951	0.15003	0.17533	0.24544	0.24588	0.17694	0.3139	-2.5187	-2.1146	-3.0062	-2.4125	-2.5021	-3.0208	-2.4771	-2.9917	-3.0062	-2.4146	-3.1021	-2.6417	-2.5354	-3.2646	-2.4646	-2.8875	258.186	489.917	483.233	311.892	246.554	377.433	203.216	527.438	510.568	320.599	229.093	315.664	491.002	287.640	251.049	458.136	0.00035004	0.0013339	0.00053246	714.76	1.4356e-05	5.8761e-05	513.99	198.01	1.5236e-05	3.0814e-05	153.82	60.177	71.903	24.785	2.6272e-05	22.227	0.126	0.187	0.052273	2662	0.0019782	0.0020966	1543.1	522.48	0.0019097	0.0020742	664.91	235.29	330.27	84.083	0.0019873	102.26	241.314	232.054	231.663	185.691	184.247	203.480	184.704	189.869	349.865	523.387	187.866	190.919	192.744	198.981	308.621	195.589	-8191	255	
29373.383	1	1	0	0	0.043445	0.10206	0.10202	0.10022	0.29585	0.092142	0.10881	0.20372	0.077547	0.19278	0.11182	0.043737	0.22178	0.087445	0.19825	0.036739	-2.425	-2.3479	-2.9708	-2.7292	-2.4354	-3.1375	-2.3438	-2.9062	-2.975	-2.1583	-3.0417	-2.6042	-2.4313	-3.1146	-2.5021	-2.6104	470.686	459.037	272.746	412.759	374.185	290.689	214.679	528.919	419.713	346.677	470.040	210.876	508.963	312.489	432.749	330.748	0.00080105	0.0035966	0.00098182	713.29	2.7195e-05	4.2441e-05	518.48	200.19	1.8761e-05	2.5641e-05	153.26	60.769	72.907	24.851	1.0772e-05	22.246	0.12788	0.18955	0.052892	2687.3	0.0020073	0.0021277	1561.1	528.62	0.0019338	0.0020939	668.68	235.69	330.96	83.956	0.0019661	101.61	532.228	350.839	350.608	185.251	272.425	512.981	183.848	190.338	200.105	397.850	188.015	190.798	194.242	198.995	269.467	195.197	-8191	255	
29373.479	1	1	0	0	0.25374	0.14487	0.060112	0.1086	0.12579	0.18197	0.11839	0.3146	0.35069	0.1341	0.30481	0.20395	0.085074	0.076595	0.046039	0.09535	-2.6813	-2.2229	-3.0583	-2.7375	-2.4875	-3.1937	-2.5687	-2.8375	-3.0917	-2.3396	-3.0979	-2.7104	-2.3542	-2.9917	-2.55	-2.6	185.042	329.334	385.070	257.995	373.542	281.783	426.634	448.489	500.373	398.592	387.703	524.273	242.662	416.087	290.884	429.291	0.00015931	0.0033665	0.0010167	710.63	1.1705e-05	2.4469e-05	518.8	199.29	1.0708e-05	2.7467e-05	154.36	59.953	73.54	24.989	4.529e-05	21.593	0.12641	0.1863	0.051715	2650.3	0.0019632	0.0020727	1526.7	518.96	0.0018811	0.0020224	652.8	230.52	324.33	82.245	0.0019194	99.514	186.363	208.957	435.895	185.782	488.004	181.910	183.966	190.264	474.931	458.253	187.813	190.699	193.454	198.879	405.097	194.618	-8191	255	
29373.572	1	1	0	0	0.069211	0.11418	0.14031	0.15178	0.094276	0.24171	0.39113	0.13167	0.049672	0.3007	0.13049	0.15675	0.090507	0.33462	0.15201	0.14704	-2.6729	-2.3375	-2.9021	-2.9292	-2.175	-3.1	-2.6312	-2.6562	-3.1021	-2.4708	-2.9271	-3.0771	-2.3375	-3.0396	-2.5563	-2.4208	503.371	474.674	392.419	251.890	512.385	419.835	508.815	409.777	274.802	419.898	194.244	369.176	266.787	418.604	406.037	263.513	0.0008102	0.0020597	0.00037704	710.13	3.0824e-05	1.2035e-05	518.47	198.5	7.5377e-06	3.391e-05	152.57	59.152	72.436	24.6	2.1255e-07	21.496	0.12364	0.18197	0.050615	2611.2	0.0019368	0.0020345	1510.4	514.64	0.0018617	0.0020041	646.18	229.96	322.42	81.747	0.0019054	99.609	211.916	492.187	177.108	185.090	413.142	335.384	184.650	190.540	312.711	382.061	187.900	190.882	192.645	199.627	222.031	195.889	-8191	255	
29373.672	1	1	0	0	0.068947	0.051586	0.25887	0.20616	0.21131	0.04845	0.22298	0.11624	0.21591	0.099436	0.17977	0.12412	0.21749	0.18798	0.10703	0.13445	-2.8	-2.3563	-2.5563	-2.8854	-2.2396	-3.0458	-2.7188	-2.4458	-3.0312	-2.5375	-2.6146	-3.1042	-2.2792	-2.9062	-2.7354	-2.4562	444.609	460.976	263.625	370.005	302.603	229.049	420.844	341.171	516.482	520.928	473.501	182.201	489.018	199.983	214.341	188.682	0.00071818	0.0044688	0.0005638	712.4	3.7495e-05	2.8685e-05	519.53	198.54	1.9213e-05	1.3739e-05	149.99	59.57	73.034	24.944	1.1354e-05	21.498	0.12402	0.1828	0.051108	2639.2	0.0019457	0.0020572	1521.9	518.39	0.001885	0.0020266	654.18	232.75	326.05	82.675	0.0019396	101.14	501.935	415.905	306.652	185.609	298.162	420.139	184.448	190.142	492.108	321.248	187.475	190.427	193.350	199.348	468.420	195.766	-8191	255	
29373.789	1	1	0	0	0.20103	0.14263	0.14798	0.12375	0.10699	0.02649	0.23506	0.16053	0.26176	0.18935	0.1323	0.25256	0.1433	0.088998	0.21268	0.13644	-2.8	-2.6021	-2.5375	-3.1208	-2.3208	-2.9604	-3.0125	-2.525	-3.1167	-2.5229	-2.6937	-3.25	-2.2896	-2.9562	-2.9375	-2.4292	353.065	201.132	306.018	475.702	176.833	512.927	456.524	427.164	365.042	416.654	234.096	474.783	378.226	411.839	275.107	389.528	0.00050205	0.0020242	0.000788	713.59	2.7959e-05	1.7749e-05	523.78	199.81	2.207e-05	3.4746e-05	155.51	61.171	72.961	24.889	8.1894e-06	22.134	0.12579	0.18488	0.051831	2673.7	0.0019661	0.002073	1540.2	524.02	0.001892	0.0020385	659.83	234.39	326.76	82.667	0.0019335	101.12	209.241	483.813	374.834	185.854	439.122	357.547	184.486	189.778	441.598	501.906	188.126	190.328	193.257	199.004	501.636	195.226	-8191	255	
29373.887	1	1	0	0	0.061525	0.11332	0.085768	0.09902	0.36628	0.15347	0.24609	0.17344	0.21	0.09391	0.085353	0.32043	0.15815	0.19369	0.10876	0.21007	-2.6979	-2.7646	-2.3	-3.0583	-2.3354	-2.7458	-2.8958	-2.4	-2.9521	-2.7125	-2.3896	-3.275	-2.3146	-2.575	-2.9771	-2.4354	177.570	203.903	362.360	438.820	503.235	507.077	383.583	217.391	189.083	402.435	238.620	258.216	507.005	199.490	472.542	444.050	0.00030202	0.0022503	0.00081013	725.5	3.7799e-05	3.1275e-05	524.59	201.06	1.7367e-05	3.1142e-05	156.84	60.878	74.376	25.176	3.089e-05	22.143	0.12426	0.18275	0.051348	2659.3	0.0019432	0.0020464	1535.9	521.42	0.0018668	0.0020063	656.65	232.3	323.5	82.403	0.001932	100.62	265.061	265.422	251.456	185.260	365.678	244.711	183.480	190.157	350.171	335.947	187.857	190.496	193.364	199.242	275.893	195.262	-8191	255	
29373.982	1	1	0	0	0.052848	0.15897	0.11981	0.23898	0.12799	0.23004	0.13434	0.022033	0.16041	0.093984	0.18468	0.092697	0.11691	0.19765	0.18733	0.13668	-2.6375	-2.8104	-2.4313	-3.2583	-2.3125	-2.5354	-3.2271	-2.2958	-2.8771	-2.7021	-2.2271	-3.2	-2.4771	-2.7042	-3.1667	-2.3937	406.302	507.799	406.722	269.038	529.974	425.134	494.188	527.719	183.196	175.100	519.652	224.414	529.494	469.958	390.188	493.333	0.00069144	0.0024906	0.00035119	727.58	2.4566e-05	9.217e-06	521.25	203.13	4.1608e-05	8.8404e-06	157.17	60.708	72.891	25.164	2.559e-05	22.039	0.12411	0.18286	0.05161	2661.5	0.0019383	0.0020571	1541.7	523.41	0.0018838	0.0020378	664.13	235.2	327.4	83.627	0.0019664	101.72	267.850	192.178	423.652	185.630	263.566	207.204	184.366	190.400	436.649	396.707	188.529	190.699	193.843	198.547	317.272	196.971	-8191	255	
29374.104	1	1	0	0	0.18367	0.19672	0.15075	0.14509	0.36522	0.1785	0.097904	0.13562	0.16488	0.25473	0.24606	0.10356	0.21734	0.12703	0.13107	0.13158	-2.4958	-2.825	-2.1167	-3.0563	-2.4479	-2.5625	-3.2042	-2.4104	-2.5687	-2.9	-2.2458	-3.2083	-2.5729	-2.4188	-2.9854	-2.2625	282.821	502.899	395.742	379.893	477.649	198.756	412.525	478.472	471.854	428.496	202.195	244.635	430.181	330.751	415.256	275.804	0.00097738	0.0018551	0.00068954	738.46	3.589e-05	5.7918e-05	525.61	202.08	3.1085e-05	7.6854e-05	155.9	61.671	73.725	25.362	2.543e-05	22.34	0.12547	0.18567	0.052267	2677.7	0.0019614	0.002087	1553.2	526.02	0.0018939	0.0020548	664.28	234.96	326.78	83.816	0.0019687	101.78	496.234	361.712	467.015	185.487	296.670	260.909	184.375	189.746	277.152	376.911	188.977	190.927	193.251	198.390	239.773	195.340	-8191	255	
29374.176	1	1	0	0	0.022063	0.13107	0.030602	0.39733	0.43192	0.16595	0.073829	0.13263	0.38497	0.24327	0.29619	0.32481	0.27952	0.052066	0.26248	0.22057	-2.2146	-2.9062	-2.2104	-2.9938	-2.6958	-2.325	-3.2833	-2.4396	-2.7313	-3.0708	-2.2562	-3.0854	-2.7104	-2.2542	-3.1958	-2.225	437.480	225.187	479.404	243.129	441.201	492.356	490.433	518.116	491.148	252.825	442.468	464.189	526.912	209.674	242.404	521.185	0.00069215	0.002634	5.5871e-05	716.73	1.7876e-05	2.6602e-05	520.92	201.81	1.6043e-05	1.5749e-05	155.28	60.853	74.279	25.494	1.4258e-05	22.585	0.12623	0.18679	0.052352	2675.7	0.0019664	0.0020954	1554.1	525.08	0.0019003	0.0020648	665.73	235.03	328.16	84.024	0.001961	101.22	226.780	495.942	340.725	185.186	220.571	506.501	184.634	190.268	200.203	316.042	188.123	190.514	193.214	198.267	369.901	196.181	-8191	255	
29374.271	1	1	0	0	0.40275	0.073021	0.061395	0.09005	0.13322	0.075053	0.27551	0.28832	0.067441	0.1899	0.057131	0.1856	0.15113	0.1281	0.17359	0.20213	-1.9917	-2.9917	-2.3083	-2.9854	-2.8208	-2.3521	-3.3458	-2.4542	-2.5542	-3.1833	-2.3625	-2.9083	-2.8479	-2.3187	-3.0042	-2.6437	195.352	308.036	468.988	273.014	198.575	226.147	478.761	447.132	371.619	247.808	453.297	468.727	197.869	440.586	293.458	408.307	0.00029001	0.00087223	0.00059903	722.89	4.3017e-05	4.149e-05	524.52	201.96	2.1959e-05	4.7146e-05	156.18	61.398	73.512	25.038	4.2166e-05	21.917	0.12576	0.18648	0.051966	2664.2	0.0019647	0.002087	1544.2	521.47	0.0018914	0.0020504	658.94	232.48	325.31	82.645	0.0019198	99.339	340.149	281.580	524.526	185.347	324.893	274.566	185.067	190.097	264.159	528.500	188.122	191.271	192.622	199.251	245.765	195.343	-8191	255	
29374.367	1	1	0	0	0.20095	0.10247	0.076774	0.23153	0.26002	0.12437	0.10177	0.44926	0.32155	0.1349	0.057057	0.1606	0.29663	0.20628	0.05645	0.21798	-1.8708	-3.0708	-2.3458	-2.7542	-2.8729	-2.2875	-3.2104	-2.6292	-2.3542	-3.2208	-2.4896	-2.6646	-3.0083	-2.3667	-2.9583	-2.6208	375.246	271.805	272.449	449.624	393.296	425.439	518.761	418.816	223.060	505.454	191.064	217.125	454.187	503.017	370.883	429.331	0.00059153	0.0014019	0.00072896	725.95	1.1047e-05	2.8728e-05	523.16	199.58	4.4036e-05	1.485e-05	154.27	61.077	72.71	24.653	3.7317e-05	21.76	0.12343	0.18246	0.050722	2620.8	0.0019343	0.0020514	1520.9	515.97	0.001873	0.0020205	650.14	230.19	323.92	82.153	0.0019055	99.102	474.646	447.495	229.763	185.541	421.620	393.423	184.685	190.242	315.969	285.563	188.060	191.116	193.118	198.887	251.978	196.014	-8191	255	
29374.486	1	1	0	0	0.19036	0.1527	0.22027	0.27012	0.27306	0.14864	0.2103	0.14923	0.094554	0.12374	0.17775	0.10278	0.030553	0.023953	0.15641	0.1271	-1.9354	-3.1833	-2.3396	-2.6875	-3.0104	-2.2667	-3.0146	-2.7854	-2.1188	-3.1312	-2.3958	-2.6042	-3.0083	-2.2208	-2.7542	-2.9167	328.715	268.039	446.851	442.755	393.637	451.590	439.165	508.182	222.545	196.737	293.056	400.446	409.121	436.817	222.484	319.130	0.00011406	0.00035059	0.00046897	715.37	5.4801e-06	7.8658e-06	517.61	198.63	2.2988e-05	2.5948e-05	151.58	59.293	72.43	24.8	2.3177e-05	21.591	0.12357	0.18106	0.050295	2607.8	0.0019253	0.0020311	1507.3	513.75	0.0018637	0.0020098	646.6	229.93	323.19	81.932	0.0019157	99.539	459.062	298.595	332.853	185.532	444.954	198.162	184.480	189.853	281.522	271.302	188.128	191.044	192.895	199.167	389.018	194.323	-8191	255	
29374.582	1	1	0	0	0.0441	0.29611	0.17889	0.1101	0.17989	0.10928	0.19506	0.22357	0.070584	0.1183	0.098719	0.13906	0.10921	0.043409	0.23524	0.12294	-2.0208	-3.0417	-2.3729	-2.5667	-3.0646	-2.1792	-2.9562	-2.8958	-2.2917	-2.9542	-2.4729	-2.4375	-3.2062	-2.3021	-2.7771	-2.7771	462.322	484.399	212.246	408.964	242.933	281.461	492.482	506.622	349.967	531.852	437.456	172.266	505.029	398.343	356.629	323.832	0.0001295	0.0030395	0.0006992	712.65	2.2528e-05	3.7373e-05	518.34	198.99	2.0041e-05	1.6022e-05	150.51	59.705	73.056	24.66	5.5668e-06	21.988	0.12444	0.18282	0.050826	2643.1	0.0019524	0.0020541	1521	520.04	0.001892	0.0020335	654.69	234	326.92	82.682	0.0019477	101.26	205.614	351.385	326.907	185.805	191.709	342.578	184.365	190.136	242.507	270.214	188.105	190.408	192.509	198.772	424.992	195.081	-8191	255	
29374.678	1	1	0	0	0.26797	0.099714	0.1993	0.098801	0.16068	0.098504	0.2669	0.067386	0.14587	0.13287	0.19246	0.27945	0.30771	0.39402	0.04703	0.23437	-1.8125	-3.0312	-2.7083	-2.3417	-3.1271	-2.3646	-2.6875	-3.1562	-2.3458	-2.8937	-2.5812	-2.2646	-3.2438	-2.5542	-2.6542	-3.025	529.192	256.457	410.784	500.915	428.582	353.687	427.053	448.368	212.185	192.911	503.941	383.655	448.711	414.814	321.654	504.061	0.00062793	0.0025013	0.00026475	723.6	5.0097e-06	4.1409e-05	520.92	201.13	2.8683e-05	3.2104e-05	153.94	60.654	73.546	25.027	3.7118e-05	22.211	0.12634	0.1854	0.051831	2686.9	0.0019848	0.0020885	1551	529.12	0.0019283	0.0020731	667.8	237.96	331.45	83.547	0.0019775	102.55	172.474	251.998	281.551	185.897	389.618	452.551	184.426	190.368	248.355	389.959	188.071	191.778	193.016	198.620	275.362	196.319	-8191	255	
29374.752	1	1	0	0	0.16683	0.066645	0.13451	0.10186	0.083128	0.23091	0.12286	0.039904	0.16723	0.067423	0.13691	0.20139	0.30949	0.15561	0.069439	0.15007	-1.9708	-2.7812	-2.7083	-2.425	-3.1771	-2.6646	-2.6604	-3.0458	-2.1979	-2.9625	-3	-2.3187	-3.2	-2.6479	-2.4771	-3.2104	428.285	244.519	198.266	199.509	387.576	296.592	447.759	355.815	271.237	271.394	441.027	438.674	530.114	360.973	479.481	526.909	0.00074806	0.0023176	0.00049502	724.25	1.1609e-05	1.841e-05	520.42	200.24	1.7275e-05	3.6478e-05	152.84	59.971	73.666	24.836	8.3394e-06	21.974	0.12689	0.18556	0.052002	2680.7	0.0019588	0.0020537	1537.1	522.34	0.0018783	0.0020138	657.16	232.86	324.38	81.918	0.0019312	100.21	240.088	316.124	469.159	186.191	355.894	265.690	185.214	190.368	474.939	398.417	188.055	191.870	192.801	198.653	518.343	195.301	-8191	255	
29374.869	1	1	0	0	0.13309	0.11907	0.070206	0.0048825	0.064201	0.32057	0.15294	0.22514	0.14375	0.19471	0.15423	0.24401	0.10929	0.30476	0.209	0.16653	-2	-2.75	-2.9583	-2.4646	-2.9542	-2.5833	-2.4896	-3.1875	-2.4667	-2.9792	-3.0417	-2.3833	-3.1104	-2.6979	-2.4083	-3.0812	384.458	253.214	291.828	359.123	506.976	241.189	496.234	290.577	287.227	402.337	444.864	440.733	294.063	491.923	290.682	433.462	6.3681e-05	0.0032593	0.00047933	718.1	1.9625e-05	2.6157e-05	522.54	200.89	2.0151e-05	3.3316e-05	155.27	59.83	73.091	24.652	2.4421e-05	21.405	0.12323	0.18161	0.050952	2637.5	0.00192	0.0020242	1524.2	517.4	0.001845	0.0019961	653.66	230.46	321.68	81.706	0.0019346	99.898	252.473	197.226	327.009	185.911	251.589	531.732	184.491	190.808	391.421	390.854	188.384	191.699	193.439	198.971	337.237	195.391	-8191	255	
29374.967	1	1	0	0	0.23884	0.093401	0.10553	0.3183	0.24688	0.027323	0.24173	0.23559	0.16546	0.15021	0.14054	0.039063	0.15734	0.2257	0.20581	0.1426	-2.2354	-2.7229	-3.0229	-2.4375	-2.9562	-2.8271	-2.5	-3.1583	-2.3937	-2.6083	-3.0563	-2.2958	-2.8937	-2.8312	-2.3646	-3.1104	468.228	205.227	444.414	472.731	512.168	525.609	502.274	457.446	261.848	305.241	194.024	353.984	490.482	473.252	246.805	492.387	0.0010016	0.0010514	0.000718	730.81	2.4777e-05	1.8881e-05	522.33	201.59	2.6508e-05	1.3155e-05	154.94	59.989	72.938	24.708	5.6474e-06	22.049	0.12364	0.18338	0.051689	2659.8	0.0019487	0.0020741	1545.3	524.45	0.0018867	0.0020588	666.63	234.82	328.37	83.782	0.0019931	102.35	513.970	321.547	352.497	186.526	246.093	456.373	184.648	190.466	403.313	231.445	187.560	190.578	193.477	199.350	334.748	195.619	-8191	255	
29375.062	1	1	0	0	0.071641	0.046194	0.12261	0.18112	0.23803	0.092085	0.251	0.177	0.10293	0.2203	0.174	0.076081	0.1774	0.21746	0.067527	0.082705	-2.3271	-2.6833	-3.0521	-2.35	-2.9167	-2.9354	-2.375	-3.1521	-2.5083	-2.6208	-3.2271	-2.3708	-2.7271	-2.9479	-2.3146	-3.0146	215.388	462.311	299.571	461.083	320.029	361.676	365.755	453.973	404.223	429.785	225.744	517.177	194.749	230.462	478.263	489.536	0.00051168	0.00136	0.00096493	726.68	8.6364e-06	5.4134e-05	520.72	202.8	2.0824e-05	3.6364e-05	153.13	60.539	72.833	25.059	3.4242e-05	21.936	0.12716	0.18978	0.053222	2708.4	0.001996	0.0021283	1571.4	531.08	0.0019312	0.0021095	676.78	237.9	334.55	85.186	0.0020148	103.09	250.284	379.088	364.337	185.536	391.502	213.402	184.035	190.332	216.339	335.878	187.923	191.118	193.371	198.906	298.004	195.410	-8191	255	
29375.184	1	1	0	0	0.15802	0.20416	0.29924	0.35104	0.19838	0.088532	0.081822	0.053634	0.18457	0.06619	0.17436	0.11362	0.14244	0.2003	0.17757	0.11153	-2.2917	-2.15	-3.1813	-2.3958	-2.4313	-3.0521	-2.3771	-3.1063	-2.8354	-2.4896	-3.2917	-2.3229	-2.6708	-3.0583	-2.3708	-3.0396	415.197	240.580	401.043	518.450	275.508	471.745	399.492	272.684	525.931	228.038	506.841	425.393	490.969	512.222	509.468	237.457	0.00043526	0.0014361	0.001634	727.25	1.8918e-05	5.5414e-05	521.75	202.88	2.003e-05	2.4524e-05	154.9	60.016	73.074	24.867	4.2773e-06	21.913	0.12858	0.19196	0.053368	2713.4	0.0020188	0.0021481	1572.1	531.96	0.0019502	0.0021261	678.14	237.49	335.19	85.288	0.0020172	102.93	437.213	260.031	199.165	185.816	287.382	197.478	184.525	190.102	269.928	374.047	188.115	190.296	193.368	198.781	231.998	195.818	-8191	255	
29375.279	1	1	0	0	0.10625	0.13705	0.20865	0.28307	0.29359	0.24057	0.11372	0.27568	0.25293	0.19514	0.23207	0.12893	0.32368	0.041461	0.15267	0.30102	-2.4708	-2.2646	-3	-2.4479	-2.4979	-3.1688	-2.3583	-2.9813	-2.7083	-2.1771	-3.0583	-2.7208	-2.4188	-3.1312	-2.2938	-2.8771	347.421	332.585	441.806	385.519	402.074	493.450	353.319	195.366	470.400	243.100	457.406	485.628	438.192	427.477	220.947	508.638	0.00027944	0.0033927	0.00078023	723.84	2.6587e-05	6.0393e-05	519.63	200.69	2.7684e-05	2.4866e-05	152.76	59.286	71.795	24.756	7.2875e-06	21.746	0.12968	0.19237	0.053451	2714	0.0020374	0.0021643	1572.1	534.16	0.0019801	0.002152	682.44	240.76	341.67	86.293	0.0020413	104.39	180.329	230.479	507.113	185.100	249.695	433.134	184.530	189.959	285.612	305.200	187.924	190.749	193.241	199.066	454.984	195.565	-8191	255	
29375.377	1	1	0	0	0.10712	0.22131	0.067396	0.13629	0.17268	0.14704	0.12513	0.21838	0.27562	0.15205	0.17949	0.38375	0.22559	0.22098	0.27842	0.26764	-2.5333	-2.2229	-3.1104	-2.8125	-2.4542	-3.1167	-2.3771	-2.7604	-2.9354	-2.4146	-3.0312	-2.725	-2.4292	-3.2375	-2.3271	-2.7417	231.243	352.320	301.592	190.698	311.467	230.893	303.418	385.212	476.133	357.421	520.266	494.804	435.183	485.414	516.671	515.785	0.00048571	0.0018013	0.0003349	725.48	2.7397e-05	4.764e-05	516.91	202.23	3.4064e-05	3.1985e-05	155.63	59.876	72.285	24.842	8.1384e-06	21.774	0.1326	0.19521	0.054141	2743.3	0.0020719	0.0021861	1580.1	539.65	0.002011	0.0021666	685.72	242.45	344.37	86.595	0.0020551	105.74	203.744	461.875	409.017	186.399	381.182	495.064	184.512	190.484	269.772	462.340	187.704	190.378	193.465	198.797	411.718	195.343	-8191	255	
29375.473	1	1	0	0	0.1192	0.16724	0.16357	0.1397	0.18474	0.22494	0.17651	0.050232	0.14595	0.19651	0.10844	0.17323	0.041911	0.14462	0.20674	0.10737	-2.4896	-2.3187	-2.8812	-2.8	-2.5271	-3.1312	-2.5062	-2.4813	-2.9146	-2.3271	-2.9896	-2.7979	-2.1646	-3.1188	-2.4958	-2.7229	480.267	332.333	289.978	223.508	417.770	386.667	262.176	517.845	430.286	334.387	518.806	524.791	395.846	482.178	184.551	427.696	3.102e-05	0.00049636	0.00052756	722.6	3.9067e-05	3.1032e-05	515.43	201.9	1.9744e-05	1.9623e-05	153.85	60.675	72.945	24.708	1.4902e-05	21.762	0.13377	0.19636	0.054527	2772.9	0.0020885	0.0021986	1587	542.35	0.0020108	0.0021553	682.91	241.76	341.34	85.651	0.0020273	104.65	466.950	336.026	233.491	184.413	205.778	414.579	184.391	190.238	277.617	341.467	188.162	190.796	193.164	199.494	272.313	196.489	-8191	255	
29375.566	1	1	0	0	0.26046	0.22575	0.15589	0.25052	0.3	0.10491	0.13415	0.051029	0.12995	0.13738	0.094585	0.28139	0.14041	0.24251	0.22687	0.032621	-2.775	-2.3083	-2.8563	-2.8833	-2.1979	-3.2854	-2.6188	-2.6188	-3.0062	-2.3125	-2.9542	-2.875	-2.225	-2.9667	-2.5833	-2.4188	327.365	273.357	226.282	218.816	189.027	213.516	247.994	283.196	509.534	194.452	490.303	451.282	471.649	218.950	192.968	232.012	0.00045648	0.0026958	0.0014337	719.93	9.3e-06	4.2879e-05	518.33	198.41	6.2753e-06	2.5024e-05	153.33	59.002	72.77	24.83	2.0331e-05	21.612	0.13143	0.19176	0.053516	2746.8	0.0020481	0.0021448	1566.5	535.78	0.0019764	0.0021139	677.09	240.48	337.09	84.978	0.0020225	104.35	194.242	531.200	181.744	186.182	200.253	176.040	184.902	190.484	503.043	469.823	188.036	190.611	192.832	199.068	451.432	195.897	-8191	255	
29375.662	1	1	0	0	0.10285	0.1321	0.099304	0.39821	0.24284	0.15925	0.15205	0.14462	0.22292	0.14526	0.18713	0.10433	0.16713	0.14622	0.2053	0.15532	-2.5875	-2.2958	-2.6417	-2.9292	-2.0917	-3.0021	-2.7479	-2.4979	-3.2562	-2.4125	-2.6854	-3.0854	-2.3875	-3.1271	-2.7917	-2.35	460.214	316.096	380.784	256.412	251.475	240.283	500.230	512.728	456.498	488.690	310.672	354.331	437.929	172.943	390.346	483.643	0.00029291	0.0050445	0.0011047	716.04	7.2696e-06	3.0201e-05	513.94	198.86	2.0794e-05	6.3848e-06	151.76	58.974	72.012	24.457	1.6366e-05	21.655	0.13061	0.19083	0.053579	2741	0.0020369	0.0021315	1562.8	533.84	0.0019551	0.002093	674.18	238.94	334.28	84.436	0.0020288	104.18	532.392	273.636	213.414	185.760	518.392	294.683	184.206	190.431	343.369	400.742	188.275	191.148	193.665	199.090	333.439	195.400	-8191	255	
29375.783	1	1	0	0	0.05813	0.042492	0.013922	0.03457	0.15692	0.15705	0.23347	0.17847	0.16696	0.055842	0.10423	0.19882	0.06515	0.072332	0.10024	0.092602	-2.7021	-2.3229	-2.5042	-3.0583	-2.1792	-2.8063	-2.8438	-2.3563	-3.1146	-2.4042	-2.5646	-3.1146	-2.2083	-2.8625	-2.875	-2.4958	523.502	437.025	287.110	200.216	419.316	298.551	279.352	506.996	404.841	392.682	394.553	426.825	459.121	335.769	353.221	490.705	0.00023331	0.0033521	0.00032468	712.96	3.3589e-05	5.2766e-05	508.9	197.69	1.962e-05	2.7345e-05	148.96	58.188	69.83	24.35	2.0264e-05	21.498	0.13036	0.19085	0.053888	2736.1	0.0020206	0.0021293	1559.7	529.26	0.0019334	0.0020807	669.84	235.88	329.76	83.525	0.0020038	102.51	470.664	399.573	459.201	185.780	473.759	187.176	184.770	190.299	300.507	470.288	188.475	191.031	193.244	198.942	445.966	196.070	-8191	255	
29375.879	1	1	0	0	0.078718	0.34648	0.097128	0.12322	0.095665	0.11912	0.11519	0.2303	0.16922	0.12639	0.11138	0.373	0.23474	0.12793	0.10523	0.22708	-2.6042	-2.5292	-2.4354	-3.1208	-2.3771	-2.8125	-2.9354	-2.3208	-2.8812	-2.4708	-2.5208	-3.1437	-2.5333	-2.7854	-3.0375	-2.3854	389.808	485.222	528.152	428.747	423.090	407.344	476.678	498.888	249.828	495.256	402.858	430.989	491.495	501.422	466.951	455.931	0.0003498	0.0033306	0.00064491	709.64	2.0597e-05	3.6395e-05	509.14	196.95	1.7558e-05	5.6979e-05	149.06	59.172	70.579	24.717	1.7641e-05	21.8	0.12746	0.18826	0.053181	2700.4	0.001994	0.0021188	1556.3	528.18	0.0019344	0.0021038	676.72	237.89	332.31	84.741	0.0020348	103.58	459.876	439.578	190.509	186.038	509.636	527.446	184.756	190.278	467.060	315.662	187.113	191.175	193.192	198.177	196.826	195.770	-8191	255	
29375.975	1	1	0	0	0.066271	0.15107	0.23679	0.11649	0.1852	0.13479	0.057932	0.24369	0.32556	0.044494	0.30658	0.2564	0.2235	0.16335	0.11373	0.03355	-2.6188	-2.7812	-2.3812	-3.1292	-2.1875	-2.6917	-3.0708	-2.2625	-2.9813	-2.7729	-2.4562	-3.1813	-2.4562	-2.4104	-2.9896	-2.45	329.776	487.754	365.196	505.583	222.305	437.605	346.126	178.062	489.899	498.294	509.466	500.565	262.871	338.904	498.810	271.697	0.00041607	0.00090419	0.0013271	712.32	1.9987e-05	3.8065e-05	511.74	199.2	2.1728e-05	4.0099e-05	151.01	58.809	72.338	24.407	3.3249e-05	21.525	0.12946	0.19275	0.054189	2726.7	0.0020234	0.0021638	1572.2	532.51	0.0019564	0.0021335	679.45	238.26	332.95	85.028	0.0020227	102.68	219.558	504.912	473.020	185.881	277.228	329.605	184.422	190.057	238.701	223.670	188.373	191.121	192.793	199.132	436.969	196.319	-8191	255	
29376.047	1	1	0	0	0.1553	0.17196	0.1151	0.18424	0.21403	0.083935	0.16523	0.11834	0.40628	0.12503	0.035939	0.13446	0.029897	0.13486	0.1551	0.13104	-2.325	-2.7104	-2.3521	-3.0958	-2.5521	-2.3833	-3.1958	-2.2125	-2.8604	-2.925	-2.2062	-3.1063	-2.5854	-2.4354	-3.1	-2.5646	448.867	398.190	307.892	310.430	485.944	255.389	501.974	254.033	203.515	175.293	498.053	496.037	380.243	414.570	253.822	185.730	0.00071046	0.00073318	0.00030802	709.15	3.5829e-05	1.746e-05	503.71	197.9	1.6837e-05	1.4165e-05	150.62	58.636	72.033	24.268	3.0263e-05	21.279	0.12834	0.19117	0.053328	2689.2	0.001999	0.0021315	1554.1	525.02	0.0019263	0.0021004	668.54	233.9	328.6	83.772	0.0019729	100.45	529.887	384.439	191.841	184.940	317.920	256.682	184.710	190.056	326.714	427.505	188.039	190.573	192.595	198.542	294.100	195.429	-8191	255	
29376.168	1	1	0	0	0.077269	0.19936	0.11522	0.075214	0.11653	0.048111	0.17491	0.24575	0.12629	0.15095	0.15132	0.14106	0.055157	0.14067	0.080106	0.082358	-2.3167	-3.1292	-2.1375	-3.0958	-2.6813	-2.4958	-3.3312	-2.35	-2.5312	-3.0333	-2.2854	-2.9271	-2.7521	-2.3771	-2.9875	-2.5687	528.283	476.023	369.122	508.943	322.956	246.871	476.035	245.580	497.877	374.568	458.440	290.387	308.875	463.693	372.986	271.044	0.00088905	0.0018902	0.00028733	709.13	2.0705e-05	5.837e-05	507.23	197.16	1.041e-05	3.3414e-05	147.53	57.714	71.073	23.687	9.185e-07	21.486	0.12633	0.18723	0.05196	2639	0.0019521	0.0020797	1517.9	514.53	0.0018793	0.0020336	646.84	227.25	321.69	81.84	0.0019202	98.582	237.284	517.253	266.467	185.451	285.260	273.072	184.684	189.617	267.798	303.153	187.965	190.970	192.617	199.179	469.121	196.246	-8191	255	
29376.264	1	1	0	0	0.16666	0.14362	0.16848	0.15946	0.18244	0.063446	0.25422	0.19331	0.19418	0.2279	0.13048	0.17775	0.21218	0.10702	0.26786	0.21443	-2.1042	-2.9979	-2.4708	-3.1479	-2.5104	-2.3271	-3.2458	-2.5583	-2.5021	-3.2	-2.4167	-2.9083	-2.875	-2.3958	-3.0958	-2.5021	446.645	504.801	301.414	423.295	281.790	247.843	479.926	480.533	361.742	300.926	449.482	250.157	371.549	232.423	303.684	222.651	3.2906e-05	0.00393	0.0001212	706.54	4.0669e-05	2.3322e-05	511.17	195.25	3.7858e-06	2.0573e-05	147.91	57.802	71.239	24.226	1.967e-05	20.919	0.12487	0.1849	0.051174	2621.2	0.0019569	0.0020682	1511.5	513.23	0.0018859	0.0020371	648.24	229.08	324.59	82.08	0.0019248	99.41	434.415	423.174	489.911	185.433	213.544	236.059	184.684	189.719	294.023	413.230	187.310	190.638	192.441	198.788	244.376	195.109	-8191	255	
29376.359	1	1	0	0	0.38341	0.15363	0.11401	0.074411	0.060441	0.15576	0.16924	0.30084	0.23238	0.19645	0.13742	0.16024	0.11144	0.080848	0.239	0.22062	-2.1354	-2.9292	-2.2667	-2.8042	-2.8187	-2.5208	-3.0875	-2.6854	-2.4896	-2.9875	-2.4938	-2.8896	-3.0438	-2.2292	-3.0417	-2.5958	444.089	209.380	402.508	469.060	415.595	356.730	224.439	459.392	401.266	510.937	459.289	524.000	480.870	402.736	176.673	227.825	0.00053262	0.0036818	0.00076287	713.01	3.3908e-05	5.7594e-05	514.01	198.57	1.0406e-05	1.8404e-05	150.17	58.042	71.25	24.206	2.2472e-05	21.137	0.1257	0.18451	0.051122	2642.5	0.0019663	0.002076	1520.4	519.86	0.0019109	0.0020486	653.11	231.89	326.75	82.217	0.0019275	99.772	499.187	326.336	346.814	185.088	388.143	425.909	184.454	190.197	448.230	192.616	188.826	191.258	192.240	198.663	486.426	196.472	-8191	255	
29376.455	1	1	0	0	0.092969	0.13637	0.25812	0.18889	0.10547	0.14473	0.31602	0.27265	0.16411	0.096527	0.072535	0.29924	0.040447	0.13606	0.17611	0.41346	-2.0042	-3.0417	-2.3333	-2.6479	-2.9271	-2.2083	-3.2979	-2.9021	-2.425	-3.05	-2.5396	-2.6604	-3.0354	-2.3	-3.0375	-2.875	243.684	365.895	304.949	266.720	248.072	413.585	450.028	256.125	326.464	361.890	206.569	468.400	295.070	458.953	323.770	461.668	0.00026369	0.001507	0.00086095	718.92	2.3903e-05	2.2401e-05	512.25	198.26	7.5841e-06	7.8037e-06	151.97	58.436	71.34	23.976	3.7764e-05	21.159	0.1252	0.18251	0.050502	2635.7	0.0019355	0.0020252	1504.5	514.12	0.0018661	0.0019946	642.76	228.69	320.88	80.623	0.0018979	98.85	457.545	302.601	244.449	185.903	378.884	180.993	184.435	189.974	485.382	317.531	187.577	191.000	192.805	199.290	275.828	195.556	-8191	255	
29376.553	1	1	0	0	0.14505	0.23051	0.20353	0.23784	0.089871	0.10821	0.1246	0.073199	0.12592	0.19126	0.081277	0.096799	0.27942	0.26412	0.28079	0.23194	-1.9188	-3.075	-2.55	-2.3083	-3.1	-2.3208	-2.9167	-3.0354	-2.3521	-3.1896	-2.5604	-2.5479	-2.8333	-2.4062	-2.8312	-3.0542	258.804	315.968	412.435	336.900	193.989	210.010	417.106	226.737	423.559	345.013	277.874	451.340	517.906	230.871	336.930	488.911	0.00083634	0.0049893	0.00093197	719.83	1.4143e-05	1.3194e-05	516.24	198.8	6.3513e-06	1.1875e-05	150.77	58.928	72.17	24.525	1.9843e-05	21.371	0.12352	0.18058	0.050604	2647.1	0.0019408	0.0020357	1516	519.09	0.001875	0.002003	649.63	231.27	323.14	81.363	0.0019339	100.39	258.066	211.253	243.099	185.726	384.796	396.430	184.741	189.843	371.289	366.467	187.157	191.409	193.445	199.141	195.940	195.948	-8191	255	
29376.648	1	1	0	0	0.22219	0.040936	0.29624	0.062552	0.032678	0.29149	0.085983	0.23777	0.13505	0.16544	0.059186	0.1344	0.0084316	0.1945	0.19496	0.18443	-1.8333	-3.0417	-2.6188	-2.6271	-3.1854	-2.3354	-2.6604	-3.1312	-2.3292	-3.1271	-2.6896	-2.6771	-3.3312	-2.5021	-2.6875	-3.1875	202.466	516.191	525.767	356.174	219.940	447.366	225.733	489.344	463.424	490.603	288.717	292.043	447.926	485.282	248.648	459.455	0.00051682	0.0048363	0.00088254	714.94	1.9096e-05	5.7178e-05	514.13	198.96	3.6143e-05	7.754e-06	151.04	59.276	72.026	24.449	2.8264e-05	21.79	0.12468	0.18257	0.051455	2661.2	0.0019532	0.002055	1534.1	523.1	0.0018946	0.0020435	662.88	235.58	328.1	82.995	0.0019851	102.22	188.146	182.109	259.500	184.442	523.899	324.257	184.485	189.761	262.232	348.883	188.040	190.599	193.426	198.829	518.373	196.130	-8191	255	
29376.744	1	1	0	0	0.29365	0.048917	0.1219	0.11684	0.097199	0.087538	0.1178	0.14774	0.2457	0.075255	0.16048	0.25676	0.012732	0.15615	0.24205	0.03611	-1.8458	-2.9229	-2.8146	-2.2625	-3.15	-2.4958	-2.6562	-3.2042	-2.3875	-3.2417	-2.9667	-2.2313	-3.175	-2.4792	-2.5583	-3.0729	387.175	248.368	205.640	458.553	426.962	487.624	475.835	510.314	469.650	429.444	204.961	523.165	194.090	336.384	407.145	338.429	4.465e-05	0.0014589	0.00061023	717.48	1.1389e-05	3.9283e-05	523.61	200.56	2.4341e-05	3.7815e-05	152.08	59.841	73.339	24.231	2.563e-05	21.621	0.12674	0.18658	0.052633	2696.7	0.0019724	0.0020799	1548.7	525.8	0.0018919	0.0020493	664.83	234.26	325.53	82.581	0.0019689	100.89	478.433	527.052	386.072	185.384	208.266	266.309	185.120	190.236	284.583	433.248	187.946	191.842	193.319	198.746	415.041	196.465	-8191	255	
29376.863	1	1	0	0	0.08437	0.15719	0.2103	0.074346	0.15482	0.14098	0.13084	0.29377	0.14459	0.32369	0.30018	0.23985	0.17475	0.032001	0.21144	0.19967	-2	-2.7833	-2.8646	-2.4208	-3.1896	-2.7208	-2.6167	-3.0458	-2.4042	-2.9896	-3.0312	-2.2333	-3.0208	-2.6188	-2.2562	-3.0708	385.013	418.777	281.373	367.337	179.836	232.246	361.715	527.667	236.364	457.655	182.492	401.088	235.939	370.343	337.431	399.349	0.00022629	0.0023591	0.00075542	721.47	6.9388e-05	3.3078e-05	512.11	199.47	6.8585e-06	9.4275e-06	150.31	58.704	72.279	24.626	1.3214e-05	21.317	0.12425	0.1839	0.051817	2653.8	0.0019364	0.0020552	1534.7	518.82	0.0018607	0.0020338	657.23	231.32	322.53	82.368	0.001955	99.838	280.020	252.125	294.676	185.826	201.363	239.141	184.375	190.492	478.185	401.615	187.753	191.375	192.848	199.095	196.078	195.569	-8191	255	
29376.961	1	1	0	0	0.18146	0.10088	0.2881	0.15592	0.044552	0.055684	0.082399	0.075415	0.3998	0.17029	0.17229	0.23323	0.12703	0.38651	0.1517	0.22119	-2.0229	-2.6167	-3.0146	-2.2667	-3.0396	-2.6271	-2.6604	-3.2	-2.5021	-2.625	-3.0146	-2.2854	-2.9104	-2.6979	-2.4042	-3.2208	470.388	296.792	302.870	224.539	219.388	336.918	339.059	415.493	498.913	353.199	381.687	254.187	192.471	507.611	177.113	467.819	0.00053644	0.00117	0.00071732	710.77	1.5312e-05	1.2398e-05	516.29	197.69	2.4953e-05	2.1042e-05	151.41	58.282	71.866	24.276	2.2787e-05	21.25	0.12385	0.18483	0.051716	2636.4	0.001938	0.0020731	1528.9	516.53	0.0018721	0.0020481	656.43	230.32	322.95	82.555	0.0019489	99.433	492.463	455.470	249.576	185.545	445.862	241.232	184.847	189.937	332.343	267.540	188.306	191.124	193.095	199.430	263.195	195.215	-8191	255	
29377.057	1	1	0	0	0.22263	0.2598	0.32204	0.15625	0.23813	0.37098	0.23448	0.27841	0.054072	0.19404	0.040437	0.13989	0.17377	0.040621	0.20271	0.12021	-2.0792	-2.4542	-3.0979	-2.4125	-3.0271	-2.8854	-2.6729	-3.0812	-2.6021	-2.5938	-3.0396	-2.5062	-2.7667	-2.9458	-2.2938	-3.0917	498.159	485.287	343.482	483.940	192.373	363.837	407.396	444.050	385.557	332.340	407.646	505.475	439.419	196.664	331.683	257.375	0.0004217	0.0031839	0.00053802	714.74	2.2298e-05	4.6989e-05	512.12	196.74	1.2907e-05	3.2931e-05	150.2	58.771	70.701	24.063	1.3535e-05	21.577	0.12432	0.18531	0.051505	2625.3	0.0019344	0.0020613	1517.5	512.63	0.0018611	0.0020333	649.65	227.87	321.62	81.802	0.0019184	98.518	463.054	399.451	245.406	185.960	325.743	512.403	184.918	190.241	458.677	435.458	188.542	191.633	193.049	199.297	396.898	196.627	-8191	255	
29377.152	1	1	0	0	0.080419	0.080148	0.16233	0.19234	0.22119	0.098319	0.24307	0.12349	0.099297	0.095235	0.09167	0.1748	0.13078	0.072228	0.15622	0.17748	-2.3396	-2.4833	-3.2479	-2.4354	-2.725	-3.0042	-2.3854	-3.2375	-2.675	-2.5583	-2.9083	-2.5729	-2.7146	-3.1896	-2.2917	-2.9604	199.896	246.418	449.431	422.175	467.194	305.575	522.032	179.454	236.778	492.703	489.177	232.799	189.946	493.541	278.557	207.969	0.00028226	0.0017926	0.0011687	707.75	3.105e-05	4.7548e-05	503.07	195.62	1.2871e-05	4.5654e-05	148.91	57.653	70.826	23.866	2.4887e-05	21.134	0.1233	0.1826	0.050555	2595.2	0.0019244	0.0020428	1502.2	510	0.0018598	0.0020131	642.62	226.54	322.01	81.715	0.0019199	99.739	522.552	218.233	329.506	185.902	510.410	462.660	184.338	190.430	506.138	290.556	189.502	190.746	193.296	198.673	404.356	195.496	-8191	255	
29377.271	1	1	0	0	0.11432	0.24478	0.18843	0.28036	0.22638	0.075269	0.067279	0.032979	0.035908	0.22343	0.077375	0.11893	0.14497	0.19029	0.10822	0.14348	-2.1958	-2.225	-3.0479	-2.5125	-2.7604	-3.0167	-2.3104	-3.0771	-2.8625	-2.3146	-3.0333	-2.4792	-2.5646	-3.1937	-2.275	-2.9771	200.690	433.506	225.594	277.005	479.257	389.480	303.723	382.422	396.028	299.507	233.186	455.252	252.920	299.622	348.732	492.573	0.00013939	0.0045347	0.0012101	703.16	2.3958e-05	7.0207e-05	509.64	196.98	9.7492e-06	6.399e-06	146.44	58.168	71.571	24.394	2.3135e-05	21.417	0.12626	0.18668	0.051697	2659	0.0019971	0.0021057	1527	520.36	0.0019204	0.0020686	655.59	232.14	328.99	82.774	0.0019433	100.69	524.096	463.123	228.493	186.008	329.915	238.949	184.993	190.021	396.733	484.846	187.702	190.887	193.772	199.257	381.700	195.982	-8191	255	
29377.344	1	1	0	0	0.029891	0.13882	0.12875	0.19997	0.18775	0.11862	0.34384	0.20046	0.11969	0.085397	0.23132	0.22344	0.1712	0.10962	0.16872	0.08228	-2.3438	-2.525	-2.8729	-2.5458	-2.25	-3.0333	-2.3146	-2.9167	-2.9375	-2.1562	-3.0792	-2.5312	-2.3771	-2.9479	-2.2938	-2.7542	406.103	217.963	326.462	438.066	389.663	527.983	286.512	434.038	302.085	292.272	410.384	453.009	428.858	192.976	476.469	354.209	0.00061074	0.0020899	0.0011185	712.64	2.6038e-05	2.6888e-05	511.64	195.15	1.1235e-05	2.2581e-05	149.1	58.629	69.945	24.078	1.9607e-05	21.219	0.12677	0.18544	0.051521	2654.7	0.0019772	0.0020758	1519	519.34	0.0019115	0.0020484	653.68	232.83	328.84	82.906	0.0019651	101.96	210.807	254.841	484.440	184.926	377.889	323.455	184.090	190.454	330.543	352.734	188.257	190.678	194.060	198.842	379.466	195.068	-8191	255	
29377.465	1	1	0	0	0.26978	0.18134	0.29914	0.093469	0.098933	0.14186	0.24465	0.10363	0.23291	0.14188	0.096348	0.19795	0.012668	0.058064	0.24788	0.17427	-2.6167	-2.1937	-2.9771	-2.5938	-2.1208	-3.0062	-2.5229	-2.6042	-3.1604	-2.1729	-3.1271	-2.675	-2.2104	-3.2146	-2.3458	-2.6813	316.538	314.635	366.415	445.860	414.069	511.514	361.364	493.080	247.495	420.365	187.404	472.795	441.105	336.011	465.947	370.917	0.00038287	0.001597	0.00099569	709.22	4.0633e-05	5.7936e-05	503.66	196.02	1.3191e-05	2.1757e-05	146.93	58.08	70.948	24.554	2.9702e-05	21.67	0.12855	0.18824	0.052626	2704	0.0020222	0.0021221	1546.1	529.76	0.0019576	0.002102	669.58	237.5	334.84	84.174	0.0020186	104.25	212.185	216.699	461.073	186.114	297.883	411.999	184.122	190.051	472.654	466.298	187.644	191.395	193.988	198.617	210.192	195.857	-8191	255	
29377.559	1	1	0	0	0.31036	0.054969	0.23234	0.10939	0.053157	0.09153	0.21409	0.10551	0.087053	0.24524	0.2742	0.27994	0.21571	0.13615	0.12502	0.092703	-2.4938	-2.2729	-2.8167	-2.7792	-2.1667	-3.1646	-2.5208	-2.5625	-2.9458	-2.3312	-2.6021	-2.75	-2.4313	-3.1917	-2.4896	-2.4313	367.537	301.267	368.629	487.480	315.679	271.320	438.746	450.735	388.426	425.572	489.433	481.561	508.264	462.111	240.445	430.816	0.00057428	0.0012918	0.00043615	697.94	1.3118e-05	1.9369e-05	500.84	195.81	1.9027e-05	6.4955e-05	149.44	58.069	70.432	24.337	2.1969e-05	21.626	0.13101	0.19109	0.053844	2740.5	0.0020424	0.0021384	1559.4	533.28	0.0019693	0.0021134	677.16	240.46	336.93	84.952	0.0020496	104.95	374.303	307.766	240.280	185.577	429.455	325.982	184.661	190.519	402.485	454.825	188.032	190.944	193.771	199.113	185.971	195.953	-8191	255	
29377.654	1	1	0	0	0.215	0.067774	0.086044	0.10759	0.080928	0.20128	0.05855	0.26671	0.1299	0.039822	0.23457	0.13671	0.098225	0.11876	0.27368	0.13974	-2.6292	-2.1708	-2.7042	-2.8812	-2.1854	-2.9417	-2.6562	-2.4021	-3.1708	-2.4292	-2.6333	-2.9854	-2.3646	-2.9229	-2.725	-2.4125	176.690	426.473	180.855	337.603	209.666	420.808	470.333	474.045	291.993	200.950	432.281	360.297	471.664	298.208	418.890	243.315	0.00057761	0.0022695	0.00066777	716.41	2.3431e-05	3.0953e-05	516.54	198.89	2.0106e-05	4.2048e-05	150.81	58.588	72.525	24.572	1.6597e-05	21.976	0.13108	0.19278	0.054318	2759.3	0.0020483	0.0021583	1577.7	536.68	0.0019724	0.002126	682.83	241.21	335.94	84.992	0.0020504	104.8	176.697	392.188	455.963	186.171	412.402	318.235	184.455	190.676	391.438	515.025	187.413	190.248	192.617	199.551	429.676	196.216	-8191	255	
29377.752	1	1	0	0	0.16628	0.26903	0.13646	0.13117	0.10769	0.16411	0.14671	0.15614	0.29367	0.052489	0.085999	0.24287	0.065686	0.39347	0.20653	0.10715	-2.6625	-2.2292	-2.5375	-3.0417	-2.3917	-2.9854	-2.7667	-2.4604	-3.0917	-2.5271	-2.5375	-3.0375	-2.1229	-3.0604	-2.75	-2.275	478.328	461.006	397.287	420.126	489.360	424.285	363.674	530.614	506.813	178.021	515.337	287.327	362.824	504.053	264.445	303.821	0.00027783	0.0035879	0.00027665	719.08	3.674e-05	2.1344e-05	513.98	199.57	1.7396e-05	3.0248e-05	151.03	58.843	72.772	24.633	5.3128e-06	21.955	0.12977	0.19119	0.053789	2725.5	0.001999	0.002123	1560.8	529.13	0.0019228	0.0020903	674.95	236.59	330.93	84.398	0.0020215	103.19	476.618	324.617	466.212	185.855	363.311	398.893	184.481	190.571	374.976	506.318	188.594	191.716	193.646	198.381	250.864	196.107	-8191	255	
29377.871	1	1	0	0	0.13856	0.064775	0.06094	0.12777	0.10687	0.25749	0.12973	0.17175	0.069378	0.21804	0.20041	0.089859	0.21774	0.18299	0.34869	0.3551	-2.7125	-2.4667	-2.4625	-3.2292	-2.4396	-2.7917	-2.9375	-2.3854	-2.9583	-2.4313	-2.5271	-3.1729	-2.5438	-2.8063	-2.9354	-2.275	469.381	304.105	252.605	496.258	486.868	222.051	475.900	204.881	444.159	283.941	199.398	243.716	184.959	499.635	226.238	438.129	0.00047436	0.0049175	0.00053935	718.69	7.6699e-06	2.3963e-05	514.37	199.54	2.0777e-05	5.2805e-05	150.46	59.015	71.336	24.947	1.0477e-05	22.299	0.12831	0.19095	0.053683	2715.3	0.0020032	0.0021407	1567.2	530.49	0.0019358	0.0021098	676.79	237.03	332.93	85.039	0.002026	103.16	470.990	351.550	468.659	185.573	179.645	523.149	183.944	190.078	257.715	307.258	188.253	191.522	192.324	199.844	397.248	195.867	-8191	255	
29377.943	1	1	0	0	0.17431	0.1759	0.13925	0.11203	0.10355	0.10256	0.084505	0.10246	0.15552	0.10581	0.26387	0.048284	0.30959	0.0018976	0.096358	0.10312	-2.5167	-2.5292	-2.3208	-3.1312	-2.25	-2.7188	-3.2521	-2.3417	-2.9479	-2.7333	-2.4583	-3.0563	-2.4	-2.7625	-3	-2.3167	302.997	231.944	288.719	417.251	432.626	172.334	524.399	232.438	272.696	228.180	486.954	241.292	503.151	180.000	290.605	189.374	0.00057907	0.0021409	0.00046417	727.54	2.7922e-05	4.5253e-05	517.02	200.16	2.4431e-05	2.7468e-05	152.34	59.976	72.34	24.936	1.495e-05	22.103	0.12907	0.19262	0.053847	2720.9	0.0020235	0.0021641	1575.7	532.2	0.0019666	0.0021425	683.11	239.5	337.81	86.387	0.0020558	104.66	522.627	457.219	400.082	185.430	520.889	220.440	184.426	190.197	284.921	281.870	188.972	190.982	193.789	199.164	320.414	195.356	-8191	255	
29378.039	1	1	0	0	0.084647	0.40064	0.26453	0.1886	0.20281	0.31692	0.143	0.31571	0.14519	0.22447	0.043991	0.12484	0.085897	0.25881	0.1304	0.11128	-2.575	-2.925	-2.2979	-3.0542	-2.4229	-2.4167	-3.0312	-2.2562	-3.0333	-2.9167	-2.3042	-3.075	-2.3646	-2.525	-3.2292	-2.4167	441.152	397.746	395.130	320.730	213.260	380.228	503.261	398.937	324.268	435.392	305.972	452.190	424.405	485.244	511.549	500.611	0.00051486	0.001923	0.001735	716.59	2.8084e-05	1.5966e-05	514.91	202.3	3.6318e-05	7.1762e-05	153.95	60.105	72.809	25.352	3.0018e-05	22.314	0.13236	0.19626	0.054567	2756.8	0.0020692	0.002206	1588.6	537.56	0.0019997	0.0021684	687.08	242.17	343.49	87.41	0.0020732	106.23	490.399	227.790	311.377	185.670	490.307	383.221	184.115	190.334	207.682	409.315	188.500	191.444	192.124	199.332	495.653	196.076	-8191	255	
29378.137	1	1	0	0	0.075634	0.28558	0.29354	0.12035	0.14388	0.16061	0.14172	0.21771	0.047332	0.15346	0.15178	0.19598	0.16448	0.055555	0.21628	0.20139	-2.3333	-2.8937	-2.2938	-3.1771	-2.4938	-2.3896	-3.2979	-2.4562	-2.8354	-2.9458	-2.2396	-2.8812	-2.5583	-2.2896	-3	-2.325	346.252	448.577	246.859	353.412	424.438	200.442	193.008	507.506	355.966	380.651	415.456	248.620	448.804	188.286	425.697	347.414	0.0012062	0.0036167	0.00096831	722.99	1.1941e-05	1.932e-05	524.34	202.09	3.6644e-05	4.5253e-05	156.32	61.255	73.561	25.3	4.71e-05	22.343	0.13538	0.20016	0.055547	2810.9	0.0021322	0.0022622	1620.7	550.23	0.002072	0.0022322	703.35	249.32	351.93	89.182	0.0021162	108.82	527.121	236.126	344.151	185.070	221.214	324.570	184.811	189.742	280.640	342.243	187.555	190.996	192.943	198.773	286.940	195.390	-8191	255	
29378.232	1	1	0	0	0.14938	0.074529	0.14478	0.45017	0.11517	0.13707	0.096087	0.30147	0.13866	0.14877	0.38691	0.15343	0.22423	0.28805	0.16949	0.24104	-2.2354	-2.9271	-2.2896	-2.875	-2.6729	-2.3833	-3.2313	-2.4875	-2.5125	-2.9896	-2.3937	-2.8583	-2.9146	-2.3271	-3.1396	-2.6146	451.906	406.452	375.176	430.179	417.758	189.035	394.931	476.508	317.912	228.269	349.245	213.791	397.802	195.671	242.356	412.671	0.00078092	0.0012836	0.00041412	732.11	4.3294e-05	5.5498e-05	525.17	203.33	1.9898e-05	2.571e-05	155.22	61.494	73.481	25.257	2.2649e-05	22.618	0.13833	0.20327	0.056224	2852.6	0.0021566	0.0022712	1628	554.13	0.0020797	0.002232	703.28	250.43	352.16	88.902	0.0021153	109.06	500.989	261.847	278.139	185.628	314.562	371.896	184.394	190.386	254.860	339.401	188.252	190.362	193.540	199.089	183.189	196.096	-8191	255	
29378.354	1	1	0	0	0.28715	0.16362	0.18639	0.30295	0.12798	0.15135	0.3149	0.1444	0.16042	0.13991	0.23901	0.1394	0.1412	0.12911	0.14936	0.20352	-2.1604	-3.0229	-2.3792	-2.9042	-2.9792	-2.4396	-3.0354	-2.7417	-2.3521	-3.1021	-2.3979	-2.575	-2.95	-2.4625	-2.9521	-2.6729	259.267	223.775	372.975	233.828	397.832	439.137	394.000	334.630	473.967	437.640	217.225	500.895	480.834	383.084	200.468	505.311	0.00040178	0.0039079	0.0010165	730.1	3.1069e-05	2.9303e-05	520.3	201.95	1.3091e-05	3.1477e-05	154.49	59.881	74.136	25.316	2.0821e-05	22.414	0.13829	0.20261	0.056576	2868.9	0.0021684	0.0022756	1634.3	556.8	0.0020948	0.0022341	706.99	251.83	352.97	88.67	0.0021329	109.45	202.235	352.634	230.398	185.415	523.036	486.401	184.045	190.360	363.094	393.888	187.677	191.285	192.172	199.200	224.591	195.597	-8191	255	
29378.447	1	1	0	0	0.13169	0.032661	0.095509	0.16305	0.27815	0.15792	0.10654	0.18915	0.18789	0.14442	0.079665	0.15994	0.14202	0.11821	0.22806	0.15533	-1.9292	-2.9354	-2.1792	-2.6667	-2.8917	-2.2125	-2.95	-2.6063	-2.325	-2.9875	-2.4896	-2.5792	-3.0812	-2.15	-2.8812	-2.8646	236.572	254.015	484.046	255.782	354.071	526.355	506.147	487.060	424.759	372.646	524.958	210.831	304.916	215.628	312.762	347.595	0.00049889	0.0010654	0.00073703	726.93	2.6575e-05	6.5228e-06	523.3	201.88	3.1261e-05	3.4132e-05	155.58	59.794	74.848	25.462	3.2057e-05	22.68	0.13817	0.20128	0.056302	2855.4	0.002144	0.0022489	1626.7	553.96	0.0020716	0.0022209	706.5	251.61	352.31	88.839	0.00214	109.81	180.734	440.443	244.924	185.357	378.134	408.473	184.302	189.899	313.127	353.615	187.914	191.289	193.216	198.941	202.870	195.494	-8191	255	
29378.545	1	1	0	0	0.23175	0.025717	0.14589	0.17718	0.16005	0.13013	0.13817	0.09799	0.15532	0.026697	0.12829	0.074679	0.092367	0.16195	0.18285	0.4022	-1.7896	-2.9813	-2.4292	-2.5646	-2.9979	-2.4375	-3.0167	-2.925	-2.2417	-2.9708	-2.6167	-2.375	-3.1521	-2.3	-2.7167	-2.9167	315.436	200.789	365.832	529.803	342.370	243.594	459.913	362.839	442.331	211.896	457.447	335.021	361.977	450.669	282.391	315.076	0.00044483	0.0037513	0.00019606	727.31	2.417e-05	5.3334e-05	520.06	202.89	6.6188e-06	5.0358e-05	156.05	60.964	75.583	25.162	3.5723e-05	22.577	0.13753	0.20155	0.056554	2858.6	0.0021403	0.0022484	1630.8	553.28	0.0020462	0.002202	701	248.53	346.03	87.436	0.0021083	107.9	254.158	172.319	444.129	186.020	353.214	515.715	184.709	190.115	327.564	198.110	187.939	191.386	193.519	199.193	243.027	195.732	-8191	255	
29378.641	1	1	0	0	0.073025	0.12321	0.089628	0.05177	0.2729	0.10128	0.06682	0.10554	0.11512	0.018253	0.024608	0.14649	0.081102	0.2772	0.08991	0.23305	-1.8396	-3.0167	-2.6458	-2.5687	-3.1813	-2.3771	-2.8021	-3.0896	-2.3917	-3.0812	-2.7083	-2.4021	-3.175	-2.3771	-2.6208	-2.9646	268.221	491.448	460.491	386.067	190.043	181.949	375.996	432.190	172.421	273.947	221.044	500.746	328.002	192.011	355.368	517.976	0.00080488	0.003413	0.00088392	722.57	3.0059e-05	1.5856e-05	518.77	199.73	4.6739e-05	6.3759e-05	152.91	60.522	73.623	25.033	2.6967e-06	22.169	0.13467	0.19888	0.056083	2835.6	0.0021079	0.0022354	1623.9	548.52	0.0020278	0.0021913	698.94	246.84	343.93	87.282	0.0021005	107.09	176.664	237.702	462.989	185.585	344.836	328.366	184.196	189.906	341.601	282.312	187.211	190.667	192.946	199.369	250.284	195.606	-8191	255	
29378.736	1	1	0	0	0.10224	0.092847	0.15805	0.22792	0.26329	0.12761	0.17457	0.045094	0.12421	0.15046	0.25963	0.1109	0.10323	0.37644	0.070748	0.073262	-1.7625	-2.9479	-2.5771	-2.3604	-2.9688	-2.3729	-2.65	-3.0042	-2.2708	-3.0187	-2.7729	-2.3125	-3.1604	-2.575	-2.6083	-3.1104	352.271	456.110	188.942	503.463	301.373	196.928	461.787	398.415	480.866	296.327	400.023	202.396	487.606	501.442	438.725	526.196	0.00039196	0.0016654	0.00030539	720.16	1.2618e-05	2.2186e-05	515.75	200.62	2.0225e-05	4.2468e-05	151.76	59.428	73.36	24.709	4.0878e-05	21.616	0.13349	0.19841	0.055896	2806.2	0.0020901	0.002224	1611.4	544.44	0.0020092	0.0021882	692.9	243.46	341.04	86.661	0.0020821	105.52	393.703	501.052	373.032	185.800	267.979	472.707	183.813	189.948	239.081	456.072	188.038	191.044	193.228	198.756	350.139	195.681	-8191	255	
29378.832	1	1	0	0	0.067421	0.13017	0.35799	0.10495	0.17172	0.2167	0.047783	0.17354	0.10337	0.27031	0.070147	0.17507	0.14718	0.031777	0.071077	0.16467	-2.0396	-2.7896	-2.8875	-2.3333	-3.2104	-2.6292	-2.7167	-3.0833	-2.2708	-2.7188	-2.7562	-2.2438	-3.0083	-2.675	-2.4104	-3.1042	375.330	311.724	508.342	409.427	327.550	392.558	417.520	410.957	214.001	530.905	257.760	274.838	272.427	333.539	194.485	176.032	0.00075572	0.0013836	0.00072142	711.23	2.2e-05	2.4074e-05	514.58	199.88	1.585e-05	6.8896e-06	148.25	60.297	73.142	24.961	2.6967e-05	22.637	0.1327	0.19757	0.055589	2791.1	0.0021075	0.0022549	1622	547.8	0.002051	0.0022387	706.39	248.65	350.68	89.262	0.0021571	108.95	176.537	240.468	184.738	186.365	186.967	229.095	184.395	190.012	298.393	398.047	187.797	191.633	193.291	198.244	238.006	195.899	-8191	255	
29378.951	1	1	0	0	0.21118	0.12973	0.21127	0.16283	0.072751	0.25073	0.065814	0.044719	0.17382	0.077552	0.2528	0.070522	0.15042	0.11999	0.33072	0.40431	-2.0521	-2.75	-3.0667	-2.3146	-3.025	-2.5521	-2.425	-3.1604	-2.4813	-2.7562	-3.0667	-2.4375	-2.9542	-2.8	-2.3542	-3.2042	414.906	205.876	241.534	498.392	267.681	368.077	455.793	469.811	306.763	178.288	464.475	271.502	335.332	502.664	374.353	400.960	0.0003432	0.00064052	0.00061646	715.73	4.0255e-05	6.6405e-05	514.31	199.16	1.3546e-05	3.8975e-05	152.66	59.932	73.762	25.197	1.9085e-05	22.723	0.1378	0.20466	0.056933	2833.7	0.0021519	0.0022857	1633	551.91	0.0020786	0.0022604	709.81	249.99	353.88	89.773	0.0021635	109.85	219.394	385.477	172.289	184.948	256.124	400.297	184.862	190.259	272.013	408.539	188.700	191.217	192.723	198.915	428.980	194.827	-8191	255	
29379.049	1	1	0	0	0.035048	0.13203	0.14148	0.18468	0.19228	0.2806	0.17708	0.15726	0.076338	0.073693	0.14767	0.39629	0.079055	0.15118	0.083857	0.3977	-1.9917	-2.4458	-2.9417	-2.2875	-3.0583	-2.7583	-2.4875	-3.1667	-2.5292	-2.5583	-3.0042	-2.5125	-2.8646	-2.7667	-2.2354	-3.0563	417.848	361.349	432.382	410.242	455.947	310.688	392.798	487.733	199.784	313.028	463.283	510.239	292.967	437.890	374.993	504.002	0.00021786	0.001585	0.000523	724.99	1.7573e-05	2.3238e-05	520.08	202.08	3.0365e-05	1.3787e-05	152.88	60.437	74.12	25.244	3.9735e-05	22.404	0.14013	0.20843	0.057895	2888.5	0.0022053	0.0023353	1652.7	559.19	0.0021104	0.0022832	713.59	251.88	356.43	89.865	0.0021515	109.61	188.796	417.531	300.004	185.244	355.852	253.148	183.644	189.693	297.667	401.469	188.930	191.208	193.360	199.196	505.265	195.836	-8191	255	
29379.145	1	1	0	0	0.14367	0.14777	0.099472	0.22046	0.057281	0.15048	0.20633	0.1171	0.081206	0.25631	0.17126	0.1753	0.17955	0.051969	0.18526	0.24804	-2.1146	-2.3521	-3.0708	-2.3229	-2.7396	-2.9021	-2.2479	-3.1229	-2.6813	-2.4958	-3.0375	-2.4292	-2.5729	-3.1583	-2.1208	-3.0187	431.436	291.751	267.996	442.174	207.268	408.376	272.053	435.839	358.526	414.581	303.560	476.546	449.214	530.912	386.639	337.679	0.00054863	0.0023921	0.00072585	729.69	1.7093e-05	1.9322e-05	522.47	201.13	3.2152e-05	3.7174e-05	152.55	60.024	72.354	25.033	2.0729e-05	22.49	0.13923	0.20605	0.057149	2880.6	0.0021945	0.0023148	1645.3	559.41	0.0021068	0.0022659	707.34	250.04	352.76	88.606	0.0021134	108.03	230.375	343.125	471.002	185.740	280.596	341.510	183.965	189.809	213.947	483.751	186.614	191.043	192.926	198.756	351.793	195.849	-8191	255	
29379.240	1	1	0	0	0.099767	0.106	0.14225	0.23874	0.087218	0.19094	0.094094	0.072513	0.13144	0.10891	0.066202	0.10584	0.1626	0.36362	0.1259	0.19008	-2.3354	-2.3312	-2.9854	-2.1417	-2.5812	-3.1333	-2.1958	-2.8479	-2.5667	-2.3146	-3.1958	-2.4625	-2.6417	-2.9625	-2.3104	-3.0729	437.235	237.751	399.828	178.660	233.248	469.618	349.375	390.213	475.160	418.854	492.624	405.570	291.659	190.735	490.419	498.103	0.00048463	0.00044431	0.0010301	716.73	1.4298e-05	1.2347e-05	512.14	199.86	2.3675e-05	3.4332e-05	150.76	59.8	73.347	24.843	1.7441e-05	22.16	0.13673	0.20084	0.055808	2824.9	0.0021376	0.002246	1611.3	551.18	0.0020631	0.0022209	701.51	249.25	352.85	88.624	0.0021354	109.5	472.202	484.105	470.565	185.064	208.606	491.353	184.287	189.582	449.838	485.771	188.206	191.640	193.101	198.330	385.116	194.793	-8191	255	
#DATA ENDS
