BOXY.EXE: ISS Imagent and Oximeter Data Acquisition Program Version 0.80
Ascii Record File

#ACQ INFORMATION
2  Detector Channels 
16  External MUX Channels 
1  Auxiliary Channels 
5000  Waveform (CCF) Frequency (Hz)
1  Waveforms Skipped 
30  Waveforms Averaged 
1  Cycles Averaged 
16  Acquisitions per Waveform 
10.0806  Updata Rate (Hz) 

#FILE INFORMATION
TRUE -- External MUX Channel results are PARSED.
FALSE -- AC DC and Phase are NOT grouped.
TRUE -- Companion Program Settings File CREATED.
FALSE -- AC data not excluded
FALSE -- DC data not excluded
FALSE -- Phase data not excluded
FALSE -- Auxillary Chn. data not excluded
Tab delimiters

#CALIBRATION STATE
TRUE -- Waveform Calibration Values APPLIED.


#AUX CALIBRATION VALUES
Val Type	aux-1	

Term	1.0000e+00	
Factor	0.0000e+00	


#WF CALIBRATION VALUES
A = Detector Channel
Val Type	A-AC1	A-AC2	A-AC3	A-AC4	A-AC5	A-AC6	A-AC7	A-AC8	A-AC9	A-AC10	A-AC11	A-AC12	A-AC13	A-AC14	A-AC15	A-AC16	A-DC1	A-DC2	A-DC3	A-DC4	A-DC5	A-DC6	A-DC7	A-DC8	A-DC9	A-DC10	A-DC11	A-DC12	A-DC13	A-DC14	A-DC15	A-DC16	A-Ph1	A-Ph2	A-Ph3	A-Ph4	A-Ph5	A-Ph6	A-Ph7	A-Ph8	A-Ph9	A-Ph10	A-Ph11	A-Ph12	A-Ph13	A-Ph14	A-Ph15	A-Ph16	

Term	0.00000e+00	0.00000e+00	0.00000e+00	0.00000e+00	0.00000e+00	0.00000e+00	0.00000e+00	0.00000e+00	0.00000e+00	0.00000e+00	0.00000e+00	0.00000e+00	0.00000e+00	0.00000e+00	0.00000e+00	0.00000e+00	0.00000e+00	0.00000e+00	0.00000e+00	0.00000e+00	0.00000e+00	0.00000e+00	0.00000e+00	0.00000e+00	0.00000e+00	0.00000e+00	0.00000e+00	0.00000e+00	0.00000e+00	0.00000e+00	0.00000e+00	0.00000e+00	0.00000e+00	0.00000e+00	0.00000e+00	0.00000e+00	0.00000e+00	0.00000e+00	0.00000e+00	0.00000e+00	0.00000e+00	0.00000e+00	0.00000e+00	0.00000e+00	0.00000e+00	0.00000e+00	0.00000e+00	0.00000e+00	
Factor	1.00000e+00	1.00000e+00	1.00000e+00	1.00000e+00	1.00000e+00	1.00000e+00	1.00000e+00	1.00000e+00	1.00000e+00	1.00000e+00	1.00000e+00	1.00000e+00	1.00000e+00	1.00000e+00	1.00000e+00	1.00000e+00	1.00000e+00	1.00000e+00	1.00000e+00	1.00000e+00	1.00000e+00	1.00000e+00	1.00000e+00	1.00000e+00	1.00000e+00	1.00000e+00	1.00000e+00	1.00000e+00	1.00000e+00	1.00000e+00	1.00000e+00	1.00000e+00	X	X	X	X	X	X	X	X	X	X	X	X	X	X	X	X	

B = Detector Channel
Val Type	B-AC1	B-AC2	B-AC3	B-AC4	B-AC5	B-AC6	B-AC7	B-AC8	B-AC9	B-AC10	B-AC11	B-AC12	B-AC13	B-AC14	B-AC15	B-AC16	B-DC1	B-DC2	B-DC3	B-DC4	B-DC5	B-DC6	B-DC7	B-DC8	B-DC9	B-DC10	B-DC11	B-DC12	B-DC13	B-DC14	B-DC15	B-DC16	B-Ph1	B-Ph2	B-Ph3	B-Ph4	B-Ph5	B-Ph6	B-Ph7	B-Ph8	B-Ph9	B-Ph10	B-Ph11	B-Ph12	B-Ph13	B-Ph14	B-Ph15	B-Ph16	

Term	0.00000e+00	0.00000e+00	0.00000e+00	0.00000e+00	0.00000e+00	0.00000e+00	0.00000e+00	0.00000e+00	0.00000e+00	0.00000e+00	0.00000e+00	0.00000e+00	0.00000e+00	0.00000e+00	0.00000e+00	0.00000e+00	0.00000e+00	0.00000e+00	0.00000e+00	0.00000e+00	0.00000e+00	0.00000e+00	0.00000e+00	0.00000e+00	0.00000e+00	0.00000e+00	0.00000e+00	0.00000e+00	0.00000e+00	0.00000e+00	0.00000e+00	0.00000e+00	-2.55034e+02	-1.42192e+02	-1.58171e+02	-1.83275e+02	-9.83914e+01	-9.52191e+01	-1.58166e+02	-1.62015e+02	-1.11076e+02	-8.25393e+01	-1.72759e+02	-1.71492e+02	-1.85060e+02	-1.78311e+02	-8.15946e+01	-1.51161e+02	
Factor	6.84074e-05	1.16036e-04	3.77825e-05	1.75057e-01	1.19124e-06	1.02847e-06	2.01126e-01	6.52604e-02	1.39494e-06	1.20521e-06	1.15205e-01	3.44855e-02	6.48392e-02	1.06986e-02	1.09788e-06	1.56755e-02	7.61801e-07	7.68646e-07	2.13154e-07	8.53154e-02	8.43469e-09	8.40861e-09	9.13502e-02	3.13959e-02	8.44513e-09	8.40387e-09	5.21703e-02	1.57552e-02	2.79534e-02	5.07005e-03	8.41014e-09	7.10043e-03	X	X	X	X	X	X	X	X	X	X	X	X	X	X	X	X	



#DISTANCE SETTINGS
A = Detector Channel
A-1	A-2	A-3	A-4	A-5	A-6	A-7	A-8	A-9	A-10	A-11	A-12	A-13	A-14	A-15	A-16	

2.5000e+00	3.0000e+00	2.5000e+00	3.0000e+00	2.0000e+00	3.0000e+00	1.5000e+00	3.0000e+00	3.0000e+00	3.0000e+00	3.0000e+00	3.0000e+00	3.0000e+00	3.0000e+00	1.5000e+00	3.0000e+00	

B = Detector Channel
B-1	B-2	B-3	B-4	B-5	B-6	B-7	B-8	B-9	B-10	B-11	B-12	B-13	B-14	B-15	B-16	

1.0000e+01	1.0000e+01	1.0000e+01	1.4400e+00	1.0000e+01	1.0000e+01	1.5100e+00	1.9400e+00	1.0000e+01	1.0000e+01	1.9900e+00	2.4900e+00	2.4100e+00	2.9000e+00	1.0000e+01	2.9800e+00	




#DATA BEGINS
time	group	step	mark	flag	A-AC1	A-AC2	A-AC3	A-AC4	A-AC5	A-AC6	A-AC7	A-AC8	A-AC9	A-AC10	A-AC11	A-AC12	A-AC13	A-AC14	A-AC15	A-AC16	A-DC1	A-DC2	A-DC3	A-DC4	A-DC5	A-DC6	A-DC7	A-DC8	A-DC9	A-DC10	A-DC11	A-DC12	A-DC13	A-DC14	A-DC15	A-DC16	A-Ph1	A-Ph2	A-Ph3	A-Ph4	A-Ph5	A-Ph6	A-Ph7	A-Ph8	A-Ph9	A-Ph10	A-Ph11	A-Ph12	A-Ph13	A-Ph14	A-Ph15	A-Ph16	B-AC1	B-AC2	B-AC3	B-AC4	B-AC5	B-AC6	B-AC7	B-AC8	B-AC9	B-AC10	B-AC11	B-AC12	B-AC13	B-AC14	B-AC15	B-AC16	B-DC1	B-DC2	B-DC3	B-DC4	B-DC5	B-DC6	B-DC7	B-DC8	B-DC9	B-DC10	B-DC11	B-DC12	B-DC13	B-DC14	B-DC15	B-DC16	B-Ph1	B-Ph2	B-Ph3	B-Ph4	B-Ph5	B-Ph6	B-Ph7	B-Ph8	B-Ph9	B-Ph10	B-Ph11	B-Ph12	B-Ph13	B-Ph14	B-Ph15	B-Ph16	aux-1	digaux	

3211.295	1	1	0	512	0.060331	0.34932	0.18686	0.19429	0.20629	0.0080173	0.29877	0.23296	0.13799	0.32131	0.26237	0.21594	0.1191	0.093218	0.13167	0.33217	-2.0083	-1.7021	-2.3771	-2.3708	-1.6896	-2.65	-2.0812	-2.0479	-2.7375	-1.7792	-2.6562	-2.4021	-1.7396	-2.6771	-1.8958	-2.1083	156.416	190.046	141.515	287.288	230.651	255.370	308.786	268.385	291.068	327.118	60.735	362.597	266.766	319.115	368.794	355.402	0.0020856	0.00068716	0.00027206	1093.5	3.6879e-06	5.2074e-06	1542.8	305.72	4.1973e-06	9.0161e-06	514.59	180.15	99.416	48.522	3.9496e-06	88.399	0.00024715	0.00022478	7.0924e-05	964.74	2.5456e-06	2.4944e-06	1352.6	268.81	2.5078e-06	2.4239e-06	439.54	154.16	83.301	42.115	2.8039e-06	74.796	367.648	108.870	48.030	49.300	128.297	110.021	48.736	54.382	79.180	171.045	53.424	56.898	59.954	63.342	201.034	60.517	-8191	255	
3211.392	1	1	0	0	0.11703	0.13347	0.29095	0.11565	0.10649	0.1097	0.17494	0.13835	0.20348	0.15276	0.12529	0.1419	0.12621	0.093177	0.084844	0.15629	-2.3187	-1.3646	-2.1667	-2.4167	-1.6458	-2.4083	-1.9979	-1.9083	-2.6583	-1.6021	-2.2521	-2.4896	-1.475	-2.6562	-1.9479	-1.7021	284.342	182.784	195.566	305.537	326.113	369.605	239.803	376.871	243.590	105.996	195.666	263.441	376.173	64.041	240.664	341.363	0.0020675	0.00050506	9.6777e-05	1097.2	8.15e-07	7.1171e-06	1554.6	308.64	6.4313e-06	1.2182e-05	514.61	180.32	99.777	48.939	5.9015e-06	88.834	0.00023945	0.00023529	6.9875e-05	966.09	2.4655e-06	2.6449e-06	1358	270.17	2.4741e-06	2.6825e-06	442.14	154.86	83.775	42.519	2.7683e-06	75.276	386.935	77.848	53.584	49.137	255.854	178.114	48.792	54.264	225.081	198.633	52.981	56.893	59.446	62.831	186.526	60.198	-8191	255	
3211.512	1	1	0	0	0.31641	0.24091	0.20233	0.26164	0.27607	0.10018	0.49502	0.2293	0.28054	0.28155	0.19515	0.073815	0.12727	0.11296	0.069119	0.39833	-1.9667	-1.4542	-2.0229	-2.4729	-1.5312	-2.5896	-2.3125	-1.6979	-2.625	-1.5417	-2.1917	-2.5625	-1.4833	-2.4083	-2.3167	-1.8792	343.697	299.596	239.876	296.227	180.141	113.593	325.192	337.711	187.856	328.581	298.113	79.379	363.538	80.012	259.052	334.609	0.0019885	0.00089833	0.00022309	1100.6	5.4039e-06	3.3325e-06	1553.6	306.87	1.1109e-05	3.5815e-06	521.63	179.91	100.36	48.602	5.5166e-06	88.23	0.00023788	0.00025413	7.0235e-05	968.81	2.4496e-06	2.8274e-06	1358.4	269.88	2.5101e-06	2.8305e-06	443.99	154.8	83.878	42.348	2.7192e-06	74.874	372.289	80.923	87.648	48.936	206.950	231.747	48.243	54.211	159.753	146.995	53.259	56.513	59.110	62.966	130.987	59.945	-8191	255	
3211.608	1	1	0	0	0.023577	0.084441	0.084097	0.13849	0.25482	0.084667	0.17838	0.027239	0.29747	0.1994	0.16626	0.26782	0.31517	0.053259	0.26309	0.2363	-2.3333	-1.7542	-2.075	-2.6083	-1.5104	-2.4708	-2.5292	-1.6792	-2.6271	-1.8229	-2.0979	-2.8167	-1.4458	-2.3458	-2.2146	-1.7958	215.355	68.798	277.215	170.771	276.643	253.204	375.775	396.097	93.582	244.557	339.070	316.236	351.908	237.747	84.274	239.138	0.0022091	0.0003176	0.00019199	1100.1	5.8504e-06	9.4164e-06	1552.2	307.83	9.8929e-06	3.0573e-06	515.26	180.03	100.33	48.015	3.4662e-06	87.789	0.00025004	0.00026498	6.8053e-05	969.45	2.5964e-06	2.8712e-06	1355.9	269.53	2.6355e-06	2.8675e-06	440.99	153.75	84.071	41.816	2.6463e-06	74.072	382.883	69.233	114.492	48.824	194.954	160.383	48.328	54.502	159.340	207.911	52.982	56.615	59.016	62.712	225.961	59.731	-8191	255	
3211.705	1	1	0	0	0.17365	0.12063	0.066729	0.32092	0.25276	0.22889	0.19564	0.094594	0.061154	0.25622	0.068686	0.09002	0.22705	0.25325	0.15414	0.32211	-2.2146	-1.9438	-1.9979	-2.8896	-1.7854	-2.2708	-2.5438	-1.7833	-2.4813	-2.0062	-1.7729	-2.5917	-1.6646	-2.2396	-2.325	-1.8083	325.749	93.521	275.872	325.862	156.443	291.965	366.443	390.050	118.597	46.076	136.993	303.020	179.916	330.311	165.903	360.171	0.0022275	0.00043101	0.00018209	1103.2	2.5834e-06	7.0832e-06	1555.1	305.38	4.9177e-06	4.8027e-06	519.24	179.53	99.777	48.445	2.8211e-06	87.578	0.00026185	0.0002614	6.6246e-05	969.59	2.7804e-06	2.8107e-06	1358.7	268.16	2.822e-06	2.8426e-06	441.81	153.85	84.818	41.979	2.6661e-06	74.369	389.651	70.831	72.153	48.809	158.596	141.749	48.073	53.681	175.900	69.916	53.075	56.472	58.914	62.646	122.193	59.682	-8191	255	
3211.801	1	1	0	0	0.026855	0.095123	0.034762	0.11968	0.15743	0.069696	0.45384	0.18109	0.083034	0.24378	0.19561	0.18781	0.29305	0.20767	0.1791	0.53583	-2.0583	-2.2146	-1.4646	-2.6646	-1.6417	-2.0521	-2.3729	-1.6688	-2.4062	-1.9646	-1.6812	-2.4917	-1.8188	-1.9958	-2.3708	-1.6292	141.889	213.277	268.293	319.763	140.567	205.731	350.143	318.664	306.385	331.663	324.659	344.709	56.090	58.134	192.487	315.919	0.001812	9.9947e-05	0.00030461	1102.1	9.0018e-06	2.6808e-06	1561.2	306.7	6.8298e-06	5.4964e-06	514.64	179.64	101.31	48.28	3.2951e-06	87.995	0.00027278	0.00025719	6.5162e-05	969.86	2.9139e-06	2.7643e-06	1358.8	270.13	2.9188e-06	2.7288e-06	441.18	154.69	85.518	41.963	2.624e-06	74.875	387.328	120.641	70.120	48.747	132.128	98.917	48.197	53.688	221.367	301.873	52.612	56.330	58.354	62.704	237.041	59.761	-8191	255	
3211.897	1	1	0	0	0.13849	0.049449	0.23796	0.39223	0.13503	0.29689	0.31703	0.12098	0.13336	0.1992	0.10572	0.066181	0.17003	0.42311	0.16859	0.0803	-1.8271	-1.9167	-1.3625	-2.6208	-1.8042	-1.8083	-2.8083	-1.6417	-2.2417	-2.3125	-1.6125	-2.5292	-1.9917	-1.6792	-2.5	-1.7125	219.102	224.998	46.085	355.963	297.078	317.978	62.147	101.243	358.636	255.967	45.508	370.989	44.746	330.367	334.646	244.558	0.0019272	0.00034359	0.0001719	1099.7	9.6278e-06	4.4276e-06	1563.2	306.45	1.9711e-06	1.2845e-06	518.32	180.94	99.948	47.938	5.3356e-06	88.318	0.00027544	0.00024447	6.458e-05	970.32	2.948e-06	2.7175e-06	1364.5	270.46	2.9268e-06	2.7116e-06	442.38	155.41	85.158	41.779	2.5534e-06	74.774	368.226	143.634	108.871	48.808	126.773	154.842	48.009	54.068	112.538	223.888	52.513	56.327	58.713	62.614	159.387	59.584	-8191	255	
3211.993	1	1	0	0	0.14465	0.046614	0.18963	0.058996	0.09896	0.093918	0.16074	0.1031	0.0271	0.10399	0.19509	0.093975	0.083018	0.30262	0.24524	0.083698	-1.8667	-2.3438	-1.4667	-2.4708	-2.0062	-1.5562	-2.7396	-1.4979	-2.0104	-2.4146	-1.7646	-2.5646	-2.2229	-1.8167	-2.5208	-2.0062	216.610	365.361	320.588	321.250	374.034	388.780	347.918	279.178	251.667	374.960	316.170	36.369	366.928	310.045	313.547	357.187	0.0019235	0.00010723	0.00015529	1100.4	7.5594e-06	2.7988e-06	1562	307.16	1.2358e-05	7.4695e-06	516.58	181.31	100.96	48.143	6.1417e-06	87.444	0.00027716	0.00024657	6.4805e-05	973.87	2.9021e-06	2.6315e-06	1361.9	271.33	2.9073e-06	2.6862e-06	442.05	155.82	85.228	41.762	2.6578e-06	74.753	383.572	121.911	105.151	48.481	95.350	96.316	48.076	54.047	158.569	196.765	52.452	56.679	58.643	62.777	178.454	59.486	-8191	255	
3212.089	1	1	0	0	0.20617	0.14331	0.31027	0.49411	0.22656	0.097604	0.17306	0.11327	0.19587	0.3478	0.30871	0.30172	0.32258	0.18569	0.22994	0.12238	-1.4979	-2.1917	-1.6583	-2.2958	-2.2146	-1.5438	-2.6542	-1.8312	-1.7104	-2.4	-1.8354	-2.3646	-2.2375	-1.5083	-2.5729	-1.9875	184.468	124.948	281.671	340.512	313.305	82.126	373.171	123.842	279.880	354.611	385.702	340.930	160.779	360.346	192.773	275.757	0.0017552	0.00078874	0.00025474	1109.1	5.6824e-06	1.7827e-06	1570.1	308.88	7.3267e-06	1.8417e-06	521.47	182.08	101.83	48.314	7.8533e-06	88.154	0.0002754	0.0002468	6.864e-05	981.28	2.8893e-06	2.7302e-06	1370.4	272.81	2.837e-06	2.6849e-06	446.06	157.41	85.472	41.995	2.8326e-06	75.287	393.397	42.422	116.349	48.678	128.220	317.054	48.508	54.084	140.344	89.815	52.630	56.530	58.243	62.718	233.202	60.001	-8191	255	
3212.185	1	1	0	0	0.23155	0.21102	0.056398	0.019034	0.098869	0.2473	0.19706	0.24878	0.064816	0.14053	0.094515	0.31015	0.32713	0.31951	0.314	0.13028	-1.4292	-2.3104	-1.5167	-2.4021	-2.3187	-1.6604	-2.8	-2.0875	-1.7396	-2.8042	-1.8188	-2.25	-2.4521	-1.6875	-2.5875	-2.3021	246.542	138.592	67.772	85.800	117.388	199.407	238.995	390.978	259.076	208.576	319.951	372.024	89.723	375.517	282.224	287.877	0.0019781	0.00026816	0.00019533	1103.9	7.3261e-06	4.1716e-06	1570	309.2	8.3902e-06	4.7458e-06	523.14	183.39	102.13	48.487	4.2006e-06	89.228	0.00027591	0.00024523	7.3613e-05	980.89	2.8384e-06	2.6951e-06	1374.8	273.65	2.8502e-06	2.6858e-06	449.42	158.17	86.042	42.135	3.0561e-06	75.627	382.996	257.785	103.607	48.998	228.958	142.940	48.490	54.534	197.853	187.954	52.611	56.351	58.319	62.854	152.183	59.720	-8191	255	
3212.304	1	1	0	0	0.056708	0.18882	0.14761	0.16892	0.1433	0.16481	0.11601	0.12335	0.3461	0.19134	0.18898	0.12833	0.057212	0.42072	0.11202	0.29323	-1.425	-2.5958	-1.6208	-2.4521	-2.5312	-1.5458	-2.675	-2.0187	-1.5938	-2.6146	-1.8646	-1.9667	-2.3875	-1.6375	-2.1875	-2.1833	318.214	348.962	322.751	348.115	395.957	264.031	54.853	119.704	376.191	93.422	58.903	321.040	261.384	336.225	377.711	395.170	0.0023347	0.0012095	0.0001495	1110.2	3.2791e-06	6.575e-06	1575.2	307.19	5.4858e-06	3.653e-06	520.1	183.47	101.05	48.711	4.6089e-06	88.586	0.00027338	0.00024992	7.8878e-05	982.89	2.8457e-06	2.7178e-06	1380.1	272.59	2.8438e-06	2.8115e-06	448.58	157.99	85.956	42.209	3.2067e-06	75.495	382.018	133.079	230.895	48.717	107.297	162.586	48.777	54.103	192.799	212.406	53.055	56.347	58.965	62.846	181.370	59.958	-8191	255	
3212.400	1	1	0	0	0.1841	0.26051	0.18563	0.11713	0.10932	0.13599	0.17965	0.11771	0.14883	0.09279	0.30641	0.25812	0.26875	0.21514	0.19362	0.10429	-1.2771	-2.375	-1.6458	-2.1937	-2.5271	-1.5042	-2.3937	-2.3021	-1.4708	-2.6021	-1.9562	-1.9042	-2.5687	-1.8062	-2.35	-2.3729	188.453	366.197	222.165	386.794	283.406	40.398	338.361	44.382	301.729	76.340	331.182	246.206	82.590	384.314	375.400	310.352	0.0016961	0.00022435	9.0086e-05	1115.1	7.4161e-06	5.1979e-06	1586.7	311.93	8.759e-06	1.8666e-06	525.42	185.26	102.73	48.887	3.2945e-07	89.825	0.00027509	0.00026659	8.1858e-05	985.5	2.8953e-06	2.9617e-06	1387.4	274.76	2.8519e-06	3.0104e-06	452.24	159.24	86.685	42.596	3.2615e-06	76.122	387.822	172.167	138.623	48.892	183.170	178.242	48.293	54.337	150.747	167.759	52.910	56.215	58.235	62.457	49.610	59.575	-8191	255	
3212.474	1	1	0	0	0.24599	0.25775	0.11252	0.055031	0.11003	0.076559	0.041014	0.2221	0.2186	0.048299	0.24016	0.17865	0.1885	0.062957	0.063145	0.31603	-1.1313	-2.4313	-1.8771	-1.8062	-2.5062	-1.6771	-2.3354	-2.4375	-1.5542	-2.5583	-2.025	-1.8292	-2.4104	-1.7021	-2.0146	-2.4333	392.936	377.853	218.410	358.644	314.124	103.175	310.573	319.650	196.300	138.643	329.904	328.746	90.558	86.361	147.342	372.990	0.0017747	0.00059128	9.4697e-05	1115.3	8.8308e-06	3.4372e-06	1583.7	312.16	6.6016e-06	2.7451e-06	527.61	185.47	103.44	49.055	2.2908e-06	90.211	0.00027159	0.00028861	8.1916e-05	987.87	2.8789e-06	3.1935e-06	1390.4	275.46	2.8513e-06	3.2191e-06	453.78	160.29	87.602	43.056	3.1757e-06	76.716	390.273	129.469	105.419	48.823	109.914	229.036	48.282	53.781	175.832	191.779	52.256	56.833	58.696	62.770	169.307	59.747	-8191	255	
3212.593	1	1	0	0	0.18486	0.21321	0.2412	0.34611	0.15603	0.10455	0.1504	0.19177	0.25427	0.01562	0.036223	0.087856	0.31621	0.22216	0.19619	0.18774	-1.1396	-2.6	-2.4021	-1.8979	-2.5896	-1.8687	-2.3271	-2.5729	-1.6187	-2.3729	-2.4104	-1.8188	-2.6979	-1.9125	-1.9875	-2.9271	355.839	251.710	254.033	296.753	359.641	121.242	318.311	100.361	50.057	126.392	278.723	51.110	344.461	348.483	338.570	319.573	0.0018338	0.00044042	0.0002733	1113.8	6.9455e-06	7.4829e-06	1586.4	311.51	1.5701e-05	1.1766e-05	525.8	185.48	103.53	48.913	6.7011e-06	89.533	0.0002779	0.00030169	7.951e-05	985.86	2.943e-06	3.288e-06	1387.5	274.77	2.947e-06	3.3352e-06	451.09	159.73	87.545	42.766	3.0391e-06	75.963	374.888	124.456	52.989	48.949	195.257	113.505	48.616	53.974	159.762	196.486	52.888	56.740	58.230	62.358	233.567	59.928	-8191	255	
3212.689	1	1	0	0	0.19662	0.13176	0.10421	0.38888	0.021186	0.16102	0.14646	0.066598	0.14592	0.28903	0.25534	0.44324	0.055675	0.15934	0.13745	0.42186	-1.2437	-2.4833	-2.2875	-1.75	-2.35	-1.8292	-1.8583	-2.6375	-1.6708	-2.1958	-2.6063	-1.8083	-2.5062	-1.9458	-1.8521	-2.5771	255.116	77.413	316.530	316.419	275.820	87.887	339.773	67.188	350.462	348.126	63.617	381.033	88.919	360.738	327.975	361.059	0.0018027	0.00081683	0.00016117	1107.5	6.4208e-06	3.1766e-06	1582.6	311.16	1.257e-05	5.7243e-06	525.15	185.59	102.6	49.055	3.5674e-06	89.691	0.00029117	0.00029991	7.7038e-05	979.84	3.1048e-06	3.3066e-06	1386.1	273.6	3.1022e-06	3.2309e-06	449.73	159.45	87.769	42.827	2.9854e-06	76.272	377.760	386.462	112.441	49.470	190.381	288.694	49.030	53.992	173.560	349.110	52.824	56.804	59.360	62.382	75.038	59.832	-8191	255	
3212.785	1	1	0	0	0.043408	0.13767	0.092082	0.1763	0.1274	0.098943	0.12302	0.24765	0.19579	0.028759	0.2166	0.083091	0.14374	0.14745	0.1797	0.051022	-1.3479	-2.2	-2.3875	-1.8271	-2.5667	-2.1937	-1.9354	-2.6542	-1.8625	-2.0708	-2.6292	-1.7708	-2.5917	-2.3083	-1.95	-2.9417	222.799	305.275	283.220	373.040	191.949	257.005	36.021	321.282	111.327	185.482	248.554	96.367	325.786	136.418	367.243	73.710	0.0016836	0.00061002	0.00010917	1118.7	4.208e-06	3.5833e-06	1587.3	310.9	9.2037e-06	9.5772e-06	527.53	185.65	103.3	49.162	4.3805e-06	89.983	0.00030452	0.00029273	7.6136e-05	985.65	3.229e-06	3.1859e-06	1384.9	273.9	3.2729e-06	3.1131e-06	450.8	159.9	88.302	42.913	2.9235e-06	76.708	386.515	164.620	84.474	48.856	139.399	382.440	48.557	53.908	128.410	126.604	52.960	56.955	58.969	62.934	314.415	59.963	-8191	255	
3212.881	1	1	0	0	0.16445	0.16165	0.050046	0.32539	0.19721	0.2673	0.20805	0.46289	0.15842	0.27281	0.056513	0.29363	0.19974	0.13991	0.074639	0.12069	-1.3854	-2.0146	-2.7938	-1.7521	-2.5062	-2.1021	-1.9083	-2.4125	-1.675	-1.7812	-2.45	-1.8375	-2.3812	-2.2729	-1.6667	-2.7583	112.700	289.832	211.672	393.841	196.007	194.790	317.799	348.885	91.924	122.759	304.033	321.253	201.782	379.833	373.522	282.189	0.0015444	0.00053409	0.00017493	1111.1	3.7529e-06	8.232e-06	1586.7	312.91	3.7212e-06	3.3179e-06	523.79	185.61	102.73	49.093	6.0756e-06	89.889	0.00031519	0.00028034	7.3296e-05	982.6	3.2776e-06	3.0228e-06	1379.5	275.18	3.2507e-06	2.9307e-06	449.22	159.67	87.972	42.792	2.8152e-06	76.407	393.370	45.968	159.344	49.563	208.467	167.777	48.915	54.431	141.549	58.977	52.881	56.930	58.839	63.110	158.621	59.993	-8191	255	
3213.002	1	1	0	0	0.26185	0.32852	0.10481	0.18252	0.22154	0.16426	0.39904	0.18064	0.20628	0.18035	0.17627	0.20507	0.25333	0.39763	0.13329	0.10006	-1.6917	-2.0396	-2.6937	-1.8458	-2.4958	-2.3146	-1.6896	-2.6813	-2.225	-1.9	-2.7667	-1.9292	-2.3438	-2.7771	-1.6938	-2.7646	361.158	299.707	145.229	392.687	40.389	141.416	319.205	310.263	42.165	104.290	284.335	43.253	318.239	347.229	236.038	42.470	0.0015261	0.0004674	0.00024672	1110	1.0585e-05	2.0972e-06	1577.5	310.85	8.822e-06	3.1419e-06	520.71	184.18	102.21	48.912	3.6924e-06	89.316	0.00030658	0.00026718	7.0344e-05	981.71	3.1625e-06	2.8915e-06	1376.6	274.24	3.1497e-06	2.9009e-06	446.73	158.8	87.251	42.562	2.8068e-06	76.212	377.293	158.271	53.690	49.530	195.243	229.214	48.880	54.497	133.398	73.345	53.068	56.729	59.044	62.789	225.156	60.224	-8191	255	
3213.096	1	1	0	0	0.12655	0.17429	0.33306	0.25648	0.1746	0.40758	0.45525	0.40998	0.16211	0.18425	0.22635	0.047492	0.087419	0.11343	0.08384	0.22576	-1.9146	-1.6437	-2.7229	-2.0271	-2.1208	-2.7208	-1.7958	-2.6396	-1.9708	-1.9438	-2.8271	-2.0563	-2.1521	-2.7604	-1.6437	-2.4542	111.214	92.810	187.924	291.097	61.311	309.558	52.788	372.296	106.385	159.939	311.479	383.055	54.235	292.294	157.939	329.157	0.002135	0.0006682	0.00026559	1104.7	2.7732e-06	3.7529e-06	1571.5	309.76	9.1014e-07	6.6603e-06	522.2	184.54	101.14	48.738	9.9247e-06	90.078	0.000291	0.00025588	7.0022e-05	978.78	2.9728e-06	2.8242e-06	1368.4	273.69	3.0295e-06	2.7997e-06	447.88	159.13	86.391	42.617	2.8363e-06	76.933	394.727	115.720	113.918	49.305	284.481	85.880	48.566	54.191	39.901	208.071	52.907	56.519	59.526	63.233	182.606	60.266	-8191	255	
3213.194	1	1	0	0	0.14782	0.097955	0.22246	0.13744	0.23497	0.067735	0.39727	0.097238	0.049914	0.10595	0.13515	0.082968	0.080591	0.20003	0.11424	0.20201	-1.9854	-1.4188	-2.425	-1.9417	-1.9417	-2.5625	-1.7563	-2.3708	-2.4	-1.6917	-2.7271	-2.0104	-1.7042	-2.7125	-1.5042	-2.4021	108.991	377.605	286.366	56.476	84.168	214.669	342.435	58.929	102.988	50.243	308.236	47.762	162.958	345.378	250.267	300.601	0.0017373	0.00023175	0.00019986	1103	3.68e-06	6.9552e-06	1575.4	311.88	5.5349e-06	3.1164e-06	528.13	186.48	102.53	49.069	6.0503e-06	90.404	0.00028303	0.00025593	7.4227e-05	980.82	2.9589e-06	2.7932e-06	1378.3	275.66	2.9174e-06	2.7732e-06	451.41	160.34	87.061	42.741	3.0889e-06	76.936	395.060	295.785	125.701	49.093	250.326	139.893	48.575	54.097	147.970	371.567	52.758	56.832	59.184	62.870	125.002	59.619	-8191	255	
3213.288	1	1	0	0	0.1439	0.2122	0.18979	0.22401	0.21529	0.20236	0.31471	0.15854	0.040753	0.11731	0.26871	0.44745	0.52444	0.20997	0.1201	0.22704	-1.9854	-1.3167	-2.3438	-2.0708	-1.5625	-2.5771	-1.8	-2.3042	-2.2708	-1.6979	-2.6083	-2.1771	-1.7687	-2.7167	-1.8687	-2.025	95.009	377.569	182.563	388.188	135.197	219.985	309.614	188.092	106.652	252.917	370.437	58.094	57.302	64.382	376.133	359.680	0.0015806	0.00026284	0.00027364	1098.1	4.646e-06	1.8176e-06	1583.1	309.94	1.0656e-05	5.0054e-06	526.56	184.21	101.83	48.955	9.6032e-06	89.329	0.00028066	0.00025511	7.8192e-05	978.34	2.877e-06	2.7624e-06	1381.9	274.36	2.9244e-06	2.7772e-06	450.84	158.79	86.191	42.375	3.1753e-06	76.207	392.344	86.042	137.693	48.696	117.665	269.786	48.601	53.940	140.626	142.338	52.785	56.276	58.609	63.034	369.511	60.236	-8191	255	
3213.385	1	1	0	0	0.10112	0.11553	0.16286	0.13518	0.35055	0.32577	0.33818	0.34904	0.28814	0.060427	0.24982	0.38388	0.015556	0.29677	0.050617	0.20744	-2.0938	-1.5021	-2.4646	-2.5208	-1.8042	-2.8375	-2.1417	-2.0875	-2.5938	-1.5125	-2.3208	-2.4479	-1.5812	-2.4688	-1.9792	-1.7792	129.776	332.814	148.277	234.982	306.489	159.434	335.929	71.415	89.382	352.833	354.167	359.805	56.023	74.221	62.156	361.944	0.001937	0.00048028	0.0002118	1101.2	5.1016e-06	4.4645e-06	1576.9	310.92	7.9449e-06	5.6021e-06	523.63	183.74	102.18	48.983	5.5422e-06	90.01	0.00027624	0.0002622	8.0219e-05	977.89	2.8481e-06	2.8639e-06	1377.6	273.2	2.832e-06	2.8938e-06	450.71	158.71	86.286	42.721	3.1927e-06	76.632	40.826	124.179	363.978	49.114	146.873	162.805	48.518	54.114	41.451	165.950	52.707	56.374	58.255	62.376	270.147	59.630	-8191	255	
3213.481	1	1	0	0	0.044465	0.23157	0.16485	0.31627	0.11569	0.086515	0.35402	0.3523	0.2448	0.12646	0.29034	0.17125	0.28106	0.28341	0.25895	0.24256	-2.1646	-1.5562	-2.1521	-2.4479	-1.7125	-2.5125	-2.2146	-2	-2.4771	-1.7375	-2.4792	-2.6542	-1.6396	-2.5625	-2.125	-1.9396	390.460	102.563	205.874	380.221	235.492	320.964	373.050	298.429	325.465	237.171	388.943	72.477	112.530	73.751	142.728	228.226	0.0016499	0.00096728	0.00012154	1101.5	6.5831e-06	6.9739e-06	1573.3	309.96	7.2432e-06	2.3352e-06	522.54	184.85	102.8	49.096	7.4759e-06	90.578	0.00026783	0.00027163	7.9096e-05	975.52	2.7628e-06	3.0304e-06	1375.8	273.33	2.771e-06	3.0232e-06	450.97	158.93	85.972	42.915	3.0061e-06	76.927	391.192	134.649	168.094	49.009	158.233	159.985	48.812	54.472	185.388	343.154	53.215	57.032	59.000	63.233	99.669	60.308	-8191	255	
3213.601	1	1	0	0	0.082233	0.050144	0.11193	0.19394	0.070228	0.17453	0.17333	0.10064	0.038531	0.1786	0.26959	0.21455	0.10348	0.17679	0.072814	0.19535	-2.2979	-1.7625	-1.9062	-2.5021	-1.5146	-2.2687	-2.2479	-1.5875	-2.4208	-1.5187	-1.8104	-2.5167	-1.4062	-2.1937	-2.0687	-1.825	127.863	273.824	46.791	369.881	123.808	84.258	98.511	44.143	233.961	178.498	325.258	360.486	151.973	365.297	162.127	376.242	0.0023745	0.00015554	0.00012817	1099.3	5.7454e-06	6.218e-06	1573.1	307.04	6.9772e-06	2.9053e-06	523.39	185.11	102.7	48.832	4.8788e-06	90.024	0.00026149	0.00027827	7.4653e-05	970.7	2.6844e-06	3.059e-06	1367.7	271.91	2.759e-06	3.0902e-06	448.94	158.33	85.79	42.85	2.8806e-06	76.361	386.181	157.126	48.185	49.194	138.243	169.182	48.648	54.576	126.392	144.850	53.471	57.025	58.928	62.850	142.762	60.307	-8191	255	
3213.697	1	1	0	0	0.091488	0.31535	0.11426	0.23438	0.16359	0.18011	0.11315	0.40891	0.096146	0.023262	0.17086	0.1611	0.061722	0.14779	0.054569	0.034473	-2.3479	-1.6604	-1.7396	-2.3021	-1.5479	-2.3312	-2.3438	-1.8604	-2.3792	-1.7771	-1.8146	-2.5146	-1.3083	-2.1354	-2.2292	-1.6479	90.983	264.546	62.528	394.000	196.643	129.408	340.886	344.137	53.766	268.067	361.830	302.181	78.905	265.180	293.042	288.189	0.0016842	0.00021818	8.4983e-05	1097.9	6.3545e-06	5.2075e-06	1560.3	310.33	3.2842e-06	1.2164e-06	521.78	184.46	101.32	49.225	1.1682e-06	90.059	0.00027004	0.00027675	7.2733e-05	968.94	2.824e-06	3.0304e-06	1359.9	271.48	2.8794e-06	3.0192e-06	446.01	157.67	85.834	42.879	2.7414e-06	76.466	385.571	390.793	41.398	49.434	196.509	146.996	48.881	54.451	202.548	211.858	52.927	56.305	58.610	62.854	212.293	59.874	-8191	255	
3213.769	1	1	0	0	0.18506	0.11421	0.057733	0.099713	0.11648	0.12483	0.10143	0.56033	0.1952	0.093472	0.29826	0.11292	0.11782	0.12493	0.2511	0.21758	-2.025	-1.9188	-1.6229	-2.6875	-1.5458	-2.1333	-2.5333	-1.7812	-2.5687	-2.1437	-1.9312	-2.7917	-1.8396	-2.2396	-2.5062	-1.7188	256.054	191.771	300.258	299.580	338.623	45.128	383.859	360.071	322.383	303.558	365.506	60.501	377.799	364.203	101.406	44.957	0.0022305	0.00041829	0.00026764	1094.5	1.0464e-05	1.4342e-06	1558.7	308.9	3.1154e-06	2.8652e-06	521.61	184.84	102.87	49.466	4.7155e-06	90.777	0.00028061	0.00027235	6.9455e-05	968.73	2.9492e-06	2.9493e-06	1361.8	271.08	2.9587e-06	2.9262e-06	447.48	158.18	86.623	43.129	2.6819e-06	76.879	380.536	43.398	357.202	49.249	112.388	87.830	48.822	54.322	156.100	139.779	53.259	57.478	58.918	63.554	190.941	60.353	-8191	255	
3213.865	1	1	0	0	0.20654	0.092814	0.18027	0.05691	0.24663	0.24088	0.40731	0.31442	0.11662	0.17248	0.27494	0.19007	0.15619	0.24212	0.27616	0.044054	-2.0125	-2.2333	-1.7167	-2.5021	-1.6146	-1.9083	-2.5271	-1.3625	-2.1792	-2.1354	-1.525	-2.4958	-1.5542	-1.8125	-2.5792	-1.7208	254.754	290.439	212.055	355.871	303.813	145.025	55.751	331.391	357.353	390.426	334.913	385.142	180.205	384.475	171.849	375.179	0.001583	0.00063484	0.00022618	1094.5	4.213e-06	3.9331e-06	1561.4	308.35	3.1802e-06	1.4981e-06	524.8	184.25	101.75	49.473	6.0107e-06	90.806	0.00028282	0.00026023	6.6701e-05	965.84	2.9549e-06	2.7599e-06	1357.8	271.35	3.0285e-06	2.7672e-06	447.49	158.46	86.971	43.026	2.6337e-06	76.977	385.881	233.747	48.246	49.675	158.570	212.976	48.891	54.393	89.618	376.322	53.639	57.003	59.995	63.864	150.829	60.348	-8191	255	
3213.986	1	1	0	0	0.30325	0.083358	0.25024	0.082167	0.076543	0.15987	0.35109	0.29549	0.21278	0.12838	0.25595	0.09322	0.30578	0.07135	0.21945	0.21174	-1.8125	-2.2104	-1.5771	-2.6896	-1.8375	-1.9646	-2.8563	-1.5604	-2.0208	-2.225	-1.4562	-2.3688	-1.8396	-1.95	-2.5333	-1.6896	240.437	79.023	361.808	66.151	195.537	163.088	356.745	331.146	286.643	84.763	227.485	71.599	373.838	320.160	358.294	330.012	0.002023	0.00060373	0.00032454	1101.1	7.7887e-06	3.1893e-06	1560.6	309.98	2.8147e-06	6.4989e-06	520.54	183.1	101.97	48.829	6.6022e-06	90.086	0.00028659	0.0002526	6.6619e-05	969.45	2.965e-06	2.7252e-06	1357.3	271.94	2.9341e-06	2.7197e-06	444.76	157.75	86.03	42.61	2.599e-06	76.541	392.861	89.358	76.970	49.611	161.774	106.676	48.558	53.867	170.187	124.176	52.745	56.700	59.195	62.682	229.960	60.058	-8191	255	
3214.082	1	1	0	0	0.16086	0.0376	0.055809	0.10147	0.13729	0.13769	0.28343	0.25071	0.11407	0.20231	0.12617	0.22887	0.25164	0.1261	0.085425	0.22601	-1.7396	-2.3396	-1.375	-2.1854	-1.9521	-1.55	-2.6458	-1.8146	-2.0104	-2.3708	-1.6729	-2.5187	-2.3167	-1.6979	-2.6604	-1.875	65.479	318.619	374.214	376.955	271.771	205.042	311.351	97.954	214.384	241.906	38.488	391.921	290.278	216.352	78.384	344.310	0.0019169	0.0008639	0.00011693	1096.3	7.0728e-06	3.5193e-06	1561.4	309.5	4.1635e-06	9.999e-06	525.25	183.97	101.79	49.425	7.4923e-06	90.422	0.00027978	0.00024751	6.631e-05	971.01	2.9088e-06	2.6992e-06	1361.1	272.83	2.9248e-06	2.7374e-06	448.89	158.75	86.114	42.76	2.73e-06	77.089	384.260	48.912	98.357	49.190	166.858	127.195	48.695	54.169	137.154	141.134	52.941	57.026	59.024	62.759	196.748	60.172	-8191	255	
3214.176	1	1	0	0	0.41808	0.085355	0.13112	0.19313	0.12058	0.30998	0.15769	0.1975	0.026414	0.10557	0.27303	0.33687	0.14054	0.15634	0.089045	0.18237	-1.5708	-2.4354	-1.5063	-2.4854	-2.175	-1.6625	-2.6771	-1.7188	-1.9021	-2.4854	-1.7083	-2.3417	-2.4167	-1.7708	-2.4792	-2.1396	271.548	318.590	270.183	67.481	123.418	167.960	308.235	324.662	237.651	352.231	393.823	388.811	73.874	351.542	396.114	331.658	0.0019015	0.00056243	0.00013346	1101.8	7.3842e-06	8.1704e-06	1570.8	309.91	6.0521e-06	2.1726e-06	526.7	185.11	102.38	49.427	9.7072e-06	90.435	0.00027488	0.00024662	7.0292e-05	976.57	2.8733e-06	2.6487e-06	1370.2	273.63	2.8334e-06	2.6747e-06	450.08	159.34	86.149	42.773	2.9165e-06	77.047	378.107	168.794	113.308	49.665	204.369	114.443	49.043	54.372	154.601	372.869	52.971	56.941	59.503	63.070	177.782	59.830	-8191	255	
3214.274	1	1	0	0	0.30372	0.050497	0.15477	0.050711	0.22532	0.22717	0.036691	0.13778	0.22419	0.2845	0.23805	0.1285	0.10055	0.28757	0.21454	0.28684	-1.4167	-2.4479	-1.3875	-2.1479	-2.4521	-1.4958	-2.5833	-2.2208	-1.9125	-2.5708	-1.7542	-2.325	-2.4271	-1.7208	-2.3729	-2.1958	380.704	158.925	152.152	54.162	115.101	238.501	348.986	356.740	267.979	167.722	367.760	303.763	42.192	305.514	307.191	393.385	0.0017519	0.00037924	5.6867e-05	1107.4	6.299e-06	5.266e-06	1561.5	308.94	5.7232e-06	5.9909e-06	524.16	184.72	100.78	49.022	2.4729e-06	90.06	0.00026823	0.00024444	7.4057e-05	977.26	2.7898e-06	2.672e-06	1369.2	273.17	2.8262e-06	2.7087e-06	450.67	158.9	86.031	42.536	3.093e-06	76.503	381.563	172.440	109.460	49.463	48.299	153.637	48.586	54.271	148.567	173.381	53.225	57.022	59.264	63.126	198.011	60.238	-8191	255	
3214.369	1	1	0	0	0.19399	0.058727	0.16729	0.12714	0.043367	0.24972	0.36846	0.042382	0.13491	0.18781	0.097805	0.18218	0.27342	0.40588	0.21396	0.35351	-1.3271	-2.6937	-1.7938	-2.2979	-2.4292	-1.8083	-2.5187	-2.4375	-1.6583	-2.4854	-2.0208	-2.0521	-2.5	-1.6437	-2.2229	-2.4125	89.931	41.989	385.606	287.635	316.030	270.291	339.054	78.699	209.979	40.471	128.877	307.840	347.996	71.969	293.342	317.440	0.001626	0.00064443	9.186e-05	1108.5	4.8546e-06	3.1605e-06	1572.3	308.84	2.5476e-06	5.9367e-06	519.38	183.64	100.98	48.566	2.1725e-06	90.171	0.00026672	0.00025337	7.8691e-05	975.05	2.8044e-06	2.7641e-06	1372.3	272	2.7575e-06	2.7426e-06	448.53	158.14	85.506	42.432	3.0966e-06	76.407	390.297	116.063	189.732	49.200	223.283	114.106	48.922	54.710	317.765	127.177	53.408	57.031	58.333	62.231	244.480	59.377	-8191	255	
3214.465	1	1	0	0	0.16488	0.19486	0.083783	0.21369	0.17731	0.1512	0.10568	0.077907	0.066402	0.204	0.11218	0.42023	0.036698	0.27336	0.090209	0.35922	-1.2896	-2.3521	-1.8146	-1.9542	-2.6479	-1.6437	-2.4125	-2.3187	-1.4813	-2.7417	-2.1958	-1.9458	-2.4521	-1.7333	-1.9417	-2.5354	171.062	70.461	260.197	385.552	316.911	57.026	45.830	210.293	183.958	59.786	319.468	49.054	68.691	360.192	277.016	367.672	0.0020278	0.00076891	7.3284e-05	1100.1	6.2167e-06	4.3018e-06	1574.5	308.4	3.0672e-06	8.3886e-06	526.09	184.18	101.75	48.813	2.3159e-06	90.598	0.00026687	0.00026499	8.0021e-05	973.74	2.7681e-06	2.9344e-06	1376.4	273.2	2.7499e-06	2.9914e-06	451.88	158.82	85.63	42.689	3.1216e-06	76.767	379.796	101.431	268.628	48.798	111.082	135.559	48.047	53.830	92.902	191.920	53.164	56.867	59.094	63.080	306.723	60.033	-8191	255	
3214.561	1	1	0	0	0.081208	0.18992	0.17822	0.39707	0.14864	0.040025	0.031564	0.32428	0.19531	0.16164	0.33485	0.079629	0.072988	0.20623	0.18376	0.39391	-1.1625	-2.4229	-1.9562	-1.7104	-2.55	-1.8208	-2.3271	-2.5208	-1.6417	-2.3042	-2.2542	-1.7167	-2.6646	-1.8583	-2.0146	-2.6562	221.453	323.000	346.037	313.174	350.106	103.617	278.911	302.698	48.566	299.260	359.848	164.962	105.642	388.737	217.577	345.876	0.0023879	0.00052513	5.0674e-05	1107.9	7.4919e-06	2.8598e-06	1574.6	309.12	7.7327e-06	1.9517e-06	527.41	186.5	103.12	48.797	4.2923e-06	90.127	0.00026421	0.00028395	7.7921e-05	978.2	2.8319e-06	3.1447e-06	1381.5	273.15	2.8439e-06	3.1683e-06	452.2	160.05	86.6	42.658	3.0285e-06	76.488	393.867	179.415	148.349	49.143	119.819	144.747	48.633	54.418	210.450	291.157	52.939	57.169	59.165	63.318	235.123	60.172	-8191	255	
3214.682	1	1	0	0	0.15941	0.19664	0.055314	0.26974	0.27134	0.085243	0.024419	0.055284	0.25893	0.051368	0.13979	0.42828	0.25544	0.34452	0.079436	0.2809	-1	-2.3729	-2.1667	-1.7542	-2.6667	-1.8188	-2.1458	-2.5333	-1.5479	-2.1146	-2.3708	-1.6271	-2.4146	-2.0312	-1.7104	-2.4125	313.733	74.474	202.156	392.895	259.730	367.819	113.872	313.827	231.145	109.133	274.181	350.358	352.191	332.618	159.346	41.870	0.0018674	0.00077295	0.00017016	1105.3	2.4898e-06	7.76e-06	1572.7	305.78	9.3941e-06	7.4555e-06	524.9	184.24	101.96	47.843	9.1671e-06	89.032	0.00027879	0.00029596	7.5799e-05	974.81	2.9342e-06	3.2341e-06	1376.4	271.65	2.94e-06	3.2035e-06	449.29	158.38	86.543	42.286	3.0117e-06	75.863	386.873	65.079	386.031	49.203	204.939	114.443	49.136	54.805	138.341	148.478	53.157	57.155	59.444	63.352	185.756	59.386	-8191	255	
3214.778	1	1	0	0	0.06447	0.13416	0.1254	0.19796	0.19827	0.1876	0.14514	0.16608	0.080775	0.15301	0.29819	0.21117	0.19868	0.14085	0.13077	0.10935	-1.1333	-1.9813	-2.2833	-1.6521	-2.4208	-2.0292	-2.0854	-2.6729	-1.7271	-2.3688	-2.5417	-1.8042	-2.4771	-2.2542	-1.6604	-2.7042	134.627	307.846	136.656	365.978	289.386	237.478	387.524	143.073	96.615	65.838	369.886	300.645	181.028	71.880	271.271	272.504	0.0020274	0.0013706	5.8491e-05	1106.8	6.7546e-06	7.761e-06	1581.1	311	1.0813e-05	4.977e-06	524.35	185.42	102.88	48.812	4.4037e-06	89.917	0.00029528	0.00029651	7.5954e-05	977.35	3.1556e-06	3.2216e-06	1382.4	273.51	3.2062e-06	3.2215e-06	450.32	159.53	87.814	42.552	2.9381e-06	76.396	37.057	96.362	40.384	48.898	176.231	156.410	48.589	54.174	198.133	184.511	53.004	56.820	59.135	62.521	217.513	59.669	-8191	255	
3214.874	1	1	0	0	0.14708	0.26121	0.27215	0.10113	0.059758	0.19719	0.36891	0.25986	0.35458	0.32719	0.051537	0.29797	0.32494	0.21999	0.0043801	0.28617	-1.3604	-2.0604	-2.4437	-1.8125	-2.4562	-2.15	-1.7375	-2.5979	-1.6667	-1.8771	-2.5521	-1.7167	-2.3104	-2.3708	-1.7854	-2.6354	102.637	283.925	91.861	363.681	338.092	299.095	389.366	337.760	378.407	61.510	344.256	344.014	327.942	39.001	179.096	370.022	0.0016534	8.8839e-05	7.602e-05	1103.2	1.5778e-05	4.9366e-06	1581.9	309.34	4.7227e-06	7.2077e-06	527.44	186.63	103.16	48.543	6.189e-06	90.301	0.00031088	0.00028893	7.6616e-05	977.61	3.3142e-06	3.1621e-06	1384.4	273.73	3.3686e-06	3.1149e-06	452.25	160.52	88.312	42.499	2.9142e-06	76.888	388.323	88.765	144.400	48.969	153.623	305.341	48.294	53.821	160.632	395.174	52.324	56.097	58.714	62.354	110.078	59.820	-8191	255	
3214.995	1	1	0	0	0.17873	0.22595	0.10583	0.46973	0.23949	0.15532	0.26646	0.13693	0.24238	0.026003	0.24253	0.3407	0.16403	0.15228	0.089499	0.16941	-1.3292	-1.8687	-2.3646	-1.5292	-2.0917	-2.1688	-1.5208	-2.5354	-1.9979	-1.9813	-2.7604	-1.8813	-2.2667	-2.3729	-1.375	-2.3375	257.969	127.198	176.390	354.766	41.250	129.256	329.452	295.710	244.796	372.315	343.028	74.420	148.640	361.064	324.490	289.924	0.0021475	0.00021467	5.1745e-05	1102.7	1.0308e-06	4.1551e-06	1579.7	310.99	9.4832e-06	6.5748e-06	524.02	185.72	103.64	48.251	2.209e-06	89.253	0.00031528	0.00028301	7.3134e-05	980.1	3.2978e-06	3.068e-06	1382.2	274.12	3.2881e-06	2.9776e-06	450.04	160.24	87.869	42.154	2.8608e-06	76.355	387.235	152.352	249.527	48.621	105.468	84.596	48.177	54.068	144.550	135.897	52.574	56.432	58.774	62.505	395.639	60.013	-8191	255	
3215.066	1	1	0	0	0.25801	0.10631	0.2324	0.26374	0.19042	0.1745	0.26021	0.22534	0.12165	0.10225	0.30334	0.077373	0.031751	0.19297	0.079901	0.097752	-1.5625	-1.6396	-2.5312	-1.9167	-2.0958	-2.3292	-1.6938	-2.4896	-1.8792	-1.6792	-2.8312	-1.9813	-2.1458	-2.6042	-1.3875	-2.4708	378.546	320.139	155.882	338.164	86.115	65.728	356.526	316.654	40.145	268.608	348.465	257.935	225.301	71.756	326.407	339.468	0.0019055	0.00059835	0.00020877	1106.1	9.7581e-06	5.7579e-06	1575.5	309.87	1.0886e-05	3.2892e-06	526.02	186.17	102.02	48.593	7.5968e-06	90.401	0.00030812	0.00026935	7.2761e-05	979.47	3.1655e-06	2.9438e-06	1378.3	274.03	3.1737e-06	2.9224e-06	450.05	160.68	87.225	42.342	2.9098e-06	76.965	371.049	167.645	209.173	48.821	114.295	111.056	48.264	53.980	138.857	125.451	52.716	56.540	59.033	62.636	179.747	60.040	-8191	255	
3215.162	1	1	0	0	0.37239	0.29247	0.14121	0.1134	0.02453	0.26101	0.14483	0.070777	0.17122	0.27641	0.056447	0.1405	0.2768	0.199	0.13803	0.22539	-1.6979	-1.6625	-2.3937	-1.9646	-2.0062	-2.8458	-1.8333	-2.2083	-2.0833	-1.5979	-2.65	-1.9375	-1.9917	-2.5292	-1.3208	-2.3	337.869	208.936	318.847	201.694	352.019	128.164	334.104	373.502	216.256	156.742	338.271	221.780	185.995	282.156	171.879	368.653	0.001988	0.00045546	0.00023651	1107.8	5.2968e-06	8.7415e-07	1584.7	309.69	4.6581e-06	3.3621e-06	527.65	187.58	102.72	48.249	6.5328e-06	90.283	0.0002992	0.00026229	7.44e-05	981.95	3.0637e-06	2.8767e-06	1386.8	275.07	3.1142e-06	2.8818e-06	452.39	162.21	87.67	42.298	3.0502e-06	77.214	380.844	95.144	70.960	48.609	179.745	231.492	48.051	53.975	72.713	141.459	52.772	56.272	58.906	62.921	272.088	60.098	-8191	255	
3215.281	1	1	0	0	0.12969	0.23794	0.038121	0.13464	0.16909	0.22435	0.16283	0.21622	0.084472	0.1322	0.21065	0.2035	0.06517	0.12696	0.14112	0.1424	-1.7792	-1.5646	-2.5	-2.0229	-1.9229	-2.4896	-1.5208	-2.2625	-2.2708	-1.2771	-2.6104	-1.8875	-1.6521	-2.4708	-1.7833	-2.2583	77.921	361.291	381.018	267.811	199.420	292.931	347.127	274.725	377.252	104.756	67.443	66.758	176.213	356.465	265.711	36.214	0.0018742	0.00014002	0.000196	1104.9	4.6728e-06	6.1621e-06	1578.8	309.73	2.7557e-06	8.0993e-06	526.57	186.65	102.15	48.407	4.78e-06	90.485	0.00029008	0.00026108	7.9315e-05	980.75	3.0177e-06	2.8699e-06	1387.3	274.81	3.0006e-06	2.7994e-06	453.77	161.36	86.566	42.181	3.2165e-06	76.901	384.936	213.012	106.535	48.675	154.470	315.595	48.348	53.894	162.492	132.374	52.644	56.537	59.282	62.773	175.198	60.102	-8191	255	
3215.377	1	1	0	0	0.4182	0.40421	0.1125	0.22282	0.12123	0.13696	0.10006	0.10277	0.20207	0.20034	0.099362	0.20993	0.19297	0.12126	0.1979	0.065732	-1.9833	-1.6833	-2.5583	-2.0792	-1.5479	-2.4292	-2.0104	-2.0292	-2.3771	-1.4292	-2.5125	-2.1479	-1.5729	-2.6104	-2.0625	-2.0938	134.287	384.411	193.081	390.725	359.110	130.735	297.564	284.354	389.741	234.859	262.305	37.135	293.636	47.323	256.218	277.246	0.0018293	0.00056858	0.00012291	1112	2.5979e-06	7.3032e-06	1590.8	310.32	5.5492e-06	4.8299e-06	533.73	187.94	104.05	49.1	5.5022e-06	90.65	0.00028555	0.0002633	8.4555e-05	985.67	2.9272e-06	2.909e-06	1396.4	275.19	2.9585e-06	2.904e-06	457.12	162.43	87.618	42.681	3.3084e-06	77.315	375.373	206.347	49.440	49.097	135.124	114.147	48.609	54.069	93.149	157.331	53.073	56.920	59.065	62.816	119.581	60.117	-8191	255	
3215.474	1	1	0	0	0.30276	0.097971	0.32248	0.17384	0.12136	0.18135	0.16554	0.061434	0.16053	0.057556	0.13377	0.28904	0.13507	0.25283	0.15753	0.1927	-2.2021	-1.6562	-2.0812	-2.2646	-1.4125	-2.4458	-1.9542	-2.0104	-2.4271	-1.625	-2.5521	-2.4625	-1.7563	-2.4333	-1.8542	-1.8125	298.086	359.944	233.958	334.898	169.999	162.372	45.648	133.735	177.342	395.760	360.027	308.228	61.748	113.565	386.133	260.926	0.0019592	0.00047222	0.00015909	1120.3	4.3945e-06	3.2627e-06	1600.2	312.28	8.5619e-06	2.4894e-06	532.52	188.92	103.63	48.638	7.9686e-06	90.539	0.00028015	0.00027423	8.4307e-05	989.67	2.9188e-06	3.0826e-06	1401.6	275.64	2.9405e-06	3.127e-06	459.34	163.3	87.6	42.595	3.2999e-06	77.283	384.799	107.994	83.974	48.955	205.969	190.209	48.369	54.190	247.775	219.571	52.847	56.537	59.020	62.655	217.901	60.174	-8191	255	
3215.570	1	1	0	0	0.15134	0.31686	0.03013	0.095554	0.26332	0.225	0.194	0.098439	0.30767	0.2001	0.11481	0.21478	0.29375	0.18618	0.26846	0.40032	-2.1542	-1.525	-2.0333	-2.3063	-1.4042	-2.4833	-2.1354	-1.7354	-2.5833	-1.5333	-2.1	-2.4042	-1.6417	-2.4625	-2.1479	-2.0396	308.171	379.761	324.341	388.498	345.225	288.595	321.421	199.833	301.279	98.573	311.524	64.507	55.757	274.252	359.028	309.151	0.0018197	0.00067849	8.4408e-05	1107.8	3.4331e-06	8.2222e-06	1604	308.7	1.0468e-05	7.8817e-06	527.42	188.25	103.07	48.109	2.9051e-06	89.709	0.00028065	0.00028744	8.1506e-05	983.37	2.8613e-06	3.2328e-06	1397.8	274.02	2.8709e-06	3.2714e-06	454.63	161.86	86.72	42.205	3.1061e-06	76.371	380.973	186.733	53.430	48.609	79.452	185.356	48.861	54.033	94.573	182.093	53.493	56.760	58.911	62.781	393.625	60.060	-8191	255	
3215.666	1	1	0	0	0.19275	0.2213	0.16331	0.075268	0.098653	0.26053	0.24161	0.1362	0.15538	0.17304	0.33293	0.20661	0.17816	0.071339	0.30795	0.079113	-2.0312	-1.5708	-1.7188	-2.3812	-1.4813	-2.5042	-2.5083	-1.8229	-2.5354	-1.6875	-2.0812	-2.7604	-1.8667	-2.3292	-2.1083	-1.7729	87.118	217.795	179.038	287.909	159.048	337.763	378.359	318.160	327.346	135.583	374.186	365.340	202.222	56.729	392.327	258.675	0.0022207	0.00017899	0.00023033	1108	8.5298e-07	1.3964e-06	1596.6	307.34	6.2544e-06	2.9414e-06	519.56	183.66	100.98	47.415	6.3545e-06	88.357	0.00027689	0.00029674	7.9174e-05	980.33	2.9133e-06	3.2568e-06	1390.7	271.77	2.9685e-06	3.2665e-06	449.38	158.84	85.632	41.615	3.0283e-06	75.204	390.550	82.286	396.299	49.351	105.996	68.400	48.717	54.571	137.738	122.847	53.390	57.159	59.343	63.172	199.740	60.490	-8191	255	
3215.762	1	1	0	0	0.1789	0.09543	0.14075	0.33307	0.17098	0.059038	0.12208	0.071199	0.33748	0.17056	0.037182	0.094552	0.15775	0.046899	0.04263	0.10848	-2.0062	-1.8167	-1.8792	-2.4604	-1.6542	-2.2833	-2.4292	-1.625	-2.5438	-2.0979	-1.9833	-2.7042	-1.5521	-2.0917	-2.2854	-1.5979	311.709	331.384	320.893	386.834	354.155	285.051	127.678	255.559	229.840	292.012	288.900	359.907	346.328	38.631	374.432	291.870	0.0020494	0.00037725	7.0671e-05	1109.9	8.8686e-06	2.0899e-06	1590.9	305.46	1.5065e-05	1.2213e-05	522.12	181.98	100.31	47.419	7.0746e-06	88.3	0.00029272	0.00029396	7.486e-05	979.81	2.9766e-06	3.1629e-06	1385.9	269.9	3.0303e-06	3.0896e-06	447.48	157.73	85.363	41.565	2.8735e-06	75.262	388.083	286.293	113.559	48.763	178.547	244.008	48.396	54.398	125.478	177.814	53.478	57.242	58.987	63.171	199.249	60.529	-8191	255	
3215.858	1	1	0	0	0.017329	0.13767	0.18465	0.42879	0.23726	0.059693	0.30745	0.052301	0.16865	0.1891	0.10164	0.22973	0.40985	0.3329	0.17055	0.038605	-1.9813	-1.8917	-1.525	-2.6083	-1.5667	-2.1229	-2.5979	-1.6396	-2.4458	-2.1833	-1.8625	-2.5187	-1.7042	-2.1542	-2.3354	-1.5396	223.024	318.946	279.635	360.592	267.108	78.797	355.074	60.302	194.028	309.299	319.224	50.121	301.413	319.531	264.253	185.600	0.0018728	0.00036388	5.7839e-05	1100.3	6.4677e-06	4.7789e-06	1590.1	307.56	7.8544e-06	6.1394e-06	523.71	184.9	101.36	47.907	5.3999e-06	90.063	0.00029418	0.00028381	7.2731e-05	974.96	3.1215e-06	3.04e-06	1385.1	271.12	3.175e-06	3.0351e-06	449.57	159.23	86.601	41.869	2.8295e-06	76.357	381.916	94.325	323.742	49.390	183.304	197.393	48.421	54.398	176.684	159.397	52.828	56.642	59.277	63.144	194.840	60.162	-8191	255	
3215.954	1	1	0	0	0.21341	0.26568	0.25933	0.11103	0.026071	0.22881	0.11826	0.15619	0.10385	0.085867	0.29149	0.12612	0.17098	0.19522	0.082325	0.33291	-1.7938	-2.0354	-1.2771	-2.5771	-1.8396	-1.9125	-2.7167	-1.6979	-2.3375	-2.5625	-1.7229	-2.6688	-1.8729	-2.0083	-2.5854	-1.6688	346.238	91.522	58.080	48.841	355.686	321.759	308.352	325.592	314.496	179.655	336.631	108.764	233.474	37.290	206.074	235.723	0.0019269	0.00056656	7.0395e-05	1103.8	5.289e-06	4.3038e-06	1581.7	305.92	4.1647e-06	2.0364e-06	523.69	183.97	99.61	47.917	5.8833e-06	88.876	0.00030072	0.00027058	6.948e-05	975.41	3.144e-06	2.9429e-06	1379	269.92	3.1615e-06	2.8566e-06	448.03	158.4	85.555	41.689	2.7221e-06	75.771	382.341	65.261	373.404	49.064	177.152	326.094	48.245	53.866	329.568	102.094	52.633	56.343	59.230	62.906	249.823	59.679	-8191	255	
3216.073	1	1	0	0	0.2245	0.12613	0.52864	0.29742	0.20935	0.33885	0.066687	0.20403	0.19523	0.3059	0.31355	0.37786	0.10187	0.30438	0.22221	0.42834	-1.6167	-2.2188	-1.3521	-2.5167	-1.9396	-1.6958	-2.4854	-1.4667	-2.1125	-2.4437	-1.5979	-2.6292	-2.0333	-1.7479	-2.5542	-1.8896	287.990	263.464	62.177	369.832	156.351	64.001	327.348	38.869	364.937	79.140	52.788	87.200	180.426	332.286	149.024	351.763	0.0021751	0.00036708	0.00011207	1094.9	1.401e-06	5.1506e-06	1580.2	304.78	2.3513e-06	7.5358e-06	522.54	183.6	100.57	47.93	1.0025e-05	89.657	0.00030007	0.00025986	6.8641e-05	972.83	3.0907e-06	2.8188e-06	1372.5	269.61	3.0497e-06	2.8177e-06	446.47	158.47	85.308	41.817	2.7376e-06	76.301	380.377	66.139	101.421	49.202	321.734	188.698	48.266	54.193	264.497	191.028	52.355	56.289	58.544	62.771	214.111	59.494	-8191	255	
3216.169	1	1	0	0	0.25476	0.086787	0.13844	0.16781	0.19913	0.091015	0.11123	0.087126	0.15794	0.3438	0.29195	0.17772	0.16401	0.19031	0.1452	0.36062	-1.7125	-2.3458	-1.6771	-2.4938	-1.9583	-1.6417	-2.4938	-1.7167	-1.9417	-2.4167	-1.6958	-2.4875	-2.1167	-1.7833	-2.5896	-2.0792	46.893	222.541	214.959	348.409	275.670	231.931	37.772	246.236	355.915	339.525	309.126	328.192	170.243	59.831	161.211	390.464	0.0014118	0.00037389	0.0002238	1102.3	9.1896e-06	6.8765e-06	1572.9	306.99	8.5519e-06	3.8978e-06	523.07	184.18	100.32	48.292	3.4313e-06	90.069	0.00028708	0.00025413	6.8319e-05	973.49	2.9581e-06	2.7118e-06	1371	270.7	2.8762e-06	2.7028e-06	448.81	159.08	85.079	41.977	2.7974e-06	76.889	383.257	103.452	113.765	48.833	262.045	147.955	48.127	53.853	127.622	371.531	52.611	56.712	59.322	62.775	146.113	59.766	-8191	255	
3216.266	1	1	0	0	0.11029	0.065701	0.16948	0.19755	0.22258	0.035732	0.30702	0.13293	0.047113	0.084344	0.15337	0.096736	0.12981	0.23659	0.12654	0.2779	-1.3771	-2.4938	-1.7021	-2.3583	-2.3479	-1.6375	-2.6729	-1.9146	-1.6771	-2.5375	-1.5729	-2.1792	-2.3979	-1.6542	-2.6229	-2.1229	166.581	170.554	346.238	301.831	106.601	79.850	369.076	380.982	268.954	280.528	60.994	139.607	380.303	41.410	141.688	385.833	0.0017474	0.00057593	0.00027177	1100.6	3.2313e-06	3.1173e-06	1575.5	307.86	1.2684e-06	4.7323e-06	525.25	185.48	99.312	48	3.2051e-06	90.532	0.00027656	0.00024717	7.1456e-05	972.49	2.8481e-06	2.6892e-06	1373	271.74	2.802e-06	2.6381e-06	451.07	159.18	84.68	41.758	2.9448e-06	76.704	368.806	54.361	168.304	49.209	81.743	153.033	48.483	53.903	232.767	63.275	52.849	56.534	58.858	62.538	279.618	59.951	-8191	255	
3216.363	1	1	0	0	0.045847	0.090046	0.064713	0.25738	0.16761	0.09964	0.22933	0.28394	0.1742	0.16909	0.30081	0.17741	0.14439	0.20217	0.12421	0.17271	-1.4375	-2.6	-1.5125	-2.2812	-2.1979	-1.6396	-2.3458	-1.925	-1.475	-2.5542	-1.9813	-2.0917	-2.5708	-1.6938	-2.2958	-2.15	108.101	41.373	172.949	351.640	342.716	310.998	271.113	389.188	142.224	115.485	300.577	335.115	288.685	326.669	205.920	336.019	0.0016147	0.00068797	0.00015755	1098.8	2.0133e-06	2.7614e-06	1578.9	305.65	9.1954e-06	6.8362e-06	527.41	184.81	99.404	47.642	5.4742e-06	88.799	0.00026344	0.0002415	7.5653e-05	973.87	2.7723e-06	2.6458e-06	1379.3	270.53	2.7379e-06	2.6769e-06	450.08	158.04	83.889	41.454	2.9633e-06	75.705	383.196	84.393	98.995	49.499	217.813	204.725	48.424	53.966	158.973	170.258	52.825	56.842	58.835	62.847	139.924	59.887	-8191	255	
3216.458	1	1	0	0	0.17531	0.29796	0.11052	0.076675	0.095511	0.10023	0.18143	0.085735	0.21319	0.32255	0.2385	0.23523	0.10273	0.017784	0.20322	0.3338	-1.1833	-2.4437	-1.9104	-2.3063	-2.6771	-1.5542	-2.6208	-2.1813	-1.5125	-2.55	-1.9792	-1.9438	-2.6437	-1.6521	-2.4167	-2.5667	147.407	319.371	178.560	109.660	149.459	314.348	338.227	43.367	53.293	136.963	384.035	115.253	294.713	338.840	252.878	330.093	0.0020198	0.00081939	0.00036674	1096	4.8431e-06	5.5576e-07	1575.3	307.47	2.2301e-06	6.3941e-06	526.3	184.78	100.91	47.688	1.5162e-06	90.096	0.00025193	0.0002398	7.4445e-05	968.92	2.6417e-06	2.6725e-06	1376.7	270.55	2.6789e-06	2.7607e-06	452.59	158.62	84.569	41.753	3.0142e-06	76.364	383.101	180.576	204.226	48.592	178.886	309.041	48.378	54.096	307.656	174.346	52.538	56.774	58.658	62.749	241.600	59.883	-8191	255	
3216.554	1	1	0	0	0.13121	0.19515	0.48279	0.22428	0.13767	0.2627	0.16525	0.080604	0.19904	0.099737	0.19446	0.33169	0.095243	0.25264	0.062136	0.38033	-1.1375	-2.6875	-1.9104	-2.0646	-2.5583	-1.5771	-2.2979	-2.1208	-1.5562	-2.2958	-1.9104	-1.7167	-2.3187	-1.5187	-2.0896	-2.6875	158.826	350.416	342.489	53.779	206.107	213.425	332.727	266.472	115.413	381.100	329.850	391.900	383.327	292.745	164.279	311.627	0.001688	0.00089712	0.00016525	1095.9	2.313e-06	6.3059e-07	1581.4	308.75	3.405e-06	1.1407e-05	531.85	185.17	100.92	47.958	6.2091e-06	89.802	0.00025298	0.00026004	7.6251e-05	970.46	2.6521e-06	2.8494e-06	1382.2	271.39	2.6426e-06	2.9119e-06	452.99	159.14	84.327	41.911	2.9625e-06	76.281	393.235	122.675	42.246	49.142	157.090	256.671	48.735	53.942	143.806	171.115	52.828	56.927	59.427	62.910	159.427	59.743	-8191	255	
3216.675	1	1	0	0	0.13759	0.10821	0.091506	0.12753	0.23515	0.31399	0.23327	0.11984	0.28811	0.088392	0.12845	0.21325	0.05635	0.18911	0.13923	0.11886	-0.92708	-2.3729	-2.0458	-1.7875	-2.5667	-1.6917	-1.9042	-2.2562	-1.6604	-2.3229	-2.0583	-1.6146	-2.4562	-1.7104	-1.8083	-2.6333	394.282	289.479	208.744	361.419	234.467	377.218	374.586	79.200	324.033	241.723	76.405	292.825	322.570	336.584	213.584	342.105	0.0020635	0.00030983	0.00025144	1098.8	8.3233e-06	5.4312e-06	1582.2	304.68	1.2115e-05	7.2074e-06	523.03	183.17	100.28	47.37	4.4893e-06	88.941	0.00025745	0.00027367	7.3439e-05	970.72	2.6812e-06	2.955e-06	1379.9	269.89	2.6298e-06	3.0282e-06	448.2	157.13	84.224	41.547	2.8487e-06	75.61	380.349	184.733	150.107	49.314	159.105	166.297	48.530	54.160	260.737	187.552	52.806	56.164	58.846	63.003	153.674	60.274	-8191	255	
3216.771	1	1	0	0	0.16969	0.12626	0.13814	0.3193	0.40559	0.30455	0.21831	0.29085	0.22414	0.21746	0.12878	0.24584	0.073838	0.24001	0.030187	0.20438	-1.1167	-2.1625	-2.1458	-1.7604	-2.3708	-1.8583	-1.9146	-2.3854	-1.4167	-2.1771	-2.4437	-1.7333	-2.4979	-1.9396	-1.8604	-2.5521	75.946	388.490	218.927	373.127	202.221	73.969	296.584	42.620	189.491	300.622	84.099	102.082	100.065	382.413	184.747	111.062	0.0022204	0.00020542	0.00033964	1102.3	1.4477e-05	8.7482e-06	1582.4	306.83	8.9725e-06	4.7087e-06	525.21	186.17	100.87	47.536	4.25e-06	89.258	0.00026507	0.00027759	7.2577e-05	973.39	2.8283e-06	3.0667e-06	1381.4	270.08	2.8915e-06	3.0399e-06	449.74	158.58	85.079	41.619	2.8489e-06	76.125	390.370	265.182	94.625	48.779	126.611	138.302	48.484	54.166	164.023	166.806	52.777	56.200	58.244	62.173	42.355	59.539	-8191	255	
3216.867	1	1	0	0	0.10894	0.33051	0.12736	0.12487	0.23958	0.12762	0.39121	0.18591	0.12618	0.11966	0.1909	0.31647	0.15529	0.26608	0.099338	0.21757	-1.0917	-2.0396	-2.2875	-1.6729	-2.2354	-2.2188	-2.0771	-2.525	-1.6437	-1.8646	-2.5438	-1.7333	-2.4958	-2.2417	-1.575	-2.5625	356.753	86.134	281.335	66.279	64.813	231.725	363.371	49.115	315.038	170.238	332.003	347.367	47.557	98.064	285.154	351.409	0.001653	0.00046299	5.4899e-05	1103.8	5.4502e-06	5.8009e-07	1593.5	308.21	1.0059e-05	1.3717e-06	530.72	186.46	100.05	47.871	5.3573e-06	90.05	0.00028354	0.00027661	7.1952e-05	976.71	3.0014e-06	3.0556e-06	1390	271.09	3.0561e-06	3.0283e-06	453.19	159.56	85.929	41.842	2.7396e-06	76.661	384.965	265.166	297.319	48.785	145.374	150.038	48.749	54.295	164.178	247.651	53.076	56.875	58.996	62.689	77.489	59.735	-8191	255	
3216.963	1	1	0	0	0.075345	0.1372	0.25761	0.23565	0.1127	0.011385	0.13498	0.15376	0.11681	0.2032	0.071685	0.26562	0.22905	0.35101	0.31014	0.3533	-1.4146	-1.9542	-2.5687	-1.7021	-2.5687	-2.3167	-1.8729	-2.5062	-1.7729	-2.0583	-2.4333	-1.5854	-2.1875	-2.1562	-1.3208	-2.6354	231.864	100.461	296.229	51.641	228.334	295.636	233.184	252.911	54.270	322.523	255.343	340.600	135.914	89.533	158.484	346.699	0.0018868	0.00027555	0.0002731	1099.5	4.7506e-06	7.0732e-06	1585.6	309.61	7.1555e-06	3.4036e-06	528.94	184.36	100.19	47.874	2.9296e-06	89.691	0.00029484	0.00026358	7.0446e-05	971.93	3.0637e-06	2.8948e-06	1383.2	271.68	3.0801e-06	2.8319e-06	450.96	158.48	85.665	41.719	2.7028e-06	76.326	389.789	217.161	114.743	49.257	331.886	144.653	48.349	54.068	96.160	88.760	52.825	56.747	59.604	62.953	130.100	60.177	-8191	255	
3217.059	1	1	0	0	0.24893	0.19029	0.40863	0.092202	0.16248	0.11852	0.16942	0.34547	0.22454	0.24874	0.2265	0.34157	0.22356	0.18703	0.098966	0.056243	-1.4104	-2.0208	-2.5438	-1.8104	-2.2625	-2.3438	-1.7104	-2.5292	-1.8146	-1.7646	-2.6375	-1.6375	-2.1354	-2.4854	-1.7583	-2.5875	89.102	288.368	108.190	388.656	384.668	362.108	202.762	373.800	169.513	82.710	37.538	301.038	162.815	53.726	221.234	155.702	0.0016495	0.00032484	0.00013665	1098.6	1.7226e-06	2.9726e-06	1579.4	306.2	7.7849e-06	3.1802e-06	527.77	183.78	100.61	47.972	3.9017e-06	89.399	0.000291	0.00025633	6.7182e-05	973.64	3.0196e-06	2.823e-06	1377.5	270.29	3.0496e-06	2.774e-06	449.53	158.29	85.314	41.587	2.6273e-06	76.159	386.786	103.825	88.678	48.830	119.777	240.053	48.385	54.114	234.036	203.483	52.804	56.257	58.663	62.693	131.104	60.322	-8191	255	
3217.155	1	1	0	0	0.1965	0.082228	0.096393	0.29125	0.067249	0.080921	0.37039	0.16827	0.21111	0.11066	0.236	0.27059	0.30379	0.13766	0.03394	0.047063	-1.7417	-1.7542	-2.6042	-1.7292	-2.1063	-2.4188	-1.5833	-2.4	-2.1583	-1.55	-2.6667	-1.7313	-1.9813	-2.5083	-1.4521	-2.3208	178.322	360.915	79.973	388.884	178.597	178.972	311.703	332.350	279.605	202.016	330.487	361.714	110.587	343.308	167.688	197.679	0.0015922	0.00064245	0.00020197	1098.6	4.3515e-06	7.1585e-06	1582.3	310.62	5.186e-06	5.3166e-06	528.3	185.88	100.33	47.596	2.8099e-06	89.627	0.00028413	0.00025129	6.7533e-05	977.84	3.0053e-06	2.7824e-06	1381.5	272.41	3.0233e-06	2.7148e-06	451.66	160.13	85.129	41.557	2.7702e-06	76.632	385.935	107.868	116.999	49.055	61.170	76.723	48.445	53.961	100.721	110.161	53.045	56.636	59.262	62.715	236.722	59.827	-8191	255	
3217.250	1	1	0	0	0.064266	0.30614	0.079587	0.15662	0.077916	0.12235	0.35161	0.20412	0.096931	0.14767	0.11482	0.19027	0.085732	0.13747	0.066973	0.29182	-1.7104	-1.4979	-2.4083	-1.8917	-1.9896	-2.5583	-1.9271	-2.4313	-2.3375	-1.6125	-2.5833	-1.8292	-1.9417	-2.6229	-1.6417	-2.5396	248.302	296.832	40.308	227.980	262.051	184.898	341.478	335.810	61.735	37.249	273.170	59.634	129.111	308.737	86.259	352.676	0.0015946	0.00050308	2.5264e-05	1105	4.2797e-06	5.2431e-06	1592.2	310.36	5.1381e-06	6.3296e-06	532.57	186.12	100.03	47.777	2.4364e-06	89.951	0.00027911	0.00025003	7.169e-05	980.68	2.8778e-06	2.7292e-06	1392.2	273.6	2.9055e-06	2.697e-06	454.69	160.78	85.019	41.55	2.9967e-06	76.605	373.146	39.852	125.895	49.043	117.604	276.689	48.414	54.332	51.005	140.765	53.175	56.890	59.336	63.107	151.972	60.211	-8191	255	
3217.346	1	1	0	0	0.16016	0.047523	0.26886	0.27879	0.14574	0.11216	0.28896	0.19641	0.13711	0.098211	0.19531	0.22299	0.20991	0.1901	0.19323	0.13709	-2.2125	-1.5792	-2.6063	-1.95	-1.8729	-2.7375	-1.8604	-2.3417	-2.3625	-1.6875	-2.5604	-2.2042	-1.6583	-2.5771	-1.5729	-2.0542	156.275	52.732	210.137	384.700	312.468	290.146	352.161	308.076	79.106	185.345	336.454	352.723	348.450	44.792	158.058	358.560	0.0021208	0.00018613	0.00027486	1115.1	3.191e-06	5.5121e-06	1598.4	308.48	1.0062e-05	4.6195e-06	531.28	185.78	100.7	47.139	5.4869e-06	89.265	0.00028354	0.00025381	7.8194e-05	986	2.9292e-06	2.8365e-06	1399.3	272.78	2.9813e-06	2.7955e-06	455	160.41	85.486	41.199	3.2617e-06	76.216	373.738	149.866	102.184	48.782	58.425	173.315	48.628	54.365	75.816	148.036	52.900	56.605	59.097	63.091	179.414	60.320	-8191	255	
3217.467	1	1	0	0	0.26571	0.066215	0.22954	0.24707	0.11462	0.16766	0.32379	0.087321	0.11805	0.047173	0.20112	0.42281	0.073227	0.027299	0.10678	0.13728	-2.0167	-1.6271	-2.2604	-2.1479	-1.5729	-2.5521	-2.05	-2.1271	-2.6688	-1.5812	-2.5187	-2.3187	-1.8813	-2.6979	-1.8229	-2.0438	64.567	391.706	244.230	342.539	311.509	323.078	308.851	311.033	340.116	384.397	395.912	341.137	311.084	93.187	262.777	311.881	0.0019831	0.00071915	0.00028936	1113.6	3.357e-06	5.1536e-06	1598.9	308.5	1.1102e-05	1.0592e-05	530.61	186.4	101.47	47.859	1.1898e-06	90.11	0.0002809	0.00025948	8.2449e-05	984.41	2.8741e-06	2.878e-06	1400.5	272.61	2.901e-06	2.9448e-06	457.49	160.94	85.413	41.634	3.3232e-06	76.508	377.121	142.381	115.714	48.818	133.859	167.749	48.772	54.260	138.939	174.569	52.935	56.948	59.013	62.844	104.800	60.234	-8191	255	
3217.538	1	1	0	0	0.10587	0.15275	0.20169	0.19065	0.18823	0.093534	0.04943	0.13975	0.17314	0.24232	0.28498	0.14553	0.11033	0.15498	0.10844	0.16284	-2.1271	-1.5562	-2.1729	-2.3917	-1.7771	-2.4521	-1.8833	-1.8604	-2.4542	-1.3667	-2.2229	-2.2833	-1.3979	-2.4896	-1.6458	-1.8104	70.408	84.758	182.949	204.795	217.195	182.894	338.807	300.903	301.651	351.766	320.668	380.123	163.262	375.602	224.390	305.174	0.0019397	0.00051047	0.00021023	1109.1	2.7556e-06	5.8808e-06	1607.4	309.36	4.1287e-06	7.4052e-06	533.07	187.72	102.56	47.387	2.6265e-06	90.198	0.00028041	0.00028208	8.4135e-05	985.13	2.8738e-06	3.094e-06	1406.1	273.26	2.8959e-06	3.1455e-06	458.03	161.76	86.127	41.687	3.3221e-06	76.779	382.889	94.345	199.217	48.948	102.607	177.148	47.798	53.953	116.107	208.119	52.969	56.567	58.692	63.151	230.696	60.157	-8191	255	
3217.634	1	1	0	0	0.088926	0.070256	0.18055	0.23298	0.16313	0.2301	0.10727	0.21476	0.10141	0.26251	0.32498	0.15175	0.19985	0.15471	0.29021	0.11338	-1.9312	-1.625	-1.975	-2.5042	-1.5292	-2.5375	-2.2104	-1.6958	-2.5438	-1.8583	-2.0333	-2.5917	-1.6187	-2.4938	-1.9625	-1.775	268.620	171.276	267.340	330.665	378.093	248.276	61.315	371.632	97.311	349.092	372.374	297.501	368.466	56.879	114.862	330.023	0.0019291	0.00081969	0.00010708	1114.1	1.0075e-05	7.9977e-06	1602.2	308.49	8.7124e-06	1.0451e-05	528.57	186.17	100.44	47.363	4.4349e-06	89.279	0.00027984	0.00030075	8.2562e-05	985.59	2.9147e-06	3.338e-06	1404	272.03	2.9692e-06	3.3e-06	455.2	160.95	85.823	41.62	3.2274e-06	76.051	384.218	112.559	131.274	49.070	230.727	200.420	48.090	54.069	218.546	161.752	52.914	56.440	58.240	63.040	201.575	59.955	-8191	255	
3217.755	1	1	0	0	0.15822	0.10093	0.27276	0.20736	0.1848	0.24832	0.42366	0.12939	0.051833	0.3456	0.3735	0.23993	0.09782	0.28909	0.11956	0.13275	-2.2875	-1.6729	-1.9521	-2.7792	-1.3438	-2.2375	-2.2521	-1.4792	-2.4208	-1.7625	-1.725	-2.4104	-1.3937	-2.2208	-2.1	-1.55	153.985	79.058	267.361	78.443	227.323	85.388	325.541	391.081	183.749	179.251	350.978	337.594	365.450	325.969	211.984	382.766	0.002251	0.00091013	0.00025726	1108.8	5.3806e-06	3.4783e-06	1602.6	309.14	7.9157e-06	9.3554e-06	529.67	188.4	102.11	47.587	7.86e-06	89.878	0.00029329	0.00031079	8.0136e-05	982.46	3.0903e-06	3.4301e-06	1402.3	272.08	3.1614e-06	3.4217e-06	455.71	161.67	86.941	41.763	3.2466e-06	76.569	378.857	145.435	42.232	48.862	166.869	149.397	48.194	53.814	134.563	137.238	52.444	56.359	58.692	62.859	164.334	59.915	-8191	255	
3217.851	1	1	0	0	0.24517	0.2385	0.23902	0.029274	0.19211	0.15944	0.14577	0.22207	0.10343	0.013708	0.27076	0.24245	0.15627	0.12993	0.14789	0.17023	-2.1125	-1.7687	-1.525	-2.5646	-1.5417	-2.2917	-2.5312	-1.5167	-2.5625	-2.175	-2.0542	-2.6458	-1.6167	-2.0938	-2.3604	-1.6625	83.208	153.031	304.198	266.008	55.481	287.000	346.297	220.516	329.318	354.930	366.845	45.894	319.292	359.123	225.910	352.961	0.0019085	0.00049322	0.00028276	1115.4	8.2459e-06	7.3319e-06	1604.7	307.82	6.8519e-06	5.3803e-06	535.66	189.19	102.96	47.626	2.4585e-06	90.66	0.00031685	0.00031675	8.1313e-05	987.5	3.3339e-06	3.4301e-06	1408.7	272.83	3.3772e-06	3.4169e-06	459.09	163.1	88.599	42.042	3.2197e-06	77.281	387.383	384.279	107.912	48.907	172.458	306.762	47.904	54.224	161.327	237.595	52.893	56.563	58.389	62.667	80.111	59.758	-8191	255	
3217.947	1	1	0	0	0.26692	0.17307	0.1251	0.083936	0.11583	0.12065	0.11634	0.071197	0.16253	0.20561	0.12445	0.27344	0.074039	0.2615	0.23515	0.047486	-1.9042	-1.9708	-1.4229	-2.7062	-1.4833	-1.9583	-2.6729	-1.725	-2.225	-2.1271	-1.825	-2.7062	-1.8958	-1.9417	-2.2792	-1.675	175.533	53.437	123.785	388.820	152.856	338.408	351.073	116.979	39.104	386.091	163.129	393.193	291.329	361.951	370.207	351.056	0.0020148	0.00037502	0.00018463	1110	9.4626e-06	6.172e-06	1623.8	309.78	9.9642e-06	8.5663e-06	534.87	191.28	103.51	47.63	7.6277e-06	90.173	0.00033685	0.00031664	8.1711e-05	987.98	3.6401e-06	3.4487e-06	1419.7	274.33	3.6633e-06	3.478e-06	461.19	164.93	89.814	41.811	3.2592e-06	77.204	381.365	118.659	135.483	48.876	122.077	45.483	48.206	53.798	191.316	71.977	52.715	56.350	58.801	63.046	213.036	59.815	-8191	255	
3218.043	1	1	0	0	0.18476	0.41508	0.12406	0.16118	0.20114	0.031565	0.13715	0.36162	0.11805	0.28824	0.082408	0.15883	0.045862	0.16766	0.14768	0.23508	-1.8292	-1.9729	-1.4292	-2.6312	-1.6771	-2.0187	-2.7188	-1.6812	-2.0062	-2.2604	-1.3896	-2.6604	-1.9646	-2.0104	-2.5792	-1.7208	346.043	158.512	318.818	334.897	145.522	356.254	277.367	318.902	163.530	193.632	240.934	323.713	277.311	333.117	285.747	371.872	0.0020192	0.00092474	0.00020219	1121	1.2934e-06	6.0672e-06	1620.2	308.07	7.9415e-06	6.2936e-06	529.57	190.26	102.31	47.205	1.0197e-05	89.912	0.00034866	0.00031493	8.075e-05	993.59	3.7039e-06	3.4114e-06	1419.2	274.71	3.7158e-06	3.3728e-06	458.24	164.88	88.849	41.584	3.2143e-06	77.262	380.845	163.908	118.721	48.790	300.676	221.904	48.276	54.143	152.111	164.660	52.866	56.461	58.286	62.663	181.824	59.852	-8191	255	
3218.164	1	1	0	0	0.096635	0.26041	0.15469	0.30322	0.11609	0.10646	0.43141	0.094848	0.1341	0.18552	0.18963	0.39821	0.31339	0.2838	0.15709	0.28761	-1.5083	-2.1229	-1.4479	-2.3646	-2.1292	-1.8292	-2.5271	-1.7229	-2.0708	-2.4771	-1.675	-2.5375	-2.0292	-1.4729	-2.2812	-1.7167	116.807	198.662	362.955	373.073	82.652	367.086	345.294	241.624	376.497	87.782	109.521	41.416	310.388	383.959	153.520	364.754	0.0011607	0.00080478	7.924e-05	1119.9	2.479e-06	9.3131e-06	1622.6	310.77	5.028e-06	8.1192e-06	535.2	190.85	102.05	47.803	5.0385e-06	90.911	0.00034225	0.00030773	8.024e-05	995.5	3.5903e-06	3.3034e-06	1421.2	276.69	3.5974e-06	3.2967e-06	461.12	165.38	88.842	41.932	3.2942e-06	78.142	371.023	205.027	93.978	48.834	76.522	91.866	48.651	53.965	221.205	226.389	52.690	56.182	58.526	62.725	138.442	60.070	-8191	255	
3218.236	1	1	0	0	0.27417	0.098909	0.22367	0.29655	0.063391	0.10827	0.11023	0.01938	0.21947	0.14719	0.17123	0.089897	0.23075	0.19487	0.25285	0.06768	-1.5646	-2.2938	-1.4146	-2.3146	-2.0417	-1.4854	-2.4562	-1.7646	-1.7771	-2.4646	-1.5833	-2.1146	-2.0958	-1.8417	-2.3146	-1.9542	95.435	251.487	182.647	78.448	265.870	305.591	390.754	102.464	99.236	138.450	71.964	356.987	117.370	56.395	356.180	120.986	0.0020075	0.00019881	0.0003223	1118.3	5.708e-06	9.9259e-06	1616.5	310.22	6.823e-06	2.357e-06	535.63	191.51	102.19	48.043	4.3419e-06	91.434	0.00033398	0.00030162	8.2359e-05	998.01	3.4326e-06	3.2003e-06	1420.9	275.49	3.3697e-06	3.1593e-06	460.65	165.39	88.269	42.055	3.3169e-06	78.304	381.513	358.880	112.171	49.319	170.519	156.818	48.033	53.406	122.316	38.221	52.553	56.239	58.997	62.561	157.169	59.851	-8191	255	
3218.355	1	1	0	0	0.21249	0.17208	0.041472	0.49672	0.10515	0.10511	0.38891	0.23609	0.26107	0.016132	0.24179	0.050843	0.30923	0.39761	0.052902	0.16915	-1.3979	-2.3729	-1.4042	-2.3104	-2.2	-1.6187	-2.5833	-2.0729	-1.8583	-2.5208	-1.8042	-2.2833	-2.5104	-1.6479	-2.4583	-2.0812	341.237	335.948	207.889	360.203	133.414	349.712	373.920	48.222	222.744	299.515	263.436	330.402	51.991	337.559	248.559	380.481	0.0019123	0.00021371	0.00036735	1118.6	1.1317e-05	3.5485e-06	1621.2	308.04	9.8341e-06	9.8092e-06	532.99	188.93	101.77	47.785	5.5206e-06	90.213	0.00031704	0.00029175	8.5574e-05	994.96	3.3435e-06	3.1186e-06	1421.4	274.89	3.21e-06	3.0358e-06	459.1	163.55	87.158	41.67	3.3985e-06	77.289	384.772	164.919	91.866	48.671	178.097	123.280	48.232	53.748	112.361	141.658	52.388	56.275	58.644	62.293	173.695	59.449	-8191	255	
3218.451	1	1	0	0	0.20731	0.08737	0.071157	0.14175	0.15263	0.14007	0.10151	0.25656	0.20942	0.08003	0.27531	0.28531	0.035491	0.11799	0.20453	0.29552	-1.1771	-2.3958	-1.6063	-2.0854	-2.2354	-1.4208	-2.5521	-2.0146	-1.4958	-2.5563	-1.6979	-1.9188	-2.525	-1.6604	-2.6229	-2.3146	184.937	60.649	364.737	390.593	346.470	88.175	240.326	321.724	237.107	294.695	338.931	336.097	81.430	331.481	51.940	272.095	0.001948	0.00065643	0.0002837	1118.9	1.6175e-05	6.4092e-06	1614.7	309.2	5.033e-06	3.1098e-06	531.89	188.66	102.48	47.747	8.8442e-06	90.145	0.00029896	0.00027763	8.7642e-05	993.93	3.2003e-06	3.0859e-06	1418.2	274.31	3.1281e-06	3.0863e-06	460.4	163.64	86.992	41.782	3.5107e-06	77.179	377.344	112.454	136.766	48.729	128.346	87.804	48.081	53.403	128.348	204.898	52.377	55.847	58.615	62.170	137.144	59.550	-8191	255	
3218.547	1	1	0	0	0.10289	0.031503	0.09893	0.28353	0.23796	0.1975	0.13752	0.075922	0.21324	0.20268	0.12579	0.26492	0.30062	0.24252	0.096497	0.14491	-1.3917	-2.4	-1.8208	-2.1146	-2.4313	-1.4542	-2.3854	-2.1771	-1.45	-2.3083	-1.8167	-1.9604	-2.325	-1.6063	-1.9813	-2.2729	111.737	341.803	355.091	366.009	147.888	288.484	311.570	332.048	350.309	55.145	82.065	332.724	126.083	116.194	67.350	246.135	0.0020629	0.0005029	0.00016903	1119.7	2.6495e-06	8.7742e-06	1613.6	309.15	1.1984e-05	3.6269e-06	531.66	189.25	102.6	47.731	1.3246e-05	91.246	0.00029573	0.00028471	8.8707e-05	989.45	3.0493e-06	3.1542e-06	1414.7	273.31	3.0164e-06	3.219e-06	461.05	163.39	87.079	41.84	3.4854e-06	77.649	382.415	139.671	88.019	48.810	45.531	180.940	48.056	53.515	99.882	198.765	52.668	56.201	58.218	62.631	203.945	59.483	-8191	255	
3218.643	1	1	0	0	0.12043	0.14583	0.1702	0.069697	0.3486	0.2458	0.2578	0.12519	0.10531	0.14336	0.31951	0.3045	0.13298	0.27363	0.083202	0.37171	-0.9	-2.3063	-1.8125	-1.7229	-2.5354	-1.8042	-2.4208	-2.3688	-1.5583	-2.2771	-2.2812	-1.6208	-2.55	-1.5208	-1.9146	-2.5979	315.121	252.126	344.940	387.525	94.953	248.523	325.283	207.399	174.696	343.008	84.520	378.697	59.141	346.308	95.015	329.435	0.0016102	0.00047511	0.00023702	1119.5	7.5138e-06	2.4143e-06	1618.5	307.56	5.1003e-06	3.5676e-06	533.03	188.97	100.86	47.49	5.5397e-06	90.811	0.00029003	0.00030761	8.7977e-05	992.32	3.0894e-06	3.3972e-06	1420.4	273.75	3.048e-06	3.4152e-06	460.76	163.1	86.432	41.762	3.3386e-06	77.142	391.664	138.691	75.845	48.678	164.649	135.523	48.204	53.589	132.602	141.611	52.460	56.282	58.173	62.687	177.060	59.712	-8191	255	
3218.764	1	1	0	0	0.10967	0.18574	0.17304	0.23601	0.050888	0.12048	0.12949	0.33836	0.21902	0.15179	0.0982	0.21522	0.16115	0.054391	0.20875	0.10772	-0.95625	-2.4208	-2.1813	-1.9125	-2.7396	-1.7687	-2.2396	-2.5167	-1.575	-2.2875	-2.3063	-1.7375	-2.6417	-2.0354	-1.8937	-2.6771	329.603	288.619	99.375	280.762	314.573	246.916	250.424	317.951	271.128	281.833	384.244	317.695	306.334	315.972	345.184	339.431	0.0017398	0.0006914	0.00010942	1119.3	2.9598e-06	6.2483e-06	1612	308.87	7.5464e-06	6.7109e-06	532.33	189.03	100.47	46.981	1.0855e-05	89.808	0.0002945	0.00031428	8.4442e-05	991.49	3.1325e-06	3.5268e-06	1415.5	272.18	3.1397e-06	3.4701e-06	458.41	162.05	86.134	41.525	3.1821e-06	76.594	385.930	146.638	266.457	49.044	225.877	97.173	48.483	53.848	151.139	177.269	52.540	56.657	58.966	62.673	132.672	59.622	-8191	255	
3218.835	1	1	0	0	0.10832	0.04832	0.070963	0.16599	0.28296	0.3598	0.20514	0.082213	0.16823	0.11255	0.1431	0.47071	0.26756	0.2236	0.1354	0.17331	-1.3979	-2.3	-2.3479	-1.7583	-2.6042	-1.6833	-1.8833	-2.3937	-1.5292	-2.5	-2.4229	-1.8396	-2.5771	-2.1188	-1.7938	-2.7083	178.337	376.477	321.642	300.617	334.708	280.529	394.706	65.458	345.804	233.632	349.103	360.349	52.465	331.092	240.533	194.103	0.0021586	0.00096705	0.00015072	1116.3	6.0124e-06	1.8285e-06	1612.8	307.88	9.5833e-06	5.3716e-06	532.11	188.51	102.41	47.73	3.5373e-06	91.386	0.00030653	0.00031696	8.1307e-05	986.41	3.2631e-06	3.4899e-06	1412.3	272.59	3.3325e-06	3.4464e-06	458.65	162.73	87.532	41.888	3.1448e-06	77.46	383.381	103.686	392.423	49.243	222.142	376.007	48.436	53.834	174.429	141.930	52.478	56.113	58.376	62.561	167.856	59.882	-8191	255	
3218.932	1	1	0	0	0.22694	0.22543	0.062318	0.54776	0.30157	0.26821	0.19869	0.41845	0.18923	0.1716	0.11056	0.24559	0.16198	0.21711	0.22898	0.13681	-1.2979	-2.3438	-2.4875	-1.6313	-2.2562	-1.8792	-1.6812	-2.6583	-1.6854	-1.8479	-2.3792	-1.5458	-2.5479	-2.275	-1.6333	-2.8604	131.521	241.577	229.642	381.710	211.000	323.125	362.012	327.478	176.240	291.368	319.027	388.614	333.173	42.764	393.873	319.532	0.0018633	0.00011969	4.3971e-05	1110.1	7.0177e-06	5.955e-06	1611	307	7.8723e-06	6.7654e-06	530.48	188.18	101.07	47.37	4.1685e-06	90.483	0.00032141	0.00030534	7.9112e-05	985.12	3.3753e-06	3.3271e-06	1410.5	272.23	3.422e-06	3.2524e-06	456.3	162.01	87.208	41.586	2.9894e-06	77.194	381.470	267.913	179.704	49.218	191.116	54.197	48.501	53.895	161.943	69.253	52.862	56.510	59.226	62.601	131.339	60.150	-8191	255	
3219.028	1	1	0	0	0.24908	0.13145	0.11568	0.11793	0.21241	0.087634	0.032942	0.14606	0.22269	0.12231	0.087651	0.30206	0.12987	0.19626	0.15611	0.11698	-1.6229	-1.9604	-2.625	-1.8083	-2.4688	-2.1646	-1.8875	-2.6167	-1.8208	-1.9188	-2.6917	-1.8042	-2.3187	-2.2646	-1.5271	-2.6167	259.662	224.809	301.350	247.305	232.033	381.197	329.546	310.640	41.310	115.289	230.304	322.581	362.494	53.280	295.359	308.651	0.0019547	0.00036452	7.5933e-05	1114.5	5.1345e-06	6.035e-06	1611	308.85	8.3498e-06	4.052e-06	530.91	187.67	100.5	46.863	5.3043e-06	89.759	0.00032094	0.0002915	7.5926e-05	983.84	3.4207e-06	3.1612e-06	1405.2	271.81	3.3791e-06	3.0624e-06	454.8	161.08	86.579	41.169	2.9003e-06	76.636	370.392	120.407	114.911	49.047	283.346	176.944	48.367	54.023	133.009	83.031	52.868	57.017	59.035	63.302	179.653	60.441	-8191	255	
3219.147	1	1	0	0	0.10244	0.23034	0.19805	0.20178	0.077016	0.16547	0.46049	0.12454	0.29109	0.066248	0.067545	0.29725	0.36407	0.14643	0.10271	0.16511	-1.4354	-1.8188	-2.4708	-1.8604	-2.3229	-2.3729	-1.8083	-2.4958	-1.7229	-1.6583	-2.6646	-1.6646	-2.0729	-2.3875	-1.5896	-2.7	97.366	350.820	163.700	375.254	310.555	249.320	289.104	180.105	121.841	378.050	62.300	346.051	165.210	300.065	230.476	40.359	0.0015307	0.0010707	0.00038361	1107.4	4.3945e-06	2.1707e-06	1611.6	306.45	7.7716e-06	1.0321e-05	528.76	186.64	100.99	47.184	4.1034e-06	91.079	0.00032082	0.00027835	7.4235e-05	984.16	3.2747e-06	3.0198e-06	1402	271.58	3.2442e-06	3.0066e-06	454.63	161.25	85.934	41.305	2.8441e-06	77.223	382.772	114.918	145.743	49.261	192.104	152.367	48.463	54.225	154.079	157.935	53.102	56.771	59.263	63.139	177.843	60.382	-8191	255	
3219.243	1	1	0	0	0.24202	0.23111	0.091293	0.065405	0.15969	0.25338	0.3893	0.11135	0.059477	0.15714	0.23468	0.29544	0.10873	0.11327	0.15945	0.18337	-1.8146	-1.5438	-2.6417	-2	-2.1229	-2.5833	-1.6208	-2.5292	-2.1042	-1.6437	-2.7042	-1.9625	-1.9083	-2.7042	-1.6083	-2.3667	371.296	185.971	293.538	169.938	274.107	229.023	314.023	122.986	275.010	365.167	321.561	361.302	314.092	97.239	261.007	48.931	0.0016074	0.00043449	0.00031605	1108.8	8.9062e-06	1.2658e-05	1609.3	308.53	3.7988e-06	9.3872e-06	533.93	187.59	100.7	47.122	1.219e-05	90.273	0.00030305	0.00026876	7.2678e-05	983.16	3.0938e-06	2.9304e-06	1404.4	272.52	3.082e-06	2.9041e-06	456.49	161.32	85.648	41.151	2.9497e-06	77.026	380.866	150.108	98.335	48.930	129.186	112.529	48.546	54.086	47.501	123.096	52.895	56.896	59.239	62.467	235.775	59.826	-8191	255	
3219.339	1	1	0	0	0.19985	0.22876	0.035345	0.35999	0.2241	0.14558	0.30696	0.043639	0.21792	0.029232	0.10445	0.096535	0.32375	0.30286	0.1895	0.20419	-1.6771	-1.5375	-2.3667	-2.0187	-1.9792	-2.4333	-1.7375	-2.2667	-2.1688	-1.6979	-2.6104	-2.0187	-1.7646	-2.5646	-1.4979	-2.2292	165.727	64.653	310.402	55.400	375.590	146.569	327.657	138.314	269.461	153.905	103.024	351.587	252.405	80.273	194.505	376.228	0.0017406	0.00038297	0.00039202	1105.4	1.3316e-06	5.0521e-06	1600.6	305.41	7.7159e-06	5.171e-06	528.66	185.66	98.802	47.063	4.209e-07	90.167	0.00029454	0.00026174	7.5868e-05	982.03	2.9628e-06	2.8614e-06	1399.5	271.45	2.9647e-06	2.8027e-06	455.47	160.36	84.27	41.035	3.1373e-06	76.677	386.709	186.791	110.824	48.881	277.905	142.303	48.338	54.289	191.315	113.943	53.236	56.923	58.737	63.404	72.038	60.447	-8191	255	
3219.435	1	1	0	0	0.15714	0.12574	0.20132	0.2238	0.037676	0.19167	0.27978	0.21586	0.32212	0.080895	0.23555	0.18167	0.2156	0.14586	0.058386	0.021087	-1.8083	-1.4438	-2.4458	-1.8146	-1.625	-2.2958	-1.6271	-2.2542	-2.4313	-1.7	-2.4542	-2.0104	-1.8	-2.8	-1.6854	-2.1292	71.123	186.382	248.196	345.410	82.322	152.774	271.650	324.224	83.726	52.567	277.906	335.500	256.079	55.838	275.593	326.882	0.0018371	6.2169e-05	0.00039645	1108.3	1.2541e-05	3.1639e-06	1606.7	305.44	3.6992e-06	9.3408e-06	530.12	185.18	100.19	46.963	6.2339e-06	90.156	0.00028046	0.00025674	8.011e-05	979.77	2.9505e-06	2.8621e-06	1401.6	270.76	2.9533e-06	2.8481e-06	456.22	159.65	84.345	41.034	3.1634e-06	76.734	381.097	395.487	107.246	49.018	169.211	200.364	48.600	54.171	237.412	187.598	53.405	56.811	58.887	63.263	164.340	60.786	-8191	255	
3219.531	1	1	0	0	0.18162	0.23767	0.2186	0.31666	0.083064	0.23481	0.14645	0.14051	0.2337	0.27658	0.054057	0.097417	0.25992	0.26524	0.064728	0.22173	-1.9312	-1.6854	-2.2438	-2.3229	-1.475	-2.3458	-1.7625	-1.9104	-2.3521	-1.4208	-2.2542	-2.1917	-1.2146	-2.4896	-1.8417	-2	363.455	94.853	379.919	364.669	206.883	305.194	306.837	226.109	337.974	309.048	64.100	263.213	309.705	338.690	375.429	319.067	0.0018401	0.00086471	0.00020512	1098.6	6.8373e-06	5.2827e-06	1602.2	307.24	3.432e-06	5.5187e-06	530.55	186.77	99.539	47.394	5.6788e-07	90.619	0.00027665	0.00025517	8.0371e-05	975.71	2.7661e-06	2.8681e-06	1396.9	269.65	2.8205e-06	2.865e-06	456.18	160.18	83.738	41.252	3.1492e-06	77.016	383.877	149.731	53.654	49.251	122.201	171.148	48.616	54.621	199.371	124.592	53.417	56.810	58.886	63.173	366.315	60.147	-8191	255	
3219.627	1	1	0	0	0.10212	0.24108	0.19181	0.13451	0.20405	0.071698	0.28872	0.067562	0.097975	0.26686	0.25046	0.14649	0.19913	0.27349	0.33784	0.11826	-2.1583	-1.6208	-2.4437	-2.5604	-1.6917	-2.3708	-2.1146	-1.8229	-2.4167	-1.6208	-2.3146	-2.1708	-1.6396	-2.5896	-2.0292	-2	197.810	395.697	190.672	289.703	390.659	347.022	328.217	369.574	69.149	134.877	306.238	308.408	226.004	285.542	339.002	65.390	0.0019837	0.00099904	0.00016949	1098.3	5.9919e-06	6.2026e-06	1591.2	305.35	8.9405e-06	2.9383e-06	529.37	185.33	99.918	47.003	7.6903e-06	90.273	0.00026484	0.00026392	7.795e-05	973.79	2.7123e-06	2.9018e-06	1393.1	269.86	2.6973e-06	2.9532e-06	455.55	159.1	83.59	41.201	3.0195e-06	76.501	380.627	132.826	373.211	48.897	194.713	156.802	48.671	54.460	130.048	191.782	53.355	56.803	58.900	63.160	183.540	60.216	-8191	255	
3219.746	1	1	0	0	0.24517	0.38888	0.17442	0.13926	0.16309	0.16633	0.10098	0.12248	0.1627	0.22439	0.12179	0.25838	0.23209	0.12166	0.23957	0.15336	-2.1729	-1.5917	-2.0292	-2.4958	-1.4438	-2.2646	-2.2146	-1.5375	-2.4479	-1.7875	-2.3833	-2.4958	-1.8021	-2.6937	-2.1229	-2.0229	207.215	255.009	133.361	336.587	374.998	199.488	294.597	167.487	230.232	300.214	360.714	373.804	67.316	290.223	328.756	150.089	0.0021278	0.0012463	0.00027284	1096.8	7.2833e-06	6.6227e-06	1603.1	304.07	9.1938e-06	1.2577e-05	529.13	184.5	98.489	46.72	1.371e-06	89.804	0.00026269	0.00027581	7.6173e-05	974.89	2.76e-06	3.1214e-06	1401.1	269.73	2.7837e-06	3.1215e-06	453.95	158.96	83.449	40.885	2.9392e-06	76.09	376.107	97.079	84.869	49.330	165.591	117.575	48.836	54.464	191.161	134.795	53.521	57.166	58.962	63.241	158.868	60.256	-8191	255	
3219.842	1	1	0	0	0.1418	0.33606	0.078412	0.26437	0.37553	0.16145	0.2163	0.11469	0.11162	0.24866	0.083762	0.30825	0.03367	0.1105	0.20174	0.19878	-2.0938	-1.8208	-1.8333	-2.5771	-1.5875	-2.2667	-2.4833	-1.725	-2.5833	-2	-2.1583	-2.7104	-1.5312	-2.4	-2.1312	-1.6104	281.113	361.692	360.090	360.925	226.489	87.058	368.525	334.989	169.829	257.456	365.883	41.921	39.864	249.001	365.475	369.071	0.0025908	0.001047	0.00011478	1105.7	1.0647e-05	3.0096e-06	1590.5	306.8	4.7407e-06	4.1214e-06	533.33	185.99	98.135	46.652	2.9885e-06	89.929	0.00027155	0.0002819	7.3068e-05	972.93	2.8237e-06	3.0764e-06	1390.5	269.04	2.884e-06	3.1184e-06	455.39	159.14	84.048	40.995	2.9175e-06	76.392	390.000	108.746	327.354	49.307	134.140	254.414	48.667	54.674	88.717	137.733	53.409	56.628	58.745	63.234	162.489	60.584	-8191	255	
3219.938	1	1	0	0	0.20348	0.05817	0.30033	0.065042	0.20802	0.21602	0.22747	0.070012	0.11765	0.3422	0.15391	0.2381	0.14129	0.19924	0.27766	0.12362	-1.9292	-1.6396	-1.6083	-2.5208	-1.7292	-2.1771	-2.375	-1.6	-2.3125	-1.8542	-1.9167	-2.8104	-1.8125	-2.3042	-2.3146	-1.7208	231.375	38.387	50.131	394.324	57.275	183.973	71.323	45.270	365.021	40.141	391.642	284.016	319.037	48.045	382.939	70.998	0.0019404	0.00057417	6.0185e-05	1112.5	8.84e-06	9.8369e-07	1607.3	306.11	6.2406e-06	1.0193e-05	532.88	185.83	99.402	46.807	5.2006e-06	89.649	0.00029017	0.00028589	7.2911e-05	976.8	3.0638e-06	3.0332e-06	1395.6	269.62	3.0609e-06	3.0583e-06	455.81	159.01	84.603	40.962	2.8401e-06	76.368	385.379	386.896	47.565	49.306	157.127	61.800	48.339	54.042	167.974	140.965	52.825	56.755	58.206	63.178	262.417	60.449	-8191	255	
3220.035	1	1	0	0	0.24672	0.095529	0.26239	0.25731	0.26805	0.16031	0.21236	0.041399	0.31191	0.33655	0.11236	0.028232	0.40031	0.13145	0.12662	0.3192	-1.8729	-2.0583	-1.6833	-2.6167	-1.7771	-1.8979	-2.6146	-1.4792	-2.4167	-1.9813	-1.8042	-2.5938	-1.7563	-1.975	-2.475	-1.5333	297.740	394.897	121.457	360.054	296.574	158.124	265.820	160.659	381.084	389.922	344.982	139.186	265.184	226.180	147.107	49.055	0.0016209	0.00039785	0.00015988	1101.8	7.0369e-06	2.0675e-06	1609	307.72	1.213e-05	5.1663e-06	529.23	184.14	97.913	46.502	5.9984e-06	88.844	0.00029881	0.00027518	7.1397e-05	974.27	3.1613e-06	2.9437e-06	1399.3	269.98	3.13e-06	2.9229e-06	453.63	158.53	84.004	40.577	2.7076e-06	75.683	381.580	156.151	66.859	49.450	183.314	209.946	48.502	54.334	142.399	80.148	53.385	57.159	59.082	63.354	162.238	60.618	-8191	255	
3220.131	1	1	0	0	0.16227	0.12247	0.20405	0.15836	0.23422	0.082361	0.43313	0.14886	0.1753	0.29499	0.24471	0.10616	0.079462	0.1968	0.12812	0.17268	-2.0833	-2.2729	-1.5042	-2.4938	-1.6562	-1.8167	-2.5646	-1.6271	-2.1667	-2.2521	-1.5125	-2.5312	-2.0062	-1.9188	-2.5729	-1.7146	91.044	78.103	249.660	310.915	73.189	388.894	358.241	385.032	82.413	285.929	309.628	340.157	48.075	276.213	312.452	345.978	0.0013422	0.00068458	0.00022131	1107.1	5.0476e-06	7.3862e-06	1599.6	305.52	2.8359e-06	3.9284e-06	530.38	183.97	98.807	46.311	5.5328e-06	89.388	0.00029935	0.00026088	6.7462e-05	975.08	3.11e-06	2.8075e-06	1392.7	269.61	3.0787e-06	2.8778e-06	453.38	158.32	84.189	40.352	2.7155e-06	75.866	40.089	190.966	379.994	48.864	181.164	155.923	48.379	53.897	158.362	126.965	52.987	56.820	58.935	62.806	263.858	59.770	-8191	255	
3220.227	1	1	0	0	0.34332	0.10452	0.11876	0.46214	0.040162	0.10614	0.26419	0.22492	0.18783	0.046466	0.22232	0.083459	0.27929	0.20658	0.15128	0.098463	-1.5521	-2.1208	-1.4333	-2.5604	-2.1437	-1.8021	-2.6312	-1.8708	-1.8521	-2.3667	-1.4479	-2.3792	-2.0104	-1.5958	-2.3354	-1.8354	96.506	231.993	272.668	355.829	233.384	103.246	357.640	338.613	295.737	261.540	52.563	392.055	377.524	352.450	95.273	291.744	0.0016236	0.00092737	0.00030976	1102.9	6.09e-06	3.388e-06	1598.9	305.33	9.1398e-06	8.9429e-06	528.16	184.46	98.25	46.38	6.4119e-06	89.578	0.00029328	0.00025672	6.8136e-05	978.83	2.9518e-06	2.7219e-06	1395.5	270.13	3.0009e-06	2.7624e-06	453.55	158.87	83.749	40.349	2.7852e-06	76.231	369.602	96.359	111.440	48.913	95.332	203.513	48.613	54.257	207.933	99.781	53.024	56.634	58.857	62.819	226.783	59.915	-8191	255	
3220.323	1	1	0	0	0.22769	0.077997	0.14513	0.26166	0.232	0.12378	0.13212	0.2829	0.23051	0.069727	0.21668	0.033216	0.091933	0.28465	0.12259	0.26217	-1.6625	-2.4396	-1.3438	-2.2313	-2.0333	-1.6521	-2.7208	-1.8604	-1.9604	-2.3792	-1.6208	-2.4167	-2.1562	-1.5042	-2.4188	-1.8625	299.786	317.970	166.187	38.366	270.620	83.369	311.906	58.814	392.199	230.206	104.293	327.683	301.599	357.416	339.168	368.187	0.001923	0.00014657	0.00010233	1104.5	2.9663e-06	2.3617e-06	1603.1	305.76	8.4143e-06	4.0354e-06	529.83	185.05	97.316	46.184	7.5606e-06	89.495	0.00028117	0.00025265	7.0585e-05	977.06	2.9173e-06	2.7067e-06	1400	270.27	2.8827e-06	2.7043e-06	454.89	159.21	83.117	40.257	2.9602e-06	76.135	393.234	357.281	127.582	49.212	351.328	209.188	48.423	54.162	179.296	186.556	53.151	57.059	58.584	63.194	198.186	60.308	-8191	255	
3220.444	1	1	0	0	0.12933	0.29129	0.16461	0.23197	0.058623	0.055928	0.31046	0.41047	0.1327	0.20924	0.19955	0.20604	0.26942	0.21161	0.015805	0.14183	-1.2854	-2.3187	-1.4937	-2.1979	-2.2583	-1.4333	-2.3083	-1.775	-1.8021	-2.6042	-1.5438	-2.25	-2.1896	-1.6146	-2.5708	-2.0771	58.241	341.368	372.589	390.105	208.884	395.592	363.510	60.925	182.288	109.022	302.829	69.122	84.334	365.023	364.027	320.465	0.0017444	0.00091981	0.00019459	1103.7	3.3231e-06	8.1933e-07	1597.3	307.1	4.0861e-06	9.5036e-06	528.48	183.63	97.152	45.807	4.4292e-06	89.247	0.00027352	0.00024776	7.5837e-05	976.78	2.8424e-06	2.6426e-06	1397.5	270.04	2.8302e-06	2.6962e-06	453.51	157.87	82.62	39.831	3.0375e-06	75.486	384.567	79.511	60.780	49.200	239.801	293.788	48.403	54.225	237.086	100.847	53.242	56.624	59.105	63.003	206.434	60.009	-8191	255	
3220.538	1	1	0	0	0.2374	0.11614	0.22916	0.20929	0.12842	0.079543	0.33747	0.10865	0.12873	0.18885	0.11332	0.2584	0.13943	0.1194	0.10461	0.13164	-1.3188	-2.475	-1.5979	-2.1604	-2.3187	-1.2896	-2.3979	-2.1521	-1.5604	-2.4646	-1.7104	-2.0563	-2.3958	-1.5375	-2.2792	-2.1167	299.786	166.525	183.488	70.171	323.602	65.186	340.122	378.019	310.285	311.766	359.414	335.510	371.861	312.801	251.404	339.996	0.0021307	0.00058878	0.00011826	1105.3	4.7819e-07	3.7223e-06	1595.9	304.66	5.7227e-06	4.4623e-06	530.83	183.61	99.479	46.366	4.7215e-06	89.07	0.00026901	0.00024662	7.7088e-05	974.8	2.8011e-06	2.6891e-06	1398.6	268.56	2.7548e-06	2.7934e-06	455.43	157.9	83.278	40.307	3.16e-06	75.813	395.061	89.199	100.389	49.502	220.925	229.661	48.499	54.068	198.224	124.811	52.388	56.696	58.355	62.792	269.386	59.970	-8191	255	
3220.634	1	1	0	0	0.23393	0.20944	0.19154	0.26999	0.2253	0.23965	0.3255	0.16839	0.25382	0.32888	0.1673	0.18669	0.053163	0.083804	0.26215	0.22874	-1.0021	-2.3083	-1.5271	-1.8687	-2.2958	-1.4229	-2.3521	-2.3042	-1.8188	-2.4562	-1.9875	-1.8333	-2.2396	-1.6	-1.9354	-2.2458	300.749	342.523	86.124	384.990	325.068	277.643	307.486	346.202	345.461	323.012	301.523	42.298	66.155	359.301	116.530	375.715	0.0018529	0.001128	0.0002232	1103.9	3.5546e-06	2.9408e-06	1598.6	304.1	7.6715e-06	8.197e-06	531.27	183.49	98.455	45.928	4.8187e-06	89.015	0.00026268	0.00026162	7.9773e-05	976	2.7826e-06	2.8624e-06	1399.9	269.38	2.7849e-06	2.9392e-06	456.7	158.33	82.939	40.208	3.1099e-06	75.721	377.531	60.688	107.166	48.778	157.037	305.056	48.128	53.714	135.313	187.711	52.691	56.600	59.207	62.455	261.008	60.134	-8191	255	
3220.708	1	1	0	0	0.11785	0.23287	0.048454	0.18404	0.14322	0.23084	0.28494	0.13071	0.10589	0.25022	0.042494	0.069217	0.047137	0.12949	0.24231	0.047027	-1.275	-2.3292	-1.9854	-1.95	-2.3896	-1.6417	-2.2188	-2.2875	-1.4667	-2.5042	-2.0854	-1.8271	-2.4229	-1.5812	-1.9792	-2.4313	170.748	257.185	291.257	373.959	364.544	305.891	314.534	62.058	79.854	117.316	41.779	351.591	228.440	265.128	325.927	320.874	0.0016355	0.0005639	7.169e-05	1100.9	7.8348e-06	3.6141e-06	1596.3	304.92	1.7565e-06	6.196e-06	529.17	183.14	96.202	45.695	1.3362e-05	88.488	0.00026491	0.00027952	7.8961e-05	973.13	2.7622e-06	3.0564e-06	1397.4	268.4	2.7465e-06	3.0794e-06	453.66	157.47	81.935	40.006	2.9913e-06	74.971	38.464	135.921	202.391	49.009	142.165	103.447	48.443	54.143	53.920	144.867	52.795	56.803	58.071	62.855	233.617	60.153	-8191	255	
3220.827	1	1	0	0	0.17794	0.29741	0.22062	0.30093	0.083802	0.12786	0.18828	0.25452	0.2968	0.072171	0.15072	0.14406	0.055411	0.14159	0.40086	0.24049	-1.1104	-2.3792	-2.1604	-1.9229	-2.3708	-1.5896	-2.3063	-2.6188	-1.6187	-2.2562	-2.1063	-1.5833	-2.6	-1.9333	-1.8563	-2.4813	332.169	182.836	381.685	349.037	219.626	234.989	383.621	341.536	147.446	55.213	325.868	264.438	39.830	165.271	240.875	327.465	0.0016285	0.0005743	6.0874e-05	1099.8	1.8787e-06	1.2684e-05	1590.8	304.54	8.1036e-06	9.4111e-06	528.22	184.34	97.062	45.837	5.7791e-06	88.878	0.00026607	0.00028472	7.4535e-05	969.02	2.8138e-06	3.124e-06	1392	267.3	2.8412e-06	3.1215e-06	451.94	157.52	82.841	40.124	2.8624e-06	75.26	376.640	47.591	101.780	49.245	40.826	155.219	48.636	54.017	154.022	193.557	52.557	56.837	58.742	62.777	199.045	60.354	-8191	255	
3220.923	1	1	0	0	0.17107	0.17074	0.13066	0.086958	0.27085	0.22045	0.11139	0.18562	0.19293	0.037383	0.30698	0.14288	0.18643	0.27297	0.3902	0.153	-1.0396	-2.0854	-2.3167	-1.7875	-2.4292	-1.9104	-1.8583	-2.4104	-1.3875	-2.0354	-2.2083	-1.6562	-2.3292	-2.0083	-1.75	-2.5979	85.266	150.111	54.534	76.152	385.475	68.337	282.384	61.613	72.940	246.085	37.016	314.210	343.614	367.930	389.633	351.552	0.0019154	0.0011719	0.00025712	1096.5	8.2449e-06	5.6099e-06	1602.1	303.96	1.2451e-05	2.6869e-06	528.94	184.77	99.013	45.879	5.8151e-06	88.589	0.00028261	0.00028601	7.3741e-05	969.11	3.016e-06	3.1366e-06	1397.7	267.56	3.0521e-06	3.1327e-06	454.29	158.7	83.688	40.253	2.8645e-06	75.656	388.115	173.585	129.570	49.011	160.661	85.533	48.509	54.093	128.727	230.697	52.625	56.496	58.497	62.394	127.136	60.267	-8191	255	
3221.019	1	1	0	0	0.18119	0.28521	0.064142	0.22292	0.11701	0.19381	0.30547	0.21078	0.11946	0.068351	0.12314	0.14456	0.052612	0.17954	0.26139	0.075269	-0.95417	-1.9104	-2.2896	-1.7146	-2.5812	-2.2021	-1.7313	-2.8187	-1.7938	-2.2062	-2.5729	-1.7375	-2.2833	-2.3292	-1.8	-2.6396	223.267	302.097	72.957	298.458	359.071	108.548	385.845	40.531	380.843	238.059	214.877	62.118	382.818	171.394	254.366	344.830	0.0018966	0.00023035	0.00025408	1095.5	1.2983e-05	5.2711e-06	1593.7	303.93	1.0252e-05	1.4426e-06	529.37	184.41	97.596	45.422	2.8697e-06	89.291	0.00029655	0.00028069	7.2265e-05	969.11	3.1105e-06	3.0193e-06	1395.5	267.5	3.1654e-06	3.0183e-06	452.99	158.61	83.77	39.958	2.8022e-06	75.551	379.016	319.845	97.979	49.141	176.814	142.886	48.334	54.086	152.158	164.907	52.818	56.183	59.682	62.513	249.722	59.802	-8191	255	
3221.115	1	1	0	0	0.16613	0.30854	0.07233	0.13573	0.073921	0.27718	0.34006	0.060307	0.055949	0.29531	0.33106	0.419	0.21464	0.12005	0.020817	0.1609	-1.3687	-1.7812	-2.4062	-1.7292	-2.4604	-2.1375	-1.6979	-2.4771	-1.8167	-1.8479	-2.5979	-1.7125	-2.3417	-2.3438	-1.4333	-2.5396	324.721	293.103	209.199	373.011	240.594	370.042	353.810	354.124	359.168	356.837	48.724	346.411	196.176	346.099	153.160	225.501	0.0020733	0.0003597	6.0638e-05	1090	5.8958e-06	7.4698e-07	1583.9	303.9	4.9438e-06	5.6446e-06	528.21	183.96	96.966	45.833	6.5508e-06	88.71	0.00030416	0.00026969	7.1458e-05	967.25	3.1655e-06	2.9258e-06	1388.4	267.47	3.1213e-06	2.8342e-06	450.79	157.59	83.149	39.994	2.6772e-06	75.61	392.553	131.228	241.991	48.986	153.789	380.670	48.766	54.956	109.574	116.510	53.255	56.613	58.912	62.681	189.177	60.258	-8191	255	
#DATA ENDS
