BOXY.EXE: ISS Imagent and Oximeter Data Acquisition Program Version 0.80
Ascii Record File

#ACQ INFORMATION
2  Detector Channels 
16  External MUX Channels 
1  Auxiliary Channels 
5000  Waveform (CCF) Frequency (Hz)
1  Waveforms Skipped 
30  Waveforms Averaged 
1  Cycles Averaged 
16  Acquisitions per Waveform 
10.0806  Updata Rate (Hz) 

#FILE INFORMATION
TRUE -- External MUX Channel results are PARSED.
FALSE -- AC DC and Phase are NOT grouped.
TRUE -- Companion Program Settings File CREATED.
FALSE -- AC data not excluded
FALSE -- DC data not excluded
FALSE -- Phase data not excluded
FALSE -- Auxillary Chn. data not excluded
Tab delimiters

#CALIBRATION STATE
TRUE -- Waveform Calibration Values APPLIED.


#AUX CALIBRATION VALUES
Val Type	aux-1	

Term	1.0000e+00	
Factor	0.0000e+00	


#WF CALIBRATION VALUES
A = Detector Channel
Val Type	A-AC1	A-AC2	A-AC3	A-AC4	A-AC5	A-AC6	A-AC7	A-AC8	A-AC9	A-AC10	A-AC11	A-AC12	A-AC13	A-AC14	A-AC15	A-AC16	A-DC1	A-DC2	A-DC3	A-DC4	A-DC5	A-DC6	A-DC7	A-DC8	A-DC9	A-DC10	A-DC11	A-DC12	A-DC13	A-DC14	A-DC15	A-DC16	A-Ph1	A-Ph2	A-Ph3	A-Ph4	A-Ph5	A-Ph6	A-Ph7	A-Ph8	A-Ph9	A-Ph10	A-Ph11	A-Ph12	A-Ph13	A-Ph14	A-Ph15	A-Ph16	

Term	0.00000e+00	0.00000e+00	0.00000e+00	0.00000e+00	0.00000e+00	0.00000e+00	0.00000e+00	0.00000e+00	0.00000e+00	0.00000e+00	0.00000e+00	0.00000e+00	0.00000e+00	0.00000e+00	0.00000e+00	0.00000e+00	0.00000e+00	0.00000e+00	0.00000e+00	0.00000e+00	0.00000e+00	0.00000e+00	0.00000e+00	0.00000e+00	0.00000e+00	0.00000e+00	0.00000e+00	0.00000e+00	0.00000e+00	0.00000e+00	0.00000e+00	0.00000e+00	0.00000e+00	0.00000e+00	0.00000e+00	0.00000e+00	0.00000e+00	0.00000e+00	0.00000e+00	0.00000e+00	0.00000e+00	0.00000e+00	0.00000e+00	0.00000e+00	0.00000e+00	0.00000e+00	0.00000e+00	0.00000e+00	
Factor	1.00000e+00	1.00000e+00	1.00000e+00	1.00000e+00	1.00000e+00	1.00000e+00	1.00000e+00	1.00000e+00	1.00000e+00	1.00000e+00	1.00000e+00	1.00000e+00	1.00000e+00	1.00000e+00	1.00000e+00	1.00000e+00	1.00000e+00	1.00000e+00	1.00000e+00	1.00000e+00	1.00000e+00	1.00000e+00	1.00000e+00	1.00000e+00	1.00000e+00	1.00000e+00	1.00000e+00	1.00000e+00	1.00000e+00	1.00000e+00	1.00000e+00	1.00000e+00	X	X	X	X	X	X	X	X	X	X	X	X	X	X	X	X	

B = Detector Channel
Val Type	B-AC1	B-AC2	B-AC3	B-AC4	B-AC5	B-AC6	B-AC7	B-AC8	B-AC9	B-AC10	B-AC11	B-AC12	B-AC13	B-AC14	B-AC15	B-AC16	B-DC1	B-DC2	B-DC3	B-DC4	B-DC5	B-DC6	B-DC7	B-DC8	B-DC9	B-DC10	B-DC11	B-DC12	B-DC13	B-DC14	B-DC15	B-DC16	B-Ph1	B-Ph2	B-Ph3	B-Ph4	B-Ph5	B-Ph6	B-Ph7	B-Ph8	B-Ph9	B-Ph10	B-Ph11	B-Ph12	B-Ph13	B-Ph14	B-Ph15	B-Ph16	

Term	0.00000e+00	0.00000e+00	0.00000e+00	0.00000e+00	0.00000e+00	0.00000e+00	0.00000e+00	0.00000e+00	0.00000e+00	0.00000e+00	0.00000e+00	0.00000e+00	0.00000e+00	0.00000e+00	0.00000e+00	0.00000e+00	0.00000e+00	0.00000e+00	0.00000e+00	0.00000e+00	0.00000e+00	0.00000e+00	0.00000e+00	0.00000e+00	0.00000e+00	0.00000e+00	0.00000e+00	0.00000e+00	0.00000e+00	0.00000e+00	0.00000e+00	0.00000e+00	-1.51084e+02	-1.28834e+02	-1.28025e+02	-1.86409e+02	-7.68898e+01	-6.93831e+01	-1.58531e+02	-1.62015e+02	-7.47914e+01	-6.79359e+01	-1.72014e+02	-1.71423e+02	-1.83400e+02	-1.77421e+02	-7.05656e+01	-1.49763e+02	
Factor	2.11876e-05	1.39541e-04	4.21210e-05	2.80485e-01	1.28048e-06	1.60148e-06	1.54187e-01	4.54447e-02	1.08396e-06	1.57593e-06	7.46426e-02	2.54121e-02	3.58899e-02	8.15869e-03	1.32146e-06	1.15051e-02	9.79520e-06	1.44465e-05	4.03494e-06	1.49735e-01	1.53051e-07	1.61647e-07	7.78450e-02	2.45314e-02	1.47844e-07	1.59374e-07	3.90137e-02	1.33397e-02	1.96024e-02	4.44578e-03	1.52412e-07	6.08456e-03	X	X	X	X	X	X	X	X	X	X	X	X	X	X	X	X	



#DISTANCE SETTINGS
A = Detector Channel
A-1	A-2	A-3	A-4	A-5	A-6	A-7	A-8	A-9	A-10	A-11	A-12	A-13	A-14	A-15	A-16	

2.5000e+00	3.0000e+00	2.5000e+00	3.0000e+00	2.0000e+00	3.0000e+00	1.5000e+00	3.0000e+00	3.0000e+00	3.0000e+00	3.0000e+00	3.0000e+00	3.0000e+00	3.0000e+00	1.5000e+00	3.0000e+00	

B = Detector Channel
B-1	B-2	B-3	B-4	B-5	B-6	B-7	B-8	B-9	B-10	B-11	B-12	B-13	B-14	B-15	B-16	

1.0000e+01	1.0000e+01	1.0000e+01	1.4400e+00	1.0000e+01	1.0000e+01	1.5100e+00	1.9400e+00	1.0000e+01	1.0000e+01	1.9900e+00	2.4900e+00	2.4100e+00	2.9000e+00	1.0000e+01	2.9800e+00	




#DATA BEGINS
time	group	step	mark	flag	A-AC1	A-AC2	A-AC3	A-AC4	A-AC5	A-AC6	A-AC7	A-AC8	A-AC9	A-AC10	A-AC11	A-AC12	A-AC13	A-AC14	A-AC15	A-AC16	A-DC1	A-DC2	A-DC3	A-DC4	A-DC5	A-DC6	A-DC7	A-DC8	A-DC9	A-DC10	A-DC11	A-DC12	A-DC13	A-DC14	A-DC15	A-DC16	A-Ph1	A-Ph2	A-Ph3	A-Ph4	A-Ph5	A-Ph6	A-Ph7	A-Ph8	A-Ph9	A-Ph10	A-Ph11	A-Ph12	A-Ph13	A-Ph14	A-Ph15	A-Ph16	B-AC1	B-AC2	B-AC3	B-AC4	B-AC5	B-AC6	B-AC7	B-AC8	B-AC9	B-AC10	B-AC11	B-AC12	B-AC13	B-AC14	B-AC15	B-AC16	B-DC1	B-DC2	B-DC3	B-DC4	B-DC5	B-DC6	B-DC7	B-DC8	B-DC9	B-DC10	B-DC11	B-DC12	B-DC13	B-DC14	B-DC15	B-DC16	B-Ph1	B-Ph2	B-Ph3	B-Ph4	B-Ph5	B-Ph6	B-Ph7	B-Ph8	B-Ph9	B-Ph10	B-Ph11	B-Ph12	B-Ph13	B-Ph14	B-Ph15	B-Ph16	aux-1	digaux	

29096.943	1	1	0	256	0.20446	0.047329	0.18825	0.19606	0.080972	0.085563	0.20457	0.15061	0.10429	0.12492	0.14952	0.18125	0.2916	0.092146	0.098328	0.13157	-2.4313	-1.9125	-2.925	-2.6063	-2.2417	-2.8833	-2.3854	-2.6063	-2.8563	-2.2	-2.9729	-2.9271	-2.3354	-3.0396	-2.2125	-2.575	449.425	192.668	336.937	451.308	414.369	244.316	483.889	435.597	373.480	327.161	490.037	142.614	485.935	500.111	376.823	413.241	0.00069401	0.00044271	0.00018354	1342.7	5.5703e-06	6.0401e-06	1338.6	359.9	4.6502e-06	3.3243e-06	412.7	138.91	120.61	40.79	5.6068e-06	50.605	0.00056188	0.00052928	0.00014444	1364.8	5.9176e-06	5.655e-06	1360.1	366.59	5.6843e-06	5.7617e-06	421.08	141.65	122.92	41.861	5.9225e-06	52	169.472	238.355	226.647	154.327	271.716	299.476	154.046	159.207	265.906	283.860	158.586	162.762	163.130	168.318	289.971	167.499	-8191	255	
29097.039	1	1	0	0	0.25839	0.052792	0.12723	0.03581	0.288	0.033153	0.21159	0.27281	0.15372	0.13261	0.23376	0.062335	0.26573	0.16358	0.3213	0.22411	-2.3	-2.0708	-2.5687	-2.9583	-2.1833	-2.9104	-2.775	-2.525	-3.0167	-2.1583	-2.9708	-3.0271	-2.2292	-2.9521	-2.3146	-2.5167	301.474	216.139	199.269	203.127	278.880	204.557	484.046	390.264	218.231	465.857	423.654	421.099	421.143	190.977	268.693	414.699	0.00070262	0.00046989	0.00013119	1345.3	3.9301e-06	3.8484e-06	1345.9	360.77	5.5585e-06	5.8589e-06	414.71	139.82	120.86	40.83	5.5224e-06	50.602	0.0005802	0.00055303	0.00015102	1363.3	6.3143e-06	6.1173e-06	1364.3	367.14	6.11e-06	6.0937e-06	422.34	141.98	123.28	42.046	6.381e-06	52.238	170.587	238.452	236.564	154.418	293.161	303.966	154.234	159.145	271.924	273.339	158.959	162.491	162.769	168.434	271.675	167.330	-8191	255	
29097.160	1	1	0	0	0.15124	0.24172	0.20049	0.4103	0.14023	0.14524	0.24654	0.066368	0.15727	0.33556	0.19392	0.1677	0.33286	0.13317	0.31698	0.20993	-2.5438	-2.2333	-2.525	-2.9521	-2.0938	-3.0292	-2.7708	-2.4417	-3.0208	-2.2	-2.6833	-2.8625	-2.1083	-2.8354	-2.7792	-2.3104	271.878	376.229	160.424	151.453	466.739	419.859	402.906	478.673	275.668	440.535	416.978	465.581	485.980	251.941	313.849	469.292	0.00070067	0.0005598	0.00014664	1344.9	6.1777e-06	4.1197e-06	1350.9	362.04	5.2429e-06	3.6722e-06	415.34	138.76	120.59	41.014	6.9355e-06	50.773	0.0006083	0.00057957	0.00015753	1370.3	6.4457e-06	6.3457e-06	1371	368.34	6.2954e-06	6.3272e-06	422.63	142.06	123.34	42.094	6.4165e-06	52.23	172.178	230.688	234.462	154.662	261.597	263.666	154.280	159.303	278.674	286.304	158.933	162.618	163.145	168.397	293.463	167.325	-8191	255	
29097.258	1	1	0	0	0.11836	0.26986	0.28409	0.29152	0.1285	0.014523	0.24184	0.19825	0.10046	0.12243	0.1521	0.2051	0.15957	0.3545	0.059903	0.16248	-2.5438	-2.4292	-2.4292	-2.9833	-2.05	-2.8688	-2.875	-2.3521	-3.0167	-2.3688	-2.5833	-3.0583	-2.2667	-2.7687	-2.675	-2.125	378.691	362.648	347.127	482.006	499.938	193.232	358.668	430.846	479.210	271.108	375.203	414.970	453.632	205.478	400.781	468.580	0.00068339	0.00045344	0.00013639	1360.7	4.9285e-06	2.9452e-06	1353.4	361.56	4.3419e-06	4.2967e-06	416.04	140.24	120.68	40.951	3.8591e-06	50.722	0.00061355	0.0006113	0.00016432	1375.6	6.4068e-06	6.5252e-06	1372.4	368.76	6.5206e-06	6.5473e-06	423.39	142.61	123.45	42.18	6.5616e-06	52.331	166.661	228.504	240.969	154.684	276.754	304.361	154.320	159.171	283.646	311.499	159.017	162.637	163.501	168.428	296.630	167.539	-8191	255	
29097.354	1	1	0	0	0.19249	0.19345	0.034684	0.30981	0.044803	0.1249	0.19876	0.15771	0.099315	0.15075	0.13062	0.59856	0.12904	0.15405	0.069289	0.091775	-2.5375	-2.075	-2.3333	-3.0646	-2.0771	-2.6583	-2.9146	-2.2979	-2.6958	-2.5354	-2.5104	-3.025	-2.3271	-2.6063	-2.8937	-2.1437	248.367	419.309	331.690	183.500	305.602	226.680	306.935	292.039	422.293	388.673	432.134	468.635	220.742	490.841	380.677	413.509	0.00066936	0.00046871	0.0001269	1359.9	4.6236e-06	4.1029e-06	1354.9	362.67	5.4912e-06	4.5662e-06	417.08	139.64	121.47	40.98	4.7454e-06	50.872	0.00062957	0.00059538	0.00017137	1376.9	6.7489e-06	6.7013e-06	1378	369.47	6.8024e-06	6.5646e-06	424.86	142.48	123.6	42.217	6.4318e-06	52.423	167.589	224.169	227.371	154.767	283.924	256.450	154.531	159.447	273.649	281.430	159.059	162.911	162.934	168.606	250.591	167.467	-8191	255	
29097.426	1	1	0	0	0.14433	0.27798	0.15577	0.1494	0.22377	0.18609	0.15343	0.19153	0.11565	0.089338	0.20541	0.18935	0.060012	0.061105	0.074955	0.29101	-2.3708	-2.6875	-2.0792	-3.0563	-2.2313	-2.5042	-3.2208	-2.275	-2.7479	-2.6292	-2.3042	-3.0875	-2.2938	-2.3125	-3.0208	-2.3708	232.268	461.522	219.534	489.311	477.141	245.154	159.696	452.215	294.404	156.335	419.737	497.965	145.467	319.096	173.193	442.171	0.00070228	0.00053918	0.00016568	1366.3	4.7626e-06	4.7274e-06	1357.1	364.05	5.1674e-06	4.3194e-06	415.12	140.23	121.61	41.122	3.36e-06	50.745	0.00063699	0.00060964	0.0001706	1382.7	6.7304e-06	6.7451e-06	1378.4	370.42	6.6207e-06	6.7717e-06	424.25	142.82	123.76	42.234	6.769e-06	52.388	165.768	206.378	246.882	154.790	268.771	290.683	154.481	159.279	262.518	311.444	159.003	163.019	163.210	168.380	274.057	167.654	-8191	255	
29097.543	1	1	0	0	0.10689	0.074326	0.2805	0.38413	0.1122	0.23991	0.19932	0.13025	0.1602	0.09109	0.1064	0.13507	0.23736	0.28165	0.13344	0.083152	-2.4083	-2.5938	-2.0271	-2.9708	-2.3292	-2.3521	-3.1604	-2.2271	-2.5479	-2.8479	-2.4104	-2.9979	-2.55	-2.2687	-2.9313	-2.2979	143.288	456.152	206.395	457.002	497.880	143.975	440.258	378.580	198.218	467.619	344.673	467.205	462.818	180.140	449.537	155.423	0.0007156	0.00056261	0.00013308	1360.6	3.9311e-06	5.4949e-06	1351.5	363.6	4.5272e-06	4.6973e-06	417.83	140.49	121.23	41.023	6.2209e-06	50.892	0.00064142	0.00062237	0.00017312	1383.4	6.8366e-06	6.9057e-06	1376.7	370.55	6.7165e-06	6.7751e-06	425.47	142.83	123.72	42.242	6.7744e-06	52.404	168.882	240.593	221.486	155.316	255.607	313.206	154.268	159.307	272.466	265.018	158.868	162.859	163.078	168.396	269.093	167.603	-8191	255	
29097.641	1	1	0	0	0.13856	0.23877	0.17848	0.14554	0.063924	0.31034	0.20657	0.30103	0.039037	0.32661	0.26687	0.12161	0.28175	0.16974	0.20187	0.081053	-2.3208	-2.7396	-2.2271	-3.0396	-2.5458	-2.3521	-3.0604	-2.4	-2.525	-2.8271	-2.2958	-2.8438	-2.4958	-2.3604	-2.6625	-2.3438	336.709	245.562	407.384	178.608	327.569	349.235	469.755	423.537	336.114	404.812	500.341	423.904	422.798	423.850	359.390	148.808	0.0007047	0.00046302	0.0001816	1360	2.6277e-06	5.957e-07	1364.2	363.43	4.7447e-06	5.9859e-06	415.77	140.08	121.39	41.093	5.2292e-06	50.854	0.00063946	0.00064022	0.0001824	1382.2	7.1117e-06	7.0926e-06	1382.3	370.42	7.2265e-06	7.1522e-06	425.9	143.08	124.07	42.354	7.2046e-06	52.545	168.092	254.187	218.509	154.718	253.788	308.812	154.540	159.289	287.590	282.525	158.737	162.227	162.716	168.324	275.251	167.343	-8191	255	
29097.736	1	1	0	0	0.1786	0.13244	0.37427	0.25769	0.26461	0.1243	0.32177	0.032857	0.14506	0.058372	0.3764	0.16646	0.09067	0.085959	0.30831	0.16604	-2.1646	-2.6375	-2.2167	-2.9313	-2.6042	-1.9875	-3.05	-2.2667	-2.2542	-2.7792	-2.2833	-2.7438	-2.6854	-1.8937	-2.9562	-2.2917	492.466	414.060	161.608	459.332	209.731	403.031	473.779	466.751	380.740	436.713	441.432	166.392	417.420	394.998	187.741	228.610	0.00066994	0.00047689	0.00018532	1370	5.1242e-06	4.2644e-06	1367.3	364.9	7.1558e-06	6.0105e-06	417.34	140.57	121.8	41.063	4.6203e-06	50.863	0.00065701	0.00067158	0.00018689	1390.4	7.018e-06	7.227e-06	1387.3	371.82	6.9268e-06	6.871e-06	425.51	143.17	124.22	42.386	6.9141e-06	52.451	167.498	224.960	221.008	154.699	291.137	297.206	154.104	158.941	273.737	297.321	158.550	162.497	163.136	168.003	282.191	167.049	-8191	255	
29097.832	1	1	0	0	0.17808	0.085749	0.12313	0.18047	0.15219	0.26653	0.20369	0.3334	0.3552	0.3195	0.17636	0.21312	0.065211	0.0173	0.22699	0.14512	-1.8979	-2.8438	-2.2458	-2.7167	-2.725	-2.0125	-3.0125	-2.6146	-2.4292	-3.0146	-2.3771	-2.7292	-2.8896	-2.0563	-3.0187	-2.6958	473.535	500.074	455.259	221.343	255.668	148.733	467.939	495.671	236.138	427.872	419.276	495.445	429.212	442.643	431.574	470.562	0.00069668	0.00067118	0.00011564	1360.7	5.0064e-06	5.6366e-06	1359.5	364.48	3.895e-06	5.2044e-06	417.22	139.91	121.72	41.218	6.6858e-06	50.976	0.00064969	0.00061542	0.00017692	1387.8	6.7186e-06	6.9101e-06	1384.5	371.36	6.7491e-06	6.7239e-06	425.72	143.02	123.94	42.306	6.7598e-06	52.449	169.084	235.148	224.318	154.836	269.010	265.028	154.010	158.940	289.433	278.502	158.607	162.422	163.046	168.138	271.414	167.339	-8191	255	
29097.953	1	1	0	0	0.14875	0.060642	0.10649	0.2582	0.17287	0.22944	0.20063	0.4786	0.12169	0.074307	0.16271	0.16402	0.2558	0.27937	0.025574	0.27563	-1.7958	-2.9188	-2.2354	-2.5354	-2.825	-2.0312	-2.9396	-2.6375	-2.2792	-2.8104	-2.5271	-2.6167	-2.9146	-2.2562	-2.775	-2.6833	322.042	149.947	201.521	436.794	498.337	341.395	459.380	480.124	235.168	441.686	141.273	161.032	444.525	450.962	365.402	446.043	0.00069832	0.00047533	0.00014063	1366.9	4.5669e-06	4.4198e-06	1358.8	365.19	5.7747e-06	4.8356e-06	416.9	140.02	121.74	41.146	5.2897e-06	50.993	0.0006525	0.00062619	0.00017787	1388.2	6.5381e-06	6.9569e-06	1382.3	371.27	6.8578e-06	6.9248e-06	424.94	142.93	124	42.351	6.7649e-06	52.533	169.476	230.665	229.218	154.551	267.133	304.962	154.540	159.247	280.375	305.610	158.904	162.889	163.311	168.272	285.044	167.194	-8191	255	
29098.023	1	1	0	0	0.11171	0.073529	0.26189	0.23848	0.40479	0.1272	0.39024	0.19691	0.30334	0.068089	0.26761	0.060859	0.13362	0.18467	0.059661	0.36301	-1.8333	-2.9104	-2.4729	-2.3958	-2.8292	-1.9896	-2.9271	-2.7896	-2.1625	-2.8917	-2.5667	-2.4896	-3.2042	-2.2375	-2.5917	-2.8667	454.827	201.511	264.227	449.982	376.050	201.075	447.257	397.728	438.028	338.103	464.805	489.913	414.603	437.529	321.139	461.326	0.00067633	0.00051413	0.00018261	1365.4	5.0655e-06	5.8959e-06	1358	361.79	4.5203e-06	5.6157e-06	415.65	140.7	121.83	41.072	5.7773e-06	50.824	0.00063808	0.00060883	0.00017396	1385.3	6.6331e-06	6.9966e-06	1381	370.74	6.8628e-06	6.6957e-06	424.28	143.04	124	42.216	6.6143e-06	52.487	168.428	231.773	229.549	154.689	277.809	282.309	154.463	159.404	281.000	292.601	158.706	162.801	163.604	168.578	289.923	167.436	-8191	255	
29098.119	1	1	0	0	0.19708	0.1461	0.077513	0.25466	0.11112	0.15465	0.13442	0.17922	0.16478	0.26183	0.098513	0.2849	0.14184	0.082062	0.058495	0.36296	-1.6812	-2.9042	-2.3896	-2.2083	-2.8792	-2.35	-2.6688	-2.9917	-2.1417	-2.8688	-2.6729	-2.3896	-2.7958	-2.2021	-2.6042	-3.0271	476.877	412.117	340.240	493.435	426.662	423.751	485.745	369.770	168.682	259.761	468.145	436.800	369.919	197.927	382.394	457.342	0.00069673	0.00044223	0.00016361	1369.4	3.8887e-06	4.7722e-06	1360.8	364.54	6.1077e-06	6.4675e-06	417.16	140.49	121.9	41.129	5.1304e-06	50.73	0.00064542	0.00063017	0.00017178	1385.9	6.6759e-06	6.9377e-06	1380.1	370.67	6.7947e-06	6.5961e-06	424.97	142.97	123.92	42.235	6.7134e-06	52.408	171.491	233.914	239.665	155.094	254.210	312.371	154.699	159.217	277.176	292.967	158.938	162.752	163.360	168.579	291.156	167.461	-8191	255	
29098.240	1	1	0	0	0.27022	0.3782	0.27891	0.22461	0.14625	0.21041	0.2038	0.14517	0.13468	0.24911	0.17546	0.52268	0.25394	0.021607	0.27377	0.29344	-1.8417	-2.7687	-2.4938	-2.1792	-3.0229	-2.3625	-2.5229	-3.0833	-2.0417	-2.7542	-2.6271	-2.2292	-2.8854	-2.3167	-2.3167	-3.0271	311.127	210.677	302.725	419.760	454.748	214.091	403.115	423.187	311.898	475.883	354.283	449.446	469.615	390.495	367.018	172.866	0.00072007	0.00068163	7.7389e-05	1359.8	3.4837e-06	7.0951e-06	1356	362.71	3.8777e-06	5.2179e-06	416.4	139.13	121.75	41.087	6.2617e-06	50.684	0.00064132	0.00061172	0.00016622	1378.8	6.6807e-06	6.8087e-06	1376.7	370.12	6.5969e-06	6.7621e-06	424.81	142.26	123.91	42.216	6.5699e-06	52.385	169.686	226.908	222.015	155.027	272.788	292.803	154.823	159.602	274.587	269.654	158.725	163.023	163.218	168.475	274.555	167.661	-8191	255	
29098.338	1	1	0	0	0.16994	0.15285	0.38293	0.34065	0.029337	0.21744	0.28673	0.1129	0.27324	0.39043	0.19649	0.18182	0.04937	0.23268	0.15397	0.10972	-1.5875	-2.6833	-2.7417	-2.2917	-2.9667	-2.2917	-2.6562	-3.1021	-2.1396	-2.6021	-2.8396	-2.1917	-2.9958	-2.4667	-2.3896	-3.2458	369.737	335.034	422.863	177.423	145.783	359.763	481.410	499.058	216.971	160.403	396.937	446.738	414.728	445.109	451.299	490.267	0.00069506	0.00047092	0.00011983	1363.3	3.4799e-06	5.2829e-06	1358.7	363.43	5.3207e-06	7.6416e-06	415.89	139.39	121.58	40.92	5.15e-06	50.701	0.00063759	0.00060684	0.00016707	1380.8	6.533e-06	6.6659e-06	1376.5	370.03	6.6311e-06	6.5473e-06	423.76	142.55	123.75	42.183	6.4642e-06	52.283	168.451	228.759	230.686	154.670	284.688	300.633	154.822	159.459	267.086	298.926	159.168	163.176	163.408	168.521	279.862	167.965	-8191	255	
29098.434	1	1	0	0	0.27222	0.14653	0.21188	0.28493	0.022852	0.15586	0.18049	0.37587	0.14183	0.047933	0.1493	0.081438	0.12906	0.19197	0.25365	0.010963	-1.6688	-2.5438	-2.8063	-2.3854	-2.8167	-2.5229	-2.5563	-3.1021	-2.5479	-2.6958	-3.1333	-2.2625	-2.8958	-2.7958	-2.1625	-2.9833	271.359	386.754	403.354	429.156	279.832	435.329	483.493	468.601	166.676	433.669	465.959	435.088	147.471	459.287	271.985	275.331	0.00070361	0.00049419	0.00017554	1355.7	5.9417e-06	6.1887e-06	1349.1	363.23	3.4912e-06	5.8536e-06	414.53	140.25	120.77	40.929	4.8897e-06	50.636	0.00063455	0.00058939	0.00015944	1376.3	6.3819e-06	6.4477e-06	1373	369.82	6.5073e-06	6.3577e-06	422.97	142.58	123.27	42.084	6.8004e-06	52.279	170.986	245.388	247.815	154.680	257.129	271.586	154.899	159.656	273.496	282.007	158.952	162.945	163.223	168.491	283.221	167.638	-8191	255	
29098.553	1	1	0	0	0.09041	0.19994	0.090329	0.13952	0.079691	0.22667	0.21708	0.17128	0.13589	0.20679	0.35425	0.19411	0.43045	0.10834	0.15285	0.10858	-1.8604	-2.525	-2.9188	-2.2396	-2.9833	-2.7354	-2.4729	-3.1688	-2.3896	-2.4313	-3.0604	-2.3542	-2.7875	-2.8646	-2.1083	-3.0542	263.149	177.758	320.204	456.280	333.475	344.165	405.322	218.251	382.463	311.678	459.581	481.312	181.922	495.158	264.941	228.700	0.00074169	0.00043961	0.00014134	1353.1	5.7126e-06	3.5725e-06	1350.4	362.38	4.7137e-06	3.479e-06	418.33	139.76	121.78	40.963	6.2379e-06	51.175	0.00063777	0.00059947	0.00016888	1373.5	6.7581e-06	6.834e-06	1371.4	369.69	6.7131e-06	6.8288e-06	424.98	142.5	123.96	42.197	7.0443e-06	52.594	169.593	229.305	234.359	154.906	280.090	261.523	154.505	159.236	274.613	291.771	158.799	162.855	163.540	168.370	265.469	167.801	-8191	255	
29098.623	1	1	0	0	0.30082	0.21367	0.30341	0.093488	0.41711	0.21847	0.36149	0.31702	0.19665	0.1834	0.12218	0.227	0.30846	0.28967	0.14575	0.13794	-2.0167	-2.2771	-2.8521	-2.2167	-2.5646	-2.8542	-2.5229	-2.8958	-2.5125	-2.1937	-3.1229	-2.1375	-2.5771	-2.9854	-2.2833	-3.1021	277.140	311.069	204.147	491.543	321.144	241.922	465.998	427.375	466.465	317.278	429.782	250.663	485.015	153.916	492.417	229.214	0.00065444	0.00052454	0.00016604	1356.4	4.3871e-06	5.3033e-06	1350.7	363.39	5.9084e-06	4.8054e-06	417.23	139.31	121.5	41.013	5.9088e-06	50.862	0.00064101	0.00064106	0.00017433	1377.3	6.8755e-06	6.6147e-06	1373.9	370.11	6.7543e-06	6.9544e-06	424.05	142.37	123.45	42.126	6.661e-06	52.356	166.869	222.641	229.967	154.847	268.457	285.593	154.529	159.242	274.672	295.760	158.947	162.800	163.031	168.230	286.794	167.418	-8191	255	
29098.723	1	1	0	0	0.17278	0.12028	0.26854	0.18628	0.12232	0.13909	0.35096	0.2187	0.16743	0.18202	0.24707	0.22453	0.36863	0.089939	0.29697	0.32038	-2.1875	-2.1646	-3.1292	-2.575	-2.5208	-2.9813	-2.4646	-3.0583	-2.7229	-2.0708	-3.1604	-2.3042	-2.5271	-3.1396	-2.2438	-2.8521	498.340	207.014	313.988	404.192	191.837	266.850	419.148	460.938	293.746	267.433	146.418	444.492	449.121	413.656	305.186	457.487	0.00064582	0.0005069	0.00016673	1358	3.4586e-06	5.4838e-06	1345.1	361.89	5.5821e-06	5.686e-06	417.13	139.21	120.78	40.837	4.8861e-06	50.578	0.00060192	0.00061298	0.00016904	1376.3	6.5308e-06	6.6797e-06	1370.1	369.32	6.4602e-06	6.6834e-06	424.1	141.98	123.23	42.042	6.5959e-06	52.235	170.210	229.148	243.302	154.467	274.669	273.062	154.279	159.161	261.078	279.897	158.836	162.633	163.055	168.470	280.371	167.496	-8191	255	
29098.842	1	1	0	0	0.098523	0.18705	0.17017	0.22193	0.018862	0.11537	0.26738	0.18783	0.10783	0.21531	0.17455	0.14632	0.27511	0.15943	0.17938	0.20711	-2.1937	-2.0833	-2.8396	-2.6375	-2.375	-2.9375	-2.4979	-2.7521	-2.7042	-1.8479	-3.0125	-2.6521	-2.3667	-3.2062	-2.2083	-2.6979	171.451	341.902	420.330	499.174	444.495	434.206	145.588	415.545	300.568	501.069	450.778	473.345	469.291	265.938	444.731	442.554	0.00070221	0.0005118	0.00013446	1351.7	5.2736e-06	4.3061e-06	1348.2	361.88	4.9306e-06	5.0448e-06	413.72	138.88	120.43	40.918	5.0734e-06	50.75	0.0006091	0.00061021	0.00016859	1371.5	6.5898e-06	6.4305e-06	1368.8	369.06	6.4774e-06	6.5825e-06	423.18	142.1	123.15	42.054	6.6652e-06	52.415	169.108	232.917	236.279	154.727	261.755	282.267	154.256	159.315	279.093	291.500	158.889	162.625	163.190	168.276	289.479	167.756	-8191	255	
29098.938	1	1	0	0	0.14398	0.18878	0.11473	0.10138	0.29771	0.16638	0.16403	0.15568	0.24632	0.14532	0.25807	0.3419	0.3274	0.17758	0.26819	0.15391	-2.3792	-2.0542	-2.95	-2.6833	-2.2896	-2.9854	-2.4062	-2.8396	-2.7854	-2.1708	-2.9562	-2.6979	-2.4042	-3.1958	-2.2396	-2.4083	449.718	167.021	389.308	232.759	297.567	297.254	412.158	422.643	154.100	247.255	194.481	463.675	490.583	414.286	405.725	449.113	0.00068937	0.00037707	0.000129	1354	5.6004e-06	7.6386e-06	1355.8	362.62	5.5313e-06	3.4093e-06	416.63	139.31	121.11	41.058	3.0966e-06	51.048	0.00062938	0.00064555	0.0001697	1374.7	6.6867e-06	6.6834e-06	1373.8	369.96	6.9053e-06	6.963e-06	424.06	142.13	123.38	42.128	6.729e-06	52.483	169.492	218.434	217.737	154.526	270.918	287.541	154.371	159.348	269.786	298.262	158.956	162.715	162.896	168.463	264.717	167.451	-8191	255	
29099.033	1	1	0	0	0.076521	0.036086	0.096691	0.24642	0.19864	0.32822	0.065256	0.29246	0.097591	0.13955	0.25467	0.22751	0.10563	0.083323	0.15364	0.25574	-2.7333	-2.0458	-2.8458	-2.7979	-2.2562	-3.0833	-2.475	-2.4688	-2.9813	-2.1813	-2.9958	-2.6729	-2.1104	-3.0417	-2.4708	-2.5708	192.326	368.225	152.237	155.659	394.548	480.429	207.116	393.912	380.428	196.378	262.818	473.738	291.742	439.338	493.261	171.139	0.00066835	0.00059145	0.00019996	1360.3	3.7066e-06	8.2703e-06	1350.9	362.18	6.2075e-06	5.4056e-06	416.75	139.22	121.23	41.005	6.9476e-06	50.894	0.00064865	0.00066186	0.00017221	1378.3	7.0097e-06	7.3048e-06	1375.6	369.94	6.7756e-06	6.9557e-06	424.72	142.34	123.51	42.122	6.7899e-06	52.363	169.483	238.488	238.781	154.932	270.742	275.767	154.054	159.086	286.431	318.853	158.751	162.398	162.848	168.029	291.543	167.481	-8191	255	
29099.154	1	1	0	0	0.099704	0.17858	0.18993	0.15588	0.14683	0.121	0.32531	0.088453	0.056465	0.37494	0.246	0.33272	0.21053	0.23686	0.16045	0.2609	-2.6208	-2.1833	-2.6063	-2.8583	-2.1833	-2.9979	-2.7354	-2.3688	-2.9083	-2.2562	-2.6208	-2.8792	-2.1562	-2.8667	-2.6146	-2.3958	198.941	233.868	218.059	157.699	246.292	483.044	467.089	444.588	167.492	148.297	141.771	428.817	267.391	152.261	395.530	419.257	0.00072481	0.00049854	0.00015339	1359.1	4.5468e-06	7.5329e-06	1346.6	360.9	5.821e-06	5.4528e-06	414.41	138.87	120.5	40.979	4.6074e-06	50.463	0.00064563	0.00063971	0.00017462	1377.7	6.7964e-06	6.835e-06	1371.6	369.38	6.7648e-06	6.6366e-06	423.18	141.86	123.28	42.033	6.4645e-06	52.202	170.193	236.232	233.833	154.484	277.760	294.401	154.127	159.295	287.886	295.545	158.689	162.471	163.088	168.065	273.308	167.232	-8191	255	
29099.250	1	1	0	0	0.22878	0.15366	0.25519	0.028522	0.18931	0.27213	0.25947	0.1525	0.083486	0.0637	0.24563	0.23117	0.041481	0.2412	0.24673	0.041366	-2.5896	-2.3667	-2.6021	-2.9083	-2	-2.9792	-2.7479	-2.3438	-2.8917	-2.2938	-2.5333	-3.0917	-2.2979	-2.9354	-2.5208	-2.3667	482.091	415.443	381.802	211.090	301.770	388.351	473.486	449.452	216.729	400.787	470.593	489.884	279.382	480.781	296.877	357.087	0.00069907	0.0005473	0.00014071	1356.5	7.5751e-06	5.7318e-06	1345.8	363.43	5.6472e-06	7.0639e-06	415.35	138.49	120.8	40.792	6.3653e-06	50.599	0.00064195	0.00060946	0.00017026	1374.7	6.7569e-06	6.6151e-06	1367.8	369.17	6.6844e-06	6.8126e-06	423.67	141.82	123.31	42.047	6.7525e-06	52.187	167.464	238.145	237.025	154.412	271.046	297.168	154.042	158.955	263.344	308.192	158.637	162.525	163.026	168.277	274.900	167.426	-8191	255	
29099.320	1	1	0	0	0.087585	0.30004	0.19884	0.27107	0.045327	0.070584	0.14835	0.3849	0.3441	0.093562	0.13222	0.2291	0.23158	0.08192	0.2762	0.07895	-2.5146	-2.3292	-2.2812	-3.1125	-2.0458	-2.8063	-2.8771	-2.4458	-3	-2.35	-2.4354	-3.0104	-2.2167	-2.7146	-2.8063	-2.3229	427.441	443.489	381.579	184.827	148.670	148.984	441.011	454.872	381.652	421.792	291.937	440.722	480.813	432.279	475.191	481.564	0.00069643	0.00055473	0.00020168	1359.2	6.9698e-06	7.2507e-06	1342.1	361.06	4.2943e-06	9.1118e-06	414.17	139.18	120.6	40.906	4.8016e-06	50.486	0.00062885	0.00061539	0.00017227	1374.9	6.9042e-06	6.5127e-06	1366.9	368.23	6.4663e-06	6.7704e-06	422.21	142	122.9	42.019	6.5178e-06	52.17	167.745	242.265	190.281	154.367	275.282	283.166	154.246	159.121	278.183	283.460	158.844	162.691	163.087	168.279	297.541	167.551	-8191	255	
29099.418	1	1	0	0	0.097193	0.12077	0.18691	0.16633	0.054802	0.16591	0.098976	0.11966	0.046251	0.14485	0.16632	0.33015	0.12737	0.11482	0.20577	0.3613	-2.4021	-2.3667	-2.2	-2.9229	-2.1937	-2.65	-2.9688	-2.075	-2.7729	-2.6354	-2.4083	-3.2375	-2.0604	-2.5104	-2.6354	-2.2292	298.682	338.646	301.638	199.535	434.408	268.717	158.420	449.703	262.116	364.315	419.183	440.283	353.412	178.199	498.508	416.318	0.00073238	0.00052713	0.00019244	1359	3.1703e-06	4.7016e-06	1347.4	360.08	5.8948e-06	9.4062e-06	414.87	138.85	120.01	40.918	5.981e-06	50.41	0.0006153	0.00061855	0.00017259	1372.7	6.577e-06	6.211e-06	1367.8	367.43	6.7315e-06	6.863e-06	422.86	141.79	122.69	42.015	6.6531e-06	52.176	165.826	254.368	222.480	154.594	269.278	260.572	154.255	159.244	258.147	279.404	158.482	162.548	162.866	168.219	276.743	167.040	-8191	255	
29099.514	1	1	0	0	0.10576	0.13077	0.19415	0.18595	0.26842	0.04332	0.21386	0.34948	0.13124	0.070926	0.30143	0.27273	0.090656	0.12613	0.047427	0.12378	-2.4146	-2.5521	-2.1042	-3.0604	-2.275	-2.4333	-3.0542	-2.2833	-2.7313	-2.7188	-2.225	-2.9021	-2.3583	-2.4062	-2.9938	-2.3521	288.947	421.840	461.427	434.792	141.594	382.103	466.024	158.377	432.281	267.731	474.949	409.883	290.217	491.124	446.159	492.163	0.00067253	0.00062008	0.00010303	1340.1	5.8323e-06	4.5848e-06	1347.2	361.47	3.4992e-06	1.2906e-06	412.69	138.37	120.43	40.716	3.9738e-06	50.455	0.00062353	0.00061753	0.00017488	1368.8	6.7243e-06	6.9182e-06	1366.7	367.93	6.532e-06	6.7103e-06	421.96	141.38	122.92	41.886	6.373e-06	52.085	169.988	238.159	229.886	154.446	262.799	279.592	154.156	159.005	258.138	307.101	158.645	162.352	162.695	168.364	289.164	167.026	-8191	255	
29099.633	1	1	0	0	0.12286	0.35534	0.099927	0.11066	0.25015	0.25388	0.29142	0.22161	0.2289	0.22894	0.21813	0.19183	0.063898	0.29275	0.14839	0.37686	-2.1479	-2.7875	-2.025	-3.05	-2.3917	-2.325	-3.2792	-2.5396	-2.4271	-2.8729	-2.3292	-3.0396	-2.5083	-2.1125	-2.9833	-2.45	244.099	473.209	229.630	478.508	319.486	441.502	432.292	166.411	225.337	403.818	209.128	472.867	465.321	430.980	274.532	455.268	0.00071515	0.00072571	0.00013947	1351.8	3.8583e-06	3.0433e-06	1344.4	360.34	5.9551e-06	4.3699e-06	413.39	138.64	119.61	40.497	3.9426e-06	50.433	0.00062132	0.00059565	0.00017382	1370	6.6437e-06	6.8077e-06	1364.2	367.45	6.4657e-06	6.6861e-06	421.86	141.62	122.76	41.811	6.6105e-06	52.117	168.222	218.915	244.796	154.596	263.563	300.253	154.284	159.334	280.209	303.315	158.840	162.419	163.204	168.566	270.692	167.169	-8191	255	
29099.729	1	1	0	0	0.17528	0.17382	0.2369	0.1505	0.054604	0.12278	0.53914	0.41636	0.22073	0.24738	0.10816	0.14048	0.26264	0.18658	0.21921	0.23614	-2.3958	-2.8563	-2.0312	-2.9979	-2.5208	-2.2375	-3.2292	-2.4333	-2.5625	-2.8979	-2.3979	-2.9792	-2.6542	-2.4646	-2.975	-2.4021	472.332	474.119	155.825	426.192	486.147	244.574	450.689	409.678	385.585	252.856	417.550	155.705	142.797	416.858	446.849	435.411	0.00071088	0.00062123	0.00014033	1343.7	4.6745e-06	5.7293e-06	1343.9	360.72	6.4024e-06	5.3966e-06	413.79	139.05	121.06	40.746	4.6953e-06	50.391	0.00064789	0.00063209	0.00017373	1369.1	6.9396e-06	7.0313e-06	1365.9	368.16	6.7864e-06	6.7913e-06	422.16	141.92	122.93	41.991	6.8808e-06	52.135	169.693	228.646	264.596	154.580	265.790	281.687	154.538	159.203	259.588	289.596	158.702	162.613	163.004	168.037	265.010	167.097	-8191	255	
29099.824	1	1	0	0	0.021372	0.17208	0.16626	0.061093	0.047848	0.1439	0.12646	0.27274	0.33814	0.17146	0.32879	0.18985	0.27427	0.24843	0.066303	0.099885	-1.9708	-2.9104	-2.3563	-2.9979	-2.6917	-2.0667	-3.2375	-2.6063	-2.4875	-2.9479	-2.3958	-2.9583	-2.8542	-2.3292	-2.9771	-2.3625	172.320	354.610	439.676	431.675	224.179	227.051	456.935	476.617	369.356	367.993	465.076	439.651	472.506	212.773	486.565	193.384	0.00066248	0.00065146	0.00017689	1349.4	4.5208e-06	4.8192e-06	1345.3	361.27	4.2069e-06	5.7373e-06	414.89	138.85	120.3	40.818	6.5634e-06	50.572	0.00063295	0.00062439	0.00017532	1370.4	6.7339e-06	6.8963e-06	1365	368	6.71e-06	6.9404e-06	421.92	141.87	122.74	41.966	6.6645e-06	52.071	167.467	227.791	236.687	154.932	280.165	287.513	154.096	159.047	266.325	271.695	158.658	162.656	162.806	168.223	268.496	167.281	-8191	255	
29099.922	1	1	0	0	0.24576	0.26694	0.04616	0.19775	0.096283	0.12418	0.50226	0.16386	0.14271	0.03129	0.24188	0.065761	0.24793	0.090849	0.15085	0.2355	-1.8563	-2.8729	-2.1875	-2.6437	-2.7062	-2.1458	-2.9896	-2.7	-2.2438	-2.9417	-2.3417	-2.6896	-2.7708	-2.0125	-2.8708	-2.5271	287.347	344.661	402.885	409.623	389.656	189.910	446.082	159.711	225.557	316.926	484.768	166.752	470.654	423.476	318.833	455.449	0.00067362	0.00046018	0.00011682	1351.2	3.5296e-06	3.7129e-06	1345.3	361.25	4.5935e-06	8.0152e-06	413.32	138.72	120.37	40.814	4.4696e-06	50.297	0.00063708	0.00063041	0.00017127	1370.1	6.7875e-06	7.0266e-06	1364.7	367.26	6.9351e-06	6.8046e-06	421.6	141.69	122.92	41.947	6.6372e-06	52.002	169.696	216.752	231.790	154.463	277.200	288.697	154.376	158.802	274.633	275.489	158.544	162.703	163.002	167.927	279.693	167.428	-8191	255	
29100.018	1	1	0	0	0.12052	0.17709	0.17109	0.41187	0.090585	0.29555	0.34227	0.44501	0.22668	0.10786	0.045467	0.26986	0.065569	0.19809	0.071566	0.061834	-1.9312	-3.0167	-2.2917	-2.6437	-2.9292	-2.0854	-3.0396	-2.825	-2.2125	-2.9896	-2.4729	-2.5146	-2.9896	-2.3187	-2.75	-2.8042	185.561	243.168	272.153	142.315	274.832	438.639	462.811	449.724	201.746	388.170	276.841	497.051	467.216	410.339	423.345	393.230	0.00066595	0.00044388	0.00014726	1345	4.418e-06	3.8038e-06	1337.7	359.2	3.6656e-06	4.454e-06	413.8	138.11	120.14	40.668	4.739e-06	50.211	0.00063238	0.00061515	0.00017973	1368.2	6.7923e-06	7.035e-06	1361.6	366.87	6.8384e-06	6.5167e-06	421.17	141.08	122.44	41.874	6.6709e-06	52.01	169.894	247.842	239.680	154.838	268.348	271.368	154.439	159.099	251.225	291.863	158.792	162.446	163.016	168.127	268.960	167.325	-8191	255	
29100.113	1	1	0	0	0.10157	0.0106	0.19339	0.14381	0.18773	0.33228	0.3713	0.24341	0.33045	0.1434	0.16662	0.26286	0.20508	0.16446	0.16381	0.15312	-1.6021	-2.8896	-2.5042	-2.4396	-3.1312	-2.025	-2.8229	-2.8604	-2.15	-2.8396	-2.7062	-2.5271	-3.0021	-2.2562	-2.4875	-2.875	203.863	154.290	397.771	479.159	184.577	330.071	435.364	487.138	294.812	179.999	406.504	152.775	425.266	457.889	280.505	301.476	0.0007184	0.00045558	0.0001707	1341.4	4.6912e-06	8.1179e-06	1338.9	359.89	5.1835e-06	6.325e-06	413.22	138.25	120.25	40.808	5.5938e-06	50.223	0.00064144	0.00058869	0.00016727	1362.9	6.5302e-06	6.8831e-06	1359.9	366.86	6.7583e-06	6.6037e-06	421.12	141.23	122.56	41.847	6.7106e-06	51.925	170.784	231.790	242.367	154.576	276.841	297.880	154.270	159.094	256.351	305.419	158.715	162.877	162.882	168.281	291.553	167.475	-8191	255	
29100.234	1	1	0	0	0.29906	0.31398	0.2159	0.25969	0.13579	0.26955	0.2719	0.14484	0.25262	0.19675	0.11474	0.094175	0.13875	0.22416	0.15699	0.088697	-1.5646	-2.9979	-2.4938	-2.2208	-2.9208	-2.2979	-2.7854	-2.8896	-2.2646	-2.8146	-2.8333	-2.4542	-3.1146	-2.4313	-2.4042	-2.7812	246.569	148.301	209.572	393.942	220.846	317.846	442.803	146.918	405.255	363.170	372.234	495.187	443.459	142.663	177.436	334.711	0.00067544	0.00052516	0.00012862	1343.4	4.9215e-06	4.4799e-06	1339.1	360.54	3.6964e-06	3.4831e-06	413.49	138.23	119.84	40.761	4.1969e-06	50.206	0.00064905	0.00062367	0.00016803	1363.2	6.6778e-06	6.7814e-06	1361.5	367.54	6.9653e-06	6.7475e-06	420.81	141.21	122.4	41.87	6.8493e-06	52.026	168.584	229.673	202.440	154.618	293.870	245.713	154.339	159.096	285.673	272.056	158.936	162.511	163.235	168.041	278.706	167.519	-8191	255	
29100.330	1	1	0	0	0.06406	0.13842	0.1883	0.18308	0.24467	0.15092	0.034762	0.13057	0.17944	0.19235	0.38945	0.25283	0.078407	0.27685	0.171	0.17785	-1.7458	-2.8167	-2.5604	-2.2396	-2.8292	-2.4479	-2.5917	-3.0729	-1.9875	-2.7458	-3.0104	-2.1417	-2.9583	-2.5854	-2.3625	-3.1	431.259	394.461	344.800	175.816	378.340	460.313	180.245	353.628	281.996	316.161	466.819	476.516	173.763	447.248	245.552	484.164	0.00069617	0.0003887	0.00010725	1340.9	5.4948e-06	7.7524e-06	1337.1	359.83	4.7817e-06	4.0653e-06	412.24	138.42	120.27	40.703	5.9909e-06	50.246	0.00063089	0.00060835	0.00016715	1362.9	6.6896e-06	6.5087e-06	1360	366.63	6.612e-06	6.539e-06	420.64	141.31	122.42	41.82	6.6344e-06	51.868	170.085	208.663	217.784	154.676	271.167	291.624	154.296	159.319	278.151	275.247	158.771	162.759	163.240	168.317	295.060	167.569	-8191	255	
29100.426	1	1	0	0	0.035908	0.1006	0.29255	0.27176	0.29794	0.23211	0.084418	0.18478	0.24825	0.090526	0.056222	0.18551	0.2276	0.12848	0.16299	0.10035	-1.5854	-2.4646	-2.8125	-2.2104	-3.0583	-2.5417	-2.4646	-3.1083	-2.3208	-2.4208	-3.0708	-2.3021	-2.8833	-2.7167	-2.0958	-3.0812	445.255	226.551	419.287	403.109	411.152	405.415	429.491	382.935	394.187	147.205	191.620	468.100	493.685	206.289	191.216	460.907	0.00066667	0.0005795	0.0001547	1349.5	5.0258e-06	4.2188e-06	1337.8	360.05	4.8608e-06	2.9537e-06	413.16	138.25	120.06	40.809	3.2641e-06	50.201	0.00061308	0.0006051	0.00017247	1363.5	6.3787e-06	6.838e-06	1359.4	367.06	6.6573e-06	6.6569e-06	421.35	141.14	122.46	41.858	6.7938e-06	51.893	169.876	236.191	241.812	154.853	258.655	258.277	154.475	159.329	277.802	271.508	158.594	162.854	163.252	167.983	292.685	167.389	-8191	255	
29100.521	1	1	0	0	0.19902	0.056412	0.12314	0.29167	0.036082	0.18656	0.36081	0.25254	0.22328	0.16415	0.060337	0.041506	0.18223	0.17993	0.30733	0.13884	-1.8917	-2.4062	-3.0333	-2.1354	-2.725	-2.6792	-2.475	-3.1458	-2.2771	-2.5708	-3.0146	-2.2625	-2.9292	-2.6854	-2.1771	-3.0292	163.578	495.158	323.398	462.083	494.073	360.575	408.573	475.904	482.695	256.949	435.576	159.491	148.300	379.245	336.675	332.542	0.00070397	0.00045911	0.00015931	1340.2	5.4668e-06	6.4854e-06	1334.5	358.73	6.9512e-06	4.3564e-06	413.61	137.75	119.62	40.698	3.1546e-06	50.188	0.00062608	0.00062409	0.00016899	1360.5	6.5553e-06	6.6922e-06	1358.4	366.75	6.6561e-06	6.6067e-06	420.92	141.12	122.35	41.84	6.8862e-06	51.933	167.903	240.805	214.994	154.957	272.508	270.637	154.439	159.422	268.214	312.464	159.020	163.010	163.505	168.308	296.087	167.596	-8191	255	
29100.617	1	1	0	0	0.10087	0.052683	0.1116	0.20301	0.16595	0.14485	0.23292	0.16969	0.30112	0.095058	0.18716	0.39812	0.083277	0.042645	0.085798	0.1487	-1.9917	-2.2208	-2.9729	-2.2521	-2.8583	-2.7708	-2.3875	-2.9854	-2.4125	-2.3333	-3.1667	-2.2708	-2.7667	-2.825	-2.0521	-3.0146	169.342	312.211	452.848	441.005	370.982	455.860	446.106	495.444	227.244	342.168	481.685	141.476	437.406	225.637	397.923	293.017	0.00067654	0.00026779	0.00012546	1336.2	5.4725e-06	7.8244e-06	1338.4	360.07	6.1609e-06	5.081e-06	411.45	138.11	119.69	40.65	4.4203e-06	50.402	0.00063006	0.00062249	0.00016731	1362.1	6.6532e-06	6.7868e-06	1360.5	366.9	6.6746e-06	6.8126e-06	420.69	140.97	122.36	41.79	6.736e-06	51.973	168.550	220.824	247.926	154.649	278.114	295.756	154.639	159.216	266.721	304.204	159.015	162.687	163.166	168.066	286.657	167.660	-8191	255	
29100.713	1	1	0	0	0.14066	0.23684	0.14121	0.39449	0.16371	0.029396	0.17894	0.25996	0.14251	0.091482	0.25223	0.26901	0.14	0.16345	0.13262	0.10568	-1.9813	-2.1229	-3.0354	-2.4583	-2.7313	-2.9292	-2.4958	-2.9667	-2.4333	-2.3021	-3.0604	-2.4979	-2.5625	-2.8937	-1.9979	-3.0104	381.743	363.542	330.946	205.061	258.659	252.106	435.778	454.174	471.920	381.453	446.275	430.232	411.269	479.731	388.348	191.982	0.00069047	0.00057017	0.00016467	1337.9	6.8104e-06	6.6494e-06	1339	360.69	5.1967e-06	4.1373e-06	412.17	138.14	120.13	40.765	4.8153e-06	50.46	0.0006373	0.00063026	0.00016688	1360.8	6.6867e-06	6.4922e-06	1357.1	367.12	6.6878e-06	6.6764e-06	420.09	140.96	122.16	41.799	6.5191e-06	51.944	168.870	215.168	245.661	154.847	273.481	294.756	154.374	159.544	265.164	287.018	158.847	162.743	163.658	168.503	278.533	167.745	-8191	255	
29100.809	1	1	0	0	0.2818	0.036661	0.31963	0.13914	0.10526	0.15247	0.16554	0.1923	0.23682	0.37867	0.22394	0.20817	0.18401	0.11914	0.27657	0.20125	-2.2625	-2.0396	-3.1063	-2.15	-2.4813	-2.9437	-2.1104	-3.0021	-2.7333	-2.1979	-2.8875	-2.4354	-2.6042	-3.0104	-2.3563	-2.8083	161.607	350.253	308.460	330.384	311.454	265.296	478.768	330.094	216.446	327.067	143.622	419.696	426.590	145.312	306.443	331.227	0.00071414	0.000558	0.0001138	1341.6	5.971e-06	2.4783e-06	1331.2	357.91	4.7322e-06	5.4815e-06	412.78	137.89	119.61	40.577	4.4451e-06	50.002	0.00063334	0.00060916	0.00016859	1360.5	6.7667e-06	6.6205e-06	1353	365.88	6.3983e-06	6.7256e-06	419.87	140.86	122.26	41.783	6.5334e-06	51.913	168.705	243.829	250.886	154.685	252.284	292.340	154.581	159.264	266.056	290.766	158.981	162.775	163.592	168.411	283.695	167.730	-8191	255	
29100.930	1	1	0	0	0.085952	0.28329	0.090579	0.094279	0.15627	0.26088	0.23391	0.076493	0.01173	0.072936	0.11547	0.095954	0.16868	0.15602	0.024869	0.20574	-2.3063	-2.0333	-2.8312	-2.4417	-2.3187	-2.9521	-2.3438	-2.9542	-2.6688	-2.3021	-3.0042	-2.5521	-2.1854	-3.2167	-2.1396	-2.5708	353.097	493.119	448.718	417.685	310.218	147.386	423.266	392.288	145.421	386.899	446.604	248.631	446.755	235.457	421.622	314.993	0.00065165	0.00029353	0.00017976	1335.5	5.5946e-06	3.0232e-06	1328.1	357.83	5.9203e-06	7.7284e-06	412.28	137.97	119.65	40.764	5.7147e-06	50.339	0.00061493	0.00060007	0.00016169	1356.9	6.6459e-06	6.6518e-06	1352	364.99	6.5344e-06	6.6847e-06	419.65	140.82	122.1	41.788	6.7144e-06	51.98	173.178	238.395	229.242	154.638	258.342	291.005	154.547	159.443	274.225	303.798	159.095	162.625	162.987	168.571	269.595	167.574	-8191	255	
29101.025	1	1	0	0	0.14475	0.18435	0.2831	0.43608	0.14536	0.2398	0.044194	0.30647	0.053575	0.1662	0.13604	0.10165	0.078941	0.32626	0.27623	0.062126	-2.3563	-2.1729	-2.8542	-2.7375	-2.1979	-3.0042	-2.6167	-2.6063	-2.9125	-2.1771	-2.975	-2.5875	-2.2479	-3.0146	-2.2229	-2.4938	468.906	347.522	222.713	460.869	463.466	371.102	313.958	464.498	329.587	419.630	235.832	468.442	224.072	488.701	348.448	142.197	0.00069855	0.00066776	0.000193	1333.2	4.8916e-06	3.8927e-06	1336.9	361.06	4.4219e-06	4.2687e-06	412.04	137.88	119.95	40.701	4.79e-06	50.58	0.00064061	0.00063288	0.0001718	1358.4	7.1156e-06	7.0094e-06	1355.9	367.34	7.0331e-06	7.1131e-06	420.93	140.88	122.28	41.795	6.9652e-06	52.065	169.360	213.215	231.805	154.845	277.214	290.580	154.490	159.323	279.462	292.485	159.257	162.815	163.622	168.536	286.560	167.461	-8191	255	
29101.121	1	1	0	0	0.15961	0.079375	0.14629	0.17825	0.15215	0.12361	0.34279	0.19968	0.16291	0.26034	0.053399	0.2233	0.20334	0.21176	0.073373	0.057828	-2.3854	-1.8563	-2.5687	-2.6562	-2.0292	-2.6896	-2.5458	-2.4896	-2.8646	-2.3167	-2.8458	-2.8667	-2.2229	-2.8396	-2.4708	-2.5125	288.030	495.107	253.640	455.152	256.105	192.792	438.299	385.071	357.014	381.529	314.096	451.319	480.965	155.838	256.431	431.587	0.00071577	0.00054062	8.894e-05	1340.6	6.3992e-06	4.5091e-06	1332.1	359.82	5.1995e-06	3.9563e-06	411.78	138.36	119.57	40.711	4.404e-06	50.494	0.00065397	0.00065021	0.00017938	1360.1	6.9848e-06	6.7828e-06	1354.8	366.84	6.8159e-06	6.9334e-06	420.42	140.9	122.14	41.836	6.942e-06	52.014	167.553	225.764	209.589	154.678	261.585	299.707	154.438	159.325	274.429	268.142	158.996	162.922	163.430	168.686	292.322	167.551	-8191	255	
29101.193	1	1	0	0	0.27656	0.29186	0.24229	0.35673	0.15122	0.1064	0.15809	0.14244	0.09813	0.15119	0.097306	0.075533	0.1508	0.4326	0.084906	0.23278	-2.65	-2.3625	-2.6708	-2.8458	-2.0312	-2.875	-2.7687	-2.3167	-3.0271	-2.3479	-2.6646	-2.8875	-2.2167	-2.7458	-2.7	-2.4146	406.895	354.277	454.178	469.118	403.627	479.546	442.701	423.031	308.429	493.410	429.458	367.262	149.303	414.252	497.370	476.207	0.00065887	0.00059074	0.00013046	1339.7	5.2445e-06	4.6762e-06	1328.2	360.52	6.2599e-06	5.1262e-06	414.29	137.85	119.33	40.516	5.8873e-06	50.324	0.00062081	0.00061449	0.00017492	1358.2	6.6695e-06	6.8151e-06	1354.5	366.91	6.4925e-06	6.7887e-06	420.42	140.73	121.96	41.83	6.6321e-06	51.834	169.644	223.618	228.074	154.751	266.108	306.803	154.468	159.593	265.419	271.010	159.031	162.892	163.406	168.405	290.756	167.726	-8191	255	
29101.314	1	1	0	0	0.25058	0.31928	0.047429	0.11851	0.224	0.39245	0.065718	0.2086	0.21687	0.082618	0.068353	0.29366	0.31714	0.35671	0.18388	0.27441	-2.5458	-2.1521	-2.3854	-3.0146	-2.2687	-2.7521	-2.8229	-2.1292	-2.9896	-2.3063	-2.2667	-2.7667	-2.1833	-2.7938	-2.5563	-2.1917	299.440	374.473	364.040	464.936	251.446	469.179	427.423	452.379	166.711	412.235	403.382	423.339	334.901	479.321	178.797	424.062	0.00066179	0.0003771	0.00013912	1339.5	5.2194e-06	5.1621e-06	1329.8	359.33	5.6066e-06	2.773e-06	410.2	137.07	119.46	40.537	6.5508e-06	50.218	0.00060724	0.0006014	0.00017273	1355.8	6.5624e-06	6.3406e-06	1352.4	365.57	6.4319e-06	6.441e-06	419.1	140.58	121.89	41.685	6.36e-06	51.747	170.694	219.106	214.380	154.924	275.005	293.437	154.483	159.440	275.011	268.913	158.961	163.178	163.417	168.525	272.223	167.733	-8191	255	
29101.410	1	1	0	0	0.19997	0.30822	0.15468	0.10965	0.18426	0.1404	0.31662	0.17979	0.122	0.14729	0.19436	0.085164	0.19156	0.068657	0.18199	0.22368	-2.6063	-2.3271	-2.3563	-2.9229	-2.0146	-2.7292	-2.9625	-2.4021	-2.9208	-2.5875	-2.5708	-3.05	-2.1979	-2.7646	-2.7083	-2.1063	234.151	414.776	189.179	405.945	395.260	214.844	469.778	408.125	179.025	197.777	447.408	151.709	329.633	339.903	187.145	473.963	0.00068393	0.00045614	0.00012614	1339.2	7.2904e-06	4.5032e-06	1333.5	357.36	3.1165e-06	6.6354e-06	411.45	137.96	119.55	40.744	5.1084e-06	50.049	0.00060491	0.00059074	0.0001642	1355.9	6.4546e-06	6.7057e-06	1351.1	364.92	6.3207e-06	6.4009e-06	419.45	140.43	121.73	41.675	6.5572e-06	51.69	168.240	223.842	233.502	154.742	297.913	286.278	154.393	159.380	254.251	292.885	159.029	162.843	163.099	168.656	268.583	167.493	-8191	255	
29101.508	1	1	0	0	0.082833	0.18871	0.1173	0.083273	0.096617	0.12223	0.19575	0.37475	0.071203	0.042593	0.18346	0.14343	0.13096	0.058179	0.16732	0.039438	-2.4188	-2.4813	-2.2708	-3.0354	-2.2854	-2.5854	-2.9542	-2.275	-2.9583	-2.5979	-2.3	-3.0938	-2.3458	-2.7042	-2.9333	-2.1854	484.009	327.497	205.752	471.675	181.571	362.834	477.176	456.847	360.574	222.605	369.958	455.263	266.162	466.544	205.200	372.820	0.00065284	0.00062833	0.00015816	1337.7	5.5512e-06	4.9557e-06	1335.1	359.89	4.7788e-06	6.2163e-06	413.31	136.97	119.88	40.612	4.9545e-06	50.452	0.00061355	0.00060507	0.00017231	1356.2	6.7065e-06	6.8336e-06	1353.9	366.12	7.0408e-06	7.119e-06	420.64	140.49	122.33	41.781	6.8325e-06	52.008	174.723	225.450	228.192	154.777	264.584	290.312	154.282	159.188	265.462	275.114	158.678	162.638	163.027	168.269	301.243	167.365	-8191	255	
29101.604	1	1	0	0	0.18249	0.30969	0.27911	0.094426	0.19035	0.10972	0.23141	0.23181	0.13483	0.078218	0.20591	0.21021	0.10287	0.29017	0.19001	0.11788	-2.2646	-2.7125	-2.2146	-3.0625	-2.2562	-2.2646	-3.0667	-2.3625	-2.8167	-2.6813	-2.4042	-3.0354	-2.4229	-2.3854	-2.9333	-2.3792	307.531	436.755	436.056	450.640	382.405	408.471	429.102	442.174	262.760	188.463	433.524	477.211	387.542	160.131	361.167	394.475	0.00070516	0.00065276	0.00022039	1341	4.8413e-06	7.3407e-06	1335.4	360.42	4.465e-06	6.8508e-06	413.02	137.66	119.91	40.539	3.5259e-06	50.436	0.00065758	0.00065331	0.00018298	1361.5	6.8809e-06	7.0455e-06	1359.1	366.66	6.7981e-06	6.8524e-06	421.22	141.11	122.18	41.775	6.6398e-06	51.99	169.598	246.992	227.013	154.884	274.727	293.425	154.477	159.255	275.824	307.654	158.777	162.670	163.157	168.232	254.308	167.591	-8191	255	
29101.723	1	1	0	0	0.040137	0.13862	0.23114	0.29117	0.18925	0.30838	0.12098	0.12807	0.12763	0.1512	0.30189	0.24217	0.14225	0.12063	0.11529	0.13821	-2.2354	-2.8312	-2.1792	-3.0604	-2.5438	-2.3479	-3.0542	-2.2938	-2.4417	-2.7479	-2.1646	-3.1375	-2.7687	-2.3688	-2.8187	-2.4188	405.980	295.946	344.455	465.896	407.853	191.756	162.182	307.453	403.991	211.724	438.967	190.551	149.030	182.570	259.793	450.195	0.00070528	0.00057439	0.00024169	1341.5	3.9205e-06	5.4361e-06	1340.5	359.19	2.9393e-06	4.2647e-06	415.02	137.75	119.97	40.801	6.0404e-06	50.319	0.00063467	0.00064741	0.00017543	1362.6	6.8761e-06	7.004e-06	1359.1	366.44	6.7694e-06	6.5692e-06	420.94	140.74	122.14	41.89	6.6436e-06	51.935	168.890	248.892	235.702	154.785	273.318	283.298	154.419	159.330	287.136	284.109	158.707	162.853	163.148	168.620	255.898	167.669	-8191	255	
29101.795	1	1	0	0	0.12938	0.24469	0.20475	0.25503	0.26502	0.080592	0.50731	0.15046	0.16813	0.12211	0.10591	0.16847	0.13012	0.13888	0.23274	0.26983	-2.2	-2.7958	-2.1875	-2.9125	-2.6271	-2.2313	-3.1958	-2.4521	-2.3521	-2.9562	-2.1875	-2.9125	-2.6979	-2.0396	-2.8521	-2.4729	478.839	462.613	290.120	468.898	448.089	171.593	426.082	490.396	491.652	423.364	195.004	465.848	489.661	470.475	389.689	498.841	0.00065473	0.00032264	0.00014884	1333.2	5.2218e-06	5.1943e-06	1337.4	358.88	4.2448e-06	2.4376e-06	410.77	138.45	119.81	40.541	5.3618e-06	50.358	0.00062144	0.0006116	0.00016532	1360	6.5952e-06	6.7565e-06	1358.1	365.63	6.7312e-06	6.2687e-06	419.39	140.99	122.16	41.741	6.3962e-06	51.917	169.158	258.945	249.075	155.094	274.073	300.652	154.522	159.307	266.359	310.063	158.705	162.843	163.371	168.375	259.261	167.325	-8191	255	
29101.914	1	1	0	0	0.072126	0.0086104	0.13492	0.12338	0.043094	0.048173	0.3018	0.30858	0.29577	0.011163	0.45764	0.050271	0.44456	0.29763	0.14123	0.12987	-1.9708	-2.8167	-2.1604	-2.9292	-2.6833	-2.325	-3.0479	-2.4729	-2.3854	-2.9167	-2.4042	-2.8438	-2.9271	-2.3083	-2.9917	-2.5292	308.996	458.994	159.803	442.222	223.639	300.841	488.000	396.982	260.619	166.275	419.599	234.524	484.717	460.877	235.694	448.992	0.00067602	0.00059075	0.00012955	1344	5.8584e-06	3.8546e-06	1340.9	358.77	4.7871e-06	3.1945e-06	412.26	137.81	119.37	40.559	6.6473e-06	50.419	0.00062191	0.00059381	0.00016735	1359.9	6.681e-06	6.7798e-06	1358.7	366.02	6.7325e-06	6.5845e-06	420.36	141.24	122.1	41.777	6.728e-06	51.956	168.998	222.793	235.992	154.879	260.399	259.789	154.598	159.181	276.861	317.716	158.845	162.716	162.864	168.213	280.398	167.774	-8191	255	
29102.010	1	1	0	0	0.15686	0.13219	0.28287	0.2627	0.1876	0.11623	0.35844	0.3465	0.1546	0.13631	0.40048	0.3827	0.08092	0.081915	0.017732	0.1727	-1.6854	-2.8417	-2.0938	-2.4688	-2.7375	-2.075	-3.1646	-2.4896	-2.1354	-3.0375	-2.4479	-2.5	-2.8042	-2.2979	-2.7896	-2.5833	166.042	190.281	479.459	405.203	409.180	247.175	459.855	409.479	307.588	324.693	447.890	142.784	383.078	170.841	454.818	335.721	0.00070073	0.00056872	0.0001527	1345.7	5.9926e-06	3.8104e-06	1341.3	359.65	5.7903e-06	3.2717e-06	412.81	137.8	119.59	40.683	3.7858e-06	50.239	0.00064756	0.00061909	0.00017736	1366.1	6.9054e-06	6.9313e-06	1361.4	366.32	6.8301e-06	6.5636e-06	420.9	141.13	122.25	41.786	6.8684e-06	51.896	171.170	213.619	236.376	154.419	274.762	271.658	154.279	159.260	276.336	281.952	158.846	162.642	163.135	168.398	289.429	167.293	-8191	255	
29102.105	1	1	0	0	0.11228	0.053389	0.15433	0.15437	0.25743	0.14889	0.27611	0.2012	0.16428	0.057933	0.45208	0.20307	0.13827	0.059394	0.23297	0.16033	-1.7687	-2.9979	-2.2792	-2.5229	-2.8125	-2.0812	-2.9604	-2.7792	-2.0729	-2.9125	-2.3729	-2.4479	-3.0229	-2.3229	-2.7292	-2.8729	491.341	338.854	411.195	448.378	164.300	191.758	472.406	146.940	389.928	293.491	453.033	430.015	475.878	196.628	346.392	404.960	0.0006896	0.00050203	0.00022181	1341.7	5.2655e-06	5.3038e-06	1342.6	359.76	4.157e-06	5.5923e-06	412.42	137.97	119.92	40.447	4.6397e-06	50.416	0.00065116	0.00062147	0.00017143	1363.6	6.7534e-06	7.0354e-06	1362.1	367.15	6.9096e-06	6.6718e-06	421.01	140.84	122.41	41.713	6.8541e-06	51.908	168.653	227.546	238.190	154.520	308.053	292.828	154.386	159.158	275.508	295.519	158.809	162.927	163.387	168.362	292.886	167.318	-8191	255	
29102.201	1	1	0	0	0.19994	0.33139	0.093378	0.19356	0.066533	0.1746	0.3391	0.21831	0.18846	0.21044	0.09905	0.13118	0.17352	0.069651	0.024826	0.29818	-1.7	-3.0021	-2.3667	-2.3375	-3.0333	-2.3354	-2.9083	-3.1229	-2.0875	-2.9271	-2.7562	-2.2396	-2.8667	-2.4125	-2.5646	-2.7229	288.589	241.819	445.069	390.251	477.161	168.586	416.489	450.356	386.363	214.210	454.286	406.366	180.059	196.302	361.850	495.031	0.00069843	0.00055366	0.00014798	1345.6	7.7064e-06	5.254e-06	1337.4	360.66	3.8432e-06	4.8567e-06	414.46	137.64	119.48	40.622	5.2375e-06	50.38	0.00065381	0.00061828	0.00017204	1362.5	6.9341e-06	6.998e-06	1362	367.01	6.7466e-06	6.633e-06	420.9	140.92	122.18	41.795	7.0455e-06	51.989	167.778	229.998	245.748	154.825	269.634	294.769	154.603	159.501	258.175	292.692	158.875	162.991	163.105	168.358	276.538	167.706	-8191	255	
29102.322	1	1	0	0	0.13131	0.18649	0.10924	0.14782	0.0080714	0.088271	0.27321	0.30046	0.095704	0.062978	0.13443	0.31105	0.050836	0.2976	0.0013312	0.33556	-1.7521	-2.7417	-2.5125	-2.4521	-2.8979	-2.0938	-2.6333	-2.8187	-2.2062	-2.8833	-2.7771	-2.1688	-2.9833	-2.45	-2.3312	-3.1375	488.615	150.356	158.500	368.705	386.498	323.059	442.537	403.648	245.256	429.832	440.839	460.195	259.084	464.658	180.000	461.332	0.00068424	0.00055159	0.00016618	1339.8	5.0235e-06	3.8797e-06	1334.5	359.43	6.3903e-06	6.3512e-06	414.06	137.66	120.08	40.56	3.3386e-06	50.556	0.0006304	0.00061732	0.00017746	1360.9	6.7463e-06	6.7851e-06	1358.1	365.44	6.7121e-06	6.8594e-06	420.96	140.75	122.11	41.707	6.8773e-06	51.987	166.854	208.547	221.607	154.652	274.396	277.494	154.575	159.500	277.932	270.218	159.040	163.005	163.246	168.370	282.989	167.434	-8191	255	
29102.420	1	1	0	0	0.17648	0.18913	0.20129	0.12882	0.097623	0.19485	0.54213	0.28111	0.27747	0.027093	0.1038	0.32865	0.022135	0.27586	0.27498	0.16515	-1.8229	-2.6604	-2.5833	-2.0583	-2.95	-2.4083	-2.3958	-3.0146	-2.0583	-2.8083	-2.8625	-1.9792	-2.8875	-2.5792	-2.1	-2.9708	351.038	283.593	472.082	385.069	470.202	274.236	427.620	447.058	380.414	230.021	192.315	145.789	360.384	470.628	479.124	442.198	0.00068226	0.0003281	0.00012396	1338.6	5.0868e-06	3.9994e-06	1331.9	360.49	5.1232e-06	6.1997e-06	414.26	137.75	119.53	40.479	3.6557e-06	50.543	0.00063269	0.00062433	0.00017341	1361	6.5821e-06	6.998e-06	1358.6	367.16	6.6857e-06	6.705e-06	421.14	140.83	122	41.7	6.8249e-06	51.979	169.304	260.531	252.695	154.698	249.973	267.503	154.266	159.314	257.560	286.646	158.591	162.849	163.115	168.293	304.791	167.474	-8191	255	
29102.490	1	1	0	0	0.062519	0.30746	0.32531	0.23373	0.16301	0.31615	0.11795	0.21063	0.038978	0.16736	0.2542	0.13111	0.29971	0.27487	0.22661	0.26998	-1.6437	-2.5729	-2.8187	-2.25	-2.8875	-2.5187	-2.5854	-3.2208	-2.2313	-2.5646	-3.0062	-2.3688	-2.9042	-2.725	-2.1542	-3.1583	363.366	280.100	487.582	479.129	355.671	286.282	253.427	379.751	490.038	236.216	436.360	458.722	166.638	440.410	388.755	431.349	0.00069633	0.00045052	0.00019072	1344.4	4.384e-06	3.8537e-06	1342.3	358.86	5.3832e-06	5.9139e-06	411.09	137.69	119	40.666	4.1032e-06	50.431	0.00063601	0.00062917	0.00016789	1361.9	6.6746e-06	6.6178e-06	1361	366.27	6.7158e-06	6.7638e-06	420.44	140.63	121.98	41.783	6.7858e-06	51.935	168.026	213.898	210.447	154.703	286.054	314.497	154.582	159.179	256.743	288.042	158.876	162.691	163.375	168.452	303.907	167.585	-8191	255	
29102.609	1	1	0	0	0.26584	0.067744	0.10603	0.069119	0.18231	0.27688	0.25762	0.38332	0.20665	0.1443	0.20495	0.18081	0.092309	0.21075	0.11533	0.05758	-1.9292	-2.4208	-2.7625	-2.3958	-2.7021	-2.6979	-2.3625	-2.8854	-2.1854	-2.3646	-2.95	-2.3229	-2.8187	-2.8	-2.1625	-2.9104	179.599	442.555	460.803	411.732	352.511	400.823	393.957	482.226	257.116	456.796	174.358	469.303	153.843	153.693	476.796	320.218	0.0006896	0.00072285	0.00018819	1336.8	4.7296e-06	6.5724e-06	1335	358.75	5.6877e-06	3.1227e-06	411.95	137.51	120.13	40.567	7.0248e-06	50.421	0.00064234	0.00062629	0.00016004	1359.5	6.651e-06	6.6723e-06	1357.6	366.31	6.742e-06	6.6353e-06	419.84	140.87	122.12	41.765	6.8382e-06	51.876	168.610	213.643	213.954	154.836	260.817	290.348	154.601	159.486	260.833	283.702	158.953	162.901	163.573	168.395	271.384	167.573	-8191	255	
29102.705	1	1	0	0	0.35966	0.14878	0.2443	0.045224	0.26952	0.11777	0.32252	0.073452	0.30787	0.13826	0.28849	0.26457	0.10268	0.17491	0.044623	0.20643	-2.0312	-2.1229	-2.7604	-2.3021	-2.575	-2.6813	-2.3729	-2.975	-2.4979	-2.2708	-3.0938	-2.2938	-2.6583	-2.8729	-2.1875	-2.9104	396.534	300.486	425.662	244.632	456.515	277.546	402.982	440.336	143.303	172.926	428.849	490.092	177.859	484.629	311.968	462.514	0.00064492	0.00053902	0.00019845	1339.6	4.8089e-06	4.359e-06	1337.9	358.8	5.8727e-06	3.8734e-06	412.74	137.47	119.51	40.688	4.7639e-06	50.49	0.00064124	0.00062201	0.00017039	1361.4	6.3994e-06	6.6437e-06	1358.3	365.72	6.6133e-06	6.7243e-06	420.2	140.65	121.99	41.764	6.6725e-06	51.968	170.230	230.159	215.332	154.681	258.449	300.469	154.469	159.449	276.722	308.055	158.926	162.841	163.296	168.523	278.894	167.569	-8191	255	
29102.803	1	1	0	0	0.071716	0.034312	0.25042	0.14014	0.19495	0.064574	0.19297	0.1723	0.18123	0.14182	0.18269	0.10332	0.16265	0.2652	0.098072	0.033314	-2.075	-2.2125	-2.8438	-2.2771	-2.4583	-3.0208	-2.4146	-3.025	-2.5167	-2.1229	-3.0292	-2.2354	-2.5083	-3.0146	-2.2396	-2.9729	371.167	220.167	292.653	495.418	339.960	188.181	361.201	434.709	271.495	371.088	361.861	471.253	416.592	498.113	221.982	479.408	0.00068351	0.00047191	0.00017216	1339	4.6499e-06	3.9457e-06	1337.5	359.24	6.2116e-06	7.5953e-06	413.14	137.95	119.82	40.524	4.2669e-06	50.521	0.00063506	0.00063179	0.00017176	1360.7	6.7569e-06	6.7976e-06	1359.4	366.22	6.7026e-06	6.6671e-06	421.17	140.79	122.24	41.746	6.7801e-06	51.998	167.791	257.085	222.241	154.833	265.461	285.651	154.785	159.586	282.917	318.465	159.149	163.033	163.483	168.587	275.866	167.876	-8191	255	
29102.898	1	1	0	0	0.29925	0.058785	0.075537	0.30239	0.085585	0.11633	0.11897	0.2774	0.12602	0.35706	0.27023	0.09863	0.3112	0.071851	0.21058	0.054167	-2.2333	-2.1042	-3.0729	-2.3292	-2.3	-2.9708	-2.4771	-2.875	-2.9146	-2.0938	-2.975	-2.5583	-2.0771	-2.9333	-1.9625	-2.6667	334.603	230.753	383.768	162.712	211.157	380.576	399.193	413.438	252.817	194.994	436.069	266.269	432.645	154.287	455.481	428.871	0.00066092	0.00038905	0.0001361	1342.7	4.8537e-06	4.8487e-06	1339.1	361.02	4.404e-06	4.7812e-06	414.16	137.58	120.24	40.682	4.652e-06	50.404	0.00062275	0.00063477	0.00017254	1363.7	7.0515e-06	6.7643e-06	1359.4	367.24	6.8409e-06	6.5845e-06	420.93	140.67	122.35	41.763	6.8823e-06	52.036	170.015	230.583	254.955	154.960	273.595	281.438	154.648	159.444	270.755	285.404	159.197	162.760	163.735	168.694	296.499	167.713	-8191	255	
29102.994	1	1	0	0	0.20185	0.098114	0.21956	0.21103	0.070276	0.40886	0.30385	0.31802	0.045175	0.0965	0.15393	0.18276	0.2642	0.25776	0.15804	0.21635	-2.5021	-2.2562	-2.9292	-2.6625	-2.1333	-3.1333	-2.5312	-2.8854	-2.8771	-2.2646	-2.9437	-2.5729	-2.2042	-3.0125	-2.2729	-2.5604	153.786	204.416	401.689	386.571	429.270	464.416	399.478	458.191	455.770	180.655	190.730	413.453	428.438	479.463	285.202	388.620	0.00068604	0.00038031	0.0001447	1337	4.7011e-06	4.4807e-06	1334	359.32	5.3164e-06	3.7437e-06	413.34	138.24	120.16	40.424	4.019e-06	50.424	0.00064254	0.00063215	0.00017605	1360.5	6.7913e-06	6.5902e-06	1357.7	366.34	6.8615e-06	6.7448e-06	420.48	140.94	122.18	41.717	6.8915e-06	52.021	168.836	237.119	236.190	154.979	271.721	268.686	154.482	159.583	271.836	297.725	158.932	162.858	163.637	168.897	256.771	167.636	-8191	255	
29103.090	1	1	0	0	0.19227	0.23255	0.16549	0.17269	0.21184	0.18799	0.31353	0.19664	0.15394	0.33168	0.22784	0.21049	0.1581	0.10406	0.06271	0.22511	-2.4542	-2.0958	-2.8917	-2.675	-2.2333	-2.7667	-2.4562	-2.5896	-2.7812	-2.1604	-2.925	-2.6896	-2.0104	-3.1083	-2.4021	-2.3604	418.764	148.936	276.166	417.235	179.337	351.192	474.546	395.188	337.572	246.713	170.956	186.005	258.459	180.377	187.920	194.178	0.00075562	0.00047661	0.00014004	1344	5.3379e-06	6.5982e-06	1330.7	358.79	5.4598e-06	5.209e-06	414.04	137.32	120.5	40.733	5.6644e-06	50.364	0.00063463	0.00063872	0.00018018	1363	6.7986e-06	6.801e-06	1357.1	365.8	6.511e-06	6.7631e-06	420.95	140.69	122.3	41.809	6.7864e-06	51.98	170.483	249.043	236.104	155.267	272.712	300.368	154.753	159.815	270.348	273.192	159.140	162.953	163.729	168.670	274.590	168.143	-8191	255	
29103.188	1	1	0	0	0.050949	0.10134	0.12381	0.14403	0.088061	0.25216	0.20988	0.30279	0.10301	0.092909	0.16339	0.089261	0.17923	0.087412	0.14889	0.11323	-2.6646	-2.0104	-2.6958	-2.9854	-2.1625	-3.0083	-2.6229	-2.575	-2.8708	-2.0687	-2.8583	-3.025	-2.2729	-3.1875	-2.4396	-2.3021	188.415	404.816	236.032	413.975	230.793	197.388	461.940	422.189	347.637	347.501	479.359	415.920	451.775	353.448	350.553	436.995	0.00070652	0.00045569	0.00012873	1344	3.7006e-06	7.1547e-06	1335.8	360.52	4.5629e-06	5.9991e-06	412.29	137.54	119.75	40.766	5.8584e-06	50.329	0.00062957	0.00063881	0.0001744	1363.1	6.7138e-06	6.8394e-06	1358.5	366.6	6.5686e-06	6.7737e-06	420.2	140.5	122.1	41.826	6.6271e-06	51.92	169.860	242.304	230.078	154.953	282.755	273.001	154.615	159.566	266.307	296.988	158.996	163.098	163.785	168.702	285.334	167.615	-8191	255	
29103.283	1	1	0	0	0.27577	0.19078	0.30551	0.10048	0.23236	0.078706	0.37387	0.17873	0.13304	0.071969	0.039483	0.24772	0.19652	0.36014	0.36428	0.12768	-2.5521	-2.4104	-2.3104	-3.1125	-2.1688	-2.75	-2.6833	-2.4042	-3.0583	-2.4	-2.7833	-2.975	-2.2833	-2.9083	-2.6229	-2.2771	190.155	270.095	414.866	420.081	303.469	376.175	445.353	452.187	203.898	300.668	164.510	432.099	496.817	473.912	469.209	419.003	0.00068573	0.00063105	0.00014914	1342.5	6.5328e-06	5.185e-06	1334.3	358.49	6.0356e-06	6.0991e-06	410.45	138.73	119.44	40.627	5.0753e-06	50.186	0.00062655	0.00063513	0.00017458	1361.7	6.7852e-06	6.7296e-06	1355.6	365.19	6.3918e-06	6.6662e-06	419.38	140.92	122.05	41.735	6.6356e-06	51.831	168.150	237.551	219.632	154.688	281.948	269.155	154.641	159.630	275.218	311.476	159.381	162.913	163.597	168.627	268.552	167.671	-8191	255	
29103.402	1	1	0	0	0.016221	0.2107	0.24454	0.24464	0.18473	0.067994	0.13986	0.39283	0.36971	0.17388	0.15267	0.16078	0.11821	0.028236	0.18501	0.21376	-2.6833	-2.4917	-2.4896	-3.225	-2.0271	-2.9062	-2.9833	-2.3875	-2.8604	-2.3417	-2.325	-3.0854	-2.1104	-2.7875	-2.5417	-2.3646	344.048	384.447	231.355	448.558	144.786	439.940	414.582	500.450	181.594	464.025	147.647	408.513	441.838	258.244	332.153	372.890	0.00072229	0.00064673	0.00014159	1343.8	3.6478e-06	5.3719e-06	1334.8	358.33	4.8121e-06	5.9786e-06	411.83	138.09	119.31	40.546	3.7081e-06	49.934	0.00063642	0.0006252	0.0001733	1361.1	6.5337e-06	6.8104e-06	1356.1	365.63	6.673e-06	6.6336e-06	420.27	140.59	121.92	41.784	6.6607e-06	51.721	170.018	230.774	232.653	154.952	266.682	296.736	154.800	159.739	276.080	290.463	159.280	162.871	163.611	168.694	281.494	167.903	-8191	255	
29103.498	1	1	0	0	0.077438	0.13677	0.1312	0.21585	0.070459	0.062992	0.027496	0.21067	0.04933	0.11374	0.2386	0.18827	0.11135	0.10207	0.097482	0.33534	-2.4979	-2.4167	-2.2958	-3.1875	-2.1562	-2.6625	-2.9729	-2.3208	-2.775	-2.7292	-2.3063	-3.0563	-2.4583	-2.5875	-2.9333	-2.2438	496.114	340.833	181.963	398.320	325.219	270.450	159.125	436.764	359.603	168.022	327.421	442.436	379.464	487.040	317.003	426.853	0.00072709	0.00035094	0.00014117	1341.4	4.0239e-06	2.2612e-06	1335.6	359.22	3.6928e-06	6.9334e-06	410.94	136.97	119.43	40.42	6.8544e-06	50.391	0.00063742	0.00061497	0.00016748	1359.5	6.577e-06	6.8754e-06	1356.6	365.79	6.4808e-06	6.7432e-06	420.01	140.3	121.78	41.621	6.2397e-06	51.88	168.693	242.053	241.283	155.052	295.400	297.263	155.007	159.743	269.783	296.693	159.028	162.858	163.408	168.622	269.337	167.723	-8191	255	
29103.596	1	1	0	0	0.16216	0.064168	0.15042	0.16783	0.17497	0.16137	0.20127	0.17815	0.035183	0.15553	0.15941	0.14628	0.20268	0.26654	0.033158	0.076736	-2.3729	-2.4729	-2.3667	-3.1479	-2.425	-2.5812	-3.0271	-2.3187	-2.6979	-2.7271	-2.0938	-3.0271	-2.5312	-2.7062	-3.0604	-2.175	148.827	408.224	341.382	175.990	252.632	406.846	444.852	379.282	270.135	362.274	247.175	174.944	441.231	176.591	219.481	435.190	0.00068817	0.00051841	0.0001385	1337.4	4.7495e-06	3.5672e-06	1330.6	358.22	5.9699e-06	5.731e-06	412.98	137.29	119.31	40.515	5.1143e-06	50.3	0.00063004	0.00062689	0.00017117	1358.4	6.6909e-06	6.8175e-06	1355	365.44	6.7907e-06	6.7937e-06	419.81	140.35	121.54	41.659	6.5693e-06	51.837	167.821	251.199	238.952	155.029	278.375	316.635	154.271	159.511	291.784	317.719	159.194	162.836	163.269	168.656	288.010	167.814	-8191	255	
29103.715	1	1	0	0	0.20372	0.11524	0.13341	0.07802	0.22163	0.16025	0.3617	0.21467	0.19672	0.20711	0.18693	0.17045	0.25259	0.14612	0.020872	0.20162	-2.2438	-2.7646	-2.1312	-3.025	-2.1625	-2.3917	-3.1354	-2.3375	-2.7562	-2.7229	-2.3354	-2.9167	-2.5583	-2.4313	-2.9938	-2.3375	186.997	345.031	245.092	225.256	168.134	473.247	454.813	436.428	167.460	493.225	483.174	153.144	468.577	449.561	213.112	384.172	0.00072627	0.00040432	0.00015065	1342.5	5.1011e-06	7.0465e-06	1337.5	357.86	5.1946e-06	3.2553e-06	412.18	137.62	118.74	40.558	4.3049e-06	50.2	0.00062446	0.00060492	0.00016511	1360.9	6.6121e-06	6.673e-06	1356.1	365.28	6.4941e-06	6.6419e-06	419.83	140.68	121.43	41.7	6.4143e-06	51.829	167.391	229.261	242.100	154.807	296.070	292.530	154.741	159.499	260.269	273.558	159.242	162.988	163.117	168.783	268.190	167.934	-8191	255	
29103.785	1	1	0	0	0.12404	0.20008	0.16861	0.046826	0.1353	0.074272	0.27445	0.1518	0.13849	0.074816	0.15563	0.027121	0.17551	0.069429	0.17323	0.12962	-2.0417	-2.7125	-1.9042	-2.8625	-2.5563	-2.2458	-3.3083	-2.3563	-2.5438	-2.8479	-2.2	-3	-2.8292	-2.4167	-3.0312	-2.2896	161.485	316.694	157.983	465.728	383.112	293.477	464.122	461.966	279.348	275.485	175.000	146.680	156.632	449.949	192.526	432.204	0.0006949	0.00056703	0.0001903	1342.1	4.4814e-06	4.9168e-06	1335	359.13	3.8922e-06	5.7527e-06	412.43	137.86	119	40.577	4.2189e-06	50.221	0.00061498	0.00059303	0.00016918	1359.6	6.6418e-06	6.7053e-06	1357	365.41	6.7479e-06	6.5297e-06	419.51	140.67	121.83	41.703	6.413e-06	51.793	167.125	230.969	221.739	154.942	245.227	282.173	154.443	159.319	261.922	267.832	158.901	162.859	163.161	168.565	279.543	167.694	-8191	255	
29103.883	1	1	0	0	0.30958	0.13857	0.14766	0.21972	0.15399	0.17873	0.27727	0.31478	0.10313	0.16349	0.078264	0.20539	0.15868	0.1302	0.093796	0.13899	-1.9688	-2.9833	-1.9542	-2.85	-2.7958	-2.0938	-3.15	-2.45	-2.4125	-2.8937	-2.3	-2.9021	-2.8292	-2.3688	-2.8979	-2.5438	448.161	480.531	479.462	389.265	427.883	351.332	414.217	393.237	462.654	475.023	454.075	447.240	446.303	143.421	351.222	301.098	0.00067633	0.0006531	0.00015477	1338.8	3.9471e-06	4.8027e-06	1337.9	359.96	6.0902e-06	6.1467e-06	409.76	137.42	119.32	40.501	3.8304e-06	50.284	0.00063397	0.00058767	0.00017333	1359.8	6.6596e-06	6.8027e-06	1357.2	365.86	6.6462e-06	6.4361e-06	419.46	140.43	121.82	41.649	6.3603e-06	51.817	167.948	219.783	220.923	154.731	269.262	295.565	154.621	159.256	274.261	316.243	159.354	163.000	163.494	168.538	267.527	167.571	-8191	255	
29104.004	1	1	0	0	0.051092	0.076779	0.099359	0.078742	0.067038	0.096015	0.20813	0.14396	0.19873	0.089509	0.15242	0.23959	0.1928	0.21747	0.085908	0.081329	-1.9813	-2.9021	-2.0583	-2.7	-2.75	-2.0958	-3.0917	-2.5729	-2.1688	-2.9167	-2.475	-2.7083	-2.9854	-2.3833	-2.975	-2.7271	237.728	386.995	283.149	414.268	332.387	402.845	155.520	388.405	374.599	357.426	483.806	166.733	171.106	471.840	443.921	227.802	0.00071527	0.00053694	0.00016591	1334.6	4.9676e-06	5.3881e-06	1335.2	358.58	4.8787e-06	2.816e-06	410.42	137.4	118.93	40.786	5.6237e-06	50.249	0.00064987	0.0006035	0.00017384	1360.4	6.4613e-06	6.7232e-06	1357	365.86	6.7463e-06	6.5616e-06	419.63	140.36	121.7	41.79	6.6299e-06	51.84	169.511	234.749	230.705	155.011	277.784	274.918	154.445	159.508	282.847	297.907	158.945	163.126	163.438	168.630	292.364	167.522	-8191	255	
29104.100	1	1	0	0	0.059657	0.11482	0.18486	0.034076	0.17225	0.21752	0.36476	0.10644	0.07521	0.13746	0.1439	0.14961	0.31041	0.17411	0.1635	0.34166	-1.8604	-2.7562	-2.3708	-2.5333	-2.8479	-2.1125	-2.8792	-2.8042	-1.9312	-3.0729	-2.6729	-2.5583	-3.0312	-2.3896	-2.8375	-3.0438	326.284	451.465	283.797	371.027	161.367	159.571	417.357	491.483	500.642	351.651	147.850	430.804	479.733	462.662	159.461	141.658	0.00069029	0.00039131	0.00010758	1338.2	3.1708e-06	5.2861e-06	1339	359.58	7.0427e-06	4.3112e-06	411.16	137.83	119.21	40.624	4.286e-06	50.472	0.00064493	0.00060218	0.00017396	1360.7	6.4112e-06	6.7824e-06	1359.4	365.74	6.6388e-06	6.5071e-06	420.18	140.72	121.64	41.747	6.8115e-06	51.903	169.936	222.437	261.469	155.009	276.417	285.483	154.485	159.592	275.574	307.321	159.044	163.038	163.250	168.712	262.368	167.822	-8191	255	
29104.195	1	1	0	0	0.053811	0.019443	0.06867	0.11551	0.23399	0.23446	0.32837	0.33705	0.24653	0.21243	0.29974	0.11201	0.13656	0.059016	0.07154	0.035403	-1.7708	-2.8417	-2.3542	-2.4833	-2.9979	-2.1833	-3.1042	-2.6813	-2.1104	-2.9792	-2.4813	-2.3792	-3.1688	-2.2917	-2.525	-3.0042	463.958	178.029	409.550	395.144	152.059	395.251	374.813	467.210	141.843	493.490	456.446	458.606	413.104	320.877	147.888	171.226	0.00069539	0.00058195	0.00011093	1342.4	6.1367e-06	7.8802e-06	1337.4	358.78	4.5526e-06	6.388e-06	409.75	137.52	119.29	40.42	4.7247e-06	50.288	0.00063391	0.00059703	0.00016899	1361.6	6.6771e-06	6.8798e-06	1358.3	365.73	6.7023e-06	6.4792e-06	418.76	140.58	121.75	41.613	6.6051e-06	51.828	168.614	226.528	232.921	155.076	278.575	283.128	154.691	159.527	277.355	305.424	159.260	163.315	163.335	168.843	268.072	167.860	-8191	255	
29104.316	1	1	0	0	0.11547	0.0155	0.072018	0.17251	0.077064	0.21807	0.23379	0.14838	0.22339	0.28388	0.43283	0.19411	0.22747	0.086026	0.064875	0.15441	-1.7812	-3.0167	-2.3958	-2.2771	-2.9708	-2.2479	-2.6146	-2.9792	-2.0042	-2.9479	-2.7313	-2.3312	-2.9417	-2.3375	-2.3729	-2.8979	322.040	386.513	251.911	223.760	148.295	389.750	474.344	443.156	346.297	391.053	407.149	481.184	389.771	167.592	188.912	340.458	0.00069145	0.00053874	9.2462e-05	1340.8	4.1836e-06	4.0064e-06	1338	358.1	5.4916e-06	7.9707e-06	411.82	138.33	119.83	40.726	5.4762e-06	50.257	0.00062444	0.00058042	0.00016959	1358.8	6.7699e-06	6.6595e-06	1354.9	365.55	6.5945e-06	6.5363e-06	419.77	140.53	121.86	41.734	6.5112e-06	51.869	167.478	231.199	241.154	155.044	266.699	283.133	154.967	159.601	281.850	280.258	158.930	162.783	163.407	168.569	281.778	167.383	-8191	255	
29104.389	1	1	0	0	0.02632	0.1602	0.094535	0.10171	0.099114	0.29343	0.46177	0.10514	0.090197	0.066606	0.37099	0.22768	0.14227	0.092592	0.099354	0.085548	-1.6708	-2.8604	-2.6646	-2.2521	-2.8271	-2.3521	-2.5812	-3.2125	-2.1042	-2.75	-2.925	-2.2583	-3.0625	-2.3917	-2.3688	-3.0646	236.983	146.289	382.727	452.988	171.691	281.479	419.215	290.698	148.810	333.550	494.547	461.295	442.228	215.605	199.305	417.184	0.00069132	0.00062482	0.0001138	1337.9	5.2736e-06	4.4749e-06	1333.2	359.05	4.917e-06	5.1841e-06	410.26	137.67	118.84	40.368	6.549e-06	50.185	0.00061991	0.00058508	0.00016497	1357.8	6.4182e-06	6.6545e-06	1354.8	365.84	6.6016e-06	6.3574e-06	419.27	140.44	121.73	41.596	6.2467e-06	51.798	167.115	238.456	212.056	155.035	274.176	269.027	154.699	159.729	265.877	293.574	159.046	162.874	163.290	168.803	288.370	167.514	-8191	255	
29104.484	1	1	0	0	0.066992	0.026598	0.094312	0.14892	0.13615	0.1163	0.24329	0.11237	0.03559	0.42711	0.37107	0.20867	0.1944	0.12686	0.15494	0.17947	-1.7812	-2.5187	-2.8167	-2.3167	-2.9875	-2.5333	-2.4667	-3.2146	-2.1188	-2.6896	-2.9479	-2.2188	-3.0167	-2.5479	-2.2771	-3.1688	428.955	276.910	332.737	185.808	365.206	293.020	432.053	442.036	379.429	145.008	451.449	260.907	439.071	277.347	288.577	447.621	0.00070224	0.00055652	8.7329e-05	1337.9	5.6719e-06	2.8284e-06	1333.7	359.3	4.993e-06	4.1521e-06	411.37	137.29	118.76	40.401	4.98e-06	50.141	0.00060263	0.0005921	0.00015698	1356.7	6.2285e-06	6.443e-06	1353.4	365.5	6.5064e-06	6.2604e-06	418.7	140.11	121.64	41.605	6.1647e-06	51.728	169.306	215.192	234.086	155.048	260.987	301.241	154.624	159.548	283.558	295.470	158.945	163.190	163.556	168.564	308.860	167.701	-8191	255	
29104.580	1	1	0	0	0.12477	0.15314	0.090836	0.082057	0.094357	0.16638	0.38767	0.21987	0.32903	0.17848	0.081609	0.19287	0.2346	0.23158	0.12441	0.24294	-1.9167	-2.5292	-2.7792	-1.9729	-2.6375	-2.7542	-2.3792	-3.0396	-2.1771	-2.325	-2.8979	-2.2604	-2.7062	-2.6208	-2.0125	-3.0187	468.515	314.304	280.082	488.849	265.217	318.301	420.675	428.627	179.315	373.900	142.322	311.559	400.662	406.464	178.020	414.054	0.00066604	0.00070354	0.00017136	1335.3	5.2411e-06	6.846e-06	1329.4	356.71	5.9409e-06	4.9943e-06	410.41	136.77	118.55	40.406	6.4402e-06	50.072	0.00060512	0.00056209	0.00015238	1354.9	6.0952e-06	6.2456e-06	1350.2	364.22	6.1479e-06	6.0765e-06	417.56	139.79	120.97	41.518	6.0038e-06	51.589	171.044	222.898	233.621	155.261	277.023	287.224	154.735	159.521	272.594	290.673	158.843	162.970	163.646	168.356	262.617	167.670	-8191	255	
29104.699	1	1	0	0	0.17251	0.25992	0.021443	0.13486	0.094007	0.13688	0.4718	0.38466	0.10728	0.10707	0.082573	0.15649	0.11093	0.17482	0.094525	0.33033	-1.9083	-2.2396	-2.875	-2.2729	-2.8542	-2.8979	-2.3604	-2.9583	-2.2292	-2.275	-3.0417	-2.2771	-2.6604	-2.8688	-2.1542	-2.7958	233.583	473.820	224.294	468.783	392.427	412.215	459.310	453.998	281.748	368.006	421.220	170.061	473.645	495.241	420.856	377.786	0.0007018	0.00058581	0.00012849	1331.4	6.0584e-06	5.163e-06	1328.6	357.18	5.0753e-06	5.7283e-06	409.38	136.78	118.84	40.322	5.5182e-06	50.008	0.0005993	0.00056043	0.00015202	1350	6.0404e-06	5.9799e-06	1347.2	364.1	6.0299e-06	6.0356e-06	417.55	139.62	121.11	41.487	6.1939e-06	51.667	169.207	217.348	239.899	155.195	271.390	306.722	154.766	159.467	257.294	309.163	158.915	162.840	163.434	168.886	276.728	167.669	-8191	255	
29104.795	1	1	0	0	0.21895	0.052662	0.16042	0.12208	0.095402	0.041552	0.29861	0.19889	0.24616	0.18008	0.17118	0.38415	0.25083	0.13731	0.22099	0.14219	-2.1021	-2.1479	-2.8771	-2.1875	-2.5729	-2.4625	-2.3417	-2.9229	-2.4479	-2.2542	-3.0187	-2.3	-2.6312	-2.8812	-2.025	-2.7917	494.987	500.830	443.185	444.044	150.520	181.707	452.050	472.073	326.038	374.161	489.343	468.999	431.256	474.132	451.125	438.110	0.00065932	0.00050553	0.00016813	1333.4	4.6839e-06	4.4599e-06	1326.5	356.68	6.2592e-06	6.6771e-06	411.43	137.09	118.59	40.321	5.3799e-06	50.081	0.00058779	0.00056757	0.00015192	1350.6	5.9942e-06	6.0813e-06	1349.1	364.41	6.1568e-06	6.1412e-06	417.76	139.85	120.93	41.48	5.9891e-06	51.602	170.298	234.963	239.925	154.958	272.159	289.504	154.376	159.530	283.419	284.858	159.206	162.890	163.609	168.629	272.376	167.500	-8191	255	
29104.891	1	1	0	0	0.19078	0.13814	0.12196	0.037084	0.1331	0.15405	0.34103	0.034735	0.077443	0.091965	0.10044	0.21278	0.1498	0.10731	0.27131	0.093081	-2.1937	-2.0042	-2.9562	-2.4313	-2.3667	-2.925	-2.1063	-3.0375	-2.5792	-2.2042	-3.0292	-2.625	-2.3708	-3.0896	-2.1167	-2.8167	444.942	498.658	426.054	442.273	322.212	282.382	437.324	390.969	290.853	341.573	279.888	479.893	452.111	488.332	197.156	239.677	0.00063576	0.00066343	9.9955e-05	1325.6	4.8511e-06	7.0181e-06	1324.3	356.98	4.6378e-06	2.5079e-06	411.09	137.04	118.95	40.412	6.4051e-06	50.191	0.00057443	0.00053705	0.00014693	1348.4	5.9377e-06	5.8058e-06	1344.7	363.32	5.6951e-06	5.7677e-06	417.69	139.74	121.05	41.455	5.9628e-06	51.654	169.389	242.595	237.787	154.941	263.422	293.934	154.465	159.706	283.621	271.171	158.986	163.022	163.406	168.650	276.476	167.979	-8191	255	
29104.963	1	1	0	0	0.11019	0.11675	0.13256	0.22485	0.023347	0.21272	0.2501	0.26419	0.23639	0.26	0.06734	0.13558	0.082797	0.18104	0.14834	0.10431	-2.1833	-2.0812	-2.85	-2.4333	-2.1937	-3.0021	-2.3104	-2.8125	-2.7188	-2.1979	-3.1646	-2.5021	-2.4083	-2.9229	-2.0312	-2.6729	364.235	211.789	405.105	145.634	478.060	434.923	480.382	172.127	361.631	351.518	452.094	210.131	391.118	387.620	168.061	403.740	0.00069395	0.00069067	0.00016968	1329.9	4.8962e-06	6.3399e-06	1326	357.72	4.7357e-06	4.3879e-06	411.24	137.67	119.75	40.554	5.5141e-06	50.211	0.00057357	0.00055926	0.0001521	1349.3	6.1989e-06	6.1456e-06	1349.8	364.86	5.9104e-06	6.0648e-06	418.76	140.4	121.51	41.651	6.2559e-06	51.773	171.284	216.508	256.596	155.197	263.638	283.378	154.883	159.757	266.771	286.943	159.512	163.334	163.956	168.720	269.216	168.441	-8191	255	
29105.082	1	1	0	0	0.097633	0.21717	0.10973	0.11122	0.11046	0.18005	0.27813	0.21701	0.10525	0.090502	0.1325	0.31348	0.16623	0.2681	0.052772	0.20316	-2.5604	-2.1958	-2.7667	-2.6458	-2.1396	-3.0187	-2.4271	-2.4604	-2.9521	-2.0604	-3	-2.6458	-2.1625	-3.0417	-2.5146	-2.7083	475.802	482.629	230.852	501.135	391.545	367.422	433.811	393.959	458.487	396.380	485.658	483.850	353.569	492.115	478.993	165.859	0.00069132	0.00055975	0.00012809	1338.6	5.2652e-06	6.6859e-06	1329.6	358.38	4.8083e-06	5.1666e-06	410.78	136.93	119.78	40.486	5.6906e-06	50.088	0.00058681	0.00056031	0.00015578	1355.1	6.0056e-06	6.1884e-06	1350.6	365.14	5.9267e-06	6.0871e-06	417.75	139.94	121.44	41.565	6.026e-06	51.61	169.479	228.876	240.883	155.558	285.525	283.822	154.878	159.727	267.756	274.658	159.268	163.161	164.092	168.677	269.328	167.713	-8191	255	
29105.180	1	1	0	0	0.30021	0.28287	0.19527	0.24077	0.15094	0.22297	0.13107	0.024091	0.017606	0.19472	0.17298	0.10173	0.13109	0.070552	0.091217	0.28679	-2.4333	-2.0667	-2.7542	-2.8563	-2.2479	-3.0042	-2.6625	-2.5938	-2.9062	-2.225	-2.9292	-2.8979	-2.0875	-3.0062	-2.5042	-2.4292	452.126	322.141	251.463	457.112	194.045	202.491	147.531	446.195	308.054	364.142	160.344	501.292	234.405	495.484	142.329	408.225	0.00070026	0.00045931	0.00019964	1331.2	3.7127e-06	7.088e-06	1328.4	357.27	5.132e-06	5.3028e-06	410.23	136.91	119.29	40.544	6.4366e-06	50.072	0.00057282	0.00054015	0.00015279	1349.7	6.0241e-06	5.9614e-06	1347.7	364.05	5.9409e-06	6.0622e-06	417.46	139.82	121.25	41.514	5.9196e-06	51.549	169.820	239.448	217.929	155.258	311.448	277.749	155.200	159.836	277.974	257.463	158.853	162.749	163.464	168.563	282.179	167.939	-8191	255	
29105.275	1	1	0	0	0.036248	0.12029	0.069893	0.54599	0.071136	0.15212	0.25499	0.24405	0.14981	0.08408	0.097438	0.31415	0.12826	0.19532	0.13	0.091156	-2.4729	-2.0354	-2.4625	-3.0292	-2.0729	-2.7271	-2.7021	-2.2125	-3.0375	-2.4104	-2.6813	-2.9125	-2.2	-2.8542	-2.5708	-2.2104	331.207	496.378	217.157	476.512	487.230	454.017	396.269	486.410	498.912	246.585	499.391	163.716	409.630	408.608	473.566	319.617	0.00067532	0.00048769	0.00015996	1334.1	5.2492e-06	6.4607e-06	1324.9	357.19	5.04e-06	4.365e-06	408.67	136.61	118.74	40.4	4.9491e-06	49.819	0.00057594	0.00055252	0.00014782	1350	5.9224e-06	5.851e-06	1347.4	363.58	5.8278e-06	5.8191e-06	417.01	139.79	121.23	41.376	5.8933e-06	51.543	168.120	220.984	235.213	155.320	280.551	281.406	155.043	160.040	269.689	324.494	159.850	162.962	163.308	168.659	302.204	168.088	-8191	255	
29105.396	1	1	0	0	0.084998	0.28862	0.1349	0.37084	0.25043	0.13604	0.32118	0.34074	0.26022	0.19584	0.4521	0.35207	0.2332	0.15396	0.069346	0.25947	-2.5604	-2.0479	-2.375	-2.9229	-2.0354	-2.6229	-2.7042	-2.4458	-3.0479	-2.3833	-2.5833	-3.0479	-2.2	-2.7771	-2.8417	-2.2625	240.808	498.045	439.167	477.337	387.343	180.924	440.923	393.330	227.703	155.102	486.788	429.078	437.247	372.417	343.064	499.074	0.00066276	0.00061062	0.00019274	1330.1	3.192e-06	5.4502e-06	1324.8	357.1	4.2484e-06	7.8744e-06	408.2	136.4	117.91	40.362	7.3e-06	49.971	0.00057161	0.00055688	0.00015239	1350.2	6.1182e-06	6.0052e-06	1346.2	363.01	5.976e-06	5.9506e-06	416.87	139.63	120.68	41.462	5.8329e-06	51.563	171.048	215.519	237.690	155.305	246.511	297.803	154.538	159.742	291.384	298.123	159.672	163.360	164.109	169.389	286.832	167.662	-8191	255	
29105.490	1	1	0	0	0.31826	0.11421	0.14043	0.23292	0.12676	0.26865	0.22547	0.1041	0.0424	0.18361	0.18333	0.19515	0.1689	0.17785	0.17631	0.05233	-2.6063	-2.3917	-2.4458	-3.0521	-2.2729	-2.7458	-2.9854	-2.4146	-2.8896	-2.4437	-2.3854	-3.2687	-2.3125	-2.7583	-2.7833	-2.3104	353.811	444.021	272.327	445.631	408.145	480.376	451.519	436.756	497.305	316.754	411.160	420.768	150.607	378.455	165.558	413.895	0.00066507	0.0005548	0.00017809	1327.3	3.6936e-06	6.458e-06	1325.7	357.12	6.036e-06	3.8325e-06	409.14	137.04	118.72	40.264	4.0698e-06	50.151	0.00058214	0.00054451	0.00015031	1347.5	6.0681e-06	5.7759e-06	1344.6	363.13	5.9939e-06	5.8265e-06	416.5	139.51	120.94	41.364	5.658e-06	51.515	168.436	235.155	236.825	155.290	273.490	294.469	155.266	160.043	278.137	249.859	159.493	163.104	163.573	168.992	287.685	167.787	-8191	255	
29105.588	1	1	0	0	0.080722	0.095655	0.066352	0.049289	0.12272	0.16056	0.42802	0.24323	0.24658	0.15652	0.076005	0.35615	0.2199	0.14809	0.25815	0.076035	-2.5625	-2.4479	-2.2917	-3.0021	-2.3	-2.6	-3.0417	-2.4271	-2.8688	-2.6521	-2.1604	-3.2104	-2.3083	-2.4854	-2.7708	-2.2396	195.142	411.358	288.294	417.757	500.557	206.575	475.725	471.192	483.854	156.006	152.052	440.571	486.305	477.123	452.734	256.060	0.0006772	0.0005648	0.00011245	1327.3	4.9149e-06	3.0349e-06	1314.8	355.04	3.7054e-06	5.9524e-06	408.66	136.03	117.97	40.169	4.8299e-06	49.568	0.00057922	0.00052411	0.00014942	1346.9	5.9875e-06	5.695e-06	1340.5	362.35	5.7912e-06	5.8172e-06	415.79	139.41	120.42	41.333	5.7224e-06	51.317	170.400	243.501	233.730	154.529	270.017	294.223	154.269	159.090	265.403	316.979	158.884	162.552	163.237	168.613	279.661	167.283	-8191	255	
29105.686	1	1	0	0	0.097201	0.33661	0.14143	0.21366	0.42118	0.044052	0.20653	0.11682	0.072742	0.27545	0.2352	0.080989	0.42956	0.25784	0.13807	0.29061	-2.3167	-2.6125	-2.2562	-2.9292	-2.3625	-2.4208	-3.0896	-2.2396	-2.6708	-2.7354	-2.2896	-3.075	-2.3812	-2.2354	-3.1542	-2.2604	257.352	426.026	494.520	466.205	227.493	283.677	438.574	182.561	149.824	289.103	470.972	373.932	480.924	427.598	347.536	201.161	0.00068312	0.00059366	0.00019232	1334.4	4.4298e-06	4.8799e-06	1321.3	356.09	5.4626e-06	4.8041e-06	408.87	136.34	118.45	40.349	4.203e-06	50.155	0.00057186	0.00053199	0.00015461	1346.7	5.7585e-06	5.8146e-06	1342.4	362.7	5.8864e-06	5.6435e-06	415.85	139.15	120.93	41.409	5.678e-06	51.485	170.041	233.639	239.060	154.755	279.410	291.222	154.460	159.030	264.734	265.660	158.827	162.855	163.409	168.378	270.564	167.326	-8191	255	
29105.779	1	1	0	0	0.17829	0.2801	0.14832	0.14912	0.06315	0.23868	0.2895	0.26659	0.24909	0.29433	0.19916	0.19476	0.38606	0.075335	0.24831	0.042019	-2.2792	-2.5542	-2.0667	-3.025	-2.5125	-2.3438	-3.0271	-2.1354	-2.5229	-2.8542	-2.3542	-2.8958	-2.5854	-2.3563	-2.9583	-2.3792	264.919	388.918	470.668	439.276	150.540	292.920	406.907	474.066	487.758	289.623	461.285	482.115	161.466	151.369	192.622	237.310	0.00066281	0.00053758	0.00011375	1323.1	6.2184e-06	5.2837e-06	1321	356.17	5.7229e-06	6.0771e-06	408.29	137.05	117.87	40.168	6.1248e-06	50.012	0.00057014	0.00053274	0.0001505	1343	5.9645e-06	5.9166e-06	1341.5	362.68	5.7681e-06	5.6827e-06	415.47	139.4	120.54	41.393	6.0834e-06	51.447	169.989	243.449	209.554	154.928	284.656	306.284	154.665	159.530	270.231	289.719	158.958	162.911	163.636	168.616	273.809	167.512	-8191	255	
29105.875	1	1	0	0	0.1373	0.043081	0.16463	0.053195	0.070239	0.27035	0.098086	0.13753	0.025029	0.117	0.43316	0.19257	0.13331	0.065145	0.078873	0.38889	-2.0354	-2.7875	-1.9813	-2.8729	-2.5146	-2.1188	-3.0917	-2.4125	-2.3125	-2.8354	-2.0917	-2.8708	-2.7188	-2.3917	-2.8542	-2.4437	178.912	281.462	169.049	142.490	189.919	346.326	476.554	425.670	352.854	279.872	450.215	474.250	419.701	361.855	417.623	449.069	0.00067175	0.00048076	0.00014385	1332.8	5.2527e-06	6.3708e-06	1323.1	355.68	4.9844e-06	6.2424e-06	407.81	136.35	118.35	40.368	4.9517e-06	49.913	0.0005873	0.0005322	0.0001553	1347.6	5.9014e-06	6.0106e-06	1340.8	362.25	5.9427e-06	5.5296e-06	415.62	139.25	120.65	41.386	5.8193e-06	51.426	170.612	239.044	219.805	154.569	278.932	249.537	154.106	159.205	269.430	285.213	158.828	162.983	163.074	168.507	283.365	167.350	-8191	255	
29105.971	1	1	0	0	0.30293	0.30948	0.19333	0.064031	0.16758	0.15489	0.29998	0.094407	0.158	0.096695	0.34758	0.080064	0.024277	0.13152	0.25748	0.076109	-1.8104	-2.8854	-2.1417	-2.7271	-2.825	-2.1063	-3.1125	-2.7438	-2.4792	-3.0396	-2.1583	-2.6896	-3.0187	-2.2896	-2.6979	-2.5062	343.991	393.878	425.853	147.801	330.314	168.149	393.136	435.651	347.503	401.296	474.800	487.663	302.025	223.075	435.075	385.673	0.00065274	0.00048804	0.00019357	1323.7	4.059e-06	5.7644e-06	1325.8	356.09	4.7666e-06	3.9536e-06	408.96	136.66	117.73	40.283	3.7474e-06	49.943	0.0005752	0.00054743	0.00015383	1345	5.7235e-06	5.9314e-06	1343.6	361.97	6.0133e-06	5.7322e-06	416.36	139.46	120.63	41.336	5.9555e-06	51.546	169.773	233.722	245.629	155.112	284.665	259.007	154.651	159.629	267.108	313.138	159.134	163.002	163.384	168.303	284.331	167.432	-8191	255	
29106.092	1	1	0	0	0.18404	0.21971	0.11932	0.17483	0.17236	0.10854	0.14484	0.2457	0.19224	0.11632	0.16739	0.34434	0.15523	0.19019	0.054064	0.31668	-1.7	-2.9271	-2.1	-2.5833	-2.7646	-2.0083	-3.0708	-2.6854	-2.1917	-3.0917	-2.5021	-2.6083	-2.9417	-2.3125	-2.925	-2.6771	167.320	230.926	234.869	422.950	383.154	196.063	494.574	144.895	316.095	303.894	433.145	481.224	229.968	447.654	339.930	407.830	0.00066688	0.00042185	0.00014332	1333.6	4.2247e-06	2.7556e-06	1328.5	356.59	6.0635e-06	6.8639e-06	409.52	136.7	119.1	40.083	4.4072e-06	49.911	0.00057639	0.00055168	0.00015599	1349.4	5.7375e-06	6.0298e-06	1345.2	362.62	5.9258e-06	5.6472e-06	415.91	139.4	120.96	41.355	5.6977e-06	51.531	170.153	222.235	236.693	155.017	249.129	320.926	154.531	159.409	260.557	270.017	158.815	162.912	163.184	168.326	271.511	167.151	-8191	255	
29106.188	1	1	0	0	0.18829	0.1785	0.24061	0.16259	0.13277	0.17907	0.10463	0.2737	0.099845	0.068232	0.16504	0.26383	0.21857	0.46079	0.046735	0.30367	-1.8375	-2.7833	-2.3187	-2.5687	-2.925	-2.0146	-3.0792	-2.7521	-2.2375	-3.1375	-2.6625	-2.3146	-3.0979	-2.4771	-2.6521	-2.8104	291.337	253.233	252.685	304.820	167.312	202.801	442.327	459.303	239.635	225.488	448.228	497.524	498.773	446.074	217.888	435.774	0.00068457	0.00034433	0.00012794	1326.9	4.4543e-06	6.0119e-06	1319.4	355.39	5.0787e-06	5.6615e-06	406.73	136.58	119	40.281	6.233e-06	49.62	0.00058414	0.00052742	0.00014765	1347.1	5.8124e-06	5.9318e-06	1342.2	362.47	6.0893e-06	5.6654e-06	415.46	139.14	121	41.435	5.9196e-06	51.404	169.020	234.964	227.645	155.058	280.179	302.065	154.717	159.563	268.688	291.331	159.285	163.063	163.264	168.684	291.441	167.661	-8191	255	
29106.260	1	1	0	0	0.15994	0.23342	0.19439	0.30768	0.18737	0.30526	0.24887	0.13718	0.14023	0.11155	0.19233	0.52368	0.099692	0.19074	0.28574	0.37143	-1.7062	-2.9042	-2.3854	-2.3729	-2.9583	-2.2729	-2.7375	-2.8771	-2.1708	-2.9938	-2.6771	-2.5687	-3.1188	-2.45	-2.6	-2.8688	413.587	236.981	481.102	413.515	400.603	440.922	378.556	484.883	268.159	462.561	452.657	149.271	182.843	416.192	465.579	428.205	0.00070499	0.00050765	0.00013339	1324.4	5.2058e-06	5.1134e-06	1321.6	355.09	5.8033e-06	6.1009e-06	407.5	136.29	118.13	40.241	4.1389e-06	49.735	0.00058702	0.0005192	0.00014429	1346.7	5.8583e-06	6.1008e-06	1343	362.88	5.964e-06	5.61e-06	415.38	139.37	120.53	41.34	5.6872e-06	51.444	166.054	223.557	240.349	154.855	277.045	299.305	154.373	159.318	272.507	304.157	158.783	163.133	163.318	168.597	265.045	167.671	-8191	255	
29106.355	1	1	0	0	0.38101	0.16771	0.16751	0.14111	0.11712	0.16311	0.25835	0.26913	0.12458	0.27346	0.40855	0.22035	0.062515	0.29439	0.21014	0.16908	-1.7667	-2.8396	-2.6854	-2.2896	-2.9083	-2.3812	-2.7604	-3.0812	-2.0875	-2.9125	-2.7667	-2.3833	-2.9375	-2.3208	-2.4917	-2.975	196.431	171.016	347.405	389.881	284.738	348.918	400.523	364.044	232.186	353.347	440.098	457.589	291.726	448.989	219.509	170.475	0.00066537	0.00039422	0.00015532	1325.7	2.6384e-06	5.5188e-06	1319.2	355.01	4.9845e-06	5.7754e-06	409.76	136.74	118.34	40.173	4.3414e-06	50.03	0.00057594	0.00053777	0.00014744	1344.2	5.7477e-06	6.0456e-06	1344.1	361.98	5.8303e-06	5.7773e-06	416.19	139.65	120.64	41.369	5.657e-06	51.498	168.905	229.663	224.868	155.033	280.621	299.983	154.504	159.559	273.351	279.504	159.044	162.905	163.379	168.337	277.835	167.419	-8191	255	
29106.477	1	1	0	0	0.37886	0.16934	0.15773	0.35434	0.14798	0.18922	0.33147	0.33684	0.24738	0.039696	0.17525	0.19687	0.10555	0.32589	0.21012	0.17017	-1.775	-2.8521	-2.7438	-2.1875	-2.9562	-2.3396	-2.6562	-3.2208	-2.3187	-2.5521	-2.8	-2.1875	-3.1063	-2.3958	-2.2667	-2.9958	316.434	298.270	337.893	472.040	238.410	212.609	427.393	453.069	306.647	387.632	420.222	169.408	338.280	434.144	188.138	224.584	0.00062257	0.00046769	0.00014141	1329.9	3.7161e-06	5.3733e-06	1323.2	356.21	5.5128e-06	6.3527e-06	410.07	136.96	118.57	40.339	5.8274e-06	49.866	0.00058681	0.00055231	0.0001517	1349.3	5.8896e-06	5.9877e-06	1345.8	363.32	6.126e-06	6.0167e-06	416.51	139.78	121.24	41.443	6.0996e-06	51.493	172.519	218.820	227.975	154.683	285.787	249.143	154.733	159.359	277.437	264.956	158.677	162.899	163.463	168.423	275.073	167.619	-8191	255	
29106.570	1	1	0	0	0.32397	0.28355	0.156	0.29838	0.1238	0.21154	0.34688	0.27847	0.023882	0.22202	0.28459	0.27484	0.1342	0.22606	0.1451	0.2511	-1.9062	-2.4729	-2.725	-2.2854	-3.0187	-2.6646	-2.525	-3.3104	-2.3875	-2.6583	-2.9958	-2.1792	-2.8146	-2.6375	-2.2938	-3.0333	261.433	232.081	155.780	494.332	301.153	375.196	417.485	426.709	150.855	484.066	145.683	327.943	299.259	335.196	410.694	458.097	0.00069221	0.00055588	0.00015191	1329.9	5.64e-06	4.2238e-06	1329.3	356.02	4.3723e-06	4.3027e-06	409.38	136.55	118.56	40.341	4.7454e-06	50.105	0.00059422	0.00054611	0.00014817	1346.7	5.9017e-06	5.9766e-06	1345.9	362.79	5.8861e-06	5.9051e-06	416.69	139.59	120.71	41.392	6.045e-06	51.538	170.332	236.639	234.634	155.016	273.792	275.243	154.573	159.570	281.980	297.069	159.048	162.777	163.469	168.389	315.552	167.551	-8191	255	
29106.668	1	1	0	0	0.095014	0.23255	0.05261	0.29582	0.23661	0.050295	0.31102	0.27222	0.29273	0.16172	0.26283	0.22465	0.021665	0.21373	0.06812	0.26673	-1.8167	-2.4354	-3.0021	-2.25	-2.7354	-2.7313	-2.2896	-3.2	-2.4062	-2.5125	-3.1437	-2.3417	-2.7729	-2.7771	-1.9583	-3.0771	321.707	179.867	376.885	450.932	258.254	342.681	447.064	401.474	386.127	145.852	441.044	349.545	440.257	429.465	396.657	152.027	0.00066736	0.00045368	0.00016486	1324	4.7634e-06	3.0763e-06	1326.9	356.1	4.8496e-06	4.5068e-06	409.21	136.82	118.25	40.242	4.8084e-06	50.035	0.00058014	0.00053413	0.00015002	1345.8	5.7557e-06	5.8533e-06	1345.2	362.5	5.907e-06	5.78e-06	416.95	139.5	120.71	41.366	5.8974e-06	51.412	168.724	217.603	247.811	154.680	269.923	275.560	154.712	159.583	259.125	296.047	159.199	162.883	163.257	168.371	259.407	167.743	-8191	255	
29106.766	1	1	0	0	0.24336	0.11976	0.17214	0.033871	0.2567	0.15592	0.25105	0.23266	0.08468	0.15774	0.32381	0.18033	0.16511	0.16792	0.23501	0.16148	-1.9604	-2.3312	-3.0896	-2.3417	-2.7708	-2.8521	-2.4646	-3.0146	-2.5104	-2.3042	-3.1917	-2.3708	-2.6396	-3.0979	-2.3542	-3.0979	284.548	248.094	294.461	381.178	401.549	217.083	407.072	457.132	403.529	193.725	412.290	445.496	500.457	154.227	273.488	470.151	0.00066413	0.00051229	0.00017535	1323.4	4.3784e-06	5.3643e-06	1321.8	356.2	6.9391e-06	6.717e-06	408.18	136.59	118.87	40.183	4.4688e-06	50.033	0.00057145	0.00053717	0.0001461	1345.5	5.9559e-06	5.9793e-06	1341.4	363.12	5.8931e-06	5.8042e-06	415.8	139.32	121.12	41.302	5.9237e-06	51.444	168.485	238.744	232.280	154.518	288.323	275.397	154.641	159.532	283.373	296.042	159.108	162.649	163.557	168.161	275.160	167.537	-8191	255	
#DATA ENDS
