BOXY.EXE: ISS Imagent and Oximeter Data Acquisition Program Version 0.80
Ascii Record File

#ACQ INFORMATION
2  Detector Channels 
16  External MUX Channels 
1  Auxiliary Channels 
5000  Waveform (CCF) Frequency (Hz)
1  Waveforms Skipped 
30  Waveforms Averaged 
1  Cycles Averaged 
16  Acquisitions per Waveform 
10.0806  Updata Rate (Hz) 

#FILE INFORMATION
TRUE -- External MUX Channel results are PARSED.
FALSE -- AC DC and Phase are NOT grouped.
TRUE -- Companion Program Settings File CREATED.
FALSE -- AC data not excluded
FALSE -- DC data not excluded
FALSE -- Phase data not excluded
FALSE -- Auxillary Chn. data not excluded
Tab delimiters

#CALIBRATION STATE
TRUE -- Waveform Calibration Values APPLIED.


#AUX CALIBRATION VALUES
Val Type	aux-1	

Term	1.0000e+00	
Factor	0.0000e+00	


#WF CALIBRATION VALUES
A = Detector Channel
Val Type	A-AC1	A-AC2	A-AC3	A-AC4	A-AC5	A-AC6	A-AC7	A-AC8	A-AC9	A-AC10	A-AC11	A-AC12	A-AC13	A-AC14	A-AC15	A-AC16	A-DC1	A-DC2	A-DC3	A-DC4	A-DC5	A-DC6	A-DC7	A-DC8	A-DC9	A-DC10	A-DC11	A-DC12	A-DC13	A-DC14	A-DC15	A-DC16	A-Ph1	A-Ph2	A-Ph3	A-Ph4	A-Ph5	A-Ph6	A-Ph7	A-Ph8	A-Ph9	A-Ph10	A-Ph11	A-Ph12	A-Ph13	A-Ph14	A-Ph15	A-Ph16	

Term	0.00000e+00	0.00000e+00	0.00000e+00	0.00000e+00	0.00000e+00	0.00000e+00	0.00000e+00	0.00000e+00	0.00000e+00	0.00000e+00	0.00000e+00	0.00000e+00	0.00000e+00	0.00000e+00	0.00000e+00	0.00000e+00	0.00000e+00	0.00000e+00	0.00000e+00	0.00000e+00	0.00000e+00	0.00000e+00	0.00000e+00	0.00000e+00	0.00000e+00	0.00000e+00	0.00000e+00	0.00000e+00	0.00000e+00	0.00000e+00	0.00000e+00	0.00000e+00	0.00000e+00	0.00000e+00	0.00000e+00	0.00000e+00	0.00000e+00	0.00000e+00	0.00000e+00	0.00000e+00	0.00000e+00	0.00000e+00	0.00000e+00	0.00000e+00	0.00000e+00	0.00000e+00	0.00000e+00	0.00000e+00	
Factor	1.00000e+00	1.00000e+00	1.00000e+00	1.00000e+00	1.00000e+00	1.00000e+00	1.00000e+00	1.00000e+00	1.00000e+00	1.00000e+00	1.00000e+00	1.00000e+00	1.00000e+00	1.00000e+00	1.00000e+00	1.00000e+00	1.00000e+00	1.00000e+00	1.00000e+00	1.00000e+00	1.00000e+00	1.00000e+00	1.00000e+00	1.00000e+00	1.00000e+00	1.00000e+00	1.00000e+00	1.00000e+00	1.00000e+00	1.00000e+00	1.00000e+00	1.00000e+00	X	X	X	X	X	X	X	X	X	X	X	X	X	X	X	X	

B = Detector Channel
Val Type	B-AC1	B-AC2	B-AC3	B-AC4	B-AC5	B-AC6	B-AC7	B-AC8	B-AC9	B-AC10	B-AC11	B-AC12	B-AC13	B-AC14	B-AC15	B-AC16	B-DC1	B-DC2	B-DC3	B-DC4	B-DC5	B-DC6	B-DC7	B-DC8	B-DC9	B-DC10	B-DC11	B-DC12	B-DC13	B-DC14	B-DC15	B-DC16	B-Ph1	B-Ph2	B-Ph3	B-Ph4	B-Ph5	B-Ph6	B-Ph7	B-Ph8	B-Ph9	B-Ph10	B-Ph11	B-Ph12	B-Ph13	B-Ph14	B-Ph15	B-Ph16	

Term	0.00000e+00	0.00000e+00	0.00000e+00	0.00000e+00	0.00000e+00	0.00000e+00	0.00000e+00	0.00000e+00	0.00000e+00	0.00000e+00	0.00000e+00	0.00000e+00	0.00000e+00	0.00000e+00	0.00000e+00	0.00000e+00	0.00000e+00	0.00000e+00	0.00000e+00	0.00000e+00	0.00000e+00	0.00000e+00	0.00000e+00	0.00000e+00	0.00000e+00	0.00000e+00	0.00000e+00	0.00000e+00	0.00000e+00	0.00000e+00	0.00000e+00	0.00000e+00	-1.52421e+02	-1.26321e+02	-1.29806e+02	-1.86538e+02	-8.17425e+01	-9.44387e+01	-1.58482e+02	-1.62015e+02	-7.12364e+01	-6.93310e+01	-1.71970e+02	-1.71209e+02	-1.83751e+02	-1.77240e+02	-8.25703e+01	-1.49604e+02	
Factor	2.27753e-05	1.29415e-04	3.73414e-05	2.99145e-01	1.07142e-06	1.26760e-06	1.64991e-01	5.09512e-02	1.01362e-06	1.41088e-06	8.41624e-02	2.77432e-02	4.04098e-02	8.88480e-03	1.04482e-06	1.27305e-02	1.79682e-06	1.89931e-06	5.29689e-07	1.50663e-01	2.07622e-08	2.08323e-08	7.96040e-02	2.61946e-02	2.06444e-08	2.08380e-08	4.16293e-02	1.37790e-02	2.05187e-02	4.56761e-03	2.07884e-08	6.31791e-03	X	X	X	X	X	X	X	X	X	X	X	X	X	X	X	X	



#DISTANCE SETTINGS
A = Detector Channel
A-1	A-2	A-3	A-4	A-5	A-6	A-7	A-8	A-9	A-10	A-11	A-12	A-13	A-14	A-15	A-16	

2.5000e+00	3.0000e+00	2.5000e+00	3.0000e+00	2.0000e+00	3.0000e+00	1.5000e+00	3.0000e+00	3.0000e+00	3.0000e+00	3.0000e+00	3.0000e+00	3.0000e+00	3.0000e+00	1.5000e+00	3.0000e+00	

B = Detector Channel
B-1	B-2	B-3	B-4	B-5	B-6	B-7	B-8	B-9	B-10	B-11	B-12	B-13	B-14	B-15	B-16	

1.0000e+01	1.0000e+01	1.0000e+01	1.4400e+00	1.0000e+01	1.0000e+01	1.5100e+00	1.9400e+00	1.0000e+01	1.0000e+01	1.9900e+00	2.4900e+00	2.4100e+00	2.9000e+00	1.0000e+01	2.9800e+00	




#DATA BEGINS
time	group	step	mark	flag	A-AC1	A-AC2	A-AC3	A-AC4	A-AC5	A-AC6	A-AC7	A-AC8	A-AC9	A-AC10	A-AC11	A-AC12	A-AC13	A-AC14	A-AC15	A-AC16	A-DC1	A-DC2	A-DC3	A-DC4	A-DC5	A-DC6	A-DC7	A-DC8	A-DC9	A-DC10	A-DC11	A-DC12	A-DC13	A-DC14	A-DC15	A-DC16	A-Ph1	A-Ph2	A-Ph3	A-Ph4	A-Ph5	A-Ph6	A-Ph7	A-Ph8	A-Ph9	A-Ph10	A-Ph11	A-Ph12	A-Ph13	A-Ph14	A-Ph15	A-Ph16	B-AC1	B-AC2	B-AC3	B-AC4	B-AC5	B-AC6	B-AC7	B-AC8	B-AC9	B-AC10	B-AC11	B-AC12	B-AC13	B-AC14	B-AC15	B-AC16	B-DC1	B-DC2	B-DC3	B-DC4	B-DC5	B-DC6	B-DC7	B-DC8	B-DC9	B-DC10	B-DC11	B-DC12	B-DC13	B-DC14	B-DC15	B-DC16	B-Ph1	B-Ph2	B-Ph3	B-Ph4	B-Ph5	B-Ph6	B-Ph7	B-Ph8	B-Ph9	B-Ph10	B-Ph11	B-Ph12	B-Ph13	B-Ph14	B-Ph15	B-Ph16	aux-1	digaux	

8009.217	1	1	0	256	0.072128	0.27629	0.073761	0.12948	0.36648	0.11036	0.27053	0.17048	0.027454	0.21287	0.089974	0.36852	0.13364	0.17781	0.26349	0.16459	-2.1312	-2.0458	-2.6688	-2.3854	-1.9375	-2.7625	-1.9917	-2.5438	-2.5875	-1.9188	-2.7792	-2.4396	-2.1708	-3.0458	-2.175	-2.5958	316.057	315.981	102.515	245.274	359.540	407.103	357.711	386.335	393.354	365.921	275.149	403.395	131.914	388.535	351.739	393.770	0.00028827	0.00023001	6.3457e-05	1051	4.2936e-06	5.5534e-06	1123.8	212.29	1.3711e-06	1.7623e-06	270.77	76.95	60.575	17.804	2.6116e-06	24.962	0.00028617	0.00027846	7.9034e-05	1017.9	3.0547e-06	3.0728e-06	1097.3	209.79	3.1045e-06	3.0215e-06	266.61	76.239	60.553	18.101	3.035e-06	25.242	161.333	296.184	358.125	105.736	205.963	289.324	105.937	113.166	208.261	449.089	113.251	119.652	120.122	127.489	228.956	126.813	-8191	255	
8009.311	1	1	0	0	0.082873	0.30639	0.12435	0.12613	0.1935	0.32276	0.12775	0.14611	0.19864	0.068311	0.15681	0.044868	0.026854	0.10756	0.058331	0.29476	-1.975	-1.8979	-2.6354	-2.3833	-1.9979	-2.7042	-2.2875	-2.3563	-2.7396	-1.9438	-2.6771	-2.4646	-1.9167	-2.7458	-2.1188	-2.3729	271.144	369.630	211.136	116.246	404.961	185.165	363.414	379.776	247.452	448.974	374.215	261.202	408.103	452.683	362.489	383.579	0.00032967	6.8881e-05	0.00012464	1044.4	4.0059e-06	3.9341e-06	1122.6	212.15	1.6464e-06	5.2236e-06	270.06	76.475	61.139	17.919	4.1087e-06	25.009	0.00028155	0.00027735	7.6633e-05	1016.7	3.0425e-06	2.992e-06	1097.5	209.86	2.9759e-06	2.9966e-06	266.17	76.132	60.564	18.116	3.0048e-06	25.247	159.539	202.092	161.672	105.810	241.345	209.955	105.837	113.407	231.534	215.463	113.077	119.594	120.071	127.787	249.489	127.028	-8191	255	
8009.407	1	1	0	0	0.030392	0.2576	0.21514	0.10714	0.16206	0.2118	0.15169	0.31379	0.23982	0.066576	0.14985	0.1817	0.38276	0.092756	0.28942	0.22974	-2.2229	-1.9292	-2.4583	-2.3979	-2.0333	-2.8646	-2.1479	-2.0708	-2.6396	-1.8542	-2.5958	-2.5271	-1.8833	-2.7896	-2.2021	-2.1562	444.656	257.300	228.285	342.156	253.458	166.728	304.700	441.373	188.475	328.757	136.493	365.611	149.592	424.863	441.583	348.622	0.00031279	4.2261e-05	2.598e-05	1051.3	2.4106e-06	7.3136e-07	1121.2	213.61	1.6967e-06	5.6783e-06	269.08	77.037	61.525	17.885	5.773e-07	24.816	0.0002757	0.0002734	7.6039e-05	1019.7	3.0379e-06	2.9354e-06	1097.5	210.04	2.9408e-06	2.9457e-06	266.13	76.357	60.698	18.066	2.8906e-06	25.146	161.131	155.650	370.510	105.493	236.219	418.150	105.810	113.611	256.770	270.727	113.108	119.550	119.930	127.380	155.701	127.103	-8191	255	
8009.481	1	1	0	0	0.13666	0.35197	0.26413	0.26825	0.14541	0.22924	0.31175	0.26115	0.26481	0.1122	0.30091	0.15689	0.052223	0.11412	0.16761	0.17962	-2.3708	-1.6604	-2.4354	-2.6688	-2.0521	-2.6625	-2.5083	-2.1312	-2.8563	-1.95	-2.3104	-2.7188	-2.0687	-2.7062	-2.3271	-2.1583	127.637	301.774	360.134	452.268	198.461	343.842	401.648	395.228	376.402	435.761	385.065	392.706	363.804	286.746	125.279	185.481	0.00037733	0.00012615	0.00015132	1050.6	1.6237e-06	2.8152e-06	1124.1	212.21	2.3079e-06	3.9242e-06	269.2	76.654	60.397	17.934	2.1727e-06	24.908	0.00026329	0.00025992	7.1316e-05	1014.5	2.823e-06	2.8361e-06	1093.2	209.17	2.8094e-06	2.8415e-06	265.25	76.057	60.095	18.04	2.833e-06	25.052	162.097	147.617	165.995	105.422	316.452	218.730	105.902	113.506	205.244	370.951	113.304	120.191	120.382	127.681	228.554	127.082	-8191	255	
8009.600	1	1	0	0	0.16892	0.26492	0.014723	0.11462	0.10195	0.26284	0.097143	0.15343	0.042447	0.12442	0.34418	0.24657	0.15483	0.14561	0.24247	0.084032	-2.3771	-1.9979	-2.2646	-2.6625	-1.8708	-2.6896	-2.6312	-2.1604	-2.7396	-2.1083	-2.2271	-2.9167	-1.9729	-2.5104	-2.4083	-1.9333	344.466	287.070	126.946	145.941	443.622	111.632	375.888	413.568	356.994	428.082	351.742	404.392	352.801	455.728	156.346	196.807	0.0003533	0.0003298	0.00016306	1041.3	2.2922e-06	2.7287e-06	1120	214.12	1.5341e-06	4.5601e-06	270.95	76.615	60.145	17.836	2.9462e-06	24.884	0.00025864	0.00025253	7.1958e-05	1013.8	2.8122e-06	2.8024e-06	1093.4	209.41	2.7309e-06	2.7791e-06	265.7	75.965	59.982	18.021	2.7768e-06	25.109	148.663	240.492	225.471	106.155	202.946	318.524	105.809	113.741	344.678	332.035	113.348	119.833	120.269	128.027	242.097	126.491	-8191	255	
8009.696	1	1	0	0	0.15427	0.11789	0.09504	0.10288	0.26261	0.13059	0.21281	0.10631	0.24459	0.13136	0.18123	0.39275	0.1891	0.46676	0.090955	0.13012	-2.3125	-1.9625	-2.1625	-2.7271	-2.0438	-2.4562	-2.7458	-1.9646	-2.6833	-2.3812	-2.1354	-2.8896	-2.0792	-2.3208	-2.5729	-1.8813	160.265	227.183	399.808	165.256	429.598	441.731	425.337	343.283	188.171	412.226	193.815	297.904	353.524	299.770	197.671	114.136	0.00035685	0.00045204	3.3666e-05	1049.2	1.172e-06	3.837e-06	1115.7	212.04	2.1194e-06	2.337e-06	268.85	76.723	60.797	17.97	2.1457e-06	24.776	0.00025719	0.00024841	7.0795e-05	1011	2.7395e-06	2.7827e-06	1092.8	208.96	2.7741e-06	2.8093e-06	264.89	76.045	59.989	17.993	2.7737e-06	25.067	156.497	234.049	386.836	106.031	136.688	203.904	105.897	113.748	257.816	330.907	113.187	120.040	120.375	128.463	267.236	127.573	-8191	255	
8009.792	1	1	0	0	0.063539	0.099257	0.12242	0.11671	0.038101	0.15487	0.17295	0.36038	0.20609	0.075857	0.19442	0.058646	0.062995	0.060882	0.20187	0.19128	-2.2375	-2.3146	-2.0875	-2.7771	-2.0021	-2.25	-2.8729	-2.0396	-2.7687	-2.4542	-2.1604	-2.7854	-2.1833	-2.2604	-2.6958	-1.8792	379.908	271.651	331.653	433.611	219.603	180.284	424.987	399.581	245.971	313.365	390.333	242.988	162.691	107.698	119.350	404.780	0.00037194	0.00018985	0.00016791	1047.6	2.1463e-06	5.6824e-06	1118.7	213.15	7.165e-06	5.0165e-06	270.19	76.538	61.036	17.952	3.5918e-06	24.973	0.00025826	0.00025868	7.1645e-05	1012.1	2.8107e-06	2.8437e-06	1091.8	209.53	2.78e-06	2.7919e-06	265.25	75.847	60.224	17.996	2.7585e-06	25.079	159.953	126.611	135.223	105.754	292.945	264.552	105.896	113.802	276.899	251.136	113.603	119.985	120.392	127.804	265.170	127.085	-8191	255	
8009.888	1	1	0	0	0.15261	0.33067	0.3622	0.4199	0.092438	0.078512	0.28117	0.10824	0.37332	0.063878	0.023683	0.084417	0.20573	0.27112	0.15183	0.014459	-2.1896	-2.4021	-1.8333	-2.8187	-2.2167	-2.2271	-3.0396	-2.0979	-2.575	-2.6354	-2.0542	-2.8375	-2.1479	-1.9792	-2.7917	-2.0708	335.720	213.200	447.402	108.181	338.303	327.867	423.966	375.093	257.711	222.744	345.187	425.733	207.326	447.444	368.203	386.548	0.00032254	0.00069971	0.00012759	1048	1.8855e-06	5.5231e-07	1118.7	211.65	3.3705e-06	5.6407e-06	271.42	75.767	61.049	17.85	1.6754e-06	24.93	0.0002609	0.00025909	7.2209e-05	1011.3	2.8329e-06	2.8325e-06	1091.2	208.67	2.8243e-06	2.8393e-06	265.33	75.889	60.467	18.027	2.8462e-06	25.122	154.784	213.308	199.272	105.810	224.042	359.523	106.028	113.549	191.620	248.973	113.575	119.948	120.748	128.235	223.085	127.046	-8191	255	
8010.009	1	1	0	0	0.035927	0.2026	0.17621	0.21861	0.08448	0.18084	0.15144	0.22254	0.31297	0.13399	0.20143	0.1317	0.34451	0.057191	0.087116	0.43894	-2.1229	-2.6333	-1.9312	-2.6771	-2.3771	-2.2208	-2.9583	-2.0396	-2.325	-2.8021	-2.0458	-2.7042	-2.2979	-2.1917	-2.8708	-2.1604	351.380	206.165	311.132	433.046	271.941	411.101	453.722	380.349	369.031	429.252	108.257	381.693	275.539	301.962	246.872	392.325	0.00033278	0.00025378	4.1273e-05	1048.4	3.0724e-07	1.4369e-06	1114.1	212.11	3.8099e-06	3.5425e-06	269.57	76.529	60.736	17.751	9.8438e-07	24.745	0.00026257	0.0002554	7.3528e-05	1012.8	2.8946e-06	2.8482e-06	1089.6	208.84	2.8654e-06	2.8721e-06	265.3	75.973	60.412	18.004	2.9181e-06	25.091	145.665	258.969	291.078	106.135	431.813	232.733	106.035	113.624	270.382	250.815	113.160	119.990	119.772	127.880	233.108	127.420	-8191	255	
8010.105	1	1	0	0	0.13551	0.073595	0.28122	0.15794	0.12181	0.15828	0.13988	0.29299	0.12611	0.10667	0.22684	0.24599	0.19082	0.3263	0.042831	0.28871	-1.8729	-2.7	-1.8896	-2.5271	-2.3417	-2.0896	-2.8563	-2.0042	-2.0687	-2.8167	-2.1292	-2.6542	-2.375	-2.2229	-2.7958	-2.3521	333.659	401.737	117.799	108.777	412.458	308.186	301.739	359.740	154.166	333.597	151.684	142.329	347.495	386.943	314.938	126.268	0.00036321	0.00055171	0.0001392	1044.3	2.1762e-06	5.0037e-06	1117.5	212.98	5.9992e-06	4.7128e-06	268.65	76.52	59.98	17.897	2.4474e-06	24.687	0.00027329	0.00026427	7.2727e-05	1012.6	2.8947e-06	2.9294e-06	1091.1	209.16	2.935e-06	2.9058e-06	265.35	76.065	60.148	18.037	2.8798e-06	25.017	156.022	171.529	262.928	105.906	223.652	241.548	106.096	113.887	254.929	221.917	113.285	120.080	120.457	127.786	294.111	126.969	-8191	255	
8010.201	1	1	0	0	0.18497	0.10915	0.044084	0.19936	0.24287	0.11738	0.098662	0.092836	0.22631	0.085496	0.19909	0.24491	0.34521	0.19626	0.15285	0.15534	-1.8271	-2.6021	-1.8521	-2.4396	-2.5875	-2.0208	-3.0896	-2.4167	-2.0979	-2.7708	-2.0812	-2.4688	-2.55	-2.0021	-2.6937	-2.3688	173.789	299.318	378.028	433.809	311.996	284.275	177.773	214.170	157.569	343.201	248.070	362.099	341.769	449.470	344.502	100.825	0.00031361	9.6302e-06	0.000238	1040.2	4.7893e-06	3.0259e-06	1118	213	5.2307e-07	2.0958e-06	270.3	77.114	60.75	17.758	1.4694e-06	24.79	0.00026819	0.00026208	7.4981e-05	1009.9	2.9186e-06	2.892e-06	1092.2	209.03	2.8851e-06	2.8855e-06	265.67	76.194	60.19	17.966	2.8004e-06	25.014	156.661	186.297	180.069	105.806	204.455	195.659	106.009	114.040	238.589	250.939	113.372	119.724	120.644	127.725	259.582	127.156	-8191	255	
8010.297	1	1	0	0	0.31872	0.054046	0.26722	0.24986	0.11542	0.34668	0.14407	0.17261	0.23449	0.13843	0.26868	0.10884	0.15373	0.24942	0.13325	0.076608	-1.6	-2.7229	-2.1	-2.5083	-2.7708	-2.0417	-2.8021	-2.5687	-2.1083	-2.7479	-1.9625	-2.3979	-2.7792	-1.9229	-2.6542	-2.4229	145.102	209.161	334.680	344.544	259.192	369.495	314.560	443.155	348.196	306.100	355.861	111.118	421.499	418.688	371.874	381.125	0.00027118	0.00035993	2.9175e-05	1048.4	1.277e-06	3.7514e-06	1120.8	212.04	6.0652e-06	2.9701e-06	268.43	77.355	60.476	17.873	2.2532e-06	24.756	0.00025839	0.00025387	6.8559e-05	1012.7	2.7128e-06	2.6934e-06	1089.2	208.55	2.7136e-06	2.6619e-06	263.95	76.172	59.823	17.988	2.6335e-06	24.925	152.425	169.047	225.751	105.829	215.524	236.252	105.968	113.801	262.492	191.845	113.181	120.028	120.117	128.078	280.769	126.673	-8191	255	
8010.393	1	1	0	0	0.086731	0.076364	0.17362	0.07386	0.18305	0.053477	0.10759	0.14683	0.17916	0.10566	0.1588	0.21509	0.068951	0.060772	0.1143	0.30435	-1.5104	-2.8125	-2.1375	-2.15	-2.5583	-1.9729	-2.725	-2.7979	-1.95	-2.7271	-2.3229	-2.3583	-2.8208	-1.9208	-2.5938	-2.5	234.637	237.543	357.271	106.334	257.244	141.959	413.231	114.749	124.860	288.968	396.663	447.580	195.582	356.714	330.104	279.996	0.00036827	0.00064614	7.5741e-05	1045	1.0961e-06	2.1268e-06	1113.9	211.23	5.1901e-06	5.7273e-06	268.64	76.432	60.764	17.897	2.8986e-06	24.819	0.00024501	0.00024157	6.6478e-05	1010.8	2.6551e-06	2.6282e-06	1089.9	208.27	2.6777e-06	2.6518e-06	264.55	75.806	60.02	17.955	2.6614e-06	24.99	151.390	202.423	162.156	106.262	249.425	270.919	106.211	113.926	250.479	224.215	113.185	120.061	120.422	128.023	191.537	127.074	-8191	255	
8010.488	1	1	0	0	0.17171	0.07567	0.12793	0.26636	0.045493	0.25842	0.071609	0.38748	0.1577	0.20868	0.33345	0.15266	0.22427	0.29571	0.030885	0.096778	-1.6771	-2.5917	-2.0938	-2.1292	-2.8854	-2.1729	-2.6188	-2.8208	-1.8813	-2.6542	-2.3208	-2.0792	-2.7313	-2.0125	-2.4688	-2.6417	411.984	128.990	374.210	424.593	292.572	276.923	420.889	440.865	177.779	184.831	106.298	331.651	268.452	331.074	267.703	410.673	0.0003254	0.00036669	7.2467e-05	1046.7	2.7201e-06	2.0715e-06	1116.3	211.91	2.7993e-06	3.8093e-06	270.26	76.994	60.325	17.733	3.6119e-06	25.112	0.00024971	0.00024309	6.7965e-05	1009.7	2.6701e-06	2.68e-06	1089	208.07	2.7654e-06	2.7001e-06	264.95	76.018	59.84	17.967	2.7642e-06	25.038	149.652	183.036	196.454	106.138	175.606	317.632	106.349	113.817	262.047	267.118	113.347	120.105	121.004	127.900	208.966	127.259	-8191	255	
8010.608	1	1	0	0	0.36351	0.21604	0.099141	0.11689	0.098851	0.16409	0.2642	0.1097	0.15426	0.13324	0.24725	0.17459	0.10933	0.048798	0.13284	0.10432	-1.4771	-2.6813	-2.2979	-2.1958	-2.7896	-2.1208	-2.3521	-2.6	-1.9188	-2.5854	-2.5229	-1.8625	-2.7188	-2.15	-2.3229	-2.8271	219.460	226.480	440.930	378.304	326.267	294.867	423.791	381.702	434.613	365.853	380.749	133.102	337.664	454.286	215.788	390.797	0.00028048	0.00033921	5.1574e-05	1050.2	2.8069e-06	2.8914e-06	1117.1	210.97	4.9786e-06	3.3249e-06	268.95	76.225	60.396	17.813	1.477e-06	25.037	0.00025219	0.00024646	6.975e-05	1008.9	2.7594e-06	2.7487e-06	1089.4	208.57	2.7211e-06	2.7576e-06	264.98	75.749	60.06	17.946	2.8786e-06	25.124	151.691	121.484	196.908	106.046	181.327	246.768	106.183	114.097	191.705	332.439	113.087	120.080	120.270	127.517	255.920	126.936	-8191	255	
8010.704	1	1	0	0	0.18477	0.21783	0.17236	0.10747	0.26272	0.097017	0.12712	0.30251	0.16519	0.24817	0.21168	0.17828	0.12185	0.21779	0.035579	0.22923	-1.6688	-2.5479	-2.6354	-1.9667	-2.9	-2.1917	-2.3854	-2.9896	-2.125	-2.525	-2.7021	-2.2125	-2.7417	-2.3146	-2.225	-2.7313	316.933	283.047	109.974	392.097	222.638	137.973	397.021	117.267	332.965	202.906	210.507	433.133	428.183	382.472	449.167	183.596	0.00025993	0.00036708	5.8e-05	1041.4	4.8566e-07	3.6755e-06	1117.1	209.89	3.0316e-06	2.556e-06	270.44	76.575	60.613	17.843	3.5351e-06	24.774	0.00026591	0.00025749	7.1694e-05	1010	2.8164e-06	2.7998e-06	1091.1	208.42	2.8319e-06	2.8172e-06	265	75.924	60.171	18.024	2.872e-06	25.063	151.425	197.761	160.668	106.105	442.756	221.575	106.262	113.591	269.844	107.469	113.613	120.127	120.943	127.984	254.599	127.693	-8191	255	
8010.776	1	1	0	0	0.23518	0.11426	0.1951	0.15433	0.16963	0.074088	0.32666	0.18202	0.22727	0.28906	0.10268	0.33	0.12292	0.19286	0.068695	0.12682	-1.6	-2.5042	-2.5875	-2.15	-2.8167	-2.2896	-2.2583	-2.9229	-2.1854	-2.4729	-2.6521	-2.0792	-2.625	-2.6292	-2.075	-2.6396	242.764	124.271	168.460	444.469	297.243	430.223	422.432	144.018	163.763	163.538	241.248	438.229	105.637	400.571	318.207	144.937	0.00027881	0.00050792	8.848e-05	1036.1	3.3777e-06	3.3624e-06	1117	212.63	5.4092e-06	2.6548e-06	270.34	76.651	60.829	17.932	2.4344e-06	24.841	0.00026424	0.00026198	7.3357e-05	1009.3	2.8928e-06	2.878e-06	1089.5	209.32	2.9131e-06	2.8509e-06	265.17	76.003	60.264	18.057	2.8844e-06	25.06	163.146	181.011	192.105	106.195	242.924	220.185	105.876	113.900	182.335	271.011	113.610	120.176	120.708	127.783	210.244	127.096	-8191	255	
8010.872	1	1	0	0	0.16182	0.21991	0.15801	0.12145	0.24777	0.023812	0.1805	0.0935	0.041374	0.15102	0.22187	0.32053	0.064144	0.081399	0.21095	0.33	-1.8146	-2.3396	-2.75	-2.0792	-2.5187	-2.525	-2.0938	-2.9104	-2.2292	-2.3229	-2.9542	-2.0271	-2.5542	-2.5917	-2.0167	-3.0125	235.343	317.012	347.393	326.269	223.330	177.867	235.776	367.940	423.553	276.287	425.934	447.369	319.542	128.667	98.257	124.410	0.00038725	0.00068239	5.9802e-05	1042	2.7709e-06	6.0091e-06	1123	211.79	2.4233e-06	7.4056e-06	269.72	77.039	60.628	17.749	1.9749e-06	24.839	0.00026308	0.00026271	7.2936e-05	1012.6	2.8585e-06	2.8211e-06	1092.7	209.03	2.8583e-06	2.8812e-06	265.82	76.117	60.256	18.019	2.9029e-06	25.111	159.921	161.585	234.841	106.402	213.683	222.567	106.101	113.832	323.599	272.361	113.326	120.222	120.489	127.822	295.083	127.284	-8191	255	
8010.993	1	1	0	0	0.12415	0.24236	0.17992	0.27488	0.12744	0.095149	0.26051	0.20926	0.23494	0.33025	0.11623	0.10761	0.20359	0.1807	0.043358	0.22935	-1.8729	-2.1562	-2.8271	-2.3333	-2.4771	-2.7125	-2.2229	-2.7854	-2.3146	-1.9646	-2.725	-2.2	-2.5771	-2.8646	-1.975	-2.625	195.150	357.880	211.158	196.359	310.960	249.381	370.616	434.757	389.205	146.951	407.148	411.969	419.503	199.513	263.837	399.745	0.00032607	0.00017525	0.00012507	1044	5.3404e-06	4.8465e-06	1119.7	211.77	1.3454e-06	9.5033e-07	269.7	76.187	60.527	17.786	8.208e-07	24.989	0.00027181	0.00026313	7.4188e-05	1013.3	2.8729e-06	2.8575e-06	1091.8	209.04	2.9379e-06	2.8796e-06	265.05	75.906	60.256	18.024	2.9265e-06	25.131	158.538	318.750	223.363	106.293	201.848	182.930	106.081	114.003	218.872	176.468	113.645	119.890	120.502	128.146	267.327	127.587	-8191	255	
8011.089	1	1	0	0	0.081524	0.12814	0.09774	0.0454	0.21049	0.10268	0.041322	0.17707	0.35615	0.12614	0.18248	0.086448	0.10376	0.091635	0.17159	0.18816	-2.1708	-2.0979	-2.7167	-2.2458	-2.3917	-2.7375	-2.2708	-2.7208	-2.4813	-2.0396	-3.0208	-2.0375	-2.0958	-2.7729	-1.9479	-2.6021	125.305	229.091	188.136	187.344	320.167	166.616	103.209	422.647	279.134	332.504	353.748	347.232	188.262	210.381	393.801	397.325	0.00031199	0.00026977	0.00013938	1042.3	2.3276e-06	2.0998e-06	1116.5	212.13	4.1446e-06	2.033e-06	269.26	76.418	60.568	17.792	1.8462e-06	24.972	0.0002656	0.00026254	7.1633e-05	1010.5	2.8379e-06	2.7985e-06	1089.9	209.25	2.7433e-06	2.8087e-06	265.03	75.893	59.885	17.964	2.782e-06	25.115	152.202	215.258	153.131	106.625	172.974	251.856	106.387	113.983	264.287	233.793	113.788	119.936	120.368	127.638	246.257	127.413	-8191	255	
8011.185	1	1	0	0	0.22037	0.22912	0.055685	0.043237	0.24844	0.076088	0.36317	0.34636	0.020061	0.082445	0.075421	0.18623	0.18507	0.11623	0.087595	0.2319	-2.2313	-1.8271	-2.8917	-2.1542	-2.1042	-2.9042	-2.2729	-2.5208	-2.7875	-2.2167	-2.7604	-2.1604	-2.2667	-2.8563	-2.2062	-2.5812	140.394	363.984	211.189	356.479	373.739	390.553	390.813	349.083	371.317	152.293	265.006	105.123	106.435	158.179	139.788	140.580	0.00028985	0.0002616	0.00010937	1038.2	2.6037e-06	2.5386e-06	1116.8	212.44	3.8547e-06	1.5798e-06	270.49	76.927	61.041	17.874	2.8212e-06	24.976	0.00025576	0.00025028	7.1081e-05	1007.2	2.7772e-06	2.8093e-06	1090.1	208.9	2.786e-06	2.7761e-06	265.23	75.992	60.362	18.045	2.7517e-06	25.044	158.257	282.449	126.835	106.423	269.390	248.078	106.461	114.236	274.468	287.335	113.407	120.447	120.354	128.412	202.143	127.564	-8191	255	
8011.281	1	1	0	0	0.23454	0.077818	0.13113	0.19793	0.098252	0.24056	0.35933	0.15955	0.16041	0.12673	0.081448	0.18342	0.2261	0.15763	0.19698	0.24674	-2.2833	-2.0104	-2.5938	-2.4583	-2.0729	-2.8292	-2.2208	-2.3208	-2.6979	-1.8979	-2.7542	-2.3063	-1.9813	-2.8917	-2.1354	-2.2833	346.509	284.874	389.420	331.478	367.875	449.054	381.737	454.960	162.004	339.365	209.408	288.366	429.148	428.039	390.896	455.138	0.00033298	0.00031876	0.00016505	1043.1	7.8999e-07	2.2957e-06	1112.8	213.29	2.2757e-06	4.5983e-06	270.11	76.07	60.832	17.844	3.1583e-06	24.867	0.00025636	0.00024964	7.045e-05	1009.9	2.7722e-06	2.7173e-06	1087.8	209.08	2.7174e-06	2.7263e-06	265.31	75.781	60.314	17.974	2.6902e-06	25.09	157.966	193.546	202.404	106.067	154.652	240.957	106.251	114.243	181.581	269.734	113.574	120.352	120.818	128.105	343.693	127.761	-8191	255	
8011.377	1	1	0	0	0.16969	0.15578	0.17533	0.25471	0.13549	0.36435	0.108	0.16056	0.28366	0.078299	0.054215	0.11906	0.076853	0.42879	0.20544	0.16204	-2.2979	-1.9896	-2.5521	-2.5708	-1.8479	-2.6958	-2.3042	-2.325	-2.6813	-1.8875	-2.5687	-2.5187	-1.9438	-2.9188	-2.2188	-2.2562	174.495	418.719	273.357	384.730	363.543	367.960	119.058	400.654	158.542	229.377	326.186	120.731	186.109	449.436	240.390	334.714	0.00032484	0.0005449	8.0182e-05	1035.8	2.7367e-06	5.1089e-06	1112.8	213.04	2.6187e-06	3.9285e-06	268.18	76.396	60.655	17.767	2.7847e-06	24.953	0.00024806	0.00024591	6.7845e-05	1004.5	2.6843e-06	2.7042e-06	1086.5	208.96	2.7138e-06	2.6703e-06	264.44	75.755	59.935	17.933	2.7375e-06	25.062	147.113	170.306	191.637	106.274	239.432	260.502	106.418	114.114	280.159	249.458	113.697	119.776	121.170	128.330	236.317	127.404	-8191	255	
8011.474	1	1	0	0	0.11453	0.24757	0.081028	0.18774	0.076569	0.064769	0.066106	0.32818	0.11264	0.13749	0.052637	0.25906	0.43448	0.21432	0.032979	0.15204	-2.5083	-1.8875	-2.5375	-2.7146	-1.9937	-2.7521	-2.4146	-2.15	-2.8979	-1.9896	-2.5417	-2.6521	-2.0083	-2.7542	-2.1979	-2.1063	332.519	97.929	232.273	349.088	112.945	411.154	329.608	410.989	433.217	403.130	164.702	348.057	113.375	446.991	324.854	132.705	0.00034989	0.00012181	5.6948e-05	1043.3	2.9959e-07	2.9794e-06	1109.6	212.42	4.1351e-06	1.7588e-06	268.93	76.226	59.811	17.846	3.7748e-06	24.878	0.00024974	0.00024976	6.8542e-05	1009.4	2.7102e-06	2.7182e-06	1086.6	208.64	2.7445e-06	2.7828e-06	264.77	75.882	59.971	17.987	2.8549e-06	25.085	148.377	148.363	229.437	106.243	112.558	236.793	106.618	114.197	248.538	182.486	113.974	120.456	121.077	127.953	290.639	127.485	-8191	255	
8011.570	1	1	0	0	0.26908	0.11022	0.18936	0.14837	0.27204	0.32105	0.10645	0.16987	0.24945	0.13914	0.34095	0.12387	0.10795	0.17676	0.083924	0.32535	-2.45	-1.9229	-2.3021	-2.6875	-1.9604	-2.6958	-2.4729	-1.9979	-2.7604	-2.1208	-2.3146	-2.8187	-1.8833	-2.6375	-2.6125	-2.2021	191.627	200.775	342.474	380.965	450.285	354.659	146.043	395.318	332.044	365.294	408.310	135.863	163.797	109.911	410.506	394.622	0.0003052	0.00015033	4.3888e-05	1038.7	3.9625e-06	2.4925e-06	1113.7	211.89	4.0066e-06	3.4029e-06	269.01	76.187	61.121	17.951	1.6637e-06	24.867	0.00026081	0.00025685	7.0807e-05	1007.5	2.8506e-06	2.7459e-06	1087.5	208.62	2.7783e-06	2.7465e-06	264.65	75.846	60.148	17.971	2.7773e-06	25.082	155.471	400.713	157.551	106.103	211.568	256.787	106.404	114.219	210.934	232.456	113.694	120.411	121.278	128.091	177.213	127.631	-8191	255	
8011.689	1	1	0	0	0.16632	0.18203	0.090677	0.15744	0.13332	0.19165	0.083702	0.19138	0.18222	0.16357	0.28453	0.3622	0.27096	0.02431	0.070463	0.34821	-2.3521	-2.1562	-2.2125	-2.8333	-2.2104	-2.5396	-2.8458	-1.9896	-2.725	-2.0646	-2.2271	-2.7458	-2.0292	-2.4521	-2.7	-2.0833	291.670	419.030	380.696	438.273	145.504	219.307	109.665	452.022	439.012	403.991	265.371	122.479	138.373	446.774	242.770	367.513	0.00035948	0.00055613	8.8977e-05	1042.6	1.317e-06	3.0598e-06	1118	211.55	1.3776e-06	1.4479e-06	269.52	76.439	59.888	17.865	3.5183e-06	24.644	0.00025429	0.00025077	6.99e-05	1008.7	2.7815e-06	2.7773e-06	1089.8	208.81	2.8436e-06	2.8009e-06	264.63	76.076	59.963	18.009	2.8683e-06	25.009	156.401	202.405	232.129	106.348	333.335	200.647	106.796	114.107	252.570	209.465	113.357	120.438	120.301	127.820	265.222	127.307	-8191	255	
8011.785	1	1	0	0	0.34685	0.10521	0.20805	0.34024	0.20519	0.072285	0.39714	0.22914	0.083043	0.11805	0.17546	0.090258	0.18533	0.28726	0.2691	0.34647	-2.0896	-2.3917	-2.0229	-2.9479	-2.1937	-2.5729	-2.8479	-1.9896	-2.7458	-2.5292	-2.2229	-2.9271	-2.1604	-2.3812	-2.8292	-2.0979	404.681	263.731	210.066	370.483	312.281	168.207	379.379	362.110	350.806	249.921	336.306	335.340	450.223	103.235	276.766	393.720	0.00035813	0.00034652	0.00018699	1040.1	4.9415e-06	3.8668e-06	1116	212.15	2.9936e-06	4.7822e-06	270.71	76.186	61.099	17.736	3.2119e-06	24.795	0.00026355	0.00025243	7.1024e-05	1008.8	2.7723e-06	2.7295e-06	1088.3	208.67	2.7724e-06	2.747e-06	265.36	75.906	59.993	17.966	2.7688e-06	25.05	161.627	249.264	187.130	106.151	314.199	200.573	106.138	114.002	235.496	261.188	113.592	120.385	120.568	128.104	231.424	126.941	-8191	255	
8011.881	1	1	0	0	0.12179	0.18868	0.1034	0.17769	0.19949	0.078176	0.2818	0.2265	0.080524	0.1343	0.21821	0.30149	0.23853	0.1441	0.17679	0.21676	-2.2604	-2.5417	-2.1333	-2.95	-2.2229	-2.3792	-3.0438	-2.0438	-2.5646	-2.5771	-1.9167	-2.8708	-2.4062	-2.2333	-2.7979	-2.0625	422.891	425.394	247.200	432.525	143.043	321.702	440.455	429.210	390.204	377.709	445.667	114.011	423.107	282.289	422.572	393.585	0.00031855	0.00011013	8.9918e-05	1040.4	4.2316e-06	3.8072e-06	1115	211.39	3.594e-06	3.3126e-06	268.51	77.031	60.24	17.929	5.7131e-07	24.964	0.00025279	0.00024749	6.9686e-05	1007.7	2.7365e-06	2.7448e-06	1087.8	208.13	2.7335e-06	2.7903e-06	263.84	76.077	59.865	18.004	2.7978e-06	25.129	160.643	198.896	268.504	106.164	230.454	290.318	106.504	113.893	243.887	215.311	113.313	120.296	120.299	127.816	243.079	127.480	-8191	255	
8012.002	1	1	0	0	0.26416	0.27909	0.067544	0.079038	0.23931	0.11032	0.19019	0.037373	0.25883	0.22622	0.12979	0.11913	0.16045	0.10958	0.37963	0.16197	-2.1042	-2.6458	-1.9542	-2.6312	-2.4313	-2.1813	-2.9208	-2.2521	-2.3604	-2.8208	-2.1063	-2.6833	-2.5458	-2.0146	-2.725	-2.2583	393.582	381.210	192.899	143.739	152.377	376.817	384.993	374.587	323.427	100.773	204.718	104.869	109.667	422.251	398.370	401.586	0.00026089	0.00058008	0.00014907	1041.3	2.4298e-06	4.1814e-06	1115.3	212.08	1.906e-06	2.0545e-06	270.5	76.444	60.193	17.771	2.9732e-06	24.795	0.00025234	0.0002502	7.0655e-05	1009	2.7216e-06	2.7924e-06	1088.2	208.62	2.7545e-06	2.7616e-06	264.88	75.841	59.945	18	2.8315e-06	24.956	156.336	186.696	197.132	106.710	233.031	240.503	106.540	113.909	400.013	304.232	113.664	120.318	120.935	128.138	242.554	127.434	-8191	255	
8012.073	1	1	0	0	0.19265	0.071213	0.36786	0.242	0.19319	0.33151	0.19011	0.24268	0.085533	0.12362	0.048411	0.23614	0.17647	0.26849	0.19915	0.2235	-1.9542	-2.5	-1.9625	-2.5438	-2.4562	-2.0229	-2.9313	-2.1667	-2.1479	-2.8438	-2.0833	-2.6125	-2.3458	-1.9792	-2.8021	-2.325	243.532	343.421	243.581	375.661	416.064	417.169	390.076	386.749	329.672	136.647	364.674	300.764	282.338	117.907	450.378	106.456	0.00024723	0.00033406	6.0122e-05	1042.1	2.0592e-06	2.3572e-07	1115.2	212.32	2.491e-06	3.054e-06	269.37	76.281	60.498	17.785	1.731e-06	24.908	0.00026445	0.00026265	7.3334e-05	1010.2	2.9336e-06	2.8976e-06	1087.7	208.71	2.9443e-06	2.9415e-06	264.68	75.922	60.118	18.001	2.8731e-06	25.034	148.842	320.004	170.453	106.200	264.531	188.646	106.439	113.876	250.934	295.187	113.783	120.090	120.579	128.263	248.938	127.717	-8191	255	
8012.169	1	1	0	0	0.083884	0.081859	0.15974	0.23774	0.081037	0.055711	0.12961	0.18027	0.19143	0.25567	0.081171	0.18533	0.30255	0.1256	0.20069	0.23475	-1.8646	-2.6	-1.9021	-2.6771	-2.5292	-2.0083	-2.8417	-2.4	-2.1562	-2.7833	-2.125	-2.4062	-2.6063	-1.7708	-2.7917	-2.3917	227.540	365.697	380.429	411.280	353.827	411.252	105.467	384.803	394.585	99.664	209.048	150.361	324.862	250.188	256.246	163.980	0.00026494	0.0001436	7.5408e-05	1043	4.0776e-06	2.5773e-06	1115.1	211.62	4.4361e-06	2.6714e-06	267.98	77.079	60.407	17.751	2.8304e-06	24.747	0.00026505	0.00026091	7.3022e-05	1009.9	2.8787e-06	2.8663e-06	1087.4	208.73	2.8688e-06	2.8844e-06	264.24	76.018	60.187	17.964	2.9274e-06	25.023	166.144	214.167	243.034	106.252	191.816	211.991	106.242	114.031	287.854	336.837	113.549	120.405	120.382	127.924	195.970	127.091	-8191	255	
8012.290	1	1	0	0	0.29114	0.1861	0.29222	0.013228	0.16253	0.1056	0.028464	0.40388	0.10983	0.054307	0.11918	0.22624	0.035656	0.2338	0.098602	0.31627	-1.5375	-2.8208	-1.9896	-2.5917	-2.6042	-2.0062	-2.5208	-2.4354	-2.0563	-2.6792	-1.9521	-2.2812	-2.5187	-1.8875	-2.6333	-2.4208	392.208	222.162	331.209	151.288	444.968	128.670	215.536	402.070	241.483	162.446	453.945	441.723	256.496	207.604	336.090	122.074	0.00029294	0.00032783	0.00013279	1037.9	3.1009e-06	2.384e-06	1114	211.18	1.6142e-06	1.0131e-06	269.71	76.736	60.844	17.754	2.5216e-06	24.796	0.00026618	0.00026339	7.3348e-05	1009	2.8689e-06	2.853e-06	1087.2	208.1	2.7717e-06	2.7595e-06	264.91	75.929	60.089	17.96	2.7672e-06	25.038	146.647	195.065	176.825	106.414	245.796	266.468	106.324	114.074	245.645	372.449	113.756	120.476	120.450	128.589	330.374	127.451	-8191	255	
8012.384	1	1	0	0	0.19562	0.26887	0.17776	0.21911	0.14748	0.18472	0.21538	0.17801	0.12246	0.049374	0.11836	0.23899	0.24433	0.17662	0.050652	0.022232	-1.5771	-2.6354	-2.1542	-2.4292	-2.7313	-2.0021	-2.6479	-2.6292	-2.0417	-2.7104	-2.2667	-2.2812	-2.6958	-2.0729	-2.7396	-2.5208	338.879	422.308	349.656	356.179	269.143	450.196	348.565	146.930	300.973	228.546	431.603	355.000	221.104	250.412	403.213	120.338	0.00035786	0.00050024	0.00014642	1043.5	2.1427e-06	3.8466e-06	1118.4	211.31	5.5755e-06	3.7369e-06	269.87	76.456	61.274	17.77	3.616e-06	24.729	0.00025563	0.0002522	7.2347e-05	1008.4	2.7893e-06	2.7066e-06	1087.3	208.12	2.7773e-06	2.72e-06	265	75.706	60.068	17.936	2.7383e-06	24.978	149.812	159.016	241.162	106.282	168.651	241.560	106.320	114.298	263.363	185.279	113.395	119.944	120.703	128.442	205.027	127.146	-8191	255	
8012.481	1	1	0	0	0.088418	0.052005	0.096195	0.031153	0.16752	0.22125	0.18762	0.080549	0.13613	0.17119	0.14717	0.11351	0.049104	0.18078	0.17076	0.13582	-1.3375	-2.7167	-2.2562	-2.225	-2.9437	-2.0479	-2.6458	-2.825	-1.9958	-2.7562	-2.3479	-2.1813	-2.9042	-1.8563	-2.4021	-2.6125	129.313	247.463	171.668	357.208	429.810	344.859	408.596	183.180	112.544	347.616	395.440	223.581	295.759	188.035	250.284	288.099	0.00032796	0.00049076	2.3261e-05	1039.5	4.4648e-06	1.2614e-06	1118.7	211.38	3.547e-06	2.9708e-06	269.09	75.988	60.366	17.761	3.1876e-06	24.749	0.00025583	0.00024534	6.918e-05	1007.1	2.7467e-06	2.6669e-06	1087.9	208.01	2.6661e-06	2.6955e-06	263.9	75.696	59.941	17.911	2.7008e-06	25.017	163.796	173.391	196.682	106.516	204.831	120.680	106.609	114.430	211.688	352.959	113.566	120.335	120.842	127.824	226.559	127.506	-8191	255	
8012.577	1	1	0	0	0.22597	0.23198	0.097702	0.050937	0.12947	0.31939	0.17417	0.14651	0.24237	0.17437	0.35268	0.19464	0.07457	0.09405	0.42981	0.0854	-1.3375	-2.825	-2.3458	-2.0062	-2.6958	-2.1271	-2.4479	-2.7146	-1.9146	-2.725	-2.4875	-1.9625	-2.7292	-2.1292	-2.0938	-2.7188	326.956	356.354	398.891	338.020	180.042	160.837	395.150	351.993	402.768	131.791	445.588	425.599	395.555	296.753	179.627	348.153	0.0002881	0.00063351	0.00015486	1043.6	3.8391e-06	4.1385e-06	1119.8	212.33	2.3194e-06	2.1322e-06	269.12	76.457	60.785	17.77	3.8293e-06	24.875	0.00025365	0.00024921	6.9433e-05	1008.7	2.7849e-06	2.7401e-06	1086.2	208.55	2.7828e-06	2.7438e-06	264.2	75.776	60.146	17.98	2.8436e-06	25.01	160.927	190.544	96.160	106.504	271.667	174.651	106.547	114.017	246.204	155.616	113.342	120.611	120.665	127.484	167.128	127.449	-8191	255	
8012.673	1	1	0	0	0.17858	0.26687	0.095372	0.042222	0.13623	0.27541	0.23386	0.17997	0.071054	0.24276	0.08647	0.10532	0.20153	0.33854	0.12826	0.28676	-1.525	-2.3854	-2.4417	-2.1229	-2.8479	-2.3937	-2.3479	-2.8937	-1.9042	-2.575	-2.6562	-1.9688	-2.5708	-2.2812	-2.1562	-3.0333	145.188	191.951	331.304	103.969	437.711	241.688	303.419	410.225	359.002	189.077	345.011	261.814	99.604	426.435	127.572	408.382	0.00028677	0.0006462	7.7579e-05	1033.5	1.4962e-06	1.1906e-06	1114.4	212.58	6.0524e-07	2.8778e-06	267.3	76.649	60.418	17.787	2.352e-06	24.68	0.00026472	0.00025721	7.0226e-05	1005	2.7509e-06	2.7924e-06	1086.9	208.33	2.7605e-06	2.7764e-06	264.2	75.79	59.885	17.914	2.8359e-06	25.016	151.685	195.857	237.979	106.604	193.434	204.936	106.520	114.273	282.473	297.952	113.684	120.736	121.001	128.323	321.610	127.664	-8191	255	
8012.769	1	1	0	0	0.11135	0.33188	0.10521	0.094302	0.14465	0.34601	0.23204	0.19476	0.016787	0.18493	0.20642	0.19555	0.16437	0.13352	0.17354	0.20615	-1.6063	-2.3542	-2.6417	-1.9188	-2.5875	-2.4313	-2.3625	-2.7021	-2.0458	-2.3125	-2.7375	-1.9646	-2.6813	-2.4437	-2.0104	-2.5646	397.873	175.587	120.637	447.580	388.767	320.656	390.417	116.755	173.346	315.440	369.832	389.052	414.025	102.833	169.262	331.016	0.00030256	0.00040339	0.00016791	1036.8	4.7173e-06	2.8734e-06	1117.3	211.43	3.4004e-06	4.2328e-06	270.5	76.433	60.707	17.806	1.3981e-06	24.614	0.00025629	0.00025588	7.1126e-05	1006.8	2.7939e-06	2.7585e-06	1086.6	208.06	2.8072e-06	2.8144e-06	264.55	75.899	60.146	17.997	2.8325e-06	25.004	158.534	208.303	185.849	106.409	223.115	216.515	106.728	113.956	322.076	252.132	114.010	120.336	120.742	128.150	276.654	127.098	-8191	255	
8012.865	1	1	0	0	0.33487	0.10001	0.22804	0.23297	0.071364	0.055364	0.27109	0.14839	0.16925	0.20279	0.20635	0.295	0.11062	0.15876	0.10006	0.083254	-1.5667	-2.3083	-2.8292	-2.0667	-2.5	-2.4646	-2.0333	-2.7729	-2.0896	-2.0646	-2.7958	-2.075	-2.6833	-2.4917	-2.0021	-2.7271	329.469	443.354	445.673	446.797	408.117	428.971	379.889	283.590	253.808	322.269	373.777	406.573	194.625	346.749	352.900	142.787	0.00027466	0.00039574	9.0906e-05	1042.4	3.1058e-06	1.7424e-06	1117.7	211.59	4.3297e-06	5.3122e-06	268.04	76.126	60.651	17.839	1.7855e-06	24.811	0.00026355	0.00026111	7.2265e-05	1008	2.8321e-06	2.8223e-06	1086.5	208.66	2.7857e-06	2.7862e-06	264.65	75.727	60.218	17.949	2.7908e-06	25.009	156.629	157.522	196.504	106.418	189.695	192.279	106.719	114.386	267.296	273.242	113.862	120.554	120.852	128.005	411.883	127.853	-8191	255	
8012.961	1	1	0	0	0.1787	0.17993	0.092551	0.30906	0.31034	0.085184	0.40522	0.089684	0.071832	0.059636	0.17789	0.12587	0.22289	0.078758	0.2169	0.22384	-1.8104	-2.0542	-2.8708	-2.0438	-2.4042	-2.6125	-2.2687	-2.8375	-2.2667	-2.0354	-2.6708	-2.0646	-2.2979	-2.5646	-2.0312	-2.7667	377.650	346.875	446.901	381.414	324.473	161.583	384.897	327.319	134.866	106.551	409.672	227.557	413.210	185.234	185.707	412.039	0.00025432	0.00075435	8.9837e-05	1036.7	2.3525e-06	1.3791e-06	1116.7	211.43	2.2556e-06	2.5053e-06	268.45	76.352	60.37	17.744	4.4649e-06	24.979	0.00026149	0.00025634	7.1161e-05	1006.5	2.8277e-06	2.7934e-06	1085.9	208.43	2.807e-06	2.8368e-06	264.2	75.693	59.934	17.955	2.9184e-06	25.024	162.721	182.170	138.668	106.383	298.390	243.243	106.704	114.185	330.364	159.596	113.717	120.404	121.155	128.233	181.294	127.313	-8191	255	
8013.082	1	1	0	0	0.21845	0.31419	0.27571	0.1456	0.29013	0.090114	0.10006	0.28177	0.16846	0.22354	0.24269	0.078906	0.16726	0.26619	0.15976	0.033892	-1.7604	-1.9271	-2.7708	-2.0833	-2.4708	-2.7313	-2.1312	-2.6312	-2.3354	-2.0917	-2.8083	-2.0958	-2.2604	-2.7167	-2.1521	-2.6542	314.190	427.955	238.112	439.023	182.951	235.833	332.438	406.109	304.442	193.203	111.857	436.659	389.624	392.929	447.450	378.785	0.00036674	0.00028802	5.9443e-05	1037.6	3.2565e-06	1.0032e-06	1110.9	212.74	4.5499e-06	3.9114e-07	269.71	76.636	60.568	17.804	4.0285e-06	24.908	0.00026794	0.00026378	7.2351e-05	1007.1	2.8981e-06	2.855e-06	1084.4	209.05	2.882e-06	2.8822e-06	264.04	75.848	60.005	17.934	2.7682e-06	25.038	165.158	159.533	232.385	106.463	179.463	248.211	106.568	114.578	244.992	202.757	114.209	120.890	120.603	128.006	182.712	127.571	-8191	255	
8013.178	1	1	0	0	0.14118	0.14494	0.035986	0.26133	0.2556	0.16887	0.086328	0.11868	0.073145	0.30058	0.30343	0.19848	0.25474	0.14497	0.030975	0.2416	-2.1312	-1.9208	-2.7167	-2.1896	-2.05	-2.7229	-2.2708	-2.6167	-2.475	-1.7771	-2.8375	-2.1542	-2.1896	-2.8458	-2.0521	-2.475	234.369	385.158	144.971	115.450	241.633	426.174	389.539	434.488	274.730	194.969	120.092	382.004	360.720	102.798	360.507	372.391	0.00033199	7.7695e-05	0.00017814	1044.8	1.6027e-06	1.602e-06	1113.2	211.41	7.6501e-07	3.217e-06	270.49	75.679	61.064	17.882	5.1106e-06	24.907	0.00026076	0.00025449	6.9269e-05	1009.5	2.8157e-06	2.8042e-06	1085.9	208.15	2.8996e-06	2.8285e-06	264.7	75.62	60.134	17.973	2.8348e-06	25.102	153.993	404.805	185.733	106.803	211.765	250.907	106.585	114.233	421.465	275.678	113.665	120.764	121.636	128.525	249.940	127.950	-8191	255	
8013.274	1	1	0	0	0.082963	0.219	0.13455	0.060853	0.10161	0.10032	0.02729	0.20121	0.23327	0.20969	0.055165	0.13179	0.12598	0.13809	0.059702	0.15273	-2.1896	-1.95	-2.7146	-2.5375	-2.0938	-2.6917	-2.125	-2.4625	-2.7354	-2.0542	-2.5229	-2.4125	-2.0958	-2.975	-2.2229	-2.5396	127.124	346.520	343.302	163.157	406.013	243.813	371.162	390.979	153.041	341.797	177.717	376.195	261.120	431.040	103.089	421.718	0.00027671	0.00079511	9.8484e-05	1038.8	3.1532e-06	2.5297e-06	1112.6	211.89	5.9275e-06	3.5726e-06	270.48	76.784	60.787	17.81	4.3892e-06	24.69	0.00026469	0.00026595	7.1956e-05	1006.2	2.8999e-06	2.8764e-06	1084.6	208.5	2.8566e-06	2.8849e-06	265.22	75.987	60.061	17.955	2.9446e-06	24.995	157.580	213.262	187.869	106.785	214.671	226.725	106.640	114.422	240.399	343.237	114.081	120.475	120.796	128.446	265.311	127.730	-8191	255	
8013.370	1	1	0	0	0.1324	0.12119	0.22458	0.18052	0.25751	0.21822	0.2029	0.10423	0.11528	0.09516	0.086683	0.094144	0.16105	0.11912	0.18095	0.25405	-2.1958	-2.0312	-2.6562	-2.5146	-1.9292	-2.8458	-2.4292	-2.3521	-2.7021	-2.1813	-2.6771	-2.6396	-2.0604	-2.7812	-2.3354	-2.1917	343.359	427.243	358.590	105.727	121.232	207.177	370.766	367.297	202.206	406.240	309.317	220.029	179.493	327.552	336.575	380.382	0.0003645	0.0003705	0.00010791	1038.2	1.6808e-06	2.9575e-06	1113	211.34	5.6556e-06	2.7439e-06	269.04	76.767	60.743	17.746	3.8188e-06	24.826	0.00026927	0.00026884	7.4824e-05	1004.6	2.9704e-06	2.9219e-06	1084.6	208.3	2.9475e-06	2.9171e-06	264.73	75.806	60.217	17.997	2.8425e-06	25.011	147.638	231.531	164.958	106.445	216.516	267.387	106.692	114.730	254.740	268.025	114.348	120.944	120.922	128.395	226.922	127.935	-8191	255	
8013.465	1	1	0	0	0.10466	0.23107	0.096014	0.17945	0.13127	0.097235	0.23158	0.028636	0.15962	0.26751	0.22081	0.19287	0.06133	0.18644	0.073121	0.076163	-2.3375	-2.1229	-2.4958	-2.7479	-1.975	-2.7896	-2.4854	-2.0917	-2.7667	-2.0375	-2.4542	-2.5917	-1.9208	-2.7583	-2.4437	-2.1646	266.391	318.354	379.083	413.125	231.411	396.044	340.614	341.519	127.353	292.016	227.598	393.500	144.683	111.185	256.683	456.431	0.00028153	0.00044217	0.00015974	1037.5	3.3832e-06	2.5655e-06	1118.3	210.57	1.8502e-06	1.4761e-06	268.11	76.061	60.676	17.813	3.9188e-06	24.966	0.00026927	0.0002659	7.2999e-05	1006.7	2.8952e-06	2.8861e-06	1086.4	208.38	2.9571e-06	2.941e-06	264.43	75.791	60.253	17.977	2.8849e-06	25.043	159.907	162.960	203.005	106.687	226.270	167.009	106.716	114.509	266.083	116.757	114.111	120.867	121.093	128.775	267.856	127.642	-8191	255	
8013.563	1	1	0	0	0.10183	0.21974	0.034914	0.13852	0.23442	0.17369	0.15809	0.13045	0.1766	0.1127	0.20948	0.18185	0.061802	0.1993	0.21463	0.18849	-2.4958	-2.0646	-2.5396	-2.5938	-1.8687	-2.6937	-2.5729	-2.1458	-2.6958	-2.2562	-2.3708	-2.7938	-1.9417	-2.6771	-2.475	-2.0417	321.387	266.094	202.789	455.801	330.435	173.910	336.131	358.300	365.429	444.877	427.104	301.240	390.233	110.381	124.333	230.358	0.00035967	0.0002505	6.2942e-05	1036.3	3.6591e-06	3.4709e-06	1114.5	212.43	3.3032e-06	2.4812e-06	270.04	76.031	60.467	17.834	9.8838e-07	25.023	0.0002645	0.00026202	7.3378e-05	1007.3	2.9161e-06	2.8195e-06	1084.6	208.92	2.8672e-06	2.8797e-06	264.75	75.619	59.969	17.964	2.9076e-06	24.982	160.481	180.172	361.493	106.772	231.452	224.477	106.874	114.440	234.333	190.845	114.187	120.570	121.454	128.994	384.341	127.545	-8191	255	
8013.682	1	1	0	0	0.21638	0.12302	0.071729	0.2081	0.25337	0.12052	0.32133	0.15608	0.25699	0.15977	0.056093	0.15694	0.12142	0.3242	0.15755	0.084922	-2.6417	-2.0646	-2.1583	-2.9188	-2.0875	-2.5917	-2.8187	-2.2188	-2.6396	-2.2604	-2.2333	-3.0187	-2.0833	-2.5583	-2.7146	-2.1562	446.678	116.289	147.521	199.146	125.286	375.895	331.118	257.536	383.126	391.851	380.911	101.211	109.760	191.669	221.262	169.976	0.00034899	0.00015228	1.771e-05	1043.4	4.7542e-06	1.1252e-06	1113.7	211.4	3.1642e-06	1.8803e-06	269.27	76.344	60.846	17.68	7.648e-06	24.85	0.00026313	0.00026195	7.4314e-05	1007.8	2.9542e-06	2.9352e-06	1084.5	208.15	2.8978e-06	2.8633e-06	264.65	75.753	60.229	17.936	2.9121e-06	24.927	146.029	231.542	316.497	106.699	250.449	229.629	106.795	114.687	211.504	111.946	113.830	120.951	121.451	128.646	246.202	127.815	-8191	255	
8013.778	1	1	0	0	0.19686	0.034302	0.27714	0.035841	0.34152	0.14901	0.38432	0.22398	0.097278	0.14435	0.15154	0.058849	0.14372	0.12402	0.089795	0.18922	-2.2583	-2.2562	-2.2542	-2.8688	-2.1667	-2.4688	-2.8146	-2.0563	-2.6458	-2.3271	-2.1083	-2.6833	-2.0042	-2.3146	-2.8	-1.8583	146.257	138.762	183.055	396.655	456.101	357.941	410.760	404.659	308.352	439.198	411.571	199.845	229.719	99.765	136.783	138.147	0.00037756	0.00030671	0.0002468	1030.1	2.4121e-06	2.2273e-06	1114.3	211.94	3.9404e-06	3.1401e-06	268.47	76.37	60.283	17.797	4.4653e-06	24.485	0.00026146	0.00025362	7.1665e-05	1002.8	2.8304e-06	2.8121e-06	1084.6	208.31	2.8696e-06	2.842e-06	264.68	75.855	59.913	17.953	3.0078e-06	24.929	153.656	195.277	215.024	106.839	137.566	312.172	106.989	114.792	267.956	322.030	114.032	120.964	121.020	129.039	206.603	128.164	-8191	255	
8013.874	1	1	0	0	0.15632	0.20379	0.27959	0.070666	0.087752	0.27165	0.151	0.10171	0.049673	0.35101	0.1603	0.13491	0.10216	0.18858	0.36012	0.27461	-2.2479	-2.3854	-2.0125	-2.9125	-2.2271	-2.2125	-2.8187	-1.9604	-2.6542	-2.6667	-2.2333	-2.7875	-2.2021	-2.2062	-2.8125	-2.0521	153.714	153.954	238.924	211.840	234.287	417.678	447.304	429.610	201.207	228.338	312.322	451.308	272.085	432.125	141.782	415.891	0.00037111	0.00015868	8.6118e-05	1037.9	1.7993e-06	3.4057e-06	1111.6	211.43	2.3222e-06	5.5721e-06	268.89	76.362	60.753	17.865	3.2828e-06	24.62	0.00027749	0.00027045	7.6338e-05	1005.1	3.0103e-06	3.0895e-06	1084.2	208.54	3.0448e-06	3.0386e-06	264.72	75.99	60.352	17.977	3.0636e-06	24.909	160.308	113.457	413.237	106.817	418.247	214.955	106.918	114.803	258.429	252.891	114.318	121.206	120.724	129.090	251.327	128.290	-8191	255	
8013.970	1	1	0	0	0.14792	0.1255	0.10021	0.16499	0.12217	0.34604	0.35608	0.079417	0.11778	0.044304	0.21724	0.29433	0.11227	0.20438	0.069541	0.22475	-2.0229	-2.5354	-1.825	-2.8292	-2.4292	-2.2229	-2.8688	-2.1604	-2.5563	-2.5854	-2.0479	-2.6333	-2.5646	-2.0938	-2.8229	-2.0958	98.861	202.567	144.812	119.936	235.200	291.550	331.303	394.048	165.544	304.496	367.060	133.545	361.301	345.089	443.724	298.197	0.00031603	0.00028898	0.00010799	1040.9	4.3923e-06	5.2627e-06	1107.9	211.44	2.8068e-06	1.2964e-06	269.1	76.873	60.441	17.628	2.6341e-06	24.817	0.00028012	0.00028024	7.732e-05	1008.4	3.0647e-06	3.0965e-06	1084.3	208.9	3.0792e-06	3.0972e-06	265.05	75.951	60.041	17.905	3.0195e-06	24.928	158.870	144.565	191.748	107.201	292.231	152.687	106.688	114.724	262.567	188.779	114.221	120.841	121.557	128.741	299.270	127.873	-8191	255	
8014.066	1	1	0	0	0.19341	0.060834	0.23012	0.1983	0.14961	0.12047	0.22033	0.1192	0.21405	0.17068	0.10858	0.088519	0.30365	0.2514	0.058733	0.11116	-2.1688	-2.4479	-1.9729	-2.7125	-2.4542	-2.0792	-2.8604	-2.0729	-2.2896	-2.7146	-2.0812	-2.5896	-2.4	-2.0583	-2.8312	-2.2979	354.775	362.708	397.196	419.713	364.252	132.629	412.609	252.809	256.365	144.403	122.389	106.766	226.115	215.372	157.909	425.761	0.00029775	0.00046434	7.7623e-05	1041.8	2.5402e-06	2.3906e-06	1110.8	211.82	2.2715e-06	2.3632e-06	269.01	76.504	60.899	17.593	1.8747e-06	24.663	0.00027951	0.00028052	7.7914e-05	1006	3.0458e-06	3.0736e-06	1084.4	208.27	3.0925e-06	3.0334e-06	264.83	75.858	60.002	17.929	3.0586e-06	24.903	148.434	186.490	127.918	106.927	226.782	188.516	107.264	115.020	218.091	321.835	114.386	121.180	121.563	128.996	272.389	127.701	-8191	255	
8014.162	1	1	0	0	0.063002	0.068444	0.13707	0.16704	0.07048	0.10003	0.24571	0.22292	0.061068	0.14634	0.16903	0.29635	0.18536	0.25766	0.16014	0.059913	-1.9083	-2.7792	-1.9646	-2.6396	-2.7313	-2.0875	-3.0563	-2.3	-2.25	-2.7562	-2.1542	-2.6437	-2.7479	-2.0875	-2.7625	-2.4625	435.541	442.553	269.632	310.106	259.474	107.578	392.087	398.678	394.383	340.604	312.995	389.910	124.818	102.425	388.655	442.336	0.0003432	0.00035573	6.5636e-05	1041.4	4.6446e-06	2.0354e-06	1113.4	211.36	3.2174e-06	3.5355e-06	268.91	76.712	60.432	17.66	1.9305e-06	24.616	0.00028599	0.00027597	7.7757e-05	1007.8	3.1299e-06	3.1316e-06	1084.7	208.41	3.1366e-06	3.0737e-06	264.69	75.975	60.219	17.981	3.0916e-06	24.962	155.514	235.554	287.146	107.222	260.015	246.776	106.960	114.963	234.439	251.786	114.406	121.300	121.720	128.991	187.533	128.262	-8191	255	
8014.258	1	1	0	0	0.096525	0.054469	0.1491	0.28121	0.088555	0.15418	0.057667	0.41707	0.090122	0.18284	0.056654	0.17938	0.080922	0.14909	0.085712	0.10419	-1.7812	-2.7771	-2.1708	-2.5208	-2.7042	-2.0375	-2.8271	-2.6021	-2.0667	-2.9188	-2.0333	-2.3708	-2.8646	-2	-2.6375	-2.525	405.634	345.964	187.572	391.791	301.638	362.661	97.130	407.753	431.632	406.623	311.437	97.394	131.178	130.141	270.747	202.760	0.00031416	0.00018184	0.00011222	1043.2	2.2994e-06	1.8103e-06	1111.3	210.14	5.8323e-06	2.2846e-06	268.01	76.577	60.559	17.619	9.3678e-07	24.366	0.00028618	0.00027762	7.8421e-05	1008.3	3.087e-06	3.0928e-06	1086	208.15	3.1491e-06	3.1051e-06	264.6	75.926	60.088	17.948	3.1124e-06	24.852	145.161	197.428	141.902	106.922	251.856	256.163	107.122	114.937	258.823	215.125	114.369	121.263	121.373	129.097	160.576	128.249	-8191	255	
8014.379	1	1	0	0	0.13513	0.15215	0.35632	0.24172	0.18015	0.32489	0.34483	0.092749	0.10162	0.17414	0.11473	0.10774	0.13524	0.079006	0.28043	0.13908	-1.4417	-2.625	-2.0375	-2.3104	-2.6375	-1.9896	-2.7646	-2.6771	-1.9708	-2.9167	-2.2313	-2.275	-2.6708	-2.0062	-2.5229	-2.7542	158.816	329.159	123.614	286.016	374.905	441.845	447.341	391.231	405.760	141.739	136.190	108.268	206.590	222.227	408.133	191.439	0.00034989	3.808e-05	0.00010314	1039.6	2.1264e-06	3.2311e-06	1120.2	211.14	2.0816e-06	1.7921e-06	269.64	76.562	60.773	17.752	6.7486e-07	24.907	0.0002886	0.0002871	7.7986e-05	1008.6	3.1418e-06	3.1133e-06	1087.1	208.65	3.1891e-06	3.1441e-06	264.91	76	60.316	17.981	3.1426e-06	24.976	148.188	400.463	351.618	107.729	260.952	176.947	107.352	114.741	266.767	315.906	114.316	121.219	121.354	128.849	398.340	127.850	-8191	255	
8014.473	1	1	0	0	0.14911	0.12163	0.24162	0.14939	0.18942	0.11664	0.27761	0.066214	0.28516	0.069595	0.27476	0.099065	0.14922	0.34976	0.084364	0.20607	-1.6417	-2.5875	-2.2062	-2.2417	-2.8479	-2.1167	-2.7	-2.5958	-1.7687	-2.9146	-2.3917	-2.1333	-2.9188	-2.2354	-2.4042	-2.7583	150.003	201.690	269.129	295.990	402.967	241.714	386.526	274.203	324.929	396.726	449.516	124.971	129.820	105.863	292.965	172.274	0.00041128	0.00058465	7.619e-05	1045.5	1.2967e-06	3.0593e-06	1116.3	211.47	2.1992e-06	1.8382e-06	269.48	75.417	60.146	17.721	5.8569e-06	24.631	0.00028738	0.00028033	7.8177e-05	1008.2	3.0584e-06	2.9407e-06	1086.7	208.24	3.0448e-06	2.9776e-06	264.68	75.551	60.164	17.912	3.0591e-06	24.87	155.721	214.567	186.200	107.024	298.246	165.899	107.164	114.934	322.078	436.888	114.279	121.204	121.938	129.252	261.497	128.116	-8191	255	
8014.545	1	1	0	0	0.092769	0.22644	0.21038	0.13305	0.16843	0.31929	0.3034	0.10133	0.13144	0.14518	0.15969	0.2503	0.09257	0.18146	0.11012	0.12459	-1.5104	-2.5563	-2.3917	-2.3146	-2.85	-2.2125	-2.5021	-2.7854	-1.8188	-2.6167	-2.3646	-2.1979	-2.8625	-2.0417	-2.2562	-2.7729	449.386	407.051	326.520	145.268	455.554	256.041	329.365	191.781	349.542	345.802	335.804	421.049	102.813	431.454	124.702	386.702	0.00034824	0.00027623	0.00010645	1039.8	3.4139e-06	2.4971e-06	1111.7	211.92	2.545e-06	2.1253e-06	269.12	76.607	60.446	17.667	1.7228e-06	24.475	0.00028256	0.00028364	7.804e-05	1006.9	3.0873e-06	3.0635e-06	1085.5	208.28	3.0967e-06	3.0475e-06	264.66	75.858	60.056	17.937	3.1085e-06	24.857	162.551	262.083	169.112	107.252	196.983	339.047	107.215	114.853	255.455	301.424	114.267	121.155	121.002	128.974	152.816	128.334	-8191	255	
8014.643	1	1	0	0	0.40018	0.079042	0.32462	0.10816	0.26038	0.18795	0.36867	0.39808	0.24688	0.24337	0.17494	0.15739	0.20731	0.23731	0.18971	0.12064	-1.7104	-2.4062	-2.675	-2.1333	-2.7438	-2.3104	-2.2583	-2.8125	-1.8708	-2.4542	-2.5646	-1.9708	-2.7667	-2.2812	-2.1104	-2.8021	298.403	409.416	114.390	354.602	139.052	447.565	376.173	403.199	104.302	332.586	115.204	143.919	134.812	423.542	378.126	386.464	0.00035355	0.00028212	3.6519e-05	1036.5	5.6948e-06	2.8679e-06	1115.1	212.23	4.1438e-06	6.1831e-06	267.76	76.085	60.337	17.74	4.3457e-06	24.689	0.00028182	0.00027886	7.945e-05	1008.1	3.1155e-06	3.0908e-06	1084.9	208.57	3.0369e-06	3.0456e-06	264.87	75.659	60	17.967	2.9551e-06	24.811	149.605	237.889	122.854	106.954	198.155	230.385	107.138	115.063	258.053	218.841	114.282	121.155	121.420	129.048	220.166	127.916	-8191	255	
8014.762	1	1	0	0	0.2593	0.17517	0.13196	0.076775	0.064718	0.097786	0.39078	0.26101	0.15963	0.27332	0.348	0.14915	0.043257	0.17023	0.20648	0.22994	-1.7437	-2.4958	-2.5375	-2.0062	-2.6021	-2.3729	-2.2833	-2.8271	-2.1708	-2.4167	-2.8187	-1.9729	-2.6	-2.3854	-1.8937	-2.9417	137.543	417.581	365.622	327.556	128.685	162.492	400.803	442.144	177.452	317.535	397.781	416.629	287.310	173.052	348.507	355.065	0.00032562	0.00034988	6.8743e-05	1036	3.2335e-06	1.9155e-06	1112.2	211.54	3.7255e-06	3.7648e-06	267.29	75.743	60.617	17.688	2.111e-06	24.652	0.00027446	0.00026817	7.4751e-05	1004.3	2.9566e-06	3.0071e-06	1083.9	208.47	2.9652e-06	2.9695e-06	263.5	75.554	59.985	17.878	2.9221e-06	24.96	140.876	189.365	245.482	107.123	221.204	165.051	107.360	114.934	267.917	223.598	114.583	121.319	121.976	128.949	213.292	128.075	-8191	255	
8014.858	1	1	0	0	0.14874	0.25929	0.17703	0.22519	0.12922	0.23423	0.28745	0.14527	0.23269	0.11315	0.30489	0.20954	0.071933	0.22201	0.15043	0.07503	-1.7208	-2.2812	-2.9104	-2.0625	-2.6646	-2.5792	-2.0229	-2.8688	-2.2687	-2.2687	-2.7917	-2.0958	-2.4688	-2.4417	-2.025	-2.8063	158.813	414.819	437.019	437.678	138.288	207.005	393.665	424.950	405.280	221.126	112.286	331.850	225.382	430.949	120.185	147.987	0.00034954	1.9079e-05	9.3791e-05	1034.3	4.2716e-06	1.4335e-06	1105.2	210.89	6.7528e-06	7.2461e-07	266.17	75.486	60.209	17.603	3.6129e-06	24.453	0.00026547	0.0002648	7.1651e-05	1004.8	2.8382e-06	2.7586e-06	1080.5	207.39	2.7678e-06	2.7847e-06	263.59	75.375	59.673	17.866	2.772e-06	24.717	163.426	439.535	113.752	107.621	287.066	167.395	107.571	115.292	278.438	447.670	114.834	121.756	121.451	128.864	280.174	127.824	-8191	255	
8014.954	1	1	0	0	0.11795	0.2693	0.045324	0.14904	0.21307	0.28981	0.27784	0.14852	0.15282	0.15259	0.13004	0.28018	0.0060268	0.078978	0.16041	0.088668	-1.8292	-2.1167	-2.7021	-2.0958	-2.5083	-2.6479	-2.0833	-2.7188	-2.4	-2.3479	-2.9792	-2.1646	-2.4896	-2.6937	-1.8667	-2.6854	188.063	179.020	177.590	446.001	336.928	303.020	400.490	330.840	120.128	154.267	450.675	408.600	336.050	415.836	337.335	135.540	0.00036561	0.00046954	0.00010676	1023.6	3.5679e-06	2.1902e-06	1107.2	210.61	1.2883e-06	2.0792e-06	265.93	75.794	59.545	17.509	4.6191e-06	24.426	0.00025552	0.00024797	6.8705e-05	998.27	2.7225e-06	2.7081e-06	1077.5	207.06	2.6792e-06	2.6719e-06	262.62	75.145	59.374	17.72	2.6152e-06	24.644	148.365	191.407	180.925	107.716	335.527	187.124	107.501	115.509	189.730	246.271	114.726	121.298	121.476	129.279	206.465	128.676	-8191	255	
8015.050	1	1	0	0	0.18556	0.14194	0.12722	0.22137	0.069783	0.37401	0.14186	0.11484	0.4253	0.085883	0.081307	0.12712	0.24267	0.41926	0.084611	0.18342	-1.7979	-2.2417	-2.8021	-2.2542	-2.35	-2.6896	-2.2708	-2.7708	-2.3292	-2.1458	-2.8771	-2.2979	-2.2104	-2.9229	-1.9854	-2.8063	370.984	225.807	326.782	364.947	246.733	255.659	433.532	325.203	326.952	374.247	157.467	131.302	405.166	221.759	435.456	336.928	0.00034931	0.00043557	0.00012544	1019.9	8.6888e-07	3.0976e-06	1098	208.19	1.6892e-06	5.2589e-06	265.68	75.093	59.845	17.566	1.5033e-06	24.296	0.00023614	0.00023258	6.2728e-05	991.65	2.4637e-06	2.4654e-06	1074.4	205.71	2.4055e-06	2.4047e-06	261.79	74.778	59.073	17.651	2.4201e-06	24.557	150.656	233.043	190.969	107.543	363.212	228.345	107.476	114.930	201.564	155.466	114.566	121.584	121.432	128.782	286.748	128.655	-8191	255	
8015.171	1	1	0	0	0.12429	0.19547	0.11976	0.21352	0.15753	0.12809	0.15012	0.16947	0.25268	0.29363	0.11666	0.12623	0.1311	0.10232	0.28526	0.024469	-2.2729	-1.9542	-2.9771	-2.2854	-2.3917	-2.9292	-2.1625	-2.6312	-2.5208	-2.3104	-2.9542	-2.4125	-2.3479	-2.7729	-2.1875	-2.4875	120.784	106.123	181.317	452.049	264.977	269.347	415.599	350.147	350.794	347.429	415.911	359.163	141.441	237.251	432.633	428.914	0.00032303	0.00052407	0.00013087	1021.3	2.6402e-06	2.0834e-06	1093.3	208.73	2.5338e-06	3.0287e-06	265.11	75.132	59.667	17.413	7.6474e-07	24.198	0.00022256	0.00022508	6.2707e-05	991.46	2.4573e-06	2.4705e-06	1071.3	205.85	2.5147e-06	2.4811e-06	261.4	74.754	59.061	17.706	2.536e-06	24.506	153.012	180.559	192.078	107.429	249.165	260.407	107.561	115.348	214.452	315.649	114.526	121.303	121.881	129.112	174.693	128.771	-8191	255	
8015.243	1	1	0	0	0.18306	0.13721	0.10207	0.084618	0.20229	0.217	0.13528	0.12273	0.21771	0.48284	0.053441	0.090865	0.09581	0.12555	0.16643	0.034468	-2.3438	-1.8333	-2.75	-2.3125	-2.0604	-2.8104	-2.1833	-2.5917	-2.7292	-2.0938	-2.9458	-2.4771	-2.1729	-2.9354	-2.0708	-2.6146	335.387	368.978	174.137	340.381	366.037	210.068	443.856	430.639	118.359	455.523	148.077	401.517	408.366	438.346	376.612	274.845	0.00035623	0.00029637	2.8637e-05	1013.9	5.4745e-06	1.9513e-06	1092.9	208.08	3.4489e-06	4.0852e-06	266.54	75.358	59.568	17.588	2.6642e-06	24.229	0.0002345	0.00022425	6.2569e-05	988.39	2.4371e-06	2.4021e-06	1069.4	206.05	2.4449e-06	2.4243e-06	262.23	74.737	59.058	17.662	2.4963e-06	24.466	167.473	233.706	392.426	107.491	214.905	201.655	107.479	115.597	266.221	253.788	114.820	121.111	121.442	129.233	253.608	128.069	-8191	255	
8015.363	1	1	0	0	0.18572	0.2193	0.18932	0.13588	0.21125	0.079589	0.19207	0.1948	0.30671	0.15262	0.25227	0.14934	0.28394	0.050971	0.11673	0.19186	-2.3667	-2.1167	-2.6042	-2.4875	-2.1208	-2.85	-2.3521	-2.3646	-2.9208	-2.0125	-2.8646	-2.6125	-2.2354	-2.9813	-2.1937	-2.2292	169.425	158.779	268.268	354.969	401.054	139.586	331.943	434.243	115.317	374.064	394.388	136.233	315.438	214.338	219.886	191.617	0.00036366	0.00036021	6.4031e-05	1016.6	3.6043e-06	1.2972e-06	1087	208.01	2.5229e-06	1.5859e-06	265.86	74.787	59.685	17.664	2.0242e-06	24.225	0.00023156	0.00021954	6.2433e-05	989.4	2.5307e-06	2.4886e-06	1068	205.51	2.4503e-06	2.5068e-06	261.15	74.699	59.113	17.712	2.5307e-06	24.529	150.394	185.107	274.177	107.236	255.998	257.841	107.341	115.134	234.446	271.274	114.892	121.210	121.761	129.599	342.790	128.245	-8191	255	
8015.459	1	1	0	0	0.19579	0.031516	0.13982	0.30907	0.11826	0.093924	0.28185	0.14272	0.23519	0.25719	0.24162	0.2596	0.081648	0.263	0.1451	0.023683	-2.6083	-2	-2.6833	-2.5604	-2.0062	-2.9708	-2.4313	-2.2917	-2.8271	-2.0979	-2.4021	-2.6688	-1.9708	-2.7229	-2.4917	-2.0208	172.040	257.579	215.526	367.332	115.912	219.543	396.868	329.313	405.568	203.097	370.697	242.515	455.637	232.799	258.515	214.697	0.00031164	0.00026258	3.5022e-05	1014.2	3.639e-06	1.6673e-06	1094	207.75	1.1757e-06	3.985e-06	264.09	75.075	59.648	17.619	2.2864e-06	24.338	0.00023281	0.0002293	6.3121e-05	988.03	2.5232e-06	2.4891e-06	1069.5	205.66	2.4634e-06	2.4302e-06	260.93	74.802	59.071	17.702	2.4599e-06	24.51	160.897	121.007	223.873	107.405	179.786	230.369	107.446	114.901	335.100	186.312	114.811	121.215	121.695	129.192	217.828	128.245	-8191	255	
8015.554	1	1	0	0	0.15597	0.16087	0.15191	0.13909	0.14719	0.1712	0.42749	0.19309	0.056245	0.13694	0.1381	0.068701	0.13585	0.45578	0.17697	0.23271	-2.2667	-2.1875	-2.4708	-2.7646	-2.225	-2.7188	-2.6063	-2.1958	-2.6729	-2.0833	-2.3688	-2.7521	-1.9896	-2.7646	-2.4021	-2.1458	369.396	104.946	219.296	179.836	367.311	336.806	378.481	204.894	404.733	358.992	369.151	366.773	292.566	158.370	445.268	322.144	0.00031222	0.0004877	8.6269e-05	1018	3.3894e-06	6.1707e-06	1083.8	207.18	5.3198e-06	2.6966e-06	264.45	75.609	59.443	17.674	4.6764e-06	24.385	0.00023154	0.00022433	6.2095e-05	989.88	2.4582e-06	2.405e-06	1066.6	205.48	2.4623e-06	2.4424e-06	260.98	74.702	59.09	17.702	2.4898e-06	24.545	149.523	189.947	239.753	107.507	226.634	185.010	107.076	115.079	249.349	267.912	114.862	121.335	121.871	129.200	257.948	128.388	-8191	255	
8015.650	1	1	0	0	0.2702	0.072494	0.27607	0.15724	0.093678	0.19908	0.11288	0.06763	0.1916	0.11757	0.16106	0.17139	0.11829	0.2376	0.10254	0.17659	-2.3417	-2.0604	-2.2271	-2.7583	-2.1604	-2.6542	-2.7354	-2.0646	-2.8208	-2.3625	-2.3042	-2.9396	-2.1458	-2.5312	-2.5917	-2.2042	310.201	371.893	337.630	361.492	199.786	203.130	356.910	353.423	103.694	221.775	407.426	221.636	367.457	306.767	447.566	116.007	0.00032167	0.00046405	4.2743e-05	1021.5	5.8278e-07	4.9843e-06	1087.6	208.58	1.9234e-06	2.629e-06	265.21	75.026	59.653	17.371	4.4921e-06	24.126	0.00023789	0.00022673	6.3173e-05	991.76	2.5505e-06	2.5041e-06	1069.8	205.81	2.5116e-06	2.4805e-06	261.2	74.594	58.999	17.621	2.5004e-06	24.48	151.024	195.669	215.217	107.107	180.344	295.010	107.075	115.161	216.661	210.534	114.849	121.339	121.875	129.467	272.244	128.307	-8191	255	
8015.771	1	1	0	0	0.21496	0.19262	0.19342	0.10488	0.077541	0.18995	0.3191	0.069576	0.15982	0.098004	0.14127	0.027617	0.014058	0.14761	0.078669	0.24749	-2.3375	-2.4188	-2.0812	-2.8875	-2.125	-2.4458	-2.725	-1.8792	-2.6146	-2.2646	-2.3083	-2.9562	-1.95	-2.4729	-2.8854	-2.1229	128.581	164.742	380.494	343.019	260.676	275.325	440.356	322.379	369.243	389.214	148.705	432.422	381.534	141.471	167.894	421.223	0.00033135	0.00042507	5.9264e-05	1020.9	4.6034e-06	3.5661e-06	1085.4	207.23	4.5908e-06	3.8511e-06	264.03	75.333	59.299	17.304	3.2449e-06	24.215	0.00023036	0.00022289	6.3405e-05	988.33	2.4755e-06	2.446e-06	1066.7	205.2	2.4565e-06	2.4683e-06	261.27	74.767	58.887	17.594	2.4335e-06	24.492	154.519	138.241	201.062	107.357	270.667	202.390	107.491	115.197	232.400	230.968	114.787	121.528	121.310	129.115	242.693	128.888	-8191	255	
8015.842	1	1	0	0	0.18054	0.15045	0.22525	0.058103	0.21613	0.29865	0.20371	0.18909	0.013483	0.26755	0.075821	0.025094	0.18446	0.083736	0.41505	0.26509	-2.1937	-2.3792	-1.9521	-2.9042	-2.1667	-2.2917	-2.7729	-2.1771	-2.5187	-2.5833	-2.3042	-2.8792	-2.2938	-2.3854	-2.8667	-2.2146	170.913	310.273	162.422	303.528	142.457	113.121	379.483	132.310	124.756	292.910	339.948	227.371	381.309	101.069	231.207	107.282	0.00033005	0.00019409	3.769e-05	1021.7	2.7281e-06	1.6335e-06	1086.7	206.79	4.1575e-06	3.3651e-06	263.58	74.925	59.414	17.44	3.4978e-06	24.059	0.0002281	0.00022638	6.2576e-05	989.24	2.4246e-06	2.4735e-06	1067.8	205.09	2.5206e-06	2.47e-06	260.66	74.757	58.959	17.691	2.4706e-06	24.449	156.924	182.858	282.955	107.293	219.675	289.697	107.401	115.310	292.642	266.668	114.215	121.534	121.401	129.575	247.422	128.092	-8191	255	
8015.938	1	1	0	0	0.13844	0.14155	0.19082	0.13324	0.11205	0.37653	0.13322	0.3936	0.18737	0.06228	0.22905	0.29908	0.08886	0.16929	0.32387	0.16669	-2.0896	-2.6979	-2.05	-2.6958	-2.3521	-2.2771	-2.8875	-2.1104	-2.5104	-2.7292	-2.0312	-2.6146	-2.3167	-2.1542	-2.8708	-2.1854	260.136	426.458	360.005	236.801	276.528	345.039	358.487	404.954	389.575	452.448	149.035	410.541	377.184	427.180	327.410	366.700	0.00026686	0.00053412	5.1979e-05	1013.9	1.9104e-06	3.7967e-06	1086.5	207.69	2.6862e-06	3.1239e-06	263.97	74.724	59.892	17.354	3.5798e-06	24.194	0.00023323	0.00022908	6.3107e-05	987.27	2.5406e-06	2.5573e-06	1067.4	205.4	2.5101e-06	2.5338e-06	261.01	74.691	59.199	17.638	2.4794e-06	24.472	150.951	231.293	150.400	107.764	229.217	300.597	107.489	114.969	293.625	294.485	114.662	121.014	121.472	128.877	220.998	128.133	-8191	255	
8016.059	1	1	0	0	0.20596	0.23244	0.11773	0.096199	0.073826	0.35387	0.013235	0.26664	0.15889	0.11769	0.12964	0.18564	0.10552	0.10705	0.16588	0.33841	-1.9583	-2.7583	-1.9083	-2.7354	-2.2833	-2.175	-2.9646	-2.2167	-2.2875	-2.7062	-2.0729	-2.625	-2.4292	-2.1208	-2.8458	-2.25	339.775	127.082	191.304	435.105	287.654	255.812	331.451	410.367	116.238	353.089	266.370	444.385	439.906	430.455	194.724	337.700	0.00037045	0.00037634	3.4082e-05	1012.8	3.3223e-06	4.0092e-06	1088.9	206.83	4.1659e-06	1.1197e-06	262.55	75.368	59.773	17.359	1.2478e-06	23.898	0.00023598	0.0002248	6.2774e-05	986.74	2.4906e-06	2.4667e-06	1068.9	205.24	2.4973e-06	2.4803e-06	260.95	74.894	59.119	17.683	2.536e-06	24.369	157.499	163.449	202.312	107.624	179.922	181.622	107.269	115.030	269.649	126.780	114.746	121.422	121.927	129.221	185.988	128.598	-8191	255	
8016.155	1	1	0	0	0.2582	0.10555	0.093722	0.13029	0.10344	0.067286	0.021742	0.18139	0.23431	0.23537	0.42311	0.28766	0.10126	0.27002	0.20291	0.16893	-1.7604	-2.85	-2.0292	-2.7083	-2.5	-2.1063	-2.7812	-2.2208	-2.1354	-2.775	-1.9625	-2.4062	-2.5521	-2.0146	-2.6521	-2.3833	178.648	364.719	316.599	310.343	264.999	175.839	321.083	396.205	391.442	119.773	395.647	110.006	98.196	135.750	454.309	424.802	0.00032887	0.00036423	5.8606e-05	1014.7	8.4689e-07	7.1131e-07	1084.7	206.83	4.5689e-06	3.1492e-06	264.81	74.867	59.39	17.388	3.3132e-06	23.988	0.00023703	0.00023094	6.379e-05	988.79	2.5025e-06	2.4648e-06	1067.2	205.2	2.444e-06	2.439e-06	261.27	74.682	59.013	17.635	2.4336e-06	24.383	144.237	165.183	417.014	107.422	237.760	276.895	107.503	114.877	253.928	339.003	114.754	121.356	121.630	128.902	251.268	127.932	-8191	255	
8016.251	1	1	0	0	0.31406	0.18797	0.2352	0.051144	0.16478	0.067313	0.16623	0.29635	0.14981	0.092234	0.30426	0.12705	0.31641	0.066301	0.10365	0.21636	-1.8646	-2.7542	-1.9729	-2.7	-2.5396	-1.7188	-2.7833	-2.4167	-2.1625	-3.0396	-2.2125	-2.4854	-2.6854	-2.075	-2.7646	-2.6646	133.565	170.158	104.138	444.131	351.532	213.008	440.735	98.511	174.687	419.673	358.809	431.855	380.127	369.566	238.186	285.850	0.00030028	0.00011672	4.8534e-05	1009.9	2.1582e-06	2.7645e-06	1090.3	206.45	2.7457e-06	4.4731e-06	261.73	74.407	59.385	17.326	2.6891e-06	24.119	0.00023503	0.0002256	6.3054e-05	985.49	2.4883e-06	2.4311e-06	1069.1	204.99	2.4866e-06	2.4134e-06	259.97	74.656	58.902	17.603	2.4474e-06	24.446	153.407	169.240	246.056	107.831	178.967	192.852	107.463	114.978	293.663	244.797	114.669	121.252	120.933	128.807	232.497	128.337	-8191	255	
8016.348	1	1	0	0	0.12203	0.11118	0.1779	0.074489	0.24783	0.06576	0.13963	0.091075	0.3601	0.088409	0.28403	0.26093	0.25557	0.23033	0.19853	0.29827	-1.7229	-2.7021	-1.9937	-2.3646	-2.6854	-1.9146	-2.7729	-2.4667	-2.0729	-2.6208	-2.2646	-2.4646	-2.7562	-1.9125	-2.4958	-2.575	235.841	325.440	415.991	113.026	170.383	224.822	445.025	303.748	424.035	404.629	236.144	446.653	233.968	120.008	428.055	242.600	0.00031324	0.00033712	6.1172e-05	1010.6	2.0499e-06	1.905e-06	1087.3	206.47	2.1231e-06	3.662e-06	262.58	75.054	58.789	17.51	2.5929e-06	24.23	0.00023175	0.0002245	6.2953e-05	988.21	2.5118e-06	2.4814e-06	1067.7	205.2	2.488e-06	2.4313e-06	260.79	74.642	59.056	17.608	2.5063e-06	24.492	162.913	180.405	249.466	107.825	213.785	244.428	107.557	114.989	228.359	257.131	114.779	121.556	121.540	129.268	287.315	128.315	-8191	255	
8016.444	1	1	0	0	0.20451	0.35387	0.16988	0.19891	0.052955	0.3581	0.069361	0.098472	0.2208	0.11467	0.30924	0.28744	0.37851	0.15212	0.067277	0.26386	-1.5854	-2.7812	-2.2667	-2.2292	-2.9667	-2.0708	-2.7292	-2.6437	-2.025	-2.8833	-2.3271	-1.9771	-2.8979	-2.1271	-2.45	-2.7188	159.202	141.773	294.927	374.862	278.114	164.165	363.695	401.659	453.808	239.573	114.948	181.560	126.731	290.030	341.618	417.377	0.00035498	0.00010869	8.9189e-05	1007.9	4.421e-07	2.6675e-06	1083.6	207.51	4.9883e-06	3.58e-06	262.05	74.755	58.814	17.378	1.3885e-06	23.99	0.00023079	0.00022231	6.234e-05	984.66	2.4288e-06	2.4057e-06	1066.8	205.37	2.4419e-06	2.3987e-06	259.81	74.714	58.855	17.642	2.4694e-06	24.49	151.654	183.058	181.175	107.967	155.220	218.529	107.292	115.239	187.966	262.579	114.949	121.561	121.309	129.156	261.094	128.348	-8191	255	
8016.538	1	1	0	0	0.092359	0.15761	0.1967	0.19993	0.055398	0.050341	0.26366	0.080091	0.20164	0.041922	0.1842	0.099194	0.082751	0.020314	0.038922	0.21435	-1.6	-2.6417	-2.55	-2.1979	-2.7708	-2.1437	-2.5375	-2.6833	-2.0646	-2.9167	-2.4792	-2.0333	-2.9292	-2.1875	-2.2958	-2.8083	218.245	278.793	107.757	382.311	104.830	379.832	406.472	216.946	126.145	344.542	412.443	344.152	437.732	335.640	226.260	134.975	0.00036458	0.00030503	4.7027e-05	1008.4	1.9182e-06	4.0546e-06	1087	206.14	1.2177e-06	1.9453e-06	261.51	74.632	59.231	17.306	2.1066e-06	23.952	0.00023678	0.00022788	6.4911e-05	985.57	2.5039e-06	2.5119e-06	1067.2	205.16	2.5112e-06	2.5055e-06	260.32	74.715	58.993	17.642	2.5406e-06	24.437	157.749	251.414	196.212	107.653	197.414	260.778	107.825	115.256	317.811	307.727	114.831	121.827	121.853	129.363	211.253	128.322	-8191	255	
8016.634	1	1	0	0	0.23724	0.30594	0.14084	0.1315	0.06548	0.19751	0.087024	0.058935	0.053888	0.16493	0.1695	0.39381	0.16847	0.057209	0.029694	0.13689	-1.5958	-2.6208	-2.6312	-1.9083	-2.7104	-2.4396	-2.5229	-2.9646	-2.1083	-2.5271	-2.5812	-1.9167	-2.6021	-2.4271	-2.2375	-2.8187	314.772	170.728	400.791	454.151	143.253	308.258	374.711	346.965	158.686	160.251	293.451	419.723	139.832	157.196	145.190	389.946	0.00039871	0.00021182	6.3918e-05	1007	3.8458e-07	6.1843e-06	1079.4	206.05	1.3261e-06	4.7343e-06	262.32	74.607	59.346	17.381	6.6487e-07	23.914	0.00023246	0.00023011	6.3672e-05	986.13	2.4353e-06	2.5241e-06	1065.7	205.08	2.5167e-06	2.4731e-06	260.23	74.783	58.922	17.634	2.4795e-06	24.419	155.339	428.295	113.308	107.155	182.947	223.076	107.769	115.349	296.606	259.592	114.735	121.136	122.402	129.292	140.506	128.620	-8191	255	
8016.730	1	1	0	0	0.15728	0.17347	0.15369	0.20542	0.11672	0.20178	0.1144	0.20641	0.26441	0.16249	0.33435	0.32029	0.11543	0.11805	0.24026	0.012745	-1.6354	-2.5271	-2.5729	-2.3208	-2.8458	-2.2958	-2.2771	-2.8646	-2.1125	-2.6021	-2.6833	-2.0958	-2.6479	-2.4667	-2.0604	-2.8083	401.045	175.413	450.727	311.233	309.985	368.899	388.616	415.987	161.670	386.899	395.794	385.867	422.356	408.999	400.351	109.202	0.00030476	0.00036849	6.1413e-05	1009.8	4.1928e-06	1.4402e-06	1082.2	206.63	1.2222e-06	6.1617e-06	263.04	74.407	59.204	17.386	4.1455e-06	24.005	0.00023002	0.00022024	5.9949e-05	985.71	2.3914e-06	2.3797e-06	1064.4	205.24	2.4316e-06	2.4293e-06	260.21	74.73	58.864	17.649	2.4559e-06	24.463	164.277	212.612	257.364	107.797	225.632	161.591	107.479	115.157	204.518	261.512	114.518	121.382	121.976	128.548	221.428	128.475	-8191	255	
8016.851	1	1	0	0	0.021095	0.12333	0.17226	0.13707	0.17257	0.087205	0.064965	0.27195	0.21077	0.2056	0.18924	0.19788	0.039056	0.14804	0.094591	0.21523	-1.7375	-2.3229	-2.7292	-1.8292	-2.8042	-2.4313	-2.2792	-2.9625	-2.1917	-2.2938	-2.6667	-2.0167	-2.6375	-2.4583	-1.7771	-2.7292	306.893	128.444	292.926	248.259	138.840	172.489	320.192	381.029	433.089	349.758	148.332	359.145	169.295	178.698	156.787	156.030	0.00030268	0.00042451	5.8725e-05	1016.6	2.9969e-06	5.791e-06	1084	206.87	3.085e-06	4.6255e-06	263.91	74.226	59	17.275	2.3612e-06	23.945	0.00022484	0.00022513	6.211e-05	986.16	2.4781e-06	2.4646e-06	1067	205.43	2.492e-06	2.493e-06	261	74.484	58.963	17.668	2.5277e-06	24.373	163.123	185.225	237.809	107.794	238.115	221.943	107.561	115.499	264.462	266.041	114.959	121.533	122.365	129.192	242.878	128.285	-8191	255	
8016.945	1	1	0	0	0.17533	0.21788	0.19295	0.17765	0.15679	0.35353	0.32984	0.30401	0.079114	0.36601	0.10493	0.04602	0.083524	0.30024	0.094178	0.25458	-1.7729	-2.0667	-2.725	-2.175	-2.475	-2.7396	-2.2292	-2.8187	-2.2188	-2.3458	-2.8271	-2.0938	-2.4604	-2.7313	-1.9771	-2.8542	422.633	120.331	212.359	319.489	233.958	149.883	259.572	222.253	128.783	348.560	329.426	280.111	110.907	156.544	179.472	348.087	0.00028539	0.00017217	3.289e-05	1004.9	2.2684e-06	1.9247e-06	1082.7	207.27	1.8525e-06	1.4413e-06	264.23	74.54	59.285	17.289	3.4856e-06	23.845	0.00023174	0.0002236	6.2625e-05	984.78	2.4736e-06	2.3921e-06	1065.2	205.23	2.4109e-06	2.4e-06	260.83	74.71	59.008	17.584	2.4348e-06	24.404	157.922	175.396	440.013	108.019	274.019	316.050	107.556	115.197	236.595	241.911	114.654	121.168	121.944	129.256	222.159	128.542	-8191	255	
8017.042	1	1	0	0	0.23133	0.037561	0.21721	0.076855	0.012808	0.24348	0.18655	0.17958	0.15015	0.12692	0.15798	0.20928	0.027094	0.094901	0.37896	0.03612	-2	-2.2021	-2.8542	-2.1937	-2.3125	-2.6521	-2.3146	-2.7188	-2.4083	-2.0292	-2.7917	-2.2396	-2.4021	-2.7958	-1.8813	-2.7396	99.304	270.709	177.668	157.400	207.206	190.519	455.434	441.501	315.055	141.537	364.240	454.951	108.654	192.110	179.009	193.743	0.00027213	0.00045727	3.6738e-05	1004.6	3.1766e-06	1.5853e-06	1078.3	206.55	3.4601e-06	4.6597e-06	261.78	74.28	57.952	17.203	3.4964e-06	23.81	0.00022471	0.00022029	6.2289e-05	983.69	2.502e-06	2.4205e-06	1064.8	204.98	2.4708e-06	2.4658e-06	259.67	74.572	58.683	17.578	2.4726e-06	24.462	144.172	214.110	155.330	107.580	228.985	162.916	107.368	115.010	204.931	208.558	114.696	121.521	121.730	129.249	249.797	128.746	-8191	255	
8017.138	1	1	0	0	0.10778	0.036838	0.23723	0.16409	0.19833	0.23604	0.24585	0.034162	0.049076	0.057539	0.18351	0.022777	0.093592	0.097915	0.1284	0.22085	-2.0563	-1.9562	-2.9354	-2.3271	-2.2146	-2.9979	-2.1083	-2.5604	-2.3375	-2.0125	-2.8438	-2.3563	-2.1333	-2.9	-1.9917	-2.4583	335.855	418.897	447.555	369.463	137.973	326.676	119.360	234.545	109.154	124.628	354.114	438.059	150.128	194.410	356.670	101.727	0.00030886	6.1326e-05	0.0001666	1001.8	2.1405e-06	7.5332e-07	1080	205.68	2.6247e-06	1.9498e-06	262.87	74.641	58.91	17.3	3.4583e-06	23.985	0.00022666	0.0002211	6.1115e-05	982.58	2.4096e-06	2.3662e-06	1063.4	205.01	2.3835e-06	2.3817e-06	260.62	74.528	58.794	17.563	2.4385e-06	24.402	156.357	158.604	455.192	107.415	216.469	228.217	107.625	115.041	223.139	224.511	114.855	121.784	121.392	129.541	196.083	128.798	-8191	255	
8017.234	1	1	0	0	0.22447	0.16462	0.30797	0.028543	0.023988	0.19285	0.13292	0.20729	0.21326	0.12038	0.35304	0.052069	0.24809	0.20582	0.19226	0.26994	-2.1437	-2.0333	-2.8125	-2.2875	-2.1521	-2.8979	-2.2271	-2.5708	-2.6063	-1.9167	-2.6521	-2.4771	-1.9604	-3.0104	-2.0167	-2.4729	120.901	195.357	361.065	361.338	112.988	118.228	420.296	196.436	102.111	358.354	423.332	146.278	198.709	121.715	437.568	235.477	0.00038161	0.00049901	9.384e-05	1007.2	4.6691e-06	4.0159e-06	1079.9	206.44	3.334e-06	3.3742e-06	261.82	74.539	58.685	17.353	3.3977e-06	23.991	0.00022464	0.0002244	6.1391e-05	983.58	2.4338e-06	2.3719e-06	1064.6	205.42	2.4271e-06	2.4746e-06	259.7	74.575	58.819	17.561	2.4596e-06	24.358	159.279	260.313	200.487	107.469	260.792	193.397	107.368	115.438	266.189	364.771	114.531	121.501	121.869	129.546	214.777	128.393	-8191	255	
8017.330	1	1	0	0	0.29472	0.26878	0.050045	0.2109	0.1578	0.09914	0.22614	0.23951	0.16498	0.026917	0.20781	0.20642	0.18808	0.12181	0.15117	0.11109	-2.2542	-2.0187	-2.6958	-2.475	-2.1063	-2.775	-2.3812	-2.4625	-2.6875	-1.8937	-2.7333	-2.6771	-2.0687	-2.6708	-2.1458	-2.1333	108.825	368.344	391.908	351.655	357.265	319.440	390.434	114.754	446.762	204.365	366.786	382.458	397.105	214.127	380.252	350.247	0.00037206	0.00015737	7.1521e-05	1003.4	1.905e-06	1.6487e-06	1075.6	206.23	3.7848e-06	3.5553e-06	260.95	74.18	58.917	17.157	3.5405e-06	23.827	0.00022957	0.00022014	6.2934e-05	982.58	2.4636e-06	2.4566e-06	1062.6	205.13	2.4449e-06	2.5224e-06	259.93	74.467	58.815	17.569	2.4836e-06	24.353	152.960	394.649	173.922	107.278	200.682	369.217	107.626	114.995	239.482	259.236	114.822	121.520	121.838	129.340	222.030	128.679	-8191	255	
8017.451	1	1	0	0	0.22745	0.11271	0.10117	0.052877	0.14927	0.29417	0.3296	0.098367	0.1286	0.46824	0.11317	0.11765	0.17833	0.12164	0.06491	0.2507	-2.4625	-1.9917	-2.3104	-2.5792	-2.0833	-2.9292	-2.4229	-2.1833	-2.8625	-2.0208	-2.5583	-2.6188	-2.1	-2.7521	-2.4917	-2.175	406.506	217.077	116.340	443.674	355.229	394.072	378.175	151.199	332.691	297.494	436.490	319.884	378.589	386.050	104.254	415.082	0.00032047	0.00034034	0.0001877	1005.6	5.2963e-07	3.2849e-06	1076.6	205.53	1.4146e-06	9.5435e-07	262.55	74.463	58.78	17.212	2.9665e-06	23.799	0.00023206	0.000224	6.2209e-05	983.22	2.462e-06	2.3982e-06	1062.1	204.75	2.5013e-06	2.4753e-06	260.56	74.61	58.628	17.578	2.4909e-06	24.397	161.556	131.695	166.080	107.643	219.879	186.905	107.638	115.237	301.885	416.563	114.827	121.019	121.547	129.313	236.787	128.777	-8191	255	
8017.547	1	1	0	0	0.23797	0.18607	0.049443	0.15195	0.15111	0.27372	0.047057	0.086245	0.11256	0.10266	0.094653	0.030557	0.34875	0.192	0.043831	0.11249	-2.6646	-2.1792	-2.3604	-2.9375	-1.9167	-2.75	-2.5479	-2.2104	-2.6792	-2.1854	-2.3125	-2.8187	-2.1396	-2.7313	-2.6188	-2.1167	351.001	278.040	142.175	154.494	317.834	391.479	168.686	428.813	165.921	175.639	342.121	389.307	109.089	301.420	121.661	446.662	0.00027451	0.0005947	0.00011446	1009.1	7.5725e-07	8.8855e-07	1076.3	206.55	1.7731e-06	2.7495e-06	262.17	74.571	59.35	17.278	2.4451e-06	24.101	0.00023112	0.00022817	6.3257e-05	984.39	2.5345e-06	2.44e-06	1062.3	205.16	2.5579e-06	2.5825e-06	260.14	74.614	58.869	17.589	2.5434e-06	24.439	153.612	208.499	202.978	107.400	247.732	153.044	107.504	115.294	171.893	337.848	114.847	121.460	121.561	129.200	292.573	128.377	-8191	255	
8017.643	1	1	0	0	0.029751	0.11888	0.10388	0.21655	0.15314	0.19929	0.26321	0.19417	0.075974	0.079065	0.21679	0.073312	0.056078	0.38333	0.1861	0.065433	-2.4021	-2.1417	-2.3542	-2.8521	-1.9979	-2.5146	-2.6625	-2.2229	-2.8354	-2.3583	-2.2021	-2.9229	-2.1188	-2.5625	-2.4854	-1.9583	438.741	117.908	375.214	382.524	236.717	288.897	404.062	140.714	246.838	452.026	395.100	248.328	125.444	162.727	282.709	161.283	0.0002921	0.00060677	0.00010273	1006.4	2.2305e-06	8.575e-07	1081.1	206.67	3.0377e-06	3.3102e-06	262.85	74.027	58.816	17.512	1.8842e-06	24.073	0.00023304	0.00023142	6.3388e-05	982.84	2.5461e-06	2.558e-06	1064.9	204.77	2.547e-06	2.4847e-06	260.47	74.414	58.888	17.648	2.5516e-06	24.485	157.885	165.824	215.908	107.460	210.409	285.346	107.290	115.139	248.807	423.343	114.673	121.299	121.807	129.146	337.480	128.476	-8191	255	
8017.715	1	1	0	0	0.035809	0.096946	0.1993	0.12439	0.2062	0.1861	0.12003	0.03936	0.12649	0.15309	0.22151	0.1063	0.14601	0.13992	0.079926	0.21798	-2.5271	-2.3104	-2.3	-2.9104	-2.0125	-2.4875	-2.6792	-2.1312	-2.6896	-2.3063	-2.2062	-2.9583	-2.0958	-2.5333	-2.6667	-2.1479	429.618	417.111	266.047	108.442	371.605	409.677	283.633	97.467	216.437	305.714	300.490	111.631	145.974	420.852	368.438	198.228	0.00032526	0.00043069	0.0001306	1008.7	1.4155e-07	5.5266e-06	1078.9	206.91	1.4587e-06	2.4881e-06	264.52	74.864	58.776	17.236	2.9976e-06	24.003	0.00023538	0.00023416	6.5824e-05	985.09	2.557e-06	2.5239e-06	1063.2	205.57	2.5878e-06	2.5441e-06	261.06	74.593	58.705	17.605	2.5759e-06	24.433	145.635	154.353	238.348	107.423	424.645	280.962	107.438	115.289	166.859	188.983	115.047	121.371	121.691	129.466	200.502	128.598	-8191	255	
8017.835	1	1	0	0	0.31481	0.1245	0.28644	0.21637	0.19159	0.15337	0.20824	0.39567	0.14608	0.18608	0.31295	0.086397	0.19574	0.24971	0.11864	0.17103	-2.25	-2.5	-1.9854	-2.6188	-2.0979	-2.4958	-2.8208	-1.9667	-2.6729	-2.5917	-2.0958	-2.7479	-2.3021	-2.2	-2.8688	-1.9813	97.858	223.054	400.869	107.440	115.780	197.896	406.182	228.970	108.971	335.734	302.526	455.623	353.170	267.094	124.392	170.310	0.0002869	8.5303e-05	0.0001404	1008.8	3.903e-06	2.9342e-06	1076.1	206.47	3.7033e-06	5.6439e-06	263.19	74.785	59.193	17.241	2.8282e-06	23.965	0.00023969	0.00023437	6.7008e-05	984.67	2.562e-06	2.6055e-06	1062.9	205.17	2.5911e-06	2.5734e-06	260.98	74.856	58.901	17.614	2.5615e-06	24.422	154.706	200.852	214.921	107.514	281.222	196.855	107.321	114.985	294.080	226.088	114.781	121.662	121.553	129.268	243.392	128.860	-8191	255	
8017.930	1	1	0	0	0.17409	0.22389	0.24642	0.05229	0.26747	0.2471	0.28145	0.14616	0.054382	0.10559	0.19746	0.10941	0.15027	0.30077	0.11168	0.09042	-2.2292	-2.6771	-1.8458	-2.8958	-2.3354	-2.325	-2.8604	-2.0271	-2.3146	-2.6437	-2.1271	-2.6917	-2.5167	-2.1833	-2.9896	-1.9542	125.870	227.185	241.914	339.605	369.187	333.029	366.000	110.141	223.075	364.059	425.956	401.098	123.377	355.057	384.242	113.833	0.00030805	0.00039508	9.7671e-05	1004.1	2.2823e-06	4.4206e-06	1078.2	206.51	2.3884e-06	1.4055e-06	260.58	74.652	59.436	17.294	3.0077e-06	24.103	0.00024147	0.00023688	6.5712e-05	981.67	2.582e-06	2.5229e-06	1062.4	205.14	2.5853e-06	2.6054e-06	260.07	74.634	59.074	17.612	2.564e-06	24.452	141.141	168.737	233.884	107.301	223.242	250.250	107.369	114.963	294.154	308.700	114.495	121.451	121.547	129.287	149.542	128.009	-8191	255	
8018.026	1	1	0	0	0.22323	0.11555	0.21803	0.2488	0.20924	0.071334	0.1964	0.24332	0.17953	0.11725	0.2521	0.061391	0.21729	0.18943	0.17993	0.22683	-2.0104	-2.45	-1.7333	-2.7896	-2.425	-2.2917	-2.7917	-2.1792	-2.2812	-2.7125	-2.0812	-2.6854	-2.4917	-2.1167	-2.9292	-2.2354	318.003	422.787	118.286	331.627	196.587	407.111	379.892	420.882	388.666	262.032	260.336	441.396	412.941	411.218	124.099	354.104	0.00029947	0.00024119	0.00012907	1006.2	2.305e-06	1.5815e-06	1082	205.49	2.8774e-06	2.518e-06	261.57	74.219	58.637	17.259	2.0029e-06	24.093	0.00024521	0.00023834	6.7059e-05	985.93	2.5967e-06	2.5882e-06	1063.1	204.82	2.5798e-06	2.5847e-06	260.29	74.605	58.945	17.651	2.573e-06	24.471	151.852	177.277	176.927	107.629	268.771	164.331	107.558	115.098	245.540	137.702	115.023	121.703	121.124	129.257	186.904	128.715	-8191	255	
8018.124	1	1	0	0	0.35002	0.23216	0.12549	0.097255	0.14205	0.30936	0.041216	0.23335	0.071297	0.16841	0.10065	0.13216	0.13936	0.1663	0.15749	0.10523	-1.8813	-2.7771	-2.1521	-2.6	-2.4583	-1.8771	-3.0208	-2.3458	-2.2292	-2.7604	-2.0854	-2.5062	-2.5021	-2.075	-2.6625	-2.3396	101.297	397.572	99.871	360.410	105.626	123.720	336.498	258.818	398.978	115.083	321.214	121.469	400.333	410.613	378.136	302.148	0.00030579	0.00017619	4.5999e-05	1004.6	3.7639e-06	3.9881e-06	1077.3	206.26	5.7743e-07	2.1299e-06	262.04	74.699	59.454	17.216	5.3803e-07	23.991	0.00023898	0.00023669	6.6276e-05	983.82	2.6078e-06	2.6542e-06	1061.7	205.27	2.6459e-06	2.603e-06	260.64	74.597	58.934	17.563	2.6204e-06	24.373	160.928	173.976	141.180	107.756	300.430	202.701	107.505	115.099	281.177	330.583	114.526	121.281	121.175	129.134	169.689	128.304	-8191	255	
8018.243	1	1	0	0	0.26043	0.12631	0.2556	0.11516	0.22637	0.36628	0.27941	0.23258	0.032279	0.14536	0.26689	0.05204	0.17963	0.44859	0.28632	0.15348	-1.7625	-2.9104	-2.1	-2.4708	-2.7812	-2.0417	-2.7188	-2.3979	-2.3542	-2.5938	-2.1063	-2.5458	-2.6813	-2.0312	-2.5312	-2.3542	432.369	130.763	212.885	371.240	335.239	291.280	427.421	445.547	121.995	289.990	351.186	343.276	183.891	438.282	452.051	273.497	0.00031653	0.00029528	8.3624e-05	1004.5	4.9882e-06	2.6596e-06	1079.2	205.96	3.9106e-06	5.918e-06	262.24	74.587	59.002	17.321	1.9379e-06	23.772	0.00024366	0.00023945	6.6916e-05	985.35	2.6394e-06	2.6717e-06	1064.2	205	2.6191e-06	2.612e-06	260.41	74.67	58.923	17.603	2.6206e-06	24.408	140.245	128.079	182.840	107.442	252.404	269.808	107.323	115.296	203.982	248.693	114.937	121.491	121.629	129.337	276.863	128.824	-8191	255	
8018.339	1	1	0	0	0.24543	0.2309	0.13913	0.12765	0.19519	0.26792	0.18804	0.22851	0.23999	0.18597	0.23322	0.18688	0.10366	0.34481	0.11453	0.22699	-1.7771	-2.8396	-2.0271	-2.3354	-2.5917	-2.1021	-2.8729	-2.475	-2.2583	-2.7042	-2.2333	-2.1667	-2.7812	-2.1688	-2.7208	-2.4917	387.642	412.048	419.436	98.573	337.304	430.248	327.801	431.180	211.808	258.222	434.835	414.741	183.465	396.928	168.908	425.953	0.00034155	0.0004401	9.0076e-05	999.84	1.7247e-06	5.4122e-06	1079.4	205.15	2.4511e-06	3.4582e-06	260.31	74.415	58.78	17.147	3.5473e-06	24.088	0.00024093	0.0002364	6.7046e-05	982.75	2.6606e-06	2.6701e-06	1063.4	204.81	2.6328e-06	2.6444e-06	260.16	74.587	58.977	17.598	2.6513e-06	24.474	160.752	219.518	159.618	107.604	253.733	292.306	107.695	115.112	233.171	280.132	114.685	121.302	121.530	129.341	306.036	128.709	-8191	255	
8018.410	1	1	0	0	0.069913	0.19463	0.33239	0.062871	0.20058	0.04182	0.29442	0.14507	0.14032	0.061446	0.12565	0.32981	0.20578	0.099222	0.26614	0.2069	-1.5292	-2.6208	-2.1729	-2.125	-2.7146	-2.0687	-2.6063	-2.6375	-1.7354	-2.8354	-2.3354	-2.2042	-2.9229	-1.9458	-2.5312	-2.6312	192.932	170.680	329.232	449.579	124.185	374.791	405.658	346.108	450.084	129.791	149.823	382.290	111.834	253.808	107.409	436.964	0.0002595	0.00013996	4.618e-05	1008.6	4.7954e-06	2.8981e-06	1077.2	205.23	9.2621e-07	1.0154e-06	261.9	74.397	59.166	17.179	1.566e-06	23.878	0.0002505	0.00024848	7.0349e-05	984.9	2.7306e-06	2.6871e-06	1063.3	205.12	2.6969e-06	2.638e-06	260.48	74.692	59.01	17.545	2.5857e-06	24.471	150.091	317.580	377.618	107.481	164.366	128.569	107.502	115.139	317.043	442.883	114.508	121.801	121.999	129.244	165.634	128.371	-8191	255	
8018.531	1	1	0	0	0.21043	0.2493	0.096771	0.23524	0.051376	0.14754	0.086975	0.04619	0.21676	0.11856	0.024412	0.20042	0.24061	0.1758	0.36669	0.049947	-1.6417	-2.8396	-2.475	-2.0938	-2.9042	-2.2562	-2.675	-2.8312	-2.1479	-2.7313	-2.6875	-2	-2.7687	-2.2188	-2.3729	-2.8042	99.796	296.718	255.339	100.325	397.988	339.248	325.377	301.508	229.209	436.675	270.049	108.748	445.456	400.922	431.704	295.778	0.00033038	0.00023334	3.1065e-05	1000.3	1.1837e-06	2.3745e-06	1078.2	205.85	1.3281e-06	1.0666e-06	262.35	74.22	59.635	17.244	2.169e-06	24.014	0.00024798	0.00023662	6.445e-05	984.19	2.5902e-06	2.5807e-06	1064.2	204.93	2.662e-06	2.6242e-06	260.61	74.566	59.172	17.566	2.6208e-06	24.464	157.786	128.111	238.046	107.566	309.699	210.472	107.496	114.944	222.032	141.791	114.837	121.656	121.237	129.238	246.596	128.274	-8191	255	
8018.627	1	1	0	0	0.13848	0.041299	0.0849	0.22322	0.075041	0.12511	0.24839	0.30604	0.39484	0.015084	0.12243	0.28891	0.12058	0.15563	0.10441	0.1404	-1.5708	-2.5979	-2.3083	-2.3771	-2.8229	-2.0979	-2.4229	-2.675	-1.9688	-2.6437	-2.5667	-2.0542	-2.7646	-2.1792	-2.4021	-2.725	351.456	222.142	109.824	440.922	259.668	322.903	379.691	388.425	399.901	358.743	362.079	201.206	204.491	195.608	396.900	363.922	0.00031252	0.00032205	0.00010825	999.47	1.754e-06	2.6019e-06	1080.1	205.24	4.3201e-06	4.3445e-06	262.17	74.144	59.404	17.257	2.7414e-06	24.042	0.00024724	0.00024031	6.6374e-05	983.87	2.6772e-06	2.6205e-06	1064.1	205.2	2.6038e-06	2.6206e-06	260.67	74.658	58.937	17.589	2.651e-06	24.466	154.766	452.943	264.647	107.332	355.134	148.275	107.598	115.231	305.907	316.190	114.544	121.738	121.808	128.865	252.495	128.443	-8191	255	
8018.723	1	1	0	0	0.12905	0.1525	0.26079	0.14801	0.15548	0.17369	0.35509	0.064515	0.06375	0.20002	0.22921	0.10371	0.12388	0.16581	0.18796	0.16432	-1.7729	-2.6312	-2.5042	-2.1688	-2.7833	-2.2896	-2.2583	-2.6729	-1.9583	-2.6937	-2.7438	-2.0604	-2.7979	-2.4167	-2.0896	-2.8958	389.101	320.480	152.575	254.097	357.399	274.009	115.267	383.477	122.064	315.172	362.250	360.286	300.532	453.878	205.544	281.168	0.00030641	0.00055512	0.00019942	1003.4	1.7312e-06	2.5612e-06	1078.9	207.44	2.2522e-06	2.9586e-06	262.74	74.56	59.052	17.348	3.5713e-06	23.949	0.00024828	0.00024376	6.7795e-05	985.62	2.7237e-06	2.691e-06	1065.2	205.17	2.7653e-06	2.7295e-06	261.16	74.83	59.22	17.68	2.8097e-06	24.492	149.385	210.306	199.014	107.580	226.025	223.312	107.341	115.526	184.289	210.538	114.597	121.389	122.331	129.271	258.737	128.177	-8191	255	
8018.844	1	1	0	0	0.34002	0.14465	0.17395	0.1408	0.030827	0.068457	0.20453	0.20435	0.028779	0.11983	0.16407	0.19046	0.065851	0.10564	0.048142	0.079901	-1.7083	-2.4083	-2.8125	-1.8667	-2.6562	-2.4813	-2.15	-2.925	-2.075	-2.3104	-2.7979	-2.1583	-2.7458	-2.5187	-1.9	-2.9062	331.316	196.659	219.056	329.282	402.215	357.317	371.021	423.821	249.266	405.316	430.248	454.037	272.882	267.871	278.665	373.921	0.00035705	0.00014738	9.3857e-05	1000.4	2.3615e-06	3.1979e-06	1081.2	206.77	4.5218e-06	3.3736e-06	262.19	74.398	58.512	17.249	3.5188e-06	24.018	0.00025493	0.00024941	6.9323e-05	987.21	2.7234e-06	2.7569e-06	1065.4	205.79	2.7308e-06	2.723e-06	261.7	74.737	59.154	17.671	2.7075e-06	24.527	153.635	285.278	221.357	107.194	255.471	184.870	107.728	115.092	289.309	210.396	114.780	121.709	121.787	129.419	193.375	128.460	-8191	255	
8018.938	1	1	0	0	0.049902	0.17302	0.1882	0.1651	0.12098	0.068014	0.21948	0.067953	0.11167	0.041008	0.20416	0.19697	0.19763	0.12316	0.13739	0.13956	-1.9083	-2.125	-2.5458	-2.1688	-2.4813	-2.7167	-2.0292	-2.7938	-2.1646	-2.1667	-2.9562	-2.0604	-2.6417	-2.5604	-2.0146	-2.9521	442.787	316.002	133.587	264.144	324.760	359.659	293.116	168.167	440.936	350.864	307.887	384.233	293.175	420.078	348.517	229.081	0.00030575	0.00015823	8.6315e-05	1004.6	2.5031e-06	5.1261e-06	1076.3	207.06	4.2701e-06	1.6496e-06	260.47	74.381	59.275	17.269	7.8915e-07	23.956	0.0002519	0.0002486	6.9093e-05	985.14	2.751e-06	2.7292e-06	1063.8	205.54	2.7472e-06	2.7642e-06	260.38	74.615	59.12	17.612	2.7182e-06	24.473	160.339	185.411	149.644	107.340	188.503	245.648	107.532	115.178	251.499	266.577	114.512	121.618	121.459	129.107	207.345	128.536	-8191	255	
8019.012	1	1	0	0	0.16755	0.07228	0.17822	0.11069	0.029372	0.21534	0.24979	0.21708	0.14425	0.25591	0.29791	0.15055	0.26771	0.16091	0.25838	0.098176	-1.9333	-2.1729	-3.1625	-2.2479	-2.4896	-2.6875	-2.2125	-2.7667	-2.3063	-2.1188	-2.7146	-2.225	-2.2833	-2.6063	-1.9188	-2.6813	199.382	299.897	438.501	384.156	352.694	417.648	403.793	119.922	390.731	351.529	402.991	343.201	279.733	225.951	212.013	141.914	0.0003047	0.00010286	2.1042e-05	1002.2	1.5484e-06	4.7803e-06	1076.8	205.65	1.7591e-06	5.8887e-06	261.81	74.109	58.875	17.25	4.755e-06	24.053	0.00024719	0.00024543	6.7229e-05	983.84	2.6816e-06	2.6441e-06	1063.6	205.18	2.6732e-06	2.6717e-06	260.72	74.714	59.013	17.568	2.6571e-06	24.429	154.097	246.961	409.429	107.474	104.419	254.297	107.730	115.074	220.813	236.234	114.793	121.578	121.623	129.229	190.766	128.401	-8191	255	
#DATA ENDS
