BOXY.EXE: ISS Imagent and Oximeter Data Acquisition Program Version 0.80
Ascii Record File

#ACQ INFORMATION
2  Detector Channels 
16  External MUX Channels 
1  Auxiliary Channels 
5000  Waveform (CCF) Frequency (Hz)
1  Waveforms Skipped 
30  Waveforms Averaged 
1  Cycles Averaged 
16  Acquisitions per Waveform 
10.0806  Updata Rate (Hz) 

#FILE INFORMATION
TRUE -- External MUX Channel results are PARSED.
FALSE -- AC DC and Phase are NOT grouped.
TRUE -- Companion Program Settings File CREATED.
FALSE -- AC data not excluded
FALSE -- DC data not excluded
FALSE -- Phase data not excluded
FALSE -- Auxillary Chn. data not excluded
Tab delimiters

#CALIBRATION STATE
TRUE -- Waveform Calibration Values APPLIED.


#AUX CALIBRATION VALUES
Val Type	aux-1	

Term	1.0000e+00	
Factor	0.0000e+00	


#WF CALIBRATION VALUES
A = Detector Channel
Val Type	A-AC1	A-AC2	A-AC3	A-AC4	A-AC5	A-AC6	A-AC7	A-AC8	A-AC9	A-AC10	A-AC11	A-AC12	A-AC13	A-AC14	A-AC15	A-AC16	A-DC1	A-DC2	A-DC3	A-DC4	A-DC5	A-DC6	A-DC7	A-DC8	A-DC9	A-DC10	A-DC11	A-DC12	A-DC13	A-DC14	A-DC15	A-DC16	A-Ph1	A-Ph2	A-Ph3	A-Ph4	A-Ph5	A-Ph6	A-Ph7	A-Ph8	A-Ph9	A-Ph10	A-Ph11	A-Ph12	A-Ph13	A-Ph14	A-Ph15	A-Ph16	

Term	0.00000e+00	0.00000e+00	0.00000e+00	0.00000e+00	0.00000e+00	0.00000e+00	0.00000e+00	0.00000e+00	0.00000e+00	0.00000e+00	0.00000e+00	0.00000e+00	0.00000e+00	0.00000e+00	0.00000e+00	0.00000e+00	0.00000e+00	0.00000e+00	0.00000e+00	0.00000e+00	0.00000e+00	0.00000e+00	0.00000e+00	0.00000e+00	0.00000e+00	0.00000e+00	0.00000e+00	0.00000e+00	0.00000e+00	0.00000e+00	0.00000e+00	0.00000e+00	0.00000e+00	0.00000e+00	0.00000e+00	0.00000e+00	0.00000e+00	0.00000e+00	0.00000e+00	0.00000e+00	0.00000e+00	0.00000e+00	0.00000e+00	0.00000e+00	0.00000e+00	0.00000e+00	0.00000e+00	0.00000e+00	
Factor	1.00000e+00	1.00000e+00	1.00000e+00	1.00000e+00	1.00000e+00	1.00000e+00	1.00000e+00	1.00000e+00	1.00000e+00	1.00000e+00	1.00000e+00	1.00000e+00	1.00000e+00	1.00000e+00	1.00000e+00	1.00000e+00	1.00000e+00	1.00000e+00	1.00000e+00	1.00000e+00	1.00000e+00	1.00000e+00	1.00000e+00	1.00000e+00	1.00000e+00	1.00000e+00	1.00000e+00	1.00000e+00	1.00000e+00	1.00000e+00	1.00000e+00	1.00000e+00	X	X	X	X	X	X	X	X	X	X	X	X	X	X	X	X	

B = Detector Channel
Val Type	B-AC1	B-AC2	B-AC3	B-AC4	B-AC5	B-AC6	B-AC7	B-AC8	B-AC9	B-AC10	B-AC11	B-AC12	B-AC13	B-AC14	B-AC15	B-AC16	B-DC1	B-DC2	B-DC3	B-DC4	B-DC5	B-DC6	B-DC7	B-DC8	B-DC9	B-DC10	B-DC11	B-DC12	B-DC13	B-DC14	B-DC15	B-DC16	B-Ph1	B-Ph2	B-Ph3	B-Ph4	B-Ph5	B-Ph6	B-Ph7	B-Ph8	B-Ph9	B-Ph10	B-Ph11	B-Ph12	B-Ph13	B-Ph14	B-Ph15	B-Ph16	

Term	0.00000e+00	0.00000e+00	0.00000e+00	0.00000e+00	0.00000e+00	0.00000e+00	0.00000e+00	0.00000e+00	0.00000e+00	0.00000e+00	0.00000e+00	0.00000e+00	0.00000e+00	0.00000e+00	0.00000e+00	0.00000e+00	0.00000e+00	0.00000e+00	0.00000e+00	0.00000e+00	0.00000e+00	0.00000e+00	0.00000e+00	0.00000e+00	0.00000e+00	0.00000e+00	0.00000e+00	0.00000e+00	0.00000e+00	0.00000e+00	0.00000e+00	0.00000e+00	-2.55034e+02	-1.42192e+02	-1.58171e+02	-1.83275e+02	-9.83914e+01	-9.52191e+01	-1.58166e+02	-1.62015e+02	-1.11076e+02	-8.25393e+01	-1.72759e+02	-1.71492e+02	-1.85060e+02	-1.78311e+02	-8.15946e+01	-1.51161e+02	
Factor	6.84074e-05	1.16036e-04	3.77825e-05	1.75057e-01	1.19124e-06	1.02847e-06	2.01126e-01	6.52604e-02	1.39494e-06	1.20521e-06	1.15205e-01	3.44855e-02	6.48392e-02	1.06986e-02	1.09788e-06	1.56755e-02	7.61801e-07	7.68646e-07	2.13154e-07	8.53154e-02	8.43469e-09	8.40861e-09	9.13502e-02	3.13959e-02	8.44513e-09	8.40387e-09	5.21703e-02	1.57552e-02	2.79534e-02	5.07005e-03	8.41014e-09	7.10043e-03	X	X	X	X	X	X	X	X	X	X	X	X	X	X	X	X	



#DISTANCE SETTINGS
A = Detector Channel
A-1	A-2	A-3	A-4	A-5	A-6	A-7	A-8	A-9	A-10	A-11	A-12	A-13	A-14	A-15	A-16	

2.5000e+00	3.0000e+00	2.5000e+00	3.0000e+00	2.0000e+00	3.0000e+00	1.5000e+00	3.0000e+00	3.0000e+00	3.0000e+00	3.0000e+00	3.0000e+00	3.0000e+00	3.0000e+00	1.5000e+00	3.0000e+00	

B = Detector Channel
B-1	B-2	B-3	B-4	B-5	B-6	B-7	B-8	B-9	B-10	B-11	B-12	B-13	B-14	B-15	B-16	

1.0000e+01	1.0000e+01	1.0000e+01	1.4400e+00	1.0000e+01	1.0000e+01	1.5100e+00	1.9400e+00	1.0000e+01	1.0000e+01	1.9900e+00	2.4900e+00	2.4100e+00	2.9000e+00	1.0000e+01	2.9800e+00	




#DATA BEGINS
time	group	step	mark	flag	A-AC1	A-AC2	A-AC3	A-AC4	A-AC5	A-AC6	A-AC7	A-AC8	A-AC9	A-AC10	A-AC11	A-AC12	A-AC13	A-AC14	A-AC15	A-AC16	A-DC1	A-DC2	A-DC3	A-DC4	A-DC5	A-DC6	A-DC7	A-DC8	A-DC9	A-DC10	A-DC11	A-DC12	A-DC13	A-DC14	A-DC15	A-DC16	A-Ph1	A-Ph2	A-Ph3	A-Ph4	A-Ph5	A-Ph6	A-Ph7	A-Ph8	A-Ph9	A-Ph10	A-Ph11	A-Ph12	A-Ph13	A-Ph14	A-Ph15	A-Ph16	B-AC1	B-AC2	B-AC3	B-AC4	B-AC5	B-AC6	B-AC7	B-AC8	B-AC9	B-AC10	B-AC11	B-AC12	B-AC13	B-AC14	B-AC15	B-AC16	B-DC1	B-DC2	B-DC3	B-DC4	B-DC5	B-DC6	B-DC7	B-DC8	B-DC9	B-DC10	B-DC11	B-DC12	B-DC13	B-DC14	B-DC15	B-DC16	B-Ph1	B-Ph2	B-Ph3	B-Ph4	B-Ph5	B-Ph6	B-Ph7	B-Ph8	B-Ph9	B-Ph10	B-Ph11	B-Ph12	B-Ph13	B-Ph14	B-Ph15	B-Ph16	aux-1	digaux	

2053.213	1	1	0	256	0.13967	0.18685	0.079999	0.24131	0.12054	0.16383	0.27116	0.26616	0.20517	0.068204	0.020576	0.11624	0.35284	0.063097	0.085225	0.22653	-2.5125	-1.775	-2.8812	-2.1646	-2.0687	-2.9167	-2.1188	-2.5021	-2.7729	-1.9854	-3.0792	-2.4562	-2.1521	-2.9479	-1.9167	-2.6104	426.370	381.435	181.814	429.985	440.347	397.193	408.354	282.389	333.720	141.351	364.530	361.038	316.825	421.945	179.804	430.251	0.00416	0.0013535	0.00062674	808.04	1.726e-06	5.7391e-06	1135.7	305.8	6.5342e-06	1.7185e-05	534.4	236.69	140.83	69.002	1.0182e-05	131.69	0.00076735	0.00066728	0.00021273	797.09	7.9338e-06	7.4433e-06	1075.3	296.86	8.0412e-06	7.3377e-06	501.48	217.35	133.22	63.908	8.5003e-06	118.63	401.327	149.184	167.189	101.707	351.468	246.856	102.277	107.697	272.096	217.902	106.447	109.866	112.148	116.488	280.909	114.522	-8191	255	
2053.332	1	1	0	0	0.32893	0.12449	0.023934	0.20314	0.097718	0.18789	0.26999	0.24127	0.12143	0.12408	0.154	0.30729	0.19707	0.24931	0.19209	0.13335	-2.3583	-2.0208	-2.6312	-2.6583	-1.8438	-2.8125	-2.3333	-2.3875	-2.8583	-1.9688	-2.7542	-2.8667	-1.9771	-2.8667	-2.2875	-2.4146	235.761	328.049	193.275	443.443	114.471	93.116	411.305	119.105	180.094	439.732	370.591	409.330	352.215	449.061	142.489	288.655	0.0035286	0.0011757	0.00021087	814.68	5.4729e-06	1.2648e-05	1127.9	307.37	1.7648e-05	1.1408e-05	531.94	237.76	142	69.889	6.0959e-06	132.34	0.00073602	0.00068351	0.00021629	795.05	7.5954e-06	7.6709e-06	1076.2	295.73	7.5794e-06	7.7772e-06	501.84	218.17	132.44	64.464	8.5274e-06	118.83	407.958	178.071	201.623	101.708	418.873	206.391	101.365	107.948	365.000	188.989	106.494	110.003	110.433	115.822	213.725	114.316	-8191	255	
2053.428	1	1	0	0	0.10633	0.11023	0.16959	0.26443	0.19075	0.066332	0.033533	0.10647	0.18689	0.052259	0.20036	0.29925	0.21742	0.39369	0.096034	0.15282	-2.475	-1.775	-2.6208	-2.6146	-1.95	-2.8833	-2.3708	-2.3333	-2.8083	-2.0187	-2.7896	-2.9125	-2.2125	-3.1104	-2.2083	-2.2458	349.288	124.030	389.406	445.257	283.136	179.755	127.121	232.351	402.950	250.274	366.943	408.597	111.782	427.458	425.231	347.312	0.0036583	0.001758	0.0005199	806.73	1.0755e-06	5.2588e-06	1129.4	306.36	1.1161e-05	8.8718e-06	531.49	237.5	140.3	69.952	1.4467e-05	131.88	0.00070203	0.00072484	0.00021336	790.61	7.2307e-06	8.1116e-06	1075.9	295.71	7.2585e-06	8.1246e-06	501.85	217.41	131.81	64.817	8.2693e-06	118.43	404.940	138.416	218.738	102.100	232.635	203.945	101.639	107.490	254.604	235.384	105.548	110.570	112.061	116.553	201.595	113.607	-8191	255	
2053.524	1	1	0	0	0.48164	0.13117	0.082081	0.30845	0.19301	0.25941	0.16031	0.066259	0.017585	0.19317	0.2309	0.34869	0.20345	0.28478	0.26112	0.30661	-2.5792	-2	-2.5438	-2.9146	-1.825	-2.9562	-2.3958	-1.9604	-2.7542	-2.1167	-2.5438	-2.9292	-1.9729	-2.7583	-2.5875	-2.2729	221.760	442.437	179.549	387.773	206.308	179.807	395.216	428.525	276.950	414.011	283.327	370.294	122.538	403.702	323.418	427.809	0.0039984	0.00055691	8.0751e-05	808.27	6.0722e-06	2.6308e-06	1124	306.48	1.0359e-05	1.5474e-05	535.01	236.28	141.12	69.99	1.6139e-05	133.27	0.00068906	0.0007552	0.00020739	788.28	7.2366e-06	8.3363e-06	1072.8	293.48	7.3626e-06	8.3966e-06	499.62	216.22	131.98	65.061	8.0449e-06	118.8	405.813	407.027	139.330	102.064	165.214	136.378	101.387	107.582	150.506	198.593	106.457	110.574	111.750	115.524	214.883	114.193	-8191	255	
2053.620	1	1	0	0	0.19201	0.047557	0.32931	0.17752	0.22743	0.14977	0.082928	0.34343	0.016459	0.42308	0.18846	0.065712	0.28321	0.34311	0.07962	0.34545	-2.4583	-2.2	-2.2542	-2.9271	-1.9562	-2.7729	-2.6417	-1.9646	-2.9521	-2.2771	-2.4	-3.0458	-1.9958	-2.6813	-2.7979	-2.0438	247.155	437.498	278.977	349.544	208.158	282.477	420.901	381.998	383.011	431.034	408.127	140.972	432.459	411.095	420.366	439.804	0.0046104	0.0015976	7.3602e-05	809.86	8.825e-06	1.1169e-05	1122.7	305.44	1.6799e-05	1.6846e-06	532.84	238.07	139.76	70.106	7.8565e-06	133.27	0.00071587	0.0007667	0.00019776	784.66	7.6302e-06	8.3056e-06	1071	291.96	7.6748e-06	8.343e-06	497.95	216.25	133.21	65.29	7.8589e-06	118.94	404.719	166.690	395.748	102.322	181.322	279.966	102.141	106.902	209.532	190.952	106.840	110.345	111.647	116.185	315.459	114.575	-8191	255	
2053.717	1	1	0	0	0.025674	0.33568	0.14643	0.24477	0.1316	0.15441	0.023268	0.072716	0.10526	0.14876	0.2339	0.2683	0.22892	0.12027	0.21084	0.26959	-2.5312	-2.3312	-2.0708	-2.7833	-2.0167	-2.4333	-2.9729	-2.1771	-2.9354	-2.3146	-2.2833	-3.0646	-2.0521	-2.6729	-2.7875	-2.0854	183.390	130.052	334.709	399.257	176.241	247.521	368.396	196.591	163.538	135.749	448.141	442.584	411.628	104.557	373.724	396.275	0.0043795	0.00072677	0.00036827	808.88	1.5163e-05	3.6087e-06	1137.4	305.98	1.129e-05	5.0586e-06	530.87	239.73	141.47	70.248	3.111e-06	133.51	0.00074901	0.00075414	0.00019424	785.32	7.967e-06	8.1029e-06	1076.6	291.66	8.1355e-06	8.0957e-06	495.75	216.75	134.97	65.268	7.5416e-06	119.22	399.896	204.024	171.121	101.763	162.919	164.090	101.528	107.085	187.821	371.546	106.122	110.672	111.209	116.232	246.388	113.874	-8191	255	
2053.813	1	1	0	0	0.20504	0.21641	0.15366	0.088214	0.36211	0.22708	0.06441	0.11376	0.22536	0.13825	0.10688	0.25981	0.15583	0.04247	0.031225	0.075315	-2.2604	-2.4313	-2.0563	-2.8563	-2.0062	-2.4583	-2.8479	-1.8458	-2.7542	-2.4667	-2.0292	-2.9042	-2.1688	-2.4667	-2.9125	-2.2021	233.878	118.105	344.288	436.876	147.737	350.851	321.870	185.500	317.608	134.303	392.756	414.063	386.883	403.880	94.251	411.821	0.003606	0.00036477	0.00025574	812.22	1.3738e-05	5.193e-07	1130.8	307.2	1.0937e-05	7.6807e-06	534.25	237.87	141.16	70.211	1.1909e-06	133.3	0.0007742	0.00073424	0.00018685	789.39	8.3377e-06	7.8871e-06	1071	292.71	8.3426e-06	7.9829e-06	493.95	216.27	135.07	64.97	7.2714e-06	118.91	404.682	190.152	199.412	102.122	215.066	155.354	101.350	107.835	226.834	274.264	105.293	110.480	111.366	116.043	94.354	113.364	-8191	255	
2053.933	1	1	0	0	0.14179	0.20196	0.22775	0.17135	0.15131	0.24698	0.091448	0.13614	0.12707	0.28675	0.089818	0.12199	0.21061	0.26093	0.22336	0.20931	-2.4062	-2.4771	-1.9104	-3.1604	-2.1937	-2.1688	-3.0021	-2.125	-2.5292	-2.7146	-2.0938	-2.9875	-2.3125	-2.2229	-2.8625	-2.2021	160.357	330.410	317.091	408.152	194.063	191.885	392.739	110.432	299.944	94.329	189.675	146.247	177.884	393.304	343.679	407.588	0.0039301	0.00072086	0.00022797	813.87	1.0777e-05	6.6614e-06	1138.8	307.04	4.6787e-06	2.4367e-06	533.2	237.97	141.48	70.224	5.8223e-06	133.72	0.00077378	0.00071621	0.00017835	790.68	8.1481e-06	7.6101e-06	1066.7	293.72	8.0269e-06	7.5847e-06	492.06	217.16	134.57	64.765	6.9378e-06	119.66	417.363	91.025	130.351	101.834	145.294	172.251	101.873	107.718	361.489	273.866	105.796	109.631	110.728	115.347	208.932	113.848	-8191	255	
2054.028	1	1	0	0	0.19541	0.15836	0.14856	0.22592	0.15493	0.15402	0.16716	0.17255	0.065969	0.14894	0.1694	0.042217	0.26338	0.20011	0.16826	0.062561	-2.2167	-2.6667	-2.0208	-2.8979	-2.6813	-1.975	-3.0917	-1.9521	-2.4208	-2.7542	-1.9271	-2.9333	-2.5417	-2.1375	-2.7458	-2.2917	124.977	442.155	204.295	293.260	155.000	410.953	429.424	91.898	348.157	221.972	106.070	172.935	444.327	402.608	398.287	390.343	0.003546	0.0010484	2.8666e-05	818.68	1.518e-05	2.2813e-06	1139	305.52	1.0722e-05	4.4126e-06	535.85	240.12	142.44	71.018	1.4155e-06	134.69	0.00074225	0.00068018	0.00017494	796.04	7.8772e-06	7.2561e-06	1069.3	294.97	7.6736e-06	7.276e-06	493.28	218.59	134.21	65.015	7.145e-06	120.59	404.641	211.658	409.734	102.085	208.596	347.771	101.604	107.498	202.153	295.320	106.257	110.269	111.947	116.211	163.649	114.037	-8191	255	
2054.126	1	1	0	0	0.025589	0.12589	0.051678	0.24274	0.38483	0.1416	0.09336	0.082263	0.30779	0.052793	0.14693	0.13118	0.18026	0.3439	0.13214	0.22508	-1.8458	-2.7979	-1.9813	-2.6375	-2.6333	-1.9771	-3.1312	-2.3167	-2.2562	-2.7792	-2.1625	-2.7125	-2.4917	-2.4104	-2.8104	-2.5938	259.623	354.479	287.151	414.359	443.502	310.803	222.271	279.121	188.740	420.572	446.770	92.610	383.864	416.473	396.948	394.612	0.0040442	0.000447	0.00073086	813.73	9.6304e-06	4.6847e-06	1142	308.68	1.0277e-05	9.4384e-06	536.73	238.68	142.07	70.909	1.6889e-05	134.42	0.00071302	0.00064927	0.00018123	797.01	7.6752e-06	6.8128e-06	1073.4	296.41	7.534e-06	7.0252e-06	497.04	218.75	133.55	64.812	7.5294e-06	120.64	409.248	114.110	138.933	102.412	344.817	265.628	101.828	107.592	225.468	338.308	105.288	109.637	110.134	115.107	234.104	113.388	-8191	255	
2054.220	1	1	0	0	0.14883	0.16269	0.12789	0.29464	0.11388	0.057657	0.28444	0.22464	0.19791	0.062232	0.039351	0.17503	0.27315	0.16923	0.24446	0.2619	-1.7771	-2.7896	-1.9208	-2.5354	-2.5292	-1.8813	-2.8854	-2.6167	-2.2104	-3.0125	-2.1854	-2.5938	-2.8042	-1.8833	-2.9	-2.4813	438.697	135.394	200.577	356.795	171.961	347.360	415.131	405.670	322.156	340.673	157.350	379.494	165.659	388.290	331.208	377.236	0.0040754	6.459e-05	0.00021434	815.39	7.5059e-06	7.316e-06	1142.4	307.32	6.2355e-06	1.2898e-05	533.07	239.49	141.73	71.034	1.0328e-05	134.03	0.00070086	0.00063039	0.00019362	794.87	7.4746e-06	6.7449e-06	1077.3	295.7	7.2736e-06	6.7627e-06	499.28	218.27	132.84	64.884	7.7851e-06	120.38	409.784	210.889	127.941	102.295	149.061	329.869	101.638	107.593	226.925	172.986	105.472	110.776	111.771	116.266	251.306	113.892	-8191	255	
2054.316	1	1	0	0	0.092873	0.035148	0.16256	0.089565	0.050754	0.2066	0.22395	0.14465	0.25591	0.22338	0.26528	0.14321	0.26591	0.13878	0.27446	0.23943	-1.5979	-2.8854	-2.1896	-2.5708	-2.8854	-2.0458	-2.8521	-2.6896	-1.95	-2.8792	-2.2354	-2.4271	-2.8542	-2.1396	-2.7083	-2.7687	382.008	283.803	389.700	90.295	225.940	145.695	389.430	404.514	159.950	321.572	292.135	343.705	439.216	109.344	145.801	363.823	0.0035824	0.00059353	0.00027616	814.28	1.3589e-05	1.3103e-05	1141.2	306.49	1.9788e-05	1.0841e-05	536.46	239.14	142.91	70.683	5.7662e-06	134.09	0.00067894	0.00062932	0.00019986	791.51	7.1916e-06	6.9228e-06	1082.2	294.77	7.0321e-06	7.0468e-06	501.19	218.16	131.97	65.091	7.9151e-06	120.35	398.142	154.704	97.142	102.184	316.619	205.064	101.956	107.424	198.609	210.994	105.524	110.301	110.915	115.777	176.125	113.802	-8191	255	
2054.412	1	1	0	0	0.15203	0.18795	0.27515	0.19927	0.057209	0.11385	0.30231	0.15896	0.020373	0.10483	0.14237	0.36584	0.26718	0.36446	0.049873	0.19428	-1.6396	-2.9	-2.35	-2.3854	-2.8312	-1.8667	-3.0792	-2.7125	-1.8646	-2.9188	-2.2521	-2.3854	-2.9604	-2.1	-2.6188	-2.8917	118.058	271.449	313.987	298.876	331.239	100.371	437.519	337.851	207.574	152.248	264.168	106.366	114.699	400.576	323.003	328.220	0.0040395	0.0003008	0.00038379	814.7	7.4761e-06	1.7286e-05	1144.4	306.66	8.0568e-06	1.2685e-05	534.82	240.35	142.65	70.644	7.4537e-06	134.52	0.00065196	0.00066676	0.00020384	794.13	7.0713e-06	7.4789e-06	1086.3	294.76	6.8858e-06	7.6165e-06	501.73	218.55	131.48	65.128	7.9394e-06	120.41	411.679	157.874	205.696	102.191	234.272	193.700	101.566	107.019	169.748	240.594	106.065	110.711	111.152	116.311	225.801	113.809	-8191	255	
2054.508	1	1	0	0	0.40394	0.38147	0.22323	0.079825	0.058848	0.070127	0.23514	0.084158	0.15068	0.081371	0.12555	0.12897	0.14509	0.075195	0.18286	0.069324	-1.4646	-2.8542	-2.2771	-2.1167	-2.8646	-1.9	-2.4333	-2.6667	-2.0458	-2.7292	-2.4729	-2.2229	-2.9333	-2.2938	-2.4396	-2.9292	234.867	210.702	230.944	122.036	403.134	191.076	366.028	309.784	161.579	392.488	342.849	433.176	399.739	405.805	375.734	434.312	0.0039056	0.00091665	1.8523e-05	816.43	1.1508e-05	1.2962e-05	1148	308.47	1.0294e-05	7.3352e-06	536.25	240.49	141.21	70.391	3.3034e-06	133.91	0.00065119	0.00071116	0.00020006	793.38	6.9166e-06	7.7947e-06	1087.1	294	6.84e-06	7.8936e-06	500.6	217.45	131.46	65.192	7.5915e-06	119.58	414.106	160.905	231.262	102.406	217.118	150.031	101.906	107.383	142.734	273.977	106.333	110.526	111.615	115.826	253.025	114.116	-8191	255	
2054.629	1	1	0	0	0.15175	0.17864	0.030299	0.27643	0.2241	0.0042398	0.056964	0.10092	0.081735	0.27859	0.246	0.37185	0.077849	0.076926	0.22752	0.2263	-1.5125	-2.6583	-2.6396	-1.9083	-2.875	-2.1271	-2.5687	-2.75	-1.9292	-2.7104	-2.7313	-2.1042	-2.875	-2.2333	-2.1354	-2.9437	111.625	102.216	323.958	410.102	355.199	211.183	339.885	285.929	276.358	103.563	155.782	335.061	252.613	248.996	222.983	388.446	0.0042367	0.00062672	7.1177e-05	819.39	1.146e-05	9.9273e-06	1146.7	306.54	1.3381e-05	2.8762e-06	538.66	240.19	142.05	70.253	8.6772e-06	134.22	0.00066381	0.00072856	0.00019505	791.63	7.2313e-06	8.0179e-06	1082.6	292.76	7.2374e-06	7.9053e-06	499.9	216.86	132.89	65.29	7.3939e-06	119.24	401.825	134.319	162.330	102.293	203.853	218.479	101.910	107.312	208.976	138.256	106.065	110.107	111.647	116.163	143.696	114.217	-8191	255	
2054.701	1	1	0	0	0.12535	0.04753	0.075975	0.29739	0.18702	0.10883	0.33744	0.2316	0.32159	0.23754	0.15906	0.34802	0.20254	0.12301	0.067173	0.20704	-1.5812	-2.6979	-2.4688	-2.0771	-2.7104	-2.3146	-2.4604	-2.9917	-2.0438	-2.3479	-2.8146	-2.3063	-2.9688	-2.65	-2.0542	-3.1958	221.635	239.870	435.463	441.056	395.596	401.715	379.263	301.881	383.391	278.585	162.440	437.515	298.010	405.458	93.953	415.309	0.0040379	0.0010086	0.00031987	821.13	1.0585e-05	7.4392e-06	1143.1	307.91	7.0064e-06	5.7318e-06	536.72	241.5	142.21	70.092	2.0034e-05	134.09	0.00070374	0.00071433	0.00018973	789.19	7.5511e-06	7.9005e-06	1079.1	292.38	7.7278e-06	7.7833e-06	499.39	217.85	134.66	65.068	7.2782e-06	119.52	409.176	207.674	103.520	102.350	183.417	248.421	102.184	107.388	171.304	426.560	106.187	110.594	111.067	115.562	261.613	114.266	-8191	255	
2054.797	1	1	0	0	0.099095	0.18955	0.13967	0.05297	0.17692	0.15034	0.051974	0.20427	0.21882	0.24788	0.1036	0.44894	0.092741	0.22031	0.13603	0.22598	-1.5938	-2.4813	-2.6792	-2.0021	-2.7229	-2.4208	-2.3021	-2.8896	-2.1729	-2.2729	-2.9208	-2.0646	-2.7292	-2.5979	-1.8104	-2.9625	205.358	430.588	163.194	304.955	291.598	396.353	232.683	304.252	186.072	170.526	439.327	395.566	274.501	392.464	377.042	313.087	0.0041863	0.0007955	0.00019927	817.43	8.193e-06	1.0463e-05	1146.3	307.14	1.5186e-05	6.6405e-06	536.13	240.57	141.06	70.509	7.3003e-06	134.58	0.00074819	0.0007006	0.00018491	788.3	7.9305e-06	7.7206e-06	1077.9	293.09	8.0628e-06	7.6528e-06	497.77	218.39	135.33	65.191	7.0277e-06	120.19	411.195	392.998	124.009	101.856	218.436	268.680	101.804	107.737	217.171	291.497	106.443	110.970	111.176	115.067	305.245	113.923	-8191	255	
2054.893	1	1	0	0	0.10043	0.1957	0.19075	0.15057	0.13467	0.24004	0.26429	0.24409	0.17227	0.28844	0.15965	0.11236	0.17181	0.35	0.15302	0.1788	-1.6562	-2.4083	-2.8854	-2.0375	-2.7375	-2.5	-2.1396	-2.8146	-2.2896	-2.2792	-2.7812	-2.1479	-2.4562	-2.6875	-1.7083	-3.0583	331.277	201.561	418.905	446.363	310.642	138.134	358.556	272.611	395.047	128.927	115.159	91.014	211.474	416.038	337.999	434.611	0.0046096	0.0015154	0.00022892	817.87	1.3334e-05	6.6591e-06	1151	308.32	1.3652e-05	1.2747e-05	537.79	241.2	141.18	70.44	9.0727e-06	134.45	0.00076634	0.00069385	0.000179	795.1	8.0156e-06	7.6121e-06	1073.7	295.17	8.1191e-06	7.499e-06	495.19	218.83	134.74	65.156	6.8693e-06	120.45	410.548	192.437	377.780	102.432	277.655	173.084	101.773	107.036	265.916	178.361	106.162	110.945	111.394	116.055	122.859	113.835	-8191	255	
2055.014	1	1	0	0	0.070615	0.11324	0.10903	0.16381	0.22124	0.16345	0.12749	0.06456	0.068701	0.029255	0.066737	0.16767	0.019829	0.26291	0.17044	0.25644	-1.9688	-2.2021	-2.6083	-2.0542	-2.675	-2.7167	-2.0917	-3.1083	-2.3542	-2.1083	-2.9042	-2.2646	-2.4271	-2.9062	-2.0938	-2.9771	368.677	334.354	405.572	92.954	212.616	374.580	248.841	120.456	214.870	96.199	208.853	92.570	95.572	118.429	341.725	433.919	0.0037228	0.00090322	9.7062e-05	821.18	8.9622e-06	1.4841e-05	1143.8	308.45	5.7969e-06	4.4961e-06	537.35	239.29	141.59	70.176	1.5279e-05	134.24	0.00076397	0.00068706	0.00017881	799.22	8.0419e-06	7.6823e-06	1071.2	297.66	8.1393e-06	7.471e-06	497.41	219.86	134.9	64.805	7.2456e-06	120.51	408.321	148.119	161.100	101.982	170.839	260.747	102.146	107.911	443.391	278.995	106.749	109.969	111.700	115.980	200.402	114.276	-8191	255	
2055.110	1	1	0	0	0.23849	0.41138	0.11037	0.25433	0.11131	0.24985	0.34093	0.16323	0.082421	0.12377	0.25688	0.10285	0.20223	0.088042	0.07381	0.46663	-2.0625	-2.15	-2.85	-2.2	-2.3667	-2.6979	-2.025	-2.6625	-2.5979	-2.0333	-3.0333	-2.3104	-2.1104	-3.1292	-1.775	-2.9	290.182	347.841	384.391	95.090	104.815	379.664	439.791	395.655	198.007	300.376	402.706	233.291	448.345	401.951	155.091	103.581	0.0036392	0.00011575	0.00029443	809.83	7.483e-06	4.0691e-06	1131.3	305.27	1.678e-06	2.3554e-06	540.57	239.23	140.21	68.672	1.1587e-05	132.05	0.00077309	0.00069185	0.00019184	798.3	8.1705e-06	7.761e-06	1070.7	297.28	8.3865e-06	7.5342e-06	503.97	220.2	134.94	63.672	8.1148e-06	119.67	398.915	101.808	148.148	101.135	333.094	442.343	101.018	106.920	241.073	272.002	106.140	110.293	112.037	115.737	171.293	113.391	-8191	255	
2055.206	1	1	0	0	0.14414	0.2368	0.10005	0.25498	0.13944	0.30739	0.17378	0.41968	0.13066	0.025475	0.085751	0.18422	0.14285	0.25974	0.15509	0.12038	-2.2104	-1.9521	-2.8771	-2.3521	-2.2292	-2.8146	-1.9854	-2.6042	-2.6646	-2.0312	-3.0812	-2.3354	-2.1188	-2.9792	-2.0958	-2.5812	269.835	294.349	429.200	97.259	312.061	115.196	381.175	422.223	348.085	417.648	112.538	391.685	180.995	397.816	279.207	383.857	0.0039236	0.00016288	0.00018708	782.89	9.0763e-06	6.942e-06	1103.9	303.68	3.4446e-06	1.0731e-05	538.4	237.31	139.41	66.487	1.6808e-05	128.94	0.00080106	0.0006959	0.00021568	783.51	8.5488e-06	7.8719e-06	1060	296.49	8.7234e-06	7.9245e-06	510.13	220.1	134.72	61.943	9.2029e-06	116.86	402.997	384.104	383.130	102.047	292.896	105.403	101.373	107.552	332.885	231.022	105.535	110.128	111.613	115.525	238.306	113.715	-8191	255	
2055.325	1	1	0	0	0.23292	0.026343	0.29189	0.16427	0.12662	0.078862	0.07071	0.24691	0.32248	0.09939	0.10136	0.099203	0.30438	0.10734	0.2348	0.12121	-2.1813	-2.0458	-2.6667	-2.5	-1.8646	-3.0479	-2.2354	-2.5583	-2.7792	-1.8917	-3.0979	-2.3917	-2.0583	-3.0438	-2.2	-2.6562	169.066	373.050	377.561	383.758	440.056	91.871	388.366	120.715	382.755	411.874	125.683	371.471	431.579	422.157	111.085	404.815	0.0037771	0.00081317	0.00018808	766.9	5.745e-06	1.3687e-05	1079.5	299.22	9.4703e-06	9.8799e-06	540.4	235.88	136.77	64.443	1.61e-05	125.33	0.00083001	0.00075243	0.0002416	765.83	8.8709e-06	8.5482e-06	1050.7	295.75	9.1233e-06	8.8464e-06	517.93	220.33	135.22	60.832	1.0511e-05	114.56	403.892	92.502	181.196	102.161	172.265	265.376	101.094	106.982	327.283	180.344	106.057	110.762	111.475	116.419	230.581	113.790	-8191	255	
2055.397	1	1	0	0	0.3496	0.17116	0.17877	0.06525	0.022982	0.095039	0.25586	0.15219	0.11424	0.035521	0.11665	0.12312	0.23912	0.20611	0.13704	0.015827	-2.4667	-2.1292	-2.6646	-2.5104	-2.1833	-2.7979	-2.3625	-2.1437	-2.8854	-2.1875	-2.6875	-2.6562	-1.9146	-2.8021	-2.3729	-2.3958	264.765	427.258	224.193	439.653	215.865	178.467	186.549	313.169	168.962	438.909	330.288	142.551	314.881	436.796	188.141	414.205	0.0038155	0.00084465	0.00054496	726.17	1.0664e-05	1.5999e-05	1052.7	298.96	1.5433e-05	1.626e-05	544.2	240.62	137.61	62.28	1.2244e-05	123.95	0.00087697	0.00087312	0.00027387	743.64	9.3947e-06	1.0146e-05	1040.5	299	9.9292e-06	1.0636e-05	533.49	225.7	138.3	60.377	1.2061e-05	114.72	404.372	446.449	182.994	101.609	297.512	218.707	101.963	107.610	237.529	232.696	106.344	110.224	111.905	115.832	110.070	113.826	-8191	255	
2055.493	1	1	0	0	0.18563	0.2327	0.042471	0.14853	0.079894	0.27468	0.023406	0.28032	0.38109	0.072569	0.10625	0.15939	0.19737	0.24171	0.25245	0.20536	-2.5604	-1.8854	-2.6542	-2.6312	-1.8708	-2.7542	-2.4542	-2.2562	-2.8	-2.0271	-2.6792	-2.7313	-2.1292	-2.7938	-2.4042	-2.2583	201.144	114.579	288.710	166.335	114.911	248.674	407.536	386.774	182.828	319.292	412.324	308.479	158.830	440.143	317.270	401.534	0.0038391	0.0018912	0.00028713	688.96	3.1175e-06	1.5165e-05	1038.1	302.05	1.5551e-05	7.6714e-06	555.67	248.73	139.8	62.21	6.8588e-06	124.27	0.00099064	0.0010883	0.00031195	729.87	1.0746e-05	1.2337e-05	1045.3	304.06	1.0966e-05	1.2483e-05	546.88	234.24	142.8	60.754	1.2428e-05	115.16	399.061	151.601	125.670	101.905	93.372	189.214	101.373	107.220	118.123	302.295	105.381	109.653	110.258	115.342	390.776	113.562	-8191	255	
2055.613	1	1	0	0	0.09604	0.26941	0.19325	0.19717	0.1339	0.13131	0.14698	0.18279	0.10344	0.15874	0.53838	0.30192	0.26594	0.18529	0.12154	0.22423	-2.5021	-2.0833	-2.4833	-2.8208	-1.8896	-2.7604	-2.7313	-1.9667	-3.0354	-2.0125	-2.5229	-2.9083	-1.9771	-2.7458	-2.5583	-2.0792	124.772	441.242	302.181	395.087	338.191	432.081	112.187	394.837	426.933	407.522	384.656	382.431	91.940	394.822	91.899	433.414	0.0040193	0.001123	0.00011045	689.11	2.1522e-05	1.5808e-05	1037.9	302.58	2.2988e-05	1.3918e-05	554.35	242.99	138.52	61.484	1.2874e-05	124.27	0.001037	0.0011668	0.0003089	721.51	1.1106e-05	1.2628e-05	1039	303.03	1.136e-05	1.26e-05	541	228.63	142.33	60.182	1.1511e-05	113.61	401.196	111.133	256.004	102.309	203.971	192.055	101.152	107.022	141.402	156.983	105.226	109.452	110.158	115.537	332.447	113.273	-8191	255	
2055.709	1	1	0	0	0.11804	0.27749	0.21278	0.13013	0.12316	0.19734	0.31348	0.17724	0.046543	0.23034	0.41589	0.17334	0.15122	0.14067	0.17383	0.33209	-2.3708	-2.1083	-2.1667	-2.9313	-2.0146	-2.625	-2.7146	-2.0646	-2.7479	-2.3667	-2.25	-3.1417	-1.8667	-2.6854	-2.6063	-2.15	162.076	306.365	313.055	314.108	424.966	192.455	322.607	130.945	365.980	391.073	405.854	371.873	418.347	384.583	137.933	396.681	0.0043623	0.00089077	0.0001204	686.16	1.6304e-05	1.1418e-05	1051.6	303.19	2.9701e-05	1.1903e-05	551.33	240.82	136.79	62.083	7.4748e-06	124.86	0.0010293	0.0010844	0.00027411	707.19	1.0772e-05	1.1219e-05	1033	295.58	1.047e-05	1.0743e-05	525.63	220.91	137.56	59.444	9.4364e-06	113.26	402.946	179.308	438.616	101.288	203.923	94.655	102.367	107.417	189.279	310.759	106.484	110.202	110.754	115.494	265.596	113.922	-8191	255	
2055.806	1	1	0	0	0.30878	0.132	0.025068	0.27027	0.098878	0.16627	0.037566	0.12696	0.083033	0.063075	0.24657	0.28989	0.3422	0.30652	0.30716	0.12261	-2.2854	-2.2562	-2.0375	-3.0417	-1.9042	-2.5604	-2.7438	-2.2542	-2.7458	-2.4729	-2.2521	-2.9479	-2.2917	-2.3896	-2.6562	-2.1458	224.706	396.304	308.744	413.140	156.637	154.597	116.219	351.149	165.881	95.789	346.990	309.746	92.007	127.533	122.971	326.014	0.0037921	0.00052511	0.00023092	697.97	1.7636e-05	4.7803e-06	1061.2	304.18	1.4963e-05	4.3166e-06	554.02	239.87	138.98	64.013	3.1214e-06	127.75	0.00091973	0.00089582	0.00022616	699.09	9.5518e-06	9.1247e-06	1021	293.43	9.232e-06	8.8149e-06	515.91	219.41	135.09	60.062	7.9642e-06	114.97	410.122	331.854	258.724	102.456	211.517	156.698	101.381	106.700	233.370	272.899	105.890	109.906	111.408	115.413	409.831	114.508	-8191	255	
2055.926	1	1	0	0	0.205	0.16145	0.083977	0.068278	0.13252	0.23113	0.22957	0.1631	0.10658	0.15345	0.012999	0.089	0.20462	0.32077	0.056181	0.082171	-2.5625	-2.425	-2.0687	-2.7958	-2.2021	-2.2875	-3.0667	-1.8896	-2.6542	-2.5187	-2.0833	-3.0187	-2.1958	-2.3917	-2.9396	-2.1958	429.010	387.041	143.496	142.916	376.016	365.488	401.248	124.106	209.802	405.900	124.333	409.366	448.516	315.691	394.668	429.160	0.0042616	0.0005	0.00040992	706.44	7.4581e-06	4.4419e-06	1062.1	303.62	1.6161e-05	9.1182e-06	551.64	242.81	137.57	62.298	1.0728e-05	125.42	0.00085231	0.0007952	0.00020491	704.41	9.7206e-06	9.0154e-06	1023.7	295.75	9.939e-06	9.3454e-06	518.81	224.17	137.86	58.918	8.6524e-06	114.45	407.408	198.816	382.906	102.279	216.767	417.042	101.963	107.734	138.383	161.724	106.376	109.950	110.369	114.856	230.871	112.824	-8191	255	
2055.998	1	1	0	0	0.19213	0.16251	0.14479	0.12947	0.10066	0.026666	0.2632	0.22572	0.10781	0.15164	0.093371	0.16979	0.074782	0.25123	0.090388	0.25929	-2.2521	-2.4729	-1.9229	-2.8688	-2.3771	-2.1813	-3.0625	-2.0104	-2.7687	-2.5208	-2.1167	-2.8688	-2.4708	-2.0396	-3	-2.1708	278.018	373.353	284.399	406.429	388.434	255.216	402.000	417.304	126.842	183.945	268.497	428.022	262.979	415.199	408.131	434.391	0.0037209	0.00052264	0.00026357	699.22	6.7265e-06	3.8864e-06	1066.6	303.06	1.4227e-05	5.5781e-06	555.88	242.99	136.22	61.242	1.5139e-05	124.31	0.00095556	0.000884	0.00022496	718.58	1.0696e-05	9.9389e-06	1037	302.56	1.1171e-05	1.0393e-05	526.93	228.25	140.73	58.476	9.36e-06	114.26	394.457	206.615	115.021	102.424	93.939	250.624	100.906	106.799	338.469	275.884	106.080	109.488	110.190	115.047	214.462	112.671	-8191	255	
2056.094	1	1	0	0	0.27976	0.19699	0.1304	0.1621	0.13184	0.057125	0.12258	0.073559	0.091727	0.17697	0.47369	0.065445	0.39611	0.21437	0.074668	0.24773	-2.0979	-2.6229	-1.9292	-2.7896	-2.2792	-1.8083	-2.9917	-2.0208	-2.2979	-2.8937	-2.1104	-2.7458	-2.4104	-2.2562	-2.8708	-2.4875	268.930	210.427	356.347	351.695	113.986	153.723	429.837	414.005	251.275	355.048	426.288	261.688	445.852	349.500	114.833	414.706	0.0043177	0.0010325	0.00047928	712.9	6.4554e-06	6.9427e-06	1079.3	302.28	1.3421e-05	9.7195e-06	553.55	241.32	137.05	62.622	1.7696e-05	127.46	0.00092719	0.00083239	0.00021485	724.33	9.1509e-06	8.2295e-06	1032.1	296.8	8.6692e-06	7.9882e-06	516.7	223.1	132.66	58.118	7.7806e-06	114.88	415.375	175.362	115.404	101.574	102.910	166.790	101.102	106.373	307.679	343.384	105.416	109.388	110.547	115.335	252.542	113.635	-8191	255	
2056.190	1	1	0	0	0.058832	0.13978	0.095199	0.23533	0.31285	0.17862	0.22995	0.21381	0.19897	0.23305	0.2153	0.35106	0.16724	0.22638	0.139	0.21767	-1.9729	-2.9042	-2.1562	-2.5271	-2.5708	-2.0292	-3.0417	-2.35	-2.0646	-2.8688	-1.9562	-2.6979	-2.7667	-1.9937	-2.8583	-2.5042	209.257	284.759	116.646	366.787	331.509	167.749	334.891	90.919	322.863	190.927	115.238	366.137	338.324	405.438	275.362	399.013	0.0035956	0.0009668	0.00035271	726.19	1.1176e-05	2.9391e-06	1100	307.91	1.3739e-05	1.3215e-05	555.33	240.85	138.7	65.12	4.9974e-06	129.93	0.00069613	0.0005995	0.00016914	706.22	6.2735e-06	5.5047e-06	1020.8	290.43	5.6312e-06	5.1838e-06	503.85	215.53	123.28	58.449	5.5344e-06	114.9	402.690	180.664	107.857	102.691	184.387	95.657	101.693	107.927	223.186	188.135	105.455	110.263	111.464	115.735	230.957	113.823	-8191	255	
2056.309	1	1	0	0	0.096499	0.21531	0.17107	0.12146	0.076714	0.24173	0.20617	0.11218	0.14866	0.1428	0.15157	0.2464	0.16806	0.19891	0.06356	0.25604	-1.7583	-2.8708	-1.8958	-2.6958	-2.3708	-2.0438	-3.1125	-2.3958	-2.0229	-2.8563	-2.2438	-2.6792	-2.8312	-2.0771	-2.8208	-2.7604	272.747	432.531	162.873	156.792	220.213	162.812	350.562	107.616	98.047	140.955	172.395	441.552	440.764	114.400	288.352	369.102	0.0037643	0.00085392	0.00017504	736.87	1.1603e-05	4.7571e-06	1098.5	308.28	9.5367e-06	1.0635e-05	553.41	238.67	135.55	63.581	1.268e-05	127.02	0.00049656	0.00044135	0.000143	702.87	5.3362e-06	4.8857e-06	1020.9	289.05	5.3153e-06	5.1933e-06	505.48	214.29	122.71	57.581	6.6003e-06	112.69	402.332	145.529	91.139	102.478	288.798	131.977	102.244	106.326	103.362	180.737	105.262	110.593	110.800	115.818	185.348	114.178	-8191	255	
2056.405	1	1	0	0	0.22439	0.20475	0.16262	0.076507	0.15638	0.012674	0.23908	0.17606	0.090202	0.075855	0.19542	0.15381	0.10172	0.13588	0.052721	0.30207	-1.7812	-3.0458	-1.9229	-2.3438	-2.9542	-1.9062	-2.9125	-2.6479	-1.9229	-2.8063	-2.1875	-2.3333	-2.9542	-2.1229	-2.5229	-2.8104	316.035	168.894	104.357	128.402	107.310	268.195	324.903	341.397	418.651	98.605	127.889	350.888	245.557	341.250	265.825	356.690	0.004117	0.00056032	0.00015126	706.56	1.0339e-06	1.5381e-05	1081.6	304.19	1.6481e-05	5.9473e-06	557.54	242.9	136.29	62.528	9.3077e-06	127.56	0.00056523	0.00055951	0.00017931	692.07	6.351e-06	6.4502e-06	1020.2	288.46	6.2607e-06	6.621e-06	513.81	219.11	124.89	57.552	6.9896e-06	113.16	408.294	180.715	178.434	101.708	348.865	176.483	101.673	107.353	209.205	195.571	106.382	110.445	111.502	115.024	136.375	112.955	-8191	255	
2056.501	1	1	0	0	0.049044	0.11859	0.27866	0.17029	0.2686	0.090725	0.25012	0.032389	0.16366	0.2345	0.21728	0.29088	0.16937	0.13021	0.070521	0.21317	-1.3979	-2.7167	-2.3229	-2.2396	-2.7562	-1.9583	-2.7125	-2.7833	-2.0604	-2.9542	-2.3729	-2.2938	-2.8958	-2.0292	-2.4688	-2.8958	132.371	437.371	210.831	377.497	324.031	217.680	339.609	335.461	417.809	286.436	439.219	428.624	398.556	309.630	152.921	420.692	0.0035784	0.0010894	0.00034087	722.08	6.6196e-06	1.3966e-05	1093.9	309.74	5.7774e-06	9.5042e-06	560.9	241.24	140.41	66.772	2.6078e-06	133.88	0.00054844	0.00058078	0.00016806	695.22	5.434e-06	6.0475e-06	1018.9	290.11	5.0787e-06	5.796e-06	508.09	214.91	122.81	60.218	5.1437e-06	117.52	406.365	154.324	215.496	101.464	337.636	177.258	101.981	107.182	173.826	111.296	105.651	110.645	111.339	115.380	413.556	114.052	-8191	255	
2056.598	1	1	0	0	0.14742	0.30518	0.27427	0.25384	0.23213	0.056925	0.051542	0.24011	0.22687	0.091593	0.13369	0.35968	0.21038	0.19862	0.21271	0.34475	-1.5833	-2.7854	-2.2729	-2.2125	-2.7292	-2.1833	-2.6125	-2.8771	-1.7521	-2.9208	-2.6979	-2.1896	-2.7958	-2.2667	-2.4688	-2.9062	255.837	223.113	154.376	342.667	125.442	224.522	432.409	331.081	164.870	436.949	142.493	327.476	361.756	245.049	410.209	379.704	0.0043178	0.001106	0.00010256	789.32	4.5359e-06	6.5903e-06	1170	327.72	1.216e-05	6.1552e-06	576.45	256.72	153.09	73.437	9.1434e-06	142.01	0.00042333	0.000453	0.00012046	736.89	4.211e-06	4.8518e-06	1069.9	301.51	4.2982e-06	5.0145e-06	515.06	226.77	131.88	66.072	4.7848e-06	123.98	403.341	173.953	443.473	101.639	115.849	167.952	101.736	107.175	191.681	282.421	105.950	110.375	111.159	115.574	253.073	113.614	-8191	255	
2056.694	1	1	0	0	0.1462	0.083877	0.10288	0.14976	0.13105	0.10146	0.13039	0.12511	0.13868	0.1842	0.11674	0.23123	0.23296	0.12338	0.086732	0.43879	-1.5208	-2.6396	-2.3833	-1.9792	-2.8271	-2.4083	-2.4833	-2.9729	-2.0187	-2.5979	-2.5687	-1.9188	-2.9979	-2.3083	-2.1688	-3.0542	163.694	181.508	189.563	394.175	150.516	124.011	92.164	418.855	419.399	281.206	351.458	363.225	120.167	394.772	420.118	422.007	0.0044691	0.000724	5.2083e-05	820.94	1.2268e-05	6.6977e-06	1191.9	328.07	1.5411e-05	6.9872e-07	579.52	261.49	154.9	76.802	1.103e-06	147.28	0.00044113	0.00045545	0.00011805	762.59	4.4873e-06	4.8052e-06	1088.2	299.54	4.3918e-06	4.6562e-06	514.53	230.15	134.25	68.739	4.3377e-06	128.11	404.131	256.940	444.661	101.596	198.714	192.719	101.868	106.575	159.672	275.089	105.652	109.597	110.578	114.627	149.633	112.735	-8191	255	
2056.790	1	1	0	0	0.26981	0.11158	0.24873	0.0051385	0.1634	0.14111	0.15362	0.17332	0.24926	0.18123	0.062167	0.16335	0.10424	0.067316	0.1963	0.18904	-1.4854	-2.3792	-2.575	-1.9396	-2.7562	-2.5042	-2.1083	-3.0312	-1.8979	-2.4646	-2.8438	-2.0583	-2.85	-2.7104	-2.0542	-2.8979	310.585	206.277	287.438	177.899	274.150	437.762	327.200	331.664	318.604	332.854	353.771	394.160	329.583	352.906	107.928	312.485	0.0045746	0.00058937	4.7751e-05	818.3	1.8164e-05	1.7396e-07	1182.1	331.39	1.1555e-05	8.2394e-06	588.06	265.25	158.41	77.647	5.9998e-06	147.88	0.00044596	0.00042217	0.00010909	757.91	4.4933e-06	4.5075e-06	1077.1	303.27	4.4919e-06	4.3882e-06	518.7	232.8	135.21	68.972	4.0138e-06	128.55	401.134	137.502	109.112	101.762	217.262	274.492	101.058	106.665	190.359	176.238	105.998	109.649	111.253	115.729	230.339	113.011	-8191	255	
2056.886	1	1	0	0	0.25477	0.27838	0.2383	0.30935	0.080037	0.23582	0.20708	0.12449	0.087982	0.11863	0.14817	0.13361	0.22954	0.20004	0.14084	0.26875	-1.6021	-2.3521	-2.5583	-1.8771	-2.6937	-2.5708	-2.1458	-3.0646	-1.9813	-2.2792	-2.9604	-2.2729	-2.7	-2.5771	-2.2146	-2.9958	227.064	162.376	187.208	347.925	382.660	410.221	114.016	371.931	363.302	302.813	375.781	150.838	151.516	377.302	291.279	351.812	0.0039958	0.00053218	0.00018477	810.73	1.1965e-05	5.4866e-06	1172.9	334.33	9.8614e-06	5.5e-06	589.04	265.54	157.4	75.743	7.4361e-06	147.29	0.00044594	0.0003936	0.0001039	751.53	4.6415e-06	4.3839e-06	1063	305.34	4.5663e-06	4.2564e-06	521.68	233.75	135.12	67.737	3.7667e-06	127.55	410.050	187.456	179.500	102.500	231.072	239.243	101.568	106.364	261.679	170.691	105.233	109.547	110.827	115.637	241.143	113.672	-8191	255	
2057.007	1	1	0	0	0.40726	0.047717	0.15241	0.35163	0.15844	0.13719	0.24878	0.23013	0.17397	0.093972	0.072828	0.21753	0.056	0.30827	0.039131	0.35614	-1.8729	-2.0354	-2.75	-1.95	-2.5771	-2.85	-2.1063	-2.8729	-2.1813	-2.3917	-2.9854	-2.2271	-2.8292	-2.775	-1.9979	-3.1604	329.057	227.541	250.406	404.040	447.507	436.760	367.362	396.698	267.437	348.823	363.659	92.406	447.245	414.701	444.325	398.934	0.0044286	0.00037591	0.00025059	790.43	7.8487e-06	3.5989e-06	1146.2	336.29	6.3323e-06	5.4724e-06	588.55	260.95	154.78	73.423	4.1417e-06	143.21	0.00044222	0.00037822	9.6977e-05	736.08	4.4945e-06	4.2014e-06	1040.8	306.25	4.5756e-06	4.1099e-06	520.68	229.93	132.47	65.458	3.6799e-06	124.97	405.486	201.211	92.234	102.062	252.809	278.131	102.169	107.556	267.761	121.950	105.626	109.613	111.618	115.699	265.084	114.220	-8191	255	
2057.101	1	1	0	0	0.12541	0.11713	0.15628	0.052023	0.15199	0.15637	0.11881	0.10254	0.22868	0.073519	0.16735	0.199	0.39273	0.18576	0.15532	0.15135	-1.7708	-2.3167	-2.8229	-2.1417	-2.65	-2.6312	-2.1229	-3.0812	-2.3771	-2.0771	-3.1354	-2.3271	-2.4146	-2.9417	-2.1479	-2.9562	382.758	307.811	178.939	232.745	222.324	299.822	101.713	442.759	145.305	444.338	306.948	382.596	302.353	402.833	371.220	165.737	0.0040621	0.001158	4.7199e-05	782.51	2.0612e-06	4.9289e-06	1145.8	335.61	5.3166e-06	1.1472e-05	593.78	258.71	153.41	72.209	6.3933e-06	141.42	0.00042607	0.00036369	9.68e-05	731.83	4.3531e-06	4.0546e-06	1039.5	307.65	4.461e-06	4.0473e-06	523.09	228.47	130.9	64.288	3.9251e-06	123.56	407.433	168.567	163.483	102.312	168.852	197.130	101.977	106.709	257.079	243.547	104.999	109.085	110.148	114.694	223.714	112.691	-8191	255	
2057.197	1	1	0	0	0.11563	0.16064	0.034176	0.06523	0.23272	0.068286	0.41339	0.40235	0.20951	0.081437	0.43299	0.27181	0.16354	0.25091	0.23581	0.24692	-2.1521	-2.1667	-2.8125	-2.3042	-2.2417	-2.9437	-1.925	-2.7854	-2.4813	-1.925	-2.9792	-2.1562	-2.2417	-3	-1.8208	-2.8563	333.364	249.777	255.469	243.089	299.500	88.287	423.074	425.498	406.284	247.186	411.000	397.167	160.908	406.622	295.570	334.382	0.0042669	0.00089511	0.00016621	777.47	1.0117e-05	1.9801e-06	1128.4	334.17	9.1884e-06	1.0582e-05	587.6	255.58	149.94	70.888	1.1884e-05	140.33	0.00041706	0.00034997	0.00010147	726.66	4.1559e-06	3.9066e-06	1035.6	307.06	4.3475e-06	3.934e-06	524.46	227.11	129.46	63.198	4.3813e-06	122.89	406.652	95.516	187.777	101.098	197.327	173.700	100.904	106.236	237.324	188.082	104.927	109.029	109.871	114.999	177.563	112.827	-8191	255	
2057.295	1	1	0	0	0.2176	0.27116	0.31172	0.1873	0.047745	0.10757	0.21291	0.24469	0.15531	0.18842	0.10893	0.11788	0.10969	0.19574	0.16795	0.15791	-2.0875	-1.8563	-2.8875	-2.3958	-2.1854	-2.7875	-1.7167	-2.5896	-2.5125	-1.9312	-2.8771	-2.6667	-2.1437	-3.0938	-2.0729	-2.5146	395.365	172.522	283.259	259.011	155.610	337.705	445.421	419.111	338.065	245.094	428.076	163.829	149.247	118.767	100.494	365.717	0.0037518	0.00035925	0.0001709	775.23	1.6611e-05	4.1986e-06	1141.3	335.87	5.1035e-06	8.3214e-06	592.03	257.07	152.24	70.622	6.2938e-06	139	0.0004145	0.00034594	0.00011062	725.18	4.1011e-06	3.8469e-06	1043.9	308.61	4.2263e-06	3.9103e-06	527.66	228.02	129.72	63.002	4.7994e-06	121.77	406.199	109.716	439.928	101.123	261.626	328.245	100.915	106.620	264.314	195.241	104.995	109.227	110.037	114.877	236.057	113.075	-8191	255	
2057.390	1	1	0	0	0.12167	0.18676	0.12414	0.31608	0.085212	0.39907	0.08137	0.15306	0.038645	0.21556	0.3468	0.16116	0.19705	0.11281	0.11841	0.085916	-2.4708	-1.6083	-2.7604	-2.4125	-2.0667	-2.7875	-2.2896	-2.4667	-2.775	-1.7771	-2.8583	-2.6854	-1.8687	-2.925	-2.2396	-2.4458	297.167	336.548	226.104	417.943	326.176	277.577	398.395	92.827	164.176	318.689	395.360	400.511	348.133	438.325	120.758	428.086	0.0043568	0.00084902	0.00050532	773.66	1.1788e-05	6.2974e-06	1142.1	335.05	8.4228e-06	1.054e-05	591.27	262.11	153.57	73.109	9.4968e-06	143.15	0.00042519	0.00037298	0.00012192	723.59	4.1089e-06	4.0438e-06	1046.3	307.26	4.0491e-06	3.9601e-06	527.1	230.2	130.52	65.074	4.6075e-06	124.69	405.707	127.555	150.613	101.121	201.015	200.428	100.695	106.720	171.888	161.326	105.100	109.041	110.518	114.302	217.080	112.783	-8191	255	
2057.486	1	1	0	0	0.11122	0.096846	0.14934	0.20684	0.20481	0.080367	0.22273	0.23363	0.22069	0.028811	0.16414	0.29522	0.11816	0.29394	0.2188	0.44782	-2.5812	-1.7271	-2.7417	-2.4458	-1.9333	-2.7208	-2.2625	-2.175	-2.7417	-1.7917	-2.6917	-2.8708	-1.8979	-2.925	-2.1083	-2.3312	283.233	377.563	323.575	413.344	96.456	193.958	319.210	386.599	389.936	200.230	336.949	446.051	419.412	338.594	280.763	393.264	0.0040804	0.0011794	9.3686e-05	790.33	9.0703e-06	6.5447e-06	1158.8	337.08	1.0366e-05	1.0248e-05	589.37	264.76	157.42	76.539	7.6525e-07	147.91	0.00039454	0.00038159	0.00011534	736.45	3.801e-06	4.2503e-06	1058.2	307.66	3.7997e-06	4.1832e-06	523.45	232.89	132.44	68.319	4.4001e-06	128.53	403.704	139.764	145.451	101.197	262.697	172.014	100.525	106.534	195.841	205.267	104.901	108.752	109.893	114.241	102.273	112.191	-8191	255	
2057.606	1	1	0	0	0.31121	0.28977	0.10899	0.13234	0.023572	0.14573	0.073154	0.38789	0.11575	0.24006	0.44324	0.20652	0.037508	0.15845	0.15202	0.27728	-2.3646	-1.8312	-2.6792	-2.6771	-2.0604	-2.8063	-2.4896	-2.1146	-2.8292	-2.275	-2.5208	-2.7	-1.75	-2.9292	-2.425	-2.1771	127.551	320.043	192.945	109.866	378.855	95.612	204.472	329.703	240.986	321.207	442.273	118.775	382.605	160.877	255.192	410.717	0.0043569	0.00046322	0.00016865	818.81	1.0203e-05	8.2436e-06	1170.1	333.77	4.6943e-06	6.3049e-06	584.98	263.24	157.06	77.667	4.9696e-06	148.68	0.00037743	0.0003945	0.00010917	758.42	3.777e-06	4.4713e-06	1074.3	304.58	3.9543e-06	4.5701e-06	520.17	232.55	132.96	69.263	4.3891e-06	129.32	403.732	166.779	130.734	101.115	185.076	210.412	100.762	106.642	252.618	220.103	104.714	108.898	109.954	114.401	274.301	112.770	-8191	255	
2057.702	1	1	0	0	0.03301	0.032177	0.17105	0.14786	0.074691	0.19087	0.28293	0.34351	0.040887	0.21991	0.20051	0.19512	0.096378	0.086162	0.29045	0.23732	-2.4708	-2.0667	-2.2896	-2.8042	-1.9833	-2.7042	-2.8167	-2.0146	-2.9562	-2.1667	-2.3667	-2.925	-1.9562	-2.6042	-2.2729	-2.3021	434.075	147.256	236.066	157.290	131.941	258.392	367.197	434.918	436.064	128.901	425.348	373.686	384.806	105.963	447.955	398.203	0.0048706	0.00096957	3.4754e-05	821.88	6.4797e-06	5.6967e-06	1173	332.34	9.7357e-06	9.3759e-06	580.56	258.5	154.65	76.597	8.5185e-06	145.78	0.00040265	0.00042415	0.00010858	760.13	4.0845e-06	4.6405e-06	1071.1	302.92	4.3311e-06	4.814e-06	515.42	229.11	132.51	68.228	4.4056e-06	127.07	401.405	143.378	259.529	101.093	193.313	266.427	101.284	106.351	197.722	206.458	105.464	108.953	110.493	115.058	376.769	113.590	-8191	255	
2057.799	1	1	0	0	0.36653	0.25505	0.29344	0.089759	0.084728	0.19678	0.23141	0.21515	0.20291	0.034045	0.169	0.34026	0.11612	0.19976	0.12168	0.31799	-2.4833	-2.3208	-2.4188	-2.825	-1.7687	-2.3542	-2.875	-2.0187	-2.6	-2.425	-2.2083	-2.9854	-1.7771	-2.5125	-2.6	-2.1646	302.596	340.835	140.248	173.364	173.245	141.831	325.166	393.146	181.900	433.482	410.642	402.455	390.124	444.133	311.195	336.714	0.0051258	0.00075514	0.00030653	812.83	8.9209e-06	7.6526e-06	1168	330.09	9.7525e-07	6.3653e-06	573.8	257.49	151.31	75.133	9.0474e-06	144.02	0.00043735	0.00043212	0.00010916	756.8	4.6087e-06	4.7321e-06	1066.6	300.33	4.827e-06	4.8793e-06	510.2	226.07	132.83	67.142	4.6042e-06	125.49	402.288	147.264	410.008	101.655	217.846	162.961	100.927	107.149	226.466	200.139	106.107	109.668	110.001	114.552	227.104	113.540	-8191	255	
2057.870	1	1	0	0	0.28604	0.20425	0.069816	0.25347	0.26889	0.053931	0.16089	0.19622	0.10709	0.18983	0.33138	0.35152	0.088842	0.24328	0.088538	0.36924	-2.3396	-2.3688	-1.8229	-3.0458	-1.8479	-2.5187	-2.9229	-1.95	-2.7792	-2.475	-2.0187	-3.1229	-2.1083	-2.3688	-2.85	-2.2333	290.369	313.407	425.183	373.949	96.454	250.992	389.626	324.093	435.185	144.789	362.621	404.258	246.641	403.677	128.297	335.884	0.0038139	0.0008993	0.00029883	809.88	4.0833e-07	2.241e-06	1163.6	326.47	8.8965e-06	2.1089e-06	564	254	151.78	74.946	6.8872e-06	143.26	0.0004925	0.00045233	0.00011316	758.52	5.1664e-06	4.8357e-06	1065.8	298.94	5.2011e-06	4.9176e-06	504.96	225.09	133.51	67.089	4.5643e-06	125.67	402.660	224.715	168.704	101.348	383.833	236.318	101.894	107.397	173.517	361.900	105.396	110.392	110.945	114.771	108.577	113.449	-8191	255	
2057.991	1	1	0	0	0.13934	0.21978	0.10808	0.22103	0.16835	0.034452	0.22375	0.12161	0.23222	0.11111	0.19507	0.12463	0.22628	0.17948	0.026394	0.28847	-2.0812	-2.4667	-1.8646	-2.9167	-2.0792	-2.1729	-2.9333	-2.1937	-2.525	-2.6896	-1.9521	-3.0875	-2.4167	-2.3083	-2.8812	-2.4375	320.331	140.328	135.955	397.762	328.487	395.545	331.726	229.077	408.138	442.128	245.315	409.800	381.085	161.426	139.004	427.584	0.0041429	0.00035256	0.00024701	821.59	1.6596e-06	6.015e-06	1192	324.47	1.1928e-05	7.4636e-06	569.62	253.91	152.16	77.449	8.5052e-06	146.36	0.00052158	0.00045606	0.00011334	771.11	5.2783e-06	4.7385e-06	1083.7	299.14	5.0514e-06	4.6441e-06	503.52	225.01	133.29	69.072	4.29e-06	127.91	401.728	98.595	159.206	101.885	228.511	200.054	101.124	106.000	156.033	190.988	104.688	109.229	110.942	115.019	201.283	113.453	-8191	255	
2058.087	1	1	0	0	0.20123	0.10694	0.23847	0.092745	0.2428	0.1468	0.29415	0.12554	0.04738	0.24467	0.28456	0.26184	0.17448	0.23935	0.082075	0.1923	-2.0625	-2.6271	-1.8146	-2.8688	-2.3104	-2.1688	-3.1562	-2.0042	-2.5979	-2.825	-2.0104	-3.0875	-2.3917	-2.1229	-2.8812	-2.375	361.002	330.319	110.794	379.030	315.894	302.932	345.847	341.532	309.580	223.962	423.709	363.516	350.835	437.808	378.830	339.266	0.0038975	0.00059976	0.00052218	893.28	6.4152e-06	3.4161e-06	1256.5	325.94	1.0418e-05	1.1693e-06	561.28	248.47	147.88	73.61	1.7012e-05	139.61	0.00048536	0.00043031	0.00011033	837.89	5.2555e-06	4.7867e-06	1143.6	303.69	5.3768e-06	5.0942e-06	501.38	221.66	131.81	66.208	5.1206e-06	123.24	402.841	123.205	169.206	101.034	166.507	180.288	100.532	106.124	259.531	272.290	105.381	110.379	111.585	115.574	170.912	113.384	-8191	255	
2058.183	1	1	0	0	0.19381	0.094553	0.1423	0.15459	0.070998	0.17521	0.15694	0.22599	0.11977	0.26208	0.14287	0.15356	0.045346	0.13357	0.19293	0.17492	-2.1208	-2.7854	-1.8937	-3.0458	-2.2833	-2.0708	-2.9583	-2.1646	-2.2958	-2.8729	-2.1021	-2.9188	-2.3542	-2.1979	-2.9146	-2.3479	418.128	179.646	92.861	428.965	419.539	187.158	392.936	425.922	397.128	179.118	414.992	439.918	395.966	113.176	269.648	99.759	0.0040328	0.0010957	6.0284e-05	903.08	3.646e-06	1.2476e-05	1243.9	323.58	8.9085e-06	1.1182e-05	553.67	246.01	145.63	71.199	2.0479e-05	135.94	0.00054541	0.00049011	0.00013486	853.16	5.885e-06	5.2665e-06	1145.1	303.25	5.8759e-06	5.5933e-06	502.3	220.22	131.98	64.347	6.0803e-06	120.79	408.546	199.228	433.194	102.464	301.485	236.353	100.605	106.152	136.856	196.656	105.967	109.662	111.376	116.399	235.532	113.326	-8191	255	
2058.278	1	1	0	0	0.3735	0.112	0.13487	0.1316	0.072798	0.11596	0.2004	0.27787	0.31073	0.24918	0.18311	0.1736	0.092806	0.18519	0.22765	0.33184	-1.9375	-2.9167	-2.0396	-2.7479	-2.6354	-1.9542	-3.0354	-2.1542	-2.1833	-2.8792	-2.2	-2.6146	-2.7146	-2.2354	-2.7521	-2.4813	300.288	391.530	212.277	392.090	396.090	321.585	118.932	386.214	229.290	351.388	367.099	299.844	277.359	363.407	231.869	360.330	0.0036152	0.00098294	0.00040887	905.37	5.682e-06	8.2826e-06	1238.2	324.34	1.1844e-05	1.2596e-05	553.93	246.45	147.36	70.661	7.0798e-06	136.62	0.00058859	0.0005246	0.00015802	862	6.2953e-06	5.6517e-06	1152.1	305.74	6.3132e-06	5.9167e-06	509.46	222.49	134.11	64.432	7.2117e-06	121.69	405.150	169.083	170.051	101.219	356.150	227.295	101.225	107.252	230.878	160.425	105.806	109.523	111.050	115.537	239.018	112.992	-8191	255	
2058.398	1	1	0	0	0.21337	0.31515	0.093917	0.21519	0.058287	0.033521	0.071703	0.16332	0.094879	0.1107	0.32418	0.37633	0.29471	0.14645	0.2088	0.13962	-1.8354	-2.925	-2.1188	-2.5563	-2.5396	-1.8479	-2.925	-2.4833	-1.8625	-2.9354	-2.2021	-2.5375	-2.8542	-2.0542	-2.6833	-2.875	294.713	391.270	136.046	395.244	215.820	355.859	411.013	370.144	418.944	158.506	125.698	370.614	446.341	136.726	361.214	423.233	0.0042693	0.00086028	0.00046277	875.42	4.4514e-06	4.0911e-06	1193.1	318.18	3.9411e-06	1.2529e-05	547.57	245.82	144.35	67.679	4.6058e-06	131.93	0.00065112	0.00061135	0.00019962	847.52	7.5504e-06	7.2731e-06	1134.8	307.51	8.011e-06	8.1923e-06	522.35	227.03	139.3	63.507	1.0118e-05	119.81	400.984	168.523	160.629	101.513	179.261	229.098	101.329	106.444	341.672	232.696	105.803	110.207	110.934	115.005	267.077	113.429	-8191	255	
2058.494	1	1	0	0	0.23479	0.03253	0.29781	0.090455	0.16829	0.075593	0.059414	0.050236	0.1519	0.41795	0.26301	0.13641	0.2276	0.26978	0.20229	0.3585	-1.625	-2.8604	-1.9771	-2.3583	-2.7083	-1.9562	-2.7542	-2.6708	-1.9229	-2.8917	-2.3688	-2.2354	-2.8083	-1.9604	-2.6167	-2.7812	391.453	228.008	399.438	104.737	317.891	395.745	262.657	174.014	333.524	284.564	339.968	142.625	97.363	430.427	421.244	404.720	0.0032549	0.0012131	0.00029776	836.38	7.6675e-06	8.4329e-06	1158.2	313.83	6.601e-06	1.6468e-05	544.84	245.81	144.35	67.031	1.1599e-05	130.69	0.00083079	0.00086643	0.00027311	837.87	9.5316e-06	1.0247e-05	1136.4	312.8	9.9138e-06	1.1107e-05	532.73	229.33	143.95	64.227	1.1822e-05	119.64	409.766	141.217	304.014	101.057	279.790	245.345	101.790	107.848	198.127	203.874	104.779	109.342	110.028	115.336	321.275	113.469	-8191	255	
2058.566	1	1	0	0	0.217	0.12791	0.25125	0.072679	0.19009	0.18243	0.045061	0.17582	0.056998	0.052975	0.17193	0.1201	0.1299	0.070665	0.12609	0.32149	-1.4146	-2.8229	-2.3729	-2.1333	-2.9688	-2.1083	-2.7625	-2.7271	-2.1208	-2.6792	-2.5125	-2.3396	-2.6458	-2.2167	-2.4229	-3.0854	324.218	305.799	209.763	431.988	268.398	360.848	447.250	333.691	357.648	257.730	158.289	366.992	366.830	122.724	336.200	98.562	0.0045762	0.0022364	0.00037891	842.91	9.155e-06	1.5214e-05	1166.3	314.26	1.7659e-05	1.288e-05	541.56	243.72	143.98	67.776	2.87e-06	131.3	0.00093233	0.0010416	0.0002938	845.97	1.0009e-05	1.1411e-05	1143.6	311.94	9.8936e-06	1.1685e-05	526.94	227.13	143.64	65.054	1.1143e-05	119.94	398.314	147.949	278.797	102.125	234.682	207.136	101.846	107.028	194.471	170.110	105.247	110.282	111.115	115.676	326.046	113.312	-8191	255	
2058.687	1	1	0	0	0.14871	0.099506	0.20334	0.37284	0.27407	0.11274	0.056468	0.46658	0.17921	0.28247	0.31676	0.13994	0.22139	0.26916	0.17561	0.21724	-1.6458	-2.7604	-2.4062	-2.2562	-2.7438	-2.1292	-2.475	-3.0187	-2.0604	-2.6625	-2.4354	-2.1042	-3.0208	-2.3292	-2.4458	-2.9708	283.982	102.354	400.956	436.234	210.804	120.768	427.557	366.698	194.509	415.422	392.727	317.545	105.234	123.712	415.321	424.411	0.0043497	0.00094022	0.00040171	862.21	8.2297e-06	6.6807e-06	1182.5	318.3	9.9341e-06	1.0889e-05	542.47	242.8	145.12	69.147	6.4809e-06	133.72	0.00093444	0.0010604	0.00027701	855.63	9.9915e-06	1.1241e-05	1146	309.84	9.6074e-06	1.0596e-05	519.23	223.24	140.02	65.244	8.8944e-06	120.17	402.778	139.857	386.363	101.616	126.872	439.702	100.991	106.754	172.670	183.113	105.714	110.123	110.780	114.469	313.195	112.759	-8191	255	
2058.783	1	1	0	0	0.15934	0.080381	0.19957	0.095392	0.17829	0.20652	0.21024	0.085135	0.12773	0.22397	0.11103	0.27141	0.20234	0.087364	0.08651	0.36612	-1.9229	-2.6333	-2.4917	-2.2354	-2.8958	-2.225	-2.1167	-3.1063	-1.7479	-2.5042	-2.5542	-2.2812	-2.8708	-2.7812	-2.1125	-3.0479	439.256	382.867	311.723	109.418	375.355	230.395	409.996	252.640	123.220	104.027	431.953	404.826	310.653	172.409	227.338	102.158	0.0042249	0.00040282	0.00024666	874.13	1.1657e-05	9.5094e-06	1196.1	317.94	3.0708e-05	9.3058e-06	543.53	242.25	146.02	69.511	1.1958e-05	134.2	0.00080914	0.00082906	0.000214	840.8	8.3608e-06	8.7333e-06	1128.2	302.01	8.0927e-06	8.1832e-06	506.29	219.29	136.57	64.495	7.1791e-06	119.35	406.062	372.784	308.552	101.523	209.949	268.666	101.583	106.481	191.526	343.280	105.569	109.888	111.030	115.240	265.966	113.352	-8191	255	
2058.879	1	1	0	0	0.22606	0.12767	0.1177	0.15544	0.13786	0.11144	0.37204	0.19611	0.052616	0.01938	0.22794	0.21724	0.1239	0.16119	0.23406	0.19188	-1.5833	-2.6167	-2.7438	-1.975	-2.8354	-2.2979	-2.2875	-2.7687	-2.2042	-2.3917	-3.0521	-1.9937	-2.9958	-2.6292	-1.8708	-3.0917	215.023	124.757	218.335	265.654	354.767	416.439	400.540	122.229	392.986	303.311	369.432	428.638	250.844	403.233	329.411	439.357	0.0042786	0.00024798	0.00032613	859.29	1.1007e-05	1.1135e-05	1177.6	315.6	1.406e-05	5.5863e-06	541.66	242.27	144.36	69.554	2.3604e-06	135.06	0.00073223	0.00069482	0.00018206	823.13	7.7974e-06	7.6773e-06	1108.6	299.32	7.8991e-06	7.4876e-06	501.41	218.97	136.63	64.283	6.7706e-06	119.98	406.715	327.065	233.522	101.837	249.531	200.706	100.383	106.206	157.715	265.552	106.128	110.202	111.009	115.201	321.640	113.234	-8191	255	
2058.975	1	1	0	0	0.61287	0.13821	0.10354	0.35526	0.048849	0.26546	0.22771	0.21468	0.28606	0.11682	0.16698	0.24832	0.15683	0.11232	0.17867	0.20111	-1.6479	-2.4688	-2.8812	-1.9896	-2.7896	-2.6	-2.1146	-2.9062	-2.0583	-2.1667	-3.0167	-2.0521	-2.7583	-2.7208	-2.0354	-3.1063	234.137	286.026	386.731	446.558	384.174	306.633	404.781	313.075	283.312	412.143	162.791	382.088	163.534	426.227	357.821	436.733	0.0041945	0.00054342	0.0001825	858.62	1.3995e-05	7.7097e-06	1170.9	314.81	5.9763e-06	4.5936e-06	545.82	244.83	145.47	70.001	7.0657e-06	136.27	0.00074816	0.00067472	0.00017557	820.77	7.9894e-06	7.5001e-06	1098.2	301.57	7.9111e-06	7.2523e-06	502.31	221.14	136.37	64.394	6.4133e-06	121.08	409.683	432.161	92.853	101.778	250.211	252.630	101.241	106.433	206.141	285.988	106.011	109.751	110.912	114.959	302.688	113.231	-8191	255	
2059.096	1	1	0	0	0.32258	0.19582	0.24672	0.15127	0.035846	0.11101	0.38104	0.35864	0.079595	0.3783	0.1024	0.1354	0.16465	0.2137	0.092745	0.1043	-1.9417	-2.2542	-2.8438	-2.3875	-2.5312	-2.7146	-2.0563	-2.9104	-2.2604	-2.1396	-2.8688	-2.1917	-2.4854	-2.8604	-2.0417	-2.9958	200.872	325.302	402.813	445.208	417.099	215.276	341.359	90.315	230.981	276.388	358.621	166.815	94.874	370.407	319.029	384.291	0.0036053	0.00060423	0.00020444	843.67	3.0301e-06	5.7778e-06	1169.7	318.64	1.0201e-05	8.6145e-06	548.33	244.57	145.35	70.593	1.0883e-05	136.69	0.0007164	0.00062697	0.00016422	813.67	7.3986e-06	6.8773e-06	1087	302.3	7.3422e-06	6.6298e-06	501.51	221.92	134.78	64.528	6.0955e-06	121.78	409.356	331.174	174.841	101.821	350.131	301.655	101.741	106.721	183.907	196.345	105.718	110.360	111.063	114.793	167.980	112.927	-8191	255	
2059.167	1	1	0	0	0.2795	0.15757	0.092913	0.17158	0.084445	0.16137	0.3985	0.16128	0.32459	0.091547	0.14167	0.36234	0.02843	0.32507	0.38374	0.027853	-2.0125	-1.9104	-2.8833	-2.2604	-2.5958	-2.6771	-2.0292	-2.6937	-2.3708	-1.9312	-3.0021	-2.2542	-2.3896	-2.9313	-1.9854	-3.025	436.768	121.866	332.757	410.537	400.543	121.144	382.931	386.253	316.257	174.153	344.209	368.132	137.078	422.102	320.192	316.660	0.0035435	0.00072363	0.00028307	831.77	1.0563e-05	8.5538e-06	1164.1	317.73	7.6356e-06	1.602e-06	548.33	244.28	144.29	70.849	2.1676e-05	135.73	0.00066331	0.00057425	0.0001607	805.32	6.9106e-06	6.4527e-06	1082.7	302.18	6.9237e-06	6.2045e-06	501.16	221.67	133.23	64.473	6.5106e-06	121.43	406.862	186.482	437.553	100.636	138.930	191.865	100.672	106.625	339.554	254.152	105.716	110.029	111.041	115.349	223.809	113.081	-8191	255	
2059.286	1	1	0	0	0.11853	0.19961	0.23402	0.24067	0.17493	0.30133	0.25169	0.11704	0.26143	0.25021	0.31915	0.30609	0.10957	0.19392	0.19638	0.27774	-2.0167	-1.9542	-2.7313	-2.4292	-2.4479	-2.7917	-2.1854	-2.7313	-2.5583	-1.8479	-3.1708	-2.3104	-2.2667	-2.9958	-1.8229	-2.7292	422.892	430.092	310.992	398.802	331.783	158.754	301.785	341.564	349.022	379.450	412.232	400.561	425.048	391.457	385.494	446.436	0.0038403	0.0014683	0.00040597	830.54	3.3437e-06	4.1941e-06	1162.7	315.15	1.7012e-05	1.1711e-05	548.81	244.99	146.55	70.797	2.116e-06	137.07	0.00063766	0.00054702	0.0001677	799.89	6.5613e-06	6.0752e-06	1084.5	300.51	6.5749e-06	5.8401e-06	504.75	222.01	132.96	64.609	6.8645e-06	121.87	401.591	277.319	131.260	101.464	250.790	188.804	101.652	107.313	310.499	313.662	105.660	110.159	110.683	115.402	374.139	113.253	-8191	255	
2059.382	1	1	0	0	0.11023	0.3105	0.15776	0.0093529	0.08547	0.084424	0.22133	0.1733	0.20968	0.099028	0.042191	0.23406	0.19841	0.322	0.13614	0.25123	-2.2979	-2.0333	-2.7167	-2.3563	-1.9062	-2.7542	-2.3396	-2.4917	-2.7896	-1.7563	-2.925	-2.5812	-1.7563	-3.0604	-1.9604	-2.6354	374.333	400.985	183.100	176.000	141.461	417.350	366.012	348.669	423.302	125.740	410.351	405.658	286.272	97.653	132.529	366.334	0.0038556	0.00074111	0.00062623	834.5	9.1413e-06	5.4819e-06	1162	317.57	1.7758e-05	1.1611e-05	550.72	245.5	146.53	71.663	1.3138e-05	136.95	0.00061217	0.00053308	0.00017333	801.39	6.1822e-06	5.9188e-06	1088.9	299.37	6.2547e-06	5.9163e-06	507.68	221.85	132.13	65.21	7.2003e-06	121.63	404.200	173.190	106.353	102.090	177.689	223.897	101.509	107.350	239.392	193.117	105.685	109.009	110.778	114.960	171.312	112.723	-8191	255	
2059.479	1	1	0	0	0.11811	0.21103	0.022738	0.15965	0.37613	0.072807	0.17064	0.28724	0.23682	0.22431	0.15999	0.35711	0.11265	0.16143	0.11013	0.10779	-2.2938	-1.8563	-2.6771	-2.4875	-2.1271	-2.7729	-2.2896	-2.3979	-2.8521	-2.0812	-2.5167	-2.8042	-1.9937	-2.9188	-2.2167	-2.4667	163.383	407.396	389.796	89.749	228.277	226.864	305.108	368.308	448.897	148.567	359.901	431.317	94.576	391.816	249.761	398.111	0.0038508	0.00061239	0.00030659	844.27	7.7775e-06	1.3625e-05	1165.1	316.76	1.0551e-05	1.7813e-05	541.5	239.85	145.19	70.42	1.1597e-05	133.79	0.00060755	0.00058642	0.00018716	811.5	6.2783e-06	6.6743e-06	1099.2	299.45	6.3837e-06	6.7856e-06	502.57	218.99	131.11	64.567	7.5562e-06	119.09	408.077	202.167	151.952	100.924	142.143	189.962	101.363	107.540	227.099	190.987	105.426	108.803	110.562	115.040	192.111	112.718	-8191	255	
2059.575	1	1	0	0	0.16449	0.10004	0.14433	0.17168	0.077302	0.11253	0.14275	0.14838	0.14006	0.18846	0.13745	0.078159	0.14763	0.24314	0.11291	0.08364	-2.3667	-2.025	-2.4875	-2.525	-2.0792	-2.6562	-2.4313	-2.2083	-2.7083	-1.9958	-2.6271	-2.7188	-1.8292	-3.1042	-2.1813	-2.0729	383.147	352.013	267.093	400.871	350.060	362.149	90.745	373.110	419.281	412.674	406.145	380.068	307.769	379.148	130.910	408.378	0.0039617	0.00093308	0.00035504	846.81	1.2752e-05	4.4041e-06	1169.2	313.02	1.1223e-05	2.0672e-05	531.97	237.08	141.98	69.616	9.2028e-06	132.11	0.00062454	0.00066054	0.00019187	816.95	6.3782e-06	7.3713e-06	1099.4	295.95	6.4085e-06	7.2623e-06	494.35	214.52	128.49	64.025	7.0349e-06	117.39	401.608	164.612	151.139	101.040	232.641	104.924	100.777	107.463	203.823	189.965	105.075	110.187	110.346	115.274	261.336	113.102	-8191	255	
2059.695	1	1	0	0	0.11824	0.19598	0.12893	0.23727	0.1261	0.2569	0.10394	0.21123	0.16052	0.21674	0.022879	0.11819	0.066388	0.078501	0.080289	0.082144	-2.3	-1.9958	-2.3375	-2.7292	-2.0125	-2.7208	-2.6604	-2.0479	-2.6979	-2.0729	-2.425	-2.9042	-1.9354	-2.7854	-2.4833	-2.1021	206.792	328.742	376.845	401.415	403.839	183.508	306.400	274.639	162.128	123.429	275.179	267.444	220.495	375.509	268.064	381.809	0.0038764	0.00078504	0.00012133	888.87	1.0705e-05	4.4673e-06	1203.8	311	1.481e-05	4.2575e-06	525.87	236.23	141.77	70.476	1.6564e-06	132.76	0.00058018	0.00063202	0.0001665	841.56	5.8687e-06	6.7965e-06	1121.6	292.52	6.028e-06	6.895e-06	484.6	211.98	128.24	64.71	6.669e-06	117.84	404.999	194.455	190.975	101.678	198.285	263.336	100.452	106.348	178.535	158.891	104.698	109.501	109.807	115.140	361.076	112.831	-8191	255	
2059.792	1	1	0	0	0.156	0.11015	0.059605	0.035707	0.19291	0.15004	0.20744	0.23261	0.032817	0.17467	0.27226	0.11384	0.056574	0.11211	0.011007	0.38383	-2.3979	-2.0083	-2.2917	-2.9333	-1.8104	-2.8417	-2.5833	-2.0208	-2.8833	-2.0729	-2.3417	-3.1271	-2.0646	-2.8583	-2.4625	-2.1208	128.447	115.491	371.495	255.673	285.915	334.839	428.694	372.766	247.133	352.461	397.913	336.810	107.929	383.836	360.087	397.065	0.0044495	0.00061921	0.00018053	905.49	7.4328e-06	2.6952e-06	1205.6	310.97	1.435e-05	2.7431e-06	529.25	238.38	142.02	71.03	9.0943e-06	135.82	0.00061977	0.00065536	0.00016724	855.98	6.4758e-06	6.9579e-06	1128.8	291.26	6.6906e-06	6.9923e-06	485.58	213.53	130.04	65.253	6.6251e-06	120.35	411.738	237.678	152.660	100.852	212.931	349.384	101.455	106.941	198.870	206.126	105.482	110.551	111.290	115.171	211.738	113.007	-8191	255	
2059.863	1	1	0	0	0.13229	0.23528	0.055893	0.23788	0.16544	0.27877	0.14998	0.17039	0.039619	0.18325	0.14344	0.41527	0.13102	0.16008	0.19923	0.41148	-2.4479	-2.1625	-2.1604	-2.8688	-1.8875	-2.6042	-2.725	-1.9021	-2.7854	-2.4313	-2.1688	-2.9938	-2.0729	-2.6271	-2.8583	-2.1896	133.719	167.265	287.367	340.245	269.046	383.239	307.362	401.312	397.848	142.732	295.149	413.080	261.826	387.936	139.488	365.326	0.0042019	0.0011383	0.0002982	912.37	2.9002e-06	1.9593e-06	1204.1	314.82	7.7058e-06	1.1482e-05	530.38	240.55	140.46	72.279	5.52e-06	139.02	0.00066369	0.00066147	0.00016614	862.74	7.2263e-06	7.0809e-06	1128	294.9	7.167e-06	6.9263e-06	486.48	215.87	132.1	65.951	6.2415e-06	122.52	407.351	235.874	408.566	101.352	330.306	144.671	101.310	107.643	120.051	214.087	104.364	109.046	110.362	114.922	160.229	113.761	-8191	255	
2059.959	1	1	0	0	0.14916	0.10853	0.26315	0.20459	0.2261	0.031348	0.28503	0.18497	0.066173	0.21564	0.2043	0.26685	0.15325	0.27741	0.16914	0.16005	-2.2625	-2.3417	-2.1063	-2.9021	-2.1208	-2.2188	-2.9771	-1.9667	-2.7417	-2.5229	-2.0896	-2.95	-2.1229	-2.4146	-2.8104	-2.2146	309.593	137.579	405.410	362.983	299.247	269.919	99.578	100.997	303.346	122.978	94.861	412.274	335.953	443.809	335.897	98.118	0.0045119	0.00046183	0.00016287	937.47	5.6664e-06	2.382e-06	1245	318.28	1.0873e-05	2.407e-06	533.74	242.42	144.3	73.275	2.7767e-06	141.09	0.00066031	0.00060028	0.00015036	887.91	6.9428e-06	6.3903e-06	1152.9	297.87	6.7414e-06	6.4048e-06	485.78	217.47	132.04	66.627	5.744e-06	124.47	403.586	221.433	198.590	100.830	172.334	175.869	101.057	107.202	252.328	360.875	105.333	109.558	110.892	115.647	91.588	113.984	-8191	255	
2060.055	1	1	0	0	0.21014	0.12246	0.069963	0.18661	0.19467	0.36802	0.18169	0.22217	0.15007	0.031695	0.22242	0.058525	0.10937	0.55061	0.048174	0.13104	-2.4042	-2.6063	-2.1521	-2.7854	-2.0979	-1.9479	-3.0646	-2.1479	-2.5417	-2.7083	-2.1833	-2.8042	-2.4396	-2.325	-2.8104	-2.2583	186.061	400.875	207.955	354.856	375.321	106.452	113.425	397.654	298.959	439.971	344.410	282.863	108.127	363.571	421.061	146.778	0.0043569	0.00014618	0.00017936	989.2	7.399e-06	1.9535e-06	1313.3	324.81	1.6863e-05	7.6855e-06	540.06	245.34	145.31	73.447	8.9243e-06	142.13	0.00063187	0.00057629	0.00014237	931.63	6.8011e-06	6.2369e-06	1208.4	305.2	6.8883e-06	6.5396e-06	494.35	222.33	134.82	66.872	6.3594e-06	126.43	401.893	280.031	246.493	100.570	231.764	218.709	100.530	106.923	197.222	317.717	105.883	110.717	110.469	114.889	226.449	112.849	-8191	255	
2060.174	1	1	0	0	0.098575	0.07548	0.013738	0.11473	0.1557	0.21921	0.19742	0.1354	0.19958	0.1348	0.26816	0.01124	0.040917	0.16181	0.020787	0.13456	-1.8167	-2.75	-1.7708	-2.7958	-2.6063	-2.1813	-3.1083	-2.3896	-2.4271	-2.9708	-1.8833	-2.9417	-2.5375	-2.0521	-2.7812	-2.4417	357.849	102.762	420.446	116.392	96.683	322.469	434.221	150.478	126.585	174.124	402.953	379.211	368.587	426.239	376.689	405.144	0.003727	0.0010148	0.00032515	995.33	5.3799e-06	7.6418e-06	1331.8	325.37	1.5539e-05	1.0978e-05	550.3	247.1	147.46	74.075	1.9684e-05	143.99	0.00070013	0.0006335	0.00016426	957.28	7.4361e-06	6.6822e-06	1240.8	309.95	7.2731e-06	6.85e-06	505.1	225.14	136.64	67.428	7.018e-06	128.36	402.375	192.240	147.545	100.727	230.924	145.475	101.700	107.331	195.838	240.421	106.385	109.509	110.841	115.755	197.169	112.983	-8191	255	
2060.271	1	1	0	0	0.15753	0.13748	0.014936	0.37297	0.12162	0.089802	0.34198	0.19983	0.10244	0.29514	0.21079	0.25012	0.22897	0.18343	0.070297	0.37282	-1.6792	-2.8292	-1.9312	-2.8937	-2.6167	-2.0312	-3.0271	-2.2354	-2.0833	-2.9437	-2.3875	-2.8583	-2.5729	-2.1542	-2.9813	-2.5708	411.275	339.820	229.724	95.634	359.587	225.971	362.262	189.888	225.837	365.837	395.153	385.752	421.426	394.578	98.205	407.917	0.0037156	0.00052552	0.00058754	991.33	2.8665e-06	8.3644e-06	1299.8	323.9	8.7214e-06	6.2982e-06	552.58	250.42	146.17	73.465	2.2788e-05	142.68	0.00070821	0.00063899	0.00018624	954.77	7.8363e-06	7.0881e-06	1220.8	312.33	8.1373e-06	7.8016e-06	516.61	230.71	141.74	67.878	9.2769e-06	129.31	408.218	174.880	135.938	100.782	217.424	384.692	101.244	107.277	124.543	229.893	106.256	110.270	110.819	115.081	232.289	113.168	-8191	255	
2060.368	1	1	0	0	0.068488	0.19457	0.20286	0.11629	0.22712	0.25763	0.3515	0.055456	0.074722	0.046681	0.24538	0.31824	0.044805	0.24646	0.065556	0.23169	-1.85	-2.7375	-2.1771	-2.7708	-2.6437	-2.0583	-3.0375	-2.3667	-2.2375	-2.8333	-1.9875	-2.6583	-2.9896	-1.9146	-2.7333	-2.6333	209.550	440.590	99.386	359.740	194.380	318.900	368.023	150.160	384.489	384.707	427.646	346.108	352.983	348.514	265.521	402.532	0.0039276	0.0010686	0.00048691	973.96	1.232e-05	1.184e-05	1285.5	315.29	1.7509e-05	5.2424e-06	545.56	250.87	146.57	72.615	2.1751e-05	141.08	0.00086371	0.00079132	0.00025193	953.05	9.7785e-06	8.9385e-06	1232.1	313.98	9.8066e-06	9.3055e-06	525.04	233.22	145.19	67.918	1.1016e-05	128.29	387.866	146.055	131.744	101.631	270.960	205.977	101.244	106.933	202.043	294.875	105.050	109.388	110.377	114.947	197.664	113.663	-8191	255	
2060.463	1	1	0	0	0.14782	0.038881	0.2625	0.30953	0.17876	0.16041	0.19081	0.19601	0.19039	0.01664	0.13631	0.19427	0.096602	0.25184	0.12525	0.26939	-1.7812	-2.7417	-2.1042	-2.6125	-2.7833	-1.8333	-2.9458	-2.6167	-1.8813	-2.8625	-2.2687	-2.3	-2.8167	-2.2583	-2.6854	-2.6646	328.761	170.722	147.652	91.447	212.707	393.586	88.716	111.248	427.409	391.447	215.280	91.718	432.804	437.623	95.039	418.096	0.0034197	0.0014821	0.00022003	964.08	1.496e-05	6.8015e-06	1269.6	317.62	7.8148e-06	4.408e-06	550.91	252.38	145.9	72.962	2.7266e-06	140.93	0.00091902	0.0008877	0.00027943	947.95	9.7306e-06	9.4558e-06	1223.3	312.59	9.1289e-06	9.4993e-06	528.52	233.06	142.72	68.167	1.0495e-05	127.98	409.159	182.635	262.435	101.601	264.316	176.834	100.257	105.871	253.017	258.215	105.021	109.564	110.668	115.354	170.930	113.878	-8191	255	
2060.559	1	1	0	0	0.10678	0.069789	0.096607	0.17147	0.095175	0.20872	0.042226	0.15439	0.19396	0.21626	0.033625	0.29085	0.068246	0.097217	0.29129	0.4043	-1.3708	-2.8417	-2.0187	-2.3833	-2.8271	-1.9771	-2.8396	-2.8812	-1.9813	-2.9188	-2.4854	-2.2396	-2.9458	-2.0521	-2.4188	-3.1063	391.681	144.442	99.709	417.956	440.965	369.561	299.118	447.814	126.002	151.256	416.681	355.726	135.702	148.289	227.674	437.483	0.0038185	0.0011892	0.0003035	974.36	1.325e-05	1.4473e-05	1280.5	317.4	2.3485e-05	1.8074e-05	543.2	248.01	144.06	71.449	1.5293e-05	138.82	0.00084595	0.00090979	0.00027199	954.88	9.3903e-06	1.0246e-05	1238.7	312.98	9.2029e-06	1.0452e-05	526.16	229.96	141.69	67.73	1.056e-05	126.33	411.376	162.832	102.938	101.109	164.123	220.170	101.552	106.850	221.758	206.951	105.268	110.487	110.349	114.960	237.745	112.796	-8191	255	
2060.655	1	1	0	0	0.13303	0.065414	0.09959	0.15078	0.17144	0.34163	0.28374	0.17477	0.067306	0.12539	0.22599	0.17114	0.19468	0.029729	0.046792	0.29607	-1.3792	-2.5729	-2.3958	-2.1958	-2.8146	-1.9542	-2.5438	-2.9688	-1.8958	-2.8563	-2.5646	-2.2021	-2.8917	-2.3187	-2.2271	-2.9771	402.256	294.923	186.182	310.786	433.218	272.832	359.056	159.510	370.087	261.091	388.491	444.743	135.712	371.764	280.665	393.816	0.0042632	0.00099209	0.00028912	968.63	1.5586e-05	1.5456e-05	1290.3	315.03	1.9464e-05	1.728e-05	546.87	247.27	144.99	71.445	2.4081e-06	139.05	0.00087007	0.00098025	0.00026981	951.07	9.4849e-06	1.0995e-05	1238.6	311.11	9.6398e-06	1.1107e-05	527.04	229.2	143.59	68.259	1.0632e-05	126.33	408.196	195.294	253.165	101.669	190.330	193.196	101.125	105.802	137.169	264.713	105.214	109.713	110.977	115.568	130.456	113.838	-8191	255	
2060.776	1	1	0	0	0.1765	0.16319	0.1676	0.20929	0.049339	0.22168	0.18015	0.26873	0.10038	0.062086	0.19953	0.086886	0.29634	0.22662	0.25613	0.44376	-1.3979	-2.6937	-2.3021	-1.9813	-2.7333	-2.2646	-2.3375	-2.9417	-1.9792	-2.5563	-2.675	-2.0417	-2.9083	-2.3187	-2.2833	-3.0229	361.603	294.401	123.661	348.801	118.279	401.834	382.750	394.191	293.064	136.066	108.202	390.005	214.670	432.204	313.317	388.156	0.0052374	0.0011224	0.00029112	974.16	1.1917e-05	4.3313e-06	1296.7	317.08	1.1537e-05	1.0439e-05	545.43	247.9	145.85	71.365	5.7229e-06	138.75	0.00093668	0.0010237	0.00026915	953.07	1.0127e-05	1.1118e-05	1238.6	310.11	1.0084e-05	1.079e-05	525.43	228.36	144.09	67.785	9.885e-06	125.65	406.571	122.092	114.023	100.845	197.195	108.483	101.282	107.311	180.438	102.701	105.934	110.865	110.395	115.232	221.426	113.596	-8191	255	
2060.872	1	1	0	0	0.14525	0.28669	0.20282	0.055851	0.27053	0.11466	0.069314	0.21845	0.058443	0.095943	0.2457	0.30876	0.062399	0.15476	0.13875	0.31153	-1.5229	-2.4667	-2.6417	-1.9625	-2.9042	-2.4583	-2.2729	-2.9375	-2.0125	-2.5062	-2.9479	-2.3396	-2.7979	-2.4062	-2.2104	-2.9958	274.401	282.953	416.011	412.666	115.151	346.359	170.417	363.407	103.909	125.743	332.170	325.888	364.246	137.744	348.340	364.798	0.0046431	0.00081194	0.0001899	976.39	1.7565e-05	7.2181e-06	1294.5	318.63	9.5454e-06	1.0292e-06	547.51	248.49	146.06	71.015	1.1128e-05	138.8	0.00094343	0.00094739	0.0002471	948.43	1.0126e-05	1.0303e-05	1233	308.99	1.0179e-05	1.0005e-05	521.46	227.32	144.41	67.115	9.2425e-06	125.31	406.292	269.912	428.748	101.730	195.564	151.300	101.038	106.674	180.549	230.227	106.738	110.350	111.723	114.582	415.983	112.955	-8191	255	
2060.968	1	1	0	0	0.246	0.24707	0.27772	0.14687	0.13504	0.23022	0.32159	0.36665	0.28872	0.023183	0.3697	0.049525	0.057878	0.20438	0.16877	0.5521	-1.4729	-2.4708	-2.8396	-2.0542	-2.8708	-2.4021	-2.0875	-2.9583	-2.0167	-2.3	-2.9292	-2.1333	-2.6917	-2.8417	-1.8229	-3.1	179.700	376.059	443.981	351.593	234.360	428.552	385.229	410.559	398.272	118.178	412.535	178.515	317.491	428.578	246.434	407.379	0.0043833	0.0015833	0.00056479	983.08	4.3458e-06	6.8669e-06	1302.6	318.39	1.572e-05	5.7927e-06	546.72	245.99	144.96	70.282	1.3264e-05	137.75	0.0009602	0.00089892	0.00023403	955.12	1.0228e-05	9.9071e-06	1230.9	308.71	1.0156e-05	9.6008e-06	516.46	226.22	143.43	66.221	8.5711e-06	124.51	402.457	238.464	174.484	101.194	279.008	159.465	100.752	106.269	146.638	155.768	105.589	109.648	110.764	115.266	167.431	113.271	-8191	255	
2061.064	1	1	0	0	0.22312	0.25263	0.31099	0.22984	0.23892	0.10626	0.045367	0.10581	0.19996	0.066664	0.02625	0.24513	0.17862	0.26948	0.13838	0.066649	-1.6437	-2.1688	-2.8042	-2.2562	-2.7	-2.5604	-2.1063	-2.8229	-2.2167	-2.225	-2.9417	-2.1813	-2.6125	-2.8875	-1.8771	-2.8812	378.102	267.413	109.331	440.486	297.775	421.041	412.506	236.676	115.761	220.658	179.940	408.191	431.325	402.606	367.330	344.231	0.0038842	0.0012191	0.00052922	994.79	8.1038e-06	1.2292e-05	1304.5	318.88	1.3304e-06	1.0421e-05	547.13	246.94	143.31	70.568	4.604e-06	138.04	0.00093076	0.00084682	0.00021716	964.58	9.8296e-06	9.3251e-06	1232.4	311.8	9.9302e-06	9.224e-06	514.24	228.24	142.47	65.908	8.4246e-06	125.05	402.923	302.175	173.742	101.373	179.397	237.533	101.288	106.771	140.156	250.027	105.978	109.502	110.991	115.615	296.006	113.770	-8191	255	
2061.160	1	1	0	0	0.28563	0.068222	0.14602	0.060141	0.018087	0.21373	0.22972	0.26589	0.30208	0.25005	0.42939	0.25529	0.13607	0.031289	0.27727	0.24055	-1.8687	-2.0312	-2.7521	-1.9958	-2.5479	-2.9333	-2.1312	-2.8708	-2.4604	-2.1083	-3.0625	-2.2417	-2.4313	-2.8896	-2.05	-2.8104	447.135	143.224	421.888	89.599	112.315	406.353	359.177	402.863	334.777	404.689	415.266	434.905	416.098	162.131	431.290	409.134	0.0039612	0.00070978	0.00037787	999.65	5.0389e-06	8.7762e-06	1333.3	323.28	2.1398e-05	8.1826e-06	550.51	248.03	146.02	70.599	1.2355e-05	139.19	0.00091651	0.00082194	0.00021603	974.08	9.5421e-06	8.9302e-06	1251.6	315.71	9.5286e-06	8.6151e-06	515.68	229.47	141.48	65.839	8.5122e-06	126	403.823	398.417	180.787	101.447	391.088	260.073	101.980	106.635	209.292	375.745	105.891	110.676	111.221	115.821	242.511	114.073	-8191	255	
2061.255	1	1	0	0	0.084234	0.35284	0.089458	0.22487	0.34354	0.24936	0.057738	0.21728	0.24141	0.12058	0.1485	0.18099	0.18716	0.2896	0.24091	0.35784	-2.0604	-2.0104	-2.6667	-2.1396	-2.4417	-2.6813	-2.2271	-2.7313	-2.4354	-1.8937	-2.8917	-2.3	-2.4208	-3.0333	-1.8	-2.9396	414.964	243.578	100.855	382.449	258.329	411.065	363.133	412.976	99.812	114.863	364.011	407.603	436.724	128.601	344.340	416.977	0.0043417	0.0013049	9.7764e-05	1013.7	6.8603e-06	1.1301e-06	1374.7	333.39	1.5603e-05	4.9947e-06	558.48	249.11	147.15	71.292	1.7068e-05	140.79	0.00087916	0.0007771	0.00022145	991.5	9.2219e-06	8.5989e-06	1293.2	324.71	9.3918e-06	8.3601e-06	527.01	230.55	142	66.293	9.0091e-06	127.04	396.530	213.373	254.753	100.589	160.880	320.094	101.424	107.244	145.743	239.190	106.786	110.132	111.118	115.135	220.783	113.984	-8191	255	
2061.351	1	1	0	0	0.25896	0.084201	0.056361	0.19934	0.12944	0.092596	0.078014	0.18968	0.22922	0.13395	0.11649	0.39684	0.1234	0.29521	0.21075	0.40154	-2.2292	-1.8833	-2.7958	-2.2604	-2.2042	-2.8458	-2.2062	-2.7125	-2.5792	-1.8396	-2.9313	-2.5312	-2.2188	-2.9562	-1.9875	-2.5792	330.408	406.735	244.961	102.567	186.521	314.555	269.941	319.543	388.549	384.020	395.042	375.667	423.607	431.814	107.944	367.074	0.0041143	0.00056846	0.00060868	1040.7	2.7652e-06	5.6675e-06	1404.5	335.67	1.319e-05	6.6974e-06	563.56	248.43	145.82	72.848	1.1576e-06	141.9	0.00085508	0.00074504	0.00023099	1014.7	8.9409e-06	8.2644e-06	1327.1	326.27	8.9616e-06	8.1511e-06	530.71	229.23	140.55	67.217	9.3364e-06	128.27	411.386	195.188	162.821	101.483	203.593	151.693	101.605	106.514	154.083	170.976	106.523	110.361	111.388	114.926	153.238	113.319	-8191	255	
2061.472	1	1	0	0	0.086128	0.086961	0.35875	0.1418	0.26202	0.070886	0.11423	0.48304	0.21755	0.22836	0.25295	0.14945	0.13949	0.14287	0.044052	0.25054	-2.2479	-1.8333	-2.9917	-2.5708	-1.9354	-2.7854	-2.0062	-2.5833	-2.7583	-2.0542	-2.8479	-2.6333	-2.1792	-2.9104	-2.2229	-2.2667	327.865	220.650	99.132	425.698	169.093	338.035	416.906	407.589	150.531	155.218	422.176	108.214	135.028	366.319	268.519	399.548	0.0037949	0.00063606	0.00025937	1058.2	8.0671e-06	9.8929e-06	1407.1	340.27	1.1521e-05	9.5276e-06	560.91	249.5	148.73	73.503	5.8515e-06	143.04	0.00082713	0.00074168	0.00023738	1021.1	8.4802e-06	8.3129e-06	1327.8	328.46	8.4754e-06	8.1709e-06	532.36	229.04	140	68.248	9.152e-06	128.87	410.354	92.754	168.544	100.627	374.904	234.360	101.218	106.579	328.511	151.709	105.697	110.371	111.600	115.807	124.004	112.757	-8191	255	
2061.568	1	1	0	0	0.3137	0.10991	0.16114	0.10676	0.085538	0.19854	0.24137	0.30677	0.092075	0.1865	0.15052	0.30049	0.17324	0.21414	0.15865	0.19614	-2.475	-1.9958	-2.5875	-2.6063	-1.7646	-2.9646	-2.2042	-2.2146	-2.8229	-1.825	-2.7417	-2.7542	-2.0708	-2.8521	-2.2833	-2.3438	147.976	254.096	394.437	396.236	249.417	356.364	408.138	126.904	377.152	406.247	145.615	393.600	389.790	425.810	145.813	404.281	0.0040211	0.0011976	0.0003633	1062.8	6.0885e-06	8.3289e-06	1424.4	340.13	9.6025e-06	1.9237e-05	561.76	250.27	146.75	74.552	9.0851e-06	144.11	0.00077264	0.00076301	0.00023391	1020.4	7.8563e-06	8.5262e-06	1342.9	326.03	7.9119e-06	8.4892e-06	530.15	228.7	137.35	68.657	8.7798e-06	128.89	400.037	92.106	170.492	100.579	188.920	254.823	101.705	106.498	227.549	181.269	105.092	110.217	110.870	115.890	137.682	113.038	-8191	255	
2061.664	1	1	0	0	0.25122	0.13899	0.14223	0.084292	0.21679	0.23618	0.36156	0.19809	0.1469	0.23539	0.39792	0.22315	0.27994	0.06026	0.25373	0.27748	-2.5	-1.8917	-2.5083	-3.0333	-1.8062	-2.8583	-2.5563	-2.1688	-2.9708	-2.2042	-2.5833	-2.9188	-1.9438	-3.0271	-2.3333	-2.0792	410.674	414.302	120.910	312.374	347.278	110.157	424.077	241.337	202.231	445.764	407.033	128.727	422.482	430.986	93.234	366.788	0.0048927	0.00085107	0.00035628	1074.4	4.4571e-06	5.9885e-06	1463.9	349.88	1.6422e-05	7.6528e-06	571.67	251.19	149.39	74.472	3.5227e-06	144.92	0.00072145	0.00077772	0.00021575	1029.2	7.4188e-06	8.5105e-06	1372.7	331.77	7.5923e-06	8.6375e-06	534.07	229.12	139	69.145	8.5389e-06	128.9	406.580	91.918	111.475	101.359	151.459	264.554	100.536	106.714	256.897	124.763	106.371	108.987	111.267	115.517	187.774	113.737	-8191	255	
2061.735	1	1	0	0	0.31734	0.046021	0.31134	0.19054	0.10714	0.10853	0.44817	0.29269	0.13882	0.25991	0.15351	0.27303	0.067964	0.18617	0.10149	0.22558	-2.2542	-1.9625	-2.3646	-2.9542	-1.9083	-2.7438	-2.9396	-2.0458	-2.8333	-2.2	-2.4188	-3.1417	-2.1188	-2.7917	-2.4958	-2.2562	129.972	288.158	122.920	104.628	196.260	226.368	372.185	301.876	129.923	387.714	444.176	378.253	267.303	151.235	272.418	395.526	0.0045089	0.00039731	5.5604e-05	1126.2	1.2842e-05	7.6598e-06	1569.4	363.83	1.7972e-05	3.3438e-06	595.66	257.39	153.8	74.721	1.5177e-06	142.77	0.00073067	0.00079632	0.00021144	1067.7	7.6217e-06	8.5952e-06	1458.1	342.79	7.897e-06	8.6348e-06	551.21	233.29	142.89	69.243	8.2464e-06	127.48	408.095	158.549	359.693	101.685	189.849	152.264	100.480	106.767	177.336	324.063	106.234	109.816	111.279	115.620	327.350	113.257	-8191	255	
2061.856	1	1	0	0	0.19111	0.16994	0.29526	0.10506	0.064623	0.19644	0.17315	0.037775	0.29039	0.093571	0.28294	0.30569	0.30125	0.29815	0.076019	0.19668	-2.5396	-2.0687	-2.2167	-3.0354	-1.7958	-2.4938	-2.7396	-2.0146	-2.7062	-2.2313	-2.1833	-2.9396	-2.2812	-2.6083	-2.6104	-2.2333	368.026	142.076	89.979	416.450	305.768	402.722	440.406	265.658	255.748	246.202	346.935	434.403	376.507	405.884	296.593	405.849	0.0047038	0.00049574	0.00031467	1153.1	1.5298e-05	8.6912e-07	1608.7	373.76	9.2512e-06	4.0982e-06	608.28	260.71	156.79	72.208	9.6276e-06	140.39	0.0007616	0.00079396	0.00020632	1089.6	8.2244e-06	8.5934e-06	1493.2	351.29	8.4083e-06	8.7327e-06	565.19	236.71	148.01	67.219	8.3387e-06	125.68	407.000	121.038	112.667	101.763	255.693	232.058	100.919	107.261	141.393	225.094	106.376	110.001	111.014	115.778	293.870	114.022	-8191	255	
2061.952	1	1	0	0	0.043749	0.037944	0.1962	0.44473	0.10504	0.31704	0.27367	0.19782	0.13862	0.08444	0.10741	0.12727	0.15608	0.13929	0.17089	0.16933	-2.4958	-2.1917	-2.0021	-3.0708	-2.0417	-2.35	-2.8583	-2.1667	-2.6729	-2.4042	-2.4313	-3.1625	-1.9813	-2.4083	-2.9125	-2.1771	268.457	403.541	162.148	434.653	395.399	322.781	389.176	397.349	314.520	303.114	105.299	146.091	160.549	389.592	104.688	402.739	0.0044934	0.0015773	0.00041716	1163.9	1.389e-05	1.0307e-05	1619.2	384.77	1.8354e-05	1.937e-06	620.19	260.32	156.4	70.568	5.62e-06	139.89	0.00083682	0.0008115	0.00020869	1100.1	9.0463e-06	8.8411e-06	1505	361.2	9.127e-06	8.8492e-06	571.92	237.83	149.55	65.615	8.2466e-06	125.48	403.679	198.250	347.121	100.768	217.109	281.116	101.284	106.973	196.015	106.702	105.724	109.182	110.172	115.960	272.112	113.051	-8191	255	
2062.048	1	1	0	0	0.09417	0.079613	0.082044	0.1568	0.040775	0.08383	0.17323	0.22423	0.20035	0.15404	0.11085	0.064711	0.21554	0.238	0.17432	0.21958	-2.2875	-2.3812	-1.9375	-3.0667	-2.1833	-2.3312	-3.0333	-2.0938	-2.6562	-2.7562	-2.0583	-2.9146	-2.3458	-2.4104	-2.8583	-2.2875	105.469	239.671	242.538	120.698	302.466	245.407	120.313	363.972	282.090	157.283	100.419	170.774	322.177	97.034	327.460	446.387	0.0040454	0.00072757	0.00021294	1169.1	9.1025e-07	4.9345e-06	1610.5	380.2	9.6339e-06	1.4341e-05	611.39	259.14	154.05	69.107	5.1765e-06	137.87	0.00086583	0.00081616	0.0002042	1106	9.3174e-06	8.788e-06	1492.9	361.41	9.3079e-06	8.9383e-06	566.12	236.3	148.6	64.493	8.0247e-06	124.37	405.776	111.921	414.034	101.745	315.341	209.960	101.426	106.039	194.243	445.133	106.011	109.910	110.940	115.931	187.245	113.173	-8191	255	
2062.169	1	1	0	0	0.098442	0.17779	0.13575	0.10835	0.12027	0.087435	0.23776	0.25089	0.015796	0.12722	0.12446	0.05139	0.062728	0.26474	0.12694	0.21298	-2.1667	-2.5625	-2.0292	-3.0208	-2.0458	-2.2417	-3.1417	-2.0187	-2.4479	-2.9188	-2.1646	-2.9938	-2.6854	-2.1437	-2.8917	-2.3021	133.410	236.239	253.180	308.473	417.546	198.611	440.074	416.112	199.055	212.233	347.783	136.379	94.971	409.583	230.360	407.972	0.0036815	0.0013961	3.6663e-05	1159.7	1.0348e-05	5.3019e-06	1608.9	378.86	4.1901e-06	3.8618e-06	611.03	258.01	152.1	68.932	1.2437e-05	138.12	0.00085544	0.00080451	0.0002011	1108.6	9.1566e-06	8.611e-06	1485.1	361	9.0132e-06	8.5357e-06	563.05	236.16	146.12	64.344	8.0254e-06	125.12	410.834	256.317	415.339	101.427	174.164	125.353	101.289	106.771	171.857	238.891	105.430	109.768	111.037	115.502	175.751	113.663	-8191	255	
2062.263	1	1	0	0	0.15379	0.083913	0.28929	0.11868	0.22532	0.11063	0.30708	0.13414	0.11339	0.16452	0.27042	0.10638	0.097964	0.2004	0.15927	0.3076	-2.1021	-2.7	-2.0229	-2.9479	-2.3771	-2.35	-3.0812	-2.1688	-2.3833	-2.9125	-2.05	-2.9417	-2.425	-1.9062	-2.8063	-2.4	243.190	445.760	212.384	100.876	335.648	103.293	103.360	320.814	428.544	338.273	128.068	391.133	270.665	424.012	367.572	360.806	0.003964	0.001074	0.00022409	1150.7	1.2935e-05	4.8021e-06	1595.2	377.47	2.405e-05	1.8329e-06	607.74	255.75	153.43	68.626	1.3102e-05	138.95	0.00083249	0.00075772	0.00020262	1104.2	8.8495e-06	8.1255e-06	1481	361.89	8.8178e-06	8.1938e-06	563.3	235.85	145.81	63.654	8.4966e-06	125.07	394.829	116.852	165.988	101.725	250.436	233.789	101.369	105.975	213.576	291.874	105.570	110.207	110.529	115.193	180.844	113.948	-8191	255	
2062.337	1	1	0	0	0.095075	0.20929	0.11596	0.19005	0.15394	0.16912	0.3067	0.1832	0.3531	0.10252	0.18095	0.11474	0.32439	0.070722	0.17958	0.34391	-1.875	-2.9562	-1.9375	-2.7542	-2.475	-1.9562	-2.9146	-2.35	-2.2208	-2.7667	-2.0354	-2.8312	-2.5479	-2.025	-2.8563	-2.5833	274.847	386.930	442.253	100.769	248.329	240.608	416.889	332.249	316.031	272.346	280.727	146.873	370.110	382.566	244.303	362.313	0.0038358	0.00045041	0.00077166	1146.5	7.8566e-06	5.0263e-06	1575.6	371.21	1.7861e-05	2.8589e-06	597.24	252.34	147.75	67.451	9.5368e-06	135.74	0.00082269	0.00074672	0.00022086	1103.3	9.0446e-06	8.1577e-06	1478.9	357.97	8.9895e-06	8.292e-06	559.79	232.84	143.73	62.604	9.4319e-06	123.04	403.429	228.286	157.623	100.326	221.750	178.173	100.658	106.643	244.383	279.190	104.554	109.651	111.762	116.406	167.066	113.625	-8191	255	
2062.456	1	1	0	0	0.15818	0.2015	0.068574	0.18501	0.15605	0.14803	0.36686	0.045729	0.16159	0.39208	0.23117	0.46107	0.17018	0.16717	0.21432	0.23467	-1.8875	-2.8521	-2.1104	-2.6417	-2.8688	-1.9208	-2.925	-2.5375	-2.0563	-2.9271	-2.2792	-2.5854	-2.7229	-1.9854	-2.7812	-2.625	220.343	446.315	169.195	422.359	99.035	255.872	378.673	124.221	139.640	373.477	334.748	389.217	408.082	317.974	186.520	377.763	0.0034422	0.0035537	0.00028058	1127	6.7833e-06	1.2923e-05	1546.8	362.45	1.4397e-05	1.7489e-05	584.23	250.22	145.55	66.088	5.7141e-06	134.91	0.00084566	0.00077734	0.00024425	1084.9	9.2127e-06	8.5225e-06	1453.7	349.62	9.1314e-06	8.8443e-06	553.42	231.29	141.61	62.008	1.0103e-05	122.44	403.905	155.032	126.935	101.373	164.171	198.721	101.716	106.245	184.642	255.421	105.387	110.264	111.610	115.814	159.569	114.094	-8191	255	
2062.552	1	1	0	0	0.21912	0.044909	0.17087	0.11325	0.19225	0.04665	0.41337	0.45794	0.2959	0.20697	0.14976	0.21143	0.29699	0.26184	0.15987	0.35395	-1.7333	-2.9854	-2.1792	-2.4917	-2.9688	-1.8563	-2.7958	-2.7271	-1.9708	-2.9229	-2.3563	-2.5125	-2.8479	-1.9417	-2.7062	-2.7479	246.239	391.988	190.188	174.132	126.712	247.156	368.667	363.244	395.154	325.694	386.496	421.938	134.170	305.735	257.471	408.798	0.0041166	0.00062993	0.00015401	1103.6	3.4407e-06	7.6153e-06	1508.8	353.98	9.3925e-06	1.8688e-05	575.79	248.73	144.38	65.33	1.4396e-05	134.55	0.00085493	0.00084106	0.0002629	1064.5	9.227e-06	9.4706e-06	1430.8	344.41	9.1368e-06	9.825e-06	552.3	231.49	141.53	62.331	1.0737e-05	122.48	415.018	120.309	149.497	101.602	185.703	197.939	100.302	106.064	188.308	209.293	105.889	110.571	111.075	115.355	202.338	114.381	-8191	255	
2062.648	1	1	0	0	0.073203	0.088842	0.32075	0.19509	0.13249	0.1929	0.1595	0.29818	0.092586	0.17117	0.24619	0.12953	0.2721	0.17491	0.18801	0.13951	-1.6729	-3.05	-2.15	-2.2208	-2.8563	-2.0354	-2.7687	-2.9375	-1.9917	-2.8354	-2.5167	-2.1333	-2.8812	-2.1833	-2.4479	-2.8542	312.540	341.995	196.647	378.478	340.137	439.785	204.585	388.110	196.769	344.015	336.812	406.884	385.283	146.529	210.071	371.026	0.0041888	0.00098781	0.00035197	1077	1.7735e-05	7.6325e-06	1482.6	350.32	1.9105e-05	1.4141e-05	565.83	249.1	143.01	64.775	6.7159e-06	132.69	0.00087506	0.00095339	0.00027713	1049	9.5835e-06	1.0668e-05	1409.8	341	9.614e-06	1.107e-05	547.27	232.16	141.54	62.305	1.1485e-05	122	404.745	102.060	108.646	102.031	130.249	204.709	100.456	107.038	219.058	203.812	106.336	110.717	111.185	116.660	108.745	113.401	-8191	255	
2062.769	1	1	0	0	0.12072	0.076129	0.1016	0.21282	0.060464	0.10874	0.16727	0.20583	0.1294	0.14393	0.26234	0.072494	0.42109	0.16275	0.11793	0.19043	-1.6875	-2.5979	-2.6542	-2.2167	-2.8875	-2.2021	-2.5417	-3.0042	-2.25	-2.6833	-2.625	-2.3042	-2.9375	-2.375	-2.3187	-2.8417	432.997	189.792	440.478	366.701	121.483	274.308	403.155	106.835	125.588	421.516	401.066	126.725	442.732	121.556	125.290	387.842	0.0050868	0.0020708	0.00017533	1029.6	9.4227e-06	9.6217e-06	1409.1	339.04	1.7206e-05	1.4482e-05	557.51	249.98	140.03	63.555	6.2609e-06	131.17	0.00096896	0.0010892	0.00029636	1016	1.0889e-05	1.2332e-05	1361.3	336.4	1.1135e-05	1.2579e-05	546.37	233.37	145.29	62.111	1.2152e-05	120.67	403.823	177.311	157.816	101.192	242.756	226.191	100.763	106.987	104.919	315.321	105.560	110.170	111.601	115.800	392.027	113.853	-8191	255	
2062.865	1	1	0	0	0.028792	0.039826	0.14231	0.027445	0.35275	0.10901	0.16929	0.10732	0.17134	0.077702	0.23629	0.14463	0.0095162	0.44769	0.092491	0.11087	-1.675	-2.6396	-2.3521	-2.2521	-2.6729	-2.2833	-2.3625	-2.7396	-1.9354	-2.6021	-2.4583	-2.1292	-2.6813	-2.4667	-2.1312	-3.0875	373.396	288.325	306.986	434.023	392.051	100.817	386.039	395.265	141.893	225.464	411.499	193.040	168.480	406.851	209.550	410.800	0.0040786	0.0018086	0.00026125	989.7	1.6442e-05	8.6527e-06	1355.9	337.42	2.8829e-05	1.4557e-05	570.54	263.35	145.04	61.808	1.4129e-05	133.21	0.0011103	0.0012064	0.00032197	984.37	1.2803e-05	1.4057e-05	1324.2	340	1.4435e-05	1.5616e-05	578.19	250.85	164.17	63.547	1.582e-05	125.09	401.204	284.337	346.371	100.837	172.039	130.838	101.151	107.108	167.519	285.750	105.468	110.210	110.304	114.758	332.408	113.893	-8191	255	
2062.961	1	1	0	0	0.16201	0.036759	0.10774	0.37464	0.11832	0.17422	0.27188	0.094536	0.13416	0.19761	0.17282	0.17647	0.098705	0.32597	0.33125	0.20614	-1.675	-2.4208	-2.6167	-2.1771	-2.9208	-2.3438	-2.2062	-2.9333	-2.0083	-2.5312	-2.7854	-2.3	-2.9646	-2.525	-2.0708	-3.2229	219.522	432.085	111.393	439.558	97.292	436.901	391.159	302.405	141.602	389.692	286.849	407.264	395.317	141.705	319.839	399.915	0.0045034	0.00045147	0.00039149	916.03	2.7326e-05	7.6894e-06	1298.9	344.49	8.7444e-06	6.3098e-06	570.77	258.59	140.76	62.191	7.1352e-06	131.42	0.0015737	0.0015632	0.00041467	960.72	1.7453e-05	1.7456e-05	1309.5	354.7	1.729e-05	1.6305e-05	574.34	246.26	156.7	61.454	1.2064e-05	120.71	392.713	278.916	285.193	101.183	199.198	292.401	100.774	106.524	190.193	293.770	104.832	109.796	111.343	115.205	330.893	113.731	-8191	255	
2063.033	1	1	0	0	0.15618	0.066419	0.17433	0.25116	0.085566	0.21692	0.36784	0.10535	0.13668	0.12501	0.1667	0.37254	0.05263	0.21665	0.065475	0.22627	-1.6729	-2.1583	-2.8167	-1.9729	-2.7062	-2.5417	-2.1021	-3.1396	-2.1437	-2.2583	-2.9875	-2.2229	-2.5604	-2.8042	-1.9542	-3.1521	248.382	127.080	131.926	102.713	299.207	417.629	343.418	289.494	203.808	201.533	393.308	387.474	195.265	429.582	438.316	368.372	0.0042493	0.00080131	0.00037955	953.14	6.7553e-06	5.7119e-06	1319.5	340.03	2.3011e-05	1.2796e-05	550.8	247.36	135.25	65.687	2.9431e-06	133.93	0.0011656	0.001031	0.00025912	937.14	1.0969e-05	1.0349e-05	1251.3	331.84	1.095e-05	1.0184e-05	524.76	228.8	137.64	62.181	8.5327e-06	121.2	407.276	262.198	274.129	100.897	161.931	343.194	101.533	106.360	138.331	445.368	105.724	110.408	111.596	115.383	247.040	113.192	-8191	255	
#DATA ENDS
