BOXY.EXE: ISS Imagent and Oximeter Data Acquisition Program Version 0.80
Ascii Record File

#ACQ INFORMATION
2  Detector Channels 
16  External MUX Channels 
1  Auxiliary Channels 
5000  Waveform (CCF) Frequency (Hz)
1  Waveforms Skipped 
30  Waveforms Averaged 
1  Cycles Averaged 
16  Acquisitions per Waveform 
10.0806  Updata Rate (Hz) 

#FILE INFORMATION
TRUE -- External MUX Channel results are PARSED.
FALSE -- AC DC and Phase are NOT grouped.
TRUE -- Companion Program Settings File CREATED.
FALSE -- AC data not excluded
FALSE -- DC data not excluded
FALSE -- Phase data not excluded
FALSE -- Auxillary Chn. data not excluded
Tab delimiters

#CALIBRATION STATE
TRUE -- Waveform Calibration Values APPLIED.


#AUX CALIBRATION VALUES
Val Type	aux-1	

Term	1.0000e+00	
Factor	0.0000e+00	


#WF CALIBRATION VALUES
A = Detector Channel
Val Type	A-AC1	A-AC2	A-AC3	A-AC4	A-AC5	A-AC6	A-AC7	A-AC8	A-AC9	A-AC10	A-AC11	A-AC12	A-AC13	A-AC14	A-AC15	A-AC16	A-DC1	A-DC2	A-DC3	A-DC4	A-DC5	A-DC6	A-DC7	A-DC8	A-DC9	A-DC10	A-DC11	A-DC12	A-DC13	A-DC14	A-DC15	A-DC16	A-Ph1	A-Ph2	A-Ph3	A-Ph4	A-Ph5	A-Ph6	A-Ph7	A-Ph8	A-Ph9	A-Ph10	A-Ph11	A-Ph12	A-Ph13	A-Ph14	A-Ph15	A-Ph16	

Term	0.00000e+00	0.00000e+00	0.00000e+00	0.00000e+00	0.00000e+00	0.00000e+00	0.00000e+00	0.00000e+00	0.00000e+00	0.00000e+00	0.00000e+00	0.00000e+00	0.00000e+00	0.00000e+00	0.00000e+00	0.00000e+00	0.00000e+00	0.00000e+00	0.00000e+00	0.00000e+00	0.00000e+00	0.00000e+00	0.00000e+00	0.00000e+00	0.00000e+00	0.00000e+00	0.00000e+00	0.00000e+00	0.00000e+00	0.00000e+00	0.00000e+00	0.00000e+00	0.00000e+00	0.00000e+00	0.00000e+00	0.00000e+00	0.00000e+00	0.00000e+00	0.00000e+00	0.00000e+00	0.00000e+00	0.00000e+00	0.00000e+00	0.00000e+00	0.00000e+00	0.00000e+00	0.00000e+00	0.00000e+00	
Factor	1.00000e+00	1.00000e+00	1.00000e+00	1.00000e+00	1.00000e+00	1.00000e+00	1.00000e+00	1.00000e+00	1.00000e+00	1.00000e+00	1.00000e+00	1.00000e+00	1.00000e+00	1.00000e+00	1.00000e+00	1.00000e+00	1.00000e+00	1.00000e+00	1.00000e+00	1.00000e+00	1.00000e+00	1.00000e+00	1.00000e+00	1.00000e+00	1.00000e+00	1.00000e+00	1.00000e+00	1.00000e+00	1.00000e+00	1.00000e+00	1.00000e+00	1.00000e+00	X	X	X	X	X	X	X	X	X	X	X	X	X	X	X	X	

B = Detector Channel
Val Type	B-AC1	B-AC2	B-AC3	B-AC4	B-AC5	B-AC6	B-AC7	B-AC8	B-AC9	B-AC10	B-AC11	B-AC12	B-AC13	B-AC14	B-AC15	B-AC16	B-DC1	B-DC2	B-DC3	B-DC4	B-DC5	B-DC6	B-DC7	B-DC8	B-DC9	B-DC10	B-DC11	B-DC12	B-DC13	B-DC14	B-DC15	B-DC16	B-Ph1	B-Ph2	B-Ph3	B-Ph4	B-Ph5	B-Ph6	B-Ph7	B-Ph8	B-Ph9	B-Ph10	B-Ph11	B-Ph12	B-Ph13	B-Ph14	B-Ph15	B-Ph16	

Term	0.00000e+00	0.00000e+00	0.00000e+00	0.00000e+00	0.00000e+00	0.00000e+00	0.00000e+00	0.00000e+00	0.00000e+00	0.00000e+00	0.00000e+00	0.00000e+00	0.00000e+00	0.00000e+00	0.00000e+00	0.00000e+00	0.00000e+00	0.00000e+00	0.00000e+00	0.00000e+00	0.00000e+00	0.00000e+00	0.00000e+00	0.00000e+00	0.00000e+00	0.00000e+00	0.00000e+00	0.00000e+00	0.00000e+00	0.00000e+00	0.00000e+00	0.00000e+00	-2.55034e+02	-1.42192e+02	-1.58171e+02	-1.83275e+02	-9.83914e+01	-9.52191e+01	-1.58166e+02	-1.62015e+02	-1.11076e+02	-8.25393e+01	-1.72759e+02	-1.71492e+02	-1.85060e+02	-1.78311e+02	-8.15946e+01	-1.51161e+02	
Factor	6.84074e-05	1.16036e-04	3.77825e-05	1.75057e-01	1.19124e-06	1.02847e-06	2.01126e-01	6.52604e-02	1.39494e-06	1.20521e-06	1.15205e-01	3.44855e-02	6.48392e-02	1.06986e-02	1.09788e-06	1.56755e-02	7.61801e-07	7.68646e-07	2.13154e-07	8.53154e-02	8.43469e-09	8.40861e-09	9.13502e-02	3.13959e-02	8.44513e-09	8.40387e-09	5.21703e-02	1.57552e-02	2.79534e-02	5.07005e-03	8.41014e-09	7.10043e-03	X	X	X	X	X	X	X	X	X	X	X	X	X	X	X	X	



#DISTANCE SETTINGS
A = Detector Channel
A-1	A-2	A-3	A-4	A-5	A-6	A-7	A-8	A-9	A-10	A-11	A-12	A-13	A-14	A-15	A-16	

2.5000e+00	3.0000e+00	2.5000e+00	3.0000e+00	2.0000e+00	3.0000e+00	1.5000e+00	3.0000e+00	3.0000e+00	3.0000e+00	3.0000e+00	3.0000e+00	3.0000e+00	3.0000e+00	1.5000e+00	3.0000e+00	

B = Detector Channel
B-1	B-2	B-3	B-4	B-5	B-6	B-7	B-8	B-9	B-10	B-11	B-12	B-13	B-14	B-15	B-16	

1.0000e+01	1.0000e+01	1.0000e+01	1.4400e+00	1.0000e+01	1.0000e+01	1.5100e+00	1.9400e+00	1.0000e+01	1.0000e+01	1.9900e+00	2.4900e+00	2.4100e+00	2.9000e+00	1.0000e+01	2.9800e+00	




#DATA BEGINS
time	group	step	mark	flag	A-AC1	A-AC2	A-AC3	A-AC4	A-AC5	A-AC6	A-AC7	A-AC8	A-AC9	A-AC10	A-AC11	A-AC12	A-AC13	A-AC14	A-AC15	A-AC16	A-DC1	A-DC2	A-DC3	A-DC4	A-DC5	A-DC6	A-DC7	A-DC8	A-DC9	A-DC10	A-DC11	A-DC12	A-DC13	A-DC14	A-DC15	A-DC16	A-Ph1	A-Ph2	A-Ph3	A-Ph4	A-Ph5	A-Ph6	A-Ph7	A-Ph8	A-Ph9	A-Ph10	A-Ph11	A-Ph12	A-Ph13	A-Ph14	A-Ph15	A-Ph16	B-AC1	B-AC2	B-AC3	B-AC4	B-AC5	B-AC6	B-AC7	B-AC8	B-AC9	B-AC10	B-AC11	B-AC12	B-AC13	B-AC14	B-AC15	B-AC16	B-DC1	B-DC2	B-DC3	B-DC4	B-DC5	B-DC6	B-DC7	B-DC8	B-DC9	B-DC10	B-DC11	B-DC12	B-DC13	B-DC14	B-DC15	B-DC16	B-Ph1	B-Ph2	B-Ph3	B-Ph4	B-Ph5	B-Ph6	B-Ph7	B-Ph8	B-Ph9	B-Ph10	B-Ph11	B-Ph12	B-Ph13	B-Ph14	B-Ph15	B-Ph16	aux-1	digaux	

1309.374	1	1	0	768	0.31375	0.30152	0.046009	0.12118	0.25378	0.068297	0.41789	0.066939	0.16109	0.17406	0.025288	0.17737	0.13717	0.27646	0.2139	0.21684	-1.4646	-2.6229	-2.7396	-2.2625	-2.7896	-2.275	-2.2938	-3.1937	-2.1312	-2.2979	-2.8771	-1.8667	-2.725	-2.4979	-2.05	-2.8833	505.001	185.132	411.520	218.915	292.327	491.546	458.591	425.830	224.854	429.578	243.935	450.588	319.680	481.566	492.519	519.364	0.0019162	0.00041109	0.0001827	1237.8	2.7676e-06	3.6737e-06	1253.1	345.11	8.8857e-06	3.184e-06	390.41	132.43	115.63	39.625	5.5345e-07	49.348	0.0003324	0.00031999	8.5531e-05	1238.5	3.5848e-06	3.5014e-06	1249.1	341.52	3.5988e-06	3.411e-06	384.25	131	109.83	39.455	3.1955e-06	48.945	426.958	263.043	246.045	190.193	498.051	346.808	189.968	194.348	292.712	221.477	194.080	198.168	198.236	203.644	202.830	202.745	-8191	255	
1309.470	1	1	0	0	0.29977	0.069461	0.053789	0.17153	0.18048	0.3658	0.21791	0.093269	0.35362	0.17855	0.15794	0.056294	0.080342	0.17977	0.32343	0.21694	-1.6417	-2.2396	-2.6479	-2.1625	-2.7	-2.7208	-2.3021	-2.8063	-2.1437	-2.2021	-2.8896	-1.8958	-2.4875	-2.4229	-2.1229	-2.8021	294.043	207.959	329.464	193.750	302.452	509.059	486.178	482.714	394.494	311.359	186.235	493.508	308.017	424.487	293.038	466.500	0.001451	0.00034874	7.3328e-05	1245	3.9212e-06	1.5674e-06	1254	343.66	1.0394e-05	8.4096e-07	388.81	133.22	114.96	39.617	2.8734e-06	49.35	0.00033923	0.00031073	8.1852e-05	1241.5	3.6058e-06	3.4336e-06	1248.1	341.74	3.628e-06	3.3737e-06	383.54	131.29	109.64	39.437	3.1474e-06	49.056	434.051	245.052	186.451	190.099	288.058	327.172	189.981	194.670	300.575	284.130	194.283	198.088	198.421	203.441	307.383	202.716	-8191	255	
1309.566	1	1	0	0	0.011549	0.14712	0.14282	0.34479	0.20868	0.26876	0.099947	0.20925	0.18897	0.071264	0.072319	0.2408	0.17925	0.079658	0.23804	0.28351	-1.9208	-2.0792	-2.7729	-1.9813	-2.3958	-2.8354	-2.1583	-2.9292	-2.4042	-2.2042	-2.9396	-2.1417	-2.5021	-2.8771	-2.0687	-2.9521	523.935	535.325	196.291	506.322	232.506	229.630	441.530	491.578	338.486	206.289	375.250	508.819	531.879	503.266	222.943	201.349	0.0012467	0.00036979	0.00019103	1242.7	4.5326e-06	6.4299e-07	1254.6	343.19	5.942e-06	1.6428e-06	391.67	132.59	115.71	39.611	4.7659e-06	49.256	0.00033833	0.00030423	8.1014e-05	1243.1	3.5479e-06	3.3611e-06	1248.7	342.81	3.5879e-06	3.3099e-06	384.53	131.55	109.56	39.422	3.1673e-06	49.182	425.984	220.267	260.839	190.196	309.648	257.792	189.801	194.705	309.361	276.433	194.358	198.123	198.211	203.667	279.384	202.696	-8191	255	
1309.662	1	1	0	0	0.17128	0.37012	0.19361	0.1381	0.26861	0.19236	0.3215	0.19875	0.09421	0.23732	0.13818	0.20164	0.22095	0.25434	0.13161	0.23849	-1.9521	-1.8104	-2.7354	-2.1146	-2.1562	-2.6208	-2.1917	-2.9104	-2.5521	-2.0021	-2.8875	-2.1479	-2.4604	-2.6979	-1.9062	-2.6771	258.198	400.613	402.296	178.585	536.495	397.064	498.761	520.068	222.954	424.745	348.368	533.633	344.930	419.744	504.872	487.491	0.0014631	0.00050862	4.0738e-05	1243.5	7.7975e-06	3.4783e-06	1257.8	346.09	1.9295e-06	4.9185e-06	391.27	132.98	114.85	39.534	4.3314e-06	49.503	0.00033285	0.00030041	8.1898e-05	1243.9	3.4551e-06	3.2936e-06	1249.7	343.7	3.5175e-06	3.1787e-06	383.96	131.5	108.97	39.314	3.3473e-06	49.233	430.910	213.567	341.166	190.026	310.343	336.746	189.823	194.504	257.059	302.018	194.232	198.201	198.250	203.922	286.139	202.557	-8191	255	
1309.757	1	1	0	0	0.24406	0.46873	0.038412	0.3464	0.066095	0.14447	0.19116	0.21989	0.2398	0.17623	0.24723	0.34526	0.19608	0.43657	0.068232	0.15502	-2.1521	-2.0938	-2.725	-2.3688	-2.3042	-2.8979	-2.0646	-2.7479	-2.5896	-1.9771	-3.0187	-2.2042	-2.0958	-3	-2.0625	-2.5771	374.864	492.905	490.620	454.797	344.534	382.740	500.385	483.824	419.561	386.735	410.886	476.954	471.763	531.464	307.830	315.084	0.0014494	0.00033828	2.2212e-05	1243.4	6.0583e-06	5.4758e-06	1252.6	344.15	1.7195e-06	3.454e-06	391.45	132.66	115	39.648	2.3676e-06	49.077	0.00032576	0.00029118	8.5611e-05	1245.6	3.4224e-06	3.2425e-06	1250.1	343.11	3.5056e-06	3.2011e-06	385.71	131.67	109.06	39.337	3.6111e-06	49.103	438.914	284.867	199.319	190.071	279.625	298.716	189.922	195.048	363.365	330.271	194.570	198.350	198.481	203.777	248.084	202.724	-8191	255	
1309.855	1	1	0	0	0.11783	0.15264	0.24784	0.20352	0.057412	0.13853	0.090919	0.31453	0.077898	0.29261	0.23538	0.32318	0.2306	0.13526	0.0099903	0.11097	-2.2979	-1.8	-2.6833	-2.3104	-2.0146	-2.7792	-2.1896	-2.5646	-2.8208	-1.8521	-2.775	-2.5271	-2.1896	-2.975	-2.1813	-2.4437	277.957	184.079	391.256	325.661	471.539	349.942	432.140	192.173	462.791	429.769	480.817	504.591	343.770	463.082	289.690	393.517	0.0014163	0.00034634	0.00022293	1235.2	2.0665e-06	1.3519e-06	1248.4	344.23	5.3398e-06	5.6175e-06	387.97	131.98	115.07	39.428	1.9024e-06	49.218	0.00032933	0.00029504	9.2134e-05	1242	3.4675e-06	3.3013e-06	1252.3	342.87	3.4967e-06	3.3052e-06	386.49	131.24	108.75	39.266	3.7937e-06	48.948	432.929	323.257	253.121	189.946	357.548	315.927	189.611	194.626	278.603	235.111	194.366	198.302	198.405	203.654	481.464	202.970	-8191	255	
1309.974	1	1	0	0	0.1393	0.14727	0.071031	0.39001	0.31887	0.23352	0.21278	0.23996	0.18454	0.041421	0.10445	0.066188	0.065905	0.21524	0.16876	0.23317	-2.5271	-1.9375	-2.7354	-2.55	-1.9396	-2.9979	-2.2021	-2.4083	-2.6937	-2.0458	-2.7313	-2.4792	-1.9625	-2.9292	-2.275	-2.2792	358.680	348.086	279.873	524.068	284.891	422.237	484.449	493.254	438.965	302.080	523.451	290.522	504.834	482.789	178.614	508.821	0.0016461	0.00048162	7.9015e-05	1240.6	1.6308e-06	7.3841e-07	1249.6	341.95	2.231e-06	6.753e-07	391.04	131.64	113.8	39.449	3.245e-06	48.846	0.00032436	0.00030914	9.5595e-05	1241.5	3.3845e-06	3.4453e-06	1251.5	341.47	3.418e-06	3.4548e-06	387.02	130.72	108.15	39.249	3.7734e-06	48.67	436.098	244.177	259.017	190.111	257.075	408.151	189.809	194.860	234.836	284.083	194.252	198.174	198.470	203.979	317.520	202.840	-8191	255	
1310.070	1	1	0	0	0.089231	0.069311	0.15882	0.33346	0.097797	0.18882	0.20872	0.2267	0.068095	0.015611	0.33992	0.2711	0.21162	0.27746	0.30455	0.33351	-2.3542	-1.8625	-2.5917	-2.7958	-2.0083	-2.8167	-2.2833	-2.0958	-2.7854	-1.8771	-2.7292	-2.6396	-1.9917	-2.9313	-2.2979	-2.1208	349.358	296.264	465.860	475.554	536.005	209.185	455.944	386.614	182.953	446.422	259.646	525.847	442.240	521.541	252.625	487.093	0.001541	0.00029879	9.5816e-05	1236.5	4.9609e-06	1.1976e-06	1248.2	341.85	1.5813e-06	4.6953e-06	388.17	132.25	112.65	39.226	1.9811e-06	48.669	0.00031527	0.00032309	9.544e-05	1236.7	3.3491e-06	3.636e-06	1248.3	340.39	3.3984e-06	3.69e-06	384.9	130.27	107.48	39.228	3.8127e-06	48.504	427.534	527.614	253.698	190.156	297.848	202.078	189.921	194.695	262.246	205.436	194.566	198.157	197.985	203.753	319.867	202.802	-8191	255	
1310.166	1	1	0	0	0.15115	0.088331	0.36277	0.27541	0.29872	0.21104	0.030953	0.15738	0.13512	0.10092	0.20694	0.13361	0.22951	0.33208	0.046963	0.38716	-2.4813	-2.0208	-2.3771	-2.9062	-1.9333	-2.7146	-2.4979	-2.0354	-2.7938	-2.1333	-2.3688	-3.0583	-1.925	-2.8125	-2.2875	-2.0104	300.368	523.569	256.615	189.483	188.815	341.542	266.989	479.893	333.101	340.768	411.495	416.785	499.548	218.555	225.693	478.312	0.0014417	0.00022716	0.00025118	1230	2.1299e-06	4.2945e-06	1238.3	340.82	2.2546e-06	3.8912e-06	387.81	130.63	112.92	38.908	6.3595e-06	48.687	0.00032238	0.00034783	9.5687e-05	1232.4	3.4645e-06	3.8891e-06	1243.5	339.68	3.5804e-06	4.0125e-06	385.14	129.95	108.27	39.175	3.8986e-06	48.521	434.127	311.968	221.378	190.033	528.907	283.596	190.091	194.979	363.608	187.184	194.545	198.480	198.505	204.081	272.079	202.879	-8191	255	
1310.262	1	1	0	0	0.091158	0.27177	0.18924	0.35538	0.14626	0.12948	0.22419	0.17258	0.17023	0.12629	0.092578	0.13835	0.23441	0.1783	0.1032	0.15741	-2.5271	-2.0646	-2.0979	-2.8417	-1.9417	-2.7812	-2.8229	-2.0354	-2.8167	-2.0312	-2.375	-2.8458	-1.9854	-2.575	-2.4958	-1.9542	387.660	211.610	371.895	511.432	451.060	407.182	488.692	480.498	522.358	364.405	222.657	353.567	245.741	454.902	395.696	496.161	0.0014722	0.00039965	0.00024178	1227.8	8.3102e-06	5.3781e-06	1240.3	339.45	3.4839e-06	4.9755e-06	386.41	131.17	113.61	39.049	1.6785e-06	48.378	0.0003512	0.00037703	9.6668e-05	1232.6	3.7409e-06	4.0175e-06	1243.5	339.48	3.8126e-06	4.0501e-06	385.09	129.87	109.09	39.252	3.7867e-06	48.4	422.186	254.079	222.106	190.056	286.252	279.544	190.062	195.256	185.986	353.660	194.632	198.500	198.944	204.331	436.203	203.196	-8191	255	
1310.358	1	1	0	0	0.24072	0.14095	0.21446	0.22692	0.19036	0.035773	0.086346	0.22269	0.093392	0.20984	0.20853	0.22925	0.18205	0.033711	0.11583	0.1509	-2.4792	-2.3396	-2.1729	-3.0583	-1.9167	-2.4917	-2.6521	-2.0042	-2.8937	-2.4417	-2.2583	-2.8833	-2.0958	-2.4521	-2.5375	-2.0771	424.598	520.340	265.419	484.064	387.888	356.698	410.901	186.189	265.208	258.194	182.834	182.806	205.300	337.641	239.293	475.219	0.0017839	0.00025846	0.00019631	1230.2	5.8815e-06	4.8278e-06	1244.1	342.24	6.6799e-06	5.6175e-06	387.77	130.78	113.54	39.193	3.8318e-06	48.617	0.00036068	0.00036617	9.363e-05	1232.4	3.9357e-06	3.8965e-06	1244.2	339.85	3.969e-06	3.9693e-06	384.88	129.81	109.43	39.179	3.6858e-06	48.474	427.545	368.299	285.502	190.472	270.550	302.832	189.894	195.077	268.151	300.498	194.823	198.856	198.846	204.314	282.600	203.524	-8191	255	
1310.454	1	1	0	0	0.24741	0.047288	0.14767	0.095267	0.2057	0.16036	0.11767	0.2871	0.011779	0.26422	0.15083	0.17036	0.29859	0.30581	0.15296	0.1478	-1.9438	-2.2	-1.9208	-3.0646	-2.0729	-2.3458	-2.8812	-2.0146	-2.7771	-2.4792	-1.8125	-2.8563	-2.3104	-2.4333	-2.7417	-1.9896	304.340	222.232	509.825	498.571	436.762	232.604	450.506	178.766	394.406	406.628	316.872	385.632	415.043	280.915	407.820	399.844	0.0015535	0.00038381	4.8951e-05	1231.2	7.6748e-07	3.9772e-06	1245.7	341.39	1.2005e-05	3.3032e-06	389.65	131.83	112.73	38.978	1.6474e-06	48.782	0.00037113	0.00035557	9.1692e-05	1233.7	4.0515e-06	3.8226e-06	1244.3	340.37	4.0543e-06	3.8581e-06	384.51	130.29	110.01	39.082	3.6243e-06	48.661	436.236	319.910	187.421	190.605	265.869	520.658	190.080	194.988	281.692	245.842	195.055	198.860	198.838	203.815	270.706	202.893	-8191	255	
1310.550	1	1	0	0	0.18879	0.23419	0.091242	0.13656	0.15136	0.17193	0.096555	0.25579	0.27453	0.32862	0.11402	0.20082	0.21409	0.15109	0.25154	0.3285	-2.3479	-2.5979	-2.0479	-2.8583	-2.1958	-2.2521	-2.8854	-1.9729	-2.4625	-2.5812	-1.9771	-2.7542	-2.2625	-2.2542	-2.9062	-1.9479	396.958	229.750	373.757	465.802	488.677	520.626	447.371	526.561	501.911	223.978	417.337	487.590	228.905	226.048	238.641	213.838	0.0013875	0.00034243	0.00017481	1230.2	2.9872e-06	2.947e-06	1240.9	341.05	1.0937e-05	7.2552e-06	387.75	131.64	113.42	39.14	3.7279e-06	48.694	0.00037812	0.00035179	8.9908e-05	1235.6	4.0913e-06	3.7915e-06	1242.2	341.05	4.022e-06	3.8112e-06	384.16	130.45	109.77	39.136	3.5647e-06	48.82	431.522	278.649	253.956	190.717	378.750	339.068	190.372	195.321	294.216	388.729	194.993	198.567	198.476	204.326	290.554	202.716	-8191	255	
1310.669	1	1	0	0	0.12388	0.12021	0.13522	0.092153	0.32176	0.035035	0.22553	0.11305	0.18523	0.033936	0.15749	0.13573	0.20107	0.37397	0.039838	0.15367	-2.1292	-2.5167	-1.9042	-2.8833	-2.2542	-2.0062	-3.0875	-1.85	-2.4354	-2.7479	-1.9083	-2.8021	-2.3104	-1.8875	-2.9188	-1.9562	236.662	516.149	217.623	475.935	289.498	253.500	458.900	428.446	234.955	254.616	484.316	449.632	207.040	488.864	448.417	484.640	0.0016254	0.00076968	0.00012646	1228.1	5.1142e-06	5.7346e-06	1244.9	341.29	6.0579e-06	7.0311e-06	388.11	131.6	113.85	38.996	6.8985e-06	48.778	0.00036914	0.00034559	8.893e-05	1238.2	4.0045e-06	3.686e-06	1242.7	341.87	3.924e-06	3.7197e-06	384.82	130.8	109.84	39.047	3.6569e-06	49.051	432.160	286.401	363.791	190.469	301.283	350.734	190.147	195.006	292.594	304.790	194.829	198.713	198.680	203.938	295.659	203.138	-8191	255	
1310.765	1	1	0	0	0.010464	0.069485	0.089597	0.057224	0.29117	0.18634	0.11695	0.21916	0.058391	0.26975	0.20634	0.090006	0.12367	0.2598	0.25784	0.24675	-1.9125	-2.6604	-2.0062	-2.8146	-2.5187	-1.9208	-2.9062	-2.25	-2.3229	-2.6562	-2.0125	-2.6271	-2.4688	-1.8396	-2.7833	-2.1583	396.022	465.942	303.294	222.785	203.583	225.800	213.677	345.026	407.035	530.125	372.139	202.951	344.037	185.544	222.483	462.735	0.0015756	0.00070163	0.00021266	1233.4	5.8775e-06	3.1271e-06	1246.5	341.44	6.9599e-06	6.6272e-06	392.37	131.33	113.19	39.211	4.8685e-06	48.755	0.00036044	0.00033571	9.1991e-05	1241	3.9185e-06	3.567e-06	1247.2	342.77	3.8049e-06	3.6344e-06	386.87	130.8	109.17	39.002	3.8043e-06	48.994	436.511	276.944	532.195	190.260	265.563	359.696	189.993	195.006	273.466	279.405	194.580	198.793	198.574	204.091	203.000	203.061	-8191	255	
1310.862	1	1	0	0	0.063899	0.073049	0.084876	0.29718	0.29367	0.092974	0.16948	0.30856	0.058048	0.026531	0.23037	0.35128	0.20937	0.11432	0.046017	0.21642	-1.8375	-2.775	-2.0646	-2.5458	-2.5417	-1.9562	-3.1125	-2.2729	-2.1167	-2.8083	-1.8854	-2.4833	-2.7271	-2.0333	-2.8021	-2.525	405.362	177.248	457.609	534.809	241.300	404.477	492.195	479.059	524.154	282.200	399.054	189.334	338.501	467.217	255.385	435.977	0.0015669	0.00033887	0.00015362	1232.2	6.1881e-06	4.2458e-06	1248.1	340.83	2.1222e-06	1.3203e-06	388.33	131.45	113.19	39.249	3.0702e-06	48.612	0.00035087	0.00032481	9.6705e-05	1240.1	3.7947e-06	3.4605e-06	1249.2	341.83	3.7218e-06	3.5527e-06	387.03	130.71	108.86	39.064	3.9184e-06	48.976	434.865	186.774	474.757	190.374	263.663	357.969	190.074	194.887	434.219	279.506	194.108	198.319	198.310	203.719	219.411	202.702	-8191	255	
1310.935	1	1	0	0	0.10137	0.14808	0.070356	0.19099	0.12727	0.2901	0.076054	0.24754	0.22741	0.094516	0.12049	0.23634	0.2415	0.22505	0.14612	0.087525	-1.5	-2.8187	-2.1333	-2.6083	-2.7167	-1.7792	-2.7625	-2.6146	-2.0875	-2.7479	-2.2708	-2.4062	-2.8271	-2.2062	-2.6354	-2.5333	233.327	517.907	252.722	454.421	332.695	353.169	186.540	487.307	318.334	485.554	227.511	513.285	417.903	521.717	535.550	512.322	0.0015449	0.00015249	7.4118e-05	1233.7	4.5655e-06	3.781e-06	1245.1	341.63	5.6832e-06	1.6256e-06	389.66	131.58	113.41	39.193	4.7878e-06	48.841	0.00034084	0.00032299	9.9786e-05	1239.1	3.6733e-06	3.493e-06	1250.7	341.49	3.5989e-06	3.5597e-06	388.45	130.63	108.66	39.127	3.9849e-06	48.762	432.892	308.837	518.270	190.428	257.513	520.905	190.119	194.821	260.179	379.007	194.261	198.426	198.638	203.835	357.405	202.851	-8191	255	
1311.054	1	1	0	0	0.12714	0.20017	0.11784	0.1822	0.31175	0.06286	0.23495	0.078362	0.18278	0.14691	0.088193	0.18908	0.19313	0.23688	0.078358	0.15125	-1.6229	-2.8833	-2.0083	-2.4583	-2.9938	-1.8375	-2.7625	-2.6979	-2.0104	-2.7646	-2.3396	-2.1896	-2.8917	-2.1437	-2.55	-2.6729	399.561	359.475	405.359	364.423	268.183	470.106	206.825	419.979	232.074	482.086	492.103	499.630	399.192	526.136	448.141	528.544	0.0016259	5.9239e-05	5.7459e-05	1233.5	3.8121e-06	4.8965e-06	1247.6	343.13	7.4596e-06	3.2604e-06	389.2	131.02	113.13	39.203	6.2989e-06	48.772	0.00033119	0.00033518	0.00010238	1238.2	3.6278e-06	3.696e-06	1251.2	342.22	3.5135e-06	3.7739e-06	387.66	130.37	108.19	39.275	3.9457e-06	48.844	437.180	442.884	501.855	190.560	314.440	214.843	190.164	195.004	199.246	431.570	194.402	198.467	198.428	203.554	264.244	202.740	-8191	255	
1311.150	1	1	0	0	0.24641	0.13388	0.22416	0.11297	0.063037	0.27682	0.20099	0.14318	0.19847	0.27635	0.2099	0.16138	0.1432	0.20364	0.33121	0.14968	-1.6771	-2.7854	-2.0979	-2.1063	-2.8125	-1.9958	-2.5687	-2.8146	-1.9375	-2.7521	-2.5625	-2.1813	-2.8396	-2.1417	-2.4688	-2.6917	333.022	493.763	218.035	199.401	261.346	371.981	426.594	388.710	424.046	238.766	296.376	202.715	184.490	532.250	518.393	392.319	0.0016611	0.00029875	7.355e-05	1239.3	8.0888e-06	5.5794e-06	1247.3	342.73	8.2246e-06	4.1743e-06	389.29	131.68	114.02	39.26	1.6263e-07	48.88	0.00033078	0.00035511	0.00010064	1238.8	3.5801e-06	3.9575e-06	1251.7	342.18	3.597e-06	4.0152e-06	387.97	130.56	108.62	39.371	3.9197e-06	48.806	432.667	201.829	369.059	190.209	307.133	532.513	190.094	194.802	282.307	240.805	194.413	198.529	197.930	203.673	204.725	203.111	-8191	255	
1311.246	1	1	0	0	0.31599	0.08172	0.24266	0.095129	0.18935	0.093262	0.2621	0.011724	0.13831	0.11407	0.32353	0.10251	0.22757	0.30496	0.27	0.0095998	-1.375	-2.6188	-2.4146	-2.0854	-2.7708	-2.1708	-2.4646	-2.8729	-1.9188	-2.375	-2.5146	-1.8937	-2.6021	-2.1562	-2.3563	-2.7854	206.533	394.860	220.828	529.177	184.022	372.686	178.199	447.959	261.263	468.160	378.741	493.761	465.874	492.016	380.290	392.847	0.0015543	0.00030304	0.00011507	1237.5	2.7189e-06	3.4575e-07	1249.3	341.96	4.9861e-06	1.181e-07	390.63	131.94	113.21	39.209	2.3806e-06	48.528	0.00034173	0.0003764	0.00010094	1240	3.7191e-06	4.1826e-06	1252.4	342.11	3.815e-06	4.1434e-06	388.88	130.51	109.44	39.502	3.9188e-06	48.773	424.898	237.375	290.235	190.488	261.254	402.293	190.169	195.011	227.036	325.075	194.665	198.517	198.610	203.837	307.884	203.078	-8191	255	
1311.367	1	1	0	0	0.14258	0.16664	0.28847	0.34191	0.097121	0.076162	0.24133	0.15039	0.17319	0.11257	0.20078	0.073776	0.28324	0.12613	0.15956	0.39068	-1.5333	-2.525	-2.5125	-2.0708	-2.7396	-2.25	-2.2771	-2.8708	-1.8667	-2.5583	-2.6125	-2.0625	-2.9458	-2.3729	-2.0187	-2.7917	375.719	179.988	499.666	476.427	281.833	267.074	494.032	511.347	329.314	331.266	446.644	250.522	535.287	524.183	349.492	491.301	0.0014447	0.00048204	0.00015514	1237.1	7.1601e-06	7.106e-06	1247.3	342.31	1.6531e-06	7.4517e-06	392.55	131.03	113.03	39.221	3.7052e-06	48.556	0.0003675	0.00038398	0.00010104	1240.8	4.0264e-06	4.2427e-06	1253.1	342.16	4.0932e-06	4.1587e-06	389.55	130.39	110.19	39.531	3.9107e-06	48.795	439.600	204.968	234.449	190.343	533.281	313.740	190.158	194.945	190.618	357.232	194.705	198.646	198.520	203.959	262.174	203.481	-8191	255	
1311.463	1	1	0	0	0.085344	0.13393	0.19926	0.30084	0.08007	0.11291	0.15081	0.080653	0.16755	0.13938	0.17747	0.29225	0.13816	0.37104	0.16784	0.094672	-1.5292	-2.3354	-2.4167	-1.9729	-2.8312	-2.4542	-2.2188	-2.7438	-1.9771	-2.1229	-2.6479	-1.8729	-2.5396	-2.525	-2.1208	-2.8667	513.088	328.446	521.479	493.712	327.346	214.136	183.996	515.778	359.467	234.933	220.934	422.666	334.897	517.484	381.797	182.858	0.0017032	7.1008e-05	0.00015813	1239.8	8.7616e-06	5.5954e-07	1251.4	343.61	3.8966e-06	8.3522e-06	391.13	131.48	113.68	39.176	3.9791e-06	49.081	0.00038898	0.00037737	9.9952e-05	1243.3	4.2018e-06	4.1297e-06	1255.5	343.28	4.2552e-06	4.0669e-06	388.81	130.79	111.14	39.512	3.8326e-06	49.035	426.202	396.907	466.155	190.749	279.453	310.097	190.131	194.909	267.334	364.568	194.756	198.426	198.764	204.084	324.500	203.529	-8191	255	
1311.535	1	1	0	0	0.14323	0.19956	0.14678	0.064168	0.22638	0.18186	0.23827	0.22996	0.28637	0.13058	0.21829	0.18899	0.20962	0.24073	0.11222	0.098929	-1.6708	-2.1229	-2.5167	-2.2167	-2.6437	-2.5083	-2.1792	-3.0312	-2.1396	-2.1104	-2.8167	-2.1292	-2.6625	-2.6188	-1.9312	-2.8958	484.318	342.132	199.059	294.833	303.282	270.615	523.974	495.755	445.559	317.805	526.766	415.313	185.890	484.695	180.703	292.484	0.0013972	7.0811e-05	0.00019597	1239.4	3.2192e-06	6.4066e-06	1256.7	343.48	4.4172e-06	1.2167e-06	391.63	131.54	113.32	39.283	7.7193e-06	49.09	0.00040469	0.00036873	9.8169e-05	1245.5	4.2855e-06	4.1166e-06	1257.1	344.35	4.3709e-06	4.0583e-06	389.36	131.22	111.19	39.545	3.8005e-06	49.27	422.474	450.477	208.806	190.644	233.477	363.129	190.293	195.144	254.169	346.219	194.840	198.744	199.149	204.414	349.714	203.308	-8191	255	
1311.655	1	1	0	0	0.036259	0.039068	0.17873	0.24378	0.10597	0.21621	0.34027	0.10787	0.12509	0.024959	0.23791	0.16154	0.11975	0.10536	0.25207	0.068647	-1.6875	-2.1875	-2.8583	-2.2396	-2.6021	-2.6521	-2.075	-2.8979	-2.3937	-2.1333	-2.8833	-2.1042	-2.3979	-2.6896	-2.0229	-2.75	391.704	295.039	245.295	485.727	425.505	381.115	430.121	459.478	191.438	321.484	503.541	506.082	348.216	471.039	196.087	453.746	0.0014841	0.00037838	6.9497e-05	1241.9	1.2641e-06	2.4894e-06	1255.7	343.66	3.656e-06	6.6831e-06	392.04	131.68	113.28	39.113	4.0935e-06	49.033	0.00041053	0.00037184	9.7873e-05	1252.7	4.3124e-06	4.1125e-06	1259.2	345.63	4.3649e-06	4.014e-06	389.54	131.86	111.01	39.501	3.8196e-06	49.496	438.446	265.952	304.842	190.492	281.288	327.264	190.290	195.231	285.786	218.574	194.340	198.414	199.045	204.311	215.293	203.133	-8191	255	
1311.750	1	1	0	0	0.28592	0.034248	0.10583	0.2057	0.23851	0.23302	0.29959	0.15661	0.071854	0.11068	0.096996	0.26135	0.065226	0.39668	0.12311	0.27999	-1.9167	-2.0854	-2.9521	-2.2979	-2.3792	-2.7021	-2.1146	-2.8479	-2.4146	-2.2604	-2.7979	-2.0896	-2.2792	-2.75	-1.9083	-2.4604	496.027	514.145	198.251	498.209	512.779	295.870	494.643	234.142	343.921	347.602	531.985	473.013	265.248	524.449	196.729	460.692	0.0012222	0.00041597	5.7796e-05	1245.9	2.4953e-06	3.5862e-06	1253.1	344.76	5.1726e-06	3.857e-06	390.59	131.5	113.59	39.137	5.3047e-06	49.134	0.00039753	0.0003596	9.8196e-05	1255.7	4.1949e-06	3.9849e-06	1259.9	346.53	4.2175e-06	3.8569e-06	389.96	132.2	110.59	39.464	3.9572e-06	49.513	424.224	280.104	242.095	190.553	301.151	337.901	190.291	195.108	344.507	320.772	194.901	198.647	199.022	204.174	231.197	203.298	-8191	255	
1311.846	1	1	0	0	0.19373	0.15908	0.21701	0.31162	0.1396	0.27137	0.42439	0.12488	0.13383	0.32037	0.16008	0.16212	0.074279	0.14464	0.066216	0.15018	-2.0958	-1.7625	-2.7687	-2.2479	-2.2938	-2.8292	-2.2146	-2.7875	-2.4229	-1.9146	-2.9167	-2.4562	-2.1229	-2.7979	-1.8604	-2.6688	500.933	444.910	419.017	461.216	444.691	190.502	498.267	446.743	239.998	317.998	520.970	403.613	220.602	483.323	311.035	511.307	0.0014312	0.00046601	0.00028118	1240.2	2.3089e-06	2.5024e-06	1255.7	345.28	9.2986e-06	3.0997e-06	390.69	132.63	112.91	39.345	2.3875e-06	48.873	0.00039056	0.00035178	0.00010269	1256.3	4.1034e-06	3.9035e-06	1263.2	346.63	4.1921e-06	3.8151e-06	392.27	132.48	110.42	39.467	4.2196e-06	49.411	431.715	272.945	219.666	190.506	266.523	247.517	190.195	195.135	249.102	273.630	194.608	198.767	198.893	204.026	261.990	203.233	-8191	255	
1311.966	1	1	0	0	0.27659	0.12987	0.12526	0.28196	0.10389	0.20873	0.30275	0.20104	0.1062	0.16418	0.29096	0.20209	0.16154	0.13733	0.023299	0.14516	-2.0792	-1.7667	-2.7208	-2.3833	-2.1646	-2.7125	-2.1542	-2.5229	-2.7625	-2.0854	-2.875	-2.4083	-1.9062	-2.8583	-2.1667	-2.6167	434.922	187.968	219.410	496.830	341.801	285.532	482.122	371.328	522.091	194.499	463.567	211.636	518.353	518.443	463.659	417.946	0.0016728	0.00035523	0.0001552	1242.6	3.4168e-06	1.6576e-06	1255	344.11	2.174e-06	3.0295e-06	391.34	131.17	113.35	39.158	2.3455e-06	48.943	0.00038384	0.000347	0.0001078	1254.3	3.9953e-06	3.8153e-06	1262.3	345.41	4.0421e-06	3.7525e-06	391.84	131.7	109.72	39.345	4.2438e-06	49.176	432.462	232.257	241.907	190.446	283.496	428.844	190.318	194.960	239.743	252.229	194.992	198.700	198.689	204.178	383.651	203.206	-8191	255	
1312.063	1	1	0	0	0.11869	0.071391	0.14885	0.28316	0.18445	0.088916	0.17119	0.18477	0.11656	0.16264	0.20235	0.32628	0.14903	0.22074	0.19778	0.10484	-2.4458	-1.9792	-2.8771	-2.5292	-2.2271	-3.0125	-2.2771	-2.3125	-2.7833	-2.0812	-2.7479	-2.5917	-1.9229	-2.9375	-2.2062	-2.2938	465.406	369.780	427.494	483.962	397.174	299.293	423.046	514.639	419.408	244.102	521.397	192.658	420.900	181.623	410.697	258.314	0.0012856	0.00029185	0.00011477	1242.4	3.0166e-06	7.1503e-06	1249.3	342.99	1.9653e-06	3.9858e-06	391.42	131.56	113.57	39.18	3.5256e-06	48.71	0.00036241	0.00034382	0.00010601	1249.1	3.7503e-06	3.7779e-06	1259.1	343.91	3.7667e-06	3.7805e-06	390.71	131.01	108.71	39.295	4.1433e-06	48.877	425.816	180.930	290.854	190.512	338.451	286.784	190.414	195.237	311.918	283.518	194.584	198.622	199.042	204.170	319.677	203.295	-8191	255	
1312.159	1	1	0	0	0.33836	0.34196	0.224	0.077713	0.090288	0.087475	0.22161	0.30119	0.3251	0.27149	0.10863	0.025132	0.27517	0.093544	0.084544	0.23167	-2.2812	-1.9375	-2.6167	-2.775	-1.9375	-2.8396	-2.4958	-2.4271	-2.9708	-1.9521	-2.7729	-2.4062	-1.8146	-2.8792	-2.4354	-2.1354	489.655	203.264	204.383	464.252	202.636	448.582	434.915	506.123	428.145	249.433	477.146	342.806	241.163	498.060	222.811	220.497	0.0014015	0.00065267	0.00021371	1235.8	6.155e-06	5.2369e-06	1253.3	343.25	7.5111e-06	1.3594e-07	390.87	131.14	113.69	39.246	6.7621e-06	48.767	0.00034382	0.00035409	0.00010331	1245.1	3.6083e-06	3.9529e-06	1258.4	343.12	3.6587e-06	4.0026e-06	389.52	130.87	108.76	39.459	4.0776e-06	48.868	426.013	457.436	254.232	190.550	279.923	265.316	190.337	195.249	254.942	447.200	194.735	198.838	198.896	204.417	415.493	203.449	-8191	255	
1312.230	1	1	0	0	0.35745	0.17198	0.27972	0.31912	0.4103	0.18999	0.20663	0.11986	0.22788	0.14594	0.14505	0.14079	0.053758	0.099409	0.19334	0.1244	-2.4583	-1.9937	-2.4667	-2.875	-1.7521	-2.7687	-2.6813	-2.2854	-2.7979	-1.9917	-2.4	-2.9042	-1.7833	-2.8375	-2.3167	-1.9625	273.131	525.645	387.136	517.422	511.570	275.921	215.198	481.925	525.898	492.136	177.792	476.046	394.683	478.011	456.201	492.665	0.0015879	0.00070897	8.7599e-05	1239.1	7.4918e-07	6.1833e-06	1245.2	341.23	7.26e-06	5.3878e-06	390.7	131	113.97	39.106	3.3784e-06	48.749	0.00034561	0.00037536	0.00010219	1245.4	3.6434e-06	4.0812e-06	1255.1	342.26	3.7336e-06	4.1406e-06	389.51	130.72	109.26	39.539	3.9836e-06	48.787	436.617	218.977	285.397	190.676	354.462	302.866	190.392	195.541	205.687	259.457	195.026	198.867	198.737	204.199	333.185	203.426	-8191	255	
1312.351	1	1	0	0	0.18429	0.13911	0.26847	0.17273	0.23118	0.082043	0.40984	0.20282	0.15691	0.16708	0.12276	0.30211	0.31135	0.077915	0.18092	0.19358	-2.4729	-2.25	-2.2542	-2.7354	-2.0604	-2.6083	-2.5521	-2.1437	-2.8312	-2.1937	-2.4	-2.9	-2	-2.6063	-2.5812	-2.1333	322.488	393.416	356.613	276.845	410.439	263.973	479.333	476.769	178.339	232.663	427.593	508.222	526.049	267.732	260.363	456.083	0.001546	0.00055023	0.00025497	1238.6	4.1309e-06	2.8965e-06	1249	344.23	1.9841e-06	4.8566e-06	389.2	131.36	112.85	39.082	2.786e-06	48.836	0.0003538	0.00038234	9.8187e-05	1243.7	3.8047e-06	4.0775e-06	1254	343.11	3.8802e-06	4.1478e-06	388.17	130.43	109.55	39.426	3.8793e-06	48.658	426.168	315.977	227.041	190.589	224.477	361.378	190.388	195.349	264.764	320.958	194.997	198.993	199.071	204.473	428.847	203.427	-8191	255	
1312.447	1	1	0	0	0.21585	0.023508	0.21448	0.26415	0.10036	0.27162	0.13092	0.18161	0.21814	0.080048	0.17217	0.1714	0.25812	0.058613	0.14856	0.085936	-2.3354	-2.2833	-2.1771	-2.9688	-2.0979	-2.4313	-3	-2.1375	-2.9042	-2.275	-2.1667	-2.9542	-1.8979	-2.5375	-2.8146	-2.0563	332.146	486.221	398.462	507.369	437.703	496.399	468.607	337.385	451.240	470.705	464.766	489.028	215.656	377.457	282.734	185.427	0.0019148	0.00054114	0.00020347	1237.1	4.2929e-06	3.8283e-06	1243.7	341.79	5.9658e-06	5.335e-06	389.32	130.96	113.77	39.262	2.2038e-06	48.605	0.00036702	0.00037305	9.5447e-05	1242	3.9916e-06	3.9835e-06	1252.5	341.66	4.0274e-06	4.0051e-06	387.27	130.3	109.91	39.354	3.7235e-06	48.581	428.140	224.705	299.043	191.172	260.792	269.758	190.866	195.765	236.279	352.391	194.700	198.937	198.357	204.462	326.649	203.013	-8191	255	
1312.543	1	1	0	0	0.059556	0.14833	0.023477	0.1638	0.077169	0.35389	0.28996	0.091016	0.1084	0.34181	0.27595	0.13391	0.284	0.17628	0.11725	0.15929	-2.2646	-2.4562	-2.075	-2.8438	-2.0438	-2.45	-2.8125	-2	-2.8479	-2.5354	-2.0708	-2.8854	-2.1708	-2.4479	-2.7125	-2.0771	503.002	441.191	183.163	417.379	446.835	465.173	528.941	369.527	233.942	445.512	476.717	502.035	419.637	487.383	312.147	452.250	0.0016047	0.00057884	0.0002377	1235.3	5.4793e-06	2.2848e-06	1253.9	341.86	7.7015e-06	6.9941e-06	391.31	131.28	113.73	39.38	2.2553e-06	48.706	0.00037569	0.00035852	9.1353e-05	1242.3	4.0306e-06	3.8258e-06	1252.3	341.87	3.9985e-06	3.8195e-06	386.08	130.41	110.09	39.278	3.5806e-06	48.804	419.991	261.449	285.526	190.671	318.236	422.066	190.507	195.191	278.283	294.847	194.812	199.189	198.681	204.217	324.429	203.042	-8191	255	
1312.640	1	1	0	0	0.070243	0.078112	0.23649	0.1949	0.11232	0.2567	0.083723	0.28897	0.20495	0.16117	0.010065	0.20872	0.15412	0.24155	0.3308	0.20141	-2.3812	-2.5563	-1.9021	-2.9	-2.1958	-2.1625	-2.8896	-2.1583	-2.525	-2.6437	-2.0333	-2.8292	-2.3083	-2.1646	-2.8688	-1.8646	503.622	224.731	305.995	447.816	511.049	402.617	432.849	379.540	387.622	258.105	427.185	509.128	329.858	506.188	427.253	451.873	0.0012333	0.0003885	0.00016318	1235.5	2.4468e-06	7.6882e-06	1242.2	342.85	5.4933e-06	1.7811e-06	389.21	131.44	112.64	39.059	3.9686e-06	48.339	0.0003703	0.00035067	8.9137e-05	1244.1	4.0381e-06	3.7118e-06	1248.1	343.15	3.9859e-06	3.7889e-06	386.08	131.11	109.87	39.266	3.6013e-06	48.863	441.769	333.852	227.795	190.654	370.309	341.995	190.373	195.117	291.410	370.737	194.871	198.916	198.291	204.269	331.110	203.218	-8191	255	
1312.758	1	1	0	0	0.47822	0.049793	0.14282	0.081851	0.33436	0.18276	0.082836	0.29237	0.051329	0.12029	0.40091	0.14652	0.17075	0.11673	0.11773	0.16408	-2.0917	-2.6208	-1.875	-2.9125	-2.2354	-2.0583	-2.9208	-2.0792	-2.4062	-2.7292	-2.1208	-2.7562	-2.3125	-2.0875	-2.7812	-2.1792	337.640	516.953	423.597	485.891	393.927	527.496	473.840	461.486	402.937	198.342	417.462	374.445	303.854	510.541	248.102	507.892	0.0016786	0.00021129	0.0001942	1236	4.9079e-06	3.9931e-06	1250.4	342.85	9.4694e-06	2.3064e-06	389.18	130.93	113.58	39.136	3.9233e-06	48.833	0.00037193	0.00034798	8.9337e-05	1246	4.0059e-06	3.6995e-06	1251.1	344.08	3.9445e-06	3.7327e-06	386.98	131.33	109.97	39.233	3.6894e-06	49.14	432.782	202.564	227.264	190.588	314.945	385.660	190.091	194.926	264.954	353.343	194.896	198.686	198.771	204.075	277.614	202.725	-8191	255	
1312.830	1	1	0	0	0.10722	0.16994	0.16327	0.14662	0.21642	0.087765	0.13016	0.12942	0.21445	0.13631	0.10639	0.16036	0.27134	0.11308	0.10368	0.22599	-1.9208	-2.6667	-1.8146	-2.75	-2.4458	-1.7958	-2.8875	-2.1688	-2.1458	-2.7625	-1.8896	-2.7438	-2.5292	-2.075	-2.8729	-2.2208	488.026	284.212	524.462	397.136	293.647	202.265	512.323	401.170	356.041	384.878	477.199	392.348	504.241	277.185	497.180	473.089	0.0016978	0.00046305	0.00017189	1234.3	3.0694e-06	1.8876e-06	1249.9	340.56	3.1284e-06	6.4227e-06	389.69	130.5	113.15	39.032	6.7234e-06	48.778	0.00036373	0.00033918	9.326e-05	1246.7	3.96e-06	3.6138e-06	1253.4	343.46	3.8634e-06	3.6213e-06	387.42	131.07	109.51	39.077	3.8201e-06	49.137	427.754	225.174	243.973	190.390	313.408	294.062	189.868	194.768	260.136	339.851	194.543	198.398	198.597	203.919	293.565	203.157	-8191	255	
1312.928	1	1	0	0	0.044329	0.13503	0.14083	0.35402	0.31845	0.37481	0.19341	0.22697	0.12108	0.25941	0.21962	0.3611	0.078441	0.088269	0.11687	0.14178	-1.7896	-2.75	-2.0021	-2.6917	-2.4521	-1.8854	-2.8187	-2.2479	-2.0271	-2.8479	-2.0667	-2.4646	-2.6167	-1.875	-2.7062	-2.3083	179.720	267.664	263.306	502.943	427.427	439.887	473.243	501.990	333.361	442.500	471.557	393.788	291.370	389.723	475.770	414.465	0.0012931	0.00046536	0.0001765	1237.6	1.0731e-06	3.7669e-06	1247.3	342.29	5.0179e-06	7.1615e-07	388.34	131.54	113.4	39.051	4.8887e-06	48.408	0.0003517	0.00033062	9.8966e-05	1246.7	3.8665e-06	3.5375e-06	1254.2	343.87	3.8357e-06	3.6033e-06	389.02	131.31	109.43	39.096	4.0539e-06	48.896	433.042	245.771	226.428	190.456	319.191	281.644	190.061	195.076	266.228	294.989	194.586	198.883	198.695	204.049	264.654	203.014	-8191	255	
1313.047	1	1	0	0	0.13942	0.093199	0.20321	0.13203	0.19717	0.26622	0.2244	0.11185	0.072522	0.13371	0.21903	0.15894	0.097237	0.17927	0.25955	0.34317	-1.5917	-2.7562	-1.9354	-2.7854	-2.6354	-2.0792	-2.925	-2.4313	-1.9208	-2.775	-2.0521	-2.4188	-2.6604	-2.1292	-2.5875	-2.6125	511.413	502.503	514.440	505.351	283.577	344.320	452.982	379.114	382.784	232.905	536.741	208.168	529.771	515.635	356.278	189.908	0.0013945	0.00049998	0.00010316	1237.9	2.1249e-06	1.8048e-06	1240.4	341.98	6.0532e-06	2.5618e-06	389.71	130.64	113.12	38.926	6.848e-07	48.876	0.00035613	0.00033316	0.00010373	1246.1	3.8464e-06	3.6755e-06	1256.5	343.68	3.7401e-06	3.6798e-06	389.96	131.03	108.84	39.202	4.1228e-06	49.004	438.259	493.767	502.574	190.686	315.122	200.807	190.226	194.991	276.720	251.970	194.410	198.761	198.529	204.353	265.629	203.173	-8191	255	
1313.143	1	1	0	0	0.21833	0.29971	0.08133	0.082168	0.22028	0.074957	0.13151	0.095328	0.21713	0.12831	0.16519	0.26047	0.18562	0.25073	0.051404	0.21354	-1.4937	-2.7646	-1.9813	-2.4333	-2.75	-1.9188	-2.6375	-2.6146	-2.025	-2.8542	-2.1437	-2.2438	-2.8042	-2.0687	-2.3708	-2.7313	430.068	418.924	514.499	195.281	534.176	177.493	449.337	447.884	183.066	452.119	287.395	529.979	314.208	490.787	420.131	459.198	0.0017383	0.00039324	4.7787e-05	1237.7	4.9718e-06	2.7716e-06	1247.9	341.38	7.5632e-06	3.3803e-06	385.1	129.56	112.76	38.987	5.4541e-06	48.381	0.00034146	0.00034375	0.00010405	1245.6	3.6714e-06	3.7937e-06	1257.2	343.2	3.6222e-06	3.8688e-06	389.08	130.37	108.56	39.342	4.0138e-06	48.898	431.362	518.192	364.847	190.761	265.434	208.719	190.506	195.043	298.034	211.788	194.338	198.872	198.673	203.751	353.293	203.057	-8191	255	
1313.239	1	1	0	0	0.20956	0.42292	0.2324	0.14598	0.038763	0.09768	0.33196	0.33023	0.23359	0.2852	0.079093	0.091145	0.21423	0.029185	0.13048	0.22536	-1.6	-2.6562	-2.1896	-2.1271	-2.7917	-2.1917	-2.6604	-2.7958	-1.9438	-2.6312	-2.3542	-2.1979	-2.7854	-2.2667	-2.3604	-2.7771	222.770	342.898	527.022	472.945	201.371	325.291	486.793	500.519	338.321	237.207	516.104	425.534	180.940	354.594	452.633	464.435	0.0014539	0.00027607	0.00016335	1226.1	6.5903e-06	2.8535e-06	1233	339.07	7.2649e-06	1.2809e-06	387.18	129.8	111.95	38.744	4.6632e-06	48.061	0.00033464	0.00036385	0.00010351	1242.4	3.6364e-06	4.0032e-06	1253.9	342.71	3.5966e-06	4.0559e-06	389.47	130.49	108.53	39.425	3.9638e-06	48.768	430.175	222.256	295.026	190.500	282.359	226.130	190.181	195.033	249.907	339.170	194.304	198.743	198.730	203.978	286.275	203.262	-8191	255	
1313.335	1	1	0	0	0.061662	0.17825	0.32343	0.13445	0.24547	0.26533	0.069122	0.16713	0.091213	0.14762	0.16299	0.32151	0.069888	0.058377	0.10749	0.19396	-1.5583	-2.7438	-2.3563	-2.125	-2.925	-1.9167	-2.6292	-2.7812	-1.8646	-2.5646	-2.4938	-2.0146	-2.8625	-2.2938	-2.0771	-2.9833	297.291	254.859	244.881	411.301	321.440	256.356	475.578	374.243	359.340	185.971	533.107	421.476	526.317	269.051	504.990	398.621	0.0016667	0.00052511	0.00013525	1222.8	1.1991e-06	2.7283e-06	1237.2	336.24	3.0147e-06	4.4813e-06	385.41	129.5	111.38	38.799	1.1971e-06	48.259	0.00034586	0.00037883	0.00010204	1239.6	3.7716e-06	4.1806e-06	1251.8	341.89	3.8107e-06	4.1465e-06	388.25	130.11	109.2	39.448	3.9072e-06	48.684	418.836	455.462	202.514	190.112	350.136	342.796	189.933	195.043	218.046	518.519	194.467	198.600	198.482	203.741	416.170	203.275	-8191	255	
1313.431	1	1	0	0	0.21475	0.17973	0.076659	0.13182	0.32306	0.059917	0.098964	0.25254	0.10421	0.10032	0.18878	0.21835	0.11818	0.14987	0.2268	0.040705	-1.5708	-2.5521	-2.5854	-2.1583	-2.6229	-2.2396	-2.4292	-2.825	-1.9562	-2.4958	-2.7458	-2.0104	-2.7771	-2.3438	-2.1875	-2.9	215.597	316.237	473.169	198.947	340.863	309.298	296.249	182.370	213.525	392.926	219.692	436.544	535.072	181.078	499.344	513.490	0.0018804	0.00024349	0.00017128	1225.1	5.0114e-06	4.1893e-06	1227.6	337.66	1.1276e-05	3.3801e-06	386.54	129.93	111.84	38.619	1.9447e-06	48.034	0.00036091	0.0003754	9.9238e-05	1239.5	3.9364e-06	4.1328e-06	1249.5	341.49	4.017e-06	4.0912e-06	388.06	130.01	109.8	39.308	3.8125e-06	48.627	425.384	386.847	246.104	190.330	233.538	385.927	189.966	194.950	231.041	455.456	194.101	198.668	198.601	203.856	310.962	203.101	-8191	255	
1313.528	1	1	0	0	0.1134	0.12964	0.099296	0.26645	0.22259	0.35142	0.44231	0.031509	0.046493	0.27304	0.11265	0.24021	0.12044	0.21017	0.11931	0.25801	-1.775	-2.2438	-2.5125	-2.225	-2.8	-2.3646	-2.1937	-2.975	-2.0646	-2.4854	-2.7958	-1.9271	-2.7167	-2.425	-2.0354	-2.7562	321.751	434.970	285.177	479.293	289.841	224.037	514.567	526.787	530.055	344.514	513.510	315.727	391.010	474.035	218.098	234.688	0.0017452	0.00050878	0.00015885	1221.7	3.9483e-06	2.1119e-06	1233.6	338.66	6.2492e-06	6.0853e-06	384.75	129.24	112.4	38.639	5.1216e-06	48.204	0.00038259	0.0003719	9.9161e-05	1240	4.137e-06	4.1076e-06	1249.6	341.92	4.2664e-06	4.0348e-06	387.68	130.16	110.74	39.288	3.811e-06	48.733	419.641	240.245	279.611	190.608	295.653	323.328	190.410	195.199	203.932	326.939	194.474	198.502	198.586	204.348	314.986	203.045	-8191	255	
1313.648	1	1	0	0	0.14858	0.16156	0.091036	0.20551	0.22657	0.16291	0.33766	0.13699	0.22054	0.13968	0.15245	0.090952	0.053252	0.22284	0.31671	0.077677	-1.4896	-2.3333	-2.7562	-2.0646	-2.6396	-2.6125	-2.2875	-2.6354	-2.1562	-2.1896	-2.8333	-1.8521	-2.7438	-2.5229	-1.7604	-2.8438	468.281	296.217	529.827	481.172	472.577	298.988	466.624	424.923	394.839	225.785	532.204	307.224	211.431	241.916	500.713	452.437	0.0015191	6.2506e-05	0.00022735	1237	1.8089e-06	2.4786e-06	1251.3	343.49	5.684e-06	8.0476e-06	389.75	131.77	113.07	39.113	5.3273e-06	48.948	0.00040427	0.0003721	9.8929e-05	1246.1	4.3536e-06	4.1211e-06	1253.9	344.33	4.4391e-06	4.127e-06	389.44	131.42	111.27	39.417	3.8692e-06	49.172	424.030	267.587	214.509	190.428	389.937	353.761	190.288	195.010	273.820	295.048	194.868	198.572	198.513	203.821	366.362	202.976	-8191	255	
1313.744	1	1	0	0	0.25146	0.028958	0.21989	0.20791	0.15367	0.068813	0.36276	0.3025	0.10151	0.15863	0.072499	0.26292	0.33839	0.15772	0.23288	0.021322	-1.7292	-2.1646	-2.8958	-2.1833	-2.8104	-2.5479	-2.0083	-2.9771	-2.2021	-2.1896	-3.0208	-2.1625	-2.5396	-2.7979	-2.0896	-2.9125	208.466	188.336	516.982	184.428	244.078	184.190	461.487	462.555	407.027	470.987	244.313	212.731	416.648	191.847	437.346	192.608	0.0017315	0.00017317	2.088e-05	1239.4	2.9909e-06	3.9059e-06	1253	342.65	3.9569e-06	1.4614e-06	389.42	131.21	113.56	38.992	2.8611e-06	48.813	0.00041561	0.00037465	9.8644e-05	1249.8	4.3542e-06	4.1597e-06	1254.4	345.16	4.3984e-06	4.0473e-06	388.04	131.33	111.03	39.36	3.8455e-06	49.189	437.133	319.528	242.595	190.598	309.449	314.651	190.364	194.969	252.748	437.244	194.570	199.013	199.064	204.336	299.119	203.275	-8191	255	
1313.839	1	1	0	0	0.12227	0.18993	0.12602	0.12627	0.14977	0.06395	0.11378	0.32814	0.053044	0.48306	0.15048	0.17996	0.064375	0.30987	0.062546	0.21274	-2.0875	-1.9354	-2.7833	-2.2771	-2.4604	-2.7333	-2.0583	-2.8042	-2.3604	-1.9604	-3.1542	-2.0125	-2.2208	-2.7771	-1.9292	-2.6917	255.113	374.308	333.741	223.424	262.056	307.684	406.185	521.438	501.555	468.910	508.981	279.298	277.082	523.994	370.608	435.814	0.0014444	0.00034901	0.00027806	1240.4	4.9549e-06	6.6217e-06	1250.5	343.85	3.6163e-06	7.2311e-06	391.83	130.72	113.63	39.135	2.7422e-06	48.584	0.0003997	0.00036347	9.92e-05	1249.7	4.204e-06	3.9987e-06	1253.5	345.7	4.3106e-06	3.9599e-06	389.86	131.69	110.69	39.234	4.1522e-06	49.287	429.566	322.132	177.544	190.363	459.288	271.992	190.193	195.351	327.045	344.318	194.688	198.658	198.687	204.052	248.120	202.802	-8191	255	
1313.935	1	1	0	0	0.11972	0.054961	0.25319	0.14008	0.12024	0.17279	0.20653	0.4021	0.12319	0.3506	0.11338	0.26365	0.016441	0.13223	0.31777	0.1819	-2.0604	-2.0021	-2.7771	-2.3958	-2.1833	-2.8479	-2.1	-2.7354	-2.4375	-1.8438	-2.825	-2.1979	-2.2021	-2.7667	-1.8625	-2.6708	441.057	331.378	315.611	499.528	300.231	453.514	475.889	444.035	354.902	302.115	463.947	424.532	223.234	521.404	452.815	219.183	0.001609	0.0002949	3.8885e-05	1238.2	1.8643e-06	2.7966e-06	1252.7	343.41	5.5083e-06	8.1781e-06	392.72	131.48	113.27	39.164	4.2191e-06	48.543	0.00040226	0.00036316	0.00010722	1252.4	4.2527e-06	4.0492e-06	1259	346.38	4.3628e-06	3.957e-06	392.66	132.1	110.82	39.318	4.4342e-06	49.32	420.973	296.048	242.909	190.616	441.437	269.216	190.099	195.166	291.665	303.983	194.847	198.837	198.770	204.138	187.168	203.265	-8191	255	
1314.056	1	1	0	0	0.18628	0.20603	0.11206	0.23464	0.12911	0.40278	0.2405	0.27236	0.072767	0.12512	0.28238	0.12316	0.097641	0.17216	0.33149	0.051038	-2.1312	-2.0667	-2.8729	-2.5167	-1.9188	-2.8187	-2.2625	-2.4896	-2.5583	-2.0208	-2.9271	-2.4771	-2.0812	-3.0563	-2.0896	-2.5542	518.597	390.523	370.809	498.391	353.718	210.933	342.153	486.613	501.033	417.622	296.622	487.636	489.295	373.101	224.297	398.171	0.0015347	0.00049551	0.00010271	1243	3.7897e-06	2.1068e-06	1251.4	343.51	2.3745e-06	2.0852e-06	390.82	131.7	113.16	39.193	7.2278e-06	48.628	0.00040355	0.00036646	0.00011418	1254.2	4.2325e-06	4.0588e-06	1264.2	345.93	4.2875e-06	4.0325e-06	392.94	132	110.34	39.358	4.6214e-06	49.214	434.182	277.929	283.032	190.256	318.121	303.935	189.994	195.177	217.419	322.251	194.572	198.568	198.462	203.924	253.965	202.969	-8191	255	
1314.127	1	1	0	0	0.24452	0.12181	0.015588	0.33699	0.12481	0.11868	0.098007	0.075483	0.046536	0.12494	0.22957	0.15417	0.47513	0.15762	0.17791	0.036911	-2.275	-1.9375	-2.7125	-2.5708	-1.9438	-2.9792	-1.9875	-2.3917	-2.7583	-2.0146	-2.6354	-2.4708	-1.8917	-2.8583	-2.3438	-2.3479	469.946	522.964	452.101	204.923	236.223	385.176	223.162	309.554	451.604	451.035	180.872	465.424	229.670	227.560	465.305	294.843	0.0016592	0.00021389	0.00026602	1238.4	2.4388e-06	3.5352e-06	1256.4	344.59	8.5017e-07	2.5858e-06	392.41	131.48	114.29	39.202	7.5805e-07	48.844	0.00039388	0.00037958	0.00011719	1252.2	4.1444e-06	4.185e-06	1265.2	345.65	4.1985e-06	4.2786e-06	393.92	131.88	110.38	39.443	4.6538e-06	49.172	436.319	414.961	190.053	190.228	313.881	261.279	190.117	194.879	312.415	463.799	194.238	198.633	198.807	203.663	460.925	203.084	-8191	255	
1314.223	1	1	0	0	0.34457	0.062481	0.18269	0.12644	0.068373	0.17601	0.14272	0.31944	0.12454	0.13782	0.14994	0.41354	0.036325	0.087707	0.25945	0.14706	-2.3958	-1.9646	-2.4396	-2.7562	-1.6917	-2.9479	-2.2417	-2.3833	-2.9833	-2.0542	-2.6458	-2.6958	-1.9167	-2.7229	-2.2771	-2.3	342.847	321.936	378.489	462.449	465.800	494.648	421.681	446.083	343.220	438.481	487.832	507.114	526.693	512.438	427.053	505.323	0.001511	6.6646e-05	0.00013044	1241.9	4.1791e-06	2.3268e-06	1251.5	344.09	2.5449e-06	3.7135e-06	390.93	131.25	113.83	39.254	5.4419e-06	48.507	0.00038487	0.00039955	0.00011578	1251.7	4.0241e-06	4.3535e-06	1262	345.09	4.0175e-06	4.4023e-06	392.79	131.28	109.79	39.533	4.4446e-06	48.908	435.982	204.352	255.737	190.390	209.124	396.152	189.926	194.837	294.256	313.112	194.415	198.395	198.235	203.658	430.894	202.936	-8191	255	
1314.320	1	1	0	0	0.19493	0.12763	0.018144	0.18609	0.32433	0.26151	0.031183	0.42975	0.048669	0.10619	0.16187	0.11527	0.13505	0.15795	0.22553	0.16207	-2.5396	-1.8979	-2.4667	-2.8063	-1.8604	-2.5875	-2.3979	-2.2042	-3.0938	-2.1688	-2.3417	-2.9292	-1.8667	-2.9396	-2.6833	-2.2375	452.460	235.827	430.173	393.842	418.574	239.725	420.576	453.644	453.694	488.441	535.748	485.330	237.323	187.323	469.464	229.579	0.0017579	0.00025309	0.00020813	1238.6	3.9507e-06	4.1712e-06	1248.6	342.81	8.8926e-06	5.5997e-06	391.75	131.11	113.07	39.127	7.6162e-07	48.329	0.00037335	0.00040432	0.00010929	1247.9	3.9447e-06	4.419e-06	1258.7	343.57	3.9957e-06	4.4841e-06	391.55	131	109.7	39.559	4.2471e-06	48.654	430.127	494.411	277.424	190.200	234.803	378.033	189.888	194.891	233.393	313.478	194.505	198.325	198.048	203.831	335.438	202.936	-8191	255	
1314.440	1	1	0	0	0.13929	0.14883	0.11948	0.301	0.25253	0.15578	0.25394	0.13091	0.20868	0.35748	0.022887	0.18385	0.2551	0.12037	0.056527	0.065118	-2.4875	-2.0979	-2.3479	-2.8125	-2.1437	-2.6479	-2.7938	-1.9646	-2.7354	-2.1	-2.4229	-2.7104	-2.0146	-2.6458	-2.5604	-1.8979	440.858	275.321	531.154	483.945	319.540	483.432	417.486	394.099	213.740	202.669	357.699	387.743	436.662	261.211	369.408	395.401	0.0015101	0.00039742	2.6715e-05	1233.9	6.1321e-06	3.6358e-06	1240.6	341.71	1.1161e-05	9.8187e-06	390.06	130.48	112.27	38.85	5.0563e-06	48.222	0.00037633	0.00040895	0.00010564	1243.5	4.0891e-06	4.4113e-06	1254.9	342.98	4.1724e-06	4.4212e-06	389.58	130.36	110.06	39.411	4.186e-06	48.599	430.346	288.150	319.477	190.347	232.266	395.650	189.929	194.647	208.756	278.902	194.498	198.373	198.467	203.868	320.478	202.843	-8191	255	
1314.536	1	1	0	0	0.16477	0.12325	0.21393	0.16799	0.1705	0.16925	0.29806	0.11855	0.10725	0.14124	0.3524	0.3062	0.35981	0.24697	0.33243	0.13543	-2.5	-2.3583	-2.0604	-3.0062	-1.9479	-2.6104	-2.7333	-2.0792	-2.7083	-2.175	-2.1312	-2.775	-2.1667	-2.5417	-2.8125	-2.1167	523.186	392.419	305.800	534.590	327.615	303.539	518.195	475.981	223.693	239.978	420.813	466.439	460.091	512.514	463.192	274.765	0.0015655	0.00043303	0.00015356	1215.2	3.3537e-06	4.4743e-06	1223.6	335.31	1.1306e-05	2.5685e-06	383.04	128.3	112.09	38.736	5.0147e-06	47.855	0.00039406	0.00040076	0.00010351	1239.8	4.2838e-06	4.3082e-06	1249.8	340.65	4.3349e-06	4.2935e-06	388.42	130.02	110.81	39.311	4.0762e-06	48.625	418.127	290.186	271.746	189.972	348.369	248.928	189.616	194.561	266.549	402.793	194.285	198.276	198.340	203.853	310.698	202.799	-8191	255	
1314.631	1	1	0	0	0.23699	0.015885	0.03678	0.15575	0.10693	0.17843	0.37249	0.060666	0.15815	0.15326	0.45237	0.18695	0.21119	0.068948	0.24272	0.4121	-2.325	-2.3417	-1.8833	-3.0958	-2.0354	-2.3458	-2.8167	-2.1188	-2.6625	-2.3458	-2	-2.8625	-2.1292	-2.3708	-2.7583	-2.0833	228.098	345.102	403.526	508.205	289.996	236.704	468.927	188.116	366.503	275.480	453.264	422.464	422.344	181.118	434.087	182.387	0.0015012	0.00033279	0.00010636	1215.5	3.3142e-06	3.1485e-06	1234.7	338.99	7.1245e-06	6.6444e-06	384.26	129.33	112.28	38.436	8.23e-06	47.822	0.00041646	0.00039198	0.00010235	1239.3	4.5006e-06	4.2487e-06	1250.4	342.5	4.5508e-06	4.3327e-06	387.85	130.79	111.21	39.227	4.0495e-06	48.744	429.739	291.807	268.955	190.329	527.609	372.227	189.913	194.803	252.568	367.640	194.662	198.326	198.595	204.071	295.380	202.719	-8191	255	
1314.729	1	1	0	0	0.063353	0.32457	0.16107	0.20183	0.10176	0.10888	0.26499	0.25203	0.1643	0.063405	0.34385	0.16803	0.12562	0.10955	0.26769	0.10946	-2.2167	-2.5042	-2.0833	-3.0271	-2.2521	-2.2854	-2.975	-2.0875	-2.4854	-2.6437	-1.9771	-2.8063	-2.0667	-1.9604	-2.8458	-2.0375	428.240	500.991	180.005	531.077	453.343	403.616	311.562	420.077	470.381	392.329	497.498	484.767	497.338	341.235	428.920	188.249	0.0015994	0.00015962	0.00020579	1214.2	5.604e-06	3.6291e-06	1227.3	337.93	7.387e-06	2.8866e-06	383.17	128.92	111.18	38.512	1.8945e-07	47.683	0.00041929	0.00038959	9.9519e-05	1241.3	4.5149e-06	4.1798e-06	1246.1	343.29	4.4228e-06	4.1731e-06	385.94	130.61	110.27	39.081	3.8417e-06	48.585	428.163	414.811	232.561	190.181	248.815	366.718	190.117	194.847	234.344	426.844	194.313	198.618	198.516	204.037	516.038	203.164	-8191	255	
1314.825	1	1	0	0	0.072387	0.28207	0.11293	0.13143	0.22436	0.18851	0.14691	0.21099	0.12827	0.14371	0.067729	0.14268	0.13778	0.25429	0.21594	0.040685	-1.9542	-2.6167	-1.9083	-3.0417	-2.1813	-1.975	-3.0042	-2.2583	-2.3042	-2.7104	-2.2313	-2.7729	-2.3417	-2.0958	-2.6979	-2.1458	262.345	227.838	497.864	442.824	495.579	323.757	431.868	463.156	431.146	446.799	493.783	526.735	277.320	526.955	244.785	511.567	0.0016781	0.00063183	3.422e-05	1214.8	2.5481e-06	3.918e-06	1226.7	337.55	5.4425e-06	1.6689e-06	383.08	128.43	111.26	38.477	3.4999e-06	47.877	0.00039459	0.00036642	9.4399e-05	1236.5	4.1967e-06	3.8784e-06	1242.9	342.6	4.071e-06	3.8148e-06	385.6	130.36	108.97	38.857	3.6703e-06	48.691	437.970	255.703	182.157	190.460	222.837	281.369	190.046	194.887	322.450	507.255	194.501	198.741	198.529	203.875	223.430	202.997	-8191	255	
1314.919	1	1	0	0	0.22033	0.25765	0.25019	0.2024	0.28624	0.19615	0.22193	0.11914	0.22977	0.18361	0.25863	0.21358	0.23465	0.04266	0.060901	0.18122	-1.8167	-2.7958	-1.825	-2.7708	-2.3375	-1.8208	-3.0833	-2.1271	-2.2125	-2.7812	-2.1167	-2.6625	-2.4958	-2.0312	-2.9083	-2.2125	298.291	413.953	465.334	378.522	186.192	350.851	482.762	450.031	312.478	338.207	487.236	460.272	458.319	534.118	389.186	367.549	0.0015676	0.00054081	0.00029275	1222.1	8.02e-06	7.3789e-06	1229.6	337.84	1.3586e-06	5.1428e-06	384.61	129.18	110.85	38.413	4.5186e-06	47.63	0.00036511	0.0003377	9.4283e-05	1238.7	3.931e-06	3.6264e-06	1241.5	342.25	3.9303e-06	3.6663e-06	386.57	130.28	108.88	38.742	3.931e-06	48.598	426.119	244.391	178.003	190.396	344.874	313.827	190.001	194.949	297.626	311.813	194.351	198.428	198.683	204.020	217.619	202.885	-8191	255	
1315.015	1	1	0	0	0.053154	0.23579	0.14167	0.33162	0.10121	0.164	0.14223	0.28041	0.29264	0.14791	0.17507	0.25105	0.26638	0.18766	0.13535	0.23597	-1.7146	-2.6312	-1.775	-2.5542	-2.5062	-2.0333	-2.8042	-2.3688	-2.0292	-2.8187	-1.9021	-2.6646	-2.5896	-2.0438	-2.8187	-2.4125	474.887	457.049	274.805	214.081	299.911	514.045	187.921	438.556	498.417	264.088	295.381	438.613	489.333	382.069	387.548	438.608	0.0013928	0.00024218	6.387e-05	1213.9	3.4725e-06	1.1483e-06	1222.3	336.9	4.6525e-06	4.7857e-06	385.72	128.74	111.57	38.533	6.8378e-06	47.43	0.00036488	0.00033891	0.00010225	1237.7	4.0171e-06	3.6991e-06	1244.2	342.26	4.0415e-06	3.796e-06	389.28	130.38	109.34	38.933	4.3358e-06	48.749	437.267	241.982	502.664	190.382	321.346	521.513	190.249	194.862	292.188	291.047	194.446	198.771	198.645	204.076	249.523	202.863	-8191	255	
1315.136	1	1	0	0	0.12667	0.049664	0.075655	0.17077	0.20364	0.18276	0.13648	0.21249	0.12542	0.28289	0.022169	0.15428	0.24955	0.021465	0.054794	0.14612	-1.4542	-2.7854	-2.1354	-2.5312	-2.7604	-1.8375	-2.7271	-2.5979	-1.9625	-2.8917	-2.1646	-2.2333	-2.7562	-2.0792	-2.6437	-2.6188	522.591	536.520	358.240	203.169	243.828	363.959	449.437	383.401	196.635	432.295	189.853	197.180	496.759	500.460	247.288	459.257	0.0015564	0.00021893	0.00016687	1214.8	9.1141e-06	2.041e-06	1227.3	337.73	3.9951e-06	5.1474e-06	386.14	129.31	111.36	38.375	4.225e-06	47.712	0.00037642	0.0003602	0.00011209	1239.6	4.1236e-06	3.9769e-06	1250	343.17	4.0621e-06	4.0706e-06	391.36	130.66	109.54	39.052	4.5566e-06	48.814	434.897	262.657	533.316	190.522	304.263	398.368	190.176	195.039	324.891	242.104	194.414	198.714	198.487	204.071	384.141	202.793	-8191	255	
1315.232	1	1	0	0	0.052236	0.19728	0.2618	0.16364	0.23929	0.18605	0.057517	0.2473	0.41982	0.083413	0.22015	0.23175	0.12918	0.079629	0.19461	0.18306	-1.5875	-2.775	-2.1375	-2.5333	-2.9437	-1.775	-2.8167	-2.7458	-1.8042	-2.8063	-2.1708	-2.2458	-2.75	-1.9521	-2.6542	-2.8583	330.978	192.249	291.642	507.279	329.279	311.473	505.158	517.111	477.547	204.495	533.989	475.181	407.890	201.199	285.908	500.020	0.001538	0.00028008	0.0001078	1218.9	3.4136e-06	4.341e-06	1237.8	339.57	8.3363e-06	1.5708e-06	388.15	129.96	112.93	38.789	1.6276e-06	48.195	0.00037754	0.00038534	0.00011605	1241.4	4.0527e-06	4.2382e-06	1256.1	343.34	4.0068e-06	4.2671e-06	391.65	130.79	109.53	39.313	4.5195e-06	48.768	430.593	444.018	179.260	190.409	295.560	252.178	190.124	194.870	223.125	457.184	194.716	198.366	198.307	203.978	253.913	203.168	-8191	255	
1315.328	1	1	0	0	0.085244	0.05332	0.17523	0.33305	0.21294	0.2265	0.33766	0.35079	0.26438	0.11493	0.13837	0.18138	0.24	0.16331	0.12081	0.029109	-1.4917	-2.8812	-2.2333	-2.0021	-2.7125	-1.9708	-2.4646	-2.9167	-1.7667	-2.8667	-2.4583	-2.2083	-2.9771	-2.1729	-2.2938	-2.7792	186.574	422.989	375.140	217.112	208.473	183.810	457.413	475.059	458.252	518.460	491.432	299.737	370.524	451.321	356.440	442.229	0.0015292	8.5957e-05	0.00021569	1234.4	5.4494e-06	5.8471e-06	1244.6	341.13	6.4302e-06	6.0673e-06	388.02	130.14	112.64	38.791	8.775e-07	48.468	0.00037372	0.00040496	0.00011387	1243.6	4.0334e-06	4.461e-06	1256.4	343.47	4.0294e-06	4.4867e-06	391.15	130.56	109.65	39.434	4.368e-06	48.746	428.177	447.896	281.293	190.808	231.471	235.098	190.191	194.977	208.039	355.299	194.742	198.805	198.225	203.939	289.251	203.212	-8191	255	
1315.424	1	1	0	0	0.050429	0.061503	0.073455	0.18805	0.21527	0.16237	0.069722	0.15937	0.16542	0.18049	0.22389	0.11113	0.22867	0.09033	0.16259	0.11265	-1.3958	-2.5583	-2.4188	-2.3187	-2.8375	-1.95	-2.4354	-2.8146	-1.9083	-2.5771	-2.5312	-1.9333	-2.8229	-2.0708	-2.2625	-2.8187	438.423	354.344	304.126	388.055	201.514	296.438	322.285	511.767	190.692	380.114	450.935	501.124	512.833	422.996	479.930	192.107	0.001429	0.00058874	0.00010787	1236.4	8.1047e-06	5.2932e-06	1245.8	342.06	1.889e-06	4.4043e-06	390.79	131.14	112.73	38.871	5.6913e-06	48.252	0.0003785	0.00041461	0.00011074	1242.2	4.0813e-06	4.5291e-06	1253.3	342.73	4.1313e-06	4.5042e-06	390.07	130.39	109.97	39.465	4.2068e-06	48.624	433.511	293.991	250.928	190.425	255.164	284.968	190.282	195.134	301.495	343.489	194.506	198.516	198.722	203.925	284.447	203.315	-8191	255	
1315.521	1	1	0	0	0.32213	0.14929	0.087567	0.1831	0.02811	0.10787	0.27178	0.32333	0.11124	0.077568	0.097101	0.13249	0.071925	0.33857	0.22631	0.31794	-1.3188	-2.4104	-2.6063	-1.9125	-2.825	-2.0167	-2.4188	-2.8479	-2.0083	-2.6042	-2.5979	-1.9146	-2.5708	-2.1771	-2.1688	-2.775	534.768	214.050	462.794	188.825	249.296	369.468	404.299	443.229	194.172	271.406	525.814	486.109	430.424	535.887	456.533	469.495	0.0017631	0.00060224	5.4311e-05	1232.2	6.4759e-06	4.6205e-06	1240.6	342.56	3.9681e-06	7.6341e-06	389.14	130.93	114	38.937	3.8396e-06	48.84	0.00039388	0.00040682	0.00010678	1238.6	4.2829e-06	4.4331e-06	1250.3	342.21	4.2985e-06	4.3886e-06	389.18	130.04	110.59	39.297	4.0414e-06	48.54	416.989	222.510	291.241	190.487	238.372	363.147	190.136	195.153	270.075	364.929	194.646	198.702	198.558	203.850	385.747	202.954	-8191	255	
1315.617	1	1	0	0	0.10974	0.077668	0.1069	0.25915	0.138	0.12267	0.42271	0.14511	0.14424	0.006807	0.14915	0.19701	0.14172	0.089422	0.071754	0.17555	-1.5896	-2.3563	-2.6417	-2.0271	-2.7271	-2.1792	-2.0083	-2.8479	-1.9937	-2.3375	-2.7646	-1.9104	-2.7333	-2.4958	-1.7979	-2.6333	497.900	441.096	420.148	492.375	423.327	270.326	528.728	450.306	413.272	419.107	328.712	238.666	265.374	235.916	231.094	236.450	0.001637	0.00044247	0.00015065	1230	5.0807e-06	1.88e-06	1242.7	341.66	6.8835e-06	4.1249e-06	390.55	131.26	112.86	39.013	2.1097e-06	48.407	0.0004019	0.00038703	0.00010188	1236.8	4.3147e-06	4.1919e-06	1246.1	342.15	4.3179e-06	4.1049e-06	387.83	130.16	110.35	39.176	3.8443e-06	48.558	427.802	293.132	355.858	190.291	536.066	285.860	190.228	194.864	248.518	478.728	194.429	198.437	198.424	203.920	331.559	203.108	-8191	255	
1315.736	1	1	0	0	0.043465	0.032291	0.2498	0.20908	0.15369	0.051711	0.14034	0.28127	0.28139	0.14005	0.18218	0.093	0.21582	0.17056	0.04731	0.03665	-1.7542	-2.2438	-2.6854	-2.0521	-2.6458	-2.6604	-2.0792	-2.8625	-2.1729	-2.1312	-2.9313	-1.8979	-2.5354	-2.6833	-2.0875	-2.8708	362.503	341.973	288.280	423.413	353.192	262.086	431.047	180.138	375.722	446.465	203.214	418.326	519.036	528.786	318.577	452.339	0.0015308	0.00057359	0.00010225	1232.7	1.4836e-06	5.9334e-06	1245.6	341.45	8.3544e-06	2.1193e-06	389.44	130.35	112.64	38.863	3.8356e-06	48.385	0.00040372	0.0003725	9.774e-05	1237.9	4.3013e-06	4.1086e-06	1246.5	342.52	4.3524e-06	4.0119e-06	387.26	130.37	109.98	39.083	3.7437e-06	48.69	428.076	279.863	371.279	190.259	501.587	349.922	190.191	194.987	272.673	282.497	194.875	198.603	198.268	204.317	300.838	203.043	-8191	255	
1315.832	1	1	0	0	0.34568	0.040481	0.28331	0.17799	0.095064	0.068393	0.22068	0.37473	0.10454	0.011989	0.15251	0.36572	0.11093	0.077149	0.08433	0.19087	-1.6812	-2.0042	-2.6688	-2.0958	-2.5687	-2.6896	-2.125	-2.9979	-2.225	-1.8729	-2.7854	-2.0792	-2.4021	-2.6708	-1.7229	-2.5042	391.384	279.625	503.075	490.405	500.256	493.115	487.065	512.523	184.436	347.336	212.696	490.142	464.690	386.127	520.002	478.296	0.0017124	0.00060337	0.00010132	1231.3	4.5134e-06	1.9873e-06	1240.1	341.55	8.6667e-06	7.108e-07	389.46	130.84	112.89	39.078	5.7647e-06	48.516	0.00039615	0.00036377	9.5611e-05	1239.6	4.2462e-06	3.9977e-06	1243	343.31	4.263e-06	3.9412e-06	387.41	130.91	110.22	39.138	3.8739e-06	48.881	427.139	289.396	258.370	190.369	359.611	285.384	190.276	194.931	317.868	497.255	194.480	198.502	198.715	204.176	260.949	203.023	-8191	255	
1315.928	1	1	0	0	0.11119	0.09537	0.079693	0.10616	0.27279	0.096675	0.09607	0.12355	0.20564	0.071139	0.10108	0.085887	0.38067	0.23042	0.23033	0.2211	-1.725	-1.8771	-2.8	-2.1833	-2.3854	-2.8458	-2.0833	-2.7208	-2.5729	-1.8687	-2.7812	-2.3312	-2.2188	-2.8917	-1.7667	-2.5479	316.460	261.890	284.399	460.519	336.993	499.005	448.760	416.215	352.081	520.269	462.829	536.559	188.775	279.291	389.269	222.828	0.0014849	0.00026926	9.3526e-05	1235.3	6.7988e-06	6.7111e-07	1248.1	342.35	6.2038e-06	2.5476e-06	391.07	130.65	113.73	38.699	4.1819e-06	48.573	0.00039414	0.00036285	9.8675e-05	1243.8	4.1854e-06	3.9899e-06	1250.3	344.3	4.2291e-06	3.9066e-06	388.78	131.21	110.03	39.015	4.0479e-06	48.998	434.140	297.078	214.256	190.411	295.125	416.648	190.119	195.085	253.850	341.779	194.668	198.510	198.589	203.897	287.203	203.087	-8191	255	
1316.000	1	1	0	0	0.087752	0.018597	0.092111	0.15868	0.16619	0.14337	0.14196	0.29095	0.14994	0.12464	0.28562	0.20333	0.10033	0.1109	0.24743	0.2741	-2.0312	-1.7729	-2.725	-2.2625	-2.2083	-2.8375	-2.075	-2.4646	-2.4854	-1.8271	-2.9104	-2.3667	-2.0458	-2.8604	-2.0208	-2.5479	309.558	358.230	523.141	493.364	388.952	522.897	429.594	522.261	192.825	368.314	507.580	533.767	209.545	458.196	532.965	470.548	0.0013913	0.00069914	0.00010075	1235.8	3.9572e-06	4.3256e-06	1245.1	342.62	5.0471e-06	3.2844e-06	391.61	130.61	112.62	39.024	3.9496e-06	48.309	0.0003916	0.00035491	0.00010528	1246.1	4.1993e-06	3.8998e-06	1253.4	344.62	4.1887e-06	3.8488e-06	390.52	131.15	109.62	39.045	4.2842e-06	48.922	430.549	251.908	523.412	190.237	270.479	309.080	190.043	195.100	244.502	319.644	194.560	198.393	198.796	204.012	257.110	203.205	-8191	255	
1316.120	1	1	0	0	0.12765	0.09587	0.10591	0.10428	0.13874	0.032663	0.16109	0.11356	0.048805	0.3028	0.10482	0.14562	0.12276	0.14927	0.082746	0.21768	-2.2833	-1.9333	-2.6896	-2.3083	-1.9167	-2.9521	-2.2646	-2.2542	-2.7417	-1.9333	-2.8958	-2.45	-1.8958	-2.8833	-1.7958	-2.3625	249.429	490.494	477.889	502.794	212.559	181.000	517.657	507.368	471.535	241.425	221.490	211.946	481.514	468.178	481.901	441.985	0.0014656	0.00079555	0.00016993	1236.1	3.0463e-06	6.8461e-06	1248.4	342.52	4.0025e-06	3.1431e-06	391.54	130.98	112.83	39.027	2.5416e-06	48.42	0.00038409	0.00035192	0.0001089	1246.1	4.0089e-06	3.8233e-06	1255.9	343.73	4.0528e-06	3.8742e-06	391.61	131.02	109.23	39.11	4.3781e-06	48.754	438.684	222.169	282.495	190.506	292.595	287.706	190.355	195.188	243.892	234.071	194.943	198.759	199.026	204.232	536.346	203.234	-8191	255	
1316.216	1	1	0	0	0.076023	0.20873	0.30036	0.20915	0.16996	0.19703	0.11177	0.26145	0.11828	0.17672	0.081086	0.29038	0.086844	0.048184	0.18531	0.11378	-2.3229	-1.9312	-2.3896	-2.4729	-1.8583	-2.9188	-2.1875	-2.2417	-2.6146	-1.9312	-2.8479	-2.5646	-1.7979	-2.7646	-2.3292	-2.3479	325.145	457.010	223.424	493.445	296.945	196.481	400.254	233.264	238.214	510.563	536.512	269.682	407.673	389.718	515.468	239.775	0.0014423	0.00027763	5.0236e-05	1234.8	1.6752e-06	5.3448e-06	1243.8	341.83	6.2312e-06	2.108e-06	388.15	130.36	112.52	38.826	1.2401e-06	48.243	0.00036703	0.00035867	0.00011028	1242.9	3.8657e-06	3.9686e-06	1253.5	343.15	3.917e-06	4.036e-06	390.98	130.63	108.84	39.147	4.395e-06	48.652	432.158	264.112	194.016	190.682	255.249	205.378	190.349	195.163	261.165	271.697	195.009	198.858	198.978	204.511	430.911	203.744	-8191	255	
1316.312	1	1	0	0	0.16872	0.18928	0.20917	0.057008	0.29425	0.19116	0.16047	0.19369	0.1098	0.16101	0.18491	0.20555	0.15713	0.29293	0.15217	0.062014	-2.4896	-1.7687	-2.5396	-2.6125	-2.0021	-2.8438	-2.3688	-2.3167	-2.7833	-1.8354	-2.5812	-2.8417	-1.9688	-2.6937	-2.025	-1.9333	439.117	363.792	220.332	227.294	238.542	330.646	428.618	521.839	246.968	499.154	383.643	198.475	493.041	436.653	210.220	482.827	0.001435	0.00030065	0.0001714	1231.5	3.9509e-06	9.7947e-07	1246.3	341.92	5.5478e-06	5.0581e-06	392.23	130.77	113.18	39.038	3.0281e-06	48.181	0.00036059	0.00038162	0.0001089	1239.7	3.8419e-06	4.2214e-06	1254	342.79	3.8615e-06	4.2786e-06	390.55	130.54	108.6	39.368	4.283e-06	48.638	431.022	195.773	231.791	190.843	296.765	465.222	190.099	195.227	321.731	190.447	194.840	198.934	199.457	204.317	250.555	203.329	-8191	255	
1316.409	1	1	0	0	0.27139	0.13974	0.11997	0.15285	0.046636	0.040145	0.20789	0.10235	0.10239	0.26312	0.15438	0.23154	0.080015	0.085008	0.22311	0.20657	-2.5042	-1.9188	-2.2792	-2.6396	-1.9208	-2.6521	-2.4417	-2.1625	-2.6479	-2.125	-2.3167	-2.9083	-1.9438	-2.5938	-2.3833	-2.0708	378.855	282.823	492.026	493.343	327.644	352.591	415.686	489.575	478.245	360.565	189.189	523.006	474.420	200.543	511.423	466.504	0.0015162	0.00014102	0.00028708	1229.2	3.1729e-06	5.5456e-07	1236.2	341.51	4.5298e-06	3.3514e-06	389.09	130.12	111.6	38.54	2.0467e-06	47.858	0.00036288	0.00039759	0.00010646	1239.4	3.8989e-06	4.3678e-06	1250.5	342.13	3.9455e-06	4.3877e-06	389.43	130.17	109.08	39.252	4.1258e-06	48.41	428.719	425.883	208.941	190.569	316.380	533.905	190.312	195.119	266.410	330.093	194.792	198.593	198.664	204.388	356.453	202.951	-8191	255	
1316.527	1	1	0	0	0.19275	0.22223	0.09948	0.23436	0.10614	0.17254	0.17443	0.29322	0.098411	0.13075	0.10486	0.099808	0.20762	0.16168	0.18528	0.18939	-2.475	-2.2604	-2.2708	-2.9313	-1.9896	-2.6458	-2.5354	-1.9104	-2.7125	-2.0333	-2.3417	-2.9333	-1.8583	-2.5396	-2.5083	-2.0125	192.211	436.147	466.115	520.009	458.500	337.727	438.695	428.070	231.733	260.312	336.287	349.453	240.004	191.011	237.367	458.595	0.0018276	0.0008186	0.00029071	1212.8	4.5415e-06	4.7757e-06	1221.1	335.56	5.4797e-06	4.5072e-06	382.3	128.91	111.07	38.31	5.8808e-06	47.641	0.00037304	0.00040032	0.00010439	1235.1	4.0816e-06	4.3847e-06	1246.1	340.88	4.175e-06	4.3589e-06	387.87	129.81	109.81	39.168	4.1121e-06	48.397	433.998	198.138	207.236	190.681	192.219	313.208	190.185	195.207	207.226	306.014	194.896	198.543	198.713	204.205	344.285	202.952	-8191	255	
1316.601	1	1	0	0	0.1704	0.25296	0.04364	0.1914	0.23809	0.11807	0.37309	0.050695	0.088439	0.049038	0.16183	0.21885	0.11591	0.1402	0.19533	0.34848	-2.2562	-2.225	-2.1833	-2.6021	-2.0354	-2.2687	-2.7458	-1.9625	-2.6708	-2.4396	-2.0021	-2.9646	-1.8521	-2.4667	-2.7479	-2.0604	335.610	428.085	371.013	487.385	405.261	251.418	493.630	316.987	511.468	332.929	455.066	293.904	229.767	432.518	518.697	467.589	0.0018434	0.00021135	0.00015701	1217.3	2.955e-06	2.6392e-06	1229.5	338.19	3.4983e-06	3.3236e-06	385.47	128.75	111.19	38.456	4.575e-06	47.704	0.00040092	0.00039606	0.00010388	1238.3	4.3709e-06	4.3094e-06	1248.2	341.85	4.3916e-06	4.326e-06	387.4	129.9	110.31	39.196	4.034e-06	48.445	419.471	239.625	251.973	190.327	200.057	388.611	190.093	195.071	245.512	318.862	194.702	198.792	198.988	204.252	356.192	203.165	-8191	255	
1316.697	1	1	0	0	0.23468	0.083052	0.28528	0.077396	0.17007	0.25945	0.093218	0.36883	0.30993	0.26458	0.10481	0.2878	0.19437	0.26	0.06072	0.15761	-2.1125	-2.4208	-1.7604	-2.8583	-2.0625	-2.3312	-2.9562	-2.1437	-2.525	-2.5479	-1.9958	-3.0021	-2.0312	-2.1625	-2.8875	-2.1958	292.345	250.984	218.536	194.621	189.199	429.503	478.845	503.535	384.323	507.053	469.149	457.165	518.393	212.100	209.798	324.451	0.0012057	0.00046341	0.00014866	1218	5.0053e-07	6.0267e-06	1237.8	337.44	5.7292e-06	8.7619e-06	384.77	130.45	111.24	38.356	3.5308e-06	47.538	0.00041126	0.00038968	0.00010148	1239.2	4.4828e-06	4.2288e-06	1249	341.86	4.4813e-06	4.192e-06	386.76	130.7	110.56	39.109	3.9284e-06	48.638	435.731	267.757	327.676	190.424	370.325	283.433	190.492	195.423	275.629	318.449	194.987	199.015	198.877	204.355	364.638	203.132	-8191	255	
1316.816	1	1	0	0	0.13838	0.14059	0.3161	0.19179	0.19789	0.18271	0.24558	0.16518	0.21192	0.26798	0.18347	0.26924	0.23916	0.38823	0.10959	0.39481	-2.0792	-2.4313	-1.9792	-3.1167	-2.1375	-2.1437	-2.9021	-2.1417	-2.4625	-2.5792	-2.1625	-2.8375	-2.3688	-2.1104	-2.8708	-2.2313	522.401	247.475	373.475	477.559	446.204	339.385	454.470	492.262	309.917	459.391	495.566	219.596	203.724	455.145	400.331	433.740	0.0015119	0.00043685	0.00014076	1219.4	7.3979e-06	3.9619e-06	1227	336.66	4.0172e-06	4.8089e-06	386.67	128.79	111.65	38.161	2.502e-06	48.003	0.00041247	0.00038337	9.8493e-05	1242	4.4178e-06	4.1192e-06	1247.5	342.7	4.3517e-06	4.1365e-06	387.42	130.94	110.2	38.99	3.8876e-06	48.865	430.569	209.088	198.370	190.649	279.815	248.104	190.373	195.113	197.824	283.116	194.781	198.722	199.093	204.332	314.822	203.327	-8191	255	
1316.912	1	1	0	0	0.080834	0.25676	0.19521	0.036423	0.11244	0.2703	0.12896	0.25462	0.14441	0.22085	0.20525	0.38268	0.19995	0.17892	0.037308	0.27908	-1.9729	-2.6729	-1.8333	-2.8292	-2.3958	-1.9312	-2.8771	-1.9792	-2.4771	-2.7687	-1.9521	-2.6458	-2.3833	-2.0833	-2.6979	-2.1271	184.980	343.498	492.125	207.631	406.631	249.909	230.315	472.063	407.832	177.246	188.921	506.177	439.072	535.327	330.663	191.532	0.0015292	0.00072524	0.00010529	1220.8	9.903e-07	5.3306e-06	1229.2	337.34	3.3613e-06	5.6517e-06	385.91	129.27	111	38.277	7.0007e-06	47.798	0.00039765	0.00037141	9.7226e-05	1245	4.2886e-06	3.975e-06	1247.8	343.75	4.2412e-06	3.9961e-06	387.31	130.94	109.96	38.951	3.9949e-06	48.916	436.991	353.339	243.671	190.707	357.574	351.551	190.745	195.193	354.553	327.893	195.033	198.943	198.497	204.258	201.790	203.257	-8191	255	
1317.008	1	1	0	0	0.24692	0.1828	0.34275	0.11602	0.30545	0.26574	0.061338	0.042414	0.15243	0.12483	0.22878	0.24374	0.30147	0.026222	0.080747	0.051075	-1.8167	-2.5812	-1.8667	-2.7979	-2.5479	-1.9312	-2.95	-2.2896	-2.1125	-2.9104	-2.1458	-2.8	-2.4062	-2.0146	-2.75	-2.4979	369.995	527.299	268.498	407.782	427.814	301.844	464.026	479.826	284.311	519.693	347.933	186.831	215.184	536.349	383.231	288.379	0.001397	8.5389e-05	9.1845e-05	1225.8	3.6223e-06	2.7037e-06	1232.3	337.41	5.4379e-06	5.1243e-06	385.48	128.83	111.92	38.498	2.426e-06	47.555	0.00038933	0.00035907	0.0001023	1244	4.1754e-06	3.8793e-06	1251.3	343.29	4.1583e-06	3.9102e-06	389	130.91	109.96	38.992	4.2493e-06	48.877	442.007	321.132	207.369	190.972	232.958	278.438	190.602	195.519	252.447	291.174	195.091	199.062	199.135	204.531	256.106	203.468	-8191	255	
1317.129	1	1	0	0	0.076429	0.24816	0.15283	0.30778	0.12157	0.22328	0.42622	0.10286	0.15992	0.029798	0.31694	0.25122	0.21781	0.18439	0.087048	0.19121	-1.9	-2.8708	-1.8917	-2.7042	-2.6125	-2.0104	-3.0854	-2.3979	-2.2083	-2.8833	-2.1167	-2.4625	-2.7271	-1.975	-2.7708	-2.4896	529.120	461.965	344.791	494.249	194.887	200.026	509.121	257.136	513.464	186.911	531.816	534.635	448.243	475.063	467.895	518.081	0.0015914	0.0007357	7.0444e-06	1217.3	2.5714e-06	1.421e-06	1235.6	338.15	3.8003e-06	5.5867e-06	388.62	128.94	111.52	38.323	5.3415e-06	47.943	0.00038669	0.00035953	0.00010993	1244.6	4.1425e-06	3.869e-06	1254.6	343.26	4.142e-06	3.9176e-06	390.81	130.79	109.34	38.932	4.3933e-06	48.817	431.479	224.960	464.855	191.009	277.626	427.162	190.728	195.643	201.852	299.042	195.065	199.368	199.565	204.692	234.017	203.723	-8191	255	
1317.225	1	1	0	0	0.28661	0.15133	0.063441	0.21773	0.050074	0.11555	0.13344	0.2403	0.090098	0.30722	0.042086	0.30271	0.30372	0.3648	0.23066	0.14258	-1.5292	-2.6458	-2.0354	-2.4833	-2.5667	-1.8667	-2.7875	-2.5396	-1.8687	-2.7917	-2.2125	-2.3292	-2.875	-1.9771	-2.5833	-2.4896	415.105	297.778	214.559	485.142	274.800	257.372	456.267	474.752	473.389	222.462	284.419	471.747	451.531	435.196	501.011	184.046	0.0014619	0.00039278	9.2511e-05	1228.4	6.9148e-06	2.2061e-06	1244.2	340.69	1.1387e-05	8.7831e-06	387.35	130.19	112.52	38.764	4.6817e-06	48.306	0.00037468	0.00035823	0.00011179	1243.4	4.0058e-06	3.9203e-06	1255	343.3	3.8991e-06	3.9477e-06	390.63	130.6	108.85	39.083	4.3302e-06	48.774	435.884	247.543	289.882	191.111	328.207	330.834	190.904	195.743	242.909	246.243	194.980	199.417	199.359	204.948	317.010	203.973	-8191	255	
1317.297	1	1	0	0	0.10966	0.22323	0.099055	0.12824	0.053724	0.083221	0.12785	0.32253	0.074457	0.091335	0.19533	0.24582	0.093155	0.20831	0.18266	0.15176	-1.4104	-2.6146	-2.1208	-2.3417	-2.9333	-2.0104	-2.625	-2.6583	-1.6521	-2.8187	-2.3792	-2.2667	-2.8312	-2.0229	-2.5958	-2.6729	514.367	405.043	487.314	315.854	284.644	226.311	450.004	508.327	429.483	233.018	390.739	316.415	500.098	478.477	324.020	427.346	0.0015983	0.00039167	0.00014135	1233.9	3.6774e-06	3.3786e-06	1242.2	341.24	5.7628e-06	3.7694e-06	389.35	130.73	112.8	38.707	5.6783e-06	48.296	0.00035867	0.00037125	0.00010988	1242	3.8569e-06	4.11e-06	1252.3	342.3	3.8203e-06	4.1596e-06	390.3	130.58	108.69	39.198	4.2418e-06	48.678	425.457	251.937	226.330	191.367	271.081	271.326	191.009	195.857	530.056	284.856	195.432	199.726	199.676	205.291	308.436	203.993	-8191	255	
1317.417	1	1	0	0	0.26856	0.27307	0.085915	0.11248	0.15426	0.19338	0.22126	0.22394	0.13738	0.10403	0.15644	0.19899	0.31936	0.090011	0.33093	0.13354	-1.5792	-2.8417	-2.1917	-2.2875	-2.9625	-1.9229	-2.4604	-2.7979	-1.9542	-2.7313	-2.5667	-2.0583	-2.7771	-2.1646	-2.4604	-2.8896	219.848	379.334	251.610	518.522	200.022	523.195	492.968	392.697	520.331	418.265	198.950	536.689	253.801	256.852	352.265	308.396	0.0012697	0.00022027	2.6895e-05	1233.3	5.3786e-06	2.8361e-06	1244.4	343.13	7.4277e-06	3.3385e-06	389.61	131.21	112.78	38.936	9.7656e-07	48.184	0.00035652	0.00038652	0.00010759	1241.2	3.8579e-06	4.315e-06	1252.5	342.71	3.8543e-06	4.3175e-06	390.08	130.3	108.89	39.291	4.134e-06	48.548	436.103	191.001	503.409	192.038	283.685	308.242	191.142	196.364	237.286	288.442	195.641	200.292	200.137	205.420	225.207	204.420	-8191	255	
1317.513	1	1	0	0	0.13822	0.22779	0.22434	0.063554	0.14923	0.10691	0.14274	0.43322	0.2554	0.067023	0.1628	0.049356	0.25527	0.078879	0.23355	0.093681	-1.5312	-2.525	-2.4979	-2.0979	-2.8521	-2.0833	-2.4562	-2.9979	-1.8375	-2.6917	-2.5938	-1.9292	-2.7646	-2.1688	-2.2021	-2.7687	297.672	481.110	514.994	519.991	239.591	206.954	484.142	518.525	471.456	421.128	506.496	458.721	518.708	262.300	413.959	187.959	0.0019042	0.00048765	0.00010527	1236.5	2.4867e-06	5.1358e-06	1243.6	342.09	7.9379e-06	7.8579e-06	386.53	130.44	112.59	38.798	4.4316e-06	48.302	0.0003663	0.00039344	0.00010436	1239.5	3.9717e-06	4.3449e-06	1251.4	341.98	4.0261e-06	4.3262e-06	387.98	130.06	109.57	39.27	4.0314e-06	48.413	435.502	333.317	365.014	191.495	530.797	220.661	191.283	196.306	223.718	313.401	195.644	199.919	200.420	205.391	248.505	204.166	-8191	255	
1317.610	1	1	0	0	0.20608	0.089773	0.043022	0.39932	0.28873	0.062007	0.19697	0.17279	0.0106	0.24586	0.26446	0.43037	0.098185	0.13352	0.2196	0.32959	-1.6667	-2.6125	-2.6958	-2.1125	-2.725	-2.3583	-2.3146	-2.8375	-1.9792	-2.5833	-3.0125	-2.0833	-2.6604	-2.3083	-2.0042	-2.9208	429.477	243.655	336.356	487.967	533.823	361.647	484.899	480.366	505.347	252.415	230.944	497.129	468.148	412.847	213.017	180.119	0.0017251	0.00041222	0.00012491	1230.2	5.1023e-06	4.6711e-06	1249.1	342.57	9.9734e-06	1.5354e-06	388.51	130.89	112.59	38.983	5.868e-06	48.52	0.00038326	0.00038982	0.00010303	1237.2	4.1805e-06	4.3035e-06	1250.1	341.72	4.25e-06	4.2118e-06	387.53	130.14	110.33	39.223	3.976e-06	48.457	427.060	290.160	269.917	191.308	537.431	344.747	191.064	196.153	224.096	238.084	195.494	199.219	199.609	205.577	307.790	203.818	-8191	255	
1317.704	1	1	0	0	0.04402	0.25873	0.094646	0.30502	0.11384	0.26447	0.28624	0.29642	0.11478	0.20002	0.14571	0.27884	0.10395	0.10423	0.13015	0.24535	-1.5208	-2.4896	-2.6958	-1.95	-2.7313	-2.3292	-2.2417	-2.7354	-2.1208	-2.2708	-2.95	-2.0104	-2.6208	-2.3125	-2.1646	-2.8979	469.275	449.771	411.695	502.290	504.320	371.306	429.950	508.569	414.985	496.102	538.113	183.438	421.895	503.383	399.452	313.366	0.0015585	0.00051943	7.7478e-05	1234.4	2.8158e-06	1.9441e-06	1245.1	341.84	1.292e-05	7.4867e-06	388.92	129.89	113.4	38.863	3.596e-06	48.507	0.00040223	0.00038321	0.00010079	1239.5	4.3274e-06	4.1586e-06	1248.3	342.5	4.3496e-06	4.1034e-06	387.35	129.98	110.63	39.115	3.8551e-06	48.621	434.946	241.429	310.007	191.601	275.212	499.700	191.051	196.159	247.997	352.173	195.889	200.060	199.691	205.215	315.026	204.090	-8191	255	
1317.800	1	1	0	0	0.20645	0.12427	0.23959	0.09057	0.064961	0.083983	0.12998	0.15044	0.32391	0.17131	0.14559	0.21268	0.27259	0.30645	0.09806	0.21118	-1.7854	-2.1688	-2.8792	-2.0917	-2.3417	-2.6417	-1.9104	-2.925	-2.2771	-2.1312	-3.0521	-2.1458	-2.6104	-2.7125	-2	-2.6958	281.725	386.175	519.516	187.144	322.533	213.976	413.675	190.951	376.823	506.618	195.827	512.546	223.852	221.499	452.408	476.472	0.0014888	0.00061757	0.00016641	1237.5	8.0796e-07	2.52e-06	1248.9	341.32	2.5722e-06	6.4742e-06	390.82	130.16	113.02	39.005	3.2551e-06	48.43	0.00040523	0.00037073	9.747e-05	1241.3	4.3034e-06	4.0693e-06	1247.7	342.83	4.3205e-06	4.0274e-06	387.08	130.51	110.09	39.17	3.7574e-06	48.751	428.299	309.838	242.025	191.630	523.794	282.060	190.955	195.635	186.485	315.199	195.426	199.225	199.630	204.824	364.214	203.271	-8191	255	
1317.896	1	1	0	0	0.35639	0.27629	0.34925	0.24073	0.28646	0.32071	0.2069	0.18208	0.27359	0.18565	0.22231	0.15987	0.2399	0.48037	0.17594	0.3256	-1.75	-1.9104	-2.5958	-2.1458	-2.5167	-2.7021	-2.1771	-2.8833	-2.1854	-1.9625	-2.7604	-2.1333	-2.3125	-2.8896	-1.9229	-2.8229	496.179	179.703	285.085	521.585	425.413	316.492	501.831	393.943	357.123	433.895	466.402	515.820	529.147	503.748	188.169	421.201	0.0013588	0.00072035	0.0001515	1229.9	9.1767e-06	4.7883e-06	1243.3	342.16	5.0021e-06	2.0205e-06	389.68	130.82	112.94	39.185	3.7375e-06	48.33	0.00039726	0.00036323	9.521e-05	1240.5	4.1788e-06	3.956e-06	1245	343.75	4.217e-06	3.944e-06	387.09	131	109.67	39.081	3.7537e-06	48.897	424.529	293.557	259.930	190.812	316.345	308.268	190.493	195.496	334.850	330.308	194.729	198.819	198.981	204.275	291.017	203.489	-8191	255	
1317.992	1	1	0	0	0.28331	0.2293	0.058689	0.16291	0.12558	0.092763	0.19403	0.15796	0.12197	0.25364	0.42228	0.33465	0.16634	0.17902	0.25603	0.20719	-2.0438	-2.1417	-2.7458	-2.0292	-2.3563	-2.6937	-2.1979	-2.7417	-2.6729	-2.2042	-2.9	-2.0792	-2.1667	-2.75	-1.8937	-2.6708	184.206	216.572	382.617	182.174	486.049	536.643	506.977	532.526	518.149	345.265	210.872	534.063	327.609	497.671	417.917	399.438	0.0015588	0.00017992	6.4327e-05	1233.8	5.0657e-06	1.1759e-06	1244.8	342.57	8.0619e-06	4.1884e-06	389.65	130.74	112.61	39.02	3.2642e-06	48.286	0.00038233	0.00035172	9.73e-05	1244	4.0352e-06	3.7836e-06	1246.7	343.66	4.0277e-06	3.7431e-06	387.87	130.65	109.09	38.947	3.9601e-06	48.798	429.031	301.048	276.750	190.732	294.620	251.633	190.220	195.355	226.741	275.288	194.759	198.919	199.057	204.427	266.221	203.341	-8191	255	
1318.089	1	1	0	0	0.15631	0.25788	0.11863	0.037358	0.27518	0.16286	0.053881	0.24062	0.17496	0.16201	0.11562	0.065053	0.13327	0.23984	0.24666	0.23156	-2.2896	-1.8813	-2.7604	-2.3979	-2.0875	-2.7938	-2.0646	-2.6917	-2.4562	-1.9729	-2.7333	-2.3312	-2.1813	-2.8042	-1.9979	-2.4604	381.165	250.530	507.707	183.346	265.433	334.221	516.979	486.473	420.064	193.351	512.672	499.528	211.748	489.782	217.020	296.142	0.0013603	0.00012483	5.3542e-05	1236.1	4.3004e-07	4.8417e-06	1244.5	342.09	3.1026e-06	2.9452e-06	391.89	131.26	113.39	38.845	3.264e-06	48.34	0.0003731	0.00033873	0.00010164	1242.4	3.977e-06	3.7332e-06	1251.2	343.24	4.0242e-06	3.7036e-06	389.78	130.84	109.23	38.872	4.1796e-06	48.681	432.277	201.141	204.653	190.712	291.827	304.603	190.509	195.209	281.757	391.827	194.718	198.634	199.141	204.467	247.874	203.403	-8191	255	
1318.209	1	1	0	0	0.23272	0.17318	0.14755	0.21322	0.20665	0.11711	0.20184	0.14177	0.18024	0.49225	0.37773	0.14239	0.31961	0.20034	0.18737	0.097533	-2.3792	-1.9042	-2.6	-2.5062	-2.0125	-2.8229	-2.1396	-2.2896	-2.8563	-1.975	-2.8771	-2.5229	-2.0396	-2.7958	-2.1917	-2.4625	535.239	459.274	446.218	198.306	352.318	433.338	535.238	474.131	408.370	243.468	181.777	404.185	184.673	194.093	406.589	397.409	0.0015071	0.00031662	0.00012852	1234	3.4229e-06	5.8552e-06	1243.4	342.55	9.077e-06	1.8475e-06	389.66	130.65	112.4	38.919	2.7637e-06	48.204	0.00036968	0.00034071	0.00010707	1242.1	3.891e-06	3.7628e-06	1251	342.77	3.9035e-06	3.8107e-06	390.3	130.59	108.56	39.003	4.2803e-06	48.637	438.238	499.120	443.288	190.701	278.554	275.896	190.377	195.412	221.321	244.258	194.866	198.891	199.239	204.307	533.333	203.611	-8191	255	
1318.305	1	1	0	0	0.12537	0.11332	0.14032	0.18931	0.18656	0.056733	0.19812	0.15971	0.091138	0.080636	0.054859	0.20577	0.19556	0.35517	0.34015	0.089619	-2.3271	-1.8396	-2.6208	-2.5729	-2.0021	-2.7417	-2.2521	-2.2354	-2.5938	-2.1646	-2.6354	-2.5229	-1.7958	-2.8896	-2.1604	-2.2125	360.605	223.904	248.021	476.383	189.605	254.949	450.956	468.782	450.173	303.439	417.245	533.139	340.586	508.179	237.366	226.744	0.0017017	0.00030142	0.00013091	1230.5	3.9525e-06	2.3068e-06	1246.3	342.58	1.0314e-05	4.7172e-06	391.45	130.3	112.88	39.033	4.0151e-06	48.495	0.00035656	0.0003543	0.000107	1238	3.7404e-06	3.9159e-06	1252.9	342.42	3.777e-06	3.9898e-06	390.03	130.32	108.2	39.08	4.2302e-06	48.596	434.759	495.704	267.323	190.873	350.258	226.637	190.492	195.712	306.193	266.189	195.293	199.229	199.675	204.927	368.787	203.655	-8191	255	
1318.402	1	1	0	0	0.18198	0.23676	0.085238	0.10823	0.22908	0.088788	0.40749	0.41285	0.071623	0.42531	0.13486	0.088338	0.25153	0.12271	0.19686	0.049125	-2.3729	-1.8062	-2.3667	-2.7062	-1.8917	-2.8792	-2.4271	-2.3333	-2.725	-2.0375	-2.4437	-2.7562	-1.7979	-2.8021	-2.2854	-1.9875	383.344	468.170	388.302	431.815	320.422	177.628	465.845	493.294	406.516	487.559	211.378	512.329	178.779	489.871	442.238	231.899	0.0018122	0.00028344	0.00025425	1237.3	5.5013e-06	2.7637e-06	1239.4	342.45	2.3116e-06	2.3799e-06	388.5	130.55	112.49	38.653	2.399e-06	48.278	0.00035141	0.00037563	0.00010537	1240.7	3.7002e-06	4.1324e-06	1249.4	342.08	3.7663e-06	4.2116e-06	388.89	130.05	108.42	39.191	4.1762e-06	48.496	426.850	248.582	254.031	191.043	225.168	308.589	190.461	195.581	492.563	346.068	195.284	199.080	199.211	204.719	426.255	203.885	-8191	255	
1318.498	1	1	0	0	0.17392	0.19494	0.28595	0.054691	0.40495	0.31953	0.28954	0.19205	0.1539	0.2135	0.21538	0.15558	0.14185	0.088565	0.04361	0.12318	-2.3958	-2.1458	-2.3812	-2.7167	-1.9146	-2.7042	-2.575	-1.8771	-2.7542	-1.9562	-2.3104	-2.8063	-1.7646	-2.6375	-2.3875	-2.1042	240.818	250.937	271.513	201.151	276.226	450.861	478.343	441.005	506.383	354.725	450.638	209.070	203.324	291.308	248.817	528.526	0.0015054	0.00030296	0.00018205	1235.2	4.1063e-06	2.2579e-06	1247.4	341.33	4.2643e-06	1.1144e-05	389.87	130.6	112.4	38.964	3.5782e-06	48.61	0.00035684	0.00039189	0.00010403	1238.8	3.8487e-06	4.2907e-06	1250.4	341.5	3.9115e-06	4.2913e-06	388.43	129.98	108.97	39.219	4.0161e-06	48.382	430.316	353.177	263.510	191.058	302.341	337.057	190.770	195.944	196.890	290.476	195.282	199.123	199.398	204.902	300.796	203.644	-8191	255	
1318.594	1	1	0	0	0.2293	0.10817	0.16198	0.32417	0.25593	0.031009	0.26091	0.18005	0.38485	0.11401	0.078577	0.059274	0.153	0.13177	0.13685	0.041109	-2.5104	-2.075	-2.1875	-2.8354	-1.7854	-2.4	-2.7562	-2.1	-2.8792	-2.3646	-2.1688	-2.9896	-2.1271	-2.3896	-2.7875	-1.9979	391.674	327.776	379.884	494.785	488.861	386.451	535.252	473.218	290.167	318.160	508.633	501.185	321.426	525.194	446.324	515.510	0.001546	0.00012479	0.00019429	1238.1	8.5148e-06	3.6685e-06	1245.1	341.26	4.5458e-06	9.7726e-06	389.23	130.9	112.9	38.989	7.8554e-06	48.515	0.00037179	0.00039159	0.00010151	1239.8	4.0853e-06	4.2272e-06	1248.5	340.94	4.1513e-06	4.2257e-06	387.85	129.86	109.75	39.257	3.9667e-06	48.357	424.791	178.180	283.299	191.087	227.676	345.781	190.819	195.794	244.426	321.923	195.604	199.325	199.006	204.880	320.479	203.928	-8191	255	
1318.690	1	1	0	0	0.29528	0.25281	0.13397	0.25243	0.10211	0.22969	0.29269	0.17601	0.091797	0.33494	0.11264	0.15693	0.087457	0.04891	0.15439	0.23606	-2.3937	-2.35	-2.0479	-2.9854	-1.9083	-2.4521	-2.8875	-1.9396	-2.6396	-2.3083	-1.9417	-2.9792	-2.2062	-2.3229	-2.5708	-1.9771	223.376	491.083	317.767	479.568	342.568	270.042	428.828	226.231	412.493	482.314	426.457	483.557	348.261	241.143	314.502	507.797	0.0014962	0.00076494	0.00020883	1230.5	3.8439e-06	3.188e-06	1247.7	342.33	8.2587e-06	4.6859e-06	389.99	131.22	112.78	38.997	4.528e-07	48.288	0.00039078	0.00038327	9.8892e-05	1237.2	4.2586e-06	4.1203e-06	1248.9	342.12	4.2856e-06	4.1595e-06	387.69	130.23	110.63	39.169	3.8771e-06	48.539	422.771	233.282	254.365	191.048	247.362	300.596	190.633	195.643	217.712	305.958	195.763	199.177	199.394	204.592	330.409	203.440	-8191	255	
1318.809	1	1	0	0	0.034324	0.07656	0.035214	0.10275	0.22008	0.066425	0.26144	0.16486	0.10295	0.14518	0.22552	0.15234	0.3694	0.21008	0.18627	0.094777	-2.1188	-2.3583	-1.8479	-3.0792	-1.9813	-2.3604	-2.9146	-1.9083	-2.7313	-2.5521	-2.0792	-2.7917	-2.2833	-2.1417	-2.8021	-2.0292	321.114	290.897	417.732	226.743	399.691	369.112	473.367	405.447	386.268	458.257	403.636	444.592	187.981	308.592	274.361	395.877	0.0015852	0.00078128	0.00011866	1234.2	1.7208e-06	3.58e-07	1246	341.81	8.7887e-06	4.9614e-06	390.75	130.93	112.43	38.994	8.8902e-06	48.332	0.00040045	0.00037385	9.6737e-05	1238.7	4.3076e-06	4.0005e-06	1246.4	342	4.2795e-06	3.9853e-06	386.27	130.33	109.92	39.133	3.72e-06	48.602	435.992	232.216	224.456	191.310	251.062	309.097	190.929	196.206	238.443	332.337	195.529	199.463	199.261	204.617	308.946	203.623	-8191	255	
1318.905	1	1	0	0	0.02451	0.16758	0.029493	0.086227	0.10769	0.125	0.071799	0.056174	0.25524	0.10829	0.12024	0.27935	0.10796	0.1468	0.061615	0.061397	-2.2917	-2.7438	-1.8708	-2.9313	-2.1042	-2.15	-2.8521	-2.1229	-2.3667	-2.6458	-2.0979	-2.8729	-2.3542	-2.0792	-2.8396	-2.0021	358.105	384.323	280.097	295.505	511.624	320.201	425.363	234.888	186.964	453.336	436.195	260.304	335.387	504.040	257.716	512.386	0.0017206	0.00060407	0.00029657	1234.8	6.8589e-06	3.2448e-06	1243.9	340.89	2.605e-06	2.5523e-06	388.4	131.06	113.4	38.977	1.4372e-06	48.415	0.00038578	0.00035833	9.2995e-05	1242.2	4.2019e-06	3.8531e-06	1245.1	342.61	4.1424e-06	3.8677e-06	385.55	130.63	109.79	38.985	3.7272e-06	48.804	438.233	291.872	230.470	191.344	362.687	247.941	191.041	196.121	205.294	239.259	195.615	199.292	199.244	205.038	184.858	203.868	-8191	255	
1319.001	1	1	0	0	0.092499	0.14056	0.17672	0.33721	0.22144	0.075649	0.25905	0.22832	0.15172	0.027216	0.15014	0.23159	0.13854	0.308	0.27086	0.056566	-2.0333	-2.6042	-2.1167	-2.6896	-2.2896	-1.8979	-2.7812	-2.2938	-2.3688	-2.7854	-1.9854	-2.725	-2.4375	-2.0792	-2.8812	-2.1396	295.378	530.082	372.262	465.552	213.687	247.686	270.720	481.977	532.325	368.464	314.158	534.995	464.589	243.683	286.883	227.983	0.001386	0.00022891	0.00023518	1231.8	6.1591e-06	5.0591e-06	1245.1	341.29	1.7062e-06	3.9766e-06	390.99	130.59	112.83	38.931	2.9493e-06	48.312	0.00037872	0.00035186	9.4284e-05	1242.9	4.0827e-06	3.77e-06	1245.7	342.94	4.0168e-06	3.8127e-06	387.02	130.94	109.33	38.933	3.9106e-06	48.681	424.717	282.762	460.638	190.891	287.779	304.575	190.702	195.788	353.793	295.557	195.298	199.571	199.529	204.867	532.093	204.008	-8191	255	
1319.097	1	1	0	0	0.1148	0.21864	0.088214	0.24517	0.21525	0.16138	0.054685	0.24363	0.1358	0.30909	0.15981	0.20324	0.2399	0.19196	0.089708	0.1144	-1.7479	-2.7125	-2.0479	-2.9021	-2.4917	-1.925	-3.05	-2.45	-2.2583	-2.7417	-2.1521	-2.5854	-2.6188	-2.0792	-2.8104	-2.5104	218.151	492.428	333.359	528.529	245.665	249.405	382.477	516.911	217.463	526.555	195.209	414.718	530.157	179.790	518.140	206.716	0.0015551	0.00027775	0.00013237	1229.6	3.5354e-06	4.0223e-06	1243	341.66	7.5978e-06	2.6023e-06	388.3	131.06	112.19	39.018	5.9485e-07	48.222	0.00037331	0.00034724	0.00010055	1242.6	4.0164e-06	3.7201e-06	1249.3	343.38	3.9571e-06	3.7199e-06	388.09	130.91	108.97	38.861	4.0578e-06	48.746	436.826	254.476	237.130	191.321	287.398	335.914	191.123	195.784	218.341	254.283	195.414	199.420	199.648	204.932	525.303	203.716	-8191	255	
1319.193	1	1	0	0	0.15431	0.090447	0.043586	0.097055	0.20076	0.089104	0.21422	0.26157	0.3644	0.18651	0.013404	0.13384	0.35861	0.21049	0.2967	0.019688	-1.6646	-2.6646	-1.9875	-2.5667	-2.5917	-1.9021	-2.7167	-2.5396	-2.0438	-2.625	-1.9708	-2.3604	-2.7375	-1.9021	-2.5646	-2.4854	514.535	500.576	448.694	181.628	285.010	328.917	425.965	490.229	448.469	494.307	192.753	199.066	469.811	497.079	199.301	292.321	0.0013945	0.00032609	4.538e-05	1234.4	3.5213e-06	3.2547e-06	1247	341.6	3.1252e-06	5.7527e-06	388.73	130.83	111.97	38.917	1.9018e-06	48.44	0.0003632	0.00033565	0.00010484	1242.7	3.8761e-06	3.6387e-06	1250.3	342.13	3.8068e-06	3.6825e-06	389.07	130.3	108.42	38.902	4.0842e-06	48.535	439.061	249.444	236.512	191.421	291.169	302.277	191.171	196.194	319.626	321.416	195.677	199.719	199.594	205.428	237.949	204.799	-8191	255	
#DATA ENDS
