BOXY.EXE: ISS Imagent and Oximeter Data Acquisition Program Version 0.80
Ascii Record File

#ACQ INFORMATION
2  Detector Channels 
16  External MUX Channels 
1  Auxiliary Channels 
5000  Waveform (CCF) Frequency (Hz)
1  Waveforms Skipped 
30  Waveforms Averaged 
1  Cycles Averaged 
16  Acquisitions per Waveform 
10.0806  Updata Rate (Hz) 

#FILE INFORMATION
TRUE -- External MUX Channel results are PARSED.
FALSE -- AC DC and Phase are NOT grouped.
TRUE -- Companion Program Settings File CREATED.
FALSE -- AC data not excluded
FALSE -- DC data not excluded
FALSE -- Phase data not excluded
FALSE -- Auxillary Chn. data not excluded
Tab delimiters

#CALIBRATION STATE
TRUE -- Waveform Calibration Values APPLIED.


#AUX CALIBRATION VALUES
Val Type	aux-1	

Term	1.0000e+00	
Factor	0.0000e+00	


#WF CALIBRATION VALUES
A = Detector Channel
Val Type	A-AC1	A-AC2	A-AC3	A-AC4	A-AC5	A-AC6	A-AC7	A-AC8	A-AC9	A-AC10	A-AC11	A-AC12	A-AC13	A-AC14	A-AC15	A-AC16	A-DC1	A-DC2	A-DC3	A-DC4	A-DC5	A-DC6	A-DC7	A-DC8	A-DC9	A-DC10	A-DC11	A-DC12	A-DC13	A-DC14	A-DC15	A-DC16	A-Ph1	A-Ph2	A-Ph3	A-Ph4	A-Ph5	A-Ph6	A-Ph7	A-Ph8	A-Ph9	A-Ph10	A-Ph11	A-Ph12	A-Ph13	A-Ph14	A-Ph15	A-Ph16	

Term	0.00000e+00	0.00000e+00	0.00000e+00	0.00000e+00	0.00000e+00	0.00000e+00	0.00000e+00	0.00000e+00	0.00000e+00	0.00000e+00	0.00000e+00	0.00000e+00	0.00000e+00	0.00000e+00	0.00000e+00	0.00000e+00	0.00000e+00	0.00000e+00	0.00000e+00	0.00000e+00	0.00000e+00	0.00000e+00	0.00000e+00	0.00000e+00	0.00000e+00	0.00000e+00	0.00000e+00	0.00000e+00	0.00000e+00	0.00000e+00	0.00000e+00	0.00000e+00	0.00000e+00	0.00000e+00	0.00000e+00	0.00000e+00	0.00000e+00	0.00000e+00	0.00000e+00	0.00000e+00	0.00000e+00	0.00000e+00	0.00000e+00	0.00000e+00	0.00000e+00	0.00000e+00	0.00000e+00	0.00000e+00	
Factor	1.00000e+00	1.00000e+00	1.00000e+00	1.00000e+00	1.00000e+00	1.00000e+00	1.00000e+00	1.00000e+00	1.00000e+00	1.00000e+00	1.00000e+00	1.00000e+00	1.00000e+00	1.00000e+00	1.00000e+00	1.00000e+00	1.00000e+00	1.00000e+00	1.00000e+00	1.00000e+00	1.00000e+00	1.00000e+00	1.00000e+00	1.00000e+00	1.00000e+00	1.00000e+00	1.00000e+00	1.00000e+00	1.00000e+00	1.00000e+00	1.00000e+00	1.00000e+00	X	X	X	X	X	X	X	X	X	X	X	X	X	X	X	X	

B = Detector Channel
Val Type	B-AC1	B-AC2	B-AC3	B-AC4	B-AC5	B-AC6	B-AC7	B-AC8	B-AC9	B-AC10	B-AC11	B-AC12	B-AC13	B-AC14	B-AC15	B-AC16	B-DC1	B-DC2	B-DC3	B-DC4	B-DC5	B-DC6	B-DC7	B-DC8	B-DC9	B-DC10	B-DC11	B-DC12	B-DC13	B-DC14	B-DC15	B-DC16	B-Ph1	B-Ph2	B-Ph3	B-Ph4	B-Ph5	B-Ph6	B-Ph7	B-Ph8	B-Ph9	B-Ph10	B-Ph11	B-Ph12	B-Ph13	B-Ph14	B-Ph15	B-Ph16	

Term	0.00000e+00	0.00000e+00	0.00000e+00	0.00000e+00	0.00000e+00	0.00000e+00	0.00000e+00	0.00000e+00	0.00000e+00	0.00000e+00	0.00000e+00	0.00000e+00	0.00000e+00	0.00000e+00	0.00000e+00	0.00000e+00	0.00000e+00	0.00000e+00	0.00000e+00	0.00000e+00	0.00000e+00	0.00000e+00	0.00000e+00	0.00000e+00	0.00000e+00	0.00000e+00	0.00000e+00	0.00000e+00	0.00000e+00	0.00000e+00	0.00000e+00	0.00000e+00	-2.55034e+02	-1.42192e+02	-1.58171e+02	-1.83275e+02	-9.83914e+01	-9.52191e+01	-1.58166e+02	-1.62015e+02	-1.11076e+02	-8.25393e+01	-1.72759e+02	-1.71492e+02	-1.85060e+02	-1.78311e+02	-8.15946e+01	-1.51161e+02	
Factor	6.84074e-05	1.16036e-04	3.77825e-05	1.75057e-01	1.19124e-06	1.02847e-06	2.01126e-01	6.52604e-02	1.39494e-06	1.20521e-06	1.15205e-01	3.44855e-02	6.48392e-02	1.06986e-02	1.09788e-06	1.56755e-02	7.61801e-07	7.68646e-07	2.13154e-07	8.53154e-02	8.43469e-09	8.40861e-09	9.13502e-02	3.13959e-02	8.44513e-09	8.40387e-09	5.21703e-02	1.57552e-02	2.79534e-02	5.07005e-03	8.41014e-09	7.10043e-03	X	X	X	X	X	X	X	X	X	X	X	X	X	X	X	X	



#DISTANCE SETTINGS
A = Detector Channel
A-1	A-2	A-3	A-4	A-5	A-6	A-7	A-8	A-9	A-10	A-11	A-12	A-13	A-14	A-15	A-16	

2.5000e+00	3.0000e+00	2.5000e+00	3.0000e+00	2.0000e+00	3.0000e+00	1.5000e+00	3.0000e+00	3.0000e+00	3.0000e+00	3.0000e+00	3.0000e+00	3.0000e+00	3.0000e+00	1.5000e+00	3.0000e+00	

B = Detector Channel
B-1	B-2	B-3	B-4	B-5	B-6	B-7	B-8	B-9	B-10	B-11	B-12	B-13	B-14	B-15	B-16	

1.0000e+01	1.0000e+01	1.0000e+01	1.4400e+00	1.0000e+01	1.0000e+01	1.5100e+00	1.9400e+00	1.0000e+01	1.0000e+01	1.9900e+00	2.4900e+00	2.4100e+00	2.9000e+00	1.0000e+01	2.9800e+00	




#DATA BEGINS
time	group	step	mark	flag	A-AC1	A-AC2	A-AC3	A-AC4	A-AC5	A-AC6	A-AC7	A-AC8	A-AC9	A-AC10	A-AC11	A-AC12	A-AC13	A-AC14	A-AC15	A-AC16	A-DC1	A-DC2	A-DC3	A-DC4	A-DC5	A-DC6	A-DC7	A-DC8	A-DC9	A-DC10	A-DC11	A-DC12	A-DC13	A-DC14	A-DC15	A-DC16	A-Ph1	A-Ph2	A-Ph3	A-Ph4	A-Ph5	A-Ph6	A-Ph7	A-Ph8	A-Ph9	A-Ph10	A-Ph11	A-Ph12	A-Ph13	A-Ph14	A-Ph15	A-Ph16	B-AC1	B-AC2	B-AC3	B-AC4	B-AC5	B-AC6	B-AC7	B-AC8	B-AC9	B-AC10	B-AC11	B-AC12	B-AC13	B-AC14	B-AC15	B-AC16	B-DC1	B-DC2	B-DC3	B-DC4	B-DC5	B-DC6	B-DC7	B-DC8	B-DC9	B-DC10	B-DC11	B-DC12	B-DC13	B-DC14	B-DC15	B-DC16	B-Ph1	B-Ph2	B-Ph3	B-Ph4	B-Ph5	B-Ph6	B-Ph7	B-Ph8	B-Ph9	B-Ph10	B-Ph11	B-Ph12	B-Ph13	B-Ph14	B-Ph15	B-Ph16	aux-1	digaux	

1272.227	1	1	0	256	0.066404	0.26542	0.16271	0.20822	0.18048	0.083633	0.15121	0.14508	0.11486	0.07979	0.15053	0.17801	0.25726	0.15081	0.16609	0.082594	-1.5667	-2.7917	-1.8979	-2.4625	-2.5396	-1.9625	-2.8271	-2.2646	-1.9229	-2.8854	-1.8	-2.4083	-2.4854	-1.8625	-2.5833	-2.2667	65.998	-133.826	74.072	-159.283	80.593	138.791	87.386	31.144	99.083	-27.884	87.242	-90.588	-153.588	-132.603	124.979	8.996	0.00064698	0.00010147	2.3122e-05	963.88	1.0135e-06	1.8333e-06	1056.9	202.76	7.2381e-06	3.3569e-06	257.93	73.581	57.663	16.982	8.7751e-07	23.651	0.00012174	0.0001157	3.6304e-05	922.76	1.3365e-06	1.2404e-06	1008.9	194.56	1.2949e-06	1.2722e-06	243.53	70.167	52.246	16.453	1.4564e-06	22.913	83.253	-26.329	34.870	-160.804	-54.557	-18.204	-161.338	-153.758	-128.130	-159.318	-153.846	-147.032	-147.787	-139.422	164.676	-140.268	-8191	255	
1272.323	1	1	0	0	0.040261	0.22044	0.10607	0.17805	0.070862	0.19396	0.34236	0.15958	0.042359	0.20653	0.032809	0.13932	0.34217	0.12693	0.088913	0.039033	-1.5688	-2.7	-2.0833	-2.2833	-2.6396	-1.8354	-2.5604	-2.2667	-1.9542	-2.7188	-2.0667	-2.2438	-2.6188	-1.7625	-2.5667	-2.4354	117.755	-157.207	150.693	-140.071	20.069	130.696	60.665	66.441	-114.726	-31.519	103.759	-22.402	124.043	43.630	121.251	122.499	0.00064464	0.00011648	5.0096e-05	967.12	1.9025e-06	3.0279e-06	1061.8	202.65	5.8782e-06	4.3412e-07	257.52	73.512	57.741	16.821	5.7401e-06	23.761	0.00012013	0.00011695	3.7182e-05	924.33	1.3151e-06	1.284e-06	1014.5	194.79	1.2501e-06	1.3353e-06	243.9	70.244	52.472	16.508	1.4876e-06	22.953	75.781	-149.311	-90.323	-160.914	-67.468	-157.795	-161.220	-153.738	-98.706	87.846	-153.727	-147.600	-147.486	-139.579	6.287	-140.285	-8191	255	
1272.419	1	1	0	0	0.16598	0.22182	0.1585	0.090532	0.17784	0.12218	0.11983	0.22704	0.2027	0.20213	0.25354	0.19477	0.15655	0.12781	0.073292	0.13607	-1.5854	-2.6708	-1.8979	-2.2396	-2.6042	-2.0187	-2.6521	-2.525	-1.9104	-2.6458	-2.3604	-2.0875	-2.8958	-1.975	-2.3792	-2.6542	-56.551	45.699	81.472	51.490	-56.160	-53.724	-171.425	177.134	173.655	15.177	162.249	-62.843	81.147	182.281	-39.134	146.945	0.0006529	0.00019054	0.00013616	969.38	1.4926e-06	9.0402e-07	1064.2	203.83	4.2821e-06	1.0517e-06	258.87	73.192	58.288	17.066	1.7348e-06	23.791	0.00012189	0.00012981	3.8848e-05	928.22	1.3568e-06	1.4427e-06	1016	195.45	1.2815e-06	1.4757e-06	244.71	70.413	52.857	16.612	1.4798e-06	22.95	60.643	-8.283	136.716	-160.875	66.967	129.212	-161.182	-153.901	133.592	-41.276	-153.528	-146.946	-147.733	-139.228	-36.646	-139.799	-8191	255	
1272.513	1	1	0	0	0.27812	0.10418	0.014712	0.23194	0.18477	0.29106	0.069981	0.16593	0.13149	0.12758	0.17512	0.37436	0.065646	0.2642	0.15269	0.12889	-1.6	-2.5438	-2.1521	-2.0625	-2.6792	-1.9542	-2.3479	-2.5979	-2.0333	-2.5458	-2.3979	-1.9271	-2.625	-1.8667	-2.3604	-2.7167	92.475	-145.458	-148.492	43.509	-125.894	137.356	-83.487	124.905	-81.288	-56.470	136.578	120.233	-110.378	-114.815	-153.775	-55.779	0.00072782	0.00034934	4.2099e-05	973.41	2.9887e-06	5.168e-06	1059.8	204.37	1.6908e-06	3.5563e-06	260.58	73.769	58.138	16.979	1.9455e-06	23.819	0.00012001	0.00013565	3.7533e-05	929.83	1.345e-06	1.5181e-06	1016.9	195.66	1.3025e-06	1.5206e-06	244.78	70.424	52.695	16.674	1.4051e-06	22.947	73.140	-88.839	128.666	-160.905	-46.920	-115.867	-161.054	-153.641	-78.992	32.119	-153.768	-147.229	-147.835	-139.421	-27.699	-140.362	-8191	255	
1272.610	1	1	0	0	0.10945	0.094017	0.060275	0.12707	0.10947	0.17265	0.17499	0.32962	0.1576	0.23543	0.19339	0.18928	0.19579	0.20743	0.038419	0.18043	-1.4375	-2.4083	-2.3438	-2.1437	-2.6229	-2.1458	-2.3021	-2.8312	-1.9333	-2.525	-2.4917	-1.95	-2.8292	-1.9271	-2.1458	-2.8083	172.094	110.803	13.897	-70.173	-119.993	-26.571	142.318	176.474	-151.661	50.801	89.196	-77.186	-127.481	-79.139	115.176	129.668	0.00070176	0.00040524	0.00010904	971.53	2.9819e-06	3.679e-06	1066.2	204.4	1.4254e-06	2.8743e-07	259.62	73.526	57.67	17.036	3.0582e-06	23.744	0.00012663	0.00013964	3.6162e-05	930.82	1.4087e-06	1.5553e-06	1017.9	196.18	1.4347e-06	1.5381e-06	244.37	70.45	53.082	16.658	1.3599e-06	22.953	62.075	-100.001	-111.271	-160.958	148.304	-61.575	-161.432	-153.491	-20.797	-15.669	-153.959	-147.251	-147.078	-139.736	-24.296	-140.589	-8191	255	
1272.706	1	1	0	0	0.047028	0.14912	0.14759	0.15162	0.030485	0.17228	0.13498	0.20961	0.13482	0.32879	0.17834	0.20575	0.10052	0.1683	0.091166	0.1303	-1.3896	-2.4604	-2.4875	-1.9771	-2.6604	-2.2062	-2.2292	-2.6729	-1.8833	-2.2854	-2.6813	-1.9042	-2.6917	-2.1458	-1.925	-2.8979	-114.188	135.309	-20.680	131.661	108.881	136.047	-127.413	-67.675	-135.115	-109.903	153.500	178.775	-120.471	-156.539	-75.828	95.529	0.00079819	0.00019377	0.00011763	973.6	5.2738e-06	2.5948e-06	1064.4	205.52	4.6967e-06	2.1381e-06	259.2	73.571	57.551	17.116	2.086e-06	23.561	0.00013517	0.00013469	3.5296e-05	929.92	1.4968e-06	1.5088e-06	1019.1	195.85	1.5068e-06	1.4564e-06	243.8	70.343	53.267	16.684	1.3114e-06	22.877	83.559	-82.370	-47.592	-161.036	-31.236	-168.013	-160.777	-153.923	-168.356	104.640	-154.142	-147.512	-147.639	-139.639	-125.783	-139.711	-8191	255	
1272.826	1	1	0	0	0.093232	0.40044	0.26367	0.17737	0.24716	0.16636	0.31813	0.1249	0.029933	0.2258	0.047453	0.14849	0.077777	0.30406	0.12746	0.18564	-1.5688	-2.4437	-2.5354	-2.0604	-2.6229	-2.2562	-1.9833	-2.8125	-1.9417	-2.1896	-2.7146	-1.8479	-2.4917	-2.3583	-1.8813	-2.7458	131.976	-139.158	13.756	178.792	-26.448	0.294	-157.531	-49.784	38.547	129.516	-78.199	111.841	34.613	57.842	-152.585	-22.130	0.00068261	0.0004356	4.29e-05	971.28	1.7773e-06	3.3997e-06	1067.7	205.36	5.4308e-06	3.3147e-06	259.89	74.161	57.617	16.98	1.6532e-06	23.679	0.00014251	0.0001274	3.391e-05	930.19	1.4942e-06	1.4058e-06	1017	196.1	1.5222e-06	1.3733e-06	244.19	70.673	53.424	16.602	1.2603e-06	22.93	65.720	-146.406	-105.408	-161.108	-57.362	-53.576	-160.915	-153.746	-133.150	-9.309	-154.075	-147.978	-147.454	-139.096	-87.370	-140.295	-8191	255	
1272.922	1	1	0	0	0.027481	0.094318	0.17974	0.095658	0.092875	0.20738	0.078302	0.30353	0.27287	0.13476	0.28857	0.083483	0.19239	0.070116	0.13923	0.060377	-1.7375	-2.1104	-2.8458	-2.0646	-2.4521	-2.5417	-2.2354	-2.6375	-2.0312	-2.1542	-2.9813	-1.8417	-2.5687	-2.5167	-1.8438	-2.7375	48.417	70.534	83.519	187.509	-10.493	153.781	112.983	-167.167	6.690	172.151	-160.499	160.871	-58.674	187.244	98.134	-80.186	0.00068556	0.00015751	0.00010451	972.28	1.2136e-06	9.6312e-07	1065.7	204.81	4.558e-06	2.4889e-06	258.28	73.826	57.814	17.068	1.6755e-06	23.745	0.00014176	0.00012259	3.3351e-05	931.5	1.5009e-06	1.3676e-06	1017.6	196.37	1.5415e-06	1.3333e-06	243.84	70.657	53.223	16.608	1.2773e-06	23.041	90.816	170.999	-45.103	-161.096	-146.174	-47.000	-160.826	-153.193	-125.964	-41.451	-153.941	-147.565	-147.295	-139.186	-169.948	-139.685	-8191	255	
1272.994	1	1	0	0	0.16119	0.27606	0.14613	0.13845	0.22719	0.26577	0.15345	0.18233	0.074789	0.26319	0.1044	0.24119	0.15489	0.1152	0.2819	0.13734	-1.7271	-2.0687	-2.8729	-2.0417	-2.525	-2.5042	-2.025	-2.675	-2.0271	-2.1667	-2.9146	-2.0292	-2.1937	-2.6708	-1.8438	-2.725	121.718	25.511	-150.226	116.415	160.859	-8.353	-89.942	87.220	89.469	65.765	7.697	94.799	158.284	152.893	-150.907	143.797	0.00071944	0.00023876	5.015e-05	972.5	2.9348e-06	2.3105e-06	1063.2	204.32	1.9617e-06	3.3865e-06	260.13	73.737	57.899	17.01	2.8671e-06	23.686	0.00014188	0.00012195	3.3235e-05	932.93	1.4508e-06	1.3689e-06	1016.7	196.4	1.4861e-06	1.2914e-06	244.56	70.957	52.963	16.54	1.2971e-06	23.067	66.690	-83.959	-48.534	-160.820	-102.922	-20.582	-160.602	-153.081	-130.555	-5.390	-153.387	-147.077	-146.696	-139.065	-39.383	-139.334	-8191	255	
1273.090	1	1	0	0	0.14762	0.14634	0.040889	0.066934	0.075967	0.10385	0.18768	0.26127	0.17261	0.41125	0.19635	0.058593	0.072851	0.18727	0.18181	0.037512	-2.0438	-2.0625	-2.5167	-1.9104	-2.1979	-2.7125	-2.0687	-2.6292	-2.3063	-1.8667	-2.6625	-2.1292	-2.1542	-2.6229	-1.8792	-2.6896	-52.562	-85.610	119.891	66.612	-27.453	89.899	120.845	73.264	159.050	-44.757	56.889	9.266	152.298	96.348	9.648	-139.249	0.00066654	0.00038148	0.00012252	969.94	2.128e-06	1.1683e-06	1063.1	204.65	2.8342e-06	3.8725e-06	259.76	74.151	58.143	16.976	4.7062e-06	23.607	0.00013733	0.00012029	3.4e-05	932.47	1.4382e-06	1.3373e-06	1015.8	196.64	1.4393e-06	1.296e-06	244.77	71.071	53.076	16.536	1.4199e-06	23.116	78.998	-7.631	184.135	-160.317	-85.952	63.681	-160.576	-153.115	-0.999	59.182	-153.007	-146.451	-146.833	-138.961	-130.039	-139.637	-8191	255	
1273.211	1	1	0	0	0.14278	0.26651	0.084837	0.073443	0.073806	0.34454	0.077779	0.23383	0.097878	0.13692	0.16103	0.20497	0.098491	0.090409	0.17952	0.10095	-1.9896	-1.775	-2.7729	-2.2021	-2.1458	-2.8063	-2.2104	-2.425	-2.4771	-1.8458	-2.7687	-2.2438	-2.1271	-2.6958	-1.9354	-2.4792	48.189	174.633	188.411	-125.592	-49.282	135.162	2.892	65.567	-18.191	111.780	113.250	186.272	165.207	86.799	-122.079	-158.036	0.00055517	0.00026846	0.00015665	972.24	2.7633e-06	1.2802e-06	1063.6	204.57	4.9818e-06	2.5341e-06	258.34	74.217	57.703	17.068	2.2693e-06	23.69	0.00013602	0.00011881	3.6407e-05	934.15	1.3867e-06	1.3231e-06	1019.2	196.68	1.4236e-06	1.2736e-06	245.16	71.122	53.024	16.591	1.5001e-06	23.014	66.547	-53.289	-140.848	-160.676	32.035	26.904	-160.512	-152.815	-22.489	135.606	-153.011	-147.147	-146.702	-138.817	-62.870	-139.405	-8191	255	
1273.307	1	1	0	0	0.076669	0.03308	0.22541	0.23406	0.015643	0.27745	0.1973	0.10462	0.1572	0.30438	0.19744	0.30183	0.093997	0.11025	0.13023	0.12727	-2.3104	-1.7771	-2.6	-2.5292	-1.9375	-2.85	-1.9833	-2.5625	-2.6167	-2.0062	-2.7333	-2.2979	-1.8854	-2.7625	-1.925	-2.3875	-12.847	24.912	3.984	161.443	11.206	-21.520	136.099	147.186	60.348	-86.435	100.278	181.038	105.876	58.890	-125.354	-87.905	0.00044608	8.0376e-05	1.429e-05	973.62	4.0182e-06	4.0869e-06	1067.2	204.27	8.8686e-07	2.2872e-06	261.13	74	58.159	17.088	2.8718e-06	23.614	0.00013357	0.00012018	3.8797e-05	934.38	1.3582e-06	1.3281e-06	1018.4	196.47	1.4122e-06	1.3119e-06	245.93	70.994	52.834	16.623	1.5566e-06	22.931	70.878	147.226	-9.021	-160.557	-137.879	-61.286	-160.808	-153.115	-149.841	-134.762	-152.970	-146.362	-146.928	-138.485	30.530	-139.427	-8191	255	
1273.403	1	1	0	0	0.30222	0.067038	0.21413	0.17393	0.28799	0.19026	0.061095	0.052864	0.12242	0.24615	0.11133	0.21813	0.16722	0.23044	0.01316	0.10815	-2.3167	-1.8708	-2.4604	-2.5042	-1.7417	-2.8729	-2.1063	-2.3375	-2.6875	-1.825	-2.6625	-2.5958	-1.9542	-2.8396	-2.075	-2.275	5.870	102.322	-114.576	-149.832	-132.085	147.572	-113.003	119.370	-159.432	-42.048	129.780	129.302	-162.284	167.312	136.107	123.159	0.00064966	0.00013167	6.413e-05	973.63	2.6341e-06	2.9352e-06	1066.7	204.35	2.7743e-06	4.5165e-06	259.27	73.888	58.016	17.034	8.7943e-07	23.667	0.00012829	0.00012354	3.9569e-05	933	1.3162e-06	1.376e-06	1021	196.14	1.3538e-06	1.3913e-06	245.45	70.71	52.676	16.634	1.5272e-06	22.888	66.827	-140.151	187.522	-160.380	-104.470	-79.661	-160.289	-152.677	-57.408	-24.220	-153.598	-146.648	-146.791	-138.881	42.254	-140.082	-8191	255	
1273.499	1	1	0	0	0.14712	0.27059	0.24573	0.12511	0.14317	0.14975	0.31837	0.022674	0.085518	0.20708	0.082678	0.17467	0.14367	0.15457	0.20767	0.22715	-2.2604	-1.825	-2.3937	-2.6896	-1.7	-2.6396	-2.1625	-2.2167	-2.7562	-2.0292	-2.5438	-2.4062	-1.7833	-2.675	-2.2646	-2.0042	169.517	-20.326	178.073	128.973	47.682	-117.220	144.992	-77.463	98.138	-100.327	65.951	100.001	6.666	-94.530	21.936	-157.972	0.00068849	0.00030214	0.00013872	973.89	4.4646e-06	1.5222e-06	1068.3	205.31	1.7146e-06	1.5585e-06	258.73	73.695	58.097	17.113	3.5625e-06	23.739	0.00012568	0.00013237	3.8373e-05	932.62	1.285e-06	1.4481e-06	1018.8	195.98	1.3298e-06	1.4654e-06	245.42	70.732	52.676	16.663	1.497e-06	22.883	65.979	-54.593	-98.223	-160.816	-94.262	-102.529	-160.727	-153.108	-90.443	34.912	-152.978	-146.858	-147.033	-139.303	-6.472	-139.426	-8191	255	
1273.618	1	1	0	0	0.016807	0.14571	0.04214	0.13117	0.10203	0.078098	0.13938	0.22141	0.20367	0.34524	0.2098	0.17145	0.10101	0.088827	0.076861	0.30145	-2.275	-1.8417	-2.2375	-2.6625	-1.8958	-2.6375	-2.3583	-1.8958	-2.7021	-2.0125	-2.4146	-2.6479	-2.1104	-2.6312	-2.4896	-1.8646	92.383	-134.284	87.668	170.561	-124.078	-89.894	110.772	61.390	-131.076	-88.666	-145.185	44.693	-34.713	-105.041	-162.480	154.622	0.00066903	0.00039729	1.5492e-05	973.11	2.2777e-06	3.8112e-06	1065.5	204.7	4.1076e-06	4.4851e-06	259.48	73.908	58.002	16.92	3.6894e-06	23.507	0.00012704	0.00013994	3.7146e-05	932.99	1.3432e-06	1.5479e-06	1018.4	196.42	1.374e-06	1.5569e-06	244.89	70.662	52.931	16.635	1.4281e-06	22.851	80.305	-129.993	-85.002	-160.467	-133.931	-12.171	-160.541	-152.961	-140.789	124.780	-153.393	-146.564	-146.311	-138.561	-101.112	-139.056	-8191	255	
1273.692	1	1	0	0	0.16301	0.1095	0.31059	0.15868	0.10614	0.24941	0.04566	0.19992	0.11442	0.17168	0.23972	0.26717	0.15057	0.13271	0.074298	0.11628	-2.5458	-2.1437	-2.2313	-2.9062	-1.9604	-2.6521	-2.8417	-2.0167	-2.8812	-2.2604	-2.2292	-2.8312	-1.9937	-2.425	-2.4958	-1.9854	-46.689	89.914	-79.672	48.881	-107.774	179.752	139.083	174.514	-131.076	62.059	136.690	103.625	184.216	14.995	28.620	-82.955	0.00075452	0.0004108	1.3954e-05	975.26	4.8908e-06	1.8389e-06	1069.7	205.76	3.6763e-06	4.0483e-06	260.18	73.387	58.092	17.071	4.435e-06	23.413	0.00013073	0.00014419	3.5122e-05	932.04	1.4043e-06	1.5168e-06	1018.8	196.27	1.4202e-06	1.5257e-06	244.54	70.473	53.323	16.69	1.3953e-06	22.778	75.343	-124.369	177.687	-160.382	-96.080	-65.128	-160.030	-152.275	-136.865	-48.917	-152.955	-146.363	-146.677	-138.447	42.447	-139.410	-8191	255	
1273.811	1	1	0	0	0.22002	0.082727	0.35651	0.17839	0.17351	0.083493	0.20684	0.1422	0.097582	0.19409	0.16532	0.19255	0.24771	0.086877	0.31229	0.37291	-2.2604	-2.2625	-2.0812	-2.8146	-1.9104	-2.475	-2.7104	-2.0458	-2.7938	-2.3458	-2.0021	-3.0292	-1.9521	-2.3083	-2.8333	-1.9875	103.143	-146.088	80.135	189.294	-107.469	22.386	188.841	-166.421	-45.877	-154.728	109.972	-13.985	-107.995	178.028	80.448	182.104	0.00063011	0.00029155	3.2584e-05	973.66	2.2502e-06	3.9355e-06	1065.2	205.97	6.6267e-07	5.2242e-06	259.42	73.656	58.356	17.116	6.5627e-07	23.503	0.00013898	0.00013805	3.4201e-05	932.34	1.4994e-06	1.4864e-06	1018.3	196.26	1.5479e-06	1.5047e-06	244.44	70.596	53.54	16.673	1.4054e-06	22.767	71.766	-98.796	-68.687	-160.051	171.589	-97.471	-159.960	-152.656	-86.286	-7.111	-152.452	-146.826	-146.946	-138.616	158.896	-139.316	-8191	255	
1273.907	1	1	0	0	0.21226	0.32135	0.13294	0.20683	0.27768	0.1123	0.10729	0.22852	0.16357	0.04627	0.16902	0.266	0.12152	0.11583	0.099045	0.3406	-2.1104	-2.4354	-2.0458	-2.9896	-2.0563	-2.2375	-2.8729	-2.1521	-2.5458	-2.3875	-1.9667	-2.7083	-2.0604	-2.1979	-2.7354	-2.1583	-147.597	100.326	-93.162	135.262	-132.817	140.779	-31.563	-66.281	-64.578	83.551	139.383	57.119	115.703	134.625	-49.109	-160.630	0.00068959	0.00047779	8.6455e-06	971.3	1.3195e-06	3.2824e-06	1067.3	205.12	8.8198e-07	1.5437e-06	259.05	74.273	58.438	17.065	2.5755e-06	23.626	0.00014554	0.00013547	3.3947e-05	932.23	1.574e-06	1.4484e-06	1019.1	196.3	1.5838e-06	1.4885e-06	244.41	70.815	53.842	16.607	1.3697e-06	22.94	78.520	-118.509	140.072	-160.114	-155.592	-13.627	-160.733	-153.120	-147.499	-6.317	-152.980	-146.870	-146.903	-138.699	-68.649	-139.522	-8191	255	
1274.003	1	1	0	0	0.30596	0.052414	0.066968	0.12351	0.16091	0.12009	0.17011	0.16426	0.16305	0.0093107	0.11493	0.069782	0.21463	0.29196	0.19422	0.21387	-2.3063	-2.5646	-1.8729	-2.8229	-2.2313	-2.1708	-2.925	-1.8625	-2.4146	-2.3354	-1.8667	-2.8187	-1.9646	-2.0563	-2.7625	-1.9979	-112.211	19.225	-112.967	156.107	5.678	26.229	102.980	135.435	-26.953	-52.522	-19.431	-83.208	111.137	166.442	89.790	-134.261	0.00045603	0.00034384	4.9006e-05	975.6	4.6888e-06	3.3755e-06	1070	204.64	2.1602e-06	7.8404e-07	262.15	74.231	58.291	16.882	1.1425e-06	23.453	0.00014705	0.00013319	3.2688e-05	936.18	1.5878e-06	1.3713e-06	1019.3	196.59	1.5312e-06	1.414e-06	245.62	70.973	53.643	16.564	1.3448e-06	22.945	79.818	-129.579	-136.830	-160.637	8.617	-41.052	-161.027	-153.324	-14.457	-65.988	-153.433	-147.067	-146.923	-139.106	-77.796	-139.688	-8191	255	
1274.099	1	1	0	0	0.099036	0.17651	0.077383	0.1857	0.15743	0.19687	0.24152	0.17267	0.076288	0.19101	0.2164	0.18487	0.12193	0.14719	0.19364	0.11323	-2.0792	-2.5375	-1.8875	-2.8271	-2.3979	-2.2417	-2.9167	-1.9958	-2.3688	-2.7562	-1.8125	-2.7396	-2.3458	-1.9167	-2.7667	-2.0625	-151.126	-18.936	65.420	88.621	172.659	-44.476	-38.079	39.968	-67.702	83.532	0.217	79.880	-138.393	-29.535	-136.723	73.041	0.00066038	8.6541e-05	3.8995e-05	974.3	5.6044e-06	2.984e-06	1069.5	207.09	5.9404e-06	2.6067e-06	260.16	73.36	57.612	17.023	2.088e-06	23.729	0.00014116	0.00012944	3.267e-05	936.44	1.5429e-06	1.3592e-06	1019.5	197.61	1.4913e-06	1.4049e-06	244.9	70.848	53.35	16.522	1.3836e-06	23.104	99.328	-97.059	-45.594	-160.743	-40.823	18.182	-160.831	-153.288	-109.462	19.826	-153.054	-146.876	-147.500	-138.867	183.247	-139.739	-8191	255	
1274.220	1	1	0	0	0.045361	0.16868	0.18172	0.26394	0.28308	0.16423	0.29677	0.16051	0.16057	0.22598	0.091611	0.093371	0.18769	0.13519	0.16454	0.24855	-1.8937	-2.5167	-1.8104	-2.7229	-2.4792	-2.025	-2.7188	-2.1708	-2.1188	-2.8	-1.9229	-2.6208	-2.4854	-1.8208	-2.6188	-2.1146	-168.885	-53.061	-51.311	168.679	-155.074	61.174	152.271	122.540	-170.789	-157.894	-162.334	154.503	182.115	-84.538	-81.677	8.765	0.00056225	0.00030009	5.7347e-05	977.89	2.5972e-06	2.0429e-06	1068.5	204.71	4.7592e-06	2.9938e-06	260.87	74.159	58.078	17.1	4.4563e-06	23.728	0.00013588	0.0001253	3.4213e-05	937.75	1.4839e-06	1.3142e-06	1021.5	197.49	1.4171e-06	1.3492e-06	244.78	71.105	53.224	16.515	1.4254e-06	23.054	93.514	-137.600	26.511	-160.398	-109.728	-87.018	-160.676	-153.130	-56.616	72.300	-153.550	-146.718	-147.229	-138.842	-52.296	-139.911	-8191	255	
1274.291	1	1	0	0	0.18748	0.033394	0.382	0.16101	0.29448	0.12867	0.16371	0.21775	0.15236	0.27814	0.059014	0.15705	0.10884	0.13572	0.19491	0.3283	-1.6271	-2.7604	-1.9396	-2.6542	-2.3438	-1.9271	-2.8333	-2.2458	-2.1521	-2.7208	-2.0083	-2.5479	-2.6188	-1.9146	-2.5583	-2.3896	102.695	-121.274	186.231	117.530	145.445	-159.339	25.984	166.494	122.021	-4.035	-150.084	-158.464	166.233	-38.427	-143.463	-46.895	0.00063514	8.1239e-05	8.7634e-06	976.14	2.9352e-06	2.8876e-06	1065.5	205.35	2.9065e-06	4.8532e-06	261.69	73.841	57.393	16.881	4.3069e-06	23.599	0.00012813	0.0001185	3.5889e-05	936.88	1.4048e-06	1.2569e-06	1021.2	197.29	1.3037e-06	1.2928e-06	246.21	70.836	52.745	16.465	1.435e-06	22.912	59.653	-78.623	-73.904	-160.264	-58.114	-97.524	-160.513	-153.117	-103.689	8.591	-153.352	-146.440	-146.760	-138.281	-47.122	-139.260	-8191	255	
1274.387	1	1	0	0	0.044324	0.15664	0.15938	0.04815	0.026403	0.25321	0.17074	0.22179	0.089925	0.11097	0.14393	0.32185	0.20759	0.082431	0.19199	0.18686	-1.5458	-2.8604	-1.8813	-2.3875	-2.575	-2.0687	-2.7021	-2.3625	-2.075	-2.725	-1.9771	-2.3083	-2.7042	-1.8771	-2.5229	-2.3729	-21.616	112.223	17.090	-108.784	-37.647	-106.856	32.175	73.933	-50.204	-41.268	-45.388	-136.626	-12.448	162.483	68.519	134.645	0.00063244	0.00037052	0.00020094	973.77	2.1946e-06	3.8999e-06	1073.2	205.64	3.5259e-06	1.1089e-06	259.37	74.099	58.823	17.003	3.4325e-06	23.497	0.00012328	0.00011771	3.6848e-05	935.11	1.3299e-06	1.2582e-06	1023.7	197.23	1.3043e-06	1.3321e-06	245.89	70.692	53.015	16.559	1.5074e-06	22.884	71.589	-14.739	-94.149	-159.973	-126.305	-82.036	-160.408	-152.913	-61.936	66.876	-153.068	-146.014	-146.448	-138.628	-45.874	-139.592	-8191	255	
1274.506	1	1	0	0	0.040718	0.072229	0.058373	0.07694	0.27295	0.1708	0.20463	0.093978	0.38184	0.23362	0.26862	0.1131	0.17512	0.12198	0.070125	0.025302	-1.6625	-2.8063	-1.925	-2.4167	-2.5312	-1.875	-2.6708	-2.4292	-1.8958	-2.7021	-2.2292	-2.1375	-2.7188	-1.8229	-2.5771	-2.4667	134.420	20.380	-57.482	-157.486	15.483	-85.491	93.298	30.607	87.018	117.058	126.265	-120.384	-31.925	168.850	12.121	152.348	0.00056075	0.00038566	9.9794e-05	977.54	3.2196e-06	2.578e-06	1070.4	206.25	2.4526e-06	2.559e-06	259.88	74.058	58.423	17	4.9225e-06	23.467	0.00012287	0.00012495	3.9098e-05	936.31	1.3561e-06	1.3649e-06	1022.3	197.16	1.3205e-06	1.4108e-06	246.21	70.725	53.03	16.594	1.4739e-06	22.823	79.548	-144.867	-162.229	-160.184	-128.899	-90.509	-160.211	-152.643	-145.757	112.958	-152.763	-146.041	-145.629	-138.248	-2.088	-139.619	-8191	255	
1274.602	1	1	0	0	0.16325	0.19164	0.26052	0.088244	0.019567	0.080087	0.02865	0.13048	0.0347	0.19343	0.10338	0.097345	0.039767	0.12728	0.053658	0.087982	-1.4688	-2.7188	-2.1271	-2.3417	-2.8667	-2.0208	-2.525	-2.55	-1.8396	-2.7479	-2.2896	-2.0646	-2.7958	-1.9937	-2.4354	-2.7521	-12.964	-155.951	7.481	-79.071	-133.447	16.226	-155.140	-146.478	171.395	134.350	100.516	110.459	-26.966	165.022	29.875	109.844	0.00076622	0.00026612	0.00012304	978.16	3.2573e-06	4.5632e-07	1068	205.8	1.3184e-06	4.4742e-06	260.41	73.927	58.421	16.854	3.0525e-06	23.799	0.00011926	0.00013141	3.7531e-05	934.2	1.2929e-06	1.422e-06	1020.1	196.8	1.2306e-06	1.4242e-06	245.73	70.346	52.898	16.606	1.4007e-06	22.854	83.541	79.802	-94.774	-160.394	-2.601	-153.219	-160.527	-153.098	153.043	-137.767	-152.723	-146.507	-147.011	-138.623	1.698	-139.317	-8191	255	
1274.699	1	1	0	0	0.087875	0.16512	0.097303	0.17787	0.16934	0.10631	0.077169	0.19114	0.13551	0.23933	0.18363	0.18242	0.091231	0.17444	0.3588	0.16369	-1.4667	-2.875	-2.2771	-2.0583	-2.9313	-2.0125	-2.5146	-2.6333	-1.9521	-2.7771	-2.475	-1.9667	-2.8667	-2.2875	-2.1146	-2.7979	127.780	140.105	76.017	165.945	71.826	180.196	124.703	8.517	141.491	-131.976	46.412	-151.604	127.516	-121.143	-7.902	184.565	0.00068214	0.00041632	4.855e-05	976.77	3.5038e-06	2.071e-06	1071.8	204.49	9.2972e-07	3.8687e-06	259.58	73.747	58.3	17.007	4.3566e-06	23.639	0.00011936	0.00013213	3.5686e-05	934.22	1.3098e-06	1.4423e-06	1021.5	196.02	1.2814e-06	1.4255e-06	245.02	70.493	52.801	16.613	1.2912e-06	22.768	65.435	127.134	-158.856	-160.140	-133.525	182.521	-160.225	-152.859	-131.955	-18.307	-152.479	-146.179	-146.704	-138.257	-2.011	-138.709	-8191	255	
1274.795	1	1	0	0	0.17423	0.23069	0.17104	0.016501	0.29097	0.14859	0.30991	0.26609	0.34984	0.18596	0.08241	0.20546	0.083277	0.1163	0.074928	0.16286	-1.3354	-2.4208	-2.4917	-1.9208	-2.7729	-2.0125	-2.1458	-2.6333	-1.9583	-2.5312	-2.7271	-1.925	-2.7729	-2.225	-2.0292	-2.9375	111.462	50.083	177.689	-8.876	-149.230	73.680	96.819	87.820	183.989	-8.030	128.923	-159.058	39.352	112.050	4.540	111.126	0.0005553	2.4062e-05	3.9724e-05	976.16	4.4973e-06	1.2712e-06	1063.2	205.7	5.6873e-06	3.2277e-06	260.45	74.466	58.137	17.069	4.1581e-06	23.451	0.00012326	0.00013248	3.3749e-05	933.7	1.3523e-06	1.4456e-06	1018.9	196.17	1.3742e-06	1.4355e-06	244.93	70.375	52.925	16.585	1.2829e-06	22.763	64.147	-109.763	-13.671	-160.227	-32.578	-35.065	-160.511	-153.169	-152.508	-89.407	-153.618	-146.864	-147.226	-139.374	16.038	-139.432	-8191	255	
1274.891	1	1	0	0	0.17089	0.1333	0.18983	0.18992	0.10612	0.037105	0.080129	0.21881	0.19679	0.11777	0.14178	0.20907	0.098688	0.097503	0.13811	0.080659	-1.3708	-2.5167	-2.5542	-2.05	-2.7583	-2.2188	-2.1083	-2.8854	-2.0042	-2.3604	-2.5583	-1.7292	-2.6333	-2.3396	-2.0563	-2.7521	-41.211	93.602	46.843	104.581	-31.092	34.980	57.376	-159.268	-114.098	-148.121	-40.507	108.482	33.100	-104.792	-159.576	-126.441	0.000539	0.00024649	0.00015129	977.06	1.7462e-06	5.084e-06	1063.7	205.68	5.3207e-06	7.3685e-06	257.77	74.496	58.217	17.107	2.4139e-06	23.63	0.0001328	0.00012658	3.3065e-05	932.91	1.4379e-06	1.4231e-06	1016.8	196.3	1.4335e-06	1.3763e-06	243.7	70.517	53.379	16.579	1.2475e-06	22.728	77.494	-23.697	-108.957	-160.679	-91.039	-20.521	-160.690	-153.039	-87.329	-0.097	-153.671	-146.907	-147.547	-139.081	-107.433	-139.851	-8191	255	
1274.987	1	1	0	0	0.22825	0.19156	0.12132	0.087538	0.087485	0.34026	0.047341	0.07682	0.18749	0.21571	0.13988	0.25099	0.10184	0.25481	0.061379	0.082155	-1.6646	-2.3354	-2.6354	-1.9458	-2.5271	-2.1167	-2.0271	-2.7292	-2.0333	-2.2938	-2.6396	-1.8875	-2.3438	-2.3688	-1.8312	-2.8479	185.778	-107.857	-146.568	143.177	-156.655	138.182	159.179	-109.059	-72.706	-7.572	99.778	175.536	155.467	-20.541	2.450	19.912	0.00065505	0.00033523	0.00010022	973.77	7.6811e-07	1.1248e-06	1072.7	204.78	3.4108e-06	5.9818e-06	258.38	73.363	57.887	17.011	4.5114e-06	23.571	0.00013851	0.00012096	3.2414e-05	932.15	1.4655e-06	1.3599e-06	1018.2	196.19	1.4679e-06	1.3097e-06	243.93	70.514	53.191	16.509	1.22e-06	22.781	66.772	-95.474	-86.906	-160.725	-18.073	35.080	-160.713	-153.313	-60.840	-44.260	-153.279	-147.173	-146.926	-139.474	-102.720	-139.606	-8191	255	
1275.083	1	1	0	0	0.26871	0.068902	0.13276	0.057802	0.27195	0.24167	0.16453	0.049534	0.19491	0.29471	0.058478	0.39797	0.37398	0.18162	0.1671	0.22598	-1.9688	-2.2292	-2.5812	-2.0583	-2.5708	-2.525	-1.8771	-2.9292	-2.2479	-1.9396	-2.7625	-2.0917	-2.3229	-2.5687	-1.7854	-2.9125	79.945	137.275	-7.731	164.227	117.381	64.258	37.814	-129.148	185.427	-20.000	-164.456	95.117	182.058	122.357	-149.944	106.515	0.00063345	0.00036318	6.7768e-05	978.4	2.1436e-06	3.9322e-06	1070.6	205.16	2.7312e-06	1.5987e-06	260.64	73.768	57.975	16.932	3.188e-06	23.548	0.00013916	0.00011877	3.1962e-05	935.23	1.4627e-06	1.3317e-06	1018.2	197.01	1.4641e-06	1.272e-06	244.7	70.723	53.184	16.508	1.2255e-06	22.904	74.860	9.800	-74.087	-160.350	-153.338	-36.938	-160.723	-152.743	-115.857	-143.326	-153.095	-146.995	-146.483	-138.836	-69.315	-139.259	-8191	255	
1275.179	1	1	0	0	0.027608	0.1555	0.019108	0.14255	0.09846	0.13659	0.050871	0.21997	0.11795	0.028513	0.20098	0.067116	0.28101	0.10368	0.16048	0.17031	-1.7792	-2.1771	-2.8729	-2.1417	-2.1604	-2.5958	-1.9333	-2.6875	-2.5312	-1.8875	-2.95	-1.9937	-2.3021	-2.7313	-1.8271	-2.75	-131.016	-37.000	-8.916	88.317	150.008	-101.703	54.757	178.932	-23.903	82.156	75.879	-143.919	89.253	87.866	71.997	-128.810	0.00060616	0.00040227	4.3436e-05	974.98	1.2571e-06	3.4559e-06	1068.2	205.54	2.1986e-06	2.0587e-06	259.76	73.599	57.288	16.996	1.6244e-06	23.432	0.00013473	0.00011594	3.1914e-05	933.18	1.397e-06	1.3185e-06	1016.8	197.05	1.4225e-06	1.2542e-06	244.68	70.954	52.772	16.493	1.2853e-06	22.89	77.349	-91.806	181.832	-160.116	-74.770	59.801	-160.469	-152.750	-66.158	64.105	-153.465	-146.770	-147.475	-139.222	-133.625	-139.495	-8191	255	
1275.298	1	1	0	0	0.081169	0.41649	0.13999	0.24148	0.17405	0.085586	0.35914	0.084504	0.25946	0.040092	0.079789	0.37781	0.23518	0.1797	0.14999	0.059074	-1.8479	-1.9438	-2.7479	-2.0958	-2.2896	-2.6437	-1.8958	-2.4958	-2.5021	-1.9021	-2.8208	-2.2979	-2.0875	-2.6792	-1.8146	-2.5333	35.911	-4.953	74.595	146.565	45.848	-156.055	117.144	139.641	75.961	4.251	83.148	171.093	110.827	187.426	-36.901	182.116	0.00071641	0.00042723	3.4249e-05	976.76	5.1515e-06	1.6799e-06	1070.5	206.15	1.0134e-06	7.173e-07	259.07	73.75	58.233	17.022	1.4692e-06	23.599	0.00012983	0.0001129	3.2976e-05	936.74	1.3525e-06	1.2673e-06	1019.1	197.36	1.3559e-06	1.2069e-06	244.78	70.816	52.739	16.453	1.3457e-06	22.93	71.159	-75.304	-97.602	-160.535	-41.289	117.809	-160.480	-152.656	149.961	28.801	-153.078	-146.763	-146.944	-138.800	-99.298	-139.428	-8191	255	
1275.394	1	1	0	0	0.27283	0.33128	0.18537	0.3334	0.11088	0.25755	0.23065	0.082785	0.1182	0.30559	0.14847	0.33491	0.13602	0.06239	0.18818	0.23362	-1.9854	-1.8604	-2.5833	-2.1625	-2.0563	-2.7396	-2.1396	-2.6958	-2.6188	-1.9333	-2.7396	-2.35	-1.9208	-2.6875	-1.8937	-2.2958	98.304	108.847	-47.659	160.961	-155.424	95.450	-105.744	179.660	-90.201	-151.357	186.931	85.936	132.479	42.682	-6.946	75.507	0.00068843	0.00014505	0.00011537	976.8	4.0972e-06	1.6392e-06	1074.3	206.29	3.8348e-06	2.3383e-06	260.87	74.267	57.715	17.175	4.312e-07	23.592	0.00012593	0.000111	3.5214e-05	936.42	1.3125e-06	1.2677e-06	1022.1	197.06	1.3577e-06	1.2428e-06	245.83	70.867	52.828	16.589	1.457e-06	22.958	75.364	-54.654	-114.380	-160.685	-63.081	-101.737	-160.651	-153.036	-51.071	-119.173	-153.227	-147.194	-146.742	-139.050	-110.822	-139.624	-8191	255	
1275.491	1	1	0	0	0.3678	0.17036	0.19748	0.20166	0.17587	0.14143	0.33189	0.028021	0.15575	0.29994	0.15295	0.13277	0.31164	0.25362	0.030321	0.15503	-2.05	-1.9708	-2.6562	-2.4396	-1.8979	-2.6583	-2.1312	-2.2521	-2.6708	-1.8917	-2.6521	-2.4062	-1.7646	-2.6917	-2.0667	-2.4062	161.602	-124.549	-55.520	-59.733	96.676	-92.948	83.943	-35.753	29.058	-143.482	-89.488	-94.280	2.397	102.184	-167.696	156.807	0.00067896	8.5308e-05	4.2957e-05	975	3.9852e-06	3.5494e-07	1070.4	205.99	2.2755e-06	2.4792e-06	259.13	74.119	58.429	16.962	3.2689e-06	23.645	0.00012695	0.0001179	3.7445e-05	935.38	1.3089e-06	1.3132e-06	1022.7	197.15	1.3548e-06	1.3207e-06	245.89	70.73	52.788	16.534	1.5388e-06	22.84	78.472	-157.697	-152.501	-160.419	-122.050	-130.250	-160.535	-153.081	-117.170	-96.809	-153.501	-146.907	-146.424	-138.555	-90.388	-139.148	-8191	255	
1275.587	1	1	0	0	0.033481	0.41967	0.19245	0.024442	0.2389	0.18517	0.26192	0.14126	0.25526	0.34419	0.33914	0.06702	0.13898	0.30972	0.22653	0.208	-2.2604	-1.9312	-2.4375	-2.5146	-1.7687	-2.7875	-2.0938	-1.9917	-2.8729	-1.9	-2.5333	-2.5646	-1.8146	-2.6688	-2.1625	-2.275	-15.361	13.085	-88.995	9.752	-88.320	51.046	163.954	178.805	67.535	181.776	-167.439	-86.971	-143.083	154.954	-110.925	182.357	0.00059921	0.00020905	0.00011173	976.9	2.3824e-06	1.794e-06	1073.2	205.18	1.8922e-06	1.5724e-06	260.86	73.711	58.297	16.93	1.2106e-06	23.587	0.00012608	0.00012292	3.82e-05	935.68	1.2885e-06	1.3869e-06	1023.2	196.65	1.313e-06	1.3891e-06	246.02	70.538	52.603	16.557	1.4861e-06	22.737	63.597	-79.742	-97.732	-160.277	-139.449	-87.539	-160.442	-152.587	158.472	-43.843	-152.611	-146.705	-146.771	-138.669	27.453	-138.885	-8191	255	
1275.683	1	1	0	0	0.21442	0.17271	0.089512	0.20172	0.11413	0.042663	0.27906	0.20431	0.021427	0.0029848	0.15866	0.35741	0.13498	0.30648	0.23169	0.17213	-2.4083	-1.9333	-2.375	-2.7521	-1.65	-2.925	-2.2417	-2.3208	-2.7979	-1.8958	-2.3792	-2.5687	-1.8521	-2.6	-2.1583	-2.1479	10.628	47.593	-92.293	-139.569	60.337	15.955	125.374	189.403	-148.686	-99.241	-51.182	136.768	134.268	-139.869	42.782	-163.879	0.00065416	0.00017869	0.00013028	978.19	4.8773e-07	3.0743e-06	1068.7	206.35	4.1319e-06	2.1657e-06	260.58	73.356	57.448	16.936	1.3619e-06	23.838	0.00012024	0.00012931	3.6258e-05	935.11	1.2508e-06	1.4152e-06	1021.5	196.65	1.2832e-06	1.4152e-06	244.59	70.371	52.473	16.588	1.388e-06	22.728	61.718	-5.115	-115.294	-159.241	28.676	108.217	-159.088	-151.485	188.808	-75.959	-151.830	-146.719	-146.498	-138.590	14.617	-139.826	-8191	255	
1275.803	1	1	0	0	0.35371	0.090887	0.099026	0.10127	0.16636	0.058138	0.26889	0.13159	0.26138	0.086636	0.22093	0.22075	0.35388	0.09414	0.050403	0.15799	-2.3958	-1.9604	-2.1604	-2.825	-1.9521	-2.6688	-2.4792	-1.9917	-2.8854	-1.9396	-2.1208	-2.625	-1.7021	-2.5938	-2.3292	-1.9958	-17.992	116.230	-56.298	50.803	-36.704	39.942	138.117	174.690	-119.568	-53.338	-57.929	-11.405	-145.782	-69.534	97.768	-83.003	0.00054179	0.0002227	3.2712e-05	972.33	1.0027e-06	2.4217e-06	1065	205.12	4.9781e-06	3.3522e-06	261.66	73.451	58.133	16.959	2.3173e-06	23.498	0.0001199	0.0001324	3.4022e-05	933.63	1.2762e-06	1.4275e-06	1018.6	196.31	1.3098e-06	1.4491e-06	245.28	70.382	52.854	16.595	1.3169e-06	22.641	82.908	-20.258	65.807	-160.518	17.967	-125.672	-160.757	-152.570	-109.489	-60.616	-153.129	-146.881	-147.609	-138.534	-55.825	-139.044	-8191	255	
1275.900	1	1	0	0	0.30801	0.13664	0.23347	0.38297	0.24193	0.2055	0.18212	0.2031	0.071544	0.092863	0.05926	0.12622	0.48253	0.072724	0.10407	0.099425	-2.2667	-2.1188	-2.2854	-2.8438	-1.9208	-2.4479	-2.4771	-1.8708	-2.6583	-2.1417	-1.9583	-2.8354	-1.7646	-2.3625	-2.6604	-1.9062	-146.872	136.344	34.501	147.959	-117.142	-39.496	-152.887	147.225	-58.698	-137.221	13.541	-61.629	100.701	-160.821	96.203	-102.336	0.00057663	0.00033668	4.0838e-05	977.97	1.2795e-06	2.4938e-06	1075.2	205.53	3.1699e-06	6.093e-06	260.19	73.454	58.501	16.965	6.6096e-07	23.406	0.00012495	0.00012992	3.2128e-05	934.68	1.3498e-06	1.4028e-06	1020.5	196	1.3715e-06	1.4107e-06	244.77	70.135	53.004	16.558	1.3016e-06	22.638	104.083	-79.716	-86.589	-160.058	-151.233	-56.796	-160.466	-152.369	-60.277	-55.394	-153.345	-146.744	-146.367	-138.167	82.147	-139.488	-8191	255	
1275.994	1	1	0	0	0.067331	0.18828	0.14128	0.046381	0.28243	0.19845	0.22012	0.22087	0.18352	0.29601	0.10217	0.17644	0.26051	0.040294	0.11641	0.24922	-2.3083	-2.3417	-2.1896	-2.8458	-1.9646	-2.4354	-2.6396	-1.8	-2.5625	-2.2792	-2.0667	-2.9104	-1.8333	-2.2479	-2.6229	-1.9958	41.783	-61.755	73.777	34.361	67.986	-137.300	-10.873	74.937	-126.243	-21.760	-163.269	-158.365	-8.964	-126.778	-43.831	-122.350	0.00078308	0.00052244	5.5212e-05	978.25	2.6011e-06	5.2773e-06	1070.1	205.8	2.779e-06	2.0329e-06	257.86	73.728	58.17	17.062	3.5583e-06	23.739	0.00013325	0.00012739	3.1831e-05	933.89	1.4146e-06	1.3672e-06	1018.8	196.27	1.43e-06	1.3661e-06	243.84	70.554	53.106	16.558	1.2697e-06	22.74	67.676	-72.138	-73.720	-159.868	-113.583	-149.420	-160.235	-152.347	-133.467	-33.654	-152.528	-146.186	-145.868	-138.105	-100.092	-139.374	-8191	255	
1276.090	1	1	0	0	0.30017	0.0093741	0.12882	0.073164	0.25297	0.12912	0.12424	0.070541	0.21875	0.17031	0.18371	0.1679	0.19372	0.23833	0.21327	0.12823	-2.2417	-2.3292	-2.05	-2.8812	-2.1208	-2.2583	-2.8479	-1.9292	-2.5833	-2.3312	-1.8563	-2.8	-2.0104	-2.2	-2.6771	-2.0792	13.434	-152.817	73.701	-96.990	14.275	93.152	134.880	65.496	-35.577	1.327	171.112	157.119	122.330	-159.581	50.299	144.266	0.00078786	0.00027613	0.00012671	971.04	4.6088e-06	2.9596e-07	1070.3	203.72	3.4554e-06	1.1678e-06	260.47	73.125	57.668	16.999	1.6278e-06	23.696	0.00013605	0.00012062	3.0667e-05	931.88	1.4621e-06	1.2708e-06	1016.9	195.93	1.4197e-06	1.3121e-06	243.92	70.299	53.065	16.488	1.247e-06	22.754	79.464	-41.344	-152.617	-159.604	-95.774	182.455	-159.841	-152.357	-108.256	-45.999	-152.222	-146.697	-146.967	-138.829	-98.641	-139.913	-8191	255	
1276.186	1	1	0	0	0.35886	0.13891	0.36825	0.13223	0.12698	0.2107	0.17823	0.19267	0.10224	0.25257	0.092125	0.19522	0.057135	0.11816	0.10848	0.059145	-1.9979	-2.5542	-1.7833	-2.825	-2.0333	-2.0604	-2.9917	-1.9583	-2.3104	-2.6875	-1.8438	-2.7313	-2.2729	-2.1083	-2.8354	-1.9021	70.963	-27.035	-144.813	97.004	50.325	-65.249	128.648	97.435	38.825	-90.660	-81.804	-144.853	-80.315	182.628	-120.765	-34.160	0.00049103	0.00021962	4.3054e-05	976.72	1.2827e-06	1.9169e-06	1067.8	204.05	2.8852e-06	2.5886e-06	258.59	73.843	57.919	16.915	3.8466e-06	23.55	0.00013352	0.00012014	3.0358e-05	935.85	1.4641e-06	1.2627e-06	1018	196.42	1.4183e-06	1.3185e-06	243.49	70.851	53.333	16.455	1.2969e-06	22.86	73.666	-126.906	-103.437	-160.655	-123.402	-1.488	-160.574	-153.069	-47.798	-110.205	-153.451	-146.718	-146.790	-139.078	-3.225	-139.773	-8191	255	
1276.282	1	1	0	0	0.23163	0.10549	0.19306	0.15684	0.2856	0.0829	0.18416	0.10642	0.17445	0.098857	0.12479	0.034002	0.35045	0.38309	0.25774	0.12052	-2.0479	-2.6625	-1.8188	-2.7042	-2.2833	-2.0875	-2.7583	-2.1521	-2.1104	-2.6729	-1.9208	-2.7125	-2.3854	-2.0771	-2.7604	-2.2208	-26.030	-71.946	28.562	167.602	-157.033	-6.514	128.283	12.405	24.497	-38.536	131.371	-76.609	-80.484	136.266	91.107	-150.997	0.00080351	0.00022228	0.0001374	973.98	1.4209e-06	4.0676e-06	1065.3	205.22	5.8088e-06	3.8888e-06	258.08	73.601	58.362	16.97	8.9868e-07	23.454	0.00013251	0.00012096	3.1998e-05	933.74	1.4555e-06	1.2803e-06	1017.1	197.43	1.3908e-06	1.3163e-06	244.05	70.612	52.828	16.433	1.3101e-06	22.896	82.983	90.020	139.835	-160.389	-82.855	72.026	-160.695	-152.744	-84.360	-110.592	-153.568	-146.936	-147.092	-138.600	-47.785	-139.526	-8191	255	
1276.379	1	1	0	0	0.24667	0.16809	0.05107	0.13347	0.17053	0.11437	0.097945	0.10751	0.23096	0.31007	0.13176	0.12705	0.05162	0.18823	0.1128	0.2107	-1.7563	-2.7042	-1.9021	-2.5938	-2.5271	-1.9583	-2.9437	-2.1021	-2.1542	-2.7687	-1.9396	-2.6208	-2.3563	-1.9479	-2.8125	-2.1854	-105.969	-94.870	67.503	-150.113	-120.541	29.895	187.192	-112.497	-75.448	160.838	-127.966	-1.996	142.643	123.246	-49.374	184.214	0.00068351	0.00023167	6.4719e-06	973.62	5.307e-07	1.1347e-06	1061.3	204.94	4.9031e-06	4.6046e-06	260.76	73.892	58.062	16.896	1.8257e-06	23.396	0.00012528	0.00011569	3.3452e-05	933.86	1.3481e-06	1.2201e-06	1016.9	196.84	1.281e-06	1.2403e-06	244.42	70.59	52.781	16.405	1.3707e-06	22.776	60.061	-65.757	156.884	-160.138	53.388	-34.237	-160.708	-153.159	-91.537	-17.649	-152.807	-146.370	-146.623	-137.693	-143.406	-138.946	-8191	255	
1276.475	1	1	0	0	0.20501	0.11486	0.20614	0.25122	0.037755	0.49831	0.23828	0.23642	0.371	0.19733	0.23147	0.17394	0.32127	0.15858	0.14063	0.17532	-1.7354	-2.8771	-1.8896	-2.5104	-2.6063	-1.875	-2.8438	-2.2708	-2.025	-2.75	-2.1083	-2.5854	-2.7521	-1.8833	-2.6521	-2.3354	23.318	74.260	-129.720	178.360	-41.612	-148.885	141.969	124.642	-90.006	173.047	11.629	80.124	9.609	-160.755	-59.874	-52.877	0.00079778	0.00022788	6.8388e-05	975.9	2.9363e-06	2.385e-06	1068	206	3.7345e-06	1.5284e-06	261.13	73.397	57.555	17.003	1.0819e-06	23.628	0.00011997	0.00011273	3.4857e-05	934.53	1.2877e-06	1.1858e-06	1020.2	196.98	1.239e-06	1.213e-06	244.96	70.455	52.454	16.425	1.4131e-06	22.799	77.599	-112.920	166.212	-160.446	-56.569	-9.356	-159.965	-152.814	-163.656	-118.133	-152.436	-145.926	-146.133	-137.960	-118.892	-139.511	-8191	255	
1276.595	1	1	0	0	0.1231	0.17331	0.42959	0.22953	0.042583	0.31997	0.15432	0.12813	0.12481	0.059391	0.32616	0.30499	0.11372	0.068005	0.32749	0.10127	-1.5792	-2.7354	-1.9417	-2.4604	-2.6146	-1.7146	-2.7146	-2.5396	-1.9646	-2.9	-2.1937	-2.2146	-2.7458	-2.0417	-2.4813	-2.3333	-134.090	-6.496	-61.154	186.046	-111.651	72.207	-13.534	-26.152	147.238	69.419	-103.829	-152.058	100.179	55.348	185.015	136.766	0.00081507	0.00011874	0.00012282	972.27	3.9942e-06	4.201e-06	1066.9	204.62	2.0837e-06	3.9145e-06	258.48	73.704	58.211	16.897	2.3858e-06	23.514	0.00011452	0.00011292	3.6341e-05	930.52	1.2773e-06	1.2316e-06	1019.4	196.46	1.2093e-06	1.2654e-06	244.84	70.279	52.417	16.451	1.3809e-06	22.775	76.563	-129.156	-89.605	-160.513	-64.267	-131.895	-160.827	-153.314	-126.452	-67.105	-153.433	-146.875	-146.982	-139.218	-125.897	-140.499	-8191	255	
1276.692	1	1	0	0	0.24229	0.088533	0.13802	0.19365	0.06528	0.25127	0.20172	0.29743	0.07284	0.24306	0.18821	0.15052	0.062304	0.24544	0.084939	0.21096	-1.5521	-2.8083	-2.125	-2.25	-2.8167	-1.7979	-2.6708	-2.475	-1.8583	-2.7104	-2.2271	-2.0333	-2.6917	-1.8396	-2.3604	-2.4854	120.657	-50.525	-61.530	-145.591	176.867	-165.353	152.228	185.700	9.413	21.028	185.632	182.363	143.831	181.370	-57.768	139.190	0.00054098	0.00037813	0.00016249	971.57	3.4828e-06	2.1862e-06	1056.6	203.7	4.4929e-06	2.2158e-06	259.79	73.2	57.822	16.982	9.5666e-07	23.537	0.00011282	0.00011727	3.5266e-05	930.03	1.2277e-06	1.2805e-06	1014.9	195.5	1.1636e-06	1.3128e-06	244.1	70.155	52.234	16.506	1.3135e-06	22.666	80.334	-150.880	-76.962	-160.613	-48.502	-140.781	-160.764	-153.517	-4.449	-101.301	-153.581	-146.997	-147.739	-139.375	-5.976	-140.195	-8191	255	
1276.788	1	1	0	0	0.17051	0.057442	0.044961	0.36424	0.14709	0.23893	0.1883	0.15872	0.080987	0.074193	0.2148	0.18592	0.19695	0.15335	0.046653	0.028294	-1.5792	-2.4313	-2.2271	-2.0354	-2.7208	-1.8813	-2.4354	-2.4813	-1.9021	-2.5521	-2.3104	-1.8208	-2.7146	-1.7792	-2.3063	-2.575	-119.938	-153.061	148.807	98.688	-102.118	170.194	-118.844	66.242	-169.435	-16.271	-169.876	123.561	119.792	51.495	13.329	120.315	0.00074565	0.00018449	3.6401e-05	970.37	4.3913e-06	3.425e-06	1049.6	204.77	2.876e-06	2.7582e-06	257.86	73.5	57.657	16.849	3.8292e-06	23.464	0.00011162	0.00012383	3.4262e-05	929.03	1.1977e-06	1.3397e-06	1012.1	195.75	1.2014e-06	1.3516e-06	243.76	69.98	52.157	16.475	1.2668e-06	22.604	73.984	-22.296	-89.378	-160.635	-77.141	-145.812	-160.906	-153.323	158.363	172.620	-153.317	-146.738	-147.481	-138.840	31.916	-140.033	-8191	255	
1276.884	1	1	0	0	0.20865	0.30767	0.093636	0.23427	0.26666	0.26817	0.11776	0.26793	0.05197	0.078635	0.075065	0.13913	0.10084	0.10046	0.075006	0.28565	-1.5021	-2.7021	-2.3229	-2.1375	-2.6396	-1.9042	-2.4396	-2.7104	-1.8833	-2.4229	-2.375	-1.8896	-2.7167	-2	-2.075	-2.7292	177.980	-152.486	-170.755	-165.131	27.860	-126.494	-18.508	-139.979	108.097	-68.560	-120.131	58.856	50.802	17.428	-159.097	67.365	0.0006769	0.00024096	0.00010162	967.06	3.4561e-06	2.5775e-06	1063.2	204.31	2.9558e-06	9.6704e-07	258.12	73.509	58	16.968	1.3115e-06	23.544	0.00011497	0.00012634	3.2965e-05	926.06	1.2708e-06	1.3951e-06	1013.5	195.55	1.2751e-06	1.3871e-06	243.23	70.041	52.689	16.489	1.2596e-06	22.664	58.421	82.417	1.103	-160.800	-105.437	4.219	-160.700	-153.049	-63.506	135.531	-153.720	-147.157	-147.599	-139.057	35.553	-140.001	-8191	255	
1276.980	1	1	0	0	0.16596	0.11647	0.33337	0.17851	0.13578	0.088393	0.28616	0.39721	0.25195	0.23598	0.19462	0.099448	0.030884	0.082497	0.25027	0.27264	-1.6125	-2.5312	-2.4313	-2.0875	-2.6937	-2.2229	-2.0687	-2.775	-1.8292	-2.4292	-2.4521	-1.9229	-2.5	-2.3396	-1.8104	-2.9042	21.756	-99.138	-164.993	-144.401	-162.538	177.768	175.939	124.927	68.842	-51.540	82.838	62.787	80.247	-104.194	25.034	-143.102	0.00082861	0.00012889	4.7746e-05	961.9	9.9015e-07	1.3904e-06	1060.6	204.13	2.1597e-06	2.5116e-06	259.36	73.625	58.001	16.875	9.5875e-07	23.471	0.00012507	0.00012854	3.2975e-05	925.43	1.3458e-06	1.4014e-06	1013	195.66	1.3655e-06	1.347e-06	243.67	69.925	52.933	16.487	1.2185e-06	22.555	60.665	179.383	-147.136	-160.460	15.295	-27.710	-160.951	-153.578	-42.359	-51.196	-153.621	-147.205	-147.365	-139.148	117.339	-139.619	-8191	255	
1277.074	1	1	0	0	0.092586	0.16066	0.17309	0.25184	0.18815	0.11	0.2332	0.091634	0.15384	0.096039	0.32264	0.098912	0.32929	0.14703	0.24666	0.15498	-1.4875	-2.5021	-2.4542	-1.9479	-2.6521	-2.1521	-1.8958	-2.6542	-1.825	-2.2292	-2.5479	-1.8438	-2.4437	-2.2771	-1.6812	-2.7438	153.224	184.363	-142.210	131.300	184.174	-152.556	157.791	22.413	143.432	-136.825	16.825	21.389	185.779	127.839	172.892	-160.910	0.00072147	0.00031004	4.415e-05	968.86	2.1074e-06	3.4531e-07	1062.1	203.89	6.0384e-06	2.1749e-06	258.28	72.844	57.894	16.79	5.289e-07	23.36	0.00013123	0.00012241	3.2297e-05	927.33	1.4048e-06	1.3301e-06	1012	195.08	1.4086e-06	1.263e-06	243.12	69.841	53.045	16.455	1.219e-06	22.615	65.345	-171.105	-160.431	-160.831	-103.225	-15.268	-160.942	-153.469	-51.264	-0.329	-153.691	-147.327	-147.588	-139.150	145.661	-139.482	-8191	255	
1277.171	1	1	0	0	0.12051	0.12191	0.21786	0.1899	0.26187	0.16073	0.060022	0.17332	0.20945	0.064799	0.17932	0.0047923	0.05402	0.10353	0.22323	0.18425	-1.5312	-2.0479	-2.5604	-1.9854	-2.3187	-2.3771	-2.1312	-2.8125	-2.2438	-2.2438	-2.7979	-1.8646	-2.4375	-2.4104	-1.8125	-2.7271	168.585	-125.042	28.947	97.976	-161.584	-89.059	167.302	171.194	-10.232	7.184	-131.350	7.199	150.992	-152.935	63.428	-128.519	0.0006724	0.00019036	0.00013297	963.98	1.9037e-06	2.8607e-06	1059.9	203.65	4.2737e-06	5.5274e-07	257.69	73.732	57.772	16.84	1.3779e-06	23.459	0.00013507	0.0001167	3.1252e-05	926.61	1.4289e-06	1.3269e-06	1010.8	195.38	1.4429e-06	1.2556e-06	242.92	70.353	53.015	16.389	1.1814e-06	22.718	71.799	147.860	-45.870	-160.709	-133.038	-5.544	-160.709	-153.027	-62.744	-24.355	-153.699	-147.064	-147.248	-139.338	-24.105	-140.258	-8191	255	
1277.291	1	1	0	0	0.21392	0.10878	0.1569	0.23232	0.28895	0.13326	0.17957	0.058489	0.20464	0.30182	0.15772	0.16852	0.25003	0.19311	0.22249	0.1627	-1.8813	-2.0271	-2.5021	-1.9521	-2.4979	-2.4375	-2.1229	-2.7646	-2.2438	-2.1146	-2.7	-2.0167	-2.3229	-2.6333	-1.9771	-2.7375	-133.965	-7.398	7.865	174.350	8.852	158.599	158.111	159.974	111.986	106.596	136.646	183.361	-116.104	-151.061	-94.784	46.190	0.00062864	0.00023325	7.8284e-05	968.92	4.3864e-07	2.9106e-06	1057.8	203.49	4.8285e-06	2.0544e-06	259.59	73.256	57.215	16.823	1.5668e-06	23.59	0.0001329	0.00011314	3.1033e-05	929.84	1.3808e-06	1.2778e-06	1011.5	195.77	1.3671e-06	1.2241e-06	243.59	70.252	52.686	16.423	1.2019e-06	22.854	57.168	-110.303	99.017	-160.989	-21.811	-48.978	-160.844	-153.103	-79.543	-58.404	-153.446	-147.048	-146.609	-139.833	-38.453	-140.371	-8191	255	
1277.387	1	1	0	0	0.2277	0.28135	0.031861	0.13677	0.18648	0.13229	0.089327	0.051364	0.24375	0.24852	0.29444	0.029233	0.16821	0.33312	0.34201	0.11207	-2.05	-1.8542	-2.825	-2.1	-2.2438	-2.5583	-1.9292	-2.7479	-2.3792	-1.8854	-2.5833	-2.2167	-2.2083	-2.7833	-2.0875	-2.7562	20.741	155.337	-28.047	134.364	-85.645	48.124	61.308	-85.557	-117.611	140.383	-160.260	97.046	132.388	-170.490	83.441	-54.456	0.00057332	0.00038599	8.0354e-05	969.32	2.0541e-06	5.1559e-06	1061.8	204.35	3.4334e-06	5.0784e-06	257.14	73.609	57.062	16.949	3.2801e-06	23.663	0.0001278	0.00011112	3.1569e-05	930.01	1.3089e-06	1.2251e-06	1014.2	195.92	1.3207e-06	1.1787e-06	243.39	70.627	52.326	16.433	1.2603e-06	22.799	74.425	-103.234	-49.895	-160.776	-3.531	-69.084	-161.159	-153.426	-84.181	-28.912	-153.706	-147.051	-147.157	-139.418	-98.771	-139.762	-8191	255	
1277.483	1	1	0	0	0.12602	0.17843	0.052675	0.33672	0.0059826	0.078603	0.34103	0.14022	0.14062	0.16965	0.084193	0.08979	0.20205	0.22689	0.11123	0.32555	-2.0146	-1.7833	-2.7562	-2.1104	-2.0062	-2.725	-1.9771	-2.5958	-2.4271	-2.0417	-2.6813	-2.1312	-1.8917	-2.9542	-1.8438	-2.5667	29.919	171.801	13.162	116.372	-102.915	-165.193	81.053	-10.365	131.956	25.416	-4.590	-79.099	-155.823	75.147	12.339	-147.676	0.00061431	0.00024042	0.00018185	968.69	1.7191e-06	3.9976e-06	1065	204.22	7.8353e-06	2.1873e-06	257.48	73.864	57.99	16.802	7.2304e-07	23.394	0.0001208	0.00010499	3.286e-05	931.41	1.268e-06	1.203e-06	1013.9	196.31	1.2846e-06	1.167e-06	243.59	70.55	52.105	16.41	1.3445e-06	22.798	69.530	-137.624	-121.971	-160.675	25.288	-17.485	-161.010	-153.340	-69.212	-82.357	-153.570	-147.482	-147.591	-139.485	-56.147	-139.888	-8191	255	
1277.580	1	1	0	0	0.15943	0.1027	0.11013	0.2785	0.17757	0.1918	0.33885	0.068436	0.091952	0.029093	0.22259	0.11686	0.1242	0.060713	0.23009	0.19183	-2.1333	-1.675	-2.575	-2.35	-1.9396	-2.725	-2.0958	-2.4042	-2.6667	-1.9667	-2.6688	-2.2687	-1.9917	-2.7979	-1.9146	-2.2292	187.527	121.225	96.414	134.500	-53.337	143.894	147.538	125.769	-115.280	-77.912	94.822	8.904	-106.925	-112.109	62.184	-2.917	0.0006393	0.00010696	0.0001005	967.42	5.6313e-06	2.8828e-06	1065.6	204.51	3.1062e-06	5.5304e-07	256.57	73.55	57.671	16.963	3.4913e-06	23.203	0.00012138	0.00010773	3.5146e-05	928.48	1.2466e-06	1.2292e-06	1017.2	195.88	1.286e-06	1.1999e-06	243.86	70.356	52.269	16.462	1.4374e-06	22.647	71.356	182.146	-26.328	-161.238	-42.175	-121.273	-161.322	-153.457	-42.480	-6.058	-153.499	-147.497	-147.299	-139.992	-115.528	-140.114	-8191	255	
1277.676	1	1	0	0	0.082974	0.034938	0.076622	0.25772	0.070937	0.20544	0.1152	0.19718	0.20136	0.14858	0.1434	0.22616	0.26695	0.12468	0.054777	0.22888	-2.3729	-1.7896	-2.6229	-2.3125	-1.8104	-2.7083	-2.2021	-2.2708	-2.7146	-1.8646	-2.6625	-2.3146	-1.9042	-2.7458	-2.05	-2.1	-85.288	71.590	21.268	170.363	-94.154	-167.482	47.518	-80.201	-9.394	-92.306	64.718	-159.881	67.680	33.885	81.333	50.722	0.00070882	0.00027825	7.5728e-05	970.04	3.4235e-06	2.7683e-06	1058	205	5.3106e-06	4.8695e-07	258.11	73.374	58.072	16.861	4.3452e-06	23.388	0.00012001	0.00011396	3.6181e-05	930.67	1.2194e-06	1.2804e-06	1015	195.92	1.2724e-06	1.2732e-06	244.46	70.351	52.314	16.458	1.434e-06	22.643	87.685	153.943	-119.705	-161.037	-151.753	126.009	-161.366	-153.524	-123.379	-11.580	-153.738	-147.508	-147.752	-139.737	32.207	-139.900	-8191	255	
1277.772	1	1	0	0	0.12745	0.24806	0.17239	0.18367	0.055079	0.099709	0.31304	0.091753	0.17018	0.18706	0.061313	0.17659	0.092061	0.14301	0.23191	0.056361	-2.3875	-2.0438	-2.4771	-2.4083	-1.6771	-2.7125	-2.2021	-2.1229	-2.7375	-1.8917	-2.55	-2.5563	-1.9875	-2.7042	-2.1833	-2.0979	-147.686	141.296	-165.978	117.896	-1.908	184.717	156.550	67.780	1.916	-130.366	23.061	53.093	137.175	70.482	175.751	-162.647	0.00086384	0.00042153	0.00011968	972.61	6.4006e-07	3.6791e-07	1058.5	204.42	3.4556e-06	2.1035e-06	258.83	73.343	57.432	16.969	1.9085e-06	23.339	0.00011698	0.00012049	3.5269e-05	929.37	1.1964e-06	1.3353e-06	1015.4	195.61	1.2203e-06	1.3402e-06	244	70.103	52.449	16.57	1.3782e-06	22.637	87.142	-105.426	-78.481	-160.871	-101.583	177.088	-161.099	-153.164	170.859	-83.234	-153.879	-147.096	-147.153	-139.019	7.406	-140.050	-8191	255	
1277.893	1	1	0	0	0.11918	0.064537	0.081873	0.2041	0.072584	0.18561	0.044477	0.28566	0.15854	0.053263	0.067257	0.083792	0.21724	0.28364	0.14778	0.24642	-2.3438	-1.8083	-2.4146	-2.7333	-1.9729	-2.6375	-2.6917	-1.8542	-2.7854	-1.8667	-2.3063	-2.8187	-1.9854	-2.6458	-2.2021	-1.8875	111.436	-12.542	45.401	159.562	-71.964	-101.299	-123.654	-161.368	-56.410	135.321	118.044	-158.513	60.793	-42.843	23.258	-49.171	0.0006373	0.00022577	1.4289e-05	972.1	2.7147e-06	3.5481e-06	1063	204.94	4.1956e-06	2.4812e-06	258.84	73.558	57.272	17.007	2.5853e-06	23.651	0.00011693	0.00012744	3.3571e-05	929.3	1.2296e-06	1.4102e-06	1016.2	195.84	1.2741e-06	1.4013e-06	243.3	70.291	52.388	16.545	1.325e-06	22.662	73.021	184.124	32.388	-160.657	-57.280	25.432	-161.043	-153.343	-62.747	75.963	-153.772	-147.123	-147.438	-139.246	-22.887	-139.927	-8191	255	
1277.987	1	1	0	0	0.23943	0.20782	0.17718	0.19268	0.16179	0.33173	0.1203	0.22507	0.21237	0.050386	0.24462	0.27815	0.14072	0.07992	0.079536	0.017542	-2.4	-1.8917	-2.3146	-2.7687	-1.9583	-2.6437	-2.5521	-2.0458	-2.5083	-2.1271	-2.2167	-2.6604	-1.8042	-2.4292	-2.5146	-1.8312	2.317	-156.806	-164.149	72.596	127.900	-126.834	83.235	164.970	72.458	-3.488	19.363	51.777	94.419	19.573	-92.567	145.076	0.00062541	0.00027762	8.9521e-05	969.99	1.6814e-06	5.5221e-07	1061.5	204.95	3.7323e-06	4.2324e-06	259.2	73.224	57.817	16.948	3.6925e-06	23.443	0.00011973	0.00012917	3.1745e-05	930.51	1.2733e-06	1.3943e-06	1014.5	195.42	1.3081e-06	1.3984e-06	243.43	69.929	52.729	16.561	1.2896e-06	22.639	72.369	-77.294	-25.898	-160.842	-156.931	-86.780	-161.179	-153.549	-58.447	-62.791	-153.400	-147.612	-147.131	-139.695	-38.637	-140.163	-8191	255	
1278.059	1	1	0	0	0.031415	0.030952	0.24149	0.26944	0.019928	0.16977	0.24947	0.11382	0.22327	0.10245	0.11377	0.076	0.087688	0.23981	0.26301	0.1465	-2.4667	-2.1042	-2.0917	-2.7958	-1.9062	-2.4333	-2.4458	-1.9167	-2.5875	-2.2479	-2.0854	-2.5208	-1.9875	-2.3333	-2.6146	-1.9875	92.193	128.919	-139.753	173.521	-149.870	174.009	129.596	12.818	-147.626	55.249	40.775	-37.290	-9.820	-77.789	27.350	-37.516	0.00062972	0.00024253	9.7608e-05	973.65	2.1527e-06	2.3424e-06	1065.9	204.69	4.0027e-06	2.8562e-06	259.43	73.657	57.716	16.995	1.5528e-06	23.549	0.00012608	0.00012981	3.1663e-05	929.3	1.3759e-06	1.3374e-06	1015.6	195.88	1.3909e-06	1.3675e-06	243.58	70.108	52.905	16.46	1.2763e-06	22.635	74.678	-57.532	-102.974	-161.030	-85.557	3.497	-161.326	-153.699	-130.937	-35.541	-153.882	-147.556	-147.626	-139.193	68.599	-140.168	-8191	255	
1278.155	1	1	0	0	0.084977	0.12579	0.093608	0.15	0.1865	0.25176	0.17768	0.16759	0.24683	0.29798	0.13724	0.19384	0.20421	0.18661	0.14393	0.21297	-2.2125	-2.3479	-1.8896	-3.0208	-2.1833	-2.1813	-2.7083	-1.8271	-2.6167	-2.3292	-1.7521	-2.7729	-2.0729	-2.2333	-2.6583	-1.9625	-2.182	-88.204	157.472	154.419	-169.703	124.209	82.969	-135.706	149.920	139.837	-162.195	83.005	82.826	-30.511	-21.355	170.612	0.00049603	0.00030424	4.1125e-05	974.34	4.3716e-06	3.6549e-06	1055.9	203.8	1.4052e-06	4.3134e-06	259.02	73.237	57.785	16.932	3.5052e-06	23.42	0.00013083	0.00012274	3.097e-05	930.46	1.4271e-06	1.2907e-06	1012.9	195.67	1.4319e-06	1.3281e-06	243.06	70.234	52.932	16.476	1.2495e-06	22.712	78.820	-51.164	-105.776	-160.848	-99.080	-90.505	-161.034	-153.534	-64.134	-18.001	-153.342	-147.313	-147.451	-139.080	-21.983	-139.823	-8191	255	
1278.253	1	1	0	0	0.021724	0.14233	0.013962	0.38647	0.20319	0.17825	0.17387	0.14503	0.24334	0.16364	0.24845	0.22064	0.21386	0.1846	0.23512	0.15905	-1.9854	-2.4188	-1.8438	-2.7083	-2.0208	-2.0271	-2.7562	-1.9937	-2.2708	-2.5229	-2.0187	-2.7104	-2.0646	-2.0125	-2.7354	-1.8333	-149.592	48.238	-86.846	116.914	94.387	112.545	134.419	144.008	-63.221	-153.819	-162.251	-18.840	-26.155	-110.794	140.252	156.827	0.00070763	0.00014502	8.3146e-05	968.29	1.2814e-06	3.2651e-06	1062.5	204.1	2.732e-06	1.2703e-06	256.83	73.285	57.538	16.947	2.0607e-06	23.261	0.00013353	0.00012116	2.9848e-05	930.06	1.4481e-06	1.2439e-06	1013.4	195.76	1.4017e-06	1.2899e-06	242.71	70.336	52.811	16.401	1.2498e-06	22.762	68.657	-106.706	-138.787	-160.821	-16.977	-33.865	-160.946	-153.660	-71.151	-163.871	-153.558	-147.182	-147.744	-139.245	-31.344	-139.940	-8191	255	
1278.372	1	1	0	0	0.044055	0.1121	0.13618	0.2198	0.15585	0.045454	0.015623	0.11823	0.098822	0.18963	0.28318	0.21062	0.32128	0.20493	0.029435	0.2542	-2.1063	-2.6896	-1.9771	-2.6937	-2.1375	-2.1396	-2.9437	-1.7646	-2.4062	-2.5667	-1.9958	-2.7313	-2.4792	-1.9521	-2.7	-2.0646	-110.642	-42.441	-90.355	-157.299	-125.086	-58.043	-58.213	145.429	-123.870	122.526	60.762	87.868	45.952	-116.683	7.957	-74.219	0.00062312	0.00032471	9.6762e-05	966.6	7.3596e-06	3.8413e-06	1060.2	204.24	1.7083e-06	3.8879e-06	260.67	73.563	58.139	16.952	3.0126e-06	23.474	0.00012958	0.00012023	3.0584e-05	931.42	1.423e-06	1.2375e-06	1013.4	196.61	1.3597e-06	1.2763e-06	243.64	70.436	52.924	16.369	1.2541e-06	22.824	88.496	-157.373	-27.396	-160.807	-63.876	-35.694	-161.036	-153.714	-8.314	-82.103	-154.198	-147.423	-147.540	-139.757	-89.038	-140.297	-8191	255	
1278.468	1	1	0	0	0.13507	0.17761	0.16202	0.1829	0.094962	0.14196	0.1397	0.068616	0.11216	0.14592	0.35263	0.27951	0.14486	0.15104	0.079262	0.10253	-1.9042	-2.6125	-1.775	-2.5958	-2.3417	-1.8813	-2.8604	-1.8833	-2.1854	-2.8042	-1.8375	-2.675	-2.4479	-1.9562	-2.7771	-2.1063	-62.596	187.853	-45.419	169.497	73.207	-97.108	111.197	129.129	-71.047	-42.570	120.085	-17.769	-89.512	148.654	-31.049	-21.913	0.00069401	0.00028711	5.04e-05	973.47	2.4617e-06	1.4209e-06	1063.8	204.2	4.6627e-06	3.338e-06	259.13	73.483	57.841	16.888	2.4734e-06	23.466	0.00012489	0.00011428	3.1144e-05	932.93	1.3525e-06	1.2002e-06	1016.3	196.37	1.2918e-06	1.2276e-06	243.74	70.585	52.574	16.378	1.3116e-06	22.797	85.960	-81.552	-52.556	-161.052	-66.447	-60.665	-161.523	-153.920	-69.129	-41.937	-153.912	-147.616	-147.910	-139.537	-105.706	-140.701	-8191	255	
1278.564	1	1	0	0	0.17039	0.11432	0.35495	0.09809	0.18303	0.17634	0.20917	0.12122	0.042587	0.073521	0.20131	0.102	0.1109	0.12951	0.14676	0.093082	-1.7854	-2.5563	-1.9917	-2.5167	-2.4167	-1.6854	-2.7667	-2.1354	-1.9292	-2.6667	-1.9667	-2.4	-2.4396	-1.8458	-2.6979	-2.2812	-152.670	-149.020	166.560	64.038	104.652	157.383	151.231	151.450	-72.124	27.444	103.344	37.279	88.376	98.633	131.236	-14.626	0.00078542	8.2113e-05	0.00011535	970.57	2.7688e-06	8.9337e-07	1062	204.48	5.2742e-06	4.0471e-06	256.44	73.174	57.956	16.808	2.474e-06	23.524	0.00011738	0.00011271	3.3112e-05	930.65	1.3116e-06	1.19e-06	1015.6	195.95	1.2606e-06	1.2137e-06	243.83	70.205	52.414	16.337	1.3697e-06	22.805	77.479	1.863	-100.811	-161.241	-47.777	24.455	-161.543	-153.924	-69.097	-110.412	-153.734	-147.336	-147.360	-139.971	-63.481	-140.565	-8191	255	
1278.684	1	1	0	0	0.059432	0.12027	0.35008	0.088566	0.16331	0.23189	0.17554	0.31598	0.13972	0.18095	0.086012	0.29938	0.064734	0.30241	0.083474	0.080177	-1.675	-2.5729	-1.9271	-2.3375	-2.6437	-1.7458	-2.6937	-2.3812	-2.1854	-2.9104	-2.1583	-2.1896	-2.7271	-1.725	-2.4292	-2.5625	84.001	-79.049	64.120	104.004	-125.267	27.727	-54.780	-126.502	5.670	-95.434	63.720	170.199	96.486	-128.983	-79.886	136.931	0.00067681	0.00015163	2.0404e-05	971.63	2.1241e-06	1.3822e-06	1063	204.17	3.9819e-06	2.0103e-06	259.05	73.813	57.783	16.924	2.1775e-06	23.49	0.00011681	0.00011055	3.5452e-05	931.4	1.2707e-06	1.1792e-06	1016.4	196.1	1.2122e-06	1.2355e-06	244.15	70.157	52.474	16.399	1.3868e-06	22.675	79.447	17.878	-2.464	-161.150	24.800	-116.712	-161.332	-153.723	-85.243	-58.180	-154.136	-147.488	-147.472	-139.119	-14.326	-139.967	-8191	255	
1278.756	1	1	0	0	0.11399	0.2529	0.18807	0.46181	0.13837	0.34739	0.10545	0.21422	0.10963	0.20015	0.10426	0.33919	0.14775	0.19815	0.36207	0.12744	-1.6583	-2.6875	-1.9354	-2.2896	-2.7583	-1.8271	-2.6312	-2.2708	-1.7604	-2.7292	-2.2792	-2.0812	-2.8312	-1.7521	-2.3563	-2.5167	-73.064	170.289	14.171	168.425	-39.480	129.459	163.128	-170.589	3.069	100.349	-166.249	172.927	89.620	-123.349	30.414	-168.906	0.00065086	9.0058e-05	5.9315e-05	970.21	2.6721e-06	1.3278e-06	1058.6	203.43	2.7193e-06	1.4101e-06	258.11	73.438	57.838	16.922	1.5564e-06	23.384	0.00011189	0.00011459	3.5025e-05	929.82	1.216e-06	1.2401e-06	1014	195.54	1.1628e-06	1.2529e-06	244.25	69.982	52.269	16.457	1.347e-06	22.68	77.725	-139.820	-111.358	-161.240	-59.590	43.440	-161.030	-153.921	-101.973	-35.584	-154.072	-147.319	-147.505	-139.965	22.835	-140.483	-8191	255	
1278.852	1	1	0	0	0.28263	0.2269	0.167	0.1054	0.047952	0.059917	0.070491	0.22303	0.1725	0.23322	0.19214	0.13913	0.069028	0.31937	0.11544	0.17276	-1.4562	-2.6021	-2.2417	-2.1979	-2.7354	-2.0062	-2.5771	-2.3854	-1.8188	-2.6417	-2.1708	-2.0875	-2.5521	-1.9583	-2.3146	-2.8	-156.631	-98.010	74.614	154.383	-37.205	-24.704	-34.708	98.393	179.579	66.212	-153.526	-162.737	-80.119	-130.452	123.120	136.760	0.00052353	0.00034383	0.00016552	972.61	4.791e-06	1.4115e-06	1064.4	203.59	3.8798e-06	2.434e-06	258.12	73.229	57.044	16.984	2.7591e-06	23.752	0.00010748	0.000118	3.4526e-05	929.46	1.1715e-06	1.3093e-06	1015.9	195.09	1.145e-06	1.319e-06	244.36	69.918	52.078	16.5	1.3191e-06	22.751	70.233	133.785	-150.643	-160.933	-68.861	-108.510	-160.832	-153.348	-89.032	35.767	-153.734	-147.221	-147.412	-139.522	-50.739	-140.270	-8191	255	
1278.971	1	1	0	0	0.28658	0.1023	0.31532	0.26765	0.015517	0.39661	0.030638	0.074772	0.1998	0.22684	0.27646	0.19812	0.25244	0.24963	0.21148	0.43301	-1.4521	-2.6813	-2.3083	-1.9979	-2.7792	-2.1083	-2.4583	-2.5563	-1.8417	-2.525	-2.3812	-1.7833	-2.6708	-1.9833	-2.1979	-2.6729	153.035	-10.880	-34.794	152.877	48.347	-128.934	74.240	155.074	-170.379	167.423	17.539	-81.395	-153.956	122.963	-32.020	122.103	0.00094086	0.00016856	5.0849e-05	967.59	3.4158e-06	2.4312e-06	1059.9	205.11	2.2756e-06	3.1359e-06	256.5	73.505	57.767	16.84	3.7542e-06	23.387	0.00010999	0.00012392	3.3358e-05	927.58	1.219e-06	1.3572e-06	1014	195.53	1.1936e-06	1.3573e-06	243.11	69.863	52.426	16.469	1.2452e-06	22.574	66.486	-145.930	-25.713	-161.122	-37.421	-104.132	-161.127	-153.433	-96.904	-53.312	-153.907	-147.596	-147.803	-139.134	11.707	-140.457	-8191	255	
1279.067	1	1	0	0	0.128	0.23583	0.31571	0.20036	0.22057	0.15703	0.076327	0.28352	0.2637	0.27153	0.15296	0.11603	0.33751	0.10704	0.066835	0.25367	-1.425	-2.7646	-2.2875	-1.8563	-2.8979	-2.0354	-2.225	-2.8375	-1.975	-2.4333	-2.4792	-1.9208	-2.7875	-2.2833	-2.0208	-2.6083	-2.127	174.639	44.083	173.278	91.224	6.266	-94.613	-29.315	7.128	-26.513	120.164	125.395	-100.747	96.962	-70.924	130.543	0.00067567	0.00043351	8.1307e-05	969.96	2.758e-06	1.6799e-06	1058.4	204.29	3.4234e-06	3.7641e-06	257.26	73.585	57.963	16.863	1.5794e-06	23.439	0.00011613	0.00012188	3.1809e-05	927.49	1.2657e-06	1.3545e-06	1011.9	195.28	1.228e-06	1.3013e-06	242.68	69.723	52.44	16.433	1.1524e-06	22.501	72.344	-55.551	-119.026	-161.081	-99.194	-160.964	-161.078	-153.595	-121.366	-45.733	-153.485	-147.357	-147.748	-139.713	153.696	-140.368	-8191	255	
1279.163	1	1	0	0	0.3245	0.25628	0.12756	0.21602	0.19735	0.16699	0.074256	0.13391	0.18546	0.25937	0.12828	0.12832	0.053445	0.13632	0.13934	0.11118	-1.3312	-2.3937	-2.4625	-1.8958	-2.6312	-2.1979	-1.9667	-2.8917	-1.6812	-2.4167	-2.6437	-1.9167	-2.5438	-2.1917	-2.0479	-2.7812	20.741	-113.439	169.976	-168.693	-147.408	-125.375	150.723	60.423	-143.083	-161.793	-105.025	35.357	-76.978	-129.506	-4.247	97.986	0.00090805	8.947e-05	8.1042e-05	964.7	2.0776e-06	3.4588e-06	1057.4	203.73	1.7289e-06	2.1503e-06	255.64	72.636	57.134	16.775	2.4813e-06	23.269	0.00012006	0.00011645	3.0359e-05	922.61	1.302e-06	1.2833e-06	1006.7	194.56	1.3482e-06	1.2631e-06	241.65	69.566	52.449	16.392	1.1822e-06	22.559	58.522	-74.932	-102.303	-161.017	-10.470	-50.578	-161.170	-153.476	-72.653	68.086	-154.038	-147.292	-147.670	-140.104	-105.971	-140.484	-8191	255	
1279.284	1	1	0	0	0.27778	0.11053	0.14163	0.23769	0.20881	0.10141	0.4138	0.25716	0.059796	0.27836	0.12212	0.14653	0.097872	0.072733	0.13365	0.267	-1.5792	-2.4771	-2.65	-1.8188	-2.4125	-2.25	-2.1146	-2.7833	-1.8979	-2.2271	-2.6833	-1.9958	-2.5	-2.4813	-1.8771	-2.75	-137.890	65.209	120.276	-147.399	-38.904	178.839	170.418	160.126	155.237	23.328	-63.439	63.274	51.733	-47.126	-132.973	-73.972	0.00066972	0.00016486	9.8393e-05	962.94	3.2026e-06	5.0834e-06	1052.9	204.34	2.6313e-06	1.7554e-06	257.54	73.271	57.799	16.84	3.6493e-06	23.333	0.00013046	0.000117	3.0942e-05	923.5	1.3984e-06	1.2919e-06	1009.8	195.45	1.4332e-06	1.265e-06	242.22	69.935	52.636	16.392	1.1771e-06	22.671	58.019	-106.330	-106.709	-160.982	41.645	-6.794	-161.385	-153.732	-98.875	-85.479	-153.663	-147.794	-147.839	-139.905	-62.038	-139.944	-8191	255	
1279.356	1	1	0	0	0.28423	0.24907	0.25853	0.30852	0.12984	0.20756	0.10614	0.17431	0.025982	0.30043	0.27908	0.10191	0.22206	0.32205	0.10182	0.10699	-1.6958	-2.0938	-2.8375	-1.7792	-2.3146	-2.5646	-1.8875	-2.3438	-1.9875	-2	-2.8292	-1.8563	-2.5167	-2.5708	-1.6854	-2.7083	172.943	-116.713	-44.159	150.962	144.195	51.676	-149.219	143.782	111.140	-166.745	144.839	54.202	-147.746	81.767	117.701	-30.818	0.00063224	0.00014478	8.0502e-05	965.83	6.9942e-07	4.1293e-06	1059.2	203.86	6.006e-06	2.7619e-06	258.95	72.662	57.154	16.984	2.0523e-06	23.291	0.00013131	0.00011048	2.9805e-05	927.24	1.3616e-06	1.2196e-06	1010.3	195.34	1.3791e-06	1.1842e-06	242.68	70.03	52.265	16.365	1.117e-06	22.604	82.848	-103.707	-54.751	-160.889	-139.928	-42.603	-160.994	-153.087	-66.783	-122.802	-153.975	-147.353	-147.257	-139.219	138.600	-140.186	-8191	255	
1279.452	1	1	0	0	0.24343	0.16574	0.097166	0.19194	0.18148	0.18989	0.36593	0.33992	0.031231	0.41385	0.19059	0.15105	0.25572	0.11674	0.10792	0.15973	-1.7708	-2.1208	-2.7458	-1.8312	-2.3146	-2.6562	-2.0167	-2.6521	-2.3479	-2.0604	-2.6979	-1.9146	-2.2417	-2.7104	-1.8312	-2.7417	143.393	-90.112	83.529	-129.669	-92.992	18.174	166.555	146.568	-39.661	99.721	120.185	118.587	72.466	76.236	69.113	-164.044	0.0008759	0.00025263	3.5871e-05	961.98	3.7091e-06	2.3967e-06	1054.3	204.68	2.1528e-06	3.3268e-06	257.96	72.994	57.234	16.856	3.2203e-06	23.406	0.00012443	0.0001061	2.9266e-05	925.08	1.2645e-06	1.1761e-06	1009.5	195.34	1.2882e-06	1.1573e-06	242.23	69.957	52.099	16.356	1.177e-06	22.71	84.891	153.889	-31.643	-160.986	-23.165	-5.613	-161.096	-153.734	-121.810	-18.419	-153.639	-147.538	-147.305	-139.357	-103.865	-140.078	-8191	255	
1279.548	1	1	0	0	0.21278	0.049103	0.03506	0.20618	0.23893	0.20767	0.20325	0.33877	0.13836	0.25508	0.27442	0.4091	0.29574	0.26084	0.1602	0.14417	-1.8396	-1.9542	-2.775	-2.1208	-2.175	-2.7646	-1.8937	-2.7	-2.1813	-1.7938	-2.7938	-2.125	-2.2271	-2.7417	-1.8958	-2.5563	138.581	-19.429	159.653	115.549	-87.793	-36.293	113.079	79.357	6.082	-118.978	180.959	43.074	-86.919	-132.278	25.967	-87.346	0.00067033	0.00015598	0.00013949	966.03	2.8094e-06	2.6983e-06	1057.1	204.13	6.9271e-07	3.3032e-06	258.11	73.444	58.027	16.71	2.7563e-06	23.153	0.00012157	0.00010762	3.143e-05	928.64	1.2519e-06	1.1904e-06	1010.3	195.99	1.2969e-06	1.1594e-06	243.3	70.347	52.26	16.283	1.2749e-06	22.625	72.707	-85.284	-73.050	-160.938	1.256	-50.008	-161.183	-153.566	-24.232	-50.895	-153.871	-147.276	-147.414	-139.360	-94.477	-139.788	-8191	255	
1279.669	1	1	0	0	0.11499	0.19536	0.33891	0.011184	0.12444	0.080401	0.25391	0.17169	0.079454	0.098384	0.23778	0.16623	0.29824	0.21569	0.086203	0.12564	-2	-1.7417	-2.7208	-2.1562	-1.9583	-2.8438	-2.0854	-2.5479	-2.4646	-1.8271	-2.8333	-2.25	-2.1437	-2.7646	-1.9229	-2.4979	158.393	48.164	-114.020	-160.118	-99.947	167.816	157.120	40.577	26.876	-94.976	160.680	185.772	110.811	62.267	93.833	183.542	0.00064349	0.00045892	3.0422e-05	964.94	2.9843e-06	2.9053e-07	1057.1	204.18	3.0467e-06	3.2405e-06	257.05	72.939	57.55	16.76	2.2198e-06	23.483	0.00011934	0.00010509	3.3029e-05	927.61	1.2016e-06	1.1855e-06	1010	195.76	1.2457e-06	1.1381e-06	243.52	69.995	51.963	16.3	1.299e-06	22.62	85.242	-81.380	37.064	-160.841	-27.734	3.279	-161.068	-153.469	-119.412	21.367	-153.905	-147.281	-147.497	-139.153	-77.128	-140.433	-8191	255	
1279.765	1	1	0	0	0.03629	0.13428	0.34535	0.091301	0.21703	0.17268	0.22941	0.10654	0.13283	0.10256	0.15021	0.25544	0.14829	0.13371	0.13251	0.26952	-2.1417	-1.9167	-2.5458	-2.4542	-1.9	-2.7083	-2.1063	-2.3187	-2.6542	-1.8375	-2.5625	-2.2417	-1.8667	-2.7938	-2.0729	-2.1021	-150.125	132.471	14.025	129.008	131.727	-54.454	154.434	-106.496	-15.154	185.820	98.930	-161.458	156.934	172.516	-57.684	179.643	0.00070954	0.00023806	4.6678e-05	965.83	4.8314e-06	2.0559e-06	1057.9	203.26	3.986e-07	1.8138e-06	256.86	72.974	57.613	16.968	2.2593e-06	23.305	0.00011427	0.00010401	3.3576e-05	925.72	1.1722e-06	1.1719e-06	1010.9	194.82	1.2141e-06	1.1758e-06	243.07	69.882	52.045	16.36	1.3757e-06	22.602	77.598	30.440	-116.741	-161.008	-83.410	144.212	-161.229	-153.206	120.279	-16.510	-153.932	-146.875	-147.529	-139.243	39.327	-139.834	-8191	255	
1279.861	1	1	0	0	0.076485	0.13319	0.077532	0.21395	0.11477	0.073922	0.050422	0.13083	0.20476	0.058472	0.19624	0.10401	0.069494	0.14089	0.10288	0.33986	-2.2	-1.8396	-2.5646	-2.55	-2.025	-2.725	-2.2708	-2.1833	-2.7479	-1.9292	-2.4979	-2.4521	-1.7313	-2.5729	-2.2625	-2.3312	-104.131	136.718	-152.191	81.560	-110.136	-120.586	-167.367	15.095	-114.203	-140.072	41.187	-101.630	-60.835	-112.185	164.273	150.796	0.00074416	0.00019453	0.00019756	965.11	2.8188e-06	2.1274e-06	1055.2	203.65	3.8979e-06	3.2401e-06	258.36	73.038	57.622	16.923	2.1278e-06	23.499	0.00011279	0.00011138	3.4224e-05	925.76	1.1511e-06	1.24e-06	1010.5	194.9	1.2037e-06	1.2589e-06	243.46	69.907	51.931	16.433	1.3377e-06	22.573	82.729	164.045	127.915	-160.876	-72.277	-58.280	-160.857	-153.289	-142.935	-129.896	-153.182	-147.483	-146.665	-139.590	-82.905	-139.574	-8191	255	
1279.955	1	1	0	0	0.24558	0.11203	0.20741	0.17212	0.051224	0.14395	0.073837	0.12545	0.24186	0.16807	0.14772	0.19635	0.047923	0.28903	0.10055	0.26723	-2.4625	-2.0458	-2.2625	-2.65	-1.9771	-2.5521	-2.2229	-2.0896	-2.8063	-2.0146	-2.3812	-2.5333	-1.6542	-2.7042	-2.3375	-1.9333	30.459	5.817	113.590	-160.709	-167.908	-15.335	29.873	172.968	-35.762	46.130	-131.472	169.699	133.388	-137.171	-169.538	63.815	0.00077933	4.9753e-05	0.00010519	966.33	2.8533e-06	2.7176e-06	1055.9	202.9	3.4296e-06	1.2246e-06	257.37	73.606	57.697	16.8	1.5345e-06	23.309	0.00011194	0.0001202	3.3457e-05	925.23	1.1623e-06	1.2961e-06	1010.4	194.82	1.1875e-06	1.3502e-06	242.97	70.02	52.025	16.444	1.2929e-06	22.534	71.398	171.541	-117.031	-160.637	-62.862	-83.658	-161.049	-153.035	-119.178	41.974	-153.479	-146.914	-147.154	-138.984	116.620	-139.444	-8191	255	
1280.052	1	1	0	0	0.15341	0.24484	0.069038	0.14989	0.1149	0.1414	0.25547	0.1469	0.11459	0.05793	0.086175	0.069417	0.16169	0.22672	0.24635	0.15387	-2.3937	-1.975	-2.3438	-2.9771	-1.9479	-2.6729	-2.4583	-1.9354	-2.8187	-2.1021	-2.4167	-2.7667	-1.9	-2.5563	-2.5521	-1.9875	78.897	175.830	100.268	129.447	173.243	168.506	115.208	140.619	-136.721	-145.242	141.845	155.126	144.087	113.728	-29.946	37.332	0.00076774	8.3454e-05	7.7166e-05	964.34	3.6229e-06	2.1053e-06	1058	204.1	2.6806e-06	2.3562e-06	255.83	73.322	57.946	16.772	1.8101e-06	23.491	0.00011217	0.00012614	3.2016e-05	923.53	1.2123e-06	1.349e-06	1011	194.71	1.2433e-06	1.3822e-06	242.22	69.819	52.11	16.459	1.2622e-06	22.519	80.236	37.512	-38.664	-160.743	-137.354	-90.996	-161.028	-153.310	187.806	-18.046	-153.655	-147.192	-146.959	-139.512	-49.245	-139.646	-8191	255	
1280.148	1	1	0	0	0.21935	0.10613	0.10866	0.044558	0.090493	0.089343	0.23671	0.2439	0.13158	0.18209	0.16008	0.094321	0.22308	0.14987	0.36847	0.017659	-2.45	-2.0875	-2.0333	-2.925	-1.8542	-2.5417	-2.6208	-2.0167	-2.6937	-2.1125	-2.2438	-2.7646	-1.9271	-2.4667	-2.5125	-1.9792	-24.032	127.926	-83.069	110.385	166.812	179.605	168.940	30.399	41.330	33.232	153.362	-158.014	-133.296	-16.257	176.832	-115.150	0.00085559	0.00023802	9.7989e-05	966.28	3.1537e-06	2.0408e-06	1056.2	203.82	3.4179e-06	3.8811e-06	258.34	73.445	57.626	16.879	2.0736e-06	23.328	0.00011857	0.00012365	3.0502e-05	925.28	1.2757e-06	1.334e-06	1010	194.83	1.3076e-06	1.3538e-06	242.82	69.767	52.477	16.409	1.2324e-06	22.479	84.943	-64.914	-139.302	-160.603	-134.772	-56.501	-160.668	-153.318	-156.708	23.089	-153.339	-147.215	-147.813	-139.301	-123.471	-140.092	-8191	255	
1280.244	1	1	0	0	0.14286	0.060311	0.14029	0.25349	0.16671	0.04532	0.41225	0.18797	0.087612	0.15481	0.030506	0.15261	0.17117	0.1455	0.11141	0.083424	-2.1583	-2.2583	-2.0875	-2.8812	-1.9688	-2.3479	-2.7833	-1.8813	-2.7458	-2.2167	-2.1146	-2.6979	-1.9375	-2.3271	-2.7021	-1.8729	160.461	67.696	129.467	178.187	-155.177	-66.443	97.526	176.876	7.998	152.960	49.163	-46.400	-57.790	138.507	-147.690	-149.307	0.00070306	0.00028309	3.577e-05	964.68	2.7606e-06	3.3574e-06	1057.8	204.3	3.1014e-06	5.9097e-06	258.27	72.711	57.526	16.816	2.5223e-06	23.193	0.00012617	0.00012351	3.0204e-05	923.98	1.3743e-06	1.3217e-06	1009.3	194.65	1.3855e-06	1.3397e-06	242.25	69.863	52.678	16.372	1.2445e-06	22.539	72.393	-93.115	-41.929	-160.668	180.987	24.255	-160.941	-153.369	-134.532	-59.128	-153.738	-147.302	-147.219	-139.127	-31.641	-140.076	-8191	255	
1280.364	1	1	0	0	0.073203	0.15169	0.15978	0.38351	0.17884	0.21321	0.36289	0.063195	0.34674	0.062057	0.42539	0.046824	0.27245	0.071068	0.28502	0.26612	-2.0979	-2.2771	-1.9625	-2.7708	-2.1333	-2.1833	-2.7604	-1.8958	-2.5812	-2.4771	-2.0583	-2.7729	-2.2604	-2.1625	-2.7917	-1.9104	-96.999	52.357	-156.525	95.710	30.532	0.692	110.564	92.366	-153.723	151.767	117.074	145.354	77.617	10.087	66.817	10.772	0.00064298	0.00035013	9.3591e-05	967.55	4.8142e-06	9.8062e-07	1049.9	203.79	1.7701e-06	4.9143e-06	256.04	73.165	56.904	16.91	2.3665e-06	23.393	0.00013262	0.00012068	3.016e-05	927.6	1.4269e-06	1.2425e-06	1010	194.94	1.388e-06	1.2589e-06	241.99	70.044	52.737	16.382	1.1997e-06	22.591	75.784	-92.902	-115.370	-160.814	24.461	13.593	-160.951	-153.646	-72.823	-29.171	-153.427	-147.104	-147.179	-138.900	-11.934	-140.023	-8191	255	
1280.461	1	1	0	0	0.18731	0.25217	0.25052	0.41256	0.29018	0.26736	0.21992	0.14835	0.23452	0.13121	0.13447	0.25499	0.19339	0.11227	0.13151	0.16214	-2.1437	-2.4542	-1.7708	-2.7417	-2.0208	-2.3063	-2.7979	-1.9542	-2.2687	-2.5625	-1.9	-2.7708	-2.2896	-2.0979	-2.575	-1.9438	-56.372	21.714	45.027	-155.276	-148.666	-53.111	-88.625	85.491	93.605	62.045	134.393	-29.547	14.904	78.621	-97.649	-20.935	0.00074931	0.00039455	6.3796e-05	967.68	3.9411e-06	2.604e-06	1055.9	203.75	4.5459e-06	2.1864e-06	256.89	73.064	57.703	16.846	1.661e-06	23.484	0.0001278	0.00011303	2.8871e-05	928.19	1.3584e-06	1.1957e-06	1008.3	195.21	1.3244e-06	1.2358e-06	241.8	69.908	52.583	16.331	1.168e-06	22.719	66.190	-110.713	-26.228	-160.645	-128.480	-46.860	-160.790	-153.429	-63.324	-94.052	-153.636	-147.135	-146.585	-139.279	-134.801	-139.869	-8191	255	
1280.557	1	1	0	0	0.21971	0.25965	0.16521	0.28432	0.25516	0.28791	0.095521	0.15711	0.16224	0.1411	0.22157	0.13445	0.14551	0.21677	0.094599	0.21142	-1.9729	-2.6458	-1.8229	-2.8146	-2.3146	-2.0146	-2.9792	-1.9312	-2.3375	-2.6542	-1.9292	-2.6854	-2.3271	-1.9562	-2.7854	-2.1167	3.353	-76.846	-35.382	167.018	53.746	-69.013	5.240	36.846	-77.435	99.932	57.909	7.270	145.064	130.412	159.205	70.728	0.00067982	0.00040505	8.0809e-05	967.61	3.1418e-06	2.0776e-06	1054.7	203.36	3.6131e-06	5.1655e-06	256.92	73.302	57.866	16.876	4.453e-06	23.331	0.00012008	0.00010876	2.8678e-05	926.27	1.3138e-06	1.1634e-06	1010.2	194.99	1.2813e-06	1.2054e-06	241.81	70.111	52.518	16.316	1.2253e-06	22.639	82.290	-41.090	-47.081	-160.489	-53.081	-88.840	-160.716	-153.193	-104.809	19.499	-153.298	-147.149	-146.890	-139.090	-47.398	-139.785	-8191	255	
1280.653	1	1	0	0	0.43148	0.15673	0.18016	0.1231	0.039171	0.1873	0.16279	0.072499	0.21172	0.22572	0.10084	0.33075	0.050937	0.11852	0.24937	0.060942	-1.9583	-2.8229	-1.6187	-2.5896	-2.3958	-1.9646	-2.8667	-2.1417	-2.2438	-2.6937	-2.0542	-2.6562	-2.6875	-1.9167	-2.6792	-2.2562	-30.198	-169.048	-3.795	129.192	61.517	-70.763	156.949	157.281	171.465	-78.677	107.130	89.248	-118.829	12.746	114.468	4.660	0.00049226	0.0003187	0.0001144	968.07	2.9918e-06	4.2314e-06	1059	203.34	7.6127e-06	2.2529e-06	256.08	72.666	57.783	16.876	2.3673e-06	23.251	0.00011721	0.00010857	3.1213e-05	927.63	1.2933e-06	1.151e-06	1011.9	195.06	1.2275e-06	1.1792e-06	242.42	70.087	52.309	16.314	1.2988e-06	22.66	65.418	-123.159	-91.961	-160.526	-73.838	-22.105	-160.760	-153.180	-73.252	-41.886	-153.391	-146.805	-147.124	-138.959	-127.651	-139.806	-8191	255	
1280.749	1	1	0	0	0.13797	0.066227	0.044168	0.16959	0.37874	0.19788	0.11899	0.073256	0.14218	0.09068	0.087743	0.41891	0.10235	0.13171	0.27097	0.16358	-1.8813	-2.6562	-1.9312	-2.7313	-2.3438	-1.95	-2.7062	-2.3104	-1.9	-2.7396	-2.0021	-2.3875	-2.6604	-2.0729	-2.5521	-2.45	-97.168	-159.911	127.056	156.648	-90.396	-56.153	128.584	-170.203	103.798	-48.487	47.242	-143.603	148.364	-105.889	11.697	-164.471	0.00054234	6.5118e-05	7.8635e-05	971.3	1.3753e-06	1.0503e-06	1054.9	203.27	4.6392e-07	5.4617e-06	257.16	73.208	57.887	16.872	2.1867e-06	23.299	0.00011366	0.00010889	3.3486e-05	928.56	1.2658e-06	1.1564e-06	1011.7	195.39	1.2285e-06	1.1823e-06	243.2	70.079	52.179	16.278	1.3568e-06	22.682	88.285	24.878	171.023	-160.565	-11.839	-67.302	-160.700	-153.404	-48.202	-29.949	-153.136	-146.852	-148.083	-139.124	-53.765	-139.836	-8191	255	
1280.845	1	1	0	0	0.084861	0.21172	0.024856	0.40438	0.17904	0.16905	0.30149	0.23641	0.44665	0.21839	0.21435	0.21895	0.14131	0.22164	0.12121	0.24487	-1.6292	-2.7854	-1.975	-2.3354	-2.6437	-1.9083	-2.7062	-2.2604	-1.8062	-2.6396	-2.1333	-2.3333	-2.675	-2.1292	-2.5875	-2.2542	-166.253	-35.374	3.817	-117.420	39.972	132.170	182.755	-165.102	-24.364	-150.503	118.759	-124.559	-111.879	-158.595	58.310	41.026	0.00080959	0.00020126	2.847e-05	965.82	4.0156e-06	1.4045e-06	1053.3	204.5	7.9552e-06	3.0955e-06	258.85	72.814	57.204	16.921	2.0511e-06	23.321	0.00011273	0.00010997	3.477e-05	925.44	1.2303e-06	1.1958e-06	1011.6	195.28	1.1717e-06	1.2451e-06	243.98	69.905	52.014	16.365	1.3771e-06	22.584	79.169	141.410	114.611	-160.441	-84.829	-123.343	-160.944	-153.180	-76.791	-18.523	-153.800	-146.742	-146.932	-138.666	-70.203	-139.444	-8191	255	
1280.966	1	1	0	0	0.084223	0.084853	0.043105	0.17283	0.46416	0.054695	0.22967	0.41716	0.28751	0.2719	0.23658	0.22462	0.1881	0.14803	0.24368	0.099652	-1.3438	-2.5896	-2.2958	-2.25	-2.6562	-1.7292	-2.5104	-2.6104	-1.8458	-2.85	-2.1854	-2.3167	-2.6125	-2.0083	-2.5958	-2.65	-67.944	40.047	-59.347	120.542	150.600	-11.496	3.837	116.973	162.566	-62.338	185.146	-145.029	78.166	-170.718	178.307	-163.425	0.0007754	0.00020297	5.8314e-05	964.18	5.467e-06	9.7336e-07	1054	203.47	4.7346e-06	2.6739e-06	257.46	73.283	57.508	16.694	3.4837e-06	23.186	0.00011028	0.00011489	3.5304e-05	925.82	1.2255e-06	1.2928e-06	1011.3	194.71	1.1647e-06	1.285e-06	243.28	69.779	52.19	16.373	1.3515e-06	22.584	74.892	-14.464	-96.541	-160.607	-56.685	-142.334	-160.701	-153.211	-92.512	-114.454	-153.155	-146.827	-146.722	-139.029	43.848	-140.025	-8191	255	
1281.060	1	1	0	0	0.058715	0.19346	0.22952	0.18155	0.1	0.17808	0.080408	0.27678	0.27791	0.0681	0.11125	0.17731	0.155	0.20212	0.25218	0.1996	-1.5958	-2.6312	-2.2479	-2.2458	-2.7146	-2.0125	-2.3958	-2.6667	-1.8667	-2.7438	-2.3833	-1.9208	-2.6729	-2.0146	-2.3688	-2.6917	-102.949	167.431	-115.172	183.397	-95.551	-106.323	-1.644	-122.685	-7.934	141.456	158.563	95.567	-93.193	-160.708	-26.979	-38.525	0.00067048	0.00026577	0.0001859	967.93	1.9469e-06	3.1846e-06	1056.5	203.91	2.7459e-06	2.401e-06	257.4	73.067	57.291	16.878	5.0204e-06	23.453	0.00011195	0.00012266	3.5075e-05	926.32	1.2332e-06	1.3794e-06	1010.9	195.16	1.2017e-06	1.3863e-06	243.18	69.894	52.066	16.523	1.3051e-06	22.611	57.338	149.324	-101.527	-160.569	-60.520	-7.983	-160.469	-153.028	-72.026	-20.220	-153.735	-147.109	-146.879	-139.089	-1.293	-140.081	-8191	255	
1281.156	1	1	0	0	0.11886	0.12188	0.17613	0.24667	0.28207	0.19471	0.10197	0.18233	0.1234	0.13739	0.10948	0.13075	0.074391	0.12435	0.09541	0.2116	-1.5083	-2.7229	-2.3167	-2.025	-2.6562	-1.9792	-2.4521	-2.7354	-1.8333	-2.5125	-2.3167	-1.9625	-2.7833	-2.1229	-2.0646	-2.5729	-132.077	179.496	-38.501	164.100	-127.055	112.498	184.874	138.164	71.938	185.621	186.806	-92.380	-50.190	-120.482	-29.474	-104.283	0.00063799	0.00044369	4.5845e-05	966.06	5.1643e-06	2.7262e-06	1053.9	202.65	1.6329e-06	1.8037e-06	256.72	72.621	57.375	16.848	2.3172e-06	23.351	0.00011454	0.0001276	3.3255e-05	925.08	1.2647e-06	1.4165e-06	1010.9	194.33	1.2614e-06	1.3683e-06	242.99	69.696	52.324	16.491	1.2656e-06	22.595	80.386	-118.231	-58.923	-160.691	-33.582	-28.146	-161.107	-153.340	180.283	44.245	-153.923	-147.464	-147.753	-139.173	80.201	-139.834	-8191	255	
1281.228	1	1	0	0	0.20501	0.11954	0.18725	0.063296	0.19483	0.19538	0.29836	0.15495	0.050596	0.26973	0.16295	0.22479	0.12237	0.24665	0.13028	0.090629	-1.2333	-2.4167	-2.2396	-1.8542	-2.5292	-2.2417	-2.05	-2.6958	-1.8208	-2.3063	-2.7167	-1.9438	-2.6583	-2.1792	-1.9688	-2.6417	-145.699	-87.412	-55.155	188.662	84.845	179.867	125.689	152.972	-42.151	158.066	-54.444	-1.831	-102.566	-80.521	-78.562	-3.109	0.00054803	0.00045115	3.396e-05	968.37	3.9784e-06	2.2205e-06	1062.6	203.35	4.5317e-06	2.7869e-06	256.84	73.846	57.779	16.887	7.2461e-07	23.319	0.00012415	0.0001265	3.2282e-05	925.5	1.3395e-06	1.3655e-06	1013.1	194.68	1.3295e-06	1.3186e-06	242.38	69.966	52.736	16.444	1.1988e-06	22.561	60.482	-53.862	-148.219	-160.718	-148.126	61.152	-160.518	-152.903	-32.674	-20.543	-153.355	-146.913	-146.452	-138.852	-49.202	-139.717	-8191	255	
1281.349	1	1	0	0	0.2423	0.12898	0.10743	0.33401	0.15359	0.068161	0.27716	0.057258	0.14228	0.17989	0.18004	0.11772	0.071579	0.091028	0.19645	0.11348	-1.5854	-2.3021	-2.5354	-1.8667	-2.7979	-2.2958	-2.1292	-2.6813	-1.9979	-2.55	-2.4646	-1.9688	-2.5604	-2.2104	-2.0229	-2.7792	-32.317	18.675	74.950	-158.068	-91.118	-41.259	137.470	36.581	78.202	35.794	71.025	-141.223	46.328	48.609	100.634	-104.790	0.000703	0.00026728	6.9534e-05	966.56	1.5319e-06	3.9938e-06	1057.1	203.56	6.5e-06	6.6147e-06	259.43	73.178	57.827	16.851	3.1487e-06	23.452	0.00012754	0.00011836	3.1365e-05	926.07	1.372e-06	1.3147e-06	1010.6	195.28	1.3852e-06	1.2703e-06	243.07	69.92	52.869	16.416	1.1794e-06	22.647	74.887	-104.185	-62.001	-160.181	117.808	-38.797	-160.457	-153.254	-68.845	-40.519	-153.360	-147.038	-147.265	-138.871	-83.199	-139.891	-8191	255	
1281.445	1	1	0	0	0.2413	0.11041	0.11561	0.13663	0.15685	0.11721	0.33909	0.014949	0.33361	0.069913	0.17843	0.25457	0.22479	0.20418	0.088766	0.31766	-1.4604	-2.0167	-2.7104	-2.0375	-2.4854	-2.4917	-2.0312	-2.8688	-2.175	-1.9354	-2.8688	-1.8875	-2.6583	-2.4417	-1.8208	-2.7896	37.634	101.144	143.792	-146.674	82.447	157.973	87.802	43.399	21.860	86.584	-53.927	147.937	-36.558	-4.049	-22.102	-72.352	0.00091552	0.00019721	6.7685e-05	967.55	2.3885e-06	2.7592e-07	1064.6	204.54	3.276e-06	3.7354e-06	257.39	73.298	57.817	16.809	1.9387e-06	23.134	0.00013252	0.00011365	3.079e-05	927.18	1.3752e-06	1.2617e-06	1010.5	195.85	1.4161e-06	1.2498e-06	242.52	70.136	52.985	16.35	1.1715e-06	22.672	70.289	-63.776	112.661	-160.515	-85.300	12.241	-160.203	-152.955	-61.959	9.965	-154.059	-146.911	-147.241	-139.216	-93.296	-139.985	-8191	255	
1281.541	1	1	0	0	0.33989	0.23186	0.15436	0.17152	0.090957	0.11431	0.1998	0.21714	0.17153	0.10819	0.22186	0.12371	0.17357	0.16521	0.1856	0.15242	-1.7646	-2.1562	-2.8688	-2.0292	-2.375	-2.575	-1.9792	-2.7	-2.1437	-1.8396	-2.7792	-1.8667	-2.4083	-2.775	-1.9937	-2.6646	-36.336	-16.648	165.382	-150.123	7.777	126.648	88.361	-2.909	106.295	-16.478	146.891	127.397	15.525	147.623	57.316	64.109	0.00055042	0.00024107	9.1573e-05	969.06	3.4818e-06	1.5539e-06	1056	202.41	6.2775e-07	2.8605e-06	258.06	72.942	57.488	16.879	1.8907e-06	23.43	0.00013195	0.00011035	3.007e-05	928.32	1.3571e-06	1.2575e-06	1010.4	195.43	1.3638e-06	1.204e-06	243.06	70.086	52.664	16.398	1.1608e-06	22.774	63.313	-120.617	-90.345	-160.276	-113.651	-100.857	-160.405	-153.116	-129.655	-56.150	-153.309	-146.816	-146.938	-139.149	-41.155	-139.791	-8191	255	
1281.637	1	1	0	0	0.031549	0.30367	0.17262	0.17133	0.19571	0.032346	0.16114	0.17126	0.047241	0.057138	0.14103	0.10801	0.23512	0.33556	0.061331	0.2562	-1.8729	-1.9	-2.8271	-2.1479	-2.2583	-2.8312	-1.8646	-2.6229	-2.3	-1.9083	-2.8438	-2.0917	-2.1979	-2.7167	-1.8062	-2.7229	62.993	-112.039	-46.913	93.532	-159.110	-162.370	62.192	140.940	-147.425	182.928	-56.861	-161.981	-36.579	184.848	163.844	-107.295	0.00071877	0.00041875	0.00014301	964.96	2.9171e-06	2.8467e-06	1060.6	203.21	6.8238e-06	9.2508e-07	257.55	73.039	57.506	16.854	2.2644e-06	23.478	0.00012805	0.00010752	3.0697e-05	928.11	1.276e-06	1.2213e-06	1009.4	195.69	1.3152e-06	1.1752e-06	242.93	70.253	52.33	16.343	1.2275e-06	22.724	73.989	-97.717	-147.713	-160.509	-110.512	-46.258	-160.617	-152.962	-20.792	-161.902	-152.733	-146.478	-146.717	-138.664	182.130	-139.141	-8191	255	
1281.758	1	1	0	0	0.26174	0.12125	0.072021	0.17458	0.12981	0.072157	0.24098	0.30112	0.13544	0.27694	0.17333	0.1044	0.090924	0.22354	0.15705	0.14131	-1.9479	-1.9167	-2.7146	-2.25	-2.1625	-2.6083	-1.9188	-2.4292	-2.6021	-1.8625	-2.7687	-2.1333	-2.0062	-2.8187	-1.8979	-2.4854	-59.282	-25.482	-56.192	180.497	-155.589	-132.048	136.299	142.824	162.683	-64.138	-66.133	-82.738	73.916	82.455	29.227	83.824	0.00066062	0.00047146	0.00011694	966.93	1.5031e-06	1.6194e-06	1057.1	204.51	2.9652e-06	1.5267e-06	256.9	73.137	57.602	16.755	5.3696e-07	23.416	0.00012214	0.00010712	3.2541e-05	928.49	1.2518e-06	1.1753e-06	1010.5	196.15	1.2599e-06	1.1433e-06	243.39	70.305	52.186	16.343	1.3034e-06	22.691	100.497	-125.600	-136.618	-160.060	-104.588	106.151	-160.327	-152.668	3.449	-49.024	-152.593	-146.210	-146.068	-138.328	-140.533	-139.612	-8191	255	
1281.852	1	1	0	0	0.10352	0.45919	0.11162	0.29049	0.17201	0.1771	0.31197	0.1293	0.12586	0.20713	0.1639	0.17603	0.16269	0.1795	0.45958	0.21817	-2.075	-1.625	-2.7479	-2.3937	-1.9937	-2.8688	-2.1833	-2.3875	-2.6063	-1.5917	-2.6042	-2.2104	-2.0062	-2.6979	-1.9312	-2.1437	54.265	118.930	27.046	141.004	168.439	139.777	28.711	51.020	-122.196	-103.887	96.437	-141.549	168.722	167.744	118.276	-6.422	0.00057724	0.00039058	4.1889e-05	969.27	3.1094e-06	2.6857e-06	1056.5	203.57	4.0541e-06	2.1174e-06	260.15	73.536	57.452	16.835	1.7016e-06	23.629	0.00011893	0.00010339	3.4218e-05	927.27	1.2071e-06	1.1787e-06	1011.9	195.39	1.248e-06	1.1596e-06	243.99	70.115	52.071	16.348	1.3636e-06	22.738	84.933	-128.357	-150.510	-159.862	-45.231	-73.203	-160.404	-152.690	-37.604	-89.197	-152.770	-146.604	-146.561	-138.099	-38.657	-139.443	-8191	255	
1281.926	1	1	0	0	0.38778	0.072072	0.11946	0.35849	0.18572	0.094099	0.13957	0.10612	0.077173	0.098934	0.33631	0.19481	0.26984	0.14206	0.24721	0.12988	-2.3729	-1.7083	-2.625	-2.375	-2	-2.7521	-1.9729	-2.4833	-2.6063	-1.7208	-2.5812	-2.275	-1.9229	-2.8146	-2.0854	-2.0292	-36.716	-84.747	-160.272	152.349	-114.850	168.628	97.236	154.242	114.693	112.800	170.629	179.125	103.742	128.809	34.817	-133.659	0.00069482	0.0003167	0.00016528	966.05	2.4872e-06	4.4635e-06	1059.5	204.26	6.5129e-07	1.4321e-06	258.21	73.737	57.314	16.777	1.2029e-06	23.387	0.00011569	0.00010812	3.4932e-05	926.91	1.1836e-06	1.2164e-06	1011.5	195.21	1.2257e-06	1.2281e-06	244	70.086	52.052	16.414	1.4073e-06	22.544	58.248	-156.765	-35.673	-160.393	-96.899	-112.570	-160.497	-152.978	-59.900	147.171	-152.823	-147.156	-146.317	-139.023	-11.111	-139.556	-8191	255	
1282.046	1	1	0	0	0.32317	0.25111	0.24654	0.40447	0.23858	0.17317	0.2551	0.18806	0.073097	0.18769	0.17496	0.21397	0.2466	0.18793	0.22698	0.28425	-2.4229	-1.9021	-2.3854	-2.6063	-1.925	-2.6646	-2.2792	-2.1292	-2.9104	-1.9917	-2.6229	-2.6813	-1.85	-2.7229	-2.3083	-2.1333	-105.152	78.879	-152.955	47.884	-63.464	-125.574	125.285	-144.825	-156.483	-101.689	6.858	109.233	86.498	-145.386	-145.840	97.744	0.00071439	0.00023944	0.00012399	963.75	1.8552e-06	1.02e-06	1055.9	204.06	4.6573e-06	2.7673e-06	258.68	73.46	57.641	16.873	4.0272e-06	23.34	0.00011518	0.00011733	3.4935e-05	925.31	1.1711e-06	1.3318e-06	1012.8	195.4	1.2147e-06	1.3511e-06	243.83	70.015	52.068	16.497	1.3675e-06	22.64	65.843	-126.175	-59.191	-160.567	-30.575	-4.551	-160.399	-152.752	-135.467	-59.123	-152.814	-146.553	-146.882	-138.608	7.941	-139.602	-8191	255	
#DATA ENDS
