BOXY.EXE: ISS Imagent and Oximeter Data Acquisition Program Version 0.80
Ascii Record File

#ACQ INFORMATION
2  Detector Channels 
16  External MUX Channels 
1  Auxiliary Channels 
5000  Waveform (CCF) Frequency (Hz)
1  Waveforms Skipped 
30  Waveforms Averaged 
1  Cycles Averaged 
16  Acquisitions per Waveform 
10.0806  Updata Rate (Hz) 

#FILE INFORMATION
TRUE -- External MUX Channel results are PARSED.
FALSE -- AC DC and Phase are NOT grouped.
TRUE -- Companion Program Settings File CREATED.
FALSE -- AC data not excluded
FALSE -- DC data not excluded
FALSE -- Phase data not excluded
FALSE -- Auxillary Chn. data not excluded
Tab delimiters

#CALIBRATION STATE
TRUE -- Waveform Calibration Values APPLIED.


#AUX CALIBRATION VALUES
Val Type	aux-1	

Term	1.0000e+00	
Factor	0.0000e+00	


#WF CALIBRATION VALUES
A = Detector Channel
Val Type	A-AC1	A-AC2	A-AC3	A-AC4	A-AC5	A-AC6	A-AC7	A-AC8	A-AC9	A-AC10	A-AC11	A-AC12	A-AC13	A-AC14	A-AC15	A-AC16	A-DC1	A-DC2	A-DC3	A-DC4	A-DC5	A-DC6	A-DC7	A-DC8	A-DC9	A-DC10	A-DC11	A-DC12	A-DC13	A-DC14	A-DC15	A-DC16	A-Ph1	A-Ph2	A-Ph3	A-Ph4	A-Ph5	A-Ph6	A-Ph7	A-Ph8	A-Ph9	A-Ph10	A-Ph11	A-Ph12	A-Ph13	A-Ph14	A-Ph15	A-Ph16	

Term	0.00000e+00	0.00000e+00	0.00000e+00	0.00000e+00	0.00000e+00	0.00000e+00	0.00000e+00	0.00000e+00	0.00000e+00	0.00000e+00	0.00000e+00	0.00000e+00	0.00000e+00	0.00000e+00	0.00000e+00	0.00000e+00	0.00000e+00	0.00000e+00	0.00000e+00	0.00000e+00	0.00000e+00	0.00000e+00	0.00000e+00	0.00000e+00	0.00000e+00	0.00000e+00	0.00000e+00	0.00000e+00	0.00000e+00	0.00000e+00	0.00000e+00	0.00000e+00	0.00000e+00	0.00000e+00	0.00000e+00	0.00000e+00	0.00000e+00	0.00000e+00	0.00000e+00	0.00000e+00	0.00000e+00	0.00000e+00	0.00000e+00	0.00000e+00	0.00000e+00	0.00000e+00	0.00000e+00	0.00000e+00	
Factor	1.00000e+00	1.00000e+00	1.00000e+00	1.00000e+00	1.00000e+00	1.00000e+00	1.00000e+00	1.00000e+00	1.00000e+00	1.00000e+00	1.00000e+00	1.00000e+00	1.00000e+00	1.00000e+00	1.00000e+00	1.00000e+00	1.00000e+00	1.00000e+00	1.00000e+00	1.00000e+00	1.00000e+00	1.00000e+00	1.00000e+00	1.00000e+00	1.00000e+00	1.00000e+00	1.00000e+00	1.00000e+00	1.00000e+00	1.00000e+00	1.00000e+00	1.00000e+00	X	X	X	X	X	X	X	X	X	X	X	X	X	X	X	X	

B = Detector Channel
Val Type	B-AC1	B-AC2	B-AC3	B-AC4	B-AC5	B-AC6	B-AC7	B-AC8	B-AC9	B-AC10	B-AC11	B-AC12	B-AC13	B-AC14	B-AC15	B-AC16	B-DC1	B-DC2	B-DC3	B-DC4	B-DC5	B-DC6	B-DC7	B-DC8	B-DC9	B-DC10	B-DC11	B-DC12	B-DC13	B-DC14	B-DC15	B-DC16	B-Ph1	B-Ph2	B-Ph3	B-Ph4	B-Ph5	B-Ph6	B-Ph7	B-Ph8	B-Ph9	B-Ph10	B-Ph11	B-Ph12	B-Ph13	B-Ph14	B-Ph15	B-Ph16	

Term	0.00000e+00	0.00000e+00	0.00000e+00	0.00000e+00	0.00000e+00	0.00000e+00	0.00000e+00	0.00000e+00	0.00000e+00	0.00000e+00	0.00000e+00	0.00000e+00	0.00000e+00	0.00000e+00	0.00000e+00	0.00000e+00	0.00000e+00	0.00000e+00	0.00000e+00	0.00000e+00	0.00000e+00	0.00000e+00	0.00000e+00	0.00000e+00	0.00000e+00	0.00000e+00	0.00000e+00	0.00000e+00	0.00000e+00	0.00000e+00	0.00000e+00	0.00000e+00	-1.52421e+02	-1.26321e+02	-1.29806e+02	-1.86538e+02	-8.17425e+01	-9.44387e+01	-1.58482e+02	-1.62015e+02	-7.12364e+01	-6.93310e+01	-1.71970e+02	-1.71209e+02	-1.83751e+02	-1.77240e+02	-8.25703e+01	-1.49604e+02	
Factor	2.27753e-05	1.29415e-04	3.73414e-05	2.99145e-01	1.07142e-06	1.26760e-06	1.64991e-01	5.09512e-02	1.01362e-06	1.41088e-06	8.41624e-02	2.77432e-02	4.04098e-02	8.88480e-03	1.04482e-06	1.27305e-02	1.79682e-06	1.89931e-06	5.29689e-07	1.50663e-01	2.07622e-08	2.08323e-08	7.96040e-02	2.61946e-02	2.06444e-08	2.08380e-08	4.16293e-02	1.37790e-02	2.05187e-02	4.56761e-03	2.07884e-08	6.31791e-03	X	X	X	X	X	X	X	X	X	X	X	X	X	X	X	X	



#DISTANCE SETTINGS
A = Detector Channel
A-1	A-2	A-3	A-4	A-5	A-6	A-7	A-8	A-9	A-10	A-11	A-12	A-13	A-14	A-15	A-16	

2.5000e+00	3.0000e+00	2.5000e+00	3.0000e+00	2.0000e+00	3.0000e+00	1.5000e+00	3.0000e+00	3.0000e+00	3.0000e+00	3.0000e+00	3.0000e+00	3.0000e+00	3.0000e+00	1.5000e+00	3.0000e+00	

B = Detector Channel
B-1	B-2	B-3	B-4	B-5	B-6	B-7	B-8	B-9	B-10	B-11	B-12	B-13	B-14	B-15	B-16	

1.0000e+01	1.0000e+01	1.0000e+01	1.4400e+00	1.0000e+01	1.0000e+01	1.5100e+00	1.9400e+00	1.0000e+01	1.0000e+01	1.9900e+00	2.4900e+00	2.4100e+00	2.9000e+00	1.0000e+01	2.9800e+00	




#DATA BEGINS
time	group	step	mark	flag	A-AC1	A-AC2	A-AC3	A-AC4	A-AC5	A-AC6	A-AC7	A-AC8	A-AC9	A-AC10	A-AC11	A-AC12	A-AC13	A-AC14	A-AC15	A-AC16	A-DC1	A-DC2	A-DC3	A-DC4	A-DC5	A-DC6	A-DC7	A-DC8	A-DC9	A-DC10	A-DC11	A-DC12	A-DC13	A-DC14	A-DC15	A-DC16	A-Ph1	A-Ph2	A-Ph3	A-Ph4	A-Ph5	A-Ph6	A-Ph7	A-Ph8	A-Ph9	A-Ph10	A-Ph11	A-Ph12	A-Ph13	A-Ph14	A-Ph15	A-Ph16	B-AC1	B-AC2	B-AC3	B-AC4	B-AC5	B-AC6	B-AC7	B-AC8	B-AC9	B-AC10	B-AC11	B-AC12	B-AC13	B-AC14	B-AC15	B-AC16	B-DC1	B-DC2	B-DC3	B-DC4	B-DC5	B-DC6	B-DC7	B-DC8	B-DC9	B-DC10	B-DC11	B-DC12	B-DC13	B-DC14	B-DC15	B-DC16	B-Ph1	B-Ph2	B-Ph3	B-Ph4	B-Ph5	B-Ph6	B-Ph7	B-Ph8	B-Ph9	B-Ph10	B-Ph11	B-Ph12	B-Ph13	B-Ph14	B-Ph15	B-Ph16	aux-1	digaux	

8065.141	1	1	0	256	0.15435	0.17881	0.1635	0.30474	0.078219	0.074319	0.16688	0.28291	0.10703	0.19046	0.24521	0.21613	0.096165	0.26769	0.091323	0.24318	-1.6896	-2.9562	-1.9854	-2.5208	-2.7708	-2.0729	-2.9	-2.4125	-1.9312	-2.7833	-2.3146	-2.2146	-2.9417	-1.9979	-2.7021	-2.5958	384.599	178.363	220.502	497.741	266.342	397.017	371.367	388.229	353.543	369.888	434.187	158.785	340.357	181.850	429.362	167.590	0.00033144	0.00039233	4.4921e-05	1035.9	7.7124e-07	5.7638e-06	1105.9	212.05	2.9362e-06	5.7169e-07	265.64	76.066	60.064	17.916	2.0539e-06	24.718	0.00016844	0.00015382	4.3735e-05	995.24	1.7274e-06	1.7116e-06	1079.6	207.47	1.8041e-06	1.712e-06	260.32	75.389	58.912	17.894	1.6813e-06	24.751	165.561	220.450	319.303	156.991	285.407	246.485	156.771	164.554	255.049	289.362	164.157	170.444	170.604	178.143	276.954	177.156	-8191	255	
8065.237	1	1	0	0	0.14172	0.23831	0.14564	0.24371	0.070403	0.074611	0.25641	0.30625	0.14131	0.015012	0.087395	0.162	0.11913	0.28488	0.12867	0.37138	-1.5583	-2.6813	-2.275	-2.3187	-2.9375	-1.9104	-2.7271	-2.5646	-2.0104	-2.85	-2.2417	-2.2438	-2.8458	-2.175	-2.4562	-2.6167	242.663	462.541	176.725	484.066	309.240	418.998	445.187	464.265	452.637	191.829	168.118	476.002	282.618	418.535	168.617	418.550	0.00029184	0.000175	9.6687e-05	1034.1	1.0286e-06	2.9182e-06	1106.3	210.47	2.7739e-06	2.4683e-06	265.73	76.172	60.278	17.815	1.452e-06	24.685	0.00016733	0.00015379	4.347e-05	995.14	1.7443e-06	1.7144e-06	1079.9	206.78	1.7449e-06	1.7768e-06	260.59	75.414	59.119	17.835	1.794e-06	24.763	166.068	262.584	226.987	157.235	418.718	255.135	156.910	164.183	286.151	238.337	163.838	170.813	171.080	178.284	286.418	177.369	-8191	255	
8065.309	1	1	0	0	0.30717	0.27724	0.17461	0.2093	0.32666	0.25091	0.049608	0.27831	0.12848	0.12971	0.133	0.2004	0.17521	0.049433	0.23794	0.16461	-1.6437	-2.75	-2.2125	-2.1333	-2.8563	-1.8771	-2.4708	-2.8312	-2.0812	-2.7562	-2.3937	-2.1458	-2.6646	-1.9271	-2.2854	-2.7292	295.753	228.579	441.229	506.153	442.319	267.713	442.341	500.114	245.190	275.064	454.394	503.629	286.543	419.797	418.503	425.628	0.00039868	0.00052551	1.5001e-05	1031.9	2.8934e-06	2.526e-06	1103.2	210.5	3.7293e-06	3.0786e-06	266.84	76.221	60.478	17.842	1.891e-06	24.852	0.00017039	0.00015897	4.4988e-05	996.31	1.726e-06	1.7089e-06	1080.2	207.09	1.8092e-06	1.7717e-06	260.86	75.599	59.052	17.866	1.8251e-06	24.842	173.841	197.704	184.044	156.772	261.788	239.103	156.901	164.275	299.500	284.438	164.301	170.571	170.574	178.220	264.027	177.645	-8191	255	
8065.405	1	1	0	0	0.24226	0.12277	0.079633	0.013379	0.25305	0.40941	0.1665	0.15355	0.073087	0.17547	0.081843	0.3538	0.24069	0.12828	0.079076	0.15697	-1.5708	-2.4833	-2.4896	-2.0187	-2.7854	-2.1917	-2.5479	-2.8063	-1.9875	-2.4979	-2.6937	-2.0542	-2.9375	-2.3812	-2.15	-2.8792	229.946	168.781	150.581	161.166	438.754	428.342	209.603	210.357	338.943	480.604	193.087	160.473	382.832	174.045	151.167	476.010	0.00037367	0.00030371	9.0591e-05	1028.9	2.0965e-06	2.5059e-06	1107.5	210.98	6.7057e-06	2.1673e-06	264.78	76.324	60.173	17.851	4.1914e-06	24.624	0.0001766	0.00016611	4.4989e-05	994.48	1.8318e-06	1.7806e-06	1081.1	207.6	1.8257e-06	1.7762e-06	261.08	75.52	58.823	17.809	1.8164e-06	24.717	165.744	226.441	234.733	156.820	312.749	313.178	156.672	164.250	266.932	251.191	164.674	170.351	170.696	178.392	262.710	177.596	-8191	255	
8065.526	1	1	0	0	0.066904	0.14034	0.17695	0.087252	0.165	0.2391	0.31168	0.10576	0.075633	0.19109	0.071809	0.10651	0.15044	0.06273	0.20688	0.02421	-1.6938	-2.5792	-2.5396	-1.9312	-2.8438	-2.2708	-2.2042	-2.9896	-2.0896	-2.4729	-2.7708	-1.9188	-2.6604	-2.4625	-2.1354	-2.9104	438.607	359.505	153.613	489.113	180.323	226.155	439.775	379.662	463.575	287.685	356.987	345.080	433.995	155.021	321.860	313.947	0.00033032	6.9506e-05	2.7002e-05	1030.3	3.8001e-06	1.1177e-06	1110.9	211.9	3.3815e-06	1.1475e-06	266.66	77.139	60.303	17.888	1.1736e-06	24.631	0.00017175	0.00016469	4.5877e-05	993.01	1.7873e-06	1.7649e-06	1082.7	208.06	1.8011e-06	1.7899e-06	260.63	75.688	59.066	17.877	1.8304e-06	24.77	167.656	342.599	259.192	156.944	284.043	432.117	156.608	164.391	324.168	363.952	164.207	169.974	170.540	178.899	247.533	177.286	-8191	255	
8065.622	1	1	0	0	0.013493	0.1833	0.19052	0.11508	0.083466	0.14402	0.18546	0.29657	0.091546	0.31721	0.18872	0.19118	0.21032	0.19122	0.10595	0.34243	-1.6521	-2.4854	-2.4583	-2.1083	-2.6083	-2.4604	-2.3125	-2.8729	-1.9521	-2.3063	-2.6125	-2.0708	-2.5375	-2.4771	-1.9833	-2.7271	476.079	296.977	172.318	416.657	354.791	302.373	173.399	429.320	177.397	428.866	288.940	422.017	426.174	421.805	297.020	404.707	0.00032705	0.00029956	0.00010909	1024.4	1.3404e-06	2.4273e-06	1101.4	210.81	2.5785e-06	1.3921e-06	264.44	76.087	59.828	17.756	1.3861e-06	24.592	0.00017105	0.00016606	4.5039e-05	992.74	1.7927e-06	1.7452e-06	1078.8	207.17	1.7794e-06	1.8079e-06	260.81	75.606	58.872	17.842	1.7773e-06	24.732	165.718	252.718	275.267	157.205	371.685	294.220	156.766	164.480	308.007	428.974	164.471	170.365	170.461	178.608	261.859	177.701	-8191	255	
8065.716	1	1	0	0	0.15031	0.048716	0.17066	0.19247	0.22784	0.25264	0.2267	0.10622	0.14609	0.27539	0.33075	0.051952	0.18926	0.071929	0.20609	0.030028	-1.6896	-2.1396	-2.6958	-2.1333	-2.6083	-2.5229	-2.1542	-2.8708	-2.3896	-2.3229	-2.8521	-2.1458	-2.65	-2.5625	-1.8708	-2.7062	214.525	250.259	209.141	503.438	182.386	298.571	416.567	453.541	153.157	404.623	149.025	434.523	482.883	225.318	465.420	344.523	0.00032866	0.00049738	0.00012542	1019.9	2.8581e-06	1.3589e-06	1092.5	210.7	3.7684e-06	3.3447e-06	264.88	76.223	60.184	17.688	4.5911e-06	24.615	0.00017038	0.00016466	4.5033e-05	991.67	1.8226e-06	1.7503e-06	1076	207.56	1.7638e-06	1.7199e-06	259.63	75.345	58.933	17.81	1.7133e-06	24.729	174.797	210.298	209.013	156.657	209.921	341.069	156.827	164.461	369.177	266.271	164.560	170.553	170.572	178.151	307.977	177.486	-8191	255	
8065.814	1	1	0	0	0.15768	0.048839	0.13103	0.33001	0.09302	0.050423	0.27582	0.099813	0.15112	0.14633	0.097376	0.12002	0.026154	0.12159	0.073876	0.12237	-1.8292	-2.1333	-2.8563	-2.1396	-2.4958	-2.7292	-2.025	-2.7396	-2.3354	-1.9521	-2.8771	-1.8375	-2.2438	-2.6917	-2.0583	-2.6229	231.135	384.129	214.308	357.076	325.354	308.493	428.646	225.135	431.963	239.422	355.478	454.399	361.871	204.507	446.418	164.984	0.00035053	0.00019797	0.00015714	1026.2	2.6424e-06	3.0548e-06	1101.2	209.49	1.6784e-06	3.4575e-06	265.06	75.896	59.862	17.754	1.1076e-06	24.587	0.0001631	0.0001578	4.2351e-05	994.5	1.7031e-06	1.6865e-06	1077.5	206.98	1.6642e-06	1.6439e-06	260.92	75.33	58.987	17.753	1.6282e-06	24.702	171.072	294.972	228.063	156.748	278.520	247.262	157.140	164.788	312.092	367.305	164.275	170.477	170.589	178.451	196.079	177.768	-8191	255	
8065.909	1	1	0	0	0.11216	0.10131	0.36713	0.19723	0.083956	0.12932	0.14338	0.18676	0.13226	0.15802	0.21102	0.2468	0.22909	0.30239	0.025822	0.14538	-2.1271	-2.0146	-2.7458	-2.0875	-2.2458	-2.6792	-2.125	-2.6	-2.4271	-2.025	-2.9083	-2.2583	-2.1917	-2.5979	-1.8583	-2.4854	312.431	492.395	492.467	449.917	265.051	276.826	461.863	506.513	252.024	212.215	350.047	425.681	354.644	154.584	310.059	447.642	0.00034446	0.00012365	4.9404e-05	1015	3.5471e-06	1.7174e-07	1097.4	211.34	2.752e-06	7.1341e-07	264.97	75.963	59.935	17.862	1.6657e-06	24.486	0.00015539	0.00014413	4.008e-05	988.55	1.5886e-06	1.5871e-06	1076.8	207.39	1.5759e-06	1.5476e-06	260.52	75.197	58.817	17.747	1.621e-06	24.608	163.458	218.318	310.244	157.159	182.187	309.299	156.766	164.732	271.116	265.571	164.218	170.732	170.436	178.349	373.304	177.878	-8191	255	
8066.005	1	1	0	0	0.25299	0.1327	0.27541	0.37092	0.13545	0.0091905	0.14345	0.073486	0.16351	0.1323	0.22725	0.06563	0.25488	0.16126	0.26687	0.15041	-2.0271	-2.0938	-2.6937	-2.2375	-2.1375	-2.5479	-2.3063	-2.5625	-2.6521	-1.8563	-2.8063	-2.5333	-1.9667	-2.7375	-2.0625	-2.2771	181.479	375.465	496.035	427.061	311.653	386.434	494.549	348.391	165.797	187.543	465.962	490.627	461.512	403.030	287.880	215.545	0.00041108	0.00046785	0.00012086	1019.6	3.0256e-06	1.3459e-06	1087.8	210.18	7.9153e-07	3.489e-06	262.42	75.954	59.821	17.594	6.6323e-07	24.353	0.00015671	0.00014409	3.9376e-05	987.82	1.5957e-06	1.5159e-06	1071.2	206.91	1.5597e-06	1.5093e-06	259.34	75.191	58.787	17.684	1.4998e-06	24.621	169.929	210.899	168.147	156.909	261.358	301.416	156.851	164.557	370.633	295.254	164.446	170.250	170.861	178.738	328.002	177.651	-8191	255	
8066.125	1	1	0	0	0.11241	0.23468	0.10269	0.21554	0.12542	0.15965	0.12725	0.076426	0.15991	0.20503	0.14876	0.018247	0.35473	0.11412	0.075541	0.022822	-2.3958	-2.0875	-2.5125	-2.3729	-1.8417	-2.7771	-2.1625	-2.4354	-2.7396	-1.9792	-2.7292	-2.3729	-2.0042	-2.8167	-2.2	-2.3271	491.947	445.827	281.982	167.691	219.497	151.895	213.061	156.250	329.026	357.758	155.743	191.108	385.049	179.697	289.964	452.443	0.00027904	0.00012603	8.2916e-05	1017.5	4.0843e-06	4.1256e-06	1084.9	208	2.7144e-06	1.8454e-07	261.85	75.458	59.588	17.631	1.2062e-07	24.307	0.00014545	0.00013536	3.7888e-05	988.39	1.5175e-06	1.4689e-06	1070.7	205.76	1.499e-06	1.5036e-06	259.04	75.018	58.437	17.7	1.5312e-06	24.525	166.948	260.941	203.003	157.022	312.159	307.937	156.652	164.619	275.259	397.897	164.606	170.173	170.877	179.147	154.262	178.149	-8191	255	
8066.222	1	1	0	0	0.11632	0.097891	0.087478	0.063154	0.091931	0.095848	0.23982	0.032521	0.068117	0.23174	0.24378	0.23847	0.064099	0.37999	0.24315	0.2106	-2.3833	-2.0917	-2.6208	-2.5125	-1.9667	-2.8688	-2.4167	-2.3125	-2.7958	-2.1562	-2.5792	-2.5833	-1.9062	-2.7521	-2.1458	-2.175	217.076	296.719	326.584	190.260	497.613	468.072	359.244	427.253	386.611	219.428	350.190	196.104	186.006	204.914	177.233	288.781	0.00034143	0.00013624	4.9072e-05	1006.1	4.5573e-06	1.5711e-06	1087.5	208.53	1.1677e-06	1.997e-06	264.07	75.262	59.616	17.599	2.0237e-06	24.469	0.00014079	0.00013271	3.7269e-05	981.4	1.4941e-06	1.4542e-06	1068.8	206.24	1.475e-06	1.4395e-06	259.25	74.988	58.55	17.716	1.4765e-06	24.584	169.594	435.636	213.591	157.099	292.799	233.104	156.741	164.465	190.777	309.515	164.672	170.512	170.839	178.809	403.068	177.458	-8191	255	
8066.318	1	1	0	0	0.094617	0.071949	0.2046	0.016153	0.2361	0.18844	0.38121	0.26429	0.074873	0.014542	0.15893	0.15312	0.26885	0.15753	0.11726	0.023103	-2.3646	-1.8354	-2.6292	-2.6979	-1.9583	-2.6688	-2.3708	-2.1479	-2.8271	-1.9958	-2.4333	-2.8604	-2.1042	-2.65	-2.5104	-2.2438	360.273	204.108	392.680	203.605	262.579	299.108	506.233	477.936	227.073	376.992	335.721	224.004	194.963	489.846	213.342	267.980	0.00029597	0.00036254	8.4822e-05	1009	3.5995e-06	1.8794e-06	1078.5	208.59	4.1352e-06	2.5748e-06	262.31	75.531	59.992	17.49	3.2544e-06	24.04	0.00014397	0.0001341	3.7641e-05	983.53	1.4733e-06	1.4295e-06	1066.8	206.43	1.4388e-06	1.4172e-06	258.95	75.026	58.266	17.632	1.4195e-06	24.459	177.766	208.427	233.640	156.843	258.126	203.142	156.792	164.570	253.422	286.896	164.583	170.713	171.153	178.975	300.765	178.062	-8191	255	
8066.414	1	1	0	0	0.16819	0.14848	0.41374	0.12319	0.28438	0.19026	0.17105	0.049005	0.23556	0.17829	0.095934	0.047033	0.24163	0.21769	0.12203	0.033731	-2.4062	-2.1083	-2.1562	-2.6583	-1.9688	-2.5104	-2.5917	-2.1208	-2.6458	-2.3542	-2.1729	-2.7042	-1.9167	-2.6688	-2.55	-2.0687	279.777	229.076	253.620	350.236	316.215	196.853	408.581	363.493	254.478	182.164	294.901	417.803	234.313	488.427	411.884	406.037	0.00034157	0.00021024	0.00012353	1010.8	3.0433e-06	1.0302e-06	1086.3	209.49	1.917e-06	2.702e-06	262.37	75.413	59.715	17.644	3.1752e-06	24.295	0.00013966	0.00012685	3.5452e-05	981.9	1.4201e-06	1.3723e-06	1066.7	206.12	1.4126e-06	1.3807e-06	258.68	74.902	58.221	17.687	1.4176e-06	24.473	163.058	246.982	273.714	157.006	249.366	290.896	156.749	164.787	280.319	298.389	164.360	170.491	170.627	178.675	267.908	177.879	-8191	255	
8066.534	1	1	0	0	0.11639	0.1779	0.098656	0.17274	0.14116	0.16151	0.18388	0.45398	0.091636	0.18868	0.19701	0.23527	0.20514	0.031116	0.13368	0.16956	-2.3771	-2.1312	-2.175	-2.8292	-1.9937	-2.5333	-2.7	-1.9375	-2.7313	-2.3458	-2.1479	-2.7646	-2.0146	-2.3354	-2.5667	-1.9542	327.216	407.813	358.746	341.454	262.098	338.420	222.752	440.944	426.192	391.619	473.638	169.186	488.489	402.593	328.866	413.142	0.00040461	0.00026202	3.9026e-05	1014.3	2.4336e-06	3.3979e-06	1090.9	209.25	1.7641e-06	3.3601e-06	261.66	75.235	59.627	17.656	2.4894e-06	24.271	0.00013829	0.00013326	3.6349e-05	981.37	1.4627e-06	1.4343e-06	1067.4	205.66	1.4629e-06	1.4406e-06	258.91	74.791	58.394	17.687	1.4309e-06	24.484	172.693	222.608	212.157	157.110	220.630	311.794	156.775	164.500	302.309	264.909	164.275	170.239	170.900	178.750	304.730	177.796	-8191	255	
8066.606	1	1	0	0	0.10977	0.038043	0.11998	0.045653	0.18736	0.11195	0.021251	0.11448	0.082164	0.17941	0.14633	0.28921	0.1689	0.26228	0.072203	0.19518	-2.4562	-2.4146	-2.0396	-2.9437	-2.2396	-2.4938	-2.9792	-2.0042	-2.6479	-2.475	-2.1	-2.8354	-2.1562	-2.1771	-2.7125	-1.9896	321.769	364.172	376.576	256.849	459.451	331.415	438.951	356.485	324.352	339.220	448.157	489.562	317.758	258.283	207.304	482.549	0.00036254	0.00014522	0.00010815	1009.4	2.5092e-06	2.151e-06	1083.4	208.23	1.4573e-06	5.0926e-06	260.25	75.528	59.546	17.628	3.8191e-06	24.349	0.00014083	0.00012879	3.6311e-05	980.91	1.4447e-06	1.379e-06	1065.6	205.34	1.3834e-06	1.3747e-06	258.4	74.849	58.37	17.68	1.3886e-06	24.465	171.028	222.607	292.564	156.895	268.327	300.914	157.102	164.605	277.010	318.621	164.246	170.512	170.974	178.447	297.972	177.364	-8191	255	
8066.702	1	1	0	0	0.10925	0.14408	0.20915	0.01674	0.033955	0.11659	0.11373	0.0905	0.10184	0.16175	0.091883	0.16832	0.13344	0.13851	0.096977	0.23044	-2.0333	-2.4458	-2.0396	-2.9875	-2.1875	-2.3146	-2.9542	-1.9417	-2.5062	-2.5708	-1.9479	-3.0042	-2.2021	-2.1646	-2.8	-2.1292	323.050	427.217	357.293	202.892	281.164	349.114	315.892	351.768	301.744	410.977	207.074	225.978	287.287	383.004	284.262	220.812	0.00033619	0.00032983	3.163e-05	1010.6	4.2741e-06	2.5801e-06	1085.2	207.94	1.1485e-06	6.0563e-06	262.52	75.313	59.527	17.639	2.3909e-06	24.267	0.00013608	0.0001256	3.5527e-05	981.21	1.4034e-06	1.379e-06	1067.3	205.48	1.3811e-06	1.3384e-06	258.13	74.654	58.273	17.709	1.3695e-06	24.448	168.623	227.800	324.527	157.029	311.748	285.831	156.524	164.540	232.862	304.988	164.523	170.346	170.677	178.531	306.547	177.887	-8191	255	
8066.798	1	1	0	0	0.25421	0.23279	0.19653	0.10689	0.08503	0.12808	0.10934	0.14575	0.23906	0.17331	0.066966	0.16901	0.26518	0.22187	0.11142	0.36394	-2.2229	-2.5083	-1.8125	-2.7438	-2.275	-2.1937	-2.8812	-1.975	-2.4771	-2.5729	-2.1333	-2.6521	-2.4208	-2.1521	-2.8667	-2.2583	331.229	240.935	167.771	355.838	187.860	442.262	437.788	187.827	346.825	428.476	491.054	167.040	459.725	199.144	437.411	229.029	0.0003441	0.00023186	0.00011384	1006.5	1.4709e-06	2.3426e-06	1093.6	209.18	2.3423e-06	6.2888e-06	262.19	74.719	59.256	17.5	1.4773e-06	24.355	0.0001393	0.00012791	3.5981e-05	980.41	1.4039e-06	1.359e-06	1067.9	205.22	1.4246e-06	1.3516e-06	258.51	74.66	58.169	17.62	1.3691e-06	24.478	162.377	225.654	296.711	157.074	295.168	296.810	156.883	164.191	302.009	366.135	164.210	170.045	170.507	178.582	246.120	178.194	-8191	255	
8066.917	1	1	0	0	0.16398	0.27115	0.063265	0.44033	0.15849	0.12746	0.047748	0.18311	0.14508	0.14017	0.065971	0.02048	0.27151	0.16779	0.10166	0.14932	-2.025	-2.6458	-1.9312	-2.5563	-2.3917	-1.9312	-2.6833	-2.1063	-2.2667	-2.7542	-1.9271	-2.7021	-2.4979	-2.0083	-2.7521	-2.2125	415.156	423.625	197.234	493.454	376.134	350.555	275.011	421.483	452.595	325.244	194.157	380.304	451.141	146.747	391.199	267.439	0.00028404	0.00039663	0.00010297	1011.8	4.4858e-06	3.2152e-06	1088.3	208.71	4.2281e-06	1.1468e-06	262.72	75.165	59.111	17.659	3.0861e-06	24.472	0.00013413	0.00012449	3.4144e-05	979.68	1.3866e-06	1.364e-06	1066	205.18	1.3967e-06	1.35e-06	258.24	74.715	57.911	17.64	1.356e-06	24.462	167.674	199.449	247.555	156.989	285.568	279.295	156.938	164.646	284.351	428.867	164.078	170.567	170.612	178.778	352.939	177.529	-8191	255	
8067.013	1	1	0	0	0.096277	0.24591	0.17918	0.13293	0.22614	0.17338	0.3473	0.14218	0.22127	0.062061	0.30979	0.09317	0.38586	0.252	0.21793	0.18574	-1.6875	-2.7292	-2.0917	-2.5104	-2.4104	-2.0146	-2.7167	-2.2062	-2.1333	-2.6792	-1.9854	-2.55	-2.4479	-2.0187	-2.8187	-2.25	426.695	214.728	253.233	477.392	370.865	410.353	449.818	481.554	450.213	253.450	439.069	505.995	406.652	163.159	353.901	478.716	0.00033586	0.00036925	7.8903e-05	1014.9	1.7931e-06	3.0946e-06	1089.2	207.41	1.835e-06	2.1272e-06	264.85	75.365	59.14	17.69	2.5882e-06	24.47	0.00013671	0.00012431	3.4498e-05	980.6	1.3865e-06	1.3572e-06	1066.8	205.09	1.3622e-06	1.329e-06	258.46	74.832	58.018	17.627	1.3594e-06	24.373	172.943	247.026	259.041	157.079	243.713	251.465	156.882	164.571	296.328	246.238	164.402	170.823	170.860	178.511	290.013	177.748	-8191	255	
8067.110	1	1	0	0	0.28326	0.040408	0.06474	0.10426	0.24157	0.10908	0.13812	0.095444	0.070558	0.076976	0.10637	0.31145	0.095763	0.1022	0.1095	0.31046	-1.7979	-2.8563	-2.0333	-2.5146	-2.5938	-1.9458	-2.875	-2.4521	-2.2146	-2.7188	-2.1583	-2.4437	-2.7938	-1.8729	-2.6833	-2.5167	381.929	365.290	197.849	420.110	439.634	304.644	154.762	415.766	499.104	272.979	213.794	321.413	205.707	449.025	254.617	370.621	0.0002948	0.00020543	2.0227e-05	1015.3	1.7087e-06	2.9304e-06	1089.5	209.15	1.8018e-06	3.3055e-06	262.93	75.195	59.557	17.739	1.8227e-06	24.422	0.0001335	0.00012083	3.4269e-05	981.46	1.3557e-06	1.3595e-06	1066.1	205.29	1.3578e-06	1.3307e-06	258.26	74.787	58.177	17.613	1.38e-06	24.444	169.066	229.743	208.275	156.620	216.585	212.150	156.809	164.278	287.875	193.127	164.691	170.761	170.694	178.686	202.121	177.928	-8191	255	
8067.206	1	1	0	0	0.15972	0.15998	0.0876	0.22145	0.24898	0.17508	0.14893	0.15417	0.13639	0.4335	0.12647	0.15423	0.16991	0.18035	0.1639	0.14444	-1.6021	-2.7958	-2.1896	-2.4083	-2.8	-2.1271	-2.7479	-2.5583	-2.0583	-2.6958	-2.1958	-2.1917	-2.7438	-1.9062	-2.7062	-2.7667	388.211	495.518	234.688	174.180	247.969	282.499	481.020	438.282	167.197	417.298	451.606	447.819	286.963	150.115	256.772	186.106	0.00031541	0.00026956	4.7353e-05	1016.8	2.3976e-06	2.7747e-06	1084.1	207.71	3.1031e-06	4.6776e-07	261.18	75.949	59.406	17.622	3.0608e-06	24.457	0.00013566	0.00012248	3.4543e-05	980.91	1.3462e-06	1.3418e-06	1063.9	204.65	1.3958e-06	1.3002e-06	257.69	74.556	58.127	17.591	1.3392e-06	24.371	171.948	232.565	235.473	156.861	269.365	204.954	157.143	164.450	253.796	306.344	164.445	170.726	170.421	178.553	248.372	177.699	-8191	255	
8067.302	1	1	0	0	0.072807	0.19312	0.13684	0.24315	0.13808	0.10758	0.26793	0.062599	0.1459	0.068681	0.34859	0.22085	0.18399	0.12157	0.10857	0.15569	-1.4958	-2.6146	-2.2042	-2.1771	-2.6729	-1.9688	-2.5271	-2.5042	-1.9896	-2.7771	-2.4708	-2.1042	-2.8792	-2.0708	-2.3417	-2.9708	212.629	294.560	295.805	313.765	203.757	432.724	434.507	492.839	448.139	465.838	412.332	147.499	503.658	248.994	355.821	372.510	0.00034008	3.1285e-05	9.2461e-05	1008.4	1.9652e-06	1.9248e-06	1084.5	206.61	4.4672e-06	3.4494e-06	261.85	75.046	59.545	17.609	3.071e-06	24.122	0.00013448	0.00011989	3.4455e-05	976.41	1.3312e-06	1.3742e-06	1062.6	204.68	1.3526e-06	1.3345e-06	257.34	74.623	58.107	17.604	1.3412e-06	24.405	170.136	281.696	247.509	157.318	265.386	369.677	156.616	164.310	279.644	243.669	164.000	170.931	170.449	178.154	282.830	177.802	-8191	255	
8067.398	1	1	0	0	0.11081	0.05897	0.30485	0.13698	0.1887	0.075307	0.13934	0.15793	0.17959	0.17454	0.10373	0.11591	0.092286	0.029692	0.14816	0.1104	-1.5583	-2.7604	-2.2917	-2.1396	-2.7229	-2.2	-2.6646	-2.8521	-1.875	-2.6375	-2.4437	-2.0563	-2.8583	-2.1625	-2.2021	-2.775	254.291	311.009	205.449	475.722	213.412	428.306	445.527	413.439	371.078	290.160	442.113	150.718	362.409	346.643	453.202	425.293	0.00029748	0.00026444	4.7284e-05	1005.6	2.2392e-06	2.9418e-06	1082.2	207.25	4.6361e-06	3.4832e-06	260.67	75.766	59.189	17.559	9.5175e-07	24.391	0.00013126	0.00012272	3.4264e-05	977.83	1.3697e-06	1.3925e-06	1062.9	204.56	1.3469e-06	1.3626e-06	257.09	74.584	58.06	17.594	1.38e-06	24.41	171.242	242.489	269.557	156.924	265.115	228.141	157.131	164.223	284.171	250.414	164.117	170.467	170.709	178.186	344.441	177.296	-8191	255	
8067.494	1	1	0	0	0.20809	0.28744	0.045065	0.19772	0.1294	0.20548	0.20186	0.18788	0.14616	0.19221	0.37548	0.20041	0.27293	0.068643	0.031666	0.1652	-1.4062	-2.3708	-2.3833	-1.8625	-2.7438	-2.2188	-2.2708	-2.7271	-2.0375	-2.5938	-2.6646	-1.7854	-2.7542	-2.0708	-2.225	-2.6042	323.827	337.048	463.305	486.229	293.917	217.604	170.673	332.957	274.362	199.134	477.053	436.435	158.589	455.529	313.455	159.379	0.00030084	0.00040195	7.7986e-05	1002.2	2.1192e-06	3.8588e-06	1084.2	206.97	1.9736e-06	4.2669e-06	261.88	75.522	59.326	17.534	1.2732e-06	24.316	0.00013585	0.00012556	3.4863e-05	975	1.4076e-06	1.3994e-06	1062.9	204.45	1.4128e-06	1.3858e-06	257.8	74.547	58.185	17.563	1.4197e-06	24.426	168.537	203.262	218.204	157.021	311.219	265.701	157.064	164.345	291.494	284.126	164.433	170.557	170.425	178.761	242.927	177.915	-8191	255	
8067.615	1	1	0	0	0.15094	0.17113	0.22191	0.097999	0.056344	0.16148	0.39493	0.28972	0.089101	0.10153	0.099919	0.16204	0.19373	0.12653	0.15882	0.22488	-1.5917	-2.4604	-2.3812	-1.9854	-2.6875	-2.2792	-2.3292	-2.9146	-1.9688	-2.4104	-2.8167	-1.8958	-2.5687	-2.4396	-1.9688	-2.8312	363.702	222.370	168.957	423.599	273.470	212.915	462.937	443.917	280.709	397.833	238.183	406.336	504.623	334.988	295.471	458.526	0.00030367	0.00037648	2.5083e-05	1016.5	5.0819e-06	2.9828e-06	1087.6	208.03	3.0114e-06	8.5139e-07	261.78	75.383	59.164	17.718	2.5949e-06	24.372	0.0001376	0.00012404	3.5189e-05	979.02	1.3745e-06	1.3709e-06	1064.3	204.39	1.3832e-06	1.3548e-06	257.57	74.539	58.091	17.603	1.37e-06	24.43	176.186	225.419	269.315	157.158	279.620	297.582	157.064	164.372	276.507	275.358	164.133	170.562	171.027	178.157	324.599	178.243	-8191	255	
8067.709	1	1	0	0	0.078901	0.14639	0.086605	0.25124	0.13601	0.15192	0.20793	0.11924	0.08371	0.22476	0.13455	0.25224	0.25601	0.082834	0.16688	0.05183	-1.6729	-2.4104	-2.7417	-1.9354	-2.6854	-2.4562	-2.2542	-2.8479	-2.1125	-2.3083	-2.8583	-2.2062	-2.45	-2.5292	-2.1375	-2.8229	261.595	231.943	311.117	449.614	329.891	406.415	428.411	175.241	173.701	478.577	409.480	304.824	261.090	488.470	307.276	331.618	0.000349	0.00036359	0.00010591	1010.8	4.0105e-06	1.8306e-06	1080.2	208.69	1.9445e-06	3.5633e-06	262.12	75.211	59.503	17.58	2.6521e-06	24.382	0.00013594	0.00012564	3.4908e-05	977.85	1.3806e-06	1.3746e-06	1062.5	204.8	1.4236e-06	1.3541e-06	258.03	74.432	58.167	17.594	1.3729e-06	24.485	160.970	278.792	246.837	157.221	305.183	274.842	156.995	164.689	294.574	327.020	164.065	170.475	170.940	178.340	294.223	177.745	-8191	255	
8067.807	1	1	0	0	0.20644	0.13252	0.082488	0.1683	0.049945	0.24965	0.1968	0.37907	0.20914	0.14232	0.18222	0.37713	0.13841	0.25401	0.24345	0.066484	-1.7417	-2.15	-2.6521	-2.025	-2.5521	-2.5062	-2.1562	-2.7667	-2.1375	-2.1562	-2.7188	-2.0083	-2.4542	-2.6437	-1.9458	-2.6833	323.111	454.078	203.269	464.419	235.739	212.970	426.119	383.768	406.592	367.795	170.592	366.264	357.746	476.924	436.914	214.429	0.00035153	0.0003602	0.00015624	1010.5	2.5882e-06	1.2238e-06	1081	207.75	2.9984e-06	3.348e-06	263.16	75.091	59.411	17.551	2.9149e-07	24.303	0.00013697	0.00012664	3.5217e-05	977.62	1.4066e-06	1.3767e-06	1061.9	204.57	1.3944e-06	1.396e-06	257.83	74.485	58.229	17.577	1.3781e-06	24.409	177.664	249.433	284.791	157.282	272.921	505.569	156.996	164.658	281.904	318.679	164.586	170.446	170.535	178.365	196.894	177.752	-8191	255	
8067.903	1	1	0	0	0.16187	0.27134	0.18919	0.10486	0.095782	0.38486	0.13045	0.095473	0.08162	0.23977	0.18573	0.12919	0.20994	0.091632	0.082248	0.14447	-2.0708	-2.0042	-2.8375	-2.2146	-2.425	-2.6979	-2.1625	-2.5833	-2.3271	-2.0208	-2.8729	-2.0792	-2.3375	-2.7646	-1.8563	-2.725	219.785	481.973	231.016	352.185	432.010	500.469	482.964	328.755	186.815	452.512	453.820	415.771	360.587	409.208	372.833	196.803	0.00035815	0.00014123	3.2388e-05	1018.1	3.6767e-06	3.2704e-06	1085.6	207.85	2.9274e-06	4.7241e-06	263	75.408	58.921	17.576	2.6738e-06	24.273	0.00013616	0.00012326	3.3412e-05	979.27	1.3921e-06	1.363e-06	1062.2	204.15	1.3892e-06	1.3587e-06	257.7	74.492	58.045	17.611	1.3239e-06	24.348	173.003	320.263	356.074	156.924	272.292	272.963	157.005	164.235	266.677	284.284	164.397	170.201	170.611	178.786	288.329	177.969	-8191	255	
8067.998	1	1	0	0	0.17683	0.12803	0.13595	0.042695	0.043783	0.012373	0.10703	0.11483	0.08199	0.17151	0.076587	0.14901	0.1238	0.21647	0.054486	0.027343	-2.0979	-1.8333	-2.6521	-2.15	-2.2875	-2.7625	-2.2042	-2.5896	-2.5	-1.9417	-2.8083	-2.2	-2.2396	-2.5521	-2.1604	-2.4479	337.132	505.771	180.980	483.285	464.691	259.342	493.222	366.359	496.241	484.455	219.563	429.190	160.312	497.761	149.295	450.845	0.00029413	0.00031325	0.00013377	1012.6	2.413e-06	1.7987e-06	1086.2	207.21	2.9461e-06	9.6796e-07	263.36	75.276	59.226	17.604	2.2999e-06	24.368	0.00012869	0.00011465	3.2297e-05	977.43	1.3185e-06	1.2762e-06	1061.4	204.07	1.3202e-06	1.2741e-06	257.8	74.531	57.844	17.539	1.3138e-06	24.399	161.248	270.695	248.138	156.658	275.411	246.374	157.015	164.466	250.945	326.610	164.185	170.334	170.610	178.726	319.117	178.201	-8191	255	
8068.094	1	1	0	0	0.14474	0.18534	0.15431	0.27722	0.075134	0.090065	0.23496	0.11204	0.30244	0.4193	0.18903	0.17105	0.22712	0.057545	0.14767	0.21634	-2.2313	-2.0812	-2.6125	-2.3187	-2.2208	-2.6917	-2.1292	-2.5812	-2.55	-1.9438	-2.7729	-2.325	-2.1521	-2.7396	-1.9188	-2.3042	231.503	440.255	445.734	435.987	358.809	474.409	404.443	165.025	402.591	339.778	391.829	446.990	408.288	357.014	345.552	363.154	0.00028998	8.8933e-05	0.00012103	1007.5	1.9966e-06	2.4729e-06	1085.3	208.06	3.2669e-06	2.8929e-06	263.09	75.624	59.546	17.76	2.5802e-06	24.338	0.0001302	0.00011738	3.3056e-05	976.18	1.3377e-06	1.2497e-06	1061.6	204.83	1.2904e-06	1.2922e-06	257.66	74.679	57.952	17.616	1.313e-06	24.343	180.858	232.775	202.573	157.351	363.027	249.513	156.687	164.319	282.665	341.387	163.831	170.436	170.677	178.683	277.431	177.517	-8191	255	
8068.214	1	1	0	0	0.11918	0.19026	0.11561	0.37696	0.14653	0.22842	0.25499	0.2223	0.12191	0.30094	0.25116	0.30376	0.096622	0.25585	0.15549	0.21557	-2.3208	-1.8854	-2.5104	-2.3563	-1.9896	-2.7292	-2.4625	-2.4625	-2.7521	-2.1042	-2.7458	-2.4938	-2.0917	-2.8854	-2.1021	-2.2521	460.435	321.740	218.774	411.778	213.352	505.165	498.774	443.352	352.662	452.766	189.702	195.998	487.660	236.977	269.802	398.830	0.00030627	0.00035244	7.2452e-05	1003.9	2.8758e-06	2.7393e-06	1083	206.89	2.0379e-06	1.3479e-06	263.43	75.739	59.5	17.473	2.678e-06	24.343	0.00012714	0.00011428	3.2541e-05	972.29	1.3139e-06	1.2265e-06	1059.4	203.98	1.2718e-06	1.2612e-06	257.33	74.377	57.796	17.561	1.2959e-06	24.357	172.237	258.555	334.262	156.582	302.881	276.493	156.915	164.530	277.876	188.905	164.184	171.018	170.700	178.198	302.634	177.748	-8191	255	
8068.311	1	1	0	0	0.17909	0.12752	0.24341	0.050909	0.11912	0.10103	0.1154	0.18654	0.19592	0.19094	0.0019008	0.17724	0.23311	0.11786	0.22822	0.18352	-2.5312	-1.8292	-2.4729	-2.5875	-2.2583	-2.9229	-2.2833	-2.1979	-2.8958	-1.9312	-2.6271	-2.7917	-2.0792	-2.7833	-2.2562	-2.0417	337.728	371.373	394.949	266.521	331.732	403.171	418.487	492.505	380.396	266.187	180.000	331.499	333.007	337.898	451.865	481.366	0.00033887	9.5456e-05	6.1371e-05	1009.1	1.6362e-06	3.557e-06	1084.6	208.42	2.6584e-06	2.53e-06	263.96	75.191	59.171	17.674	2.1684e-06	24.298	0.00012485	0.0001163	3.2737e-05	974.43	1.2647e-06	1.2404e-06	1058.9	204.4	1.2641e-06	1.2731e-06	257.57	74.22	57.813	17.552	1.267e-06	24.229	172.962	262.580	274.254	156.984	347.517	250.697	156.811	164.668	301.922	245.646	164.573	170.630	170.770	178.772	300.221	178.236	-8191	255	
8068.407	1	1	0	0	0.067442	0.015815	0.037617	0.14605	0.16484	0.084336	0.19484	0.18573	0.13871	0.17724	0.18376	0.20893	0.27642	0.22452	0.051755	0.21402	-2.2417	-2.0187	-2.5521	-2.7833	-1.9771	-2.6813	-2.4854	-2.0771	-2.6708	-2.2083	-2.3812	-2.8125	-2.1771	-2.65	-2.3958	-2.1833	347.506	185.217	370.185	191.211	257.041	406.392	444.108	350.783	443.596	501.494	454.257	227.441	352.066	284.559	212.475	365.170	0.00028018	0.00020228	0.00011361	1000.5	2.3903e-06	1.477e-06	1082.2	207.77	1.8656e-06	4.0225e-06	262.38	75.582	59.495	17.568	1.8191e-06	24.451	0.00012567	0.00011608	3.193e-05	971.31	1.2631e-06	1.2251e-06	1058.1	203.98	1.2714e-06	1.2653e-06	256.91	74.272	57.82	17.56	1.2219e-06	24.367	172.620	266.710	351.169	156.809	251.181	217.821	156.675	164.665	236.873	260.681	164.379	170.357	171.117	178.936	284.928	177.883	-8191	255	
8068.478	1	1	0	0	0.10704	0.21809	0.21744	0.11115	0.20981	0.073096	0.067795	0.16268	0.013713	0.24398	0.15883	0.13339	0.23447	0.13363	0.19804	0.21502	-2.5458	-2.2458	-2.3104	-2.7396	-2.1833	-2.6562	-2.6021	-2.1375	-2.8625	-2.1854	-2.3937	-2.8083	-1.9292	-2.3438	-2.3583	-1.9062	385.244	310.080	269.939	262.872	350.523	215.755	459.439	461.437	193.183	458.215	350.727	156.065	464.496	183.670	452.525	465.708	0.00033154	0.00043215	0.00014688	1006.9	2.0857e-06	1.2721e-06	1082.4	207.79	3.9084e-06	2.9543e-06	263.58	75.235	59.801	17.535	4.0195e-06	24.33	0.00012084	0.00011143	3.1592e-05	969.08	1.2155e-06	1.2178e-06	1056.6	203.87	1.2407e-06	1.2121e-06	257.3	74.394	57.931	17.5	1.259e-06	24.285	166.287	245.238	261.240	156.656	287.232	258.243	156.806	164.407	265.155	304.356	164.242	170.848	170.486	178.973	242.545	178.233	-8191	255	
8068.599	1	1	0	0	0.21214	0.33443	0.26837	0.3161	0.15967	0.1137	0.12717	0.084616	0.36182	0.1616	0.19813	0.33541	0.17346	0.10769	0.23026	0.11119	-2.25	-2.4458	-2.2188	-2.7	-2.1479	-2.4313	-2.7562	-2.1875	-2.6542	-2.1688	-2.2229	-2.7667	-2.0646	-2.4583	-2.7375	-2.0396	272.441	424.526	427.877	380.592	173.375	339.267	262.162	450.860	166.785	388.419	154.875	256.759	347.460	165.780	462.720	477.023	0.00032368	9.7357e-05	5.4438e-05	1007.6	1.7469e-06	6.1365e-07	1087	208.12	3.2992e-06	3.4279e-06	261.76	75.263	59.086	17.59	1.4499e-06	24.406	0.00012343	0.00011265	3.1488e-05	969.75	1.3117e-06	1.2459e-06	1057.2	203.64	1.268e-06	1.2442e-06	256.44	74.151	57.735	17.518	1.2528e-06	24.355	172.089	163.042	266.492	156.890	245.838	222.687	156.956	164.627	280.572	292.435	164.554	170.813	170.841	178.922	205.929	178.192	-8191	255	
8068.695	1	1	0	0	0.10537	0.12852	0.058121	0.29504	0.27048	0.076806	0.10338	0.058637	0.12802	0.24717	0.20062	0.12033	0.28797	0.13502	0.12657	0.03031	-2.3396	-2.3354	-2.0938	-2.8833	-2.1729	-2.3958	-3	-1.9625	-2.4062	-2.5187	-2.0875	-2.9	-2.0167	-2.2438	-2.6542	-2.1125	151.888	497.199	446.930	214.110	392.067	453.439	384.739	315.395	281.916	294.144	173.656	216.189	473.914	369.565	177.349	341.981	0.00032821	0.0003135	7.8662e-05	1009	1.7064e-06	3.3962e-06	1084.4	207.51	2.8993e-06	2.5614e-06	262.6	75.36	59.218	17.455	9.4806e-07	24.284	0.00012531	0.00011262	3.2292e-05	975.41	1.2575e-06	1.233e-06	1057.5	203.57	1.2618e-06	1.2446e-06	256.96	74.31	57.779	17.48	1.2325e-06	24.306	178.361	241.995	314.631	156.740	298.336	285.091	156.805	164.339	246.689	436.121	164.091	170.220	170.542	178.683	281.569	177.574	-8191	255	
8068.790	1	1	0	0	0.23224	0.043983	0.02287	0.11602	0.18265	0.084942	0.11442	0.18978	0.08163	0.14195	0.076653	0.11114	0.11281	0.15811	0.18562	0.38429	-2.2687	-2.4958	-1.9667	-2.7667	-2.275	-2.2333	-3.0354	-2.0125	-2.475	-2.4	-1.9292	-2.7875	-2.1771	-2.1542	-2.7458	-2.0417	243.105	442.454	176.672	407.559	437.759	307.012	449.817	458.975	153.626	490.622	468.158	223.706	153.406	267.342	411.875	475.703	0.00036543	0.00021219	7.577e-05	1007.9	1.8587e-06	2.7535e-06	1077.9	207.16	1.4021e-06	2.3192e-06	262.93	75.584	59.114	17.447	3.0148e-06	24.457	0.00012416	0.00011206	3.0815e-05	970.55	1.2966e-06	1.2431e-06	1056.3	203.03	1.2326e-06	1.2506e-06	256.8	74.318	57.703	17.492	1.2263e-06	24.315	172.139	254.125	234.865	156.646	293.039	271.914	156.877	164.620	292.057	283.015	164.366	170.720	170.756	178.914	251.234	177.724	-8191	255	
8068.887	1	1	0	0	0.12148	0.12809	0.18341	0.23353	0.12275	0.16086	0.30446	0.26087	0.16248	0.02633	0.0086738	0.093797	0.25468	0.13118	0.30942	0.13795	-2.1813	-2.4688	-1.8271	-2.625	-2.5438	-2.1333	-2.8792	-2.1562	-2.3208	-2.6688	-1.9646	-2.7708	-2.5458	-2.0729	-2.6458	-2.0646	304.763	228.380	333.222	468.995	262.747	166.189	482.392	156.058	495.030	346.669	378.047	493.792	459.318	402.726	356.229	188.917	0.0002955	0.00043675	5.323e-06	1003.2	1.9157e-06	3.5011e-06	1080.5	208.1	3.0865e-06	3.8152e-06	263.72	75.725	59.231	17.584	2.988e-06	24.323	0.00012559	0.00011339	3.2854e-05	970.77	1.2597e-06	1.2607e-06	1056.1	203.49	1.2766e-06	1.2263e-06	256.82	74.165	57.793	17.545	1.2296e-06	24.264	176.830	252.126	317.351	157.052	283.142	292.733	156.859	164.524	284.278	274.486	164.271	170.388	171.102	178.562	278.609	177.484	-8191	255	
8069.006	1	1	0	0	0.02206	0.14574	0.1386	0.097605	0.094982	0.11575	0.23711	0.20717	0.25001	0.11879	0.069253	0.18227	0.075152	0.10273	0.27877	0.092071	-2.0687	-2.5708	-1.875	-2.6229	-2.375	-2.0854	-3.0521	-2.2229	-2.275	-2.7146	-2.0979	-2.4854	-2.5687	-1.9833	-2.9479	-2.4	338.264	160.785	474.799	441.942	316.664	408.859	397.889	481.114	183.965	464.020	210.363	159.976	400.949	447.666	452.118	330.311	0.00037227	9.6655e-05	5.6526e-05	1005.9	3.6281e-06	1.8394e-06	1079.3	207.8	3.1245e-06	3.5021e-06	260.69	75.202	59.352	17.589	4.0049e-06	24.221	0.00012583	0.00011849	3.2633e-05	970.87	1.2897e-06	1.255e-06	1056.4	203.32	1.2594e-06	1.2504e-06	256.02	74.27	57.747	17.519	1.2502e-06	24.276	174.493	194.937	272.361	156.850	260.310	243.682	157.051	164.375	275.057	329.961	164.384	170.637	170.593	178.807	254.511	177.442	-8191	255	
8069.078	1	1	0	0	0.28263	0.063299	0.20087	0.29292	0.013918	0.22998	0.13747	0.14057	0.13866	0.18672	0.11321	0.16502	0.13203	0.029579	0.20508	0.041621	-1.7437	-2.7833	-2.0729	-2.4125	-2.5771	-1.9521	-2.9708	-2.3708	-2.1667	-2.7438	-2.1708	-2.5	-2.6625	-2.0042	-2.6104	-2.3312	417.821	434.193	245.286	459.707	338.883	309.524	469.611	243.380	257.793	163.089	151.077	503.755	299.001	169.787	309.921	327.134	0.00037772	0.0003692	9.7696e-05	1004.6	2.528e-06	2.1297e-06	1082.7	207.31	1.9755e-06	2.3965e-06	261.64	75.841	59.484	17.638	2.6101e-06	24.345	0.0001244	0.00011452	3.174e-05	969.4	1.271e-06	1.2563e-06	1056.5	203.23	1.2475e-06	1.2258e-06	256.27	74.426	57.673	17.491	1.2713e-06	24.284	170.247	234.208	266.040	156.958	312.347	319.346	156.991	164.430	302.535	182.461	164.544	170.794	171.090	178.443	250.534	178.247	-8191	255	
8069.174	1	1	0	0	0.10415	0.09172	0.13139	0.11979	0.11903	0.23574	0.13923	0.1608	0.059693	0.26556	0.24204	0.12828	0.027461	0.063382	0.13091	0.22193	-1.7042	-2.8187	-2.0042	-2.3042	-2.6104	-2.0354	-2.8563	-2.4229	-1.95	-2.9354	-2.2167	-2.1937	-2.7938	-1.9875	-2.6729	-2.4625	271.956	261.571	429.803	305.692	151.356	232.057	431.977	383.415	478.967	388.061	152.961	153.132	357.462	425.138	335.273	360.354	0.00034617	9.1108e-05	8.9667e-05	1006.6	1.597e-06	1.3498e-06	1080.7	208	1.8759e-06	1.3052e-06	262.14	75.115	58.994	17.568	8.7654e-07	24.172	0.00012481	0.00011232	3.2187e-05	970.72	1.282e-06	1.2164e-06	1056.1	203.43	1.2729e-06	1.2258e-06	256.31	74.235	57.672	17.542	1.2258e-06	24.213	167.565	224.821	250.808	157.044	255.102	292.128	156.862	164.568	344.991	340.208	164.276	170.387	170.558	178.580	162.291	177.975	-8191	255	
8069.295	1	1	0	0	0.082854	0.10491	0.092623	0.18891	0.057714	0.23893	0.31618	0.12552	0.24145	0.082005	0.14777	0.2933	0.16969	0.077489	0.16914	0.28249	-1.6458	-2.7812	-2.0208	-2.3125	-2.6042	-1.9146	-2.6042	-2.2479	-2.0479	-2.8333	-2.2792	-2.1979	-2.8854	-2.125	-2.5646	-2.6625	188.531	485.482	248.784	466.430	150.593	359.059	187.726	381.026	359.393	486.495	230.483	421.787	172.667	334.948	227.224	448.159	0.00031129	0.00044622	4.6163e-05	1006	2.3135e-06	1.4682e-06	1067.1	206.83	3.8306e-06	2.5372e-06	261.48	75.564	59.476	17.531	2.113e-06	24.24	0.00012336	0.0001107	3.1017e-05	970.63	1.2384e-06	1.219e-06	1053.1	203.23	1.2539e-06	1.2068e-06	255.76	74.344	57.574	17.503	1.2579e-06	24.257	173.353	227.760	210.402	156.804	261.035	303.404	156.969	164.525	312.440	301.415	164.254	170.750	170.851	178.693	281.523	177.655	-8191	255	
8069.391	1	1	0	0	0.22869	0.07426	0.1785	0.19237	0.21561	0.091348	0.20953	0.12866	0.012249	0.18755	0.048624	0.25128	0.057475	0.084588	0.30059	0.071564	-1.5104	-2.7396	-2.2667	-2.2625	-2.7896	-2.1583	-2.6917	-2.8208	-1.9583	-2.75	-2.45	-2.2125	-2.9479	-2.0625	-2.4313	-2.7062	351.138	163.650	470.734	216.108	225.248	476.116	422.935	445.998	207.488	284.913	491.322	497.143	230.804	150.325	172.193	265.187	0.00033711	0.00028443	0.00012732	1013.1	2.7115e-06	3.5312e-06	1077.7	206.66	3.6433e-06	1.3987e-07	263.2	75.16	59.404	17.646	3.3043e-06	24.533	0.00012477	0.0001126	3.1457e-05	970.49	1.2431e-06	1.2278e-06	1055.3	203.32	1.2431e-06	1.2109e-06	256.6	74.269	57.89	17.519	1.2337e-06	24.346	167.017	255.791	240.221	157.043	300.575	261.648	156.850	164.789	306.081	272.933	164.094	170.897	170.554	178.294	283.645	177.936	-8191	255	
8069.487	1	1	0	0	0.023913	0.29307	0.12417	0.16276	0.26259	0.25145	0.29757	0.097169	0.11793	0.11201	0.19302	0.25884	0.18367	0.34363	0.15667	0.15277	-1.5708	-2.4708	-2.6229	-2.1667	-2.9021	-2.0563	-2.4708	-2.9125	-1.9583	-2.7542	-2.575	-1.9583	-2.7062	-2.125	-2.2062	-2.65	197.139	438.546	458.661	469.099	397.433	245.395	475.308	261.114	275.347	408.505	147.971	153.557	489.887	484.148	485.011	384.972	0.00029769	0.00027119	0.00010036	1004.8	3.9291e-06	3.2051e-06	1082.9	208.67	4.0507e-06	3.99e-06	264.61	75.502	59.674	17.71	2.436e-06	24.562	0.00012578	0.00011139	3.0296e-05	971.54	1.2489e-06	1.2243e-06	1056.7	203.75	1.2627e-06	1.2018e-06	256.82	74.301	57.704	17.477	1.2431e-06	24.36	174.054	283.181	214.429	157.104	272.828	288.389	156.885	164.337	281.088	315.927	164.087	170.387	170.622	178.346	314.717	177.862	-8191	255	
8069.608	1	1	0	0	0.1775	0.21519	0.31685	0.24413	0.30436	0.092992	0.12961	0.1363	0.14917	0.29688	0.22185	0.19639	0.17552	0.25383	0.12971	0.15953	-1.5521	-2.6167	-2.4208	-2.0708	-2.775	-2.3521	-2.1583	-2.8667	-2.0875	-2.5104	-2.7417	-2.0271	-2.7896	-2.2458	-1.9479	-2.7646	394.865	330.407	309.613	156.896	419.576	171.033	493.398	450.215	481.822	421.717	465.958	147.478	222.018	375.203	248.108	466.913	0.00034858	0.00030207	3.616e-05	1010.2	4.3048e-06	4.7399e-06	1091.7	208.2	2.2046e-06	2.0958e-06	265	75.727	59.751	17.763	2.1215e-06	24.461	0.0001269	0.00011177	3.0992e-05	972.22	1.2267e-06	1.2716e-06	1059.2	203.53	1.2368e-06	1.2686e-06	257.1	74.271	57.841	17.591	1.2491e-06	24.262	158.883	245.676	309.590	156.883	236.265	307.908	156.735	164.274	274.052	355.862	164.010	170.557	170.529	178.425	255.183	177.654	-8191	255	
8069.704	1	1	0	0	0.060312	0.016149	0.15969	0.11673	0.30552	0.17314	0.22512	0.12327	0.055839	0.1652	0.05675	0.10813	0.07846	0.23019	0.10398	0.24563	-1.575	-2.4521	-2.6083	-2.0583	-2.7583	-2.375	-2.2792	-2.9708	-2.025	-2.3333	-2.8271	-2.0458	-2.4521	-2.5187	-1.9604	-2.8125	492.329	318.534	270.700	298.557	307.951	320.220	490.904	386.417	147.485	458.404	393.754	211.498	272.963	260.235	403.090	392.814	0.00033091	0.00013469	7.1104e-05	1013.1	3.1291e-06	2.3723e-07	1086.5	208.27	2.5781e-06	5.9109e-07	263.64	76.078	60.339	17.638	3.812e-06	24.632	0.00012263	0.00011035	3.1814e-05	971.62	1.2136e-06	1.1757e-06	1056.9	203.55	1.2309e-06	1.2072e-06	256.51	74.36	58.043	17.5	1.262e-06	24.347	166.211	183.433	209.230	156.736	301.410	165.218	156.669	164.586	285.181	401.809	164.421	170.269	170.976	178.294	272.150	178.058	-8191	255	
8069.776	1	1	0	0	0.097481	0.18588	0.2559	0.16977	0.24968	0.12149	0.039596	0.047908	0.19087	0.17308	0.27814	0.26291	0.038676	0.18033	0.1829	0.09027	-1.7188	-2.2104	-2.6625	-2.0479	-2.5542	-2.6688	-2.0854	-2.8417	-2.1854	-2.2458	-2.7438	-2.0062	-2.6771	-2.6125	-2.1875	-2.7521	176.103	346.202	496.122	175.862	500.848	378.877	498.429	182.171	199.174	475.039	486.425	421.169	172.912	436.433	278.460	404.950	0.00038865	0.00020383	6.6426e-05	1000.2	3.5797e-06	3.8145e-06	1088.9	208.79	1.4779e-06	2.8217e-06	262.82	75.822	59.734	17.636	2.1379e-06	24.238	0.00012282	0.00011248	3.1329e-05	967.52	1.2623e-06	1.2273e-06	1056.3	203.87	1.2853e-06	1.1968e-06	256.08	74.211	57.694	17.505	1.2822e-06	24.243	171.932	173.913	268.652	156.826	265.476	237.082	156.821	164.159	244.527	257.602	164.163	170.326	170.454	178.059	275.459	178.183	-8191	255	
8069.894	1	1	0	0	0.16597	0.075213	0.10655	0.18361	0.19123	0.21503	0.28181	0.38288	0.27594	0.091966	0.17353	0.11791	0.16114	0.088877	0.052876	0.11729	-1.8375	-2.1771	-2.7104	-2.0646	-2.35	-2.5958	-2.0083	-2.8958	-2.3333	-2.1083	-2.775	-2.1167	-2.3729	-2.6625	-2.0583	-2.7646	367.450	468.841	458.208	174.247	410.110	432.333	432.989	440.754	479.862	495.611	189.086	487.176	383.633	381.850	343.669	420.314	0.00035472	0.00015944	0.00010039	1010	3.7041e-06	3.2717e-06	1087.1	207.32	3.1394e-06	2.6258e-06	263.88	75.21	59.318	17.711	3.3096e-06	24.396	0.00012395	0.00011192	3.1423e-05	971.51	1.259e-06	1.2307e-06	1058.3	203.21	1.2845e-06	1.283e-06	256.71	74.302	57.669	17.543	1.2596e-06	24.371	171.226	285.865	247.514	156.535	311.855	257.371	156.505	164.289	260.677	284.289	163.879	170.157	170.549	178.644	276.372	177.371	-8191	255	
8069.991	1	1	0	0	0.1595	0.2891	0.2057	0.095458	0.21051	0.14238	0.26368	0.07505	0.087518	0.090749	0.05762	0.12625	0.26381	0.064246	0.045916	0.2262	-1.8958	-1.9917	-2.6917	-2.1167	-2.4458	-2.5417	-2.0062	-2.7854	-2.3812	-1.9854	-2.6604	-2.225	-2.3021	-2.7	-2.0396	-2.6604	360.533	269.918	178.019	461.965	257.084	349.050	469.072	456.224	217.960	274.790	457.200	406.413	235.085	457.093	206.899	408.394	0.00036592	0.00015565	8.3598e-05	1005	2.2348e-06	3.6592e-06	1082.1	208.53	3.0712e-06	2.9724e-06	261.41	75.152	59.671	17.729	1.5859e-06	24.335	0.00012686	0.00011733	3.1695e-05	969.76	1.2756e-06	1.2538e-06	1058.2	203.72	1.2529e-06	1.2201e-06	255.8	74.172	57.782	17.567	1.2638e-06	24.331	173.770	285.818	280.825	157.065	310.603	227.356	156.610	164.500	322.017	299.442	164.042	170.522	170.743	178.892	336.301	177.877	-8191	255	
8070.087	1	1	0	0	0.13248	0.1903	0.072401	0.30913	0.23512	0.1514	0.18288	0.18183	0.26796	0.13258	0.1853	0.089835	0.098684	0.17157	0.095223	0.17707	-2.0792	-2.0229	-2.6958	-2.0938	-2.2	-2.7479	-2.1229	-2.7146	-2.4146	-2.0458	-2.6125	-2.2896	-2.1146	-2.8271	-2.0208	-2.5854	250.635	189.721	424.409	150.029	289.571	469.190	407.231	343.778	371.321	238.718	159.440	253.853	217.160	438.679	502.715	276.847	0.00032794	0.00028234	2.2608e-05	1008.6	8.5273e-07	2.266e-06	1085.3	208.02	3.1351e-06	2.4655e-06	263.89	75.72	59.739	17.655	2.9332e-06	24.605	0.00012471	0.00011488	3.0762e-05	971.25	1.2476e-06	1.2499e-06	1056.2	203.39	1.2969e-06	1.2621e-06	256.48	74.32	57.791	17.524	1.2841e-06	24.394	175.946	233.286	167.846	156.898	294.531	259.871	156.825	164.388	260.069	274.138	164.435	170.627	170.948	178.408	337.688	177.813	-8191	255	
8070.183	1	1	0	0	0.16639	0.22066	0.15359	0.15181	0.16579	0.10246	0.17926	0.20533	0.16149	0.093124	0.13006	0.29203	0.087457	0.17928	0.2151	0.027028	-2.0833	-1.8958	-2.6292	-2.2021	-1.9875	-2.9542	-2.2313	-2.3521	-2.6229	-2.0583	-2.8937	-2.5333	-2.0687	-2.7354	-2.1458	-2.1958	295.141	367.615	394.388	435.157	153.232	341.343	175.186	438.802	319.581	372.442	276.098	463.000	175.205	224.724	447.940	156.184	0.00034148	0.00039929	9.3879e-05	1006.3	2.5947e-06	1.3227e-06	1082.9	208.03	2.0478e-06	1.0533e-06	262.8	75.537	59.406	17.634	2.9138e-06	24.329	0.00012724	0.0001191	3.172e-05	969.63	1.2681e-06	1.2772e-06	1055.8	203.67	1.3329e-06	1.2655e-06	256.77	74.2	57.752	17.543	1.2747e-06	24.309	172.012	225.719	210.148	156.677	239.518	258.092	156.891	164.569	242.103	270.248	164.404	170.582	170.657	178.172	269.171	178.039	-8191	255	
8070.304	1	1	0	0	0.22974	0.13545	0.15889	0.27896	0.12768	0.20656	0.20071	0.28759	0.066522	0.14954	0.26896	0.056255	0.10295	0.12609	0.1814	0.14141	-2.2958	-1.9542	-2.5312	-2.5771	-1.9896	-2.8271	-2.2125	-2.2042	-2.8042	-2.1312	-2.6375	-2.5062	-1.9312	-2.7313	-2.4604	-2.2125	402.370	270.980	174.804	162.589	281.643	200.322	385.334	466.028	465.627	340.358	180.528	487.009	327.609	214.365	371.183	454.050	0.00036105	0.00034347	8.5465e-05	1014.4	2.8417e-06	4.29e-06	1081.7	207.09	2.743e-06	4.0307e-06	262.92	75.513	59.224	17.586	1.457e-06	24.356	0.00012603	0.00011453	3.1843e-05	971.43	1.2859e-06	1.2719e-06	1056.6	203.73	1.2949e-06	1.2676e-06	256.87	74.146	57.772	17.526	1.3006e-06	24.359	168.120	241.988	236.530	156.751	238.650	257.350	156.767	164.423	266.725	262.822	164.077	170.098	170.867	178.793	257.961	177.659	-8191	255	
8070.375	1	1	0	0	0.19395	0.044517	0.35477	0.17182	0.070803	0.35801	0.17295	0.091802	0.14866	0.086549	0.26081	0.085535	0.094109	0.42718	0.29581	0.088555	-2.425	-1.9146	-2.425	-2.5583	-1.8937	-2.6417	-2.4167	-2.0646	-2.7958	-2.0812	-2.4917	-2.6875	-2.0896	-2.7313	-2.4062	-2.2708	330.616	332.885	437.144	389.080	186.180	258.571	477.952	259.869	469.552	197.191	399.093	224.843	484.877	190.533	319.255	486.899	0.00027124	0.00014427	8.9167e-05	1004.5	4.5711e-07	3.3481e-06	1082.8	207.19	1.0282e-06	4.5979e-06	259.65	75.924	59.671	17.707	1.9441e-06	24.53	0.00012581	0.00011727	3.2301e-05	968.83	1.2853e-06	1.2383e-06	1057.5	203.22	1.308e-06	1.2528e-06	256.52	74.317	57.818	17.573	1.2804e-06	24.377	160.274	171.861	203.798	156.682	427.808	244.506	156.619	164.259	300.608	340.299	163.673	170.478	170.043	178.615	228.536	177.512	-8191	255	
8070.471	1	1	0	0	0.057224	0.14565	0.11867	0.14828	0.063949	0.010215	0.086302	0.21712	0.20976	0.13914	0.2961	0.20187	0.18289	0.11449	0.055894	0.37403	-2.1979	-2.0292	-2.3187	-2.7917	-1.8687	-2.8375	-2.6271	-2.1396	-2.525	-2.1021	-2.3417	-2.6917	-2.0083	-2.5354	-2.5229	-2.1917	289.802	462.614	187.337	224.149	296.036	247.415	407.961	383.074	229.277	279.799	218.256	213.153	158.865	211.135	483.691	311.995	0.00031447	0.00038612	1.4537e-05	1008.1	2.9331e-06	2.5906e-06	1081.1	206.12	2.4871e-06	3.072e-06	262.77	74.986	59.216	17.622	2.1216e-06	24.402	0.00012998	0.00011621	3.2934e-05	971.35	1.3032e-06	1.2482e-06	1055.8	203.32	1.2803e-06	1.2807e-06	256.2	74.168	57.673	17.566	1.2486e-06	24.323	170.963	255.839	192.959	156.899	248.751	229.002	156.888	164.407	294.258	292.515	164.310	170.536	170.925	178.424	315.242	177.810	-8191	255	
8070.567	1	1	0	0	0.14572	0.16472	0.25184	0.091342	0.11397	0.18262	0.20906	0.34442	0.14946	0.057331	0.11891	0.18286	0.29437	0.14972	0.24864	0.057404	-2.4104	-2.2792	-2.1583	-2.7938	-2.0708	-2.5187	-2.7687	-2.0146	-2.6312	-2.2125	-2.2917	-2.725	-1.9479	-2.3812	-2.6292	-2.0854	160.290	237.155	169.858	346.841	272.238	256.230	378.559	475.487	434.349	409.830	246.463	202.766	455.013	228.572	217.808	175.286	0.0003002	0.00023522	4.4365e-05	1001	2.6758e-06	9.5763e-07	1078	207.72	2.3936e-06	2.919e-06	262.4	75.154	59.236	17.663	2.9482e-06	24.49	0.00012452	0.00011366	3.2106e-05	969.88	1.2906e-06	1.241e-06	1055.3	203.6	1.2424e-06	1.2252e-06	257.13	74.052	57.474	17.542	1.2717e-06	24.311	178.617	226.185	210.795	156.905	300.309	181.258	156.846	164.312	217.540	318.711	164.423	170.142	170.977	178.424	237.118	177.661	-8191	255	
8070.686	1	1	0	0	0.099593	0.22242	0.26968	0.12838	0.24571	0.10005	0.18361	0.14423	0.18987	0.13782	0.14405	0.044903	0.084347	0.069535	0.17154	0.16696	-2.2729	-2.0646	-2.1583	-2.7542	-2.0521	-2.4938	-2.75	-2.1104	-2.6437	-2.3896	-2.0771	-2.9167	-2.1479	-2.2125	-2.7833	-2.0958	359.385	491.577	409.092	289.913	177.215	351.234	491.240	458.490	382.994	320.656	446.305	361.671	435.485	344.207	161.409	158.936	0.00036106	0.00015904	0.00011929	1000.9	1.9948e-06	1.6372e-06	1082.7	208.15	4.6651e-06	1.3477e-06	263.96	75.461	59.608	17.587	1.549e-06	24.517	0.00012357	0.00011444	3.1809e-05	970.51	1.2357e-06	1.2436e-06	1056.1	203.66	1.2215e-06	1.1973e-06	256.93	74.259	57.755	17.486	1.271e-06	24.315	172.574	212.074	211.622	157.082	220.084	263.841	156.747	164.352	289.366	280.607	164.434	170.506	171.331	178.288	340.575	177.857	-8191	255	
8070.783	1	1	0	0	0.32156	0.085363	0.2168	0.17156	0.14532	0.18236	0.11617	0.32482	0.2146	0.24247	0.11452	0.15746	0.28034	0.14517	0.015658	0.16293	-2.2687	-2.6417	-2.0833	-2.7375	-2.1521	-2.3104	-2.8937	-2.1937	-2.5333	-2.4938	-1.9813	-2.6979	-2.2	-2.1188	-2.9062	-2.1208	329.032	159.882	191.507	385.548	195.669	303.042	324.042	491.388	225.838	364.433	377.326	490.404	198.832	173.908	268.497	324.852	0.00036198	0.00027094	3.1081e-05	1014.6	2.8981e-06	3.8277e-06	1084.3	207.13	2.8653e-06	4.0123e-06	262.37	75.247	59.265	17.673	1.895e-06	24.198	0.00012229	0.00011211	3.0982e-05	972.31	1.2712e-06	1.2558e-06	1056.7	203.31	1.2286e-06	1.1695e-06	256.98	74.103	57.553	17.506	1.2398e-06	24.232	168.893	243.054	260.853	156.792	305.572	266.289	156.564	164.413	308.835	327.719	164.660	170.356	170.664	178.259	297.074	177.864	-8191	255	
8070.879	1	1	0	0	0.2347	0.056169	0.14507	0.28559	0.19022	0.36023	0.31872	0.2594	0.22647	0.20826	0.099863	0.19064	0.48979	0.098572	0.21327	0.055914	-1.9917	-2.5979	-2.0771	-2.6813	-2.1417	-2.2417	-2.8708	-2.0167	-2.3729	-2.4375	-2.0167	-2.5979	-2.3521	-2.0292	-2.7875	-2.0312	165.823	311.021	386.260	467.843	437.975	337.918	417.159	389.348	346.852	330.000	434.609	227.636	158.975	166.332	166.599	503.920	0.00033214	0.00020517	6.2732e-05	1007.3	2.9417e-06	3.8534e-06	1077.8	207.04	3.604e-06	1.7227e-06	263.15	75.29	58.686	17.577	2.4648e-06	24.291	0.0001229	0.0001124	3.15e-05	971.57	1.2241e-06	1.2729e-06	1056.2	203.15	1.2392e-06	1.2647e-06	256.87	74.073	57.648	17.516	1.2248e-06	24.273	169.648	275.908	243.025	156.675	259.340	218.745	156.877	164.260	289.018	259.846	164.157	170.300	170.632	178.330	288.204	177.979	-8191	255	
8070.975	1	1	0	0	0.16933	0.068343	0.16337	0.13997	0.26196	0.19827	0.0062263	0.23741	0.12407	0.12972	0.055717	0.30708	0.21831	0.15504	0.15485	0.027613	-2.2021	-2.6188	-2.0125	-2.6958	-2.4292	-2.0646	-2.9417	-2.1396	-2.4667	-2.8146	-2.1104	-2.7	-2.2896	-1.9771	-2.6958	-2.3104	267.216	477.166	421.727	146.722	286.754	491.415	438.794	504.208	344.730	372.364	498.794	458.388	163.423	420.459	411.048	389.683	0.00033826	0.00028225	0.00011216	1003.3	3.0393e-06	7.8459e-07	1080.1	206.32	2.9869e-06	2.2947e-06	262.28	75.55	59.107	17.513	1.2223e-06	24.539	0.00012406	0.00011287	3.1608e-05	969.4	1.2485e-06	1.2485e-06	1055.9	202.73	1.2734e-06	1.2162e-06	256.59	74.21	57.534	17.503	1.2159e-06	24.32	171.658	225.792	238.695	156.996	251.338	328.049	156.845	164.646	275.774	322.904	164.347	170.550	170.978	178.598	250.726	177.952	-8191	255	
8071.071	1	1	0	0	0.19537	0.018358	0.11214	0.14397	0.056886	0.19033	0.14121	0.10788	0.32341	0.1643	0.15391	0.18729	0.29629	0.11082	0.21622	0.05135	-1.6771	-2.6021	-2.0625	-2.4979	-2.6521	-1.8438	-2.8688	-2.2167	-2.2146	-2.8583	-2.1479	-2.5958	-2.8771	-2.0938	-2.9208	-2.2167	315.786	280.866	150.656	420.881	276.615	337.814	347.502	469.216	334.556	206.231	214.943	402.230	449.158	504.414	479.847	328.142	0.00030376	0.00042888	0.00010826	1009.8	1.3795e-06	2.2651e-06	1087	207.77	3.6477e-06	2.4297e-06	262.23	74.865	59.456	17.537	8.878e-07	24.531	0.00012494	0.00011113	3.0762e-05	969.8	1.2111e-06	1.2372e-06	1057.3	203.76	1.2485e-06	1.2271e-06	256.32	74.077	57.847	17.527	1.2259e-06	24.31	171.875	283.566	205.440	156.959	322.288	297.711	156.844	164.557	284.786	326.301	164.224	170.784	170.533	178.618	260.641	177.677	-8191	255	
8071.167	1	1	0	0	0.097561	0.13431	0.11869	0.16825	0.24179	0.23575	0.086921	0.3342	0.076863	0.14055	0.30258	0.23807	0.28152	0.15705	0.11899	0.16375	-1.8375	-2.8354	-2.0062	-2.6375	-2.6354	-2.1833	-2.9625	-2.4562	-2.1063	-2.9146	-2.0833	-2.3375	-2.6896	-2.1208	-2.6875	-2.675	322.069	177.818	480.718	478.584	173.837	392.536	185.560	419.185	239.412	491.722	470.928	164.114	176.528	297.711	152.160	392.197	0.0003024	0.00071423	6.3559e-05	1003.4	3.3752e-06	2.9613e-06	1079.4	206.6	4.2073e-06	3.763e-06	262.24	75.023	58.865	17.513	2.1722e-06	24.455	0.0001269	0.00011492	3.2128e-05	969.83	1.2471e-06	1.2524e-06	1054.4	203.05	1.292e-06	1.2518e-06	256.67	74.151	57.563	17.542	1.2465e-06	24.264	163.645	285.432	233.587	156.953	290.083	263.432	156.838	164.471	298.232	274.853	164.214	170.823	170.308	178.389	281.947	178.091	-8191	255	
8071.288	1	1	0	0	0.3194	0.20411	0.010272	0.047578	0.1428	0.31419	0.21585	0.19046	0.21346	0.17107	0.042766	0.047322	0.23446	0.087059	0.0182	0.17878	-1.6979	-2.8312	-2.1958	-2.3667	-2.875	-1.9813	-2.8646	-2.6021	-1.9417	-2.6958	-2.4042	-2.3625	-2.9	-1.9333	-2.5271	-2.6083	455.859	352.426	327.121	437.340	214.328	430.089	152.181	377.322	353.843	324.505	360.236	469.431	155.653	153.785	334.259	319.677	0.00029907	0.00034654	4.2256e-05	1000.2	5.1829e-06	2.2636e-06	1080.6	205.96	3.2934e-06	2.8335e-06	262.59	75.491	59.433	17.737	2.4491e-06	24.328	0.00012665	0.00011477	3.2104e-05	969.73	1.2985e-06	1.2739e-06	1057.2	202.79	1.3229e-06	1.274e-06	256.57	74.235	57.849	17.525	1.2741e-06	24.236	169.244	254.411	224.744	156.948	319.702	277.372	156.604	164.433	285.980	314.578	164.348	170.427	170.403	178.720	275.657	177.327	-8191	255	
8071.384	1	1	0	0	0.20665	0.11554	0.13604	0.20322	0.18188	0.31344	0.156	0.19998	0.19265	0.22074	0.18837	0.47246	0.15882	0.17712	0.042389	0.056797	-1.6292	-2.75	-2.3958	-2.1958	-2.7687	-2.1833	-2.5563	-2.5667	-1.9354	-2.8854	-2.4354	-2.3688	-2.7167	-2.1188	-2.5062	-2.6667	341.516	250.439	476.789	345.361	411.043	469.353	229.636	151.744	347.486	162.806	232.574	427.830	411.547	477.680	199.812	434.659	0.00030465	9.9194e-05	5.9165e-05	997.12	2.0719e-06	3.2606e-06	1079.7	207.17	3.3277e-06	2.8006e-06	261.34	74.914	58.645	17.643	2.8154e-06	24.424	0.0001281	0.00011722	3.2677e-05	968	1.2998e-06	1.242e-06	1055.9	203.08	1.3038e-06	1.293e-06	256.58	74.134	57.591	17.507	1.292e-06	24.273	164.726	151.328	260.861	157.038	336.296	252.875	156.866	164.391	289.499	248.235	163.846	170.529	170.562	178.156	238.269	177.512	-8191	255	
8071.480	1	1	0	0	0.15576	0.16725	0.12289	0.072754	0.12538	0.048552	0.27718	0.20227	0.1284	0.19353	0.023979	0.23947	0.18956	0.32723	0.23289	0.14753	-1.5958	-2.8312	-2.4208	-2.2625	-2.6854	-2.1125	-2.525	-2.7021	-2.0896	-2.7	-2.4604	-2.05	-2.9125	-2.2125	-2.3375	-2.8354	381.093	294.618	229.275	470.278	487.541	388.166	433.583	450.006	195.663	429.298	437.133	376.096	166.009	494.078	468.602	478.980	0.00032871	0.00020969	1.9997e-05	997.84	2.4814e-06	6.3385e-07	1081.7	206.83	2.3546e-06	2.7511e-06	260.2	74.328	59.457	17.539	1.7138e-06	24.324	0.00012889	0.00011621	3.3017e-05	968.93	1.2652e-06	1.263e-06	1056.6	203.21	1.3309e-06	1.2807e-06	256.33	73.877	57.652	17.512	1.3006e-06	24.288	170.538	289.469	297.414	157.191	267.818	246.088	156.779	164.434	302.797	207.072	164.335	170.430	171.072	178.451	277.042	177.601	-8191	255	
8071.576	1	1	0	0	0.028737	0.059283	0.3156	0.15794	0.33206	0.32436	0.16929	0.11013	0.11054	0.063649	0.18297	0.22044	0.01867	0.072696	0.20407	0.1676	-1.5917	-2.6792	-2.3937	-2.0583	-2.8646	-2.2333	-2.3833	-2.7542	-1.9417	-2.4833	-2.6813	-1.9833	-2.7167	-2.2583	-2.2083	-2.8875	483.647	395.094	446.913	315.359	339.039	504.196	436.154	401.292	187.646	213.423	505.904	495.985	336.830	423.790	410.818	465.101	0.00031404	0.00031582	6.1811e-05	998.85	1.9243e-06	3.5777e-06	1076.4	206.05	4.0779e-06	1.7872e-06	261.93	75.206	58.732	17.586	1.1107e-06	24.224	0.00012749	0.00011467	3.3302e-05	969.3	1.2976e-06	1.3043e-06	1054.1	202.97	1.3095e-06	1.2556e-06	256.67	74.02	57.56	17.466	1.2843e-06	24.257	166.635	291.313	252.307	156.771	235.183	294.805	157.027	164.436	294.856	198.066	164.443	170.842	170.580	178.505	362.336	177.751	-8191	255	
8071.672	1	1	0	0	0.13022	0.23714	0.12171	0.13562	0.10544	0.21105	0.25419	0.098341	0.12663	0.24818	0.019054	0.21169	0.1587	0.19773	0.10642	0.082863	-1.8188	-2.6312	-2.7458	-1.9792	-2.7958	-2.4062	-2.3104	-2.8021	-2.3125	-2.5938	-2.6542	-2.1437	-2.7396	-2.3875	-2.0438	-2.9646	238.165	258.517	211.978	468.618	330.202	468.003	470.689	147.155	193.051	178.557	405.062	276.440	404.289	420.530	363.244	355.717	0.00028912	0.00017017	0.00010334	1011.5	2.7386e-06	1.7512e-06	1079	206.79	3.9953e-06	3.2005e-06	263.61	75.285	59.332	17.513	2.1173e-06	24.461	0.0001285	0.00011594	3.2438e-05	971.41	1.282e-06	1.2845e-06	1054.8	203.11	1.3373e-06	1.294e-06	256.48	74.177	57.688	17.479	1.331e-06	24.339	165.769	204.182	223.786	156.946	245.997	254.472	156.917	164.652	278.770	241.609	164.247	169.968	171.039	178.594	285.264	177.891	-8191	255	
8071.767	1	1	0	0	0.075201	0.1233	0.072869	0.10631	0.1899	0.18246	0.29039	0.0085327	0.23424	0.042471	0.28001	0.10426	0.22377	0.1237	0.1439	0.15598	-1.3792	-2.3583	-2.5396	-1.9667	-2.7146	-2.4479	-2.2229	-2.8271	-2.1979	-2.3333	-2.6708	-2.1188	-2.6521	-2.4708	-2.1167	-2.9083	168.344	336.837	398.454	412.083	283.979	490.032	413.457	361.443	310.722	240.653	498.470	227.728	175.526	207.153	439.193	269.736	0.00032458	0.00058916	0.00010823	1009.3	1.4151e-06	1.7149e-06	1078.1	207.28	2.2231e-06	2.6429e-06	260.81	75.633	59.186	17.665	2.8069e-06	24.371	0.00012823	0.00012168	3.3292e-05	968.47	1.3281e-06	1.2785e-06	1054.2	203.15	1.3194e-06	1.3067e-06	256.42	74.063	57.727	17.517	1.3141e-06	24.252	163.449	242.506	214.489	156.922	252.228	247.789	156.783	164.159	295.508	246.950	164.095	170.295	170.578	178.414	249.425	177.758	-8191	255	
8071.865	1	1	0	0	0.090268	0.10343	0.15699	0.11893	0.062075	0.1347	0.15763	0.020006	0.095428	0.024684	0.22262	0.2718	0.0035713	0.17942	0.1433	0.19368	-1.7833	-2.0979	-2.825	-2.2333	-2.4979	-2.6125	-2.1625	-2.8937	-2.1292	-2.2667	-2.7854	-2.1646	-2.575	-2.5938	-2.0396	-2.8042	254.949	295.072	501.728	287.857	284.485	167.092	418.379	154.539	476.069	279.506	238.591	148.258	164.050	206.771	412.371	380.883	0.00031808	0.00018413	0.00010037	995.63	2.3742e-06	3.5341e-06	1079.4	208.1	2.8989e-06	2.3199e-06	263.53	75.639	59.398	17.726	2.4774e-06	24.437	0.0001294	0.00011937	3.217e-05	966.48	1.3043e-06	1.3088e-06	1053.4	203.27	1.2982e-06	1.2885e-06	256.4	74.226	57.667	17.498	1.2838e-06	24.362	168.547	482.525	242.739	157.211	217.522	264.820	156.894	164.425	311.973	251.227	163.660	170.270	170.615	178.106	257.340	177.645	-8191	255	
8071.984	1	1	0	0	0.14076	0.30487	0.059943	0.24687	0.32062	0.22416	0.33671	0.28305	0.0601	0.11048	0.16412	0.26652	0.12409	0.014532	0.21946	0.16294	-1.8896	-2.1271	-2.8125	-2.2333	-2.525	-2.5333	-2.2375	-2.6813	-2.3021	-2.3563	-2.8958	-2.1021	-2.4042	-2.6917	-2.0333	-2.5833	488.753	353.307	173.724	422.067	174.161	387.479	454.814	430.055	234.845	196.382	207.318	481.406	152.202	382.664	361.804	158.847	0.00029897	0.0002962	5.7962e-05	1006.7	1.9965e-06	1.0768e-06	1084.5	207.81	4.5211e-06	4.7324e-06	261.94	75.594	59.184	17.609	3.7147e-07	24.492	0.00012446	0.0001166	3.2373e-05	966.14	1.2495e-06	1.2608e-06	1055.2	203.06	1.277e-06	1.2676e-06	256.38	74.199	57.799	17.518	1.2428e-06	24.276	178.500	268.443	250.246	156.770	272.086	158.802	156.791	164.335	257.451	292.853	164.163	170.315	170.491	178.338	331.533	178.296	-8191	255	
8072.080	1	1	0	0	0.12718	0.2028	0.14276	0.15924	0.22757	0.21429	0.29154	0.053049	0.16335	0.28465	0.32013	0.032956	0.23486	0.15666	0.11109	0.11901	-1.9312	-2.0708	-2.8667	-2.3729	-2.2562	-2.8438	-2.1771	-2.5062	-2.4479	-1.9708	-2.7521	-2.2562	-2.1667	-2.9333	-2.1125	-2.7667	407.763	182.984	497.110	468.647	498.733	210.976	406.215	182.831	423.395	256.779	329.566	227.113	504.312	264.358	461.609	210.804	0.0003321	0.00038703	0.00012232	1002.6	2.9544e-06	2.5911e-06	1088.8	207.42	3.0826e-06	1.6681e-06	263.19	74.986	59.569	17.725	4.058e-06	24.5	0.00012477	0.00011503	3.0933e-05	967.39	1.2878e-06	1.2603e-06	1056.2	203.51	1.2587e-06	1.2684e-06	256.57	74.164	57.686	17.519	1.2856e-06	24.291	167.171	255.254	208.318	156.724	321.716	288.038	156.870	164.845	238.125	328.478	164.195	170.396	170.673	178.429	252.130	177.703	-8191	255	
8072.176	1	1	0	0	0.26481	0.091647	0.068365	0.26808	0.27686	0.16259	0.14408	0.16044	0.20567	0.19249	0.25356	0.10226	0.18201	0.098693	0.15489	0.2061	-2.1479	-2.0062	-2.8229	-2.375	-2.0854	-2.9333	-2.0979	-2.6604	-2.6875	-2.0083	-2.8167	-2.3458	-2.05	-2.6417	-1.9813	-2.625	215.784	347.245	376.230	433.026	232.972	198.648	480.686	368.175	306.534	368.973	154.247	312.928	259.435	287.391	419.263	408.989	0.00031648	0.00023824	8.8878e-05	1007	2.4812e-06	2.9513e-07	1095.3	208.15	2.7958e-06	2.5177e-06	263.85	75.355	59.644	17.762	1.8272e-06	24.688	0.00012623	0.00012009	3.1595e-05	971.5	1.3192e-06	1.2459e-06	1061.1	203.43	1.2664e-06	1.2728e-06	256.95	74.025	57.606	17.566	1.2019e-06	24.413	167.394	242.104	212.809	156.202	283.351	464.873	156.657	164.283	259.427	286.711	163.837	169.924	170.381	177.840	311.067	177.421	-8191	255	
8072.248	1	1	0	0	0.23488	0.01609	0.083336	0.13321	0.16158	0.26103	0.48516	0.1956	0.18126	0.31386	0.044011	0.37813	0.28097	0.062983	0.093716	0.035621	-2.3063	-1.9708	-2.6458	-2.4771	-2.0083	-2.8229	-2.3542	-2.3792	-2.5875	-2.0021	-2.6625	-2.3563	-1.95	-2.5792	-2.0687	-2.2208	468.232	340.620	438.686	175.594	271.814	286.884	453.010	163.712	313.946	426.527	234.874	162.807	483.005	341.502	376.179	365.445	0.00033405	0.00020937	9.3767e-05	1013.8	4.0393e-06	4.1399e-06	1091.8	209.49	3.06e-06	4.3084e-06	264.87	75.239	59.551	17.816	3.4698e-06	24.551	0.00012265	0.00010929	2.9671e-05	972.43	1.2052e-06	1.1519e-06	1058.1	203.6	1.1875e-06	1.1945e-06	256.69	74.001	57.794	17.616	1.2144e-06	24.278	166.049	193.391	175.175	156.105	302.002	274.732	156.626	164.315	271.362	311.664	163.928	169.581	170.783	178.285	246.484	177.164	-8191	255	
8072.368	1	1	0	0	0.12549	0.14347	0.21073	0.11949	0.12135	0.11796	0.31846	0.069947	0.042824	0.15121	0.23812	0.1779	0.13072	0.20319	0.31979	0.057696	-2.5021	-2.0583	-2.5979	-2.6854	-1.9958	-2.8458	-2.4354	-2.3125	-2.6979	-2.0729	-2.4646	-2.6958	-2.0354	-2.7438	-2.2271	-2.1979	173.256	172.320	180.917	399.527	179.921	153.760	438.943	430.224	336.272	444.257	421.354	378.532	502.631	168.318	445.004	237.559	0.00035369	3.2018e-05	6.6855e-05	1018	2.6136e-06	3.4185e-06	1086.9	209.47	3.9874e-06	2.7752e-06	264.92	75.959	59.633	17.819	2.631e-06	24.538	0.00012051	0.00011147	3.0025e-05	971.95	1.2421e-06	1.1649e-06	1058.3	203.18	1.2493e-06	1.24e-06	257.26	74.353	57.81	17.538	1.2401e-06	24.322	170.889	235.963	311.495	156.544	274.976	284.564	156.465	163.841	254.815	288.926	164.022	170.055	170.740	178.520	257.227	177.658	-8191	255	
8072.464	1	1	0	0	0.19702	0.22842	0.20389	0.21983	0.16146	0.11445	0.19655	0.38116	0.12074	0.20112	0.15241	0.051237	0.32401	0.13437	0.20299	0.36826	-2.3979	-2.2146	-2.3167	-2.7729	-2.0771	-2.5938	-2.5042	-2.0917	-2.7687	-2.0792	-2.4313	-2.6021	-1.8563	-2.7208	-2.425	-2.0208	419.106	180.686	356.162	427.360	275.570	265.442	203.558	418.647	445.839	495.625	450.444	437.980	213.421	368.989	470.903	174.234	0.00033038	3.7892e-05	8.3795e-05	1018.1	9.7326e-07	5.0247e-06	1089.1	209.21	2.0568e-06	2.8353e-06	264.94	75.853	59.129	17.697	1.811e-06	24.636	0.00012177	0.00011003	2.9685e-05	972.67	1.2645e-06	1.2179e-06	1057.3	203.61	1.2429e-06	1.242e-06	256.95	74.327	57.537	17.564	1.2529e-06	24.372	167.981	175.815	241.797	156.393	299.710	245.109	156.680	164.120	271.076	250.176	163.898	170.074	170.649	177.725	351.114	177.541	-8191	255	
8072.560	1	1	0	0	0.25854	0.3433	0.31559	0.1682	0.10134	0.11382	0.51176	0.13471	0.22498	0.094776	0.25945	0.20191	0.13798	0.10303	0.26626	0.081171	-2.35	-2.1104	-2.3167	-2.9938	-1.9958	-2.5729	-2.6937	-2.025	-2.8125	-2.2875	-2.35	-2.8292	-1.9604	-2.7812	-2.525	-2.05	165.475	227.075	391.616	500.068	405.417	298.836	454.256	164.335	157.393	427.770	380.176	330.067	263.969	453.410	359.807	456.242	0.00032425	0.00027946	5.1434e-05	1015.4	1.5804e-06	3.6133e-06	1086.5	208.62	3.6307e-06	2.5575e-06	265.65	75.894	60.029	17.885	3.9737e-06	24.504	0.00012112	0.00010931	3.1116e-05	972.01	1.2328e-06	1.1736e-06	1057	203.24	1.2433e-06	1.1992e-06	256.89	74.26	57.744	17.637	1.1883e-06	24.317	166.752	213.910	342.210	156.617	288.005	305.583	156.740	164.337	264.741	266.548	164.166	170.219	170.414	178.567	327.965	177.570	-8191	255	
8072.657	1	1	0	0	0.14629	0.17776	0.27109	0.19888	0.1386	0.18264	0.16609	0.13355	0.11477	0.11283	0.27242	0.11257	0.11804	0.11364	0.085805	0.27115	-2.3625	-2.1562	-2.2	-2.8	-2.0438	-2.5333	-2.7125	-1.9458	-2.8208	-2.35	-2.2	-2.8812	-2.125	-2.5021	-2.7521	-2.0354	239.730	420.530	169.046	421.877	414.379	273.052	431.908	483.506	444.504	300.727	489.027	435.093	434.381	345.446	282.424	281.549	0.00035805	0.00022316	0.00016009	1013.8	2.6985e-06	2.261e-06	1086.8	210.36	1.6417e-06	2.1918e-06	265.02	75.767	59.802	17.789	1.7607e-06	24.399	0.00012243	0.00010943	3.0143e-05	973.18	1.233e-06	1.2314e-06	1058.1	203.82	1.1656e-06	1.17e-06	256.83	74.118	57.661	17.495	1.1529e-06	24.286	174.191	176.791	252.269	156.587	231.231	193.246	156.814	164.413	281.481	306.333	163.707	170.240	170.161	178.176	233.774	177.996	-8191	255	
8072.777	1	1	0	0	0.10367	0.21448	0.18942	0.1307	0.37027	0.14212	0.18564	0.25571	0.16241	0.076195	0.14905	0.17719	0.15763	0.184	0.21818	0.14947	-2.2396	-2.4229	-2.1125	-2.8333	-2.2313	-2.275	-2.9688	-1.9771	-2.6333	-2.3771	-2.0229	-2.8187	-2.2271	-2.3792	-2.8063	-2.0146	238.579	182.658	156.033	322.157	303.002	403.934	156.533	471.623	331.154	236.630	159.489	163.639	488.347	468.630	261.797	451.919	0.00036196	8.1417e-05	3.1243e-05	1005.8	1.8208e-06	2.7574e-06	1079.5	207.24	1.2661e-06	2.3205e-06	265.35	76.128	60.164	17.641	1.9113e-06	24.597	0.00011614	0.00010276	3.0183e-05	969.42	1.1621e-06	1.1496e-06	1055	202.98	1.1961e-06	1.1597e-06	257.16	74.178	57.722	17.482	1.1627e-06	24.346	172.195	162.646	280.280	156.956	357.763	264.142	156.803	164.750	418.747	323.490	164.093	170.091	170.600	178.957	270.962	177.714	-8191	255	
8072.872	1	1	0	0	0.09259	0.12563	0.11998	0.22268	0.039167	0.06359	0.29355	0.25541	0.35411	0.22788	0.12332	0.074902	0.16113	0.080237	0.10037	0.083314	-2.1396	-2.45	-1.9792	-2.9208	-2.3854	-2.225	-2.9583	-2.0896	-2.5979	-2.6	-2.2542	-2.5646	-2.2583	-2.0312	-2.9542	-2.1708	247.796	459.049	214.987	306.308	339.047	198.592	421.780	400.900	324.693	488.310	336.265	164.262	263.812	231.228	224.318	383.562	0.00031008	0.00020253	5.5221e-05	1010.9	1.2486e-06	2.7025e-06	1083.8	209.56	2.907e-06	3.4777e-06	262.54	75.67	59.24	17.527	2.2232e-06	24.472	0.00012075	0.0001102	3.1788e-05	973.65	1.2877e-06	1.2735e-06	1056.8	203.65	1.2991e-06	1.2702e-06	256.66	74.108	57.624	17.475	1.3376e-06	24.327	177.634	205.494	237.533	157.104	274.758	202.977	156.502	163.929	316.169	292.203	164.308	170.367	170.782	178.799	247.810	177.623	-8191	255	
8072.968	1	1	0	0	0.20321	0.1617	0.18965	0.21516	0.15846	0.15712	0.21646	0.251	0.060546	0.15291	0.09965	0.19213	0.13387	0.1371	0.18814	0.19366	-2.1104	-2.6458	-2.0458	-2.9333	-2.3229	-2.2646	-3.0958	-2.0958	-2.3312	-2.6312	-2.1292	-2.9146	-2.5604	-2.2354	-2.8583	-2.2208	253.032	450.647	327.032	462.485	201.880	387.122	446.291	495.080	152.903	183.288	203.665	304.811	400.696	166.082	149.237	474.359	0.00037906	0.00031616	5.6841e-05	1019.1	2.1148e-06	8.2634e-07	1086.1	208.52	2.0686e-06	3.9589e-06	263	75.85	59.46	17.645	1.7644e-06	24.622	0.00013505	0.00012133	3.4071e-05	974.54	1.341e-06	1.318e-06	1059.6	203.38	1.3414e-06	1.3221e-06	256.5	74.377	57.653	17.507	1.2781e-06	24.33	177.381	252.292	183.556	156.454	273.218	350.957	156.840	164.499	225.433	278.903	163.754	170.222	170.925	178.279	282.263	178.183	-8191	255	
8073.064	1	1	0	0	0.12339	0.22517	0.27557	0.070439	0.25821	0.06335	0.18279	0.095485	0.13769	0.041421	0.08592	0.23565	0.098778	0.28603	0.37696	0.27648	-2.025	-2.6125	-1.9229	-2.7812	-2.3896	-2.1958	-2.9854	-2.1979	-2.3625	-2.7208	-2.1604	-2.4083	-2.4646	-2.2521	-2.8167	-2.3771	361.836	196.254	287.910	275.718	435.552	466.573	153.843	368.085	482.743	179.922	408.640	499.739	338.248	261.482	190.682	173.563	0.00033071	0.0002048	0.00012334	1021.2	2.3712e-06	1.715e-06	1082.7	208.48	1.7856e-06	2.4085e-06	266.09	76.357	59.889	17.839	1.6871e-06	24.59	0.00012767	0.00011762	3.2436e-05	974.61	1.2917e-06	1.2605e-06	1058.1	203.78	1.2979e-06	1.2468e-06	257.75	74.32	57.79	17.575	1.2328e-06	24.378	169.474	300.754	245.555	156.862	263.887	267.825	156.881	164.401	264.349	314.624	164.169	170.501	170.559	178.125	315.447	177.348	-8191	255	
8073.160	1	1	0	0	0.098987	0.11974	0.11631	0.13665	0.43009	0.15907	0.22614	0.26299	0.19503	0.18356	0.17122	0.13814	0.12327	0.047999	0.19854	0.3626	-2.0958	-2.8167	-2.1417	-2.6104	-2.6083	-1.9979	-3.0958	-2.4396	-2.0833	-2.8208	-2.1896	-2.6271	-2.7188	-1.8542	-2.6146	-2.4208	256.955	479.831	472.617	402.791	477.257	167.160	415.062	296.851	247.736	245.938	382.933	347.230	495.955	171.675	382.325	294.780	0.00030225	0.00019041	5.3897e-05	1014.1	2.7705e-06	2.5003e-06	1089.3	209.99	3.6681e-06	1.0154e-06	265.11	75.745	60.555	17.752	2.6068e-06	24.608	0.00012636	0.00011034	3.1313e-05	973.35	1.2273e-06	1.1783e-06	1057.8	203.92	1.2471e-06	1.1657e-06	257.25	74.275	58.064	17.512	1.1868e-06	24.241	162.762	230.239	248.784	157.092	304.419	269.748	156.493	163.943	271.263	307.478	163.653	170.451	170.315	178.736	245.626	177.369	-8191	255	
8073.256	1	1	0	0	0.09151	0.20652	0.12155	0.28173	0.18088	0.012404	0.075725	0.16326	0.052419	0.15217	0.37026	0.043601	0.041057	0.31846	0.17429	0.27425	-1.6083	-2.6542	-2.0292	-2.3896	-2.7062	-1.9833	-3.0021	-2.5146	-2.0875	-2.6	-2.1458	-2.2917	-2.7792	-2.0292	-2.7729	-2.35	197.600	343.387	320.761	373.672	239.419	177.724	287.569	405.367	159.498	360.082	442.603	225.649	350.917	153.105	177.309	487.362	0.00034517	0.00021769	4.6621e-05	1016.9	1.0437e-06	2.3378e-06	1090.9	207.35	3.5029e-06	5.0421e-06	264.35	76.021	59.455	17.844	1.7276e-06	24.457	0.00011792	0.00010438	3.0276e-05	973.17	1.1677e-06	1.1479e-06	1056.8	202.78	1.154e-06	1.1276e-06	256.7	74.288	57.614	17.534	1.1208e-06	24.26	174.790	269.272	213.409	157.005	192.305	259.873	156.821	164.418	275.764	307.572	163.865	170.341	170.414	178.679	340.043	177.482	-8191	255	
8073.377	1	1	0	0	0.11468	0.20461	0.14298	0.25458	0.15112	0.16851	0.54832	0.32345	0.28007	0.047649	0.40687	0.10562	0.26168	0.1159	0.19089	0.077925	-1.6833	-2.6083	-2.1646	-2.2583	-2.7396	-1.9771	-2.75	-2.6021	-2.0042	-2.6437	-2.1688	-2.1646	-2.8417	-2.0854	-2.4792	-2.3625	482.828	447.146	286.095	420.804	482.734	447.628	440.425	432.930	435.587	384.843	382.686	253.384	504.525	388.880	343.307	428.065	0.0003583	0.00030724	3.8748e-05	1017.9	4.0351e-06	3.9032e-06	1095.5	208.74	2.4532e-06	1.9178e-06	264.13	75.771	59.807	17.758	3.0746e-06	24.559	0.00011382	0.00010106	2.8865e-05	969.99	1.1147e-06	1.0971e-06	1057	203.36	1.1591e-06	1.0847e-06	256.77	74.083	57.648	17.486	1.1151e-06	24.277	168.531	253.000	210.395	156.433	293.572	279.072	156.792	164.253	276.832	292.373	164.007	170.659	170.164	178.546	251.677	177.796	-8191	255	
8073.473	1	1	0	0	0.1116	0.080039	0.12552	0.11319	0.1733	0.2616	0.31262	0.13875	0.062857	0.12987	0.0065588	0.18562	0.092644	0.2187	0.20916	0.0085025	-1.5958	-2.9417	-2.3042	-2.2271	-2.8812	-2.0583	-2.5708	-2.7854	-1.975	-2.8688	-2.2812	-2.1562	-2.8625	-2.1375	-2.4458	-2.8083	440.227	410.110	389.132	359.202	213.665	437.498	364.939	476.866	154.120	359.122	241.234	469.122	296.670	483.016	343.465	367.714	0.00031219	0.00029775	5.3196e-05	1007.1	1.4173e-06	1.3215e-06	1083.9	208.78	3.0764e-06	1.9761e-06	264.98	76.214	59.637	17.696	1.0689e-06	24.507	0.00011408	0.00010106	2.8432e-05	966.4	1.1293e-06	1.1094e-06	1054.2	202.76	1.1375e-06	1.0702e-06	256.02	74.359	57.559	17.529	1.1394e-06	24.249	173.527	213.973	263.097	156.479	287.232	279.762	156.819	164.598	284.936	349.657	164.137	170.212	170.463	178.203	318.779	177.207	-8191	255	
8073.545	1	1	0	0	0.053679	0.19273	0.18214	0.13537	0.037961	0.28961	0.12261	0.073463	0.20951	0.13902	0.08717	0.12793	0.13335	0.2381	0.065671	0.10227	-1.5896	-2.7708	-2.4896	-2.1354	-2.6479	-2.175	-2.5187	-2.7083	-1.8271	-2.7021	-2.6729	-2.0833	-2.85	-2.2229	-2.2417	-2.7917	489.124	278.097	398.505	151.597	423.100	439.369	461.248	436.091	344.485	173.434	291.172	244.777	242.585	408.883	267.749	457.293	0.00030767	0.00023299	5.5124e-05	1007.9	1.8713e-06	1.195e-06	1087.8	208.1	1.9423e-06	2.4222e-06	261.9	75.448	59.797	17.735	4.1351e-06	24.512	0.00011439	0.00010383	2.8793e-05	968.34	1.1423e-06	1.132e-06	1055.9	203.08	1.1884e-06	1.1299e-06	255.3	74.095	57.647	17.476	1.1668e-06	24.33	170.576	267.152	221.965	157.158	287.140	286.780	156.609	164.228	230.340	301.615	163.624	169.721	170.310	178.033	251.763	177.298	-8191	255	
8073.665	1	1	0	0	0.28452	0.44048	0.039097	0.10171	0.21931	0.1444	0.36674	0.32191	0.21741	0.33431	0.1881	0.34595	0.056165	0.25584	0.32522	0.27693	-1.6021	-2.6083	-2.5292	-1.8833	-2.7875	-2.3354	-2.3667	-2.8667	-2.1	-2.4938	-2.7438	-1.9896	-2.8063	-2.3375	-1.9854	-2.8187	453.450	195.522	422.912	327.387	423.699	431.334	467.518	162.520	334.117	399.508	192.713	168.991	219.223	200.230	272.272	466.514	0.00031006	0.00031379	8.9055e-05	1007.9	1.6222e-06	2.9693e-06	1091.2	209.45	1.9849e-06	2.2466e-06	263.8	76.049	59.269	17.664	6.2168e-07	24.526	0.00011585	0.00010217	2.9556e-05	967.13	1.1498e-06	1.1275e-06	1057.3	203.47	1.1606e-06	1.1442e-06	255.7	74.225	57.49	17.475	1.1235e-06	24.21	164.426	217.123	251.768	156.789	263.309	303.335	156.578	163.831	280.874	350.111	164.018	170.057	170.229	178.154	250.858	177.296	-8191	255	
8073.760	1	1	0	0	0.28239	0.11619	0.23501	0.16726	0.10323	0.089749	0.2829	0.21757	0.10794	0.1465	0.12549	0.4242	0.13931	0.37241	0.11161	0.12845	-1.7375	-2.4458	-2.7333	-1.9646	-2.6604	-2.4562	-2.1833	-2.7771	-1.9708	-2.2979	-2.6479	-2.1083	-2.7042	-2.3354	-2.1937	-2.8896	475.544	154.526	471.937	442.367	446.553	404.741	441.475	303.649	241.154	319.507	147.644	178.139	451.714	442.019	456.195	430.002	0.00036438	0.00019001	7.4665e-05	1012.1	1.4599e-06	3.1843e-06	1085.5	209.16	2.8102e-06	2.9112e-06	264.97	75.827	59.78	17.707	1.9182e-06	24.767	0.00011827	0.00010498	2.9017e-05	969.08	1.1621e-06	1.1151e-06	1054.6	203.49	1.1526e-06	1.1415e-06	256.64	74.036	57.582	17.519	1.154e-06	24.383	174.758	214.980	205.242	156.803	243.888	261.577	156.946	164.573	293.557	304.551	163.612	170.441	169.935	178.548	348.388	176.912	-8191	255	
8073.856	1	1	0	0	0.099958	0.017025	0.38795	0.19784	0.20602	0.29459	0.28465	0.28504	0.11993	0.18864	0.21035	0.22228	0.11219	0.23853	0.17745	0.24214	-1.7687	-2.1917	-2.7438	-2.1875	-2.5396	-2.5104	-2.1312	-2.9354	-2.3542	-2.1	-2.7729	-2.1708	-2.5167	-2.5229	-2.0687	-2.6646	448.717	480.343	475.931	453.182	335.083	351.498	490.928	280.804	347.934	445.834	434.372	275.357	503.685	497.622	487.959	445.751	0.00034915	0.00027601	0.00011346	1006.4	3.9168e-06	1.9932e-06	1087.8	208.68	3.5307e-06	2.1146e-06	265.32	75.848	59.917	17.701	2.7656e-06	24.615	0.00011583	0.00010608	2.9499e-05	970.01	1.173e-06	1.1035e-06	1055.6	203.26	1.1781e-06	1.1409e-06	256.04	74.266	57.477	17.465	1.1397e-06	24.287	168.673	208.957	252.955	156.371	270.743	248.902	156.332	164.070	229.738	338.356	163.520	169.803	170.055	178.031	243.038	177.024	-8191	255	
8073.952	1	1	0	0	0.26651	0.20788	0.17558	0.14694	0.06528	0.27596	0.18449	0.30043	0.12517	0.10553	0.1585	0.31871	0.15769	0.22288	0.20565	0.11211	-1.9625	-2.1437	-2.8417	-2.1271	-2.4125	-2.6125	-2.2021	-2.725	-2.4062	-2.2896	-2.7146	-2.0667	-2.5771	-2.7104	-1.9729	-2.6813	423.476	284.220	156.856	454.376	321.752	444.886	447.994	449.594	272.023	301.045	326.216	394.958	240.064	387.669	231.223	357.992	0.00033681	0.00013765	8.3333e-05	1010	3.2409e-06	5.1218e-06	1083.9	208.49	3.4029e-06	1.9197e-06	263.3	76.024	59.7	17.775	2.8504e-06	24.672	0.00011742	0.0001025	2.792e-05	967.9	1.1395e-06	1.1004e-06	1053.4	203.35	1.1124e-06	1.1391e-06	256.5	74.202	57.687	17.477	1.1299e-06	24.325	167.444	236.582	231.943	156.096	271.538	241.453	156.187	163.870	279.330	294.963	163.626	169.574	169.999	178.057	246.250	177.369	-8191	255	
8074.048	1	1	0	0	0.36494	0.25489	0.024718	0.1359	0.25798	0.072336	0.19124	0.24896	0.034134	0.067133	0.10606	0.1642	0.311	0.38626	0.31621	0.078614	-1.7604	-2.0771	-2.7938	-2.3042	-2.3083	-2.6417	-2.3	-2.7479	-2.5062	-2.2188	-2.9708	-2.3	-2.2396	-2.8896	-1.8333	-2.7396	181.823	484.347	381.513	147.604	386.392	324.474	405.992	380.588	243.052	311.686	412.075	320.942	398.460	146.314	425.635	226.321	0.0003807	0.00024311	7.1341e-05	1009.2	2.5322e-06	2.6287e-06	1085.4	208.12	3.0885e-06	3.6834e-06	263.68	75.34	59.567	17.59	4.6402e-06	24.701	0.00011857	0.00010243	2.8286e-05	967.77	1.1715e-06	1.1032e-06	1054.3	203.03	1.1549e-06	1.1167e-06	256.06	73.878	57.621	17.488	1.1253e-06	24.363	172.936	181.742	203.946	156.117	275.328	288.186	156.349	163.767	292.352	299.277	163.619	169.379	170.293	177.769	279.662	177.429	-8191	255	
8074.144	1	1	0	0	0.34313	0.12908	0.21073	0.16786	0.096186	0.19327	0.079079	0.25317	0.1769	0.07774	0.17427	0.14808	0.17734	0.0056236	0.32652	0.20335	-2.025	-1.9583	-2.8667	-2.3937	-2.1833	-2.7292	-2.1875	-2.5417	-2.5396	-1.9729	-2.625	-2.3625	-1.9312	-2.7167	-2.025	-2.3458	403.683	338.409	420.732	400.281	321.717	251.711	357.607	437.244	504.454	305.154	172.048	320.397	216.814	432.267	224.027	416.178	0.00036589	0.00015069	0.00020319	1012.6	1.9593e-06	4.6905e-06	1090	208.93	2.7479e-06	3.6909e-06	264.53	75.55	59.71	17.889	1.391e-06	24.564	0.00011599	9.8693e-05	2.8377e-05	967.37	1.1348e-06	1.0952e-06	1054.5	203.41	1.1377e-06	1.129e-06	256.54	73.923	57.612	17.523	1.1533e-06	24.272	166.801	226.572	215.190	155.974	272.080	276.274	156.211	163.488	249.545	308.081	163.377	169.651	170.053	177.976	300.467	176.776	-8191	255	
8074.240	1	1	0	0	0.03372	0.14411	0.21844	0.23188	0.17576	0.18185	0.27704	0.16628	0.12715	0.11254	0.22775	0.15747	0.23281	0.088081	0.21614	0.30049	-2.2229	-1.9896	-2.675	-2.3312	-2.0604	-2.8208	-2.2833	-2.3312	-2.5167	-1.9354	-2.7792	-2.3937	-2.0083	-2.9146	-2.0708	-2.3563	159.909	397.965	251.340	443.862	432.647	284.839	456.543	170.560	336.248	419.094	447.965	292.230	188.673	388.428	487.224	351.350	0.00029682	0.00027968	5.5314e-05	1014.3	1.6789e-06	3.6925e-06	1088.2	209.83	1.0038e-06	8.1359e-07	264.62	75.613	59.881	17.705	3.6053e-06	24.7	0.00011274	0.00010174	2.8347e-05	968.48	1.1228e-06	1.1102e-06	1054.4	203.63	1.1109e-06	1.1019e-06	256.52	74	57.72	17.52	1.1612e-06	24.324	170.244	238.681	297.732	156.083	276.838	299.506	155.986	163.769	301.399	306.625	163.579	169.576	169.871	177.918	296.304	176.833	-8191	255	
8074.337	1	1	0	0	0.021857	0.067645	0.16067	0.31363	0.10146	0.1653	0.22087	0.1466	0.1906	0.12743	0.20836	0.087408	0.063023	0.1343	0.19394	0.27278	-2.3167	-1.9396	-2.6354	-2.4792	-1.9292	-2.725	-2.3104	-2.4354	-2.6396	-2.1333	-2.6104	-2.5104	-1.8229	-2.8354	-2.3271	-2.1813	273.517	348.384	373.924	179.175	192.059	490.810	198.683	493.480	291.745	201.185	434.101	491.625	400.666	504.936	473.354	345.421	0.00035868	0.00021298	9.1458e-05	1010.1	1.0369e-06	8.6607e-07	1087.2	208.91	1.4976e-07	6.1356e-06	262.77	75.559	59.74	17.775	1.437e-06	24.586	0.00011781	0.00010536	2.8367e-05	968.16	1.1555e-06	1.0871e-06	1054.6	202.91	1.14e-06	1.1434e-06	256.1	74.034	57.541	17.523	1.1702e-06	24.31	168.839	234.852	242.791	156.293	242.149	298.085	155.982	163.620	208.763	301.549	163.349	169.502	170.027	178.232	266.382	176.968	-8191	255	
8074.457	1	1	0	0	0.058402	0.17364	0.26521	0.20352	0.0359	0.25824	0.42309	0.17891	0.28778	0.125	0.10302	0.085538	0.062818	0.1531	0.069898	0.11305	-2.2896	-1.8854	-2.3063	-2.8542	-1.8958	-2.7667	-2.4	-2.3583	-2.6688	-2.1146	-2.6312	-2.8146	-2.0979	-2.7458	-2.3375	-2.125	238.337	255.933	325.879	348.142	503.342	402.109	447.351	243.121	219.363	303.058	482.920	465.491	426.520	389.512	221.115	279.631	0.00029098	0.0002544	7.8642e-05	1009.9	3.9438e-06	2.788e-06	1084.6	208.47	1.9939e-06	3.3961e-06	263.09	75.937	59.745	17.663	2.6563e-06	24.396	0.00011528	0.0001035	2.8498e-05	968.71	1.1634e-06	1.1371e-06	1054.2	203.17	1.1732e-06	1.1532e-06	256.01	73.998	57.684	17.442	1.1403e-06	24.254	166.935	294.751	200.126	156.193	263.251	297.607	156.334	164.114	316.759	292.555	163.583	169.917	169.823	178.258	273.611	176.794	-8191	255	
8074.553	1	1	0	0	0.024825	0.19044	0.048562	0.18773	0.078543	0.011409	0.10889	0.17961	0.27329	0.10384	0.27709	0.11304	0.11799	0.15762	0.0762	0.25235	-2.4833	-2.3021	-2.3312	-2.65	-1.9562	-2.7812	-2.4104	-2.2333	-2.7188	-2.2417	-2.3438	-2.9083	-1.9833	-2.5708	-2.5729	-2.0646	277.074	426.509	305.414	155.023	249.480	332.857	376.901	446.517	356.673	247.355	479.490	198.616	380.694	424.858	240.842	471.722	0.00029352	3.2401e-05	0.00015597	1014.9	2.8177e-06	1.0454e-06	1085.3	208.95	1.1153e-06	3.1707e-06	264	75.403	59.596	17.717	2.6089e-06	24.709	0.00011368	0.00010393	2.9199e-05	970.25	1.1534e-06	1.1025e-06	1054.4	203.34	1.158e-06	1.1358e-06	255.9	74.019	57.485	17.488	1.1687e-06	24.252	174.140	180.346	232.659	155.865	269.364	150.786	156.118	163.742	243.543	330.216	163.623	169.800	170.483	178.054	280.967	177.158	-8191	255	
8074.650	1	1	0	0	0.30352	0.31177	0.28491	0.14513	0.109	0.1239	0.23288	0.13366	0.25687	0.072703	0.084869	0.063204	0.062893	0.065649	0.020837	0.19431	-2.4958	-2.125	-2.2708	-2.8792	-1.7708	-2.6458	-2.6396	-1.9667	-2.9458	-2.2417	-2.0812	-2.7562	-2.0958	-2.4021	-2.5438	-2.1792	505.020	154.364	179.372	271.110	370.677	370.770	430.005	257.322	254.117	416.654	336.834	341.172	473.013	482.360	459.781	175.879	0.00034183	0.00026833	3.405e-05	1013.3	1.4159e-06	2.5487e-06	1086.3	208.21	3.4731e-06	4.5684e-06	263.3	75.575	59.347	17.685	1.3169e-06	24.525	0.0001132	0.00010084	2.8971e-05	968.54	1.1152e-06	1.1463e-06	1053.5	202.81	1.1443e-06	1.1458e-06	256.36	74.079	57.533	17.499	1.1305e-06	24.291	177.675	218.014	261.212	156.216	282.885	281.150	156.194	163.945	280.600	279.583	164.013	169.644	170.076	177.658	199.111	177.041	-8191	255	
8074.770	1	1	0	0	0.062519	0.2006	0.19711	0.062574	0.16729	0.20931	0.30697	0.33619	0.097289	0.084484	0.17168	0.2412	0.27596	0.081744	0.12205	0.16238	-2.3292	-2.1875	-2.1312	-2.9875	-2.0333	-2.4417	-2.8438	-1.9604	-2.5812	-2.325	-2.3187	-2.8187	-2.2479	-2.5	-2.7354	-2.075	165.395	315.945	428.536	312.370	278.313	286.339	412.718	152.140	376.841	294.393	501.314	293.763	503.014	478.855	427.423	353.424	0.00034916	0.00033908	7.3118e-05	1015.6	1.6551e-06	5.4658e-07	1089	208.94	4.0916e-06	3.6416e-06	265.59	75.626	59.412	17.728	2.7578e-06	24.607	0.00011418	0.0001072	2.8306e-05	968.51	1.1374e-06	1.134e-06	1055.8	202.86	1.1608e-06	1.1243e-06	256.35	73.831	57.505	17.475	1.1412e-06	24.253	171.576	242.212	250.209	156.436	273.626	245.764	156.022	164.044	275.134	335.592	163.569	169.490	170.652	178.252	264.677	177.373	-8191	255	
8074.840	1	1	0	0	0.091023	0.15254	0.051723	0.11803	0.12692	0.024832	0.16905	0.15089	0.23873	0.11128	0.14711	0.079484	0.24776	0.16688	0.12895	0.08808	-2.3292	-2.3458	-2.1271	-2.8667	-2.1125	-2.35	-2.7625	-2.0062	-2.475	-2.4854	-2.15	-2.8375	-2.3667	-2.2021	-2.6937	-2.0792	164.930	271.398	240.905	443.664	307.626	470.785	453.864	406.128	381.664	339.478	462.022	153.237	461.398	496.300	384.505	430.093	0.00029083	6.0497e-05	0.00011033	1009.8	2.2939e-06	3.0757e-06	1086.6	206.98	1.3312e-06	3.5831e-06	264.36	75.601	59.439	17.65	2.9083e-06	24.498	0.00011602	0.0001036	2.8682e-05	967.53	1.1291e-06	1.1087e-06	1053.3	202.74	1.1606e-06	1.1278e-06	256.26	74	57.441	17.452	1.0996e-06	24.243	169.523	335.117	293.975	156.252	290.370	283.258	156.217	163.785	358.326	308.826	163.447	169.945	169.973	177.922	282.669	176.752	-8191	255	
8074.936	1	1	0	0	0.088107	0.27504	0.13186	0.26417	0.12078	0.37103	0.17649	0.096795	0.23147	0.14427	0.14862	0.25322	0.26506	0.20613	0.14679	0.16674	-2.0312	-2.4354	-2.1604	-2.8271	-2.2625	-2.0625	-2.8958	-2.2208	-2.5021	-2.6188	-2.0646	-2.6458	-2.5	-2.2125	-2.7167	-2.125	412.395	165.856	284.272	473.029	192.667	183.858	462.769	168.178	345.809	239.826	447.915	417.226	327.233	210.467	473.531	180.113	0.00033272	0.0003032	0.00011862	1005.3	3.3968e-06	9.1716e-07	1087.1	208.51	3.5772e-06	3.9867e-06	263.08	75.756	59.711	17.898	2.9348e-06	24.465	0.00011351	0.00010214	2.881e-05	966.15	1.1341e-06	1.1323e-06	1052.6	202.84	1.1419e-06	1.1002e-06	255.43	73.902	57.489	17.534	1.0928e-06	24.253	170.140	244.293	211.920	156.049	281.613	418.762	156.115	163.697	279.256	300.148	163.467	169.867	169.795	178.080	241.612	176.845	-8191	255	
#DATA ENDS
