BOXY.EXE: ISS Imagent and Oximeter Data Acquisition Program Version 0.80
Ascii Record File

#ACQ INFORMATION
2  Detector Channels 
16  External MUX Channels 
1  Auxiliary Channels 
5000  Waveform (CCF) Frequency (Hz)
1  Waveforms Skipped 
30  Waveforms Averaged 
1  Cycles Averaged 
16  Acquisitions per Waveform 
10.0806  Updata Rate (Hz) 

#FILE INFORMATION
TRUE -- External MUX Channel results are PARSED.
FALSE -- AC DC and Phase are NOT grouped.
TRUE -- Companion Program Settings File CREATED.
FALSE -- AC data not excluded
FALSE -- DC data not excluded
FALSE -- Phase data not excluded
FALSE -- Auxillary Chn. data not excluded
Tab delimiters

#CALIBRATION STATE
TRUE -- Waveform Calibration Values APPLIED.


#AUX CALIBRATION VALUES
Val Type	aux-1	

Term	1.0000e+00	
Factor	0.0000e+00	


#WF CALIBRATION VALUES
A = Detector Channel
Val Type	A-AC1	A-AC2	A-AC3	A-AC4	A-AC5	A-AC6	A-AC7	A-AC8	A-AC9	A-AC10	A-AC11	A-AC12	A-AC13	A-AC14	A-AC15	A-AC16	A-DC1	A-DC2	A-DC3	A-DC4	A-DC5	A-DC6	A-DC7	A-DC8	A-DC9	A-DC10	A-DC11	A-DC12	A-DC13	A-DC14	A-DC15	A-DC16	A-Ph1	A-Ph2	A-Ph3	A-Ph4	A-Ph5	A-Ph6	A-Ph7	A-Ph8	A-Ph9	A-Ph10	A-Ph11	A-Ph12	A-Ph13	A-Ph14	A-Ph15	A-Ph16	

Term	0.00000e+00	0.00000e+00	0.00000e+00	0.00000e+00	0.00000e+00	0.00000e+00	0.00000e+00	0.00000e+00	0.00000e+00	0.00000e+00	0.00000e+00	0.00000e+00	0.00000e+00	0.00000e+00	0.00000e+00	0.00000e+00	0.00000e+00	0.00000e+00	0.00000e+00	0.00000e+00	0.00000e+00	0.00000e+00	0.00000e+00	0.00000e+00	0.00000e+00	0.00000e+00	0.00000e+00	0.00000e+00	0.00000e+00	0.00000e+00	0.00000e+00	0.00000e+00	0.00000e+00	0.00000e+00	0.00000e+00	0.00000e+00	0.00000e+00	0.00000e+00	0.00000e+00	0.00000e+00	0.00000e+00	0.00000e+00	0.00000e+00	0.00000e+00	0.00000e+00	0.00000e+00	0.00000e+00	0.00000e+00	
Factor	1.00000e+00	1.00000e+00	1.00000e+00	1.00000e+00	1.00000e+00	1.00000e+00	1.00000e+00	1.00000e+00	1.00000e+00	1.00000e+00	1.00000e+00	1.00000e+00	1.00000e+00	1.00000e+00	1.00000e+00	1.00000e+00	1.00000e+00	1.00000e+00	1.00000e+00	1.00000e+00	1.00000e+00	1.00000e+00	1.00000e+00	1.00000e+00	1.00000e+00	1.00000e+00	1.00000e+00	1.00000e+00	1.00000e+00	1.00000e+00	1.00000e+00	1.00000e+00	X	X	X	X	X	X	X	X	X	X	X	X	X	X	X	X	

B = Detector Channel
Val Type	B-AC1	B-AC2	B-AC3	B-AC4	B-AC5	B-AC6	B-AC7	B-AC8	B-AC9	B-AC10	B-AC11	B-AC12	B-AC13	B-AC14	B-AC15	B-AC16	B-DC1	B-DC2	B-DC3	B-DC4	B-DC5	B-DC6	B-DC7	B-DC8	B-DC9	B-DC10	B-DC11	B-DC12	B-DC13	B-DC14	B-DC15	B-DC16	B-Ph1	B-Ph2	B-Ph3	B-Ph4	B-Ph5	B-Ph6	B-Ph7	B-Ph8	B-Ph9	B-Ph10	B-Ph11	B-Ph12	B-Ph13	B-Ph14	B-Ph15	B-Ph16	

Term	0.00000e+00	0.00000e+00	0.00000e+00	0.00000e+00	0.00000e+00	0.00000e+00	0.00000e+00	0.00000e+00	0.00000e+00	0.00000e+00	0.00000e+00	0.00000e+00	0.00000e+00	0.00000e+00	0.00000e+00	0.00000e+00	0.00000e+00	0.00000e+00	0.00000e+00	0.00000e+00	0.00000e+00	0.00000e+00	0.00000e+00	0.00000e+00	0.00000e+00	0.00000e+00	0.00000e+00	0.00000e+00	0.00000e+00	0.00000e+00	0.00000e+00	0.00000e+00	-1.51084e+02	-1.28834e+02	-1.28025e+02	-1.86409e+02	-7.68898e+01	-6.93831e+01	-1.58531e+02	-1.62015e+02	-7.47914e+01	-6.79359e+01	-1.72014e+02	-1.71423e+02	-1.83400e+02	-1.77421e+02	-7.05656e+01	-1.49763e+02	
Factor	2.11876e-05	1.39541e-04	4.21210e-05	2.80485e-01	1.28048e-06	1.60148e-06	1.54187e-01	4.54447e-02	1.08396e-06	1.57593e-06	7.46426e-02	2.54121e-02	3.58899e-02	8.15869e-03	1.32146e-06	1.15051e-02	9.79520e-06	1.44465e-05	4.03494e-06	1.49735e-01	1.53051e-07	1.61647e-07	7.78450e-02	2.45314e-02	1.47844e-07	1.59374e-07	3.90137e-02	1.33397e-02	1.96024e-02	4.44578e-03	1.52412e-07	6.08456e-03	X	X	X	X	X	X	X	X	X	X	X	X	X	X	X	X	



#DISTANCE SETTINGS
A = Detector Channel
A-1	A-2	A-3	A-4	A-5	A-6	A-7	A-8	A-9	A-10	A-11	A-12	A-13	A-14	A-15	A-16	

2.5000e+00	3.0000e+00	2.5000e+00	3.0000e+00	2.0000e+00	3.0000e+00	1.5000e+00	3.0000e+00	3.0000e+00	3.0000e+00	3.0000e+00	3.0000e+00	3.0000e+00	3.0000e+00	1.5000e+00	3.0000e+00	

B = Detector Channel
B-1	B-2	B-3	B-4	B-5	B-6	B-7	B-8	B-9	B-10	B-11	B-12	B-13	B-14	B-15	B-16	

1.0000e+01	1.0000e+01	1.0000e+01	1.4400e+00	1.0000e+01	1.0000e+01	1.5100e+00	1.9400e+00	1.0000e+01	1.0000e+01	1.9900e+00	2.4900e+00	2.4100e+00	2.9000e+00	1.0000e+01	2.9800e+00	




#DATA BEGINS
time	group	step	mark	flag	A-AC1	A-AC2	A-AC3	A-AC4	A-AC5	A-AC6	A-AC7	A-AC8	A-AC9	A-AC10	A-AC11	A-AC12	A-AC13	A-AC14	A-AC15	A-AC16	A-DC1	A-DC2	A-DC3	A-DC4	A-DC5	A-DC6	A-DC7	A-DC8	A-DC9	A-DC10	A-DC11	A-DC12	A-DC13	A-DC14	A-DC15	A-DC16	A-Ph1	A-Ph2	A-Ph3	A-Ph4	A-Ph5	A-Ph6	A-Ph7	A-Ph8	A-Ph9	A-Ph10	A-Ph11	A-Ph12	A-Ph13	A-Ph14	A-Ph15	A-Ph16	B-AC1	B-AC2	B-AC3	B-AC4	B-AC5	B-AC6	B-AC7	B-AC8	B-AC9	B-AC10	B-AC11	B-AC12	B-AC13	B-AC14	B-AC15	B-AC16	B-DC1	B-DC2	B-DC3	B-DC4	B-DC5	B-DC6	B-DC7	B-DC8	B-DC9	B-DC10	B-DC11	B-DC12	B-DC13	B-DC14	B-DC15	B-DC16	B-Ph1	B-Ph2	B-Ph3	B-Ph4	B-Ph5	B-Ph6	B-Ph7	B-Ph8	B-Ph9	B-Ph10	B-Ph11	B-Ph12	B-Ph13	B-Ph14	B-Ph15	B-Ph16	aux-1	digaux	

29129.500	1	1	0	256	0.15131	0.06519	0.082573	0.34519	0.21153	0.17475	0.093654	0.18064	0.068795	0.088238	0.15779	0.35542	0.17897	0.13614	0.11423	0.40574	-2.6625	-2.0833	-2.5729	-2.8854	-2.0958	-2.9313	-2.7562	-2.3312	-2.8583	-2.2646	-2.5417	-3.0167	-2.2396	-2.9583	-2.6583	-2.2625	262.687	289.283	316.070	472.405	353.382	460.374	143.775	462.978	364.293	268.113	463.260	435.280	472.709	162.006	198.992	481.283	0.00071432	0.00054544	0.00017121	1409.6	4.9758e-06	6.3174e-06	1407.9	379.21	5.283e-06	6.2818e-06	436.92	145.35	127.54	42.738	7.3638e-06	52.535	0.0005753	0.00054421	0.00015292	1429.2	6.0972e-06	6.0719e-06	1429.4	385.19	6.0179e-06	6.1797e-06	443.57	148.7	129.95	43.878	6.2114e-06	54.071	169.246	259.801	229.680	154.574	282.779	284.454	154.292	159.176	274.917	286.140	158.562	162.483	162.805	168.261	294.315	167.362	-8191	255	
29129.596	1	1	0	0	0.20342	0.19367	0.096953	0.15904	0.12094	0.12585	0.29762	0.22154	0.11968	0.10261	0.13503	0.16997	0.11494	0.21229	0.13897	0.15335	-2.5042	-2.3042	-2.5271	-2.9417	-2.0333	-2.7396	-2.9083	-2.3396	-3.0438	-2.4104	-2.5625	-3.1292	-2.0958	-2.7625	-2.775	-2.4729	413.341	411.062	315.561	468.314	445.295	184.557	377.616	151.443	292.404	375.989	431.130	463.573	372.596	167.803	383.353	493.524	0.00070489	0.00065561	0.00017352	1407.3	5.059e-06	6.3902e-06	1406	377.96	5.4833e-06	5.6158e-06	434.94	145.79	127.13	42.613	4.257e-06	52.122	0.00058322	0.00055426	0.00015107	1426	6.1934e-06	5.8779e-06	1426.1	384.81	5.7157e-06	5.8646e-06	443.14	148.44	129.47	43.788	5.6757e-06	53.909	167.898	221.994	226.848	154.465	286.336	290.404	154.152	158.958	254.225	291.772	158.816	162.627	162.614	168.176	279.836	167.589	-8191	255	
29129.715	1	1	0	0	0.1621	0.13782	0.15353	0.31181	0.14207	0.030165	0.095718	0.18735	0.181	0.13505	0.2664	0.23646	0.04829	0.013905	0.17322	0.21333	-2.5771	-2.2583	-2.3792	-2.95	-2.125	-2.4979	-3.1125	-2.2313	-2.8688	-2.4167	-2.4104	-3.0312	-2.0625	-2.6854	-2.7417	-2.1875	144.941	205.468	441.962	426.372	468.505	173.302	366.568	168.451	374.556	470.949	375.682	499.320	361.289	463.492	360.772	412.772	0.0006875	0.00056861	0.00017188	1398.1	4.2047e-06	6.0989e-06	1399.6	375.13	6.2831e-06	3.7686e-06	434.51	146.02	126.83	42.423	6.2499e-06	52.224	0.0005779	0.00054815	0.00014998	1421.1	5.7614e-06	5.825e-06	1421.8	383.83	5.9283e-06	5.8208e-06	442.48	148.66	129.36	43.755	5.6538e-06	53.986	169.397	219.271	233.763	154.691	276.107	297.340	154.318	158.967	279.213	267.853	158.553	162.466	163.077	168.116	271.206	167.439	-8191	255	
29129.787	1	1	0	0	0.046054	0.047235	0.12614	0.27707	0.14851	0.10429	0.29191	0.21287	0.082667	0.18181	0.27091	0.21839	0.13068	0.14531	0.19862	0.3505	-2.3	-2.4437	-2.1854	-3.0438	-2.0854	-2.5396	-2.9979	-2.2896	-2.7812	-2.7896	-2.4792	-3.025	-2.4021	-2.4813	-3.0229	-2.1604	479.565	417.339	166.382	466.948	441.194	327.608	395.189	482.504	407.640	341.207	454.381	163.196	412.747	486.227	275.707	462.135	0.00071772	0.00030592	0.00013164	1395.5	4.6193e-06	4.8336e-06	1399.7	376.04	5.3181e-06	6.1019e-06	432.19	145.88	127.35	42.761	4.8341e-06	52.328	0.00058443	0.00053073	0.000145	1419.2	5.9065e-06	6.0594e-06	1424.3	383.72	6.0607e-06	5.8231e-06	442.32	148.52	129.82	43.857	5.9993e-06	53.943	171.353	226.615	225.440	154.708	270.175	266.921	154.412	159.026	254.254	284.173	158.612	162.315	162.888	168.035	272.560	167.234	-8191	255	
29129.883	1	1	0	0	0.10498	0.18822	0.24707	0.27321	0.26517	0.036636	0.21922	0.31883	0.19257	0.2371	0.1183	0.21826	0.29282	0.14386	0.057919	0.091208	-2.3042	-2.5917	-2.2271	-3.0583	-2.4083	-2.2292	-3.125	-2.4167	-2.5833	-2.8333	-2.3187	-2.9542	-2.4521	-2.3104	-3.0417	-2.15	338.741	160.553	329.618	363.897	363.097	182.870	455.169	430.322	441.346	326.695	240.948	486.040	154.655	393.918	297.312	484.302	0.00070274	0.00067129	0.00018201	1397.6	4.4578e-06	5.3604e-06	1393.5	375.67	5.8401e-06	6.8323e-06	433.09	145.73	126.14	42.376	7.2194e-06	52.202	0.00058857	0.00054451	0.00015413	1420	5.8213e-06	5.8877e-06	1421	383.37	6.016e-06	5.8391e-06	442.28	148.57	129.08	43.649	5.7231e-06	53.825	170.544	227.597	238.493	154.323	256.128	287.550	154.248	158.986	269.151	286.420	158.737	162.296	162.743	168.159	275.034	166.989	-8191	255	
29130.004	1	1	0	0	0.12428	0.4419	0.13697	0.29909	0.24724	0.25366	0.16958	0.1266	0.27728	0.077901	0.30421	0.34125	0.28606	0.43215	0.12175	0.15935	-2.0208	-2.6771	-2.0854	-2.9062	-2.5729	-2.3396	-3.1312	-2.5708	-2.4542	-2.7979	-2.2333	-2.7458	-2.6708	-2.3063	-2.9417	-2.4521	471.350	427.601	156.824	388.948	431.296	141.918	428.889	378.799	400.488	271.939	427.577	492.452	161.835	459.869	199.432	142.987	0.00069356	0.00066417	0.00016847	1400.5	5.1182e-06	5.8916e-06	1399.8	374.94	5.3962e-06	4.4468e-06	433.42	144.55	126.42	42.259	5.2032e-06	51.927	0.00058396	0.00051538	0.00014804	1419	5.7486e-06	5.8358e-06	1419.7	382.04	5.7216e-06	5.3683e-06	440.73	147.59	128.81	43.58	5.4738e-06	53.592	167.701	239.108	225.137	154.378	258.343	285.038	154.241	158.861	273.698	290.551	158.333	162.351	162.649	167.883	285.060	166.857	-8191	255	
29130.100	1	1	0	0	0.22019	0.18705	0.11301	0.23702	0.15116	0.10913	0.31916	0.25376	0.11351	0.068708	0.1179	0.1214	0.12675	0.25307	0.07937	0.32863	-2.05	-2.8063	-2.125	-2.7125	-2.6188	-2.2625	-3.2042	-2.4229	-2.3854	-3.0021	-2.2729	-3.0083	-2.6646	-2.3479	-2.8229	-2.3958	281.351	197.757	167.217	489.084	148.246	265.571	413.004	180.163	151.077	232.391	297.199	479.078	436.370	143.438	278.271	479.259	0.00072449	0.00045937	0.00010981	1393.5	4.82e-06	5.8815e-06	1391.3	374.8	3.5277e-06	6.8434e-06	429.72	144.35	126.06	42.119	5.0778e-06	51.76	0.00056137	0.00049901	0.00014295	1411.4	5.4945e-06	5.4064e-06	1414.4	381.3	5.6575e-06	5.1421e-06	438.71	147.55	128.47	43.385	5.2947e-06	53.5	168.931	210.132	216.868	154.298	261.933	273.284	154.075	158.807	279.622	287.556	158.491	162.441	162.686	167.955	289.049	167.142	-8191	255	
29130.195	1	1	0	0	0.19597	0.19009	0.17724	0.27052	0.11976	0.1743	0.17298	0.12337	0.051842	0.047991	0.108	0.17521	0.21097	0.32159	0.21479	0.2326	-2.0125	-3.0208	-2.1708	-2.7625	-2.7229	-1.9125	-3.0479	-2.5792	-2.2167	-2.8875	-2.4646	-2.6833	-2.7896	-2.3125	-2.7562	-2.5458	500.321	287.942	450.662	440.685	445.051	196.535	440.951	397.551	429.096	290.638	272.870	490.429	448.705	463.986	312.570	168.225	0.00072502	0.00059676	0.00014884	1386.2	4.8875e-06	5.3359e-06	1387.8	374.5	6.2915e-06	5.1312e-06	430.6	144.74	125.38	42.151	4.406e-06	51.842	0.00057208	0.00049843	0.00013886	1407.7	5.3418e-06	5.5139e-06	1410.8	381	5.4893e-06	5.2916e-06	439.26	147.45	127.99	43.363	5.4627e-06	53.593	167.950	219.826	213.027	154.409	266.284	282.294	154.046	158.704	277.890	294.348	158.527	162.507	162.796	167.781	285.943	167.021	-8191	255	
29130.293	1	1	0	0	0.096875	0.14493	0.25373	0.15828	0.14002	0.20845	0.13909	0.24906	0.049918	0.083621	0.046466	0.14092	0.25845	0.17647	0.087554	0.17902	-1.7042	-2.9458	-2.1708	-2.4104	-2.6646	-2.1167	-2.9688	-2.7729	-2.4646	-2.9396	-2.4792	-2.2188	-2.9875	-2.1333	-2.85	-2.7875	450.102	247.501	234.966	394.827	148.189	500.307	239.000	440.886	262.911	488.558	321.054	456.951	427.373	455.272	285.678	482.355	0.00072897	0.00051594	0.00021139	1390.8	3.6661e-06	6.5096e-06	1384.7	371.82	6.1261e-06	4.0431e-06	428.27	144.33	125.48	42.326	5.8289e-06	51.495	0.00055906	0.00048047	0.00013722	1408	5.183e-06	5.4728e-06	1407.2	380.15	5.5885e-06	5.2716e-06	437.49	147.39	128.16	43.397	5.2592e-06	53.401	168.391	214.407	229.874	154.669	266.596	296.297	154.219	158.867	259.684	307.990	158.649	162.336	162.610	167.871	275.957	166.978	-8191	255	
29130.363	1	1	0	0	0.13056	0.22503	0.26159	0.25315	0.19857	0.090164	0.31626	0.20956	0.18552	0.22227	0.13335	0.15798	0.19383	0.090207	0.10976	0.15919	-1.7917	-2.8	-2.3229	-2.475	-2.8187	-2.1292	-2.875	-2.9771	-2.0625	-2.9458	-2.4	-2.3292	-2.9604	-2.4062	-2.6208	-2.8958	477.017	214.326	179.505	477.972	483.278	399.460	480.029	481.308	314.269	317.988	296.292	426.090	406.118	281.871	214.076	422.108	0.00069706	0.00054489	0.00015668	1383.2	4.2313e-06	4.7202e-06	1383.8	373.48	4.5215e-06	7.7931e-06	430.09	144.19	125.2	42.05	6.44e-06	51.762	0.00054757	0.0004823	0.00013589	1402.9	5.2152e-06	5.3094e-06	1403.9	380.05	5.343e-06	5.1677e-06	437.29	146.74	127.8	43.225	5.2147e-06	53.343	169.944	244.289	223.670	154.379	285.517	308.566	154.120	158.945	278.260	307.387	158.749	162.592	162.767	167.844	281.530	167.091	-8191	255	
29130.484	1	1	0	0	0.23017	0.27679	0.25212	0.10298	0.16986	0.32672	0.099315	0.26698	0.050853	0.11214	0.22712	0.33735	0.024335	0.29922	0.10453	0.17886	-1.7792	-2.8833	-2.3896	-2.3271	-2.9396	-2.1437	-2.6479	-2.9938	-2.0187	-3.0375	-2.9271	-2.3021	-3.025	-2.2	-2.5146	-2.7646	448.190	291.308	251.804	498.026	377.856	473.585	456.561	405.833	416.070	339.568	427.754	440.982	148.403	423.170	178.393	491.705	0.00071428	0.00044601	0.00010977	1383.2	4.0458e-06	3.7497e-06	1379.5	372.33	5.7585e-06	4.6574e-06	431	143.03	125.57	42.115	3.332e-06	51.793	0.0005389	0.0004709	0.00013077	1401.9	5.2356e-06	5.4125e-06	1401.5	379.22	5.2559e-06	5.0784e-06	437.45	146.66	127.87	43.256	5.0772e-06	53.316	167.249	237.879	233.215	154.065	266.983	246.437	154.274	158.737	261.467	294.636	158.377	162.456	163.066	167.805	276.793	167.231	-8191	255	
29130.580	1	1	0	0	0.24295	0.093964	0.22353	0.2098	0.15358	0.12876	0.30863	0.092362	0.088448	0.15004	0.26841	0.26064	0.19054	0.10059	0.16876	0.13578	-1.6271	-2.8688	-2.7979	-2.225	-2.8771	-2.3417	-2.6729	-3.0958	-2.2167	-2.7	-2.7417	-2.0292	-3.0083	-2.3521	-2.1688	-3.0708	471.818	319.741	205.474	473.809	315.934	178.397	428.298	441.143	358.229	490.501	485.101	144.266	482.678	441.445	189.921	172.712	0.00070396	0.00050049	0.00017583	1384.9	4.4129e-06	3.003e-06	1382.2	371.53	4.5543e-06	7.4917e-06	428.27	143.85	126.01	42.015	5.0609e-06	51.626	0.00055388	0.00047225	0.00013257	1401.2	5.2991e-06	5.2603e-06	1400.6	378.69	5.3689e-06	5.2122e-06	435.85	146.66	127.82	43.215	5.3023e-06	53.181	167.913	231.290	234.297	154.679	283.086	270.482	154.323	159.109	270.997	304.501	158.349	162.162	162.647	168.103	279.534	167.167	-8191	255	
29130.678	1	1	0	0	0.28742	0.10825	0.065723	0.31144	0.1261	0.033114	0.19358	0.25843	0.073121	0.1973	0.23842	0.23196	0.079897	0.023352	0.36394	0.077638	-1.7271	-2.5646	-2.5208	-2.1104	-2.9271	-2.4646	-2.4708	-3.0583	-2.1833	-2.5833	-2.8271	-2.1479	-2.8833	-2.5167	-2.3083	-2.9271	261.598	269.715	265.912	468.065	228.420	357.606	416.627	398.607	141.993	469.902	437.340	480.537	475.061	427.164	468.883	435.686	0.00070256	0.0005444	0.00011553	1384.4	5.4256e-06	5.3159e-06	1379.9	371.61	4.8151e-06	5.5058e-06	429.41	143.68	125.18	41.954	7.4951e-06	51.589	0.0005542	0.00048375	0.00012956	1398.5	5.2955e-06	5.5223e-06	1400.2	378.5	5.4028e-06	5.3171e-06	437	146.51	127.43	43.186	5.4335e-06	53.21	170.081	240.371	217.588	154.294	295.470	290.753	154.321	158.984	275.980	290.432	158.657	162.442	162.865	167.985	284.788	166.960	-8191	255	
29130.797	1	1	0	0	0.077183	0.22875	0.20424	0.2461	0.16323	0.26391	0.25807	0.38213	0.06393	0.16058	0.11303	0.22701	0.2443	0.17552	0.14546	0.36576	-1.9021	-2.575	-2.6167	-2.2854	-2.6417	-2.8125	-2.4667	-3.1833	-2.3167	-2.6437	-3.1083	-2.2729	-2.9437	-2.7667	-2.0958	-3.0292	323.262	199.303	465.163	418.229	388.960	237.616	449.685	398.720	476.354	454.857	183.262	427.868	195.374	201.661	307.318	427.778	0.00072781	0.00059154	0.00013207	1371.9	5.9452e-06	3.3269e-06	1371.5	370.83	4.196e-06	3.6496e-06	428.1	144	124.73	41.926	4.0115e-06	51.534	0.00054578	0.00048739	0.00013019	1393.7	5.2155e-06	5.2037e-06	1396.3	377.99	5.4222e-06	5.1285e-06	435.6	146.35	127.24	43.045	5.1953e-06	53.126	168.148	217.490	227.692	154.587	275.227	297.110	154.182	159.034	275.139	272.826	158.486	162.521	162.884	167.827	286.079	167.379	-8191	255	
29130.893	1	1	0	0	0.15807	0.17464	0.18422	0.1755	0.01474	0.24951	0.1966	0.011303	0.10327	0.29253	0.21536	0.1081	0.11566	0.12472	0.31366	0.22575	-1.8979	-2.5417	-2.8979	-2.2833	-2.7792	-2.8187	-2.2771	-2.8854	-2.2646	-2.3438	-3.0979	-2.1271	-2.7896	-2.825	-2.25	-3.1021	454.746	350.086	256.797	414.235	406.561	173.067	164.376	143.678	404.037	475.595	458.718	410.078	363.311	418.661	440.081	461.836	0.00071767	0.00043232	0.00015071	1369.1	4.4957e-06	6.8894e-06	1370.2	372.56	5.0994e-06	5.6968e-06	427.14	143.3	124.63	42.05	6.4809e-06	51.427	0.00054888	0.00047619	0.00012813	1390.5	5.2512e-06	5.2451e-06	1393.2	377.7	5.1592e-06	4.9721e-06	434.89	145.98	127.03	43.08	5.2411e-06	53	168.298	231.544	247.044	154.366	284.794	282.151	154.345	159.166	274.371	305.016	158.792	162.200	162.912	168.067	281.496	167.357	-8191	255	
29130.988	1	1	0	0	0.12743	0.052803	0.036091	0.091654	0.22934	0.10902	0.20404	0.11133	0.11275	0.10087	0.055069	0.26243	0.1329	0.11282	0.13157	0.089844	-2.1729	-2.2854	-2.9938	-2.2333	-2.6479	-2.8812	-2.2562	-2.9292	-2.5896	-2.1708	-3.1708	-2.3438	-2.2812	-2.9667	-2.1667	-2.8812	403.028	403.570	263.941	406.705	163.057	461.160	398.195	243.080	372.029	269.850	157.444	423.145	231.008	375.225	211.454	494.323	0.00070535	0.0005048	0.00014682	1371	4.5904e-06	5.5036e-06	1366.7	369.97	3.9762e-06	7.6997e-06	425.47	142.71	125.24	41.887	7.679e-06	51.605	0.00054598	0.00047303	0.00012579	1390.8	5.3201e-06	5.0717e-06	1390.2	377.23	5.2657e-06	5.3556e-06	433.94	145.58	127.26	43.039	5.3227e-06	53.095	168.791	234.433	230.491	154.595	263.578	281.999	154.364	159.088	277.700	305.017	158.583	162.055	162.780	168.036	272.254	167.312	-8191	255	
29131.084	1	1	0	0	0.13077	0.15423	0.073291	0.39062	0.33228	0.15035	0.21457	0.12261	0.29399	0.23977	0.1026	0.17461	0.30109	0.36872	0.36379	0.12141	-2.0667	-2.0625	-2.7333	-2.3417	-2.4167	-2.875	-2.4333	-3.0292	-2.7021	-2.2646	-3.0479	-2.5104	-2.4479	-2.9437	-1.8646	-3.0104	294.859	394.198	306.611	145.372	274.400	233.866	480.690	440.787	159.329	460.504	399.782	162.223	495.314	493.527	413.804	278.234	0.00068275	0.00057473	0.00012295	1367.9	4.1085e-06	5.8343e-06	1370.5	370	5.1864e-06	4.4103e-06	426.68	142.89	124.03	41.674	4.4948e-06	51.632	0.0005508	0.00050376	0.00013261	1390.5	5.3947e-06	5.4654e-06	1392.4	377.05	5.2947e-06	5.2142e-06	435.16	146.2	126.96	42.955	5.5395e-06	53.062	168.844	245.581	219.250	154.506	284.816	314.860	154.065	159.045	275.429	300.885	158.532	162.523	162.999	168.107	296.629	167.314	-8191	255	
29131.180	1	1	0	0	0.14066	0.082352	0.25092	0.21103	0.16692	0.13935	0.26879	0.28856	0.06494	0.087119	0.22162	0.12182	0.081603	0.21284	0.12015	0.17097	-2.4875	-2.1604	-2.9896	-2.2938	-2.1562	-2.8646	-2.2646	-2.6792	-2.6521	-2.1771	-2.8937	-2.6583	-2.3896	-2.975	-2.2708	-2.5708	493.364	311.447	313.771	171.581	211.420	152.606	413.822	257.829	267.850	393.659	492.685	477.371	327.573	456.287	141.422	435.895	0.00072123	0.00065052	0.00018073	1368	6.1052e-06	3.5996e-06	1363.9	369.2	4.8277e-06	6.41e-06	426.34	142.75	124.78	41.928	5.4482e-06	51.381	0.00054288	0.00048543	0.00013473	1389	5.2222e-06	4.9841e-06	1389.3	376.56	5.0892e-06	5.1637e-06	433.58	145.71	126.82	42.956	4.9378e-06	52.962	171.397	232.528	247.044	154.221	276.473	273.032	154.261	159.015	285.145	304.144	158.618	162.400	162.963	168.070	291.492	167.339	-8191	255	
29131.275	1	1	0	0	0.16623	0.20042	0.40734	0.072659	0.15587	0.064386	0.21007	0.069442	0.18024	0.12211	0.080798	0.39813	0.18783	0.051393	0.073152	0.28954	-2.2833	-2.1333	-2.8542	-2.6854	-2.1583	-2.8875	-2.5667	-2.5167	-2.825	-2.1979	-2.8292	-2.8021	-2.2458	-3.05	-2.3771	-2.3625	196.846	355.827	244.778	231.365	428.610	459.402	418.294	169.385	190.957	444.370	420.438	451.316	194.336	141.873	371.876	440.177	0.00074943	0.00025294	8.9853e-05	1368.7	5.6014e-06	5.175e-06	1367.2	368.49	4.893e-06	5.3696e-06	426.28	142.34	124.14	41.826	5.9406e-06	51.419	0.00053486	0.00046376	0.00012803	1385.8	5.1495e-06	4.9467e-06	1386.2	375.79	5.1884e-06	5.088e-06	433.78	145.49	126.64	42.927	5.1204e-06	52.985	169.747	214.055	237.488	154.627	277.705	287.363	154.160	159.249	261.670	281.390	158.727	162.283	162.981	168.101	283.383	167.501	-8191	255	
29131.396	1	1	0	0	0.30568	0.11903	0.14008	0.16213	0.059179	0.22154	0.040831	0.15286	0.24172	0.30699	0.24488	0.20461	0.18271	0.12352	0.095922	0.17041	-2.4396	-2.1167	-2.7	-2.8625	-2.0417	-2.9083	-2.6333	-2.6063	-2.8917	-2.3729	-2.8271	-2.7646	-2.025	-2.8167	-2.3896	-2.3563	191.503	459.456	168.378	492.407	479.274	230.213	377.064	435.975	350.678	466.473	436.234	484.925	189.665	152.992	494.189	300.008	0.00069816	0.00066571	0.00015005	1367.5	5.8461e-06	6.5591e-06	1366	370	4.2647e-06	5.1244e-06	424.64	142.7	123.6	41.624	6.2415e-06	51.48	0.00053361	0.00045395	0.00012899	1385.3	5.1715e-06	5.0639e-06	1385.7	376.19	5.0387e-06	4.9924e-06	433	145.49	126.33	42.883	4.9569e-06	53.017	169.195	227.241	233.580	154.144	262.693	296.404	154.165	159.096	272.735	293.460	158.532	162.494	162.749	168.049	272.187	167.535	-8191	255	
29131.490	1	1	0	0	0.092706	0.17185	0.17936	0.046529	0.25767	0.23744	0.31911	0.25439	0.1002	0.19009	0.4774	0.28522	0.20745	0.11826	0.31943	0.18239	-2.6792	-2.1625	-2.5042	-2.7667	-2.1063	-2.7854	-2.5417	-2.3542	-3.1104	-2.2021	-2.6625	-2.9	-2.15	-2.9146	-2.6729	-2.3667	210.286	451.605	493.967	493.280	250.632	354.181	477.989	374.143	418.703	361.861	464.736	501.083	375.927	488.970	497.890	319.390	0.00065644	0.00054066	0.00012874	1366.3	5.3905e-06	5.2729e-06	1366.8	367.94	5.6851e-06	3.1887e-06	426.27	142.16	124.16	41.752	5.6212e-06	51.473	0.00051239	0.00047342	0.00012785	1384.4	5.1922e-06	4.9579e-06	1386	374.68	5.2272e-06	5.0621e-06	433.39	145.53	126.09	42.931	5.0175e-06	53.04	168.970	232.683	213.506	154.459	266.858	287.468	154.098	159.252	275.174	259.415	158.704	162.485	163.121	167.776	272.459	167.548	-8191	255	
29131.588	1	1	0	0	0.080855	0.18482	0.061531	0.29726	0.3725	0.13526	0.37042	0.41175	0.18011	0.19638	0.073822	0.28243	0.19836	0.37695	0.27992	0.18797	-2.4813	-2.4042	-2.4354	-2.9292	-1.9312	-2.7146	-2.9875	-2.2646	-3.1104	-2.2896	-2.5833	-2.9021	-2.2646	-2.7375	-2.7792	-2.4708	262.447	473.925	199.576	494.513	342.079	319.681	454.614	394.762	498.456	349.005	476.240	463.583	464.990	471.108	252.983	246.843	0.00065097	0.00055171	0.00010635	1364.3	6.0103e-06	8.9697e-06	1360.2	367.32	4.5498e-06	6.0467e-06	424.75	142.8	123.41	41.749	5.7917e-06	51.665	0.00052331	0.00046972	0.00012729	1384.8	5.1553e-06	5.0474e-06	1384.3	375.11	5.0886e-06	4.9585e-06	432.85	145.61	126.07	42.868	5.0372e-06	52.939	168.943	219.464	233.300	154.509	288.259	287.828	154.199	158.942	272.214	295.070	158.637	162.294	162.855	168.293	286.573	167.403	-8191	255	
29131.660	1	1	0	0	0.038021	0.058123	0.10085	0.27596	0.20578	0.19694	0.22029	0.23041	0.090624	0.13806	0.28709	0.16314	0.20649	0.12267	0.39724	0.10095	-2.4417	-2.4458	-2.2417	-2.9583	-2.2313	-2.7292	-3.0438	-2.2729	-2.825	-2.4646	-2.4458	-3.1708	-2.4208	-2.675	-2.7771	-2.2333	364.961	480.347	333.259	485.776	188.487	302.655	401.852	487.505	433.773	489.954	488.429	483.580	270.777	468.308	353.017	267.371	0.0007129	0.00052282	0.0001437	1362.3	5.8636e-06	6.3265e-06	1364.7	369.17	4.8907e-06	4.4746e-06	424.33	141.89	124	41.753	6.2817e-06	51.309	0.00052178	0.00046229	0.0001285	1385.6	5.058e-06	5.1182e-06	1383.9	375.71	5.1616e-06	4.9854e-06	433.02	145.01	126.5	42.86	5.021e-06	52.92	169.838	241.295	226.435	154.687	275.849	298.692	154.249	159.018	289.202	294.673	158.844	162.486	163.067	168.158	281.927	167.331	-8191	255	
29131.779	1	1	0	0	0.097298	0.22817	0.10572	0.15762	0.10566	0.21171	0.27956	0.34167	0.25621	0.23993	0.36393	0.065334	0.13291	0.44076	0.13714	0.25179	-2.5542	-2.5875	-2.0667	-3.0771	-2.4875	-2.4021	-3.0021	-2.2125	-2.65	-2.6646	-2.3854	-3.1937	-2.3854	-2.5938	-2.8	-2.2542	314.802	338.444	372.140	417.842	412.913	319.926	429.886	424.506	403.718	437.564	490.980	148.493	220.336	451.486	325.965	448.306	0.00072721	0.00052019	0.00018751	1363.2	2.8159e-06	4.9431e-06	1365.2	367.83	2.8149e-06	4.0746e-06	423.77	142.44	123.48	41.744	6.0812e-06	51.454	0.00053347	0.00044974	0.00012827	1382.1	5.117e-06	5.0535e-06	1384.3	374.5	5.0501e-06	4.7327e-06	432.68	145.47	126.08	42.902	4.8168e-06	52.917	167.761	232.036	230.811	154.771	265.988	267.491	154.304	159.176	276.504	276.702	158.909	162.705	162.562	168.059	280.438	167.229	-8191	255	
29131.877	1	1	0	0	0.052158	0.093258	0.10941	0.063227	0.15595	0.050374	0.16943	0.13196	0.10453	0.18003	0.20656	0.07176	0.10523	0.197	0.10885	0.097646	-2.4417	-2.6042	-2.1917	-2.9437	-2.3229	-2.3708	-3.05	-2.3667	-2.5812	-2.625	-2.325	-2.9521	-2.5	-2.4375	-2.8854	-2.2917	352.432	150.359	303.767	496.455	440.897	423.929	439.252	451.523	446.204	452.491	177.816	491.172	487.789	402.638	459.468	262.081	0.0007277	0.00058073	0.00020347	1360.2	4.1974e-06	4.9513e-06	1364.1	368.41	5.5984e-06	2.433e-06	424.03	143.27	124.04	41.803	3.6897e-06	51.481	0.00053314	0.00047059	0.00013164	1383.8	4.9773e-06	4.9582e-06	1383.2	375.13	5.1191e-06	4.8171e-06	432.28	145.47	126.49	42.83	5.0109e-06	52.933	168.807	233.739	216.140	154.685	262.961	286.436	154.116	159.154	278.409	301.786	158.692	162.557	163.041	168.070	282.805	167.153	-8191	255	
29131.973	1	1	0	0	0.068019	0.18175	0.044795	0.11055	0.10712	0.13173	0.20288	0.29299	0.15865	0.17593	0.19257	0.23626	0.31338	0.15183	0.083251	0.27609	-2.1729	-2.7812	-2.0604	-2.8042	-2.55	-2.225	-3.3	-2.3	-2.3521	-2.9104	-2.0625	-2.7604	-2.6188	-2.1521	-2.9958	-2.3167	310.859	406.612	230.609	495.435	242.943	375.831	463.164	468.797	398.474	491.532	142.068	497.434	457.018	342.861	339.574	433.377	0.00071109	0.00055527	0.000132	1361.9	6.4884e-06	4.1527e-06	1356.2	368.11	5.6379e-06	4.7918e-06	423.65	142.24	124	41.723	5.2421e-06	51.274	0.00052831	0.00045645	0.00012792	1382.6	5.1339e-06	5.1367e-06	1381.6	374.66	5.2559e-06	4.9396e-06	432.15	145.38	126.04	42.869	4.9308e-06	52.825	171.252	241.432	227.275	154.544	267.865	270.371	153.750	158.823	271.821	279.783	158.372	161.945	162.530	167.784	272.521	166.582	-8191	255	
29132.068	1	1	0	0	0.059349	0.17747	0.056309	0.065666	0.14484	0.19743	0.02923	0.17765	0.16941	0.018686	0.15454	0.067609	0.34109	0.28283	0.19538	0.065821	-2.0312	-2.8187	-2.0896	-2.8208	-2.6479	-2.1958	-3.1063	-2.5438	-2.3438	-2.9625	-2.3771	-2.8083	-2.6562	-2.2646	-2.9021	-2.4583	194.152	452.764	234.550	474.350	406.121	165.321	175.887	400.361	156.097	396.770	190.054	171.647	167.332	451.929	350.988	170.281	0.00068194	0.00045097	0.00017867	1365.8	1.7209e-06	5.0891e-06	1361.6	367.65	7.2502e-06	5.1491e-06	422.65	142.43	124.44	41.825	3.9032e-06	51.463	0.00052759	0.00045795	0.00013233	1384.3	4.9843e-06	5.0949e-06	1384.1	374.42	5.2389e-06	4.9124e-06	431.71	145.12	126.48	42.858	4.915e-06	52.874	167.237	240.743	220.449	154.126	314.732	303.575	153.866	158.759	271.190	288.908	158.160	162.178	162.582	167.772	296.433	166.729	-8191	255	
29132.189	1	1	0	0	0.19129	0.074895	0.27462	0.18905	0.13953	0.18292	0.20778	0.32559	0.080505	0.12704	0.50579	0.22993	0.24535	0.10136	0.21255	0.013552	-1.8312	-2.7792	-2.0438	-2.65	-2.8438	-1.9542	-3.125	-2.5646	-2.1875	-3.0083	-2.4771	-2.4562	-2.7229	-2.35	-2.6396	-2.5167	279.946	212.063	142.983	436.406	387.507	251.906	466.439	435.095	453.804	469.757	473.745	146.367	205.289	436.218	354.761	376.817	0.00074141	0.00039763	0.00012479	1368.5	4.0891e-06	3.8522e-06	1362.2	367.89	5.7301e-06	2.3011e-06	423.8	142.38	123.64	41.589	4.088e-06	51.113	0.00055835	0.00045922	0.00013144	1382.9	4.9579e-06	5.1293e-06	1383.5	374.28	5.2814e-06	4.9682e-06	432.45	145.24	126.39	42.771	4.853e-06	52.819	168.965	246.662	236.489	154.193	266.804	284.134	153.950	158.747	266.013	285.589	158.194	161.995	162.409	167.546	288.929	166.783	-8191	255	
29132.285	1	1	0	0	0.31847	0.3419	0.17993	0.077518	0.22112	0.031065	0.06106	0.30657	0.14997	0.12613	0.15	0.16858	0.053874	0.14243	0.11466	0.18517	-1.775	-3.0417	-2.1396	-2.5187	-2.7521	-2.1271	-2.9208	-2.8229	-2.1729	-2.7792	-2.4104	-2.5479	-2.9708	-2.1688	-2.7812	-2.5875	481.586	393.950	460.242	370.364	354.018	449.553	396.889	437.903	161.826	212.258	185.419	145.190	493.768	432.775	450.930	484.681	0.00067199	0.00069364	0.0001593	1367.4	4.0434e-06	4.7924e-06	1365.9	367.61	6.1005e-06	3.9896e-06	423.55	142.14	123.6	41.703	4.5341e-06	51.128	0.00052594	0.00045597	0.00013213	1385.1	4.9863e-06	5.1933e-06	1384.9	374.45	5.23e-06	5.1139e-06	432.09	144.97	126.23	42.778	4.9172e-06	52.74	169.911	227.974	224.323	154.343	281.197	261.637	153.919	158.528	272.416	292.965	158.223	162.254	162.733	167.852	299.779	166.933	-8191	255	
29132.357	1	1	0	0	0.10201	0.35512	0.32829	0.12946	0.16662	0.25313	0.21059	0.13522	0.094358	0.12985	0.21178	0.33086	0.19555	0.20322	0.066806	0.20151	-1.6938	-3.0021	-2.2979	-2.4854	-3.0062	-2.0729	-2.7208	-2.775	-2.1229	-2.8417	-2.525	-2.3583	-3.0563	-2.25	-2.6146	-2.8042	359.503	365.527	346.540	370.783	271.628	147.762	412.047	403.670	394.415	203.157	495.979	141.393	469.261	490.813	459.908	490.301	0.00071632	0.00062458	0.0001237	1361.4	3.8801e-06	7.0803e-06	1361.6	366.98	4.4458e-06	5.9107e-06	421.71	142.28	123.2	41.645	3.7594e-06	51.192	0.00053814	0.00045856	0.00012568	1381.7	4.9805e-06	4.9094e-06	1383.7	374.29	5.3732e-06	4.8001e-06	431.3	145.13	126.16	42.787	4.9616e-06	52.756	168.441	227.815	245.419	154.094	261.057	284.464	153.863	158.447	243.642	297.332	158.357	162.263	162.617	167.810	266.854	166.789	-8191	255	
29132.477	1	1	0	0	0.3303	0.15133	0.20417	0.12424	0.21094	0.072888	0.08519	0.23399	0.039446	0.20561	0.21744	0.066322	0.16239	0.16736	0.3129	0.25157	-1.6167	-2.7708	-2.3583	-2.2	-2.8854	-2.2167	-2.7438	-2.9667	-2.0083	-2.6937	-2.775	-2.1625	-2.9917	-2.1604	-2.1792	-2.9833	389.663	357.407	475.955	223.673	357.078	429.666	464.011	435.144	186.283	464.443	422.247	157.950	415.268	427.245	468.877	429.178	0.00075061	0.00056771	0.00013253	1362.6	4.8476e-06	5.7262e-06	1359.1	366.19	4.703e-06	5.514e-06	422.33	141.92	124.26	41.501	4.3149e-06	51.004	0.00054423	0.00045567	0.00012402	1378.7	4.9094e-06	5.0559e-06	1381.8	374.02	5.0902e-06	5.0097e-06	430.63	145	126.32	42.628	5.0067e-06	52.755	169.352	210.122	242.824	154.263	261.354	296.138	153.990	158.867	270.143	287.904	158.469	162.055	162.517	167.841	277.918	166.859	-8191	255	
29132.572	1	1	0	0	0.36906	0.17857	0.053532	0.4185	0.14399	0.066666	0.28365	0.10128	0.35787	0.02009	0.34383	0.098621	0.31557	0.012811	0.10014	0.14057	-1.7458	-2.7	-2.5708	-2.2146	-2.8083	-2.3708	-2.3729	-2.9667	-1.9792	-2.6937	-2.825	-2.1042	-2.9021	-2.5104	-2.2	-3.0062	188.375	227.846	224.242	144.983	496.049	279.531	460.442	480.358	181.239	201.487	152.015	483.462	478.790	301.676	322.535	454.290	0.00069898	0.00064171	0.00017068	1361.3	5.1188e-06	5.2306e-06	1360.2	365.56	4.8674e-06	3.5759e-06	421.83	141.54	123.77	41.549	5.6113e-06	50.915	0.00052168	0.00043953	0.00012312	1378	4.9014e-06	4.943e-06	1379.9	372.99	5.0729e-06	4.7769e-06	430.86	144.78	126	42.698	5.0159e-06	52.593	168.427	230.952	217.037	154.464	307.028	279.273	154.091	158.869	286.067	278.645	158.405	162.364	162.802	167.697	281.572	166.819	-8191	255	
29132.668	1	1	0	0	0.13508	0.14611	0.13354	0.25677	0.03253	0.08789	0.28138	0.36318	0.13945	0.24257	0.1271	0.24815	0.21762	0.15017	0.145	0.073296	-1.7396	-2.5396	-2.8021	-2.1688	-2.9875	-2.4833	-2.3187	-3.1896	-1.9521	-2.5875	-2.9604	-2.0208	-2.7979	-2.6771	-1.9604	-2.9729	291.933	355.593	388.326	473.915	436.335	371.282	396.965	422.481	299.214	282.538	441.252	443.267	468.937	420.343	225.499	182.245	0.00072698	0.0004759	0.00017932	1361.5	4.8741e-06	3.9516e-06	1356.4	365.59	5.2034e-06	5.3737e-06	422.3	142.23	124.54	41.573	4.2429e-06	51.343	0.00054816	0.00044968	0.00012487	1377.6	4.8262e-06	4.8269e-06	1379	373.72	5.0514e-06	4.7955e-06	431.27	144.77	126.13	42.68	5.1407e-06	52.739	167.402	222.702	223.011	154.524	281.427	289.680	153.948	158.694	255.881	281.237	158.234	161.941	162.861	167.829	261.633	166.959	-8191	255	
29132.766	1	1	0	0	0.12672	0.067244	0.29064	0.35233	0.24447	0.16346	0.29059	0.35357	0.1708	0.23094	0.35166	0.094538	0.18067	0.027971	0.29435	0.1807	-1.8937	-2.3396	-2.8708	-1.9521	-2.7062	-2.5958	-2.2854	-3.2521	-2.1063	-2.4167	-2.9521	-2.0687	-2.8375	-2.6208	-2.0042	-3.0312	253.389	292.209	190.656	474.576	312.302	376.467	455.660	476.004	339.125	397.359	488.100	437.805	390.633	469.601	326.059	461.750	0.00070829	0.00061546	0.00018667	1360.2	4.164e-06	5.8733e-06	1353.5	366.13	5.0397e-06	5.8336e-06	422.95	141.56	123.99	41.574	2.9563e-06	51.518	0.00052504	0.00045326	0.00012457	1376.8	4.9075e-06	5.1185e-06	1376.9	373.91	5.1367e-06	4.9197e-06	431.17	144.68	126.24	42.702	4.9581e-06	52.833	170.851	224.026	244.592	154.317	283.884	284.939	153.914	158.799	271.654	306.555	158.579	162.197	162.567	167.808	277.708	167.100	-8191	255	
29132.885	1	1	0	0	0.19167	0.074472	0.16482	0.14767	0.21028	0.31312	0.19534	0.16518	0.29395	0.29574	0.13636	0.23726	0.18383	0.3215	0.21695	0.13671	-1.9896	-2.2417	-2.9062	-1.9479	-2.7208	-2.6917	-2.3104	-2.9396	-2.5708	-2.2687	-3.1188	-2.4333	-2.5667	-2.7042	-2.2229	-3.1104	449.556	203.105	431.199	456.543	387.645	474.959	468.072	405.837	386.232	415.814	441.891	382.717	404.033	152.277	468.855	388.158	0.00071451	0.00050187	0.00014718	1355.3	3.4903e-06	5.9161e-06	1356.6	366.14	4.8864e-06	6.37e-06	422.78	142.49	122.84	41.675	6.0901e-06	51.286	0.00054055	0.00046647	0.00012992	1379	5.1176e-06	4.9993e-06	1377.7	373.47	5.1385e-06	5.0565e-06	430.38	144.7	125.66	42.695	5.2207e-06	52.84	167.801	227.009	240.164	154.477	283.382	290.001	153.852	158.891	281.138	283.478	158.559	162.005	162.968	168.089	282.480	167.051	-8191	255	
29132.955	1	1	0	0	0.14369	0.15449	0.14725	0.10334	0.11536	0.13957	0.13383	0.21847	0.21506	0.1602	0.24776	0.22646	0.131	0.23133	0.11081	0.18614	-1.8021	-2.0542	-2.7646	-2.3354	-2.4625	-2.6708	-2.1396	-2.8979	-2.5646	-2.1271	-3.1625	-2.3979	-2.4021	-2.9896	-2.1437	-2.9167	161.264	387.008	227.955	438.314	263.962	318.640	388.967	467.224	484.391	456.599	487.190	152.907	406.105	439.461	427.613	462.454	0.00068592	0.00046842	0.0001671	1352	3.5834e-06	3.9763e-06	1355.6	365.96	4.5217e-06	3.629e-06	422.51	141.23	123.77	41.486	5.6215e-06	50.93	0.00053221	0.00046837	0.00012961	1374.4	4.9745e-06	5.0016e-06	1377.7	373.24	5.0464e-06	5.0256e-06	430.62	144.46	125.97	42.71	5.1585e-06	52.662	172.521	219.494	249.423	154.031	278.695	277.027	154.055	158.944	246.360	298.535	158.283	162.262	162.631	167.844	289.392	167.065	-8191	255	
29133.076	1	1	0	0	0.20967	0.097315	0.087875	0.19255	0.080508	0.15085	0.10448	0.19892	0.18907	0.073181	0.18486	0.27937	0.27186	0.21326	0.13926	0.2925	-2.1562	-2.0521	-2.825	-2.2562	-2.3229	-2.9167	-2.2938	-2.6417	-2.6063	-2.2667	-2.9562	-2.3771	-2.3187	-2.9833	-2.1271	-2.5604	166.029	293.657	214.221	163.982	385.005	224.871	365.128	464.054	285.174	291.949	171.375	488.254	193.686	450.065	440.137	415.325	0.00070546	0.00038523	0.00014847	1356.3	5.6854e-06	6.5152e-06	1349.1	366.89	3.9265e-06	3.9188e-06	423.13	141.61	123.38	41.407	5.4902e-06	51.057	0.00053192	0.00046614	0.00012594	1373.7	5.2464e-06	5.0343e-06	1375.7	373.61	5.0464e-06	5.1873e-06	431.03	144.62	125.65	42.557	5.2204e-06	52.614	167.262	234.757	209.768	154.391	261.815	275.493	154.035	158.595	262.775	276.303	158.237	162.295	162.836	167.785	275.646	167.026	-8191	255	
29133.174	1	1	0	0	0.12333	0.084892	0.12877	0.26638	0.06183	0.21474	0.2121	0.047998	0.16426	0.28063	0.14427	0.31541	0.049243	0.17877	0.15486	0.30256	-2.3292	-2.0854	-2.6458	-2.4042	-2.1875	-2.8729	-2.5458	-2.7667	-2.6542	-1.9917	-3.075	-2.7542	-2.1896	-2.9437	-2.1437	-2.5125	448.695	453.883	179.474	470.260	330.336	325.297	394.506	415.907	193.877	375.213	343.456	454.676	224.696	176.828	398.175	402.712	0.0007295	0.00051449	0.00011386	1365	5.8401e-06	4.1391e-06	1353.7	366.52	5.6264e-06	5.1148e-06	422.14	141.96	123.69	41.428	5.2623e-06	50.889	0.00054453	0.00046175	0.00013304	1380.3	5.0918e-06	5.0828e-06	1375.1	372.96	5.0735e-06	5.1996e-06	430.35	144.7	125.99	42.599	5.047e-06	52.701	169.734	208.589	226.100	154.499	262.814	299.408	153.979	159.054	264.850	294.316	158.519	161.929	162.910	168.170	291.398	167.311	-8191	255	
29133.270	1	1	0	0	0.20484	0.20737	0.23135	0.21741	0.10399	0.053459	0.3055	0.12213	0.22872	0.11413	0.155	0.031598	0.50007	0.16939	0.24413	0.28618	-2.575	-1.975	-2.8146	-2.6229	-2.1125	-2.8917	-2.5396	-2.5604	-2.9021	-2.2	-2.7104	-2.6083	-2.1521	-3.1083	-2.4042	-2.5604	466.862	369.002	183.126	371.775	168.361	241.623	471.898	337.508	482.098	327.764	458.796	475.714	400.539	155.596	234.444	395.621	0.00069189	0.00048362	0.00014759	1364.2	4.1306e-06	6.6748e-06	1352.4	367.71	5.165e-06	5.1206e-06	421.5	141.96	123.04	41.551	4.4735e-06	50.906	0.00052751	0.00045383	0.00012814	1377.9	5.2047e-06	4.9572e-06	1375.3	373.61	5.1924e-06	5.0671e-06	430.71	144.66	125.6	42.696	5.1341e-06	52.579	170.060	224.273	251.170	154.410	269.867	266.316	154.297	159.116	273.132	315.785	158.661	162.396	162.736	168.149	289.379	167.067	-8191	255	
29133.365	1	1	0	0	0.08205	0.068729	0.072254	0.28854	0.19552	0.37111	0.23104	0.12541	0.081124	0.1627	0.13812	0.2928	0.046436	0.32213	0.05053	0.049053	-2.6125	-2.1	-2.5958	-2.8396	-1.9208	-2.7687	-2.6937	-2.3333	-2.7687	-2.0833	-2.6208	-2.9521	-1.9813	-2.9021	-2.4646	-2.3417	453.909	189.403	255.896	436.256	429.131	338.524	364.440	327.318	446.261	463.877	392.620	454.833	453.472	425.045	302.834	443.923	0.00071702	0.00045753	0.00010968	1358.2	4.6105e-06	3.5404e-06	1354.2	366.61	5.0375e-06	3.9176e-06	422.36	141.76	123.22	41.524	7.0772e-06	51.176	0.00053182	0.00046277	0.00012265	1374	5.1591e-06	5.0053e-06	1374.7	373.15	5.1096e-06	4.9406e-06	430.72	144.65	125.49	42.653	5.1334e-06	52.731	169.705	237.099	241.356	154.078	278.814	288.856	153.881	158.730	274.710	292.998	158.368	161.988	162.761	168.030	281.223	167.115	-8191	255	
29133.486	1	1	0	0	0.082236	0.11036	0.1998	0.28066	0.16032	0.15235	0.23001	0.32246	0.10905	0.062342	0.15649	0.15288	0.059645	0.22184	0.35763	0.21368	-2.5271	-2.1417	-2.6	-2.9083	-2.0083	-2.8479	-2.7896	-2.1208	-2.7792	-2.1229	-2.5833	-2.8979	-2.0708	-2.9271	-2.6354	-2.2104	331.752	344.035	336.137	465.152	374.001	257.264	472.918	157.152	346.735	293.015	450.399	176.953	320.421	456.989	437.076	250.148	0.0006655	0.00054768	0.00020244	1351.9	5.0355e-06	5.0178e-06	1355.3	366.28	5.1221e-06	5.953e-06	423.62	141.64	123.67	41.526	5.0561e-06	51.082	0.00051919	0.00046885	0.0001287	1374.2	5.3367e-06	4.9868e-06	1374.7	373.08	4.9365e-06	4.9721e-06	431.17	144.71	125.63	42.647	5.1277e-06	52.601	168.187	237.941	219.726	154.329	293.750	301.726	153.968	159.001	284.524	292.367	158.073	162.016	162.898	167.856	284.782	167.214	-8191	255	
29133.559	1	1	0	0	0.20093	0.19916	0.17904	0.11	0.23667	0.24458	0.23548	0.37259	0.028357	0.16831	0.33124	0.19151	0.27585	0.11053	0.10733	0.21088	-2.5958	-2.4125	-2.3083	-3.0021	-1.9229	-2.6	-2.8937	-2.3146	-2.9417	-2.4854	-2.4292	-2.9396	-2.1146	-2.8771	-2.625	-2.2042	285.885	379.724	279.082	452.571	499.139	255.470	433.083	431.773	423.156	305.857	490.666	168.937	408.032	461.825	325.485	462.968	0.00068849	0.00038507	0.00018202	1356.2	4.5754e-06	4.9565e-06	1351.6	366.65	5.8093e-06	6.1439e-06	421.59	141.29	123.36	41.525	5.9211e-06	51.125	0.00051727	0.00047673	0.00013191	1375.8	5.2059e-06	5.1602e-06	1377.4	373.25	5.2386e-06	5.1465e-06	430.37	144.71	125.63	42.66	5.0458e-06	52.686	166.357	256.397	235.712	154.490	261.452	311.899	153.848	158.747	269.651	282.961	158.268	162.049	162.857	167.652	284.454	166.577	-8191	255	
29133.654	1	1	0	0	0.10778	0.12604	0.28327	0.24876	0.0010652	0.20983	0.13893	0.24224	0.04383	0.047918	0.082792	0.25567	0.11621	0.35984	0.20678	0.13225	-2.4083	-2.3187	-2.3083	-2.9854	-2.325	-2.5667	-3	-2.3479	-2.8146	-2.6583	-2.2208	-3.0396	-2.2687	-2.5958	-2.8042	-2.275	444.617	487.505	289.519	467.895	180.000	304.932	438.026	469.741	429.230	421.228	239.615	475.499	428.270	482.496	428.662	332.810	0.00071184	0.00046595	0.00012902	1349.6	4.4064e-06	5.2132e-06	1353.7	365.89	5.7438e-06	6.1584e-06	421.82	141.88	122.71	41.403	3.4452e-06	50.901	0.00053121	0.00047156	0.00013364	1375.3	5.1891e-06	5.035e-06	1376.7	372.78	5.2737e-06	4.9509e-06	431.13	144.66	125.71	42.653	5.2522e-06	52.588	170.848	234.342	231.347	154.342	284.974	279.064	154.093	158.955	271.477	286.842	158.384	162.362	162.454	167.912	288.388	166.934	-8191	255	
29133.748	1	1	0	0	0.28093	0.21257	0.018464	0.15215	0.16822	0.062752	0.10232	0.3707	0.21835	0.22921	0.11342	0.29345	0.11118	0.13437	0.1569	0.10195	-2.4833	-2.7208	-2.2521	-3.0062	-2.2354	-2.3542	-2.9542	-2.2062	-2.7021	-2.8208	-2.1063	-2.9604	-2.3375	-2.4938	-2.8771	-2.1917	352.420	331.584	164.969	184.433	461.901	230.746	290.825	487.057	499.615	255.273	147.352	462.014	432.744	432.076	422.036	407.394	0.00065533	0.00053982	0.00011402	1356.7	5.6707e-06	4.4797e-06	1359.8	366.27	4.6648e-06	5.0349e-06	419.37	141.72	122.17	41.434	4.9116e-06	51.023	0.00053706	0.00046042	0.00013317	1374.1	5.1875e-06	5.0835e-06	1376.7	372.47	5.2195e-06	5.0462e-06	429.86	144.65	125.02	42.622	5.2217e-06	52.68	169.321	244.840	245.487	154.493	276.345	301.769	154.359	159.020	276.165	303.050	158.639	162.218	162.727	168.285	288.742	167.054	-8191	255	
29133.869	1	1	0	0	0.11827	0.11328	0.27022	0.073567	0.22118	0.028858	0.12688	0.49123	0.15073	0.13247	0.2236	0.093949	0.10946	0.35552	0.12509	0.40297	-2.2271	-2.8812	-2.025	-2.9729	-2.3812	-2.2208	-3.1875	-2.3563	-2.4521	-2.7583	-2.0604	-2.9979	-2.4313	-2.15	-2.8812	-2.3187	221.747	407.944	313.055	476.719	498.945	335.546	438.765	463.661	310.405	203.990	492.368	206.609	474.367	488.396	388.746	426.522	0.00069509	0.00047204	0.00017192	1361.6	4.6019e-06	5.7157e-06	1359.7	367.38	6.6218e-06	5.7179e-06	422.45	141.33	123.24	41.456	5.1543e-06	51.181	0.00055159	0.00047815	0.00013651	1377.6	5.4317e-06	5.3488e-06	1378.8	373.13	5.2851e-06	5.2833e-06	430.9	144.67	125.71	42.628	5.3731e-06	52.654	170.769	231.367	234.019	154.242	276.771	277.731	153.921	159.003	258.041	268.817	158.536	162.596	162.534	168.047	272.487	167.050	-8191	255	
29133.965	1	1	0	0	0.05046	0.079946	0.12328	0.29798	0.15027	0.25929	0.27891	0.084698	0.023831	0.28393	0.28982	0.046272	0.19162	0.07844	0.10671	0.15332	-2.0812	-2.7667	-1.8958	-2.9208	-2.5833	-2.1083	-3.0938	-2.2792	-2.4	-3.0521	-2.3646	-2.8292	-2.6042	-2.2333	-2.85	-2.4813	166.264	189.761	150.052	144.253	397.061	305.891	455.726	421.267	398.448	499.237	454.908	482.603	173.407	159.630	435.465	420.717	0.00069078	0.00049921	0.00019703	1353.6	4.312e-06	4.5001e-06	1353.9	365.5	5.3823e-06	5.6699e-06	422.69	142.22	123.02	41.432	6.4159e-06	51.126	0.00055673	0.0004783	0.00014037	1375.8	5.3325e-06	5.4408e-06	1375.9	372.58	5.3886e-06	5.099e-06	430.97	145	125.42	42.64	5.3509e-06	52.684	167.766	214.069	228.703	154.550	284.511	287.770	154.289	158.892	265.214	281.512	158.411	162.425	162.575	168.077	280.796	166.983	-8191	255	
29134.061	1	1	0	0	0.18939	0.1394	0.05902	0.2173	0.21021	0.19475	0.34134	0.20606	0.19377	0.09044	0.067336	0.076726	0.1355	0.1351	0.12195	0.22672	-2.0958	-2.9042	-2.1604	-2.6188	-2.6312	-2.1583	-3.0208	-2.5563	-2.3271	-2.9896	-2.4188	-2.7083	-2.6292	-2.2646	-3.0146	-2.7	394.053	406.213	226.847	184.465	407.727	463.238	469.039	451.051	485.806	189.310	185.210	419.739	228.047	428.233	160.412	153.532	0.00068657	0.00048265	0.00014474	1358.3	3.5497e-06	7.064e-06	1353.3	367.52	5.656e-06	6.2019e-06	423.59	142.42	123.44	41.544	3.8988e-06	51.03	0.00055245	0.00047547	0.0001376	1375.8	5.2442e-06	5.4872e-06	1377.7	373.47	5.5143e-06	5.2364e-06	430.91	145.03	125.78	42.599	5.3633e-06	52.586	168.675	210.082	245.067	154.567	254.684	296.272	153.965	159.076	271.884	306.183	158.379	162.421	162.646	167.887	305.348	167.057	-8191	255	
29134.156	1	1	0	0	0.036438	0.18452	0.21665	0.14858	0.097343	0.020663	0.11109	0.22835	0.23258	0.070698	0.20829	0.24824	0.12112	0.36343	0.10962	0.23833	-1.7396	-2.7896	-2.2083	-2.6063	-2.775	-1.9896	-2.8958	-2.6479	-2.2125	-2.9271	-2.1854	-2.6104	-2.7979	-2.2979	-2.7583	-2.5333	445.346	381.022	298.368	454.437	434.992	246.232	487.500	431.378	352.013	140.809	151.810	151.249	473.258	497.503	277.176	440.197	0.00068744	0.00045869	0.0001552	1354.3	3.1855e-06	5.3628e-06	1352.3	364.35	5.1413e-06	4.069e-06	423.07	141.85	122.84	41.226	5.3861e-06	51.079	0.0005531	0.00047899	0.00013612	1376.3	5.2101e-06	5.3842e-06	1376.8	372.48	5.55e-06	5.1212e-06	430.43	144.45	125.47	42.455	5.2179e-06	52.626	170.348	214.066	233.011	154.766	288.665	293.120	154.174	158.745	266.502	287.870	158.300	162.379	162.492	167.843	295.739	166.993	-8191	255	
29134.254	1	1	0	0	0.18228	0.15864	0.093802	0.19326	0.18115	0.20639	0.073466	0.33194	0.29258	0.092523	0.11733	0.25755	0.23049	0.13516	0.14845	0.31568	-1.6437	-2.9771	-2.2146	-2.4896	-2.8583	-2.3521	-2.875	-2.6458	-2.1312	-2.9729	-2.5896	-2.5354	-2.9417	-2.4167	-2.8875	-2.6625	281.687	371.836	398.546	497.497	266.447	243.082	236.361	446.586	471.302	463.219	405.831	462.974	219.796	461.472	333.438	468.804	0.00070753	0.00068885	0.00016116	1359.1	3.7618e-06	5.5353e-06	1360.2	365.62	4.9079e-06	5.8692e-06	422.44	142.17	123.55	41.343	5.5768e-06	51.009	0.00055357	0.00048302	0.00013251	1375.2	5.3131e-06	5.3024e-06	1377.6	372.96	5.3621e-06	5.3775e-06	430.24	144.81	125.67	42.542	5.335e-06	52.499	168.222	229.872	250.918	154.655	265.980	302.293	154.224	158.904	262.391	276.720	158.202	162.510	162.783	167.877	310.487	166.840	-8191	255	
29134.350	1	1	0	0	0.037277	0.10451	0.33852	0.2787	0.27533	0.32389	0.069048	0.25529	0.10944	0.26417	0.19412	0.026478	0.071146	0.10686	0.18834	0.071792	-1.5938	-2.7521	-2.2604	-2.4271	-2.8771	-2.0667	-2.9333	-2.8312	-2.0104	-2.7583	-2.7938	-2.3292	-2.9604	-2.2083	-2.4771	-2.7479	250.328	236.475	390.805	480.349	150.173	410.756	411.462	482.547	283.016	407.415	381.546	384.284	481.169	365.545	387.885	185.689	0.0006984	0.00052812	0.00022993	1352.8	5.2025e-06	5.5178e-06	1356.3	366.66	5.0904e-06	3.4167e-06	423.76	141.69	123.51	41.557	4.5843e-06	50.816	0.00055639	0.0004792	0.00013422	1377.1	5.271e-06	5.3977e-06	1377.4	372.89	5.5537e-06	5.1621e-06	431.28	144.53	125.87	42.589	5.3703e-06	52.582	169.666	221.270	237.069	154.155	262.129	282.408	154.134	158.830	263.253	286.638	158.455	162.248	162.770	167.896	293.923	167.091	-8191	255	
29134.445	1	1	0	0	0.038616	0.2117	0.054072	0.12258	0.25377	0.088588	0.26715	0.29202	0.22695	0.15558	0.26917	0.22016	0.23646	0.33094	0.42648	0.20073	-1.6208	-2.7438	-2.5438	-2.2083	-3.0125	-2.4062	-2.7958	-2.9562	-2.0417	-2.7458	-2.8083	-2.1875	-2.875	-2.3604	-2.1562	-3.0646	186.520	404.449	276.192	353.614	261.653	446.255	429.001	467.814	248.248	474.991	183.750	468.684	201.086	471.017	491.821	483.662	0.00066446	0.00058643	0.000124	1358.3	6.2484e-06	5.9787e-06	1353.7	366.87	5.1913e-06	4.7296e-06	421.13	141.57	123.31	41.301	6.1605e-06	51.097	0.00052768	0.00047463	0.00013249	1375.2	5.2295e-06	5.3791e-06	1377.2	373	5.4758e-06	5.0764e-06	429.92	144.64	125.56	42.488	5.4217e-06	52.682	169.259	229.935	222.092	154.334	281.201	287.997	153.984	158.706	269.035	298.905	158.292	161.918	162.834	167.883	279.071	167.040	-8191	255	
29134.566	1	1	0	0	0.057257	0.25589	0.039157	0.1238	0.057499	0.086102	0.26357	0.18746	0.038095	0.17371	0.11095	0.24494	0.1503	0.15987	0.20497	0.43131	-1.7542	-2.7021	-2.7938	-2.2479	-2.8688	-2.5729	-2.5854	-3.0563	-2.1063	-2.6208	-2.7646	-2.0125	-2.8125	-2.4604	-2.2729	-3.0792	175.265	183.604	256.061	334.458	254.647	162.003	391.440	421.220	469.143	398.444	499.656	462.587	298.003	478.924	365.695	422.345	0.00069648	0.00050337	0.00010093	1356.1	4.9134e-06	5.9981e-06	1354.5	365.24	5.1506e-06	3.6109e-06	423.6	141	122.86	41.549	4.9842e-06	51.178	0.00054651	0.00048432	0.00013373	1376.3	5.219e-06	5.2098e-06	1375.9	372.93	5.3135e-06	5.0721e-06	430.94	144.37	125.6	42.636	5.3436e-06	52.607	169.871	215.798	232.717	154.550	273.084	285.651	154.227	158.895	267.847	303.284	158.469	162.137	162.995	167.854	281.908	167.116	-8191	255	
29134.660	1	1	0	0	0.30064	0.049213	0.24194	0.22747	0.35124	0.21959	0.20672	0.3196	0.30213	0.31805	0.14548	0.18997	0.033172	0.33975	0.12727	0.27602	-1.75	-2.4458	-2.7417	-2.1792	-2.6917	-2.4208	-2.3833	-3.0583	-2.0958	-2.2292	-2.9854	-2.1583	-2.9583	-2.625	-2.0854	-3.1167	395.215	485.426	346.436	439.889	337.014	354.047	429.126	485.439	484.058	456.727	252.109	488.935	451.798	432.923	233.143	464.289	0.00073025	0.00062332	0.00017009	1355.3	4.7389e-06	6.4619e-06	1354.3	366.79	5.0668e-06	3.3395e-06	421.88	141.56	122.63	41.342	6.5288e-06	50.818	0.00055214	0.00048555	0.00013737	1377.2	5.3338e-06	5.1626e-06	1376	373.64	5.323e-06	5.3128e-06	430.78	144.56	125.22	42.536	5.2274e-06	52.592	168.158	230.901	226.471	154.579	276.208	297.854	154.224	159.046	276.437	318.412	158.488	162.392	162.960	167.996	279.478	167.315	-8191	255	
29134.758	1	1	0	0	0.23536	0.011579	0.052738	0.11317	0.12173	0.18688	0.30242	0.34404	0.18632	0.063887	0.23266	0.16234	0.04917	0.19731	0.13236	0.089507	-1.95	-2.4437	-2.7292	-2.0667	-2.7208	-2.8104	-2.2333	-3.1562	-2.3979	-2.175	-3.0792	-2.3292	-2.7292	-2.7208	-2.1396	-3.0687	413.329	205.479	455.304	427.544	173.648	296.609	454.273	409.287	269.332	390.257	214.327	415.629	419.879	412.535	476.291	443.850	0.0006934	0.00059337	0.00016925	1354.7	4.611e-06	3.1764e-06	1356.4	366.87	4.3154e-06	5.1099e-06	422.27	141.37	123.8	41.336	5.4441e-06	50.967	0.00055641	0.00048558	0.00013177	1374.7	5.3832e-06	5.3438e-06	1377.4	373.19	5.2537e-06	5.2451e-06	430.69	144.62	125.86	42.5	5.3443e-06	52.605	169.652	219.783	242.065	154.595	287.452	292.139	154.277	159.040	259.821	273.751	158.570	162.416	162.801	167.920	280.787	167.364	-8191	255	
29134.854	1	1	0	0	0.14128	0.057204	0.1967	0.20289	0.13852	0.05712	0.21891	0.12488	0.23019	0.058722	0.10359	0.038118	0.099173	0.10083	0.1499	0.087082	-2.0521	-2.2333	-2.8375	-2.3042	-2.5542	-2.8646	-2.4333	-3.0708	-2.4375	-2.2292	-2.9125	-2.4437	-2.7583	-3.0479	-2.0792	-2.9708	176.076	171.547	239.952	382.816	315.657	398.823	475.680	450.046	438.152	467.109	160.460	269.401	161.074	447.990	311.914	172.259	0.00066424	0.00073415	0.00015937	1357	4.6551e-06	2.3759e-06	1359.8	366.12	6.2761e-06	6.4607e-06	422.31	141.58	123.6	41.353	4.5034e-06	50.946	0.00053416	0.00048751	0.00012965	1373.9	5.3121e-06	5.1774e-06	1377.2	372.66	5.1921e-06	5.2849e-06	430.07	144.24	125.88	42.538	5.2036e-06	52.641	167.372	250.274	232.271	154.746	279.416	261.971	154.095	159.022	273.099	293.272	158.567	162.254	162.984	168.056	265.609	167.184	-8191	255	
29134.949	1	1	0	0	0.15751	0.11812	0.11333	0.094513	0.12977	0.13567	0.06268	0.082314	0.21798	0.15041	0.080319	0.10766	0.16917	0.064529	0.25125	0.26118	-2.1354	-2.1937	-2.9688	-2.3792	-2.4771	-2.6958	-2.2833	-3.0375	-2.5125	-2.1958	-2.9667	-2.3854	-2.3542	-3.0604	-2.0062	-2.7854	387.419	250.271	255.153	417.248	367.819	210.824	417.614	426.222	219.901	165.160	476.406	345.794	370.724	323.330	180.088	452.338	0.0007251	0.00045528	0.00015677	1355.2	3.6014e-06	5.2957e-06	1356.2	365.02	6.6815e-06	5.6568e-06	421.91	142.07	123.83	41.427	5.0599e-06	50.87	0.0005488	0.00047839	0.00013011	1373.8	5.2936e-06	5.1198e-06	1376.5	372.87	5.2876e-06	5.2637e-06	430.11	144.67	125.85	42.549	5.2576e-06	52.563	168.670	215.152	248.966	154.624	273.277	294.733	153.847	158.996	279.783	299.149	158.501	162.307	162.833	167.881	266.100	167.106	-8191	255	
29135.047	1	1	0	0	0.27552	0.18155	0.13059	0.42897	0.084124	0.13387	0.44772	0.25657	0.16639	0.055231	0.31473	0.26869	0.18492	0.15051	0.055509	0.19786	-2.2208	-2.1146	-2.8104	-2.4354	-2.325	-2.9417	-2.5104	-2.7458	-3.0021	-2.3854	-3.0167	-2.6688	-2.3812	-2.9292	-2.2292	-2.7333	379.158	255.432	413.141	146.419	288.848	206.307	476.091	353.280	279.439	159.735	436.971	393.956	428.781	486.459	226.482	438.038	0.0007192	0.00048205	0.00013379	1358	5.4224e-06	4.412e-06	1353.8	364.53	4.5822e-06	5.2682e-06	421.73	141.06	123.83	41.287	4.8015e-06	51.129	0.00054016	0.00048992	0.00012776	1375.5	5.1709e-06	5.2101e-06	1374.5	372.54	5.064e-06	5.3018e-06	430.28	144.23	125.7	42.46	5.2601e-06	52.57	167.927	206.762	225.192	154.499	268.547	313.132	154.222	159.059	283.639	301.302	158.331	162.285	163.099	167.921	260.281	167.287	-8191	255	
29135.166	1	1	0	0	0.074692	0.049423	0.12103	0.1976	0.2566	0.20973	0.18837	0.063909	0.12346	0.068906	0.23669	0.098917	0.040451	0.27763	0.27069	0.18101	-2.3688	-2.0396	-2.8187	-2.6208	-2.1333	-2.9854	-2.3729	-2.8292	-2.7479	-2.0125	-2.8854	-2.675	-2.1167	-2.9562	-2.2583	-2.6646	467.413	395.534	435.970	421.173	188.452	334.873	441.543	327.885	394.084	178.511	476.343	415.579	400.407	444.593	267.597	179.082	0.0007152	0.00045516	0.00015394	1355.9	3.9031e-06	4.2321e-06	1354.5	365.23	5.569e-06	5.3781e-06	421.42	140.82	122.85	41.344	5.9581e-06	50.992	0.00055433	0.00047682	0.00012715	1372.1	5.2997e-06	4.9983e-06	1375.7	373.05	5.189e-06	5.167e-06	430.74	144.18	125.47	42.532	5.2042e-06	52.604	171.106	228.060	224.143	154.204	290.186	297.004	154.022	159.037	273.684	307.095	158.662	162.287	162.950	167.968	283.655	167.268	-8191	255	
29135.262	1	1	0	0	0.20381	0.056569	0.25476	0.29164	0.19008	0.05029	0.13234	0.057334	0.17683	0.29029	0.13673	0.22563	0.037339	0.18154	0.28481	0.25966	-2.4479	-2.0896	-2.6958	-2.5979	-2.0396	-2.8312	-2.3917	-2.3187	-2.725	-2.3917	-2.7917	-2.775	-2.2521	-3.0062	-2.3792	-2.3312	382.326	297.313	349.447	415.946	293.162	427.283	404.343	157.864	197.313	457.814	484.294	153.244	156.877	457.513	495.758	288.593	0.00065713	0.00051877	6.8452e-05	1354.1	6.2261e-06	4.0886e-06	1353.3	366.59	4.5316e-06	5.6185e-06	421.06	140.46	122.61	41.365	5.7504e-06	50.794	0.00052592	0.00050012	0.00013362	1372.5	5.4521e-06	5.0784e-06	1373.5	373.46	5.3421e-06	5.348e-06	430.14	144	125.47	42.642	5.1226e-06	52.603	167.882	214.462	265.602	154.226	265.488	293.241	154.080	159.031	276.228	305.129	158.446	162.265	162.917	168.032	260.537	167.432	-8191	255	
29135.357	1	1	0	0	0.076582	0.21374	0.19216	0.3001	0.15707	0.08422	0.19855	0.32105	0.12748	0.16937	0.25971	0.057909	0.22949	0.17437	0.21773	0.13549	-2.5	-2.0208	-2.3708	-2.8354	-1.9896	-2.8667	-2.6583	-2.4292	-3.0083	-2.3125	-2.7979	-2.8229	-2.2708	-2.8479	-2.4729	-2.2271	410.519	371.977	253.521	457.153	305.920	341.116	406.320	406.473	414.042	175.523	446.788	458.986	149.829	393.004	462.981	367.325	0.00071189	0.00070918	0.00016817	1353.3	4.8284e-06	4.7254e-06	1350.6	365.87	6.4765e-06	7.055e-06	423.51	141.24	122.74	41.409	5.8328e-06	50.736	0.0005411	0.00049726	0.00013189	1373	5.1109e-06	5.0124e-06	1373.1	372.97	5.2454e-06	5.0917e-06	431.42	144.35	125.39	42.535	5.2341e-06	52.445	168.853	232.282	225.022	154.483	271.923	266.444	154.053	158.815	269.220	297.205	158.841	162.416	162.712	168.214	261.710	167.313	-8191	255	
29135.455	1	1	0	0	0.14564	0.1663	0.20068	0.29365	0.21576	0.21449	0.3242	0.058487	0.16309	0.12011	0.063503	0.17744	0.21048	0.19692	0.061857	0.39607	-2.425	-2.1896	-2.4042	-2.8875	-2.0625	-2.8271	-2.7292	-2.3417	-2.925	-2.3396	-2.5708	-2.8146	-2.175	-2.7667	-2.5	-2.1917	203.151	288.202	363.433	437.780	490.902	368.050	472.107	364.785	255.708	317.529	493.147	475.770	440.273	470.467	462.337	162.199	0.00067751	0.00050136	0.00010549	1347.9	4.0511e-06	4.1859e-06	1350.6	365.72	5.5187e-06	3.685e-06	421.19	141.01	123.26	41.366	5.7111e-06	50.814	0.00052953	0.00048429	0.00013321	1373.3	5.2448e-06	5.173e-06	1374.9	372.48	5.2494e-06	5.1272e-06	430.18	144.37	125.25	42.511	5.1795e-06	52.41	169.743	221.299	221.314	154.418	268.537	310.582	154.296	158.905	266.313	268.826	158.459	162.217	163.133	168.165	272.553	167.168	-8191	255	
29135.551	1	1	0	0	0.23227	0.079906	0.23749	0.20123	0.083427	0.19194	0.122	0.15625	0.35948	0.12008	0.15927	0.12255	0.15954	0.16876	0.17694	0.17843	-2.4396	-2.1896	-2.1292	-3.1292	-2.1146	-2.7854	-2.6417	-2.1396	-2.8688	-2.6375	-2.375	-3.0187	-2.3354	-2.575	-2.9146	-2.3271	344.204	499.595	159.942	462.230	423.807	166.409	469.512	420.408	313.391	493.204	438.039	441.174	498.367	142.484	360.691	439.677	0.00071475	0.00064269	0.00013676	1347.3	5.3266e-06	5.2563e-06	1345.6	367.17	4.8126e-06	5.5102e-06	422.76	141.44	122.91	41.273	7.1494e-06	51.06	0.00054202	0.00047249	0.00013627	1373.5	5.1891e-06	5.1316e-06	1371.9	372.81	5.3279e-06	4.8928e-06	430.24	144.34	125.28	42.483	5.2255e-06	52.6	168.943	234.681	232.856	154.398	272.263	300.948	153.943	158.977	255.782	292.640	158.607	162.179	162.677	168.076	294.842	167.047	-8191	255	
29135.645	1	1	0	0	0.24489	0.044681	0.19952	0.16531	0.34456	0.16074	0.11849	0.19547	0.13527	0.1733	0.18183	0.05167	0.041975	0.20879	0.12428	0.23767	-2.3396	-2.4521	-2.2438	-2.8833	-2.2396	-2.5208	-3.1604	-2.3604	-2.6833	-2.5812	-2.3333	-3.1854	-2.4458	-2.4792	-2.9146	-2.1125	413.115	166.685	243.918	464.683	199.960	243.552	450.888	154.719	328.576	348.949	423.943	237.993	253.675	499.427	388.150	393.897	0.00069479	0.00069934	0.00017701	1349.2	5.6957e-06	4.791e-06	1352.9	365.26	5.7127e-06	3.2423e-06	422.14	141.09	123	41.378	3.106e-06	50.879	0.00052592	0.00047703	0.00013427	1371.6	5.2066e-06	5.1943e-06	1374.4	372.51	5.2211e-06	5.2374e-06	430.23	144.31	125.31	42.443	5.2836e-06	52.485	168.124	221.706	214.101	154.353	274.122	309.895	154.148	158.995	256.399	286.209	158.659	162.329	162.897	168.255	269.504	167.284	-8191	255	
29135.740	1	1	0	0	0.13873	0.23047	0.061296	0.33236	0.16123	0.21313	0.22375	0.43903	0.25017	0.21096	0.21876	0.07934	0.13379	0.20366	0.21578	0.28728	-2.1958	-2.7021	-2.15	-3.05	-2.3812	-2.4	-3.1917	-2.3146	-2.5667	-2.7771	-2.2833	-3.0021	-2.4417	-2.4458	-2.8229	-2.1521	434.716	209.634	499.541	153.457	326.968	307.620	450.010	162.959	345.094	430.744	141.320	257.499	455.783	461.323	279.846	429.790	0.00071744	0.0005664	0.00021237	1352.3	3.705e-06	5.4156e-06	1354	365.18	4.6002e-06	4.9612e-06	422.19	141.42	122.54	41.288	4.4467e-06	50.86	0.00053927	0.00048089	0.00013634	1373.7	5.2847e-06	5.136e-06	1374.5	372.42	5.2827e-06	4.9665e-06	430.15	144.1	125.26	42.455	5.1226e-06	52.468	169.449	240.468	233.568	154.307	272.099	293.511	154.128	158.860	261.909	284.461	158.600	162.266	162.686	168.284	292.117	167.181	-8191	255	
29135.840	1	1	0	0	0.054817	0.088047	0.15448	0.43519	0.055415	0.22925	0.23079	0.31149	0.11974	0.19693	0.41271	0.19679	0.20194	0.17091	0.094044	0.24205	-2.2979	-2.75	-1.9833	-2.9229	-2.4833	-2.3708	-3.0292	-2.3187	-2.4875	-2.8521	-2.2021	-2.85	-2.7417	-2.4	-2.9333	-2.3875	493.906	307.715	263.280	432.950	194.082	409.026	400.916	481.932	361.148	158.455	393.228	348.490	484.340	452.289	216.621	443.046	0.00071547	0.00048223	0.00022876	1350.3	3.417e-06	5.0597e-06	1354.4	365.65	4.9761e-06	4.8335e-06	420.03	141.37	122.99	41.444	5.6396e-06	50.765	0.000546	0.00046265	0.00013521	1372.8	5.1945e-06	5.3367e-06	1376.2	372.15	5.2275e-06	5.1216e-06	429.4	144.41	125.4	42.488	5.1182e-06	52.4	170.388	216.217	241.900	154.661	274.481	263.615	154.126	158.791	271.219	289.762	158.372	162.516	163.118	168.090	248.722	166.965	-8191	255	
29135.957	1	1	0	0	0.20875	0.1093	0.10253	0.12142	0.26246	0.24866	0.36735	0.34191	0.13678	0.26149	0.22971	0.24448	0.18405	0.15841	0.11733	0.13801	-2.0458	-2.6229	-2.1229	-2.8542	-2.5687	-2.2812	-3.1521	-2.4417	-2.3792	-3	-2.2375	-2.8854	-2.8	-2.1917	-2.7958	-2.6042	162.214	217.096	161.318	341.205	397.043	276.682	445.350	440.729	216.111	459.385	486.407	462.636	372.527	162.441	286.922	392.483	0.00072307	0.00063948	0.00014377	1358.3	3.9323e-06	5.6161e-06	1351.1	363.24	4.9185e-06	3.8376e-06	422.06	140.88	123.66	41.305	6.8717e-06	51.032	0.00054135	0.00048766	0.00013048	1375.6	5.1157e-06	5.1118e-06	1371.5	371.8	5.4555e-06	5.1375e-06	429.82	143.97	125.66	42.542	5.0086e-06	52.537	168.686	229.385	237.669	154.720	266.098	283.654	154.167	158.891	261.942	305.314	158.583	162.839	163.027	168.111	280.644	167.182	-8191	255	
29136.055	1	1	0	0	0.11782	0.18552	0.026054	0.037994	0.14837	0.24874	0.16152	0.29372	0.24652	0.11002	0.2342	0.16152	0.19252	0.10631	0.066241	0.22158	-2.1083	-2.9021	-1.8875	-2.6417	-2.8479	-2.1104	-3.1354	-2.5563	-2.3229	-3.0896	-2.2521	-2.7417	-3.0312	-2.35	-2.6729	-2.6708	195.088	194.584	486.448	308.269	377.783	291.130	141.210	141.312	235.467	349.100	186.957	421.460	408.017	373.509	405.967	329.270	0.00066389	0.00058529	0.00017674	1353.4	4.1717e-06	3.8934e-06	1350.8	364.08	5.8642e-06	5.0944e-06	420.85	141.88	122.38	41.342	4.2652e-06	50.812	0.00053796	0.00044601	0.00013302	1370.3	5.0016e-06	5.2444e-06	1372.6	372.19	5.1542e-06	5.0472e-06	428.67	144.26	125.06	42.487	5.0404e-06	52.361	169.231	227.543	223.166	154.629	267.970	288.814	154.132	158.840	272.946	307.343	158.404	162.314	162.735	167.912	272.288	167.420	-8191	255	
29136.127	1	1	0	0	0.068584	0.13569	0.16809	0.18311	0.051128	0.19439	0.18958	0.21691	0.13774	0.11587	0.020826	0.26016	0.13421	0.24737	0.17389	0.18692	-1.8583	-2.9458	-2.2	-2.5146	-2.7417	-2.1979	-3.0833	-2.8104	-2.1688	-3.0854	-2.4354	-2.5	-2.9208	-2.3563	-2.8063	-2.8312	418.898	351.489	330.121	459.428	468.428	362.035	152.276	153.120	274.469	141.957	215.481	208.306	282.514	469.188	341.203	198.641	0.00068072	0.00027755	0.00015124	1358.6	5.5576e-06	2.9684e-06	1349.3	362.53	4.9479e-06	9.2682e-06	419.7	142.01	122.27	41.279	5.3049e-06	50.921	0.00053772	0.0004705	0.00013173	1373	5.0723e-06	5.2673e-06	1371.7	371.29	5.3766e-06	4.921e-06	428.26	144.22	124.99	42.479	5.1115e-06	52.469	168.660	221.535	225.435	154.391	262.556	299.168	154.133	159.092	257.385	301.244	158.626	162.466	162.537	168.001	292.906	167.124	-8191	255	
29136.246	1	1	0	0	0.18744	0.1285	0.13964	0.022072	0.13315	0.040526	0.20099	0.13412	0.21349	0.15467	0.076767	0.12473	0.16567	0.20397	0.14348	0.21817	-1.7021	-2.8021	-2.3438	-2.4417	-2.8396	-2.2292	-2.9562	-2.8833	-2.0167	-2.8937	-2.4583	-2.1667	-3.0792	-2.2604	-2.6521	-2.7062	206.830	242.857	352.429	354.234	324.363	425.674	398.473	452.937	481.730	434.212	495.689	405.127	423.992	439.438	247.939	496.521	0.00070775	0.00042762	0.00014527	1355.6	4.4623e-06	4.0413e-06	1352.3	365.17	5.4187e-06	5.5216e-06	420.67	140.93	122.41	41.246	5.647e-06	51.035	0.00054416	0.00045958	0.00013439	1373.9	5.2327e-06	5.1444e-06	1372.8	371.89	5.3455e-06	5.0864e-06	429.31	144.17	125.13	42.457	4.9502e-06	52.426	170.310	226.671	240.934	154.556	289.266	298.972	154.185	158.842	289.985	270.846	158.353	162.539	162.745	167.846	292.562	167.119	-8191	255	
29136.344	1	1	0	0	0.14254	0.18509	0.23561	0.18341	0.11577	0.12846	0.24358	0.24057	0.062032	0.059292	0.31634	0.47187	0.041103	0.051459	0.27911	0.046348	-1.6771	-2.6437	-2.4958	-2.2792	-2.7604	-2.2208	-2.5833	-2.9813	-2.0104	-2.75	-2.6854	-2.1688	-3.0125	-2.3333	-2.4604	-3.0125	495.017	438.843	498.120	180.109	219.987	362.430	436.324	423.526	235.210	324.637	431.307	497.460	395.807	152.640	415.249	160.208	0.00068349	0.00052012	0.00017726	1352.8	4.8325e-06	6.4306e-06	1349.8	364.64	5.0998e-06	8.5365e-06	422.45	141.06	122.91	41.144	3.9489e-06	50.904	0.0005421	0.00045365	0.00013335	1371.7	5.0516e-06	5.2131e-06	1372.7	371.82	5.0883e-06	5.1388e-06	429.54	144.03	125.19	42.35	5.2963e-06	52.46	165.463	226.893	221.113	154.486	276.295	302.265	154.045	158.790	274.791	298.748	158.387	162.444	162.624	167.682	272.705	167.097	-8191	255	
29136.439	1	1	0	0	0.083104	0.17632	0.27997	0.026778	0.19059	0.34606	0.37944	0.21682	0.31387	0.03972	0.18881	0.094579	0.16393	0.24524	0.1324	0.016998	-1.8646	-2.9062	-2.4917	-2.3	-2.9042	-2.4	-2.4521	-3.0021	-2.1542	-2.6479	-2.7062	-2.1729	-2.9792	-2.3479	-2.2625	-3.0521	181.995	334.083	180.905	390.165	384.044	465.875	398.536	156.453	250.080	418.633	465.536	327.331	372.900	156.812	405.048	234.790	0.00064218	0.00054953	9.4466e-05	1352.6	3.6442e-06	6.6378e-06	1349.8	364.09	3.278e-06	5.604e-06	422.28	141.09	123.35	41.348	4.9037e-06	51.09	0.00052696	0.0004603	0.00012827	1371.4	5.08e-06	5.2141e-06	1370.7	371.73	5.1533e-06	5.1043e-06	430.08	144.06	125.24	42.488	5.2617e-06	52.532	171.066	234.076	217.635	154.443	275.416	276.497	154.226	158.843	261.391	292.380	158.273	162.167	162.843	168.166	267.816	167.161	-8191	255	
29136.559	1	1	0	0	0.27468	0.23446	0.14077	0.27867	0.23354	0.095429	0.34048	0.22272	0.039089	0.13621	0.20356	0.27256	0.19881	0.15714	0.23002	0.27941	-1.6146	-2.6104	-2.6104	-2.0667	-2.8875	-2.4813	-2.5229	-2.95	-2.0938	-2.6792	-2.7812	-2.2417	-2.8458	-2.5271	-2.2354	-3.1167	200.193	290.717	339.408	168.959	482.578	212.648	457.893	436.206	421.259	283.332	424.435	491.265	336.642	279.315	187.326	411.006	0.00069283	0.00056103	0.00015967	1350.1	4.6643e-06	7.577e-06	1351.1	366.12	5.3936e-06	4.6197e-06	419.59	141.26	123.69	40.995	5.8346e-06	50.705	0.00052957	0.00046524	0.00013268	1371.3	4.9282e-06	5.2347e-06	1372.2	372.19	5.1721e-06	5.0917e-06	429.18	143.97	125.53	42.319	5.1194e-06	52.368	167.945	231.789	226.620	154.228	255.836	282.205	154.062	159.024	283.421	281.992	158.521	162.456	163.172	168.159	257.502	167.116	-8191	255	
29136.654	1	1	0	0	0.61211	0.29847	0.29151	0.17006	0.18143	0.11842	0.060428	0.26373	0.039264	0.097606	0.23291	0.20456	0.15903	0.22085	0.077515	0.080276	-2.0354	-2.5854	-2.7292	-2.1729	-2.8646	-2.7687	-2.2646	-3.2229	-2.3646	-2.2833	-2.9167	-2.1729	-2.6625	-2.5208	-2.2896	-2.9292	447.190	163.082	237.646	440.994	353.610	375.619	401.662	430.703	422.187	231.417	473.413	190.375	192.879	407.970	455.597	280.039	0.00061171	0.00062189	0.00019275	1346.6	6.2307e-06	5.8476e-06	1352.6	365.15	4.7499e-06	5.8343e-06	421.78	141.3	123.05	41.37	3.8874e-06	50.588	0.0005288	0.00047156	0.00012629	1369.8	5.0258e-06	5.2118e-06	1373.9	372.11	5.2205e-06	5.2829e-06	428.94	144.16	125.15	42.417	5.2436e-06	52.373	168.450	221.223	236.443	154.668	296.504	270.758	154.352	158.993	268.615	307.471	158.695	162.230	163.011	168.060	267.866	167.400	-8191	255	
29136.727	1	1	0	0	0.25962	0.089116	0.14217	0.21531	0.17467	0.117	0.15362	0.10894	0.1346	0.038815	0.38671	0.087185	0.15956	0.18208	0.14563	0.17519	-1.9979	-2.3771	-2.9021	-2.2896	-2.625	-2.9562	-2.3792	-3.1208	-2.4146	-2.4229	-3.1104	-2.4333	-2.5792	-2.7271	-2.1083	-3.1958	318.019	184.799	201.011	421.698	274.692	169.242	380.665	446.958	167.815	337.304	472.419	142.388	172.799	425.311	467.224	446.247	0.00069922	0.00055346	0.00016955	1346.6	3.2359e-06	4.6615e-06	1346.6	365.26	6.1411e-06	3.6367e-06	422.54	141.02	122.57	41.003	5.4936e-06	50.883	0.00051978	0.00046921	0.00012768	1367.7	5.1384e-06	5.1414e-06	1371.7	371.73	5.2956e-06	4.9622e-06	429.11	144.16	125.21	42.408	5.2388e-06	52.424	170.089	212.866	216.775	154.452	270.495	279.376	154.094	158.980	279.975	296.727	158.309	162.363	163.048	167.834	263.687	167.007	-8191	255	
29136.822	1	1	0	0	0.13041	0.35401	0.16954	0.23581	0.34204	0.1037	0.12602	0.22289	0.14381	0.16197	0.12158	0.1194	0.26968	0.090554	0.080097	0.14566	-2.1188	-2.1813	-2.7771	-2.2667	-2.6292	-2.8646	-2.2458	-2.925	-2.4625	-2.1292	-3.0208	-2.3208	-2.5	-2.9292	-2.1708	-2.8417	271.810	156.493	408.524	155.406	261.926	196.823	150.629	346.428	338.256	329.569	438.856	194.357	270.369	348.510	205.193	259.001	0.00069854	0.0003776	0.00020473	1348.6	5.2889e-06	4.5898e-06	1347.4	364.95	4.0283e-06	3.5301e-06	419.95	140.72	123.29	41.038	4.0648e-06	50.942	0.00051966	0.0004823	0.00012771	1370.4	4.9815e-06	5.1347e-06	1372.4	371.7	5.3754e-06	5.1743e-06	428.61	143.79	125.22	42.337	5.0988e-06	52.485	168.207	256.545	226.799	154.430	274.431	278.341	153.921	158.930	265.133	295.845	158.305	162.022	162.684	167.678	272.603	167.051	-8191	255	
29136.941	1	1	0	0	0.31782	0.20925	0.11919	0.15271	0.21908	0.057679	0.17958	0.28219	0.11871	0.20477	0.079418	0.31233	0.095086	0.17632	0.090758	0.20973	-2.125	-2.3208	-2.8458	-2.3187	-2.3917	-2.8417	-2.2771	-2.8646	-2.575	-1.9521	-3.0812	-2.525	-2.45	-2.9167	-2.1813	-2.9042	259.920	229.336	389.789	162.531	282.556	365.806	496.157	455.991	313.643	242.547	417.206	414.429	339.580	388.063	332.767	437.471	0.00069883	0.00047601	0.00018099	1357.2	4.7834e-06	4.3605e-06	1351.2	365.69	5.6463e-06	5.3978e-06	421.6	141.39	122.84	41.293	4.8931e-06	51.089	0.00052661	0.00047785	0.00012383	1371.7	5.1769e-06	5.0181e-06	1372.6	372.28	5.1742e-06	5.097e-06	429.38	143.98	125.4	42.398	5.0407e-06	52.454	168.110	219.969	234.839	154.133	279.811	277.236	154.234	158.752	276.659	314.538	158.382	162.303	163.130	167.810	290.844	167.340	-8191	255	
29137.037	1	1	0	0	0.33836	0.30156	0.1792	0.10114	0.1895	0.30904	0.24422	0.25572	0.33115	0.081665	0.13153	0.22883	0.18167	0.1595	0.12401	0.235	-2.2625	-2.3312	-2.8438	-2.6125	-2.2958	-2.9875	-2.3708	-2.7708	-2.7438	-2.1854	-3.075	-2.6146	-2.2792	-3.0042	-2.2313	-2.7604	417.633	141.889	269.259	466.041	259.757	344.631	437.584	428.947	207.016	185.228	475.161	480.748	479.484	460.396	338.900	424.293	0.00069038	0.00059673	0.00013763	1349.9	5.5841e-06	3.8251e-06	1350.5	365.75	4.2823e-06	5.7273e-06	420.46	140.42	123.38	41.331	4.3561e-06	50.77	0.00052274	0.00047725	0.00012773	1370.8	5.3376e-06	4.9925e-06	1371.4	372.1	5.0409e-06	5.0754e-06	429.34	143.73	125.4	42.493	5.0302e-06	52.457	170.235	226.439	241.406	154.220	283.341	262.102	154.107	158.934	264.950	295.631	158.365	162.141	162.823	167.801	260.903	167.189	-8191	255	
29137.135	1	1	0	0	0.046299	0.15262	0.20373	0.11344	0.064213	0.30566	0.10304	0.11528	0.15063	0.12576	0.25392	0.2111	0.095504	0.054571	0.017107	0.18865	-2.6875	-2.1104	-2.8625	-2.6583	-2.0375	-2.9479	-2.4979	-2.4708	-2.7875	-2.2042	-2.8771	-2.775	-2.2542	-2.7708	-2.3292	-2.475	274.492	296.303	465.851	241.185	407.589	414.715	473.079	360.025	293.994	301.965	452.010	440.026	179.426	459.409	485.415	404.464	0.00064981	0.00056027	0.00014599	1349.1	3.8526e-06	3.8123e-06	1348.5	365.23	4.1269e-06	5.1507e-06	421.56	140.98	122.7	41.262	5.935e-06	50.444	0.00053392	0.00046015	0.00012689	1369.6	5.0953e-06	5.1043e-06	1370.8	371.77	5.2442e-06	5.0761e-06	429.51	144.12	125.26	42.465	5.0874e-06	52.28	169.448	219.205	212.018	154.257	272.113	307.160	154.171	158.799	259.363	284.426	158.527	162.130	162.257	167.803	285.405	167.159	-8191	255	
29137.256	1	1	0	0	0.15645	0.22728	0.076379	0.12344	0.11703	0.11235	0.057292	0.16213	0.041971	0.10088	0.22029	0.011974	0.16751	0.17259	0.14417	0.081989	-2.5896	-2.1312	-2.7667	-2.7708	-2.1792	-2.8708	-2.5896	-2.5792	-3.0479	-2.2646	-2.5917	-2.8021	-2.0771	-3.0708	-2.3042	-2.4042	295.449	292.260	306.056	270.672	304.061	251.894	366.430	370.384	360.753	445.805	472.114	427.548	435.842	147.175	231.179	469.026	0.00065048	0.00059023	9.8991e-05	1350.1	4.4376e-06	5.8138e-06	1349.3	363.18	4.3916e-06	5.4846e-06	421.67	140.73	122.93	41.055	4.388e-06	50.659	0.00051951	0.00045949	0.00012974	1370.3	5.1065e-06	4.9265e-06	1369.7	371.87	5.1053e-06	4.9698e-06	429.55	143.76	125.1	42.326	5.094e-06	52.382	167.850	226.080	253.274	154.117	273.251	297.447	153.911	158.538	261.650	275.552	158.237	162.081	162.389	167.782	281.086	166.767	-8191	255	
29137.352	1	1	0	0	0.20164	0.14089	0.33051	0.33879	0.20905	0.15825	0.10484	0.30098	0.19203	0.26591	0.13674	0.3021	0.19977	0.18786	0.047307	0.31503	-2.4979	-2.3063	-2.4958	-2.9062	-2.0771	-2.9604	-2.9792	-2.4562	-3.0396	-2.0187	-2.5458	-2.7875	-2.2313	-2.9521	-2.5062	-2.3563	354.915	262.488	183.668	470.956	330.623	339.393	265.671	463.983	312.822	466.601	161.210	379.085	247.491	161.996	433.731	475.302	0.00069916	0.0004052	0.00016753	1351.5	4.255e-06	4.1158e-06	1345	365.74	5.8036e-06	5.0442e-06	418.75	140.75	122.51	41.225	5.6125e-06	50.729	0.00052912	0.00048155	0.00013676	1369.6	5.3278e-06	5.1724e-06	1369.6	371.81	5.141e-06	5.0937e-06	428.02	144.03	125.28	42.316	5.1483e-06	52.402	170.426	218.509	215.952	154.104	273.750	311.488	153.712	158.718	275.974	277.127	158.256	161.835	162.618	167.634	280.315	166.815	-8191	255	
29137.424	1	1	0	0	0.14073	0.072746	0.21446	0.14587	0.19658	0.17282	0.21013	0.34243	0.2025	0.28342	0.23106	0.33221	0.20415	0.3098	0.13242	0.15764	-2.6271	-2.3312	-2.2271	-3.0479	-2.2333	-2.7583	-2.7583	-2.3417	-3.1437	-2.6063	-2.4771	-3.0167	-2.1854	-2.6458	-2.7917	-2.1	427.372	332.096	203.017	439.667	313.740	438.620	454.893	436.404	428.964	445.129	489.365	385.509	416.227	162.577	335.295	421.721	0.00067296	0.00040181	0.00013237	1348.7	4.9602e-06	5.83e-06	1348.8	365.04	4.5357e-06	6.453e-06	421.92	140.24	122.92	41.109	7.0673e-06	50.951	0.00052006	0.00048293	0.00013179	1369.7	5.248e-06	5.1549e-06	1369.7	371.63	5.1595e-06	4.999e-06	429.13	143.73	124.99	42.362	5.1277e-06	52.432	168.040	229.821	253.340	154.143	284.900	282.597	153.664	158.653	273.145	304.453	158.076	162.131	162.484	167.673	277.889	166.755	-8191	255	
29137.520	1	1	0	0	0.077916	0.072858	0.15762	0.14439	0.1679	0.067502	0.32877	0.454	0.16595	0.091599	0.27763	0.19336	0.14064	0.20687	0.1328	0.34446	-2.5563	-2.35	-2.2917	-2.9854	-2.0958	-2.5687	-2.8583	-2.2479	-2.9562	-2.5542	-2.25	-3.0021	-2.2625	-2.7375	-2.6979	-2.1396	313.528	195.903	233.196	457.299	431.664	333.245	418.584	455.489	400.189	437.454	421.587	368.093	429.195	415.921	310.283	454.079	0.000702	0.00060091	0.00010394	1346.3	5.7612e-06	3.8998e-06	1349.1	363.79	4.9416e-06	7.079e-06	419.54	141.55	121.41	41.114	4.6544e-06	50.793	0.00053651	0.00047267	0.00012786	1368.1	5.2018e-06	5.2458e-06	1369.5	371.57	5.3329e-06	5.1451e-06	428.45	144.03	124.72	42.411	4.9858e-06	52.316	169.222	239.214	231.920	154.018	258.746	306.048	153.957	158.776	277.586	287.869	158.408	162.266	162.426	168.002	280.045	167.020	-8191	255	
29137.641	1	1	0	0	0.056073	0.1692	0.12324	0.12694	0.22724	0.26108	0.218	0.29209	0.07557	0.24027	0.47585	0.27032	0.20213	0.27409	0.15356	0.16172	-2.3312	-2.3208	-2.1083	-3.2333	-2.3396	-2.4521	-3.1958	-2.1312	-2.8625	-2.6667	-2.3583	-3.0354	-2.3646	-2.3917	-2.825	-2.3625	320.230	333.515	236.677	246.959	206.811	388.440	178.494	448.227	343.097	470.588	415.288	220.075	421.115	427.832	323.662	406.260	0.0007083	0.00055482	0.00018414	1350.9	5.3878e-06	4.6272e-06	1351.2	364.74	4.8456e-06	3.1873e-06	419.66	140.77	121.82	41.196	5.1815e-06	50.85	0.00052968	0.00046172	0.00013599	1369.1	5.1996e-06	5.1963e-06	1371.4	371.41	4.9611e-06	5.0694e-06	428.18	143.64	124.71	42.423	4.9032e-06	52.427	167.926	230.415	228.789	154.229	282.514	295.105	153.944	158.839	274.528	300.505	158.421	162.279	162.545	167.917	284.601	166.848	-8191	255	
29137.734	1	1	0	0	0.19226	0.20386	0.19118	0.35089	0.11864	0.19616	0.31539	0.17438	0.16824	0.077206	0.1806	0.15027	0.12243	0.10304	0.26147	0.081907	-2.2167	-2.6396	-1.9521	-3.1083	-2.3771	-2.3312	-3.1646	-2.05	-2.625	-2.7687	-2.1583	-3.1771	-2.4021	-2.2479	-2.9042	-2.1792	441.815	258.209	436.062	427.133	490.009	450.251	429.945	145.514	267.823	337.150	483.403	432.349	433.626	299.241	343.498	157.116	0.00068532	0.00088943	0.00013245	1357	3.8897e-06	4.6505e-06	1346.4	364.13	5.1346e-06	5.2564e-06	421.12	141.33	122.02	41.157	5.8481e-06	50.748	0.00053423	0.00049076	0.00013075	1371.3	5.1294e-06	4.9929e-06	1370	371.11	5.206e-06	4.9074e-06	429.1	144.14	124.78	42.343	5.0826e-06	52.341	172.494	220.489	236.049	154.309	278.487	319.042	153.984	158.802	267.544	289.141	158.492	162.038	162.617	167.932	265.819	166.847	-8191	255	
29137.830	1	1	0	0	0.077142	0.1584	0.13221	0.15407	0.032652	0.071214	0.092802	0.25058	0.22539	0.13546	0.12967	0.14943	0.27486	0.052463	0.17843	0.28736	-2.0958	-2.6604	-1.875	-2.8104	-2.4292	-2.2979	-2.9833	-2.5083	-2.3063	-2.8563	-2.2271	-3.0021	-2.55	-2.4271	-2.8208	-2.3458	376.251	221.814	453.743	324.083	320.105	411.815	214.455	438.103	186.766	192.312	447.045	146.409	447.297	239.212	271.134	316.704	0.00068613	0.00040118	0.000151	1345.9	5.1709e-06	8.5233e-06	1347.4	364.41	5.5777e-06	4.8959e-06	420.09	140.88	122.57	41.022	5.5004e-06	50.766	0.00053045	0.00044763	0.00012824	1369.9	5.2152e-06	5.2875e-06	1370	371.24	5.2054e-06	5.2198e-06	428.54	143.93	124.88	42.319	4.9912e-06	52.396	166.021	227.394	244.801	154.161	285.528	285.076	154.163	158.839	284.635	288.440	158.267	162.354	162.630	167.872	299.279	166.829	-8191	255	
29137.928	1	1	0	0	0.18586	0.05077	0.31525	0.25555	0.18294	0.42164	0.045908	0.06134	0.16897	0.072041	0.23677	0.087437	0.24101	0.24176	0.098112	0.27413	-2.0208	-2.7208	-2.0042	-2.8729	-2.7354	-2.1208	-3.1229	-2.2854	-2.4125	-3.0083	-2.1562	-2.7042	-2.6688	-2.1917	-2.8646	-2.4958	399.933	483.005	480.427	472.875	467.528	197.873	142.566	440.514	387.181	276.808	426.588	152.024	410.707	442.648	383.436	467.957	0.00067701	0.00044451	0.00016422	1346.1	5.2816e-06	5.5387e-06	1349.1	362.98	5.3459e-06	6.3764e-06	418.65	140.5	122.83	41.206	5.7403e-06	50.526	0.00053506	0.00046737	0.00012645	1367.5	5.2557e-06	5.0784e-06	1371.2	370.4	5.303e-06	4.8934e-06	428.18	143.8	124.83	42.349	5.1074e-06	52.284	169.894	245.422	243.223	154.409	291.913	290.586	153.959	158.918	258.843	286.554	158.592	162.308	162.781	167.835	289.883	167.224	-8191	255	
29138.023	1	1	0	0	0.15232	0.30668	0.21813	0.31632	0.15166	0.10926	0.3519	0.16183	0.14921	0.030057	0.42512	0.24275	0.274	0.28174	0.21124	0.21321	-1.8792	-2.8688	-2.3458	-2.5958	-2.8333	-2.0771	-3.0646	-2.6396	-2.0792	-2.8812	-2.3	-2.5375	-2.9708	-2.0958	-2.7021	-2.6625	297.613	387.950	267.496	492.902	463.419	333.985	426.156	428.973	187.764	162.139	454.727	161.057	187.743	488.587	147.339	400.754	0.00068583	0.00064729	0.00013708	1344	4.7689e-06	5.3728e-06	1345.5	363.98	4.782e-06	3.6931e-06	420.18	140.91	122.81	41.005	4.3249e-06	50.709	0.00054631	0.00045169	0.00012982	1367	5.0959e-06	5.1121e-06	1369.3	370.95	5.3535e-06	4.9775e-06	428.54	143.9	124.99	42.317	5.0801e-06	52.376	166.029	213.600	202.859	154.334	290.394	300.346	154.078	158.831	269.120	292.216	158.593	162.198	162.596	167.890	292.146	166.953	-8191	255	
29138.119	1	1	0	0	0.23412	0.10125	0.15689	0.082612	0.081397	0.32084	0.30762	0.04473	0.25674	0.17752	0.2869	0.44963	0.3574	0.27109	0.17874	0.09271	-1.7771	-2.8729	-2.15	-2.4771	-2.8917	-2.0167	-3.0812	-2.8	-2.1458	-2.9042	-2.6042	-2.3729	-2.9604	-2.2021	-2.7542	-2.825	214.178	231.461	406.753	495.323	417.267	164.918	440.601	408.655	142.148	460.647	438.929	428.930	444.277	454.650	173.731	396.432	0.00071436	0.00045923	0.00014447	1349.4	4.348e-06	4.4438e-06	1348.6	364	5.7528e-06	6.5546e-06	419.68	140.59	122.8	41.142	5.2916e-06	50.682	0.00054339	0.00047556	0.0001256	1369.3	5.059e-06	4.9454e-06	1370.6	371.4	5.3433e-06	5.002e-06	427.89	143.79	124.92	42.31	5.1588e-06	52.273	171.721	241.056	239.831	154.590	262.172	286.581	153.926	158.787	265.943	286.517	158.142	162.379	162.869	167.906	262.799	166.879	-8191	255	
29138.238	1	1	0	0	0.28724	0.10368	0.12546	0.090558	0.17485	0.1858	0.18984	0.18931	0.19062	0.14735	0.15713	0.039644	0.070341	0.087173	0.1983	0.16772	-1.6854	-2.925	-2.4813	-2.4354	-2.8854	-2.3083	-2.8833	-2.9854	-2.1146	-2.9125	-2.4729	-2.4458	-2.975	-2.2792	-2.7146	-2.8	215.821	487.347	150.983	147.075	487.983	186.224	455.885	470.340	446.009	244.726	447.993	462.639	303.054	435.235	229.488	421.427	0.00072433	0.00051738	0.00015744	1355.7	5.6311e-06	5.0353e-06	1346.6	363.66	4.6945e-06	5.3295e-06	420.54	141.01	122.94	41.298	4.9743e-06	50.646	0.00053049	0.0004653	0.00012968	1369.2	5.0956e-06	5.1384e-06	1370.1	371.11	5.3649e-06	4.8998e-06	427.98	143.84	125.19	42.374	5.2553e-06	52.34	169.468	195.794	227.794	154.456	276.155	290.642	154.010	158.740	263.931	289.909	158.364	162.146	162.608	167.889	270.244	166.794	-8191	255	
29138.336	1	1	0	0	0.12197	0.12498	0.16333	0.25726	0.22015	0.12101	0.26931	0.31027	0.4282	0.078028	0.18096	0.56604	0.052625	0.1823	0.11096	0.16561	-1.6396	-2.6917	-2.3833	-2.2542	-2.9333	-2.3917	-2.5354	-3	-2.1875	-2.8875	-2.8042	-2.1208	-3.1167	-2.3667	-2.4562	-2.9583	420.381	245.347	268.324	157.968	396.714	210.143	439.364	481.870	387.507	476.841	398.077	459.830	416.036	228.290	448.485	159.664	0.00066254	0.00054704	0.0001347	1351	3.9464e-06	5.2345e-06	1353.9	363.91	3.7793e-06	5.4083e-06	421.83	140.83	122.99	41.263	4.0528e-06	50.625	0.00054729	0.00045221	0.00012866	1369.8	5.2165e-06	5.1501e-06	1371.3	371.12	5.198e-06	5.0897e-06	428.49	143.71	125.01	42.333	5.2198e-06	52.352	169.167	248.044	231.173	154.380	274.194	279.799	154.090	158.880	263.742	302.166	158.233	162.469	162.894	167.801	270.100	167.149	-8191	255	
29138.432	1	1	0	0	0.28184	0.071064	0.2299	0.29674	0.18225	0.17731	0.33008	0.2362	0.036909	0.09328	0.073992	0.21751	0.19723	0.33827	0.078671	0.11683	-1.6646	-2.5979	-2.6792	-2.1458	-2.9104	-2.2646	-2.5854	-3.0729	-2.1458	-2.7667	-2.6229	-2.3104	-2.9646	-2.5625	-2.2021	-3.1083	326.996	284.421	257.945	151.036	448.083	432.675	450.500	409.470	202.852	247.597	369.247	427.877	321.513	465.691	413.043	405.739	0.0006691	0.00043873	0.00022319	1348.4	5.1477e-06	2.551e-06	1349.7	362.87	4.6272e-06	4.3945e-06	421.57	141.26	123.24	41.095	6.8145e-06	50.685	0.00054472	0.00047282	0.00012927	1368.9	5.0121e-06	5.168e-06	1370.9	371.01	5.336e-06	5.084e-06	428.28	144.07	124.98	42.274	5.0953e-06	52.318	170.468	243.428	233.788	154.304	269.262	278.679	154.299	158.779	282.313	321.129	158.560	162.533	163.174	167.874	279.737	166.996	-8191	255	
29138.527	1	1	0	0	0.10007	0.14889	0.22194	0.1886	0.18389	0.2236	0.28651	0.4358	0.082783	0.10639	0.09269	0.063245	0.088257	0.038632	0.20956	0.2044	-1.7563	-2.7146	-2.6583	-2.1312	-2.9479	-2.5292	-2.4771	-2.9729	-2.3187	-2.6229	-2.9729	-2.225	-2.8146	-2.5542	-2.3271	-2.9292	228.833	236.312	187.662	388.529	162.054	445.747	456.942	437.651	457.460	159.907	358.726	346.539	222.204	428.005	283.974	469.423	0.00065209	0.00046676	0.00017291	1346.3	5.4656e-06	5.6165e-06	1347.3	364.16	4.3577e-06	5.0646e-06	419.78	140.98	122.16	41.166	3.8717e-06	51.024	0.00052733	0.00047637	0.00012771	1368.6	5.234e-06	5.2704e-06	1370	371.42	5.3985e-06	5.261e-06	428.62	143.77	124.93	42.354	5.2258e-06	52.493	167.378	221.628	244.365	154.310	285.505	305.844	154.104	158.890	272.865	285.448	158.479	162.279	162.978	167.667	294.776	166.910	-8191	255	
29138.646	1	1	0	0	0.18848	0.40487	0.15698	0.11396	0.29328	0.14369	0.3265	0.28857	0.18617	0.23468	0.20577	0.18743	0.2317	0.44973	0.24432	0.12773	-1.8792	-2.4021	-2.7396	-2.225	-2.9104	-2.6312	-2.1396	-3.0896	-2.0792	-2.4375	-3.1104	-2.1896	-2.7521	-2.7458	-2.1729	-3.0208	212.949	332.962	181.316	429.822	252.362	308.011	465.493	436.421	196.142	342.342	430.409	398.304	442.610	496.501	151.364	408.174	0.00070168	0.00066957	0.00014556	1343.6	4.098e-06	6.7742e-06	1345.3	364.08	5.5662e-06	4.8126e-06	421.54	140.54	122.59	41.118	3.4867e-06	50.916	0.00054351	0.00046584	0.00012924	1368.7	5.1454e-06	5.067e-06	1369.6	371.59	5.3119e-06	5.2172e-06	428.54	143.66	125.32	42.332	5.2392e-06	52.396	168.595	232.701	209.774	154.602	279.382	291.091	154.073	158.858	284.259	299.328	158.537	162.295	162.872	167.993	276.095	167.208	-8191	255	
29138.719	1	1	0	0	0.10892	0.26767	0.063563	0.33432	0.23237	0.19828	0.054619	0.22109	0.14627	0.030346	0.038446	0.36541	0.079902	0.030835	0.184	0.2793	-1.9646	-2.15	-2.7458	-2.0979	-2.5	-2.675	-2.3688	-2.9125	-2.2687	-2.3063	-2.9292	-2.1667	-2.5896	-2.8417	-2.0667	-2.9021	174.345	355.741	488.886	416.620	364.720	144.075	470.502	478.117	280.800	273.241	486.337	426.398	385.016	392.224	257.962	159.666	0.00069353	0.00033901	0.00011286	1351.6	5.0708e-06	3.5596e-06	1345.5	363.9	5.4531e-06	4.2983e-06	419.34	140.68	122.22	41.144	6.2247e-06	50.676	0.00053261	0.00050271	0.00012978	1367.3	5.051e-06	5.1161e-06	1367.9	371.22	5.2087e-06	5.011e-06	427.73	143.89	124.99	42.31	5.2519e-06	52.361	167.845	219.127	224.562	154.398	278.529	292.450	153.862	158.814	260.851	307.936	158.600	161.912	162.695	167.938	270.484	167.094	-8191	255	
29138.814	1	1	0	0	0.21552	0.046257	0.21008	0.18044	0.1817	0.097489	0.021413	0.16363	0.12279	0.13368	0.20541	0.24045	0.17766	0.35703	0.14554	0.15895	-2.0021	-2.0396	-2.8417	-2.2646	-2.3875	-2.7875	-2.2354	-3.0062	-2.5958	-2.1	-3.0604	-2.3042	-2.575	-2.9729	-2.0521	-2.6854	219.784	349.214	197.622	457.473	380.457	217.873	484.976	474.106	344.043	328.955	438.480	453.317	467.690	445.305	212.313	233.370	0.00069844	0.00050436	0.00010835	1344.5	5.8102e-06	4.7781e-06	1351.5	363.81	5.2053e-06	3.2054e-06	419.25	141.08	121.93	41.333	5.3525e-06	50.729	0.00054178	0.00049076	0.00012857	1368.3	5.1333e-06	5.0804e-06	1370.7	371.09	5.2608e-06	5.0502e-06	428.31	143.8	124.76	42.292	5.1245e-06	52.362	170.609	229.258	224.202	154.113	272.600	289.764	154.035	158.700	265.496	309.033	158.484	162.143	162.932	167.749	286.706	167.025	-8191	255	
29138.910	1	1	0	0	0.25391	0.37936	0.14299	0.0022005	0.14185	0.11055	0.24035	0.19617	0.28271	0.33638	0.10674	0.22696	0.1676	0.16968	0.23432	0.11213	-2.2604	-1.8312	-2.875	-2.375	-2.3063	-2.9583	-2.3292	-2.8854	-2.6333	-2.0312	-2.9292	-2.6771	-2.3083	-2.9188	-1.9167	-2.6729	350.522	175.762	206.445	270.603	167.857	469.705	485.913	392.974	171.111	320.046	204.661	487.458	369.668	457.482	335.585	456.752	0.00069552	0.00057551	0.00015107	1348.7	5.5714e-06	6.695e-06	1345.1	364.15	5.8841e-06	6.0632e-06	420.97	140.37	122.3	41.215	6.0188e-06	50.644	0.00053557	0.00049043	0.0001275	1365.6	5.2445e-06	5.0077e-06	1368.1	370.93	5.1918e-06	5.1807e-06	428.46	143.55	124.96	42.386	5.188e-06	52.39	168.199	214.392	245.546	154.330	262.245	284.296	153.913	159.057	270.319	272.619	158.459	162.166	163.008	167.842	286.773	167.492	-8191	255	
29139.031	1	1	0	0	0.17878	0.20447	0.17904	0.18564	0.25091	0.11342	0.17623	0.20807	0.25994	0.15146	0.16449	0.17985	0.13003	0.23164	0.19279	0.30535	-2.225	-2.1667	-2.7729	-2.3708	-2.3208	-2.9979	-2.3708	-2.7313	-2.6896	-1.9875	-2.8854	-2.4958	-2.1396	-2.9104	-2.0958	-2.6417	156.311	375.854	372.275	479.931	435.329	151.381	401.580	430.031	473.996	172.025	457.306	433.957	155.830	147.861	491.317	481.065	0.00070029	0.00042525	0.00018536	1348.4	4.6143e-06	5.744e-06	1348	365.07	4.9229e-06	3.3482e-06	422.14	140.76	123.16	41.159	5.3055e-06	51.16	0.00053604	0.0004678	0.00012572	1369.9	5.1645e-06	5.0299e-06	1370	371.3	5.1468e-06	5.0206e-06	428.86	143.81	125.35	42.345	5.3138e-06	52.422	167.137	223.732	233.439	154.327	279.455	272.804	153.975	159.002	257.376	321.563	158.438	162.422	162.828	167.959	276.131	167.206	-8191	255	
29139.129	1	1	0	0	0.10649	0.27134	0.25292	0.046444	0.33018	0.23309	0.35439	0.30675	0.16686	0.2613	0.042808	0.43901	0.15256	0.26986	0.1161	0.12852	-2.375	-2.1063	-2.6917	-2.7292	-1.9417	-2.8563	-2.3854	-2.3583	-2.8833	-2.0521	-3.0146	-2.7125	-2.2333	-2.8771	-2.3688	-2.5583	484.797	238.682	250.264	215.172	450.509	326.150	466.332	444.137	397.633	239.727	219.856	465.326	415.976	409.851	287.810	497.005	0.00072347	0.00050702	0.00016962	1348.8	4.5041e-06	4.1483e-06	1348.9	364.29	5.7206e-06	5.5129e-06	421.14	141.08	121.92	41.321	6.4657e-06	50.699	0.0005429	0.00047998	0.00012942	1366.8	5.2831e-06	5.0471e-06	1369	371.69	5.0467e-06	4.9449e-06	429.17	143.88	124.76	42.405	5.4182e-06	52.361	169.392	215.718	222.866	154.190	278.297	284.447	154.043	159.072	273.083	274.381	158.436	162.219	162.872	167.893	273.311	166.791	-8191	255	
29139.225	1	1	0	0	0.047541	0.4001	0.22782	0.19358	0.074585	0.10805	0.087618	0.080299	0.12734	0.052788	0.1504	0.16962	0.11852	0.2693	0.13982	0.15647	-2.45	-2.1104	-2.6396	-2.9208	-1.8583	-2.9917	-2.6667	-2.2771	-3.0292	-2.0604	-2.7292	-2.8667	-2.1375	-2.7583	-2.3187	-2.2479	492.088	321.322	291.028	488.902	238.154	293.702	371.128	142.165	375.781	335.613	184.181	170.869	324.840	462.237	346.830	143.671	0.00069573	0.00064363	0.00016774	1345.2	4.2971e-06	5.5334e-06	1346.6	365.95	4.1551e-06	4.7256e-06	421.33	140.96	122.36	41.153	5.7235e-06	50.733	0.00053225	0.00048001	0.00012652	1367.3	5.2512e-06	5.2751e-06	1368.9	371.87	5.0815e-06	5.1245e-06	429.13	143.93	124.72	42.332	5.2474e-06	52.39	168.323	241.022	219.574	154.226	263.630	284.690	154.081	158.955	263.885	289.643	158.383	162.255	162.652	167.746	298.873	167.067	-8191	255	
29139.320	1	1	0	0	0.26598	0.071166	0.33872	0.16973	0.14024	0.049117	0.30446	0.41447	0.16198	0.081763	0.064215	0.07612	0.092236	0.10315	0.17073	0.090666	-2.4333	-2.2479	-2.3688	-3.0062	-2.1479	-2.7313	-2.7667	-2.4292	-2.8583	-2.3604	-2.6083	-3.1167	-2.1396	-3.0229	-2.5875	-2.2542	314.836	232.428	315.456	461.136	239.706	211.838	396.335	171.575	248.305	174.798	477.334	492.707	237.323	173.886	275.548	492.681	0.00068528	0.00056466	8.8436e-05	1347.2	3.8634e-06	5.0341e-06	1346.6	364.38	5.137e-06	5.3015e-06	422.58	141.21	123.01	41.284	4.8732e-06	50.923	0.00052978	0.00048405	0.0001315	1368.1	5.2528e-06	5.198e-06	1367.6	371.78	5.2158e-06	5.0136e-06	429.5	143.79	124.81	42.328	5.0318e-06	52.395	169.740	225.457	241.723	154.183	271.617	267.880	154.213	158.871	270.741	284.339	158.467	162.314	162.905	168.053	288.726	167.122	-8191	255	
#DATA ENDS
