BOXY.EXE: ISS Imagent and Oximeter Data Acquisition Program Version 0.80
Ascii Record File

#ACQ INFORMATION
2  Detector Channels 
16  External MUX Channels 
1  Auxiliary Channels 
5000  Waveform (CCF) Frequency (Hz)
1  Waveforms Skipped 
30  Waveforms Averaged 
1  Cycles Averaged 
16  Acquisitions per Waveform 
10.0806  Updata Rate (Hz) 

#FILE INFORMATION
TRUE -- External MUX Channel results are PARSED.
FALSE -- AC DC and Phase are NOT grouped.
TRUE -- Companion Program Settings File CREATED.
FALSE -- AC data not excluded
FALSE -- DC data not excluded
FALSE -- Phase data not excluded
FALSE -- Auxillary Chn. data not excluded
Tab delimiters

#CALIBRATION STATE
TRUE -- Waveform Calibration Values APPLIED.


#AUX CALIBRATION VALUES
Val Type	aux-1	

Term	1.0000e+00	
Factor	0.0000e+00	


#WF CALIBRATION VALUES
A = Detector Channel
Val Type	A-AC1	A-AC2	A-AC3	A-AC4	A-AC5	A-AC6	A-AC7	A-AC8	A-AC9	A-AC10	A-AC11	A-AC12	A-AC13	A-AC14	A-AC15	A-AC16	A-DC1	A-DC2	A-DC3	A-DC4	A-DC5	A-DC6	A-DC7	A-DC8	A-DC9	A-DC10	A-DC11	A-DC12	A-DC13	A-DC14	A-DC15	A-DC16	A-Ph1	A-Ph2	A-Ph3	A-Ph4	A-Ph5	A-Ph6	A-Ph7	A-Ph8	A-Ph9	A-Ph10	A-Ph11	A-Ph12	A-Ph13	A-Ph14	A-Ph15	A-Ph16	

Term	0.00000e+00	0.00000e+00	0.00000e+00	0.00000e+00	0.00000e+00	0.00000e+00	0.00000e+00	0.00000e+00	0.00000e+00	0.00000e+00	0.00000e+00	0.00000e+00	0.00000e+00	0.00000e+00	0.00000e+00	0.00000e+00	0.00000e+00	0.00000e+00	0.00000e+00	0.00000e+00	0.00000e+00	0.00000e+00	0.00000e+00	0.00000e+00	0.00000e+00	0.00000e+00	0.00000e+00	0.00000e+00	0.00000e+00	0.00000e+00	0.00000e+00	0.00000e+00	0.00000e+00	0.00000e+00	0.00000e+00	0.00000e+00	0.00000e+00	0.00000e+00	0.00000e+00	0.00000e+00	0.00000e+00	0.00000e+00	0.00000e+00	0.00000e+00	0.00000e+00	0.00000e+00	0.00000e+00	0.00000e+00	
Factor	1.00000e+00	1.00000e+00	1.00000e+00	1.00000e+00	1.00000e+00	1.00000e+00	1.00000e+00	1.00000e+00	1.00000e+00	1.00000e+00	1.00000e+00	1.00000e+00	1.00000e+00	1.00000e+00	1.00000e+00	1.00000e+00	1.00000e+00	1.00000e+00	1.00000e+00	1.00000e+00	1.00000e+00	1.00000e+00	1.00000e+00	1.00000e+00	1.00000e+00	1.00000e+00	1.00000e+00	1.00000e+00	1.00000e+00	1.00000e+00	1.00000e+00	1.00000e+00	X	X	X	X	X	X	X	X	X	X	X	X	X	X	X	X	

B = Detector Channel
Val Type	B-AC1	B-AC2	B-AC3	B-AC4	B-AC5	B-AC6	B-AC7	B-AC8	B-AC9	B-AC10	B-AC11	B-AC12	B-AC13	B-AC14	B-AC15	B-AC16	B-DC1	B-DC2	B-DC3	B-DC4	B-DC5	B-DC6	B-DC7	B-DC8	B-DC9	B-DC10	B-DC11	B-DC12	B-DC13	B-DC14	B-DC15	B-DC16	B-Ph1	B-Ph2	B-Ph3	B-Ph4	B-Ph5	B-Ph6	B-Ph7	B-Ph8	B-Ph9	B-Ph10	B-Ph11	B-Ph12	B-Ph13	B-Ph14	B-Ph15	B-Ph16	

Term	0.00000e+00	0.00000e+00	0.00000e+00	0.00000e+00	0.00000e+00	0.00000e+00	0.00000e+00	0.00000e+00	0.00000e+00	0.00000e+00	0.00000e+00	0.00000e+00	0.00000e+00	0.00000e+00	0.00000e+00	0.00000e+00	0.00000e+00	0.00000e+00	0.00000e+00	0.00000e+00	0.00000e+00	0.00000e+00	0.00000e+00	0.00000e+00	0.00000e+00	0.00000e+00	0.00000e+00	0.00000e+00	0.00000e+00	0.00000e+00	0.00000e+00	0.00000e+00	-2.55034e+02	-1.42192e+02	-1.58171e+02	-1.83275e+02	-9.83914e+01	-9.52191e+01	-1.58166e+02	-1.62015e+02	-1.11076e+02	-8.25393e+01	-1.72759e+02	-1.71492e+02	-1.85060e+02	-1.78311e+02	-8.15946e+01	-1.51161e+02	
Factor	6.84074e-05	1.16036e-04	3.77825e-05	1.75057e-01	1.19124e-06	1.02847e-06	2.01126e-01	6.52604e-02	1.39494e-06	1.20521e-06	1.15205e-01	3.44855e-02	6.48392e-02	1.06986e-02	1.09788e-06	1.56755e-02	7.61801e-07	7.68646e-07	2.13154e-07	8.53154e-02	8.43469e-09	8.40861e-09	9.13502e-02	3.13959e-02	8.44513e-09	8.40387e-09	5.21703e-02	1.57552e-02	2.79534e-02	5.07005e-03	8.41014e-09	7.10043e-03	X	X	X	X	X	X	X	X	X	X	X	X	X	X	X	X	



#DISTANCE SETTINGS
A = Detector Channel
A-1	A-2	A-3	A-4	A-5	A-6	A-7	A-8	A-9	A-10	A-11	A-12	A-13	A-14	A-15	A-16	

2.5000e+00	3.0000e+00	2.5000e+00	3.0000e+00	2.0000e+00	3.0000e+00	1.5000e+00	3.0000e+00	3.0000e+00	3.0000e+00	3.0000e+00	3.0000e+00	3.0000e+00	3.0000e+00	1.5000e+00	3.0000e+00	

B = Detector Channel
B-1	B-2	B-3	B-4	B-5	B-6	B-7	B-8	B-9	B-10	B-11	B-12	B-13	B-14	B-15	B-16	

1.0000e+01	1.0000e+01	1.0000e+01	1.4400e+00	1.0000e+01	1.0000e+01	1.5100e+00	1.9400e+00	1.0000e+01	1.0000e+01	1.9900e+00	2.4900e+00	2.4100e+00	2.9000e+00	1.0000e+01	2.9800e+00	




#DATA BEGINS
time	group	step	mark	flag	A-AC1	A-AC2	A-AC3	A-AC4	A-AC5	A-AC6	A-AC7	A-AC8	A-AC9	A-AC10	A-AC11	A-AC12	A-AC13	A-AC14	A-AC15	A-AC16	A-DC1	A-DC2	A-DC3	A-DC4	A-DC5	A-DC6	A-DC7	A-DC8	A-DC9	A-DC10	A-DC11	A-DC12	A-DC13	A-DC14	A-DC15	A-DC16	A-Ph1	A-Ph2	A-Ph3	A-Ph4	A-Ph5	A-Ph6	A-Ph7	A-Ph8	A-Ph9	A-Ph10	A-Ph11	A-Ph12	A-Ph13	A-Ph14	A-Ph15	A-Ph16	B-AC1	B-AC2	B-AC3	B-AC4	B-AC5	B-AC6	B-AC7	B-AC8	B-AC9	B-AC10	B-AC11	B-AC12	B-AC13	B-AC14	B-AC15	B-AC16	B-DC1	B-DC2	B-DC3	B-DC4	B-DC5	B-DC6	B-DC7	B-DC8	B-DC9	B-DC10	B-DC11	B-DC12	B-DC13	B-DC14	B-DC15	B-DC16	B-Ph1	B-Ph2	B-Ph3	B-Ph4	B-Ph5	B-Ph6	B-Ph7	B-Ph8	B-Ph9	B-Ph10	B-Ph11	B-Ph12	B-Ph13	B-Ph14	B-Ph15	B-Ph16	aux-1	digaux	

3127.012	1	1	0	256	0.26284	0.21648	0.10709	0.12277	0.2244	0.30434	0.1451	0.12617	0.090383	0.22103	0.28623	0.22811	0.30301	0.33795	0.12342	0.17293	-1.9021	-1.525	-2.4979	-1.8312	-1.8271	-2.6021	-1.7104	-2.4958	-2.5792	-1.7646	-2.7583	-2.0083	-1.8729	-2.7438	-1.5708	-2.3333	212.353	209.216	163.214	-102.875	138.250	39.655	165.638	85.615	241.416	2.440	110.608	188.590	127.908	200.085	-92.041	199.744	0.0018225	0.00054353	0.00013045	748.22	1.2992e-05	6.085e-06	1061.4	250.81	9.6929e-06	1.3157e-05	422.86	182.62	102.44	53.971	6.0738e-06	86.517	0.0010712	0.001015	0.00029665	796.6	1.1593e-05	1.136e-05	1077.9	267.91	1.1682e-05	1.1135e-05	438.79	182.1	120.04	53.987	1.1951e-05	84.957	67.774	239.501	214.339	-102.738	-17.561	-22.009	-103.182	-97.681	-68.929	-12.505	-99.001	-95.684	-93.844	-88.871	13.538	-91.432	-8191	255	
3127.108	1	1	0	0	0.12741	0.12822	0.079604	0.21428	0.20707	0.056459	0.15172	0.42049	0.083259	0.2243	0.062518	0.31059	0.09856	0.18553	0.14493	0.25763	-1.9583	-1.5583	-2.5208	-2.3333	-1.825	-2.6396	-1.9312	-2.3063	-2.5	-1.4833	-2.5979	-2.2458	-1.7812	-2.5312	-1.8667	-2.2354	60.436	23.379	75.584	-114.756	-77.193	-17.222	185.346	-91.638	170.483	6.594	11.052	-86.054	-93.210	138.066	10.340	128.644	0.0016297	0.0002612	0.00026775	753.3	8.7232e-06	5.6163e-06	1067.6	252.28	1.766e-05	9.0733e-06	424.43	181.88	102.21	54.662	9.3288e-07	87.762	0.0010697	0.0010302	0.0003102	801.15	1.1596e-05	1.1471e-05	1088.1	267.92	1.1815e-05	1.1324e-05	441.84	181.55	119.22	54.429	1.2284e-05	85.499	88.245	240.515	-64.083	-102.650	72.743	12.401	-103.296	-97.507	226.775	75.174	-98.753	-95.757	-93.509	-89.199	220.298	-91.717	-8191	255	
3127.180	1	1	0	0	0.21061	0.10113	0.27206	0.192	0.21946	0.20263	0.099066	0.26887	0.22003	0.13853	0.15134	0.46435	0.092831	0.11072	0.03419	0.20593	-2.0771	-1.6042	-2.2833	-2.3396	-1.8229	-2.5438	-2.0062	-1.9479	-2.6667	-1.4667	-2.3604	-2.2458	-1.6375	-2.5479	-1.8167	-1.8708	101.185	-48.864	196.740	103.234	151.636	41.459	198.014	212.733	21.907	79.483	57.603	194.523	150.101	28.398	56.054	133.369	0.00086083	3.5074e-05	0.00046821	750.75	1.101e-05	7.7792e-06	1053.6	248.36	2.3072e-05	1.236e-05	423.12	182.95	101.58	54.882	5.0965e-06	88.109	0.0010479	0.0010384	0.00031131	792.22	1.1384e-05	1.1636e-05	1081	264.49	1.1685e-05	1.1836e-05	442.69	182.32	120.53	55.507	1.3014e-05	86.731	87.139	96.151	-70.833	-102.691	3.904	-12.308	-103.282	-98.052	-39.480	216.502	-98.876	-95.350	-93.886	-89.193	241.129	-91.987	-8191	255	
3127.278	1	1	0	0	0.1178	0.12105	0.16277	0.16757	0.23436	0.14862	0.29247	0.15263	0.23605	0.067635	0.18227	0.064117	0.07976	0.21433	0.13374	0.2271	-2.0792	-1.5146	-2.2042	-2.45	-1.4771	-2.2792	-2.1792	-1.725	-2.6542	-1.7437	-2.3625	-2.5625	-1.675	-2.7604	-2.1271	-1.8979	-10.867	-83.496	166.950	200.455	216.805	130.669	-100.817	-105.222	165.730	-35.952	132.815	67.856	-87.011	240.521	89.007	165.140	0.0011192	0.00037157	0.00025166	747.39	5.6864e-06	6.5673e-06	1052.3	247.13	4.7726e-06	1.2529e-05	423.59	182.7	101.24	54.966	3.8629e-06	88.281	0.0011281	0.0011741	0.00033721	797.22	1.2538e-05	1.3364e-05	1089.8	268.51	1.3014e-05	1.3704e-05	450.02	184.63	125.3	56.733	1.4164e-05	87.733	94.456	-97.262	-6.014	-102.347	217.503	168.763	-103.548	-97.624	-95.687	-107.447	-98.695	-95.513	-94.210	-88.719	25.704	-91.485	-8191	255	
3127.397	1	1	0	0	0.16065	0.2576	0.02521	0.10467	0.27288	0.058298	0.047347	0.16898	0.09546	0.40978	0.077497	0.2213	0.068704	0.32023	0.098765	0.17743	-2.3021	-1.6333	-1.9396	-2.7167	-1.6917	-2.5708	-2.2396	-1.8583	-2.4208	-1.8333	-1.9188	-2.6417	-1.675	-2.5563	-2.0979	-1.9562	183.991	-70.122	-58.860	-63.681	-91.245	32.676	106.804	208.363	172.194	156.335	171.865	221.703	-62.906	222.670	34.022	244.674	0.0011492	0.0013846	0.00012738	730.07	1.2155e-05	6.8083e-06	1039	244.99	1.3234e-05	8.4814e-06	422.06	181.79	100.93	55.646	6.5525e-06	89.414	0.0012284	0.0012956	0.00035276	791.95	1.3138e-05	1.3992e-05	1081	266.06	1.3111e-05	1.3738e-05	445.38	183.32	123.61	56.757	1.3093e-05	87.67	50.531	-98.851	233.098	-102.540	210.951	-30.213	-102.890	-97.305	169.950	229.751	-98.424	-94.919	-92.838	-88.954	-74.507	-91.397	-8191	255	
3127.493	1	1	0	0	0.075048	0.2577	0.070391	0.21947	0.084359	0.18893	0.48423	0.28584	0.091423	0.32137	0.13294	0.091882	0.11458	0.38834	0.26048	0.22548	-2.175	-1.6292	-1.9521	-2.4375	-1.5896	-2.1854	-2.6	-1.6396	-2.5812	-1.8021	-1.9729	-2.7083	-1.7167	-2.2396	-2.4958	-1.5542	217.187	140.492	-20.233	172.916	138.897	-9.456	171.090	233.221	-39.074	71.204	-87.575	65.069	-64.104	184.847	10.854	196.623	0.0022747	0.00087729	0.00050884	725.33	9.9512e-06	6.3392e-06	1044.7	244.02	7.6018e-06	1.1691e-05	423.52	183.61	101.23	55.951	7.8835e-06	90.424	0.0011792	0.0012319	0.00032761	781.37	1.2876e-05	1.3451e-05	1076.9	263.48	1.2947e-05	1.3307e-05	443.52	183.88	124.03	56.83	1.2824e-05	88.227	55.927	-4.471	-105.887	-102.424	228.151	44.376	-103.269	-97.873	166.971	2.771	-98.534	-94.761	-93.467	-88.517	64.247	-91.701	-8191	255	
3127.589	1	1	0	0	0.015566	0.23475	0.27205	0.16202	0.32195	0.15312	0.35766	0.22262	0.16233	0.041459	0.2809	0.10529	0.31919	0.087051	0.30919	0.10457	-2.0458	-1.8792	-1.7917	-2.7708	-1.6979	-2.2208	-2.5729	-1.7042	-2.4604	-1.8563	-1.7646	-2.5167	-1.7437	-1.9958	-2.3479	-1.7479	-77.795	163.660	-32.817	206.920	216.566	-55.889	192.317	-80.613	-41.468	-23.681	135.568	220.828	214.581	145.608	107.131	111.888	0.0010664	0.00074425	0.00020048	730.14	3.4842e-06	5.7107e-06	1052.4	245.75	1.4823e-05	1.9583e-05	423.81	183.5	101.11	55.56	4.8445e-06	89.299	0.0011971	0.0012185	0.00032156	783.75	1.3267e-05	1.3368e-05	1078.5	264.95	1.3587e-05	1.3472e-05	444.05	183.78	126.39	56.66	1.3069e-05	87.807	49.443	-59.338	-43.708	-102.367	-19.003	121.672	-102.645	-97.196	130.582	-14.006	-98.269	-94.912	-93.699	-88.817	45.978	-91.840	-8191	255	
3127.685	1	1	0	0	0.28309	0.18602	0.25281	0.13601	0.1533	0.19571	0.12965	0.047253	0.26839	0.17953	0.15034	0.11822	0.13219	0.2422	0.071403	0.17513	-1.9354	-2.1688	-1.5604	-2.525	-1.9188	-1.9688	-2.8458	-1.9042	-2.4083	-2.2208	-1.9	-2.7604	-1.7729	-2.0417	-2.3812	-1.7062	-41.135	90.309	70.405	171.184	59.220	12.624	-105.986	229.932	184.812	202.399	8.098	190.662	-10.919	-87.666	174.459	146.480	0.0017561	0.001081	8.671e-05	740.46	4.13e-06	7.1542e-06	1052.9	247.67	1.1143e-05	1.1481e-05	421.24	183.43	102.65	55.493	1.3107e-05	89.669	0.001254	0.0012285	0.00032741	798.39	1.3906e-05	1.3457e-05	1088.5	268.92	1.4006e-05	1.3589e-05	445.05	185.27	128.22	56.715	1.3179e-05	88.763	59.463	-1.093	-70.360	-102.381	-86.990	-53.597	-102.697	-96.890	127.979	58.502	-98.660	-95.114	-94.007	-88.738	84.765	-91.443	-8191	255	
3127.804	1	1	0	0	0.35633	0.082011	0.21099	0.29879	0.22303	0.36022	0.29446	0.25946	0.14226	0.10279	0.20704	0.27859	0.2888	0.18005	0.022992	0.098748	-1.8729	-2.1521	-1.4688	-2.4375	-1.9396	-1.8125	-2.5062	-1.6604	-2.0292	-2.3271	-1.5792	-2.4646	-2.0875	-1.7583	-2.5812	-1.8396	-40.166	-84.137	91.546	-109.270	-74.808	108.163	192.598	220.384	-3.107	241.801	-105.503	228.744	-23.417	-46.779	173.224	92.674	0.0014692	0.00078536	0.00026869	750.87	1.4396e-05	1.3867e-05	1068	248.62	6.8003e-06	6.136e-06	425.34	184.99	102.43	55.573	7.1779e-06	89.888	0.0012853	0.0012347	0.00033299	811.16	1.4173e-05	1.3509e-05	1101.5	273.52	1.4274e-05	1.3665e-05	448.75	187.65	129	56.798	1.3396e-05	89.231	65.582	26.082	175.918	-102.425	-18.103	10.902	-103.854	-98.267	-64.973	-102.453	-99.631	-95.530	-94.165	-89.264	161.332	-92.225	-8191	255	
3127.877	1	1	0	0	0.10064	0.10136	0.15637	0.15349	0.13165	0.062737	0.033123	0.19091	0.1386	0.18624	0.19084	0.18756	0.2707	0.43462	0.2497	0.28425	-1.8312	-2.3917	-1.6479	-2.5854	-2.1771	-1.8896	-2.8917	-1.7521	-2.1542	-2.4938	-1.6646	-2.7021	-2.2583	-2.075	-2.6437	-1.8312	-82.856	41.180	12.262	231.307	-97.764	4.773	132.674	45.443	122.245	-44.366	-28.201	119.204	-89.479	147.056	-84.314	127.764	0.0011934	0.00042601	0.00065317	753.27	5.0544e-06	8.8471e-06	1084.3	253.74	1.6362e-05	2.01e-05	430.63	187.63	104.09	55.641	7.2375e-06	88.897	0.0012871	0.0012442	0.00033585	824.16	1.4101e-05	1.3498e-05	1114	278.89	1.412e-05	1.377e-05	455.18	190.57	131.14	56.954	1.3958e-05	89.157	89.084	-56.889	-7.813	-103.269	-30.948	126.478	-103.597	-97.880	-6.751	-60.280	-99.148	-95.761	-94.318	-89.345	94.772	-92.234	-8191	255	
3127.998	1	1	0	0	0.25165	0.19159	0.35065	0.18245	0.030034	0.093516	0.23079	0.23229	0.16347	0.27393	0.22989	0.01735	0.25399	0.2275	0.2176	0.033974	-1.6104	-2.4667	-1.5833	-2.2396	-2.3104	-1.55	-2.725	-2.0542	-2.1229	-2.6104	-1.975	-2.6042	-2.25	-1.6187	-2.4313	-2.0979	11.528	176.819	165.604	224.424	145.035	151.330	208.707	185.447	83.118	98.741	159.101	25.972	133.385	-28.608	240.142	91.557	0.0016976	0.0010527	0.00025377	790.5	1.4905e-05	8.6028e-06	1110.1	262.25	2.4469e-05	1.5695e-05	434.76	188.62	105.69	55.596	9.5605e-06	88.831	0.0013055	0.0012747	0.00035263	858.48	1.4257e-05	1.3635e-05	1148.4	287.35	1.4115e-05	1.3771e-05	461.89	192.77	132.17	56.777	1.4225e-05	89.377	72.550	215.843	210.374	-102.605	-17.471	29.164	-103.454	-98.153	-43.880	37.182	-99.381	-96.103	-94.239	-89.695	242.080	-92.245	-8191	255	
3128.092	1	1	0	0	0.28322	0.12156	0.11642	0.23443	0.17949	0.17629	0.32906	0.18715	0.018277	0.057696	0.4907	0.2981	0.034409	0.24705	0.10735	0.32742	-1.4708	-2.6292	-1.5562	-2.2167	-2.4188	-1.6375	-2.5312	-2.1229	-1.7896	-2.7875	-1.8021	-2.3375	-2.5625	-1.8604	-2.7146	-2.2104	47.369	221.751	-8.218	187.215	231.745	179.280	93.004	128.096	179.984	215.555	-113.263	222.482	9.185	62.334	66.729	201.350	0.00096527	0.0013255	0.00030877	824.64	3.0379e-06	6.0048e-06	1149.1	271.12	4.8612e-06	1.5556e-05	447.36	195.05	108.71	55.303	1.2736e-05	89.695	0.0012728	0.0012586	0.00036298	888.73	1.412e-05	1.3531e-05	1191.4	296.16	1.4116e-05	1.3968e-05	478.75	198.07	134.79	56.728	1.4933e-05	89.882	52.790	36.476	115.307	-102.740	59.599	85.782	-103.411	-98.311	46.037	-35.857	-98.919	-95.700	-93.832	-89.056	-66.563	-91.875	-8191	255	
3128.188	1	1	0	0	0.21929	0.1434	0.29751	0.41861	0.13486	0.118	0.18783	0.14941	0.21429	0.095139	0.11709	0.11964	0.079185	0.1365	0.16903	0.15037	-1.3208	-2.8521	-1.8875	-2.3833	-2.5167	-1.7229	-2.8625	-2.2479	-1.9125	-2.7646	-1.9646	-2.2042	-2.4896	-1.6583	-2.4708	-2.3438	84.218	-73.274	85.747	145.163	168.750	10.020	225.277	-104.978	173.030	143.743	-30.509	-65.336	27.002	-40.903	-5.913	-111.484	0.0010122	0.0017053	0.00027448	857.47	9.8213e-06	5.7678e-06	1203.4	279.34	8.4896e-06	5.8988e-06	461.07	200.17	110.27	55.925	3.7441e-06	90.454	0.0012748	0.0012776	0.00037414	913.59	1.376e-05	1.3545e-05	1231.2	300.07	1.326e-05	1.3426e-05	484.61	199.95	132.65	56.922	1.4047e-05	89.623	46.637	10.610	-52.505	-102.449	-60.929	202.005	-103.434	-98.382	38.819	-91.736	-98.847	-95.659	-94.565	-89.057	217.576	-91.807	-8191	255	
3128.285	1	1	0	0	0.235	0.090639	0.14174	0.15023	0.023116	0.1137	0.15561	0.14694	0.19679	0.23166	0.19768	0.33174	0.18575	0.29176	0.38126	0.22134	-1.3958	-2.5083	-2.125	-2.1979	-2.7042	-1.6458	-2.5021	-2.5104	-1.8271	-2.65	-2.2396	-2.1708	-2.5729	-1.7708	-2.1354	-2.5354	207.440	221.264	-113.479	196.199	-78.578	168.034	184.905	90.962	-91.207	-106.692	184.441	169.865	144.710	-83.151	155.512	176.021	0.001627	0.0011367	0.0002919	861.21	9.7868e-06	1.5239e-05	1193.5	277.04	1.1918e-05	3.8813e-06	460.2	198.63	111.12	55.694	8.7684e-06	90.274	0.0011817	0.0012305	0.00035777	906.15	1.3038e-05	1.3253e-05	1224.6	296.94	1.2742e-05	1.3414e-05	480.7	197.52	130.06	56.676	1.3328e-05	88.445	46.080	-38.134	-113.405	-102.577	242.344	128.785	-102.858	-97.629	40.495	215.868	-99.225	-95.561	-93.904	-88.812	71.439	-91.452	-8191	255	
3128.405	1	1	0	0	0.31277	0.093805	0.20152	0.12224	0.084057	0.008205	0.33274	0.20179	0.042602	0.12797	0.083403	0.055536	0.12579	0.078073	0.029402	0.18114	-1.2313	-2.5417	-1.9354	-2.1146	-2.6917	-1.7604	-2.5312	-2.6354	-1.5292	-2.4667	-2.0938	-1.8833	-2.7375	-1.9479	-2.1562	-2.6458	-19.338	18.035	184.735	58.132	72.998	-89.807	186.269	-11.707	5.237	51.607	200.043	-91.243	-52.727	229.134	-6.370	-16.509	0.0019901	0.00087137	0.00048203	852	7.5073e-06	1.3729e-05	1194.2	277.6	6.5699e-06	1.751e-06	462.79	199.34	111.06	56.337	6.149e-06	91.13	0.0011205	0.0011912	0.00033397	890.03	1.2305e-05	1.2868e-05	1206.5	292.93	1.1928e-05	1.2824e-05	474.74	196.57	128.61	56.792	1.2259e-05	88.747	87.006	-79.347	-65.676	-101.751	6.056	89.995	-103.007	-97.584	236.546	128.171	-98.719	-95.238	-93.712	-88.947	19.811	-91.399	-8191	255	
3128.477	1	1	0	0	0.17214	0.23155	0.18269	0.36933	0.17725	0.28865	0.41771	0.27336	0.11084	0.11962	0.074267	0.16919	0.14396	0.28331	0.14689	0.18869	-1.0208	-2.5396	-2.2208	-1.6667	-2.525	-2.05	-2.2104	-2.8	-1.7563	-2.5667	-2.3125	-1.7458	-2.6229	-1.9479	-1.8292	-2.6437	-3.161	106.710	91.321	242.657	-65.234	23.306	231.842	111.121	117.569	169.921	233.735	189.177	-88.702	165.789	217.415	236.270	0.001879	8.6058e-05	8.1351e-05	837.18	5.9632e-07	8.8877e-06	1184.5	276.68	1.3099e-05	1.1545e-05	458.73	199.63	110.5	57.161	8.9734e-06	92.192	0.0010797	0.0011653	0.0003113	872.28	1.1908e-05	1.2623e-05	1185.7	288.08	1.1707e-05	1.2367e-05	468.17	195.21	127.56	57.136	1.1576e-05	89.121	62.462	41.757	145.455	-102.331	-107.773	-16.794	-102.550	-97.724	174.904	119.010	-98.483	-94.953	-93.460	-88.552	79.288	-91.211	-8191	255	
3128.573	1	1	0	0	0.14401	0.073114	0.25098	0.28327	0.25364	0.064911	0.29471	0.074003	0.23539	0.10538	0.1079	0.18495	0.13159	0.11844	0.09564	0.17436	-1.05	-2.3292	-2.2542	-1.8021	-2.8063	-1.9521	-1.8458	-2.7292	-1.6187	-2.15	-2.2854	-1.7479	-2.5062	-2.1229	-1.8104	-2.8458	151.038	29.543	197.051	234.436	207.240	90.815	219.469	-99.815	203.865	41.671	-36.530	15.461	112.317	205.372	127.646	-59.007	0.0014454	0.0019193	0.00020827	812.67	8.4562e-06	6.1945e-06	1154.4	269.23	1.4895e-05	2.8962e-06	452.3	197.89	109.06	57.182	8.8348e-06	92.495	0.0010654	0.0011039	0.0002946	842.99	1.1671e-05	1.1942e-05	1153.1	280.41	1.1631e-05	1.1778e-05	460.78	192.61	126.18	56.877	1.1081e-05	88.946	94.954	-11.613	-39.826	-102.084	188.547	30.446	-102.923	-97.460	24.281	40.963	-98.317	-95.143	-93.603	-89.056	-77.785	-91.502	-8191	255	
3128.694	1	1	0	0	0.26429	0.027738	0.18214	0.20219	0.066351	0.052627	0.18986	0.12299	0.1093	0.25455	0.3867	0.11778	0.036735	0.078537	0.030789	0.1075	-1.4937	-2.2896	-2.5438	-1.6875	-2.3958	-2.1104	-2.1312	-2.6521	-1.9333	-2.0771	-2.6063	-1.7104	-2.3958	-2.2458	-1.6938	-2.7771	56.016	-2.905	52.520	210.410	-21.614	225.771	136.428	130.991	123.849	126.961	215.510	43.180	-37.683	216.326	-55.916	181.886	0.0012819	0.0015588	0.00023795	796.88	5.5327e-06	1.3718e-05	1132.5	265.72	6.3168e-06	8.4265e-06	450.3	196.43	108.18	56.953	1.1374e-05	91.794	0.0010599	0.0010451	0.00028168	824.2	1.1766e-05	1.1507e-05	1132.2	277.62	1.178e-05	1.1395e-05	456.58	192.08	126.16	56.723	1.1013e-05	88.848	52.274	-36.880	-19.298	-102.228	112.510	30.534	-102.923	-97.430	78.643	58.468	-99.169	-95.625	-93.940	-89.161	26.893	-91.803	-8191	255	
3128.790	1	1	0	0	0.26803	0.28311	0.096774	0.2086	0.086368	0.26641	0.36799	0.089373	0.30198	0.072332	0.16854	0.16032	0.3029	0.18809	0.16143	0.11077	-1.5083	-2.2375	-2.6708	-2.0458	-2.4938	-2.2104	-1.775	-2.7	-1.9167	-1.9875	-2.8229	-1.9562	-2.2188	-2.35	-1.5438	-2.6333	26.708	45.213	223.441	115.787	-91.313	-100.472	223.497	-66.214	111.400	-71.301	77.243	171.676	126.166	208.101	158.846	92.529	0.00076588	0.00052926	0.00018017	782.18	1.4923e-05	1.556e-05	1114.9	263.18	4.2951e-06	1.0359e-05	448.28	195.8	108.13	57.132	5.2214e-06	92.495	0.0010917	0.0010356	0.00028274	816.9	1.1847e-05	1.1442e-05	1118.7	276.45	1.1934e-05	1.1272e-05	454.53	192.64	125.41	56.721	1.088e-05	89.291	107.387	-55.230	223.249	-102.461	-37.092	12.026	-103.259	-97.680	-24.038	98.997	-98.678	-95.770	-94.050	-88.953	166.856	-92.006	-8191	255	
3128.886	1	1	0	0	0.11912	0.15574	0.13284	0.34143	0.13594	0.20184	0.27219	0.23406	0.33746	0.17221	0.24697	0.075569	0.30007	0.12151	0.13726	0.056301	-1.5438	-1.8542	-2.4229	-1.6854	-2.2292	-2.4146	-1.5667	-2.6104	-1.8833	-1.7604	-2.6333	-1.7375	-2.0938	-2.4375	-1.6083	-2.5187	64.794	27.859	-107.671	217.532	48.191	66.298	221.141	243.093	-84.934	46.420	-113.901	-89.871	-109.141	-113.365	57.747	-36.390	0.0013631	0.00072631	0.0002721	772.84	5.0672e-06	1.267e-05	1102.4	260.07	6.1747e-06	1.4096e-05	444.33	195.97	107.02	57.066	4.6305e-06	92.496	0.0010821	0.0010285	0.00028006	813.07	1.1774e-05	1.1347e-05	1107.8	274.8	1.1688e-05	1.1074e-05	452.46	192.33	124.11	56.482	1.0932e-05	89.472	83.474	-17.424	-80.073	-102.381	-26.640	-30.435	-102.974	-97.497	-74.149	42.198	-98.602	-95.491	-94.193	-89.329	107.362	-91.562	-8191	255	
3128.980	1	1	0	0	0.15878	0.24095	0.14466	0.25685	0.20112	0.1861	0.2056	0.25532	0.26815	0.07838	0.187	0.079591	0.086725	0.093218	0.093059	0.28474	-1.6875	-1.825	-2.525	-1.8479	-2.1396	-2.5875	-1.7625	-2.6083	-2.2542	-1.5417	-2.6542	-1.9854	-2.1042	-2.6646	-1.8104	-2.7146	-105.619	15.745	34.757	225.760	-42.472	-30.724	66.922	206.606	26.516	-11.377	167.036	218.792	32.365	128.128	-71.966	159.492	0.0010361	0.0010166	0.00021794	776.16	1.5281e-05	9.4829e-06	1104.4	259.7	3.7053e-06	5.8407e-06	442.6	194.16	107.55	56.411	1.053e-05	92.051	0.0010596	0.0010144	0.00028299	817.28	1.1439e-05	1.1214e-05	1109.3	275.73	1.1533e-05	1.0982e-05	452.12	191.59	123.23	56.126	1.127e-05	89.117	57.480	-101.693	203.883	-102.665	21.368	8.702	-102.928	-97.440	-96.925	-42.932	-98.683	-95.445	-92.865	-88.764	98.909	-91.526	-8191	255	
3129.078	1	1	0	0	0.08697	0.11102	0.14987	0.14995	0.13364	0.16431	0.11423	0.19494	0.17303	0.045492	0.31764	0.24193	0.19603	0.19274	0.090444	0.30851	-1.9333	-1.6625	-2.6063	-2.125	-2.15	-2.6042	-2.0667	-2.5083	-2.3167	-1.6708	-2.5875	-2.0521	-1.7958	-2.8104	-1.7437	-2.2167	231.907	124.994	138.746	-44.982	174.423	51.421	-72.624	219.727	-103.290	16.567	115.408	-4.199	62.166	135.351	-43.854	-33.010	0.0012055	0.00085039	6.4715e-05	768.12	6.1964e-06	6.917e-06	1098.3	259.98	6.0352e-06	5.7134e-06	441.4	192.55	107.13	56.266	8.1145e-06	91.434	0.0010524	0.0010063	0.00029126	813.21	1.1369e-05	1.1144e-05	1107.7	273.06	1.1315e-05	1.0947e-05	452.26	190.47	122.2	55.914	1.1568e-05	88.708	71.420	-8.462	-80.019	-102.517	56.578	11.761	-103.117	-97.636	-98.487	71.057	-98.908	-95.413	-93.341	-89.030	-28.581	-91.679	-8191	255	
3129.173	1	1	0	0	0.11334	0.28337	0.067935	0.17686	0.090417	0.20481	0.30883	0.14997	0.19045	0.12569	0.11307	0.26654	0.010272	0.074443	0.28952	0.11042	-2.2396	-1.4854	-2.4875	-2.0125	-1.6583	-2.55	-1.9937	-2.2979	-2.4479	-1.6125	-2.575	-2.2375	-1.8062	-2.8688	-1.7625	-2.0896	83.674	184.890	113.514	180.064	220.168	193.539	72.772	107.131	185.036	116.787	152.041	-87.748	-56.045	108.365	136.070	-100.358	0.0015264	0.00086221	5.6523e-05	770.05	4.7225e-06	3.2344e-06	1094	258.41	1.2404e-05	1.0425e-05	439.15	192.6	106.5	56.708	1.0419e-05	91.58	0.0010366	0.00099964	0.00029631	807.69	1.1038e-05	1.092e-05	1103.3	270.03	1.0894e-05	1.0627e-05	448.93	188.99	120.39	55.946	1.1411e-05	88.309	62.806	-26.656	170.690	-102.273	29.348	104.571	-102.690	-97.107	-28.821	-113.513	-98.123	-95.159	-93.157	-89.086	-86.038	-91.881	-8191	255	
3129.269	1	1	0	0	0.11688	0.25808	0.21401	0.32484	0.17386	0.047232	0.20718	0.54205	0.16661	0.35702	0.38214	0.23225	0.41511	0.17041	0.21703	0.12059	-2.1396	-1.6313	-2.4646	-2.2708	-1.6917	-2.6937	-1.9667	-2.0438	-2.5438	-1.7125	-2.3792	-2.3854	-1.7021	-2.5979	-1.9688	-1.9562	-57.210	66.411	-82.929	239.516	-39.495	131.069	90.673	181.031	-57.389	75.171	187.632	142.577	180.114	82.944	96.694	163.530	0.001706	0.00080017	7.873e-05	756.31	1.2472e-05	1.7881e-05	1077.1	251.64	9.2702e-06	1.1073e-05	437.69	191.92	104.35	56.214	1.2291e-05	91.401	0.00099377	0.0009802	0.00029034	789.54	1.0615e-05	1.0779e-05	1087.6	264.47	1.061e-05	1.0696e-05	445.44	187.32	118.55	55.908	1.1333e-05	87.971	80.417	107.207	-89.156	-102.921	22.307	-111.071	-103.177	-97.935	149.991	-60.407	-99.298	-95.799	-94.430	-89.321	0.674	-91.975	-8191	255	
3129.365	1	1	0	0	0.085347	0.15555	0.18018	0.24759	0.043023	0.21508	0.18115	0.097679	0.28203	0.27535	0.24216	0.21722	0.3078	0.12672	0.1973	0.16843	-2.0729	-1.5875	-2.3229	-2.2375	-1.7271	-2.6167	-2.1437	-1.8792	-2.6646	-1.6313	-2.0687	-2.3271	-1.5083	-2.7667	-2.025	-1.75	96.534	152.844	14.498	-33.398	78.614	202.054	201.994	-42.600	67.124	138.250	170.934	-113.284	125.084	203.157	16.619	233.809	0.00086693	0.0010685	8.5632e-05	737.58	8.2782e-06	8.3025e-06	1052.1	248.36	1.5101e-05	1.3171e-06	434.91	189.38	104.37	56.191	6.6346e-06	90.81	0.00097073	0.00099275	0.00028345	772.34	1.0413e-05	1.1044e-05	1068.5	260.09	1.0561e-05	1.1029e-05	441.49	185.56	118.08	55.926	1.109e-05	87.467	73.333	234.666	96.109	-103.059	54.177	217.528	-103.556	-97.638	228.192	208.197	-99.139	-95.713	-93.350	-89.143	-19.404	-91.980	-8191	255	
3129.486	1	1	0	0	0.15139	0.24875	0.30846	0.17972	0.17679	0.030041	0.11007	0.28428	0.12908	0.19153	0.17147	0.17424	0.15525	0.20652	0.09901	0.15827	-2.1813	-1.75	-1.9646	-2.5708	-1.6667	-2.5583	-2.1208	-1.6917	-2.5604	-1.7062	-1.9979	-2.6979	-1.5208	-2.4396	-2.2021	-1.8104	211.255	221.592	214.407	111.830	-114.722	-55.951	176.376	206.663	26.951	126.224	187.629	180.758	-102.225	229.624	-11.562	51.849	0.0019139	0.0007221	0.00013994	733.41	7.2459e-06	6.6522e-06	1049	246.19	9.1781e-06	5.4636e-06	429.1	189.99	103.78	56.071	7.0253e-06	91.777	0.00097316	0.0010211	0.00027913	764.47	1.0542e-05	1.1224e-05	1061.5	258.2	1.0701e-05	1.1218e-05	437.95	185.66	118.05	55.94	1.0805e-05	87.784	67.393	-83.137	-71.512	-102.812	-47.973	-94.937	-102.907	-97.316	194.501	-96.428	-98.904	-95.593	-93.936	-88.689	0.956	-91.684	-8191	255	
3129.580	1	1	0	0	0.18182	0.3712	0.26974	0.23615	0.034541	0.10923	0.10695	0.06178	0.18158	0.090851	0.54041	0.19369	0.30774	0.17236	0.25269	0.15567	-2.075	-1.8438	-1.8521	-2.3979	-1.7042	-2.4229	-2.3708	-1.7458	-2.4333	-1.8687	-1.975	-2.4458	-1.5771	-2.2812	-2.325	-1.7708	11.800	2.145	46.699	169.170	-0.230	-63.426	234.926	218.489	179.918	181.621	239.609	166.193	162.481	103.009	5.267	150.855	0.00058286	0.0010929	0.00023315	719.25	1.0143e-05	7.536e-06	1034	244.16	2.3807e-05	1.3781e-06	430.05	190.99	105.28	56.206	1.0313e-05	91.13	0.00098505	0.0010235	0.00027015	754.45	1.0769e-05	1.1193e-05	1047.8	255.93	1.0858e-05	1.1196e-05	437.21	185.67	119.4	56.055	1.0697e-05	87.72	58.444	-0.849	-22.582	-102.564	179.624	178.672	-102.799	-97.541	236.075	-41.967	-98.625	-95.761	-94.448	-89.052	31.845	-91.917	-8191	255	
3129.676	1	1	0	0	0.33869	0.032488	0.18774	0.026512	0.061369	0.18052	0.17657	0.19778	0.36984	0.27306	0.098529	0.077058	0.24817	0.22414	0.15772	0.39897	-2.15	-1.9292	-1.7646	-2.4688	-1.6083	-2.1937	-2.3542	-1.7437	-2.6604	-2.1875	-1.9229	-2.6625	-1.9396	-2.3021	-2.5625	-1.4542	-47.824	146.510	-97.071	187.727	242.365	-29.296	156.181	80.715	-79.597	148.477	135.381	80.316	-61.477	64.904	-6.380	98.495	0.0020028	0.00062277	0.00027874	715.26	7.8811e-06	5.8816e-06	1036.6	245.48	1.484e-05	2.2369e-05	429.62	188.4	103.51	56.172	1.1479e-05	90.917	0.001016	0.0010278	0.0002704	750.84	1.1e-05	1.1022e-05	1045.7	256.14	1.1185e-05	1.1105e-05	435.29	184.85	120.16	55.788	1.0785e-05	87.481	62.028	214.385	204.724	-102.508	-76.773	64.500	-102.782	-97.215	-89.326	153.530	-98.497	-95.124	-93.426	-88.953	25.075	-91.280	-8191	255	
3129.772	1	1	0	0	0.20967	0.13517	0.099472	0.1854	0.11097	0.16718	0.20364	0.28735	0.25491	0.16098	0.13516	0.17167	0.3622	0.076811	0.14099	0.34353	-1.9062	-2.0354	-1.4542	-2.6521	-1.6979	-2.0917	-2.5625	-1.6958	-2.2062	-2.1958	-1.7583	-2.5875	-1.7979	-2.025	-2.575	-1.8167	-4.748	222.495	-78.384	-110.269	209.936	116.229	205.559	185.913	-76.588	57.219	63.801	241.546	140.844	212.506	114.275	192.602	0.0019602	0.0008451	0.00033873	714.99	8.0188e-06	8.6096e-06	1032.8	243.53	5.6412e-06	2.6127e-06	426.64	189.68	103.27	56.086	6.7189e-06	91.258	0.0010337	0.0010164	0.00027094	752.68	1.1476e-05	1.0938e-05	1041	256.21	1.1477e-05	1.1013e-05	434.5	185.86	120.61	55.778	1.0613e-05	87.856	47.147	-6.040	182.819	-102.062	-54.334	15.356	-103.027	-97.348	224.057	188.266	-98.531	-95.133	-93.439	-88.583	-26.260	-91.675	-8191	255	
3129.868	1	1	0	0	0.20619	0.16038	0.21676	0.067264	0.19052	0.018111	0.14783	0.096189	0.14832	0.078737	0.10786	0.068593	0.19427	0.27191	0.21458	0.072374	-1.9542	-2.1979	-1.4438	-2.5854	-1.9208	-1.8687	-2.6604	-1.5896	-2.4354	-2.4854	-1.7563	-2.5979	-1.9208	-1.8625	-2.3688	-1.6958	28.774	50.571	152.141	1.986	-0.776	112.410	193.338	-36.888	222.721	55.008	13.754	163.207	-80.813	125.038	52.478	-47.527	0.0014988	0.0023259	0.00041954	706.2	1.1673e-05	6.1327e-06	1019.3	239.29	7.8484e-06	9.1498e-06	424.4	188.9	102.83	56.516	3.156e-06	91.644	0.0010397	0.00099434	0.0002656	747.47	1.1273e-05	1.0707e-05	1029	254.48	1.1213e-05	1.0802e-05	432.05	185.54	119.63	55.904	1.0622e-05	88.664	67.424	-58.867	-11.316	-102.453	-113.821	121.142	-103.012	-97.503	-107.147	-23.012	-98.474	-95.236	-94.038	-88.486	15.092	-91.536	-8191	255	
3129.965	1	1	0	0	0.069989	0.094652	0.096552	0.063556	0.098309	0.2571	0.10091	0.26593	0.20294	0.24473	0.32198	0.37429	0.15603	0.33184	0.17842	0.31071	-1.7667	-2.2792	-1.5208	-2.4	-2.0563	-1.8208	-2.6188	-1.9542	-2.1188	-2.4729	-1.8354	-2.4	-2.1708	-1.7396	-2.6875	-1.8479	149.967	68.140	184.100	151.421	-49.834	180.393	244.431	172.377	105.924	-86.480	204.843	218.714	197.763	-64.091	15.974	181.798	0.0012075	0.0012627	0.00052295	697.44	6.5716e-06	8.1115e-06	1012.7	239.73	9.5379e-06	2.9155e-06	425.07	186.67	102	56.363	1.0726e-05	91.538	0.0010263	0.00099161	0.00026702	739.65	1.1185e-05	1.0641e-05	1022.4	254.89	1.1153e-05	1.0757e-05	432.16	184.39	118.25	55.658	1.0788e-05	88.335	72.350	-55.614	-36.339	-101.957	233.593	-3.658	-102.810	-97.371	-12.980	175.510	-98.453	-94.938	-94.148	-89.123	-5.754	-91.911	-8191	255	
3130.085	1	1	0	0	0.25367	0.25009	0.051846	0.11834	0.19436	0.25741	0.25633	0.087589	0.17644	0.104	0.18339	0.30141	0.099784	0.22187	0.18087	0.062131	-1.6625	-2.4479	-1.4708	-2.3417	-2.2146	-1.6417	-2.6667	-1.8438	-1.8917	-2.525	-1.5771	-2.2896	-2.4313	-1.6562	-2.4313	-2.0021	40.726	-31.500	-87.533	92.755	123.210	77.637	182.996	-25.489	-97.269	147.094	188.299	182.943	-53.376	-91.804	27.634	-78.419	0.0010452	0.0013354	6.9147e-05	695.67	9.9806e-06	6.8979e-06	1009.9	238.61	8.0916e-06	1.5853e-06	423.42	186.88	101.05	56.124	3.045e-06	90.189	0.0010129	0.00098678	0.00027312	740.23	1.1114e-05	1.0667e-05	1024.7	254.88	1.1006e-05	1.0766e-05	431.97	184.15	117.83	55.479	1.1065e-05	87.903	63.381	-27.168	126.636	-102.336	23.920	-3.727	-103.061	-97.440	-87.657	50.696	-98.981	-95.414	-93.468	-89.005	-3.295	-91.898	-8191	255	
3130.181	1	1	0	0	0.099076	0.31968	0.18784	0.09016	0.19409	0.1129	0.23559	0.038782	0.25948	0.017155	0.10918	0.14424	0.18303	0.31352	0.10713	0.32897	-1.3542	-2.3771	-1.6896	-2.45	-2.4562	-1.6896	-2.8187	-1.9917	-1.8646	-2.7708	-1.9708	-2.4896	-2.4	-1.6729	-2.5854	-2.1958	206.232	242.948	133.003	137.832	243.143	81.742	-53.334	8.425	213.105	-63.733	221.051	-112.400	229.370	171.271	-86.594	167.636	0.0015615	0.00055611	0.00024735	692.59	7.8038e-06	1.1485e-05	1011.8	239.44	5.0699e-06	4.9012e-06	423.41	186.21	102.79	55.988	3.7451e-06	91.009	0.00099755	0.00098373	0.00028236	738.22	1.0989e-05	1.0667e-05	1028.8	255.57	1.0922e-05	1.0826e-05	434.8	183.93	118.17	55.391	1.1442e-05	88.014	55.582	-69.909	178.940	-102.516	-68.247	120.048	-102.833	-97.418	187.904	-19.828	-98.583	-94.930	-93.297	-89.015	-63.589	-91.612	-8191	255	
3130.278	1	1	0	0	0.23044	0.09501	0.19091	0.18543	0.24822	0.069722	0.32192	0.10462	0.14883	0.36253	0.093692	0.12208	0.1783	0.25162	0.11258	0.41166	-1.3396	-2.4271	-1.6437	-2.125	-2.4604	-1.6354	-2.3354	-2.2292	-1.4583	-2.6625	-1.7333	-1.9937	-2.475	-1.5854	-2.2062	-2.2104	225.840	51.334	-57.020	232.822	92.601	-34.198	226.956	159.593	-100.357	136.504	-72.840	-100.579	234.656	240.161	59.175	210.647	0.0011375	0.00058475	0.00033714	695.54	1.339e-05	4.0267e-06	1014.4	239.76	1.2192e-05	3.3146e-07	427.46	187.3	102.57	55.782	7.5319e-06	91.085	0.00099208	0.00098888	0.00028981	737.8	1.0918e-05	1.0681e-05	1029.9	253.95	1.0675e-05	1.086e-05	437.33	184.31	117.81	55.569	1.1507e-05	87.71	61.962	184.704	-24.348	-101.969	-56.174	236.881	-102.930	-97.197	32.415	-74.393	-98.713	-95.017	-94.065	-88.904	-17.652	-91.850	-8191	255	
3130.349	1	1	0	0	0.14454	0.13801	0.098232	0.3819	0.17155	0.025397	0.19925	0.11279	0.22373	0.1857	0.088503	0.21408	0.28823	0.090335	0.1308	0.13205	-1.2854	-2.5354	-1.8792	-2.1417	-2.55	-1.7604	-2.3479	-2.2917	-1.6146	-2.5604	-2.1229	-2.1583	-2.6063	-1.8667	-2.2583	-2.4604	-112.447	204.802	-95.906	244.707	-96.254	-100.949	83.634	195.629	-70.511	77.623	201.773	163.294	-107.067	40.531	95.742	190.364	0.0020671	0.00083671	0.00025104	689.88	2.5178e-06	5.652e-06	1001.6	239.68	8.6348e-06	4.3866e-06	423.9	189.09	102.33	56.204	6.1405e-06	91.44	0.00098674	0.0010222	0.00029299	731.2	1.0882e-05	1.1121e-05	1024	254.04	1.0828e-05	1.136e-05	436.44	184	118.25	56.004	1.1559e-05	87.898	74.384	-13.915	-41.859	-102.143	-52.277	181.022	-102.781	-97.204	-83.245	-82.478	-97.955	-95.088	-93.403	-88.786	83.280	-91.727	-8191	255	
3130.468	1	1	0	0	0.20533	0.066323	0.12849	0.2021	0.022551	0.10542	0.17233	0.25806	0.08664	0.23707	0.25563	0.095813	0.15672	0.081199	0.2041	0.20768	-1.0271	-2.6229	-2.0417	-1.8917	-2.65	-1.6688	-2.15	-2.4333	-1.5083	-2.4833	-2.0729	-1.8229	-2.6458	-1.8979	-2.1167	-2.4604	31.840	52.858	12.000	195.414	25.043	20.540	97.322	169.008	100.558	-80.385	182.386	168.689	149.400	19.404	-111.198	183.490	0.0017501	0.00090342	0.00040266	683.63	4.4092e-06	6.7385e-06	1006.2	239.28	4.088e-06	5.7916e-06	421.9	187.92	102.54	56.267	2.8157e-06	91.241	0.00099078	0.0010549	0.00029316	727.73	1.1028e-05	1.1518e-05	1022.4	253.58	1.0953e-05	1.1648e-05	435.61	183.98	118.9	56.312	1.1351e-05	88.093	79.649	208.230	101.688	-101.970	94.288	-74.221	-102.625	-96.964	15.265	-86.580	-98.365	-95.134	-93.162	-88.920	-40.852	-91.853	-8191	255	
3130.564	1	1	0	0	0.2576	0.14474	0.090552	0.22182	0.20887	0.28735	0.23753	0.18557	0.051443	0.31324	0.080247	0.12739	0.3547	0.14217	0.14798	0.054006	-1.0938	-2.2917	-2.2771	-1.7521	-2.4854	-1.6958	-1.8021	-2.4354	-1.5646	-2.5792	-2.3375	-1.6104	-2.5	-1.9521	-2.05	-2.8521	45.182	67.149	23.564	-4.690	202.903	73.460	187.340	176.232	167.724	170.800	222.880	-107.846	217.723	143.395	-34.044	224.813	0.001517	0.00039144	0.00034196	688.02	1.0537e-05	1.8783e-06	1009	239.57	1.3392e-05	1.2028e-05	422.38	187.39	101.94	56.383	9.1827e-06	91.664	0.0010036	0.0010687	0.00028818	728.15	1.1192e-05	1.1695e-05	1023.1	253.56	1.1056e-05	1.1668e-05	435.51	184.26	119.75	56.413	1.1209e-05	88.124	52.393	62.811	9.627	-102.251	204.818	236.659	-102.754	-97.394	154.024	-108.774	-98.902	-94.951	-93.913	-88.986	64.184	-91.475	-8191	255	
3130.660	1	1	0	0	0.24538	0.13026	0.16665	0.19777	0.23997	0.17754	0.21483	0.10321	0.054968	0.19734	0.3061	0.38102	0.10252	0.25117	0.12654	0.19017	-1.2229	-2.3583	-2.3604	-1.5417	-2.4958	-1.95	-2.0729	-2.7375	-1.7417	-2.2792	-2.4583	-1.8208	-2.5271	-1.9937	-1.7854	-2.6937	132.502	238.928	108.938	187.995	43.018	-13.747	232.126	-91.075	-114.455	53.146	222.479	215.768	160.976	218.518	131.298	191.029	0.0016293	0.00080101	0.00033004	694.76	9.0332e-06	5.604e-06	1015.6	240.6	6.1264e-06	6.1864e-06	424.9	187.28	102.07	55.808	1.1067e-05	90.636	0.0010425	0.0010729	0.00028876	732.48	1.1585e-05	1.1723e-05	1026.2	254.82	1.1598e-05	1.1567e-05	434.14	183.49	120.75	55.91	1.1143e-05	87.243	50.621	-105.307	110.443	-102.373	-88.971	146.905	-102.626	-97.418	241.479	-46.933	-98.575	-94.670	-93.987	-89.040	2.171	-91.505	-8191	255	
3130.757	1	1	0	0	0.14946	0.022776	0.079914	0.16832	0.11119	0.15436	0.099075	0.12983	0.28408	0.1048	0.22702	0.32757	0.09989	0.27974	0.18821	0.17366	-1.3167	-2.0667	-2.5271	-1.7687	-2.3812	-2.2604	-1.8042	-2.7271	-1.7687	-2.2604	-2.5604	-1.7146	-2.4875	-2.4	-1.5417	-2.7938	75.824	-33.014	-94.856	218.310	-24.727	235.953	-66.153	20.669	132.744	-72.067	177.438	-102.445	51.543	226.687	157.236	-81.265	0.0015407	0.0010804	0.0003439	694.03	1.0461e-06	4.5849e-06	1012.9	240.09	8.1986e-06	6.3701e-06	424.01	185.59	102.34	55.398	6.5522e-06	89.493	0.0010693	0.0010548	0.00028451	736.52	1.1826e-05	1.1657e-05	1026.1	255.19	1.186e-05	1.1411e-05	432.52	183.21	120.95	55.437	1.1033e-05	86.926	65.461	-71.721	-36.590	-102.320	140.293	-113.478	-102.710	-97.235	103.123	-19.352	-98.307	-94.884	-92.891	-88.434	-64.010	-91.169	-8191	255	
3130.877	1	1	0	0	0.36982	0.19928	0.15624	0.17428	0.12946	0.093532	0.16973	0.22822	0.092135	0.051572	0.1813	0.21959	0.2172	0.041517	0.22806	0.13645	-1.6104	-2.1729	-2.6521	-1.7396	-2.5271	-2.2042	-1.7583	-2.7292	-2.1333	-1.8646	-2.4729	-1.6562	-2.35	-2.35	-1.4125	-2.3646	116.992	80.611	130.430	-33.522	-99.119	181.996	-48.314	150.767	-107.157	183.600	-66.162	-105.460	16.174	62.058	209.387	207.506	0.001525	0.0013413	5.842e-05	697.96	5.0854e-06	5.4386e-06	1011	240.36	5.5617e-06	2.9975e-06	424.58	186.67	101.87	55.512	9.1287e-06	89.848	0.0010893	0.00104	0.0002867	743.07	1.1975e-05	1.1466e-05	1026.7	256.89	1.1996e-05	1.1315e-05	432.51	184.17	121.2	55.31	1.0993e-05	87.183	69.636	-1.572	-55.439	-101.964	-17.816	164.668	-102.337	-96.900	148.971	-8.115	-98.412	-95.024	-93.110	-88.809	220.277	-91.681	-8191	255	
3130.973	1	1	0	0	0.017988	0.22272	0.12057	0.25262	0.15764	0.16041	0.24482	0.12973	0.13768	0.24958	0.1703	0.19094	0.07017	0.097654	0.058906	0.11974	-1.5354	-1.6375	-2.4437	-1.5354	-2.1521	-2.3896	-1.6833	-2.6813	-2.0375	-1.8833	-2.7083	-1.9167	-2.2542	-2.7396	-1.7396	-2.6667	-95.307	144.050	-98.164	55.773	101.748	172.447	-75.547	143.249	220.391	-88.544	175.841	171.519	242.486	-88.937	13.239	115.923	0.0011586	0.0014455	0.00021608	707.09	1.2048e-05	5.7818e-06	1023.1	243.69	1.7444e-05	1.015e-05	421.89	185.3	101.59	54.951	1.1765e-05	88.347	0.0010767	0.0010252	0.00028294	754.72	1.1702e-05	1.131e-05	1036.8	259.36	1.1702e-05	1.1157e-05	432.96	184.42	120.26	54.786	1.1146e-05	86.373	50.530	-74.221	8.288	-101.954	124.693	5.884	-102.525	-96.881	-34.376	9.272	-98.024	-94.848	-92.823	-88.159	-83.415	-91.157	-8191	255	
3131.045	1	1	0	0	0.06282	0.064751	0.41738	0.1639	0.089086	0.054334	0.21902	0.12897	0.29206	0.1572	0.14844	0.24158	0.27585	0.12663	0.11082	0.16047	-1.8937	-1.8521	-2.6792	-2.0375	-2.0917	-2.6875	-1.8813	-2.5979	-2.3937	-1.8937	-2.7938	-1.7875	-1.8146	-2.5729	-1.6271	-2.4979	79.439	-13.057	222.746	-81.481	136.280	122.004	120.303	104.404	146.338	188.265	-107.940	219.887	-66.448	244.018	79.881	179.858	0.0014327	0.0012284	0.00010751	715.57	1.5932e-05	5.9867e-06	1027.7	244.35	1.7041e-05	8.5861e-06	419.3	184.61	100.98	54.364	5.6054e-06	87.653	0.0010737	0.0010215	0.00028609	765.48	1.1575e-05	1.1305e-05	1044.7	261.36	1.1616e-05	1.1104e-05	433.9	183.55	119.41	54.45	1.144e-05	85.823	95.267	219.703	195.080	-101.795	-58.274	60.939	-102.486	-96.790	-61.896	-69.825	-98.520	-95.232	-92.433	-88.446	213.789	-91.308	-8191	255	
3131.166	1	1	0	0	0.18397	0.18363	0.19252	0.17985	0.26216	0.19033	0.16432	0.32743	0.31944	0.16371	0.17865	0.35777	0.36614	0.25373	0.17225	0.10872	-1.7417	-1.6187	-2.3604	-1.9813	-1.9813	-2.6042	-1.8167	-2.2167	-2.3729	-1.525	-2.4625	-1.9583	-1.7083	-2.3854	-1.5833	-2.2479	117.591	63.863	186.561	202.820	-66.695	19.135	189.640	149.311	-80.578	-96.393	-86.632	213.306	238.708	212.719	112.678	166.458	0.0006656	0.00087133	0.00026411	722.91	3.3934e-06	5.1394e-06	1034	245.36	2.7815e-06	3.7996e-06	418.91	184.82	102.51	54.357	1.0019e-05	88.125	0.0010558	0.0010147	0.00029495	770.65	1.1425e-05	1.1275e-05	1052.4	260.79	1.1528e-05	1.1096e-05	434.05	182.95	118.82	54.296	1.1648e-05	85.729	63.036	24.413	100.611	-102.561	-99.504	128.626	-102.390	-97.150	225.915	-20.912	-98.435	-95.132	-92.785	-88.441	104.152	-91.370	-8191	255	
3131.262	1	1	0	0	0.31956	0.10277	0.31092	0.15846	0.046857	0.19275	0.11201	0.30752	0.17638	0.31504	0.20654	0.31188	0.21327	0.067684	0.29922	0.10588	-2	-1.4104	-2.1937	-2.1188	-1.5979	-2.5042	-1.9312	-2.3646	-2.3458	-1.7208	-2.5521	-2.2521	-1.7563	-2.5604	-1.65	-1.9937	227.027	21.317	191.215	-88.131	44.455	82.325	-97.539	153.592	-82.443	182.194	182.175	194.331	223.964	-86.305	221.412	104.307	0.0018548	0.0011004	0.00040852	718.81	8.2931e-06	1.4278e-05	1026.3	243.15	1.6659e-05	9.9452e-06	418.22	184.42	101.43	54.298	7.5127e-06	87.617	0.0010373	0.0010058	0.00029729	764.16	1.1134e-05	1.1124e-05	1050.2	258.49	1.1308e-05	1.113e-05	435.2	182.06	118.09	54.35	1.193e-05	85.221	70.937	232.745	212.761	-102.182	129.151	-30.126	-102.834	-97.060	73.341	-60.378	-98.581	-95.592	-93.727	-88.418	-73.271	-91.450	-8191	255	
3131.358	1	1	0	0	0.090088	0.10427	0.15931	0.1577	0.18066	0.1334	0.12689	0.022764	0.045661	0.074827	0.20375	0.04958	0.14875	0.26753	0.091954	0.22396	-1.9479	-1.4083	-2.3146	-2.325	-1.7479	-2.6583	-1.9062	-1.7854	-2.55	-1.5042	-2.4167	-2.5979	-1.7875	-2.6271	-1.9896	-2.0625	-85.438	3.173	93.449	27.005	-96.396	128.358	189.396	-19.922	94.943	140.492	-107.840	-35.342	223.664	-33.010	-81.057	238.968	0.00088611	0.0006463	1.1676e-05	723.19	7.4417e-06	6.247e-06	1032.6	243.05	3.8374e-06	9.7332e-06	418.59	183.35	99.676	53.791	6.1981e-06	86.702	0.0010299	0.0010255	0.00030096	765.92	1.103e-05	1.1341e-05	1052.7	258.04	1.1155e-05	1.1336e-05	434.1	181.25	117.22	54.176	1.1919e-05	84.324	97.863	111.949	-95.391	-102.411	211.003	-91.906	-102.830	-97.141	-27.579	138.255	-98.699	-95.100	-93.823	-88.650	-91.249	-90.989	-8191	255	
3131.477	1	1	0	0	0.16194	0.14587	0.1593	0.17598	0.17313	0.021806	0.12137	0.18294	0.11407	0.22003	0.16646	0.22461	0.27399	0.10209	0.057682	0.13159	-2.3479	-1.7687	-2.3	-2.5292	-1.4875	-2.6437	-2.3271	-1.9937	-2.7479	-1.7354	-2.375	-2.5375	-1.4833	-2.5667	-2.1167	-1.8917	149.922	228.060	-87.010	93.375	46.476	111.539	198.811	108.160	115.598	156.921	139.089	201.012	142.889	231.045	158.414	61.543	0.0017701	0.0015678	9.1943e-05	721.7	8.4908e-06	3.4088e-06	1035.1	241.22	2.107e-05	6.4567e-06	419.41	183.09	101.89	53.863	4.9464e-06	86.493	0.0010311	0.0010617	0.00030377	764.34	1.111e-05	1.1778e-05	1052.4	257.36	1.1256e-05	1.18e-05	432.28	181.06	117.35	54.311	1.1722e-05	83.995	79.964	96.522	-60.283	-102.662	32.301	-109.170	-102.962	-96.757	-43.960	198.379	-98.281	-95.400	-93.735	-88.309	86.982	-91.362	-8191	255	
3131.573	1	1	0	0	0.30282	0.31792	0.11085	0.25299	0.039352	0.087548	0.23791	0.20058	0.15256	0.16476	0.21414	0.2106	0.18896	0.16691	0.11625	0.24164	-2.1604	-1.7833	-2.1021	-2.6021	-1.8458	-2.6562	-2.3083	-1.725	-2.8167	-1.9396	-2.0875	-2.7021	-1.65	-2.4229	-2.2729	-1.6938	12.920	72.706	33.591	-109.983	104.610	121.263	-95.271	241.286	130.946	53.929	162.146	172.040	-90.770	231.826	-68.490	209.248	0.001412	0.0004687	0.00052617	716.83	2.4304e-06	1.2331e-05	1034.6	242.13	8.7193e-06	3.7147e-06	417.59	182.21	100.3	53.621	1.2892e-05	86.386	0.0010363	0.0010852	0.00029204	761.94	1.1162e-05	1.1925e-05	1049.8	256.06	1.1394e-05	1.1912e-05	430.12	180.2	117.77	54.181	1.1553e-05	83.806	71.864	184.225	-35.547	-102.522	67.399	7.892	-102.833	-97.415	21.947	171.648	-97.826	-94.918	-92.861	-88.606	-22.914	-91.155	-8191	255	
3131.645	1	1	0	0	0.33351	0.061653	0.17267	0.33503	0.1182	0.19202	0.27221	0.11618	0.21645	0.1648	0.14568	0.023726	0.030978	0.16929	0.13204	0.36178	-2.3312	-1.9667	-2.0875	-2.8	-1.6396	-2.3688	-2.425	-1.6063	-2.6813	-1.9688	-1.8417	-2.5438	-1.4562	-2.2021	-2.1896	-1.45	109.009	218.865	-42.779	170.470	-94.025	172.939	121.585	-114.501	186.038	149.941	210.519	-74.188	85.810	-110.718	83.164	147.117	0.0016578	0.00093341	0.00015194	714.01	6.1469e-06	2.1009e-05	1034.2	241.79	1.1058e-05	3.4665e-06	417.25	182.7	100.81	53.828	8.3518e-06	85.978	0.0010445	0.0010831	0.00028683	759.23	1.1385e-05	1.1827e-05	1047.4	254.96	1.1574e-05	1.1785e-05	429.84	179.75	118.43	54.042	1.1242e-05	83.616	75.839	-32.114	184.315	-101.784	152.764	23.154	-102.896	-97.104	-52.933	-78.069	-98.586	-94.957	-93.856	-88.640	-45.627	-91.712	-8191	255	
3131.765	1	1	0	0	0.24984	0.19588	0.15538	0.18903	0.28531	0.16569	0.29204	0.19881	0.08029	0.035416	0.26843	0.15185	0.2383	0.10089	0.042482	0.12102	-2.0563	-1.9521	-1.8604	-2.6375	-1.4583	-2.2062	-2.5771	-1.6604	-2.4604	-2.025	-1.7125	-2.7146	-1.5063	-1.8542	-2.3438	-1.5875	22.791	183.969	194.847	220.347	-19.501	29.340	148.043	143.459	-90.149	175.177	161.440	-76.085	164.613	34.944	152.163	211.080	0.0024803	0.0012128	0.00037247	718.1	1.0003e-05	1.4437e-05	1025	240.42	2.7191e-06	1.2528e-05	413.89	183.18	100.81	53.633	5.6711e-06	86.201	0.0010667	0.001068	0.00028241	757.4	1.1721e-05	1.1664e-05	1041.7	255.17	1.1899e-05	1.1632e-05	426.39	180.05	119.7	53.817	1.1205e-05	83.787	63.591	33.096	-71.766	-102.676	157.395	59.540	-102.642	-96.849	134.963	11.482	-98.407	-94.899	-93.370	-88.493	-80.092	-91.236	-8191	255	
3131.861	1	1	0	0	0.28466	0.2043	0.073742	0.097359	0.10124	0.23097	0.080363	0.18066	0.19233	0.14649	0.30163	0.17818	0.12553	0.19336	0.1665	0.12745	-1.8625	-2.2146	-1.7188	-2.5729	-1.9208	-2.0542	-2.4979	-1.5458	-2.1979	-2.2875	-1.7292	-2.6583	-1.6958	-1.9583	-2.5771	-1.5667	-113.092	-46.396	239.792	61.873	102.684	66.205	100.940	156.861	30.649	-11.685	116.027	-112.412	-18.339	168.260	48.897	-75.429	0.0014685	0.0018698	0.00015618	716.06	1.41e-05	9.7811e-06	1029.1	242.19	3.2209e-06	1.328e-05	417.41	182.79	100.79	53.749	6.9464e-06	86.562	0.0010848	0.0010546	0.00028108	758.23	1.1901e-05	1.1395e-05	1041.5	256.57	1.1868e-05	1.1388e-05	427.25	180.39	119.56	53.778	1.1151e-05	84.178	84.713	-32.865	-13.123	-101.878	-33.055	-20.854	-103.341	-97.609	61.218	44.726	-98.761	-95.276	-92.849	-88.319	7.481	-91.157	-8191	255	
3131.958	1	1	0	0	0.077158	0.12381	0.12633	0.16219	0.14528	0.045722	0.17548	0.27563	0.16323	0.267	0.22522	0.12114	0.17702	0.30464	0.087467	0.21235	-1.9167	-2.3375	-1.3083	-2.7687	-2.0854	-1.6229	-2.6229	-1.7167	-2.2979	-2.3667	-1.8333	-2.7083	-2.0771	-1.9438	-2.6125	-1.7708	147.909	-18.911	-53.919	103.493	77.289	93.847	166.182	-23.311	156.334	97.057	204.039	172.321	-68.389	179.521	212.300	126.679	0.001397	0.0016437	0.00010666	713.78	1.772e-05	7.1688e-06	1028.9	243.69	1.4323e-05	4.6831e-06	418.89	183.18	100.36	53.639	3.5027e-06	86.444	0.0010839	0.0010385	0.00027814	758.27	1.1803e-05	1.1275e-05	1040.3	257.94	1.1741e-05	1.1196e-05	426.93	181.35	119.14	53.596	1.1072e-05	84.301	75.541	-54.088	194.598	-102.035	-27.387	-104.090	-102.731	-97.335	-44.149	133.324	-98.664	-94.864	-93.052	-88.447	241.377	-91.281	-8191	255	
3132.054	1	1	0	0	0.20491	0.21588	0.21412	0.42391	0.11288	0.10516	0.14668	0.051452	0.11615	0.17923	0.44081	0.1769	0.086405	0.064526	0.15669	0.36037	-2.0146	-2.3646	-1.4813	-2.3292	-2.0646	-1.6146	-2.7979	-1.9521	-2.0042	-2.5729	-1.775	-2.6396	-2.2271	-1.5458	-2.5792	-1.8229	140.348	156.518	179.270	160.925	-3.957	133.788	150.630	-70.337	-3.926	47.354	199.766	-97.572	143.732	-8.515	-29.764	183.993	0.001496	0.0012436	0.00025926	719.69	8.819e-06	1.6581e-05	1030.1	242.57	4.7875e-06	2.6832e-06	414.55	181.71	100.65	53.358	8.7499e-06	85.41	0.0010603	0.0010201	0.00027901	764.45	1.1643e-05	1.1076e-05	1043.5	259.3	1.1483e-05	1.1169e-05	426.54	181.35	119.13	53.399	1.1377e-05	83.881	83.913	-50.300	230.354	-101.643	-24.594	31.003	-102.424	-96.747	-12.184	103.735	-98.151	-94.690	-93.830	-88.201	-111.067	-91.385	-8191	255	
3132.174	1	1	0	0	0.10512	0.20401	0.10994	0.098074	0.25651	0.090821	0.2661	0.058003	0.18963	0.11678	0.15277	0.019753	0.1604	0.18674	0.15594	0.33747	-1.5438	-2.5062	-1.5979	-2.2083	-2.1063	-1.7583	-2.7708	-1.9458	-2.05	-2.8042	-1.7687	-2.3708	-2.0896	-1.6479	-2.3438	-2.0542	221.092	40.459	60.857	202.450	-2.690	232.115	145.874	115.864	-26.343	210.555	70.343	40.209	113.799	186.427	68.802	141.749	0.0015651	0.0011118	0.00016324	717.72	6.4047e-06	4.5796e-06	1020.6	241.71	2.3973e-05	1.0011e-05	413.32	182.79	101.33	53.827	3.8365e-06	86.192	0.0010429	0.0010267	0.00028681	767.13	1.155e-05	1.0996e-05	1043.6	259.19	1.1394e-05	1.1153e-05	429.53	181.86	118.58	53.462	1.1584e-05	84.091	69.546	-96.002	121.704	-102.222	32.939	-11.018	-102.384	-97.043	-39.589	-8.574	-98.282	-94.690	-93.262	-88.655	-12.478	-91.151	-8191	255	
3132.269	1	1	0	0	0.035327	0.19585	0.097701	0.18612	0.24908	0.23011	0.2131	0.06796	0.27803	0.031016	0.26801	0.23599	0.015763	0.25859	0.20251	0.15692	-1.5729	-2.3583	-1.6917	-2.1813	-2.3292	-1.7521	-2.6375	-2.1583	-2.0208	-2.4958	-1.9583	-2.3688	-2.4479	-1.7146	-2.5083	-2.3667	105.486	157.299	-12.964	-36.424	26.043	95.510	208.239	-114.386	-65.086	15.104	178.385	182.297	60.551	181.262	-110.910	167.477	0.0012309	0.00055925	0.00053514	710	9.6063e-06	1.2481e-05	1027.6	240	3.4977e-06	4.5705e-06	417.36	182.68	100.73	53.395	3.9063e-06	86.218	0.0010241	0.0010132	0.00029291	756.03	1.1277e-05	1.0901e-05	1043	257.74	1.1196e-05	1.1036e-05	430.61	181.04	117.91	53.453	1.1776e-05	84.138	58.256	233.137	68.243	-102.322	-31.101	76.553	-102.771	-97.346	36.829	26.376	-98.282	-94.866	-93.271	-88.600	231.702	-91.401	-8191	255	
3132.342	1	1	0	0	0.060179	0.11697	0.25204	0.40588	0.12964	0.095926	0.083681	0.22544	0.13521	0.10354	0.068582	0.18063	0.2833	0.070959	0.1567	0.17487	-1.3542	-2.5812	-1.6729	-2.1229	-2.4938	-1.4875	-2.6312	-2.3042	-1.7146	-2.5917	-1.7708	-2.175	-2.5563	-1.6771	-2.2646	-2.1896	-98.451	104.061	-70.877	-107.473	-57.340	6.608	193.881	153.791	-2.154	-6.384	44.708	-50.148	-90.258	46.380	114.900	164.352	0.00111	0.00052945	0.00017123	714.54	8.4226e-06	3.5519e-06	1020.9	241.09	1.6862e-05	2.9746e-06	414.11	182.5	101.47	53.479	7.0704e-06	86.078	0.0010142	0.0010186	0.00030167	755.43	1.1197e-05	1.1045e-05	1042.7	256.65	1.1054e-05	1.127e-05	431.27	180.21	117.13	53.41	1.1738e-05	83.641	91.920	154.705	155.471	-102.258	-8.408	0.974	-103.080	-97.225	2.187	-113.428	-99.089	-95.159	-93.328	-88.986	22.563	-91.842	-8191	255	
3132.438	1	1	0	0	0.21122	0.10383	0.010028	0.16424	0.15099	0.15023	0.18184	0.18376	0.17559	0.16055	0.32058	0.16651	0.16482	0.10784	0.11996	0.12365	-0.98542	-2.5812	-1.9479	-1.9604	-2.7917	-1.5917	-2.6354	-2.3208	-1.5271	-2.4875	-2.0354	-1.7854	-2.5062	-1.65	-2.0917	-2.4	-19.625	-7.161	-101.409	118.436	45.406	63.542	170.359	164.477	-23.232	106.834	190.328	-77.826	74.162	209.497	48.110	186.524	0.00060501	0.00056692	0.00019221	709.29	1.2167e-05	3.8552e-06	1021.6	240.34	1.0769e-05	8.9166e-06	415.57	182.94	100.14	53.32	6.5835e-06	86.144	0.0010093	0.0010464	0.00029916	754.38	1.1191e-05	1.1525e-05	1043.7	256.38	1.1063e-05	1.1646e-05	430.69	180.53	117.44	53.721	1.164e-05	83.729	69.585	-52.109	-59.412	-102.629	-25.445	-57.841	-103.024	-97.759	238.548	-15.055	-99.252	-95.323	-94.219	-89.158	-3.272	-92.069	-8191	255	
3132.557	1	1	0	0	0.35724	0.023244	0.041425	0.36965	0.21938	0.12972	0.06918	0.34486	0.26885	0.15081	0.091318	0.23537	0.20104	0.10878	0.083901	0.26849	-1.3	-2.5375	-1.9083	-1.5833	-2.6312	-1.8729	-2.3688	-2.6083	-1.7313	-2.575	-2.2333	-1.8292	-2.5563	-1.8958	-1.9937	-2.75	163.717	163.252	-104.734	168.656	-95.231	145.712	2.089	124.150	46.136	11.558	243.159	-80.540	-46.410	147.543	205.431	163.854	0.0017813	0.00018731	0.00013486	714.3	9.544e-06	3.4534e-06	1023.5	241.35	1.1418e-05	8.6693e-06	414.19	184.13	101.47	53.498	1.4765e-05	85.861	0.001003	0.001067	0.00029624	753.4	1.11e-05	1.1693e-05	1041.4	256.57	1.1107e-05	1.1899e-05	429.71	181.03	118.52	54.043	1.156e-05	83.759	105.828	-56.101	240.771	-102.522	-45.862	-63.655	-103.181	-97.947	105.458	-15.434	-99.093	-95.771	-93.794	-89.171	-6.570	-92.514	-8191	255	
3132.653	1	1	0	0	0.094227	0.13439	0.15999	0.2489	0.17632	0.045933	0.028006	0.17656	0.0047114	0.043344	0.060593	0.16831	0.24782	0.11574	0.080238	0.19943	-1.3896	-2.3937	-1.8917	-1.6	-2.425	-1.8604	-1.8813	-2.6479	-1.8563	-2.275	-2.4062	-1.9229	-2.7042	-2.1479	-1.8104	-2.6583	154.593	216.854	43.248	161.821	-73.063	50.306	157.382	153.065	240.218	-88.966	-113.999	119.758	172.799	11.067	195.900	-95.400	0.0018594	0.00066347	0.00015	719.28	6.0206e-06	6.4856e-06	1029.4	242.61	2.0562e-05	1.356e-05	415.46	183.95	101.63	53.638	6.9094e-06	85.416	0.0010269	0.0010882	0.00029136	759.81	1.1409e-05	1.1898e-05	1045.7	257.48	1.133e-05	1.179e-05	430.03	180.85	119.55	54.041	1.1189e-05	83.361	61.412	22.364	-112.764	-102.761	22.967	-54.526	-103.371	-98.079	3.275	73.167	-99.581	-95.677	-93.667	-89.186	224.266	-92.145	-8191	255	
3132.749	1	1	0	0	0.21766	0.17773	0.11572	0.22468	0.23216	0.24038	0.11504	0.057635	0.06564	0.14746	0.10875	0.33341	0.060316	0.27737	0.11201	0.24574	-1.3875	-2.2125	-2.4104	-1.6271	-2.6604	-1.9979	-1.8604	-2.6396	-1.5792	-2.2896	-2.4896	-1.7021	-2.6125	-2.3125	-1.5417	-2.5521	156.931	-76.927	146.539	179.274	176.729	225.593	102.335	183.644	169.080	73.639	192.533	217.287	72.947	238.920	33.427	-115.655	0.0014599	0.00068115	0.00026711	728.99	2.8781e-06	1.0296e-05	1029.7	242.43	9.8562e-06	1.348e-05	417.09	183.38	101.32	53.608	7.8252e-06	85.162	0.001057	0.0010807	0.00028825	761.35	1.1704e-05	1.1807e-05	1045.8	258.22	1.1767e-05	1.1752e-05	429.25	180.43	120.65	53.906	1.1242e-05	83.219	70.720	-63.212	188.014	-102.386	214.339	31.669	-103.585	-97.696	184.473	45.779	-99.602	-95.725	-94.209	-89.222	34.014	-92.219	-8191	255	
3132.846	1	1	0	0	0.13728	0.13311	0.16197	0.038978	0.085147	0.1153	0.31469	0.36968	0.17336	0.051298	0.049758	0.12576	0.32988	0.087775	0.20675	0.34046	-1.3458	-1.9021	-2.3438	-1.6938	-2.4375	-2.2458	-1.6521	-2.7	-1.8583	-2.0104	-2.6646	-1.6792	-2.4313	-2.4458	-1.7396	-2.7167	-38.005	-91.424	75.894	-25.153	43.033	86.844	165.852	191.667	235.557	72.185	-6.715	202.680	-85.555	-98.018	156.042	164.496	0.0011698	0.0005463	7.4283e-05	724.73	9.7575e-06	1.7924e-05	1030.9	245.73	1.3672e-05	6.5401e-06	417.07	184.44	102.51	53.76	1.3898e-05	85.942	0.0010936	0.0010599	0.00028772	764.7	1.2096e-05	1.1704e-05	1046.8	259.39	1.198e-05	1.1539e-05	429.94	181.67	121.11	53.864	1.1068e-05	83.745	83.378	-23.690	191.468	-102.924	-4.974	-39.579	-103.338	-97.930	14.840	-18.613	-99.326	-95.584	-94.038	-89.325	90.907	-92.272	-8191	255	
3132.942	1	1	0	0	0.051322	0.28874	0.16429	0.18339	0.072563	0.20009	0.12184	0.18105	0.21168	0.22704	0.3003	0.11314	0.4666	0.095646	0.24709	0.2818	-1.5958	-1.8875	-2.4917	-1.4958	-2.3646	-2.0958	-1.7417	-2.6542	-1.9688	-2.0083	-2.4854	-1.8458	-2.1729	-2.4479	-1.7646	-2.75	-56.350	31.106	68.069	235.324	-63.501	1.122	177.527	194.860	115.289	-58.506	61.532	193.247	75.556	220.212	5.871	-81.313	0.0010167	0.0011125	0.0001305	721.85	2.5381e-05	2.9594e-06	1036.4	243.38	1.1202e-05	5.941e-06	418.41	184.71	102.25	53.748	1.1307e-05	85.998	0.0010928	0.001037	0.00028268	765.45	1.1865e-05	1.1406e-05	1047.2	260.31	1.1871e-05	1.1159e-05	429.19	182.26	120.87	53.853	1.0928e-05	84.239	82.506	-81.339	138.700	-102.800	-0.144	-31.920	-103.398	-97.984	41.553	84.878	-99.283	-95.798	-94.417	-89.232	-11.891	-92.295	-8191	255	
3133.038	1	1	0	0	0.18233	0.091434	0.1654	0.25439	0.18831	0.054068	0.10216	0.22434	0.27236	0.06001	0.12268	0.16505	0.062442	0.40682	0.025528	0.29365	-1.6667	-1.9021	-2.4792	-1.8646	-1.8729	-2.3771	-1.6542	-2.6063	-2.225	-1.8292	-2.8896	-1.9604	-2.1958	-2.6042	-1.6521	-2.4938	161.262	-111.960	111.696	235.661	-91.463	-81.359	218.365	-40.985	132.066	135.520	225.141	190.872	222.859	213.265	142.362	188.271	0.0016159	0.0011904	0.00029507	720.52	2.3245e-05	3.4933e-06	1034.8	244.64	9.6015e-06	1.0124e-05	415.14	183.06	102.63	53.859	2.2995e-06	85.744	0.0010747	0.0010259	0.00028142	767.73	1.1636e-05	1.1217e-05	1044	260.62	1.1676e-05	1.1069e-05	427.56	182.16	119.99	53.768	1.1113e-05	84.163	50.206	-40.275	-94.244	-102.939	-51.436	-98.622	-103.648	-97.919	73.388	-49.552	-99.202	-95.884	-94.238	-89.537	-17.957	-92.093	-8191	255	
3133.159	1	1	0	0	0.23814	0.17296	0.1665	0.090478	0.21175	0.062008	0.24001	0.22946	0.10031	0.20993	0.30433	0.16099	0.39536	0.34774	0.17233	0.15213	-1.7812	-1.8354	-2.5979	-2.0708	-2.0062	-2.5812	-2.0125	-2.4688	-2.1688	-1.7313	-2.6542	-1.8875	-2.1813	-2.7188	-1.6833	-2.3771	167.437	230.849	-102.112	90.593	116.628	48.137	143.747	241.878	119.209	3.604	159.835	58.564	-24.638	-109.086	187.707	-104.497	0.0012324	0.00080028	0.00025971	725.23	2.8839e-06	9.6334e-06	1031.6	245.21	7.4247e-06	5.0149e-06	417.53	184.86	102.05	53.598	1.1567e-05	85.975	0.0010579	0.0010122	0.00028556	773.08	1.1393e-05	1.1121e-05	1045.9	261.85	1.1353e-05	1.0859e-05	430.69	183.12	118.97	53.741	1.134e-05	84.266	76.127	16.835	-83.233	-102.889	173.871	-113.844	-103.262	-97.669	-70.984	119.124	-98.885	-95.711	-93.298	-89.229	125.062	-91.634	-8191	255	
3133.255	1	1	0	0	0.071007	0.29539	0.15143	0.042597	0.28473	0.25096	0.3099	0.052141	0.10894	0.30771	0.25688	0.13689	0.041718	0.15373	0.16093	0.1434	-2.0521	-1.7292	-2.5917	-2.0563	-1.7583	-2.5187	-1.8146	-2.2479	-2.3438	-1.7667	-2.5396	-1.95	-1.8542	-2.6292	-1.6437	-2.2833	40.268	28.059	213.851	-81.142	-105.137	-69.066	-24.800	47.094	44.673	205.397	228.606	157.426	-67.079	45.788	153.604	-106.178	0.0012134	0.00043339	5.953e-05	723.15	9.5993e-06	5.1436e-06	1030.9	244.96	9.856e-06	6.2014e-06	419.34	184.78	101.83	53.83	1.2869e-05	86.469	0.0010374	0.00099577	0.00029217	769.47	1.1215e-05	1.1083e-05	1049	260.67	1.1294e-05	1.09e-05	432.58	182.6	118.22	53.782	1.1597e-05	84.316	85.614	154.753	-11.146	-102.882	5.502	-9.267	-103.427	-97.933	-73.704	-53.024	-99.358	-95.854	-94.421	-89.108	-101.827	-91.722	-8191	255	
3133.349	1	1	0	0	0.2491	0.24453	0.01197	0.25924	0.027561	0.30771	0.14379	0.27018	0.22573	0.32375	0.21044	0.18724	0.026451	0.3215	0.09597	0.13067	-1.975	-2	-2.4292	-2.075	-1.7708	-2.6542	-1.7979	-2.0229	-2.4583	-1.6083	-2.5396	-2.4	-1.7687	-2.7458	-1.9292	-2.3521	131.211	196.276	160.890	80.359	-99.241	207.204	-96.652	182.558	153.597	159.705	163.312	150.683	-108.027	240.003	11.063	208.128	0.0011452	0.00052002	0.00017447	722.83	6.4782e-06	3.8597e-06	1032.5	243.88	4.3672e-06	5.6109e-06	418.87	183.86	102.86	53.792	7.2583e-06	86.115	0.0010286	0.00099409	0.00029627	766.89	1.1016e-05	1.1151e-05	1052.5	259.5	1.1174e-05	1.1015e-05	432.62	181.84	118.3	53.818	1.1712e-05	83.567	54.997	-33.022	206.512	-102.720	16.636	61.311	-103.365	-97.181	213.710	39.758	-98.827	-95.900	-94.125	-89.114	-93.180	-91.965	-8191	255	
3133.447	1	1	0	0	0.14551	0.15341	0.24909	0.17912	0.1491	0.11049	0.3365	0.072693	0.11329	0.14972	0.26586	0.037999	0.063019	0.10688	0.24829	0.25119	-2.3333	-1.6729	-2.3292	-2.4646	-1.6375	-2.5687	-1.9708	-2.1833	-2.6521	-1.8542	-2.5	-2.4667	-1.5896	-2.5083	-2.0687	-2.0167	-59.367	-9.067	40.963	71.519	-14.980	-51.179	183.129	196.307	183.334	-87.750	-105.506	82.417	195.705	-73.406	238.208	199.308	0.00096826	0.00077055	0.00029503	735.63	9.7219e-06	6.4096e-06	1043.9	247.82	3.6481e-06	8.1878e-06	418.78	184.2	102.11	53.889	1.1386e-05	85.052	0.0010198	0.0010254	0.00029734	771.89	1.0876e-05	1.1355e-05	1061.7	260.83	1.1071e-05	1.1347e-05	433.35	181.9	118.16	53.921	1.1724e-05	82.956	59.612	243.141	-48.620	-102.591	101.370	136.916	-103.319	-97.861	30.483	190.574	-99.158	-95.496	-94.196	-89.165	-14.361	-91.843	-8191	255	
3133.541	1	1	0	0	0.29855	0.12104	0.040732	0.15984	0.30915	0.085534	0.15863	0.16591	0.057515	0.42233	0.067059	0.19379	0.13434	0.27412	0.15007	0.29076	-2.2708	-1.6333	-2.375	-2.4958	-1.6979	-2.5375	-2.0958	-1.75	-2.4667	-1.5875	-2.1437	-2.5979	-1.575	-2.4667	-2.0167	-1.7625	-16.212	235.102	95.892	173.812	217.327	-27.184	97.391	231.019	5.858	97.956	143.998	223.610	-87.118	39.205	14.683	218.794	0.0014269	0.00038526	0.00013458	736.44	6.5743e-06	1.7094e-05	1042.5	247.78	5.3868e-06	4.7822e-06	419.66	184.04	102.2	53.419	1.1529e-05	85.57	0.0010105	0.001056	0.00029665	774.97	1.0965e-05	1.1676e-05	1063.1	261.51	1.1212e-05	1.1788e-05	433.12	181.39	118.28	53.924	1.1522e-05	82.88	68.592	102.806	-83.743	-102.286	135.814	187.438	-103.267	-97.730	-109.528	70.763	-98.941	-95.653	-94.497	-89.030	10.365	-91.749	-8191	255	
3133.638	1	1	0	0	0.11272	0.045733	0.089175	0.37471	0.23355	0.19172	0.16473	0.14932	0.11723	0.14832	0.048549	0.069421	0.045052	0.24421	0.048525	0.22636	-2.0146	-1.3229	-1.9083	-2.3458	-1.5063	-2.3646	-2.3354	-1.6354	-2.7396	-1.7313	-1.9625	-2.4979	-1.375	-2.3083	-2.3583	-1.8354	-7.660	-63.322	-57.738	240.901	69.439	215.868	141.060	186.461	196.463	-64.555	204.019	-108.177	103.705	209.465	-92.169	129.743	0.0017213	0.0011381	0.0002846	742.08	1.0093e-05	2.7277e-06	1055.4	249.42	5.9592e-06	5.8084e-06	420.87	183.67	103.12	53.347	9.3857e-06	84.844	0.0010252	0.0010826	0.00028921	779.15	1.1182e-05	1.1879e-05	1067.6	262.29	1.1348e-05	1.1827e-05	431.73	181.63	119.89	53.817	1.1387e-05	82.498	65.943	26.344	-34.568	-102.819	193.785	154.225	-103.565	-98.037	239.760	118.669	-99.511	-95.986	-94.098	-89.349	6.640	-92.341	-8191	255	
3133.734	1	1	0	0	0.23261	0.27848	0.18458	0.21769	0.10272	0.16113	0.21177	0.1679	0.062393	0.22955	0.22669	0.1209	0.20407	0.26064	0.19274	0.21798	-2.1875	-2.0042	-1.9875	-2.6375	-1.5	-2.3729	-2.3146	-1.7313	-2.5729	-1.9188	-2.0333	-2.6042	-1.7771	-2.2292	-2.3833	-1.6688	-51.093	202.251	-33.474	-90.137	-20.059	79.779	102.596	71.632	92.603	225.479	146.730	205.939	159.020	155.678	86.196	207.244	0.0010025	0.0006075	0.00030585	747.45	1.4973e-05	1.0447e-05	1059	254.17	4.082e-06	8.9652e-06	425.38	183.14	103.1	53.121	1.4293e-05	84.654	0.0010496	0.0010927	0.00028701	785.44	1.1562e-05	1.1846e-05	1074.2	266.46	1.1828e-05	1.1815e-05	433.6	181.42	120.95	53.669	1.128e-05	82.1	64.046	228.476	237.344	-103.307	56.638	21.637	-103.629	-98.204	120.240	-14.553	-98.947	-95.845	-94.017	-89.140	110.299	-92.019	-8191	255	
3133.854	1	1	0	0	0.14456	0.23453	0.052664	0.15444	0.078062	0.27159	0.16679	0.12323	0.034465	0.12749	0.11245	0.20545	0.054244	0.41144	0.11976	0.048672	-2.1354	-2.1396	-1.8208	-2.725	-1.8167	-2.3312	-2.5396	-1.6375	-2.3021	-1.9542	-1.6583	-2.6937	-1.8271	-2.1021	-2.3688	-1.7563	73.748	69.806	98.180	-71.922	-30.097	-80.346	-25.905	128.554	32.535	103.170	149.614	242.523	-107.060	204.425	112.635	-69.864	0.0010333	0.00060004	0.00048557	750.1	1.2114e-05	8.1485e-06	1064.9	253.57	3.1279e-06	1.0425e-05	422.7	184.05	102.5	53.081	3.9401e-06	84.119	0.0010765	0.0010664	0.00028172	784.64	1.1895e-05	1.1657e-05	1074.2	267.79	1.207e-05	1.1747e-05	433.74	181.84	122.52	53.426	1.1423e-05	82.382	58.970	1.113	241.752	-102.917	-74.995	21.832	-103.443	-97.921	164.365	128.095	-99.429	-95.827	-93.851	-88.957	-47.811	-92.172	-8191	255	
3133.950	1	1	0	0	0.18737	0.25254	0.37533	0.30191	0.14693	0.096319	0.2399	0.30426	0.036117	0.15419	0.31592	0.31316	0.19947	0.22783	0.18062	0.32899	-2.1437	-2.4542	-1.5812	-2.6063	-1.7542	-1.9771	-2.5458	-1.5333	-2.0792	-2.1542	-1.6854	-2.6771	-2.1208	-1.8458	-2.5521	-1.825	27.010	22.300	125.232	115.803	104.529	-3.705	124.883	68.238	-101.104	149.572	112.853	242.238	29.248	241.957	-115.549	157.545	0.0012698	0.00037604	0.00040949	752.55	5.0595e-06	1.2319e-05	1070.2	256.84	8.0375e-06	1.225e-05	421.88	184.36	102.99	53.024	1.2633e-05	84.212	0.0011097	0.0010708	0.00028391	794.97	1.2099e-05	1.1546e-05	1079.8	271.02	1.213e-05	1.1574e-05	433.57	182.41	122.66	53.313	1.129e-05	82.609	73.921	-75.267	-114.030	-102.860	-87.104	-39.506	-103.597	-97.832	-41.039	25.401	-99.057	-95.763	-93.643	-89.101	236.974	-91.760	-8191	255	
3134.047	1	1	0	0	0.2821	0.25188	0.15751	0.17454	0.26664	0.2303	0.024472	0.18294	0.23995	0.14007	0.16529	0.15097	0.092097	0.14419	0.10224	0.20487	-1.8125	-2.1458	-1.4104	-2.4938	-1.8354	-1.8	-2.7458	-1.7021	-2.2146	-2.5958	-1.6958	-2.5896	-2.1229	-1.6833	-2.4938	-1.7354	138.489	206.993	-82.754	222.638	-109.757	59.932	192.493	126.413	-101.885	-97.086	159.177	55.499	91.139	122.548	124.157	66.772	0.00085425	0.00073395	0.00017372	756.46	9.2603e-06	3.6365e-06	1071.5	254.44	1.5741e-05	6.1486e-06	421.56	183.56	102.99	53.399	7.0159e-06	84.597	0.0010931	0.0010501	0.00028044	800.12	1.205e-05	1.13e-05	1080.3	271.43	1.1876e-05	1.1404e-05	433.08	182.76	121.67	53.168	1.118e-05	82.93	85.126	-54.250	-62.246	-102.935	11.233	35.759	-103.586	-97.770	-59.637	165.888	-98.999	-95.236	-93.749	-88.972	219.592	-91.856	-8191	255	
3134.143	1	1	0	0	0.16638	0.016157	0.29405	0.06263	0.10654	0.19662	0.24797	0.11851	0.25194	0.17628	0.11746	0.18784	0.28968	0.15719	0.18368	0.13454	-1.4542	-2.3208	-1.4562	-2.3646	-2.0875	-1.6375	-2.6292	-1.8583	-1.9917	-2.5333	-1.7667	-2.3646	-2.0708	-1.6771	-2.3729	-1.7771	167.767	-90.974	128.227	167.598	222.248	140.848	148.241	213.374	-62.042	93.049	89.527	201.707	163.891	194.439	238.450	103.549	0.00066473	0.00074001	0.00012774	759.51	1.861e-05	9.2814e-06	1064.8	255.46	1.7909e-05	4.083e-06	424.1	184.97	103.09	53.32	4.0128e-06	84.581	0.0010663	0.001029	0.00027858	797.32	1.1603e-05	1.1082e-05	1078.3	271.74	1.1468e-05	1.1131e-05	434.64	183.05	120.94	53.17	1.1356e-05	83.154	95.309	-85.399	-95.248	-102.771	14.064	-29.853	-103.415	-98.037	-23.592	20.786	-99.113	-95.774	-94.457	-89.058	-69.377	-91.871	-8191	255	
3134.239	1	1	0	0	0.10102	0.19723	0.076494	0.19128	0.066835	0.066812	0.22086	0.17032	0.18872	0.17488	0.1263	0.09644	0.0835	0.1051	0.095339	0.16523	-1.4521	-2.4396	-1.5125	-2.3667	-2.2521	-1.7917	-2.6375	-2.0438	-1.9208	-2.4542	-1.8875	-2.2854	-2.3271	-1.6729	-2.3438	-2.0729	70.184	43.642	140.643	93.184	-5.776	21.007	203.097	208.328	181.859	-94.063	-85.434	161.274	213.981	-104.585	215.492	187.168	0.00092213	0.00093526	0.00037677	751.89	8.2967e-06	7.8155e-06	1072.9	254.92	1.7082e-05	1.1766e-05	424.05	184.6	103.22	53.22	1.3132e-05	84.712	0.0010343	0.001015	0.00028738	795.72	1.1404e-05	1.0944e-05	1081.9	271.65	1.1284e-05	1.112e-05	436.95	182.91	119.85	53.122	1.1674e-05	83.111	74.747	-68.843	-72.591	-103.004	30.169	-2.619	-103.932	-98.103	-33.045	21.494	-99.239	-95.862	-94.095	-89.116	165.424	-92.137	-8191	255	
3134.335	1	1	0	0	0.13423	0.11523	0.4176	0.4816	0.14861	0.067959	0.071369	0.33229	0.063743	0.042402	0.15358	0.17106	0.085726	0.13373	0.27008	0.45487	-1.4896	-2.3104	-1.675	-2.1083	-2.1521	-1.4292	-2.6958	-2.1958	-1.5542	-2.65	-1.9646	-2.3125	-2.5104	-1.8521	-2.4813	-2.3458	-16.168	-7.396	158.401	-115.129	187.080	-105.824	77.556	-40.701	114.727	-58.555	239.141	-47.115	-100.443	7.981	29.516	223.746	0.0015532	0.00058567	0.00029365	751.77	1.2253e-05	1.1207e-05	1066.1	255.68	1.2194e-05	8.6654e-06	423.25	184.77	103.27	52.719	8.2718e-06	84.247	0.0010275	0.0010189	0.00029751	793.62	1.1342e-05	1.1006e-05	1086	270.56	1.1149e-05	1.1128e-05	437.57	182.38	119.99	52.938	1.1969e-05	82.53	48.136	244.231	83.068	-102.940	-39.761	80.925	-103.302	-97.759	-114.365	158.439	-99.439	-95.657	-94.591	-89.129	27.193	-91.987	-8191	255	
3134.431	1	1	0	0	0.11394	0.15559	0.16885	0.33607	0.08289	0.18101	0.098605	0.082118	0.1612	0.06032	0.29701	0.099589	0.072772	0.17766	0.12534	0.31328	-1.3458	-2.4917	-1.7396	-1.9625	-2.2708	-1.6083	-2.2812	-2.2792	-1.5646	-2.5417	-1.9146	-2.1604	-2.4896	-1.8104	-2.35	-2.3167	-79.070	-24.864	-19.886	240.930	197.859	177.847	183.545	58.223	37.186	-0.116	225.326	193.068	47.922	-64.056	-74.272	144.968	0.0011858	0.001526	6.8004e-05	754.84	1.3658e-05	6.4835e-06	1067.6	254.74	9.8418e-06	1.7048e-06	422.24	183.21	103.39	52.708	1.1667e-05	84.313	0.0010201	0.0010411	0.00030402	794.87	1.1327e-05	1.1193e-05	1088.8	270.05	1.1071e-05	1.1488e-05	438.58	181.63	119.34	53.114	1.1952e-05	82.463	92.061	-102.369	-38.151	-103.025	32.890	96.380	-103.379	-98.189	-44.387	37.146	-99.572	-96.056	-93.905	-89.543	-68.214	-92.482	-8191	255	
3134.527	1	1	0	0	0.15338	0.24705	0.18229	0.23468	0.14556	0.18119	0.27735	0.10897	0.10521	0.11794	0.020465	0.078185	0.24722	0.3116	0.13017	0.27444	-1.5208	-2.5917	-1.9458	-1.8708	-2.6646	-1.7083	-2.225	-2.3542	-1.5688	-2.6292	-2.0708	-2.0896	-2.5125	-1.9396	-2.0958	-2.8146	-88.635	205.330	95.560	239.096	145.499	226.563	159.969	114.214	16.884	217.216	-98.205	-108.935	-40.876	-93.203	67.612	141.066	0.00085795	0.00074058	0.00015395	750.43	3.5086e-06	1.2013e-05	1064.6	254.9	6.8984e-06	7.8526e-06	422.1	184.15	102.43	53.29	8.6081e-06	84.783	0.0010156	0.0010645	0.00030238	791.45	1.1272e-05	1.1644e-05	1084.3	269.57	1.1073e-05	1.1813e-05	437.43	181.92	119.24	53.577	1.1538e-05	82.761	62.648	39.923	34.488	-103.244	88.037	180.795	-103.818	-98.353	-26.474	101.025	-99.286	-96.017	-94.439	-89.524	7.174	-92.333	-8191	255	
3134.646	1	1	0	0	0.36662	0.19373	0.16247	0.23504	0.028937	0.25973	0.15741	0.14399	0.16453	0.065869	0.202	0.13303	0.053742	0.19125	0.087302	0.16908	-1.3708	-2.4375	-2.1813	-1.8771	-2.7792	-1.7396	-2.1937	-2.5021	-1.5917	-2.5604	-2.0854	-1.5021	-2.6917	-2.0708	-1.8583	-2.6437	-92.808	-38.005	61.192	238.285	188.133	31.897	225.602	180.305	16.643	109.198	224.257	227.169	206.925	144.565	-91.367	-49.579	0.0014377	0.00063193	0.00030898	754.84	1.1026e-05	6.0506e-06	1064.2	255.48	2.9773e-06	1.1456e-05	423.72	183.13	102.24	52.957	8.3024e-06	84.766	0.0010059	0.0010832	0.00029586	790.69	1.117e-05	1.1852e-05	1081.3	269.21	1.1157e-05	1.1886e-05	435.67	181.13	119.91	53.561	1.1391e-05	82.59	80.614	-1.402	218.527	-103.009	80.447	100.243	-104.161	-98.644	17.612	108.257	-100.085	-96.208	-94.647	-89.687	-66.405	-92.395	-8191	255	
3134.742	1	1	0	0	0.23408	0.1053	0.23392	0.16935	0.23332	0.16463	0.10212	0.15335	0.15936	0.17278	0.44776	0.22675	0.10045	0.10323	0.20954	0.16489	-1.2146	-2.2938	-2.1458	-1.6583	-2.6583	-2.0187	-1.9604	-2.6333	-1.5604	-2.0812	-2.0208	-1.5271	-2.4854	-1.7979	-1.85	-2.6354	-113.789	-60.466	0.008	167.268	163.573	153.214	176.926	220.906	37.454	-14.467	-110.206	237.023	170.647	136.881	-51.080	116.535	0.00087719	0.0013658	0.00033649	755.07	5.8782e-06	3.1095e-06	1065	255.18	6.7283e-06	1.9621e-05	423.29	184.12	102.47	53.309	5.19e-06	84.644	0.0010374	0.0010874	0.00029206	789.45	1.1444e-05	1.1918e-05	1078.9	268.81	1.1489e-05	1.1832e-05	435.04	181.59	121.12	53.627	1.118e-05	82.633	66.235	63.898	-111.722	-103.286	26.202	46.338	-103.771	-98.439	164.734	9.690	-99.934	-96.262	-94.864	-89.793	3.026	-92.579	-8191	255	
3134.839	1	1	0	0	0.15884	0.14375	0.091403	0.15424	0.083555	0.076086	0.23118	0.18153	0.24491	0.046578	0.24052	0.20293	0.31802	0.22043	0.39587	0.41828	-0.9875	-1.9854	-2.2771	-1.5792	-2.3833	-1.9854	-1.8167	-2.6042	-1.5042	-2.1667	-2.5396	-1.7437	-2.6063	-2.2708	-1.6938	-2.4708	223.330	-108.868	134.721	225.702	89.055	198.722	147.180	193.575	230.808	-15.821	159.457	130.127	-104.488	-90.965	129.263	119.427	0.0012234	0.00051301	0.00016649	750.07	2.5906e-06	8.4413e-06	1068.5	255.52	7.3591e-06	9.0884e-06	423.28	185.11	101.83	53.305	1.0067e-05	84.927	0.00107	0.0010788	0.00028812	787.51	1.1857e-05	1.1851e-05	1079.8	268.94	1.1883e-05	1.1733e-05	435.19	182.11	122.51	53.654	1.1203e-05	82.701	68.846	-35.036	155.048	-103.922	102.389	-30.901	-103.773	-98.660	35.560	16.934	-99.591	-96.208	-94.236	-89.887	-17.971	-92.187	-8191	255	
3134.935	1	1	0	0	0.13803	0.22375	0.22334	0.055776	0.22668	0.10562	0.036864	0.078955	0.1649	0.22016	0.17814	0.24003	0.30357	0.24671	0.086239	0.12705	-1.1	-1.8979	-2.3937	-1.3917	-2.3354	-1.8396	-1.4583	-2.7646	-1.6917	-1.8104	-2.5792	-1.6562	-2.0771	-2.175	-1.5479	-2.5479	-101.505	45.881	217.875	132.023	99.175	240.417	-63.826	177.973	18.613	21.425	114.909	-100.501	139.658	-79.537	30.436	-78.666	0.00088922	0.00079416	0.00039361	753.88	6.0831e-06	2.4674e-06	1069.8	255.38	1.4511e-05	4.2902e-06	423.86	184.74	102.28	53.373	3.9598e-06	85.062	0.0010918	0.0010601	0.00028666	793.28	1.199e-05	1.1663e-05	1077.8	269.88	1.2131e-05	1.1483e-05	434.57	183.02	122.36	53.448	1.1007e-05	83.244	58.438	-45.061	-83.542	-103.112	99.384	-25.712	-103.393	-98.146	40.415	92.316	-99.458	-95.838	-94.519	-89.583	-70.159	-92.065	-8191	255	
3135.031	1	1	0	0	0.0076778	0.15054	0.11961	0.22486	0.11463	0.21752	0.10403	0.18644	0.05088	0.16544	0.096912	0.087958	0.25999	0.085149	0.091296	0.03534	-1.4229	-1.9521	-2.5708	-1.6854	-2.4896	-2.3667	-1.6833	-2.5104	-2.0042	-1.9375	-2.7646	-1.7167	-2.3646	-2.3708	-1.7021	-2.8146	-53.753	27.330	42.768	182.654	-72.279	183.889	98.201	183.981	38.486	157.893	4.011	186.788	113.645	56.415	-41.780	117.876	0.0011595	0.00075819	0.00012567	758.04	8.2654e-06	9.4763e-06	1072.3	255.12	8.1187e-06	6.2004e-06	424.84	185.41	104.5	53.344	8.6355e-06	85.266	0.0010932	0.0010367	0.00028448	796.34	1.1964e-05	1.1396e-05	1080.1	270.7	1.1851e-05	1.1251e-05	434.65	183.79	121.93	53.444	1.0898e-05	83.357	50.673	-73.125	82.185	-102.849	-40.977	182.094	-103.622	-98.405	55.550	-18.452	-99.345	-95.848	-94.311	-89.422	32.520	-91.898	-8191	255	
3135.127	1	1	0	0	0.3634	0.24206	0.050448	0.064837	0.24945	0.16906	0.32928	0.46004	0.18056	0.23023	0.12774	0.15466	0.26991	0.11413	0.15726	0.16231	-1.7396	-1.6542	-2.4667	-1.5583	-2.0667	-2.2188	-1.5875	-2.4375	-2.0521	-1.7771	-2.625	-1.95	-2.0479	-2.7333	-1.7062	-2.6083	169.300	-114.100	65.043	48.668	13.569	-99.253	200.561	214.900	189.975	243.122	-16.852	122.300	219.953	139.355	13.267	181.518	0.0011514	0.0012996	0.00035171	749.73	1.939e-05	1.7004e-05	1066.5	256.47	2.1337e-05	1.0065e-05	426.91	186.17	104.17	53.076	9.1442e-06	85.207	0.0010692	0.0010123	0.00028196	794.29	1.1523e-05	1.1227e-05	1078	272.22	1.1686e-05	1.1146e-05	437.23	184.13	121.17	53.319	1.1216e-05	83.285	82.259	-63.233	148.114	-103.019	-18.036	-44.354	-103.437	-98.066	-83.663	29.361	-99.650	-95.952	-93.845	-89.487	176.304	-91.976	-8191	255	
3135.248	1	1	0	0	0.11175	0.23256	0.05781	0.19495	0.086476	0.13037	0.22132	0.11085	0.047477	0.047621	0.10388	0.031301	0.11833	0.20315	0.065018	0.10144	-1.6104	-1.4792	-2.5563	-1.8208	-2.0062	-2.4062	-1.7	-2.3104	-2.2583	-1.6271	-2.5333	-2.0438	-1.7646	-2.5917	-1.7771	-2.4979	61.153	7.866	114.391	211.227	47.668	-115.782	-104.414	196.975	198.789	165.088	-48.915	-43.193	180.805	149.278	137.882	201.887	0.00068224	0.00098151	0.00023672	757.82	1.1397e-05	9.8107e-06	1068.6	254.56	1.0887e-05	6.7232e-07	423.93	185.08	104.54	53.52	9.7351e-06	84.844	0.0010614	0.0010133	0.00028989	801.92	1.1482e-05	1.1305e-05	1081.9	272.1	1.1546e-05	1.1024e-05	437.63	184.21	120.12	53.21	1.1409e-05	83.314	54.738	-50.666	19.024	-103.144	72.696	43.056	-103.573	-97.948	-97.393	124.584	-99.165	-95.729	-94.065	-89.332	236.359	-91.881	-8191	255	
3135.342	1	1	0	0	0.16528	0.22952	0.17067	0.15348	0.22964	0.37687	0.12345	0.38798	0.19494	0.096964	0.24314	0.19755	0.26517	0.28679	0.1727	0.39398	-2.0229	-1.5104	-2.5042	-2.0458	-1.5646	-2.5271	-1.8625	-2.2167	-2.2792	-1.9479	-2.5521	-2.0354	-1.6104	-2.4104	-1.6292	-1.95	199.817	-21.571	-79.330	-47.483	56.944	-90.559	35.141	199.170	130.067	2.690	-110.344	200.328	-67.523	198.395	163.528	210.240	0.0010456	0.00056706	0.00022334	757.14	3.5457e-06	1.1265e-06	1076.6	256.85	1.9743e-05	2.7269e-06	425.01	185.04	102.16	52.919	7.6279e-06	84.661	0.0010367	0.00099554	0.00029368	797.92	1.1267e-05	1.1115e-05	1086	270.95	1.1391e-05	1.0891e-05	438.79	183.2	119.37	53.063	1.1755e-05	82.893	78.655	-45.780	59.401	-103.119	78.430	-41.541	-103.491	-98.296	-44.360	112.050	-99.368	-95.578	-94.067	-89.459	28.196	-91.832	-8191	255	
3135.438	1	1	0	0	0.10026	0.12504	0.10077	0.23443	0.090512	0.16666	0.16684	0.29443	0.19961	0.27873	0.20218	0.1448	0.29899	0.061426	0.20421	0.28818	-1.9729	-1.5042	-2.3625	-2.2125	-1.5396	-2.6708	-2.0958	-2.1167	-2.4333	-1.6417	-2.4729	-2.0604	-1.4854	-2.5417	-1.8417	-1.9312	-19.694	197.912	-56.317	240.114	119.693	137.233	203.150	205.012	217.602	30.476	162.039	48.661	209.604	199.041	81.509	68.534	0.0012434	0.00084538	0.00040808	759.67	6.4937e-06	6.6385e-06	1079.7	255.39	1.052e-05	7.4434e-06	424.8	184.86	104.38	52.651	1.2201e-05	84.283	0.0010329	0.0010087	0.0003012	798.12	1.1067e-05	1.1273e-05	1091.3	270.09	1.129e-05	1.1212e-05	440.27	182.57	119.74	53.094	1.2079e-05	82.317	72.866	154.896	-35.626	-102.724	-2.449	-33.188	-103.618	-97.656	-62.665	-86.107	-99.212	-95.826	-94.013	-89.307	-33.960	-92.160	-8191	255	
3135.534	1	1	0	0	0.055404	0.093944	0.17893	0.19827	0.27392	0.052949	0.3859	0.030896	0.12582	0.19922	0.18087	0.18133	0.020455	0.05743	0.013001	0.44595	-2.1458	-1.5208	-2.0875	-2.0271	-1.675	-2.4938	-1.95	-1.8458	-2.5375	-1.7417	-2.3104	-2.5083	-1.5417	-2.5625	-1.925	-1.9458	151.950	129.198	-27.939	203.604	-20.632	225.083	177.451	243.396	30.541	149.353	230.201	197.595	199.427	90.052	241.708	231.150	0.0011977	0.00092582	0.0001459	757.49	1.6219e-05	4.9699e-06	1073.4	256.36	6.8046e-06	1.2856e-05	426.54	185.95	103.61	52.482	2.1107e-06	84.727	0.0010469	0.0010566	0.00030786	799.11	1.1194e-05	1.1752e-05	1094	269.81	1.135e-05	1.1668e-05	441.15	183.43	120.22	53.226	1.2042e-05	82.327	94.317	126.769	-84.097	-102.995	26.014	-77.101	-103.831	-98.312	-18.853	-77.673	-99.897	-96.100	-94.117	-89.610	89.605	-92.267	-8191	255	
3135.630	1	1	0	0	0.18845	0.2846	0.11719	0.11175	0.019298	0.16501	0.11798	0.43801	0.13604	0.11204	0.19329	0.21912	0.039408	0.10023	0.1904	0.11698	-2.1042	-1.7479	-2.1833	-2.4708	-1.5333	-2.2562	-2.1042	-1.6979	-2.5687	-1.5854	-2.1792	-2.575	-1.625	-2.5729	-1.9125	-1.7292	162.392	-76.947	109.204	151.149	76.711	16.221	2.103	222.096	28.426	-100.357	242.552	240.218	227.379	-115.477	97.314	126.902	0.0014153	0.00093549	0.00021602	766.88	6.7003e-06	7.1618e-07	1083.9	255.93	5.3935e-06	1.1563e-05	425.16	185.4	101.91	52.633	1.3784e-05	84.32	0.0010317	0.0010871	0.00030075	804.52	1.1204e-05	1.2059e-05	1098.8	269.59	1.1445e-05	1.2053e-05	440.09	183.35	120.02	53.285	1.1894e-05	81.963	59.455	215.276	226.813	-103.200	39.788	-106.446	-103.734	-97.938	132.399	80.505	-98.966	-95.603	-93.956	-89.009	28.155	-91.785	-8191	255	
3135.727	1	1	0	0	0.28607	0.1767	0.13006	0.15589	0.27531	0.16412	0.16205	0.17245	0.1887	0.16662	0.20353	0.1656	0.13555	0.28664	0.19336	0.11996	-2.0896	-1.7146	-1.8396	-2.4938	-1.6437	-2.3937	-2.2521	-1.7021	-2.6542	-2.0021	-2.0917	-2.6729	-1.6437	-2.4313	-2.3854	-1.8604	112.570	138.668	119.197	177.760	-24.396	25.518	131.309	-106.553	25.640	195.603	184.552	90.953	17.453	-84.961	138.704	217.021	0.00091273	0.00035182	0.00016598	774.42	1.2748e-05	4.0914e-06	1088.2	258.2	8.5142e-06	7.6921e-06	423.42	184.24	104.11	52.377	1.2869e-05	83.041	0.0010549	0.0011076	0.00029295	811.49	1.1472e-05	1.2253e-05	1102	270.87	1.1749e-05	1.2308e-05	438.63	183.26	121.74	53.159	1.1802e-05	81.276	94.774	-83.014	50.340	-102.679	130.379	-50.627	-102.904	-97.892	218.052	116.740	-99.171	-95.852	-93.632	-88.616	-46.296	-91.605	-8191	255	
3135.823	1	1	0	0	0.13786	0.038406	0.086182	0.14612	0.063716	0.044058	0.17744	0.19184	0.11264	0.024095	0.11153	0.23145	0.11717	0.22582	0.18539	0.30124	-2.2625	-1.8604	-1.8125	-2.5271	-1.6792	-2.4125	-2.5229	-1.6917	-2.4313	-1.9542	-1.8229	-2.5062	-1.5938	-2.2438	-2.2083	-1.7542	140.592	42.851	-19.088	-72.602	172.415	-42.058	125.169	209.130	-30.308	104.168	37.992	96.124	16.680	-85.806	171.782	-101.087	0.0015053	0.00043525	8.5717e-05	780.27	8.5004e-06	8.2063e-06	1087.8	259.52	1.2499e-05	4.7991e-06	424.19	184.67	103.8	51.992	1.1226e-05	83.249	0.0011097	0.0011401	0.00029768	816.71	1.2083e-05	1.2347e-05	1104.8	273.03	1.2381e-05	1.2404e-05	439.27	183.06	123.9	52.867	1.1853e-05	81.464	93.663	-47.196	-8.280	-102.676	37.496	93.487	-103.239	-97.614	227.205	39.106	-98.791	-95.259	-94.038	-88.741	-35.431	-91.522	-8191	255	
3135.919	1	1	0	0	0.11939	0.3946	0.16929	0.37175	0.058295	0.12791	0.092903	0.19369	0.18083	0.050194	0.24119	0.20579	0.12026	0.10464	0.32352	0.22041	-2.1354	-1.9396	-1.6125	-2.6729	-1.8062	-2.1646	-2.6521	-1.6375	-2.4354	-2.2062	-1.7354	-2.6979	-1.9	-2.0854	-2.3563	-1.6063	43.312	73.206	-20.846	-107.702	188.469	-110.157	206.556	37.864	179.933	143.191	168.966	194.929	147.167	-102.989	179.969	107.859	0.0016922	0.0013525	0.00062469	779.49	1.9564e-06	1.0168e-05	1098.8	261.47	7.3845e-06	1.3089e-05	426.79	185.15	104.83	51.817	1.5555e-05	83.049	0.0011365	0.0011188	0.0002942	820.47	1.2471e-05	1.2007e-05	1110.1	274.85	1.2524e-05	1.2215e-05	440.9	183.97	124.96	52.476	1.169e-05	81.634	75.314	35.106	-12.972	-102.770	241.550	45.855	-103.012	-98.177	0.463	-8.246	-99.048	-95.481	-94.290	-88.865	-16.307	-91.578	-8191	255	
3136.040	1	1	0	0	0.20926	0.11373	0.25594	0.19907	0.14419	0.11089	0.3291	0.17661	0.11399	0.19531	0.20546	0.15253	0.074214	0.15678	0.17702	0.35374	-2.0167	-2.3021	-1.5104	-2.5812	-1.8146	-1.8875	-2.6333	-1.725	-2.3354	-2.2104	-1.7104	-2.7938	-1.8646	-1.8062	-2.5958	-1.6938	221.690	225.241	225.511	218.903	-30.128	155.616	-112.411	130.672	-22.575	-36.845	236.084	218.891	201.396	-96.891	83.612	218.048	0.0011926	0.0016363	0.00056002	793.3	4.3911e-06	2.0449e-06	1105.2	261.7	1.1698e-05	2.6748e-06	429.82	187.57	106.13	52.089	1.2597e-05	84.064	0.0011528	0.0011077	0.00029074	831.14	1.2598e-05	1.1785e-05	1117.4	277.02	1.2307e-05	1.1605e-05	441.07	185.55	124.44	52.415	1.1252e-05	82.329	57.679	-33.068	-72.438	-102.716	-40.861	76.591	-102.746	-97.693	-7.898	24.630	-98.465	-95.239	-93.896	-88.614	136.067	-91.596	-8191	255	
3136.111	1	1	0	0	0.07196	0.21357	0.21019	0.13408	0.097094	0.14518	0.34944	0.29628	0.27346	0.07123	0.2985	0.13923	0.051925	0.21537	0.1198	0.054545	-1.7938	-2.2938	-1.6458	-2.5042	-2.1021	-1.85	-2.7167	-1.7854	-2.0917	-2.4292	-1.5375	-2.4167	-2.0438	-1.7583	-2.5854	-1.9688	73.484	147.533	-108.742	211.257	218.963	-64.469	173.453	-96.314	130.910	-9.355	116.881	243.428	58.254	-115.058	54.612	154.338	0.0015291	0.00066157	0.00029084	791.82	3.196e-06	6.5302e-06	1112	263.82	1.0372e-05	5.7267e-06	430.49	186.61	105.63	52.044	8.482e-06	83.707	0.0010895	0.0010564	0.00028126	833.81	1.2047e-05	1.1349e-05	1117.1	278.6	1.1996e-05	1.1526e-05	441.11	185.72	123.88	52.28	1.1477e-05	82.478	91.767	-101.350	-80.457	-102.241	32.432	209.684	-102.944	-97.722	-41.467	-11.938	-98.550	-95.485	-93.927	-89.114	-65.522	-91.509	-8191	255	
3136.207	1	1	0	0	0.043183	0.37042	0.11193	0.19611	0.070781	0.10345	0.11718	0.15567	0.13106	0.12252	0.15522	0.20864	0.19875	0.092906	0.09165	0.30569	-1.725	-2.4792	-1.5021	-2.5604	-2.2979	-1.7104	-2.8104	-1.9354	-1.7375	-2.6146	-1.6771	-2.4062	-2.2479	-1.6875	-2.6	-1.8396	191.088	217.807	-78.502	-25.368	203.922	224.048	214.310	-21.914	205.551	73.557	127.997	-63.437	54.404	240.070	-96.684	177.182	0.0012945	0.00067316	6.6906e-05	790.22	1.0233e-05	6.4877e-06	1108.7	263.92	1.3866e-05	1.5924e-05	431.18	186.6	105.21	51.297	7.0286e-06	83.299	0.0010772	0.0010578	0.00028678	835.72	1.1809e-05	1.1254e-05	1120.5	279.02	1.1726e-05	1.1458e-05	443.27	186.15	123.03	51.798	1.1786e-05	82.26	86.000	-65.643	230.262	-102.447	31.329	5.950	-103.162	-98.017	-54.354	4.825	-98.642	-95.117	-93.271	-88.643	97.689	-91.681	-8191	255	
3136.328	1	1	0	0	0.23601	0.27536	0.34871	0.11687	0.16819	0.076281	0.18847	0.22099	0.34079	0.21459	0.28145	0.26616	0.13196	0.18	0.18756	0.083993	-1.5667	-2.5458	-1.525	-2.3417	-2.3396	-1.7667	-2.8896	-2.1958	-1.9625	-2.5729	-1.8687	-2.4104	-2.5	-1.5604	-2.6354	-2.1958	98.174	-40.662	111.030	-64.508	91.042	203.055	231.629	159.058	232.765	58.371	108.436	220.658	91.507	37.753	218.902	5.858	0.001196	0.0010974	0.00018848	790.61	1.1757e-05	4.32e-06	1109.6	262.28	2.093e-05	1.8829e-06	429.14	186.56	104.44	51.719	3.7218e-06	83.517	0.0010731	0.0010521	0.00030064	838.85	1.1837e-05	1.123e-05	1124.4	277.93	1.1568e-05	1.1333e-05	444.7	185.1	121.33	51.817	1.1956e-05	81.921	101.156	-78.853	-44.084	-102.368	25.378	7.674	-103.058	-97.628	-8.621	1.176	-99.483	-95.490	-94.824	-89.071	111.591	-92.256	-8191	255	
3136.422	1	1	0	0	0.25476	0.16118	0.067861	0.16876	0.14382	0.23344	0.50969	0.061118	0.16448	0.1001	0.077771	0.18542	0.10161	0.082411	0.14873	0.2823	-1.2062	-2.3396	-1.7333	-2.0896	-2.2479	-1.5625	-2.6125	-2.1167	-1.7062	-2.5187	-1.8354	-2.2	-2.575	-1.5938	-2.4104	-2.3312	-1.548	-62.714	107.507	-86.227	164.460	198.107	202.184	-66.721	-78.407	3.260	147.925	-58.032	-113.456	134.542	98.341	157.179	0.0011615	0.00048551	0.00011476	787.43	4.8163e-06	4.7953e-06	1107.1	261.36	1.0783e-05	3.1349e-06	431.45	186.27	104.1	51.85	7.6443e-06	83.791	0.0010277	0.0010212	0.00029909	827.81	1.134e-05	1.1037e-05	1121.3	275.08	1.1048e-05	1.1171e-05	444.37	183.88	120.24	51.991	1.1831e-05	81.867	85.630	73.118	171.229	-102.880	43.204	153.470	-103.426	-98.223	-61.321	-15.933	-99.224	-95.457	-94.058	-89.115	-64.036	-92.237	-8191	255	
3136.520	1	1	0	0	0.20031	0.15764	0.080587	0.13079	0.20407	0.13898	0.44817	0.1005	0.046101	0.29156	0.24118	0.070371	0.21173	0.14146	0.14003	0.26198	-1.2792	-2.4104	-1.825	-1.9937	-2.6771	-1.6771	-2.4167	-2.4479	-1.6437	-2.6188	-2.2313	-2.0042	-2.7521	-1.7167	-2.2208	-2.4083	193.149	120.441	82.463	-99.118	180.794	120.801	187.474	173.168	137.317	243.419	146.564	-100.271	1.130	172.202	100.421	164.109	0.0014242	0.00070649	0.0003706	788.11	5.3874e-06	4.0275e-06	1099.6	261.84	2.1903e-05	1.854e-05	430.94	186.99	104.49	52.623	6.5665e-06	84.253	0.00099444	0.0010295	0.00029936	818.88	1.0987e-05	1.1081e-05	1116.9	273.64	1.0742e-05	1.1308e-05	443.99	183.78	119.61	52.803	1.1469e-05	82.129	85.208	65.717	41.007	-102.373	-39.620	-78.559	-103.499	-98.035	-76.902	-3.592	-99.072	-95.720	-93.804	-89.198	-62.839	-91.745	-8191	255	
3136.639	1	1	0	0	0.13142	0.11867	0.20629	0.30748	0.20794	0.2223	0.15865	0.07649	0.28047	0.18084	0.11348	0.0953	0.24153	0.086836	0.18462	0.17089	-1.1833	-2.4521	-1.9167	-2.1063	-2.5	-1.6104	-2.1229	-2.3229	-1.5146	-2.6208	-2.0333	-1.8521	-2.5896	-1.6063	-1.9417	-2.5104	-24.055	217.870	134.018	68.378	69.740	-73.625	-52.566	-50.220	-57.076	226.731	210.704	217.814	-89.265	-39.274	78.215	172.423	0.0013631	0.0012052	0.00020419	780.15	1.1198e-05	3.9913e-06	1102	258.82	1.5622e-05	1.0817e-05	435.34	187.11	103.75	52.793	6.2576e-06	84.772	0.00096133	0.0010343	0.00029018	809.89	1.0735e-05	1.1197e-05	1107.1	271.61	1.0611e-05	1.1377e-05	443.36	183.19	118.73	52.955	1.1074e-05	81.966	81.769	85.829	-3.640	-102.765	62.620	133.026	-103.319	-98.037	-59.034	237.489	-99.377	-95.508	-94.383	-89.126	-32.416	-91.914	-8191	255	
3136.711	1	1	0	0	0.41023	0.033089	0.19482	0.1245	0.12873	0.17617	0.27583	0.20929	0.096839	0.056252	0.18764	0.16352	0.35719	0.12009	0.083344	0.1136	-1.0562	-2.2542	-2.1979	-1.8375	-2.4938	-1.7667	-2.1562	-2.4771	-1.4521	-2.5292	-2.4125	-1.6896	-2.5667	-1.7958	-2.1729	-2.6729	211.923	81.010	188.442	174.512	38.748	210.152	218.276	166.257	58.329	-114.368	233.459	192.795	-17.334	3.190	93.958	233.329	0.0013236	0.00082962	0.00030298	776.85	8.8913e-06	1.2739e-05	1097.8	260.19	9.9205e-06	1.3914e-05	429.55	186.57	103.63	52.455	5.1585e-06	84.098	0.00096655	0.0010385	0.00028114	804.15	1.0798e-05	1.1351e-05	1100.6	270.06	1.0689e-05	1.1337e-05	438.53	182.5	119.11	52.812	1.0784e-05	81.586	93.474	69.359	12.524	-102.568	-54.093	-31.678	-103.174	-98.239	66.682	171.017	-99.151	-95.661	-93.965	-89.071	-43.769	-91.684	-8191	255	
3136.807	1	1	0	0	0.2062	0.3105	0.21753	0.27298	0.27969	0.17148	0.14497	0.28645	0.069857	0.068747	0.032018	0.18718	0.058782	0.23501	0.15773	0.13575	-1.1771	-2.2708	-2.35	-1.6104	-2.5625	-1.8604	-1.9104	-2.55	-1.5875	-2.2792	-2.3583	-1.9229	-2.6396	-2.1562	-1.8188	-2.7104	176.692	187.044	238.927	207.574	225.141	-12.079	195.439	98.554	236.647	55.067	46.226	172.332	29.620	-24.817	115.936	181.488	0.0014693	0.0010739	0.00020886	776.02	4.967e-07	1.6139e-06	1096.6	260.17	8.0266e-06	1.1242e-05	428.53	185.51	103.25	52.058	9.6163e-06	83.673	0.00098941	0.0010425	0.00027844	803	1.1092e-05	1.1465e-05	1101.1	269.98	1.108e-05	1.1386e-05	437.83	182.09	120.81	52.629	1.089e-05	81.43	82.201	-70.653	-42.989	-102.888	117.657	-13.922	-103.517	-98.327	162.337	-16.692	-99.329	-95.836	-94.986	-89.346	62.290	-92.080	-8191	255	
#DATA ENDS
