BOXY.EXE: ISS Imagent and Oximeter Data Acquisition Program Version 0.80
Ascii Record File

#ACQ INFORMATION
2  Detector Channels 
16  External MUX Channels 
1  Auxiliary Channels 
5000  Waveform (CCF) Frequency (Hz)
1  Waveforms Skipped 
30  Waveforms Averaged 
1  Cycles Averaged 
16  Acquisitions per Waveform 
10.0806  Updata Rate (Hz) 

#FILE INFORMATION
TRUE -- External MUX Channel results are PARSED.
FALSE -- AC DC and Phase are NOT grouped.
TRUE -- Companion Program Settings File CREATED.
FALSE -- AC data not excluded
FALSE -- DC data not excluded
FALSE -- Phase data not excluded
FALSE -- Auxillary Chn. data not excluded
Tab delimiters

#CALIBRATION STATE
TRUE -- Waveform Calibration Values APPLIED.


#AUX CALIBRATION VALUES
Val Type	aux-1	

Term	1.0000e+00	
Factor	0.0000e+00	


#WF CALIBRATION VALUES
A = Detector Channel
Val Type	A-AC1	A-AC2	A-AC3	A-AC4	A-AC5	A-AC6	A-AC7	A-AC8	A-AC9	A-AC10	A-AC11	A-AC12	A-AC13	A-AC14	A-AC15	A-AC16	A-DC1	A-DC2	A-DC3	A-DC4	A-DC5	A-DC6	A-DC7	A-DC8	A-DC9	A-DC10	A-DC11	A-DC12	A-DC13	A-DC14	A-DC15	A-DC16	A-Ph1	A-Ph2	A-Ph3	A-Ph4	A-Ph5	A-Ph6	A-Ph7	A-Ph8	A-Ph9	A-Ph10	A-Ph11	A-Ph12	A-Ph13	A-Ph14	A-Ph15	A-Ph16	

Term	0.00000e+00	0.00000e+00	0.00000e+00	0.00000e+00	0.00000e+00	0.00000e+00	0.00000e+00	0.00000e+00	0.00000e+00	0.00000e+00	0.00000e+00	0.00000e+00	0.00000e+00	0.00000e+00	0.00000e+00	0.00000e+00	0.00000e+00	0.00000e+00	0.00000e+00	0.00000e+00	0.00000e+00	0.00000e+00	0.00000e+00	0.00000e+00	0.00000e+00	0.00000e+00	0.00000e+00	0.00000e+00	0.00000e+00	0.00000e+00	0.00000e+00	0.00000e+00	0.00000e+00	0.00000e+00	0.00000e+00	0.00000e+00	0.00000e+00	0.00000e+00	0.00000e+00	0.00000e+00	0.00000e+00	0.00000e+00	0.00000e+00	0.00000e+00	0.00000e+00	0.00000e+00	0.00000e+00	0.00000e+00	
Factor	1.00000e+00	1.00000e+00	1.00000e+00	1.00000e+00	1.00000e+00	1.00000e+00	1.00000e+00	1.00000e+00	1.00000e+00	1.00000e+00	1.00000e+00	1.00000e+00	1.00000e+00	1.00000e+00	1.00000e+00	1.00000e+00	1.00000e+00	1.00000e+00	1.00000e+00	1.00000e+00	1.00000e+00	1.00000e+00	1.00000e+00	1.00000e+00	1.00000e+00	1.00000e+00	1.00000e+00	1.00000e+00	1.00000e+00	1.00000e+00	1.00000e+00	1.00000e+00	X	X	X	X	X	X	X	X	X	X	X	X	X	X	X	X	

B = Detector Channel
Val Type	B-AC1	B-AC2	B-AC3	B-AC4	B-AC5	B-AC6	B-AC7	B-AC8	B-AC9	B-AC10	B-AC11	B-AC12	B-AC13	B-AC14	B-AC15	B-AC16	B-DC1	B-DC2	B-DC3	B-DC4	B-DC5	B-DC6	B-DC7	B-DC8	B-DC9	B-DC10	B-DC11	B-DC12	B-DC13	B-DC14	B-DC15	B-DC16	B-Ph1	B-Ph2	B-Ph3	B-Ph4	B-Ph5	B-Ph6	B-Ph7	B-Ph8	B-Ph9	B-Ph10	B-Ph11	B-Ph12	B-Ph13	B-Ph14	B-Ph15	B-Ph16	

Term	0.00000e+00	0.00000e+00	0.00000e+00	0.00000e+00	0.00000e+00	0.00000e+00	0.00000e+00	0.00000e+00	0.00000e+00	0.00000e+00	0.00000e+00	0.00000e+00	0.00000e+00	0.00000e+00	0.00000e+00	0.00000e+00	0.00000e+00	0.00000e+00	0.00000e+00	0.00000e+00	0.00000e+00	0.00000e+00	0.00000e+00	0.00000e+00	0.00000e+00	0.00000e+00	0.00000e+00	0.00000e+00	0.00000e+00	0.00000e+00	0.00000e+00	0.00000e+00	-2.55034e+02	-1.42192e+02	-1.58171e+02	-1.83275e+02	-9.83914e+01	-9.52191e+01	-1.58166e+02	-1.62015e+02	-1.11076e+02	-8.25393e+01	-1.72759e+02	-1.71492e+02	-1.85060e+02	-1.78311e+02	-8.15946e+01	-1.51161e+02	
Factor	6.84074e-05	1.16036e-04	3.77825e-05	1.75057e-01	1.19124e-06	1.02847e-06	2.01126e-01	6.52604e-02	1.39494e-06	1.20521e-06	1.15205e-01	3.44855e-02	6.48392e-02	1.06986e-02	1.09788e-06	1.56755e-02	7.61801e-07	7.68646e-07	2.13154e-07	8.53154e-02	8.43469e-09	8.40861e-09	9.13502e-02	3.13959e-02	8.44513e-09	8.40387e-09	5.21703e-02	1.57552e-02	2.79534e-02	5.07005e-03	8.41014e-09	7.10043e-03	X	X	X	X	X	X	X	X	X	X	X	X	X	X	X	X	



#DISTANCE SETTINGS
A = Detector Channel
A-1	A-2	A-3	A-4	A-5	A-6	A-7	A-8	A-9	A-10	A-11	A-12	A-13	A-14	A-15	A-16	

2.5000e+00	3.0000e+00	2.5000e+00	3.0000e+00	2.0000e+00	3.0000e+00	1.5000e+00	3.0000e+00	3.0000e+00	3.0000e+00	3.0000e+00	3.0000e+00	3.0000e+00	3.0000e+00	1.5000e+00	3.0000e+00	

B = Detector Channel
B-1	B-2	B-3	B-4	B-5	B-6	B-7	B-8	B-9	B-10	B-11	B-12	B-13	B-14	B-15	B-16	

1.0000e+01	1.0000e+01	1.0000e+01	1.4400e+00	1.0000e+01	1.0000e+01	1.5100e+00	1.9400e+00	1.0000e+01	1.0000e+01	1.9900e+00	2.4900e+00	2.4100e+00	2.9000e+00	1.0000e+01	2.9800e+00	




#DATA BEGINS
time	group	step	mark	flag	A-AC1	A-AC2	A-AC3	A-AC4	A-AC5	A-AC6	A-AC7	A-AC8	A-AC9	A-AC10	A-AC11	A-AC12	A-AC13	A-AC14	A-AC15	A-AC16	A-DC1	A-DC2	A-DC3	A-DC4	A-DC5	A-DC6	A-DC7	A-DC8	A-DC9	A-DC10	A-DC11	A-DC12	A-DC13	A-DC14	A-DC15	A-DC16	A-Ph1	A-Ph2	A-Ph3	A-Ph4	A-Ph5	A-Ph6	A-Ph7	A-Ph8	A-Ph9	A-Ph10	A-Ph11	A-Ph12	A-Ph13	A-Ph14	A-Ph15	A-Ph16	B-AC1	B-AC2	B-AC3	B-AC4	B-AC5	B-AC6	B-AC7	B-AC8	B-AC9	B-AC10	B-AC11	B-AC12	B-AC13	B-AC14	B-AC15	B-AC16	B-DC1	B-DC2	B-DC3	B-DC4	B-DC5	B-DC6	B-DC7	B-DC8	B-DC9	B-DC10	B-DC11	B-DC12	B-DC13	B-DC14	B-DC15	B-DC16	B-Ph1	B-Ph2	B-Ph3	B-Ph4	B-Ph5	B-Ph6	B-Ph7	B-Ph8	B-Ph9	B-Ph10	B-Ph11	B-Ph12	B-Ph13	B-Ph14	B-Ph15	B-Ph16	aux-1	digaux	

3110.638	1	1	0	512	0.13789	0.15881	0.051259	0.22154	0.21259	0.25282	0.38611	0.16415	0.045502	0.23874	0.20709	0.13947	0.38665	0.09732	0.2043	0.29059	-2.0167	-1.5146	-2.2917	-2.2375	-1.7521	-2.7938	-1.8563	-2.1521	-2.2771	-1.4562	-2.4062	-2.2812	-1.7188	-2.7354	-1.9	-1.9458	87.431	-68.823	128.054	184.097	109.517	59.856	242.306	69.091	63.832	-24.863	181.559	134.177	210.061	176.196	20.562	-90.138	0.0020128	0.0003558	0.00024396	816.57	1.4889e-05	2.8615e-06	1095.4	281.18	1.1577e-05	1.3281e-05	452.29	195.06	111.74	58.183	3.0034e-06	93.221	0.00096885	0.00094613	0.00028102	842.63	1.0349e-05	1.0403e-05	1101.3	288.51	1.0393e-05	1.0332e-05	458.36	189.56	122.96	57.089	1.0839e-05	89.108	73.357	39.180	107.746	-102.612	-54.159	-55.962	-102.723	-97.299	-103.449	242.023	-98.456	-95.205	-93.652	-88.516	51.023	-91.130	-8191	255	
3110.710	1	1	0	0	0.23572	0.27628	0.15181	0.27086	0.1212	0.19028	0.20461	0.15257	0.20917	0.18701	0.13989	0.3326	0.15652	0.28356	0.20975	0.19641	-2.0417	-1.6313	-2.4208	-2.3042	-1.5646	-2.6292	-1.8854	-1.9688	-2.4479	-1.6562	-2.2708	-2.4125	-1.8208	-2.5646	-1.9375	-1.6042	10.504	238.428	104.945	138.438	-89.963	-55.555	169.838	-105.161	2.261	-28.037	130.063	40.093	186.671	120.590	210.524	162.272	0.0011645	0.00050364	0.0001571	814.09	4.3676e-06	4.9358e-06	1094	280.54	9.2357e-06	7.3137e-06	455.68	195.11	111.64	58.078	6.8778e-06	93.105	0.00093318	0.00094939	0.00027295	838.13	1.0007e-05	1.0522e-05	1099.3	287.18	1.009e-05	1.0497e-05	458.23	189.36	122.46	57.192	1.0655e-05	88.959	74.890	113.694	-25.083	-102.247	-43.150	96.600	-102.956	-97.518	31.417	-0.729	-98.116	-95.105	-93.341	-88.724	-99.568	-91.476	-8191	255	
3110.806	1	1	0	0	0.046028	0.17473	0.2301	0.12922	0.051047	0.057337	0.19631	0.20545	0.092678	0.13408	0.30093	0.11051	0.082049	0.29338	0.11406	0.16492	-2.2188	-1.6104	-2.25	-2.3083	-1.4792	-2.4208	-2.0458	-1.8479	-2.5875	-1.775	-2.025	-2.4979	-1.6562	-2.5771	-2.0125	-1.8312	-70.603	45.274	207.233	171.645	175.437	-9.715	198.312	230.970	72.233	88.172	131.477	243.793	86.632	232.269	2.158	218.497	0.0012807	0.00097832	0.00042617	815.55	7.7247e-06	6.0063e-06	1094	280.15	7.8827e-06	3.8219e-06	453.94	196.11	111.47	57.985	5.2349e-06	92.882	0.00092836	0.0009729	0.00027003	838.47	9.9191e-06	1.0632e-05	1097.2	286.63	1.0195e-05	1.075e-05	456.07	188.9	122.81	57.301	1.0598e-05	88.705	70.129	149.163	-78.228	-102.290	80.358	233.985	-102.814	-96.958	-112.668	25.339	-98.131	-95.222	-93.052	-88.125	233.309	-91.345	-8191	255	
3110.927	1	1	0	0	0.059591	0.16711	0.28631	0.158	0.25681	0.091134	0.45045	0.16995	0.14836	0.1426	0.19239	0.12451	0.18981	0.11908	0.14607	0.11007	-2.1729	-1.6458	-1.9417	-2.6208	-1.8229	-2.4958	-2.2604	-1.6812	-2.6437	-1.9271	-1.8958	-2.475	-1.5833	-1.9729	-2.0687	-1.4667	120.537	-18.148	211.431	115.471	139.445	139.132	219.944	229.201	141.738	187.109	-99.637	242.113	112.895	41.269	164.766	-16.032	0.0011845	0.00024947	0.00037916	814.88	5.5292e-06	4.0613e-06	1104.9	284.15	1.4966e-05	1.324e-05	458.18	194.66	112.11	57.997	4.2563e-06	93.176	0.00094926	0.0010005	0.00026524	838.46	1.0314e-05	1.0909e-05	1101.4	288.79	1.0566e-05	1.0991e-05	457.61	189.5	124.98	57.254	1.056e-05	88.747	49.522	137.215	25.249	-102.038	62.527	-48.437	-102.968	-97.579	53.359	-52.409	-98.583	-95.456	-93.646	-88.771	226.959	-91.254	-8191	255	
3111.023	1	1	0	0	0.26824	0.22771	0.16937	0.07311	0.20299	0.14675	0.14083	0.34342	0.069521	0.21119	0.22867	0.36986	0.072205	0.13335	0.20218	0.1196	-2.025	-1.6187	-1.7854	-2.5938	-1.4208	-2.1333	-2.4062	-1.6042	-2.4458	-1.7104	-1.9292	-2.5917	-1.7625	-2.2875	-2.4833	-1.9042	2.133	81.420	-33.305	8.384	114.001	215.892	219.452	122.609	3.122	222.287	192.275	195.629	168.517	32.907	228.507	158.697	0.00073777	0.00096781	0.00012376	826.94	7.9953e-06	7.3275e-06	1110.4	284.1	4.418e-06	6.8817e-06	461.96	197.15	112.6	57.825	5.8271e-06	92.901	0.00097794	0.0009976	0.00026289	845.46	1.0704e-05	1.0893e-05	1105.5	291.15	1.0847e-05	1.0837e-05	460.53	190.67	126.19	57.213	1.0491e-05	88.866	66.061	-56.992	-75.321	-102.550	89.680	51.861	-102.836	-97.675	-87.488	9.426	-98.785	-95.623	-93.899	-88.918	-46.383	-91.460	-8191	255	
3111.119	1	1	0	0	0.24534	0.23547	0.31144	0.27904	0.15514	0.19579	0.33629	0.1974	0.26254	0.17517	0.15157	0.20923	0.36159	0.23313	0.14181	0.16161	-2.1979	-2.0583	-2.0208	-2.6833	-1.9292	-2.225	-2.5583	-1.5458	-2.2938	-2.4229	-1.7104	-2.5438	-1.8792	-2.1	-2.5312	-1.6417	11.804	50.319	-75.508	225.115	66.585	-42.597	135.117	228.708	-94.068	223.614	-52.638	219.113	-43.602	-100.209	72.456	159.206	0.0013605	0.0005632	0.00041847	825.56	6.2221e-06	6.1439e-06	1117.8	286.42	6.0878e-06	1.0682e-05	462.7	197.19	112.99	57.913	8.1741e-06	93.674	0.0010111	0.00098407	0.00026161	847.77	1.1046e-05	1.0659e-05	1108.4	292.86	1.1067e-05	1.0658e-05	461.6	191.66	127.36	57.165	1.0373e-05	89.067	76.078	-57.534	206.223	-102.617	-76.948	76.600	-102.941	-97.680	97.579	43.919	-98.599	-95.337	-94.260	-88.472	77.210	-91.285	-8191	255	
3111.240	1	1	0	0	0.20944	0.15015	0.28836	0.12708	0.14164	0.12197	0.23111	0.35872	0.22415	0.17324	0.27368	0.13255	0.21138	0.15933	0.15849	0.19317	-1.9021	-2.1229	-1.4688	-2.3688	-1.7521	-1.7729	-2.4729	-1.7437	-2.0229	-2.125	-1.7062	-2.5979	-2.1937	-1.9104	-2.65	-1.6583	126.053	224.056	163.727	-13.702	148.288	66.952	166.285	169.568	-50.353	-18.009	156.991	136.398	148.174	230.438	203.886	-112.549	0.0013392	0.0007278	0.00029894	836.84	6.7667e-06	8.1957e-06	1118.3	289.18	1.2276e-05	1.5094e-05	462.1	197.34	114.65	57.811	1.5005e-05	92.353	0.0010254	0.00097554	0.00026078	860.18	1.1188e-05	1.0646e-05	1113.7	296.59	1.1258e-05	1.0732e-05	463.05	193.13	128.92	57.006	1.0502e-05	89.034	50.594	-16.869	-56.445	-102.281	41.861	72.600	-102.596	-97.381	-83.886	91.647	-99.268	-95.584	-94.063	-88.837	-3.252	-91.600	-8191	255	
3111.311	1	1	0	0	0.31127	0.18707	0.27055	0.14083	0.30185	0.17604	0.0505	0.33099	0.096752	0.13267	0.31905	0.26761	0.17357	0.22866	0.31392	0.14903	-1.6437	-2.4854	-1.7125	-2.6396	-2.0771	-1.5542	-2.5771	-1.6604	-2.0104	-2.5938	-1.7854	-2.5	-2.125	-1.7875	-2.4958	-1.7042	2.971	-45.805	158.333	195.575	88.091	200.231	-77.508	175.470	223.185	8.416	151.522	202.259	237.434	164.963	-94.575	193.420	0.0013003	0.0012167	0.00010657	840.73	2.7561e-06	1.6672e-05	1128.7	291.66	8.1667e-06	5.1608e-06	467.33	199.36	115.88	57.817	8.7799e-06	92.835	0.0010177	0.00098016	0.00026186	868.65	1.1119e-05	1.0519e-05	1122.8	300.41	1.0996e-05	1.0616e-05	465.87	194.8	128.09	56.91	1.0509e-05	89.586	93.010	-54.108	66.171	-101.907	189.324	-35.970	-103.134	-97.823	-76.093	12.883	-98.584	-95.310	-93.848	-89.082	79.505	-91.954	-8191	255	
3111.408	1	1	0	0	0.23301	0.24369	0.068652	0.16481	0.073304	0.22828	0.10554	0.13092	0.12583	0.20468	0.30823	0.30733	0.371	0.14247	0.23496	0.39734	-1.6812	-2.4854	-1.8083	-2.7042	-2.2292	-1.6646	-2.7354	-1.8792	-1.8792	-2.5938	-1.6479	-2.4146	-2.2979	-1.8188	-2.5875	-1.9375	206.763	187.012	59.653	26.717	152.447	107.740	92.093	158.432	39.536	216.697	113.111	-106.400	181.589	240.744	28.435	190.103	0.0012859	0.00066072	0.00026883	843.32	7.1555e-06	4.8689e-06	1129.1	292.99	5.4322e-06	6.7919e-06	469.18	200.94	113.88	58.056	1.4244e-06	93.63	0.00099412	0.00096577	0.00026796	876.2	1.0925e-05	1.0433e-05	1127.9	301.66	1.0766e-05	1.0418e-05	468.42	195.87	127.52	56.974	1.0784e-05	89.89	66.104	-67.769	65.434	-102.368	-97.892	-37.130	-102.891	-97.093	22.900	-37.543	-98.655	-94.970	-92.926	-88.343	129.860	-91.449	-8191	255	
3111.504	1	1	0	0	0.1867	0.089919	0.35908	0.16367	0.18829	0.12772	0.31485	0.12244	0.19991	0.037009	0.19447	0.096125	0.071506	0.3792	0.1092	0.21349	-1.4146	-2.6271	-1.7104	-2.3396	-2.2771	-1.75	-2.6042	-1.9917	-1.8312	-2.7	-1.7917	-2.4604	-2.3104	-1.8563	-2.5021	-2.2687	-39.014	152.729	158.381	208.164	-85.854	190.414	153.826	200.480	200.866	188.918	148.667	-81.576	-53.439	208.199	-27.405	99.505	0.0015738	0.0012208	0.0003313	856.23	1.0717e-05	9.2398e-06	1138	293.81	1.27e-05	2.5037e-06	468.5	201.45	116.35	58.394	7.4184e-06	93.285	0.00097394	0.0009574	0.00027556	878.72	1.0688e-05	1.0273e-05	1135.9	302.55	1.0585e-05	1.0323e-05	472.1	195.94	127.98	57.054	1.1076e-05	89.757	83.296	36.689	2.331	-102.257	-25.750	1.177	-103.358	-97.768	-4.058	145.672	-98.738	-95.280	-94.121	-88.836	215.104	-92.055	-8191	255	
3111.623	1	1	0	0	0.057342	0.20664	0.0772	0.045314	0.18407	0.17233	0.44101	0.068365	0.065455	0.17571	0.27323	0.32599	0.079002	0.078734	0.098198	0.061125	-1.3563	-2.5396	-1.7167	-2.2062	-2.6625	-1.6417	-2.4333	-1.9708	-1.4354	-2.4542	-1.9021	-2.1854	-2.5771	-1.675	-2.3146	-2.2667	-99.020	14.247	-3.728	223.037	21.896	223.764	168.486	175.791	148.639	171.301	-105.811	218.242	106.672	237.986	44.555	90.768	0.0011151	0.00092798	0.00030389	855.9	8.7804e-07	5.5283e-06	1135.3	296.56	1.661e-05	6.0483e-06	472.78	202.34	117.39	58.555	8.4575e-06	93.335	0.00096298	0.00095644	0.00028098	877.63	1.0645e-05	1.0367e-05	1137.3	302.91	1.0416e-05	1.0504e-05	477.02	196.38	128.36	57.468	1.1325e-05	89.687	93.663	214.657	175.325	-102.314	-38.801	56.314	-103.340	-98.205	-45.044	-31.846	-99.433	-95.503	-93.597	-89.322	40.984	-92.121	-8191	255	
3111.719	1	1	0	0	0.11221	0.14494	0.16538	0.21382	0.10837	0.13788	0.25544	0.18634	0.047261	0.15412	0.26876	0.1671	0.065584	0.12207	0.13662	0.16703	-1.1375	-2.3	-1.6729	-1.9917	-2.6562	-1.7104	-2.3583	-2.325	-1.2646	-2.3896	-1.8958	-1.875	-2.45	-1.8271	-2.1813	-2.5854	-58.085	211.074	164.441	157.966	119.491	-34.609	-108.319	-31.213	-74.761	170.330	184.590	-105.801	-78.920	-80.466	82.191	172.133	0.0014145	0.00081474	0.00014121	860.35	9.3647e-06	7.5369e-06	1141.4	296.99	3.0257e-06	9.7079e-06	472.35	203.94	117.78	58.479	1.0032e-05	93.707	0.00095796	0.0009856	0.00028827	879.2	1.0577e-05	1.072e-05	1145.1	304.82	1.0302e-05	1.0878e-05	477.63	196.85	129.13	57.784	1.1262e-05	89.922	92.492	-28.403	-115.321	-102.677	18.265	111.988	-102.897	-98.266	140.052	193.120	-98.832	-95.600	-94.231	-89.240	17.197	-92.081	-8191	255	
3111.813	1	1	0	0	0.14457	0.30636	0.13756	0.20117	0.030671	0.22268	0.13935	0.15827	0.16413	0.049683	0.26622	0.093973	0.11761	0.27403	0.10559	0.19594	-1.35	-2.5687	-1.95	-1.7458	-2.3896	-1.5542	-2.2583	-2.6021	-1.7208	-2.3917	-2.3042	-2.0167	-2.575	-1.8188	-2.1792	-2.6146	232.444	19.798	39.695	-58.246	209.958	-22.382	220.115	191.795	62.104	130.832	182.877	-69.170	-3.809	241.845	-17.564	214.950	0.0010009	0.00021177	0.00024379	870.61	1.735e-05	3.8938e-06	1142.3	300.01	6.3546e-06	8.8063e-06	475.37	203.03	118.96	58.531	1.2072e-05	93.589	0.00095447	0.0010214	0.00028708	889.54	1.0601e-05	1.1215e-05	1150.1	306.03	1.0506e-05	1.1352e-05	478.61	197.27	130.02	58.107	1.1102e-05	89.725	75.543	235.458	111.209	-102.505	37.844	54.282	-103.066	-98.153	93.366	63.522	-99.037	-95.782	-93.729	-89.080	-16.015	-91.879	-8191	255	
3111.911	1	1	0	0	0.18152	0.12221	0.10777	0.17526	0.28144	0.1171	0.23187	0.088825	0.18658	0.10693	0.11007	0.35341	0.062949	0.35876	0.13224	0.24895	-1.3396	-2.375	-1.9667	-1.5875	-2.3583	-1.7729	-1.9167	-2.5812	-1.6625	-2.3708	-2.3229	-1.8312	-2.6417	-1.7417	-1.8312	-2.675	143.472	31.290	56.857	239.705	49.130	-107.345	174.486	146.740	-99.102	-71.348	1.566	-92.910	179.210	139.947	-24.670	109.488	0.0015177	0.00041455	0.00019611	872.89	1.5954e-05	5.5378e-06	1152.7	300.86	8.9834e-06	1.1758e-05	476.05	204.61	117.98	58.238	5.7612e-06	92.985	0.00096946	0.0010481	0.00028139	891.31	1.0802e-05	1.146e-05	1151.2	306.55	1.0765e-05	1.1507e-05	477.56	197.45	131.35	58.09	1.0881e-05	89.531	45.371	2.312	130.779	-102.447	234.361	222.931	-102.752	-97.323	-91.107	57.271	-99.035	-95.745	-94.126	-89.167	-59.431	-91.945	-8191	255	
3112.005	1	1	0	0	0.12065	0.10411	0.12902	0.22692	0.23883	0.14923	0.47868	0.26737	0.19156	0.053042	0.06696	0.16013	0.15502	0.36277	0.16281	0.18195	-1.2188	-2.2854	-2.4604	-1.7812	-2.6396	-1.8375	-2.0604	-2.5875	-1.625	-2.2938	-2.6437	-1.6771	-2.4833	-2.0917	-1.7917	-2.7917	207.930	-103.717	111.549	-74.044	-106.486	-15.626	-115.633	239.290	-1.852	159.408	118.654	158.592	-71.968	157.921	-113.833	210.458	0.0018175	0.00096321	0.00051974	872.67	6.3425e-06	3.6067e-06	1145.7	300.2	7.6932e-06	1.5255e-05	474.44	203.14	118.2	58.564	1.0324e-05	93.232	0.0009921	0.0010428	0.00027633	889.59	1.1039e-05	1.1361e-05	1146.3	305.98	1.112e-05	1.1287e-05	477.19	196.69	132.07	57.928	1.0817e-05	89.343	73.806	-53.028	-95.304	-102.511	106.565	10.067	-103.404	-98.155	2.132	49.496	-98.640	-95.532	-94.020	-89.303	2.173	-92.003	-8191	255	
3112.102	1	1	0	0	0.055216	0.070153	0.085863	0.30911	0.14395	0.20867	0.29165	0.24738	0.13453	0.3178	0.0092512	0.42891	0.33761	0.2153	0.38272	0.14305	-1.1437	-2.1667	-2.2708	-1.6833	-2.2667	-2.0812	-1.6479	-2.75	-1.825	-2.0438	-2.5438	-1.8333	-2.3729	-2.2458	-1.5875	-2.6417	190.997	55.322	90.544	172.821	214.291	-27.899	202.270	-105.808	64.515	-11.448	-88.010	207.293	199.506	-52.586	-46.298	181.499	0.0020777	0.001381	0.00049655	874.43	1.2168e-05	1.6496e-05	1142.1	299.15	6.3088e-06	2.6321e-06	474.15	202.55	117.8	58.219	4.4899e-06	93.934	0.0010503	0.0010292	0.00027666	890.54	1.1451e-05	1.1261e-05	1142.2	305.41	1.1297e-05	1.1042e-05	475.64	196.82	132.38	57.677	1.0564e-05	89.761	70.336	1.107	-44.201	-102.807	85.478	-30.318	-103.096	-97.686	-60.272	-27.447	-99.051	-95.587	-94.025	-88.750	54.306	-91.809	-8191	255	
3112.198	1	1	0	0	0.17977	0.17329	0.21747	0.16139	0.28858	0.12521	0.13725	0.16694	0.2065	0.022508	0.31277	0.12012	0.14248	0.1589	0.11187	0.26866	-1.4188	-1.9937	-2.3063	-1.4917	-2.2271	-2.2271	-1.6979	-2.7417	-2.05	-1.9	-2.6229	-1.6396	-2.1958	-2.1333	-1.625	-2.5521	-98.399	209.633	-44.893	212.429	-53.637	-45.413	144.856	101.971	60.655	210.622	192.825	165.086	213.905	72.682	52.806	161.770	0.001661	0.00057396	0.00048385	876.69	8.2384e-06	1.265e-05	1153.5	297.54	9.4804e-06	6.8892e-06	473.87	201.08	118.24	58.096	7.3766e-06	92.285	0.0010576	0.0010065	0.00027335	892.32	1.1455e-05	1.0994e-05	1142.9	305.33	1.1466e-05	1.073e-05	473.5	196.03	131.56	57.308	1.0362e-05	89.367	60.151	-93.329	-87.388	-102.583	40.541	-16.154	-103.127	-97.640	42.355	89.471	-98.792	-95.629	-93.552	-89.046	-87.848	-91.849	-8191	255	
3112.318	1	1	0	0	0.053317	0.22732	0.077258	0.22366	0.044692	0.036985	0.2419	0.04426	0.31713	0.1518	0.14352	0.076857	0.17436	0.17871	0.095919	0.2064	-1.3896	-1.6104	-2.6146	-1.7	-2.2104	-2.4313	-1.8896	-2.5542	-2.0646	-1.9125	-2.7917	-1.6667	-2.0396	-2.4271	-1.5375	-2.4833	-81.371	-3.605	-93.477	46.681	36.132	106.516	193.999	217.004	222.949	-19.764	214.924	231.278	237.955	-18.002	163.474	209.469	0.0022733	0.00054536	0.00038256	865.74	1.2959e-05	9.5063e-06	1141.8	295.47	5.2991e-06	5.9199e-06	471.43	201.86	117.4	58.036	1.059e-05	93.523	0.0010374	0.00097617	0.00026854	890.77	1.126e-05	1.0856e-05	1135.7	304.89	1.1217e-05	1.0531e-05	472.32	196.54	130.03	57.15	1.0249e-05	89.868	96.102	158.018	-101.077	-102.627	-58.828	4.427	-103.057	-97.893	46.572	128.083	-98.439	-95.654	-94.137	-88.784	-85.742	-91.861	-8191	255	
3112.415	1	1	0	0	0.15524	0.19058	0.43304	0.18338	0.21738	0.25573	0.18902	0.12086	0.13814	0.2203	0.12344	0.31608	0.17185	0.31827	0.24297	0.039551	-1.7104	-1.9167	-2.5187	-1.9042	-2.1312	-2.4437	-1.6417	-2.3833	-2.1229	-1.7292	-2.6146	-2.0667	-2.0625	-2.4521	-1.5604	-2.3771	17.618	79.516	-109.620	129.869	158.485	74.350	210.728	7.466	164.241	203.536	153.349	191.993	204.856	226.623	-7.055	-27.149	0.001333	0.0014557	0.00016254	861.72	4.596e-06	6.9827e-06	1143.1	296.78	1.1609e-05	3.6704e-06	474.58	201.29	117.76	58.485	1.4061e-05	93.59	0.0010031	0.00094691	0.00026476	886.31	1.0838e-05	1.0479e-05	1133.2	304.52	1.0764e-05	1.0164e-05	473.75	196.96	128.53	57.157	1.0396e-05	90.082	116.120	226.984	26.857	-102.718	-25.161	88.008	-103.102	-97.725	91.003	57.779	-98.896	-95.736	-93.074	-89.009	196.987	-91.805	-8191	255	
3112.511	1	1	0	0	0.16356	0.14609	0.10638	0.080515	0.11745	0.20632	0.072172	0.10522	0.12875	0.14088	0.047142	0.24935	0.34156	0.17027	0.2482	0.31368	-1.8021	-1.5354	-2.4729	-2.0187	-1.9979	-2.6125	-1.7375	-2.3417	-2.2354	-1.6938	-2.6125	-2.1896	-1.75	-2.5583	-1.4604	-2.4333	181.357	120.603	156.523	-75.622	21.785	215.987	203.678	75.719	195.245	200.981	-60.404	153.536	176.608	236.877	95.543	192.538	0.0012202	0.00081958	0.00015975	862.81	7.3387e-06	6.663e-06	1136.8	294.72	7.4182e-06	4.8914e-06	473.68	200.71	116.76	58.012	1.6707e-06	92.807	0.00096017	0.0009195	0.00026732	885.46	1.038e-05	1.0153e-05	1133.5	303.03	1.0445e-05	1.007e-05	473.62	195.36	127.1	56.89	1.0747e-05	89.106	76.802	-10.441	84.793	-102.202	-11.104	37.406	-102.685	-97.721	157.081	-42.987	-98.966	-95.544	-94.185	-89.333	53.261	-91.938	-8191	255	
3112.607	1	1	0	0	0.16799	0.17039	0.073515	0.14197	0.12201	0.21263	0.20333	0.14454	0.1876	0.26788	0.22393	0.12692	0.088353	0.18187	0.083004	0.19557	-2.1958	-1.6167	-2.3583	-2.1437	-1.4438	-2.55	-1.825	-2.05	-2.5312	-1.6833	-2.5729	-2.1521	-1.5562	-2.475	-1.5438	-2.1562	134.533	-43.176	183.524	224.034	42.701	195.805	193.560	234.804	102.301	198.028	129.792	63.564	-106.758	132.422	90.576	134.073	0.00099454	0.00059022	0.00011929	859.77	1.5373e-05	1.7391e-05	1133.7	295.17	2.3373e-06	9.9125e-06	468.2	199.82	115.42	57.646	9.9829e-06	93.148	0.00095671	0.00091576	0.00027402	880.68	1.0357e-05	1.0274e-05	1134.3	300.5	1.0454e-05	1.0119e-05	472	194.09	125.72	56.676	1.0783e-05	88.811	76.107	64.360	124.792	-102.846	-21.369	126.505	-103.141	-97.862	53.588	74.072	-98.634	-95.959	-94.457	-89.212	174.766	-92.094	-8191	255	
3112.703	1	1	0	0	0.17728	0.12244	0.17181	0.074565	0.10978	0.12087	0.26788	0.14124	0.056519	0.34566	0.15009	0.033994	0.12651	0.2458	0.21924	0.13557	-2.0646	-1.4312	-2.25	-2.1521	-1.7104	-2.6042	-2.0333	-2.0125	-2.3604	-1.6667	-2.4562	-2.2958	-1.6896	-2.5708	-1.8021	-2.0625	119.227	234.025	95.134	59.901	201.722	-100.441	224.907	232.930	243.507	-33.257	102.423	82.944	17.407	-115.016	-20.108	181.963	0.0013516	0.0011192	6.8635e-05	850.44	4.8627e-06	8.6477e-06	1125.9	289.96	4.2375e-06	9.3067e-06	469.21	196.51	114.49	57.687	5.2763e-06	92.117	0.00093924	0.00092562	0.00027594	871.85	1.0073e-05	1.0361e-05	1130.8	298.04	1.0341e-05	1.0316e-05	469.53	192.11	124.44	56.699	1.0923e-05	88.409	66.135	137.467	-62.153	-102.904	102.772	-112.114	-103.062	-97.793	-48.490	150.751	-98.560	-95.587	-93.840	-88.825	37.012	-91.603	-8191	255	
3112.799	1	1	0	0	0.10179	0.11316	0.18934	0.20046	0.20819	0.1426	0.11915	0.48388	0.16594	0.1368	0.16285	0.21367	0.18585	0.2735	0.19901	0.1841	-2.2625	-1.7542	-2.35	-2.3125	-1.4375	-2.1937	-1.9292	-1.7687	-2.6458	-1.6833	-2.2396	-2.4875	-1.5292	-2.4104	-1.8396	-1.9875	90.881	-113.208	204.793	-112.325	108.403	0.456	235.445	153.009	-60.162	3.608	144.855	166.471	101.266	-11.249	-37.846	200.167	0.0011818	0.00039308	0.00043238	858.26	9.0161e-06	9.9244e-06	1144.5	294.8	8.6912e-06	5.712e-06	470.96	199.74	115.21	57.709	5.1702e-06	92.988	0.00093576	0.00096914	0.00027616	877.82	1.0107e-05	1.072e-05	1138.2	299.09	1.0184e-05	1.065e-05	471.42	193.59	125.69	57.167	1.0783e-05	88.854	66.271	-113.028	-45.762	-102.900	80.473	240.426	-103.023	-97.530	-95.001	-9.787	-99.165	-95.747	-93.929	-88.850	-25.611	-91.906	-8191	255	
3112.920	1	1	0	0	0.32829	0.15516	0.024975	0.099042	0.11052	0.10076	0.15253	0.09425	0.22864	0.11275	0.23159	0.23586	0.13683	0.12721	0.10524	0.1187	-2.1542	-1.7021	-1.8729	-2.3042	-1.4104	-2.375	-2.2479	-1.7396	-2.6958	-1.7229	-1.925	-2.4625	-1.3208	-2.4333	-2.1208	-1.7125	151.384	111.528	82.493	171.370	207.925	59.374	123.253	237.109	170.909	126.689	-98.455	143.002	106.387	220.152	54.097	134.958	0.0016633	0.00065047	0.00035955	867.3	9.7191e-06	9.1527e-06	1135	294.35	5.3446e-06	4.7139e-06	469.48	199.91	115.33	57.961	4.0217e-06	92.408	0.00094604	0.0009993	0.000272	881.82	1.0286e-05	1.1068e-05	1135.7	299.62	1.0474e-05	1.1066e-05	470.29	193.2	126.9	57.277	1.0685e-05	88.517	60.478	-39.754	6.587	-102.838	141.363	33.082	-103.192	-97.799	166.954	-102.147	-98.894	-95.687	-93.962	-89.205	-58.455	-92.135	-8191	255	
3113.014	1	1	0	0	0.24276	0.17	0.079267	0.31124	0.21787	0.22343	0.049409	0.14006	0.10417	0.24336	0.091184	0.053452	0.35934	0.11266	0.027295	0.094851	-2.3771	-1.9167	-1.875	-2.5708	-1.6688	-2.4083	-2.3042	-1.6812	-2.6125	-2.0042	-1.9521	-2.75	-1.6708	-2.5771	-2.4437	-1.6562	200.197	113.552	-99.671	138.292	-61.120	218.058	-80.192	146.382	213.396	240.777	219.412	106.032	225.175	39.025	-44.220	87.512	0.0015565	0.0011719	0.00021286	860.49	5.5148e-06	5.0873e-06	1133.9	293.55	1.0449e-05	7.9656e-06	468.64	199.55	114.68	58.33	6.4548e-06	93.048	0.00096521	0.0010144	0.00026482	874.48	1.0513e-05	1.099e-05	1128.7	297.67	1.0739e-05	1.1034e-05	469.69	193.2	127.72	57.462	1.0598e-05	89.021	82.879	205.764	-50.920	-102.776	4.771	0.373	-103.430	-97.940	239.246	31.911	-98.998	-95.680	-94.566	-89.092	8.517	-91.663	-8191	255	
3113.110	1	1	0	0	0.1483	0.067658	0.051863	0.16569	0.12769	0.23483	0.1098	0.10696	0.17935	0.31075	0.34526	0.1931	0.096803	0.1789	0.096845	0.27945	-2.2708	-2.125	-1.7125	-2.5833	-1.6437	-2.3042	-2.5708	-1.7646	-2.525	-2.1208	-1.8521	-2.5833	-1.75	-2.2083	-2.4125	-1.675	143.764	174.805	-12.811	-57.126	85.885	189.466	149.418	221.132	125.107	196.702	206.199	193.107	-78.217	211.260	238.487	108.329	0.0017624	0.00078076	0.00013033	858.38	3.4567e-06	7.5638e-06	1136.8	294.45	9.0012e-06	1.2511e-05	473.41	199.95	116.66	58.222	7.1674e-06	93.533	0.0010009	0.0010049	0.00026496	872.69	1.0873e-05	1.0852e-05	1128.9	298.6	1.088e-05	1.0791e-05	469.89	194.28	128.88	57.522	1.0388e-05	89.596	103.053	-1.115	114.154	-102.764	154.648	96.219	-102.709	-98.002	57.238	43.492	-99.208	-96.071	-94.201	-89.265	50.540	-91.953	-8191	255	
3113.206	1	1	0	0	0.14106	0.030805	0.12486	0.2062	0.28477	0.15069	0.22827	0.35436	0.16887	0.072375	0.38717	0.35658	0.16284	0.19816	0.096851	0.10623	-1.9771	-1.9979	-1.3854	-2.4771	-1.6146	-1.7667	-2.5333	-1.6417	-2.2146	-2.1896	-1.5854	-2.7083	-1.8312	-2.0875	-2.5187	-1.7271	117.010	61.707	167.256	178.738	175.104	241.679	78.602	208.857	79.884	177.753	192.747	232.105	180.813	141.020	22.644	227.744	0.0010212	0.0012446	6.7011e-05	854.18	3.9989e-06	8.6849e-06	1130.9	291.81	2.2407e-05	1.0022e-05	472.63	200.74	116.07	58.395	7.1683e-06	93.674	0.0010028	0.00098031	0.00025955	870.47	1.094e-05	1.0471e-05	1124.4	298.6	1.1009e-05	1.0548e-05	468.43	195.11	128.97	57.356	1.033e-05	89.778	46.527	-28.399	-76.507	-102.587	-16.647	-2.670	-103.055	-97.905	74.409	21.552	-98.931	-95.879	-93.989	-89.179	-28.953	-92.140	-8191	255	
3113.303	1	1	0	0	0.33322	0.11324	0.036907	0.21003	0.17146	0.27584	0.038477	0.13767	0.29602	0.30431	0.18663	0.136	0.045274	0.12387	0.18683	0.14595	-2.1792	-2.2542	-1.6792	-2.8583	-2.0375	-2.0375	-2.6271	-1.7375	-2.1771	-2.2646	-1.6021	-2.4688	-1.8854	-1.775	-2.6083	-1.8188	-23.829	157.013	-57.926	211.414	-68.524	190.932	204.071	44.153	-84.826	120.642	144.892	-88.300	22.288	71.358	-12.132	0.328	0.0014281	0.00044827	0.00035037	847.88	3.8164e-06	4.3484e-06	1130.7	291.17	1.6137e-05	1.1304e-05	471.96	201.84	117.22	58.907	1.5645e-05	94.502	0.0010087	0.00096306	0.00025623	869.26	1.1028e-05	1.0366e-05	1123	299.43	1.0893e-05	1.0478e-05	468.73	196.42	128.82	57.569	1.0125e-05	90.533	58.292	-60.402	222.265	-103.107	-12.565	-49.782	-103.610	-98.045	-10.255	44.308	-99.389	-95.746	-94.167	-89.464	-90.747	-92.106	-8191	255	
3113.399	1	1	0	0	0.19258	0.20334	0.16959	0.18371	0.068543	0.1376	0.18066	0.062994	0.17782	0.44848	0.22752	0.1296	0.28563	0.055119	0.10773	0.15036	-1.8083	-2.2521	-1.4896	-2.4688	-1.9125	-1.6958	-2.675	-1.6896	-1.8125	-2.5	-1.6688	-2.4562	-2.0042	-1.7271	-2.5521	-1.8146	-90.268	95.212	107.365	241.744	20.899	178.711	139.604	-24.395	240.338	55.455	150.895	82.962	230.172	217.133	124.302	136.543	0.0016901	0.00095174	0.0003913	843.27	1.2651e-05	6.537e-07	1124.6	292.52	1.693e-05	1.2275e-05	470.03	201.61	115.28	58.714	8.3878e-06	94.372	0.00098167	0.00095136	0.00025647	868.69	1.077e-05	1.0282e-05	1120.3	300.36	1.0815e-05	1.042e-05	468.31	196.41	128.01	57.442	1.0352e-05	90.638	81.242	20.145	-71.080	-102.514	-20.875	83.702	-103.118	-98.134	-27.841	14.270	-99.429	-95.877	-94.263	-89.386	110.161	-92.517	-8191	255	
3113.495	1	1	0	0	0.10265	0.16639	0.1541	0.15426	0.10608	0.059936	0.31235	0.097058	0.30334	0.046366	0.2232	0.22044	0.16271	0.24191	0.051437	0.13408	-1.5917	-2.4958	-1.5833	-2.3354	-2.0521	-1.6292	-2.6896	-1.9708	-1.8958	-2.6271	-1.7021	-2.5646	-2.3292	-1.7104	-2.6208	-2.0854	-94.272	189.114	114.631	-95.601	90.287	-95.169	174.504	-114.773	85.645	103.841	179.635	56.774	241.069	150.628	-65.104	202.647	0.0013242	0.00050557	0.00047698	841.94	1.1081e-06	1.7225e-06	1125.9	289.16	8.3808e-06	8.8427e-06	468.51	201.75	115.51	59.049	1.2852e-05	94.98	0.00095874	0.00093093	0.0002602	865.07	1.0493e-05	1.0037e-05	1120	298.17	1.0238e-05	1.0145e-05	469.05	196.32	126.13	57.469	1.038e-05	91.014	78.366	29.155	-99.192	-102.866	94.083	-47.339	-103.367	-97.867	73.758	37.650	-99.007	-95.776	-94.307	-89.395	23.428	-92.209	-8191	255	
3113.591	1	1	0	0	0.017072	0.39866	0.13886	0.29301	0.22788	0.20672	0.026927	0.28815	0.067358	0.33155	0.20279	0.2395	0.13445	0.21372	0.12778	0.13767	-1.5458	-2.5167	-1.6208	-2.4229	-2.4167	-1.6042	-2.6125	-2.3187	-1.9104	-2.55	-1.6688	-2.0958	-2.5083	-1.6729	-2.5292	-2.2042	-109.415	38.072	-80.898	190.266	-67.429	74.780	184.297	171.399	-23.118	24.142	86.076	223.146	-18.163	142.684	-109.382	122.752	0.0015939	0.00040286	0.00020207	839.52	3.8879e-06	5.3113e-06	1117.5	288.95	9.0488e-06	1.2145e-05	468.46	200.63	115.35	58.852	8.7096e-06	94.044	0.0009292	0.000918	0.00026305	857.54	1.0216e-05	9.8604e-06	1117.9	295.62	1.0109e-05	1.0018e-05	469.28	195.27	126.22	57.232	1.0731e-05	90.373	70.139	-102.576	220.431	-102.798	-89.022	58.406	-103.130	-98.170	-47.808	64.042	-99.295	-95.616	-93.820	-89.246	26.784	-92.035	-8191	255	
3113.712	1	1	0	0	0.3143	0.33055	0.30449	0.22129	0.050645	0.10654	0.037436	0.24192	0.22237	0.14743	0.3274	0.34143	0.44035	0.17627	0.13003	0.23186	-1.2646	-2.6021	-1.7938	-2.0479	-2.3729	-1.6063	-2.8438	-2.2687	-1.65	-2.6458	-1.9125	-2.1479	-2.6312	-1.8833	-2.325	-2.2687	204.807	96.738	-46.360	224.460	-72.391	68.990	-96.632	228.057	183.037	170.937	195.837	-106.618	210.417	219.214	218.595	199.973	0.0012276	0.00015808	0.00025996	832.01	1.2114e-05	4.5222e-06	1116	288.66	7.8572e-06	1.29e-06	468.31	201.69	115.44	58.698	6.3423e-06	94.797	0.00093269	0.00093279	0.00027336	854.71	1.0246e-05	1.0066e-05	1117.6	295.4	1.0081e-05	1.0302e-05	471.78	195.15	126.05	57.474	1.0823e-05	90.45	75.880	55.982	-92.623	-102.830	-12.785	35.212	-103.310	-97.789	-111.651	42.836	-98.891	-95.669	-94.156	-89.047	17.934	-92.112	-8191	255	
3113.806	1	1	0	0	0.17941	0.089582	0.25659	0.081129	0.087974	0.13304	0.26299	0.16444	0.068427	0.10388	0.24325	0.21962	0.26294	0.14172	0.16262	0.16724	-1.4167	-2.6813	-1.8625	-2.0625	-2.5521	-1.8375	-2.4062	-2.4708	-1.7396	-2.5542	-1.9958	-1.875	-2.6729	-1.5438	-2.0625	-2.4604	8.848	-75.591	201.138	-94.104	-53.604	-25.364	168.317	80.101	-89.670	44.679	103.788	136.892	192.064	52.138	112.057	193.332	0.0016717	0.0011599	0.0003597	834.58	4.5537e-06	4.625e-06	1123.1	287.39	1.4663e-05	7.6969e-06	468.86	200.99	114.42	58.726	9.6589e-06	95.267	0.00092502	0.00095257	0.00027448	852.96	1.0109e-05	1.0365e-05	1117.2	294.5	9.934e-06	1.0419e-05	470.33	194.98	124.99	57.741	1.0599e-05	90.979	79.216	44.154	9.092	-102.717	-95.471	-33.241	-103.076	-97.928	15.664	223.263	-98.810	-95.491	-93.931	-88.994	-81.061	-92.188	-8191	255	
3113.880	1	1	0	0	0.16545	0.081974	0.24084	0.19467	0.13927	0.15367	0.21174	0.28254	0.18199	0.17885	0.068082	0.12296	0.27723	0.12168	0.18239	0.28596	-1.1	-2.5333	-2.1333	-1.9042	-2.8146	-1.8417	-2.4271	-2.5563	-1.5979	-2.4354	-2.2167	-1.6229	-2.4625	-1.9042	-2.05	-2.5958	76.284	34.148	14.967	-100.906	157.631	32.227	211.822	207.055	196.162	143.735	88.515	-65.297	175.102	234.946	81.568	204.282	0.00084804	0.00089036	0.00038804	829.33	1.3841e-05	7.1118e-06	1119	288.05	3.7794e-06	8.4892e-07	469.53	202.66	115.34	58.675	1.9163e-05	94.652	0.00090844	0.00097558	0.00026956	846.96	1.0012e-05	1.0549e-05	1115.6	293.05	9.9371e-06	1.0722e-05	468.85	194.9	125.27	57.964	1.0441e-05	90.561	58.792	-23.213	-33.333	-102.851	-34.569	-78.124	-102.849	-97.922	30.200	172.485	-99.116	-95.592	-93.803	-88.937	-1.121	-91.982	-8191	255	
3114.000	1	1	0	0	0.27929	0.07285	0.082286	0.18378	0.14625	0.19196	0.24066	0.25562	0.041008	0.11037	0.42413	0.07819	0.3198	0.33834	0.1133	0.33276	-1.2917	-2.1896	-2.0833	-1.7687	-2.4333	-1.7812	-2.3417	-2.6604	-1.7708	-2.3708	-2.3771	-1.625	-2.4646	-1.9458	-1.9542	-2.7042	-26.365	234.235	-24.987	-33.837	12.502	-62.450	136.914	168.333	134.344	197.267	182.802	-107.842	172.671	-109.931	195.990	212.205	0.0013973	0.0018124	0.00037327	831.16	1.3173e-05	2.6093e-06	1114.3	285.81	8.8027e-06	5.93e-06	466.27	202.62	114.05	59.069	6.16e-06	95.26	0.00093448	0.00099185	0.00026553	845.84	1.0292e-05	1.0827e-05	1111	292.3	1.0231e-05	1.0737e-05	466.73	194.69	126.19	58.036	1.0221e-05	90.736	55.797	-16.043	240.408	-102.485	8.613	109.138	-102.892	-97.733	202.887	15.350	-99.216	-95.505	-93.795	-89.255	24.359	-92.047	-8191	255	
3114.095	1	1	0	0	0.17574	0.18159	0.15951	0.24993	0.25464	0.074736	0.27082	0.14623	0.36116	0.12645	0.34977	0.20081	0.14173	0.080565	0.1544	0.18109	-1.3229	-2.0854	-2.3	-1.5417	-2.5542	-1.8667	-1.7583	-2.5083	-1.5271	-2.3292	-2.4104	-1.6667	-2.5312	-2.2687	-1.6125	-2.6167	-71.189	104.413	-74.011	203.345	43.899	-82.245	194.322	141.540	190.064	103.818	-113.309	222.130	219.547	156.567	165.464	-64.914	0.0014069	0.0012149	0.00028657	827.38	5.6937e-06	1.1511e-05	1112.9	285.28	1.0897e-05	5.0783e-06	466.05	200.7	114.62	58.749	3.9867e-06	95.592	0.00095461	0.00098729	0.00026275	842.02	1.0581e-05	1.0796e-05	1106	291.67	1.0637e-05	1.0606e-05	465.01	194.4	126.92	57.982	1.0048e-05	91.083	52.926	-83.783	-109.094	-102.912	-92.698	168.179	-102.802	-97.583	36.155	25.882	-98.978	-95.347	-94.200	-89.092	24.798	-91.862	-8191	255	
3114.191	1	1	0	0	0.16245	0.11483	0.244	0.15124	0.15525	0.20498	0.23738	0.14336	0.0996	0.10394	0.20022	0.22006	0.27216	0.19982	0.23016	0.15414	-1.0667	-2.0646	-2.2604	-1.7333	-2.525	-2.1958	-1.6333	-2.5521	-1.7604	-1.8729	-2.6063	-1.8667	-2.5625	-2.2208	-1.9042	-2.8667	36.233	80.823	-20.056	205.977	212.643	37.022	186.004	212.951	-89.711	149.504	19.742	183.496	-105.623	-114.765	27.907	186.406	0.0016553	0.0016179	9.6943e-05	827.66	9.4098e-06	4.8527e-06	1115.7	287.58	5.0606e-06	8.4619e-06	470.07	202.57	115.23	59.4	9.9614e-06	95.925	0.0009717	0.00095462	0.00025775	843.71	1.0713e-05	1.0565e-05	1105.9	292.44	1.0789e-05	1.036e-05	466.58	195.64	127.69	57.99	9.9389e-06	91.571	60.431	-44.379	-98.218	-103.058	-39.575	69.365	-102.830	-97.752	-29.442	91.953	-99.112	-95.788	-94.192	-88.853	91.171	-92.074	-8191	255	
3114.311	1	1	0	0	0.29564	0.14498	0.055874	0.19221	0.25893	0.14723	0.28113	0.19959	0.22262	0.15014	0.15128	0.22471	0.16399	0.30185	0.16137	0.44611	-1.5021	-1.8396	-2.5271	-1.8917	-2.2771	-2.0646	-1.6083	-2.4833	-2.0667	-1.9375	-2.6375	-1.7104	-2.3521	-2.3917	-1.6229	-2.5646	171.323	129.162	59.093	111.409	203.356	192.583	134.153	215.399	145.469	-86.225	65.088	159.116	-71.635	178.553	-79.249	191.426	0.0014796	0.0010412	0.00056241	822.69	9.639e-06	5.2103e-06	1112.9	284.59	6.3973e-06	7.4194e-06	466.53	201.31	114.87	58.787	1.2455e-05	95.574	0.00099212	0.00093856	0.00025555	844.06	1.0772e-05	1.0328e-05	1102.6	292.37	1.076e-05	1.0154e-05	464.32	195.55	127.51	57.684	9.9665e-06	91.226	68.657	-47.183	-31.887	-102.691	244.060	-12.997	-102.930	-97.632	-90.552	82.680	-98.988	-95.654	-93.543	-89.303	-7.464	-92.094	-8191	255	
3114.407	1	1	0	0	0.50124	0.10515	0.2264	0.037101	0.32097	0.15559	0.33542	0.25553	0.24808	0.011878	0.16917	0.035765	0.2457	0.17913	0.26519	0.14053	-1.5521	-1.5771	-2.5667	-1.6271	-2.2625	-2.5625	-1.8104	-2.5604	-1.9958	-1.7062	-2.9604	-1.8042	-2.05	-2.6021	-1.55	-2.4208	-67.504	99.962	74.914	-30.670	-64.938	39.324	177.998	200.441	-75.891	85.400	228.829	214.835	-29.412	193.356	180.703	234.762	0.0013561	0.0015673	0.00025319	831.34	7.4863e-06	6.8618e-06	1114.3	286.2	3.0097e-06	1.738e-05	463.36	202	114.9	58.793	1.066e-05	95.516	0.0009931	0.0009352	0.00025791	854.06	1.0737e-05	1.0319e-05	1104.1	293.94	1.0684e-05	1.0146e-05	464.59	196.1	126.72	57.695	1.0017e-05	91.339	67.677	-70.719	190.556	-102.983	67.492	51.824	-103.258	-97.861	131.114	143.543	-98.778	-95.808	-94.219	-89.039	-46.821	-91.585	-8191	255	
3114.479	1	1	0	0	0.072973	0.193	0.23976	0.12828	0.39516	0.22642	0.28927	0.19022	0.21845	0.24549	0.394	0.18288	0.19896	0.14554	0.12535	0.11478	-1.6187	-1.8354	-2.3875	-1.825	-1.8854	-2.4542	-1.5375	-2.2979	-2.1896	-1.625	-2.6417	-2.1188	-2.0312	-2.7313	-1.4771	-2.4437	15.840	160.501	137.482	156.922	142.170	-15.740	146.079	133.975	-64.714	158.905	211.059	-112.750	123.264	-81.254	193.901	56.215	0.0018802	0.00097097	0.00029551	829.84	2.0194e-05	2.8651e-06	1116.1	285.53	1.5371e-06	5.0212e-06	468.2	202.53	115.64	58.787	6.8282e-06	96.214	0.00097341	0.00092038	0.00025917	854.09	1.0531e-05	1.0247e-05	1110.5	294.85	1.0534e-05	1.0016e-05	466.69	196.75	126.36	57.667	1.0318e-05	91.814	79.138	-70.987	11.301	-102.954	23.433	12.752	-103.174	-97.978	63.405	10.916	-99.032	-95.603	-93.884	-89.458	-58.219	-92.057	-8191	255	
3114.600	1	1	0	0	0.084245	0.28059	0.15748	0.27619	0.18815	0.08213	0.18923	0.19388	0.25038	0.22515	0.069299	0.11507	0.14267	0.39113	0.15292	0.2789	-1.9583	-1.5187	-2.4604	-2.0729	-1.8146	-2.6271	-1.8042	-2.1354	-2.2375	-1.4937	-2.5438	-2.1188	-1.5604	-2.4604	-1.6604	-2.3583	168.586	162.463	84.849	-70.695	72.136	-16.191	163.702	-62.646	-97.041	-61.822	187.627	2.157	110.935	219.182	183.853	210.938	0.0014503	0.0011573	0.00023458	832.78	9.3591e-06	1.7554e-06	1118.9	288.43	9.7398e-06	6.9101e-06	470.74	201.25	115.24	58.824	5.6351e-06	95.233	0.00096053	0.00092337	0.00026606	855.44	1.0232e-05	1.0096e-05	1115.7	295.67	1.042e-05	9.9854e-06	469.33	195.89	125.59	57.473	1.0635e-05	91.079	60.190	220.598	179.290	-102.547	95.977	19.516	-103.130	-97.862	-102.481	52.150	-99.195	-96.157	-94.617	-89.237	15.337	-92.098	-8191	255	
3114.696	1	1	0	0	0.20088	0.24952	0.12931	0.29376	0.23057	0.2115	0.0065471	0.21402	0.17514	0.26854	0.27041	0.21774	0.080739	0.33173	0.24524	0.1471	-1.8312	-1.4604	-2.4375	-1.9292	-1.5854	-2.6146	-1.6896	-2.0167	-2.4208	-1.4667	-2.4833	-2.275	-1.65	-2.6167	-1.775	-2.0438	186.554	84.774	-67.658	-102.245	12.985	-110.544	188.611	105.100	-81.043	-35.638	-106.398	-98.675	-12.057	180.383	98.779	88.601	0.0015561	0.00062069	0.00012383	828.56	1.5152e-05	3.1434e-06	1118.3	288.98	1.6156e-05	4.4639e-06	466.67	201.68	115.65	58.562	4.5498e-06	95.368	0.00094468	0.00091022	0.00027099	854.18	1.0128e-05	1.0142e-05	1118.7	294.95	1.0253e-05	1.0035e-05	470.2	196.04	125.68	57.402	1.0805e-05	90.736	71.312	-60.402	232.386	-102.904	-0.894	83.212	-103.162	-97.629	-41.887	-21.408	-99.420	-95.863	-94.123	-89.295	-114.998	-91.910	-8191	255	
3114.792	1	1	0	0	0.11736	0.1739	0.10115	0.11562	0.15197	0.15268	0.127	0.14573	0.071294	0.1128	0.069451	0.26088	0.088093	0.21042	0.21373	0.16232	-2.0479	-1.5438	-2.3896	-2.25	-1.2729	-2.4917	-1.9688	-2.15	-2.6542	-1.6104	-2.4042	-2.5083	-1.7812	-2.675	-2.0208	-1.8937	-111.157	226.616	62.405	68.144	-39.457	-23.374	-113.631	-87.024	-64.387	196.815	-96.064	220.926	-52.508	-50.800	200.269	210.783	0.0015613	0.00045557	0.0001817	839.86	1.3667e-05	5.9493e-06	1127.1	291.48	9.7434e-06	1.1083e-05	471.24	203.27	115.48	58.702	9.593e-06	95.638	0.00093722	0.00093667	0.00027507	858.2	1.0123e-05	1.0362e-05	1124.7	296.68	1.0209e-05	1.0273e-05	473.36	196.25	125.83	57.562	1.0773e-05	90.711	80.009	184.299	226.814	-102.841	-1.120	220.799	-103.262	-97.439	79.560	199.333	-99.004	-95.545	-93.648	-89.073	-7.708	-92.054	-8191	255	
3114.887	1	1	0	0	0.15523	0.043566	0.12042	0.12953	0.029276	0.13532	0.21737	0.26599	0.18551	0.1762	0.10386	0.30947	0.10398	0.068822	0.22752	0.28664	-2.3146	-1.8292	-2.4479	-2.5458	-1.5438	-2.5771	-2.0438	-1.8167	-2.4625	-1.6083	-2.3625	-2.5812	-1.4833	-2.7604	-2.0521	-1.6771	220.603	-76.343	145.797	120.096	44.457	178.664	-102.335	206.124	-88.554	130.143	-102.859	215.297	238.442	168.149	186.445	182.421	0.0010507	0.00058036	0.00054745	838.66	9.221e-06	1.1983e-05	1126.5	291.15	8.5354e-06	2.689e-06	471.76	203.65	115.32	58.781	2.4725e-06	94.682	0.00092895	0.00096042	0.00027252	857.45	9.9026e-06	1.066e-05	1124.5	296.48	1.012e-05	1.063e-05	472.9	196.24	125.53	57.825	1.0551e-05	90.504	67.057	159.643	-44.798	-102.915	-19.006	87.972	-103.214	-97.890	-5.026	120.444	-99.199	-95.905	-94.417	-89.235	221.193	-92.039	-8191	255	
3114.984	1	1	0	0	0.11692	0.22812	0.27014	0.15834	0.11075	0.31058	0.16131	0.086197	0.21745	0.11984	0.064733	0.11474	0.25963	0.15716	0.05249	0.28201	-2.1333	-1.7854	-1.9646	-2.5417	-1.5938	-2.4833	-2.3438	-1.7042	-2.6979	-1.8729	-2.0667	-2.6646	-1.8021	-2.4667	-2.2562	-1.9125	-24.647	242.669	70.339	208.669	-114.329	23.837	107.868	237.412	35.575	-73.358	189.750	167.687	235.781	-33.438	161.605	194.720	0.0016286	0.0011504	0.00030191	834.67	1.4648e-05	3.7758e-06	1122.1	289.25	8.9716e-06	1.361e-05	469.52	202.48	115.14	58.603	2.9238e-06	94.487	0.00093528	0.00098124	0.0002649	852.95	1.0052e-05	1.0807e-05	1119.4	294.52	1.0272e-05	1.0741e-05	470.18	195.32	126.09	57.708	1.0352e-05	89.926	85.550	163.632	-73.003	-102.742	70.949	212.862	-103.112	-97.633	-18.323	106.350	-98.742	-95.614	-93.747	-88.861	-111.409	-91.998	-8191	255	
3115.103	1	1	0	0	0.21943	0.19124	0.15989	0.13904	0.077493	0.1934	0.32728	0.20816	0.12339	0.1826	0.30374	0.085688	0.14424	0.12548	0.3143	0.13309	-2.1562	-1.7062	-1.9604	-2.6813	-1.5938	-2.2771	-2.3021	-1.6187	-2.4354	-1.8854	-1.9625	-2.7021	-1.8188	-2.1979	-2.4104	-1.8771	36.501	-41.887	-67.350	216.987	-14.632	-0.457	89.285	-79.107	-6.552	226.914	-57.846	23.163	-96.599	212.323	54.688	183.312	0.0015273	0.00050669	6.4181e-05	835.77	4.9127e-06	8.0657e-06	1118.9	286.55	1.4067e-06	4.1113e-06	466.48	200.24	113.65	58.286	1.0174e-06	95.154	0.00094422	0.00098855	0.00026104	850.66	1.0345e-05	1.0717e-05	1111.5	291.64	1.048e-05	1.0622e-05	465.73	193.73	126.11	57.415	1.0148e-05	90.001	52.572	-36.503	-31.009	-103.105	154.594	27.743	-103.230	-97.566	-76.192	17.711	-98.754	-95.693	-93.807	-88.856	-31.568	-91.936	-8191	255	
3115.175	1	1	0	0	0.14399	0.26896	0.11586	0.13213	0.25659	0.20786	0.25924	0.30587	0.13979	0.20957	0.023057	0.19128	0.39553	0.13831	0.18935	0.54097	-2.1771	-1.8	-1.6104	-2.8417	-1.6104	-2.0333	-2.6083	-1.6313	-2.3542	-1.9583	-1.7563	-2.6292	-1.8083	-1.9312	-2.4479	-1.9104	-38.270	-5.818	-57.821	-18.492	1.075	-97.542	118.162	213.273	12.631	31.516	77.585	51.731	195.464	146.633	-31.365	199.264	0.0013972	0.00064932	0.00018359	826.99	8.1014e-06	8.5999e-06	1108	284.75	7.3107e-06	1.1756e-05	464.5	199.68	113.49	58.154	9.9731e-06	93.993	0.00097069	0.00096472	0.0002547	844.31	1.0669e-05	1.0531e-05	1104.9	290.42	1.0643e-05	1.0473e-05	461.86	192.58	125.71	56.954	1.0043e-05	89.588	50.321	-20.890	-19.089	-102.516	-10.365	73.147	-103.241	-98.056	113.777	22.630	-99.085	-95.930	-94.340	-89.181	86.625	-92.226	-8191	255	
3115.271	1	1	0	0	0.22529	0.19051	0.15384	0.24966	0.15014	0.096005	0.098684	0.088894	0.18566	0.25318	0.22504	0.30165	0.042722	0.16478	0.090888	0.10926	-1.8333	-1.9792	-1.5812	-2.5812	-1.8667	-1.8563	-2.4708	-1.6938	-2.2625	-2.275	-1.7521	-2.6312	-2.0375	-1.9958	-2.5062	-1.7146	-69.014	24.057	117.205	17.410	31.109	40.974	92.738	209.464	-109.325	69.228	199.385	190.776	169.324	69.192	23.746	41.605	0.0012673	0.00091714	0.00041801	823.61	7.2668e-06	5.4456e-06	1109.1	283.44	1.6288e-05	6.5896e-06	463.25	197.81	112.55	57.718	7.1779e-06	93.725	0.00097648	0.00094167	0.00024835	841.58	1.0571e-05	1.0071e-05	1102	289.62	1.0636e-05	1.0188e-05	458.97	191.69	124.96	56.595	9.9014e-06	89.434	60.568	-31.718	176.575	-102.702	22.012	92.522	-103.252	-97.757	4.021	31.901	-98.941	-95.794	-94.071	-89.012	64.252	-91.794	-8191	255	
3115.392	1	1	0	0	0.08267	0.025523	0.085507	0.14105	0.077919	0.15931	0.11029	0.10659	0.2245	0.24686	0.060501	0.26372	0.21881	0.36683	0.18716	0.38607	-1.9562	-2.2229	-1.5771	-2.4354	-1.975	-1.7854	-2.8	-1.8667	-2.1042	-2.5625	-1.5562	-2.4479	-1.9917	-1.7354	-2.5125	-1.6104	188.788	-47.138	146.360	171.105	-91.418	109.730	-111.479	-8.581	-105.474	-112.515	51.704	212.809	57.045	227.816	73.221	177.919	0.0015015	0.001171	0.0001121	822.79	5.8018e-06	6.4913e-06	1102.8	282.66	1.4648e-05	1.1616e-05	459.93	197.61	111.54	57.483	4.2119e-06	93.191	0.00096128	0.00091302	0.00024412	841.58	1.0485e-05	9.9373e-06	1094.9	289.07	1.0486e-05	1.0057e-05	456.54	191.65	124.5	56.256	9.8671e-06	89.162	58.657	-88.233	22.788	-102.727	-35.744	-89.439	-102.987	-97.880	35.107	73.171	-99.185	-95.807	-93.509	-89.102	240.439	-91.999	-8191	255	
3115.488	1	1	0	0	0.14036	0.1591	0.1397	0.20929	0.24285	0.037458	0.10257	0.10698	0.30763	0.15662	0.1507	0.17947	0.31193	0.37386	0.19861	0.12959	-1.5417	-2.3063	-1.5542	-2.5729	-2.0208	-1.7833	-2.5812	-1.9958	-2.1458	-2.3583	-1.675	-2.4125	-2.0187	-1.4583	-2.3417	-1.6354	-33.076	-37.057	164.382	212.179	242.575	209.832	41.532	157.288	-109.956	20.354	122.336	-65.028	171.053	-112.063	-9.416	214.991	0.001228	0.0017812	1.3538e-05	820.4	1.0857e-06	9.6062e-07	1102.3	278.84	3.871e-06	1.3493e-05	460.14	197.56	113.26	57.634	5.5256e-06	93.653	0.00094497	0.00091476	0.00024922	840.49	1.0342e-05	9.9111e-06	1094.2	288.39	1.0193e-05	9.8711e-06	455.81	191.89	123.5	56.247	1.0018e-05	89.644	84.345	-15.496	-93.825	-102.567	14.651	240.480	-103.127	-98.014	207.073	131.684	-99.072	-95.524	-94.112	-89.177	-86.609	-91.846	-8191	255	
3115.584	1	1	0	0	0.005373	0.12998	0.27888	0.17662	0.13994	0.12239	0.031825	0.14618	0.12146	0.1385	0.2669	0.20322	0.13855	0.064102	0.056591	0.12173	-1.5104	-2.5021	-1.4312	-2.2771	-2.25	-1.7229	-2.6854	-1.9562	-1.825	-2.3438	-1.6396	-2.2042	-2.2021	-1.6458	-2.4479	-1.9688	-17.153	203.015	76.899	210.808	168.346	178.677	187.356	178.828	22.938	-56.354	241.405	220.374	26.777	235.737	-78.665	152.087	0.0014031	0.00097041	0.00014336	818.97	1.2818e-05	8.7445e-06	1093.7	282.39	6.2737e-06	5.6386e-06	460.15	198.95	111.44	57.424	1.1553e-05	93.253	0.00092166	0.00090285	0.00025379	840	1.0159e-05	9.6729e-06	1096.7	289.02	1.0018e-05	9.8235e-06	458.79	192	123.1	56.045	1.0385e-05	89.398	61.514	-27.312	167.939	-102.617	54.263	28.398	-103.164	-97.520	219.402	-83.854	-98.340	-95.517	-93.879	-88.693	240.954	-91.767	-8191	255	
3115.680	1	1	0	0	0.18071	0.10978	0.16529	0.32509	0.079977	0.051357	0.14637	0.25205	0.21099	0.23592	0.13981	0.11928	0.12932	0.22548	0.1007	0.15215	-1.5667	-2.5354	-1.6729	-2.1542	-2.1708	-1.4729	-2.6333	-1.9708	-1.5562	-2.4354	-1.7938	-2.1188	-2.2188	-1.5896	-2.3438	-2.0312	-5.296	-65.398	42.593	221.423	108.827	147.575	181.925	215.154	241.176	46.709	-104.818	-28.440	116.559	-100.122	46.482	191.996	0.0013446	0.00042723	0.00029508	820.96	1.8356e-06	9.559e-06	1099.9	281.19	8.8781e-06	1.2297e-05	458.14	196.76	113.39	57.026	7.2805e-06	92.687	0.00090869	0.00089413	0.00025927	839.13	9.9829e-06	9.645e-06	1098.1	288.05	9.7872e-06	9.8508e-06	458.95	190.99	122.59	55.786	1.0468e-05	88.726	86.660	10.453	-18.495	-102.125	-54.752	-50.515	-102.961	-97.450	59.228	-73.335	-98.712	-95.223	-93.796	-88.667	-32.299	-91.717	-8191	255	
3115.776	1	1	0	0	0.25646	0.05155	0.051427	0.25196	0.041938	0.29412	0.15806	0.10987	0.04393	0.25922	0.38719	0.11187	0.12249	0.13527	0.2507	0.20109	-1.15	-2.4313	-1.5104	-2.0438	-2.7125	-1.5688	-2.5708	-2.2687	-1.8813	-2.5146	-2.1125	-1.9688	-2.6604	-1.725	-2.2687	-2.2292	148.042	115.534	132.924	222.408	-36.228	-49.335	210.430	-92.835	-0.914	177.255	137.453	242.471	-21.953	242.004	-92.016	-68.017	0.0011443	0.00080586	0.0001673	818.99	6.1747e-06	5.497e-06	1101.2	283.37	8.9135e-06	6.8902e-06	459.67	197.59	112.49	57.221	6.5246e-06	93.091	0.00090338	0.00091176	0.00026722	834.93	9.978e-06	9.831e-06	1098.7	288.24	9.7367e-06	9.9344e-06	460.18	190.35	122.02	56.168	1.0477e-05	88.942	61.184	85.768	-35.137	-102.474	-3.579	-18.386	-102.667	-97.717	23.554	-91.701	-98.839	-95.606	-93.347	-88.739	-76.818	-91.944	-8191	255	
3115.872	1	1	0	0	0.12788	0.23012	0.14325	0.048971	0.18446	0.052918	0.18313	0.2099	0.24021	0.11151	0.28285	0.13028	0.27751	0.10606	0.28194	0.10434	-1.1625	-2.3583	-1.8687	-1.6958	-2.5042	-1.7	-2.0396	-2.1792	-1.4292	-2.5104	-2.0625	-1.8375	-2.5604	-1.6875	-2.2354	-2.3875	192.824	-16.439	-80.645	219.029	-17.735	211.611	158.232	166.051	171.322	-70.533	80.849	-111.287	171.662	11.441	84.905	209.566	0.0015231	0.00057884	0.00027402	816.83	8.0674e-06	3.9666e-06	1099	282.42	8.8584e-06	7.9658e-06	461.98	198.63	112.23	57.883	1.4831e-05	94.224	0.0008894	0.00092108	0.00026573	832.24	9.8116e-06	1.0075e-05	1098.1	286.84	9.636e-06	1.0144e-05	460.52	191.7	122.02	56.642	1.016e-05	89.5	86.147	-65.426	-100.231	-102.355	-5.001	-73.749	-102.855	-97.622	35.788	-24.055	-99.193	-95.453	-93.986	-88.960	89.041	-91.802	-8191	255	
3115.991	1	1	0	0	0.19612	0.19979	0.48085	0.1975	0.14595	0.24893	0.07122	0.060371	0.15442	0.15987	0.20505	0.13395	0.13915	0.11049	0.27729	0.18583	-1.1479	-2.5229	-1.9771	-1.7958	-2.7083	-1.9125	-2.1708	-2.5146	-1.7083	-2.4167	-2.1937	-1.8312	-2.6021	-1.8583	-2.05	-2.6937	71.671	-69.296	35.387	76.189	206.467	215.077	203.109	72.161	166.602	178.621	-34.812	236.410	9.621	-84.152	-43.754	180.759	0.001942	0.00019227	0.00039363	816.22	4.6789e-06	1.218e-06	1101.9	282.92	7.4373e-06	6.0159e-06	461.29	198.23	112.37	57.774	6.1994e-06	93.803	0.00088584	0.00094172	0.00025942	831.16	9.7772e-06	1.0279e-05	1098.1	286.35	9.7442e-06	1.0391e-05	459.28	191.11	122.73	56.769	9.9719e-06	89.259	80.251	33.874	-85.008	-102.280	-8.594	-78.432	-102.598	-97.550	-49.446	41.012	-99.067	-95.494	-93.913	-89.053	125.831	-91.923	-8191	255	
3116.088	1	1	0	0	0.19706	0.15248	0.045823	0.18156	0.094327	0.15758	0.29361	0.06473	0.18388	0.1552	0.22977	0.28869	0.31338	0.21236	0.11932	0.21586	-1.4458	-2.4208	-2.3	-1.8062	-2.8271	-1.8104	-2.1021	-2.4646	-1.8875	-2.3625	-2.3646	-1.8979	-2.7146	-2.2625	-2.15	-2.8688	-40.441	-108.906	115.570	-28.922	35.910	192.372	158.834	187.115	63.850	220.522	224.334	222.633	78.479	234.308	22.402	202.640	0.0014342	0.00027247	0.00025816	813.12	1.1793e-05	2.1041e-06	1104.2	281.02	6.3924e-07	4.5442e-06	460.9	198.46	112.44	57.668	5.9346e-06	93.841	0.00089966	0.00095203	0.00025414	829.76	9.9819e-06	1.0436e-05	1093.7	285.82	1.0084e-05	1.0472e-05	459.23	190.89	123.76	56.848	9.9531e-06	89.303	66.417	213.071	0.834	-102.484	99.921	-6.224	-102.820	-97.495	-60.898	3.786	-98.704	-95.044	-93.698	-88.867	6.805	-91.356	-8191	255	
3116.184	1	1	0	0	0.28447	0.19734	0.07067	0.032063	0.18126	0.069681	0.16546	0.18386	0.095297	0.10455	0.071342	0.19314	0.21459	0.045493	0.27712	0.08881	-1.35	-2.3104	-2.4271	-1.8062	-2.5354	-2.0479	-2.1167	-2.6583	-2.0229	-2.3104	-2.5021	-1.6875	-2.7125	-2.2562	-1.8146	-2.85	159.328	107.877	116.611	-48.381	-76.672	159.352	204.212	166.523	184.526	86.354	-21.757	221.622	14.342	197.196	-105.053	-107.271	0.0017002	0.0009679	0.00052439	814.97	8.3371e-06	9.7315e-06	1103.4	283.67	7.768e-06	8.491e-06	465.56	200.61	113.81	58.317	7.6701e-06	94.565	0.00093943	0.00096369	0.00025549	832.16	1.0386e-05	1.0463e-05	1095.4	287.91	1.0348e-05	1.0224e-05	461.63	192.94	125.38	57.097	9.7979e-06	90.098	90.489	-29.274	-55.313	-102.352	18.594	8.991	-102.774	-97.981	-102.509	-34.891	-98.953	-95.398	-94.353	-89.186	-33.283	-91.941	-8191	255	
3116.280	1	1	0	0	0.28818	0.10645	0.073416	0.046886	0.14586	0.11074	0.1777	0.40965	0.2901	0.10757	0.21486	0.37202	0.13873	0.18908	0.26425	0.37294	-1.2792	-2.1396	-2.3854	-1.7188	-2.3646	-2.1063	-1.7208	-2.6437	-1.8146	-2.0729	-2.5563	-1.65	-2.3292	-2.4083	-1.4688	-2.6354	86.135	92.681	88.070	227.567	213.710	201.095	162.542	184.676	-44.793	146.563	-107.981	196.969	-49.389	207.867	76.132	-95.436	0.0016717	0.00094971	0.0001656	814.16	3.4918e-06	2.9847e-06	1103.3	281.25	1.0116e-05	9.8762e-06	461	200.06	113.29	58.553	5.5493e-06	94.898	0.00095699	0.00092675	0.00025282	831.86	1.0458e-05	1.0078e-05	1093.9	287.23	1.0454e-05	9.9587e-06	458.71	193.21	125.29	57.136	9.6156e-06	90.412	69.230	-63.339	8.883	-102.829	-107.289	129.818	-103.187	-98.020	222.094	-22.562	-99.008	-95.684	-93.946	-89.075	17.779	-91.839	-8191	255	
3116.400	1	1	0	0	0.048234	0.1347	0.21363	0.093187	0.18411	0.21956	0.26107	0.20153	0.17271	0.1958	0.28036	0.17521	0.37369	0.1329	0.18466	0.088298	-1.3104	-1.8604	-2.4021	-1.5979	-2.375	-2.3833	-1.8583	-2.5938	-1.9062	-1.7687	-2.575	-1.7667	-2.1396	-2.4542	-1.3667	-2.6188	91.032	121.760	-38.706	182.643	44.015	30.607	188.585	133.219	153.543	23.069	-105.990	139.238	118.176	-25.151	134.528	121.864	0.0015726	0.00065432	0.00012022	816.66	1.3225e-05	6.9904e-06	1103.2	281.24	1.5182e-06	1.3704e-06	460.5	200.91	112.88	58.431	6.5416e-06	94.583	0.00095893	0.00090279	0.00024897	832.75	1.0436e-05	9.9306e-06	1091.1	288.17	1.0425e-05	9.8662e-06	459.44	194.03	124.97	57.029	9.6396e-06	90.392	84.291	-58.032	-50.639	-102.649	-11.311	4.922	-102.832	-97.784	-10.399	-63.660	-98.935	-95.573	-93.988	-88.929	105.543	-91.734	-8191	255	
3116.472	1	1	0	0	0.047156	0.080259	0.10791	0.067021	0.054017	0.38155	0.1988	0.1799	0.26792	0.060929	0.17418	0.23218	0.11211	0.13461	0.13183	0.046774	-1.4417	-1.8375	-2.4313	-1.7208	-2.2188	-2.4146	-1.9042	-2.7229	-2.1646	-1.9208	-2.7708	-1.8542	-2.1437	-2.7229	-1.4438	-2.675	40.964	69.823	40.941	-69.464	166.397	86.469	132.902	160.719	41.203	-63.756	25.819	-45.008	104.006	167.776	-87.494	112.298	0.0016511	0.00080965	0.00011773	812.38	1.078e-05	2.4193e-06	1104.1	282.63	2.7185e-06	1.0218e-05	461.69	202.24	113.74	58.224	5.8963e-06	95.781	0.0009502	0.00089903	0.00024725	833.57	1.0233e-05	9.8656e-06	1091.2	289.3	1.0307e-05	9.7256e-06	459.74	195.1	124.57	57.139	9.6968e-06	91.257	87.916	-24.633	-75.206	-102.718	-34.279	177.601	-102.755	-97.604	-49.319	-43.724	-98.341	-95.606	-94.222	-89.072	119.948	-92.181	-8191	255	
3116.568	1	1	0	0	0.10338	0.13638	0.15352	0.10495	0.055532	0.075342	0.10528	0.093956	0.1093	0.35655	0.19623	0.090294	0.24839	0.094743	0.33118	0.28617	-1.9333	-1.5875	-2.6479	-1.9229	-2.0396	-2.5563	-1.7917	-2.45	-2.1979	-1.3937	-2.6083	-1.8687	-1.8417	-2.6063	-1.7563	-2.1521	171.110	231.349	107.532	-57.378	-27.224	133.283	159.944	-106.389	27.409	87.134	225.674	117.665	154.553	233.534	-59.694	207.719	0.0012583	0.0015105	5.4052e-05	811.5	1.2884e-05	1.101e-05	1100.7	283.59	9.2728e-06	8.8446e-06	465.07	203.14	113.14	58.931	4.8517e-06	95.974	0.0009302	0.00088421	0.0002501	836.79	9.9908e-06	9.7823e-06	1092.5	290.36	1.0005e-05	9.6268e-06	463.67	195.54	123.94	57.339	1.0026e-05	91.364	98.999	20.270	-72.935	-102.519	105.813	-14.456	-102.873	-97.552	190.410	-70.923	-98.670	-95.490	-93.591	-88.654	-101.717	-91.511	-8191	255	
3116.689	1	1	0	0	0.17666	0.23787	0.09873	0.24695	0.20517	0.093113	0.19128	0.15979	0.11492	0.35111	0.25824	0.089652	0.082316	0.14168	0.18205	0.18484	-1.9271	-1.5667	-2.6146	-2.1229	-1.8521	-2.5729	-1.7729	-2.2417	-2.2292	-1.5688	-2.6354	-2.1625	-1.5667	-2.5146	-1.5396	-2.3312	9.555	71.178	196.148	225.431	-34.832	60.744	195.009	-26.884	142.473	143.621	152.551	195.689	-40.461	198.940	-15.208	230.647	0.00072082	0.00097551	0.00023176	819.15	9.1716e-06	7.872e-06	1103.1	282.73	1.8128e-05	6.5828e-06	467.94	201.46	115.43	58.553	1.1119e-05	95.424	0.00092467	0.00088371	0.0002603	838.18	9.903e-06	9.7154e-06	1100.4	290.19	1.0025e-05	9.6448e-06	464.77	195.34	123.92	57.236	1.0335e-05	90.953	87.465	-98.040	-72.444	-102.423	45.960	13.754	-102.647	-97.631	33.418	-9.736	-98.471	-95.514	-93.547	-89.241	-57.732	-91.864	-8191	255	
3116.783	1	1	0	0	0.22582	0.2582	0.055663	0.32935	0.093523	0.35775	0.16291	0.090743	0.10377	0.1323	0.0011303	0.40741	0.20464	0.0091227	0.11837	0.32239	-2.0917	-1.5312	-2.4646	-2.2812	-1.8375	-2.7125	-1.6479	-2.2292	-2.2146	-1.5729	-2.3937	-2.3146	-1.6	-2.625	-1.6938	-2.2021	-98.625	80.284	-49.317	232.492	67.996	220.726	127.671	-106.345	193.187	211.617	180.000	-74.625	-21.822	197.271	199.274	-103.276	0.0014332	0.00048079	0.00048965	815.77	3.8986e-06	6.0721e-06	1105.1	283.1	1.4695e-05	5.4579e-06	465.78	201.36	115.08	58.444	7.5357e-06	95.6	0.00091945	0.00087957	0.00026505	835.76	9.8201e-06	9.8873e-06	1102.6	289.29	9.9722e-06	9.8838e-06	466.14	194.67	123.39	57.285	1.0513e-05	90.751	95.680	-110.558	231.503	-102.701	73.007	-65.525	-102.813	-97.580	-38.794	-35.132	-98.498	-95.619	-93.375	-88.699	29.542	-91.531	-8191	255	
3116.879	1	1	0	0	0.084482	0.14292	0.12646	0.35516	0.28824	0.14404	0.06129	0.27	0.024343	0.31811	0.34012	0.31771	0.15241	0.081515	0.2434	0.39508	-2.2646	-1.5771	-2.2604	-2.2375	-1.475	-2.5875	-2.1771	-1.9542	-2.5729	-1.6083	-2.1312	-2.3042	-1.6	-2.4521	-2.2667	-1.825	-84.159	239.367	177.000	210.371	3.444	-109.505	107.841	-110.984	178.090	181.565	197.636	224.395	21.150	104.004	58.697	194.751	0.0013576	0.00055587	9.9286e-05	814.11	1.0688e-05	3.0085e-06	1106.5	283.32	4.9212e-06	6.6485e-06	466.81	201.56	113.15	59.22	9.8643e-06	95.934	0.00090177	0.0009157	0.00026536	834.58	9.7571e-06	1.0116e-05	1102.3	288.07	9.8136e-06	1.003e-05	464.96	194.46	122.73	57.828	1.0309e-05	91.179	69.772	58.525	-53.838	-101.929	20.172	-93.210	-102.987	-97.430	2.834	155.493	-98.358	-95.300	-93.627	-88.921	-13.684	-91.572	-8191	255	
3116.976	1	1	0	0	0.074534	0.042882	0.27236	0.31989	0.1389	0.13195	0.5062	0.31462	0.39871	0.22103	0.20494	0.19706	0.22197	0.22302	0.063978	0.15566	-2.4125	-1.65	-2.1063	-2.5812	-1.5896	-2.6271	-2.4104	-1.9333	-2.6146	-1.6208	-2.2396	-2.6188	-1.6271	-2.4958	-1.9833	-1.8729	234.350	92.347	208.746	160.751	-93.457	-39.793	162.937	188.929	-78.302	-34.422	198.022	-78.868	166.394	146.905	197.060	-1.079	0.001301	0.00075234	0.00020945	812.93	1.2913e-05	6.7775e-06	1101	281.71	6.3597e-06	8.4258e-06	466.61	201.56	113.5	59.274	8.399e-06	96.626	0.00089474	0.00092598	0.00026021	826.78	9.5138e-06	1.027e-05	1096.2	285.97	9.7335e-06	1.0191e-05	462.99	194.43	122.5	58.036	1.01e-05	91.356	73.295	-56.840	205.193	-102.180	-96.727	-110.667	-102.822	-97.326	18.482	225.497	-98.394	-95.525	-93.436	-88.318	-50.909	-91.740	-8191	255	
3117.072	1	1	0	0	0.12037	0.14134	0.2442	0.23919	0.37206	0.13032	0.20368	0.08617	0.080247	0.040611	0.29338	0.14196	0.21627	0.10415	0.14509	0.2719	-2.1646	-2.0146	-2.2104	-2.6125	-1.6562	-2.35	-2.2729	-1.7437	-2.5896	-1.7062	-1.9458	-2.6188	-1.5958	-2.5083	-2.3583	-1.8271	-77.240	221.503	-106.786	-105.817	17.585	-55.071	228.657	48.824	-76.030	-59.452	227.311	123.778	206.091	-80.832	-50.232	240.782	0.0012988	0.00080344	0.00030118	802.01	1.0173e-05	4.1339e-06	1091.3	279.05	1.4169e-05	1.5366e-05	461.29	199.74	110.53	59.092	8.2954e-07	95.933	0.00088675	0.00093957	0.00025152	817.96	9.6479e-06	1.0247e-05	1084	282.62	9.8222e-06	1.0335e-05	457.75	192.79	122.29	57.879	9.8658e-06	91.065	78.215	18.815	-28.285	-102.157	163.456	188.446	-102.813	-96.986	145.907	-19.308	-98.490	-95.038	-93.291	-88.683	22.051	-91.802	-8191	255	
3117.168	1	1	0	0	0.031288	0.21075	0.18276	0.29997	0.19638	0.14941	0.25131	0.074678	0.076673	0.16776	0.24799	0.32998	0.1282	0.29501	0.26281	0.19154	-2.1521	-1.8563	-1.7771	-2.5104	-1.5083	-2.2646	-2.3688	-1.6562	-2.5208	-2.2438	-1.9625	-2.6562	-1.7646	-2.3146	-2.5896	-1.7792	205.046	-71.816	-22.074	-73.752	-58.610	-10.064	211.299	242.960	236.387	-57.679	210.926	198.357	-85.913	-110.646	-114.138	179.692	0.0013412	0.00066934	0.00026754	800.98	7.6028e-06	6.4383e-06	1087.2	276.2	4.3051e-06	8.3239e-06	462.99	199.31	111.94	59.138	1.0801e-05	96.506	0.00091809	0.00093865	0.00024838	814.14	9.9703e-06	1.0256e-05	1081.9	280.73	1.0227e-05	1.0294e-05	456.2	192.06	123.13	57.854	9.7371e-06	91.337	85.106	6.887	-26.231	-102.551	142.676	6.789	-102.923	-97.792	-86.876	4.058	-98.777	-95.417	-94.001	-88.570	84.440	-91.563	-8191	255	
3117.264	1	1	0	0	0.20746	0.20733	0.12547	0.24302	0.21305	0.13312	0.26513	0.3222	0.14551	0.19044	0.17729	0.25181	0.11992	0.25745	0.20723	0.36558	-2.2646	-2.1958	-1.6208	-2.6542	-1.7687	-2.3604	-2.4917	-1.7604	-2.5833	-2.2333	-1.6646	-2.5542	-1.5875	-2.0729	-2.1979	-1.7687	-36.238	-51.016	45.749	185.393	146.036	-106.846	160.957	219.233	57.357	-27.690	-33.089	239.271	105.760	-108.642	25.435	199.469	0.0018466	0.00035334	0.00012951	797.3	5.2288e-06	1.2437e-05	1095	277.3	1.2031e-05	5.2252e-06	460.58	200.72	112.26	59.58	1.7252e-06	96.95	0.00093216	0.00092679	0.00024474	814.98	1.0268e-05	1.0016e-05	1082.5	281.66	1.0296e-05	1.0042e-05	455.66	193.33	123.5	57.875	9.6789e-06	91.811	52.992	47.567	-12.193	-102.438	85.519	-25.466	-103.096	-97.938	-110.244	9.048	-98.824	-95.504	-94.221	-89.308	-93.657	-91.962	-8191	255	
3117.360	1	1	0	0	0.092011	0.36789	0.13983	0.099194	0.25903	0.12814	0.23944	0.19695	0.18163	0.16229	0.26711	0.27374	0.25832	0.16118	0.17029	0.23553	-1.6396	-2.1479	-1.6292	-2.5979	-1.7667	-2.0771	-2.7313	-1.7417	-2.3375	-2.2854	-1.675	-2.6083	-1.8167	-2.0604	-2.675	-1.6958	-7.907	-72.764	93.679	-50.979	90.920	56.495	227.404	-102.636	-21.121	141.113	241.633	216.801	-86.568	238.662	208.797	87.693	0.00056722	0.00016657	4.5801e-05	797.29	6.7989e-06	8.679e-06	1086.3	275.56	6.7377e-06	9.0917e-06	458.55	198.85	112.28	59.114	3.0616e-06	96.533	0.00093744	0.00090483	0.0002408	814.49	1.0243e-05	9.815e-06	1076.3	281.47	1.0265e-05	9.8558e-06	453.97	192.93	123.79	57.62	9.6859e-06	91.602	78.537	-29.105	-56.823	-102.579	-77.176	-32.829	-103.141	-97.784	35.207	150.505	-99.066	-95.616	-94.010	-88.939	-2.874	-92.080	-8191	255	
3117.481	1	1	0	0	0.20671	0.070058	0.35691	0.41792	0.27519	0.11095	0.15139	0.23987	0.16968	0.094174	0.34876	0.11502	0.18801	0.19091	0.2397	0.54243	-2.0687	-2.3021	-1.5542	-2.6125	-2.0229	-1.8979	-2.7562	-1.9125	-2.1063	-2.3187	-1.8229	-2.5792	-2.1292	-2.0646	-2.6708	-2.0062	109.145	-80.343	-32.063	185.310	40.778	63.544	148.202	213.339	-113.072	7.204	-74.858	-80.388	-115.596	-38.989	154.278	216.478	0.0014644	0.00055264	0.00038513	800.68	1.2157e-05	9.2408e-06	1094.4	275.32	1.6807e-06	7.2689e-06	458.27	200.77	113.07	59.088	3.4063e-06	96.397	0.00094311	0.00090945	0.00024351	824.17	1.0295e-05	9.7686e-06	1082.6	283.44	1.025e-05	9.9262e-06	455.2	193.74	123.48	57.568	9.7969e-06	92.036	65.577	-13.284	-5.471	-102.822	41.320	-55.769	-102.975	-97.644	206.328	58.513	-99.047	-95.530	-94.177	-88.858	199.494	-91.881	-8191	255	
3117.577	1	1	0	0	0.2908	0.16327	0.093843	0.34217	0.018321	0.087155	0.10523	0.14538	0.14441	0.22199	0.099093	0.21165	0.26386	0.17481	0.062213	0.22547	-1.6313	-2.6188	-1.6625	-2.3854	-2.1312	-1.4896	-2.45	-1.8021	-2.0438	-2.5208	-1.7479	-2.5896	-2.3333	-1.6792	-2.6937	-1.9854	-115.093	-82.573	112.814	93.539	35.425	-112.424	232.001	151.574	-22.733	204.709	217.539	-106.134	61.011	-76.800	20.040	231.580	0.0014073	0.00054774	0.00012	801.04	1.1888e-05	7.0178e-06	1085.1	277.03	1.1358e-05	5.6946e-06	459.02	200.55	111.72	59.33	5.2357e-06	96.539	0.00093459	0.00090259	0.00024601	826.22	1.0154e-05	9.7312e-06	1083.9	284.25	1.0026e-05	9.8116e-06	456.24	194.45	122.4	57.501	9.9777e-06	92.391	86.731	169.128	186.007	-102.320	-80.840	35.557	-102.757	-97.442	40.839	142.956	-98.556	-95.147	-93.600	-88.861	17.495	-91.753	-8191	255	
3117.673	1	1	0	0	0.2986	0.087934	0.10343	0.2595	0.040586	0.16535	0.23159	0.26192	0.067129	0.22187	0.08335	0.2479	0.13603	0.080701	0.062128	0.24138	-1.7188	-2.6	-1.4625	-2.3958	-2.2604	-1.6333	-2.4854	-2.0542	-1.825	-2.5958	-1.8875	-2.3479	-2.6083	-1.8146	-2.6333	-2.1333	-1.305	81.562	-6.680	233.645	217.043	212.181	183.299	137.308	-104.733	-95.891	2.493	225.861	-53.817	186.715	52.178	92.239	0.0011211	0.00016624	0.0002944	801.06	6.0718e-06	4.2449e-06	1090.5	274.92	6.4168e-06	4.6297e-06	459.86	199.93	112.56	58.832	6.5602e-06	96.327	0.00091468	0.00088929	0.00025287	825.25	9.9579e-06	9.5336e-06	1088	283.92	9.8043e-06	9.7061e-06	457.98	193.25	122.06	57.413	1.026e-05	91.919	66.853	-67.970	133.125	-102.333	-32.974	-25.458	-102.940	-97.371	-12.718	228.715	-98.456	-95.205	-93.525	-88.335	125.073	-91.419	-8191	255	
3117.769	1	1	0	0	0.08662	0.26287	0.20743	0.036764	0.17761	0.058222	0.11065	0.14826	0.092815	0.19202	0.19787	0.15439	0.1756	0.30446	0.065914	0.36609	-1.2771	-2.5229	-1.6146	-2.3792	-2.5667	-1.6083	-2.5583	-2.15	-1.5042	-2.6458	-2.1521	-2.1583	-2.5896	-1.6667	-2.1937	-2.0979	-17.731	190.600	177.610	173.861	195.580	7.731	235.058	173.313	-32.877	221.518	224.944	184.770	-55.205	242.961	88.232	196.427	0.0011424	0.00082798	0.00031247	794.23	1.7406e-05	9.0651e-06	1087	275.96	6.2671e-06	1.2135e-06	457.2	198.37	109.89	58.907	4.6832e-06	96.014	0.00089807	0.00087925	0.00025757	816.92	9.8787e-06	9.5742e-06	1084.1	281.61	9.7124e-06	9.7977e-06	457.34	191.41	121.13	57.2	1.0427e-05	91.208	55.943	-13.850	159.488	-102.509	-81.682	169.351	-102.683	-97.140	-32.363	-112.289	-98.690	-95.225	-93.458	-88.401	-36.032	-91.589	-8191	255	
3117.865	1	1	0	0	0.27447	0.30306	0.1072	0.31053	0.38924	0.11571	0.39302	0.062248	0.30826	0.10542	0.38886	0.22781	0.12513	0.086995	0.17426	0.18223	-1.3146	-2.5438	-1.8833	-2.0146	-2.5458	-1.7875	-2.4375	-2.1792	-1.6313	-2.6604	-1.975	-1.9458	-2.3854	-1.6875	-2.3479	-2.2313	208.349	34.740	-8.515	-71.554	139.857	170.570	154.365	-96.622	-36.713	-56.055	173.151	-97.760	50.478	108.451	-16.712	199.296	0.0014314	0.00090938	0.00013155	794.5	1.3769e-05	5.125e-06	1086.1	273.28	3.8222e-06	2.0592e-06	451.68	195.95	109.64	58.156	1.3877e-05	95.094	0.00089272	0.00091017	0.00026216	814.56	9.7783e-06	9.8253e-06	1082.6	279.71	9.624e-06	9.9866e-06	455.2	189.55	119.71	56.988	1.0334e-05	90.783	91.282	53.149	-112.309	-102.304	-3.483	-44.949	-102.735	-97.711	210.882	54.533	-98.814	-95.241	-93.385	-88.915	-28.136	-91.891	-8191	255	
3117.960	1	1	0	0	0.19774	0.16295	0.16449	0.15128	0.10386	0.11734	0.20198	0.10675	0.14366	0.05937	0.26642	0.25539	0.25146	0.18634	0.18504	0.20302	-1.3896	-2.6021	-1.9937	-1.9146	-2.5208	-1.575	-2.2938	-2.3229	-1.8083	-2.6833	-2.0271	-1.8979	-2.3563	-1.6771	-2.0229	-2.5479	16.148	39.050	125.951	170.970	141.882	138.309	234.806	224.372	-78.376	96.537	-87.397	-87.647	142.019	181.453	-3.034	214.997	0.0016279	0.00060048	0.0006452	795.86	4.17e-06	2.9979e-06	1083.9	270.94	4.6384e-06	3.0309e-06	454.22	196.34	109.87	58.387	1.2484e-05	95.943	0.000882	0.00092447	0.00026126	812.13	9.775e-06	1.0093e-05	1080.4	277.99	9.5465e-06	1.0238e-05	453.65	189.11	119.34	57.345	9.9466e-06	91.238	64.010	200.058	-80.283	-102.182	-25.493	83.724	-102.983	-97.228	235.360	108.610	-98.512	-95.200	-93.667	-88.614	-45.265	-91.699	-8191	255	
3118.080	1	1	0	0	0.04845	0.24913	0.19432	0.22418	0.19968	0.13039	0.31053	0.17929	0.047403	0.19244	0.21015	0.32817	0.16615	0.085178	0.1673	0.19428	-1.1812	-2.3292	-2.0979	-1.8979	-2.7083	-1.8625	-2.3438	-2.575	-1.4354	-2.5083	-2.1937	-1.825	-2.6833	-2.0292	-2.0604	-2.7104	190.675	-14.515	-104.067	-111.368	114.079	-39.239	219.822	186.534	153.993	-97.991	-43.622	212.383	-25.127	170.339	-92.296	229.446	0.0014982	0.0012331	0.00029358	792.57	3.838e-06	3.6106e-06	1082.1	272.29	7.1475e-06	4.288e-06	450.9	192.82	108.25	58.018	1.7662e-06	95.392	0.00087816	0.00093277	0.00025593	807.9	9.7602e-06	1.0286e-05	1077.9	277.05	9.6813e-06	1.035e-05	449.86	186.99	119.4	56.903	9.9189e-06	90.315	70.999	-85.062	-29.939	-102.631	160.390	106.656	-102.615	-97.553	11.495	35.851	-98.790	-95.339	-93.847	-89.100	236.955	-91.720	-8191	255	
3118.177	1	1	0	0	0.14459	0.23703	0.18875	0.072804	0.094539	0.27321	0.30597	0.077059	0.21065	0.18201	0.28909	0.18178	0.17151	0.021086	0.26871	0.43595	-1.2854	-2.2687	-2.3875	-1.7104	-2.5354	-1.8875	-2.1271	-2.5542	-1.5896	-2.3667	-2.4062	-1.8458	-2.5854	-2.1354	-2.0104	-2.7604	207.605	35.053	-11.189	204.238	-44.917	-76.181	210.908	211.826	-34.104	-7.633	160.787	187.850	-55.638	-88.002	217.571	171.215	0.0018115	0.00075472	9.0571e-05	795.1	8.299e-06	3.7598e-06	1080.4	270.56	9.2755e-06	1.9216e-05	447.49	192.75	108	57.977	6.9025e-06	95.214	0.00090916	0.00095017	0.00025438	807.44	1.0082e-05	1.0393e-05	1069.5	276.12	1.0047e-05	1.0346e-05	447.48	186.51	119.92	56.908	9.76e-06	90.154	62.201	-10.542	92.322	-102.566	68.056	28.143	-103.080	-97.730	186.851	25.490	-98.741	-95.532	-93.244	-89.170	54.909	-91.601	-8191	255	
3118.273	1	1	0	0	0.086525	0.10622	0.25508	0.19149	0.1539	0.26526	0.186	0.35011	0.1298	0.1105	0.16809	0.15941	0.20647	0.15384	0.22652	0.40685	-1.3937	-2.2479	-2.3104	-1.5562	-2.4313	-1.9604	-2.0417	-2.5896	-1.6208	-2.0646	-2.4208	-1.3958	-2.3312	-2.2812	-1.4646	-2.5938	136.585	233.689	-86.609	218.671	3.720	131.583	221.051	222.273	235.171	-61.038	149.195	200.356	-3.195	63.190	-20.853	168.986	0.0012074	0.0011318	0.00022197	787.68	3.9631e-06	1.2543e-05	1072.4	268.44	6.1715e-06	1.708e-05	446.93	192.05	109.13	58.163	1.397e-05	95.046	0.00091937	0.00092822	0.00024792	803.61	1.0215e-05	1.0239e-05	1064.9	274.72	1.0179e-05	1.0067e-05	446.68	185.88	120.83	56.636	9.5883e-06	90.168	45.020	-65.602	242.916	-102.307	216.663	49.809	-102.577	-97.444	117.335	7.294	-98.893	-95.297	-93.719	-88.835	34.237	-91.673	-8191	255	
3118.344	1	1	0	0	0.098693	0.018232	0.21242	0.26176	0.05985	0.29058	0.071392	0.27434	0.090509	0.099336	0.21754	0.15546	0.15234	0.12174	0.055717	0.093237	-1.2938	-2.0021	-2.4542	-1.7417	-2.6	-2.3104	-1.9	-2.7792	-2.0312	-2.0333	-2.6542	-1.7479	-2.2917	-2.3563	-1.3396	-2.5563	178.263	-20.043	96.058	-72.331	240.110	191.234	-32.303	156.585	135.531	203.493	-63.782	230.266	234.872	200.165	6.584	105.121	0.0016492	0.00077525	0.00013904	784.9	7.0162e-06	1.3146e-06	1071.3	269.4	1.0358e-05	7.5351e-06	446.33	193.17	107.85	57.732	1.3927e-05	95.005	0.00094515	0.0009116	0.00024485	800.32	1.0239e-05	9.8754e-06	1061.1	274.89	1.0284e-05	9.7221e-06	444.28	186.78	120.06	56.465	9.4712e-06	90.174	40.584	-47.340	188.843	-102.511	-48.748	135.336	-103.333	-97.614	-95.982	99.546	-99.154	-95.474	-93.522	-89.276	-18.099	-92.137	-8191	255	
3118.465	1	1	0	0	0.23724	0.088478	0.26071	0.21709	0.10128	0.11597	0.24167	0.093373	0.30568	0.14714	0.13617	0.15328	0.13007	0.21672	0.28326	0.13921	-1.2313	-1.7167	-2.5667	-1.6729	-2.2083	-2.2333	-1.7563	-2.4083	-1.9271	-1.8042	-2.7146	-1.7708	-2.0812	-2.4271	-1.5417	-2.725	83.954	-97.712	32.683	173.761	90.819	116.221	212.338	209.042	163.790	188.773	179.519	-79.276	-8.856	201.054	-76.740	11.361	0.00081388	0.0010009	0.00043676	784	1.1782e-05	1.549e-05	1076.5	266.6	7.322e-07	8.0147e-07	446.48	192.32	107.61	57.488	1.0322e-05	94.574	0.00093029	0.00088936	0.00024412	801.39	1.0255e-05	9.7859e-06	1064.8	274.69	1.026e-05	9.689e-06	445.17	186.37	119.35	56.264	9.4399e-06	90.298	94.237	-98.193	230.243	-102.691	38.161	-27.446	-102.854	-97.514	-88.851	226.501	-98.866	-95.747	-94.087	-89.084	136.862	-91.917	-8191	255	
3118.561	1	1	0	0	0.11373	0.18769	0.09697	0.23933	0.20669	0.27675	0.18173	0.021932	0.13337	0.38415	0.30909	0.27775	0.22137	0.29251	0.22331	0.28564	-1.775	-1.6354	-2.5375	-1.7396	-2.125	-2.3896	-1.7792	-2.5521	-1.9875	-1.6479	-2.6312	-1.8271	-1.9271	-2.5812	-1.4667	-2.3958	-6.838	216.077	-3.461	234.154	137.212	200.107	-36.534	79.903	59.498	228.326	139.072	194.974	-18.540	167.911	-95.647	244.026	0.0012207	0.00065741	0.00024555	778.22	1.3014e-05	6.7908e-06	1066.1	267.17	4.1379e-06	9.8072e-06	445.35	191.62	107.11	57.422	1.2448e-06	95.149	0.00092598	0.00087777	0.00024471	800.62	1.0003e-05	9.6894e-06	1059	274.99	1.0071e-05	9.4947e-06	443	185.89	117.75	56.158	9.525e-06	90.564	55.951	141.391	-54.593	-102.468	16.442	-38.530	-102.986	-97.548	-41.783	30.861	-98.542	-95.434	-94.146	-89.232	99.367	-91.789	-8191	255	
3118.657	1	1	0	0	0.18005	0.15254	0.13223	0.04598	0.23506	0.064351	0.17156	0.18321	0.10739	0.11558	0.10752	0.23915	0.35326	0.18912	0.14339	0.32819	-1.8292	-1.65	-2.5521	-2.0021	-1.9104	-2.7625	-1.8375	-2.3958	-2.2062	-1.7604	-2.7625	-1.9354	-1.9229	-2.6542	-1.6313	-2.1813	123.566	16.859	237.144	161.269	-107.504	-60.702	196.277	222.395	128.041	-7.849	120.207	123.330	-74.565	232.011	-72.825	-101.235	0.0013786	0.0011503	0.00017917	771.71	4.4532e-06	3.3066e-06	1062.1	263.88	5.4377e-06	2.2389e-06	444.25	190.84	105.59	57.536	8.1169e-06	95.463	0.0009081	0.00085834	0.00024652	796.67	9.6089e-06	9.5408e-06	1053.5	271.97	9.7445e-06	9.3393e-06	442.65	184.82	116.01	55.972	9.7523e-06	90.595	99.498	-56.699	123.090	-102.518	-98.200	-4.066	-102.976	-97.507	53.604	70.503	-99.022	-95.316	-93.264	-88.765	159.845	-91.433	-8191	255	
3118.753	1	1	0	0	0.13661	0.1727	0.25626	0.19419	0.15904	0.079958	0.43382	0.089691	0.20509	0.27307	0.13182	0.33782	0.21809	0.28798	0.11759	0.17147	-2.0812	-1.5646	-2.3458	-1.9542	-1.65	-2.5583	-1.7896	-2.0604	-2.2583	-1.6083	-2.4479	-2.0792	-1.85	-2.5896	-1.7479	-2.1771	68.455	-24.853	113.806	-85.054	146.887	188.724	126.150	40.159	49.652	8.906	227.151	139.906	-44.953	227.331	61.781	167.074	0.001467	0.0012902	0.00060254	764.58	9.2205e-06	1.514e-05	1055.9	262.55	1.1567e-05	6.1579e-06	440.87	189.82	105.86	57.469	4.5745e-06	95.741	0.0008867	0.00084814	0.00024991	785.92	9.4354e-06	9.4107e-06	1051.3	269.54	9.5467e-06	9.2391e-06	442.66	184.12	115.81	56.081	9.8859e-06	90.445	73.314	-26.426	-12.060	-102.214	-33.940	22.630	-102.786	-97.284	-88.618	228.138	-98.484	-95.000	-93.151	-88.685	234.343	-91.596	-8191	255	
3118.872	1	1	0	0	0.21468	0.19348	0.32566	0.20883	0.12059	0.19969	0.17125	0.095637	0.26415	0.11428	0.1708	0.30457	0.20941	0.053351	0.29513	0.061833	-2.2938	-1.5375	-2.2958	-1.9771	-1.5917	-2.4521	-1.8687	-1.9104	-2.4292	-1.4583	-2.2542	-2.0896	-1.4771	-2.6688	-1.8667	-2.2979	52.778	166.293	122.334	-30.752	-101.554	115.144	233.306	167.101	34.165	187.274	171.776	205.803	112.541	-39.024	22.078	128.775	0.00058153	0.00061873	8.5992e-05	754.09	1.0658e-05	5.5965e-06	1052.3	260.33	6.4682e-06	4.6673e-06	444.25	190.86	107.03	57.976	1.1208e-05	96.393	0.00087887	0.00086291	0.00025348	777.67	9.4048e-06	9.5568e-06	1049.9	268.11	9.5162e-06	9.4808e-06	444.34	185.07	116.11	56.682	1.0045e-05	90.919	57.853	-85.957	225.326	-102.333	9.864	164.583	-102.711	-97.236	-108.149	-33.033	-98.237	-95.069	-93.964	-88.729	19.078	-91.736	-8191	255	
3118.946	1	1	0	0	0.11947	0.21296	0.14793	0.19626	0.28841	0.23043	0.035793	0.078992	0.0862	0.12863	0.12158	0.15939	0.10026	0.33495	0.24656	0.11559	-1.9854	-1.4896	-2.0687	-2.2396	-1.3937	-2.3792	-1.7812	-1.8687	-2.5187	-1.55	-2.5271	-2.5187	-1.7958	-2.725	-2.1146	-2.0625	178.184	208.953	-5.737	175.182	-86.587	12.335	151.943	188.774	-47.750	-27.202	49.791	235.255	-112.765	174.974	-38.683	-57.449	0.0020401	0.00014201	0.00022385	759.44	4.473e-06	4.5945e-06	1058	262.8	5.8356e-06	4.0968e-06	446.25	192.22	106.05	58.306	4.2642e-06	96.645	0.0008757	0.00088082	0.00025441	780.58	9.4087e-06	9.8758e-06	1054	268.54	9.436e-06	9.7662e-06	445.51	185.41	116.03	57.071	9.8915e-06	91.279	69.269	-97.627	45.160	-102.660	-36.629	-70.975	-103.119	-97.457	51.729	210.388	-98.625	-95.151	-93.347	-89.040	113.402	-91.826	-8191	255	
3119.042	1	1	0	0	0.47201	0.1181	0.0227	0.30117	0.12935	0.10097	0.3476	0.16322	0.13543	0.24497	0.256	0.19554	0.24139	0.096417	0.2157	0.30963	-2.1937	-1.6938	-2.1521	-2.4688	-1.7729	-2.3937	-1.9646	-1.8563	-2.5083	-1.8958	-2.1896	-2.5312	-1.8458	-2.5458	-1.9667	-1.6417	96.942	95.831	151.442	126.895	132.843	139.820	162.874	148.413	83.327	10.293	213.997	84.215	113.554	-94.068	222.893	225.903	0.0016168	0.0013126	0.00043494	757.85	7.5907e-06	7.2361e-06	1053.3	263.48	6.2831e-06	3.3106e-06	446.17	192.8	107.14	58.679	7.8577e-06	96.417	0.00086071	0.00090603	0.00024714	780.84	9.2758e-06	9.9564e-06	1052.3	268.75	9.5568e-06	1.0041e-05	443.64	186.12	116.43	57.266	9.8041e-06	91.025	55.818	16.551	-84.939	-102.599	68.298	189.252	-103.094	-97.129	225.692	-14.840	-98.664	-95.466	-94.108	-88.929	-15.741	-91.783	-8191	255	
3119.161	1	1	0	0	0.24482	0.17085	0.11241	0.26688	0.13057	0.24873	0.18967	0.076206	0.090105	0.083754	0.22885	0.11129	0.21006	0.38753	0.1201	0.10837	-2.2083	-1.6187	-2.1458	-2.7062	-1.65	-2.2458	-2.0833	-1.8854	-2.4604	-1.8375	-1.7687	-2.7396	-1.6437	-2.4167	-2.2333	-1.8833	-79.296	174.025	184.906	198.162	124.618	38.033	188.307	171.932	48.863	109.751	203.200	145.345	85.110	192.919	71.615	154.987	0.0013339	0.00093724	0.0005149	759.13	5.9812e-06	1.6428e-06	1053.1	263.54	8.9212e-06	1.1937e-05	443.22	192	106.14	58.442	3.4541e-06	96.205	0.00087774	0.00092066	0.00024477	779.39	9.4952e-06	1.0059e-05	1048.8	267.85	9.828e-06	1.0239e-05	441.67	185.52	117.33	57.138	9.7358e-06	91.037	71.335	92.384	-88.373	-102.151	90.689	-82.108	-102.735	-97.333	29.419	31.045	-98.847	-95.374	-94.024	-88.905	174.512	-91.917	-8191	255	
3119.257	1	1	0	0	0.20981	0.18977	0.12713	0.12046	0.26046	0.16226	0.078354	0.061093	0.37397	0.072271	0.059247	0.183	0.24741	0.35824	0.41073	0.10318	-1.9479	-1.9646	-1.7146	-2.5083	-1.5146	-2.1312	-2.4646	-1.7354	-2.5917	-2.0187	-1.8854	-2.6875	-1.6333	-2.2521	-2.2583	-1.5354	-86.116	-71.302	128.628	212.354	153.251	12.517	91.206	-33.087	2.051	-8.266	-67.654	1.273	236.212	213.044	136.442	-109.682	0.0013225	0.0011735	0.00050054	755.7	1.1192e-06	6.2418e-06	1050.4	262.24	3.5499e-06	1.0108e-05	445.42	192.84	106.79	58.462	1.1688e-05	96.951	0.00090976	0.00093155	0.00024272	777.45	9.9007e-06	1.0076e-05	1047.9	267.26	1.0024e-05	9.9983e-06	441.46	185.92	118.49	57.159	9.6582e-06	91.58	66.991	40.312	-76.156	-102.407	27.062	0.963	-103.137	-97.821	55.576	19.914	-98.679	-95.646	-94.074	-89.051	2.553	-91.758	-8191	255	
3119.353	1	1	0	0	0.57767	0.22902	0.16175	0.15445	0.19583	0.09228	0.25117	0.19109	0.18739	0.10242	0.2075	0.14415	0.18315	0.20092	0.18633	0.40342	-2.0583	-1.9875	-1.6104	-2.625	-1.8875	-2.3771	-2.7583	-1.8396	-2.5146	-2.275	-1.8542	-2.5687	-1.9229	-2.1604	-2.6708	-1.6771	227.398	106.053	217.445	113.192	124.080	120.558	-107.526	-79.888	229.589	-7.787	172.882	196.961	227.153	123.163	-0.180	146.244	0.0015104	0.0015029	5.9518e-05	757.45	3.1443e-06	7.2049e-06	1051.3	259.3	8.8079e-06	1.1583e-05	446.32	191.22	105.22	58.585	1.9927e-06	96.921	0.00092169	0.00090919	0.00023954	776.15	1.0064e-05	9.7755e-06	1043.5	266.35	1.0127e-05	9.9069e-06	441.43	186.31	118.36	57.197	9.5576e-06	92.053	50.216	-13.146	132.353	-102.331	-111.728	-6.323	-103.152	-97.286	-85.454	2.830	-98.608	-95.218	-93.587	-88.502	-82.242	-91.471	-8191	255	
3119.474	1	1	0	0	0.20154	0.19714	0.14791	0.050741	0.23002	0.076704	0.224	0.17024	0.11585	0.068392	0.090433	0.12791	0.17333	0.015055	0.1185	0.2382	-1.9833	-2.3542	-1.5187	-2.5521	-1.6771	-2.0771	-2.8667	-1.7667	-2.2104	-2.2583	-2.0083	-2.5812	-1.775	-1.9042	-2.5833	-1.9292	180.356	46.929	-104.555	229.527	4.321	199.088	189.756	144.748	-10.762	-61.595	179.296	-55.017	181.381	-97.621	182.168	170.141	0.0014682	0.0010342	0.00023622	752.21	8.4783e-06	7.3796e-06	1047.4	259.17	5.06e-06	7.6117e-06	443.99	192.03	106.02	58.389	9.2803e-06	96.897	0.00092866	0.00089178	0.00023807	775.9	1.0197e-05	9.6713e-06	1042	267.25	1.01e-05	9.705e-06	440.4	186.41	118.39	56.965	9.478e-06	91.842	81.667	-28.559	-38.395	-102.269	53.151	35.580	-102.787	-97.605	160.185	29.861	-98.976	-95.393	-93.339	-88.692	77.778	-91.769	-8191	255	
3119.570	1	1	0	0	0.085828	0.18539	0.058975	0.21627	0.27747	0.094498	0.30723	0.37646	0.076715	0.13188	0.30558	0.24092	0.08518	0.37062	0.053521	0.18536	-1.875	-2.5875	-1.525	-2.5563	-2.2583	-2.0083	-2.8625	-1.8687	-2.1396	-2.5187	-1.5458	-2.6917	-2.0979	-1.8271	-2.5208	-1.9417	61.398	15.845	194.886	-47.972	-71.713	-75.436	221.141	214.277	-52.418	243.946	222.851	213.177	-41.043	223.906	-85.120	-114.910	0.00087832	0.0010149	0.00035672	754.78	3.4807e-06	1.6766e-06	1047.9	259.27	4.2722e-06	3.0496e-06	442.58	191.49	105.9	58.482	1.1272e-05	97.064	0.00092017	0.00087901	0.00023752	776.85	1.0067e-05	9.5299e-06	1040	267.67	9.9495e-06	9.7036e-06	439.84	186.05	117.71	56.902	9.5954e-06	92.028	98.813	113.269	38.572	-102.282	105.407	107.055	-102.575	-97.419	100.649	59.906	-98.724	-95.050	-93.741	-88.788	22.630	-91.834	-8191	255	
3119.642	1	1	0	0	0.24577	0.068055	0.12276	0.29258	0.20896	0.1132	0.10735	0.06971	0.33443	0.097031	0.25107	0.076055	0.16642	0.15974	0.24853	0.19319	-1.5333	-2.3312	-1.3458	-2.5187	-2.0458	-1.8813	-2.7646	-1.7208	-1.9021	-2.5333	-1.8979	-2.4146	-2.3979	-1.8208	-2.5917	-1.9458	88.972	169.642	-36.449	226.654	-108.865	25.614	242.642	-51.568	36.127	-74.065	189.961	-93.713	-64.394	-74.246	-73.063	209.913	0.0012218	0.00016213	0.00024495	754.97	4.4407e-06	1.3124e-05	1049.4	258.99	1.4646e-05	8.0479e-06	443.16	192.84	105.74	58.498	1.1909e-05	97.462	0.00090122	0.00087771	0.0002413	779.18	9.8385e-06	9.3992e-06	1043.1	267.59	9.6869e-06	9.5262e-06	441.63	186.8	116.91	56.82	9.6711e-06	92.473	71.252	227.919	0.225	-102.385	45.227	-81.820	-102.725	-97.483	-5.198	38.255	-98.478	-95.350	-93.424	-88.922	33.055	-91.981	-8191	255	
3119.762	1	1	0	0	0.10147	0.21077	0.17716	0.097382	0.18903	0.14745	0.17014	0.13317	0.12808	0.14235	0.29461	0.15188	0.096359	0.37003	0.1504	0.13295	-1.5312	-2.4458	-1.5688	-2.4458	-2.1229	-1.6146	-2.7208	-2.1042	-1.8937	-2.5229	-1.7208	-2.1479	-2.2667	-1.7604	-2.7167	-2.4229	-11.318	143.478	222.764	170.958	224.596	177.796	190.984	-89.650	41.568	44.426	-27.533	164.492	179.341	193.153	198.666	-91.721	0.0013618	0.00012781	2.0041e-05	755.62	1.4694e-05	3.2355e-06	1055.3	258.72	1.0224e-05	7.5534e-06	444.04	191.84	105.24	58.533	7.4159e-06	97.279	0.00088647	0.00086626	0.00024701	778.15	9.6255e-06	9.2298e-06	1048.1	267.19	9.528e-06	9.4114e-06	443.14	186.36	116.57	56.87	9.8421e-06	92.099	85.770	234.100	-108.473	-102.353	30.727	-42.666	-103.168	-97.741	2.633	-59.120	-99.021	-95.550	-94.225	-89.031	-23.099	-92.207	-8191	255	
3119.857	1	1	0	0	0.15961	0.19364	0.059003	0.086001	0.14275	0.17573	0.3541	0.22163	0.4658	0.063766	0.2326	0.091421	0.20112	0.18442	0.1372	0.15748	-1.525	-2.3958	-1.6562	-2.3229	-2.4917	-1.7021	-2.6167	-2.2146	-1.8104	-2.5396	-1.85	-2.1583	-2.5917	-1.6125	-2.4	-2.3042	139.703	-75.335	142.869	164.625	15.603	-25.393	167.993	157.423	-107.533	-59.591	196.778	-114.543	171.754	-85.754	118.810	-105.077	0.0015267	0.00093254	0.00029193	756.38	2.1176e-06	3.398e-06	1052.6	259.11	7.0323e-06	1.2174e-05	443.98	193.12	105.48	58.399	8.0293e-06	96.756	0.00086415	0.00086976	0.00025297	777.91	9.5691e-06	9.3525e-06	1051.9	266.96	9.4768e-06	9.6e-06	443.41	185.99	116.51	56.815	1.0155e-05	91.803	69.348	-99.533	24.242	-102.700	127.483	29.692	-103.249	-97.634	19.494	-62.755	-99.291	-95.501	-93.884	-89.034	19.657	-92.097	-8191	255	
3119.953	1	1	0	0	0.065424	0.012603	0.049495	0.21303	0.2502	0.077979	0.3472	0.35065	0.1549	0.36296	0.11464	0.31609	0.18192	0.22543	0.067752	0.021072	-1.3	-2.5479	-1.7479	-1.9833	-2.4062	-1.6729	-2.325	-2.3792	-1.825	-2.5687	-2.1417	-1.9188	-2.4208	-1.7917	-2.3146	-2.4833	-44.062	211.603	-92.008	-86.700	4.401	-41.055	137.017	231.143	100.642	0.247	-86.830	202.012	102.010	-100.434	-104.336	-16.001	0.0012174	0.00064928	0.00029965	758.87	1.0683e-05	7.495e-06	1053.9	257.71	6.7847e-06	1.6901e-05	441.94	191.96	105.24	58.421	5.8899e-06	96.689	0.00086153	0.0008841	0.00025662	776.5	9.6002e-06	9.6865e-06	1051.1	266.43	9.3786e-06	9.7176e-06	442.79	184.92	115.82	56.932	1.0047e-05	91.691	71.280	237.583	160.363	-102.706	-10.425	225.307	-103.468	-97.498	-10.410	-74.870	-99.026	-95.283	-93.623	-89.226	28.968	-91.757	-8191	255	
3120.049	1	1	0	0	0.31481	0.24615	0.37317	0.2507	0.13281	0.27386	0.16343	0.10449	0.090176	0.26216	0.26914	0.077429	0.018644	0.34207	0.21906	0.15083	-1.2979	-2.5083	-1.9813	-1.9021	-2.4333	-1.6812	-2.2458	-2.4354	-1.5354	-2.4646	-1.9562	-1.6792	-2.5312	-1.7333	-2.2313	-2.8187	-87.566	-49.522	73.859	-106.169	127.928	95.492	239.177	238.082	28.941	158.167	93.561	108.088	-96.368	169.478	54.681	-95.339	0.00074836	0.0005779	0.00034453	751.74	7.2036e-06	3.6741e-06	1046.4	259.19	7.6846e-06	1.3801e-05	440.73	190.82	105.46	58.07	1.5362e-05	96.8	0.00086313	0.0009095	0.00025715	772.24	9.5388e-06	9.9367e-06	1047.1	265.56	9.4673e-06	1.0058e-05	443.05	185.02	116.52	56.941	9.9385e-06	91.598	49.093	-105.365	101.464	-102.734	121.004	-30.389	-103.253	-98.217	29.454	97.356	-99.483	-95.758	-93.957	-89.556	12.382	-92.301	-8191	255	
3120.170	1	1	0	0	0.037418	0.11469	0.18301	0.017037	0.013899	0.14723	0.1945	0.04847	0.17213	0.26176	0.30992	0.2254	0.094304	0.25378	0.082888	0.22096	-1.1812	-2.3521	-2.0792	-1.8833	-2.7188	-1.6542	-2.1708	-2.6	-1.4937	-2.3083	-2.1	-1.7583	-2.6021	-1.7604	-1.8979	-2.6813	140.812	118.171	236.610	-59.854	198.981	-105.390	108.948	55.275	-40.872	103.803	196.612	112.996	-115.298	163.069	-19.043	209.041	0.0015661	0.00060738	9.4198e-05	755.16	7.8609e-06	7.1214e-06	1052.2	258.26	8.0341e-06	9.953e-06	439.28	190.86	105.07	57.842	3.6112e-06	96.316	0.00087388	0.00092623	0.00025397	774.69	9.6928e-06	1.0149e-05	1047	265	9.5914e-06	1.022e-05	440.56	184.42	116.24	56.808	9.6784e-06	90.802	65.704	-82.858	81.240	-103.020	1.177	0.110	-103.176	-98.097	89.377	-5.393	-99.134	-95.767	-94.105	-89.444	-49.519	-92.274	-8191	255	
3120.241	1	1	0	0	0.28993	0.11614	0.099596	0.29694	0.28433	0.096312	0.16207	0.17647	0.15962	0.027504	0.2519	0.24112	0.10054	0.47491	0.31225	0.087756	-1.3125	-2.4688	-2.2042	-1.7	-2.5271	-2.0042	-2.0646	-2.5104	-1.5792	-2.2521	-2.5229	-1.5938	-2.4958	-2.1042	-1.625	-2.6583	78.265	222.044	215.406	232.417	134.927	-37.184	-112.521	142.135	88.115	-72.416	113.915	189.419	-0.149	-101.064	-44.642	141.700	0.0018607	0.001039	0.00016785	753.67	2.8367e-06	1.6563e-06	1051.1	257.28	1.804e-05	1.075e-05	441.76	190.17	105.15	57.599	1.3545e-05	95.559	0.00089128	0.00093007	0.00024968	772.63	9.9066e-06	1.0092e-05	1043	264.86	9.9129e-06	1.0098e-05	438.53	183.65	117.41	56.496	9.5478e-06	90.472	49.977	-27.687	-88.391	-102.861	-88.329	24.733	-102.912	-97.975	-115.339	31.633	-98.617	-95.636	-93.763	-89.168	203.710	-91.973	-8191	255	
3120.337	1	1	0	0	0.13914	0.076593	0.15185	0.01449	0.30476	0.24043	0.092805	0.12584	0.22929	0.17534	0.17769	0.1749	0.10951	0.21198	0.1908	0.13526	-1.3062	-2.3479	-2.3958	-1.7771	-2.3771	-1.925	-1.7062	-2.5625	-1.4875	-1.9646	-2.4375	-1.7458	-2.1562	-2.2875	-1.7104	-2.8688	-43.825	147.304	1.068	226.405	225.244	-100.107	-6.175	-19.998	193.305	225.428	174.268	233.816	177.329	238.357	216.686	173.580	0.001373	0.00053936	0.00022985	754.39	4.4872e-06	5.5778e-06	1049.5	258.02	6.2582e-06	1.4217e-05	437.7	189.4	104.18	57.424	9.2098e-06	95.272	0.00091475	0.00091497	0.00024533	776.5	1.0103e-05	1.0057e-05	1042.5	264.8	1.0109e-05	9.9502e-06	437.91	183.54	117.41	56.201	9.5966e-06	90.457	77.531	11.366	32.069	-102.604	17.299	9.505	-103.052	-97.702	-87.319	-15.850	-99.166	-95.736	-94.154	-89.525	186.433	-92.368	-8191	255	
3120.433	1	1	0	0	0.12781	0.17717	0.062871	0.081492	0.30072	0.12912	0.10396	0.18003	0.21974	0.23955	0.24959	0.17069	0.16719	0.2488	0.12747	0.1907	-1.4417	-2.0542	-2.6312	-1.8333	-2.5771	-2.1562	-1.7333	-2.4813	-1.6771	-1.9583	-2.7438	-1.6021	-2.2	-2.3021	-1.5438	-2.7896	201.950	-80.081	-7.536	27.512	34.158	103.333	196.000	208.466	116.762	125.693	-102.266	201.832	-67.493	195.856	238.696	232.456	0.0013052	0.0011329	0.00051631	761.96	6.1999e-06	7.5312e-06	1053.7	259	1.2305e-05	1.2217e-05	439.18	189.64	105.58	57.287	1.1052e-05	94.717	0.00094541	0.00090499	0.00024526	780.47	1.0205e-05	9.8805e-06	1045.5	266.28	1.0144e-05	9.6863e-06	437.54	183.75	117.9	55.961	9.3771e-06	90.186	85.872	-25.417	-9.472	-102.896	-20.546	-2.570	-103.524	-98.208	-47.171	-5.290	-99.067	-95.956	-93.963	-89.713	59.838	-92.452	-8191	255	
#DATA ENDS
