BOXY.EXE: ISS Imagent and Oximeter Data Acquisition Program Version 0.80
Ascii Record File

#ACQ INFORMATION
2  Detector Channels 
16  External MUX Channels 
1  Auxiliary Channels 
5000  Waveform (CCF) Frequency (Hz)
1  Waveforms Skipped 
30  Waveforms Averaged 
1  Cycles Averaged 
16  Acquisitions per Waveform 
10.0806  Updata Rate (Hz) 

#FILE INFORMATION
TRUE -- External MUX Channel results are PARSED.
FALSE -- AC DC and Phase are NOT grouped.
TRUE -- Companion Program Settings File CREATED.
FALSE -- AC data not excluded
FALSE -- DC data not excluded
FALSE -- Phase data not excluded
FALSE -- Auxillary Chn. data not excluded
Tab delimiters

#CALIBRATION STATE
TRUE -- Waveform Calibration Values APPLIED.


#AUX CALIBRATION VALUES
Val Type	aux-1	

Term	1.0000e+00	
Factor	0.0000e+00	


#WF CALIBRATION VALUES
A = Detector Channel
Val Type	A-AC1	A-AC2	A-AC3	A-AC4	A-AC5	A-AC6	A-AC7	A-AC8	A-AC9	A-AC10	A-AC11	A-AC12	A-AC13	A-AC14	A-AC15	A-AC16	A-DC1	A-DC2	A-DC3	A-DC4	A-DC5	A-DC6	A-DC7	A-DC8	A-DC9	A-DC10	A-DC11	A-DC12	A-DC13	A-DC14	A-DC15	A-DC16	A-Ph1	A-Ph2	A-Ph3	A-Ph4	A-Ph5	A-Ph6	A-Ph7	A-Ph8	A-Ph9	A-Ph10	A-Ph11	A-Ph12	A-Ph13	A-Ph14	A-Ph15	A-Ph16	

Term	0.00000e+00	0.00000e+00	0.00000e+00	0.00000e+00	0.00000e+00	0.00000e+00	0.00000e+00	0.00000e+00	0.00000e+00	0.00000e+00	0.00000e+00	0.00000e+00	0.00000e+00	0.00000e+00	0.00000e+00	0.00000e+00	0.00000e+00	0.00000e+00	0.00000e+00	0.00000e+00	0.00000e+00	0.00000e+00	0.00000e+00	0.00000e+00	0.00000e+00	0.00000e+00	0.00000e+00	0.00000e+00	0.00000e+00	0.00000e+00	0.00000e+00	0.00000e+00	0.00000e+00	0.00000e+00	0.00000e+00	0.00000e+00	0.00000e+00	0.00000e+00	0.00000e+00	0.00000e+00	0.00000e+00	0.00000e+00	0.00000e+00	0.00000e+00	0.00000e+00	0.00000e+00	0.00000e+00	0.00000e+00	
Factor	1.00000e+00	1.00000e+00	1.00000e+00	1.00000e+00	1.00000e+00	1.00000e+00	1.00000e+00	1.00000e+00	1.00000e+00	1.00000e+00	1.00000e+00	1.00000e+00	1.00000e+00	1.00000e+00	1.00000e+00	1.00000e+00	1.00000e+00	1.00000e+00	1.00000e+00	1.00000e+00	1.00000e+00	1.00000e+00	1.00000e+00	1.00000e+00	1.00000e+00	1.00000e+00	1.00000e+00	1.00000e+00	1.00000e+00	1.00000e+00	1.00000e+00	1.00000e+00	X	X	X	X	X	X	X	X	X	X	X	X	X	X	X	X	

B = Detector Channel
Val Type	B-AC1	B-AC2	B-AC3	B-AC4	B-AC5	B-AC6	B-AC7	B-AC8	B-AC9	B-AC10	B-AC11	B-AC12	B-AC13	B-AC14	B-AC15	B-AC16	B-DC1	B-DC2	B-DC3	B-DC4	B-DC5	B-DC6	B-DC7	B-DC8	B-DC9	B-DC10	B-DC11	B-DC12	B-DC13	B-DC14	B-DC15	B-DC16	B-Ph1	B-Ph2	B-Ph3	B-Ph4	B-Ph5	B-Ph6	B-Ph7	B-Ph8	B-Ph9	B-Ph10	B-Ph11	B-Ph12	B-Ph13	B-Ph14	B-Ph15	B-Ph16	

Term	0.00000e+00	0.00000e+00	0.00000e+00	0.00000e+00	0.00000e+00	0.00000e+00	0.00000e+00	0.00000e+00	0.00000e+00	0.00000e+00	0.00000e+00	0.00000e+00	0.00000e+00	0.00000e+00	0.00000e+00	0.00000e+00	0.00000e+00	0.00000e+00	0.00000e+00	0.00000e+00	0.00000e+00	0.00000e+00	0.00000e+00	0.00000e+00	0.00000e+00	0.00000e+00	0.00000e+00	0.00000e+00	0.00000e+00	0.00000e+00	0.00000e+00	0.00000e+00	-5.22979e+01	-1.31401e+02	-1.27387e+02	-1.86505e+02	-6.13448e+01	-7.12651e+01	-1.58503e+02	-1.62015e+02	-4.03188e+01	-6.21744e+01	-1.72214e+02	-1.70804e+02	-1.83130e+02	-1.77621e+02	-5.60251e+01	-1.49814e+02	
Factor	1.93190e-05	1.35518e-04	4.06246e-05	2.79546e-01	1.64517e-06	1.55312e-06	1.54144e-01	4.69497e-02	1.34744e-06	1.52949e-06	7.67261e-02	2.51976e-02	3.70919e-02	8.11970e-03	1.35890e-06	1.15767e-02	1.16172e-05	1.90905e-05	5.37808e-06	1.49305e-01	2.03382e-07	2.15170e-07	7.76414e-02	2.53288e-02	1.91294e-07	2.14695e-07	4.00858e-02	1.32187e-02	2.02554e-02	4.43163e-03	1.97942e-07	6.10325e-03	X	X	X	X	X	X	X	X	X	X	X	X	X	X	X	X	



#DISTANCE SETTINGS
A = Detector Channel
A-1	A-2	A-3	A-4	A-5	A-6	A-7	A-8	A-9	A-10	A-11	A-12	A-13	A-14	A-15	A-16	

2.5000e+00	3.0000e+00	2.5000e+00	3.0000e+00	2.0000e+00	3.0000e+00	1.5000e+00	3.0000e+00	3.0000e+00	3.0000e+00	3.0000e+00	3.0000e+00	3.0000e+00	3.0000e+00	1.5000e+00	3.0000e+00	

B = Detector Channel
B-1	B-2	B-3	B-4	B-5	B-6	B-7	B-8	B-9	B-10	B-11	B-12	B-13	B-14	B-15	B-16	

1.0000e+01	1.0000e+01	1.0000e+01	1.4400e+00	1.0000e+01	1.0000e+01	1.5100e+00	1.9400e+00	1.0000e+01	1.0000e+01	1.9900e+00	2.4900e+00	2.4100e+00	2.9000e+00	1.0000e+01	2.9800e+00	




#DATA BEGINS
time	group	step	mark	flag	A-AC1	A-AC2	A-AC3	A-AC4	A-AC5	A-AC6	A-AC7	A-AC8	A-AC9	A-AC10	A-AC11	A-AC12	A-AC13	A-AC14	A-AC15	A-AC16	A-DC1	A-DC2	A-DC3	A-DC4	A-DC5	A-DC6	A-DC7	A-DC8	A-DC9	A-DC10	A-DC11	A-DC12	A-DC13	A-DC14	A-DC15	A-DC16	A-Ph1	A-Ph2	A-Ph3	A-Ph4	A-Ph5	A-Ph6	A-Ph7	A-Ph8	A-Ph9	A-Ph10	A-Ph11	A-Ph12	A-Ph13	A-Ph14	A-Ph15	A-Ph16	B-AC1	B-AC2	B-AC3	B-AC4	B-AC5	B-AC6	B-AC7	B-AC8	B-AC9	B-AC10	B-AC11	B-AC12	B-AC13	B-AC14	B-AC15	B-AC16	B-DC1	B-DC2	B-DC3	B-DC4	B-DC5	B-DC6	B-DC7	B-DC8	B-DC9	B-DC10	B-DC11	B-DC12	B-DC13	B-DC14	B-DC15	B-DC16	B-Ph1	B-Ph2	B-Ph3	B-Ph4	B-Ph5	B-Ph6	B-Ph7	B-Ph8	B-Ph9	B-Ph10	B-Ph11	B-Ph12	B-Ph13	B-Ph14	B-Ph15	B-Ph16	aux-1	digaux	

14559.932	1	1	0	256	0.17007	0.38848	0.19966	0.11183	0.25887	0.034186	0.27132	0.24746	0.03574	0.067627	0.017596	0.053474	0.25645	0.17244	0.077861	0.11244	-1.9396	-2.1333	-1.8062	-2.7687	-1.7417	-2.2042	-2.5646	-1.8417	-2.4042	-2.4708	-1.7875	-2.575	-2.1667	-2.1021	-2.6833	-1.9646	99.713	80.168	143.091	217.193	-70.729	91.967	183.906	204.989	4.674	-102.393	173.495	-67.399	152.070	171.721	236.062	163.272	0.00016757	0.0012952	0.00010601	966.58	1.0042e-05	7.0844e-06	837.17	258.87	1.0262e-05	1.4754e-05	245.99	73.692	79.025	30.615	8.3001e-06	34.128	0.016568	0.027384	0.0078134	1126.7	0.0002901	0.00030984	904.51	283.65	0.00027241	0.00031011	290.56	89.136	103.82	35.602	0.00028429	41.166	-22.095	211.658	15.864	-110.286	176.800	89.262	-111.350	-104.924	14.014	38.746	-106.990	-102.181	-99.834	-94.339	53.595	-97.841	-8191	255	
14560.053	1	1	0	0	0.15279	0.14828	0.16248	0.20866	0.020176	0.29088	0.37141	0.13848	0.37135	0.068551	0.05034	0.18974	0.11488	0.11523	0.10563	0.17357	-1.9667	-2.2771	-1.7771	-2.6146	-1.9333	-2.1375	-2.7062	-1.7646	-2.3229	-2.4271	-1.875	-2.725	-2.0833	-2.1021	-2.7	-2.0438	-19.583	-32.589	7.901	-43.629	-48.932	27.918	159.307	-119.894	102.321	-29.596	-73.305	224.271	63.834	80.343	40.489	-116.756	0.00037248	0.00061912	0.00026802	964.92	4.6898e-06	2.0096e-05	835.46	259.23	2.898e-06	5.1917e-07	241.5	72.545	77.976	29.984	1.136e-05	33.589	0.016572	0.027429	0.0077982	1125.1	0.00028936	0.00031178	899.74	282.95	0.00027304	0.00031006	287.21	87.945	103.45	35.321	0.00028119	40.672	-83.082	-11.656	-13.656	-109.942	-30.919	133.418	-111.260	-104.762	132.988	29.896	-106.861	-102.011	-99.940	-94.500	-17.453	-98.299	-8191	255	
14560.147	1	1	0	0	0.13731	0.2171	0.15928	0.14022	0.16925	0.23598	0.10982	0.42462	0.20231	0.17505	0.18026	0.088846	0.18074	0.34739	0.20293	0.19413	-1.9479	-2.3812	-1.6333	-2.6146	-2.1542	-2.0771	-2.6896	-2.0438	-2.2438	-2.4417	-1.9729	-2.5854	-2.2042	-2.0812	-2.6937	-1.9042	236.293	14.563	105.237	208.525	193.364	-80.207	125.659	149.013	-21.600	105.140	85.242	209.652	196.776	178.917	145.915	127.771	9.4346e-05	0.0018823	0.00033282	968.38	5.7609e-06	2.4016e-05	826.27	259.49	9.6473e-06	3.0115e-05	240.74	72.331	77.327	30.457	1.565e-05	33.685	0.016634	0.027491	0.0077116	1122.5	0.00028918	0.00030952	896.09	282.45	0.00027165	0.00030736	285.51	87.663	103.61	35.557	0.00028127	40.844	234.325	34.082	-60.414	-110.646	98.420	44.900	-111.171	-104.721	-51.111	-4.209	-107.426	-101.758	-99.659	-94.378	154.331	-97.560	-8191	255	
14560.245	1	1	0	0	0.0761	0.13887	0.24688	0.13114	0.086826	0.17169	0.26418	0.17653	0.11194	0.10608	0.31021	0.043261	0.1141	0.3335	0.14287	0.25471	-1.8375	-2.4813	-1.8125	-2.4813	-2.25	-1.825	-2.7729	-2.1937	-2.1292	-2.4562	-1.8438	-2.5542	-2.4083	-1.9042	-2.7562	-2.0667	185.278	-109.715	145.682	52.745	175.551	-7.931	178.379	-55.511	-79.700	200.061	207.679	202.093	-103.544	140.746	177.204	77.849	0.00014325	0.00080433	0.00043973	971.02	2.6527e-05	1.4987e-05	828.05	257.14	8.4957e-06	1.0359e-05	240.82	72.555	78.315	30.478	1.6821e-05	33.738	0.016709	0.027464	0.0076644	1119.3	0.00029113	0.00030807	897.14	281.61	0.00027511	0.00030749	285.58	87.952	104.01	35.479	0.00027914	40.881	233.408	168.641	9.160	-110.518	10.476	38.948	-111.418	-105.213	3.433	0.771	-107.449	-102.456	-100.303	-94.945	76.076	-98.047	-8191	255	
14560.339	1	1	0	0	0.11164	0.14507	0.2564	0.27985	0.067022	0.22356	0.33854	0.18299	0.15202	0.20504	0.31718	0.29139	0.17014	0.33655	0.18391	0.12673	-1.6938	-2.6375	-1.8792	-2.3958	-2.5042	-1.85	-2.7354	-2.325	-1.8583	-2.6833	-1.9854	-2.3812	-2.4813	-1.7833	-2.3	-2.2229	34.947	21.541	51.506	130.717	-106.242	-36.889	159.764	-109.866	26.489	179.699	-118.364	-33.731	-8.494	67.087	178.000	214.782	0.00019997	0.0015892	0.00050574	961.79	2.4199e-05	8.0936e-06	836.98	258.37	2.3223e-05	6.6599e-06	244.54	73.054	78.245	30.55	9.0466e-06	34.259	0.016791	0.027272	0.0075602	1122.1	0.00029203	0.00030924	899.73	282.17	0.00027533	0.00030467	287.97	88.49	104.49	35.611	0.00027882	41.281	-4.498	-43.400	-9.244	-110.412	11.736	-102.835	-111.178	-105.177	-8.179	63.624	-107.189	-102.137	-99.769	-95.003	97.748	-98.426	-8191	255	
14560.436	1	1	0	0	0.089034	0.017798	0.093988	0.10205	0.233	0.1853	0.26062	0.30797	0.21097	0.116	0.17125	0.10262	0.38038	0.35839	0.22392	0.007633	-1.5604	-2.5458	-1.7188	-2.1354	-2.4062	-1.8042	-2.6729	-2.4542	-1.9604	-2.7771	-1.9625	-2.1312	-2.5	-1.8083	-2.4583	-2.3438	36.739	130.479	140.611	-90.384	127.149	-23.446	112.698	177.879	19.717	-108.195	185.935	-106.308	156.026	227.793	105.673	41.863	0.00028697	0.0015593	0.00022486	965.21	1.2903e-05	1.0061e-05	835.88	260.16	1.4419e-05	1.7239e-05	244.05	72.157	78.884	30.342	1.1856e-05	33.605	0.016855	0.027293	0.007627	1123.5	0.00029151	0.00030615	899.81	283.21	0.00027588	0.00030209	287.27	88.268	104.06	35.398	0.00027877	40.912	-109.750	26.039	37.604	-110.019	-46.350	118.605	-111.182	-104.834	134.191	51.166	-106.840	-102.447	-100.174	-94.768	-109.745	-97.963	-8191	255	
14560.532	1	1	0	0	0.058093	0.11719	0.37603	0.065682	0.16269	0.31195	0.35446	0.20278	0.12578	0.15225	0.12297	0.1785	0.22472	0.14456	0.091462	0.075113	-1.4792	-2.6146	-1.8875	-2.4042	-2.7333	-1.9292	-2.5104	-2.4208	-1.8542	-2.6875	-2.2021	-2.0958	-2.725	-1.9854	-2.4229	-2.4708	-35.775	-69.434	-3.841	-56.495	101.478	-7.490	209.919	193.659	201.000	-27.373	10.749	151.159	218.104	232.553	148.458	178.970	0.00025117	0.00089335	0.00012807	960.14	1.314e-05	3.0816e-05	826.36	257.11	8.6557e-06	6.6601e-06	244.45	72.4	77.82	30.244	1.4023e-05	33.513	0.016655	0.026814	0.0075481	1121.2	0.00028947	0.0003023	894.14	281.5	0.00027088	0.00030116	285.5	87.794	103.64	35.321	0.00027753	40.878	-44.662	11.220	-59.311	-110.261	212.484	2.730	-111.320	-104.693	25.707	59.032	-106.588	-101.346	-99.533	-94.481	-74.951	-97.668	-8191	255	
14560.652	1	1	0	0	0.21231	0.035096	0.10265	0.17852	0.2479	0.28328	0.057914	0.18427	0.15192	0.19357	0.13362	0.15315	0.27125	0.2808	0.13532	0.11648	-1.3479	-2.6542	-2.1292	-2.2479	-2.5875	-1.9167	-2.5229	-2.6729	-1.8625	-2.7062	-2.1625	-2.1896	-2.7104	-1.9292	-2.3	-2.4729	159.615	47.306	-3.228	202.375	60.514	19.230	-40.812	150.118	31.696	67.566	-41.193	-116.023	121.803	119.322	66.222	172.752	0.00030084	0.0016295	0.00012311	954.13	8.1683e-06	1.4716e-05	830.13	259.68	1.4471e-05	8.6967e-06	240.93	71.868	78.513	30.475	1.6076e-05	33.848	0.016516	0.026828	0.0075908	1118.3	0.00028728	0.00030014	895.51	282.66	0.00026983	0.00029961	285.33	87.665	103.56	35.488	0.00028102	41.003	-86.118	-24.713	49.875	-109.969	116.198	200.544	-110.645	-104.775	-118.059	-32.051	-106.782	-101.956	-99.903	-94.235	-89.804	-97.566	-8191	255	
14560.749	1	1	0	0	0.16147	0.11817	0.28096	0.24321	0.084368	0.13574	0.32904	0.16114	0.092331	0.35278	0.17506	0.17967	0.088501	0.064716	0.16222	0.18378	-1.4167	-2.4771	-2.2146	-2.0854	-2.575	-2.0354	-2.2917	-2.6458	-1.7354	-2.5396	-2.3771	-1.9667	-2.6125	-2.125	-2.0854	-2.7458	227.501	195.149	192.843	-94.040	-70.001	12.635	219.629	-89.307	-7.558	-113.741	1.008	-77.455	-119.269	-43.800	-121.533	131.777	6.4673e-05	0.0015607	0.00014695	960.97	4.4058e-06	6.9235e-06	834.03	258.34	2.2962e-05	1.4603e-05	243.86	72.417	78.839	30.778	9.11e-06	33.858	0.016476	0.026763	0.0076108	1121.9	0.00028701	0.00030081	900.02	282.68	0.00026912	0.0003015	287.33	88.234	103.88	35.712	0.00028381	41.249	211.036	181.538	105.407	-109.655	-82.926	147.106	-110.797	-104.625	59.904	129.126	-106.659	-102.130	-99.492	-94.434	89.807	-97.576	-8191	255	
14560.845	1	1	0	0	0.048522	0.11802	0.26001	0.10238	0.31457	0.062911	0.24267	0.27257	0.18902	0.030753	0.11288	0.26154	0.26271	0.20904	0.045606	0.15739	-1.5021	-2.2479	-2.4854	-1.9688	-2.8333	-2.1917	-2.2875	-2.8229	-1.9646	-2.4083	-2.3646	-1.8312	-2.6542	-2.2083	-1.9729	-2.8542	167.808	85.867	48.754	39.995	189.814	147.213	139.237	169.599	104.375	-0.235	-112.346	234.580	-35.242	129.441	42.250	226.442	0.00019213	0.00020521	0.00054837	964.35	1.4703e-05	1.3886e-05	837.25	262.37	1.375e-05	8.4841e-06	246.47	72.802	79.483	30.724	4.1371e-06	34.06	0.0164	0.026898	0.0076837	1123.2	0.00028381	0.00030533	903.54	284.03	0.00026682	0.00030295	289.49	88.529	103.99	35.696	0.00028292	41.156	-55.507	91.412	210.776	-110.115	77.168	12.327	-110.817	-104.365	0.955	232.123	-106.768	-101.916	-99.465	-94.160	15.790	-97.394	-8191	255	
14560.916	1	1	0	0	0.1045	0.066412	0.12106	0.072705	0.11385	0.20772	0.056457	0.094965	0.098681	0.17772	0.054447	0.19766	0.24436	0.14077	0.18219	0.1901	-1.4375	-2.4354	-2.6667	-1.8542	-2.5833	-2.2604	-2.1063	-2.7646	-2.0438	-2.4271	-2.7729	-2.0042	-2.5542	-2.4292	-1.85	-2.5854	-48.126	102.233	125.749	185.843	15.635	195.154	-59.593	208.836	184.393	196.124	69.611	-31.755	114.763	-28.223	-0.932	152.969	0.00017222	0.00010365	0.00032957	969.63	6.3905e-06	7.5166e-06	833.29	261.15	9.4031e-06	4.7551e-06	243.5	72.552	78.993	30.49	1.4996e-05	33.656	0.016295	0.026911	0.0076341	1118.3	0.00028449	0.00030409	898.03	283.18	0.00026544	0.00030267	287.46	87.789	103.69	35.552	0.00027936	40.82	-113.041	-64.450	-33.010	-110.301	112.812	147.829	-110.829	-104.182	99.833	-38.952	-106.580	-101.726	-99.774	-94.335	-44.670	-97.466	-8191	255	
14561.037	1	1	0	0	0.24144	0.12304	0.10834	0.17805	0.17685	0.096387	0.32938	0.29998	0.10615	0.2183	0.2423	0.059165	0.13387	0.227	0.078906	0.15982	-1.675	-2.0938	-2.6104	-1.8896	-2.4813	-2.2875	-2.0521	-2.7958	-2.0438	-2.1521	-2.7583	-1.9937	-2.3333	-2.2521	-1.7854	-2.9437	163.204	191.788	159.061	188.136	-104.508	134.892	166.027	221.956	20.557	-64.121	168.156	126.846	41.897	206.630	188.568	-96.188	0.00029224	0.00071994	0.00079136	961.4	1.4406e-06	2.7518e-05	833.25	260.47	1.1011e-05	1.0133e-05	243.01	72.812	78.824	30.387	6.6382e-06	33.889	0.016287	0.027099	0.0075772	1114	0.00028356	0.00030455	896.41	282.58	0.00026639	0.00030471	286.22	87.596	103.61	35.499	0.00027857	40.819	-54.984	190.657	85.899	-109.588	9.498	-104.312	-110.500	-104.090	-1.771	61.927	-106.415	-101.912	-98.741	-94.435	84.682	-97.349	-8191	255	
14561.133	1	1	0	0	0.03349	0.40558	0.20801	0.20375	0.1498	0.099513	0.16254	0.26879	0.19941	0.031677	0.05073	0.1252	0.18681	0.27969	0.32265	0.14879	-1.6104	-2.0875	-2.5146	-1.9438	-2.4146	-2.4333	-2.0271	-2.6042	-2.1042	-2.2604	-2.5833	-1.9979	-2.3521	-2.6063	-1.8125	-2.5292	-106.330	-87.327	187.213	40.842	30.933	65.612	138.796	148.917	-20.313	223.072	58.888	142.339	-77.556	163.684	84.577	172.174	0.00024967	0.001029	0.0005307	958.39	1.2708e-05	3.6261e-06	833.05	260.33	1.7857e-05	2.0589e-05	245.1	72.879	79.491	30.454	8.8415e-06	33.998	0.016324	0.027126	0.0075268	1112.6	0.00028428	0.00030562	898.11	282.58	0.00026742	0.0003037	287.42	88.128	104.13	35.652	0.00027579	41.085	-60.241	-103.445	-91.909	-109.350	118.882	25.801	-110.638	-104.262	107.226	52.134	-106.568	-101.588	-98.529	-94.430	-42.946	-97.386	-8191	255	
14561.228	1	1	0	0	0.21027	0.095511	0.35666	0.15011	0.13029	0.040812	0.086056	0.22545	0.15349	0.12769	0.18442	0.17976	0.12442	0.21392	0.12247	0.20695	-1.8354	-1.8021	-2.675	-2.2125	-2.275	-2.7438	-2.0208	-2.6646	-2.4458	-2.0396	-2.5812	-2.1063	-2.1458	-2.7208	-1.7729	-2.3979	-45.997	7.487	63.879	181.224	-19.232	155.983	-7.798	151.852	25.361	44.405	181.738	-116.512	-116.692	177.207	-56.285	151.211	0.00042371	0.0016395	0.00022227	959.73	1.5697e-05	1.341e-05	841.25	260.56	1.0515e-05	9.57e-06	247.7	73.532	79.504	30.62	6.0767e-06	34.235	0.016321	0.02699	0.0074858	1115.9	0.0002872	0.00030581	901.85	283.8	0.00026941	0.00030458	290.58	88.808	104.65	35.709	0.00027294	41.467	-94.055	96.993	231.824	-109.216	117.480	219.548	-110.426	-103.651	14.955	-59.078	-106.090	-102.350	-99.175	-94.343	-8.391	-97.574	-8191	255	
14561.325	1	1	0	0	0.017356	0.15229	0.087633	0.077442	0.070958	0.19787	0.38395	0.27762	0.23082	0.097882	0.12502	0.13316	0.099467	0.14104	0.081435	0.091905	-1.9708	-1.7792	-2.7042	-2.1292	-2.1229	-2.6229	-2.0312	-2.3833	-2.5146	-1.7854	-2.7812	-2.1354	-2.1521	-2.7729	-1.8042	-2.4875	141.526	129.348	155.128	219.785	147.087	186.622	195.610	232.163	127.371	-109.637	69.099	145.920	44.097	79.295	71.599	195.418	0.00017516	0.0010829	0.00095955	967.37	1.4275e-05	4.9082e-06	840.65	260.65	6.9018e-06	5.4443e-06	244.98	73.406	78.913	30.59	7.5545e-06	33.811	0.016421	0.02693	0.0074764	1120.8	0.00028628	0.00029863	901.22	284	0.00026818	0.00029937	287.74	88.271	103.92	35.471	0.00027194	40.923	-49.246	37.918	4.452	-110.257	156.838	-8.260	-111.160	-104.540	-96.530	-81.616	-106.729	-101.640	-99.455	-94.299	70.318	-97.387	-8191	255	
14561.444	1	1	0	0	0.10951	0.093589	0.11079	0.20017	0.20581	0.08581	0.084332	0.30823	0.23356	0.097962	0.1655	0.041921	0.095628	0.28807	0.075149	0.085682	-2.0812	-1.7979	-2.5542	-2.1937	-2.0854	-2.625	-2.0021	-2.2938	-2.3729	-1.6812	-2.4958	-2.2646	-1.9167	-2.7333	-1.8875	-2.5104	189.201	102.984	-67.427	-98.876	-49.269	92.679	138.025	202.068	115.837	118.913	227.451	127.858	-77.061	160.704	47.877	173.964	0.0002253	0.0016109	0.00040863	964.47	2.1991e-05	8.5489e-06	832.38	260.29	1.2805e-05	2.0684e-05	245.36	72.152	78.1	30.375	1.228e-05	33.871	0.016375	0.026499	0.0073931	1117.6	0.00028544	0.00029721	895.37	282.78	0.00026672	0.00029636	287.19	87.756	103.45	35.401	0.00027217	41.037	-60.715	-41.355	-27.910	-110.156	-100.891	78.574	-110.789	-104.328	41.633	23.267	-106.406	-101.704	-99.100	-94.269	148.039	-97.499	-8191	255	
14561.516	1	1	0	0	0.17472	0.08299	0.30152	0.020737	0.030344	0.078612	0.24327	0.12896	0.14611	0.08135	0.23876	0.13918	0.17734	0.13564	0.1475	0.21736	-2.2417	-1.7687	-2.3729	-2.2167	-1.9917	-2.7875	-2.0563	-2.425	-2.7833	-1.9125	-2.5979	-2.3271	-1.8125	-2.7458	-1.9458	-2.25	-110.638	116.739	25.658	106.171	9.475	76.947	124.795	-104.764	-59.401	24.455	-104.765	3.328	99.078	-74.839	-50.759	131.832	7.8087e-05	0.00074286	0.0004235	961.86	1.0148e-05	1.1375e-05	834.86	260.06	1.625e-05	9.4993e-06	244.06	72.804	78.645	30.629	7.69e-06	34.161	0.016366	0.026429	0.0074974	1120.8	0.00028585	0.00029748	897.94	283.36	0.00026617	0.00029563	288.65	88.176	103.4	35.571	0.00027504	41.274	-65.969	-3.366	38.195	-109.839	86.189	-7.356	-110.822	-103.840	148.400	-18.068	-106.355	-101.590	-99.092	-94.211	146.353	-97.567	-8191	255	
14561.612	1	1	0	0	0.14722	0.11091	0.044306	0.233	0.039768	0.086808	0.26842	0.28255	0.26691	0.31377	0.099383	0.1737	0.19109	0.3062	0.38479	0.28599	-2.3229	-1.9021	-2.4854	-2.5458	-1.7708	-2.5271	-2.2271	-2.2792	-2.5187	-1.8167	-2.325	-2.3063	-1.7146	-2.6271	-2.0146	-1.9396	-99.535	188.888	192.812	-27.852	116.620	42.521	174.760	168.657	-47.826	4.459	20.552	-86.857	219.108	157.309	47.305	165.800	0.0001456	0.00050098	0.00018453	961.05	1.1335e-05	8.3865e-06	838.96	262.17	8.2366e-06	3.5941e-06	244.73	73.011	78.982	30.903	2.2701e-05	34.455	0.016254	0.026505	0.0075572	1119.6	0.00028221	0.00029951	902.01	284.58	0.00026422	0.00029849	289.36	88.807	104.16	35.659	0.00027926	41.499	29.579	89.869	-25.879	-109.928	-49.308	-42.108	-110.778	-104.112	-13.390	158.455	-106.576	-101.478	-99.146	-93.907	28.022	-97.053	-8191	255	
14561.733	1	1	0	0	0.045482	0.1012	0.27638	0.20678	0.22252	0.094821	0.050003	0.18556	0.1038	0.29372	0.083704	0.14994	0.40794	0.034527	0.09046	0.20512	-2.2583	-1.9	-2.2083	-2.4688	-1.7188	-2.4104	-1.9875	-2.0208	-2.675	-2.125	-2.2771	-2.4521	-1.7625	-2.6375	-2.1125	-1.9833	97.545	134.853	-90.780	109.229	17.691	62.369	200.670	61.046	-48.432	61.104	-89.806	43.745	196.812	122.786	51.849	-72.894	0.00012129	0.001694	0.00033636	964.09	1.2677e-05	2.277e-05	839.44	260.41	1.1534e-05	9.8827e-06	246.84	72.889	80.153	30.825	1.1144e-05	33.76	0.016217	0.026819	0.0076685	1118	0.00028375	0.00030067	904.9	284.38	0.0002655	0.00030117	290.45	88.56	103.98	35.605	0.00027737	40.937	214.880	-112.004	-17.051	-109.232	143.753	48.219	-110.898	-104.043	214.785	227.580	-105.743	-101.600	-99.607	-93.391	149.773	-97.180	-8191	255	
14561.829	1	1	0	0	0.06357	0.25059	0.15753	0.27839	0.17609	0.20876	0.22799	0.2615	0.21515	0.1407	0.12519	0.087708	0.13498	0.3092	0.23705	0.25617	-2.1292	-1.9729	-1.8917	-2.6208	-1.8667	-2.4437	-2.3708	-1.8792	-2.5125	-2.0958	-2.0458	-2.5958	-1.9646	-2.3292	-2.3958	-2.1	-21.496	208.752	52.343	185.024	-22.619	-91.704	139.202	175.670	114.582	104.153	177.805	4.518	100.843	175.190	-104.557	153.731	8.7932e-05	0.0013479	0.00028479	957.2	8.0254e-06	1.627e-05	833.53	258.73	7.0882e-06	1.8492e-05	242.1	72.332	79.05	30.357	1.4281e-05	33.413	0.016108	0.026605	0.0076012	1114.2	0.00028154	0.00030063	898.03	281.9	0.00026306	0.00030024	287.02	87.332	102.8	35.291	0.0002775	40.56	234.760	11.018	-118.118	-109.448	-74.106	107.012	-110.268	-103.826	125.357	100.013	-105.912	-101.158	-98.908	-93.462	-90.837	-96.949	-8191	255	
14561.925	1	1	0	0	0.35255	0.14927	0.14087	0.1729	0.084633	0.079085	0.067687	0.051527	0.21512	0.22233	0.26407	0.073881	0.14232	0.16774	0.15169	0.02748	-2.1521	-1.9917	-2.0417	-2.6063	-1.725	-2.4917	-2.5625	-2.0396	-2.5271	-2.1729	-2.0187	-2.675	-2.1208	-2.3	-2.3479	-1.6938	-62.463	160.758	22.748	187.603	66.716	-40.509	-101.193	-92.887	211.002	-99.890	213.006	80.781	150.153	114.250	-68.908	3.290	0.00014027	0.0011437	0.00033383	960.55	8.6121e-06	2.4564e-05	834.16	257.38	4.1202e-06	1.0335e-05	244.16	71.782	77.582	30.118	3.1545e-06	33.56	0.016198	0.026608	0.0075261	1112.4	0.00028059	0.00030211	897.7	280.7	0.00026514	0.00030127	286.86	87.203	102.95	35.239	0.0002751	40.624	-84.753	-17.148	99.388	-109.056	125.592	205.509	-110.262	-103.784	30.440	150.992	-106.373	-101.461	-98.748	-93.860	-62.476	-97.386	-8191	255	
14562.046	1	1	0	0	0.20651	0.059134	0.21181	0.22367	0.026524	0.14616	0.13029	0.15388	0.29394	0.16418	0.30144	0.037379	0.54116	0.3153	0.15918	0.36486	-2.1333	-2.1917	-1.9438	-2.7	-1.8708	-2.325	-2.6771	-2.0333	-2.55	-2.3292	-1.8979	-2.7208	-1.9937	-2.3	-2.6208	-2.025	71.857	75.266	92.731	-78.496	159.340	-67.274	96.842	-52.622	179.910	79.750	-71.827	137.867	-95.035	232.970	152.681	74.470	0.00011853	0.00048409	0.00023261	959.7	2.0666e-05	1.2111e-05	833.88	259.08	8.8372e-06	1.5409e-05	245.35	72.228	78.315	30.404	2.2555e-05	33.625	0.016343	0.026641	0.0075466	1114.8	0.00028279	0.00030269	898.49	282.3	0.00026857	0.00030191	287.29	87.616	103.25	35.466	0.00027784	40.819	231.442	216.451	145.129	-109.203	81.727	82.993	-110.437	-104.056	107.356	-10.856	-106.135	-101.439	-99.139	-93.342	103.964	-96.871	-8191	255	
14562.142	1	1	0	0	0.074603	0.11625	0.27504	0.13659	0.13769	0.081273	0.067596	0.22395	0.15974	0.11555	0.14567	0.14745	0.27292	0.3353	0.149	0.2209	-2.1542	-2.2562	-1.6833	-2.7	-2.0708	-2.1542	-2.6437	-1.9146	-2.3854	-2.5312	-1.9625	-2.5708	-2.1458	-1.9521	-2.6979	-1.9104	200.622	146.306	179.036	151.620	68.496	213.435	207.346	132.550	189.874	-47.003	-86.434	29.180	-82.111	-111.974	195.635	90.138	0.00039098	0.0012191	0.00013412	959.28	1.2652e-05	1.1015e-05	837.35	257.72	1.9591e-05	2.881e-05	244.32	72.891	78.086	30.329	1.3235e-05	33.639	0.016439	0.026953	0.0075731	1116.5	0.00028523	0.00030689	903.23	281.65	0.00027094	0.00030311	288.8	88.309	103.99	35.539	0.00027625	40.978	-82.932	220.482	15.306	-109.249	25.435	-109.009	-110.189	-103.749	175.406	27.926	-106.247	-101.963	-99.245	-93.315	41.829	-96.904	-8191	255	
14562.214	1	1	0	0	0.14116	0.15503	0.05908	0.19361	0.12762	0.090819	0.26613	0.1249	0.095223	0.047017	0.099552	0.16417	0.26396	0.35013	0.21338	0.26235	-1.9396	-2.2292	-1.7458	-2.6604	-2.2229	-2.0396	-2.7042	-2.0146	-2.2313	-2.5792	-1.8917	-2.575	-2.3312	-2.0333	-2.7521	-2.0292	229.142	-36.807	16.265	163.327	38.779	51.996	115.887	155.005	175.905	203.797	86.194	-116.790	229.466	219.011	-67.534	92.717	0.00043246	0.00047061	0.0004899	956.49	7.6381e-06	1.7322e-05	834.03	257.76	8.0598e-06	4.9669e-06	240.07	71.717	77.743	29.866	8.4471e-06	33.285	0.016589	0.0269	0.0074827	1118.2	0.00028601	0.00030296	897.17	280.88	0.00026923	0.00029897	285.62	87.196	103.22	35.138	0.00027397	40.587	-16.612	-45.904	-84.024	-109.028	52.157	7.119	-109.998	-103.825	160.800	10.716	-106.267	-101.567	-99.325	-93.133	49.182	-97.123	-8191	255	
14562.332	1	1	0	0	0.27057	0.29514	0.22872	0.14666	0.24484	0.18781	0.1145	0.50427	0.16104	0.038326	0.27163	0.27744	0.10583	0.0982	0.069211	0.2741	-1.9896	-2.4	-1.7833	-2.4854	-2.2438	-1.9417	-2.7771	-2.0312	-2.2083	-2.6167	-1.8104	-2.5771	-2.4146	-2.0292	-2.725	-2.0812	-97.903	63.090	90.806	-4.799	159.960	122.041	-79.893	189.406	73.274	108.171	-111.056	103.206	101.734	155.881	-45.828	-89.291	0.00031875	0.00041447	0.00018047	949.93	1.954e-06	5.2294e-06	826.09	255.93	7.6926e-06	1.0735e-05	238.65	71.207	77.148	30.161	1.3462e-05	33.243	0.016387	0.026628	0.0073942	1111.6	0.00028584	0.00029943	894.19	280.56	0.00026855	0.00029634	284.59	87.395	103.06	35.256	0.00027458	40.57	-59.840	12.971	-50.301	-108.895	212.984	233.396	-110.085	-104.045	217.622	16.432	-106.193	-101.098	-99.270	-93.357	-47.605	-96.896	-8191	255	
14562.429	1	1	0	0	0.24159	0.21218	0.28304	0.097679	0.27958	0.22296	0.19389	0.14961	0.074362	0.2817	0.19588	0.20413	0.12842	0.16871	0.18993	0.027372	-1.6521	-2.7729	-1.9375	-2.4938	-2.3896	-1.7667	-2.8063	-2.125	-1.9542	-2.6229	-2.0229	-2.3	-2.5417	-1.9188	-2.5563	-2.125	221.374	-95.169	-71.948	169.950	148.102	223.248	194.962	164.527	-119.479	24.049	-88.966	204.092	65.642	97.296	97.733	74.881	0.0003597	0.0028121	0.00059782	950.9	1.3799e-05	1.1248e-05	826.1	254.99	2.1054e-05	2.4659e-06	239.05	71.276	77.503	29.744	5.6256e-06	33.4	0.016523	0.026365	0.0074415	1112	0.00028503	0.00029768	894.59	280.31	0.00026787	0.00029517	285.18	87.441	103.22	35.16	0.00027638	40.683	228.512	-27.570	236.619	-109.147	29.143	19.710	-110.232	-103.861	90.253	137.278	-106.055	-100.967	-98.713	-93.919	-71.630	-97.083	-8191	255	
14562.525	1	1	0	0	0.14255	0.088938	0.091324	0.30151	0.20087	0.24017	0.17642	0.146	0.065533	0.18956	0.13407	0.17565	0.13263	0.3184	0.24114	0.15214	-1.5375	-2.5771	-1.9604	-2.1312	-2.4125	-1.8375	-2.7583	-2.2458	-1.975	-2.8021	-2.0917	-2.2792	-2.6771	-1.9	-2.6146	-2.2625	91.700	74.113	-14.023	-122.033	-17.838	228.338	42.627	140.369	129.687	101.738	117.425	186.529	60.401	-3.566	214.457	160.256	2.4629e-05	0.0009254	0.00021614	943.43	1.7161e-05	6.1973e-06	829.43	254.18	7.553e-06	3.481e-06	240.42	71.853	77.674	29.979	9.9829e-06	33.54	0.016363	0.02656	0.0075222	1115	0.00028294	0.00029818	900.79	280.27	0.00026638	0.00029809	285.51	87.857	103.27	35.341	0.00027559	40.96	226.646	16.137	-118.277	-108.931	-63.325	165.552	-110.212	-104.116	20.259	22.906	-106.159	-101.016	-98.647	-93.459	11.024	-97.164	-8191	255	
14562.621	1	1	0	0	0.10183	0.20183	0.061131	0.072224	0.014166	0.078665	0.17297	0.063027	0.19807	0.053195	0.053397	0.04333	0.31674	0.30916	0.13898	0.14352	-1.3979	-2.5563	-1.8729	-2.2146	-2.4708	-1.7167	-2.5938	-2.275	-1.7271	-2.4667	-2.275	-2.1833	-2.6979	-1.9021	-2.3937	-2.425	-67.461	-100.021	224.182	219.907	227.583	92.615	229.524	170.354	97.487	-33.975	125.960	207.957	205.269	77.341	-70.174	173.349	0.00026991	0.00068819	0.00066178	953.02	5.7341e-06	1.0918e-05	831.38	257.14	9.647e-07	2.5404e-05	238.92	71.549	77.654	29.934	1.4037e-05	33.242	0.016209	0.02636	0.0074506	1121.3	0.00028249	0.0002974	901.7	281.87	0.00026424	0.00029643	283.48	87.714	103.2	35.337	0.00027563	40.479	-58.623	-4.952	21.542	-108.956	-32.735	19.742	-110.257	-103.937	-75.515	60.154	-106.241	-101.196	-99.539	-93.751	-86.611	-96.916	-8191	255	
14562.741	1	1	0	0	0.16068	0.29647	0.11994	0.028176	0.067546	0.29983	0.23759	0.33959	0.18858	0.087765	0.18003	0.28299	0.29978	0.16482	0.14894	0.31509	-1.1938	-2.4771	-2	-2.1063	-2.5458	-1.8792	-2.3438	-2.5312	-1.7437	-2.4688	-2.2333	-2.0083	-2.6354	-2.0271	-2.3	-2.5563	198.429	-56.756	-17.334	-10.573	-20.217	102.364	180.806	155.182	-101.870	39.631	-68.164	192.053	-102.460	101.590	213.091	17.639	0.0004529	0.00054833	0.00040282	953.48	1.1418e-05	1.5675e-05	820.61	256.35	1.4828e-05	8.6193e-06	237.77	71.31	77.686	30.038	2.0301e-05	33.318	0.016104	0.026267	0.0074494	1115.4	0.00027985	0.00029767	894.43	280.34	0.00026083	0.00029623	283.23	87.03	102.99	35.227	0.00027569	40.434	-121.307	110.274	-80.002	-109.938	-50.570	96.087	-110.253	-104.051	7.113	205.639	-106.573	-100.939	-98.941	-93.591	-56.359	-97.082	-8191	255	
14562.813	1	1	0	0	0.24862	0.17518	0.15588	0.35773	0.27756	0.14788	0.35239	0.29574	0.084976	0.225	0.16079	0.11932	0.067056	0.18257	0.32356	0.20363	-1.4333	-2.4458	-2.2479	-2.0021	-2.7062	-1.9333	-2.3583	-2.6917	-1.7521	-2.4062	-2.2833	-1.9104	-2.4437	-1.9875	-2.0917	-2.5229	225.739	-53.583	-10.311	29.784	68.317	152.838	221.490	200.905	179.815	121.146	-94.287	-11.932	-90.271	190.970	5.403	163.002	0.0001932	0.0019457	0.00023885	953.78	2.2233e-05	2.1349e-05	828.86	256.37	1.1384e-05	1.6191e-05	239.25	71.811	77.995	30.273	7.6183e-06	33.024	0.016054	0.026639	0.0074996	1113.3	0.00028099	0.00029833	896.42	280.17	0.00026253	0.00029845	283.76	87.049	102.85	35.33	0.00027381	40.433	-48.330	15.250	197.171	-108.963	121.504	68.892	-109.916	-103.791	186.019	57.383	-106.264	-101.298	-98.673	-93.676	-41.055	-97.045	-8191	255	
14562.909	1	1	0	0	0.13741	0.22867	0.20651	0.13506	0.03181	0.15361	0.49122	0.016751	0.18501	0.037364	0.076731	0.0098005	0.2261	0.17069	0.080613	0.21706	-1.3542	-2.4625	-2.3292	-1.9083	-2.4188	-2.0375	-2.1354	-2.7146	-1.8354	-2.4833	-2.5062	-2.0812	-2.575	-2.2438	-1.9813	-2.6417	104.732	202.490	-81.252	101.413	215.740	-82.126	177.758	-104.210	130.974	-89.337	-89.215	-17.449	-80.586	212.409	124.284	146.051	0.00014199	0.00067011	0.00030513	949.99	1.868e-05	1.419e-05	823.6	254.96	1.5647e-05	1.3054e-05	238.62	71.652	76.662	30.129	1.1615e-05	33.517	0.016124	0.026502	0.0074373	1107.1	0.00028002	0.00029694	896.95	280.65	0.00026307	0.00029835	284.62	87.438	103	35.461	0.00027195	40.821	-75.553	5.646	29.451	-109.171	73.063	26.361	-110.344	-103.578	-63.246	72.263	-106.041	-101.517	-99.356	-93.802	23.542	-96.305	-8191	255	
14563.005	1	1	0	0	0.25156	0.2027	0.19345	0.11353	0.17563	0.23034	0.19767	0.29903	0.043783	0.3179	0.10729	0.073843	0.18821	0.16283	0.1673	0.37995	-1.5187	-2.1	-2.3458	-1.8458	-2.4042	-2.2938	-2.0917	-2.7	-1.9229	-2.2104	-2.5104	-1.8125	-2.5521	-2.3667	-1.7021	-2.8438	115.346	222.240	163.280	196.495	155.489	35.932	110.119	163.912	-64.114	-29.107	60.220	193.710	-43.960	116.143	62.766	145.408	0.00031772	0.0012913	0.00042125	946.69	2.5641e-05	1.8335e-05	819.97	256.15	5.3657e-06	9.2647e-06	241	71.683	78.292	30.17	1.3158e-05	33.372	0.016092	0.026503	0.0073818	1111.1	0.00028123	0.00029951	899.29	281.94	0.00026413	0.00029769	286.93	88.119	103.84	35.52	0.00027113	40.899	-96.629	-99.032	-109.326	-108.910	111.159	114.500	-110.498	-103.826	-37.831	4.541	-106.382	-101.586	-98.881	-93.711	22.953	-97.317	-8191	255	
14563.124	1	1	0	0	0.15679	0.13955	0.067526	0.16923	0.04748	0.15674	0.30966	0.35804	0.14152	0.16645	0.14163	0.066959	0.089975	0.1088	0.24022	0.19072	-1.5792	-2.0583	-2.5792	-1.8667	-2.3729	-2.2583	-2.0312	-2.7479	-1.9375	-1.9562	-2.6937	-2	-2.3083	-2.3646	-1.8188	-2.7562	-9.656	81.553	-58.801	-118.853	201.009	127.869	167.496	136.894	188.512	157.848	190.989	82.268	211.559	161.627	8.529	219.198	0.00031144	0.0025674	0.00014293	942.41	3.5454e-06	2.0344e-05	817.18	254.5	1.082e-05	6.1094e-06	238.4	71.624	77.163	29.748	1.7943e-05	33.175	0.016069	0.026374	0.0073091	1109	0.00028062	0.00029626	893.51	280.92	0.00026292	0.00029449	284.13	87.368	103.08	35.303	0.00026952	40.505	-78.573	221.447	-0.607	-109.600	117.367	48.201	-109.903	-103.770	183.289	81.563	-105.888	-100.974	-99.099	-93.754	43.554	-97.378	-8191	255	
14563.220	1	1	0	0	0.26849	0.10719	0.14781	0.31154	0.16744	0.31996	0.075049	0.13984	0.17521	0.1049	0.317	0.27045	0.20813	0.22485	0.26918	0.13982	-1.7604	-2.1667	-2.6583	-1.8729	-2.3812	-2.5042	-1.9167	-2.7792	-2.1917	-2.0125	-2.6604	-1.9062	-2.2812	-2.5938	-1.8583	-2.5521	180.469	163.550	104.936	175.687	34.906	161.308	-3.673	34.600	51.007	-103.093	130.138	235.376	-33.826	234.196	234.443	-93.006	0.0001055	0.0011147	0.00017103	948.23	8.1079e-06	7.1818e-06	817.97	255.27	8.9339e-06	1.2318e-05	233.36	71.465	77.261	30.149	8.6579e-06	33.077	0.01605	0.02613	0.0072865	1111.6	0.00027891	0.00029518	892.93	280.74	0.00026145	0.00029385	281.96	87.079	102.95	35.339	0.00026966	40.682	182.384	-24.942	-15.530	-109.151	83.044	-119.952	-110.265	-103.628	174.700	153.853	-106.130	-101.406	-99.040	-93.785	49.243	-97.146	-8191	255	
14563.317	1	1	0	0	0.24315	0.11328	0.05382	0.196	0.17965	0.20106	0.13455	0.20826	0.126	0.090715	0.16374	0.16775	0.27685	0.19766	0.15583	0.29455	-1.8229	-1.9438	-2.4875	-2.0396	-2.125	-2.4708	-1.8062	-2.5854	-2.1708	-2.0042	-2.7167	-2.05	-2.0729	-2.5646	-1.725	-2.5438	-94.565	45.036	0.891	211.759	171.320	116.753	187.890	189.925	120.319	164.269	37.873	-4.314	77.232	92.968	78.027	-121.756	0.00016853	0.00061719	0.0002429	942.15	8.726e-06	7.4433e-06	822.19	254.24	1.8294e-06	2.2839e-05	235.78	70.757	78.296	29.806	4.7646e-06	33.087	0.016104	0.026125	0.0073518	1109.1	0.00028246	0.00029378	894.51	280.71	0.00026192	0.00029326	283.41	87.277	103.14	35.292	0.00027121	40.849	-56.227	29.693	-37.472	-109.116	60.267	-63.637	-110.334	-103.979	-4.207	84.957	-106.150	-101.219	-99.196	-93.943	32.972	-97.116	-8191	255	
14563.413	1	1	0	0	0.10111	0.040597	0.17862	0.27676	0.29056	0.11347	0.10237	0.12616	0.2332	0.14233	0.28854	0.14261	0.099267	0.28218	0.15251	0.09981	-2.0208	-1.8542	-2.6458	-2.0604	-2.1333	-2.6042	-2.0833	-2.5958	-2.4437	-1.8479	-2.7313	-2.1063	-2.0417	-2.6354	-1.8813	-2.3854	109.438	-62.436	192.866	103.630	118.494	-17.366	142.223	145.781	120.067	-82.551	-78.537	-52.245	-57.259	211.482	181.406	237.287	0.00028419	0.0010234	9.6642e-05	941.98	1.2695e-05	9.9166e-06	824.54	254.16	1.077e-05	1.1837e-05	239.43	71.209	77.385	30.3	1.7164e-05	33.586	0.01601	0.02609	0.0073679	1110.2	0.00027998	0.00029385	898.25	281.67	0.00026288	0.00029386	286.86	88.082	103.14	35.56	0.0002735	41.028	233.265	203.458	-111.948	-108.706	130.365	-21.135	-110.253	-103.432	16.193	-39.965	-105.900	-101.252	-98.794	-93.775	24.232	-96.875	-8191	255	
14563.509	1	1	0	0	0.027757	0.22064	0.15751	0.11976	0.12637	0.21995	0.17502	0.1214	0.12276	0.041691	0.098785	0.20369	0.040105	0.40922	0.15662	0.30499	-1.9646	-1.8896	-2.6667	-1.9729	-1.8729	-2.675	-1.9375	-2.3208	-2.4792	-1.8417	-2.7417	-2.1104	-1.8563	-2.8563	-1.9229	-2.2979	77.649	-19.074	-98.180	86.379	154.280	220.369	-76.680	235.258	150.773	131.088	177.808	210.012	-95.411	222.445	215.187	136.791	0.00017235	0.00093355	0.00026136	941.51	1.6765e-05	7.382e-06	825.58	253.36	6.9403e-06	1.214e-05	238.04	71.434	76.356	29.931	1.3306e-05	33.191	0.015919	0.026207	0.0073951	1110.8	0.00027886	0.00029425	899.58	280.78	0.00025835	0.00029235	284.43	87.262	102.47	35.193	0.00027044	40.505	-26.599	229.977	117.165	-109.189	30.479	151.217	-110.229	-103.701	-10.663	-5.516	-105.986	-100.993	-99.439	-93.705	-86.541	-97.029	-8191	255	
14563.605	1	1	0	0	0.055727	0.26141	0.46152	0.13433	0.33308	0.12755	0.2367	0.41589	0.18572	0.10024	0.035648	0.087748	0.034505	0.20693	0.1589	0.22687	-2.2	-1.7979	-2.4604	-2.2625	-1.9583	-2.6646	-2.1396	-2.3042	-2.7708	-2.0083	-2.4062	-2.3292	-1.8125	-2.3958	-2.0896	-2.1125	188.717	194.450	92.414	-103.249	95.487	115.144	167.386	184.432	-62.885	135.811	-5.099	37.869	7.386	115.683	143.309	231.178	0.00018673	0.001179	0.00050533	939.43	1.9264e-05	1.593e-05	819.3	253.05	9.4788e-06	1.8606e-05	237.95	70.446	77.341	29.754	1.2583e-05	32.947	0.015746	0.026273	0.0073702	1104.3	0.00027633	0.00029459	893.7	279.81	0.00026047	0.00029315	284.22	86.505	102.71	35.234	0.0002695	40.386	217.224	-46.192	144.738	-109.422	177.824	58.030	-109.943	-103.801	-98.663	88.048	-106.171	-101.208	-98.552	-93.682	-94.533	-97.125	-8191	255	
14563.726	1	1	0	0	0.21087	0.087419	0.036459	0.11065	0.2004	0.16422	0.095014	0.097236	0.12318	0.19965	0.3633	0.17462	0.027918	0.16852	0.14076	0.13697	-2.1104	-1.8875	-2.5104	-2.5312	-1.9312	-2.5646	-2.1937	-2.0938	-2.6083	-1.9104	-2.275	-2.6437	-1.8792	-2.8792	-2.3604	-1.8917	-2.864	-78.585	97.888	-109.279	-23.745	-52.426	141.858	60.634	168.835	161.311	211.248	180.830	-23.268	219.430	128.989	161.026	0.00029677	0.00098032	0.00044177	937.43	7.2149e-06	1.334e-05	815.46	254.85	1.5437e-05	1.0945e-05	238.06	71.055	77.585	29.965	1.6657e-05	33.347	0.015732	0.026386	0.0073315	1104.3	0.00027769	0.00029568	894.75	280.83	0.00025943	0.00029386	284.35	87.239	102.99	35.435	0.00027038	40.745	-55.732	-52.817	-25.465	-109.244	-2.276	23.430	-109.878	-103.610	217.208	-49.891	-105.954	-101.560	-98.581	-93.381	-36.230	-96.944	-8191	255	
14563.822	1	1	0	0	0.26235	0.21111	0.2494	0.070106	0.12628	0.098719	0.094394	0.13571	0.17354	0.054673	0.0768	0.44632	0.1033	0.15419	0.3764	0.098265	-2.375	-2.0833	-2.3625	-2.4875	-1.8354	-2.5687	-2.2729	-2.1312	-2.5062	-1.8292	-2.2708	-2.6063	-1.8771	-2.6458	-2.3542	-1.9542	96.652	-23.117	87.927	27.476	186.407	26.867	57.057	144.839	-22.872	217.949	183.164	221.171	87.371	190.427	144.300	117.688	0.00023032	0.00088047	0.00024847	929.05	1.5556e-05	2.1275e-05	817.39	252.91	1.0184e-05	1.6366e-05	237.97	71.472	76.613	29.953	1.0376e-05	33.434	0.015867	0.026079	0.0073223	1103.4	0.00027744	0.00029354	895.12	281.05	0.00026102	0.00029378	285.87	87.56	103.16	35.564	0.00026901	41.06	-36.995	18.063	-96.894	-109.248	-85.454	38.850	-110.170	-103.553	13.373	-32.748	-106.375	-101.118	-98.701	-93.826	42.401	-96.770	-8191	255	
14563.918	1	1	0	0	0.26482	0.17172	0.059341	0.19006	0.32389	0.10866	0.21943	0.20505	0.30769	0.48432	0.16486	0.23063	0.072974	0.3668	0.1163	0.093039	-2.0667	-1.9188	-2.1979	-2.5438	-1.6958	-2.5667	-2.4646	-1.8271	-2.5854	-1.9458	-2.2062	-2.5458	-1.7792	-2.5792	-2.5729	-1.7708	115.023	-28.070	-33.412	84.814	124.783	-87.203	232.888	174.848	156.274	151.150	97.891	169.377	222.239	139.991	-101.617	221.731	0.00031129	0.00057463	0.00024194	931.57	1.0745e-05	9.187e-06	820.66	255	8.032e-06	6.3576e-06	238.83	71.243	78.38	29.826	5.2718e-06	33.112	0.015987	0.026259	0.0074204	1104.7	0.0002773	0.00029663	899.03	282	0.00026145	0.00029256	286.1	87.703	103.68	35.501	0.00026835	40.657	-43.824	-51.996	-15.839	-109.059	-54.036	152.338	-110.574	-103.690	48.258	224.596	-106.244	-101.353	-98.825	-93.305	12.493	-97.074	-8191	255	
14564.014	1	1	0	0	0.35453	0.13576	0.13866	0.23713	0.13481	0.23491	0.13029	0.20315	0.13625	0.22812	0.25831	0.11387	0.18005	0.13158	0.091378	0.24141	-2.4042	-2.1333	-1.95	-2.7521	-1.7667	-2.4521	-2.6792	-2.0646	-2.5083	-2.2375	-2.0542	-2.6188	-1.9208	-2.3271	-2.4354	-1.8813	178.492	84.814	225.001	208.156	192.207	54.730	-107.569	-43.397	231.134	29.460	135.071	-38.383	-12.387	173.916	-1.488	148.112	0.00045221	0.0010829	0.00038292	938.19	9.8725e-06	1.0387e-05	814.78	250.7	1.3736e-05	1.4091e-05	235.62	71.017	76.487	29.934	1.8666e-05	33.097	0.015887	0.025971	0.0073117	1102.8	0.00027664	0.00029019	892.13	279.67	0.00025991	0.00029252	283.59	87.148	102.79	35.461	0.00026886	40.608	-57.386	-2.867	92.533	-109.115	214.549	63.778	-110.466	-103.616	-54.500	-98.923	-106.008	-101.437	-98.522	-93.632	-86.090	-96.805	-8191	255	
14564.109	1	1	0	0	0.14709	0.088689	0.37693	0.092375	0.14487	0.35047	0.07534	0.25315	0.20924	0.060032	0.21424	0.24006	0.18139	0.24865	0.24848	0.20666	-2.2354	-2.35	-1.8604	-2.6021	-1.9583	-2.2188	-2.5938	-1.8771	-2.6271	-2.2708	-2.0521	-2.6917	-1.9708	-2.2146	-2.4688	-1.9146	190.982	28.602	-75.995	-54.739	26.490	-9.085	170.841	195.785	-26.010	163.558	180.700	160.581	-6.415	159.199	-14.861	110.287	0.00012756	0.00091531	0.00078409	944.11	1.3627e-05	2.0757e-05	806.18	251.57	6.7642e-06	1.4338e-05	233.94	70.466	76.931	30.156	1.2084e-05	33.1	0.015952	0.026019	0.0073025	1106.2	0.00027759	0.00029189	889.15	279.88	0.00026122	0.00029034	283.77	87.238	103.26	35.558	0.0002686	40.745	-63.953	-61.107	233.740	-109.135	190.304	0.123	-110.415	-103.498	-84.052	173.797	-105.865	-100.932	-98.620	-93.247	12.399	-96.690	-8191	255	
14564.205	1	1	0	0	0.061651	0.13786	0.2112	0.070956	0.1968	0.15559	0.39623	0.065876	0.38016	0.078386	0.18536	0.10952	0.14411	0.13182	0.14186	0.099614	-2.1417	-2.2625	-1.9958	-3.0146	-2.0563	-2.175	-2.8625	-2.075	-2.4604	-2.4958	-2.1021	-2.9271	-2.4479	-2.3229	-2.675	-2.0229	38.457	107.652	-50.595	116.006	-67.215	55.314	-78.902	168.565	-46.350	131.354	102.255	190.648	86.156	190.603	-117.825	122.528	0.00014242	0.00077322	0.00012947	926.47	2.4995e-06	5.5042e-06	808.56	252.06	2.4363e-06	7.5181e-06	236.17	70.716	76.832	29.925	4.779e-06	33.201	0.016095	0.025832	0.0073261	1105.5	0.00027644	0.00029172	893.21	279.88	0.000259	0.00029312	284.16	87.362	102.75	35.458	0.00026997	40.897	15.738	166.042	114.655	-108.936	-36.473	237.712	-110.055	-103.546	75.221	-2.608	-106.244	-101.205	-98.815	-93.338	22.142	-96.913	-8191	255	
14564.301	1	1	0	0	0.2129	0.28178	0.14534	0.10574	0.27513	0.1583	0.18687	0.14966	0.071291	0.22898	0.18635	0.13485	0.079768	0.34994	0.1913	0.098047	-2.0187	-2.5458	-1.8646	-2.8104	-2.05	-2.1875	-2.825	-1.975	-2.1688	-2.5521	-1.875	-2.525	-2.3833	-2.0563	-2.7375	-2.1354	-43.567	-75.659	162.250	170.295	-56.339	43.934	-121.418	180.499	-56.274	-68.221	-34.583	183.016	142.746	-82.757	73.071	-102.365	0.00022414	0.0014805	0.00010988	924.54	2.5266e-05	2.1487e-05	812.13	251.83	1.7066e-05	5.4455e-06	236.56	71.082	76.818	30.04	1.9987e-05	33.161	0.01589	0.025993	0.0074065	1104.6	0.00027805	0.00029143	895.9	280.81	0.00026019	0.00028979	284.78	87.904	102.79	35.659	0.00026991	40.827	-56.509	107.423	113.105	-109.301	57.131	-49.342	-109.940	-103.701	34.216	-112.993	-106.241	-100.931	-98.735	-93.457	25.588	-97.064	-8191	255	
14564.399	1	1	0	0	0.22272	0.18025	0.21619	0.12059	0.10813	0.13205	0.21921	0.14209	0.23894	0.2798	0.093006	0.084216	0.23166	0.19722	0.082806	0.028432	-1.9604	-2.7313	-1.925	-2.575	-2.5229	-2.2146	-2.8312	-2.2104	-2.1646	-2.6	-1.9771	-2.6	-2.375	-1.9854	-2.7188	-2.2854	133.900	-107.842	-90.939	-75.105	-58.007	183.513	-104.146	171.203	-59.686	70.545	-88.054	-64.182	125.268	144.643	-89.379	24.659	0.00025679	0.00093613	0.00018073	937.3	1.873e-05	1.8665e-05	811.99	251.22	4.1446e-07	1.9368e-05	233.73	69.816	76.356	29.749	1.0569e-05	32.798	0.015919	0.025881	0.0073523	1109.8	0.00027378	0.00029163	893.26	279.65	0.00025556	0.00028815	281.88	86.446	102.06	35.381	0.0002673	40.473	201.239	208.013	-53.781	-108.844	-35.475	22.257	-110.070	-103.612	-104.546	-62.222	-105.814	-101.376	-98.720	-93.506	-16.360	-96.884	-8191	255	
14564.518	1	1	0	0	0.19249	0.20054	0.097316	0.25347	0.1557	0.2966	0.072258	0.147	0.17816	0.086529	0.11736	0.16875	0.13871	0.24208	0.092579	0.34972	-1.6292	-2.6958	-2.0125	-2.5208	-2.5625	-1.9562	-2.7208	-2.1646	-2.075	-2.8625	-1.8937	-2.3896	-2.4375	-1.9146	-2.5646	-2.4688	-23.643	6.631	-6.265	132.588	-52.624	229.556	176.602	197.521	16.591	-85.764	29.953	229.457	205.473	186.670	-28.407	199.730	0.00024846	0.0010272	0.00043322	923.36	1.0131e-05	9.4934e-06	800.37	248.86	8.1416e-06	1.6364e-05	232.18	69.005	76.023	29.685	1.3527e-05	32.954	0.015746	0.025917	0.0073667	1103.3	0.00027524	0.00029558	887.5	277.44	0.00025874	0.00029115	280	86.184	101.97	35.443	0.00026848	40.483	-78.920	73.395	16.800	-108.810	-79.098	61.569	-110.111	-104.008	-21.170	16.877	-106.327	-101.038	-97.962	-93.374	75.281	-97.227	-8191	255	
14564.614	1	1	0	0	0.1793	0.17089	0.35051	0.07777	0.027296	0.29181	0.11379	0.090085	0.048016	0.27247	0.15181	0.29242	0.32957	0.29133	0.20582	0.13594	-1.5104	-2.6604	-1.8771	-2.3625	-2.5187	-1.7875	-2.7292	-2.3958	-1.9729	-2.6375	-2.1729	-2.3042	-2.6375	-1.8521	-2.5833	-2.4792	21.573	159.441	28.463	169.021	-112.169	200.830	212.447	26.746	125.812	208.063	59.500	194.925	-87.125	235.975	97.593	233.893	9.0625e-05	0.00049512	0.00059334	932.51	1.0804e-05	6.2283e-06	809.9	250.74	1.0049e-05	1.0095e-05	232.64	70.019	76.101	29.93	1.1878e-05	32.78	0.015785	0.025984	0.0073237	1103.4	0.00027587	0.00029315	888.79	277.81	0.00026005	0.00029179	280.35	86.225	102.11	35.477	0.00026829	40.484	-39.293	-77.996	-49.838	-109.004	-27.668	118.361	-109.846	-103.825	-114.804	10.069	-106.454	-101.054	-98.925	-93.543	15.353	-96.425	-8191	255	
14564.685	1	1	0	0	0.32319	0.26405	0.054459	0.25879	0.26248	0.14232	0.21297	0.14846	0.10299	0.042745	0.24796	0.16282	0.3167	0.35708	0.068152	0.19457	-1.4771	-2.5417	-2.1146	-2.3854	-2.6937	-1.8833	-2.6688	-2.5021	-1.9479	-2.8021	-2.3375	-2.1771	-2.5958	-1.8604	-2.4562	-2.5458	-104.560	31.004	132.317	145.411	97.831	-94.007	148.609	192.497	34.607	-94.408	188.485	140.223	175.103	195.088	178.438	169.292	0.00041032	0.0018141	9.2324e-05	926.16	1.6306e-05	1.5259e-05	812.23	251.95	1.5649e-06	1.7332e-05	235.18	70.394	76.491	29.988	1.116e-05	33.409	0.015917	0.025957	0.0072675	1100.6	0.0002767	0.00029453	892.63	278.47	0.00026062	0.00029219	282.94	86.965	102.37	35.567	0.00026774	40.899	-121.019	96.331	-106.559	-108.924	-71.015	89.092	-110.143	-103.872	44.640	-2.730	-105.779	-101.157	-98.493	-93.447	-25.517	-97.019	-8191	255	
14564.806	1	1	0	0	0.12544	0.09876	0.19537	0.16688	0.14603	0.26244	0.076511	0.25834	0.22449	0.069913	0.22286	0.25037	0.19354	0.16022	0.084562	0.23127	-1.3771	-2.4917	-1.9979	-2.1437	-2.6188	-1.9167	-2.575	-2.6729	-1.7625	-2.5167	-1.9958	-1.8958	-2.7333	-1.9813	-2.1958	-2.5604	-5.593	119.881	184.090	180.524	-37.986	181.013	119.634	190.678	31.209	-16.924	203.976	152.700	-60.223	203.171	228.296	142.270	0.00029705	0.0017927	0.00024739	932.39	1.2513e-05	9.4508e-06	815.36	251.96	4.5399e-06	1.3915e-05	234.66	70.711	75.721	29.7	6.0788e-06	32.704	0.015893	0.026161	0.0072959	1102	0.00027879	0.00029363	893.88	279.19	0.00025978	0.00029283	282.03	86.833	102.05	35.358	0.00026664	40.437	-59.687	-7.087	-28.279	-108.807	-35.565	-4.412	-110.500	-103.905	14.149	112.317	-106.146	-100.979	-98.723	-93.300	72.050	-97.023	-8191	255	
14564.902	1	1	0	0	0.24352	0.22488	0.036837	0.10093	0.036156	0.19167	0.29107	0.2915	0.11872	0.10406	0.21729	0.086227	0.10524	0.032754	0.26633	0.24107	-1.5917	-2.5875	-2.1479	-2.0021	-2.8312	-2.0875	-2.3542	-2.7271	-1.8646	-2.5146	-2.4625	-2.1458	-2.6708	-2.1646	-2.0917	-2.525	42.321	5.326	152.547	157.641	-112.705	79.608	147.881	145.887	114.992	15.407	-85.588	-56.028	-116.009	161.935	-90.741	-78.299	0.00021861	0.00098329	0.00020723	926.66	1.2187e-05	1.4519e-05	803.15	248.1	4.72e-06	4.855e-06	231.85	69.586	75.159	29.805	7.0917e-06	32.816	0.015873	0.026038	0.0072294	1099.6	0.00027655	0.0002913	886.81	277.95	0.00026127	0.00029029	280.62	86.398	101.75	35.281	0.00026831	40.474	-89.934	-66.558	-48.096	-108.531	-61.225	32.490	-110.327	-103.752	208.076	-90.676	-105.886	-101.351	-99.332	-93.695	-120.185	-97.390	-8191	255	
14564.998	1	1	0	0	0.038053	0.25041	0.13088	0.2631	0.15112	0.078546	0.1061	0.18303	0.16277	0.30081	0.13893	0.48127	0.14353	0.41564	0.12387	0.23985	-1.3438	-2.3375	-2.3375	-2.0229	-2.5208	-2.2458	-2.125	-2.7583	-1.9458	-2.3917	-2.4938	-1.9167	-2.7417	-2.2875	-1.95	-2.6937	159.990	-62.395	-58.302	61.306	39.253	29.218	215.631	-58.493	37.864	-91.271	186.467	217.346	218.281	228.866	201.041	191.245	0.00025632	0.00051287	0.00028603	926.13	1.4135e-06	1.6462e-05	805.05	250.09	3.3124e-06	3.6893e-06	232.35	69.834	76.664	29.834	4.2929e-06	32.914	0.015882	0.025977	0.0072419	1102.3	0.00027872	0.00029156	888.12	278.37	0.00026164	0.00029143	280.46	86.576	102.85	35.402	0.00027049	40.724	193.880	68.538	214.477	-109.138	-33.508	-2.290	-110.280	-103.768	92.137	170.415	-105.792	-100.566	-98.870	-93.412	227.979	-97.160	-8191	255	
14565.095	1	1	0	0	0.18787	0.068287	0.34434	0.067486	0.17461	0.12726	0.17589	0.36731	0.19332	0.17191	0.091176	0.26635	0.31316	0.12306	0.15474	0.38793	-1.35	-2.3167	-2.4375	-1.8271	-2.4917	-2.3354	-1.8833	-2.6792	-1.9646	-2.1958	-2.5938	-1.7729	-2.6667	-2.1479	-2.0958	-2.6583	192.063	211.155	-97.770	-51.480	-99.457	39.093	103.407	234.526	0.664	0.832	-94.370	115.519	143.462	142.883	87.811	-8.239	0.00031429	0.00053346	0.00076383	931.45	6.9034e-06	1.3909e-05	805.06	248.77	4.0208e-06	1.2793e-05	234.36	69.788	75.54	29.882	1.267e-05	33.033	0.015944	0.026049	0.0072749	1102.1	0.00027733	0.00029054	890.47	278.14	0.00025964	0.00028887	282.67	86.823	102.3	35.519	0.00027008	40.89	-49.135	199.489	12.972	-109.190	-25.248	-110.762	-110.289	-103.613	-106.662	-88.782	-106.079	-100.859	-98.332	-93.547	54.874	-96.487	-8191	255	
14565.213	1	1	0	0	0.056019	0.10483	0.36258	0.11797	0.25699	0.10018	0.048732	0.12292	0.14008	0.15366	0.12133	0.30443	0.19794	0.15843	0.19751	0.10601	-1.4417	-2.1562	-2.6458	-1.9021	-2.4625	-2.2562	-2.0604	-2.8146	-1.9792	-2.0271	-2.6063	-1.8333	-2.3375	-2.5125	-1.9729	-2.6437	102.155	61.394	76.744	-91.633	123.627	24.474	229.183	126.687	100.807	130.288	216.325	-98.433	-111.811	168.039	-113.444	-71.736	0.00022795	0.00099933	0.00014031	925.86	1.4966e-05	4.7456e-06	813.27	250.72	9.6377e-06	7.6228e-07	238.6	70.309	76.053	29.806	1.023e-05	33.224	0.015838	0.025841	0.0073733	1100.1	0.00027504	0.00029151	893.9	278.77	0.00026029	0.00029203	284.64	87.172	102.38	35.437	0.00027128	40.871	-87.202	-83.806	-50.751	-109.191	26.092	68.273	-109.904	-103.509	233.181	-33.469	-105.477	-101.000	-98.905	-93.562	105.413	-96.926	-8191	255	
14565.310	1	1	0	0	0.24315	0.072651	0.11043	0.20061	0.11166	0.18026	0.16871	0.26702	0.073021	0.17368	0.16572	0.093958	0.26591	0.063082	0.32808	0.1294	-1.5479	-2.0083	-2.6063	-1.8042	-2.3208	-2.3187	-2.0667	-2.7021	-1.9104	-1.9875	-2.7167	-2.0187	-2.2125	-2.5333	-1.9208	-2.6583	222.828	-100.649	-96.542	186.442	-0.968	-39.433	174.733	96.264	227.414	15.050	-87.790	-45.107	-116.464	-57.770	31.299	-11.622	0.00029263	0.00052184	0.00032058	923.28	1.3762e-05	1.1521e-05	800.93	247.9	3.8e-06	6.5768e-06	233.02	69.878	75.951	29.579	1.6995e-05	32.832	0.015693	0.026004	0.0073475	1098.1	0.00027493	0.00029166	888.44	276.94	0.00025669	0.0002922	282.04	86.563	101.59	35.189	0.00026981	40.552	-66.318	-104.399	155.853	-109.065	49.210	-89.454	-109.908	-103.718	147.553	81.095	-106.319	-100.838	-97.953	-93.208	6.907	-96.838	-8191	255	
14565.406	1	1	0	0	0.11119	0.23437	0.084506	0.13504	0.14217	0.15036	0.17077	0.13604	0.046978	0.13028	0.17805	0.19728	0.34388	0.21078	0.15827	0.20002	-1.6562	-1.8833	-2.4917	-2.0438	-2.3396	-2.4271	-2.1312	-2.5479	-2.3208	-1.9896	-2.5563	-1.9625	-2.1854	-2.6542	-1.6854	-2.5375	152.580	125.518	216.412	39.365	64.701	-70.066	-64.328	209.143	194.131	41.523	84.841	139.895	187.925	-117.090	87.448	93.105	0.00034401	0.0011166	0.00020027	917.91	1.5659e-05	1.6107e-05	797.88	248.03	7.802e-06	1.6372e-05	231.07	69.164	75.248	29.634	7.583e-06	32.616	0.015627	0.025871	0.0073369	1093.3	0.00027504	0.0002932	886.66	276.93	0.00025694	0.00029111	282.06	86.173	101.59	35.27	0.00026804	40.391	-47.018	-103.272	142.929	-109.052	-6.352	-101.204	-110.014	-103.744	161.785	-26.503	-105.500	-101.099	-98.549	-93.673	135.272	-96.617	-8191	255	
14565.502	1	1	0	0	0.19792	0.20087	0.16877	0.24713	0.084152	0.042213	0.39513	0.21452	0.28172	0.19326	0.30262	0.044349	0.1904	0.21115	0.25017	0.11667	-2.2042	-1.6625	-2.6646	-1.9792	-2.1625	-2.5812	-2.1312	-2.4813	-2.3646	-1.7833	-2.6667	-2.1229	-2.1125	-2.725	-1.8854	-2.5271	205.597	-57.142	14.885	236.727	161.280	-46.337	148.842	117.040	-105.486	115.968	-66.038	-51.183	212.714	233.377	10.992	-90.505	0.00012771	0.00057373	0.00034318	915.93	1.155e-05	1.3727e-05	802.53	246.14	4.9139e-06	5.1825e-06	234.3	70.17	75.238	29.48	7.8756e-06	32.571	0.015801	0.026053	0.0072786	1092.8	0.00027416	0.00029226	888.5	276.54	0.00025812	0.00029329	282.15	86.624	101.66	35.253	0.00026704	40.597	238.174	-30.097	4.145	-108.794	-20.030	132.438	-109.638	-103.291	-97.012	80.611	-105.605	-101.128	-98.313	-93.462	171.415	-96.706	-8191	255	
14565.598	1	1	0	0	0.22755	0.13391	0.080517	0.20385	0.096545	0.10584	0.13011	0.17448	0.16159	0.17625	0.24446	0.066647	0.088081	0.0801	0.04832	0.18843	-1.8333	-1.9458	-2.5771	-2.15	-2.0542	-2.6063	-2.0438	-2.3833	-2.3333	-1.8125	-2.55	-2.1479	-1.8583	-2.7854	-1.8687	-2.3875	-88.243	179.224	28.986	-54.932	-120.527	115.919	211.858	173.604	180.518	22.438	176.547	-90.264	138.505	-117.090	118.834	126.853	0.00015186	0.0013034	0.00021653	913.12	2.4695e-05	1.0588e-05	804.86	248.96	1.6336e-06	2.1205e-05	237.15	69.982	75.469	29.674	7.1468e-06	33.342	0.015825	0.025931	0.0072359	1092.6	0.00027509	0.00029111	891.46	278.21	0.000258	0.00029095	284.62	87.393	102.44	35.493	0.00026515	40.967	-53.911	8.237	118.419	-108.778	112.200	8.302	-109.974	-103.427	-114.196	-1.625	-105.372	-100.493	-98.936	-93.287	-1.931	-97.206	-8191	255	
14565.694	1	1	0	0	0.17278	0.065134	0.29986	0.16978	0.18104	0.28283	0.1408	0.16504	0.17893	0.27313	0.1825	0.32159	0.10882	0.051071	0.23234	0.21216	-2.1375	-1.8396	-2.5146	-2.4708	-1.825	-2.6437	-1.9875	-2.2042	-2.5375	-1.8229	-2.6792	-2.3625	-1.875	-2.65	-2.0438	-1.9979	51.495	53.308	43.403	149.854	91.446	230.643	147.135	151.733	209.990	226.742	140.326	120.105	236.140	-101.319	-92.755	201.608	0.00011975	0.0011446	0.00038896	914.48	4.231e-06	6.4427e-06	799.66	249.2	3.4424e-06	1.9324e-05	232.13	68.846	75.256	29.523	8.8526e-06	32.899	0.015957	0.025964	0.0072061	1094.9	0.00027581	0.00029001	889.48	277.37	0.00025791	0.00029069	280.92	85.854	101.89	35.192	0.00026525	40.463	235.497	-80.028	105.118	-109.056	-76.237	66.576	-109.840	-103.235	49.587	78.337	-105.773	-100.822	-98.441	-93.452	180.208	-96.951	-8191	255	
14565.815	1	1	0	0	0.15951	0.056539	0.34442	0.11056	0.24558	0.11448	0.20026	0.18854	0.098603	0.012492	0.28155	0.074641	0.11882	0.074777	0.20304	0.097196	-2.1021	-1.5729	-2.5021	-2.5417	-1.9458	-2.5833	-2.3208	-1.9958	-2.5687	-1.9708	-2.35	-2.5812	-1.6771	-2.6937	-2.0312	-2.1792	165.617	174.570	106.242	-0.568	207.536	40.415	199.788	1.229	-74.526	163.022	-103.047	-87.896	222.611	-0.214	157.912	45.620	0.00026096	0.00047618	7.2675e-05	915.23	1.6764e-05	1.76e-05	799.6	246.93	1.4724e-05	1.7672e-05	227.45	68.591	73.552	29.357	4.1536e-06	32.293	0.015874	0.025738	0.0071849	1094.8	0.00027705	0.00029158	883.19	276.55	0.00026012	0.00028889	277.77	85.772	101.27	35.199	0.00026674	40.348	-34.514	204.071	121.439	-108.875	-62.560	14.331	-109.910	-103.493	16.266	50.504	-105.740	-100.947	-98.830	-93.504	97.083	-97.109	-8191	255	
14565.911	1	1	0	0	0.11192	0.20596	0.1823	0.11782	0.12056	0.26426	0.13537	0.11397	0.11513	0.12197	0.16463	0.098919	0.23631	0.083524	0.22387	0.13664	-2.1479	-1.9229	-2.2333	-2.7542	-1.825	-2.6125	-2.3667	-2.0604	-2.5479	-2.0021	-2.4229	-2.6937	-1.6812	-2.4792	-2.2083	-1.7667	89.336	153.470	217.556	-120.507	155.665	85.592	149.982	-42.976	40.307	134.971	18.995	-80.042	123.001	-37.410	20.524	166.536	0.00022113	0.001079	0.00050394	907.73	1.5823e-05	1.8376e-05	793.07	246.84	6.3237e-06	1.6989e-05	227.63	68.672	75.329	29.489	1.3468e-05	32.895	0.015952	0.025678	0.0072775	1093.4	0.00027669	0.00028946	878.15	276.13	0.00026104	0.00028949	277.46	85.985	101.8	35.315	0.00026711	40.751	206.734	-21.450	-44.087	-108.750	102.469	-43.629	-109.855	-103.511	35.833	127.669	-105.625	-101.017	-97.836	-93.573	65.199	-96.687	-8191	255	
14565.983	1	1	0	0	0.18619	0.31993	0.05446	0.32054	0.2522	0.15066	0.1945	0.259	0.12522	0.15561	0.04382	0.084913	0.15278	0.17858	0.20151	0.20689	-2.3542	-1.8458	-2.2062	-2.6583	-1.7229	-2.625	-2.4938	-1.9375	-2.6937	-2.0104	-2.0938	-2.5583	-1.9375	-2.5917	-2.3979	-1.8271	-53.335	-61.312	-81.213	202.570	203.109	140.157	202.724	178.604	135.358	201.926	69.469	153.265	176.703	153.706	-80.952	71.481	0.00043903	0.0010432	0.00036919	911.8	1.0674e-05	1.2429e-05	796.6	248.33	3.722e-06	1.0367e-05	231.45	70.157	76.163	29.882	2.0911e-05	33.046	0.015892	0.025767	0.0072828	1095	0.00027821	0.00028974	881.33	276.95	0.00025842	0.00028797	279.56	86.815	102.31	35.554	0.00026846	40.795	-93.170	12.511	140.348	-109.063	-104.994	230.359	-110.223	-103.268	42.894	-120.518	-106.386	-100.904	-98.277	-93.124	124.910	-96.856	-8191	255	
14566.103	1	1	0	0	0.088676	0.26955	0.059764	0.039571	0.083152	0.020672	0.1379	0.051451	0.20374	0.24431	0.1034	0.061838	0.17525	0.21516	0.1414	0.41003	-2.2062	-1.8813	-1.8896	-2.8542	-1.9312	-2.4458	-2.5583	-2.0271	-2.6083	-2.1667	-2.0125	-2.7375	-2.0062	-2.3646	-2.6625	-1.7604	197.714	46.023	40.247	39.717	17.160	184.332	210.826	-37.472	67.517	164.824	185.418	93.583	216.671	-100.252	217.426	231.736	0.00037352	0.0016135	0.00013987	927.02	2.576e-05	7.1506e-06	805.77	249.01	4.8873e-06	9.8317e-06	230.47	70.055	75.547	29.87	9.9294e-06	32.743	0.016009	0.025753	0.0073853	1100.5	0.00027572	0.00029	886.09	277.88	0.00025787	0.00028919	279.56	86.6	101.55	35.476	0.00027053	40.55	-53.272	-115.834	200.394	-108.674	96.505	-70.421	-110.210	-103.522	-69.594	63.350	-105.881	-101.341	-98.622	-93.539	92.882	-96.975	-8191	255	
14566.198	1	1	0	0	0.276	0.17322	0.14855	0.15808	0.17228	0.31034	0.1401	0.30262	0.092979	0.032089	0.056874	0.1797	0.14318	0.24654	0.17844	0.19818	-2.1688	-2.2083	-1.9167	-2.6479	-1.9875	-2.4042	-2.625	-1.9771	-2.4292	-2.2729	-2.1396	-2.5271	-1.8854	-2.4167	-2.6167	-1.8854	152.501	111.233	-87.803	129.683	175.882	-51.832	112.886	146.758	-103.676	-82.715	-66.192	192.604	-45.575	212.105	177.347	126.400	0.0001304	0.00070472	0.00052837	914.64	8.7331e-06	1.4278e-05	795.36	247.02	1.8106e-05	8.2039e-06	228.69	68.68	75.59	29.887	6.8168e-06	32.649	0.015697	0.025649	0.0073344	1092.3	0.00027216	0.00028948	877.85	275.29	0.00025428	0.00028979	277.3	85.563	101.33	35.348	0.00026818	40.329	-93.295	59.873	-91.228	-109.074	235.367	-71.453	-109.975	-103.432	-76.901	108.176	-106.047	-101.231	-98.930	-93.086	-91.267	-97.573	-8191	255	
14566.294	1	1	0	0	0.23605	0.15346	0.070386	0.2326	0.080407	0.19444	0.45138	0.093222	0.11695	0.22718	0.11697	0.1513	0.15836	0.10281	0.018001	0.17356	-2.1271	-2.4646	-1.7812	-2.8104	-1.9646	-2.2188	-2.8187	-1.9292	-2.525	-2.5917	-2.075	-2.6854	-2.1521	-2.0542	-2.6542	-1.8979	-97.880	-105.159	165.716	145.151	8.505	4.936	153.295	230.336	161.763	53.629	224.567	63.103	209.253	180.671	121.649	174.012	0.0002405	0.00031305	0.00034954	910.21	6.3689e-06	1.2958e-05	791.74	244.32	1.3187e-05	8.236e-06	228.19	68.6	74.452	29.819	1.3816e-05	32.721	0.015531	0.025806	0.0073239	1088.4	0.00027013	0.00029235	876.08	274.46	0.00025719	0.00029013	276.92	85.724	100.97	35.368	0.00026688	40.418	-107.164	115.692	-14.857	-108.901	-92.511	88.617	-110.046	-103.435	-43.830	106.113	-105.968	-101.001	-98.820	-93.387	190.707	-97.017	-8191	255	
14566.390	1	1	0	0	0.025939	0.16301	0.30139	0.27876	0.16045	0.12354	0.17848	0.2899	0.11078	0.16406	0.26189	0.10377	0.20828	0.33474	0.26027	0.16752	-2.0563	-2.325	-1.7854	-2.7208	-2.1792	-1.8937	-2.6063	-1.9375	-2.3458	-2.55	-1.8937	-2.6146	-2.2542	-2.0792	-2.7021	-2.0208	-1.004	-85.306	-38.043	137.105	67.307	-73.446	40.999	186.597	-55.162	81.235	67.054	-59.973	-101.934	234.101	201.035	2.519	0.00034255	0.0015294	0.00064194	909.69	4.9604e-06	6.5125e-06	792.81	246.37	9.6147e-06	1.3577e-05	229.53	68.918	75.735	29.628	1.4006e-05	32.798	0.015684	0.026176	0.0072797	1086.8	0.00027232	0.00029396	878.28	275.74	0.00025798	0.00029276	277.98	86.011	101.4	35.534	0.00026792	40.624	-64.449	-66.019	-18.130	-109.051	-49.345	149.490	-110.054	-103.636	181.144	55.113	-105.911	-100.653	-98.960	-93.508	221.145	-96.823	-8191	255	
14566.486	1	1	0	0	0.27186	0.11003	0.27733	0.23017	0.22074	0.022519	0.229	0.21961	0.24906	0.10091	0.10246	0.10948	0.19772	0.14964	0.055287	0.26419	-1.9188	-2.3937	-1.725	-2.5271	-2.2792	-2.0167	-2.5979	-1.9438	-2.2438	-2.5875	-2.0563	-2.6625	-2.3583	-2.0062	-2.7729	-2.0875	13.271	-62.390	9.849	200.615	133.373	114.813	235.775	197.258	-15.264	4.316	-94.753	208.401	158.684	113.782	101.038	-81.471	0.00033409	0.0013733	0.00033844	911.46	1.6982e-05	7.5832e-06	793.58	247.12	1.1498e-05	2.0281e-05	230.98	70.102	75.704	29.854	4.0325e-06	32.784	0.015746	0.025925	0.0072864	1089.9	0.00027453	0.00029322	881.82	276	0.00026043	0.0002921	279.81	86.66	102.14	35.555	0.00026645	40.667	-92.815	181.926	162.065	-108.502	30.927	-121.312	-109.947	-103.657	-110.889	-87.033	-105.888	-101.044	-98.525	-93.297	159.758	-96.470	-8191	255	
14566.582	1	1	0	0	0.072038	0.19173	0.083991	0.24403	0.33246	0.19798	0.12881	0.076049	0.0071033	0.15875	0.20708	0.12478	0.22194	0.16718	0.14588	0.014962	-1.625	-2.5563	-1.5833	-2.5646	-2.6417	-1.9396	-2.9375	-2.0271	-2.15	-2.7021	-1.9875	-2.1562	-2.5083	-1.7271	-2.3396	-2.2104	45.662	-118.734	147.835	-3.858	11.132	-103.184	-66.331	185.956	179.989	86.069	178.586	-11.616	51.038	-77.996	-24.511	71.016	0.00047165	0.0010369	9.0035e-05	915.47	1.2718e-05	7.1846e-06	787.49	244.2	1.487e-05	1.5159e-05	226.77	68.96	74.864	29.567	1.3912e-05	32.425	0.015974	0.025895	0.0071587	1087.9	0.00027573	0.00029173	877.4	274.85	0.00025979	0.00028882	276.07	85.937	101.2	35.313	0.00026366	40.124	-77.058	50.812	-36.300	-108.949	168.567	-20.564	-110.007	-103.514	102.562	185.020	-105.592	-101.171	-98.293	-93.374	22.185	-97.413	-8191	255	
14566.678	1	1	0	0	0.06146	0.1535	0.0049076	0.11059	0.13998	0.11184	0.11375	0.42599	0.057623	0.11255	0.3572	0.21965	0.11905	0.48591	0.08907	0.43091	-1.6604	-2.7458	-1.8042	-2.5125	-2.525	-1.8396	-2.6042	-2.2458	-2.0542	-2.5542	-2.1292	-2.3792	-2.6167	-1.8854	-2.4813	-2.3833	-24.202	198.272	-15.987	51.290	124.376	55.196	152.966	-117.879	28.119	113.056	189.326	200.886	144.128	112.337	179.527	182.525	0.0001583	0.00042758	0.00039699	906.96	9.8229e-06	3.8251e-06	788.74	243.33	2.1081e-05	5.9828e-06	225.29	68.071	74.916	29.599	9.0826e-06	32.467	0.015746	0.025494	0.007143	1086.8	0.00027366	0.00028902	873.37	273.71	0.0002584	0.00028823	274.47	85.371	101.23	35.217	0.00026344	40.395	-31.334	2.401	86.218	-109.283	-104.443	44.844	-110.216	-103.585	-16.684	-46.728	-106.226	-101.000	-98.410	-93.690	47.913	-97.004	-8191	255	
14566.775	1	1	0	0	0.20574	0.25809	0.13786	0.27784	0.12512	0.10145	0.19631	0.36781	0.051297	0.26922	0.31124	0.10652	0.089162	0.14853	0.14143	0.14254	-1.3708	-2.5146	-2.0479	-2.2896	-2.7208	-2.0062	-2.6375	-2.4083	-2.0521	-2.7771	-2.1688	-2.0542	-2.6958	-1.9312	-2.425	-2.2792	-97.205	-70.025	-86.063	196.298	16.789	5.649	37.975	-32.339	160.870	144.262	70.305	113.803	168.052	-43.784	227.062	24.549	0.00024094	0.0012235	0.00017641	902.19	2.362e-05	6.936e-06	783.15	242.2	2.3249e-05	1.4137e-05	227.2	68.554	74.754	29.423	9.0738e-06	32.324	0.015769	0.025414	0.0071548	1082.1	0.00027455	0.00028562	872.65	273.41	0.00025648	0.00028571	275.22	85.87	100.98	35.126	0.00026239	40.426	-94.841	-36.877	111.122	-108.434	17.121	-12.206	-109.980	-103.717	98.595	-19.726	-105.939	-100.875	-98.134	-93.285	-71.138	-96.645	-8191	255	
14566.895	1	1	0	0	0.096773	0.099054	0.20125	0.27076	0.18663	0.20377	0.26402	0.024667	0.068549	0.11326	0.07743	0.36845	0.10367	0.27349	0.10175	0.16814	-1.5667	-2.5271	-2.0521	-1.9875	-2.8083	-2.0417	-2.4854	-2.5604	-1.7396	-2.4542	-2.3979	-2	-2.625	-2.025	-2.1958	-2.5729	-50.030	-88.646	36.152	236.456	-27.631	181.177	221.964	-115.010	206.905	-117.583	185.731	114.298	101.289	-107.527	120.893	196.197	0.00037451	0.0013581	0.00028096	898.37	1.7347e-05	1.2308e-05	793.07	244.61	1.085e-05	1.739e-05	229.23	69.105	75.626	29.553	1.1707e-05	32.714	0.015763	0.025383	0.0071526	1086.5	0.00027362	0.00028614	879.15	275.25	0.00025627	0.000284	278.06	86.682	101.75	35.337	0.00026618	40.965	-96.772	74.049	154.087	-108.698	-109.277	59.341	-109.882	-103.459	104.380	22.310	-106.017	-100.896	-98.840	-93.236	-65.723	-97.069	-8191	255	
14566.991	1	1	0	0	0.14847	0.10595	0.20979	0.20678	0.22311	0.13033	0.20646	0.46216	0.23352	0.21839	0.17678	0.34401	0.026766	0.03711	0.055911	0.17226	-1.3958	-2.4437	-2.2854	-2.0563	-2.8333	-2.0833	-2.3812	-2.6	-1.9813	-2.5687	-2.4583	-1.9896	-2.725	-2.2042	-2.0917	-2.5917	24.419	72.854	141.907	214.562	138.485	-55.255	217.967	230.536	-46.259	-0.225	153.739	-88.768	-53.892	-109.313	206.094	133.487	0.000122	0.00024029	2.1187e-05	912.19	7.9139e-06	7.5275e-06	792.62	244.69	1.3754e-05	6.0075e-06	227.76	69.648	75.272	29.708	8.7638e-06	32.963	0.015698	0.025304	0.0072776	1090.5	0.00027333	0.00028689	882.38	275.88	0.00025539	0.00028433	278.82	86.705	101.6	35.354	0.00026825	40.764	-63.552	-83.103	49.691	-109.067	-42.183	153.950	-110.072	-103.615	-67.309	212.349	-105.907	-101.361	-98.065	-93.358	-111.148	-96.837	-8191	255	
14567.087	1	1	0	0	0.16634	0.1893	0.38722	0.26043	0.18932	0.17728	0.13602	0.29078	0.20327	0.26696	0.040293	0.23779	0.15906	0.12675	0.14255	0.028601	-1.4875	-2.3792	-2.5438	-1.9396	-2.5229	-2.1167	-2.2833	-2.6292	-1.7417	-2.575	-2.4958	-1.8708	-2.7292	-2.3083	-2	-2.9125	-83.244	-97.220	202.556	147.371	122.457	222.697	-7.742	197.619	97.044	-25.943	-114.477	178.470	213.334	232.410	34.716	88.815	0.00036247	0.00097819	0.00038107	897.78	1.6332e-05	1.0373e-05	783.72	243.28	1.0073e-05	7.154e-06	224.64	69.037	74.609	29.221	7.4409e-06	32.837	0.015481	0.025256	0.0072242	1083.1	0.00026869	0.00028581	876.09	274.79	0.00025391	0.00028606	276.19	86.164	101	35.215	0.00026605	40.741	-63.204	91.016	-62.164	-108.968	74.184	82.226	-110.053	-103.685	-39.271	-39.832	-105.793	-101.254	-97.813	-93.094	50.556	-96.759	-8191	255	
14567.206	1	1	0	0	0.10239	0.22612	0.26166	0.13236	0.12631	0.22201	0.58621	0.12911	0.1416	0.41901	0.24847	0.22548	0.11262	0.17346	0.06841	0.17683	-1.6896	-2.475	-2.4938	-2.1167	-2.3208	-2.4354	-2.0062	-2.8333	-2.2146	-2.4729	-2.6896	-2.1437	-2.6667	-2.3125	-1.9229	-2.7771	-0.270	-74.238	93.165	-42.169	-13.884	-34.133	159.566	64.127	44.514	217.895	215.740	-93.894	-0.454	-57.357	-30.655	58.075	0.0004841	0.00070634	0.00016671	896.02	7.2855e-06	5.733e-06	785.32	243.5	7.5765e-06	1.4249e-05	229.05	68.943	75.194	29.185	2.755e-05	32.724	0.015451	0.025522	0.0071952	1079.6	0.00026821	0.00028801	875.76	274.23	0.00025233	0.00028787	277.59	85.835	101.24	35.187	0.00026749	40.71	-83.585	-29.143	205.228	-108.700	131.222	-112.344	-109.519	-103.511	236.637	56.778	-105.262	-100.890	-98.603	-93.561	62.839	-96.679	-8191	255	
14567.278	1	1	0	0	0.12742	0.14924	0.20715	0.23492	0.14493	0.36104	0.14	0.20046	0.32141	0.15738	0.16037	0.070323	0.28879	0.18117	0.13879	0.21015	-1.5583	-2.3563	-2.5854	-1.9521	-2.5083	-2.2062	-2.0563	-2.7771	-2.0979	-2.3021	-2.7083	-1.8417	-2.4021	-2.3521	-2.0646	-2.8333	-26.024	189.186	231.356	176.827	-2.494	161.632	111.617	205.071	-96.092	5.188	159.792	224.314	-70.894	-109.989	70.710	-50.911	0.00022452	0.00085971	0.00012939	902.64	1.2232e-05	1.3245e-05	783.54	243.03	1.0578e-05	1.5727e-06	228.43	68.836	74.279	29.534	5.5014e-06	33.023	0.015442	0.02567	0.007294	1082.4	0.00026958	0.00029019	877.29	274	0.00025162	0.00028926	279.44	86.198	101.35	35.401	0.00026602	40.955	-47.262	-61.854	-81.434	-108.675	55.930	35.834	-109.682	-103.443	-2.157	217.355	-105.564	-101.383	-97.996	-93.063	146.701	-96.697	-8191	255	
14567.374	1	1	0	0	0.16382	0.053255	0.2647	0.16649	0.11364	0.11337	0.23479	0.073371	0.20996	0.21796	0.091651	0.21663	0.23581	0.11539	0.13872	0.31673	-1.725	-2.2521	-2.6562	-1.9813	-2.4729	-2.4667	-2.1	-2.8042	-2.0604	-2.1875	-2.6979	-1.9875	-2.5042	-2.5687	-1.6583	-2.6958	-95.296	203.463	-51.527	169.383	-33.920	69.470	159.947	203.003	111.267	156.760	-118.686	-94.704	198.310	209.585	216.488	150.042	0.00015389	0.0018489	8.5952e-05	896.27	1.0699e-05	5.1499e-06	788.64	245.66	8.2419e-06	1.1176e-05	229.47	69.877	75.32	29.6	1.047e-05	32.99	0.015557	0.025666	0.0071757	1079.5	0.00027299	0.00028903	882.38	275.97	0.00025535	0.0002908	279.99	86.729	101.92	35.512	0.00026308	40.842	145.047	164.164	-87.063	-108.626	54.384	-103.567	-109.649	-103.120	144.306	95.407	-105.833	-101.380	-98.403	-93.513	68.649	-97.017	-8191	255	
14567.495	1	1	0	0	0.13636	0.13251	0.15515	0.25431	0.040994	0.1815	0.37747	0.17987	0.15012	0.14524	0.090052	0.10687	0.17344	0.11911	0.15948	0.058257	-1.7729	-1.9646	-2.6937	-1.9479	-2.3063	-2.5917	-2.0667	-2.6729	-2.3187	-2.1083	-2.7333	-2.1813	-2.3479	-2.7104	-1.8521	-2.6667	111.617	-96.427	100.031	196.332	190.459	-80.609	-97.442	189.424	-106.315	-77.190	-121.236	-44.451	30.941	-113.830	-18.818	-3.121	0.00027501	0.0012857	0.00062968	898.8	1.0386e-05	6.8817e-06	792.53	242.67	1.5028e-06	1.0641e-05	228.48	68.861	75.056	29.277	1.5141e-06	32.848	0.01564	0.025709	0.0071985	1079.7	0.00027186	0.00028876	878.22	273.88	0.00025667	0.00028807	278.35	85.84	101.35	35.208	0.00026151	40.584	-52.087	32.410	-67.721	-108.902	-81.650	40.202	-109.562	-103.358	124.289	177.183	-105.405	-100.690	-98.592	-93.274	151.984	-96.458	-8191	255	
14567.591	1	1	0	0	0.17494	0.17508	0.082543	0.077608	0.18114	0.081903	0.2142	0.14623	0.22119	0.091101	0.063843	0.074193	0.085533	0.18357	0.29095	0.12961	-1.9875	-1.7458	-2.5875	-2.0917	-2.0479	-2.6875	-2.1167	-2.5104	-2.3021	-2.0042	-2.7479	-2.2854	-2.1562	-2.7979	-1.8771	-2.4125	14.228	-69.195	233.467	-33.383	-108.850	199.651	164.331	52.849	104.172	5.029	233.372	-11.639	-111.950	179.279	104.379	-110.210	0.0002231	0.0016193	0.00049621	893.38	1.2197e-05	2.8449e-05	783.07	242.97	8.9585e-06	8.0087e-06	228.03	68.497	74.137	29.324	3.9048e-06	32.572	0.015674	0.025689	0.0070675	1078	0.00027276	0.00028916	873.7	273.66	0.00025841	0.00028778	277.2	85.976	101.24	35.195	0.00026184	40.637	-55.458	216.961	-40.011	-108.638	47.631	-83.766	-109.945	-103.549	23.558	52.149	-105.557	-101.372	-98.370	-93.275	129.750	-96.238	-8191	255	
14567.687	1	1	0	0	0.14446	0.15326	0.050371	0.3449	0.11524	0.10524	0.50668	0.2898	0.29064	0.082315	0.30911	0.11877	0.13959	0.2942	0.15731	0.33154	-2.1437	-1.9729	-2.6375	-2.2354	-2.2396	-2.6875	-2.0875	-2.5854	-2.5396	-1.7896	-2.8333	-2.3417	-2.125	-2.7958	-1.8521	-2.3604	90.064	198.162	-60.795	238.585	83.717	137.373	153.979	202.310	87.264	-119.915	204.655	-76.779	-56.235	220.965	20.578	175.996	0.00016903	0.0013601	0.00054392	894.91	5.4567e-06	1.2337e-06	789.47	241.78	2.5192e-06	2.7373e-06	229.55	69.449	74.6	29.424	4.312e-06	33.169	0.015729	0.025486	0.0071369	1078.8	0.00027489	0.00028966	877.84	274.42	0.00025628	0.0002859	278.76	86.583	101.23	35.306	0.00026404	40.96	-50.660	-17.720	149.149	-108.678	-28.823	114.332	-110.030	-103.152	169.972	141.017	-105.630	-100.645	-98.615	-93.340	19.499	-96.427	-8191	255	
14567.808	1	1	0	0	0.23961	0.25619	0.20774	0.068697	0.2107	0.15386	0.14838	0.25488	0.20391	0.33879	0.21395	0.15889	0.12341	0.18195	0.17469	0.11522	-2.175	-1.8563	-2.6042	-2.4396	-1.8896	-2.7917	-2.1333	-2.3708	-2.5542	-1.8875	-2.7417	-2.3646	-2.0563	-2.7583	-1.8896	-1.9417	65.563	73.512	-57.500	-25.010	-96.724	105.343	172.764	209.099	225.274	69.632	190.766	-111.590	-30.976	111.085	-5.971	-89.406	0.00031787	0.001799	9.7301e-05	902.56	1.1542e-05	8.4074e-06	796.21	244.39	6.0382e-06	8.1937e-06	232.96	69.227	74.909	29.461	7.6558e-06	33.323	0.015633	0.025416	0.0071389	1083.8	0.00027418	0.00028418	881.77	275.41	0.00025758	0.00028272	280.94	86.816	101.38	35.27	0.00026464	41.21	219.803	-17.203	-35.368	-108.877	232.402	-91.933	-110.132	-103.182	199.200	-85.920	-105.569	-100.919	-98.280	-93.158	169.379	-96.464	-8191	255	
14567.879	1	1	0	0	0.085126	0.25903	0.043668	0.35568	0.15136	0.18643	0.14371	0.059074	0.12645	0.10148	0.31014	0.30716	0.16793	0.24302	0.097919	0.12352	-2.2458	-1.8396	-2.5979	-2.4083	-1.9792	-2.7729	-2.1188	-2.0604	-2.7687	-1.9458	-2.4688	-2.5396	-1.9438	-2.7458	-1.9729	-2.0979	-97.132	132.065	227.075	-119.848	-107.102	-51.773	-70.466	104.746	-83.524	-58.003	194.882	202.975	96.294	80.449	44.144	63.545	0.00021445	0.00074406	0.00032828	901.97	5.6678e-06	9.7794e-06	796.15	244.52	9.5045e-06	1.2741e-05	229.74	69.155	75.249	29.249	1.5252e-05	32.752	0.01559	0.025332	0.007192	1084.7	0.00027244	0.00028368	882.6	274.86	0.00025183	0.00028202	279.17	86.233	100.75	34.949	0.00026453	40.6	-77.301	110.104	138.047	-108.886	-61.169	154.803	-110.028	-103.443	107.440	212.496	-105.407	-101.551	-98.413	-93.234	151.757	-96.425	-8191	255	
14567.976	1	1	0	0	0.080809	0.087927	0.16549	0.31327	0.13171	0.15245	0.17989	0.11863	0.16496	0.20239	0.2377	0.26173	0.092592	0.072588	0.072633	0.33702	-2.3187	-1.9354	-2.5042	-2.65	-1.7333	-2.7292	-2.4292	-2.0667	-2.7229	-2.0021	-2.2583	-2.5312	-1.9021	-2.5854	-2.3792	-2.0208	234.375	-43.179	30.620	5.739	21.987	-43.606	180.140	61.878	40.446	-34.468	-107.688	158.405	72.836	-62.783	113.344	192.495	0.0002074	0.0013246	0.00043295	901.81	3.4867e-06	6.1388e-06	786.23	242.62	1.092e-05	5.8347e-06	229.8	69.319	74.147	29.575	9.3803e-06	32.279	0.015377	0.024956	0.0071641	1079.4	0.0002689	0.00028363	875.76	273.24	0.00025069	0.0002833	278.98	85.599	100.45	34.93	0.0002622	40.453	6.982	-27.465	-21.627	-108.995	-99.771	50.314	-109.897	-103.445	223.012	150.022	-106.037	-101.362	-98.607	-93.401	67.387	-96.449	-8191	255	
14568.072	1	1	0	0	0.26847	0.18583	0.087765	0.31116	0.12585	0.073078	0.1293	0.048489	0.14019	0.30996	0.1978	0.30995	0.14901	0.08138	0.17245	0.15426	-2.1646	-1.9146	-1.9583	-2.5875	-1.8563	-2.5354	-2.4208	-2.1167	-2.7583	-2.0521	-2.0292	-2.8542	-1.9625	-2.5979	-2.4437	-1.9625	58.691	-67.686	31.477	157.903	205.779	228.391	146.950	-91.160	168.680	50.344	154.197	194.845	-112.060	122.818	162.211	141.017	0.0003039	0.00036116	0.0001576	901.44	1.7388e-05	1.3463e-05	787.75	243.43	1.2998e-05	2.2463e-05	229.12	69.331	73.618	29.087	2.0685e-05	32.619	0.015233	0.025115	0.0071474	1074.2	0.00026536	0.00028218	876.75	272.9	0.00024931	0.00028429	277.99	85.937	100.06	34.899	0.0002624	40.534	-33.291	-108.980	204.249	-109.020	0.448	166.407	-110.351	-103.366	77.685	137.517	-105.446	-100.604	-98.461	-93.362	-95.440	-96.485	-8191	255	
14568.168	1	1	0	0	0.11689	0.079762	0.43011	0.28587	0.032233	0.21968	0.047759	0.25712	0.20455	0.13861	0.074738	0.27037	0.29155	0.11351	0.06195	0.068253	-2.2958	-2.0583	-2.1417	-2.8438	-1.8	-2.4792	-2.5771	-2.1188	-2.6688	-2.1063	-2.0792	-2.7833	-1.9813	-2.4562	-2.3083	-1.7938	-70.092	21.820	-95.852	193.569	157.726	37.740	219.873	196.264	77.807	201.735	157.587	222.499	98.340	-74.476	193.364	195.900	0.00021624	0.00046479	0.00020718	895.96	4.1293e-06	9.9886e-06	784.02	243.02	1.616e-05	1.5748e-05	228.64	69.51	74.196	29.147	1.7251e-05	33.096	0.015374	0.025205	0.0072119	1075.1	0.00026617	0.00028511	881.48	272.97	0.00025083	0.00028518	279.05	86.247	100.16	34.984	0.00026308	40.803	-70.941	-92.094	-6.819	-109.062	109.404	-90.311	-110.062	-103.431	47.372	11.929	-105.535	-100.533	-98.238	-93.043	48.056	-96.402	-8191	255	
14568.287	1	1	0	0	0.029245	0.22456	0.26707	0.25993	0.053667	0.1479	0.14966	0.25174	0.24245	0.066243	0.053136	0.070713	0.1517	0.12196	0.13678	0.097763	-1.9833	-2.1771	-1.8042	-2.6271	-1.8813	-2.2375	-2.6813	-1.875	-2.35	-2.3229	-2.0604	-2.5917	-2.0083	-2.2042	-2.6125	-2.0479	191.909	74.824	5.313	225.184	220.433	-107.423	176.948	206.310	235.335	-2.984	37.206	-44.626	197.257	-105.463	164.297	102.740	0.00010669	0.00075943	0.0003109	903.65	1.8813e-05	1.4027e-05	791.14	241.32	1.4191e-05	7.6111e-06	228.29	69.611	73.706	29.061	1.1834e-05	32.782	0.015378	0.025477	0.007175	1079.6	0.00026933	0.00028691	883.83	273.17	0.00025352	0.00028633	278.94	85.912	100.3	35.026	0.00026218	40.54	3.611	182.590	-27.853	-108.814	-75.015	-37.094	-109.854	-103.190	-16.779	204.474	-105.459	-101.002	-98.293	-93.080	127.593	-96.593	-8191	255	
14568.383	1	1	0	0	0.14681	0.29023	0.089814	0.16314	0.066821	0.10448	0.18397	0.17052	0.20662	0.069553	0.19752	0.27304	0.23115	0.3569	0.13485	0.21158	-2.1729	-2.4062	-1.8958	-2.7083	-2.0396	-2.1021	-2.7458	-1.9188	-2.4646	-2.4625	-2	-2.5875	-2.0292	-2.1021	-2.9125	-2.1146	95.386	-114.997	-99.592	182.718	166.958	176.915	100.788	166.981	145.091	117.758	-69.515	71.123	177.252	198.953	56.232	183.420	0.0001871	0.0016283	0.0003184	892.34	1.7273e-05	1.1343e-05	782.55	240.12	3.996e-06	2.3876e-05	227.08	67.679	72.89	28.896	5.9974e-06	32.284	0.015412	0.025399	0.0070819	1073.6	0.00026791	0.00028505	872.48	271.62	0.00025381	0.00028379	275.81	84.891	99.639	34.716	0.00026034	40.153	-90.314	-64.193	171.176	-109.200	153.620	123.569	-109.629	-103.218	-106.940	52.670	-105.931	-101.107	-98.117	-93.463	70.012	-96.846	-8191	255	
14568.479	1	1	0	0	0.22213	0.046438	0.4252	0.21466	0.36563	0.15285	0.15747	0.25169	0.10859	0.081667	0.36363	0.028207	0.2044	0.21465	0.17878	0.17467	-2.0021	-2.5292	-1.85	-2.675	-2.2562	-2.075	-2.8312	-2.1521	-2.4979	-2.6271	-1.8271	-2.6583	-2.3396	-2.2167	-2.7917	-2.1521	-103.061	-105.543	230.772	182.806	-119.781	194.283	45.825	117.497	17.849	-6.378	236.740	18.658	-10.103	172.287	201.058	101.599	3.3436e-05	0.0015891	0.00029054	892.77	1.0522e-05	7.2346e-06	780.9	242.03	7.3619e-06	4.0826e-05	225.72	68.007	73.789	28.863	1.1888e-05	32.68	0.015529	0.025203	0.0070545	1073	0.00026889	0.00028589	871.42	271.78	0.00025313	0.00028395	275.18	85.2	100.33	34.668	0.00025864	40.346	-13.777	-25.836	-75.510	-108.413	95.221	-37.861	-109.728	-103.085	81.317	-8.239	-105.111	-100.535	-99.006	-93.029	-39.256	-96.560	-8191	255	
14568.575	1	1	0	0	0.20845	0.30346	0.12674	0.16871	0.087322	0.075367	0.2928	0.11858	0.16762	0.1742	0.13395	0.18047	0.14441	0.065088	0.067874	0.10724	-1.8813	-2.4958	-1.8312	-2.5333	-2.2292	-1.8604	-2.9646	-2.0687	-2.0542	-2.5312	-1.7771	-2.4292	-2.3937	-1.9896	-2.75	-1.9562	233.878	37.135	168.323	106.793	129.421	162.316	194.667	230.649	31.425	-118.862	198.006	161.895	122.084	-30.736	136.690	-30.672	0.00034529	0.0009601	0.00033583	895.05	1.1914e-05	6.339e-06	783.34	241.7	1.1874e-05	4.9491e-06	227.09	68.216	73.267	28.86	1.7994e-05	32.811	0.015581	0.02509	0.0070773	1074.7	0.00027024	0.00028736	875.48	272.15	0.00025448	0.00028396	276.83	85.623	100.04	34.767	0.00025914	40.598	-78.903	77.316	-54.014	-108.334	70.842	74.865	-109.676	-103.555	20.220	119.477	-105.919	-100.587	-99.181	-93.420	-32.498	-96.538	-8191	255	
14568.671	1	1	0	0	0.22688	0.13842	0.10085	0.18667	0.01885	0.049957	0.18527	0.20555	0.11628	0.015496	0.10459	0.17225	0.14269	0.091026	0.07352	0.13913	-1.6625	-2.6042	-1.8104	-2.6188	-2.4688	-1.8312	-2.825	-2.1833	-2.0875	-2.6979	-2.0417	-2.3625	-2.5042	-2.0021	-2.625	-2.0625	141.671	-51.707	75.931	184.060	174.810	222.105	151.374	211.272	87.947	218.103	205.921	149.028	-73.434	109.060	89.047	203.195	0.00025892	0.00044242	0.00078287	901.59	1.3266e-05	3.3534e-05	794.07	241.1	1.0093e-05	2.1622e-05	229.09	68.695	73.302	28.762	4.3516e-06	32.741	0.015611	0.025071	0.0071066	1077.2	0.00027244	0.0002861	879.87	272.31	0.00025452	0.00028196	278.96	86.429	100.3	34.718	0.00026146	40.687	-39.135	26.934	-29.319	-108.735	137.531	-37.494	-109.510	-103.559	175.407	183.268	-105.599	-101.111	-99.155	-93.278	219.970	-96.524	-8191	255	
14568.767	1	1	0	0	0.15522	0.16199	0.17184	0.044747	0.11286	0.16118	0.15161	0.062587	0.23586	0.1597	0.16567	0.22624	0.14882	0.40695	0.23207	0.177	-1.4937	-2.7917	-1.9604	-2.4146	-2.4042	-1.8729	-2.6604	-2.2042	-2.1854	-2.7104	-2.025	-2.3438	-2.6458	-1.9583	-2.45	-2.3438	120.738	217.869	224.693	-31.546	113.569	-51.717	-75.885	-99.098	231.715	154.115	145.410	77.705	196.996	195.375	-81.579	-93.804	0.00032163	0.0016854	0.0002298	885.56	2.3956e-05	3.2874e-06	782.44	239.61	1.1057e-05	8.741e-06	227.82	68.88	73.191	28.568	1.3814e-05	32.288	0.015548	0.025158	0.0070798	1075	0.00026918	0.00028329	876.61	271.99	0.00025181	0.00028108	276.85	86.086	99.732	34.487	0.00026223	40.194	-87.605	29.956	27.646	-108.990	54.006	-6.568	-109.563	-103.307	-68.313	-22.794	-106.172	-100.181	-98.995	-93.006	-39.969	-96.692	-8191	255	
14568.888	1	1	0	0	0.29009	0.19666	0.30055	0.22191	0.14304	0.019836	0.35222	0.2592	0.31463	0.07453	0.48448	0.33293	0.044258	0.19539	0.29626	0.19508	-1.525	-2.6271	-2.0687	-2.2083	-2.7396	-1.7417	-2.5958	-2.525	-1.9125	-2.6813	-2.1437	-2.2812	-2.6875	-1.9521	-2.5083	-2.5771	-96.584	236.096	225.488	182.857	-14.432	52.233	220.070	163.920	143.662	-83.885	162.331	215.360	-97.461	183.127	177.562	183.885	0.00016501	0.00029916	0.00040964	889.84	1.7327e-05	7.4905e-06	782.14	240.08	1.5374e-05	6.9865e-06	226.52	67.952	72.643	28.695	1.3019e-05	32.362	0.015366	0.024922	0.0071287	1075	0.00026677	0.00028319	874.56	270.79	0.00025249	0.0002812	276.37	85.24	99.135	34.46	0.00026184	40.315	-119.941	20.999	217.659	-108.497	77.430	-60.934	-109.672	-103.380	21.456	65.336	-105.592	-100.641	-98.197	-93.310	-1.121	-96.542	-8191	255	
14568.984	1	1	0	0	0.060416	0.27234	0.17133	0.16368	0.27633	0.24844	0.15102	0.089998	0.44004	0.17805	0.19855	0.39109	0.18957	0.063341	0.029389	0.082754	-1.5146	-2.4583	-1.9188	-2.0187	-2.725	-2.1312	-2.4813	-2.5021	-1.925	-2.6937	-2.2333	-2.0979	-2.5938	-1.8833	-2.375	-2.7458	165.601	-31.688	-78.521	205.697	-59.466	-93.791	144.787	-25.063	86.301	190.773	227.847	222.897	46.255	123.573	-69.256	74.686	0.00033939	0.0013396	0.00038411	895.68	1.5099e-05	2.7646e-05	780.89	240.94	3.9417e-06	3.2946e-06	228.8	68.034	72.199	28.569	2.1654e-05	32.604	0.015388	0.025306	0.0071322	1075	0.00026777	0.00028435	877.26	270.84	0.00025082	0.00028336	277.62	85.617	99.189	34.39	0.0002635	40.412	-97.381	40.535	-99.447	-108.559	54.557	-42.394	-109.769	-103.479	162.591	18.266	-105.431	-100.269	-98.674	-93.301	-26.345	-96.390	-8191	255	
14569.079	1	1	0	0	0.22889	0.11203	0.17345	0.19345	0.10953	0.070716	0.13367	0.18688	0.21271	0.17906	0.11217	0.25804	0.090957	0.14653	0.12861	0.12033	-1.2771	-2.7083	-2.2687	-1.9792	-2.5396	-1.9167	-2.3833	-2.5917	-1.6917	-2.4583	-2.2917	-2.0271	-2.6417	-2.1104	-2.1229	-2.6125	121.839	24.148	69.862	65.561	106.005	-66.939	186.278	-54.814	-90.931	-4.037	198.535	49.529	-68.408	13.979	-111.542	200.904	0.00018928	0.00080958	0.00043794	887.86	4.0716e-06	6.54e-06	788.93	239.94	5.4541e-06	3.4883e-05	230.05	68.706	74.019	28.967	9.5636e-06	33.249	0.015389	0.025271	0.0071488	1073.7	0.00026881	0.00028648	881.94	271.14	0.00025083	0.00028748	279.16	86.087	100.08	34.754	0.00026594	40.866	-111.806	25.184	-89.150	-108.728	27.377	-3.524	-109.935	-103.174	-11.579	7.463	-105.973	-100.811	-98.622	-93.352	164.685	-96.715	-8191	255	
14569.177	1	1	0	0	0.1673	0.42668	0.22266	0.10099	0.30226	0.1163	0.16382	0.27148	0.29958	0.19335	0.20548	0.15917	0.10732	0.16224	0.15898	0.061676	-1.5167	-2.4938	-2.3563	-1.8396	-2.6979	-2.1562	-2.0312	-2.6979	-1.9479	-2.3625	-2.5396	-1.9646	-2.7	-2.3479	-2.0625	-2.5896	-107.933	109.085	-109.878	-78.573	171.993	184.370	163.620	139.883	-56.099	140.801	144.131	-64.549	146.755	234.881	63.142	26.367	0.00043062	0.0006983	0.00026127	902.08	1.1483e-05	1.26e-05	798.61	242.98	1.6229e-05	1.6674e-05	231.51	69.909	74.025	28.937	1.1037e-05	32.678	0.015438	0.025549	0.0072099	1079.1	0.00027013	0.00028837	885.38	272.76	0.00025236	0.00028836	280.31	86.519	100.14	34.627	0.00026416	40.524	-118.712	140.528	88.875	-108.736	10.273	31.568	-109.846	-103.644	218.629	-76.637	-105.794	-101.279	-98.074	-93.725	-79.616	-96.661	-8191	255	
14569.271	1	1	0	0	0.31647	0.24626	0.17288	0.14645	0.040486	0.060812	0.21046	0.15228	0.18989	0.1657	0.22724	0.26024	0.19615	0.31128	0.12992	0.24777	-1.45	-2.2208	-2.3729	-1.9521	-2.6979	-2.3937	-2.2979	-2.8563	-1.9042	-2.3688	-2.6146	-2.0125	-2.5104	-2.1854	-2.075	-2.6396	-115.384	-73.737	209.896	-22.705	112.245	-110.727	150.468	120.739	-78.564	222.699	131.248	227.835	-82.624	214.720	183.089	218.806	0.00014767	0.00051723	0.00049572	888.04	1.1239e-05	8.49e-06	790.23	240.43	3.1195e-06	4.6469e-06	229.55	68.581	73.891	28.756	1.656e-05	32.251	0.015596	0.025659	0.007139	1071.8	0.00026852	0.00028623	878.04	271.46	0.00025414	0.00028702	278.12	85.64	99.705	34.44	0.00026103	40.129	-78.707	-97.420	-49.494	-108.696	76.112	95.305	-109.797	-103.156	-62.250	129.955	-105.720	-100.731	-98.901	-93.319	82.703	-96.948	-8191	255	
14569.367	1	1	0	0	0.19949	0.27691	0.2479	0.38254	0.030971	0.15492	0.18213	0.23415	0.38764	0.13987	0.19138	0.27271	0.072297	0.40728	0.1767	0.14436	-1.5688	-2.1792	-2.5417	-1.9854	-2.4458	-2.2854	-1.9146	-2.9667	-1.9375	-2.1521	-2.5167	-1.9042	-2.4521	-2.5083	-1.9813	-2.6083	226.742	233.174	174.149	218.761	-37.336	143.245	-41.828	204.203	-5.524	-92.282	178.144	-105.246	77.640	-82.526	61.146	142.220	0.00018012	0.00068031	0.00035174	891.61	1.9439e-05	8.3144e-06	788.64	241.15	5.1022e-06	1.127e-05	226.61	69.011	72.766	28.34	6.0214e-06	32.568	0.0155	0.025622	0.0071349	1071.1	0.00026987	0.00028728	876.62	270.84	0.00025451	0.0002857	276.88	85.915	99.385	34.247	0.00026075	40.521	-44.757	-55.208	112.398	-109.088	0.297	56.111	-109.798	-103.463	139.846	-69.125	-105.819	-101.069	-98.835	-93.501	174.230	-96.519	-8191	255	
14569.463	1	1	0	0	0.25477	0.096594	0.1986	0.19493	0.12821	0.014727	0.044216	0.2103	0.073948	0.27322	0.27563	0.1825	0.18135	0.17549	0.20618	0.15713	-1.7104	-2.0229	-2.6354	-1.8479	-2.5583	-2.4792	-1.8979	-2.65	-2.1417	-2.1229	-2.6521	-1.9813	-2.3	-2.6833	-1.8271	-2.8167	101.881	-99.037	-83.649	116.504	208.946	15.755	226.231	166.928	154.207	210.679	220.218	-55.820	-37.847	155.646	-18.800	-33.225	0.00028079	0.00078772	0.00012485	890.52	1.4228e-05	9.3583e-06	792.68	240.19	1.0177e-05	4.5547e-06	231.23	69.822	73.702	28.569	5.1361e-06	32.995	0.015604	0.02543	0.0070761	1073.5	0.00027199	0.00028776	879.83	271.37	0.00025561	0.00028781	280.48	86.784	100.3	34.566	0.00026183	40.944	-113.415	10.106	-21.835	-108.691	228.510	-78.987	-109.353	-103.451	83.259	-64.921	-105.198	-100.948	-98.201	-93.189	-33.428	-96.480	-8191	255	
14569.584	1	1	0	0	0.17896	0.13637	0.12817	0.12954	0.10715	0.18014	0.16565	0.12551	0.13554	0.35601	0.14586	0.23862	0.21241	0.084403	0.19345	0.14345	-2.0271	-1.8104	-2.7583	-1.9896	-2.1437	-2.5375	-2.0854	-2.6729	-2.3604	-1.8792	-2.7792	-1.9042	-2.2708	-2.4917	-1.8229	-2.5833	67.768	-14.026	-46.118	11.971	187.808	-16.635	183.394	204.258	98.030	201.980	206.598	201.077	130.593	148.260	-9.908	1.942	0.00019845	0.0008571	4.5485e-05	893.15	1.8055e-05	1.5698e-05	788.03	242.76	4.9434e-06	4.7777e-06	236.15	71.044	74.467	29.082	1.4688e-05	33.425	0.015753	0.025342	0.0071726	1076.2	0.00027227	0.00028563	883.66	274.34	0.00025526	0.00028548	284.33	87.994	101.18	34.852	0.00026382	41.261	-84.851	-21.440	42.716	-108.950	-33.343	3.197	-109.779	-103.050	117.436	-21.790	-105.695	-101.097	-98.052	-93.278	40.506	-96.847	-8191	255	
14569.680	1	1	0	0	0.067976	0.085981	0.26947	0.12945	0.28688	0.10398	0.11581	0.1264	0.25305	0.17898	0.2771	0.18001	0.1691	0.22142	0.15887	0.11826	-1.9354	-1.8813	-2.55	-1.9271	-2.1292	-2.7646	-1.9979	-2.6583	-2.2792	-1.7563	-2.7104	-1.9875	-2.0375	-2.7938	-1.8	-2.5062	127.092	-96.821	-98.332	144.882	15.184	172.870	93.892	-51.572	108.244	19.694	-102.211	-108.390	224.676	237.391	-0.125	-26.238	0.00024027	0.00161	6.7221e-05	888.17	2.4725e-05	8.555e-06	790.35	242.29	3.6655e-06	1.8877e-05	231.92	69.227	73.031	28.547	1.9214e-06	32.717	0.015562	0.025072	0.0071568	1071.7	0.0002706	0.00028279	878.95	273.24	0.00025184	0.00028201	281.28	86.523	99.54	34.402	0.00026051	40.744	-33.603	-2.965	180.307	-108.373	135.018	172.108	-109.703	-103.382	-7.333	28.902	-105.891	-101.159	-97.925	-93.333	-88.154	-97.068	-8191	255	
14569.752	1	1	0	0	0.044137	0.31353	0.093492	0.16725	0.16514	0.14545	0.16133	0.010571	0.35095	0.1758	0.20089	0.36913	0.037636	0.12879	0.1661	0.058691	-2.1042	-1.9542	-2.7083	-2.0521	-1.9875	-2.7438	-2.0687	-2.4938	-2.3229	-1.8062	-2.6896	-2.3167	-1.9458	-2.7438	-2.0458	-2.3	6.074	24.232	85.641	-102.836	196.016	-101.027	-44.853	220.512	119.978	-20.358	211.189	151.811	58.325	203.289	-73.399	-114.360	0.00043191	0.00054839	0.0001245	893.36	1.4377e-05	9.5229e-06	790.67	242.2	1.8994e-05	1.7182e-05	230.33	69.378	73.802	29.079	1.5732e-05	33.051	0.015365	0.025125	0.007102	1070.7	0.00026745	0.00028142	881.67	273.06	0.00025179	0.00028427	280.45	86.577	99.982	34.652	0.00026163	40.994	233.407	-19.804	-39.055	-109.065	23.487	-15.215	-109.729	-103.236	-10.092	-3.863	-105.244	-100.516	-98.065	-93.384	229.209	-96.561	-8191	255	
#DATA ENDS
