BOXY.EXE: ISS Imagent and Oximeter Data Acquisition Program Version 0.80
Ascii Record File

#ACQ INFORMATION
2  Detector Channels 
16  External MUX Channels 
1  Auxiliary Channels 
5000  Waveform (CCF) Frequency (Hz)
1  Waveforms Skipped 
30  Waveforms Averaged 
1  Cycles Averaged 
16  Acquisitions per Waveform 
10.0806  Updata Rate (Hz) 

#FILE INFORMATION
TRUE -- External MUX Channel results are PARSED.
FALSE -- AC DC and Phase are NOT grouped.
TRUE -- Companion Program Settings File CREATED.
FALSE -- AC data not excluded
FALSE -- DC data not excluded
FALSE -- Phase data not excluded
FALSE -- Auxillary Chn. data not excluded
Tab delimiters

#CALIBRATION STATE
TRUE -- Waveform Calibration Values APPLIED.


#AUX CALIBRATION VALUES
Val Type	aux-1	

Term	1.0000e+00	
Factor	0.0000e+00	


#WF CALIBRATION VALUES
A = Detector Channel
Val Type	A-AC1	A-AC2	A-AC3	A-AC4	A-AC5	A-AC6	A-AC7	A-AC8	A-AC9	A-AC10	A-AC11	A-AC12	A-AC13	A-AC14	A-AC15	A-AC16	A-DC1	A-DC2	A-DC3	A-DC4	A-DC5	A-DC6	A-DC7	A-DC8	A-DC9	A-DC10	A-DC11	A-DC12	A-DC13	A-DC14	A-DC15	A-DC16	A-Ph1	A-Ph2	A-Ph3	A-Ph4	A-Ph5	A-Ph6	A-Ph7	A-Ph8	A-Ph9	A-Ph10	A-Ph11	A-Ph12	A-Ph13	A-Ph14	A-Ph15	A-Ph16	

Term	0.00000e+00	0.00000e+00	0.00000e+00	0.00000e+00	0.00000e+00	0.00000e+00	0.00000e+00	0.00000e+00	0.00000e+00	0.00000e+00	0.00000e+00	0.00000e+00	0.00000e+00	0.00000e+00	0.00000e+00	0.00000e+00	0.00000e+00	0.00000e+00	0.00000e+00	0.00000e+00	0.00000e+00	0.00000e+00	0.00000e+00	0.00000e+00	0.00000e+00	0.00000e+00	0.00000e+00	0.00000e+00	0.00000e+00	0.00000e+00	0.00000e+00	0.00000e+00	0.00000e+00	0.00000e+00	0.00000e+00	0.00000e+00	0.00000e+00	0.00000e+00	0.00000e+00	0.00000e+00	0.00000e+00	0.00000e+00	0.00000e+00	0.00000e+00	0.00000e+00	0.00000e+00	0.00000e+00	0.00000e+00	
Factor	1.00000e+00	1.00000e+00	1.00000e+00	1.00000e+00	1.00000e+00	1.00000e+00	1.00000e+00	1.00000e+00	1.00000e+00	1.00000e+00	1.00000e+00	1.00000e+00	1.00000e+00	1.00000e+00	1.00000e+00	1.00000e+00	1.00000e+00	1.00000e+00	1.00000e+00	1.00000e+00	1.00000e+00	1.00000e+00	1.00000e+00	1.00000e+00	1.00000e+00	1.00000e+00	1.00000e+00	1.00000e+00	1.00000e+00	1.00000e+00	1.00000e+00	1.00000e+00	X	X	X	X	X	X	X	X	X	X	X	X	X	X	X	X	

B = Detector Channel
Val Type	B-AC1	B-AC2	B-AC3	B-AC4	B-AC5	B-AC6	B-AC7	B-AC8	B-AC9	B-AC10	B-AC11	B-AC12	B-AC13	B-AC14	B-AC15	B-AC16	B-DC1	B-DC2	B-DC3	B-DC4	B-DC5	B-DC6	B-DC7	B-DC8	B-DC9	B-DC10	B-DC11	B-DC12	B-DC13	B-DC14	B-DC15	B-DC16	B-Ph1	B-Ph2	B-Ph3	B-Ph4	B-Ph5	B-Ph6	B-Ph7	B-Ph8	B-Ph9	B-Ph10	B-Ph11	B-Ph12	B-Ph13	B-Ph14	B-Ph15	B-Ph16	

Term	0.00000e+00	0.00000e+00	0.00000e+00	0.00000e+00	0.00000e+00	0.00000e+00	0.00000e+00	0.00000e+00	0.00000e+00	0.00000e+00	0.00000e+00	0.00000e+00	0.00000e+00	0.00000e+00	0.00000e+00	0.00000e+00	0.00000e+00	0.00000e+00	0.00000e+00	0.00000e+00	0.00000e+00	0.00000e+00	0.00000e+00	0.00000e+00	0.00000e+00	0.00000e+00	0.00000e+00	0.00000e+00	0.00000e+00	0.00000e+00	0.00000e+00	0.00000e+00	-1.51084e+02	-1.28834e+02	-1.28025e+02	-1.86409e+02	-7.68898e+01	-6.93831e+01	-1.58531e+02	-1.62015e+02	-7.47914e+01	-6.79359e+01	-1.72014e+02	-1.71423e+02	-1.83400e+02	-1.77421e+02	-7.05656e+01	-1.49763e+02	
Factor	2.11876e-05	1.39541e-04	4.21210e-05	2.80485e-01	1.28048e-06	1.60148e-06	1.54187e-01	4.54447e-02	1.08396e-06	1.57593e-06	7.46426e-02	2.54121e-02	3.58899e-02	8.15869e-03	1.32146e-06	1.15051e-02	9.79520e-06	1.44465e-05	4.03494e-06	1.49735e-01	1.53051e-07	1.61647e-07	7.78450e-02	2.45314e-02	1.47844e-07	1.59374e-07	3.90137e-02	1.33397e-02	1.96024e-02	4.44578e-03	1.52412e-07	6.08456e-03	X	X	X	X	X	X	X	X	X	X	X	X	X	X	X	X	



#DISTANCE SETTINGS
A = Detector Channel
A-1	A-2	A-3	A-4	A-5	A-6	A-7	A-8	A-9	A-10	A-11	A-12	A-13	A-14	A-15	A-16	

2.5000e+00	3.0000e+00	2.5000e+00	3.0000e+00	2.0000e+00	3.0000e+00	1.5000e+00	3.0000e+00	3.0000e+00	3.0000e+00	3.0000e+00	3.0000e+00	3.0000e+00	3.0000e+00	1.5000e+00	3.0000e+00	

B = Detector Channel
B-1	B-2	B-3	B-4	B-5	B-6	B-7	B-8	B-9	B-10	B-11	B-12	B-13	B-14	B-15	B-16	

1.0000e+01	1.0000e+01	1.0000e+01	1.4400e+00	1.0000e+01	1.0000e+01	1.5100e+00	1.9400e+00	1.0000e+01	1.0000e+01	1.9900e+00	2.4900e+00	2.4100e+00	2.9000e+00	1.0000e+01	2.9800e+00	




#DATA BEGINS
time	group	step	mark	flag	A-AC1	A-AC2	A-AC3	A-AC4	A-AC5	A-AC6	A-AC7	A-AC8	A-AC9	A-AC10	A-AC11	A-AC12	A-AC13	A-AC14	A-AC15	A-AC16	A-DC1	A-DC2	A-DC3	A-DC4	A-DC5	A-DC6	A-DC7	A-DC8	A-DC9	A-DC10	A-DC11	A-DC12	A-DC13	A-DC14	A-DC15	A-DC16	A-Ph1	A-Ph2	A-Ph3	A-Ph4	A-Ph5	A-Ph6	A-Ph7	A-Ph8	A-Ph9	A-Ph10	A-Ph11	A-Ph12	A-Ph13	A-Ph14	A-Ph15	A-Ph16	B-AC1	B-AC2	B-AC3	B-AC4	B-AC5	B-AC6	B-AC7	B-AC8	B-AC9	B-AC10	B-AC11	B-AC12	B-AC13	B-AC14	B-AC15	B-AC16	B-DC1	B-DC2	B-DC3	B-DC4	B-DC5	B-DC6	B-DC7	B-DC8	B-DC9	B-DC10	B-DC11	B-DC12	B-DC13	B-DC14	B-DC15	B-DC16	B-Ph1	B-Ph2	B-Ph3	B-Ph4	B-Ph5	B-Ph6	B-Ph7	B-Ph8	B-Ph9	B-Ph10	B-Ph11	B-Ph12	B-Ph13	B-Ph14	B-Ph15	B-Ph16	aux-1	digaux	

29846.391	1	1	0	256	0.1087	0.087909	0.11296	0.059186	0.087278	0.087954	0.11047	0.16475	0.26353	0.28814	0.12727	0.28376	0.17693	0.17804	0.011162	0.3798	-1.7896	-2.5521	-2.5563	-2.1646	-2.7875	-2.5187	-2.4688	-2.9188	-2.1521	-2.8	-2.5271	-2.1542	-2.675	-2.3292	-2.4313	-2.875	202.494	265.333	253.066	281.050	306.325	335.265	149.819	454.562	468.183	234.435	372.500	454.834	486.276	168.024	502.384	473.038	0.00015549	0.00037726	3.7694e-05	251.57	2.0734e-06	1.289e-06	193.1	70.456	1.5292e-06	1.8994e-06	63.822	23.822	27.183	10.523	3.3119e-06	10.67	0.0020856	0.0029662	0.00083582	297.43	3.1371e-05	3.3237e-05	220.99	80.424	3.0562e-05	3.2433e-05	76.073	28.037	33.067	12.301	3.2024e-05	12.72	160.065	207.552	212.756	161.656	499.450	259.161	160.066	166.618	440.956	237.071	164.671	168.602	170.587	177.315	270.156	173.452	-8191	255	
29846.486	1	1	0	0	0.12065	0.17279	0.2633	0.063784	0.15969	0.15788	0.035206	0.25908	0.10476	0.049857	0.13276	0.23346	0.055223	0.036065	0.17432	0.10551	-1.8271	-2.6375	-2.7333	-2.1292	-2.7938	-2.4542	-2.2375	-3.0312	-2.2625	-2.5729	-2.8625	-2.225	-2.9479	-2.6	-2.2062	-2.95	289.684	432.646	163.969	339.416	498.726	476.741	177.515	273.912	336.638	394.192	466.494	440.332	500.209	170.043	193.327	421.620	0.00015129	0.00046375	0.00014593	252.61	5.3679e-06	6.7367e-07	194.46	71.023	1.232e-07	2.5831e-06	65.376	23.762	27.585	10.632	2.2451e-06	10.713	0.00211	0.0029447	0.00082754	297.72	3.151e-05	3.3668e-05	221.4	81.101	3.0791e-05	3.3236e-05	76.843	28.12	33.283	12.386	3.2153e-05	12.8	194.749	235.506	282.597	160.680	347.448	368.207	159.579	166.955	229.939	377.565	164.509	168.392	170.781	177.318	240.201	173.574	-8191	255	
29846.582	1	1	0	0	0.1071	0.24816	0.16834	0.27111	0.071288	0.25389	0.18864	0.32836	0.38232	0.068205	0.085643	0.13695	0.22794	0.23801	0.27415	0.20631	-1.9333	-2.2313	-2.7521	-2.0812	-2.6146	-2.5271	-2.2708	-2.975	-2.2458	-2.4792	-2.9875	-2.1562	-2.7125	-2.5208	-2.0167	-2.8	298.178	331.034	494.119	271.566	181.212	476.143	173.472	498.566	344.948	466.606	370.037	360.947	198.187	284.638	384.799	466.192	0.00016572	0.00029492	6.1472e-05	250.49	2.1778e-06	6.367e-06	194.82	71.271	2.1345e-06	7.9842e-07	65.331	23.978	27.403	10.82	2.4667e-06	10.993	0.0020696	0.0029993	0.00083926	297.8	3.1523e-05	3.3891e-05	222.02	81.196	3.0754e-05	3.3112e-05	77.434	28.402	33.503	12.61	3.207e-05	13.074	168.242	169.479	304.722	161.212	331.382	226.092	160.039	166.844	291.011	215.017	164.804	168.942	171.180	177.755	285.674	174.628	-8191	255	
29846.701	1	1	0	0	0.2079	0.10667	0.32673	0.12232	0.20807	0.2187	0.23777	0.17363	0.038902	0.28288	0.075777	0.10307	0.19701	0.11703	0.15533	0.097651	-1.8438	-2.0792	-2.9917	-2.0104	-2.7208	-2.7062	-1.9854	-2.775	-2.375	-2.2188	-2.8917	-2.1208	-2.7021	-2.8125	-2.1771	-2.9458	158.634	341.071	478.472	319.729	331.164	189.042	194.412	499.126	326.104	265.662	191.009	324.460	462.058	496.857	355.881	368.400	0.00016634	0.00045969	6.9295e-05	251.46	1.9971e-06	3.3888e-06	195.7	71.762	1.6397e-06	2.716e-06	65.752	24.466	28.391	11.053	3.5772e-06	11.327	0.0020586	0.0030187	0.00083576	298.52	3.1673e-05	3.351e-05	223.37	81.807	3.0662e-05	3.3684e-05	78.249	28.917	34.219	12.86	3.2491e-05	13.438	165.243	322.954	155.709	161.296	385.943	407.238	159.981	166.896	488.767	333.887	164.560	168.345	170.904	177.338	270.776	173.836	-8191	255	
29846.773	1	1	0	0	0.15061	0.045923	0.39021	0.078254	0.15423	0.23078	0.15289	0.1619	0.18762	0.16386	0.29507	0.031982	0.33447	0.37985	0.23228	0.14795	-2.0042	-2.15	-2.9	-2.1292	-2.4938	-2.8312	-2.0563	-2.8333	-2.5646	-2.1021	-3.0021	-2.3	-2.5312	-2.8146	-2.1833	-2.8104	375.517	437.990	328.244	383.817	369.487	220.975	490.027	165.514	156.945	155.620	422.708	361.888	352.508	168.971	410.354	190.752	0.00019032	7.2977e-05	4.4372e-05	254.69	1.1432e-06	4.4548e-07	196.99	72.333	2.5828e-06	5.0096e-06	66.193	24.987	28.358	11.12	3.9737e-06	11.253	0.002081	0.0030743	0.00084599	300.52	3.2272e-05	3.405e-05	224.8	82.533	3.1055e-05	3.3706e-05	78.892	29.239	34.392	12.929	3.2016e-05	13.419	163.448	223.413	425.391	161.766	394.567	453.373	159.889	167.006	361.231	389.715	164.876	168.924	171.576	177.056	260.841	173.227	-8191	255	
29846.869	1	1	0	0	0.2013	0.23292	0.13801	0.13643	0.15522	0.22322	0.39328	0.15542	0.10964	0.085933	0.14995	0.12264	0.18781	0.2003	0.18135	0.12356	-2.2687	-2.2562	-2.8167	-2.2562	-2.3688	-2.9062	-2.0729	-2.8063	-2.6562	-2.1708	-2.9521	-2.2917	-2.2271	-2.7708	-2.1479	-2.5021	485.375	309.192	278.816	258.019	280.430	397.172	330.898	505.882	496.931	422.188	209.794	379.043	395.917	449.466	168.016	172.695	0.00018134	0.00013641	5.8043e-05	256.88	1.5656e-06	4.0694e-06	198.29	73.214	3.672e-06	2.329e-06	66.746	24.637	28.305	10.98	2.7606e-06	11.185	0.0020981	0.0030587	0.00084737	303.8	3.2761e-05	3.421e-05	226.27	82.982	3.1066e-05	3.3958e-05	79.084	29.149	34.639	12.816	3.2427e-05	13.262	173.782	493.040	267.705	161.062	428.775	254.291	160.077	166.675	295.751	209.490	164.767	169.163	171.268	177.029	406.588	173.823	-8191	255	
29846.967	1	1	0	0	0.099543	0.21812	0.16736	0.16664	0.17875	0.16264	0.22174	0.10976	0.084278	0.11278	0.082647	0.1902	0.086924	0.09837	0.28376	0.1338	-2.2104	-2.0208	-2.9229	-2.3563	-2.3229	-2.7875	-2.3271	-2.6208	-2.7042	-2.1333	-2.7208	-2.4125	-2.2458	-2.9604	-2.1458	-2.6083	388.307	157.264	263.676	302.210	221.680	470.552	363.514	431.916	362.014	231.065	450.480	484.466	172.632	296.897	217.932	235.575	0.00019639	0.00025636	4.9994e-05	257.32	1.5182e-06	9.5669e-07	197.17	73.508	1.2458e-06	3.2385e-06	66.931	24.615	28.566	10.985	2.5818e-06	11.16	0.0021379	0.0030834	0.00084493	304.17	3.3025e-05	3.4627e-05	225.36	83.289	3.1492e-05	3.4008e-05	79.329	29.237	34.63	12.818	3.2323e-05	13.263	185.640	459.583	211.054	161.271	309.711	372.761	160.021	167.212	245.719	171.603	164.664	168.645	170.821	177.121	332.948	173.286	-8191	255	
29847.062	1	1	0	0	0.3308	0.080902	0.31807	0.2366	0.25748	0.24857	0.17273	0.10051	0.12995	0.17402	0.2223	0.17484	0.16638	0.26694	0.071456	0.26189	-2.2708	-2.1208	-2.8479	-2.5938	-2.0563	-2.9917	-2.2875	-2.2792	-3.0521	-2.1083	-2.6521	-2.6625	-2.1437	-2.9854	-2.2812	-2.3125	450.506	273.548	282.056	444.339	376.556	298.025	432.837	392.772	296.299	266.807	160.876	410.938	205.493	332.708	314.246	456.748	0.00014979	0.00010038	9.9255e-05	255.8	1.431e-06	2.24e-06	195.75	72.271	5.8182e-07	1.1285e-06	65.729	24.638	28.301	11.017	1.4531e-06	11.07	0.0021422	0.0031103	0.00084942	302.57	3.2684e-05	3.4074e-05	224.51	82.862	3.1395e-05	3.4127e-05	78.716	29.087	34.44	12.784	3.187e-05	13.248	496.278	226.777	315.168	161.426	401.858	282.589	160.031	166.673	243.745	280.561	164.783	168.577	170.730	177.239	394.108	173.188	-8191	255	
29847.182	1	1	0	0	0.010038	0.39328	0.13251	0.22861	0.15465	0.23995	0.059667	0.2261	0.14361	0.098406	0.17196	0.10628	0.13808	0.13389	0.12639	0.07064	-2.4437	-2.1917	-2.65	-2.55	-2.25	-3	-2.3729	-2.2	-3.0312	-2.2333	-2.6333	-2.9917	-2.1521	-2.7729	-2.3417	-2.3771	414.767	151.595	398.137	357.279	470.405	217.397	403.529	505.551	314.889	317.262	334.201	291.602	435.775	364.273	169.291	485.246	0.00018061	0.00046081	0.00012344	256.32	3.9038e-06	1.9966e-06	196.26	72.515	4.943e-07	2.5347e-06	66.674	24.892	28.564	11.022	3.4256e-06	11.227	0.0021391	0.0030373	0.00083692	303.49	3.2802e-05	3.3558e-05	225.1	82.99	3.1516e-05	3.314e-05	79.258	29.307	34.543	12.798	3.1726e-05	13.323	173.368	300.798	422.776	160.829	327.407	269.411	159.546	167.248	316.217	469.770	164.100	168.425	170.846	177.370	357.790	173.391	-8191	255	
29847.277	1	1	0	0	0.092048	0.1742	0.22628	0.017076	0.23507	0.224	0.039251	0.13477	0.068574	0.22644	0.19918	0.042892	0.24339	0.075509	0.17023	0.20121	-2.5521	-2.25	-2.6333	-2.8125	-2.1937	-2.8625	-2.5604	-2.1708	-3.0312	-2.2958	-2.5208	-2.9729	-2.15	-2.7646	-2.4208	-2.3187	290.825	264.900	257.608	256.915	258.919	438.344	346.054	154.074	492.185	439.297	228.977	381.879	384.515	306.201	177.373	487.451	0.00018003	0.00010497	4.6878e-05	256.3	2.6051e-06	7.1584e-07	196.38	73.479	6.8647e-06	4.6597e-06	66.718	24.858	28.437	11.15	6.1428e-07	11.048	0.0021115	0.0030154	0.00084592	303.83	3.2039e-05	3.3337e-05	225.13	83.587	3.0905e-05	3.332e-05	79.367	29.403	34.596	12.836	3.1713e-05	13.281	169.897	395.572	466.151	161.262	190.257	281.427	159.857	166.835	262.339	203.104	164.321	168.536	170.818	177.180	158.074	173.367	-8191	255	
29847.373	1	1	0	0	0.056777	0.18229	0.11897	0.03771	0.13354	0.12647	0.049718	0.12557	0.20892	0.13781	0.16863	0.18342	0.059773	0.13768	0.3172	0.34434	-2.6063	-2.2917	-2.3979	-3	-2.175	-2.8292	-2.5896	-2.3563	-2.875	-2.325	-2.3417	-2.7062	-2.0896	-2.5417	-2.6083	-2.0583	378.407	192.579	493.608	255.501	174.679	307.656	439.447	328.128	370.842	236.299	150.740	181.065	345.418	446.853	457.338	306.577	0.00012845	0.00025004	4.3422e-05	257.2	1.9483e-06	1.2447e-06	195.06	72.493	1.9892e-06	1.7393e-06	66.362	24.71	28.534	10.929	2.9494e-06	11.049	0.0020938	0.0030003	0.0008505	303.17	3.2078e-05	3.353e-05	223.74	82.864	3.0573e-05	3.2813e-05	78.866	29.1	34.278	12.741	3.1721e-05	13.164	154.073	381.627	383.606	160.962	253.024	234.810	159.620	166.851	272.022	505.798	164.247	168.411	170.312	177.134	317.324	173.195	-8191	255	
29847.471	1	1	0	0	0.25854	0.12835	0.033792	0.18145	0.13018	0.11809	0.14663	0.11997	0.077609	0.038061	0.066403	0.21023	0.17739	0.14685	0.035495	0.064396	-2.4625	-2.2104	-2.05	-2.9021	-2.1458	-2.6479	-2.8458	-2.1854	-2.9417	-2.3646	-2.3646	-2.8333	-2.2354	-2.4958	-2.9375	-2.1125	402.620	203.210	497.154	181.863	354.417	252.122	177.968	413.227	461.664	230.696	177.752	475.597	385.013	300.159	341.865	236.653	0.00010506	0.00033357	7.527e-05	254.43	2.3383e-06	7.1345e-07	193.9	72.511	5.1195e-06	2.1007e-06	66.17	24.663	28.214	10.995	1.317e-06	11.111	0.0020559	0.0029496	0.00084229	300.63	3.1189e-05	3.306e-05	222.42	82.291	2.99e-05	3.2546e-05	78.373	29.117	34.175	12.721	3.1298e-05	13.154	185.232	351.079	290.049	160.683	295.739	330.978	159.414	166.264	330.948	192.319	165.064	168.478	171.017	177.229	435.408	172.929	-8191	255	
29847.566	1	1	0	0	0.12886	0.1141	0.14566	0.25464	0.24906	0.19098	0.24329	0.15531	0.21195	0.10846	0.044172	0.062921	0.18936	0.1591	0.13496	0.20932	-2.4292	-2.2625	-2.2125	-2.6958	-2.3521	-2.6271	-2.8042	-2.1021	-2.7229	-2.6063	-2.1208	-2.8	-2.2104	-2.4021	-2.85	-2.0083	442.153	379.387	502.703	203.883	435.291	387.479	296.191	434.662	312.939	367.379	483.102	384.623	486.519	196.287	500.325	346.065	0.0001407	0.00028869	8.744e-05	255.77	2.4716e-06	4.3287e-06	194.35	72.592	3.1139e-06	1.8204e-06	66.027	24.754	28.417	11.077	3.0757e-06	11.339	0.0020356	0.0029546	0.00083489	300.35	3.0497e-05	3.3288e-05	222.97	82.705	3.0014e-05	3.2426e-05	78.787	29.321	34.384	12.834	3.0791e-05	13.33	180.333	281.902	455.232	161.091	367.822	183.603	159.599	166.772	364.735	274.254	164.139	167.985	170.832	177.519	316.019	173.455	-8191	255	
29847.662	1	1	0	0	0.042102	0.15794	0.042804	0.11688	0.20071	0.05771	0.11254	0.25887	0.21579	0.18915	0.03689	0.18281	0.22948	0.072583	0.083544	0.077622	-2.1896	-2.5479	-2.1104	-2.7562	-2.1646	-2.3438	-3.0229	-2.0958	-2.6917	-2.6229	-2.2229	-2.7687	-2.5062	-2.2562	-2.9854	-1.9833	495.536	363.867	464.532	368.788	153.309	337.554	234.049	459.610	448.786	448.880	363.885	282.811	187.122	213.999	300.687	417.778	0.00019478	0.00016549	0.0001282	257.23	1.0447e-06	1.4254e-06	197.7	72.553	2.7434e-06	1.5962e-06	66.969	25.231	29.014	11.083	2.5507e-06	11.352	0.00202	0.0029179	0.0008243	301.1	3.0823e-05	3.2872e-05	224.52	82.469	2.9652e-05	3.2369e-05	79.344	29.587	34.635	12.929	3.1041e-05	13.379	167.659	191.287	275.986	160.824	345.527	265.822	159.755	166.752	311.193	404.158	164.472	168.886	170.561	176.927	201.112	173.181	-8191	255	
29847.783	1	1	0	0	0.16948	0.13946	0.12829	0.15913	0.10214	0.19829	0.086465	0.23916	0.11432	0.033083	0.20793	0.033107	0.30378	0.089579	0.24493	0.31864	-2.2833	-2.6542	-1.9688	-2.85	-2.3979	-2.2208	-3.0104	-2.3	-2.7333	-2.8812	-2.0625	-2.9833	-2.5646	-2.2333	-2.8729	-2.2958	264.568	201.536	473.535	479.110	454.799	398.368	165.624	461.784	288.721	349.296	492.127	387.881	386.076	206.467	419.702	507.432	0.0001564	0.00026711	9.69e-05	256.14	4.2072e-07	2.3085e-06	195.14	72.688	1.9757e-06	2.9575e-06	67.058	25.325	28.735	11.088	3.385e-06	11.29	0.0020009	0.0029208	0.00081502	301.16	3.0884e-05	3.266e-05	224.15	82.809	2.9588e-05	3.2365e-05	78.895	29.538	34.741	12.897	2.9795e-05	13.276	184.504	250.869	394.976	161.469	208.100	262.096	159.906	166.713	373.048	327.243	164.163	168.182	170.576	176.761	263.232	173.623	-8191	255	
29847.877	1	1	0	0	0.22189	0.12475	0.15315	0.046827	0.082823	0.096705	0.14933	0.29462	0.15661	0.20402	0.33667	0.34323	0.088661	0.23106	0.063606	0.10399	-1.8771	-2.9125	-2.1896	-2.7062	-2.5021	-2.1854	-2.8771	-2.1771	-2.3896	-2.9	-2.2062	-2.6958	-2.4479	-2.1521	-2.925	-2.2792	484.921	285.172	463.671	403.603	478.064	443.580	396.469	322.917	340.930	428.236	449.574	349.839	178.203	457.962	275.572	195.194	0.00018121	0.00015796	2.6119e-05	256.18	6.1403e-06	3.7197e-06	195.44	72.944	1.0402e-06	1.3856e-06	66.486	25.03	28.804	11.032	1.3471e-06	11.245	0.0020213	0.0028528	0.0007933	300.07	3.0447e-05	3.2202e-05	222.51	82.554	2.9606e-05	3.1412e-05	78.567	29.468	34.629	12.83	2.9489e-05	13.317	180.144	347.446	421.760	161.166	319.630	487.374	159.254	166.215	247.421	371.453	164.302	168.578	169.941	176.956	260.254	172.856	-8191	255	
29847.975	1	1	0	0	0.2584	0.21049	0.20883	0.1681	0.043677	0.34417	0.22328	0.1759	0.18837	0.16586	0.21796	0.14541	0.08766	0.050834	0.29682	0.19389	-1.8188	-2.9854	-2.0417	-2.5542	-2.625	-2.2208	-2.9479	-2.4437	-2.3021	-3.0104	-2.3667	-2.6188	-2.8583	-2.2938	-2.825	-2.5854	361.582	309.265	260.604	231.737	206.137	373.498	283.493	430.464	188.967	346.741	217.706	392.038	177.149	498.085	192.122	436.409	0.00016772	0.00049074	0.00013143	255.03	2.4627e-06	2.4286e-06	194.3	73.888	7.4511e-07	6.6443e-06	68.479	25.968	29.404	11.481	1.9687e-06	11.753	0.0020093	0.0028087	0.0007819	299.57	3.0088e-05	3.2065e-05	222.82	83.478	2.9286e-05	3.1111e-05	80.639	30.308	35.409	13.241	2.9463e-05	13.809	165.559	235.711	284.000	160.882	272.190	264.691	159.809	166.381	295.349	291.725	164.351	168.477	170.605	176.572	156.635	172.828	-8191	255	
29848.068	1	1	0	0	0.075293	0.080428	0.10253	0.06332	0.17754	0.27321	0.10833	0.16257	0.23076	0.20336	0.11703	0.10681	0.17945	0.15819	0.075573	0.059994	-1.9229	-3.1125	-2.1562	-2.4417	-2.9021	-2.1042	-2.9104	-2.6104	-2.0792	-3.1417	-2.3792	-2.3937	-2.8292	-2.3167	-2.9313	-2.6083	297.167	358.520	281.765	211.300	445.126	151.078	485.879	269.691	194.653	448.716	321.322	359.408	163.046	482.261	235.288	481.522	0.0001111	0.00022789	7.5392e-05	255.86	3.7598e-06	2.8216e-06	198.05	75.9	1.6177e-06	4.24e-06	69.811	26.328	30.116	11.533	2.1999e-06	11.923	0.0020092	0.0028422	0.00077864	301.05	3.0203e-05	3.1637e-05	225.1	86.077	2.9311e-05	3.0999e-05	82.213	30.896	35.879	13.372	2.9249e-05	13.906	182.799	400.336	158.554	161.489	227.057	411.333	159.813	166.175	338.807	316.789	164.361	168.102	170.680	177.176	266.008	172.730	-8191	255	
29848.166	1	1	0	0	0.055699	0.2591	0.21581	0.28045	0.39059	0.13194	0.076237	0.055959	0.16069	0.22835	0.08817	0.17028	0.2517	0.22962	0.20755	0.11792	-1.7208	-2.8792	-2.1875	-2.4938	-2.9542	-2.0958	-2.7938	-2.7167	-2.2146	-2.9688	-2.5271	-2.2292	-2.9562	-2.0417	-2.6167	-2.8104	227.537	498.274	335.477	231.899	211.101	184.680	490.231	373.183	502.267	175.535	258.444	338.561	498.898	250.907	180.557	152.790	0.00020514	0.00049968	0.00011976	256.41	3.5471e-06	7.3409e-06	199.83	75.989	2.2623e-06	7.7494e-07	70.548	26.437	30.062	11.65	4.2621e-06	11.922	0.0019793	0.0027549	0.000771	300.64	2.9662e-05	3.1463e-05	226.35	86.261	2.8774e-05	3.0279e-05	82.503	30.917	35.781	13.454	2.9577e-05	14.021	165.196	272.571	256.118	161.462	441.777	250.875	159.880	166.565	246.862	344.277	164.508	168.270	170.449	176.866	182.688	173.284	-8191	255	
29848.262	1	1	0	0	0.40755	0.074442	0.05983	0.16297	0.20793	0.12539	0.1971	0.24045	0.11415	0.10536	0.13622	0.10418	0.13131	0.10032	0.11782	0.15704	-1.7479	-2.7875	-2.3937	-2.3854	-2.9979	-2.2292	-2.4813	-2.8521	-2.1146	-2.7792	-2.7229	-2.2687	-2.8812	-2.0646	-2.5563	-3.0292	278.488	418.790	455.103	493.378	279.763	194.427	309.752	313.726	496.543	306.499	307.560	233.103	449.000	266.691	461.145	148.667	0.00013962	0.00056106	8.7721e-05	258.83	9.7422e-07	2.0007e-06	199.66	76.735	4.1983e-07	4.0693e-06	70.895	26.93	30.46	11.804	2.592e-06	12.245	0.0019392	0.0027571	0.00078528	303.08	2.9171e-05	3.0671e-05	227.29	86.852	2.879e-05	3.0644e-05	83.292	31.251	36.203	13.622	3.0333e-05	14.322	169.126	218.260	257.937	160.869	153.187	373.481	159.596	166.478	321.826	258.376	164.158	168.401	171.167	176.521	213.742	173.140	-8191	255	
29848.383	1	1	0	0	0.13669	0.16107	0.22342	0.28233	0.15895	0.14706	0.17036	0.24849	0.1256	0.080608	0.066449	0.15274	0.24761	0.12571	0.16115	0.40006	-1.8875	-2.8563	-2.5687	-2.1229	-2.7562	-2.3063	-2.4	-2.9062	-2.0458	-2.5938	-2.6125	-2.1146	-3.0792	-2.2896	-2.3688	-2.8396	313.720	439.315	438.027	202.157	407.367	468.061	233.213	387.114	416.758	356.474	191.946	396.040	159.383	469.164	228.799	476.467	0.00015438	0.00016309	6.9303e-05	255.37	1.5318e-06	2.5486e-06	198.96	77.745	1.0888e-06	1.5386e-06	71.658	27.016	30.69	11.894	2.7865e-06	12.202	0.0019503	0.0028187	0.00079932	301.83	2.9681e-05	3.2025e-05	227.89	87.915	2.893e-05	3.1028e-05	84.009	31.528	36.305	13.684	3.0435e-05	14.382	169.733	236.972	169.912	161.158	287.753	320.107	159.770	166.507	276.084	496.007	163.905	167.995	170.425	176.773	258.206	172.892	-8191	255	
29848.479	1	1	0	0	0.21269	0.057273	0.02181	0.15357	0.29331	0.17335	0.030738	0.07973	0.20869	0.15022	0.10661	0.10618	0.097048	0.40169	0.061598	0.3882	-1.6854	-2.5312	-2.5938	-2.0979	-2.9792	-2.3833	-2.1667	-2.8208	-2.0938	-2.6312	-2.7458	-2.0521	-2.6854	-2.375	-2.0896	-2.9208	430.127	441.375	321.358	311.067	490.789	407.655	483.558	449.008	459.879	489.518	260.148	416.822	191.292	172.173	467.505	177.763	0.00015145	4.417e-05	0.00011566	258.11	1.5182e-06	1.9728e-06	200.79	77.393	2.5703e-06	1.9341e-06	71.357	26.791	30.241	11.644	2.4708e-06	12.292	0.0019655	0.0028505	0.00078733	302.86	2.973e-05	3.1817e-05	229.18	86.912	2.8345e-05	3.0791e-05	83.466	31.083	35.927	13.495	3.0027e-05	14.349	190.682	293.284	220.749	160.870	486.805	259.716	159.855	166.202	227.039	363.239	164.378	168.002	170.627	176.572	439.459	173.590	-8191	255	
29848.574	1	1	0	0	0.050814	0.068859	0.066647	0.32597	0.22965	0.20558	0.19486	0.12359	0.16676	0.16161	0.060839	0.20119	0.20382	0.23562	0.059003	0.1523	-1.8563	-2.575	-2.6625	-1.8083	-2.8438	-2.6188	-2.2271	-2.9833	-2.1688	-2.4188	-2.7417	-2.35	-2.9188	-2.8	-2.2021	-3.0292	433.595	353.752	455.690	433.379	441.356	364.469	461.286	487.982	324.876	265.065	319.173	437.701	155.974	434.001	433.529	284.302	0.0002042	0.00059204	0.00014875	260.11	2.2475e-06	2.0051e-06	202.44	77.273	1.0343e-06	4.0192e-06	71.855	27.057	30.217	11.84	4.8687e-06	12.297	0.0019659	0.0028207	0.00079729	304.32	2.9759e-05	3.1434e-05	230.85	87.287	2.8986e-05	3.1291e-05	84.186	31.452	36.121	13.657	2.9948e-05	14.383	170.012	213.238	502.676	160.770	261.610	269.002	159.507	166.622	185.310	232.811	164.431	167.993	170.786	176.721	169.163	173.275	-8191	255	
29848.646	1	1	0	0	0.27698	0.14962	0.34706	0.08094	0.19859	0.16973	0.0078118	0.11774	0.13693	0.14158	0.22636	0.21032	0.087076	0.041642	0.18192	0.032829	-2.0521	-2.6604	-2.9542	-2.1542	-2.6937	-2.7146	-2.2021	-3.0729	-2.3958	-2.5083	-2.9708	-1.9167	-2.6937	-2.9521	-2.2021	-2.9979	331.690	160.737	222.275	461.151	305.697	198.055	306.203	501.615	392.045	316.527	493.695	156.121	360.501	217.230	385.324	421.712	0.0001846	0.00027052	9.5084e-05	259.39	4.8523e-06	7.3227e-06	202.09	77.364	1.9626e-06	1.4152e-06	71.877	27.426	30.402	11.932	2.453e-06	12.282	0.0019405	0.0028296	0.00079491	305.09	2.9833e-05	3.1788e-05	231.02	87.863	2.8993e-05	3.171e-05	84.477	31.695	36.405	13.702	2.9912e-05	14.401	167.949	178.876	466.668	160.934	357.602	361.979	159.930	166.593	231.599	383.419	164.983	168.208	170.540	176.885	272.853	173.580	-8191	255	
29848.742	1	1	0	0	0.3465	0.25929	0.072517	0.19922	0.060864	0.099624	0.19889	0.068114	0.07582	0.098775	0.12357	0.42874	0.16009	0.23262	0.10103	0.27538	-2.0563	-2.4021	-2.9021	-2.0812	-2.4979	-2.7792	-2.0271	-2.8646	-2.4708	-2.1833	-2.8833	-2.1292	-2.4292	-2.9354	-2.0312	-2.9688	396.465	430.653	385.641	429.236	349.388	423.778	408.398	353.956	496.216	355.800	183.436	399.676	418.354	387.345	497.887	269.145	0.00014838	0.00039222	7.0394e-05	260.87	4.3955e-06	2.2435e-06	201.52	77.235	1.4343e-06	2.6472e-06	71.325	26.87	30.201	11.632	2.0615e-06	12.179	0.0019557	0.0028464	0.00076685	304.44	3.0183e-05	3.1559e-05	229.06	87.453	2.8991e-05	3.1257e-05	83.496	31.144	35.937	13.39	2.9192e-05	14.169	167.699	205.344	299.248	161.132	435.402	284.381	159.657	166.999	168.951	150.281	164.821	168.473	171.105	177.102	273.849	173.643	-8191	255	
29848.863	1	1	0	0	0.19057	0.24386	0.12587	0.19148	0.1209	0.019305	0.13925	0.27187	0.14574	0.40925	0.31705	0.077766	0.14558	0.080764	0.048163	0.11229	-2.25	-2.1208	-2.8333	-2.1542	-2.4104	-2.7708	-2.1667	-2.9667	-2.5292	-2.2562	-2.9542	-2.4667	-2.2438	-2.95	-2.0792	-2.7396	439.168	379.565	369.931	400.627	217.960	250.436	473.823	253.312	436.282	160.584	364.317	170.373	478.144	204.927	380.946	491.178	0.00015412	0.00020422	6.3014e-05	258.39	1.9265e-06	2.9595e-06	202.39	76.998	1.7271e-06	3.736e-06	72.011	26.738	29.947	11.707	9.0975e-07	12.077	0.0019384	0.0028021	0.00076904	303.78	2.9885e-05	3.0875e-05	228.89	86.986	2.8633e-05	3.11e-05	83.545	31.234	35.979	13.472	2.9254e-05	14.179	176.974	259.117	196.033	160.875	234.728	266.596	160.051	166.889	325.788	292.859	164.275	168.193	170.785	177.246	322.624	173.526	-8191	255	
29848.957	1	1	0	0	0.21141	0.24475	0.18836	0.27131	0.018603	0.19099	0.073261	0.066668	0.21592	0.09286	0.082313	0.2247	0.084223	0.082024	0.10951	0.10301	-2.275	-2	-2.8375	-2.4062	-2.0917	-2.9979	-2.1188	-2.5312	-2.7625	-2.1271	-3.05	-2.3854	-2.2354	-2.9313	-2.1813	-2.4271	156.438	418.728	274.800	270.408	491.605	342.996	165.500	352.644	380.588	338.330	185.024	197.196	212.584	303.544	325.092	440.261	0.00016118	0.00067167	5.897e-05	257.75	1.5285e-06	2.3579e-06	202.71	76.946	2.807e-06	4.4798e-06	71.333	27.006	30.101	11.568	3.0587e-07	12.104	0.0019592	0.0027833	0.00077603	304.13	3.0052e-05	3.1275e-05	229.65	86.988	2.8532e-05	3.0562e-05	83.615	31.26	35.862	13.393	2.9021e-05	14.183	151.767	192.190	164.397	160.895	218.076	332.740	160.338	166.615	220.584	235.551	164.391	168.255	170.576	176.967	228.187	173.651	-8191	255	
29849.055	1	1	0	0	0.22731	0.086939	0.099143	0.064802	0.13113	0.16909	0.54071	0.19964	0.087064	0.19941	0.39199	0.17829	0.086855	0.094771	0.062051	0.16394	-2.4396	-2.0687	-2.7938	-2.3542	-2.2292	-2.8458	-2.2833	-2.5938	-2.5875	-2.1354	-2.8604	-2.4813	-2.0646	-2.9354	-2.1958	-2.4625	304.577	268.207	386.717	480.041	456.914	445.151	435.571	289.519	155.796	196.450	476.209	434.554	239.952	289.073	186.909	507.542	0.00017639	0.00016542	0.00010649	259.46	6.1859e-06	2.3489e-06	202.47	77.654	9.6384e-07	2.9812e-06	72.025	27.181	30.376	11.789	2.2373e-06	12.196	0.0019608	0.0027671	0.00077638	305.5	3.0306e-05	3.0927e-05	229.64	87.838	2.8438e-05	3.1041e-05	84.073	31.6	36.294	13.5	2.944e-05	14.279	173.015	441.645	229.374	160.820	301.360	215.082	159.495	166.646	492.598	367.801	164.695	168.361	170.571	176.943	235.110	173.585	-8191	255	
29849.174	1	1	0	0	0.30082	0.27789	0.29695	0.16382	0.1549	0.084169	0.28122	0.3233	0.17272	0.21439	0.44696	0.25078	0.213	0.15491	0.25716	0.085842	-2.4417	-2.2208	-2.6333	-2.675	-2.15	-2.8896	-2.3125	-2.2042	-2.9625	-2.3729	-2.8292	-2.7729	-2.0187	-2.8333	-2.5438	-2.3354	327.931	470.573	292.355	173.931	193.038	299.083	366.604	267.546	429.334	163.235	390.543	405.702	460.091	352.346	179.836	166.738	0.00012381	4.719e-05	0.00019304	259.03	2.6014e-06	8.9089e-07	199.42	77.26	2.4717e-06	3.1223e-06	70.412	26.561	29.548	11.385	2.3793e-06	11.625	0.0019584	0.0027622	0.00077979	303.47	2.95e-05	3.0537e-05	227.46	86.871	2.7714e-05	3.0213e-05	82.285	30.796	35.389	13.139	2.8554e-05	13.803	168.353	325.039	286.253	161.238	334.647	461.642	159.859	166.521	457.316	262.342	164.423	168.525	170.443	177.016	200.685	173.560	-8191	255	
29849.270	1	1	0	0	0.169	0.22927	0.15804	0.25876	0.20734	0.076082	0.16659	0.21516	0.27611	0.14301	0.028664	0.24001	0.17087	0.16592	0.014424	0.04927	-2.4313	-2.0083	-2.4875	-2.8042	-1.9271	-2.7396	-2.35	-2.2104	-2.9333	-2.1875	-2.4125	-2.9271	-2.0521	-2.7	-2.5208	-2.2438	457.257	292.860	415.242	245.558	179.230	273.195	230.445	387.106	458.009	182.741	372.839	151.218	201.969	407.164	502.030	379.918	0.00016071	0.00033451	0.00012836	259.4	3.6595e-06	3.2891e-06	200.53	76.312	1.5754e-06	4.3797e-06	70.382	26.387	29.332	11.489	2.3291e-06	11.915	0.0018853	0.0027109	0.00076754	302.83	2.8791e-05	2.9905e-05	226.98	86.011	2.7357e-05	2.9645e-05	82.103	30.603	35.252	13.115	2.8683e-05	13.873	167.869	208.711	290.319	160.838	246.944	406.544	159.862	167.007	311.304	424.472	165.157	168.125	170.332	176.980	265.399	173.324	-8191	255	
29849.342	1	1	0	0	0.1522	0.12863	0.25946	0.029877	0.087956	0.19017	0.24236	0.15156	0.22704	0.304	0.31062	0.27476	0.14493	0.19908	0.12329	0.080594	-2.4604	-2.2438	-2.4333	-2.8896	-2.1688	-2.8	-2.6562	-2.2562	-2.8083	-2.3563	-2.4104	-2.8812	-2.1125	-2.7896	-2.7979	-2.2021	382.259	382.533	192.292	476.163	404.765	186.575	478.751	325.764	484.302	251.266	383.514	485.546	443.681	211.319	211.135	442.138	0.00012966	0.0001973	4.7938e-05	258.03	1.9767e-06	1.4453e-06	201.19	76.224	1.2872e-06	6.0571e-06	70.691	26.7	29.736	11.547	1.0943e-06	11.948	0.0018595	0.0027044	0.00076084	302.56	2.8385e-05	3.0031e-05	228.59	86.296	2.7594e-05	3.0024e-05	82.598	30.922	35.346	13.224	2.8657e-05	13.989	161.632	479.267	337.290	160.919	430.385	436.897	159.678	166.759	491.112	316.078	164.694	168.857	170.947	176.854	252.976	172.867	-8191	255	
29849.463	1	1	0	0	0.21501	0.041356	0.27833	0.23268	0.2816	0.14008	0.13882	0.097941	0.11631	0.12275	0.2306	0.073327	0.14801	0.20604	0.1343	0.035515	-2.5563	-2.2812	-2.3792	-3.0583	-2.4271	-2.7313	-2.95	-2.2667	-2.9938	-2.6229	-2.1562	-3.0729	-2.2042	-2.5687	-2.9958	-2.0792	320.516	475.912	237.643	227.220	299.415	250.464	205.943	173.951	438.804	273.407	398.053	166.338	406.540	274.134	452.675	248.853	0.00018343	0.00017933	7.7497e-05	258.51	2.095e-06	3.3671e-06	200.82	77.112	3.8005e-07	4.8499e-06	71.332	27.124	30.02	11.593	9.932e-07	12.214	0.0018877	0.002732	0.00076442	302.5	2.8783e-05	3.0621e-05	229.1	87.068	2.8014e-05	3.0144e-05	83.435	31.478	35.937	13.397	2.8958e-05	14.266	172.131	293.209	230.465	160.818	345.546	309.244	159.445	166.724	279.437	305.421	164.003	168.288	170.448	177.295	300.897	173.596	-8191	255	
29849.559	1	1	0	0	0.26499	0.17442	0.1418	0.10663	0.049483	0.059602	0.23441	0.37719	0.2752	0.17347	0.13469	0.077445	0.27718	0.13806	0.060043	0.18414	-2.3292	-2.5208	-2.2417	-2.9437	-2.3271	-2.7604	-2.9625	-2.1021	-2.8542	-2.7208	-2.1479	-3.0792	-2.3646	-2.5062	-2.8438	-2.2083	293.439	475.413	445.747	156.283	350.005	266.250	465.732	411.574	307.031	355.350	257.236	460.798	498.067	261.473	394.168	448.934	0.00016463	0.0001791	5.6536e-05	259.43	3.2825e-06	1.1438e-06	199.39	77.155	1.5757e-06	2.1787e-06	70.78	26.471	29.908	11.367	5.1009e-06	11.672	0.0019073	0.0027506	0.000774	303.72	2.9034e-05	3.0507e-05	227.84	86.912	2.788e-05	3.0067e-05	82.596	30.83	35.395	13.134	2.8433e-05	13.78	168.818	371.966	279.264	161.142	238.187	379.916	159.740	166.723	325.187	234.438	164.579	168.035	170.719	176.613	284.591	173.307	-8191	255	
29849.654	1	1	0	0	0.20672	0.22643	0.087589	0.1639	0.12665	0.28076	0.141	0.11967	0.33978	0.11064	0.25285	0.14732	0.13191	0.23051	0.056137	0.044247	-2.4208	-2.6854	-2.1396	-3	-2.4646	-2.3812	-3.0521	-2.2354	-2.65	-2.6958	-2.2979	-2.7333	-2.2771	-2.4167	-3.0417	-2.1542	468.994	456.866	212.539	410.313	305.607	173.538	414.758	359.602	309.023	186.979	492.279	195.559	199.808	283.149	483.968	449.894	0.00012317	0.00039829	5.2775e-05	260.04	2.6251e-06	3.3307e-06	198.75	75.866	4.5397e-06	3.1017e-06	69.718	26.15	29.371	11.214	1.5064e-06	11.767	0.0018903	0.0026923	0.00074682	301.5	2.8737e-05	2.9804e-05	226.03	85.787	2.7507e-05	2.9714e-05	81.451	30.293	34.835	12.971	2.8104e-05	13.692	175.283	261.234	347.423	161.222	235.021	253.436	159.513	166.405	315.980	278.214	163.953	168.629	170.603	176.932	368.098	172.897	-8191	255	
29849.775	1	1	0	0	0.14184	0.16983	0.14871	0.28094	0.26462	0.042623	0.22821	0.28937	0.043641	0.14743	0.2227	0.10794	0.35244	0.16282	0.16942	0.044826	-2.1188	-2.6271	-1.9417	-2.7854	-2.3083	-2.2896	-3.0583	-2.1917	-2.6	-2.7542	-2.1458	-2.7792	-2.6688	-2.1833	-2.9229	-2.3146	163.658	415.436	239.556	431.998	150.804	279.521	292.899	474.923	351.670	254.005	459.317	470.995	416.192	265.509	326.898	187.282	0.00013798	3.9845e-05	7.6e-05	258.41	3.4531e-06	2.5395e-06	199.77	76.243	2.6076e-06	4.5323e-06	70.033	26.596	29.401	11.344	3.525e-06	11.86	0.001885	0.0026891	0.00074714	302.58	2.8837e-05	3.0346e-05	226.97	86.074	2.8056e-05	2.9772e-05	82.038	30.803	35.318	13.147	2.8304e-05	13.967	163.797	172.658	199.948	161.014	332.556	434.980	159.247	166.408	208.551	155.639	164.161	168.323	170.002	176.735	334.552	173.259	-8191	255	
29849.869	1	1	0	0	0.040842	0.34299	0.29821	0.31062	0.16969	0.17815	0.17136	0.20973	0.23376	0.18076	0.20626	0.12198	0.16851	0.069057	0.20543	0.043983	-1.8375	-2.9292	-1.8958	-2.7062	-2.6458	-2.1792	-2.8833	-2.2375	-2.3042	-2.7167	-2.0271	-2.6813	-2.4562	-1.8146	-2.775	-2.4062	166.133	314.702	490.861	398.171	468.175	409.557	477.797	492.022	336.426	490.571	412.485	506.921	345.626	250.899	405.382	405.703	0.00015176	5.5318e-05	9.5954e-05	256.74	4.0888e-06	5.1552e-06	203.5	76.756	2.804e-06	2.0281e-06	71.3	27.021	29.863	11.531	3.0162e-06	12.094	0.0019261	0.0027267	0.00076119	303.53	2.911e-05	3.1131e-05	228.67	86.706	2.8332e-05	3.0337e-05	83.107	31.332	35.612	13.263	2.8924e-05	14.182	167.539	266.505	215.370	161.188	464.989	253.565	159.762	166.643	362.597	209.623	164.742	167.970	170.506	176.648	283.259	173.141	-8191	255	
29849.943	1	1	0	0	0.066164	0.057557	0.16728	0.13148	0.26277	0.20691	0.22073	0.096917	0.25568	0.14259	0.14892	0.27605	0.27713	0.099779	0.063147	0.11216	-1.8604	-2.9688	-2.0812	-2.6396	-2.6646	-2.0292	-2.9104	-2.3333	-2.1521	-2.7938	-2.1375	-2.5146	-2.675	-2.1937	-2.7417	-2.5583	466.212	454.849	503.273	207.329	164.062	266.724	189.901	229.440	258.238	305.069	219.498	156.793	402.674	242.511	361.644	179.049	0.00022945	0.00042132	7.096e-05	260.23	3.4553e-06	1.9931e-06	202.45	77.658	2.0364e-06	3.8331e-06	71.574	27.285	29.942	11.503	4.7236e-06	12.116	0.0019654	0.0027461	0.00078242	305.45	2.9613e-05	3.1121e-05	229.16	87.45	2.8783e-05	3.058e-05	83.36	31.369	35.872	13.319	2.9321e-05	14.163	164.927	223.135	507.270	160.510	249.244	425.120	159.667	166.303	251.093	389.721	164.008	168.355	170.217	176.395	296.780	173.012	-8191	255	
29850.037	1	1	0	0	0.19396	0.012887	0.27273	0.023588	0.17478	0.38748	0.183	0.20174	0.035772	0.14471	0.18621	0.058671	0.3536	0.16334	0.076025	0.17616	-1.9021	-2.8875	-2.1292	-2.3854	-2.9396	-2.0854	-2.7583	-2.6688	-2.2875	-2.9562	-2.3208	-2.4667	-2.8854	-2.1125	-2.65	-2.5125	460.514	350.704	465.382	196.023	473.854	414.039	416.338	337.271	206.705	482.697	449.076	507.582	276.900	221.370	173.240	300.031	0.00016888	0.00022387	3.9238e-05	258.7	2.6851e-06	2.3788e-06	201.54	77.598	2.1572e-06	2.0949e-06	71.276	26.927	30.069	11.543	3.0405e-06	12.166	0.0019683	0.0027348	0.00077025	304.92	2.9395e-05	3.1012e-05	228.22	87.407	2.8506e-05	3.0234e-05	83.421	31.4	35.953	13.368	2.9716e-05	14.273	159.419	192.072	227.444	160.856	186.703	197.304	159.603	165.989	369.336	363.886	164.017	168.367	170.211	176.443	341.557	173.166	-8191	255	
29850.158	1	1	0	0	0.14658	0.25579	0.2238	0.17822	0.089603	0.14324	0.15553	0.15433	0.062	0.164	0.1492	0.16371	0.10499	0.19337	0.12389	0.19183	-1.7792	-2.9188	-2.2	-2.3771	-2.8875	-2.3646	-2.8208	-2.6167	-2.1083	-3.0042	-2.3271	-2.2875	-3.0438	-2.2042	-2.7375	-2.7792	202.522	444.661	303.507	374.624	162.149	240.835	482.297	500.702	340.668	174.474	425.086	395.238	170.047	437.761	239.054	198.614	0.00022599	0.00051538	0.00011358	259.61	1.5994e-06	2.6713e-06	200.69	77.545	2.5425e-06	3.7835e-06	71.887	27.242	29.889	11.691	1.899e-06	12.247	0.0019352	0.0027552	0.00077953	305.79	2.941e-05	3.1141e-05	230.23	87.69	2.8672e-05	3.0486e-05	84.018	31.574	35.842	13.468	2.9541e-05	14.412	172.680	313.117	253.701	161.491	250.589	330.941	159.345	166.051	333.614	272.270	164.274	167.995	170.292	176.308	410.338	173.370	-8191	255	
29850.256	1	1	0	0	0.18761	0.092624	0.023771	0.075501	0.068287	0.11153	0.25122	0.16214	0.098302	0.20685	0.10344	0.09903	0.11262	0.017538	0.18245	0.21227	-1.6396	-3.0062	-2.4313	-2.2583	-2.8375	-2.1813	-2.6	-2.8958	-2.2167	-2.7833	-2.5438	-2.1063	-2.7979	-2.1771	-2.4062	-2.7396	382.377	327.871	414.819	475.691	446.706	438.225	462.557	364.817	417.969	427.003	234.550	418.501	446.842	222.311	303.464	376.026	0.00017779	0.0005319	7.8868e-05	261.23	2.3946e-06	2.0495e-06	203.9	77.267	1.8244e-06	3.5726e-06	72.115	27.412	30.208	11.736	4.147e-06	12.415	0.0019177	0.0027886	0.00078286	306.01	2.9201e-05	3.127e-05	231.47	87.712	2.8523e-05	3.0613e-05	84.884	31.945	36.115	13.552	2.9931e-05	14.606	164.131	155.067	222.473	160.831	365.060	411.392	159.806	166.261	319.899	332.214	164.261	168.275	170.571	176.989	239.794	173.059	-8191	255	
29850.352	1	1	0	0	0.1848	0.18675	0.24615	0.097112	0.22869	0.13243	0.058908	0.096528	0.095438	0.12113	0.080167	0.045054	0.075295	0.034484	0.11312	0.071264	-1.7708	-2.7083	-2.4104	-2.2938	-2.8958	-2.2625	-2.4771	-2.925	-2.1312	-2.65	-2.5896	-2.3021	-2.8917	-2.225	-2.5438	-2.8771	180.382	302.709	356.493	221.925	382.299	384.939	445.689	404.451	319.390	204.769	192.126	351.522	318.753	461.421	167.737	485.362	0.0001292	7.3698e-05	0.00014601	265.39	1.2658e-06	5.0538e-06	204.56	78.546	1.5498e-06	1.5418e-06	73.844	27.919	30.456	11.853	3.569e-06	12.51	0.0019479	0.0028097	0.00078735	308.69	2.9709e-05	3.1208e-05	233.24	88.316	2.8958e-05	3.0998e-05	85.844	32.282	36.385	13.689	2.9931e-05	14.694	173.819	379.713	235.125	160.916	284.623	179.388	159.756	166.774	504.365	168.728	164.045	168.503	170.677	176.705	297.228	173.392	-8191	255	
29850.447	1	1	0	0	0.36155	0.079926	0.041711	0.20594	0.25118	0.12938	0.11905	0.12233	0.20879	0.27495	0.30059	0.15616	0.20229	0.18306	0.28102	0.15983	-1.7979	-2.7313	-2.5979	-2.0812	-2.8667	-2.4313	-2.1833	-2.8583	-2.1458	-2.5375	-2.6083	-2.1354	-2.7771	-2.4521	-2.1646	-2.9396	416.127	244.835	301.755	461.906	432.571	426.192	326.517	430.492	301.294	295.035	409.365	215.063	214.250	460.482	171.279	369.146	0.00016153	0.000283	9.7669e-05	264.45	3.2598e-06	8.4264e-07	204.79	78.201	1.4955e-06	9.3968e-07	73.524	27.636	30.438	11.779	2.6212e-06	12.473	0.0019372	0.0027823	0.00078018	307.45	2.9607e-05	3.1408e-05	232.47	88.376	2.8514e-05	3.0884e-05	85.697	32.203	36.409	13.618	2.935e-05	14.639	160.416	252.214	230.503	161.716	221.887	279.568	159.600	166.253	301.409	322.414	164.163	168.389	170.304	176.780	286.980	173.138	-8191	255	
29850.543	1	1	0	0	0.16345	0.17913	0.20531	0.094718	0.093895	0.03937	0.1537	0.16207	0.11296	0.079935	0.15979	0.18787	0.26951	0.019712	0.31278	0.1857	-1.6146	-2.3479	-2.8271	-2.0104	-2.7583	-2.5333	-2.2771	-2.8958	-2.1896	-2.3688	-2.9042	-1.9937	-2.9646	-2.6333	-2.2458	-3.0417	379.633	278.238	423.194	315.792	254.161	232.116	409.058	473.925	435.756	423.447	169.879	506.880	438.999	402.810	194.142	469.205	0.00016453	0.00027181	5.0569e-05	263.04	4.9463e-06	1.4755e-06	203.52	78.138	2.461e-06	7.0162e-06	72.852	27.85	30.146	11.64	2.9878e-06	12.321	0.0019334	0.0027854	0.00076754	306.76	2.9627e-05	3.1054e-05	232.77	88.113	2.8381e-05	3.0856e-05	84.831	31.957	35.981	13.418	2.9004e-05	14.466	191.780	259.576	226.005	161.341	385.588	429.259	160.162	166.413	275.843	470.357	164.083	168.346	170.998	176.949	316.923	173.177	-8191	255	
29850.639	1	1	0	0	0.13187	0.225	0.066366	0.10708	0.2205	0.039565	0.13609	0.20984	0.24567	0.1765	0.034546	0.084476	0.17336	0.060879	0.24128	0.048598	-1.775	-2.3	-2.6646	-2.1437	-2.6375	-2.6917	-2.1896	-2.8063	-2.3021	-2.3167	-2.8083	-2.15	-2.6833	-2.5458	-2.1688	-2.7771	168.426	283.204	488.010	426.522	397.191	410.671	157.944	243.410	463.361	496.907	347.137	505.250	395.082	167.992	487.539	321.467	0.00019869	4.8754e-05	4.4492e-05	262.1	4.6061e-06	2.032e-06	205.44	77.53	2.1715e-06	1.7903e-06	72.35	27.388	30.187	11.642	3.6056e-06	12.259	0.0019572	0.0027649	0.00076449	305.4	2.948e-05	3.101e-05	232.41	87.747	2.8394e-05	3.0477e-05	84.86	31.851	36.017	13.404	2.9207e-05	14.451	170.582	423.437	310.025	161.139	304.307	316.267	160.072	166.520	230.817	472.466	164.794	168.505	170.750	177.102	211.186	173.248	-8191	255	
29850.734	1	1	0	0	0.082057	0.22373	0.092818	0.19448	0.34333	0.20365	0.15465	0.18495	0.13475	0.22194	0.085337	0.21426	0.10006	0.29328	0.1924	0.16815	-1.8854	-2.325	-2.9813	-2.2938	-2.5	-2.9062	-2.1167	-2.8521	-2.2896	-2.0792	-2.8917	-1.9937	-2.5292	-2.6646	-1.9792	-2.8729	155.604	247.876	177.310	241.907	278.698	422.898	217.191	291.343	275.881	346.029	395.257	337.947	288.523	161.963	436.293	506.003	9.7984e-05	0.00016105	0.00013986	262.68	4.1916e-06	1.5144e-06	204.76	76.773	2.2289e-06	5.1214e-06	72.441	27.173	29.868	11.544	3.8276e-06	12.236	0.0019509	0.0027887	0.00076434	306.26	2.9339e-05	3.1019e-05	232.25	87.389	2.852e-05	3.0671e-05	84.519	31.735	35.933	13.302	2.9133e-05	14.323	168.481	151.257	194.476	161.478	354.745	403.000	159.477	166.612	203.054	249.052	163.848	168.474	171.028	177.120	310.486	173.267	-8191	255	
29850.855	1	1	0	0	0.24255	0.22426	0.16959	0.10982	0.21001	0.14346	0.28028	0.14925	0.13119	0.010655	0.10298	0.34291	0.02433	0.28859	0.35918	0.10322	-1.9542	-2.1771	-2.8438	-2.1229	-2.4437	-2.8417	-2.2375	-2.8271	-2.4208	-2.0938	-2.7917	-2.3063	-2.2438	-2.9479	-2	-2.7812	181.089	471.342	248.367	186.199	356.497	324.518	460.489	505.481	481.199	387.643	374.845	363.452	166.229	383.629	463.347	169.317	0.00014085	0.00016268	6.1067e-05	260.68	1.574e-06	5.0724e-06	202.94	77.405	1.8516e-06	1.0259e-06	71.69	27.108	29.804	11.372	9.7102e-07	11.934	0.0019399	0.002729	0.00076278	305.77	2.9172e-05	3.0597e-05	231.4	87.449	2.8514e-05	3.001e-05	83.51	31.393	35.625	13.134	2.8963e-05	14.036	166.563	358.956	278.161	160.726	258.169	394.881	159.566	166.576	259.466	151.221	164.519	168.112	170.525	176.542	191.616	173.392	-8191	255	
29850.949	1	1	0	0	0.16587	0.081568	0.23333	0.25688	0.05393	0.22783	0.15291	0.15869	0.060593	0.1708	0.21902	0.14281	0.065507	0.031996	0.18321	0.23982	-2.4083	-2.125	-2.8042	-2.2833	-2.1312	-2.8854	-2.1417	-2.5417	-2.7313	-1.9104	-2.8896	-2.4708	-2.2125	-2.8854	-2.2229	-2.6604	441.914	330.925	150.530	263.384	377.681	418.585	461.311	171.515	347.426	198.869	430.921	201.852	182.710	204.918	507.216	420.819	0.00020322	0.00036407	0.00018793	261.58	2.0719e-07	2.072e-06	199.53	77.072	3.8889e-06	1.7519e-06	70.69	26.845	29.623	11.255	2.1277e-06	11.816	0.001912	0.0027242	0.00076354	303.92	2.9482e-05	3.0314e-05	228.39	86.72	2.7922e-05	2.9583e-05	83.149	31.124	35.335	13.024	2.8703e-05	14.02	190.032	233.309	236.402	160.898	213.775	239.791	159.421	166.187	168.555	367.111	164.631	168.164	170.121	176.460	318.017	173.496	-8191	255	
29851.047	1	1	0	0	0.38196	0.19148	0.12644	0.094943	0.1626	0.19589	0.12423	0.076492	0.21239	0.23537	0.17741	0.12782	0.030659	0.011192	0.093443	0.11297	-2.3646	-1.9479	-2.8417	-2.5021	-2.2188	-2.8937	-2.3396	-2.4062	-2.7333	-1.9708	-2.7896	-2.4521	-2.0187	-2.775	-2.2021	-2.4271	451.748	353.787	201.632	169.205	327.828	329.512	429.689	505.471	259.706	392.810	226.358	408.697	207.933	399.934	305.530	364.970	0.00019482	0.00033631	8.8765e-05	260.37	3.2781e-06	8.3164e-07	203.04	76.778	8.5829e-07	1.0699e-06	71.5	26.879	29.71	11.318	2.2465e-06	11.961	0.0019055	0.0027256	0.00076199	304.4	2.9001e-05	3.0039e-05	229.58	86.671	2.8057e-05	3.004e-05	83.232	31.149	35.37	13.041	2.9028e-05	14.07	169.583	229.916	201.896	161.530	295.756	227.484	159.641	166.509	241.211	294.513	164.327	168.529	170.580	176.970	457.617	173.319	-8191	255	
29851.143	1	1	0	0	0.11886	0.19692	0.081105	0.17711	0.16838	0.073898	0.29035	0.21407	0.11313	0.37921	0.21238	0.053044	0.08816	0.19392	0.17387	0.083364	-2.525	-2.1167	-2.7146	-2.4854	-2.1521	-2.9	-2.2792	-2.4396	-2.8042	-2.1333	-2.6479	-2.6604	-2.0604	-2.8708	-2.1104	-2.3479	344.791	486.815	164.402	360.449	175.163	348.989	479.416	480.888	263.160	209.042	445.242	505.421	488.077	165.793	291.206	245.570	0.00011686	0.00029787	3.7324e-05	262.8	1.7574e-06	7.0889e-06	201.85	76.396	2.2773e-06	2.2727e-06	72.203	27.175	29.435	11.348	2.6246e-06	12.023	0.0018718	0.0027355	0.00076839	304.95	2.9179e-05	3.0473e-05	230.27	86.438	2.7842e-05	3.0116e-05	83.398	31.363	35.3	13.068	2.9077e-05	14.109	154.237	207.114	316.967	161.191	354.499	258.596	159.545	166.992	287.230	347.058	164.083	168.352	170.495	176.574	437.594	173.556	-8191	255	
29851.238	1	1	0	0	0.15639	0.37824	0.15843	0.054437	0.039917	0.28097	0.078455	0.25909	0.15424	0.14381	0.33122	0.17513	0.33348	0.04708	0.21712	0.052505	-2.3042	-2.0021	-2.5167	-2.6437	-2.1417	-2.7146	-2.3854	-2.2375	-2.9917	-2	-2.5333	-2.9667	-2.2167	-2.6646	-2.5125	-2.1146	458.723	199.486	311.324	172.979	364.561	303.541	461.089	486.474	419.723	456.853	177.251	200.177	357.547	469.797	406.311	393.964	0.00012555	0.00037674	0.00011899	261.65	8.1014e-06	3.6609e-06	204.18	77.483	1.7792e-06	1.1776e-06	71.992	26.816	29.445	11.249	2.0126e-06	11.944	0.0018881	0.0027095	0.00076553	304.09	2.8992e-05	3.0142e-05	230.95	87.081	2.7432e-05	2.9937e-05	83.486	31.234	35.181	13.041	2.8601e-05	14.014	175.980	284.997	242.389	161.407	283.404	281.181	159.324	166.921	291.842	194.765	164.522	167.941	170.231	176.477	305.145	173.433	-8191	255	
29851.336	1	1	0	0	0.16806	0.14937	0.061639	0.13182	0.14765	0.19193	0.16476	0.1699	0.071283	0.18943	0.40255	0.12406	0.21638	0.28525	0.24365	0.35043	-2.6583	-2.2208	-2.4104	-2.8917	-2.0854	-2.7229	-2.5458	-2.1562	-2.975	-2.3271	-2.3708	-2.8833	-2.1604	-2.6542	-2.7896	-1.9896	338.506	454.975	395.477	334.056	203.045	163.421	158.982	196.829	331.179	332.337	379.162	374.769	150.818	401.569	207.497	262.433	0.00018677	0.0003349	0.00011408	260.56	4.6856e-07	5.8312e-06	202.32	76.061	3.0696e-06	3.18e-06	70.573	26.591	29.36	11.2	1.8045e-06	11.817	0.001882	0.002707	0.00075863	303.82	2.8757e-05	2.9915e-05	228.69	86.419	2.7602e-05	2.9538e-05	82.539	30.948	35.076	12.927	2.8412e-05	13.897	165.832	334.118	214.452	160.854	178.331	329.903	159.856	166.905	272.513	354.518	164.293	168.472	170.666	176.875	428.860	173.216	-8191	255	
29851.455	1	1	0	0	0.11769	0.20475	0.25084	0.16967	0.037641	0.15021	0.2562	0.12483	0.13307	0.12975	0.22258	0.0038742	0.15211	0.2311	0.10407	0.17842	-2.3563	-2.4479	-2.3063	-2.8708	-2.0583	-2.6271	-2.6	-2.1292	-2.8438	-2.3375	-2.2833	-2.9833	-2.0604	-2.5833	-2.7229	-2.1375	390.697	176.208	417.705	197.471	326.339	373.480	175.538	311.258	388.988	328.689	470.468	448.639	225.806	283.790	358.561	502.998	0.00014205	0.00052209	7.5558e-05	261.68	2.0514e-06	2.5287e-06	201.72	75.842	2.0247e-06	2.3428e-06	70.632	26.867	29.408	11.28	1.8869e-06	12.015	0.0018797	0.0027198	0.00076089	303.93	2.8819e-05	3.0347e-05	228.72	86.044	2.8321e-05	2.9857e-05	82.603	31.106	35.078	13.005	2.839e-05	14.035	179.864	225.214	219.617	161.050	270.458	497.618	159.375	166.693	246.184	417.942	164.125	168.286	170.597	176.337	363.788	173.189	-8191	255	
29851.553	1	1	0	0	0.11847	0.09395	0.12034	0.20258	0.018067	0.21358	0.093783	0.30246	0.12945	0.13989	0.12372	0.13631	0.071519	0.29603	0.20523	0.1219	-2.5062	-2.3458	-2.1208	-2.7833	-1.8792	-2.3833	-2.6646	-2.1042	-2.7604	-2.4813	-2.2979	-3.0646	-2.1729	-2.2271	-2.8375	-2.1729	424.621	472.624	288.185	157.221	469.062	410.565	301.193	445.685	440.575	425.650	443.346	312.656	253.024	155.663	436.928	410.859	0.00020476	0.0002489	5.9512e-05	260.74	2.027e-06	3.8783e-06	200.96	76.651	1.1697e-06	8.4213e-07	72.124	26.962	29.776	11.327	3.0147e-06	12.164	0.0019097	0.0027552	0.00076591	303.75	2.9106e-05	3.0665e-05	229.84	86.495	2.8005e-05	2.9977e-05	83.519	31.319	35.55	13.116	2.8931e-05	14.157	170.503	156.344	163.657	161.608	293.900	384.784	159.611	166.427	341.098	342.554	164.547	168.546	170.268	176.672	385.043	173.387	-8191	255	
29851.648	1	1	0	0	0.21375	0.060263	0.070628	0.090414	0.26688	0.33367	0.19573	0.24743	0.1524	0.20686	0.04674	0.28765	0.071099	0.11928	0.21418	0.12528	-2.2896	-2.3729	-2.2021	-2.7938	-2.2938	-2.4271	-2.8771	-2.1208	-2.7438	-2.5938	-2.1979	-2.8812	-2.3458	-2.2354	-2.7812	-2.1542	186.482	300.654	312.089	407.775	473.471	231.967	478.533	503.560	466.009	314.325	410.148	459.503	443.692	274.760	290.549	445.689	0.00020959	0.00046433	8.7726e-05	260.49	9.3454e-07	6.4074e-06	204	76.704	1.376e-06	1.8456e-06	71.842	27.05	29.694	11.385	3.6336e-06	12.218	0.0019179	0.0027574	0.00077136	305.44	2.9345e-05	3.0754e-05	230.64	86.81	2.8155e-05	3.0381e-05	84.015	31.501	35.557	13.147	2.8896e-05	14.269	162.546	266.576	302.615	160.788	304.332	296.105	159.428	166.493	384.363	354.454	164.345	168.649	170.597	176.928	325.086	173.207	-8191	255	
29851.744	1	1	0	0	0.1404	0.34154	0.19637	0.18403	0.21658	0.12845	0.084909	0.11286	0.099637	0.12087	0.24303	0.16537	0.10708	0.3013	0.17821	0.079488	-2.3958	-2.6792	-1.8958	-2.85	-2.2396	-2.1833	-2.7687	-2.2062	-2.4646	-2.7771	-2.0375	-2.7771	-2.4229	-2.1	-2.8438	-2.0083	279.648	381.165	436.563	278.572	404.489	493.176	457.158	401.916	160.216	296.972	213.530	260.829	191.602	337.200	469.121	383.026	0.00015161	0.0002456	0.00015386	259.7	1.0911e-06	3.4925e-06	203.47	77.107	1.7466e-06	1.4125e-06	71.513	27.184	29.689	11.36	5.4303e-06	12.133	0.0019549	0.0027558	0.00077907	304.8	2.9423e-05	3.1014e-05	230.52	87.012	2.8455e-05	3.0082e-05	83.656	31.505	35.393	13.163	2.8907e-05	14.229	185.316	265.545	195.525	160.711	155.551	292.584	159.249	166.141	311.854	269.578	164.200	167.890	170.440	177.099	218.631	173.083	-8191	255	
29851.840	1	1	0	0	0.040133	0.34188	0.059402	0.078494	0.26046	0.17952	0.24538	0.13877	0.11496	0.19507	0.39315	0.024489	0.039329	0.16131	0.10503	0.087877	-2.0146	-2.7958	-1.9542	-2.6562	-2.3542	-2.1771	-2.9146	-2.2896	-2.4729	-3	-1.9979	-2.8187	-2.5792	-2.1104	-2.9771	-2.2917	339.577	465.286	421.799	216.434	209.178	225.064	457.601	389.371	241.299	258.999	483.136	247.614	420.596	368.661	456.031	271.777	0.00016724	0.0001974	8.255e-05	257.71	1.5967e-06	3.4933e-06	202.85	76.666	1.1575e-06	1.8094e-06	71.632	27.331	29.904	11.51	1.5492e-06	12.334	0.0019221	0.0027078	0.00077256	303.74	2.9377e-05	3.0703e-05	229.9	86.711	2.8363e-05	2.9896e-05	84.213	31.74	35.585	13.292	2.8945e-05	14.434	180.027	281.105	368.050	160.741	233.958	317.099	159.359	166.660	242.382	247.982	164.577	168.415	170.469	176.657	177.014	173.235	-8191	255	
29851.936	1	1	0	0	0.20002	0.10256	0.1017	0.054893	0.21311	0.14489	0.12219	0.28214	0.15177	0.070555	0.074852	0.24084	0.093183	0.14357	0.20293	0.14995	-2.0354	-2.7917	-1.9417	-2.7062	-2.6375	-2.1396	-3.0396	-2.325	-2.2125	-2.9479	-2.1562	-2.6063	-2.8333	-2.0417	-2.8354	-2.6	358.361	203.794	378.783	203.424	215.218	508.403	408.039	205.229	486.277	393.984	192.297	168.146	304.675	390.448	472.309	433.327	0.00017322	0.00035043	7.593e-05	259.82	2.0759e-06	1.5118e-06	203.59	76.993	2.6371e-06	6.2474e-06	73.279	27.757	30.181	11.694	2.2776e-06	12.598	0.0019321	0.0027472	0.00077751	304.54	2.9121e-05	3.0562e-05	232.12	87.159	2.8388e-05	3.0057e-05	85.156	32.314	36.024	13.456	2.9243e-05	14.739	162.531	268.785	152.700	161.315	280.451	473.518	159.646	166.427	397.445	168.597	164.019	168.253	170.582	176.466	293.589	172.806	-8191	255	
29852.031	1	1	0	0	0.063338	0.14623	0.055227	0.13474	0.18794	0.064513	0.23395	0.14527	0.015444	0.26493	0.18757	0.30818	0.15862	0.17211	0.10718	0.091421	-1.85	-2.7104	-2.0271	-2.5708	-2.7708	-1.9792	-2.9813	-2.3271	-2.1958	-2.8958	-2.1792	-2.5938	-2.8396	-2	-2.6437	-2.5542	263.638	495.831	458.100	431.259	167.651	477.465	314.097	369.297	372.295	460.447	399.491	221.455	412.432	392.063	177.455	505.215	0.00018685	0.0002975	0.00010018	262.72	2.2962e-06	2.8286e-06	206.12	77.978	2.1254e-06	2.5867e-06	74.019	28.121	30.384	11.791	1.5155e-06	12.834	0.0019318	0.0027473	0.00078678	306.69	2.9371e-05	3.0885e-05	234.8	88.094	2.8721e-05	3.0789e-05	86.385	32.664	36.174	13.587	2.9341e-05	14.963	160.189	222.995	148.535	161.784	313.244	298.529	159.918	166.500	389.963	299.310	164.253	168.321	170.167	176.309	290.684	173.455	-8191	255	
29852.127	1	1	0	0	0.15097	0.1815	0.071416	0.14906	0.11468	0.21476	0.28937	0.12154	0.086914	0.11524	0.064667	0.11492	0.28134	0.13615	0.2745	0.070982	-1.6625	-2.8125	-2.0708	-2.3958	-2.8833	-2.1229	-2.6604	-2.7375	-2.3083	-2.6729	-2.2625	-2.2667	-2.7667	-2.0563	-2.6312	-2.5312	334.228	397.424	261.408	334.623	310.128	503.933	344.901	475.722	269.573	175.597	282.669	505.063	154.275	196.423	331.028	207.213	0.00019965	0.00048565	9.8171e-05	264.55	1.6533e-06	3.9871e-06	208.91	78.159	9.2602e-07	3.7543e-06	74.706	28.229	30.538	11.813	1.9479e-06	12.891	0.0019649	0.0027624	0.00077145	308.5	2.9093e-05	3.145e-05	236.47	88.538	2.8766e-05	3.088e-05	86.823	32.745	36.455	13.587	2.9565e-05	14.923	175.215	237.225	184.062	161.099	222.327	289.403	159.859	166.532	364.571	228.793	164.216	168.348	170.517	176.510	208.573	173.105	-8191	255	
29852.223	1	1	0	0	0.12926	0.039012	0.35559	0.13647	0.13523	0.32685	0.38067	0.18433	0.079133	0.018838	0.074364	0.058388	0.054905	0.21337	0.23782	0.16785	-1.7104	-2.8958	-2.3271	-2.2125	-2.8542	-2.0979	-2.5438	-2.7896	-2.1063	-3.0167	-2.3104	-2.1729	-2.9437	-2.0125	-2.3646	-2.8354	495.332	272.118	405.400	496.303	336.725	369.631	368.339	456.327	186.415	318.363	444.077	333.449	269.832	377.814	163.889	502.067	0.00020859	0.00064841	2.6562e-05	262.05	2.4984e-06	5.4602e-06	208.22	77.997	3.8476e-07	6.2653e-06	73.17	27.824	30.534	11.616	2.9037e-06	12.531	0.0019605	0.0028017	0.00078374	306.69	2.8985e-05	3.0859e-05	235.2	87.964	2.8268e-05	3.0301e-05	85.862	32.382	36.194	13.391	2.9182e-05	14.636	171.727	199.768	316.704	161.076	270.557	292.438	159.495	166.680	388.583	226.470	164.479	168.336	170.565	176.477	251.368	172.861	-8191	255	
29852.344	1	1	0	0	0.13237	0.21478	0.14645	0.05284	0.16913	0.22558	0.065277	0.16121	0.10068	0.084225	0.11568	0.12385	0.14577	0.28088	0.16794	0.12907	-1.5729	-2.8667	-2.4021	-2.0875	-3.0208	-2.1875	-2.3979	-2.7562	-1.9208	-2.6979	-2.5229	-2.2396	-2.8208	-2.1396	-2.5312	-3.0521	477.266	469.152	393.696	458.019	266.349	400.465	444.279	407.260	325.952	481.062	336.570	225.309	406.936	375.451	249.102	455.103	9.9334e-05	1.6014e-05	8.7074e-05	262.16	7.6785e-07	2.7882e-06	206.64	78.059	4.9004e-06	2.1939e-06	73.183	27.754	29.864	11.615	3.0663e-06	12.39	0.0019388	0.002725	0.00076573	307.54	2.9167e-05	3.0985e-05	234.27	88.163	2.879e-05	3.0525e-05	85.516	32.208	35.897	13.34	2.8638e-05	14.595	164.786	242.221	156.273	161.097	423.902	180.689	159.758	166.304	237.166	148.338	163.539	168.203	170.773	176.573	247.886	173.436	-8191	255	
29852.439	1	1	0	0	0.0358	0.29298	0.054588	0.15396	0.22204	0.016948	0.1195	0.14958	0.086743	0.087804	0.19397	0.084042	0.19284	0.13561	0.1285	0.18457	-1.6812	-2.6333	-2.5812	-2.2125	-3.0333	-2.3625	-2.4479	-2.9917	-2.1063	-2.7812	-2.8479	-2.2729	-2.8167	-2.4458	-2.2875	-2.85	472.855	382.033	187.882	214.665	337.293	478.111	288.646	471.922	291.288	184.219	159.464	315.461	486.225	485.527	320.209	297.457	0.00018298	0.00028521	0.0002142	261.52	1.8171e-06	3.0756e-06	204.22	77.224	4.0215e-06	1.7547e-06	73.538	27.999	30.053	11.54	5.7501e-06	12.449	0.001929	0.0027861	0.00076609	306.11	2.9505e-05	3.0666e-05	233.22	87.643	2.841e-05	3.0399e-05	85.514	32.357	35.947	13.296	2.9103e-05	14.545	155.909	180.517	250.604	160.736	276.497	328.299	159.604	166.931	279.251	161.935	164.162	168.450	170.360	176.521	286.270	173.067	-8191	255	
29852.535	1	1	0	0	0.15296	0.061857	0.18403	0.31573	0.11673	0.22291	0.14735	0.32758	0.087686	0.19704	0.1243	0.15522	0.20102	0.17072	0.16114	0.075777	-1.7875	-2.6021	-2.6167	-2.0479	-2.9437	-2.4562	-2.1229	-3.0042	-2.1458	-2.4896	-2.9229	-2.2167	-2.8229	-2.5375	-2.1437	-2.9271	479.495	277.634	213.436	455.172	280.821	198.627	211.708	370.931	438.898	329.976	185.119	268.131	172.832	426.635	258.969	422.943	0.00018763	0.00032757	0.00012355	262.65	3.1568e-06	8.9243e-07	205.45	78.277	4.9178e-06	2.8712e-06	73.179	27.41	29.938	11.511	3.2687e-06	12.281	0.0019709	0.0027844	0.00077405	307.54	2.9618e-05	3.1353e-05	234.07	88.088	2.8752e-05	3.0787e-05	85.245	31.944	35.798	13.233	2.9451e-05	14.41	170.972	317.040	288.598	161.345	177.344	301.058	159.764	166.597	266.603	318.720	164.118	168.629	170.208	176.455	285.103	172.991	-8191	255	
29852.633	1	1	0	0	0.35986	0.11831	0.29761	0.17542	0.13739	0.057873	0.0017648	0.12241	0.10285	0.32013	0.14413	0.091767	0.10372	0.065825	0.14886	0.1464	-2.0479	-2.5833	-2.8896	-1.9875	-2.8042	-2.825	-2.1792	-2.9313	-2.1854	-2.4167	-2.8563	-2.2188	-2.6646	-2.825	-1.9667	-3.0604	503.858	499.539	203.951	419.882	215.018	224.532	180.000	331.297	407.969	479.700	447.104	389.101	325.687	162.126	319.068	313.323	0.00018784	0.00024927	6.3379e-05	261.39	1.1352e-06	6.3296e-06	204.2	77.763	1.978e-06	1.3445e-06	72.416	27.112	29.8	11.399	4.3265e-06	12.199	0.0019407	0.0027712	0.00077736	306.01	2.9804e-05	3.1e-05	231.35	87.316	2.8173e-05	3.0679e-05	84.442	31.632	35.425	13.151	2.9492e-05	14.29	168.665	340.363	390.130	160.877	176.614	266.745	159.378	166.402	225.111	261.292	164.085	168.241	170.507	176.738	371.246	173.182	-8191	255	
29852.729	1	1	0	0	0.016759	0.1507	0.10943	0.15818	0.24667	0.034698	0.047003	0.097202	0.090232	0.26702	0.15365	0.15237	0.067701	0.16548	0.13735	0.16957	-1.9292	-2.2833	-2.9125	-2.2	-2.6688	-2.7979	-2.4083	-2.9896	-2.4562	-2.4417	-2.8771	-2.1917	-2.4854	-2.7292	-2.0438	-2.7667	274.715	442.411	150.052	335.379	458.134	489.803	393.833	486.018	307.087	249.262	503.364	449.095	216.091	484.243	473.226	372.619	0.00021586	0.00026015	7.538e-05	261.4	1.7583e-06	4.1643e-06	202.46	76.429	1.7718e-06	1.1738e-06	71.628	27.112	29.7	11.364	2.5756e-06	12.155	0.0019359	0.0027467	0.00077201	303.65	2.954e-05	3.1024e-05	230.32	86.754	2.8289e-05	3.0231e-05	83.762	31.543	35.565	13.074	2.9133e-05	14.211	166.771	216.755	222.257	161.151	294.445	305.927	160.224	166.718	298.740	301.872	165.021	168.493	170.526	176.647	397.718	173.236	-8191	255	
29852.824	1	1	0	0	0.12594	0.15644	0.35742	0.057161	0.081612	0.17618	0.087037	0.17688	0.23309	0.19309	0.22715	0.031014	0.2192	0.091955	0.2386	0.35809	-2.2354	-2.3354	-2.8917	-2.2979	-2.4313	-2.7729	-2.3833	-2.7833	-2.5563	-2.0812	-3.0104	-2.1437	-2.4125	-2.8563	-2.1917	-2.7	328.365	412.628	292.700	432.984	255.101	228.932	389.725	506.017	431.698	355.102	164.517	318.432	253.435	337.684	292.662	400.612	0.00014255	0.00029552	9.9013e-05	258.79	2.944e-06	3.5993e-06	203.3	76.367	5.3916e-07	6.4628e-06	71.727	26.903	29.361	11.366	7.6978e-07	12.119	0.0019146	0.0027827	0.00076724	302.98	2.9213e-05	3.0736e-05	230.27	86.391	2.82e-05	3.0808e-05	83.61	31.399	35.44	13.073	2.9053e-05	14.201	176.654	301.531	472.416	161.041	494.422	260.832	158.972	166.607	406.395	351.217	164.622	167.851	170.524	176.524	275.833	172.754	-8191	255	
29852.943	1	1	0	0	0.20762	0.23992	0.13749	0.16065	0.2415	0.15263	0.086393	0.067683	0.32279	0.17914	0.098188	0.10544	0.17602	0.1286	0.087957	0.16643	-2.3	-2.1229	-2.9125	-2.3229	-2.2646	-2.9021	-2.2229	-2.7229	-2.65	-2.1167	-2.8646	-2.3812	-2.1688	-2.9583	-2.2479	-2.5875	373.640	283.639	411.478	152.995	403.804	212.454	444.301	461.179	467.240	490.814	304.885	200.715	461.470	321.186	239.077	150.687	0.00018704	0.00021071	0.00014526	260.6	9.7742e-07	2.1151e-06	202.06	76.519	2.2742e-06	1.6824e-06	71.705	26.978	29.404	11.242	2.2975e-06	11.993	0.0019233	0.0027716	0.00076906	303.51	2.9145e-05	3.0695e-05	229.96	86.393	2.8114e-05	3.0477e-05	83.484	31.389	35.307	13.014	2.9242e-05	14.152	182.181	489.244	258.691	160.585	231.346	254.577	159.404	166.275	352.692	415.442	164.154	168.123	169.862	176.505	246.145	173.159	-8191	255	
29853.039	1	1	0	0	0.19417	0.07093	0.16139	0.058871	0.19313	0.067504	0.042114	0.074929	0.026271	0.14741	0.10408	0.090232	0.084782	0.1719	0.066491	0.22274	-2.3917	-2.2271	-2.8937	-2.4583	-2.2167	-2.9938	-2.2479	-2.7375	-2.7646	-2.1688	-2.7792	-2.4979	-2.1937	-2.9208	-2.2521	-2.4292	361.144	478.630	327.452	256.230	468.476	461.111	508.468	445.406	354.136	366.031	326.379	440.153	165.953	418.649	248.368	368.694	0.0001325	0.00048145	9.0478e-05	257.48	5.5461e-06	6.5964e-06	201.35	76.185	2.0376e-06	4.2279e-07	71.162	26.991	29.454	11.21	5.9343e-07	12.037	0.0019098	0.0027665	0.00077096	302.46	2.9366e-05	3.0772e-05	229.48	86.33	2.8159e-05	3.0352e-05	83.259	31.352	35.327	13.013	2.8968e-05	14.141	172.837	224.537	452.527	160.990	336.063	348.390	159.116	166.453	342.073	297.327	163.703	167.782	169.723	176.304	154.632	173.022	-8191	255	
29853.137	1	1	0	0	0.14525	0.046861	0.15969	0.24575	0.15337	0.12778	0.19814	0.11706	0.034977	0.16321	0.14847	0.25796	0.29064	0.26162	0.18978	0.056911	-2.3833	-2.0896	-2.8021	-2.475	-2.2562	-2.9813	-2.3417	-2.4833	-2.8708	-2.3688	-2.8479	-2.6417	-2.2	-2.8708	-2.2854	-2.4104	162.680	363.415	397.280	180.240	337.138	433.033	179.775	152.597	478.533	160.259	347.892	464.445	452.498	199.850	451.772	309.312	0.0001878	6.1275e-05	4.4402e-05	256.28	1.7068e-06	4.7748e-06	200.92	76.438	1.0171e-06	5.5493e-06	71.58	27.104	29.485	11.31	6.0009e-06	12.132	0.0019481	0.002809	0.00077881	301.02	2.9801e-05	3.1251e-05	227.55	86.221	2.833e-05	3.0784e-05	83.445	31.35	35.491	13.077	2.9537e-05	14.222	183.116	475.482	264.518	160.372	159.256	367.625	159.180	166.110	182.400	346.866	164.291	168.413	169.965	176.373	280.409	172.454	-8191	255	
29853.232	1	1	0	0	0.23486	0.23291	0.14918	0.14798	0.1778	0.21532	0.20111	0.085804	0.1031	0.16203	0.18761	0.090796	0.10978	0.12382	0.17889	0.14197	-2.5229	-2.1354	-2.6958	-2.8937	-2.2542	-2.8417	-2.1375	-2.3563	-2.9208	-1.9958	-2.7583	-2.825	-2.2417	-2.9562	-2.4354	-2.2146	237.264	354.655	353.441	318.174	487.206	161.395	246.985	249.905	450.621	328.106	450.631	179.422	396.456	235.349	380.387	365.856	0.00015319	0.0002125	2.5359e-05	256.85	7.197e-07	2.3412e-06	199.11	76.787	1.618e-06	2.0638e-06	71.683	27.195	29.652	11.372	3.7104e-06	12.313	0.0019561	0.0028094	0.00077687	300.79	2.9838e-05	3.1026e-05	227.19	86.579	2.8306e-05	3.0464e-05	83.874	31.707	35.533	13.14	2.915e-05	14.372	177.714	257.098	241.780	160.104	480.452	466.928	158.841	166.030	279.681	266.822	163.973	167.860	170.141	176.475	195.044	173.009	-8191	255	
29853.328	1	1	0	0	0.12921	0.19984	0.16567	0.12888	0.040391	0.11058	0.11996	0.16177	0.15704	0.11862	0.10785	0.1956	0.093637	0.15411	0.16384	0.17223	-2.5833	-2.2625	-2.3479	-2.8979	-2.2479	-2.7958	-2.7021	-2.1188	-2.8229	-2.2604	-2.5	-2.85	-2.0875	-2.7438	-2.6708	-2.2438	413.603	297.237	218.246	489.641	238.405	389.356	333.149	275.688	266.257	392.224	438.472	268.209	432.873	480.945	441.053	494.901	0.00018008	0.00035128	0.00015247	257.01	3.6135e-06	8.6656e-07	202.7	76.996	1.589e-06	2.4271e-06	72.323	27.507	30.047	11.567	3.0973e-06	12.463	0.0019478	0.0027819	0.00077984	302.2	2.9808e-05	3.1286e-05	229.72	87.039	2.8582e-05	3.083e-05	85.185	32.197	35.919	13.338	2.9811e-05	14.629	170.844	232.350	278.422	160.690	344.514	155.244	159.228	165.963	262.062	160.580	164.341	168.214	169.640	176.517	200.478	172.812	-8191	255	
29853.424	1	1	0	0	0.10842	0.10572	0.16386	0.086242	0.071303	0.2445	0.30163	0.1565	0.15263	0.028941	0.13821	0.16516	0.12202	0.22683	0.1991	0.25306	-2.7854	-2.3354	-2.3292	-3.0333	-2.2021	-2.7854	-2.7479	-2.1896	-3.0146	-2.4146	-2.4979	-2.9625	-2.05	-2.7854	-2.6875	-1.9854	450.466	494.487	171.328	405.099	372.044	206.126	444.446	252.088	454.957	391.537	178.086	498.710	473.939	504.432	449.916	278.151	0.00012141	0.00038475	0.00017337	258.8	3.3086e-06	3.9428e-06	204.01	77.49	3.2505e-06	1.411e-06	73.821	27.951	30.419	11.557	2.7145e-06	12.598	0.0019458	0.0027772	0.00078207	303.49	2.9845e-05	3.1267e-05	231.04	87.574	2.8715e-05	3.1019e-05	85.661	32.377	36.119	13.356	2.9312e-05	14.709	159.154	446.362	201.552	160.754	413.968	241.171	158.997	166.325	313.545	186.306	163.783	168.337	170.088	176.310	292.149	172.720	-8191	255	
29853.545	1	1	0	0	0.057248	0.24091	0.35791	0.18477	0.079862	0.20473	0.20272	0.20956	0.061372	0.14191	0.17208	0.16911	0.16266	0.073539	0.19424	0.11471	-2.4646	-2.2417	-2.2979	-3.0062	-2.1167	-2.45	-2.7396	-2.3021	-2.7021	-2.5	-2.3917	-2.7792	-2.2313	-2.4583	-2.825	-2.0729	335.015	274.272	150.719	413.723	287.742	295.284	341.644	208.063	473.753	409.074	231.155	485.202	467.748	449.044	238.117	333.335	0.00012598	0.00032545	0.00015354	257.93	3.9332e-06	1.9837e-06	203	77.137	2.8182e-06	4.2443e-06	72.411	27.853	30.136	11.697	3.1158e-06	12.619	0.0019413	0.0027372	0.00078253	302.52	2.9489e-05	3.0779e-05	230.71	87.247	2.8489e-05	3.0703e-05	85.144	32.217	36.021	13.448	2.9519e-05	14.744	176.601	487.532	484.111	161.134	361.208	216.266	159.153	166.315	203.697	262.851	164.303	167.912	170.204	176.811	192.946	172.635	-8191	255	
29853.641	1	1	0	0	0.10092	0.41556	0.039531	0.22055	0.19051	0.14493	0.092213	0.40279	0.31387	0.18981	0.061505	0.040975	0.063711	0.12631	0.20332	0.035674	-2.425	-2.5938	-2.0542	-2.9083	-2.2917	-2.55	-2.7125	-2.0417	-2.7396	-2.4458	-2.1896	-2.9229	-2.4083	-2.25	-2.8875	-2.1042	315.293	268.731	352.711	282.844	363.937	506.886	220.766	202.733	432.773	228.564	430.861	288.567	185.224	365.521	356.353	375.004	0.0001737	0.00038589	1.5845e-05	259.21	9.2004e-07	5.4611e-07	202.78	77.489	2.2394e-06	4.6886e-06	73.069	28.16	30.36	11.714	4.7267e-06	12.553	0.0019301	0.0027583	0.00077996	302.83	2.9574e-05	3.0643e-05	231.31	87.567	2.8507e-05	3.044e-05	85.466	32.612	36.048	13.474	2.8927e-05	14.748	167.964	239.052	318.749	160.391	467.555	449.024	159.389	166.291	269.761	190.312	164.667	168.001	170.180	175.922	229.849	172.780	-8191	255	
29853.713	1	1	0	0	0.14125	0.10053	0.1206	0.061091	0.14703	0.041329	0.12869	0.22654	0.02672	0.15129	0.075688	0.052714	0.081053	0.15787	0.34309	0.067033	-2.2354	-2.5458	-2.2375	-2.8146	-2.3271	-2.3729	-2.8229	-2.0042	-2.6208	-2.7604	-2.1063	-3.0417	-2.3854	-2.125	-3.0104	-2.2021	461.032	184.419	333.006	187.323	298.007	417.692	342.841	506.866	282.391	283.434	440.953	445.679	427.347	250.100	199.833	261.172	0.00017141	0.00053285	0.00012422	257.32	2.0284e-06	2.4574e-06	203.77	77.303	4.6308e-06	1.6674e-06	73.207	27.995	30.122	11.475	1.9919e-06	12.358	0.0019259	0.0027464	0.00077532	303.46	2.9478e-05	3.1223e-05	232.18	87.56	2.8515e-05	3.0315e-05	85.629	32.305	36.012	13.355	2.9599e-05	14.591	182.396	269.897	257.713	160.658	225.445	270.488	159.790	166.122	255.500	449.274	164.219	168.663	170.419	176.482	200.070	172.571	-8191	255	
29853.809	1	1	0	0	0.063772	0.23419	0.18717	0.28804	0.12724	0.16485	0.070714	0.14095	0.24256	0.13398	0.17822	0.16272	0.037268	0.12809	0.29414	0.11908	-2.2458	-2.7458	-2.0083	-2.925	-2.45	-2.1063	-2.8125	-2.25	-2.525	-2.7458	-2.0312	-2.7354	-2.5125	-2.075	-2.8479	-2.3063	491.434	286.688	163.971	471.681	262.310	282.596	222.868	179.016	383.494	175.673	445.286	470.255	371.940	413.239	416.510	186.726	0.0001872	0.0004424	0.0001078	260.39	5.6038e-06	2.6164e-06	205.62	77.196	2.5283e-06	2.8458e-06	73.523	27.743	30.026	11.437	1.4011e-06	12.368	0.0019099	0.0027731	0.00077764	304.52	2.9548e-05	3.1199e-05	232.55	87.391	2.8604e-05	3.0271e-05	85.386	32.067	35.724	13.231	2.9148e-05	14.406	172.169	354.820	234.673	161.427	282.761	424.177	158.936	166.065	253.547	221.390	164.058	168.258	170.200	176.106	227.324	172.820	-8191	255	
29853.928	1	1	0	0	0.069849	0.26617	0.089767	0.14015	0.067592	0.28997	0.093423	0.060374	0.27057	0.11351	0.052337	0.24664	0.13315	0.13503	0.084907	0.24569	-2.0417	-2.7687	-2.225	-2.7708	-2.6875	-2.1542	-2.9813	-2.4188	-2.2812	-3.0792	-2.0438	-2.825	-2.9458	-2.2771	-2.9667	-2.5667	306.816	436.146	245.716	430.377	204.082	392.781	211.943	185.410	219.884	467.643	451.740	398.489	340.443	477.973	500.597	153.997	0.0001702	0.00021445	6.0279e-05	257.5	2.7502e-06	3.3948e-06	203.11	77.457	1.3281e-06	3.7017e-06	71.993	27.193	29.9	11.285	8.2904e-07	12.11	0.0019279	0.0027622	0.00077716	302.44	2.9324e-05	3.1169e-05	230.57	87.018	2.8352e-05	3.0433e-05	84.492	31.677	35.539	13.103	2.9505e-05	14.243	187.086	224.361	205.915	160.584	256.890	225.595	159.782	166.563	297.291	197.056	164.534	168.612	170.780	176.344	404.258	172.925	-8191	255	
29854.023	1	1	0	0	0.20351	0.21547	0.21527	0.14371	0.14371	0.057572	0.24744	0.14355	0.10498	0.15454	0.20432	0.1783	0.13496	0.37501	0.22713	0.1073	-2.0125	-2.9062	-2.0583	-2.4979	-2.7562	-2.0521	-2.8	-2.5271	-2.1042	-2.9417	-2.2938	-2.5687	-2.7042	-2.0271	-3.0583	-2.5458	506.097	467.530	462.071	316.176	412.968	372.106	399.471	386.066	443.041	191.446	158.306	365.014	199.346	462.823	344.412	505.705	0.00025836	0.00059609	5.7293e-05	255.1	3.7512e-06	2.0452e-06	202.36	76.439	4.7279e-06	2.6393e-06	71.688	27.145	29.631	11.356	5.0619e-06	12.092	0.0019467	0.0027605	0.00077311	299.68	2.9163e-05	3.1254e-05	229.48	86.561	2.8555e-05	3.0649e-05	83.653	31.598	35.388	13.068	2.8923e-05	14.195	162.272	228.504	397.820	161.102	343.931	237.808	159.537	166.647	304.238	237.252	164.281	168.382	170.595	177.032	273.306	172.673	-8191	255	
29854.119	1	1	0	0	0.27349	0.16579	0.12513	0.1381	0.18826	0.27821	0.19861	0.067624	0.20082	0.26088	0.15414	0.013424	0.15489	0.26327	0.11084	0.22323	-2.0146	-3.0396	-2.2708	-2.4396	-2.7896	-2.1813	-2.8833	-2.6729	-2.1292	-2.8396	-2.2104	-2.3104	-2.8958	-2.1708	-2.6604	-2.6083	421.215	297.770	430.762	196.274	203.331	398.093	342.003	370.033	157.292	455.416	192.430	193.060	190.602	366.389	501.959	433.511	0.00012354	0.00029097	0.00014846	258.74	4.5469e-06	1.4341e-06	201.62	76.051	1.1791e-06	4.6122e-06	70.952	27.013	29.339	11.207	2.9083e-06	12.015	0.0019418	0.0027581	0.00076687	301.5	2.9344e-05	3.089e-05	229.25	86.089	2.859e-05	3.0206e-05	83.317	31.449	35.196	13.005	2.9052e-05	14.148	192.986	360.334	227.568	161.375	248.743	301.893	159.400	166.102	275.743	225.289	164.159	168.500	170.305	176.464	313.705	172.802	-8191	255	
29854.217	1	1	0	0	0.19226	0.078472	0.096631	0.0663	0.1458	0.14663	0.085086	0.084226	0.14039	0.17667	0.1178	0.085476	0.052834	0.23309	0.20198	0.13552	-1.6125	-2.9708	-2.3104	-2.3875	-2.9854	-2.1125	-2.7292	-2.7542	-2.2083	-2.9604	-2.6583	-2.2292	-2.8625	-2.2792	-2.5167	-2.6167	502.123	225.456	414.211	496.253	202.586	230.753	403.657	367.560	466.834	341.771	402.556	432.625	212.090	318.753	311.361	174.107	0.00013698	0.0005765	0.00010475	257.17	1.5339e-06	1.2042e-06	202.31	76.655	1.5018e-06	2.3406e-06	71.089	26.997	29.603	11.275	2.9389e-06	12.265	0.0019501	0.0027435	0.00076003	300.79	2.9332e-05	3.0787e-05	228.84	86.277	2.8454e-05	3.0152e-05	83.447	31.487	35.251	13.014	2.8743e-05	14.21	174.923	230.141	244.392	160.985	383.919	202.999	159.363	166.637	234.381	195.226	164.044	167.966	170.251	176.782	258.023	173.460	-8191	255	
29854.338	1	1	0	0	0.1014	0.26138	0.15962	0.282	0.16637	0.28468	0.26126	0.084648	0.39975	0.14151	0.090903	0.36609	0.096589	0.20105	0.30796	0.23876	-1.8792	-2.9188	-2.3771	-2.3708	-2.9021	-2.1875	-2.6229	-2.8167	-1.9917	-2.7833	-2.575	-2.2583	-2.9625	-2.2125	-2.3896	-2.7292	217.060	240.371	507.957	482.764	155.880	463.641	367.757	225.202	175.957	409.916	492.530	425.795	328.220	207.888	178.979	449.399	0.00019282	0.00021412	5.83e-05	254.44	4.073e-07	4.6681e-06	200.73	76.153	1.9304e-06	3.3891e-06	71.509	27.11	29.396	11.354	3.0571e-06	12.131	0.0019413	0.0027216	0.00075665	300.05	2.8935e-05	3.0356e-05	228.1	86.248	2.8406e-05	3.0184e-05	83.436	31.498	35.303	13.032	2.9056e-05	14.157	157.796	207.276	247.068	161.077	466.693	299.402	159.227	166.156	282.280	255.837	163.446	167.806	170.965	176.392	245.411	173.299	-8191	255	
29854.408	1	1	0	0	0.18297	0.31374	0.28232	0.20774	0.1187	0.21323	0.12932	0.12535	0.11541	0.15273	0.27824	0.081805	0.20665	0.047129	0.10207	0.22485	-1.725	-2.7208	-2.3937	-2.1688	-2.8896	-2.1917	-2.5521	-2.9042	-2.05	-2.7812	-2.6708	-2.1792	-2.9042	-2.3604	-2.3292	-2.8292	389.730	292.262	163.470	312.215	217.798	251.785	212.343	401.347	377.669	312.745	478.572	295.130	402.127	302.866	429.477	396.013	0.00019035	0.00015501	3.4667e-05	256.19	3.946e-06	1.9564e-06	199.03	76.024	3.9873e-06	2.8015e-06	71.089	26.932	29.426	11.301	3.9795e-06	12.033	0.0019207	0.002734	0.00076309	299.47	2.9043e-05	3.0637e-05	226.66	86.193	2.8166e-05	2.9875e-05	83.195	31.366	35.112	12.998	2.902e-05	14.138	165.619	157.004	223.292	160.737	310.438	200.800	159.483	165.924	261.364	437.048	164.155	168.721	170.120	176.428	387.253	173.001	-8191	255	
29854.506	1	1	0	0	0.029073	0.13152	0.15647	0.093547	0.14325	0.16487	0.27125	0.13155	0.090766	0.24108	0.37931	0.27666	0.16746	0.026936	0.075072	0.086688	-1.7479	-2.5938	-2.7271	-2.1354	-2.9146	-2.5479	-2.3	-2.9875	-2.1042	-2.6583	-2.9458	-2.0542	-2.8187	-2.6042	-2.2146	-2.9875	237.096	218.623	399.915	195.960	258.308	502.487	195.972	149.585	463.841	368.515	189.197	365.992	221.652	358.100	178.082	156.782	0.00018132	0.00030621	6.5099e-05	257.43	1.5591e-06	1.5483e-06	199.03	76.191	3.9426e-06	3.6563e-06	71.186	27.07	29.415	11.356	1.8545e-06	12.322	0.0019242	0.002697	0.0007694	299.36	2.8862e-05	2.9991e-05	226.42	86.046	2.8229e-05	3e-05	83.141	31.614	35.264	13.109	2.9058e-05	14.362	183.680	464.617	218.033	160.566	417.362	297.680	159.193	166.126	169.348	215.977	163.917	168.259	169.816	176.125	453.784	173.163	-8191	255	
29854.625	1	1	0	0	0.051242	0.12807	0.031251	0.36422	0.16106	0.066153	0.015118	0.076835	0.36812	0.05064	0.28914	0.10257	0.20716	0.19129	0.1141	0.3101	-1.7313	-2.5271	-2.7354	-1.9646	-2.7229	-2.5812	-2.1146	-2.8875	-2.05	-2.3542	-2.8	-2.1208	-2.7396	-2.7229	-2.2042	-2.8833	384.502	360.809	412.620	243.887	470.255	350.152	305.131	423.802	458.416	357.288	406.751	192.675	448.019	448.887	209.324	364.867	0.00018173	0.00020942	0.00015358	253.28	1.6659e-06	4.5617e-06	202.67	76.82	2.0793e-06	4.0009e-06	72.104	27.57	29.716	11.437	1.2939e-06	12.363	0.0018816	0.0027232	0.00076661	299.2	2.9066e-05	3.0711e-05	229.29	86.633	2.7941e-05	3.0483e-05	84.357	31.963	35.522	13.183	2.9384e-05	14.475	169.931	236.043	228.075	161.009	245.501	275.883	159.762	166.260	303.630	318.007	164.177	168.216	170.277	176.590	345.031	173.558	-8191	255	
29854.721	1	1	0	0	0.16609	0.19194	0.010088	0.075513	0.14668	0.25764	0.069116	0.16552	0.28679	0.2129	0.17173	0.1458	0.31879	0.17093	0.14771	0.015399	-1.9188	-2.2167	-3.1063	-2.2833	-2.6146	-2.7562	-2.1625	-2.8563	-2.2771	-2.2687	-2.7833	-2.1167	-2.6979	-2.9729	-2.0229	-2.7313	489.611	369.130	458.939	414.751	429.606	157.185	313.080	197.267	473.625	186.114	440.180	231.755	265.958	191.993	375.819	192.005	0.00018604	0.00027583	0.00013505	255.59	1.6777e-06	2.3336e-06	202.67	77.015	1.8939e-06	5.1513e-07	72.71	27.74	29.883	11.606	2.3947e-06	12.469	0.0018878	0.0027764	0.00077592	300.48	2.9087e-05	3.0523e-05	230.42	87.049	2.7931e-05	3.0636e-05	85.229	32.182	35.799	13.32	2.9444e-05	14.559	176.503	467.947	254.834	160.765	295.193	243.255	159.528	166.435	455.963	288.981	164.554	167.904	170.181	176.520	367.239	172.845	-8191	255	
29854.816	1	1	0	0	0.04531	0.24798	0.22433	0.08653	0.15702	0.085802	0.085082	0.25895	0.21387	0.11881	0.084388	0.16834	0.14102	0.21111	0.12803	0.26886	-2.1312	-2.275	-2.9167	-1.9583	-2.5979	-2.9417	-2.1146	-2.8354	-2.5479	-2.1979	-3.1042	-2.1396	-2.6167	-2.8354	-2.0583	-2.9625	334.148	304.290	174.233	465.112	161.921	356.593	229.935	414.067	170.196	279.976	432.437	491.789	379.165	218.377	177.216	227.397	0.00018326	0.00013857	0.00015086	255.51	9.9254e-08	4.1017e-06	204.22	77.646	2.3607e-06	1.6676e-06	72.853	27.644	30.286	11.511	3.0386e-06	12.484	0.0019076	0.00279	0.00077323	300.66	2.89e-05	3.0822e-05	230.69	87.503	2.8105e-05	3.0479e-05	85.147	32.097	35.9	13.345	2.946e-05	14.566	169.651	191.578	178.409	160.740	155.864	280.591	159.819	166.293	326.954	251.496	164.358	168.565	170.038	176.579	352.067	173.264	-8191	255	
29854.936	1	1	0	0	0.16839	0.28948	0.097821	0.10242	0.23939	0.029488	0.1359	0.15037	0.1191	0.022038	0.059956	0.10934	0.13699	0.27491	0.13735	0.14042	-2.0958	-2.1688	-2.9813	-2.2792	-2.2042	-2.8937	-2.1562	-2.7167	-2.7146	-2.2438	-2.8	-2.3917	-2.2625	-2.9021	-2.175	-2.7229	192.333	239.552	488.401	404.747	317.106	229.244	150.945	242.801	195.888	281.603	220.583	430.527	442.184	460.016	253.768	256.594	0.00018109	0.00026488	0.00010808	255.64	6.4551e-07	6.6224e-07	203.31	77.004	1.4553e-06	1.2116e-06	72.994	27.968	30.117	11.735	2.3653e-06	12.649	0.0019215	0.0027998	0.00076638	300.52	2.9395e-05	3.0819e-05	229.9	87.62	2.8248e-05	3.0654e-05	85.321	32.362	36.14	13.473	2.9377e-05	14.714	186.073	212.444	310.705	160.859	435.345	407.859	159.565	166.531	248.197	172.998	164.377	167.735	170.299	176.542	161.531	172.801	-8191	255	
29855.008	1	1	0	0	0.040608	0.13547	0.1661	0.10308	0.15354	0.14112	0.19989	0.30103	0.15196	0.12503	0.35829	0.28514	0.11938	0.30069	0.11442	0.2141	-2.2792	-2.1229	-2.9646	-2.3583	-2.2562	-2.9458	-2.1813	-2.5458	-2.6708	-2.2562	-2.8292	-2.4479	-2.0479	-2.975	-2.1437	-2.6146	236.377	191.605	223.800	475.482	276.525	399.699	376.808	454.103	441.225	419.046	382.042	334.066	462.413	224.196	432.746	427.502	0.00014718	0.00037822	0.00012118	255.74	3.4468e-06	3.3048e-06	204.43	77.835	2.342e-06	5.2615e-07	73.805	28.049	30.361	11.829	5.2636e-06	12.774	0.0019377	0.00278	0.00075961	300.73	2.9955e-05	3.1223e-05	230.76	87.706	2.8889e-05	3.0721e-05	86.145	32.464	36.108	13.568	2.9458e-05	14.898	169.584	311.995	238.734	160.911	317.311	313.371	159.839	166.383	311.253	195.082	164.468	167.446	169.848	176.797	159.114	173.409	-8191	255	
29855.104	1	1	0	0	0.13401	0.10558	0.1991	0.22287	0.43106	0.063264	0.10111	0.21976	0.28265	0.29478	0.14446	0.1909	0.026981	0.12369	0.050338	0.19646	-2.525	-2.0958	-2.7604	-2.4979	-2.2521	-2.8312	-2.0812	-2.3187	-2.7687	-2.1292	-2.6146	-2.6542	-2.2583	-2.8875	-2.2604	-2.5062	449.922	438.288	150.735	449.142	467.719	301.583	427.108	254.484	282.814	462.906	424.742	298.304	452.163	478.702	464.970	338.922	0.00012781	0.00021736	1.2038e-05	258.92	3.9867e-06	4.827e-06	204.1	77.537	2.8042e-06	5.5471e-06	74.066	28.176	30.193	11.746	2.2165e-06	12.666	0.0019576	0.0027812	0.00077754	302.74	2.9667e-05	3.1454e-05	231.49	87.809	2.868e-05	3.087e-05	86.435	32.639	36.188	13.511	2.9302e-05	14.79	178.985	214.203	248.333	160.488	322.350	294.043	159.488	166.774	353.504	302.313	164.281	168.531	170.417	176.264	326.484	173.055	-8191	255	
29855.225	1	1	0	0	0.21151	0.21767	0.19515	0.087376	0.22635	0.24557	0.061301	0.2051	0.11868	0.2476	0.26066	0.048323	0.0097456	0.29112	0.16298	0.1957	-2.5625	-1.9208	-2.8542	-2.8354	-2.2812	-3.0333	-2.4333	-2.4917	-3.0083	-2.1063	-2.7687	-2.7208	-2.1771	-2.6708	-2.4	-2.1375	438.571	263.405	421.605	473.977	302.016	402.048	185.507	476.373	232.881	318.755	376.214	257.379	178.147	163.036	296.424	314.513	0.00017485	0.00016212	0.00010843	259.04	5.4999e-06	5.471e-06	204.83	78.812	7.8726e-07	1.8129e-06	73.538	27.877	30.117	11.557	2.7431e-06	12.365	0.0019586	0.0027943	0.00076989	303.14	2.9509e-05	3.0738e-05	231.94	88.343	2.8422e-05	3.0364e-05	85.681	32.283	36.022	13.328	2.9022e-05	14.557	173.278	234.421	214.553	161.048	266.409	305.079	159.129	166.612	373.945	285.619	164.319	167.592	170.140	176.680	260.543	172.962	-8191	255	
29855.320	1	1	0	0	0.2339	0.031735	0.18593	0.30126	0.056077	0.12883	0.28339	0.19514	0.0581	0.2083	0.16505	0.23839	0.091342	0.26638	0.20263	0.30071	-2.625	-1.9771	-2.5042	-2.7146	-2.0854	-2.7687	-2.4542	-2.2	-2.9854	-2.2854	-2.4833	-2.7333	-2.1667	-2.8563	-2.5646	-2.2604	211.722	316.276	166.791	296.868	205.850	186.159	429.275	169.123	327.810	295.174	218.974	313.439	491.980	477.243	239.248	475.960	0.00014286	0.00038915	4.8414e-05	258.78	3.2325e-06	5.1703e-06	203.46	77.992	2.8877e-06	2.3082e-06	72.607	27.584	29.889	11.457	1.2256e-06	12.367	0.0019652	0.0027877	0.00077845	303.36	2.9887e-05	3.0975e-05	230.37	88.167	2.8714e-05	3.0387e-05	85.066	32.063	35.842	13.234	2.9342e-05	14.415	189.396	434.178	216.276	160.487	156.922	505.080	159.296	166.052	459.231	368.671	163.931	167.775	169.984	176.531	336.104	172.957	-8191	255	
29855.418	1	1	0	0	0.10675	0.078616	0.03061	0.27928	0.13771	0.2196	0.37004	0.17728	0.1498	0.094113	0.14357	0.15597	0.2496	0.2461	0.12556	0.090271	-2.6188	-2.3187	-2.3917	-2.8542	-2.0396	-2.8	-2.5854	-2.0438	-2.8458	-2.3417	-2.4042	-2.7438	-1.9208	-2.6437	-2.4729	-2.1583	203.648	489.427	352.462	283.791	206.254	305.909	419.350	242.130	310.280	355.207	293.450	332.859	380.950	181.811	162.222	414.824	0.00010244	0.00025947	6.3047e-05	257.46	2.0255e-06	1.0284e-06	202.97	76.831	1.8284e-06	1.8346e-06	72.109	27.138	30.272	11.426	1.5464e-06	12.196	0.0019638	0.0028095	0.00078862	302.62	2.9324e-05	3.0976e-05	230.15	87.572	2.8579e-05	3.0605e-05	85.107	31.87	35.83	13.2	2.9646e-05	14.344	156.548	278.972	394.107	160.747	317.560	398.971	159.525	166.348	281.408	237.051	164.364	168.066	170.256	176.540	302.080	173.646	-8191	255	
29855.514	1	1	0	0	0.051002	0.32264	0.14	0.17346	0.080086	0.14639	0.075684	0.1267	0.035719	0.14365	0.22811	0.066186	0.092613	0.21771	0.19033	0.11505	-2.5229	-2.4188	-2.3063	-2.9625	-1.9667	-2.5687	-2.5583	-2.2062	-2.9396	-2.3604	-2.3812	-3.05	-2.2313	-2.4708	-2.6813	-2.3229	493.598	175.495	272.942	225.891	446.952	363.866	251.233	423.625	506.296	154.406	257.112	197.810	362.384	283.229	351.532	302.751	0.00018811	0.00011707	7.0218e-05	254.7	2.6734e-06	9.3563e-07	202.63	77.294	2.928e-06	1.3248e-06	71.996	27.275	29.996	11.442	2.5597e-06	12.089	0.0019298	0.0027553	0.00079491	300.4	2.9599e-05	3.0965e-05	229.55	87.412	2.8347e-05	3.0365e-05	84.689	31.751	35.61	13.16	2.9664e-05	14.274	506.619	286.181	483.566	160.750	246.697	445.253	159.016	166.398	219.911	211.387	164.403	168.682	169.997	176.436	296.981	173.063	-8191	255	
29855.609	1	1	0	0	0.26587	0.11028	0.11536	0.12546	0.26514	0.13608	0.072086	0.10227	0.45638	0.098794	0.1172	0.065116	0.28833	0.069864	0.32984	0.20893	-2.3146	-2.3375	-2.1063	-2.9667	-2.2458	-2.5354	-2.9229	-2.1333	-2.8396	-2.5521	-2.1833	-2.9708	-2.1333	-2.3063	-2.9562	-2.1	251.903	206.398	317.522	464.020	309.504	378.429	363.582	413.757	222.072	377.225	296.741	297.181	449.429	395.454	413.164	501.182	0.00019983	0.00043375	2.5591e-05	257.07	2.3801e-06	3.252e-06	201.96	76.977	9.1508e-07	1.0113e-06	72.138	27.2	29.759	11.347	2.7959e-06	12.148	0.0019267	0.0027789	0.00078571	300.01	2.9156e-05	3.1392e-05	228.89	86.979	2.7937e-05	3.0418e-05	84.251	31.627	35.492	13.105	2.92e-05	14.2	163.691	239.615	277.395	161.007	289.080	348.378	159.565	166.223	216.294	243.527	164.424	167.710	169.990	176.714	280.658	173.066	-8191	255	
29855.705	1	1	0	0	0.12653	0.070377	0.15069	0.024872	0.099654	0.24074	0.11667	0.15367	0.11159	0.056621	0.16723	0.26691	0.074738	0.17032	0.24856	0.24806	-2.3146	-2.725	-2.0333	-2.8646	-2.2729	-2.2812	-2.9979	-2.1167	-2.7271	-2.7125	-2.1771	-2.9	-2.2438	-2.1979	-2.7667	-2.1083	368.486	308.807	320.996	376.988	283.267	366.127	295.588	377.925	366.274	347.791	459.880	460.672	352.768	252.642	478.410	466.127	0.00018379	0.00065698	3.1599e-05	256.23	5.1283e-06	1.4177e-06	199.55	76.636	1.2883e-06	6.9437e-07	71.92	26.852	29.247	11.24	1.5834e-06	11.93	0.0018919	0.0027853	0.00078311	299.04	2.895e-05	3.0939e-05	227.06	86.358	2.8279e-05	3.0843e-05	83.781	31.278	35.26	12.994	2.919e-05	14.016	169.052	248.903	415.148	160.687	303.742	204.068	159.704	166.359	366.169	172.266	164.124	168.308	170.120	176.474	372.076	172.985	-8191	255	
29855.803	1	1	0	0	0.20211	0.12783	0.094888	0.10622	0.071312	0.28344	0.13945	0.10722	0.013984	0.054782	0.29539	0.12362	0.30962	0.048224	0.097245	0.21723	-2.1354	-2.6458	-2.0667	-2.95	-2.5396	-2.1417	-3.0229	-2.0917	-2.5208	-2.8646	-2.1854	-2.7833	-2.4188	-2.3104	-2.9875	-2.325	184.599	353.218	243.172	246.173	189.799	181.312	346.700	455.673	372.472	451.154	253.038	261.543	362.013	409.828	411.553	272.438	0.00016272	0.00017694	0.00013633	256.15	1.1462e-06	1.6073e-06	198.37	76.317	3.671e-06	4.0008e-06	71.227	26.992	29.624	11.227	3.8519e-06	12.024	0.0019147	0.0027798	0.00077249	300.2	2.919e-05	3.1103e-05	226.67	86.493	2.8557e-05	3.0385e-05	83.596	31.44	35.344	13.036	2.9314e-05	14.083	175.895	210.254	280.547	160.662	278.959	234.590	159.368	165.966	288.332	322.788	163.924	168.143	169.883	176.841	248.676	172.500	-8191	255	
29855.898	1	1	0	0	0.11686	0.17772	0.068377	0.16558	0.16834	0.16406	0.031481	0.10898	0.25064	0.15577	0.090518	0.18442	0.20655	0.24164	0.16393	0.22281	-2.0604	-2.8979	-2.275	-2.9542	-2.6063	-2.1479	-2.9083	-2.4083	-2.3854	-2.9646	-2.1271	-2.7562	-2.7333	-2.0708	-3.0458	-2.3583	383.690	371.563	315.887	181.069	200.330	228.426	345.429	451.057	343.236	457.308	436.498	479.716	474.184	383.954	361.911	488.835	0.0001476	0.00013852	0.00012161	254.17	1.8601e-06	6.1976e-06	200.16	76.65	1.8145e-06	1.9848e-06	71.962	27.059	29.878	11.414	3.4138e-06	12.172	0.0019402	0.0027631	0.00077937	298.73	2.9592e-05	3.1633e-05	226.36	86.629	2.8801e-05	3.0535e-05	83.987	31.521	35.522	13.168	2.9233e-05	14.255	182.558	166.513	224.696	160.626	195.547	368.254	159.396	166.243	442.967	172.807	164.122	168.190	170.267	176.493	338.700	172.613	-8191	255	
29856.018	1	1	0	0	0.026906	0.15234	0.12338	0.1401	0.09634	0.14409	0.22172	0.089641	0.18787	0.19531	0.16457	0.17494	0.094915	0.063801	0.24763	0.052291	-2.1167	-2.9583	-2.0687	-2.6208	-2.5958	-2.0833	-2.9458	-2.4208	-2.1729	-2.9458	-1.9813	-2.4271	-2.6729	-2.0938	-2.7979	-2.6354	387.074	449.350	505.371	353.276	397.253	180.611	288.907	395.335	369.891	218.157	435.863	268.288	390.581	336.525	254.512	304.244	0.00014443	0.00028676	8.2418e-05	254.27	3.4777e-06	2.237e-06	200.64	77.007	2.6561e-06	4.8855e-06	72.732	27.477	29.95	11.496	1.2358e-06	12.313	0.0019558	0.0028106	0.00077383	299.45	2.9547e-05	3.1314e-05	227.74	87.265	2.8556e-05	3.0704e-05	84.856	31.998	35.823	13.244	2.9213e-05	14.436	179.575	369.937	251.593	161.464	333.720	348.522	159.302	166.013	214.778	250.332	164.036	168.246	170.530	176.555	275.051	173.207	-8191	255	
29856.113	1	1	0	0	0.15329	0.20943	0.17385	0.26161	0.10617	0.071127	0.085189	0.064118	0.21059	0.023766	0.16364	0.1305	0.1099	0.17945	0.028992	0.26713	-1.7	-2.8021	-2.1458	-2.5542	-2.8187	-1.95	-2.8667	-2.6083	-2.0146	-2.9104	-2.3708	-2.4896	-2.9167	-2.1333	-2.7625	-2.6188	221.925	478.314	222.909	340.493	398.619	433.800	443.564	342.426	328.872	218.695	175.832	292.195	156.494	152.253	162.193	149.522	0.0001104	0.00052426	5.6364e-05	255.98	4.4589e-06	7.5971e-06	202	77.61	3.1958e-06	1.8476e-06	72.586	27.349	29.963	11.455	2.4927e-06	12.372	0.0019579	0.0028039	0.00076671	299.98	2.9495e-05	3.1141e-05	229.21	87.47	2.9007e-05	3.0326e-05	84.885	31.943	35.778	13.234	2.9045e-05	14.386	194.659	222.710	199.023	160.930	293.315	347.468	159.358	166.314	238.086	461.248	163.747	168.059	170.322	176.364	287.527	172.414	-8191	255	
29856.209	1	1	0	0	0.29078	0.46524	0.22554	0.095335	0.19344	0.18515	0.20524	0.057266	0.18066	0.2702	0.13733	0.061528	0.12326	0.13511	0.088032	0.18856	-1.8417	-2.8771	-2.2646	-2.5104	-2.9833	-1.9917	-2.8458	-2.8125	-2.1063	-3.1792	-2.5375	-2.3479	-2.7708	-2.0479	-2.4646	-2.6854	481.949	263.121	248.131	446.203	170.136	330.931	365.031	257.344	355.094	497.343	477.209	232.336	446.802	369.053	339.035	234.284	0.0001587	0.00040702	0.00015659	256.95	3.6831e-06	4.7568e-06	201.81	77.127	1.9382e-06	3.4882e-06	72.132	27.549	30.094	11.434	2.3054e-06	12.284	0.001952	0.0027578	0.00077978	300	2.9544e-05	3.0813e-05	228.9	87.4	2.9e-05	3.0166e-05	84.756	31.912	35.779	13.239	2.9169e-05	14.395	162.294	343.737	308.008	160.647	231.325	355.173	160.333	166.344	332.412	296.232	164.316	168.075	170.255	176.315	435.452	172.987	-8191	255	
#DATA ENDS
