BOXY.EXE: ISS Imagent and Oximeter Data Acquisition Program Version 0.80
Ascii Record File

#ACQ INFORMATION
2  Detector Channels 
16  External MUX Channels 
1  Auxiliary Channels 
5000  Waveform (CCF) Frequency (Hz)
1  Waveforms Skipped 
30  Waveforms Averaged 
1  Cycles Averaged 
16  Acquisitions per Waveform 
10.0806  Updata Rate (Hz) 

#FILE INFORMATION
TRUE -- External MUX Channel results are PARSED.
FALSE -- AC DC and Phase are NOT grouped.
TRUE -- Companion Program Settings File CREATED.
FALSE -- AC data not excluded
FALSE -- DC data not excluded
FALSE -- Phase data not excluded
FALSE -- Auxillary Chn. data not excluded
Tab delimiters

#CALIBRATION STATE
TRUE -- Waveform Calibration Values APPLIED.


#AUX CALIBRATION VALUES
Val Type	aux-1	

Term	1.0000e+00	
Factor	0.0000e+00	


#WF CALIBRATION VALUES
A = Detector Channel
Val Type	A-AC1	A-AC2	A-AC3	A-AC4	A-AC5	A-AC6	A-AC7	A-AC8	A-AC9	A-AC10	A-AC11	A-AC12	A-AC13	A-AC14	A-AC15	A-AC16	A-DC1	A-DC2	A-DC3	A-DC4	A-DC5	A-DC6	A-DC7	A-DC8	A-DC9	A-DC10	A-DC11	A-DC12	A-DC13	A-DC14	A-DC15	A-DC16	A-Ph1	A-Ph2	A-Ph3	A-Ph4	A-Ph5	A-Ph6	A-Ph7	A-Ph8	A-Ph9	A-Ph10	A-Ph11	A-Ph12	A-Ph13	A-Ph14	A-Ph15	A-Ph16	

Term	0.00000e+00	0.00000e+00	0.00000e+00	0.00000e+00	0.00000e+00	0.00000e+00	0.00000e+00	0.00000e+00	0.00000e+00	0.00000e+00	0.00000e+00	0.00000e+00	0.00000e+00	0.00000e+00	0.00000e+00	0.00000e+00	0.00000e+00	0.00000e+00	0.00000e+00	0.00000e+00	0.00000e+00	0.00000e+00	0.00000e+00	0.00000e+00	0.00000e+00	0.00000e+00	0.00000e+00	0.00000e+00	0.00000e+00	0.00000e+00	0.00000e+00	0.00000e+00	0.00000e+00	0.00000e+00	0.00000e+00	0.00000e+00	0.00000e+00	0.00000e+00	0.00000e+00	0.00000e+00	0.00000e+00	0.00000e+00	0.00000e+00	0.00000e+00	0.00000e+00	0.00000e+00	0.00000e+00	0.00000e+00	
Factor	1.00000e+00	1.00000e+00	1.00000e+00	1.00000e+00	1.00000e+00	1.00000e+00	1.00000e+00	1.00000e+00	1.00000e+00	1.00000e+00	1.00000e+00	1.00000e+00	1.00000e+00	1.00000e+00	1.00000e+00	1.00000e+00	1.00000e+00	1.00000e+00	1.00000e+00	1.00000e+00	1.00000e+00	1.00000e+00	1.00000e+00	1.00000e+00	1.00000e+00	1.00000e+00	1.00000e+00	1.00000e+00	1.00000e+00	1.00000e+00	1.00000e+00	1.00000e+00	X	X	X	X	X	X	X	X	X	X	X	X	X	X	X	X	

B = Detector Channel
Val Type	B-AC1	B-AC2	B-AC3	B-AC4	B-AC5	B-AC6	B-AC7	B-AC8	B-AC9	B-AC10	B-AC11	B-AC12	B-AC13	B-AC14	B-AC15	B-AC16	B-DC1	B-DC2	B-DC3	B-DC4	B-DC5	B-DC6	B-DC7	B-DC8	B-DC9	B-DC10	B-DC11	B-DC12	B-DC13	B-DC14	B-DC15	B-DC16	B-Ph1	B-Ph2	B-Ph3	B-Ph4	B-Ph5	B-Ph6	B-Ph7	B-Ph8	B-Ph9	B-Ph10	B-Ph11	B-Ph12	B-Ph13	B-Ph14	B-Ph15	B-Ph16	

Term	0.00000e+00	0.00000e+00	0.00000e+00	0.00000e+00	0.00000e+00	0.00000e+00	0.00000e+00	0.00000e+00	0.00000e+00	0.00000e+00	0.00000e+00	0.00000e+00	0.00000e+00	0.00000e+00	0.00000e+00	0.00000e+00	0.00000e+00	0.00000e+00	0.00000e+00	0.00000e+00	0.00000e+00	0.00000e+00	0.00000e+00	0.00000e+00	0.00000e+00	0.00000e+00	0.00000e+00	0.00000e+00	0.00000e+00	0.00000e+00	0.00000e+00	0.00000e+00	-1.52421e+02	-1.26321e+02	-1.29806e+02	-1.86538e+02	-8.17425e+01	-9.44387e+01	-1.58482e+02	-1.62015e+02	-7.12364e+01	-6.93310e+01	-1.71970e+02	-1.71209e+02	-1.83751e+02	-1.77240e+02	-8.25703e+01	-1.49604e+02	
Factor	2.27753e-05	1.29415e-04	3.73414e-05	2.99145e-01	1.07142e-06	1.26760e-06	1.64991e-01	5.09512e-02	1.01362e-06	1.41088e-06	8.41624e-02	2.77432e-02	4.04098e-02	8.88480e-03	1.04482e-06	1.27305e-02	1.79682e-06	1.89931e-06	5.29689e-07	1.50663e-01	2.07622e-08	2.08323e-08	7.96040e-02	2.61946e-02	2.06444e-08	2.08380e-08	4.16293e-02	1.37790e-02	2.05187e-02	4.56761e-03	2.07884e-08	6.31791e-03	X	X	X	X	X	X	X	X	X	X	X	X	X	X	X	X	



#DISTANCE SETTINGS
A = Detector Channel
A-1	A-2	A-3	A-4	A-5	A-6	A-7	A-8	A-9	A-10	A-11	A-12	A-13	A-14	A-15	A-16	

2.5000e+00	3.0000e+00	2.5000e+00	3.0000e+00	2.0000e+00	3.0000e+00	1.5000e+00	3.0000e+00	3.0000e+00	3.0000e+00	3.0000e+00	3.0000e+00	3.0000e+00	3.0000e+00	1.5000e+00	3.0000e+00	

B = Detector Channel
B-1	B-2	B-3	B-4	B-5	B-6	B-7	B-8	B-9	B-10	B-11	B-12	B-13	B-14	B-15	B-16	

1.0000e+01	1.0000e+01	1.0000e+01	1.4400e+00	1.0000e+01	1.0000e+01	1.5100e+00	1.9400e+00	1.0000e+01	1.0000e+01	1.9900e+00	2.4900e+00	2.4100e+00	2.9000e+00	1.0000e+01	2.9800e+00	




#DATA BEGINS
time	group	step	mark	flag	A-AC1	A-AC2	A-AC3	A-AC4	A-AC5	A-AC6	A-AC7	A-AC8	A-AC9	A-AC10	A-AC11	A-AC12	A-AC13	A-AC14	A-AC15	A-AC16	A-DC1	A-DC2	A-DC3	A-DC4	A-DC5	A-DC6	A-DC7	A-DC8	A-DC9	A-DC10	A-DC11	A-DC12	A-DC13	A-DC14	A-DC15	A-DC16	A-Ph1	A-Ph2	A-Ph3	A-Ph4	A-Ph5	A-Ph6	A-Ph7	A-Ph8	A-Ph9	A-Ph10	A-Ph11	A-Ph12	A-Ph13	A-Ph14	A-Ph15	A-Ph16	B-AC1	B-AC2	B-AC3	B-AC4	B-AC5	B-AC6	B-AC7	B-AC8	B-AC9	B-AC10	B-AC11	B-AC12	B-AC13	B-AC14	B-AC15	B-AC16	B-DC1	B-DC2	B-DC3	B-DC4	B-DC5	B-DC6	B-DC7	B-DC8	B-DC9	B-DC10	B-DC11	B-DC12	B-DC13	B-DC14	B-DC15	B-DC16	B-Ph1	B-Ph2	B-Ph3	B-Ph4	B-Ph5	B-Ph6	B-Ph7	B-Ph8	B-Ph9	B-Ph10	B-Ph11	B-Ph12	B-Ph13	B-Ph14	B-Ph15	B-Ph16	aux-1	digaux	

8044.686	1	1	0	768	0.2063	0.02944	0.10138	0.17994	0.1462	0.27464	0.20512	0.094982	0.15994	0.32855	0.28374	0.092869	0.029856	0.36713	0.25751	0.2366	-1.7646	-2.8417	-2.0104	-2.8292	-2.6375	-1.8479	-2.9333	-2.5042	-2.2188	-2.9292	-2.2083	-2.7021	-2.7188	-2.1875	-2.6833	-2.5042	182.883	267.633	201.707	475.426	181.910	146.484	149.365	413.429	323.690	441.080	432.141	208.924	421.944	462.307	411.782	471.225	0.00066351	0.00070087	0.00023603	1352	4.9122e-06	5.7918e-06	1354.3	360.12	3.0087e-06	8.1196e-06	416.33	141.42	121.74	42.102	3.9415e-06	52.521	0.00060902	0.0005986	0.0001688	1364.6	6.5654e-06	6.5506e-06	1366.1	365.33	6.6189e-06	6.6066e-06	422.35	143.92	123.96	43.105	6.5809e-06	53.914	173.684	245.648	181.209	152.735	243.618	292.677	152.664	157.494	294.922	255.421	156.920	161.122	161.134	166.514	305.410	165.370	-8191	255	
8044.782	1	1	0	0	0.1487	0.30563	0.02003	0.06926	0.25606	0.35716	0.14989	0.20514	0.10527	0.11215	0.12962	0.18607	0.1151	0.2103	0.17203	0.31228	-1.8521	-2.5896	-2.1188	-2.5042	-2.8333	-1.9708	-2.8458	-2.6042	-2.0458	-2.9583	-2.2729	-2.4104	-2.7979	-2.0938	-2.6021	-2.6063	330.668	262.139	175.239	430.217	236.049	197.601	415.085	475.440	305.575	442.442	282.689	237.599	177.382	445.500	250.378	464.044	0.00073152	0.00049675	8.563e-05	1344	4.5351e-06	2.5832e-06	1354.2	361.25	5.9838e-06	5.2339e-06	416.71	141.61	121.6	42.342	6.0673e-06	52.588	0.00060846	0.00060298	0.00016947	1360.5	6.5952e-06	6.5288e-06	1366.9	365.93	6.5273e-06	6.5231e-06	422.67	143.57	123.91	43.216	6.5222e-06	53.893	171.068	227.734	450.832	153.071	294.068	232.045	152.756	157.579	272.475	281.658	157.059	160.919	161.073	166.635	313.164	165.443	-8191	255	
8044.878	1	1	0	0	0.24768	0.25155	0.14463	0.16271	0.13171	0.11833	0.24299	0.305	0.16422	0.094983	0.28626	0.23265	0.038278	0.19779	0.14986	0.17465	-1.5271	-2.8229	-2.2208	-2.2833	-2.65	-2.0271	-2.6063	-2.6562	-1.9708	-2.9437	-2.425	-2.2208	-2.9688	-2.0292	-2.6333	-2.7458	229.711	338.021	390.392	169.303	190.331	154.514	447.486	145.562	487.719	453.538	434.876	358.503	284.435	468.634	390.850	331.614	0.00068581	0.000434	0.0001724	1348.3	3.6138e-06	4.1016e-06	1348.1	362.68	2.3901e-06	8.8172e-07	414.66	140.92	121.51	42.322	4.9601e-06	52.605	0.00060182	0.00059508	0.00016518	1364.7	6.4941e-06	6.4868e-06	1363.3	365.91	6.3968e-06	6.4147e-06	422.11	143.59	123.83	43.139	6.4878e-06	53.829	165.318	240.575	219.098	152.911	287.085	469.389	152.741	157.528	289.858	475.266	157.235	161.383	161.311	166.497	264.950	165.455	-8191	255	
8044.974	1	1	0	0	0.44735	0.30598	0.044921	0.17974	0.095005	0.098462	0.38663	0.19748	0.24593	0.08647	0.2388	0.15426	0.043374	0.085606	0.26706	0.22534	-1.6125	-2.7854	-2.425	-2.1896	-2.7458	-1.9917	-2.7167	-2.9896	-2.1125	-2.7646	-2.5312	-2.2083	-2.9813	-2.2771	-2.3	-2.9729	320.580	313.217	152.501	448.215	184.167	174.808	488.472	489.562	357.871	449.900	493.607	478.173	195.568	224.209	362.967	403.140	0.00063473	0.00017771	3.0986e-05	1343.9	5.648e-06	6.7081e-06	1349.9	359.52	3.616e-06	3.1538e-06	417.53	140.85	121.56	42.163	4.3807e-06	52.568	0.00059512	0.00058945	0.000166	1360.5	6.4962e-06	6.5071e-06	1364.6	365.74	6.4493e-06	6.5262e-06	422.45	143.3	123.73	43.054	6.4942e-06	53.831	171.348	234.057	280.863	153.111	294.000	225.783	152.683	157.507	245.237	301.077	157.143	161.209	161.255	166.666	304.073	165.617	-8191	255	
8045.070	1	1	0	0	0.14381	0.27734	0.10531	0.12821	0.19835	0.068417	0.16514	0.25616	0.2411	0.43592	0.36595	0.035064	0.26857	0.20721	0.26626	0.053875	-1.8521	-2.6813	-2.5354	-2.3083	-2.6604	-2.1708	-2.5292	-2.9271	-2.0729	-2.5958	-2.675	-2.2292	-2.8479	-2.3688	-2.2354	-2.9604	386.162	343.365	489.227	276.615	186.895	187.219	445.039	423.394	409.955	353.814	359.639	493.470	175.138	481.795	230.395	236.371	0.00072436	0.00057103	9.8305e-05	1351.2	7.6254e-06	5.837e-06	1346.6	361.79	8.9336e-06	7.5874e-06	415.45	140.96	121.96	42.218	6.2661e-06	52.641	0.00060123	0.00059144	0.00016621	1363.4	6.4693e-06	6.5141e-06	1364.8	366	6.5032e-06	6.4763e-06	421.97	143.23	124	43.11	6.4711e-06	53.893	167.893	275.042	290.392	152.922	225.893	229.322	152.693	157.631	267.627	280.424	157.246	161.159	161.766	166.718	280.822	165.703	-8191	255	
8045.166	1	1	0	0	0.096001	0.098231	0.10679	0.039356	0.17888	0.27202	0.16879	0.17242	0.070145	0.2295	0.14705	0.10086	0.31283	0.2617	0.068702	0.23182	-1.8417	-2.4375	-2.4562	-2.2375	-2.9042	-2.45	-2.4688	-2.9708	-2	-2.6583	-2.6229	-2.0062	-2.8563	-2.3896	-2.0687	-3.0833	492.320	440.946	389.050	180.458	423.386	212.112	188.284	468.461	368.562	331.619	325.418	449.409	456.340	157.926	173.077	394.992	0.00068764	0.00034929	0.00024967	1349.9	5.1768e-06	6.7401e-06	1350.4	361.7	3.2281e-06	6.2387e-06	416.11	141.81	121.32	41.986	3.9105e-06	52.76	0.00059345	0.00057843	0.00016388	1361.3	6.397e-06	6.3407e-06	1363.8	365.86	6.2952e-06	6.3311e-06	421.75	143.22	123.59	43.027	6.3183e-06	53.877	167.376	301.224	213.136	152.960	240.303	362.448	152.403	157.378	303.199	298.201	156.954	161.092	161.422	166.419	292.670	165.458	-8191	255	
8045.285	1	1	0	0	0.17141	0.13482	0.18643	0.13217	0.20278	0.27016	0.18307	0.34505	0.11676	0.033807	0.18886	0.23543	0.24099	0.090304	0.11747	0.28507	-1.425	-2.4229	-2.7687	-2.1271	-2.6271	-2.3667	-2.2562	-2.9917	-1.8417	-2.3312	-2.6917	-2.0333	-2.6063	-2.5667	-2.0917	-2.8667	393.314	474.818	179.001	356.046	339.682	332.563	421.699	483.196	228.181	276.671	145.098	467.348	494.553	393.847	410.095	487.525	0.00069792	0.00015494	4.4786e-05	1347.1	3.1677e-06	4.0021e-06	1352.8	362.18	2.5885e-06	2.4864e-06	416.33	141.11	121.84	42.178	7.7926e-06	52.657	0.00058657	0.00057198	0.00016125	1359.7	6.3201e-06	6.2861e-06	1364.3	365.62	6.2062e-06	6.3094e-06	421.76	143.38	123.43	43.073	6.3175e-06	53.813	166.897	147.350	491.010	153.005	330.329	260.228	152.806	157.405	287.891	212.652	157.189	160.975	161.470	166.453	315.403	165.460	-8191	255	
8045.381	1	1	0	0	0.033223	0.1445	0.21495	0.15438	0.15995	0.11425	0.087348	0.098367	0.23069	0.33304	0.19895	0.073624	0.19488	0.17389	0.10172	0.30108	-1.8896	-2.2729	-2.8167	-2.1833	-2.6396	-2.6375	-2.225	-2.9104	-2.2771	-2.1188	-2.9229	-2.1604	-2.7271	-2.7271	-1.9813	-3.0312	477.617	182.458	309.094	209.527	499.007	326.311	484.445	179.490	487.448	179.960	398.803	144.020	332.507	460.934	441.872	492.531	0.00064656	0.00034095	0.00010347	1349.7	4.0707e-06	4.7143e-06	1350.8	360.46	3.5181e-07	6.868e-06	415.85	141.4	121.22	42.039	6.5414e-06	52.808	0.00057802	0.00057115	0.00015962	1360.6	6.256e-06	6.2695e-06	1362.2	365.23	6.2847e-06	6.299e-06	422.1	143.22	123.5	43.041	6.2907e-06	53.901	173.824	210.645	267.795	153.174	272.906	267.260	152.734	157.683	245.095	313.539	157.230	160.927	161.251	166.917	255.098	165.586	-8191	255	
8045.478	1	1	0	0	0.18844	0.15153	0.15483	0.099708	0.19418	0.22702	0.16253	0.25332	0.24434	0.3076	0.1094	0.060903	0.24976	0.18297	0.31442	0.25927	-1.8813	-2.1792	-2.6583	-2.0354	-2.4833	-2.7354	-2.1625	-2.8104	-2.4625	-2.25	-2.9833	-2.2854	-2.475	-2.8542	-2.0292	-2.9208	401.506	294.210	285.690	251.326	461.720	475.010	453.020	472.421	311.242	376.950	188.069	212.925	201.825	496.437	315.025	237.329	0.00071875	0.00071249	0.00024281	1337.3	4.8072e-06	1.2952e-05	1345.9	359.91	4.0036e-06	5.0099e-06	415.43	140.67	122.25	42.176	4.6826e-06	52.642	0.00057188	0.00057203	0.00015696	1356.2	6.1792e-06	6.163e-06	1359.2	364.67	6.0915e-06	6.0954e-06	420.57	142.78	123.66	42.987	6.0043e-06	53.65	162.189	153.824	258.814	152.943	277.539	226.607	152.925	157.637	294.082	266.345	157.061	160.931	161.663	166.509	226.074	165.714	-8191	255	
8045.574	1	1	0	0	0.18155	0.17069	0.20572	0.16405	0.15106	0.12753	0.46053	0.028477	0.052396	0.07417	0.081407	0.080026	0.027477	0.11519	0.21035	0.17697	-2.0667	-1.7812	-2.8958	-2.2021	-2.2979	-2.7021	-2.3354	-2.9125	-2.4125	-2.2333	-2.8875	-2.2646	-2.3667	-2.8812	-2.05	-2.6958	213.367	333.117	400.819	403.404	466.926	234.621	463.566	351.778	376.213	489.007	190.656	480.852	384.732	464.852	415.457	451.007	0.00068548	0.00036027	9.3681e-05	1336.2	5.9147e-06	6.5719e-06	1345.5	360.75	5.8977e-06	4.4514e-06	414.52	140.84	121.34	42.15	4.7942e-06	52.685	0.00055032	0.00054623	0.00015062	1350.1	5.9097e-06	5.8817e-06	1354.8	364.06	5.7667e-06	5.7632e-06	419.53	142.59	122.78	42.835	5.7283e-06	53.59	164.894	314.198	293.363	153.012	299.739	225.792	152.688	157.688	263.600	261.563	156.954	161.001	161.579	166.597	290.409	165.523	-8191	255	
8045.670	1	1	0	0	0.061952	0.26194	0.29446	0.17469	0.026867	0.2643	0.24641	0.26606	0.046743	0.10233	0.44235	0.31301	0.076373	0.11101	0.14088	0.056148	-2.175	-1.9625	-2.8375	-2.15	-2.1854	-2.8583	-2.2708	-2.7104	-2.5354	-2.1104	-2.8875	-2.5958	-2.0896	-2.9333	-2.2083	-2.7521	284.439	412.572	298.154	446.553	175.739	194.036	497.933	471.322	225.797	268.094	442.077	483.657	164.692	473.895	178.178	468.327	0.00063794	0.00067252	5.4782e-05	1336.3	3.2158e-06	8.2054e-06	1340.9	359.17	6.7546e-06	5.8739e-06	414.06	140.78	121.27	41.928	2.8792e-06	52.672	0.00053498	0.00052066	0.00014613	1347.7	5.6817e-06	5.6452e-06	1351.8	363.18	5.6524e-06	5.6693e-06	419.06	142.5	122.42	42.822	5.7026e-06	53.511	164.274	190.431	281.936	153.022	285.296	275.933	152.663	157.623	229.561	292.882	157.090	161.085	161.492	166.651	239.560	165.715	-8191	255	
8045.766	1	1	0	0	0.082569	0.16391	0.076835	0.13622	0.21822	0.14462	0.1281	0.050937	0.16403	0.19879	0.32691	0.16822	0.11294	0.30588	0.19316	0.25954	-2.2458	-1.9125	-2.8292	-2.3646	-2.0417	-2.9417	-2.3417	-2.4875	-2.8063	-2.0042	-2.9208	-2.6042	-2.0354	-2.8688	-2.125	-2.3333	223.834	438.383	166.575	482.451	163.884	275.711	393.253	142.832	357.921	491.616	497.911	433.544	163.151	448.596	366.365	437.958	0.00077164	0.00043194	0.00022349	1339.9	1.2389e-06	4.5219e-06	1342	359.62	5.0207e-06	1.8321e-06	412.73	140.33	121.81	42.195	2.6892e-06	52.427	0.0005258	0.00052307	0.00014464	1347.2	5.6423e-06	5.6272e-06	1351.7	363.09	5.6575e-06	5.6337e-06	418.94	142.21	122.7	42.842	5.6678e-06	53.555	165.925	172.101	225.018	153.100	364.640	279.299	152.662	157.699	248.921	425.089	157.334	160.765	161.776	166.666	232.095	165.516	-8191	255	
8045.887	1	1	0	0	0.064037	0.13558	0.036325	0.23973	0.26376	0.099533	0.29385	0.18945	0.15356	0.1112	0.24375	0.35649	0.21622	0.31882	0.02879	0.21169	-2.2562	-2.1667	-2.7104	-2.6229	-2.0917	-2.9104	-2.2833	-2.3667	-2.8542	-1.9375	-2.7521	-2.725	-2.0042	-2.85	-2.3708	-2.2854	477.593	278.390	146.051	443.671	350.881	480.300	488.899	449.477	235.042	325.026	470.626	426.431	352.199	165.488	401.967	426.728	0.00073812	0.00043805	0.00016817	1336.5	5.3247e-06	6.53e-06	1344.6	360.13	3.9682e-06	3.7593e-06	414.88	140.7	121.26	41.975	4.0393e-06	52.429	0.00052857	0.00051877	0.00014466	1344.7	5.7369e-06	5.6525e-06	1354.4	363.15	5.6816e-06	5.7062e-06	419.54	142.32	122.8	42.869	5.7549e-06	53.529	172.227	261.339	207.715	152.778	256.674	333.319	152.721	157.774	223.612	336.519	157.486	160.928	161.584	166.863	267.305	166.044	-8191	255	
8045.983	1	1	0	0	0.121	0.26459	0.24527	0.23057	0.18122	0.14302	0.15004	0.29887	0.20591	0.24061	0.20078	0.14783	0.14005	0.26777	0.20957	0.18554	-2.4229	-1.9229	-2.6208	-2.7458	-2.0062	-2.6917	-2.5354	-2.2396	-2.8604	-2.0312	-2.5417	-2.9104	-2.1125	-2.8333	-2.3167	-2.2687	197.669	439.204	246.170	414.814	310.476	224.700	322.307	461.018	428.011	463.914	360.780	493.416	194.142	145.078	483.798	178.869	0.00077595	0.00037088	5.9921e-05	1338	5.5289e-06	5.9017e-06	1340.5	359.41	4.2361e-06	2.6906e-06	415.37	140.42	121.52	41.857	3.5005e-06	52.57	0.00053733	0.00052553	0.00014696	1346.4	5.725e-06	5.7109e-06	1350	363.27	5.6563e-06	5.6491e-06	419.33	142.05	122.59	42.724	5.5941e-06	53.541	166.622	244.565	263.083	152.849	212.039	181.982	152.581	157.646	281.420	288.697	157.358	160.992	161.332	166.724	290.576	165.801	-8191	255	
8046.079	1	1	0	0	0.17573	0.2166	0.1076	0.12694	0.11741	0.20187	0.16345	0.32056	0.097566	0.17112	0.20529	0.26855	0.084547	0.21162	0.058044	0.15601	-2.5958	-2.0396	-2.3229	-2.8458	-1.9438	-2.5563	-2.7583	-2.1688	-2.8042	-2.075	-2.4188	-2.8021	-1.9604	-2.7292	-2.4104	-1.9937	309.260	162.544	153.571	487.205	199.012	477.965	484.867	441.139	380.027	430.346	394.081	165.376	357.525	485.553	250.531	169.512	0.00063682	0.00045086	8.8179e-05	1343.7	4.9049e-06	2.852e-06	1340	359.37	4.3393e-06	6.8951e-07	415.72	140.07	121.38	42.038	4.3153e-06	52.077	0.00052222	0.00051454	0.000143	1346.2	5.6117e-06	5.5708e-06	1350.2	362.83	5.5877e-06	5.6111e-06	419.15	141.98	122.35	42.749	5.6144e-06	53.388	164.239	266.577	245.805	152.829	257.570	149.173	152.600	157.784	264.341	279.526	157.317	161.049	161.445	166.749	287.537	165.732	-8191	255	
8046.173	1	1	0	0	0.23052	0.036967	0.13548	0.13639	0.10322	0.28461	0.26856	0.055446	0.084044	0.27769	0.14097	0.12587	0.16011	0.24442	0.023026	0.19036	-2.3187	-2.0812	-2.0479	-2.8729	-1.9958	-2.5854	-2.7958	-2.1937	-2.7562	-2.1063	-2.2396	-2.8875	-2.075	-2.7042	-2.4604	-2.2188	206.382	406.884	270.091	162.437	392.824	168.534	445.878	282.178	216.179	216.803	208.034	489.002	436.073	162.022	452.267	378.317	0.00065914	0.00064674	0.00020155	1332.3	2.3384e-06	6.2787e-06	1332.8	358.48	7.0136e-06	5.3864e-06	411.54	140.56	121.19	42.13	4.1165e-06	52.206	0.00051864	0.00051212	0.00014281	1342.1	5.5896e-06	5.6759e-06	1346.5	362.45	5.506e-06	5.5498e-06	418.87	142.16	122.26	42.727	5.5812e-06	53.367	174.490	286.803	221.832	153.031	192.605	279.363	152.771	157.521	305.203	322.933	157.186	161.074	161.505	166.620	267.045	165.748	-8191	255	
8046.247	1	1	0	0	0.19114	0.40105	0.25969	0.10597	0.17993	0.069762	0.26729	0.238	0.13737	0.10269	0.068265	0.048174	0.19997	0.17451	0.070587	0.24413	-2.3292	-2.2792	-2.1312	-2.8937	-2.0917	-2.425	-2.8896	-2.0854	-2.8187	-2.3708	-2.1292	-2.8354	-2.0958	-2.5563	-2.6521	-2.1833	175.354	348.977	252.350	471.693	394.248	171.739	472.952	450.052	176.821	334.936	428.253	260.230	465.623	157.063	196.705	361.025	0.00071802	0.00049441	9.4824e-05	1330.6	3.9349e-06	5.8737e-06	1334.2	358.96	4.3241e-06	1.5367e-06	414.79	140.41	121.47	41.9	3.6521e-06	52.169	0.00051247	0.00050546	0.00013994	1342.2	5.4492e-06	5.5093e-06	1345.6	362.62	5.4217e-06	5.4066e-06	418.38	142.14	122.06	42.69	5.3899e-06	53.346	163.065	231.983	311.464	153.408	316.879	235.629	152.604	157.488	264.798	154.508	157.389	161.101	161.434	166.807	240.328	165.802	-8191	255	
8046.366	1	1	0	0	0.21163	0.16971	0.09159	0.30914	0.15425	0.3034	0.34713	0.1944	0.097735	0.14239	0.28989	0.12216	0.11839	0.16279	0.048421	0.12526	-2.1688	-2.6063	-1.9333	-2.7979	-2.0208	-2.3146	-2.9292	-2.2521	-2.6937	-2.5438	-2.1875	-2.9	-2.2583	-2.425	-2.7375	-1.9604	374.668	301.279	325.513	444.639	387.352	211.543	450.155	487.849	405.201	355.580	149.574	394.165	351.586	331.594	295.336	428.881	0.00063864	0.00051071	6.9379e-05	1340.3	2.3647e-06	8.3756e-06	1337.2	358.63	6.6222e-06	4.3634e-06	414.09	139.82	120.9	41.96	3.256e-06	52.378	0.00049468	0.00048559	0.00013719	1343.7	5.2922e-06	5.2328e-06	1346.6	361.95	5.154e-06	5.1399e-06	416.69	141.66	121.84	42.54	5.1271e-06	53.207	166.942	213.705	262.477	153.162	284.605	252.235	152.783	157.651	284.702	283.315	157.146	161.296	161.683	166.755	294.230	165.582	-8191	255	
8046.462	1	1	0	0	0.092108	0.058538	0.20364	0.24444	0.094741	0.27519	0.066287	0.33522	0.17573	0.2296	0.36472	0.15417	0.16127	0.23805	0.14221	0.10015	-2.1188	-2.4958	-1.9167	-2.9083	-2.1375	-2.2333	-3.0917	-2.1854	-2.3417	-2.7979	-1.9979	-2.8042	-2.5792	-2.2896	-2.7812	-2.2125	482.517	202.382	170.648	147.206	365.338	409.756	463.730	473.625	430.272	367.207	431.021	431.415	277.070	215.369	270.938	454.497	0.00073714	0.00059548	0.00017263	1324.8	2.8513e-06	2.9403e-06	1335.1	358.19	6.0106e-06	8.3535e-06	413.45	139.51	120.74	41.788	6.4107e-06	52.396	0.00047301	0.00046784	0.00013178	1332.6	5.155e-06	5.1302e-06	1342.3	361.23	5.1333e-06	5.1492e-06	416.15	141.26	121.51	42.551	5.2322e-06	53.283	168.417	235.551	229.991	153.157	222.809	210.190	152.810	157.576	260.793	291.678	157.357	161.051	161.799	166.836	257.841	165.590	-8191	255	
8046.558	1	1	0	0	0.23007	0.23956	0.15651	0.079959	0.038063	0.1642	0.15062	0.28798	0.478	0.1116	0.34892	0.020423	0.19129	0.078839	0.095583	0.15242	-2.05	-2.725	-2	-2.8583	-2.3417	-1.9333	-2.925	-2.2896	-2.4167	-2.7333	-1.9354	-2.7854	-2.5229	-2.0458	-2.7792	-2.3396	347.948	378.221	403.515	458.390	379.184	334.771	408.552	451.586	208.646	292.840	464.076	188.751	322.320	429.323	279.024	473.118	0.00074366	0.00053001	0.00015412	1328.5	2.7297e-06	5.2573e-06	1335.7	358.11	5.7563e-06	3.455e-06	412.58	140.4	120.69	41.765	3.5745e-06	52.399	0.00049024	0.0004734	0.00013405	1334.7	5.223e-06	5.3039e-06	1344.3	361.25	5.3145e-06	5.2982e-06	415.84	141.65	121.72	42.592	5.2888e-06	53.313	172.946	258.107	204.841	153.055	254.617	299.486	152.643	157.590	278.742	285.119	157.221	161.405	161.579	166.938	224.258	166.086	-8191	255	
8046.654	1	1	0	0	0.17954	0.024125	0.14427	0.1477	0.2362	0.10026	0.10536	0.16123	0.14055	0.17007	0.20244	0.13895	0.057426	0.18563	0.063004	0.14623	-2.0083	-2.8104	-2.0708	-2.7313	-2.4854	-1.95	-2.9667	-2.3937	-2.1562	-2.9083	-2.1146	-2.6	-2.6312	-1.9062	-2.5625	-2.3854	296.291	327.016	168.451	358.135	149.920	331.331	345.790	471.748	276.569	438.189	151.854	443.808	439.133	476.616	172.208	307.506	0.00069487	0.00046464	0.0002404	1332.6	3.4096e-06	1.7602e-06	1335.9	359.14	3.1323e-06	8.3597e-06	412.62	140.12	120.68	42.099	2.0712e-06	52.182	0.00049538	0.0004857	0.00013388	1338.4	5.1963e-06	5.2024e-06	1344.4	361.89	5.2708e-06	5.1977e-06	416.54	141.55	121.45	42.629	5.2145e-06	53.145	167.013	257.105	201.563	153.091	193.595	227.042	153.021	157.697	288.728	280.610	157.588	161.371	161.749	166.901	252.295	165.689	-8191	255	
8046.775	1	1	0	0	0.19341	0.16843	0.080907	0.10232	0.119	0.429	0.19757	0.26389	0.10078	0.070045	0.28596	0.12637	0.10296	0.11536	0.15744	0.15421	-1.7729	-2.8875	-2.0812	-2.5146	-2.6896	-1.7729	-2.7792	-2.4958	-2.1	-2.7396	-2.0875	-2.3833	-2.6479	-2.0208	-2.5875	-2.5458	430.507	150.339	191.532	152.996	411.030	447.433	142.750	476.905	140.443	437.112	419.644	479.079	214.523	178.456	365.536	223.021	0.00076615	0.00052307	0.0001873	1335.8	3.6098e-06	6.3701e-06	1334.2	358.07	2.5562e-06	7.1379e-06	411.35	139.65	120.68	41.86	4.4739e-06	52.154	0.00048627	0.00047208	0.00013293	1338	5.2159e-06	5.1885e-06	1342.9	361.37	5.2805e-06	5.1731e-06	415.13	141.29	121.69	42.533	5.1497e-06	53.021	167.523	193.893	234.804	153.251	283.502	274.887	152.959	157.986	320.617	269.897	157.468	161.269	161.769	166.798	312.109	166.039	-8191	255	
8046.846	1	1	0	0	0.28664	0.24176	0.34912	0.24428	0.097827	0.18473	0.16689	0.28083	0.1457	0.2277	0.063349	0.29371	0.069327	0.13131	0.046814	0.2571	-1.5875	-2.7812	-2.1396	-2.2667	-2.6917	-2.1792	-2.8312	-2.7729	-1.8292	-2.8042	-2.4083	-2.3646	-2.8729	-2.1604	-2.5708	-2.5583	191.080	233.814	386.352	140.609	404.677	252.942	478.325	424.020	262.400	477.459	407.261	405.888	404.380	428.949	333.433	449.488	0.0007241	0.00041109	0.00015591	1329.8	6.07e-06	5.5362e-06	1338.2	357.88	3.516e-06	5.9958e-06	413	139.5	121.14	41.93	5.4148e-06	52.194	0.00048907	0.00047255	0.00013271	1333.9	5.1961e-06	5.153e-06	1343.6	361.31	5.1352e-06	5.2065e-06	416.42	141.39	121.63	42.516	5.1238e-06	53.141	169.971	209.739	219.445	153.447	304.827	304.199	152.767	157.808	255.619	312.706	157.436	161.316	161.649	166.757	215.813	165.569	-8191	255	
8046.967	1	1	0	0	0.26567	0.17252	0.27503	0.15891	0.092954	0.093604	0.18659	0.28587	0.080579	0.15353	0.32753	0.19306	0.28889	0.2003	0.046304	0.2427	-1.5854	-2.6083	-2.2354	-2.2083	-2.7167	-1.8958	-2.8583	-2.5667	-2.2083	-2.8146	-2.5458	-2.2313	-2.9479	-2.1896	-2.4458	-2.8187	240.375	397.228	301.944	418.681	416.070	370.586	434.296	452.672	258.348	214.407	423.492	436.922	454.246	420.073	204.746	494.583	0.00073732	0.0007799	0.00012001	1329.9	7.0148e-06	4.9014e-06	1333.6	357.83	2.2928e-06	6.0419e-06	411.94	139.98	120.34	41.759	5.5233e-06	52.358	0.00048212	0.00046452	0.0001302	1336.3	5.0897e-06	5.084e-06	1342.9	361.5	5.1259e-06	5.0724e-06	415.59	141.52	121.39	42.491	5.0721e-06	53.136	161.811	206.429	237.915	153.155	244.720	198.215	152.970	157.969	252.795	301.600	157.513	161.454	161.551	166.928	314.233	166.040	-8191	255	
8047.063	1	1	0	0	0.12245	0.081088	0.096689	0.1783	0.098269	0.20757	0.17159	0.20343	0.14996	0.24455	0.057531	0.1757	0.29356	0.086821	0.080319	0.089803	-1.6437	-2.7292	-2.4583	-2.2125	-2.8479	-2.2479	-2.8229	-2.825	-1.9292	-2.6667	-2.7167	-2.1104	-2.7979	-2.3771	-2.2271	-2.8521	375.342	168.568	413.951	415.066	335.528	484.462	426.121	494.329	373.708	261.163	476.651	454.850	454.269	409.568	226.507	391.457	0.00070834	0.00056068	8.5817e-06	1335.1	7.0208e-06	8.577e-06	1340.1	358.23	4.1518e-06	4.1846e-06	413.24	140.36	120.98	41.957	6.351e-06	52.193	0.00048079	0.00045642	0.00012948	1335.4	5.0665e-06	5.0211e-06	1342.5	361.41	5.1041e-06	5.0306e-06	416.36	141.59	121.47	42.595	5.103e-06	53.247	167.891	206.300	190.971	153.236	277.166	271.549	153.022	157.846	250.180	311.987	157.575	161.225	161.691	166.844	264.741	165.774	-8191	255	
8047.159	1	1	0	0	0.28836	0.12721	0.16834	0.10342	0.10585	0.152	0.12681	0.090171	0.14127	0.14248	0.083756	0.18524	0.15301	0.22989	0.132	0.20054	-1.4896	-2.5187	-2.5104	-2.0438	-2.7042	-2.3333	-2.4313	-2.8187	-1.9875	-2.5479	-2.7687	-2.0458	-2.7896	-2.3083	-2.1417	-2.9229	448.215	444.160	393.682	495.158	280.703	240.907	148.380	229.215	307.977	254.573	285.716	358.192	450.650	487.402	292.135	459.688	0.00064954	0.0008079	5.1924e-05	1326.2	4.5507e-06	1.2709e-06	1336.9	359.49	3.5812e-06	5.9666e-06	411.91	139.82	120.81	41.892	7.3212e-06	52.149	0.00047936	0.00046711	0.00013072	1331.3	5.1266e-06	5.1515e-06	1343.5	361.73	5.1634e-06	5.1678e-06	416.7	141.6	121.59	42.542	5.2444e-06	53.147	169.235	253.952	487.308	153.451	306.405	322.116	153.053	157.675	249.668	241.755	157.606	161.380	161.581	166.919	229.026	165.639	-8191	255	
8047.255	1	1	0	0	0.10055	0.11053	0.1537	0.078721	0.19866	0.38265	0.35553	0.04045	0.22002	0.029686	0.33289	0.047319	0.086024	0.35966	0.13838	0.2787	-1.625	-2.55	-2.5333	-2.2292	-2.8896	-2.1813	-2.0687	-2.8312	-2.0187	-2.2417	-2.8354	-2.0208	-2.6167	-2.4667	-2.2396	-2.7938	487.051	298.225	257.064	441.824	489.088	367.032	476.631	184.259	387.198	294.252	453.084	143.179	295.669	466.545	465.365	389.276	0.00074237	0.00095811	0.00020971	1326.6	3.6192e-06	5.0176e-06	1336.4	356.88	4.9738e-06	6.1944e-06	411.65	139.81	121.67	41.938	4.8068e-06	52.526	0.00048859	0.00047326	0.00013356	1334.2	5.1971e-06	5.1829e-06	1343.4	361.45	5.1905e-06	5.1969e-06	415.7	141.36	121.91	42.614	5.1833e-06	53.349	168.342	241.581	206.893	153.373	272.761	212.554	152.986	157.731	304.857	280.539	157.365	161.210	161.846	166.967	274.039	165.733	-8191	255	
8047.374	1	1	0	0	0.1818	0.09286	0.13905	0.15826	0.05685	0.061984	0.22175	0.22491	0.1378	0.16862	0.22121	0.24865	0.2318	0.12957	0.22428	0.1625	-1.6375	-2.5167	-2.6792	-2.0646	-2.5792	-2.5812	-2.2938	-3.0271	-2.1104	-2.1479	-2.8792	-2.1167	-2.7812	-2.6708	-2.1688	-2.8708	472.958	296.962	235.543	312.126	162.102	142.458	460.204	434.073	211.543	351.509	472.745	379.539	465.891	399.940	156.672	150.333	0.00072651	0.00078309	7.56e-05	1330.8	6.9488e-06	2.4359e-06	1340.8	358.52	3.1157e-06	4.2564e-06	410.46	139.97	120.53	41.758	6.4906e-06	52.232	0.00048364	0.00047164	0.00013325	1336.9	5.1952e-06	5.1345e-06	1344.5	361.91	5.3035e-06	5.2354e-06	415.81	141.58	121.76	42.557	5.3162e-06	53.168	165.215	199.951	485.015	153.181	244.095	242.051	152.903	157.805	248.939	240.185	157.319	161.470	161.991	167.141	245.483	165.750	-8191	255	
8047.470	1	1	0	0	0.10846	0.1091	0.21494	0.10944	0.21169	0.057341	0.45233	0.14044	0.28715	0.14352	0.072056	0.19643	0.17782	0.35439	0.12237	0.11888	-1.8104	-2.0125	-2.8083	-2.0729	-2.5563	-2.7083	-2.225	-2.8354	-2.1104	-2.3354	-2.875	-2.3417	-2.4396	-2.8104	-2.3063	-2.7729	149.019	287.603	339.317	491.202	190.158	330.816	478.707	419.302	213.982	228.830	390.247	498.092	311.781	148.854	436.572	330.990	0.00076656	0.00075595	0.00013672	1328.5	2.3221e-06	1.8856e-06	1331.9	358.68	3.7814e-06	7.3223e-06	413.05	140.07	120.59	41.96	4.7704e-06	52.441	0.0004948	0.00048145	0.00013412	1336.6	5.2612e-06	5.261e-06	1342.9	361.54	5.2085e-06	5.2655e-06	416.85	141.47	121.49	42.537	5.2391e-06	53.196	163.060	203.581	275.477	153.292	405.478	245.315	152.738	157.966	310.672	238.182	157.451	161.160	161.502	166.635	230.225	166.066	-8191	255	
8047.567	1	1	0	0	0.15745	0.17988	0.16268	0.23264	0.22647	0.20019	0.16221	0.21117	0.12551	0.12827	0.47723	0.34586	0.28261	0.21736	0.21207	0.09485	-1.9333	-2.0208	-2.7771	-2.0687	-2.3312	-2.9062	-1.9854	-2.9333	-2.55	-2.1396	-2.8396	-2.3	-2.4667	-2.8292	-1.8271	-2.7354	319.961	258.518	446.418	145.440	419.524	439.639	389.092	469.437	170.320	211.833	414.765	485.913	452.283	462.782	457.230	162.968	0.00074975	0.00044092	8.1691e-05	1331.4	3.6547e-06	4.7212e-06	1334	358.82	6.647e-06	2.1052e-06	414.25	140.33	121.51	41.893	4.4803e-06	52.522	0.00048444	0.00047503	0.0001315	1335	5.1636e-06	5.1372e-06	1342.2	361.76	5.0426e-06	5.1323e-06	416.42	141.67	121.76	42.504	5.0648e-06	53.298	167.984	239.097	227.869	153.284	203.302	247.153	152.960	157.981	281.961	249.392	157.518	161.377	161.779	166.766	282.614	165.984	-8191	255	
8047.663	1	1	0	0	0.20788	0.32622	0.24554	0.11614	0.065728	0.27075	0.38985	0.14717	0.087254	0.20116	0.2086	0.26491	0.27655	0.23678	0.24137	0.18613	-2.1125	-2.075	-2.8042	-2.3083	-2.1354	-2.6312	-2.2042	-2.6437	-2.4521	-1.9813	-2.8083	-2.2875	-2.0979	-2.9625	-2.0208	-2.5146	219.069	411.502	262.058	479.594	198.430	462.200	490.667	474.579	380.874	181.947	488.115	455.306	369.943	189.434	148.989	322.602	0.00074777	0.0003442	0.00010683	1330.3	1.364e-06	5.5607e-06	1338	359.25	6.6443e-06	4.3793e-06	413.37	140.36	120.76	41.772	3.5018e-06	52.576	0.00048334	0.00046283	0.00012973	1333.6	5.0848e-06	5.1434e-06	1341.8	361.85	5.0925e-06	5.1431e-06	416.47	141.57	121.63	42.548	5.1569e-06	53.283	164.900	263.755	191.309	153.193	300.632	297.242	152.843	157.959	290.502	283.559	157.475	161.171	161.733	166.927	271.580	166.146	-8191	255	
8047.759	1	1	0	0	0.12209	0.28845	0.20058	0.065663	0.24477	0.27939	0.1345	0.13629	0.19183	0.1863	0.069149	0.14351	0.18367	0.32201	0.27378	0.17309	-2.2333	-2.0229	-2.5854	-2.2229	-1.9542	-2.7042	-2.2958	-2.4833	-2.6667	-1.9917	-2.9417	-2.3688	-2.1458	-2.9875	-2.2	-2.4625	261.343	244.949	473.851	290.660	159.800	262.488	144.263	422.372	392.469	498.488	351.895	222.213	460.565	485.665	365.604	305.530	0.00061258	0.00050548	0.00016855	1329.3	1.7274e-06	3.2312e-06	1334	359.35	5.7626e-06	3.1733e-06	412.28	139.63	121.18	41.977	4.5363e-06	52.395	0.00048836	0.000477	0.00013366	1334.7	5.2582e-06	5.2562e-06	1342.5	362.31	5.2924e-06	5.32e-06	416.6	141.6	121.88	42.58	5.3172e-06	53.218	172.319	213.685	224.017	153.166	375.561	299.726	153.021	157.768	286.133	318.357	157.603	161.377	161.660	166.870	304.365	166.341	-8191	255	
8047.855	1	1	0	0	0.27813	0.16921	0.28444	0.2295	0.2027	0.26378	0.28794	0.12	0.17046	0.18763	0.046844	0.33153	0.095224	0.16587	0.31796	0.14108	-2.1312	-2.0833	-2.7	-2.4938	-2.1	-2.7771	-2.2479	-2.4854	-2.6354	-2.0812	-2.8	-2.55	-1.975	-2.7917	-2.0354	-2.3792	358.389	310.063	328.908	470.734	210.170	345.802	428.295	434.813	325.898	414.521	390.288	464.835	461.436	225.229	448.787	287.017	0.00072345	0.00024896	0.00014434	1335.7	2.146e-06	5.4281e-06	1335.6	359.73	2.1501e-06	4.024e-06	412.81	140.28	120.24	41.862	3.5078e-06	52.466	0.00049545	0.00048577	0.00013461	1337.2	5.2546e-06	5.2622e-06	1342.7	362.15	5.1999e-06	5.2504e-06	415.71	141.62	121.56	42.561	5.2019e-06	53.185	165.547	377.445	273.431	153.042	250.845	302.375	153.066	158.103	233.190	248.001	157.418	161.108	161.918	166.844	294.608	166.189	-8191	255	
8047.976	1	1	0	0	0.15835	0.24343	0.16639	0.25971	0.37411	0.1299	0.30376	0.18241	0.080199	0.18834	0.23084	0.17624	0.29328	0.10374	0.17838	0.1236	-2.3312	-1.9	-2.5146	-2.6646	-2.0792	-2.9354	-2.3292	-2.2708	-2.8937	-2.0583	-2.7604	-2.7333	-2.0208	-2.9	-2.25	-2.1458	458.539	476.588	327.420	470.583	371.205	469.736	445.726	356.720	488.663	274.006	433.237	417.868	478.686	355.613	499.349	362.937	0.00070625	0.00059846	5.0018e-05	1333.5	5.1951e-06	5.0858e-06	1335.5	359.04	4.8097e-06	6.7731e-06	411.54	140.84	121.49	42.079	2.6957e-06	52.19	0.00048955	0.0004752	0.00013442	1335.6	5.3316e-06	5.2676e-06	1344.6	362.47	5.324e-06	5.2887e-06	415.85	141.78	121.99	42.68	5.3048e-06	53.251	166.744	287.682	243.747	153.194	296.155	309.463	153.085	157.888	267.516	277.624	157.696	161.174	162.159	166.952	230.396	166.020	-8191	255	
8048.070	1	1	0	0	0.18309	0.04378	0.023678	0.11059	0.1958	0.21766	0.11677	0.38589	0.20063	0.25895	0.17536	0.21611	0.20613	0.27909	0.060545	0.1424	-2.4583	-1.925	-2.3896	-2.6312	-1.9229	-2.8333	-2.6375	-2.2042	-2.7229	-2.2542	-2.5208	-2.8375	-1.95	-2.6875	-2.4417	-2.2125	261.170	298.954	309.186	482.150	176.736	481.236	317.976	461.799	177.259	426.444	442.754	494.891	445.878	476.214	274.653	453.745	0.00070023	0.00048721	0.00018676	1333.6	6.2551e-06	1.9924e-06	1335.2	358.93	6.517e-06	8.716e-06	414.08	140.01	120.41	41.955	5.0929e-06	52.247	0.00050028	0.00048383	0.00013443	1337.6	5.3358e-06	5.2441e-06	1342.4	362.12	5.3241e-06	5.3805e-06	416.64	141.42	121.46	42.607	5.3506e-06	53.206	166.891	192.133	177.098	153.352	239.647	235.055	152.972	157.888	286.717	315.308	157.421	161.611	161.966	167.112	280.885	166.034	-8191	255	
8048.144	1	1	0	0	0.26129	0.19912	0.24155	0.031955	0.096968	0.2353	0.15828	0.28156	0.11549	0.068972	0.19568	0.15534	0.116	0.07964	0.44978	0.22732	-2.3271	-2.0896	-2.1208	-2.8458	-2.0167	-2.5042	-2.5354	-2.0604	-2.6333	-2.1771	-2.5083	-2.825	-2.1375	-2.725	-2.4125	-1.9979	302.803	198.048	202.261	461.891	455.332	184.023	451.255	458.481	209.222	188.074	464.188	434.590	430.794	448.571	336.359	463.467	0.00075658	0.00057468	0.00016444	1318.7	1.6922e-06	7.0918e-06	1336.2	358.28	4.1733e-06	3.4425e-06	412.72	140.36	120.63	41.697	4.7359e-06	52.341	0.00049343	0.00048508	0.00013619	1334.9	5.3329e-06	5.2727e-06	1342.1	361.65	5.2624e-06	5.3373e-06	416.72	141.55	121.54	42.504	5.4177e-06	53.183	168.516	226.663	193.810	153.450	248.014	323.575	153.254	157.990	346.032	336.263	157.636	161.194	161.794	166.775	217.252	165.977	-8191	255	
8048.240	1	1	0	0	0.033009	0.39637	0.12092	0.028708	0.092078	0.11931	0.44741	0.30152	0.1993	0.1918	0.30862	0.22122	0.14886	0.23613	0.16709	0.11966	-2.375	-2.2854	-2.0125	-2.8479	-2.2667	-2.5667	-2.8146	-2.2417	-2.5625	-2.2458	-2.3958	-2.8958	-2.0812	-2.4562	-2.6833	-2.1646	341.120	346.294	431.128	414.249	355.763	300.474	181.533	442.012	318.561	167.133	373.292	183.232	482.169	423.545	272.031	230.403	0.00071894	8.6265e-05	0.00015944	1328.4	1.9776e-06	6.9826e-06	1329.8	357.7	3.3297e-06	4.6044e-06	415.08	140.15	121.05	41.885	5.9776e-06	52.291	0.00049825	0.00048497	0.00013687	1336.5	5.3309e-06	5.3433e-06	1340.5	361.54	5.3284e-06	5.3232e-06	417.45	141.45	121.66	42.553	5.2993e-06	53.243	171.449	170.465	266.149	153.513	233.345	314.984	152.926	157.881	240.550	177.500	157.663	161.340	161.643	167.295	289.204	166.348	-8191	255	
8048.336	1	1	0	0	0.10636	0.31179	0.27571	0.42463	0.061373	0.31442	0.16758	0.1606	0.19429	0.092361	0.13159	0.13808	0.10432	0.046528	0.12324	0.055886	-2.3688	-2.3792	-1.9708	-2.6354	-2.2083	-2.3063	-2.7521	-2.225	-2.7708	-2.5938	-2.2292	-2.9813	-2.2812	-2.1979	-2.8063	-2.1188	370.286	442.074	413.741	470.996	449.187	270.357	452.450	464.408	232.594	402.699	143.154	195.683	259.397	401.682	405.166	253.180	0.00074316	0.00051089	0.00017804	1333.3	3.2339e-06	5.6944e-06	1336.8	358.75	6.2639e-06	5.1703e-06	412.49	140.03	120.33	41.831	3.8436e-06	52.472	0.00049574	0.00048377	0.00013607	1337.9	5.3218e-06	5.3716e-06	1344.2	361.79	5.3216e-06	5.3746e-06	416.66	141.56	121.75	42.598	5.3625e-06	53.253	165.132	245.921	305.364	153.012	314.609	287.977	153.127	157.969	283.401	262.552	157.850	161.447	161.890	167.120	275.472	166.158	-8191	255	
8048.455	1	1	0	0	0.18651	0.31569	0.083265	0.053148	0.14599	0.17601	0.091484	0.20215	0.14441	0.11621	0.33015	0.23576	0.02497	0.21219	0.071399	0.23774	-2.0396	-2.6063	-2.0083	-2.9313	-2.1917	-2.275	-2.9458	-2.0833	-2.5521	-2.6896	-2.0479	-2.8	-2.35	-2.2521	-2.7646	-2.1625	316.497	334.701	203.673	213.536	415.369	329.741	142.120	464.961	176.355	370.226	421.404	477.275	185.798	386.809	250.003	336.328	0.00065947	0.00050631	0.00023291	1331.2	4.0102e-06	5.6906e-06	1328.7	357.54	1.8096e-06	5.2049e-06	413.65	140.43	121.25	41.959	3.7389e-06	52.342	0.00049595	0.00048906	0.000137	1337.4	5.3359e-06	5.3724e-06	1342.2	361.63	5.3559e-06	5.3984e-06	416.71	141.84	121.83	42.574	5.419e-06	53.27	176.119	225.639	182.269	153.398	266.972	299.614	153.171	157.979	273.498	241.943	157.719	161.469	161.705	167.229	285.300	166.001	-8191	255	
8048.551	1	1	0	0	0.095774	0.050799	0.2722	0.16542	0.25587	0.10097	0.38091	0.14261	0.30119	0.10948	0.12801	0.22027	0.16937	0.14624	0.046799	0.29366	-2.3229	-2.6	-2.0062	-2.8021	-2.2313	-2.1771	-3.075	-2.2458	-2.4271	-2.6	-2.0979	-2.8104	-2.4562	-2.1104	-2.8125	-2.2354	178.678	351.666	339.922	475.804	147.419	216.533	429.128	211.695	474.924	223.607	453.351	436.263	367.523	464.787	282.348	446.376	0.00072604	0.00045979	0.00018726	1340.1	3.4418e-06	1.8609e-06	1334.3	358.04	2.7932e-06	5.4635e-06	412.87	140.56	120.96	41.918	2.1993e-06	52.327	0.00050405	0.00049397	0.00013752	1340.9	5.3397e-06	5.3534e-06	1343.6	361.75	5.4087e-06	5.3715e-06	417.01	141.85	121.99	42.574	5.2658e-06	53.183	164.359	259.197	178.276	153.980	342.217	293.520	153.521	158.437	266.412	331.321	158.045	162.011	161.940	167.446	303.338	166.604	-8191	255	
8048.647	1	1	0	0	0.13202	0.17746	0.12241	0.11416	0.10824	0.26119	0.22265	0.17555	0.036795	0.075089	0.0099915	0.16061	0.21596	0.15024	0.17816	0.33162	-1.9458	-2.6958	-2.1792	-2.9208	-2.5938	-2.125	-3.0896	-2.3917	-2.5333	-2.9021	-2.2104	-2.6729	-2.6	-2.1333	-2.6917	-2.5458	265.358	298.787	165.574	338.983	193.210	158.521	403.700	184.303	298.679	178.634	251.965	407.910	222.249	326.195	266.759	482.423	0.0006594	0.00084512	9.5702e-05	1333.4	4.8644e-06	4.0394e-06	1334.6	357.83	5.7997e-07	2.0276e-06	413.24	139.73	120.92	41.761	3.6493e-06	52.45	0.00049524	0.00048614	0.0001352	1338.5	5.3115e-06	5.266e-06	1344.4	361.74	5.42e-06	5.3732e-06	417.23	141.56	121.77	42.567	5.4046e-06	53.288	166.283	238.792	195.394	153.874	254.581	192.738	153.410	158.332	368.521	238.687	158.076	161.851	162.559	167.575	296.324	166.303	-8191	255	
8048.743	1	1	0	0	0.11964	0.21234	0.11158	0.20354	0.22773	0.20814	0.36753	0.14266	0.01423	0.096459	0.23455	0.051991	0.16875	0.14357	0.18195	0.23304	-1.8937	-2.7292	-2.1104	-2.5146	-2.6458	-2.05	-3.0812	-2.3604	-2.1437	-2.7083	-2.2646	-2.5417	-2.6521	-2.4125	-2.8458	-2.4437	366.762	441.443	319.617	389.159	197.044	272.250	417.831	441.062	241.888	377.173	160.232	477.286	167.893	400.085	393.944	483.820	0.00079601	0.00079794	0.00016958	1330.5	3.5073e-06	9.9648e-06	1334.3	358.97	4.1812e-06	4.2209e-06	414.28	139.88	121.19	41.952	3.194e-06	52.313	0.00050326	0.00048735	0.00013633	1337.1	5.4187e-06	5.3662e-06	1340.8	361.27	5.3733e-06	5.35e-06	416.32	141.68	121.92	42.629	5.3841e-06	53.223	170.739	237.281	222.436	153.779	262.867	292.586	153.618	158.323	275.400	329.761	158.018	161.886	162.196	167.386	271.430	166.411	-8191	255	
8048.839	1	1	0	0	0.32081	0.1768	0.18315	0.091969	0.067489	0.30092	0.28542	0.12173	0.17977	0.17706	0.20493	0.2477	0.27406	0.041372	0.12776	0.18551	-1.7958	-2.7375	-2.1333	-2.6813	-2.8063	-2.0667	-2.8812	-2.6271	-2.0312	-2.7958	-2.3229	-2.3875	-2.775	-2.0375	-2.6792	-2.6375	175.198	488.333	247.143	350.098	382.300	160.005	427.449	425.931	222.277	324.323	332.904	164.221	453.771	244.351	265.523	392.947	0.00071047	0.00089919	0.00010227	1332.2	5.7401e-06	4.7811e-06	1337.1	358.4	4.7179e-06	6.1235e-06	410.99	140.91	120.28	41.842	2.1207e-06	52.243	0.00050214	0.00048866	0.00013785	1338.6	5.4179e-06	5.4169e-06	1344.4	361.53	5.4712e-06	5.3531e-06	416.26	141.8	121.64	42.593	5.3832e-06	53.26	166.609	215.281	209.388	153.695	273.484	330.835	153.539	158.279	279.598	284.633	157.853	161.838	162.233	167.354	296.002	166.621	-8191	255	
8048.935	1	1	0	0	0.27597	0.10178	0.30963	0.17381	0.1538	0.14452	0.20116	0.18413	0.2221	0.084336	0.27336	0.24415	0.089154	0.25781	0.13949	0.43442	-1.7146	-2.7292	-2.3042	-2.4313	-2.8479	-2.1	-2.7979	-2.7313	-2.0208	-2.7917	-2.575	-2.1167	-2.7479	-2.1021	-2.6229	-2.7646	197.474	206.039	279.275	167.591	480.426	380.781	456.565	413.600	383.676	259.532	211.383	499.757	187.268	398.645	304.704	424.664	0.00062361	0.00034834	0.00020098	1333.2	3.7046e-06	6.8509e-06	1336.9	360.27	4.9618e-06	3.611e-06	413.05	139.97	120.63	41.937	1.0047e-06	52.312	0.00049949	0.00048648	0.00013904	1339.4	5.3512e-06	5.4158e-06	1344.4	362.35	5.3806e-06	5.3454e-06	416.84	141.62	121.76	42.557	5.4172e-06	53.22	165.519	277.785	235.472	153.726	256.732	302.657	153.363	158.368	266.251	251.781	158.081	162.230	162.292	167.446	388.187	166.408	-8191	255	
8049.056	1	1	0	0	0.24774	0.11043	0.095967	0.15066	0.25547	0.25926	0.2668	0.093086	0.31766	0.19033	0.35287	0.30386	0.20039	0.1796	0.26869	0.080053	-1.5938	-2.6771	-2.3583	-2.4021	-2.7625	-2.0312	-2.7771	-2.9188	-2.0292	-2.825	-2.6042	-2.1479	-2.7854	-2.2604	-2.4062	-2.7958	239.875	284.013	473.656	477.750	461.300	408.371	352.133	393.913	167.593	373.171	498.717	475.962	418.311	444.714	181.973	430.983	0.00071699	0.00027558	0.00018648	1325.4	3.1336e-06	3.5887e-07	1329.9	359.02	6.2188e-06	6.0779e-06	412.84	140.5	121.11	41.728	3.3612e-06	52.24	0.00050778	0.0004947	0.00013937	1335.7	5.4349e-06	5.4468e-06	1339.9	362.18	5.469e-06	5.4809e-06	416.45	141.77	121.94	42.501	5.4883e-06	53.181	166.559	231.201	275.995	154.219	228.056	416.526	153.802	158.318	282.251	341.355	158.013	162.020	162.298	167.332	217.988	166.396	-8191	255	
8049.152	1	1	0	0	0.44636	0.19121	0.13052	0.16797	0.14438	0.036532	0.24875	0.13362	0.12087	0.31786	0.26585	0.074162	0.19532	0.10858	0.1867	0.29091	-1.525	-2.7292	-2.3937	-2.2375	-2.8417	-2.1875	-2.3292	-2.8063	-1.9917	-2.4917	-2.6146	-2.0583	-2.8625	-2.3563	-2.2687	-3.0208	152.505	475.871	320.874	401.111	410.158	161.192	438.051	391.608	433.628	334.437	494.367	478.051	165.148	264.128	489.039	382.471	0.0007159	0.00073722	8.1206e-05	1326.8	5.8987e-06	5.2211e-06	1333	359.22	4.1283e-06	8.6346e-06	412.48	139.7	120.96	41.937	3.2589e-06	52.146	0.0005084	0.00049734	0.0001388	1334.7	5.4173e-06	5.4139e-06	1340.8	362.05	5.405e-06	5.3666e-06	416.37	141.51	121.58	42.573	5.3982e-06	53.216	161.764	247.349	224.189	153.659	264.341	293.251	153.512	158.492	285.719	315.259	157.997	161.987	162.373	167.476	233.257	166.406	-8191	255	
8049.247	1	1	0	0	0.16307	0.13129	0.087181	0.2051	0.25736	0.09203	0.075224	0.19197	0.075257	0.11325	0.32148	0.059319	0.12136	0.24098	0.042628	0.48498	-1.5771	-2.3688	-2.4604	-2.0417	-2.575	-2.4313	-2.4979	-2.9771	-2.1625	-2.4583	-2.7125	-2.1562	-2.7875	-2.3854	-2.1417	-2.9146	147.752	434.789	422.475	429.563	472.361	377.377	473.869	153.630	311.524	487.960	409.371	440.108	350.563	446.811	478.055	489.388	0.00065749	0.00013593	0.00026249	1327.6	5.5932e-06	4.6956e-06	1332.8	357.45	2.2435e-06	2.2263e-06	412.15	140.59	120.98	41.886	1.3103e-06	52.824	0.00049927	0.00048605	0.00013574	1332.6	5.2901e-06	5.2358e-06	1343.9	361.74	5.273e-06	5.2531e-06	417.05	142	121.98	42.538	5.3337e-06	53.424	171.450	168.073	200.721	153.859	220.982	255.430	153.674	158.423	298.208	381.949	158.235	161.956	162.398	167.448	259.706	166.403	-8191	255	
8049.367	1	1	0	0	0.2119	0.049545	0.082941	0.15448	0.31208	0.15823	0.16691	0.3066	0.18792	0.086209	0.27823	0.10608	0.20274	0.18344	0.14074	0.153	-1.9021	-2.4562	-2.6896	-2.0687	-2.7667	-2.5	-2.2479	-3.0521	-2.0417	-2.4958	-2.9542	-2.1833	-2.6542	-2.5354	-2.0187	-3.0917	257.313	364.176	379.228	445.928	479.933	141.228	428.318	427.795	469.560	289.952	422.997	369.932	467.543	409.496	274.506	168.962	0.00065461	0.00031119	8.4207e-05	1327.7	6.792e-06	7.4213e-06	1336.6	360.58	5.2277e-06	6.72e-06	413.91	139.94	120.81	41.919	7.8193e-06	52.64	0.00050037	0.00049247	0.00013754	1334.3	5.3538e-06	5.351e-06	1343.7	362.98	5.3995e-06	5.3645e-06	417.14	141.91	121.73	42.573	5.4324e-06	53.335	173.078	264.407	214.471	153.831	214.914	258.107	153.549	158.533	293.123	321.446	157.827	161.880	162.513	167.306	251.655	166.368	-8191	255	
8049.439	1	1	0	0	0.080617	0.22938	0.21287	0.19147	0.18032	0.090481	0.081233	0.16157	0.14036	0.39929	0.29322	0.0097254	0.11175	0.059392	0.2432	0.20842	-1.7458	-2.2292	-2.7042	-2.1562	-2.6396	-2.4229	-2.3354	-2.8	-2.0542	-2.2042	-2.7687	-2.225	-2.7833	-2.6771	-1.9375	-2.9417	493.342	315.276	191.809	436.738	486.049	173.030	488.357	412.999	332.297	454.071	454.367	384.342	473.480	498.094	469.367	487.918	0.00060671	0.00054426	0.00014392	1326.8	3.1215e-06	5.222e-06	1334.3	360.7	7.9958e-06	1.033e-05	415.37	140.16	121.42	41.982	3.6057e-06	52.271	0.00050951	0.00049911	0.00013905	1336.6	5.4489e-06	5.4726e-06	1343	363.51	5.3873e-06	5.3954e-06	418.79	141.67	122.24	42.663	5.4658e-06	53.24	163.147	240.435	262.858	153.772	251.927	229.414	153.445	158.361	270.141	277.325	158.009	161.535	162.200	167.263	240.689	166.470	-8191	255	
8049.535	1	1	0	0	0.20948	0.35555	0.14509	0.26148	0.067349	0.074875	0.062922	0.13641	0.038493	0.10939	0.12473	0.35521	0.016308	0.28346	0.093365	0.15075	-1.8813	-2.0229	-2.7917	-2.1729	-2.4854	-2.6958	-2.1792	-2.875	-2.2917	-2.175	-2.9333	-2.3708	-2.5396	-2.6646	-1.8625	-2.8146	487.155	363.428	420.217	429.845	283.029	309.308	398.486	164.865	289.797	285.588	325.121	465.943	309.445	442.515	496.851	156.647	0.00072436	0.00028295	0.00030902	1335	3.0879e-06	7.5282e-06	1338.5	360.2	2.22e-06	4.053e-06	412.91	140.17	120.99	42.147	4.3997e-06	52.39	0.00051125	0.00049595	0.00013683	1337.1	5.4798e-06	5.4292e-06	1345.1	363.53	5.4205e-06	5.433e-06	417.77	141.68	121.99	42.657	5.4157e-06	53.288	166.131	248.557	252.444	153.962	302.473	305.230	153.556	158.546	318.071	281.818	157.954	161.729	162.439	167.318	292.147	166.726	-8191	255	
8049.631	1	1	0	0	0.16121	0.16583	0.28836	0.1842	0.15458	0.17578	0.14541	0.31401	0.14648	0.26391	0.022929	0.26501	0.32993	0.11536	0.29134	0.10225	-2.0208	-1.9104	-2.7208	-2.1729	-2.3646	-2.6458	-2.0167	-2.7792	-2.3	-2.0187	-2.8812	-2.4146	-2.2125	-2.8333	-2.1479	-2.5062	309.993	385.226	369.485	450.582	404.981	347.237	487.942	478.660	366.150	423.588	347.384	480.742	142.912	459.174	333.992	424.900	0.000774	0.00055392	0.00026335	1333.3	5.0015e-06	6.5052e-06	1337	361.41	5.4976e-06	2.9954e-06	413.91	141.02	121.12	41.979	4.3986e-06	52.144	0.0005039	0.00049619	0.00013545	1335.7	5.441e-06	5.4526e-06	1345.5	363.69	5.373e-06	5.3917e-06	418.01	142.12	121.84	42.61	5.3606e-06	53.202	166.564	225.909	237.647	153.751	230.925	235.053	153.669	158.556	231.300	218.127	157.814	161.891	162.304	167.488	240.056	166.476	-8191	255	
8049.752	1	1	0	0	0.11002	0.084964	0.13623	0.091542	0.30528	0.089386	0.10016	0.033277	0.19639	0.08612	0.099539	0.3598	0.16776	0.19504	0.18821	0.2116	-2.2375	-1.8958	-2.7938	-2.2562	-2.1229	-2.9521	-2.0875	-2.4333	-2.5938	-2.1396	-2.8979	-2.3271	-2.0312	-2.7708	-1.9625	-2.6125	317.414	200.666	482.266	361.358	271.404	407.031	442.212	429.815	315.819	479.115	196.213	450.589	490.411	161.400	270.970	460.326	0.00071647	0.00028351	0.00022458	1339	2.6215e-06	4.4034e-06	1335.9	361.1	4.4657e-06	5.0876e-06	413.02	141.08	121.23	41.924	4.8443e-06	52.531	0.00049995	0.00048894	0.00013533	1338	5.3196e-06	5.3347e-06	1342.5	363.52	5.2934e-06	5.2994e-06	417.1	141.78	121.93	42.563	5.2559e-06	53.299	165.498	210.920	234.163	153.851	325.852	286.633	153.288	158.446	275.477	284.018	157.756	161.854	162.535	167.485	245.551	166.714	-8191	255	
8049.848	1	1	0	0	0.11891	0.060475	0.16947	0.078616	0.31779	0.11762	0.26168	0.044018	0.061323	0.10396	0.1424	0.34022	0.19467	0.15454	0.21432	0.25345	-2.4188	-1.8708	-2.7896	-2.4729	-2.0604	-2.8021	-2.2333	-2.325	-2.8333	-2.0563	-2.8896	-2.6562	-2.2104	-2.9479	-1.9333	-2.475	386.168	360.248	241.321	191.279	448.930	433.995	377.309	152.150	150.037	203.317	433.566	453.417	158.528	385.821	184.335	462.006	0.00063092	0.00054209	2.9446e-05	1335.2	6.2997e-06	3.9727e-06	1334.9	361.45	6.602e-06	1.8508e-06	415.14	140.53	121.31	41.901	4.0015e-06	52.532	0.00049319	0.00048331	0.00013424	1335.4	5.2989e-06	5.2302e-06	1341.5	363.78	5.2541e-06	5.2753e-06	418.3	141.76	122.08	42.566	5.238e-06	53.179	167.397	263.938	169.218	153.758	296.530	264.246	153.369	158.675	263.586	480.862	157.924	162.082	162.673	167.494	214.490	166.772	-8191	255	
8049.944	1	1	0	0	0.17941	0.13746	0.1207	0.27351	0.080119	0.27619	0.26785	0.1156	0.28581	0.138	0.1416	0.26148	0.27007	0.06449	0.15779	0.098485	-2.3271	-1.9458	-2.5563	-2.7583	-2.1063	-2.8875	-2.5083	-2.475	-2.6604	-2.0229	-2.6333	-2.7854	-2.0229	-2.95	-2.0625	-2.4167	288.348	154.275	404.709	388.666	499.799	332.726	450.852	405.539	167.453	387.943	477.696	487.362	432.395	170.025	406.669	214.098	0.00072724	0.00032736	3.8304e-05	1328.2	5.1995e-06	7.8632e-06	1335.2	358.86	5.0765e-06	3.5558e-06	414.84	140.25	121	41.904	1.6078e-06	52.509	0.00049116	0.00047647	0.00013275	1333.8	5.2334e-06	5.1386e-06	1341	363.14	5.195e-06	5.1536e-06	417.81	141.5	121.52	42.543	5.24e-06	53.295	167.786	218.150	374.908	153.967	311.331	285.380	153.519	158.450	249.037	300.431	158.157	161.972	162.243	167.410	264.063	166.555	-8191	255	
8050.016	1	1	0	0	0.072102	0.24497	0.11965	0.053032	0.25202	0.078518	0.17307	0.088037	0.10023	0.18272	0.23188	0.045226	0.26204	0.040596	0.2811	0.029495	-2.375	-1.8875	-2.4979	-2.8187	-1.9375	-2.9458	-2.5646	-2.1792	-2.7104	-2.15	-2.4896	-2.8312	-2.15	-2.7208	-2.2646	-2.2812	500.376	258.175	243.020	196.863	271.365	260.480	463.245	385.116	453.369	405.371	488.674	260.483	499.327	194.059	387.449	172.574	0.00071239	0.00048389	4.4312e-05	1329.5	6.0485e-06	7.4097e-06	1334.1	360.95	1.0368e-05	4.2016e-06	413.4	140.6	121.12	41.942	4.111e-06	52.493	0.00048342	0.00047809	0.00013294	1333.3	5.2983e-06	5.2286e-06	1341.9	363.56	5.2706e-06	5.306e-06	417.74	141.88	121.82	42.631	5.259e-06	53.199	163.938	291.991	274.684	153.667	188.524	276.196	153.295	158.595	272.280	298.931	158.145	161.927	162.545	167.624	207.075	166.223	-8191	255	
8050.136	1	1	0	0	0.18328	0.081314	0.46878	0.14272	0.088468	0.23665	0.2814	0.13017	0.10998	0.31183	0.096053	0.28706	0.057873	0.072867	0.090535	0.20616	-2.3917	-2.1188	-2.1646	-2.825	-1.9979	-2.6562	-2.6875	-2.0938	-2.925	-2.2417	-2.3354	-2.7687	-1.9479	-2.7833	-2.5958	-2.1521	162.466	160.394	292.702	251.231	202.129	467.115	433.510	264.564	393.354	290.032	215.198	163.776	403.667	468.281	430.639	141.760	0.00066723	0.00020802	0.00021546	1327.4	2.1161e-06	2.5612e-06	1330.2	359.59	4.5315e-06	2.4708e-06	415.51	139.81	121	41.921	3.0756e-06	51.921	0.0004927	0.00048716	0.00013604	1335.3	5.3425e-06	5.3359e-06	1338.9	362.93	5.2755e-06	5.3685e-06	418.38	141.44	121.65	42.52	5.3286e-06	53.142	167.742	248.387	204.455	153.592	241.956	156.102	153.468	158.347	302.202	314.774	158.042	161.754	162.417	167.647	283.633	166.670	-8191	255	
8050.233	1	1	0	0	0.085814	0.13025	0.17132	0.37546	0.195	0.15356	0.48533	0.33177	0.056727	0.108	0.41977	0.24999	0.2464	0.15099	0.18337	0.31197	-2.375	-2.0708	-2.2146	-2.95	-1.9958	-2.3937	-2.8021	-2.1479	-2.6813	-2.1792	-2.1333	-2.8125	-2.1292	-2.35	-2.5854	-2.0646	301.411	469.143	269.796	457.540	274.036	351.421	466.372	449.333	152.690	252.075	475.055	447.333	149.376	472.072	188.454	481.030	0.00079713	0.00064993	3.5367e-05	1326.9	5.5927e-06	6.8302e-06	1328.4	361	8.735e-07	1.0597e-05	414.49	140.4	119.87	41.913	8.2248e-06	52.239	0.00050558	0.00048889	0.00013768	1333.2	5.3815e-06	5.4024e-06	1336.9	362.78	5.384e-06	5.407e-06	417.07	141.79	121.57	42.588	5.4671e-06	53.181	162.444	238.048	251.847	153.651	296.751	282.091	153.462	158.387	194.999	279.025	157.972	161.827	162.279	167.500	267.019	166.707	-8191	255	
8050.329	1	1	0	0	0.29584	0.39069	0.34376	0.20539	0.052056	0.13109	0.2976	0.12558	0.1389	0.23079	0.037486	0.24062	0.16953	0.14762	0.090229	0.20568	-2.375	-2.2417	-2.1625	-2.9854	-2.1979	-2.4271	-2.7771	-2.1771	-2.4854	-2.3104	-2.1167	-2.9208	-2.1229	-2.5854	-2.6604	-1.8646	312.564	385.525	389.557	348.328	255.013	333.578	152.888	152.065	331.417	193.118	469.839	453.935	214.950	220.610	205.130	376.620	0.00065092	0.00031372	5.1679e-05	1322.5	5.2132e-06	6.3493e-06	1332.3	358.61	4.5638e-06	5.0901e-06	413.25	139.86	120.66	41.938	1.7403e-06	51.941	0.00050933	0.00049557	0.00013937	1330.6	5.4677e-06	5.4993e-06	1337.9	362.18	5.4348e-06	5.4681e-06	417.75	141.49	121.45	42.505	5.516e-06	53.019	169.075	208.361	241.210	154.250	278.703	256.979	153.451	158.390	216.356	267.403	158.249	162.097	162.150	167.391	250.514	166.517	-8191	255	
8050.448	1	1	0	0	0.13347	0.23314	0.14904	0.045294	0.094093	0.18385	0.33599	0.084859	0.21211	0.15256	0.077655	0.34217	0.22071	0.14175	0.20113	0.32513	-2.1896	-2.3417	-1.9292	-2.9542	-2.2646	-2.3417	-3.1292	-1.975	-2.5187	-2.5042	-2.4229	-2.9354	-2.1604	-2.2938	-2.6875	-1.9333	213.420	410.215	440.853	276.643	178.015	494.967	416.556	472.695	305.731	496.579	366.060	183.247	161.602	466.471	156.109	436.822	0.00063887	0.00045828	0.00019294	1324	3.8753e-06	3.4209e-06	1329.3	358.76	5.5007e-06	4.7737e-06	414.77	140.05	120.44	41.856	5.6262e-06	52.306	0.000512	0.00050126	0.00014061	1333.1	5.4321e-06	5.4615e-06	1337.9	361.91	5.4507e-06	5.3873e-06	417.87	141.49	121.56	42.515	5.4031e-06	53.155	163.579	234.439	262.695	153.843	331.179	333.795	153.724	158.635	305.832	285.710	158.101	162.054	162.303	167.638	203.894	166.344	-8191	255	
8050.544	1	1	0	0	0.13194	0.23632	0.10009	0.15313	0.045816	0.11505	0.10822	0.14478	0.33603	0.254	0.24349	0.28886	0.249	0.22925	0.20053	0.33702	-2.1125	-2.4708	-1.725	-2.7438	-2.2146	-2.0375	-3.0375	-2.1958	-2.35	-2.7292	-2.0312	-2.7958	-2.3937	-2.1625	-2.6917	-2.2333	470.651	365.435	270.419	499.388	337.828	204.381	429.284	423.525	389.928	415.065	421.372	467.906	477.230	449.142	189.780	463.262	0.00071919	0.0005932	0.00010744	1327.9	2.1896e-06	2.0518e-06	1327.1	358.64	5.4266e-06	6.3353e-06	412.49	140.04	121.03	41.846	5.8262e-06	52.391	0.00050536	0.00049602	0.00013756	1335.2	5.4461e-06	5.3961e-06	1337.6	362.67	5.4636e-06	5.4207e-06	417.09	141.39	121.46	42.461	5.471e-06	53.185	168.924	242.561	243.106	154.203	326.818	319.962	153.762	158.557	297.490	298.862	158.268	162.265	162.524	167.502	292.526	166.600	-8191	255	
8050.640	1	1	0	0	0.17214	0.1903	0.08382	0.18982	0.16789	0.14777	0.31647	0.11074	0.13863	0.24571	0.051407	0.14134	0.13603	0.061606	0.11257	0.091914	-2.2354	-2.7396	-2.0354	-2.9188	-2.4625	-2.0604	-2.925	-2.3104	-2.2875	-2.8021	-2.2375	-2.8979	-2.5479	-2.2667	-2.9042	-2.2458	310.725	499.498	377.946	172.145	472.398	376.106	375.029	317.116	258.919	451.157	449.712	155.458	435.592	493.927	164.581	377.297	0.00081968	0.00063829	0.00025645	1326.5	3.8305e-06	6.1191e-06	1329.1	359.49	1.2439e-06	6.8671e-06	413.16	139.82	120.8	41.91	6.5055e-06	52.184	0.00050865	0.00049714	0.0001389	1332.4	5.4644e-06	5.4801e-06	1337.7	362.62	5.5046e-06	5.5028e-06	416.75	141.55	121.8	42.591	5.5129e-06	53.094	166.048	192.225	220.074	153.948	261.347	365.619	153.607	158.508	349.813	266.330	158.020	161.996	162.278	167.824	209.495	166.673	-8191	255	
8050.736	1	1	0	0	0.16004	0.061641	0.13833	0.077025	0.31009	0.158	0.21175	0.13039	0.20865	0.25337	0.26845	0.10057	0.21462	0.24178	0.083141	0.20441	-1.9083	-2.8208	-2	-2.7875	-2.4125	-1.9833	-2.9521	-2.4938	-2.1521	-2.8271	-2.0521	-2.65	-2.6771	-2.0604	-2.95	-2.3187	476.307	359.950	386.953	392.963	493.168	166.463	394.611	428.169	400.599	421.396	436.239	425.848	389.978	443.328	391.771	436.089	0.0006717	0.00033118	0.00016933	1328	3.9079e-06	4.7892e-06	1334.3	359.84	2.6306e-06	5.0729e-06	413.71	140.03	120.54	41.638	7.596e-06	52.347	0.00051458	0.00049572	0.00013898	1331.4	5.51e-06	5.4384e-06	1339.7	362.73	5.5392e-06	5.4959e-06	417.34	141.67	121.68	42.462	5.4781e-06	53.213	172.774	219.592	210.454	153.808	251.079	285.058	153.668	158.566	259.210	347.183	158.118	162.097	162.359	167.656	240.438	166.762	-8191	255	
8050.832	1	1	0	0	0.1129	0.27417	0.22738	0.043414	0.13333	0.046801	0.26701	0.094221	0.2603	0.10918	0.24104	0.15438	0.27172	0.042211	0.1531	0.2195	-1.8396	-2.7292	-2.0042	-2.5667	-2.6417	-1.9458	-2.9771	-2.5396	-2.0083	-2.9583	-2.2417	-2.6063	-2.7875	-2.2021	-2.7792	-2.4354	369.030	407.098	286.712	184.269	249.246	148.103	452.087	366.236	492.568	397.931	474.444	460.970	456.063	333.245	151.417	496.841	0.0006774	0.00078062	0.0001296	1323.9	4.8008e-06	4.5214e-06	1331.2	359.27	5.2049e-06	3.4698e-06	414.34	139.75	120.98	41.705	4.5348e-06	52.196	0.00051009	0.00050097	0.00013975	1330.5	5.495e-06	5.4824e-06	1338.1	362.67	5.5254e-06	5.5052e-06	417.66	141.49	121.99	42.52	5.5316e-06	53.09	165.803	260.071	244.026	154.026	247.472	295.949	153.602	158.456	255.856	326.731	157.934	161.945	162.256	167.504	261.076	166.467	-8191	255	
8050.928	1	1	0	0	0.26229	0.13244	0.10813	0.30178	0.16081	0.12165	0.10498	0.1197	0.11537	0.0070729	0.062334	0.17026	0.16726	0.28787	0.11305	0.14845	-1.5771	-2.6646	-2.0146	-2.4125	-2.7417	-2.0771	-2.8333	-2.8333	-2.075	-2.8125	-2.3229	-2.3521	-2.8458	-2.1479	-2.5812	-2.5583	142.913	149.020	342.281	151.998	237.493	283.016	374.483	488.123	383.247	432.162	357.486	448.110	348.928	414.834	484.720	186.473	0.00070925	0.00073206	0.00014119	1324.6	3.8581e-06	5.2919e-06	1331.4	359.36	7.8314e-06	6.8917e-06	413.62	139.26	120.56	41.78	6.4727e-06	51.947	0.00051952	0.0004981	0.00013939	1331	5.5387e-06	5.4823e-06	1338.1	362.6	5.5485e-06	5.473e-06	417.62	141.28	121.47	42.453	5.504e-06	52.968	165.333	262.071	204.467	154.085	290.428	305.803	153.806	158.490	288.994	251.314	158.409	162.031	162.527	167.549	308.262	166.614	-8191	255	
8051.049	1	1	0	0	0.22584	0.14408	0.15714	0.083896	0.20594	0.20167	0.24946	0.11499	0.041067	0.15127	0.24979	0.24555	0.10777	0.15662	0.12402	0.12668	-1.7313	-2.8125	-2.2771	-2.3208	-2.7188	-2.0938	-2.7167	-2.5438	-2.0292	-2.7583	-2.4437	-2.1875	-2.9479	-2.0167	-2.4375	-2.7458	220.008	450.822	338.989	265.450	270.765	342.471	179.247	461.758	290.622	420.490	462.552	499.266	188.939	166.388	178.706	432.599	0.00073157	0.00051133	7.1366e-05	1320	4.7205e-06	4.483e-06	1326.7	358.57	5.2382e-06	6.2595e-06	411.12	139.38	120.56	41.669	5.6212e-06	52.134	0.00051732	0.00050167	0.00013993	1331.9	5.5352e-06	5.492e-06	1337.2	362.07	5.4816e-06	5.4459e-06	416.71	141.35	121.62	42.382	5.4619e-06	52.996	168.430	293.765	230.897	154.226	264.347	259.159	153.539	158.697	245.702	322.177	158.153	162.122	162.526	168.082	323.582	166.709	-8191	255	
8051.143	1	1	0	0	0.20625	0.11945	0.23188	0.083845	0.10874	0.29526	0.34743	0.2149	0.096959	0.28903	0.26322	0.19974	0.21912	0.20309	0.064866	0.12989	-1.5396	-2.6229	-2.35	-2.2104	-2.8479	-2.1333	-2.5	-2.8688	-1.8708	-2.5687	-2.6271	-2.2438	-2.7583	-2.1271	-2.2	-2.9042	212.596	471.891	440.443	312.229	400.542	424.017	474.713	420.080	446.688	408.040	398.998	474.871	186.597	409.833	170.292	458.146	0.00071001	0.00079427	0.00022659	1321.2	4.583e-06	6.2954e-06	1330	358.77	6.2999e-06	6.2403e-06	413.44	140.06	121.4	41.545	5.0255e-06	52.264	0.00050762	0.00049866	0.00014009	1330.4	5.4522e-06	5.4345e-06	1338.6	362.5	5.4138e-06	5.3908e-06	417.13	141.1	121.93	42.386	5.4541e-06	53.059	169.173	209.784	228.729	154.411	238.622	276.945	154.007	158.705	267.199	312.874	158.163	162.251	162.632	167.820	257.025	166.958	-8191	255	
8051.240	1	1	0	0	0.17626	0.24177	0.10168	0.10022	0.044725	0.11214	0.16149	0.05509	0.13843	0.19764	0.23903	0.039619	0.12815	0.22636	0.26886	0.29171	-1.7917	-2.5542	-2.4625	-2.0479	-2.7313	-2.1104	-2.4542	-2.9271	-2.0417	-2.6292	-2.5875	-2.1063	-2.7	-2.4104	-2.2479	-2.8083	420.494	478.729	467.362	400.007	490.296	250.683	483.503	408.518	373.577	297.712	430.695	422.334	151.254	429.652	442.378	444.101	0.00069411	0.00052326	0.00017056	1328.7	2.944e-06	8.5759e-06	1328.8	360.08	3.5714e-06	7.8856e-06	413.74	139.89	120.36	41.851	3.4432e-07	52.408	0.00050997	0.00049602	0.00013841	1333.4	5.376e-06	5.3975e-06	1335.7	362.33	5.3877e-06	5.4236e-06	416.7	141.19	121.38	42.475	5.3913e-06	53.116	170.023	182.366	195.576	153.980	262.727	258.173	153.902	158.499	283.228	325.904	158.377	162.201	162.579	167.550	399.543	166.944	-8191	255	
8051.313	1	1	0	0	0.31904	0.19944	0.21482	0.29228	0.10631	0.18126	0.087542	0.37564	0.34021	0.12179	0.23964	0.18307	0.07888	0.36089	0.1199	0.1388	-1.625	-2.6	-2.5563	-2.0375	-2.8625	-2.3583	-2.3479	-2.9729	-2.075	-2.4188	-2.7708	-2.0417	-2.8271	-2.4708	-1.9479	-2.8792	338.448	293.701	405.226	500.272	363.677	452.204	144.323	429.382	409.680	368.750	408.187	450.004	287.610	459.493	297.180	453.645	0.0007281	0.00054245	0.00012922	1325.8	4.174e-06	3.5335e-06	1326.5	357.63	6.4825e-06	4.1906e-06	414.52	139.99	120.24	41.744	3.6517e-06	52.139	0.00049803	0.00048749	0.00013653	1328.9	5.2857e-06	5.32e-06	1333.1	361.31	5.2562e-06	5.2744e-06	416.85	141.17	121.24	42.387	5.2718e-06	52.991	161.320	245.847	264.342	154.527	290.562	261.752	154.067	158.638	283.945	282.481	158.214	162.569	162.951	167.758	276.212	167.312	-8191	255	
8051.409	1	1	0	0	0.11017	0.14884	0.24224	0.18998	0.084242	0.05989	0.21395	0.24474	0.16327	0.072111	0.15132	0.38142	0.1773	0.071407	0.084889	0.096234	-1.8479	-2.25	-2.625	-2.1312	-2.6312	-2.3937	-2.0187	-2.8833	-2.1083	-2.3021	-2.9167	-2.075	-2.7208	-2.4854	-1.8833	-2.9104	205.513	445.965	281.900	442.143	292.128	489.607	366.712	437.983	443.050	292.249	486.516	389.317	343.231	456.084	220.739	432.481	0.00061698	0.00020312	0.00016005	1318	4.5709e-06	1.3917e-06	1321.8	360.26	4.8184e-06	5.1449e-06	411.66	139.2	119.98	41.736	2.0424e-06	52.232	0.0004847	0.00047606	0.00013214	1323.3	5.1811e-06	5.1662e-06	1330.8	361.7	5.1879e-06	5.1675e-06	415.58	140.65	121.1	42.382	5.2305e-06	52.97	167.111	250.110	223.560	154.509	262.343	208.132	154.116	158.910	276.186	321.014	158.567	162.365	163.058	168.044	232.443	167.413	-8191	255	
8051.528	1	1	0	0	0.054857	0.25493	0.095242	0.11446	0.065881	0.10274	0.20862	0.23254	0.050828	0.10652	0.058476	0.077796	0.12998	0.14331	0.085967	0.026771	-1.7792	-2.2021	-2.6688	-2.0375	-2.5229	-2.4813	-2.2271	-2.8688	-2.2042	-2.2188	-2.9938	-2.2542	-2.5792	-2.7583	-2	-2.7667	424.631	428.463	258.967	295.629	270.226	168.160	421.712	455.043	336.089	335.962	359.500	419.434	348.234	455.470	277.804	417.104	0.00069675	0.00045625	4.6053e-05	1320.8	2.3187e-06	5.6411e-06	1323.1	359.77	3.9131e-06	2.9197e-06	412.98	139.28	120.43	41.832	6.3459e-06	52.082	0.00048895	0.00047957	0.0001343	1324.3	5.258e-06	5.2937e-06	1330.2	361.69	5.2874e-06	5.2916e-06	416.22	140.73	121.14	42.407	5.2706e-06	52.902	169.066	251.325	154.479	154.423	231.503	252.315	154.251	159.366	216.339	230.173	159.037	162.658	163.194	168.236	304.886	166.951	-8191	255	
8051.624	1	1	0	0	0.11306	0.092557	0.14655	0.23447	0.19873	0.28921	0.21228	0.016069	0.13727	0.20364	0.13499	0.31714	0.25365	0.05076	0.1917	0.018425	-1.9521	-1.9896	-2.875	-2.15	-2.3792	-2.5187	-2.2521	-2.8292	-2.4375	-2.0417	-3.125	-2.2021	-2.2979	-2.6813	-1.7938	-2.7875	302.689	479.897	345.407	362.188	438.798	395.001	356.947	149.006	420.610	332.608	369.873	278.521	145.271	468.404	215.750	252.957	0.00067837	0.00073001	8.7872e-05	1325.4	4.5835e-06	1.1973e-06	1318.5	359	7.3612e-06	7.6314e-06	412.79	139.08	120.89	41.753	4.3222e-06	52.042	0.00049469	0.00048506	0.00013323	1323.6	5.3141e-06	5.2421e-06	1329.3	361.97	5.3629e-06	5.3231e-06	415.75	140.88	121.43	42.387	5.3492e-06	52.965	166.216	216.990	167.017	154.092	307.251	407.562	153.818	158.787	259.747	279.591	158.342	162.133	162.749	167.594	267.727	166.826	-8191	255	
8051.720	1	1	0	0	0.19637	0.19777	0.3012	0.32972	0.27787	0.16588	0.1178	0.39773	0.32945	0.23913	0.43197	0.11881	0.12132	0.2893	0.13041	0.14632	-2.1896	-2.0563	-2.8396	-2.3292	-2.2313	-2.5771	-2.275	-2.6792	-2.6021	-2.075	-2.9229	-2.4542	-2.3187	-2.9875	-2.1583	-2.4125	196.903	381.273	255.548	476.761	312.150	479.066	148.212	479.770	453.197	391.542	451.217	181.554	461.686	480.342	267.341	351.165	0.00075501	0.00049425	0.00021383	1328	5.3619e-06	1.522e-06	1320.6	359.98	6.2949e-06	9.0819e-07	412.9	139.18	119.51	41.649	5.3791e-06	51.964	0.00050472	0.00049424	0.00013656	1327.2	5.4044e-06	5.3445e-06	1331.4	361.56	5.2787e-06	5.3767e-06	416.49	140.8	121.04	42.38	5.3044e-06	52.967	165.978	250.401	254.785	153.808	266.646	224.038	153.692	158.786	249.506	320.730	158.242	162.329	162.489	167.757	282.456	166.927	-8191	255	
8051.816	1	1	0	0	0.14996	0.28306	0.088527	0.48955	0.15574	0.11995	0.29434	0.14523	0.095832	0.13162	0.02787	0.15453	0.14727	0.16752	0.16806	0.20891	-2.1	-2.025	-2.7521	-2.1688	-1.9521	-2.8417	-2.3521	-2.6208	-2.5625	-2.0479	-2.8438	-2.5563	-2.1958	-2.7646	-2.0375	-2.4938	165.800	398.000	167.690	148.867	464.948	439.232	498.298	157.876	259.672	205.829	460.927	214.103	448.623	479.892	158.577	161.978	0.00060315	0.00071171	0.00018981	1316.5	1.9278e-06	5.5052e-06	1321.8	359.84	1.1489e-06	6.8564e-06	413.24	139.62	120.72	41.732	5.3021e-06	52.123	0.00049355	0.00048717	0.00013391	1325.8	5.3193e-06	5.2286e-06	1333.1	361.76	5.2602e-06	5.2249e-06	415.76	141.09	121.34	42.403	5.1621e-06	53.031	171.113	233.342	274.222	154.166	271.309	298.670	153.691	158.804	496.281	269.975	158.235	162.196	162.719	167.701	250.240	166.867	-8191	255	
8051.913	1	1	0	0	0.075241	0.18647	0.19934	0.47699	0.25597	0.19134	0.32084	0.15649	0.17895	0.29782	0.19999	0.086607	0.44361	0.094061	0.16616	0.21686	-2.4313	-1.9917	-2.5167	-2.6188	-2.025	-2.8187	-2.3104	-2.5146	-2.7687	-2.0312	-2.7687	-2.6646	-2.0521	-3.0896	-2.3375	-2.4167	368.320	234.325	200.960	465.228	392.166	164.448	428.629	430.157	399.721	444.195	480.508	333.687	443.298	394.263	178.842	354.143	0.00069536	0.00054815	0.00018762	1330.2	1.5773e-06	1.0727e-05	1328.1	360.15	3.8915e-06	7.4893e-06	413.6	140.09	121	42.001	4.8569e-06	52.056	0.00048596	0.00047571	0.00013079	1329.3	5.1727e-06	5.1502e-06	1336.7	362.13	5.102e-06	5.1352e-06	416.69	141.25	121.39	42.472	5.1392e-06	53.075	166.427	229.700	209.649	154.057	236.362	253.684	153.734	158.774	311.516	288.545	158.631	162.287	162.572	167.802	214.508	167.037	-8191	255	
8052.009	1	1	0	0	0.082006	0.41039	0.18214	0.19016	0.065134	0.22461	0.15276	0.37359	0.058748	0.23633	0.082744	0.086626	0.27355	0.064501	0.2368	0.24278	-2.2167	-2.1063	-2.5	-2.7104	-1.9042	-2.7229	-2.475	-2.4479	-2.7875	-1.9417	-2.6979	-2.65	-2.1813	-2.6542	-2.2062	-2.0958	478.542	391.918	343.489	441.745	415.460	270.131	411.197	442.242	380.907	190.788	464.477	452.268	154.634	346.656	362.293	454.836	0.00069964	0.00029864	0.00010195	1331	4.9242e-06	3.0568e-06	1329	359.36	5.058e-06	1.8448e-06	414.05	140.62	120.22	41.704	2.3423e-06	52.341	0.00048355	0.00047496	0.00013162	1331.7	5.2521e-06	5.2104e-06	1338.6	362.23	5.274e-06	5.3652e-06	417.01	141.61	121.53	42.474	5.3932e-06	53.219	171.077	261.793	207.420	154.303	293.983	230.746	153.804	158.717	283.707	300.152	158.539	162.212	162.843	167.836	267.314	166.986	-8191	255	
8052.129	1	1	0	0	0.19043	0.21549	0.05314	0.035334	0.066876	0.023427	0.30241	0.15956	0.32784	0.19946	0.018248	0.092541	0.10297	0.22825	0.097612	0.28736	-2.4729	-2.0167	-2.175	-2.6521	-1.775	-2.6375	-2.4771	-2.2896	-2.6937	-2.0167	-2.675	-2.7875	-2.0646	-2.8271	-2.3167	-2.2958	142.703	371.601	378.788	141.128	453.188	413.256	438.664	156.390	471.289	474.184	435.511	431.695	442.152	460.788	362.128	458.650	0.00063373	0.00056244	9.1656e-05	1324.5	4.2049e-06	6.056e-06	1331.1	357.75	4.3394e-06	1.0909e-06	412.44	139.89	120.42	41.887	3.2933e-06	52.058	0.00049724	0.00048749	0.00013821	1333	5.3988e-06	5.4052e-06	1339.8	362.52	5.45e-06	5.4636e-06	417.54	141.85	121.8	42.53	5.3995e-06	53.018	168.537	241.736	189.471	154.377	236.355	329.098	153.847	158.836	279.099	460.858	158.362	162.284	162.988	167.804	262.219	167.057	-8191	255	
8052.224	1	1	0	0	0.14491	0.10608	0.2127	0.058038	0.15043	0.080269	0.1214	0.22333	0.11269	0.21725	0.34671	0.14886	0.15714	0.37117	0.36251	0.19673	-2.2604	-2.1312	-2.2667	-2.8333	-2.0458	-2.5812	-2.5417	-2.2125	-2.7604	-2.2875	-2.2708	-2.8292	-2.0208	-2.5	-2.6104	-2.1292	415.925	399.361	297.989	478.000	394.297	435.626	176.165	495.291	298.947	321.654	165.799	186.807	480.810	448.277	305.212	401.409	0.00068884	0.0004833	0.00019819	1324.3	3.6447e-06	3.6966e-06	1333.3	359.75	5.1805e-06	6.9604e-06	415.59	140.87	120.48	42.013	2.6461e-06	52.353	0.00050897	0.0004943	0.00013964	1334.7	5.423e-06	5.4898e-06	1342.3	362.65	5.4469e-06	5.4946e-06	418.62	141.85	122.04	42.662	5.4996e-06	53.172	165.798	234.690	217.470	154.224	217.137	225.990	153.809	158.850	288.760	260.662	158.371	162.254	162.643	167.878	282.527	167.113	-8191	255	
8052.320	1	1	0	0	0.25814	0.32433	0.19627	0.15319	0.33345	0.055521	0.12382	0.094471	0.157	0.12118	0.39382	0.26888	0.089239	0.16189	0.24941	0.1972	-2.2771	-2.2938	-2.1521	-2.8417	-2.0208	-2.4208	-2.7625	-2.0979	-2.6396	-2.3583	-2.175	-2.8812	-2.025	-2.4021	-2.7167	-2.0229	187.512	208.584	266.516	392.043	381.159	307.135	389.928	323.838	297.847	490.973	492.197	456.275	456.331	164.371	391.122	485.002	0.00062452	0.00079812	0.00020516	1332	2.1004e-06	5.9823e-06	1333.9	361.48	4.7866e-06	7.157e-06	415.06	140.54	121.41	41.918	5.5248e-06	52.432	0.0005093	0.00050262	0.00014057	1337.4	5.5216e-06	5.4432e-06	1343.7	363.47	5.4388e-06	5.5096e-06	418.36	141.83	122.07	42.613	5.5686e-06	53.304	161.634	228.059	256.790	154.295	292.801	261.750	154.027	159.008	273.934	315.771	158.291	162.562	162.662	168.097	250.262	167.025	-8191	255	
8052.418	1	1	0	0	0.051909	0.14528	0.057715	0.097804	0.35003	0.07817	0.22065	0.083178	0.15021	0.24883	0.18983	0.15215	0.28137	0.092551	0.14459	0.40519	-2.2687	-2.2812	-2.0021	-2.8771	-2.0292	-2.3146	-2.8479	-1.9667	-2.625	-2.4	-2.1312	-2.9667	-2.0292	-2.3917	-2.7729	-2.1188	279.550	284.755	302.592	457.239	313.382	152.720	424.221	464.083	408.832	377.740	491.767	464.531	354.219	326.264	304.029	473.842	0.00065981	0.000234	0.00017273	1334.9	5.9409e-06	4.9394e-06	1333.6	360.4	5.4493e-06	4.5626e-06	413.05	141.35	121.27	41.864	5.8985e-06	52.341	0.00051836	0.0005045	0.00014061	1338.7	5.5207e-06	5.528e-06	1341	363.59	5.5323e-06	5.4579e-06	417.42	142.08	122.07	42.673	5.4421e-06	53.237	171.337	220.456	237.076	154.102	197.169	281.814	153.933	158.949	231.419	329.426	158.588	162.254	162.830	168.159	246.988	166.907	-8191	255	
8052.537	1	1	0	0	0.11457	0.15072	0.1402	0.18144	0.19486	0.10374	0.09119	0.13536	0.2761	0.015915	0.21732	0.15692	0.33288	0.2036	0.17743	0.15179	-1.9771	-2.3792	-2.0917	-2.9146	-2.2125	-2.0771	-2.9396	-2.2938	-2.4167	-2.5521	-2.1875	-2.95	-2.2979	-2.3312	-2.7583	-2	325.043	284.880	238.265	422.544	442.473	448.009	452.500	470.073	477.053	277.110	497.227	394.498	422.683	399.646	397.160	227.978	0.00068267	0.00011179	0.00025045	1334.4	2.983e-06	5.1866e-06	1330.7	359.32	6.1312e-06	3.1067e-06	414.45	140.5	121.66	42.104	7.9613e-07	52.365	0.00050681	0.00049715	0.00013995	1338.1	5.4229e-06	5.5041e-06	1340	363.06	5.4924e-06	5.5512e-06	417.17	141.97	122.07	42.648	5.4093e-06	53.207	170.297	476.604	208.943	154.210	276.781	267.686	153.833	158.734	281.705	273.406	158.576	162.227	162.635	168.300	227.377	167.279	-8191	255	
8052.608	1	1	0	0	0.12758	0.06305	0.075632	0.25069	0.11069	0.064145	0.18594	0.36664	0.17564	0.16891	0.077736	0.12134	0.11243	0.29598	0.12808	0.29918	-2.0854	-2.7104	-1.8813	-2.8396	-2.2917	-2.1604	-2.9854	-2.1312	-2.3542	-2.5229	-2.1792	-2.7687	-2.4396	-2.1854	-2.725	-2.2979	299.425	396.345	169.736	497.073	393.715	395.722	423.027	410.319	180.982	320.620	238.198	452.859	413.652	145.074	198.035	419.010	0.00071659	0.00067784	8.7272e-06	1339.3	3.7328e-06	4.3341e-06	1337.3	360	8.3052e-06	5.9266e-06	412.83	139.57	121.42	41.991	5.7026e-06	52.137	0.00050602	0.0004944	0.00013932	1335.8	5.4769e-06	5.4201e-06	1344.6	363.6	5.4573e-06	5.3877e-06	417.49	141.55	122.02	42.567	5.393e-06	53.251	165.991	234.145	243.103	154.314	248.485	288.215	154.202	159.084	258.295	305.321	158.798	162.376	162.730	168.072	211.436	167.092	-8191	255	
8052.729	1	1	0	0	0.065927	0.2875	0.083756	0.22704	0.34817	0.075051	0.33865	0.10699	0.20703	0.23841	0.25052	0.10841	0.14273	0.15113	0.22357	0.068766	-1.9937	-2.6646	-1.9604	-2.7625	-2.5583	-2.1292	-2.9958	-2.3521	-2.2146	-2.625	-2.0542	-2.675	-2.45	-2.2729	-2.85	-2.2854	245.441	280.242	448.573	172.472	154.928	163.926	458.637	146.416	239.574	434.779	448.626	489.586	284.111	313.603	361.674	431.625	0.00072668	0.00069591	0.00010864	1334.2	4.8923e-06	6.1131e-06	1335.1	359.92	3.9232e-06	6.441e-06	414.93	140.59	121.25	41.804	4.8587e-06	52.357	0.00050655	0.00048584	0.00013647	1336.1	5.4102e-06	5.4266e-06	1343.8	363.38	5.3355e-06	5.3424e-06	418.16	141.86	121.96	42.535	5.3739e-06	53.121	164.425	249.002	170.519	154.383	262.713	325.154	154.401	158.982	291.614	265.793	158.588	162.268	163.003	168.020	280.944	167.008	-8191	255	
8052.825	1	1	0	0	0.24899	0.11887	0.21174	0.25182	0.042443	0.19344	0.15457	0.34603	0.2431	0.033265	0.14182	0.12954	0.10879	0.12567	0.053913	0.11405	-1.7687	-2.5312	-1.9021	-2.75	-2.5687	-2.075	-2.9896	-2.3396	-2.1896	-2.8271	-2.2771	-2.5979	-2.675	-1.9708	-2.7979	-2.5958	392.222	377.191	385.236	207.907	299.034	332.535	177.226	480.476	261.586	448.388	370.038	412.947	334.583	412.799	469.335	425.521	0.00076214	0.00035806	0.0001312	1334.5	4.0335e-06	4.3358e-06	1335.4	359.19	5.9958e-06	8.6531e-07	415.18	140.45	121.48	41.959	7.1056e-06	52.225	0.00050485	0.00048531	0.00013548	1338.5	5.3688e-06	5.3238e-06	1344.4	362.6	5.3372e-06	5.3153e-06	417.31	141.71	121.88	42.625	5.3058e-06	53.106	173.144	237.522	185.865	154.534	246.157	249.019	154.131	158.966	304.183	268.668	158.692	162.373	162.690	167.869	259.048	166.920	-8191	255	
8052.921	1	1	0	0	0.09878	0.15877	0.19279	0.066578	0.14512	0.09602	0.13494	0.2935	0.23802	0.21342	0.24827	0.16795	0.19212	0.12377	0.30763	0.34067	-1.6292	-2.6479	-2.1896	-2.5521	-2.7583	-2.225	-2.7208	-2.5729	-1.925	-2.8021	-2.3792	-2.3271	-2.9125	-2.0292	-2.7	-2.625	324.350	432.310	212.692	395.008	262.216	465.338	481.807	187.817	484.876	210.577	370.523	399.469	353.603	158.155	283.344	487.890	0.00069197	0.00018778	7.2698e-05	1337.6	4.2731e-06	1.2913e-06	1340.4	360.04	7.0108e-06	8.8559e-06	414.91	140.6	121.04	42.029	3.3046e-06	52.401	0.00049399	0.00047855	0.00013539	1336.7	5.3194e-06	5.3172e-06	1343.1	362.91	5.3402e-06	5.2726e-06	417.48	141.74	121.87	42.547	5.2383e-06	53.223	166.209	260.664	182.360	154.460	234.957	472.327	153.859	158.911	287.620	280.052	158.601	162.604	162.667	168.042	210.516	166.858	-8191	255	
8053.017	1	1	0	0	0.20799	0.078111	0.12642	0.089943	0.13505	0.12444	0.34478	0.36661	0.22808	0.098026	0.20181	0.13756	0.048283	0.23622	0.27639	0.26278	-1.6771	-2.7833	-2.2188	-2.3167	-2.5917	-2.0146	-2.8583	-2.6	-2.1458	-2.6667	-2.2833	-2.1979	-2.7625	-1.9562	-2.6125	-2.7604	491.896	301.972	482.255	380.572	241.802	356.523	465.348	499.063	177.128	191.864	151.209	180.922	354.730	458.465	201.620	478.471	0.00069396	0.00044396	0.00016236	1327.7	3.2811e-06	6.0837e-06	1331.2	358.74	5.8922e-06	7.5247e-06	414.6	140.26	121.29	41.821	6.8174e-06	52.323	0.00049578	0.00048139	0.00013233	1333.3	5.1989e-06	5.1986e-06	1341.7	362.49	5.2229e-06	5.1278e-06	416.94	141.42	121.83	42.431	5.1595e-06	53.14	163.988	274.644	240.837	154.291	273.667	266.777	154.160	158.708	289.185	269.825	158.581	162.817	162.912	168.080	272.615	166.843	-8191	255	
8053.114	1	1	0	0	0.27285	0.052809	0.23263	0.12787	0.046853	0.26707	0.30103	0.16835	0.15138	0.15491	0.34879	0.19424	0.062519	0.36155	0.091591	0.29654	-1.5083	-2.6729	-2.0521	-2.1125	-2.8083	-2.1688	-2.5729	-2.8792	-1.7687	-2.775	-2.4688	-2.1771	-2.8104	-2.1833	-2.2812	-2.7313	350.577	463.490	285.662	435.325	209.616	414.884	443.994	468.203	481.884	331.277	487.733	473.606	466.779	180.178	163.175	377.918	0.00067839	0.00062717	0.00013166	1334	5.3318e-06	6.1983e-06	1335.4	360.19	2.7062e-06	4.0708e-06	413.17	140.81	121.7	41.836	4.8072e-06	52.17	0.00047811	0.0004704	0.00013042	1335	5.2146e-06	5.1295e-06	1339.9	362.97	5.0908e-06	5.1509e-06	416.45	141.5	121.7	42.54	5.2026e-06	53.162	170.376	230.874	223.563	154.522	266.156	244.479	154.332	158.997	319.158	311.892	158.768	162.608	162.727	167.939	281.241	166.931	-8191	255	
8053.210	1	1	0	0	0.1876	0.22013	0.092698	0.14499	0.13735	0.39578	0.23504	0.38771	0.11636	0.071667	0.088987	0.10596	0.086475	0.16708	0.06828	0.11401	-1.5521	-2.5417	-2.3167	-2.1437	-2.7021	-2.1937	-2.55	-2.9708	-1.9479	-2.8937	-2.5604	-1.9833	-2.775	-2.2979	-2.2354	-2.8042	257.723	352.877	447.445	480.540	214.521	214.934	374.915	490.024	219.886	365.660	223.611	430.054	165.295	297.866	151.503	143.989	0.00068989	0.00041047	0.00012473	1331.1	5.4053e-06	8.3278e-06	1333.6	359.33	3.7942e-06	3.9154e-06	412.29	140.53	121.21	41.888	7.6687e-06	52.33	0.00048096	0.00047203	0.00013074	1332.9	5.1179e-06	5.1365e-06	1340.4	362.2	5.0805e-06	5.0409e-06	416.03	141.53	121.61	42.469	5.0673e-06	53.056	168.159	236.136	236.158	154.244	275.529	214.182	154.181	158.942	270.596	379.926	158.575	162.643	162.822	168.029	297.619	167.176	-8191	255	
8053.304	1	1	0	0	0.1663	0.18776	0.30141	0.17637	0.13232	0.11695	0.20647	0.51148	0.26664	0.12092	0.34882	0.20546	0.17747	0.3224	0.17786	0.23775	-1.7062	-2.6188	-2.7562	-2.1479	-2.6937	-2.3042	-2.5396	-2.9062	-2.1312	-2.5438	-2.6	-2.0687	-2.8104	-2.2792	-1.9875	-2.7271	158.095	332.255	458.385	436.756	285.166	239.222	452.812	468.571	298.738	479.661	471.690	468.037	291.335	481.301	239.983	435.667	0.00073572	0.00022604	0.00012515	1328	3.3576e-06	8.0243e-06	1333	360.88	5.4357e-06	1.3805e-06	414.21	140.51	120.83	41.761	4.7707e-06	52.128	0.00046725	0.00045499	0.00012682	1330.7	4.9558e-06	5.0471e-06	1338.3	362.45	4.9757e-06	4.9746e-06	416.11	141.32	121.24	42.43	5.0106e-06	53.017	165.429	303.874	304.024	154.398	265.879	265.376	154.271	159.162	287.379	253.408	158.417	162.581	162.847	168.114	247.305	167.156	-8191	255	
8053.402	1	1	0	0	0.09241	0.12184	0.22909	0.051131	0.043668	0.13576	0.10716	0.12606	0.065072	0.21505	0.14831	0.34437	0.13093	0.19541	0.14494	0.15322	-1.7167	-2.3646	-2.5917	-2.0542	-2.775	-2.3583	-2.2167	-3.0771	-2.0375	-2.2521	-2.7188	-2.0125	-2.7125	-2.5708	-1.9479	-2.9729	462.017	368.754	264.560	157.343	360.789	489.645	430.380	481.938	405.870	203.677	393.205	497.611	431.402	175.826	342.304	184.733	0.00071643	0.00031095	9.8217e-05	1330.8	6.9471e-07	6.2824e-06	1327.3	359.79	5.3653e-06	6.3083e-06	413.62	140.19	120.86	41.675	2.3092e-06	52.378	0.00046841	0.00046361	0.00012695	1330.8	5.0235e-06	5.0139e-06	1337.5	362.2	4.996e-06	5.017e-06	416.6	141.2	121.26	42.407	5.0664e-06	53.104	161.394	210.846	265.838	154.417	295.145	262.469	154.266	159.002	300.969	253.753	158.706	162.315	162.854	168.274	253.745	167.230	-8191	255	
8053.498	1	1	0	0	0.34617	0.15765	0.16244	0.24561	0.3748	0.22896	0.13349	0.31199	0.37097	0.45148	0.22778	0.25298	0.19856	0.35411	0.068693	0.12238	-1.5	-2.4708	-2.7604	-2.1937	-2.4938	-2.5167	-2.0687	-2.7896	-2.3583	-2.2375	-2.7958	-2.2729	-2.6271	-2.6375	-1.9417	-2.9229	398.576	193.680	142.818	184.563	212.482	358.151	456.593	423.003	203.159	498.901	452.600	474.582	388.316	334.709	143.596	416.232	0.00067807	0.00034904	7.8784e-05	1326.8	5.7608e-06	6.2437e-06	1334.2	359.93	6.1048e-06	1.5512e-06	413.45	140.29	121.34	42.056	5.0315e-06	52.41	0.0004675	0.00045178	0.00012611	1328.7	4.9893e-06	4.9391e-06	1338	361.88	4.9522e-06	4.92e-06	415.93	141.32	121.62	42.509	4.8902e-06	53.044	174.039	166.895	183.949	154.225	318.909	277.436	154.077	158.695	298.036	281.573	158.381	162.421	162.992	167.922	278.875	166.948	-8191	255	
8053.617	1	1	0	0	0.12978	0.21326	0.090996	0.30625	0.21356	0.14447	0.34817	0.091424	0.041362	0.015911	0.10455	0.15234	0.080048	0.27463	0.18273	0.19502	-1.7146	-2.0292	-2.7604	-2.0667	-2.4354	-2.6417	-2.3042	-2.8458	-2.2812	-2.0833	-2.8958	-2.1167	-2.4521	-2.6625	-2.0187	-2.6417	380.900	142.278	467.623	467.888	379.198	243.657	464.900	459.487	248.214	184.709	467.090	484.994	425.379	491.778	303.067	387.024	0.00079078	0.00073516	7.2822e-05	1325.6	7.7923e-07	3.3195e-06	1329.1	359.48	6.725e-06	3.4468e-06	413.87	140.46	120.71	41.895	5.0879e-06	52.508	0.00045697	0.00044335	0.00012296	1327.3	4.8456e-06	4.7775e-06	1337.6	361.94	4.8092e-06	4.8029e-06	416.19	141.3	121.22	42.454	4.8281e-06	53.106	161.860	249.237	241.453	154.294	254.634	311.381	153.996	158.775	261.351	298.647	158.398	162.104	162.643	167.776	236.113	166.856	-8191	255	
8053.713	1	1	0	0	0.085729	0.16159	0.12855	0.11488	0.24191	0.25685	0.25582	0.30754	0.051994	0.1566	0.23698	0.26976	0.24591	0.10366	0.17849	0.078254	-1.8813	-1.9667	-2.8146	-2.4125	-2.4833	-2.6437	-2.0625	-2.9146	-2.3104	-2.0687	-2.8333	-2.3333	-2.3312	-2.8646	-1.9646	-2.6354	218.993	376.965	355.508	496.460	276.181	305.306	449.866	418.489	348.517	251.369	444.044	456.624	461.078	458.266	167.814	396.223	0.00066145	0.0005647	0.00014266	1321.2	1.7882e-06	5.2953e-06	1332.9	360.05	6.9506e-06	6.1351e-06	414.22	140.28	121.2	41.936	5.3432e-06	52.344	0.00045441	0.00043531	0.00012077	1327.7	4.7258e-06	4.6659e-06	1336.1	362.13	4.7922e-06	4.7019e-06	415.97	141.09	121.42	42.465	4.8269e-06	53.026	170.384	233.717	224.755	154.102	292.235	284.233	153.800	158.910	293.639	308.409	158.430	162.198	162.784	168.141	293.974	166.745	-8191	255	
8053.809	1	1	0	0	0.23921	0.064242	0.085178	0.12481	0.084098	0.13029	0.13479	0.34125	0.41834	0.020246	0.15468	0.39542	0.1855	0.10329	0.053077	0.10031	-1.9646	-2.0604	-2.6833	-2.2521	-2.1312	-2.7792	-2.1354	-2.725	-2.4875	-2.05	-2.9208	-2.3729	-2.1792	-2.8396	-1.9479	-2.5833	185.290	271.178	214.311	315.198	401.685	339.805	460.580	413.258	484.695	330.777	479.828	491.085	244.032	240.506	472.396	383.155	0.0006769	0.00049034	4.9005e-05	1329.8	4.2109e-06	5.4755e-06	1331.3	359.86	4.2563e-06	6.3148e-06	413.46	140.47	120.87	42.006	2.7483e-06	52.407	0.0004549	0.00043712	0.00012132	1330.1	4.7965e-06	4.7718e-06	1337.9	361.99	4.8222e-06	4.8401e-06	416.85	141.41	121.17	42.436	4.8293e-06	53.072	168.872	224.029	287.389	153.812	239.264	234.139	153.902	158.770	302.559	373.333	158.296	162.126	162.320	167.414	281.533	166.845	-8191	255	
8053.906	1	1	0	0	0.030544	0.30821	0.1908	0.39692	0.20531	0.17873	0.14818	0.16901	0.19387	0.40219	0.11154	0.25971	0.23865	0.31005	0.10365	0.27484	-2.1479	-2.1625	-2.6833	-2.6125	-2.1292	-2.8708	-2.3354	-2.5062	-2.8729	-1.9667	-2.6333	-2.5563	-2.2354	-2.8458	-1.9917	-2.2021	232.841	426.375	278.749	483.591	195.860	199.574	440.227	149.561	429.879	345.559	174.262	425.670	265.917	205.022	282.025	423.070	0.00070834	0.00058474	0.00013884	1329.3	5.7423e-06	7.2032e-06	1333.6	360.29	4.1762e-06	4.0379e-06	413.4	140.47	120.99	41.99	3.6822e-06	52.073	0.00045765	0.00044481	0.00012376	1330.3	4.8526e-06	4.8851e-06	1338.3	361.92	4.9471e-06	4.9304e-06	416.21	141.39	121.57	42.476	4.8897e-06	53.073	168.029	199.931	247.831	153.956	253.320	269.348	153.699	158.862	315.374	238.862	158.354	162.029	162.768	167.685	265.169	167.031	-8191	255	
8054.002	1	1	0	0	0.15688	0.12346	0.21525	0.1934	0.15049	0.16899	0.35417	0.28193	0.03782	0.34654	0.16924	0.19215	0.2783	0.30327	0.15851	0.16894	-2.2542	-2.0417	-2.4729	-2.7604	-2.1188	-2.7708	-2.3333	-2.6229	-2.7875	-1.9479	-2.7375	-2.6771	-2.1604	-2.8833	-2.2479	-2.3667	285.287	144.831	417.920	460.706	302.864	313.392	473.623	410.892	416.152	422.402	144.244	448.695	190.750	459.574	472.170	484.799	0.000762	0.00069318	0.0002049	1326.3	3.1354e-06	1.7618e-06	1330.8	359.45	7.099e-06	6.4485e-06	412.56	140.32	121.26	41.854	3.4974e-06	52.152	0.00046347	0.00044163	0.00012499	1328.2	4.8489e-06	4.8481e-06	1337.3	362.25	4.8133e-06	4.826e-06	416.26	141.24	121.46	42.466	4.868e-06	52.985	172.502	217.209	222.851	154.149	256.963	476.100	153.747	158.723	294.159	299.945	158.271	162.107	162.219	167.855	280.924	166.953	-8191	255	
8054.098	1	1	0	0	0.14632	0.183	0.23452	0.17522	0.11816	0.35048	0.15764	0.37527	0.095573	0.16583	0.18254	0.035728	0.14624	0.21066	0.069874	0.24749	-2.3792	-1.9937	-2.5333	-2.675	-2.0438	-2.4979	-2.3792	-2.2313	-2.8854	-2.0812	-2.65	-2.9	-2	-2.6854	-2.5625	-2.2771	466.845	425.790	144.520	470.435	299.728	395.442	489.423	353.933	361.886	243.046	399.860	482.111	145.180	379.019	219.888	452.252	0.00063085	0.00061558	0.00011148	1325.6	2.9827e-06	5.4039e-06	1326.4	360.71	3.0435e-06	3.8177e-06	414.08	140.36	121.22	41.887	4.619e-06	52.373	0.00045388	0.00043859	0.00012425	1327.5	4.9227e-06	4.8452e-06	1335.6	362.28	4.8514e-06	4.9119e-06	416.33	141.32	121.56	42.391	4.9704e-06	53.054	172.519	235.678	246.064	154.158	223.402	248.800	153.915	158.776	285.303	276.203	158.316	161.883	162.592	167.673	226.948	167.094	-8191	255	
8054.218	1	1	0	0	0.10237	0.20701	0.063705	0.21678	0.17301	0.16903	0.19229	0.3566	0.13704	0.24507	0.14601	0.19316	0.22886	0.21204	0.3092	0.05032	-2.4104	-2.2062	-2.2729	-2.6583	-2.1625	-2.6896	-2.7354	-2.1458	-2.7375	-2.1229	-2.4917	-2.9208	-2.0062	-2.6208	-2.4417	-2.3646	153.822	226.147	257.255	158.905	395.249	328.812	383.914	462.621	282.008	351.555	431.700	329.536	427.248	492.799	247.951	361.136	0.00078298	0.00087655	0.00011382	1326.3	3.133e-06	7.2125e-06	1335.5	358.68	6.3439e-06	5.9677e-06	415.6	139.35	121.01	41.879	2.9417e-06	52.189	0.00047094	0.0004573	0.00012668	1328.3	4.9856e-06	4.9597e-06	1337.3	362.22	4.9658e-06	4.9284e-06	417.21	141.03	121.5	42.485	5.0195e-06	52.996	165.813	191.975	270.756	153.971	281.526	222.757	153.659	158.929	304.113	317.170	158.302	162.231	162.632	168.145	208.600	166.809	-8191	255	
8054.313	1	1	0	0	0.10208	0.29336	0.07547	0.17098	0.065947	0.054504	0.093745	0.13996	0.077118	0.074814	0.08616	0.20757	0.063572	0.12639	0.10062	0.18244	-2.4833	-2.1729	-2.0958	-2.8542	-1.975	-2.5687	-2.7938	-2.2104	-2.7292	-2.2375	-2.3792	-2.9729	-2.1625	-2.5896	-2.6875	-2.1333	141.788	254.164	426.797	444.040	441.201	253.984	194.322	153.768	164.789	437.736	449.850	475.677	446.660	141.676	199.256	338.998	0.00068129	0.00025345	9.9426e-05	1329	1.6783e-06	5.6217e-06	1326.3	359.68	6.0025e-06	2.0178e-06	412.74	139.74	121.47	41.924	3.5456e-06	52.02	0.00046901	0.00046164	0.00013036	1331.6	5.0119e-06	5.0202e-06	1337.1	362.49	5.0771e-06	5.1006e-06	416.71	141.34	121.75	42.442	5.0959e-06	53.007	168.011	256.698	170.329	154.261	230.694	346.058	153.666	158.850	242.321	320.434	158.270	162.163	162.492	167.781	303.941	166.733	-8191	255	
8054.409	1	1	0	0	0.29481	0.082002	0.17074	0.11231	0.077667	0.037956	0.11944	0.085292	0.25874	0.068172	0.24155	0.33763	0.17401	0.083908	0.1982	0.32435	-2.3	-2.2458	-2.05	-2.9625	-2.0938	-2.3958	-2.8292	-2.225	-2.8104	-2.2542	-2.2583	-2.9521	-2.2375	-2.5	-2.7333	-2.0687	366.254	208.923	280.540	373.522	239.863	164.660	194.811	407.962	426.150	284.841	435.939	402.701	191.598	463.905	382.372	180.722	0.00068729	0.00028918	0.00015527	1328	4.69e-06	5.1421e-06	1331.8	359.4	1.2429e-06	4.12e-06	413.09	140.08	121.36	41.824	2.8862e-06	52.117	0.00047707	0.00046166	0.00013048	1331	5.1338e-06	5.1067e-06	1336.8	362.07	5.0265e-06	5.0237e-06	416.72	141.27	121.75	42.413	4.9748e-06	53.076	175.668	304.549	221.243	154.245	266.596	263.047	153.884	158.695	343.812	352.854	158.506	162.132	162.238	167.851	236.716	167.089	-8191	255	
8054.505	1	1	0	0	0.17833	0.21607	0.1351	0.21527	0.049184	0.13952	0.42053	0.21718	0.19876	0.094763	0.1926	0.084549	0.085801	0.15702	0.11408	0.15329	-2.3354	-2.3521	-2.0292	-2.8896	-2.1042	-2.0938	-3.0583	-1.9979	-2.4458	-2.4417	-2.0438	-2.8708	-2.2146	-2.4313	-2.7021	-2.2042	147.616	431.110	264.275	390.205	495.993	378.373	416.271	423.756	468.167	196.372	395.004	208.017	232.935	444.835	466.966	432.307	0.00075329	0.00058186	0.00016517	1320.9	3.0295e-06	1.5039e-06	1331.7	359.14	4.5702e-06	2.401e-06	413.49	140.46	121.26	41.925	3.1489e-06	52.291	0.00046522	0.00044781	0.00012592	1327.6	4.9177e-06	4.9127e-06	1338.8	361.94	4.8273e-06	4.8956e-06	416.45	141.33	121.27	42.464	4.7643e-06	52.961	168.388	253.905	196.551	154.397	276.385	425.941	153.791	158.751	273.620	227.356	158.292	162.446	162.598	167.979	273.979	166.651	-8191	255	
#DATA ENDS
