BOXY.EXE: ISS Imagent and Oximeter Data Acquisition Program Version 0.80
Ascii Record File

#ACQ INFORMATION
2  Detector Channels 
16  External MUX Channels 
1  Auxiliary Channels 
5000  Waveform (CCF) Frequency (Hz)
1  Waveforms Skipped 
30  Waveforms Averaged 
1  Cycles Averaged 
16  Acquisitions per Waveform 
10.0806  Updata Rate (Hz) 

#FILE INFORMATION
TRUE -- External MUX Channel results are PARSED.
FALSE -- AC DC and Phase are NOT grouped.
TRUE -- Companion Program Settings File CREATED.
FALSE -- AC data not excluded
FALSE -- DC data not excluded
FALSE -- Phase data not excluded
FALSE -- Auxillary Chn. data not excluded
Tab delimiters

#CALIBRATION STATE
TRUE -- Waveform Calibration Values APPLIED.


#AUX CALIBRATION VALUES
Val Type	aux-1	

Term	1.0000e+00	
Factor	0.0000e+00	


#WF CALIBRATION VALUES
A = Detector Channel
Val Type	A-AC1	A-AC2	A-AC3	A-AC4	A-AC5	A-AC6	A-AC7	A-AC8	A-AC9	A-AC10	A-AC11	A-AC12	A-AC13	A-AC14	A-AC15	A-AC16	A-DC1	A-DC2	A-DC3	A-DC4	A-DC5	A-DC6	A-DC7	A-DC8	A-DC9	A-DC10	A-DC11	A-DC12	A-DC13	A-DC14	A-DC15	A-DC16	A-Ph1	A-Ph2	A-Ph3	A-Ph4	A-Ph5	A-Ph6	A-Ph7	A-Ph8	A-Ph9	A-Ph10	A-Ph11	A-Ph12	A-Ph13	A-Ph14	A-Ph15	A-Ph16	

Term	0.00000e+00	0.00000e+00	0.00000e+00	0.00000e+00	0.00000e+00	0.00000e+00	0.00000e+00	0.00000e+00	0.00000e+00	0.00000e+00	0.00000e+00	0.00000e+00	0.00000e+00	0.00000e+00	0.00000e+00	0.00000e+00	0.00000e+00	0.00000e+00	0.00000e+00	0.00000e+00	0.00000e+00	0.00000e+00	0.00000e+00	0.00000e+00	0.00000e+00	0.00000e+00	0.00000e+00	0.00000e+00	0.00000e+00	0.00000e+00	0.00000e+00	0.00000e+00	0.00000e+00	0.00000e+00	0.00000e+00	0.00000e+00	0.00000e+00	0.00000e+00	0.00000e+00	0.00000e+00	0.00000e+00	0.00000e+00	0.00000e+00	0.00000e+00	0.00000e+00	0.00000e+00	0.00000e+00	0.00000e+00	
Factor	1.00000e+00	1.00000e+00	1.00000e+00	1.00000e+00	1.00000e+00	1.00000e+00	1.00000e+00	1.00000e+00	1.00000e+00	1.00000e+00	1.00000e+00	1.00000e+00	1.00000e+00	1.00000e+00	1.00000e+00	1.00000e+00	1.00000e+00	1.00000e+00	1.00000e+00	1.00000e+00	1.00000e+00	1.00000e+00	1.00000e+00	1.00000e+00	1.00000e+00	1.00000e+00	1.00000e+00	1.00000e+00	1.00000e+00	1.00000e+00	1.00000e+00	1.00000e+00	X	X	X	X	X	X	X	X	X	X	X	X	X	X	X	X	

B = Detector Channel
Val Type	B-AC1	B-AC2	B-AC3	B-AC4	B-AC5	B-AC6	B-AC7	B-AC8	B-AC9	B-AC10	B-AC11	B-AC12	B-AC13	B-AC14	B-AC15	B-AC16	B-DC1	B-DC2	B-DC3	B-DC4	B-DC5	B-DC6	B-DC7	B-DC8	B-DC9	B-DC10	B-DC11	B-DC12	B-DC13	B-DC14	B-DC15	B-DC16	B-Ph1	B-Ph2	B-Ph3	B-Ph4	B-Ph5	B-Ph6	B-Ph7	B-Ph8	B-Ph9	B-Ph10	B-Ph11	B-Ph12	B-Ph13	B-Ph14	B-Ph15	B-Ph16	

Term	0.00000e+00	0.00000e+00	0.00000e+00	0.00000e+00	0.00000e+00	0.00000e+00	0.00000e+00	0.00000e+00	0.00000e+00	0.00000e+00	0.00000e+00	0.00000e+00	0.00000e+00	0.00000e+00	0.00000e+00	0.00000e+00	0.00000e+00	0.00000e+00	0.00000e+00	0.00000e+00	0.00000e+00	0.00000e+00	0.00000e+00	0.00000e+00	0.00000e+00	0.00000e+00	0.00000e+00	0.00000e+00	0.00000e+00	0.00000e+00	0.00000e+00	0.00000e+00	-1.96768e+02	-1.29699e+02	-1.34807e+02	-1.86339e+02	-7.54990e+01	-7.41266e+01	-1.58506e+02	-1.62015e+02	-8.93850e+01	-6.60437e+01	-1.71896e+02	-1.71132e+02	-1.83122e+02	-1.77420e+02	-7.77319e+01	-1.49721e+02	
Factor	4.32825e-05	1.44022e-04	4.41656e-05	2.97642e-01	1.53383e-06	1.64817e-06	1.64269e-01	5.16134e-02	1.72359e-06	1.70877e-06	8.37101e-02	2.83187e-02	3.98013e-02	9.20130e-03	1.82911e-06	1.31369e-02	6.94130e-06	8.10315e-06	2.27153e-06	1.56454e-01	8.77933e-08	8.93870e-08	8.17851e-02	2.74120e-02	8.57484e-08	8.94539e-08	4.31033e-02	1.45842e-02	2.12693e-02	4.93711e-03	8.74364e-08	6.82897e-03	X	X	X	X	X	X	X	X	X	X	X	X	X	X	X	X	



#DISTANCE SETTINGS
A = Detector Channel
A-1	A-2	A-3	A-4	A-5	A-6	A-7	A-8	A-9	A-10	A-11	A-12	A-13	A-14	A-15	A-16	

2.5000e+00	3.0000e+00	2.5000e+00	3.0000e+00	2.0000e+00	3.0000e+00	1.5000e+00	3.0000e+00	3.0000e+00	3.0000e+00	3.0000e+00	3.0000e+00	3.0000e+00	3.0000e+00	1.5000e+00	3.0000e+00	

B = Detector Channel
B-1	B-2	B-3	B-4	B-5	B-6	B-7	B-8	B-9	B-10	B-11	B-12	B-13	B-14	B-15	B-16	

1.0000e+01	1.0000e+01	1.0000e+01	1.4400e+00	1.0000e+01	1.0000e+01	1.5100e+00	1.9400e+00	1.0000e+01	1.0000e+01	1.9900e+00	2.4900e+00	2.4100e+00	2.9000e+00	1.0000e+01	2.9800e+00	




#DATA BEGINS
time	group	step	mark	flag	A-AC1	A-AC2	A-AC3	A-AC4	A-AC5	A-AC6	A-AC7	A-AC8	A-AC9	A-AC10	A-AC11	A-AC12	A-AC13	A-AC14	A-AC15	A-AC16	A-DC1	A-DC2	A-DC3	A-DC4	A-DC5	A-DC6	A-DC7	A-DC8	A-DC9	A-DC10	A-DC11	A-DC12	A-DC13	A-DC14	A-DC15	A-DC16	A-Ph1	A-Ph2	A-Ph3	A-Ph4	A-Ph5	A-Ph6	A-Ph7	A-Ph8	A-Ph9	A-Ph10	A-Ph11	A-Ph12	A-Ph13	A-Ph14	A-Ph15	A-Ph16	B-AC1	B-AC2	B-AC3	B-AC4	B-AC5	B-AC6	B-AC7	B-AC8	B-AC9	B-AC10	B-AC11	B-AC12	B-AC13	B-AC14	B-AC15	B-AC16	B-DC1	B-DC2	B-DC3	B-DC4	B-DC5	B-DC6	B-DC7	B-DC8	B-DC9	B-DC10	B-DC11	B-DC12	B-DC13	B-DC14	B-DC15	B-DC16	B-Ph1	B-Ph2	B-Ph3	B-Ph4	B-Ph5	B-Ph6	B-Ph7	B-Ph8	B-Ph9	B-Ph10	B-Ph11	B-Ph12	B-Ph13	B-Ph14	B-Ph15	B-Ph16	aux-1	digaux	

21598.613	1	1	0	256	0.0066984	0.17105	0.12764	0.13347	0.21159	0.26146	0.1376	0.50588	0.2163	0.2244	0.24552	0.12366	0.43319	0.44782	0.16837	0.063628	-2.2896	-2.2771	-2.9792	-2.425	-2.6625	-2.8667	-2.2854	-3.1146	-2.6667	-2.2375	-3.125	-2.4479	-2.4875	-3.05	-2.2687	-3.0729	201.640	277.148	280.214	438.037	162.394	214.036	397.189	418.920	327.803	130.188	96.393	296.476	438.838	103.660	386.692	305.667	0.0014116	0.00068517	0.00018842	1939.6	1.2687e-05	8.2055e-06	1724.1	571.58	9.2911e-06	2.3543e-05	551.8	175.18	186.2	63.037	7.0635e-07	65.899	0.00080985	0.00079998	0.00024289	1578.4	8.6125e-06	8.9491e-06	1404.2	468.37	9.0615e-06	9.5078e-06	450.47	143.67	152.5	52.329	9.6834e-06	54.336	96.216	177.405	181.008	99.168	220.179	219.964	98.168	104.524	209.922	217.546	102.569	106.928	109.603	114.804	247.644	110.285	-8191	255	
21598.734	1	1	0	0	0.10368	0.11317	0.15697	0.095466	0.18666	0.24824	0.13467	0.33013	0.05	0.082159	0.225	0.30597	0.085742	0.24612	0.04139	0.32567	-2.2417	-2.1229	-2.8646	-2.3542	-2.5062	-2.7604	-2.3146	-3.0917	-2.8479	-2.1271	-3.0687	-2.625	-2.4813	-3.05	-2.45	-2.7833	191.256	362.212	327.621	386.332	277.337	179.345	342.681	383.393	303.516	136.375	361.957	387.699	376.825	425.063	278.811	375.251	0.0011894	0.00063145	0.0002809	1928.7	1.1348e-05	1.6393e-05	1716.4	573.38	1.3845e-05	7.846e-06	553.93	174.46	185.28	63.221	9.3415e-06	65.239	0.00085171	0.00088269	0.00025032	1576.2	9.8409e-06	1.0019e-05	1401.8	468.92	9.5735e-06	1.0204e-05	452	142.95	151.6	52.274	1.0005e-05	54.204	105.722	147.220	184.017	98.572	263.654	230.648	98.076	104.695	220.861	270.506	103.117	106.531	109.171	114.744	241.542	110.873	-8191	255	
21598.830	1	1	0	0	0.088348	0.071373	0.22361	0.27784	0.041204	0.080403	0.24143	0.16409	0.017565	0.2049	0.35148	0.083196	0.19937	0.20147	0.18128	0.19337	-2.4938	-2.1771	-2.9229	-2.5917	-2.1688	-3.1333	-2.6146	-2.8146	-2.7875	-2.3208	-3.0542	-2.8583	-2.4542	-2.8854	-2.2687	-2.5	185.203	374.616	401.952	407.509	320.728	164.511	433.686	163.983	203.598	296.973	384.907	414.639	379.802	349.877	296.646	381.868	0.0011124	0.00057898	0.00040611	1932.3	1.3444e-05	9.1696e-06	1719.5	575.31	1.472e-05	1.3217e-05	549.23	176.17	186.04	63.753	8.2997e-06	66.4	0.00089705	0.0009167	0.00025878	1579.9	1.0245e-05	1.0132e-05	1403.9	469.82	9.733e-06	1.0055e-05	451.88	143.98	153.2	52.833	9.7652e-06	54.909	93.056	287.008	158.854	99.129	205.859	215.319	98.027	104.463	187.325	251.947	102.824	106.793	109.574	114.163	168.764	111.341	-8191	255	
21598.928	1	1	0	0	0.087697	0.10389	0.026046	0.49076	0.047699	0.20132	0.36939	0.22518	0.11184	0.19583	0.071176	0.091209	0.074378	0.28297	0.30395	0.28282	-2.3708	-2.225	-2.8063	-2.6312	-2.325	-2.8604	-2.4833	-2.7167	-2.875	-2.0604	-2.8833	-2.8396	-2.1146	-3.1	-2.3375	-2.5042	136.234	116.701	201.708	389.943	391.510	328.754	365.855	432.848	219.447	362.791	387.971	318.001	419.153	406.288	342.313	355.632	0.0016173	0.00090759	0.00027632	1938.6	1.091e-05	1.4366e-05	1734.2	575.79	1.1375e-05	1.6383e-05	550.56	175.14	187.64	63.454	1.1854e-05	66.369	0.00094162	0.00094169	0.00025202	1584.6	1.0146e-05	1.037e-05	1416	473.1	1.0178e-05	1.0319e-05	454.48	144.94	153.19	52.923	9.8772e-06	55.287	102.694	167.100	188.332	98.764	258.589	251.632	98.105	104.652	216.449	265.080	102.763	107.024	109.252	114.522	268.323	111.199	-8191	255	
21599.023	1	1	0	0	0.063762	0.16591	0.045833	0.2038	0.19926	0.36628	0.15747	0.36796	0.19865	0.12048	0.15915	0.34988	0.25988	0.2762	0.10656	0.053479	-2.7458	-1.9833	-2.7521	-2.7458	-2.3021	-3.0542	-2.7521	-2.5229	-2.8729	-2.3354	-2.8438	-2.7479	-2.1	-2.9813	-2.3646	-2.2083	296.816	401.028	332.050	388.491	163.671	209.636	386.617	373.638	352.504	198.603	141.117	436.373	100.359	409.333	161.729	415.905	0.0012201	0.00028936	0.00020206	1937	4.2413e-06	5.8505e-06	1737	579.79	1.3754e-05	9.3071e-06	560.57	177.08	187.19	64.023	9.5944e-06	65.957	0.00096632	0.00096159	0.00025227	1590.6	1.0796e-05	1.0124e-05	1427.2	475.53	1.0667e-05	1.0368e-05	460.2	145.98	154.46	53.311	9.491e-06	55.393	111.559	359.160	299.573	99.191	135.491	279.571	98.145	104.623	265.717	261.589	102.887	106.903	109.263	114.687	203.069	111.275	-8191	255	
21599.119	1	1	0	0	0.22246	0.17615	0.1466	0.13945	0.072047	0.055218	0.26764	0.23235	0.14712	0.048371	0.23528	0.31406	0.052125	0.31021	0.11155	0.15344	-2.6437	-2.1833	-2.4208	-2.9167	-2.0271	-2.9917	-2.6646	-2.3208	-3.0125	-2.3729	-2.6688	-3.0812	-2.0833	-2.9354	-2.6792	-2.2542	175.745	355.809	430.388	132.493	150.035	325.391	364.746	433.915	394.659	362.803	420.168	432.232	139.889	386.603	287.021	398.960	0.0012242	0.00051606	0.00022682	1952.3	8.7486e-06	1.091e-05	1743.6	578.77	7.3144e-06	4.0682e-06	559.4	179.55	187.26	63.671	1.5895e-05	67.086	0.00093141	0.0009192	0.00025605	1602.7	1.0209e-05	1.0042e-05	1432	477.15	1.0011e-05	9.8412e-06	462.07	147.11	154.5	53.134	9.9075e-06	55.899	101.996	155.422	222.578	98.948	261.303	217.516	98.097	105.033	195.809	221.121	102.400	107.021	109.481	114.723	219.701	111.210	-8191	255	
21599.215	1	1	0	0	0.068792	0.13555	0.24334	0.25861	0.4253	0.15304	0.148	0.41767	0.41028	0.38185	0.11817	0.22718	0.20172	0.19262	0.31656	0.28358	-2.725	-2.0229	-2.3667	-2.9229	-2.0375	-2.65	-2.8771	-2.3063	-2.9396	-2.3937	-2.5833	-3.1396	-2.4833	-2.8771	-2.5625	-2.4354	315.497	197.862	306.245	423.869	265.873	180.250	442.726	393.740	259.573	195.871	439.140	278.555	98.311	350.607	148.620	431.190	0.001251	0.00056063	0.00011452	1967.3	7.5113e-06	1.5609e-05	1752.6	581.24	1.3246e-05	8.0625e-06	562.42	175.7	186.56	63.525	8.7358e-06	66.076	0.00096104	0.00089214	0.00026081	1602.5	1.0621e-05	9.7676e-06	1435.4	477.22	9.7725e-06	9.8166e-06	461.81	145.15	153.85	52.907	1.0396e-05	55.044	102.037	196.852	139.458	98.858	198.775	223.853	98.101	104.658	233.454	246.819	102.990	106.922	108.922	114.659	219.170	111.432	-8191	255	
21599.334	1	1	0	0	0.23524	0.19381	0.20143	0.069021	0.090692	0.23214	0.43413	0.091408	0.31809	0.23362	0.34849	0.17028	0.36972	0.19748	0.22134	0.091662	-2.4792	-2.4771	-2.3417	-3.0625	-2.1896	-2.6396	-2.8854	-2.4104	-2.9521	-2.7042	-2.4146	-3.0833	-2.425	-2.6188	-2.9479	-2.3542	212.371	246.346	371.848	442.625	439.553	149.870	396.821	441.690	303.363	409.686	386.731	389.954	369.278	419.401	346.631	284.667	0.0013755	0.0008323	0.00011291	1975.9	1.0259e-05	4.9262e-06	1753	577.52	1.1195e-05	5.9934e-06	557.16	176.66	184.48	62.984	8.0038e-06	66.083	0.00094711	0.00094137	0.00026633	1608.8	1.004e-05	9.6365e-06	1433.3	474.62	9.7793e-06	1.0081e-05	459.6	145.43	152.75	52.641	1.0303e-05	55.055	98.679	172.201	191.971	98.623	230.227	131.377	98.071	104.734	204.084	259.666	102.947	106.944	109.356	115.034	246.849	111.188	-8191	255	
21599.430	1	1	0	0	0.064835	0.12071	0.14263	0.20559	0.041735	0.13368	0.26653	0.39221	0.081044	0.019488	0.33631	0.31278	0.18332	0.1965	0.1339	0.25727	-2.5979	-2.5792	-2.0896	-3.2083	-2.3521	-2.3854	-3.05	-2.2833	-2.7792	-2.7396	-2.3042	-3.025	-2.3021	-2.7583	-2.975	-2.1292	181.889	133.206	401.826	409.890	357.837	324.289	351.716	424.546	338.713	277.918	415.362	386.788	383.202	314.995	179.113	336.143	0.0011503	0.00035018	0.00022604	1957.6	1.5407e-05	3.9939e-06	1758.6	576.58	1.7377e-05	8.1325e-06	558.25	177.13	185.9	62.987	1.0878e-05	66.213	0.00089261	0.00090534	0.00026889	1607.1	9.9345e-06	1.0219e-05	1438.4	474.55	9.8925e-06	9.9575e-06	460.85	145.86	153.3	52.58	1.0745e-05	54.833	102.873	202.805	182.015	99.113	224.925	238.662	98.215	104.644	214.349	222.247	102.855	107.121	109.397	114.746	162.509	110.856	-8191	255	
21599.525	1	1	0	0	0.19966	0.19433	0.087188	0.20922	0.1123	0.30119	0.44959	0.28867	0.093556	0.28033	0.1255	0.13992	0.14935	0.20739	0.29205	0.28657	-2.2479	-2.65	-1.9958	-3.1271	-2.5458	-2.5312	-3.1688	-2.3417	-2.8583	-2.8583	-2.3104	-3.1417	-2.7687	-2.4437	-3.0729	-2.225	90.169	98.236	157.529	377.275	94.074	185.144	371.710	104.019	311.544	338.621	429.467	354.062	441.801	445.467	388.823	385.254	0.0015049	0.00073094	0.00021551	1974.3	1.7597e-05	1.8838e-05	1764.8	576.87	6.1789e-06	8.0059e-06	553.81	176.56	186.22	62.687	4.9461e-06	65.99	0.00091469	0.00091157	0.00026942	1613.6	1.0288e-05	1.0613e-05	1444.1	473.42	1.024e-05	1.0317e-05	459.02	145.56	152.68	52.471	1.056e-05	54.946	104.704	140.118	171.809	99.614	208.841	234.986	97.905	104.543	237.862	183.080	102.642	106.849	109.429	114.829	208.113	111.033	-8191	255	
21599.598	1	1	0	0	0.18316	0.25792	0.17075	0.16964	0.23387	0.2529	0.32378	0.27403	0.01257	0.15886	0.25409	0.20352	0.15292	0.031218	0.27138	0.14477	-2.2479	-2.8229	-2.2979	-2.8937	-2.6562	-2.3042	-3.225	-2.5646	-2.6542	-3.0125	-2.2167	-3.0354	-2.6833	-2.2771	-3.0271	-2.4146	373.181	339.644	375.349	376.272	185.232	437.742	431.352	382.169	370.832	117.332	145.130	387.233	350.494	219.029	137.884	233.381	0.0011507	0.0002548	0.00026748	1958.9	1.37e-05	1.5209e-05	1752.8	574.34	8.4637e-06	1.0219e-05	551.14	176.18	183.43	62.199	1.5773e-05	66.289	0.0009548	0.00096944	0.00026963	1607.6	1.0206e-05	1.0865e-05	1440.1	473.54	1.01e-05	1.0386e-05	456.41	145.01	151.99	52.179	1.0334e-05	54.543	106.132	112.679	200.571	99.010	240.821	217.212	98.198	104.538	193.602	207.846	102.988	107.440	109.304	114.853	265.991	110.864	-8191	255	
21599.719	1	1	0	0	0.12628	0.1306	0.095899	0.016841	0.12814	0.081941	0.27741	0.38618	0.095253	0.11828	0.4548	0.17067	0.33996	0.21709	0.095629	0.043553	-2.1688	-3.2	-2.1083	-2.9958	-2.7521	-2.2438	-3.1708	-2.5146	-2.4729	-2.9562	-2.3292	-2.7562	-3.0167	-2.3146	-2.8979	-2.5771	173.843	244.332	126.128	182.878	166.908	194.709	398.057	355.879	304.901	297.062	406.643	442.079	232.403	425.803	188.701	338.772	0.001557	0.00079983	0.00017368	1947.4	5.6229e-06	1.778e-05	1742.7	574.67	5.8005e-06	1.2836e-05	552.72	174.81	185.09	62.509	1.3086e-05	65.347	0.00097692	0.00096897	0.00026806	1600.7	1.0891e-05	1.0519e-05	1430.5	472.12	1.0406e-05	1.0853e-05	455.83	144.56	152.79	52.22	1.0267e-05	54.394	96.985	194.319	115.911	99.086	189.970	235.309	98.352	104.612	163.173	195.343	103.269	107.005	109.309	114.958	277.616	110.812	-8191	255	
21599.814	1	1	0	0	0.17818	0.025407	0.34898	0.22847	0.15613	0.018964	0.37232	0.26883	0.2522	0.26299	0.30161	0.27176	0.24724	0.3636	0.14526	0.14084	-1.9125	-2.9062	-2.2438	-3.0042	-2.8333	-2.2562	-3.0062	-2.6042	-2.2292	-2.8312	-2.4417	-2.7208	-3.0625	-2.4354	-2.9542	-2.6	296.038	195.173	438.074	109.450	402.828	212.201	383.374	438.416	315.383	227.601	432.939	397.586	425.984	401.881	132.636	223.169	0.0011084	0.00062751	0.00059987	1961	8.2864e-06	9.0754e-06	1742.6	574.29	2.1693e-05	7.3672e-06	558.41	175.13	183.35	62.756	1.7984e-05	65.534	0.00098143	0.00097732	0.00027276	1609.1	1.0676e-05	1.0775e-05	1433.9	472.77	1.0801e-05	1.0781e-05	457.64	144.88	152.09	52.429	1.0254e-05	54.802	110.321	181.935	190.720	99.318	292.162	265.498	98.290	104.910	195.094	278.103	102.599	107.066	109.284	115.072	221.996	110.627	-8191	255	
21599.910	1	1	0	0	0.09633	0.21968	0.19943	0.23088	0.3664	0.078539	0.26532	0.17632	0.18109	0.085359	0.061235	0.28572	0.19584	0.20156	0.10184	0.22383	-1.7979	-2.8937	-2.3208	-2.575	-2.8375	-2.2458	-3.1292	-2.9479	-2.1312	-3.0812	-2.4771	-2.5479	-3.0354	-2.3729	-2.7979	-2.8854	339.954	353.839	372.364	423.768	132.052	434.870	398.251	421.920	171.984	356.861	185.791	376.035	109.680	366.342	399.829	379.058	0.0013818	0.00051819	4.6358e-05	1954.6	6.2965e-06	4.0243e-06	1750.6	570.74	9.12e-06	8.5798e-06	553.56	177.19	184.88	62.626	1.6251e-05	65.757	0.00098403	0.00096289	0.00026021	1606.6	1.0607e-05	1.0446e-05	1438.4	471.44	1.0657e-05	1.0587e-05	457.27	145.92	152.62	52.313	1.0062e-05	54.921	106.198	237.139	221.601	99.008	182.840	239.642	98.417	104.693	201.279	272.150	102.684	107.450	109.623	114.966	206.083	110.981	-8191	255	
21600.008	1	1	0	0	0.073097	0.073095	0.21982	0.21996	0.31962	0.2369	0.13939	0.20942	0.089052	0.19877	0.30351	0.14617	0.31682	0.14493	0.1059	0.30898	-1.9771	-3.05	-2.3604	-2.6958	-2.9667	-2.0917	-2.8896	-2.9375	-2.3125	-3.075	-2.4646	-2.5312	-2.9771	-2.475	-2.6417	-2.8292	244.366	410.222	155.797	423.177	347.160	434.779	333.843	412.839	332.063	275.239	430.394	168.225	388.213	91.601	309.960	400.563	0.0014331	0.0010241	0.00021767	1957	6.8879e-06	1.3763e-05	1747.8	571.99	1.2713e-05	9.7225e-06	548.47	174.25	183.89	62.59	4.8535e-06	66.154	0.00099271	0.00097072	0.00026857	1600.7	1.0712e-05	1.0356e-05	1434.1	473.28	1.025e-05	1.0301e-05	455.2	144.5	152.34	52.28	1.034e-05	54.915	102.295	190.368	132.712	98.694	293.345	241.598	98.423	104.393	211.967	234.983	102.673	107.309	109.365	115.114	242.725	111.454	-8191	255	
21600.129	1	1	0	0	0.16269	0.095863	0.1678	0.27392	0.20779	0.32913	0.19059	0.20686	0.15358	0.17116	0.31474	0.38723	0.21521	0.24405	0.07652	0.063564	-1.7083	-2.8646	-2.4479	-2.4542	-2.9708	-2.2	-3.0583	-3.2833	-2.2625	-2.9729	-2.7417	-2.4188	-2.9854	-2.3417	-2.675	-3.1375	398.743	437.783	272.460	371.269	421.673	405.993	399.022	405.407	91.587	250.222	444.181	359.943	401.668	406.262	153.152	381.053	0.0012813	0.00087649	0.00017022	1946.9	8.921e-06	5.2338e-06	1746.4	570.27	4.0186e-06	1.5981e-05	549.94	175.14	183.27	62.292	1.3957e-05	65.655	0.00099065	0.00090862	0.00026532	1603.7	1.0515e-05	1.0122e-05	1433.9	471.72	1.0668e-05	1.0105e-05	455.11	145.15	152.13	52.193	1.0814e-05	54.923	108.314	163.742	101.199	98.875	174.033	215.601	98.603	104.728	178.661	242.399	102.508	107.013	109.187	115.078	238.057	111.491	-8191	255	
21600.199	1	1	0	0	0.21264	0.11792	0.026323	0.3378	0.040751	0.15324	0.29677	0.4629	0.20516	0.060438	0.31815	0.18878	0.12713	0.21279	0.11445	0.12742	-1.8729	-2.8396	-2.6146	-2.4229	-3.1646	-2.5271	-2.7021	-3.1875	-2.2458	-2.8354	-2.9208	-2.525	-3.1167	-2.725	-2.425	-3.0687	342.696	251.039	130.256	410.582	446.142	103.997	432.248	413.003	436.548	159.451	405.726	438.792	92.093	403.841	235.230	373.779	0.0012531	0.00027387	0.00012581	1948	8.9649e-06	1.0218e-05	1748.8	573.39	1.1154e-05	1.1666e-05	547.99	175.55	184.42	62.145	4.7812e-06	65.268	0.00095333	0.00093586	0.00026965	1606.1	1.0588e-05	1.0267e-05	1437.3	472.44	1.0585e-05	1.0837e-05	456.05	145	152.58	52.244	1.0957e-05	54.752	106.083	426.635	379.865	99.254	206.918	241.054	98.277	104.375	221.001	224.843	103.021	107.412	109.623	114.729	213.652	111.394	-8191	255	
21600.295	1	1	0	0	0.11217	0.087566	0.18911	0.20892	0.1365	0.15192	0.23346	0.32566	0.13402	0.24149	0.28838	0.15027	0.22118	0.23713	0.055471	0.15565	-2.0167	-2.725	-2.9854	-2.2438	-3.0354	-2.4146	-2.4646	-3.3354	-2.3125	-2.4896	-3.0312	-2.5	-2.7604	-2.7292	-2.3708	-2.9625	183.388	162.502	288.642	409.819	124.188	248.265	375.598	380.483	266.558	347.648	386.518	375.906	438.106	443.627	413.838	409.687	0.0013464	0.00017703	1.4241e-06	1946.6	4.0993e-06	1.0233e-05	1738.6	571.06	1.1393e-05	9.1313e-06	555.29	175.23	181.32	62.438	7.7947e-06	65.411	0.00096136	0.00093151	0.00028248	1602.4	1.0063e-05	1.0456e-05	1439.3	471.64	9.9465e-06	1.0642e-05	458.44	145.31	152.56	52.361	1.0961e-05	54.909	107.118	172.985	101.038	99.240	236.697	213.508	98.060	104.437	247.951	164.540	102.377	107.482	109.204	115.193	214.887	111.428	-8191	255	
21600.416	1	1	0	0	0.067901	0.10352	0.12063	0.22826	0.054031	0.021789	0.40388	0.23907	0.068213	0.16474	0.26063	0.43105	0.15247	0.125	0.24819	0.24789	-1.8667	-2.6417	-2.7687	-2.3042	-2.7958	-2.6479	-2.5833	-3.2438	-2.3187	-2.6417	-3.0396	-2.2979	-2.9021	-2.8438	-2.2583	-3.1083	190.803	337.811	294.716	328.062	430.321	188.124	397.174	422.250	193.055	218.344	403.351	385.388	439.387	405.245	332.555	380.770	0.0013778	0.0008374	0.00010999	1942.6	1.0464e-05	1.0677e-05	1752.8	573.09	1.4359e-05	5.6697e-06	552.56	176.08	184.34	62.401	3.4557e-06	65.865	0.00095518	0.00097422	0.00028007	1608.3	1.0242e-05	1.0813e-05	1447.6	473.11	1.0194e-05	1.0926e-05	459.01	145.71	152.8	52.344	1.0683e-05	54.965	99.832	169.184	218.974	98.651	254.417	230.442	98.601	104.728	195.154	212.136	102.904	107.525	109.115	114.441	172.365	110.858	-8191	255	
21600.510	1	1	0	0	0.13941	0.099367	0.086864	0.19747	0.059735	0.13471	0.21761	0.26559	0.17095	0.062336	0.10732	0.032177	0.30008	0.29936	0.1187	0.34644	-1.9896	-2.4229	-3.0521	-2.3604	-2.8542	-2.7958	-2.4042	-2.9646	-2.4104	-2.4	-3.1667	-2.3479	-2.6229	-2.8875	-2.2125	-3.0229	400.937	271.996	361.474	415.985	367.458	179.624	284.717	424.247	375.032	181.060	430.097	225.207	145.778	430.193	122.759	415.942	0.0014611	0.00087469	0.00026127	1937.9	1.3892e-05	7.5654e-06	1747.3	569.38	1.0577e-05	7.0768e-06	551.92	174.49	182.24	61.598	9.3226e-06	64.944	0.00098827	0.00098433	0.00028344	1600.7	1.0499e-05	1.0944e-05	1443.5	471.82	1.0579e-05	1.1021e-05	456.43	144.04	151.43	51.706	1.0849e-05	54.353	95.781	152.075	138.903	99.085	229.487	255.141	98.388	104.853	252.885	251.577	103.227	107.561	109.060	114.565	230.484	111.557	-8191	255	
21600.607	1	1	0	0	0.15913	0.02177	0.14348	0.17318	0.060114	0.051362	0.49022	0.2463	0.066376	0.12419	0.17442	0.22454	0.15849	0.21592	0.18834	0.27127	-1.9854	-2.4875	-2.9792	-2.225	-2.7667	-3.0542	-2.475	-3.0604	-2.5896	-2.3104	-2.9833	-2.5083	-2.4958	-2.8625	-2.1813	-3	127.223	130.658	110.164	415.843	330.753	318.140	400.424	116.823	102.620	315.476	104.967	410.564	302.392	97.528	287.913	320.100	0.001255	0.0011138	0.00040264	1935.8	1.3967e-06	3.1331e-06	1739.3	571.48	4.3377e-06	9.6589e-06	545.37	173.04	180.51	61.556	1.1459e-05	64.153	0.00098193	0.00097398	0.00027589	1600.2	1.0874e-05	1.1039e-05	1434.1	471.44	1.1017e-05	1.1121e-05	452.69	143.2	151.07	51.619	1.0482e-05	53.962	94.110	181.365	194.378	99.246	281.951	230.624	98.716	104.693	175.803	214.797	103.297	107.408	109.255	114.636	193.722	111.029	-8191	255	
21600.727	1	1	0	0	0.10839	0.32691	0.18316	0.32094	0.02543	0.30472	0.2326	0.28255	0.10657	0.10766	0.14115	0.060847	0.096572	0.11803	0.26946	0.15618	-2.2354	-2.1583	-2.9083	-2.5	-2.4938	-2.9062	-2.6271	-2.8646	-2.7083	-2.3083	-3.1771	-2.5083	-2.6083	-3.1417	-2.2792	-2.8563	386.049	443.279	154.242	319.283	247.338	153.806	417.670	387.881	408.806	444.961	139.439	246.347	410.530	153.479	170.401	397.238	0.0013309	0.00083124	0.00029757	1933.4	6.2371e-06	9.7406e-06	1747.6	566.62	1.3446e-05	1.4936e-05	546.6	172.93	181.24	60.575	1.7173e-05	64.411	0.0010108	0.0010146	0.00026553	1595.9	1.0817e-05	1.1001e-05	1435.8	468.38	1.1171e-05	1.1108e-05	453.76	143.14	150.25	51.051	1.0196e-05	54.058	105.207	163.467	172.744	98.862	217.804	219.023	98.568	104.688	212.085	193.404	102.712	107.447	109.477	114.911	187.886	111.307	-8191	255	
21600.822	1	1	0	0	0.25502	0.1821	0.15627	0.077206	0.047313	0.086497	0.29478	0.27046	0.2035	0.1095	0.035853	0.17763	0.18741	0.022745	0.24886	0.20423	-2.1896	-2.1292	-2.9854	-2.6271	-2.3438	-2.8812	-2.2958	-2.9208	-2.6188	-2.1646	-3.0583	-2.6479	-2.4729	-3.0042	-2.1917	-2.8167	363.420	170.281	251.192	306.930	208.974	441.033	325.877	409.618	328.566	381.932	424.200	166.095	171.996	326.843	429.594	102.137	0.0012194	0.00096604	0.00014394	1935.4	1.0509e-05	6.0766e-06	1732.7	567.38	1.017e-05	5.9364e-06	546.14	172.85	178.73	60.644	1.7093e-05	64.027	0.0009932	0.0010038	0.00026058	1600.7	1.0762e-05	1.0669e-05	1430.8	468.23	1.0848e-05	1.0951e-05	452	142.65	149.19	50.813	1.0394e-05	53.703	96.821	167.357	342.979	99.306	241.135	214.637	98.130	104.840	217.383	249.142	103.416	106.944	109.646	114.901	244.884	111.394	-8191	255	
21600.895	1	1	0	0	0.27083	0.23411	0.036885	0.22285	0.032998	0.26023	0.082417	0.42954	0.1706	0.13143	0.11366	0.25095	0.27188	0.37887	0.072697	0.29907	-2.5125	-2.2417	-2.8896	-2.725	-2.2313	-2.8667	-2.55	-2.7792	-2.9458	-2.2812	-3.2583	-2.8271	-2.3708	-3.1625	-2.3937	-2.7313	90.227	227.224	259.320	394.472	213.416	249.568	310.444	386.324	98.826	129.596	292.878	97.256	398.545	418.818	271.063	358.234	0.0012956	0.0010124	0.00023165	1931.7	7.5829e-06	9.3159e-06	1745	562.19	6.4012e-06	5.7739e-06	542.3	171.94	181.04	60.642	6.0702e-06	64.581	0.00097532	0.0009751	0.00027373	1593	1.1414e-05	1.0905e-05	1437.3	466.83	1.0774e-05	1.0742e-05	450.58	142.52	150.14	51.099	1.0676e-05	53.978	110.638	244.370	160.844	99.080	280.870	217.137	98.582	104.569	242.910	289.559	103.200	107.225	109.187	115.427	251.987	111.306	-8191	255	
21601.016	1	1	0	0	0.089273	0.13522	0.2407	0.33496	0.15262	0.13902	0.1329	0.12337	0.1027	0.11425	0.10333	0.11697	0.35356	0.050605	0.19463	0.19172	-2.5854	-2.2292	-2.9146	-2.7771	-2.2521	-3.0604	-2.6708	-2.7687	-3.0604	-2.3396	-2.9313	-2.7938	-2.2771	-3.1125	-2.5521	-2.4021	216.492	364.519	421.395	376.419	95.878	315.170	393.191	105.933	111.841	289.102	380.149	395.451	414.429	367.990	393.232	404.669	0.0015159	0.0006596	0.00034847	1942	1.2335e-05	7.2368e-06	1722.7	562.77	5.1581e-06	6.0771e-06	540.11	172.79	179.92	61.068	9.561e-06	64.326	0.00098824	0.00097618	0.00026646	1594.2	1.113e-05	1.0548e-05	1426.1	466.35	1.0777e-05	1.0811e-05	450.14	143.28	149.84	51.437	1.0854e-05	53.902	102.547	173.103	190.615	98.577	220.415	266.106	98.331	104.678	185.752	230.443	103.195	107.365	109.205	115.042	200.211	111.302	-8191	255	
21601.111	1	1	0	0	0.0085347	0.062621	0.052954	0.10292	0.30537	0.17821	0.11763	0.1732	0.20444	0.17143	0.16874	0.17715	0.18473	0.33175	0.15955	0.25096	-2.675	-2.1021	-2.6729	-2.9437	-2.0583	-2.8667	-2.7417	-2.4792	-2.9938	-2.375	-2.9604	-2.9667	-2.125	-2.825	-2.6458	-2.4375	260.508	396.568	303.467	442.989	97.968	370.926	374.279	394.359	134.673	445.106	106.335	401.464	432.178	412.073	262.848	406.343	0.0011089	0.0011346	0.00015783	1941.9	3.3821e-06	4.8899e-06	1721.4	565.09	8.329e-06	8.758e-06	541.98	172.76	181.45	61.841	1.553e-05	64.827	0.0010067	0.00094998	0.00028166	1598.5	1.1116e-05	1.0772e-05	1425.9	467.8	1.0695e-05	1.0828e-05	452.56	143.24	151.45	51.816	1.1201e-05	54.27	105.556	181.552	240.151	98.790	267.232	230.210	98.251	104.874	442.238	220.266	103.200	106.760	109.297	114.990	229.573	111.551	-8191	255	
21601.207	1	1	0	0	0.12966	0.20283	0.21383	0.45919	0.066229	0.13952	0.17589	0.14407	0.13071	0.058512	0.14042	0.26753	0.30809	0.30852	0.021383	0.31609	-2.5708	-2.3771	-2.5875	-3.0125	-2.0625	-2.9042	-2.8521	-2.4354	-2.8125	-2.4188	-2.5729	-3.2417	-2.2979	-2.9417	-2.9083	-2.3937	166.499	399.522	204.767	414.839	295.804	211.447	348.927	360.292	137.738	187.250	124.299	429.866	418.948	410.800	415.173	376.511	0.0011954	0.0004901	0.00018005	1941.2	6.868e-06	6.2941e-06	1733.8	565.05	1.2765e-05	1.0773e-05	547.21	172.65	180.56	61.353	8.4942e-06	64.256	0.00096961	0.00098912	0.00028763	1601.9	1.0635e-05	1.0776e-05	1432.2	468.55	1.0208e-05	1.1239e-05	451.49	143.11	150.02	51.476	1.1324e-05	53.797	108.469	194.957	217.588	99.007	221.286	230.797	97.852	104.633	222.364	229.357	103.301	107.363	109.117	114.912	242.523	111.004	-8191	255	
21601.305	1	1	0	0	0.40009	0.09788	0.10886	0.19402	0.23135	0.070326	0.29982	0.11881	0.17444	0.13129	0.32436	0.23664	0.34738	0.24906	0.13343	0.12989	-2.8354	-2.3	-2.3438	-3.0938	-2.2896	-2.6958	-3.0604	-2.3354	-2.9146	-2.5729	-2.4479	-3.0458	-2.3167	-2.8792	-2.9167	-2.4354	443.209	210.804	231.078	181.567	89.627	239.137	415.773	361.328	265.361	171.806	351.934	386.911	421.440	431.279	210.765	365.068	0.0014111	0.00037184	0.00031173	1940.4	9.5145e-06	3.2404e-06	1723.2	563.22	7.4314e-06	5.1088e-06	542.23	171.34	178.19	60.873	1.9015e-05	63.991	0.00099252	0.0010273	0.00029395	1602.7	1.0731e-05	1.1262e-05	1428.1	467.67	1.0642e-05	1.1508e-05	451.17	142.06	148.88	51.316	1.1356e-05	53.657	103.767	424.377	179.723	98.957	223.787	239.264	98.406	104.668	205.885	208.170	103.339	107.511	109.695	114.992	215.272	111.683	-8191	255	
21601.424	1	1	0	0	0.2212	0.15412	0.37147	0.21169	0.26325	0.16174	0.30364	0.34616	0.090804	0.30018	0.15907	0.23173	0.2556	0.24944	0.32906	0.19402	-2.4875	-2.5292	-2.1917	-2.8812	-2.4708	-2.7104	-2.9521	-2.4979	-2.8	-2.6708	-2.3812	-3.1312	-2.4833	-2.5375	-2.8104	-2.3375	376.255	91.229	335.414	141.854	114.607	344.491	378.656	385.329	431.672	295.102	381.841	386.189	351.532	421.382	425.011	418.184	0.0014135	0.00039298	0.00031714	1934.6	1.4415e-05	7.7225e-06	1727.3	562.89	1.2216e-05	6.5768e-06	538.66	171.77	179.43	61.161	1.1552e-05	63.973	0.0010461	0.0010714	0.00030206	1600.5	1.1144e-05	1.1884e-05	1427.4	467.48	1.1401e-05	1.2026e-05	451.3	142.62	149.8	51.328	1.1234e-05	53.379	100.832	223.707	86.932	99.269	258.000	260.240	98.328	104.786	195.381	238.209	102.566	107.326	109.053	115.207	281.407	110.891	-8191	255	
21601.494	1	1	0	0	0.055975	0.15621	0.17669	0.21152	0.17117	0.21962	0.45847	0.30182	0.28494	0.011062	0.072915	0.14711	0.12343	0.38022	0.26556	0.1744	-2.4375	-2.8354	-2.1813	-2.9125	-2.3792	-2.6292	-3.2521	-2.4292	-2.8292	-2.8896	-2.4917	-3.2896	-2.5229	-2.6063	-3.1354	-2.3792	238.672	443.758	179.707	109.308	206.307	406.314	380.793	377.360	256.081	96.065	135.908	426.186	329.758	407.552	355.748	356.008	0.0010085	0.00025548	3.3071e-05	1929	1.1202e-05	1.3404e-05	1722.3	564.95	7.3069e-06	2.0849e-05	533.99	171.99	180.48	60.599	1.5113e-05	64.606	0.0010001	0.0010452	0.00029359	1603.5	1.1669e-05	1.2002e-05	1427.8	467.07	1.1473e-05	1.1778e-05	450.31	143.08	150.64	51.449	1.1285e-05	54.19	101.537	107.376	168.193	99.075	243.229	242.836	98.459	104.669	141.360	198.753	103.056	107.311	109.374	115.258	222.647	111.139	-8191	255	
21601.592	1	1	0	0	0.16258	0.13731	0.13625	0.06872	0.28479	0.18791	0.3295	0.35652	0.16629	0.055002	0.27758	0.22323	0.20127	0.40538	0.043849	0.33171	-2.5604	-2.8312	-2.1333	-3.0854	-2.5792	-2.4833	-3.1688	-2.4271	-2.7208	-2.7917	-2.4854	-3.0187	-2.6104	-2.4437	-3.1875	-2.3563	102.719	405.932	406.914	227.735	378.018	239.920	350.651	366.351	139.321	187.287	388.981	360.002	378.385	409.472	255.706	376.188	0.0011631	0.00058326	0.00014197	1944.2	8.264e-06	7.8622e-06	1727.2	566.34	1.9702e-05	3.6794e-06	543.01	172.76	180.51	61.212	2.0229e-05	63.81	0.001129	0.0011619	0.0003113	1609.1	1.2635e-05	1.2839e-05	1434.2	469.74	1.2875e-05	1.3095e-05	453.59	143.93	151.19	51.646	1.2205e-05	53.729	100.808	157.733	421.002	98.973	273.844	236.147	98.211	104.848	208.520	221.282	103.184	107.337	109.400	114.842	280.579	111.196	-8191	255	
21601.688	1	1	0	0	0.10268	0.088314	0.1453	0.19753	0.28	0.14999	0.13655	0.14467	0.23223	0.35022	0.072922	0.35936	0.12674	0.16829	0.10693	0.21282	-2.3229	-2.9	-2.1875	-3.0292	-2.3375	-2.225	-3.1646	-2.4792	-2.6333	-3.025	-2.325	-3.0792	-2.8583	-2.4292	-3.025	-2.5	258.072	424.729	356.485	426.302	376.154	196.033	389.499	381.941	231.794	144.784	269.721	425.648	435.664	394.406	124.874	442.660	0.0013549	0.00090511	0.00028365	1930	1.6202e-05	9.3837e-06	1733.7	563.43	1.0965e-05	5.5916e-06	545.88	172.53	182.26	61.031	1.7275e-05	64.346	0.0011468	0.0011519	0.00031009	1606.6	1.2656e-05	1.2928e-05	1435.4	468.62	1.2226e-05	1.232e-05	453.81	143.82	151.72	51.599	1.1209e-05	54.247	103.389	146.525	108.451	98.867	237.187	175.973	98.556	104.762	247.628	203.611	102.804	106.962	109.154	115.195	211.392	111.236	-8191	255	
21601.809	1	1	0	0	0.090163	0.084053	0.13183	0.21781	0.12167	0.022398	0.25295	0.19333	0.12578	0.38905	0.089691	0.22943	0.41893	0.18413	0.10438	0.055926	-2.0917	-2.8625	-2.1479	-3.0125	-2.7812	-2.3021	-3.2021	-2.6833	-2.3792	-2.9854	-2.525	-2.775	-2.9771	-2.2938	-2.9479	-2.7333	228.875	309.765	225.925	439.203	354.577	154.587	410.589	409.115	181.569	100.119	352.983	378.956	404.127	427.195	209.759	373.807	0.0011057	0.00091306	0.00016784	1932.9	1.2905e-05	7.4805e-06	1735	559.55	1.1024e-05	1.5145e-05	543.51	171.64	179.56	60.844	1.5242e-05	63.347	0.0010726	0.0010641	0.00029424	1605.3	1.2156e-05	1.1693e-05	1434.6	467.24	1.2335e-05	1.1519e-05	451.8	142.95	150.82	51.285	1.176e-05	53.427	103.621	168.804	199.158	99.562	291.832	182.527	98.440	104.917	246.533	199.126	103.202	107.518	108.924	114.787	266.908	111.316	-8191	255	
21601.904	1	1	0	0	0.26678	0.16543	0.30715	0.34526	0.16142	0.03854	0.17049	0.2234	0.21797	0.22329	0.20027	0.19328	0.30442	0.12621	0.1676	0.033033	-1.975	-3.0521	-2.4375	-2.8917	-2.8438	-2.2646	-3.1688	-2.8271	-2.2125	-2.9104	-2.3417	-2.6583	-3.0375	-2.1833	-2.8063	-2.6771	213.460	306.358	329.306	387.860	230.968	345.835	434.673	407.662	275.075	375.891	405.409	443.269	118.149	430.048	113.094	304.883	0.0012568	0.0011343	0.00015328	1930.3	1.0432e-05	6.8726e-06	1716	563.5	1.5178e-05	3.0015e-06	539.61	170.66	180.73	60.483	3.8689e-06	63.112	0.0010648	0.0010306	0.00029867	1605.3	1.2063e-05	1.1472e-05	1428	468.55	1.1636e-05	1.1299e-05	449.34	142.26	150.49	51.118	1.1606e-05	53.357	107.888	138.108	174.324	99.075	189.020	196.200	98.477	104.600	165.455	123.276	102.863	107.362	109.597	114.650	143.388	111.657	-8191	255	
21602.000	1	1	0	0	0.070307	0.19476	0.11303	0.25825	0.099096	0.14304	0.21394	0.31127	0.036246	0.15573	0.17739	0.12429	0.22789	0.073872	0.32697	0.1803	-1.7271	-3.0396	-2.3271	-2.5667	-2.9417	-2.275	-2.9729	-2.9062	-2.3396	-3.1688	-2.475	-2.625	-3.1188	-2.3708	-2.7667	-2.8979	325.387	117.716	380.335	111.348	206.156	279.092	373.578	389.084	315.209	417.625	378.107	392.277	379.817	317.511	409.060	332.023	0.0011728	0.0011484	0.00025319	1938.3	1.6273e-05	2.1208e-05	1727.7	563.01	2.0815e-05	3.9005e-06	540.2	171.05	179.53	60.821	5.811e-06	63.574	0.0010433	0.0010054	0.00030158	1609.1	1.1255e-05	1.1856e-05	1432.9	469.59	1.1275e-05	1.1342e-05	450.05	143.42	150.42	51.534	1.1431e-05	53.65	104.784	174.872	170.546	99.234	217.192	263.498	98.363	104.603	215.259	242.014	103.148	107.200	109.285	115.350	166.536	111.444	-8191	255	
21602.096	1	1	0	0	0.37502	0.26883	0.20296	0.41563	0.036077	0.17608	0.44278	0.18767	0.058087	0.20364	0.14978	0.081031	0.025315	0.25747	0.091178	0.17427	-1.7938	-2.9396	-2.4104	-2.3667	-2.9083	-2.225	-2.9042	-2.9542	-2.1813	-2.6729	-2.5667	-2.4271	-3.0083	-2.3979	-2.5417	-3.0896	115.774	263.522	124.962	341.328	288.454	373.298	362.858	363.828	88.973	164.400	342.996	349.564	196.809	413.894	258.732	372.244	0.0013668	0.00027639	0.00043147	1937.2	8.3062e-06	8.7928e-06	1733.2	569.82	1.536e-05	9.2487e-06	540.89	169.54	181.12	61.02	1.3986e-05	63.567	0.0010347	0.0010363	0.00030581	1611.1	1.1175e-05	1.1607e-05	1440.4	471.4	1.069e-05	1.1267e-05	452.53	142.12	150.8	51.455	1.1769e-05	53.915	101.772	253.206	192.316	99.639	240.554	240.481	98.484	104.840	240.677	176.532	103.328	107.442	109.087	114.383	212.274	111.742	-8191	255	
21602.191	1	1	0	0	0.10805	0.18957	0.17067	0.19544	0.44292	0.15832	0.22088	0.24345	0.27902	0.14251	0.3055	0.046681	0.16571	0.27913	0.28789	0.13906	-1.8167	-2.7979	-2.6479	-2.2354	-2.8771	-2.4188	-2.8083	-3.125	-2.2354	-2.9479	-2.8479	-2.4667	-3.0875	-2.3875	-2.5396	-3.0958	211.201	156.747	316.821	419.308	191.533	316.197	397.846	368.277	286.282	383.335	324.903	141.472	280.719	108.828	194.175	399.098	0.0011387	0.00054846	0.00018417	1935.2	7.1926e-06	9.8494e-06	1732.1	567.56	1.3094e-05	1.4566e-05	541.97	170.47	180.3	60.908	7.0597e-07	63.083	0.00097558	0.001023	0.00030138	1611	1.1329e-05	1.1508e-05	1437.8	471.17	1.0824e-05	1.1461e-05	451.46	142.27	149.94	51.2	1.1692e-05	53.198	105.601	204.408	146.045	99.072	247.249	312.410	98.351	104.622	202.702	221.107	102.749	107.204	109.327	114.784	115.719	111.783	-8191	255	
21602.287	1	1	0	0	0.14751	0.12158	0.28153	0.15161	0.17657	0.15633	0.36357	0.33675	0.20013	0.19957	0.17975	0.32588	0.13348	0.29373	0.07875	0.19347	-1.9771	-2.7833	-2.5938	-2.5083	-3.0583	-2.3146	-2.6417	-3.2542	-2.2667	-2.7938	-2.9208	-2.2896	-3.0958	-2.5125	-2.4562	-3.2188	124.360	104.678	168.383	400.691	399.873	154.248	332.593	446.600	432.659	149.085	445.233	423.244	433.252	95.009	277.684	385.973	0.001162	0.0010299	0.00012644	1934.7	9.6593e-06	9.2319e-06	1723.6	563.15	1.2142e-05	5.6901e-06	537.21	167.6	178.13	59.849	1.6723e-05	62.282	0.00099829	0.0010761	0.00029915	1609.8	1.1301e-05	1.171e-05	1430.7	467.7	1.1044e-05	1.1805e-05	447.91	139.87	149.15	50.517	1.189e-05	52.568	109.038	169.293	120.895	99.158	182.524	196.478	98.459	104.896	231.261	242.366	103.149	107.444	109.507	114.785	217.031	111.235	-8191	255	
21602.406	1	1	0	0	0.32589	0.23402	0.10053	0.21697	0.07544	0.30809	0.35203	0.10938	0.030191	0.13239	0.18607	0.12851	0.15098	0.1129	0.046824	0.19729	-1.7208	-2.7917	-2.8438	-2.2896	-3.0229	-2.6312	-2.5229	-3.2729	-2.2979	-2.7438	-2.9979	-2.2104	-3.0333	-2.6312	-2.425	-3.3375	117.787	355.694	261.931	355.672	177.951	422.791	375.084	413.186	186.421	312.081	323.948	102.772	89.875	101.377	435.797	415.822	0.0011108	0.00093252	0.00027924	1957.8	6.5948e-06	7.4996e-06	1722.3	564.66	1.4446e-05	6.8166e-06	538.75	168.06	178.97	59.252	8.3644e-06	62.605	0.0010533	0.0010466	0.00028954	1613.6	1.1186e-05	1.1551e-05	1433.1	468.22	1.1551e-05	1.1559e-05	447.65	140.6	149.54	50.426	1.106e-05	52.655	110.915	183.951	184.081	99.197	266.532	318.676	98.488	104.491	202.740	231.476	102.746	106.965	109.332	115.074	189.468	111.339	-8191	255	
21602.504	1	1	0	0	0.05435	0.12908	0.19317	0.25327	0.082528	0.3593	0.27022	0.12483	0.17751	0.051786	0.36985	0.39655	0.066323	0.085747	0.21911	0.28011	-2.0187	-2.6437	-2.7292	-2.3479	-2.7188	-2.6562	-2.7458	-3.1354	-2.5521	-2.6146	-3.1146	-2.4021	-2.8104	-2.7062	-2.125	-3.0771	142.774	357.153	382.242	434.638	406.481	428.900	374.579	414.524	178.343	400.531	422.142	423.880	269.898	446.632	365.690	301.536	0.0013768	0.0007993	0.00020564	1945.5	4.8233e-06	1.1179e-05	1733.6	561.8	2.1681e-05	1.0116e-05	538.71	169.16	178.79	60.411	9.832e-06	63.31	0.0010738	0.0010738	0.00028071	1613.9	1.1863e-05	1.185e-05	1440.4	468.93	1.1495e-05	1.1925e-05	451.96	141.54	149.82	51.097	1.1471e-05	53.207	103.564	87.605	182.598	99.160	178.994	209.342	98.425	104.803	219.172	231.272	102.736	107.510	109.671	114.878	281.656	111.358	-8191	255	
21602.600	1	1	0	0	0.089638	0.088048	0.070805	0.032535	0.125	0.29318	0.1592	0.27279	0.36189	0.12208	0.042532	0.41489	0.20345	0.25851	0.19405	0.19807	-1.8729	-2.3083	-3.0812	-2.4313	-2.7562	-2.8833	-2.2396	-3.2833	-2.4542	-2.2854	-3.1042	-2.2021	-2.7562	-3.0125	-2.2021	-3.0604	221.611	276.531	436.546	378.828	240.898	431.537	339.629	437.595	354.148	182.971	269.565	119.624	213.574	397.876	383.974	419.502	0.0013686	0.00088478	0.00017131	1945.2	6.6466e-07	9.4265e-06	1735.6	565.94	1.9884e-05	6.3203e-06	543.38	170.69	179.55	60.213	1.5315e-05	63.002	0.0010907	0.0010885	0.00028057	1620.7	1.1751e-05	1.1492e-05	1443.7	471.68	1.1893e-05	1.1751e-05	452.58	142.51	150.68	51.047	1.1331e-05	53.024	104.031	188.616	274.611	99.065	140.045	256.792	98.485	104.770	213.350	204.698	102.925	107.316	109.324	114.997	225.597	111.389	-8191	255	
21602.695	1	1	0	0	0.13587	0.24124	0.11353	0.22416	0.1762	0.14948	0.24465	0.51586	0.1538	0.044711	0.34394	0.12772	0.23396	0.23612	0.2114	0.037535	-2.1417	-2.3146	-2.9896	-2.3479	-2.6	-2.875	-2.6146	-3.1125	-2.6542	-2.3708	-3.2354	-2.5125	-2.7	-3.0438	-2.2271	-2.9771	356.705	141.748	170.116	104.345	244.518	274.938	378.676	424.307	327.286	130.682	407.367	236.661	423.216	407.338	367.213	438.000	0.0014078	0.00067521	0.00025158	1960.7	7.7137e-06	5.7792e-06	1727	568.45	4.9662e-06	6.9273e-06	535.98	167.78	178.86	58.87	2.0369e-05	61.125	0.0010811	0.0010466	0.00028853	1624	1.1844e-05	1.1268e-05	1437.6	472.47	1.177e-05	1.1292e-05	448.44	140.59	149.77	50.094	1.1211e-05	51.876	98.836	177.881	125.634	99.609	188.598	303.404	98.546	104.904	249.364	226.244	103.038	107.547	109.675	114.731	209.413	111.411	-8191	255	
21602.793	1	1	0	0	0.18645	0.11984	0.18632	0.25912	0.30397	0.11064	0.28399	0.36275	0.12774	0.32548	0.23936	0.14052	0.20556	0.26844	0.12563	0.18531	-2.3333	-1.9979	-3.0229	-2.3208	-2.4021	-3.0125	-2.325	-2.8563	-2.7188	-2.2896	-3.0542	-2.5375	-2.5187	-3.0062	-2.2458	-2.7833	130.374	91.533	350.633	96.317	416.645	405.263	401.190	400.081	143.099	288.954	386.409	96.458	412.083	437.745	128.803	201.075	0.0011857	0.00065073	0.00024658	1946.3	4.0896e-06	7.4259e-06	1709.7	556.18	9.9344e-06	1.8369e-06	526.17	165.02	176.68	58.278	6.2478e-06	60.454	0.0010608	0.0010123	0.00028594	1616.4	1.1444e-05	1.1063e-05	1428.2	465.16	1.1213e-05	1.1084e-05	443.16	138.37	147.67	49.363	1.141e-05	51.157	111.678	322.270	136.902	99.262	224.925	263.760	98.425	105.069	234.915	128.890	103.283	106.792	109.053	114.942	198.515	111.293	-8191	255	
21602.889	1	1	0	0	0.12949	0.097371	0.11447	0.31912	0.15636	0.053984	0.095074	0.20273	0.11852	0.37995	0.1996	0.3275	0.15347	0.25923	0.094986	0.21632	-2.4437	-2.1562	-2.8438	-2.7146	-2.2188	-3.0021	-2.4208	-2.7625	-2.7521	-2.2396	-2.9458	-2.5792	-2.5396	-3.125	-2.2042	-2.7125	136.583	304.915	193.313	380.886	190.125	413.753	425.792	400.481	189.091	369.130	114.979	91.963	150.939	91.746	388.340	307.054	0.0011962	0.00026904	0.00035526	1928.2	4.0055e-06	1.9953e-06	1715	557.17	1.7615e-05	4.4146e-06	527.52	163.73	174.72	58.341	1.3631e-05	59.777	0.0010085	0.0010143	0.00030774	1607.9	1.1528e-05	1.0885e-05	1426.2	464.44	1.1441e-05	1.103e-05	441.66	137.12	146.63	49.188	1.1315e-05	50.672	102.324	195.029	147.785	99.252	158.723	196.664	98.093	104.718	216.467	281.527	103.113	107.023	109.185	114.953	215.463	111.425	-8191	255	
21602.984	1	1	0	0	0.062818	0.18366	0.17413	0.048101	0.21379	0.20465	0.25306	0.26479	0.17178	0.17324	0.096915	0.1026	0.18233	0.40089	0.17427	0.2294	-2.5271	-2.0917	-2.7271	-2.8563	-2.2417	-3.0979	-2.5438	-2.7062	-3.0583	-2.2479	-3.0687	-2.9667	-2.2396	-2.9813	-2.55	-2.5312	115.292	382.798	399.918	199.607	256.820	310.865	379.141	392.872	322.378	103.816	177.042	408.681	100.178	383.259	317.760	346.575	0.001099	0.00046535	0.00031068	1925.9	1.3256e-05	9.177e-06	1723	557.73	1.1301e-05	1.1092e-05	526.02	165.33	175.39	58.381	1.5723e-05	60.335	0.0010225	0.0010075	0.00029763	1610.4	1.1147e-05	1.0893e-05	1431.6	465.1	1.1019e-05	1.1541e-05	443.8	138.2	147.36	49.33	1.1815e-05	51.015	111.326	276.424	180.223	98.816	258.425	314.782	98.201	104.643	220.958	234.449	103.257	106.798	109.704	114.820	179.872	111.346	-8191	255	
21603.080	1	1	0	0	0.16834	0.095333	0.090985	0.27381	0.24881	0.054715	0.1562	0.17956	0.069359	0.072455	0.22251	0.20175	0.21761	0.12024	0.15698	0.023571	-2.7542	-2.2542	-2.7521	-2.7375	-2.0292	-2.9604	-2.6896	-2.6896	-2.8979	-2.3396	-2.8896	-2.7958	-2.3458	-2.8937	-2.475	-2.3937	122.800	186.673	149.016	429.871	319.586	192.869	363.932	384.172	202.586	302.317	396.913	98.924	120.284	374.180	212.478	403.739	0.0013157	0.00049517	0.00015544	1962.2	1.0326e-05	8.9484e-06	1749.5	565.1	7.4867e-06	9.6985e-06	539.76	166.47	175.82	59.45	7.7446e-06	60.822	0.00098287	0.0010717	0.00031128	1613.3	1.1154e-05	1.184e-05	1426.1	463.41	1.116e-05	1.1906e-05	440.46	137	145.58	49.229	1.2142e-05	50.553	104.045	152.840	238.082	97.985	228.786	218.618	96.840	103.435	222.046	278.800	102.002	105.691	108.523	113.558	201.828	110.199	-8191	255	
21603.199	1	1	0	0	0.07297	0.37243	0.023584	0.24311	0.15261	0.086706	0.22676	0.33188	0.19825	0.12407	0.48379	0.087875	0.18668	0.04882	0.07202	0.26786	-2.5458	-2.1562	-2.7396	-3.0521	-2.0062	-2.7708	-2.7833	-2.5396	-2.9771	-2.1646	-2.6667	-2.8875	-2.1146	-3.0625	-2.7042	-2.5062	316.647	197.015	399.380	420.977	240.033	115.436	416.597	383.421	444.366	220.398	370.397	364.568	124.858	225.385	319.594	406.819	0.0011903	0.00081998	0.00028987	1972.8	4.297e-06	7.3756e-06	1736.5	565.65	9.3147e-06	1.6191e-05	539.03	166.08	178.47	59.422	4.616e-06	60.87	0.00099553	0.0010901	0.00030412	1614.7	1.1742e-05	1.2056e-05	1423	464.44	1.1447e-05	1.2431e-05	441.54	136.62	146.79	49.516	1.182e-05	50.596	105.585	213.858	174.356	97.921	141.338	265.064	97.241	103.627	220.703	230.409	102.021	105.855	108.248	114.281	162.409	109.574	-8191	255	
21603.295	1	1	0	0	0.027956	0.088439	0.22647	0.25817	0.09323	0.22597	0.32344	0.16039	0.099722	0.17491	0.10888	0.25105	0.20057	0.10155	0.14889	0.2867	-2.5229	-2.3021	-2.6292	-2.9646	-2.2333	-2.8229	-2.8729	-2.3	-2.875	-2.4417	-2.625	-3.0021	-2.1042	-2.7625	-2.8917	-2.3354	363.955	199.912	145.466	445.006	373.693	294.714	363.843	352.492	285.904	189.765	229.688	413.790	356.029	205.838	138.102	351.511	0.0012031	0.0010463	0.00029917	1976.1	2.6224e-06	4.9492e-06	1735.3	564.22	1.4922e-05	6.4204e-06	536.79	166.47	178.47	59.357	5.9248e-06	61.288	0.0010363	0.001099	0.00030897	1612.6	1.1486e-05	1.2078e-05	1424.9	462.35	1.1765e-05	1.2333e-05	441.66	136.68	147.3	49.42	1.1569e-05	51.035	102.045	309.052	125.812	97.725	229.407	145.026	96.681	103.506	251.735	251.848	101.870	106.037	108.555	113.486	199.502	109.914	-8191	255	
21603.369	1	1	0	0	0.045745	0.1839	0.30064	0.25801	0.28246	0.095035	0.17144	0.31155	0.16865	0.15369	0.13442	0.24996	0.26262	0.094344	0.23508	0.38525	-2.4167	-2.3604	-2.1646	-3.1458	-2.2396	-2.8479	-3.0229	-2.3187	-2.9667	-2.5354	-2.475	-3.1375	-2.35	-2.8208	-2.6562	-2.0729	197.344	416.067	399.421	385.465	398.653	93.245	328.655	99.690	373.476	161.679	405.083	415.121	424.118	398.533	369.865	307.687	0.0013403	0.0006686	3.0709e-05	1961.8	2.1997e-05	1.5432e-05	1743.7	568.42	1.5382e-05	7.3696e-06	540	165.94	178.21	60.21	1.688e-05	61.184	0.0010872	0.0011117	0.0003102	1612.9	1.2269e-05	1.2233e-05	1427.6	465.25	1.1814e-05	1.1926e-05	444.11	137.33	146.81	49.8	1.1484e-05	51.026	100.566	158.780	345.493	97.631	245.759	229.210	97.001	103.512	214.700	245.071	101.739	105.904	107.925	113.705	254.615	110.300	-8191	255	
21603.488	1	1	0	0	0.17917	0.27725	0.10804	0.20291	0.25906	0.12442	0.10561	0.2343	0.052101	0.13455	0.25192	0.27209	0.28327	0.32778	0.17135	0.19525	-2.3271	-2.3354	-2.2354	-3.0479	-2.3417	-2.6229	-3.125	-2.3958	-2.9208	-2.6417	-2.4646	-3.0042	-2.5229	-2.7875	-2.9396	-2.2062	407.557	370.397	112.549	434.069	385.492	430.856	397.150	371.317	398.036	342.891	379.002	412.064	394.917	444.700	405.760	426.548	0.00096385	0.00044838	0.00010177	1968.1	6.0099e-06	7.4846e-06	1747	563.71	1.4913e-05	7.4786e-06	537.39	167.11	178.01	58.729	3.9057e-06	60.916	0.0010598	0.0011033	0.00029517	1613.9	1.201e-05	1.2103e-05	1430.8	464.32	1.1839e-05	1.1871e-05	442.44	137.47	146.84	49.251	1.0888e-05	50.836	104.650	189.180	200.713	98.209	173.693	249.284	97.192	103.785	201.157	212.748	101.860	105.856	108.160	114.015	278.335	110.233	-8191	255	
21603.584	1	1	0	0	0.10002	0.079958	0.17215	0.25445	0.3055	0.22382	0.43212	0.33352	0.016124	0.23	0.30709	0.043503	0.22327	0.17944	0.10535	0.10972	-2.525	-2.7583	-2.1104	-3.1188	-2.2104	-2.275	-3.2729	-2.5021	-2.8146	-2.5875	-2.3979	-3.1396	-2.5646	-2.4396	-2.8438	-2.5271	394.316	396.357	241.922	364.621	286.296	164.299	350.680	431.350	185.683	181.040	330.904	100.864	168.556	442.821	262.848	330.839	0.0012483	0.00011417	2.3772e-05	1983.9	1.2789e-05	1.5484e-05	1751.4	562.95	7.7174e-06	1.6015e-06	537.51	165.11	179.51	59.097	1.088e-05	60.648	0.0010626	0.0010232	0.0002909	1618.5	1.1981e-05	1.1627e-05	1429.4	462.35	1.1461e-05	1.1571e-05	441.36	136.54	147.08	49.227	1.136e-05	50.558	92.108	256.871	416.542	98.019	306.477	279.342	97.185	103.538	194.190	296.805	101.886	106.137	107.972	113.752	228.845	110.245	-8191	255	
21603.680	1	1	0	0	0.17422	0.13821	0.04043	0.12704	0.13333	0.27191	0.34794	0.28422	0.18493	0.030313	0.079399	0.13605	0.15052	0.24175	0.20528	0.018615	-2.2604	-2.7396	-2.1792	-2.8875	-2.4708	-2.0875	-3.1542	-2.3042	-2.6604	-2.8604	-2.3354	-3.0271	-2.6937	-2.2667	-3.1271	-2.3833	181.458	345.660	225.976	396.380	231.429	96.467	411.772	371.694	340.071	388.731	434.089	420.419	111.268	87.606	348.721	165.068	0.0012243	0.0013029	0.00019267	1969.9	2.9693e-06	6.8327e-06	1739.4	559.86	1.9004e-05	1.3042e-05	529.47	164.35	175.89	58.52	2.7188e-06	59.582	0.0010502	0.0010374	0.00028768	1611.6	1.1929e-05	1.1333e-05	1422.1	459.87	1.1795e-05	1.0906e-05	435.86	135.16	144.62	48.449	1.1585e-05	49.775	109.649	191.516	174.714	98.088	298.269	198.243	97.282	103.422	177.577	239.554	101.405	106.227	108.401	113.900	154.576	110.066	-8191	255	
21603.775	1	1	0	0	0.085799	0.23558	0.11334	0.18627	0.10867	0.18326	0.38897	0.41913	0.27786	0.24039	0.12951	0.14138	0.11233	0.17812	0.25787	0.39341	-2.0771	-2.9167	-2.2062	-2.8896	-2.7604	-2.3312	-3.1667	-2.5417	-2.3125	-2.8688	-2.3396	-2.8479	-2.7208	-2.3625	-2.9583	-2.4354	121.194	248.209	424.654	130.807	313.318	169.030	388.209	369.807	154.296	316.054	92.872	276.917	91.984	87.052	330.029	115.574	0.0013044	0.0013146	9.9064e-05	1970.2	1.2718e-05	4.6199e-06	1745.4	561.84	9.5263e-06	9.47e-06	530.61	165.11	174.88	57.824	1.1685e-05	60.026	0.0010451	0.0010342	0.00029428	1611.5	1.1653e-05	1.1136e-05	1423.5	460.5	1.1299e-05	1.0976e-05	436.11	135.55	143.9	48.338	1.1597e-05	49.993	111.519	159.992	308.748	98.216	153.912	273.920	96.961	103.450	266.227	228.567	101.769	106.068	108.265	113.974	209.333	110.709	-8191	255	
21603.896	1	1	0	0	0.36782	0.074055	0.2403	0.20842	0.12404	0.30286	0.33306	0.39154	0.1383	0.05353	0.23096	0.26235	0.11683	0.17499	0.047301	0.24397	-1.9333	-2.9437	-2.1875	-2.775	-2.725	-2.125	-3.1542	-2.6146	-2.2583	-2.9958	-2.2938	-2.8042	-2.8896	-2.2687	-2.9958	-2.5125	250.763	256.957	138.294	125.721	331.703	258.383	379.368	382.493	261.630	445.138	370.716	338.185	384.286	392.557	420.882	380.085	0.00093161	0.00062778	0.00031767	1972.8	9.6756e-06	5.4467e-06	1752.3	560.85	1.0691e-05	9.2396e-06	531.88	166.23	177.08	58.624	2.1677e-05	60.407	0.0010076	0.001007	0.00030516	1611.5	1.0831e-05	1.1689e-05	1426.4	459.97	1.1655e-05	1.1023e-05	437.23	136.24	145.12	48.814	1.1735e-05	50.179	104.740	148.344	125.487	98.220	269.939	224.316	97.440	103.720	225.007	248.796	101.736	105.897	108.374	114.050	238.802	110.469	-8191	255	
21603.992	1	1	0	0	0.15366	0.17105	0.046771	0.19188	0.2422	0.23759	0.18686	0.26808	0.060646	0.31604	0.077805	0.1961	0.071908	0.14816	0.15527	0.54092	-1.8708	-3.0479	-2.3208	-2.6104	-2.7521	-2.1625	-2.9708	-2.8438	-2.2354	-3.0271	-2.4521	-2.6458	-2.7771	-2.1688	-2.95	-2.75	174.018	97.132	439.625	419.872	350.418	168.133	325.419	276.722	284.382	350.796	216.066	444.832	398.215	168.364	299.029	389.230	0.0010602	0.0004656	0.00021153	1953.7	1.2557e-05	1.048e-05	1742.2	563.55	4.6077e-06	5.7416e-06	531.86	166.08	178.53	58.922	9.6671e-06	60.418	0.0010002	0.0010588	0.00028439	1610.2	1.1112e-05	1.1997e-05	1427.4	462.33	1.1173e-05	1.1965e-05	437.91	136.49	146.37	49.162	1.215e-05	50.315	100.177	195.948	173.494	98.099	235.264	203.409	97.569	103.384	270.673	217.270	101.782	105.914	108.008	114.223	219.476	110.198	-8191	255	
21604.090	1	1	0	0	0.20718	0.053144	0.10732	0.42177	0.2229	0.059466	0.33861	0.29184	0.15942	0.30045	0.20952	0.097737	0.31676	0.44591	0.060154	0.092904	-1.7896	-3.0146	-2.2271	-2.4958	-2.7542	-2.1104	-2.9021	-2.7667	-2.2333	-3.0708	-2.4896	-2.2333	-2.9625	-2.3042	-2.7604	-2.8104	363.949	393.890	350.026	437.906	405.337	308.398	405.708	321.545	276.957	265.382	422.645	325.620	333.307	430.862	312.265	269.286	0.001038	0.00061755	0.00017192	1979.1	4.1836e-06	6.295e-06	1729.6	562.99	9.3739e-06	9.7918e-06	532.89	163.92	179.01	59.256	3.4678e-06	60.056	0.0010053	0.0010798	0.0003105	1614.8	1.1274e-05	1.2291e-05	1416.8	461.12	1.103e-05	1.2155e-05	438.54	135.43	146.5	49.212	1.1909e-05	50.198	104.426	183.929	181.205	98.013	212.505	194.618	97.644	103.579	225.483	287.853	101.839	106.086	108.325	113.573	398.326	109.844	-8191	255	
21604.186	1	1	0	0	0.32112	0.10826	0.1982	0.055884	0.14546	0.075917	0.52273	0.40688	0.27643	0.23335	0.16747	0.067763	0.14309	0.23911	0.23878	0.16263	-1.6396	-2.8042	-2.4813	-2.3792	-3.0563	-2.2979	-2.7417	-3.2042	-2.0312	-2.8	-2.5438	-2.4771	-3	-2.4667	-2.4292	-2.925	438.081	111.901	167.508	203.459	381.219	90.652	306.216	391.431	413.583	115.247	372.379	111.167	433.882	441.522	213.702	116.135	0.0011668	0.00066489	0.0003478	1967.8	4.6193e-06	3.3261e-06	1732.7	564.27	1.5846e-05	2.4305e-06	528.45	165.44	176.72	58.51	1.3768e-05	60.406	0.0010143	0.0010534	0.00031072	1610.9	1.1595e-05	1.1825e-05	1420.3	461.4	1.165e-05	1.2091e-05	437.97	135.81	145.93	48.842	1.1491e-05	50.205	113.760	188.966	173.079	98.749	129.235	115.701	97.708	103.675	201.301	247.627	101.903	106.407	108.240	113.982	202.325	109.596	-8191	255	
21604.281	1	1	0	0	0.22508	0.29284	0.039106	0.19733	0.2139	0.23979	0.46788	0.50876	0.030221	0.013369	0.062491	0.036113	0.01459	0.18059	0.12749	0.24981	-1.7542	-2.7458	-2.5604	-2.2479	-2.9021	-2.6167	-2.6333	-3.0563	-1.9917	-2.6562	-2.7896	-2.1063	-2.8917	-2.3896	-2.3083	-2.9229	316.319	120.150	95.647	391.007	170.775	174.579	387.115	373.521	430.594	107.317	382.807	415.769	274.395	110.076	98.586	360.889	0.0010617	0.0004157	7.4312e-05	1965.3	1.1954e-05	1.4218e-05	1723.2	560.88	9.5049e-06	3.0767e-06	533.99	165.9	177.84	58.961	6.4083e-06	60.136	0.0010325	0.0010783	0.00028841	1606.4	1.1574e-05	1.1782e-05	1415.4	460.91	1.1908e-05	1.1836e-05	440.19	136.57	146.49	49.099	1.1377e-05	50.227	116.604	217.441	330.142	98.302	211.127	229.568	97.488	103.852	184.627	369.630	101.899	106.345	108.305	113.910	195.623	110.534	-8191	255	
21604.377	1	1	0	0	0.22904	0.09204	0.2809	0.14608	0.158	0.015701	0.47429	0.26647	0.079994	0.25738	0.21085	0.25042	0.10189	0.37291	0.10008	0.13646	-1.7313	-2.6375	-2.6667	-2.2521	-2.7875	-2.6083	-2.6375	-3.0375	-2.3042	-2.6729	-3.075	-2.1042	-2.9833	-2.6312	-2.3125	-3.2979	175.389	103.440	243.627	90.431	188.396	157.470	326.920	379.887	254.515	122.923	90.901	443.888	174.969	425.784	224.836	400.108	0.0014792	0.00059257	0.00034069	1970.9	3.2923e-06	6.5529e-06	1737.4	560.91	1.2853e-05	1.122e-05	527.56	164.13	176.54	58.573	1.0438e-05	60.151	0.0010592	0.0010347	0.00029841	1610.7	1.1658e-05	1.1591e-05	1420.8	460.53	1.1768e-05	1.1957e-05	436.41	135.33	145.56	48.657	1.1162e-05	49.678	104.345	143.759	150.785	98.203	227.492	291.519	97.410	104.073	209.925	251.524	101.474	106.186	108.274	114.171	217.401	110.632	-8191	255	
21604.496	1	1	0	0	0.14768	0.21863	0.42516	0.16778	0.12172	0.21714	0.38358	0.40021	0.049545	0.10325	0.27133	0.073991	0.071834	0.19724	0.30752	0.36627	-1.8208	-2.6	-2.9354	-2.1854	-2.7771	-2.5792	-2.3625	-3.1729	-2.3875	-2.5292	-3.1937	-2.3604	-2.9188	-2.7562	-2.2687	-3.0604	266.945	311.032	409.863	120.347	324.307	313.981	401.777	397.130	320.400	212.622	109.290	415.692	246.319	287.162	96.870	373.806	0.0012976	0.00021282	0.00017677	1961.1	2.5131e-07	3.7981e-06	1724.7	558.91	1.1327e-05	5.2774e-06	523.22	162.16	174.08	57.894	1.378e-05	59.073	0.0010676	0.001039	0.00028023	1602.1	1.1811e-05	1.1089e-05	1409.8	458.03	1.193e-05	1.1232e-05	432.5	133.1	143.94	48.166	1.0882e-05	49.357	102.019	399.171	155.114	98.489	99.634	171.283	97.322	103.647	220.758	191.485	102.078	106.574	109.057	113.804	215.128	110.563	-8191	255	
21604.592	1	1	0	0	0.23616	0.24528	0.21053	0.22726	0.28913	0.015907	0.087558	0.11885	0.086602	0.029708	0.25309	0.25142	0.24283	0.062725	0.18345	0.23852	-1.8667	-2.5417	-2.8146	-2.2542	-2.5917	-2.6354	-2.475	-2.9958	-2.325	-2.3688	-3.1229	-2.2375	-2.6792	-2.9667	-2.2062	-3.0271	389.185	238.024	131.221	444.473	413.780	279.249	317.085	385.682	173.981	200.188	393.301	387.537	112.924	88.906	418.128	423.094	0.0010938	0.00097064	0.00033791	1954.8	9.6675e-06	8.4403e-06	1714.5	556.46	4.7534e-06	3.2184e-06	522.45	161.99	173.35	57.609	1.6805e-06	59.13	0.0010487	0.0010403	0.00029032	1596.5	1.2031e-05	1.1227e-05	1404.4	456.96	1.1727e-05	1.1463e-05	431.1	132.76	143.22	47.911	1.1787e-05	49.138	105.920	195.699	164.918	98.375	239.009	214.859	97.661	103.810	195.504	181.339	102.077	106.245	108.795	113.998	253.714	110.616	-8191	255	
21604.664	1	1	0	0	0.16768	0.29456	0.18794	0.23549	0.19785	0.15577	0.30752	0.15293	0.26719	0.34185	0.12453	0.1475	0.13692	0.091454	0.1245	0.21144	-2.0979	-2.4125	-2.8688	-2.3458	-2.6458	-2.8375	-2.4542	-3.1562	-2.5312	-2.2188	-3.1021	-2.4521	-2.6771	-3.0875	-2.2417	-2.6583	191.300	183.382	229.354	408.365	120.875	309.593	366.254	416.042	272.024	383.043	96.206	118.316	374.012	143.782	157.178	128.580	0.0011072	0.00092684	0.00018529	1953.9	2.9457e-06	1.4765e-06	1707.1	550.22	1.4455e-05	4.026e-06	522.59	161.12	173.13	57.278	1.1176e-05	59.343	0.0010554	0.0010262	0.00028656	1597.1	1.1674e-05	1.1229e-05	1401	454.57	1.1149e-05	1.1219e-05	430.55	132.53	143.12	47.608	1.168e-05	49.166	106.377	135.553	203.941	98.259	281.453	334.879	97.398	104.208	212.843	294.492	102.004	106.335	109.061	113.826	242.038	110.949	-8191	255	
21604.760	1	1	0	0	0.34144	0.16707	0.035129	0.37106	0.057008	0.19083	0.24144	0.38487	0.17224	0.13112	0.10578	0.24319	0.346	0.26748	0.21139	0.14847	-2.2438	-2.3292	-3.0187	-2.3979	-2.4188	-2.7729	-2.5458	-3.1	-2.5312	-2.1667	-3.0208	-2.5062	-2.5125	-3.1479	-2.2854	-2.9021	422.993	384.316	230.642	378.931	131.777	356.311	381.762	388.369	256.700	347.153	369.709	373.329	379.048	374.189	306.925	395.775	0.001022	0.00072906	5.0611e-05	1945	5.6885e-06	1.0889e-05	1701.5	554.56	1.9769e-05	5.6835e-06	521.65	162.01	173.45	57.466	1.3376e-05	59.279	0.0010169	0.0010195	0.00030444	1593.2	1.0945e-05	1.1611e-05	1400.1	455.07	1.112e-05	1.1541e-05	431.31	133.15	143.65	47.92	1.1743e-05	49.258	95.898	182.418	133.342	98.113	97.498	246.887	97.330	103.792	209.813	200.735	102.114	106.327	108.508	114.410	243.670	110.574	-8191	255	
21604.881	1	1	0	0	0.15186	0.16631	0.14837	0.38492	0.1494	0.10283	0.47999	0.36553	0.16577	0.14049	0.43041	0.39463	0.19078	0.21021	0.19608	0.22414	-2.3042	-2.1458	-2.875	-2.5896	-2.4188	-2.8771	-2.5333	-2.9521	-2.8271	-2.275	-3.0812	-2.6146	-2.3667	-3.15	-2.2792	-2.825	313.979	291.298	289.883	376.966	289.610	119.938	381.862	400.072	177.975	228.516	426.075	411.882	385.919	381.872	389.025	440.418	0.00087362	0.00081735	0.00010478	1928	6.9814e-06	1.2172e-05	1710	554.18	8.8973e-06	5.4957e-06	523.89	159.77	172.86	57.762	1.1958e-05	58.523	0.00097705	0.0010726	0.00031853	1581.4	1.1349e-05	1.1345e-05	1398.7	454.68	1.1453e-05	1.1871e-05	429.08	131.79	143.05	48.009	1.1974e-05	48.791	99.421	183.439	204.110	98.387	262.555	207.212	97.422	104.038	196.389	256.234	102.165	106.145	108.919	114.419	244.247	110.091	-8191	255	
21604.977	1	1	0	0	0.25288	0.30599	0.13867	0.4667	0.15404	0.16862	0.24172	0.15831	0.015285	0.091979	0.2443	0.023255	0.11636	0.25255	0.20629	0.12688	-2.5	-2.0062	-2.8833	-2.6604	-2.0938	-2.9229	-2.4583	-2.8312	-2.9146	-2.2396	-3.0917	-2.5833	-2.25	-3.0583	-2.2604	-2.7583	118.574	149.498	284.015	371.906	356.828	175.411	109.185	369.129	385.165	206.106	441.862	381.031	290.546	107.072	373.885	171.773	0.0013398	0.00034738	9.4618e-05	1927.2	8.87e-06	5.7648e-06	1696.6	551.68	9.2033e-06	1.2449e-05	520.44	160.57	173.96	57.8	1.1163e-05	58.363	0.00098461	0.0010689	0.00031817	1588.5	1.1496e-05	1.2187e-05	1392	452.95	1.1235e-05	1.1907e-05	428.15	132.04	143.08	47.999	1.1978e-05	48.857	109.653	420.623	164.885	98.079	141.650	293.483	97.650	104.123	187.940	237.221	102.343	106.356	108.859	114.369	208.117	110.527	-8191	255	
21605.072	1	1	0	0	0.070532	0.23615	0.063798	0.055745	0.18466	0.059315	0.30207	0.24729	0.018019	0.17613	0.064339	0.19498	0.14499	0.15065	0.19878	0.13659	-2.5625	-2.0938	-2.8479	-2.7854	-2.1104	-2.9292	-2.525	-2.5292	-2.9604	-2.2396	-2.7771	-2.6229	-2.1542	-2.9021	-2.3937	-2.6188	309.675	357.451	138.821	383.136	257.986	100.661	412.065	363.445	317.361	294.309	419.679	427.031	169.446	430.555	417.553	154.804	0.0013089	0.00017581	0.00023303	1934.7	1.2743e-05	4.4027e-06	1700.5	549.68	1.2787e-05	1.6182e-05	519.46	160.76	174.18	57.319	5.7402e-06	58.476	0.0010227	0.0010871	0.00030345	1585.1	1.1773e-05	1.2167e-05	1391.6	451.99	1.1486e-05	1.2048e-05	428.41	132.13	143.11	47.831	1.1779e-05	48.865	105.204	130.794	217.080	98.422	213.695	365.139	97.515	104.119	192.324	200.245	102.389	106.414	108.320	113.740	255.603	110.274	-8191	255	
21605.170	1	1	0	0	0.18682	0.15123	0.027093	0.13606	0.099669	0.20101	0.45178	0.42894	0.079824	0.15249	0.083176	0.14211	0.41395	0.036667	0.29245	0.10103	-2.6271	-2.1417	-2.6312	-2.9	-2.2396	-2.9146	-2.6937	-2.5083	-2.9	-2.2625	-2.7146	-2.9292	-2.3396	-2.9542	-2.6167	-2.5021	274.196	236.169	202.135	398.720	354.633	87.247	360.675	389.563	383.621	417.287	364.693	407.791	381.711	404.172	324.553	128.612	0.0011933	0.00084638	0.00030243	1930.6	1.3107e-05	1.0816e-05	1688.2	551.8	1.1793e-05	3.6994e-06	520.08	161.76	174.72	57.697	1.0999e-05	59.16	0.00099806	0.0010915	0.00029863	1581.6	1.1797e-05	1.1671e-05	1385.8	453.79	1.1496e-05	1.1951e-05	429.02	132.81	143.85	48.031	1.1007e-05	49.303	106.420	170.750	170.353	98.405	227.797	276.819	97.656	103.752	237.583	210.982	102.508	106.420	108.427	113.861	204.648	110.520	-8191	255	
21605.266	1	1	0	0	0.24766	0.061645	0.12277	0.30913	0.23024	0.13791	0.25126	0.35419	0.11376	0.061774	0.16441	0.23443	0.25075	0.28671	0.2663	0.25182	-2.5438	-2.3458	-2.5792	-3.0167	-2.2646	-2.7083	-2.8146	-2.3167	-3.0625	-2.4417	-2.5521	-2.9771	-2.2854	-2.9229	-2.7146	-2.275	403.511	86.252	257.121	348.296	356.159	314.088	361.482	378.961	375.915	433.208	398.343	398.284	323.434	404.569	208.783	120.642	0.0011423	0.00046512	0.0004515	1929.8	3.3324e-06	1.4876e-05	1700.6	551.47	9.2064e-06	1.1493e-05	514.06	161.58	171.82	57.436	8.3823e-06	58.517	0.0010902	0.0010856	0.00029005	1579.6	1.1951e-05	1.2056e-05	1386.2	452.41	1.164e-05	1.1709e-05	425.23	131.43	142.4	47.721	1.107e-05	48.683	109.667	384.300	134.653	98.377	147.992	250.393	97.524	103.965	234.631	265.172	102.299	106.680	108.598	114.227	224.641	110.634	-8191	255	
21605.361	1	1	0	0	0.040821	0.16	0.18165	0.074009	0.1038	0.18743	0.37385	0.30127	0.095712	0.028752	0.20113	0.1395	0.11057	0.14765	0.097394	0.25098	-2.7542	-2.25	-2.5979	-2.9688	-2.1146	-2.7021	-2.9021	-2.5333	-2.9958	-2.3104	-2.625	-3.1625	-2.1	-2.8104	-2.7417	-2.2604	136.273	326.881	104.833	142.646	406.464	317.108	424.871	406.028	222.163	130.578	386.252	87.707	376.785	423.651	138.253	399.289	0.0012115	0.0015626	0.00042902	1932.8	2.6123e-06	6.6334e-06	1682.3	550.3	1.5874e-05	4.54e-06	515.22	158.49	171.96	56.491	7.5352e-07	57.801	0.0010591	0.0010798	0.00028093	1577	1.1853e-05	1.1603e-05	1376.5	450.04	1.1602e-05	1.1819e-05	423.93	130.55	141.94	47.22	1.1455e-05	48.133	112.757	269.119	134.841	98.440	290.901	401.409	97.515	104.157	193.183	229.711	102.383	106.140	108.599	114.911	383.661	110.536	-8191	255	
21605.457	1	1	0	0	0.098367	0.084145	0.10501	0.21826	0.13216	0.17815	0.24873	0.11842	0.05294	0.3053	0.20135	0.22215	0.026165	0.10246	0.066066	0.10695	-2.5958	-2.3771	-2.4688	-3.1521	-1.9813	-2.6729	-2.9271	-2.1646	-2.8625	-2.5125	-2.3521	-3.1292	-2.375	-2.7188	-2.8375	-2.3625	407.538	232.650	180.394	341.775	206.033	230.091	371.957	394.380	348.756	164.074	344.585	103.999	397.825	93.064	167.123	387.081	0.0010925	0.00015329	0.00019981	1924.3	1.0183e-05	1.0507e-05	1679.7	547.54	8.8541e-06	7.8988e-06	512.25	157.85	171.36	56.61	1.1568e-05	57.504	0.0010769	0.00099677	0.00028949	1573.7	1.2051e-05	1.1287e-05	1373.3	449.28	1.1609e-05	1.0815e-05	421.22	130.18	141.45	47.007	1.117e-05	48.034	109.296	422.512	430.046	98.547	231.996	275.379	97.715	104.128	246.668	297.954	102.322	106.592	108.963	114.631	183.456	110.209	-8191	255	
21605.576	1	1	0	0	0.14498	0.11126	0.13466	0.16901	0.16666	0.16243	0.26169	0.44195	0.063968	0.19536	0.36333	0.12508	0.10799	0.40996	0.15922	0.2462	-2.5125	-2.5271	-2.1479	-2.9583	-2.3958	-2.4021	-2.9583	-2.2083	-2.7667	-2.6458	-2.2354	-3.1396	-2.4938	-2.4708	-2.8292	-2.2604	365.506	160.486	286.531	101.658	189.855	228.037	428.999	371.594	320.129	158.558	434.635	101.012	442.858	384.992	309.470	410.061	0.0012205	0.00020241	0.00027483	1911	1.2478e-05	8.9918e-06	1681.8	544.47	1.1656e-05	5.3135e-06	511.5	157.97	169.81	56.647	1.3383e-05	57.852	0.0010335	0.00099897	0.00029278	1572	1.1328e-05	1.1585e-05	1375.3	447.85	1.1093e-05	1.1282e-05	422.22	129.88	140.7	47.249	1.1771e-05	48.186	99.670	171.457	182.328	98.368	198.479	225.323	97.561	104.073	152.884	238.716	102.578	106.441	108.596	114.738	243.166	110.721	-8191	255	
21605.674	1	1	0	0	0.10668	0.13522	0.19724	0.14336	0.12827	0.084287	0.11588	0.52179	0.20056	0.39049	0.15411	0.21789	0.062907	0.20853	0.28758	0.10751	-2.2021	-2.7917	-2.0312	-3.0625	-2.5292	-2.3625	-3.0438	-2.375	-2.6208	-2.9062	-2.3771	-2.9146	-2.5062	-2.3458	-2.8896	-2.4188	179.622	99.069	173.164	420.466	233.773	266.548	384.164	396.482	267.701	418.782	126.508	400.958	442.110	411.905	344.945	115.577	0.0012518	0.00031123	0.00018711	1924.4	1.2219e-05	1.1393e-05	1681.9	545.35	9.2736e-06	4.9931e-06	513.45	158.17	171.05	56.594	7.3962e-06	57.384	0.00099566	0.0010189	0.0002984	1571.5	1.1129e-05	1.1287e-05	1375.2	447.33	1.0445e-05	1.137e-05	421.15	129.76	140.9	47.069	1.1682e-05	47.793	113.479	441.546	149.021	98.943	242.775	222.213	97.509	104.409	214.438	242.531	102.849	106.281	108.927	114.231	191.934	110.916	-8191	255	
21605.770	1	1	0	0	0.22251	0.1818	0.16628	0.16494	0.073285	0.12409	0.10674	0.34076	0.073413	0.15498	0.39175	0.39754	0.13819	0.29049	0.16529	0.32109	-2.1271	-2.7958	-2.1667	-2.8604	-2.6979	-2.1833	-3.2167	-2.4875	-2.6125	-2.9208	-2.2583	-2.8375	-2.7729	-2.2646	-2.9688	-2.3187	329.420	369.363	233.623	392.360	385.525	403.981	369.897	380.928	419.169	134.220	386.347	359.736	278.780	421.497	249.162	385.671	0.001258	0.00065977	0.00033201	1928	9.7752e-06	3.6921e-06	1675.7	547.57	7.9045e-06	8.5038e-06	514.38	158.29	170.99	56.294	4.7355e-06	57.276	0.00099288	0.0010261	0.0002985	1573.6	1.0436e-05	1.1873e-05	1371.5	446.57	1.111e-05	1.149e-05	421.68	129.69	140.8	46.82	1.1502e-05	47.686	110.684	161.468	134.042	98.591	275.867	198.210	97.524	104.035	213.125	202.677	102.545	106.826	109.030	114.319	199.275	110.620	-8191	255	
21605.891	1	1	0	0	0.14275	0.25929	0.068311	0.086366	0.080478	0.096326	0.2348	0.42415	0.14534	0.16502	0.21222	0.20317	0.2082	0.028309	0.073035	0.16201	-2.1188	-2.9896	-2.2	-2.8229	-2.6667	-2.2438	-3.1167	-2.7458	-2.3083	-2.8375	-2.4	-2.9646	-2.7146	-2.225	-2.75	-2.5563	342.609	246.709	355.155	268.094	212.597	170.301	129.129	429.936	272.166	424.949	409.124	434.719	216.871	343.073	313.662	420.442	0.0010472	0.0013116	0.00011396	1931.8	1.2633e-05	5.3267e-06	1667.7	548.36	1.2624e-05	1.2811e-05	513.47	157.55	170.78	55.408	1.9531e-06	56.427	0.0010271	0.001068	0.00030453	1573.5	1.0545e-05	1.1623e-05	1365.7	447.15	1.0907e-05	1.1967e-05	419.61	129	140.48	46.414	1.1731e-05	47.282	99.767	189.750	99.103	98.843	216.738	247.149	97.983	103.944	219.349	235.924	102.079	106.659	109.157	113.893	176.668	110.659	-8191	255	
21605.961	1	1	0	0	0.21888	0.14472	0.13114	0.17575	0.17852	0.15662	0.26267	0.37816	0.15724	0.27044	0.22959	0.059434	0.1004	0.17441	0.11079	0.081884	-1.7687	-2.9083	-2.1917	-2.7771	-2.8937	-2.3042	-3.0938	-2.8125	-2.2313	-2.9854	-2.4271	-2.4833	-2.9458	-2.3083	-3.1083	-2.9042	304.118	339.449	393.382	187.136	166.264	229.532	402.119	115.471	192.090	296.324	86.624	355.223	121.364	437.516	277.552	413.492	0.0011692	0.00032161	0.00010426	1939.5	1.0308e-05	5.4348e-06	1676.9	547.41	1.6955e-05	6.905e-06	507.95	157.68	171.19	55.866	1.3003e-05	57.767	0.00098704	0.0010894	0.00030276	1575.5	1.1128e-05	1.1547e-05	1373.8	446.97	1.1324e-05	1.1491e-05	418.65	129.56	141.01	46.711	1.1598e-05	47.71	105.257	116.595	210.039	98.898	191.938	237.649	98.027	103.975	236.394	281.193	102.847	106.645	109.073	114.418	252.841	110.392	-8191	255	
21606.057	1	1	0	0	0.21055	0.041051	0.13886	0.15148	0.24705	0.036719	0.10883	0.37893	0.1952	0.11783	0.3232	0.14455	0.15541	0.11707	0.070072	0.17784	-1.6021	-2.9542	-2.3854	-2.5667	-2.8375	-2.3	-3.0542	-2.8021	-2.1979	-2.9062	-2.2896	-2.5104	-3	-2.2958	-2.7438	-2.75	152.442	371.390	407.818	414.741	301.409	162.722	379.065	392.239	329.306	376.611	388.442	390.762	380.286	131.593	131.452	123.576	0.0011996	0.0010551	0.00019865	1916	8.0331e-06	1.3961e-05	1675.7	543.06	4.0949e-06	8.4719e-06	509.71	156.21	171.26	55.796	1.5251e-05	56.753	0.0010302	0.0010731	0.00028791	1568.3	1.1606e-05	1.1428e-05	1371	445.66	1.1378e-05	1.1224e-05	419.15	129.26	140.79	46.597	1.1088e-05	47.467	96.315	162.121	157.777	98.922	246.038	236.252	97.919	104.315	192.040	192.918	102.232	106.702	108.734	114.286	218.374	110.478	-8191	255	
21606.178	1	1	0	0	0.18076	0.1979	0.15222	0.087496	0.12034	0.16247	0.17293	0.54608	0.072924	0.057002	0.15853	0.22588	0.10755	0.12512	0.068278	0.11072	-1.9479	-2.8438	-2.5021	-2.4167	-3.1229	-2.1771	-2.8417	-3.075	-2.1688	-2.9938	-2.5896	-2.4333	-2.9458	-2.3438	-2.6417	-2.9437	262.331	363.484	165.564	142.596	429.004	149.437	98.430	427.985	313.347	382.032	123.208	380.780	247.323	400.655	130.688	191.432	0.0010999	0.00093457	0.00024783	1900.4	7.4157e-06	3.7415e-06	1665	540.12	9.6933e-06	4.4894e-06	503.49	155.45	169.01	55.202	1.5475e-05	55.557	0.0010113	0.0010463	0.00027919	1565.6	1.1251e-05	1.1489e-05	1365.4	443.63	1.1574e-05	1.1462e-05	415.33	128.09	139.64	46.115	1.0834e-05	46.482	99.139	199.160	157.337	98.726	186.273	175.669	97.533	104.150	184.387	272.561	102.226	107.102	108.739	114.351	182.489	110.667	-8191	255	
21606.271	1	1	0	0	0.13432	0.21897	0.052531	0.30444	0.018339	0.16301	0.21279	0.26872	0.09433	0.29101	0.14526	0.17876	0.13962	0.12278	0.2966	0.24849	-1.7667	-2.9437	-2.5792	-2.5042	-2.9688	-2.1729	-2.8292	-3.0958	-2.1458	-2.8896	-2.7958	-2.3042	-3.0312	-2.6542	-2.6667	-2.9271	361.987	173.646	393.299	435.209	264.293	135.249	384.940	422.742	114.220	262.976	412.679	429.911	243.394	440.830	342.818	410.415	0.00097717	0.0010748	0.00023599	1900.6	9.2902e-06	5.2803e-06	1648.4	538.25	9.9792e-06	9.0159e-06	499.63	153.97	168.47	54.764	1.565e-05	55.046	0.0010294	0.0010763	0.00027935	1558.4	1.165e-05	1.1368e-05	1352.5	441.28	1.134e-05	1.1102e-05	412.53	127.07	138.69	45.626	1.1256e-05	46.17	95.538	223.381	161.429	98.750	244.736	116.930	97.960	104.070	260.847	262.988	102.344	106.365	108.837	113.982	207.417	110.897	-8191	255	
21606.369	1	1	0	0	0.072613	0.08091	0.16658	0.13699	0.28727	0.1457	0.4918	0.35761	0.15372	0.18376	0.17129	0.19019	0.25388	0.25221	0.25663	0.088611	-1.6375	-2.7854	-2.7292	-2.2896	-3.0187	-2.4917	-2.6208	-3.0771	-2.1063	-2.8271	-2.7396	-2.1958	-3.2146	-2.6354	-2.4854	-2.8771	168.879	110.040	146.048	430.135	374.045	274.976	389.194	393.148	273.414	188.913	426.410	109.691	416.753	172.417	219.877	290.540	0.0012013	0.00076051	5.4773e-05	1907.9	4.0811e-06	1.0831e-05	1649.7	537.22	7.6837e-06	6.8004e-06	491.46	152.9	167.42	54.5	4.7997e-06	55.496	0.0010415	0.0010038	0.0002799	1557.1	1.1008e-05	1.0756e-05	1352.1	439.76	1.1345e-05	1.0826e-05	409.63	126.17	138.28	45.467	1.1075e-05	46.297	96.168	227.209	331.341	98.849	240.898	226.275	97.960	104.228	274.157	283.087	102.371	106.618	108.985	114.493	132.549	110.734	-8191	255	
21606.465	1	1	0	0	0.18311	0.11401	0.041829	0.11573	0.054028	0.095197	0.18222	0.032027	0.10171	0.19074	0.24093	0.35946	0.17219	0.3037	0.12406	0.39587	-1.8604	-2.6688	-2.7396	-2.275	-2.8708	-2.3771	-2.5	-3.0542	-2.2458	-2.7021	-2.9583	-2.15	-2.9396	-2.6271	-2.375	-2.9917	159.676	201.639	438.915	277.384	408.555	303.047	87.939	110.771	212.158	121.996	317.551	426.691	389.249	88.875	347.201	398.468	0.0010026	0.00018829	7.8972e-05	1893.8	8.6074e-06	8.1531e-06	1651.8	533.31	3.7378e-06	1.029e-05	496.16	152.92	169.04	54.682	1.1067e-05	55.721	0.0010077	0.00097317	0.00027976	1554.5	1.1077e-05	1.0773e-05	1352.7	440.14	1.0903e-05	1.0747e-05	412.22	126.68	139.35	45.596	1.1578e-05	46.472	113.218	308.762	219.685	98.495	234.516	236.224	97.811	104.023	264.498	240.261	102.261	106.660	109.040	113.771	253.182	110.069	-8191	255	
21606.561	1	1	0	0	0.11868	0.19219	0.3341	0.11354	0.18324	0.13878	0.22043	0.18517	0.27	0.087764	0.19416	0.23763	0.18409	0.29438	0.090056	0.15327	-1.9896	-2.6542	-2.8438	-2.1229	-2.875	-2.7438	-2.3063	-3.125	-2.2438	-2.4354	-3.0375	-2.3104	-2.7875	-2.8021	-2.0854	-3.2021	154.504	95.529	382.388	254.265	182.472	115.027	304.697	445.506	97.400	443.820	429.981	411.136	384.124	111.702	333.893	395.880	0.0010283	0.0010492	0.00032495	1901.3	2.5051e-06	1.1819e-06	1645.8	535.03	1.3456e-05	8.7986e-06	501.88	157.24	169.33	55.742	1.319e-05	56.804	0.00094519	0.0010165	0.00029033	1556.3	1.0693e-05	1.0643e-05	1354.5	441.7	1.0734e-05	1.0965e-05	415.71	129.19	140.56	46.43	1.1868e-05	47.212	100.312	192.534	161.303	98.910	156.948	354.525	97.830	104.384	183.661	281.855	102.577	106.503	109.011	114.583	282.327	110.882	-8191	255	
21606.656	1	1	0	0	0.19909	0.066541	0.075595	0.25239	0.07538	0.23543	0.34236	0.07308	0.10719	0.27061	0.08689	0.046604	0.22947	0.09881	0.17855	0.28191	-1.9312	-2.3167	-2.9625	-2.3312	-2.6458	-2.6688	-2.4229	-3.0812	-2.4813	-2.5104	-3.0458	-2.4271	-2.75	-2.9604	-2.2854	-2.9625	403.247	296.362	132.852	420.084	223.822	433.760	341.520	390.369	422.068	131.363	107.243	350.057	107.312	442.105	142.493	346.910	0.0012702	0.0010161	0.00014286	1889.9	1.7369e-05	9.4885e-06	1648	537.08	6.3608e-06	1.1954e-05	510.65	155.89	170.16	55.507	6.9055e-06	57.241	0.00098399	0.0010295	0.00028591	1549.5	1.0669e-05	1.136e-05	1354.7	442.53	1.0604e-05	1.1461e-05	418.08	128.91	140.29	46.635	1.1166e-05	47.38	117.722	168.887	211.093	99.123	226.113	173.338	97.828	104.393	241.999	308.365	102.107	106.509	109.595	114.835	303.777	110.880	-8191	255	
21606.754	1	1	0	0	0.19697	0.2333	0.17932	0.2197	0.15928	0.098301	0.48508	0.31972	0.12754	0.20957	0.3165	0.31222	0.19332	0.34258	0.12843	0.22989	-2.1021	-2.3854	-2.9417	-2.4896	-2.4896	-2.8979	-2.3563	-3.0708	-2.6042	-2.2438	-3.1292	-2.4208	-2.7062	-3.0771	-1.9875	-2.8187	258.158	86.776	141.887	416.802	286.843	171.536	366.402	414.528	202.447	330.560	443.097	362.701	130.315	443.603	338.246	345.979	0.0012852	0.00027702	0.00050459	1882.7	5.9727e-06	1.2917e-05	1652.8	543.2	2.0424e-05	5.0541e-06	509.58	158.53	169.95	56.122	1.6048e-05	57.21	0.00097278	0.0010489	0.00028877	1553.8	1.0796e-05	1.1352e-05	1358.4	446.8	1.0574e-05	1.1267e-05	421.76	130.74	141.73	46.966	1.142e-05	47.896	105.671	260.191	176.169	98.975	195.536	209.882	97.925	104.464	213.499	226.405	102.455	106.884	109.427	114.579	307.317	110.962	-8191	255	
21606.850	1	1	0	0	0.25325	0.15745	0.32325	0.2843	0.090771	0.16558	0.19444	0.38621	0.27579	0.32725	0.14014	0.20471	0.24501	0.26148	0.087881	0.15153	-2.2729	-2.0646	-3.0167	-2.5146	-2.3771	-2.9833	-2.3438	-2.9437	-2.5792	-2.0938	-2.9583	-2.4083	-2.4729	-3.0062	-2.2188	-2.9167	354.436	255.258	403.471	361.669	329.951	97.751	402.513	412.150	397.342	135.298	388.219	323.408	418.082	146.995	151.073	404.798	0.0011549	0.00064976	0.00031902	1890.6	7.8701e-06	7.6033e-06	1656.7	545.63	4.0554e-06	9.2403e-06	513.67	160.65	171.86	56.875	8.401e-06	58.258	0.0009859	0.0010653	0.00028849	1557.5	1.066e-05	1.1458e-05	1363.3	449.28	1.0678e-05	1.1671e-05	424.89	131.65	142.94	47.656	1.1152e-05	48.803	107.048	104.140	201.101	98.703	241.490	253.961	98.009	104.700	208.006	173.268	102.409	106.330	108.723	114.515	312.725	111.477	-8191	255	
21606.971	1	1	0	0	0.34759	0.3009	0.18751	0.31303	0.068175	0.10644	0.34381	0.44432	0.13755	0.047848	0.37466	0.086263	0.082284	0.27523	0.19378	0.099751	-2.3583	-2.175	-2.9375	-2.4875	-2.2354	-2.9229	-2.525	-2.8979	-2.7083	-2.15	-3.0542	-2.5896	-2.3604	-3.2375	-2.2458	-2.6396	342.509	135.839	367.749	385.227	233.544	237.171	365.797	403.118	408.223	141.051	405.452	361.385	416.093	409.191	437.023	186.100	0.0011472	0.00029959	0.00041123	1892.7	5.2036e-06	1.3881e-05	1661.3	544.39	1.6518e-05	9.1764e-06	508.83	157.2	170.58	56.671	6.1411e-06	57.915	0.0010015	0.0010537	0.00028786	1560	1.0984e-05	1.1641e-05	1373.5	448.14	1.1367e-05	1.1451e-05	422.61	130.29	141.71	47.31	1.0569e-05	48.517	106.741	201.870	190.719	98.975	231.051	237.070	97.705	104.401	225.509	231.302	102.596	106.804	109.348	114.585	369.047	111.467	-8191	255	
21607.066	1	1	0	0	0.26092	0.17766	0.24823	0.070823	0.15731	0.14209	0.037923	0.41717	0.11088	0.056451	0.075245	0.2706	0.077232	0.23812	0.12747	0.22938	-2.4104	-2.3187	-2.8042	-2.7583	-2.0479	-3.1729	-2.6562	-2.7417	-2.9542	-2.3	-2.9521	-2.7583	-2.2021	-3.0292	-2.4333	-2.5833	175.147	423.818	325.875	324.187	218.689	130.547	96.725	400.187	256.890	308.019	151.928	375.451	110.424	108.301	308.917	149.371	0.0012298	0.00087515	0.00036383	1907.1	4.1311e-06	4.5293e-06	1667.7	546.43	8.2118e-06	1.4345e-05	515.99	160.82	173.55	56.634	6.2072e-07	57.445	0.0010027	0.0010132	0.00027993	1564.3	1.1515e-05	1.1595e-05	1376.2	452.81	1.1553e-05	1.1366e-05	427.29	132.87	143.6	47.583	1.079e-05	48.243	91.895	165.580	163.343	99.125	223.808	246.563	97.951	104.566	223.017	256.120	102.335	106.947	108.850	114.505	88.549	110.927	-8191	255	
21607.162	1	1	0	0	0.12081	0.24354	0.20524	0.23828	0.071382	0.20122	0.28569	0.42996	0.10883	0.12513	0.22095	0.14961	0.16269	0.16582	0.25078	0.052558	-2.4208	-2.1937	-2.7083	-2.7458	-2.1104	-2.95	-2.6562	-2.5187	-2.7854	-2.275	-2.6688	-2.8792	-2.2188	-3.1229	-2.6229	-2.3208	377.439	166.584	238.168	421.366	139.200	332.925	390.181	390.338	102.282	408.840	395.826	333.362	169.427	398.912	89.296	282.400	0.0011701	0.00078851	0.00038136	1892.3	1.8154e-05	5.6551e-06	1668.3	536.69	1.5289e-05	1.3931e-05	516.44	158.23	171.34	56.291	7.0231e-06	58.339	0.00097321	0.00099856	0.000271	1559.8	1.1056e-05	1.082e-05	1368.4	445.07	1.1197e-05	1.1128e-05	423.23	130.1	141.6	46.871	1.0726e-05	48.063	95.091	165.389	190.061	98.868	241.882	309.996	98.309	104.742	237.097	262.289	102.043	106.150	108.044	113.458	221.571	110.300	-8191	255	
21607.258	1	1	0	0	0.095872	0.028718	0.1823	0.30128	0.29749	0.10696	0.18407	0.29213	0.061283	0.14462	0.48403	0.26303	0.13792	0.28844	0.12181	0.2707	-2.5979	-2.0771	-2.7167	-2.8792	-2.0896	-2.7604	-2.7479	-2.4562	-3.1188	-2.3042	-2.6646	-2.8396	-2.2229	-2.9562	-2.5229	-2.4833	353.105	222.275	292.971	351.625	359.407	360.525	380.210	95.404	121.678	431.520	345.517	412.945	172.883	404.188	196.772	342.673	0.001262	0.00091499	0.00015502	1915.9	1.281e-05	3.7556e-06	1681.2	545.25	1.896e-05	1.2662e-05	511.64	156.74	172.79	56.597	1.8542e-05	57.841	0.0010089	0.00096017	0.00027548	1568.1	1.1121e-05	1.0764e-05	1375.1	447.21	1.1099e-05	1.0747e-05	422.43	129.55	141.97	46.897	1.1029e-05	48.259	96.170	208.285	309.787	97.555	245.680	219.203	96.489	103.015	241.399	241.437	101.547	106.058	108.202	113.647	251.625	109.971	-8191	255	
21607.354	1	1	0	0	0.16463	0.096286	0.20463	0.11967	0.29453	0.24209	0.14456	0.46522	0.24025	0.041366	0.099171	0.022983	0.19506	0.15075	0.10639	0.26443	-2.6208	-2.4333	-2.3167	-2.7417	-2.3208	-2.7167	-2.6396	-2.3292	-2.9	-2.1375	-2.5521	-2.8771	-2.2083	-2.6688	-2.7583	-2.3688	395.383	395.073	229.872	421.480	137.679	121.709	393.786	357.686	434.381	357.271	421.804	388.080	411.921	103.039	250.764	113.814	0.0012609	0.00072278	0.00033765	1927.5	4.5515e-06	2.7633e-06	1686.4	547.74	1.4024e-05	1.7568e-05	516.05	159.67	174.35	56.581	7.2809e-06	57.927	0.00095962	0.00094478	0.00028089	1576.3	1.1048e-05	1.0127e-05	1380.1	450.19	1.0716e-05	1.0703e-05	425.96	132.02	143.25	47.28	1.099e-05	48.432	99.148	209.597	180.481	98.115	306.902	264.100	96.957	103.392	229.231	209.548	102.073	105.618	108.015	113.278	243.334	109.872	-8191	255	
21607.451	1	1	0	0	0.085311	0.28639	0.16592	0.33602	0.25117	0.16283	0.2554	0.17276	0.20058	0.17312	0.085845	0.12284	0.16624	0.35478	0.23242	0.11866	-2.4396	-2.3583	-2.3063	-3.2188	-2.2292	-2.675	-3.0146	-2.2458	-2.8812	-2.2729	-2.3375	-3.0125	-2.3771	-2.8104	-2.975	-2.2833	191.966	261.243	246.662	441.793	385.419	155.385	433.493	390.543	219.129	261.456	392.484	310.184	444.514	428.637	373.390	315.119	0.00090008	0.00083762	0.00014599	1903.4	9.717e-06	1.1187e-05	1686.8	546.35	6.2491e-06	1.3548e-05	517.06	161.58	171.57	56.899	9.3691e-06	57.827	0.00094274	0.00095541	0.0002866	1565.9	1.06e-05	1.0908e-05	1382.7	448.58	1.0636e-05	1.0346e-05	424.83	131.97	142.64	47.314	1.1051e-05	48.233	102.189	177.124	202.693	97.673	246.737	219.523	96.697	103.116	179.147	219.415	101.156	105.163	107.400	113.400	211.880	109.660	-8191	255	
21607.570	1	1	0	0	0.15098	0.32855	0.13489	0.18966	0.025218	0.31383	0.4541	0.57379	0.062211	0.23194	0.27128	0.25876	0.3334	0.4163	0.17246	0.14184	-2.4167	-2.4792	-2.2875	-3.0938	-2.4188	-2.7354	-3.2229	-2.35	-2.7792	-2.7167	-2.2458	-2.9146	-2.4062	-2.4979	-2.9208	-2.2438	176.901	312.581	325.032	361.914	429.687	140.826	438.035	392.008	99.925	299.795	400.720	341.811	88.205	428.934	196.794	442.268	0.0012753	0.00012115	0.00023145	1913.2	8.6771e-06	1.2621e-05	1675.3	550.16	1.1454e-05	1.2304e-06	517.9	158.69	173.05	56.637	1.1611e-05	58.052	0.00094662	0.00099834	0.00029284	1566.3	1.0703e-05	1.1286e-05	1375.4	450.11	1.0317e-05	1.1022e-05	425.67	130.86	142.9	47.302	1.1233e-05	48.282	99.051	371.324	175.898	97.907	210.448	222.450	96.845	103.346	212.162	110.043	101.418	105.287	108.008	113.096	250.372	109.782	-8191	255	
21607.666	1	1	0	0	0.094729	0.11856	0.23634	0.27084	0.16233	0.067225	0.3411	0.11671	0.033916	0.16036	0.20271	0.15848	0.26143	0.41975	0.097976	0.084995	-2.375	-2.6625	-2.2333	-3.0521	-2.3708	-2.6188	-3.0333	-2.4437	-2.75	-2.8438	-2.3396	-2.9729	-2.5875	-2.4437	-3.0354	-2.4271	278.939	433.688	325.776	409.679	417.328	145.928	403.527	122.315	94.132	425.689	441.591	130.285	404.917	379.783	415.124	314.770	0.00092546	0.0010014	0.00016244	1920.9	1.0876e-05	6.0567e-06	1678.2	549.1	1.3626e-05	1.094e-05	514.22	160.59	174.83	57.094	1.0105e-05	58.31	0.00095624	0.0010062	0.00028782	1570.2	1.052e-05	1.1166e-05	1375.3	450.08	1.0643e-05	1.1003e-05	425.14	132.02	142.9	47.341	1.0663e-05	48.183	101.878	211.017	151.791	97.722	259.709	217.429	97.231	103.036	202.792	255.020	101.618	105.733	108.379	114.202	246.764	109.840	-8191	255	
21607.762	1	1	0	0	0.065923	0.17406	0.25051	0.16822	0.25825	0.16958	0.29788	0.22242	0.15233	0.23547	0.043593	0.12853	0.14907	0.13158	0.028814	0.11313	-2.1854	-2.6771	-2.1771	-2.9917	-2.5062	-2.1396	-3.1792	-2.475	-2.5	-2.7229	-2.4021	-2.7896	-2.5812	-2.3292	-2.9125	-2.1833	132.387	279.300	170.567	440.938	357.212	281.931	355.799	354.893	144.926	231.342	98.871	120.446	221.161	123.122	187.014	427.726	0.0011548	0.00039314	0.00043396	1899.3	2.339e-06	2.3416e-06	1690.9	549.15	9.2046e-06	1.4695e-05	518.74	160.97	173.31	56.915	4.7854e-06	57.902	0.00097213	0.0010364	0.00029074	1563.1	1.0589e-05	1.121e-05	1380.5	450.27	1.0921e-05	1.1795e-05	426.9	132.18	142.99	47.587	1.0854e-05	48.278	107.190	178.468	172.555	97.807	220.567	287.765	96.812	103.310	248.663	236.350	101.513	105.528	108.167	113.717	191.109	109.422	-8191	255	
21607.857	1	1	0	0	0.21769	0.21271	0.08095	0.27668	0.059657	0.10737	0.32181	0.46433	0.20998	0.30398	0.12973	0.34475	0.15078	0.5857	0.14141	0.20084	-1.9292	-2.8563	-2.0875	-2.8625	-2.4021	-2.0896	-3.0729	-2.5563	-2.5083	-2.8667	-2.1292	-2.875	-2.6625	-2.1479	-2.8542	-2.4562	242.825	228.339	113.617	421.050	401.836	244.436	407.215	392.322	268.942	300.880	147.610	444.169	373.819	440.836	159.117	340.788	0.0010736	0.00056993	0.00021491	1925.4	9.9954e-06	5.0516e-06	1695.3	546.07	1.2489e-05	6.2244e-06	520.76	161.44	172.97	57.405	6.4778e-06	59.058	0.00098536	0.0010127	0.00027764	1569.6	1.0798e-05	1.1464e-05	1385.6	450.24	1.0731e-05	1.1066e-05	426.93	132.93	143.68	47.881	1.0462e-05	48.809	101.544	188.680	194.639	97.825	253.284	239.853	97.008	103.228	205.765	191.490	101.114	105.735	108.036	113.364	179.883	109.470	-8191	255	
21607.953	1	1	0	0	0.099456	0.25337	0.12755	0.13098	0.023671	0.069154	0.37669	0.62861	0.2452	0.10761	0.2487	0.24669	0.19464	0.13494	0.13953	0.13971	-2.0125	-2.8021	-2.075	-2.8854	-2.7604	-2.1271	-2.9604	-2.7167	-2.4042	-2.8917	-2.2458	-2.7854	-2.9271	-2.2292	-2.8833	-2.625	162.760	128.446	380.699	96.384	100.780	319.302	391.290	428.443	220.797	432.702	428.996	365.073	400.407	436.462	157.627	282.685	0.0013511	0.00076415	0.0003493	1933.8	1.583e-05	1.3256e-05	1684.5	547.14	8.6595e-06	1.1127e-05	516.5	159.16	174.92	57.554	3.6168e-06	58.336	0.00099009	0.00099311	0.00027189	1572.5	1.0955e-05	1.1669e-05	1378.1	449.65	1.1072e-05	1.1293e-05	424.32	131.82	143.83	47.837	1.0229e-05	48.59	95.659	152.212	179.883	97.491	224.188	259.621	97.023	103.446	243.730	265.193	101.125	105.441	107.879	113.797	107.378	109.912	-8191	255	
21608.051	1	1	0	0	0.31814	0.19067	0.11747	0.22858	0.28363	0.091895	0.42111	0.33755	0.12793	0.057364	0.33107	0.082534	0.32784	0.16127	0.21805	0.23161	-1.8687	-2.8167	-2.1312	-2.6958	-2.8396	-2.2854	-3.0292	-2.8333	-2.2792	-2.8708	-2.5229	-2.6479	-2.9437	-2.1604	-2.7167	-2.6979	354.589	188.021	424.715	382.501	328.371	153.963	388.038	410.570	196.093	333.650	383.457	183.988	365.993	443.793	214.069	367.154	0.0013865	0.0007374	0.000177	1911.5	2.3048e-06	1.0947e-05	1677.4	547.55	9.8789e-06	6.2089e-06	515.44	160.32	175.75	56.911	1.162e-05	58.654	0.0010136	0.0010122	0.00026385	1571.6	1.0791e-05	1.0865e-05	1371	449.14	1.1373e-05	1.1003e-05	422.15	131.79	143.68	47.609	1.0743e-05	48.556	94.097	117.715	168.019	97.943	212.051	180.851	97.128	103.139	243.125	260.991	101.836	105.748	108.436	113.196	219.029	109.743	-8191	255	
21608.146	1	1	0	0	0.28009	0.23326	0.26232	0.25392	0.36933	0.23848	0.34148	0.40122	0.14946	0.17104	0.23418	0.24931	0.27498	0.084565	0.26884	0.17282	-1.7062	-2.9792	-2.2375	-2.4958	-2.8854	-2.3292	-2.9646	-2.7646	-2.15	-2.9333	-2.4708	-2.5208	-3.0583	-2.3042	-2.3542	-2.8	407.702	112.288	151.723	411.420	119.452	381.704	355.306	427.694	239.008	436.446	437.346	365.423	429.385	136.174	352.754	379.911	0.0012117	0.0009931	0.00017169	1912.1	4.0211e-06	1.5746e-05	1676.5	548.65	1.0731e-05	5.1305e-06	514.83	159.76	173.24	57.208	6.5176e-06	58.428	0.00099566	0.00095933	0.00027453	1566.8	1.1185e-05	1.0464e-05	1371.9	449.21	1.0817e-05	1.0514e-05	423.27	131.51	142.79	47.724	1.1009e-05	48.394	107.429	140.993	172.330	97.949	273.881	268.824	97.186	103.234	217.190	113.296	101.038	105.593	107.709	113.480	291.360	109.207	-8191	255	
21608.268	1	1	0	0	0.22042	0.11795	0.077566	0.17725	0.23404	0.22498	0.13841	0.088114	0.15815	0.19642	0.28946	0.057995	0.14295	0.37719	0.18814	0.18575	-1.5479	-2.7167	-2.3438	-2.3312	-3.1208	-2.2708	-2.8333	-3.0958	-2.2479	-2.9792	-2.6625	-2.4562	-2.9667	-2.4938	-2.4729	-2.8521	388.471	350.883	412.812	95.124	215.939	341.918	375.128	92.690	328.754	307.136	408.838	399.210	350.869	441.447	247.777	359.128	0.00098703	0.0011288	0.00030089	1912.2	1.374e-05	7.5165e-06	1671.3	546.34	6.6986e-06	9.8315e-06	516.97	158.77	174.07	57.841	3.9339e-06	57.909	0.00096579	0.00095518	0.00027924	1565.4	1.0778e-05	1.0491e-05	1370.7	448.68	1.0745e-05	1.0412e-05	423.67	131.13	142.63	47.691	1.0805e-05	48.321	109.436	174.030	219.508	98.022	216.935	169.906	96.980	103.166	182.021	226.931	101.014	105.911	107.531	113.356	413.559	109.378	-8191	255	
21608.361	1	1	0	0	0.15005	0.19297	0.23945	0.32428	0.16738	0.33514	0.27172	0.49978	0.21428	0.14245	0.15914	0.20295	0.24003	0.2207	0.22486	0.16446	-1.7042	-2.8958	-2.4708	-2.3708	-2.7896	-2.2083	-2.6417	-3.0375	-2.225	-2.725	-2.6813	-2.2625	-3.0396	-2.325	-2.3937	-3.0438	122.699	317.135	88.729	425.234	142.937	246.842	341.991	416.724	265.817	346.006	417.528	296.024	294.353	431.395	234.649	440.218	0.0012884	0.00035511	0.00029722	1894.9	5.7633e-06	6.4549e-06	1666.1	546.96	7.8066e-06	8.4168e-06	514.99	158.14	172.99	56.817	7.8978e-06	57.609	0.00094455	0.00096573	0.00028299	1567.4	1.0477e-05	1.0665e-05	1369.1	448.42	1.0731e-05	1.0488e-05	422.41	130.46	142.55	47.229	1.1023e-05	47.959	106.334	200.460	161.102	97.856	183.149	228.164	97.078	103.114	227.128	230.671	101.315	105.820	107.756	113.502	208.404	109.790	-8191	255	
21608.436	1	1	0	0	0.072245	0.26825	0.19021	0.45762	0.1045	0.13678	0.0417	0.12889	0.060812	0.10774	0.07664	0.38396	0.25233	0.34051	0.15153	0.12781	-1.7729	-2.7458	-2.7375	-2.325	-2.9583	-2.4375	-2.5625	-3.1104	-2.1792	-2.5375	-3.0062	-2.2833	-2.8479	-2.5563	-2.2542	-3.0792	225.458	417.784	419.409	411.013	239.797	321.061	166.580	372.134	123.493	335.380	167.986	103.908	425.223	383.997	247.680	396.859	0.0013348	0.0015434	0.00025571	1900.6	1.3327e-05	9.3966e-07	1665.5	541.29	1.0273e-05	2.985e-06	510.11	158.79	171.95	56.44	2.3016e-05	57.046	0.00097042	0.00098644	0.00028513	1558.6	1.0304e-05	1.076e-05	1364.3	445.97	1.0098e-05	1.0687e-05	419.93	130.42	142.27	46.992	1.1099e-05	47.484	102.950	214.914	159.902	97.847	204.504	377.928	97.089	103.278	219.202	405.394	101.437	105.924	107.841	113.470	203.941	109.629	-8191	255	
#DATA ENDS
