BOXY.EXE: ISS Imagent and Oximeter Data Acquisition Program Version 0.80
Ascii Record File

#ACQ INFORMATION
2  Detector Channels 
16  External MUX Channels 
1  Auxiliary Channels 
5000  Waveform (CCF) Frequency (Hz)
1  Waveforms Skipped 
30  Waveforms Averaged 
1  Cycles Averaged 
16  Acquisitions per Waveform 
10.0806  Updata Rate (Hz) 

#FILE INFORMATION
TRUE -- External MUX Channel results are PARSED.
FALSE -- AC DC and Phase are NOT grouped.
TRUE -- Companion Program Settings File CREATED.
FALSE -- AC data not excluded
FALSE -- DC data not excluded
FALSE -- Phase data not excluded
FALSE -- Auxillary Chn. data not excluded
Tab delimiters

#CALIBRATION STATE
TRUE -- Waveform Calibration Values APPLIED.


#AUX CALIBRATION VALUES
Val Type	aux-1	

Term	1.0000e+00	
Factor	0.0000e+00	


#WF CALIBRATION VALUES
A = Detector Channel
Val Type	A-AC1	A-AC2	A-AC3	A-AC4	A-AC5	A-AC6	A-AC7	A-AC8	A-AC9	A-AC10	A-AC11	A-AC12	A-AC13	A-AC14	A-AC15	A-AC16	A-DC1	A-DC2	A-DC3	A-DC4	A-DC5	A-DC6	A-DC7	A-DC8	A-DC9	A-DC10	A-DC11	A-DC12	A-DC13	A-DC14	A-DC15	A-DC16	A-Ph1	A-Ph2	A-Ph3	A-Ph4	A-Ph5	A-Ph6	A-Ph7	A-Ph8	A-Ph9	A-Ph10	A-Ph11	A-Ph12	A-Ph13	A-Ph14	A-Ph15	A-Ph16	

Term	0.00000e+00	0.00000e+00	0.00000e+00	0.00000e+00	0.00000e+00	0.00000e+00	0.00000e+00	0.00000e+00	0.00000e+00	0.00000e+00	0.00000e+00	0.00000e+00	0.00000e+00	0.00000e+00	0.00000e+00	0.00000e+00	0.00000e+00	0.00000e+00	0.00000e+00	0.00000e+00	0.00000e+00	0.00000e+00	0.00000e+00	0.00000e+00	0.00000e+00	0.00000e+00	0.00000e+00	0.00000e+00	0.00000e+00	0.00000e+00	0.00000e+00	0.00000e+00	0.00000e+00	0.00000e+00	0.00000e+00	0.00000e+00	0.00000e+00	0.00000e+00	0.00000e+00	0.00000e+00	0.00000e+00	0.00000e+00	0.00000e+00	0.00000e+00	0.00000e+00	0.00000e+00	0.00000e+00	0.00000e+00	
Factor	1.00000e+00	1.00000e+00	1.00000e+00	1.00000e+00	1.00000e+00	1.00000e+00	1.00000e+00	1.00000e+00	1.00000e+00	1.00000e+00	1.00000e+00	1.00000e+00	1.00000e+00	1.00000e+00	1.00000e+00	1.00000e+00	1.00000e+00	1.00000e+00	1.00000e+00	1.00000e+00	1.00000e+00	1.00000e+00	1.00000e+00	1.00000e+00	1.00000e+00	1.00000e+00	1.00000e+00	1.00000e+00	1.00000e+00	1.00000e+00	1.00000e+00	1.00000e+00	X	X	X	X	X	X	X	X	X	X	X	X	X	X	X	X	

B = Detector Channel
Val Type	B-AC1	B-AC2	B-AC3	B-AC4	B-AC5	B-AC6	B-AC7	B-AC8	B-AC9	B-AC10	B-AC11	B-AC12	B-AC13	B-AC14	B-AC15	B-AC16	B-DC1	B-DC2	B-DC3	B-DC4	B-DC5	B-DC6	B-DC7	B-DC8	B-DC9	B-DC10	B-DC11	B-DC12	B-DC13	B-DC14	B-DC15	B-DC16	B-Ph1	B-Ph2	B-Ph3	B-Ph4	B-Ph5	B-Ph6	B-Ph7	B-Ph8	B-Ph9	B-Ph10	B-Ph11	B-Ph12	B-Ph13	B-Ph14	B-Ph15	B-Ph16	

Term	0.00000e+00	0.00000e+00	0.00000e+00	0.00000e+00	0.00000e+00	0.00000e+00	0.00000e+00	0.00000e+00	0.00000e+00	0.00000e+00	0.00000e+00	0.00000e+00	0.00000e+00	0.00000e+00	0.00000e+00	0.00000e+00	0.00000e+00	0.00000e+00	0.00000e+00	0.00000e+00	0.00000e+00	0.00000e+00	0.00000e+00	0.00000e+00	0.00000e+00	0.00000e+00	0.00000e+00	0.00000e+00	0.00000e+00	0.00000e+00	0.00000e+00	0.00000e+00	-2.55034e+02	-1.42192e+02	-1.58171e+02	-1.83275e+02	-9.83914e+01	-9.52191e+01	-1.58166e+02	-1.62015e+02	-1.11076e+02	-8.25393e+01	-1.72759e+02	-1.71492e+02	-1.85060e+02	-1.78311e+02	-8.15946e+01	-1.51161e+02	
Factor	6.84074e-05	1.16036e-04	3.77825e-05	1.75057e-01	1.19124e-06	1.02847e-06	2.01126e-01	6.52604e-02	1.39494e-06	1.20521e-06	1.15205e-01	3.44855e-02	6.48392e-02	1.06986e-02	1.09788e-06	1.56755e-02	7.61801e-07	7.68646e-07	2.13154e-07	8.53154e-02	8.43469e-09	8.40861e-09	9.13502e-02	3.13959e-02	8.44513e-09	8.40387e-09	5.21703e-02	1.57552e-02	2.79534e-02	5.07005e-03	8.41014e-09	7.10043e-03	X	X	X	X	X	X	X	X	X	X	X	X	X	X	X	X	



#DISTANCE SETTINGS
A = Detector Channel
A-1	A-2	A-3	A-4	A-5	A-6	A-7	A-8	A-9	A-10	A-11	A-12	A-13	A-14	A-15	A-16	

2.5000e+00	3.0000e+00	2.5000e+00	3.0000e+00	2.0000e+00	3.0000e+00	1.5000e+00	3.0000e+00	3.0000e+00	3.0000e+00	3.0000e+00	3.0000e+00	3.0000e+00	3.0000e+00	1.5000e+00	3.0000e+00	

B = Detector Channel
B-1	B-2	B-3	B-4	B-5	B-6	B-7	B-8	B-9	B-10	B-11	B-12	B-13	B-14	B-15	B-16	

1.0000e+01	1.0000e+01	1.0000e+01	1.4400e+00	1.0000e+01	1.0000e+01	1.5100e+00	1.9400e+00	1.0000e+01	1.0000e+01	1.9900e+00	2.4900e+00	2.4100e+00	2.9000e+00	1.0000e+01	2.9800e+00	




#DATA BEGINS
time	group	step	mark	flag	A-AC1	A-AC2	A-AC3	A-AC4	A-AC5	A-AC6	A-AC7	A-AC8	A-AC9	A-AC10	A-AC11	A-AC12	A-AC13	A-AC14	A-AC15	A-AC16	A-DC1	A-DC2	A-DC3	A-DC4	A-DC5	A-DC6	A-DC7	A-DC8	A-DC9	A-DC10	A-DC11	A-DC12	A-DC13	A-DC14	A-DC15	A-DC16	A-Ph1	A-Ph2	A-Ph3	A-Ph4	A-Ph5	A-Ph6	A-Ph7	A-Ph8	A-Ph9	A-Ph10	A-Ph11	A-Ph12	A-Ph13	A-Ph14	A-Ph15	A-Ph16	B-AC1	B-AC2	B-AC3	B-AC4	B-AC5	B-AC6	B-AC7	B-AC8	B-AC9	B-AC10	B-AC11	B-AC12	B-AC13	B-AC14	B-AC15	B-AC16	B-DC1	B-DC2	B-DC3	B-DC4	B-DC5	B-DC6	B-DC7	B-DC8	B-DC9	B-DC10	B-DC11	B-DC12	B-DC13	B-DC14	B-DC15	B-DC16	B-Ph1	B-Ph2	B-Ph3	B-Ph4	B-Ph5	B-Ph6	B-Ph7	B-Ph8	B-Ph9	B-Ph10	B-Ph11	B-Ph12	B-Ph13	B-Ph14	B-Ph15	B-Ph16	aux-1	digaux	

2118.036	1	1	0	256	0.1683	0.13286	0.079939	0.17382	0.15645	0.1354	0.43711	0.14274	0.16927	0.12657	0.25402	0.25896	0.070124	0.23167	0.061619	0.3591	-2.1354	-2.4625	-1.8417	-2.8333	-2.1958	-2.2646	-2.9771	-2.1292	-2.4813	-2.5438	-2.0312	-2.7687	-2.1562	-2.2771	-2.85	-2.1208	116.447	220.490	243.188	352.819	273.362	317.888	435.674	329.830	374.227	133.035	414.841	412.147	107.367	96.671	172.369	369.006	0.003512	0.00074937	7.08e-05	951.9	4.2792e-06	6.3426e-06	1328.5	355.33	5.4301e-06	1.0434e-05	604.75	239.94	132.8	58.761	7.8371e-06	111.18	0.00081914	0.00078599	0.00019842	912.15	9.0144e-06	8.5049e-06	1244.2	338.07	8.8182e-06	8.5167e-06	556.14	219.45	130.36	55.682	7.8108e-06	101.53	397.504	199.909	129.555	101.176	314.684	242.799	100.922	106.743	126.760	218.290	105.298	109.927	111.259	116.589	186.046	113.988	-8191	255	
2118.132	1	1	0	0	0.059161	0.10184	0.063464	0.054704	0.24184	0.29246	0.21716	0.19121	0.25724	0.1263	0.14562	0.17591	0.16261	0.13248	0.085707	0.102	-2.1167	-2.6333	-1.7417	-2.825	-2.3271	-2.1042	-2.9625	-2.0521	-2.2313	-2.7729	-1.9271	-2.925	-2.4125	-2.2542	-2.65	-2.2625	150.042	157.821	395.279	187.445	154.518	220.547	363.716	417.370	345.041	131.441	415.862	365.584	399.414	440.401	121.288	123.215	0.003083	0.00036114	0.00027236	944.94	7.4889e-06	3.804e-06	1319.7	352.21	1.8045e-05	6.7719e-06	595.2	236.17	130.34	59.505	4.4484e-06	112.34	0.00081126	0.0007686	0.00019209	914.21	8.7399e-06	8.0814e-06	1234.1	336.45	8.5628e-06	8.2211e-06	547.97	217.13	128.56	56.107	7.7883e-06	102.54	406.373	156.817	153.413	101.501	133.435	241.729	100.836	106.497	234.393	296.147	105.387	110.132	111.559	116.174	178.511	113.335	-8191	255	
2118.204	1	1	0	0	0.11469	0.14476	0.062902	0.16789	0.062801	0.011089	0.16946	0.26111	0.18088	0.31573	0.13937	0.35659	0.091773	0.21875	0.083313	0.27373	-1.9625	-2.5396	-1.85	-2.6521	-2.3083	-2.0938	-3.0438	-2.1875	-2.3396	-2.7417	-1.9667	-2.8438	-2.5312	-2.1667	-2.5354	-2.3104	294.380	176.197	415.778	420.751	241.325	214.542	141.739	407.034	270.831	355.890	420.237	385.666	341.847	399.187	148.718	387.227	0.0029294	0.00089404	0.00037761	925.92	9.7696e-06	5.7793e-06	1296.7	344.51	9.3609e-06	6.4877e-06	589.55	234.3	128.56	59.772	1.1572e-05	112.75	0.00080363	0.00074509	0.0002039	902.3	8.8649e-06	8.1809e-06	1218.1	333.42	8.951e-06	8.3898e-06	548.72	216.69	128.83	56.679	8.7161e-06	103.4	419.441	291.133	151.289	101.131	339.068	171.206	100.889	106.496	142.571	283.896	105.670	110.131	111.359	116.311	218.771	113.735	-8191	255	
2118.324	1	1	0	0	0.097234	0.20933	0.072579	0.18061	0.30229	0.30656	0.063853	0.25409	0.30176	0.13685	0.057484	0.12049	0.2278	0.16064	0.22395	0.30816	-1.9333	-2.8688	-1.8458	-2.7708	-2.4792	-1.8708	-3.0104	-2.1479	-2.1396	-2.8208	-1.9312	-2.7812	-2.4167	-1.8417	-2.6542	-2.5979	250.383	159.349	364.684	112.239	439.974	199.853	147.183	438.116	272.630	402.788	114.458	190.934	132.510	119.400	253.724	97.010	0.0030457	0.00093733	0.0001809	917	4.739e-06	9.6388e-06	1296.4	344.47	1.9883e-05	1.163e-05	582.88	233.18	129.11	60.317	1.0882e-05	112.52	0.00083652	0.00075358	0.00022447	902.02	8.9816e-06	7.9092e-06	1227.2	332.84	8.6872e-06	7.908e-06	546.51	215.15	127.16	56.278	8.7047e-06	102.75	412.226	173.274	98.753	101.298	183.587	241.580	101.013	106.713	265.103	429.161	105.675	110.309	111.554	116.392	214.091	113.544	-8191	255	
2118.420	1	1	0	0	0.045846	0.18853	0.15336	0.052005	0.083689	0.15428	0.17279	0.078869	0.11438	0.074877	0.11195	0.091931	0.049045	0.2492	0.23417	0.20128	-1.6083	-2.8021	-2.0312	-2.4625	-2.9437	-1.8	-2.8792	-2.4229	-2.0458	-2.825	-2.1979	-2.5396	-2.975	-1.8083	-2.8854	-2.6271	418.147	201.980	190.479	419.692	148.567	349.766	436.963	402.633	382.306	348.026	383.301	438.029	330.692	340.952	120.845	373.876	0.0037068	0.0016736	0.00029474	924.19	1.2589e-05	8.6893e-06	1294.2	340.89	1.5524e-05	1.1928e-05	577.03	232.78	128.58	60.57	1.0661e-05	112.69	0.00077356	0.00070648	0.00022095	900.76	8.2604e-06	7.6407e-06	1221.5	327.53	8.0159e-06	7.8399e-06	542.03	214.13	125.38	56.574	8.6961e-06	102.47	406.359	158.107	185.622	101.407	220.258	257.300	101.022	106.593	259.091	198.415	105.335	110.108	111.642	116.544	282.185	113.781	-8191	255	
2118.517	1	1	0	0	0.29263	0.40907	0.16905	0.12211	0.24156	0.18768	0.229	0.23669	0.13601	0.10604	0.23838	0.11221	0.078287	0.098639	0.10792	0.10085	-1.6021	-2.9	-2.1312	-2.2292	-2.7229	-2.1125	-2.6979	-2.7542	-1.9292	-2.8729	-2.3438	-2.0625	-2.7354	-1.9958	-2.4979	-2.8917	222.500	333.673	440.392	428.772	352.424	126.326	448.406	120.867	181.326	239.251	408.818	350.259	132.232	431.165	421.189	438.965	0.0031955	0.0012667	0.00046061	921.19	6.4833e-06	1.3656e-05	1292.5	339.8	8.1219e-06	1.1288e-05	569.12	231.05	128.42	60.228	7.2263e-06	112.36	0.00072674	0.0007144	0.00021972	894.21	7.6127e-06	7.8572e-06	1214.3	324.79	7.4131e-06	7.8535e-06	533.88	211.36	122.85	56.441	8.2992e-06	102.08	404.871	201.173	149.936	101.479	307.093	204.458	100.751	106.413	250.430	260.587	105.536	110.135	111.063	116.622	227.746	113.524	-8191	255	
2118.613	1	1	0	0	0.36513	0.16081	0.26891	0.21965	0.18916	0.15189	0.1851	0.19617	0.11469	0.21324	0.12327	0.12936	0.29403	0.090375	0.1185	0.24293	-1.6979	-2.5625	-2.1813	-2.1	-2.8771	-1.8896	-2.6125	-2.5292	-1.8792	-2.7479	-2.3271	-2.2271	-2.4917	-2.0312	-2.3604	-2.8229	152.212	227.407	303.977	415.054	185.992	160.896	342.496	425.711	412.625	242.120	314.433	186.038	207.217	439.637	270.454	428.653	0.0034316	0.00084929	0.0002801	918.66	7.185e-06	8.4713e-06	1285.1	334.65	8.2347e-06	1.1972e-05	568.91	231.1	128.1	60.88	3.6108e-06	114.62	0.00068019	0.00073926	0.00021254	885.87	7.343e-06	8.0709e-06	1207.7	320.53	7.1692e-06	7.9952e-06	529.15	210.56	121.18	57.308	7.93e-06	103.44	406.415	142.168	226.140	101.223	194.890	157.760	101.020	106.605	246.497	225.710	105.358	109.890	111.582	116.391	410.416	113.558	-8191	255	
2118.733	1	1	0	0	0.1918	0.21267	0.12299	0.23709	0.20216	0.057537	0.14378	0.14621	0.23217	0.029145	0.13218	0.33519	0.17195	0.23696	0.061033	0.071212	-1.5417	-2.8917	-2.3812	-2.0667	-2.8333	-2.0479	-2.6667	-2.6771	-1.9813	-2.7583	-2.625	-2.1312	-3.0187	-2.2375	-2.2271	-2.9771	169.597	398.152	232.909	393.359	322.981	338.547	362.113	394.287	303.324	156.608	435.046	432.047	295.152	348.894	328.526	374.706	0.0036207	0.0012176	0.00045136	912.01	7.1497e-06	4.1732e-06	1276.9	334.49	8.8265e-06	8.0067e-06	566.6	232.14	129.45	62.077	7.6116e-06	116.27	0.00068104	0.00074751	0.00020404	874.3	7.3598e-06	8.218e-06	1199.6	317.65	7.2767e-06	8.0234e-06	528.02	210.18	121.88	58.176	7.7825e-06	104.82	397.092	207.088	221.324	101.540	184.285	444.926	101.183	106.787	139.401	208.791	105.721	109.943	111.400	116.520	277.075	113.317	-8191	255	
2118.828	1	1	0	0	0.040891	0.13373	0.1135	0.25628	0.12613	0.25501	0.085859	0.04364	0.13702	0.11268	0.18394	0.029358	0.21216	0.28413	0.044683	0.26722	-1.2833	-2.3229	-2.3979	-2.1937	-2.8583	-2.1896	-2.4042	-3.0583	-1.9146	-2.6708	-2.7979	-2.1229	-2.7146	-2.4354	-2.3042	-3.1312	425.130	369.642	434.633	113.447	437.295	158.599	353.731	269.337	147.463	279.389	318.104	272.027	109.538	107.505	167.238	362.234	0.0037166	0.00069785	0.00023753	902.19	1.0744e-05	1.1732e-05	1275.4	334.37	2.655e-05	1.5781e-05	573.9	233.29	129.05	62.305	2.1174e-06	117.11	0.00072012	0.00074569	0.00020475	868.81	8.0027e-06	8.4842e-06	1198.5	318.52	8.2121e-06	8.4219e-06	537.38	211.93	125.86	58.706	8.0647e-06	105.38	411.809	195.580	157.800	101.452	193.763	393.454	101.159	106.951	169.726	304.574	105.796	110.081	111.011	116.400	305.536	113.697	-8191	255	
2118.901	1	1	0	0	0.21671	0.31302	0.29259	0.18869	0.21819	0.31943	0.20847	0.23135	0.1077	0.1267	0.22315	0.23715	0.22281	0.21862	0.17433	0.15259	-1.4333	-2.6417	-2.7271	-2.0979	-2.7417	-2.4479	-2.2458	-2.9458	-2.1271	-2.5604	-2.9313	-2.1458	-2.7854	-2.6958	-1.8813	-3.0771	128.137	256.742	108.825	99.127	233.931	261.587	361.929	390.374	206.988	362.448	408.594	401.867	442.898	412.698	321.320	95.642	0.0035809	0.00071893	0.00026564	897.59	5.4094e-06	1.1572e-05	1268.6	339.73	9.7427e-06	3.4666e-06	578.55	233.71	126.73	62.637	1.1442e-05	117.67	0.00079486	0.00078416	0.00021018	867.41	8.7765e-06	8.8676e-06	1197.9	322.98	9.2035e-06	9.0029e-06	542.98	213.99	128.64	59.442	8.5882e-06	106.67	390.616	277.628	154.511	101.561	191.620	187.227	101.357	107.173	260.451	432.486	105.533	110.462	112.000	116.440	237.235	113.945	-8191	255	
2119.020	1	1	0	0	0.21941	0.11408	0.29472	0.2519	0.144	0.10561	0.13726	0.37834	0.23353	0.21249	0.25593	0.07752	0.031549	0.010056	0.0066424	0.11961	-1.6688	-2.3688	-2.6312	-2.0521	-2.5521	-2.4958	-2.2458	-3.0312	-2.0604	-2.2562	-2.9271	-1.875	-2.4854	-2.5979	-2.0667	-2.9667	137.469	347.171	105.137	334.715	132.568	128.847	270.255	397.811	392.955	193.284	442.584	379.402	319.820	245.845	382.785	310.047	0.0032724	0.00020094	0.00012379	894.4	8.0399e-06	1.0172e-05	1271.4	339.58	1.6534e-06	5.787e-06	578.97	233.62	129.43	62.52	2.4316e-06	117.79	0.00089707	0.00084813	0.00022339	872.53	9.7341e-06	9.6241e-06	1201.5	327.23	1.0055e-05	9.5324e-06	545.65	217.06	131.61	59.77	8.9864e-06	107.53	405.683	214.302	260.982	101.442	180.759	202.028	100.917	106.864	333.537	315.885	105.681	110.189	112.163	116.366	115.193	113.909	-8191	255	
2119.116	1	1	0	0	0.40682	0.12204	0.043211	0.18512	0.24852	0.21668	0.22856	0.26373	0.14316	0.087906	0.11101	0.2847	0.13257	0.15587	0.16642	0.1319	-1.8979	-2.1229	-3.0563	-2.1521	-2.6	-2.5792	-2.1229	-2.8187	-2.2333	-2.1937	-2.8646	-2.2167	-2.5	-2.7562	-1.8146	-2.7729	367.617	111.609	123.526	406.786	359.533	364.214	381.504	389.135	389.940	307.589	116.484	444.302	391.461	401.509	188.918	383.745	0.0032577	0.00043592	0.00063336	886.14	6.6427e-06	1.1354e-05	1270.7	342.21	4.8659e-06	4.9614e-06	588.43	235.59	128.62	62.287	1.2601e-05	115.47	0.0009754	0.00090708	0.00023345	884.61	1.0472e-05	1.0226e-05	1206.5	334.38	1.0574e-05	9.9093e-06	554.13	219.6	132.88	59.61	9.4495e-06	106.88	402.513	403.819	171.848	101.430	251.742	394.170	100.942	106.967	366.259	420.230	105.759	110.255	111.501	116.457	280.550	113.878	-8191	255	
2119.212	1	1	0	0	0.10809	0.10615	0.16474	0.06562	0.088445	0.30933	0.21334	0.35359	0.13576	0.0735	0.18478	0.28592	0.24554	0.37468	0.14566	0.19016	-1.9833	-2.0812	-2.7562	-2.0271	-2.4313	-2.7542	-1.9833	-2.9021	-2.3063	-2.025	-2.9292	-2.525	-2.2042	-2.9479	-1.7896	-2.6896	142.969	328.763	338.942	334.746	378.340	199.310	417.930	408.764	235.773	253.799	428.986	423.316	282.318	161.053	429.674	376.895	0.0034495	0.00081605	0.00064067	892.25	4.7639e-06	4.2428e-06	1261.1	341.75	1.1254e-05	1.0005e-05	585.69	232.67	127.49	60.67	2.4093e-05	112.05	0.0010097	0.00093308	0.00025025	897.55	1.0951e-05	1.0533e-05	1215.6	337.6	1.1169e-05	1.0197e-05	555.92	219.13	134.45	58.246	1.0299e-05	104.31	409.230	415.318	184.424	101.449	352.558	89.397	101.187	106.641	184.804	279.787	105.827	110.018	111.850	116.231	182.366	114.023	-8191	255	
2119.333	1	1	0	0	0.24611	0.17274	0.064727	0.18804	0.15131	0.010182	0.20177	0.16117	0.16936	0.11233	0.17313	0.38049	0.32037	0.20795	0.25823	0.044098	-1.9104	-1.7729	-2.9271	-2.3312	-2.2333	-2.9875	-2.0667	-2.6896	-2.5542	-2.0146	-2.8771	-2.3958	-2.0854	-2.9521	-2.0625	-2.5917	133.319	322.986	316.306	201.032	340.353	418.136	366.989	353.656	282.910	92.001	386.689	394.332	422.690	435.863	305.042	312.134	0.0036751	0.0011098	0.00061597	904.92	5.7221e-06	7.0655e-06	1279.1	344.74	1.0449e-05	1.3197e-05	587.37	232.91	129.04	60.018	1.9234e-05	111.4	0.0010215	0.00090453	0.00026346	903.6	1.064e-05	9.8095e-06	1223.7	338.45	1.0754e-05	9.6242e-06	560.31	218.52	133.9	57.463	1.063e-05	103.25	409.083	131.888	129.463	101.063	289.581	236.905	101.272	107.152	286.744	246.261	105.807	109.981	111.514	116.665	190.416	114.227	-8191	255	
2119.429	1	1	0	0	0.1246	0.034218	0.075695	0.018492	0.42971	0.15025	0.0327	0.045602	0.3489	0.2825	0.066152	0.17864	0.19422	0.17071	0.18807	0.12829	-2.1688	-1.6958	-2.7375	-2.375	-2.2583	-2.8375	-2.2292	-2.45	-2.7083	-1.9708	-2.9833	-2.525	-2.025	-2.8604	-2.1271	-2.4479	282.713	96.316	289.880	260.208	181.324	357.633	431.987	297.957	325.650	219.531	366.483	114.042	276.126	421.966	172.707	438.464	0.0032953	0.00089072	8.4903e-05	900.92	9.1145e-06	1.0185e-05	1281.4	345.33	1.1006e-05	6.5279e-06	589.01	231.58	129.29	59.426	7.2626e-06	109.97	0.00097392	0.00086426	0.00026607	902.77	9.984e-06	9.2973e-06	1229.9	338.05	9.8663e-06	9.1554e-06	558.81	216.69	130.06	56.486	1.0134e-05	101.68	391.910	186.105	208.275	101.249	288.243	230.608	101.240	107.084	222.289	181.242	105.815	110.406	111.863	116.817	249.661	114.221	-8191	255	
2119.501	1	1	0	0	0.27028	0.27528	0.21964	0.19851	0.078881	0.14441	0.22714	0.046451	0.24761	0.27605	0.17474	0.25192	0.13968	0.13146	0.045006	0.40081	-2.3354	-2.0771	-2.5563	-2.5292	-1.8354	-2.775	-2.2042	-2.6437	-2.6437	-2.2208	-2.6792	-2.7417	-1.9354	-2.975	-2.0812	-2.4979	104.972	241.581	363.850	103.017	195.219	400.111	353.290	153.239	261.364	289.485	381.732	422.540	370.743	384.201	326.567	359.449	0.003492	0.0014951	0.00012038	913.82	4.8153e-06	6.6843e-06	1280.7	348.96	3.7972e-06	1.9554e-05	584.44	230.18	129.26	58.317	3.4863e-06	107.73	0.00086758	0.00083451	0.00025497	904.02	9.0117e-06	9.211e-06	1231	337.3	8.9628e-06	9.2397e-06	554.11	213.69	127.09	55.407	9.6707e-06	98.758	403.191	164.024	354.827	101.663	407.141	196.781	101.641	107.625	407.409	160.690	106.376	110.509	111.646	117.385	178.600	114.720	-8191	255	
2119.621	1	1	0	0	0.20202	0.016313	0.040079	0.19756	0.286	0.18954	0.17925	0.044769	0.13877	0.3015	0.051625	0.23951	0.44733	0.3675	0.21013	0.062718	-2.4958	-2.1	-2.7021	-2.6146	-2.0104	-2.8438	-2.4813	-2.3417	-2.8688	-1.9792	-2.7396	-2.8438	-2.0125	-2.8917	-2.4875	-2.275	416.848	150.211	108.050	422.702	178.981	273.207	399.580	272.527	250.037	324.027	352.429	413.647	330.870	406.466	231.392	297.055	0.0028876	0.0015474	0.00036345	919.27	1.1597e-05	4.8988e-06	1284.9	347.82	3.3168e-07	9.3862e-06	582.07	228.72	128.11	57.616	1.38e-05	106.66	0.00079322	0.00083868	0.00023916	901.06	8.2984e-06	9.1697e-06	1223.8	334.65	8.3632e-06	9.3176e-06	548.39	211.43	125.26	54.882	9.2005e-06	97.492	398.353	150.791	409.750	101.662	206.546	269.086	101.624	107.300	148.592	269.199	105.932	110.210	111.695	116.920	294.058	114.388	-8191	255	
2119.718	1	1	0	0	0.21748	0.026221	0.19572	0.086308	0.047772	0.069539	0.079107	0.34882	0.14072	0.19441	0.30951	0.41294	0.20301	0.15211	0.072595	0.30452	-2.5	-1.9146	-2.4208	-2.675	-1.8271	-2.8229	-2.625	-2.2062	-2.85	-2.2	-2.4833	-2.8833	-1.9813	-2.9021	-2.4896	-2.0187	129.143	266.393	301.138	390.425	276.807	334.337	306.298	405.534	259.302	423.053	429.149	436.498	98.444	433.401	224.083	367.635	0.0032796	0.0016493	0.00019034	922.89	1.7984e-05	9.8736e-07	1283.6	348.4	1.6641e-05	4.8362e-06	584.02	228.01	128.58	57.242	9.5294e-06	105.98	0.00076213	0.00084594	0.00022653	898.19	8.1497e-06	9.0628e-06	1225.2	333.18	8.3328e-06	9.2905e-06	547.81	210.26	126.07	54.54	9.0611e-06	96.667	403.670	106.779	364.162	102.017	198.574	167.997	101.539	106.909	239.693	260.309	106.080	110.469	111.887	116.829	250.430	114.573	-8191	255	
2119.812	1	1	0	0	0.2433	0.22316	0.18998	0.1225	0.13786	0.11589	0.25314	0.19415	0.17677	0.25606	0.068709	0.1582	0.18422	0.1268	0.023839	0.46162	-2.4833	-2.0833	-2.4375	-2.8292	-1.9271	-2.675	-2.7562	-2.1542	-2.8187	-2.4521	-2.1292	-2.9458	-1.9708	-2.6375	-2.5333	-1.9479	285.562	185.449	142.169	228.275	253.546	95.191	410.015	365.702	216.157	174.210	159.543	189.867	351.390	438.933	366.874	448.151	0.0031371	0.0016608	0.00027462	924.18	6.8911e-06	7.072e-06	1296.4	350.48	2.0566e-05	1.5393e-05	585.39	226.05	126.86	57.111	8.6836e-06	106.14	0.000787	0.00083881	0.00022317	896.59	8.4822e-06	8.9928e-06	1228.5	333.76	8.6624e-06	9.2078e-06	550.15	207.17	126.15	54.303	8.9208e-06	96.663	406.293	181.327	415.736	101.896	165.134	205.108	101.349	107.069	152.173	201.763	105.784	110.350	111.574	117.180	243.942	114.154	-8191	255	
2119.908	1	1	0	0	0.20871	0.26324	0.13381	0.035381	0.17503	0.15191	0.22259	0.20211	0.090552	0.025702	0.15546	0.45669	0.24683	0.12535	0.30792	0.22602	-2.4229	-2.2938	-2.2167	-2.9167	-2.0438	-2.4188	-2.7833	-2.2042	-2.6292	-2.2708	-2.3229	-2.75	-2.1	-2.1333	-2.7146	-2.1437	290.361	407.580	257.432	211.569	230.841	300.955	98.532	418.601	423.076	146.153	109.736	429.861	98.447	445.927	295.590	98.256	0.0028263	0.00043322	0.00010352	922.97	2.802e-06	2.4386e-06	1291.3	350.17	2.5156e-05	3.7927e-06	582.2	225.79	124.53	57.21	8.0216e-06	106.43	0.00083172	0.00084738	0.00022318	893.15	9.2902e-06	9.2562e-06	1223	335.42	9.4014e-06	9.5126e-06	548.11	207.16	127.71	54.756	9.0071e-06	97.342	393.410	183.051	181.799	101.507	256.599	173.070	101.021	107.108	178.322	201.205	105.719	110.076	111.765	116.821	330.614	114.183	-8191	255	
2120.029	1	1	0	0	0.21393	0.20319	0.25096	0.28435	0.11967	0.060951	0.21693	0.16999	0.15828	0.1242	0.13488	0.20071	0.19259	0.30496	0.25878	0.2619	-2.5125	-2.1813	-2.0687	-2.9208	-2.1417	-2.3	-2.9458	-2.0917	-2.6958	-2.3042	-2.0479	-2.9979	-2.1354	-2.3229	-2.8396	-1.8583	324.301	329.016	182.501	395.234	423.186	298.123	98.692	405.054	307.404	103.852	102.059	419.893	187.928	376.420	179.552	398.682	0.0035319	0.0014239	0.00018769	917.6	1.1216e-05	5.2004e-06	1285.9	352.73	7.0535e-06	3.4218e-06	588.2	223.42	125.05	56.963	3.3925e-06	106.82	0.0008892	0.00086421	0.00022028	895.21	9.7219e-06	9.2584e-06	1217.5	337.14	9.4968e-06	9.3429e-06	547.8	207.52	128.32	54.739	8.5141e-06	98.223	408.672	256.395	184.200	101.784	125.624	223.721	101.181	106.919	238.884	256.415	105.732	110.218	111.523	116.778	204.989	113.999	-8191	255	
2120.125	1	1	0	0	0.30731	0.035825	0.39728	0.07753	0.25652	0.20956	0.043864	0.16757	0.13819	0.10455	0.066144	0.17999	0.18675	0.31335	0.187	0.022293	-2.0563	-2.5812	-1.8521	-2.8979	-1.9917	-2.2062	-2.8563	-1.8583	-2.5479	-2.525	-2.0875	-2.9854	-2.5792	-2.2271	-3.0042	-2.1708	209.250	106.302	330.988	209.212	154.879	179.756	286.640	401.242	285.801	382.855	398.241	356.031	96.734	445.056	337.702	416.036	0.0030284	0.00015139	0.0002076	916.69	1.1465e-05	7.1221e-06	1299.3	351.57	9.5414e-06	7.3261e-06	589.01	227.22	127.18	57.292	3.6512e-06	107.83	0.00088945	0.00086198	0.0002141	900.72	9.8195e-06	9.2915e-06	1222.5	339.98	9.6831e-06	9.441e-06	550.92	211.02	129.56	54.854	8.5785e-06	99.307	404.330	198.522	119.530	101.435	408.655	316.015	101.327	107.041	119.673	327.821	106.008	110.096	111.703	116.719	359.751	114.557	-8191	255	
2120.197	1	1	0	0	0.2205	0.07517	0.068401	0.08328	0.027491	0.057966	0.15361	0.079137	0.21266	0.15761	0.19384	0.20189	0.1062	0.36232	0.13757	0.29849	-2.275	-2.6646	-1.8625	-2.7354	-2.5229	-2.2354	-3.1354	-2.175	-2.3646	-2.8833	-2.0146	-2.8396	-2.3458	-2.2062	-2.9021	-2.2958	170.789	207.211	437.579	407.854	189.375	378.305	399.615	272.340	397.207	319.545	389.926	366.804	225.511	442.596	282.132	337.448	0.0032242	0.00068038	0.00024928	922.13	8.1274e-06	7.2331e-06	1296.4	351.91	9.3368e-06	4.9807e-06	591.15	228.24	127.31	56.565	1.4764e-05	106.56	0.00088643	0.00083351	0.00021599	906	9.7214e-06	9.0305e-06	1224.9	341.68	9.6061e-06	9.1987e-06	554.15	212.68	130.67	54.195	9.2132e-06	98.768	418.926	417.898	91.552	101.481	303.619	400.824	101.721	106.918	315.634	378.512	105.689	110.727	111.997	117.210	209.369	114.220	-8191	255	
2120.293	1	1	0	0	0.29847	0.1074	0.34139	0.21618	0.090739	0.37074	0.21571	0.17426	0.23478	0.043156	0.1933	0.14343	0.12349	0.27366	0.24484	0.30935	-1.9083	-2.7438	-1.8896	-2.5854	-2.5062	-1.8729	-2.9604	-2.3729	-2.0563	-2.9	-2.0812	-2.8833	-2.4771	-2.0521	-2.7896	-2.4979	201.173	127.895	448.372	128.305	135.092	430.308	385.954	403.825	126.013	269.384	401.284	165.450	412.574	423.810	170.013	427.123	0.0035505	0.00022276	0.00057882	918.68	1.3547e-05	1.112e-05	1297.3	353.4	1.1286e-05	1.4149e-06	594.96	226.91	126.5	55.491	3.9808e-06	104.8	0.00090539	0.0008377	0.00023774	913.34	9.8943e-06	8.8879e-06	1236.9	344.1	9.7575e-06	9.0037e-06	561.16	211.52	130.44	53.292	9.8877e-06	97.417	405.056	399.122	115.412	101.849	195.798	290.906	101.327	107.101	212.558	180.319	105.866	110.319	111.135	116.310	232.875	114.033	-8191	255	
2120.413	1	1	0	0	0.12373	0.15369	0.083736	0.44071	0.17896	0.11767	0.12152	0.16983	0.31983	0.13547	0.26631	0.44545	0.14632	0.21904	0.14102	0.24052	-1.6917	-2.85	-2.0062	-2.5875	-2.8521	-1.9625	-2.9125	-2.3833	-1.9312	-3	-2.0979	-2.4417	-2.7583	-2.0958	-2.6771	-2.5583	344.823	303.811	336.453	107.986	369.708	215.417	400.366	448.417	359.578	204.203	342.491	413.781	121.927	95.002	127.033	377.858	0.0025191	0.0012621	0.00021107	943.69	9.9366e-06	5.1857e-06	1317.2	355.88	1.8076e-05	9.8838e-06	593.31	222.77	125.64	54.869	1.1856e-05	103.61	0.00091621	0.00083013	0.0002539	932.15	9.7606e-06	8.7361e-06	1257.6	345.51	9.2108e-06	8.6474e-06	560.23	207.58	126.66	52.171	9.7399e-06	95.957	423.504	441.748	114.631	101.580	329.410	343.287	101.199	106.631	326.379	256.366	105.716	110.348	111.200	116.950	309.848	114.593	-8191	255	
2120.510	1	1	0	0	0.30214	0.15097	0.071875	0.055991	0.17706	0.063817	0.08032	0.49423	0.1909	0.13075	0.15239	0.17045	0.22497	0.29376	0.013036	0.18902	-1.5938	-2.7167	-2.2771	-2.3	-2.7146	-1.9438	-2.8167	-2.4188	-2.075	-2.8146	-2.2292	-2.2646	-2.7896	-2.0146	-2.5417	-2.4188	362.089	323.969	340.785	331.467	407.040	323.861	271.185	362.677	121.844	275.954	396.909	105.815	108.702	316.565	190.595	299.613	0.0027714	0.0017388	0.00058396	949.62	8.6418e-06	8.9537e-06	1316.6	353.82	8.8391e-06	6.81e-06	591.67	224.64	125.31	54.272	5.2334e-06	103.92	0.00084533	0.00081684	0.00025466	931.85	9.2379e-06	9.0705e-06	1261.3	343.32	8.8485e-06	8.9183e-06	561.56	208.24	124.86	52.296	9.5369e-06	96.116	388.229	163.587	122.098	101.767	343.797	250.932	101.447	106.929	107.976	200.216	105.754	110.136	111.690	116.864	242.558	114.166	-8191	255	
2120.606	1	1	0	0	0.14186	0.15709	0.26644	0.20975	0.058635	0.10519	0.024064	0.23912	0.115	0.1073	0.099554	0.075882	0.069592	0.10171	0.104	0.24179	-1.6042	-2.7125	-1.95	-2.3542	-2.7521	-2.0021	-2.5729	-2.7104	-1.8646	-2.85	-2.4458	-2.25	-2.575	-2.2771	-2.5833	-2.8125	136.096	177.110	323.087	312.957	115.843	376.116	283.810	93.852	240.281	380.715	120.101	223.926	296.186	423.023	400.277	133.433	0.0027429	0.0013491	0.00057178	949.41	1.1997e-05	8.3161e-06	1325.1	354.86	1.2371e-05	1.9894e-05	591.75	225.31	126.18	55.507	1.0159e-05	104.42	0.00078273	0.00081447	0.00024416	924.28	8.4412e-06	9.0619e-06	1256.2	342.62	8.2119e-06	9.1285e-06	559.5	208.03	123.63	53.021	8.9264e-06	95.817	406.249	209.220	121.766	101.541	278.631	137.146	101.368	106.840	170.493	184.243	105.119	110.206	111.127	116.349	223.433	114.394	-8191	255	
2120.702	1	1	0	0	0.22212	0.10729	0.079007	0.19173	0.181	0.067055	0.12797	0.072769	0.1552	0.23052	0.15466	0.2262	0.018317	0.14828	0.10992	0.25056	-1.5042	-2.5875	-2.2687	-1.9646	-2.975	-1.9937	-2.5917	-2.8229	-1.85	-2.6479	-2.3792	-2.1229	-2.8271	-2.2042	-2.3187	-3.1	286.596	303.213	137.442	434.675	197.699	399.226	433.142	432.535	147.396	321.789	336.756	428.553	286.217	428.913	404.210	211.665	0.0037851	0.0012806	0.00051986	954.87	4.5461e-06	7.7326e-06	1318	353.6	1.1713e-05	1.3296e-05	586.98	224.93	128.23	54.537	8.6954e-06	102.15	0.00073409	0.00080656	0.00022633	924.53	7.9072e-06	8.9859e-06	1252	338.07	8.0318e-06	9.0104e-06	551.99	207.58	125.29	52.388	8.7266e-06	93.865	401.705	163.870	169.624	101.250	113.945	213.421	101.094	106.723	217.339	299.087	105.676	110.123	111.079	116.507	209.796	114.368	-8191	255	
2120.798	1	1	0	0	0.20063	0.0092104	0.079442	0.36477	0.095146	0.051109	0.11365	0.155	0.26306	0.14582	0.05961	0.30453	0.17527	0.16987	0.2067	0.10652	-1.4625	-2.7646	-2.2125	-2.1458	-2.8042	-2.125	-2.3021	-2.9771	-1.9562	-2.5354	-2.7333	-1.9917	-2.7875	-2.2896	-2.2125	-2.6167	337.786	123.780	91.649	442.208	396.152	368.548	442.478	92.243	220.613	330.733	229.324	432.412	443.756	442.958	260.042	359.625	0.0034122	0.0014276	0.00025497	952.22	1.8822e-05	1.4911e-06	1321.2	351.08	1.1795e-05	3.8082e-06	588.28	229.48	129.58	57.145	7.1026e-07	107.77	0.00076279	0.00080687	0.0002207	913.09	7.9966e-06	8.7362e-06	1243.3	333.83	8.0202e-06	8.4917e-06	549.65	210.08	126.2	54.489	8.1119e-06	97.393	403.591	199.422	391.814	101.258	193.469	180.154	100.913	106.551	245.544	145.871	105.500	109.989	111.106	116.845	132.802	114.031	-8191	255	
2120.894	1	1	0	0	0.11855	0.049376	0.14204	0.34399	0.04061	0.20642	0.17422	0.22577	0.20378	0.1336	0.098353	0.2215	0.11819	0.26773	0.21486	0.37153	-1.6437	-2.4417	-2.6937	-2.1354	-2.7333	-2.3167	-2.2042	-2.8812	-1.9875	-2.4917	-2.7687	-2.1437	-2.6417	-2.4875	-2.0979	-2.8875	224.242	114.470	213.883	96.433	136.991	322.024	347.382	413.276	148.598	115.348	227.051	153.706	312.554	400.282	235.835	432.745	0.0033434	0.0012501	0.0001317	934.9	3.6555e-06	4.2472e-06	1303.7	349.92	6.7268e-06	2.2253e-06	589.55	231.72	130.15	59.927	5.2274e-06	111.24	0.00076554	0.00075439	0.00020226	893.2	8.0266e-06	8.2936e-06	1223.4	330.02	8.1472e-06	8.0506e-06	546.61	210.88	126.06	56.32	7.4856e-06	100.41	396.016	165.143	399.352	101.232	144.191	131.488	101.331	106.522	217.281	329.596	105.320	110.447	111.827	116.490	393.632	113.882	-8191	255	
2121.013	1	1	0	0	0.19854	0.12269	0.16275	0.081966	0.17637	0.19481	0.36991	0.12423	0.06068	0.063065	0.094666	0.14805	0.13015	0.32345	0.27218	0.052411	-1.5979	-2.4771	-2.7854	-2.0146	-2.6646	-2.4958	-1.95	-2.9208	-1.9833	-2.3375	-2.9208	-1.7417	-2.8521	-2.4	-2.0979	-3.05	399.276	100.260	405.876	146.692	228.102	362.413	358.613	109.338	119.215	138.260	380.126	379.448	213.899	426.635	160.529	309.266	0.0034427	0.0006369	0.0002152	918.97	8.0718e-06	1.0756e-05	1299.3	347.75	3.7038e-06	4.8063e-06	586.63	233.31	130.11	60.407	5.0673e-06	112.84	0.00076201	0.00071523	0.00018814	880.71	7.9623e-06	7.8343e-06	1208.1	328.1	8.066e-06	7.4813e-06	538.46	211.3	125.16	56.296	6.6932e-06	101.41	408.813	242.492	118.216	101.275	320.012	226.378	101.015	107.131	418.382	188.070	105.338	110.101	110.779	116.501	344.886	114.027	-8191	255	
2121.109	1	1	0	0	0.064743	0.15488	0.1996	0.077773	0.15311	0.062975	0.042055	0.26024	0.26423	0.27133	0.11329	0.17606	0.32401	0.19606	0.07674	0.29052	-1.6104	-2.0875	-2.6542	-1.9708	-2.5125	-2.6146	-2.0354	-2.8104	-2.1042	-2.3958	-2.8583	-2.1667	-2.5896	-2.7521	-1.7771	-3.0021	373.259	373.119	355.565	128.508	272.274	223.969	376.025	400.204	261.856	145.973	398.897	99.121	132.744	443.109	427.449	379.130	0.0037076	0.001107	9.8644e-05	924.86	1.2845e-05	4.9245e-07	1310.5	352.42	9.1243e-06	1.1898e-05	593.16	235.03	131.76	61.477	9.1076e-06	115.32	0.00073398	0.0006676	0.00017267	886.94	7.7127e-06	7.5067e-06	1211.2	332.29	7.8542e-06	7.3864e-06	542.67	214.72	126.18	57.447	6.8994e-06	104.31	405.036	193.477	243.408	101.503	177.363	382.648	101.272	107.041	165.190	217.330	105.848	110.096	111.543	116.638	187.520	114.253	-8191	255	
2121.205	1	1	0	0	0.30731	0.080406	0.10187	0.35229	0.15529	0.13091	0.31617	0.074995	0.15566	0.11196	0.11933	0.24672	0.095455	0.20743	0.24814	0.13912	-1.6479	-2.1188	-2.8271	-2.1021	-2.4771	-2.5354	-2.1833	-2.7771	-2.325	-1.925	-2.7667	-2.1979	-2.2271	-2.8104	-1.8771	-2.8833	316.986	435.671	244.199	393.861	361.952	293.990	386.502	435.665	198.076	130.087	373.435	431.615	367.370	401.175	273.517	409.439	0.0034982	0.00068213	0.00021089	921.63	7.1726e-06	9.2869e-06	1308.5	350.2	2.3929e-06	4.6052e-06	594.48	237.67	131.73	62.717	1.1356e-05	117.1	0.00076003	0.00069155	0.00018162	890.1	8.0636e-06	7.7454e-06	1215.3	334.2	8.2068e-06	7.5176e-06	548.43	217.89	127.75	58.58	7.6458e-06	106.74	413.967	413.446	92.013	101.633	234.197	196.230	101.237	107.208	240.072	145.082	105.732	110.626	112.133	116.863	244.316	114.273	-8191	255	
2121.301	1	1	0	0	0.13144	0.12872	0.25941	0.10714	0.13187	0.14439	0.33093	0.30765	0.19673	0.17995	0.21349	0.20944	0.13618	0.05888	0.39797	0.22769	-1.8875	-2.0521	-2.55	-2.0938	-2.3417	-2.6083	-2.0104	-2.3896	-2.3354	-1.95	-2.7292	-2.2938	-2.1104	-2.7479	-1.9167	-2.8333	425.362	409.309	361.423	382.967	435.378	233.525	345.082	124.641	133.547	380.409	381.367	396.691	415.838	116.246	110.802	397.327	0.0036806	0.0012001	0.00023566	903.61	8.1733e-06	6.1653e-06	1279.9	345.39	6.7521e-06	1.0797e-05	591.75	236.47	129.4	64.68	1.1136e-05	121.38	0.00080683	0.00071891	0.00020546	887.09	8.8251e-06	8.3214e-06	1213.7	333.44	9.1936e-06	8.2674e-06	553.63	219.37	129.26	60.726	9.1412e-06	111.43	407.601	261.749	165.357	101.184	220.535	277.075	101.487	107.508	174.393	270.283	105.656	110.268	112.264	116.469	280.441	113.847	-8191	255	
2121.398	1	1	0	0	0.021946	0.11159	0.14179	0.15082	0.37232	0.29399	0.28755	0.14837	0.065323	0.087329	0.092948	0.20361	0.19755	0.24744	0.10087	0.26561	-1.8875	-1.7833	-2.8042	-2.1604	-2.2125	-2.7167	-1.9813	-2.6104	-2.45	-1.9979	-2.9417	-2.325	-2.0792	-3.0833	-2.0458	-2.6854	288.074	295.541	398.409	94.259	199.455	285.455	393.231	435.684	94.517	323.713	393.790	362.119	387.055	97.275	322.503	373.000	0.0037642	0.0011993	0.00046075	872.12	7.0411e-06	4.5258e-06	1258.1	331.96	1.0251e-05	1.7809e-05	582.92	235.47	128.71	66.13	2.2262e-05	123.41	0.00090098	0.00079067	0.00024695	870.18	9.9642e-06	9.2193e-06	1205.9	327.14	1.0307e-05	9.3136e-06	554.57	220.42	130.59	62.218	1.0099e-05	112.85	395.587	278.476	109.860	101.226	321.884	238.945	101.391	107.209	107.567	220.377	105.778	110.306	112.145	117.007	222.913	113.873	-8191	255	
2121.494	1	1	0	0	0.15906	0.086522	0.1405	0.17703	0.07959	0.25946	0.32992	0.2767	0.10206	0.18965	0.20942	0.28921	0.048223	0.1537	0.16192	0.47355	-2.4417	-1.9937	-2.5771	-2.4417	-1.8271	-2.8104	-2.0958	-2.3271	-2.8354	-1.775	-2.8229	-2.5	-2.0729	-3.0521	-2.0167	-2.4208	263.249	394.800	154.641	426.875	213.112	231.607	379.990	406.659	350.680	166.469	430.069	399.415	128.794	118.053	323.275	372.970	0.0036657	0.00046426	0.00022077	885.2	9.3582e-06	1.7863e-05	1276.3	346.71	8.397e-06	3.6438e-06	595.08	237.81	132.65	62.201	1.5436e-05	118.03	0.00086017	0.00077689	0.00024046	871.41	8.2898e-06	7.9985e-06	1215.2	331.76	7.8009e-06	7.5931e-06	553.13	216.69	123.99	57.698	7.6732e-06	105.8	408.293	141.217	174.352	101.264	221.120	172.482	101.474	107.459	175.291	220.072	106.146	110.711	112.296	117.237	287.586	114.527	-8191	255	
2121.590	1	1	0	0	0.26246	0.23926	0.1134	0.26575	0.16453	0.23361	0.14695	0.13393	0.14945	0.1509	0.34883	0.17439	0.20665	0.073468	0.24655	0.13067	-2.3521	-1.9125	-2.6333	-2.65	-1.8979	-2.8438	-2.3708	-2.2958	-2.7854	-1.9562	-2.6354	-2.7604	-1.8813	-2.9062	-2.1583	-2.2417	174.514	410.942	176.691	438.612	409.834	206.009	110.889	140.273	335.480	380.172	353.260	99.325	207.997	217.793	305.612	96.365	0.0038184	0.001086	0.00013788	921.38	3.7234e-06	1.4134e-05	1301.3	347.2	1.7829e-05	4.9482e-06	584.41	236.12	130.04	64.416	6.3485e-06	121.57	0.00062061	0.00061817	0.0001844	883.86	6.3474e-06	6.9386e-06	1211.7	326.08	6.5589e-06	7.2005e-06	540.17	214.45	121.35	59.664	8.017e-06	109.57	410.430	167.028	161.083	101.671	244.831	207.981	101.299	107.231	259.813	221.462	106.290	110.408	111.697	116.782	259.789	114.245	-8191	255	
2121.686	1	1	0	0	0.15502	0.21681	0.10067	0.40247	0.24954	0.1301	0.52082	0.18171	0.27916	0.21838	0.24999	0.11213	0.17192	0.30965	0.25172	0.23925	-2.4062	-1.8417	-2.4896	-2.8833	-1.9958	-2.6188	-2.4813	-2.0458	-2.9083	-1.8312	-2.4708	-2.7188	-1.9083	-2.7771	-2.3208	-2.2062	391.995	392.305	297.702	413.836	309.838	428.164	426.446	382.175	114.392	314.927	404.996	380.033	138.331	444.337	301.605	350.531	0.0036538	0.0014251	0.00057987	877.88	6.0018e-06	1.0716e-05	1253.1	329.83	7.9075e-06	1.4146e-05	571.83	233.96	128.49	65.385	1.6797e-05	123.29	0.00068244	0.00075084	0.0002122	853.43	7.4739e-06	8.3863e-06	1185.9	315.97	7.6835e-06	8.5887e-06	536.11	214.5	122.79	61.113	8.1791e-06	110.63	403.906	162.269	131.681	101.512	174.112	255.358	101.790	107.763	224.724	156.984	106.371	111.002	112.526	117.283	173.683	114.548	-8191	255	
2121.805	1	1	0	0	0.40365	0.12057	0.055804	0.081229	0.14569	0.26073	0.1966	0.32369	0.18412	0.052836	0.22756	0.10467	0.10424	0.32108	0.22451	0.23736	-2.4896	-2.0479	-2.2854	-2.7625	-2.0625	-2.6771	-2.7062	-2.0729	-2.8479	-1.9917	-2.5708	-2.8417	-2.0375	-2.6917	-2.5083	-2.1	378.743	336.362	357.295	143.046	150.945	203.608	374.311	95.667	438.116	307.527	383.342	421.036	445.958	445.478	270.610	99.448	0.0043305	0.00087085	0.00045859	885.19	1.5162e-05	1.0849e-05	1271.5	337.92	9.7431e-06	3.7412e-06	577.35	234.63	127.99	63.894	3.646e-06	122.52	0.00068612	0.00074377	0.00019429	853.31	7.141e-06	7.6998e-06	1187.7	317.63	6.9616e-06	7.5461e-06	531.05	211.91	121.27	59.398	7.0334e-06	108.92	402.393	179.665	211.474	102.190	181.401	251.549	101.274	107.192	161.082	378.890	105.851	110.439	111.480	116.944	176.231	114.103	-8191	255	
2121.901	1	1	0	0	0.094159	0.21612	0.29737	0.10188	0.30285	0.10997	0.081138	0.2522	0.14177	0.17296	0.13004	0.19587	0.11056	0.11277	0.1685	0.32774	-2.5375	-2.2	-2.0667	-2.8854	-2.0396	-2.5542	-2.8563	-2.0708	-2.775	-2.2313	-2.3104	-3.0479	-1.9417	-2.6583	-2.6167	-2.1021	364.884	407.051	322.647	406.738	350.078	425.714	164.535	409.725	191.803	122.547	408.333	113.869	166.966	388.690	333.349	401.551	0.0042475	0.00068003	0.00024681	889.51	4.1627e-06	5.2245e-06	1256.7	322.05	6.903e-07	7.706e-06	554.31	228.54	124.37	63.091	1.3933e-05	121.67	0.00064944	0.00067956	0.00017822	847.45	7.2e-06	7.4084e-06	1176.7	304.48	7.3198e-06	7.5366e-06	511.63	206.93	119.57	58.751	7.1685e-06	108.23	407.811	388.098	114.757	101.714	204.898	294.896	101.500	107.178	442.821	251.924	106.549	110.770	111.717	117.014	147.219	114.010	-8191	255	
2121.997	1	1	0	0	0.13158	0.15808	0.4018	0.089147	0.096331	0.13977	0.32312	0.24897	0.14938	0.245	0.37619	0.1497	0.099072	0.21567	0.044736	0.081463	-2.4042	-2.2396	-1.6979	-2.9125	-1.8771	-2.3104	-3.0458	-1.9542	-2.7896	-2.4792	-1.9688	-2.9625	-2.0896	-2.2729	-2.7708	-2.1542	311.063	223.231	427.768	425.442	345.620	350.535	398.673	307.271	366.102	162.991	385.514	115.931	326.460	433.331	116.627	391.676	0.0042889	0.00044147	8.1929e-05	884.08	6.0953e-06	8.1592e-06	1241.2	310.8	4.2004e-06	5.5167e-06	525.26	221.32	119.11	61.115	5.5126e-06	117.82	0.000702	0.00068006	0.00017437	844.45	7.5119e-06	7.1982e-06	1157	293.67	7.2966e-06	7.2129e-06	485.04	199.82	115.68	56.602	6.4215e-06	105.31	398.874	238.370	177.272	101.824	170.812	236.553	101.606	107.576	398.773	265.324	106.433	110.785	112.623	117.368	299.527	114.197	-8191	255	
2122.093	1	1	0	0	0.08758	0.25739	0.25066	0.10868	0.17599	0.16173	0.084287	0.39245	0.20562	0.20904	0.11781	0.19817	0.14512	0.11455	0.10087	0.052021	-2.2021	-2.45	-1.8771	-2.925	-2.0187	-2.1167	-3.0271	-2.0604	-2.4167	-2.6604	-1.9312	-2.8396	-2.2833	-2.1437	-2.9042	-2.1479	184.137	366.935	341.188	125.738	116.143	186.293	269.306	137.385	370.221	325.582	92.340	434.826	93.967	417.045	447.973	349.348	0.003651	0.00098495	0.00025544	905.78	6.7899e-06	5.6999e-06	1248.3	310.87	1.472e-05	4.8599e-06	523.34	219.7	119.97	60.775	6.5809e-06	117.84	0.00067637	0.00063103	0.00015855	858.15	7.0692e-06	6.7117e-06	1153.1	292.9	6.8791e-06	6.6732e-06	478.38	199.35	114.36	56.157	6.0838e-06	105.11	408.155	221.724	183.888	101.474	184.763	219.943	101.550	107.203	191.982	136.899	106.583	110.625	112.436	116.742	239.976	113.391	-8191	255	
2122.190	1	1	0	0	0.16307	0.09135	0.15155	0.22135	0.22234	0.24659	0.43617	0.12177	0.22847	0.061318	0.23741	0.063475	0.031092	0.32505	0.076168	0.27727	-2.1292	-2.5729	-1.8937	-2.7521	-2.2188	-2.1417	-3.0062	-1.975	-2.4875	-2.5604	-2.0958	-2.9542	-2.3229	-2.2	-2.7667	-2.3167	157.805	211.830	349.737	406.788	194.756	355.341	391.099	160.207	375.490	427.428	350.017	158.403	279.561	391.364	215.059	402.985	0.0034226	0.00025871	0.00023133	906.49	1.0365e-05	6.0797e-06	1239.5	305.6	1.1758e-05	7.4142e-06	516.49	216.2	118.78	60.151	8.167e-06	116.39	0.00064834	0.00061159	0.00015245	864.47	7.0454e-06	6.6018e-06	1152	291.36	6.9886e-06	6.6681e-06	474.24	197.5	114.12	55.582	6.3622e-06	104.56	414.689	150.945	232.991	101.171	262.666	246.362	101.222	106.867	258.709	185.167	106.093	110.358	111.672	116.806	178.175	113.818	-8191	255	
2122.284	1	1	0	0	0.19989	0.21577	0.15028	0.15218	0.14549	0.093658	0.18434	0.39341	0.19467	0.13675	0.2755	0.28114	0.18552	0.18103	0.19433	0.18864	-2.0687	-2.8688	-1.8813	-2.8604	-2.4167	-2.0667	-3.075	-2.1437	-2.3708	-2.95	-1.9146	-2.7958	-2.4437	-2.0917	-2.7708	-2.2667	217.170	129.170	326.633	444.997	338.963	256.662	405.472	441.932	198.631	324.114	340.674	396.533	113.214	336.833	95.282	402.146	0.0041738	0.00060202	0.00021856	909.05	1.0728e-05	6.0909e-06	1243.1	304.37	1.4467e-05	8.6711e-06	505.21	212.31	116.78	58.658	1.8004e-05	114.49	0.00065255	0.00059981	0.00016093	869.78	7.0431e-06	6.4249e-06	1155	289.74	6.9499e-06	6.4611e-06	466.57	194.16	112.15	54.261	6.7599e-06	102.77	397.282	264.128	125.834	101.181	201.845	268.077	101.494	107.451	207.053	239.225	106.384	110.776	112.721	117.430	195.518	114.325	-8191	255	
2122.382	1	1	0	0	0.072131	0.30365	0.13475	0.17963	0.18134	0.32002	0.098343	0.26921	0.23242	0.049291	0.21985	0.33074	0.20369	0.23858	0.10291	0.24561	-1.7771	-2.5438	-2.0167	-2.6833	-2.3958	-1.8542	-2.8021	-2.2687	-2.075	-2.9104	-2.1646	-2.5938	-2.6333	-2.0687	-2.7812	-2.3896	438.302	426.388	122.855	347.631	129.408	119.655	96.824	220.029	173.895	243.153	283.111	352.033	175.577	349.721	352.745	163.835	0.0032225	0.00059904	0.00037288	913.86	7.259e-06	3.9046e-06	1261.1	298.55	6.1454e-06	8.6225e-06	490.77	204.47	110.61	56.464	9.3281e-06	109.27	0.00065636	0.00058058	0.00017497	874.9	6.9718e-06	6.1556e-06	1172.5	285.39	6.7457e-06	6.171e-06	456.26	187.55	107.22	52.194	6.9495e-06	98.496	403.941	149.206	146.462	101.585	243.185	276.373	101.201	106.793	205.213	180.271	105.547	110.030	111.295	116.431	269.665	113.563	-8191	255	
2122.501	1	1	0	0	0.14382	0.063209	0.13879	0.33707	0.3385	0.065521	0.35632	0.2749	0.4116	0.075874	0.15105	0.10071	0.083864	0.19158	0.25077	0.25515	-1.6313	-2.7729	-2.0167	-2.3896	-2.7792	-1.7917	-2.7708	-2.3688	-1.9792	-2.9083	-2.2271	-2.45	-2.8125	-1.9937	-2.7083	-2.4521	89.940	428.288	298.686	420.064	406.622	193.545	436.058	440.996	166.429	178.418	362.697	443.357	138.114	164.114	154.685	421.074	0.0032204	0.00099351	0.0001718	1013.3	4.4328e-06	1.1922e-05	1407.7	295.37	5.1786e-06	5.6033e-06	481.6	188.9	101.01	53.524	9.6011e-06	105.62	0.00064076	0.00058501	0.00018531	965.09	6.9316e-06	6.5478e-06	1313.5	283.62	6.9595e-06	6.7411e-06	450.99	174.43	101.98	50.309	8.0192e-06	95.637	403.030	92.273	443.142	101.238	339.525	163.058	101.145	106.353	380.545	216.549	105.674	110.494	111.608	116.529	189.290	113.820	-8191	255	
2122.597	1	1	0	0	0.10352	0.11086	0.067823	0.16843	0.22777	0.19439	0.089421	0.23953	0.26017	0.17133	0.17091	0.079612	0.1672	0.32563	0.24183	0.26561	-1.6063	-2.9354	-2.25	-2.2458	-2.7854	-1.9708	-2.8125	-2.6437	-2.0229	-2.9313	-2.1583	-2.325	-2.9021	-2.0479	-2.6	-2.6667	312.196	182.943	227.111	116.364	400.678	242.011	238.853	108.117	230.776	436.364	401.806	106.330	193.786	366.646	324.906	372.427	0.0027765	0.0012103	0.00041584	1078.6	6.9389e-06	7.7151e-06	1442.7	298.15	1.3943e-05	1.8722e-05	489.41	189.93	104.56	53.878	1.6386e-06	105.72	0.00069632	0.00069216	0.000218	1029.3	7.8206e-06	8.0889e-06	1352.4	290.98	7.69e-06	8.1414e-06	464.71	177.88	105.29	51.299	8.5791e-06	96.889	417.640	152.896	112.870	101.334	325.239	167.773	101.445	106.791	279.758	107.443	105.754	110.578	112.354	116.545	192.444	113.741	-8191	255	
2122.693	1	1	0	0	0.08689	0.15018	0.23447	0.22146	0.3158	0.12113	0.23595	0.083256	0.15627	0.13238	0.098251	0.21503	0.13174	0.093069	0.19601	0.38944	-1.4917	-2.625	-2.2062	-2.1979	-3	-1.9958	-2.65	-2.5958	-1.8667	-2.6146	-2.4167	-2.1437	-2.8063	-2.1354	-2.3292	-2.9688	271.169	431.653	159.725	175.044	132.161	257.974	401.684	291.306	186.500	404.446	187.963	424.021	409.798	439.066	126.800	409.579	0.0031823	0.001161	0.00044937	1038.6	2.7442e-06	7.3737e-06	1378.9	302.39	1.085e-05	1.1029e-05	499.67	203.27	112.5	56.526	1.2116e-05	111.41	0.00072148	0.00078137	0.00022481	998.84	7.9357e-06	8.7477e-06	1298.5	294.26	8.0427e-06	8.8606e-06	475.82	190.17	112.13	54.061	8.9392e-06	101.8	407.353	179.788	94.017	101.008	380.514	206.290	101.245	106.359	187.407	134.748	105.880	110.348	111.849	116.366	205.520	113.689	-8191	255	
2122.789	1	1	0	0	0.24352	0.19828	0.14996	0.20269	0.29347	0.1737	0.16646	0.11047	0.2969	0.18646	0.29835	0.30596	0.14818	0.44515	0.26871	0.33701	-1.4854	-2.5167	-2.3438	-1.95	-2.8271	-2.0896	-2.5479	-2.7771	-1.8854	-2.6083	-2.6021	-2.1625	-2.7562	-2.2667	-2.0875	-2.8875	124.915	270.196	399.062	424.549	215.743	372.734	347.494	410.984	347.789	348.103	443.261	413.833	97.281	110.455	193.512	373.589	0.0037688	0.0011338	0.00022158	967.94	2.0802e-05	6.7726e-06	1303.6	308.42	1.6278e-05	9.837e-06	517.7	219.1	119.28	59.087	7.931e-06	115.5	0.00076417	0.000831	0.00023011	937.12	8.2563e-06	9.1689e-06	1236.9	299.69	8.2752e-06	9.134e-06	495.66	201.81	118.89	56.263	8.8388e-06	105.42	410.538	169.636	207.676	101.122	137.221	250.976	100.948	106.711	157.527	125.213	105.642	110.402	111.517	116.786	189.253	114.278	-8191	255	
2122.885	1	1	0	0	0.028333	0.16335	0.098012	0.083676	0.051372	0.33864	0.22421	0.35798	0.14916	0.13837	0.23219	0.28872	0.054176	0.18538	0.15235	0.17335	-1.8167	-2.8021	-2.325	-2.2583	-2.6542	-2.2708	-2.4604	-2.825	-1.8167	-2.6646	-2.7292	-2.1104	-2.9354	-2.5271	-2.2125	-3.175	97.439	233.877	111.665	168.703	443.715	402.000	417.286	426.476	434.789	219.374	434.775	427.255	341.201	325.946	114.094	100.622	0.0040946	0.00092209	0.00027005	956.7	2.8744e-06	5.5196e-06	1296.6	315.02	5.1489e-06	8.7866e-06	541.72	226.29	122.86	60.557	1.0187e-05	119.4	0.00080592	0.0008359	0.00022882	920.71	8.7424e-06	9.2865e-06	1233.8	304.56	9.0461e-06	9.3337e-06	511.82	208.33	124.25	57.785	9.4009e-06	108.49	401.693	260.743	112.532	101.869	208.370	158.360	101.331	106.923	151.733	167.335	105.901	110.664	112.040	116.475	221.756	114.014	-8191	255	
2122.981	1	1	0	0	0.22602	0.27894	0.099522	0.38797	0.075331	0.19872	0.099242	0.17568	0.17366	0.25826	0.25613	0.083099	0.094638	0.23054	0.018155	0.058835	-1.7354	-2.4188	-2.6625	-1.875	-2.8146	-2.3958	-2.2	-2.9625	-1.9958	-2.6312	-2.7479	-2.0396	-2.675	-2.5542	-1.9188	-3.0563	434.500	280.794	444.639	136.847	186.395	441.221	370.663	343.034	341.972	386.587	145.311	257.057	164.673	408.904	428.689	105.406	0.0037479	0.00080376	0.00028932	923.08	1.2915e-05	9.0737e-06	1283.5	316.48	1.1147e-05	1.4143e-06	541.51	226.2	122.21	60.771	1.4298e-05	121.01	0.00091898	0.00090554	0.00024732	904.97	1.0148e-05	1.0257e-05	1226.7	307.96	1.0432e-05	1.0292e-05	519.09	210.35	127.5	58.929	9.8329e-06	110.74	398.536	206.597	267.437	101.292	123.292	213.427	101.048	106.672	153.851	267.228	105.491	110.182	111.921	115.890	272.573	113.653	-8191	255	
2123.102	1	1	0	0	0.14334	0.053775	0.12078	0.10075	0.16724	0.17374	0.055222	0.19212	0.19729	0.12188	0.14418	0.33337	0.10586	0.13837	0.21008	0.024075	-1.8312	-2.2375	-2.9062	-2.0792	-2.8625	-2.3979	-2.0312	-2.9042	-2.0729	-2.1937	-2.8312	-2.2708	-2.8167	-2.5771	-2.0646	-2.925	129.276	371.819	163.321	324.075	363.300	260.651	158.653	93.244	198.605	187.163	92.512	407.453	106.995	385.321	283.947	412.155	0.0030609	0.00031336	0.0003708	906.29	1.9107e-06	1.0555e-05	1272	314.43	1.7547e-05	2.222e-05	542.13	227.43	120.42	61.56	6.6988e-06	122.28	0.0010204	0.00097949	0.00025991	902.79	1.1291e-05	1.1272e-05	1221.7	311.04	1.1537e-05	1.1066e-05	521.58	213.85	130.3	59.837	1.02e-05	112.77	406.169	209.110	365.710	101.394	257.196	163.748	101.118	107.376	228.310	200.893	105.986	110.447	111.359	116.500	259.429	113.754	-8191	255	
2123.196	1	1	0	0	0.31861	0.14718	0.089953	0.033274	0.13612	0.045675	0.14477	0.20523	0.20629	0.1046	0.21639	0.1577	0.082581	0.32139	0.10022	0.27061	-1.7167	-1.9813	-2.7333	-2.1063	-2.4292	-2.475	-2.1458	-3.0208	-2.3583	-2.2083	-2.7938	-2.1625	-2.4896	-2.9771	-1.8833	-2.9	361.167	372.646	403.692	441.681	252.160	120.487	294.175	419.005	356.869	371.332	409.692	437.321	227.212	94.763	383.452	391.977	0.0035486	0.00070295	0.00031682	902.58	2.0507e-05	7.0209e-06	1260	311.49	1.1742e-05	7.5857e-06	539.92	225.62	118.76	61.635	3.5568e-06	122.3	0.0010829	0.0010368	0.0002654	907.86	1.1808e-05	1.1737e-05	1216	313.95	1.2402e-05	1.1896e-05	523.83	214.34	132.12	60.296	1.104e-05	114.23	399.073	145.440	184.867	101.174	247.197	402.291	101.250	106.609	390.363	184.513	105.921	110.088	111.772	116.430	248.218	113.837	-8191	255	
2123.293	1	1	0	0	0.32347	0.27407	0.06449	0.077074	0.13422	0.20021	0.15611	0.11496	0.024909	0.19258	0.21545	0.19572	0.11931	0.16287	0.38458	0.14609	-2.0104	-1.9979	-2.6729	-2.1479	-2.3479	-2.7729	-1.9438	-2.7604	-2.4146	-1.9958	-2.9792	-2.2292	-2.4417	-2.7042	-2.0229	-2.725	315.452	167.557	400.191	372.758	347.920	245.939	317.552	264.200	302.679	407.815	91.263	106.556	328.871	103.509	293.039	425.985	0.0038597	0.00089761	0.00074507	891.76	1.2078e-05	6.6676e-06	1253.6	311.96	5.3286e-06	1.2557e-05	548.3	229.3	123.32	62.4	1.1292e-05	123.6	0.0011503	0.0010643	0.00028031	912.85	1.2064e-05	1.1502e-05	1218.3	315.98	1.1958e-05	1.0858e-05	529.2	217.46	131.74	60.019	1.0694e-05	114.27	404.067	221.914	143.502	101.259	150.344	278.869	100.859	106.764	200.427	353.379	105.609	110.007	111.933	116.182	179.139	113.650	-8191	255	
2123.366	1	1	0	0	0.023243	0.098062	0.20918	0.4043	0.084747	0.13835	0.29344	0.25884	0.2116	0.21052	0.10018	0.11902	0.16169	0.064383	0.15814	0.16356	-2.1562	-1.9917	-2.7583	-2.2646	-2.2646	-2.6833	-2.0729	-2.6937	-2.6292	-1.9771	-2.6646	-2.4437	-2.1958	-2.9083	-1.9458	-2.5771	419.170	213.577	176.285	92.532	203.561	291.966	362.446	89.876	192.957	140.716	293.859	168.698	350.700	219.718	285.716	317.292	0.0039515	0.0011221	0.00026248	891.37	8.7298e-06	7.3416e-06	1242.7	321.65	1.3696e-05	1.2679e-05	564.07	233.81	124.51	62.524	6.5228e-06	122.9	0.0010494	0.00093022	0.00026511	895.75	1.0861e-05	9.8163e-06	1198.6	317.45	1.0483e-05	9.2747e-06	536.77	218.36	128.59	59.479	1.0027e-05	112.58	406.909	179.721	265.139	100.998	215.359	319.982	101.046	106.824	202.219	133.277	105.970	110.370	111.986	116.572	200.328	114.069	-8191	255	
2123.485	1	1	0	0	0.30372	0.21223	0.11137	0.11928	0.31957	0.20925	0.1269	0.027723	0.15695	0.13879	0.092989	0.14858	0.052527	0.067647	0.076138	0.091641	-2.2167	-1.7833	-2.9708	-2.3187	-2.0833	-2.8125	-2.0375	-2.6167	-2.7521	-1.9229	-2.8396	-2.5458	-2.0979	-2.9208	-2.1646	-2.4104	332.992	135.201	284.151	255.377	442.590	177.158	288.446	165.478	246.619	235.332	270.671	447.713	327.303	338.633	286.849	443.922	0.0026846	0.0016741	0.00014375	882.06	3.5268e-06	7.319e-06	1249.5	336.47	7.6806e-06	2.6194e-05	584.94	235.22	127.88	62.017	1.4199e-05	119.89	0.00092814	0.00082306	0.00025396	879.25	9.6086e-06	8.8221e-06	1198.1	327.62	9.2984e-06	8.4286e-06	550.41	218.2	126.27	58.26	9.2437e-06	109.68	400.222	192.918	303.926	101.549	384.753	206.658	101.536	107.096	199.810	207.673	106.124	110.467	111.223	116.077	159.767	113.831	-8191	255	
2123.581	1	1	0	0	0.10418	0.22421	0.19721	0.32881	0.20691	0.13052	0.27027	0.23247	0.14387	0.21105	0.25365	0.18472	0.18338	0.22021	0.25279	0.14395	-2.3375	-1.8771	-2.3833	-2.675	-1.9458	-3.0667	-2.325	-2.3167	-2.7458	-1.8375	-2.6958	-2.6542	-2.0812	-2.9667	-2.175	-2.3208	297.512	415.478	252.089	355.797	370.813	199.697	322.124	201.556	394.907	106.892	119.854	120.540	119.033	409.183	344.833	446.426	0.0034691	0.0014104	0.00032034	897.54	1.1327e-05	7.7449e-06	1261.4	340.54	3.7141e-06	1.6029e-05	588.86	237.66	128.24	62.282	4.7495e-06	121.93	0.0007986	0.0007511	0.00023239	878.82	8.1443e-06	8.2238e-06	1200.3	326.7	7.7306e-06	7.8796e-06	548.3	217.9	121.94	57.969	8.0619e-06	109.62	404.069	175.810	372.069	101.199	238.523	181.374	101.116	106.581	251.560	200.571	105.780	110.023	111.654	116.473	211.744	114.147	-8191	255	
2123.677	1	1	0	0	0.19517	0.11719	0.1029	0.18236	0.28002	0.16638	0.45099	0.14213	0.1823	0.28021	0.14736	0.18666	0.48784	0.11966	0.11487	0.10077	-2.5875	-2.0667	-2.4917	-2.7104	-1.7271	-3.0042	-2.4396	-2.1	-2.8396	-1.8854	-2.6875	-2.6979	-2.0875	-2.8979	-2.2021	-2.3292	149.319	295.661	125.040	126.296	394.806	363.137	439.660	352.244	233.423	264.159	394.453	326.206	121.572	400.526	145.117	127.231	0.0031975	0.0014663	8.9233e-05	905.71	5.1915e-06	7.9146e-06	1268.4	342.91	1.0607e-05	8.2258e-06	590.11	237.45	128.28	62.706	1.1468e-05	121.93	0.00065825	0.00068699	0.00019537	872.23	6.812e-06	7.6015e-06	1194.1	324.85	7.0381e-06	7.7802e-06	544.73	217.2	121.35	58.364	8.1404e-06	109.32	408.227	184.810	326.734	101.503	258.434	207.289	101.179	106.883	217.985	208.287	105.425	110.077	111.270	116.670	287.824	114.194	-8191	255	
2123.773	1	1	0	0	0.21025	0.19463	0.15151	0.3365	0.29157	0.15192	0.2459	0.10548	0.13817	0.1527	0.20543	0.15811	0.055603	0.30902	0.19968	0.44157	-2.3875	-2.0896	-2.35	-2.9313	-1.7458	-2.7229	-2.6813	-1.9896	-3.0375	-2.1417	-2.5271	-2.8229	-1.9729	-2.6667	-2.3458	-2.2562	396.337	148.936	104.944	392.029	438.228	213.219	377.433	412.848	248.798	141.635	407.992	385.634	122.162	393.101	297.860	404.313	0.0037908	0.00069423	0.00033766	896.11	7.1105e-06	6.0967e-06	1265	342.07	1.4559e-05	1.8636e-06	580.7	237.03	127.6	62.493	1.4852e-06	121.68	0.00068081	0.00074364	0.00020346	863.58	7.2268e-06	8.0783e-06	1188.8	322.03	7.2263e-06	8.0907e-06	541.21	215.74	122.07	58.489	8.1579e-06	108.99	403.570	112.600	197.813	102.009	274.390	271.905	101.355	107.519	162.763	353.041	106.509	110.861	111.744	116.809	356.617	114.369	-8191	255	
2123.894	1	1	0	0	0.16991	0.22817	0.4196	0.10985	0.28735	0.12286	0.085085	0.16412	0.089194	0.19747	0.26236	0.10013	0.21789	0.14879	0.19047	0.15715	-2.4292	-1.9229	-2.3563	-2.8208	-1.7958	-2.7042	-2.625	-2.0938	-2.9542	-2.1437	-2.3021	-2.9833	-1.8729	-2.6417	-2.6229	-2.0312	178.829	300.885	429.943	370.938	266.765	310.451	442.288	324.015	390.912	176.945	447.195	359.832	108.233	132.839	254.431	375.166	0.0039816	0.00067046	0.00014289	886.46	2.2402e-05	7.0958e-06	1248	336.79	1.0386e-05	8.4507e-06	590.81	236.82	127.93	62.318	8.5858e-06	122.25	0.00073001	0.00078344	0.00020868	856.64	8.0199e-06	8.5925e-06	1186.5	320.97	8.2696e-06	8.8498e-06	546.49	215.92	125.64	59.015	8.746e-06	110.24	408.726	236.478	90.463	101.450	174.571	153.360	101.639	107.692	196.195	345.508	106.625	111.034	111.606	116.740	331.340	114.589	-8191	255	
2123.966	1	1	0	0	0.13674	0.10806	0.048515	0.2594	0.1102	0.2856	0.45379	0.16306	0.22395	0.16548	0.42225	0.074224	0.035855	0.15246	0.23043	0.058682	-2.5083	-2.2375	-2.0687	-3.0208	-2.0312	-2.4646	-2.8187	-1.9042	-2.6229	-2.4125	-2.1688	-3.0271	-1.8958	-2.45	-2.7354	-2.0687	440.226	371.534	374.898	376.125	143.283	446.946	345.710	311.769	125.286	200.350	372.230	90.800	268.917	94.909	344.296	415.295	0.0030899	0.0011284	0.00012398	872.81	1.3995e-05	1.5547e-05	1245.9	332.89	2.2281e-05	1.343e-05	589.72	239.15	126.97	62.997	1.133e-05	122.76	0.00082751	0.0008398	0.00022319	849.79	9.2087e-06	9.2785e-06	1185.4	319.94	9.4229e-06	9.5924e-06	551.84	218.7	129.05	59.993	9.1254e-06	111.2	407.841	175.123	164.380	102.075	227.507	272.561	101.465	107.053	170.087	238.389	105.696	110.191	111.356	116.428	428.559	113.833	-8191	255	
2124.062	1	1	0	0	0.2296	0.063009	0.10011	0.39754	0.21814	0.12391	0.22459	0.090909	0.14432	0.22803	0.095454	0.045498	0.13895	0.48957	0.065708	0.16062	-2.3812	-2.3646	-1.9417	-2.7958	-2.0146	-2.1813	-2.9083	-1.9708	-2.6667	-2.5208	-2.0604	-2.9125	-2.1333	-2.2917	-2.5687	-2.2354	426.817	446.427	223.517	121.062	276.867	117.089	255.667	230.317	423.648	104.153	338.033	359.201	214.955	133.762	385.652	385.358	0.0035042	0.00071102	0.00045507	876.03	2.0446e-05	7.1073e-06	1248.6	335.14	9.0984e-06	1.2619e-05	590.5	238.09	128.28	62.755	8.4852e-06	122.79	0.0008985	0.00088594	0.00022624	857.07	9.9075e-06	9.6816e-06	1192.5	325.29	9.99e-06	9.9346e-06	554.11	220.81	130.94	59.648	8.9061e-06	111.79	393.467	147.574	284.764	101.506	207.056	313.806	101.054	107.042	214.387	446.860	105.831	110.317	111.608	116.370	206.612	113.715	-8191	255	
2124.182	1	1	0	0	0.10777	0.10466	0.16099	0.39939	0.085584	0.21875	0.15713	0.13719	0.07258	0.11126	0.16862	0.24268	0.28396	0.23591	0.13058	0.17142	-2.3	-2.6292	-1.7437	-3.05	-2.1833	-2.0521	-3.0229	-1.825	-2.55	-2.4875	-2.1417	-2.9542	-2.2604	-2.1063	-2.8604	-2.1562	262.357	365.559	122.271	428.954	224.530	273.627	125.004	397.285	431.312	196.345	363.490	134.271	408.050	149.471	355.338	445.819	0.0032387	0.001827	0.00010859	875.66	7.1786e-06	1.2363e-05	1254.8	336.34	1.5612e-05	7.2434e-06	594.49	239.28	127.15	62.923	1.4266e-05	123.13	0.00091462	0.00088971	0.0002236	864.97	1.0163e-05	9.7789e-06	1191.1	328.15	1.0122e-05	9.9552e-06	556.92	222.63	131.27	60.149	9.0136e-06	112.8	403.420	243.138	375.741	101.729	140.012	227.131	101.376	106.908	238.747	344.977	105.763	110.190	111.096	116.270	236.828	113.649	-8191	255	
2124.277	1	1	0	0	0.17547	0.19347	0.098258	0.27375	0.11606	0.17788	0.10244	0.1407	0.23495	0.080638	0.086387	0.31647	0.23017	0.07046	0.12603	0.075351	-2.0521	-2.6542	-1.8896	-2.9958	-2.5	-2.0563	-3.05	-2.2708	-2.2542	-2.7104	-2.1125	-2.8542	-2.3542	-2.0146	-2.8625	-2.2542	263.455	299.043	245.072	414.820	217.043	194.466	202.945	147.638	127.230	270.846	107.093	439.004	127.841	227.392	233.247	365.527	0.0036528	0.00035693	0.0005305	879.63	1.5552e-05	8.3355e-06	1263	339.32	2.1758e-05	1.4243e-05	599.39	241.84	129.67	63.255	9.4767e-06	123.12	0.00093682	0.00089032	0.0002268	871.29	1.0093e-05	9.4325e-06	1199.4	331.18	9.8277e-06	9.3405e-06	561.13	224.75	131.72	60.017	9.3899e-06	113.41	410.678	421.577	187.120	101.377	245.519	443.074	101.038	106.789	242.689	438.628	105.698	109.935	111.544	116.219	207.749	113.796	-8191	255	
2124.375	1	1	0	0	0.090702	0.059813	0.27945	0.065021	0.073995	0.25918	0.38653	0.011193	0.22638	0.080864	0.11093	0.18824	0.1086	0.27646	0.19261	0.28382	-2.0187	-2.7313	-1.825	-2.7875	-2.4062	-1.9292	-2.9938	-2.0771	-2.1708	-2.9313	-2.0062	-2.8063	-2.4083	-2.0458	-2.6396	-2.2604	273.282	416.656	158.871	205.146	113.021	94.808	363.867	416.361	404.936	100.132	97.215	382.701	174.720	375.219	92.852	383.378	0.0033119	0.00094863	0.00039994	870.92	1.7405e-05	8.0169e-06	1258.3	335.4	1.3952e-05	6.09e-06	593.89	240.9	127.76	63.226	1.5168e-05	123.21	0.00095996	0.00088993	0.00024787	873.91	1.0787e-05	9.7315e-06	1204.3	331.98	1.0713e-05	9.8347e-06	564.82	225.75	134.34	60.451	1.0826e-05	114.02	402.103	183.559	128.391	101.288	168.655	351.209	101.167	106.845	417.238	134.830	105.346	110.277	111.329	115.899	212.754	113.562	-8191	255	
2124.494	1	1	0	0	0.35435	0.10072	0.022869	0.17922	0.25454	0.1293	0.24958	0.18078	0.11086	0.22581	0.30537	0.15959	0.38855	0.22374	0.13822	0.25762	-1.7333	-2.8438	-1.8979	-2.5	-2.6979	-1.8667	-2.9521	-2.2833	-2.1208	-2.875	-2.1354	-2.5604	-2.5146	-2.0521	-2.825	-2.5458	312.857	387.467	188.396	369.071	112.592	134.664	411.284	360.408	118.362	431.613	445.835	244.307	395.356	430.476	192.204	372.782	0.0040368	0.00017026	0.00071025	864.97	1.9875e-05	1.8136e-05	1244.8	335.86	2.9494e-06	1.0886e-05	589.84	241.36	128.17	63.626	7.3939e-06	125.09	0.0010376	0.00093012	0.00028404	876.78	1.1265e-05	1.0152e-05	1207.4	332.83	1.0938e-05	1.0033e-05	568.06	225.78	132.95	60.35	1.0776e-05	115.1	403.385	326.271	123.367	101.503	390.248	222.202	101.352	106.696	251.636	224.251	105.927	110.146	111.457	116.258	257.418	113.530	-8191	255	
2124.565	1	1	0	0	0.09905	0.26333	0.20351	0.14463	0.082046	0.086006	0.096091	0.21527	0.20819	0.18997	0.070986	0.21437	0.20638	0.035864	0.069793	0.10973	-1.5458	-2.5833	-1.9917	-2.5542	-2.7479	-1.9042	-2.7042	-2.4875	-2.0375	-2.7396	-2.4667	-2.425	-2.6854	-2.0979	-2.6063	-2.6	366.855	318.071	189.164	165.296	184.704	268.540	384.702	444.016	405.126	208.427	412.272	355.533	322.751	273.478	429.698	362.081	0.0036124	0.00058382	0.00030067	866.29	1.346e-05	1.5138e-05	1252.9	339.25	9.7755e-06	9.1646e-06	594.98	243.42	128.22	63.42	1.2874e-05	124.85	0.00095262	0.0009042	0.00028238	876.85	1.0547e-05	1.0273e-05	1217.8	335.74	1.0442e-05	1.027e-05	573.86	227.6	133.09	60.86	1.1135e-05	115.13	400.806	229.928	101.035	101.080	132.895	168.929	101.284	106.547	137.247	249.207	105.455	110.286	111.213	116.353	211.597	113.831	-8191	255	
2124.661	1	1	0	0	0.16191	0.062827	0.097044	0.28844	0.20577	0.24614	0.28065	0.21852	0.083103	0.24018	0.10433	0.024202	0.37085	0.096499	0.038194	0.090662	-1.5125	-2.8438	-2.3042	-2.35	-2.8187	-2.1458	-2.7521	-2.7375	-2.1083	-2.7625	-2.4417	-2.3312	-2.7479	-2.0708	-2.65	-2.8396	287.634	199.745	364.292	106.916	333.679	90.227	411.482	115.651	101.968	222.689	404.311	211.907	93.706	443.749	411.745	151.244	0.0029345	0.001568	0.00019918	874.5	1.12e-05	8.1198e-06	1267.6	341.73	9.8964e-06	1.0195e-05	603.95	244.73	129.02	63.591	1.8103e-05	125.62	0.00092961	0.00093883	0.00027968	877.37	9.6936e-06	1.0235e-05	1221.4	335.59	9.3393e-06	1.0124e-05	576.14	226.85	129.99	60.829	1.0423e-05	114.7	400.429	127.009	159.188	101.639	174.509	241.971	101.804	106.803	249.615	228.848	105.999	110.434	111.213	115.922	243.382	114.032	-8191	255	
2124.782	1	1	0	0	0.37534	0.25727	0.1313	0.3835	0.056599	0.13516	0.18241	0.21165	0.055687	0.31362	0.36412	0.25402	0.17772	0.38132	0.12274	0.1854	-1.4062	-2.6167	-2.4021	-2.1104	-2.925	-1.9438	-2.575	-2.6021	-1.8833	-2.525	-2.4104	-2.1125	-2.8396	-2.0917	-2.4333	-2.9	144.108	193.968	421.384	375.084	174.205	395.268	270.165	284.900	402.807	360.654	406.097	107.477	425.978	426.673	394.462	345.246	0.0039966	0.0011909	0.00048897	878.8	8.8842e-06	3.6526e-06	1263.9	340.5	1.9786e-05	7.8684e-06	602.72	241.56	128.86	63.144	4.0933e-06	123.5	0.00086216	0.00093156	0.00026302	870.25	9.0761e-06	1.0125e-05	1211.4	332.03	9.0594e-06	1.0043e-05	571.76	223.83	129.38	60.584	1.0255e-05	113.06	405.808	169.747	109.776	101.665	242.399	359.807	101.649	106.964	154.016	255.433	105.391	110.071	111.058	116.079	218.060	113.272	-8191	255	
2124.878	1	1	0	0	0.254	0.11606	0.15487	0.21207	0.034798	0.21005	0.30383	0.24712	0.20959	0.16811	0.38533	0.25209	0.31461	0.15761	0.11689	0.14345	-1.5792	-2.6458	-2.4208	-2.1042	-2.8271	-2.2958	-2.3396	-2.7729	-1.9625	-2.4375	-2.6437	-2.0958	-2.9979	-2.2771	-2.2854	-3.2333	285.437	362.372	244.605	189.660	232.725	413.205	370.767	92.323	299.788	369.144	371.305	439.120	386.357	335.042	126.496	94.552	0.0038811	0.0019644	0.00010685	878.71	1.151e-05	1.6608e-05	1261.4	342.2	1.8977e-05	1.1768e-05	600.79	242.09	129.12	62.604	6.552e-06	122.99	0.00089027	0.0009481	0.00026077	866.95	9.523e-06	1.0475e-05	1213	331.92	9.6696e-06	1.0204e-05	570.34	223.05	130.94	60.109	1.0052e-05	112.2	406.347	249.648	118.125	101.461	293.485	205.400	101.224	106.301	210.756	291.123	105.177	110.138	110.772	116.002	144.980	113.275	-8191	255	
2124.974	1	1	0	0	0.22571	0.017428	0.26352	0.07573	0.23877	0.16523	0.18476	0.11206	0.18988	0.26311	0.085175	0.11982	0.16169	0.15376	0.16955	0.16196	-1.6375	-2.3729	-2.6417	-1.8979	-2.7188	-2.1271	-2.2812	-3.1208	-2.1271	-2.5625	-2.675	-2.25	-2.8063	-2.4604	-2.2792	-2.9875	132.795	211.896	428.586	92.578	289.279	213.977	385.692	424.926	190.883	255.990	183.227	304.310	405.896	360.300	443.429	172.795	0.0042979	0.00056155	0.00012123	881.91	8.1358e-06	4.2876e-06	1271.4	342.39	1.7369e-05	1.197e-05	602.97	242.24	128.34	62.131	9.1185e-06	123.18	0.00092205	0.00093379	0.00025427	866.13	9.8503e-06	1.0185e-05	1215.5	330.49	1.0029e-05	9.9633e-06	569.66	223.39	131.23	59.537	9.6879e-06	111.82	392.748	420.700	190.638	101.518	180.620	198.764	101.281	106.717	195.069	439.973	105.574	109.910	111.387	115.793	298.075	113.395	-8191	255	
2125.071	1	1	0	0	0.39013	0.067487	0.20253	0.24924	0.17677	0.21577	0.27045	0.25491	0.15559	0.053751	0.30454	0.32861	0.11769	0.28411	0.065639	0.058053	-1.6729	-2.3979	-2.6479	-2.2521	-2.6354	-2.5917	-2.2854	-3.1125	-2.2333	-2.3625	-2.9729	-2.1229	-2.7771	-2.6979	-2.0292	-2.8812	410.697	201.759	230.652	381.478	125.975	372.683	368.094	395.067	351.149	429.008	439.635	440.302	393.232	109.381	375.659	272.179	0.0036622	0.00081162	0.00024553	885.36	2.0534e-05	2.6147e-06	1274	341.71	3.0455e-05	4.2295e-06	606.44	241.33	128.64	61.321	3.7687e-06	121.46	0.00095491	0.00090843	0.00024051	867.64	9.7949e-06	9.6786e-06	1209.2	329.61	9.6555e-06	9.1858e-06	563.51	221.81	129.07	58.409	8.4085e-06	110.14	403.529	349.633	165.074	101.866	226.798	204.027	101.301	106.814	202.634	235.898	105.589	110.423	111.453	116.296	165.465	114.295	-8191	255	
2125.189	1	1	0	0	0.36467	0.19685	0.082754	0.20747	0.28459	0.077792	0.27081	0.38803	0.18809	0.23401	0.15405	0.048411	0.27723	0.22713	0.24953	0.1542	-1.7104	-2.3646	-2.5792	-2.3729	-2.7125	-2.375	-2.225	-2.8917	-2.3167	-2.2542	-2.6312	-2.0479	-2.375	-2.8333	-1.7812	-2.975	437.230	90.876	308.624	358.297	97.128	111.899	396.906	433.733	375.657	119.586	434.419	331.883	152.129	146.149	397.264	439.791	0.0041187	0.0018917	0.00021743	887.38	1.6245e-05	4.4404e-06	1275.8	345.86	1.2742e-05	4.788e-06	608.37	242.98	129.64	61.318	8.9907e-06	122.01	0.00088991	0.00084332	0.00021667	871.52	9.5051e-06	9.3617e-06	1206	333.01	9.5589e-06	9.0048e-06	564.51	223.51	129.15	58.16	8.1453e-06	111.17	399.592	148.586	156.543	101.397	253.611	208.769	101.166	106.447	212.411	236.887	105.299	109.852	111.870	115.998	200.098	113.687	-8191	255	
2125.263	1	1	0	0	0.1969	0.051697	0.27039	0.26435	0.2466	0.060782	0.21301	0.098119	0.10168	0.10146	0.1017	0.041902	0.20265	0.087118	0.28991	0.32813	-1.7563	-2.1354	-2.9771	-2.1042	-2.4354	-2.8875	-2.0729	-3.0458	-2.3333	-2.2	-2.9396	-2.125	-2.4917	-2.8146	-1.9375	-2.9375	147.184	440.762	390.359	437.010	177.568	303.745	403.318	326.490	151.296	294.361	249.094	219.064	291.239	91.184	232.521	347.597	0.0036089	0.00036418	0.00025471	899.37	1.5154e-05	1.2229e-05	1289.3	346.74	1.2711e-05	5.3859e-06	611.83	243.61	129.38	61.411	2.0349e-05	122.31	0.00087973	0.00081708	0.00021014	882.54	9.4099e-06	9.1772e-06	1216	336.35	9.5976e-06	8.9734e-06	569.46	225.64	129.7	58.009	8.2695e-06	111.35	408.188	284.034	277.362	101.095	239.531	195.944	101.232	106.439	221.727	299.647	105.478	110.221	111.557	115.977	237.477	113.645	-8191	255	
2125.357	1	1	0	0	0.27604	0.2	0.18739	0.087624	0.19362	0.11156	0.11188	0.093252	0.11914	0.13722	0.11872	0.067194	0.14769	0.10701	0.085412	0.096972	-2.2313	-1.9292	-2.7792	-2.1625	-2.2792	-2.7062	-2.4958	-2.7771	-2.4938	-1.9417	-3.1229	-2.2438	-2.3104	-2.9	-2.0208	-2.8	352.293	372.205	268.464	410.642	98.892	154.902	177.333	421.238	223.886	287.067	359.746	437.091	333.887	442.534	380.130	111.100	0.0029045	0.00040124	0.00030771	897.04	1.9482e-05	3.434e-06	1288.4	346.88	1.8845e-05	2.2794e-05	607.21	242.31	127.2	60.802	1.045e-05	120.93	0.00084468	0.00075622	0.00020692	882.15	8.7957e-06	8.2418e-06	1215.5	334.86	9.1203e-06	8.246e-06	566.75	224.34	128	57.465	8.7828e-06	110.38	406.963	189.872	170.385	101.526	221.392	332.623	101.498	106.900	218.916	176.005	105.718	110.054	111.353	116.366	233.670	114.197	-8191	255	
2125.455	1	1	0	0	0.13668	0.20934	0.097474	0.22739	0.18601	0.16235	0.20816	0.022909	0.1435	0.20823	0.33774	0.32144	0.084264	0.12734	0.13591	0.14217	-2.1229	-1.9458	-2.8458	-2.4333	-2.0938	-2.7792	-2.2646	-2.5417	-2.6208	-1.9333	-3.1125	-2.3646	-2.2792	-3.0187	-2.1271	-2.6771	287.630	220.762	303.611	418.290	125.022	396.674	439.935	408.888	123.276	267.054	368.050	361.932	190.461	112.433	117.258	332.599	0.0036322	0.0013851	0.00057406	889.35	7.0353e-06	2.2559e-06	1270.9	339.51	8.7718e-06	8.6715e-06	598.67	239.49	126.61	61.48	1.1533e-05	122.22	0.00083405	0.00071721	0.00021584	872.47	8.5508e-06	7.7601e-06	1201.6	327.62	8.6418e-06	7.8252e-06	559.02	221.25	125.58	57.594	8.9282e-06	111.29	400.440	174.768	157.730	101.834	277.042	380.114	101.587	107.373	351.327	237.522	105.759	109.914	111.044	116.024	237.420	113.810	-8191	255	
2125.574	1	1	0	0	0.16569	0.15351	0.16189	0.10936	0.055782	0.12483	0.23096	0.020026	0.16679	0.26824	0.073484	0.14939	0.16175	0.19202	0.10279	0.11461	-2.4521	-1.7021	-2.6708	-2.4479	-2.1188	-2.8875	-2.2771	-2.6312	-2.7479	-1.8917	-2.7146	-2.5729	-2.175	-2.9375	-2.3333	-2.3458	390.930	123.752	271.353	141.356	412.554	401.401	362.776	440.979	255.865	202.722	197.998	342.546	419.776	438.190	400.700	424.886	0.0031027	0.0018812	0.00029992	884.19	6.4884e-06	1.3942e-05	1254.3	335.15	3.9894e-06	1.2141e-05	588.6	240.08	126.32	62.528	8.0273e-06	125.36	0.00079662	0.00071863	0.00022143	863.95	8.0806e-06	7.683e-06	1192.6	321.57	7.957e-06	7.6668e-06	550.17	219.82	122.58	58.408	8.8284e-06	113.42	392.677	168.777	132.859	101.244	230.147	191.748	101.001	106.563	444.052	194.919	105.703	109.898	111.319	116.219	194.538	113.636	-8191	255	
2125.670	1	1	0	0	0.31912	0.12152	0.12294	0.055194	0.10556	0.30818	0.067529	0.17597	0.19849	0.23127	0.079101	0.20499	0.13658	0.22788	0.16419	0.30523	-2.4875	-1.8687	-2.7104	-2.5729	-1.9562	-2.8854	-2.2562	-2.1542	-2.7208	-1.8229	-2.5396	-2.8396	-1.8896	-2.9396	-2.3312	-2.4062	174.665	438.635	176.884	168.718	402.098	383.867	139.024	427.382	267.384	176.079	262.199	430.901	188.716	366.163	346.151	336.536	0.003932	0.0016637	0.00034961	882.57	1.6132e-05	1.1768e-06	1249.9	334.03	7.6586e-06	1.5312e-05	582.38	237.68	124.36	62.373	1.1047e-05	124.75	0.00075073	0.00074662	0.00022365	860.96	7.7636e-06	8.1242e-06	1188.5	319.28	7.6097e-06	8.1147e-06	544.69	218.69	120.61	58.395	8.7528e-06	113.05	401.854	129.905	147.456	101.427	254.933	362.922	101.000	106.863	93.823	180.261	105.916	109.931	111.732	116.360	197.902	113.892	-8191	255	
2125.766	1	1	0	0	0.10486	0.087423	0.051371	0.054519	0.15815	0.25995	0.154	0.099885	0.067653	0.086386	0.20006	0.15888	0.1201	0.04921	0.0089522	0.23027	-2.4521	-1.8292	-2.6021	-2.6792	-1.9729	-2.9021	-2.5458	-2.0396	-2.8542	-1.9896	-2.6875	-2.8667	-1.9083	-2.7917	-2.3521	-2.3583	141.977	161.477	88.828	318.514	131.694	396.074	352.841	351.333	289.684	318.614	399.719	396.559	109.894	400.943	381.154	434.667	0.0038566	0.00087681	0.00027552	881.59	6.295e-06	8.9742e-06	1238.1	325.35	1.188e-05	7.8603e-06	568.92	233.6	124.22	61.334	6.8657e-06	123.88	0.00071764	0.00077282	0.0002143	858.41	7.4229e-06	8.2229e-06	1178.6	311.05	7.2389e-06	8.0929e-06	529.22	213.52	118.33	57.382	7.8702e-06	111.01	402.848	362.620	207.588	101.035	156.747	221.061	101.214	106.708	218.063	190.863	105.805	110.140	111.194	116.642	173.730	114.060	-8191	255	
2125.862	1	1	0	0	0.09752	0.052239	0.17122	0.1352	0.1526	0.22305	0.34423	0.21598	0.12579	0.3853	0.072316	0.13094	0.094473	0.041539	0.23955	0.34955	-2.4604	-2.175	-2.3958	-2.875	-2.0979	-2.4167	-2.5167	-2.1417	-2.9917	-2.0854	-2.6771	-2.8146	-1.8729	-2.7875	-2.3667	-2.0625	355.457	189.325	434.388	376.917	256.267	154.815	353.020	380.021	110.348	281.388	376.845	421.322	149.691	218.518	266.305	396.141	0.0045213	0.00034227	0.00026226	883.67	1.6441e-05	1.1628e-05	1239.9	324.16	2.4383e-05	1.2389e-05	567.95	235.47	125.38	60.985	6.4509e-06	123.27	0.00066456	0.00071881	0.0001917	848.57	6.9662e-06	7.718e-06	1167.1	305.83	6.8357e-06	7.5385e-06	523.71	213.2	117.55	56.629	6.6091e-06	109.16	403.158	173.193	108.534	101.499	200.678	241.322	101.550	107.237	175.550	220.562	105.985	110.260	111.737	116.199	286.235	114.006	-8191	255	
2125.959	1	1	0	0	0.1975	0.15956	0.19614	0.22834	0.16466	0.047689	0.050879	0.18759	0.24402	0.15972	0.14299	0.41656	0.17485	0.077947	0.10557	0.10812	-2.5833	-2.1479	-2.2208	-2.9792	-2.0125	-2.6396	-2.6479	-2.0187	-2.8792	-2.1396	-2.2417	-3.0542	-1.9771	-2.5687	-2.7229	-2.0417	332.305	96.059	169.763	360.894	132.150	147.072	268.272	419.029	306.036	141.980	425.211	307.232	106.312	430.294	377.012	414.822	0.0037163	0.0003165	0.00020341	911.13	5.6798e-06	3.1898e-06	1283.9	344.28	1.2197e-05	9.6931e-06	595.88	240.62	129.11	58.507	9.1024e-06	116.68	0.00058799	0.00060416	0.00015527	857.32	6.1219e-06	6.2715e-06	1188.4	318.72	6.0297e-06	6.2331e-06	540.13	214.74	118.11	53.85	5.7865e-06	103.41	415.685	145.425	129.937	100.853	268.225	238.653	100.691	106.353	163.155	211.053	105.520	109.952	110.648	116.167	179.555	113.715	-8191	255	
2126.055	1	1	0	0	0.19553	0.016661	0.0731	0.12808	0.2052	0.36999	0.22199	0.28621	0.15972	0.14316	0.072956	0.24491	0.15747	0.20862	0.13123	0.029638	-2.3125	-2.1271	-1.875	-2.975	-1.8354	-2.4042	-2.6083	-1.8521	-2.6271	-2.4604	-2.1375	-2.9271	-2.4708	-2.2875	-2.8187	-2.2604	366.839	225.060	441.845	375.356	174.224	223.195	423.783	366.255	445.713	132.601	106.661	102.251	416.096	322.395	205.881	419.582	0.0034056	0.001311	0.00016237	945.27	1.1048e-05	6.2291e-06	1315.9	348.8	1.1514e-05	2.4145e-06	603.26	238.33	127.52	55.319	8.2322e-06	111.4	0.00057124	0.00055268	0.00014163	883.76	6.0792e-06	5.8561e-06	1212.8	322.65	6.0169e-06	5.9144e-06	541.44	212.65	117.75	50.993	5.6578e-06	99.206	409.827	227.166	430.526	100.973	130.437	137.444	100.677	105.946	164.062	402.169	105.383	109.770	111.214	116.565	254.204	113.896	-8191	255	
2126.175	1	1	0	0	0.30001	0.18488	0.14522	0.16049	0.26489	0.15193	0.22079	0.078588	0.19629	0.085236	0.2404	0.074672	0.1411	0.35023	0.086855	0.21568	-2.3708	-2.2917	-2	-2.9688	-1.9604	-2.2438	-2.7792	-1.8979	-2.6667	-2.4375	-2.1083	-2.8187	-2.2917	-2.1625	-3.0104	-2.3083	158.703	250.215	277.766	424.139	192.296	167.360	377.442	288.832	438.729	90.445	89.122	373.904	115.043	159.757	215.161	336.787	0.0034519	0.00043208	0.00014245	947.86	6.5967e-06	4.3149e-06	1316.7	349.55	7.4063e-06	4.7651e-06	606.32	238.8	128.58	55.768	1.4372e-05	114.01	0.00061005	0.00058608	0.00014961	894.77	6.9809e-06	6.7289e-06	1218.4	327.01	7.2239e-06	7.1205e-06	550.37	216.63	122.5	52.352	6.6112e-06	102.67	399.265	270.708	102.514	100.825	156.040	237.513	100.644	106.155	268.257	203.085	105.713	110.008	111.330	116.432	271.458	113.725	-8191	255	
2126.270	1	1	0	0	0.048028	0.099739	0.24294	0.12679	0.070871	0.10644	0.28991	0.56953	0.11927	0.20946	0.22003	0.17606	0.17269	0.18131	0.2263	0.22894	-2.2042	-2.7208	-1.9146	-2.9021	-2.2646	-2.2208	-2.8417	-1.9833	-2.5271	-2.7792	-2.0792	-3	-2.3396	-2.3563	-3.0062	-1.8833	383.237	439.026	132.676	400.670	281.231	360.400	410.527	388.878	260.397	333.493	420.706	368.569	434.912	364.418	105.438	444.295	0.0032639	0.0014275	0.00017374	939.23	9.0428e-06	1.6989e-06	1314.8	350.36	1.0732e-05	4.1687e-06	612.03	240.09	128.17	57.967	6.946e-06	116.78	0.00070499	0.0006789	0.00017231	896.2	8.0008e-06	7.6675e-06	1223.6	333.89	8.297e-06	8.0679e-06	561.81	220.27	125.63	54.542	7.4531e-06	105.89	402.754	197.250	187.314	100.892	227.347	305.069	101.017	106.092	264.363	322.424	105.569	109.690	110.738	116.060	303.069	113.714	-8191	255	
2126.366	1	1	0	0	0.1832	0.1085	0.12878	0.11508	0.057806	0.31426	0.14587	0.39107	0.16288	0.22268	0.14387	0.10572	0.44634	0.1508	0.20847	0.32129	-1.9979	-2.6708	-2.0042	-2.7	-2.2792	-2.0708	-2.9167	-2.2417	-2.3854	-2.7104	-2.125	-2.8271	-2.5333	-2.2042	-2.7917	-2.3812	191.258	266.410	383.359	411.766	273.659	406.439	445.831	391.483	160.703	381.287	353.579	131.409	108.549	122.719	293.093	416.569	0.0038708	0.00039062	0.00031927	934.33	3.731e-06	4.3624e-07	1320.9	353.29	1.2764e-05	1.2667e-05	610.24	241.95	127.97	59.163	7.6898e-06	119.54	0.00075984	0.00069688	0.00018246	904.25	8.0368e-06	7.4063e-06	1230.2	337.21	8.0627e-06	7.5837e-06	563.46	221.57	125.74	55.258	8.0598e-06	108.76	412.984	156.805	100.691	101.335	248.161	115.261	101.106	105.868	148.126	255.562	105.474	110.175	111.292	116.153	239.823	114.022	-8191	255	
2126.462	1	1	0	0	0.33582	0.15193	0.11711	0.22611	0.095664	0.12107	0.24689	0.21817	0.26206	0.030216	0.03881	0.15996	0.099762	0.15193	0.033891	0.25884	-1.8458	-2.7333	-1.9042	-2.6125	-2.6458	-2.075	-2.8833	-2.3563	-2.4292	-3.0625	-2.0312	-2.7292	-2.5312	-2.1375	-2.8229	-2.4125	177.288	410.357	284.907	398.191	135.626	336.703	441.199	367.204	135.642	193.931	114.373	103.350	421.529	430.597	318.560	92.092	0.0032351	0.0003927	0.00036303	903.98	7.6189e-06	7.4371e-06	1284.4	346.08	3.5901e-06	5.3122e-06	604.65	242.06	126.93	60.023	1.019e-05	120.96	0.00080616	0.0007183	0.00021455	887.57	8.9017e-06	8.066e-06	1221.1	334.53	9.0863e-06	8.3593e-06	568.02	223.17	127.77	56.802	9.3872e-06	110.93	410.847	446.647	160.692	101.046	207.081	181.851	100.729	105.759	415.282	170.882	104.800	110.046	110.483	115.358	278.421	113.213	-8191	255	
2126.558	1	1	0	0	0.22936	0.13091	0.10266	0.13112	0.071051	0.21831	0.29777	0.21512	0.035247	0.028717	0.09135	0.26957	0.089302	0.29242	0.22169	0.066205	-1.8188	-2.7667	-2.1271	-2.6583	-2.8396	-1.9312	-2.9958	-2.5	-1.9396	-2.9104	-2.1917	-2.4354	-2.8146	-2.0896	-2.7062	-2.725	353.197	140.517	387.312	381.981	94.602	132.304	378.198	204.854	333.322	153.636	434.771	353.566	133.510	133.824	398.737	360.604	0.0033218	0.00067742	0.00038827	883.68	5.4048e-06	6.6739e-06	1257.3	340.18	8.1813e-06	1.459e-05	595.68	241.66	126.61	61.384	1.8943e-05	123.46	0.00087971	0.0008087	0.00025094	879.38	9.6877e-06	9.1468e-06	1214.3	333.19	9.9602e-06	9.6577e-06	571.62	225.41	131.73	59.066	1.1744e-05	114.49	397.765	171.209	153.910	100.881	353.816	267.137	100.995	106.191	122.492	217.022	105.427	109.610	110.553	115.363	220.661	113.057	-8191	255	
2126.654	1	1	0	0	0.23679	0.20272	0.12769	0.16926	0.17315	0.18298	0.15876	0.14918	0.032667	0.17242	0.29281	0.066931	0.29945	0.45013	0.045799	0.10655	-1.4875	-2.8271	-2.2396	-2.4396	-2.8063	-2.0187	-2.9958	-2.5354	-2.15	-2.6792	-2.3688	-2.2188	-2.7271	-2.0042	-2.7083	-2.6021	222.446	316.054	438.176	171.773	121.191	404.918	310.821	173.073	185.605	408.608	418.542	96.454	173.129	433.242	245.499	409.909	0.0032611	0.00059567	0.00043928	860.94	8.685e-07	5.3568e-06	1243	332.43	5.9139e-06	2.4825e-05	586.58	238.49	123.17	61.403	1.2805e-05	123.4	0.0010292	0.0010113	0.00031129	880.31	1.1436e-05	1.1753e-05	1223.8	335.93	1.1724e-05	1.2292e-05	580.34	228.23	134.82	60.648	1.3251e-05	115.77	405.775	260.522	128.525	101.191	255.663	168.437	101.050	105.924	397.263	217.822	105.018	109.890	110.441	115.248	233.136	112.841	-8191	255	
2126.751	1	1	0	0	0.21265	0.32814	0.23682	0.20282	0.091372	0.1705	0.17926	0.18961	0.11748	0.081518	0.21294	0.090952	0.089379	0.40638	0.20747	0.21168	-1.7062	-2.825	-2.2396	-2.15	-2.7313	-1.9417	-2.6021	-2.525	-1.9583	-2.9875	-2.6708	-2.3458	-2.7167	-2.2021	-2.4188	-2.8479	377.344	416.864	175.047	385.141	132.345	399.640	337.773	404.356	324.624	111.095	427.169	308.624	423.171	421.660	376.220	89.887	0.0033818	0.0015228	0.00053731	847.76	1.6287e-05	8.9268e-06	1234.9	327.91	1.6404e-05	1.0063e-05	585.55	240.15	125.81	62.217	7.1081e-07	122.91	0.0010758	0.0011296	0.00032415	868.93	1.098e-05	1.2043e-05	1212.4	327.51	1.0466e-05	1.1415e-05	568.46	225.1	128.98	59.991	1.0876e-05	113	398.471	152.987	220.720	101.289	205.828	137.546	101.042	106.085	199.383	254.282	105.172	109.869	110.557	115.036	119.131	113.246	-8191	255	
2126.847	1	1	0	0	0.18009	0.12839	0.12794	0.27605	0.074406	0.15855	0.2666	0.12467	0.063939	0.13045	0.11079	0.074139	0.053721	0.13299	0.10944	0.25756	-1.5458	-2.7792	-2.3708	-2.125	-2.9813	-1.9292	-2.5438	-2.9813	-2.0917	-2.8875	-2.5375	-2.1437	-2.9042	-2.3021	-2.2208	-3.1083	417.024	306.000	156.231	392.002	121.891	398.512	359.151	412.952	301.994	447.694	335.867	340.869	354.511	442.003	356.558	420.896	0.003631	0.0010361	0.00021952	853.52	1.0638e-05	3.5361e-06	1237.2	331.29	1.503e-05	2.0585e-05	592.35	239.24	127.52	61.212	1.0765e-05	121.64	0.00089661	0.00094662	0.00026235	846.4	9.101e-06	1.0103e-05	1189.9	320.08	8.8381e-06	9.6398e-06	558.93	220.29	125.45	58.314	9.173e-06	110.48	397.494	228.775	277.810	101.261	186.768	191.590	101.027	106.203	206.732	225.817	105.219	109.923	110.835	115.548	291.473	113.515	-8191	255	
2126.967	1	1	0	0	0.17743	0.23259	0.1023	0.065743	0.076169	0.12432	0.10562	0.19538	0.20103	0.18877	0.15153	0.25771	0.050359	0.25466	0.12491	0.13438	-1.5396	-2.6958	-2.3833	-2.0062	-2.9104	-2.3104	-2.2354	-2.8042	-2.0812	-2.6375	-2.6375	-2.1792	-2.8563	-2.5375	-2.15	-3.0771	336.482	181.819	356.402	261.557	316.845	310.666	105.365	358.290	229.887	354.494	335.584	393.508	378.313	385.553	332.448	358.951	0.0036382	0.0013104	3.6232e-05	859.86	1.1306e-05	5.7971e-06	1248.2	333.73	1.9287e-05	9.1521e-06	596.84	240.38	126.46	61.229	1.2703e-05	122.38	0.00083308	0.0008595	0.00023519	836.71	8.7514e-06	9.2795e-06	1186.5	318.24	8.3897e-06	8.4746e-06	555.85	218.92	123.2	57.601	7.7898e-06	109.86	401.555	190.324	212.844	101.480	172.936	185.319	101.038	106.453	183.944	178.276	105.361	110.172	111.114	115.814	163.573	113.417	-8191	255	
2127.063	1	1	0	0	0.18587	0.11318	0.23093	0.40477	0.17857	0.081032	0.31986	0.41544	0.16865	0.059121	0.073108	0.18652	0.014806	0.097377	0.10681	0.10356	-1.475	-2.5333	-2.6708	-1.8771	-2.6958	-2.5042	-2.1458	-2.975	-1.9875	-2.3438	-2.6521	-2.2208	-2.7375	-2.5875	-1.9167	-2.9292	300.177	374.222	306.404	368.801	140.556	343.152	366.496	91.026	311.994	231.804	410.825	385.714	274.479	406.062	249.090	319.598	0.0039584	0.00067672	0.00019856	869.13	1.0658e-05	3.7268e-06	1252.5	331.9	4.7411e-06	1.6522e-05	593.9	241.58	127.15	61.18	7.8863e-06	122.2	0.00076763	0.00075428	0.00020541	836.24	8.596e-06	8.7636e-06	1183.2	316.79	8.7779e-06	8.4928e-06	552.03	219.76	124.64	57.571	7.6857e-06	109.94	405.874	140.943	263.356	101.453	100.976	319.359	101.135	106.292	211.006	371.381	105.214	110.040	111.289	115.651	297.636	113.800	-8191	255	
2127.135	1	1	0	0	0.16137	0.07885	0.082199	0.12229	0.17466	0.07896	0.25833	0.14425	0.3064	0.07431	0.059387	0.40776	0.28151	0.1823	0.14578	0.11323	-1.5021	-2.4979	-2.5875	-2.0687	-2.6437	-2.6083	-2.1646	-3.0458	-2.2021	-2.2604	-2.8458	-2.1083	-2.4896	-2.7604	-1.9354	-2.9979	368.544	336.103	382.024	397.190	267.429	148.240	370.558	173.409	433.901	179.241	107.169	401.685	231.615	362.590	282.734	338.162	0.0036329	0.0010492	0.00015642	868.71	6.3688e-06	6.5094e-06	1253.7	336.66	5.4404e-06	3.113e-06	595.25	238.05	126.59	59.115	1.1399e-05	117.87	0.00080493	0.00074814	0.00019503	840.09	8.4197e-06	8.1812e-06	1178.8	319.53	8.4075e-06	7.9687e-06	547.81	216.44	122.61	55.284	6.8027e-06	105.65	405.909	225.991	289.451	101.427	162.707	143.785	101.166	106.367	237.200	434.463	105.451	109.901	111.503	115.908	259.095	113.818	-8191	255	
2127.256	1	1	0	0	0.19458	0.11463	0.13716	0.28198	0.29341	0.10194	0.39992	0.14038	0.19467	0.12206	0.19936	0.34011	0.030264	0.091806	0.053276	0.18635	-1.9958	-2.0917	-2.8021	-1.9896	-2.65	-2.5938	-2.1833	-2.7917	-2.1625	-2.3625	-2.7604	-2.125	-2.4229	-2.6729	-1.9521	-2.9521	322.253	149.791	166.176	416.985	296.525	430.558	433.506	365.902	281.000	193.679	332.355	441.474	443.778	421.318	348.524	344.431	0.003857	0.00094153	0.00015218	893.28	1.4892e-05	7.4675e-06	1271.4	342.39	4.6424e-06	4.0271e-06	595.13	232.52	123.42	56.282	1.6798e-06	113.16	0.00072846	0.00065926	0.00016697	855.78	7.3092e-06	6.9509e-06	1180.9	322.07	7.2203e-06	6.7407e-06	541.35	210.97	117.42	52.318	6.066e-06	101.22	410.755	248.285	126.891	101.321	214.897	246.489	101.162	106.388	163.308	421.814	105.402	109.666	111.320	115.898	100.717	113.905	-8191	255	
2127.350	1	1	0	0	0.081798	0.21986	0.19771	0.10751	0.24786	0.038898	0.23322	0.29042	0.0092811	0.38562	0.063241	0.20824	0.15341	0.27921	0.037068	0.28687	-1.9271	-2.1042	-2.925	-2.0438	-2.2875	-2.6646	-2.1729	-2.8917	-2.3604	-2.1021	-3.0875	-2.4271	-2.3833	-2.975	-1.95	-2.6375	273.146	175.139	295.520	446.904	359.262	300.944	410.450	372.319	408.819	316.856	148.389	323.943	177.488	380.832	249.665	415.742	0.0028767	0.0010607	0.00025069	909.25	1.6952e-05	4.7765e-06	1293.7	344.99	1.829e-05	4.4442e-06	600.07	232.96	124.11	56.094	2.8646e-06	112.64	0.00063613	0.00055896	0.00014572	862.73	6.2997e-06	5.8802e-06	1185.6	320.74	6.1556e-06	5.626e-06	539.96	210.09	114.46	51.437	5.7155e-06	100.62	404.432	228.404	123.486	101.531	284.984	416.995	101.196	106.684	243.516	114.887	105.693	110.252	111.385	116.567	209.933	114.262	-8191	255	
2127.446	1	1	0	0	0.093032	0.16592	0.12521	0.21055	0.1771	0.33778	0.25893	0.2234	0.059028	0.074368	0.012384	0.17588	0.079822	0.095732	0.10203	0.075715	-2.1646	-2.0438	-2.7438	-2.2479	-2.2708	-2.8521	-2.0375	-2.6354	-2.4667	-1.8854	-2.9333	-2.5021	-2.3937	-2.7521	-2.0146	-2.55	373.446	230.441	117.575	315.560	266.980	316.465	443.973	445.836	424.445	98.884	210.469	403.459	182.058	263.323	343.523	427.509	0.0031348	0.0005154	0.00037209	913.85	6.4248e-06	6.6001e-06	1299.2	344.99	4.8292e-06	1.3738e-06	598.6	230.56	122.46	53.836	8.5471e-06	107.47	0.00056928	0.00048908	0.00014215	863.52	5.6146e-06	5.0872e-06	1194.3	319.18	5.3309e-06	4.6862e-06	536.57	206.6	110.39	48.735	4.9836e-06	95.419	402.899	261.932	113.633	101.361	168.270	346.647	101.621	106.949	185.168	445.145	105.623	109.963	111.674	115.999	244.911	114.092	-8191	255	
2127.542	1	1	0	0	0.23079	0.093855	0.25839	0.15614	0.044519	0.11417	0.30272	0.1995	0.22266	0.35728	0.20897	0.14102	0.082288	0.17793	0.11567	0.15192	-2.4854	-2.0875	-2.8583	-2.3125	-2.1417	-2.9688	-2.1854	-2.6188	-2.6208	-1.975	-3.0812	-2.6125	-2.0104	-2.8563	-1.9021	-2.5062	120.732	447.722	140.402	346.797	181.311	274.919	368.229	349.658	285.401	326.645	382.370	94.146	440.700	384.109	364.011	358.830	0.0033903	0.00092241	1.9302e-05	931.43	8.1069e-06	8.0418e-06	1303.7	343.84	6.4886e-06	1.0434e-05	589.55	228.85	122.69	53.087	6.6501e-06	107.31	0.00046165	0.00039449	0.00012437	867.41	4.6002e-06	4.3078e-06	1192.4	315.18	4.4803e-06	4.1061e-06	528.14	203.28	107.76	47.984	4.7136e-06	94.559	397.499	167.708	337.466	100.761	203.573	253.542	101.306	106.549	189.183	214.685	105.492	110.311	111.501	116.181	420.320	114.075	-8191	255	
2127.663	1	1	0	0	0.28878	0.087872	0.23754	0.19471	0.23287	0.11224	0.078051	0.076129	0.25766	0.24747	0.31456	0.31253	0.17874	0.098066	0.16065	0.086887	-2.5812	-1.9021	-2.75	-2.6625	-1.8917	-2.8146	-2.3667	-2.4604	-2.9375	-1.8792	-2.7917	-2.6562	-1.9104	-3	-2.1042	-2.3771	150.606	181.284	213.962	348.113	192.651	372.558	401.254	350.685	392.757	396.910	414.988	372.935	145.184	176.200	397.405	398.967	0.0030975	0.00094683	0.0003196	940.57	3.8727e-06	3.9427e-06	1319.6	342.87	1.311e-05	1.0124e-05	588.34	225.33	121.48	51.636	3.6186e-06	104.25	0.00040707	0.00037922	0.00011856	871.33	4.1268e-06	4.1358e-06	1199.9	312.8	3.9733e-06	4.0132e-06	523.27	199.94	105.48	46.466	4.4527e-06	91.596	405.434	200.529	165.087	100.807	217.874	231.053	101.045	106.213	188.269	192.093	105.942	110.144	111.615	116.668	169.771	114.743	-8191	255	
2127.735	1	1	0	0	0.090455	0.095214	0.22272	0.11513	0.18542	0.29087	0.24683	0.088076	0.12994	0.057485	0.15962	0.30031	0.26926	0.27062	0.10152	0.067368	-2.65	-1.7583	-2.7229	-2.6937	-2.0917	-2.9417	-2.4375	-2.3083	-2.8292	-2.0438	-2.5354	-2.8375	-1.9896	-2.9167	-2.4521	-2.3833	202.277	326.755	400.234	374.731	186.964	390.544	96.866	299.206	106.394	353.469	410.001	445.108	125.137	448.841	426.606	316.953	0.0030547	0.0012416	0.00024953	950.28	1.0948e-05	2.3465e-06	1326.7	344.41	7.8017e-06	5.9321e-06	585.17	221.03	117.78	49.32	2.6605e-06	102.08	0.00037471	0.00038742	0.00011363	876.66	3.8618e-06	4.3347e-06	1204.3	312.1	3.8755e-06	4.3412e-06	522.75	195.36	102.53	44.995	4.4092e-06	89.833	404.089	156.884	197.143	101.600	230.532	230.820	101.084	107.017	208.218	184.552	106.058	110.421	111.469	116.981	234.861	114.954	-8191	255	
2127.855	1	1	0	0	0.2557	0.013185	0.046758	0.4195	0.2533	0.27731	0.44723	0.075167	0.14056	0.1219	0.22997	0.21902	0.23923	0.14998	0.28779	0.097244	-2.5833	-2.2188	-2.3146	-2.7896	-1.8875	-2.9042	-2.4229	-2.1562	-2.8125	-2.0458	-2.5438	-2.9271	-1.9813	-2.8542	-2.1979	-2.3646	189.680	409.088	152.142	448.515	425.958	289.115	396.518	409.149	215.493	140.620	426.857	429.139	289.508	414.666	95.044	165.553	0.0030652	0.00035197	0.00016748	960.93	8.6961e-06	4.3213e-06	1337.3	343.78	2.6135e-06	6.3189e-06	587.56	217.13	117.01	48.828	8.4332e-06	100.53	0.00037632	0.00040946	0.0001099	884.51	3.8937e-06	4.4678e-06	1215.9	313.09	4.0078e-06	4.6288e-06	521.99	192.45	102.54	44.584	4.4907e-06	88.644	403.297	99.955	92.088	101.531	232.496	212.441	101.466	106.721	185.237	444.853	106.105	110.340	111.450	116.768	268.263	114.393	-8191	255	
#DATA ENDS
