BOXY.EXE: ISS Imagent and Oximeter Data Acquisition Program Version 0.80
Ascii Record File

#ACQ INFORMATION
2  Detector Channels 
16  External MUX Channels 
1  Auxiliary Channels 
5000  Waveform (CCF) Frequency (Hz)
1  Waveforms Skipped 
30  Waveforms Averaged 
1  Cycles Averaged 
16  Acquisitions per Waveform 
10.0806  Updata Rate (Hz) 

#FILE INFORMATION
TRUE -- External MUX Channel results are PARSED.
FALSE -- AC DC and Phase are NOT grouped.
TRUE -- Companion Program Settings File CREATED.
FALSE -- AC data not excluded
FALSE -- DC data not excluded
FALSE -- Phase data not excluded
FALSE -- Auxillary Chn. data not excluded
Tab delimiters

#CALIBRATION STATE
TRUE -- Waveform Calibration Values APPLIED.


#AUX CALIBRATION VALUES
Val Type	aux-1	

Term	1.0000e+00	
Factor	0.0000e+00	


#WF CALIBRATION VALUES
A = Detector Channel
Val Type	A-AC1	A-AC2	A-AC3	A-AC4	A-AC5	A-AC6	A-AC7	A-AC8	A-AC9	A-AC10	A-AC11	A-AC12	A-AC13	A-AC14	A-AC15	A-AC16	A-DC1	A-DC2	A-DC3	A-DC4	A-DC5	A-DC6	A-DC7	A-DC8	A-DC9	A-DC10	A-DC11	A-DC12	A-DC13	A-DC14	A-DC15	A-DC16	A-Ph1	A-Ph2	A-Ph3	A-Ph4	A-Ph5	A-Ph6	A-Ph7	A-Ph8	A-Ph9	A-Ph10	A-Ph11	A-Ph12	A-Ph13	A-Ph14	A-Ph15	A-Ph16	

Term	0.00000e+00	0.00000e+00	0.00000e+00	0.00000e+00	0.00000e+00	0.00000e+00	0.00000e+00	0.00000e+00	0.00000e+00	0.00000e+00	0.00000e+00	0.00000e+00	0.00000e+00	0.00000e+00	0.00000e+00	0.00000e+00	0.00000e+00	0.00000e+00	0.00000e+00	0.00000e+00	0.00000e+00	0.00000e+00	0.00000e+00	0.00000e+00	0.00000e+00	0.00000e+00	0.00000e+00	0.00000e+00	0.00000e+00	0.00000e+00	0.00000e+00	0.00000e+00	0.00000e+00	0.00000e+00	0.00000e+00	0.00000e+00	0.00000e+00	0.00000e+00	0.00000e+00	0.00000e+00	0.00000e+00	0.00000e+00	0.00000e+00	0.00000e+00	0.00000e+00	0.00000e+00	0.00000e+00	0.00000e+00	
Factor	1.00000e+00	1.00000e+00	1.00000e+00	1.00000e+00	1.00000e+00	1.00000e+00	1.00000e+00	1.00000e+00	1.00000e+00	1.00000e+00	1.00000e+00	1.00000e+00	1.00000e+00	1.00000e+00	1.00000e+00	1.00000e+00	1.00000e+00	1.00000e+00	1.00000e+00	1.00000e+00	1.00000e+00	1.00000e+00	1.00000e+00	1.00000e+00	1.00000e+00	1.00000e+00	1.00000e+00	1.00000e+00	1.00000e+00	1.00000e+00	1.00000e+00	1.00000e+00	X	X	X	X	X	X	X	X	X	X	X	X	X	X	X	X	

B = Detector Channel
Val Type	B-AC1	B-AC2	B-AC3	B-AC4	B-AC5	B-AC6	B-AC7	B-AC8	B-AC9	B-AC10	B-AC11	B-AC12	B-AC13	B-AC14	B-AC15	B-AC16	B-DC1	B-DC2	B-DC3	B-DC4	B-DC5	B-DC6	B-DC7	B-DC8	B-DC9	B-DC10	B-DC11	B-DC12	B-DC13	B-DC14	B-DC15	B-DC16	B-Ph1	B-Ph2	B-Ph3	B-Ph4	B-Ph5	B-Ph6	B-Ph7	B-Ph8	B-Ph9	B-Ph10	B-Ph11	B-Ph12	B-Ph13	B-Ph14	B-Ph15	B-Ph16	

Term	0.00000e+00	0.00000e+00	0.00000e+00	0.00000e+00	0.00000e+00	0.00000e+00	0.00000e+00	0.00000e+00	0.00000e+00	0.00000e+00	0.00000e+00	0.00000e+00	0.00000e+00	0.00000e+00	0.00000e+00	0.00000e+00	0.00000e+00	0.00000e+00	0.00000e+00	0.00000e+00	0.00000e+00	0.00000e+00	0.00000e+00	0.00000e+00	0.00000e+00	0.00000e+00	0.00000e+00	0.00000e+00	0.00000e+00	0.00000e+00	0.00000e+00	0.00000e+00	-2.55034e+02	-1.42192e+02	-1.58171e+02	-1.83275e+02	-9.83914e+01	-9.52191e+01	-1.58166e+02	-1.62015e+02	-1.11076e+02	-8.25393e+01	-1.72759e+02	-1.71492e+02	-1.85060e+02	-1.78311e+02	-8.15946e+01	-1.51161e+02	
Factor	6.84074e-05	1.16036e-04	3.77825e-05	1.75057e-01	1.19124e-06	1.02847e-06	2.01126e-01	6.52604e-02	1.39494e-06	1.20521e-06	1.15205e-01	3.44855e-02	6.48392e-02	1.06986e-02	1.09788e-06	1.56755e-02	7.61801e-07	7.68646e-07	2.13154e-07	8.53154e-02	8.43469e-09	8.40861e-09	9.13502e-02	3.13959e-02	8.44513e-09	8.40387e-09	5.21703e-02	1.57552e-02	2.79534e-02	5.07005e-03	8.41014e-09	7.10043e-03	X	X	X	X	X	X	X	X	X	X	X	X	X	X	X	X	



#DISTANCE SETTINGS
A = Detector Channel
A-1	A-2	A-3	A-4	A-5	A-6	A-7	A-8	A-9	A-10	A-11	A-12	A-13	A-14	A-15	A-16	

2.5000e+00	3.0000e+00	2.5000e+00	3.0000e+00	2.0000e+00	3.0000e+00	1.5000e+00	3.0000e+00	3.0000e+00	3.0000e+00	3.0000e+00	3.0000e+00	3.0000e+00	3.0000e+00	1.5000e+00	3.0000e+00	

B = Detector Channel
B-1	B-2	B-3	B-4	B-5	B-6	B-7	B-8	B-9	B-10	B-11	B-12	B-13	B-14	B-15	B-16	

1.0000e+01	1.0000e+01	1.0000e+01	1.4400e+00	1.0000e+01	1.0000e+01	1.5100e+00	1.9400e+00	1.0000e+01	1.0000e+01	1.9900e+00	2.4900e+00	2.4100e+00	2.9000e+00	1.0000e+01	2.9800e+00	




#DATA BEGINS
time	group	step	mark	flag	A-AC1	A-AC2	A-AC3	A-AC4	A-AC5	A-AC6	A-AC7	A-AC8	A-AC9	A-AC10	A-AC11	A-AC12	A-AC13	A-AC14	A-AC15	A-AC16	A-DC1	A-DC2	A-DC3	A-DC4	A-DC5	A-DC6	A-DC7	A-DC8	A-DC9	A-DC10	A-DC11	A-DC12	A-DC13	A-DC14	A-DC15	A-DC16	A-Ph1	A-Ph2	A-Ph3	A-Ph4	A-Ph5	A-Ph6	A-Ph7	A-Ph8	A-Ph9	A-Ph10	A-Ph11	A-Ph12	A-Ph13	A-Ph14	A-Ph15	A-Ph16	B-AC1	B-AC2	B-AC3	B-AC4	B-AC5	B-AC6	B-AC7	B-AC8	B-AC9	B-AC10	B-AC11	B-AC12	B-AC13	B-AC14	B-AC15	B-AC16	B-DC1	B-DC2	B-DC3	B-DC4	B-DC5	B-DC6	B-DC7	B-DC8	B-DC9	B-DC10	B-DC11	B-DC12	B-DC13	B-DC14	B-DC15	B-DC16	B-Ph1	B-Ph2	B-Ph3	B-Ph4	B-Ph5	B-Ph6	B-Ph7	B-Ph8	B-Ph9	B-Ph10	B-Ph11	B-Ph12	B-Ph13	B-Ph14	B-Ph15	B-Ph16	aux-1	digaux	

1245.721	1	1	0	256	0.27709	0.052893	0.095501	0.13677	0.096268	0.077154	0.33759	0.11919	0.34352	0.2644	0.29829	0.17114	0.059386	0.10275	0.25331	0.099962	-2.1583	-1.8021	-2.6375	-2.6146	-1.9375	-2.7562	-2.3688	-2.2979	-2.6042	-2.0417	-2.6312	-2.6375	-1.8354	-3.0292	-2.2333	-2.2542	-154.942	103.498	-165.892	151.588	22.997	78.967	153.017	-83.211	95.027	20.243	96.616	110.959	-158.162	136.313	-9.247	50.698	0.0014776	0.0006804	0.00019094	1280	4.9727e-06	6.7836e-06	1294.2	356.92	4.8272e-06	4.0431e-06	407.69	136.82	119.37	40.856	8.0513e-06	50.71	0.00037986	0.00035544	0.00011048	1290.3	3.9524e-06	3.9466e-06	1299.8	356.37	3.9817e-06	3.9329e-06	406.18	136.39	113.96	40.943	4.3627e-06	50.768	77.791	-168.348	-136.124	-164.113	-22.137	-67.556	-164.334	-159.162	-96.928	-114.587	-159.517	-155.874	-155.862	-150.245	-12.820	-151.084	-8191	255	
1245.817	1	1	0	0	0.28769	0.069772	0.195	0.30764	0.33753	0.30223	0.34493	0.15419	0.12893	0.2631	0.0703	0.23155	0.21878	0.23615	0.16108	0.061768	-2.2188	-2.1021	-2.5375	-2.6708	-1.8875	-2.6688	-2.3542	-2.0792	-2.7562	-1.9542	-2.675	-2.5583	-1.9188	-2.7417	-2.3083	-2.1125	54.401	-20.183	-64.950	174.987	-140.902	94.094	130.930	47.395	74.971	60.998	40.089	156.241	160.581	176.900	-22.665	-147.847	0.0015397	0.00048245	0.00010897	1282.7	4.0533e-06	3.0442e-06	1293	357.21	7.6589e-06	5.6367e-06	407.36	137.44	118.69	40.868	4.4948e-06	50.62	0.00036116	0.0003686	0.00010883	1288.6	3.8248e-06	4.1144e-06	1299.4	356.36	3.8377e-06	4.0856e-06	405.05	136.45	113.49	40.989	4.1848e-06	50.66	75.061	-171.220	122.158	-163.589	-28.142	-36.338	-164.224	-158.966	-110.043	-109.113	-159.497	-155.789	-155.334	-150.106	44.259	-151.033	-8191	255	
1245.913	1	1	0	0	0.057776	0.2134	0.22154	0.22645	0.23403	0.14541	0.079592	0.1906	0.29797	0.17255	0.054568	0.38446	0.11597	0.083427	0.15913	0.041971	-2.3875	-1.9771	-2.2875	-2.6813	-1.9271	-2.5167	-2.6208	-2.05	-2.7708	-2.0958	-2.3167	-2.7938	-1.7604	-2.7313	-2.3375	-2.0646	-45.183	162.848	-130.355	75.821	-45.860	48.552	139.733	135.458	136.659	94.549	51.391	-151.093	94.641	-161.672	49.729	-133.831	0.0015018	0.00031049	8.2226e-05	1285.5	4.6449e-06	1.5374e-06	1294.9	356.54	6.0675e-06	4.6863e-06	408.4	137.36	119.58	40.98	6.8102e-06	50.894	0.00035025	0.00038259	0.00010402	1289.5	3.7142e-06	4.1534e-06	1297.3	355.32	3.792e-06	4.1953e-06	404.52	136.15	113.75	41.063	4.0537e-06	50.529	70.730	-149.434	-96.836	-163.674	-12.062	68.724	-163.991	-158.938	157.023	-106.586	-159.518	-155.573	-155.722	-149.930	-13.269	-151.079	-8191	255	
1246.009	1	1	0	0	0.21383	0.25649	0.12535	0.20536	0.29366	0.11063	0.17805	0.21803	0.22591	0.095115	0.34225	0.19704	0.28354	0.12191	0.15763	0.15235	-2.5708	-2.0604	-2.3729	-2.9313	-1.8896	-2.6792	-2.8438	-1.9604	-2.8583	-2.0625	-2.5771	-3.0312	-1.9833	-2.6458	-2.5687	-2.05	-64.816	137.723	33.414	153.740	-134.973	175.325	99.318	81.472	162.219	151.819	179.849	108.133	83.600	-116.176	-10.068	43.771	0.0016416	0.00037367	6.981e-05	1286.1	5.9527e-06	3.012e-06	1292.2	356.79	8.4328e-06	2.0197e-06	406.49	137.38	119.08	40.982	3.0957e-06	50.837	0.000358	0.00038681	0.0001005	1288.2	3.8229e-06	4.1556e-06	1297	355.09	3.8914e-06	4.133e-06	403.18	135.92	114.08	41.056	3.9232e-06	50.522	74.938	-68.985	-139.105	-163.560	-139.633	-55.137	-163.788	-158.935	-97.043	-0.707	-159.143	-155.218	-155.174	-149.542	-73.292	-150.365	-8191	255	
1246.128	1	1	0	0	0.11836	0.20491	0.090428	0.29173	0.13657	0.31379	0.076045	0.24896	0.07011	0.13132	0.25727	0.21743	0.19763	0.12891	0.14324	0.17785	-2.3521	-2.0312	-2.2625	-2.9	-1.9646	-2.5396	-2.6979	-2.0271	-2.9292	-2.3563	-1.9854	-2.8583	-2.0667	-2.4708	-2.575	-1.8125	4.231	-99.221	75.005	167.697	22.212	-99.670	132.803	173.131	-102.828	135.547	79.023	-142.477	174.121	155.206	22.075	161.326	0.0014164	0.00042888	8.6874e-05	1291.1	9.4082e-06	6.6558e-06	1298.4	357.17	8.6099e-06	3.9215e-06	407.11	136.72	118.15	40.795	2.2368e-06	50.742	0.0003674	0.00038024	9.7777e-05	1286.8	4.033e-06	4.0924e-06	1295.6	354.71	4.1231e-06	4.1941e-06	402.95	135.72	114.97	40.988	3.9822e-06	50.502	73.326	-79.384	-54.734	-162.810	-121.767	-15.803	-163.261	-158.154	-123.052	-32.517	-158.771	-155.141	-155.424	-149.631	-77.755	-150.790	-8191	255	
1246.224	1	1	0	0	0.18818	0.1524	0.12393	0.11663	0.081891	0.45908	0.1051	0.11438	0.13253	0.15087	0.12771	0.20599	0.055364	0.17363	0.21283	0.2332	-2.4396	-2.25	-1.9146	-2.9229	-2.0271	-2.4271	-2.8604	-2.1771	-2.5438	-2.3937	-2.2375	-2.7333	-2.0083	-2.3854	-2.7062	-1.9625	48.023	-137.687	85.285	-147.987	99.097	-22.143	174.723	125.847	92.415	-168.120	109.709	147.646	-173.570	-160.953	128.962	177.102	0.0018126	0.00065141	0.00010446	1288.4	6.3657e-06	2.6775e-06	1288.6	355.96	6.9087e-06	6.6321e-06	407.28	136.73	118.85	40.886	6.6086e-06	50.618	0.00039916	0.00038435	9.867e-05	1285.9	4.3232e-06	4.0618e-06	1292.5	354.86	4.283e-06	4.1428e-06	402.44	135.96	115.69	40.935	3.931e-06	50.59	67.477	-143.180	-83.499	-163.842	-100.713	27.904	-164.040	-159.335	-78.066	-30.843	-159.695	-155.578	-155.755	-150.173	-55.099	-151.368	-8191	255	
1246.320	1	1	0	0	0.20267	0.075144	0.067947	0.15255	0.27292	0.066709	0.21432	0.081442	0.17567	0.15063	0.17515	0.16195	0.22572	0.16692	0.21255	0.13377	-2.1625	-2.4062	-1.8042	-2.8479	-2.2354	-2.1937	-2.9625	-1.95	-2.5729	-2.3771	-2.0292	-2.7104	-2.1521	-2.1021	-2.8542	-2.1354	156.356	28.963	-76.765	113.308	21.431	-108.916	152.224	78.526	53.939	-167.318	-67.356	124.224	-147.757	90.109	54.544	-170.266	0.0013687	0.00036643	0.00024443	1287.4	4.0275e-06	5.7128e-06	1291.4	354.97	3.9806e-06	3.5253e-06	407.25	137.18	118.06	40.753	6.071e-06	50.235	0.00040871	0.00038353	9.828e-05	1291.6	4.5136e-06	4.1741e-06	1293.6	356.51	4.4738e-06	4.2709e-06	402.87	136.65	115.89	40.996	4.0804e-06	50.847	66.425	177.552	-55.989	-163.590	-35.275	-59.160	-163.986	-158.995	8.666	7.318	-159.443	-155.593	-155.580	-150.030	-68.285	-151.113	-8191	255	
1246.416	1	1	0	0	0.06479	0.13904	0.30102	0.13184	0.065247	0.16224	0.15077	0.23522	0.23161	0.10051	0.11117	0.22244	0.10309	0.095552	0.30667	0.19611	-2.025	-2.4854	-1.8208	-2.8688	-2.1917	-2.0062	-3.0396	-2.0938	-2.3854	-2.6	-1.8917	-2.8667	-2.3729	-2.1458	-2.7958	-2.2021	163.199	97.016	-135.640	-123.827	35.306	-9.860	151.903	168.627	-83.214	26.222	7.588	167.840	126.789	-113.603	19.433	155.631	0.0015044	0.00024389	0.00017311	1282.7	5.666e-06	5.2469e-06	1293	355.12	1.8056e-06	2.4699e-06	403.02	136.56	117.74	40.613	3.6889e-06	50.452	0.00042288	0.00040435	0.00010353	1289.4	4.7089e-06	4.3496e-06	1292.7	358.03	4.6347e-06	4.4498e-06	402.59	137.04	115.92	40.801	4.3438e-06	51.075	72.161	-86.848	-74.269	-163.434	-63.447	-4.119	-163.765	-158.964	-74.188	68.252	-159.551	-155.108	-155.414	-149.754	-29.381	-150.750	-8191	255	
1246.513	1	1	0	0	0.15352	0.19373	0.024462	0.179	0.047334	0.2403	0.47451	0.17923	0.27245	0.24354	0.1689	0.11368	0.13256	0.28622	0.073316	0.12422	-1.9208	-2.6375	-1.7354	-2.7854	-2.3833	-1.9167	-3.0646	-2.1583	-2.2729	-2.5792	-2.0333	-2.8104	-2.525	-2.0062	-2.8688	-2.1271	-62.210	-130.884	119.596	130.266	144.532	175.725	118.993	97.628	27.447	-72.402	-168.157	68.254	159.259	133.572	-148.610	144.214	0.0013509	0.00039609	8.7714e-05	1280.8	2.9835e-06	6.4072e-06	1287.7	353.4	5.4065e-06	5.9215e-06	402.19	135.91	117.36	40.419	4.488e-06	50.031	0.00043055	0.00040341	0.00011024	1288.4	4.7219e-06	4.4041e-06	1289.7	357.11	4.7333e-06	4.5161e-06	403.49	136.84	115.61	40.6	4.716e-06	50.967	66.352	168.897	129.129	-163.220	-24.134	-49.747	-163.566	-158.844	-73.708	-6.544	-159.249	-155.062	-155.554	-149.475	-66.061	-150.813	-8191	255	
1246.609	1	1	0	0	0.18554	0.13288	0.21118	0.11527	0.18563	0.21466	0.18537	0.2434	0.05813	0.16796	0.4281	0.20681	0.3914	0.22245	0.1673	0.056695	-1.8062	-2.6104	-1.9813	-2.5146	-2.4354	-1.7437	-2.8896	-2.0792	-2.0729	-2.7042	-2.0917	-2.3833	-2.6271	-2	-2.6021	-2.3771	-9.182	-53.901	-154.654	151.852	152.031	-70.833	117.812	182.819	89.855	-152.083	116.948	-70.847	101.787	63.784	128.325	-67.645	0.0016155	0.00022015	0.00010203	1267	5.7686e-06	5.984e-06	1282.5	352.75	4.7561e-06	3.5176e-06	401.25	135.06	116.64	40.055	4.1688e-06	49.805	0.00044206	0.00041157	0.00012088	1282.4	4.838e-06	4.404e-06	1288.2	356.38	4.6981e-06	4.4913e-06	403.85	136.01	115.21	40.401	4.9208e-06	50.653	73.151	75.773	172.602	-163.411	-48.880	-23.291	-164.032	-159.032	132.963	-55.583	-159.549	-155.249	-155.113	-149.658	-85.876	-150.553	-8191	255	
1246.729	1	1	0	0	0.25783	0.32477	0.20087	0.31309	0.21908	0.28993	0.19345	0.20545	0.076178	0.27289	0.12663	0.30972	0.26759	0.11605	0.081422	0.091968	-1.6083	-2.6583	-1.8896	-2.6667	-2.6937	-1.7542	-2.8646	-2.4167	-1.9458	-3.0708	-2.1437	-2.3125	-2.8063	-2.1167	-2.7333	-2.3417	-107.875	-73.374	122.391	-133.066	180.840	-53.250	86.095	38.647	124.915	-132.975	132.288	12.126	102.989	-110.153	46.722	-155.342	0.0015189	0.00031718	0.0001118	1262.8	7.5003e-06	3.2297e-06	1270.9	349.03	6.5876e-06	5.5098e-06	398.91	133.74	116.15	39.974	1.0113e-06	49.74	0.00042957	0.00040522	0.00012535	1274.4	4.6649e-06	4.3899e-06	1281.3	353.34	4.5636e-06	4.4641e-06	403.05	134.83	114.25	40.392	4.9864e-06	50.542	64.872	-148.202	145.885	-163.388	-115.811	-55.948	-163.867	-158.695	-97.586	-46.396	-159.301	-154.934	-155.215	-149.767	-159.330	-150.697	-8191	255	
1246.824	1	1	0	0	0.15508	0.033024	0.15699	0.073992	0.20054	0.16126	0.13382	0.2226	0.15746	0.12778	0.30734	0.228	0.2302	0.25118	0.042205	0.12647	-1.6375	-2.6396	-2.1312	-2.3646	-2.7604	-1.8979	-2.6479	-2.6063	-1.75	-2.8458	-2.2188	-2.2604	-2.8354	-2.0875	-2.5271	-2.5792	-88.459	118.516	-94.366	96.713	-103.642	-120.594	165.215	140.499	-62.901	50.627	69.017	35.709	76.405	90.945	-73.223	128.865	0.0013417	0.00012686	0.00024801	1259.9	6.2928e-06	2.0037e-06	1267.3	348.87	2.9504e-06	3.7446e-06	399.34	134.33	115.43	39.688	4.8586e-06	49.72	0.0004226	0.00042389	0.00013005	1271.7	4.6855e-06	4.7361e-06	1284.1	353.13	4.7236e-06	4.9916e-06	404.7	135.62	114.77	40.6	5.495e-06	50.756	73.298	151.501	-48.049	-163.490	-94.647	107.387	-163.935	-159.185	91.941	-96.324	-159.297	-154.874	-155.446	-149.834	-42.107	-151.120	-8191	255	
1246.920	1	1	0	0	0.22931	0.046186	0.097735	0.14953	0.14766	0.057307	0.26652	0.091032	0.1665	0.060498	0.17913	0.069046	0.12076	0.27799	0.11579	0.19879	-1.5708	-2.6625	-2.1542	-2.1688	-2.8667	-1.9708	-2.6813	-2.5687	-1.8958	-2.8729	-2.3187	-2.0187	-2.8042	-2.1063	-2.4542	-2.6854	-29.734	-59.072	-47.705	168.365	50.055	-74.779	95.553	-18.778	13.125	-20.865	100.712	94.536	-83.100	151.019	-69.110	143.269	0.0013662	0.00043559	0.0002144	1257.9	4.123e-06	4.7928e-06	1264.5	348.78	9.9229e-06	7.3915e-06	397.92	133.95	116.18	39.933	5.6696e-06	49.643	0.00045872	0.00049463	0.00014369	1274.6	5.0863e-06	5.5266e-06	1286	354.21	5.0138e-06	5.6011e-06	406.08	135.63	115.28	40.845	5.5648e-06	50.681	75.507	-82.715	-67.073	-163.369	-80.551	-88.241	-163.652	-158.529	-103.162	-51.531	-158.938	-154.593	-154.765	-149.325	-7.472	-150.113	-8191	255	
1246.993	1	1	0	0	0.21685	0.21044	0.044218	0.22525	0.15215	0.40356	0.19349	0.24722	0.1814	0.28646	0.38816	0.093702	0.085659	0.026373	0.097858	0.0032944	-1.5542	-2.7771	-2.1708	-2.1125	-2.7521	-2.1646	-2.4479	-2.8688	-1.9896	-2.8187	-2.5396	-2.0208	-2.9146	-2.0292	-2.25	-2.7792	165.647	130.690	-136.559	152.050	-5.736	34.077	93.744	108.371	-41.548	-91.991	87.448	103.828	93.008	-70.114	148.355	110.220	0.0017299	0.00043086	0.00016019	1258.2	2.3321e-06	1.8426e-06	1265.3	349.54	9.1692e-06	7.2343e-06	397.86	134.18	115.32	39.735	2.7813e-06	49.085	0.00047096	0.00051707	0.00014205	1274.1	5.1726e-06	5.694e-06	1285	353.89	5.1491e-06	5.6751e-06	405.35	135.47	115.55	40.886	5.4429e-06	50.544	79.261	127.296	-102.600	-163.218	-157.509	-137.322	-163.137	-158.613	-135.422	-95.181	-158.659	-154.648	-154.984	-149.272	-96.218	-150.293	-8191	255	
1247.112	1	1	0	0	0.28581	0.098733	0.10864	0.22744	0.063413	0.148	0.20936	0.19676	0.12369	0.074277	0.30499	0.16244	0.17139	0.095009	0.22467	0.089752	-1.4229	-2.4521	-2.4146	-2.0604	-2.8771	-2.2271	-2.2479	-2.9146	-2.0167	-2.5979	-2.6937	-1.8833	-2.8833	-2.2708	-2.1979	-2.9958	-127.377	-60.113	98.383	143.821	-98.503	-46.124	9.025	125.994	-49.015	-72.043	94.221	-90.641	-172.502	146.997	-96.151	-104.817	0.0016651	0.00060452	6.7645e-05	1259.4	5.6699e-06	1.1698e-05	1274	350.11	7.5712e-06	3.4211e-06	397.45	134.31	115.73	39.878	4.8172e-06	49.583	0.00049464	0.00052783	0.00014041	1276.1	5.4575e-06	5.8525e-06	1289.5	354.47	5.5527e-06	5.7702e-06	406.28	135.38	117.08	41.074	5.4639e-06	50.465	69.024	-22.753	-43.564	-163.101	-93.681	-45.749	-163.304	-158.515	-121.339	-27.238	-158.727	-154.913	-154.942	-149.324	-45.586	-150.098	-8191	255	
1247.208	1	1	0	0	0.24031	0.023339	0.13539	0.30559	0.092126	0.092712	0.17877	0.14767	0.089542	0.1209	0.12113	0.10885	0.12224	0.29287	0.054312	0.15866	-1.6833	-2.3438	-2.6458	-2.0208	-2.7708	-2.2687	-2.1854	-2.8417	-1.875	-2.4271	-2.8438	-1.8375	-2.7562	-2.4458	-2.1771	-2.9021	154.097	-58.638	98.252	163.649	-167.622	-105.517	-148.290	150.827	-161.716	-135.144	182.135	176.067	-155.635	-167.414	-91.742	-80.340	0.0015185	0.00041466	0.00023883	1264.4	4.9139e-06	5.6402e-07	1272.4	350.23	2.7672e-06	4.4555e-06	400.68	134.06	116.21	39.964	3.713e-06	49.343	0.00052783	0.00052712	0.0001412	1276.4	5.842e-06	5.9044e-06	1289	355.17	6.0408e-06	5.8606e-06	407.37	135.68	118.81	41.175	5.5392e-06	50.775	70.885	164.270	-99.090	-162.574	-143.444	-173.368	-163.031	-158.177	-145.151	-67.410	-158.528	-154.742	-154.936	-149.174	-30.569	-150.317	-8191	255	
1247.305	1	1	0	0	0.26047	0.27816	0.2269	0.25195	0.078203	0.13283	0.1421	0.19823	0.29309	0.099189	0.20374	0.049977	0.2398	0.129	0.27223	0.23499	-1.7229	-2.2583	-2.5062	-2.1188	-2.6896	-2.2521	-2.0687	-2.8417	-2.0833	-2.3187	-2.8708	-2.1063	-2.6104	-2.4875	-2.0417	-2.9417	173.296	93.314	-34.561	148.321	-34.788	-10.607	86.992	130.293	30.853	126.019	105.870	164.047	-75.584	-143.616	-42.918	-104.649	0.0014157	0.0010027	0.00026039	1268.2	6.3438e-06	3.1758e-06	1278.2	351.42	5.9341e-06	4.2304e-06	399.83	134.7	116	39.842	2.0988e-06	49.546	0.00056306	0.00052601	0.00013971	1284	5.9395e-06	5.6757e-06	1290	355.79	5.8995e-06	5.4378e-06	404.22	135.9	117.89	40.857	5.0506e-06	50.625	69.514	-91.198	-136.596	-162.850	-122.031	-26.397	-163.341	-158.462	3.287	15.759	-158.551	-154.786	-154.704	-149.499	-41.515	-150.248	-8191	255	
1247.401	1	1	0	0	0.17168	0.15822	0.21662	0.36588	0.2714	0.047055	0.10397	0.2031	0.097081	0.42863	0.073895	0.35727	0.064045	0.094275	0.114	0.15871	-1.8375	-2.1188	-2.6854	-2.1604	-2.5062	-2.6104	-2.325	-2.7062	-2.2646	-2.1625	-2.6312	-2.1125	-2.5104	-2.4646	-2.0167	-2.8458	92.511	119.327	65.091	167.229	-50.054	146.533	-148.698	126.315	-111.883	-43.399	-153.168	123.047	29.761	114.398	56.674	-66.864	0.0016196	0.00037287	7.6692e-05	1269.5	4.9782e-06	3.5596e-06	1275.2	352.84	5.5136e-06	5.3634e-06	404.04	133.68	116.13	39.888	7.4611e-06	49.625	0.0005311	0.0004892	0.00012844	1285.6	5.6568e-06	5.3717e-06	1286.7	357.31	5.7034e-06	5.3149e-06	405.34	136.32	117.54	40.812	5.0052e-06	51.069	68.915	-92.440	-154.393	-162.944	-7.650	-76.752	-163.080	-158.430	-150.043	-10.210	-158.971	-154.751	-154.650	-149.360	-71.726	-150.048	-8191	255	
1247.521	1	1	0	0	0.072358	0.12533	0.37597	0.31739	0.044106	0.16075	0.39652	0.086735	0.24825	0.18821	0.26017	0.20358	0.17793	0.29988	0.084802	0.29394	-1.95	-2.0563	-2.725	-2.2333	-2.2604	-2.625	-1.9958	-2.7667	-2.1833	-1.9708	-2.7396	-2.1979	-2.3854	-2.9	-2.0146	-2.7438	-39.540	49.244	-60.625	124.791	-114.827	165.939	176.680	-6.058	175.756	91.921	131.159	162.881	163.744	-102.514	-51.850	57.075	0.0015904	0.00064267	0.000146	1275.3	8.374e-06	2.1771e-06	1284.4	353.42	9.9873e-06	8.7402e-06	403.13	134.64	116.89	40.064	3.6109e-06	49.786	0.00052637	0.00048091	0.00012952	1295.4	5.5695e-06	5.2756e-06	1294.7	359.59	5.5688e-06	5.1562e-06	406.88	137.1	117.49	40.807	5.1396e-06	51.313	74.312	-46.911	-162.630	-162.873	-23.729	-41.260	-163.095	-158.349	-93.041	40.356	-158.661	-154.671	-154.328	-149.367	146.009	-150.380	-8191	255	
1247.593	1	1	0	0	0.099474	0.033083	0.11522	0.50664	0.055477	0.2147	0.41352	0.20575	0.22806	0.10678	0.020215	0.11767	0.21419	0.28134	0.054782	0.12941	-1.9833	-1.8792	-2.6917	-2.2208	-2.3167	-2.8521	-1.8937	-2.6813	-2.4479	-1.9083	-2.8583	-2.15	-2.1604	-2.7625	-1.9667	-2.6042	-8.163	140.322	-73.473	156.819	-92.873	-3.714	92.153	176.011	113.245	-10.284	-103.476	-93.935	145.746	139.500	-119.277	-166.855	0.0015637	0.0003046	7.4706e-05	1276.3	6.8848e-06	4.9053e-06	1285.8	354.32	1.7554e-06	3.7173e-06	401.53	135.11	116.58	40.212	4.8631e-06	49.941	0.00051177	0.00046847	0.00013251	1297.1	5.4119e-06	5.1232e-06	1298.2	359.37	5.4127e-06	4.9148e-06	407.29	137.01	116.21	40.645	4.988e-06	50.83	81.145	-110.859	101.098	-162.947	-31.929	-64.368	-163.233	-158.454	79.345	44.003	-159.010	-154.887	-154.660	-149.144	-109.103	-150.220	-8191	255	
1247.689	1	1	0	0	0.29469	0.056225	0.050134	0.38299	0.18976	0.1585	0.19364	0.15686	0.27103	0.30284	0.2339	0.20167	0.15904	0.27227	0.20337	0.1202	-2.1958	-2.0563	-2.7458	-2.2687	-2.1312	-2.8292	-2.0792	-2.5104	-2.5833	-1.8042	-2.7979	-2.4125	-2.0375	-2.7771	-1.875	-2.4979	-53.778	153.184	16.281	160.203	154.871	99.174	93.129	-72.054	102.244	83.784	-131.517	92.853	-54.551	-64.729	57.882	131.564	0.0014702	0.00050368	0.00015188	1291	4.9223e-07	6.0406e-06	1309.4	358.79	5.3325e-06	4.2008e-06	407.76	135.66	118.22	40.576	1.0334e-05	49.896	0.00046201	0.00041962	0.0001291	1305.2	5.0567e-06	4.8702e-06	1320.4	362.56	5.1732e-06	4.8299e-06	412.32	137.66	117.08	41.058	5.5436e-06	51.306	80.048	-21.565	112.979	-162.852	8.388	27.266	-163.040	-157.749	-54.313	-51.239	-158.721	-154.514	-154.486	-148.977	-168.038	-149.772	-8191	255	
1247.810	1	1	0	0	0.10101	0.41103	0.27432	0.1381	0.18821	0.097533	0.39404	0.42817	0.18423	0.10579	0.35402	0.2638	0.11945	0.096058	0.39869	0.23167	-2.2042	-1.9312	-2.7875	-2.3521	-2.0667	-2.8063	-2.3354	-2.2896	-2.5875	-2.0271	-2.725	-2.5917	-1.9521	-2.9333	-2.0104	-2.375	-38.834	-64.593	164.497	172.228	-118.547	-162.517	148.364	147.226	-138.590	-19.949	159.967	141.069	13.536	-62.985	-2.992	182.560	0.001425	0.00038254	0.00018941	1289.1	7.3647e-06	2.6278e-06	1299.4	357.55	4.9937e-06	2.6954e-06	406.63	135.93	117.27	40.369	3.0351e-06	50.12	0.00048947	0.00047035	0.00014921	1313.2	5.649e-06	5.7379e-06	1329.5	367.12	6.8275e-06	6.7822e-06	426.46	141.29	122.76	42.332	7.9289e-06	52.902	79.470	-142.289	-117.011	-162.646	-48.289	-96.467	-162.528	-157.868	-80.717	-115.662	-158.306	-154.473	-154.348	-149.223	2.070	-149.724	-8191	255	
1247.904	1	1	0	0	0.11077	0.28904	0.1003	0.10168	0.24285	0.14536	0.26723	0.06986	0.15365	0.11331	0.027695	0.11806	0.10443	0.069587	0.26098	0.11125	-2.4479	-1.8604	-2.5917	-2.4771	-1.9583	-2.8021	-2.1688	-2.2729	-2.7833	-1.9292	-2.5083	-2.5333	-1.8292	-2.8063	-2.1625	-2.2083	183.554	-46.321	-44.803	125.511	-27.701	18.325	109.572	48.208	158.553	115.818	-47.073	-90.246	159.898	118.875	74.823	77.460	0.0011881	0.00067788	0.00022952	1293.5	1.1025e-06	1.307e-06	1301.3	357.61	1.0795e-05	1.0612e-05	405.68	135.51	117.32	40.55	1.7098e-06	50.281	0.00064627	0.00065578	0.00019697	1329.1	6.7613e-06	7.3287e-06	1341.9	368.64	6.9602e-06	7.4151e-06	426.78	141.2	122.73	42.682	7.7386e-06	52.694	62.314	159.354	-24.457	-162.392	-34.426	-151.167	-162.949	-157.852	-138.314	-63.345	-158.115	-154.448	-154.110	-148.590	-10.439	-149.504	-8191	255	
1248.002	1	1	0	0	0.15716	0.15978	0.25104	0.30725	0.20769	0.075524	0.24798	0.27302	0.17895	0.14379	0.090879	0.13878	0.052792	0.10158	0.2071	0.1972	-2.2188	-1.8708	-2.4583	-2.5875	-1.8604	-2.8083	-2.4625	-2.2375	-2.8729	-2.1333	-2.5479	-2.7875	-1.9396	-2.7687	-2.2979	-2.1979	118.778	-77.787	101.894	-168.262	42.886	-122.977	133.686	53.225	25.302	14.534	-22.751	136.067	-57.637	-124.242	-159.205	-76.462	0.0018868	0.00061168	8.2604e-05	1298.6	2.2486e-06	6.8955e-06	1300.4	357.72	1.4296e-05	3.6084e-06	406.95	136.21	116.95	40.591	1.5198e-06	50.117	0.00062222	0.0006696	0.00018475	1329.3	6.4012e-06	7.2073e-06	1334.6	366.3	6.4862e-06	7.2095e-06	422.21	140.69	121.55	42.51	7.1285e-06	52.377	85.309	151.846	-126.931	-162.207	183.546	-70.054	-162.435	-157.632	-93.187	-126.322	-158.067	-154.333	-154.268	-148.478	-3.052	-149.549	-8191	255	
1248.121	1	1	0	0	0.052571	0.054833	0.18623	0.3178	0.077416	0.088555	0.13415	0.082278	0.30013	0.15016	0.095802	0.1473	0.1508	0.090178	0.24426	0.064505	-2.5062	-2.1396	-2.2229	-2.8458	-1.8854	-2.6125	-2.5729	-2	-2.8979	-2.1854	-2.2604	-2.8417	-1.8625	-2.6833	-2.2458	-2.0625	-21.757	57.849	152.175	74.341	157.374	-131.880	42.925	168.986	64.955	-149.809	-159.377	-71.991	117.233	120.448	143.695	-169.091	0.0015722	0.00059443	7.6016e-05	1297.6	6.7142e-06	4.9e-06	1304.8	359.64	6.7112e-06	6.6894e-06	410.92	136.25	118.12	40.64	2.8436e-06	50.343	0.00060781	0.00067726	0.00017605	1327.8	6.5196e-06	7.3276e-06	1338	366.96	6.7531e-06	7.4163e-06	423.21	140.42	123.27	42.708	6.9175e-06	52.392	59.075	-48.628	-23.709	-162.385	145.452	-9.446	-163.009	-157.867	137.037	15.867	-158.431	-153.774	-154.095	-148.394	-62.961	-149.503	-8191	255	
1248.217	1	1	0	0	0.14921	0.041178	0.17354	0.34602	0.19744	0.21002	0.16249	0.28927	0.09492	0.22048	0.098772	0.10989	0.19903	0.17254	0.066655	0.052571	-2.4479	-2.0667	-2.0667	-2.8333	-1.8792	-2.5521	-2.8083	-2.1	-2.9708	-2.2896	-2.2833	-2.8729	-2.1042	-2.5458	-2.7062	-2.2333	-119.254	128.834	-42.527	157.312	-58.116	84.396	27.838	113.552	161.048	-35.546	3.568	166.732	-52.731	93.925	-159.025	-104.949	0.0013882	0.00061743	0.00024909	1303.8	7.9021e-06	7.3348e-06	1312.7	361.13	9.7776e-06	9.1424e-06	407.44	136.77	119.06	40.602	1.094e-06	50.709	0.00063397	0.00066789	0.00016948	1331.4	6.8428e-06	7.1151e-06	1342.4	367.11	6.993e-06	7.1755e-06	421.43	140.47	124.73	42.575	6.7894e-06	52.492	75.576	25.304	-171.490	-161.960	-118.631	-14.421	-162.534	-157.345	-170.378	-42.275	-156.940	-153.236	-153.296	-147.861	-154.256	-149.108	-8191	255	
1248.289	1	1	0	0	0.095736	0.19223	0.19326	0.34743	0.10527	0.20857	0.29201	0.35439	0.10357	0.078335	0.32937	0.17504	0.083153	0.09689	0.080661	0.24885	-2.5083	-2.4062	-2.1542	-3.1	-2.0021	-2.2979	-2.8896	-2.0521	-2.8583	-2.5583	-2.3021	-3.05	-2.0521	-2.4292	-2.6813	-1.925	106.706	111.650	130.561	137.542	45.705	-132.546	-165.893	149.016	-153.959	55.519	62.268	50.951	50.482	11.596	-10.836	-69.824	0.0017529	0.00064997	0.00035177	1311.6	2.1315e-06	5.4709e-06	1314.7	361.83	6.1985e-06	5.9163e-06	408.14	137.75	119.24	40.883	5.3123e-06	50.519	0.00066038	0.00065624	0.00016623	1336.4	7.2385e-06	6.9481e-06	1345	368.72	7.2362e-06	7.0342e-06	421.42	141.14	125.83	42.598	6.5037e-06	52.543	71.685	-82.795	-41.795	-161.933	-145.992	-103.816	-161.888	-157.077	-132.109	-60.482	-157.412	-153.505	-154.300	-148.773	-45.294	-149.307	-8191	255	
1248.409	1	1	0	0	0.06637	0.038074	0.21118	0.38496	0.072623	0.051914	0.23679	0.51087	0.11688	0.1629	0.48263	0.17955	0.13998	0.29023	0.15284	0.1549	-2.3958	-2.5833	-2.1208	-2.9271	-2.1688	-2.3708	-2.9729	-2.0729	-2.5604	-2.75	-2.0771	-2.8854	-2.0854	-2.2438	-2.9083	-1.9146	127.607	-44.771	-162.908	113.589	-26.822	158.717	125.648	113.474	32.856	59.792	-100.215	154.814	-118.197	-129.253	131.974	85.541	0.0018185	0.0005525	3.3201e-05	1313.6	1.799e-06	7.1062e-06	1322.8	361.58	3.2858e-06	6.2587e-06	410.88	137.03	119.65	41.047	9.959e-06	50.755	0.00066269	0.00062326	0.0001579	1341.2	7.1535e-06	6.5419e-06	1344.2	370.06	6.9993e-06	6.5673e-06	418.66	141.26	124.5	42.357	5.9523e-06	52.735	80.988	-29.109	116.790	-162.475	-128.076	9.748	-162.823	-157.834	111.475	-116.742	-158.120	-154.600	-154.577	-148.779	-42.124	-149.987	-8191	255	
1248.506	1	1	0	0	0.12195	0.13595	0.087525	0.25873	0.18106	0.14724	0.32374	0.092004	0.112	0.19932	0.14914	0.38021	0.1281	0.13026	0.1605	0.15557	-2.2938	-2.8333	-1.7208	-2.8646	-2.1917	-2.1917	-3.0333	-2.0792	-2.5625	-2.7771	-1.9833	-2.8937	-2.3021	-2.2083	-2.8896	-2.0958	-75.263	167.981	5.669	148.464	162.387	76.540	136.923	-121.964	-60.566	-146.605	83.520	91.283	-18.808	-18.218	166.045	-36.354	0.0013186	0.00034561	0.00027566	1316.8	5.5319e-06	4.2202e-06	1318.8	361.27	5.1992e-06	9.832e-06	411.71	137.9	120.18	41.159	4.8398e-06	50.85	0.00061274	0.00057021	0.00014418	1340.7	6.6032e-06	6.0043e-06	1339.2	369.92	6.4064e-06	6.1046e-06	417.01	141.56	123.29	42.169	5.7765e-06	52.915	70.195	-1.697	-85.838	-162.341	-88.608	-39.374	-162.585	-157.679	-90.264	-39.515	-158.086	-154.132	-153.959	-148.619	-122.944	-149.897	-8191	255	
1248.602	1	1	0	0	0.056436	0.051181	0.12505	0.23355	0.26935	0.16429	0.32564	0.12619	0.17448	0.090829	0.12529	0.21671	0.24143	0.46702	0.023057	0.10662	-2.2104	-2.8521	-2.0979	-2.7625	-2.3646	-2.0604	-2.9854	-2.0833	-2.5187	-2.6854	-2.0104	-2.75	-2.4667	-1.7396	-3.1083	-2.2313	77.140	-144.873	-112.673	141.185	-44.550	-115.295	72.156	-169.376	-153.922	3.849	110.483	-41.823	-174.818	-172.284	-159.309	-89.128	0.0018127	0.00083919	6.7667e-05	1315.2	7.8027e-07	3.37e-06	1319.9	361.77	7.9678e-06	5.4826e-06	409.4	138.12	120.27	41.093	4.3552e-06	50.734	0.00057572	0.00054386	0.00014178	1341.2	5.9644e-06	5.2635e-06	1333	366.83	5.0335e-06	4.7451e-06	410.44	139.1	118.08	41.334	4.6719e-06	51.674	71.833	-122.210	173.879	-162.349	-126.678	59.653	-162.666	-157.640	-82.768	-57.189	-158.094	-154.272	-153.737	-148.114	180.408	-149.558	-8191	255	
1248.698	1	1	0	0	0.39308	0.16329	0.40341	0.35245	0.19092	0.16583	0.025444	0.042867	0.17086	0.29335	0.1826	0.24648	0.089859	0.18144	0.18602	0.093392	-1.8625	-2.7625	-1.975	-2.6604	-2.6146	-2.0312	-2.9167	-2.3563	-2.1188	-2.8375	-2.0604	-2.4562	-2.7271	-1.8542	-2.875	-2.4542	138.516	-17.537	-44.473	120.764	98.767	87.023	76.573	73.990	3.681	-65.280	-59.747	-175.886	-91.463	146.775	63.641	-80.423	0.0014172	0.0006956	0.00012019	1315.9	3.8651e-06	1.4703e-06	1324.8	362.79	5.5145e-06	9.3554e-07	410.51	137.98	119.7	40.991	2.4526e-06	50.84	0.00044481	0.00041603	0.00011902	1329.3	4.8388e-06	4.4464e-06	1331.4	364.93	4.7737e-06	4.5212e-06	411.79	138.98	117.66	41.224	4.9365e-06	51.585	70.466	-93.819	131.898	-162.265	-67.322	-63.468	-162.738	-157.966	-75.181	58.910	-158.385	-154.466	-154.679	-149.245	-38.348	-150.097	-8191	255	
1248.818	1	1	0	0	0.23277	0.040178	0.069778	0.23776	0.19334	0.18485	0.36202	0.2196	0.30083	0.33095	0.33252	0.056341	0.28859	0.087416	0.067797	0.075837	-1.7417	-2.8479	-1.8563	-2.6229	-2.5	-1.9604	-2.9208	-2.3958	-2.025	-2.6792	-2.0583	-2.5208	-2.7646	-2.0083	-2.8167	-2.625	-48.345	176.249	-143.427	133.307	-80.761	151.562	16.628	150.161	-131.325	-75.558	-158.922	35.616	-155.960	-173.566	94.156	51.762	0.0014672	0.00037165	3.3089e-05	1315.4	1.0813e-05	2.6078e-06	1323.8	362.94	4.7738e-06	7.1485e-06	410.89	137.9	119.37	41.197	5.6057e-06	50.723	0.00043795	0.00040955	0.00012577	1327.4	4.7195e-06	4.3759e-06	1330.5	364.42	4.5486e-06	4.4276e-06	412.9	138.37	116.94	41.303	4.9114e-06	51.369	70.721	-4.722	-117.966	-162.676	-52.112	-155.608	-163.208	-158.656	-24.084	-129.037	-158.512	-154.459	-154.360	-149.533	-86.963	-149.894	-8191	255	
1248.890	1	1	0	0	0.089232	0.073481	0.28004	0.27456	0.095341	0.21819	0.088991	0.1564	0.21484	0.30264	0.28195	0.084437	0.13942	0.18214	0.14085	0.25634	-1.4458	-2.8688	-2.0104	-2.5312	-2.775	-1.8646	-2.8688	-2.5792	-1.9333	-2.775	-2.3187	-2.4458	-2.6708	-1.9396	-2.3979	-2.5479	142.506	159.423	22.874	-174.660	-50.084	136.533	-169.074	135.162	110.692	-151.881	112.160	-109.575	83.652	-124.897	-120.726	150.984	0.0014969	0.00026846	7.0494e-05	1313.2	1.7421e-06	2.8142e-06	1321.9	360.85	3.7852e-06	4.353e-06	409.74	137.36	118.95	41.022	1.4441e-06	50.396	0.0004074	0.00039523	0.00012244	1323.2	4.358e-06	4.2585e-06	1328.4	362.14	4.2527e-06	4.4216e-06	411.23	137.33	115.64	41.253	4.8156e-06	51.072	75.200	-64.132	-119.537	-162.761	-89.289	-171.205	-162.813	-158.434	-52.089	-60.281	-158.636	-154.367	-154.568	-149.667	-91.375	-150.415	-8191	255	
1248.986	1	1	0	0	0.18343	0.17805	0.063486	0.32491	0.13164	0.11437	0.09853	0.10369	0.19901	0.15095	0.11598	0.16377	0.27639	0.18627	0.052566	0.043507	-1.5562	-2.8312	-2.2958	-2.3021	-2.7625	-2.1604	-2.6688	-2.6771	-1.9604	-2.7333	-2.4125	-2.1146	-2.7667	-1.9458	-2.5208	-2.6167	87.681	-170.023	30.442	-167.056	27.803	-83.645	62.504	-106.623	-171.092	89.968	-134.315	96.526	131.382	89.242	5.279	94.690	0.001429	0.00022157	0.00032797	1312.5	3.4561e-06	2.6838e-06	1315.8	360.6	9.592e-06	7.6911e-06	408.53	136.73	118.57	40.885	4.6392e-06	50.431	0.00039415	0.0004173	0.00012297	1320.4	4.3293e-06	4.652e-06	1324.3	361.13	4.292e-06	4.7103e-06	410.24	137.04	115.57	41.345	4.87e-06	51.012	73.911	-167.294	-129.423	-162.775	21.878	-145.285	-163.072	-158.543	-126.656	-121.429	-158.720	-154.646	-154.973	-149.984	-6.956	-150.931	-8191	255	
1249.082	1	1	0	0	0.3144	0.145	0.18452	0.19117	0.27332	0.1793	0.30723	0.21467	0.13858	0.1859	0.039888	0.21163	0.32164	0.12622	0.0097788	0.19131	-1.5042	-2.7458	-2.1104	-2.4583	-2.6771	-2.0479	-2.5792	-2.7979	-1.9937	-2.7313	-2.5604	-2.025	-2.7167	-2.2438	-2.3563	-2.775	-130.254	94.104	-88.647	-166.415	-49.318	152.804	112.306	139.130	-102.078	173.586	170.127	105.685	-105.961	-143.708	-96.730	159.421	0.0014494	0.0002715	0.00019755	1305.5	5.5225e-06	4.4689e-06	1311.7	358.19	6.8318e-06	4.0442e-06	408.22	136.32	118.48	40.535	3.5849e-06	50.539	0.000409	0.00045106	0.00012533	1315.6	4.5159e-06	5.0346e-06	1319.8	359.95	4.4981e-06	4.9735e-06	407.91	136.61	115.59	41.205	4.6422e-06	50.646	69.401	-96.228	-84.627	-163.211	-28.199	-120.960	-163.496	-159.194	-93.702	-76.636	-159.266	-155.441	-155.477	-149.551	-88.449	-150.661	-8191	255	
1249.201	1	1	0	0	0.2573	0.20101	0.43264	0.2305	0.37467	0.19765	0.25713	0.21056	0.19027	0.04283	0.12189	0.11973	0.17385	0.3001	0.34865	0.31334	-1.2979	-2.6	-2.4625	-2.2438	-2.7167	-2.0708	-2.6292	-2.6813	-1.9854	-2.4646	-2.7521	-2.0792	-2.7833	-2.4208	-2.275	-2.6125	-151.586	-108.243	81.913	104.228	-25.126	-34.781	133.147	155.871	-110.009	18.074	-164.944	161.885	-20.222	-154.828	-10.290	96.486	0.0018211	0.00014939	0.00024383	1301.6	1.0692e-06	1.8327e-06	1303.3	356.96	6.2502e-06	5.1713e-06	403.53	135.45	117.34	40.344	3.3606e-06	49.869	0.0004102	0.00044274	0.00011737	1304.3	4.4538e-06	4.8161e-06	1308.1	357	4.4666e-06	4.7038e-06	403.96	135.34	115.07	40.891	4.4648e-06	50.245	72.140	-139.697	-73.533	-163.413	-67.414	-51.810	-163.791	-159.146	-25.665	-159.059	-159.249	-154.902	-154.846	-149.527	-59.406	-150.513	-8191	255	
1249.297	1	1	0	0	0.075692	0.11576	0.026672	0.25429	0.10872	0.11031	0.1221	0.36372	0.060822	0.35316	0.13809	0.12743	0.068105	0.19731	0.25517	0.29382	-1.6896	-2.4875	-2.5333	-2.2146	-2.7208	-2.3583	-2.2333	-3.0208	-1.7271	-2.6063	-2.6583	-1.8146	-3.0083	-2.3104	-2.075	-3.0062	-22.549	175.962	-0.669	133.633	-18.425	63.804	-54.675	92.870	-128.305	-12.994	99.658	154.013	68.699	109.205	124.068	135.900	0.0015483	0.00037515	0.00021764	1287.3	9.9799e-06	3.5385e-06	1294	355.23	5.5839e-06	5.1072e-06	400.05	135.45	117.53	40.247	6.5307e-06	49.757	0.00042787	0.00042987	0.00011428	1292.8	4.6318e-06	4.6949e-06	1298.2	355.46	4.6328e-06	4.5618e-06	400.92	134.62	114.82	40.617	4.2487e-06	49.894	68.155	-48.682	-106.311	-162.884	-120.307	40.989	-163.148	-158.285	176.400	-30.964	-158.664	-154.852	-154.611	-149.229	-56.552	-150.274	-8191	255	
1249.394	1	1	0	0	0.14119	0.17124	0.16506	0.17205	0.043377	0.29427	0.15992	0.35739	0.15351	0.083642	0.16557	0.14694	0.25614	0.17881	0.17153	0.21233	-1.7292	-2.2333	-2.925	-2.1833	-2.8167	-2.3458	-2.1188	-2.9479	-1.9708	-2.3146	-2.825	-2.0542	-2.6125	-2.5167	-1.9604	-2.825	-67.164	156.782	11.122	179.879	-147.334	-62.265	145.503	157.481	26.167	127.498	155.162	143.255	-126.955	150.875	13.358	168.053	0.0016131	0.00078704	0.00016982	1279.2	3.2865e-06	6.5943e-06	1282.4	353.75	3.7474e-06	6.6668e-06	401.38	134.89	116.84	39.983	3.6494e-06	49.653	0.00042626	0.00040269	0.00010687	1280.6	4.5417e-06	4.3982e-06	1286.3	353.19	4.5889e-06	4.2983e-06	397.94	134.21	114.34	40.325	4.0697e-06	49.895	78.447	-29.933	156.335	-162.820	-174.148	-0.350	-163.738	-159.071	-139.068	6.143	-159.121	-155.339	-154.993	-149.868	0.662	-150.625	-8191	255	
1249.490	1	1	0	0	0.23782	0.14789	0.12195	0.20386	0.082566	0.12653	0.24228	0.32257	0.16986	0.061939	0.27617	0.037684	0.097217	0.28539	0.30791	0.10808	-1.6958	-2.1521	-2.675	-1.9854	-2.5	-2.5208	-2.0354	-2.9375	-2.1125	-2.1708	-2.9562	-2.0875	-2.4875	-2.7062	-1.8479	-2.9	25.492	159.378	-32.149	173.604	28.968	-4.267	101.381	-176.213	-56.772	-139.671	-134.007	-53.873	127.568	141.540	-140.535	95.940	0.0012247	0.00028104	0.00016364	1270.9	8.9912e-07	5.1096e-06	1275.3	351.34	5.9802e-06	2.148e-06	396.87	134.19	116.4	39.884	6.0907e-06	49.756	0.00042931	0.00039492	0.00010402	1275.5	4.6389e-06	4.4265e-06	1278.8	353.29	4.681e-06	4.3486e-06	397.48	134.49	114.17	40.236	4.1324e-06	50.129	70.653	-123.746	-62.100	-163.442	-135.609	-20.234	-163.719	-158.824	-41.218	-68.080	-158.998	-155.120	-154.901	-149.750	-52.213	-150.669	-8191	255	
1249.586	1	1	0	0	0.2183	0.30965	0.18221	0.28158	0.25498	0.076456	0.30915	0.24531	0.21885	0.13178	0.14877	0.14793	0.033735	0.19014	0.083773	0.37032	-1.9771	-2.0271	-2.6979	-2.0438	-2.6896	-2.6688	-2.0187	-2.7708	-2.425	-2.0896	-2.8333	-2.1937	-2.3604	-2.8396	-1.7604	-2.7687	-150.506	-64.978	104.931	89.689	-39.710	2.413	109.683	138.153	163.376	158.306	-110.663	21.052	-124.030	36.611	178.347	158.515	0.0014752	0.00017492	0.00011927	1269.4	7.727e-06	5.2067e-06	1277.8	350.83	3.4297e-06	4.9526e-06	400.68	133.79	116	39.629	1.5044e-06	49.201	0.00043647	0.00040239	0.00010626	1281.3	4.6564e-06	4.4856e-06	1280.8	353.57	4.8018e-06	4.4256e-06	398.81	135.06	114.69	40.228	4.4384e-06	50.362	79.022	-117.512	-37.896	-163.307	-35.504	-52.420	-163.250	-158.319	10.255	-13.673	-158.729	-154.974	-154.854	-149.472	15.628	-150.270	-8191	255	
1249.682	1	1	0	0	0.29945	0.061128	0.028826	0.089853	0.075256	0.17363	0.13761	0.12779	0.033939	0.27906	0.24954	0.18774	0.11788	0.27004	0.03716	0.0070333	-1.875	-2.1354	-2.9188	-2.2333	-2.2812	-2.7521	-2.2479	-2.8583	-2.6854	-1.9042	-2.9167	-2.125	-2.2313	-2.8875	-1.8708	-2.6958	-167.184	38.426	67.712	34.192	71.578	-65.799	-164.903	-59.292	140.329	163.984	148.158	-112.907	-67.370	148.497	29.140	-135.854	0.00099872	0.00053936	0.00019724	1266.7	5.5442e-06	5.5857e-06	1274.4	350.7	9.0473e-06	4.8911e-06	397.23	134.26	116	39.876	3.6993e-06	49.457	0.00045549	0.0004178	0.00011681	1279.2	4.8477e-06	4.6174e-06	1281.5	354.34	4.8577e-06	4.488e-06	399.34	135.2	114.4	40.171	4.6677e-06	50.382	75.730	-64.272	-123.418	-162.979	-107.923	-46.588	-163.077	-158.210	-89.895	-38.841	-158.660	-154.714	-154.365	-149.125	-114.221	-150.429	-8191	255	
1249.803	1	1	0	0	0.16079	0.21969	0.1361	0.40438	0.16522	0.080988	0.12125	0.14061	0.056717	0.078285	0.094356	0.28146	0.12947	0.17671	0.02839	0.10305	-1.9937	-1.9104	-2.7542	-2.3521	-2.0354	-2.8333	-2.0083	-2.4583	-2.6813	-1.9729	-2.8292	-2.3833	-1.9979	-2.7833	-2.0271	-2.5021	-25.189	-95.733	102.333	135.347	168.711	168.273	49.495	165.405	164.765	-112.902	179.983	135.669	-93.893	45.009	-96.067	102.655	0.00158	0.00013026	0.00014493	1262.1	4.3203e-06	7.0145e-06	1271.7	350.44	1.6178e-06	4.4205e-06	397.1	133.16	116	39.845	2.5293e-06	49.187	0.00043781	0.00039704	0.00011816	1276.2	4.6248e-06	4.3688e-06	1280.3	352.99	4.6957e-06	4.2972e-06	399.35	134.38	113.88	40.105	4.8892e-06	50.101	82.506	-111.599	124.549	-162.839	-3.020	-34.962	-163.453	-158.738	-11.605	-8.899	-158.753	-154.544	-154.260	-148.963	-99.812	-150.083	-8191	255	
1249.899	1	1	0	0	0.22903	0.18386	0.1378	0.16485	0.14938	0.19714	0.4512	0.14922	0.096943	0.11665	0.15554	0.086872	0.24283	0.082439	0.18613	0.26311	-2.0979	-1.9146	-2.7375	-2.45	-1.9979	-2.7042	-2.1562	-2.4333	-2.5187	-1.8333	-2.7438	-2.3563	-1.9604	-2.775	-2.2021	-2.4458	-105.691	-101.016	-60.745	-111.348	-36.995	141.950	138.571	112.047	146.588	-48.177	138.988	92.214	155.741	161.625	-168.444	124.090	0.0018312	5.3541e-05	5.0204e-05	1254.4	8.9716e-06	3.0998e-06	1264.3	347.27	9.488e-06	1.3629e-06	396.88	133.42	115.68	39.6	4.8725e-06	49.233	0.00043232	0.0003997	0.00012475	1266.6	4.5895e-06	4.4627e-06	1275.7	351.33	4.6175e-06	4.4467e-06	400.41	134.18	113.28	40.077	5.0919e-06	49.946	74.608	8.627	16.397	-163.057	-107.184	-25.122	-163.012	-158.464	-87.199	-82.052	-158.781	-154.406	-154.469	-149.205	11.131	-149.713	-8191	255	
1249.993	1	1	0	0	0.04865	0.12495	0.23041	0.2478	0.1403	0.097642	0.204	0.14933	0.12256	0.15648	0.062758	0.24543	0.29503	0.25857	0.081103	0.18132	-2.2188	-1.95	-2.6833	-2.4958	-2.0167	-2.7667	-2.3063	-2.2833	-2.8771	-1.9792	-2.7625	-2.7313	-1.9354	-3.0333	-2.2583	-2.1583	-122.241	-80.448	114.711	146.805	148.630	177.730	126.024	130.818	55.721	61.269	-140.002	169.111	-162.488	-88.640	-85.569	153.845	0.0014443	0.00071303	0.00013459	1255.3	2.3934e-06	3.4913e-06	1260	350.35	6.7606e-06	1.7852e-06	396.29	132.96	116.05	39.571	5.6388e-07	49.333	0.00042813	0.00042323	0.00012778	1267.3	4.5361e-06	4.7063e-06	1276.6	352.02	4.5709e-06	4.7634e-06	400.64	134.15	113.15	40.255	5.0801e-06	50.003	85.687	-137.715	-151.002	-162.809	-18.837	-127.223	-163.097	-157.929	-9.557	95.863	-158.574	-154.688	-154.877	-149.273	88.808	-150.164	-8191	255	
1250.089	1	1	0	0	0.35092	0.19936	0.14904	0.062	0.31421	0.020098	0.090996	0.14171	0.057466	0.11235	0.19931	0.19206	0.21138	0.067724	0.19101	0.26032	-2.4208	-1.8667	-2.5521	-2.7792	-1.7625	-2.8625	-2.3729	-2.2479	-2.7292	-1.9125	-2.525	-2.7479	-1.8062	-2.8563	-2.3458	-2.0812	149.077	179.763	-117.625	119.519	-60.197	-1.157	66.327	87.557	-13.058	95.445	113.088	68.618	-168.949	113.883	109.119	68.462	0.0011476	0.0007209	0.00017239	1254.4	2.6623e-06	1.7198e-06	1262.3	349.1	6.281e-06	2.1183e-06	397.82	132.8	115.34	39.703	3.9591e-06	49.243	0.00042038	0.00044808	0.00012739	1266.5	4.4687e-06	4.9535e-06	1278.2	351.84	4.5485e-06	5.0451e-06	399.94	133.81	112.99	40.415	5.012e-06	49.972	72.306	-135.875	-55.985	-163.409	-11.209	-120.046	-163.401	-158.796	-58.365	180.816	-158.969	-154.800	-154.903	-149.312	-40.852	-150.326	-8191	255	
1250.186	1	1	0	0	0.25141	0.15681	0.33473	0.21024	0.14292	0.14515	0.13432	0.17178	0.19408	0.11298	0.19014	0.071756	0.14525	0.22501	0.016206	0.23392	-2.4562	-2.0729	-2.1896	-2.8479	-1.9312	-2.8917	-2.4854	-2.1167	-2.6937	-1.9688	-2.3125	-2.7958	-1.9625	-2.6604	-2.2604	-2.0187	-24.111	94.861	-74.545	115.763	31.534	13.644	81.908	96.273	158.472	86.540	-135.392	-27.018	31.818	169.765	5.354	118.283	0.0014149	0.0003901	9.8012e-05	1255.7	3.2839e-06	1.6011e-06	1263.2	348.09	3.6261e-06	7.8702e-06	396.58	133.17	115.15	39.614	3.2739e-06	49.571	0.0004256	0.00046295	0.00012367	1265.6	4.5119e-06	5.0391e-06	1274.7	350.62	4.5459e-06	5.063e-06	398.66	133.69	113.57	40.355	4.837e-06	49.823	76.237	-166.765	-16.114	-163.038	99.674	-104.356	-163.543	-158.715	-88.363	-105.162	-158.707	-154.729	-154.880	-149.401	-4.734	-150.385	-8191	255	
1250.282	1	1	0	0	0.21314	0.1979	0.31079	0.34148	0.24454	0.18135	0.10845	0.34109	0.30682	0.1588	0.11873	0.07043	0.088586	0.22239	0.46102	0.20006	-2.3625	-2.0208	-2.2146	-2.8063	-1.9354	-2.5438	-2.7271	-2.0187	-2.6896	-2.1688	-2.1937	-2.875	-2.0208	-2.8333	-2.4771	-1.9	-117.949	62.367	-152.333	113.594	-68.515	56.825	91.387	87.652	-155.068	39.498	-78.018	65.825	-172.589	100.659	136.251	180.995	0.0016208	0.00090326	0.00018502	1257	3.5533e-06	7.2065e-06	1264.9	349.15	3.6442e-06	6.4698e-06	397.48	133.41	115.68	39.665	2.3082e-06	49.4	0.00043569	0.0004651	0.00012061	1264.1	4.788e-06	5.0198e-06	1275.3	350.37	4.8899e-06	5.0649e-06	398.9	133.61	114.51	40.336	4.8049e-06	49.768	68.250	-38.361	-135.636	-162.925	8.690	-48.289	-163.361	-158.522	124.941	-49.339	-158.818	-155.087	-155.338	-149.251	-39.662	-150.309	-8191	255	
1250.378	1	1	0	0	0.1318	0.16499	0.10101	0.45741	0.11715	0.16189	0.34073	0.17809	0.15401	0.25839	0.28195	0.28513	0.23205	0.14903	0.15849	0.039	-2.4562	-2.1125	-2.0375	-3.0083	-1.9521	-2.3542	-2.8458	-1.9542	-2.7208	-2.4292	-2.1688	-2.9083	-2.0771	-2.4646	-2.7146	-1.8208	-110.105	-120.795	14.587	145.366	-174.760	-1.013	98.284	174.918	-95.759	98.234	71.937	156.693	-16.218	156.254	103.935	111.451	0.0017608	0.0006938	3.8381e-05	1259.6	9.168e-06	2.0024e-06	1264.6	349.17	9.3473e-06	1.2502e-06	397.22	133.06	115.25	39.852	5.4094e-06	49.367	0.00045981	0.00045984	0.00011948	1268.4	5.0382e-06	4.9577e-06	1276.4	350.74	5.0819e-06	5.019e-06	398.41	133.7	115.34	40.37	4.7365e-06	49.898	59.997	-71.053	170.626	-162.975	-64.273	-52.300	-163.488	-158.439	-99.440	-103.682	-158.918	-154.861	-154.884	-149.467	-78.373	-150.015	-8191	255	
1250.498	1	1	0	0	0.037382	0.31409	0.32442	0.18111	0.15377	0.44937	0.31757	0.31441	0.16174	0.16599	0.13869	0.11937	0.20779	0.37068	0.052714	0.21229	-2.4062	-2.2146	-1.8417	-3.1042	-2.1583	-2.4562	-2.8479	-1.8542	-2.7104	-2.5167	-1.9521	-2.7542	-2.2125	-2.2333	-2.7417	-2.2521	92.461	119.514	63.936	78.792	6.214	-68.009	103.203	115.727	112.105	7.241	41.163	-175.569	81.742	131.151	-21.656	134.563	0.0015383	0.00064831	0.00020557	1257.1	7.209e-07	6.2942e-06	1264.8	350.1	1.0207e-05	3.8904e-06	396.78	133.13	114.78	39.665	3.0759e-06	49.206	0.00047769	0.00045584	0.00011764	1269.3	5.1907e-06	4.8542e-06	1276.2	351.2	5.1494e-06	4.902e-06	397.61	134.04	115.28	40.17	4.6177e-06	49.977	72.416	-67.514	-83.664	-163.135	-96.505	89.630	-163.355	-158.328	-93.422	-79.545	-159.000	-154.906	-155.288	-149.265	-95.201	-150.904	-8191	255	
1250.595	1	1	0	0	0.087981	0.17638	0.30083	0.048024	0.15837	0.29511	0.067704	0.16024	0.19058	0.039117	0.28333	0.18447	0.058712	0.13716	0.19332	0.064185	-2.1521	-2.7625	-1.8813	-2.9625	-2.2583	-2.1646	-3.0479	-2.0771	-2.5833	-2.6271	-1.9354	-2.8271	-2.2083	-2.2646	-2.5938	-2.1	25.953	35.752	-56.515	88.414	-43.915	-3.624	174.178	-176.304	-90.272	30.478	146.586	-42.536	-167.201	108.216	-94.420	109.025	0.0012448	0.00022535	1.984e-05	1255.9	1.1767e-06	5.8347e-06	1266	348.73	6.511e-06	8.4752e-06	396.62	133.21	115.51	39.672	5.6033e-06	49.273	0.00047108	0.00044142	0.00011311	1270	5.0454e-06	4.7081e-06	1273.3	351.36	4.9986e-06	4.7295e-06	396.05	134.25	114.5	40.178	4.4135e-06	50.03	74.888	-69.676	-70.483	-162.856	174.065	-42.766	-163.112	-158.338	-90.871	-33.022	-158.875	-154.651	-154.882	-149.302	-91.148	-150.504	-8191	255	
1250.691	1	1	0	0	0.28645	0.19928	0.30161	0.20874	0.072377	0.083203	0.13372	0.1728	0.31583	0.10255	0.078454	0.11883	0.19689	0.059481	0.065178	0.2655	-2.1708	-2.6688	-1.9354	-2.7625	-2.4417	-2.05	-2.8896	-2.3854	-2.3729	-2.6813	-2.0333	-2.7417	-2.2938	-2.0042	-2.9062	-2.1188	137.484	-85.997	49.648	-141.523	-119.662	-4.680	154.110	163.869	129.930	-36.714	37.529	87.760	79.288	-108.591	70.283	163.780	0.0015373	0.00034643	0.00010658	1256.9	7.4084e-06	7.2211e-06	1262	347.83	5.407e-06	3.9157e-06	395.48	133.51	115.18	39.656	5.8236e-06	49.175	0.00045078	0.00042395	0.00011101	1269.2	4.899e-06	4.5506e-06	1269.8	351.89	4.784e-06	4.5448e-06	396.63	134.52	114.07	40.032	4.4783e-06	50.148	72.848	-145.413	76.200	-163.170	-134.620	-30.212	-163.260	-158.570	-46.708	-49.843	-158.600	-154.890	-154.650	-149.277	-42.353	-150.680	-8191	255	
1250.762	1	1	0	0	0.25169	0.18525	0.11766	0.13305	0.23359	0.098341	0.091515	0.19855	0.077484	0.2253	0.29209	0.24055	0.20191	0.082242	0.099467	0.19198	-1.8896	-2.5583	-2.0417	-2.6562	-2.4375	-1.9417	-2.9313	-2.2729	-2.0896	-2.85	-2.1875	-2.5729	-2.6437	-1.9333	-2.8583	-2.2271	-172.018	-39.214	-81.507	162.912	111.533	-31.385	51.851	136.025	67.469	-93.776	115.354	148.195	-146.021	70.012	127.468	151.207	0.0015303	0.0005823	8.6476e-05	1259.4	5.2986e-06	6.1942e-06	1265.3	348.77	4.4764e-06	7.355e-06	396.33	133.67	115.14	39.822	1.0083e-06	49.351	0.00043595	0.00040619	0.000114	1269.7	4.7196e-06	4.3327e-06	1272.1	352.13	4.6769e-06	4.3581e-06	397.54	134.29	113.56	39.953	4.6419e-06	50.131	81.339	-34.436	85.341	-163.357	-20.638	-43.400	-163.220	-158.625	-70.109	-44.960	-158.617	-154.314	-154.715	-149.074	-163.966	-150.041	-8191	255	
1250.883	1	1	0	0	0.20449	0.076564	0.20714	0.10019	0.069446	0.41307	0.15258	0.13272	0.13397	0.13174	0.134	0.10344	0.22019	0.086387	0.10975	0.26973	-1.8479	-2.8042	-1.9458	-2.8479	-2.675	-1.9813	-2.85	-2.5229	-2.1229	-2.9542	-2.1958	-2.6542	-2.7021	-2.0229	-2.8688	-2.4354	183.671	-124.784	145.179	112.428	-14.392	101.365	-131.623	65.224	-132.041	17.945	-174.182	92.872	-137.389	104.632	62.930	99.285	0.0012737	0.00037824	6.938e-05	1260.6	6.1585e-06	1.9831e-06	1268.3	348.41	3.0858e-06	5.9384e-06	396.84	133.61	115.99	39.735	1.2854e-06	49.457	0.00042571	0.0003923	0.00011872	1270.8	4.584e-06	4.2043e-06	1277.2	351.51	4.4676e-06	4.2807e-06	398.68	133.97	113.22	39.974	4.6967e-06	50.038	75.322	-98.810	171.765	-162.917	-37.921	-51.408	-162.999	-158.235	-154.436	-32.654	-158.711	-154.533	-154.904	-149.148	16.147	-149.548	-8191	255	
1250.977	1	1	0	0	0.19009	0.080387	0.15581	0.083434	0.14788	0.20782	0.22344	0.3781	0.15554	0.092027	0.225	0.084936	0.14482	0.13073	0.10398	0.37405	-1.6792	-2.775	-1.9688	-2.6292	-2.6792	-1.8271	-3.1104	-2.4667	-2.0146	-2.8187	-2.3208	-2.2604	-2.6604	-2.1583	-2.5771	-2.4854	121.237	-6.293	181.035	155.231	154.282	147.085	-170.791	177.254	6.121	140.019	4.643	-72.168	-48.384	113.515	-148.572	167.405	0.0014019	0.00039654	3.3897e-05	1261	4.1867e-06	2.8667e-06	1265.9	349.06	8.0189e-06	5.0045e-06	398.49	133.18	115.45	39.795	3.2915e-06	49.49	0.00040479	0.00038783	0.00012139	1269.2	4.3876e-06	4.2269e-06	1276.5	351.05	4.3053e-06	4.3144e-06	400.12	133.55	112.53	40.085	4.7438e-06	49.981	75.900	175.097	156.153	-162.749	-59.900	-168.242	-162.779	-157.964	-25.767	-42.321	-158.780	-154.641	-154.694	-149.229	-48.810	-150.284	-8191	255	
1251.074	1	1	0	0	0.10419	0.11032	0.064788	0.073753	0.35192	0.28606	0.21623	0.29384	0.057487	0.089842	0.15214	0.20317	0.2213	0.27008	0.053845	0.19936	-1.5396	-2.9896	-2.2521	-2.2583	-2.7104	-2.0396	-2.5854	-2.7396	-2.1292	-2.8167	-2.3688	-2.2208	-2.7854	-2.0458	-2.4979	-2.7	-124.440	115.332	-24.394	-152.647	-141.621	50.773	86.355	-170.209	-23.260	-79.792	106.893	139.918	-122.686	-106.661	-100.800	179.575	0.0015556	0.00044987	6.735e-05	1260.8	4.3427e-06	6.2848e-06	1267.5	350.72	7.5494e-06	5.7896e-06	399.08	133.14	115.25	39.899	6.7426e-06	49.358	0.0003918	0.00040317	0.00012092	1266.3	4.2655e-06	4.4145e-06	1277.9	351.01	4.174e-06	4.5103e-06	399.28	133.61	112.28	40.259	4.6545e-06	49.871	69.046	-169.716	-68.745	-162.255	-20.436	-142.430	-162.478	-157.645	-98.737	-45.128	-158.487	-154.179	-154.106	-148.791	-65.596	-149.605	-8191	255	
1251.172	1	1	0	0	0.14443	0.17594	0.29298	0.18874	0.1896	0.10175	0.21092	0.26985	0.14316	0.16176	0.15527	0.25088	0.066739	0.1365	0.025095	0.27336	-1.4833	-2.6688	-2.4542	-2.225	-2.65	-2.0292	-2.5833	-2.7875	-1.9521	-2.8833	-2.3396	-2.1396	-2.8396	-1.9875	-2.2125	-2.6813	-70.288	-73.530	86.871	127.275	-25.108	-75.462	118.207	100.797	-9.713	129.352	65.197	166.755	147.591	-137.356	-164.763	-17.558	0.0016848	0.00023966	0.00011971	1261.8	2.3433e-06	3.1497e-06	1269.7	350.14	2.2882e-06	5.3851e-06	398.82	133.27	115.84	39.868	4.5969e-06	49.313	0.00038852	0.0004217	0.00011885	1268.6	4.2257e-06	4.6886e-06	1277.2	351.18	4.1458e-06	4.6512e-06	398.45	133.52	112.65	40.309	4.4639e-06	49.723	63.758	-169.619	-107.392	-162.225	-32.652	-124.613	-162.738	-158.041	26.301	-126.329	-158.354	-154.430	-154.403	-149.578	-8.516	-149.836	-8191	255	
1251.290	1	1	0	0	0.068589	0.049332	0.27845	0.28971	0.23083	0.16095	0.286	0.12823	0.15299	0.15181	0.3009	0.054771	0.35271	0.20935	0.075475	0.02063	-1.6229	-2.4229	-2.4167	-1.9937	-2.775	-2.0979	-2.1854	-2.6688	-1.9188	-2.6042	-2.4229	-1.9438	-2.7896	-2.1375	-2.1562	-2.8937	138.066	173.128	91.399	183.672	24.126	-131.894	148.327	117.392	117.262	-135.373	151.193	-138.007	112.026	59.041	-140.742	-44.030	0.0019484	0.00085422	1.1772e-05	1260.9	4.9172e-06	2.6025e-06	1267.8	350.3	1.0781e-05	5.9073e-06	397.8	133.31	115.75	40.102	5.3322e-06	49.602	0.00039016	0.00042593	0.00011336	1267.1	4.2006e-06	4.6688e-06	1277.1	350.58	4.2253e-06	4.5849e-06	397.54	133.26	112.86	40.45	4.2809e-06	49.708	71.901	-111.538	51.122	-163.050	172.462	-49.399	-163.144	-157.968	-98.212	-69.576	-158.518	-154.736	-154.899	-148.968	7.610	-150.309	-8191	255	
1251.387	1	1	0	0	0.17868	0.326	0.094869	0.29524	0.23768	0.16598	0.24716	0.2468	0.20818	0.13043	0.068264	0.11814	0.058366	0.08447	0.1313	0.093875	-1.3542	-2.5958	-2.3396	-2.0333	-2.7896	-2.3125	-2.4458	-2.7271	-2.1083	-2.2792	-2.6667	-2.2104	-2.7333	-2.4542	-1.9792	-2.6729	60.053	150.307	-155.205	128.570	-173.536	-155.222	96.415	177.089	118.934	-82.752	-63.003	52.160	36.248	161.434	-125.142	12.819	0.0015864	0.00052412	0.00014887	1258.5	4.0974e-06	3.2579e-07	1273.4	350.47	7.1357e-06	3.8693e-06	397.04	133.87	116	39.961	1.8585e-06	49.428	0.00039743	0.00041282	0.00010902	1264.4	4.3096e-06	4.507e-06	1277.5	350.18	4.387e-06	4.4293e-06	397	133.18	113.38	40.314	4.1931e-06	49.653	79.184	-65.547	52.919	-162.691	-160.547	-125.949	-162.930	-158.693	-93.749	-15.766	-158.925	-154.936	-155.216	-149.779	-31.720	-150.623	-8191	255	
1251.483	1	1	0	0	0.17682	0.16561	0.027047	0.1007	0.09303	0.18466	0.35383	0.22906	0.1219	0.25275	0.13802	0.28529	0.054892	0.29735	0.22721	0.2457	-1.4646	-2.3479	-2.725	-2.1083	-2.7687	-2.1937	-2.2417	-2.9562	-2.1833	-2.2833	-2.8354	-2.0021	-2.7208	-2.4188	-1.9646	-2.875	-76.267	29.844	152.113	176.765	-175.808	-123.947	89.360	-163.036	127.424	-144.893	122.514	-126.917	127.010	127.647	-48.749	-138.723	0.0017153	0.00020035	0.00019338	1263.7	4.3178e-06	1.9253e-06	1270.3	349.68	6.6999e-06	1.4016e-06	398.78	133.7	115.65	40.185	3.7656e-06	49.627	0.00041546	0.00040089	0.00010646	1265.8	4.4824e-06	4.3941e-06	1273.8	350	4.5645e-06	4.374e-06	396.61	133.33	113.82	40.298	4.0628e-06	49.771	71.146	14.934	-126.337	-163.278	179.398	-106.682	-163.562	-158.472	-70.127	-10.643	-158.918	-154.780	-155.314	-149.476	-52.858	-150.370	-8191	255	
1251.579	1	1	0	0	0.095636	0.10001	0.20628	0.16203	0.13512	0.16967	0.16538	0.19796	0.056256	0.073911	0.52487	0.25969	0.094993	0.16491	0.10872	0.35215	-1.7083	-2.1417	-2.8125	-1.9354	-2.6	-2.4688	-2.1333	-2.825	-2.1437	-2.2229	-2.7417	-1.85	-2.5833	-2.7562	-1.8646	-2.7604	-7.853	-133.701	164.339	94.913	175.168	182.250	83.794	129.978	-33.713	-123.027	109.757	106.948	108.564	57.848	31.886	60.098	0.0016085	0.00041142	0.00018285	1265.3	7.182e-06	2.4208e-06	1276.4	350.55	7.3815e-06	1.254e-06	398.29	134.65	116.39	40.097	1.1023e-06	49.473	0.00042381	0.00039171	0.00010348	1270.3	4.5608e-06	4.287e-06	1275.9	351.66	4.5329e-06	4.1826e-06	395.83	133.82	113.7	40.263	3.8983e-06	49.911	61.923	-118.166	-111.823	-163.055	-114.183	40.527	-163.574	-158.477	-70.486	-17.852	-159.471	-155.355	-155.489	-149.991	-70.060	-150.994	-8191	255	
1251.675	1	1	0	0	0.13572	0.2268	0.075451	0.11069	0.12741	0.12914	0.20572	0.046217	0.19696	0.025223	0.0298	0.3296	0.26689	0.31139	0.14002	0.21333	-1.5667	-1.9937	-2.8312	-2.1083	-2.4708	-2.6667	-2.1312	-3.0187	-2.4083	-2.0125	-3.0646	-1.8438	-2.5812	-2.7271	-1.8062	-2.8646	-49.873	147.694	-148.975	157.029	132.367	-158.492	137.027	165.017	-36.810	59.987	-69.706	-168.782	-85.558	-165.282	-96.058	4.693	0.0013972	0.00032866	0.00026543	1266.5	7.6935e-06	4.0148e-06	1278.7	351.99	2.9551e-06	2.4221e-06	397.57	134.11	115.96	40.028	2.7267e-06	49.559	0.00041303	0.00037852	0.00010017	1272.9	4.4374e-06	4.1589e-06	1276	352.5	4.4384e-06	4.1395e-06	396.04	134.39	113.34	40.223	4.0282e-06	50.166	64.599	-176.149	-86.701	-163.719	-86.032	23.022	-164.332	-159.279	-90.082	-91.090	-159.936	-155.947	-155.733	-150.067	-135.414	-151.118	-8191	255	
1251.771	1	1	0	0	0.32761	0.068935	0.1135	0.2217	0.033631	0.15312	0.061456	0.15324	0.1303	0.062967	0.083538	0.23744	0.09509	0.090563	0.080943	0.16917	-2.15	-1.9021	-2.7958	-2.1542	-2.325	-2.7104	-2.0917	-2.5896	-2.2938	-2.0187	-3.0021	-2.1625	-2.1979	-2.8792	-1.7938	-2.7896	-144.143	-102.165	-35.989	138.737	-123.868	90.784	131.836	46.622	-121.869	17.213	117.770	-170.972	122.618	98.286	-68.869	-49.878	0.0012285	0.00051976	0.00018801	1265.3	5.0223e-06	4.1553e-06	1281.5	349.19	1.0427e-05	4.1097e-06	398.28	134.16	116.82	39.818	8.6057e-06	49.418	0.00042006	0.00038195	0.00010529	1275.5	4.4882e-06	4.2886e-06	1281.1	352.99	4.5758e-06	4.2336e-06	397.24	134.76	113.85	40.176	4.3342e-06	50.273	69.967	-126.455	-174.333	-163.843	-115.572	-40.022	-164.185	-159.138	-91.756	-32.662	-159.799	-155.771	-155.791	-150.106	-136.895	-150.865	-8191	255	
1251.892	1	1	0	0	0.14302	0.1448	0.24936	0.35139	0.11957	0.24347	0.36393	0.16766	0.16367	0.18086	0.34327	0.11265	0.40971	0.20268	0.28717	0.10987	-2.1083	-1.9021	-2.8604	-2.3646	-2.0542	-2.7292	-1.9354	-2.5563	-2.4562	-1.75	-2.7438	-2.2438	-2.1979	-2.7354	-2.0563	-2.6063	13.916	-99.277	-79.033	-160.041	-153.836	-79.949	84.787	81.748	21.498	65.858	50.550	22.692	150.788	157.388	148.950	133.001	0.0014126	0.00054592	5.5372e-05	1272.8	4.7597e-06	4.788e-06	1274.8	351.7	3.6238e-06	2.6056e-06	399.16	133.6	116.21	40.144	6.0802e-06	49.569	0.00042133	0.00038397	0.00011252	1281.4	4.5045e-06	4.2422e-06	1284.7	354.02	4.6012e-06	4.2168e-06	400.5	134.79	113.74	40.288	4.7099e-06	50.264	69.952	-51.849	77.108	-163.744	-66.158	-7.623	-164.168	-159.077	-63.262	-28.820	-159.455	-155.595	-155.326	-150.146	-85.156	-150.999	-8191	255	
1251.986	1	1	0	0	0.2013	0.13692	0.20673	0.19358	0.16783	0.26785	0.16577	0.11417	0.076852	0.099843	0.22345	0.20797	0.23034	0.13649	0.1419	0.14644	-2.2833	-1.9396	-2.6875	-2.2396	-2.1354	-2.8042	-2.2271	-2.525	-2.6437	-1.8646	-2.8438	-2.3812	-1.9813	-2.8271	-2.0146	-2.475	55.390	-145.718	18.218	179.164	-0.918	55.697	129.732	46.455	93.976	-140.571	-2.500	159.494	90.711	147.084	173.864	160.010	0.0015465	0.0002356	0.0001266	1268.8	4.3974e-06	1.2958e-06	1282.9	350.41	7.6335e-06	3.1788e-06	399.89	132.97	116.23	40.015	5.2496e-06	49.72	0.00042213	0.00038602	0.00011923	1281.9	4.5174e-06	4.2489e-06	1289.8	353.42	4.5076e-06	4.2615e-06	401.02	134.37	113.43	40.222	4.8202e-06	50.248	74.450	-48.154	166.747	-163.800	-139.504	-36.132	-164.272	-159.279	-118.426	-52.294	-159.510	-155.509	-155.444	-150.124	-63.299	-151.086	-8191	255	
1252.058	1	1	0	0	0.25922	0.072781	0.14651	0.65455	0.19699	0.050539	0.22576	0.34895	0.32431	0.062716	0.151	0.028535	0.19188	0.17219	0.17197	0.32973	-2.2417	-1.8896	-2.6146	-2.4917	-1.9125	-2.8146	-2.3042	-2.2896	-2.8354	-1.9396	-2.7875	-2.4625	-1.9521	-2.7958	-1.9854	-2.4583	33.081	-130.302	-85.645	146.758	130.805	-56.341	136.671	126.660	-142.130	85.950	71.666	94.447	-153.690	105.499	91.279	169.593	0.0014484	0.00047783	0.00015818	1271	6.3703e-06	5.7165e-06	1276.6	351.24	8.1276e-06	2.8653e-06	399.17	134.12	116.14	40.022	1.4305e-06	49.736	0.00040843	0.00039017	0.00012051	1280.7	4.3181e-06	4.3044e-06	1288	353.06	4.3103e-06	4.3688e-06	401.89	134.62	112.91	40.35	4.7622e-06	50.121	78.921	-130.103	-130.059	-163.474	-96.167	-35.015	-164.202	-159.149	-111.636	134.760	-159.896	-155.536	-155.376	-150.073	74.322	-150.700	-8191	255	
1252.154	1	1	0	0	0.10545	0.10284	0.060686	0.21609	0.12484	0.1776	0.21481	0.11182	0.17293	0.11346	0.15317	0.073061	0.23933	0.19371	0.04877	0.26152	-2.3292	-1.9229	-2.6292	-2.6188	-2.0083	-2.7708	-2.4667	-2.1292	-2.6229	-1.9125	-2.5542	-2.5958	-1.8125	-2.9938	-2.4354	-2.2313	-153.050	86.025	49.775	102.962	-31.271	-10.049	153.272	91.709	-86.267	175.665	24.817	158.576	103.912	-153.396	49.674	11.822	0.0015555	0.0002998	0.00016421	1269.6	2.8896e-06	2.9241e-06	1277.9	351.53	1.8756e-06	6.1607e-06	399.33	134.11	116.05	40.114	3.2252e-06	49.983	0.00039312	0.00041123	0.0001197	1279.1	4.1505e-06	4.4859e-06	1288.2	352.86	4.2179e-06	4.5697e-06	400.81	134.26	112.45	40.454	4.6091e-06	50.128	71.941	-17.764	-128.499	-163.626	115.886	77.960	-163.945	-158.806	-81.483	138.762	-159.130	-155.074	-155.309	-149.849	-19.728	-150.590	-8191	255	
1252.275	1	1	0	0	0.37781	0.10252	0.21925	0.22696	0.051859	0.32314	0.31273	0.24018	0.10149	0.12986	0.19296	0.080218	0.1402	0.077112	0.10255	0.2607	-2.3792	-1.9396	-2.4729	-2.6771	-1.975	-2.7604	-2.6104	-2.1417	-2.6896	-1.9771	-2.4667	-2.9792	-1.9667	-2.9542	-2.4771	-2.1292	15.339	-48.171	139.466	148.052	14.420	-103.688	167.349	-174.415	-155.184	38.671	110.775	-162.944	74.029	-176.382	-92.514	169.125	0.0014582	0.00036862	0.00021941	1272.3	4.1849e-06	1.5037e-06	1279.7	351.53	6.6709e-06	8.4334e-06	400.35	134.38	116.51	39.94	6.0056e-06	49.749	0.00038708	0.00042277	0.00011513	1278.8	4.1526e-06	4.6241e-06	1287.4	352.24	4.1997e-06	4.6685e-06	400.22	134.21	112.8	40.47	4.491e-06	49.983	72.898	-83.600	-75.093	-163.306	-45.765	-137.733	-163.485	-158.549	-33.073	-48.292	-159.320	-155.414	-155.675	-149.450	-85.218	-150.458	-8191	255	
1252.371	1	1	0	0	0.27674	0.076172	0.14607	0.09493	0.067388	0.15896	0.12725	0.353	0.15884	0.056175	0.21075	0.085091	0.086057	0.26632	0.19891	0.023187	-2.5042	-2.1333	-2.3167	-2.8187	-1.9854	-2.5625	-2.725	-2.0917	-2.7208	-2.1583	-2.25	-2.9417	-1.9979	-2.5604	-2.7667	-2.1	-58.282	-138.159	143.411	103.671	42.380	-0.437	173.745	-43.566	-125.448	169.201	59.824	-83.863	115.112	-143.663	76.939	77.754	0.0014963	0.00041714	0.000188	1273.3	5.9315e-06	4.1345e-06	1280.1	351.04	4.0049e-06	9.108e-06	398.52	134.44	117.1	39.946	4.7834e-06	49.464	0.00039558	0.00043171	0.00011183	1276.4	4.3299e-06	4.6513e-06	1285.8	351.65	4.3929e-06	4.6561e-06	399.23	133.85	114.15	40.496	4.4244e-06	49.811	71.667	66.962	-47.925	-163.307	-138.391	180.483	-163.686	-158.604	183.230	-51.559	-159.105	-155.091	-154.841	-149.330	-16.778	-150.766	-8191	255	
1252.467	1	1	0	0	0.11738	0.043569	0.12991	0.31538	0.15636	0.1304	0.105	0.19586	0.13297	0.12393	0.40367	0.32632	0.2365	0.27654	0.080512	0.09632	-2.4896	-2.2208	-2.0833	-3.0625	-2.0292	-2.3563	-2.7979	-2.0938	-2.7208	-2.35	-2.1396	-2.8958	-2.0167	-2.4833	-2.7354	-2.2229	-58.588	35.585	-56.000	-173.446	25.604	15.447	99.371	172.666	-95.461	115.864	156.181	177.736	145.777	175.421	-82.166	-169.188	0.0018928	0.00016191	8.6202e-05	1269.3	4.2518e-06	6.022e-06	1282	352.49	4.0418e-06	5.3076e-06	399.84	134.52	116.32	40.048	9.425e-06	49.556	0.00041615	0.00042624	0.0001101	1276.2	4.5459e-06	4.5404e-06	1285.2	351.48	4.573e-06	4.5456e-06	398.4	133.88	113.91	40.401	4.2549e-06	49.763	71.226	-88.871	-130.663	-163.203	175.614	-37.013	-163.180	-158.758	-155.665	-26.302	-158.993	-155.162	-155.152	-149.560	-63.322	-150.894	-8191	255	
1252.563	1	1	0	0	0.21727	0.036375	0.27297	0.25944	0.33043	0.16687	0.29509	0.11539	0.14799	0.3094	0.18622	0.15168	0.29888	0.26626	0.28365	0.15604	-2.3854	-2.3583	-2.0396	-2.9646	-2.0187	-2.2812	-2.9229	-1.8937	-2.7917	-2.4396	-2.1063	-2.9708	-2.0083	-2.4646	-2.7438	-1.8229	47.059	23.918	64.601	84.575	111.461	-129.305	69.478	47.436	-68.697	-48.254	-133.699	-54.372	50.110	115.831	129.490	128.970	0.0016759	0.00010905	0.00015623	1276.8	3.4871e-06	6.5355e-06	1282	351.57	3.4838e-06	1.3074e-06	397.7	134.71	116.57	40.014	7.5355e-06	49.739	0.0004212	0.00040975	0.00010505	1278	4.6272e-06	4.3764e-06	1285.3	351.52	4.6211e-06	4.4385e-06	397.37	134.18	114.51	40.301	4.1549e-06	50.001	70.015	-34.523	-5.226	-163.436	-98.110	-27.223	-163.619	-158.649	0.023	-112.332	-159.015	-155.019	-155.344	-149.118	-75.081	-150.491	-8191	255	
1252.659	1	1	0	0	0.20375	0.084753	0.15657	0.19396	0.15762	0.17734	0.20277	0.16213	0.21012	0.067646	0.025338	0.26059	0.062407	0.021962	0.38407	0.24565	-2.3417	-2.3542	-2.0229	-3.0604	-2.2979	-2.1542	-2.8396	-2.0292	-2.3354	-2.4938	-2.2062	-2.7854	-2.2958	-2.0812	-2.5438	-2.0021	-151.846	-92.022	63.332	92.784	-152.963	-114.806	102.515	108.069	43.418	163.579	163.672	128.710	-134.257	145.517	97.714	-79.726	0.0014778	0.0003855	0.0001749	1269.5	3.6654e-07	6.0146e-06	1282.4	352.11	9.5704e-06	9.2178e-06	398.82	134.37	115.79	40.123	3.7119e-06	49.649	0.00043063	0.00040075	0.0001038	1276.8	4.6647e-06	4.3695e-06	1283.5	352.56	4.6404e-06	4.3774e-06	396.78	134.45	114.39	40.322	4.1476e-06	50.13	85.567	-170.711	-105.415	-162.889	80.433	-8.671	-163.028	-158.295	-119.364	-21.525	-158.803	-154.666	-154.636	-149.311	-11.111	-150.290	-8191	255	
1252.755	1	1	0	0	0.24033	0.043405	0.2892	0.32595	0.1008	0.14256	0.23016	0.30389	0.11503	0.19138	0.056169	0.031891	0.21168	0.18572	0.082678	0.2191	-2.1208	-2.7438	-1.8375	-2.7646	-2.3063	-2.1354	-3.0062	-2.0563	-2.425	-2.5563	-2.0687	-2.7917	-2.3688	-2.0312	-2.7271	-2.1312	-140.037	-3.353	181.836	151.401	162.944	88.914	81.908	-174.707	-160.933	107.569	75.256	105.521	27.696	-106.162	29.120	35.685	0.0013976	0.00016283	0.00011348	1275.4	1.447e-06	4.4064e-06	1281.3	350.49	7.059e-06	3.5532e-06	400.31	134.09	116.01	39.918	1.9322e-06	49.772	0.00042646	0.00039978	0.00010362	1282.9	4.6109e-06	4.2852e-06	1283.8	353.21	4.5203e-06	4.3064e-06	396.81	134.83	114.25	40.197	4.1576e-06	50.308	81.976	-125.859	-98.195	-163.146	179.411	110.768	-163.559	-158.703	-87.455	-99.827	-159.273	-155.261	-155.199	-149.488	-79.294	-150.443	-8191	255	
1252.852	1	1	0	0	0.23444	0.18741	0.12054	0.17381	0.096368	0.16376	0.45538	0.1097	0.1377	0.058213	0.16943	0.19599	0.10253	0.15921	0.14053	0.15464	-2.0854	-2.6708	-1.925	-2.8917	-2.5021	-2.0812	-2.95	-2.1333	-2.1875	-2.9333	-2.0771	-2.8083	-2.4854	-2.1437	-2.9708	-2.2333	-122.408	-122.441	85.193	-74.939	173.412	160.866	162.680	135.782	-176.220	14.807	146.579	145.870	-96.186	158.950	-171.358	9.926	0.0015784	0.00065327	0.00015202	1274.2	2.9093e-06	7.8822e-06	1281.5	352.16	1.035e-05	4.3754e-06	399.75	133.89	116.41	40.129	4.1685e-06	49.548	0.00041414	0.00038465	0.00010438	1282.4	4.4778e-06	4.1071e-06	1285.2	354.09	4.3791e-06	4.1459e-06	398.57	134.87	113.83	40.226	4.2773e-06	50.319	78.425	-64.058	-137.615	-163.197	-139.018	-43.773	-163.995	-159.266	-27.770	0.753	-159.737	-155.370	-155.522	-149.896	-174.487	-151.087	-8191	255	
1252.972	1	1	0	0	0.1635	0.19608	0.22033	0.13732	0.19456	0.15649	0.18149	0.093383	0.13499	0.218	0.4649	0.14407	0.15444	0.12269	0.050508	0.082848	-1.8438	-2.8	-1.7896	-2.55	-2.5458	-1.8125	-2.9146	-2.3042	-2.0854	-2.7396	-2.0604	-2.7062	-2.6375	-2.075	-2.8063	-2.3312	-171.137	-51.513	-70.566	159.754	-29.611	105.598	119.224	-115.335	124.800	27.977	-153.373	148.209	-100.052	154.659	-81.496	-173.420	0.0015073	0.00039191	0.00023856	1271.1	6.227e-06	1.1116e-06	1285.2	351.76	2.2998e-06	7.3217e-06	399.82	134.82	115.88	40.063	6.1099e-06	49.706	0.00040312	0.00037242	0.00011076	1282.9	4.3805e-06	4.0405e-06	1290.2	353.47	4.332e-06	4.1128e-06	399.87	134.93	113.74	40.199	4.6241e-06	50.327	69.310	-63.816	-148.378	-163.663	-63.179	-11.086	-164.041	-158.967	-55.419	52.830	-159.631	-155.400	-155.627	-149.833	-80.215	-150.928	-8191	255	
1253.067	1	1	0	0	0.042464	0.10871	0.079391	0.063232	0.13181	0.19066	0.19996	0.21642	0.17734	0.20281	0.062594	0.12373	0.11534	0.13735	0.095039	0.14281	-1.8146	-2.9062	-2.0354	-2.5292	-2.7604	-1.8937	-2.7833	-2.5854	-1.8729	-2.7396	-2.1896	-2.5104	-2.8063	-1.9625	-2.6729	-2.4792	-60.964	129.753	-24.996	-71.229	-135.096	13.638	123.452	47.959	174.758	37.351	65.450	178.726	-110.614	98.151	-110.017	-120.516	0.0012741	0.0007833	0.00012489	1271.1	1.9235e-06	3.4995e-06	1273	352.08	4.4063e-06	3.3419e-06	398.66	134.47	116.23	40.005	1.7803e-06	49.54	0.00040736	0.00038225	0.00011841	1282	4.397e-06	4.1813e-06	1288.9	353.83	4.3079e-06	4.2606e-06	401.05	134.68	113.03	40.217	4.7467e-06	50.175	63.509	-93.704	164.841	-163.141	-88.279	-33.824	-163.626	-158.955	-139.262	-95.552	-159.120	-155.221	-154.773	-149.813	-10.620	-150.659	-8191	255	
1253.163	1	1	0	0	0.24678	0.18211	0.10835	0.14711	0.22056	0.34836	0.16943	0.28964	0.090785	0.10764	0.13806	0.28599	0.28271	0.17308	0.032852	0.20516	-1.5792	-2.5625	-2.0021	-2.4021	-2.6562	-1.9375	-2.9521	-2.6771	-1.95	-2.775	-2.2625	-2.3521	-2.7646	-2.1625	-2.4833	-2.6896	-37.982	-43.354	86.416	155.246	14.790	-153.566	126.962	140.160	-94.077	36.710	93.814	157.051	-129.166	63.864	-166.370	71.274	0.0016486	0.00046983	0.00010605	1271.9	6.3214e-06	2.101e-06	1275.7	350.84	1.2925e-05	6.7467e-06	398.93	133.72	115.25	39.945	6.8459e-06	49.649	0.00039827	0.00039308	0.00012028	1279.5	4.2829e-06	4.3212e-06	1288.8	352.99	4.1604e-06	4.3486e-06	400.6	134.21	112.44	40.315	4.6624e-06	50.008	73.941	110.886	-114.108	-163.079	-10.175	-150.271	-163.356	-158.497	-87.752	-101.412	-159.024	-154.884	-154.967	-149.602	16.156	-150.596	-8191	255	
1253.283	1	1	0	0	0.16371	0.16289	0.13094	0.1371	0.1766	0.20474	0.031951	0.28173	0.33077	0.096698	0.097236	0.32143	0.19376	0.10072	0.23576	0.31662	-1.575	-2.6833	-1.9438	-2.2104	-2.8167	-2.1333	-2.6479	-2.7854	-2.0917	-2.7208	-2.3292	-2.0917	-2.8729	-2.0021	-2.3479	-2.7854	154.827	80.459	36.329	129.565	-161.067	93.937	-62.912	-141.460	108.741	-118.196	-87.090	68.679	118.983	40.193	66.091	-175.492	0.0014369	0.00013233	0.00018249	1267.8	3.4715e-06	3.6742e-06	1279.6	350.95	7.1636e-06	5.8726e-06	398.58	134.04	115.98	39.852	6.1334e-06	49.571	0.00038181	0.00041145	0.00011748	1276	4.1428e-06	4.5307e-06	1285	352.07	4.095e-06	4.535e-06	399.32	133.91	112.54	40.396	4.4684e-06	49.872	78.915	22.641	-125.380	-163.067	-54.362	-123.623	-163.625	-158.742	-81.673	-132.822	-159.279	-155.124	-155.250	-149.838	-94.921	-150.726	-8191	255	
1253.355	1	1	0	0	0.15909	0.16816	0.08443	0.27763	0.04998	0.33517	0.13571	0.098722	0.17844	0.22089	0.21776	0.11659	0.20536	0.32794	0.098394	0.12397	-1.4438	-2.6688	-2.4479	-2.2458	-2.8229	-1.9521	-2.5854	-2.8208	-1.8146	-2.7021	-2.4479	-2.175	-2.6896	-2.0521	-2.1646	-2.8833	89.920	36.972	-148.463	135.957	140.716	173.905	-84.933	92.392	152.245	-84.513	63.051	-130.243	115.054	50.846	-33.904	177.773	0.0015764	0.00060904	0.0002251	1268.3	5.2707e-06	9.0712e-07	1275.1	351.14	4.0058e-06	2.7438e-06	397.66	133.65	117.24	40.014	4.1699e-06	49.71	0.00037939	0.00041804	0.00011343	1272.3	4.1044e-06	4.5467e-06	1280.9	351.36	4.1358e-06	4.5224e-06	397.46	133.38	112.89	40.431	4.2992e-06	49.74	63.522	-122.544	-125.935	-163.140	-77.089	-62.811	-163.614	-159.150	-146.201	-36.111	-159.135	-155.255	-155.457	-149.716	-107.056	-150.687	-8191	255	
1253.451	1	1	0	0	0.14255	0.11891	0.057745	0.40692	0.11782	0.17983	0.055268	0.20807	0.099444	0.18002	0.23632	0.14203	0.20557	0.20809	0.24447	0.15177	-1.3479	-2.6813	-2.5687	-1.9417	-2.8708	-2.3563	-2.2938	-2.8812	-1.9188	-2.3979	-2.5687	-2.0854	-2.8021	-2.2062	-2.2438	-2.8125	39.212	-87.015	-73.697	170.008	179.896	146.306	108.539	165.519	-113.089	-126.985	171.585	66.036	-123.228	-172.014	142.971	102.308	0.0015511	0.00047157	9.1301e-05	1268.7	2.7341e-06	2.5799e-06	1275.3	350.52	6.6126e-06	1.4321e-06	397.85	133.7	115.53	39.953	4.7756e-06	49.49	0.00039057	0.00041542	0.00010999	1272.6	4.307e-06	4.5582e-06	1281.3	350.88	4.3467e-06	4.5155e-06	397.88	133.36	113.34	40.319	4.2911e-06	49.697	81.945	-56.170	-123.352	-163.150	125.619	-174.576	-163.708	-158.784	-106.964	-49.343	-159.101	-154.863	-154.804	-149.868	-49.675	-150.494	-8191	255	
1253.572	1	1	0	0	0.25669	0.057016	0.33821	0.3409	0.20832	0.29258	0.35458	0.20423	0.29445	0.13338	0.058737	0.10585	0.15459	0.41677	0.068822	0.2141	-1.6667	-2.5229	-2.6667	-2.0708	-2.8771	-2.4021	-2.0896	-2.9458	-1.9229	-2.3854	-2.7333	-2.0875	-2.7771	-2.6188	-2.1833	-2.8896	130.887	168.437	73.918	146.769	-83.395	114.719	167.325	-163.168	37.715	-111.053	-7.046	-108.059	-107.289	120.673	-145.789	-120.807	0.0017604	0.00028669	0.00012782	1263.2	1.0112e-06	5.3324e-06	1269.4	350.43	2.6646e-06	6.083e-06	398.9	133.3	116.22	39.686	6.3031e-06	49.309	0.00041956	0.00041364	0.0001102	1269.9	4.5572e-06	4.5289e-06	1277.2	350.64	4.5899e-06	4.4628e-06	397.08	133.14	113.91	40.217	4.1693e-06	49.645	64.099	-30.096	-60.994	-163.225	111.460	-40.991	-163.711	-159.161	-144.149	30.374	-159.733	-155.547	-155.567	-150.202	-19.579	-150.786	-8191	255	
1253.668	1	1	0	0	0.1202	0.26262	0.12927	0.24193	0.092216	0.060787	0.097331	0.20547	0.071591	0.066424	0.12832	0.037204	0.11338	0.18032	0.20829	0.19795	-1.5896	-2.2354	-2.7896	-1.7979	-2.725	-2.5333	-2.2583	-2.8396	-2.1167	-2.2417	-2.9729	-2.05	-2.5292	-2.6708	-1.9833	-3.025	-105.146	-162.072	-161.575	-164.607	13.047	-118.176	99.029	137.694	117.693	108.567	-144.995	-98.764	-163.285	169.178	-162.677	96.562	0.001528	0.00052233	3.9076e-05	1257.7	3.942e-06	5.2637e-06	1271.2	350.11	4.631e-06	5.6448e-06	396.2	133.53	116.01	39.466	2.252e-07	49.276	0.00043279	0.00040384	0.00010696	1267.9	4.6627e-06	4.4489e-06	1273.3	350.58	4.6793e-06	4.3706e-06	395.06	133.31	114.1	40.061	4.1118e-06	49.744	77.714	-103.405	-32.783	-163.896	-100.490	-20.256	-164.156	-159.242	-68.532	-61.396	-159.682	-155.784	-155.946	-150.032	-36.059	-151.019	-8191	255	
1253.764	1	1	0	0	0.050824	0.22477	0.13149	0.23444	0.19268	0.093526	0.24601	0.39157	0.21279	0.058827	0.28504	0.059232	0.043034	0.12824	0.16745	0.19304	-1.7042	-2.2042	-2.7438	-2.0917	-2.4292	-2.6542	-2.1875	-2.8896	-2.2083	-2.1292	-2.8479	-1.9333	-2.6042	-2.8125	-1.9188	-2.7875	107.690	19.595	-100.828	147.788	102.547	158.064	140.979	166.570	-73.394	-160.769	81.188	-161.281	-100.733	118.129	-75.314	-93.994	0.0015261	0.00057451	0.00014784	1257.3	7.2473e-06	3.4371e-06	1261	348.99	1.0212e-05	4.3165e-06	395.67	133.05	115.33	39.587	2.4435e-06	49.154	0.00043576	0.00040106	0.00010558	1265	4.646e-06	4.443e-06	1267.5	350.71	4.7179e-06	4.3775e-06	394.3	133.48	113.36	40.022	4.1213e-06	49.759	71.223	-94.488	-99.930	-163.670	-42.747	12.754	-164.048	-158.752	-85.016	-62.270	-159.394	-155.461	-155.011	-149.971	-167.211	-151.087	-8191	255	
1253.860	1	1	0	0	0.24996	0.077093	0.24912	0.2735	0.18752	0.27088	0.2202	0.13713	0.42813	0.081389	0.11038	0.046045	0.072956	0.044064	0.081806	0.059351	-1.8042	-2.0667	-2.8667	-2.2271	-2.4167	-2.5354	-1.9833	-2.8708	-2.3021	-2.0771	-2.7938	-2.0083	-2.3875	-2.7021	-1.8042	-2.6083	112.969	-20.554	-155.407	153.750	120.506	-64.890	55.633	126.774	-148.922	17.668	-124.631	-26.072	-85.393	54.814	126.315	-143.578	0.0015495	0.00051053	6.928e-05	1249.1	5.5983e-06	1.7642e-06	1262.4	348.66	7.605e-06	6.7808e-06	395.37	132.8	114.68	39.478	3.8543e-06	49.185	0.00042987	0.00039679	0.00010533	1261.2	4.5818e-06	4.3687e-06	1264.9	350.79	4.6322e-06	4.3096e-06	394	133.86	113.02	39.898	4.2644e-06	50.002	82.370	-123.968	71.272	-163.476	-67.734	-73.751	-163.602	-158.925	-105.248	-27.289	-159.408	-155.440	-155.264	-149.963	-38.331	-150.552	-8191	255	
1253.955	1	1	0	0	0.24893	0.051379	0.16174	0.28021	0.085548	0.28548	0.20473	0.052769	0.15751	0.091884	0.16038	0.046276	0.10099	0.18884	0.081532	0.24035	-2.0167	-1.875	-2.6583	-2.2604	-2.0792	-2.6458	-2.0708	-2.6854	-2.6	-1.9792	-2.9125	-2.2417	-2.3125	-2.7208	-1.7167	-2.5729	-112.928	181.529	-159.017	148.818	-117.742	72.118	133.391	-36.669	-160.577	-48.907	-12.484	-110.741	92.425	172.918	18.053	81.107	0.0014888	0.00075295	7.0916e-05	1249.4	5.3017e-06	2.9562e-06	1260.4	347.19	7.8307e-06	7.4989e-06	394.7	132.94	115.12	39.483	1.524e-06	49.147	0.00042242	0.00038395	0.00010921	1265.6	4.4728e-06	4.237e-06	1268	350.44	4.4913e-06	4.1511e-06	395.61	133.77	112.76	39.827	4.5048e-06	50.028	67.653	-42.492	-66.992	-163.322	-11.473	22.311	-163.514	-158.704	-85.076	40.519	-159.487	-155.336	-154.557	-149.651	-89.797	-150.662	-8191	255	
1254.051	1	1	0	0	0.17015	0.089185	0.22994	0.28535	0.16754	0.13264	0.223	0.25305	0.12765	0.13837	0.38304	0.1452	0.16722	0.28531	0.33327	0.10167	-2.2792	-1.9	-2.5646	-2.1625	-2.325	-2.7667	-2.1292	-2.4104	-2.6229	-1.8896	-2.6458	-2.1708	-2.1458	-2.7375	-1.9854	-2.3833	99.942	106.431	0.999	146.038	112.154	-166.126	54.349	168.229	-114.277	53.707	114.870	79.793	20.678	-175.747	65.866	60.443	0.0015879	0.00071898	0.00011625	1252.5	5.669e-06	7.1628e-07	1259.4	347.59	6.284e-06	5.565e-06	394.02	132.29	115.29	39.63	4.35e-06	49.01	0.00042004	0.00038108	0.00011622	1265.2	4.5277e-06	4.2112e-06	1272.2	350.85	4.6047e-06	4.2661e-06	397.69	133.72	112.89	39.901	4.8522e-06	49.918	67.001	-84.556	-119.956	-163.047	-110.011	105.578	-163.432	-158.667	-119.644	54.113	-159.095	-155.370	-154.999	-149.640	-130.344	-150.594	-8191	255	
1254.147	1	1	0	0	0.22912	0.20338	0.22894	0.24377	0.11749	0.050678	0.49242	0.38584	0.19049	0.01479	0.15092	0.18508	0.15716	0.30276	0.069463	0.12128	-2.1854	-1.8583	-2.6604	-2.4604	-2.0271	-2.6917	-2.2146	-2.3521	-2.7333	-2.1104	-2.8479	-2.3542	-1.9708	-2.9375	-2.2521	-2.2521	12.116	113.189	-42.713	170.369	163.782	110.243	150.008	-168.911	131.395	162.317	-77.529	117.216	-82.245	-108.792	-144.401	105.440	0.0016928	0.00014834	0.00022768	1254	2.5149e-06	3.2132e-06	1257.1	347.62	4.5112e-06	4.6861e-06	393.24	132.54	114.13	39.544	5.753e-06	49.167	0.00042928	0.00040145	0.00012523	1265.7	4.5487e-06	4.4571e-06	1276.9	350.67	4.5744e-06	4.4503e-06	398.47	133.46	112.37	39.99	4.9633e-06	49.805	67.936	69.435	150.034	-163.554	-26.367	-15.878	-163.675	-158.515	-105.019	-6.663	-159.261	-155.398	-154.942	-149.836	-61.110	-150.875	-8191	255	
1254.243	1	1	0	0	0.25957	0.24319	0.10006	0.28515	0.17649	0.047119	0.3175	0.31071	0.056413	0.15027	0.065225	0.42973	0.17331	0.28078	0.010342	0.35678	-2.3312	-2.0167	-2.7229	-2.7375	-1.8604	-2.9562	-2.1729	-2.3167	-2.7438	-1.7313	-2.7583	-2.6833	-1.9667	-2.9979	-2.2167	-2.1125	-50.693	154.943	-87.119	-144.685	180.460	-68.809	104.133	135.112	45.749	-162.258	-62.000	-137.778	176.041	181.903	-144.704	-172.629	0.0013789	0.0007544	0.00014594	1252.8	1.0209e-06	5.6974e-06	1260.7	346.18	2.7158e-06	2.1115e-06	394.5	132.87	114.28	39.661	5.8375e-06	49.409	0.00041197	0.00041407	0.0001236	1266.2	4.3198e-06	4.5429e-06	1276.3	349.6	4.331e-06	4.6213e-06	397.75	133.48	111.99	40.163	4.8173e-06	49.867	70.547	136.358	-85.824	-163.212	-26.626	-73.424	-163.516	-158.774	-130.130	-8.488	-158.868	-155.077	-154.816	-149.494	-39.562	-150.591	-8191	255	
1254.364	1	1	0	0	0.20001	0.193	0.25476	0.057052	0.059739	0.21171	0.16223	0.18592	0.14567	0.14168	0.033295	0.019154	0.23069	0.041927	0.29721	0.14914	-2.4604	-1.6938	-2.7333	-2.5583	-1.7062	-2.7854	-2.45	-2.2667	-2.9938	-1.9688	-2.4188	-2.9104	-1.925	-2.775	-2.2188	-1.9625	94.360	-176.064	-161.525	89.693	-76.366	70.201	123.334	104.217	164.159	-23.147	145.982	116.687	-140.549	27.706	-161.601	48.776	0.0012523	0.00069569	0.00033037	1250.2	2.6116e-06	6.9382e-06	1258.3	347.49	7.072e-06	1.534e-06	395.83	132.56	115.02	39.729	8.3133e-06	49.159	0.00040033	0.00043283	0.00012007	1262.9	4.2835e-06	4.7458e-06	1271.5	349.2	4.3412e-06	4.7653e-06	397.96	133.19	112.2	40.279	4.7445e-06	49.706	71.282	-117.840	-89.795	-163.667	-176.443	-149.474	-163.816	-158.636	-94.852	-83.875	-158.820	-155.002	-154.584	-149.531	18.916	-150.096	-8191	255	
1254.460	1	1	0	0	0.13382	0.20811	0.21264	0.26906	0.13137	0.058761	0.069025	0.39631	0.093527	0.24912	0.12342	0.11485	0.093697	0.19496	0.074823	0.17267	-2.475	-1.8875	-2.3312	-2.8854	-1.7542	-2.7333	-2.55	-2.1021	-2.8187	-2.1	-2.2021	-2.9417	-1.8563	-2.5708	-2.5312	-2.0812	-16.177	-122.278	60.858	-158.054	-90.202	24.231	-94.853	100.662	-19.881	39.827	82.297	-77.084	153.025	157.600	112.910	181.030	0.0016147	0.00061054	0.00012836	1255.6	2.3147e-06	5.1166e-06	1259.5	346.67	4.3013e-06	1.0362e-06	395.04	132.72	114.03	39.551	3.3558e-06	49.015	0.00040688	0.0004444	0.00011852	1260.8	4.431e-06	4.8612e-06	1270.4	348.62	4.4958e-06	4.9536e-06	397.07	132.9	112.61	40.231	4.6713e-06	49.484	62.461	-169.895	-131.638	-162.603	-122.494	-51.760	-163.171	-157.957	-89.181	47.388	-158.907	-154.839	-155.501	-149.821	-83.461	-150.666	-8191	255	
1254.556	1	1	0	0	0.20852	0.05454	0.28357	0.21179	0.14381	0.14404	0.10193	0.33386	0.12529	0.23359	0.32043	0.12837	0.27907	0.26359	0.1261	0.38283	-2.4313	-2.0938	-2.2625	-2.9542	-1.7625	-2.6604	-2.7729	-2.0708	-2.8438	-2.4396	-2.2479	-2.7375	-2	-2.5563	-2.75	-1.7958	-72.389	-28.344	-136.197	176.222	106.111	12.595	91.485	160.889	-167.846	-41.908	-162.581	-76.894	-174.024	-93.374	9.133	104.685	0.0015474	0.00060703	0.0001266	1249.3	2.0632e-06	4.4509e-07	1257	347.25	5.4967e-06	6.7185e-06	393.92	132.63	114.46	39.804	2.4779e-06	49.202	0.00043034	0.00045018	0.00011688	1260.4	4.6657e-06	4.8403e-06	1270.9	349.29	4.6674e-06	4.8185e-06	395.84	132.74	113.48	40.213	4.492e-06	49.436	79.483	-86.808	-102.666	-163.675	-163.006	-4.751	-163.782	-158.655	-88.951	-47.452	-159.579	-155.688	-155.804	-150.262	-113.325	-151.633	-8191	255	
1254.652	1	1	0	0	0.248	0.061914	0.14913	0.29654	0.16232	0.14566	0.11491	0.25881	0.1669	0.11808	0.30671	0.027555	0.21713	0.17981	0.069623	0.24501	-2.3292	-2.2542	-2.0667	-2.8563	-1.8604	-2.4583	-2.9188	-1.9	-2.6167	-2.4229	-2.2188	-2.6937	-2.0479	-2.4062	-2.775	-2.0229	-133.840	22.012	-149.762	-108.636	-145.642	-31.232	56.552	171.675	-153.359	28.226	149.128	-40.611	166.612	160.478	16.116	78.386	0.0015618	0.00057223	0.00027637	1247.7	3.58e-06	4.8931e-06	1262.3	348.32	9.7268e-06	5.6914e-06	395.16	133	114.51	39.572	4.2348e-06	49.107	0.00043217	0.00042699	0.00011118	1258.2	4.6943e-06	4.5247e-06	1267.7	348.67	4.6576e-06	4.5382e-06	394.66	132.71	113.22	39.994	4.2287e-06	49.529	70.169	-80.727	-50.138	-164.060	-144.311	5.911	-164.285	-159.357	-104.342	19.214	-159.852	-155.855	-156.023	-150.341	-144.522	-151.409	-8191	255	
1254.748	1	1	0	0	0.17594	0.12267	0.33078	0.18159	0.19518	0.17897	0.17103	0.20478	0.1325	0.13163	0.18807	0.20909	0.17797	0.21351	0.20851	0.14235	-2.1937	-2.2604	-1.9646	-2.9167	-2.1354	-2.325	-2.9104	-1.8375	-2.4875	-2.4479	-2.1458	-2.8917	-2.0271	-2.3208	-2.7271	-2.1271	-157.659	8.605	146.855	95.414	-22.079	-44.798	143.944	-77.887	-100.235	110.043	89.482	164.914	-2.205	163.775	27.104	154.276	0.0016061	0.00052877	0.00018643	1248.5	1.1312e-05	3.3858e-06	1260.9	347.39	9.4099e-06	5.3839e-06	396.47	132.66	115.16	39.581	3.2373e-06	49.081	0.00042875	0.00040381	0.00010429	1258.4	4.6136e-06	4.3454e-06	1264.3	349.06	4.616e-06	4.3761e-06	393.71	133	113.49	40.005	4.1568e-06	49.663	61.847	-82.580	-92.965	-164.040	-74.405	-81.762	-164.094	-159.560	-124.017	-73.861	-159.638	-155.805	-155.980	-150.295	-57.946	-151.453	-8191	255	
1254.844	1	1	0	0	0.080965	0.093334	0.38164	0.2876	0.1111	0.094036	0.27678	0.19663	0.26721	0.18854	0.13998	0.118	0.27967	0.14276	0.093451	0.27084	-2.1667	-2.6125	-1.9667	-2.95	-2.2375	-2.1167	-3.0667	-2.125	-2.3292	-2.7167	-1.8542	-2.7896	-2.325	-2.1688	-2.7687	-2.0958	-164.600	78.723	57.277	-171.250	-93.926	-42.871	181.794	-30.313	-29.706	156.528	72.608	159.638	-135.734	165.961	-156.852	60.074	0.0014403	0.00056337	9.6769e-05	1246.6	8.8963e-06	7.6621e-06	1261.4	346.72	4.1994e-06	4.4061e-06	393.15	131.67	115.11	39.424	4.0246e-06	49.117	0.00043176	0.00040558	0.00010373	1261	4.6946e-06	4.3515e-06	1266.2	350.09	4.6569e-06	4.4417e-06	393.43	133.43	113.54	39.96	4.2164e-06	49.936	67.597	-89.313	-109.521	-163.896	-5.806	-3.175	-164.072	-159.233	-38.944	-52.355	-159.918	-155.827	-155.686	-149.986	-0.750	-151.142	-8191	255	
1254.965	1	1	0	0	0.28185	0.31511	0.19332	0.24862	0.092756	0.23535	0.22218	0.27811	0.1181	0.10945	0.15638	0.32857	0.19666	0.13595	0.12809	0.34411	-1.9875	-2.6167	-1.8813	-2.8542	-2.2458	-1.9854	-2.9021	-2.2333	-2.3604	-2.6625	-2.0854	-2.7083	-2.4708	-2.0542	-2.7375	-1.9375	-81.974	98.195	-46.203	145.956	95.259	165.303	153.853	165.888	-62.883	173.356	176.561	94.617	139.485	-81.656	-28.609	145.012	0.0017248	0.00059096	7.3903e-05	1240.9	7.2864e-06	3.0221e-06	1257.8	348.29	6.4344e-06	4.3884e-06	394.42	133.02	115.51	39.616	5.674e-06	49.025	0.00043144	0.00040366	0.00010636	1262.5	4.6863e-06	4.3572e-06	1265.5	350.63	4.6233e-06	4.4011e-06	394.86	133.77	113.1	39.868	4.4108e-06	50.073	75.242	-148.307	107.547	-163.929	-52.290	-66.125	-164.184	-159.226	-9.159	177.710	-159.427	-155.445	-155.502	-149.994	-121.586	-151.311	-8191	255	
1255.060	1	1	0	0	0.084962	0.20587	0.20077	0.084018	0.21871	0.15966	0.17667	0.06993	0.18903	0.11837	0.26581	0.075309	0.04355	0.14858	0.047886	0.24795	-1.7271	-2.7521	-1.9312	-2.95	-2.4125	-2.0104	-2.9771	-2.2021	-2.2479	-2.6583	-2.0521	-2.6458	-2.4646	-2.2896	-2.8	-2.5333	149.690	-43.110	124.204	109.154	-103.647	-143.760	71.825	153.121	-70.165	-39.026	157.314	141.039	-89.795	-172.710	163.882	76.681	0.0012874	0.00060806	3.3294e-05	1250.4	4.8581e-06	7.8911e-06	1260.1	345.51	5.1771e-06	2.12e-06	392.74	132.38	113.98	39.423	3.9579e-06	48.993	0.00042111	0.00039415	0.00011165	1262.7	4.5653e-06	4.1893e-06	1267.2	349.85	4.4732e-06	4.202e-06	395.77	133.44	112.65	39.732	4.5289e-06	49.835	70.622	-78.876	-90.005	-163.602	-71.680	-10.434	-164.118	-159.171	-99.362	-72.685	-159.368	-155.299	-155.499	-150.107	-117.357	-151.010	-8191	255	
1255.156	1	1	0	0	0.11594	0.22927	0.09548	0.29136	0.14244	0.22638	0.23713	0.21877	0.14096	0.082427	0.07047	0.070247	0.23212	0.087477	0.079808	0.052943	-1.7313	-2.7396	-2.0375	-2.5687	-2.6063	-1.9854	-2.8187	-2.3063	-2.1708	-2.9104	-1.9688	-2.3521	-2.6854	-2.1583	-2.6813	-2.5479	-129.744	-157.703	-120.876	70.728	175.289	-122.481	131.641	31.467	-9.226	83.121	-150.053	-156.991	159.122	-89.435	-101.770	93.100	0.0015581	0.00059976	9.4198e-05	1248.2	7.4569e-06	4.6546e-06	1259.9	345.91	2.8436e-06	5.0542e-06	392.65	132.1	114.17	39.341	3.5813e-06	49.056	0.00040888	0.00037812	0.00011576	1261.5	4.4462e-06	4.1272e-06	1270	349.72	4.3553e-06	4.1318e-06	396.19	133.12	112.21	39.721	4.6292e-06	49.742	80.762	77.516	-126.249	-163.401	-41.855	-153.789	-163.907	-159.147	-49.841	-115.934	-159.601	-155.163	-155.468	-149.626	-59.124	-150.908	-8191	255	
1255.252	1	1	0	0	0.16643	0.17645	0.13738	0.29539	0.11741	0.12262	0.13041	0.28437	0.18805	0.12659	0.31447	0.031463	0.13993	0.2515	0.041819	0.086783	-1.7125	-2.8375	-2.1896	-2.35	-2.8042	-1.8854	-2.6833	-2.5479	-1.9833	-2.8229	-2.0792	-2.3875	-2.7271	-1.9729	-2.7188	-2.6875	21.598	116.698	57.861	141.847	-28.678	-21.263	141.096	143.459	35.690	152.698	112.578	-75.264	-164.733	23.493	-22.743	-141.077	0.00149	0.00053054	5.6608e-05	1249.9	1.5334e-06	3.7217e-06	1251.3	345.32	2.9427e-06	7.7361e-06	395.07	131.61	114.61	39.631	4.5821e-06	49.143	0.00039857	0.00038298	0.00011936	1259.1	4.2703e-06	4.2008e-06	1267.8	349.01	4.2044e-06	4.2719e-06	397.98	132.79	111.81	39.888	4.6848e-06	49.728	76.820	-166.938	-17.557	-163.238	-80.184	141.358	-163.921	-159.050	148.665	-106.319	-159.441	-155.263	-155.676	-150.348	44.564	-151.122	-8191	255	
1255.348	1	1	0	0	0.2824	0.2194	0.26593	0.19093	0.23175	0.1171	0.21545	0.30058	0.2612	0.32043	0.20271	0.2326	0.12305	0.033364	0.1089	0.17606	-1.5167	-2.6292	-2.0271	-2.3354	-2.7083	-2.0229	-2.6729	-2.6146	-1.8729	-2.8479	-2.2708	-2.1771	-2.7604	-2.0875	-2.5687	-2.7042	20.316	-60.056	-119.937	-172.350	-42.915	-50.531	138.051	138.618	76.206	180.181	-152.629	147.030	-165.610	-23.232	-116.440	11.708	0.0014925	0.00038043	0.0001834	1247.8	8.1186e-06	4.6433e-06	1254.3	347.13	7.1363e-06	4.0215e-06	393.35	132.79	115	39.531	3.0505e-06	49.202	0.00038543	0.00039935	0.00011811	1256.4	4.1404e-06	4.3917e-06	1267.5	349.02	4.0737e-06	4.415e-06	396.38	132.92	111.52	40.058	4.5564e-06	49.627	74.218	-115.053	-141.739	-163.486	-91.810	-58.926	-164.174	-159.325	-109.216	17.589	-159.758	-155.467	-155.594	-149.771	17.873	-151.168	-8191	255	
1255.444	1	1	0	0	0.062906	0.2789	0.24642	0.085747	0.17872	0.1578	0.17388	0.30454	0.1381	0.17455	0.17276	0.25445	0.37835	0.10429	0.22018	0.067555	-1.5063	-2.7604	-2.1583	-2.1104	-2.7	-2.0333	-2.7396	-2.8729	-1.8771	-2.5375	-2.4917	-2.0917	-2.6792	-2.1	-2.2333	-2.7729	119.081	-169.847	-82.288	-104.577	2.178	48.125	181.990	-174.976	-121.953	-134.327	108.861	-163.793	88.516	47.850	-80.534	-172.046	0.0017871	0.00030633	0.00027051	1252.7	1.3485e-06	2.116e-06	1259.7	347.71	4.7304e-06	4.4468e-06	394.12	132.72	114.78	39.615	6.8893e-06	49	0.00038299	0.00041364	0.00011652	1257.9	4.1562e-06	4.6142e-06	1267.4	348.71	4.1731e-06	4.6144e-06	396.13	132.71	111.94	40.094	4.4444e-06	49.456	78.729	-158.665	-124.676	-163.625	-91.811	-124.170	-163.592	-159.008	-157.240	142.552	-159.529	-155.004	-155.559	-149.866	-51.840	-150.751	-8191	255	
1255.540	1	1	0	0	0.22275	0.06783	0.23375	0.23529	0.13781	0.17924	0.1214	0.33764	0.13586	0.13626	0.11281	0.31223	0.19863	0.17869	0.23603	0.2716	-1.5583	-2.6542	-2.3542	-2.0458	-2.7271	-1.9542	-2.4813	-2.9375	-2.0312	-2.75	-2.6937	-1.9937	-2.7146	-2.1604	-2.3083	-2.9417	70.314	-36.501	-39.974	170.555	-82.346	-69.738	-174.107	120.280	88.534	59.213	158.751	155.349	107.452	35.694	111.521	116.378	0.0014346	1.3138e-05	0.00017734	1252.6	5.7128e-06	1.3534e-06	1262.2	348.14	1.5811e-06	1.0721e-05	396.59	133.29	116.04	39.56	6.9953e-06	48.953	0.00039088	0.00042491	0.00011356	1257.6	4.2655e-06	4.673e-06	1268.3	348.58	4.3368e-06	4.6631e-06	396.03	132.69	112.71	40.091	4.3954e-06	49.339	59.269	-160.750	-115.340	-163.233	-150.514	37.491	-163.490	-158.281	-56.026	-18.567	-158.456	-154.663	-155.000	-149.381	-37.392	-150.609	-8191	255	
#DATA ENDS
