BOXY.EXE: ISS Imagent and Oximeter Data Acquisition Program Version 0.80
Ascii Record File

#ACQ INFORMATION
2  Detector Channels 
16  External MUX Channels 
1  Auxiliary Channels 
5000  Waveform (CCF) Frequency (Hz)
1  Waveforms Skipped 
30  Waveforms Averaged 
1  Cycles Averaged 
16  Acquisitions per Waveform 
10.0806  Updata Rate (Hz) 

#FILE INFORMATION
TRUE -- External MUX Channel results are PARSED.
FALSE -- AC DC and Phase are NOT grouped.
TRUE -- Companion Program Settings File CREATED.
FALSE -- AC data not excluded
FALSE -- DC data not excluded
FALSE -- Phase data not excluded
FALSE -- Auxillary Chn. data not excluded
Tab delimiters

#CALIBRATION STATE
TRUE -- Waveform Calibration Values APPLIED.


#AUX CALIBRATION VALUES
Val Type	aux-1	

Term	1.0000e+00	
Factor	0.0000e+00	


#WF CALIBRATION VALUES
A = Detector Channel
Val Type	A-AC1	A-AC2	A-AC3	A-AC4	A-AC5	A-AC6	A-AC7	A-AC8	A-AC9	A-AC10	A-AC11	A-AC12	A-AC13	A-AC14	A-AC15	A-AC16	A-DC1	A-DC2	A-DC3	A-DC4	A-DC5	A-DC6	A-DC7	A-DC8	A-DC9	A-DC10	A-DC11	A-DC12	A-DC13	A-DC14	A-DC15	A-DC16	A-Ph1	A-Ph2	A-Ph3	A-Ph4	A-Ph5	A-Ph6	A-Ph7	A-Ph8	A-Ph9	A-Ph10	A-Ph11	A-Ph12	A-Ph13	A-Ph14	A-Ph15	A-Ph16	

Term	0.00000e+00	0.00000e+00	0.00000e+00	0.00000e+00	0.00000e+00	0.00000e+00	0.00000e+00	0.00000e+00	0.00000e+00	0.00000e+00	0.00000e+00	0.00000e+00	0.00000e+00	0.00000e+00	0.00000e+00	0.00000e+00	0.00000e+00	0.00000e+00	0.00000e+00	0.00000e+00	0.00000e+00	0.00000e+00	0.00000e+00	0.00000e+00	0.00000e+00	0.00000e+00	0.00000e+00	0.00000e+00	0.00000e+00	0.00000e+00	0.00000e+00	0.00000e+00	0.00000e+00	0.00000e+00	0.00000e+00	0.00000e+00	0.00000e+00	0.00000e+00	0.00000e+00	0.00000e+00	0.00000e+00	0.00000e+00	0.00000e+00	0.00000e+00	0.00000e+00	0.00000e+00	0.00000e+00	0.00000e+00	
Factor	1.00000e+00	1.00000e+00	1.00000e+00	1.00000e+00	1.00000e+00	1.00000e+00	1.00000e+00	1.00000e+00	1.00000e+00	1.00000e+00	1.00000e+00	1.00000e+00	1.00000e+00	1.00000e+00	1.00000e+00	1.00000e+00	1.00000e+00	1.00000e+00	1.00000e+00	1.00000e+00	1.00000e+00	1.00000e+00	1.00000e+00	1.00000e+00	1.00000e+00	1.00000e+00	1.00000e+00	1.00000e+00	1.00000e+00	1.00000e+00	1.00000e+00	1.00000e+00	X	X	X	X	X	X	X	X	X	X	X	X	X	X	X	X	

B = Detector Channel
Val Type	B-AC1	B-AC2	B-AC3	B-AC4	B-AC5	B-AC6	B-AC7	B-AC8	B-AC9	B-AC10	B-AC11	B-AC12	B-AC13	B-AC14	B-AC15	B-AC16	B-DC1	B-DC2	B-DC3	B-DC4	B-DC5	B-DC6	B-DC7	B-DC8	B-DC9	B-DC10	B-DC11	B-DC12	B-DC13	B-DC14	B-DC15	B-DC16	B-Ph1	B-Ph2	B-Ph3	B-Ph4	B-Ph5	B-Ph6	B-Ph7	B-Ph8	B-Ph9	B-Ph10	B-Ph11	B-Ph12	B-Ph13	B-Ph14	B-Ph15	B-Ph16	

Term	0.00000e+00	0.00000e+00	0.00000e+00	0.00000e+00	0.00000e+00	0.00000e+00	0.00000e+00	0.00000e+00	0.00000e+00	0.00000e+00	0.00000e+00	0.00000e+00	0.00000e+00	0.00000e+00	0.00000e+00	0.00000e+00	0.00000e+00	0.00000e+00	0.00000e+00	0.00000e+00	0.00000e+00	0.00000e+00	0.00000e+00	0.00000e+00	0.00000e+00	0.00000e+00	0.00000e+00	0.00000e+00	0.00000e+00	0.00000e+00	0.00000e+00	0.00000e+00	-1.51084e+02	-1.28834e+02	-1.28025e+02	-1.86409e+02	-7.68898e+01	-6.93831e+01	-1.58531e+02	-1.62015e+02	-7.47914e+01	-6.79359e+01	-1.72014e+02	-1.71423e+02	-1.83400e+02	-1.77421e+02	-7.05656e+01	-1.49763e+02	
Factor	2.11876e-05	1.39541e-04	4.21210e-05	2.80485e-01	1.28048e-06	1.60148e-06	1.54187e-01	4.54447e-02	1.08396e-06	1.57593e-06	7.46426e-02	2.54121e-02	3.58899e-02	8.15869e-03	1.32146e-06	1.15051e-02	9.79520e-06	1.44465e-05	4.03494e-06	1.49735e-01	1.53051e-07	1.61647e-07	7.78450e-02	2.45314e-02	1.47844e-07	1.59374e-07	3.90137e-02	1.33397e-02	1.96024e-02	4.44578e-03	1.52412e-07	6.08456e-03	X	X	X	X	X	X	X	X	X	X	X	X	X	X	X	X	



#DISTANCE SETTINGS
A = Detector Channel
A-1	A-2	A-3	A-4	A-5	A-6	A-7	A-8	A-9	A-10	A-11	A-12	A-13	A-14	A-15	A-16	

2.5000e+00	3.0000e+00	2.5000e+00	3.0000e+00	2.0000e+00	3.0000e+00	1.5000e+00	3.0000e+00	3.0000e+00	3.0000e+00	3.0000e+00	3.0000e+00	3.0000e+00	3.0000e+00	1.5000e+00	3.0000e+00	

B = Detector Channel
B-1	B-2	B-3	B-4	B-5	B-6	B-7	B-8	B-9	B-10	B-11	B-12	B-13	B-14	B-15	B-16	

1.0000e+01	1.0000e+01	1.0000e+01	1.4400e+00	1.0000e+01	1.0000e+01	1.5100e+00	1.9400e+00	1.0000e+01	1.0000e+01	1.9900e+00	2.4900e+00	2.4100e+00	2.9000e+00	1.0000e+01	2.9800e+00	




#DATA BEGINS
time	group	step	mark	flag	A-AC1	A-AC2	A-AC3	A-AC4	A-AC5	A-AC6	A-AC7	A-AC8	A-AC9	A-AC10	A-AC11	A-AC12	A-AC13	A-AC14	A-AC15	A-AC16	A-DC1	A-DC2	A-DC3	A-DC4	A-DC5	A-DC6	A-DC7	A-DC8	A-DC9	A-DC10	A-DC11	A-DC12	A-DC13	A-DC14	A-DC15	A-DC16	A-Ph1	A-Ph2	A-Ph3	A-Ph4	A-Ph5	A-Ph6	A-Ph7	A-Ph8	A-Ph9	A-Ph10	A-Ph11	A-Ph12	A-Ph13	A-Ph14	A-Ph15	A-Ph16	B-AC1	B-AC2	B-AC3	B-AC4	B-AC5	B-AC6	B-AC7	B-AC8	B-AC9	B-AC10	B-AC11	B-AC12	B-AC13	B-AC14	B-AC15	B-AC16	B-DC1	B-DC2	B-DC3	B-DC4	B-DC5	B-DC6	B-DC7	B-DC8	B-DC9	B-DC10	B-DC11	B-DC12	B-DC13	B-DC14	B-DC15	B-DC16	B-Ph1	B-Ph2	B-Ph3	B-Ph4	B-Ph5	B-Ph6	B-Ph7	B-Ph8	B-Ph9	B-Ph10	B-Ph11	B-Ph12	B-Ph13	B-Ph14	B-Ph15	B-Ph16	aux-1	digaux	

29147.961	1	1	0	256	0.19015	0.21825	0.12883	0.14097	0.31299	0.02895	0.12527	0.10429	0.11754	0.31328	0.091268	0.21326	0.16151	0.047894	0.10359	0.22749	-1.6375	-2.9542	-2.3042	-2.2625	-2.6562	-1.9896	-2.7792	-2.8187	-2.0271	-2.8563	-2.5104	-2.1417	-2.95	-2.1688	-2.475	-2.8187	424.406	238.868	200.116	414.033	169.547	411.701	435.540	273.407	173.570	430.260	423.762	500.824	438.724	338.586	200.292	434.741	0.00032695	0.00049463	9.6443e-05	1013.5	3.1498e-06	1.2414e-06	1125.4	207.98	2.4534e-06	2.2289e-06	271.14	77.088	59.42	16.784	6.1837e-06	23.546	0.00042346	0.00045437	0.00012925	1001.5	5.1288e-06	5.4165e-06	1117.5	207.65	5.4379e-06	5.4147e-06	270.95	77.77	60.074	16.972	5.4363e-06	24.218	176.679	220.917	220.708	156.585	301.791	283.968	156.437	163.873	259.195	240.692	163.544	170.309	170.284	178.184	288.188	177.577	-8191	255	
29148.057	1	1	0	0	0.22378	0.094736	0.11668	0.094099	0.27804	0.25032	0.30426	0.19117	0.20957	0.2912	0.37206	0.24598	0.154	0.32138	0.028916	0.14815	-1.5771	-2.8042	-2.3396	-2.2604	-2.9542	-2.1646	-2.7562	-2.8854	-2.0187	-2.7167	-2.4854	-2.1771	-2.9792	-2.2917	-2.4583	-3.0438	448.571	290.753	390.647	277.974	338.156	436.121	453.779	428.330	279.184	495.406	503.199	503.525	186.242	160.639	176.563	267.316	0.00031812	0.00043181	0.00010754	1018.5	3.7678e-06	3.0705e-06	1134.2	209	3.9825e-06	3.5562e-06	271.68	77.398	60.198	16.661	3.8413e-06	23.621	0.00045164	0.00050987	0.00014946	1007.6	5.6463e-06	5.8001e-06	1124	208.77	5.6757e-06	5.9706e-06	272.05	78.041	60.327	17.094	5.7812e-06	24.245	168.434	236.450	194.191	156.507	297.542	266.044	156.604	163.704	252.681	287.807	163.591	170.511	170.846	177.721	303.932	177.518	-8191	255	
29148.154	1	1	0	0	0.20339	0.096027	0.24249	0.45428	0.36387	0.22416	0.34914	0.025153	0.10973	0.096558	0.13628	0.1186	0.22215	0.062793	0.1927	0.20477	-1.7229	-2.8	-2.5938	-2.2687	-2.9771	-2.2771	-2.5229	-2.9562	-2.1312	-2.7125	-2.8812	-2.2667	-2.7417	-2.4771	-2.35	-3.0438	146.638	231.781	450.212	450.720	487.678	438.345	414.085	150.044	313.520	466.039	428.422	341.090	491.974	435.662	261.563	366.120	0.00033224	0.0001496	8.9124e-05	1023.7	3.3497e-06	4.6484e-06	1135.5	209.6	2.7614e-06	4.7412e-06	272.55	78.017	59.723	16.592	8.0543e-07	23.846	0.00045605	0.00051138	0.00014314	1009.1	5.7419e-06	6.089e-06	1125.6	208.51	5.3751e-06	5.5914e-06	272.31	78.037	60.27	17.025	5.5062e-06	24.364	167.831	236.958	240.178	156.407	283.287	325.500	156.437	163.555	262.724	292.623	163.422	169.985	170.626	178.006	387.217	177.469	-8191	255	
29148.252	1	1	0	0	0.2243	0.23224	0.21661	0.13564	0.11493	0.34155	0.19045	0.26237	0.079731	0.24273	0.28218	0.16475	0.20475	0.123	0.11765	0.12687	-1.7708	-2.5167	-2.6729	-2.1583	-2.9167	-2.4188	-2.3458	-3.0458	-2.15	-2.5771	-2.9188	-2.1979	-2.8083	-2.5667	-2.2542	-3.1083	360.091	349.482	239.072	431.064	340.454	175.402	390.839	419.321	429.605	482.090	150.562	180.310	241.214	302.660	418.997	484.778	0.00031515	0.00045123	6.5134e-05	1022.7	3.331e-06	1.3572e-06	1134.7	209.67	1.9267e-06	2.842e-06	271.82	77.786	59.709	16.851	4.913e-06	23.81	0.00043527	0.00050677	0.00013682	1008.3	5.2382e-06	5.3633e-06	1123.8	208.65	5.445e-06	5.1325e-06	271.92	78.058	60.053	17.072	5.4786e-06	24.295	167.608	235.414	235.610	156.746	230.539	217.046	156.387	163.690	275.351	334.867	163.574	170.175	169.872	178.732	275.211	177.328	-8191	255	
29148.346	1	1	0	0	0.34026	0.11826	0.31971	0.18449	0.098049	0.16793	0.099992	0.17173	0.23645	0.037071	0.1099	0.096252	0.045198	0.12737	0.18291	0.1196	-1.9771	-2.4854	-2.8	-2.1437	-2.8187	-2.5771	-2.4083	-2.9875	-1.9708	-2.3458	-2.9333	-2.1146	-2.7687	-2.575	-2.2417	-2.8917	411.816	309.748	449.883	414.541	150.669	493.844	418.180	482.601	459.542	391.107	211.864	344.539	381.587	181.180	457.018	367.938	0.00030171	0.00043973	0.00011012	1017	4.6116e-06	2.1516e-06	1133.3	209.87	3.3122e-06	3.5293e-06	272.5	77.046	59.373	16.762	2.5684e-06	23.736	0.00044784	0.00048582	0.00014122	1006.3	5.2445e-06	5.4792e-06	1122.9	208.67	5.3169e-06	5.7092e-06	272.45	77.785	59.928	16.986	5.7085e-06	24.297	169.676	252.635	222.080	156.814	247.445	320.236	156.485	164.099	248.413	283.629	163.627	170.438	170.639	178.178	279.386	177.313	-8191	255	
29148.441	1	1	0	0	0.10061	0.18407	0.21224	0.13964	0.16702	0.15599	0.30728	0.34994	0.13098	0.15409	0.11681	0.19938	0.1831	0.4075	0.22883	0.24369	-1.8875	-2.1312	-2.9104	-1.9917	-2.625	-2.5854	-2.3354	-2.9271	-2.4646	-2.2896	-2.9729	-2.1979	-2.7458	-2.9104	-2.1229	-2.9	150.397	238.062	156.203	351.352	497.727	311.449	438.804	469.323	245.418	488.412	488.332	491.621	390.722	465.405	462.557	470.469	0.00030889	0.00030024	4.3699e-05	1012.2	3.3276e-06	2.824e-06	1130.1	208.83	2.9607e-06	9.3334e-07	273.05	77.24	59.773	16.732	2.5103e-06	23.688	0.0004354	0.00053118	0.00013421	1006	5.4757e-06	5.8038e-06	1121.1	208.31	5.4983e-06	5.4815e-06	272.21	77.856	60.255	17.018	5.4611e-06	24.305	182.227	277.195	308.367	156.503	258.851	286.281	156.352	164.113	297.525	348.034	163.436	169.510	169.949	178.391	303.396	177.717	-8191	255	
29148.562	1	1	0	0	0.14568	0.26142	0.1346	0.22962	0.20678	0.2017	0.3403	0.067297	0.38587	0.050945	0.14128	0.20374	0.15259	0.22284	0.082262	0.31033	-2.0062	-2.1771	-2.8646	-2.2708	-2.4979	-2.7021	-2.1	-2.9646	-2.4021	-2.2125	-2.9479	-2.5458	-2.4688	-2.8646	-2.0917	-3.0312	273.468	250.700	366.903	444.700	368.758	315.695	468.374	430.006	479.169	417.710	452.937	479.276	189.955	428.518	412.931	160.820	0.000328	0.00017208	1.6549e-05	1018.1	1.4199e-06	2.2778e-06	1130.2	209.03	2.7968e-06	8.9162e-07	272.79	76.883	59.831	16.738	2.2307e-06	23.593	0.0004436	0.00051116	0.00012737	1005.3	5.3564e-06	5.3542e-06	1121	208.1	5.38e-06	5.3961e-06	271.84	77.58	60.039	17.009	5.3252e-06	24.227	169.038	207.478	301.024	156.722	300.043	287.679	156.654	164.016	240.301	252.022	164.153	170.121	170.292	178.296	320.477	177.948	-8191	255	
29148.658	1	1	0	0	0.4334	0.063408	0.17786	0.19273	0.16762	0.080411	0.36731	0.04471	0.16914	0.10418	0.1272	0.17934	0.047565	0.11747	0.17717	0.11198	-2.1688	-2.2313	-2.9583	-2.3375	-2.6	-3.1625	-2.3521	-2.7333	-2.5375	-2.0187	-3.0208	-2.3896	-2.3729	-3.0583	-2.0917	-2.6958	240.654	219.066	325.934	313.099	157.871	225.882	464.803	376.281	231.283	373.340	151.452	493.293	447.670	262.160	231.776	282.168	0.00032912	0.00032551	9.2792e-05	1020.7	2.4619e-06	1.4603e-06	1133.9	208.88	2.44e-06	2.7856e-06	272.63	77.163	59.716	16.716	2.934e-06	23.791	0.00044887	0.00050695	0.00013645	1008.6	5.7942e-06	5.6449e-06	1124.4	208.84	5.5208e-06	5.6173e-06	272.24	77.786	60.146	17.045	5.4878e-06	24.322	176.216	232.573	267.442	156.702	248.710	353.132	156.458	164.075	256.491	223.947	163.834	170.185	170.411	178.114	267.939	177.086	-8191	255	
29148.756	1	1	0	0	0.056545	0.11955	0.13023	0.081852	0.19036	0.13711	0.48711	0.24901	0.19186	0.12433	0.24112	0.11125	0.14347	0.057509	0.19657	0.11355	-2.3917	-1.9604	-2.825	-2.3708	-2.3083	-2.8271	-2.3104	-2.6125	-2.6688	-2.0812	-2.8646	-2.3292	-2.0979	-2.9333	-2.2667	-2.525	157.357	432.354	156.844	453.692	265.854	441.096	437.472	484.406	179.071	470.370	445.506	450.641	194.647	407.548	253.560	153.276	0.00028856	0.00031656	9.6422e-05	1022.8	2.1461e-07	3.3785e-06	1135.3	208.72	2.7999e-06	5.3491e-06	272.45	77.056	59.901	16.685	3.2303e-06	23.829	0.00044915	0.00052609	0.00014237	1010.1	5.711e-06	5.662e-06	1125.5	208.72	5.7641e-06	5.7378e-06	272.42	77.911	60.104	17.038	5.7427e-06	24.332	170.257	263.073	254.466	156.441	298.489	318.468	156.415	164.039	258.974	253.148	163.694	169.894	169.880	178.273	301.663	178.168	-8191	255	
29148.852	1	1	0	0	0.10989	0.086586	0.16202	0.11728	0.13195	0.12916	0.14427	0.069252	0.07225	0.10897	0.18871	0.1185	0.10875	0.1248	0.016277	0.23743	-2.6146	-2.2062	-2.8333	-2.6333	-2.3104	-2.9229	-2.4479	-2.3479	-2.8042	-1.9042	-2.85	-2.5687	-2.1708	-2.8479	-2.4854	-2.3688	189.789	199.385	253.778	417.126	294.857	249.369	421.803	480.358	212.773	331.765	500.358	375.186	428.940	198.151	501.232	346.328	0.0003011	0.0003162	0.00010728	1018.3	1.8348e-06	3.8562e-06	1133.7	209.69	2.9816e-06	4.6834e-06	271.22	78.02	59.75	16.814	2.5139e-06	23.737	0.0004715	0.00052501	0.00014025	1007.5	5.66e-06	5.7304e-06	1124.9	208.77	5.5472e-06	5.7461e-06	272.66	78.088	60.326	17.083	5.6526e-06	24.369	175.877	250.068	265.116	156.526	292.648	296.278	156.266	164.239	278.405	270.632	163.949	170.206	170.627	178.291	264.128	177.746	-8191	255	
29148.947	1	1	0	0	0.29289	0.3718	0.13453	0.21549	0.093249	0.15798	0.32567	0.38312	0.2488	0.091678	0.023161	0.23326	0.26055	0.11231	0.016068	0.09018	-2.5938	-2.1083	-2.6521	-2.825	-2.1708	-2.8812	-2.6479	-2.3625	-2.925	-2.1	-2.7625	-2.75	-2.1104	-2.9042	-2.4437	-2.3417	150.838	461.382	437.462	472.336	445.935	388.932	434.778	429.368	333.152	295.731	430.815	436.468	448.374	237.091	234.414	496.320	0.0003317	0.00029183	0.00011784	1025.9	2.8289e-06	4.6517e-06	1138.3	210.07	3.137e-06	4.0137e-06	273.49	77.015	60.009	16.711	2.1394e-06	23.688	0.00046019	0.00052347	0.00014987	1010.2	5.9266e-06	5.66e-06	1127.1	208.91	5.5799e-06	5.7989e-06	272.81	77.681	60.245	17.016	5.4948e-06	24.273	174.973	216.281	255.624	156.467	276.777	339.302	156.402	164.014	251.266	286.340	164.075	170.064	170.063	178.656	309.009	177.628	-8191	255	
29149.043	1	1	0	0	0.24225	0.071664	0.069383	0.23775	0.14017	0.073511	0.13115	0.40327	0.3837	0.10922	0.21818	0.12611	0.27566	0.18625	0.23324	0.17983	-2.4604	-2.2083	-2.2771	-2.8125	-2.1562	-2.9042	-2.7542	-2.2896	-2.7062	-2.2188	-2.5417	-2.8875	-2.2687	-2.8042	-2.5292	-2.2438	202.864	211.704	173.232	485.265	276.011	237.855	219.749	477.051	254.110	289.984	184.721	244.933	506.153	208.362	480.977	240.548	0.00029502	0.00035384	4.4904e-05	1019.7	2.0129e-06	3.5406e-06	1140.9	209.22	3.2968e-06	3.4036e-06	273.37	77.468	59.537	16.834	3.7804e-06	23.81	0.00044933	0.00053335	0.00014295	1009.5	5.7324e-06	5.6162e-06	1127.6	208.74	5.4659e-06	5.7537e-06	272.83	77.92	60.047	17.101	5.5697e-06	24.35	173.538	203.041	232.976	156.551	254.327	326.209	156.483	164.308	297.449	299.699	163.666	169.861	170.088	179.003	252.491	177.873	-8191	255	
29149.139	1	1	0	0	0.11626	0.283	0.16112	0.22297	0.037213	0.18745	0.48025	0.20877	0.17144	0.2479	0.13743	0.1011	0.13035	0.1394	0.031408	0.099218	-2.5146	-2.2229	-2.4833	-2.8646	-1.8792	-2.7458	-2.7208	-2.1875	-2.875	-2.3438	-2.3187	-3.0938	-2	-2.6833	-2.6271	-2.0229	450.816	419.290	237.732	179.295	247.209	366.319	491.441	389.036	376.526	184.605	472.574	406.307	202.280	227.378	353.883	246.977	0.0003515	0.00045862	5.789e-05	1025.3	4.7128e-06	2.6473e-06	1135.7	209.67	1.1745e-06	1.2781e-06	273.48	77.738	60.09	16.786	5.5862e-06	23.771	0.00043709	0.00051998	0.00014363	1007.8	5.8341e-06	5.7826e-06	1127.4	208.67	5.6926e-06	6.0094e-06	273.16	78.053	60.478	17.092	5.678e-06	24.349	170.252	260.631	234.316	156.662	283.052	298.918	156.735	164.224	263.118	279.091	164.068	170.264	170.337	178.455	295.256	178.098	-8191	255	
29149.258	1	1	0	0	0.15035	0.16506	0.12282	0.19483	0.21786	0.15381	0.27059	0.22832	0.18332	0.14625	0.12132	0.30088	0.46677	0.054142	0.14127	0.15905	-2.4458	-2.2562	-2.1813	-2.8417	-2.1021	-2.5438	-2.8479	-2.0625	-2.8792	-2.5333	-2.4271	-2.8937	-2.2417	-2.6437	-2.725	-2.2667	368.356	306.219	430.608	259.409	318.619	180.075	418.901	442.713	238.430	407.125	154.345	378.573	490.727	417.036	310.737	457.860	0.00032123	0.00011192	0.00011261	1028.7	1.8363e-06	6.3928e-07	1137.4	209.59	2.3673e-06	2.5944e-06	273.51	77.768	60.012	16.874	3.6781e-06	23.835	0.00046495	0.00053804	0.00015461	1015.3	5.9747e-06	6.0368e-06	1128.2	208.95	5.8817e-06	5.9456e-06	272.94	78.243	60.394	17.077	5.7812e-06	24.396	172.631	274.495	224.110	157.151	293.888	227.018	156.697	164.344	284.111	263.631	163.768	170.221	170.372	178.828	287.331	177.833	-8191	255	
29149.354	1	1	0	0	0.24117	0.17664	0.14665	0.088407	0.38994	0.069033	0.1997	0.15809	0.15926	0.10105	0.32078	0.29785	0.070078	0.11719	0.21973	0.14697	-2.5104	-2.6521	-2.1354	-3.0292	-2.2458	-2.5042	-3.1354	-2.2583	-2.8792	-2.4896	-2.2771	-2.9792	-2.1083	-2.3688	-2.8438	-1.9208	472.228	497.282	462.561	385.477	154.520	215.889	420.530	357.524	275.528	284.752	457.961	196.154	327.890	452.350	197.607	306.338	0.00035651	0.00030393	0.00013851	1022.7	2.0248e-06	6.4806e-06	1136.7	209.74	3.8865e-06	2.8011e-06	273.2	77.436	60.263	16.829	4.7815e-07	23.879	0.00047117	0.00055809	0.00015505	1010.7	5.8424e-06	6.0705e-06	1128.5	209.32	5.9129e-06	6.0605e-06	273.19	78.127	60.326	17.141	5.9174e-06	24.384	177.265	275.001	239.041	156.671	300.483	288.029	156.234	163.760	260.620	267.775	163.934	169.829	170.496	178.138	284.131	177.803	-8191	255	
29149.426	1	1	0	0	0.21234	0.29104	0.059646	0.13984	0.12502	0.094074	0.33295	0.20967	0.086763	0.28491	0.039372	0.10139	0.34787	0.045348	0.088454	0.17409	-2.3021	-2.7229	-2.1292	-2.8042	-2.3333	-2.3125	-3.3417	-2.1937	-2.6188	-2.6708	-2.2417	-2.8583	-2.2979	-2.3042	-2.8479	-2.1479	216.703	315.943	497.250	215.351	458.051	375.512	431.975	150.547	265.411	458.057	293.019	394.152	463.429	338.078	330.322	166.945	0.00031593	0.00011481	7.717e-05	1030.4	3.071e-06	3.803e-06	1136.8	210.72	4.3096e-06	2.161e-06	273.04	77.717	59.636	16.867	2.1956e-06	23.822	0.00047676	0.00054653	0.00015202	1017.3	5.9406e-06	6.3049e-06	1130.2	209.56	6.0361e-06	6.2863e-06	273.04	78.417	60.391	17.126	5.7897e-06	24.377	178.384	214.970	254.369	156.624	309.410	296.786	156.578	163.722	281.493	290.436	163.915	169.991	170.538	178.772	344.251	177.588	-8191	255	
29149.521	1	1	0	0	0.2307	0.21289	0.20825	0.23324	0.18152	0.26644	0.27148	0.3361	0.080138	0.32959	0.33472	0.11088	0.13723	0.062679	0.15547	0.12276	-2.1229	-2.6833	-2.0271	-2.8271	-2.35	-2.3625	-3.1604	-2.3354	-2.5521	-2.7729	-2.2208	-2.8563	-2.6562	-2.0208	-3.0167	-2.4313	174.335	489.384	316.429	476.448	269.645	279.229	145.822	485.484	359.073	406.235	358.986	368.641	212.165	407.760	362.253	471.428	0.00034903	0.00028726	8.4928e-05	1026.6	1.8215e-06	4.9531e-06	1140.5	209.95	3.7142e-06	1.8616e-06	274.5	77.907	60.018	16.869	3.3101e-06	23.702	0.0004767	0.00054842	0.00015757	1013.6	6.0414e-06	6.245e-06	1133.1	209.42	5.8642e-06	5.7587e-06	273.39	78.349	60.478	17.135	5.6364e-06	24.326	173.076	245.070	200.164	157.055	286.362	323.509	156.406	163.752	246.184	298.680	163.900	170.220	170.237	178.367	283.420	177.647	-8191	255	
29149.643	1	1	0	0	0.32492	0.1374	0.20423	0.35552	0.061327	0.15785	0.19459	0.094589	0.056444	0.20509	0.17166	0.21846	0.13516	0.12332	0.12449	0.2462	-2.0979	-2.6896	-2.1125	-2.8875	-2.6375	-2.1042	-2.9604	-2.45	-2.425	-2.7708	-2.1521	-2.5333	-2.7792	-2.0917	-2.8063	-2.4708	377.834	468.749	386.379	466.982	479.565	194.503	453.686	471.363	254.467	473.500	208.493	180.063	169.030	474.567	434.144	434.367	0.00034265	0.00018118	6.8102e-05	1027.9	4.9468e-06	1.9004e-06	1141.8	209.82	2.3077e-06	2.0693e-06	274.73	77.763	59.878	16.771	3.8509e-06	23.912	0.00047539	0.00055023	0.00015048	1015.6	6.056e-06	6.0638e-06	1132.7	209.69	5.9538e-06	6.3032e-06	273.72	78.501	60.469	17.097	6.039e-06	24.426	172.016	264.384	194.159	156.828	318.882	331.175	156.442	163.860	287.233	389.271	164.111	170.355	170.471	178.214	263.641	177.543	-8191	255	
29149.738	1	1	0	0	0.089068	0.13452	0.22031	0.2529	0.14673	0.20426	0.40365	0.095412	0.28982	0.10418	0.35521	0.092138	0.027091	0.061405	0.19038	0.18148	-1.7104	-2.8542	-2.1188	-2.4708	-2.6875	-2.0458	-3.0354	-2.7396	-2.2708	-3.0104	-2.2125	-2.6021	-2.8125	-2.15	-2.8229	-2.6958	343.422	153.366	244.909	216.889	287.926	319.117	439.311	465.151	231.834	223.104	456.047	296.119	452.182	158.662	285.428	371.783	0.00034137	0.00050015	6.7178e-05	1029.2	2.0915e-06	1.7477e-06	1142.2	210.11	1.5254e-06	1.926e-06	273.37	78.277	60.286	16.866	2.4602e-06	23.781	0.00050317	0.00057127	0.00016339	1016.5	6.2371e-06	6.6329e-06	1135.5	209.61	6.4737e-06	6.5828e-06	274.34	78.522	60.721	17.151	6.6572e-06	24.472	172.816	241.252	224.732	156.434	289.723	284.261	156.394	163.672	265.746	267.227	164.074	169.815	169.731	178.679	261.623	177.508	-8191	255	
29149.836	1	1	0	0	0.028401	0.19192	0.35062	0.18578	0.1423	0.13889	0.18866	0.45915	0.3834	0.18215	0.37158	0.076837	0.15022	0.13657	0.28304	0.17354	-1.8146	-2.8979	-2.2604	-2.6292	-2.875	-1.9208	-2.9667	-2.65	-2.2354	-2.8396	-2.4917	-2.5687	-2.9437	-2.3354	-2.7708	-2.85	361.318	505.718	502.814	460.253	224.217	223.997	418.742	418.905	319.633	171.136	195.527	315.824	446.193	497.883	302.925	446.212	0.00030152	0.00026867	0.00013904	1030	2.5268e-06	2.7e-06	1146.4	211.56	2.9254e-06	3.8986e-07	273.49	78.514	60.188	16.9	4.9121e-06	23.659	0.00051445	0.00059625	0.00017096	1020.5	6.5305e-06	6.7531e-06	1139.4	210.52	6.4845e-06	6.5237e-06	274.79	79.08	60.667	17.213	6.3689e-06	24.425	171.821	246.309	217.370	156.769	256.733	229.997	156.666	163.904	238.965	416.257	163.706	169.751	170.672	178.172	309.116	177.494	-8191	255	
29149.955	1	1	0	0	0.11569	0.14019	0.20523	0.23342	0.095203	0.12447	0.13836	0.12896	0.15084	0.22783	0.1775	0.062624	0.22092	0.17587	0.10317	0.41967	-1.7625	-2.9458	-2.2771	-2.3229	-3.0021	-2.2917	-2.8146	-2.8812	-2.1312	-2.8917	-2.3812	-2.1562	-2.9271	-1.8792	-2.55	-2.8521	168.012	329.289	197.715	494.580	504.608	401.393	414.598	307.014	471.412	298.614	502.242	473.145	378.041	235.727	251.290	443.392	0.00032561	0.00037304	2.6963e-05	1029.4	3.7151e-06	3.6791e-06	1148.7	211.77	2.3749e-06	6.3334e-07	275.61	77.907	60.267	16.826	3.6933e-06	23.832	0.00050555	0.00059748	0.00016265	1022.1	6.3235e-06	6.4938e-06	1137.7	210.72	6.1734e-06	6.1628e-06	274.95	78.627	60.844	17.214	6.226e-06	24.468	164.373	237.109	229.102	156.025	252.489	292.964	156.606	163.672	283.754	304.221	163.449	170.328	170.160	178.309	286.556	177.773	-8191	255	
29150.053	1	1	0	0	0.22098	0.018664	0.155	0.077598	0.12865	0.16686	0.35293	0.30718	0.056077	0.081446	0.21897	0.094098	0.2727	0.30246	0.18237	0.15972	-1.9125	-2.6604	-2.4583	-2.3229	-2.8063	-2.2979	-2.6875	-2.9042	-2.2542	-2.7875	-2.6167	-2.3583	-2.8083	-2.3375	-2.4229	-3.0021	419.119	233.964	159.127	161.273	393.648	482.699	478.461	420.602	212.885	218.391	451.593	480.123	167.553	466.549	194.179	360.315	0.00029426	0.00012794	6.0223e-05	1037.8	5.3923e-06	3.616e-06	1151	212.32	4.2699e-06	1.3671e-06	274.73	77.793	60.806	16.902	2.359e-06	23.935	0.00049262	0.00056049	0.00016387	1022.1	6.4444e-06	6.5144e-06	1141.2	211.11	6.232e-06	6.3846e-06	274.96	78.633	60.915	17.258	6.1635e-06	24.534	176.743	208.273	267.912	157.007	298.218	283.875	156.695	163.792	272.168	348.942	163.690	170.008	170.520	178.342	312.162	177.757	-8191	255	
29150.123	1	1	0	0	0.2648	0.19176	0.090716	0.41716	0.084616	0.14462	0.24816	0.16754	0.1818	0.042148	0.18803	0.16184	0.063702	0.12133	0.069246	0.018168	-1.5667	-2.6583	-2.4833	-2.1625	-3.0583	-2.4604	-2.3583	-3.0417	-2.2125	-2.65	-2.8042	-2.1229	-2.9708	-2.5083	-2.275	-3.0333	217.029	312.397	482.271	410.326	255.981	461.270	392.254	404.439	262.742	338.234	180.230	482.608	452.647	430.026	289.403	447.933	0.00032585	0.00031604	2.3148e-05	1030.7	3.6669e-06	2.0714e-06	1152.3	210.8	2.2357e-06	1.4291e-06	274.06	78.09	60.242	16.935	1.9488e-06	23.664	0.00049439	0.0005762	0.00016747	1024.2	6.1421e-06	6.6259e-06	1143.2	210.77	6.2782e-06	6.3604e-06	274.7	78.541	60.842	17.265	6.3111e-06	24.477	176.368	229.706	252.337	156.758	282.918	360.735	156.788	164.117	219.801	350.319	163.970	170.349	170.665	178.543	231.048	178.018	-8191	255	
29150.242	1	1	0	0	0.21865	0.31626	0.25858	0.20687	0.057121	0.35224	0.24236	0.13493	0.11734	0.34339	0.039729	0.064783	0.0869	0.068491	0.24949	0.14627	-1.75	-2.7812	-2.7729	-2.1854	-2.8312	-2.4229	-2.6521	-3.0938	-2.2667	-2.5667	-2.8083	-2.2292	-2.7354	-2.7104	-2.2375	-3.0146	283.468	366.721	295.133	477.042	219.455	428.286	468.067	391.342	416.180	395.919	367.878	190.645	351.876	193.516	381.614	424.909	0.00033613	0.00032755	8.5025e-05	1030.9	2.5051e-06	2.3985e-06	1151.8	211.2	1.8015e-06	4.0613e-06	275.34	78.243	59.905	16.84	4.3148e-06	23.836	0.0004919	0.00057909	0.00015761	1022.3	6.2521e-06	6.4841e-06	1140.9	210.92	6.3016e-06	6.189e-06	275.03	78.853	60.56	17.164	6.2714e-06	24.506	172.561	279.008	268.224	156.698	294.843	270.680	156.673	164.343	296.495	334.083	163.852	170.366	170.650	178.811	286.822	178.613	-8191	255	
29150.340	1	1	0	0	0.23276	0.22737	0.043325	0.031217	0.10985	0.11944	0.18399	0.29623	0.20085	0.053104	0.16432	0.13101	0.29978	0.3223	0.065232	0.29407	-1.7604	-2.4333	-2.8063	-2.3312	-2.7604	-2.4688	-2.2479	-2.9708	-2.1479	-2.4104	-2.8167	-2.1937	-2.6229	-2.5083	-1.9854	-2.9042	336.777	152.903	305.006	430.318	449.322	341.832	427.979	460.077	346.754	288.492	420.506	443.805	203.652	416.549	489.488	474.512	0.00035765	0.00034586	7.3593e-05	1030.5	2.643e-06	3.0837e-06	1148.2	211.11	1.2014e-06	1.2391e-06	273.95	77.641	60.568	17.03	3.2918e-06	24.028	0.00048778	0.00058364	0.00015697	1023.3	6.2633e-06	6.5241e-06	1140.8	211.12	6.2541e-06	6.445e-06	275.1	78.502	60.875	17.189	6.0107e-06	24.541	167.920	246.009	286.473	156.773	239.600	304.723	157.087	164.191	265.458	286.462	164.141	170.392	170.508	178.587	275.796	177.638	-8191	255	
29150.436	1	1	0	0	0.088047	0.18919	0.12963	0.41418	0.22259	0.057275	0.1372	0.23606	0.097068	0.10284	0.077524	0.24427	0.13455	0.033441	0.17701	0.12258	-2.0938	-2.3063	-2.9875	-2.2479	-2.6396	-2.625	-2.4104	-3.0354	-2.3021	-2.3729	-2.9479	-2.2271	-2.5375	-3.0104	-2.0438	-2.9396	235.074	326.998	363.775	429.036	413.108	197.303	423.472	207.718	285.137	323.821	225.852	350.392	486.944	303.097	358.034	415.904	0.00031041	0.00066116	6.812e-05	1036.8	6.1697e-07	4.5098e-06	1147	211.56	2.2517e-06	7.8586e-06	274.26	78.201	60.763	16.907	3.176e-06	23.906	0.000492	0.00060146	0.00015552	1024.8	6.2333e-06	6.1194e-06	1137	211.18	6.1032e-06	6.1993e-06	275.15	78.88	60.962	17.249	6.2438e-06	24.483	172.609	217.382	227.221	156.569	224.818	246.778	156.610	164.252	295.670	297.892	164.100	170.272	170.197	178.777	328.772	177.894	-8191	255	
29150.555	1	1	0	0	0.13964	0.1897	0.32225	0.01795	0.027921	0.20337	0.30522	0.26995	0.2085	0.26443	0.13907	0.070296	0.092588	0.082182	0.31103	0.2416	-2.2062	-2.1604	-2.8708	-2.3667	-2.5646	-2.8958	-2.2479	-2.9688	-2.7271	-2.1542	-3.1625	-2.2062	-2.5521	-3.0854	-2.0375	-2.9813	335.535	383.866	273.427	299.625	242.329	206.912	154.765	165.964	407.946	459.562	300.579	184.741	259.108	398.384	171.870	245.713	0.00032393	0.00038603	2.0558e-05	1032.4	2.246e-06	3.5793e-06	1151.2	211.15	4.6724e-06	3.8535e-06	276.7	78.562	60.793	16.941	2.3815e-06	24.091	0.00050464	0.00058921	0.00015668	1024.1	6.4543e-06	6.6083e-06	1140.8	211.39	6.2144e-06	6.5563e-06	275.8	78.812	61.057	17.256	6.3981e-06	24.642	174.291	215.307	274.815	156.594	280.052	287.892	156.373	164.047	279.733	264.473	163.983	170.022	170.321	178.500	295.988	178.291	-8191	255	
29150.652	1	1	0	0	0.09662	0.12051	0.20714	0.18832	0.13055	0.31975	0.34583	0.19411	0.2787	0.37332	0.15284	0.020647	0.20562	0.096698	0.20496	0.23809	-2.0854	-2.1021	-2.9667	-2.2146	-2.2375	-2.8417	-2.2292	-2.9042	-2.7896	-1.9833	-2.9667	-2.65	-2.3729	-3.0875	-2.2021	-2.5146	435.613	276.531	419.606	433.091	351.379	437.763	448.660	400.367	262.814	470.666	374.501	214.931	164.149	498.077	264.665	385.297	0.00030483	0.00016807	5.838e-05	1043.2	4.4795e-06	1.7461e-06	1153.5	211.07	9.3704e-07	2.1452e-06	274.69	78.535	60.429	16.843	2.9133e-06	23.804	0.00048152	0.00060362	0.00015846	1024.9	6.4453e-06	6.4932e-06	1142.5	210.82	6.2206e-06	6.5377e-06	275.55	79.054	60.906	17.231	6.427e-06	24.447	166.169	229.261	278.033	156.804	300.254	285.584	156.771	164.489	311.504	347.615	163.783	170.124	170.269	178.844	313.657	177.840	-8191	255	
29150.723	1	1	0	0	0.096207	0.068526	0.33289	0.092564	0.051841	0.21133	0.32297	0.070068	0.079979	0.27148	0.078429	0.2488	0.21349	0.21515	0.15732	0.20048	-2.3333	-2.1792	-2.8917	-2.4771	-2.2667	-2.9729	-2.3875	-2.6562	-2.7271	-1.9688	-2.8979	-2.4208	-2.2625	-3.1333	-2.3271	-2.5958	340.249	480.536	259.559	462.057	276.520	468.272	420.354	447.242	178.406	379.840	449.954	149.098	263.762	465.734	250.812	373.473	0.00028322	0.00018373	0.00010848	1034	2.1214e-06	2.2279e-06	1150.9	211.91	3.4803e-06	2.8965e-06	275.54	78.263	60.546	16.993	3.0848e-06	23.895	0.00048664	0.00057979	0.00015969	1023.9	6.1265e-06	6.3601e-06	1142.4	211.35	6.0779e-06	6.3501e-06	275.38	78.72	60.99	17.242	6.2508e-06	24.558	174.231	228.315	243.881	156.388	301.553	300.560	156.541	164.376	269.780	308.496	163.668	170.039	170.663	178.694	293.470	177.435	-8191	255	
29150.818	1	1	0	0	0.10036	0.18929	0.015609	0.087769	0.13804	0.11702	0.17656	0.29422	0.09904	0.17786	0.15307	0.43263	0.17802	0.23183	0.051643	0.22477	-2.6271	-2.125	-2.7438	-2.6396	-2.2646	-2.8312	-2.5458	-2.5583	-3.0125	-2.2562	-2.7313	-2.8042	-2.1333	-2.9104	-2.3271	-2.4938	224.173	251.877	294.760	167.879	389.237	316.707	191.793	402.524	167.275	432.198	490.684	429.094	419.456	450.390	434.029	457.724	0.00031096	0.00023624	7.3354e-05	1040.6	3.1286e-06	2.8286e-06	1152.1	211.1	3.1566e-06	2.5224e-06	274.06	78.286	60.503	16.969	2.727e-06	23.933	0.00049274	0.00058954	0.00015881	1023.4	6.2776e-06	6.3679e-06	1141.5	211.14	6.017e-06	6.368e-06	274.63	78.717	61.032	17.275	6.2222e-06	24.552	169.860	210.289	271.021	156.853	305.275	347.061	156.594	163.881	267.033	284.821	163.691	169.782	170.195	178.424	275.842	177.971	-8191	255	
29150.916	1	1	0	0	0.18618	0.21688	0.42151	0.051283	0.27764	0.26442	0.246	0.14547	0.041851	0.20885	0.20965	0.087993	0.17595	0.12062	0.21924	0.17141	-2.4708	-2.2354	-2.8	-2.7396	-2.0625	-2.875	-2.5438	-2.5854	-3.0542	-1.8937	-2.6396	-2.9646	-2	-2.775	-2.4604	-2.1167	303.011	423.687	246.250	418.000	502.676	450.070	294.994	328.582	308.879	372.950	149.200	453.383	375.371	447.335	248.388	465.812	0.00036436	0.00026068	4.9661e-06	1030.5	1.1846e-06	2.8495e-06	1149.8	211.64	3.15e-06	5.6019e-07	274.83	77.799	60.538	16.942	2.2325e-06	23.971	0.0004966	0.00059805	0.00016482	1021.2	6.3334e-06	6.6302e-06	1140.3	211.25	6.1694e-06	6.5247e-06	275.64	78.636	61.12	17.221	6.4537e-06	24.565	171.610	251.432	397.555	156.198	240.802	357.755	156.222	163.948	253.945	325.494	163.798	169.639	170.305	178.093	319.399	177.608	-8191	255	
29151.033	1	1	0	0	0.017765	0.1762	0.19552	0.40013	0.28059	0.0756	0.28157	0.026332	0.034572	0.08219	0.18068	0.21546	0.04848	0.25841	0.21596	0.33069	-2.4813	-2.1396	-2.3563	-2.8646	-2.2208	-2.9562	-2.5708	-2.2667	-3.0229	-2.3396	-2.7229	-2.9917	-2.225	-2.8708	-2.5896	-2.3	147.417	282.858	168.184	485.444	429.968	207.337	417.235	170.874	475.838	282.097	501.702	332.747	220.457	222.845	493.436	167.421	0.0003151	0.00036881	0.00010222	1040.7	3.2136e-06	2.8273e-06	1148.8	211.25	2.8929e-06	2.2465e-06	275.04	77.803	60.306	16.997	2.9639e-06	23.838	0.00052329	0.00060651	0.00017017	1025.1	6.7294e-06	6.7404e-06	1140.6	210.58	6.4023e-06	6.6595e-06	275.41	78.821	60.832	17.306	6.4051e-06	24.511	176.398	192.191	249.344	156.436	250.513	256.634	156.003	164.066	281.272	293.965	163.678	169.736	170.010	178.063	246.535	177.706	-8191	255	
29151.131	1	1	0	0	0.10864	0.22258	0.23668	0.19565	0.11803	0.11251	0.14374	0.16453	0.11235	0.21892	0.013462	0.099411	0.10047	0.27074	0.047381	0.37883	-2.6146	-2.2729	-2.4521	-2.8812	-2.2458	-2.8458	-2.7229	-2.1521	-2.7	-2.4021	-2.4688	-2.9375	-2.2313	-2.5979	-2.7438	-2.2083	232.593	443.211	322.288	323.778	405.346	452.136	181.792	485.961	311.454	351.550	154.379	429.525	162.042	340.101	501.377	213.680	0.00031223	0.00034239	3.6883e-05	1039.8	3.9777e-06	1.5536e-06	1146.8	211.81	2.8628e-06	2.5765e-06	274.51	78.039	60.263	17.057	2.0478e-06	23.642	0.0005126	0.00061647	0.00017173	1023.4	6.6657e-06	6.9411e-06	1138.8	211.13	6.4001e-06	6.793e-06	275.17	78.658	61.006	17.27	6.2178e-06	24.487	170.977	248.585	194.849	155.979	277.854	288.890	156.095	163.627	283.760	279.683	163.725	170.010	170.403	177.871	258.188	177.938	-8191	255	
29151.227	1	1	0	0	0.27321	0.24565	0.22599	0.18173	0.12771	0.056152	0.12572	0.32831	0.085424	0.19272	0.2526	0.17294	0.18152	0.12627	0.14505	0.28202	-2.5021	-2.4125	-2.3104	-3.0312	-2.1917	-2.8417	-2.9604	-2.1312	-2.7854	-2.4771	-2.3521	-2.9417	-2.1646	-2.5354	-2.9188	-2.1688	370.977	241.379	148.727	458.277	389.726	262.477	355.660	421.551	436.135	267.180	395.778	222.627	225.182	482.470	483.345	198.193	0.00029926	0.00017285	9.1974e-05	1040	4.481e-06	7.2936e-06	1148.1	211.45	9.3884e-07	2.944e-06	274.33	78.29	60.607	16.906	1.3166e-06	23.746	0.00050684	0.00062093	0.0001722	1025.3	6.4683e-06	6.7057e-06	1141.4	210.81	6.2135e-06	6.3853e-06	275.36	78.692	60.939	17.206	6.4689e-06	24.498	173.718	206.586	245.359	156.427	273.247	295.811	156.332	163.718	230.279	364.208	163.724	169.899	169.943	178.410	420.509	177.668	-8191	255	
29151.322	1	1	0	0	0.29052	0.12871	0.21562	0.1496	0.06274	0.20428	0.097109	0.11791	0.12516	0.26277	0.18382	0.13487	0.17919	0.097897	0.034923	0.12608	-2.4792	-2.5708	-2.175	-3.1542	-2.2771	-2.4437	-3.0833	-2.2208	-2.7792	-2.6833	-2.3875	-2.8187	-2.2687	-2.3479	-2.7896	-2.3021	360.061	287.376	443.739	483.442	278.155	216.246	475.544	380.421	313.768	429.655	500.602	154.936	315.042	168.296	326.522	377.724	0.00034451	0.00027705	9.6689e-05	1031.8	1.0078e-06	3.9761e-06	1157.1	211.33	2.9384e-06	2.8548e-06	274.93	78.324	60.244	16.894	3.1701e-06	23.898	0.00050953	0.00060781	0.00017571	1022.6	6.6481e-06	6.7845e-06	1144.4	210.94	6.6028e-06	6.7588e-06	275.46	78.822	60.94	17.204	6.882e-06	24.488	172.067	283.170	270.999	156.606	341.316	293.017	156.201	163.939	269.753	291.183	163.988	170.255	170.391	178.607	300.599	177.678	-8191	255	
29151.420	1	1	0	0	0.18372	0.24076	0.083132	0.18182	0.091928	0.12605	0.17577	0.32535	0.11016	0.10579	0.1902	0.13904	0.27805	0.096972	0.10919	0.16337	-2.1312	-2.7146	-2.1562	-3.0146	-2.3042	-2.4313	-3.1375	-2.3167	-2.7229	-2.8667	-2.2562	-2.8312	-2.5833	-2.3625	-2.8396	-2.2729	280.678	458.435	431.667	433.952	426.785	202.000	405.073	149.266	283.670	217.009	436.550	438.208	229.319	358.120	247.328	296.856	0.00032101	0.00034319	2.5383e-05	1038.2	3.4684e-06	4.8414e-06	1151	211.5	2.4107e-06	3.9016e-06	276.97	78.344	60.287	16.97	4.0781e-06	23.958	0.00053684	0.0006246	0.00017543	1025.5	6.8879e-06	7.0741e-06	1142.2	211.14	6.8581e-06	6.7966e-06	275.59	78.865	61.062	17.273	6.7395e-06	24.603	175.200	237.992	204.358	156.430	284.650	299.723	156.560	163.839	266.704	288.206	163.785	170.159	170.412	178.215	239.238	177.700	-8191	255	
29151.516	1	1	0	0	0.12249	0.3261	0.033563	0.09846	0.3124	0.052437	0.146	0.14393	0.092214	0.10259	0.10714	0.24149	0.16441	0.19108	0.10774	0.18758	-2.0563	-2.725	-2.1104	-2.8479	-2.4417	-2.2	-2.9542	-2.0917	-2.2812	-2.6146	-2.1771	-2.8542	-2.4104	-2.1188	-2.9437	-2.0229	180.240	478.887	344.909	335.542	484.683	156.615	462.599	481.144	358.067	379.639	488.724	148.403	223.582	419.694	273.552	363.404	0.00033968	0.00010984	9.3279e-05	1030.6	1.898e-06	3.9107e-06	1155.6	210.47	2.5669e-06	4.2542e-06	275.59	78.584	60.386	16.831	4.2909e-06	23.886	0.00053357	0.00062153	0.00017426	1023.6	7.0579e-06	6.9943e-06	1143.9	210.78	6.7325e-06	6.6572e-06	275.34	78.938	60.881	17.218	6.7614e-06	24.552	174.191	273.889	205.797	156.731	279.432	300.210	156.382	163.916	291.607	279.640	163.942	170.202	169.868	178.663	293.813	177.534	-8191	255	
29151.637	1	1	0	0	0.40326	0.16761	0.1397	0.20061	0.2008	0.14337	0.063438	0.15049	0.15447	0.06789	0.17518	0.27047	0.14354	0.17655	0.18393	0.11562	-1.9312	-2.7292	-1.9854	-2.6437	-2.575	-2.1083	-3.0208	-2.2771	-2.3125	-2.8667	-2.1958	-2.7938	-2.7208	-2.1625	-2.9917	-2.4479	355.911	275.844	325.317	165.684	498.963	267.363	392.863	174.705	441.549	470.681	403.630	406.131	407.470	375.370	344.677	385.715	0.00033554	0.00059839	7.6689e-05	1031.3	3.7502e-06	6.631e-07	1147.7	211.58	2.3789e-06	2.9804e-06	275.14	78.445	59.762	16.891	4.0288e-06	24.161	0.00051419	0.00061936	0.00017626	1023.1	6.6736e-06	6.7484e-06	1139.2	211.21	6.4051e-06	6.4463e-06	274.89	78.841	60.666	17.16	6.0904e-06	24.6	172.338	230.827	235.629	156.531	276.453	250.343	156.372	163.736	231.999	286.303	163.780	170.452	170.207	177.979	269.343	178.051	-8191	255	
29151.732	1	1	0	0	0.077967	0.07222	0.018981	0.35469	0.14026	0.11729	0.20516	0.22287	0.051149	0.15395	0.22887	0.3439	0.16022	0.17663	0.18166	0.15357	-1.8417	-2.7146	-2.0229	-2.7979	-2.7104	-2.1688	-3.0875	-2.7021	-2.35	-2.9125	-2.3438	-2.8292	-2.8625	-1.9458	-2.65	-2.5521	291.910	417.531	416.810	503.797	310.047	228.945	472.896	442.982	332.235	255.161	470.099	466.880	289.907	200.480	495.259	320.092	0.00035071	0.00025873	6.5769e-05	1037.6	3.3104e-06	3.0428e-06	1150.4	210.7	3.3836e-06	2.2003e-06	274.79	77.863	60.398	16.904	3.5192e-06	23.95	0.00049805	0.00057873	0.00016388	1024.7	6.2126e-06	6.4608e-06	1139.6	210.71	6.2122e-06	6.2508e-06	274.63	78.76	60.913	17.248	6.0492e-06	24.536	176.153	259.007	222.225	156.427	220.175	252.027	156.225	163.605	286.682	254.048	163.777	169.845	170.925	178.584	269.291	177.572	-8191	255	
29151.828	1	1	0	0	0.23174	0.25554	0.16536	0.33426	0.12591	0.095067	0.17495	0.30856	0.13845	0.024515	0.19096	0.3459	0.22242	0.32306	0.091425	0.013596	-1.7417	-2.9021	-2.2646	-2.6937	-2.8208	-2.2208	-3.05	-2.5417	-2.1292	-3.0708	-2.375	-2.5167	-2.9896	-2.0625	-2.5979	-2.85	417.508	372.445	198.624	416.207	251.802	256.381	356.073	437.790	462.351	306.717	466.062	163.529	182.380	158.298	157.831	247.191	0.00030418	0.00035628	9.3465e-05	1028	1.5373e-06	5.3464e-06	1147.7	211.28	1.2171e-06	7.6415e-07	274.76	78.008	60.63	16.958	2.7613e-06	23.852	0.00048849	0.00057322	0.00016622	1022.2	6.1357e-06	6.5252e-06	1140.4	210.83	6.1513e-06	6.6615e-06	274.88	78.628	60.923	17.195	6.2895e-06	24.44	175.144	238.526	218.604	156.761	291.962	315.842	156.670	163.781	221.553	367.120	163.405	170.109	169.998	178.605	301.638	177.495	-8191	255	
29151.924	1	1	0	0	0.17361	0.15984	0.2203	0.47725	0.16417	0.18844	0.27812	0.07475	0.17161	0.32884	0.21933	0.090579	0.3041	0.078373	0.041971	0.1116	-1.7354	-2.8396	-2.2792	-2.3604	-2.8688	-2.2438	-2.9208	-2.9125	-2.0583	-3.0438	-2.4479	-2.2271	-2.9271	-2.1417	-2.7188	-2.7	410.946	367.572	383.480	472.684	236.766	380.196	172.421	411.193	171.343	384.836	500.749	368.513	238.771	368.134	439.440	183.175	0.00033583	0.0004048	2.4585e-05	1028.7	3.212e-06	4.0081e-06	1147.5	211.09	1.3458e-06	3.6696e-06	275.92	77.715	60.646	17.028	4.4963e-06	23.889	0.00050484	0.00057988	0.00016586	1021.3	6.2885e-06	6.6312e-06	1138.1	210.85	6.304e-06	6.2979e-06	274.72	78.749	60.885	17.254	6.3454e-06	24.419	170.777	251.074	261.207	156.514	302.167	242.712	156.565	164.002	299.616	261.155	163.560	170.215	169.881	178.564	240.151	177.680	-8191	255	
29152.020	1	1	0	0	0.35436	0.11254	0.20881	0.3097	0.23872	0.35945	0.054423	0.16499	0.24782	0.10927	0.19665	0.10493	0.1872	0.15875	0.10624	0.082777	-1.6896	-2.9062	-2.5479	-2.3333	-3.0292	-2.3354	-2.5375	-2.8438	-2.1208	-2.8	-2.4917	-2.1583	-2.8417	-2.3104	-2.3812	-2.6562	370.513	255.819	357.818	403.571	261.486	289.838	467.730	408.468	404.831	252.193	342.254	442.034	314.702	242.812	148.786	346.447	0.00032825	2.6508e-05	6.8531e-05	1031.3	3.0269e-06	4.9802e-06	1144.5	211.05	1.1795e-06	4.614e-06	271.85	77.938	59.925	16.749	3.9547e-06	23.771	0.00050111	0.00057732	0.00016289	1022.2	6.38e-06	6.7158e-06	1137.6	210.91	6.4103e-06	6.5997e-06	274.32	78.565	60.633	17.109	6.2054e-06	24.428	171.943	191.213	265.639	156.646	283.702	297.059	156.329	163.899	247.746	315.055	163.913	169.836	170.197	178.280	325.669	177.624	-8191	255	
29152.117	1	1	0	0	0.4002	0.13556	0.14026	0.43108	0.13968	0.1815	0.19625	0.043253	0.23271	0.057575	0.29528	0.27153	0.29445	0.31484	0.052673	0.071806	-1.4708	-2.7125	-2.8438	-2.0229	-2.9229	-2.2708	-2.5187	-2.9729	-2.1813	-2.6208	-2.6042	-1.9896	-3.0458	-2.2792	-2.1271	-2.9708	155.042	259.244	341.093	460.504	408.935	283.222	282.755	236.698	210.513	193.247	453.210	397.158	455.174	220.487	297.450	491.438	0.00034113	0.00012214	0.00011314	1030.3	2.3933e-06	3.8608e-06	1147.6	210.91	3.2031e-06	3.6159e-06	273.63	78.127	60.361	16.786	1.5335e-06	23.905	0.00048933	0.00060422	0.0001606	1019.5	6.2725e-06	6.5932e-06	1139.5	210.72	6.1488e-06	6.2551e-06	274.63	78.615	60.796	17.146	6.3038e-06	24.515	175.865	202.526	230.414	156.362	315.308	289.495	156.731	163.965	251.948	301.118	163.533	170.153	170.307	178.194	285.401	177.562	-8191	255	
29152.234	1	1	0	0	0.2603	0.389	0.37149	0.19318	0.11152	0.10264	0.27915	0.049759	0.19613	0.21493	0.24043	0.15346	0.14774	0.056704	0.14013	0.18298	-1.7333	-2.6667	-2.5792	-1.9917	-2.8625	-2.4917	-2.2604	-2.9792	-2.0458	-2.4833	-3.0062	-2.2229	-2.875	-2.6479	-2.2917	-2.9667	409.486	379.408	283.000	217.907	276.088	289.536	157.491	354.017	237.777	226.405	419.310	497.593	383.094	207.506	445.582	179.084	0.00030762	0.00011975	0.00013577	1031.4	3.0566e-06	3.7764e-06	1148.4	210.76	2.3696e-06	4.3853e-06	275.62	77.74	59.674	16.808	3.5025e-06	23.659	0.00050284	0.00058243	0.00016545	1019.8	6.1934e-06	6.4235e-06	1138	210.64	6.4879e-06	6.6044e-06	275.28	78.4	60.631	17.158	6.5756e-06	24.432	166.213	268.001	248.740	156.748	302.115	340.966	156.629	164.077	265.639	304.275	164.009	170.236	170.585	178.318	280.098	178.281	-8191	255	
29152.332	1	1	0	0	0.10226	0.14044	0.27823	0.38342	0.15746	0.18848	0.19963	0.062389	0.27914	0.13166	0.12856	0.29442	0.14725	0.10572	0.18604	0.12231	-1.8521	-2.4021	-3.0687	-2.1729	-2.725	-2.3937	-2.1417	-3.0021	-2.5833	-2.3083	-3.0396	-2.0583	-2.9917	-2.6083	-2.0771	-3.1583	353.787	453.153	401.459	483.813	415.364	432.257	405.187	166.047	195.594	315.944	217.092	498.912	245.444	288.231	327.101	345.610	0.0003532	0.00032044	8.646e-05	1028.7	3.0003e-06	2.318e-06	1151.9	210.76	3.0638e-06	3.0533e-06	275.14	77.9	60.775	16.966	3.0796e-06	23.988	0.00051298	0.00061632	0.00016396	1020.8	6.3631e-06	6.6622e-06	1139.8	210.56	6.495e-06	6.5543e-06	274.45	78.402	61.02	17.24	6.353e-06	24.493	172.137	227.122	226.626	156.770	313.497	259.930	156.493	163.980	278.375	321.451	163.641	169.669	170.096	177.945	327.784	177.438	-8191	255	
29152.428	1	1	0	0	0.049392	0.035907	0.23331	0.29487	0.16706	0.17601	0.12039	0.21414	0.16626	0.10981	0.25323	0.078773	0.18179	0.22929	0.14151	0.050062	-1.975	-2.2438	-2.8312	-2.3042	-2.7542	-2.7271	-2.4562	-2.8625	-2.2875	-2.2271	-2.9729	-2.1375	-2.6083	-2.7	-1.9667	-2.9354	291.538	289.685	150.599	216.788	313.323	205.124	423.200	402.816	497.268	324.912	395.161	430.269	455.193	358.020	343.648	260.248	0.00027694	0.00010102	7.7344e-05	1030.7	4.077e-06	2.1022e-06	1144	212.68	2.74e-06	5.2872e-06	273.62	77.992	60.416	16.794	2.9966e-06	24.054	0.00049284	0.00059547	0.00015759	1020.5	6.3038e-06	6.4046e-06	1138.5	210.94	6.414e-06	6.5257e-06	274.78	78.487	60.808	17.177	6.0514e-06	24.571	168.309	243.117	205.747	156.604	279.045	345.964	157.001	164.242	254.418	292.109	163.804	170.032	170.431	178.300	249.477	177.748	-8191	255	
29152.523	1	1	0	0	0.25166	0.20209	0.05802	0.12497	0.1466	0.12098	0.15626	0.17317	0.17217	0.095545	0.36941	0.15307	0.14412	0.041241	0.18037	0.13648	-1.9562	-2.3	-2.9021	-2.1958	-2.5229	-2.6583	-2.1479	-2.9729	-2.5312	-2.2979	-2.9646	-2.3333	-2.2625	-2.9292	-2.1813	-2.7271	299.192	193.230	304.972	489.888	394.845	204.290	440.761	211.729	336.045	410.655	360.985	406.357	482.245	174.867	442.142	465.636	0.00031839	0.00036687	3.1761e-05	1029.9	2.6988e-06	4.7812e-06	1143.1	210.84	3.1002e-06	2.8029e-06	275.06	77.9	60.292	16.825	2.3278e-06	23.794	0.00048635	0.00056389	0.00015704	1019.2	6.0203e-06	6.1247e-06	1135.8	210.49	6.1802e-06	6.3358e-06	274.15	78.456	60.856	17.123	6.1225e-06	24.407	172.557	269.929	258.428	156.540	289.506	296.993	156.552	164.002	274.906	342.849	163.431	169.764	170.392	177.883	306.738	177.895	-8191	255	
29152.596	1	1	0	0	0.35635	0.085475	0.21426	0.18278	0.080393	0.057143	0.26175	0.20582	0.071724	0.096243	0.049742	0.18947	0.38741	0.29341	0.22339	0.092685	-2.1562	-2.0687	-2.8312	-2.3833	-2.3229	-3.0563	-2.2458	-2.8708	-2.6396	-2.0375	-3.0438	-2.3958	-2.0708	-2.9646	-2.1	-2.7729	252.113	455.933	255.256	423.744	427.524	358.533	441.720	430.014	210.027	482.478	211.504	252.286	426.585	449.724	252.783	442.297	0.00032737	0.00026213	0.00013607	1030.4	2.6698e-06	5.0486e-06	1143.4	210.12	3.0564e-06	3.7598e-06	274.33	77.441	60.342	16.93	3.4549e-06	23.835	0.00048401	0.00059231	0.00016073	1021.3	6.3117e-06	6.5309e-06	1135.1	210.36	6.2298e-06	6.3391e-06	274.25	78.385	60.656	17.174	6.2232e-06	24.406	172.589	224.612	216.790	156.499	274.605	319.778	156.510	164.187	295.025	298.612	163.815	169.742	170.269	178.415	287.355	177.598	-8191	255	
29152.717	1	1	0	0	0.25488	0.087814	0.14462	0.23316	0.26036	0.13307	0.12167	0.021715	0.11557	0.16993	0.37077	0.19742	0.024692	0.17448	0.45614	0.1285	-2.3708	-1.9125	-2.7229	-2.4688	-2.0729	-2.9083	-2.3583	-2.6312	-2.8563	-2.1229	-2.8729	-2.5062	-2.2208	-3.0208	-2.0604	-2.5042	354.856	238.707	482.944	416.850	402.818	345.061	464.115	407.569	440.609	179.554	424.755	480.302	190.033	387.761	443.392	442.195	0.00033542	0.00018499	4.5385e-05	1027.6	1.2637e-06	4.4901e-06	1142.6	211.36	3.2648e-06	3.4172e-07	275.47	78.42	59.862	16.822	3.0048e-06	23.895	0.00048615	0.00059312	0.0001656	1017.4	6.5557e-06	6.5012e-06	1134.2	210.48	6.2594e-06	6.4128e-06	274.78	78.696	60.951	17.148	6.401e-06	24.47	170.814	234.807	212.347	156.742	288.307	265.758	156.696	164.073	277.631	335.065	163.870	169.802	170.564	178.761	272.863	177.709	-8191	255	
29152.812	1	1	0	0	0.15764	0.22133	0.1612	0.13043	0.19333	0.032976	0.53053	0.13379	0.16674	0.14656	0.29815	0.075862	0.23715	0.36478	0.10573	0.12083	-2.5292	-1.925	-2.7667	-2.6792	-2.1375	-3.0354	-2.3646	-2.5604	-2.8542	-2.1271	-2.9125	-2.5396	-1.9792	-3.0042	-2.4667	-2.3896	460.996	171.156	402.734	385.718	221.145	327.945	462.738	416.208	505.638	451.041	443.390	382.031	254.454	481.988	473.830	443.602	0.00032232	0.00030095	0.00010711	1030.5	5.7533e-07	3.9454e-06	1151	210.64	3.4637e-06	4.4308e-06	274.56	77.637	60.633	16.857	2.9456e-06	23.649	0.00049254	0.00061963	0.0001706	1018.5	6.4811e-06	6.5221e-06	1136.2	210.52	6.3635e-06	6.5639e-06	274.5	78.354	60.824	17.155	6.213e-06	24.497	170.876	247.213	274.382	156.465	248.702	291.620	156.593	164.246	282.175	306.605	163.975	170.409	170.889	178.458	289.088	177.968	-8191	255	
29152.908	1	1	0	0	0.2442	0.17864	0.14784	0.073422	0.24487	0.16171	0.24375	0.081629	0.24202	0.063083	0.072573	0.27811	0.1492	0.087452	0.19806	0.11616	-2.5604	-2.1479	-2.6542	-2.6958	-2.2938	-3.0729	-2.5417	-2.4125	-2.8146	-2.1625	-2.5396	-2.6937	-2.1042	-2.8438	-2.3208	-2.4562	393.741	481.983	487.808	488.652	304.074	329.836	384.112	497.101	463.017	242.310	249.655	178.706	246.965	470.169	399.057	170.497	0.00031215	0.00028203	2.7404e-05	1030.2	3.3755e-06	4.5416e-06	1146.8	211.24	2.5528e-06	3.0607e-06	274.47	78.472	60.453	16.971	2.3728e-06	23.826	0.00048264	0.00060004	0.00016139	1017.8	6.4587e-06	6.6218e-06	1134.4	210.78	6.0977e-06	6.4244e-06	273.91	78.587	60.689	17.246	6.4261e-06	24.45	172.996	227.164	236.611	156.501	281.979	294.915	156.560	164.313	278.131	264.795	164.328	170.414	170.345	178.488	293.501	177.980	-8191	255	
29153.006	1	1	0	0	0.21297	0.089406	0.12647	0.18297	0.061431	0.11957	0.25576	0.2136	0.050073	0.13605	0.20593	0.14089	0.087739	0.12502	0.18186	0.079427	-2.5479	-2.2104	-2.4583	-2.9083	-2.0354	-2.8312	-2.7479	-2.3271	-3.0958	-2.3125	-2.5583	-3.0208	-2.2062	-2.7771	-2.5979	-2.2708	463.539	255.653	436.611	343.130	196.748	381.693	500.657	400.171	362.271	499.578	449.140	171.513	369.078	377.597	240.751	378.133	0.00032031	7.0361e-05	0.00012421	1030.4	2.5883e-06	3.1766e-06	1141.4	209.65	2.6912e-06	2.0426e-06	272.2	77.284	60.268	16.884	9.8675e-07	23.846	0.00050243	0.0006004	0.00017507	1018.9	6.6551e-06	6.612e-06	1133.6	210.1	6.4436e-06	6.5563e-06	274.13	78.385	60.953	17.169	6.5245e-06	24.493	171.976	208.274	243.501	156.863	254.380	288.282	156.557	163.958	271.910	289.406	163.993	170.574	170.579	178.602	274.016	177.895	-8191	255	
29153.123	1	1	0	0	0.19183	0.030181	0.061221	0.093326	0.3752	0.083353	0.10981	0.23459	0.15723	0.078889	0.11159	0.31889	0.23443	0.1028	0.26894	0.18299	-2.5396	-2.3937	-2.5438	-3.0062	-2.175	-2.7646	-2.9188	-2.2292	-2.9333	-2.3937	-2.4792	-2.8708	-2.0854	-2.6104	-2.8604	-2.1312	203.357	479.251	266.860	501.305	219.154	489.473	392.645	440.667	472.403	165.405	383.372	155.699	458.525	160.009	456.022	246.314	0.0003206	0.000409	4.8678e-05	1034.1	1.7024e-06	1.8686e-06	1141	211.23	3.7669e-06	4.4363e-06	275.43	77.467	59.716	17.03	3.1196e-06	23.875	0.00051066	0.00060687	0.00017357	1019.5	6.7336e-06	6.5464e-06	1134	210.58	6.4245e-06	6.5815e-06	274.59	78.486	60.575	17.209	6.5734e-06	24.499	180.011	251.580	301.822	156.218	294.202	384.134	156.184	164.011	268.524	303.207	163.730	169.713	169.829	178.162	264.947	177.756	-8191	255	
29153.221	1	1	0	0	0.086145	0.21916	0.12038	0.068006	0.14657	0.18563	0.45269	0.13317	0.43305	0.17859	0.22416	0.27034	0.084719	0.099231	0.13109	0.068705	-2.2375	-2.4375	-2.2938	-2.8708	-2.3312	-2.5417	-2.8979	-2.1542	-2.7875	-2.5875	-2.2687	-2.9708	-2.2729	-2.475	-2.5208	-2.2	439.137	202.781	413.978	211.599	235.541	311.253	455.780	147.628	392.792	156.749	462.522	475.656	379.126	249.631	394.363	322.231	0.00033375	0.00051662	7.0147e-05	1028.5	5.3166e-06	6.0635e-06	1144.5	209.72	2.2333e-06	4.2114e-06	271.63	78.012	60.193	16.907	1.7171e-06	23.894	0.00049235	0.00060161	0.00017138	1020.2	6.5289e-06	6.5683e-06	1135.5	209.62	6.1189e-06	6.3899e-06	273.9	78.494	60.761	17.205	6.105e-06	24.428	173.258	237.592	194.107	156.347	258.296	279.214	156.113	164.086	247.460	304.026	163.557	170.159	170.620	178.232	316.110	177.628	-8191	255	
29153.316	1	1	0	0	0.27257	0.16874	0.15385	0.21182	0.081504	0.23638	0.2726	0.24648	0.073533	0.031349	0.018009	0.20013	0.21137	0.084688	0.047921	0.21162	-2.2979	-2.2896	-2.075	-2.9542	-2.2146	-2.4375	-2.9958	-2.1188	-2.8146	-2.5271	-2.1125	-2.8875	-2.3063	-2.3771	-2.7229	-2.1646	434.788	486.512	308.519	420.028	421.821	321.642	429.266	473.153	351.401	147.065	435.386	449.966	230.337	294.270	375.057	343.224	0.00027124	0.00016777	8.0876e-05	1027.9	2.8443e-06	5.212e-06	1144.9	209.86	2.3826e-06	2.7033e-06	273	77.9	59.808	16.787	4.5294e-06	23.787	0.00048811	0.00058325	0.00016233	1016.8	6.1112e-06	6.5487e-06	1134.4	210.06	6.2683e-06	6.3527e-06	274.31	78.455	60.456	17.131	6.1362e-06	24.447	168.729	211.534	293.300	156.346	261.267	278.263	156.390	164.037	275.641	334.924	163.774	170.023	169.957	178.275	309.375	177.307	-8191	255	
29153.412	1	1	0	0	0.16843	0.20188	0.047252	0.16819	0.19803	0.085735	0.23662	0.28299	0.022774	0.13622	0.15041	0.072529	0.46171	0.23412	0.38763	0.21115	-2.2938	-2.6896	-2.15	-2.9542	-2.3229	-2.2979	-3.1146	-2.0875	-2.5417	-2.4917	-2.2625	-2.95	-2.4	-2.2021	-2.8792	-2.0938	473.933	199.717	221.692	429.683	410.420	232.883	197.330	219.870	313.173	148.283	346.389	270.965	485.748	363.044	381.160	455.526	0.00030817	0.00038799	8.4847e-05	1027.7	1.2816e-06	4.9502e-06	1143	209.9	3.542e-06	3.3878e-06	273.67	78.235	60.103	16.822	4.0665e-06	23.804	0.00051643	0.00058954	0.00017076	1017.7	6.5075e-06	6.7892e-06	1134.5	210.2	6.6613e-06	6.6698e-06	274.46	78.66	60.705	17.15	6.8147e-06	24.481	174.687	251.593	247.593	156.743	242.700	297.535	156.490	163.744	274.537	308.274	163.824	170.245	170.026	178.188	318.235	177.547	-8191	255	
29153.508	1	1	0	0	0.12223	0.15772	0.18847	0.098566	0.10253	0.17008	0.19982	0.023813	0.17883	0.059204	0.17473	0.1543	0.13725	0.10311	0.2011	0.20161	-2.2354	-2.7833	-2.1042	-2.9229	-2.5854	-2.1146	-3.125	-2.4771	-2.5771	-2.8396	-2.2	-2.7687	-2.5312	-2.1792	-2.9042	-2.2687	194.838	306.009	204.438	279.358	275.733	487.727	422.504	307.887	265.042	453.351	154.315	371.934	160.114	393.229	497.269	497.112	0.00031636	0.00029758	0.00010595	1031	4.0725e-06	1.9637e-06	1141.4	210.36	1.7618e-06	3.6823e-06	273.68	78.173	60.25	16.908	2.4733e-06	23.753	0.00054339	0.00063378	0.00017983	1021.2	6.9408e-06	7.064e-06	1133.3	210.21	6.6967e-06	6.5758e-06	273.93	78.613	60.646	17.24	6.7207e-06	24.48	174.188	227.346	237.642	156.816	345.252	284.124	156.104	163.976	266.177	320.788	163.781	170.190	170.305	178.802	293.037	177.406	-8191	255	
29153.604	1	1	0	0	0.15183	0.11339	0.087107	0.31186	0.16074	0.0773	0.31297	0.22472	0.27696	0.21702	0.24985	0.18306	0.1631	0.19085	0.20875	0.12042	-2.1104	-2.8063	-1.9896	-2.8937	-2.6333	-2.3187	-3.2521	-2.3917	-2.3854	-2.9146	-2.1667	-2.7542	-2.7958	-2.1604	-2.9625	-2.4333	237.235	224.268	200.646	446.843	204.421	431.199	407.933	405.560	457.852	426.909	214.653	430.699	209.987	375.053	340.773	157.805	0.00038481	8.8491e-05	0.00015155	1030.1	3.3018e-06	4.5238e-06	1141.5	211.84	3.0086e-06	4.8141e-06	273.89	77.775	60.056	16.881	4.3367e-06	23.696	0.00054061	0.00061891	0.00017782	1019	6.8477e-06	7.0242e-06	1134.2	210.64	6.6327e-06	6.7917e-06	274.34	78.18	60.745	17.191	6.4638e-06	24.411	171.848	493.546	221.596	156.264	270.038	327.834	156.422	163.675	280.644	274.236	163.486	169.987	170.015	178.207	291.015	178.017	-8191	255	
29153.725	1	1	0	0	0.10507	0.21282	0.36964	0.20306	0.024603	0.22161	0.044336	0.085357	0.13469	0.26625	0.098836	0.21832	0.050645	0.19501	0.12525	0.12791	-1.7979	-2.9146	-2.0792	-2.6688	-2.6854	-2.1979	-2.9771	-2.5208	-2.2938	-2.8729	-2.3083	-2.6292	-2.8479	-2.025	-2.8229	-2.625	253.233	303.010	432.230	398.460	260.793	421.667	473.427	504.780	498.401	417.252	328.686	402.137	260.477	165.379	381.192	264.916	0.00034053	0.00032792	2.3988e-05	1027.6	2.7112e-06	2.6132e-06	1142.8	210.61	2.5572e-06	1.3381e-06	274.22	77.598	59.875	16.698	3.2898e-06	23.891	0.00053547	0.00059796	0.00017866	1018.2	6.3787e-06	6.8895e-06	1132.6	209.83	6.528e-06	6.7644e-06	274.33	78.352	60.813	17.147	6.4118e-06	24.513	173.083	238.883	216.126	156.618	291.940	313.786	156.219	163.710	260.315	288.107	163.537	170.102	170.286	178.055	292.560	177.823	-8191	255	
29153.820	1	1	0	0	0.27842	0.20747	0.028483	0.1715	0.24371	0.21189	0.028633	0.1241	0.079232	0.10059	0.097675	0.25909	0.086488	0.17484	0.20444	0.18096	-1.7729	-2.9271	-2.1396	-2.5354	-2.6604	-2.1813	-3.0396	-2.8271	-2.2438	-2.9979	-2.3833	-2.5917	-2.925	-2.2042	-2.9021	-2.6875	380.080	315.558	443.068	379.958	153.807	443.799	368.455	167.183	153.454	467.630	321.396	477.565	249.926	465.683	263.693	225.926	0.00029492	0.00016872	5.0358e-05	1025.2	4.0066e-06	4.3064e-06	1147.8	210.96	2.3134e-06	5.4832e-06	273.3	77.68	60.047	16.891	2.47e-06	23.961	0.00052527	0.00058463	0.00017035	1016.3	6.57e-06	6.5861e-06	1135.9	210.22	6.495e-06	6.3069e-06	273.87	78.442	60.647	17.156	6.2028e-06	24.488	175.789	258.275	251.104	156.646	259.715	290.765	156.693	163.831	251.380	307.720	163.721	170.218	170.538	178.562	317.493	177.656	-8191	255	
29153.893	1	1	0	0	0.096483	0.034284	0.13333	0.23569	0.20891	0.041358	0.10884	0.095557	0.081654	0.056973	0.12691	0.10345	0.11001	0.058311	0.18605	0.26209	-1.6104	-2.9646	-2.3333	-2.4208	-2.7625	-1.9917	-2.7729	-2.7083	-2.1083	-3.1542	-2.5167	-2.4437	-2.9229	-2.0938	-2.5979	-2.8604	398.187	229.884	206.025	441.320	498.832	306.908	413.011	295.415	416.161	469.769	422.259	326.336	409.066	172.184	294.320	439.664	0.00032285	0.00047982	5.1853e-05	1034.4	1.9363e-06	2.8222e-06	1137.5	210.43	3.5194e-06	4.0617e-06	274.64	77.507	60.115	16.719	2.7497e-06	24.021	0.000508	0.00058881	0.00016426	1020.3	6.6536e-06	6.7414e-06	1131.5	210.15	6.5612e-06	6.5506e-06	274.58	78.605	60.667	17.117	6.4823e-06	24.504	174.149	245.560	225.581	156.375	238.340	244.529	156.469	164.120	240.005	333.271	163.810	170.055	170.544	178.176	301.447	177.544	-8191	255	
29154.014	1	1	0	0	0.20213	0.10655	0.25751	0.057503	0.20045	0.10508	0.33944	0.27354	0.027774	0.18707	0.11733	0.28996	0.17366	0.16446	0.15718	0.12084	-1.6562	-2.7438	-2.5104	-2.1562	-2.8729	-2.05	-2.7208	-2.8333	-2.1562	-2.7188	-2.6792	-2.15	-2.9667	-2.3167	-2.4854	-2.9688	322.971	497.503	176.367	407.411	421.686	433.223	465.276	394.363	401.844	292.632	248.615	500.270	162.467	426.661	469.896	187.000	0.00034332	0.0001885	9.4707e-05	1031.2	1.7965e-06	4.4447e-06	1148	210.13	2.7387e-06	3.388e-06	273.68	77.599	60.515	16.844	2.7299e-06	23.888	0.00051047	0.00062568	0.00017033	1019.7	6.5936e-06	6.768e-06	1135.2	210.05	6.4799e-06	6.6064e-06	274.62	78.251	60.684	17.161	6.6124e-06	24.408	171.463	209.410	248.741	156.310	254.705	328.451	156.471	163.726	279.421	312.111	163.567	169.946	170.407	178.464	259.312	177.462	-8191	255	
29154.107	1	1	0	0	0.2154	0.086461	0.073099	0.25316	0.202	0.12524	0.34806	0.13433	0.10692	0.080137	0.23341	0.38971	0.18017	0.10234	0.15125	0.3262	-1.7313	-2.8375	-2.4792	-2.1521	-3	-2.4417	-2.5542	-2.9458	-2.2313	-2.7104	-2.8187	-2.0771	-3.1875	-2.25	-2.2375	-2.9292	198.392	367.744	453.179	457.122	242.470	500.341	472.663	441.915	235.907	504.157	406.942	444.170	177.699	492.013	199.673	455.724	0.00036431	0.00018288	0.00010029	1030.4	4.332e-06	3.575e-06	1140.6	211.15	2.4925e-06	3.6196e-06	273.61	77.968	60.397	16.89	4.0481e-06	23.907	0.00052827	0.00062081	0.0001738	1020.2	6.6025e-06	7.0519e-06	1133.5	210.32	6.746e-06	6.8142e-06	274.38	78.578	60.753	17.198	6.776e-06	24.5	172.714	246.556	196.076	156.809	277.499	237.154	156.350	164.027	288.183	270.882	163.517	170.253	169.947	178.204	289.926	177.546	-8191	255	
29154.203	1	1	0	0	0.2261	0.093389	0.072017	0.19432	0.227	0.11096	0.2198	0.15562	0.12202	0.17036	0.23698	0.24205	0.077508	0.11	0.1882	0.3123	-1.7854	-2.7333	-2.6396	-2.1771	-3.0312	-2.5792	-2.3438	-3.1208	-2.2729	-2.5854	-2.7021	-2.0563	-2.8042	-2.5854	-2.2333	-3.1604	409.636	252.936	492.773	481.676	503.437	458.497	377.587	481.145	435.281	383.511	496.853	409.457	305.165	286.781	398.351	496.966	0.00032848	0.00020823	0.00011665	1026.3	8.1711e-07	5.9239e-07	1142.1	211.46	2.5691e-06	2.5085e-06	275.5	78.125	60.728	16.851	3.2788e-06	23.762	0.00054451	0.00061846	0.00017428	1018.7	6.7068e-06	7.0495e-06	1135.5	211.01	6.6653e-06	7.0191e-06	274.54	78.534	60.975	17.174	7.0135e-06	24.471	174.117	245.170	202.477	156.391	301.333	403.175	156.744	163.872	267.937	250.936	163.621	170.407	169.685	178.482	295.549	177.994	-8191	255	
29154.301	1	1	0	0	0.10791	0.097447	0.16835	0.19439	0.15078	0.18188	0.28116	0.17892	0.27617	0.084467	0.15356	0.36964	0.14	0.25786	0.12588	0.143	-1.8083	-2.5979	-2.6667	-2.2021	-2.9542	-2.7396	-2.3854	-2.925	-2.2562	-2.5104	-2.9021	-2.275	-2.7854	-2.8312	-2.1958	-3.0187	227.272	296.207	394.649	364.411	505.283	500.437	397.323	419.961	356.462	200.741	473.968	473.585	456.585	498.297	311.244	404.270	0.0003165	0.00026428	0.00010322	1028.9	3.2966e-06	1.3983e-06	1144.6	210.88	4.0027e-06	5.4375e-06	273.43	77.753	59.929	16.744	4.001e-06	24.011	0.00052888	0.00061054	0.0001757	1018.3	6.8465e-06	6.8259e-06	1134.9	210.54	6.9601e-06	6.9026e-06	274.28	78.542	60.736	17.116	6.6372e-06	24.547	170.406	263.778	274.010	156.547	277.801	341.222	156.724	164.189	282.042	299.638	163.425	170.209	170.710	177.960	360.162	177.430	-8191	255	
29154.422	1	1	0	0	0.18829	0.15309	0.23982	0.31692	0.14085	0.19048	0.25216	0.27052	0.21278	0.062505	0.2055	0.046347	0.3265	0.15763	0.049935	0.26784	-1.9375	-2.4583	-2.9062	-2.1312	-2.7979	-2.6333	-2.3854	-2.9271	-2.2875	-2.3375	-3.1437	-2.1854	-2.8458	-2.7604	-2.15	-3.0521	423.422	399.300	420.675	163.134	461.282	442.399	480.936	501.320	221.567	233.746	477.584	398.740	340.316	472.460	337.495	444.584	0.00032466	6.5202e-05	7.2058e-05	1024.2	1.3384e-06	3.9924e-06	1142.4	211.95	5.175e-06	3.6462e-06	274.54	78.029	59.924	16.84	3.2231e-06	23.906	0.00051531	0.00062072	0.00016473	1016.9	6.7259e-06	6.6363e-06	1132.9	210.98	6.3758e-06	6.6127e-06	275.32	78.599	60.651	17.189	6.4715e-06	24.488	172.363	318.725	279.284	156.329	334.921	415.070	156.351	164.009	252.578	343.895	163.513	169.889	170.582	177.830	288.445	177.036	-8191	255	
29154.518	1	1	0	0	0.20536	0.085192	0.10605	0.030433	0.25218	0.14081	0.098099	0.12893	0.18522	0.20772	0.096274	0.31552	0.10776	0.16929	0.021373	0.15274	-2.0979	-2.0563	-3.0917	-2.3042	-2.6646	-2.8646	-2.4417	-3.1229	-2.6083	-2.275	-3.0521	-2.3187	-2.5167	-2.8812	-2.0438	-2.9292	168.038	183.385	446.427	345.682	305.796	219.182	167.279	412.970	473.076	497.506	467.697	487.482	484.610	312.010	256.985	496.677	0.00034625	0.00014232	0.00013518	1029.5	4.2134e-07	4.8959e-06	1147.9	211.02	1.5442e-06	2.1161e-06	273.84	77.838	60.333	16.984	4.5006e-06	23.824	0.0005048	0.00061154	0.00016524	1018.1	6.4587e-06	6.4736e-06	1137.4	210.41	6.604e-06	6.7276e-06	273.96	78.371	60.812	17.183	6.7007e-06	24.459	170.313	244.023	244.073	156.051	345.454	294.629	156.615	163.955	277.422	266.889	163.561	170.309	170.070	177.987	305.914	177.993	-8191	255	
29154.590	1	1	0	0	0.1436	0.25399	0.07824	0.3285	0.17235	0.085569	0.090783	0.33599	0.30168	0.09908	0.15381	0.4245	0.33978	0.11795	0.18435	0.20342	-2.3375	-2.2229	-2.9104	-2.2708	-2.4458	-2.9875	-2.1479	-2.8604	-2.7062	-2.2354	-2.8167	-2.2604	-2.4125	-2.9188	-2.2771	-2.6833	406.494	226.405	406.042	421.106	179.066	300.810	389.223	470.392	302.418	209.615	405.929	453.649	474.505	472.357	318.119	492.238	0.00037056	0.00030116	2.7818e-05	1028.2	3.544e-06	3.8665e-06	1141	211.06	4.0091e-06	4.6105e-06	272.92	77.873	60.323	16.902	3.7159e-06	23.847	0.0005157	0.00061491	0.00016922	1019	6.7865e-06	6.6397e-06	1134.1	210.6	6.2089e-06	6.8295e-06	274.61	78.345	60.726	17.21	6.4261e-06	24.463	170.321	205.065	213.068	156.434	280.736	304.783	156.413	163.775	257.294	293.363	163.631	169.889	170.516	178.463	273.655	177.368	-8191	255	
29154.686	1	1	0	0	0.065057	0.083382	0.15201	0.339	0.42091	0.23849	0.20517	0.18023	0.12173	0.058041	0.14954	0.042116	0.32455	0.11315	0.27431	0.34249	-2.3333	-2.0771	-2.8271	-2.5729	-2.5333	-2.9708	-2.5104	-2.6458	-2.9354	-2.2021	-3.0312	-2.6021	-2.3	-2.9938	-2.3229	-2.65	149.550	323.232	408.756	425.641	443.784	324.703	430.600	429.234	463.578	196.987	389.032	492.192	153.199	218.625	406.683	411.193	0.00034138	0.00022441	7.464e-05	1026.6	2.7169e-06	2.5348e-06	1143	211.72	2.6082e-06	3.8515e-06	273.15	77.73	60.083	16.817	1.5099e-06	23.756	0.00049217	0.00060525	0.00016558	1017.2	6.5767e-06	6.4386e-06	1135.2	210.59	6.2991e-06	6.4732e-06	274.39	78.521	60.82	17.171	6.4483e-06	24.425	175.816	285.703	226.406	156.333	310.954	298.976	156.441	164.024	286.544	325.166	163.911	170.054	170.703	178.061	301.834	178.079	-8191	255	
29154.805	1	1	0	0	0.31524	0.031875	0.15574	0.3426	0.059804	0.25289	0.15851	0.10817	0.12944	0.13374	0.13949	0.13449	0.13911	0.27469	0.12828	0.16064	-2.4833	-2.0167	-2.8229	-2.5958	-2.1146	-3.0854	-2.4292	-2.4833	-3.0375	-1.9958	-2.8229	-2.7042	-2.2125	-2.9458	-2.3771	-2.4938	370.690	211.178	174.979	489.344	178.635	500.741	443.983	167.121	320.772	423.281	436.718	245.540	360.386	470.300	395.595	268.297	0.00032754	0.00024408	9.2109e-05	1030.6	3.0325e-06	2.841e-06	1137.7	210.87	1.0989e-06	4.653e-06	274.4	77.82	60.501	16.815	3.4893e-06	23.735	0.00049711	0.0006125	0.00016189	1017.1	6.5758e-06	6.3783e-06	1133.2	210.1	6.3065e-06	6.6834e-06	274.33	78.39	60.832	17.134	6.3381e-06	24.436	172.956	230.867	272.531	156.427	261.445	289.197	156.830	164.213	281.100	305.112	163.583	169.905	170.760	178.644	309.525	177.863	-8191	255	
29154.900	1	1	0	0	0.078407	0.099138	0.19591	0.082861	0.10174	0.10509	0.22686	0.17143	0.055363	0.18638	0.18431	0.10257	0.056143	0.16816	0.22199	0.23826	-2.6854	-1.9958	-2.5667	-2.7271	-2.1354	-3.0062	-2.6292	-2.4104	-2.8292	-2.15	-2.8396	-2.8083	-2.2583	-2.9354	-2.3521	-2.3583	473.516	415.725	310.098	469.883	159.398	343.564	182.043	493.732	362.124	315.059	163.986	456.256	465.422	456.483	414.050	449.615	0.00032825	0.00039314	9.6435e-05	1030.6	3.9489e-06	2.4073e-06	1145.2	211.26	3.8651e-06	1.8835e-06	275.49	77.477	59.72	16.714	4.4328e-06	23.961	0.00048892	0.00058909	0.00015751	1017.4	6.3242e-06	6.3726e-06	1133.4	210.46	6.3302e-06	6.3501e-06	274.53	78.332	60.737	17.161	6.2463e-06	24.48	174.380	230.283	207.167	156.406	291.332	283.048	156.481	163.947	302.262	346.527	164.062	170.065	170.418	178.771	303.856	178.237	-8191	255	
29154.998	1	1	0	0	0.067654	0.31027	0.077331	0.27984	0.34965	0.12828	0.18193	0.24919	0.23728	0.1274	0.29435	0.12333	0.24712	0.23963	0.1536	0.047554	-2.5062	-2.2167	-2.7	-2.7687	-2.1937	-2.8	-2.6937	-2.4854	-2.9917	-2.2729	-2.5958	-2.8312	-2.0208	-2.7917	-2.4562	-2.1917	282.036	449.403	152.942	403.928	455.212	232.315	457.679	457.951	300.385	272.265	155.237	190.757	395.053	469.697	376.124	229.033	0.00034387	0.00020382	5.1289e-05	1029.2	4.7211e-06	2.2918e-06	1138.2	210.68	2.314e-06	7.1533e-07	273.76	77.515	60.164	16.675	3.624e-06	23.922	0.00048664	0.00059204	0.00015746	1015.9	6.4272e-06	6.4373e-06	1131.5	210.02	6.2015e-06	6.6227e-06	274.02	78.432	60.729	17.131	6.3165e-06	24.468	172.375	239.128	268.706	156.524	281.149	328.925	156.667	164.118	285.143	168.330	164.236	170.021	170.606	178.147	277.277	177.756	-8191	255	
29155.115	1	1	0	0	0.18217	0.11839	0.11468	0.16827	0.1985	0.074694	0.24535	0.070279	0.16449	0.21074	0.19298	0.10932	0.079702	0.09586	0.2077	0.091573	-2.7562	-2.3021	-2.3958	-2.9104	-2.0563	-2.8146	-2.9083	-2.1312	-2.9875	-2.3896	-2.4437	-2.9417	-2.2708	-2.7271	-2.7438	-2.2438	273.559	221.518	187.793	397.479	472.785	436.073	473.844	205.094	259.562	444.886	431.874	494.671	315.528	242.425	157.140	481.823	0.00030116	0.00020373	3.8827e-05	1030.2	2.6377e-06	5.4132e-06	1140.6	210.92	1.6227e-06	3.2695e-06	274.09	78.077	60.34	16.865	2.7486e-06	23.857	0.00049821	0.00057777	0.00016394	1016.3	6.4865e-06	6.54e-06	1130.6	210.6	6.2018e-06	6.3477e-06	273.99	78.388	60.718	17.181	6.2997e-06	24.475	171.686	229.889	225.700	156.367	189.499	293.704	156.425	164.222	291.575	290.603	163.927	170.094	170.162	178.572	291.873	177.851	-8191	255	
29155.189	1	1	0	0	0.29083	0.24667	0.21225	0.268	0.20358	0.18164	0.12843	0.019167	0.25307	0.31503	0.051056	0.048326	0.25034	0.063781	0.17281	0.080777	-2.4562	-2.2458	-2.4104	-2.9333	-2.2938	-2.8229	-2.8312	-2.2833	-2.9896	-2.3479	-2.4542	-2.9938	-2.2375	-2.4771	-2.7812	-2.2583	479.609	375.072	355.648	457.209	203.310	369.629	410.844	436.312	275.559	207.548	339.803	170.018	432.753	479.718	285.510	381.679	0.00031811	0.00027823	8.4961e-05	1027	3.2293e-06	3.0651e-06	1141.4	211.16	2.7558e-06	4.2976e-06	274.41	77.682	60.468	16.88	3.5875e-06	23.839	0.00049529	0.00058514	0.0001621	1017.7	6.1622e-06	6.6565e-06	1132.8	210.34	6.2609e-06	6.3418e-06	274.61	78.383	60.751	17.203	6.3213e-06	24.409	172.151	234.956	208.880	156.641	282.710	280.588	156.311	164.193	261.708	336.216	164.148	170.144	170.683	178.718	253.913	178.164	-8191	255	
29155.285	1	1	0	0	0.16288	0.10321	0.10187	0.19985	0.20855	0.14148	0.27537	0.10942	0.071348	0.069123	0.14285	0.024072	0.40065	0.25355	0.05897	0.067291	-2.5375	-2.6625	-2.1521	-3.0625	-2.0604	-2.6917	-3.1333	-2.2854	-2.8937	-2.6437	-2.4188	-3.1896	-2.575	-2.6	-2.9062	-2.2812	209.776	172.280	309.302	490.251	263.087	347.462	429.980	369.458	461.966	460.923	353.683	391.727	148.860	387.113	411.313	477.146	0.00031484	0.00043103	8.4331e-05	1027.6	2.7882e-06	3.237e-06	1141.2	210.93	2.7936e-06	4.3955e-06	274.4	78.208	60.322	16.718	2.683e-06	23.708	0.00049858	0.00058132	0.00016293	1018.7	6.3328e-06	6.6127e-06	1133.2	210.18	6.3133e-06	6.284e-06	274.28	78.486	60.744	17.167	6.2514e-06	24.401	172.966	237.642	219.612	156.586	258.603	241.608	156.637	164.160	273.046	310.550	164.085	170.022	170.523	178.711	328.470	178.189	-8191	255	
29155.404	1	1	0	0	0.085334	0.21287	0.041811	0.22439	0.14122	0.18029	0.12784	0.13063	0.13424	0.14544	0.24311	0.08978	0.14311	0.21969	0.25084	0.15741	-2.4042	-2.6375	-2.3354	-3.0417	-2.4542	-2.4646	-3.125	-2.1833	-2.6625	-2.6875	-2.1937	-3.0958	-2.4896	-2.2146	-2.9792	-2.1417	343.298	203.725	416.769	161.184	317.573	380.414	337.519	207.607	198.864	390.451	491.308	473.923	243.384	399.040	421.541	440.192	0.00035328	0.00034028	8.1421e-06	1026.1	3.0588e-06	4.9972e-06	1141.8	209.79	3.0875e-06	4.8245e-06	274.03	77.881	60.103	16.967	3.6564e-06	23.741	0.00050086	0.00059119	0.00016495	1015.4	6.3746e-06	6.5245e-06	1132.3	209.64	6.2677e-06	6.6087e-06	273.87	78.48	60.719	17.189	6.1787e-06	24.461	164.283	244.197	238.795	156.531	259.827	291.624	156.635	164.051	271.948	287.201	164.021	170.396	170.808	178.351	265.880	177.932	-8191	255	
29155.502	1	1	0	0	0.21164	0.17449	0.18684	0.26814	0.097025	0.32724	0.17945	0.14363	0.25238	0.065862	0.2521	0.12266	0.085166	0.19682	0.18121	0.30594	-2.3646	-2.6542	-2.2354	-2.9104	-2.4854	-2.2542	-2.9375	-2.2687	-2.6688	-2.8375	-2.2708	-2.8125	-2.5583	-2.2792	-2.9458	-2.4958	466.872	422.709	347.464	397.778	228.333	196.007	465.513	378.633	446.788	267.590	438.396	158.352	335.701	487.343	162.788	453.566	0.00033549	0.00037343	0.00010343	1027.7	3.5223e-06	2.7885e-06	1140	210.29	2.0329e-06	3.967e-06	273.13	78.051	60.433	16.889	4.6161e-06	23.682	0.00050056	0.00058683	0.00016476	1016.9	6.6003e-06	6.6306e-06	1131.9	209.85	6.2535e-06	6.3132e-06	273.37	78.496	60.684	17.195	6.0977e-06	24.417	171.089	194.924	236.079	156.414	264.785	253.894	156.814	163.967	279.480	271.135	163.978	170.623	170.697	179.172	293.290	177.741	-8191	255	
29155.598	1	1	0	0	0.17092	0.061252	0.28088	0.018934	0.087398	0.12007	0.14753	0.27876	0.062651	0.11618	0.12719	0.36756	0.046139	0.14476	0.40769	0.14651	-2.2875	-2.9521	-2.1208	-3.0521	-2.6625	-2.1917	-3.0938	-2.3458	-2.3104	-3.0146	-2.1937	-2.7687	-2.6562	-2.1083	-2.7833	-2.4292	258.026	416.100	275.798	471.296	383.016	417.342	486.613	502.441	461.241	235.768	496.325	404.660	436.159	378.652	152.499	396.767	0.00032647	0.0001539	6.838e-05	1022.6	1.6087e-06	2.4638e-06	1138.5	210.7	3.5107e-06	1.472e-06	273.92	77.484	60.603	16.856	3.9962e-06	23.603	0.00048647	0.00058683	0.00016879	1015.2	6.2209e-06	6.5103e-06	1130	209.69	6.3921e-06	6.3796e-06	273.79	78.116	60.791	17.124	6.0009e-06	24.411	174.139	193.626	265.477	156.990	280.658	258.578	156.791	164.168	273.490	335.827	163.883	170.614	170.594	178.794	291.623	178.090	-8191	255	
29155.719	1	1	0	0	0.24674	0.20513	0.21676	0.18165	0.045975	0.112	0.31118	0.18618	0.23027	0.059751	0.24542	0.11717	0.10643	0.30915	0.082615	0.31836	-2.1292	-2.8125	-2.075	-2.6125	-2.8417	-2.0667	-3.0729	-2.6146	-2.3104	-3.1896	-2.1875	-2.7708	-2.8604	-2.2021	-2.8167	-2.55	148.682	464.247	425.400	478.543	384.620	283.073	445.304	370.605	471.394	211.702	336.536	397.617	368.197	155.030	409.134	497.112	0.0003203	0.00055278	0.00016395	1020.8	3.1803e-06	3.0358e-06	1142.1	210.91	4.0727e-06	1.8422e-06	272.88	77.356	60.142	16.861	2.3992e-06	23.858	0.00048194	0.00057702	0.00016605	1013.4	6.3695e-06	6.609e-06	1132.5	210.36	6.1177e-06	6.4015e-06	273.11	78.208	60.449	17.159	6.212e-06	24.449	171.266	229.574	229.867	156.682	285.965	301.280	156.540	164.029	274.666	306.180	163.620	170.163	170.220	178.461	235.745	177.918	-8191	255	
29155.789	1	1	0	0	0.10159	0.14014	0.2514	0.27892	0.15829	0.1563	0.017464	0.12669	0.31823	0.12306	0.07565	0.29046	0.18899	0.14258	0.22314	0.12884	-1.8896	-2.9042	-2.1833	-2.6354	-2.9729	-2.1333	-3.0479	-2.5542	-2.3167	-2.7854	-2.5021	-2.5167	-2.975	-2.15	-2.95	-2.7833	228.845	476.524	298.663	474.234	172.953	166.192	245.097	502.495	235.187	476.597	165.030	363.031	440.771	171.364	445.105	403.520	0.00033246	0.00015039	5.1099e-05	1026.6	2.474e-06	4.3864e-06	1142.7	210.97	4.1935e-06	2.0788e-06	273.11	77.502	60.43	16.86	3.9202e-06	23.931	0.00049856	0.00058599	0.00016437	1018.8	6.4198e-06	6.6915e-06	1132.3	209.95	6.43e-06	6.273e-06	273.79	78.316	60.607	17.193	6.2435e-06	24.483	169.052	218.144	201.236	156.947	295.119	292.191	156.662	164.066	265.683	269.281	163.930	170.443	170.843	178.841	290.103	178.325	-8191	255	
29155.887	1	1	0	0	0.1356	0.095661	0.051285	0.089399	0.26735	0.26205	0.1404	0.34495	0.23309	0.24406	0.19613	0.10502	0.20429	0.19891	0.12832	0.085552	-1.7958	-2.9188	-2.4729	-2.5	-2.8625	-2.2271	-2.8563	-2.8	-2.1188	-2.9375	-2.4583	-2.4292	-2.7542	-2.1354	-2.7062	-2.7938	354.526	424.819	215.121	421.682	421.053	324.071	408.104	427.504	362.112	305.077	414.654	172.675	170.940	339.196	393.466	389.692	0.00033108	0.00026403	0.00015473	1027.7	4.5161e-06	2.6545e-06	1145.5	211.85	1.5303e-06	6.4413e-06	272.78	77.301	60.004	16.695	4.5388e-06	23.756	0.00051043	0.00057494	0.0001654	1016.1	6.2011e-06	6.4908e-06	1132	210.59	6.3601e-06	6.0917e-06	273.23	78.365	60.52	17.147	6.1524e-06	24.377	171.774	249.564	210.736	156.953	271.787	354.273	156.807	164.096	213.855	276.141	163.755	170.101	170.284	179.056	311.071	177.826	-8191	255	
29155.982	1	1	0	0	0.16421	0.25575	0.15665	0.12263	0.18884	0.23624	0.36172	0.076687	0.21921	0.083533	0.17054	0.29332	0.14915	0.12889	0.197	0.21659	-1.7396	-2.8208	-2.5375	-2.3542	-2.8979	-2.4833	-2.7417	-2.9292	-2.0229	-2.7396	-2.675	-2.2625	-2.9208	-2.3625	-2.4604	-2.8104	453.104	453.398	176.514	428.282	155.042	472.589	413.068	257.111	417.386	322.942	478.052	445.262	240.837	340.856	291.934	269.919	0.00031013	0.00038963	8.9243e-05	1026.7	2.0411e-06	4.1068e-06	1143.8	210.03	4.2972e-06	2.0335e-06	271.7	77.753	59.859	16.814	2.5973e-06	23.98	0.00050211	0.00057422	0.00016004	1015.2	6.0404e-06	6.1574e-06	1132.6	209.36	6.1716e-06	6.2481e-06	273.04	78.281	60.654	17.12	6.0285e-06	24.491	168.964	210.999	218.344	156.679	247.309	319.928	156.845	164.126	283.704	213.629	164.309	170.416	170.823	178.579	288.263	177.838	-8191	255	
29156.102	1	1	0	0	0.13648	0.27097	0.058946	0.073235	0.29033	0.10735	0.1471	0.11023	0.20002	0.17454	0.19845	0.11761	0.21371	0.15816	0.28247	0.082615	-1.7021	-2.9333	-2.55	-2.2938	-2.8	-2.2833	-2.5542	-2.8917	-2.0583	-2.8063	-2.7333	-2.1708	-3.0604	-2.425	-2.3146	-3.0125	281.203	259.306	414.614	220.624	438.241	177.554	212.563	296.333	284.818	195.773	459.872	466.162	506.230	191.498	316.286	497.110	0.00034777	0.00017272	0.00011637	1031.5	2.5909e-06	2.2589e-06	1138.1	209.61	3.628e-06	8.0308e-08	273.63	77.791	59.985	16.756	4.8367e-06	23.9	0.00048074	0.0005651	0.00015494	1016.8	6.1724e-06	6.3197e-06	1129.4	209.57	6.0102e-06	6.1505e-06	272.7	78.166	60.262	17.135	6.1504e-06	24.46	173.700	207.706	196.551	156.677	290.618	317.474	157.069	164.488	262.393	248.645	164.248	170.672	170.519	178.663	283.178	178.550	-8191	255	
29156.197	1	1	0	0	0.2989	0.17575	0.39554	0.092651	0.13416	0.15665	0.095785	0.1555	0.10674	0.18335	0.3999	0.17035	0.14682	0.26607	0.019631	0.11421	-1.8375	-2.6896	-2.5917	-2.1458	-2.9521	-2.4625	-2.3958	-3.1125	-2.2417	-2.6229	-2.775	-2.1917	-2.8542	-2.55	-2.2438	-2.975	460.201	283.678	441.492	282.012	502.892	239.013	462.318	156.053	428.372	398.527	484.407	371.607	197.058	436.219	257.969	261.052	0.00035616	0.00042623	3.7231e-05	1024.2	4.23e-06	3.9296e-06	1140.5	210.14	4.5195e-06	2.2753e-06	273.81	77.606	60.184	16.795	1.3431e-06	23.952	0.00049868	0.00057073	0.00015773	1013	5.769e-06	6.4767e-06	1131.7	209.55	6.041e-06	6.2103e-06	273.67	78.342	60.617	17.107	5.958e-06	24.478	175.310	225.468	229.215	157.105	266.449	273.293	157.065	164.454	270.635	251.518	164.005	170.310	170.194	178.236	343.838	177.442	-8191	255	
29156.293	1	1	0	0	0.11667	0.13195	0.12698	0.17958	0.087698	0.28898	0.1985	0.30433	0.19791	0.17976	0.32995	0.16762	0.23576	0.058492	0.31531	0.26417	-1.8271	-2.4042	-2.8083	-1.8083	-2.6437	-2.5312	-2.3063	-2.9229	-2.4792	-2.5875	-2.8417	-2.1146	-2.9167	-2.4229	-2.0812	-3.1229	230.896	236.901	201.823	166.306	170.278	491.809	369.105	157.862	289.879	446.446	467.504	452.709	413.931	353.026	252.662	489.885	0.00031012	0.000334	6.2366e-05	1024.6	3.7431e-06	3.057e-06	1142.5	210.17	3.672e-06	4.9105e-06	272.7	77.212	59.763	16.754	3.4197e-06	24.108	0.00047686	0.00055071	0.00015585	1011.9	6.0414e-06	6.3423e-06	1130.6	209.06	5.9381e-06	6.0725e-06	273.25	78.224	60.381	17.073	6.039e-06	24.494	173.901	235.879	242.174	156.849	239.773	309.236	156.398	163.868	301.238	282.372	163.741	170.113	170.581	178.285	286.573	177.874	-8191	255	
29156.389	1	1	0	0	0.2924	0.27242	0.10993	0.23758	0.14911	0.12976	0.13477	0.042546	0.066846	0.10956	0.10965	0.33802	0.2366	0.13209	0.16062	0.0099051	-1.775	-2.2854	-2.9792	-2.2083	-2.8208	-2.7375	-2.175	-2.8729	-2.1875	-2.2729	-3.0917	-2.2938	-2.7125	-2.7771	-2.2333	-3.0021	243.191	433.845	288.397	462.338	366.654	196.692	441.928	228.925	149.605	190.312	487.319	424.991	184.356	486.967	433.673	437.260	0.00031979	0.00044405	0.00010692	1022.5	2.337e-06	1.6268e-06	1136.4	209.69	1.7313e-06	3.5748e-06	272.75	77.514	59.971	16.732	3.4181e-06	23.852	0.00047474	0.00057699	0.00015874	1014.8	6.0225e-06	6.2463e-06	1127.6	209.09	5.9052e-06	6.3813e-06	273.28	77.9	60.365	17.09	6.0282e-06	24.464	168.313	230.076	253.764	156.508	307.015	292.177	156.587	164.233	220.031	287.475	163.502	170.245	170.637	178.558	333.014	178.185	-8191	255	
29156.484	1	1	0	0	0.14959	0.14354	0.15681	0.38723	0.27146	0.16043	0.20744	0.40769	0.15718	0.093585	0.10267	0.14138	0.42234	0.11968	0.10347	0.37455	-2.0979	-2.2479	-2.8812	-2.1208	-2.5563	-2.85	-2.3854	-3.0167	-2.5062	-2.0375	-3.1604	-2.3312	-2.4062	-2.7979	-2.1708	-3	396.514	449.227	168.684	184.352	190.112	415.651	435.419	474.424	223.191	371.290	192.331	160.071	381.983	474.250	183.722	421.909	0.00032852	0.0004439	2.0837e-05	1025.5	2.7724e-06	3.0643e-06	1141.2	210.22	3.2351e-06	2.061e-06	274.27	77.465	59.973	16.888	2.8242e-06	23.771	0.00048229	0.00056597	0.00015878	1012.9	6.2135e-06	6.217e-06	1130.2	209.41	5.8725e-06	6.4523e-06	273.88	78.117	60.364	17.132	6.1425e-06	24.376	171.560	243.512	216.622	156.623	275.816	248.317	156.489	164.091	311.319	301.071	163.758	170.470	171.303	178.866	324.194	177.942	-8191	255	
29156.580	1	1	0	0	0.15662	0.23947	0.052529	0.18457	0.14647	0.13347	0.43092	0.3824	0.054754	0.12413	0.1553	0.42708	0.34403	0.11279	0.13957	0.31029	-2.1292	-2.2854	-3.0458	-2.3854	-2.4542	-2.9542	-2.3625	-2.9938	-2.7208	-2.2771	-3.1083	-2.3104	-2.5687	-3.1042	-2.2354	-2.9417	303.045	405.926	502.203	254.496	364.282	182.397	429.288	374.068	465.265	288.449	193.127	410.606	348.306	468.138	466.640	388.161	0.00031555	0.00044676	0.00012269	1022.7	1.8805e-06	2.2792e-06	1139.2	211.03	3.0766e-06	3.1128e-06	272.39	77.75	60.361	16.752	4.4508e-06	23.809	0.00048505	0.00059101	0.0001588	1010.7	6.1399e-06	6.345e-06	1129.1	210.32	6.1679e-06	6.1595e-06	272.68	78.092	60.549	17.127	6.2368e-06	24.398	166.510	232.663	241.440	156.914	286.298	367.561	156.840	164.824	255.921	245.447	163.924	170.006	170.231	178.350	296.193	177.592	-8191	255	
29156.678	1	1	0	0	0.18199	0.23699	0.24416	0.067351	0.12143	0.1246	0.34466	0.12435	0.12511	0.16239	0.19563	0.21844	0.02039	0.21971	0.15927	0.1796	-2.4792	-2.0167	-2.7938	-2.5292	-2.2104	-2.9417	-2.3563	-2.7917	-2.8083	-2.1042	-2.9583	-2.425	-2.3417	-2.9833	-2.0938	-2.575	438.793	244.215	488.853	352.146	498.789	285.540	428.566	414.864	183.950	403.663	436.345	194.634	218.651	287.660	401.450	271.415	0.00030364	0.00027305	8.7599e-05	1019.1	4.4618e-06	1.9923e-06	1144.5	211	2.5573e-06	1.4462e-06	274.19	77.567	60.161	16.871	1.303e-06	23.726	0.00048201	0.00058565	0.00015642	1011.7	6.3851e-06	6.8215e-06	1131.2	210.25	6.4759e-06	6.5473e-06	273.91	78.076	60.56	17.168	6.2232e-06	24.328	169.695	238.235	221.273	156.476	256.890	288.565	156.776	164.030	291.012	377.116	163.913	170.196	170.581	178.595	368.620	177.801	-8191	255	
29156.799	1	1	0	0	0.14461	0.1445	0.092977	0.20066	0.10664	0.20786	0.20251	0.078028	0.045483	0.11795	0.08254	0.38982	0.17803	0.30093	0.20186	0.14142	-2.4	-2.05	-2.8792	-2.4667	-2.3021	-2.9833	-2.3563	-2.7562	-2.7833	-2.0604	-2.8104	-2.7458	-2.1667	-3.0125	-2.3875	-2.4542	157.808	407.574	152.723	456.013	394.464	298.110	390.817	202.239	276.155	296.980	432.597	464.187	419.025	266.566	390.475	353.460	0.00036537	0.00020268	0.00012691	1014.7	4.3737e-06	3.494e-06	1140.8	210.59	3.2909e-06	2.1208e-06	273.53	77.871	60.39	16.861	8.0192e-06	23.85	0.00050225	0.00058418	0.00016539	1011.8	6.5238e-06	6.4992e-06	1131.1	210.11	6.2606e-06	6.3341e-06	273.84	78.267	60.605	17.141	6.4861e-06	24.439	173.035	259.614	228.873	156.569	272.772	326.607	156.526	164.213	265.524	307.673	163.890	169.908	170.380	178.699	291.539	177.888	-8191	255	
29156.895	1	1	0	0	0.194	0.097366	0.20584	0.37019	0.25561	0.28389	0.16946	0.2305	0.27871	0.18431	0.26945	0.053364	0.17265	0.049064	0.092471	0.14531	-2.6208	-2.1708	-2.7021	-2.7562	-2.2146	-3.0771	-2.6188	-2.3812	-2.9938	-2.1708	-2.5708	-2.925	-2.2146	-3.0896	-2.4854	-2.2667	382.831	429.936	245.620	390.663	454.691	162.454	393.915	460.457	363.576	151.659	495.369	349.760	424.147	213.750	399.818	385.744	0.00033334	0.00032717	0.00011162	1029	3.2247e-06	2.4031e-06	1140.5	209.43	2.7648e-06	6.93e-06	272.84	77.314	60.281	16.682	1.6531e-06	23.9	0.00051231	0.00058878	0.00016386	1013.8	6.7004e-06	6.3733e-06	1130.3	209.51	6.2433e-06	6.7223e-06	274.21	78.127	60.667	17.13	6.5404e-06	24.512	173.243	287.499	213.275	156.816	278.845	325.105	156.542	164.170	294.165	282.105	164.365	169.638	170.727	178.687	284.207	177.928	-8191	255	
29156.990	1	1	0	0	0.3161	0.13062	0.19829	0.21469	0.1506	0.12824	0.061772	0.21318	0.1468	0.29912	0.13384	0.099225	0.234	0.17461	0.18759	0.15151	-2.65	-2.2708	-2.7438	-3.0146	-2.3729	-2.8292	-2.6104	-2.3208	-2.8937	-2.1896	-2.7188	-2.8521	-1.9833	-2.8312	-2.5792	-2.1083	434.289	254.403	156.470	430.721	289.164	165.884	325.594	174.046	289.262	417.876	407.792	332.843	306.707	322.014	176.629	366.078	0.00034236	0.00044557	0.00011321	1026.3	4.4037e-06	3.7993e-06	1141	211.07	4.6525e-06	3.687e-06	273.59	77.516	60.222	16.694	2.6525e-06	23.725	0.00050727	0.00059158	0.00016591	1011.6	6.6147e-06	6.5777e-06	1130.2	210.07	6.098e-06	6.6535e-06	273.23	78.374	60.447	17.129	6.4572e-06	24.423	176.256	249.634	235.428	156.184	295.396	283.523	156.441	164.046	270.893	301.777	163.467	170.147	170.666	178.564	265.376	177.943	-8191	255	
29157.088	1	1	0	0	0.099854	0.19153	0.36249	0.049459	0.17151	0.086665	0.14646	0.2003	0.2379	0.10106	0.075984	0.28421	0.17425	0.34027	0.18169	0.12499	-2.5146	-2.3333	-2.3604	-2.8312	-2.1625	-2.7708	-2.6625	-2.1146	-2.8812	-2.3417	-2.6021	-3.1562	-2.2792	-2.7125	-2.6	-2.1937	311.207	388.648	272.296	155.526	462.252	317.919	466.428	385.047	168.463	379.586	454.196	426.353	209.015	427.479	387.299	437.641	0.00027934	0.00056403	0.00013168	1023.7	4.1672e-06	3.9871e-06	1140.5	210.69	5.0931e-06	5.0952e-06	273.89	77.49	59.972	16.858	4.9611e-06	24.032	0.00050482	0.00060374	0.0001633	1014.7	6.5828e-06	6.7814e-06	1130.2	209.92	6.2932e-06	6.4796e-06	273.82	78.318	60.707	17.183	6.3171e-06	24.49	170.005	241.853	223.125	156.495	309.382	303.927	156.637	164.204	300.465	285.300	163.939	170.283	170.740	178.668	286.057	177.548	-8191	255	
29157.182	1	1	0	0	0.11665	0.19689	0.27482	0.15745	0.031691	0.19465	0.15494	0.19491	0.19497	0.17519	0.16669	0.15753	0.149	0.37595	0.21991	0.17464	-2.6458	-2.375	-2.4417	-3.2938	-2.3479	-2.7521	-2.8542	-2.1063	-2.7687	-2.5208	-2.4375	-3.0812	-2.25	-2.5292	-2.8875	-2.3958	327.088	404.555	315.327	404.197	153.236	348.125	255.327	412.971	249.320	173.576	200.511	435.167	413.623	244.405	411.879	483.723	0.00029325	0.00033215	6.325e-05	1023.3	2.9417e-06	5.0371e-06	1139.1	210.03	1.4468e-06	3.1181e-06	274.56	78.513	59.9	16.883	2.7738e-06	23.896	0.00051072	0.00060164	0.00016612	1013.1	6.4208e-06	6.5726e-06	1131.4	209.54	6.2514e-06	6.6389e-06	274.22	78.542	60.498	17.149	6.1349e-06	24.432	176.169	225.150	245.880	156.799	280.848	275.904	156.608	164.449	293.819	343.263	163.784	170.423	170.605	178.578	286.743	177.916	-8191	255	
29157.277	1	1	0	0	0.11561	0.15534	0.13103	0.059831	0.33511	0.096751	0.25138	0.15067	0.015191	0.26471	0.17104	0.1159	0.20128	0.088215	0.032548	0.098144	-2.4375	-2.2729	-2.4062	-2.8875	-2.1896	-2.5875	-3.0375	-2.4062	-2.9521	-2.8167	-2.5146	-3.0229	-2.1542	-2.5687	-2.8583	-2.3146	458.308	306.250	318.558	466.109	474.197	181.890	468.258	471.443	157.929	190.776	371.388	232.593	369.456	200.109	484.365	339.073	0.00033924	0.00046011	5.1369e-05	1030.7	3.0775e-06	2.5423e-06	1135.8	210.71	3.0899e-06	2.2256e-06	273.69	77.341	60.266	16.904	2.3437e-06	23.835	0.00050309	0.00058942	0.00017299	1015	6.5885e-06	6.7481e-06	1129.3	210.08	6.3265e-06	6.8537e-06	273.85	78.07	60.602	17.191	6.3562e-06	24.468	171.162	236.518	267.028	156.813	211.459	315.988	156.586	164.097	284.794	300.852	163.951	170.220	170.864	178.564	278.940	178.116	-8191	255	
29157.398	1	1	0	0	0.23507	0.19859	0.21891	0.17805	0.17702	0.10584	0.046239	0.073855	0.23697	0.20228	0.23248	0.1346	0.073246	0.087828	0.15847	0.11234	-2.5104	-2.6604	-2.2354	-2.8625	-2.5167	-2.6167	-3.2417	-2.3563	-2.7083	-2.9479	-2.1417	-2.9458	-2.5479	-2.2958	-3.0354	-2.1771	184.887	429.903	315.922	251.406	394.148	316.398	500.379	350.161	339.416	460.361	220.570	382.363	327.164	352.315	492.740	267.690	0.00031597	0.00033588	4.7265e-05	1025.8	3.2552e-06	3.7435e-06	1140.1	210.15	3.0981e-06	3.7307e-06	272.96	77.965	60.487	16.803	3.5765e-06	23.932	0.00051786	0.00059465	0.00016195	1014.6	6.4546e-06	6.6962e-06	1131.6	210.06	6.3114e-06	6.4616e-06	273.54	78.356	60.713	17.147	6.1489e-06	24.476	170.500	270.965	268.223	156.625	269.398	308.336	156.656	164.543	264.172	303.594	164.165	170.357	170.251	178.915	265.589	178.139	-8191	255	
29157.494	1	1	0	0	0.1933	0.28554	0.13772	0.10461	0.11374	0.18117	0.34175	0.19625	0.18232	0.22164	0.26487	0.23158	0.11555	0.26752	0.23615	0.10288	-2.225	-2.8042	-2.4021	-3.1229	-2.4688	-2.375	-3.0146	-2.2667	-2.5646	-2.6854	-2.0625	-2.8688	-2.5271	-2.1729	-3.0771	-2.3292	322.538	453.717	499.508	386.666	164.944	234.054	491.265	416.006	228.801	460.300	414.940	202.102	425.336	152.166	331.674	478.994	0.00034484	0.00022816	0.0001195	1025.5	3.2032e-06	3.0454e-06	1145.2	210.48	4.0847e-06	3.7974e-06	271.68	77.766	60.372	16.728	2.3121e-06	23.764	0.00051747	0.00060245	0.00016794	1013.7	6.6376e-06	6.7707e-06	1130.4	210.11	6.5162e-06	6.5841e-06	272.83	78.319	60.567	17.112	6.3784e-06	24.447	170.768	279.151	210.448	157.384	264.457	314.831	156.796	164.250	287.570	278.427	164.111	170.351	170.632	178.394	349.159	177.957	-8191	255	
29157.590	1	1	0	0	0.40551	0.26281	0.043747	0.25361	0.031147	0.077038	0.21203	0.099816	0.097589	0.12658	0.17195	0.16491	0.18195	0.24385	0.21089	0.17564	-2.1146	-2.8646	-2.1688	-2.7708	-2.6875	-2.2771	-2.9833	-2.325	-2.4604	-2.8854	-2.3646	-2.6875	-2.7458	-2.2021	-2.8438	-2.4604	268.139	446.573	166.046	180.268	433.965	384.125	361.207	432.482	243.676	338.012	182.994	154.941	499.076	184.829	268.413	225.622	0.00031198	0.00032072	0.000113	1031.7	3.357e-06	2.0341e-06	1137.9	210.8	4.0688e-06	9.6967e-07	273.08	77.66	60.14	16.857	3.1429e-06	23.898	0.00051721	0.00060738	0.00016926	1017.9	6.7196e-06	6.5905e-06	1129.2	210.3	6.645e-06	6.5997e-06	274.15	78.333	60.715	17.122	6.3568e-06	24.427	172.696	205.613	190.315	156.620	255.255	222.166	156.992	164.278	261.123	158.653	164.007	170.345	170.290	179.073	341.252	177.997	-8191	255	
29157.686	1	1	0	0	0.13387	0.17056	0.090543	0.37892	0.15811	0.093995	0.157	0.18872	0.15075	0.18062	0.35443	0.13703	0.13013	0.19549	0.12892	0.25106	-1.9667	-3.1063	-2.2917	-2.7458	-2.6729	-2.2104	-3.1625	-2.4	-2.025	-3.0292	-2.3458	-2.7292	-2.7479	-2.1562	-2.8479	-2.5375	355.049	369.260	420.259	485.825	373.227	385.338	371.679	200.729	425.095	469.188	158.560	345.089	235.032	335.246	271.663	465.165	0.00032478	5.6742e-05	0.00011747	1030	2.4812e-06	2.6161e-06	1134.8	211.05	2.5998e-06	4.8302e-06	272.74	77.827	60.506	16.903	3.2641e-06	23.792	0.00051186	0.00059775	0.00017305	1016.3	6.402e-06	6.6195e-06	1131.2	209.87	6.4257e-06	6.463e-06	273.84	78.211	60.602	17.163	6.4511e-06	24.398	174.695	292.275	276.987	156.701	239.276	352.071	156.963	164.236	245.346	263.298	163.970	170.592	171.044	179.060	279.417	178.279	-8191	255	
29157.758	1	1	0	0	0.18483	0.21762	0.12354	0.16905	0.048477	0.086671	0.17429	0.33228	0.028883	0.1478	0.26347	0.26542	0.093469	0.029567	0.062684	0.095211	-1.7771	-2.8271	-2.3187	-2.6	-2.7917	-2.2229	-2.9229	-2.6083	-2.0771	-2.9417	-2.2521	-2.575	-2.9354	-2.2104	-2.8229	-2.7167	270.891	210.183	486.965	250.354	312.791	162.658	410.464	433.343	174.918	318.888	459.103	491.716	403.954	436.283	402.920	231.100	0.00035752	0.00026311	7.371e-05	1027	3.1355e-06	1.6182e-06	1140.8	210.98	4.5891e-06	3.4931e-06	274.09	77.811	60.501	16.727	3.3377e-06	23.847	0.00051449	0.00059017	0.00016531	1016.3	6.6306e-06	6.873e-06	1131.5	209.69	6.5125e-06	6.5586e-06	273.68	78.257	60.776	17.134	6.4267e-06	24.474	179.364	234.236	230.779	156.705	265.418	297.635	156.793	164.407	254.761	309.601	164.073	170.360	170.919	178.578	227.185	178.161	-8191	255	
#DATA ENDS
