BOXY.EXE: ISS Imagent and Oximeter Data Acquisition Program Version 0.80
Ascii Record File

#ACQ INFORMATION
2  Detector Channels 
16  External MUX Channels 
1  Auxiliary Channels 
5000  Waveform (CCF) Frequency (Hz)
1  Waveforms Skipped 
30  Waveforms Averaged 
1  Cycles Averaged 
16  Acquisitions per Waveform 
10.0806  Updata Rate (Hz) 

#FILE INFORMATION
TRUE -- External MUX Channel results are PARSED.
FALSE -- AC DC and Phase are NOT grouped.
TRUE -- Companion Program Settings File CREATED.
FALSE -- AC data not excluded
FALSE -- DC data not excluded
FALSE -- Phase data not excluded
FALSE -- Auxillary Chn. data not excluded
Tab delimiters

#CALIBRATION STATE
TRUE -- Waveform Calibration Values APPLIED.


#AUX CALIBRATION VALUES
Val Type	aux-1	

Term	1.0000e+00	
Factor	0.0000e+00	


#WF CALIBRATION VALUES
A = Detector Channel
Val Type	A-AC1	A-AC2	A-AC3	A-AC4	A-AC5	A-AC6	A-AC7	A-AC8	A-AC9	A-AC10	A-AC11	A-AC12	A-AC13	A-AC14	A-AC15	A-AC16	A-DC1	A-DC2	A-DC3	A-DC4	A-DC5	A-DC6	A-DC7	A-DC8	A-DC9	A-DC10	A-DC11	A-DC12	A-DC13	A-DC14	A-DC15	A-DC16	A-Ph1	A-Ph2	A-Ph3	A-Ph4	A-Ph5	A-Ph6	A-Ph7	A-Ph8	A-Ph9	A-Ph10	A-Ph11	A-Ph12	A-Ph13	A-Ph14	A-Ph15	A-Ph16	

Term	0.00000e+00	0.00000e+00	0.00000e+00	0.00000e+00	0.00000e+00	0.00000e+00	0.00000e+00	0.00000e+00	0.00000e+00	0.00000e+00	0.00000e+00	0.00000e+00	0.00000e+00	0.00000e+00	0.00000e+00	0.00000e+00	0.00000e+00	0.00000e+00	0.00000e+00	0.00000e+00	0.00000e+00	0.00000e+00	0.00000e+00	0.00000e+00	0.00000e+00	0.00000e+00	0.00000e+00	0.00000e+00	0.00000e+00	0.00000e+00	0.00000e+00	0.00000e+00	0.00000e+00	0.00000e+00	0.00000e+00	0.00000e+00	0.00000e+00	0.00000e+00	0.00000e+00	0.00000e+00	0.00000e+00	0.00000e+00	0.00000e+00	0.00000e+00	0.00000e+00	0.00000e+00	0.00000e+00	0.00000e+00	
Factor	1.00000e+00	1.00000e+00	1.00000e+00	1.00000e+00	1.00000e+00	1.00000e+00	1.00000e+00	1.00000e+00	1.00000e+00	1.00000e+00	1.00000e+00	1.00000e+00	1.00000e+00	1.00000e+00	1.00000e+00	1.00000e+00	1.00000e+00	1.00000e+00	1.00000e+00	1.00000e+00	1.00000e+00	1.00000e+00	1.00000e+00	1.00000e+00	1.00000e+00	1.00000e+00	1.00000e+00	1.00000e+00	1.00000e+00	1.00000e+00	1.00000e+00	1.00000e+00	X	X	X	X	X	X	X	X	X	X	X	X	X	X	X	X	

B = Detector Channel
Val Type	B-AC1	B-AC2	B-AC3	B-AC4	B-AC5	B-AC6	B-AC7	B-AC8	B-AC9	B-AC10	B-AC11	B-AC12	B-AC13	B-AC14	B-AC15	B-AC16	B-DC1	B-DC2	B-DC3	B-DC4	B-DC5	B-DC6	B-DC7	B-DC8	B-DC9	B-DC10	B-DC11	B-DC12	B-DC13	B-DC14	B-DC15	B-DC16	B-Ph1	B-Ph2	B-Ph3	B-Ph4	B-Ph5	B-Ph6	B-Ph7	B-Ph8	B-Ph9	B-Ph10	B-Ph11	B-Ph12	B-Ph13	B-Ph14	B-Ph15	B-Ph16	

Term	0.00000e+00	0.00000e+00	0.00000e+00	0.00000e+00	0.00000e+00	0.00000e+00	0.00000e+00	0.00000e+00	0.00000e+00	0.00000e+00	0.00000e+00	0.00000e+00	0.00000e+00	0.00000e+00	0.00000e+00	0.00000e+00	0.00000e+00	0.00000e+00	0.00000e+00	0.00000e+00	0.00000e+00	0.00000e+00	0.00000e+00	0.00000e+00	0.00000e+00	0.00000e+00	0.00000e+00	0.00000e+00	0.00000e+00	0.00000e+00	0.00000e+00	0.00000e+00	-2.55034e+02	-1.42192e+02	-1.58171e+02	-1.83275e+02	-9.83914e+01	-9.52191e+01	-1.58166e+02	-1.62015e+02	-1.11076e+02	-8.25393e+01	-1.72759e+02	-1.71492e+02	-1.85060e+02	-1.78311e+02	-8.15946e+01	-1.51161e+02	
Factor	6.84074e-05	1.16036e-04	3.77825e-05	1.75057e-01	1.19124e-06	1.02847e-06	2.01126e-01	6.52604e-02	1.39494e-06	1.20521e-06	1.15205e-01	3.44855e-02	6.48392e-02	1.06986e-02	1.09788e-06	1.56755e-02	7.61801e-07	7.68646e-07	2.13154e-07	8.53154e-02	8.43469e-09	8.40861e-09	9.13502e-02	3.13959e-02	8.44513e-09	8.40387e-09	5.21703e-02	1.57552e-02	2.79534e-02	5.07005e-03	8.41014e-09	7.10043e-03	X	X	X	X	X	X	X	X	X	X	X	X	X	X	X	X	



#DISTANCE SETTINGS
A = Detector Channel
A-1	A-2	A-3	A-4	A-5	A-6	A-7	A-8	A-9	A-10	A-11	A-12	A-13	A-14	A-15	A-16	

2.5000e+00	3.0000e+00	2.5000e+00	3.0000e+00	2.0000e+00	3.0000e+00	1.5000e+00	3.0000e+00	3.0000e+00	3.0000e+00	3.0000e+00	3.0000e+00	3.0000e+00	3.0000e+00	1.5000e+00	3.0000e+00	

B = Detector Channel
B-1	B-2	B-3	B-4	B-5	B-6	B-7	B-8	B-9	B-10	B-11	B-12	B-13	B-14	B-15	B-16	

1.0000e+01	1.0000e+01	1.0000e+01	1.4400e+00	1.0000e+01	1.0000e+01	1.5100e+00	1.9400e+00	1.0000e+01	1.0000e+01	1.9900e+00	2.4900e+00	2.4100e+00	2.9000e+00	1.0000e+01	2.9800e+00	




#DATA BEGINS
time	group	step	mark	flag	A-AC1	A-AC2	A-AC3	A-AC4	A-AC5	A-AC6	A-AC7	A-AC8	A-AC9	A-AC10	A-AC11	A-AC12	A-AC13	A-AC14	A-AC15	A-AC16	A-DC1	A-DC2	A-DC3	A-DC4	A-DC5	A-DC6	A-DC7	A-DC8	A-DC9	A-DC10	A-DC11	A-DC12	A-DC13	A-DC14	A-DC15	A-DC16	A-Ph1	A-Ph2	A-Ph3	A-Ph4	A-Ph5	A-Ph6	A-Ph7	A-Ph8	A-Ph9	A-Ph10	A-Ph11	A-Ph12	A-Ph13	A-Ph14	A-Ph15	A-Ph16	B-AC1	B-AC2	B-AC3	B-AC4	B-AC5	B-AC6	B-AC7	B-AC8	B-AC9	B-AC10	B-AC11	B-AC12	B-AC13	B-AC14	B-AC15	B-AC16	B-DC1	B-DC2	B-DC3	B-DC4	B-DC5	B-DC6	B-DC7	B-DC8	B-DC9	B-DC10	B-DC11	B-DC12	B-DC13	B-DC14	B-DC15	B-DC16	B-Ph1	B-Ph2	B-Ph3	B-Ph4	B-Ph5	B-Ph6	B-Ph7	B-Ph8	B-Ph9	B-Ph10	B-Ph11	B-Ph12	B-Ph13	B-Ph14	B-Ph15	B-Ph16	aux-1	digaux	

3075.038	1	1	0	512	0.064177	0.11285	0.12778	0.27155	0.11226	0.44043	0.031399	0.13919	0.17858	0.067684	0.4272	0.056788	0.3261	0.24351	0.12383	0.1456	-1.225	-2.1479	-2.3271	-1.7437	-2.5146	-2.1625	-1.6542	-2.3937	-1.5063	-2.2562	-2.5687	-1.7792	-2.3229	-2.0208	-1.6625	-2.7125	33.938	286.762	220.489	45.589	89.346	70.452	85.883	270.263	341.410	23.747	-10.989	265.465	20.164	131.303	8.223	321.442	0.0019092	0.00046226	0.00039363	685.32	1.7515e-05	1.7515e-06	867.84	216.42	4.3717e-06	9.2674e-06	335.14	145.47	89.868	45.837	1.6609e-05	68.367	0.0017353	0.0018327	0.00048145	816.61	1.9627e-05	2.0257e-05	1003.7	268.08	1.9777e-05	2.0086e-05	417	165.25	141.76	53.869	1.8865e-05	76.978	10.869	248.945	35.324	-4.427	195.029	-11.678	-5.203	0.764	340.680	9.368	-1.006	2.705	5.701	9.084	35.689	6.115	-8191	255	
3075.134	1	1	0	0	0.23359	0.24752	0.14963	0.18514	0.097437	0.040264	0.37609	0.09655	0.16688	0.067221	0.16482	0.36291	0.15113	0.24258	0.05876	0.087251	-1.4438	-2.1771	-2.3937	-1.3958	-2.325	-2.1583	-1.8417	-2.7208	-1.8833	-2.0208	-2.6854	-1.6542	-2.2333	-2.1208	-1.6896	-2.6146	190.819	236.719	58.086	333.480	70.960	21.820	201.096	79.515	202.245	329.757	338.558	-11.946	76.106	266.225	314.806	-16.091	0.0019557	0.00093133	0.00022903	686.83	1.7453e-05	7.2349e-06	872.32	216.8	4.6443e-06	4.8749e-06	332.47	146.26	89.712	45.327	4.1687e-06	68.158	0.0018882	0.0018493	0.00049452	828.09	2.1288e-05	2.093e-05	1014.8	274.7	2.2437e-05	2.128e-05	426.43	169.97	151.46	54.683	2.0652e-05	79.072	40.116	-15.586	2.222	-4.557	159.159	-13.241	-4.942	0.929	99.873	23.824	-0.922	2.813	5.689	9.322	268.914	6.274	-8191	255	
3075.231	1	1	0	0	0.15699	0.12636	0.12989	0.052798	0.19313	0.099255	0.37078	0.1319	0.18103	0.098971	0.37885	0.17983	0.16691	0.17669	0.16152	0.11419	-1.5063	-1.9396	-2.6667	-1.8042	-2.3979	-2.4146	-1.7833	-2.6479	-1.9146	-1.8542	-2.4729	-1.8729	-2.2167	-2.5042	-1.6625	-2.8333	301.556	249.890	108.551	341.991	316.651	311.705	252.500	293.956	276.052	71.964	318.888	278.561	3.134	256.794	229.354	193.050	0.0007308	0.00058388	0.00019499	690.03	1.8051e-06	5.4737e-06	871.01	217.65	1.25e-05	5.3961e-06	333.34	147.56	91.336	45.579	7.5941e-06	68.808	0.0021556	0.0020156	0.00054699	866.87	2.392e-05	2.2561e-05	1033.9	284.42	2.3705e-05	2.1429e-05	427.56	173.53	149.63	54.332	1.9712e-05	79.924	19.580	316.710	96.696	-4.218	61.795	100.022	-4.530	1.179	50.880	329.768	-0.455	3.084	5.531	9.038	197.811	6.086	-8191	255	
3075.350	1	1	0	0	0.062844	0.31359	0.15307	0.13828	0.11058	0.23044	0.23016	0.20077	0.1944	0.1678	0.25452	0.22148	0.11402	0.22094	0.10838	0.063074	-1.7646	-1.6583	-2.4479	-1.6479	-2.0083	-2.3979	-1.8125	-2.5708	-2.1562	-1.6396	-2.7979	-1.7729	-1.975	-2.5896	-1.6812	-2.6667	173.118	79.355	11.619	278.236	270.439	191.479	313.604	272.744	34.430	206.383	309.407	234.970	-11.072	227.354	277.293	76.743	0.00070721	0.00080618	6.4273e-05	696.56	6.5737e-06	1.4971e-05	879.91	218.84	1.3397e-05	9.2277e-06	335.88	147.13	91.755	45.735	1.207e-05	69.105	0.0020484	0.0018874	0.00051852	871.91	2.2401e-05	2.1398e-05	1031.8	286.78	2.2841e-05	2.0938e-05	431.22	177.02	150.97	54.852	2.1211e-05	81.879	309.826	33.357	123.498	-4.192	56.255	-8.056	-4.699	1.073	-2.809	27.530	-0.812	2.847	5.029	8.787	196.082	5.978	-8191	255	
3075.423	1	1	0	0	0.35041	0.30578	0.26925	0.30784	0.44765	0.12373	0.21116	0.09036	0.054205	0.10255	0.24694	0.47329	0.25781	0.24871	0.056931	0.16531	-1.5479	-1.4667	-2.5708	-1.9229	-2.0917	-2.7167	-1.7792	-2.5	-1.8563	-1.5167	-2.6542	-2.0833	-1.9875	-2.5396	-1.4896	-2.2833	138.929	239.117	21.236	322.008	-11.570	334.607	316.542	247.600	277.880	150.158	7.780	45.637	208.574	336.870	11.208	24.639	0.00092466	0.00083864	0.00026501	700.32	8.2918e-06	9.9733e-06	877.65	221.82	5.989e-07	6.9773e-06	338.11	148.68	92.698	46.248	1.2316e-05	69.128	0.0021306	0.0019705	0.00056142	897.81	2.27e-05	2.1929e-05	1049.1	292.21	2.2588e-05	2.0633e-05	436.55	178.48	147.62	54.509	2.1777e-05	81.769	-8.860	334.156	130.384	-4.367	-15.799	315.020	-5.042	0.203	6.746	24.936	-0.658	2.481	5.283	8.818	168.416	5.671	-8191	255	
3075.517	1	1	0	0	0.13161	0.12263	0.04317	0.34828	0.17026	0.19425	0.048095	0.18568	0.10129	0.11724	0.10271	0.01912	0.14996	0.19933	0.23825	0.26014	-1.7687	-1.5229	-2.4771	-1.875	-1.8583	-2.5208	-1.6604	-2.2938	-2.2708	-1.5208	-2.6083	-2.0208	-2.0208	-2.7208	-1.7062	-2.0021	135.041	3.944	281.217	299.456	272.827	74.770	95.291	21.736	75.931	210.653	-8.245	78.053	285.181	22.401	105.816	283.276	0.0010337	0.0010038	0.00058308	701.2	2.0769e-05	7.9821e-06	884.97	220.67	6.9869e-06	2.4664e-06	339.49	149.92	91.761	46.053	6.4895e-06	70.026	0.0020413	0.0019102	0.00057487	898.41	2.1952e-05	2.1467e-05	1064	289.92	2.2047e-05	2.0227e-05	441.48	177.64	143.91	54.06	2.1567e-05	80.344	40.934	335.641	107.305	-5.115	341.567	108.311	-5.152	0.013	113.498	171.649	-0.991	2.274	5.160	9.273	241.089	5.544	-8191	255	
3075.615	1	1	0	0	0.10394	0.13527	0.023354	0.042205	0.16672	0.2593	0.35338	0.085508	0.19324	0.18279	0.21999	0.38662	0.20306	0.31461	0.2642	0.26892	-1.7896	-1.5187	-2.4979	-1.9542	-1.7708	-2.7896	-1.9562	-2.2208	-2.5563	-1.7125	-2.4958	-2.2729	-1.8396	-2.6625	-1.8521	-2.1625	93.717	104.492	69.794	75.994	-0.477	116.497	220.639	87.568	116.649	336.554	298.332	13.241	0.862	288.107	8.704	315.028	0.00068376	0.0012322	0.0006514	702.21	8.0722e-06	1.7033e-06	889.15	221.9	7.4109e-06	6.5067e-06	339.17	149.43	92.756	46.586	5.3923e-06	70.107	0.0018555	0.0017408	0.00053893	867.03	1.9246e-05	1.9187e-05	1053.2	280.14	1.9652e-05	1.8813e-05	435.79	173.45	138.72	53.921	2.1146e-05	79.178	-1.839	150.442	148.213	-4.719	154.723	216.024	-5.031	0.586	0.901	175.906	-0.928	2.617	5.213	9.379	40.508	5.869	-8191	255	
3075.734	1	1	0	0	0.029633	0.17436	0.33014	0.058476	0.064094	0.18947	0.34955	0.24653	0.23877	0.10659	0.03478	0.19932	0.090653	0.23757	0.12214	0.25506	-2.1	-1.675	-2.3292	-2.2771	-1.4458	-2.6479	-1.925	-2.0438	-2.6125	-1.4521	-2.3042	-2.2208	-1.5479	-2.6875	-1.9667	-1.8854	114.206	223.575	62.502	160.430	244.180	286.362	-3.482	16.535	159.043	145.226	243.810	26.157	317.302	38.156	-10.866	305.231	0.0011137	0.0012625	0.00016984	700.66	7.2807e-06	1.7222e-05	891.22	222.55	1.6307e-05	1.4005e-05	341.79	151.11	93.806	46.564	1.6627e-05	70.217	0.0017576	0.0017494	0.00053629	857.93	1.8756e-05	1.9759e-05	1057.7	278.95	1.95e-05	1.9894e-05	438.29	174.02	139.29	54.705	2.1533e-05	79.366	41.704	87.422	160.954	-4.382	102.509	184.097	-5.206	0.888	175.047	206.070	-0.751	2.425	4.462	9.137	7.135	5.638	-8191	255	
3075.830	1	1	0	0	0.11318	0.060152	0.18684	0.13542	0.28245	0.21165	0.13934	0.19017	0.29512	0.12647	0.13778	0.12463	0.38745	0.23396	0.12849	0.50788	-2.2167	-1.7958	-2.1958	-2.5187	-1.5917	-2.7208	-2.0146	-1.6854	-2.4167	-1.5312	-2.0979	-2.2875	-1.5208	-2.3542	-1.9208	-1.8479	172.223	42.570	81.818	47.595	-16.187	86.205	225.523	273.595	271.705	275.559	337.906	313.348	-8.823	22.538	251.070	299.139	0.00087221	0.0015571	0.00014171	706.18	5.5761e-06	1.1993e-05	895.48	223.75	1.5374e-05	2.4018e-05	342.85	150.75	93.013	47.003	9.1044e-06	70.483	0.001768	0.0018877	0.00054499	867.34	1.9345e-05	2.1897e-05	1073.6	283.24	2.0802e-05	2.2452e-05	444.43	176.55	144.28	56.096	2.2261e-05	80.042	36.072	123.300	310.005	-4.695	272.972	184.966	-4.640	0.832	18.036	183.934	-0.708	2.696	5.539	9.460	32.951	5.871	-8191	255	
3075.926	1	1	0	0	0.078565	0.12795	0.18794	0.20758	0.097475	0.16809	0.29504	0.080709	0.3008	0.04503	0.13359	0.14841	0.30584	0.32053	0.15004	0.12794	-2.2313	-1.6625	-2.1542	-2.625	-1.8021	-2.4208	-2.4958	-1.7542	-2.75	-2.0062	-2.2229	-2.7146	-1.6896	-2.4146	-2.2417	-1.6896	121.121	267.955	239.984	319.850	2.023	-4.089	227.928	281.094	277.569	25.074	178.388	287.183	341.138	315.245	139.216	314.351	0.001023	0.00083338	0.00052944	710.69	8.3455e-06	4.2092e-06	891.08	223.37	2.0538e-05	2.9939e-05	342.64	150.8	92.76	46.583	5.2234e-06	70.141	0.0018616	0.0020463	0.00054151	868.21	1.9834e-05	2.2321e-05	1062.3	280.02	2.0841e-05	2.2903e-05	439.72	175.8	146.83	56.427	2.2388e-05	80.309	43.453	117.721	291.305	-4.046	178.358	257.408	-4.931	0.979	163.757	152.322	-0.507	2.561	6.206	9.576	214.794	6.174	-8191	255	
3076.023	1	1	0	0	0.026383	0.31919	0.21354	0.24326	0.33554	0.17953	0.31567	0.14023	0.2741	0.060575	0.097052	0.1274	0.28638	0.33497	0.19428	0.25227	-2.1479	-1.8083	-1.9396	-2.6146	-1.7625	-2.1208	-2.2646	-1.6688	-2.4542	-1.8708	-1.9312	-2.6479	-1.7146	-2.2646	-2.4458	-1.7229	71.926	122.718	118.500	315.041	199.765	165.372	260.362	205.381	331.713	262.798	224.470	220.301	18.466	312.836	131.479	323.377	0.0015431	0.001522	0.00034628	703.87	2.9065e-05	8.7963e-06	895.56	223	2.0248e-05	7.4098e-06	340.36	150.51	92.485	46.268	8.7029e-06	69.878	0.0020125	0.0021768	0.000551	872.74	2.1954e-05	2.3353e-05	1068.1	281.76	2.2278e-05	2.3295e-05	435.75	175.14	150.45	56	2.1683e-05	79.679	-12.061	80.524	10.548	-3.943	174.644	67.982	-4.572	1.047	170.125	39.889	-0.561	3.052	5.928	9.492	124.962	6.281	-8191	255	
3076.119	1	1	0	0	0.19176	0.26957	0.11626	0.0723	0.097016	0.028515	0.076891	0.14951	0.19617	0.25096	0.35866	0.24132	0.028375	0.057476	0.20995	0.41903	-1.9833	-1.9208	-1.8667	-2.7792	-1.8792	-2.3312	-2.5354	-1.6021	-2.4458	-1.9229	-1.8729	-2.7417	-1.7167	-2.0729	-2.3875	-1.6604	187.003	102.892	262.304	281.367	106.892	141.734	180.435	207.304	196.794	236.507	301.306	27.992	12.378	66.261	71.229	13.821	0.0019473	0.00080612	0.00026028	706.63	1.1839e-05	8.7997e-06	889.94	222.45	1.5771e-05	5.4484e-06	343.62	150.13	93.076	46.493	2.3314e-06	69.382	0.0020673	0.0021208	0.00053585	870.36	2.2847e-05	2.2472e-05	1057	280.67	2.301e-05	2.2492e-05	433.15	174.56	152.66	55.263	2.1107e-05	79.368	33.618	240.186	36.778	-3.866	148.783	-12.407	-4.404	1.423	85.268	105.814	-0.745	3.741	5.830	10.084	69.662	6.505	-8191	255	
3076.215	1	1	0	0	0.065219	0.05537	0.13007	0.27767	0.14809	0.20592	0.067452	0.21291	0.32925	0.089927	0.036003	0.14308	0.16818	0.1829	0.13275	0.17456	-1.9937	-2.0938	-1.3062	-2.6708	-1.8354	-2.0208	-2.6188	-1.7542	-2.35	-2.2292	-1.6271	-2.7167	-1.9458	-1.9042	-2.6604	-1.9	188.275	105.507	30.503	214.114	269.808	207.815	289.988	328.617	56.014	269.558	93.656	95.946	78.838	296.146	223.416	340.204	0.0011782	0.00070589	0.0002856	698.8	5.7754e-06	4.4607e-06	890.43	221.29	2.4026e-06	4.2483e-06	339.14	148.5	91.55	46.322	1.7058e-05	70.072	0.0020871	0.0020191	0.00051541	868.31	2.3217e-05	2.162e-05	1053.2	283.39	2.3291e-05	2.1999e-05	429.83	175.48	153.02	54.786	2.0681e-05	80.547	24.725	332.595	25.572	-3.666	87.564	231.468	-4.144	1.918	145.728	307.618	-0.383	3.335	5.488	9.591	-15.532	6.423	-8191	255	
3076.336	1	1	0	0	0.15555	0.15471	0.20353	0.07633	0.11672	0.23928	0.22281	0.12514	0.10236	0.12308	0.27224	0.048683	0.065001	0.12148	0.16332	0.16797	-1.9021	-2.3354	-1.6437	-2.725	-2.0417	-1.9562	-2.7542	-1.9792	-2.1667	-2.3333	-1.6771	-2.4437	-2.1667	-1.9125	-2.6375	-1.9042	234.166	85.552	97.624	-13.864	66.765	107.171	301.144	135.168	152.643	285.921	19.270	313.778	142.390	20.229	209.396	339.186	0.00064999	0.0010292	0.00039614	701.34	5.4237e-06	3.691e-06	889.9	220.86	1.2594e-05	7.5626e-06	337.37	149.31	91.323	46.098	3.0772e-06	69.295	0.0020808	0.0019775	0.000509	876.88	2.312e-05	2.1169e-05	1049.7	287.9	2.3086e-05	2.1869e-05	429.04	177.68	153.01	54.703	2.1236e-05	81.613	47.377	20.446	335.139	-4.031	146.456	-4.660	-4.561	1.057	286.377	66.059	-0.648	3.050	5.935	9.481	-1.958	6.252	-8191	255	
3076.430	1	1	0	0	0.10828	0.23591	0.30796	0.16097	0.18139	0.30484	0.095557	0.11263	0.067181	0.10826	0.23884	0.29106	0.14739	0.23143	0.23314	0.29262	-1.8188	-2.425	-1.6583	-2.5229	-1.9896	-1.7875	-2.6167	-1.9896	-2.0583	-2.325	-1.5542	-2.4688	-1.9917	-1.8062	-2.6604	-2.1042	73.489	220.827	27.824	319.354	277.094	213.640	287.784	292.982	95.800	202.906	-6.543	3.476	-6.436	184.165	67.399	300.026	0.00011847	0.00098861	0.0003018	703.17	1.5826e-05	2.5911e-06	884.99	221.03	1.7997e-05	1.9825e-06	338.33	148.99	91.649	45.991	7.3779e-06	69.769	0.0020763	0.0020043	0.00053244	895.43	2.3435e-05	2.1535e-05	1058.7	295.05	2.3085e-05	2.2255e-05	436.03	180.19	152.47	54.733	2.2074e-05	82.617	-13.160	313.411	123.342	-4.045	304.134	208.342	-4.441	1.639	-6.566	-7.785	0.038	3.106	4.865	9.616	166.849	6.161	-8191	255	
3076.526	1	1	0	0	0.035637	0.4007	0.15422	0.32646	0.12228	0.13432	0.16437	0.21062	0.12903	0.053383	0.21075	0.27345	0.3836	0.14492	0.14807	0.086679	-1.6521	-2.4604	-1.8	-2.4813	-2.2667	-1.7604	-2.6063	-1.6938	-1.8958	-2.4833	-1.6521	-2.4562	-2.3708	-1.8875	-2.7521	-2.1271	281.554	244.803	55.608	217.780	318.163	31.956	305.451	341.439	87.676	66.612	210.009	6.840	320.180	7.369	307.461	35.897	0.00075419	0.00018074	0.00048662	702.75	8.8413e-06	1.7645e-05	881.33	222.9	1.1411e-05	2.527e-06	339.31	149.46	91.709	46.189	2.0198e-05	69.86	0.0020313	0.0019757	0.0005513	893.36	2.232e-05	2.0602e-05	1061	291.47	2.1373e-05	2.0878e-05	437.51	177.63	147.87	54.092	2.2195e-05	81.876	35.128	286.083	147.941	-3.715	8.869	119.570	-4.219	0.946	4.032	134.369	-0.657	3.439	5.896	9.643	194.181	5.868	-8191	255	
3076.622	1	1	0	0	0.1335	0.19592	0.23006	0.21991	0.27934	0.099077	0.2373	0.22534	0.10825	0.11397	0.23121	0.10474	0.36379	0.16543	0.12373	0.35963	-1.5646	-2.7083	-1.8833	-2.3458	-2.4521	-1.6229	-2.4958	-2.1333	-1.6146	-2.5104	-1.5562	-2.1333	-2.3792	-1.6583	-2.5187	-2.375	306.298	85.723	213.147	241.385	210.068	109.117	279.099	226.642	15.585	117.126	-13.382	260.770	183.689	326.387	232.218	247.770	0.00079733	0.00044181	0.00031307	703.21	5.8971e-06	4.4114e-07	884.94	221.74	1.1595e-05	3.2018e-06	339.13	150.11	91.393	46.228	1.4422e-05	69.628	0.001913	0.0018852	0.0005623	879.79	2.1347e-05	1.9939e-05	1066.7	287.38	2.0669e-05	2.063e-05	443.54	176.52	146.51	54.385	2.3261e-05	81.409	18.465	61.237	84.159	-3.900	250.641	17.485	-4.116	0.997	311.014	229.242	-0.240	3.175	5.687	9.866	114.553	6.331	-8191	255	
3076.718	1	1	0	0	0.1798	0.34295	0.24309	0.35965	0.13678	0.15832	0.094143	0.34994	0.14553	0.032603	0.21805	0.10892	0.044926	0.33634	0.10383	0.17588	-1.4396	-2.6813	-1.8438	-2.0229	-2.7229	-1.7917	-2.6146	-2.3292	-1.6125	-2.7313	-1.8792	-1.9104	-2.5521	-1.3771	-2.2438	-2.3333	14.686	175.486	193.245	265.497	225.941	71.507	248.172	33.915	309.174	73.538	335.056	335.168	309.740	14.879	198.745	277.330	0.00098718	0.0012404	0.00010915	702.32	1.7047e-05	9.0747e-06	887.24	221.58	1.0174e-05	1.6718e-05	341.76	150.04	92.304	46.593	1.0092e-05	69.923	0.0019081	0.0019533	0.00059501	878	2.1428e-05	2.1036e-05	1078	286.79	2.0603e-05	2.1389e-05	448.68	175.77	145.73	54.866	2.2768e-05	80.442	53.023	25.505	51.180	-3.765	48.857	302.352	-4.160	0.896	109.367	164.150	-0.202	3.233	5.833	10.056	202.903	6.325	-8191	255	
3076.815	1	1	0	0	0.12509	0.11191	0.11092	0.32762	0.1739	0.10745	0.091296	0.10192	0.21807	0.12698	0.18325	0.047246	0.1187	0.19956	0.06841	0.22203	-0.9625	-2.4354	-1.6333	-2.1167	-2.4792	-1.75	-2.3167	-2.6688	-1.5333	-2.4833	-1.8854	-1.9021	-2.6063	-1.8396	-2.1729	-2.5438	232.235	30.489	293.513	-13.341	223.580	322.049	14.227	307.947	48.512	320.260	261.378	21.124	122.833	310.303	241.638	304.323	0.0013005	0.0011056	0.00024635	708.04	7.3292e-06	1.8054e-05	897.77	222.2	2.7312e-05	2.3073e-05	341.29	149.47	92.039	46.419	4.4267e-06	70.043	0.0018046	0.0019449	0.00057153	863.33	2.0016e-05	2.095e-05	1067.6	282.13	1.9359e-05	2.1311e-05	441.74	173.12	141.83	55.098	2.1397e-05	79.729	10.789	122.213	22.426	-4.099	117.056	133.486	-4.463	0.894	-1.519	200.731	-0.309	3.122	5.616	9.479	288.986	6.319	-8191	255	
3076.911	1	1	0	0	0.19178	0.090983	0.050767	0.26574	0.17195	0.13766	0.22356	0.17698	0.23124	0.097639	0.0052749	0.10345	0.18603	0.4117	0.15349	0.19893	-1.275	-2.4083	-2.1792	-1.9146	-2.5667	-1.6271	-2.3146	-2.5604	-1.4958	-2.5042	-2.3271	-1.7854	-2.5667	-1.9771	-1.9854	-2.6063	245.504	197.488	133.852	277.778	-13.216	52.744	329.393	288.083	133.547	168.194	322.250	150.207	180.352	-1.572	245.867	18.868	0.00077144	0.001541	0.00011649	704.95	1.0945e-05	5.656e-06	898.46	222.1	1.5713e-05	1.7924e-05	343.85	150.52	91.58	46.631	1.0818e-05	70.368	0.0017381	0.0019568	0.0005425	856.6	1.969e-05	2.1553e-05	1058.6	279.96	1.947e-05	2.1813e-05	436.67	171.98	141.52	55.396	2.0229e-05	79.398	-12.501	119.381	317.981	-4.107	175.876	119.624	-4.706	1.216	92.421	155.355	-0.683	3.362	6.265	9.888	81.693	6.695	-8191	255	
3077.031	1	1	0	0	0.17624	0.21507	0.1638	0.16866	0.079044	0.44902	0.26682	0.14488	0.070642	0.2242	0.18469	0.18055	0.11737	0.04209	0.10367	0.31382	-1.325	-2.3854	-2.1146	-1.7292	-2.65	-1.9104	-2.0583	-2.6521	-1.6729	-2.1312	-2.1708	-1.5146	-2.5479	-2.0583	-1.8417	-2.6333	154.832	47.254	257.730	337.210	108.344	54.171	282.081	-9.256	165.959	309.703	225.144	-13.213	24.959	88.240	173.621	22.168	0.0018374	0.0010723	0.00010011	705.45	1.3776e-05	2.1546e-06	896.44	223.52	2.708e-05	2.558e-06	343.89	150.88	92.166	46.855	1.873e-05	70.34	0.0017709	0.0019828	0.0005257	852.69	2.0518e-05	2.2389e-05	1054.4	281.59	2.0809e-05	2.2391e-05	437.59	172.53	146.71	55.899	2.0194e-05	79.476	26.457	292.614	41.338	-3.720	175.158	339.443	-4.322	1.206	166.644	156.110	-0.144	3.581	5.885	9.760	-15.006	6.450	-8191	255	
3077.127	1	1	0	0	0.22783	0.13171	0.10228	0.093629	0.35337	0.18239	0.18791	0.04685	0.13939	0.1397	0.13808	0.24387	0.20082	0.05603	0.055144	0.035195	-1.3	-2.1354	-2.1979	-1.5187	-2.5146	-1.9896	-1.8125	-2.5938	-1.6771	-2.3604	-2.725	-1.9083	-2.6	-2.2146	-1.8563	-2.7875	-14.632	49.267	-11.360	105.609	28.191	79.846	267.011	139.752	292.796	121.089	-9.940	330.571	30.154	323.335	272.596	200.312	0.0013049	0.00038594	6.1372e-05	707.84	4.4655e-06	2.7924e-06	900.53	223.85	1.4079e-05	2.9975e-05	342.17	151.04	93.005	47.02	3.7574e-06	70.728	0.0018843	0.0019697	0.00051535	851.06	2.0876e-05	2.1467e-05	1049.3	279.66	2.1358e-05	2.1362e-05	434.28	172.85	149.15	55.731	1.9705e-05	80.054	20.658	262.524	328.883	-4.123	132.771	14.194	-4.469	0.871	170.500	95.315	-0.667	3.336	5.912	9.715	22.903	6.693	-8191	255	
3077.224	1	1	0	0	0.16796	0.17831	0.38479	0.03405	0.21141	0.12524	0.32797	0.21831	0.3351	0.38413	0.012558	0.083	0.22316	0.35232	0.09403	0.11754	-1.4146	-2.0729	-2.4583	-1.8458	-2.3063	-2.3312	-1.9958	-2.6229	-1.8667	-1.9083	-2.6479	-1.7896	-2.2458	-2.2667	-1.7812	-2.5583	53.174	180.385	277.907	103.979	332.194	297.392	245.987	204.953	31.598	221.056	88.920	268.462	92.991	259.133	175.946	329.513	0.0021044	0.0015941	0.00057051	714.66	4.2326e-06	1.1425e-05	904.31	225.22	5.8245e-06	1.1228e-05	347.87	152.16	93.489	47.301	8.9671e-06	71.247	0.0019924	0.0019316	0.00051114	859.78	2.1851e-05	2.1055e-05	1048.6	282.02	2.197e-05	2.0461e-05	433.56	175.05	150.23	55.574	1.9405e-05	81.035	27.836	7.149	271.141	-3.817	154.316	48.813	-4.537	1.292	131.655	68.452	-0.376	3.466	5.870	9.586	316.154	6.439	-8191	255	
3077.295	1	1	0	0	0.22456	0.14388	0.2197	0.28946	0.11452	0.049678	0.059946	0.12523	0.052146	0.045329	0.29522	0.13073	0.25702	0.16139	0.1354	0.24535	-1.4521	-1.7583	-2.4604	-1.5958	-2.2979	-2.3417	-1.7479	-2.5375	-1.9583	-2.0354	-2.6354	-1.7563	-2.1667	-2.5083	-1.7021	-2.5938	213.606	296.925	205.179	260.703	308.475	200.851	62.995	201.836	302.718	119.310	315.718	217.785	11.750	334.050	11.831	230.056	0.0011018	0.0011453	0.0002492	714.78	9.3451e-06	1.1698e-05	907.53	223.65	9.9939e-06	1.1322e-05	345.46	152.78	93.941	46.901	7.9529e-06	71.135	0.0020477	0.0018937	0.0005167	877.48	2.274e-05	2.1578e-05	1054.4	289.43	2.3426e-05	2.1321e-05	440.46	180.69	155.14	56.126	2.0795e-05	83.278	5.861	263.215	160.369	-3.657	265.642	16.954	-4.114	1.024	43.262	-12.853	-0.228	3.678	5.533	9.575	249.478	6.687	-8191	255	
3077.416	1	1	0	0	0.1688	0.29436	0.16525	0.17523	0.30789	0.11021	0.28653	0.12107	0.15179	0.20876	0.33677	0.19304	0.086201	0.061724	0.2171	0.21758	-1.6729	-1.8771	-2.5167	-1.8271	-2.1104	-2.2917	-1.7875	-2.5458	-2.0771	-1.8208	-2.5708	-1.8062	-2.1042	-2.5521	-1.4979	-2.625	331.459	275.687	151.930	-7.376	203.366	-2.083	339.075	86.652	76.895	205.113	313.127	6.825	341.737	264.349	59.559	112.848	0.0014879	0.0023922	0.00047273	715.15	3.3386e-06	2.6965e-06	909.47	227.33	1.5076e-05	2.8908e-05	350.47	154.23	94.907	47.156	1.6875e-05	71.589	0.0021579	0.0019898	0.00054726	905.69	2.3458e-05	2.2606e-05	1075.3	299.52	2.4124e-05	2.2064e-05	451.34	186.29	157.7	56.815	2.2473e-05	85.441	281.048	340.094	86.132	-3.523	250.008	19.980	-4.241	1.385	192.736	30.214	-0.391	3.769	5.543	9.721	204.396	6.702	-8191	255	
3077.510	1	1	0	0	0.14499	0.30559	0.056696	0.13823	0.14539	0.1779	0.34434	0.073143	0.28759	0.097614	0.23594	0.15814	0.077235	0.3431	0.3291	0.22635	-1.8854	-1.7125	-2.7521	-1.95	-1.9104	-2.5229	-1.8104	-2.4729	-2.2854	-1.7479	-2.8417	-2.1333	-1.95	-2.7208	-1.5417	-2.35	75.324	214.534	233.264	246.734	283.779	31.942	308.078	265.698	166.574	0.280	265.812	255.186	-15.530	279.186	246.336	282.757	0.00059032	0.00094005	0.00022287	724.49	1.0979e-05	6.2093e-06	912.69	228.58	1.0436e-05	6.8559e-06	350.3	154.49	94.535	46.783	2.0251e-05	71.751	0.0022407	0.0020857	0.00059912	938.76	2.4649e-05	2.4279e-05	1113.7	312.12	2.631e-05	2.4445e-05	474.5	193.59	165.73	58.27	2.6792e-05	88.139	-5.035	316.046	49.274	-3.876	5.461	228.111	-4.339	1.110	-2.416	241.589	-0.069	3.208	5.973	9.681	175.940	6.504	-8191	255	
3077.606	1	1	0	0	0.20835	0.093596	0.23004	0.081316	0.085212	0.23027	0.10815	0.26161	0.1426	0.044505	0.03335	0.22979	0.087696	0.39459	0.17218	0.2222	-1.8646	-1.375	-2.4125	-2.0771	-1.7042	-2.5938	-1.7521	-2.3958	-2.5	-1.6938	-2.9	-2.2396	-1.9688	-2.7188	-1.5583	-2.2333	114.376	13.566	129.072	287.615	197.250	249.475	159.281	279.428	323.731	218.553	93.206	343.059	93.823	303.960	100.724	292.602	0.00075264	0.00057803	0.00059112	722.79	3.4619e-06	4.428e-06	912.36	227.76	8.3746e-06	8.044e-06	351.84	154.71	95.484	46.93	1.0714e-05	71.906	0.0024791	0.00233	0.000712	975.88	2.7725e-05	2.7134e-05	1169.2	322.82	2.9179e-05	2.7167e-05	503.88	199.32	173.12	59.704	3.1132e-05	90.476	336.514	342.930	51.027	-3.953	95.620	217.316	-4.361	1.694	-10.575	15.543	0.086	3.363	5.609	10.255	163.119	7.022	-8191	255	
3077.703	1	1	0	0	0.079426	0.20741	0.13022	0.17241	0.20499	0.12888	0.055321	0.19138	0.14393	0.20111	0.26473	0.2329	0.2443	0.35474	0.063488	0.34958	-2.1229	-1.7167	-2.6	-2.1521	-1.8708	-2.6583	-1.8333	-2.1479	-2.5	-1.8042	-2.5604	-2.3833	-1.7667	-2.6104	-1.7667	-2.1333	9.542	239.480	326.366	-0.766	288.428	306.630	247.032	298.708	111.082	182.693	274.113	243.076	274.683	315.435	109.623	257.956	0.00078548	0.0020204	0.00062688	726.9	5.5141e-06	1.6451e-05	920.3	228.2	1.1498e-05	1.3432e-05	349.88	156.75	96.236	47.056	1.4049e-05	72.473	0.0027086	0.0026043	0.00082729	1009.2	3.0002e-05	3.0412e-05	1227.5	331.94	3.1879e-05	3.0958e-05	533.71	206.27	185.33	62.669	3.6933e-05	93.783	320.780	102.128	151.997	-3.920	8.563	123.330	-4.042	1.148	88.239	205.448	0.064	3.109	5.347	9.740	122.291	6.425	-8191	255	
3077.823	1	1	0	0	0.17129	0.24833	0.15732	0.19422	0.29834	0.074218	0.20083	0.26654	0.34079	0.18306	0.24559	0.31615	0.35272	0.066587	0.041341	0.28673	-2.2812	-1.6708	-2.575	-2.4292	-1.7104	-2.575	-2.0083	-1.8917	-2.6229	-1.475	-2.3208	-2.4875	-1.7417	-2.7438	-2.1583	-2.1354	85.875	303.223	194.436	184.873	164.289	222.206	30.882	278.737	61.157	279.443	313.382	326.688	85.085	260.184	-15.427	160.849	0.00032286	0.0021115	0.00036966	737.23	6.8527e-06	2.1975e-05	941.79	230.1	5.5969e-06	2.5069e-05	357.21	157.87	97.835	47.08	1.838e-05	72.375	0.0030665	0.0031106	0.00095365	1048.5	3.2628e-05	3.4456e-05	1275	338.74	3.2781e-05	3.3875e-05	543.25	207.56	185.34	63.828	3.6329e-05	92.955	166.755	124.141	0.663	-3.836	104.634	208.786	-4.870	1.135	16.789	183.004	0.080	3.079	5.832	10.023	52.971	6.240	-8191	255	
3077.919	1	1	0	0	0.16882	0.056123	0.10536	0.026414	0.35762	0.1013	0.16805	0.15403	0.095287	0.18721	0.10296	0.071046	0.16995	0.28268	0.28102	0.11982	-2.1792	-1.7229	-2.2625	-2.4625	-1.5688	-2.4979	-2.0563	-1.8188	-2.5729	-1.7792	-2.2792	-2.7458	-1.6167	-2.3833	-2.0167	-1.6229	82.216	107.759	286.693	200.876	66.691	306.145	287.648	85.714	240.082	117.161	297.406	326.904	86.623	299.102	50.872	119.185	0.0009177	0.0023151	0.00084838	743.77	1.7331e-05	6.9176e-06	949.37	231.53	1.1819e-05	7.563e-06	356.55	159.81	98.039	47.172	2.3108e-05	73.201	0.002933	0.0031776	0.00090235	1033.9	3.1481e-05	3.5312e-05	1272	335.62	3.2791e-05	3.6006e-05	540.44	209.05	189.28	65.365	3.6758e-05	93.959	73.560	129.729	12.731	-4.090	150.184	277.196	-4.430	1.155	125.718	179.157	-0.413	2.869	6.035	9.876	62.719	5.744	-8191	255	
3078.016	1	1	0	0	0.34304	0.062152	0.099407	0.11152	0.1975	0.22452	0.14577	0.22481	0.031479	0.16224	0.12751	0.19606	0.099321	0.20593	0.19369	0.18163	-2.2542	-1.75	-2.0396	-2.75	-1.7667	-2.4646	-2.4354	-1.6792	-2.6896	-2.0042	-2.1458	-2.7896	-1.6938	-2.45	-2.2687	-1.7062	202.328	136.148	69.262	70.166	30.448	329.000	306.035	1.773	258.617	309.610	216.607	261.491	334.729	321.552	197.383	241.115	0.001482	0.0027136	0.00042626	742.51	8.9774e-06	1.1607e-05	953.2	231.13	2.7874e-05	4.0083e-06	358.38	161.66	97.425	47.486	2.0206e-05	72.869	0.0031233	0.0035144	0.00092862	1050.3	3.43e-05	3.8666e-05	1284.9	340.63	3.5261e-05	3.8472e-05	540.28	210.09	194.93	65.683	3.5182e-05	92.914	36.628	115.819	263.846	-4.189	207.090	269.583	-4.530	0.961	152.028	82.755	-0.495	3.382	6.802	9.739	183.090	6.215	-8191	255	
3078.112	1	1	0	0	0.20644	0.30888	0.17644	0.14803	0.13426	0.087527	0.17461	0.011319	0.23078	0.19339	0.27915	0.23593	0.19477	0.24485	0.10907	0.18863	-2.3396	-1.9729	-1.8292	-2.6667	-1.8062	-2.2896	-2.4208	-1.4792	-2.4479	-2.1271	-1.8771	-2.6792	-1.8104	-2.1333	-2.6125	-1.7667	7.560	289.577	168.944	227.967	170.665	67.953	135.862	12.246	334.932	43.066	11.938	285.219	83.508	17.221	264.152	271.753	0.0029359	0.0025716	0.00049314	746.63	2.7563e-05	7.5984e-06	955.51	233.38	1.8025e-05	1.7876e-05	359.09	161.27	99.773	47.259	1.4342e-05	72.685	0.003172	0.0034681	0.00088779	1044	3.5994e-05	3.8205e-05	1279.2	339.89	3.7224e-05	3.8949e-05	541.52	211.26	206.34	66.119	3.6636e-05	94.195	18.210	9.407	16.528	-3.869	165.148	285.727	-4.527	1.012	181.167	96.434	-0.395	3.200	6.442	9.516	304.892	6.207	-8191	255	
3078.208	1	1	0	0	0.32761	0.068726	0.071975	0.19407	0.03143	0.20706	0.26132	0.47889	0.22664	0.14624	0.097241	0.077575	0.32167	0.20879	0.053085	0.087558	-2.0292	-1.8542	-1.7271	-2.7333	-1.5458	-2.2396	-2.5146	-1.6	-2.2542	-1.9583	-1.8583	-2.6875	-1.8646	-2.35	-2.5979	-2.0875	330.347	20.017	278.014	64.178	73.137	303.055	238.190	297.025	80.306	8.608	212.498	318.244	248.465	-15.587	98.150	186.026	0.0018386	0.0021245	0.00034538	744.56	2.6992e-05	1.9365e-05	954.46	232.33	1.7629e-05	3.5376e-06	360.7	160.63	98.888	46.869	1.7762e-05	72.837	0.0035121	0.0035839	0.00090955	1055.4	3.9103e-05	3.8415e-05	1283.6	343.32	3.9367e-05	3.8461e-05	539.51	212.71	214.09	65.759	3.6889e-05	95.907	48.403	310.419	171.308	-3.913	202.767	36.169	-4.965	1.047	187.099	30.381	-0.436	2.918	6.129	9.190	82.074	6.099	-8191	255	
3078.304	1	1	0	0	0.082418	0.15688	0.051477	0.0104	0.033661	0.19103	0.13424	0.22031	0.19715	0.05786	0.13355	0.23834	0.22	0.094771	0.21199	0.053428	-2.1917	-2.1792	-1.525	-2.5229	-1.8208	-1.9667	-2.7292	-1.7667	-2.4646	-2.2792	-1.6604	-2.6188	-1.7604	-2.0042	-2.7958	-1.8188	17.508	38.307	319.473	154.755	130.091	199.970	44.297	253.462	20.869	121.995	330.350	41.236	131.104	326.489	330.192	323.551	0.0021593	0.0025138	0.00055261	741.89	1.7226e-05	1.6581e-05	952.12	229.88	1.0008e-05	3.2368e-05	355.76	158.62	96.226	46.496	7.9185e-06	72.215	0.0036948	0.0035746	0.00091567	1074.2	4.1455e-05	3.8333e-05	1289.1	353.16	4.1084e-05	3.865e-05	539.58	216.13	217.03	65.201	3.6517e-05	97.318	22.759	330.384	340.727	-3.658	61.089	294.094	-4.402	1.199	144.592	22.469	-0.471	3.193	5.888	9.339	48.209	6.354	-8191	255	
3078.423	1	1	0	0	0.10386	0.21727	0.17226	0.21693	0.15364	0.094271	0.052284	0.30584	0.12403	0.14853	0.12211	0.11993	0.23681	0.16604	0.2213	0.10594	-1.8708	-2.2188	-1.4312	-2.7042	-2.0542	-1.8271	-2.6354	-1.7875	-2.0583	-2.5042	-1.8937	-2.6729	-2.1271	-1.7771	-2.5896	-1.8042	283.010	203.019	31.690	238.270	241.113	44.601	116.934	292.438	65.931	76.349	262.559	32.010	219.820	298.993	184.988	209.316	0.0007585	0.0010099	8.9401e-05	742.84	1.6268e-05	1.5807e-05	950.71	229.48	1.598e-05	2.4801e-06	356.64	159.58	96.663	46.772	5.9475e-06	72.366	0.0036666	0.0034726	0.00089697	1091.2	4.0763e-05	3.7051e-05	1278.1	361.73	4.0248e-05	3.8248e-05	541.07	221.34	216.92	65.29	3.7314e-05	100.04	156.685	69.643	259.361	-3.541	193.058	71.522	-4.558	1.278	322.114	293.205	-0.092	3.234	5.357	9.342	215.330	6.503	-8191	255	
3078.519	1	1	0	0	0.081306	0.21736	0.36797	0.195	0.095451	0.20929	0.038918	0.12307	0.1924	0.16667	0.44947	0.087886	0.16045	0.41653	0.17094	0.25834	-1.8937	-2.5354	-1.9042	-2.6271	-2.0208	-1.6	-2.75	-2	-2.1208	-2.8146	-1.775	-2.6854	-2.1271	-1.6437	-2.7792	-1.9896	206.542	78.983	164.495	331.169	15.887	-1.347	284.314	0.270	16.277	74.015	296.844	-3.363	261.210	310.455	69.722	115.432	0.0004622	0.0016238	0.00025547	741.63	2.6615e-05	1.6234e-05	953.38	231.95	4.6352e-06	1.0968e-05	359.12	160.72	99.434	47.214	2.7519e-05	73.292	0.003632	0.0034784	0.00091714	1108.4	3.9379e-05	3.5746e-05	1280.8	364.33	3.7906e-05	3.6456e-05	543.31	221.34	208.26	64.258	3.6841e-05	99.973	316.341	294.647	153.003	-3.759	26.682	42.220	-3.877	1.505	287.254	328.066	-0.374	3.278	5.148	9.570	233.846	6.610	-8191	255	
3078.591	1	1	0	0	0.11527	0.2355	0.033248	0.25508	0.14536	0.046775	0.32551	0.057507	0.019862	0.16433	0.23363	0.12846	0.051641	0.25978	0.24648	0.096023	-1.6833	-2.5896	-1.7083	-2.5125	-2.1292	-1.5063	-2.7833	-2.2687	-1.8042	-2.5687	-1.8083	-2.1521	-2.3312	-1.6917	-2.6021	-2.2083	262.785	223.559	301.822	304.511	158.863	154.422	324.247	118.502	56.290	202.803	290.415	235.023	158.724	319.093	1.307	136.747	0.00093827	0.001844	0.00096388	742.44	1.5854e-05	8.4844e-06	957.48	233.18	3.3189e-05	1.7205e-05	360.67	161.58	97.494	47.298	1.6735e-05	73.391	0.0033903	0.0033037	0.0009344	1103.1	3.7782e-05	3.4764e-05	1293.5	362.47	3.5876e-05	3.4678e-05	547.42	217.94	199.47	62.875	3.6098e-05	97.342	311.443	7.231	149.153	-3.470	3.990	223.617	-3.938	1.021	313.762	47.463	0.059	3.063	5.595	9.319	171.985	6.662	-8191	255	
3078.687	1	1	0	0	0.061614	0.20952	0.20922	0.079598	0.21549	0.18086	0.15482	0.22466	0.2247	0.1915	0.042866	0.22561	0.28969	0.17598	0.077348	0.10037	-1.5792	-2.6542	-1.8667	-2.4625	-2.375	-1.4125	-2.4771	-2.1229	-1.7521	-2.5125	-1.9896	-2.1792	-2.3604	-1.5646	-2.325	-2.3063	97.389	102.208	152.832	40.847	272.144	18.492	309.214	325.821	65.512	-4.298	109.621	1.259	64.941	52.335	39.093	226.039	0.0017201	0.0013204	0.00089489	742.01	3.9712e-06	1.672e-05	957.03	233.68	1.3803e-05	1.357e-05	355.94	160.68	98.347	47.486	1.9016e-05	73.846	0.0030719	0.0030351	0.00091501	1066.9	3.4973e-05	3.2937e-05	1293.9	354.37	3.4435e-05	3.4183e-05	556.87	215.3	199.28	63.663	3.8616e-05	97.395	-3.761	341.925	154.704	-3.905	55.529	170.203	-4.320	1.135	329.866	14.624	-0.185	3.113	5.997	10.141	183.013	6.185	-8191	255	
3078.807	1	1	0	0	0.18307	0.048533	0.042026	0.20507	0.18745	0.19677	0.25851	0.10106	0.1041	0.32513	0.26872	0.3593	0.034887	0.37762	0.24195	0.097632	-1.4104	-2.7208	-1.8583	-1.8021	-2.4938	-1.5729	-2.6104	-2.3083	-1.7854	-2.5438	-1.9417	-2.0042	-2.6104	-1.7938	-2.2521	-2.3354	-14.243	117.440	95.161	275.801	34.050	313.226	245.577	254.839	141.324	86.087	-0.528	339.477	-0.730	299.989	312.810	224.464	0.0008717	0.001234	3.8587e-05	744.21	2.4743e-05	2.0363e-05	958.1	232.64	5.3894e-06	9.401e-06	356	159.93	98.697	47.159	5.7686e-06	73.288	0.0031224	0.0032065	0.00098629	1065.8	3.5137e-05	3.4717e-05	1310.7	351.9	3.4209e-05	3.586e-05	564.44	212.77	196.98	64.728	3.8734e-05	96.463	17.303	127.607	136.741	-3.827	8.498	229.288	-4.130	0.967	301.202	178.930	-0.557	3.438	5.631	10.152	318.159	6.433	-8191	255	
3078.904	1	1	0	0	0.075684	0.11758	0.18157	0.1897	0.15996	0.33634	0.26952	0.18648	0.11504	0.085986	0.17199	0.29031	0.14127	0.17855	0.2342	0.098182	-1.4958	-2.6625	-1.8958	-1.9729	-2.5958	-1.7729	-2.4104	-2.4125	-1.6333	-2.7062	-2.1333	-1.9271	-2.5	-1.7646	-2.1479	-2.7771	80.855	291.900	37.066	77.232	35.078	256.491	269.271	331.012	222.220	217.294	327.728	23.268	14.388	341.056	-12.474	32.781	0.0001623	0.0027235	0.00038437	735.79	3.7624e-06	1.825e-05	961.76	233.72	1.4696e-05	1.3505e-05	361.12	162.31	98.326	47.476	6.2413e-06	73.311	0.0030795	0.0033461	0.00098796	1053.9	3.431e-05	3.6166e-05	1300.7	347.07	3.288e-05	3.602e-05	551.33	209.28	190.05	64.812	3.5573e-05	94.34	216.013	107.209	157.453	-3.942	181.141	199.862	-4.254	1.080	77.195	207.900	-0.584	3.286	5.321	9.803	-14.294	6.423	-8191	255	
3079.000	1	1	0	0	0.19608	0.097944	0.11588	0.038529	0.093027	0.21424	0.042186	0.035651	0.12977	0.083764	0.22538	0.1187	0.12818	0.15435	0.13411	0.13448	-1.3167	-2.3812	-2.1104	-1.9688	-2.7208	-1.9062	-2.2208	-2.4562	-1.6146	-2.4646	-2.2229	-1.9708	-2.5771	-1.8396	-1.9833	-2.7812	105.878	-13.696	228.801	308.727	275.179	112.862	336.936	103.867	187.982	266.890	38.434	272.423	299.155	339.532	209.341	15.262	0.0011574	0.0012528	0.00057743	743.63	2.0088e-05	2.1384e-05	958.95	232.08	2.9985e-05	1.8952e-05	360.95	161.12	97.528	47.245	1.258e-05	73.63	0.0028834	0.0032964	0.00091208	1031.3	3.3001e-05	3.6553e-05	1273.6	341.75	3.3167e-05	3.7739e-05	550.61	210.46	198.08	67.113	3.733e-05	96.477	28.078	71.781	249.755	-3.779	69.147	166.395	-4.058	1.222	205.464	144.662	-0.198	3.195	6.740	9.757	33.165	6.241	-8191	255	
3079.096	1	1	0	0	0.13009	0.080623	0.20183	0.40812	0.068291	0.042312	0.076818	0.11466	0.16173	0.24341	0.22682	0.19826	0.035737	0.15042	0.24877	0.23198	-1.2417	-2.4667	-2.1688	-1.6229	-2.7021	-1.8125	-1.9021	-2.5375	-1.5771	-2.2479	-2.5687	-1.6396	-2.6104	-1.8896	-1.9229	-2.8021	149.083	171.975	227.932	-16.545	62.803	5.042	257.440	270.346	57.887	267.080	54.610	230.889	237.505	185.651	162.227	-7.296	0.0022656	0.0029945	6.1794e-05	742.51	3.0677e-05	1.7822e-05	959.03	231.92	3.1598e-05	1.3447e-05	359.11	161.16	98.4	47.296	1.8874e-05	72.785	0.0032882	0.0036998	0.00097493	1057	3.7952e-05	4.143e-05	1306.9	354.27	3.8819e-05	4.2321e-05	570.5	215.87	216.27	69.022	3.9172e-05	97.968	19.525	338.931	96.913	-3.616	209.320	50.692	-4.605	0.967	183.779	139.615	-0.096	3.291	6.491	9.613	-11.087	6.355	-8191	255	
3079.192	1	1	0	0	0.10575	0.069275	0.074371	0.040594	0.024464	0.3581	0.27891	0.17692	0.15016	0.12692	0.31007	0.19263	0.066713	0.030169	0.40063	0.18244	-1.5292	-2.3	-2.1146	-1.6604	-2.5396	-2.0354	-2.0375	-2.6562	-1.7563	-2.0187	-2.5333	-1.8958	-2.3792	-2.0354	-1.8729	-2.7583	103.069	103.963	9.812	88.524	215.670	334.173	297.177	117.861	70.209	235.828	15.969	1.589	239.252	-8.960	7.805	310.938	0.0031697	0.0010224	0.00051915	743.59	2.5887e-05	5.5595e-06	956.93	231.79	3.8548e-05	2.2101e-05	359.15	160.58	98.716	47.064	1.1907e-05	73.026	0.0036971	0.0038521	0.0009994	1068.3	4.1044e-05	4.2001e-05	1303.4	354.82	4.1447e-05	4.1263e-05	564.51	215.32	220.39	67.995	3.7701e-05	97.337	-2.547	83.309	8.450	-3.637	174.358	23.793	-4.121	1.438	184.492	285.942	-0.406	3.163	6.936	9.250	325.982	6.642	-8191	255	
3079.288	1	1	0	0	0.16067	0.11917	0.085347	0.038025	0.3031	0.17526	0.22441	0.34186	0.10933	0.16764	0.060441	0.071097	0.1705	0.27913	0.20059	0.52092	-1.2	-2.0854	-2.6333	-1.8708	-2.2708	-2.3063	-1.9958	-2.6542	-2.0146	-1.9708	-2.675	-1.7354	-2.3958	-2.3667	-1.7	-2.7625	20.404	161.060	313.108	148.277	214.519	249.571	332.075	299.580	145.397	72.181	269.928	87.606	340.627	309.755	336.402	278.918	0.0027398	0.0011375	0.00039103	740.14	4.0682e-05	2.4428e-05	954.31	230.66	3.395e-05	2.0987e-05	355.51	159.77	97.503	47.284	1.6613e-05	73.331	0.0037479	0.0035855	0.00094353	1054.3	4.0101e-05	3.8064e-05	1263.3	346.33	3.8975e-05	3.5924e-05	534.37	209.44	207.34	64.776	3.3423e-05	95.553	8.271	318.703	29.799	-3.399	143.838	1.159	-4.158	1.385	146.505	35.988	-0.607	3.325	5.544	9.110	80.021	6.350	-8191	255	
3079.384	1	1	0	0	0.17788	0.27233	0.094598	0.04165	0.08894	0.11937	0.12207	0.26392	0.087846	0.2019	0.29299	0.14895	0.071498	0.11176	0.12233	0.17585	-1.4083	-1.8917	-2.6667	-1.7896	-2.2625	-2.4375	-1.7021	-2.4542	-2.0833	-2.1167	-2.625	-1.7208	-2.55	-2.4729	-1.6646	-2.6792	143.546	262.216	144.726	330.624	22.075	188.092	33.842	232.842	237.164	147.078	-5.805	132.941	199.360	288.510	34.707	295.128	0.00068988	0.0018589	0.00045158	743.13	8.5678e-06	1.3125e-05	951.9	231.14	1.9731e-05	1.8124e-05	358.37	159.58	98.165	47.038	1.8038e-05	72.77	0.0035109	0.00324	0.00087184	1055.9	3.8052e-05	3.5393e-05	1238.4	346.58	3.6964e-05	3.3294e-05	522.4	210.37	200.57	63.401	3.2026e-05	95.717	-14.703	21.990	1.224	-3.423	55.461	65.695	-4.719	1.545	50.973	72.332	-0.046	3.512	5.041	9.618	135.351	6.711	-8191	255	
3079.505	1	1	0	0	0.13873	0.22288	0.24991	0.17334	0.23305	0.16333	0.082964	0.061095	0.28403	0.31376	0.19804	0.19642	0.29334	0.23306	0.091237	0.14612	-1.7667	-1.7	-2.5667	-1.8354	-2.125	-2.3354	-1.4583	-2.6229	-2.2458	-1.5979	-2.4813	-1.8	-2.2229	-2.7229	-1.6313	-2.5042	-3.899	45.250	326.372	68.636	225.352	-8.200	57.879	33.583	151.508	279.841	275.421	221.060	52.192	288.673	55.544	202.238	0.00070062	0.00078231	0.00032463	742.7	2.6016e-05	8.0034e-06	963.63	232.6	1.1261e-05	4.4159e-06	358.34	161.09	98.37	47.078	1.9366e-05	73.153	0.0033233	0.003057	0.00083512	1062.1	3.5857e-05	3.3948e-05	1238.7	350.03	3.5595e-05	3.2477e-05	522.14	213.4	194.47	62.58	3.1608e-05	95.422	24.268	26.285	88.932	-3.794	0.657	33.289	-3.998	1.192	327.998	276.143	0.061	3.085	5.856	9.456	193.788	6.473	-8191	255	
3079.599	1	1	0	0	0.16329	0.061581	0.022967	0.27279	0.051437	0.13629	0.085353	0.10263	0.32154	0.080043	0.12805	0.14067	0.14175	0.19626	0.17533	0.2478	-1.7333	-1.5833	-2.4938	-1.9375	-2.1125	-2.5521	-1.7125	-2.3208	-2.2812	-1.8083	-2.8875	-1.7521	-1.8542	-2.7354	-1.5875	-2.1271	294.645	-4.562	6.713	-10.512	324.254	18.415	228.064	49.043	55.586	109.121	-11.313	259.469	269.607	-7.057	208.647	285.931	0.00020997	0.00071491	9.7088e-05	745.07	1.583e-05	1.3132e-05	954.05	232.49	1.3361e-05	1.4299e-05	356.94	160.44	98.249	47.138	1.81e-05	73.288	0.0030504	0.0027999	0.00079172	1043	3.1567e-05	3.0204e-05	1216.9	339.57	3.1333e-05	2.9058e-05	513.7	208.1	182.9	61.03	3.0931e-05	93.799	82.409	118.102	293.820	-3.981	24.054	21.634	-4.328	1.236	30.131	22.190	-0.331	3.258	5.617	9.325	184.518	6.056	-8191	255	
3079.696	1	1	0	0	0.0044845	0.20124	0.14284	0.28041	0.1389	0.084656	0.2014	0.059044	0.20189	0.41089	0.21991	0.13465	0.23258	0.16754	0.11265	0.067468	-2.0812	-1.5604	-2.3854	-1.8958	-1.7708	-2.7146	-1.7896	-2.2875	-2.5938	-1.5688	-2.3187	-2.1521	-1.8333	-2.4854	-1.7958	-1.9917	46.487	270.967	120.624	268.939	200.388	279.848	190.403	268.414	235.137	44.887	297.496	334.920	188.592	206.012	320.559	65.428	0.00069438	0.00088763	0.00074958	739.61	1.0514e-05	1.4625e-05	954.18	232.77	1.6126e-05	1.3479e-05	358.98	160.48	98.427	47.046	2.4934e-05	73.569	0.0028528	0.0026712	0.00081388	1034.4	3.0898e-05	3.0106e-05	1240.8	339.5	3.1877e-05	2.9933e-05	530.68	209.08	183.55	61.314	3.3405e-05	93.223	33.763	334.756	126.068	-4.029	59.402	273.292	-4.425	0.552	-10.123	153.673	0.166	2.888	4.568	9.814	217.003	6.358	-8191	255	
3079.816	1	1	0	0	0.10744	0.16811	0.18448	0.44629	0.044275	0.23192	0.18846	0.20948	0.12436	0.1911	0.013003	0.20521	0.36849	0.094651	0.17224	0.18044	-1.9375	-1.7021	-2.4437	-2.1896	-1.7958	-2.4604	-1.725	-2.1437	-2.6833	-1.6	-2.5771	-2.1333	-1.7083	-2.4417	-1.9542	-2.0542	170.189	284.378	259.162	286.518	252.365	271.154	270.873	262.588	322.259	298.761	-2.863	272.130	243.579	325.340	-0.563	325.171	0.0015928	0.0024336	0.00021516	741.59	1.1137e-05	1.0739e-05	950.78	233.33	9.8666e-06	1.7954e-05	358.99	160.33	98.121	47.477	7.8407e-06	73.507	0.0028281	0.0027081	0.00084885	1025.8	3.0227e-05	3.0156e-05	1247.6	332.16	3.0107e-05	2.9148e-05	523.86	202.98	174.45	60.547	3.1289e-05	89.874	340.888	89.209	37.185	-4.225	4.557	101.816	-4.550	0.634	17.729	159.039	-0.739	2.733	5.849	9.846	128.639	6.517	-8191	255	
3079.888	1	1	0	0	0.23102	0.22078	0.25335	0.16535	0.047041	0.085238	0.1682	0.32829	0.076686	0.22921	0.36037	0.19379	0.36054	0.19824	0.20683	0.18327	-2.125	-1.4708	-2.3438	-2.4271	-1.45	-2.3958	-1.9667	-1.9875	-2.7062	-1.6958	-2.2771	-2.2542	-1.7042	-2.7854	-2.0229	-1.8896	306.573	232.841	289.423	244.857	26.629	-14.341	173.328	300.516	21.696	68.569	12.695	303.221	-16.796	-15.757	176.612	175.829	0.00080564	0.0028535	0.0004814	746.92	1.9041e-05	1.4425e-05	959.57	232.44	1.6122e-05	2.1463e-05	359.54	160.64	97.225	47.663	1.6391e-05	73.645	0.0025144	0.0025275	0.00076254	980.91	2.6258e-05	2.7946e-05	1214.7	317.95	2.6879e-05	2.8213e-05	509.8	198.75	169.25	61.015	3.0707e-05	89.357	320.826	149.548	327.215	-4.009	189.980	156.899	-4.914	0.997	265.652	190.849	-0.849	2.971	5.490	9.641	320.398	6.314	-8191	255	
3079.984	1	1	0	0	0.3751	0.036464	0.085592	0.16287	0.24019	0.11966	0.058454	0.18715	0.13573	0.099511	0.16935	0.18741	0.15535	0.29971	0.33402	0.059856	-2.2125	-1.6146	-2.2458	-2.5187	-1.6083	-2.4729	-2.0896	-1.9958	-2.7333	-1.7458	-2.0062	-2.5979	-1.7167	-2.5958	-2.2292	-1.9208	38.985	88.764	103.694	274.102	331.413	242.980	172.848	296.167	188.907	184.874	281.102	270.916	-11.135	219.046	275.115	12.315	0.0012984	0.0012892	0.00052341	746.37	2.4374e-05	1.1897e-05	957.61	233.33	2.8525e-05	1.6486e-05	360.74	161.77	97.632	47.741	1.9338e-05	73.654	0.0025034	0.0027072	0.00076759	983.5	2.7e-05	3.0009e-05	1215	317.41	2.6991e-05	2.9546e-05	503.06	197.2	167.07	61.083	2.8586e-05	88	-13.594	114.284	316.696	-3.937	239.612	154.476	-4.615	1.033	150.315	157.252	-0.526	3.342	5.728	9.882	15.693	6.312	-8191	255	
3080.105	1	1	0	0	0.033226	0.092254	0.15917	0.20526	0.14357	0.036221	0.073828	0.12033	0.30066	0.33837	0.0083282	0.16727	0.30527	0.08861	0.28866	0.11046	-2.1396	-1.4396	-1.9604	-2.5479	-1.6833	-2.3208	-2.1479	-1.5812	-2.6437	-1.9104	-2.3146	-2.6792	-1.7542	-2.6021	-2.2604	-1.7833	282.835	231.696	209.815	317.037	318.748	25.042	25.453	186.424	125.958	189.065	123.422	296.690	325.590	293.301	338.425	246.986	0.0021556	0.0013287	0.00055198	746.04	1.4538e-05	1.2589e-05	962.9	235.84	2.5669e-05	1.8514e-05	365.07	162.64	98.789	47.786	1.7733e-05	73.548	0.002415	0.0026821	0.00070385	967.98	2.6294e-05	2.9443e-05	1199.1	314.41	2.7278e-05	3.0032e-05	500.45	197.95	175.29	62.088	2.9347e-05	88.973	39.827	328.781	341.264	-4.250	215.223	42.349	-4.695	1.030	209.880	55.472	-0.226	2.831	6.240	9.346	38.489	6.396	-8191	255	
3080.201	1	1	0	0	0.10443	0.11839	0.3464	0.039985	0.17758	0.2174	0.13143	0.23874	0.096454	0.090568	0.08683	0.17719	0.26737	0.21518	0.08641	0.15688	-2.0187	-1.7521	-1.6771	-2.5812	-1.5479	-2.2229	-2.3708	-1.6417	-2.6292	-2.0312	-1.9375	-2.7208	-1.6542	-2.4458	-2.3875	-1.6875	280.971	304.361	182.044	199.603	249.814	217.614	197.974	226.358	173.888	311.131	-0.355	329.722	103.080	209.780	98.263	285.156	0.0023143	0.0011937	7.9823e-05	747.51	2.0513e-05	1.5358e-05	963.74	234.98	3.1666e-05	1.3846e-05	367.74	162.96	98.495	47.67	2.0801e-05	73.843	0.0027037	0.0029343	0.00074804	991.16	3.0403e-05	3.219e-05	1225.7	322.03	3.1232e-05	3.2396e-05	510.58	202.03	186.91	62.832	3.0504e-05	90.364	39.980	280.826	-6.275	-3.863	162.238	319.731	-4.682	0.934	161.875	39.884	-0.287	3.436	6.891	9.580	82.228	6.701	-8191	255	
3080.297	1	1	0	0	0.21124	0.2235	0.21503	0.29338	0.13293	0.038651	0.13974	0.18536	0.225	0.12411	0.21323	0.13868	0.17339	0.096885	0.08507	0.22557	-2.1646	-1.9792	-1.7	-2.7333	-1.6604	-2.1583	-2.675	-1.7375	-2.4062	-2.0833	-1.7021	-2.775	-2.0062	-1.9792	-2.4917	-1.7667	128.268	53.973	235.417	336.475	199.115	218.719	8.411	306.181	162.414	293.737	256.010	265.477	248.294	252.891	299.860	-1.001	0.0026154	0.0028657	0.00070801	748.7	4.2633e-06	1.4599e-05	968.42	235	6.7281e-06	1.2466e-05	366.24	162.36	100.64	47.886	4.7827e-06	74.299	0.0029338	0.0029708	0.00075506	998.24	3.2538e-05	3.1693e-05	1225.4	323.93	3.2635e-05	3.1501e-05	506.84	202.54	189.08	61.898	2.9021e-05	90.45	18.822	334.868	230.997	-3.658	334.831	330.243	-3.875	1.354	193.787	77.823	-0.255	3.573	6.459	9.883	211.842	6.489	-8191	255	
3080.391	1	1	0	0	0.23551	0.19074	0.074781	0.31956	0.2018	0.17486	0.071848	0.19884	0.23145	0.046748	0.24536	0.24179	0.22735	0.3445	0.084423	0.13347	-1.9333	-2.0604	-1.6021	-2.7375	-1.875	-1.9396	-2.5438	-1.6938	-2.2875	-2.4625	-1.7333	-2.5625	-1.9917	-2.1604	-2.7458	-1.4833	19.759	173.271	223.315	268.108	316.610	39.860	63.705	46.357	287.736	176.474	314.664	312.351	1.390	234.153	71.245	199.565	0.0011951	0.0032644	0.00033989	749.76	1.0427e-05	3.9599e-06	961.72	233.52	1.7401e-05	9.1008e-06	365.75	163.47	98.484	47.702	1.0176e-05	74.133	0.0028881	0.0027565	0.00070938	995.37	3.1933e-05	2.9606e-05	1205.9	326.75	3.2355e-05	3.0493e-05	503.39	205.52	190.6	61.545	2.9268e-05	92.56	42.933	-8.392	94.923	-3.584	107.027	338.740	-4.148	1.375	14.213	31.811	-0.164	3.841	5.620	9.774	226.028	6.573	-8191	255	
3080.487	1	1	0	0	0.11762	0.12231	0.14132	0.28002	0.13362	0.24822	0.095555	0.083314	0.21094	0.02189	0.072225	0.11819	0.32918	0.391	0.060265	0.055354	-2.0083	-2.5458	-1.5583	-2.6354	-2.1542	-1.8104	-2.8458	-1.85	-2.1958	-2.4708	-1.7417	-2.5354	-2.1521	-1.9042	-2.6417	-1.8771	80.667	157.095	317.275	327.815	192.304	228.110	38.506	342.193	155.434	98.075	54.152	52.617	15.778	313.707	45.314	149.890	0.0012098	0.0022766	0.00057276	749.15	2.0809e-05	1.1205e-05	972.32	236.49	1.5786e-05	1.1842e-05	364.57	165.19	99.927	47.873	3.5261e-06	73.907	0.0029678	0.0028199	0.00073051	1024.9	3.3172e-05	3.0308e-05	1222.5	338.98	3.2514e-05	3.0809e-05	509.03	211.59	192.43	62.034	3.0466e-05	95.588	35.338	-12.171	31.286	-3.747	13.397	47.851	-4.264	1.751	37.221	148.297	-0.141	3.521	5.439	9.702	322.738	6.611	-8191	255	
3080.584	1	1	0	0	0.29683	0.2945	0.1908	0.20866	0.23288	0.15417	0.26556	0.10431	0.12882	0.029952	0.36932	0.13049	0.19204	0.30383	0.21535	0.013571	-1.825	-2.4	-1.5583	-2.5292	-2.1417	-1.8396	-2.8417	-1.8563	-1.975	-2.4417	-1.5812	-2.3771	-2.3521	-1.9229	-2.5875	-1.8521	317.563	131.792	12.979	55.919	37.591	93.632	339.564	154.959	276.919	280.842	-7.991	189.175	24.972	337.406	287.925	106.142	0.00018295	0.00087898	0.00099415	755.81	2.0328e-05	2.8954e-05	972.76	238.37	2.1489e-05	2.0784e-05	368.33	165.64	99.761	47.561	1.027e-05	74.497	0.003043	0.0029475	0.00079097	1067.1	3.4769e-05	3.2277e-05	1266.3	357.62	3.5077e-05	3.3894e-05	539.64	221.93	203.44	63.799	3.502e-05	99.502	28.691	313.389	89.689	-3.617	298.380	-14.656	-3.833	1.579	319.584	46.158	0.474	3.165	5.349	9.468	212.723	6.298	-8191	255	
3080.680	1	1	0	0	0.34561	0.10534	0.1404	0.15301	0.10437	0.26054	0.086832	0.15646	0.14667	0.126	0.23631	0.14003	0.18652	0.14158	0.15637	0.06221	-1.5438	-2.4479	-1.5667	-2.4417	-2.3021	-1.6167	-2.5542	-2.0104	-2.0146	-2.8292	-1.675	-2.4042	-2.1688	-1.6354	-2.4771	-1.9375	338.741	10.871	170.809	-14.268	99.397	67.858	299.313	285.272	8.779	219.481	217.120	193.980	256.830	296.973	139.054	36.985	0.00039225	0.00038403	0.0005117	755.36	6.4174e-06	1.293e-05	977.12	238.86	1.6823e-05	6.0991e-07	366.01	166.58	100.67	47.806	1.1923e-05	75.02	0.003189	0.0031023	0.0008825	1091.1	3.5513e-05	3.3154e-05	1299.6	363.43	3.5369e-05	3.4322e-05	558.16	222.8	203.23	63.905	3.756e-05	99.98	320.462	119.665	109.920	-3.624	203.573	-0.966	-3.799	0.843	15.652	140.605	-0.091	3.633	5.383	9.547	168.098	6.305	-8191	255	
3080.776	1	1	0	0	0.31025	0.060798	0.14301	0.18574	0.26193	0.26043	0.14052	0.23436	0.20488	0.02566	0.25108	0.15306	0.23144	0.2306	0.055586	0.27835	-1.2938	-2.4458	-1.6646	-2.2083	-2.4646	-1.8604	-2.7042	-2.2271	-1.8563	-2.5854	-1.9417	-2.35	-2.7125	-1.7458	-2.5438	-2.2729	274.908	280.685	185.142	309.513	44.817	210.270	281.028	46.437	276.400	10.606	341.446	12.257	340.995	310.486	339.673	326.004	0.00068703	0.00059813	0.00076119	760.29	5.6411e-06	1.5207e-05	974.04	238.4	7.2746e-06	1.2161e-05	371.02	166.74	100.88	47.604	2.381e-05	75.036	0.003221	0.0031646	0.0009646	1095	3.5851e-05	3.3927e-05	1329.4	362.92	3.5417e-05	3.5185e-05	575.83	222.98	206.42	65.092	4.0947e-05	101.13	69.129	-15.633	99.516	-3.541	58.368	172.136	-3.826	0.811	133.337	188.800	0.127	3.180	5.075	9.845	149.324	6.121	-8191	255	
3080.897	1	1	0	0	0.082103	0.20347	0.2905	0.085683	0.11761	0.036643	0.18709	0.10313	0.046962	0.26841	0.3836	0.19359	0.11439	0.065309	0.23162	0.11845	-1.2792	-2.7083	-1.9125	-2.0646	-2.4813	-1.6292	-2.4521	-2.2896	-1.5271	-2.6792	-2.0396	-2.0875	-2.7208	-1.6958	-2.1042	-2.5812	312.208	292.754	26.472	33.619	40.334	285.427	265.030	246.890	126.877	130.257	277.768	10.958	180.180	238.457	-13.292	241.723	0.0003492	0.00037684	0.00054938	755.89	1.6793e-05	2.4084e-05	980.12	236.2	9.9767e-06	3.1089e-05	366.57	166.66	100.03	47.793	5.9027e-06	75.366	0.0033688	0.003466	0.001078	1115.1	3.8581e-05	3.842e-05	1381.3	371.02	3.7801e-05	3.9826e-05	603.71	227.08	213.01	67.789	4.3461e-05	102.35	257.539	235.455	140.048	-3.609	50.922	162.642	-3.882	0.983	211.479	205.283	-0.028	3.235	5.081	10.204	85.754	6.114	-8191	255	
3080.993	1	1	0	0	0.13162	0.2385	0.15288	0.26966	0.15585	0.041132	0.21487	0.36719	0.31407	0.18029	0.24854	0.30627	0.11988	0.082645	0.062746	0.42372	-1.2896	-2.4083	-2.0708	-2.0104	-2.4813	-1.6896	-2.2208	-2.1917	-1.5688	-2.6208	-2.0625	-2.1354	-2.6917	-1.7188	-2.1146	-2.3729	-3.019	69.582	156.194	149.227	-1.067	10.396	254.633	17.561	3.597	5.104	309.572	234.633	16.138	119.507	60.282	256.881	0.00085285	0.0038219	0.00054153	760.07	7.3202e-06	2.3605e-05	995.1	238.87	1.1744e-05	3.6623e-05	373.67	169.53	102.2	48.136	1.3705e-05	76.957	0.0034502	0.0037846	0.001122	1124.1	3.9986e-05	4.3236e-05	1417	382.23	4.0838e-05	4.618e-05	635.95	238.38	232.41	73.877	4.981e-05	109.42	67.269	131.701	293.818	-3.722	104.093	220.771	-3.939	1.258	11.793	123.975	-0.180	3.289	5.957	9.685	9.556	5.864	-8191	255	
3081.089	1	1	0	0	0.086304	0.12963	0.20465	0.21583	0.046636	0.086997	0.19278	0.043791	0.12215	0.11115	0.31318	0.14996	0.16538	0.051313	0.1516	0.22226	-1.2646	-2.4958	-2.1521	-1.9292	-2.5083	-1.8021	-2.2229	-2.5312	-1.3625	-2.5833	-2.4729	-1.8062	-2.6458	-1.9583	-2.075	-2.8542	263.385	36.004	56.998	318.757	123.578	298.362	297.988	184.751	331.690	321.542	-11.187	312.865	256.624	269.620	264.171	243.194	0.0016424	0.0027976	0.00069361	768.56	2.1104e-05	7.5693e-06	1005.5	239.8	9.6282e-06	1.7393e-05	377.73	172.44	102.42	48.361	1.5113e-05	77.237	0.0040961	0.004725	0.0013102	1202	4.7645e-05	5.3006e-05	1493.9	405.55	4.732e-05	5.3277e-05	658.87	244.81	246.62	76.849	5.019e-05	110.59	12.932	97.773	285.448	-3.938	155.519	175.210	-4.284	1.033	138.326	246.042	-0.654	3.555	5.996	9.568	1.535	6.056	-8191	255	
3081.185	1	1	0	0	0.20827	0.2066	0.16186	0.27059	0.19854	0.19252	0.13675	0.11185	0.27497	0.19126	0.2889	0.042241	0.18958	0.30739	0.1446	0.16612	-1.5042	-2.5146	-2.3146	-1.8208	-2.5563	-1.9688	-2.1458	-2.8729	-1.7958	-2.4813	-2.3167	-1.9167	-2.7479	-1.8917	-1.9917	-2.7229	120.108	247.646	266.930	296.245	254.688	311.227	-4.346	297.077	115.107	79.456	242.753	142.430	334.295	16.250	91.687	341.467	0.0038264	0.001124	0.00031344	774.52	3.3324e-05	5.2246e-06	1011.6	240.23	3.3802e-05	3.8418e-05	380.13	172.93	104.94	48.338	3.648e-05	77.601	0.0043881	0.0049256	0.0012948	1204.7	5.0108e-05	5.4611e-05	1490	405.31	5.0524e-05	5.4529e-05	662.12	247.57	261.44	78.332	5.1365e-05	112.34	21.887	61.295	-1.739	-3.549	158.165	222.446	-4.277	1.018	177.680	6.693	-0.147	3.087	6.247	9.347	13.573	6.255	-8191	255	
3081.281	1	1	0	0	0.052157	0.25767	0.085416	0.30319	0.0086451	0.13791	0.08356	0.12291	0.13481	0.20783	0.040293	0.27659	0.18543	0.13094	0.028034	0.27471	-1.2729	-2.2875	-2.4562	-1.7625	-2.5625	-2.2938	-2.1896	-2.7792	-1.7333	-2.2562	-2.5958	-1.6417	-2.5312	-2.2229	-1.7375	-2.7	-10.483	220.814	134.999	30.234	37.963	41.247	331.996	342.064	276.862	338.813	289.732	310.558	94.172	263.239	115.598	203.855	0.0032999	0.0011467	0.00040259	773.92	4.3079e-05	2.3134e-05	1012.8	241.11	3.8465e-05	3.8766e-05	379.63	172.26	104.14	48.135	1.6763e-05	77.715	0.0049526	0.0052378	0.0013791	1244.1	5.7787e-05	5.9336e-05	1539.6	423.66	5.8889e-05	5.8351e-05	684.71	255.75	282.45	79.421	5.2733e-05	114.7	18.360	26.286	122.803	-3.559	156.361	315.069	-4.377	1.590	197.879	36.025	-0.154	3.254	6.467	8.752	42.072	6.148	-8191	255	
3081.377	1	1	0	0	0.056442	0.32261	0.18346	0.19356	0.16307	0.094462	0.44886	0.16034	0.22579	0.078402	0.18908	0.074103	0.14378	0.14853	0.17836	0.024682	-1.55	-2.0458	-2.3083	-1.8896	-2.5458	-2.0792	-2.0479	-2.7	-1.8438	-2.1417	-2.85	-1.8833	-2.5771	-2.4396	-1.8958	-2.7896	41.824	85.719	306.955	243.376	116.479	119.260	250.078	242.330	138.426	287.008	330.091	46.192	64.879	250.949	295.869	192.683	0.0022076	0.0023188	0.00046667	767.78	4.5483e-05	2.7146e-05	1001.8	239.21	1.8772e-05	3.2714e-05	374.68	171.84	103.09	48.258	1.5373e-05	76.913	0.0052818	0.0051076	0.0013515	1248.7	5.8489e-05	5.5973e-05	1507.4	422.59	5.9419e-05	5.5252e-05	671.49	257.66	283.28	78.17	5.1717e-05	116.48	-14.754	240.556	215.543	-2.988	150.141	32.522	-3.983	1.871	34.021	29.727	-0.217	3.745	5.913	9.467	46.446	6.531	-8191	255	
3081.496	1	1	0	0	0.079414	0.15089	0.14753	0.12058	0.21237	0.076381	0.32742	0.07055	0.047109	0.35531	0.14394	0.31081	0.1368	0.22255	0.025666	0.2369	-1.6979	-2.0312	-2.6729	-2.0458	-2.4146	-2.6167	-1.5729	-2.7708	-1.9625	-2.0646	-2.6437	-1.7458	-2.4917	-2.5708	-1.6292	-2.5979	101.715	342.346	87.579	280.890	236.268	91.948	251.299	92.232	101.604	43.616	-6.439	335.021	343.010	56.403	218.424	267.923	0.0014457	0.0029008	0.00034969	770.97	3.4041e-05	1.3054e-05	1012.3	238.94	1.6911e-05	7.2539e-06	376.01	171.26	103.03	47.649	6.799e-06	77.283	0.0054539	0.0050567	0.0013652	1299	6.1453e-05	5.8154e-05	1536.4	448.11	6.4131e-05	5.8695e-05	696.09	274.03	298.04	80.274	5.5067e-05	122.06	303.157	308.471	312.810	-3.302	-3.495	315.328	-4.154	1.797	266.637	23.365	-0.125	3.911	5.571	9.231	1.969	6.958	-8191	255	
3081.592	1	1	0	0	0.015145	0.35211	0.026057	0.1165	0.28574	0.1631	0.16272	0.046249	0.24576	0.12876	0.10105	0.13971	0.044301	0.2353	0.21391	0.12154	-1.7896	-1.8167	-2.8146	-2.0229	-2.4062	-2.5583	-1.8917	-2.6625	-2.3667	-1.7958	-2.8979	-1.8979	-1.9917	-2.6125	-1.4792	-2.5771	228.092	152.321	271.146	235.898	39.262	213.983	-15.670	294.120	316.039	339.879	29.378	273.363	316.685	260.314	214.538	7.358	0.00066897	0.0013078	0.00086946	766.36	3.0875e-05	1.9946e-06	998.24	240.63	4.6154e-05	2.3205e-05	375.49	172.22	102.56	47.854	3.4851e-05	77.087	0.0056457	0.0051522	0.0013929	1339.9	5.9747e-05	5.6375e-05	1524.3	452.19	6.0629e-05	5.5608e-05	687.01	275.41	285.23	79.007	5.6102e-05	124.27	-16.034	57.445	183.563	-3.278	-8.987	214.671	-3.884	1.748	-4.490	58.940	-0.204	3.282	4.720	9.241	143.899	6.475	-8191	255	
3081.688	1	1	0	0	0.10727	0.26344	0.22306	0.16162	0.1879	0.13983	0.24578	0.086201	0.32798	0.06177	0.20575	0.30203	0.020258	0.15329	0.12629	0.30265	-1.6208	-1.5979	-2.5083	-2.0917	-2.2458	-2.6646	-1.9729	-2.7542	-2.6667	-1.8458	-2.7792	-2.0646	-2.0083	-2.9292	-1.4854	-2.4771	1.880	40.163	106.998	336.173	274.059	89.915	194.684	310.559	330.595	149.979	317.303	296.564	155.966	262.399	339.009	225.195	0.00064443	0.0017506	0.00087529	764.65	2.5707e-05	2.9391e-05	1004.5	239.23	1.3986e-05	1.0621e-05	373.82	172.19	102.88	48.176	4.1231e-05	78.166	0.005555	0.0051788	0.0014817	1386.9	6.0803e-05	5.8339e-05	1586.7	468.51	6.1805e-05	5.7119e-05	718.38	281.86	286.51	79.649	6.1319e-05	126.29	173.627	300.878	125.001	-3.267	5.255	16.980	-3.931	1.340	53.038	92.150	0.628	3.406	5.541	8.904	192.880	6.280	-8191	255	
3081.785	1	1	0	0	0.20402	0.050673	0.30754	0.11363	0.053002	0.17812	0.15053	0.25386	0.37753	0.14668	0.23993	0.37334	0.22421	0.49603	0.20788	0.23299	-2	-1.6083	-2.6271	-2.2729	-2.1542	-2.7542	-2.1688	-2.5667	-2.5604	-1.7021	-2.6958	-2.1729	-1.9542	-2.8542	-1.8646	-2.5271	134.596	140.469	219.275	257.076	30.272	79.599	237.666	8.203	83.699	71.208	13.063	7.678	315.701	325.434	104.709	287.392	0.0011706	0.0010631	0.0012389	765.14	2.239e-05	1.6948e-05	996.19	240.68	2.8838e-05	8.6978e-06	374.84	170.33	103.04	47.799	1.4777e-05	77.086	0.0056387	0.0052912	0.0016201	1405.6	6.0993e-05	5.8288e-05	1620.7	458.7	5.8561e-05	5.3809e-05	712.01	269.36	265.83	75.915	5.725e-05	116.74	1.981	305.683	121.979	-3.733	314.189	19.857	-3.935	1.228	330.820	54.572	0.750	3.207	6.117	9.514	177.462	6.076	-8191	255	
3081.881	1	1	0	0	0.042437	0.19424	0.2325	0.24489	0.15641	0.13264	0.3403	0.1669	0.16117	0.10849	0.13947	0.34452	0.10869	0.09384	0.12785	0.11203	-2.0292	-1.5125	-2.25	-2.2958	-1.9167	-2.8229	-1.9708	-2.1958	-2.7021	-1.7708	-2.5625	-2.4375	-1.6292	-2.8271	-1.85	-2.1708	253.904	336.882	267.981	62.479	202.131	65.021	161.726	243.270	147.921	162.220	27.302	333.217	190.750	-13.310	72.941	5.222	0.00092143	0.00295	0.00035092	770.15	2.0683e-05	2.159e-05	1005	242.35	1.413e-05	1.1817e-05	378.43	170.61	101.44	47.922	1.9168e-05	76.815	0.0047303	0.0044713	0.0013896	1261.3	4.8306e-05	4.777e-05	1515	411.04	4.768e-05	4.6497e-05	666.44	250.24	240.12	73.229	5.3716e-05	111.47	297.631	186.802	154.783	-4.067	7.106	155.425	-4.132	1.257	306.095	244.800	-0.337	3.162	5.874	9.745	260.198	6.078	-8191	255	
3081.977	1	1	0	0	0.31119	0.16975	0.12108	0.17271	0.15467	0.19809	0.0161	0.27696	0.21369	0.18328	0.26752	0.11942	0.24302	0.13117	0.20805	0.22922	-2.1875	-1.8563	-2.4854	-2.3208	-1.7521	-2.8375	-2.1833	-2.2313	-2.7438	-1.8083	-2.3875	-2.65	-1.625	-2.8833	-2.0354	-1.9333	84.486	49.241	180.572	16.914	270.783	177.131	210.156	246.233	90.482	21.137	267.750	246.147	83.215	309.065	321.944	334.290	0.0007849	0.0025174	8.0627e-05	763.27	6.9769e-06	2.6578e-05	1000.5	239.24	2.0594e-05	3.1231e-05	379.43	170.23	102.02	48.035	2.0093e-05	76.334	0.0043777	0.0044603	0.0013583	1229	4.6393e-05	4.8983e-05	1508.8	401.76	4.6323e-05	4.8295e-05	658.56	245.53	232.66	73.574	5.0985e-05	108.27	223.776	134.752	263.054	-3.758	41.332	182.414	-4.076	1.238	39.507	176.982	-0.439	3.045	5.417	9.899	-2.305	6.280	-8191	255	
3082.073	1	1	0	0	0.25485	0.31469	0.10741	0.10022	0.17562	0.088416	0.10027	0.14515	0.15083	0.2179	0.25738	0.15395	0.44413	0.38473	0.31486	0.29161	-2.2729	-1.7333	-2.2562	-2.5187	-1.4292	-2.5667	-2.0646	-2.0208	-2.7292	-1.9708	-2.5958	-2.6229	-1.7062	-2.6604	-2.3646	-1.8792	109.834	261.674	337.206	0.475	38.445	253.762	224.498	247.254	132.619	167.396	-12.472	332.869	235.631	339.729	41.976	334.076	0.00091922	0.0028788	0.00122	765.49	2.0023e-05	1.8607e-05	997.04	239.35	9.927e-06	1.5162e-05	373.35	170.38	102.57	48.187	2.04e-05	76.043	0.0040817	0.0044532	0.0012578	1189.8	4.3417e-05	4.8643e-05	1464	389.08	4.3955e-05	4.8371e-05	630.64	237.74	225.42	72.83	4.6383e-05	104.3	29.432	105.795	35.264	-3.906	260.798	171.124	-4.392	1.183	215.806	78.615	0.253	2.755	5.278	9.277	40.592	6.011	-8191	255	
3082.194	1	1	0	0	0.14909	0.2437	0.1562	0.12811	0.24574	0.081916	0.13081	0.31394	0.18895	0.28345	0.067115	0.15278	0.3849	0.38579	0.069925	0.16129	-2.3667	-1.6938	-2.0146	-2.6417	-1.6146	-2.5917	-2.3208	-1.8021	-2.4958	-1.8937	-2.2542	-2.5917	-1.6271	-2.3458	-2.2458	-1.725	212.550	106.382	213.823	266.971	70.031	267.574	301.786	114.901	263.243	150.631	96.541	0.927	331.490	304.388	42.292	226.884	0.0019712	0.0007631	0.00054862	766.84	1.3154e-05	9.9854e-06	1009.6	240.75	4.7665e-05	9.5889e-06	374.01	168.82	100.09	47.919	8.6424e-06	76.13	0.0038559	0.0043083	0.0011322	1149.8	4.2067e-05	4.7115e-05	1417.6	375.76	4.2645e-05	4.6892e-05	604.77	231.11	223.07	71.572	4.2943e-05	101.49	29.538	73.395	313.706	-3.844	223.794	162.321	-4.811	0.829	150.666	184.330	-0.696	2.742	6.122	9.387	71.020	6.102	-8191	255	
3082.288	1	1	0	0	0.19395	0.062874	0.051574	0.20191	0.22189	0.056259	0.16408	0.096653	0.1641	0.13212	0.11978	0.11528	0.15161	0.24348	0.17892	0.14033	-2.1937	-2.0771	-1.8458	-2.7542	-1.5938	-2.3167	-2.55	-1.7979	-2.5625	-2.125	-2.1021	-2.7021	-1.7062	-2.4146	-2.5646	-1.8062	308.047	298.657	58.513	297.605	176.411	118.585	201.029	253.755	75.649	106.645	271.289	87.809	281.404	23.517	156.267	-3.558	0.0026134	0.0016468	0.00037818	768.09	3.5495e-05	1.0884e-05	1000.9	239.19	3.5104e-05	6.0381e-06	372.88	168.53	100.88	47.878	1.1134e-05	75.986	0.003851	0.004179	0.0010627	1129.6	4.3424e-05	4.6258e-05	1404.3	373.91	4.5332e-05	4.7247e-05	604.13	231.98	236.55	72.022	4.4086e-05	103.26	341.354	288.862	249.306	-3.848	189.165	68.165	-4.274	1.136	208.714	305.143	-0.364	3.249	6.072	9.448	279.165	6.768	-8191	255	
3082.361	1	1	0	0	0.15695	0.14351	0.11421	0.14951	0.054021	0.4062	0.39313	0.38334	0.1277	0.15198	0.13466	0.22012	0.17865	0.43889	0.16244	0.13044	-2.1813	-2.2646	-1.8458	-2.7708	-1.9042	-2.2438	-2.8083	-1.75	-2.7958	-2.2125	-1.8896	-2.8479	-1.9667	-2.325	-2.675	-1.5708	39.905	287.632	166.466	299.888	122.751	186.280	7.837	326.755	295.520	39.300	110.935	-2.586	232.832	3.531	7.769	286.648	0.0032632	0.0019128	0.00052651	765.01	3.3152e-05	3.4346e-05	1005.8	237.17	3.8821e-05	1.1466e-05	376.13	169.15	101.72	47.624	1.4535e-05	75.975	0.0042551	0.00433	0.0011037	1151.4	4.7837e-05	4.6768e-05	1415	379.41	4.8497e-05	4.7293e-05	606.51	236.45	247.9	71.959	4.504e-05	105.82	16.257	327.894	-7.182	-3.363	163.382	335.996	-4.383	1.411	107.092	35.410	-0.701	3.197	6.021	9.351	42.128	6.557	-8191	255	
3082.458	1	1	0	0	0.14206	0.084683	0.086843	0.061923	0.32487	0.17728	0.21143	0.092909	0.35271	0.1105	0.18612	0.25756	0.089331	0.066103	0.098148	0.23358	-1.9854	-2.1937	-1.7854	-2.7062	-1.8292	-2.1625	-2.9646	-1.8771	-2.2875	-2.2562	-1.7354	-2.6604	-1.8833	-2.0667	-2.5458	-1.9604	329.114	288.781	67.414	128.203	293.033	87.715	232.273	146.583	211.088	140.526	-0.693	275.732	149.653	28.518	232.260	257.451	0.00054139	0.00061127	0.00027254	760.57	1.8908e-05	1.1322e-05	1001.8	237.54	1.3847e-05	2.0948e-05	373.15	169.39	101.69	47.598	3.955e-06	75.365	0.0045256	0.0043309	0.0011027	1171.8	4.9574e-05	4.541e-05	1402.2	386.02	4.8408e-05	4.4996e-05	593.81	237.35	241.75	69.758	4.176e-05	105.36	85.290	289.102	315.158	-3.583	123.441	66.291	-4.564	1.256	24.711	10.703	0.029	3.293	5.306	9.284	-16.035	6.629	-8191	255	
3082.577	1	1	0	0	0.40567	0.19811	0.13075	0.20338	0.090218	0.092695	0.19615	0.3065	0.12208	0.14893	0.14132	0.10931	0.20479	0.16202	0.065464	0.22302	-1.9792	-2.3604	-1.5208	-2.8208	-1.9958	-1.8854	-2.7062	-1.5792	-2.3729	-2.3917	-1.825	-2.7479	-1.8583	-1.6521	-2.5958	-2.0104	255.151	299.999	80.122	324.906	233.857	-0.836	297.029	306.922	116.157	229.020	-8.095	323.920	321.375	8.344	2.097	316.798	0.0014248	0.0011172	0.00018902	766.46	2.5842e-05	9.648e-06	1002.6	239.58	2.3042e-05	2.4526e-05	372.81	170.73	101.65	47.798	1.3121e-05	75.997	0.004207	0.0039823	0.0010273	1174.6	4.6845e-05	4.2684e-05	1383.5	392.45	4.6764e-05	4.4183e-05	593.88	242.95	242.28	69.695	4.311e-05	108.94	283.933	276.622	91.305	-3.855	-1.268	19.741	-4.803	0.753	342.479	5.258	-0.405	3.313	5.177	8.871	207.279	6.071	-8191	255	
3082.673	1	1	0	0	0.13798	0.24219	0.20952	0.1087	0.17834	0.27197	0.28656	0.22886	0.18622	0.24051	0.072579	0.12604	0.26965	0.20834	0.14788	0.21155	-1.6333	-2.4417	-1.4854	-2.4625	-1.9917	-1.8146	-2.6354	-2.0438	-2.0896	-2.4333	-1.7417	-2.5708	-2.4271	-1.8292	-2.6021	-2.1458	334.457	160.965	139.122	232.022	17.193	280.921	16.174	278.155	258.460	103.556	220.791	42.381	44.402	41.959	304.238	299.269	0.0013269	0.001384	2.9303e-05	769.49	1.5693e-05	1.9209e-06	1000.3	238.09	1.4254e-05	4.4445e-06	373.98	168.8	101.29	47.582	3.9109e-05	75.933	0.0042261	0.0040316	0.0010663	1201.3	4.617e-05	4.2096e-05	1393.3	396.99	4.4167e-05	4.207e-05	593.49	240.93	228.88	67.696	4.1914e-05	106.86	335.457	-4.967	103.144	-3.598	-14.256	-7.628	-4.445	1.305	-12.826	164.426	0.156	3.087	5.032	8.952	179.907	5.859	-8191	255	
3082.769	1	1	0	0	0.11171	0.19539	0.069471	0.23823	0.27745	0.078363	0.32353	0.13638	0.067232	0.13384	0.097112	0.19286	0.33071	0.15632	0.17681	0.063563	-1.4479	-2.5104	-1.4979	-2.5167	-2.3208	-1.7687	-2.9188	-1.9021	-1.8292	-2.6729	-1.7875	-2.3146	-2.1604	-1.7333	-2.4917	-2.0563	307.673	6.803	-3.213	318.571	4.059	136.020	242.933	73.938	308.830	52.023	242.850	328.481	-3.301	220.205	248.956	263.183	0.00075727	0.0022922	0.00066891	763.45	2.523e-05	1.5082e-05	1001.1	238.85	8.6252e-06	8.7686e-06	371.55	169.45	100.81	47.422	2.8456e-05	75.389	0.0038184	0.0037118	0.0010585	1177.2	4.2756e-05	3.9512e-05	1395.4	390.97	4.1704e-05	4.016e-05	599.35	236.85	221.08	66.369	4.2432e-05	104.64	21.173	332.592	101.767	-3.988	-4.345	78.409	-4.343	0.806	65.580	44.176	0.194	2.762	4.498	9.249	203.766	5.802	-8191	255	
3082.865	1	1	0	0	0.32168	0.064234	0.19081	0.26206	0.39179	0.23222	0.14041	0.24407	0.22106	0.093238	0.079703	0.090369	0.28068	0.32288	0.1256	0.18111	-1.4667	-2.2833	-1.7521	-2.3	-2.3229	-1.9167	-2.7896	-2.1333	-1.7271	-2.7396	-1.9333	-2.3021	-2.7375	-1.7417	-2.4979	-2.35	120.216	1.029	166.443	308.921	235.705	100.081	330.188	30.407	309.187	70.553	284.721	97.941	-2.888	48.578	94.485	281.308	0.000883	0.0015189	0.00025469	766.85	6.8259e-06	1.8953e-05	1006.3	239.67	2.1677e-05	3.0902e-05	377.58	171.04	103.08	47.042	1.0547e-05	75.621	0.0036079	0.0035483	0.0010783	1154.6	4.0878e-05	3.8605e-05	1415	385.1	4.0497e-05	4.0107e-05	617.58	236.58	223.63	67.628	4.558e-05	105.3	97.826	12.714	110.229	-4.081	-11.488	23.712	-4.315	0.365	23.358	250.875	0.242	2.847	5.038	8.949	214.431	5.711	-8191	255	
3082.986	1	1	0	0	0.22054	0.10648	0.26652	0.19445	0.083863	0.21416	0.14507	0.25603	0.19349	0.08403	0.21602	0.29313	0.2793	0.045623	0.066973	0.16368	-1.4521	-2.6875	-1.8625	-1.9333	-2.4583	-1.6208	-2.525	-2.2979	-1.5979	-2.65	-2.0979	-2.15	-2.3917	-1.6792	-2.4729	-2.5083	263.610	-13.910	25.504	83.042	12.490	255.189	224.896	284.447	9.589	-9.351	4.738	327.319	329.509	90.764	280.582	302.437	0.00084173	0.0022738	0.00087643	776.7	1.3032e-05	1.2137e-05	1014.2	241.73	2.7863e-05	2.3323e-05	378.32	171.02	102.49	47.487	2.3331e-05	76.125	0.0036808	0.0037686	0.0011591	1156.2	4.1061e-05	4.0774e-05	1437.3	383.8	4.0506e-05	4.2472e-05	630.91	236.66	225.09	69.692	4.7811e-05	106.43	-11.060	146.903	113.803	-4.017	45.098	166.919	-4.355	0.399	88.196	178.079	-0.254	2.672	5.550	9.476	-7.437	5.884	-8191	255	
3083.057	1	1	0	0	0.21813	0.21312	0.27579	0.1088	0.1331	0.14288	0.2402	0.24067	0.11836	0.20272	0.15698	0.22731	0.22398	0.11353	0.16398	0.21282	-0.94792	-2.5354	-1.9729	-1.9583	-2.6625	-1.65	-2.2396	-2.3375	-1.5833	-2.5333	-2.1375	-1.9854	-2.4833	-1.7292	-2.1646	-2.3292	303.004	239.660	188.076	86.766	146.652	11.994	334.071	304.777	256.823	176.599	259.224	11.877	216.145	313.237	150.337	297.458	0.0014076	0.0022397	0.00086804	771.4	2.1616e-05	2.621e-05	1018.7	239.83	8.452e-06	2.329e-05	380.15	170.69	102.03	47.488	2.7843e-05	76.265	0.0037991	0.0041578	0.0012301	1169.1	4.2906e-05	4.5574e-05	1462.6	387.83	4.1394e-05	4.5991e-05	632.32	235.6	222.87	70.851	4.547e-05	104.65	23.083	106.765	68.383	-4.473	219.812	180.979	-4.370	0.907	208.210	212.915	-0.888	2.724	5.529	9.178	33.609	6.062	-8191	255	
3083.178	1	1	0	0	0.15109	0.15957	0.072647	0.18594	0.19471	0.015261	0.38473	0.080159	0.1842	0.17565	0.26983	0.20956	0.3126	0.17451	0.14291	0.28539	-1.1938	-2.5604	-2.0958	-1.8687	-2.625	-1.8396	-2.4313	-2.6813	-1.6333	-2.5333	-2.2083	-1.9604	-2.725	-1.9937	-1.9646	-2.8688	285.850	78.090	169.913	25.731	151.887	41.622	290.428	218.931	147.001	35.753	341.541	309.453	53.351	282.263	296.760	333.883	0.0012746	0.0018632	0.00023756	775.79	2.3085e-05	1.4303e-05	1017.1	241.27	2.9449e-05	2.0102e-05	381.16	171.5	102.03	47.489	2.0307e-05	76.363	0.0036499	0.0041643	0.0011418	1138.4	4.0724e-05	4.5361e-05	1418.9	377.2	4.0174e-05	4.5455e-05	614.44	231.48	221.83	71.302	4.3046e-05	103.53	334.265	92.643	81.739	-4.040	183.706	195.473	-4.520	0.536	103.102	259.185	-0.928	2.513	5.435	9.320	341.396	5.998	-8191	255	
3083.274	1	1	0	0	0.19113	0.306	0.24686	0.3512	0.14008	0.10942	0.28134	0.21204	0.15799	0.12208	0.24424	0.185	0.30713	0.097243	0.059489	0.34939	-1.1354	-2.2625	-2.2458	-1.6375	-2.5375	-2.0854	-2.2208	-2.6542	-1.7979	-2.3771	-2.3646	-1.8979	-2.4208	-2.175	-1.8833	-2.7188	259.427	301.231	32.811	328.066	59.726	192.350	229.367	328.607	154.907	312.052	292.733	249.559	88.056	339.582	199.666	299.038	0.0019746	0.0008429	0.00030699	768.94	1.5754e-05	2.1945e-05	1019.9	241.03	1.3592e-05	1.3122e-05	382.09	171.1	102.26	47.544	2.1643e-05	75.969	0.0037533	0.0042424	0.0011146	1134.7	4.2859e-05	4.6827e-05	1412.7	377.5	4.3277e-05	4.6585e-05	610.39	230.57	227.94	70.675	4.0701e-05	101.11	-9.118	86.605	18.338	-4.250	164.754	246.694	-4.900	0.587	144.612	31.435	-0.390	2.720	6.032	8.875	72.400	5.765	-8191	255	
3083.370	1	1	0	0	0.17335	0.22644	0.13064	0.14616	0.0085929	0.14317	0.10274	0.18044	0.41091	0.087918	0.057171	0.020837	0.17321	0.04609	0.1405	0.10134	-1.3833	-2.3271	-2.1146	-1.5979	-2.3937	-2.0438	-1.8813	-2.5438	-1.75	-2.2104	-2.6063	-1.7229	-2.4333	-2.2104	-1.7875	-2.7625	14.659	160.863	326.215	324.533	134.830	21.874	341.099	27.929	24.492	141.181	-5.404	137.157	324.698	125.573	40.074	267.837	0.0033951	0.0012838	0.00066906	767.41	2.4556e-05	1.518e-05	1014	239.47	2.6529e-05	1.978e-05	378.83	171.97	101.43	47.52	3.1467e-06	76.126	0.0037577	0.0038911	0.0010049	1091.9	4.1188e-05	4.2353e-05	1361.9	362.98	4.2049e-05	4.2117e-05	589.07	226.42	228.14	69.253	3.9367e-05	101.46	24.683	-1.367	23.519	-4.037	187.591	43.586	-4.639	0.443	157.764	107.326	-1.238	2.872	4.852	8.809	238.266	5.979	-8191	255	
3083.466	1	1	0	0	0.19401	0.24857	0.11652	0.28713	0.12826	0.10689	0.059268	0.16604	0.17247	0.41953	0.23406	0.21674	0.15251	0.17707	0.090266	0.16675	-1.7708	-2.1042	-2.5021	-1.8521	-2.6854	-2.3104	-1.9333	-2.6667	-2.0104	-2.0542	-2.7083	-1.6375	-2.4958	-2.4375	-1.9646	-2.8187	256.809	182.716	263.688	320.666	107.807	57.139	107.869	244.815	282.545	220.576	306.923	-4.706	266.556	309.604	249.914	326.210	0.0028315	0.00069318	0.00030969	768.94	1.8236e-05	2.2555e-06	1012.1	239.49	7.7954e-06	2.2488e-05	379.64	170.67	101.94	47.333	1.2734e-05	75.348	0.0039835	0.0038647	0.0010274	1117.9	4.5145e-05	4.3362e-05	1377.7	376.15	4.6356e-05	4.3113e-05	595.33	232.36	237.43	69.399	4.0116e-05	104.28	17.998	285.515	328.530	-3.640	174.205	53.990	-4.569	1.228	126.651	53.046	-0.601	3.360	5.933	8.852	-10.133	6.521	-8191	255	
3083.585	1	1	0	0	0.096186	0.05366	0.23074	0.27027	0.13152	0.051148	0.40878	0.15288	0.17553	0.089707	0.072223	0.091667	0.21234	0.1681	0.14748	0.10322	-1.6146	-1.8438	-2.6271	-1.5167	-2.1958	-2.3583	-1.9688	-2.8063	-1.9021	-1.8958	-2.5021	-1.7646	-2.3917	-2.5042	-1.6458	-2.8396	-8.828	22.564	342.100	266.644	260.472	34.783	320.458	336.781	25.015	239.235	142.328	88.425	253.472	257.092	283.392	329.074	0.00244	0.0022767	0.00010207	764.99	7.3222e-06	3.8023e-06	1009.8	236.93	2.1847e-05	1.5164e-05	379.43	170.15	102.42	47.374	2.6758e-05	76.269	0.0042412	0.003945	0.0010726	1168.1	4.8337e-05	4.5459e-05	1398.6	394.62	4.9471e-05	4.5032e-05	610.43	244.08	247.24	71.134	4.3032e-05	109.88	46.437	288.167	142.428	-3.454	107.764	285.265	-4.155	1.055	30.703	138.013	-1.280	2.939	4.591	8.253	-15.311	5.727	-8191	255	
3083.657	1	1	0	0	0.066447	0.2107	0.19577	0.23744	0.16618	0.12228	0.091661	0.121	0.29793	0.1775	0.11549	0.052714	0.18095	0.14328	0.096135	0.20017	-1.5375	-1.7792	-2.3896	-1.8104	-2.2479	-2.7167	-1.65	-2.6875	-2.3604	-1.7958	-2.5458	-1.8083	-2.1229	-2.5833	-1.5833	-2.7354	262.936	79.359	83.878	62.290	224.716	220.505	25.272	312.048	140.803	15.516	276.820	335.854	39.758	238.270	4.532	-12.016	0.00079874	0.00081727	0.00019666	763.96	2.9082e-05	1.826e-05	1010.7	239.91	2.1662e-05	8.0033e-06	380.88	171.9	102.55	47.645	8.8371e-06	77.275	0.0045084	0.0041465	0.0011305	1217.3	4.8765e-05	4.6122e-05	1413.1	408	4.956e-05	4.5556e-05	625.19	254.15	252.42	72.971	4.791e-05	116.51	14.005	43.627	84.738	-4.106	13.067	338.006	-4.528	0.995	321.601	143.899	-0.298	2.841	4.746	8.637	198.198	5.783	-8191	255	
3083.753	1	1	0	0	0.057188	0.1724	0.043638	0.12822	0.26686	0.20007	0.07674	0.071649	0.17649	0.10219	0.20139	0.092543	0.094519	0.18742	0.30896	0.024369	-2.0333	-1.7	-2.5521	-1.9292	-2.0292	-2.5167	-1.7062	-2.3417	-2.2042	-1.7854	-2.65	-2.2729	-1.9438	-2.6917	-1.8	-2.7313	141.192	301.604	61.559	308.397	307.443	167.587	242.999	290.847	173.079	101.056	243.801	101.741	258.357	311.339	71.956	286.077	0.0014336	0.00085876	0.0010427	772.01	1.5699e-05	8.4841e-06	1011.5	239.06	2.7005e-05	8.5237e-06	380.98	174.09	103.34	47.556	3.16e-05	78.435	0.0049057	0.0046125	0.0013343	1323.4	5.5617e-05	5.38e-05	1536.5	448.22	5.7254e-05	5.2936e-05	690.7	272.44	268.99	75.6	5.4923e-05	119.84	266.993	13.859	123.062	-4.196	310.192	301.120	-4.378	0.932	43.785	1.776	-0.189	2.597	4.405	8.754	230.295	5.721	-8191	255	
3083.849	1	1	0	0	0.1391	0.12543	0.15126	0.12341	0.096527	0.34167	0.12608	0.10972	0.27381	0.18182	0.1167	0.4556	0.16702	0.1597	0.19066	0.36475	-2.2833	-1.6562	-2.5646	-2.1458	-1.8979	-2.6646	-1.8375	-2.1833	-2.6896	-1.8563	-2.7333	-2.3896	-1.8667	-2.7125	-1.5979	-2.2583	7.974	296.332	133.160	308.904	291.759	230.312	12.064	281.810	236.311	100.836	45.607	-2.702	276.669	317.173	183.851	103.431	0.00039483	0.0024968	0.00085127	773.21	1.3152e-05	1.6065e-05	1015.2	239.92	5.2687e-06	1.2278e-05	382.72	174.6	103.35	47.776	3.9875e-05	78.236	0.0049835	0.0046352	0.001407	1315.9	5.3436e-05	5.2158e-05	1569.1	443.31	5.6745e-05	5.3588e-05	723.07	277.86	281.03	78.921	6.5108e-05	125.65	167.880	-10.803	122.703	-4.644	165.402	67.582	-4.038	0.817	15.281	199.048	-0.276	2.193	4.930	8.602	220.261	5.375	-8191	255	
3083.970	1	1	0	0	0.11367	0.12448	0.10818	0.17193	0.24031	0.26114	0.24435	0.016437	0.14295	0.072269	0.13562	0.13352	0.18491	0.038698	0.22062	0.26249	-1.9604	-1.4562	-2.4354	-2.1833	-1.7417	-2.6875	-2.1604	-2.2042	-2.6375	-1.8438	-2.7729	-2.4083	-1.9042	-2.7125	-1.9979	-2.0542	334.587	5.286	149.048	-14.555	58.941	260.738	307.794	334.626	-16.513	305.534	268.056	61.499	291.044	219.593	327.318	310.769	0.00045697	0.0017751	0.00094773	768.57	3.1628e-05	5.88e-06	1012.9	240.14	4.3844e-05	1.8973e-05	380.91	175	102.09	47.526	8.4027e-06	77.936	0.0056645	0.0054068	0.0017072	1397.6	6.1018e-05	6.0936e-05	1694.1	464.58	6.1977e-05	6.0124e-05	763.91	280.41	282.38	80.327	6.7202e-05	122.52	275.181	82.933	142.930	-5.188	-8.648	109.618	-4.750	0.130	-9.707	139.939	-0.793	2.368	4.504	8.843	84.183	5.191	-8191	255	
3084.066	1	1	0	0	0.082572	0.2457	0.15606	0.31662	0.22649	0.056402	0.07636	0.055825	0.15597	0.034877	0.40175	0.27312	0.28092	0.17365	0.237	0.36324	-2.4708	-1.8104	-2.5854	-2.375	-1.8042	-2.5521	-2.0375	-2.0042	-2.6979	-1.9583	-2.6312	-2.6917	-1.7271	-2.7667	-2.0292	-2.075	198.301	236.358	220.020	304.095	139.970	114.580	337.921	276.763	298.031	58.521	298.418	312.778	277.038	-10.784	56.268	261.659	0.0013675	0.0055552	0.00035041	770.4	3.0478e-05	4.5992e-05	1016.9	237.62	7.7387e-06	3.1439e-05	381.03	173.28	102.19	47.734	4.4969e-05	77.147	0.0053856	0.0054187	0.0016624	1342.8	5.6592e-05	6.0017e-05	1659.2	444.08	5.7997e-05	6.0868e-05	750.32	274.23	278.09	82.468	6.8102e-05	122.82	259.076	141.001	341.195	-4.460	16.438	163.676	-4.646	0.636	262.083	159.062	-0.914	2.260	4.484	8.903	0.642	5.147	-8191	255	
3084.162	1	1	0	0	0.1839	0.2677	0.15114	0.1912	0.11905	0.051114	0.37912	0.22212	0.16658	0.078402	0.084828	0.11725	0.073994	0.28561	0.096386	0.16367	-2.5333	-1.8729	-2.3146	-2.7479	-1.6896	-2.5312	-2.1979	-1.9396	-2.7333	-1.9771	-2.2646	-2.5979	-1.6583	-2.7667	-2.3	-2.1396	157.285	332.469	80.916	-16.046	48.045	58.842	277.381	-16.549	172.061	273.868	285.673	320.704	218.740	40.568	153.835	317.072	0.0021629	0.0055681	0.00068053	754.71	3.1564e-05	4.4742e-05	1014.8	235.89	2.5528e-05	3.086e-05	377.24	172.96	103.13	47.339	1.5837e-05	77.764	0.0055505	0.0060888	0.0017526	1377	6.1517e-05	6.9497e-05	1722.4	464.03	6.4653e-05	7.2219e-05	786.29	285.87	301.65	88.953	7.4368e-05	127.96	46.971	118.372	339.023	-4.646	149.842	172.853	-5.311	0.503	88.980	184.567	-1.909	1.907	6.044	8.517	261.551	4.933	-8191	255	
3084.258	1	1	0	0	0.085923	0.18489	0.20416	0.27957	0.093861	0.04924	0.30153	0.37551	0.10466	0.017257	0.18527	0.31869	0.15852	0.1635	0.25612	0.082491	-2.5375	-1.9604	-2.1896	-2.6854	-1.675	-2.4854	-2.1875	-1.6625	-2.6729	-2.075	-2.0167	-2.8812	-1.7563	-2.6292	-2.4604	-1.9875	291.782	209.397	328.810	321.027	190.623	255.705	322.195	254.788	268.254	79.240	304.787	323.500	-13.041	9.897	85.283	-13.108	0.0022347	0.0051608	0.0003363	766	3.0459e-05	7.5112e-06	1009.4	236.54	1.8163e-05	9.2742e-06	375.01	173.54	103.19	47.163	1.4798e-05	77.99	0.0062549	0.0070465	0.0018686	1428.7	6.8332e-05	7.7048e-05	1741.3	471.18	6.9569e-05	7.7578e-05	788.44	290.11	323.4	92.177	7.6617e-05	131.07	56.963	96.351	274.793	-4.840	154.056	159.617	-5.534	0.125	186.114	130.900	-1.413	1.867	6.261	8.354	302.276	4.856	-8191	255	
3084.353	1	1	0	0	0.11527	0.20558	0.34205	0.084899	0.22131	0.28968	0.081917	0.10869	0.20135	0.079358	0.20193	0.23786	0.1198	0.11656	0.24058	0.096333	-2.2979	-2.0438	-2.1562	-2.6771	-1.7375	-2.4229	-2.425	-1.8438	-2.5042	-2.125	-1.8104	-2.9146	-1.9438	-2.4917	-2.5938	-1.9458	179.968	82.218	283.824	235.475	27.160	229.239	248.667	164.682	295.288	30.158	277.989	301.136	52.205	306.728	196.826	135.420	0.0045709	0.0015188	0.00098018	754	9.097e-05	2.7536e-05	1017.7	236	9.0369e-05	3.5318e-05	379.37	176.02	104.09	47.934	1.2352e-05	79.466	0.0070359	0.0077872	0.0019887	1491.6	8.0986e-05	8.7274e-05	1847.8	507.09	8.5739e-05	9.0462e-05	858.9	313.42	382.81	99.951	8.7377e-05	141.53	37.482	326.002	320.188	-4.538	168.512	23.895	-5.656	0.201	171.729	87.720	-1.740	2.134	6.971	7.507	18.585	4.670	-8191	255	
3084.449	1	1	0	0	0.2833	0.12804	0.14808	0.066859	0.043092	0.32195	0.2714	0.17634	0.31476	0.19106	0.20302	0.30445	0.31451	0.32607	0.21498	0.38894	-2.2687	-2.1896	-1.8583	-2.6208	-1.8563	-2.025	-2.7104	-1.5979	-2.5375	-2.2083	-1.9021	-2.6917	-1.8125	-2.1813	-2.6042	-1.9688	50.091	20.607	227.620	239.590	248.066	184.414	-7.933	156.634	294.313	156.251	300.330	283.622	59.219	255.962	143.061	301.586	0.0033842	0.0017985	0.0008784	757.44	3.6174e-05	6.8875e-05	1014.5	232.93	6.3305e-05	3.4884e-05	379.27	176.42	103.32	48.14	3.5339e-05	79.28	0.0084153	0.0086152	0.0021724	1569.1	9.3004e-05	9.1093e-05	1893	525.88	9.3455e-05	9.1232e-05	863.94	319.83	400.49	98.525	8.6247e-05	143.81	9.237	18.061	292.959	-4.288	212.391	32.053	-5.136	0.730	165.723	31.528	-1.499	2.738	5.331	7.485	25.427	4.961	-8191	255	
3084.569	1	1	0	0	0.21518	0.11551	0.19846	0.21848	0.2092	0.21723	0.3174	0.13896	0.19871	0.28396	0.21504	0.21341	0.067108	0.098531	0.11319	0.065059	-2.1333	-2.2792	-1.725	-2.7458	-1.9667	-1.9896	-2.6042	-1.7958	-2.5187	-2.5021	-1.6771	-2.7875	-1.9354	-1.975	-2.6125	-1.7354	108.637	224.767	256.105	85.364	104.509	77.029	225.359	82.440	281.374	75.338	81.211	-5.178	266.275	218.878	334.974	35.455	0.0015019	0.00079213	0.00030159	761.01	1.546e-05	2.16e-05	1018	235.4	4.0194e-05	3.8748e-05	382.19	177.96	104.3	47.97	2.6904e-05	79.394	0.0087591	0.0084968	0.0021837	1629	0.00010032	9.2867e-05	1928.8	562.54	0.00010158	9.483e-05	888.66	337.94	420.12	99.032	8.7375e-05	150.37	29.571	295.752	332.686	-4.159	175.865	-3.645	-5.603	0.431	66.399	18.469	-1.771	2.522	3.809	7.796	54.746	5.473	-8191	255	
3084.666	1	1	0	0	0.067547	0.031664	0.22243	0.29243	0.10265	0.073605	0.23441	0.13657	0.089291	0.10263	0.16089	0.19324	0.16472	0.30665	0.15036	0.070458	-1.8979	-2.4333	-1.6896	-2.8438	-2.1667	-2.025	-2.9167	-1.9188	-2.4562	-2.6646	-1.9104	-2.6729	-2.2125	-2.0771	-2.7667	-2.125	281.630	325.493	325.524	322.505	52.629	47.225	311.068	315.227	210.634	136.670	-3.772	293.024	239.107	307.493	240.199	78.635	0.0016148	0.00062177	0.0010993	758.74	2.0544e-05	2.1664e-05	1015.4	236.69	5.3772e-05	3.3191e-05	377.21	177.46	104.77	48.322	1.4178e-06	79.141	0.0088295	0.0083842	0.0021519	1680	9.8684e-05	8.9669e-05	1901.8	575.63	9.635e-05	9.0176e-05	865.55	341.22	403.53	96.539	8.5686e-05	153.35	305.965	237.377	316.335	-4.071	25.905	331.582	-5.184	0.204	33.214	100.031	-1.453	2.167	2.998	7.457	284.024	4.747	-8191	255	
3084.762	1	1	0	0	0.32899	0.23614	0.20453	0.17041	0.25998	0.19193	0.14375	0.090029	0.17119	0.2054	0.16022	0.08785	0.16715	0.2963	0.14126	0.17447	-2.0583	-2.8375	-1.8104	-2.8042	-2.2646	-1.9479	-2.9562	-1.9646	-2.2917	-2.6729	-1.7833	-2.8083	-2.3417	-1.8583	-2.7625	-2.1792	215.372	55.798	44.872	220.449	308.287	105.787	288.509	37.953	266.065	73.424	219.478	257.331	245.789	306.925	307.590	269.437	0.0018189	0.00092237	0.0014357	760.8	5.9182e-05	2.4316e-05	1007.6	235.29	1.3402e-05	8.3906e-06	376.27	177.56	104.14	47.509	4.6462e-05	79.943	0.008495	0.0081872	0.0021564	1712.4	9.5659e-05	8.7812e-05	1916.7	593.49	9.4642e-05	9.0509e-05	897.81	353.86	410.43	98.441	9.3918e-05	161.34	177.158	28.940	138.777	-4.124	39.023	37.603	-4.349	0.791	340.087	35.127	-0.247	2.182	3.786	7.697	195.543	4.660	-8191	255	
3084.858	1	1	0	0	0.49528	0.27716	0.1302	0.3089	0.26078	0.16033	0.10195	0.27007	0.25397	0.23453	0.12884	0.096651	0.19007	0.25896	0.18356	0.22113	-1.475	-2.5646	-1.5688	-2.4604	-2.4396	-1.6958	-2.9021	-2.2938	-2.1833	-2.7417	-1.8729	-2.5187	-2.525	-1.9375	-2.675	-2.3417	305.338	221.603	74.376	297.925	340.645	327.653	311.071	262.795	99.397	29.799	292.685	134.266	140.391	107.378	154.806	-3.805	0.0012454	0.0016484	0.0022233	755.09	2.9193e-05	7.0218e-06	1001.5	237.8	4.6047e-05	3.5514e-05	373.91	175.29	103.36	46.726	5.584e-05	79.108	0.0087336	0.0084818	0.0023796	1763.1	9.5951e-05	8.8144e-05	1973.3	599.79	9.2496e-05	8.8399e-05	921.4	346.11	392.35	95.161	9.5088e-05	155.8	311.963	0.702	121.411	-4.976	9.099	18.212	-4.449	0.242	-11.657	69.167	-0.144	1.884	3.642	8.038	204.898	4.312	-8191	255	
#DATA ENDS
