BOXY.EXE: ISS Imagent and Oximeter Data Acquisition Program Version 0.80
Ascii Record File

#ACQ INFORMATION
2  Detector Channels 
16  External MUX Channels 
1  Auxiliary Channels 
5000  Waveform (CCF) Frequency (Hz)
1  Waveforms Skipped 
30  Waveforms Averaged 
1  Cycles Averaged 
16  Acquisitions per Waveform 
10.0806  Updata Rate (Hz) 

#FILE INFORMATION
TRUE -- External MUX Channel results are PARSED.
FALSE -- AC DC and Phase are NOT grouped.
TRUE -- Companion Program Settings File CREATED.
FALSE -- AC data not excluded
FALSE -- DC data not excluded
FALSE -- Phase data not excluded
FALSE -- Auxillary Chn. data not excluded
Tab delimiters

#CALIBRATION STATE
TRUE -- Waveform Calibration Values APPLIED.


#AUX CALIBRATION VALUES
Val Type	aux-1	

Term	1.0000e+00	
Factor	0.0000e+00	


#WF CALIBRATION VALUES
A = Detector Channel
Val Type	A-AC1	A-AC2	A-AC3	A-AC4	A-AC5	A-AC6	A-AC7	A-AC8	A-AC9	A-AC10	A-AC11	A-AC12	A-AC13	A-AC14	A-AC15	A-AC16	A-DC1	A-DC2	A-DC3	A-DC4	A-DC5	A-DC6	A-DC7	A-DC8	A-DC9	A-DC10	A-DC11	A-DC12	A-DC13	A-DC14	A-DC15	A-DC16	A-Ph1	A-Ph2	A-Ph3	A-Ph4	A-Ph5	A-Ph6	A-Ph7	A-Ph8	A-Ph9	A-Ph10	A-Ph11	A-Ph12	A-Ph13	A-Ph14	A-Ph15	A-Ph16	

Term	0.00000e+00	0.00000e+00	0.00000e+00	0.00000e+00	0.00000e+00	0.00000e+00	0.00000e+00	0.00000e+00	0.00000e+00	0.00000e+00	0.00000e+00	0.00000e+00	0.00000e+00	0.00000e+00	0.00000e+00	0.00000e+00	0.00000e+00	0.00000e+00	0.00000e+00	0.00000e+00	0.00000e+00	0.00000e+00	0.00000e+00	0.00000e+00	0.00000e+00	0.00000e+00	0.00000e+00	0.00000e+00	0.00000e+00	0.00000e+00	0.00000e+00	0.00000e+00	0.00000e+00	0.00000e+00	0.00000e+00	0.00000e+00	0.00000e+00	0.00000e+00	0.00000e+00	0.00000e+00	0.00000e+00	0.00000e+00	0.00000e+00	0.00000e+00	0.00000e+00	0.00000e+00	0.00000e+00	0.00000e+00	
Factor	1.00000e+00	1.00000e+00	1.00000e+00	1.00000e+00	1.00000e+00	1.00000e+00	1.00000e+00	1.00000e+00	1.00000e+00	1.00000e+00	1.00000e+00	1.00000e+00	1.00000e+00	1.00000e+00	1.00000e+00	1.00000e+00	1.00000e+00	1.00000e+00	1.00000e+00	1.00000e+00	1.00000e+00	1.00000e+00	1.00000e+00	1.00000e+00	1.00000e+00	1.00000e+00	1.00000e+00	1.00000e+00	1.00000e+00	1.00000e+00	1.00000e+00	1.00000e+00	X	X	X	X	X	X	X	X	X	X	X	X	X	X	X	X	

B = Detector Channel
Val Type	B-AC1	B-AC2	B-AC3	B-AC4	B-AC5	B-AC6	B-AC7	B-AC8	B-AC9	B-AC10	B-AC11	B-AC12	B-AC13	B-AC14	B-AC15	B-AC16	B-DC1	B-DC2	B-DC3	B-DC4	B-DC5	B-DC6	B-DC7	B-DC8	B-DC9	B-DC10	B-DC11	B-DC12	B-DC13	B-DC14	B-DC15	B-DC16	B-Ph1	B-Ph2	B-Ph3	B-Ph4	B-Ph5	B-Ph6	B-Ph7	B-Ph8	B-Ph9	B-Ph10	B-Ph11	B-Ph12	B-Ph13	B-Ph14	B-Ph15	B-Ph16	

Term	0.00000e+00	0.00000e+00	0.00000e+00	0.00000e+00	0.00000e+00	0.00000e+00	0.00000e+00	0.00000e+00	0.00000e+00	0.00000e+00	0.00000e+00	0.00000e+00	0.00000e+00	0.00000e+00	0.00000e+00	0.00000e+00	0.00000e+00	0.00000e+00	0.00000e+00	0.00000e+00	0.00000e+00	0.00000e+00	0.00000e+00	0.00000e+00	0.00000e+00	0.00000e+00	0.00000e+00	0.00000e+00	0.00000e+00	0.00000e+00	0.00000e+00	0.00000e+00	-1.88609e+02	-1.27598e+02	-1.28064e+02	-1.86550e+02	-7.56069e+01	-6.93013e+01	-1.58582e+02	-1.62015e+02	-8.04884e+01	-6.78725e+01	-1.72035e+02	-1.71270e+02	-1.83419e+02	-1.77402e+02	-7.72896e+01	-1.49868e+02	
Factor	3.27749e-05	1.39329e-04	3.88666e-05	2.88475e-01	1.43949e-06	1.41513e-06	1.57872e-01	4.58217e-02	1.50912e-06	1.47195e-06	7.41059e-02	2.49279e-02	3.53259e-02	7.84877e-03	1.37570e-06	1.11498e-02	1.92326e-05	3.85017e-05	1.09289e-05	1.54926e-01	3.98288e-07	4.44642e-07	7.99822e-02	2.48168e-02	3.58251e-07	4.44534e-07	3.89740e-02	1.31152e-02	1.93336e-02	4.30545e-03	3.87079e-07	5.92357e-03	X	X	X	X	X	X	X	X	X	X	X	X	X	X	X	X	



#DISTANCE SETTINGS
A = Detector Channel
A-1	A-2	A-3	A-4	A-5	A-6	A-7	A-8	A-9	A-10	A-11	A-12	A-13	A-14	A-15	A-16	

2.5000e+00	3.0000e+00	2.5000e+00	3.0000e+00	2.0000e+00	3.0000e+00	1.5000e+00	3.0000e+00	3.0000e+00	3.0000e+00	3.0000e+00	3.0000e+00	3.0000e+00	3.0000e+00	1.5000e+00	3.0000e+00	

B = Detector Channel
B-1	B-2	B-3	B-4	B-5	B-6	B-7	B-8	B-9	B-10	B-11	B-12	B-13	B-14	B-15	B-16	

1.0000e+01	1.0000e+01	1.0000e+01	1.4400e+00	1.0000e+01	1.0000e+01	1.5100e+00	1.9400e+00	1.0000e+01	1.0000e+01	1.9900e+00	2.4900e+00	2.4100e+00	2.9000e+00	1.0000e+01	2.9800e+00	




#DATA BEGINS
time	group	step	mark	flag	A-AC1	A-AC2	A-AC3	A-AC4	A-AC5	A-AC6	A-AC7	A-AC8	A-AC9	A-AC10	A-AC11	A-AC12	A-AC13	A-AC14	A-AC15	A-AC16	A-DC1	A-DC2	A-DC3	A-DC4	A-DC5	A-DC6	A-DC7	A-DC8	A-DC9	A-DC10	A-DC11	A-DC12	A-DC13	A-DC14	A-DC15	A-DC16	A-Ph1	A-Ph2	A-Ph3	A-Ph4	A-Ph5	A-Ph6	A-Ph7	A-Ph8	A-Ph9	A-Ph10	A-Ph11	A-Ph12	A-Ph13	A-Ph14	A-Ph15	A-Ph16	B-AC1	B-AC2	B-AC3	B-AC4	B-AC5	B-AC6	B-AC7	B-AC8	B-AC9	B-AC10	B-AC11	B-AC12	B-AC13	B-AC14	B-AC15	B-AC16	B-DC1	B-DC2	B-DC3	B-DC4	B-DC5	B-DC6	B-DC7	B-DC8	B-DC9	B-DC10	B-DC11	B-DC12	B-DC13	B-DC14	B-DC15	B-DC16	B-Ph1	B-Ph2	B-Ph3	B-Ph4	B-Ph5	B-Ph6	B-Ph7	B-Ph8	B-Ph9	B-Ph10	B-Ph11	B-Ph12	B-Ph13	B-Ph14	B-Ph15	B-Ph16	aux-1	digaux	

28871.811	1	1	0	768	0.21733	0.24102	0.28494	0.089968	0.10222	0.015601	0.23976	0.1492	0.13928	0.17617	0.18269	0.13015	0.083406	0.11109	0.031385	0.11212	-2.7792	-2.3625	-3.0312	-2.9208	-2.3812	-3.0854	-2.7542	-2.8646	-3.1146	-2.3896	-3	-3.0208	-2.3854	-3.0375	-2.6813	-2.5771	-86.759	3.057	-38.761	-85.028	104.666	-73.736	225.459	245.002	16.101	-106.818	147.255	-10.103	188.910	-68.527	103.305	-1.697	0.00020289	0.00038945	0.00018771	1155.8	5.5465e-06	2.499e-06	1258.5	228.71	2.5333e-07	2.0204e-06	292.18	81.405	63.972	17.343	3.4186e-06	24.253	0.001568	0.0029076	0.00080817	1146.2	3.0249e-05	3.3414e-05	1251	228.58	2.7405e-05	3.4173e-05	293.27	82.824	65.491	17.848	2.9945e-05	25.2	130.192	-13.771	-21.139	-97.872	15.547	24.963	-97.964	-90.511	49.823	21.109	-90.406	-84.171	-84.044	-76.666	14.333	-76.906	-8191	255	
28871.906	1	1	0	0	0.20612	0.17272	0.16085	0.14726	0.089512	0.071074	0.30141	0.17571	0.2653	0.16866	0.34658	0.2315	0.026629	0.18478	0.13222	0.12592	-2.7083	-2.2042	-2.6437	-2.8729	-2.2667	-3.1854	-2.8958	-2.3271	-3.0042	-2.2208	-2.9	-3.2104	-2.2812	-3.1375	-2.5917	-2.3125	168.324	149.709	47.233	-10.113	-33.033	-80.976	184.048	72.177	249.938	5.029	224.448	190.152	-87.046	152.358	43.187	188.414	0.00016215	0.00031774	6.4001e-05	1157.7	5.3655e-06	3.0466e-06	1265.7	230.12	3.9321e-06	3.3389e-06	291.06	81.552	64.228	17.433	4.2036e-06	24.675	0.0015776	0.0029338	0.00082853	1149.8	3.0847e-05	3.3019e-05	1253.9	229.87	2.7528e-05	3.3242e-05	293.6	82.913	65.822	17.943	3.0909e-05	25.322	158.991	-41.116	-53.778	-98.119	-19.335	22.477	-97.759	-90.474	25.750	57.893	-90.847	-84.685	-84.606	-76.452	49.176	-76.595	-8191	255	
28872.004	1	1	0	0	0.1962	0.19279	0.18007	0.29457	0.079432	0.19175	0.23054	0.076884	0.29946	0.067438	0.47136	0.040628	0.10984	0.20835	0.18563	0.37728	-2.725	-2.2479	-2.6521	-3.0479	-2.3208	-3.0333	-3.225	-2.5583	-3.0479	-2.4542	-2.6667	-3.2479	-2.3792	-2.8667	-2.75	-2.4354	20.298	15.840	211.305	188.181	211.966	233.760	231.888	118.159	200.524	133.441	228.926	89.848	-62.794	161.552	110.946	239.047	0.0001856	0.00030727	8.6977e-05	1161.4	1.8184e-06	3.0151e-06	1274.5	229.47	2.6883e-06	4.8389e-06	292.17	82.001	64.851	17.704	6.8193e-06	24.566	0.0016154	0.0030266	0.00085482	1154.1	3.2678e-05	3.6488e-05	1259.8	230.92	2.9412e-05	3.6367e-05	294.46	83.61	66.052	18.078	3.0957e-05	25.41	140.352	-24.881	-27.452	-97.850	-35.198	64.860	-97.974	-90.675	-7.546	123.914	-90.580	-84.801	-84.703	-76.815	75.278	-77.295	-8191	255	
28872.098	1	1	0	0	0.22085	0.039043	0.45735	0.20908	0.089619	0.25972	0.30028	0.06635	0.18188	0.11304	0.30851	0.082278	0.27602	0.12145	0.052912	0.062339	-2.7104	-2.3625	-2.4688	-3.1104	-2.5	-2.9979	-3.1458	-2.4833	-2.9875	-2.5646	-2.5812	-3.1083	-2.2542	-2.9229	-3.1271	-2.4375	215.492	-29.396	190.159	161.195	14.843	79.446	150.417	11.148	-80.768	218.328	-103.058	108.828	222.084	141.542	231.403	-64.163	4.829e-05	0.00025238	0.00018015	1162.7	4.5428e-06	4.5691e-06	1273.7	231.27	4.4925e-06	4.5479e-06	292.09	81.973	64.137	17.52	7.0926e-06	24.549	0.0016786	0.003023	0.00087894	1155	3.2033e-05	3.469e-05	1261.3	231.51	2.856e-05	3.4606e-05	294.09	83.116	65.94	18.033	3.0678e-05	25.452	183.537	-40.765	-1.475	-97.662	20.796	95.762	-97.885	-90.535	36.381	25.775	-90.444	-84.237	-84.341	-76.361	-6.597	-76.947	-8191	255	
28872.193	1	1	0	0	0.15282	0.15005	0.19655	0.097943	0.040316	0.28849	0.34995	0.29872	0.092544	0.28892	0.15016	0.095107	0.21447	0.21315	0.14594	0.26375	-2.4792	-2.6396	-2.425	-3.3646	-2.425	-2.8063	-3.2229	-2.5396	-3.1292	-2.8333	-2.5854	-3.2271	-2.4875	-2.6729	-3.0375	-2.3458	10.534	61.884	160.682	172.350	210.146	93.635	175.749	216.087	-62.144	97.838	-77.233	-89.821	-48.207	161.797	63.127	-31.736	0.00022876	0.00013413	0.00013784	1165.4	2.0133e-06	5.3368e-06	1271.1	231.8	3.4813e-06	2.6411e-06	292.54	82.294	64.087	17.57	6.2456e-06	24.81	0.0016616	0.0030346	0.00086161	1156.7	3.2017e-05	3.5204e-05	1263	232.21	2.9164e-05	3.5125e-05	294.57	83.806	66.066	18.032	3.157e-05	25.505	154.670	13.735	-6.166	-97.896	10.472	34.240	-97.844	-90.641	-72.871	42.647	-90.512	-83.584	-84.459	-76.745	49.015	-76.679	-8191	255	
28872.291	1	1	0	0	0.093412	0.18912	0.14662	0.22153	0.037733	0.042617	0.021571	0.11536	0.11341	0.083718	0.016289	0.16938	0.046649	0.055613	0.008874	0.252	-2.4854	-2.7313	-2.3896	-3.1354	-2.525	-2.6667	-3.2042	-2.4271	-2.8292	-2.8917	-2.3292	-3.0958	-2.7917	-2.6458	-3.1729	-2.4646	-14.356	124.308	-107.353	179.035	92.843	54.562	134.472	179.339	-76.717	-79.937	147.149	232.251	151.450	67.804	-69.302	77.051	0.00016202	0.00070299	0.00014413	1173.4	1.1428e-06	5.0437e-06	1269	232.34	3.3827e-06	3.6533e-06	293.99	81.984	64.355	17.646	5.1307e-06	24.569	0.001651	0.003029	0.00086452	1160.5	3.1402e-05	3.5157e-05	1263.6	232.31	2.9342e-05	3.4764e-05	295.18	83.603	66.119	18.02	3.0514e-05	25.432	171.487	40.351	-30.022	-98.067	-86.013	56.919	-97.669	-90.405	36.943	20.472	-90.582	-84.107	-84.181	-76.530	36.845	-77.086	-8191	255	
28872.410	1	1	0	0	0.26942	0.24244	0.13827	0.24897	0.024301	0.13507	0.066065	0.22977	0.073628	0.054356	0.056008	0.16898	0.1961	0.078927	0.18722	0.12791	-2.4521	-2.9437	-2.2625	-3.2417	-2.6292	-2.3896	-3.3729	-2.5542	-2.6708	-3.0125	-2.3479	-3.2208	-2.7146	-2.5583	-3.0667	-2.3583	205.113	-0.205	123.991	146.310	-58.602	46.212	-95.561	216.986	215.807	104.837	76.608	-86.713	110.801	-77.164	-57.535	199.355	0.00019357	0.00032726	0.0001122	1166.4	2.8993e-06	4.0099e-06	1276.4	232.86	1.1853e-06	1.5163e-06	294.48	82.712	63.77	17.454	1.615e-06	24.723	0.0016149	0.003024	0.00086111	1159	3.1773e-05	3.5544e-05	1265.5	232.77	2.9066e-05	3.432e-05	295.14	83.979	66.008	18.057	3.0616e-05	25.495	160.696	21.167	-3.306	-97.879	70.830	91.560	-97.919	-90.747	110.373	49.768	-90.726	-84.260	-83.903	-76.093	-83.408	-76.879	-8191	255	
28872.506	1	1	0	0	0.057332	0.23327	0.19985	0.153	0.094351	0.13549	0.17782	0.19324	0.3073	0.083627	0.15103	0.26633	0.16766	0.10619	0.19233	0.10603	-2.3021	-2.9688	-2.2812	-3.0125	-2.8312	-2.6021	-3.1813	-2.5479	-2.7542	-3.3208	-2.4437	-2.9667	-2.8208	-2.5812	-3.1813	-2.6396	151.580	189.104	22.196	220.146	115.656	-1.480	195.399	201.198	-40.781	129.607	159.027	246.316	188.694	175.016	-98.871	241.987	0.00018601	0.00041423	1.1406e-06	1174.6	2.188e-06	5.3133e-06	1273	233.39	1.3588e-06	4.3888e-06	293.27	82.705	64.858	17.626	3.3643e-06	24.796	0.0016519	0.003028	0.00089961	1164.6	3.3294e-05	3.5966e-05	1268.1	233.45	3.0059e-05	3.5854e-05	295.8	84.179	66.578	18.139	3.2993e-05	25.63	136.961	-3.479	112.222	-98.043	204.735	36.728	-97.797	-90.506	197.114	14.885	-90.735	-84.386	-84.552	-76.465	-87.374	-76.960	-8191	255	
28872.604	1	1	0	0	0.15401	0.29141	0.28923	0.18868	0.10684	0.18048	0.10046	0.15886	0.10651	0.15746	0.21282	0.17277	0.12569	0.053211	0.12967	0.27018	-2.1604	-3.1833	-2.3646	-2.9542	-3.0104	-2.3417	-3.3396	-2.7229	-2.6375	-3.1729	-2.5521	-2.8229	-2.7875	-2.3812	-2.8833	-2.7396	154.095	56.885	86.427	223.069	212.161	98.053	-6.645	138.810	196.165	79.713	-96.413	113.292	243.741	92.191	34.242	176.958	0.00017742	0.00054786	4.5293e-05	1166.6	1.8497e-06	2.0609e-06	1281.2	234.49	1.9019e-06	5.5734e-06	294.9	82.733	64.993	17.597	3.6276e-06	24.775	0.0017736	0.0031683	0.00092962	1163.3	3.366e-05	3.754e-05	1272.3	233.81	3.0769e-05	3.6468e-05	296.68	84.301	66.673	18.14	3.278e-05	25.509	138.607	-10.990	-12.116	-97.933	-42.652	44.113	-98.086	-90.844	-25.814	75.165	-90.487	-84.225	-84.416	-76.802	12.474	-77.052	-8191	255	
28872.699	1	1	0	0	0.13252	0.24265	0.27021	0.23945	0.17522	0.26274	0.077782	0.21262	0.1212	0.19704	0.28432	0.1497	0.36322	0.27032	0.12267	0.080467	-2.1375	-3.1896	-2.5687	-3.0354	-2.875	-2.4542	-3.2687	-2.9271	-2.3896	-3.2979	-2.5229	-2.6917	-3.0687	-2.4521	-2.9708	-2.9646	205.123	-96.318	-50.221	-99.020	-45.509	53.024	140.974	220.119	181.627	188.112	198.733	-62.249	-26.674	89.319	180.664	-81.381	0.00016317	0.00050912	0.00010452	1175.7	2.8785e-06	4.8383e-06	1278.8	234.65	1.4127e-06	5.2462e-06	295.99	83.06	65.403	17.625	3.5922e-06	24.844	0.0017156	0.0032081	0.00093128	1168.9	3.4425e-05	3.8576e-05	1271.7	234.41	3.1395e-05	3.8022e-05	297.24	84.494	67.028	18.209	3.3054e-05	25.694	116.311	-34.342	-26.977	-97.734	69.586	50.170	-97.755	-90.896	219.391	65.303	-90.771	-84.069	-84.206	-76.305	-0.130	-77.306	-8191	255	
28872.795	1	1	0	0	0.11761	0.1101	0.041913	0.03004	0.11695	0.16969	0.14179	0.018912	0.075382	0.073525	0.22046	0.14051	0.10818	0.12589	0.1338	0.21999	-2.0042	-3.2333	-2.5146	-2.6312	-3.0312	-2.3042	-3.2021	-2.9771	-2.5021	-3.1729	-2.5417	-2.6292	-3.2333	-2.5083	-3.0271	-3.0438	-105.184	110.262	218.530	-107.931	161.806	42.130	27.577	43.811	66.527	192.063	136.398	82.868	204.557	218.747	203.541	16.645	0.00016647	0.00020925	8.2292e-05	1174.1	3.7309e-06	5.0046e-06	1283.1	233.53	5.0595e-06	1.238e-06	295.43	82.956	65.876	17.641	4.1074e-07	24.84	0.0017436	0.0032395	0.00095059	1166.6	3.46e-05	3.7772e-05	1273.8	234.35	3.2264e-05	3.749e-05	298.08	84.621	67.058	18.203	3.2717e-05	25.682	134.641	0.532	58.570	-97.790	48.425	25.811	-97.641	-90.692	-41.732	84.747	-90.752	-83.951	-84.269	-76.303	10.668	-76.917	-8191	255	
28872.891	1	1	0	0	0.26271	0.16219	0.13642	0.21053	0.15033	0.19224	0.26044	0.033397	0.22361	0.069277	0.25946	0.13077	0.23619	0.20621	0.16246	0.13149	-1.9375	-3.0563	-2.6	-2.6708	-3.1667	-2.3625	-2.9125	-2.7917	-2.0687	-3.1167	-2.7438	-2.5729	-3.1229	-2.4688	-2.7854	-3.1562	10.491	186.916	55.928	221.989	250.603	-60.486	157.627	188.417	210.386	-10.213	132.301	-107.075	158.267	97.038	139.437	116.832	0.00015964	0.00026797	0.00011795	1183	5.3957e-06	2.3514e-06	1285.4	233.94	4.4866e-06	6.2503e-06	298.34	83.082	64.803	17.716	5.2459e-06	24.794	0.0017948	0.0032964	0.00091241	1170	3.4788e-05	3.8527e-05	1277.1	234.61	3.1129e-05	3.7466e-05	298.45	84.497	66.766	18.227	3.2571e-05	25.614	159.473	-47.417	34.309	-98.207	71.582	14.164	-97.733	-90.643	-15.929	41.203	-90.745	-84.168	-84.280	-76.299	71.888	-76.808	-8191	255	
28873.012	1	1	0	0	0.13706	0.08207	0.166	0.040372	0.11932	0.27026	0.31379	0.40907	0.034891	0.23615	0.084669	0.071566	0.037296	0.025355	0.23656	0.11116	-2.1063	-3.3042	-2.8208	-2.7938	-3.0604	-2.5333	-2.8792	-3.0938	-2.4875	-2.8729	-2.8771	-2.3875	-3.2375	-2.5438	-2.6375	-3.3208	57.243	6.306	52.857	126.361	109.687	20.186	180.262	188.902	204.747	185.812	-79.884	194.601	143.019	76.742	192.979	-37.431	0.00019557	0.00036814	0.00011081	1181.7	3.3679e-06	1.9557e-06	1290.3	234.31	4.4068e-06	3.0504e-06	296.54	82.864	64.936	17.779	3.2478e-06	24.901	0.0017623	0.0032068	0.00091853	1170	3.3889e-05	3.6805e-05	1275.1	234.7	3.1204e-05	3.7142e-05	298.14	84.328	66.793	18.17	3.2554e-05	25.611	144.469	-6.353	-33.203	-97.773	100.809	63.736	-97.596	-90.457	26.476	4.563	-90.894	-84.230	-83.789	-76.514	4.263	-76.706	-8191	255	
28873.105	1	1	0	0	0.091837	0.15419	0.19453	0.10168	0.12432	0.054237	0.2554	0.15831	0.13098	0.13771	0.2116	0.030992	0.06716	0.38602	0.17167	0.2696	-1.6708	-2.9625	-2.6979	-2.3438	-3.0375	-2.5687	-2.6896	-3.2229	-2.4375	-2.9479	-2.9375	-2.4375	-3.0458	-2.6937	-2.5563	-3.2	80.231	-20.756	214.708	250.686	33.302	63.757	222.995	209.247	177.529	112.587	229.535	211.554	-53.522	-82.692	121.655	250.318	0.00016995	0.0005345	0.00019566	1174.1	2.6262e-06	3.2018e-06	1282.7	234.52	4.6836e-06	3.4945e-06	297.47	83.232	64.526	17.607	3.7916e-06	24.944	0.0017294	0.0031397	0.00088943	1165.8	3.3098e-05	3.5832e-05	1274.5	234.92	2.9641e-05	3.6247e-05	297.91	84.395	66.436	18.12	3.1741e-05	25.58	123.451	-41.343	5.381	-98.045	1.410	114.810	-97.544	-90.407	20.175	109.068	-90.665	-84.624	-84.060	-76.409	-19.432	-77.032	-8191	255	
28873.201	1	1	0	0	0.18095	0.11477	0.051801	0.070646	0.08694	0.23467	0.14243	0.12719	0.049676	0.40533	0.19062	0.26474	0.076515	0.22625	0.16129	0.04326	-1.9792	-2.6813	-2.9542	-2.3604	-2.9417	-2.6479	-2.6437	-3.1896	-2.1979	-2.6729	-3.1063	-2.3958	-3.0792	-2.9229	-2.3729	-3.1271	123.905	-38.402	-76.843	-24.438	218.436	72.786	174.955	196.954	-72.636	144.102	203.726	171.959	95.981	170.013	126.716	76.625	0.00015739	0.00032668	7.8448e-05	1171.2	2.2792e-06	4.6322e-06	1277.9	234.35	5.639e-06	5.4841e-06	295.72	82.693	64.715	17.56	4.0709e-06	24.865	0.0017257	0.0031202	0.00086862	1165	3.2851e-05	3.6039e-05	1270.6	234.69	2.9791e-05	3.605e-05	297.74	84.294	66.723	18.065	3.2094e-05	25.587	160.951	26.067	-63.799	-98.054	-16.599	25.000	-97.717	-90.269	-35.292	55.813	-90.891	-84.095	-84.628	-76.572	83.927	-77.113	-8191	255	
28873.299	1	1	0	0	0.11989	0.17673	0.10219	0.12086	0.23737	0.064839	0.25019	0.2285	0.35847	0.0086471	0.13013	0.13929	0.13337	0.14012	0.11901	0.13914	-2.0854	-2.5292	-3.0979	-2.3771	-3.1625	-2.9396	-2.6042	-3.2062	-2.4896	-2.475	-3.2146	-2.4729	-2.9	-2.8292	-2.4354	-3.225	74.871	-30.784	122.631	-40.306	56.141	6.263	192.827	175.023	231.340	110.575	-87.982	74.299	-76.387	-27.431	-72.498	147.096	0.0002259	0.00053016	9.2455e-05	1170.7	6.1575e-06	4.2042e-06	1282.8	235.14	2.3407e-06	3.0553e-06	298.65	82.908	65.211	17.561	2.1037e-06	24.729	0.0016885	0.0031551	0.00089756	1166.8	3.2826e-05	3.5714e-05	1269.3	234.47	2.9464e-05	3.4888e-05	298.44	84.281	66.816	18.1	3.0912e-05	25.536	118.881	-27.973	-5.726	-97.710	65.124	3.313	-97.528	-90.743	-35.428	54.948	-90.534	-84.203	-84.078	-76.416	33.312	-76.675	-8191	255	
28873.395	1	1	0	0	0.070492	0.04784	0.099873	0.29822	0.20688	0.030709	0.26802	0.087783	0.45506	0.2968	0.11131	0.1866	0.29075	0.090146	0.21916	0.27985	-2.0729	-2.3688	-3.1583	-2.4875	-2.9437	-3.1021	-2.5896	-3.1	-2.4688	-2.4292	-3.3333	-2.4604	-2.825	-3.1354	-2.4625	-3.0458	-77.356	218.362	76.132	-65.796	-98.896	-16.213	226.885	201.394	45.938	76.327	177.990	3.550	-28.172	206.536	237.047	209.613	0.00019425	0.00048046	0.00014287	1170.9	1.6375e-06	2.7798e-06	1287.3	234.54	2.4442e-06	4.0073e-06	297.28	82.607	64.681	17.729	3.6062e-06	24.916	0.0016391	0.0031399	0.00089296	1161.9	3.1984e-05	3.4921e-05	1271.1	234.67	2.8763e-05	3.5604e-05	298.17	84.165	66.543	18.163	3.0461e-05	25.586	141.539	-14.249	4.271	-97.911	-37.397	-5.764	-97.548	-90.490	208.716	44.351	-90.753	-84.084	-83.878	-76.089	49.399	-77.371	-8191	255	
28873.490	1	1	0	0	0.015348	0.096478	0.17347	0.056353	0.09713	0.09779	0.24944	0.14372	0.10439	0.15481	0.22111	0.18295	0.1669	0.17673	0.12402	0.048454	-2.3375	-2.3458	-3.1188	-2.6146	-2.6063	-3.0187	-2.5021	-3.1021	-2.6292	-2.3271	-3.3937	-2.4083	-2.625	-3.0729	-2.5229	-3.15	202.617	245.790	145.181	-76.849	-35.972	219.351	165.028	-60.737	101.255	-1.028	-14.364	-81.341	-82.029	154.451	111.070	-92.127	7.2835e-05	0.00038086	5.4314e-05	1168.7	2.6493e-06	2.7728e-06	1277.6	234.9	3.7031e-06	5.6397e-06	296.25	82.887	64.454	17.583	7.1887e-07	24.705	0.0016181	0.0031035	0.00088845	1164.3	3.166e-05	3.5428e-05	1270.8	234.76	2.8469e-05	3.5528e-05	298.04	84.397	66.406	18.094	3.0306e-05	25.509	155.496	-20.310	34.683	-97.883	1.115	24.355	-97.814	-90.335	-40.623	62.640	-90.535	-84.307	-84.330	-76.632	86.431	-77.402	-8191	255	
28873.588	1	1	0	0	0.14794	0.30775	0.17268	0.059126	0.15113	0.079599	0.1125	0.23817	0.35655	0.19451	0.021765	0.18337	0.26559	0.30988	0.20021	0.51162	-2.4938	-2.3979	-3.1271	-2.7229	-2.7375	-2.9979	-2.6583	-3.3125	-2.9021	-2.2938	-3.1833	-2.8458	-2.3979	-2.9792	-2.2438	-2.8937	126.814	135.406	173.293	221.471	-106.390	199.908	104.274	220.185	24.182	-25.914	32.345	87.556	81.882	231.151	-42.228	-105.107	0.00018876	0.00016015	0.00011004	1172.3	1.1776e-06	7.1501e-06	1277.6	234.63	6.2412e-06	1.4232e-06	294.52	83.171	65.33	17.639	4.4681e-06	24.865	0.0016672	0.0031008	0.00084829	1163.8	3.2305e-05	3.4891e-05	1267.8	234.87	2.8912e-05	3.6096e-05	297.63	84.284	66.728	18.098	3.0493e-05	25.578	161.327	18.058	-56.110	-97.886	6.595	71.038	-97.917	-90.517	-1.850	-39.487	-90.403	-84.722	-83.820	-76.500	38.147	-77.319	-8191	255	
28873.684	1	1	0	0	0.34064	0.14425	0.1833	0.072538	0.066753	0.2106	0.32312	0.29553	0.11217	0.26102	0.098854	0.16309	0.11861	0.21014	0.17745	0.22528	-2.5062	-2.3271	-3.1646	-2.8396	-2.5	-3.2083	-2.4271	-2.7542	-2.8292	-2.3646	-3.1167	-2.6958	-2.4188	-3.1292	-2.3563	-2.8708	-101.864	84.978	145.900	60.461	85.813	111.804	163.022	130.306	128.374	91.898	235.432	-18.410	103.547	39.708	32.207	175.812	0.00018344	0.0003801	6.3863e-05	1174.5	4.7208e-06	2.4853e-06	1277.5	233.82	4.6131e-06	5.7447e-06	295.28	82.78	64.915	17.493	1.4316e-06	24.894	0.0016434	0.0031098	0.00084203	1163.2	3.1618e-05	3.3913e-05	1269.5	234.39	2.9002e-05	3.4075e-05	297.39	84.133	66.649	18.051	2.9807e-05	25.509	127.097	-40.356	-23.278	-97.999	18.646	102.070	-97.715	-90.605	49.405	36.586	-90.750	-84.278	-84.657	-76.149	-81.236	-77.301	-8191	255	
28873.779	1	1	0	0	0.15963	0.2964	0.18328	0.14131	0.24837	0.10794	0.21839	0.19958	0.049863	0.2522	0.093887	0.13951	0.079513	0.17112	0.15244	0.45673	-2.5604	-2.3333	-3.0187	-2.7271	-2.2917	-3.1312	-2.7438	-2.8667	-3.1813	-2.2	-2.9604	-2.9188	-2.4229	-3.15	-2.6708	-2.6104	206.174	-77.298	226.871	-44.566	169.698	-21.374	211.559	180.732	-6.081	188.755	195.977	227.579	-33.776	33.455	121.904	125.641	0.00017258	0.00032734	0.00014174	1166.8	2.3608e-06	2.7838e-06	1281	233.95	4.1709e-06	3.938e-06	295.85	82.431	65.028	17.732	3.6094e-06	24.78	0.0016214	0.0030332	0.00083308	1160.2	3.1579e-05	3.432e-05	1268.8	233.88	2.8853e-05	3.4524e-05	297.58	83.882	66.707	18.071	3.0469e-05	25.519	141.957	-19.550	-2.205	-98.082	10.109	74.922	-97.936	-90.478	-12.650	46.289	-90.822	-84.368	-84.483	-76.505	9.453	-76.968	-8191	255	
28873.900	1	1	0	0	0.24403	0.27432	0.14453	0.18162	0.25493	0.25834	0.33435	0.32626	0.18037	0.17179	0.21497	0.1313	0.20075	0.16928	0.069279	0.13552	-2.6542	-2.4458	-3.0479	-3.0167	-2.1396	-3.3521	-2.7708	-2.4813	-3.1667	-2.3354	-3.1104	-2.9875	-2.2771	-3.0521	-2.7667	-2.5312	17.546	27.740	215.885	89.081	-15.914	190.674	200.477	223.874	175.841	-0.545	225.239	196.600	80.486	-106.974	-8.213	234.069	0.00013488	0.00029537	3.4617e-05	1169.3	1.5537e-06	4.3807e-06	1282.8	233.54	3.6781e-06	5.2112e-06	297.77	82.742	65.071	17.436	3.3391e-06	24.806	0.0015991	0.0029929	0.00084599	1162.3	3.1629e-05	3.4577e-05	1268.9	233.72	2.7462e-05	3.4242e-05	298.24	84.068	66.598	18.035	2.8504e-05	25.486	145.705	-49.042	34.102	-97.876	91.263	72.947	-97.789	-90.374	10.713	64.948	-90.765	-84.334	-84.205	-76.208	72.978	-76.591	-8191	255	
28873.971	1	1	0	0	0.11857	0.11908	0.33642	0.040912	0.20353	0.22401	0.25558	0.35131	0.12975	0.067411	0.21456	0.28983	0.24288	0.086415	0.12716	0.13443	-2.6917	-2.2396	-2.7792	-3.1646	-2.0521	-3.1312	-2.8187	-2.6437	-3.1271	-2.5854	-2.6875	-3.0125	-2.2146	-2.9854	-3.0375	-2.6167	202.302	241.903	202.589	244.190	197.674	204.953	215.997	219.605	9.230	214.608	24.430	-88.342	126.317	-84.499	113.019	-70.085	0.00019876	0.00033204	9.4181e-05	1173.5	8.7862e-07	3.1313e-06	1269	232.6	5.8197e-06	7.7744e-06	295.9	82.511	64.421	17.515	3.512e-06	24.692	0.001558	0.00292	0.00080262	1159	3.0349e-05	3.256e-05	1263.5	232.67	2.7303e-05	3.3184e-05	297.07	83.862	66.226	18.048	2.8633e-05	25.515	145.805	-64.024	-6.219	-98.129	23.187	28.477	-97.866	-90.387	18.813	42.651	-90.519	-83.829	-84.231	-76.591	-11.606	-76.853	-8191	255	
28874.092	1	1	0	0	0.02889	0.12527	0.10765	0.19842	0.14765	0.040827	0.21468	0.20907	0.1087	0.15839	0.183	0.10509	0.13587	0.27626	0.20032	0.029793	-2.7646	-2.5042	-2.4208	-3.2188	-2.3667	-2.9354	-3.0938	-2.4104	-3.1333	-2.5771	-2.5792	-3.1562	-2.3354	-2.6833	-2.8917	-2.2833	129.001	-37.786	-97.459	208.708	194.135	-76.931	232.327	181.341	-90.540	170.210	181.632	242.591	207.782	171.350	28.238	28.661	0.00020797	0.00020901	0.00013574	1169.4	3.8662e-06	8.1428e-06	1274.7	233.39	1.8416e-06	3.7261e-06	295.91	82.465	64.895	17.524	8.6761e-07	24.761	0.0015379	0.0028251	0.00080624	1159.4	3.0186e-05	3.2815e-05	1264.2	233.17	2.7004e-05	3.2607e-05	297.43	83.908	66.479	18.037	2.9342e-05	25.525	155.664	-38.670	-53.011	-97.987	54.859	45.518	-97.923	-90.540	66.526	31.231	-90.703	-84.068	-84.169	-76.640	138.143	-76.756	-8191	255	
28874.186	1	1	0	0	0.21873	0.070442	0.21725	0.14211	0.3412	0.27965	0.16591	0.065769	0.038589	0.090282	0.15361	0.14444	0.17876	0.053337	0.17531	0.17127	-2.7188	-2.6542	-2.3167	-3.1854	-2.3854	-2.8229	-3.2146	-2.5333	-3.0917	-2.6708	-2.4958	-3.1937	-2.4271	-2.9604	-3.2062	-2.4	118.913	190.307	94.671	166.719	-71.455	242.527	125.229	-7.678	170.100	116.788	-24.404	139.857	244.029	199.778	162.781	217.748	0.00022163	0.00025601	9.3924e-05	1159.2	3.7985e-06	2.0446e-06	1275.7	232.96	3.0297e-06	3.3399e-06	295.82	82.437	64.331	17.747	4.3686e-06	24.637	0.0015552	0.002935	0.00082368	1155.2	3.0752e-05	3.2124e-05	1266.1	233.68	2.83e-05	3.3089e-05	296.9	83.839	66.076	18.106	2.8726e-05	25.449	142.809	-38.229	60.364	-97.985	53.363	-75.870	-97.954	-90.349	11.856	48.283	-90.702	-84.126	-83.824	-76.648	57.657	-76.791	-8191	255	
28874.283	1	1	0	0	0.1943	0.29536	0.2171	0.093259	0.080132	0.1233	0.14932	0.087592	0.061462	0.045141	0.21538	0.2583	0.02109	0.0035421	0.15696	0.10976	-2.9625	-2.6896	-2.3667	-3.0792	-2.5875	-2.5812	-3.1917	-2.3312	-3.0354	-2.9562	-2.4646	-3.1312	-2.4854	-2.675	-3.2167	-2.5021	198.825	205.538	201.598	13.582	238.659	40.746	179.500	171.937	61.892	162.917	222.197	79.016	125.576	-62.352	39.357	1.489	0.00017452	0.00039792	0.00015629	1160.6	3.0344e-06	2.2777e-06	1279.6	232.53	1.7115e-06	6.3433e-06	296.59	82.183	64.815	17.557	2.8384e-06	24.679	0.0015269	0.002891	0.0008186	1154.4	3.0645e-05	3.3273e-05	1267.3	233.37	2.7482e-05	3.3295e-05	298.01	83.89	66.413	18.017	2.8563e-05	25.504	138.027	-23.567	-58.381	-98.082	30.902	-6.984	-97.693	-90.694	236.432	47.905	-90.598	-84.195	-84.598	-76.468	-75.432	-77.360	-8191	255	
28874.379	1	1	0	0	0.22484	0.19669	0.1913	0.1395	0.031688	0.097116	0.34941	0.10315	0.14742	0.13939	0.10116	0.19081	0.02275	0.11838	0.24796	0.092928	-2.6625	-2.8312	-2.3667	-3.1146	-2.45	-2.7104	-3.3625	-2.5042	-2.9479	-2.95	-2.3458	-3.2354	-2.5646	-2.5458	-3.1479	-2.3958	183.702	-64.441	58.188	53.121	-78.472	153.294	155.033	168.830	90.025	151.536	149.026	-53.889	30.566	-75.310	224.026	227.644	0.00016035	0.00044542	5.7989e-05	1169	1.8988e-06	3.1014e-06	1279.4	233.2	5.1627e-06	2.352e-06	295.06	83.158	64.804	17.54	3.6439e-06	24.59	0.001551	0.0028579	0.00085287	1161.1	2.9253e-05	3.3495e-05	1267.6	233.75	2.7385e-05	3.3317e-05	297.11	84.227	66.457	18.051	2.8655e-05	25.47	136.176	-72.935	25.646	-98.253	9.154	17.940	-97.857	-90.669	41.764	74.478	-90.621	-84.337	-84.020	-76.019	56.384	-76.556	-8191	255	
28874.498	1	1	0	0	0.25402	0.089173	0.35291	0.19449	0.11118	0.2002	0.29433	0.17214	0.13233	0.052498	0.36425	0.27966	0.1532	0.10654	0.085158	0.099498	-2.3021	-3.0208	-2.2479	-3.1396	-2.65	-2.425	-3.3812	-2.6562	-2.5271	-3.1271	-2.3333	-3.2396	-2.8583	-2.6167	-3.1667	-2.4688	211.650	249.214	197.768	192.040	114.661	-100.225	211.756	128.171	24.383	111.093	217.125	-82.356	171.588	127.367	-11.575	196.671	0.00018924	0.00035526	0.00013254	1165.3	3.3099e-07	5.0093e-06	1272.8	232.47	2.1378e-06	4.8794e-06	294.24	82.641	64.487	17.616	8.8355e-07	24.714	0.0015532	0.0028032	0.00078064	1158.9	2.9418e-05	3.3453e-05	1265.9	232.46	2.7317e-05	3.2364e-05	297	83.984	66.287	18.051	2.8791e-05	25.448	114.637	-8.585	27.368	-97.995	121.081	87.410	-97.528	-90.620	118.463	55.150	-90.333	-84.331	-83.718	-76.230	225.599	-77.282	-8191	255	
28874.596	1	1	0	0	0.25798	0.22009	0.27207	0.13665	0.16855	0.1452	0.1585	0.19767	0.24698	0.21321	0.17437	0.1099	0.1895	0.070098	0.1972	0.10716	-2.15	-3.0708	-2.3854	-2.9771	-2.8875	-2.25	-3.3583	-2.5062	-2.5312	-3.1771	-2.4479	-2.9917	-2.8854	-2.3063	-3.2042	-2.5542	-40.270	19.784	78.097	-70.215	241.600	68.676	88.951	220.073	-62.633	130.212	-2.262	124.407	-79.180	200.314	232.321	203.498	0.00024318	0.00010681	8.4399e-05	1164.8	1.2212e-06	2.0754e-06	1274.4	233.14	2.703e-06	5.9902e-06	294.34	82.353	64.645	17.51	1.7708e-06	24.852	0.0015441	0.0027883	0.00078433	1159.4	2.9345e-05	3.2969e-05	1265.7	233.23	2.6991e-05	3.2276e-05	296.56	83.942	66.064	18.002	2.798e-05	25.444	150.111	1.612	-14.606	-97.941	105.270	36.179	-97.706	-90.796	80.003	60.449	-91.021	-83.979	-83.954	-76.741	27.884	-77.250	-8191	255	
28874.691	1	1	0	0	0.23413	0.065205	0.19127	0.21809	0.19259	0.22792	0.19868	0.25924	0.14773	0.19176	0.28582	0.15158	0.35346	0.026386	0.15647	0.11807	-2.2271	-3.0854	-2.3479	-2.8667	-2.9917	-2.4396	-3.275	-2.8396	-2.5396	-3.1604	-2.4021	-2.6875	-3.0146	-2.3667	-2.8812	-2.8229	-86.754	226.554	20.123	138.883	180.000	-88.669	177.822	239.341	-19.824	237.537	-98.036	-76.306	99.082	-37.649	39.389	30.384	0.00013743	0.00050068	0.00016031	1170.2	1.5954e-06	4.0948e-06	1275.5	232.7	5.3913e-07	2.8371e-06	293.72	82.746	64.723	17.621	2.8611e-06	24.871	0.0015039	0.0027179	0.00077821	1158.7	2.816e-05	3.1159e-05	1263.1	232.82	2.699e-05	3.1073e-05	295.38	83.853	66.263	18.035	2.7874e-05	25.426	127.922	-10.100	-18.126	-98.056	43.106	99.136	-97.827	-90.419	-3.645	42.684	-91.239	-83.951	-84.506	-76.467	15.392	-77.079	-8191	255	
28874.787	1	1	0	0	0.19898	0.18399	0.1641	0.14216	0.17655	0.4293	0.20774	0.14586	0.13341	0.039703	0.018102	0.29652	0.25582	0.061873	0.048968	0.14122	-1.8937	-3.2479	-2.4646	-2.8312	-3.0333	-2.3792	-3.1604	-2.8208	-2.4125	-3.225	-2.5271	-2.6833	-3.0771	-2.3521	-3.025	-2.75	125.153	122.772	132.364	243.019	197.716	201.431	-108.127	175.914	212.861	95.972	-36.075	-10.886	-108.252	106.924	-64.380	129.881	0.00016946	9.3945e-05	0.00016812	1167	4.1597e-06	3.8639e-06	1266.4	232.84	2.646e-06	2.1235e-06	294.81	82.243	64.635	17.593	3.4154e-06	24.588	0.0015082	0.0027349	0.00075612	1157.2	2.869e-05	3.2622e-05	1262	232.5	2.681e-05	3.1173e-05	296.52	83.884	66.204	18.007	2.7668e-05	25.345	145.327	241.098	-9.268	-97.973	3.333	6.846	-98.012	-90.854	10.641	88.394	-90.852	-84.274	-84.114	-76.383	70.064	-77.049	-8191	255	
28874.885	1	1	0	0	0.22264	0.23672	0.18798	0.14977	0.089351	0.13657	0.33238	0.17949	0.0043099	0.14247	0.21289	0.087495	0.20473	0.17392	0.14258	0.061909	-1.8	-3.0438	-2.7	-2.6437	-3.2562	-2.3167	-3.0062	-2.9625	-2.2917	-3.125	-2.5708	-2.6271	-3.0333	-2.3208	-2.7771	-3.0229	190.150	18.688	79.329	183.946	56.602	100.352	205.590	243.545	244.869	192.825	-27.122	250.587	204.535	156.090	62.809	94.756	0.00020533	0.00029154	7.6757e-06	1164.5	4.3401e-06	2.9536e-06	1269.9	232.46	2.5168e-06	2.9886e-06	296.13	82.479	64.29	17.559	3.9101e-06	24.819	0.0014972	0.0027128	0.00075346	1158.2	2.7672e-05	3.1638e-05	1263.3	232.65	2.6745e-05	3.133e-05	296.72	83.721	65.965	17.966	2.7545e-05	25.359	154.811	-2.774	-72.224	-97.974	71.796	28.316	-97.911	-90.455	-9.152	29.978	-90.900	-84.087	-83.773	-76.500	-48.690	-77.224	-8191	255	
28874.979	1	1	0	0	0.13451	0.070518	0.026679	0.10499	0.059705	0.31694	0.14642	0.11972	0.05432	0.12666	0.15612	0.20936	0.24586	0.20242	0.20766	0.035302	-1.9271	-2.8979	-2.7125	-2.4938	-2.9458	-2.4938	-2.9708	-3.2	-2.2021	-3.05	-3.0604	-2.5021	-3.2583	-2.7	-2.6229	-3.2021	-106.582	173.851	-105.800	187.041	94.286	-107.247	37.796	114.365	134.189	-80.131	-96.568	-50.381	-98.614	238.510	59.882	181.559	0.00017566	0.00034694	8.745e-05	1171.3	6.1962e-06	6.2535e-07	1272.6	232.3	3.4366e-06	1.6846e-06	295.35	82.579	64.313	17.501	3.2839e-06	24.552	0.0015336	0.0026376	0.0007678	1158.1	2.7717e-05	3.1157e-05	1262.9	232.33	2.6679e-05	3.1255e-05	296.11	83.779	66.034	17.982	2.7198e-05	25.324	153.843	-56.940	-27.818	-97.989	-11.621	173.929	-97.902	-90.514	-70.232	1.566	-90.869	-84.112	-84.053	-76.164	-20.590	-76.679	-8191	255	
28875.074	1	1	0	0	0.074794	0.30077	0.11892	0.092998	0.057174	0.14383	0.34873	0.059458	0.11891	0.14447	0.20357	0.1139	0.10274	0.095142	0.069243	0.23438	-1.8729	-2.9313	-2.7938	-2.3667	-3.1771	-2.5938	-2.8375	-3.1375	-2.4562	-3.0062	-2.9521	-2.5625	-3.1083	-2.4958	-2.5479	-3.0875	-92.922	14.865	119.258	92.182	206.437	216.862	251.061	-96.965	-31.801	204.513	151.404	188.902	-23.553	245.661	228.064	217.050	0.00013993	0.00047113	0.00013209	1162.9	1.2385e-06	4.9646e-06	1272	232.86	1.418e-06	2.9e-06	295.03	81.898	64.414	17.596	1.9496e-06	24.7	0.0014967	0.0026865	0.00076703	1155.9	2.7988e-05	3.0681e-05	1262.5	232.48	2.6025e-05	3.0548e-05	296.16	83.701	66.104	17.974	2.7701e-05	25.358	155.594	14.227	15.807	-97.775	6.653	11.748	-97.790	-90.585	-29.016	77.384	-90.751	-84.501	-84.318	-76.309	91.866	-76.790	-8191	255	
28875.195	1	1	0	0	0.060167	0.12428	0.40362	0.10481	0.16485	0.079444	0.17447	0.36881	0.1282	0.10005	0.094446	0.19785	0.17522	0.1096	0.34279	0.035199	-1.7313	-2.8708	-2.8042	-2.4479	-3.0521	-2.7979	-2.6063	-3.2667	-2.3771	-2.7583	-2.9896	-2.5021	-3.1479	-2.5979	-2.2875	-3.1708	81.498	239.480	-95.657	109.589	-83.368	75.665	-97.869	146.640	247.812	-27.450	220.429	112.372	183.724	148.385	-23.943	66.073	0.00018838	0.00055778	0.00012044	1164.4	3.0966e-06	2.1349e-06	1270.2	232.68	2.3004e-06	2.8611e-06	295.81	82.157	64.513	17.411	2.4494e-06	24.588	0.0015049	0.0027309	0.00078335	1153.2	2.983e-05	3.1575e-05	1261.1	232.49	2.6543e-05	3.277e-05	296.96	83.576	65.949	17.977	2.8154e-05	25.323	130.504	25.977	-68.224	-98.307	154.605	9.980	-97.906	-90.550	-50.542	52.704	-90.858	-83.913	-84.167	-76.271	21.043	-76.339	-8191	255	
28875.268	1	1	0	0	0.1111	0.057769	0.11585	0.2023	0.1607	0.18177	0.24713	0.071271	0.09353	0.29195	0.034249	0.22617	0.083355	0.14928	0.18501	0.21093	-2.0687	-2.75	-3	-2.5542	-3.125	-2.7125	-2.5938	-3.125	-2.6042	-2.7313	-3.1917	-2.3729	-3.0354	-2.8375	-2.3167	-3.1813	-38.357	173.640	17.865	-48.870	-29.064	237.613	164.293	-94.026	192.414	23.244	-23.512	214.853	120.425	-77.089	-25.957	-105.046	0.00018858	0.00047699	0.00014328	1163.1	3.5507e-06	2.6499e-06	1271.8	232.65	2.2177e-06	2.7292e-06	294.8	81.984	64.758	17.515	1.8198e-06	24.698	0.0015094	0.0027147	0.0007765	1152.9	2.8349e-05	3.1859e-05	1259	232.36	2.5966e-05	3.1575e-05	295.57	83.547	66.005	17.987	2.7576e-05	25.4	169.538	-3.796	1.682	-97.612	10.583	48.933	-97.702	-90.455	96.247	-32.869	-90.572	-84.339	-83.802	-76.336	61.900	-76.397	-8191	255	
28875.363	1	1	0	0	0.047783	0.18312	0.28948	0.26097	0.034339	0.23516	0.17547	0.079867	0.07763	0.14166	0.10529	0.23935	0.16525	0.087782	0.078598	0.043222	-2.1437	-2.6729	-3.1292	-2.3458	-2.85	-2.9583	-2.4021	-3.1979	-2.6604	-2.5438	-3.3021	-2.4458	-2.8958	-2.9437	-2.4104	-3.1333	81.980	-17.595	41.493	228.253	62.242	-101.978	88.859	206.061	231.673	-83.341	142.007	202.011	11.843	-90.670	-7.563	-85.887	0.00017028	0.00048074	0.00019016	1156.9	4.8791e-06	9.0032e-07	1270.1	231.52	1.9314e-06	4.6523e-06	292.73	81.879	64.457	17.448	2.5738e-06	24.389	0.0014907	0.0028055	0.00078552	1151.3	2.8765e-05	3.1662e-05	1259.5	231.58	2.6455e-05	3.2022e-05	295.14	83.271	65.759	17.926	2.777e-05	25.28	147.535	-0.508	17.144	-97.974	-10.248	-16.868	-97.552	-90.465	40.076	47.987	-90.538	-84.270	-84.338	-76.049	99.732	-76.726	-8191	255	
28875.459	1	1	0	0	0.061215	0.32357	0.20276	0.24552	0.11392	0.017943	0.36098	0.11396	0.087138	0.28505	0.29148	0.046335	0.14447	0.12193	0.16477	0.15547	-2.1604	-2.4729	-3.1188	-2.4729	-2.8625	-2.975	-2.4354	-3.0354	-2.7771	-2.2792	-3.2146	-2.3625	-2.8375	-3.1104	-2.2521	-2.9292	73.831	27.691	100.477	217.857	70.392	140.394	225.132	-41.506	116.939	180.897	206.199	-78.458	184.455	245.886	94.939	185.529	0.00012493	0.00048312	4.2944e-05	1155.1	2.2998e-06	4.8742e-06	1261	231.39	1.9225e-06	5.5162e-06	293.55	82.032	64.466	17.548	3.9147e-06	24.577	0.0015155	0.002874	0.00078001	1149.9	2.9965e-05	3.1444e-05	1255.3	231.85	2.6053e-05	3.1296e-05	294.99	83.464	65.959	17.942	2.7428e-05	25.258	156.309	-56.357	199.649	-97.697	47.366	54.773	-97.605	-90.698	2.433	49.191	-90.850	-84.203	-84.092	-76.625	39.037	-76.415	-8191	255	
28875.580	1	1	0	0	0.28415	0.089002	0.23424	0.13889	0.29763	0.22887	0.18654	0.12572	0.30328	0.029701	0.10977	0.16873	0.44897	0.067165	0.037338	0.16961	-2.5792	-2.3521	-3.0687	-2.4792	-2.7542	-2.9708	-2.3958	-3.0958	-2.8375	-2.3438	-3.1771	-2.5625	-2.55	-3.3146	-2.4167	-2.95	175.067	64.547	-53.242	-85.670	135.002	80.754	231.574	151.139	213.487	119.143	-98.773	223.558	-96.636	94.743	180.481	231.912	0.0001373	0.00030828	9.3131e-05	1158.8	1.123e-06	1.5448e-06	1261	232.24	1.4922e-06	4.5078e-06	292.43	81.48	64.532	17.46	1.6836e-06	24.532	0.0014545	0.0027099	0.00074936	1147.9	2.7881e-05	3.0301e-05	1250.7	231.33	2.4428e-05	3.0281e-05	293.85	82.946	65.679	17.851	2.6325e-05	25.237	152.340	-76.452	-31.237	-97.844	-43.167	52.700	-97.826	-90.405	25.424	70.733	-90.505	-84.111	-84.128	-76.187	-0.991	-77.018	-8191	255	
28875.676	1	1	0	0	0.12073	0.26843	0.058393	0.027253	0.085816	0.14327	0.25122	0.21716	0.10364	0.13602	0.069079	0.25802	0.10948	0.17902	0.17393	0.046112	-2.5021	-2.2833	-3.1208	-2.6021	-2.5208	-3.1708	-2.4542	-2.8312	-2.9875	-2.3979	-3.1542	-2.6333	-2.475	-3.1125	-2.2896	-2.7562	47.180	-50.307	14.382	35.008	165.630	145.120	-106.740	237.819	-5.758	193.849	-20.391	156.755	-6.226	-59.256	62.875	219.774	0.00016766	0.00011655	0.00012121	1137.6	4.2496e-06	2.9796e-06	1253.9	229.91	2.9498e-06	3.2756e-06	292.5	81.279	63.507	17.44	1.4431e-06	24.51	0.0013956	0.0025764	0.00070674	1139	2.7799e-05	2.9735e-05	1247	230.43	2.5108e-05	2.958e-05	293.69	82.642	65.103	17.809	2.5624e-05	25.168	156.676	74.037	-21.139	-98.048	20.134	-3.759	-97.795	-90.270	-30.282	65.864	-90.615	-83.871	-83.861	-76.570	60.970	-76.625	-8191	255	
28875.771	1	1	0	0	0.11378	0.29957	0.24499	0.20998	0.18322	0.018571	0.32744	0.087399	0.2061	0.16475	0.14121	0.075176	0.13691	0.29349	0.24839	0.15931	-2.5771	-2.55	-3.0396	-2.7	-2.3646	-3.2458	-2.4833	-2.7875	-3.1042	-2.4479	-3.0354	-2.7875	-2.3229	-3.2083	-2.4521	-2.8646	-70.124	160.972	132.923	236.805	-42.578	-21.433	179.663	-7.503	39.141	-95.755	208.556	18.949	-97.927	42.507	186.253	239.783	0.00020595	0.00024214	8.732e-05	1142.3	4.8856e-06	4.6172e-06	1253.3	229.55	8.2369e-07	1.4714e-06	290.67	80.946	64.205	17.445	3.2665e-06	24.361	0.0014094	0.0025893	0.00072916	1136.6	2.6963e-05	2.9408e-05	1243.3	229.91	2.4527e-05	2.8784e-05	293.03	82.623	65.354	17.756	2.5446e-05	25.109	132.669	-49.572	18.340	-97.899	30.019	47.624	-97.469	-89.998	9.122	39.990	-90.512	-84.073	-84.102	-76.303	131.410	-76.343	-8191	255	
28875.867	1	1	0	0	0.22181	0.11567	0.11575	0.2695	0.22166	0.079199	0.23321	0.16864	0.064025	0.29704	0.11044	0.29658	0.076178	0.085109	0.071207	0.26319	-2.675	-2.25	-2.9313	-2.9375	-2.2625	-3.2188	-2.7146	-2.8104	-3.2062	-2.2188	-3.025	-2.95	-2.4458	-3.0729	-2.7375	-2.6104	-107.756	232.174	184.822	224.324	-99.922	62.139	126.658	174.323	20.038	165.770	204.910	157.388	91.600	14.887	-36.197	160.648	0.00021215	0.00029437	0.00010247	1143.7	2.4217e-06	1.1023e-06	1248.5	228.45	3.1277e-06	5.5039e-06	292.1	81.215	64.091	17.097	3.3011e-06	24.385	0.0013768	0.0024258	0.00070776	1135.3	2.7215e-05	2.8696e-05	1239.9	228.9	2.3875e-05	2.9096e-05	292.42	82.282	65.058	17.613	2.4892e-05	24.998	130.922	-25.401	-0.087	-97.588	-0.476	53.098	-97.545	-90.187	-1.260	27.432	-90.342	-84.203	-83.652	-76.101	-44.504	-76.641	-8191	255	
28875.965	1	1	0	0	0.072408	0.17262	0.16472	0.16536	0.13924	0.051736	0.16692	0.17396	0.18416	0.23569	0.12327	0.29364	0.37043	0.17052	0.048732	0.10581	-2.7396	-2.4	-2.725	-2.9979	-2.2208	-3.0521	-2.8354	-2.5271	-3.2292	-2.2479	-2.8438	-3.0792	-2.1479	-3.0438	-2.6583	-2.3937	20.603	239.468	74.528	-86.423	103.426	153.797	141.936	37.017	-10.757	-88.521	190.842	246.396	154.258	238.337	71.561	34.317	0.00012518	0.00043414	0.00011758	1143.2	5.1516e-06	3.8229e-07	1240.3	226.65	2.4983e-06	2.4172e-06	289.12	81.14	63.038	17.301	3.0907e-06	24.346	0.001351	0.0023504	0.00068235	1129	2.5639e-05	2.798e-05	1232.9	227.83	2.3257e-05	2.9019e-05	290.71	82.17	64.494	17.672	2.5363e-05	24.938	180.087	-5.136	29.026	-98.220	41.053	179.229	-97.723	-90.446	20.914	30.466	-90.768	-84.288	-84.367	-76.843	44.685	-76.493	-8191	255	
28876.061	1	1	0	0	0.24962	0.066711	0.30735	0.22306	0.094322	0.24212	0.11894	0.13192	0.086134	0.072902	0.14532	0.085747	0.2026	0.17038	0.10982	0.18981	-2.7667	-2.5187	-2.6375	-3.2562	-2.3271	-2.8854	-2.9583	-2.4562	-3.0042	-2.4125	-2.6271	-3.1312	-2.1625	-3.0771	-2.875	-2.4792	138.551	196.068	-83.573	249.744	2.956	192.669	180.495	178.899	159.196	-60.544	175.457	111.860	245.333	62.928	247.753	225.730	0.00017953	0.00037645	9.5281e-05	1135.3	1.6387e-06	5.6417e-07	1233.6	226.57	4.1019e-06	2.5154e-06	289.23	80.244	62.928	17.129	1.7539e-06	24.01	0.0013361	0.0024612	0.00070111	1124.5	2.5382e-05	2.6883e-05	1228	226.64	2.2435e-05	2.7706e-05	289.78	81.748	64.273	17.547	2.3888e-05	24.772	142.328	9.232	-26.817	-98.018	150.791	10.597	-97.919	-90.398	-0.481	55.006	-90.143	-84.357	-84.126	-76.279	69.413	-76.956	-8191	255	
28876.180	1	1	0	0	0.17832	0.10624	0.11935	0.16738	0.12222	0.22372	0.22507	0.19609	0.053258	0.37463	0.34327	0.36882	0.081569	0.052229	0.1037	0.10734	-2.8063	-2.6646	-2.5438	-3.1229	-2.325	-2.9271	-3.2333	-2.4458	-3.0271	-2.5917	-2.6521	-3.3125	-2.325	-2.9188	-3.0604	-2.4167	186.168	-65.813	167.000	173.820	87.563	24.957	136.918	151.697	-77.675	133.438	171.521	-83.187	-27.847	-2.795	-58.533	212.291	0.00014235	7.6768e-05	0.00011978	1128.3	1.6386e-06	3.3326e-06	1236.6	226.71	3.1134e-06	2.8355e-06	288.99	80.57	63.281	17.111	2.2783e-06	24.053	0.0012799	0.0023662	0.00067498	1119.9	2.5012e-05	2.7275e-05	1226.5	226.46	2.2247e-05	2.8067e-05	289.3	81.83	64.348	17.597	2.4934e-05	24.832	134.908	-48.933	-39.084	-98.158	-11.673	23.360	-97.654	-90.752	36.154	2.380	-90.659	-84.131	-83.760	-76.341	-33.912	-76.903	-8191	255	
28876.275	1	1	0	0	0.10181	0.21865	0.065099	0.2732	0.21674	0.035449	0.29998	0.17622	0.12806	0.20873	0.16307	0.18921	0.16371	0.15659	0.33993	0.2516	-2.5917	-2.6271	-2.4771	-3.1833	-2.3542	-2.8812	-3.1271	-2.3375	-2.9938	-2.8792	-2.55	-3.2104	-2.5917	-2.8208	-3.1396	-2.4292	64.984	201.830	-48.106	147.112	82.843	-11.661	194.440	248.922	229.241	198.037	161.840	-58.481	-89.030	181.865	14.343	178.709	0.00017398	5.616e-05	3.9512e-05	1137.3	5.3409e-06	3.7737e-06	1238	225.91	2.9565e-06	2.8427e-06	287.96	80.462	63.248	17.098	2.5981e-06	23.941	0.0013844	0.002431	0.00068993	1122.1	2.6632e-05	2.8971e-05	1225.1	226.21	2.4088e-05	2.8576e-05	288.8	81.717	64.398	17.58	2.6338e-05	24.761	156.864	112.625	28.268	-97.961	43.395	72.715	-97.695	-90.075	11.265	74.364	-90.406	-84.271	-83.790	-76.252	103.908	-76.782	-8191	255	
28876.371	1	1	0	0	0.31463	0.10466	0.26396	0.099667	0.17068	0.11969	0.10951	0.18818	0.12294	0.16967	0.23722	0.19709	0.28583	0.33829	0.21839	0.31924	-2.8312	-2.6646	-2.3146	-3.25	-2.6937	-2.6771	-3.2583	-2.4521	-2.9771	-2.9375	-2.5521	-3.0958	-2.5875	-2.7104	-3.2	-2.4667	1.550	168.330	194.402	231.467	181.861	-64.724	-80.985	213.864	136.030	55.221	235.336	238.995	-38.042	206.970	143.988	173.036	0.00018367	0.00042842	0.00013315	1130.2	2.099e-06	3.2763e-06	1232.9	226.57	4.1523e-06	4.7345e-06	288.77	79.957	62.992	17.114	1.2364e-06	24.207	0.0013838	0.0025481	0.00070624	1120.8	2.6268e-05	2.9496e-05	1224.1	226.46	2.2994e-05	2.8957e-05	289.78	81.62	64.281	17.549	2.425e-05	24.811	155.984	-35.212	-11.206	-97.798	79.167	32.523	-98.001	-90.277	-1.879	67.693	-90.351	-84.173	-84.063	-76.030	-31.695	-76.572	-8191	255	
28876.492	1	1	0	0	0.34426	0.19612	0.21245	0.13175	0.11255	0.11208	0.17856	0.26138	0.19875	0.080917	0.11343	0.0057995	0.09789	0.17035	0.08278	0.20875	-2.4562	-2.9417	-2.4979	-3.1708	-2.6208	-2.5146	-3.2833	-2.5521	-2.9437	-3.1208	-2.4167	-3.2792	-2.7896	-2.4833	-3.2021	-2.2438	-91.780	96.440	106.311	247.554	-22.737	120.177	142.264	154.152	45.721	-32.272	223.264	55.732	161.977	141.345	190.876	148.429	0.00026085	0.00036183	7.1041e-05	1129.7	5.5973e-06	5.0848e-06	1232.5	226.74	1.6489e-06	3.8763e-06	288.11	80.813	62.782	17.005	3.015e-06	24.245	0.0013363	0.0025059	0.00067552	1120.2	2.5914e-05	2.7496e-05	1225.3	226.05	2.3056e-05	2.7423e-05	288.43	81.521	63.765	17.467	2.3548e-05	24.769	137.950	-70.694	-10.176	-97.909	24.301	15.708	-97.770	-90.277	117.409	68.292	-90.505	-83.895	-83.514	-76.128	20.051	-76.987	-8191	255	
28876.564	1	1	0	0	0.068801	0.21304	0.20181	0.090349	0.15938	0.12011	0.10663	0.16478	0.059242	0.054976	0.14609	0.019031	0.084862	0.036109	0.29221	0.12408	-2.2708	-3.0229	-2.4479	-3.3396	-2.875	-2.3896	-3.2479	-2.625	-2.7646	-3.0979	-2.6667	-3.0604	-2.8979	-2.3958	-3.1479	-2.4833	-88.946	155.734	-64.393	251.726	-102.967	189.171	178.707	192.770	6.727	-92.419	-92.729	195.297	13.225	94.936	218.394	227.115	0.00011341	0.00050206	0.00012016	1126.5	7.8603e-07	1.8623e-06	1227.2	224.28	4.2724e-06	4.9716e-06	286.91	80.254	62.642	16.884	3.3689e-06	24.043	0.0013071	0.0023577	0.00065353	1116.6	2.3765e-05	2.5887e-05	1218.5	224.6	2.1813e-05	2.5402e-05	287.33	81.172	63.709	17.356	2.2309e-05	24.683	120.699	-14.352	-54.441	-97.804	54.942	31.336	-97.872	-90.288	-26.275	20.752	-90.761	-83.505	-84.240	-76.295	52.319	-76.557	-8191	255	
28876.660	1	1	0	0	0.044047	0.15404	0.12248	0.084073	0.29204	0.14455	0.1485	0.22044	0.13448	0.18214	0.018023	0.25578	0.083707	0.11871	0.15051	0.078701	-2.1396	-3.0229	-2.3438	-2.9	-3.1146	-2.2208	-3.3667	-2.6312	-2.6271	-3.2313	-2.4583	-2.9292	-3.0896	-2.3833	-3.0875	-2.65	-39.670	-80.987	222.825	-22.026	-21.557	-3.559	-102.563	198.752	-22.677	-6.904	192.399	250.769	-99.757	11.418	230.614	189.786	0.00017469	0.0003288	0.00012525	1127.8	4.2151e-06	2.3035e-06	1222	224.55	2.0441e-06	2.3658e-06	286.09	79.754	62.176	16.954	9.8808e-07	24.053	0.0012465	0.0022435	0.00064169	1112.1	2.354e-05	2.6333e-05	1214.9	224.29	2.2048e-05	2.6122e-05	286.98	81.189	63.555	17.391	2.3761e-05	24.697	150.072	-63.612	-32.828	-97.892	58.525	17.760	-97.898	-90.288	87.068	11.926	-90.732	-83.825	-84.500	-76.414	114.146	-76.548	-8191	255	
28876.756	1	1	0	0	0.13034	0.21502	0.2764	0.22277	0.22163	0.14438	0.26793	0.20419	0.28235	0.086566	0.13073	0.30165	0.14433	0.4679	0.40355	0.1817	-1.85	-3.0479	-2.3521	-2.8375	-3.1729	-2.3292	-3.3208	-2.6813	-2.525	-3.1417	-2.2979	-2.6208	-3.0958	-2.3229	-3.0771	-2.9917	-61.691	130.937	4.085	228.792	172.571	175.426	181.760	222.327	39.176	170.492	166.355	-82.777	137.080	236.299	-47.954	41.013	0.00014991	0.00044366	8.6925e-05	1123.5	1.8037e-06	3.1138e-06	1231.6	224.88	4.6122e-06	4.5781e-06	286.6	79.304	62.412	17.098	3.6505e-06	24.153	0.0013095	0.0023318	0.00065587	1112.1	2.348e-05	2.6353e-05	1218.6	224.93	2.207e-05	2.598e-05	286.65	80.922	63.639	17.405	2.2971e-05	24.62	152.833	-7.581	-32.524	-97.962	-17.954	17.652	-97.484	-90.394	-61.460	27.493	-90.588	-83.927	-84.241	-76.334	-25.147	-76.469	-8191	255	
28876.877	1	1	0	0	0.10211	0.12718	0.10263	0.1868	0.050473	0.14471	0.45993	0.47698	0.24984	0.099404	0.051221	0.13245	0.25161	0.3028	0.096492	0.091823	-2.0187	-3.1063	-2.3625	-2.4938	-3.0896	-2.3208	-3.0854	-2.8375	-2.4125	-3.1562	-2.5958	-2.5271	-3.3375	-2.3563	-2.8792	-2.8354	239.163	-11.425	224.351	-86.336	62.961	27.182	174.743	152.115	114.825	-23.138	207.453	157.589	190.943	228.815	164.424	78.166	0.00018051	9.8563e-05	0.00014607	1116.5	3.8124e-06	1.3266e-06	1219.1	224.03	6.9873e-07	3.7561e-06	286.52	80.224	61.916	17.03	1.0073e-06	23.912	0.0012764	0.0022078	0.00064408	1108.6	2.3364e-05	2.5719e-05	1213.1	223.69	2.1917e-05	2.5482e-05	286.95	81.07	63.426	17.399	2.3255e-05	24.65	127.908	-37.835	-25.883	-97.852	60.011	37.496	-97.617	-90.349	-29.173	2.704	-90.712	-83.960	-84.013	-76.291	90.858	-76.356	-8191	255	
28876.973	1	1	0	0	0.19478	0.18978	0.15393	0.18369	0.22789	0.12051	0.21808	0.032066	0.14416	0.29994	0.2485	0.23971	0.092923	0.30135	0.20917	0.048125	-1.975	-3.0438	-2.6292	-2.4875	-2.9208	-2.3896	-2.9396	-3.0458	-2.4083	-3.1104	-2.8292	-2.6417	-3.2083	-2.5167	-2.8167	-3.1125	-44.932	146.787	237.149	184.651	167.803	-80.767	236.161	242.638	49.272	65.568	90.862	249.232	237.626	-11.396	197.648	236.046	0.00021369	0.00055856	0.00010161	1116.7	1.2677e-06	4.2127e-06	1226.6	224.86	1.9204e-06	3.3502e-06	285.53	79.684	62.297	16.988	1.5042e-06	24.066	0.0012456	0.0022496	0.00065961	1110.8	2.3762e-05	2.5403e-05	1213.9	224.25	2.1071e-05	2.6679e-05	285.92	80.999	63.62	17.404	2.2944e-05	24.634	146.726	-34.964	-5.135	-98.111	108.880	110.163	-97.719	-90.420	-19.210	45.550	-90.731	-83.966	-83.840	-76.101	40.089	-76.456	-8191	255	
28877.066	1	1	0	0	0.070785	0.2254	0.2593	0.25244	0.25118	0.21818	0.15586	0.25634	0.12495	0.17388	0.14446	0.15316	0.076359	0.10722	0.14037	0.2038	-2.0229	-3.0792	-2.7438	-2.5229	-3.0667	-2.5729	-2.875	-3.1708	-2.3021	-3.0896	-2.9458	-2.3542	-3.1437	-2.5708	-2.7833	-3.2792	-22.757	-0.369	124.343	194.925	-93.650	29.937	226.747	154.428	205.552	-63.570	-80.987	-107.589	151.662	139.694	-59.509	-92.668	0.00020778	0.00018939	0.00012342	1126.3	2.7958e-07	3.259e-06	1228.4	223.94	2.3398e-06	3.6357e-06	283.35	79.994	62.201	16.972	1.7353e-06	24.104	0.0012532	0.0022629	0.00064733	1112.6	2.3226e-05	2.5543e-05	1213.5	224.08	2.1801e-05	2.4826e-05	285.24	81.027	63.602	17.396	2.2932e-05	24.614	154.178	-16.833	-42.829	-97.692	4.262	77.802	-97.622	-90.221	-84.210	35.628	-90.607	-83.934	-83.787	-76.033	79.842	-77.053	-8191	255	
28877.141	1	1	0	0	0.29591	0.1612	0.13111	0.25388	0.078488	0.19558	0.27437	0.069363	0.1511	0.16644	0.3857	0.24237	0.054949	0.24325	0.044326	0.064886	-2.0771	-2.9125	-2.7271	-2.4708	-3.05	-2.5062	-2.8917	-3.1083	-2.3583	-2.8854	-3.1104	-2.2958	-3.0938	-2.5479	-2.4167	-3.2521	-99.740	-7.385	91.752	180.006	182.175	115.163	-71.277	144.713	71.850	-63.719	193.906	-81.106	176.459	114.232	148.683	149.368	0.00016209	0.00041179	8.0251e-05	1116	1.6974e-06	2.466e-06	1224.9	223.18	2.7487e-06	4.6582e-06	285.57	79.672	62.531	16.939	1.9157e-06	23.924	0.0012196	0.0021681	0.00060059	1106.7	2.2592e-05	2.4542e-05	1213.3	223.49	2.1188e-05	2.546e-05	285.64	80.716	63.611	17.335	2.2206e-05	24.574	144.249	-50.909	-28.769	-97.731	211.851	55.963	-97.475	-90.150	-32.853	12.491	-90.537	-84.112	-83.468	-76.176	57.973	-76.148	-8191	255	
28877.260	1	1	0	0	0.090055	0.082248	0.20114	0.036309	0.2062	0.11509	0.13071	0.13017	0.33111	0.26811	0.32776	0.19926	0.067417	0.20863	0.14776	0.11904	-2.1	-2.7542	-2.9188	-2.3521	-3.0667	-2.7292	-2.65	-3.1625	-2.5396	-2.9792	-3.0687	-2.2687	-3.2479	-2.9729	-2.3312	-3.2833	60.419	134.045	224.741	78.246	32.177	108.064	-78.157	160.864	123.418	-89.569	247.071	108.373	226.080	42.411	52.321	-93.632	0.00021573	0.00011386	4.2729e-05	1115.1	1.8707e-06	4.0384e-06	1224	224.36	2.8901e-06	8.2571e-07	286.02	79.867	61.998	17.029	2.35e-06	24.032	0.0012326	0.0021623	0.00061179	1107.1	2.2851e-05	2.5047e-05	1211.8	223.51	2.1402e-05	2.4815e-05	285.64	80.879	63.524	17.364	2.2108e-05	24.61	160.061	-66.048	-31.639	-97.720	36.247	20.671	-97.429	-90.162	20.135	0.343	-90.741	-84.389	-83.478	-76.167	-1.492	-76.494	-8191	255	
28877.355	1	1	0	0	0.14005	0.20195	0.30411	0.18097	0.20437	0.21143	0.11724	0.050302	0.099605	0.30478	0.057321	0.36516	0.10613	0.18137	0.14613	0.071051	-1.9917	-2.7667	-2.9292	-2.3208	-3.0208	-2.725	-2.4354	-3.2542	-2.4896	-2.65	-3.2917	-2.3479	-2.875	-2.7875	-2.3583	-3.1354	-56.941	-92.005	-12.365	172.039	41.848	-35.146	0.060	-32.887	187.726	167.520	196.012	-105.517	-72.782	218.560	184.452	-30.720	0.00013974	0.00062972	0.00011209	1115.2	2.9386e-06	3.6139e-06	1222.9	223.94	8.8722e-07	4.332e-06	284.38	79.434	62.445	17.016	2.3065e-06	23.822	0.0012243	0.0021829	0.00062197	1104.8	2.2705e-05	2.4944e-05	1210.8	223.74	2.1186e-05	2.5096e-05	284.33	80.849	63.43	17.356	2.208e-05	24.608	152.982	-19.710	-33.795	-97.777	70.057	5.478	-97.369	-90.354	65.110	4.780	-90.856	-84.057	-83.568	-75.914	16.351	-76.775	-8191	255	
28877.451	1	1	0	0	0.19325	0.28671	0.16434	0.17471	0.22994	0.13454	0.49133	0.12941	0.16079	0.023628	0.21481	0.090718	0.23405	0.030007	0.16468	0.10223	-2.2354	-2.5708	-3.2521	-2.2938	-2.9604	-2.8542	-2.4125	-3.2229	-2.5958	-2.5417	-3.1917	-2.4313	-2.8979	-2.9792	-2.3958	-3.1417	201.063	83.213	228.024	-75.732	-26.779	211.587	158.271	-56.214	181.363	154.314	-83.767	219.213	24.801	26.081	-67.639	-100.438	0.00022486	0.00015594	9.0506e-05	1116.4	3.8378e-06	3.8276e-06	1220.7	224.41	4.0233e-06	3.3321e-06	285.48	79.607	62.383	17.029	2.2252e-06	23.951	0.0012103	0.0021547	0.00062338	1104.7	2.3224e-05	2.4897e-05	1209.6	224.22	2.1108e-05	2.5162e-05	285.94	80.865	63.516	17.364	2.2246e-05	24.546	140.417	1.790	-85.671	-97.935	-18.072	47.176	-97.381	-89.862	-41.161	38.244	-90.327	-83.549	-84.037	-76.236	42.478	-76.271	-8191	255	
28877.572	1	1	0	0	0.14237	0.21747	0.18925	0.30607	0.11207	0.074487	0.21901	0.18154	0.17952	0.048754	0.065747	0.16495	0.097244	0.15258	0.15527	0.24156	-2.3812	-2.5854	-3.1083	-2.7125	-2.7354	-3.1958	-2.5354	-3.0333	-2.7062	-2.4125	-3.3208	-2.4542	-2.8167	-3.0979	-2.3937	-3.0792	-71.579	213.307	227.802	127.690	35.724	171.155	114.109	99.182	116.820	240.258	212.383	102.033	233.694	168.204	122.710	172.996	0.00023694	0.00027018	6.4912e-05	1110.8	3.0498e-06	1.0802e-06	1224.5	224.01	4.4047e-06	4.1876e-06	285.66	79.658	62.192	17.039	8.8146e-07	24.193	0.001194	0.0022444	0.00061245	1103.9	2.3406e-05	2.4843e-05	1210	224.09	2.0352e-05	2.5894e-05	285.55	80.688	63.673	17.399	2.2339e-05	24.626	139.921	6.409	47.269	-97.602	6.968	16.363	-97.494	-90.136	4.293	61.056	-90.476	-84.089	-83.599	-75.856	167.104	-76.172	-8191	255	
28877.670	1	1	0	0	0.078645	0.027713	0.22451	0.10439	0.021788	0.13092	0.1113	0.013718	0.16638	0.083909	0.14353	0.073279	0.26191	0.23384	0.19593	0.16014	-2.375	-2.3979	-3.0125	-2.4125	-2.6667	-3.2583	-2.5875	-3.0958	-2.9771	-2.4313	-3.1312	-2.6667	-2.4042	-3.1792	-2.4021	-2.8187	0.468	96.317	35.310	104.599	-7.294	143.474	157.552	-103.676	77.798	7.002	153.297	-14.210	91.292	-64.250	195.973	206.949	0.00014898	0.0003638	8.439e-05	1119.8	4.7026e-06	1.7842e-06	1223.9	223.37	5.0606e-07	3.8064e-06	283.46	79.887	62.127	16.878	2.9338e-06	24.001	0.0012094	0.0021906	0.00061286	1106.5	2.3748e-05	2.5039e-05	1209.5	224.15	2.0572e-05	2.5149e-05	284.95	80.694	63.588	17.302	2.2572e-05	24.607	143.198	-17.675	14.179	-97.850	54.642	41.200	-97.378	-90.202	108.940	-9.527	-90.143	-83.749	-83.572	-75.634	33.229	-76.046	-8191	255	
28877.766	1	1	0	0	0.13292	0.17751	0.15688	0.18181	0.29484	0.22348	0.26512	0.21614	0.042027	0.16059	0.21062	0.19577	0.20878	0.11611	0.15779	0.029974	-2.5187	-2.2854	-3.0604	-2.5667	-2.5979	-3.1083	-2.475	-2.8646	-3.0708	-2.4604	-3.1667	-2.75	-2.3271	-3.0312	-2.5042	-2.7125	182.407	-30.588	195.768	116.010	49.073	46.196	181.442	148.143	161.400	-65.519	197.088	190.473	74.194	211.053	167.522	164.977	0.0001867	0.00030956	5.7678e-05	1121	4.7583e-06	1.3226e-06	1216.8	224.14	3.0001e-06	4.651e-06	283.53	79.717	62.503	16.978	3.4002e-06	24.028	0.0011858	0.0022586	0.00060806	1103.2	2.2946e-05	2.4408e-05	1206.9	224.27	2.0699e-05	2.5666e-05	285.13	80.749	63.629	17.335	2.198e-05	24.581	139.865	13.568	-30.908	-98.051	-55.759	15.555	-97.241	-89.793	3.264	48.094	-90.094	-83.831	-83.770	-76.118	-12.667	-76.112	-8191	255	
28877.861	1	1	0	0	0.050068	0.15007	0.14347	0.17929	0.12695	0.16107	0.16109	0.31585	0.22678	0.19387	0.10762	0.31338	0.040795	0.27779	0.050316	0.070966	-2.6292	-2.3292	-2.9	-2.8563	-2.45	-3.4437	-2.525	-2.6396	-2.9313	-2.2104	-3.025	-2.9333	-2.3854	-3.2125	-2.4604	-2.8063	24.437	12.940	25.276	184.116	22.547	44.280	186.820	242.392	205.643	-101.635	197.237	152.175	66.510	-97.491	219.592	-58.592	0.00011832	0.00033177	9.7858e-05	1107.8	1.3285e-06	4.3237e-06	1221.1	223.62	2.01e-06	4.7183e-06	284.55	78.957	62.036	16.846	3.4679e-06	24.019	0.0011889	0.0021542	0.00062065	1102.8	2.3038e-05	2.4674e-05	1207.4	223.98	1.9911e-05	2.5215e-05	284.87	80.52	63.485	17.253	2.2176e-05	24.569	161.686	-26.572	15.659	-97.716	26.730	75.506	-97.471	-89.904	-34.062	43.427	-90.485	-83.793	-83.640	-76.255	53.463	-75.934	-8191	255	
28877.957	1	1	0	0	0.14851	0.15693	0.13257	0.15721	0.31855	0.17439	0.11925	0.2426	0.09594	0.26756	0.18054	0.21217	0.25005	0.26792	0.17117	0.1209	-2.7562	-2.2667	-2.8646	-2.975	-2.4354	-3.1792	-2.7917	-2.6646	-2.9271	-2.3958	-2.9167	-2.9	-2.55	-3.0229	-2.4958	-2.5708	173.035	99.875	-13.005	211.510	-16.358	9.021	204.520	177.216	-71.985	135.956	195.708	108.868	-7.249	-67.713	69.126	33.944	0.00016049	0.00013106	0.00013932	1115.7	4.2167e-06	2.786e-06	1220.4	224.4	3.7111e-07	1.7843e-06	284.34	80.015	62.104	16.781	1.6836e-06	23.915	0.0011733	0.0022953	0.00061894	1105.8	2.2778e-05	2.4509e-05	1209.6	223.64	2.0823e-05	2.5221e-05	285.41	80.709	63.47	17.265	2.153e-05	24.558	132.197	-0.265	8.559	-97.608	-42.490	24.310	-97.203	-89.669	192.886	-16.124	-89.855	-84.036	-82.999	-75.883	14.536	-76.174	-8191	255	
28878.053	1	1	0	0	0.022002	0.069689	0.31133	0.12467	0.25434	0.15573	0.07678	0.30116	0.14529	0.13214	0.09378	0.087215	0.18465	0.086762	0.30371	0.2246	-2.8688	-2.2625	-2.7708	-3.0833	-2.2833	-3.1333	-3.0375	-2.6167	-3.1458	-2.4833	-2.7938	-3.3375	-2.3354	-2.9521	-2.8063	-2.3708	-45.221	130.777	224.316	-55.304	161.305	225.480	175.423	205.138	-16.784	191.132	213.153	2.822	150.950	189.529	114.774	112.905	0.00020474	0.00024411	0.00010127	1113.4	4.8391e-06	2.403e-06	1212.2	224.63	3.6414e-06	2.1479e-06	285.62	79.633	62.069	17.03	5.6608e-06	23.943	0.0011897	0.002161	0.00062001	1104.1	2.3337e-05	2.4894e-05	1204.9	224.15	2.0661e-05	2.5488e-05	284.85	80.677	63.344	17.371	2.2293e-05	24.562	145.216	-69.187	-16.922	-97.560	24.562	34.913	-97.434	-89.829	18.410	52.776	-90.361	-83.813	-84.148	-75.570	5.769	-75.900	-8191	255	
28878.172	1	1	0	0	0.088527	0.058007	0.16322	0.31622	0.039457	0.18788	0.34955	0.044848	0.13612	0.13385	0.15503	0.10482	0.050551	0.16194	0.12549	0.12069	-2.8917	-2.4542	-2.7604	-3.0521	-2.3292	-2.8771	-3.0146	-2.4042	-3.1	-2.5771	-2.575	-3.1	-2.3583	-2.9688	-2.9604	-2.3667	-94.385	42.963	-23.590	227.128	218.212	169.169	208.031	-50.641	251.037	117.058	-58.151	-38.899	-14.978	249.417	53.300	118.228	0.0001805	0.00024129	3.1285e-05	1113.9	3.6358e-06	2.823e-06	1213.5	223.29	2.1496e-06	2.8448e-06	284.39	80.066	62.63	16.963	2.736e-06	24.015	0.0011849	0.0021782	0.00060758	1104.1	2.2851e-05	2.5165e-05	1206.6	223.08	2.0435e-05	2.5797e-05	285.49	81.139	63.558	17.359	2.2093e-05	24.534	150.807	17.439	41.467	-97.361	9.200	42.182	-97.282	-90.247	76.212	118.952	-89.784	-83.790	-83.761	-75.891	46.632	-75.988	-8191	255	
28878.268	1	1	0	0	0.01338	0.24118	0.30033	0.19395	0.17899	0.18204	0.14059	0.18109	0.28002	0.089958	0.29096	0.27559	0.096636	0.28007	0.29714	0.086569	-2.6854	-2.5229	-2.3021	-3.1063	-2.3937	-2.7354	-3.1333	-2.3875	-2.9167	-2.7083	-2.7146	-3.0771	-2.5563	-2.8521	-2.9604	-2.4437	171.961	-25.616	183.061	179.776	-24.914	129.993	92.010	-64.333	154.391	182.553	241.065	-52.275	193.594	204.459	77.040	146.434	0.0002056	0.00020202	7.503e-05	1117.3	1.9829e-06	3.0223e-06	1218.9	225.31	3.9221e-06	3.4883e-06	283.66	79.022	62.134	16.991	2.1672e-06	24.036	0.0012431	0.0022597	0.00062973	1105.2	2.3813e-05	2.605e-05	1207.3	224.3	2.1217e-05	2.6409e-05	284.85	80.472	63.452	17.388	2.2572e-05	24.618	134.734	-8.558	-18.865	-97.125	-18.428	44.714	-97.011	-89.840	-8.899	96.001	-90.177	-83.477	-83.311	-75.327	-47.754	-75.911	-8191	255	
28878.365	1	1	0	0	0.18869	0.26092	0.24198	0.01861	0.10891	0.2272	0.33956	0.3611	0.29926	0.092765	0.11735	0.050701	0.19068	0.16116	0.018344	0.11257	-2.5604	-2.6	-2.3958	-3.1	-2.3729	-2.7625	-3.3438	-2.4521	-2.9	-2.7646	-2.325	-3.2479	-2.4313	-2.4562	-3.0604	-2.3458	53.991	37.189	12.687	22.566	14.380	110.320	175.030	187.376	-47.695	216.366	246.046	249.972	-43.119	236.353	-106.783	91.735	0.00012074	0.00025501	0.00016024	1118.2	4.8304e-06	4.7419e-06	1221	223.29	4.6512e-06	3.3596e-06	283.38	79.576	62.461	17.008	2.2877e-06	24.091	0.001287	0.0022802	0.00066534	1104.9	2.4232e-05	2.6198e-05	1209.1	223.79	2.1858e-05	2.5878e-05	285.19	80.731	63.541	17.35	2.3034e-05	24.606	134.984	-102.792	-2.364	-97.204	55.930	52.001	-97.333	-89.799	-11.551	11.380	-89.729	-83.783	-83.771	-75.961	49.373	-76.053	-8191	255	
28878.436	1	1	0	0	0.087861	0.25856	0.068329	0.092984	0.12272	0.14462	0.22755	0.052328	0.086506	0.13461	0.10268	0.13827	0.093095	0.19238	0.25129	0.10081	-2.5187	-2.8417	-2.1896	-3.1917	-2.4917	-2.4083	-3.2979	-2.3604	-2.7771	-2.9125	-2.5396	-3.2396	-2.6271	-2.3854	-3.1417	-2.2313	173.529	-81.145	121.251	79.978	65.109	192.373	158.916	148.423	115.012	-39.072	198.673	157.379	-20.690	-105.815	79.081	-76.619	0.0001829	0.0001358	9.556e-05	1114.9	3.793e-06	1.2819e-06	1220.7	222.96	3.0108e-06	3.6042e-06	284.11	79.595	62.202	17.104	2.1871e-06	23.89	0.0012597	0.0022283	0.00064793	1104.5	2.4338e-05	2.6313e-05	1208.6	223.8	2.2443e-05	2.6611e-05	285.08	80.908	63.443	17.443	2.3067e-05	24.611	125.816	89.745	-41.205	-97.751	24.075	16.169	-97.363	-89.894	-16.809	33.429	-90.053	-83.727	-83.993	-75.589	27.554	-76.179	-8191	255	
28878.531	1	1	0	0	0.15297	0.29887	0.1055	0.37643	0.16504	0.19394	0.19236	0.33687	0.066432	0.25866	0.073009	0.2163	0.062952	0.080615	0.06334	0.23745	-2.4146	-2.9688	-2.275	-3.2146	-2.4813	-2.3271	-3.3833	-2.5604	-2.5333	-3.0646	-2.3708	-3.0771	-2.7188	-2.5104	-3.0854	-2.4083	-57.927	136.621	241.937	-6.443	44.695	-29.498	194.620	232.270	-92.767	20.756	156.785	-22.555	159.586	57.968	88.138	212.330	0.00022954	0.00010487	8.2314e-05	1116.1	3.4363e-06	1.7429e-06	1218.3	224.92	3.6305e-06	2.0077e-06	285.23	79.806	62.459	17.05	2.6882e-06	23.732	0.0012762	0.0022862	0.00066646	1104.9	2.4384e-05	2.5704e-05	1208.4	224.29	2.2223e-05	2.6684e-05	285.08	80.898	63.662	17.402	2.3141e-05	24.504	147.810	45.306	20.145	-97.538	39.460	72.658	-97.007	-90.012	2.783	60.585	-90.353	-83.239	-83.380	-75.106	60.387	-76.533	-8191	255	
28878.652	1	1	0	0	0.29418	0.21451	0.14852	0.051961	0.15818	0.29625	0.14444	0.22745	0.13763	0.11857	0.13148	0.16972	0.13535	0.18833	0.30627	0.15038	-2.225	-3.1646	-2.3563	-3.0021	-2.9062	-2.45	-3.5292	-2.4375	-2.5812	-3.0792	-2.5583	-2.8312	-2.8375	-2.4167	-3.0854	-2.7562	138.608	14.375	-0.088	109.503	35.429	8.085	180.475	169.927	17.643	-76.088	223.173	74.542	-103.910	177.036	205.701	187.634	0.00019279	0.00031214	8.8538e-05	1113.1	2.9943e-06	6.8166e-06	1221.4	225.01	3.5067e-06	3.2731e-06	286.58	79.82	62.782	16.997	1.819e-06	23.94	0.0012694	0.0022416	0.00063711	1106.4	2.3529e-05	2.6302e-05	1210	223.97	2.2397e-05	2.6474e-05	285.71	80.912	63.833	17.347	2.3576e-05	24.635	131.890	1.096	44.186	-97.279	35.056	52.542	-97.043	-89.574	-30.619	60.673	-90.187	-83.726	-83.757	-75.871	-62.392	-76.228	-8191	255	
28878.748	1	1	0	0	0.16465	0.40198	0.11149	0.072112	0.11512	0.18128	0.17331	0.21572	0.14254	0.30385	0.063375	0.074358	0.16418	0.077157	0.2001	0.060103	-1.9146	-3.0062	-2.3833	-3.05	-2.8917	-2.3312	-3.2333	-2.5958	-2.4917	-3.1375	-2.4813	-2.8083	-2.9521	-2.3125	-3.1083	-2.7104	236.591	-25.186	104.875	132.602	-68.803	64.161	104.584	55.508	103.951	229.664	-60.066	235.171	-90.796	176.749	76.534	108.260	0.00020713	0.00016608	8.2642e-05	1114.9	1.7289e-06	2.4521e-07	1220.7	224.67	3.8517e-06	2.1956e-06	284.73	79.639	61.93	17.109	4.0206e-07	24.072	0.0012992	0.0022459	0.00065628	1107.4	2.4601e-05	2.6355e-05	1209.7	224.19	2.1997e-05	2.5994e-05	285.59	81.01	63.498	17.415	2.3662e-05	24.642	150.455	-48.724	28.196	-97.190	44.548	-81.048	-97.145	-89.913	-49.778	90.934	-90.077	-83.249	-83.540	-75.590	61.068	-75.696	-8191	255	
28878.846	1	1	0	0	0.15603	0.11104	0.21405	0.1254	0.17759	0.16183	0.25115	0.27043	0.20085	0.1814	0.14164	0.19361	0.059899	0.050455	0.15296	0.15006	-2.1688	-3.0104	-2.4979	-2.7625	-3.1333	-2.275	-3.175	-2.8521	-2.4083	-3.1813	-2.5729	-2.8875	-3.1875	-2.4104	-2.9854	-2.8042	-79.757	221.869	252.022	199.977	-22.316	-103.246	245.197	228.678	-45.220	190.717	179.347	-105.020	158.252	86.622	-90.081	208.445	0.0002192	0.00014536	6.7054e-05	1122.2	1.8916e-06	3.2615e-06	1219	224.28	1.7206e-06	2.7343e-06	286.05	79.677	62.633	16.924	2.687e-06	24.015	0.0012609	0.0023224	0.00065496	1108.1	2.3621e-05	2.5698e-05	1210.4	224.16	2.1751e-05	2.6152e-05	286.37	80.866	63.544	17.326	2.2956e-05	24.621	125.141	-17.571	-15.076	-97.619	24.405	10.824	-97.245	-89.855	-35.310	107.664	-89.749	-83.267	-84.033	-75.864	62.732	-75.973	-8191	255	
28878.967	1	1	0	0	0.032985	0.14358	0.07512	0.17755	0.20582	0.10032	0.050089	0.11323	0.069409	0.17164	0.12335	0.31911	0.16248	0.17845	0.29471	0.18616	-1.8479	-3.0812	-2.5021	-2.5729	-2.9375	-2.2333	-2.9938	-3.0396	-2.2667	-3.1729	-2.8229	-2.6292	-3.1167	-2.3229	-2.7042	-3.0354	58.564	170.970	168.547	153.470	196.168	-45.334	211.477	-37.436	-27.543	43.939	-86.234	-56.378	48.989	26.384	113.209	5.542	5.4235e-05	0.00030018	0.00010703	1119	2.7061e-06	4.4043e-06	1217.7	223.92	1.6581e-06	4.6521e-06	284.39	79.667	62.666	17.006	3.7112e-06	24.101	0.00129	0.0023463	0.00065633	1107.1	2.3713e-05	2.6473e-05	1210.2	223.78	2.2303e-05	2.6516e-05	285.32	80.892	63.718	17.39	2.3704e-05	24.683	140.021	62.513	-67.707	-97.427	20.974	62.888	-96.944	-89.871	13.804	13.935	-89.651	-83.546	-83.179	-75.709	68.756	-76.214	-8191	255	
28879.037	1	1	0	0	0.066876	0.20406	0.19261	0.28809	0.082316	0.22639	0.40334	0.096342	0.17098	0.12271	0.26015	0.22132	0.13439	0.13371	0.095501	0.051709	-1.8729	-3.0479	-2.5521	-2.4938	-2.9479	-2.4833	-2.8833	-3.0146	-2.3104	-2.9896	-2.7542	-2.3104	-3.2229	-2.4354	-2.6667	-3.025	173.482	45.810	140.631	-83.921	199.370	22.849	143.332	202.186	244.065	76.545	166.455	133.188	109.129	-104.410	86.862	98.989	0.00010152	0.00032131	2.7699e-05	1112.9	4.8473e-06	3.6448e-06	1221	225.1	1.5499e-06	1.3503e-06	284.46	79.896	61.985	16.973	9.6083e-07	23.942	0.0012834	0.0023222	0.00064396	1105.6	2.3651e-05	2.6151e-05	1210.8	224.21	2.2192e-05	2.6228e-05	285.34	81.072	63.469	17.375	2.3775e-05	24.655	148.699	-45.428	-96.715	-97.453	43.979	30.328	-97.057	-89.982	1.608	5.283	-89.785	-83.577	-83.494	-75.725	30.722	-75.809	-8191	255	
28879.135	1	1	0	0	0.20158	0.18279	0.25314	0.21177	0.027664	0.20602	0.23457	0.15727	0.044896	0.12921	0.1159	0.38886	0.117	0.1297	0.079157	0.13426	-1.825	-2.8354	-2.7229	-2.4083	-2.9833	-2.35	-2.5042	-3.1917	-2.1479	-2.8708	-2.875	-2.3958	-3.0208	-2.4813	-2.5125	-3.1312	92.822	206.212	181.766	225.576	-72.412	-34.539	123.102	203.323	111.518	-105.961	-29.639	-41.616	195.053	-16.059	-21.179	235.868	0.00011474	0.00023482	0.00011504	1119.4	1.292e-06	2.6927e-06	1219	224.56	3.1957e-06	8.3003e-07	284.8	79.677	62.697	16.913	4.1395e-06	24.013	0.0012516	0.0022848	0.0006512	1107.8	2.3974e-05	2.6518e-05	1208.8	224.33	2.2379e-05	2.6137e-05	285.76	80.88	63.583	17.348	2.2516e-05	24.565	148.679	48.838	-47.942	-97.319	-31.644	68.553	-97.178	-90.063	23.150	78.226	-90.094	-83.915	-83.706	-75.707	8.634	-76.599	-8191	255	
28879.254	1	1	0	0	0.1066	0.19017	0.10694	0.096479	0.19752	0.057527	0.18117	0.21699	0.33488	0.078003	0.19641	0.18684	0.18168	0.076895	0.061785	0.11635	-1.7958	-2.9208	-2.8917	-2.1396	-3.0792	-2.5854	-2.7896	-3.1896	-2.2583	-2.7542	-3.0271	-2.3292	-3.1188	-2.6542	-2.2333	-3.2583	33.111	144.564	-102.022	110.104	233.825	143.997	159.748	-99.554	-62.283	44.165	223.003	222.439	166.282	251.175	11.431	192.974	0.00018493	0.00048033	5.8936e-05	1118.2	3.1458e-06	2.726e-06	1222.5	224.76	3.5419e-06	2.6695e-06	285.32	79.769	62.189	16.998	3.3255e-06	24.009	0.0012895	0.0023232	0.00065064	1106.8	2.3569e-05	2.6416e-05	1209.7	224.44	2.2249e-05	2.6859e-05	286.29	80.793	63.534	17.381	2.2751e-05	24.592	139.146	-39.723	-22.778	-97.756	109.155	65.137	-96.968	-89.840	-85.969	-52.600	-90.119	-83.873	-83.760	-75.694	71.787	-76.175	-8191	255	
28879.350	1	1	0	0	0.19785	0.20061	0.18328	0.30537	0.1911	0.14078	0.14824	0.18268	0.068613	0.21038	0.12427	0.17738	0.2	0.18977	0.16945	0.21121	-2.0854	-2.6021	-2.8312	-2.3063	-2.9938	-2.7812	-2.4583	-3.1542	-2.5021	-2.6104	-3.1813	-2.4229	-3.0229	-2.5938	-2.45	-3.1312	74.535	145.540	86.257	-58.691	-2.641	-90.709	215.731	-74.121	-86.967	6.059	-58.810	203.238	-85.421	-85.869	40.343	126.391	0.00023768	0.00014641	0.00013211	1115.8	5.8519e-07	2.3396e-06	1214.8	224.97	3.6306e-06	5.1656e-06	282.73	79.77	61.834	17.048	8.5155e-07	24.022	0.001289	0.0022885	0.00064651	1102.1	2.4082e-05	2.6595e-05	1207.8	224.12	2.2119e-05	2.6055e-05	285.35	80.947	63.449	17.372	2.3421e-05	24.61	142.190	-47.206	-18.208	-97.413	-10.892	37.998	-97.211	-89.956	-16.606	87.730	-90.271	-83.521	-83.821	-75.747	12.333	-76.005	-8191	255	
28879.445	1	1	0	0	0.28597	0.10227	0.1775	0.14235	0.051356	0.16056	0.15776	0.12477	0.12416	0.11178	0.092284	0.10281	0.33851	0.32013	0.14143	0.1628	-2.2292	-2.6542	-2.8583	-2.3896	-2.9396	-2.8583	-2.6167	-3.3396	-2.4104	-2.5792	-3.1146	-2.5292	-2.7521	-3.0542	-2.2583	-3.0938	103.351	-25.499	-42.587	144.463	188.910	28.334	223.971	212.824	113.412	-75.646	201.096	210.930	-87.563	-48.463	188.051	179.306	0.00013665	0.00045538	0.00011501	1113.9	5.2104e-06	3.015e-06	1219.1	225.24	3.226e-06	4.5384e-06	285	79.586	62.132	17.165	3.3939e-06	23.839	0.0012818	0.0023046	0.00065036	1104.6	2.4481e-05	2.6234e-05	1209.5	224.35	2.2207e-05	2.6866e-05	285.85	80.762	63.564	17.462	2.3911e-05	24.51	146.485	28.913	-5.556	-97.431	10.966	43.885	-97.140	-89.636	-47.980	79.588	-90.236	-83.832	-83.757	-75.704	48.469	-76.021	-8191	255	
28879.541	1	1	0	0	0.22136	0.12725	0.16416	0.036627	0.13108	0.10171	0.32874	0.032305	0.11623	0.29821	0.17148	0.30798	0.19809	0.16451	0.18802	0.18458	-2.0646	-2.3646	-3.0375	-2.4854	-2.7854	-3.0417	-2.6708	-3.2125	-2.6354	-2.5104	-3.1292	-2.4979	-2.6625	-3.0479	-2.375	-3.05	205.501	101.162	67.736	-102.923	28.262	4.895	222.035	-105.448	-44.055	139.274	226.448	162.389	-101.045	249.862	218.372	192.544	0.00023216	5.1352e-05	7.8412e-05	1120.9	3.6342e-06	4.2833e-06	1226.4	225.23	2.4839e-06	4.1404e-06	284.47	79.801	63.341	16.925	7.674e-07	23.993	0.0012819	0.0023196	0.00066177	1108.9	2.4452e-05	2.6132e-05	1211.7	224.31	2.2917e-05	2.6913e-05	285.11	80.978	63.834	17.364	2.3717e-05	24.643	163.981	-16.910	12.200	-97.264	24.580	40.709	-97.260	-89.830	241.675	32.125	-90.307	-83.673	-83.288	-75.741	9.093	-76.680	-8191	255	
28879.662	1	1	0	0	0.22173	0.027878	0.20708	0.029719	0.13561	0.045513	0.31658	0.19944	0.060645	0.23802	0.23709	0.11498	0.21644	0.17089	0.1504	0.19126	-2.2979	-2.425	-3.0208	-2.4042	-2.5771	-3.1875	-2.4521	-3.0979	-2.8125	-2.45	-3.1937	-2.4458	-2.6083	-3.0312	-2.3083	-3.0062	73.831	158.736	24.689	201.137	170.460	-66.963	248.147	200.937	-73.109	-92.129	-104.771	111.819	235.338	-100.932	203.818	189.607	0.00018268	0.00037271	0.00014416	1118.3	1.2578e-06	2.0401e-06	1222.1	225.1	1.3859e-06	5.8343e-06	285.08	79.694	61.767	17.076	1.4825e-06	23.91	0.0013042	0.002304	0.00065885	1103.9	2.4736e-05	2.5512e-05	1209.9	224.44	2.1987e-05	2.653e-05	285.51	80.995	63.665	17.389	2.3802e-05	24.659	122.694	-66.213	-29.409	-98.031	84.128	93.923	-97.908	-90.397	29.164	42.939	-90.415	-84.489	-84.096	-76.096	86.089	-76.357	-8191	255	
28879.732	1	1	0	0	0.023942	0.2021	0.26555	0.014353	0.21026	0.18187	0.2473	0.19272	0.1819	0.20726	0.24653	0.10244	0.2414	0.039551	0.17455	0.12663	-2.4729	-2.0896	-3.1771	-2.7208	-2.5271	-3.1312	-2.3917	-2.8104	-2.9083	-2.2167	-3.0979	-2.5604	-2.2812	-3.0729	-2.3583	-2.8187	14.400	173.620	110.880	-37.289	204.067	-26.839	186.843	-89.982	66.757	-80.634	126.998	150.068	210.017	-32.117	-74.736	222.531	0.0001712	0.00038781	0.00014872	1124.8	1.2519e-06	3.2101e-06	1223.4	224.61	1.0802e-06	2.8561e-06	284.84	79.852	61.902	16.995	2.022e-06	24.24	0.001279	0.0023487	0.00067079	1109.4	2.5225e-05	2.706e-05	1212.4	224.37	2.2883e-05	2.8758e-05	286.17	81.023	63.617	17.421	2.4703e-05	24.711	156.699	-47.403	-7.877	-97.822	45.212	43.441	-97.754	-90.448	39.090	23.057	-90.587	-84.670	-84.145	-76.467	16.186	-76.338	-8191	255	
28879.854	1	1	0	0	0.13623	0.069215	0.22531	0.20052	0.034185	0.21889	0.2847	0.14273	0.074566	0.19111	0.13702	0.26621	0.24376	0.11132	0.091025	0.16305	-2.3792	-2.3083	-3.0667	-2.8042	-2.3771	-3.1146	-2.6625	-2.7604	-3.0438	-2.5521	-3.0417	-2.7083	-2.2625	-3.2	-2.5396	-2.4271	-87.241	2.122	188.999	187.045	-5.375	181.557	153.679	165.680	-83.563	-57.499	203.733	167.628	-19.129	93.312	50.960	-54.164	0.00014403	0.00052338	5.7003e-05	1113.6	4.1582e-07	1.6873e-06	1226.1	224.78	2.9973e-06	4.4168e-06	285.15	79.957	62.371	16.88	3.7053e-06	24.059	0.0013068	0.0023759	0.00066227	1104.5	2.4267e-05	2.6763e-05	1210.8	224.58	2.2153e-05	2.6505e-05	285.97	80.769	63.706	17.37	2.2856e-05	24.607	137.998	-10.624	-69.314	-98.167	83.945	44.075	-97.845	-90.258	2.240	50.702	-90.632	-84.167	-83.963	-76.226	28.698	-76.299	-8191	255	
28879.949	1	1	0	0	0.063428	0.2411	0.25875	0.26298	0.055315	0.22827	0.24361	0.16213	0.1154	0.19252	0.021029	0.07392	0.26391	0.32982	0.17221	0.18022	-2.7458	-2.1729	-2.8167	-2.9708	-2.2875	-3.2646	-2.5938	-2.4833	-3.0958	-2.3375	-2.7771	-3.1167	-2.3875	-3.0708	-2.3646	-2.3187	62.621	204.644	-20.751	-56.791	247.108	-41.943	185.099	106.789	197.197	56.995	-86.886	234.694	-73.704	202.957	202.359	216.463	0.00010991	0.00057486	0.00010926	1122.3	1.3165e-06	6.7639e-06	1221.7	224.18	4.7084e-07	3.3577e-06	285.14	79.81	61.736	17.077	2.8909e-06	24.089	0.0012496	0.0023577	0.00064654	1105.3	2.4042e-05	2.703e-05	1211.9	224.04	2.1324e-05	2.6478e-05	286.01	80.932	63.166	17.378	2.3172e-05	24.59	154.175	-23.827	13.253	-98.045	-27.680	62.623	-97.609	-90.275	164.706	-4.529	-90.112	-83.738	-84.197	-75.759	15.390	-76.313	-8191	255	
28880.047	1	1	0	0	0.22798	0.078739	0.076406	0.062955	0.15688	0.14546	0.19946	0.26159	0.055745	0.15079	0.10374	0.042744	0.20795	0.15024	0.074751	0.26009	-2.8292	-2.3063	-2.8354	-3.0396	-2.3479	-2.9667	-2.7958	-2.5396	-2.9938	-2.35	-2.7042	-2.9313	-2.3604	-3.0521	-2.5958	-2.3667	144.834	57.946	125.757	28.796	20.084	-72.321	201.126	-79.706	44.335	-83.483	-90.392	59.236	79.923	101.849	70.193	64.704	0.00013551	0.00017447	0.00011388	1116.7	3.4508e-06	5.0111e-06	1217.1	223.95	2.6782e-06	3.4145e-06	285.53	79.722	61.871	17.015	1.653e-06	23.843	0.001218	0.0022765	0.00062907	1106	2.3501e-05	2.5366e-05	1206.8	224.06	2.0801e-05	2.5847e-05	285.36	80.812	63.421	17.359	2.2437e-05	24.506	137.579	-1.575	8.854	-97.815	12.137	43.986	-97.540	-90.215	56.487	20.474	-90.237	-83.736	-83.617	-75.844	-66.617	-76.602	-8191	255	
28880.141	1	1	0	0	0.056136	0.096089	0.098036	0.13126	0.19233	0.14273	0.26082	0.33552	0.10255	0.043508	0.073253	0.049838	0.14814	0.15403	0.22691	0.30332	-2.7292	-2.375	-2.8187	-3.2417	-2.3354	-2.8042	-2.8604	-2.3771	-3.1729	-2.4521	-2.725	-3.2938	-2.2062	-2.9313	-2.9167	-2.3146	214.910	109.553	-77.829	-86.622	-10.364	-72.390	107.571	231.494	225.226	147.042	-71.372	-73.186	-52.571	247.655	-41.035	-101.006	0.00016064	0.00050526	7.758e-05	1112	1.3132e-06	5.5283e-06	1220.1	224.51	4.8104e-06	4.202e-06	284.51	79.217	62.2	16.937	4.2587e-06	23.828	0.0012115	0.0022755	0.00063581	1106.3	2.3974e-05	2.5896e-05	1209.5	223.96	2.1657e-05	2.6087e-05	285.38	80.578	63.512	17.35	2.2761e-05	24.525	144.507	8.721	-17.578	-97.904	60.963	15.936	-97.917	-90.367	-23.781	43.191	-90.064	-84.268	-83.446	-76.374	60.083	-76.557	-8191	255	
28880.262	1	1	0	0	0.031768	0.24675	0.13472	0.2445	0.20498	0.094306	0.15213	0.062443	0.10916	0.14171	0.045982	0.20065	0.13734	0.21934	0.023018	0.12567	-3.025	-2.5833	-2.6354	-3.2188	-2.275	-2.8438	-3.125	-2.4042	-3.0458	-2.3875	-2.7188	-3.2812	-2.2854	-2.6375	-2.9917	-2.2687	-80.735	38.172	210.305	-106.313	82.046	105.589	-108.071	-57.143	48.042	-44.666	-68.723	219.214	89.203	-4.808	197.845	132.977	0.00012876	0.00027495	4.7788e-05	1111.8	2.409e-06	2.1799e-06	1216.7	224.07	2.5615e-06	4.4313e-06	283.63	79.379	62.1	16.877	1.4499e-06	24.12	0.0012368	0.0022402	0.00063333	1102.7	2.4321e-05	2.5492e-05	1208.2	223.85	2.1953e-05	2.6886e-05	284.85	80.754	63.509	17.335	2.2751e-05	24.573	129.233	-20.759	64.466	-97.838	40.436	13.042	-97.739	-90.253	-15.215	16.436	-90.860	-83.935	-84.350	-75.732	22.643	-76.491	-8191	255	
28880.332	1	1	0	0	0.13967	0.1965	0.19425	0.15946	0.31679	0.036553	0.27843	0.23115	0.15462	0.12843	0.18715	0.074077	0.22376	0.22508	0.33079	0.2642	-2.7313	-2.5687	-2.3542	-3.1083	-2.2458	-2.7625	-3.3979	-2.3875	-3.1208	-2.7667	-2.5729	-3.225	-2.4771	-2.6979	-3.0479	-2.3333	-53.838	207.097	25.729	181.420	245.310	187.534	207.459	210.095	-17.082	-92.928	234.126	173.653	117.169	-82.358	31.311	236.916	0.00014397	0.00040555	8.5109e-05	1120.8	4.9336e-06	1.1308e-06	1220.9	223.36	3.3971e-06	2.7534e-06	283.94	79.469	62.8	16.902	1.1092e-06	24.318	0.0012394	0.0022508	0.00065924	1105.9	2.4616e-05	2.613e-05	1208.8	223.48	2.2103e-05	2.6633e-05	284.7	80.702	63.748	17.38	2.4205e-05	24.796	136.367	-64.366	-32.951	-97.689	49.376	70.259	-97.624	-90.408	-38.198	46.317	-90.266	-83.941	-83.686	-75.969	-25.010	-76.615	-8191	255	
28880.430	1	1	0	0	0.27927	0.23636	0.15938	0.25842	0.20549	0.11598	0.37557	0.27548	0.21432	0.09335	0.21933	0.24224	0.11311	0.14491	0.25504	0.11873	-2.5	-2.7562	-2.325	-3.0417	-2.4354	-2.6354	-3.25	-2.4104	-2.8958	-2.8583	-2.2938	-3.1354	-2.5875	-2.5333	-3.1542	-2.4146	-2.518	-13.608	-66.442	-46.699	73.022	-25.563	170.340	232.134	244.387	88.178	200.038	227.030	176.152	52.131	19.441	-75.653	0.00014728	0.00017583	4.4751e-05	1119.5	2.838e-06	1.6388e-06	1226.6	224.31	3.1041e-06	2.2219e-06	287.03	79.307	62.364	17.138	4.875e-06	23.894	0.0013513	0.0024763	0.00071102	1108.1	2.6231e-05	2.7874e-05	1211.2	224.22	2.3662e-05	2.816e-05	286.51	80.939	63.486	17.449	2.5033e-05	24.607	129.610	-32.861	-9.646	-97.584	19.900	85.973	-97.751	-90.477	-16.680	110.896	-90.346	-84.119	-84.123	-75.865	52.493	-76.625	-8191	255	
28880.525	1	1	0	0	0.20255	0.066764	0.091772	0.085513	0.27213	0.14408	0.34022	0.046609	0.18045	0.07881	0.42641	0.11475	0.12545	0.25692	0.22562	0.24941	-2.4708	-3.0292	-2.3542	-3.1417	-2.5958	-2.5667	-3.3167	-2.6437	-2.8854	-2.9333	-2.3021	-3.0875	-2.5938	-2.4792	-3.0875	-2.4229	-38.409	-72.996	117.388	-51.645	235.776	-42.931	240.179	213.807	27.097	5.544	-104.107	-18.861	153.332	196.765	-38.456	-8.302	0.00024508	0.00054466	2.4228e-05	1110.6	1.4101e-06	3.6577e-06	1218.9	223.77	6.3057e-06	2.4637e-06	283.27	79.888	62.167	17.08	4.1132e-06	23.692	0.0013487	0.0024793	0.00067033	1103.7	2.5552e-05	2.7369e-05	1208.7	224.11	2.3154e-05	2.749e-05	285.51	80.842	63.58	17.413	2.4561e-05	24.529	145.509	-51.100	19.447	-97.400	66.715	-23.019	-97.441	-90.208	18.699	24.349	-90.425	-83.846	-84.163	-75.982	37.266	-76.979	-8191	255	
28880.621	1	1	0	0	0.040398	0.038298	0.083619	0.18358	0.30975	0.25053	0.17524	0.32586	0.16371	0.072499	0.16647	0.1719	0.010306	0.40858	0.18347	0.26618	-2.1833	-2.8125	-2.2375	-3.1	-2.6792	-2.4417	-3.2646	-2.5458	-2.6833	-3.1333	-2.4604	-3.025	-2.8625	-2.3271	-3.1417	-2.6	245.385	-22.806	147.567	-40.201	2.395	-37.346	167.436	198.276	-105.453	-81.456	189.848	-95.701	-74.058	234.806	-4.461	92.327	0.00018141	0.00051835	0.00011375	1117.5	3.2525e-06	2.4859e-06	1222.1	224.07	3.9654e-06	3.2157e-06	285.26	79.935	61.735	17.031	1.6988e-06	23.9	0.0013344	0.0024158	0.00069005	1107	2.5517e-05	2.7867e-05	1211.6	223.87	2.2809e-05	2.8282e-05	285.65	80.926	63.414	17.429	2.3852e-05	24.569	129.990	-49.218	-29.253	-97.759	-26.335	121.526	-97.630	-90.384	-17.979	91.102	-90.416	-83.750	-83.997	-75.553	30.970	-76.606	-8191	255	
28880.742	1	1	0	0	0.29548	0.15206	0.025884	0.047877	0.073489	0.16382	0.27298	0.072166	0.19188	0.25353	0.093715	0.16999	0.17156	0.13633	0.25747	0.16012	-2.1479	-3.0083	-2.2792	-2.9104	-2.8542	-2.2313	-3.3021	-2.7208	-2.6979	-3.1125	-2.4958	-3.0667	-2.925	-2.4458	-3.1396	-2.6708	18.742	181.529	205.242	157.742	64.192	-10.915	198.275	220.798	52.554	217.402	-4.707	138.575	-52.377	-79.852	77.368	-81.344	0.00014929	0.00055625	9.6806e-05	1122.3	2.8671e-06	5.2179e-06	1222.7	224.59	2.987e-06	3.4167e-06	285.34	80.122	62.003	17.114	1.3412e-06	23.79	0.0012668	0.0023277	0.00066796	1109.2	2.4392e-05	2.5824e-05	1211.7	223.99	2.2029e-05	2.6193e-05	285.23	81.016	63.493	17.466	2.4153e-05	24.608	133.112	-57.283	-61.634	-97.208	85.011	7.989	-97.326	-90.098	81.755	82.859	-90.076	-83.734	-83.967	-76.124	71.160	-76.213	-8191	255	
28880.838	1	1	0	0	0.066967	0.20984	0.24701	0.089325	0.2255	0.14592	0.15652	0.25957	0.3613	0.10275	0.12481	0.099173	0.17309	0.099162	0.30066	0.097805	-2.0771	-2.9729	-2.3438	-2.7708	-3.1167	-2.2917	-2.9813	-2.8042	-2.4229	-3.1625	-2.4542	-2.9	-3.0229	-2.3042	-3.0271	-2.8125	249.542	-106.347	-104.180	224.672	-20.149	-14.514	177.371	206.747	-104.438	200.432	-80.739	-89.203	79.796	113.116	109.832	146.276	0.00017762	0.0003164	8.5078e-05	1120.3	3.6573e-06	4.927e-06	1222.7	224.17	2.0209e-06	5.1208e-06	285.13	79.494	62.339	16.968	2.7445e-06	24.014	0.0013107	0.0022799	0.00066207	1104.7	2.4642e-05	2.7825e-05	1209.8	224.17	2.2209e-05	2.6632e-05	285.57	80.85	63.601	17.372	2.3503e-05	24.529	133.936	-7.038	-35.561	-97.601	46.005	85.930	-97.323	-90.114	-40.805	87.391	-90.220	-83.723	-83.784	-75.627	-1.752	-76.323	-8191	255	
28880.934	1	1	0	0	0.24093	0.18786	0.030851	0.25605	0.21973	0.30339	0.11372	0.1132	0.1659	0.088396	0.22024	0.18826	0.21271	0.39038	0.016869	0.089993	-1.9188	-3.1896	-2.275	-2.625	-3.1458	-2.375	-3.2167	-2.8646	-2.4062	-3.0333	-2.4833	-2.65	-3.0083	-2.2104	-2.8729	-3.0187	166.249	72.135	147.863	15.263	27.371	14.655	203.087	-102.007	86.609	228.052	99.918	229.417	-66.397	78.114	226.872	124.832	0.00014062	8.5611e-05	0.00014008	1115.1	2.7258e-06	1.6282e-06	1222.9	225.24	3.6884e-06	2.0254e-06	283.79	79.095	62.079	16.958	3.0314e-06	23.979	0.001291	0.0023571	0.00066225	1105.1	2.4684e-05	2.6527e-05	1211.3	224.23	2.2773e-05	2.6437e-05	285.11	80.833	63.506	17.361	2.3469e-05	24.609	126.137	-8.737	-18.270	-97.662	37.655	50.493	-97.199	-89.823	8.934	32.021	-90.290	-83.385	-83.090	-75.348	-4.188	-76.414	-8191	255	
28881.031	1	1	0	0	0.12552	0.17754	0.059867	0.10988	0.1066	0.035681	0.080501	0.11268	0.14761	0.15946	0.1063	0.22751	0.27963	0.086693	0.032982	0.074577	-2.0667	-3.0125	-2.5812	-2.6063	-3.1875	-2.3771	-2.7729	-2.9333	-2.2167	-3.0292	-2.7333	-2.3479	-3.1792	-2.2833	-2.775	-3.0521	72.698	-19.828	234.903	228.327	169.870	172.101	-42.305	149.026	-36.907	224.057	203.676	-95.239	-88.548	156.439	-57.754	195.736	0.00022988	0.00031409	8.78e-05	1116.4	4.8146e-06	5.4567e-06	1221.8	224.53	1.6771e-06	4.8051e-06	284.09	79.651	62.854	16.998	4.1646e-06	23.912	0.0013001	0.0023142	0.0006428	1105.8	2.4246e-05	2.7346e-05	1209.9	224.01	2.2734e-05	2.5876e-05	284.94	80.876	63.837	17.364	2.3211e-05	24.586	152.612	-0.359	-25.824	-97.427	-27.091	61.376	-97.178	-90.287	-37.858	22.727	-90.520	-83.847	-84.363	-76.336	32.308	-76.894	-8191	255	
28881.125	1	1	0	0	0.11084	0.28292	0.18054	0.24689	0.1691	0.15882	0.060321	0.10179	0.0097246	0.099273	0.10436	0.068092	0.13344	0.35044	0.054408	0.065256	-1.7021	-2.8896	-2.6583	-2.2833	-2.8875	-2.3958	-2.7625	-3.1542	-2.1979	-2.9708	-2.7292	-2.3479	-3.1604	-2.3438	-2.3521	-3.1333	212.170	-97.504	251.533	-107.063	143.367	-52.065	243.445	1.626	41.600	-100.271	220.487	-105.467	-42.322	149.959	-11.104	216.275	0.00019662	0.00029762	9.267e-05	1114	1.7623e-06	4.7896e-06	1219.6	223.79	4.1036e-06	2.4127e-06	283.94	79.328	62.32	16.792	3.8154e-06	24.023	0.0013165	0.0023392	0.00065521	1105.5	2.4298e-05	2.6667e-05	1208.3	223.73	2.2534e-05	2.6227e-05	285.11	80.689	63.499	17.335	2.3326e-05	24.595	127.336	-43.966	-33.903	-97.709	140.678	58.810	-97.739	-90.433	-7.970	69.835	-90.568	-84.491	-84.234	-76.313	-20.231	-76.733	-8191	255	
28881.223	1	1	0	0	0.40917	0.12849	0.27435	0.13271	0.10446	0.0060598	0.36244	0.18206	0.19079	0.20092	0.086727	0.13427	0.13314	0.18364	0.07041	0.25573	-1.825	-2.7792	-2.8354	-2.3187	-3.2125	-2.6521	-2.6583	-3.15	-2.2229	-2.6854	-2.9667	-2.5146	-3.1833	-2.4542	-2.3917	-3.2896	27.296	21.173	211.442	-92.115	-61.644	-22.244	206.389	127.171	-62.030	82.735	92.068	144.736	172.824	111.875	109.892	224.542	0.00019366	0.00033115	2.3788e-05	1113.7	2.0285e-06	3.3591e-06	1212.2	223.97	2.827e-06	6.3874e-06	285.37	79.63	61.992	17.014	3.6354e-06	23.955	0.0013192	0.0022765	0.00066152	1103.3	2.4236e-05	2.658e-05	1208.3	223.91	2.2261e-05	2.6538e-05	285.92	80.902	63.559	17.381	2.3355e-05	24.546	145.679	-14.785	-56.560	-97.744	-13.099	34.644	-97.791	-90.589	59.491	31.212	-90.893	-84.574	-84.245	-76.181	42.359	-76.507	-8191	255	
28881.342	1	1	0	0	0.19501	0.16402	0.085486	0.19932	0.11289	0.044844	0.34484	0.099553	0.1734	0.076428	0.12395	0.16313	0.22239	0.1489	0.28568	0.26817	-1.8375	-2.7021	-2.9437	-2.2833	-3.0771	-2.6604	-2.5708	-3.2292	-2.3292	-2.7667	-3.1021	-2.4125	-3.175	-2.5958	-2.3667	-3	240.648	96.946	-22.600	181.977	108.572	27.930	243.434	226.817	211.488	-4.789	-101.373	-27.113	212.296	201.572	128.706	125.342	0.00020428	0.00042474	0.00010462	1107.8	1.7356e-06	3.5465e-06	1219	224.47	1.0485e-06	6.7493e-06	285.53	79.007	61.896	16.972	2.785e-06	24.012	0.0012619	0.0022957	0.00065002	1102.1	2.3975e-05	2.5556e-05	1209.3	224	2.202e-05	2.5538e-05	284.82	80.554	63.489	17.343	2.2997e-05	24.52	144.918	-18.401	-17.021	-97.686	51.337	103.654	-97.696	-90.486	67.225	105.743	-90.706	-83.908	-83.811	-76.444	55.264	-77.324	-8191	255	
28881.438	1	1	0	0	0.29904	0.2238	0.21963	0.062889	0.11635	0.28681	0.082501	0.22525	0.015394	0.25322	0.1559	0.16591	0.056086	0.11101	0.18565	0.077966	-2.0667	-2.7188	-2.8812	-2.3708	-3.0667	-2.8	-2.5667	-3.1667	-2.4229	-2.6042	-3.0167	-2.3167	-2.9958	-2.8521	-2.2333	-3.0875	124.274	185.654	-56.255	-102.766	22.750	143.611	96.809	-52.546	108.923	192.438	-60.854	-72.072	201.945	-39.199	142.023	-12.170	0.00012406	0.00075189	5.0232e-05	1113.9	2.4471e-06	3.9668e-06	1221.1	223.49	2.0783e-06	1.5438e-06	284.11	79.627	61.285	16.863	5.3268e-06	23.864	0.0012371	0.0023602	0.00062377	1102	2.3833e-05	2.5511e-05	1208.3	223.75	2.1519e-05	2.575e-05	285.57	80.81	63.052	17.353	2.3029e-05	24.554	165.586	-32.175	-70.505	-98.158	-40.175	37.577	-97.716	-90.500	1.891	79.231	-90.451	-84.342	-83.888	-76.410	3.296	-76.556	-8191	255	
28881.533	1	1	0	0	0.21174	0.044391	0.17094	0.121	0.099364	0.026581	0.25	0.33894	0.18462	0.12532	0.21278	0.18084	0.13527	0.32926	0.36737	0.15384	-2.1979	-2.6937	-3.0104	-2.5396	-3.0479	-2.8146	-2.6958	-3.1104	-2.7938	-2.4938	-3.1063	-2.4271	-2.8021	-3.0771	-2.4688	-3.2062	-41.149	24.403	103.801	164.178	58.278	101.176	192.963	208.821	184.470	23.624	13.474	133.164	184.291	183.170	178.027	-63.319	0.00012967	0.00014557	6.7436e-05	1117.3	8.2717e-07	1.9672e-06	1218.7	223.35	3.0492e-06	2.1946e-06	284.23	79.609	62.095	16.937	5.259e-06	24.102	0.0012649	0.0023047	0.00064417	1104.3	2.4041e-05	2.6336e-05	1207.9	223.55	2.1492e-05	2.656e-05	285.42	80.797	63.392	17.326	2.2587e-05	24.591	125.643	-46.999	-23.241	-97.865	120.624	68.228	-97.785	-90.509	-7.657	154.717	-90.454	-84.138	-83.876	-76.241	66.364	-76.936	-8191	255	
28881.631	1	1	0	0	0.073379	0.25654	0.22703	0.11526	0.19322	0.043612	0.09358	0.11783	0.17077	0.20301	0.15388	0.15002	0.06123	0.11936	0.17273	0.23971	-2.4708	-2.3896	-3.2208	-2.5563	-2.775	-3.0646	-2.5229	-3.1063	-2.7021	-2.4125	-3.3042	-2.5021	-2.6208	-3.0708	-2.3417	-2.9562	53.917	51.770	118.549	-99.734	11.584	121.201	79.355	234.339	24.995	249.660	-24.128	-26.127	63.344	13.027	15.153	210.030	0.00027677	0.00040524	9.2711e-05	1111.3	2.0409e-06	5.6507e-06	1217	224.66	1.1032e-06	4.1074e-06	285.01	79.355	61.936	17.005	2.3944e-06	23.853	0.0012252	0.0022144	0.0006385	1102.3	2.3011e-05	2.5384e-05	1208	223.57	2.1229e-05	2.524e-05	285.47	80.678	63.359	17.343	2.3274e-05	24.536	134.316	20.764	9.611	-97.784	10.327	46.216	-97.508	-90.209	231.913	36.492	-90.602	-84.150	-83.613	-76.294	79.431	-76.397	-8191	255	
#DATA ENDS
