BOXY.EXE: ISS Imagent and Oximeter Data Acquisition Program Version 0.80
Ascii Record File

#ACQ INFORMATION
2  Detector Channels 
16  External MUX Channels 
1  Auxiliary Channels 
5000  Waveform (CCF) Frequency (Hz)
1  Waveforms Skipped 
30  Waveforms Averaged 
1  Cycles Averaged 
16  Acquisitions per Waveform 
10.0806  Updata Rate (Hz) 

#FILE INFORMATION
TRUE -- External MUX Channel results are PARSED.
FALSE -- AC DC and Phase are NOT grouped.
TRUE -- Companion Program Settings File CREATED.
FALSE -- AC data not excluded
FALSE -- DC data not excluded
FALSE -- Phase data not excluded
FALSE -- Auxillary Chn. data not excluded
Tab delimiters

#CALIBRATION STATE
TRUE -- Waveform Calibration Values APPLIED.


#AUX CALIBRATION VALUES
Val Type	aux-1	

Term	1.0000e+00	
Factor	0.0000e+00	


#WF CALIBRATION VALUES
A = Detector Channel
Val Type	A-AC1	A-AC2	A-AC3	A-AC4	A-AC5	A-AC6	A-AC7	A-AC8	A-AC9	A-AC10	A-AC11	A-AC12	A-AC13	A-AC14	A-AC15	A-AC16	A-DC1	A-DC2	A-DC3	A-DC4	A-DC5	A-DC6	A-DC7	A-DC8	A-DC9	A-DC10	A-DC11	A-DC12	A-DC13	A-DC14	A-DC15	A-DC16	A-Ph1	A-Ph2	A-Ph3	A-Ph4	A-Ph5	A-Ph6	A-Ph7	A-Ph8	A-Ph9	A-Ph10	A-Ph11	A-Ph12	A-Ph13	A-Ph14	A-Ph15	A-Ph16	

Term	0.00000e+00	0.00000e+00	0.00000e+00	0.00000e+00	0.00000e+00	0.00000e+00	0.00000e+00	0.00000e+00	0.00000e+00	0.00000e+00	0.00000e+00	0.00000e+00	0.00000e+00	0.00000e+00	0.00000e+00	0.00000e+00	0.00000e+00	0.00000e+00	0.00000e+00	0.00000e+00	0.00000e+00	0.00000e+00	0.00000e+00	0.00000e+00	0.00000e+00	0.00000e+00	0.00000e+00	0.00000e+00	0.00000e+00	0.00000e+00	0.00000e+00	0.00000e+00	0.00000e+00	0.00000e+00	0.00000e+00	0.00000e+00	0.00000e+00	0.00000e+00	0.00000e+00	0.00000e+00	0.00000e+00	0.00000e+00	0.00000e+00	0.00000e+00	0.00000e+00	0.00000e+00	0.00000e+00	0.00000e+00	
Factor	1.00000e+00	1.00000e+00	1.00000e+00	1.00000e+00	1.00000e+00	1.00000e+00	1.00000e+00	1.00000e+00	1.00000e+00	1.00000e+00	1.00000e+00	1.00000e+00	1.00000e+00	1.00000e+00	1.00000e+00	1.00000e+00	1.00000e+00	1.00000e+00	1.00000e+00	1.00000e+00	1.00000e+00	1.00000e+00	1.00000e+00	1.00000e+00	1.00000e+00	1.00000e+00	1.00000e+00	1.00000e+00	1.00000e+00	1.00000e+00	1.00000e+00	1.00000e+00	X	X	X	X	X	X	X	X	X	X	X	X	X	X	X	X	

B = Detector Channel
Val Type	B-AC1	B-AC2	B-AC3	B-AC4	B-AC5	B-AC6	B-AC7	B-AC8	B-AC9	B-AC10	B-AC11	B-AC12	B-AC13	B-AC14	B-AC15	B-AC16	B-DC1	B-DC2	B-DC3	B-DC4	B-DC5	B-DC6	B-DC7	B-DC8	B-DC9	B-DC10	B-DC11	B-DC12	B-DC13	B-DC14	B-DC15	B-DC16	B-Ph1	B-Ph2	B-Ph3	B-Ph4	B-Ph5	B-Ph6	B-Ph7	B-Ph8	B-Ph9	B-Ph10	B-Ph11	B-Ph12	B-Ph13	B-Ph14	B-Ph15	B-Ph16	

Term	0.00000e+00	0.00000e+00	0.00000e+00	0.00000e+00	0.00000e+00	0.00000e+00	0.00000e+00	0.00000e+00	0.00000e+00	0.00000e+00	0.00000e+00	0.00000e+00	0.00000e+00	0.00000e+00	0.00000e+00	0.00000e+00	0.00000e+00	0.00000e+00	0.00000e+00	0.00000e+00	0.00000e+00	0.00000e+00	0.00000e+00	0.00000e+00	0.00000e+00	0.00000e+00	0.00000e+00	0.00000e+00	0.00000e+00	0.00000e+00	0.00000e+00	0.00000e+00	-2.55034e+02	-1.42192e+02	-1.58171e+02	-1.83275e+02	-9.83914e+01	-9.52191e+01	-1.58166e+02	-1.62015e+02	-1.11076e+02	-8.25393e+01	-1.72759e+02	-1.71492e+02	-1.85060e+02	-1.78311e+02	-8.15946e+01	-1.51161e+02	
Factor	6.84074e-05	1.16036e-04	3.77825e-05	1.75057e-01	1.19124e-06	1.02847e-06	2.01126e-01	6.52604e-02	1.39494e-06	1.20521e-06	1.15205e-01	3.44855e-02	6.48392e-02	1.06986e-02	1.09788e-06	1.56755e-02	7.61801e-07	7.68646e-07	2.13154e-07	8.53154e-02	8.43469e-09	8.40861e-09	9.13502e-02	3.13959e-02	8.44513e-09	8.40387e-09	5.21703e-02	1.57552e-02	2.79534e-02	5.07005e-03	8.41014e-09	7.10043e-03	X	X	X	X	X	X	X	X	X	X	X	X	X	X	X	X	



#DISTANCE SETTINGS
A = Detector Channel
A-1	A-2	A-3	A-4	A-5	A-6	A-7	A-8	A-9	A-10	A-11	A-12	A-13	A-14	A-15	A-16	

2.5000e+00	3.0000e+00	2.5000e+00	3.0000e+00	2.0000e+00	3.0000e+00	1.5000e+00	3.0000e+00	3.0000e+00	3.0000e+00	3.0000e+00	3.0000e+00	3.0000e+00	3.0000e+00	1.5000e+00	3.0000e+00	

B = Detector Channel
B-1	B-2	B-3	B-4	B-5	B-6	B-7	B-8	B-9	B-10	B-11	B-12	B-13	B-14	B-15	B-16	

1.0000e+01	1.0000e+01	1.0000e+01	1.4400e+00	1.0000e+01	1.0000e+01	1.5100e+00	1.9400e+00	1.0000e+01	1.0000e+01	1.9900e+00	2.4900e+00	2.4100e+00	2.9000e+00	1.0000e+01	2.9800e+00	




#DATA BEGINS
time	group	step	mark	flag	A-AC1	A-AC2	A-AC3	A-AC4	A-AC5	A-AC6	A-AC7	A-AC8	A-AC9	A-AC10	A-AC11	A-AC12	A-AC13	A-AC14	A-AC15	A-AC16	A-DC1	A-DC2	A-DC3	A-DC4	A-DC5	A-DC6	A-DC7	A-DC8	A-DC9	A-DC10	A-DC11	A-DC12	A-DC13	A-DC14	A-DC15	A-DC16	A-Ph1	A-Ph2	A-Ph3	A-Ph4	A-Ph5	A-Ph6	A-Ph7	A-Ph8	A-Ph9	A-Ph10	A-Ph11	A-Ph12	A-Ph13	A-Ph14	A-Ph15	A-Ph16	B-AC1	B-AC2	B-AC3	B-AC4	B-AC5	B-AC6	B-AC7	B-AC8	B-AC9	B-AC10	B-AC11	B-AC12	B-AC13	B-AC14	B-AC15	B-AC16	B-DC1	B-DC2	B-DC3	B-DC4	B-DC5	B-DC6	B-DC7	B-DC8	B-DC9	B-DC10	B-DC11	B-DC12	B-DC13	B-DC14	B-DC15	B-DC16	B-Ph1	B-Ph2	B-Ph3	B-Ph4	B-Ph5	B-Ph6	B-Ph7	B-Ph8	B-Ph9	B-Ph10	B-Ph11	B-Ph12	B-Ph13	B-Ph14	B-Ph15	B-Ph16	aux-1	digaux	

1333.983	1	1	0	256	0.25488	0.15867	0.26131	0.1167	0.1307	0.31127	0.087671	0.12048	0.30234	0.12678	0.056329	0.11917	0.13537	0.014618	0.079367	0.14724	-1.5333	-2.3958	-2.4396	-1.9208	-2.7687	-2.1562	-2.2417	-2.6167	-1.9167	-2.3604	-2.7521	-1.8604	-2.65	-2.2083	-1.825	-2.8479	93.927	17.330	-11.571	-157.843	-102.769	20.639	26.511	139.167	122.711	-72.602	-167.945	-0.087	37.459	150.649	3.366	36.387	0.00070893	0.00025955	4.2908e-05	964.12	1.7574e-06	7.3595e-07	1061.8	207.13	3.7886e-06	2.024e-06	258.91	75.173	58.038	17.28	7.3648e-07	24.416	7.605e-05	6.9955e-05	1.874e-05	916.09	7.8198e-07	7.721e-07	1006.6	195.56	7.9981e-07	7.2982e-07	240.3	70.361	51.209	16.496	6.6204e-07	23.043	66.810	-51.621	165.581	-166.289	-113.429	-51.472	-166.896	-159.084	-138.028	32.238	-159.001	-152.712	-153.190	-144.684	-6.153	-145.042	-8191	255	
1334.079	1	1	0	0	0.20502	0.1951	0.26549	0.33127	0.16066	0.025002	0.35081	0.08114	0.10299	0.15613	0.22336	0.21433	0.31644	0.10208	0.052527	0.23606	-1.5187	-2.3792	-2.7417	-1.7146	-2.5542	-2.3958	-2.0417	-2.7146	-1.9875	-2.2458	-2.6396	-1.8354	-2.4125	-2.3958	-2.1542	-2.6833	-162.069	152.948	90.021	-136.785	-61.212	52.650	95.084	62.921	-70.426	94.662	-104.731	-20.036	145.322	103.958	123.964	72.434	0.00074861	0.00013083	8.4979e-05	960.34	2.1837e-06	2.6076e-06	1062.8	206.51	4.703e-06	2.9473e-06	259.26	75.218	58.386	17.361	2.185e-06	24.312	7.7123e-05	6.6616e-05	1.7195e-05	915.07	7.9088e-07	7.3104e-07	1003.7	195.68	8.1696e-07	7.1571e-07	240	70.431	51.481	16.439	6.8664e-07	22.987	78.775	46.399	-119.456	-166.346	158.992	-28.780	-166.515	-158.857	-133.536	1.975	-159.587	-153.288	-152.681	-144.575	71.418	-145.954	-8191	255	
1334.175	1	1	0	0	0.063674	0.08686	0.052068	0.038886	0.1688	0.20166	0.14345	0.14592	0.20291	0.25691	0.1007	0.15909	0.21708	0.15412	0.14794	0.10747	-1.6771	-1.8937	-2.6708	-1.8875	-2.4062	-2.5542	-1.8229	-2.7604	-2.1979	-1.9708	-2.8229	-1.8583	-2.4125	-2.5667	-1.7812	-2.7021	-145.473	-10.580	50.830	-62.963	143.441	160.138	42.358	-127.516	-90.580	-125.533	-130.634	76.701	-7.781	-105.892	-51.193	-131.789	0.00071588	0.0002065	5.0175e-05	963.65	5.2195e-07	3.6821e-06	1058.5	207.93	5.7109e-06	2.7313e-06	259.71	74.624	58.969	17.277	7.582e-07	24.483	8.1638e-05	6.5481e-05	1.7512e-05	915.44	8.2122e-07	7.2493e-07	1004.3	196.23	8.0413e-07	6.9481e-07	240.12	70.493	51.4	16.411	6.6591e-07	23.042	75.686	-111.974	-92.820	-166.621	10.502	-57.897	-166.299	-158.933	-119.649	-34.531	-159.195	-152.821	-152.572	-144.674	-133.150	-145.413	-8191	255	
1334.294	1	1	0	0	0.11019	0.095031	0.15041	0.20865	0.18293	0.18601	0.14425	0.18026	0.061771	0.058908	0.18075	0.3814	0.29834	0.17062	0.28984	0.127	-1.825	-1.9229	-2.6625	-2.1146	-2.3625	-2.5604	-1.8583	-2.5312	-2.3167	-1.8687	-2.8271	-1.9562	-2.2167	-2.5812	-1.6708	-2.5979	37.577	-101.328	128.682	153.713	163.477	11.255	-143.609	155.087	-45.303	-172.586	103.855	-163.582	-155.382	-118.038	-122.987	-117.264	0.00075834	0.00021531	7.2558e-05	964.71	1.7575e-06	1.4043e-06	1056.9	208.19	4.3921e-06	9.6046e-07	258.23	75.318	58.503	17.346	2.3805e-06	24.32	7.7824e-05	6.3465e-05	1.7848e-05	918.04	7.5844e-07	7.206e-07	1002.1	195.98	7.6348e-07	6.7052e-07	239	70.4	51.2	16.413	6.9622e-07	23.018	78.840	33.739	-175.098	-166.170	-119.233	0.342	-166.680	-158.943	-34.451	165.824	-159.473	-152.631	-153.101	-145.088	-19.856	-145.634	-8191	255	
1334.390	1	1	0	0	0.15878	0.16865	0.35324	0.23844	0.12685	0.1493	0.12949	0.063192	0.12819	0.1972	0.21347	0.057851	0.11652	0.14401	0.12653	0.28992	-1.875	-1.9562	-2.6813	-2.0312	-2.3021	-2.7896	-1.9083	-2.5542	-2.4167	-1.7	-2.6792	-2.2271	-1.9813	-2.8875	-2.025	-2.35	75.308	-156.585	125.236	159.772	-23.784	-110.900	132.887	-151.270	-54.301	-48.033	174.903	-37.422	-164.244	7.754	50.378	140.436	0.00070118	0.00026659	7.9342e-05	961.48	2.3041e-06	1.0842e-06	1054.8	206.65	3.3451e-06	7.8549e-07	260.77	74.384	58.34	17.224	1.5828e-06	24.424	7.3531e-05	6.0597e-05	1.7936e-05	914.88	7.1521e-07	6.7448e-07	999.78	195.57	7.2959e-07	6.482e-07	240.35	70.3	50.984	16.364	7.5181e-07	22.999	75.349	-126.239	-145.835	-166.578	-97.673	-42.957	-166.631	-158.857	-102.718	9.546	-158.872	-152.661	-153.146	-144.784	172.484	-146.008	-8191	255	
1334.462	1	1	0	0	0.11647	0.29419	0.19487	0.36636	0.065232	0.11272	0.23234	0.052272	0.16199	0.11994	0.10449	0.030407	0.11768	0.30832	0.16327	0.14017	-2.3875	-1.6208	-2.7458	-2.1167	-2.1708	-2.8354	-1.9521	-2.4146	-2.55	-1.9104	-2.8375	-2.1708	-1.9813	-2.6604	-2.0167	-2.3854	133.926	149.884	-69.087	140.993	62.435	-101.085	182.138	-142.749	-11.965	-159.075	70.806	151.876	3.728	45.096	-34.427	14.639	0.00079917	8.8432e-05	0.00010761	959.88	5.0832e-06	2.1966e-06	1057.3	207.4	4.4243e-06	2.2085e-06	257.34	74.747	58.041	17.254	2.5822e-06	24.353	7.0368e-05	6.0284e-05	1.9212e-05	912.29	7.1111e-07	6.702e-07	1001.2	194.97	7.317e-07	6.6019e-07	239.15	70.149	50.868	16.392	8.015e-07	22.986	80.916	-118.450	-119.668	-166.794	-41.980	-66.694	-166.921	-158.996	-97.355	-58.021	-158.922	-152.679	-153.248	-144.774	-72.624	-145.345	-8191	255	
1334.583	1	1	0	0	0.035003	0.3541	0.078651	0.11346	0.17732	0.053868	0.14377	0.16461	0.12444	0.16594	0.22269	0.079457	0.20866	0.072913	0.065614	0.059093	-2.175	-1.8604	-2.5875	-2.3187	-2.0292	-2.7292	-2.2271	-2.2188	-2.6417	-1.7938	-2.6167	-2.3896	-1.8438	-2.6146	-1.9854	-2.1271	-8.427	-142.082	-39.842	62.399	-148.609	-164.216	152.151	125.598	61.214	-32.030	171.679	-42.266	90.133	125.826	-163.353	82.628	0.00062668	0.00033068	3.9911e-05	959.12	2.7655e-06	1.133e-06	1056.6	206.25	3.2558e-06	4.1091e-06	257.93	74.901	58.588	17.229	3.0126e-06	24.247	7.2328e-05	6.3519e-05	2.0275e-05	912.61	6.9015e-07	6.979e-07	1001.3	194.7	7.0848e-07	7.0234e-07	239.55	70.026	50.986	16.368	8.0299e-07	22.851	78.773	-89.436	116.293	-166.750	-99.163	-24.236	-166.880	-159.024	-72.440	-46.244	-159.317	-153.029	-152.904	-144.486	-74.971	-145.582	-8191	255	
1334.679	1	1	0	0	0.14569	0.068103	0.17189	0.24213	0.074551	0.25209	0.28707	0.31795	0.11701	0.17231	0.091142	0.18135	0.12871	0.21236	0.32611	0.15781	-2.2042	-1.8917	-2.4479	-2.4833	-1.8833	-2.7458	-2.1937	-2.0208	-2.6917	-1.7729	-2.4729	-2.4917	-1.8208	-2.6896	-2.1562	-2.2562	-88.470	-60.580	52.108	136.653	-113.223	78.435	42.319	35.086	134.770	66.364	-13.679	58.466	164.673	138.753	140.904	145.055	0.00064066	0.00018967	1.8041e-05	959.4	3.1116e-06	1.7056e-06	1050.7	205.71	5.6833e-06	3.6638e-06	256.53	74.084	58.204	17.192	1.9354e-06	24.302	6.8808e-05	6.7654e-05	1.9858e-05	911	6.7695e-07	7.4162e-07	997.71	194.46	6.9681e-07	7.5094e-07	238.54	69.642	50.627	16.362	7.5625e-07	22.868	82.966	-111.543	-119.374	-166.475	-48.938	62.349	-166.689	-159.143	-84.650	-72.083	-159.132	-152.770	-152.705	-144.961	-75.468	-145.310	-8191	255	
1334.775	1	1	0	0	0.23119	0.2648	0.13692	0.10662	0.22016	0.23218	0.32686	0.31647	0.12321	0.20415	0.11117	0.28637	0.10873	0.18215	0.21614	0.1387	-2.3104	-1.9146	-2.3396	-2.6333	-1.6542	-2.5438	-2.4375	-1.8937	-2.9313	-2.0792	-2.3375	-2.6229	-1.85	-2.5292	-2.1104	-1.9312	64.086	181.649	-109.708	-111.691	31.122	43.768	113.333	172.089	81.743	31.225	2.884	-16.853	174.635	142.909	109.780	-139.291	0.00069984	0.00034654	8.8317e-05	955.12	1.6328e-06	2.9371e-06	1050.1	205.14	3.0317e-06	1.8114e-06	256.72	73.905	58.078	17.22	4.5658e-07	24.025	6.601e-05	6.8019e-05	1.8332e-05	908.32	6.5724e-07	7.3672e-07	993.36	193.41	6.8467e-07	7.6656e-07	238.66	69.4	50.549	16.332	7.1106e-07	22.673	72.657	-99.667	-56.989	-166.532	-153.228	-129.699	-166.672	-158.805	-113.631	-49.242	-159.287	-153.262	-153.494	-145.207	-120.263	-145.778	-8191	255	
1334.871	1	1	0	0	0.092026	0.09912	0.15529	0.16683	0.31412	0.12533	0.40287	0.15974	0.033374	0.20764	0.112	0.13302	0.095591	0.021937	0.15173	0.066182	-2.4688	-2.0333	-2.0062	-2.7625	-1.8188	-2.6104	-2.3833	-1.8771	-2.5938	-2.1729	-2.2687	-2.5604	-1.8625	-2.5354	-2.5604	-1.9292	19.015	-22.427	158.381	106.439	-40.183	2.627	79.399	129.191	-103.952	-114.989	26.932	78.630	-29.960	97.217	-41.491	-109.496	0.00070291	0.00032784	0.00014731	950.83	1.5779e-06	1.4356e-06	1050.8	204.39	3.9497e-06	8.1629e-07	256.95	74.012	57.599	17.137	2.6222e-06	24.045	6.6929e-05	7.0514e-05	1.7573e-05	903.64	6.8484e-07	7.4486e-07	992.19	192.49	7.086e-07	7.5379e-07	237.76	69.454	50.573	16.262	6.9897e-07	22.734	69.375	-107.826	-71.837	-166.818	-88.266	-4.536	-166.818	-159.137	-108.531	-102.517	-158.677	-152.662	-152.439	-144.808	-20.365	-145.003	-8191	255	
1334.990	1	1	0	0	0.092538	0.14172	0.34464	0.15911	0.29995	0.10269	0.11755	0.06556	0.18659	0.098615	0.17848	0.1023	0.10951	0.049658	0.094788	0.12519	-2.1771	-1.9813	-2.2313	-2.7313	-1.95	-2.4729	-2.7042	-1.9417	-2.6771	-2.2521	-2.0542	-2.9958	-1.8687	-2.2792	-2.675	-2.0729	-5.912	-28.503	12.008	50.660	-44.213	176.223	182.932	-168.770	177.558	-43.408	-152.215	40.979	-169.454	-136.574	38.576	80.849	0.00067663	0.00010766	3.7881e-05	953.12	2.6685e-06	1.9833e-06	1044.8	204.01	2.2235e-06	2.5315e-06	255.06	73.646	57.874	17.026	3.8269e-06	24.2	7.2146e-05	7.1053e-05	1.7021e-05	904.77	7.6304e-07	7.3339e-07	990.36	192.5	7.7051e-07	7.5229e-07	237.52	69.162	50.666	16.28	7.0701e-07	22.703	78.203	101.585	-31.539	-166.400	-91.639	-12.751	-166.440	-158.846	-88.413	-106.376	-159.282	-152.791	-152.470	-144.249	-90.220	-145.704	-8191	255	
1335.063	1	1	0	0	0.030876	0.070864	0.11785	0.20975	0.29657	0.052637	0.27203	0.32137	0.27918	0.15968	0.066052	0.15823	0.29697	0.25182	0.29102	0.070127	-2.2854	-2.1625	-1.9583	-2.7562	-2.0583	-2.3604	-2.8354	-1.8875	-2.4583	-2.3604	-2.1208	-2.7792	-2.0979	-2.3042	-2.7833	-1.8542	-25.580	113.614	121.637	-155.171	118.301	138.901	138.380	111.418	-67.410	135.438	-108.738	78.195	-125.654	-126.787	11.342	-131.866	0.00084039	0.000116	5.6938e-05	955.92	1.2327e-06	2.0932e-06	1052.5	204.68	5.3278e-06	4.2849e-07	257.49	73.692	57.371	17.181	1.9802e-06	24.039	7.6704e-05	6.8989e-05	1.7057e-05	905.8	8.0557e-07	7.3094e-07	992.93	192.82	8.1202e-07	7.473e-07	237.75	69.465	50.895	16.291	7.0966e-07	22.677	67.313	-71.920	-12.618	-166.114	16.698	-44.276	-166.549	-158.940	-89.057	-28.889	-159.282	-153.092	-153.257	-145.021	-4.064	-145.595	-8191	255	
1335.160	1	1	0	0	0.19136	0.29934	0.085663	0.27387	0.17192	0.050684	0.18986	0.26595	0.12642	0.21176	0.1292	0.27238	0.17918	0.17671	0.22756	0.17517	-2.1042	-2.375	-1.8104	-2.8667	-2.0083	-1.9792	-2.8396	-1.875	-2.3708	-2.6104	-1.8521	-2.6229	-2.125	-2.0812	-2.8458	-1.8604	59.479	-105.935	-149.947	121.043	0.690	164.174	169.260	43.058	34.018	-36.565	167.221	-157.336	41.193	-154.495	85.185	95.586	0.00063817	0.00026738	0.00010063	955.25	2.1689e-06	1.5413e-06	1048.1	204.44	6.0142e-06	2.8727e-06	256.87	74.134	57.266	17.14	1.9247e-06	24.078	7.7631e-05	6.6739e-05	1.6888e-05	906.99	8.1713e-07	7.0702e-07	992.23	192.73	7.8332e-07	7.2916e-07	238.34	69.534	50.836	16.282	7.2117e-07	22.85	59.889	-113.571	-85.709	-166.703	-64.987	121.187	-166.599	-158.987	-95.851	21.189	-159.139	-152.755	-153.644	-144.732	-7.222	-145.434	-8191	255	
1335.256	1	1	0	0	0.23897	0.045579	0.13401	0.12546	0.13105	0.10701	0.3269	0.30516	0.046646	0.1912	0.11125	0.018254	0.043813	0.22032	0.1154	0.13203	-2.1375	-2.4167	-1.8083	-2.6937	-2.1333	-1.9438	-2.8021	-1.9438	-2.3625	-2.575	-1.8687	-2.6437	-2.3063	-1.8813	-2.9458	-1.9479	32.984	46.902	73.501	-148.066	-14.685	94.783	137.504	179.697	68.717	10.242	169.540	43.542	39.050	-78.592	123.197	-57.031	0.00075048	0.00016814	6.8536e-05	956.18	2.2155e-06	1.6877e-06	1053.9	203.88	5.7827e-06	3.3174e-06	257.22	73.975	57.861	17.187	1.6439e-06	24.309	7.5953e-05	6.6475e-05	1.7166e-05	908.81	8.0734e-07	6.9376e-07	997.26	192.81	7.668e-07	7.2209e-07	238.29	69.632	50.763	16.265	7.1754e-07	22.879	67.547	-84.519	-128.285	-166.243	-45.200	-65.553	-166.443	-159.045	-112.021	79.374	-159.302	-152.478	-152.814	-144.599	-36.636	-145.392	-8191	255	
1335.375	1	1	0	0	0.32432	0.24248	0.28625	0.15465	0.12867	0.069622	0.25973	0.15124	0.22893	0.25365	0.11424	0.12055	0.037604	0.15032	0.063247	0.21436	-1.9083	-2.5667	-1.8062	-2.5833	-2.4	-1.9937	-2.9354	-1.9792	-2.1021	-2.8	-2.0792	-2.3063	-2.6604	-1.9521	-2.6854	-2.0938	-63.800	181.967	-145.212	83.142	-164.752	-60.747	164.452	179.666	95.900	-7.129	89.992	44.590	167.601	127.243	29.207	114.015	0.00069705	0.00010071	0.00010859	959.25	1.9799e-06	1.8179e-06	1052.2	204.75	4.8132e-06	2.4739e-06	256.59	74.534	58.165	17.306	2.4512e-06	23.996	7.3971e-05	6.5511e-05	1.8615e-05	911.7	7.6506e-07	6.6792e-07	995.81	193.33	7.2655e-07	6.797e-07	238.38	69.665	50.724	16.316	7.413e-07	22.846	89.777	-109.086	-134.123	-166.631	-77.684	-110.458	-166.510	-159.329	-116.433	-30.703	-159.407	-152.174	-152.952	-144.382	-110.347	-145.405	-8191	255	
1335.471	1	1	0	0	0.29511	0.23263	0.025824	0.1604	0.24675	0.20652	0.057846	0.051128	0.24505	0.037604	0.20934	0.13162	0.17462	0.19017	0.18048	0.33364	-1.775	-2.7375	-1.8188	-2.4958	-2.5417	-1.9188	-2.9146	-2.1125	-2.1417	-2.7667	-1.9937	-2.5312	-2.6312	-1.9062	-2.6813	-2.2833	113.304	73.256	-123.669	153.962	135.469	127.585	-160.504	-162.786	-115.414	-16.389	-172.260	-127.130	155.625	-171.842	-93.115	55.248	0.00065307	0.00038137	5.6715e-05	960.77	1.7639e-06	2.1782e-06	1054.4	204.29	3.6022e-06	2.5631e-06	257.66	74.89	57.879	17.215	3.9617e-06	24.149	6.8916e-05	6.3527e-05	1.8937e-05	911.89	7.331e-07	6.4634e-07	998.25	193.1	6.9832e-07	6.6555e-07	238.84	69.974	50.664	16.299	7.7885e-07	22.835	65.992	-90.770	-131.943	-166.181	-81.786	-60.949	-166.505	-159.303	-74.628	-46.967	-159.285	-152.920	-152.979	-144.881	-98.897	-145.513	-8191	255	
1335.567	1	1	0	0	0.13314	0.25071	0.049552	0.14301	0.074289	0.070187	0.20137	0.21005	0.082996	0.059923	0.20192	0.22939	0.0764	0.2105	0.063167	0.20098	-1.6646	-2.8833	-2.0771	-2.5312	-2.6312	-1.9479	-2.9188	-2.5458	-1.95	-2.9479	-1.9958	-2.3146	-2.6833	-1.9125	-2.6146	-2.4	-56.971	-66.958	167.898	141.139	-147.786	-78.181	140.750	177.919	-99.752	-11.949	-36.577	-81.353	78.295	178.144	-4.622	176.012	0.00071642	0.00017966	9.0556e-05	960.03	3.19e-06	4.564e-07	1051.2	203.86	1.9337e-06	1.1751e-06	255.73	74.207	57.599	17.144	2.3812e-06	24.053	6.7618e-05	6.3846e-05	1.9807e-05	911.34	7.0955e-07	6.7353e-07	996.96	192.89	6.7892e-07	6.9052e-07	238.75	69.561	50.506	16.284	7.8857e-07	22.758	71.476	-94.032	168.106	-166.804	-72.401	50.651	-166.835	-159.078	-27.135	-57.611	-159.662	-152.986	-152.660	-144.679	-70.432	-146.035	-8191	255	
1335.663	1	1	0	0	0.11559	0.040728	0.14324	0.24722	0.19684	0.19525	0.27409	0.18761	0.20992	0.18959	0.26904	0.22983	0.24831	0.22529	0.086012	0.19214	-1.3854	-2.7333	-2.0333	-2.1792	-2.5271	-1.9396	-2.6333	-2.4875	-1.9	-2.6521	-2.2083	-1.9083	-2.7479	-1.8896	-2.5542	-2.475	151.388	1.483	81.552	94.992	-115.170	-155.424	71.931	127.904	150.140	-128.807	163.537	99.525	-154.183	-163.657	161.750	121.652	0.00073419	0.00023557	5.8116e-05	959.79	3.8116e-06	1.4953e-06	1055.1	205.31	3.5826e-07	3.2225e-07	258	73.979	58.086	17.216	2.0009e-06	24.097	6.6315e-05	6.5493e-05	1.9897e-05	911.44	6.9491e-07	7.1887e-07	1000.1	192.96	6.8179e-07	7.5451e-07	238.95	69.593	50.667	16.339	7.5654e-07	22.765	70.416	-84.376	-108.668	-166.600	-77.557	-110.908	-166.449	-159.060	159.814	-61.289	-159.546	-153.436	-153.463	-144.798	-52.843	-145.763	-8191	255	
1335.759	1	1	0	0	0.19308	0.1624	0.01895	0.15632	0.12867	0.17405	0.08281	0.20994	0.050802	0.23392	0.19895	0.29692	0.14325	0.064041	0.20102	0.099969	-1.4	-2.6729	-2.1521	-2.1271	-2.7292	-1.8354	-2.3187	-2.4375	-1.875	-2.6688	-2.2646	-1.95	-2.7292	-2.0979	-2.2875	-2.7625	-118.733	-107.040	74.505	36.865	131.694	92.489	-25.077	82.152	82.870	10.336	83.650	-118.051	-9.257	113.843	173.998	-30.914	0.00071504	0.00016433	9.2329e-05	959.93	1.0499e-06	1.4019e-06	1053.2	204.13	1.65e-06	2.9886e-06	257.03	74.042	58.296	17.212	1.1751e-06	23.993	6.6507e-05	6.8877e-05	1.9975e-05	911.66	7.1185e-07	7.625e-07	998.54	193.26	6.909e-07	7.7286e-07	238.78	69.522	50.53	16.338	7.3522e-07	22.766	81.072	-144.330	-96.484	-166.333	-43.302	-108.622	-166.668	-159.120	-120.392	9.378	-159.155	-152.996	-153.094	-144.867	26.196	-145.988	-8191	255	
1335.855	1	1	0	0	0.40832	0.1306	0.28786	0.45861	0.45805	0.12129	0.11592	0.1751	0.22412	0.073425	0.038662	0.05236	0.27807	0.11138	0.25461	0.21623	-1.3563	-2.5458	-2.2583	-2.2354	-2.8208	-1.9292	-2.1688	-2.8708	-1.95	-2.625	-2.3667	-1.7958	-2.8042	-2.0021	-2.15	-2.6479	-76.234	-80.496	63.239	160.311	131.163	-136.114	108.775	-139.626	-40.425	-64.942	-33.662	-18.076	124.015	-12.796	16.051	-17.824	0.00072079	0.00029213	0.00011374	959.64	5.8542e-07	8.6857e-07	1048.4	203.85	2.4991e-06	2.4259e-06	257.51	74.087	57.276	17.184	3.3408e-06	24.16	6.7813e-05	7.1058e-05	1.8988e-05	910.31	7.1537e-07	7.994e-07	996.4	192.88	7.0478e-07	7.7426e-07	239	69.461	50.636	16.329	6.9413e-07	22.744	61.523	-139.449	-79.401	-166.751	42.104	-158.797	-166.978	-159.284	-78.879	-25.285	-159.728	-153.465	-153.058	-145.113	-9.324	-146.145	-8191	255	
1335.976	1	1	0	0	0.17221	0.17913	0.026284	0.28745	0.26253	0.05792	0.076165	0.11831	0.24906	0.17306	0.11079	0.36727	0.1222	0.14703	0.2084	0.13894	-1.325	-2.65	-2.3896	-1.9646	-2.7375	-2.0938	-2.3042	-2.8125	-1.7792	-2.4437	-2.45	-1.9146	-2.5812	-2.25	-1.9854	-2.8063	-159.521	-152.928	-8.787	48.912	60.861	24.798	46.747	98.150	-113.112	89.574	50.581	-34.471	160.339	-136.780	-43.474	157.876	0.00063478	0.00016143	7.6808e-05	959.57	1.0062e-06	1.6937e-06	1048.8	204.56	2.8876e-06	2.8044e-06	256.95	74.162	58.246	17.17	3.0888e-06	24.208	7.1017e-05	7.0289e-05	1.84e-05	910.22	7.6301e-07	7.8431e-07	997.45	193.34	7.6956e-07	7.6092e-07	238.11	69.52	51.012	16.381	6.9664e-07	22.823	76.016	-66.997	-113.930	-166.868	147.403	-41.999	-167.104	-159.513	-77.470	-94.924	-159.846	-153.114	-152.934	-144.814	-11.497	-145.582	-8191	255	
1336.072	1	1	0	0	0.091245	0.15006	0.21891	0.29789	0.17315	0.17747	0.18073	0.064565	0.14496	0.15618	0.19441	0.032977	0.17653	0.3931	0.16871	0.079507	-1.5854	-2.3688	-2.5125	-1.9542	-2.7771	-2.1896	-2.0812	-2.6208	-2.1229	-2.2438	-2.6729	-1.9062	-2.4188	-2.3354	-1.8687	-2.8354	-133.692	-175.213	-46.293	126.231	113.901	-74.991	146.535	-10.947	74.547	-105.400	92.866	-63.034	-45.675	-112.850	-130.943	48.352	0.00065584	0.00017529	3.7234e-05	960.16	2.2286e-06	4.4516e-07	1057.4	204.56	2.3019e-06	1.4046e-06	257.49	74.046	58.631	17.092	1.4942e-06	24.115	7.7421e-05	6.8195e-05	1.8241e-05	910.72	8.1026e-07	7.6154e-07	997.96	193.07	8.2233e-07	7.2364e-07	238.96	69.536	51.147	16.311	6.7765e-07	22.776	62.281	-169.615	140.589	-167.055	-125.305	132.664	-166.946	-159.499	-10.145	60.940	-159.983	-153.082	-152.921	-145.308	23.141	-145.738	-8191	255	
1336.167	1	1	0	0	0.079344	0.21674	0.16915	0.23167	0.28004	0.16992	0.062213	0.037111	0.029497	0.14887	0.27027	0.27713	0.14243	0.098983	0.12756	0.10682	-1.6958	-1.9729	-2.675	-1.7604	-2.5958	-2.4062	-2.1333	-2.6937	-2.075	-2.3208	-2.6458	-1.6812	-2.4958	-2.4813	-2.0375	-2.6521	145.344	-82.806	-170.194	144.651	104.141	161.248	124.751	50.293	13.940	156.701	144.334	170.884	55.116	-142.884	-61.556	-39.129	0.00073925	0.00039523	6.7971e-05	961.14	2.5114e-06	8.2026e-07	1050.7	204.7	2.4306e-06	1.1963e-06	259.1	74.501	57.714	17.101	1.5298e-06	24.166	8.0099e-05	6.546e-05	1.8076e-05	911.73	8.2317e-07	7.4474e-07	996.35	193.46	8.1156e-07	7.1598e-07	238.99	69.739	50.915	16.296	6.5548e-07	22.835	70.509	-108.527	-64.758	-166.693	-107.345	-90.001	-166.788	-159.245	-110.759	157.646	-159.358	-153.183	-152.961	-145.372	-175.661	-146.154	-8191	255	
1336.264	1	1	0	0	0.14025	0.26255	0.063	0.3116	0.16351	0.057053	0.50954	0.070446	0.08599	0.30315	0.090022	0.19004	0.28369	0.063428	0.22178	0.071051	-1.7042	-1.9792	-2.6458	-1.9271	-2.2354	-2.6917	-1.9937	-2.6521	-2.3208	-1.9333	-2.6667	-1.8563	-2.2938	-2.8229	-1.8021	-2.6729	-106.144	-99.823	-68.579	161.713	-10.056	-159.040	144.176	-120.772	89.205	-49.871	-155.008	-171.979	-169.982	-93.613	65.854	157.325	0.00070395	0.00016862	0.00010625	958.64	1.3484e-06	1.8065e-06	1055.9	204.64	4.3107e-06	2.2633e-06	258.88	73.885	57.51	17.098	2.9891e-06	24.139	7.8588e-05	6.222e-05	1.7363e-05	911.85	7.7828e-07	7.1648e-07	997.63	193.28	8.006e-07	7.0673e-07	239.34	69.766	50.76	16.262	7.0619e-07	22.881	75.912	-63.068	-81.058	-166.902	19.776	-37.485	-167.196	-159.275	-56.268	-77.523	-159.680	-153.304	-153.073	-145.260	-30.587	-146.032	-8191	255	
1336.359	1	1	0	0	0.28773	0.12757	0.13157	0.20734	0.25456	0.2284	0.13855	0.10099	0.10463	0.083706	0.20226	0.069355	0.16323	0.28468	0.24546	0.3111	-1.6521	-1.8979	-2.8771	-2.0146	-2.2875	-2.7292	-2.0604	-2.7833	-2.3958	-2.0396	-2.7938	-2.15	-2.075	-2.6292	-1.7979	-2.5667	-147.829	-158.773	98.705	123.292	-44.094	21.377	161.896	104.563	-113.975	111.911	109.804	21.915	33.607	168.651	-34.747	55.005	0.00068453	0.000151	0.00010576	958.44	2.5405e-06	3.2423e-06	1054.8	205.74	1.5976e-06	1.3281e-06	256.4	74.296	58.134	17.025	9.8591e-07	24.139	7.446e-05	6.1628e-05	1.7901e-05	912.64	7.4136e-07	6.9625e-07	997.2	193.74	7.6404e-07	6.7791e-07	238.56	69.87	50.76	16.269	7.248e-07	22.902	79.960	-150.376	159.937	-166.915	-80.750	-71.164	-166.910	-159.420	-116.545	-37.183	-159.406	-153.299	-153.419	-144.911	-90.570	-145.893	-8191	255	
1336.455	1	1	0	0	0.26519	0.2726	0.071394	0.054878	0.22608	0.28815	0.34874	0.20624	0.063877	0.19499	0.11722	0.25086	0.14366	0.17092	0.083013	0.23229	-2.075	-1.9021	-2.8229	-2.1542	-2.1646	-2.75	-2.0083	-2.4417	-2.3479	-1.9896	-2.7625	-2.2812	-1.9708	-2.6771	-1.7646	-2.3812	-51.952	-51.386	82.934	-76.142	-123.531	4.195	102.963	72.553	93.947	-32.388	140.031	-6.283	26.102	-46.447	126.389	95.138	0.00056857	0.00013992	6.8635e-05	961.36	2.2381e-06	3.2616e-06	1053.3	204.67	5.5528e-06	1.9816e-06	256.79	74.23	57.466	17.205	2.2683e-06	24.167	7.1668e-05	5.9722e-05	1.8576e-05	912.06	7.1168e-07	6.8041e-07	998.41	193.45	7.2899e-07	6.6329e-07	238.34	69.658	50.518	16.333	7.8104e-07	22.889	80.949	34.254	-56.443	-166.941	-132.329	-31.897	-167.217	-158.838	-65.282	-167.007	-159.712	-153.098	-153.025	-145.239	-15.302	-145.874	-8191	255	
1336.551	1	1	0	0	0.024543	0.30022	0.26284	0.10363	0.17111	0.1249	0.13404	0.18531	0.15585	0.073841	0.10029	0.14062	0.10322	0.1735	0.024722	0.18062	-2.0938	-1.7812	-2.8354	-2.5062	-2.05	-2.7708	-2.1375	-2.3854	-2.6479	-1.9688	-2.5375	-2.4313	-2.0187	-2.7625	-2.0146	-2.2979	-125.597	180.488	-173.151	111.277	-137.337	2.966	172.136	-154.301	52.935	50.410	-44.383	104.544	176.242	-79.452	104.376	91.494	0.0006412	0.0003938	3.857e-05	955.15	1.5457e-06	2.4326e-06	1048.6	204.15	4.4705e-06	1.8793e-06	256.29	74.095	58.493	17.184	1.2212e-06	24.33	7.2314e-05	6.2523e-05	2.01e-05	910	7.0198e-07	6.9886e-07	997.58	193.45	7.1446e-07	6.8161e-07	238.49	69.589	50.712	16.306	8.0776e-07	22.878	91.285	-53.665	-134.837	-166.967	-127.048	-127.889	-167.074	-158.954	-62.002	-51.012	-159.683	-153.141	-153.619	-145.207	-81.739	-145.779	-8191	255	
1336.672	1	1	0	0	0.10469	0.30067	0.26575	0.15012	0.056673	0.25678	0.21372	0.066529	0.1381	0.23629	0.19977	0.22843	0.23122	0.04475	0.51051	0.16767	-2.3312	-1.8354	-2.6625	-2.5167	-1.9375	-2.8354	-2.1146	-2.1792	-2.7354	-2.0021	-2.575	-2.4938	-1.7521	-2.8312	-2.1646	-2.1354	81.406	-11.153	8.368	138.750	115.346	-66.873	94.974	-98.357	-85.929	-110.867	126.110	-106.822	90.669	-3.492	-82.861	163.016	0.00070181	7.0011e-05	4.2961e-05	955.91	1.9293e-07	1.1081e-06	1048	203.38	2.1216e-06	2.9605e-06	256.27	73.974	57.787	17.236	2.7614e-06	23.835	6.9684e-05	6.387e-05	2.008e-05	908.89	6.8739e-07	7.2202e-07	996.7	192.92	7.0742e-07	7.3425e-07	238.78	69.605	50.576	16.33	8.0007e-07	22.674	75.459	-66.961	-105.371	-166.772	-140.754	-68.336	-167.113	-159.479	-160.902	-74.422	-159.762	-153.378	-153.245	-145.313	-66.417	-145.978	-8191	255	
1336.768	1	1	0	0	0.38947	0.34535	0.041779	0.054154	0.28296	0.15235	0.2656	0.014678	0.22987	0.36988	0.051627	0.23469	0.33374	0.37967	0.13301	0.065594	-2.3896	-1.8	-2.4396	-2.7208	-1.9229	-2.7146	-2.1813	-2.0187	-2.6896	-2.0458	-2.4396	-2.5667	-1.7896	-2.725	-2.35	-2.0146	140.896	-170.230	73.662	-109.956	121.031	70.370	76.335	-119.502	-106.510	45.412	-158.614	-52.752	-159.456	-100.712	123.608	-158.850	0.00072192	0.0002412	5.4467e-05	957.04	3.7354e-06	1.7627e-06	1052.2	205.63	5.3026e-06	4.7668e-06	257.72	73.788	57.938	17.224	1.9471e-06	24.177	6.9667e-05	7.0233e-05	1.9563e-05	909.7	6.8776e-07	7.7342e-07	997.56	193.67	7.1254e-07	7.9707e-07	238.69	69.38	50.567	16.335	7.7626e-07	22.739	61.761	-115.062	-117.404	-167.111	-57.161	-107.758	-167.052	-159.556	-72.372	-27.732	-159.397	-153.572	-153.223	-144.818	-4.878	-146.055	-8191	255	
1336.864	1	1	0	0	0.15063	0.25874	0.047066	0.42822	0.079769	0.12001	0.070929	0.14114	0.10986	0.22737	0.092963	0.13535	0.13227	0.094935	0.098753	0.20547	-2.475	-1.9042	-2.3354	-2.8708	-1.8083	-2.6896	-2.4188	-1.9375	-2.8583	-2.05	-2.4417	-2.7375	-1.625	-2.5375	-2.4333	-1.8479	93.528	136.307	0.144	81.802	-69.899	10.376	-21.060	64.780	-9.980	43.576	-156.310	-43.505	-134.625	48.188	87.993	161.521	0.00053337	0.00025928	9.864e-05	961.65	2.9453e-06	1.3555e-06	1054.6	204.7	2.6325e-06	2.51e-06	259.08	74.176	57.735	17.192	1.7861e-06	24.085	7.0735e-05	7.3904e-05	1.8988e-05	911.94	7.0391e-07	8.0047e-07	997.63	192.96	7.332e-07	8.0914e-07	238.78	69.599	50.873	16.341	7.4265e-07	22.738	80.582	-4.027	142.481	-166.860	-108.389	-49.475	-166.969	-158.934	-135.889	9.259	-159.449	-153.205	-153.101	-145.048	-54.456	-146.047	-8191	255	
1336.936	1	1	0	0	0.20064	0.261	0.18031	0.33959	0.18952	0.13243	0.36045	0.14779	0.027952	0.11029	0.098001	0.11478	0.12314	0.1097	0.1564	0.070092	-2.3187	-2.2542	-2.1562	-2.7396	-1.9125	-2.4792	-2.7375	-1.7542	-2.9437	-2.2521	-2.075	-2.8271	-1.7563	-2.6063	-2.5729	-2.1021	-37.274	-46.962	-138.322	-82.813	114.922	95.591	101.496	128.028	-122.520	-106.005	131.737	32.941	-30.414	-119.287	-28.311	143.036	0.0007806	0.00020536	3.6686e-05	957.59	1.1843e-06	4.1168e-06	1056.3	206.1	7.0852e-06	1.1874e-06	258.32	74.373	58.317	17.159	7.9684e-07	24.163	7.4223e-05	7.5238e-05	1.8294e-05	909.87	7.6979e-07	7.9437e-07	999.07	193.75	7.8603e-07	8.1901e-07	238.72	69.53	50.983	16.369	7.3718e-07	22.778	66.881	-134.004	-37.925	-166.690	-71.018	-23.756	-166.641	-158.957	-121.301	41.755	-159.402	-153.393	-153.807	-145.102	6.538	-145.442	-8191	255	
1337.056	1	1	0	0	0.22631	0.20156	0.23511	0.0090029	0.077593	0.18681	0.1425	0.071646	0.14693	0.10957	0.18232	0.36782	0.22724	0.15692	0.19195	0.23891	-2.3208	-2.3479	-2.0854	-2.6979	-2.1396	-2.4083	-2.7854	-1.7687	-2.5625	-2.3792	-1.95	-2.9229	-1.9167	-2.1646	-2.8958	-1.8854	-61.429	-114.718	164.074	-160.871	-13.133	-131.346	-130.212	50.961	179.223	-53.527	-154.646	167.229	-103.772	14.435	-37.995	-113.086	0.00074611	7.5024e-05	2.1233e-05	955.69	2.6757e-06	8.0589e-07	1057.3	203.56	1.4499e-06	4.1887e-06	258.12	73.854	57.988	17.195	3.1547e-06	24.243	7.8664e-05	7.5153e-05	1.8099e-05	911.69	8.402e-07	7.8824e-07	997.36	193.04	8.6251e-07	8.0266e-07	238.5	69.588	51.02	16.311	7.5667e-07	22.884	70.946	139.039	116.871	-166.716	-164.123	-3.377	-166.795	-159.156	-172.162	-31.887	-159.484	-153.359	-153.558	-145.348	14.189	-146.165	-8191	255	
1337.153	1	1	0	0	0.22807	0.1714	0.079948	0.082139	0.32221	0.25721	0.21183	0.42413	0.10599	0.077321	0.11253	0.083918	0.10804	0.080619	0.11295	0.09714	-2.025	-2.5458	-1.8042	-2.6792	-1.9958	-2.0792	-2.7958	-1.9062	-2.5354	-2.4958	-1.8333	-2.8854	-1.9625	-2.2	-2.7417	-1.7771	135.375	-82.034	-49.134	41.370	-145.956	99.494	70.462	118.334	-63.334	149.343	-139.849	139.877	-115.956	-33.835	-127.319	-54.598	0.00071921	0.00024228	3.0223e-05	958.36	2.758e-06	1.7634e-06	1058.5	204.78	1.0179e-06	5.3084e-06	256.14	74.456	57.977	17.205	2.6825e-06	24.246	8.216e-05	7.2924e-05	1.7811e-05	913.28	8.6507e-07	7.6755e-07	1001.3	193.67	8.6651e-07	7.8359e-07	238.15	69.966	51.188	16.397	7.5192e-07	22.915	72.715	-133.048	-172.858	-167.076	-100.013	-35.987	-166.890	-159.661	-111.808	-24.764	-159.823	-153.490	-153.818	-145.513	-54.595	-146.026	-8191	255	
1337.249	1	1	0	0	0.042089	0.19191	0.35724	0.12167	0.053697	0.087311	0.45577	0.11224	0.06192	0.19548	0.37923	0.083336	0.21234	0.038099	0.20018	0.18781	-2.2333	-2.5521	-1.7687	-2.675	-2.3583	-1.975	-2.7708	-2.0083	-2.5625	-2.5729	-1.7521	-2.6396	-2.1708	-1.7896	-2.6729	-1.9396	25.296	118.389	39.900	85.795	-112.186	90.341	137.740	-103.895	-30.352	-21.005	50.950	-79.684	50.857	-71.810	-18.923	-57.945	0.0007148	0.000298	2.8978e-05	963.21	1.9137e-06	4.358e-06	1054.3	205.71	1.4355e-06	1.4774e-06	257.55	74.33	58.124	17.059	1.3369e-06	24.166	8.3282e-05	7.2445e-05	1.8285e-05	914.83	8.7158e-07	7.5126e-07	1001.7	194.43	8.2535e-07	7.8518e-07	239.08	70.042	51.388	16.321	7.468e-07	22.929	78.764	-122.891	-105.166	-166.951	-58.543	-35.833	-166.964	-159.511	-33.191	99.796	-159.602	-153.167	-153.507	-145.362	-84.559	-146.043	-8191	255	
1337.345	1	1	0	0	0.2735	0.20919	0.21688	0.20483	0.22725	0.29781	0.084917	0.12562	0.19824	0.16084	0.028025	0.01905	0.10059	0.2038	0.20135	0.091108	-1.9542	-2.3542	-1.7812	-2.6354	-2.2083	-1.8604	-3.0938	-2.0375	-2.0687	-2.7875	-1.9771	-2.3688	-2.1125	-1.9042	-2.6063	-2.2521	68.966	182.124	166.443	105.751	-147.474	-5.888	160.032	145.838	-63.071	-157.907	1.714	-91.034	37.315	-139.508	82.107	-81.080	0.00070734	0.00012684	4.2241e-05	966.71	1.9144e-06	1.9829e-06	1057.7	205.63	1.6482e-06	3.4189e-06	258.18	74.521	57.587	17.181	2.5123e-06	24.231	7.8534e-05	7.007e-05	1.8988e-05	918.27	8.2743e-07	7.3912e-07	1001.9	194.29	7.9602e-07	7.5041e-07	239.08	70.203	51.022	16.344	7.8206e-07	22.973	62.009	-110.832	-75.657	-167.024	-85.169	-68.249	-166.810	-159.325	-120.633	-80.304	-159.703	-152.971	-153.356	-145.139	-60.365	-145.100	-8191	255	
1337.464	1	1	0	0	0.10347	0.080722	0.19769	0.1384	0.14594	0.16673	0.1579	0.15704	0.16579	0.24171	0.16836	0.11175	0.10878	0.19304	0.19198	0.15702	-1.6604	-2.7292	-1.7333	-2.5312	-2.5125	-2.0042	-2.6167	-2.15	-1.9688	-2.7625	-2.1375	-2.6146	-2.5042	-1.7958	-2.6292	-2.2875	-57.067	-172.284	25.891	59.089	-141.238	62.251	133.187	-39.389	101.156	39.517	-42.448	63.198	46.318	-167.004	1.979	-4.348	0.00072874	0.00033451	0.00010055	968.29	3.5075e-06	3.0598e-06	1063.1	204.96	5.3278e-06	3.0834e-06	257.43	74.234	58.379	17.227	2.6835e-06	23.858	7.4453e-05	6.7663e-05	1.9634e-05	918.66	7.9416e-07	6.9662e-07	1004.5	193.94	7.6245e-07	7.3543e-07	239.59	70.034	51.201	16.338	8.2896e-07	22.924	86.788	-99.045	-57.339	-166.322	-64.373	-58.576	-166.497	-159.491	-67.131	-86.580	-159.500	-153.240	-153.404	-145.031	-82.249	-145.522	-8191	255	
1337.560	1	1	0	0	0.3381	0.093256	0.075679	0.31567	0.083106	0.21823	0.1181	0.074802	0.15961	0.21299	0.21128	0.24136	0.20079	0.14965	0.064586	0.14244	-1.6208	-2.7313	-1.8583	-2.5146	-2.7438	-1.6104	-2.8417	-2.3875	-2.0521	-2.9271	-1.9813	-2.5083	-2.6396	-1.7188	-2.7208	-2.3375	15.162	-138.935	121.217	-107.346	41.739	7.486	124.977	-108.661	-109.293	-19.975	63.620	120.842	83.201	21.239	164.585	-66.918	0.0007213	0.00025539	3.8918e-05	966.79	1.3236e-06	2.9497e-06	1057.3	204.68	1.7402e-06	2.245e-06	257.55	74.559	58.367	17.215	9.2273e-07	24.359	7.3765e-05	6.7284e-05	2.0953e-05	919.24	7.855e-07	7.2177e-07	1004.6	194.32	7.5255e-07	7.3833e-07	240.15	70.187	51.212	16.377	8.6612e-07	22.977	84.470	-162.286	-131.509	-166.827	-48.646	-163.140	-166.478	-159.120	-146.648	-35.704	-159.613	-152.907	-152.491	-144.942	-59.240	-146.181	-8191	255	
1337.656	1	1	0	0	0.14483	0.17896	0.16726	0.017966	0.12709	0.10858	0.10159	0.2413	0.16599	0.18607	0.25955	0.33541	0.2107	0.13603	0.13701	0.036632	-1.6562	-2.7458	-2.0104	-2.2	-2.7687	-1.9271	-2.6771	-2.4104	-1.6708	-2.6042	-2.0417	-2.0854	-2.6437	-1.7687	-2.45	-2.5125	-37.554	73.146	-49.904	39.020	-124.230	-34.020	-66.077	-174.711	-161.695	148.651	148.167	162.199	-53.302	122.521	33.078	-23.573	0.00068842	3.9551e-05	7.4542e-06	970.16	2.1322e-06	1.0329e-06	1060.1	204.69	4.4847e-06	9.8149e-07	259.76	74.766	58.284	17.261	1.8311e-06	24.167	7.2095e-05	6.9303e-05	2.2033e-05	920.04	7.7689e-07	7.6355e-07	1007.4	194.39	7.2829e-07	7.8666e-07	240.64	70.211	51.168	16.475	8.3264e-07	22.957	73.079	146.245	143.491	-166.574	-4.957	-149.445	-166.717	-158.814	-70.874	-29.926	-159.827	-153.024	-153.503	-144.701	-89.430	-145.898	-8191	255	
1337.752	1	1	0	0	0.18684	0.11991	0.31797	0.27747	0.11561	0.064125	0.10672	0.14451	0.069858	0.1306	0.05345	0.16369	0.16376	0.035401	0.10998	0.11354	-1.4958	-2.6063	-2.1021	-2.0771	-2.7104	-1.8625	-2.4688	-2.4646	-1.8979	-2.5958	-2.375	-1.9021	-2.7125	-1.8521	-2.3979	-2.7146	-110.068	-70.006	139.509	106.447	100.990	-174.674	77.512	-129.813	179.097	161.245	41.466	144.209	132.897	96.897	85.520	4.995	0.00067066	0.00033848	4.6135e-05	965.71	1.824e-06	2.4317e-06	1058.8	206.35	2.7367e-06	4.0964e-06	260.42	74.729	58.686	17.274	2.2038e-06	24.336	6.9337e-05	7.5851e-05	2.1789e-05	919.6	7.4668e-07	8.2678e-07	1006.6	194.52	7.2197e-07	8.2388e-07	241.29	70.156	51.236	16.48	7.796e-07	22.963	78.043	-75.560	166.107	-166.753	-76.208	-46.241	-166.713	-159.324	-157.609	-42.171	-159.478	-153.152	-153.411	-144.876	-21.394	-145.634	-8191	255	
1337.848	1	1	0	0	0.16677	0.22711	0.13566	0.26049	0.15266	0.095512	0.20136	0.35583	0.17756	0.18958	0.082713	0.18156	0.29898	0.15719	0.14928	0.15673	-1.2437	-2.6146	-2.1292	-2.075	-2.6458	-2.0271	-2.4208	-2.6729	-1.6875	-2.6271	-2.4875	-2.025	-2.9625	-2.1833	-2.225	-2.9125	106.506	178.044	110.257	-173.743	-111.868	-175.530	116.788	126.098	13.773	-75.700	88.825	38.019	-9.808	144.385	-88.476	34.629	0.00079269	0.0002178	7.69e-05	969.22	2.6737e-06	3.3316e-06	1062.2	205.79	2.4567e-06	5.8579e-07	258.69	74.506	57.751	17.319	1.7357e-06	24.335	7.1646e-05	7.6198e-05	2.0654e-05	919.8	7.5123e-07	8.6428e-07	1006.5	194.77	7.6942e-07	8.621e-07	240.06	70.005	51.126	16.514	7.8365e-07	22.881	71.975	-111.403	-105.431	-166.419	-143.601	-126.196	-166.568	-159.048	145.412	77.916	-159.089	-152.560	-152.914	-144.932	166.779	-145.816	-8191	255	
1337.945	1	1	0	0	0.050239	0.21115	0.1352	0.22424	0.12955	0.083076	0.058212	0.17822	0.18631	0.12053	0.08642	0.17835	0.13502	0.072288	0.017155	0.15828	-1.45	-2.5104	-2.3521	-2.0812	-2.6083	-2.225	-2.2062	-2.8875	-1.9417	-2.3729	-2.6042	-2.0021	-2.7104	-2.125	-2.0208	-2.7542	47.566	-44.282	-33.226	127.835	104.479	-14.938	51.919	126.473	-101.777	-121.336	177.995	78.498	82.930	19.377	80.503	107.862	0.00073417	0.00015621	2.7998e-05	964.85	3.5588e-07	3.9919e-06	1064.3	205.85	1.0917e-06	2.6469e-06	259.6	74.343	58.624	17.403	2.2783e-06	24.367	7.9456e-05	8.0447e-05	2.0909e-05	919.32	8.4006e-07	8.695e-07	1006.5	194.67	8.2337e-07	8.5077e-07	240.57	70.104	51.588	16.53	7.5295e-07	22.992	65.239	-84.985	-26.262	-166.179	-8.894	-46.355	-166.710	-158.892	-153.689	-126.426	-159.267	-152.836	-153.396	-145.229	-78.264	-146.052	-8191	255	
1338.065	1	1	0	0	0.23807	0.12225	0.15505	0.17276	0.14292	0.095854	0.25207	0.18091	0.22026	0.16883	0.14506	0.32213	0.09417	0.027113	0.064296	0.07468	-1.5771	-2.6562	-2.6104	-2.0792	-2.7	-2.2	-1.9375	-2.7812	-1.925	-2.3333	-2.7625	-1.9104	-2.8042	-2.3833	-2.0708	-2.65	-132.034	107.364	20.232	-113.320	-42.254	133.642	118.511	-33.504	-123.057	-76.153	-64.211	-107.193	175.751	54.820	-167.775	76.836	0.00076066	0.00020576	0.00012225	965.78	7.8541e-07	4.2074e-06	1061.1	206.46	5.0504e-06	4.3573e-06	258.39	75.231	58.929	17.406	3.2349e-07	24.533	7.9407e-05	7.4503e-05	1.9255e-05	918.91	8.2558e-07	8.167e-07	1005.1	194.79	8.4145e-07	7.8553e-07	239.75	70.294	51.678	16.484	7.2175e-07	23.019	74.791	-56.500	-159.211	-166.522	168.890	11.941	-166.486	-158.781	-122.361	-13.017	-158.953	-152.937	-152.834	-144.867	71.787	-146.048	-8191	255	
1338.160	1	1	0	0	0.30263	0.046297	0.11016	0.0087474	0.096748	0.14589	0.33427	0.014154	0.21181	0.20164	0.1218	0.084383	0.17139	0.12316	0.2174	0.25705	-1.6437	-2.2438	-2.6396	-1.9708	-2.8563	-2.2542	-2.0646	-2.8292	-2.1125	-2.3104	-2.8792	-1.9042	-2.3375	-2.5604	-1.9021	-2.8354	-80.859	160.891	-164.283	176.064	91.692	-103.189	170.629	-171.471	-118.440	159.213	-117.174	-162.544	106.469	-162.591	-55.877	157.610	0.00056347	0.00036154	0.0001112	965.4	3.9382e-06	2.5304e-06	1062	206.58	3.7314e-06	4.498e-06	259.27	74.921	58.567	17.187	1.6757e-06	24.373	8.3316e-05	7.1966e-05	1.9365e-05	918.16	8.5867e-07	7.8141e-07	1005.9	194.88	8.6719e-07	7.553e-07	239.9	70.324	51.684	16.412	7.1195e-07	23.086	65.901	-70.173	-79.780	-166.492	-126.405	-11.410	-166.507	-158.782	-99.619	-30.712	-159.537	-152.712	-152.144	-144.305	1.552	-145.471	-8191	255	
1338.233	1	1	0	0	0.11742	0.14132	0.085809	0.2586	0.25885	0.31936	0.10934	0.19015	0.10755	0.15098	0.29197	0.13032	0.098111	0.048179	0.01225	0.084791	-1.9604	-2	-2.6479	-1.9583	-2.4896	-2.4333	-2.0146	-2.6437	-2.1437	-2.1688	-2.7604	-1.9979	-2.4271	-2.5812	-1.625	-2.7313	-124.203	88.073	165.794	-164.992	9.474	133.710	-116.707	127.093	-46.893	13.637	-165.995	159.154	-91.470	94.818	49.780	-1.075	0.00075543	0.00015952	3.5836e-05	965.82	3.1495e-06	3.5028e-07	1061.1	206.57	2.5676e-06	4.1223e-06	257.81	74.466	58.687	17.403	1.3853e-06	24.426	8.3651e-05	6.9082e-05	1.8477e-05	918.74	8.3832e-07	7.6909e-07	1005.1	195.2	8.3999e-07	7.3667e-07	239.7	70.259	51.49	16.496	7.0801e-07	23.01	84.914	-98.662	4.407	-166.220	-63.909	-150.560	-166.483	-158.960	160.795	-56.440	-158.681	-152.842	-152.200	-144.646	47.892	-145.463	-8191	255	
1338.329	1	1	0	0	0.17507	0.13457	0.16393	0.2685	0.32682	0.080878	0.11084	0.118	0.36443	0.14938	0.30449	0.11539	0.23584	0.28251	0.22575	0.16101	-1.75	-1.8458	-2.7583	-1.9583	-2.2354	-2.6646	-1.9562	-2.4667	-2.4125	-2.0229	-2.8063	-2.0187	-2.3896	-2.5354	-1.8833	-2.4	48.538	-93.589	-33.201	122.016	-70.873	-155.484	152.131	100.969	18.217	75.953	89.850	161.802	-81.905	-136.612	136.738	98.798	0.00059687	8.7511e-05	6.9765e-05	965.42	1.6076e-06	1.0522e-06	1060.1	206.92	1.4219e-06	1.2111e-06	258.77	75.041	58.55	17.322	1.9243e-06	24.445	7.8618e-05	6.522e-05	1.803e-05	918.77	7.8049e-07	7.4428e-07	1004.9	195.42	8.0762e-07	7.0993e-07	240.09	70.437	51.357	16.435	7.4437e-07	23.077	76.462	-152.995	-101.790	-166.142	-19.490	11.018	-166.413	-158.592	-87.090	-34.737	-158.767	-152.188	-151.846	-144.172	11.393	-145.843	-8191	255	
1338.448	1	1	0	0	0.13299	0.12307	0.28876	0.12078	0.33279	0.13418	0.094455	0.2221	0.015298	0.083185	0.15064	0.094715	0.074342	0.059101	0.13976	0.14132	-1.9979	-1.9396	-2.7375	-2.1104	-2.0542	-2.7896	-1.8917	-2.5417	-2.5208	-1.9354	-2.5625	-2.1396	-2.0542	-2.7792	-1.9292	-2.4625	-58.061	-34.880	-140.117	126.350	-26.234	-62.487	149.275	-168.878	46.333	93.448	154.083	60.132	60.894	109.101	178.375	-104.857	0.00073519	0.00031753	9.43e-05	965.93	3.5825e-06	2.1004e-06	1063.9	205.43	3.3407e-06	2.883e-06	259.92	74.327	59.063	17.347	1.772e-06	24.226	7.599e-05	6.5642e-05	1.9548e-05	919.33	7.5605e-07	7.3162e-07	1005.4	195.23	7.6376e-07	7.0027e-07	240.54	70.159	51.446	16.424	8.1158e-07	23.026	82.193	-43.314	-134.393	-166.489	-35.936	-113.535	-166.752	-159.310	-113.933	-30.632	-159.328	-153.030	-153.005	-145.132	-19.686	-145.600	-8191	255	
1338.544	1	1	0	0	0.044885	0.13795	0.022237	0.23406	0.11247	0.1537	0.23248	0.095976	0.26296	0.10034	0.11575	0.17339	0.11649	0.11069	0.11936	0.15319	-2.1437	-1.8771	-2.7479	-2.3979	-1.8354	-2.6688	-2.2	-2.2104	-2.5479	-1.8438	-2.6958	-2.2562	-2.0042	-2.6896	-1.8729	-2.425	156.428	-46.231	179.766	-161.716	-164.524	-25.145	135.311	182.074	67.601	-176.236	96.988	124.191	135.736	-0.872	175.430	-157.101	0.00070458	4.193e-05	9.0213e-05	965.43	2.9295e-06	8.7479e-07	1058.8	207.21	1.166e-06	1.4693e-06	260	74.936	58.26	17.394	5.4626e-07	24.265	7.5531e-05	6.4552e-05	2.0871e-05	919.33	7.5895e-07	7.2756e-07	1006.1	195.4	7.6998e-07	7.0123e-07	241.16	70.369	51.208	16.455	8.5664e-07	22.969	79.915	112.815	-162.776	-166.456	-137.877	-16.802	-166.594	-159.084	-34.138	-20.798	-159.049	-153.205	-152.639	-144.648	-113.025	-145.567	-8191	255	
1338.640	1	1	0	0	0.24218	0.33946	0.08732	0.27674	0.23489	0.26448	0.24189	0.13466	0.33908	0.33055	0.0050436	0.16563	0.32002	0.21902	0.10977	0.18301	-2.1146	-1.9854	-2.6167	-2.3896	-1.6979	-2.7083	-2.3292	-2.3104	-2.6958	-1.7354	-2.4521	-2.3542	-1.8937	-2.7146	-1.9042	-2.0167	169.879	-127.149	164.908	140.207	-103.778	11.338	128.632	-22.952	180.736	-50.941	-26.626	164.694	-136.131	-167.459	-78.701	34.725	0.00080322	0.00018753	4.5697e-05	969.63	2.0155e-06	9.3828e-07	1061.4	207.08	3.3236e-06	3.4284e-06	258.48	75.245	58.722	17.205	1.855e-06	24.403	7.4077e-05	6.7518e-05	2.1705e-05	920.26	7.3329e-07	7.5133e-07	1007.6	195.09	7.5804e-07	7.6974e-07	240.91	70.421	51.168	16.433	8.2868e-07	23.023	73.749	-162.111	51.917	-166.405	-93.778	-5.486	-166.482	-158.748	-102.294	-48.270	-159.417	-152.858	-152.736	-144.667	-145.993	-145.159	-8191	255	
1338.736	1	1	0	0	0.21006	0.072039	0.13871	0.25277	0.10737	0.12504	0.1963	0.047453	0.1359	0.21319	0.243	0.14467	0.20128	0.11776	0.14287	0.20681	-2.3771	-1.8833	-2.4771	-2.5938	-1.7458	-2.8438	-2.3333	-2.1	-2.775	-2.0333	-2.4813	-2.4917	-2.0167	-2.7292	-2.1167	-2.1979	167.896	-66.638	40.710	179.444	-165.492	88.323	102.803	-114.775	67.376	-81.764	101.894	157.494	125.744	-36.528	103.297	-105.205	0.00066109	0.00016455	9.5736e-05	971.52	9.4485e-07	1.6759e-06	1062.2	207.77	3.7506e-06	2.9963e-06	259.96	74.959	58.437	17.351	1.309e-06	24.26	7.1778e-05	7.2163e-05	2.0578e-05	921.29	7.1953e-07	7.892e-07	1006.2	194.94	7.2311e-07	8.0784e-07	241.01	70.359	51.097	16.516	8.2512e-07	22.967	73.730	-160.281	-143.543	-166.389	-138.534	-95.296	-166.498	-158.896	-88.105	-84.029	-158.883	-152.688	-152.144	-144.831	140.367	-145.489	-8191	255	
1338.833	1	1	0	0	0.14406	0.10673	0.20222	0.070489	0.042074	0.11972	0.31505	0.3604	0.1839	0.086181	0.17464	0.1669	0.12134	0.05997	0.43457	0.051011	-2.4562	-1.9458	-2.3854	-2.6813	-1.8458	-2.5667	-2.3333	-1.9667	-2.8833	-1.8479	-2.3146	-2.7479	-1.9021	-2.8521	-2.4542	-1.9646	36.666	177.253	-3.116	149.615	31.120	-15.277	113.994	-89.898	142.705	112.447	-10.892	75.593	-151.796	52.171	176.914	165.515	0.00073132	0.00022204	5.0551e-05	966.72	9.9803e-07	1.0878e-06	1067.2	207.25	1.5269e-06	2.22e-06	261.44	75.284	58.722	17.457	3.5988e-06	24.217	7.0697e-05	7.6283e-05	2.0003e-05	919.74	7.3556e-07	8.3419e-07	1007.2	194.81	7.3559e-07	8.3449e-07	241.2	70.34	51.353	16.528	7.8104e-07	22.92	73.630	145.968	58.880	-166.196	141.223	-32.539	-166.092	-158.731	-112.582	-26.335	-159.230	-152.749	-152.566	-144.604	-67.210	-145.060	-8191	255	
1338.929	1	1	0	0	0.24314	0.27466	0.18686	0.30274	0.088975	0.18969	0.050523	0.23388	0.050617	0.1497	0.12333	0.024839	0.13747	0.20612	0.28753	0.018353	-2.3896	-2.0167	-2.0292	-2.7854	-1.7479	-2.5396	-2.5167	-1.8083	-2.85	-2.0021	-2.2687	-2.7896	-1.9375	-2.4375	-2.5208	-1.8188	13.708	172.402	36.869	134.244	-161.093	-137.335	-161.372	125.690	-147.173	-42.694	68.706	149.890	148.847	38.311	-153.216	144.843	0.00075698	0.00017537	3.6287e-05	972.64	1.5073e-06	1.0031e-06	1059.1	206.12	1.9347e-06	1.1547e-06	258.17	74.557	58.617	17.358	1.1812e-06	24.492	7.4776e-05	7.8407e-05	1.8975e-05	920.84	7.9151e-07	8.426e-07	1006	194.71	7.9479e-07	8.4105e-07	239.98	70.186	51.477	16.49	7.7747e-07	22.994	81.930	-88.179	59.269	-166.313	173.009	166.914	-166.480	-158.641	-110.568	-38.346	-158.868	-152.340	-152.613	-144.590	-71.141	-145.108	-8191	255	
1339.025	1	1	0	0	0.12313	0.26543	0.1892	0.21455	0.12553	0.039366	0.21185	0.19096	0.22795	0.056266	0.29609	0.17333	0.32397	0.1285	0.083947	0.18205	-2.2917	-2.275	-1.8375	-2.825	-1.7792	-2.3229	-2.8521	-1.9292	-2.6583	-2.1146	-2.0958	-2.7354	-1.9062	-2.3208	-2.6583	-1.65	-71.260	42.169	75.601	113.292	126.926	7.284	178.396	108.116	107.920	-27.727	130.742	129.034	-93.439	-39.718	-32.781	118.553	0.0004829	0.00023364	4.1729e-05	967.95	2.0994e-06	3.4942e-06	1062.7	206.36	1.0937e-06	3.2432e-06	258.34	75.063	58.374	17.406	1.141e-06	24.244	7.9402e-05	7.6818e-05	1.8938e-05	920.36	8.3793e-07	8.2037e-07	1006.9	195.04	8.4268e-07	8.3533e-07	239.99	70.261	51.55	16.502	7.5591e-07	22.966	74.027	-106.703	-159.556	-166.177	-115.445	-64.160	-166.219	-158.346	-136.014	-44.918	-159.064	-152.514	-153.022	-144.311	9.065	-145.365	-8191	255	
1339.146	1	1	0	0	0.17292	0.19692	0.17395	0.15786	0.14627	0.073944	0.23544	0.11254	0.13795	0.18417	0.24077	0.15076	0.23361	0.12543	0.24306	0.069847	-2.4625	-2.2958	-1.9104	-2.7875	-1.9875	-2.1625	-2.6813	-1.9979	-2.425	-2.2896	-1.8	-2.7396	-1.9979	-1.9917	-2.6562	-1.9813	17.130	1.847	62.770	173.168	-39.493	-21.023	143.699	67.602	-22.957	43.202	89.866	98.531	-138.780	-164.604	-126.685	114.413	0.00078659	0.00035794	7.1389e-06	966.32	1.6081e-06	8.2243e-07	1062	207.32	2.4033e-06	3.0269e-06	258.72	74.561	58.383	17.346	8.2244e-07	24.253	8.2321e-05	7.3553e-05	1.8432e-05	920.4	8.6941e-07	7.6828e-07	1007.3	194.92	8.6392e-07	7.7981e-07	240.06	70.294	51.638	16.446	7.2804e-07	22.92	71.856	-70.176	-61.256	-166.287	-122.379	95.059	-166.279	-158.983	-125.530	3.615	-158.706	-152.739	-153.359	-144.472	-38.297	-145.135	-8191	255	
1339.240	1	1	0	0	0.14189	0.20584	0.13295	0.031789	0.30806	0.17578	0.26353	0.1969	0.22751	0.20917	0.051873	0.14676	0.09225	0.2549	0.062105	0.16023	-2.2021	-2.4396	-1.8896	-2.8708	-2.1042	-2.0812	-2.7708	-2.1063	-2.45	-2.5375	-1.9375	-2.7021	-2.1792	-2.3167	-2.8208	-2.1979	-174.479	76.900	-17.210	56.146	93.773	7.992	109.575	169.927	-108.258	-76.822	-106.484	87.578	28.280	-169.130	-36.086	-166.592	0.00059568	0.00035929	5.2044e-05	968.21	3.9798e-06	2.6634e-06	1062.8	206.26	2.4797e-06	1.1721e-06	259.02	74.632	58.108	17.32	1.5256e-06	24.286	8.2067e-05	7.0051e-05	1.8005e-05	919.93	8.7543e-07	7.302e-07	1006.9	195.35	8.6573e-07	7.7713e-07	240.45	70.463	51.38	16.46	7.3074e-07	23.051	75.013	-57.384	-67.905	-166.163	-99.560	21.788	-166.028	-158.637	179.513	-60.099	-158.662	-152.014	-152.137	-144.437	-24.071	-145.464	-8191	255	
1339.338	1	1	0	0	0.13696	0.038875	0.25918	0.25812	0.046642	0.23051	0.27463	0.24637	0.094262	0.22264	0.07193	0.32498	0.22985	0.12472	0.080558	0.24181	-1.8229	-2.5604	-1.7542	-2.8708	-2.375	-2.1125	-2.8958	-2.0062	-2.2396	-2.7708	-1.7812	-2.7396	-2.3542	-1.8917	-2.7854	-2.0208	-124.861	-99.206	-141.892	157.146	-106.428	84.563	114.493	-19.818	-24.723	-4.540	-50.694	41.417	-31.211	-165.534	159.010	121.449	0.00062984	0.0001663	5.3121e-05	970.73	2.5962e-06	3.5641e-06	1063.3	205.52	3.5099e-06	2.0941e-06	259.13	74.77	59.116	17.319	3.3086e-06	24.419	7.8932e-05	6.9777e-05	1.8261e-05	922.18	8.4384e-07	7.3693e-07	1007.3	195.29	8.2201e-07	7.63e-07	240.31	70.508	51.66	16.471	7.6679e-07	23.095	64.802	-163.715	143.158	-166.262	-19.763	-49.558	-166.136	-158.769	-71.933	-142.699	-159.083	-152.443	-152.200	-144.445	-70.983	-145.004	-8191	255	
1339.457	1	1	0	0	0.15484	0.038268	0.029864	0.36485	0.15125	0.15319	0.32166	0.11482	0.20053	0.054822	0.11761	0.16128	0.10616	0.093183	0.1668	0.096486	-2.0042	-2.7062	-1.7125	-2.6208	-2.4813	-1.8875	-2.8146	-1.8438	-2.1833	-2.6417	-1.9729	-2.425	-2.5354	-1.8333	-2.7667	-2.3187	2.057	161.027	-86.949	164.720	-77.854	-69.486	-150.754	-113.512	105.774	-49.208	-35.164	175.212	-112.156	-148.552	-116.338	128.178	0.00057024	8.3855e-05	0.00012075	968.23	1.8877e-06	1.6256e-06	1065.2	206.5	2.1487e-06	5.0083e-06	259.46	74.864	58.213	17.179	9.8469e-07	24.424	7.8216e-05	6.9892e-05	1.9762e-05	921.86	8.0973e-07	7.1433e-07	1009.3	195.74	7.9493e-07	7.4422e-07	240.65	70.598	51.386	16.402	8.2418e-07	23.075	68.997	-113.654	-130.593	-165.771	-59.227	-44.645	-166.123	-158.740	-108.136	-50.975	-158.721	-152.160	-152.637	-144.270	-161.141	-145.063	-8191	255	
1339.528	1	1	0	0	0.29783	0.2342	0.062889	0.10977	0.054299	0.1796	0.15493	0.17931	0.29347	0.15203	0.22962	0.095315	0.21033	0.24151	0.24868	0.2205	-1.5479	-2.5792	-1.9438	-2.5792	-2.4333	-1.9854	-2.9708	-2.1937	-2.0083	-2.7104	-1.8521	-2.3167	-2.5104	-1.8021	-2.6208	-2.2958	32.096	112.050	-46.153	-162.664	105.525	81.667	135.362	175.208	141.772	-3.762	68.075	104.904	-118.875	120.784	175.674	3.549	0.00081111	0.00022713	9.8325e-05	969.29	3.0529e-06	1.9273e-06	1061.9	206.33	2.5737e-06	3.4055e-06	258.84	74.851	58.137	17.299	1.9403e-06	24.414	7.5756e-05	6.9889e-05	2.1451e-05	921.19	7.9978e-07	7.3433e-07	1007.1	195.39	7.7241e-07	7.6272e-07	240.5	70.61	51.239	16.463	8.7674e-07	23.028	64.681	-60.802	-147.941	-165.787	-22.775	-82.994	-166.138	-158.799	-127.860	-49.582	-159.150	-152.723	-153.384	-145.097	-44.774	-145.767	-8191	255	
1339.625	1	1	0	0	0.20863	0.067535	0.11356	0.015064	0.30326	0.22733	0.18395	0.094476	0.13388	0.36723	0.07756	0.07298	0.20778	0.17563	0.098223	0.062642	-1.5958	-2.7333	-1.7687	-2.375	-2.6792	-1.8771	-2.6917	-2.4437	-1.7875	-2.7604	-2.05	-2.3042	-2.7479	-1.5125	-2.5792	-2.5375	22.242	-125.738	159.445	-110.713	146.697	26.653	145.778	-28.591	-2.989	-160.604	118.358	-125.945	-140.230	88.565	162.666	87.234	0.00071085	0.00014373	4.6721e-05	973.62	3.1612e-06	2.2154e-06	1060.6	206.39	2.0072e-06	1.6085e-06	259.32	75.045	58.758	17.395	1.2953e-06	24.341	7.531e-05	7.0341e-05	2.2879e-05	922.15	7.8615e-07	7.6163e-07	1007.9	195.72	7.5162e-07	7.9084e-07	241.38	70.442	51.459	16.513	8.5999e-07	23.026	71.814	-128.669	-58.396	-166.588	-43.801	13.018	-166.577	-159.268	-126.546	-37.680	-159.570	-152.654	-153.042	-145.685	-68.283	-146.013	-8191	255	
1339.745	1	1	0	0	0.085818	0.13004	0.036444	0.18692	0.20092	0.16529	0.18259	0.34114	0.15867	0.042007	0.062029	0.11058	0.080583	0.22502	0.17465	0.1544	-1.5104	-2.7583	-1.9813	-2.0438	-2.6979	-1.8542	-2.6396	-2.4646	-1.9354	-2.7562	-2.1813	-2.0187	-2.6583	-1.85	-2.4062	-2.6	-134.669	-118.540	-176.742	155.239	-57.201	23.597	129.306	111.985	-68.851	-36.848	20.751	-100.813	-78.394	113.866	147.574	26.121	0.00073047	0.00020788	5.3012e-05	969.28	5.654e-06	1.214e-06	1061.4	206.87	4.0598e-06	2.4626e-06	259.65	75.481	59.225	17.38	2.2115e-06	24.347	7.1828e-05	7.3065e-05	2.2223e-05	921.91	7.6603e-07	8.0374e-07	1008.1	195.37	7.4125e-07	8.1962e-07	241.55	70.528	51.428	16.531	8.4469e-07	23.016	68.826	-87.488	15.827	-166.672	-62.562	-163.475	-166.864	-159.306	-106.602	131.993	-159.770	-153.347	-153.325	-144.688	-144.013	-146.258	-8191	255	
1339.841	1	1	0	0	0.24455	0.082742	0.40099	0.22707	0.16246	0.2102	0.17917	0.071128	0.22585	0.31381	0.16422	0.12941	0.22033	0.15487	0.077245	0.31481	-1.2687	-2.8	-2.2104	-2.1229	-2.95	-1.9396	-2.4625	-2.7667	-1.8563	-2.5375	-2.1667	-1.9979	-2.6854	-1.9708	-2.1813	-2.7375	-101.904	-144.981	-90.804	69.750	-129.603	47.832	170.259	52.457	-108.512	90.212	-175.958	-161.394	-0.634	-82.547	79.701	171.539	0.00072689	0.00018577	6.9221e-05	970.14	1.7688e-06	1.6814e-06	1061.7	206.62	2.368e-06	2.6394e-06	258.79	75.076	58.691	17.35	4.0604e-06	24.226	7.179e-05	7.7026e-05	2.1437e-05	922.06	7.7522e-07	8.5386e-07	1009	195.59	7.4676e-07	8.6206e-07	240.78	70.479	51.366	16.553	8.0795e-07	22.994	74.219	-140.162	-108.519	-166.998	175.820	-118.316	-166.858	-159.376	-107.576	-128.319	-159.367	-153.145	-152.776	-145.208	-36.056	-145.706	-8191	255	
1339.937	1	1	0	0	0.093815	0.13425	0.25178	0.053225	0.11086	0.15619	0.15177	0.22486	0.13113	0.18531	0.11798	0.17061	0.14879	0.23711	0.18131	0.073785	-1.5333	-2.5208	-2.2729	-1.8521	-2.6063	-2.0125	-2.3854	-2.8542	-1.775	-2.5354	-2.3688	-1.9042	-2.6562	-2.1333	-2.3208	-2.6917	-156.356	2.589	-114.737	36.545	-39.173	108.137	119.605	152.032	65.181	109.930	14.228	-77.482	6.468	-147.096	116.666	156.280	0.00067219	0.0003181	5.3049e-05	969.86	1.2571e-06	1.3708e-06	1064.4	207.43	3.4894e-06	2.4428e-06	261.43	75.393	58.875	17.334	1.0864e-06	24.242	7.5085e-05	7.9752e-05	2.0712e-05	921.86	8.0112e-07	8.7938e-07	1008.8	195.97	8.1142e-07	8.5685e-07	241.14	70.485	51.696	16.541	7.6394e-07	23	76.017	-87.354	-126.735	-166.691	53.387	177.268	-166.770	-158.950	-122.113	-20.547	-159.115	-152.079	-152.634	-144.440	60.376	-145.683	-8191	255	
1340.034	1	1	0	0	0.12654	0.13624	0.30415	0.25917	0.12806	0.13273	0.30455	0.20305	0.23358	0.1161	0.11943	0.13081	0.081595	0.30422	0.12821	0.22996	-1.3188	-2.4146	-2.5271	-2.0958	-2.6833	-2.15	-2.2438	-2.6917	-2.0292	-2.4313	-2.5479	-1.9354	-2.6792	-2.3729	-1.9875	-2.8354	-152.852	-84.720	-161.880	163.178	132.317	-7.706	102.652	164.830	48.212	-144.500	-156.097	-59.618	-32.756	119.259	-104.742	-22.966	0.00080242	0.00035271	7.3442e-05	967.06	2.5178e-06	6.7237e-07	1067	207.21	3.3407e-06	2.1403e-07	260.54	74.529	58.46	17.211	1.6844e-06	24.298	8.0414e-05	7.7017e-05	2.0081e-05	919.71	8.4621e-07	8.6003e-07	1009.3	195.33	8.6883e-07	8.4603e-07	241.3	70.185	51.504	16.484	7.7657e-07	23.009	60.937	-50.385	-33.883	-165.962	177.347	-169.263	-165.838	-158.442	-149.662	-106.156	-158.786	-152.020	-152.577	-144.181	-50.100	-144.976	-8191	255	
1340.130	1	1	0	0	0.18076	0.070117	0.153	0.12498	0.2369	0.15719	0.097376	0.073019	0.1471	0.19402	0.18899	0.1213	0.17366	0.094788	0.17416	0.13432	-1.7896	-2.2771	-2.6396	-1.9083	-2.6979	-2.3	-2.1229	-2.7396	-2.1354	-2.2833	-2.7083	-1.7979	-2.4729	-2.3896	-1.8813	-2.7708	-78.633	176.168	71.315	159.389	-149.469	-140.462	-157.335	-171.297	47.788	67.215	84.884	137.829	137.783	-84.201	-92.248	-133.294	0.00084003	9.9724e-05	6.3872e-05	968.1	1.0531e-06	2.2512e-06	1066.6	206.33	5.4931e-06	2.4671e-06	260.76	75	58.867	17.283	1.8844e-06	24.189	8.5358e-05	7.4613e-05	1.9826e-05	920.9	8.8779e-07	8.1937e-07	1008	195.51	9.0977e-07	8.0385e-07	240.38	70.288	51.805	16.503	7.4621e-07	23.035	66.020	-56.556	-109.796	-165.647	-69.072	-73.447	-165.513	-157.973	-126.590	-35.829	-158.267	-152.086	-152.144	-144.340	-70.448	-145.485	-8191	255	
1340.226	1	1	0	0	0.10932	0.098389	0.19044	0.16386	0.16258	0.11962	0.32635	0.21902	0.089633	0.10237	0.2833	0.18779	0.10929	0.29359	0.29734	0.073244	-1.6187	-2.1333	-2.925	-1.9292	-2.4646	-2.4875	-1.9875	-2.6646	-2.0521	-1.9688	-2.8354	-1.8937	-2.425	-2.5521	-1.9521	-2.8125	70.591	138.380	147.642	-38.814	129.268	-47.718	92.285	82.894	39.366	18.956	119.435	-166.664	-156.335	128.893	47.640	-167.027	0.00080508	0.00032908	6.1537e-05	969.67	2.9652e-06	6.0008e-07	1058.8	207.66	6.2165e-06	2.0272e-06	260.69	74.298	58	17.306	1.044e-06	24.547	8.7121e-05	7.2751e-05	1.9568e-05	921.03	8.7408e-07	8.1196e-07	1007.8	196.1	8.847e-07	7.6396e-07	240.99	70.479	51.445	16.488	7.3286e-07	23.11	74.507	-60.608	127.145	-166.034	-58.808	-78.246	-165.815	-158.409	-109.860	9.911	-158.235	-152.054	-152.216	-143.881	-53.239	-144.763	-8191	255	
1340.320	1	1	0	0	0.11916	0.19204	0.094991	0.069055	0.15417	0.13797	0.068303	0.071774	0.10199	0.04964	0.13961	0.21988	0.26583	0.21225	0.28948	0.28069	-1.8375	-1.8312	-2.8063	-2.1104	-2.5687	-2.6792	-2.0042	-2.8479	-2.1437	-1.9667	-2.85	-2.1146	-2.1542	-2.7229	-1.8438	-2.7188	89.521	122.800	163.449	-10.665	169.844	-3.322	-174.264	157.064	4.926	19.828	-97.763	129.348	-20.558	112.618	-155.719	-110.054	0.00064228	0.0001977	6.6145e-05	970.66	5.5271e-07	1.8033e-06	1060.8	207.64	3.6251e-06	1.5908e-06	259.84	74.698	58.718	17.392	1.634e-06	24.47	8.5131e-05	7.1042e-05	1.9169e-05	923.59	8.5217e-07	8.0665e-07	1008.2	196.19	8.7194e-07	7.7286e-07	241.4	70.44	51.597	16.452	7.5905e-07	23.156	74.510	-127.353	-118.830	-165.684	82.236	-55.091	-165.982	-158.581	-100.811	-35.746	-158.285	-151.996	-151.554	-144.443	-171.707	-144.560	-8191	255	
1340.418	1	1	0	0	0.33412	0.19069	0.46898	0.17365	0.046094	0.062314	0.22472	0.18623	0.45049	0.21477	0.27977	0.29997	0.17067	0.14234	0.028071	0.14542	-2.0896	-1.8104	-2.8	-1.9708	-2.3396	-2.7208	-2.0583	-2.6979	-2.3646	-1.9396	-2.8958	-2.0146	-2.1458	-2.6	-1.9937	-2.5958	79.841	126.176	14.561	-165.263	38.590	-49.326	148.035	121.718	126.157	147.648	131.314	-114.985	-5.423	-174.913	-135.927	-105.293	0.00078864	0.00038532	8.4355e-05	971.76	3.2768e-06	7.0457e-07	1063.3	207.2	1.8481e-06	4.495e-06	260.11	74.534	58.697	17.169	4.044e-06	24.464	8.2081e-05	6.8235e-05	2.0075e-05	922.98	8.2207e-07	7.7028e-07	1007.7	196.43	8.1823e-07	7.3506e-07	241.27	70.376	51.566	16.44	8.1571e-07	23.181	85.668	-79.150	-157.825	-165.869	-143.316	-28.914	-166.040	-158.581	-106.750	-44.944	-158.488	-152.139	-151.687	-144.461	-73.971	-144.382	-8191	255	
1340.537	1	1	0	0	0.21651	0.079208	0.080319	0.20915	0.13169	0.24762	0.17227	0.20713	0.063111	0.17732	0.13336	0.23241	0.23502	0.14894	0.087861	0.2551	-1.8896	-1.9917	-2.7062	-2.2854	-2.2354	-2.7604	-2.0875	-2.4979	-2.6604	-1.7396	-2.7583	-2.2146	-2.2	-2.6979	-1.9708	-2.4646	-96.949	30.934	167.220	180.387	-73.395	115.774	37.261	-103.907	69.795	-171.825	-96.205	-2.908	101.405	-148.222	-54.953	134.644	0.0007173	0.00011344	0.0001429	969.87	6.9131e-07	2.8615e-06	1062.6	208.15	3.2258e-06	2.7332e-06	262.61	74.798	58.426	17.358	2.1122e-06	24.479	7.8456e-05	6.7016e-05	2.1211e-05	922.36	8.0372e-07	7.5381e-07	1008.6	196.46	8.1714e-07	7.383e-07	242.17	70.562	51.437	16.452	8.779e-07	23.072	76.859	-76.188	-138.251	-165.992	-52.244	-131.526	-165.926	-157.940	-151.565	-30.262	-158.123	-152.162	-152.061	-144.161	-31.564	-144.336	-8191	255	
1340.633	1	1	0	0	0.044918	0.2709	0.12263	0.19872	0.20186	0.085286	0.044066	0.034941	0.22579	0.20398	0.23317	0.26211	0.12641	0.14159	0.30435	0.095751	-2.0417	-1.7354	-2.675	-2.3396	-2.025	-2.6604	-2.075	-2.3375	-2.5708	-1.7167	-2.6188	-2.4562	-1.6479	-2.6646	-1.8979	-2.2604	0.896	40.433	85.461	151.240	42.276	62.243	161.860	-18.795	-139.945	96.358	112.679	106.132	95.349	-113.614	106.453	-106.418	0.0008527	0.00025197	0.00010677	972.4	1.7223e-06	1.1775e-06	1061.7	207.61	1.988e-06	2.426e-06	258.6	74.374	59.158	17.26	9.0345e-07	24.539	7.9296e-05	6.8048e-05	2.2352e-05	924.6	7.7715e-07	7.8006e-07	1011.1	196.21	8.1374e-07	7.8641e-07	241.49	70.333	51.448	16.527	9.3058e-07	23.097	63.296	-130.213	-139.379	-165.622	-54.584	-80.165	-165.929	-158.104	-87.376	-107.729	-158.538	-152.011	-152.077	-143.963	-114.382	-144.519	-8191	255	
1340.729	1	1	0	0	0.092051	0.21461	0.13956	0.15485	0.20957	0.11926	0.29791	0.16097	0.26727	0.25027	0.18231	0.18598	0.35467	0.23918	0.15032	0.26868	-2.3333	-1.8625	-2.3312	-2.5854	-1.8	-2.6292	-1.9521	-2.2562	-2.9021	-1.9417	-2.4875	-2.4896	-1.7292	-2.7583	-2.1688	-1.9729	183.248	-134.393	93.794	80.754	-77.906	-117.225	156.400	-12.215	115.431	26.767	100.461	43.988	-137.808	10.127	51.266	-102.207	0.00083092	0.00014264	7.2826e-05	969.06	2.4459e-06	1.5724e-06	1067.9	207.74	2.9351e-06	2.3205e-06	260.86	74.56	58.586	17.369	1.5868e-06	24.301	7.8508e-05	7.4772e-05	2.271e-05	922.27	7.8214e-07	8.4361e-07	1013	196	7.9951e-07	8.5693e-07	242.25	70.436	51.37	16.534	9.1895e-07	23.013	62.807	-41.200	-35.509	-165.214	-75.398	-83.317	-165.811	-158.546	-107.315	-50.646	-158.334	-152.198	-152.484	-143.756	-27.365	-144.566	-8191	255	
1340.826	1	1	0	0	0.17893	0.098573	0.3099	0.21943	0.16437	0.092292	0.28619	0.1599	0.17237	0.0682	0.12836	0.04212	0.044411	0.13211	0.1201	0.031974	-2.3896	-1.8396	-2.5708	-2.6312	-1.9125	-2.6292	-2.2438	-1.9521	-2.7875	-1.9625	-2.35	-2.7104	-1.8833	-2.575	-2.325	-1.7271	-151.468	-85.475	141.025	135.194	99.720	153.329	56.908	-19.932	58.455	-73.546	121.595	-130.879	-54.316	-146.710	-91.595	-130.427	0.00064036	0.00029061	9.0681e-05	970.06	3.1371e-06	3.0721e-06	1066.4	207.27	1.6286e-06	9.6779e-07	260.45	74.899	58.659	17.431	1.9149e-06	24.426	7.7678e-05	8.2131e-05	2.2116e-05	923.12	7.9203e-07	9.0123e-07	1011.1	195.72	8.1774e-07	9.1438e-07	241.81	70.714	51.449	16.619	8.8065e-07	23.066	65.520	-146.322	-30.585	-165.684	-101.757	-34.339	-165.973	-158.395	-100.122	-21.272	-158.006	-151.860	-152.230	-144.354	-2.728	-145.045	-8191	255	
1340.922	1	1	0	0	0.35239	0.13378	0.15644	0.24287	0.067646	0.3031	0.31356	0.20624	0.25186	0.16706	0.11229	0.074812	0.2481	0.093887	0.090332	0.11754	-2.3271	-1.8375	-2.2	-2.5812	-1.9167	-2.5479	-2.3438	-2.0396	-2.8563	-2.0646	-2.2042	-2.7938	-1.8104	-2.4396	-2.325	-2.0271	-1.700	-55.889	76.628	157.215	30.072	85.064	65.830	159.796	-65.201	77.008	69.015	153.118	64.302	-56.028	-28.893	139.146	0.00065129	0.00026116	0.00011689	971.39	6.2142e-07	2.0039e-06	1074.6	207.98	2.2253e-06	2.3631e-06	259.56	75.398	58.337	17.36	6.2199e-07	24.367	8.0459e-05	8.4154e-05	2.1054e-05	923.79	8.1795e-07	9.1633e-07	1011.8	195.63	8.304e-07	9.2001e-07	241.39	70.489	51.664	16.612	8.2672e-07	23.027	80.978	48.945	-76.294	-165.709	49.799	-57.974	-166.097	-158.508	-110.894	-74.839	-158.579	-152.489	-152.806	-144.230	152.450	-145.265	-8191	255	
1341.018	1	1	0	0	0.054313	0.14721	0.066003	0.31125	0.22521	0.10286	0.17575	0.059757	0.22745	0.14123	0.069844	0.20391	0.17002	0.13008	0.20949	0.053912	-2.3438	-2.0708	-2.0812	-2.7604	-1.7729	-2.6312	-2.8187	-2.025	-2.7625	-2.1	-2.3396	-2.8	-1.8062	-2.3854	-2.6	-1.7833	-10.108	-151.628	-72.205	121.563	-131.388	159.874	151.878	17.852	-48.164	122.572	176.193	-30.600	59.553	78.376	-29.410	154.712	0.00069543	0.00029931	6.6135e-05	972.51	1.3996e-06	2.7807e-06	1064.3	206.38	4.218e-06	2.3659e-06	260.92	74.837	59.691	17.398	1.6562e-06	24.47	8.2878e-05	8.3246e-05	1.9909e-05	923.45	8.6573e-07	8.8269e-07	1009.9	195.69	8.9402e-07	9.0179e-07	241.55	70.421	52.041	16.571	8.0348e-07	23.057	67.703	-92.997	-106.995	-165.960	-60.801	-37.673	-165.830	-158.221	-115.537	-79.397	-158.295	-152.142	-152.718	-143.968	-76.902	-144.723	-8191	255	
1341.138	1	1	0	0	0.16139	0.10434	0.17011	0.16505	0.18362	0.23843	0.11837	0.16676	0.046463	0.24768	0.31284	0.065882	0.11066	0.1032	0.12946	0.028932	-2.2438	-2.2146	-1.8729	-2.8167	-1.9937	-2.0687	-2.825	-1.6979	-2.6271	-2.1896	-1.95	-2.7104	-2.0292	-2.3521	-2.4208	-1.8604	157.706	103.700	151.648	162.740	-4.200	11.018	102.878	157.775	86.595	117.306	32.795	-67.763	60.847	-169.543	138.473	42.089	0.00060873	0.00026488	8.1242e-05	975.39	1.3949e-06	3.8115e-06	1064.2	207.04	3.2573e-06	1.4334e-06	261.48	74.975	59.017	17.349	1.9803e-06	24.435	8.6671e-05	7.8884e-05	1.9382e-05	925.36	9.1119e-07	8.2429e-07	1010	196.05	9.1181e-07	8.3794e-07	241.15	70.353	51.844	16.553	7.7845e-07	23.08	74.966	-106.946	-75.125	-165.530	14.658	-48.934	-165.809	-158.290	-67.308	146.934	-158.017	-151.647	-151.676	-143.402	-29.463	-144.236	-8191	255	
1341.233	1	1	0	0	0.018724	0.044793	0.28792	0.069262	0.041886	0.12094	0.17672	0.11277	0.13583	0.23296	0.19119	0.26996	0.10363	0.21942	0.054899	0.22495	-2.1229	-2.3375	-1.8958	-2.7521	-2.0729	-2.2188	-2.7292	-1.9646	-2.5771	-2.5833	-1.7687	-2.6792	-2.3	-1.9708	-2.9313	-1.725	57.993	27.607	160.957	15.628	56.925	55.402	122.075	-73.626	-136.898	24.774	129.312	-152.341	-2.183	8.798	101.386	-120.120	0.00054008	0.00030938	7.1229e-05	971.89	1.805e-06	9.1135e-07	1066.4	205.91	3.3491e-06	4.5124e-06	259.55	75.465	58.491	17.427	1.5815e-06	24.351	8.7007e-05	7.5316e-05	1.9097e-05	923.46	9.3674e-07	8.1565e-07	1009.1	195.57	9.2126e-07	8.274e-07	241.14	70.657	51.988	16.491	7.8102e-07	23.139	66.030	-86.725	-141.406	-165.370	-127.028	-129.934	-165.588	-157.969	-163.756	24.161	-158.381	-152.263	-152.223	-144.294	-64.707	-145.331	-8191	255	
1341.329	1	1	0	0	0.091942	0.30724	0.13021	0.33989	0.0013785	0.12004	0.12501	0.36754	0.069444	0.066881	0.1526	0.12763	0.13883	0.11532	0.18192	0.20336	-2.2542	-2.55	-1.6437	-2.8417	-2.1813	-2.0229	-2.8521	-1.8104	-2.2875	-2.5542	-1.8875	-2.7896	-2.0396	-2.0187	-2.8833	-1.9083	-159.547	-91.357	-168.394	140.254	180.000	-142.416	133.377	50.369	-126.550	-165.516	6.781	65.851	135.082	148.852	26.963	175.528	0.0005661	0.00039485	7.7555e-05	971.42	1.7633e-06	1.0007e-06	1066	207.84	7.8403e-07	3.3435e-06	260	74.921	58.481	17.33	6.8625e-07	24.267	8.639e-05	7.7111e-05	1.9349e-05	925.06	9.198e-07	8.0423e-07	1010.7	196.38	8.7404e-07	8.1827e-07	241.21	70.595	51.663	16.545	8.0198e-07	23.166	68.071	-68.250	-134.392	-165.963	-55.203	15.332	-165.908	-158.255	-66.892	-23.118	-158.475	-151.730	-152.011	-144.001	-26.432	-144.438	-8191	255	
1341.425	1	1	0	0	0.18399	0.12431	0.43103	0.38938	0.23668	0.10392	0.030952	0.2931	0.39668	0.1676	0.24945	0.17828	0.1486	0.23674	0.36167	0.31939	-2.1063	-2.6188	-1.7667	-2.475	-2.3458	-1.8583	-2.9271	-2.1604	-2.2229	-2.5479	-1.8521	-2.6188	-2.2938	-1.9125	-2.7583	-2.0396	132.646	47.429	-171.846	80.971	71.725	-106.324	131.072	-41.434	-150.592	81.965	141.679	117.306	45.510	143.473	-23.898	-147.473	0.00079651	0.0001427	7.7052e-05	971.63	1.9886e-06	4.3862e-06	1068.4	208.44	1.9327e-06	5.8494e-07	260.84	75.296	59.055	17.368	2.5682e-06	24.311	8.036e-05	7.2669e-05	1.9712e-05	925.46	8.67e-07	7.7585e-07	1010.6	196.81	8.3682e-07	8.0103e-07	241.31	70.769	51.676	16.484	8.442e-07	23.144	83.088	-167.416	-123.121	-165.450	-8.049	-57.122	-165.791	-158.224	-147.948	-81.951	-158.199	-151.645	-152.025	-144.471	-74.116	-144.828	-8191	255	
1341.521	1	1	0	0	0.2536	0.075598	0.089914	0.36305	0.18772	0.30934	0.12738	0.1262	0.10716	0.22372	0.095009	0.083396	0.086845	0.09864	0.29633	0.14784	-1.6042	-2.6354	-2.0625	-2.6979	-2.4542	-1.9937	-2.85	-2.1312	-2.0146	-2.8625	-1.9937	-2.4396	-2.5854	-1.9292	-2.8354	-2.3563	-32.515	-89.071	89.961	152.221	-15.829	-122.520	147.076	-129.208	49.706	-59.982	-131.421	-97.517	-85.484	-139.726	-106.639	59.167	0.00076822	0.00012035	4.634e-05	974.1	1.2337e-06	1.0031e-06	1067.9	207.26	4.0728e-06	2.7798e-06	259.8	74.54	58.819	17.407	1.2746e-06	24.486	8.0189e-05	7.1881e-05	2.1842e-05	925.47	8.6452e-07	7.7626e-07	1012.5	196.24	8.2342e-07	8.0031e-07	241.51	70.644	51.818	16.546	9.0505e-07	23.197	72.448	-64.241	-139.551	-165.613	-113.966	8.338	-165.717	-158.136	-107.546	-24.520	-158.038	-151.703	-151.929	-143.776	-110.835	-144.790	-8191	255	
1341.617	1	1	0	0	0.14807	0.19029	0.067756	0.16636	0.33654	0.036876	0.21642	0.32935	0.19051	0.10854	0.28418	0.15967	0.20533	0.21344	0.17904	0.088005	-1.6042	-2.675	-1.9729	-2.4708	-2.5917	-1.8792	-2.9146	-2.4208	-1.9833	-2.8042	-2.0083	-2.4062	-2.7042	-1.8979	-2.5042	-2.2396	175.662	178.475	95.787	-170.802	50.538	105.540	128.816	52.584	-65.220	-130.295	59.872	-151.711	87.630	-15.423	137.610	109.460	0.00070698	0.00023779	6.9905e-05	973.21	1.6998e-06	1.3163e-06	1064.7	208.46	3.3241e-06	1.4363e-06	259.49	74.744	58.736	17.324	1.1929e-06	24.42	7.8708e-05	7.3009e-05	2.3558e-05	926.61	8.5269e-07	7.8899e-07	1013.7	196.73	8.0174e-07	8.1278e-07	242.09	70.738	51.657	16.514	9.3493e-07	23.119	68.891	-50.428	-95.075	-165.444	-54.564	-37.297	-165.377	-158.290	-93.157	-85.176	-158.716	-151.905	-152.497	-144.377	0.190	-144.863	-8191	255	
1341.714	1	1	0	0	0.10975	0.16843	0.048745	0.15685	0.25725	0.066737	0.099367	0.24976	0.20519	0.29365	0.10736	0.13863	0.058352	0.33499	0.07231	0.010844	-1.5979	-2.8375	-2.1917	-2.2583	-2.8417	-1.7396	-2.7146	-2.5542	-1.9062	-2.7396	-1.9688	-2.2979	-2.7667	-1.8208	-2.6021	-2.4854	-46.360	-33.316	83.815	91.065	155.499	-1.809	-165.888	84.898	129.876	-122.990	-118.993	4.295	81.584	159.002	-59.623	-60.036	0.00080444	0.00019936	9.4796e-05	974.2	1.8743e-06	1.1729e-06	1069	208.43	2.9038e-06	2.0872e-06	258.67	74.978	59.03	17.343	4.3782e-06	24.335	7.5823e-05	7.5845e-05	2.3777e-05	925.14	7.9708e-07	8.3096e-07	1013.7	196.5	7.7767e-07	8.4368e-07	241.51	70.619	51.795	16.555	9.0192e-07	23.092	72.676	28.340	109.118	-165.516	-122.771	-63.370	-165.885	-158.196	-56.969	-116.183	-158.338	-152.314	-152.411	-144.012	-51.681	-144.923	-8191	255	
1341.810	1	1	0	0	0.10104	0.15884	0.099268	0.35084	0.1244	0.1116	0.12183	0.16118	0.372	0.10417	0.14635	0.3252	0.18666	0.044391	0.13496	0.071839	-1.5187	-2.7021	-2.3312	-1.9937	-2.7917	-1.9542	-2.6667	-2.6479	-1.7625	-2.6604	-2.3458	-1.9688	-2.7687	-1.8354	-2.2062	-2.4354	75.397	-151.649	-142.490	117.289	-141.539	-127.516	103.155	-17.490	55.486	53.145	183.261	-88.975	-58.597	96.408	-100.208	-15.557	0.00070342	0.0003217	0.00011203	972.36	5.5765e-07	1.9311e-06	1067.3	206.63	2.0869e-06	3.1116e-07	260.37	75.812	58.764	17.33	1.7468e-06	24.27	7.5734e-05	8.1934e-05	2.3459e-05	924.12	8.0384e-07	8.8364e-07	1012.5	195.98	7.8077e-07	9.0067e-07	242.09	70.679	51.577	16.57	8.8634e-07	23.072	73.673	-146.583	-117.370	-165.632	-37.094	53.108	-166.017	-158.353	-124.517	-27.381	-158.385	-152.256	-152.348	-144.010	-15.690	-145.083	-8191	255	
1341.930	1	1	0	0	0.31812	0.041838	0.12746	0.24957	0.29945	0.32912	0.039943	0.11441	0.13907	0.09158	0.081165	0.2754	0.11809	0.16137	0.15168	0.16103	-1.2938	-2.6667	-2.3146	-1.9937	-2.7562	-2.0062	-2.3229	-2.8396	-2.0187	-2.5979	-2.3833	-1.8771	-2.6688	-2.1667	-1.9646	-2.8333	111.145	112.315	0.475	-116.732	-95.007	113.581	-124.745	126.933	166.082	-69.403	-92.910	-125.274	149.283	-119.245	173.788	-2.096	0.00058398	0.00024658	0.000153	981.16	1.8555e-06	4.1956e-07	1069.3	207.24	3.9483e-06	1.0301e-06	261.35	74.928	58.942	17.404	2.6689e-06	24.306	7.7999e-05	8.6602e-05	2.269e-05	927.41	8.3739e-07	9.4059e-07	1013.5	196.12	8.3964e-07	9.3563e-07	242.42	70.537	51.906	16.61	8.314e-07	23.075	73.398	-21.900	-112.524	-165.575	-75.271	88.790	-166.132	-158.691	-123.557	2.545	-158.950	-152.769	-152.419	-144.501	33.269	-145.080	-8191	255	
1342.002	1	1	0	0	0.10125	0.16002	0.085884	0.30713	0.10758	0.025547	0.12033	0.34191	0.21609	0.15612	0.066189	0.32065	0.12006	0.21528	0.11686	0.12872	-1.45	-2.55	-2.4375	-1.8604	-2.7083	-2.1604	-2.1667	-2.825	-1.9188	-2.525	-2.4938	-1.9271	-2.6396	-2.2646	-1.9813	-2.7062	-41.330	12.656	-128.408	-166.375	87.841	89.554	86.506	82.268	7.315	83.878	114.197	127.711	62.345	-159.821	-162.345	-139.535	0.00064537	0.00017341	6.2944e-05	973.35	1.1051e-06	2.0876e-06	1067.8	208.28	1.9828e-06	4.5961e-06	261.21	74.92	58.797	17.381	1.5925e-06	24.537	8.234e-05	8.2971e-05	2.0962e-05	925.66	8.8244e-07	9.1706e-07	1012.1	196.38	8.6939e-07	8.6434e-07	241.78	70.458	51.945	16.554	7.6927e-07	23.145	65.776	26.447	181.712	-165.950	-66.816	-28.534	-165.995	-159.044	-100.899	-145.736	-159.295	-152.620	-153.385	-144.738	-3.370	-145.245	-8191	255	
1342.098	1	1	0	0	0.07251	0.16263	0.2822	0.27115	0.057175	0.22515	0.11415	0.17345	0.30236	0.12229	0.36617	0.22368	0.11852	0.16418	0.22839	0.12879	-1.3833	-2.3312	-2.4417	-1.9062	-2.6271	-2.35	-1.9542	-2.8771	-1.9458	-2.3104	-2.6771	-1.8229	-2.6833	-2.3292	-1.8583	-2.7271	-59.978	-137.597	100.851	96.294	-2.011	30.653	135.431	-162.791	116.242	29.857	2.347	-149.130	168.844	-121.001	-170.848	172.174	0.00067008	9.2472e-05	9.8573e-05	976.64	1.9015e-06	1.6567e-06	1066	207.35	2.0068e-06	2.5884e-06	260.96	75.077	59.049	17.36	5.1389e-07	24.46	8.4352e-05	7.6448e-05	1.9819e-05	926.64	8.9914e-07	8.5938e-07	1011.1	196.24	9.1123e-07	8.1425e-07	241.7	70.516	52.216	16.546	7.7335e-07	23.106	71.696	-74.376	36.505	-166.076	-4.677	-100.063	-166.121	-158.367	130.482	-2.249	-158.555	-152.225	-151.648	-144.193	130.726	-145.327	-8191	255	
1342.219	1	1	0	0	0.18075	0.1868	0.18189	0.41594	0.20005	0.14706	0.28504	0.041841	0.068847	0.03809	0.057706	0.31933	0.34454	0.13079	0.096814	0.15192	-1.525	-2.3021	-2.8333	-2.0083	-2.5896	-2.3646	-2.0104	-2.7104	-2.1042	-2.2396	-2.6896	-1.9479	-2.5083	-2.3396	-1.8396	-2.8708	3.369	-173.881	26.587	49.953	63.944	177.267	176.863	127.918	-62.641	101.707	22.904	89.580	-137.936	-144.243	63.179	-108.409	0.00071208	0.00037156	4.9599e-05	978.91	1.3645e-06	2.3386e-06	1067.3	207.04	6.9705e-06	2.6034e-06	258.79	74.782	58.828	17.302	1.3344e-06	24.369	8.9607e-05	7.6387e-05	2.0096e-05	926.81	9.2975e-07	8.5954e-07	1012.5	196.17	9.5321e-07	8.3247e-07	241.31	70.813	51.968	16.561	7.8241e-07	23.098	69.685	-103.776	-144.772	-165.937	-110.570	-28.127	-165.800	-158.505	-119.827	5.082	-158.542	-152.561	-151.587	-144.065	-59.315	-145.154	-8191	255	
1342.313	1	1	0	0	0.017789	0.095577	0.20576	0.15848	0.16848	0.062493	0.28181	0.11602	0.22829	0.022767	0.07162	0.17513	0.13995	0.15898	0.063186	0.10483	-1.9688	-2.0938	-2.725	-2.0146	-2.5042	-2.5792	-2.0312	-2.7062	-2.1104	-2.05	-2.8271	-1.8021	-2.4458	-2.5	-1.9292	-2.6583	95.414	70.555	-85.075	158.844	-121.356	99.346	162.599	-166.184	72.334	172.330	-35.905	57.119	-29.595	-138.584	-69.702	142.114	0.00070753	0.0004054	3.213e-05	976.51	4.2807e-06	1.2907e-06	1067	208.39	6.1966e-06	1.8704e-06	262.69	75.183	58.73	17.419	3.7665e-06	24.368	8.9034e-05	7.4772e-05	2.0117e-05	926.18	9.1525e-07	8.2347e-07	1012	196.74	9.117e-07	7.7739e-07	242.03	70.719	51.732	16.542	7.8121e-07	23.182	64.940	-99.706	-110.993	-166.152	-52.916	59.341	-166.057	-158.521	-71.031	-77.229	-158.528	-152.489	-152.479	-144.714	-69.056	-144.896	-8191	255	
1342.409	1	1	0	0	0.053869	0.27503	0.13621	0.29145	0.095258	0.038125	0.043246	0.33101	0.19762	0.12364	0.21695	0.13156	0.13334	0.1695	0.10105	0.24634	-1.9833	-1.9375	-2.8708	-2.2896	-2.2687	-2.8333	-2.0333	-2.6208	-2.2687	-1.7583	-2.8167	-1.9438	-2.3583	-2.5646	-1.9375	-2.5708	147.101	-69.196	-88.460	96.475	-41.491	-56.886	-16.825	173.982	-73.421	-31.141	-11.333	166.261	22.056	126.791	99.237	-162.918	0.00069188	0.00024684	8.4561e-05	972.17	1.2323e-06	4.6714e-07	1065.4	207.98	2.5037e-06	4.9346e-06	260.83	74.984	58.523	17.439	6.1144e-07	24.411	8.3519e-05	6.9617e-05	1.9761e-05	926.97	8.5247e-07	7.8678e-07	1010.4	196.85	8.483e-07	7.3868e-07	241.63	70.79	51.521	16.501	7.9765e-07	23.158	74.277	-87.141	-165.792	-166.047	-52.475	62.136	-166.446	-158.756	-106.014	-48.670	-158.974	-153.085	-152.665	-144.538	-55.957	-145.282	-8191	255	
1342.506	1	1	0	0	0.21316	0.34425	0.12175	0.15086	0.14332	0.048369	0.25273	0.29699	0.25537	0.30975	0.15494	0.21235	0.15188	0.087027	0.14281	0.12311	-1.9979	-1.9979	-2.7354	-2.1104	-2.0062	-2.7583	-1.9354	-2.5417	-2.4208	-1.9979	-2.8292	-2.0292	-2.0833	-2.725	-1.85	-2.4646	-23.609	95.827	92.454	-16.919	25.328	53.581	130.614	-118.118	-7.510	28.146	147.606	-118.161	-175.987	-31.182	-119.985	-78.194	0.00050509	0.00053531	5.4996e-05	973.32	3.2614e-06	2.0391e-06	1068.6	208.57	2.7698e-06	2.737e-06	259.9	74.883	58.971	17.343	1.9123e-06	24.406	7.928e-05	6.8056e-05	2.0868e-05	926.66	7.9847e-07	7.5459e-07	1012.2	197.07	8.1473e-07	7.1305e-07	242.12	70.598	51.728	16.488	8.4094e-07	23.114	68.064	-66.060	159.599	-166.366	-60.637	-94.793	-166.377	-158.460	-89.206	-139.686	-158.968	-152.430	-152.960	-144.358	-60.771	-145.310	-8191	255	
1342.626	1	1	0	0	0.15331	0.19543	0.11906	0.27407	0.15384	0.17314	0.035898	0.11446	0.16473	0.19756	0.022402	0.16597	0.11536	0.046572	0.080152	0.080836	-2.3729	-1.9667	-2.7625	-2.2833	-2.0771	-2.65	-2.0375	-2.4125	-2.5479	-1.6792	-2.5208	-2.4813	-1.8542	-2.7854	-1.9312	-2.2938	-77.926	19.198	-51.642	170.107	-97.218	-6.400	50.750	7.587	-132.700	-109.184	-119.866	143.426	51.426	154.198	-80.680	-130.808	0.00087958	0.00011366	0.00010212	969.4	3.2932e-06	2.7128e-06	1067.1	206.84	2.6094e-06	1.0378e-06	260.23	74.915	58.56	17.319	1.216e-06	24.254	7.7109e-05	6.7317e-05	2.1771e-05	925.41	8.0351e-07	7.8524e-07	1012.8	196.53	8.4011e-07	7.8532e-07	242.38	70.761	51.632	16.552	9.8017e-07	23.09	71.023	-105.502	-85.188	-166.210	-42.295	-79.586	-166.225	-158.524	-77.338	-159.338	-158.619	-152.258	-152.283	-144.678	-22.960	-144.749	-8191	255	
1342.698	1	1	0	0	0.0085736	0.092369	0.14727	0.080757	0.060368	0.15796	0.32121	0.1754	0.077925	0.30182	0.20938	0.25568	0.27103	0.099751	0.24523	0.10717	-2.3688	-1.8833	-2.4875	-2.5646	-1.6437	-2.8104	-2.2313	-2.1479	-2.6042	-1.7604	-2.5375	-2.3438	-1.9813	-2.7208	-2.1458	-2.2021	114.049	147.591	-146.430	180.895	146.148	-14.508	148.860	86.574	-87.784	-128.289	44.884	157.681	-57.140	107.125	-82.221	-98.716	0.0006408	0.00025584	2.6791e-05	979.24	5.2608e-06	6.6211e-07	1070.2	208.66	7.5431e-07	5.473e-07	259.77	75.575	58.826	17.407	2.7122e-06	24.25	8.429e-05	7.9822e-05	2.5284e-05	928.39	8.6529e-07	9.2295e-07	1016.1	197.07	8.9858e-07	9.1991e-07	242.61	70.891	51.787	16.617	9.884e-07	23.167	72.037	-122.719	55.613	-166.056	-74.165	-111.851	-166.049	-158.117	41.503	44.722	-158.834	-152.116	-152.136	-144.372	-55.758	-144.877	-8191	255	
1342.818	1	1	0	0	0.076066	0.20631	0.24093	0.15232	0.33153	0.38862	0.16188	0.15448	0.027549	0.21355	0.13953	0.33745	0.19165	0.16823	0.18451	0.21989	-2.3417	-1.7542	-2.45	-2.5479	-1.8792	-2.7188	-2.2875	-2.1146	-2.6229	-1.9125	-2.4646	-2.7708	-1.5208	-2.6708	-2.2458	-1.9292	-14.581	9.141	152.439	23.715	-10.582	-10.058	122.083	-156.644	-164.498	41.081	98.469	53.335	-94.673	-11.967	11.342	38.989	0.00074629	0.00031541	7.0854e-05	978.5	1.0584e-06	1.0012e-06	1069.1	207.83	4.7802e-06	1.6556e-06	259.13	74.701	58.361	17.348	1.0685e-06	24.511	8.3487e-05	8.5738e-05	2.3937e-05	928.76	8.4076e-07	9.2856e-07	1014.5	196.87	8.6044e-07	9.506e-07	242.59	70.668	51.464	16.662	9.4421e-07	23.104	68.655	-157.278	-104.618	-166.099	179.271	-104.340	-165.941	-158.384	-87.128	-37.846	-158.717	-152.114	-152.364	-144.124	4.330	-144.829	-8191	255	
1342.915	1	1	0	0	0.1337	0.049327	0.32612	0.14301	0.26561	0.04815	0.08195	0.15637	0.13294	0.10346	0.25875	0.30325	0.16238	0.27639	0.088918	0.082077	-2.4437	-1.9229	-2.15	-2.6562	-1.8687	-2.8438	-2.3917	-1.8021	-2.7917	-2.0542	-2.3292	-2.7417	-1.8146	-2.4688	-2.1271	-2.0583	171.102	-66.401	124.529	74.930	-152.402	122.662	128.746	156.873	168.246	-113.831	21.368	91.434	-71.166	127.389	-27.893	-138.253	0.00069165	0.00030484	0.00011909	979.81	1.7062e-06	2.1218e-06	1070.2	209.42	5.0544e-06	3.4578e-06	260.36	75.368	58.243	17.317	8.8086e-07	24.304	8.2267e-05	8.764e-05	2.2474e-05	928.84	8.3709e-07	9.4669e-07	1015.9	196.99	8.6517e-07	9.4668e-07	242.15	70.617	51.596	16.58	8.6779e-07	23.07	70.857	-158.348	-93.748	-166.145	-53.662	-81.786	-166.248	-158.405	-107.392	-86.029	-158.529	-152.332	-152.926	-144.199	-3.616	-145.220	-8191	255	
1343.011	1	1	0	0	0.12139	0.20806	0.1979	0.12761	0.23308	0.2451	0.13675	0.20058	0.072137	0.06035	0.07559	0.079429	0.040731	0.23584	0.25541	0.20298	-2.3625	-2.125	-2.0646	-2.8104	-2.0667	-2.3812	-2.8042	-1.925	-2.875	-2.075	-2.0979	-2.9396	-1.9271	-2.3312	-2.4667	-2.0292	-13.270	-119.725	-50.729	-164.609	91.429	-72.150	161.295	147.984	-17.341	-39.714	-53.160	-47.299	-37.728	-142.623	150.892	57.744	0.00093225	0.00020849	0.00011848	972.81	4.6067e-06	7.988e-07	1070.1	207.45	1.6509e-06	2.8914e-06	261.02	75.258	58.896	17.455	2.1197e-06	24.382	8.3784e-05	8.5472e-05	2.1074e-05	926.48	8.7283e-07	9.0718e-07	1012.8	196.51	8.879e-07	9.2226e-07	242.33	70.535	51.902	16.596	8.3711e-07	23.064	68.216	-116.189	-110.232	-165.903	-99.912	17.362	-166.252	-158.534	-79.944	-28.839	-158.782	-152.388	-152.468	-144.314	-73.690	-145.386	-8191	255	
1343.107	1	1	0	0	0.14323	0.24947	0.06462	0.15595	0.15141	0.14193	0.058172	0.12081	0.22684	0.079085	0.19507	0.079749	0.059242	0.06975	0.10504	0.1343	-2.4	-2.2125	-2.05	-2.8979	-1.8458	-2.5667	-2.7229	-1.9312	-2.8479	-2.45	-2.0667	-2.8271	-1.8979	-2.4729	-2.6063	-1.7833	-69.317	89.671	-3.951	-157.711	-82.012	135.646	-151.148	79.998	8.517	-131.517	-165.542	-144.934	-152.292	40.407	91.142	-156.664	0.00079789	0.00031771	3.7331e-05	974.12	1.9092e-06	2.7138e-06	1066.3	207.23	1.9857e-06	2.2333e-06	261.37	75.107	58.732	17.417	2.3038e-06	24.536	8.6512e-05	8.3509e-05	2.0238e-05	927.05	9.2374e-07	8.7882e-07	1012.9	196.12	9.3532e-07	9.0023e-07	242.17	70.714	52.097	16.593	8.2673e-07	23.115	66.215	-29.687	-145.374	-165.990	-129.049	-41.051	-166.015	-158.546	-115.869	-48.947	-158.676	-152.079	-152.593	-143.911	-117.629	-144.914	-8191	255	
1343.228	1	1	0	0	0.12614	0.22068	0.092079	0.11837	0.14079	0.13827	0.31288	0.40913	0.19731	0.098024	0.32338	0.29269	0.11096	0.073602	0.18247	0.017099	-2.2271	-2.5417	-1.7583	-2.9792	-2.0125	-2.2958	-2.8812	-1.95	-2.7646	-2.4958	-1.85	-2.75	-1.9708	-2.0687	-2.6458	-2.0729	-1.258	12.152	-62.330	-118.793	88.155	119.903	109.884	142.402	-28.087	-135.873	117.853	-111.153	73.651	68.587	-16.701	16.544	0.00056104	0.00021412	8.4014e-05	976.61	1.6802e-06	1.0602e-06	1068	207.56	2.6525e-06	4.7182e-06	260.63	75.211	58.933	17.444	3.3241e-06	24.392	8.8999e-05	7.9307e-05	2.003e-05	927.66	9.6493e-07	8.3254e-07	1013.3	196.4	9.3227e-07	8.4821e-07	241.38	70.722	52.021	16.548	7.9509e-07	23.097	63.918	-99.483	-97.763	-165.420	-100.360	67.875	-166.066	-158.033	-69.378	-63.482	-158.301	-151.858	-152.510	-143.699	-41.287	-144.635	-8191	255	
1343.299	1	1	0	0	0.07189	0.054913	0.18305	0.20323	0.24031	0.18368	0.16775	0.30675	0.07101	0.10142	0.13453	0.21594	0.097846	0.13177	0.18528	0.070795	-1.95	-2.525	-1.8	-2.8458	-2.2438	-1.9937	-3.0104	-1.6542	-2.3187	-2.5667	-1.6375	-2.8292	-2.175	-1.9167	-2.5917	-1.7583	60.824	-168.341	-164.413	134.123	-24.363	-60.264	-133.962	-171.856	-122.753	33.021	140.370	137.883	-115.563	172.556	105.224	75.446	0.00068152	0.0001244	8.7999e-05	970.76	2.1125e-06	2.2431e-06	1068.1	207.35	2.3022e-06	2.2798e-06	260.83	74.813	58.851	17.441	4.0857e-06	24.414	8.7144e-05	7.8178e-05	1.9483e-05	926.4	9.2571e-07	7.898e-07	1011.9	196.74	8.9985e-07	8.1738e-07	241.58	70.702	51.909	16.519	7.84e-07	23.183	86.767	-129.902	55.315	-165.910	-74.680	-64.921	-165.684	-158.336	-130.570	1.824	-158.526	-152.138	-152.103	-144.434	-86.713	-145.326	-8191	255	
1343.394	1	1	0	0	0.35346	0.22242	0.31702	0.19513	0.1781	0.12016	0.14588	0.29787	0.29255	0.22383	0.1009	0.27637	0.20179	0.051232	0.061876	0.064839	-1.9208	-2.5875	-1.9646	-2.7104	-2.225	-1.8333	-2.8312	-2.0396	-2.1458	-2.7729	-1.8188	-2.5104	-2.4083	-1.9062	-2.8146	-2.0042	-35.288	-138.803	23.211	182.745	-28.815	76.050	71.482	73.345	-132.424	-97.391	-40.539	75.345	151.481	-134.783	-99.914	-54.606	0.00079366	0.00028663	0.00012981	976.48	3.9414e-06	1.2268e-06	1069.9	208.09	6.7522e-06	3.5261e-06	262.27	75.396	58.726	17.373	1.2667e-06	24.244	8.4073e-05	7.4112e-05	1.9474e-05	927.69	8.9197e-07	7.7641e-07	1012.9	197.1	8.4979e-07	7.9103e-07	242.21	70.797	51.862	16.512	8.1249e-07	23.11	74.616	-35.683	-46.468	-166.134	-92.124	-140.298	-165.910	-158.627	-122.357	-70.920	-158.978	-152.977	-152.776	-144.758	-82.818	-145.266	-8191	255	
1343.490	1	1	0	0	0.093592	0.30985	0.17196	0.31038	0.22587	0.04999	0.059479	0.067454	0.040208	0.24843	0.24566	0.12989	0.18302	0.20348	0.2136	0.11322	-1.8	-2.9271	-1.9167	-2.8271	-2.3771	-1.8792	-2.7104	-2.2083	-2.125	-2.8812	-1.9021	-2.4604	-2.6375	-1.8417	-2.7438	-2.1208	146.241	44.738	17.363	135.489	9.070	145.249	36.889	43.644	-156.013	-161.363	65.429	-30.764	170.620	-92.680	102.098	-21.575	0.00060611	0.00022625	9.6366e-05	976.59	1.8091e-06	1.8135e-06	1068.3	208.59	3.1589e-06	3.0122e-06	261.61	75.285	58.757	17.231	3.9932e-06	24.123	7.9172e-05	7.1233e-05	2.0496e-05	927.21	8.5226e-07	7.6378e-07	1012.5	197.13	8.1437e-07	7.8911e-07	242.3	70.689	51.699	16.443	8.5927e-07	23.103	74.970	-78.485	-123.807	-165.991	-11.468	-69.197	-165.861	-158.447	-147.840	-21.749	-158.314	-152.514	-151.863	-144.121	-121.008	-144.708	-8191	255	
1343.610	1	1	0	0	0.20043	0.11832	0.20623	0.18912	0.13999	0.017004	0.28508	0.30494	0.12447	0.31616	0.1141	0.022924	0.16747	0.15582	0.45381	0.28438	-1.7229	-2.7292	-1.9438	-2.4229	-2.6271	-1.7854	-2.8312	-2.3917	-1.8167	-2.6146	-1.8687	-2.4771	-2.5667	-1.8354	-2.4958	-2.4479	52.965	177.938	128.447	159.888	164.584	171.951	145.500	135.233	-138.829	35.869	94.627	-43.106	-93.317	107.056	8.694	181.762	0.00061816	0.00022117	3.4669e-05	974.05	2.3628e-06	6.3779e-07	1069.1	207.26	3.7199e-06	2.6877e-06	262.02	74.68	58.834	17.268	2.5908e-06	24.399	7.6286e-05	6.9241e-05	2.2161e-05	927.3	8.0739e-07	7.395e-07	1013.4	196.27	7.7583e-07	7.7302e-07	242.65	70.524	51.636	16.476	8.8469e-07	23.138	63.365	-149.779	-38.791	-165.768	-74.731	-11.353	-166.184	-158.557	146.212	-46.725	-159.178	-152.582	-153.195	-144.645	-36.747	-145.490	-8191	255	
1343.707	1	1	0	0	0.26305	0.24052	0.17718	0.15582	0.29266	0.14529	0.18706	0.18545	0.21016	0.086048	0.29696	0.082901	0.13005	0.19485	0.19195	0.069307	-1.4146	-2.7708	-2.0021	-2.2021	-2.6375	-1.8604	-2.6708	-2.5292	-1.8396	-2.6312	-2.2625	-2.1979	-2.6896	-1.9958	-2.4354	-2.5896	86.123	-7.168	106.763	116.139	152.308	-91.521	61.500	-136.547	41.991	125.202	147.461	-143.555	-73.695	-151.113	-98.729	127.139	0.00072054	0.00035932	7.5146e-05	975.91	4.6813e-06	7.8792e-07	1070.4	206.7	4.1961e-06	2.0608e-06	258.73	74.965	58.629	17.256	6.3773e-07	24.351	7.4793e-05	7.1806e-05	2.3011e-05	927.84	8.039e-07	7.9227e-07	1014.7	196.43	7.8112e-07	8.3074e-07	242.57	70.438	51.683	16.503	9.0705e-07	23.019	73.553	-55.364	-158.023	-165.656	-66.076	16.134	-165.894	-158.316	-110.900	-44.730	-158.652	-151.665	-152.374	-144.212	24.631	-144.918	-8191	255	
1343.803	1	1	0	0	0.16256	0.031303	0.23213	0.22938	0.23335	0.13356	0.10822	0.096827	0.17861	0.21154	0.34218	0.26095	0.23914	0.092575	0.16002	0.26975	-1.5021	-2.8167	-1.9354	-2.25	-2.6437	-2.0167	-2.4042	-2.6646	-1.8167	-2.6896	-2.2625	-1.8396	-2.5938	-2.1458	-2.3312	-2.5979	-23.392	-54.480	7.590	-151.961	-129.433	160.085	52.144	95.697	66.947	81.784	158.533	-92.939	31.295	-138.923	99.929	83.729	0.00075015	0.00038879	0.00010898	973.33	3.1441e-06	1.8264e-06	1069.6	206.89	2.3366e-06	2.9616e-06	260.43	74.601	58.702	17.378	8.5782e-07	24.574	7.3976e-05	7.7552e-05	2.3198e-05	924.78	8.0302e-07	8.6227e-07	1012.9	196.26	7.6828e-07	8.8179e-07	242.7	70.251	51.598	16.578	8.7234e-07	23.164	78.692	-82.128	-68.728	-165.770	-100.217	-120.773	-166.008	-158.525	-105.216	-21.827	-159.270	-152.748	-152.804	-144.699	23.183	-145.418	-8191	255	
#DATA ENDS
