BOXY.EXE: ISS Imagent and Oximeter Data Acquisition Program Version 0.80
Ascii Record File

#ACQ INFORMATION
2  Detector Channels 
16  External MUX Channels 
1  Auxiliary Channels 
5000  Waveform (CCF) Frequency (Hz)
1  Waveforms Skipped 
30  Waveforms Averaged 
1  Cycles Averaged 
16  Acquisitions per Waveform 
10.0806  Updata Rate (Hz) 

#FILE INFORMATION
TRUE -- External MUX Channel results are PARSED.
FALSE -- AC DC and Phase are NOT grouped.
TRUE -- Companion Program Settings File CREATED.
FALSE -- AC data not excluded
FALSE -- DC data not excluded
FALSE -- Phase data not excluded
FALSE -- Auxillary Chn. data not excluded
Tab delimiters

#CALIBRATION STATE
TRUE -- Waveform Calibration Values APPLIED.


#AUX CALIBRATION VALUES
Val Type	aux-1	

Term	1.0000e+00	
Factor	0.0000e+00	


#WF CALIBRATION VALUES
A = Detector Channel
Val Type	A-AC1	A-AC2	A-AC3	A-AC4	A-AC5	A-AC6	A-AC7	A-AC8	A-AC9	A-AC10	A-AC11	A-AC12	A-AC13	A-AC14	A-AC15	A-AC16	A-DC1	A-DC2	A-DC3	A-DC4	A-DC5	A-DC6	A-DC7	A-DC8	A-DC9	A-DC10	A-DC11	A-DC12	A-DC13	A-DC14	A-DC15	A-DC16	A-Ph1	A-Ph2	A-Ph3	A-Ph4	A-Ph5	A-Ph6	A-Ph7	A-Ph8	A-Ph9	A-Ph10	A-Ph11	A-Ph12	A-Ph13	A-Ph14	A-Ph15	A-Ph16	

Term	0.00000e+00	0.00000e+00	0.00000e+00	0.00000e+00	0.00000e+00	0.00000e+00	0.00000e+00	0.00000e+00	0.00000e+00	0.00000e+00	0.00000e+00	0.00000e+00	0.00000e+00	0.00000e+00	0.00000e+00	0.00000e+00	0.00000e+00	0.00000e+00	0.00000e+00	0.00000e+00	0.00000e+00	0.00000e+00	0.00000e+00	0.00000e+00	0.00000e+00	0.00000e+00	0.00000e+00	0.00000e+00	0.00000e+00	0.00000e+00	0.00000e+00	0.00000e+00	0.00000e+00	0.00000e+00	0.00000e+00	0.00000e+00	0.00000e+00	0.00000e+00	0.00000e+00	0.00000e+00	0.00000e+00	0.00000e+00	0.00000e+00	0.00000e+00	0.00000e+00	0.00000e+00	0.00000e+00	0.00000e+00	
Factor	1.00000e+00	1.00000e+00	1.00000e+00	1.00000e+00	1.00000e+00	1.00000e+00	1.00000e+00	1.00000e+00	1.00000e+00	1.00000e+00	1.00000e+00	1.00000e+00	1.00000e+00	1.00000e+00	1.00000e+00	1.00000e+00	1.00000e+00	1.00000e+00	1.00000e+00	1.00000e+00	1.00000e+00	1.00000e+00	1.00000e+00	1.00000e+00	1.00000e+00	1.00000e+00	1.00000e+00	1.00000e+00	1.00000e+00	1.00000e+00	1.00000e+00	1.00000e+00	X	X	X	X	X	X	X	X	X	X	X	X	X	X	X	X	

B = Detector Channel
Val Type	B-AC1	B-AC2	B-AC3	B-AC4	B-AC5	B-AC6	B-AC7	B-AC8	B-AC9	B-AC10	B-AC11	B-AC12	B-AC13	B-AC14	B-AC15	B-AC16	B-DC1	B-DC2	B-DC3	B-DC4	B-DC5	B-DC6	B-DC7	B-DC8	B-DC9	B-DC10	B-DC11	B-DC12	B-DC13	B-DC14	B-DC15	B-DC16	B-Ph1	B-Ph2	B-Ph3	B-Ph4	B-Ph5	B-Ph6	B-Ph7	B-Ph8	B-Ph9	B-Ph10	B-Ph11	B-Ph12	B-Ph13	B-Ph14	B-Ph15	B-Ph16	

Term	0.00000e+00	0.00000e+00	0.00000e+00	0.00000e+00	0.00000e+00	0.00000e+00	0.00000e+00	0.00000e+00	0.00000e+00	0.00000e+00	0.00000e+00	0.00000e+00	0.00000e+00	0.00000e+00	0.00000e+00	0.00000e+00	0.00000e+00	0.00000e+00	0.00000e+00	0.00000e+00	0.00000e+00	0.00000e+00	0.00000e+00	0.00000e+00	0.00000e+00	0.00000e+00	0.00000e+00	0.00000e+00	0.00000e+00	0.00000e+00	0.00000e+00	0.00000e+00	-1.96768e+02	-1.29699e+02	-1.34807e+02	-1.86339e+02	-7.54990e+01	-7.41266e+01	-1.58506e+02	-1.62015e+02	-8.93850e+01	-6.60437e+01	-1.71896e+02	-1.71132e+02	-1.83122e+02	-1.77420e+02	-7.77319e+01	-1.49721e+02	
Factor	4.32825e-05	1.44022e-04	4.41656e-05	2.97642e-01	1.53383e-06	1.64817e-06	1.64269e-01	5.16134e-02	1.72359e-06	1.70877e-06	8.37101e-02	2.83187e-02	3.98013e-02	9.20130e-03	1.82911e-06	1.31369e-02	6.94130e-06	8.10315e-06	2.27153e-06	1.56454e-01	8.77933e-08	8.93870e-08	8.17851e-02	2.74120e-02	8.57484e-08	8.94539e-08	4.31033e-02	1.45842e-02	2.12693e-02	4.93711e-03	8.74364e-08	6.82897e-03	X	X	X	X	X	X	X	X	X	X	X	X	X	X	X	X	



#DISTANCE SETTINGS
A = Detector Channel
A-1	A-2	A-3	A-4	A-5	A-6	A-7	A-8	A-9	A-10	A-11	A-12	A-13	A-14	A-15	A-16	

2.5000e+00	3.0000e+00	2.5000e+00	3.0000e+00	2.0000e+00	3.0000e+00	1.5000e+00	3.0000e+00	3.0000e+00	3.0000e+00	3.0000e+00	3.0000e+00	3.0000e+00	3.0000e+00	1.5000e+00	3.0000e+00	

B = Detector Channel
B-1	B-2	B-3	B-4	B-5	B-6	B-7	B-8	B-9	B-10	B-11	B-12	B-13	B-14	B-15	B-16	

1.0000e+01	1.0000e+01	1.0000e+01	1.4400e+00	1.0000e+01	1.0000e+01	1.5100e+00	1.9400e+00	1.0000e+01	1.0000e+01	1.9900e+00	2.4900e+00	2.4100e+00	2.9000e+00	1.0000e+01	2.9800e+00	




#DATA BEGINS
time	group	step	mark	flag	A-AC1	A-AC2	A-AC3	A-AC4	A-AC5	A-AC6	A-AC7	A-AC8	A-AC9	A-AC10	A-AC11	A-AC12	A-AC13	A-AC14	A-AC15	A-AC16	A-DC1	A-DC2	A-DC3	A-DC4	A-DC5	A-DC6	A-DC7	A-DC8	A-DC9	A-DC10	A-DC11	A-DC12	A-DC13	A-DC14	A-DC15	A-DC16	A-Ph1	A-Ph2	A-Ph3	A-Ph4	A-Ph5	A-Ph6	A-Ph7	A-Ph8	A-Ph9	A-Ph10	A-Ph11	A-Ph12	A-Ph13	A-Ph14	A-Ph15	A-Ph16	B-AC1	B-AC2	B-AC3	B-AC4	B-AC5	B-AC6	B-AC7	B-AC8	B-AC9	B-AC10	B-AC11	B-AC12	B-AC13	B-AC14	B-AC15	B-AC16	B-DC1	B-DC2	B-DC3	B-DC4	B-DC5	B-DC6	B-DC7	B-DC8	B-DC9	B-DC10	B-DC11	B-DC12	B-DC13	B-DC14	B-DC15	B-DC16	B-Ph1	B-Ph2	B-Ph3	B-Ph4	B-Ph5	B-Ph6	B-Ph7	B-Ph8	B-Ph9	B-Ph10	B-Ph11	B-Ph12	B-Ph13	B-Ph14	B-Ph15	B-Ph16	aux-1	digaux	

21682.088	1	1	0	512	0.19948	0.14166	0.16276	0.044731	0.24858	0.12013	0.23378	0.16322	0.33381	0.13476	0.17817	0.23724	0.29219	0.33489	0.18323	0.16614	-2.4667	-2.4188	-2.1833	-2.7875	-2.3417	-2.2979	-2.8917	-2.0479	-2.4854	-2.5542	-2.0729	-2.8708	-2.2854	-2.275	-2.9042	-1.9625	-60.786	155.980	-10.740	-33.167	5.771	106.394	168.508	112.806	20.131	122.482	167.015	19.555	-62.201	-80.519	46.710	159.419	0.0002065	0.00020567	0.00024119	1053.4	1.3889e-05	1.9054e-05	961.06	236.46	3.3576e-06	1.0744e-05	252.89	73.357	71.351	16.663	6.0547e-06	17.498	0.011167	0.012982	0.0036377	1271.7	0.00013796	0.0001406	1070	274.28	0.00013287	0.00013903	312.77	94.466	103.47	24.229	0.00013596	27.986	-56.469	49.598	227.804	-104.330	156.317	229.172	-104.670	-99.673	185.026	214.953	-100.839	-97.391	-95.663	-90.696	-31.032	-92.449	-8191	255	
21682.184	1	1	0	0	0.20998	0.27461	0.1714	0.17075	0.3327	0.13542	0.29188	0.19076	0.26168	0.20978	0.22254	0.09623	0.27261	0.010019	0.11233	0.049803	-2.1292	-2.5042	-1.9854	-2.8125	-2.2208	-2.1583	-2.8458	-2.2979	-2.5854	-2.6021	-2.1	-2.6708	-2.3187	-2	-2.8896	-2.0896	200.102	76.822	195.353	-71.629	12.242	-32.127	221.598	118.329	241.922	176.132	-88.288	134.606	-109.698	30.598	17.035	220.059	0.00013306	0.00042775	0.00025256	1057.5	1.4949e-05	9.3969e-06	963.65	237.85	1.185e-05	1.5357e-05	251.53	73.241	71.028	16.86	7.6069e-06	17.817	0.010704	0.012549	0.003515	1266.3	0.00013467	0.00013908	1071.5	274.68	0.00013105	0.00013822	313.76	94.374	103.45	24.217	0.00013419	27.892	1.607	93.657	16.395	-104.017	102.091	80.536	-104.827	-99.251	106.110	75.272	-100.931	-96.562	-96.113	-90.636	-74.347	-92.310	-8191	255	
21682.305	1	1	0	0	0.014748	0.11679	0.12687	0.20217	0.21268	0.19684	0.15411	0.17704	0.12543	0.073223	0.041459	0.16441	0.20597	0.24305	0.12696	0.26775	-2.0729	-2.7313	-1.8771	-2.65	-2.3396	-2.0375	-2.8396	-2.1875	-2.3	-2.6833	-1.9896	-2.6208	-2.5687	-1.9958	-2.8292	-2.1437	36.491	-41.671	-1.075	-94.044	133.268	202.148	193.433	172.113	49.046	-116.781	-38.622	-78.991	-45.979	123.343	209.964	197.512	0.00016628	0.00095508	0.0003206	1062.3	1.0699e-05	8.0386e-06	962.93	238.2	1.2248e-05	1.0658e-05	253.7	73.914	72.309	16.785	1.2128e-05	17.592	0.010731	0.012466	0.003497	1267.9	0.00013554	0.00013874	1072.1	275.23	0.00013434	0.0001401	314.73	95.058	104.62	24.439	0.00013986	28.365	101.553	234.830	114.647	-103.968	116.867	-56.440	-104.692	-99.420	-11.437	68.129	-100.508	-96.916	-95.936	-90.790	41.849	-92.618	-8191	255	
21682.377	1	1	0	0	0.15223	0.041037	0.17003	0.085497	0.1374	0.055261	0.34613	0.27469	0.2836	0.12318	0.27649	0.081482	0.20936	0.082265	0.1838	0.16778	-1.9646	-2.5812	-1.9542	-2.675	-2.6479	-1.9917	-2.8458	-2.325	-2.3312	-2.9833	-2.0896	-2.5167	-2.5438	-1.9271	-2.7375	-2.3854	186.804	200.567	-26.400	128.999	16.703	-78.067	83.744	192.458	82.712	160.632	167.760	208.611	69.887	236.359	-19.877	20.107	0.00022478	0.001122	7.8913e-05	1053	1.8437e-05	2.2418e-05	959.99	237.12	2.3561e-05	1.1296e-05	250.13	73.038	71.484	16.74	2.3608e-05	17.388	0.011306	0.013125	0.0036884	1281	0.00014286	0.00014637	1076.7	275.6	0.00014001	0.00014519	315.23	95.35	104.89	24.457	0.0001412	28.373	208.577	186.546	45.914	-103.660	-46.833	212.060	-104.595	-99.746	-34.381	-73.950	-100.623	-96.737	-96.015	-90.575	125.012	-93.291	-8191	255	
21682.473	1	1	0	0	0.096026	0.12747	0.11533	0.17056	0.17379	0.39315	0.43304	0.17282	0.17676	0.28924	0.19021	0.29161	0.21938	0.17483	0.17527	0.15326	-1.9083	-2.6	-2.1021	-2.4604	-2.6063	-1.875	-2.7812	-2.5083	-2.2458	-2.8063	-2.1167	-2.4292	-2.6688	-2.0333	-2.6104	-2.3708	-33.036	198.007	156.803	233.708	26.148	-116.910	220.184	34.820	86.542	161.007	154.576	137.913	-77.264	76.011	-116.474	-10.235	0.00010609	0.00073383	0.00045843	1049.1	1.1796e-05	1.1682e-05	956.44	235.58	1.7177e-05	1.0002e-05	251.4	72.379	70.576	16.604	4.4804e-06	17.563	0.011505	0.013369	0.0037512	1279.4	0.00014666	0.00014848	1072.2	275.83	0.00014331	0.00014874	315.63	95.475	105.31	24.461	0.0001456	28.682	126.003	210.915	-7.545	-103.886	202.987	102.618	-104.668	-99.474	48.170	104.997	-100.425	-97.105	-95.855	-90.492	-73.368	-92.655	-8191	255	
21682.594	1	1	0	0	0.19657	0.34125	0.048431	0.049941	0.13761	0.10655	0.13712	0.2565	0.12814	0.02867	0.047913	0.088991	0.31908	0.20821	0.024199	0.060869	-1.7188	-2.675	-2.2229	-2.45	-2.7708	-2.2229	-2.8958	-2.5458	-2.0312	-2.825	-2.2667	-2.3854	-2.8	-2.1521	-2.6208	-2.5438	109.854	-4.101	102.831	209.724	98.088	-54.200	212.662	230.120	-114.565	195.594	105.316	52.540	46.799	-83.064	14.002	223.417	0.00017742	0.0016526	0.00024128	1046.9	1.3911e-05	1.6645e-05	950.48	234.09	8.6927e-06	8.473e-06	246.24	71.672	71.583	16.556	5.8725e-06	17.242	0.011658	0.013547	0.0038012	1281.7	0.00014865	0.00014988	1071.4	276.2	0.00014654	0.00015225	315.74	95.571	105.76	24.522	0.00014753	28.66	61.309	193.545	41.104	-103.827	187.081	192.001	-104.810	-99.607	155.470	62.395	-100.754	-96.985	-95.623	-90.439	2.687	-92.567	-8191	255	
21682.688	1	1	0	0	0.093109	0.14184	0.0083831	0.16792	0.15386	0.15464	0.12224	0.16563	0.27873	0.26296	0.10929	0.13606	0.051143	0.062227	0.077582	0.12418	-1.5438	-2.8583	-2.3563	-2.2729	-2.8896	-2.0729	-2.5417	-2.5979	-1.8583	-2.8479	-2.4146	-2.1604	-2.7458	-1.95	-2.4417	-2.6896	-48.402	167.589	155.206	164.183	-93.247	34.009	148.472	133.077	56.402	181.538	92.026	129.814	-55.080	-12.316	-68.263	215.863	0.00023156	0.00017299	0.00022713	1045.7	1.6559e-05	1.221e-05	956.76	232.52	1.6192e-05	2.0601e-05	248.33	72.072	70.708	16.465	1.3569e-05	17.366	0.011837	0.013632	0.003832	1283.8	0.00014906	0.00015083	1071.6	274.66	0.00014506	0.00015057	315.45	95.675	105.66	24.513	0.00014844	28.777	136.009	-15.538	204.119	-103.929	-81.093	127.372	-104.795	-99.277	101.990	50.615	-100.937	-97.127	-95.900	-89.928	124.560	-93.481	-8191	255	
21682.783	1	1	0	0	0.18356	0.13028	0.096406	0.12514	0.19503	0.061646	0.069645	0.08771	0.24276	0.19178	0.088585	0.10937	0.24847	0.16467	0.10592	0.19577	-1.5667	-2.6021	-2.4229	-2.1229	-2.9771	-2.15	-2.5708	-2.8312	-1.8979	-2.7938	-2.5521	-2.0854	-2.8542	-2.2854	-2.3708	-2.625	3.056	-62.247	-67.722	133.075	142.768	192.412	225.026	-106.169	-78.180	-113.055	109.146	174.157	217.686	177.971	-34.147	90.688	0.00053009	0.00054202	0.00026115	1040.1	5.0587e-06	1.0087e-05	958.4	232.43	4.4436e-06	1.0582e-05	247.65	71.569	70.715	16.466	1.3937e-05	17.507	0.01176	0.013607	0.0038453	1282.5	0.00014698	0.00014957	1073.6	274.94	0.00014253	0.00014826	314.6	95.142	104.76	24.431	0.0001468	28.685	-14.341	215.525	86.847	-104.235	42.466	-66.910	-104.476	-99.650	-16.848	11.669	-100.899	-97.093	-96.030	-91.322	93.892	-92.722	-8191	255	
21682.904	1	1	0	0	0.29092	0.060719	0.17761	0.060919	0.13526	0.090771	0.10861	0.28798	0.044075	0.11167	0.12976	0.095292	0.18531	0.20776	0.24868	0.2796	-1.6729	-2.6354	-2.4583	-2.0062	-2.8479	-2.2	-2.5042	-2.6875	-2.0792	-2.5458	-2.4562	-2.1917	-2.9104	-2.1521	-2.0354	-2.9188	143.335	138.957	-21.304	221.556	209.722	190.674	125.290	208.100	93.784	-2.100	204.475	-23.169	-61.947	158.989	-9.752	-99.511	0.00031131	0.0014056	0.00085352	1048.9	3.1038e-06	9.8843e-06	959.13	233.99	4.2473e-06	2.2772e-05	249.22	72.789	71.424	16.463	1.9928e-05	17.491	0.011554	0.013492	0.0037895	1275.9	0.00014355	0.00014639	1072	274.25	0.00013783	0.00014518	313.42	94.486	104.1	24.228	0.00014213	28.217	201.650	147.694	-34.616	-104.146	-0.939	129.155	-104.558	-99.276	-83.518	52.244	-100.874	-96.983	-95.863	-90.682	136.759	-92.175	-8191	255	
21682.977	1	1	0	0	0.11529	0.11925	0.10511	0.2412	0.19986	0.24657	0.1556	0.32455	0.084008	0.3168	0.11613	0.034972	0.073856	0.12734	0.095451	0.097523	-1.5229	-2.4188	-2.5479	-1.9271	-2.6604	-2.3667	-2.3479	-2.7958	-2.0375	-2.575	-2.6625	-2.2167	-2.6708	-2.4125	-2.1229	-2.8542	113.739	-22.830	151.876	104.770	114.118	-81.404	178.666	156.629	230.614	232.989	206.645	-78.839	-25.784	-56.562	-89.772	172.928	0.00036102	0.00023842	0.00030006	1043.6	1.3789e-05	9.7859e-06	952.95	233.15	8.1024e-06	6.5506e-06	248.83	71.557	70.843	16.562	9.5316e-06	17.38	0.011186	0.013191	0.0037133	1271.8	0.00014253	0.00014577	1069.9	274.37	0.00013924	0.0001465	312.92	94.476	104.1	24.348	0.00014426	28.294	139.934	66.354	-40.451	-103.754	117.151	168.460	-104.561	-99.527	50.760	-1.698	-100.432	-96.638	-95.707	-90.874	218.971	-91.519	-8191	255	
21683.072	1	1	0	0	0.11905	0.21039	0.026136	0.10894	0.20715	0.17673	0.18567	0.29718	0.24887	0.23498	0.36161	0.27519	0.10912	0.10628	0.12543	0.13002	-1.8917	-2.4229	-2.7208	-2.1104	-2.7812	-2.5271	-2.2458	-3.0125	-2.0062	-2.4021	-2.8812	-2.0104	-2.6042	-2.4542	-2.0354	-2.9083	-86.037	190.375	167.193	223.729	-100.582	20.488	233.441	230.586	238.693	-57.663	204.921	134.532	-31.233	144.615	96.751	63.750	1.4246e-05	0.00079508	0.00020105	1040.3	1.9828e-06	1.8853e-05	956.75	234.36	2.716e-06	5.8357e-06	247.83	71.027	70.592	16.367	1.716e-05	17.506	0.011275	0.01329	0.0037266	1269.3	0.00014203	0.00014644	1069.2	273.38	0.00013887	0.00014775	312.24	94.224	104.4	24.38	0.00014744	28.495	205.330	73.251	-102.536	-103.720	226.316	-28.163	-104.458	-99.176	30.010	83.590	-100.510	-96.773	-95.495	-90.473	217.963	-92.682	-8191	255	
21683.193	1	1	0	0	0.12083	0.29907	0.27403	0.13807	0.10862	0.13928	0.049344	0.146	0.18896	0.10473	0.05371	0.064489	0.11656	0.19214	0.16712	0.3322	-1.6688	-2.3896	-2.7917	-2.1646	-2.5187	-2.5458	-2.1729	-2.6604	-2.2438	-2.3	-2.8312	-2.0417	-2.5167	-2.6396	-1.8813	-2.8542	237.869	-53.047	18.097	-99.314	143.284	102.096	213.191	195.777	240.495	10.525	197.575	140.661	13.564	201.927	71.176	197.053	0.00033797	0.00076319	0.00027422	1039.7	8.9853e-06	1.0468e-05	949.41	232.41	2.3022e-05	2.0993e-05	247.27	71.154	69.645	16.284	1.5688e-05	17.502	0.01172	0.013811	0.0038505	1277.2	0.00014943	0.00015323	1071.6	274.14	0.00014623	0.00015338	314.84	94.708	105.19	24.56	0.00014809	28.508	24.496	59.894	111.660	-104.170	-108.889	96.527	-104.503	-99.356	56.775	64.855	-100.453	-96.965	-95.669	-90.348	-21.214	-92.878	-8191	255	
21683.289	1	1	0	0	0.19727	0.12377	0.18723	0.20201	0.22641	0.12328	0.38755	0.088021	0.12251	0.22114	0.15257	0.29106	0.17019	0.2199	0.17494	0.13508	-1.9125	-2.1917	-2.75	-2.0167	-2.4437	-2.5771	-2.0938	-2.7583	-2.4333	-2.2896	-2.9083	-1.9583	-2.4437	-2.8937	-2.1125	-2.6854	168.460	129.866	121.881	229.076	102.420	168.650	174.239	203.379	181.946	86.126	171.610	-110.934	63.017	-103.670	98.105	216.826	0.00037444	0.0017246	0.00019061	1041.4	5.0257e-06	8.4189e-06	949.61	232.39	1.3902e-05	5.8364e-06	246.64	71.498	70.944	16.334	8.4734e-06	17.459	0.011758	0.013816	0.003843	1277.8	0.00014836	0.00015135	1069.2	273.65	0.00014388	0.00015069	313.32	94.391	104.63	24.378	0.00014378	28.263	114.113	-24.627	240.472	-104.094	-24.339	30.625	-104.621	-99.243	-103.238	183.407	-100.511	-96.817	-95.592	-89.986	-13.351	-93.089	-8191	255	
21683.383	1	1	0	0	0.26297	0.10491	0.14967	0.1908	0.31539	0.088098	0.17414	0.21244	0.17194	0.13302	0.15731	0.30381	0.16266	0.17242	0.17384	0.068306	-1.9729	-2.1813	-2.9	-2.2812	-2.3104	-2.7562	-2.0604	-2.7562	-2.4104	-2.15	-2.9188	-2.2729	-2.3604	-2.9021	-2.0563	-2.6771	213.054	151.219	242.076	162.060	-42.831	-86.258	182.800	236.696	164.102	5.563	195.394	134.336	160.937	77.174	192.296	178.141	0.00031919	0.0016011	0.00027558	1046.9	5.6719e-06	2.5391e-05	949.57	233.07	1.5308e-05	1.4215e-05	246.09	71.858	70.927	16.54	2.8606e-06	17.168	0.011448	0.013351	0.003716	1269.3	0.00014437	0.00014611	1061.5	273.09	0.00013901	0.00014535	311.03	94.019	103.82	24.119	0.00013839	27.871	107.179	196.900	-66.165	-103.899	152.544	70.777	-104.749	-99.181	193.070	-61.362	-100.265	-96.843	-95.459	-90.468	161.255	-91.998	-8191	255	
21683.504	1	1	0	0	0.13589	0.24511	0.26203	0.36086	0.043583	0.10006	0.25914	0.33859	0.081274	0.18442	0.14817	0.15566	0.10965	0.077735	0.093817	0.22813	-2.1792	-1.9583	-2.8438	-2.4292	-2.2354	-2.8917	-2.1896	-2.6667	-2.7333	-2.0125	-2.8	-2.4083	-2.4042	-2.8792	-2.0354	-2.6	194.260	47.133	198.056	152.224	162.941	-35.576	-108.123	170.500	146.457	-77.546	149.083	198.494	-114.384	16.932	217.711	205.058	0.00044016	0.00069296	0.00014982	1036.5	1.4961e-05	1.2866e-05	951.57	237.31	9.3117e-06	1.5586e-05	250.74	72.908	70.882	16.575	1.1711e-05	17.423	0.01106	0.012708	0.0035384	1255.8	0.00013795	0.000139	1059.2	273.94	0.00013398	0.00013914	310.87	93.868	103.2	23.917	0.00013429	27.689	155.141	20.536	-67.512	-103.857	121.441	71.613	-104.478	-99.122	-104.847	-63.080	-100.496	-96.773	-95.362	-90.102	59.486	-92.771	-8191	255	
21683.600	1	1	0	0	0.37809	0.42826	0.024573	0.094384	0.17049	0.1066	0.37315	0.21098	0.1225	0.22128	0.15232	0.12925	0.090088	0.13185	0.17899	0.17054	-2.3792	-2.1437	-2.825	-2.4854	-2.1729	-2.8042	-2.2542	-2.525	-2.6417	-2.1437	-2.7417	-2.4396	-2.0417	-2.8021	-2.0583	-2.2896	-4.004	83.387	-8.630	63.296	-39.877	-2.384	111.771	127.283	-64.932	94.623	182.858	-113.867	-7.494	-69.433	30.267	-9.884	0.00026218	0.00056911	0.00039693	1044.1	1.3122e-05	6.0056e-06	958.66	235.87	1.1022e-05	4.837e-06	250.68	72.169	71.445	16.524	2.0562e-05	17.453	0.010814	0.012434	0.0034941	1259.4	0.00013711	0.00013905	1064	273.93	0.0001345	0.00014014	310.94	93.772	103.85	24.062	0.00013835	28.063	204.705	18.872	-66.521	-103.583	-61.207	-2.437	-104.633	-99.046	-43.383	76.954	-100.519	-97.030	-96.006	-90.356	-73.890	-92.916	-8191	255	
21683.672	1	1	0	0	0.34961	0.12168	0.22979	0.11781	0.042219	0.10335	0.061595	0.34539	0.1541	0.25379	0.19744	0.16669	0.24417	0.19117	0.21103	0.11706	-2.3333	-1.9792	-2.6625	-2.5667	-1.9604	-2.8583	-2.3771	-2.3187	-2.6667	-2.1354	-2.7021	-2.3396	-1.9792	-2.8792	-2.3354	-2.2104	-1.081	69.176	-46.310	-97.335	137.355	-100.765	20.417	194.522	-30.816	-113.326	76.047	84.428	153.286	231.604	-108.936	-51.126	0.00017378	0.0014266	0.00035833	1043	1.472e-05	1.7098e-05	953.16	234.55	9.8358e-06	4.7707e-06	247.59	71.779	71.244	16.456	7.3415e-06	17.163	0.011086	0.012915	0.0036266	1266.2	0.00014153	0.00014317	1064.7	273.92	0.00013791	0.0001436	311.26	94.014	103.82	24.086	0.00014035	28.105	177.310	-46.141	176.285	-104.263	150.034	-38.886	-104.420	-99.170	143.270	224.762	-100.111	-96.939	-95.976	-90.452	-116.478	-92.318	-8191	255	
21683.768	1	1	0	0	0.14944	0.18805	0.15238	0.014662	0.32093	0.1321	0.17197	0.1431	0.15654	0.025303	0.035955	0.30134	0.18537	0.092277	0.062092	0.061818	-2.3771	-1.9646	-2.6188	-2.525	-2.05	-2.8187	-2.3667	-2.4167	-2.8042	-2.1583	-2.5729	-2.6958	-1.9958	-2.65	-2.2687	-2.2188	16.464	196.906	119.232	-65.868	160.282	101.541	-83.395	-103.084	8.555	-5.147	186.034	-106.432	187.828	87.011	-44.393	-43.226	0.00045136	0.00097506	0.00028293	1037.7	1.5662e-05	2.0381e-05	946.32	233.78	1.3204e-05	2.3466e-05	246.85	71.922	71.447	16.462	8.1241e-06	17.337	0.011135	0.012988	0.0036473	1259.3	0.00014092	0.00014233	1059.6	273.02	0.00013731	0.00014292	310.25	93.472	103.32	24.004	0.00013978	28.004	226.212	-47.827	-45.355	-103.996	-7.078	64.257	-104.445	-99.165	160.447	103.638	-100.341	-96.786	-95.784	-90.206	27.671	-92.459	-8191	255	
21683.863	1	1	0	0	0.2565	0.1907	0.13791	0.17162	0.28045	0.17185	0.39254	0.22043	0.1984	0.17284	0.1464	0.16942	0.18685	0.030901	0.14655	0.10023	-2.5979	-2.3708	-2.4354	-2.6625	-2.1021	-2.7833	-2.6896	-2.0271	-2.7854	-2.0521	-2.3229	-2.8354	-2.1542	-2.7708	-2.3812	-1.9708	165.794	24.013	-98.988	162.642	78.742	21.529	119.070	146.585	91.765	214.086	209.057	-14.945	-48.012	65.242	-18.307	63.012	0.00023949	0.0011426	0.00049186	1044.1	8.9968e-06	2.1397e-05	946.53	234.29	6.2549e-06	1.2595e-05	246.74	71.566	70.798	16.502	1.7388e-05	17.232	0.010977	0.012783	0.0036211	1257.6	0.00013862	0.00014079	1057.5	273.09	0.00013596	0.00014152	310.49	93.455	103.35	24.076	0.00013957	27.922	-116.054	-102.950	12.473	-104.132	87.081	-3.411	-104.412	-98.894	106.127	166.453	-100.013	-97.160	-95.011	-90.257	84.054	-92.452	-8191	255	
21683.984	1	1	0	0	0.065015	0.2421	0.23195	0.22161	0.13283	0.1788	0.17743	0.32955	0.32453	0.049798	0.17878	0.08077	0.25615	0.040256	0.02155	0.29342	-2.7188	-2.3333	-2.1417	-2.7792	-1.8896	-2.75	-2.5896	-2.0354	-2.8146	-2.5333	-2.4146	-2.9479	-2.1125	-2.7313	-2.7917	-2.175	-49.104	-106.467	163.830	202.661	-110.560	188.807	-96.720	182.436	-27.242	-74.339	188.938	-59.110	-101.517	-8.249	203.423	-12.646	0.0002984	0.0010742	0.00062969	1035.5	9.4994e-06	1.7764e-05	945.28	233.78	4.1027e-06	1.1717e-05	245.26	71.643	70.152	16.5	9.2144e-06	17.253	0.011053	0.012895	0.0036465	1257.2	0.00013972	0.0001441	1058.2	273.33	0.00013915	0.00014628	310.95	93.83	103.36	24.329	0.00014403	28.12	159.743	71.621	235.100	-103.589	133.980	165.436	-104.302	-98.744	102.695	-6.103	-100.439	-96.779	-95.587	-89.513	44.223	-92.132	-8191	255	
21684.080	1	1	0	0	0.065738	0.12862	0.16152	0.099398	0.18749	0.23308	0.24222	0.15694	0.18259	0.19899	0.067509	0.1356	0.16999	0.12857	0.2585	0.33677	-2.4896	-2.4229	-2.1354	-2.8063	-2.0563	-2.3688	-2.8167	-2.2083	-2.5167	-2.675	-2.1688	-2.8833	-2.1583	-2.3333	-2.7188	-2.2646	-86.546	-12.956	225.535	-104.806	42.882	95.637	135.127	191.922	168.671	-73.426	-75.133	216.247	58.512	104.762	167.517	159.760	0.00044664	0.0017879	0.00053586	1036.2	6.3736e-06	1.5604e-05	951.25	233.13	9.6795e-06	1.1684e-05	245.91	70.864	70.138	16.393	1.3282e-05	17.301	0.011346	0.013338	0.0037629	1267.2	0.00014516	0.00014845	1063.5	273.49	0.00014187	0.00014843	312.49	93.897	104.25	24.31	0.00014514	28.219	106.625	207.025	79.771	-103.533	21.166	-91.556	-104.338	-98.849	-43.179	98.340	-100.542	-96.460	-95.592	-90.127	-38.918	-93.149	-8191	255	
21684.178	1	1	0	0	0.26913	0.096375	0.29816	0.2489	0.092524	0.15745	0.13931	0.24789	0.20948	0.053378	0.34424	0.24432	0.10272	0.21868	0.073841	0.12121	-2.2458	-2.4437	-2.1479	-2.6875	-2.1854	-2.4229	-2.7667	-2.175	-2.6604	-2.5292	-2.1042	-2.875	-2.2271	-2.1167	-2.7646	-1.9646	178.339	-114.477	13.579	130.867	55.526	181.508	199.485	211.648	-82.432	-7.145	141.502	201.363	161.139	142.245	-36.795	-44.178	0.0001309	0.0015104	0.00044475	1042.7	8.2687e-06	6.1503e-06	943.25	233.11	1.1441e-05	1.2853e-05	244.53	71.425	70.972	16.377	3.2826e-05	16.952	0.011521	0.013478	0.0037983	1267.3	0.00014627	0.00015002	1062.9	274.16	0.0001427	0.00014912	311.67	93.763	104.45	24.321	0.00014419	28.101	30.269	-75.945	-82.403	-103.804	-101.636	-41.890	-104.375	-99.182	-18.779	149.952	-100.369	-97.012	-95.669	-90.052	23.941	-92.459	-8191	255	
21684.273	1	1	0	0	0.2185	0.22059	0.13886	0.31943	0.13796	0.29987	0.12348	0.098533	0.15272	0.12035	0.31288	0.14267	0.15632	0.13295	0.19523	0.10829	-2.1771	-2.5396	-2.1188	-2.8438	-2.1792	-2.2208	-3.1771	-2.1813	-2.7313	-2.7167	-1.9854	-2.8083	-2.45	-2.225	-2.825	-2.2479	58.969	16.972	169.582	240.738	48.465	184.289	182.424	141.176	180.267	27.798	215.339	-6.535	160.022	19.207	187.539	153.926	0.00025016	0.0012539	0.00069168	1035	1.5544e-05	1.9743e-05	941.95	234.38	1.2218e-05	1.0689e-05	246.13	71.066	71.06	16.332	9.3391e-06	16.979	0.011524	0.013395	0.0037575	1262.9	0.00014472	0.00014851	1058.7	273.86	0.00014117	0.00014795	311.1	93.977	104.8	24.294	0.00014545	28.082	170.117	-41.638	96.705	-103.583	-63.839	38.250	-104.282	-99.206	231.233	199.242	-100.426	-96.810	-95.614	-90.321	-6.608	-92.272	-8191	255	
21684.369	1	1	0	0	0.083839	0.038061	0.16248	0.15716	0.262	0.023399	0.12692	0.20935	0.19227	0.12412	0.23896	0.019023	0.12118	0.16329	0.17909	0.22097	-2.1292	-2.6292	-2.0042	-2.8167	-2.4437	-2.2208	-3.2104	-2.2125	-2.3833	-2.7062	-2.0771	-2.6583	-2.5563	-2.1271	-2.9104	-2.2625	-108.823	90.725	227.098	-77.926	95.949	-111.535	159.574	124.204	129.771	157.474	170.121	-46.026	-72.857	238.597	-4.332	-102.131	0.00048328	0.0018287	0.00035876	1032.9	6.9811e-06	7.0631e-06	940.26	232.95	3.3081e-06	1.9413e-05	247.97	71.804	71.389	16.515	1.9637e-05	17.33	0.011636	0.013434	0.0037852	1266.2	0.00014604	0.00014931	1059.7	273.91	0.00014049	0.00014579	312.26	93.953	104.35	24.183	0.00014146	27.995	106.212	92.635	-37.121	-103.602	-69.257	-116.297	-104.281	-99.236	102.910	81.912	-99.935	-96.812	-95.283	-89.506	226.745	-92.161	-8191	255	
21684.465	1	1	0	0	0.18742	0.082482	0.12492	0.14782	0.26882	0.14961	0.31533	0.10711	0.12838	0.26037	0.16183	0.15052	0.17265	0.11752	0.085548	0.041049	-1.8875	-2.6937	-2.1312	-2.6333	-2.6229	-2.1479	-3.0208	-2.3333	-2.3438	-2.7104	-2.0792	-2.475	-2.5542	-2.1292	-2.8104	-2.3937	-19.613	208.503	-13.113	241.365	-98.251	204.619	110.642	193.112	198.313	165.183	138.112	234.280	177.250	101.742	24.562	40.597	0.00013023	0.00076337	0.00012068	1041	3.8649e-06	9.1192e-06	947.47	235.06	1.0756e-05	1.0609e-05	248.47	72.468	71.473	16.53	9.5589e-06	17.386	0.011412	0.013179	0.0037179	1263.4	0.00014338	0.00014543	1061.5	274.53	0.00014024	0.00014484	312.56	94.531	104.39	24.213	0.00014095	28.11	114.817	-22.892	196.651	-103.751	26.313	239.221	-104.305	-99.099	28.159	42.015	-100.465	-96.540	-95.474	-90.035	215.624	-92.327	-8191	255	
21684.584	1	1	0	0	0.046395	0.26483	0.34027	0.13467	0.11382	0.020868	0.32864	0.1417	0.2063	0.20608	0.23034	0.13178	0.20439	0.16509	0.065682	0.10218	-1.9125	-2.9479	-2.0417	-2.5875	-2.6792	-1.9167	-2.8896	-2.3688	-2.3417	-2.7792	-2.1417	-2.3396	-2.6354	-2.0479	-2.775	-2.575	-14.677	-31.716	33.480	64.673	210.053	-40.596	-114.871	103.749	-30.617	136.906	210.017	167.930	216.374	185.812	-116.104	225.795	0.00041132	0.00082338	8.8748e-05	1040.1	3.8764e-06	1.5377e-05	951.92	235.12	1.8259e-05	9.633e-06	248.94	71.778	71.007	16.423	2.2283e-05	17.277	0.011369	0.013103	0.0036848	1266.1	0.00014295	0.00014566	1065	275.35	0.00014038	0.00014573	313.3	94.677	104.43	24.272	0.00014294	28.116	183.742	-76.221	-20.990	-103.413	17.288	71.788	-104.268	-98.906	-96.360	-107.105	-100.396	-96.295	-95.228	-89.667	102.203	-92.145	-8191	255	
21684.680	1	1	0	0	0.26173	0.17476	0.25966	0.3592	0.12632	0.060659	0.33341	0.51847	0.18451	0.078045	0.25649	0.12103	0.10431	0.070784	0.22193	0.064817	-1.6521	-2.8479	-2.1583	-2.4896	-2.6979	-2.0333	-2.7562	-2.5687	-2.1437	-2.8937	-2.2125	-2.2125	-2.6792	-1.9792	-2.6813	-2.6417	99.835	-110.531	63.040	129.264	207.627	-41.728	189.017	-92.263	44.993	109.529	162.462	64.022	-7.387	-16.393	-68.725	219.075	0.00023076	0.00070528	0.00019898	1039	5.0707e-07	3.1253e-06	952.79	234.06	1.7076e-05	1.3672e-05	247.15	72.165	71.857	16.563	1.8565e-05	17.303	0.011326	0.013077	0.0036669	1264.8	0.00014259	0.00014433	1063.8	274.33	0.00013856	0.00014408	311.47	94.556	104.46	24.179	0.00014152	28.143	-92.624	41.674	169.545	-103.248	185.823	-28.976	-104.363	-99.129	173.399	-10.045	-100.114	-96.724	-95.616	-90.677	232.273	-91.855	-8191	255	
21684.775	1	1	0	0	0.2714	0.11896	0.23854	0.20799	0.11141	0.079375	0.15858	0.091372	0.077299	0.19372	0.32525	0.10133	0.14433	0.073086	0.11633	0.18193	-1.7604	-2.8125	-2.2458	-2.3292	-2.9708	-2.1937	-2.6	-2.6417	-1.9438	-2.8854	-2.4396	-2.2792	-2.8	-2.0229	-2.6063	-2.775	181.766	7.181	228.074	205.384	-19.474	145.274	95.991	220.505	-47.227	-69.016	227.804	136.252	211.862	169.478	-57.666	158.156	0.00037926	0.0005548	0.00025874	1041.3	1.0117e-05	1.1473e-05	947.73	236.95	5.6618e-06	1.7664e-05	249.58	72.256	71.287	16.538	1.4243e-05	17.43	0.011264	0.013076	0.0036754	1266	0.00014197	0.00014447	1061	275.84	0.00013822	0.00014447	313.7	94.597	104.85	24.304	0.00014327	28.227	123.122	-110.264	-73.878	-103.601	108.537	59.753	-104.239	-99.190	-66.104	-85.627	-100.081	-96.627	-94.987	-90.346	-67.731	-92.267	-8191	255	
21684.873	1	1	0	0	0.107	0.31765	0.26397	0.16088	0.12365	0.16596	0.26209	0.11482	0.016885	0.12006	0.1562	0.12522	0.096412	0.1755	0.074334	0.066621	-1.5125	-2.6646	-2.3458	-2.2375	-2.8375	-2.1958	-2.6917	-2.7792	-2.1229	-2.7771	-2.4458	-2.1583	-2.8187	-2.2729	-2.4542	-2.6771	51.584	74.326	219.862	188.619	82.006	121.750	101.778	161.924	128.764	-24.219	216.224	116.242	-108.620	167.084	-46.128	-11.174	0.00035384	0.00072399	0.00019799	1041	1.1308e-05	8.7555e-07	948.68	238.01	9.3293e-06	8.8848e-06	250.71	72.386	71.871	16.533	1.0692e-05	17.487	0.011414	0.013255	0.0037543	1270.9	0.00014383	0.00014605	1065.1	277.74	0.00014014	0.00014598	315.06	94.986	105.2	24.321	0.00014263	28.258	153.467	141.189	195.144	-103.359	-79.496	64.447	-103.983	-98.891	-112.946	-20.561	-100.770	-96.660	-95.297	-89.745	-65.849	-92.257	-8191	255	
21684.969	1	1	0	0	0.18401	0.1086	0.022468	0.016445	0.15083	0.16089	0.19789	0.22562	0.13916	0.18338	0.29863	0.05229	0.11267	0.053338	0.08942	0.013239	-1.6104	-2.6771	-2.5458	-2.2958	-2.8917	-2.2292	-2.3937	-2.9313	-2.1937	-2.5812	-2.4625	-2.0542	-2.8271	-2.2979	-2.2229	-2.8479	221.210	137.542	197.194	240.678	-55.048	135.444	226.133	218.586	-113.455	116.410	210.286	116.398	138.989	229.998	155.129	-110.091	0.0002731	0.0004603	0.00035118	1042.1	7.2378e-06	8.3062e-06	949.98	237.01	7.2896e-06	9.8692e-06	250.94	72.41	72.437	16.528	1.5725e-05	17.342	0.011332	0.013145	0.00373	1268.5	0.00014207	0.00014566	1065.6	276.86	0.00013972	0.0001457	314.9	94.663	104.95	24.245	0.00014175	28.136	111.694	-28.188	13.644	-103.519	-57.228	-101.135	-104.365	-99.096	65.141	54.007	-100.484	-96.519	-95.407	-90.123	-109.397	-92.248	-8191	255	
21685.064	1	1	0	0	0.10443	0.08621	0.13687	0.041677	0.080854	0.055832	0.28492	0.17365	0.16747	0.19275	0.27259	0.11284	0.41218	0.29515	0.25349	0.21176	-1.7042	-2.5292	-2.5583	-2.0375	-2.7313	-2.3833	-2.2958	-2.9688	-2.1167	-2.4417	-2.9042	-2.0583	-2.8083	-2.3521	-2.2583	-2.8021	-85.139	30.348	77.485	-113.472	-28.777	-79.228	176.949	236.966	-33.448	72.944	190.531	-4.605	20.701	75.385	188.896	-64.140	0.00016166	0.00057885	0.0001401	1033.6	1.4456e-05	7.1921e-06	951.04	238.96	1.176e-05	1.0015e-05	247.86	72.823	71.989	16.539	1.9713e-05	17.319	0.011225	0.013071	0.0036386	1260.4	0.00014038	0.00014204	1062	276.26	0.00013628	0.00014273	312.23	94.102	104.22	24.193	0.00013844	27.85	42.723	-32.255	-5.180	-103.435	125.518	86.319	-104.268	-99.139	42.472	-32.195	-100.195	-96.879	-95.725	-90.145	-8.429	-92.381	-8191	255	
21685.160	1	1	0	0	0.15284	0.12659	0.26508	0.11745	0.16504	0.12844	0.1879	0.13443	0.17343	0.16049	0.09229	0.14103	0.21799	0.26943	0.1969	0.39017	-1.5833	-2.4479	-2.7375	-2.0687	-2.8271	-2.4875	-2.3917	-3.0354	-2.3167	-2.4417	-2.9313	-2.2104	-2.8708	-2.6562	-2.1562	-2.7917	50.204	128.681	204.866	9.400	-1.771	49.857	-50.569	147.966	222.551	219.099	123.710	70.479	-45.015	34.157	82.407	56.149	0.00019802	0.00082658	0.00068559	1044.9	9.8331e-06	1.0589e-05	947.21	237.05	1.5038e-05	1.3789e-05	250.05	72.604	72.998	16.6	6.6421e-06	17.515	0.011088	0.012872	0.003592	1258.5	0.00013767	0.00014079	1058.5	276.2	0.00013365	0.0001401	312.23	94.044	104.38	24.143	0.00013687	27.81	160.247	-73.319	-0.124	-103.307	96.044	50.311	-104.255	-98.939	144.923	124.788	-100.468	-96.409	-94.942	-90.880	-112.328	-92.032	-8191	255	
21685.281	1	1	0	0	0.068727	0.097459	0.076106	0.37451	0.1674	0.2692	0.083859	0.043054	0.1049	0.045245	0.11129	0.16439	0.18397	0.13529	0.24921	0.15227	-1.9271	-2.3125	-2.8063	-2.1833	-2.7354	-2.6813	-2.1146	-2.8896	-2.2438	-2.1792	-3.0083	-2.0229	-2.7292	-2.525	-2.0417	-2.9188	92.880	-102.019	237.937	177.299	132.585	65.271	207.926	214.593	177.524	160.243	-110.340	-111.412	46.334	162.319	89.631	36.801	0.00035693	0.00025962	0.00018425	1042.4	9.4527e-06	5.8712e-06	949.22	238.15	9.3081e-06	1.1337e-05	251.63	71.772	71.779	16.493	2.5366e-05	17.402	0.010917	0.012748	0.0035697	1258.1	0.00013797	0.00014061	1057.3	276.67	0.00013536	0.00014165	313.21	93.978	104.24	24.119	0.00013802	27.864	122.673	-82.174	-13.980	-103.460	119.643	165.990	-103.951	-99.030	-104.644	87.264	-100.217	-96.823	-95.455	-89.628	217.458	-92.690	-8191	255	
21685.377	1	1	0	0	0.2182	0.11302	0.10576	0.10477	0.2258	0.19967	0.36977	0.27119	0.19733	0.15025	0.12878	0.055791	0.30224	0.34831	0.083788	0.14683	-2.0187	-2.1042	-2.7625	-2.2854	-2.4958	-2.8146	-2.0917	-2.8021	-2.5604	-2.1417	-2.6917	-2.0479	-2.4542	-2.7042	-2.0354	-2.8563	105.341	90.119	45.365	222.873	-55.306	15.074	171.229	214.139	140.259	149.457	-28.598	-62.134	-62.728	25.493	127.775	-4.473	0.00022165	0.0014646	0.00023543	1044.2	1.4736e-05	7.5584e-06	947.26	239.27	2.4765e-05	8.8269e-06	249.64	73.629	72.691	16.786	3.9209e-06	17.392	0.010961	0.012857	0.0035855	1258.8	0.00013864	0.00014077	1056.5	276.04	0.00013291	0.00013877	311.96	94.049	103.44	24.003	0.00013299	27.522	190.029	-27.095	-107.169	-103.880	21.149	80.091	-104.191	-99.494	-51.953	116.072	-100.174	-96.550	-95.717	-90.685	-34.959	-92.229	-8191	255	
21685.473	1	1	0	0	0.36932	0.15525	0.16709	0.27748	0.039866	0.2	0.11643	0.31057	0.22675	0.14598	0.2179	0.08374	0.32062	0.11793	0.066174	0.33234	-1.9333	-2.1875	-2.8833	-2.1229	-2.2479	-2.8229	-2.1625	-2.8396	-2.5208	-2.0854	-2.9542	-2.2583	-2.3688	-2.8875	-2.2375	-2.6958	213.670	6.149	87.083	203.519	-59.733	-102.800	192.353	190.299	-22.504	161.277	104.731	-77.392	114.688	175.128	132.490	227.432	0.00027659	0.0020306	7.7423e-05	1040.7	9.5123e-06	5.6762e-06	957.79	240.48	6.2778e-06	2.3964e-05	253.04	73.218	72.763	16.887	2.2506e-06	17.413	0.010471	0.012184	0.0034121	1247.2	0.00013197	0.00013349	1057.9	276.01	0.00012891	0.00013387	310.35	93.42	103.02	23.868	0.00013134	27.518	149.553	240.327	117.462	-103.836	-74.469	-70.239	-104.322	-99.037	208.191	-68.549	-100.615	-96.882	-95.609	-89.913	116.210	-92.667	-8191	255	
21685.547	1	1	0	0	0.39421	0.19638	0.091967	0.24056	0.25432	0.070102	0.12054	0.42538	0.095395	0.10278	0.066987	0.29666	0.13584	0.14754	0.26728	0.41172	-2.2271	-2.0417	-2.8458	-2.3917	-2.3833	-2.8729	-2.2604	-2.6521	-2.725	-2.2188	-2.975	-2.4458	-2.2208	-2.8333	-2.0312	-2.4938	75.913	127.358	11.378	236.971	-9.446	205.102	125.699	236.089	-116.449	-50.752	137.747	-61.951	193.315	229.055	-76.269	142.055	9.6851e-05	0.0014027	0.00036009	1043.8	5.0709e-06	1.3167e-05	952.98	239.47	7.1504e-06	1.197e-05	252.35	72.65	72.733	16.882	7.4016e-06	17.344	0.010438	0.012169	0.0033925	1250.2	0.00013245	0.00013368	1054.4	275.91	0.00012829	0.0001342	310.54	93.426	103.14	23.866	0.00013001	27.425	-13.985	-3.998	117.878	-103.688	242.381	33.100	-104.511	-99.324	134.156	213.260	-100.596	-97.262	-95.585	-90.385	44.442	-92.615	-8191	255	
21685.664	1	1	0	0	0.17168	0.12767	0.16274	0.21904	0.19797	0.10799	0.25656	0.18968	0.13451	0.080789	0.12033	0.11856	0.16101	0.14187	0.080864	0.044979	-2.4229	-1.9667	-2.7792	-2.3771	-2.1	-2.9104	-2.3042	-2.5333	-2.6875	-2.0854	-2.7083	-2.5146	-2.125	-2.9458	-2.1896	-2.5396	11.174	58.739	-33.019	226.742	116.147	153.169	184.622	135.173	9.542	68.985	-66.572	162.606	-6.962	136.678	83.808	-20.627	0.00042843	0.00040067	0.00021981	1048.2	8.5888e-06	1.2594e-05	952	240.7	8.3433e-06	2.4352e-06	251.21	73.11	72.585	16.897	6.331e-06	17.623	0.01048	0.012113	0.0034018	1249.2	0.00013132	0.00013386	1053.8	276.42	0.0001278	0.000134	311.06	93.344	102.86	23.913	0.00013042	27.484	103.742	135.016	192.618	-103.988	-43.534	-27.859	-104.537	-99.002	58.614	-61.315	-100.345	-96.887	-95.486	-90.356	191.296	-91.777	-8191	255	
21685.762	1	1	0	0	0.091231	0.22253	0.20211	0.059556	0.12551	0.18964	0.13577	0.20658	0.11784	0.071353	0.051549	0.21814	0.2086	0.15952	0.27807	0.14914	-2.4875	-2.0042	-2.6396	-2.4979	-2.0125	-2.9083	-2.3063	-2.3271	-2.7604	-2.0792	-2.7417	-2.525	-2.0563	-2.8146	-2.1396	-2.3604	13.882	230.164	158.873	-33.435	149.326	154.566	213.096	37.897	-10.397	35.849	200.470	136.781	174.245	23.439	34.101	88.743	0.00018381	0.0007902	0.00043717	1040.7	8.3495e-06	3.739e-06	952.23	239.11	7.2762e-06	8.736e-06	252.5	72.089	72.717	16.808	1.2985e-06	17.334	0.010395	0.012159	0.0034296	1252.4	0.00013344	0.00013565	1056.7	276.78	0.00013124	0.00013691	312.99	93.517	103.72	24	0.00013457	27.685	134.009	127.158	-104.530	-103.673	-110.518	186.576	-104.505	-99.104	46.427	81.723	-100.039	-97.346	-95.869	-90.517	96.031	-92.541	-8191	255	
21685.857	1	1	0	0	0.03926	0.18806	0.099824	0.22316	0.05253	0.22699	0.16773	0.27333	0.081125	0.25452	0.18906	0.2039	0.23407	0.1559	0.06097	0.027171	-2.3604	-2.0396	-2.3646	-2.9625	-2.0125	-2.825	-2.6188	-2.4021	-2.7083	-2.1208	-2.6542	-2.7333	-2.0354	-2.7354	-2.5521	-2.15	42.309	177.973	162.275	149.952	35.423	-33.071	159.611	-86.161	-92.377	125.832	233.216	242.262	179.957	-73.830	-33.407	-81.244	0.00015688	0.0014804	0.00031175	1040.3	2.2015e-05	1.4619e-05	951.25	237.74	2.2128e-05	2.0176e-05	250.37	72.417	71.73	16.654	4.2716e-06	17.35	0.010744	0.012545	0.0035372	1255.2	0.00013768	0.00014053	1056.7	276.54	0.00013556	0.0001414	313.48	94.058	104.16	24.185	0.00013889	28.013	131.931	-42.589	-91.142	-103.718	111.968	20.397	-104.508	-99.062	-59.874	25.015	-100.714	-96.631	-95.195	-90.447	211.784	-92.906	-8191	255	
21685.953	1	1	0	0	0.25689	0.30587	0.12877	0.062981	0.094312	0.19775	0.23332	0.076274	0.19374	0.17018	0.25883	0.2281	0.15862	0.21575	0.26975	0.24088	-2.5187	-2.1208	-2.3521	-2.7729	-2.1354	-2.4458	-2.6208	-2.1625	-2.6771	-2.1688	-2.3812	-2.8021	-2.0208	-2.6771	-2.5021	-2.3375	118.902	118.421	-66.993	173.499	68.002	146.121	124.839	102.945	176.525	189.736	-75.139	198.082	31.338	-112.802	99.141	182.803	0.00017773	0.0015771	0.00051352	1038.2	5.8709e-06	1.4778e-05	939.22	236.78	1.4889e-05	3.0182e-05	249.37	70.811	70.932	16.613	1.0309e-05	17.201	0.011097	0.012959	0.0036768	1260.8	0.00014158	0.00014371	1052.6	276.25	0.00013808	0.00014452	313.15	93.835	104.57	24.228	0.00014073	27.901	89.039	-43.295	25.244	-103.822	84.747	60.276	-104.454	-99.275	-22.477	130.021	-100.249	-96.639	-95.529	-89.831	-13.186	-92.416	-8191	255	
21686.074	1	1	0	0	0.3367	0.15	0.060015	0.21305	0.23567	0.17328	0.22018	0.23003	0.24609	0.085475	0.16938	0.27114	0.098903	0.07124	0.11587	0.12739	-2.3792	-2.1937	-2.2396	-2.8729	-2.0438	-2.6104	-2.7396	-2.0396	-2.7417	-2.1854	-2.4625	-2.9	-2.2479	-2.5875	-2.5979	-1.9271	40.957	-4.613	197.621	77.472	234.743	226.562	-112.439	202.822	-87.662	145.555	121.906	24.198	-24.447	91.508	7.476	128.736	0.00012151	0.00077608	0.00062728	1034	1.0178e-05	1.2711e-05	939.5	236.91	6.4725e-06	1.142e-05	249.5	71.796	73.023	16.544	1.0423e-05	17.438	0.011121	0.012945	0.0036272	1254.4	0.00013938	0.0001416	1049.8	276.32	0.00013563	0.0001414	312.96	93.939	104.25	24.128	0.00013852	27.839	-23.667	54.308	206.631	-103.558	-18.704	75.390	-104.661	-99.253	100.974	-66.530	-100.141	-96.614	-95.849	-90.356	237.478	-93.034	-8191	255	
21686.145	1	1	0	0	0.16495	0.17065	0.15782	0.20075	0.17691	0.079815	0.063121	0.3646	0.1071	0.29443	0.078028	0.14904	0.12608	0.0079346	0.17811	0.15937	-2.4646	-2.3604	-2.3792	-3	-2.0333	-2.4354	-2.8896	-2.1437	-2.5833	-2.2542	-2.2812	-2.9146	-2.2333	-2.2812	-2.7125	-1.75	177.098	-67.456	-110.620	172.795	132.353	-33.451	-115.148	-1.802	-11.953	104.314	-27.344	150.217	208.433	8.720	-31.883	130.969	9.6856e-05	0.0010333	0.0003158	1034.6	7.1609e-06	1.3382e-05	940.73	238.89	8.7443e-06	9.1297e-06	251.85	72.339	72.412	16.791	1.2705e-05	17.289	0.011033	0.012804	0.0035849	1250.4	0.00013742	0.00014009	1051.3	276.73	0.0001343	0.00014001	313.12	93.909	104.65	24.149	0.00013734	27.859	233.980	178.406	127.207	-103.875	62.685	-45.381	-104.403	-99.084	17.361	132.434	-100.316	-96.473	-94.978	-90.132	-32.247	-92.159	-8191	255	
21686.266	1	1	0	0	0.018618	0.11285	0.096681	0.12015	0.13063	0.12278	0.3841	0.19394	0.1636	0.23197	0.10503	0.11698	0.17346	0.046091	0.25912	0.14649	-2.2562	-2.4292	-1.8917	-2.7646	-2.0271	-2.3438	-3.0833	-2.0812	-2.4938	-2.4188	-2.1146	-2.8271	-2.0938	-2.1458	-2.725	-2.0083	114.462	21.592	226.702	169.534	-65.076	186.944	158.220	110.647	97.898	197.978	-49.638	200.513	-14.828	-33.424	191.346	136.596	0.00042292	0.00078585	0.00035869	1034.6	8.734e-06	1.337e-05	948.75	238.25	6.125e-06	2.23e-05	253.55	72.849	72.597	16.631	2.5654e-06	17.422	0.010974	0.012821	0.0036152	1254.3	0.00013927	0.00014198	1054.6	276.81	0.00013476	0.00014108	314.61	94.466	104.47	24.133	0.00013776	27.794	120.356	25.058	56.567	-103.626	27.996	72.101	-104.382	-98.943	-78.750	40.783	-100.065	-97.101	-95.265	-89.707	29.857	-92.203	-8191	255	
21686.361	1	1	0	0	0.15279	0.048892	0.29825	0.35009	0.17263	0.10453	0.32296	0.17248	0.33553	0.024291	0.13354	0.21753	0.21315	0.076381	0.12996	0.25834	-2.1979	-2.5792	-1.9833	-2.8354	-2.3167	-2.1979	-2.9854	-2.1229	-2.7042	-2.7125	-2.3292	-2.7292	-2.5979	-2.3625	-2.8521	-2.0875	-42.995	-109.755	71.951	156.429	-24.390	234.260	191.341	133.210	0.738	81.971	139.101	158.465	162.363	220.218	34.962	228.851	0.00072546	0.00042118	0.00027901	1041	1.5637e-05	4.0772e-06	943.94	238.78	1.5985e-05	9.023e-06	249.77	72.369	72.126	16.636	1.6192e-05	17.518	0.01099	0.012758	0.0036036	1258.8	0.00013873	0.00014087	1053	277.01	0.00013478	0.00014019	312.55	94.007	103.98	24.127	0.00013616	27.784	169.532	-68.399	4.862	-103.546	-29.532	126.327	-104.427	-99.313	97.155	-113.989	-100.537	-96.653	-95.159	-90.209	-83.644	-91.845	-8191	255	
21686.455	1	1	0	0	0.22653	0.12961	0.24013	0.40381	0.08333	0.16586	0.28138	0.14559	0.17898	0.20713	0.18152	0.12511	0.16422	0.19574	0.23554	0.25173	-2.2375	-2.6167	-2.1625	-2.7896	-2.4604	-2.1146	-2.9229	-2.3542	-2.4208	-2.8187	-2.1188	-2.6375	-2.2917	-1.9229	-2.6958	-2.0979	139.322	156.615	241.515	-94.197	203.690	82.903	198.806	81.027	199.422	35.475	-105.540	121.750	222.583	102.244	138.800	127.271	0.00012749	0.0012786	0.00066325	1034	1.2388e-05	9.1516e-06	941.15	238.56	1.4272e-05	1.3463e-05	248.5	71.464	72.128	16.554	3.7377e-06	17.362	0.010987	0.012713	0.003608	1254.1	0.00013962	0.00014336	1052.7	276.08	0.0001386	0.00014455	313.14	94.011	104.43	24.177	0.00013984	27.876	178.888	-88.955	-3.186	-103.310	-62.227	153.654	-104.184	-99.061	16.911	-3.639	-100.060	-97.068	-95.487	-89.452	43.384	-92.317	-8191	255	
21686.555	1	1	0	0	0.23481	0.11754	0.38972	0.25429	0.27018	0.14631	0.11425	0.10749	0.26211	0.087798	0.031366	0.090421	0.037457	0.17122	0.38388	0.35306	-1.9479	-2.65	-1.9813	-2.6333	-2.5042	-2.0312	-2.9813	-2.4354	-2.2625	-2.8667	-2.3729	-2.5167	-2.6562	-2.1188	-2.7833	-2.2833	40.553	-80.968	62.821	159.358	-65.708	11.407	211.565	-113.340	-78.404	234.340	77.579	97.227	-15.510	241.971	-79.458	41.611	0.00045113	0.00073069	0.00037677	1038.8	1.342e-05	1.2345e-05	939.13	237.4	1.1338e-05	1.3474e-05	250.16	72.037	72.21	16.631	1.181e-05	17.312	0.011071	0.012837	0.0035987	1255.2	0.00013837	0.00014096	1051.5	275.94	0.0001348	0.00014132	312.74	93.936	104.51	24.214	0.00014006	27.943	77.415	-81.499	-45.111	-103.602	10.946	69.757	-104.412	-98.857	-49.491	87.358	-100.017	-97.103	-95.485	-90.045	61.613	-92.276	-8191	255	
21686.674	1	1	0	0	0.14281	0.13186	0.16223	0.064305	0.10508	0.12924	0.14566	0.23949	0.13337	0.28002	0.043109	0.15717	0.072034	0.45963	0.042366	0.12218	-1.9604	-2.7604	-1.9937	-2.6063	-2.5667	-1.8208	-2.9625	-2.3646	-2.2167	-2.6271	-2.1896	-2.5104	-2.6292	-1.8854	-2.7188	-2.4313	54.932	236.575	-2.518	226.349	22.378	-101.058	164.899	229.005	-112.974	145.773	66.410	-62.089	-16.418	43.493	-67.992	162.645	0.00042802	0.00023547	0.00037585	1030.3	3.7695e-06	1.3994e-05	947.63	237.86	1.3643e-05	8.342e-06	250.46	72.111	72.145	16.551	1.001e-05	17.47	0.011228	0.013063	0.0036518	1256.9	0.00014124	0.00014477	1056.6	277.04	0.00013792	0.0001437	313.81	94.137	104.56	24.347	0.0001414	28.137	115.409	-51.614	194.467	-103.127	205.916	1.947	-104.217	-98.935	-33.820	62.213	-100.301	-97.109	-95.201	-89.869	61.370	-92.094	-8191	255	
21686.770	1	1	0	0	0.19191	0.16671	0.25862	0.29254	0.074456	0.30047	0.20927	0.12489	0.12626	0.16575	0.24287	0.29219	0.1377	0.074356	0.17138	0.056149	-1.6146	-2.9062	-2.1333	-2.5792	-2.7271	-2.0187	-2.8646	-2.55	-2.1542	-2.825	-2.2083	-2.3167	-2.8854	-2.0042	-2.5729	-2.4229	-70.007	221.998	-101.993	-93.775	237.460	39.987	175.426	-34.134	-89.549	-78.979	136.957	141.986	194.079	-75.151	222.675	176.145	0.00042972	0.00074645	0.00040093	1036.7	3.2523e-06	2.6166e-05	945.62	237.45	6.6116e-06	2.0653e-05	251.27	71.712	72.216	16.788	5.6086e-06	17.423	0.011293	0.013138	0.0037055	1261.2	0.00014342	0.00014548	1059.5	277.28	0.00013903	0.00014445	314.97	94.371	105.22	24.358	0.00014111	28.09	129.189	37.584	241.975	-103.583	-59.665	8.314	-103.973	-98.927	-57.911	49.925	-100.346	-96.633	-94.936	-89.689	82.471	-92.054	-8191	255	
21686.842	1	1	0	0	0.087355	0.048574	0.11853	0.10752	0.17775	0.28376	0.10588	0.27122	0.24572	0.16534	0.19035	0.13316	0.30521	0.13452	0.32163	0.05816	-1.65	-2.8312	-1.9708	-2.1854	-2.6937	-1.8854	-2.5458	-2.5958	-1.9771	-2.5687	-2.1208	-2.1708	-2.825	-1.9125	-2.55	-2.7396	117.302	142.343	-95.046	-115.826	195.406	-21.605	-95.299	182.928	190.543	-74.212	210.233	-98.349	-47.207	125.127	-51.214	-76.721	0.00034833	0.0013642	0.00014683	1037.4	8.6214e-06	1.1043e-05	940.67	236.35	1.1568e-05	4.1553e-06	251.02	71.973	71.872	16.599	1.1893e-05	17.442	0.011345	0.013126	0.0036786	1260.3	0.00014283	0.00014523	1054.6	277.26	0.00013979	0.00014519	313.98	94.327	104.75	24.211	0.00013989	28.059	15.766	-40.721	-12.990	-103.571	-35.398	94.270	-104.259	-99.141	-33.091	193.633	-99.937	-96.656	-95.220	-89.835	-44.367	-91.833	-8191	255	
21686.963	1	1	0	0	0.32524	0.05492	0.21951	0.085182	0.19243	0.14574	0.23519	0.22496	0.087902	0.056882	0.024599	0.076104	0.24451	0.1201	0.096272	0.16507	-1.6542	-2.6937	-2.3625	-2.1437	-2.8958	-2.0354	-2.5396	-2.6063	-1.8146	-2.7854	-2.3312	-2.0417	-2.7979	-2.2125	-2.2604	-2.5563	-9.204	-81.770	-4.354	194.470	-105.224	128.554	155.595	220.552	-83.059	164.501	-53.110	63.918	223.725	211.587	38.114	74.121	0.00049092	0.0011692	0.00028387	1033.2	1.2954e-05	1.317e-05	942.32	238.69	1.3107e-05	1.444e-05	252.17	72.339	72.12	16.774	2.0254e-05	17.359	0.011131	0.012856	0.0035821	1255.3	0.00013807	0.00014022	1052.7	276.87	0.00013415	0.00014012	312.64	93.792	104.08	24.054	0.00013599	27.61	85.049	64.801	123.797	-103.386	-22.368	39.581	-104.190	-98.765	152.450	4.220	-100.207	-96.810	-95.610	-90.098	-22.998	-91.772	-8191	255	
21687.059	1	1	0	0	0.25509	0.14366	0.27705	0.25992	0.12154	0.21678	0.096966	0.17181	0.11293	0.24991	0.3007	0.10515	0.36747	0.021538	0.14684	0.10878	-1.4188	-2.7354	-2.4042	-2.2146	-2.975	-2.3104	-2.5458	-2.9125	-2.1146	-2.6542	-2.5625	-2.2188	-2.8375	-2.2313	-2.3125	-3.0604	115.833	-87.597	144.104	134.349	60.749	160.686	235.580	164.463	-110.644	134.486	199.558	-84.401	213.723	110.139	107.946	188.950	0.00023858	0.002445	0.00068619	1034.8	4.1433e-06	4.2945e-06	943.32	238.82	1.2748e-05	9.6261e-06	250.25	72.602	72.212	16.851	9.5074e-06	17.309	0.010809	0.012525	0.0035074	1253.3	0.00013602	0.00013765	1053.8	276.2	0.00013241	0.00013795	312.34	93.895	104.11	24.104	0.00013574	27.71	113.542	-1.388	-105.881	-103.617	200.353	-17.573	-104.248	-98.610	48.655	80.006	-100.588	-96.559	-95.034	-90.027	56.323	-91.992	-8191	255	
21687.154	1	1	0	0	0.26677	0.34419	0.23181	0.015723	0.28505	0.098256	0.17398	0.31773	0.11646	0.26081	0.19967	0.1653	0.21641	0.237	0.49733	0.14392	-1.5312	-2.4646	-2.4708	-2.0979	-2.8625	-2.2979	-2.1583	-2.6125	-2.1562	-2.5771	-2.6771	-2.0917	-2.7792	-2.4854	-2.1875	-2.8646	33.353	155.147	169.212	105.598	-24.203	-39.306	159.350	214.031	171.355	72.960	-103.233	175.838	-57.951	114.868	-99.799	108.184	0.00064623	0.00084385	0.00045429	1036.1	2.0269e-05	9.8206e-06	946.14	238.87	3.3298e-06	9.0095e-06	251.59	72.251	72.141	16.783	1.5544e-05	17.707	0.01084	0.012563	0.0035395	1253.8	0.00013619	0.0001382	1054.4	276.77	0.0001331	0.00013893	312.85	93.977	104.01	24.109	0.00013669	27.801	176.452	218.855	-39.323	-103.388	143.890	20.447	-104.042	-98.562	38.591	-13.206	-100.443	-96.445	-94.936	-89.889	25.932	-92.114	-8191	255	
21687.250	1	1	0	0	0.16462	0.3202	0.13485	0.185	0.19917	0.13797	0.35711	0.11757	0.1277	0.28075	0.19275	0.093175	0.055732	0.22177	0.13379	0.12856	-1.9479	-2.5125	-2.8812	-2.1896	-2.6917	-2.3875	-2.1562	-2.9833	-2.0167	-2.3604	-2.85	-2.1	-2.8104	-2.4562	-2.1125	-2.8271	16.216	29.901	189.928	206.512	35.679	133.676	141.907	-86.956	-111.905	186.752	117.748	-43.470	11.612	-55.769	1.478	96.723	0.00017897	0.0011375	0.0001342	1037.8	6.1841e-06	1.7007e-06	948.07	239.6	1.7636e-05	1.5122e-05	250.28	72.117	72.645	16.616	6.8788e-06	17.487	0.010753	0.012542	0.003551	1250	0.00013496	0.00013805	1053.3	276.45	0.00013337	0.00013923	312.66	93.52	103.61	24.115	0.00013692	27.647	116.382	-89.581	-83.531	-103.164	-10.077	215.753	-104.006	-98.968	-7.747	-50.182	-99.998	-96.357	-95.667	-89.520	7.414	-91.778	-8191	255	
21687.369	1	1	0	0	0.11895	0.20635	0.12104	0.23062	0.12451	0.047254	0.18624	0.25505	0.036197	0.087611	0.1474	0.21983	0.26737	0.29598	0.28278	0.18185	-1.7521	-2.2708	-2.7271	-2.0938	-2.7833	-2.4792	-2.2521	-3.0646	-2.0375	-2.3146	-2.9792	-2.2313	-2.725	-2.6917	-1.875	-2.8625	-66.554	119.302	138.796	108.420	181.931	49.574	102.809	205.836	-30.261	12.849	213.463	108.095	200.611	-74.146	2.971	230.036	0.0005032	0.00021935	0.0004514	1043.9	1.3244e-05	3.964e-06	941.88	239.11	2.1192e-05	6.2921e-06	251.05	72.236	72.04	16.612	2.408e-05	17.201	0.010754	0.012579	0.0035346	1251.3	0.00013544	0.0001385	1048.7	275.87	0.00013212	0.00013948	310.61	93.287	103.56	24.056	0.00013695	27.52	-69.887	-3.120	-54.587	-103.313	83.098	72.731	-103.933	-98.827	-56.416	-56.916	-100.204	-96.419	-95.108	-89.566	34.763	-91.881	-8191	255	
21687.441	1	1	0	0	0.12325	0.088995	0.091315	0.19367	0.10272	0.10364	0.1847	0.1055	0.19794	0.28871	0.16284	0.1775	0.3083	0.16748	0.14673	0.076077	-1.8687	-2.3167	-2.8146	-2.1688	-2.3646	-2.6417	-1.9792	-2.8042	-2.4562	-2.1688	-2.9667	-2.1583	-2.6437	-2.8083	-1.9833	-2.775	-12.465	6.474	77.045	-112.401	-49.111	-90.712	120.564	67.731	211.174	-116.238	210.996	189.794	205.375	-26.002	228.168	-97.377	0.00037716	0.0011942	0.00045808	1031.7	2.2034e-06	1.5214e-05	942.58	238.49	1.7313e-05	9.6975e-06	249.52	71.789	71.626	16.562	1.3701e-05	17.505	0.010876	0.012769	0.0035855	1249.9	0.00013897	0.00014167	1050.6	276.25	0.00013623	0.00014382	312.62	93.569	104.23	24.194	0.00013865	27.75	179.730	-6.425	169.427	-103.395	-87.471	126.181	-104.219	-98.906	238.472	100.030	-99.807	-96.911	-94.849	-90.312	131.118	-92.113	-8191	255	
21687.537	1	1	0	0	0.27102	0.3343	0.16659	0.22374	0.21812	0.29803	0.26764	0.2768	0.13021	0.16637	0.25165	0.19727	0.2451	0.12368	0.093813	0.21082	-1.9208	-2.1667	-2.8479	-2.0833	-2.325	-2.6083	-2.1729	-2.7854	-2.7583	-2.0542	-2.8958	-2.1167	-2.3208	-2.7958	-2.1396	-2.7292	8.337	180.628	178.084	-38.009	167.212	136.625	184.587	179.160	-94.929	11.371	205.191	161.912	11.312	-103.935	130.041	-80.256	0.00026912	0.0015282	0.00014313	1033.5	2.0541e-06	1.0036e-05	942.36	237.25	1.8295e-05	2.1034e-06	251.01	71.542	71.823	16.476	9.892e-06	17.44	0.010999	0.012972	0.003609	1252.8	0.00014047	0.00014337	1049.9	276.76	0.00013708	0.00014469	313.09	93.689	104.34	24.179	0.0001405	27.995	170.733	-49.059	7.148	-103.622	-13.001	-102.737	-104.051	-98.836	48.658	89.120	-100.278	-96.528	-95.318	-89.317	37.480	-91.975	-8191	255	
21687.635	1	1	0	0	0.20724	0.22168	0.22158	0.053	0.23747	0.11554	0.37663	0.097984	0.10285	0.031503	0.16168	0.088518	0.20242	0.086625	0.047321	0.049242	-2.2438	-1.9562	-2.6937	-2.4188	-2.3146	-2.8229	-2.2812	-2.5875	-2.6646	-1.9813	-2.8563	-2.2417	-2.2979	-2.8833	-2.2167	-2.3542	211.809	-24.249	102.220	-92.812	224.285	156.285	195.293	41.828	87.232	-83.223	180.177	-70.337	-80.747	-7.128	143.574	27.762	0.00035817	0.00065184	0.0006083	1031.7	1.0822e-05	1.0975e-05	934.77	238.37	9.2996e-06	3.9054e-06	248.45	71.298	72.039	16.718	1.6557e-05	17.334	0.011152	0.012997	0.0035938	1248.6	0.00013903	0.00014038	1045.9	275.86	0.00013398	0.00014013	310.53	92.821	103.35	24.002	0.0001356	27.588	167.667	58.654	226.141	-103.305	-90.694	-27.997	-103.877	-98.922	104.061	-63.803	-99.760	-96.243	-94.694	-90.132	122.757	-92.001	-8191	255	
21687.754	1	1	0	0	0.1225	0.093738	0.077256	0.251	0.14829	0.12492	0.14524	0.020423	0.13829	0.064623	0.048129	0.31734	0.078493	0.076012	0.12373	0.21917	-2.1458	-1.9396	-2.7812	-2.2208	-1.95	-2.8063	-2.1	-2.5479	-2.6958	-1.9542	-3.0875	-2.5354	-2.0021	-2.8125	-2.0979	-2.3312	11.814	221.214	237.698	220.927	133.606	142.900	-110.809	100.488	-44.697	-7.020	-58.437	81.981	179.424	134.622	-58.390	91.487	0.00017379	0.00146	0.00017554	1026.4	1.3674e-06	6.998e-06	938.26	237.45	5.1275e-06	1.4765e-05	249.17	70.82	72.334	16.471	1.9942e-05	17.169	0.010829	0.012578	0.0034928	1240.6	0.00013598	0.00013819	1042.9	274.24	0.00013173	0.00013654	308.13	92.182	102.94	23.821	0.00013268	27.28	58.448	17.367	-53.589	-104.014	104.205	92.758	-104.620	-99.340	179.357	-18.591	-100.409	-97.274	-95.873	-90.721	-93.111	-93.069	-8191	255	
21687.850	1	1	0	0	0.16067	0.091208	0.030813	0.25273	0.11355	0.12241	0.10174	0.083668	0.071084	0.067368	0.17394	0.083755	0.10962	0.15764	0.19951	0.093729	-2.3271	-2.0292	-2.7354	-2.6667	-2.0479	-2.9208	-2.3333	-2.4792	-2.7396	-2.1479	-2.8812	-2.5687	-2.0438	-2.7771	-2.2313	-2.3021	-32.400	-38.444	-113.342	-48.480	215.176	0.859	-113.870	-69.078	56.812	-73.681	-37.443	177.471	158.397	209.507	133.424	136.650	0.00031093	0.000343	0.00032702	1028.8	1.9468e-05	2.6018e-06	936.2	238.08	4.5672e-06	1.0688e-05	247.72	71.322	71.44	16.598	7.9112e-06	17.125	0.010675	0.012293	0.0034492	1240.9	0.00013417	0.00013693	1038.8	274.51	0.00013109	0.00013628	308.04	92.084	102.95	23.837	0.0001315	27.351	-70.795	242.012	175.471	-103.806	24.813	75.402	-104.830	-99.016	-7.405	-63.685	-100.402	-97.018	-95.811	-90.078	11.062	-92.947	-8191	255	
21687.945	1	1	0	0	0.31272	0.13719	0.046598	0.1845	0.070771	0.24696	0.11375	0.1897	0.050804	0.24433	0.23015	0.18649	0.2121	0.14491	0.069648	0.21043	-2.3417	-2.0396	-2.7333	-2.6	-1.9875	-2.7812	-2.3438	-2.3333	-2.8187	-2.1146	-2.5542	-2.8125	-2.0938	-2.8333	-2.3375	-2.3708	206.857	26.570	145.945	-113.563	-88.828	-19.653	223.505	201.882	-93.633	91.210	201.685	55.565	233.463	156.681	22.784	185.744	0.00031307	0.0015848	0.00044794	1025	1.1295e-05	9.6156e-06	930.48	237.22	9.5387e-07	1.3336e-05	247.54	71.478	72.027	16.529	1.9719e-05	17.066	0.010649	0.012397	0.0034788	1240.2	0.00013556	0.00013779	1038	274.32	0.00013187	0.00013796	308.21	92.646	103.29	23.823	0.00013419	27.425	122.401	-71.863	-1.903	-103.720	-44.235	57.340	-104.817	-99.060	-11.383	34.641	-100.642	-96.907	-95.689	-90.383	-9.574	-92.450	-8191	255	
21688.066	1	1	0	0	0.15268	0.23566	0.048799	0.22342	0.17554	0.23067	0.17844	0.21595	0.24402	0.14719	0.26458	0.27741	0.16921	0.033677	0.35645	0.12268	-2.4146	-2.2417	-2.3979	-2.7333	-2.0583	-2.6896	-2.5417	-2.2021	-2.8646	-2.1896	-2.4437	-2.7708	-1.9125	-2.7667	-2.5271	-2.0896	174.803	97.536	79.865	161.404	-99.879	127.456	171.565	110.318	-22.601	-58.324	-93.995	221.896	214.530	-53.745	171.369	-26.029	0.00060749	0.0015449	0.00014963	1019.3	8.4973e-06	1.1612e-05	933	237.71	1.2298e-05	3.8288e-06	249.64	71.26	71.599	16.503	1.0595e-05	17.286	0.010747	0.012465	0.0035195	1239.6	0.00013538	0.00013755	1039.8	274.52	0.00013227	0.00013797	309.72	92.658	102.95	23.802	0.00013489	27.386	121.341	34.328	8.457	-103.887	169.345	125.358	-104.586	-99.115	-62.681	22.588	-100.519	-96.822	-95.371	-90.309	-56.819	-92.681	-8191	255	
21688.139	1	1	0	0	0.092552	0.11096	0.13917	0.31277	0.086778	0.1303	0.29618	0.52954	0.051575	0.027413	0.137	0.20024	0.11692	0.20809	0.07116	0.18726	-2.3729	-2.1458	-2.2354	-2.8146	-1.9438	-2.6688	-2.5083	-2.1688	-2.8771	-2.1437	-2.3187	-2.9417	-2.0062	-2.6771	-2.7667	-1.9792	222.445	54.053	90.617	227.561	-100.494	7.429	88.038	227.392	110.252	-21.297	134.613	-114.746	147.818	165.652	-67.012	222.719	0.00050218	0.0011568	0.00040199	1029.1	6.1299e-06	6.9705e-06	932.67	237.03	4.8658e-06	8.1121e-06	248.36	71.211	72.222	16.406	6.2271e-06	17.059	0.010688	0.01243	0.0035235	1240.1	0.00013494	0.0001372	1039.2	274.47	0.00013222	0.0001379	308.4	92.532	103.23	23.898	0.00013745	27.576	-117.051	111.461	71.320	-103.771	152.977	221.349	-104.634	-99.224	194.812	103.947	-100.184	-96.695	-95.585	-90.252	151.470	-92.622	-8191	255	
21688.234	1	1	0	0	0.14875	0.02845	0.13443	0.11043	0.26139	0.14837	0.13318	0.058195	0.2163	0.11858	0.23523	0.19422	0.12912	0.18861	0.044347	0.17056	-2.4833	-2.5125	-2.1021	-2.7687	-1.9479	-2.425	-2.7333	-2.1312	-2.6292	-2.3958	-2.225	-2.8958	-2.1604	-2.4708	-2.4896	-1.9583	36.187	-93.868	184.984	224.444	87.570	188.127	223.648	215.249	129.308	-63.480	-83.181	217.352	-100.707	208.786	75.767	116.420	5.5296e-05	0.00071793	0.00029498	1022.1	9.365e-06	2.5486e-06	924.09	235.53	1.3944e-05	1.3104e-05	246.02	70.45	70.541	16.437	4.3163e-06	16.909	0.010941	0.012794	0.0036379	1244	0.00013999	0.00014382	1037.6	275.18	0.00013904	0.00014667	311.56	93.316	104.42	24.298	0.00014646	27.897	165.731	219.683	181.869	-103.515	142.112	14.042	-104.488	-99.426	185.400	-45.841	-100.560	-96.529	-95.564	-89.509	-98.728	-92.429	-8191	255	
21688.355	1	1	0	0	0.16296	0.2113	0.33812	0.07096	0.063619	0.096324	0.11602	0.17868	0.11896	0.11073	0.29854	0.36098	0.135	0.13413	0.018685	0.098413	-2.3167	-2.4583	-1.9146	-2.7938	-2.1854	-2.4604	-2.8312	-1.9333	-2.7146	-2.4021	-2.0563	-2.9562	-2.1792	-2.3812	-2.8375	-2.1437	-87.046	62.690	203.423	114.210	30.941	228.789	199.344	220.530	5.287	64.218	134.844	180.191	241.134	-23.663	-25.581	-78.357	0.00064783	0.0011852	0.00030499	1020.6	1.4907e-05	1.0548e-05	918.27	232.71	3.9455e-06	8.9362e-06	243.33	69.884	70.129	16.037	1.0106e-05	16.797	0.011594	0.01366	0.0038617	1258.6	0.00015069	0.00015459	1040.9	276.25	0.00014988	0.00015856	315.19	94.46	106.36	24.779	0.00015706	28.627	144.606	80.163	-105.955	-103.767	125.405	33.834	-104.794	-99.002	141.935	28.558	-100.335	-97.029	-95.510	-90.175	-97.391	-92.513	-8191	255	
21688.449	1	1	0	0	0.091815	0.2198	0.25863	0.22026	0.055232	0.025055	0.1724	0.13701	0.11973	0.13657	0.15264	0.35862	0.11016	0.20857	0.26632	0.1271	-2.2042	-2.5312	-2.0896	-2.7562	-2.0854	-2.25	-2.9625	-2.0646	-2.4688	-2.6625	-2.1063	-2.9333	-2.3292	-2.2458	-2.9167	-2.1667	-26.331	210.644	100.895	201.119	-62.263	233.018	-30.485	16.747	-49.892	52.890	155.549	170.514	157.866	232.218	-24.479	170.122	0.00049801	0.0014699	0.00043	1010	1.1669e-05	1.1324e-05	910.42	230.19	1.7364e-05	1.9843e-05	242.1	69.347	69.02	16.16	5.905e-06	16.663	0.012521	0.014728	0.0041341	1268.3	0.00015879	0.00016347	1041.6	275.51	0.00015492	0.00016361	315.21	94.496	106.93	24.933	0.00016025	28.781	109.483	-109.678	20.680	-103.577	84.074	-97.596	-104.221	-99.367	222.036	-30.409	-100.017	-97.069	-95.304	-90.396	201.098	-92.090	-8191	255	
21688.547	1	1	0	0	0.095965	0.19809	0.046149	0.1476	0.17198	0.020244	0.37321	0.15242	0.12333	0.21279	0.13208	0.17327	0.076519	0.14092	0.094881	0.27646	-2.1021	-2.7167	-2.0354	-2.9021	-2.4271	-2.2229	-2.8521	-2.1896	-2.3917	-2.8563	-2.1	-2.7917	-2.5292	-2.2458	-2.8	-2.2313	-61.887	137.714	93.134	-97.235	23.347	-27.372	173.454	74.479	42.173	-12.883	178.008	161.873	96.334	-29.820	237.061	238.173	0.00033934	0.00064036	0.00026377	1005.4	2.1776e-05	1.5401e-05	908.36	229.79	1.4097e-05	2.1514e-05	237.91	69.386	69.145	16.031	2.2258e-05	16.656	0.012848	0.015045	0.0042294	1266.8	0.00016501	0.00016914	1042.5	275.83	0.00016102	0.00016791	314.83	94.731	107.07	24.96	0.00016089	28.84	91.749	-95.105	82.107	-103.484	93.355	-7.471	-104.557	-99.280	-10.560	66.919	-100.250	-97.034	-95.485	-90.278	-52.319	-92.515	-8191	255	
21688.666	1	1	0	0	0.23246	0.17244	0.29343	0.028833	0.27338	0.48773	0.051516	0.20729	0.2296	0.059779	0.3184	0.15974	0.22595	0.12662	0.13384	0.028656	-1.8312	-2.6583	-2.0438	-2.6937	-2.425	-2.2917	-2.9875	-2.225	-2.4625	-2.7646	-2.1125	-2.6312	-2.6167	-2.1771	-2.8292	-2.4625	-46.469	150.527	127.204	193.080	-2.380	-13.131	175.768	216.814	85.693	130.457	-21.265	147.601	-3.426	-64.488	82.545	136.535	0.00028048	0.0010257	0.00069613	1006.3	2.7526e-05	2.2467e-05	904.87	229.15	1.3608e-05	1.3735e-06	240.47	69.589	70.204	16.009	1.1039e-05	16.766	0.012821	0.014872	0.0041528	1263.1	0.0001602	0.0001633	1036.6	274.59	0.00015523	0.00016254	312.56	94.178	106.65	24.769	0.00015507	28.58	26.609	-109.687	-76.466	-103.554	220.463	-29.514	-104.359	-99.353	-84.398	-93.255	-100.340	-96.019	-95.289	-89.968	128.078	-92.307	-8191	255	
21688.738	1	1	0	0	0.083664	0.13716	0.089883	0.1219	0.14292	0.19187	0.1604	0.11732	0.3503	0.075937	0.24226	0.080786	0.21955	0.2721	0.28151	0.11514	-1.9312	-2.8896	-2.0667	-2.4792	-2.7229	-1.9729	-2.8812	-2.5438	-2.1063	-2.9729	-2.2146	-2.5354	-2.8229	-2.0167	-2.7313	-2.2646	234.039	-40.572	-7.086	-114.360	107.639	206.224	210.606	-93.906	102.981	111.147	56.007	-82.195	104.297	12.730	139.440	-100.644	0.00036338	0.0011613	0.00019868	1010.4	4.8016e-06	2.6543e-06	912.7	230.13	1.6838e-05	1.7579e-05	241.13	69.519	70.082	16.196	4.6142e-06	16.791	0.012453	0.014388	0.0040409	1256.9	0.00015687	0.00015931	1039.6	274.9	0.00015312	0.00016063	312.3	94.378	106.98	24.819	0.0001568	28.822	-99.121	-16.803	241.199	-103.685	106.188	22.474	-104.222	-99.236	-74.143	66.994	-100.415	-96.735	-95.338	-89.436	-13.885	-92.285	-8191	255	
21688.834	1	1	0	0	0.11124	0.22562	0.078008	0.026167	0.21013	0.2063	0.23829	0.14009	0.031379	0.12793	0.26662	0.066941	0.097988	0.090799	0.063216	0.13309	-1.7042	-2.9583	-2.2667	-2.5375	-2.7271	-2.0625	-2.9021	-2.7771	-2.0479	-2.95	-2.1271	-2.3917	-2.7104	-1.9896	-2.6562	-2.5563	48.962	159.546	130.792	190.552	-110.394	48.321	116.512	185.352	155.561	92.893	166.248	-54.492	-72.969	-89.194	85.417	76.773	0.00026287	0.00065033	0.00056451	1012.1	4.7049e-06	1.2282e-05	909.87	232.42	1.7869e-05	9.4918e-06	241.38	69.481	69.285	16.215	1.4714e-05	16.62	0.012662	0.014609	0.0040784	1263.7	0.00015921	0.00016153	1037.5	276.5	0.00015602	0.00016142	314.13	95.038	107.42	24.877	0.00015943	28.849	44.130	94.583	-7.521	-103.693	95.835	-57.652	-104.031	-98.854	236.817	85.507	-100.768	-96.620	-95.131	-89.864	-35.025	-92.235	-8191	255	
21688.930	1	1	0	0	0.050572	0.14501	0.20643	0.30293	0.14964	0.15921	0.46512	0.072312	0.061822	0.24488	0.20802	0.088262	0.18209	0.10555	0.41353	0.14307	-1.6562	-2.8021	-2.2667	-2.3167	-2.7313	-2.1	-2.6854	-2.5312	-1.9	-2.7083	-2.2667	-2.2396	-2.8229	-2.0979	-2.5167	-2.4688	-44.393	173.886	-41.207	-108.750	-30.558	15.292	179.319	-77.178	176.723	169.923	176.871	180.338	-18.483	-54.309	-90.773	221.607	5.3332e-05	0.00080693	0.00016432	1007.2	9.289e-06	1.1739e-05	912.05	232.71	1.4387e-05	3.0222e-06	240.45	69.665	69.798	16.232	1.4155e-05	16.591	0.012815	0.014801	0.0041228	1266.4	0.00015971	0.00016088	1040.6	276.25	0.00015541	0.00016114	314.12	94.912	107.2	24.841	0.00015969	28.913	159.971	31.639	-90.852	-103.579	-62.855	197.883	-104.361	-99.667	0.079	117.401	-100.972	-97.255	-95.599	-90.798	-11.284	-93.288	-8191	255	
21689.025	1	1	0	0	0.22083	0.05435	0.063225	0.48436	0.046959	0.20148	0.22669	0.20856	0.23327	0.17049	0.20805	0.10104	0.2184	0.20041	0.20703	0.085219	-1.4958	-2.7708	-2.2354	-2.2875	-2.7604	-2.2771	-2.5771	-2.775	-1.9542	-2.7854	-2.5083	-2.175	-2.9333	-2.1562	-2.4625	-2.7521	179.944	222.448	139.494	227.609	-112.879	-106.639	14.407	134.876	43.115	-39.087	177.874	69.695	105.502	14.874	-35.511	6.152	0.00039497	0.00039798	0.00018231	1005.7	6.7685e-06	4.7047e-06	909.57	229.51	5.8646e-06	1.1267e-05	239.24	69.211	69.354	15.992	1.7952e-05	16.59	0.012782	0.01482	0.0041816	1270.1	0.00016167	0.00016338	1041.9	276.32	0.00015733	0.00016345	314.47	94.917	107.62	24.988	0.00016318	29.185	231.857	-8.385	-12.848	-104.125	-5.758	118.351	-104.662	-99.476	216.077	-46.424	-100.724	-96.885	-95.305	-90.413	-78.761	-92.976	-8191	255	
21689.146	1	1	0	0	0.13465	0.10052	0.14145	0.2816	0.20027	0.22556	0.22456	0.14253	0.2044	0.36625	0.13275	0.19213	0.14494	0.22929	0.14345	0.19854	-1.5854	-2.575	-2.3688	-2.1229	-2.8458	-2.15	-2.4813	-2.7333	-2.0667	-2.7625	-2.6333	-2.0938	-2.8021	-2.2542	-2.1417	-2.8854	74.100	5.372	150.081	228.880	118.860	177.982	150.337	205.239	-107.419	197.090	-37.991	30.755	95.182	177.185	-64.051	154.828	0.00039647	0.00061445	0.00038149	997.04	1.4671e-05	2.2161e-05	913.36	229.85	6.5226e-06	8.2909e-06	241.02	68.91	69.817	16.106	2.7802e-05	16.687	0.012955	0.015137	0.0042736	1268.2	0.00016328	0.00016659	1043.1	276.74	0.00015931	0.00016545	314.8	94.871	107.34	24.921	0.00016232	28.976	6.818	-15.855	-72.607	-103.767	74.441	122.706	-104.749	-99.490	77.002	137.362	-100.781	-97.050	-95.886	-90.976	-9.911	-91.927	-8191	255	
21689.242	1	1	0	0	0.23339	0.26895	0.14841	0.10488	0.22322	0.061502	0.25657	0.30385	0.2454	0.080873	0.18407	0.12211	0.31572	0.11133	0.21676	0.18664	-1.6083	-2.6375	-2.4979	-2.2208	-2.8521	-2.1896	-2.4271	-2.95	-2.0625	-2.6583	-2.8333	-1.9292	-2.8271	-2.5146	-2.0521	-2.7854	-75.247	181.386	43.127	168.976	-59.733	-36.263	157.594	92.002	77.357	-101.795	91.288	71.160	208.145	105.024	-23.736	222.768	0.0002971	0.00052189	7.9377e-05	1005.5	1.3164e-05	1.3488e-05	907.1	231.43	1.1362e-05	6.3829e-06	240.55	69.15	69.986	16.104	2.0663e-05	16.944	0.012781	0.014964	0.0042224	1270.8	0.00016232	0.00016697	1042.3	277.91	0.0001602	0.00016901	316.26	95.324	108.11	25.119	0.00016563	29.285	165.242	53.484	239.803	-104.076	59.909	184.487	-104.837	-99.184	174.041	27.413	-100.544	-96.842	-95.989	-90.346	-17.336	-92.355	-8191	255	
21689.314	1	1	0	0	0.14141	0.12625	0.28699	0.25311	0.069381	0.27212	0.065264	0.32187	0.050113	0.14889	0.12155	0.1067	0.16918	0.090992	0.12048	0.094302	-1.5854	-2.5271	-2.6625	-2.025	-2.7938	-2.3417	-2.3771	-2.8875	-2.2875	-2.5542	-2.7625	-2.0542	-2.7417	-2.5375	-2.2896	-2.8708	57.601	204.005	129.771	-96.414	199.344	-106.906	161.855	149.965	198.753	-10.800	-116.255	176.352	13.415	60.310	159.869	231.299	0.0005908	0.00072487	0.00034145	1008.6	8.0859e-06	2.4412e-05	908.08	231.28	2.1924e-05	9.178e-06	240.58	69.158	69.755	16.144	1.3713e-05	16.599	0.012979	0.01522	0.0042912	1272.9	0.00016578	0.00017032	1047.6	278.68	0.00016392	0.00017323	319.93	96.204	110.07	25.548	0.00017434	29.785	-67.306	41.300	242.700	-103.956	-113.219	-69.512	-104.577	-99.313	52.132	35.403	-100.681	-96.784	-95.931	-90.401	46.063	-92.116	-8191	255	
21689.436	1	1	0	0	0.22111	0.18304	0.12266	0.1066	0.043063	0.13265	0.3685	0.1247	0.15589	0.12658	0.011616	0.15187	0.091442	0.12465	0.3063	0.36793	-1.8583	-2.3229	-2.8292	-1.9875	-2.6521	-2.7104	-2.2125	-2.8958	-2.2125	-2.4458	-2.8396	-1.9625	-2.7208	-2.5812	-1.9646	-2.9021	194.132	76.168	-22.742	-67.809	39.719	132.414	176.103	186.139	154.360	90.168	87.123	168.110	-32.373	60.090	171.846	238.756	0.00036338	0.00054671	0.00034668	1003.6	2.505e-05	2.6405e-05	905.88	228.38	1.3867e-05	4.2961e-06	238.85	68.69	68.343	15.891	2.1088e-05	16.481	0.013731	0.016225	0.004544	1287.7	0.00017736	0.00018168	1052.1	278.94	0.00017118	0.00018002	320.03	96.232	110.24	25.661	0.00017523	29.811	183.319	86.928	-35.720	-103.870	206.287	47.371	-104.274	-98.774	55.820	-12.975	-100.495	-97.485	-95.726	-90.571	-17.193	-92.565	-8191	255	
21689.529	1	1	0	0	0.34431	0.34478	0.12929	0.16541	0.060107	0.14388	0.14205	0.30076	0.1147	0.077669	0.18524	0.30544	0.1641	0.12698	0.24411	0.28364	-1.9188	-2.1583	-2.875	-2.0604	-2.5646	-2.6896	-2.1958	-2.8917	-2.3271	-2.1813	-2.9708	-2.0125	-2.625	-2.6854	-2.1	-2.8	0.165	-20.991	117.486	-21.842	-35.992	164.275	185.597	134.154	68.708	-27.123	-111.959	55.129	-3.668	3.449	30.620	58.242	0.00035177	0.00093201	8.5419e-05	1000.5	9.7027e-06	1.9151e-05	904.55	229.22	6.5588e-06	6.2015e-06	238.31	68.797	70.143	16.153	1.6876e-05	16.77	0.013847	0.016132	0.0044892	1279.8	0.00017254	0.00017613	1046.3	277.78	0.00016872	0.00017773	318.92	96.045	110.28	25.59	0.0001721	29.773	86.416	146.353	173.603	-103.772	-46.470	33.068	-104.649	-99.087	-33.436	-107.898	-100.738	-97.248	-96.058	-90.216	-86.390	-92.419	-8191	255	
21689.629	1	1	0	0	0.29288	0.045575	0.099402	0.054993	0.089481	0.21152	0.072888	0.23317	0.20116	0.20177	0.10999	0.15437	0.087085	0.26932	0.18578	0.12009	-1.9271	-2.0604	-2.85	-2.3167	-2.5167	-2.7396	-2.0708	-2.7083	-2.5812	-2.0458	-2.9625	-2.3083	-2.4	-2.8792	-2.0271	-2.5833	11.877	-106.932	-13.709	-111.808	241.964	101.377	205.721	146.524	-56.330	175.093	-10.210	-8.814	-96.070	68.141	-47.421	202.764	0.00019671	0.0012435	0.00027609	1001.3	1.0313e-05	3.9777e-06	907.61	229.95	2.1986e-05	1.2115e-05	240.49	69.624	69.988	16.212	1.362e-05	16.836	0.013682	0.015847	0.0043797	1275.7	0.0001689	0.00017085	1044.3	277.65	0.00016234	0.00017046	317.01	95.752	109.61	25.43	0.00016745	29.582	121.286	-84.419	228.387	-103.951	95.395	-4.546	-104.540	-99.064	-90.565	-88.208	-100.201	-97.239	-95.941	-90.627	-9.626	-92.908	-8191	255	
21689.746	1	1	0	0	0.1712	0.17975	0.28993	0.080457	0.22481	0.10625	0.21702	0.25688	0.18897	0.20587	0.0049533	0.10628	0.080816	0.17602	0.062032	0.084109	-2.2313	-2.1458	-2.7667	-2.2271	-2.3187	-2.8229	-2.0812	-2.6229	-2.6229	-2.1667	-3.0083	-2.2292	-2.1792	-2.9313	-2.0521	-2.7646	39.761	56.228	208.364	-41.741	-43.822	13.134	174.751	-97.667	30.888	57.336	14.962	-38.116	144.056	-113.449	-33.594	135.566	0.00064124	0.0019505	0.00014766	998.06	1.1393e-05	1.6708e-05	904.89	231.18	1.6754e-05	1.891e-05	240.99	69.444	70.141	16.364	9.522e-06	16.619	0.013462	0.015752	0.004372	1279.9	0.00017076	0.00017314	1047.5	279.36	0.00016586	0.00017264	318.65	96.305	110.05	25.513	0.00016794	29.722	83.208	134.614	123.510	-103.664	42.237	76.138	-104.290	-99.574	76.543	95.594	-100.508	-96.999	-95.112	-90.227	-79.266	-92.896	-8191	255	
21689.844	1	1	0	0	0.15319	0.07745	0.13867	0.20163	0.20539	0.055162	0.21073	0.13729	0.19131	0.23227	0.087124	0.2329	0.15245	0.22986	0.22406	0.13501	-2.3542	-2.0375	-2.7771	-2.2521	-2.0167	-2.7208	-2.225	-2.5979	-2.7146	-1.9583	-2.8063	-2.3396	-2.0187	-2.7125	-2.0708	-2.3854	91.673	25.975	202.520	-109.899	9.740	-78.261	213.534	173.230	137.255	-77.063	28.570	52.868	-15.980	96.139	13.230	4.962	0.00038596	0.0013181	0.00053111	1005.5	9.0692e-06	9.1185e-06	910.98	231.13	1.2403e-05	6.4216e-06	240.55	69.508	69.954	16.246	2.033e-05	16.618	0.013531	0.015635	0.0043701	1279.7	0.0001707	0.00017281	1050.3	280.34	0.00016831	0.0001748	319.54	96.619	110.35	25.541	0.00017139	29.879	148.983	225.678	27.083	-103.692	207.060	92.896	-104.429	-99.050	-73.989	120.403	-100.126	-97.128	-95.477	-90.490	-78.372	-92.791	-8191	255	
21689.939	1	1	0	0	0.18737	0.18825	0.13014	0.26008	0.14088	0.19843	0.38825	0.32068	0.26483	0.10507	0.14446	0.30711	0.21759	0.20574	0.15578	0.11581	-2.3854	-1.8375	-2.5792	-2.5083	-2.0917	-2.875	-2.2875	-2.3208	-2.5438	-2.2104	-2.7562	-2.7167	-2.2021	-2.8812	-2.1521	-2.35	185.615	126.476	111.807	161.648	-71.038	-97.338	160.609	229.174	-40.039	-80.012	200.607	169.408	-81.154	-100.204	178.828	7.469	0.00030754	0.0012195	0.00028222	1002.4	1.1455e-05	6.1465e-06	900.55	230.77	1.5576e-05	1.6011e-05	238.52	68.685	70.428	16.278	1.6096e-05	16.621	0.013618	0.015757	0.0044459	1280.8	0.00017136	0.00017254	1044.7	279.04	0.00016541	0.00017124	317.66	95.709	109.54	25.392	0.00016708	29.475	208.911	98.406	96.077	-103.619	-26.216	199.947	-104.528	-99.202	205.267	191.297	-100.516	-97.060	-95.264	-90.317	202.099	-91.958	-8191	255	
21690.035	1	1	0	0	0.34603	0.26094	0.14117	0.24243	0.11014	0.15887	0.20299	0.29672	0.18033	0.34785	0.19418	0.35158	0.18358	0.15184	0.28671	0.12268	-2.3187	-2.1042	-2.5125	-2.7708	-2.0604	-2.7917	-2.4146	-2.2646	-2.9104	-2.0771	-2.8104	-2.4813	-2.1729	-2.8208	-2.2104	-2.1292	190.365	180.183	-57.425	175.930	196.786	144.259	165.730	220.229	38.411	92.616	187.782	214.893	220.262	82.068	-45.802	27.661	0.00018447	0.001894	0.00032525	999.79	5.4437e-06	1.7765e-05	901.12	231.11	5.2038e-06	4.3165e-06	240.16	68.862	70.534	16.142	1.2197e-05	16.651	0.013296	0.015313	0.0043546	1276.8	0.00016774	0.00016955	1043	278.67	0.00016253	0.00016971	316.98	95.602	109.11	25.309	0.00016798	29.512	-54.974	-93.747	137.439	-103.845	103.172	150.862	-104.558	-99.085	-63.214	-3.776	-100.220	-96.674	-95.263	-89.917	-3.218	-92.103	-8191	255	
21690.131	1	1	0	0	0.19872	0.12681	0.19048	0.1751	0.17534	0.32179	0.071671	0.32636	0.14464	0.13291	0.13263	0.11446	0.217	0.034703	0.084186	0.20147	-2.4146	-2	-2.4375	-2.8896	-1.9312	-2.8958	-2.4667	-2.1813	-2.6146	-2.2792	-2.4271	-2.7104	-1.9604	-2.625	-2.4583	-2.05	160.881	-16.465	-97.845	174.354	-87.736	192.430	154.318	144.952	235.445	40.728	112.597	231.564	228.697	145.357	51.395	-3.266	0.00028624	0.0010992	7.4405e-05	1009.1	1.5015e-05	9.01e-06	899.5	230.22	6.1659e-06	3.4222e-05	240.69	69.042	69.624	16.286	6.0782e-06	16.782	0.013339	0.015511	0.004393	1278.6	0.00016903	0.00017137	1043.4	279.02	0.00016395	0.00017161	317.33	95.754	109.12	25.45	0.00016752	29.509	128.910	-74.639	183.600	-104.061	113.634	156.638	-104.278	-98.878	-33.598	-88.669	-100.458	-96.637	-95.445	-90.035	107.761	-92.642	-8191	255	
21690.227	1	1	0	0	0.18808	0.085651	0.16557	0.17019	0.11253	0.10197	0.19502	0.058743	0.12441	0.095357	0.17611	0.2869	0.34106	0.18783	0.10347	0.14085	-2.2958	-2.0375	-2.2917	-2.8187	-2	-2.6146	-2.5312	-2.1042	-2.8604	-2.2292	-2.2458	-2.7708	-2.025	-2.5583	-2.525	-2.0479	-43.045	-1.668	78.288	-95.296	113.877	39.270	187.551	140.599	113.256	57.333	123.916	163.797	159.621	-49.404	151.486	-98.994	0.00035526	0.00052541	0.00020067	1008.2	8.5023e-06	1.0731e-05	905.96	231.19	1.3281e-05	1.2343e-05	241.45	69.364	70.143	16.13	1.0925e-05	16.712	0.013286	0.015444	0.004379	1280.5	0.00016868	0.00017273	1046.9	279.84	0.00016456	0.00017223	319.4	95.805	109.21	25.465	0.00016673	29.459	215.091	55.923	66.219	-103.986	-44.977	105.125	-104.945	-98.992	-51.348	-1.189	-100.404	-96.779	-95.585	-90.267	18.469	-92.651	-8191	255	
21690.322	1	1	0	0	0.18601	0.036432	0.3154	0.33998	0.15395	0.085905	0.1591	0.093159	0.044712	0.18871	0.15367	0.28454	0.11259	0.094535	0.30077	0.27291	-2.3438	-2.3292	-2.2667	-3.05	-2.1125	-2.3833	-2.7979	-2.0396	-2.8896	-2.4958	-2.1937	-3.0146	-2.0667	-2.4521	-2.8146	-2.2583	173.454	218.578	113.284	-62.044	225.116	149.401	-105.414	18.923	1.561	72.748	141.760	213.261	-109.222	50.403	170.262	60.692	0.000277	0.00066104	0.00031557	1005.2	1.1055e-05	1.49e-05	907.84	231.57	1.3546e-05	1.5319e-05	242.71	69.532	70.149	16.343	1.2526e-05	16.623	0.013103	0.015294	0.0043194	1271.9	0.00016424	0.00016908	1043.7	278.53	0.00016064	0.00016887	317.44	95.421	108.52	25.31	0.00016358	29.121	-85.448	147.943	181.692	-103.895	-49.602	-0.206	-104.572	-99.464	196.742	137.364	-100.616	-96.799	-95.805	-90.094	49.186	-92.291	-8191	255	
21690.441	1	1	0	0	0.29294	0.37898	0.14896	0.19112	0.072047	0.28778	0.15689	0.27336	0.31843	0.33851	0.17585	0.094526	0.15965	0.19645	0.20756	0.14286	-2.4146	-2.575	-2.0812	-2.8042	-2.1083	-2.3479	-2.7958	-1.9438	-2.5938	-2.3917	-2.1292	-2.8979	-2.15	-2.4188	-2.7438	-2.1104	146.162	-81.759	223.028	88.916	-96.593	101.012	163.494	115.327	190.199	68.688	27.311	-73.481	175.452	162.009	135.582	164.159	0.00014508	0.0019316	0.00015327	1008.9	1.8177e-05	9.2504e-06	902.72	232.22	9.7934e-06	1.9918e-05	239.31	68.933	70.279	16.234	1.6066e-05	16.518	0.012842	0.015032	0.0042281	1264.6	0.00016061	0.00016577	1037.4	277.34	0.0001583	0.00016678	315.64	95.126	108.33	25.375	0.00016574	29.254	200.719	3.263	-112.225	-103.745	195.294	203.126	-104.322	-99.154	171.515	-73.354	-99.939	-96.840	-95.589	-89.613	-56.262	-91.359	-8191	255	
21690.537	1	1	0	0	0.11982	0.17863	0.20539	0.13457	0.21923	0.18414	0.20362	0.07861	0.030385	0.24417	0.20747	0.24282	0.12475	0.031755	0.2733	0.16102	-2.1813	-2.6104	-2.1188	-2.9146	-2.3125	-2.4813	-2.8833	-2.0167	-2.6354	-2.5625	-2.1021	-2.9042	-2.3833	-2.1562	-2.7	-1.9521	217.801	13.868	3.972	146.067	124.123	52.922	207.287	-11.952	76.541	-10.944	168.743	121.819	227.377	-76.118	220.059	240.505	0.0003743	0.00078324	1.6916e-05	1010.5	1.26e-06	9.5797e-06	902.68	231.34	2.5288e-06	1.4997e-05	239.79	68.965	70.168	16.363	1.5866e-05	16.578	0.013281	0.015579	0.0043332	1276	0.00016755	0.00017182	1041.7	279.16	0.00016422	0.00017247	317.2	95.96	109.75	25.574	0.00016756	29.489	111.539	217.780	-49.560	-103.754	55.905	-94.893	-104.263	-99.111	49.291	-79.991	-100.150	-96.489	-95.308	-90.222	187.688	-92.825	-8191	255	
21690.609	1	1	0	0	0.23573	0.28615	0.17751	0.050412	0.20333	0.096349	0.035849	0.16064	0.14808	0.074518	0.0093993	0.26717	0.17529	0.053182	0.085827	0.0806	-2.1667	-2.7792	-2.0208	-2.7583	-2.3604	-1.8979	-3	-2.3438	-2.3187	-2.5167	-2.0292	-2.9229	-2.4417	-2.1375	-2.6833	-2.1354	-32.328	220.235	-68.607	-47.740	57.369	-88.281	183.034	202.717	61.723	-59.670	12.725	202.225	-96.387	24.537	6.139	225.750	0.00048454	0.00081029	0.00031283	1005.1	3.5203e-06	1.2768e-05	905.25	232.48	2.343e-05	1.2344e-05	239.37	69.223	70.343	16.424	1.2049e-05	16.62	0.013413	0.015608	0.0043319	1275	0.00016789	0.00017165	1043.2	279.21	0.00016371	0.00017059	317.97	96.062	109.42	25.501	0.00016491	29.332	130.433	92.962	-39.998	-103.685	142.797	38.070	-104.126	-99.092	-83.769	-37.834	-100.251	-96.604	-95.200	-90.347	152.294	-92.062	-8191	255	
21690.707	1	1	0	0	0.13198	0.15547	0.27681	0.059227	0.079401	0.11116	0.2798	0.23155	0.22252	0.22552	0.24083	0.086454	0.089667	0.14735	0.073248	0.14024	-1.9208	-2.8021	-2.0125	-2.7875	-2.2896	-2.2229	-2.8542	-2.1583	-2.1646	-2.8042	-2.1125	-2.7146	-2.6542	-1.8875	-2.6771	-2.3167	-72.536	133.330	-14.325	89.138	73.521	198.192	238.070	227.942	176.470	210.287	40.205	61.324	28.074	132.665	142.205	-1.956	0.00048094	0.00077173	0.00011294	1004.7	1.4211e-05	2.1243e-05	907.2	232.96	1.5288e-05	1.2672e-05	242.99	69.978	70.468	16.248	1.5049e-05	16.545	0.013115	0.015223	0.0042626	1275	0.00016498	0.00016777	1040	278.66	0.00016078	0.0001661	316.11	95.38	108.42	25.123	0.0001603	29.028	174.969	-41.170	197.001	-103.413	49.316	-28.053	-104.400	-98.913	3.962	-83.169	-99.966	-96.669	-95.051	-89.836	3.023	-92.714	-8191	255	
21690.826	1	1	0	0	0.12472	0.23519	0.16036	0.1468	0.049301	0.10685	0.17826	0.21551	0.23885	0.24698	0.25714	0.16768	0.26816	0.095394	0.14229	0.21404	-1.9021	-2.6083	-2.2083	-2.6312	-2.6	-1.9833	-3.0271	-2.2729	-2.1167	-2.7833	-2.0875	-2.5563	-2.7812	-2.0229	-2.8521	-2.3583	48.401	88.256	179.431	229.134	132.478	80.287	-94.089	197.523	105.438	28.342	200.882	158.401	132.710	231.806	-6.718	172.245	0.0005479	0.00084275	0.00021758	1014.2	8.981e-06	1.8145e-05	904.89	233.29	2.5868e-06	1.5626e-05	240.1	69.447	70.891	16.136	5.8802e-06	16.765	0.012819	0.014807	0.0041502	1269	0.00015952	0.00016249	1035.8	278.36	0.00015638	0.00016194	313.73	94.853	107.78	24.924	0.00015825	28.844	96.729	-102.996	186.138	-103.079	-49.691	92.834	-104.301	-99.246	107.819	-10.840	-100.445	-96.703	-95.271	-89.458	34.311	-92.164	-8191	255	
21690.924	1	1	0	0	0.16716	0.20082	0.061094	0.096244	0.19915	0.17686	0.23638	0.10725	0.094275	0.18058	0.29639	0.079748	0.13118	0.17655	0.16666	0.1603	-1.8042	-2.7292	-2.0729	-2.5187	-2.7479	-2.1562	-2.8083	-2.5833	-1.9958	-2.8646	-2.4208	-2.3375	-2.6458	-1.9875	-2.8083	-2.3667	-37.050	-4.962	33.350	209.909	228.119	160.642	190.761	96.969	220.323	179.306	191.581	33.359	54.149	172.284	-89.061	156.558	0.00029433	0.00036956	0.00025093	1009.1	1.5768e-05	1.6153e-05	907.37	232.07	2.6081e-05	1.5807e-05	241.46	70.572	70.715	16.2	1.1119e-05	16.86	0.012658	0.014665	0.0041217	1268.4	0.00015908	0.00016258	1038.2	278.55	0.00015503	0.00015943	313.75	94.792	107.37	24.796	0.00015476	28.586	95.933	-0.701	-102.301	-103.578	-23.924	-56.620	-104.230	-99.005	46.130	-0.704	-100.324	-96.699	-95.073	-90.166	92.819	-91.802	-8191	255	
21691.020	1	1	0	0	0.14473	0.31062	0.16087	0.13329	0.10737	0.063282	0.089524	0.13045	0.16012	0.19908	0.24652	0.2149	0.15504	0.023941	0.13743	0.26817	-1.8667	-2.9417	-2.0625	-2.3479	-2.9333	-1.9958	-2.6229	-2.4688	-1.9646	-2.8	-2.2687	-2.1708	-2.8083	-2.1208	-2.3771	-2.7062	41.179	213.625	110.627	212.699	186.561	111.938	-80.467	178.643	185.801	0.669	-36.541	41.145	-113.712	-53.592	218.560	137.708	0.00054978	0.0011761	0.00064292	1018.1	3.0871e-05	1.4374e-06	914.31	234.39	2.1821e-05	8.0997e-06	243.86	70.217	71.265	16.194	2.5945e-05	17.039	0.012272	0.014207	0.0039984	1263.5	0.00015568	0.00015918	1040.7	278.82	0.00015376	0.00016108	315.89	95.225	107.75	25.016	0.0001594	29.087	131.204	133.840	192.232	-103.556	125.939	12.582	-104.263	-98.765	36.080	-70.986	-100.364	-96.364	-95.729	-89.524	29.434	-92.219	-8191	255	
21691.115	1	1	0	0	0.094415	0.10173	0.13115	0.24413	0.17539	0.074268	0.36133	0.19826	0.24422	0.15692	0.12307	0.11671	0.52666	0.096755	0.19631	0.15507	-1.5438	-2.8646	-2.2646	-2.3354	-2.8292	-2.1063	-2.6708	-2.7771	-2.1937	-2.8208	-2.4938	-2.225	-2.8375	-2.0854	-2.2979	-2.7458	157.844	-29.264	179.771	-11.379	43.465	241.310	224.145	-109.924	132.951	193.627	-113.768	124.792	159.529	-79.806	188.378	160.090	0.00016571	0.0023305	0.00040093	1013.3	6.6319e-06	1.2956e-05	913.29	234.41	1.0327e-05	2.7528e-06	244.32	70.427	70.883	16.264	7.6154e-06	16.762	0.012589	0.014694	0.004121	1272.7	0.00015941	0.00016237	1045.7	280.54	0.00015812	0.00016677	318.06	96.207	109.45	25.332	0.00016466	29.235	158.438	44.296	184.468	-103.392	147.870	-31.847	-104.531	-98.968	-103.115	117.478	-100.737	-96.462	-94.700	-89.921	-97.240	-92.353	-8191	255	
21691.236	1	1	0	0	0.073159	0.10828	0.18607	0.15053	0.15496	0.35817	0.39183	0.17962	0.2088	0.25261	0.078479	0.26888	0.10394	0.12298	0.10086	0.29949	-1.7188	-2.7354	-2.5042	-2.0687	-2.8375	-2.1729	-2.45	-2.8667	-1.9062	-2.6646	-2.6354	-2.1729	-2.7188	-2.1667	-2.275	-2.8604	11.129	221.145	-5.849	-79.455	108.401	142.465	234.934	176.391	147.961	-58.633	67.746	-95.500	99.761	230.800	-17.707	204.847	0.00037813	0.0019563	0.00052568	1010.3	1.1624e-05	1.9994e-05	905.85	234.4	1.1394e-05	1.2023e-05	242.05	69.883	70.167	16.132	7.8997e-06	16.992	0.012922	0.015041	0.0042108	1268.3	0.00015925	0.00016118	1038.4	278.3	0.00015204	0.00015897	312.6	94.047	106.9	24.844	0.00015596	28.699	130.111	-68.940	106.992	-103.579	163.247	48.235	-104.268	-98.760	-91.564	83.141	-100.366	-96.722	-94.892	-89.942	-8.356	-92.226	-8191	255	
21691.309	1	1	0	0	0.31165	0.24793	0.059947	0.13353	0.122	0.27862	0.16521	0.045396	0.30864	0.058924	0.17285	0.090623	0.15382	0.10212	0.17083	0.17931	-1.6688	-2.6458	-2.7438	-2.2292	-2.9604	-2.3479	-2.2542	-2.9313	-2.0771	-2.5771	-2.7833	-2.1042	-2.7938	-2.4875	-2.25	-2.9667	53.231	-68.149	16.662	212.988	134.278	-96.140	240.020	195.658	95.218	-97.514	208.367	122.232	-101.180	241.782	58.469	164.774	0.00030367	0.0010584	0.00021213	1007.3	8.8183e-06	2.0764e-05	910.93	235.08	6.3307e-06	1.6323e-05	241.94	70.142	70.766	16.338	6.1258e-06	16.866	0.012381	0.014459	0.0040536	1259.2	0.0001556	0.00015934	1037.9	277.73	0.00015437	0.00016191	314.54	95.196	107.98	25.134	0.00016292	29.105	84.849	240.617	82.515	-103.359	-28.728	107.291	-104.364	-99.100	138.041	24.207	-99.921	-96.275	-95.104	-89.836	108.814	-91.726	-8191	255	
21691.428	1	1	0	0	0.23616	0.12516	0.1857	0.21288	0.18369	0.13241	0.026136	0.13729	0.094353	0.095808	0.042393	0.11609	0.16187	0.089863	0.27101	0.12527	-1.65	-2.5167	-2.7167	-2.0479	-2.5583	-2.4	-2.5104	-3.0208	-2.1167	-2.3771	-2.8354	-2.1042	-2.7292	-2.4583	-2.0667	-2.8937	69.764	194.656	32.462	-2.026	211.672	87.003	-49.496	229.480	134.756	90.528	46.451	2.684	-37.092	174.895	42.819	143.159	0.00038128	0.0010087	8.2663e-05	1007.4	1.2632e-06	5.8593e-06	912.53	233.98	1.3912e-05	5.152e-06	240.95	69.125	70.03	16.305	1.0337e-05	16.893	0.012986	0.015132	0.0042527	1275	0.00016313	0.00016651	1043.9	279.89	0.00015827	0.00016609	316.1	95.05	108.44	25.194	0.00016162	29.154	45.244	-97.591	17.358	-103.145	-88.722	172.718	-104.129	-98.869	141.001	-94.868	-100.589	-96.526	-95.389	-89.878	112.536	-91.740	-8191	255	
21691.523	1	1	0	0	0.063592	0.15596	0.10959	0.10812	0.050054	0.12272	0.17612	0.014467	0.17866	0.1164	0.20209	0.1627	0.18307	0.11905	0.084355	0.15419	-1.625	-2.4771	-2.7167	-2.1375	-2.7708	-2.6	-2.1542	-2.8292	-2.2271	-2.3438	-2.8917	-2.0687	-2.6896	-2.7375	-1.9688	-2.825	149.953	-103.044	228.868	-56.984	51.907	188.340	131.266	-32.154	96.196	-69.728	128.829	-58.684	230.362	7.068	158.725	82.742	0.00044475	0.00058762	0.000528	1013.7	1.8656e-06	1.4935e-05	905.8	233.98	8.4433e-06	8.1631e-06	242.2	69.679	70.309	16.372	1.6291e-05	16.864	0.012825	0.014933	0.0041844	1272.5	0.00016146	0.00016502	1041.3	279.28	0.0001578	0.00016534	316.07	95.263	108.26	25.161	0.00016116	29.101	117.842	-78.405	-71.459	-103.397	-76.276	-19.703	-104.189	-98.867	1.624	129.617	-99.897	-96.553	-95.291	-89.855	-53.491	-91.758	-8191	255	
21691.619	1	1	0	0	0.18345	0.16677	0.13268	0.10333	0.33447	0.11076	0.23848	0.19796	0.11077	0.045986	0.23345	0.056112	0.38743	0.11555	0.2656	0.18119	-1.6979	-2.1271	-2.775	-2.2188	-2.4208	-2.8333	-2.0708	-2.7875	-2.4229	-2.1792	-2.9458	-2.2479	-2.3812	-2.8438	-2.0792	-2.6208	185.749	116.466	-52.627	215.022	107.727	128.269	240.146	84.822	33.780	35.737	226.055	-86.089	-97.441	132.539	233.131	-48.139	0.0003774	0.00091745	0.00057071	1004.8	4.6344e-06	5.7887e-06	913.62	234.06	1.6133e-05	1.636e-05	243.65	69.625	71.063	16.335	1.559e-05	17.003	0.012754	0.01493	0.0041501	1265.4	0.00016053	0.000163	1037.7	278.74	0.00015539	0.00016105	314.38	94.303	107.11	24.886	0.0001549	28.561	138.495	26.198	72.649	-103.045	166.956	-95.593	-103.982	-98.605	194.809	83.220	-100.065	-96.377	-94.926	-90.226	117.698	-92.198	-8191	255	
21691.715	1	1	0	0	0.13924	0.28224	0.19831	0.25504	0.10998	0.14136	0.24725	0.23388	0.16431	0.2587	0.18961	0.075897	0.18257	0.12847	0.10834	0.32952	-2.0021	-2.3375	-3.0083	-2.2104	-2.6646	-2.5771	-2.2479	-2.7146	-2.5292	-2.1833	-2.9917	-2.4854	-2.4292	-2.8958	-2.0854	-2.6958	19.081	-13.756	51.853	145.552	32.246	-103.108	131.814	227.843	0.123	152.814	-80.201	223.402	81.280	-111.144	112.869	113.155	0.00023678	0.0011332	0.00043234	1019.9	1.2895e-06	1.6338e-05	910.25	235.34	2.1463e-05	1.7271e-05	243.84	69.041	71.535	16.515	1.143e-05	16.863	0.012144	0.014029	0.0038606	1247.7	0.00014684	0.00014837	1026.7	275.31	0.00014044	0.00014571	307.95	92.241	104.41	24.225	0.00014203	27.822	-89.527	-104.034	-47.860	-103.371	10.587	-57.005	-104.172	-98.711	173.479	12.263	-99.941	-96.628	-94.711	-89.684	198.067	-91.798	-8191	255	
21691.836	1	1	0	0	0.099832	0.31022	0.22157	0.28321	0.088249	0.19618	0.12564	0.11224	0.079546	0.047306	0.12543	0.035748	0.080114	0.29118	0.086012	0.30943	-2.0854	-2.0271	-2.7792	-2.2729	-2.4729	-2.8208	-2.2229	-2.7146	-2.5687	-2.0792	-2.8563	-2.1625	-2.175	-2.9229	-1.8396	-2.4646	-15.705	18.044	131.057	98.273	12.184	28.712	63.752	216.114	84.736	44.664	190.790	178.462	167.698	-9.632	101.214	14.729	0.00014146	0.00028645	0.00010181	1013.5	1.8296e-05	1.0976e-05	914.65	235.44	9.738e-06	1.6125e-05	244.81	70.477	71.252	16.491	8.9706e-06	16.87	0.011384	0.013289	0.0036929	1245.2	0.00014538	0.00014715	1030.2	276.34	0.00014122	0.00014924	309.45	93.227	105.21	24.443	0.00014483	28.032	-75.042	21.729	-69.594	-103.433	-7.575	-10.277	-104.040	-98.809	-15.746	22.838	-100.048	-96.511	-94.969	-89.365	227.738	-91.426	-8191	255	
21691.906	1	1	0	0	0.1719	0.47076	0.12599	0.17118	0.072598	0.18859	0.17164	0.14207	0.10904	0.10179	0.27537	0.15036	0.13732	0.42271	0.085558	0.30055	-2.2708	-2.1708	-2.7771	-2.4375	-2.2146	-2.95	-2.0125	-2.4729	-2.6562	-2.0229	-2.75	-2.4167	-2.0021	-2.8583	-2.1604	-2.5979	135.205	16.126	-43.364	196.581	-9.546	38.181	216.402	206.227	75.554	-45.389	-56.445	-91.268	59.204	68.003	222.074	164.040	0.00034404	0.00025812	0.00014265	1018.6	8.3099e-06	1.1529e-05	912.69	235.63	1.3126e-05	8.4373e-06	242.96	70.514	71.518	16.521	1.1786e-05	16.928	0.011558	0.013541	0.0037811	1254	0.00014771	0.00015064	1033.7	277.32	0.00014512	0.00015157	312.19	93.873	106.29	24.651	0.00014938	28.447	183.940	40.352	206.611	-103.308	-116.506	-76.255	-104.428	-98.566	145.974	211.214	-100.018	-96.330	-95.024	-89.795	-61.510	-92.202	-8191	255	
#DATA ENDS
