BOXY.EXE: ISS Imagent and Oximeter Data Acquisition Program Version 0.80
Ascii Record File

#ACQ INFORMATION
2  Detector Channels 
16  External MUX Channels 
1  Auxiliary Channels 
5000  Waveform (CCF) Frequency (Hz)
1  Waveforms Skipped 
30  Waveforms Averaged 
1  Cycles Averaged 
16  Acquisitions per Waveform 
10.0806  Updata Rate (Hz) 

#FILE INFORMATION
TRUE -- External MUX Channel results are PARSED.
FALSE -- AC DC and Phase are NOT grouped.
TRUE -- Companion Program Settings File CREATED.
FALSE -- AC data not excluded
FALSE -- DC data not excluded
FALSE -- Phase data not excluded
FALSE -- Auxillary Chn. data not excluded
Tab delimiters

#CALIBRATION STATE
TRUE -- Waveform Calibration Values APPLIED.


#AUX CALIBRATION VALUES
Val Type	aux-1	

Term	1.0000e+00	
Factor	0.0000e+00	


#WF CALIBRATION VALUES
A = Detector Channel
Val Type	A-AC1	A-AC2	A-AC3	A-AC4	A-AC5	A-AC6	A-AC7	A-AC8	A-AC9	A-AC10	A-AC11	A-AC12	A-AC13	A-AC14	A-AC15	A-AC16	A-DC1	A-DC2	A-DC3	A-DC4	A-DC5	A-DC6	A-DC7	A-DC8	A-DC9	A-DC10	A-DC11	A-DC12	A-DC13	A-DC14	A-DC15	A-DC16	A-Ph1	A-Ph2	A-Ph3	A-Ph4	A-Ph5	A-Ph6	A-Ph7	A-Ph8	A-Ph9	A-Ph10	A-Ph11	A-Ph12	A-Ph13	A-Ph14	A-Ph15	A-Ph16	

Term	0.00000e+00	0.00000e+00	0.00000e+00	0.00000e+00	0.00000e+00	0.00000e+00	0.00000e+00	0.00000e+00	0.00000e+00	0.00000e+00	0.00000e+00	0.00000e+00	0.00000e+00	0.00000e+00	0.00000e+00	0.00000e+00	0.00000e+00	0.00000e+00	0.00000e+00	0.00000e+00	0.00000e+00	0.00000e+00	0.00000e+00	0.00000e+00	0.00000e+00	0.00000e+00	0.00000e+00	0.00000e+00	0.00000e+00	0.00000e+00	0.00000e+00	0.00000e+00	0.00000e+00	0.00000e+00	0.00000e+00	0.00000e+00	0.00000e+00	0.00000e+00	0.00000e+00	0.00000e+00	0.00000e+00	0.00000e+00	0.00000e+00	0.00000e+00	0.00000e+00	0.00000e+00	0.00000e+00	0.00000e+00	
Factor	1.00000e+00	1.00000e+00	1.00000e+00	1.00000e+00	1.00000e+00	1.00000e+00	1.00000e+00	1.00000e+00	1.00000e+00	1.00000e+00	1.00000e+00	1.00000e+00	1.00000e+00	1.00000e+00	1.00000e+00	1.00000e+00	1.00000e+00	1.00000e+00	1.00000e+00	1.00000e+00	1.00000e+00	1.00000e+00	1.00000e+00	1.00000e+00	1.00000e+00	1.00000e+00	1.00000e+00	1.00000e+00	1.00000e+00	1.00000e+00	1.00000e+00	1.00000e+00	X	X	X	X	X	X	X	X	X	X	X	X	X	X	X	X	

B = Detector Channel
Val Type	B-AC1	B-AC2	B-AC3	B-AC4	B-AC5	B-AC6	B-AC7	B-AC8	B-AC9	B-AC10	B-AC11	B-AC12	B-AC13	B-AC14	B-AC15	B-AC16	B-DC1	B-DC2	B-DC3	B-DC4	B-DC5	B-DC6	B-DC7	B-DC8	B-DC9	B-DC10	B-DC11	B-DC12	B-DC13	B-DC14	B-DC15	B-DC16	B-Ph1	B-Ph2	B-Ph3	B-Ph4	B-Ph5	B-Ph6	B-Ph7	B-Ph8	B-Ph9	B-Ph10	B-Ph11	B-Ph12	B-Ph13	B-Ph14	B-Ph15	B-Ph16	

Term	0.00000e+00	0.00000e+00	0.00000e+00	0.00000e+00	0.00000e+00	0.00000e+00	0.00000e+00	0.00000e+00	0.00000e+00	0.00000e+00	0.00000e+00	0.00000e+00	0.00000e+00	0.00000e+00	0.00000e+00	0.00000e+00	0.00000e+00	0.00000e+00	0.00000e+00	0.00000e+00	0.00000e+00	0.00000e+00	0.00000e+00	0.00000e+00	0.00000e+00	0.00000e+00	0.00000e+00	0.00000e+00	0.00000e+00	0.00000e+00	0.00000e+00	0.00000e+00	-2.55034e+02	-1.42192e+02	-1.58171e+02	-1.83275e+02	-9.83914e+01	-9.52191e+01	-1.58166e+02	-1.62015e+02	-1.11076e+02	-8.25393e+01	-1.72759e+02	-1.71492e+02	-1.85060e+02	-1.78311e+02	-8.15946e+01	-1.51161e+02	
Factor	6.84074e-05	1.16036e-04	3.77825e-05	1.75057e-01	1.19124e-06	1.02847e-06	2.01126e-01	6.52604e-02	1.39494e-06	1.20521e-06	1.15205e-01	3.44855e-02	6.48392e-02	1.06986e-02	1.09788e-06	1.56755e-02	7.61801e-07	7.68646e-07	2.13154e-07	8.53154e-02	8.43469e-09	8.40861e-09	9.13502e-02	3.13959e-02	8.44513e-09	8.40387e-09	5.21703e-02	1.57552e-02	2.79534e-02	5.07005e-03	8.41014e-09	7.10043e-03	X	X	X	X	X	X	X	X	X	X	X	X	X	X	X	X	



#DISTANCE SETTINGS
A = Detector Channel
A-1	A-2	A-3	A-4	A-5	A-6	A-7	A-8	A-9	A-10	A-11	A-12	A-13	A-14	A-15	A-16	

2.5000e+00	3.0000e+00	2.5000e+00	3.0000e+00	2.0000e+00	3.0000e+00	1.5000e+00	3.0000e+00	3.0000e+00	3.0000e+00	3.0000e+00	3.0000e+00	3.0000e+00	3.0000e+00	1.5000e+00	3.0000e+00	

B = Detector Channel
B-1	B-2	B-3	B-4	B-5	B-6	B-7	B-8	B-9	B-10	B-11	B-12	B-13	B-14	B-15	B-16	

1.0000e+01	1.0000e+01	1.0000e+01	1.4400e+00	1.0000e+01	1.0000e+01	1.5100e+00	1.9400e+00	1.0000e+01	1.0000e+01	1.9900e+00	2.4900e+00	2.4100e+00	2.9000e+00	1.0000e+01	2.9800e+00	




#DATA BEGINS
time	group	step	mark	flag	A-AC1	A-AC2	A-AC3	A-AC4	A-AC5	A-AC6	A-AC7	A-AC8	A-AC9	A-AC10	A-AC11	A-AC12	A-AC13	A-AC14	A-AC15	A-AC16	A-DC1	A-DC2	A-DC3	A-DC4	A-DC5	A-DC6	A-DC7	A-DC8	A-DC9	A-DC10	A-DC11	A-DC12	A-DC13	A-DC14	A-DC15	A-DC16	A-Ph1	A-Ph2	A-Ph3	A-Ph4	A-Ph5	A-Ph6	A-Ph7	A-Ph8	A-Ph9	A-Ph10	A-Ph11	A-Ph12	A-Ph13	A-Ph14	A-Ph15	A-Ph16	B-AC1	B-AC2	B-AC3	B-AC4	B-AC5	B-AC6	B-AC7	B-AC8	B-AC9	B-AC10	B-AC11	B-AC12	B-AC13	B-AC14	B-AC15	B-AC16	B-DC1	B-DC2	B-DC3	B-DC4	B-DC5	B-DC6	B-DC7	B-DC8	B-DC9	B-DC10	B-DC11	B-DC12	B-DC13	B-DC14	B-DC15	B-DC16	B-Ph1	B-Ph2	B-Ph3	B-Ph4	B-Ph5	B-Ph6	B-Ph7	B-Ph8	B-Ph9	B-Ph10	B-Ph11	B-Ph12	B-Ph13	B-Ph14	B-Ph15	B-Ph16	aux-1	digaux	

2134.290	1	1	0	256	0.034182	0.21733	0.16716	0.19033	0.034502	0.22862	0.10506	0.2035	0.2392	0.073174	0.12693	0.16081	0.13862	0.14623	0.1516	0.26401	-2.325	-2.2792	-1.875	-2.9542	-2.0396	-2.275	-2.8688	-1.9583	-2.6542	-2.6354	-2.1542	-2.8187	-1.9729	-2.3583	-2.8583	-2.1646	235.919	149.550	306.899	417.820	176.063	343.283	265.405	401.758	117.561	286.396	364.228	356.089	104.811	402.805	212.580	396.905	0.0036018	0.00037817	5.7477e-05	794.58	1.3796e-05	8.7996e-06	1215.8	298.38	8.8045e-06	4.0627e-06	555.5	237.04	119.53	64.065	2.4309e-06	123.54	0.0004392	0.00039002	9.6729e-05	739.43	4.4884e-06	4.1126e-06	1102.3	274.26	4.3616e-06	4.0562e-06	493.41	209.43	105.22	57.194	3.6897e-06	107.65	397.906	292.137	187.932	101.212	213.029	249.647	101.154	106.586	240.586	372.688	105.628	109.439	111.029	115.166	317.522	112.918	-8191	255	
2134.387	1	1	0	0	0.13406	0.091359	0.22168	0.11155	0.062457	0.07823	0.32296	0.13501	0.18705	0.20908	0.13163	0.037341	0.26693	0.23166	0.12	0.21105	-2.1083	-2.7854	-1.8771	-2.9417	-2.1875	-2.1271	-3.0042	-1.9333	-2.5708	-2.65	-1.9833	-2.7375	-2.3667	-2.2521	-2.7854	-2.0979	340.002	410.177	319.850	419.882	388.864	446.855	424.296	435.211	110.884	363.920	321.758	384.482	375.890	386.693	181.654	325.784	0.0040537	0.0007941	0.00018247	809.11	5.0735e-06	3.0002e-06	1223.5	301.82	1.3452e-06	5.2985e-06	558.5	238.9	118.53	63.944	9.7606e-06	121.08	0.00041524	0.00036802	9.183e-05	752.06	4.3619e-06	3.9757e-06	1104.9	277.13	4.2801e-06	4.0408e-06	492.93	211.44	105.35	57.393	3.928e-06	106.37	405.372	134.442	140.134	101.043	192.149	339.856	101.161	106.666	132.370	248.195	105.422	109.811	111.237	115.109	285.359	113.438	-8191	255	
2134.505	1	1	0	0	0.18997	0.20052	0.086966	0.17858	0.06913	0.055514	0.21954	0.23362	0.059946	0.34091	0.21315	0.40357	0.34101	0.36339	0.12772	0.028267	-1.8333	-2.7438	-1.6313	-2.6042	-2.4667	-2.0708	-3.0021	-1.9438	-2.3688	-2.6146	-1.9125	-2.8271	-2.5646	-2.0208	-2.8042	-2.275	227.968	117.310	144.491	119.453	138.819	219.575	389.483	372.970	406.323	299.109	403.055	371.874	96.899	372.539	420.135	191.956	0.0036026	0.00039897	0.00033137	813.41	4.3569e-06	5.7975e-06	1237.6	303.74	1.2597e-05	8.3431e-06	556.97	243.23	120.06	64.717	4.1183e-06	122.74	0.0004241	0.00037731	9.935e-05	759.08	4.423e-06	3.9453e-06	1118.8	279.42	4.3214e-06	4.0608e-06	496.1	215.43	106.76	57.876	4.2249e-06	107.72	406.770	191.592	154.221	101.191	231.076	257.163	100.992	106.388	191.404	208.526	105.257	109.930	110.605	115.339	226.330	113.200	-8191	255	
2134.602	1	1	0	0	0.061053	0.15082	0.27343	0.19391	0.013833	0.25783	0.21975	0.19187	0.36015	0.16622	0.22324	0.18771	0.25569	0.16713	0.075656	0.23275	-1.8937	-2.8021	-1.7354	-2.8896	-2.3625	-2.1063	-2.6021	-2.3125	-2.2667	-2.8854	-1.9937	-2.9062	-2.4708	-1.9667	-2.7354	-2.4771	334.708	240.742	264.218	367.398	277.977	438.979	384.164	95.471	111.474	222.607	338.664	440.862	109.577	385.645	278.672	414.988	0.0039387	0.00010711	0.00020024	815.94	8.9516e-06	5.797e-06	1238.1	304.67	5.1069e-06	5.0057e-06	563.28	245.78	122.95	64.664	7.6067e-06	123.56	0.00042396	0.00036692	0.00010967	765.05	4.4239e-06	3.927e-06	1126.8	281.54	4.4027e-06	4.0804e-06	501.86	218.22	108.36	57.921	4.7089e-06	108.66	400.759	317.393	140.353	101.334	208.618	268.655	101.259	106.397	242.478	339.979	105.428	109.877	111.106	115.372	185.311	113.422	-8191	255	
2134.698	1	1	0	0	0.3439	0.20424	0.14603	0.18626	0.12195	0.15749	0.25747	0.062795	0.098143	0.0087373	0.38313	0.13554	0.11505	0.19488	0.089194	0.18886	-1.5979	-2.8125	-2.0375	-2.3542	-2.6979	-1.8917	-2.9313	-2.2438	-2.0187	-2.8833	-1.9813	-2.5312	-2.5438	-1.9542	-2.6917	-2.5167	190.560	396.511	248.455	446.415	206.416	251.438	89.985	439.628	254.065	446.227	406.781	104.396	254.732	348.641	190.792	264.141	0.0037936	0.00060257	0.00031262	817.16	7.7753e-06	1.1249e-06	1239.2	304.43	1.4639e-05	6.1449e-06	559.69	245.46	123.33	65.292	4.8045e-06	123.15	0.00043317	0.00038317	0.00012261	766.57	4.6143e-06	4.2132e-06	1133	282.05	4.5831e-06	4.4473e-06	504.05	218.58	109.3	58.459	5.3606e-06	108.82	405.103	172.833	94.626	100.976	205.304	318.600	101.419	106.501	226.229	324.516	105.494	109.863	110.955	114.849	257.654	113.262	-8191	255	
2134.794	1	1	0	0	0.23788	0.12458	0.13587	0.27717	0.092734	0.24997	0.34825	0.071925	0.11838	0.21816	0.20578	0.24241	0.28785	0.12811	0.17265	0.022783	-1.5833	-2.7479	-1.9396	-2.3396	-2.7833	-1.9292	-2.6937	-2.5438	-1.7792	-2.7604	-2.3417	-2.4333	-2.7229	-2.0396	-2.3542	-2.6771	411.132	213.335	425.023	423.113	389.558	308.987	379.846	361.540	323.984	310.080	154.548	112.865	339.763	105.412	325.749	423.231	0.0032527	0.0012562	0.00010008	810.76	3.113e-06	1.2274e-05	1225.7	302	1.2956e-05	6.9169e-06	552.83	243.62	122.02	64.223	2.1017e-07	121.99	0.00046525	0.00045238	0.00014304	763.47	4.9776e-06	4.9654e-06	1129.3	280.61	4.8667e-06	5.095e-06	501.94	216.54	108.77	58.331	5.5486e-06	107.93	397.284	175.230	420.273	101.210	279.737	217.862	101.265	106.384	167.209	203.358	105.159	109.816	110.792	114.972	234.827	113.176	-8191	255	
2134.890	1	1	0	0	0.21249	0.090711	0.18436	0.23282	0.29086	0.16164	0.092382	0.11767	0.4071	0.10051	0.19697	0.17604	0.10379	0.15484	0.37152	0.1683	-1.6479	-2.7271	-2.2333	-2.075	-2.8229	-1.9771	-2.5771	-2.5625	-2.0146	-2.7333	-2.4875	-2.1354	-2.7146	-2.2438	-2.5438	-2.8875	290.050	349.130	364.872	316.541	430.211	357.987	250.127	326.962	358.257	360.138	402.244	136.718	203.130	320.081	347.715	119.699	0.0037426	0.0015632	3.5701e-05	816.43	6.4043e-06	1.6162e-05	1232.9	301.79	7.9395e-06	8.9226e-06	557.35	242.3	121.58	63.862	2.5178e-06	122.46	0.0004567	0.00049259	0.00014235	768.12	4.917e-06	5.4821e-06	1133.3	280.91	4.8403e-06	5.4596e-06	503.38	216.51	109.04	58.084	5.416e-06	107.58	411.423	125.570	129.803	101.052	245.668	191.546	101.296	106.202	418.000	195.474	105.223	109.828	110.678	115.028	234.005	113.245	-8191	255	
2134.986	1	1	0	0	0.10564	0.09254	0.066147	0.098354	0.034312	0.31061	0.1691	0.23881	0.25177	0.093047	0.31865	0.32485	0.13912	0.23993	0.12964	0.22066	-1.4979	-2.6688	-2.2271	-2.2313	-2.6917	-2.0417	-2.6063	-2.7875	-1.8792	-2.5896	-2.4521	-2.0854	-2.8875	-2.1437	-2.3625	-3.0667	358.885	443.593	419.750	323.446	425.647	356.001	397.890	99.082	160.950	363.401	415.097	420.324	293.971	92.555	337.150	93.626	0.0036063	0.00091094	5.7118e-05	816.26	9.8624e-06	9.4715e-07	1228.1	303.21	8.8453e-06	2.8244e-06	552.95	244.87	123.03	63.494	6.7257e-06	121.14	0.00046447	0.00050567	0.00013764	769.19	4.9109e-06	5.5816e-06	1137.8	282.37	4.9641e-06	5.6486e-06	502.72	218.01	110.27	57.86	5.2418e-06	107.08	406.373	148.336	219.666	100.962	198.399	161.306	101.059	106.354	235.671	278.088	105.289	109.755	110.542	114.895	299.922	113.175	-8191	255	
2135.107	1	1	0	0	0.13741	0.056071	0.03962	0.15159	0.16485	0.089707	0.29596	0.29183	0.076634	0.28141	0.17834	0.31923	0.20122	0.32482	0.15473	0.13152	-1.4667	-2.2896	-2.3812	-1.7604	-2.775	-2.0875	-2.3063	-2.9833	-1.8854	-2.5625	-2.5687	-1.95	-2.8292	-2.0583	-2.3063	-2.875	324.766	162.900	388.768	143.072	323.472	194.623	370.682	90.910	203.864	199.898	99.414	441.191	389.129	397.305	234.673	103.339	0.0039841	0.00054925	8.1932e-05	822.88	9.6639e-06	2.5351e-06	1231.8	302.68	2.3409e-05	5.0346e-06	559.3	242.64	120.96	62.146	9.3802e-06	118.64	0.00047748	0.00050583	0.00013348	769.68	5.1797e-06	5.6048e-06	1136.2	281.17	5.2367e-06	5.5385e-06	502.2	215.53	110.44	56.815	5.2062e-06	104.56	399.802	166.895	114.496	100.682	222.389	139.272	101.227	106.533	183.829	274.076	105.131	109.428	111.235	115.202	316.001	113.254	-8191	255	
2135.201	1	1	0	0	0.17177	0.24885	0.20096	0.26633	0.15064	0.081561	0.19496	0.16577	0.11518	0.17334	0.18886	0.24607	0.24675	0.16222	0.016918	0.28691	-1.6542	-2.4458	-2.575	-1.9625	-2.65	-2.25	-2.1292	-2.8667	-1.8333	-2.3604	-2.8125	-1.9646	-2.7792	-2.4708	-1.9896	-2.8708	229.887	253.925	227.853	282.742	408.598	248.821	399.881	384.383	176.395	92.904	339.715	114.667	295.691	107.008	418.801	345.594	0.0038964	0.00065914	0.00029105	827.47	6.5298e-06	7.5114e-06	1234	304.49	1.2357e-05	8.0442e-06	556.02	242.87	122.78	61.871	1.3069e-05	117.32	0.00052517	0.00051206	0.0001338	774.26	5.616e-06	5.6502e-06	1137	282.14	5.7327e-06	5.5703e-06	501.49	215.57	112.21	55.974	5.1914e-06	103.65	402.321	233.179	204.087	100.986	252.920	266.701	101.308	106.445	220.564	376.918	105.028	109.553	110.841	115.208	235.385	113.352	-8191	255	
2135.297	1	1	0	0	0.16156	0.10632	0.20864	0.17771	0.10786	0.36473	0.31224	0.34704	0.35648	0.36046	0.21165	0.17541	0.11561	0.30767	0.16226	0.085203	-1.5333	-2.2542	-2.7396	-2.1979	-2.5833	-2.4875	-2.0771	-3.0854	-1.9396	-2.2438	-2.9562	-2.2	-2.4125	-2.5646	-1.8	-2.8729	318.132	158.570	213.024	177.160	195.577	190.310	97.270	406.463	238.711	199.639	442.652	194.181	377.207	389.008	200.190	380.142	0.0037433	0.00030283	0.00025432	833.2	2.1456e-06	7.4436e-06	1247.6	308.05	1.8475e-06	9.2311e-06	554.61	245.67	122.46	60.817	3.2466e-06	115.89	0.00056027	0.00050552	0.00013228	783	5.7986e-06	5.445e-06	1143.6	285.65	5.6264e-06	5.1491e-06	499.67	217.53	111.75	55.154	4.7236e-06	102.61	403.135	153.309	186.990	101.009	102.549	244.228	101.036	106.371	439.759	159.960	105.230	109.778	110.553	115.474	270.864	113.381	-8191	255	
2135.371	1	1	0	0	0.10763	0.099235	0.01378	0.25152	0.5564	0.32198	0.14888	0.30702	0.099939	0.20886	0.15781	0.2424	0.16815	0.21362	0.18146	0.20979	-1.7542	-2.0563	-2.7021	-2.0021	-2.3688	-2.6771	-1.95	-2.9646	-2.05	-2.2375	-2.6542	-2.2104	-2.2521	-2.8667	-1.9708	-2.9375	256.344	239.610	272.003	399.893	128.176	206.920	426.756	88.246	266.783	391.641	95.129	122.402	430.200	101.234	287.215	404.494	0.0036673	0.0018118	0.00015148	839.29	5.1275e-06	3.031e-06	1246	307.25	3.7104e-06	1.7998e-06	555.15	241.54	122.68	60.201	1.0227e-05	116.05	0.0005354	0.00047907	0.00012261	790.65	5.5558e-06	5.2671e-06	1141.9	286.05	5.5869e-06	5.1413e-06	498.32	216.11	111.24	54.765	4.7235e-06	102.88	408.430	132.636	438.762	100.833	245.023	179.099	100.955	106.222	147.569	215.126	105.409	109.514	111.010	115.388	227.298	113.417	-8191	255	
2135.490	1	1	0	0	0.12226	0.26001	0.25066	0.1279	0.13208	0.28054	0.18739	0.10125	0.22699	0.18967	0.21421	0.46359	0.20902	0.14405	0.293	0.25812	-1.7896	-1.9312	-2.7229	-2.0354	-2.3625	-2.6729	-1.8729	-2.8875	-2.3708	-1.8542	-2.8937	-2.2375	-2.3458	-2.8229	-1.7667	-2.8958	147.123	320.813	296.610	345.862	327.002	434.058	421.149	103.070	282.989	149.942	363.564	432.814	110.873	268.440	272.779	425.236	0.0031933	0.00055358	0.00021305	833.31	5.9648e-07	8.5344e-06	1247.6	302.76	1.1857e-05	4.8031e-06	555.54	241.52	122.11	60.5	1.3051e-05	116.37	0.00051844	0.00045475	0.00011971	786.63	5.2851e-06	4.9577e-06	1138.8	283.72	5.3032e-06	4.8581e-06	498.35	215.54	110.42	54.58	4.8329e-06	103.18	404.338	130.376	177.035	100.795	432.062	276.716	101.191	106.590	190.398	109.862	105.224	109.455	111.250	115.558	217.547	113.425	-8191	255	
2135.586	1	1	0	0	0.30456	0.076361	0.049088	0.1036	0.13762	0.2142	0.18736	0.2092	0.15289	0.30953	0.13762	0.22223	0.22217	0.14463	0.37373	0.21364	-2.2042	-1.7875	-2.8312	-2.0812	-2.1792	-2.775	-2.0396	-2.5354	-2.4208	-1.9833	-3.0083	-2.4771	-2.1729	-2.9583	-1.8708	-2.7062	248.754	91.267	295.706	156.461	363.918	152.554	317.957	373.493	334.748	115.449	88.917	421.446	96.610	158.267	175.094	427.178	0.0033274	0.00045428	0.00021218	835.48	3.6826e-06	5.7829e-06	1254.5	304.9	1.4274e-05	4.41e-06	554.33	241.22	121.69	60.394	1.1309e-05	117.02	0.00049745	0.00042696	0.00012244	790.17	5.134e-06	4.7494e-06	1145.3	285.01	5.2699e-06	4.65e-06	500	215.8	109.7	54.56	5.1533e-06	103.51	403.462	232.807	157.589	100.916	408.902	198.124	100.955	106.685	257.564	298.824	105.407	109.358	110.440	115.072	279.842	113.430	-8191	255	
2135.682	1	1	0	0	0.094514	0.23567	0.16869	0.11868	0.21706	0.15638	0.10826	0.11037	0.16374	0.028437	0.093927	0.1698	0.18489	0.33788	0.15869	0.10697	-2.2021	-1.7854	-2.9	-2.4	-2.175	-2.7896	-2.1188	-2.5271	-2.5979	-1.8708	-2.8583	-2.4167	-1.7604	-3.0104	-1.9813	-2.6708	422.131	130.024	309.440	306.688	179.110	443.343	361.483	437.514	427.360	392.743	143.459	371.662	407.505	428.442	405.613	430.892	0.003516	0.00087262	0.00016184	836.8	4.7643e-06	6.8831e-06	1245.5	305.44	6.4026e-06	1.1308e-05	554.56	242.28	121.49	60.72	6.7645e-06	117.52	0.00049113	0.00042195	0.00013362	789.69	5.062e-06	4.7637e-06	1149.5	284.68	5.1503e-06	4.707e-06	502.21	216.9	109.43	55.021	5.4793e-06	104.14	404.390	437.289	427.676	100.609	269.663	210.654	101.119	106.496	165.299	195.049	105.226	109.591	111.303	115.289	206.212	113.404	-8191	255	
2135.778	1	1	0	0	0.22811	0.14315	0.32682	0.092643	0.17407	0.15162	0.3345	0.17083	0.13006	0.16937	0.093223	0.2872	0.20537	0.1735	0.081446	0.2495	-2.1958	-2.0312	-2.6896	-2.6083	-2.0625	-2.7958	-2.2354	-2.325	-2.8792	-1.9688	-2.8333	-2.5417	-1.9708	-2.9208	-2.0167	-2.4271	106.445	182.788	439.619	421.587	324.949	355.178	380.743	302.334	133.180	372.198	261.424	420.895	432.277	92.334	396.099	403.342	0.0033183	0.00026407	9.3444e-05	836.11	2.513e-06	1.3873e-05	1254.5	305.51	4.6444e-06	1.728e-05	557.23	246.15	123.31	61.735	5.2851e-06	118.52	0.00048828	0.00044159	0.00013978	788.57	4.925e-06	4.9793e-06	1153.1	284.26	5.064e-06	5.0538e-06	504.51	219.7	110.77	56.02	5.8242e-06	105.04	396.253	122.369	126.503	101.362	319.648	205.997	101.015	106.461	281.784	236.922	105.464	109.517	111.035	115.281	193.327	113.560	-8191	255	
2135.899	1	1	0	0	0.10365	0.081839	0.023227	0.2728	0.47105	0.18496	0.17279	0.093243	0.21312	0.1714	0.15304	0.35658	0.20073	0.20931	0.1756	0.2938	-2.5312	-2	-2.7708	-2.6375	-1.9312	-2.7042	-2.2792	-2.1562	-2.8167	-2.0208	-2.6937	-2.7271	-2.0542	-2.8	-2.3979	-2.1146	421.795	432.106	300.453	374.169	405.551	405.758	407.802	134.464	352.212	289.361	391.077	438.601	429.955	417.948	98.952	441.760	0.0037557	0.00065094	0.0003062	827	1.3787e-05	7.3739e-06	1247.8	304.62	3.7832e-06	1.1104e-05	552.77	246.53	124.02	61.821	7.2007e-06	119.01	0.00048956	0.00049743	0.00014731	783.71	5.0486e-06	5.5579e-06	1149.3	283.22	5.1116e-06	5.6777e-06	502.02	219.97	111.31	56.348	5.8626e-06	105.1	407.504	102.189	116.968	101.371	218.338	212.996	101.473	107.171	228.229	277.587	105.153	109.440	111.039	115.305	290.258	113.497	-8191	255	
2135.995	1	1	0	0	0.20346	0.37393	0.09702	0.26225	0.14773	0.026179	0.28116	0.057578	0.12665	0.119	0.35763	0.55437	0.065812	0.28788	0.098353	0.2895	-2.5625	-1.9042	-2.4542	-2.7667	-1.8062	-2.8396	-2.6354	-2.0208	-2.7375	-2.1104	-2.3812	-2.7938	-1.9979	-2.775	-2.3458	-1.9896	287.384	123.804	164.512	415.079	237.781	169.829	414.657	351.749	262.983	306.666	405.143	349.043	341.940	109.402	130.525	387.790	0.0033941	0.0016815	0.00027049	825.25	6.0706e-06	7.1238e-06	1230.3	302.02	1.9985e-05	8.8238e-06	554.34	247.68	126.15	61.695	8.8096e-06	119.16	0.00049971	0.00053801	0.00014797	782.82	5.2135e-06	6.0239e-06	1144.7	281.81	5.3523e-06	6.0238e-06	501.55	220.8	112.84	56.694	5.762e-06	105.18	399.415	164.113	303.076	101.328	213.518	185.785	101.274	107.213	178.920	194.977	105.526	109.865	111.658	115.859	226.297	113.540	-8191	255	
2136.067	1	1	0	0	0.24298	0.13884	0.09482	0.11874	0.13172	0.15141	0.11786	0.182	0.30004	0.19645	0.4934	0.14727	0.039151	0.1359	0.023459	0.24548	-2.4583	-2.0187	-2.1958	-2.8354	-2.0167	-2.5938	-2.6375	-2.15	-2.6521	-2.2042	-2.3729	-2.8417	-1.8667	-2.4938	-2.575	-1.95	315.721	295.441	421.089	356.002	129.975	376.248	437.275	372.464	446.905	298.410	427.379	405.143	305.528	412.420	273.206	408.004	0.0039441	0.000981	3.652e-05	841.56	1.342e-05	2.4231e-06	1238.4	304.73	9.678e-06	4.5401e-06	552.18	247.32	124.6	61.578	5.8294e-06	118.29	0.00050492	0.00053363	0.0001404	789.9	5.2843e-06	5.8994e-06	1148.5	283.19	5.6512e-06	6.1726e-06	502.38	219.76	114.21	56.698	5.9059e-06	104.94	401.811	148.655	96.906	101.229	197.476	158.273	101.342	106.769	186.100	207.701	105.964	109.733	111.333	115.998	169.866	114.037	-8191	255	
2136.187	1	1	0	0	0.24228	0.060091	0.13415	0.23187	0.28592	0.048972	0.30117	0.12161	0.32549	0.30716	0.17206	0.36	0.13694	0.12713	0.13147	0.18617	-2.5771	-2.1188	-2.1375	-2.975	-1.8583	-2.5354	-2.7875	-2.0479	-2.7708	-2.1	-2.2458	-2.9396	-1.9562	-2.6417	-2.6562	-1.95	149.005	193.675	213.689	123.886	420.657	361.123	368.233	104.635	261.276	383.863	414.920	424.819	424.709	368.185	257.198	138.760	0.0034963	0.00022391	0.00017704	824.95	4.5958e-06	9.4267e-06	1239.1	305.23	1.3912e-05	5.9996e-06	550.73	245.77	124.76	61.218	1.3836e-05	118.03	0.00057167	0.00056869	0.00014619	779.35	5.904e-06	5.9831e-06	1143.6	282.32	5.9691e-06	5.9545e-06	499.14	219.02	114.6	56.035	5.6002e-06	103.97	405.269	352.061	274.782	101.501	250.926	181.342	101.555	107.126	152.183	156.992	105.887	109.920	111.277	116.031	256.932	113.532	-8191	255	
2136.283	1	1	0	0	0.16309	0.16685	0.11898	0.30426	0.36682	0.23043	0.24051	0.2065	0.033521	0.1625	0.39535	0.057259	0.24343	0.22014	0.12233	0.06128	-2.1646	-2.3958	-1.9396	-3.0125	-1.9875	-2.3375	-2.7687	-1.9875	-2.4292	-2.575	-2.0812	-3.0729	-1.9333	-2.425	-2.7542	-2.0312	130.845	387.635	373.533	408.977	309.748	111.296	432.906	358.259	245.355	97.053	391.052	378.674	401.983	385.962	105.887	375.549	0.0043087	0.00039998	0.00033777	832.78	1.7656e-05	3.0231e-06	1241	304.26	6.8596e-06	3.6749e-06	549.61	246.12	124.27	61.389	3.4386e-06	117.16	0.00057158	0.00053918	0.00013751	783.68	6.1648e-06	5.774e-06	1143.9	283.53	6.0822e-06	5.8839e-06	497.92	220.13	114.98	55.927	5.3502e-06	103.72	396.060	183.417	132.916	100.997	222.087	156.220	100.936	106.686	224.868	323.549	105.560	109.871	110.551	115.613	153.729	113.650	-8191	255	
2136.380	1	1	0	0	0.033053	0.17035	0.094785	0.08789	0.33593	0.19739	0.18499	0.18353	0.17998	0.083091	0.17983	0.14759	0.10335	0.19293	0.095811	0.055452	-2.3854	-2.4646	-1.9771	-2.75	-2.2792	-2.125	-2.9458	-2.0917	-2.6125	-2.3375	-2.1875	-2.9417	-2.4208	-2.2354	-2.8854	-2.1604	190.058	96.447	145.686	284.062	304.797	166.382	363.675	377.934	288.602	146.756	196.357	431.714	405.628	176.383	292.236	329.446	0.0030116	0.0012748	3.3254e-05	833.45	1.2388e-05	4.3899e-06	1244	303.76	5.2203e-06	9.6372e-06	549.48	244.83	123.18	60.515	5.0636e-06	116.61	0.00057377	0.00053364	0.00013188	788.27	6.0396e-06	5.6636e-06	1143	283.27	5.932e-06	5.6589e-06	494.96	218.79	113.36	55.18	5.0775e-06	103.68	404.168	195.184	343.367	101.499	316.099	336.984	101.485	106.545	191.638	162.888	105.255	109.604	111.123	115.911	254.805	113.530	-8191	255	
2136.498	1	1	0	0	0.17801	0.12047	0.1168	0.30124	0.10164	0.24485	0.26107	0.066517	0.11146	0.18354	0.24223	0.13978	0.18347	0.1318	0.17082	0.19905	-2.0646	-2.6625	-1.9479	-2.9083	-2.2396	-2.1208	-2.9062	-1.9729	-2.4417	-2.6729	-2.0563	-2.7542	-2.6375	-2.0875	-2.7417	-2.2333	267.327	438.162	292.185	440.804	328.963	315.213	400.115	144.236	250.658	427.770	423.939	421.734	251.370	386.536	119.895	352.247	0.0031828	0.00023388	0.00017291	831.04	5.5025e-06	8.233e-06	1252.3	301.25	1.5788e-05	2.1364e-06	551.29	241.97	122.17	60.504	1.028e-05	116.15	0.00054453	0.00049618	0.00012523	788.25	5.6961e-06	5.2776e-06	1141.7	282.05	5.6297e-06	5.2632e-06	494.72	216.38	111.52	54.659	5.1927e-06	103.44	405.489	245.807	118.297	101.345	229.754	254.563	101.419	106.657	209.916	430.987	105.614	109.904	110.931	115.936	235.892	113.388	-8191	255	
2136.595	1	1	0	0	0.089385	0.13368	0.2146	0.2543	0.14723	0.16188	0.39501	0.040516	0.09389	0.13635	0.22465	0.093384	0.24405	0.37349	0.18452	0.21734	-1.8208	-2.5917	-1.8062	-2.8271	-2.2979	-2.2104	-2.7604	-2.2146	-2.3146	-2.6417	-1.9833	-2.8104	-2.3417	-2.1667	-2.8229	-2.3688	88.595	93.636	215.049	443.084	215.025	331.123	366.215	447.447	115.134	216.163	337.746	194.639	227.699	385.101	277.815	350.615	0.0031755	0.00080506	0.00032356	827.99	6.416e-06	5.854e-06	1236.3	298.8	4.3156e-06	1.3046e-06	552.44	240.29	122.23	60.455	1.1685e-05	116.74	0.00053113	0.00047777	0.00013094	785.53	5.6465e-06	5.1249e-06	1136.7	281.63	5.5803e-06	5.2389e-06	498.38	215.28	111.47	54.796	5.5878e-06	103.86	403.529	170.548	104.463	101.484	200.998	190.648	101.342	106.336	309.756	205.064	105.499	110.022	110.976	115.696	223.733	113.788	-8191	255	
2136.666	1	1	0	0	0.13357	0.069874	0.23281	0.36455	0.1262	0.13466	0.14	0.30271	0.21001	0.028668	0.30101	0.18246	0.33919	0.10454	0.28811	0.29971	-1.8062	-2.7875	-2.0417	-2.5417	-2.4417	-1.9021	-2.9208	-2.125	-2.1583	-2.6	-1.9188	-2.7104	-2.5375	-2.1208	-2.6417	-2.6958	314.432	309.240	418.641	356.552	123.256	274.575	395.985	377.773	431.924	233.800	394.157	325.686	125.292	186.219	345.152	358.811	0.003564	0.0004674	0.00049611	822.04	5.8162e-06	3.1871e-06	1227.2	297.86	1.4457e-05	7.188e-06	548.21	238.39	120.31	60.33	3.8237e-06	117.78	0.00052769	0.00046546	0.00014395	779.35	5.6664e-06	5.0969e-06	1134.5	281.13	5.704e-06	5.3485e-06	499.33	214.58	110.98	55.133	6.3362e-06	104.84	405.887	151.333	112.060	101.453	226.703	357.336	101.535	106.847	177.054	188.101	105.353	109.923	110.887	115.452	242.017	113.337	-8191	255	
2136.787	1	1	0	0	0.26172	0.17154	0.12491	0.22192	0.22845	0.31766	0.13788	0.25259	0.31069	0.07298	0.15757	0.067364	0.018138	0.13568	0.21281	0.22476	-1.6625	-3.0292	-2.0333	-2.5646	-2.7167	-1.8125	-2.7896	-2.3083	-1.9833	-2.9625	-2.1646	-2.5667	-2.8146	-2.0083	-2.6958	-2.65	210.596	435.049	205.522	426.310	446.312	179.375	390.182	123.523	231.404	296.985	393.201	225.179	270.176	88.845	293.711	373.366	0.0029888	0.0012337	9.9211e-05	807.21	6.0448e-06	4.4992e-06	1216.7	294.2	7.2962e-06	9.8277e-06	548.3	234.38	117.04	60.32	9.5325e-06	115.81	0.00055697	0.00051514	0.00016331	771.26	5.9752e-06	5.6795e-06	1134.1	278.75	5.8945e-06	5.9346e-06	502.41	211.32	109.35	55.318	6.6571e-06	103.65	412.255	156.655	269.613	101.097	375.805	144.348	101.420	106.579	315.379	232.115	105.515	109.807	111.315	115.117	177.681	113.173	-8191	255	
2136.883	1	1	0	0	0.12874	0.14625	0.11291	0.16024	0.24727	0.27927	0.27366	0.097259	0.07051	0.21837	0.17348	0.3272	0.084208	0.11914	0.35768	0.21423	-1.5396	-2.7687	-2.1125	-2.3688	-2.6417	-1.8542	-2.6271	-2.5042	-1.8937	-2.9417	-2.2812	-2.3354	-2.8958	-2.0104	-2.5667	-2.8875	198.546	152.727	414.571	153.512	448.319	339.365	406.060	391.051	177.414	191.000	447.243	445.727	92.416	379.091	299.512	373.605	0.0031014	0.00061955	0.00026591	799.48	8.2745e-07	6.9249e-06	1215.8	295.9	1.1028e-05	1.0282e-05	546.57	226.53	113.55	58.006	1.0846e-06	111.85	0.00054412	0.00055531	0.00016578	767.37	5.6432e-06	5.9024e-06	1129.5	279.32	5.5114e-06	6.0684e-06	501.32	204.13	105.29	53.314	6.5444e-06	100.03	406.091	201.149	97.656	101.591	150.339	182.131	101.000	106.426	162.409	101.184	104.990	109.889	110.661	115.269	441.227	113.346	-8191	255	
2136.979	1	1	0	0	0.18138	0.34259	0.16012	0.18725	0.20503	0.15035	0.16192	0.24463	0.15065	0.091068	0.20548	0.36211	0.10757	0.15008	0.1024	0.20367	-1.5167	-2.8563	-2.2396	-2.3458	-2.7646	-1.9396	-2.6354	-2.7875	-1.8563	-2.7042	-2.5646	-2.2917	-2.8667	-2.1208	-2.4104	-2.9604	99.850	234.600	90.288	396.251	200.029	239.090	337.122	239.986	174.349	239.659	420.240	387.341	107.705	437.923	93.247	398.305	0.0032663	0.0013341	0.00036196	780.51	5.1527e-06	1.5832e-05	1197.9	292.85	1.4407e-05	3.5283e-06	551.24	225.05	111.68	56.241	8.664e-06	109.23	0.00054667	0.00060114	0.00016981	752.8	5.9627e-06	6.6966e-06	1114.1	276.81	5.7931e-06	6.7068e-06	506.89	202.83	105.31	52.294	6.5498e-06	97.571	403.888	164.918	192.686	100.867	147.662	234.090	101.137	106.551	168.426	261.441	105.464	109.728	111.016	115.391	225.181	113.407	-8191	255	
2137.075	1	1	0	0	0.06848	0.10559	0.11195	0.25217	0.27356	0.21201	0.25948	0.13923	0.24228	0.27104	0.1994	0.2478	0.054904	0.30659	0.046976	0.1299	-1.5625	-2.6958	-2.3667	-2.0354	-2.9646	-1.9875	-2.2479	-2.825	-1.8708	-2.6562	-2.6229	-2.2792	-2.7833	-2.2333	-2.3021	-3.1125	277.058	226.869	314.372	398.574	420.973	219.155	353.332	326.997	263.110	181.830	400.900	352.760	236.669	438.202	397.512	373.834	0.003713	0.0011079	6.3552e-05	766.5	1.0393e-05	1.1012e-05	1177	291.04	1.2876e-05	3.8341e-06	554.16	226.66	112.71	54.612	5.4357e-06	107.15	0.00056722	0.00062462	0.00016842	736.24	6.2852e-06	7.0634e-06	1100.4	275.56	6.3313e-06	6.9102e-06	508.5	204.33	106.98	50.695	6.2503e-06	95.641	404.847	218.922	269.860	100.884	196.360	198.701	101.254	106.593	184.649	428.871	105.214	109.909	111.076	115.284	123.285	113.626	-8191	255	
2137.194	1	1	0	0	0.24322	0.245	0.10824	0.067948	0.066612	0.22311	0.29293	0.11019	0.093773	0.10705	0.17068	0.35399	0.095367	0.15303	0.19158	0.30943	-1.5708	-2.6729	-2.5708	-1.9833	-2.6854	-2.2167	-2.2812	-2.9313	-1.8396	-2.6896	-2.8063	-2.2062	-2.7646	-2.5333	-2.1604	-2.9771	370.294	334.111	181.192	184.863	327.519	396.396	444.265	91.266	276.622	193.479	380.854	406.592	98.284	379.596	211.404	402.484	0.0038464	0.00028793	4.665e-05	764.57	1.6933e-05	4.8945e-06	1176.3	289.01	2.1211e-05	9.787e-06	552.12	228.45	114.22	53.721	4.1056e-06	106.86	0.00057726	0.0005919	0.0001574	729.64	6.211e-06	6.5192e-06	1090.8	271.94	6.2712e-06	6.3625e-06	503.42	204.97	107.61	49.954	5.8811e-06	94.948	403.917	270.923	189.209	101.225	192.463	286.599	100.790	106.736	168.557	115.902	104.997	110.021	110.899	115.696	103.479	113.508	-8191	255	
2137.268	1	1	0	0	0.14809	0.29549	0.1271	0.090382	0.092081	0.25267	0.091363	0.050975	0.21805	0.092517	0.23853	0.17244	0.28466	0.16065	0.32839	0.22964	-1.8958	-2.325	-2.7729	-1.8292	-2.7792	-2.3	-2.2	-2.9417	-1.9167	-2.5625	-2.875	-1.9958	-2.6125	-2.5854	-1.9708	-3.1437	247.154	241.414	426.795	407.659	223.703	226.147	91.328	104.527	200.349	322.263	393.409	414.008	258.140	424.355	92.613	391.084	0.0033085	0.00039281	0.00065785	770.36	5.204e-06	2.5195e-06	1169.9	289.19	1.2986e-05	1.215e-05	553.62	229.64	113.23	53.662	8.1162e-06	107.85	0.00058419	0.00055369	0.00014541	727.76	6.0288e-06	5.9328e-06	1082.8	270.44	6.053e-06	5.859e-06	500.17	205.1	106.96	49.829	5.3263e-06	95.675	406.781	287.176	196.250	100.801	196.965	305.858	101.137	106.820	223.104	263.197	105.643	109.877	110.745	115.558	417.071	113.648	-8191	255	
2137.362	1	1	0	0	0.19753	0.31551	0.070318	0.28969	0.19086	0.068648	0.22122	0.12821	0.09777	0.14598	0.3422	0.42739	0.086039	0.21607	0.35143	0.25923	-1.5229	-2.3604	-2.75	-2.2083	-2.7062	-2.6771	-2.2667	-2.7542	-2.4188	-2.1792	-2.875	-1.9792	-2.5667	-2.625	-2.1667	-2.9646	133.929	411.138	233.874	442.474	338.227	144.802	367.711	369.719	413.857	333.063	366.674	439.210	361.653	385.527	340.741	375.398	0.0030426	0.00045413	0.00029463	764.27	1.128e-05	7.173e-06	1171.3	287.99	5.591e-06	5.7101e-06	552.22	230.49	114.9	53.915	8.2619e-06	107.73	0.0005705	0.00051741	0.00013137	726.84	5.8116e-06	5.5533e-06	1080.1	270.03	5.7151e-06	5.3277e-06	497.59	206.33	105.71	49.358	4.7849e-06	95.368	393.293	399.190	133.844	101.446	228.034	308.735	101.311	107.067	359.969	264.873	105.755	109.877	111.330	115.915	232.013	113.829	-8191	255	
2137.460	1	1	0	0	0.15408	0.038567	0.041186	0.25244	0.094118	0.18226	0.16403	0.15662	0.16553	0.15599	0.17092	0.32952	0.08741	0.12529	0.032685	0.238	-2.0375	-2.0042	-2.8042	-1.95	-2.5292	-2.7542	-2.1833	-2.7438	-2.325	-2.0521	-2.8792	-2.15	-2.4104	-2.775	-1.8521	-3.0396	375.407	312.134	116.979	108.396	93.391	395.247	350.291	345.937	422.886	93.962	430.603	350.012	372.770	139.166	298.698	419.965	0.0029763	0.00017615	0.00025749	788.38	3.7784e-06	3.1346e-06	1199.2	290.91	6.1465e-06	8.4375e-06	558.91	228.93	113.79	53.076	8.2811e-06	106.35	0.0005261	0.00046656	0.00011893	741.94	5.2941e-06	4.9541e-06	1098.7	271.7	5.1081e-06	4.6215e-06	496.57	203.28	102.56	48.154	4.3485e-06	94.468	406.801	285.301	100.335	101.303	431.269	358.829	101.144	106.862	143.645	384.014	105.915	109.805	111.697	115.759	216.084	113.902	-8191	255	
2137.579	1	1	0	0	0.16494	0.072735	0.035694	0.024536	0.23399	0.031319	0.21642	0.29224	0.23291	0.18173	0.26949	0.47985	0.16902	0.21577	0.12425	0.1084	-1.8312	-2.1813	-2.9458	-2.1396	-2.4521	-2.8125	-2.1	-2.7417	-2.5167	-2.0958	-2.8458	-2.1833	-2.4437	-2.8667	-1.875	-2.6917	182.398	93.551	295.849	446.582	331.027	435.389	378.173	410.005	119.927	212.680	356.299	400.307	371.180	382.329	424.007	341.827	0.002999	0.00033924	0.00010842	814.95	5.8261e-06	5.6327e-06	1221.9	298.57	1.7785e-06	4.299e-06	552.19	224.99	113.49	52.594	7.1227e-06	106.6	0.00046585	0.0004099	0.00011164	768.28	4.837e-06	4.5409e-06	1118.9	277.03	4.86e-06	4.4312e-06	493.78	200.89	102.03	47.754	4.4458e-06	93.982	412.952	378.310	180.658	100.854	185.218	181.646	101.318	107.183	169.726	297.334	105.829	110.145	111.597	116.009	184.946	113.958	-8191	255	
2137.675	1	1	0	0	0.077486	0.32091	0.1132	0.21382	0.23545	0.19649	0.28762	0.16914	0.068457	0.17775	0.08686	0.38461	0.084358	0.23192	0.12285	0.17355	-2.0312	-1.8604	-2.8521	-2.2083	-2.1958	-2.9125	-2.0979	-2.5917	-2.4958	-1.9813	-2.9896	-2.4792	-2.125	-2.9396	-1.7729	-2.6521	386.002	263.859	429.199	371.439	417.068	365.460	412.755	365.321	205.200	242.765	240.948	429.655	419.779	433.905	175.375	424.986	0.002807	0.00061966	0.00040541	841.41	3.4495e-06	1.0882e-05	1250.9	299.39	3.4277e-06	8.381e-06	551.37	231.43	117.31	53.649	6.3378e-06	108.47	0.00043884	0.00037963	0.00011244	786	4.4521e-06	4.0588e-06	1140.2	278.28	4.456e-06	3.9505e-06	491.92	205.43	103.42	48.394	4.447e-06	95.128	409.136	208.363	140.682	101.091	140.927	173.286	101.351	107.125	167.790	133.650	105.731	110.066	111.727	115.969	211.261	114.091	-8191	255	
2137.771	1	1	0	0	0.19624	0.30276	0.094785	0.25367	0.26422	0.06598	0.15235	0.007959	0.061008	0.074792	0.059418	0.17987	0.056215	0.15049	0.08702	0.19965	-2.2375	-1.8583	-2.6312	-2.4521	-2.0062	-2.7458	-2.1604	-2.5729	-2.7146	-1.9375	-2.8292	-2.5396	-2.1437	-2.8187	-2.1437	-2.3979	446.925	263.003	206.227	109.609	241.696	190.933	261.375	319.273	110.685	138.370	306.534	190.711	383.848	395.320	409.939	447.203	0.0029452	0.00091741	0.00035891	879.62	2.6733e-06	4.3822e-06	1281.8	306.77	3.9108e-06	8.1457e-06	548.24	243.91	125	54.972	4.5765e-06	108.83	0.00040906	0.00035453	0.00011148	818.61	4.0571e-06	3.8172e-06	1166.2	281.18	3.9338e-06	3.6493e-06	490.14	215.53	108.01	49.305	4.3244e-06	95.214	406.164	162.415	91.909	101.078	266.120	173.587	101.044	107.248	250.156	253.137	106.039	109.544	110.934	116.270	138.101	114.071	-8191	255	
2137.867	1	1	0	0	0.12644	0.078307	0.11714	0.15891	0.12866	0.27761	0.19651	0.27596	0.25317	0.16051	0.12232	0.17056	0.11551	0.21516	0.181	0.21932	-2.575	-1.6125	-2.7146	-2.5667	-1.8979	-2.8021	-2.4958	-2.2917	-2.6688	-1.7271	-2.775	-2.6813	-2.2125	-2.9354	-2.2958	-2.3438	306.707	315.577	281.137	258.462	247.005	258.157	282.406	374.369	219.610	363.392	341.439	392.958	447.769	400.166	160.899	235.820	0.0030414	0.00045802	0.00023253	899.29	5.4684e-06	7.6594e-06	1292.4	308.45	2.9626e-06	5.4046e-06	557.61	246.79	127.87	54.924	6.2106e-06	106.82	0.00036228	0.00034155	0.00010471	829.75	3.4538e-06	3.5768e-06	1170.5	280.86	3.3387e-06	3.4737e-06	492.11	217.06	107.83	49.096	3.7837e-06	93.59	410.896	163.669	207.645	101.245	290.452	255.003	101.285	107.115	271.055	202.447	105.624	109.666	111.608	116.223	282.505	114.372	-8191	255	
2137.963	1	1	0	0	0.3218	0.18261	0.31605	0.17705	0.21607	0.19634	0.1066	0.34226	0.10584	0.24066	0.30906	0.15943	0.071306	0.14812	0.11754	0.0513	-2.4021	-1.8125	-2.6375	-2.5542	-2.0125	-2.8438	-2.4896	-2.1625	-2.8417	-1.9354	-2.7458	-2.8688	-2.0167	-2.8875	-2.3417	-2.3354	199.891	98.721	261.516	404.640	270.358	383.743	369.301	431.716	419.235	123.549	107.568	405.211	97.153	142.529	211.298	99.903	0.0035406	0.00058966	0.00023171	908.51	3.8442e-06	2.228e-06	1290.4	314.33	1.5729e-05	1.1889e-05	556.83	246.04	128.35	54.885	1.3534e-06	107.09	0.00031748	0.00032517	9.4432e-05	830.43	3.1663e-06	3.662e-06	1167.9	284.08	3.2075e-06	3.6059e-06	490.73	215.45	106.97	49.177	3.4364e-06	93.164	395.999	170.909	174.497	100.849	205.513	171.814	100.963	106.404	173.459	207.492	105.648	109.604	110.660	116.159	144.008	114.350	-8191	255	
2138.060	1	1	0	0	0.27353	0.1521	0.11221	0.34968	0.28128	0.19273	0.11419	0.23437	0.17626	0.11937	0.12813	0.11503	0.13792	0.077349	0.1128	0.26658	-2.5875	-1.8917	-2.3292	-2.9292	-1.9729	-2.7167	-2.5292	-1.9646	-2.9938	-2.0792	-2.4354	-2.9708	-1.9542	-2.6792	-2.4396	-1.9583	98.567	268.814	349.026	403.135	444.284	329.242	345.965	405.110	90.719	371.376	366.259	392.701	317.392	138.023	150.881	408.731	0.0033744	0.00022904	0.00014157	913.4	9.8454e-06	4.9054e-06	1298.4	316.33	8.0471e-06	9.3918e-06	559.22	244.45	128.17	54.652	4.8593e-06	107.25	0.00030101	0.00031767	8.306e-05	830.52	2.9576e-06	3.5079e-06	1169.8	285.34	3.0652e-06	3.4672e-06	490.62	213.47	106.91	48.968	3.0505e-06	92.965	402.959	399.162	133.812	101.116	250.744	254.580	101.275	106.513	170.629	195.573	105.299	109.537	110.526	116.004	213.207	113.903	-8191	255	
2138.180	1	1	0	0	0.060568	0.17164	0.10484	0.2759	0.085005	0.24445	0.26699	0.042852	0.15507	0.10474	0.099654	0.2561	0.099396	0.27334	0.22213	0.16235	-2.425	-2.3063	-2.0792	-3.0438	-1.9792	-2.6625	-2.6146	-1.9042	-2.7854	-2.2646	-2.1813	-3.0917	-1.9167	-2.6958	-2.55	-1.9792	140.767	184.183	178.728	437.833	380.900	242.680	379.183	142.990	441.466	214.417	140.484	97.179	142.832	128.806	409.356	378.350	0.0032613	0.00038088	0.00016765	906.28	8.0162e-06	2.9735e-06	1300	318.2	9.5423e-06	6.6433e-06	557.96	245.34	127.45	55.376	5.8187e-06	107.81	0.00027854	0.0002832	7.0643e-05	820.98	2.7564e-06	2.9143e-06	1165.3	283.73	2.7256e-06	2.8449e-06	486	213.06	106.17	49.103	2.399e-06	93.368	406.066	261.108	127.402	101.218	204.830	167.845	101.023	106.353	202.231	280.405	105.538	109.651	110.938	116.089	223.894	113.991	-8191	255	
2138.275	1	1	0	0	0.14668	0.12928	0.21541	0.076674	0.19489	0.19969	0.059962	0.26246	0.2829	0.37311	0.03146	0.40774	0.20658	0.067118	0.16865	0.30321	-2.3771	-2.3042	-2.1833	-2.8	-1.9562	-2.4646	-2.8104	-2.1063	-2.5521	-2.5125	-2.1333	-3.0312	-2.2396	-2.7083	-2.7771	-1.9417	398.806	231.260	445.979	436.555	215.769	357.687	360.033	436.939	322.566	290.927	269.793	425.687	164.780	113.629	432.697	112.837	0.0035094	8.2535e-05	0.00023585	905.76	1.2915e-05	1.5882e-06	1301.1	315.78	1.1017e-05	4.0485e-06	555.09	240.79	124.87	53.526	4.4579e-06	103.84	0.00025555	0.00022873	5.6303e-05	816.52	2.4251e-06	2.3386e-06	1156	280.42	2.3818e-06	2.2545e-06	478.52	208.09	102.85	47.168	2.0099e-06	89.513	409.534	268.700	114.409	100.962	181.300	224.783	101.238	106.705	178.396	258.205	105.531	110.059	110.910	116.343	266.017	113.864	-8191	255	
2138.371	1	1	0	0	0.29993	0.14037	0.13231	0.36991	0.17537	0.077364	0.25317	0.039151	0.13693	0.39687	0.31352	0.4099	0.093551	0.10499	0.18887	0.10183	-2.4333	-2.5563	-1.8333	-2.7292	-2.1521	-2.3375	-2.9104	-2.1125	-2.5771	-2.5938	-2.1292	-2.8021	-2.1437	-2.2271	-2.9333	-2.1479	230.728	139.404	115.869	411.061	410.884	375.355	383.938	350.704	236.048	255.745	394.235	106.785	317.804	126.735	357.508	412.037	0.0033484	0.0010883	4.9089e-05	890.85	4.7056e-06	5.3026e-06	1277.3	309.98	4.5377e-06	1.6153e-06	552.38	233.16	120.93	54.901	7.3057e-06	108.1	0.00023361	0.00019254	4.8268e-05	805.69	2.2777e-06	2.0437e-06	1138.8	274.81	2.3563e-06	2.1777e-06	476.95	202.51	100.57	48.412	2.155e-06	93.176	399.706	221.598	411.430	101.183	153.599	255.093	101.082	106.844	108.253	230.899	105.573	110.142	110.900	115.862	230.019	113.773	-8191	255	
2138.469	1	1	0	0	0.08379	0.076846	0.12729	0.0071563	0.032993	0.080615	0.38185	0.27558	0.061526	0.14677	0.41749	0.25415	0.12085	0.29168	0.18591	0.31787	-2.3854	-2.525	-1.9417	-2.8438	-2.0958	-2.05	-2.7833	-2.1771	-2.5021	-2.7938	-1.9292	-2.9333	-2.2396	-2.0729	-2.9437	-2.0479	316.550	372.862	333.273	122.200	163.603	165.678	418.633	355.914	112.664	379.832	397.410	95.554	365.597	156.860	143.842	96.290	0.0035671	0.00045583	0.00020055	863.52	2.7441e-06	5.8114e-06	1258.6	304.73	5.148e-06	4.181e-06	549.02	226.23	115.19	55.185	4.0731e-06	108.54	0.0002581	0.00021767	5.3591e-05	779.41	2.5378e-06	2.2571e-06	1118.6	271.76	2.4788e-06	2.2778e-06	478.39	197.44	96.801	48.748	2.2298e-06	93.817	402.929	187.804	130.925	101.270	283.292	247.494	101.554	107.105	198.990	262.886	105.845	110.019	111.287	116.179	247.424	113.942	-8191	255	
2138.563	1	1	0	0	0.057675	0.083841	0.11378	0.35137	0.11826	0.2491	0.15038	0.16318	0.10111	0.19915	0.1625	0.041711	0.08837	0.45162	0.11948	0.25199	-2.0833	-2.7542	-2.0021	-2.5917	-2.375	-1.9813	-2.9104	-2.1604	-2.4167	-2.7083	-1.8875	-2.8854	-2.5792	-1.9917	-2.8333	-2.2667	226.450	217.570	337.164	425.735	328.359	353.717	378.117	423.161	392.273	289.003	165.140	357.542	419.833	417.743	333.093	381.480	0.0034702	0.00023859	0.00018308	845.41	6.6092e-06	1.8556e-06	1251	303.65	7.7721e-06	1.3756e-06	558.04	229.3	116.21	55.839	2.6946e-06	109.57	0.00025407	0.00021149	5.4404e-05	767.46	2.4589e-06	2.155e-06	1113.5	272.24	2.3346e-06	2.1405e-06	482.03	198.96	96.127	49.004	2.1881e-06	94.451	402.948	129.878	104.828	101.101	186.176	314.120	100.875	106.592	222.574	182.747	105.645	109.860	110.882	116.040	225.104	113.879	-8191	255	
2138.659	1	1	0	0	0.1084	0.089687	0.16194	0.08527	0.2537	0.077808	0.18811	0.1715	0.31431	0.095974	0.23027	0.34203	0.15953	0.10969	0.31052	0.3064	-1.8563	-2.7062	-2.0062	-2.6437	-2.5333	-1.9833	-2.9833	-2.2646	-2.0771	-2.7667	-2.0333	-2.5833	-2.5687	-2.0958	-2.7604	-2.3604	446.636	114.638	334.960	124.817	431.672	100.892	111.606	284.580	444.624	396.134	192.449	395.054	295.884	357.136	201.406	376.584	0.0038315	0.00031506	0.00019062	846.97	7.4588e-06	2.557e-06	1254.8	306.45	7.1884e-06	3.5493e-06	556.01	230.33	119.1	56.514	6.6148e-06	110.36	0.00023283	0.00019244	5.7016e-05	770.37	2.3259e-06	2.0892e-06	1119.4	274.73	2.2717e-06	2.0578e-06	483.21	200.47	97.3	49.686	2.328e-06	95.377	401.996	161.120	160.358	101.123	186.022	183.107	101.182	106.752	135.673	240.064	105.761	109.940	111.304	115.999	216.199	113.706	-8191	255	
2138.755	1	1	0	0	0.20098	0.078528	0.019253	0.24557	0.12337	0.28069	0.39229	0.24638	0.19547	0.17579	0.40695	0.18372	0.029627	0.28714	0.070162	0.19511	-1.7833	-2.7958	-1.9833	-2.4354	-2.5604	-1.8646	-3.0521	-2.2896	-2.0687	-2.7354	-2.2354	-2.5583	-2.6646	-1.9062	-2.7729	-2.5125	123.482	315.426	388.470	433.159	149.297	286.019	384.054	120.696	340.222	438.564	386.086	90.060	144.772	112.252	390.631	365.480	0.0032908	0.0005551	0.00020199	863.49	2.7804e-06	6.2066e-06	1267.2	307.86	6.8091e-06	5.142e-06	549.52	229.67	117.73	55.77	6.5692e-06	108.23	0.0002165	0.00018145	5.7531e-05	782.62	2.0733e-06	1.8369e-06	1130.5	273.91	1.8692e-06	1.7388e-06	476.01	198.84	95.003	48.732	1.8385e-06	93.075	404.203	139.161	143.317	101.231	421.717	211.207	101.470	106.697	175.756	277.237	105.552	110.183	111.246	115.831	256.854	113.678	-8191	255	
2138.876	1	1	0	0	0.085006	0.21174	0.34248	0.24385	0.27426	0.24978	0.088793	0.13976	0.1199	0.24706	0.31741	0.39346	0.069719	0.33446	0.24905	0.20622	-1.4667	-2.8708	-1.9021	-2.5167	-2.6604	-1.8833	-2.7812	-2.4646	-2.0542	-2.7687	-2.175	-2.3937	-2.8771	-2.1979	-2.5	-2.8438	291.312	394.311	379.180	418.704	398.507	93.339	401.073	417.672	337.428	442.392	415.694	362.959	222.209	410.246	271.576	145.299	0.002912	0.00057756	0.00017127	898.5	5.5679e-06	3.5046e-06	1280.9	306.2	9.8811e-06	4.2834e-06	539.6	225.43	116.95	54.346	2.8845e-06	105.2	0.00016292	0.00013933	4.5822e-05	803.01	1.5378e-06	1.5109e-06	1142.4	270.8	1.4645e-06	1.5388e-06	466.03	194.66	94.024	47.432	1.7417e-06	90.428	403.944	173.623	228.115	100.941	221.059	222.795	101.300	106.586	247.868	313.291	105.427	110.292	110.749	115.741	191.603	113.886	-8191	255	
2138.972	1	1	0	0	0.12381	0.13089	0.18791	0.13669	0.29027	0.2411	0.11589	0.43407	0.11045	0.091063	0.34537	0.30236	0.033387	0.31592	0.38104	0.31792	-1.5167	-2.5646	-2.1479	-2.1312	-2.7333	-1.8875	-2.5708	-2.7479	-1.8813	-2.9417	-2.3042	-2.0333	-2.9042	-2.1646	-2.4542	-2.9083	148.722	305.728	199.420	439.729	360.461	361.648	426.999	399.241	234.989	174.885	315.972	384.054	216.266	363.940	448.688	342.042	0.0030193	0.0012183	9.4355e-05	901.38	9.0783e-06	4.4605e-06	1263.7	301.95	8.4891e-06	1.0122e-05	524.47	218.36	116.33	52.31	4.5163e-06	100.82	0.00015205	0.00014447	4.3318e-05	803.05	1.4296e-06	1.6126e-06	1123.3	267.38	1.4026e-06	1.6818e-06	452.66	188.49	93.142	45.765	1.6783e-06	86.385	404.595	138.359	374.582	100.730	188.604	263.324	101.422	106.864	173.829	213.219	105.751	110.238	111.409	116.265	175.312	114.220	-8191	255	
2139.068	1	1	0	0	0.21493	0.28149	0.088113	0.18426	0.19322	0.28095	0.024771	0.18106	0.035505	0.029965	0.16752	0.091457	0.37999	0.18607	0.2077	0.18584	-1.2896	-2.7375	-2.2438	-1.9458	-2.9375	-2.2208	-2.5042	-2.5917	-1.8875	-2.8229	-2.5938	-2.0104	-3.0896	-1.9833	-2.4	-2.7875	191.322	436.953	339.010	129.139	368.902	424.974	95.466	431.929	235.476	139.731	430.653	109.455	420.193	347.562	358.914	345.848	0.0032709	0.00077202	0.00019132	898.27	6.4462e-06	5.6305e-06	1277.7	301.87	6.2589e-06	6.5793e-06	528.18	228.07	120.3	51.609	3.2039e-06	100.74	0.00015115	0.00015781	4.2103e-05	802.25	1.4723e-06	1.7094e-06	1127.5	266.39	1.4979e-06	1.7909e-06	454.75	197.33	97.375	45.17	1.6624e-06	86.372	405.446	184.846	120.321	101.098	193.740	154.209	100.829	106.499	185.952	193.065	105.380	109.829	110.150	115.711	222.453	113.457	-8191	255	
2139.164	1	1	0	0	0.081023	0.057304	0.15886	0.037497	0.177	0.32832	0.4712	0.30342	0.20655	0.056381	0.21849	0.16557	0.21931	0.014848	0.12587	0.23852	-1.5146	-2.7083	-2.425	-2.0125	-2.7875	-2.0187	-2.3063	-2.7542	-2.1271	-2.5333	-2.5792	-1.9583	-2.7313	-2.1437	-2.1875	-2.8229	96.955	186.800	393.428	293.760	306.147	265.279	402.157	374.580	230.226	306.882	116.098	415.726	375.481	273.431	310.090	428.350	0.0031814	0.00064696	0.00021604	920.36	9.212e-06	2.0856e-06	1298.9	319.5	1.2636e-05	3.4343e-06	550.2	236.95	126.63	52.355	8.1123e-06	102.99	0.00016422	0.00016038	4.0851e-05	818.53	1.5981e-06	1.7855e-06	1148.7	282.53	1.6473e-06	1.8165e-06	475.69	204.85	102	46.026	1.6371e-06	88.569	406.024	138.625	124.802	100.612	235.532	280.429	100.584	106.069	204.278	436.236	105.180	109.797	110.849	115.773	206.166	113.604	-8191	255	
2139.261	1	1	0	0	0.2045	0.14242	0.14416	0.178	0.15143	0.20177	0.041541	0.096502	0.12345	0.10622	0.22787	0.37001	0.20762	0.15342	0.16594	0.055114	-1.5167	-2.6042	-2.6167	-2.0104	-2.8063	-2.1771	-2.2604	-2.8125	-1.8813	-2.4375	-2.8854	-1.9604	-2.7542	-2.3167	-1.9854	-2.9042	192.348	190.850	289.620	326.696	154.094	223.479	100.254	147.126	221.814	136.794	410.995	409.251	379.699	101.004	267.728	197.438	0.0031464	0.00012684	5.1595e-05	944.74	4.8535e-06	2.5237e-06	1325.5	330.28	1.45e-05	3.4186e-06	562.26	237.7	127.71	51.725	6.0722e-06	102.59	0.00018492	0.00016312	4.1348e-05	840.95	1.7875e-06	1.7661e-06	1171.1	290.72	1.7796e-06	1.6902e-06	481.51	205.17	102.75	45.571	1.6146e-06	87.769	402.236	209.339	110.398	100.682	155.212	170.414	100.587	105.864	216.677	230.980	105.175	109.393	110.283	115.705	272.084	113.966	-8191	255	
2139.355	1	1	0	0	0.35695	0.070408	0.18115	0.083544	0.13439	0.24482	0.2204	0.35184	0.17116	0.12243	0.22511	0.27339	0.10454	0.21291	0.09759	0.15971	-1.6375	-2.2583	-2.525	-2.1542	-2.7167	-2.6312	-2.0542	-2.9542	-1.9917	-2.3021	-2.7792	-2.0563	-2.5563	-2.5729	-1.9792	-2.975	304.612	312.332	311.279	399.663	200.740	186.634	98.641	386.634	217.022	447.627	365.780	113.901	113.631	429.685	403.721	434.473	0.0029372	0.00033146	0.00020924	972.32	9.054e-06	3.2193e-06	1379.7	336.26	7.9114e-06	5.6686e-06	557.47	236.46	125.57	50.65	5.3276e-06	98.736	0.00019668	0.00016255	4.2942e-05	868.86	1.9658e-06	1.796e-06	1219.8	296.7	2.0594e-06	1.8874e-06	480.27	203.46	102.78	44.55	1.8148e-06	85.342	405.491	149.352	167.833	100.670	212.740	263.620	100.307	105.946	171.791	211.381	105.309	109.640	110.246	115.784	261.557	114.151	-8191	255	
2139.451	1	1	0	0	0.16463	0.051637	0.15343	0.1837	0.16554	0.16733	0.27251	0.15339	0.29895	0.13949	0.23892	0.20091	0.17258	0.073816	0.10171	0.29045	-1.7521	-2.3	-2.7208	-2.0896	-2.6146	-2.5729	-2.2229	-2.8729	-2.2167	-2.1646	-2.95	-2.1396	-2.4854	-2.7562	-1.9625	-2.8708	271.614	439.086	393.662	417.449	229.014	119.192	388.544	378.262	442.246	277.626	352.556	143.282	350.704	151.193	90.675	380.550	0.0029737	0.0004861	0.00023693	1032.1	2.3143e-06	3.6745e-06	1459.7	343.54	3.7702e-06	5.1136e-06	564.52	235.17	126.72	50.728	8.1345e-06	99.187	0.00022863	0.00018598	4.8709e-05	926.79	2.3302e-06	2.1422e-06	1292.3	305.7	2.3284e-06	2.0263e-06	487.67	204.47	104.21	44.827	1.9647e-06	85.903	405.283	181.755	165.178	100.572	226.714	218.563	100.538	105.993	218.446	253.329	105.594	109.836	111.011	116.286	241.071	113.803	-8191	255	
2139.572	1	1	0	0	0.18915	0.31458	0.2519	0.23871	0.18247	0.21913	0.17977	0.15069	0.1807	0.24542	0.21287	0.10051	0.063951	0.27372	0.079533	0.30273	-1.8354	-2.1	-2.8	-2.2938	-2.4646	-2.7792	-1.7	-2.9562	-2.2333	-2.0438	-2.8708	-2.3042	-2.2812	-2.8917	-2.1021	-2.8229	329.657	258.302	371.685	400.974	233.748	311.291	266.119	380.444	187.417	390.221	417.270	268.620	129.165	444.007	101.178	374.812	0.0030843	0.0004699	0.00022785	1050.4	2.9794e-06	1.3898e-06	1471	351.04	7.689e-06	8.3223e-06	573.18	240.36	128.83	51.782	7.968e-06	100.19	0.00024036	0.00019629	5.1222e-05	946.61	2.2965e-06	2.085e-06	1308.2	311.63	2.2533e-06	1.9677e-06	494.38	208.5	105.03	45.436	1.8794e-06	86.521	410.202	215.387	112.521	100.278	269.371	270.554	100.779	105.879	175.550	227.598	105.482	109.627	110.369	116.036	224.975	114.394	-8191	255	
2139.668	1	1	0	0	0.16859	0.12776	0.15802	0.14194	0.10743	0.1733	0.079601	0.20092	0.16725	0.10582	0.2027	0.14721	0.39089	0.06233	0.22299	0.17206	-2.0146	-2.1604	-2.8083	-2.2938	-2.4521	-2.8583	-2.2771	-2.8375	-2.4625	-1.9875	-3.1646	-2.2562	-2.3833	-2.8563	-1.9896	-2.6354	446.903	317.945	153.801	443.972	404.601	97.359	332.923	416.178	398.802	99.114	411.844	151.398	382.826	394.602	197.987	425.703	0.0029487	0.00033499	0.00026449	1036.8	6.569e-06	4.2596e-06	1452.6	341.1	7.2226e-06	1.8248e-06	555.95	231.4	124.69	49.192	1.0062e-05	95.475	0.00021103	0.00017207	4.864e-05	932.22	1.9815e-06	1.7976e-06	1286.3	301.87	1.8828e-06	1.6792e-06	479.47	200.49	100.17	43.009	1.7304e-06	82.046	408.655	272.605	140.783	100.998	236.754	280.704	100.703	106.168	202.362	239.469	105.334	109.317	110.636	116.142	207.825	114.296	-8191	255	
2139.762	1	1	0	0	0.21502	0.04846	0.28964	0.25617	0.11931	0.17883	0.20577	0.29458	0.22632	0.21351	0.1231	0.29275	0.33329	0.1415	0.076121	0.35499	-2.4125	-1.9	-2.8583	-2.25	-2.0917	-2.9458	-1.9292	-2.5521	-2.5771	-2.0708	-2.8771	-2.3667	-2.1583	-2.9833	-2.1417	-2.6063	270.699	330.205	274.437	425.295	438.197	111.902	115.534	382.901	333.179	122.289	92.980	117.436	290.468	314.410	91.021	373.339	0.0026122	0.00053125	0.0003314	1026.3	5.0424e-06	8.0943e-06	1447.5	336.71	9.2657e-06	4.3178e-06	556.38	234.1	126.16	49.869	6.3881e-06	98.589	0.00017541	0.00013365	4.4225e-05	920.26	1.6072e-06	1.4902e-06	1276.2	297.02	1.613e-06	1.4657e-06	477.96	201.37	100.62	43.732	1.6318e-06	84.576	407.629	142.094	128.345	100.661	224.181	259.892	100.691	105.740	195.213	282.424	105.464	109.880	110.674	116.204	222.038	114.171	-8191	255	
2139.860	1	1	0	0	0.25481	0.1153	0.27814	0.067285	0.14697	0.19665	0.26077	0.2853	0.12273	0.016924	0.13493	0.32698	0.26785	0.38425	0.14224	0.37529	-2.2604	-2.0667	-2.6021	-2.5687	-1.8083	-2.8625	-2.2042	-2.3292	-2.8271	-1.9083	-2.7	-2.5208	-2.1667	-2.7979	-2.0729	-2.5604	254.783	126.344	352.919	204.226	324.870	199.597	412.251	396.656	377.677	444.491	412.296	94.542	333.552	402.428	207.211	353.712	0.0028103	0.00045419	8.0579e-05	1000.3	5.2966e-06	5.647e-06	1398.2	332.12	8.566e-06	6.2956e-06	549.78	234.02	123.89	49.477	3.5583e-06	97.875	0.00015199	0.00012236	4.0475e-05	892.77	1.316e-06	1.3352e-06	1235.4	292.52	1.3118e-06	1.2769e-06	471.93	201.13	98.641	43.187	1.4765e-06	83.672	403.518	147.800	143.734	100.937	223.223	206.791	100.325	106.055	198.722	246.486	105.607	109.743	110.816	116.161	192.680	114.329	-8191	255	
2139.955	1	1	0	0	0.13492	0.12502	0.11339	0.3494	0.091033	0.21551	0.13568	0.14394	0.12396	0.13521	0.081364	0.26558	0.187	0.22812	0.29167	0.19366	-2.5979	-2.0271	-2.5771	-2.6583	-1.8604	-2.9146	-2.2521	-2.3375	-2.9729	-2.1083	-2.7354	-2.7542	-1.85	-2.9271	-2.2479	-2.45	326.565	265.063	420.746	402.722	315.929	111.035	441.036	108.168	400.304	130.238	115.007	334.858	371.303	401.531	351.762	409.791	0.0030679	0.00071864	0.00026946	985.12	4.07e-06	5.4407e-06	1380.2	322.88	2.2723e-06	7.0848e-06	537.19	228.47	121.77	49.965	2.5216e-06	99.236	0.00013513	0.00011718	3.5988e-05	875.32	1.1467e-06	1.3009e-06	1212.1	284.16	1.1792e-06	1.2946e-06	461.86	196.81	96.831	43.479	1.3928e-06	84.831	405.035	160.974	170.170	100.918	222.047	191.750	100.871	106.325	265.644	258.174	105.743	110.140	111.167	116.397	210.202	114.214	-8191	255	
2140.051	1	1	0	0	0.19565	0.13872	0.055941	0.17845	0.10217	0.19316	0.28369	0.28604	0.20693	0.30482	0.30039	0.24227	0.032282	0.1102	0.28779	0.11003	-2.5	-1.9042	-2.4583	-2.7458	-2.0292	-2.8208	-2.4146	-2.0667	-2.8542	-2	-2.7438	-2.8333	-1.9	-2.9146	-2.2625	-2.075	156.884	205.197	213.775	390.677	116.993	408.905	378.634	281.101	371.809	357.369	433.431	425.869	131.016	183.946	261.684	235.625	0.0030409	0.00055854	6.7137e-05	984.26	7.8048e-06	8.8441e-06	1364.2	323.65	1.0254e-05	6.2316e-06	543.26	227.21	120.95	50.497	3.6528e-06	100.28	0.00013167	0.00012777	3.461e-05	872.61	1.1833e-06	1.3979e-06	1205.3	283.69	1.2256e-06	1.4455e-06	464.39	195.36	96.333	44.069	1.3913e-06	85.923	408.176	186.727	202.480	101.126	192.251	231.763	101.014	106.587	166.563	241.831	105.777	110.124	110.594	116.463	170.794	114.031	-8191	255	
2140.171	1	1	0	0	0.12867	0.13069	0.28523	0.17106	0.21867	0.12265	0.14137	0.4208	0.048705	0.27482	0.17248	0.26371	0.10134	0.26204	0.091776	0.19161	-2.4938	-2.0708	-2.35	-3.0563	-1.9167	-2.5271	-2.625	-1.9979	-2.7313	-2.0312	-2.2292	-2.8042	-2.1167	-2.6125	-2.5458	-2.0771	290.436	300.563	443.971	223.379	340.153	131.770	108.698	344.511	341.200	446.205	93.499	411.603	188.977	402.872	258.337	404.638	0.0031142	0.00034933	0.00013937	976.34	5.9064e-06	5.6217e-06	1368.1	322.77	9.3666e-06	4.1446e-06	548.47	228.32	121.01	52.126	7.1735e-06	103.5	0.00014118	0.00014092	3.5878e-05	871.54	1.3596e-06	1.555e-06	1207	284.38	1.4594e-06	1.6086e-06	470	195.8	97.122	45.602	1.4844e-06	88.153	407.991	225.894	188.338	100.761	200.931	217.261	101.070	106.547	185.767	145.942	106.005	109.925	111.281	116.156	222.250	113.856	-8191	255	
2140.268	1	1	0	0	0.26386	0.07592	0.078693	0.51779	0.13985	0.24875	0.46201	0.28772	0.27704	0.28566	0.20783	0.21454	0.11716	0.3493	0.21155	0.27757	-2.4396	-2.0479	-2.0708	-2.7958	-1.8896	-2.4333	-2.9604	-1.9271	-2.7458	-2.2687	-2.0583	-2.9625	-1.9271	-2.7042	-2.4938	-2.0979	393.577	323.298	397.627	384.690	258.024	394.813	369.607	428.959	339.746	369.196	377.382	368.811	177.056	399.295	419.457	373.629	0.0032343	0.00049194	0.00019084	977.12	8.5745e-06	1.2431e-06	1366.6	323.07	5.7817e-06	3.6767e-06	546.16	226.31	121.04	52.997	7.7785e-06	103.72	0.00016277	0.00014767	3.6441e-05	872.93	1.5433e-06	1.5823e-06	1211.2	284.63	1.6283e-06	1.638e-06	470.34	195.12	97.686	46.07	1.4797e-06	88.804	405.522	169.659	127.959	100.980	201.355	364.355	100.800	106.416	153.515	238.324	105.651	109.991	111.162	116.313	228.017	113.684	-8191	255	
2140.364	1	1	0	0	0.089585	0.17558	0.24371	0.26419	0.17832	0.056347	0.18896	0.10847	0.30001	0.16698	0.25926	0.12186	0.096707	0.0040101	0.049298	0.15607	-2.3042	-2.2833	-1.9708	-2.8917	-1.85	-2.5792	-2.7833	-2.3104	-2.6667	-2.45	-2.1125	-3.1146	-2.1604	-2.1479	-2.7354	-2.0062	223.221	406.807	246.979	380.692	343.039	220.583	374.826	372.984	395.775	343.758	275.286	350.257	238.613	219.896	280.725	400.943	0.0032859	0.00048833	8.7466e-05	981.99	4.6633e-06	5.7222e-06	1367.1	318.8	6.7293e-06	5.1049e-06	532.47	225.19	120.28	50.435	5.1532e-06	99.252	0.00017722	0.00014704	3.5624e-05	875.45	1.6763e-06	1.5194e-06	1207.3	280.55	1.6086e-06	1.4654e-06	457.11	194.58	97.545	43.997	1.4181e-06	85.158	400.302	173.811	179.057	100.653	229.385	248.151	100.987	106.371	212.312	185.349	105.480	110.229	111.643	116.436	250.889	114.173	-8191	255	
2140.435	1	1	0	0	0.10653	0.094353	0.20877	0.21722	0.082757	0.12392	0.17156	0.20234	0.040597	0.12253	0.01421	0.13553	0.24123	0.18734	0.12693	0.25738	-2.4271	-2.4562	-1.9604	-2.9104	-2.0583	-2.3833	-2.825	-1.9438	-2.6625	-2.6063	-2.075	-2.9188	-2.3667	-2.2313	-2.8542	-2.3104	298.625	292.794	315.094	274.597	282.283	404.932	305.555	384.684	206.670	291.276	367.540	383.985	144.894	431.137	317.473	417.266	0.0031008	0.00050269	0.00016132	982.35	5.9203e-06	4.3632e-06	1371.4	329.08	9.7157e-06	6.7598e-07	546	234.48	125.99	51.589	6.8379e-06	100.33	0.00017757	0.00014511	3.6174e-05	877.44	1.8203e-06	1.6381e-06	1214.7	288.55	1.8637e-06	1.7059e-06	470.63	202.28	102.59	45.1	1.6922e-06	86.746	403.502	276.956	164.189	101.104	209.955	201.346	101.008	106.411	194.264	414.162	105.347	109.550	110.589	116.191	241.532	113.791	-8191	255	
2140.556	1	1	0	0	0.34211	0.1468	0.28002	0.23666	0.22723	0.18948	0.48566	0.36534	0.076494	0.11994	0.4784	0.53585	0.33236	0.36556	0.20059	0.30791	-2.1229	-2.8937	-1.8604	-3.0167	-2.0979	-2.175	-2.9125	-1.9688	-2.4646	-2.8104	-2.0167	-2.8167	-2.5187	-2.0792	-2.8167	-2.1562	313.966	358.659	359.445	411.402	217.906	339.484	97.695	363.792	223.710	231.860	421.377	414.959	158.204	359.315	415.037	394.462	0.0030023	0.000328	0.00014498	1030.8	4.8823e-06	1.8339e-06	1455.5	342.08	1.9015e-06	1.8803e-06	562.09	238.08	128.92	52.018	1.0818e-05	101.11	0.0002077	0.00016933	4.3542e-05	923.97	2.1881e-06	1.9586e-06	1289.2	305.75	2.3141e-06	2.1537e-06	486.86	206.87	105.64	45.824	2.0891e-06	87.476	403.688	240.801	252.138	100.790	226.951	148.120	100.844	105.904	235.005	409.615	105.381	109.928	110.740	115.984	199.507	113.899	-8191	255	
2140.652	1	1	0	0	0.069415	0.11804	0.20767	0.28625	0.24302	0.10933	0.32216	0.25732	0.099273	0.095259	0.15552	0.23286	0.046199	0.31689	0.23304	0.085077	-1.9104	-2.5521	-1.8792	-2.7687	-2.4167	-1.9125	-2.8875	-2.0729	-2.1458	-2.7625	-2.0042	-2.6417	-2.4896	-2.0333	-2.7979	-2.2333	220.241	320.412	168.817	395.504	141.637	397.231	341.805	347.442	272.397	171.875	442.369	89.035	376.201	396.740	108.229	342.113	0.0027985	0.00025226	0.00028411	1067.5	2.6126e-06	2.5728e-06	1495.3	347.25	5.5563e-06	3.922e-06	567.72	239.54	129.64	52.122	8.6536e-06	99.919	0.0002283	0.00019412	5.2472e-05	959.58	2.3544e-06	2.096e-06	1328.1	310.64	2.4196e-06	2.2471e-06	490.8	208.33	106.87	46.023	2.5157e-06	86.92	405.424	201.408	439.274	100.993	290.426	154.630	100.525	106.045	139.360	187.748	105.570	109.462	110.227	116.049	187.056	113.829	-8191	255	
2140.748	1	1	0	0	0.063035	0.13923	0.11411	0.20432	0.21206	0.04055	0.058877	0.12632	0.25462	0.22763	0.108	0.29256	0.26979	0.36547	0.18439	0.15062	-1.7208	-2.6604	-1.8333	-2.5125	-2.4354	-2.3688	-2.9271	-2.3063	-2.0042	-2.8583	-2	-2.6958	-2.6125	-1.7896	-2.6021	-2.4229	246.517	401.988	256.521	126.610	111.865	169.685	320.043	93.478	266.541	229.901	241.903	309.563	90.703	437.573	399.138	121.999	0.003061	0.00068486	0.00019169	1072.5	2.9392e-06	2.6231e-06	1494.7	346.39	1.0061e-05	1.0285e-05	562.13	239.68	131.57	52.418	2.5863e-06	101.24	0.00023905	0.00019943	5.989e-05	964.05	2.307e-06	1.9867e-06	1327.1	308.57	2.1722e-06	1.9655e-06	487.9	208.01	106.66	46.068	2.3184e-06	87.323	402.269	164.183	158.133	100.546	221.601	191.847	100.832	105.860	218.190	248.678	105.408	109.645	110.756	116.240	195.130	113.965	-8191	255	
2140.843	1	1	0	0	0.081707	0.26778	0.2042	0.33943	0.14062	0.21161	0.23046	0.093148	0.10396	0.060544	0.14745	0.25501	0.098372	0.1715	0.086843	0.18955	-1.4583	-2.8042	-1.9396	-2.6042	-2.5729	-1.9229	-2.9208	-2.2958	-1.9646	-2.8521	-2.1521	-2.4688	-2.6625	-2.0667	-2.6937	-2.7146	107.753	406.122	435.938	391.086	132.438	122.908	436.302	328.281	373.130	258.386	405.453	438.739	129.218	156.189	177.264	377.669	0.0027951	0.00048433	0.00036542	1048.6	4.7351e-06	6.1589e-06	1441.9	341.09	5.3376e-06	9.921e-06	557.72	242.92	131.55	54.82	7.7733e-06	106.33	0.00021088	0.00017906	5.7964e-05	941.21	2.0932e-06	1.9459e-06	1280	302.97	2.0266e-06	1.999e-06	484.34	210.61	106.48	47.983	2.2651e-06	91.735	404.861	88.252	157.824	100.886	202.024	230.476	100.820	105.951	161.405	183.239	105.299	109.768	110.652	116.121	227.522	113.770	-8191	255	
2140.941	1	1	0	0	0.19004	0.022739	0.18314	0.16684	0.33182	0.067395	0.095269	0.07822	0.057274	0.16883	0.10674	0.33038	0.13527	0.3325	0.16654	0.45227	-1.3	-2.9979	-2.0875	-2.4313	-2.7396	-1.9125	-2.6958	-2.575	-1.7583	-2.8979	-2.2917	-2.3187	-2.7917	-2.1937	-2.3396	-2.9083	405.297	268.799	224.356	372.647	92.215	161.998	331.208	93.227	247.937	275.683	127.364	426.465	165.823	413.565	371.841	393.063	0.0030354	0.0011008	0.00018035	971.29	7.8327e-06	7.8793e-06	1359.6	325.12	1.1217e-05	4.1867e-06	558.55	234.23	124.03	57.681	5.7067e-06	112.04	0.00019634	0.00017854	5.7619e-05	874.38	1.9259e-06	2.0227e-06	1209.5	289.79	1.9379e-06	2.1826e-06	485.34	203.63	102.11	50.771	2.542e-06	96.8	401.974	177.836	186.078	101.013	214.580	210.743	101.170	106.328	209.612	264.363	105.607	110.057	110.971	115.770	159.952	113.650	-8191	255	
2141.059	1	1	0	0	0.21641	0.15762	0.39036	0.214	0.22624	0.1491	0.26978	0.12915	0.13493	0.045881	0.26765	0.17938	0.16907	0.07988	0.2116	0.17234	-1.4292	-2.8125	-2.0479	-2.2021	-2.8792	-1.9958	-2.3896	-2.8125	-2.0521	-2.7875	-2.2917	-2.2938	-2.7687	-2.1646	-2.2792	-2.8667	397.936	283.116	128.013	333.634	169.402	206.343	164.334	91.212	293.076	337.268	146.982	155.265	325.028	129.738	219.359	440.001	0.0031303	0.00018221	0.00012712	877.25	8.11e-06	7.2787e-06	1260.8	304.98	5.7256e-06	9.8958e-06	546.14	234.79	120.3	60.954	4.8751e-06	119.78	0.00022524	0.00023635	6.913e-05	794.55	2.39e-06	2.7892e-06	1131.7	273.97	2.5158e-06	2.9846e-06	478.59	205.06	100.55	54.132	3.119e-06	104	410.781	188.509	92.226	101.447	209.907	181.305	101.338	107.232	218.023	148.146	105.388	109.772	110.725	115.678	281.728	113.378	-8191	255	
2141.131	1	1	0	0	0.033797	0.2648	0.12214	0.25995	0.24881	0.28786	0.18244	0.12908	0.15796	0.11565	0.19345	0.036958	0.11361	0.31698	0.2382	0.13248	-1.5396	-2.7438	-2.3146	-2.0438	-2.775	-2.15	-2.1729	-2.8063	-1.8604	-2.65	-2.3063	-2.1437	-2.8646	-2.1771	-2.2062	-2.9375	282.520	381.612	213.375	148.951	234.516	245.348	323.695	387.002	246.602	127.978	201.676	137.183	238.769	107.594	182.789	421.204	0.0035095	0.00058329	0.00027121	814.13	8.049e-06	3.3894e-06	1207.1	274.4	5.2502e-06	6.5198e-06	495.46	223.64	113.88	59.759	3.1959e-06	118.63	0.00028217	0.00030492	8.4058e-05	744.01	3.1054e-06	3.5911e-06	1088	248.27	3.167e-06	3.5308e-06	439.93	196.79	96.559	53.276	3.0475e-06	102.87	402.907	173.892	181.868	101.288	177.022	233.111	101.132	107.194	147.307	312.203	106.010	110.102	111.777	115.962	217.164	113.336	-8191	255	
2141.252	1	1	0	0	0.12905	0.14913	0.14104	0.1536	0.20268	0.17484	0.18805	0.22365	0.12676	0.15598	0.11122	0.22454	0.041493	0.17122	0.18583	0.23987	-1.6146	-2.4625	-2.4271	-2.0021	-2.6917	-2.2375	-2.3063	-2.7417	-1.8937	-2.5771	-2.6979	-2.1167	-2.9	-2.3417	-2.1813	-2.9021	266.008	391.180	423.556	165.954	165.027	301.878	328.650	91.188	296.298	303.050	119.809	440.838	228.930	211.137	142.270	389.499	0.0040143	0.0011599	0.00013251	829.64	9.7705e-06	6.4026e-06	1213.6	260.08	9.5521e-06	2.8259e-06	462.02	214.31	109.31	58.108	6.0108e-06	116.42	0.00029173	0.00029015	7.3604e-05	750.15	2.8257e-06	2.9901e-06	1085.9	234.29	2.7158e-06	2.7541e-06	406.75	186.45	92.096	51.601	2.4566e-06	100.21	401.811	158.349	437.952	101.137	234.239	218.085	100.957	107.278	217.853	144.870	106.035	110.169	111.611	115.852	208.365	113.183	-8191	255	
2141.348	1	1	0	0	0.22811	0.33962	0.14628	0.18153	0.089967	0.2842	0.16388	0.28023	0.1963	0.21918	0.19897	0.30104	0.04561	0.47059	0.078107	0.13867	-1.6479	-2.3896	-2.6	-2.0375	-2.5208	-2.225	-2.1979	-2.9188	-1.9833	-2.3729	-2.8	-1.9438	-2.8521	-2.275	-2.0875	-2.85	144.916	217.402	162.307	442.153	335.858	391.857	347.162	441.030	230.112	314.489	404.487	414.771	233.690	390.305	217.242	433.229	0.0034909	0.00042547	0.00021425	829.04	5.4302e-06	7.0994e-06	1194.4	257.27	1.0805e-05	5.3061e-06	458.32	211.34	108.13	57.476	2.339e-06	113.94	0.00026975	0.00023724	6.1059e-05	748.24	2.6373e-06	2.5564e-06	1065.4	230.84	2.7037e-06	2.5788e-06	400.65	183.93	91.387	50.966	2.4784e-06	98.678	405.701	427.374	118.674	101.112	185.123	188.733	101.357	107.695	171.498	300.080	106.187	110.550	111.576	115.376	139.587	112.897	-8191	255	
2141.444	1	1	0	0	0.15652	0.075401	0.18785	0.35369	0.22976	0.069243	0.17042	0.18089	0.20384	0.17929	0.21169	0.1728	0.13533	0.098412	0.062507	0.1798	-1.7542	-2.1979	-2.7562	-1.9354	-2.5375	-2.4396	-2.0333	-2.7375	-2.1625	-2.1688	-2.7854	-2.0917	-2.4896	-2.6354	-1.7979	-2.6792	203.854	138.291	349.194	418.888	288.513	388.816	387.691	395.801	445.531	208.770	158.893	389.004	184.345	96.935	256.063	343.018	0.0029831	0.00071523	0.00021247	817.19	7.1061e-06	8.6301e-06	1179.3	252.42	3.5262e-06	1.1285e-05	452.24	209.47	106.61	58.363	6.3108e-06	116.06	0.00028852	0.00024645	6.5023e-05	743.21	2.9522e-06	2.7501e-06	1052.9	227.69	2.9771e-06	2.6731e-06	397.47	183.26	91.333	51.517	2.4874e-06	100.75	400.025	195.271	142.927	100.880	198.271	180.549	101.016	107.091	174.893	239.423	105.584	109.720	111.592	115.668	250.544	113.159	-8191	255	
2141.540	1	1	0	0	0.066808	0.17039	0.17209	0.24697	0.092345	0.20059	0.090579	0.11379	0.036228	0.16325	0.11404	0.25778	0.17686	0.15668	0.18833	0.3181	-1.7167	-2.1542	-2.625	-2.0687	-2.2625	-2.5625	-2.0792	-2.9167	-2.2583	-1.9917	-2.9833	-2.2042	-2.3875	-2.6625	-1.9125	-2.8292	229.442	298.076	155.769	336.965	128.080	397.598	389.142	420.700	143.370	350.752	443.726	387.934	165.560	428.048	214.997	398.962	0.0035428	0.00014867	0.00019009	802.14	7.0355e-06	3.3494e-06	1156.2	258.21	1.9506e-06	6.1211e-06	470.98	219.92	111.61	60.09	4.3449e-06	119.92	0.00030432	0.00025691	6.6461e-05	731.62	2.986e-06	2.7647e-06	1034	234.48	2.9325e-06	2.6237e-06	413.11	191.91	94.564	53.198	2.489e-06	103.61	397.983	249.923	107.783	100.894	220.482	255.351	100.808	107.514	221.982	223.387	106.169	110.025	111.306	115.707	184.622	113.043	-8191	255	
2141.661	1	1	0	0	0.28656	0.07034	0.28225	0.11518	0.19108	0.09451	0.16288	0.38573	0.19176	0.15786	0.17395	0.16349	0.25787	0.13909	0.23178	0.37014	-1.9375	-1.7563	-2.7938	-2.0062	-2.3604	-2.7083	-2.0146	-2.7125	-2.3708	-2.0312	-2.7687	-2.0438	-2.1917	-3.0042	-1.9146	-2.6875	103.736	193.059	367.179	381.238	232.584	106.222	308.362	394.948	165.546	136.229	431.845	351.366	114.418	383.774	385.460	401.432	0.0034013	0.00058018	8.2736e-05	791.35	3.7199e-06	2.4315e-06	1157	267.39	6.7625e-06	5.4863e-06	486.84	223.5	115.49	61.014	4.3932e-06	120.59	0.00029596	0.00024271	6.5746e-05	726.14	2.8943e-06	2.7305e-06	1037.2	241.52	2.9197e-06	2.5722e-06	425.62	195.46	96.286	54.081	2.7133e-06	104.75	407.355	103.277	410.079	101.026	249.102	186.770	101.397	106.845	282.810	114.072	106.167	110.038	111.887	115.661	247.677	113.017	-8191	255	
2141.732	1	1	0	0	0.24035	0.15715	0.17341	0.095037	0.27706	0.20504	0.15904	0.35578	0.055393	0.092346	0.13038	0.32462	0.14485	0.21087	0.079393	0.32814	-2.0042	-1.9042	-2.7875	-2.0896	-2.2313	-2.9167	-1.9562	-2.4708	-2.525	-1.8146	-2.9062	-2.2146	-2.0708	-2.9771	-1.8667	-2.5938	433.008	394.878	302.704	411.761	157.921	93.122	443.688	118.524	330.725	220.443	360.861	421.663	255.695	425.419	135.950	392.731	0.0034244	0.00042327	0.00026531	799.76	3.7505e-06	2.1172e-06	1174	273.99	1.2265e-05	8.1572e-06	497.9	226.42	113.61	62.277	9.075e-06	122.02	0.00029221	0.00023811	7.2715e-05	732.2	2.9552e-06	2.7589e-06	1051.1	248.15	3.0813e-06	2.755e-06	437.22	198.9	97.864	55.211	3.3105e-06	106.16	408.406	282.582	165.074	100.913	264.981	422.937	101.021	107.144	189.637	246.791	105.900	110.004	111.385	115.527	180.994	113.237	-8191	255	
2141.851	1	1	0	0	0.11772	0.14416	0.062156	0.15801	0.13086	0.15407	0.14678	0.25383	0.11101	0.10407	0.10309	0.41259	0.2223	0.22709	0.12152	0.39816	-1.8625	-2.0042	-2.7417	-2.3458	-2.2771	-2.8083	-2.1625	-2.4188	-2.5938	-1.9438	-2.7333	-2.4604	-1.8729	-2.8875	-2.0458	-2.5563	425.507	110.410	182.109	372.200	363.941	210.609	364.516	355.407	116.624	301.574	130.305	343.968	366.906	429.309	296.474	338.743	0.0034502	0.0011265	2.5285e-05	811.96	5.3021e-06	9.3954e-06	1187.6	278.94	1.444e-05	6.2274e-06	506.02	230.11	116.51	65.029	1.7177e-06	128.75	0.00032127	0.0002662	8.7046e-05	746.05	3.3133e-06	3.2018e-06	1076.1	254.9	3.6247e-06	3.4078e-06	451.3	204.02	101.14	57.933	4.3191e-06	112.37	403.937	170.767	440.031	101.263	178.257	250.944	100.762	107.005	230.729	219.245	105.532	109.697	110.992	115.696	300.937	112.984	-8191	255	
2141.948	1	1	0	0	0.29737	0.17689	0.25021	0.10101	0.27753	0.20046	0.059079	0.42235	0.22417	0.046353	0.098905	0.085231	0.245	0.20295	0.11067	0.34873	-2.3146	-1.7833	-2.6583	-2.3479	-1.9354	-2.85	-2.2229	-2.2271	-2.7812	-2.0396	-2.7479	-2.6625	-2.1312	-3.0312	-2.2271	-2.5896	222.807	401.929	234.931	98.216	128.099	292.543	266.853	448.243	246.654	139.798	233.969	316.213	404.017	351.741	258.363	352.111	0.0035173	0.0011737	0.00024957	797.78	1.5167e-05	4.4474e-06	1191.5	285.2	1.165e-05	6.822e-06	519.55	236.24	120.77	67.216	3.4435e-06	130.26	0.00038238	0.00034674	0.00010981	744.61	3.8031e-06	3.917e-06	1088.6	262.41	3.8423e-06	3.8591e-06	464.41	208.41	103.88	59.749	3.9783e-06	113.62	405.665	161.823	146.067	100.762	186.387	212.210	101.203	107.067	292.853	246.686	106.026	109.801	111.282	115.289	260.373	113.130	-8191	255	
2142.044	1	1	0	0	0.2532	0.21478	0.17333	0.21242	0.14265	0.23082	0.23698	0.26227	0.13336	0.2408	0.15269	0.090069	0.058845	0.10014	0.18925	0.19569	-2.3563	-1.9708	-2.4854	-2.7479	-1.9354	-2.9771	-2.0604	-2.2229	-2.7625	-1.7958	-2.7812	-2.5438	-1.9104	-2.8271	-2.2896	-2.2146	292.217	280.245	312.186	381.166	135.380	215.173	348.214	428.608	409.519	299.065	434.837	368.538	405.033	101.917	99.976	433.019	0.0038329	0.00075744	0.00013001	828.51	4.928e-06	6.1907e-06	1223.8	300.06	1.3766e-05	5.5141e-06	525.19	237.59	125.28	61.746	1.5338e-06	119.04	0.00033551	0.00032613	9.4508e-05	761.51	2.9466e-06	3.2177e-06	1104.1	270.9	2.5253e-06	2.7983e-06	459.68	207.64	103.22	54.499	2.7373e-06	102.31	400.017	169.308	434.802	101.231	291.316	278.043	100.901	106.982	228.743	216.459	105.951	109.841	110.587	115.289	380.266	113.100	-8191	255	
2142.140	1	1	0	0	0.1526	0.042001	0.15786	0.34887	0.18701	0.060159	0.10051	0.35767	0.12244	0.094112	0.072503	0.12873	0.024913	0.13785	0.25564	0.25022	-2.4062	-1.8854	-2.5375	-2.7208	-1.9542	-2.8	-2.3667	-2.0833	-2.7396	-2.075	-2.4979	-3.0021	-2.0167	-2.8292	-2.2938	-2.2062	445.670	313.775	156.897	374.027	442.029	270.312	367.301	427.440	268.026	225.721	326.776	153.324	200.958	354.362	343.293	432.603	0.0034827	0.00095437	0.00022661	851.79	9.9709e-06	5.072e-06	1227.7	299.29	5.6571e-06	7.3175e-06	528.34	236.4	123.27	62.481	6.3474e-06	120.36	0.00025123	0.00026443	7.3508e-05	776.22	2.6923e-06	3.2028e-06	1104.2	270.8	3.0043e-06	3.5071e-06	463.89	207.08	104.02	55.73	3.4057e-06	104.09	402.870	152.636	161.309	101.106	215.968	187.572	101.064	107.032	148.010	193.810	105.848	110.093	111.352	115.749	220.004	113.396	-8191	255	
2142.236	1	1	0	0	0.27641	0.083198	0.22484	0.060678	0.1322	0.092084	0.14873	0.19657	0.14457	0.19705	0.13665	0.33337	0.21669	0.22317	0.13632	0.27051	-2.3688	-2.2687	-2.1042	-2.95	-1.9625	-2.5771	-2.5958	-2.0667	-2.5938	-2.375	-2.3063	-3.0771	-1.9292	-2.5646	-2.25	-2.1437	433.690	90.728	325.461	440.480	141.327	281.874	383.748	378.849	336.710	347.252	349.388	339.436	124.839	128.949	145.817	421.783	0.0034747	0.00070511	0.00014429	846.09	1.13e-05	4.0697e-06	1232.5	299.51	1.3478e-05	6.1072e-06	524.18	234.71	120.82	60.866	4.4055e-06	116.26	0.00031711	0.000327	8.2789e-05	776.07	3.236e-06	3.5345e-06	1108	269.75	3.2472e-06	3.4495e-06	461.85	205.19	103.54	54.027	3.0577e-06	100.71	407.616	134.361	133.471	101.564	195.165	206.595	100.907	107.005	207.444	219.649	105.900	110.500	111.559	115.951	241.743	113.738	-8191	255	
2142.357	1	1	0	0	0.2242	0.15134	0.19747	0.1145	0.1447	0.041874	0.16713	0.076279	0.13472	0.094222	0.1561	0.18929	0.20467	0.086647	0.23343	0.14156	-2.4396	-2.1979	-2.0354	-2.9021	-2.0583	-2.5646	-2.8125	-2.0542	-2.7062	-2.3417	-2.1562	-2.8896	-2.0479	-2.4646	-2.6271	-2.1562	393.171	277.992	160.308	152.298	374.534	135.185	380.919	364.338	155.825	343.371	446.138	440.488	433.739	129.816	89.395	326.560	0.0033851	0.00043054	0.00020009	876.48	9.7125e-06	1.5494e-06	1257.8	303.34	1.7086e-05	8.6321e-06	527.3	234.79	123.95	58.518	1.7543e-06	112.83	0.0003133	0.00029563	7.3664e-05	797.17	3.1644e-06	3.0878e-06	1131.7	273.14	3.1137e-06	3.0651e-06	462.41	204.35	104.3	52.118	2.8145e-06	97.858	410.118	185.663	233.458	101.022	188.010	91.283	100.872	106.876	188.308	189.470	105.979	109.972	111.233	115.876	170.152	113.451	-8191	255	
2142.428	1	1	0	0	0.14117	0.073533	0.08391	0.12643	0.21649	0.15155	0.23256	0.1292	0.15693	0.12053	0.28648	0.072895	0.22945	0.21879	0.14527	0.063252	-2.3729	-2.1917	-1.9667	-2.875	-1.8896	-2.3583	-3.0125	-1.8833	-2.5938	-2.4792	-2.0062	-3.0708	-2.1292	-2.3688	-2.8292	-1.8396	118.468	201.918	325.824	432.433	420.991	255.196	427.463	332.900	123.680	405.756	178.839	246.348	413.323	384.135	217.909	435.403	0.0033823	0.00016101	0.00013684	893.89	7.5153e-07	4.2008e-06	1265.5	305.29	1.3786e-05	2.6112e-06	522.17	234.36	123.09	57.379	7.3112e-06	109.46	0.00030714	0.00027206	6.8459e-05	812.98	3.1299e-06	2.8743e-06	1133.1	273.47	3.0171e-06	2.8541e-06	456.19	204.35	104.12	50.88	2.5893e-06	95.176	402.659	166.538	195.654	101.168	166.411	133.747	101.114	107.086	156.335	203.257	105.707	110.051	111.147	116.065	213.810	113.569	-8191	255	
2142.524	1	1	0	0	0.088594	0.24571	0.059312	0.056518	0.044715	0.055663	0.20954	0.13628	0.064385	0.14324	0.21327	0.17997	0.31344	0.04698	0.093357	0.14528	-2.1937	-2.625	-1.8375	-2.9625	-2.0458	-2.0667	-3.0625	-1.9396	-2.6813	-2.4583	-2.1021	-2.7729	-2.1542	-2.2729	-2.6542	-2.1	276.997	155.811	316.045	163.634	180.601	308.090	395.264	309.993	102.186	444.650	334.635	383.889	378.041	369.462	171.644	139.185	0.0033213	0.00044333	0.00018632	906.64	5.7522e-06	6.1455e-06	1281.1	306.3	4.8867e-06	1.0188e-05	522.86	239.39	127.12	57.174	2.1844e-06	109.77	0.00029378	0.00025619	6.2692e-05	823.35	3.0266e-06	2.6938e-06	1144.2	275.96	2.8575e-06	2.7181e-06	455.75	208.87	106.11	50.307	2.4175e-06	94.816	407.415	174.450	193.182	101.329	217.195	205.222	101.036	106.751	274.020	302.561	105.638	110.060	110.767	116.078	247.983	113.538	-8191	255	
2142.621	1	1	0	0	0.1739	0.14159	0.11769	0.29396	0.07303	0.18387	0.31861	0.45084	0.18038	0.30906	0.21034	0.38232	0.098709	0.103	0.2399	0.13099	-2.1125	-2.575	-2.0479	-2.6167	-2.2542	-1.9521	-2.9458	-2.1437	-2.2687	-2.6667	-2.0729	-2.8021	-2.4396	-2.0896	-2.6979	-2.2333	365.254	395.508	306.303	427.447	215.925	162.119	102.319	402.923	247.962	115.226	396.043	390.278	204.430	119.523	311.682	406.638	0.0035142	0.00041257	0.00022311	921.67	1.1528e-06	4.6153e-06	1294.7	307.32	9.9859e-06	8.3951e-06	525.66	241.88	128.37	57.463	6.3189e-06	111.12	0.0002718	0.0002358	5.9092e-05	835.96	2.7147e-06	2.4422e-06	1155.6	275.26	2.6147e-06	2.4865e-06	456.64	211	106.64	50.818	2.4461e-06	96.179	403.379	224.773	120.802	101.142	240.152	191.456	100.714	106.539	184.666	251.315	105.601	110.103	110.682	116.071	203.617	114.031	-8191	255	
2142.739	1	1	0	0	0.12036	0.12949	0.23027	0.081234	0.28031	0.1898	0.25717	0.2048	0.12659	0.050192	0.077375	0.24399	0.098957	0.087993	0.30902	0.14687	-2.05	-2.7646	-1.8542	-2.6208	-2.1813	-2.0146	-2.8333	-2.2667	-2.3229	-2.7708	-1.9208	-2.6042	-2.5646	-2.0875	-2.9833	-2.3021	269.869	189.781	350.631	433.041	378.795	345.696	377.481	355.792	313.590	253.646	96.336	390.296	122.899	208.469	265.471	406.999	0.003518	0.00043109	0.00031688	929.03	1.9069e-06	7.9312e-06	1304.3	308.58	6.8532e-06	7.406e-06	529.21	248.79	135.1	57.961	1.0784e-05	111.58	0.00026418	0.00022291	6.4262e-05	842.4	2.6565e-06	2.3843e-06	1163.7	277.29	2.661e-06	2.4777e-06	461.66	217.62	111.39	51.354	2.8019e-06	97.054	406.049	284.702	140.065	101.406	157.590	273.804	100.998	106.499	169.016	272.082	105.612	109.864	110.621	115.777	196.148	113.592	-8191	255	
2142.836	1	1	0	0	0.086475	0.097819	0.16375	0.30697	0.13892	0.16993	0.049935	0.12132	0.16399	0.070866	0.15526	0.09402	0.016272	0.11501	0.14783	0.14045	-1.7146	-2.8729	-2.0875	-2.45	-2.5146	-1.9625	-2.9604	-2.1708	-2.1083	-2.8521	-2.0563	-2.6854	-2.75	-1.875	-2.7521	-2.4104	95.101	138.090	371.687	369.167	366.173	441.657	118.184	104.289	363.856	206.801	199.276	90.349	191.605	352.608	266.587	427.445	0.0028474	0.00054181	0.00016513	941.45	6.7997e-06	4.2504e-06	1309.8	322.57	1.6869e-06	1.2733e-06	552.67	259.64	140.26	59.561	2.3004e-06	114.83	0.00027891	0.00023864	7.4766e-05	856.23	2.917e-06	2.6142e-06	1177.6	291.53	2.9007e-06	2.7181e-06	484.73	226.54	116.51	52.774	3.2045e-06	99.383	399.607	169.937	150.188	100.935	238.193	308.450	100.900	106.318	227.755	266.309	105.357	109.676	110.290	115.959	265.357	113.581	-8191	255	
2142.933	1	1	0	0	0.222	0.20195	0.18896	0.19651	0.28984	0.013784	0.056141	0.22625	0.22218	0.088806	0.066079	0.18169	0.10509	0.27098	0.12953	0.074603	-1.6812	-2.9458	-2.1188	-2.5729	-2.9167	-1.7521	-2.8604	-2.5229	-2.0812	-2.8063	-2.2438	-2.4521	-2.675	-2.1354	-2.8208	-2.5542	194.551	193.553	239.923	352.622	148.641	438.913	420.992	367.369	219.317	440.672	98.573	393.695	315.895	408.478	257.688	347.644	0.0034544	0.00071349	0.00043425	953.22	3.7046e-06	4.4834e-06	1331.6	336.73	1.0975e-05	9.1655e-06	562.75	261.17	140.36	59.27	5.6784e-06	113.96	0.00029451	0.00026411	8.5165e-05	868.32	3.1012e-06	2.9891e-06	1197.9	303.46	3.047e-06	3.0785e-06	495.84	228.16	117.62	52.785	3.5574e-06	99.206	402.853	162.329	106.640	101.287	186.453	274.304	101.203	105.900	154.259	228.638	105.540	109.843	110.247	116.049	248.897	113.588	-8191	255	
2143.028	1	1	0	0	0.27578	0.10835	0.21345	0.2501	0.022564	0.18698	0.082945	0.015938	0.1775	0.10639	0.20979	0.16359	0.095154	0.19242	0.026387	0.2589	-1.5125	-2.8833	-2.0479	-2.4292	-2.7562	-1.9083	-2.6625	-2.575	-1.8542	-2.8896	-2.3229	-2.3396	-2.6562	-2.1875	-2.4542	-2.6542	420.825	404.760	316.969	260.445	154.302	221.909	405.669	329.824	179.343	182.598	436.484	391.675	379.683	150.006	248.509	415.746	0.0033826	0.00092919	0.00035127	959.41	3.8838e-06	1.1046e-05	1340.4	337.35	5.9855e-06	8.7076e-06	562.72	257.97	139.05	58.65	5.11e-06	111.9	0.00030134	0.00030247	9.2623e-05	875.39	3.1652e-06	3.3913e-06	1210.7	304.54	3.1303e-06	3.4954e-06	496.97	226.67	116.77	52.42	3.6681e-06	97.867	403.414	141.603	169.912	100.715	196.649	199.103	100.989	106.104	198.323	195.736	105.371	109.876	110.523	116.351	249.322	114.075	-8191	255	
2143.124	1	1	0	0	0.084377	0.070341	0.062597	0.19828	0.21413	0.17557	0.061055	0.089531	0.11249	0.08966	0.14175	0.049256	0.049552	0.10163	0.23569	0.19206	-1.5875	-2.7104	-2.1896	-2.1708	-2.9313	-2.0062	-2.2917	-2.7229	-1.9417	-2.7104	-2.475	-2.1437	-2.875	-2.1792	-2.3	-2.9167	90.475	299.040	218.366	369.830	408.664	282.314	447.808	125.019	409.184	178.099	423.584	435.790	221.509	437.697	428.275	136.231	0.0038213	0.00060199	0.00031975	967.21	6.8909e-06	4.6867e-06	1340.3	332.27	8.6725e-06	5.2836e-06	554.28	256.09	139.42	58.055	1.5056e-06	110.6	0.00031297	0.00032845	9.4256e-05	881.22	3.2798e-06	3.692e-06	1210.5	301.19	3.2634e-06	3.7721e-06	491.8	223.99	116.51	51.975	3.6012e-06	96.434	406.950	129.557	119.010	101.317	206.178	235.440	101.202	106.433	139.959	224.524	105.652	110.077	110.589	115.963	262.153	113.969	-8191	255	
2143.220	1	1	0	0	0.10002	0.11314	0.03914	0.10236	0.11583	0.14204	0.19383	0.11513	0.061906	0.3029	0.060199	0.32176	0.089278	0.015681	0.05366	0.36408	-1.5083	-2.7687	-2.4146	-2.1979	-2.9417	-2.125	-2.5104	-2.7604	-2.1375	-2.6104	-2.6479	-2.2	-2.9104	-2.2125	-2.0604	-2.9458	223.707	112.479	348.073	316.079	253.495	186.402	91.611	289.078	218.056	92.394	390.760	445.193	307.011	278.381	447.624	336.246	0.0034952	0.00027918	0.00021459	963.95	1.0992e-05	5.6962e-06	1341.7	327.87	1.4509e-05	2.9983e-06	550.06	251.57	136.35	56.94	5.5083e-06	109.02	0.00032682	0.00034542	9.1098e-05	879.25	3.3374e-06	3.775e-06	1210.1	295.76	3.4422e-06	3.6901e-06	484.55	219.48	114.7	50.925	3.5177e-06	95	406.309	256.318	188.849	100.946	212.799	271.721	101.008	106.139	198.266	190.788	105.765	109.809	110.521	116.199	231.995	114.372	-8191	255	
2143.341	1	1	0	0	0.19602	0.078721	0.038781	0.26169	0.29748	0.27121	0.10771	0.27334	0.22599	0.10419	0.16309	0.063089	0.18617	0.32281	0.17014	0.33471	-1.5479	-2.4458	-2.4292	-2.1417	-2.7792	-2.1667	-2.1917	-3.075	-1.8813	-2.5167	-2.7458	-2.0208	-2.7896	-2.2938	-2.1813	-3	403.017	413.938	117.704	427.239	242.412	162.162	361.245	386.302	260.576	192.134	435.909	143.431	128.801	400.921	402.790	445.064	0.0037092	0.00070661	0.000435	974.52	8.2421e-06	6.8925e-07	1344.1	328.16	7.6803e-06	8.7878e-06	548.88	252.49	136.64	57.111	4.4144e-06	110.55	0.00034247	0.00033289	8.7084e-05	881.46	3.5188e-06	3.6055e-06	1210.5	295.35	3.5856e-06	3.6008e-06	485.35	220.71	116.51	51.357	3.4352e-06	96.292	399.700	197.073	144.581	100.961	164.584	232.161	100.973	106.793	214.766	150.732	105.129	109.416	110.499	116.406	341.625	113.750	-8191	255	
2143.437	1	1	0	0	0.15609	0.22657	0.11414	0.25635	0.16079	0.045353	0.16126	0.21245	0.098434	0.1247	0.13533	0.13622	0.055871	0.11687	0.22219	0.07467	-1.6396	-2.4417	-2.875	-2.1292	-2.7271	-2.3937	-2.0646	-2.9729	-2.1625	-2.4688	-2.7458	-2.1208	-2.7583	-2.5542	-1.9604	-2.9083	142.116	199.613	336.655	387.021	256.815	146.416	411.854	172.100	393.664	284.035	162.887	409.396	237.435	356.357	141.233	159.360	0.0033422	0.00070173	3.0946e-05	966.68	3.0926e-06	8.0768e-06	1342.9	328.97	5.1111e-06	2.9342e-06	549.24	250.53	135.65	56.277	4.4069e-06	107.92	0.00037092	0.00033506	8.7886e-05	880.94	3.7786e-06	3.5966e-06	1209.8	296.8	3.7293e-06	3.5208e-06	482.55	219.57	115.93	50.424	3.1142e-06	93.985	406.725	172.946	435.175	100.922	225.344	212.225	101.006	106.420	240.769	278.118	105.524	110.067	110.843	116.219	259.614	114.128	-8191	255	
2143.533	1	1	0	0	0.19373	0.19829	0.15173	0.10005	0.037957	0.23995	0.20407	0.16109	0.1491	0.1099	0.17633	0.25887	0.081527	0.1134	0.23042	0.028327	-1.8146	-2.3104	-2.875	-2.0146	-2.6708	-2.4896	-2.0583	-2.9125	-2.0146	-2.0646	-2.9813	-1.9625	-2.55	-2.5396	-1.975	-2.8063	136.092	121.676	432.891	405.303	185.367	306.161	406.546	387.972	370.900	355.366	396.927	427.048	399.933	436.427	391.292	435.945	0.0033935	0.00056997	0.00016902	972.88	5.2966e-06	5.5932e-06	1344.4	318.06	1.008e-05	5.5674e-06	525.05	235.65	126.96	52.845	4.548e-06	102.8	0.00035153	0.00029961	7.6001e-05	885.17	3.3619e-06	3.065e-06	1195.6	284.52	3.1657e-06	2.7855e-06	457.77	206.6	106.56	46.842	2.5131e-06	89.448	408.432	178.090	211.385	100.839	178.059	231.138	101.179	106.421	253.319	290.597	105.518	110.198	110.852	116.511	250.494	114.360	-8191	255	
2143.629	1	1	0	0	0.23976	0.18417	0.24981	0.18038	0.20959	0.090762	0.26476	0.24313	0.18326	0.10145	0.27008	0.38689	0.18651	0.072159	0.16421	0.19182	-1.8312	-1.9542	-2.7917	-1.9458	-2.3479	-2.6208	-2.0021	-2.7958	-2.4708	-2.1958	-3.0417	-2.1583	-2.375	-2.7812	-1.8729	-3.025	352.804	206.083	262.967	87.984	196.883	214.760	333.267	191.398	432.208	293.225	406.354	416.923	135.451	125.817	263.303	97.571	0.0029757	0.00030916	0.00021531	978.78	3.2482e-06	3.5696e-06	1340.2	317.66	1.0835e-05	1.7307e-06	530.39	236.18	127.41	52.193	5.2299e-06	100.92	0.00030423	0.00025398	6.5817e-05	888.79	2.9959e-06	2.8352e-06	1200.6	286.32	2.948e-06	2.6838e-06	460.71	206.41	106.51	46.305	2.5284e-06	87.775	402.745	177.818	161.240	100.908	232.973	153.917	100.528	105.747	182.449	240.985	105.140	109.696	110.329	116.660	199.207	114.237	-8191	255	
2143.725	1	1	0	0	0.19918	0.11069	0.072842	0.18171	0.16797	0.092236	0.18442	0.20875	0.16442	0.055786	0.16544	0.19321	0.21404	0.34117	0.17187	0.11559	-1.8958	-1.9042	-2.9604	-2.1875	-2.4042	-2.8208	-2.0875	-2.825	-2.3667	-2.0167	-2.8583	-2.2229	-2.3542	-2.775	-1.9333	-2.7479	412.346	261.402	178.133	132.718	171.470	103.237	324.235	368.000	165.346	256.058	368.112	372.553	139.715	117.576	358.770	119.525	0.0032574	0.00049968	0.00023416	980.98	5.6035e-06	4.9963e-06	1353.8	314.46	4.0247e-06	1.4953e-06	522.02	231.34	125.49	50.916	9.1737e-06	98.822	0.00028308	0.00023268	6.6608e-05	889.63	2.7594e-06	2.581e-06	1205.4	282.63	2.7579e-06	2.4508e-06	456	202.7	104.42	45.245	2.6456e-06	86.275	403.598	179.140	123.431	100.709	174.232	218.742	100.666	106.316	320.946	350.802	105.620	110.018	110.590	116.389	196.493	114.345	-8191	255	
2143.820	1	1	0	0	0.25302	0.024117	0.18586	0.16028	0.10072	0.37824	0.25587	0.043224	0.2394	0.1724	0.058762	0.11498	0.070764	0.19124	0.086797	0.39305	-2.1792	-2.0687	-2.6979	-2.1354	-2.1188	-2.6542	-2.3375	-2.6562	-2.7146	-1.9104	-2.8937	-2.3833	-2.2479	-2.8646	-2.1292	-2.6813	166.469	398.710	314.594	398.978	349.465	378.377	306.246	316.239	178.973	233.621	411.840	442.842	113.756	137.384	107.536	347.342	0.0027554	0.00033944	0.00011531	981.14	5.0012e-06	2.9033e-06	1345.3	313	5.7594e-06	6.4561e-06	521.22	231.61	125.82	51.217	5.0398e-06	99.606	0.00027091	0.00021919	6.749e-05	889.15	2.609e-06	2.4124e-06	1204.5	280.71	2.6638e-06	2.3483e-06	455.02	202.08	104.11	45.405	2.8945e-06	86.506	404.908	442.637	110.132	100.418	188.616	271.318	100.774	106.396	205.990	183.781	105.613	109.860	111.061	116.123	225.177	114.484	-8191	255	
2143.916	1	1	0	0	0.050663	0.31362	0.13268	0.039839	0.14536	0.13868	0.14965	0.23767	0.1997	0.17491	0.18221	0.33329	0.16882	0.032535	0.16999	0.26669	-2.2292	-1.9708	-2.7396	-2.4271	-2.1646	-2.9396	-2.1271	-2.6229	-2.7208	-2.0542	-2.8729	-2.5375	-2.0875	-3.0229	-2.175	-2.6375	106.542	441.906	265.899	180.548	173.012	134.349	332.208	155.981	148.827	297.978	424.037	412.572	118.761	200.731	362.512	346.472	0.0026726	0.0004343	0.0002415	981.8	4.9836e-06	6.826e-06	1355	312.39	4.1678e-06	5.3138e-06	523.4	232.54	126.18	52.186	1.8832e-06	101.41	0.00026817	0.00022631	7.4949e-05	892.23	2.6509e-06	2.5701e-06	1212.7	281.96	2.6808e-06	2.5294e-06	458.66	203.66	104.76	46.132	2.9826e-06	88.023	404.325	158.391	156.391	100.416	217.872	181.597	101.023	106.802	249.577	186.830	105.847	109.725	110.753	116.434	275.469	114.386	-8191	255	
2144.037	1	1	0	0	0.060154	0.32326	0.19563	0.096586	0.022572	0.11634	0.31343	0.069815	0.24155	0.13604	0.40374	0.12501	0.34923	0.02728	0.069569	0.095526	-2.4313	-2.0312	-2.5583	-2.725	-2.0021	-2.9396	-2.1708	-2.3021	-2.8812	-1.9	-2.6333	-2.7438	-1.9083	-2.9729	-2.2188	-2.2875	250.724	343.895	126.902	91.528	226.030	241.936	368.369	172.629	123.971	316.952	403.673	276.038	381.851	111.331	433.984	330.315	0.003228	0.00065482	7.4559e-05	988.48	8.4166e-06	6.0563e-06	1359.2	319.67	7.2319e-06	5.041e-06	533.96	239.75	129.11	53.68	5.7967e-06	103.75	0.00026562	0.00024853	7.6786e-05	895.29	2.6722e-06	2.8423e-06	1221.6	287.17	2.7646e-06	2.9289e-06	469.43	208.93	107.55	47.809	3.2644e-06	90.509	405.064	142.072	143.865	100.983	248.121	194.168	101.033	105.902	178.339	191.250	105.533	109.830	110.262	115.919	276.963	114.027	-8191	255	
2144.133	1	1	0	0	0.08614	0.29281	0.1742	0.050479	0.13166	0.17202	0.59032	0.27195	0.046729	0.09312	0.054067	0.19657	0.17088	0.19583	0.14255	0.10407	-2.4708	-2.0083	-2.6188	-2.6042	-1.9208	-2.6667	-2.4396	-1.975	-3	-2.1896	-2.6729	-2.7292	-1.85	-2.9833	-2.3458	-2.3438	178.057	153.766	175.251	423.401	113.318	391.763	370.137	380.209	162.318	205.503	301.188	395.187	128.993	385.668	148.612	395.048	0.0030132	0.0011647	0.00010124	983.76	2.3522e-06	6.9623e-06	1360.7	323.27	1.0236e-05	9.224e-06	540.16	242.97	132.88	55.156	5.917e-06	105.74	0.00027807	0.00029189	8.2181e-05	896.22	2.8624e-06	3.3182e-06	1224.2	291.11	2.9791e-06	3.401e-06	474.51	212.13	110.04	49.274	3.4195e-06	92.129	405.896	164.455	411.274	100.739	253.943	207.281	100.679	106.439	209.137	293.962	105.318	109.658	110.247	116.110	283.141	113.984	-8191	255	
#DATA ENDS
