BOXY.EXE: ISS Imagent and Oximeter Data Acquisition Program Version 0.80
Ascii Record File

#ACQ INFORMATION
2  Detector Channels 
16  External MUX Channels 
1  Auxiliary Channels 
5000  Waveform (CCF) Frequency (Hz)
1  Waveforms Skipped 
30  Waveforms Averaged 
1  Cycles Averaged 
16  Acquisitions per Waveform 
10.0806  Updata Rate (Hz) 

#FILE INFORMATION
TRUE -- External MUX Channel results are PARSED.
FALSE -- AC DC and Phase are NOT grouped.
TRUE -- Companion Program Settings File CREATED.
FALSE -- AC data not excluded
FALSE -- DC data not excluded
FALSE -- Phase data not excluded
FALSE -- Auxillary Chn. data not excluded
Tab delimiters

#CALIBRATION STATE
TRUE -- Waveform Calibration Values APPLIED.


#AUX CALIBRATION VALUES
Val Type	aux-1	

Term	1.0000e+00	
Factor	0.0000e+00	


#WF CALIBRATION VALUES
A = Detector Channel
Val Type	A-AC1	A-AC2	A-AC3	A-AC4	A-AC5	A-AC6	A-AC7	A-AC8	A-AC9	A-AC10	A-AC11	A-AC12	A-AC13	A-AC14	A-AC15	A-AC16	A-DC1	A-DC2	A-DC3	A-DC4	A-DC5	A-DC6	A-DC7	A-DC8	A-DC9	A-DC10	A-DC11	A-DC12	A-DC13	A-DC14	A-DC15	A-DC16	A-Ph1	A-Ph2	A-Ph3	A-Ph4	A-Ph5	A-Ph6	A-Ph7	A-Ph8	A-Ph9	A-Ph10	A-Ph11	A-Ph12	A-Ph13	A-Ph14	A-Ph15	A-Ph16	

Term	0.00000e+00	0.00000e+00	0.00000e+00	0.00000e+00	0.00000e+00	0.00000e+00	0.00000e+00	0.00000e+00	0.00000e+00	0.00000e+00	0.00000e+00	0.00000e+00	0.00000e+00	0.00000e+00	0.00000e+00	0.00000e+00	0.00000e+00	0.00000e+00	0.00000e+00	0.00000e+00	0.00000e+00	0.00000e+00	0.00000e+00	0.00000e+00	0.00000e+00	0.00000e+00	0.00000e+00	0.00000e+00	0.00000e+00	0.00000e+00	0.00000e+00	0.00000e+00	0.00000e+00	0.00000e+00	0.00000e+00	0.00000e+00	0.00000e+00	0.00000e+00	0.00000e+00	0.00000e+00	0.00000e+00	0.00000e+00	0.00000e+00	0.00000e+00	0.00000e+00	0.00000e+00	0.00000e+00	0.00000e+00	
Factor	1.00000e+00	1.00000e+00	1.00000e+00	1.00000e+00	1.00000e+00	1.00000e+00	1.00000e+00	1.00000e+00	1.00000e+00	1.00000e+00	1.00000e+00	1.00000e+00	1.00000e+00	1.00000e+00	1.00000e+00	1.00000e+00	1.00000e+00	1.00000e+00	1.00000e+00	1.00000e+00	1.00000e+00	1.00000e+00	1.00000e+00	1.00000e+00	1.00000e+00	1.00000e+00	1.00000e+00	1.00000e+00	1.00000e+00	1.00000e+00	1.00000e+00	1.00000e+00	X	X	X	X	X	X	X	X	X	X	X	X	X	X	X	X	

B = Detector Channel
Val Type	B-AC1	B-AC2	B-AC3	B-AC4	B-AC5	B-AC6	B-AC7	B-AC8	B-AC9	B-AC10	B-AC11	B-AC12	B-AC13	B-AC14	B-AC15	B-AC16	B-DC1	B-DC2	B-DC3	B-DC4	B-DC5	B-DC6	B-DC7	B-DC8	B-DC9	B-DC10	B-DC11	B-DC12	B-DC13	B-DC14	B-DC15	B-DC16	B-Ph1	B-Ph2	B-Ph3	B-Ph4	B-Ph5	B-Ph6	B-Ph7	B-Ph8	B-Ph9	B-Ph10	B-Ph11	B-Ph12	B-Ph13	B-Ph14	B-Ph15	B-Ph16	

Term	0.00000e+00	0.00000e+00	0.00000e+00	0.00000e+00	0.00000e+00	0.00000e+00	0.00000e+00	0.00000e+00	0.00000e+00	0.00000e+00	0.00000e+00	0.00000e+00	0.00000e+00	0.00000e+00	0.00000e+00	0.00000e+00	0.00000e+00	0.00000e+00	0.00000e+00	0.00000e+00	0.00000e+00	0.00000e+00	0.00000e+00	0.00000e+00	0.00000e+00	0.00000e+00	0.00000e+00	0.00000e+00	0.00000e+00	0.00000e+00	0.00000e+00	0.00000e+00	-5.22979e+01	-1.31401e+02	-1.27387e+02	-1.86505e+02	-6.13448e+01	-7.12651e+01	-1.58503e+02	-1.62015e+02	-4.03188e+01	-6.21744e+01	-1.72214e+02	-1.70804e+02	-1.83130e+02	-1.77621e+02	-5.60251e+01	-1.49814e+02	
Factor	1.93190e-05	1.35518e-04	4.06246e-05	2.79546e-01	1.64517e-06	1.55312e-06	1.54144e-01	4.69497e-02	1.34744e-06	1.52949e-06	7.67261e-02	2.51976e-02	3.70919e-02	8.11970e-03	1.35890e-06	1.15767e-02	1.16172e-05	1.90905e-05	5.37808e-06	1.49305e-01	2.03382e-07	2.15170e-07	7.76414e-02	2.53288e-02	1.91294e-07	2.14695e-07	4.00858e-02	1.32187e-02	2.02554e-02	4.43163e-03	1.97942e-07	6.10325e-03	X	X	X	X	X	X	X	X	X	X	X	X	X	X	X	X	



#DISTANCE SETTINGS
A = Detector Channel
A-1	A-2	A-3	A-4	A-5	A-6	A-7	A-8	A-9	A-10	A-11	A-12	A-13	A-14	A-15	A-16	

2.5000e+00	3.0000e+00	2.5000e+00	3.0000e+00	2.0000e+00	3.0000e+00	1.5000e+00	3.0000e+00	3.0000e+00	3.0000e+00	3.0000e+00	3.0000e+00	3.0000e+00	3.0000e+00	1.5000e+00	3.0000e+00	

B = Detector Channel
B-1	B-2	B-3	B-4	B-5	B-6	B-7	B-8	B-9	B-10	B-11	B-12	B-13	B-14	B-15	B-16	

1.0000e+01	1.0000e+01	1.0000e+01	1.4400e+00	1.0000e+01	1.0000e+01	1.5100e+00	1.9400e+00	1.0000e+01	1.0000e+01	1.9900e+00	2.4900e+00	2.4100e+00	2.9000e+00	1.0000e+01	2.9800e+00	




#DATA BEGINS
time	group	step	mark	flag	A-AC1	A-AC2	A-AC3	A-AC4	A-AC5	A-AC6	A-AC7	A-AC8	A-AC9	A-AC10	A-AC11	A-AC12	A-AC13	A-AC14	A-AC15	A-AC16	A-DC1	A-DC2	A-DC3	A-DC4	A-DC5	A-DC6	A-DC7	A-DC8	A-DC9	A-DC10	A-DC11	A-DC12	A-DC13	A-DC14	A-DC15	A-DC16	A-Ph1	A-Ph2	A-Ph3	A-Ph4	A-Ph5	A-Ph6	A-Ph7	A-Ph8	A-Ph9	A-Ph10	A-Ph11	A-Ph12	A-Ph13	A-Ph14	A-Ph15	A-Ph16	B-AC1	B-AC2	B-AC3	B-AC4	B-AC5	B-AC6	B-AC7	B-AC8	B-AC9	B-AC10	B-AC11	B-AC12	B-AC13	B-AC14	B-AC15	B-AC16	B-DC1	B-DC2	B-DC3	B-DC4	B-DC5	B-DC6	B-DC7	B-DC8	B-DC9	B-DC10	B-DC11	B-DC12	B-DC13	B-DC14	B-DC15	B-DC16	B-Ph1	B-Ph2	B-Ph3	B-Ph4	B-Ph5	B-Ph6	B-Ph7	B-Ph8	B-Ph9	B-Ph10	B-Ph11	B-Ph12	B-Ph13	B-Ph14	B-Ph15	B-Ph16	aux-1	digaux	

14544.447	1	1	0	512	0.034917	0.03907	0.035135	0.35346	0.2643	0.033298	0.25905	0.10388	0.13422	0.23254	0.17138	0.35409	0.076736	0.22234	0.085483	0.14206	-1.2833	-2.125	-2.5271	-1.9396	-2.4417	-2.25	-1.8521	-2.7854	-2.1437	-2.1917	-2.6063	-1.8937	-2.5375	-2.4958	-1.8396	-2.7458	134.202	-111.740	-2.136	-99.525	-38.898	27.939	233.318	12.749	213.804	104.030	49.066	92.514	225.041	-60.266	-55.119	40.889	0.00036141	0.00073276	0.00027562	919.96	8.5817e-06	1.0252e-05	796.17	251.31	8.2108e-06	2.1734e-05	245.73	71.871	76.221	29.108	5.067e-06	33.283	0.018317	0.030348	0.0084889	1101.4	0.00031951	0.00033858	876.68	280.13	0.00030016	0.00034113	296.04	89.84	104.72	35.019	0.0003176	41.501	-101.402	-23.591	-108.658	-109.633	24.660	93.716	-110.523	-104.344	32.894	162.604	-106.333	-101.488	-99.501	-94.003	125.375	-96.971	-8191	255	
14544.567	1	1	0	0	0.12747	0.043546	0.47266	0.23583	0.15318	0.14669	0.28567	0.09899	0.1807	0.19909	0.076071	0.18042	0.096049	0.18246	0.29369	0.13481	-1.6833	-2.0208	-2.8646	-1.9354	-2.3896	-2.425	-1.8604	-2.7313	-2.1813	-1.9021	-2.7875	-1.9104	-2.1208	-2.6292	-1.7625	-2.5812	-90.603	117.661	222.539	194.406	205.463	-77.368	-59.118	-35.354	197.411	-13.803	197.274	183.741	-102.593	214.001	86.992	228.089	0.00010833	0.0019234	0.00054054	911.17	1.3502e-05	8.742e-06	794.25	253.63	1.4581e-05	1.4461e-05	246.34	72.603	77.226	29.397	1.7643e-05	33.564	0.018428	0.030351	0.0086604	1103.6	0.00032184	0.00034063	878.77	281.09	0.00030208	0.00034303	297.72	90.382	105.54	35.379	0.00031681	41.766	-82.496	-33.647	222.577	-109.350	-41.655	69.203	-110.135	-103.875	77.231	-34.057	-106.010	-101.745	-99.079	-94.314	-9.770	-97.309	-8191	255	
14544.662	1	1	0	0	0.3282	0.19484	0.13915	0.26222	0.17699	0.22291	0.14881	0.20347	0.10612	0.25103	0.14757	0.26251	0.19535	0.13997	0.075006	0.40646	-1.9021	-1.95	-2.7979	-2.0833	-2.1958	-2.4958	-1.9271	-2.675	-2.2229	-1.9229	-2.9958	-2.0958	-2.1625	-2.5375	-1.7583	-2.5	36.825	-107.540	92.249	166.020	-16.522	-61.021	-11.405	199.032	187.757	-63.791	233.839	172.272	47.173	106.732	-110.148	229.403	0.00015996	0.0013546	0.00019726	913.58	1.3377e-05	6.3178e-06	802.78	252.1	1.7523e-05	9.4257e-06	244.12	71.754	76.363	29.414	4.0599e-06	33.432	0.018456	0.030561	0.0085988	1106.9	0.00032185	0.00034527	878.31	280.57	0.00030201	0.00034286	296.11	89.783	105.06	35.121	0.00031477	41.36	-116.719	-55.324	131.835	-109.675	163.698	236.907	-110.571	-104.163	95.392	54.494	-106.523	-101.412	-98.826	-94.399	36.805	-96.894	-8191	255	
14544.758	1	1	0	0	0.35012	0.052102	0.27021	0.10774	0.072229	0.066056	0.32525	0.16912	0.10776	0.16603	0.27773	0.21897	0.11069	0.07152	0.0687	0.10243	-2.0958	-1.6542	-2.6667	-2.075	-1.9333	-2.7042	-1.8083	-2.575	-2.5417	-1.9062	-2.7208	-2.1708	-2.1125	-2.7917	-1.9521	-2.5021	145.563	172.331	42.943	-76.427	-63.728	227.146	194.675	154.098	109.121	51.294	-29.799	-72.685	54.870	-87.602	225.066	74.214	0.00019283	0.0011763	0.00041609	911.15	8.2464e-06	4.5409e-06	790.9	251.98	6.9181e-06	9.2248e-06	245.87	71.621	75.873	29.33	8.7532e-06	33.101	0.018421	0.030676	0.0085421	1099.1	0.00032157	0.00034131	873.21	280.1	0.00030354	0.00034435	295.06	89.473	104.73	35.146	0.00031371	41.39	107.955	83.965	-79.231	-109.340	-9.126	-20.888	-110.558	-104.027	-7.895	88.201	-106.353	-101.250	-99.490	-93.903	-6.888	-97.126	-8191	255	
14544.854	1	1	0	0	0.035156	0.16818	0.13523	0.17689	0.14273	0.22598	0.097127	0.18852	0.11353	0.28424	0.027427	0.14632	0.11552	0.15155	0.069193	0.17348	-1.9625	-1.8458	-2.5187	-2.1021	-1.9688	-2.7458	-2.1125	-2.5687	-2.5604	-1.8729	-2.5	-2.3167	-1.9458	-2.6042	-1.8271	-2.4646	30.567	125.262	166.449	168.931	-10.172	176.089	40.268	138.760	124.490	196.009	-92.053	202.377	-101.196	235.459	120.374	119.196	0.00027432	0.0017515	0.00026554	914.39	1.7384e-05	1.2854e-05	793.41	251.89	2.2767e-05	8.819e-06	245.17	71.969	76.006	28.981	7.9231e-06	33.246	0.018606	0.030533	0.0085205	1099.7	0.00032334	0.00034163	873.43	278.87	0.0003028	0.00034104	295.42	89.722	105.16	34.974	0.00031097	41.418	-72.616	-38.541	-91.309	-109.786	196.712	-118.021	-110.318	-104.278	23.317	17.275	-105.755	-101.577	-99.274	-93.951	-55.975	-96.986	-8191	255	
14544.975	1	1	0	0	0.1171	0.14769	0.25497	0.27623	0.37709	0.0491	0.088347	0.070653	0.23211	0.16053	0.27643	0.20067	0.098865	0.18854	0.28759	0.032357	-2.1604	-1.7875	-2.5146	-2.2979	-2.0125	-2.6625	-1.9688	-2.1396	-2.5938	-1.8604	-2.5042	-2.475	-1.7854	-2.6458	-2.1021	-2.2229	108.044	93.063	-117.695	222.235	29.894	-1.250	-81.629	65.784	56.220	7.037	-45.322	130.348	190.872	-117.791	227.722	203.593	0.00016387	0.0015932	0.00047292	914.18	1.776e-05	1.048e-05	797.01	251.5	1.7811e-05	1.8273e-05	245.9	72.521	76.383	29.192	1.9645e-05	33.414	0.018688	0.030145	0.008476	1100.2	0.00032652	0.00034352	877.13	280.65	0.00030621	0.00034076	296.02	90.396	105.43	35.154	0.00031214	41.664	-106.919	193.292	-72.105	-109.764	22.749	215.624	-110.649	-104.228	153.394	-49.463	-106.234	-101.952	-99.523	-94.250	54.639	-97.250	-8191	255	
14545.046	1	1	0	0	0.12226	0.12569	0.17904	0.26763	0.29393	0.10025	0.30847	0.20669	0.097517	0.089395	0.25512	0.052118	0.046943	0.17883	0.014202	0.17655	-2.1937	-1.85	-2.4917	-2.3917	-1.7167	-2.5979	-2.3104	-2.05	-2.5312	-1.8687	-2.4521	-2.4771	-1.9958	-2.5854	-2.2917	-2.0771	179.700	163.505	217.563	218.480	209.260	33.962	220.272	151.841	-114.671	-50.896	-120.179	154.767	90.858	169.035	232.211	208.782	0.00023038	0.00043606	0.00020991	913.36	2.4097e-05	1.5438e-05	800.28	252.33	1.382e-05	1.6797e-05	246.38	72.107	76.359	28.983	1.8031e-05	32.753	0.018736	0.030352	0.0085105	1102.3	0.00032632	0.0003418	878.82	281.59	0.00030364	0.00034035	296.54	90.163	105.09	34.951	0.0003098	41.195	-87.056	3.388	148.886	-110.102	-88.522	139.594	-111.081	-104.366	47.732	76.749	-106.349	-101.725	-99.484	-94.461	230.615	-97.038	-8191	255	
14545.167	1	1	0	0	0.17282	0.16085	0.14228	0.34725	0.10841	0.10655	0.30582	0.27932	0.13146	0.29756	0.13661	0.13378	0.092094	0.13647	0.037459	0.11151	-2.2667	-1.8083	-2.325	-2.6188	-1.9	-2.5563	-2.3917	-2.0521	-2.5687	-1.9104	-2.2958	-2.55	-1.7917	-2.5542	-2.1375	-1.8521	-90.965	-28.033	-23.100	177.212	219.728	216.885	170.080	170.038	63.919	-67.528	123.300	148.760	-21.338	1.921	2.805	182.686	0.00018386	0.00026865	0.00061903	910.28	8.9115e-06	1.9531e-05	790.2	250.2	3.696e-06	1.9712e-05	242.67	71.221	75.588	28.771	3.4252e-06	32.905	0.018653	0.030063	0.0084591	1099.2	0.00032072	0.00033625	869.88	279.43	0.00030124	0.00033589	292.99	88.948	103.86	34.634	0.00031006	40.927	-51.824	34.740	-63.436	-110.021	-103.096	18.190	-111.033	-104.616	140.793	71.033	-106.380	-101.818	-100.440	-94.613	64.226	-97.646	-8191	255	
14545.263	1	1	0	0	0.10647	0.16643	0.15167	0.052394	0.20789	0.42257	0.30376	0.32341	0.18418	0.13713	0.067099	0.1241	0.2861	0.10441	0.14583	0.35101	-2.1333	-1.875	-1.9937	-2.6396	-1.8625	-2.3083	-2.3896	-1.9604	-2.7521	-2.1583	-2.0333	-2.8396	-1.8583	-2.3458	-2.4667	-1.9188	-66.393	217.014	-90.282	54.880	217.070	232.050	217.120	185.471	-78.015	10.868	213.859	155.786	-50.200	223.691	9.478	212.772	0.00023267	0.00069324	0.00039992	916.07	1.9211e-05	4.8364e-06	788.22	251.36	3.0813e-06	1.043e-05	243.62	71.603	75.047	28.924	6.0607e-06	32.775	0.018375	0.029794	0.0085349	1099.3	0.0003191	0.00033729	869.2	279.21	0.00030182	0.00033363	293.88	89.157	103.91	34.764	0.00031283	41.099	108.199	-40.116	100.928	-110.399	-60.425	45.666	-111.146	-104.587	160.744	11.736	-106.894	-102.268	-99.946	-94.877	-56.045	-97.352	-8191	255	
14545.359	1	1	0	0	0.088652	0.13633	0.057186	0.30338	0.14004	0.066077	0.052058	0.11859	0.25886	0.12855	0.075792	0.1309	0.07589	0.26396	0.13791	0.022402	-2.2	-1.9521	-1.9771	-2.7354	-1.75	-2.2917	-2.6562	-1.8854	-2.5521	-2.2438	-1.9042	-2.5354	-1.9458	-2.4292	-2.3792	-1.5896	-10.245	150.961	-76.143	146.751	-13.832	105.147	57.487	-108.040	-28.599	147.264	88.931	108.937	26.833	-13.718	101.541	-71.195	0.00034719	0.0022463	0.00015345	910.75	1.8447e-05	5.6181e-06	792.48	250.84	8.961e-06	4.8662e-06	244.95	72.231	76.073	29.052	2.4585e-06	33.052	0.018421	0.029785	0.0085284	1098.3	0.00032072	0.00033695	874.48	279.59	0.00029951	0.00033607	295.45	89.672	104.27	34.88	0.00031387	41.255	-62.400	-33.754	127.532	-109.823	28.549	64.641	-111.285	-104.810	124.497	236.359	-106.697	-101.852	-99.901	-94.549	11.865	-98.009	-8191	255	
14545.455	1	1	0	0	0.14431	0.13299	0.34066	0.27334	0.18171	0.24246	0.23331	0.16485	0.06532	0.11032	0.20367	0.17639	0.22941	0.19547	0.089348	0.18712	-2.1646	-2.0979	-1.9583	-2.7354	-2.0417	-2.0021	-2.4854	-1.7604	-2.4083	-2.1333	-1.9375	-2.5625	-2.1875	-2.2562	-2.6771	-1.9125	-66.487	-18.631	11.458	200.175	170.171	-114.929	187.675	219.074	-48.810	-109.640	4.754	-109.719	-37.099	15.682	-75.135	135.616	0.00022459	0.0015937	0.00026542	924.55	7.0276e-06	6.9361e-06	796.34	251.99	4.0863e-06	5.8319e-06	246.6	72.006	76.332	29.127	1.4733e-05	33.237	0.01836	0.030086	0.0085413	1102	0.00031815	0.00033897	878.19	280.58	0.00029912	0.00033783	297.93	89.893	104.33	34.931	0.00031384	41.244	-60.988	-58.797	129.751	-110.234	-76.104	-3.648	-110.848	-104.827	-14.771	-120.134	-106.851	-102.213	-100.628	-94.415	175.442	-98.203	-8191	255	
14545.552	1	1	0	0	0.30996	0.014087	0.24271	0.16291	0.13419	0.032926	0.35801	0.1922	0.088039	0.19348	0.32362	0.099863	0.23939	0.13502	0.095723	0.052643	-2.0438	-2.2125	-1.7208	-2.7438	-1.9833	-2.1542	-2.9437	-2.0312	-2.2542	-2.4396	-1.7938	-2.4458	-2.2333	-1.975	-2.7938	-1.8083	179.937	31.075	127.469	84.147	109.791	-19.090	160.286	185.123	49.382	86.354	66.209	155.558	112.758	-86.546	-1.780	-43.858	7.3344e-05	0.00066685	0.00032757	918.76	7.2897e-06	1.0304e-05	791.43	251.8	4.1145e-06	1.2868e-05	244.05	71.119	75.808	29.033	1.9315e-05	32.571	0.018201	0.030189	0.0085004	1101.3	0.00031523	0.00033915	873.45	278.59	0.00029572	0.0003384	293.87	88.926	103.78	34.692	0.00031005	40.701	-90.962	209.263	52.483	-110.033	30.485	-1.073	-111.086	-104.717	50.492	230.364	-106.934	-101.765	-99.894	-94.499	11.335	-97.724	-8191	255	
14545.648	1	1	0	0	0.17337	0.19041	0.17936	0.17649	0.14055	0.12933	0.13281	0.35492	0.051529	0.12496	0.13003	0.11776	0.19761	0.27083	0.20372	0.20843	-1.7208	-2.5042	-1.7563	-2.4792	-2.2854	-2.0771	-2.8312	-2.0979	-2.2604	-2.6229	-1.8771	-2.4208	-2.1125	-1.9021	-2.5771	-1.8917	-30.161	-65.701	58.929	175.759	187.296	7.876	-108.565	195.483	56.542	-17.620	96.587	-44.149	122.456	-15.391	-10.352	177.333	0.000149	0.0014238	0.0006868	920.06	9.2453e-06	1.7524e-05	795.92	251.73	1.6891e-05	2.7874e-06	243.66	71.057	75.551	28.949	1.6568e-05	32.802	0.018045	0.029918	0.0084496	1099.2	0.00031708	0.00034119	872.94	278.92	0.00029938	0.00033774	293.21	88.577	103.88	34.859	0.00030914	40.886	-118.985	-119.232	3.691	-109.916	-117.885	62.925	-111.311	-104.693	33.590	136.194	-106.842	-101.965	-99.740	-94.730	-13.549	-97.801	-8191	255	
14545.742	1	1	0	0	0.19995	0.25327	0.17052	0.036889	0.28302	0.24542	0.30713	0.16042	0.11875	0.12885	0.091728	0.016804	0.1003	0.26133	0.095897	0.28041	-1.7917	-2.4521	-1.6917	-2.4167	-2.1729	-1.8771	-2.6729	-2.0687	-2.1604	-2.6458	-1.9062	-2.2958	-2.3104	-1.8958	-2.3375	-1.9792	58.372	-117.569	49.921	-52.698	233.490	-89.123	150.338	171.688	149.838	2.973	91.161	-42.286	216.803	173.992	0.773	165.010	0.00031847	0.0011128	0.00021313	915.06	6.6773e-06	1.6649e-05	794.12	252.07	2.2161e-05	9.3627e-06	243.14	71.435	75.866	29.105	1.6743e-05	32.675	0.018345	0.030082	0.0084198	1095.8	0.00031839	0.00033951	873.38	279.04	0.00030061	0.00033906	294.58	88.872	104.45	34.957	0.00030841	40.845	-85.947	-73.654	103.840	-109.899	95.027	72.577	-110.783	-105.004	95.337	-114.439	-106.949	-101.615	-99.448	-94.098	-47.683	-98.282	-8191	255	
14545.838	1	1	0	0	0.276	0.13131	0.11004	0.1013	0.29998	0.11349	0.11121	0.12907	0.23408	0.16793	0.1212	0.25199	0.13186	0.23293	0.080391	0.20247	-1.5729	-2.475	-1.9833	-2.1875	-2.3167	-1.8479	-2.6354	-2.3063	-2.0458	-2.6583	-1.7708	-2.3563	-2.5604	-1.8083	-2.5458	-2.3063	222.139	200.261	198.920	152.285	16.113	-91.505	216.394	-109.421	-28.200	32.641	145.964	208.983	-88.988	173.067	49.289	-68.325	0.00015664	0.00025634	2.8257e-05	913.28	1.4563e-05	2.8146e-05	799.33	250.96	8.4671e-06	1.0833e-06	246.96	72.402	75.772	29.46	1.53e-05	33.153	0.018396	0.030374	0.0083783	1095.7	0.00032147	0.00034163	877.24	279.14	0.00030146	0.00033594	295.39	89.419	104.86	35.077	0.00030718	41.288	-29.113	69.165	-54.988	-109.821	-88.430	-52.457	-110.868	-104.392	85.230	-18.371	-106.538	-101.612	-99.742	-94.341	38.582	-97.550	-8191	255	
14545.936	1	1	0	0	0.29987	0.19928	0.21922	0.33109	0.18757	0.19397	0.36537	0.22367	0.32862	0.10611	0.21805	0.1322	0.022632	0.1663	0.23566	0.13923	-1.4312	-2.6417	-1.7958	-2.1854	-2.4646	-1.7938	-2.5687	-2.4458	-1.7625	-2.5438	-2.1271	-2.1833	-2.6021	-1.7042	-2.4292	-2.3292	-102.226	-6.848	-52.840	-20.903	-11.865	168.717	235.734	182.560	180.930	127.171	119.970	-15.252	128.620	3.563	131.674	235.943	0.00016516	0.0009607	0.00019165	928.35	7.0283e-06	1.8861e-05	800.6	252.42	2.5206e-05	4.542e-06	245.11	71.8	75.601	28.985	2.0374e-06	32.648	0.018426	0.030296	0.0083473	1104.8	0.00032015	0.00033718	879.19	279.9	0.00030064	0.00033395	294.27	89.156	104.6	34.827	0.00030519	40.896	197.112	-67.914	189.608	-110.561	-26.699	219.296	-110.668	-104.899	37.071	-83.271	-106.589	-101.668	-99.261	-94.375	-58.557	-97.705	-8191	255	
14546.055	1	1	0	0	0.1122	0.21652	0.37644	0.19696	0.11305	0.38207	0.029394	0.25059	0.22318	0.035222	0.13947	0.26082	0.083295	0.24884	0.081146	0.17025	-1.3625	-2.7188	-2.05	-2.2021	-2.5625	-1.8146	-2.6896	-2.3271	-1.8208	-2.7188	-2.1604	-2.0917	-2.7708	-1.9	-2.3521	-2.3292	54.531	218.411	146.885	210.530	-120.752	66.652	-112.650	190.448	225.379	-63.677	54.605	197.323	-71.037	146.256	63.555	195.799	0.00037987	0.00046052	0.00029401	919.54	1.5573e-05	1.9829e-05	795.67	251.46	4.1707e-06	3.253e-06	242.73	70.7	75.88	28.915	8.6829e-06	32.418	0.018283	0.029625	0.0083456	1098.8	0.00031956	0.0003335	869.86	278.71	0.0002996	0.00033145	292.3	88.566	104.15	34.632	0.00030536	40.709	-48.312	103.532	72.993	-109.832	175.926	125.952	-110.995	-104.452	144.506	-42.343	-106.907	-101.492	-99.345	-94.945	31.671	-98.098	-8191	255	
14546.151	1	1	0	0	0.13084	0.10754	0.26061	0.2092	0.079939	0.24494	0.14847	0.17217	0.2769	0.13089	0.12193	0.35904	0.11678	0.18628	0.10249	0.23805	-1.3813	-2.55	-2.2104	-2.1792	-2.6167	-1.8687	-2.375	-2.5167	-1.8604	-2.5187	-2.3521	-1.9688	-2.55	-1.9417	-2.2021	-2.6104	162.271	-88.861	35.954	-101.345	-101.014	-66.860	-49.590	215.380	-55.745	110.743	-104.075	202.743	208.036	184.954	-36.005	133.350	0.00048346	0.0007728	0.00025955	924.84	2.0829e-05	4.7774e-06	794.41	251.02	5.5923e-06	1.8791e-05	244.51	70.127	74.561	28.803	1.5241e-06	32.78	0.018253	0.029586	0.0082751	1102.8	0.00031753	0.00033339	871.39	279.32	0.00029983	0.00033223	292.89	88.311	103.57	34.532	0.00030967	40.874	-44.127	60.619	62.450	-110.303	-67.571	-25.568	-111.064	-104.820	-5.105	-83.539	-106.895	-102.012	-99.886	-94.889	107.194	-97.831	-8191	255	
14546.247	1	1	0	0	0.27586	0.024636	0.078034	0.11346	0.22732	0.16223	0.23844	0.1711	0.11476	0.098769	0.32734	0.087066	0.20655	0.18265	0.10448	0.20266	-1.4958	-2.4167	-2.4125	-2.05	-2.6833	-2.0167	-2.1875	-2.6146	-1.7812	-2.6042	-2.425	-2.0187	-2.4875	-2.1667	-2.2188	-2.7292	158.702	222.209	-108.538	138.607	111.364	-57.712	120.338	159.849	-105.078	-60.753	109.440	142.058	-56.017	217.463	139.983	104.021	0.00020118	0.0011644	0.00026686	919.96	1.489e-05	3.0793e-06	792.07	251.52	6.3724e-06	5.5716e-06	244.1	71.083	75.039	29.332	1.0204e-05	32.987	0.018253	0.029492	0.0083634	1105	0.00031614	0.00033356	873.86	279.08	0.00029629	0.00033336	294.33	88.874	103.84	34.876	0.00030981	41.05	-23.695	171.648	-11.749	-110.602	-34.857	5.093	-110.784	-104.714	-34.726	-98.243	-107.614	-102.011	-99.258	-95.056	88.314	-97.556	-8191	255	
14546.343	1	1	0	0	0.16224	0.2605	0.13052	0.036721	0.2264	0.14279	0.10544	0.22375	0.32265	0.14839	0.34871	0.067705	0.22136	0.34019	0.15371	0.12129	-1.5604	-2.5042	-2.525	-1.9792	-2.5979	-2.15	-2.35	-2.9896	-1.8104	-2.35	-2.4771	-2.0312	-2.7354	-2.1417	-2.0208	-2.8292	25.892	-85.976	-63.188	29.785	76.732	27.687	20.091	142.250	46.527	138.491	172.262	157.217	-75.464	198.457	121.114	131.466	0.00025859	0.0016896	0.00036749	922.96	1.1745e-05	9.9903e-06	798.32	252.66	1.7745e-05	1.6928e-05	248.37	71.478	76.102	29.016	5.4259e-06	32.707	0.017947	0.029501	0.0083806	1102.9	0.00031364	0.0003341	882.57	280.3	0.00029642	0.00033359	297	89.388	104.17	34.879	0.00031001	41.078	-120.578	-90.538	-12.360	-109.951	-61.704	76.950	-110.591	-104.770	-24.793	67.304	-106.630	-101.953	-100.130	-94.916	118.908	-97.423	-8191	255	
14546.440	1	1	0	0	0.18766	0.22012	0.17623	0.15807	0.21642	0.25469	0.10536	0.099345	0.13633	0.028784	0.19076	0.20692	0.15597	0.22297	0.20267	0.31174	-1.3312	-2.1708	-2.6396	-1.7333	-2.6875	-2.3854	-2.2104	-2.875	-1.9354	-2.2313	-2.7708	-1.7167	-2.3833	-2.4562	-1.8896	-2.5729	59.093	216.948	204.953	180.799	-121.529	140.117	140.662	211.303	-110.195	182.213	234.256	-13.466	192.536	215.768	38.676	200.523	0.00011529	0.0028468	0.00011981	920.45	1.0578e-05	1.2457e-05	801.87	253.24	1.1508e-05	8.2663e-06	245.59	70.814	75.565	29.188	1.7871e-06	33.18	0.01792	0.029836	0.0084501	1099.7	0.00031437	0.00033569	876.78	279.59	0.00029351	0.00033427	295.06	88.466	103.85	34.884	0.00030975	41.007	227.099	-2.744	-70.679	-110.147	106.114	76.405	-110.702	-104.679	4.583	96.042	-106.790	-101.782	-99.574	-94.223	133.513	-97.559	-8191	255	
14546.536	1	1	0	0	0.14565	0.074366	0.056136	0.20592	0.32607	0.1287	0.21033	0.27943	0.20404	0.35596	0.10567	0.15125	0.25677	0.056733	0.14237	0.128	-1.4979	-2.1833	-2.5417	-1.7604	-2.5187	-2.4521	-2.1271	-2.7125	-1.9979	-2.1354	-2.7125	-1.8625	-2.4437	-2.4292	-1.8792	-2.8542	161.216	98.358	-95.438	154.755	-85.977	-0.775	94.835	119.186	-101.661	-55.635	209.684	194.543	216.307	-57.235	7.233	194.276	0.00032872	0.00074361	0.00064938	924.04	1.4464e-05	1.9247e-05	795.39	252.67	1.2865e-05	1.8556e-05	245.58	70.704	75.467	29.12	9.7976e-06	33.196	0.017984	0.029897	0.0084311	1096.6	0.00031515	0.00033775	874.25	278.96	0.00029511	0.00033833	295.52	88.647	104.04	34.93	0.00031015	41.071	-23.747	163.093	-44.448	-110.245	164.525	-43.579	-110.718	-104.577	-3.264	-101.902	-106.700	-102.050	-99.196	-95.061	226.112	-97.692	-8191	255	
14546.656	1	1	0	0	0.044704	0.17966	0.27574	0.11779	0.16019	0.24617	0.34388	0.22085	0.2536	0.14423	0.2118	0.19609	0.13936	0.13822	0.14217	0.078083	-1.7521	-2.0021	-2.7042	-1.8813	-2.3146	-2.6896	-1.975	-2.5792	-2.1875	-1.9042	-2.8187	-2.1375	-2.4292	-2.6708	-1.8083	-2.7125	-91.706	-82.697	-100.939	-86.399	101.117	-44.424	137.930	-30.507	-43.267	153.711	134.967	199.492	-121.810	216.579	-64.277	148.784	0.00027008	0.0004019	0.00030952	914.79	1.1533e-05	2.6768e-05	797.96	251.22	1.6112e-05	1.6469e-05	247.23	71.202	76.012	29.105	8.3414e-06	33.405	0.018117	0.030055	0.0084315	1095.5	0.00031972	0.00034122	877.97	279.08	0.00030146	0.00034238	295.45	88.934	104.78	34.917	0.0003126	41.314	-118.418	184.162	10.834	-109.666	-58.710	42.263	-111.068	-104.532	138.509	-65.887	-106.911	-101.856	-100.120	-94.540	82.446	-97.428	-8191	255	
14546.751	1	1	0	0	0.19589	0.024199	0.22449	0.24425	0.30474	0.2698	0.17194	0.019282	0.10895	0.2597	0.27412	0.20078	0.090625	0.17728	0.19797	0.21078	-1.9125	-2.0083	-2.4979	-1.8854	-2.1021	-2.6292	-1.8396	-2.4521	-2.2625	-1.8687	-2.7167	-2.1708	-2.2	-2.5979	-1.7396	-2.6875	-122.108	-64.448	-61.240	54.341	174.570	164.861	157.181	69.978	205.951	-94.190	30.882	-110.520	-70.518	-115.686	217.148	179.607	0.00033629	0.00068126	0.0005873	914.6	2.2686e-05	2.2905e-05	801.26	252.16	1.2565e-05	2.8219e-05	249.42	72.47	75.441	29.235	9.8727e-06	33.696	0.018528	0.030577	0.00849	1099.7	0.00032401	0.00034234	879.21	280.42	0.00030602	0.00034294	297.76	90.043	105.12	35.123	0.00031107	41.69	-44.167	237.365	35.227	-109.734	-85.783	-48.807	-110.561	-104.415	84.357	-2.911	-106.532	-102.094	-99.778	-94.111	15.465	-97.738	-8191	255	
14546.847	1	1	0	0	0.24222	0.13608	0.13356	0.21654	0.28982	0.093588	0.11582	0.33218	0.17587	0.015682	0.15082	0.32792	0.13169	0.1241	0.34663	0.029703	-1.9729	-1.8333	-2.5042	-2.1979	-2.0312	-2.7042	-2.1083	-2.5563	-2.5438	-1.7563	-2.6354	-2.2146	-1.9813	-2.8479	-1.8333	-2.3937	114.107	142.265	-113.203	-89.793	-95.630	20.549	143.055	204.446	-44.528	-75.022	-63.543	-108.507	107.699	-77.382	163.231	191.310	0.00030397	0.00037225	0.00018685	923.12	9.016e-06	2.2828e-06	796.95	251.79	9.9781e-06	2.3977e-05	244.68	70.99	76.292	29.018	1.6153e-05	32.804	0.018682	0.030631	0.008484	1103.5	0.00032544	0.00034159	876.76	280.51	0.00030471	0.00033982	294.93	88.965	104.69	34.893	0.0003097	41.115	-75.288	-57.531	43.020	-110.625	68.241	164.254	-110.920	-104.500	55.077	5.513	-106.245	-102.183	-99.955	-94.539	98.929	-97.712	-8191	255	
14546.943	1	1	0	0	0.409	0.15337	0.091772	0.40713	0.19614	0.076511	0.14937	0.3566	0.19728	0.12799	0.27746	0.1447	0.11941	0.12163	0.21694	0.10966	-1.9729	-1.9583	-2.5917	-2.2333	-2.0479	-2.8083	-2.1396	-2.3479	-2.4625	-1.8625	-2.4958	-2.2625	-1.9854	-2.6292	-2.0271	-2.1646	134.165	101.734	175.234	205.133	-100.990	178.253	112.668	234.911	-2.663	-31.754	223.259	128.318	133.550	-104.468	-2.757	-4.531	0.00033801	0.00053637	0.00046978	911.42	5.1513e-06	1.4062e-05	790.91	251.78	3.2979e-06	2.3695e-05	244.48	70.761	74.738	29.016	1.8293e-05	32.776	0.018649	0.030057	0.0084397	1100.1	0.00032563	0.0003398	868.07	279.65	0.00030474	0.00033878	293.99	88.645	104.27	34.828	0.00031084	41.053	-67.194	170.900	198.364	-110.324	-59.211	-8.572	-110.968	-104.680	23.088	-101.304	-106.573	-102.155	-99.745	-94.924	-54.015	-97.641	-8191	255	
14547.039	1	1	0	0	0.10519	0.1917	0.28522	0.044697	0.10701	0.1333	0.21096	0.27385	0.10519	0.22188	0.2221	0.27831	0.085845	0.22972	0.034918	0.046888	-2.1083	-1.6792	-2.5	-2.3208	-2.0563	-2.7979	-2.1417	-2.3521	-2.6021	-1.9208	-2.5354	-2.4125	-1.7437	-2.6937	-2.1437	-2.0875	207.678	-2.690	-89.586	130.745	190.966	121.632	142.864	204.977	213.866	123.235	233.127	-116.140	-47.177	-122.364	139.692	63.897	0.00025525	0.001223	0.00037089	912.79	1.6579e-05	4.8841e-06	790.21	249.75	1.3718e-05	9.6086e-06	244.1	70.455	75.995	28.849	1.2998e-05	32.978	0.018603	0.030042	0.0084922	1100.6	0.00032396	0.00033927	872.32	278.61	0.00030281	0.00033805	293.91	88.651	104.6	34.785	0.00031317	41.179	-90.624	-85.722	42.153	-110.085	138.509	-90.136	-111.021	-104.607	59.057	-42.630	-106.516	-101.857	-99.267	-94.126	128.990	-97.689	-8191	255	
14547.135	1	1	0	0	0.13779	0.1497	0.23797	0.21551	0.058682	0.34455	0.04028	0.12103	0.24284	0.065048	0.14283	0.3208	0.17652	0.28383	0.077146	0.22473	-2.1875	-1.85	-2.3896	-2.3854	-1.8417	-2.6896	-2.4021	-2.0896	-2.6104	-2.075	-2.4229	-2.5958	-1.8083	-2.7458	-2.1521	-2.2167	128.780	128.073	137.517	107.853	-69.284	157.826	213.147	205.325	-64.853	148.455	212.382	-81.635	-51.588	231.113	31.697	-53.925	0.00016994	0.00026237	0.00044372	917.91	5.3057e-06	1.9711e-05	796.04	251.89	1.6092e-05	2.3414e-05	245.33	70.557	75.391	29.152	2.1009e-05	33.359	0.018513	0.029953	0.0085468	1101.5	0.00032206	0.00033998	874.93	280.16	0.00030053	0.0003389	295.92	88.812	104.56	34.926	0.00031426	41.568	-34.403	61.848	-34.383	-110.035	0.965	230.974	-110.909	-104.296	208.790	21.109	-106.400	-101.519	-100.045	-94.535	186.444	-97.810	-8191	255	
14547.256	1	1	0	0	0.19109	0.1842	0.10985	0.13606	0.20277	0.15514	0.17001	0.25718	0.22102	0.27514	0.26934	0.049087	0.30321	0.25285	0.14587	0.19403	-2.1396	-1.9813	-2.0438	-2.6729	-1.8042	-2.5208	-2.4292	-1.9479	-2.6479	-2.0167	-2.3063	-2.7083	-1.8229	-2.4333	-2.4	-1.9042	21.907	-24.096	227.990	-74.840	237.121	82.061	130.990	-95.268	-101.525	145.098	222.844	99.995	132.158	211.615	-119.266	167.718	0.00021421	0.00043953	0.00020673	911.06	1.8296e-05	2.0518e-05	797.73	253.16	8.2693e-06	7.2509e-06	245.48	71.153	75.796	29.352	1.8253e-05	32.987	0.018568	0.03016	0.008642	1100.8	0.00032129	0.00034009	879.38	280.79	0.00030067	0.00033882	297.26	89.011	104.16	34.956	0.000314	41.275	-77.268	-94.811	-117.991	-110.080	28.007	167.925	-111.200	-104.810	101.919	-45.159	-106.646	-102.072	-99.884	-94.477	-0.941	-97.267	-8191	255	
14547.352	1	1	0	0	0.11976	0.056618	0.13962	0.24038	0.21749	0.12199	0.11613	0.2205	0.22624	0.22386	0.18616	0.29313	0.11443	0.16648	0.18046	0.078161	-2.2208	-1.9438	-2.0729	-2.6917	-1.8708	-2.5375	-2.5062	-1.7958	-2.7208	-1.85	-2.1312	-2.7146	-1.8708	-2.5021	-2.4479	-1.8687	202.117	44.628	23.806	169.765	161.661	34.337	56.084	189.302	92.611	-32.532	133.399	-56.998	203.818	-102.586	23.493	124.479	0.00016792	0.0020803	0.00044938	917.49	1.7997e-05	2.3007e-05	791.28	249.62	1.9412e-05	2.8811e-05	242.7	70.15	74.957	29.144	9.0143e-06	32.937	0.0182	0.030106	0.0085868	1099.3	0.00031844	0.00033994	874.48	278.31	0.0002993	0.00034032	294.29	88.052	103.52	34.953	0.00031365	40.926	-76.758	167.536	134.065	-109.828	62.977	-102.485	-110.552	-104.478	123.631	41.269	-106.351	-101.855	-99.443	-93.956	-121.234	-97.271	-8191	255	
14547.448	1	1	0	0	0.080602	0.13895	0.25851	0.29361	0.054351	0.095528	0.15137	0.1555	0.19104	0.060501	0.17469	0.19128	0.24547	0.030291	0.0277	0.27751	-2.2562	-2.1146	-2.1	-2.7771	-1.8854	-2.2417	-2.9125	-1.8521	-2.5875	-2.1146	-1.9083	-2.6188	-1.9146	-2.1542	-2.7687	-1.9208	12.811	68.999	-77.452	216.926	-53.991	47.417	113.965	-120.855	227.170	-41.907	133.580	168.374	12.524	-82.476	112.890	163.712	0.00026006	0.0016548	0.00020312	917.06	7.5328e-06	1.5014e-05	792.65	252.77	1.4784e-05	4.8396e-06	244.56	70.612	75.128	29.209	1.3427e-05	32.593	0.018178	0.030061	0.0085109	1096.7	0.00031819	0.00034093	871.88	278.84	0.00029836	0.00033819	293.34	87.985	103.69	34.96	0.00031317	40.797	-73.988	-32.590	-97.783	-110.168	169.109	77.109	-110.934	-104.304	25.177	-83.824	-106.268	-102.042	-99.352	-93.896	134.820	-98.009	-8191	255	
14547.520	1	1	0	0	0.098742	0.20134	0.11564	0.15426	0.25483	0.061921	0.182	0.0033055	0.13068	0.12031	0.24521	0.17657	0.16925	0.23697	0.32004	0.2524	-2.0625	-2.2354	-2.0229	-2.7583	-2.1208	-2.1625	-2.7687	-1.9167	-2.5875	-2.3042	-2.1458	-2.8167	-2.2021	-2.3625	-2.5958	-2.0833	-78.717	66.478	230.952	168.194	47.403	26.611	-120.639	70.764	19.718	221.688	200.339	133.930	134.155	95.368	-91.198	98.090	0.00034324	0.0020537	0.0002309	909.95	2.3245e-05	9.7304e-06	792.99	251.12	1.2735e-05	8.077e-06	242.74	69.935	74.842	29.146	2.2261e-05	32.679	0.018236	0.030273	0.0085146	1097.4	0.00031941	0.00034116	870.95	277.99	0.00030012	0.00033921	293.51	87.842	104.01	34.935	0.00030929	40.985	-100.720	83.567	155.824	-109.687	59.578	-32.478	-110.630	-104.432	9.375	18.511	-106.229	-101.118	-99.016	-94.449	80.489	-96.972	-8191	255	
14547.616	1	1	0	0	0.22312	0.23063	0.12655	0.13313	0.043647	0.17936	0.35456	0.16525	0.068451	0.1372	0.14293	0.29032	0.18756	0.25795	0.25774	0.12054	-2.1167	-2.2792	-1.7917	-2.7188	-2.175	-1.9958	-2.75	-2.025	-2.4104	-2.5417	-1.9625	-2.6604	-2.1146	-2.0062	-2.7333	-1.7458	201.009	-3.981	128.973	-76.146	131.464	201.217	181.312	173.315	-16.979	44.125	156.811	-45.807	93.168	-80.423	36.594	72.386	0.00020311	0.0010551	0.00041692	916.87	1.5346e-05	2.1634e-05	796.72	252.07	5.5546e-06	6.1534e-06	244.66	71.453	76.158	29.449	1.3445e-05	32.805	0.018319	0.030174	0.0085089	1096.1	0.0003224	0.00034201	873.63	279.35	0.00030305	0.00033921	294.81	88.582	104.35	35.103	0.00030831	40.996	-67.594	-56.793	90.308	-109.711	99.401	92.459	-110.234	-104.186	30.387	56.031	-105.957	-101.616	-99.535	-94.015	149.580	-97.164	-8191	255	
14547.735	1	1	0	0	0.24001	0.13917	0.24498	0.058123	0.13337	0.27475	0.20594	0.27112	0.084557	0.22237	0.22404	0.077844	0.1477	0.20288	0.18793	0.11457	-1.7458	-2.4979	-1.7771	-2.5208	-2.2292	-1.9979	-2.9062	-1.9875	-2.1792	-2.5417	-1.8292	-2.5062	-2.4583	-2.05	-2.6583	-2.1604	152.725	131.151	164.101	168.333	235.136	-114.053	204.156	107.897	142.504	125.517	149.614	-111.290	90.807	-39.799	4.684	-56.779	0.00026815	0.0011249	0.00037613	921.2	1.0545e-05	1.8595e-05	787.37	249.77	2.0217e-05	1.017e-05	241.72	70.465	75.126	28.79	1.9138e-05	32.327	0.018437	0.030164	0.0082969	1099	0.00031769	0.00033551	868.12	277.62	0.00029477	0.00032998	291.54	87.534	103.18	34.525	0.00029994	40.342	228.444	-99.500	-50.549	-109.937	201.778	-71.509	-110.617	-104.411	-20.184	-50.377	-106.139	-101.659	-99.568	-93.679	12.864	-97.276	-8191	255	
14547.831	1	1	0	0	0.23588	0.21063	0.20863	0.1431	0.19248	0.17761	0.064561	0.16591	0.1965	0.045322	0.15529	0.16104	0.23449	0.09832	0.04925	0.22954	-1.7042	-2.5875	-1.9479	-2.3937	-2.35	-1.9312	-2.7271	-2.1813	-1.9958	-2.5979	-1.9937	-2.3708	-2.4146	-1.8438	-2.625	-2.1854	-19.753	219.717	-36.301	191.204	115.415	8.701	233.662	130.514	213.627	-76.916	47.993	129.348	171.956	-102.783	-60.239	25.441	0.00014899	0.001617	0.0001005	914.4	8.247e-06	1.413e-05	795.07	250.79	1.6517e-05	1.8993e-05	244.12	69.409	75.822	28.74	6.5393e-06	32.269	0.018202	0.029164	0.0081987	1093.5	0.00031432	0.00033096	867.73	277.26	0.00029632	0.00032945	291.44	87.322	103.02	34.371	0.00030089	40.231	-52.760	12.464	185.012	-109.945	-14.320	83.918	-110.388	-104.214	108.935	2.224	-106.628	-101.426	-100.058	-94.202	25.578	-97.504	-8191	255	
14547.927	1	1	0	0	0.067823	0.41497	0.17807	0.10451	0.054878	0.090728	0.28042	0.22772	0.14092	0.14915	0.2094	0.34551	0.1041	0.22266	0.28345	0.14301	-1.7604	-2.6	-1.8479	-2.3292	-2.3229	-1.9562	-2.6208	-2.3312	-1.8375	-2.6333	-2.0354	-2.3146	-2.6479	-1.95	-2.4646	-2.2396	215.670	135.726	235.909	229.373	78.264	-9.004	188.010	127.538	143.520	212.937	114.273	144.005	-114.639	180.745	189.552	216.202	0.00034049	0.00091614	8.0248e-05	917.24	1.9212e-05	4.9249e-06	796.21	251.55	1.0834e-05	3.6816e-05	246.45	70.315	74.879	28.756	1.2121e-05	32.732	0.01802	0.029037	0.0082253	1094.9	0.00031327	0.00032809	870.42	278.13	0.00029631	0.00032938	292.14	87.694	102.99	34.44	0.00030469	40.579	-78.957	57.034	74.341	-109.704	1.261	60.266	-110.595	-104.428	18.797	-9.140	-106.582	-101.537	-99.127	-94.016	201.341	-97.741	-8191	255	
14548.048	1	1	0	0	0.15622	0.30203	0.28892	0.32336	0.21449	0.18739	0.2609	0.098351	0.23115	0.23599	0.26837	0.051114	0.12073	0.046491	0.16061	0.11389	-1.4104	-2.7417	-1.8104	-2.3646	-2.3958	-1.8833	-2.7021	-2.1583	-1.9333	-2.7833	-2.1188	-2.0438	-2.7417	-1.9229	-2.3875	-2.4313	89.053	171.557	-116.889	176.141	41.605	140.688	160.430	117.682	-86.177	-90.390	159.572	144.752	-95.210	204.912	-61.209	111.604	0.00032185	0.0011771	0.00035948	914.93	1.4919e-05	1.6137e-06	797.28	251.13	6.2568e-06	1.1736e-06	244.89	70.598	74.73	29.12	1.4244e-05	32.877	0.018151	0.029034	0.0082903	1099.2	0.0003141	0.00033046	874.3	278.46	0.00029561	0.00032849	294.13	88.33	103.28	34.604	0.00030589	40.915	-88.854	59.220	-99.408	-109.817	-77.748	77.721	-110.605	-104.673	209.975	156.308	-106.873	-101.820	-99.847	-94.536	106.345	-97.517	-8191	255	
14548.144	1	1	0	0	0.27275	0.28999	0.23259	0.22206	0.13759	0.21308	0.15708	0.041736	0.22864	0.14974	0.13782	0.050171	0.24141	0.077935	0.044305	0.24161	-1.3708	-2.5271	-1.7271	-2.0229	-2.6	-1.7917	-2.6	-2.5542	-1.8271	-2.5854	-2.0104	-2.1354	-2.6521	-1.9312	-2.3542	-2.4417	-97.729	-117.734	161.777	209.901	-79.353	15.708	86.661	174.149	214.324	6.741	-11.298	-40.760	196.825	-100.939	-110.985	237.454	0.0002421	0.0022314	0.00035111	913.99	1.4603e-05	7.293e-06	798.81	251.19	3.8841e-06	1.02e-05	244.08	71.261	75.194	28.877	9.0466e-06	32.392	0.018054	0.029279	0.0083608	1099.2	0.00031312	0.00033179	877.82	278.51	0.00029544	0.00033209	293.8	88.273	103	34.509	0.00030862	40.573	-118.891	-18.137	-79.747	-109.695	155.276	-11.042	-110.540	-104.241	3.782	84.778	-106.686	-101.297	-99.834	-94.017	-90.759	-97.078	-8191	255	
14548.216	1	1	0	0	0.12711	0.21089	0.056224	0.078185	0.21747	0.25065	0.41078	0.26211	0.15501	0.070895	0.14483	0.15814	0.08958	0.08001	0.076258	0.12804	-1.3792	-2.5792	-2.3104	-2.1354	-2.6021	-1.8792	-2.4542	-2.4729	-1.7563	-2.4292	-2.3729	-2.0229	-2.6375	-1.9062	-2.1562	-2.7188	-7.149	85.612	-47.924	144.097	184.614	224.937	138.296	235.230	53.198	-103.584	226.646	169.800	34.474	211.173	77.348	-76.867	0.00034165	0.0013675	0.00037295	912.13	1.3282e-05	1.4237e-05	790.02	250.31	3.0402e-06	1.1406e-05	241.45	69.555	74.612	28.881	1.416e-05	32.4	0.018013	0.029437	0.008322	1093.7	0.00030998	0.00033071	870.44	277.33	0.00029227	0.00033412	291.74	87.42	102.88	34.462	0.0003084	40.394	235.712	114.156	235.160	-109.745	219.504	117.340	-110.622	-104.274	10.427	65.949	-106.233	-101.532	-99.437	-94.567	96.682	-97.514	-8191	255	
14548.336	1	1	0	0	0.18462	0.070079	0.12778	0.18732	0.11098	0.13549	0.26075	0.18729	0.13678	0.1813	0.099424	0.19082	0.18416	0.15701	0.20302	0.092838	-1.4667	-2.3417	-2.3292	-1.8521	-2.6375	-1.9396	-2.0521	-2.7938	-1.8854	-2.4729	-2.4813	-1.8604	-2.6708	-2.0479	-2.1604	-2.7875	171.867	19.156	108.891	-56.646	95.080	159.496	63.008	193.944	-104.604	-18.542	146.190	-77.790	174.674	-94.613	-111.327	121.713	0.00022731	0.00095666	0.00056418	915.53	1.6653e-05	1.361e-05	792.7	250.88	2.1044e-06	1.187e-05	242.33	70.058	74.628	28.861	9.5312e-06	32.418	0.017991	0.029524	0.0083844	1094.2	0.00031377	0.0003342	870.96	277.47	0.00029486	0.00033381	291.93	87.586	102.85	34.486	0.00030904	40.31	-56.695	70.855	149.167	-109.365	-50.172	89.734	-110.294	-104.386	146.229	105.281	-106.352	-101.635	-99.734	-94.012	-105.970	-97.311	-8191	255	
14548.433	1	1	0	0	0.21017	0.16722	0.084701	0.19872	0.19663	0.26482	0.27126	0.070775	0.18157	0.12726	0.083834	0.16963	0.22678	0.16056	0.3128	0.086093	-1.3729	-2.2687	-2.3354	-1.8708	-2.6271	-2.1292	-2.1458	-2.6729	-1.9146	-2.4625	-2.4688	-1.7812	-2.5167	-2.2604	-1.7875	-2.7875	132.150	147.502	-96.123	-80.384	2.552	16.007	190.703	233.814	72.141	54.583	-45.249	87.247	-83.350	-60.475	231.197	158.550	0.00015306	0.0010937	0.00014337	913.78	1.4254e-05	1.3998e-05	796.25	252.17	7.9014e-06	1.0977e-05	247.2	70.917	75.014	29.032	7.7448e-06	32.597	0.018093	0.029856	0.0083935	1093.2	0.00031393	0.0003369	872.9	278.34	0.0002959	0.00033681	294.48	88.253	103.31	34.748	0.00030766	40.7	-37.122	-9.419	214.301	-109.756	-14.490	-15.104	-110.528	-104.213	103.223	234.101	-106.460	-101.334	-98.574	-94.004	-8.595	-97.023	-8191	255	
14548.529	1	1	0	0	0.31382	0.05022	0.19704	0.21701	0.20269	0.031368	0.088485	0.10659	0.42932	0.029428	0.24913	0.20309	0.26408	0.15413	0.085329	0.087958	-1.5833	-2.2917	-2.5333	-1.8167	-2.5792	-2.2958	-2.0438	-2.6896	-1.9146	-2.2	-2.7104	-1.9896	-2.6375	-2.4375	-1.8979	-2.7417	121.492	-42.935	133.768	110.754	190.353	11.221	12.038	10.200	70.566	72.523	58.953	162.176	154.891	215.451	76.998	192.146	0.00020347	0.00070815	0.00032718	912.22	1.0822e-05	6.3114e-06	802.25	253.44	6.9264e-06	1.6675e-05	246.36	71.388	76.393	29.231	5.8045e-06	33.12	0.018195	0.029895	0.0083854	1097.7	0.00031741	0.00033687	879.23	279.39	0.0002989	0.00033743	295.51	88.987	104.49	35.056	0.00030766	41.145	-60.226	-34.853	-11.631	-109.516	7.150	196.059	-110.367	-103.964	-48.081	-41.664	-106.402	-100.826	-99.880	-94.050	31.082	-97.012	-8191	255	
14548.649	1	1	0	0	0.18495	0.13308	0.091554	0.14276	0.10592	0.20877	0.070603	0.086322	0.081541	0.29165	0.077546	0.22448	0.17106	0.15965	0.21967	0.074772	-1.7104	-2.0917	-2.6146	-1.7958	-2.4479	-2.2729	-1.8937	-2.7667	-2.2792	-2.2208	-2.7583	-1.95	-2.2729	-2.5771	-1.7542	-2.675	204.511	133.114	87.005	-117.601	-113.865	232.771	-51.384	130.270	35.785	-109.572	-58.308	70.075	80.306	227.203	68.009	216.695	0.00030657	0.0021993	0.00051226	922.9	1.9666e-05	9.911e-06	799.27	253.5	1.8889e-05	2.6696e-05	243.51	71	74.697	28.885	1.4693e-05	32.737	0.018319	0.030193	0.0083849	1099.6	0.00031867	0.00033846	873.28	279.67	0.00029918	0.000337	293.31	88.431	103.67	34.644	0.0003066	40.748	-101.369	7.394	230.231	-109.650	-32.772	160.934	-110.163	-104.119	97.287	42.165	-106.571	-101.582	-99.607	-94.458	84.435	-97.131	-8191	255	
14548.744	1	1	0	0	0.31057	0.14584	0.35336	0.10802	0.11081	0.077487	0.23249	0.16477	0.26468	0.14787	0.15619	0.14335	0.23115	0.16801	0.29166	0.23307	-1.6625	-1.8542	-2.5167	-2.1354	-2.4354	-2.4833	-1.9229	-2.5708	-2.0771	-1.9813	-2.8042	-1.9438	-2.2125	-2.5479	-1.7854	-2.6583	161.423	-76.423	65.437	195.935	-112.372	35.123	-85.401	-88.681	64.341	98.642	233.920	-69.348	176.795	-108.047	-72.274	-96.903	0.00033429	0.00025576	0.0002032	911.9	1.2911e-05	1.0387e-05	792.4	250.15	2.3626e-05	1.7647e-06	245.05	70.682	75.219	28.86	6.4323e-06	32.454	0.018228	0.029946	0.0083477	1095.3	0.00032124	0.00033472	870.33	277.91	0.00030089	0.00033504	292.84	88.093	103.26	34.588	0.00030695	40.681	-64.052	-99.241	36.521	-109.256	154.953	1.779	-110.127	-103.981	10.094	133.595	-106.201	-101.570	-99.077	-94.060	-77.248	-96.406	-8191	255	
14548.815	1	1	0	0	0.18387	0.050304	0.1295	0.018773	0.046099	0.26523	0.33885	0.17114	0.032277	0.14247	0.20226	0.18398	0.10949	0.25748	0.2975	0.27449	-1.7687	-1.9583	-2.5979	-2.1063	-2.2875	-2.5875	-2.0208	-2.5583	-2.4437	-1.8917	-2.9021	-2.1021	-2.3146	-2.8667	-1.7354	-2.6437	-17.139	123.275	90.356	139.772	-46.044	-59.498	180.608	207.798	-36.638	5.289	92.179	-70.071	-66.664	220.178	-35.353	131.609	0.00015961	0.0005201	0.00024552	908.44	2.7835e-05	7.7272e-06	790.39	250.04	9.388e-06	1.2992e-05	243.51	70.606	74.573	28.654	1.5997e-05	32.697	0.01837	0.029629	0.0083633	1096.9	0.00031985	0.0003349	870.07	278.36	0.00029846	0.00033203	293.46	88.167	103.36	34.565	0.0003078	40.916	-42.004	23.339	220.847	-109.758	23.233	197.437	-110.262	-103.951	138.266	92.537	-106.436	-101.678	-98.787	-93.722	51.887	-96.234	-8191	255	
14548.912	1	1	0	0	0.065226	0.038636	0.15048	0.16214	0.069095	0.20558	0.24814	0.34826	0.15142	0.14666	0.24991	0.20241	0.23712	0.40853	0.24408	0.035034	-2.0292	-1.7708	-2.5062	-2.1333	-2.125	-2.7625	-2.1104	-2.5979	-2.3021	-1.8042	-2.7562	-2.1042	-1.8604	-2.5229	-1.8104	-2.25	128.128	-5.432	27.351	189.579	-120.375	230.891	-79.484	-46.844	97.207	-27.514	123.587	196.818	154.885	230.104	-12.330	50.237	0.00044444	0.0011484	0.00040131	915.87	2.3503e-05	9.9935e-06	803.08	251.86	1.0525e-05	1.636e-05	246.57	70.563	75.669	29.027	1.579e-05	33.215	0.018131	0.029633	0.0083757	1100.9	0.00031893	0.00033275	879.2	279.56	0.00029856	0.00033146	295.3	88.828	103.77	34.723	0.00030808	41.179	-62.400	115.909	164.861	-109.758	-29.769	-1.101	-110.180	-103.892	34.796	8.558	-106.012	-101.190	-99.177	-93.537	-75.362	-97.023	-8191	255	
14549.032	1	1	0	0	0.11426	0.42323	0.19397	0.31664	0.057438	0.073569	0.084748	0.52204	0.06946	0.30725	0.24148	0.12616	0.1612	0.23972	0.13464	0.21771	-2.0479	-1.8083	-2.4729	-2.2167	-2.0125	-2.7958	-2.1604	-2.3021	-2.5687	-1.85	-2.4542	-2.2792	-2.0604	-2.6729	-1.9104	-2.2792	-11.603	-95.564	116.220	-91.522	-26.093	181.993	144.068	191.709	-105.885	144.559	-98.259	146.328	227.356	144.125	215.494	148.511	0.00021024	0.0015395	0.00054951	921.91	6.57e-06	2.0618e-05	804.85	252.46	5.9095e-06	1.497e-05	247.22	70.664	75.251	28.871	1.9993e-05	32.782	0.018157	0.029581	0.0083482	1103.1	0.00031729	0.00033541	878.76	279.72	0.00029254	0.00033092	295.29	88.388	103.26	34.526	0.00030746	40.831	-82.434	75.866	124.270	-110.059	115.283	88.661	-110.707	-104.108	220.134	-100.013	-106.040	-101.268	-98.487	-93.634	-31.642	-96.316	-8191	255	
14549.128	1	1	0	0	0.20002	0.15915	0.0086241	0.15515	0.11053	0.076908	0.12984	0.1169	0.16144	0.055491	0.34698	0.098606	0.1364	0.050172	0.098646	0.13388	-2.2771	-1.9833	-2.5062	-2.3417	-1.7583	-2.7104	-2.05	-2.1479	-2.6688	-1.9167	-2.5687	-2.4521	-1.8687	-2.7875	-2.1604	-2	182.908	180.056	55.513	-118.072	-15.024	200.016	153.164	-77.278	42.844	0.722	208.203	-87.619	-60.331	-12.109	190.653	3.324	0.00031266	0.00049978	0.00049474	923.31	1.8699e-05	9.8269e-06	791.84	249.94	8.7124e-06	2.7324e-05	243.47	70.502	74.038	28.795	7.2987e-06	32.523	0.01808	0.029535	0.0084401	1098.4	0.00031519	0.00033462	870.6	277.51	0.0002956	0.00033435	292.35	87.516	102.79	34.553	0.00030831	40.481	-91.537	169.197	132.796	-109.472	186.027	83.361	-110.147	-104.271	-66.831	75.475	-106.311	-101.088	-99.304	-94.164	-83.228	-96.628	-8191	255	
14549.225	1	1	0	0	0.22503	0.18068	0.082201	0.11357	0.17059	0.22513	0.29965	0.052918	0.18472	0.25845	0.042297	0.14769	0.15336	0.17939	0.24247	0.092707	-2.3187	-1.9146	-2.2771	-2.6271	-1.9417	-2.7208	-2.3583	-2.1521	-2.6958	-1.9646	-2.2938	-2.5479	-1.8062	-2.6958	-2.3542	-1.9667	59.387	196.877	158.576	157.049	218.103	236.047	189.697	-57.478	83.512	122.675	-35.650	36.602	92.808	31.637	-40.534	49.008	0.00030709	0.0011553	0.00066939	921.64	1.3337e-05	9.2877e-06	792.93	249.27	1.1243e-05	1.0841e-05	243.36	70.691	74.089	28.718	7.4166e-06	32.807	0.018055	0.029776	0.008405	1093.7	0.00031366	0.00033666	872.16	276.51	0.0002964	0.00033555	294.02	88.317	102.61	34.498	0.00031076	40.756	-93.903	108.748	-69.653	-109.273	79.035	41.825	-110.479	-103.739	-116.089	-27.964	-105.870	-101.144	-99.067	-93.669	129.569	-96.846	-8191	255	
14549.321	1	1	0	0	0.096244	0.14882	0.34742	0.23309	0.31792	0.19258	0.12672	0.1738	0.066709	0.33633	0.11202	0.15584	0.32322	0.10565	0.10143	0.29038	-2.3854	-1.9979	-2.15	-2.6958	-1.8417	-2.6604	-2.5187	-1.8583	-2.6542	-2.0396	-2.2917	-2.6688	-1.8708	-2.6021	-2.3875	-1.8417	161.283	22.904	223.865	152.032	123.230	-81.716	197.134	233.492	-95.295	-57.817	60.304	29.239	103.940	185.936	-8.044	232.765	0.000178	0.00091252	0.00048552	919.28	4.9576e-06	1.1805e-05	800.04	251.23	1.1196e-05	4.8771e-06	244.44	70.896	75.561	28.861	1.2511e-05	32.553	0.018059	0.029798	0.008441	1097.6	0.00031647	0.00033833	875.56	277.72	0.00029543	0.00033315	295.07	88.55	103.11	34.458	0.00030757	40.765	-51.586	-78.510	-83.113	-109.336	31.911	-45.360	-110.658	-103.827	17.695	63.607	-106.126	-101.605	-99.382	-93.751	-38.182	-96.548	-8191	255	
14549.441	1	1	0	0	0.21533	0.13795	0.10995	0.22037	0.20536	0.2896	0.13372	0.2866	0.11661	0.25703	0.11933	0.15776	0.40728	0.18684	0.32777	0.11904	-2.2542	-2.0979	-2.3104	-2.6958	-2.0333	-2.5375	-2.3479	-1.8333	-2.6333	-2.2979	-2.1396	-2.8167	-1.9396	-2.5333	-2.4917	-1.8229	217.008	-38.463	44.571	-115.200	130.480	135.411	229.404	168.694	218.235	161.033	180.485	-100.535	-101.718	211.135	70.099	159.303	0.00018545	0.00092243	0.00055368	923.54	1.3418e-05	1.8938e-05	802.08	252.04	5.6218e-06	8.3209e-06	247.29	71.313	75.46	28.809	1.1435e-05	32.933	0.018177	0.029895	0.0084604	1098.9	0.00031697	0.00033711	881.72	278.59	0.00029927	0.00033559	296.47	88.754	103.62	34.594	0.00030646	40.852	202.168	-10.147	-8.984	-109.691	175.096	23.429	-110.494	-103.815	52.855	-27.335	-106.278	-100.692	-99.616	-93.721	114.297	-96.913	-8191	255	
14549.513	1	1	0	0	0.15257	0.25834	0.18593	0.17757	0.15174	0.30387	0.31035	0.14103	0.18904	0.23465	0.069455	0.26635	0.076926	0.34067	0.19646	0.15382	-2.1562	-2.225	-1.9521	-2.7167	-2.0833	-2.4917	-2.7271	-1.8271	-2.6562	-2.2021	-1.95	-2.7896	-2.0875	-2.4	-2.4938	-2.0333	-74.895	-38.531	2.380	234.886	164.751	-98.739	195.714	175.031	-83.385	-14.344	6.757	141.614	180.466	144.239	7.719	-106.802	0.00016949	0.001298	0.00042977	915.13	9.8479e-06	8.7611e-06	800.69	250.28	4.8507e-06	1.1782e-05	243.14	69.76	74.302	28.545	9.9857e-06	32.279	0.018398	0.029791	0.0083374	1099.1	0.00031823	0.00033586	875.33	277.12	0.00029955	0.00033509	292.13	87.862	102.59	34.381	0.00030482	40.478	-99.121	-48.344	-5.892	-109.272	79.642	69.580	-109.852	-103.702	-46.499	162.851	-106.055	-100.715	-98.831	-93.760	87.120	-96.533	-8191	255	
14549.609	1	1	0	0	0.3915	0.19035	0.10431	0.14172	0.24079	0.16978	0.18874	0.3004	0.020939	0.10656	0.15016	0.13291	0.036941	0.19303	0.064629	0.1899	-2	-2.3479	-1.9521	-2.7	-2.0792	-2.0792	-2.6771	-2.0062	-2.4458	-2.4313	-1.9167	-2.6646	-2.2375	-2.1333	-2.4729	-2.0563	146.002	42.934	-68.155	216.614	-53.139	147.454	164.049	226.006	14.069	-1.573	-19.426	202.546	172.082	-18.561	-50.767	184.690	0.00019847	0.00063966	0.00031082	917.24	4.3473e-06	1.1395e-05	794.5	248.51	2.9034e-06	4.8494e-06	240.95	69.711	73.917	28.766	1.5713e-05	32.761	0.018344	0.029662	0.0083626	1095.3	0.00031715	0.00033401	871.19	276.4	0.00029675	0.00033295	292.29	87.722	102.57	34.401	0.00030649	40.707	217.561	165.201	122.136	-108.976	113.685	36.972	-110.031	-103.742	35.341	230.311	-105.822	-100.630	-99.201	-93.748	-63.809	-97.542	-8191	255	
14549.730	1	1	0	0	0.13771	0.15426	0.17348	0.2443	0.13115	0.21517	0.069037	0.2857	0.30069	0.13136	0.28855	0.16825	0.11059	0.16031	0.19161	0.15981	-2.0958	-2.5833	-2.0292	-2.6104	-2.1542	-2.1521	-2.7417	-1.8667	-2.4667	-2.6437	-1.6833	-2.6521	-2.3958	-2.3521	-2.6708	-1.8875	1.672	28.366	162.559	150.775	135.792	-62.891	-9.318	206.161	138.511	-38.103	-87.219	147.523	167.274	215.204	-102.187	229.630	0.00024842	0.00096914	0.00022088	918.74	1.2772e-05	8.0428e-06	796.95	249.34	1.308e-05	9.774e-06	244.6	70.066	74.742	28.868	1.6826e-05	32.767	0.018302	0.029742	0.0084216	1100.3	0.00031881	0.00033799	874.04	277.51	0.00029959	0.00033343	293.59	88.098	103.26	34.618	0.00030833	40.838	-79.049	-30.129	27.974	-109.224	122.075	139.107	-110.611	-104.073	124.602	59.922	-106.081	-101.340	-99.283	-93.973	-50.138	-97.218	-8191	255	
14549.824	1	1	0	0	0.1466	0.047581	0.24732	0.16642	0.078444	0.14215	0.17131	0.2502	0.13918	0.10827	0.081527	0.054067	0.13984	0.12453	0.13968	0.25805	-1.9208	-2.625	-1.6896	-2.8542	-2.4062	-2.1562	-2.8375	-1.9958	-2.1229	-2.5271	-1.9042	-2.6042	-2.4396	-1.9646	-2.5229	-2.0896	206.162	85.033	-111.065	216.318	-86.431	225.210	97.166	115.235	109.728	49.666	156.286	22.667	0.836	81.973	230.398	45.069	0.00013604	0.00051283	0.00060219	921.92	2.51e-05	1.3395e-05	798.25	248.17	7.438e-06	7.3601e-06	245.95	70.599	75.767	29.024	1.362e-05	32.918	0.018312	0.02971	0.0084551	1105.1	0.0003203	0.00033697	879.85	277.47	0.00030183	0.00033616	296.08	88.56	103.59	34.795	0.00031275	41.166	-91.720	-67.084	-15.264	-109.306	47.759	-6.039	-110.479	-103.963	42.013	42.116	-106.064	-101.152	-98.673	-93.512	-80.231	-97.272	-8191	255	
14549.920	1	1	0	0	0.10987	0.090234	0.06295	0.19592	0.21128	0.2382	0.47848	0.22806	0.11679	0.29576	0.080269	0.1004	0.25545	0.11154	0.10677	0.27721	-1.8083	-2.6958	-1.8937	-2.5229	-2.3604	-1.9083	-2.8812	-2.2083	-1.8875	-2.5062	-2.0833	-2.425	-2.3042	-1.7521	-2.5708	-2.0938	-23.211	-106.040	44.552	177.751	150.151	148.898	151.640	-33.974	-5.720	147.829	-72.754	36.078	98.000	9.409	118.695	183.780	0.00021389	0.0013859	8.7546e-05	912.51	1.8316e-05	1.6354e-05	794.9	250.79	7.3492e-06	4.977e-06	244.79	71.325	74.682	29.178	1.0454e-05	32.684	0.01848	0.029998	0.0085383	1105.2	0.00032022	0.00033886	877.94	278.71	0.00030002	0.00033622	294.52	88.727	103.52	34.873	0.00031224	40.977	-116.254	126.550	-113.966	-109.338	4.131	4.808	-109.993	-103.949	-39.263	31.266	-106.168	-101.016	-98.737	-93.583	139.817	-97.026	-8191	255	
14550.016	1	1	0	0	0.20701	0.1149	0.3152	0.33091	0.158	0.026067	0.24425	0.34702	0.1895	0.060676	0.08108	0.12709	0.052469	0.12155	0.40967	0.14209	-1.6792	-2.6833	-1.8833	-2.3625	-2.6167	-2.0312	-2.7146	-2.3479	-2.1729	-2.6188	-1.8625	-2.1937	-2.5375	-2.0208	-2.5604	-2.4875	98.113	-117.887	-84.409	232.727	174.932	182.056	166.709	144.301	99.913	154.882	215.032	223.167	107.553	-35.495	88.559	53.598	6.9398e-05	0.00056612	0.0003444	916.96	3.1413e-05	8.9296e-06	786.82	248.01	1.8402e-06	9.036e-06	239.37	69.805	74.532	29.025	8.205e-06	32.691	0.018353	0.030046	0.0085322	1100	0.00031973	0.0003385	868.18	277.24	0.00029863	0.00033606	291.01	87.596	103.08	34.695	0.00031183	40.705	-63.371	-27.414	41.324	-109.123	-17.330	79.713	-110.159	-103.921	32.383	82.176	-105.899	-100.955	-99.196	-93.892	19.783	-96.763	-8191	255	
14550.113	1	1	0	0	0.10124	0.13881	0.34839	0.14261	0.12175	0.018673	0.13863	0.17408	0.37665	0.097688	0.070927	0.11591	0.10294	0.16737	0.34876	0.17281	-1.5979	-2.6562	-2.0708	-2.3208	-2.6271	-1.7563	-2.5875	-2.3958	-1.9896	-2.7583	-2.0896	-2.1562	-2.4458	-1.9083	-2.5854	-2.4104	32.950	202.944	-80.333	208.264	-58.446	-49.265	40.583	151.688	-54.146	198.406	12.934	223.564	-39.332	-110.251	-86.600	86.405	0.00014478	0.00065952	0.00033259	908.35	2.2533e-05	1.6853e-05	787.18	248.24	7.9992e-06	1.2022e-05	240.48	69.769	73.962	28.627	9.4618e-06	32.408	0.018149	0.029975	0.0084347	1097.9	0.00031747	0.00033921	869.01	276.68	0.00029921	0.00033808	291.46	87.422	103	34.663	0.00031159	40.677	-4.264	-119.024	228.113	-109.054	100.449	-50.762	-110.043	-104.073	9.372	83.065	-106.119	-100.884	-98.345	-93.676	163.563	-97.034	-8191	255	
14550.209	1	1	0	0	0.12061	0.19422	0.085936	0.2069	0.12781	0.12228	0.16578	0.11746	0.159	0.12326	0.34723	0.23379	0.20048	0.42011	0.11183	0.062344	-1.4729	-2.7438	-2.0292	-2.1292	-2.7375	-1.9312	-2.5312	-2.6083	-1.7292	-2.5146	-2.3312	-1.9688	-2.5667	-1.9208	-2.3729	-2.4896	26.777	138.921	24.216	-21.154	100.382	0.641	80.546	19.012	-19.107	21.641	236.954	220.041	-44.104	210.227	18.278	235.193	0.0002482	0.0013816	0.00028173	914.33	1.7247e-05	7.0697e-06	791.9	249.72	1.3908e-05	5.9997e-06	240.11	69.942	74.114	28.766	1.424e-05	32.904	0.018374	0.029861	0.0084619	1093.7	0.00031978	0.00033953	872.54	277.4	0.00029971	0.00033899	293.11	87.919	103.68	34.736	0.00031291	40.815	-26.304	198.137	-2.147	-109.633	-18.272	-10.942	-110.093	-103.864	-32.524	-105.780	-106.236	-100.834	-99.165	-93.915	-72.400	-97.096	-8191	255	
14550.329	1	1	0	0	0.16997	0.19881	0.13082	0.13184	0.15788	0.17861	0.1935	0.32426	0.057697	0.044496	0.062033	0.095818	0.32506	0.19866	0.27729	0.24903	-1.4042	-2.4271	-2.2812	-1.9375	-2.6896	-1.95	-2.4333	-2.4813	-1.7687	-2.6063	-2.2917	-2.0167	-2.6042	-1.9979	-2.0896	-2.7125	-55.873	-30.556	-12.271	-57.162	125.750	159.903	147.601	-97.426	-32.426	236.620	110.624	48.788	59.717	68.145	169.089	212.375	0.00024458	0.0016612	0.00052813	902.34	1.7803e-05	8.8966e-06	788.31	249.41	1.2828e-05	1.8058e-05	244.99	70.478	75.009	29.129	7.8916e-06	32.726	0.018376	0.030162	0.0084473	1094.6	0.00032006	0.00034127	875.19	277.79	0.00030112	0.00033803	294.31	88.263	103.97	34.905	0.00031082	40.951	-98.730	86.398	13.800	-109.186	-103.286	-46.436	-110.158	-103.905	-97.150	1.553	-106.452	-101.287	-98.627	-93.782	50.794	-96.882	-8191	255	
14550.426	1	1	0	0	0.11306	0.18447	0.18401	0.2322	0.30388	0.10684	0.16499	0.13947	0.27935	0.060116	0.22179	0.17497	0.051699	0.10598	0.0551	0.12766	-1.4021	-2.4292	-2.2562	-1.8146	-2.6333	-2.1188	-2.3771	-2.6	-1.9604	-2.6479	-2.4083	-1.9333	-2.6583	-2.1083	-2.0438	-2.7771	-52.010	51.495	163.868	204.730	118.380	178.886	215.034	159.319	-43.536	51.719	-119.425	148.209	71.176	229.044	95.707	144.457	0.00025624	0.0014802	8.0009e-05	905.98	3.8835e-06	2.6579e-05	789.9	249.37	9.217e-06	1.3936e-05	243.7	70.002	74.263	28.793	9.3165e-06	32.237	0.018364	0.030292	0.0084059	1092.6	0.00032285	0.00033856	867.92	277.01	0.00030098	0.00033534	292.34	87.96	103.16	34.547	0.00030958	40.684	-103.373	-100.397	-30.434	-109.377	84.037	-34.721	-110.243	-103.685	92.033	200.518	-106.288	-100.731	-99.120	-93.574	43.087	-96.821	-8191	255	
14550.522	1	1	0	0	0.022521	0.26996	0.20794	0.151	0.2841	0.17312	0.46185	0.20292	0.18536	0.17945	0.17862	0.13779	0.26676	0.066346	0.19438	0.17341	-1.5979	-2.35	-2.5125	-1.8625	-2.6813	-2.25	-2.3271	-2.7979	-1.9021	-2.3625	-2.6937	-1.7583	-2.5812	-2.1792	-1.9208	-2.7354	178.822	-7.834	155.143	131.409	180.040	218.610	174.958	-99.365	109.540	6.663	109.653	181.045	136.465	90.888	-5.982	123.129	0.00032461	0.0005833	0.00059376	902.94	7.4661e-06	1.2911e-05	778.92	246.99	2.0461e-05	1.8621e-05	244.42	69.717	74.297	28.604	1.001e-05	32.415	0.018398	0.030058	0.0083784	1092.9	0.00031876	0.00033625	866.58	275.84	0.00029826	0.00033528	291.91	88.001	103.11	34.525	0.00030896	40.701	-99.373	9.621	33.758	-108.827	55.494	-44.198	-110.194	-103.622	-23.501	110.848	-105.445	-100.769	-98.625	-93.980	235.561	-96.803	-8191	255	
14550.618	1	1	0	0	0.16247	0.13293	0.10943	0.053526	0.047973	0.14483	0.12673	0.15608	0.18241	0.2416	0.10264	0.16947	0.22813	0.24523	0.13398	0.036505	-1.7563	-2.1875	-2.6625	-2.0375	-2.5687	-2.4562	-1.9167	-2.8333	-1.8312	-2.2667	-2.6167	-1.85	-2.6229	-2.3146	-1.9396	-2.4771	65.659	121.382	15.756	178.878	-57.593	167.646	-116.015	195.058	217.319	-80.510	-39.210	124.626	150.867	-121.489	124.981	-111.008	0.00017536	0.0010095	0.00042123	911.84	8.1265e-06	1.0785e-05	793.77	250.45	1.4533e-05	1.5636e-05	245.75	70.688	75.014	29.03	1.381e-05	32.969	0.018299	0.02969	0.0084209	1098.5	0.00031741	0.00033444	872.39	277.87	0.0002995	0.00033647	294.71	88.488	103.41	34.738	0.00030886	41.106	-74.673	-15.173	-29.554	-109.369	228.222	37.376	-110.153	-103.765	168.820	98.823	-106.007	-101.218	-99.128	-93.835	44.422	-96.699	-8191	255	
14550.712	1	1	0	0	0.16845	0.1629	0.13516	0.049306	0.35107	0.051012	0.10344	0.028314	0.065757	0.31442	0.11223	0.27167	0.14712	0.085219	0.1107	0.083209	-1.5771	-2.0292	-2.5792	-2.0104	-2.3104	-2.5187	-1.9708	-2.6625	-2.0875	-2.0125	-2.9375	-1.9188	-2.5104	-2.3708	-1.875	-2.7062	154.443	209.862	99.719	193.723	-19.371	62.859	157.998	-88.690	147.455	194.673	59.292	178.828	82.248	129.979	39.568	6.251	0.00013988	0.0011669	0.00020411	910.14	1.1746e-05	1.1549e-05	798.8	251.31	7.1994e-06	9.2917e-06	247.66	71.733	76.181	29.195	6.8945e-06	33.12	0.018309	0.029854	0.0084199	1098.9	0.00031813	0.00033646	879.33	278.63	0.0002987	0.00033669	296.71	89.415	104.16	34.854	0.00031066	41.294	-80.869	-80.570	136.013	-109.197	-46.263	52.461	-109.736	-103.808	35.820	-6.682	-105.556	-100.845	-98.731	-93.689	118.013	-96.878	-8191	255	
14550.808	1	1	0	0	0.10771	0.33776	0.18333	0.29939	0.19961	0.11829	0.1092	0.28019	0.034568	0.20876	0.038232	0.1179	0.14243	0.081251	0.20186	0.30533	-1.6667	-2.0125	-2.7125	-2.0375	-2.4354	-2.6604	-1.9438	-2.6479	-2.275	-1.9188	-2.6354	-1.9667	-2.2583	-2.6125	-1.75	-2.5917	215.078	-63.234	-62.497	165.357	-32.067	-90.071	-95.330	175.297	132.600	-67.298	116.930	31.007	211.656	225.832	63.906	112.896	0.00034724	0.00098169	0.00017476	908.29	6.771e-06	1.5642e-05	791.88	248.47	4.7391e-06	9.9449e-06	245.08	71.176	74.268	28.584	6.4403e-06	32.475	0.018192	0.029753	0.0084942	1095.6	0.00031608	0.00033404	875.55	277.47	0.00029527	0.00033616	294.34	88.265	102.75	34.501	0.00030828	40.635	231.058	-98.852	-92.555	-109.411	-6.093	-104.450	-110.206	-103.529	133.267	137.940	-106.099	-100.953	-98.722	-93.432	196.262	-96.726	-8191	255	
14550.905	1	1	0	0	0.17719	0.13249	0.19878	0.26681	0.15201	0.092505	0.054222	0.38281	0.40016	0.22716	0.2373	0.24441	0.079502	0.27703	0.068333	0.23597	-1.8729	-1.8396	-2.6896	-2.2458	-2.2313	-2.7354	-2.2083	-2.5146	-2.2938	-1.9708	-2.6417	-2.0833	-2.15	-2.6875	-1.8479	-2.3125	230.946	-55.454	23.395	161.039	153.093	75.675	237.423	164.718	11.610	94.308	-69.982	59.211	189.162	146.173	75.382	-88.165	0.00028683	0.00081025	0.00037368	915.63	1.6709e-05	1.3443e-05	787.03	249.68	7.734e-06	6.9416e-06	245.29	70.343	74.134	28.739	9.8672e-06	32.564	0.018155	0.029805	0.0084551	1096.2	0.00031668	0.00033777	870.38	276.49	0.00029397	0.00033694	293.25	87.61	102.93	34.596	0.00030932	40.714	-58.042	-87.971	229.648	-109.305	-96.798	-36.371	-110.358	-103.446	-94.666	5.699	-105.885	-101.304	-98.480	-93.704	61.669	-96.772	-8191	255	
14551.001	1	1	0	0	0.30961	0.044152	0.17218	0.26534	0.093149	0.044495	0.15407	0.25167	0.37034	0.085369	0.21169	0.17289	0.41486	0.12016	0.20844	0.06443	-1.9771	-1.8458	-2.3729	-2.3167	-2.1271	-2.9708	-2.125	-2.4938	-2.4938	-1.7979	-2.6167	-2.1312	-1.7479	-2.7104	-1.8667	-2.3708	209.160	23.716	-28.234	121.275	-45.171	233.433	236.586	193.793	181.861	-110.267	208.127	220.524	234.028	148.407	212.467	224.886	0.00012091	0.0022833	0.00020456	917.72	1.2007e-05	1.2298e-05	794.38	249.55	9.0736e-06	2.2767e-05	243.52	69.877	75.131	28.749	1.2852e-05	33.271	0.018062	0.030081	0.008428	1097.8	0.00031761	0.00033607	872.4	277.02	0.00029622	0.00033827	293.49	87.894	103.3	34.691	0.00030921	40.861	-87.486	-71.095	-79.934	-109.428	4.491	41.268	-110.166	-103.836	44.808	-52.260	-106.085	-101.665	-98.593	-93.654	109.576	-97.039	-8191	255	
14551.097	1	1	0	0	0.1896	0.077938	0.1173	0.17092	0.26966	0.10154	0.27439	0.12555	0.28634	0.21939	0.21991	0.20683	0.20358	0.035329	0.17309	0.16174	-2.0833	-1.8438	-2.5062	-2.35	-1.8333	-2.7458	-2.1271	-2.4708	-2.7896	-1.7333	-2.6479	-2.2687	-1.8854	-2.7333	-1.9771	-2.1333	174.387	93.381	210.258	162.560	-101.954	57.136	185.868	-107.189	-14.030	-59.048	226.806	-109.970	209.211	-47.637	111.015	179.473	0.0001635	0.0015528	0.00018834	917.79	5.1196e-06	4.1438e-06	793.32	251.38	9.1163e-06	1.0075e-05	245.48	70.985	74.683	29.048	1.8981e-05	32.953	0.018288	0.030095	0.0084103	1094.2	0.00031797	0.00033743	875.74	278.25	0.00029937	0.00033691	295.59	88.227	103.77	34.933	0.00030852	41.123	-111.011	168.390	-51.421	-109.191	-42.075	205.779	-110.196	-103.963	24.754	218.606	-105.646	-101.452	-98.294	-93.194	34.591	-96.659	-8191	255	
14551.217	1	1	0	0	0.24078	0.19952	0.090403	0.2195	0.15415	0.19433	0.36362	0.17073	0.052647	0.24547	0.20251	0.085598	0.21631	0.05686	0.045117	0.077301	-2.1354	-1.9458	-2.5583	-2.6063	-1.9667	-2.6958	-2.1333	-2.2021	-2.5479	-2.0958	-2.6417	-2.6083	-1.8438	-2.7104	-2.2354	-1.9646	123.486	180.784	109.327	150.481	-71.129	-90.364	179.860	148.518	-62.497	45.745	54.627	77.525	143.760	25.384	130.278	115.894	0.00029508	0.00042411	0.00030745	921.01	8.4904e-06	1.0889e-05	805.11	251.41	9.0722e-06	1.2695e-05	245.01	70.162	74.438	28.886	8.0244e-06	32.777	0.018342	0.03002	0.0083787	1099.4	0.00031873	0.00033917	878.76	279.39	0.00029938	0.00033637	295.43	88.064	103.25	34.786	0.00030658	40.826	-71.782	-67.013	109.434	-109.007	5.296	92.753	-110.332	-103.817	47.655	99.852	-105.964	-101.117	-98.575	-93.681	94.989	-96.950	-8191	255	
14551.314	1	1	0	0	0.15433	0.060118	0.22715	0.087807	0.20765	0.24684	0.16542	0.090397	0.16674	0.060688	0.12605	0.38159	0.22105	0.1083	0.13813	0.097792	-2.3	-1.7729	-2.2958	-2.7396	-1.8104	-2.7354	-2.2792	-2.1583	-2.6146	-1.8188	-2.4333	-2.4938	-1.8062	-2.4271	-2.3021	-2.0479	162.663	-108.588	204.770	196.640	-96.444	-93.397	191.770	231.210	79.930	153.320	-119.388	203.537	1.678	115.278	146.134	-28.005	0.0002764	0.00085389	0.00030696	914.98	1.2714e-05	1.1542e-05	793.9	247.77	4.7663e-06	1.043e-05	243.14	69.798	74.528	28.921	4.6986e-06	32.591	0.018189	0.029858	0.0083475	1093.2	0.00031788	0.00033543	868.36	275.98	0.00029795	0.00033527	292.06	87.244	103	34.591	0.00030319	40.612	-29.623	72.997	188.307	-109.129	-65.059	57.934	-110.232	-103.479	198.570	99.835	-105.853	-100.882	-99.452	-93.299	-69.948	-96.921	-8191	255	
14551.410	1	1	0	0	0.071729	0.18849	0.13893	0.24897	0.03544	0.27143	0.16639	0.15493	0.24177	0.20544	0.11472	0.051125	0.25544	0.062809	0.32263	0.21247	-2.2354	-1.9125	-2.1333	-2.6542	-1.7104	-2.5062	-2.3271	-1.9271	-2.5708	-2.1312	-2.0812	-2.7208	-2.0104	-2.525	-2.4375	-2.0438	152.271	233.522	-92.131	-119.041	39.007	-85.493	-110.511	106.134	203.708	126.911	123.559	-49.303	-114.098	-68.146	-6.877	-108.607	0.00027801	0.0011649	0.00051368	916.7	2.6799e-05	2.6487e-05	791.44	249.66	1.3495e-05	1.7839e-05	242.03	69.769	75.677	28.686	1.1174e-05	32.483	0.018085	0.029504	0.0082962	1095	0.00031444	0.00033268	869.62	277.24	0.00029439	0.00033148	291.39	87.436	103.26	34.55	0.00030175	40.695	-120.868	194.491	-118.645	-108.925	34.802	-68.042	-109.712	-103.692	0.428	47.309	-105.902	-100.551	-98.941	-93.305	-116.263	-96.955	-8191	255	
14551.506	1	1	0	0	0.11194	0.17364	0.18986	0.1548	0.29707	0.10246	0.27923	0.19706	0.21709	0.013675	0.11158	0.05068	0.15909	0.33643	0.034808	0.076719	-2.2938	-2.0333	-1.9125	-2.6771	-1.8708	-2.4917	-2.4375	-1.8521	-2.8	-2.1604	-2.0187	-2.7521	-1.8708	-2.4208	-2.3479	-1.8792	69.005	-88.018	-74.366	-98.413	-2.801	-11.316	175.935	143.876	-6.159	-11.810	190.459	197.128	-98.799	-97.220	203.120	138.859	0.00022821	0.00072685	0.00053314	914.62	8.8936e-06	1.4493e-05	791.37	247.96	4.926e-06	8.6046e-06	243.07	69.188	74.655	28.701	1.3634e-05	32.402	0.017958	0.029026	0.0082262	1096.4	0.00031361	0.00032725	872.21	276.67	0.00029247	0.00032708	292.04	87.064	102.44	34.43	0.00030271	40.657	-98.434	148.401	-0.561	-109.563	96.038	-8.139	-110.101	-103.858	62.815	-36.387	-105.807	-101.196	-98.607	-93.281	-60.942	-96.607	-8191	255	
14551.602	1	1	0	0	0.16235	0.017333	0.39064	0.10409	0.059403	0.33649	0.08974	0.1988	0.095057	0.10546	0.12476	0.13083	0.35443	0.15076	0.16522	0.17144	-2.1188	-2.3604	-2.0438	-2.7708	-1.9188	-2.4583	-2.6396	-1.9833	-2.7729	-2.2021	-1.9937	-2.8563	-2.0875	-2.2812	-2.6354	-2.0187	39.220	123.983	-116.772	204.208	0.465	230.714	136.998	211.000	-104.596	-39.330	149.467	-10.714	151.109	-52.971	206.293	211.674	0.0002005	0.0018538	0.00027577	912.06	1.3094e-05	1.5435e-05	797.85	247.42	1.0624e-05	1.3111e-05	246.2	70.515	74.169	28.931	9.9181e-06	32.93	0.017823	0.029057	0.0083105	1097.9	0.00031258	0.0003297	878.38	276.78	0.00029438	0.00032813	294.36	88.074	102.61	34.647	0.00030705	40.803	-36.928	25.956	-11.666	-109.553	-31.265	6.720	-109.829	-103.882	-38.941	8.137	-105.681	-101.491	-99.045	-93.708	23.380	-96.833	-8191	255	
14551.698	1	1	0	0	0.11593	0.075717	0.15066	0.16411	0.049503	0.05651	0.16996	0.10047	0.06264	0.3315	0.22023	0.22842	0.36798	0.05661	0.2977	0.13616	-2.0375	-2.2313	-2.0646	-2.5	-1.8958	-2.3187	-2.6688	-1.8229	-2.2729	-2.4167	-1.9042	-2.5854	-1.9917	-2.0042	-2.825	-1.9396	69.131	6.884	-90.586	-52.876	25.803	45.804	187.160	151.364	150.577	73.385	13.458	142.353	205.735	131.164	-104.314	135.769	0.00017722	0.0019133	0.00032334	925.9	1.067e-05	1.0138e-05	792.74	249.05	1.0235e-05	3.4143e-06	242.82	69.347	73.551	28.785	1.6977e-05	32.268	0.018033	0.029545	0.0083856	1099.7	0.00031209	0.00033452	874.06	276.66	0.00029203	0.00032909	292.67	86.982	102.32	34.483	0.00030745	40.37	-66.912	18.155	114.803	-109.251	27.623	-9.456	-110.335	-103.782	75.442	-79.176	-106.027	-101.135	-98.470	-94.021	96.408	-96.771	-8191	255	
14551.817	1	1	0	0	0.18025	0.14818	0.031067	0.15327	0.22536	0.18687	0.14362	0.18502	0.057112	0.19617	0.20123	0.23014	0.28242	0.12588	0.22478	0.38933	-1.9937	-2.4688	-1.9396	-2.5833	-2.0604	-1.9958	-3.0417	-1.95	-2.2854	-2.6542	-1.9062	-2.5708	-2.3	-2.0979	-2.6542	-2.0354	-51.336	85.933	9.280	-91.506	185.934	194.201	-1.259	219.956	215.755	184.157	211.000	107.800	225.209	31.229	-43.090	146.236	3.8458e-05	0.00025374	0.00018583	914.46	4.6334e-06	7.2697e-06	786.77	248.15	1.2589e-06	1.7889e-05	240.04	69.031	73.986	28.344	1.4258e-05	32.369	0.018007	0.029481	0.0083428	1093	0.00031097	0.0003367	870.43	276.17	0.00029453	0.00033268	290.89	86.85	102.13	34.417	0.0003072	40.347	-1.972	158.574	-113.551	-109.241	-32.080	225.657	-109.881	-104.015	9.919	-12.794	-105.992	-101.112	-98.545	-93.432	-97.763	-96.803	-8191	255	
14551.913	1	1	0	0	0.2377	0.19736	0.083802	0.29346	0.065609	0.22793	0.077879	0.098685	0.15345	0.1151	0.29547	0.12384	0.045946	0.27621	0.26053	0.16933	-1.8583	-2.5708	-1.8146	-2.625	-2.2875	-1.8583	-2.7021	-2.1896	-2.1354	-2.725	-1.9312	-2.3708	-2.3667	-1.9	-2.4146	-1.8917	67.996	230.430	-18.211	183.182	155.287	-0.428	13.839	206.117	-109.569	-15.792	-4.556	-61.905	209.814	216.446	22.613	228.050	0.00034691	0.0009164	0.00033622	905.06	5.8378e-06	5.2226e-06	784.79	246.67	1.3445e-05	6.6501e-06	241.08	68.672	73.972	28.191	1.0687e-05	31.82	0.018002	0.030009	0.0084178	1090.1	0.00031717	0.0003399	870.16	275.19	0.00029895	0.00033808	292.16	87.145	102.39	34.409	0.00031138	40.252	-101.684	-119.798	13.176	-109.041	117.511	214.294	-109.938	-103.742	48.028	65.541	-105.875	-100.954	-98.699	-93.086	90.188	-96.523	-8191	255	
14552.009	1	1	0	0	0.42908	0.089619	0.050125	0.11742	0.08071	0.15962	0.24119	0.44165	0.094274	0.14936	0.21409	0.21699	0.1481	0.21321	0.16848	0.14311	-1.7604	-2.5187	-1.8958	-2.4313	-2.3354	-1.6458	-2.6479	-2	-2.1271	-2.6437	-1.8792	-2.375	-2.2729	-1.9375	-2.5458	-2.1604	227.980	230.800	-75.013	170.074	-1.278	225.203	68.684	204.432	107.567	54.278	-28.813	59.873	165.701	217.422	118.114	170.495	0.00037293	0.0012673	0.00015451	901.25	1.1845e-05	1.4503e-05	785.14	244.57	1.7814e-05	3.2271e-05	239.45	68.355	73.537	28.244	1.4032e-05	31.921	0.018465	0.030405	0.008483	1090.3	0.00032142	0.00034377	874.32	275.15	0.00030421	0.0003403	293.49	87.333	102.98	34.443	0.00031312	40.413	-77.345	133.704	35.576	-109.548	-15.146	86.293	-110.209	-103.690	32.785	103.087	-105.965	-100.527	-98.896	-93.113	-108.681	-96.664	-8191	255	
14552.106	1	1	0	0	0.20674	0.26712	0.11104	0.19333	0.3326	0.084355	0.16149	0.085191	0.15962	0.1015	0.24491	0.16683	0.083326	0.028557	0.26952	0.079096	-1.5125	-2.5	-1.9333	-2.3354	-2.5396	-2.0312	-2.7938	-2.2125	-2.0938	-2.6083	-2.0125	-2.3042	-2.7125	-1.8188	-2.525	-2.3479	155.899	16.718	36.638	9.561	210.159	17.412	151.387	179.588	-102.684	182.426	147.896	140.136	77.141	-105.589	166.067	131.134	0.00033724	0.0020852	0.00036555	906.29	1.9321e-05	8.5355e-06	781.21	244.99	6.788e-06	1.8144e-05	240.11	68.804	73.31	28.017	1.3378e-05	31.478	0.018609	0.030567	0.0086146	1096.1	0.00032549	0.00034566	872.54	275.56	0.00030835	0.00034269	292.96	87.652	102.75	34.426	0.00031349	40.271	203.741	53.612	-22.706	-108.965	-38.515	22.706	-109.575	-104.015	-54.707	-116.766	-105.575	-100.681	-98.526	-93.863	-53.644	-96.694	-8191	255	
14552.202	1	1	0	0	0.26486	0.13882	0.21632	0.21801	0.067899	0.33107	0.3133	0.15357	0.36149	0.19628	0.36224	0.15803	0.17107	0.24888	0.081988	0.10122	-1.5917	-2.6146	-1.7313	-2.2604	-2.6375	-1.8438	-2.6125	-2.3167	-1.8563	-2.5479	-1.9979	-2.1688	-2.6646	-1.9188	-2.3417	-2.4792	200.095	48.036	200.947	-11.878	85.765	-24.782	103.792	223.073	145.964	-67.202	182.340	134.962	-105.188	151.844	164.690	184.903	0.00010699	0.0010273	0.00062136	894.46	1.993e-06	1.3584e-05	770.88	241.05	1.788e-05	8.4788e-06	237.89	68.623	73.196	27.941	9.6187e-06	31.903	0.018763	0.030519	0.0085348	1093.5	0.00032428	0.00034338	863.54	273.83	0.00030503	0.00034141	290.89	87.418	103.19	34.238	0.00031086	40.337	143.189	85.957	-118.952	-109.173	202.873	-33.541	-109.805	-103.369	7.015	-4.854	-105.885	-101.016	-99.144	-93.312	31.623	-96.397	-8191	255	
14552.298	1	1	0	0	0.19082	0.21883	0.071184	0.013509	0.35496	0.029926	0.29125	0.11139	0.088033	0.24147	0.1051	0.25656	0.12396	0.090667	0.1467	0.052151	-1.3875	-2.5563	-2.125	-2.0375	-2.4417	-1.7875	-2.5292	-2.5938	-1.8604	-2.5833	-2.0333	-1.975	-2.7396	-1.9958	-2.3063	-2.525	201.936	-54.800	-114.604	93.913	135.191	-22.768	89.433	-90.989	-120.923	-62.340	195.145	-102.288	148.687	94.191	120.269	235.293	0.00018226	0.00038107	0.00017745	891.26	1.6657e-05	1.4077e-05	779.01	245.22	2.9376e-05	5.8216e-06	239.91	68.634	72.612	28.079	9.0714e-06	31.746	0.018701	0.030285	0.0084813	1092.5	0.00032634	0.00034354	866.24	275.31	0.00030546	0.00034051	292.95	87.826	102.91	34.367	0.00031428	40.591	-58.219	115.130	48.056	-109.020	-14.201	217.327	-109.759	-103.785	96.225	-84.014	-105.739	-100.982	-98.918	-93.102	207.078	-96.453	-8191	255	
14552.394	1	1	0	0	0.096218	0.23673	0.25308	0.076421	0.10116	0.1059	0.26462	0.26733	0.22984	0.18536	0.26387	0.079871	0.093495	0.36977	0.16081	0.26692	-1.5042	-2.6479	-2.2458	-2.0417	-2.6229	-2.0812	-2.3438	-2.6104	-1.8875	-2.5729	-2.5167	-2.0604	-2.6229	-1.9417	-2.1292	-2.7062	109.542	157.635	226.773	-100.599	148.338	124.088	43.542	-100.509	170.157	-41.255	-120.264	-82.118	211.041	207.756	-99.729	145.323	0.00033076	0.00082579	0.00046185	903.74	1.5123e-05	1.8088e-05	786.6	245.81	9.2196e-06	1.8061e-05	243.32	70.446	73.176	28.874	9.184e-06	32.419	0.018738	0.030332	0.0085735	1097.6	0.00032829	0.00034189	872.38	276.71	0.00030735	0.00034345	295.28	88.755	103.68	34.833	0.000316	41.058	-105.364	192.756	-45.905	-108.956	181.275	71.324	-109.863	-103.667	228.485	217.026	-106.334	-101.076	-99.208	-93.954	125.647	-97.068	-8191	255	
14552.513	1	1	0	0	0.071489	0.075904	0.095458	0.025718	0.14001	0.047219	0.26828	0.059488	0.20562	0.15926	0.26995	0.19655	0.17793	0.092947	0.087728	0.1933	-1.4979	-2.5167	-2.4271	-2.0479	-2.8083	-2.1042	-2.2021	-2.7146	-1.8333	-2.3354	-2.4354	-2.0083	-2.8271	-1.9646	-1.9917	-2.7625	13.404	226.667	-74.411	45.941	-88.055	-98.760	216.889	150.494	-42.273	49.779	135.583	-106.801	-8.891	-107.061	233.514	228.163	0.00035213	0.00066296	0.00017549	911.38	3.0415e-05	1.0868e-05	790.42	248.32	2.3074e-05	1.0653e-05	245.03	69.823	74.368	28.721	7.5899e-06	32.333	0.018783	0.030489	0.0086962	1103.1	0.00032774	0.00034409	878.32	278.09	0.00030689	0.00034101	297.32	89.023	104.23	34.894	0.00031948	41.132	-87.746	21.503	40.745	-108.970	0.422	3.375	-110.028	-103.764	-43.748	0.699	-105.890	-101.037	-98.565	-93.777	59.125	-97.134	-8191	255	
14552.609	1	1	0	0	0.19738	0.042618	0.099316	0.15228	0.22564	0.1647	0.21193	0.14696	0.1612	0.013025	0.24535	0.18986	0.17993	0.17184	0.071233	0.16346	-1.5354	-2.5125	-2.4333	-1.9688	-2.5146	-2.2042	-2.1229	-2.7313	-2.0271	-2.3688	-2.7229	-1.9667	-2.7562	-2.4292	-2.0083	-2.7417	-89.264	-97.363	-64.957	-47.141	222.617	140.970	169.201	138.654	96.638	236.703	-24.353	135.594	-74.345	110.719	-65.735	-119.833	0.00010257	0.00058853	0.00039656	905.19	8.9592e-06	2.6159e-05	786	246.55	1.4508e-05	3.7079e-06	240.66	68.315	72.582	28.326	2.118e-06	31.897	0.01872	0.03046	0.0087024	1100.7	0.00032318	0.00034226	874.68	277.31	0.00030302	0.00034272	293.57	87.359	103	34.535	0.00031699	40.519	-33.396	167.257	130.651	-109.142	-120.786	-69.475	-109.791	-103.618	-44.307	130.812	-106.254	-101.193	-99.085	-93.743	209.613	-96.759	-8191	255	
14552.682	1	1	0	0	0.076986	0.30139	0.16387	0.25617	0.067489	0.094556	0.17585	0.092875	0.094067	0.31689	0.20359	0.23203	0.24037	0.10955	0.12299	0.14394	-1.5042	-2.1646	-2.4646	-1.9625	-2.6063	-2.2479	-1.9708	-2.7896	-2.0979	-2.1479	-2.7208	-2.0583	-2.4313	-2.4083	-1.9021	-2.6333	11.491	232.592	-75.586	-14.804	179.476	20.703	-65.388	235.679	-16.862	65.267	74.575	199.475	190.237	136.978	183.897	124.484	0.00039173	0.0014482	0.00016546	905.34	2.7551e-05	9.4753e-06	779.72	244.4	1.1885e-05	7.6307e-06	238.69	69.15	73.073	28.277	3.8661e-06	32.2	0.01834	0.030098	0.0086299	1095.2	0.00031795	0.00033993	870.05	275.42	0.00029775	0.00034021	292.08	87.188	102.47	34.593	0.00031516	40.61	-50.063	-103.314	-14.991	-109.367	104.217	238.093	-109.626	-103.608	141.673	-40.357	-105.460	-100.889	-98.610	-93.948	121.842	-96.599	-8191	255	
14552.779	1	1	0	0	0.28117	0.2996	0.052196	0.074068	0.33251	0.22162	0.13458	0.13998	0.16302	0.2683	0.25612	0.15234	0.043533	0.19136	0.17768	0.26673	-1.8208	-2.0833	-2.6354	-1.8417	-2.3542	-2.6521	-2.0708	-2.7313	-2.2896	-1.8188	-2.7708	-1.9229	-2.425	-2.5625	-1.85	-2.775	67.546	83.742	5.879	233.104	95.271	-89.972	-0.900	132.567	115.670	110.245	168.107	234.145	93.460	163.842	53.173	218.200	0.00017528	0.00031136	0.00026076	899.93	1.6839e-05	1.6108e-05	786.61	245.63	5.0143e-07	1.1682e-05	240.44	68.299	73.082	28.138	1.0573e-05	31.902	0.018249	0.030133	0.0085274	1091.6	0.00031799	0.00034203	874.1	276.24	0.00030005	0.0003405	293.51	87.192	102.8	34.63	0.00031606	40.647	-31.911	35.816	-44.848	-109.448	128.262	-64.747	-109.439	-103.511	227.845	101.056	-105.702	-101.349	-98.496	-93.370	22.658	-96.598	-8191	255	
14552.897	1	1	0	0	0.15327	0.29632	0.035432	0.18041	0.091764	0.2237	0.31189	0.1459	0.19489	0.27363	0.077007	0.22815	0.27949	0.08413	0.21788	0.19598	-1.8333	-1.9125	-2.525	-1.9896	-2.1708	-2.6437	-1.8292	-2.6667	-2.225	-2.0479	-2.6979	-1.975	-2.2271	-2.7479	-1.9021	-2.5458	-75.250	-82.490	-45.168	212.930	236.122	-59.701	149.884	173.241	95.868	-86.500	-40.904	147.304	-104.821	-23.476	11.444	150.074	0.00011564	0.00031121	0.0001007	897.33	2.4319e-05	7.3092e-06	775.44	244.54	5.3209e-06	2.5554e-05	237.67	68.246	73.116	28.536	1.3494e-05	31.731	0.018339	0.03056	0.0085852	1091.6	0.00032113	0.000346	874.36	276.06	0.00030389	0.00034463	294.06	87.489	103.34	34.804	0.00031606	40.653	217.204	222.186	54.817	-108.279	-44.205	-24.515	-110.149	-103.762	-44.793	77.680	-106.114	-101.059	-99.062	-93.465	87.935	-97.018	-8191	255	
14552.994	1	1	0	0	0.054465	0.18169	0.092394	0.12402	0.32118	0.37759	0.17513	0.31182	0.22685	0.067796	0.2711	0.067571	0.19132	0.16475	0.24599	0.14357	-2.1104	-1.8542	-2.5938	-2.1	-2.1146	-2.7958	-2.0458	-2.6604	-2.375	-1.7646	-2.8	-1.9896	-2.2958	-2.7687	-1.8667	-2.2958	140.990	4.526	-73.882	199.061	185.636	217.206	160.996	227.609	162.837	172.713	119.842	169.005	141.394	213.197	135.196	129.432	0.00018383	0.00038502	9.8917e-05	888.19	1.5648e-05	2.8872e-05	769.26	243.43	5.0279e-06	8.487e-06	238.94	67.893	73.213	28.403	1.051e-05	31.808	0.018512	0.030638	0.0085548	1091.4	0.00032366	0.00034591	870.42	275.53	0.00030318	0.00034245	291.79	86.664	103.08	34.633	0.00030973	40.286	-71.657	-66.733	-8.282	-109.055	56.524	122.811	-109.977	-103.796	-36.239	1.254	-105.762	-101.081	-98.716	-93.598	97.320	-96.732	-8191	255	
14553.090	1	1	0	0	0.034087	0.051986	0.057648	0.19961	0.042617	0.24368	0.12701	0.19995	0.25417	0.13112	0.096508	0.067701	0.20401	0.14377	0.34059	0.22454	-2.1042	-1.6812	-2.4354	-2.2208	-2.0187	-2.675	-2.1208	-2.3771	-2.5	-1.7979	-2.7271	-2.1417	-2.0208	-2.825	-2.0312	-2.3208	173.717	44.173	-65.524	-69.669	-38.212	32.779	181.923	149.838	-75.774	-58.518	75.912	-96.431	126.345	186.491	115.075	-106.087	0.00038142	0.0018543	0.00013501	895.76	2.7473e-05	2.4653e-05	773.46	243.02	2.1553e-05	1.8494e-05	235.87	68.196	72.693	28.231	8.6456e-06	31.694	0.018667	0.030603	0.0084072	1090	0.00032517	0.00034359	864.79	274.85	0.00030607	0.00034226	288.79	86.368	102.64	34.524	0.00031077	40.528	-107.908	224.639	166.403	-109.062	-67.598	42.810	-109.847	-103.557	213.672	19.869	-105.875	-101.510	-98.587	-93.639	149.355	-97.054	-8191	255	
14553.210	1	1	0	0	0.069538	0.38022	0.15578	0.040326	0.17436	0.23609	0.059241	0.35033	0.30696	0.24454	0.17858	0.16341	0.16775	0.23249	0.091168	0.2599	-2.0729	-1.7729	-2.4625	-2.2917	-1.9521	-2.6542	-2.0042	-2.3292	-2.5271	-1.8271	-2.4813	-2.2667	-1.8062	-2.7938	-2	-2.0979	70.433	166.749	-58.142	4.597	-121.319	82.685	176.687	172.836	161.203	-49.816	192.023	180.651	230.345	176.831	154.738	29.776	0.00025366	0.0025913	0.00036864	893.35	7.0951e-06	1.3112e-05	765.61	243.31	1.0702e-05	1.9108e-05	234.95	67.42	73.174	28.164	4.8834e-06	31.639	0.018654	0.030466	0.0084277	1096.6	0.00032809	0.00034174	862.06	275.27	0.00030744	0.00034126	289.42	86.657	103.45	34.61	0.00031429	40.575	-98.986	-87.568	71.360	-109.590	-67.964	-116.729	-109.928	-103.734	173.258	18.720	-105.542	-101.074	-98.830	-93.583	-21.680	-96.454	-8191	255	
14553.282	1	1	0	0	0.093217	0.14844	0.23247	0.016009	0.24942	0.36199	0.10579	0.37424	0.048514	0.13421	0.17104	0.15432	0.15946	0.26616	0.0057811	0.14441	-2.3187	-1.925	-2.4479	-2.4333	-1.6896	-2.7104	-2.1292	-2.0625	-2.6188	-2.0042	-2.4313	-2.475	-1.8521	-2.7167	-2.1583	-2.0833	60.346	16.320	162.902	-63.458	47.095	94.459	200.539	200.764	49.750	-117.609	200.917	198.942	58.874	-103.463	99.252	-120.999	0.00016135	0.0011327	7.341e-05	881.72	1.8026e-05	3.0046e-06	771.02	243.32	1.5172e-05	9.8375e-06	235.37	67.531	72.549	28.205	2.1432e-05	31.761	0.018702	0.030374	0.0085575	1092.7	0.00032721	0.00033996	868.04	275.97	0.00030689	0.00034054	290.28	87.124	103.14	34.553	0.0003169	40.771	-84.725	9.912	-3.203	-109.390	-51.978	103.626	-110.271	-103.651	179.481	1.529	-105.168	-101.121	-99.076	-93.458	-25.841	-96.554	-8191	255	
14553.378	1	1	0	0	0.11751	0.13466	0.18661	0.064154	0.063179	0.075463	0.026808	0.24793	0.32157	0.11003	0.099378	0.1672	0.15896	0.42342	0.067267	0.074063	-2.2417	-2	-2.2104	-2.5896	-1.8458	-2.5354	-2.4437	-2.05	-2.6	-2.0563	-2.3021	-2.6083	-1.9604	-2.7875	-2.1854	-2.0104	-61.010	235.278	-76.993	171.968	-9.447	-36.944	-9.368	197.489	218.411	94.787	-88.774	113.912	206.503	-108.610	179.316	166.323	0.00024607	0.0014226	1.999e-05	890.35	1.9646e-05	2.4689e-05	773.07	240.98	1.114e-05	5.171e-06	235.04	67.358	72.642	28.149	9.5512e-06	31.703	0.01878	0.03033	0.0086278	1095.3	0.00032832	0.00034482	870.03	275.2	0.0003075	0.00034321	292.08	87.114	102.74	34.605	0.00031762	40.625	-71.253	180.329	212.759	-109.193	-5.556	-10.151	-109.924	-103.696	-68.442	24.860	-105.603	-100.507	-99.043	-93.037	121.986	-96.715	-8191	255	
14553.499	1	1	0	0	0.2173	0.19327	0.061336	0.16923	0.11107	0.099489	0.055365	0.30496	0.047601	0.044023	0.47044	0.23093	0.15465	0.1246	0.034896	0.11666	-2.2438	-1.9208	-2.0771	-2.4396	-1.8438	-2.6312	-2.3833	-1.9292	-2.6625	-2.1063	-2.4062	-2.6792	-1.6875	-2.6271	-2.5104	-1.9271	69.013	22.701	187.683	196.892	-13.190	-16.726	113.748	-38.275	-57.185	-28.289	144.509	217.813	228.896	-115.809	-85.306	5.424	0.00020598	0.0033637	0.00025865	880.57	1.0059e-05	1.2924e-05	764.58	240.39	1.6014e-05	1.9051e-05	231.15	66.619	71.153	27.671	1.128e-05	31.245	0.018611	0.030034	0.0086639	1086.4	0.0003207	0.00034072	862.73	274.18	0.00030217	0.00033863	288.28	86.138	101.83	34.168	0.00031578	40.043	-83.227	89.032	77.552	-108.833	11.280	36.682	-110.375	-103.284	-1.323	70.074	-105.533	-100.774	-98.399	-92.923	-63.155	-96.586	-8191	255	
14553.595	1	1	0	0	0.077368	0.21539	0.27443	0.17242	0.070612	0.14882	0.23648	0.12332	0.29802	0.074177	0.11094	0.22122	0.10732	0.29697	0.097562	0.1093	-2.2854	-2.0521	-1.9396	-2.7188	-2.0687	-2.4667	-2.6292	-1.9458	-2.6521	-2.2375	-2.0458	-2.7729	-1.7729	-2.5958	-2.4667	-1.9396	-108.398	149.843	-76.501	237.324	218.621	208.629	157.751	-11.409	90.683	0.350	191.741	204.458	-71.615	-77.479	-56.054	49.572	0.0003756	0.0013265	0.00051859	880.17	1.2554e-06	1.7073e-05	769.59	242.08	1.1421e-05	8.3122e-06	233.08	67.094	71.958	28.033	1.1302e-05	31.462	0.018336	0.030125	0.0085725	1085.5	0.00032213	0.00034236	864	273.29	0.00029604	0.00033825	288.88	86.186	101.46	34.372	0.00031445	40.169	-12.478	237.938	237.800	-109.344	-105.488	-28.295	-110.095	-103.650	139.408	84.047	-105.904	-100.736	-97.953	-93.613	130.625	-96.353	-8191	255	
14553.689	1	1	0	0	0.38653	0.14778	0.20137	0.11338	0.13154	0.12916	0.17454	0.1778	0.08872	0.060616	0.24233	0.19704	0.25913	0.066749	0.12017	0.16332	-2.3063	-2.0583	-1.8687	-2.6	-1.8625	-2.4083	-2.6521	-1.9333	-2.3729	-2.3375	-2.2021	-2.6521	-1.8917	-2.3271	-2.5458	-2.0354	-111.008	-40.934	173.246	220.863	21.689	-89.347	183.705	211.497	181.801	14.364	214.000	102.546	-62.997	-85.537	155.703	-2.554	0.00029466	0.0032448	0.00044153	896.18	2.1942e-05	1.8867e-05	768.85	241.05	3.6502e-06	1.6735e-05	235.02	67.411	72.397	27.935	1.2361e-05	31.85	0.018206	0.030163	0.0085439	1090.2	0.00032016	0.00034199	865.55	273.19	0.00029896	0.00033834	290.17	86.296	101.84	34.413	0.00031348	40.339	-111.918	-19.959	14.400	-108.879	74.731	-53.773	-109.776	-103.390	207.772	1.457	-105.588	-100.726	-98.432	-93.268	-5.610	-96.849	-8191	255	
14553.810	1	1	0	0	0.31377	0.12944	0.27808	0.28657	0.17893	0.26129	0.28998	0.31077	0.15196	0.065414	0.26035	0.1392	0.18483	0.10756	0.1492	0.11363	-2.0479	-2.3896	-1.7521	-2.6021	-1.9875	-2.125	-2.65	-2.0396	-2.3667	-2.2042	-1.9875	-2.8896	-2.325	-2.0771	-2.6229	-2.0292	97.822	-95.260	98.690	214.463	25.532	97.084	170.622	-120.838	130.850	-104.001	219.994	-103.935	20.853	234.642	3.519	226.288	0.00040475	0.00058806	0.00046249	900.42	1.0323e-05	1.4064e-05	775.24	242.22	1.0874e-05	1.2857e-05	237.44	67.952	73.152	28.176	3.8473e-06	31.801	0.018117	0.030279	0.0085407	1091	0.00031646	0.00033999	872.05	274.79	0.00030102	0.00034136	293.03	87.153	102.32	34.71	0.00031185	40.526	-68.387	223.724	-17.994	-109.114	100.379	-31.328	-109.993	-103.394	152.816	-64.454	-105.816	-101.575	-99.226	-93.383	-10.008	-96.700	-8191	255	
14553.882	1	1	0	0	0.16544	0.10406	0.10229	0.3124	0.12628	0.10391	0.13718	0.050566	0.15825	0.075234	0.098107	0.094028	0.2473	0.2934	0.20381	0.089394	-1.9792	-2.6063	-1.8146	-2.6958	-2.0271	-1.9833	-2.9021	-2.1667	-2.4667	-2.5563	-1.75	-2.6312	-2.1104	-1.8271	-2.6917	-2.0083	86.310	101.245	-76.460	203.557	-47.517	18.726	113.655	-77.350	74.656	121.379	109.136	107.231	154.028	206.682	-48.257	-107.524	0.00035834	0.00046494	0.00016905	889.31	2.0079e-05	1.6583e-05	774.28	243.81	1.5606e-05	1.1412e-05	235.09	68.051	72.995	28.21	8.5197e-06	31.589	0.018359	0.030395	0.0084684	1087.9	0.00032154	0.0003415	870.38	275.04	0.00030239	0.00033923	290.35	86.737	102.84	34.54	0.00030882	40.273	-76.499	11.760	89.273	-108.888	-28.499	19.179	-110.495	-103.672	-119.948	31.773	-105.570	-100.767	-98.679	-93.054	29.445	-96.797	-8191	255	
14553.978	1	1	0	0	0.15916	0.086373	0.21271	0.33069	0.18894	0.080786	0.19471	0.28013	0.14824	0.16288	0.2385	0.13484	0.049423	0.053961	0.203	0.32008	-1.6229	-2.6458	-1.8417	-2.5833	-2.2438	-1.9854	-2.6167	-1.9646	-2.3042	-2.6042	-2.0438	-2.6417	-2.3	-1.8521	-2.5938	-2.1729	-26.406	-30.867	190.513	173.414	209.320	205.119	119.257	233.837	49.227	41.789	168.543	-114.273	94.021	-95.212	-45.060	222.965	0.0002594	0.0019399	0.00083671	891.79	1.3581e-05	2.1979e-05	778.58	243.67	8.064e-06	1.5676e-05	234.77	67.594	74.76	28.722	1.9742e-05	32.072	0.0185	0.030184	0.0084322	1087.4	0.00032268	0.00034392	865.38	274.34	0.00030518	0.00033779	290.27	86.288	103.17	34.642	0.00031179	40.303	-90.651	9.353	70.380	-109.369	13.618	3.701	-110.337	-103.644	-113.766	0.845	-105.129	-101.279	-99.389	-93.390	-84.284	-96.528	-8191	255	
14554.074	1	1	0	0	0.10529	0.078767	0.19642	0.1699	0.17758	0.13066	0.27439	0.36619	0.16642	0.2223	0.34907	0.20724	0.26834	0.10253	0.14727	0.29168	-1.725	-2.6021	-2.0083	-2.575	-2.5542	-1.7646	-2.7354	-2.3063	-2.1208	-2.7562	-1.9583	-2.3417	-2.6083	-1.8937	-2.4521	-2.2313	-14.826	18.623	190.833	-82.775	88.586	162.937	172.243	-92.015	-94.392	222.209	-78.564	43.805	81.532	125.446	-0.395	87.582	0.00052644	0.0014029	0.00046311	912.03	6.4581e-06	4.8373e-06	792.83	247.22	4.6685e-06	1.7482e-05	240.88	69.056	72.543	28.417	2.3579e-05	31.913	0.018663	0.030188	0.0084505	1096.8	0.00032305	0.00033907	872.99	276.07	0.00030573	0.00033846	291.54	87.138	102.69	34.491	0.00030997	40.523	-71.094	-69.970	118.055	-109.355	85.492	148.659	-110.610	-104.025	-21.379	177.852	-105.862	-101.082	-99.344	-93.919	-67.719	-96.132	-8191	255	
14554.193	1	1	0	0	0.21136	0.11762	0.14509	0.025648	0.2642	0.14087	0.12741	0.10425	0.23074	0.26598	0.18096	0.11164	0.2788	0.28811	0.1425	0.34351	-1.5562	-2.525	-1.8875	-2.2812	-2.6354	-1.8542	-2.6688	-2.2125	-1.8854	-2.7521	-1.8583	-2.3125	-2.5917	-1.8708	-2.4062	-2.2167	-105.443	91.367	211.598	-100.559	3.685	61.515	15.132	234.026	94.798	-99.453	201.707	-26.018	193.371	-42.653	-49.610	157.881	0.00041295	0.0019662	0.000261	910.6	1.4423e-05	1.5618e-05	785.05	244.34	6.2477e-06	2.3338e-05	240.57	69.289	73.162	28.497	7.5571e-06	32.069	0.018711	0.030188	0.0084768	1099.4	0.00032413	0.00033577	871.78	275.25	0.00030629	0.00033794	292.75	87.686	103	34.598	0.00031095	40.854	-62.811	-45.553	155.071	-109.436	138.403	75.682	-109.914	-103.906	-89.564	-23.104	-105.634	-100.544	-98.824	-93.765	51.277	-96.649	-8191	255	
14554.289	1	1	0	0	0.22935	0.12116	0.079341	0.098184	0.11489	0.12224	0.1796	0.17848	0.15826	0.20511	0.24833	0.29037	0.028041	0.1155	0.11989	0.19891	-1.4667	-2.5104	-2.0271	-2.0604	-2.5729	-1.7833	-2.5833	-2.4688	-1.8896	-2.6708	-2.1979	-2.1771	-2.5917	-2.0875	-2.4833	-2.4062	166.189	24.344	176.629	20.343	54.554	66.663	206.998	-114.084	-43.934	-25.880	210.486	170.975	-27.226	-46.900	185.710	186.448	0.00031521	0.001939	0.00069397	907.29	1.8205e-05	9.8827e-06	792.12	246.92	5.7353e-06	9.945e-06	239.3	68.915	73.25	28.596	6.391e-06	31.769	0.018698	0.029876	0.0085195	1101	0.00032361	0.00033816	878.59	276.34	0.00030356	0.00033672	292.77	87.899	102.96	34.541	0.00031214	40.587	-82.265	39.965	196.806	-108.954	8.826	73.134	-109.867	-103.760	-62.233	41.215	-105.877	-100.355	-98.568	-93.575	133.383	-96.796	-8191	255	
#DATA ENDS
