BOXY.EXE: ISS Imagent and Oximeter Data Acquisition Program Version 0.80
Ascii Record File

#ACQ INFORMATION
2  Detector Channels 
16  External MUX Channels 
1  Auxiliary Channels 
5000  Waveform (CCF) Frequency (Hz)
1  Waveforms Skipped 
30  Waveforms Averaged 
1  Cycles Averaged 
16  Acquisitions per Waveform 
10.0806  Updata Rate (Hz) 

#FILE INFORMATION
TRUE -- External MUX Channel results are PARSED.
FALSE -- AC DC and Phase are NOT grouped.
TRUE -- Companion Program Settings File CREATED.
FALSE -- AC data not excluded
FALSE -- DC data not excluded
FALSE -- Phase data not excluded
FALSE -- Auxillary Chn. data not excluded
Tab delimiters

#CALIBRATION STATE
TRUE -- Waveform Calibration Values APPLIED.


#AUX CALIBRATION VALUES
Val Type	aux-1	

Term	1.0000e+00	
Factor	0.0000e+00	


#WF CALIBRATION VALUES
A = Detector Channel
Val Type	A-AC1	A-AC2	A-AC3	A-AC4	A-AC5	A-AC6	A-AC7	A-AC8	A-AC9	A-AC10	A-AC11	A-AC12	A-AC13	A-AC14	A-AC15	A-AC16	A-DC1	A-DC2	A-DC3	A-DC4	A-DC5	A-DC6	A-DC7	A-DC8	A-DC9	A-DC10	A-DC11	A-DC12	A-DC13	A-DC14	A-DC15	A-DC16	A-Ph1	A-Ph2	A-Ph3	A-Ph4	A-Ph5	A-Ph6	A-Ph7	A-Ph8	A-Ph9	A-Ph10	A-Ph11	A-Ph12	A-Ph13	A-Ph14	A-Ph15	A-Ph16	

Term	0.00000e+00	0.00000e+00	0.00000e+00	0.00000e+00	0.00000e+00	0.00000e+00	0.00000e+00	0.00000e+00	0.00000e+00	0.00000e+00	0.00000e+00	0.00000e+00	0.00000e+00	0.00000e+00	0.00000e+00	0.00000e+00	0.00000e+00	0.00000e+00	0.00000e+00	0.00000e+00	0.00000e+00	0.00000e+00	0.00000e+00	0.00000e+00	0.00000e+00	0.00000e+00	0.00000e+00	0.00000e+00	0.00000e+00	0.00000e+00	0.00000e+00	0.00000e+00	0.00000e+00	0.00000e+00	0.00000e+00	0.00000e+00	0.00000e+00	0.00000e+00	0.00000e+00	0.00000e+00	0.00000e+00	0.00000e+00	0.00000e+00	0.00000e+00	0.00000e+00	0.00000e+00	0.00000e+00	0.00000e+00	
Factor	1.00000e+00	1.00000e+00	1.00000e+00	1.00000e+00	1.00000e+00	1.00000e+00	1.00000e+00	1.00000e+00	1.00000e+00	1.00000e+00	1.00000e+00	1.00000e+00	1.00000e+00	1.00000e+00	1.00000e+00	1.00000e+00	1.00000e+00	1.00000e+00	1.00000e+00	1.00000e+00	1.00000e+00	1.00000e+00	1.00000e+00	1.00000e+00	1.00000e+00	1.00000e+00	1.00000e+00	1.00000e+00	1.00000e+00	1.00000e+00	1.00000e+00	1.00000e+00	X	X	X	X	X	X	X	X	X	X	X	X	X	X	X	X	

B = Detector Channel
Val Type	B-AC1	B-AC2	B-AC3	B-AC4	B-AC5	B-AC6	B-AC7	B-AC8	B-AC9	B-AC10	B-AC11	B-AC12	B-AC13	B-AC14	B-AC15	B-AC16	B-DC1	B-DC2	B-DC3	B-DC4	B-DC5	B-DC6	B-DC7	B-DC8	B-DC9	B-DC10	B-DC11	B-DC12	B-DC13	B-DC14	B-DC15	B-DC16	B-Ph1	B-Ph2	B-Ph3	B-Ph4	B-Ph5	B-Ph6	B-Ph7	B-Ph8	B-Ph9	B-Ph10	B-Ph11	B-Ph12	B-Ph13	B-Ph14	B-Ph15	B-Ph16	

Term	0.00000e+00	0.00000e+00	0.00000e+00	0.00000e+00	0.00000e+00	0.00000e+00	0.00000e+00	0.00000e+00	0.00000e+00	0.00000e+00	0.00000e+00	0.00000e+00	0.00000e+00	0.00000e+00	0.00000e+00	0.00000e+00	0.00000e+00	0.00000e+00	0.00000e+00	0.00000e+00	0.00000e+00	0.00000e+00	0.00000e+00	0.00000e+00	0.00000e+00	0.00000e+00	0.00000e+00	0.00000e+00	0.00000e+00	0.00000e+00	0.00000e+00	0.00000e+00	-1.51084e+02	-1.28834e+02	-1.28025e+02	-1.86409e+02	-7.68898e+01	-6.93831e+01	-1.58531e+02	-1.62015e+02	-7.47914e+01	-6.79359e+01	-1.72014e+02	-1.71423e+02	-1.83400e+02	-1.77421e+02	-7.05656e+01	-1.49763e+02	
Factor	2.11876e-05	1.39541e-04	4.21210e-05	2.80485e-01	1.28048e-06	1.60148e-06	1.54187e-01	4.54447e-02	1.08396e-06	1.57593e-06	7.46426e-02	2.54121e-02	3.58899e-02	8.15869e-03	1.32146e-06	1.15051e-02	9.79520e-06	1.44465e-05	4.03494e-06	1.49735e-01	1.53051e-07	1.61647e-07	7.78450e-02	2.45314e-02	1.47844e-07	1.59374e-07	3.90137e-02	1.33397e-02	1.96024e-02	4.44578e-03	1.52412e-07	6.08456e-03	X	X	X	X	X	X	X	X	X	X	X	X	X	X	X	X	



#DISTANCE SETTINGS
A = Detector Channel
A-1	A-2	A-3	A-4	A-5	A-6	A-7	A-8	A-9	A-10	A-11	A-12	A-13	A-14	A-15	A-16	

2.5000e+00	3.0000e+00	2.5000e+00	3.0000e+00	2.0000e+00	3.0000e+00	1.5000e+00	3.0000e+00	3.0000e+00	3.0000e+00	3.0000e+00	3.0000e+00	3.0000e+00	3.0000e+00	1.5000e+00	3.0000e+00	

B = Detector Channel
B-1	B-2	B-3	B-4	B-5	B-6	B-7	B-8	B-9	B-10	B-11	B-12	B-13	B-14	B-15	B-16	

1.0000e+01	1.0000e+01	1.0000e+01	1.4400e+00	1.0000e+01	1.0000e+01	1.5100e+00	1.9400e+00	1.0000e+01	1.0000e+01	1.9900e+00	2.4900e+00	2.4100e+00	2.9000e+00	1.0000e+01	2.9800e+00	




#DATA BEGINS
time	group	step	mark	flag	A-AC1	A-AC2	A-AC3	A-AC4	A-AC5	A-AC6	A-AC7	A-AC8	A-AC9	A-AC10	A-AC11	A-AC12	A-AC13	A-AC14	A-AC15	A-AC16	A-DC1	A-DC2	A-DC3	A-DC4	A-DC5	A-DC6	A-DC7	A-DC8	A-DC9	A-DC10	A-DC11	A-DC12	A-DC13	A-DC14	A-DC15	A-DC16	A-Ph1	A-Ph2	A-Ph3	A-Ph4	A-Ph5	A-Ph6	A-Ph7	A-Ph8	A-Ph9	A-Ph10	A-Ph11	A-Ph12	A-Ph13	A-Ph14	A-Ph15	A-Ph16	B-AC1	B-AC2	B-AC3	B-AC4	B-AC5	B-AC6	B-AC7	B-AC8	B-AC9	B-AC10	B-AC11	B-AC12	B-AC13	B-AC14	B-AC15	B-AC16	B-DC1	B-DC2	B-DC3	B-DC4	B-DC5	B-DC6	B-DC7	B-DC8	B-DC9	B-DC10	B-DC11	B-DC12	B-DC13	B-DC14	B-DC15	B-DC16	B-Ph1	B-Ph2	B-Ph3	B-Ph4	B-Ph5	B-Ph6	B-Ph7	B-Ph8	B-Ph9	B-Ph10	B-Ph11	B-Ph12	B-Ph13	B-Ph14	B-Ph15	B-Ph16	aux-1	digaux	

29868.021	1	1	0	256	0.07083	0.17322	0.10322	0.086879	0.12641	0.081909	0.2318	0.10181	0.13791	0.081756	0.2109	0.14415	0.094486	0.09461	0.23357	0.13054	-2.2083	-2.7854	-1.9937	-2.9	-2.3104	-2.2417	-2.7625	-2.1396	-2.625	-2.7208	-1.9917	-2.8792	-2.2438	-2.3604	-2.8667	-2.2833	354.270	282.136	503.162	167.154	482.714	305.075	182.684	236.799	328.739	260.488	500.939	495.001	406.011	344.777	220.735	413.895	0.00015229	0.00051038	0.00010974	328.1	4.5508e-06	7.5782e-06	261.51	106.38	5.3029e-06	3.3446e-06	96.972	37.699	40.932	13.35	5.681e-06	13.338	0.0022945	0.0032618	0.00091782	381.57	3.4773e-05	3.6366e-05	296.15	119.52	3.354e-05	3.5821e-05	112.43	43.138	47.885	15.529	3.4657e-05	15.771	173.769	342.637	296.802	159.945	162.828	289.636	159.037	165.229	250.998	172.619	162.579	166.591	168.294	175.310	288.671	171.799	-8191	255	
29868.117	1	1	0	0	0.32975	0.040375	0.23818	0.32567	0.28321	0.05598	0.45082	0.15663	0.15589	0.29606	0.18938	0.26297	0.11789	0.22618	0.0014702	0.030553	-2.0458	-2.5938	-1.9625	-2.7792	-2.5062	-2.1354	-3.0271	-2.0812	-2.3937	-2.6437	-2.0542	-2.5812	-2.5208	-2.2625	-2.9042	-2.2313	403.396	241.766	173.564	429.129	474.464	363.021	219.545	454.895	320.887	254.880	297.505	423.959	403.121	459.059	180.000	152.410	0.00018467	0.00029905	7.3757e-05	329.66	1.5277e-06	5.7242e-06	260.81	106.77	7.6486e-07	2.9232e-06	97.492	37.56	40.608	13.525	2.3949e-06	13.611	0.0022878	0.0033133	0.00091871	382.07	3.475e-05	3.6897e-05	295.03	119.6	3.3591e-05	3.6314e-05	112.73	43.213	48.019	15.651	3.5156e-05	15.959	186.790	204.864	185.620	159.893	420.886	334.561	158.805	165.042	453.428	383.259	162.949	166.863	168.954	175.526	226.044	171.849	-8191	255	
29868.215	1	1	0	0	0.12221	0.064964	0.17283	0.16699	0.23496	0.18774	0.10028	0.1068	0.25132	0.18654	0.15968	0.097567	0.15943	0.16566	0.096872	0.099403	-1.7646	-2.6521	-2.125	-2.5875	-2.5146	-1.9729	-2.8542	-2.1396	-2.2917	-2.8979	-2.2667	-2.6667	-2.7917	-2.1479	-2.7604	-2.3063	457.097	231.135	375.880	274.905	303.425	400.464	499.063	162.007	473.907	465.624	237.568	191.721	230.567	494.340	249.670	162.858	0.00016919	0.00027133	9.845e-05	326.83	2.7666e-06	2.1873e-06	259.92	106.81	1.1484e-06	1.4724e-06	99.034	37.853	40.985	13.612	2.4448e-06	13.69	0.0023348	0.0033035	0.0009394	381.93	3.5395e-05	3.7566e-05	295.37	119.76	3.4247e-05	3.7217e-05	113.67	43.518	48.172	15.761	3.5729e-05	16.152	171.193	190.244	230.837	160.265	253.104	227.388	158.914	165.009	259.255	211.766	162.879	167.113	168.939	175.727	292.400	172.194	-8191	255	
29868.334	1	1	0	0	0.12903	0.11122	0.13827	0.27631	0.046451	0.23978	0.21764	0.15228	0.070091	0.14947	0.13131	0.076402	0.15738	0.12658	0.22053	0.090442	-1.6938	-2.9292	-2.2375	-2.3958	-2.7667	-2.2083	-2.7354	-2.2917	-2.1667	-2.8958	-2.0958	-2.6167	-2.7729	-1.8792	-2.9208	-2.4896	431.052	404.879	307.270	277.548	188.868	433.636	497.891	281.638	478.808	398.450	228.408	312.591	404.987	409.252	240.663	343.585	0.00019674	1.5795e-05	5.5648e-05	329.53	4.2693e-06	3.665e-06	263.37	108.12	2.8176e-06	4.5776e-06	99.568	38.264	41.323	13.823	1.2859e-06	13.801	0.0023563	0.0033512	0.00093626	383.51	3.5975e-05	3.7543e-05	298.45	121.05	3.4187e-05	3.7119e-05	114.87	43.839	48.666	15.902	3.5529e-05	16.298	163.671	463.101	295.089	160.049	382.920	405.831	159.275	165.221	286.553	219.789	163.161	166.648	168.872	175.512	321.656	171.982	-8191	255	
29868.406	1	1	0	0	0.20639	0.29914	0.24076	0.22868	0.075548	0.31814	0.14387	0.26778	0.22909	0.14769	0.20467	0.095855	0.12788	0.055236	0.041886	0.057016	-1.9125	-2.8354	-2.1063	-2.4542	-2.75	-2.0438	-2.8563	-2.5062	-2.0646	-2.8042	-2.3354	-2.3229	-2.6562	-2.1167	-2.7146	-2.6271	415.369	157.825	426.520	442.635	481.582	336.925	215.444	468.583	326.941	237.700	271.199	368.598	494.779	468.918	163.873	376.659	0.00026429	0.00051568	0.00013053	328.66	1.0067e-06	4.8366e-06	265.58	108.85	1.7151e-06	2.0475e-06	100.44	38.524	41.841	13.861	2.8118e-06	13.992	0.0023537	0.0033728	0.00094118	385.58	3.5618e-05	3.7715e-05	301.61	121.86	3.4573e-05	3.7146e-05	115.87	44.381	49.063	16.046	3.5452e-05	16.454	172.453	227.178	169.903	160.407	312.042	505.274	158.942	165.074	207.686	168.184	163.644	166.882	168.809	175.502	235.597	172.403	-8191	255	
29868.502	1	1	0	0	0.22081	0.090085	0.19584	0.084426	0.021409	0.19801	0.1016	0.20381	0.09513	0.13671	0.34326	0.25744	0.20071	0.15239	0.18926	0.34506	-1.7188	-2.9229	-2.5167	-2.3167	-2.8646	-2.1188	-2.6896	-2.7958	-2.2083	-2.9875	-2.5271	-2.2458	-2.9708	-2.2021	-2.6542	-2.8375	320.692	286.978	378.916	237.374	289.636	349.378	150.305	359.264	168.674	361.373	506.296	499.137	226.814	251.090	315.551	456.985	0.00024582	1.2275e-05	0.00011777	331.38	1.7869e-06	1.0374e-06	266.64	108.9	2.0728e-06	5.5154e-06	99.734	38.409	41.45	13.796	5.31e-06	13.735	0.0023617	0.0034043	0.00093827	385.54	3.5678e-05	3.7723e-05	301.9	121.72	3.4862e-05	3.6727e-05	115.31	44.024	48.675	15.893	3.507e-05	16.2	173.258	158.590	291.261	159.921	467.969	302.399	158.538	164.980	320.811	279.350	163.137	166.584	169.315	174.800	235.182	171.972	-8191	255	
29868.621	1	1	0	0	0.21364	0.19792	0.076862	0.13887	0.20596	0.27238	0.20692	0.18005	0.13292	0.18157	0.15711	0.25836	0.17343	0.33019	0.34678	0.16348	-1.6979	-2.8167	-2.4229	-2.0021	-2.8937	-2.0354	-2.4729	-2.7333	-2.0604	-2.65	-2.3854	-2.1854	-2.9833	-2.3833	-2.3583	-2.8333	226.971	247.075	201.741	175.099	480.645	473.175	499.302	230.320	269.731	243.629	185.440	482.153	434.116	148.713	155.275	239.281	0.00020536	0.00023832	5.8646e-05	327.21	5.6075e-06	4.2639e-06	265.56	107.44	3.8455e-06	4.2821e-06	98.547	38.328	41.195	13.638	1.846e-06	13.656	0.0023275	0.0033615	0.00092224	384.32	3.5243e-05	3.6926e-05	300.48	120.56	3.4099e-05	3.6716e-05	114.2	43.891	48.371	15.737	3.499e-05	16.096	179.990	354.384	303.424	160.310	277.013	229.503	159.011	164.946	249.838	272.774	162.970	166.383	169.252	175.188	249.420	172.028	-8191	255	
29868.717	1	1	0	0	0.15952	0.19341	0.11883	0.10716	0.14563	0.12959	0.39892	0.072907	0.17657	0.10998	0.0083744	0.18411	0.26424	0.23172	0.28977	0.066272	-1.8833	-2.6521	-2.4646	-2.2188	-2.9958	-2.4	-2.4729	-2.9125	-2.05	-2.8187	-2.6979	-1.9958	-3.0104	-2.2667	-2.3604	-2.775	506.831	499.985	297.547	259.185	331.277	426.489	152.829	345.535	165.310	387.908	184.028	371.527	345.439	312.773	450.098	234.563	0.00020797	0.00035729	3.0025e-05	331.12	4.3395e-06	6.8733e-06	265.26	107.95	5.0062e-06	3.4516e-06	99.276	38.027	41.149	13.67	1.7591e-06	13.731	0.0023097	0.003303	0.00091109	385.28	3.5256e-05	3.6947e-05	300.03	120.77	3.4186e-05	3.6219e-05	114.34	43.692	48.241	15.76	3.4989e-05	16.122	176.147	473.335	360.894	159.762	186.524	195.321	158.944	165.033	273.297	290.253	163.022	166.907	169.137	175.552	359.021	172.171	-8191	255	
29868.812	1	1	0	0	0.054916	0.26948	0.16892	0.11589	0.21545	0.19783	0.12797	0.24317	0.10329	0.23476	0.13338	0.17054	0.095568	0.30646	0.16538	0.087119	-1.5938	-2.5333	-2.65	-1.9375	-2.875	-2.2083	-2.0292	-2.8812	-2.1104	-2.4771	-2.7771	-2.0438	-2.75	-2.3479	-2.1729	-2.9708	353.576	484.987	469.872	431.467	369.324	444.498	329.521	445.617	291.486	148.942	462.503	251.885	170.361	491.315	265.604	479.552	0.00016751	0.00038954	2.5692e-05	330.83	6.7334e-06	2.9608e-06	267.08	108.26	4.2972e-07	3.8998e-06	98.124	37.927	41.11	13.644	3.6748e-06	13.595	0.00232	0.0032784	0.00091138	384.31	3.4761e-05	3.6503e-05	300.56	120.54	3.4041e-05	3.5831e-05	113.97	43.634	48.317	15.717	3.4353e-05	16.061	178.450	268.438	370.833	160.316	299.217	455.195	158.947	165.224	438.559	390.230	163.202	166.860	168.747	175.216	273.607	172.545	-8191	255	
29868.934	1	1	0	0	0.16174	0.040823	0.095915	0.15849	0.15349	0.067893	0.090866	0.18815	0.25113	0.088678	0.07833	0.10035	0.043055	0.026833	0.10468	0.25253	-1.85	-2.4271	-2.6729	-1.9833	-2.6125	-2.6042	-2.0521	-2.8021	-2.05	-2.3438	-2.9208	-2.1208	-2.5583	-2.5271	-2.2146	-2.9583	356.982	404.369	193.171	178.049	293.631	390.735	475.533	463.035	325.062	295.986	405.177	482.528	437.843	404.096	352.249	152.031	0.00018471	0.00039717	3.3115e-05	328.05	9.1419e-07	3.126e-06	263.3	107.43	2.9174e-06	2.9072e-06	98.808	37.624	40.859	13.541	4.2898e-06	13.418	0.0022845	0.0032386	0.00090645	382.9	3.464e-05	3.6456e-05	298.14	120.16	3.3393e-05	3.5895e-05	113.23	43.183	47.965	15.596	3.4339e-05	15.844	181.568	288.535	255.989	160.273	163.589	333.742	158.721	165.449	309.363	361.845	163.592	166.942	168.973	175.534	247.078	172.771	-8191	255	
29869.006	1	1	0	0	0.19832	0.11374	0.181	0.31156	0.17183	0.028105	0.13894	0.29446	0.068516	0.14939	0.40441	0.14221	0.18824	0.28218	0.10836	0.073225	-1.85	-2.2271	-2.8417	-2.1542	-2.6292	-2.5833	-1.925	-2.9021	-2.3479	-2.2646	-2.7625	-2.1125	-2.7583	-2.6917	-2.1396	-2.8833	287.617	212.235	413.416	448.260	195.521	466.300	345.143	491.756	391.474	446.957	392.474	447.591	233.658	428.967	217.833	287.291	0.0002056	0.00026482	2.869e-05	324.6	2.1476e-06	3.3399e-06	262.4	106.37	4.3611e-06	2.0162e-06	97.72	37.473	40.425	13.447	3.3207e-06	13.456	0.0022649	0.0032916	0.00091117	380.41	3.4306e-05	3.6394e-05	295.51	119.38	3.3051e-05	3.5638e-05	112.57	42.875	47.87	15.569	3.4528e-05	15.896	174.194	270.451	245.880	160.237	327.150	376.759	159.210	165.585	274.633	190.197	163.590	166.928	168.983	175.743	278.989	172.391	-8191	255	
29869.102	1	1	0	0	0.24941	0.06664	0.15309	0.15546	0.14852	0.15243	0.18492	0.11316	0.34547	0.14366	0.14744	0.21997	0.12815	0.29953	0.24938	0.090986	-1.8729	-2.1937	-2.8479	-2.2729	-2.5479	-2.8146	-2.2854	-2.7062	-2.2542	-2.1042	-2.8187	-2.2604	-2.5417	-2.7938	-2.1021	-2.6625	404.778	495.726	161.261	469.371	409.875	308.717	460.426	242.272	433.027	443.926	475.689	496.840	207.039	391.158	240.965	350.250	0.00023227	0.00029264	7.7025e-05	328.2	1.2888e-06	1.8629e-06	260.41	106.99	1.4271e-06	4.5418e-06	97.785	37.887	40.594	13.692	2.8234e-06	13.602	0.0022771	0.0032655	0.00091434	379.35	3.4639e-05	3.6373e-05	293.41	119.44	3.315e-05	3.6123e-05	113.17	43.226	47.961	15.734	3.47e-05	16.097	172.289	319.618	201.308	160.645	295.345	200.059	159.286	165.570	294.269	217.251	163.625	167.230	169.341	175.741	261.196	172.220	-8191	255	
29869.197	1	1	0	0	0.19635	0.047715	0.069886	0.29766	0.10242	0.18195	0.21326	0.21336	0.094297	0.17905	0.07092	0.008069	0.12632	0.12802	0.18417	0.12371	-2.1729	-1.9937	-2.8333	-2.1146	-2.525	-2.9417	-2.1208	-2.7708	-2.5958	-2.1917	-2.9417	-2.3792	-2.3604	-2.875	-2.1	-2.7396	386.228	342.682	308.007	448.719	315.275	400.089	180.884	494.787	287.267	454.583	460.393	302.378	419.612	439.056	481.044	486.490	0.00022118	0.00027826	3.3792e-05	326.81	4.6299e-06	2.9787e-06	264.54	107.52	4.3764e-06	2.8473e-06	99.322	38.231	41.346	13.639	3.6062e-06	13.851	0.0022717	0.0033157	0.00091686	380.29	3.5036e-05	3.6868e-05	296.92	120.38	3.3496e-05	3.6525e-05	114.42	43.593	48.373	15.821	3.4716e-05	16.278	147.779	212.601	249.832	159.958	315.706	353.999	159.317	165.743	309.347	412.526	163.375	166.589	169.218	175.548	289.406	171.837	-8191	255	
29869.295	1	1	0	0	0.18385	0.062617	0.1671	0.062225	0.24676	0.12831	0.1096	0.15562	0.10144	0.21143	0.26638	0.22129	0.1894	0.18852	0.19172	0.15064	-2.4875	-2.1125	-2.975	-2.2938	-2.2333	-2.9917	-2.2875	-2.4479	-2.6479	-2.0958	-2.8271	-2.3604	-2.1188	-2.6542	-2.3792	-2.4375	374.306	394.066	332.277	170.023	328.454	377.161	195.536	265.775	149.967	442.249	396.408	373.061	244.418	472.309	302.047	201.188	0.00018188	0.00015461	8.5821e-05	327.89	6.0874e-07	4.275e-06	264.71	107.85	1.5688e-06	2.4529e-06	99.894	38.345	41.327	14.011	3.9154e-06	13.828	0.0022772	0.0033021	0.0009125	381.88	3.5051e-05	3.6749e-05	298.95	120.89	3.3331e-05	3.6835e-05	114.81	43.93	48.459	16.005	3.4806e-05	16.377	171.885	206.630	311.134	160.833	365.238	271.709	159.298	165.592	252.480	258.163	163.161	167.002	169.219	175.563	262.401	172.267	-8191	255	
29869.412	1	1	0	0	0.12494	0.19039	0.079603	0.166	0.051428	0.1964	0.20805	0.1964	0.11645	0.086788	0.22566	0.10463	0.10496	0.16647	0.36307	0.181	-2.3354	-1.9729	-2.7729	-2.7	-2.1146	-2.8771	-2.2062	-2.4062	-2.8021	-2.0521	-2.9833	-2.4625	-2.2208	-2.6958	-2.3375	-2.5292	505.615	436.747	474.529	330.438	346.486	470.908	505.938	194.944	260.394	258.754	435.397	183.357	380.925	407.614	404.508	213.840	0.0002496	0.00018305	5.2863e-05	327.11	3.2334e-06	2.7226e-06	264.66	107.75	1.8493e-06	4.9422e-06	99.586	38.178	41.337	13.985	3.7077e-06	14.079	0.0022755	0.0032875	0.00090706	380.46	3.4901e-05	3.6751e-05	298.17	121.01	3.3421e-05	3.6629e-05	114.97	43.825	48.625	16.029	3.4389e-05	16.491	177.201	223.154	191.569	160.296	249.239	416.525	158.988	165.820	428.026	435.832	163.503	167.293	169.415	175.967	362.717	173.058	-8191	255	
29869.510	1	1	0	0	0.13398	0.12473	0.1475	0.15931	0.14104	0.21817	0.12684	0.28708	0.19818	0.26943	0.060248	0.16372	0.29563	0.17576	0.13951	0.23959	-2.4542	-1.9833	-2.6292	-2.6542	-2.0125	-2.7792	-2.3083	-2.4625	-2.8854	-2.0771	-2.7021	-2.7583	-1.9729	-2.9188	-2.425	-2.2417	382.657	156.057	454.735	405.448	245.956	302.078	383.640	454.041	473.880	330.264	210.089	207.656	435.600	223.613	334.850	273.008	0.00021631	0.00014762	0.00015905	327.72	2.4258e-06	4.8321e-06	263.57	109.21	1.3281e-06	4.814e-06	99.643	38.354	41.365	14.003	1.3216e-06	14.145	0.0022876	0.0032949	0.00091589	382.42	3.5196e-05	3.6739e-05	298.42	121.45	3.4063e-05	3.6559e-05	115.33	43.968	48.642	16.13	3.4866e-05	16.623	172.590	184.108	258.089	160.736	176.291	393.171	159.698	165.873	438.045	335.422	163.834	167.010	169.515	176.022	215.780	172.566	-8191	255	
29869.582	1	1	0	0	0.11472	0.27072	0.10385	0.14958	0.14638	0.27006	0.13483	0.17971	0.11521	0.1917	0.099878	0.082225	0.13662	0.035732	0.15538	0.4086	-2.5396	-1.9833	-2.4625	-2.8375	-1.9979	-2.9271	-2.3812	-2.2458	-3.0521	-2.0958	-2.3917	-2.7625	-2.2188	-2.8792	-2.4646	-2.1167	424.586	430.511	168.880	354.043	275.642	242.815	444.827	463.323	487.216	384.684	334.756	335.218	211.535	484.970	425.833	410.106	0.00022864	5.5868e-05	5.4317e-05	329.67	7.5555e-06	2.9573e-06	267.59	108.5	9.9207e-07	4.8791e-06	101.21	38.739	41.676	13.937	2.7367e-06	14.134	0.002313	0.0033178	0.00091247	384.22	3.5492e-05	3.722e-05	300.52	121.54	3.4097e-05	3.623e-05	116.35	44.172	48.737	16.094	3.4362e-05	16.54	173.843	372.913	164.023	160.435	269.680	375.223	159.316	165.697	244.700	275.684	164.158	167.361	169.738	175.947	331.211	172.553	-8191	255	
29869.701	1	1	0	0	0.26018	0.037549	0.16555	0.13223	0.22716	0.17749	0.17602	0.18317	0.13633	0.15652	0.06314	0.13214	0.040973	0.14221	0.16445	0.038073	-2.4062	-2.1875	-2.5979	-2.9313	-2.2167	-2.7042	-2.6792	-2.1167	-2.8333	-2.2667	-2.4604	-2.7646	-2.0417	-2.5229	-2.5729	-2.0417	189.990	239.947	400.325	374.763	447.073	303.279	150.046	227.652	201.701	435.971	315.510	493.820	198.772	504.195	231.313	176.810	0.00013774	0.00036543	0.00010716	332.62	3.4005e-06	6.1179e-06	269.29	108.76	9.7659e-07	3.9634e-06	101.36	39.063	41.641	13.986	6.5696e-06	13.915	0.0022956	0.0032326	0.00090205	384.23	3.4939e-05	3.6083e-05	302.6	121.94	3.355e-05	3.5517e-05	116.53	44.377	48.837	16.024	3.4416e-05	16.409	159.364	262.243	286.519	161.191	161.540	343.512	159.301	165.626	328.507	207.639	163.729	167.036	170.005	176.147	311.982	172.242	-8191	255	
29869.799	1	1	0	0	0.089454	0.18401	0.26521	0.1552	0.17958	0.2416	0.10229	0.11821	0.14951	0.21528	0.18249	0.20973	0.070642	0.10159	0.092152	0.15888	-2.6146	-2.2438	-2.3271	-2.6979	-2.1604	-2.6229	-2.8063	-2.0625	-2.6875	-2.2708	-2.2313	-2.9271	-2.0417	-2.5354	-2.8875	-1.9958	320.698	267.378	272.859	375.392	267.003	460.394	467.943	342.187	447.584	223.279	208.015	477.906	495.040	220.269	325.208	359.625	0.00019293	0.00054869	6.5094e-05	331.6	4.0685e-06	1.1004e-06	268.48	108.44	2.4264e-06	4.4954e-06	100.44	38.429	41.177	13.774	3.8388e-06	13.696	0.0022546	0.0032306	0.00091553	385.58	3.4777e-05	3.6055e-05	302.13	121.88	3.2648e-05	3.4943e-05	115.35	43.753	48.343	15.825	3.4085e-05	16.107	162.249	237.861	209.155	160.597	306.708	237.601	159.298	165.719	248.132	307.170	163.087	167.005	169.035	175.334	312.875	171.922	-8191	255	
29869.895	1	1	0	0	0.099756	0.23075	0.16135	0.030402	0.14501	0.10148	0.18297	0.33636	0.056011	0.16993	0.071789	0.067058	0.098693	0.065951	0.02573	0.23622	-2.4875	-2.3458	-2.0771	-2.7625	-2.2104	-2.6375	-2.825	-2.0333	-2.8583	-2.5875	-2.2188	-2.8396	-2.1792	-2.35	-2.7396	-2.1271	197.163	257.284	169.665	292.951	467.431	476.889	481.909	457.335	438.911	190.640	285.926	428.562	494.467	370.343	421.825	479.277	0.00021668	0.00035496	0.00011632	330.18	3.8339e-06	3.1685e-06	265.13	107.69	2.7227e-06	2.8522e-06	98.997	38.103	41.195	13.747	4.45e-06	13.585	0.0022461	0.0031664	0.00089782	383.59	3.3579e-05	3.5695e-05	298.98	120.57	3.2371e-05	3.478e-05	114.2	43.473	48.226	15.785	3.3727e-05	16.059	173.331	159.172	325.649	160.167	457.583	248.963	159.587	165.497	332.922	370.540	163.679	167.552	169.006	176.254	331.519	172.708	-8191	255	
29870.014	1	1	0	0	0.27561	0.26928	0.16747	0.30838	0.17536	0.15072	0.35082	0.030936	0.19734	0.26844	0.28071	0.058999	0.043897	0.13748	0.051602	0.045277	-2.2208	-2.3771	-2.0458	-2.8771	-2.3146	-2.4062	-2.9479	-2.0729	-2.5062	-2.7604	-2.2896	-2.8854	-2.4521	-2.3	-2.9625	-2.2354	170.696	201.575	469.861	186.498	276.684	313.759	436.663	495.546	383.298	231.070	461.755	493.313	268.789	184.645	295.605	333.017	0.00018588	0.00044305	0.00011113	328.09	4.0389e-06	3.2246e-06	264.38	107.13	4.2099e-06	4.463e-06	98.915	38.01	41.066	13.796	3.2606e-06	13.722	0.0022195	0.0031763	0.00089934	382.71	3.386e-05	3.5643e-05	298.49	120.26	3.2809e-05	3.5006e-05	113.84	43.393	47.887	15.787	3.3348e-05	16.076	160.345	167.935	173.084	160.664	309.550	171.467	159.643	165.613	184.237	234.774	163.466	167.266	169.347	175.951	224.300	172.616	-8191	255	
29870.111	1	1	0	0	0.2385	0.18445	0.026237	0.13278	0.21156	0.18186	0.039546	0.15378	0.16874	0.058596	0.15825	0.19795	0.40432	0.1706	0.093117	0.21724	-2.1792	-2.6854	-2.0833	-2.9854	-2.6813	-2.2167	-2.7583	-2.0583	-2.6229	-2.9646	-2.2375	-2.9417	-2.5229	-2.2333	-3.1146	-2.2188	308.025	285.204	199.697	162.022	481.350	191.253	228.593	152.404	321.350	406.366	492.182	442.833	435.286	441.571	254.199	430.041	0.00020185	0.0006886	6.2449e-05	331.15	5.1146e-06	5.0231e-06	264.04	106.93	2.5747e-06	1.7324e-06	98.658	38.074	40.497	13.694	2.1662e-06	13.744	0.0021789	0.0031792	0.0008841	380.66	3.311e-05	3.5293e-05	297.69	119.46	3.2348e-05	3.4599e-05	113.39	43.227	47.667	15.71	3.3123e-05	16.072	150.646	243.212	187.610	160.851	315.043	364.835	159.603	165.442	215.718	383.667	163.650	166.746	168.740	175.740	274.685	172.186	-8191	255	
29870.207	1	1	0	0	0.2528	0.12722	0.10447	0.014891	0.15353	0.28884	0.11375	0.043374	0.30423	0.26395	0.27367	0.29898	0.19127	0.039918	0.060272	0.059343	-1.9333	-2.7625	-2.2167	-2.7021	-2.525	-2.2375	-2.9562	-2.2438	-2.4271	-2.8479	-2.1583	-2.8812	-2.6042	-2.1146	-2.8563	-2.3271	334.561	388.222	258.810	366.881	445.259	151.703	358.207	431.310	259.663	419.060	481.409	186.218	375.307	155.808	464.042	154.766	0.00019711	0.00019283	0.00013127	326.96	7.6866e-07	3.9743e-06	262.94	106.08	1.9642e-06	2.9397e-06	97.901	37.781	40.702	13.701	3.1307e-06	13.563	0.0022093	0.0031564	0.0008926	379.65	3.3165e-05	3.5469e-05	296.47	118.79	3.2441e-05	3.4767e-05	112.47	43.049	47.69	15.654	3.2875e-05	15.906	164.308	220.334	321.431	160.383	283.947	255.089	159.457	165.320	281.381	371.890	163.228	167.000	168.659	175.443	324.035	172.266	-8191	255	
29870.303	1	1	0	0	0.11284	0.041381	0.047435	0.13235	0.16547	0.10615	0.055429	0.1361	0.21741	0.21609	0.056384	0.12651	0.088433	0.19155	0.1282	0.22256	-1.8542	-2.8083	-2.0146	-2.5333	-2.4125	-2.0958	-3.0125	-2.3125	-2.3083	-2.8646	-2.0479	-2.5438	-2.6375	-2.1292	-2.9875	-2.3521	386.267	326.227	382.701	502.001	484.103	410.780	283.746	300.141	229.551	368.472	211.549	419.211	439.196	361.095	475.711	308.720	0.0001624	0.0002051	0.00013531	326.07	4.0877e-06	1.8213e-06	261.62	105.87	2.608e-06	3.7385e-06	97.476	37.111	40.539	13.564	2.0007e-06	13.488	0.0021865	0.0031206	0.0008809	377.67	3.3275e-05	3.501e-05	294.73	118.38	3.2266e-05	3.4597e-05	111.67	42.651	47.433	15.548	3.2853e-05	15.79	167.338	203.590	236.591	160.081	157.400	283.026	158.746	164.837	250.543	250.749	163.171	166.877	168.763	175.058	221.496	171.777	-8191	255	
29870.396	1	1	0	0	0.043587	0.1936	0.15786	0.09464	0.23597	0.40899	0.11586	0.12483	0.19786	0.059254	0.13558	0.25953	0.28209	0.28144	0.056295	0.1155	-1.9604	-2.9958	-2.2042	-2.5438	-2.7208	-2.1958	-2.8375	-2.5563	-2.2917	-2.8438	-2.1979	-2.4917	-2.8979	-2.3	-2.7458	-2.7562	398.052	168.735	172.644	178.970	310.670	416.262	427.694	267.714	495.551	194.087	151.946	355.837	397.830	505.835	282.095	470.911	0.00017121	0.00017593	0.00013095	326.19	5.2352e-06	3.3774e-06	260.67	105.5	4.4895e-06	2.1587e-06	97.574	37.421	40.613	13.542	6.3381e-07	13.655	0.002194	0.0030906	0.00086389	377.51	3.3245e-05	3.5055e-05	292.67	117.74	3.2167e-05	3.4346e-05	111.53	42.945	47.49	15.578	3.3367e-05	15.997	189.776	283.173	198.200	160.374	346.633	328.353	159.140	164.892	275.813	439.568	162.600	166.965	168.467	175.366	261.357	172.227	-8191	255	
29870.492	1	1	0	0	0.367	0.10396	0.21114	0.21038	0.10467	0.12406	0.071007	0.16907	0.31823	0.15387	0.22658	0.18182	0.084409	0.16294	0.14947	0.027641	-1.8333	-2.8604	-2.4229	-2.3708	-2.8542	-2.0979	-2.7938	-2.6271	-2.0521	-2.9896	-2.3375	-2.3729	-2.9771	-2.0375	-2.7354	-2.7417	349.321	404.757	367.001	477.985	310.974	238.798	334.729	147.229	444.730	338.450	238.743	173.595	444.444	203.313	302.945	341.122	0.00016803	0.00028005	5.3309e-05	325.14	5.1114e-06	6.223e-06	262.11	105.59	2.6015e-06	3.411e-06	98.166	37.937	41.145	13.779	7.5862e-06	13.81	0.0022276	0.0031709	0.00087911	376.41	3.3426e-05	3.5402e-05	295.07	118.52	3.267e-05	3.4254e-05	112.8	43.483	48.067	15.766	3.2973e-05	16.236	181.162	175.664	209.766	160.043	241.252	271.559	158.996	165.158	353.808	244.068	163.563	167.119	168.977	175.590	292.064	171.631	-8191	255	
29870.590	1	1	0	0	0.1273	0.15778	0.038396	0.19056	0.20175	0.1705	0.15031	0.033207	0.1348	0.11896	0.25774	0.079466	0.081215	0.27541	0.33473	0.040678	-1.6729	-2.6708	-2.2729	-2.2833	-2.9771	-2.1521	-2.725	-3.0125	-2.0187	-2.9062	-2.4062	-2.2	-3.0312	-2.0646	-2.4437	-2.7208	188.155	438.672	336.067	414.037	411.645	449.803	423.575	480.956	173.095	234.408	437.767	430.620	368.133	440.458	363.928	288.536	0.0001085	0.00041901	7.8764e-05	329.3	5.5468e-06	3.6126e-06	265.76	107.08	4.9755e-06	6.1106e-06	99.184	38.385	41.245	13.861	2.6677e-06	14.017	0.0022172	0.0031505	0.00087339	379.75	3.3955e-05	3.5185e-05	297.73	119.63	3.247e-05	3.4831e-05	114.03	43.908	48.371	15.849	3.3771e-05	16.378	160.102	259.070	310.705	160.112	339.276	323.586	159.178	165.236	314.890	248.025	163.194	167.045	169.229	175.326	314.574	172.348	-8191	255	
29870.711	1	1	0	0	0.030113	0.14872	0.087317	0.018765	0.089187	0.16102	0.035197	0.39367	0.39723	0.10219	0.22693	0.22994	0.35342	0.19365	0.19587	0.19083	-1.5708	-2.825	-2.5479	-2.3167	-2.8208	-2.1792	-2.5	-2.9604	-2.3167	-2.7917	-2.5479	-2.0875	-2.85	-2.3708	-2.4437	-2.9667	421.264	270.289	487.136	330.018	259.504	352.563	356.310	444.680	265.091	266.866	215.837	204.382	482.466	422.181	366.018	500.886	0.00022508	0.00010902	3.1638e-05	327.07	3.7152e-06	4.5409e-06	264.45	107.79	4.9674e-06	4.3531e-06	99.52	38.414	40.976	13.896	2.1406e-06	13.991	0.0022443	0.0031654	0.00088332	379.52	3.4063e-05	3.493e-05	297.88	120.24	3.2913e-05	3.4693e-05	114.08	43.904	48.271	15.931	3.3645e-05	16.402	167.530	469.485	253.281	160.179	352.481	398.579	159.004	165.168	260.403	257.655	163.440	166.753	169.251	175.129	252.083	172.109	-8191	255	
29870.807	1	1	0	0	0.069188	0.11251	0.16941	0.21991	0.22949	0.14905	0.10319	0.24507	0.048044	0.057573	0.21383	0.16939	0.31585	0.01071	0.18755	0.068399	-1.6063	-2.7479	-2.6833	-2.0354	-2.9437	-2.4729	-2.4938	-2.8917	-2.1417	-2.6813	-2.5833	-2.0917	-2.8292	-2.3708	-2.3125	-2.8292	378.373	337.346	185.729	299.597	359.191	269.782	382.668	353.315	497.566	259.608	416.796	405.978	491.882	379.850	209.061	415.515	0.00020233	0.00029174	5.5629e-05	329.44	4.2341e-06	3.4947e-06	264.76	107.63	3.8549e-06	1.6674e-06	99.124	38.672	41.221	13.881	5.8174e-06	14.064	0.0022565	0.0031534	0.00089929	381.44	3.3648e-05	3.5258e-05	298.53	120.63	3.2661e-05	3.4899e-05	114.87	44.121	48.522	15.993	3.4032e-05	16.545	161.067	452.873	254.144	160.205	217.325	388.179	158.937	165.119	495.392	361.570	163.151	166.615	169.249	175.615	312.806	172.583	-8191	255	
29870.879	1	1	0	0	0.18672	0.20314	0.078648	0.21771	0.1925	0.10628	0.12679	0.13644	0.082212	0.089742	0.27151	0.056669	0.043505	0.254	0.15523	0.088607	-1.8542	-2.425	-2.8167	-2.1229	-2.9375	-2.475	-2.1021	-2.9333	-2.1271	-2.5521	-2.7625	-2.2479	-2.8729	-2.4208	-2.1542	-2.7417	224.912	503.783	247.833	191.930	152.786	406.915	167.887	285.756	425.906	349.337	398.484	157.531	268.893	419.246	418.573	506.290	0.00021085	0.00014295	9.2235e-05	328.67	9.6039e-07	4.1453e-06	263.34	108.79	3.629e-06	3.3319e-07	100.74	38.899	41.559	13.971	1.0039e-06	14.154	0.0022355	0.0032022	0.00090107	380.57	3.3782e-05	3.5852e-05	300.1	121.43	3.2699e-05	3.5584e-05	116.01	44.402	48.847	15.997	3.3779e-05	16.547	173.497	221.109	244.790	160.021	248.574	452.098	158.954	165.199	225.347	449.551	163.139	166.856	168.556	174.900	171.934	172.352	-8191	255	
29870.975	1	1	0	0	0.13148	0.021713	0.067483	0.24046	0.092365	0.21252	0.18166	0.31334	0.12596	0.26236	0.17794	0.19063	0.1976	0.36354	0.14358	0.19151	-1.7375	-2.4833	-2.7667	-1.9396	-2.9104	-2.5979	-2.3104	-2.9917	-2.2833	-2.4208	-3.0125	-2.225	-2.6708	-2.5271	-2.0812	-2.9417	341.810	175.651	407.211	283.635	270.285	240.084	479.955	478.949	374.477	310.506	414.856	437.530	415.943	294.753	219.766	192.637	0.00019137	0.00035246	5.0941e-05	333.06	2.5559e-06	2.1066e-06	267.48	108.12	1.8648e-06	3.7044e-06	100.54	38.832	41.072	13.777	3.8578e-06	13.951	0.0022084	0.0032124	0.0008858	383.38	3.3155e-05	3.5635e-05	301.15	121.18	3.193e-05	3.4825e-05	115.66	44.286	48.4	15.847	3.3792e-05	16.422	164.081	283.030	348.660	160.150	238.013	437.005	158.985	165.131	390.723	278.667	163.115	166.449	168.971	175.309	332.720	172.465	-8191	255	
29871.096	1	1	0	0	0.11513	0.1354	0.01847	0.23788	0.055362	0.14822	0.12636	0.0087717	0.10025	0.21611	0.065046	0.23046	0.10703	0.020131	0.25582	0.12697	-2.0854	-2.3292	-2.9417	-2.1583	-2.45	-2.7	-2.1292	-2.9021	-2.5646	-2.1646	-2.9021	-2.1021	-2.5604	-2.5812	-2.1042	-2.7979	234.058	164.928	403.360	388.866	426.546	463.821	346.794	431.731	456.202	417.523	265.134	411.437	385.722	253.104	365.883	202.554	0.00015864	0.00031033	7.7114e-05	329.44	2.0911e-06	1.1032e-06	267.59	109.34	9.5914e-07	3.2689e-06	100.17	38.594	41.306	13.673	4.1523e-06	13.786	0.0021791	0.0031979	0.00089933	383.53	3.3235e-05	3.5179e-05	301.57	121.16	3.1976e-05	3.5224e-05	115.19	43.952	48.296	15.731	3.3404e-05	16.147	158.157	240.551	300.205	159.873	277.866	404.394	158.897	165.052	198.448	351.286	163.238	166.524	169.079	175.518	288.726	172.020	-8191	255	
29871.191	1	1	0	0	0.12181	0.20932	0.060761	0.22646	0.17508	0.33498	0.31535	0.083314	0.18258	0.17848	0.22061	0.070804	0.095887	0.030283	0.096588	0.16971	-2.0187	-2.2188	-2.9208	-2.1167	-2.5729	-2.8083	-2.1021	-2.8375	-2.5104	-2.2458	-3.1354	-2.2583	-2.4062	-2.8458	-2.0146	-2.8521	263.958	435.963	331.823	331.922	250.361	294.045	378.805	349.819	155.545	168.488	361.835	468.480	149.328	407.967	167.958	390.922	0.00017815	0.00058152	2.2151e-05	329.24	3.338e-06	4.2442e-06	265.74	107.87	3.5866e-06	4.8196e-06	99.838	38.14	41.297	13.632	2.9756e-06	13.679	0.0021832	0.0031783	0.00087017	381.45	3.3042e-05	3.4852e-05	299.3	120.15	3.2152e-05	3.4712e-05	113.79	43.507	48.084	15.612	3.2544e-05	16.023	176.056	319.176	219.930	160.402	408.771	224.587	159.274	165.317	265.178	307.298	162.968	167.094	169.196	175.340	282.606	172.061	-8191	255	
29871.287	1	1	0	0	0.14191	0.10351	0.16197	0.15866	0.077209	0.29527	0.15525	0.23555	0.12366	0.2352	0.20372	0.18426	0.069251	0.20985	0.06563	0.25702	-2.2375	-2.0708	-2.95	-2.3708	-2.5333	-3	-1.8667	-2.7479	-2.4792	-2.0229	-2.9729	-2.2687	-2.3312	-2.9313	-1.9292	-2.6083	495.929	148.154	220.233	454.192	170.543	474.557	497.673	484.123	394.086	420.511	197.544	186.523	360.384	427.052	318.496	378.021	0.00018076	0.00035592	0.00014251	329.72	1.7524e-06	1.62e-06	266.22	107.29	3.1195e-06	2.5847e-06	98.462	37.754	41.105	13.504	4.2568e-06	13.675	0.0021671	0.0031276	0.00086393	381.17	3.2984e-05	3.4897e-05	297.5	119.57	3.1597e-05	3.446e-05	113.1	43.274	47.777	15.545	3.2471e-05	15.957	190.834	496.003	201.874	159.919	255.928	168.116	158.987	165.154	367.598	421.261	163.218	166.773	168.663	175.419	376.165	172.246	-8191	255	
29871.383	1	1	0	0	0.05184	0.055664	0.13045	0.14734	0.12335	0.18019	0.19088	0.15805	0.16724	0.16318	0.16893	0.064997	0.21617	0.12689	0.085286	0.030628	-2.2167	-2.1125	-2.8396	-2.4583	-2.0917	-2.9021	-2.2062	-2.4729	-2.6958	-2.1312	-2.9979	-2.5875	-2.1917	-2.9229	-2.1	-2.5875	432.445	425.967	279.500	182.698	500.152	363.488	147.805	473.296	441.157	320.057	423.077	155.422	210.838	205.020	434.779	323.048	0.00017357	0.00018934	6.9956e-05	325.94	1.6807e-06	6.3342e-06	263.08	106.67	2.2922e-06	6.2138e-06	98.34	37.995	40.85	13.428	5.6293e-06	13.665	0.0021439	0.0031319	0.00085569	378.96	3.3078e-05	3.4399e-05	296.59	119.29	3.1607e-05	3.3874e-05	112.99	43.293	47.806	15.495	3.2142e-05	15.981	175.280	307.638	256.591	159.958	303.548	313.324	159.108	164.991	410.387	353.978	163.256	166.824	168.735	175.517	267.766	171.945	-8191	255	
29871.502	1	1	0	0	0.29633	0.31678	0.19715	0.11527	0.10144	0.082019	0.24942	0.21587	0.3334	0.28935	0.11174	0.37967	0.057285	0.15151	0.29571	0.19596	-2.3563	-2	-2.7896	-2.2771	-1.8937	-2.8521	-2.0167	-2.4	-2.75	-2.1521	-2.7687	-2.3896	-2.0646	-2.9021	-2.3479	-2.4625	209.618	322.470	264.027	189.402	311.787	463.712	382.465	284.351	446.010	506.790	240.233	499.691	209.527	475.818	320.743	170.586	0.0002588	0.00042792	4.1696e-05	326.68	1.6041e-06	1.5996e-06	263.34	106.73	1.7848e-06	3.3907e-06	97.738	38.03	40.685	13.45	2.3423e-06	13.623	0.0021151	0.0030772	0.00084667	379.42	3.2707e-05	3.4224e-05	296.23	118.81	3.1564e-05	3.384e-05	112.48	43.357	47.718	15.481	3.2272e-05	16.001	170.945	352.714	198.318	159.996	189.355	355.335	158.576	165.234	154.365	326.922	163.070	166.473	168.999	175.623	219.866	172.139	-8191	255	
29871.576	1	1	0	0	0.21207	0.10441	0.032271	0.22068	0.11948	0.086397	0.094983	0.33477	0.27916	0.063667	0.21019	0.10749	0.12565	0.07103	0.0652	0.25771	-2.3854	-2.1562	-2.8208	-2.4979	-2.1229	-2.925	-2.4188	-2.1417	-2.7521	-1.9667	-2.5667	-2.6583	-2.0458	-2.8937	-2.3354	-2.3854	481.813	283.217	192.462	180.941	338.147	433.183	276.994	433.744	377.120	219.231	333.551	188.089	413.007	296.805	224.074	457.752	0.00019652	0.00028251	8.3516e-05	328.32	9.4331e-07	4.8149e-06	261.52	106.2	1.714e-06	2.6156e-06	97.482	37.715	40.604	13.457	1.9938e-06	13.562	0.0021459	0.0030403	0.00085469	377.92	3.2385e-05	3.3739e-05	293.87	118.62	3.1546e-05	3.3772e-05	111.98	43.078	47.566	15.436	3.2442e-05	15.895	180.958	501.315	222.921	159.819	236.842	503.642	158.877	164.981	264.820	419.683	163.336	166.615	168.242	175.345	288.745	172.327	-8191	255	
29871.693	1	1	0	0	0.1676	0.21511	0.28355	0.18568	0.090472	0.097863	0.28571	0.25417	0.076402	0.13215	0.25616	0.26618	0.15738	0.081166	0.16588	0.10436	-2.5708	-2.0563	-2.4792	-2.7167	-1.9792	-2.6958	-2.5458	-2.175	-2.8063	-2.1188	-2.3604	-2.8354	-2.2229	-2.8021	-2.5458	-2.1708	448.869	481.748	240.036	470.635	343.276	465.729	352.610	205.682	364.197	269.005	435.218	446.243	310.392	481.493	423.113	461.606	0.00016365	8.8399e-05	3.6338e-05	322.88	3.7409e-06	4.4469e-06	260.14	105.95	1.8545e-06	1.5635e-06	96.421	37.603	40.709	13.551	3.5145e-06	13.653	0.0021553	0.003054	0.00085601	374.05	3.2722e-05	3.4092e-05	292.63	118.11	3.1476e-05	3.3845e-05	111.55	43.08	47.464	15.501	3.2542e-05	15.987	163.731	458.891	361.549	160.120	174.643	270.881	158.780	165.445	226.017	478.813	163.800	166.832	168.775	175.418	285.527	172.239	-8191	255	
29871.793	1	1	0	0	0.18394	0.23459	0.2078	0.23508	0.042255	0.16084	0.13839	0.21445	0.078195	0.2652	0.059373	0.10473	0.36474	0.076595	0.14773	0.49216	-2.6188	-2.4083	-2.2771	-3.0229	-2.1229	-2.775	-2.6271	-2.1667	-2.7646	-2.4146	-2.2479	-2.9292	-2.1167	-2.6917	-2.7854	-2.0667	290.712	253.634	374.011	461.216	297.513	465.010	282.161	176.863	381.043	479.909	228.669	401.691	380.700	488.611	331.145	367.351	0.00020841	0.00054456	0.00015032	324.03	3.8092e-06	3.8115e-06	260.34	106.52	2.1997e-06	3.098e-06	98.323	37.898	40.646	13.667	2.3703e-06	13.897	0.0021413	0.003069	0.00087475	376.04	3.2559e-05	3.4493e-05	293.97	118.69	3.1609e-05	3.4542e-05	113.03	43.443	47.796	15.661	3.3253e-05	16.285	160.258	291.059	329.668	159.992	235.334	357.518	158.708	165.318	287.833	225.818	163.888	166.747	169.095	175.750	455.674	171.950	-8191	255	
29871.887	1	1	0	0	0.09068	0.1807	0.12035	0.14646	0.18624	0.24701	0.32411	0.30214	0.026273	0.094674	0.016707	0.20097	0.10615	0.19475	0.14274	0.15132	-2.6146	-2.3896	-2.3	-2.8917	-2.175	-2.8521	-2.8167	-2.1833	-2.8375	-2.425	-2.2667	-2.825	-2.1146	-2.4583	-2.8771	-2.0021	438.312	263.855	412.109	446.154	223.978	265.384	199.707	477.153	445.694	452.331	317.931	405.067	200.416	186.952	457.327	231.973	0.00026646	0.0005966	7.1062e-05	324.2	1.2221e-06	3.0595e-06	263.04	107.06	1.4106e-06	1.8783e-06	98.213	38.71	41.019	13.715	1.8351e-06	14.166	0.0021763	0.0031027	0.00088844	378.43	3.2473e-05	3.5447e-05	296.11	119.53	3.1855e-05	3.4538e-05	114.11	43.974	47.977	15.805	3.3082e-05	16.518	164.546	220.440	216.422	160.065	347.233	441.565	158.940	165.652	223.176	300.744	163.441	166.720	169.207	175.676	385.545	171.618	-8191	255	
29871.982	1	1	0	0	0.082104	0.21589	0.061192	0.12479	0.13448	0.046917	0.31137	0.37317	0.16206	0.18637	0.10312	0.12239	0.25083	0.30807	0.13173	0.18023	-2.5667	-2.5021	-2.0792	-2.9521	-2.1583	-2.5208	-2.6896	-2.05	-2.6312	-2.4771	-2.1396	-3	-2.2375	-2.4	-2.7583	-2.275	201.741	297.240	300.583	466.566	240.918	287.904	454.753	338.032	472.732	211.910	403.405	227.560	264.628	201.650	221.778	463.308	0.0001884	0.00013945	8.8884e-05	329.11	2.1461e-06	3.352e-06	264.47	107.76	2.8288e-06	8.2714e-07	100.1	38.736	41.654	13.743	3.942e-06	14.141	0.0021679	0.0031414	0.00089175	380.42	3.3506e-05	3.5501e-05	298.55	120.52	3.2068e-05	3.4774e-05	115.03	44.148	48.453	15.918	3.3892e-05	16.518	171.507	472.502	441.983	160.388	444.697	252.044	158.978	165.354	190.444	436.326	163.229	167.056	169.022	175.329	295.212	172.454	-8191	255	
29872.104	1	1	0	0	0.064033	0.26286	0.20978	0.27164	0.161	0.3531	0.13165	0.13955	0.1979	0.12326	0.18704	0.2338	0.10221	0.15249	0.14336	0.14206	-2.3896	-2.3604	-2.1104	-2.9667	-2.3604	-2.3042	-3.0521	-2.2917	-2.7458	-2.6396	-2.1083	-3.1042	-2.3979	-2.4208	-2.9854	-2.0604	401.451	440.438	148.223	437.785	318.477	227.829	399.103	250.804	187.028	375.935	453.458	476.046	457.092	498.212	271.050	389.308	0.0001933	0.00027921	0.0001033	330.42	3.3353e-06	6.3727e-07	265.57	107.96	5.0977e-06	1.2317e-06	100.86	38.71	41.559	13.893	3.4371e-06	14.327	0.0021827	0.0031647	0.00089124	380.16	3.3608e-05	3.591e-05	298.93	120.65	3.2612e-05	3.4913e-05	115.43	44.228	48.487	15.988	3.3494e-05	16.638	161.784	218.233	157.751	160.080	305.883	200.597	159.065	165.454	309.647	199.079	163.897	166.969	169.279	175.674	339.910	171.983	-8191	255	
29872.176	1	1	0	0	0.085352	0.08192	0.12082	0.17694	0.2	0.042937	0.33135	0.24415	0.15403	0.30204	0.2036	0.26203	0.22219	0.34691	0.17739	0.040061	-2.2646	-2.7104	-2.0354	-3.1188	-2.4604	-2.1583	-2.9729	-2.1479	-2.4167	-2.8125	-2.075	-2.6167	-2.3812	-2.0104	-2.7313	-2.2979	208.774	485.722	335.025	501.833	246.199	342.644	475.300	442.418	497.566	372.562	253.812	234.474	240.633	441.195	170.991	303.921	0.00019128	0.00026483	8.3298e-05	327.98	3.422e-06	2.2253e-06	266.84	107.51	2.5119e-06	7.5753e-07	101.25	38.781	41.18	13.827	2.0242e-06	14.089	0.002219	0.0031911	0.00088507	380.14	3.3688e-05	3.6047e-05	299.11	120.54	3.3111e-05	3.5505e-05	115.68	44.317	48.315	15.878	3.3434e-05	16.49	179.780	441.852	247.805	160.351	289.736	375.450	159.581	165.467	288.106	271.392	163.426	166.996	168.827	175.262	212.489	172.760	-8191	255	
29872.271	1	1	0	0	0.28036	0.21643	0.22419	0.31261	0.050741	0.037357	0.13316	0.12961	0.23856	0.17486	0.028878	0.41336	0.22281	0.10349	0.34696	0.26306	-1.8354	-2.7292	-2.025	-2.7062	-2.525	-2.2125	-3.1708	-2.4104	-2.3812	-2.6896	-2.075	-2.8458	-2.5083	-2.2271	-2.9	-2.2938	272.792	493.199	218.727	176.722	161.069	280.439	498.876	481.173	317.140	213.091	352.308	454.565	434.789	505.315	420.518	233.411	0.00014663	0.00043197	4.7021e-05	329.15	1.959e-06	2.7075e-06	268.7	108.03	1.4133e-06	5.7288e-06	100.34	38.737	41.401	13.728	2.5864e-06	13.974	0.0022137	0.0031848	0.00086927	381.04	3.3559e-05	3.5839e-05	300.82	120.57	3.2991e-05	3.471e-05	115.4	44.16	48.265	15.745	3.3137e-05	16.432	180.035	198.623	307.841	160.143	169.246	379.340	158.986	165.098	207.257	383.477	163.004	167.076	169.014	175.630	335.755	172.144	-8191	255	
29872.393	1	1	0	0	0.12226	0.074434	0.09127	0.19622	0.24605	0.23517	0.20228	0.074291	0.14157	0.10802	0.029068	0.14053	0.16082	0.083054	0.15549	0.20927	-1.9292	-2.8563	-2.0958	-2.5583	-2.7625	-2.05	-2.8667	-2.1729	-2.0062	-2.9271	-2.1021	-2.5187	-2.7812	-1.9896	-2.7854	-2.5792	437.048	421.857	434.929	471.680	259.419	163.694	472.582	384.958	503.631	356.914	206.254	457.667	448.935	166.666	448.852	408.651	0.00025572	0.00019827	7.9e-05	328.77	3.2073e-06	2.3944e-06	267.96	107.8	3.1834e-06	3.3844e-06	100.14	38.426	40.967	13.608	2.1558e-06	13.87	0.0022287	0.0031946	0.00088291	382.52	3.3464e-05	3.5878e-05	300.99	120.55	3.2794e-05	3.4945e-05	114.91	43.95	48.135	15.632	3.3126e-05	16.207	184.915	478.283	500.287	160.066	209.037	260.678	159.084	165.256	236.131	337.775	163.565	167.101	169.355	175.695	472.811	172.710	-8191	255	
29872.486	1	1	0	0	0.18842	0.28789	0.18294	0.05343	0.29686	0.36262	0.1047	0.093878	0.19867	0.31752	0.15492	0.15125	0.18526	0.05877	0.30744	0.095835	-1.7563	-2.7812	-2.1417	-2.6167	-2.7062	-2.1063	-2.6771	-2.3979	-2.075	-2.9688	-2.4104	-2.55	-2.8563	-2.0729	-2.6833	-2.5958	462.227	426.602	460.837	253.606	233.136	151.305	308.371	247.855	383.169	375.006	239.998	443.430	432.968	335.406	227.537	310.893	0.00021995	0.00038373	0.00011142	328.08	4.0074e-06	4.8666e-06	265.29	107.18	2.8786e-06	3.3027e-07	99.178	38.207	40.648	13.451	3.7518e-06	13.638	0.0022184	0.0031391	0.00087722	380.99	3.338e-05	3.523e-05	299.04	119.9	3.2438e-05	3.4093e-05	113.76	43.429	47.594	15.48	3.2534e-05	16.004	167.170	390.609	240.482	160.613	323.963	295.253	159.450	165.197	312.008	344.692	163.379	166.614	168.781	175.241	340.534	172.088	-8191	255	
29872.582	1	1	0	0	0.33633	0.03828	0.14387	0.12413	0.12702	0.21367	0.26644	0.3008	0.31267	0.22038	0.093027	0.13836	0.21629	0.20073	0.12899	0.25396	-1.5812	-2.8396	-2.1813	-2.5438	-2.875	-2.0667	-2.6937	-2.5354	-2.0396	-2.8542	-2.2708	-2.3063	-2.7896	-2.0229	-2.775	-2.6854	396.900	286.474	297.207	446.250	185.910	298.277	487.933	208.816	162.793	490.720	153.709	259.141	360.046	467.633	222.822	410.165	0.0002151	0.00010544	9.4403e-05	327.95	2.0132e-06	5.28e-06	265.72	106.85	1.5229e-06	3.4658e-06	98.444	37.823	40.707	13.42	5.1289e-06	13.491	0.0022085	0.0031162	0.00086958	379.42	3.2785e-05	3.4679e-05	298.22	119.12	3.2387e-05	3.3947e-05	112.88	43.25	47.579	15.385	3.272e-05	15.967	165.752	503.213	499.254	160.477	324.980	498.981	159.193	165.195	336.398	205.164	163.535	166.890	169.046	175.367	308.710	172.898	-8191	255	
29872.680	1	1	0	0	0.12022	0.32723	0.095454	0.19044	0.10265	0.13489	0.048002	0.15659	0.15058	0.21166	0.19736	0.20462	0.1482	0.044812	0.19154	0.21715	-1.6229	-2.7854	-2.3896	-2.2604	-2.9188	-2.0062	-2.6354	-2.5354	-2.1583	-2.6667	-2.375	-2.3063	-3.0125	-2.0438	-2.5021	-2.8458	313.479	229.682	275.545	491.273	478.547	245.356	193.154	483.493	496.507	434.435	150.459	386.778	334.774	234.897	485.417	442.958	0.00019482	0.00010777	0.00011172	327.62	1.5314e-06	6.0681e-06	264.53	106.06	3.0093e-06	3.2788e-06	97.591	37.526	40.398	13.423	4.3299e-06	13.644	0.0021741	0.003091	0.00087677	378.86	3.2686e-05	3.4408e-05	297.22	118.57	3.1588e-05	3.3511e-05	112.23	43.125	47.326	15.385	3.2488e-05	15.899	172.415	500.476	234.157	160.427	242.723	259.029	159.357	164.968	305.274	222.253	163.722	167.035	168.690	175.510	279.757	172.848	-8191	255	
29872.775	1	1	0	0	0.095748	0.13669	0.09636	0.19849	0.14129	0.11566	0.12291	0.060847	0.29222	0.068915	0.11207	0.047813	0.22892	0.16834	0.19607	0.12159	-1.7062	-2.8104	-2.3563	-2.0812	-2.8542	-2.3229	-2.5187	-2.8688	-2.0229	-2.8521	-2.5792	-2.15	-2.9479	-2.3312	-2.4062	-2.9521	190.967	361.883	349.547	287.441	410.332	378.639	384.290	207.140	358.376	163.121	351.083	223.159	344.560	353.174	306.279	180.170	0.00021439	0.00029627	9.1693e-05	326.33	3.1642e-06	2.146e-06	264.95	105.4	4.7687e-07	3.7827e-06	97.536	37.984	40.413	13.289	2.378e-07	13.605	0.0021413	0.0030927	0.00086619	377.83	3.2696e-05	3.4423e-05	297.21	118.05	3.1621e-05	3.4072e-05	112.31	43.145	47.313	15.334	3.291e-05	15.92	163.149	260.218	356.745	159.987	249.259	310.386	158.997	165.424	252.551	327.383	164.115	167.009	169.476	175.395	249.363	172.650	-8191	255	
29872.871	1	1	0	0	0.17974	0.12614	0.10722	0.18769	0.1635	0.082178	0.17595	0.16678	0.13207	0.065016	0.090731	0.20326	0.1895	0.18708	0.11941	0.065474	-1.5604	-2.5792	-2.5292	-2.05	-3.0208	-2.3521	-2.1375	-2.9854	-2.1312	-2.6375	-2.8458	-2.1042	-2.7958	-2.5083	-2.2625	-3.0958	380.191	287.631	232.027	203.805	479.246	428.858	398.937	280.499	396.876	232.993	207.798	442.191	435.749	429.160	185.830	258.838	0.00019571	0.00023485	4.5791e-05	326.13	2.3491e-06	4.3947e-06	263.68	105.47	4.2131e-06	7.4605e-06	96.167	37.567	40.704	13.258	3.4505e-06	13.361	0.0021286	0.0030428	0.00086145	376.94	3.1934e-05	3.4221e-05	295.68	117.57	3.1031e-05	3.3836e-05	111.12	42.786	47.252	15.224	3.2326e-05	15.712	165.568	209.744	261.908	160.054	287.205	310.578	159.112	165.232	241.078	300.503	163.744	167.539	169.245	175.424	256.000	172.596	-8191	255	
29872.967	1	1	0	0	0.11208	0.39784	0.055039	0.25865	0.34546	0.13849	0.11857	0.12405	0.25182	0.0066102	0.063074	0.093236	0.17905	0.091692	0.15615	0.18414	-1.7	-2.6083	-2.7188	-2.2104	-2.8521	-2.4104	-2.0979	-2.8146	-2.0125	-2.4604	-2.9146	-2.0563	-2.8479	-2.5771	-2.1375	-2.8333	239.612	380.542	313.795	168.660	396.593	479.357	378.278	291.325	343.401	461.800	353.261	251.519	332.321	345.558	351.774	482.929	0.00016456	0.00049808	0.00015033	322.16	3.3892e-06	8.7763e-08	259.01	105.23	1.5505e-06	5.7356e-06	95.771	37.048	39.888	13.343	2.9816e-06	13.285	0.0021204	0.0030623	0.00084999	374.43	3.1476e-05	3.4001e-05	291.89	116.83	3.0906e-05	3.378e-05	110.19	42.309	46.916	15.261	3.2325e-05	15.585	165.153	295.216	219.976	160.574	401.512	265.375	159.302	165.732	221.508	361.823	163.280	167.249	169.282	175.665	294.086	172.603	-8191	255	
29873.062	1	1	0	0	0.029181	0.24969	0.1549	0.29543	0.13058	0.1195	0.26174	0.24018	0.24115	0.24062	0.22429	0.21142	0.084514	0.30345	0.17729	0.16654	-1.8312	-2.4375	-2.8958	-2.0708	-2.7625	-2.6583	-2.1958	-3.0167	-2.3563	-2.3646	-2.6375	-2.1854	-2.7021	-2.7583	-2.1688	-3.0146	307.429	240.252	368.403	436.249	226.265	367.789	460.057	484.178	262.729	281.505	414.208	330.723	349.860	486.455	331.213	420.390	0.00019117	0.00056991	0.00017603	322.55	3.3696e-06	5.9412e-06	258.47	103.99	5.0495e-07	8.7107e-07	95.344	37.149	40.129	13.274	2.4244e-06	13.257	0.0021043	0.0030464	0.00083644	373.12	3.1948e-05	3.3958e-05	290.92	116.37	3.1022e-05	3.3431e-05	109.91	42.355	46.932	15.196	3.2022e-05	15.582	182.657	219.497	215.451	160.568	386.746	149.577	159.134	165.268	153.353	236.404	163.132	167.045	169.038	175.470	338.451	172.073	-8191	255	
29873.184	1	1	0	0	0.32649	0.23802	0.081762	0.32755	0.17837	0.11594	0.30423	0.064491	0.25864	0.07194	0.25063	0.2269	0.17686	0.097819	0.021315	0.17349	-2.0167	-2.2479	-3.0167	-2.0333	-2.6562	-2.8208	-2.1521	-2.7896	-2.3396	-2.3833	-2.8937	-2.2333	-2.6042	-2.7062	-1.9833	-2.8292	306.824	417.147	333.624	438.526	341.635	296.091	487.961	315.137	161.852	286.036	176.870	344.053	348.284	221.804	368.570	488.112	0.00014532	0.00056962	1.4017e-05	319.05	2.7659e-06	1.9258e-06	258.73	104.26	2.9396e-06	1.287e-06	95.873	37.096	39.803	13.205	1.2056e-06	13.388	0.0021189	0.0030585	0.00084822	371.69	3.2372e-05	3.396e-05	290.33	116.34	3.1686e-05	3.3752e-05	110.09	42.439	46.869	15.195	3.2054e-05	15.637	174.736	234.018	216.904	160.481	329.974	405.299	159.054	165.182	273.717	297.231	163.646	166.721	169.335	175.509	245.325	172.265	-8191	255	
29873.279	1	1	0	0	0.058071	0.16062	0.27259	0.1006	0.059337	0.2869	0.19047	0.42384	0.13575	0.20692	0.13022	0.3676	0.19664	0.044157	0.046162	0.07496	-2.0875	-2.1771	-2.9125	-2.1729	-2.5458	-2.7479	-2.1417	-2.8896	-2.5083	-1.9688	-2.8146	-2.3271	-2.3688	-3.0729	-2.0917	-2.7313	247.353	412.965	168.845	292.558	307.326	254.790	252.330	148.136	221.922	206.607	479.734	443.686	227.216	475.713	388.676	349.042	0.00026647	0.00018215	6.8837e-05	323.15	2.5454e-06	6.308e-06	258.25	104.18	1.0309e-06	4.9776e-06	95.174	37.059	39.751	13.063	4.1757e-06	13.123	0.0021385	0.0030654	0.0008497	371.84	3.2297e-05	3.3711e-05	289.8	115.91	3.0936e-05	3.3681e-05	109.29	42.239	46.695	15.052	3.1656e-05	15.498	170.317	220.362	358.934	160.511	299.108	367.433	159.428	165.604	180.664	289.005	163.345	166.769	169.125	175.536	229.658	172.828	-8191	255	
29873.377	1	1	0	0	0.20351	0.18437	0.082129	0.1644	0.16467	0.15628	0.13132	0.10588	0.14284	0.087231	0.063825	0.10181	0.18797	0.18776	0.3051	0.19557	-2.1771	-2.1604	-2.8229	-2.3646	-2.4667	-2.8875	-2.1	-2.6604	-2.7979	-2.0896	-3.0062	-2.3312	-2.5146	-2.8958	-1.9292	-2.6583	309.610	197.063	427.993	186.558	296.926	419.606	287.755	351.134	153.804	417.622	214.408	435.403	475.827	434.129	390.017	241.245	0.00018961	0.00021914	0.00010311	319.74	3.3413e-06	1.9491e-06	254.76	103.15	2.0098e-06	3.8758e-06	94.276	36.805	39.739	13.133	3.1854e-06	13.072	0.0021179	0.0030108	0.00082737	370.5	3.2262e-05	3.3682e-05	287.38	115.06	3.1014e-05	3.2858e-05	107.95	41.868	46.579	14.993	3.1537e-05	15.344	172.857	266.041	191.563	160.163	452.965	339.857	158.913	165.019	303.554	338.150	163.498	166.995	169.202	175.181	286.573	172.392	-8191	255	
29873.473	1	1	0	0	0.32846	0.254	0.14184	0.33574	0.19027	0.25919	0.025556	0.088103	0.18729	0.11246	0.12825	0.17923	0.11056	0.2009	0.20001	0.10717	-2.1396	-2.1167	-2.7979	-2.3146	-2.2313	-2.8042	-2.2188	-2.5854	-2.6771	-2.1208	-2.9188	-2.3917	-2.2021	-2.9437	-2.3521	-2.5687	229.185	491.792	476.103	381.948	360.568	209.927	309.906	476.789	200.435	331.876	336.764	498.130	281.626	165.360	355.412	159.421	0.00021947	0.0003922	0.00011447	319.23	2.0541e-06	3.6121e-06	254.51	103.24	4.5492e-06	1.1424e-06	94.739	36.313	39.647	13.085	8.4996e-07	13.105	0.002083	0.0029595	0.00082614	369.22	3.1792e-05	3.3233e-05	286.46	115.04	3.0815e-05	3.271e-05	108.3	41.77	46.431	15.02	3.159e-05	15.406	180.147	297.289	316.885	159.826	301.450	290.996	159.201	165.367	235.818	490.544	163.740	167.111	168.668	175.628	278.225	172.759	-8191	255	
29873.566	1	1	0	0	0.075858	0.17201	0.22432	0.10176	0.11526	0.1279	0.29011	0.41894	0.12179	0.3112	0.2829	0.15015	0.06766	0.14456	0.068728	0.12018	-2.5146	-2.1063	-2.7271	-2.5917	-2.125	-2.8792	-2.2812	-2.4813	-2.9458	-2.0938	-2.8729	-2.7646	-2.2458	-3.0292	-2.3646	-2.2438	342.235	497.231	253.165	427.745	391.952	286.395	488.834	179.259	477.871	369.117	266.747	193.701	443.176	477.529	457.531	230.562	0.00021106	0.00041202	7.4791e-05	318.91	4.2298e-06	7.7409e-07	251.26	103.14	1.1897e-06	3.8548e-06	93.343	36.705	39.64	13.071	2.2198e-06	13.112	0.0020872	0.0029849	0.00083554	369.01	3.217e-05	3.3131e-05	284.31	115.07	3.1242e-05	3.3396e-05	107.98	41.865	46.214	14.93	3.1656e-05	15.37	172.008	228.795	205.088	160.268	322.384	402.776	159.608	165.381	403.975	299.707	163.900	167.215	169.263	175.975	442.724	172.841	-8191	255	
29873.662	1	1	0	0	0.087289	0.091099	0.18121	0.075168	0.29476	0.13831	0.20408	0.14249	0.11338	0.17299	0.12652	0.25881	0.10851	0.037443	0.24098	0.18346	-2.5979	-2.1333	-2.6667	-2.6646	-2.0563	-2.9521	-2.2854	-2.3896	-3.0667	-2.1083	-2.5771	-2.6604	-2.0687	-2.9833	-2.5229	-2.2792	488.660	206.020	379.795	168.686	444.505	306.858	450.625	384.071	343.055	244.430	158.519	502.795	474.460	179.446	411.320	316.730	0.00013014	0.00038627	6.1823e-05	316.31	1.7484e-06	1.6164e-06	253.72	102.47	2.4905e-06	4.0673e-06	94.069	36.756	39.895	13.058	3.4688e-06	13.304	0.0020668	0.0029551	0.00083295	365.65	3.1397e-05	3.3406e-05	284.79	114.54	3.0661e-05	3.2851e-05	108.27	41.953	46.432	14.988	3.1935e-05	15.55	165.770	300.348	246.423	160.261	310.521	392.055	159.420	165.566	232.449	260.715	163.861	167.260	169.328	175.901	427.015	172.591	-8191	255	
29873.783	1	1	0	0	0.22478	0.072513	0.21283	0.036634	0.25407	0.076274	0.17332	0.15631	0.051091	0.27437	0.13718	0.13013	0.17054	0.13661	0.13178	0.12149	-2.7104	-2.1708	-2.6979	-2.8	-2.0438	-2.9292	-2.6063	-2.2812	-2.9833	-2.1979	-2.5354	-2.7229	-2.1042	-2.7938	-2.6354	-2.1667	448.688	340.009	462.672	232.502	329.250	413.894	397.097	469.914	359.837	505.718	225.284	171.929	464.164	465.193	211.547	163.268	0.00018251	0.00048517	0.00018262	319.35	5.4356e-06	2.9054e-06	253.82	103.26	1.9073e-06	1.595e-06	94.188	37.156	40.061	13.148	3.9905e-06	13.381	0.0020781	0.0030256	0.00084946	367.6	3.1891e-05	3.3653e-05	285.25	115.38	3.0747e-05	3.3278e-05	108.93	42.245	46.825	15.162	3.2263e-05	15.68	162.830	213.246	271.617	160.325	288.059	288.936	159.630	165.417	277.980	293.637	163.981	167.302	168.884	175.701	297.859	172.511	-8191	255	
29873.881	1	1	0	0	0.026837	0.19683	0.11122	0.11261	0.23106	0.17598	0.20122	0.21228	0.13853	0.15988	0.20894	0.093131	0.18463	0.16682	0.18139	0.065833	-2.5667	-2.3542	-2.3271	-2.8104	-2.0167	-2.7	-2.6375	-2.1875	-2.7042	-2.2938	-2.5396	-2.975	-1.975	-2.6688	-2.6833	-2.3167	436.979	431.444	250.386	192.606	240.355	310.341	344.745	319.320	369.637	171.414	200.475	450.406	413.304	379.648	451.005	463.286	0.00019642	0.00029792	0.00015438	316.18	1.9541e-06	2.1162e-06	252.18	104.29	1.3614e-06	3.5795e-06	95.47	37.455	40.47	13.351	4.7617e-06	13.57	0.0021059	0.0030271	0.0008591	366.75	3.2536e-05	3.4215e-05	285.24	116.06	3.1387e-05	3.395e-05	110.27	42.551	47.061	15.348	3.2943e-05	15.897	171.844	437.713	325.284	160.749	195.481	212.692	159.137	165.450	222.976	223.871	163.856	167.466	169.711	175.777	342.758	172.621	-8191	255	
29873.977	1	1	0	0	0.044291	0.25121	0.20204	0.11005	0.16891	0.072257	0.040047	0.066132	0.13942	0.14913	0.18997	0.12352	0.051757	0.14013	0.037673	0.10377	-2.5667	-2.3292	-2.2292	-2.8458	-1.9646	-2.7167	-2.8646	-2.0375	-2.9104	-2.3604	-2.3646	-2.8917	-2.2979	-2.5792	-2.6958	-2.0875	320.086	308.614	167.016	387.208	301.511	466.993	410.335	360.511	261.721	458.532	413.824	233.592	446.885	170.717	365.712	386.110	0.00013763	0.00046609	0.0001093	314.74	3.6235e-06	5.9036e-06	254.78	104.33	1.7754e-06	1.753e-06	96.189	37.651	39.794	13.38	4.3491e-06	13.554	0.0021446	0.0030668	0.00086035	367.24	3.2614e-05	3.4584e-05	287.02	116.63	3.12e-05	3.3926e-05	110.73	42.755	46.966	15.294	3.2203e-05	15.883	187.815	227.835	233.236	160.776	416.716	251.031	159.783	165.437	154.479	333.303	163.637	167.288	169.481	175.909	299.569	172.703	-8191	255	
29874.072	1	1	0	0	0.13953	0.14392	0.18815	0.11896	0.13392	0.088505	0.26996	0.13254	0.18988	0.10113	0.20753	0.30257	0.064661	0.065083	0.048868	0.23914	-2.3021	-2.5667	-2.1979	-2.9125	-2.2042	-2.5833	-2.9229	-2.0542	-2.6375	-2.65	-2.3125	-2.9104	-2.2146	-2.3667	-2.7625	-2.1375	309.973	439.336	192.448	481.704	489.417	443.178	362.663	266.003	407.157	163.462	376.134	195.566	153.532	387.500	246.963	461.129	0.00017682	0.00038661	8.3499e-05	318.71	8.741e-07	1.24e-06	259.54	105.37	2.0179e-06	2.9813e-06	97.112	38.077	40.518	13.537	2.7277e-06	13.833	0.0021042	0.0030531	0.00085473	369.89	3.2202e-05	3.3896e-05	291.13	117.67	3.1152e-05	3.385e-05	112.03	43.237	47.505	15.506	3.1941e-05	16.132	189.622	219.003	160.944	160.494	375.159	174.400	159.450	165.452	187.557	302.098	163.652	167.139	168.711	175.971	359.011	172.143	-8191	255	
29874.168	1	1	0	0	0.24299	0.16123	0.092774	0.099262	0.073375	0.12158	0.14784	0.12865	0.12701	0.22564	0.096378	0.30135	0.052906	0.33871	0.19222	0.35992	-2.3333	-2.6937	-2.1625	-2.9604	-2.2438	-2.1542	-2.9	-2.2438	-2.6667	-2.5958	-2.1375	-2.9146	-2.3875	-2.3875	-2.95	-2.275	443.612	355.438	390.057	327.609	244.061	233.172	354.594	377.185	366.809	447.074	294.067	255.109	177.296	431.420	419.366	311.303	0.00021866	0.00028281	5.5961e-05	325.33	3.8943e-06	7.0477e-06	259.3	105.2	2.6785e-06	1.8574e-06	98.946	38.506	40.81	13.531	4.5109e-06	13.868	0.0021223	0.0030337	0.00085114	373.21	3.2328e-05	3.4501e-05	293.4	118.43	3.1374e-05	3.3753e-05	113.36	43.759	47.793	15.587	3.2485e-05	16.299	165.508	268.735	186.391	160.568	275.960	264.379	159.633	165.419	298.686	241.226	163.717	167.682	169.146	175.898	324.074	172.972	-8191	255	
29874.264	1	1	0	0	0.10441	0.16606	0.29179	0.17456	0.086455	0.045035	0.11576	0.15796	0.3887	0.18877	0.095429	0.083603	0.18897	0.24508	0.24441	0.15792	-2.3271	-2.6937	-2.1875	-2.9062	-2.3896	-2.2708	-2.9688	-2.1937	-2.6271	-2.9833	-1.9937	-2.7875	-2.3208	-2.2146	-2.8958	-2.2479	224.938	198.949	305.591	397.837	355.123	374.655	463.388	458.781	428.801	442.223	151.341	461.668	404.602	279.798	173.695	193.926	0.00021175	2.3838e-05	0.00018976	322.15	2.4219e-06	1.0311e-07	261.43	106.77	3.3116e-06	2.4713e-06	99.348	38.674	41.56	13.712	1.5671e-06	14.068	0.0021421	0.0030608	0.00086814	374.08	3.2666e-05	3.433e-05	293.79	118.96	3.1801e-05	3.3921e-05	113.59	44.059	48.057	15.756	3.2369e-05	16.472	175.591	284.749	242.581	160.606	193.436	284.228	159.464	165.491	369.786	321.637	163.845	167.502	169.024	176.026	369.780	172.539	-8191	255	
29874.359	1	1	0	0	0.16725	0.075826	0.094137	0.010105	0.13623	0.17217	0.21554	0.15254	0.10524	0.183	0.11637	0.050316	0.10479	0.1267	0.11178	0.13814	-1.9917	-3.0021	-2.2292	-2.8625	-2.6646	-2.2188	-3.1292	-2.2708	-2.3833	-2.8646	-2.1125	-2.7604	-2.6479	-2.0062	-2.9333	-2.375	238.288	393.352	366.476	435.154	372.463	312.651	459.097	447.655	487.067	219.575	221.990	421.808	222.564	392.548	334.824	395.417	0.00019942	0.00015622	7.333e-05	324.01	1.3373e-06	4.2339e-06	263.87	105.88	4.2276e-07	1.0158e-06	99.055	38.943	41.082	13.706	2.5304e-06	13.96	0.0021651	0.0030528	0.00084837	375.21	3.2631e-05	3.4112e-05	295.96	118.46	3.1185e-05	3.3069e-05	114.17	44.192	48.047	15.662	3.1466e-05	16.369	170.068	290.001	177.503	160.063	320.140	322.463	159.189	165.320	461.846	373.109	163.536	167.274	168.763	175.490	405.429	172.398	-8191	255	
29874.457	1	1	0	0	0.087613	0.046098	0.008026	0.073068	0.20589	0.15967	0.1156	0.15513	0.13551	0.10225	0.16978	0.22541	0.04901	0.14554	0.14805	0.20134	-1.9958	-2.8208	-2.1146	-2.5833	-2.7021	-2.2646	-2.9354	-2.3312	-2.2979	-2.9604	-2.0271	-2.5417	-2.7479	-2.1542	-2.8396	-2.5	440.967	191.249	496.032	263.010	498.358	201.317	336.675	391.075	165.675	462.802	386.816	214.139	172.264	312.429	469.934	201.699	0.00013424	0.00051649	0.00012461	325.83	6.077e-06	3.5565e-06	266.91	106.59	6.7128e-07	3.8613e-06	99.363	38.975	41.012	13.594	3.4824e-06	13.846	0.0021176	0.003019	0.00084678	376.31	3.2052e-05	3.3799e-05	299.23	119.57	3.1142e-05	3.3058e-05	114.25	44.135	47.898	15.519	3.1535e-05	16.164	187.118	226.719	221.673	160.378	268.144	397.532	158.945	165.168	257.965	400.529	162.973	167.061	168.304	174.941	314.093	172.558	-8191	255	
29874.574	1	1	0	0	0.062896	0.092875	0.13346	0.14812	0.3117	0.10077	0.27127	0.038107	0.093404	0.15499	0.24967	0.18119	0.24883	0.11797	0.16264	0.058557	-1.975	-2.8771	-2.15	-2.7479	-2.8937	-2.1521	-3.0438	-2.5312	-2.0604	-3.1542	-2.1542	-2.475	-2.8729	-2.1146	-2.7896	-2.6229	360.458	484.758	208.342	168.308	219.131	364.097	449.791	227.020	317.943	439.140	296.201	317.872	336.984	466.558	437.320	418.567	0.00021185	0.00062729	0.00013177	325.02	2.1726e-06	3.9165e-06	266.1	106.24	2.2399e-06	5.8048e-06	99.769	38.93	41.172	13.593	2.6049e-07	13.926	0.0021034	0.0029714	0.00082676	377.28	3.1662e-05	3.396e-05	299.62	119.07	3.1216e-05	3.3174e-05	114.52	44.099	47.924	15.59	3.2375e-05	16.257	163.880	257.882	286.283	160.320	328.906	328.143	159.330	165.648	241.844	237.235	163.792	167.082	169.031	175.626	161.481	172.490	-8191	255	
29874.672	1	1	0	0	0.23695	0.12618	0.076243	0.26176	0.046218	0.057153	0.15014	0.37557	0.38432	0.11212	0.13816	0.087344	0.1324	0.041374	0.093878	0.19395	-1.625	-2.8292	-2.1917	-2.2958	-2.7021	-2.0979	-2.7208	-2.7646	-2.0208	-3.0167	-2.5229	-2.4	-2.95	-2.1042	-2.6083	-2.6833	397.300	316.827	301.447	224.806	457.692	226.037	474.204	434.868	418.280	212.229	426.283	205.619	431.478	365.779	163.885	299.935	0.00024672	0.00052502	0.00015719	325.57	5.5678e-06	3.7653e-06	263.59	106.55	2.1349e-06	1.9638e-06	99.098	38.398	41.263	13.397	2.9454e-06	13.696	0.0021234	0.0030493	0.00084877	377.2	3.1926e-05	3.4273e-05	297.06	119.13	3.1278e-05	3.3657e-05	113.38	43.605	47.718	15.413	3.2196e-05	15.984	163.535	228.988	224.249	160.397	328.094	321.945	159.365	165.491	272.467	480.458	163.310	167.453	168.959	175.664	303.660	172.795	-8191	255	
29874.744	1	1	0	0	0.29747	0.075616	0.10945	0.22264	0.20269	0.13112	0.24148	0.12533	0.20635	0.16388	0.11028	0.23212	0.2964	0.24251	0.10223	0.28963	-1.6667	-2.8125	-2.4333	-2.0354	-2.8979	-2.15	-2.5917	-2.775	-2.0542	-2.8354	-2.35	-2.0333	-2.7146	-2.2479	-2.4375	-2.7687	406.018	494.212	324.820	472.812	442.821	433.852	471.294	474.135	257.358	501.880	385.678	411.658	474.332	485.481	173.037	459.519	0.00022455	0.00020908	6.1932e-05	324.44	1.8229e-06	2.8268e-06	263.78	105.9	3.5199e-06	4.2639e-06	97.81	37.982	40.286	13.298	2.0238e-06	13.56	0.0021129	0.0029991	0.00084343	375.64	3.2148e-05	3.4299e-05	295.99	118.36	3.1182e-05	3.3629e-05	112.45	43.394	47.468	15.278	3.2141e-05	15.853	148.887	483.648	369.370	159.851	152.817	426.688	158.951	164.730	346.215	209.168	162.948	166.729	168.997	174.994	473.062	171.481	-8191	255	
29874.863	1	1	0	0	0.097608	0.1156	0.062526	0.2538	0.14813	0.17706	0.10808	0.10218	0.079422	0.29625	0.13936	0.033396	0.12927	0.21208	0.1355	0.044242	-1.5625	-2.7521	-2.45	-2.0812	-2.9396	-2.1896	-2.6167	-2.7708	-2.0146	-2.6104	-2.7562	-2.0875	-2.9271	-2.2917	-2.4833	-2.8271	170.677	298.534	285.492	426.980	252.273	249.638	396.270	182.948	259.095	198.596	317.025	324.847	242.602	292.322	410.239	308.404	0.00018569	0.00023203	0.00011304	326.02	8.2499e-07	1.3627e-06	261.92	105.52	1.9319e-06	4.2115e-06	98.232	37.834	40.072	13.274	3.7242e-06	13.595	0.0021346	0.0030255	0.00084744	375.04	3.1899e-05	3.3798e-05	295.02	118.27	3.1111e-05	3.2839e-05	112	43.205	47.198	15.262	3.1746e-05	15.877	169.363	435.676	253.596	159.754	320.247	243.071	158.636	164.730	393.108	348.114	162.943	166.477	168.550	174.401	286.758	171.942	-8191	255	
29874.961	1	1	0	0	0.15046	0.070966	0.16635	0.20631	0.11654	0.31179	0.069475	0.11066	0.11799	0.13125	0.089517	0.21225	0.29942	0.26624	0.20427	0.17535	-1.5354	-2.4604	-2.4042	-2.0812	-2.9979	-2.3458	-2.1667	-2.7896	-2.0958	-2.7417	-2.8167	-2.0375	-2.9458	-2.4333	-2.2396	-3.0167	374.122	340.377	150.752	438.102	243.482	383.516	456.128	253.071	273.949	435.635	362.950	375.925	150.293	476.869	421.898	158.234	0.00019335	3.966e-05	0.0002196	322.11	3.8112e-06	2.7637e-06	260.81	105.49	5.3431e-06	3.0738e-06	97.813	37.958	40.024	13.357	3.4093e-06	13.608	0.0021041	0.0030267	0.00083991	373.99	3.2314e-05	3.3746e-05	292.99	117.62	3.1395e-05	3.3037e-05	112.09	43.155	47.104	15.259	3.214e-05	15.862	165.971	500.981	219.313	160.053	261.661	335.272	158.492	164.863	354.418	311.691	162.409	166.313	168.254	174.749	208.259	171.926	-8191	255	
29875.057	1	1	0	0	0.14323	0.16942	0.34946	0.15718	0.18506	0.081851	0.46274	0.14353	0.14409	0.11439	0.067351	0.30609	0.16973	0.073234	0.17485	0.14081	-1.8729	-2.5521	-2.7771	-2.0646	-2.7354	-2.3833	-2.0479	-2.8875	-2.175	-2.525	-2.9354	-2.1937	-2.6958	-2.5938	-2.1458	-2.8896	147.996	170.660	436.918	344.272	331.510	181.247	449.311	204.248	475.801	367.555	279.344	452.797	154.358	208.745	382.013	422.318	0.00018685	0.00045843	0.00012874	322.38	2.3391e-06	1.862e-06	259.46	104.12	5.6975e-07	4.1612e-06	96.645	37.584	40.49	13.275	5.4451e-06	13.373	0.0020808	0.0030184	0.00084315	373.63	3.1983e-05	3.3459e-05	292.01	117.08	3.0972e-05	3.3031e-05	111.1	42.84	47.07	15.207	3.1743e-05	15.73	157.145	149.928	267.244	159.522	328.629	359.725	158.373	164.793	239.462	394.536	162.511	166.293	168.379	174.987	248.163	171.558	-8191	255	
29875.178	1	1	0	0	0.081683	0.03531	0.15635	0.27972	0.1731	0.21419	0.086886	0.0662	0.27361	0.25498	0.11382	0.20754	0.13497	0.3066	0.2757	0.14503	-1.8625	-2.5208	-2.775	-2.0146	-2.7396	-2.6375	-2.2938	-3.0229	-2.3125	-2.375	-2.9708	-2.25	-2.6042	-2.7979	-1.9937	-2.9333	207.491	336.296	474.658	195.356	270.406	450.994	389.538	220.422	408.668	340.989	269.647	440.070	246.637	383.161	159.282	474.667	0.00018906	0.00023954	4.7734e-05	323.44	3.2561e-06	2.9565e-06	259.18	104.31	2.6328e-06	4.5433e-06	95.774	37.167	39.949	13.149	2.6915e-06	13.196	0.0020972	0.002989	0.00083477	372.93	3.1688e-05	3.345e-05	290.88	116.71	3.0436e-05	3.2704e-05	110.02	42.422	46.652	15.089	3.1214e-05	15.505	168.264	254.168	268.623	159.097	367.021	288.015	158.479	164.906	296.067	316.655	162.475	165.785	168.185	174.415	282.458	171.649	-8191	255	
29875.273	1	1	0	0	0.054569	0.10628	0.122	0.029753	0.12034	0.30903	0.10377	0.15076	0.088905	0.1614	0.099538	0.28967	0.12788	0.11477	0.13294	0.10057	-2.0458	-2.3146	-2.7687	-2.075	-2.7875	-2.9458	-2.2521	-2.7708	-2.4	-2.1708	-2.9875	-2.2542	-2.5187	-2.9271	-2.1042	-2.8729	378.341	222.194	198.380	280.792	148.732	293.654	467.347	432.441	183.181	255.074	475.648	462.336	205.774	393.718	155.576	180.339	0.00022735	0.00030802	0.00014221	319.16	3.7779e-06	3.3205e-06	257.97	104.25	2.2261e-06	1.6634e-06	94.462	36.654	39.705	13.193	6.6798e-07	13.235	0.0020881	0.0029725	0.00083271	369.59	3.1541e-05	3.3079e-05	288.66	115.99	3.054e-05	3.266e-05	109.26	42.133	46.663	15.076	3.1392e-05	15.49	178.744	457.893	262.034	159.597	329.181	211.806	158.722	164.634	234.640	260.178	162.541	166.324	168.282	174.802	276.211	171.751	-8191	255	
29875.346	1	1	0	0	0.21028	0.13434	0.15614	0.13222	0.08152	0.024053	0.24218	0.21848	0.10084	0.082654	0.10985	0.25017	0.16323	0.30488	0.18612	0.39238	-1.9188	-2.0875	-2.9417	-2.2687	-2.4458	-2.7062	-2.1708	-3.0521	-2.5271	-2.1354	-3.1063	-2.3333	-2.4604	-3.0208	-2.275	-2.8312	481.092	444.588	148.356	151.714	261.669	454.353	456.593	463.592	449.734	358.394	338.573	420.225	163.001	462.072	324.214	503.971	0.00020067	0.00036639	6.4567e-05	318.55	4.3094e-06	1.907e-06	255.52	103.75	2.6448e-06	3.5633e-06	95.348	36.989	39.77	13.094	2.3327e-06	13.212	0.0020717	0.00297	0.00083391	368.95	3.145e-05	3.3057e-05	286.87	115.48	3.0504e-05	3.274e-05	109.14	42.095	46.491	15.046	3.1367e-05	15.483	167.399	496.743	339.367	159.287	168.626	315.049	158.128	164.653	225.885	242.119	162.787	166.000	168.125	174.679	319.510	171.641	-8191	255	
29875.465	1	1	0	0	0.17759	0.23725	0.13613	0.22718	0.089234	0.024045	0.1603	0.034888	0.1585	0.19697	0.2402	0.26953	0.06157	0.15105	0.086816	0.091287	-2.3333	-2.1833	-2.9771	-2.3479	-2.4917	-2.9792	-2.1625	-2.7333	-2.7417	-2.325	-2.8312	-2.45	-2.2792	-3.0354	-2.2313	-2.6688	401.945	170.861	260.533	172.017	412.568	192.775	393.891	404.438	383.215	407.214	460.707	221.071	477.325	438.216	463.238	448.591	0.00020799	0.0002742	0.00015133	318.88	6.8575e-07	4.8309e-06	254.68	103.14	2.179e-06	4.6156e-06	94.132	36.478	39.716	12.973	1.7777e-06	13.224	0.0020599	0.0029756	0.00083612	368.87	3.1811e-05	3.3034e-05	287.54	115.25	3.0452e-05	3.2815e-05	108.88	41.993	46.557	14.995	3.1297e-05	15.45	175.066	328.710	177.436	159.395	353.971	340.800	158.239	164.608	243.104	342.169	162.724	166.040	167.875	174.686	328.433	171.619	-8191	255	
29875.561	1	1	0	0	0.20286	0.14136	0.16869	0.15892	0.10675	0.24375	0.24595	0.10167	0.1537	0.25237	0.096243	0.19129	0.18631	0.23421	0.14794	0.11999	-2.2792	-2.1021	-2.7896	-2.4583	-2.2583	-2.9188	-2.2833	-2.7125	-2.7083	-2.1688	-2.875	-2.4979	-2.2604	-2.8979	-2.1417	-2.475	419.513	163.648	376.284	156.393	285.411	337.429	449.426	199.350	206.297	499.467	392.626	427.909	235.359	371.583	148.598	491.357	0.00015294	0.00015301	9.4895e-05	315.94	3.169e-06	3.7272e-06	255.32	102.7	8.5479e-07	3.56e-06	94.163	36.355	39.423	12.978	2.9487e-06	13.071	0.0020641	0.0029575	0.00082913	366.85	3.1524e-05	3.3347e-05	286.36	114.53	2.9766e-05	3.2626e-05	108.01	41.633	46.152	14.863	3.1207e-05	15.235	149.448	205.144	234.172	159.544	302.724	187.736	158.701	164.663	181.942	284.627	162.245	166.579	168.458	174.491	273.385	171.622	-8191	255	
29875.656	1	1	0	0	0.14486	0.27068	0.21562	0.059769	0.038609	0.37809	0.15371	0.14254	0.17226	0.10316	0.073307	0.21717	0.16752	0.24056	0.096345	0.074369	-2.2354	-2.0583	-2.7313	-2.6188	-2.3042	-2.8833	-2.025	-2.4125	-3.0792	-2.0687	-2.8917	-2.6833	-2.1792	-2.7229	-2.3229	-2.3083	448.294	215.321	391.560	476.081	179.828	479.479	405.809	304.561	291.999	259.982	487.029	383.573	350.556	453.468	327.190	430.738	0.00019853	0.0002851	0.00010137	316	1.5544e-06	1.429e-06	253.65	102.06	3.5885e-06	1.9054e-06	93.124	36.391	39.005	12.868	4.1509e-06	12.977	0.0020319	0.0029246	0.00082183	364.63	3.0992e-05	3.286e-05	284.07	114.06	2.9631e-05	3.2627e-05	107.19	41.528	45.91	14.783	3.0952e-05	15.195	177.697	307.683	264.477	159.313	195.197	258.710	158.162	164.653	240.473	366.577	162.570	166.353	168.079	174.354	292.448	171.623	-8191	255	
29875.775	1	1	0	0	0.2261	0.22389	0.30033	0.32448	0.1076	0.074724	0.10245	0.26518	0.051019	0.22282	0.090499	0.07223	0.16801	0.13457	0.18575	0.11155	-2.3937	-1.9104	-2.7562	-2.7229	-1.9646	-2.7646	-2.5187	-2.5625	-2.9583	-2.3333	-2.725	-2.6458	-2.1083	-3.0542	-2.4167	-2.3167	269.359	314.340	415.613	217.022	392.549	161.792	152.463	460.976	313.551	176.767	444.243	467.420	170.900	446.747	441.235	316.338	0.00010858	0.00031095	0.00013563	315.4	7.4982e-07	3.728e-06	250.82	102.17	1.7405e-06	3.4451e-06	93.516	36.6	39.235	12.871	2.305e-06	12.994	0.0020374	0.0029095	0.00081344	364.77	3.1357e-05	3.2732e-05	282.94	114.07	3.0109e-05	3.224e-05	107.33	41.586	45.885	14.805	3.0839e-05	15.25	161.011	280.649	260.240	159.594	433.882	379.330	158.011	164.590	404.381	280.154	162.863	166.360	167.933	174.562	249.928	171.905	-8191	255	
29875.873	1	1	0	0	0.040549	0.14539	0.17856	0.35015	0.019215	0.28455	0.055421	0.045052	0.075126	0.03219	0.080839	0.11441	0.21532	0.12559	0.2992	0.19545	-2.6063	-2.0708	-2.5292	-2.7854	-2.0354	-2.9354	-2.4062	-2.1083	-2.8167	-2.1875	-2.3063	-2.9458	-2.2271	-2.6771	-2.475	-2.1667	403.629	488.999	295.066	495.395	225.208	454.319	221.832	254.787	220.213	269.853	391.949	349.581	183.020	163.841	248.322	496.991	0.00017431	0.00014494	0.00018026	317.04	2.7755e-06	3.6579e-06	253.17	102	2.0216e-06	3.5685e-06	94.199	36.587	39.258	13.017	2.5682e-06	13.194	0.0020542	0.002957	0.00082112	364.71	3.1265e-05	3.2624e-05	283.4	114.12	3.0329e-05	3.2211e-05	107.94	41.727	46.053	14.887	3.1099e-05	15.4	189.740	360.006	251.930	159.085	360.323	268.025	158.567	164.443	383.714	449.553	162.474	166.206	167.715	174.467	322.742	171.689	-8191	255	
29875.943	1	1	0	0	0.17763	0.13491	0.32446	0.023427	0.084009	0.18751	0.039346	0.22588	0.087448	0.10819	0.24909	0.11172	0.22417	0.14794	0.014691	0.15377	-2.5792	-2.1937	-2.3563	-2.7812	-2.0771	-2.8833	-2.7583	-2.2	-2.9708	-2.3792	-2.2646	-2.8479	-2.1542	-2.7438	-2.5146	-2.0708	275.528	485.455	360.664	360.902	275.520	374.023	376.705	433.804	400.548	288.391	344.928	353.028	182.024	217.566	394.681	292.294	0.00017324	0.0004835	3.9594e-05	315.4	2.2627e-06	3.6283e-06	252.04	102.12	2.5004e-06	1.8813e-06	94.043	36.671	39.445	12.863	4.9426e-06	13.019	0.0020415	0.0029359	0.00082631	363.91	3.1006e-05	3.2873e-05	283.37	114.21	2.9911e-05	3.232e-05	107.83	41.837	46.003	14.818	3.0967e-05	15.27	175.881	432.111	390.186	159.702	209.707	353.474	158.570	164.493	251.855	468.815	162.764	166.408	168.243	174.689	379.646	171.926	-8191	255	
29876.039	1	1	0	0	0.06294	0.15277	0.12659	0.13157	0.18727	0.1606	0.20189	0.091027	0.10473	0.16009	0.18778	0.22534	0.13436	0.19302	0.17611	0.19168	-2.5687	-2.3083	-2.275	-3.0625	-2.2792	-2.7	-2.9229	-2.2542	-2.9813	-2.4667	-2.2333	-3.0187	-2.1417	-2.6667	-2.7542	-2.0042	189.866	454.098	400.006	269.413	251.799	424.691	397.753	423.913	401.619	442.598	397.027	202.097	386.380	288.355	438.886	152.950	0.00019579	0.00031998	5.8837e-05	311.63	1.6546e-06	3.535e-06	251.95	101.46	2.4618e-06	8.7773e-07	93.712	36.538	39.188	12.911	2.2976e-06	13.048	0.002049	0.0028905	0.00081972	362.64	3.0992e-05	3.2369e-05	282.61	113.44	2.9284e-05	3.1835e-05	107.1	41.517	45.783	14.805	3.0775e-05	15.259	157.150	207.405	290.494	159.845	249.270	291.460	158.479	164.659	337.998	326.186	162.361	166.591	168.219	175.001	244.797	171.502	-8191	255	
29876.137	1	1	0	0	0.28915	0.090793	0.17753	0.092156	0.39172	0.19559	0.16878	0.11727	0.24563	0.11112	0.065699	0.13355	0.14772	0.16225	0.090487	0.25551	-2.6125	-2.5271	-2.0479	-3.0438	-2.2167	-2.6479	-3.0583	-2.225	-2.8937	-2.5667	-2.1771	-3.1125	-2.1875	-2.375	-2.8812	-2.1063	333.867	282.806	400.603	390.722	364.117	495.666	500.613	255.749	258.021	287.526	297.760	343.328	320.224	476.435	429.663	333.395	0.0002131	0.00017048	2.9221e-05	314.76	4.1749e-06	5.5044e-06	252.12	101.43	1.2597e-06	6.2197e-07	93.311	36.651	39.326	12.948	1.0186e-06	12.994	0.0020363	0.0028827	0.00081267	362.16	3.1054e-05	3.2592e-05	282.4	113.53	2.96e-05	3.2183e-05	107.38	41.756	46.049	14.853	3.1021e-05	15.226	157.048	267.780	219.429	159.079	449.521	295.699	158.630	164.597	262.126	391.335	162.850	166.443	167.845	174.602	294.488	171.863	-8191	255	
29876.258	1	1	0	0	0.15521	0.28021	0.27462	0.030189	0.10608	0.044793	0.14822	0.2044	0.23271	0.22809	0.13612	0.040481	0.35246	0.062097	0.13001	0.15138	-2.4375	-2.7583	-2.2062	-2.8937	-2.4271	-2.5187	-2.9354	-2.2292	-2.6792	-2.8438	-2.1063	-3.0521	-2.5563	-2.3896	-2.9792	-2.1708	504.526	334.966	333.007	441.146	286.191	313.654	366.686	254.080	484.232	395.877	404.845	332.004	462.517	332.155	196.023	219.422	0.00017863	0.00049067	5.3603e-05	313.45	4.2917e-06	3.3939e-06	251.57	102.15	6.4045e-07	2.7705e-06	94.027	36.663	39.289	12.936	1.6307e-06	13.082	0.0020265	0.002887	0.00081668	363.03	3.0807e-05	3.26e-05	282.95	114.05	2.9989e-05	3.2047e-05	108	41.831	46.029	14.863	3.1215e-05	15.328	172.131	205.114	291.543	158.982	213.357	285.856	158.243	164.501	266.463	269.619	162.694	166.397	168.197	174.550	232.667	171.813	-8191	255	
29876.354	1	1	0	0	0.13958	0.25052	0.094938	0.094529	0.11505	0.21853	0.10256	0.21252	0.072006	0.14299	0.19859	0.13521	0.26097	0.12005	0.095941	0.30857	-2.2958	-2.8146	-2.1333	-2.8271	-2.3688	-2.3479	-3.0417	-2.1604	-2.725	-2.8458	-2.0583	-2.9896	-2.4521	-2.1417	-2.9583	-2.3708	184.830	351.712	303.575	345.998	229.188	389.886	232.567	250.221	438.965	304.786	416.458	416.037	406.571	469.745	451.309	454.532	0.0001624	0.00057463	9.512e-05	315.62	1.7457e-06	2.2752e-06	252.01	102.41	2.4716e-06	4.0006e-06	93.855	36.735	39.262	12.902	1.8937e-06	13.182	0.0020247	0.0029056	0.00082819	365.17	3.077e-05	3.2723e-05	285.14	114.46	3.0181e-05	3.2693e-05	108.38	42.089	46.117	14.852	3.0567e-05	15.349	176.061	254.082	196.280	159.542	221.266	215.542	158.124	164.549	311.582	199.231	162.526	166.489	167.909	174.716	153.664	171.453	-8191	255	
29876.449	1	1	0	0	0.233	0.074154	0.2207	0.24178	0.22884	0.27557	0.032345	0.15428	0.37864	0.23811	0.18451	0.13362	0.13208	0.33482	0.096147	0.14973	-1.9979	-2.7646	-2.1125	-2.8854	-2.5187	-2.175	-2.9271	-2.4271	-2.5687	-2.9375	-2.0458	-2.8021	-2.5812	-2.1458	-2.7938	-2.3958	419.462	438.228	177.230	149.541	391.563	392.435	344.398	411.695	304.635	179.502	461.070	308.090	394.107	166.366	415.956	275.598	0.00016069	0.00024627	0.00014561	315.58	6.4961e-06	3.6659e-06	250.76	102.11	3.2244e-06	4.7045e-06	94.627	36.874	39.144	12.88	3.5315e-06	12.974	0.0020445	0.0029393	0.00081632	364.89	3.0998e-05	3.2948e-05	284.19	114.31	3.0271e-05	3.203e-05	108.33	41.953	45.986	14.814	3.1001e-05	15.251	157.020	347.097	288.581	159.541	230.777	372.878	158.406	164.230	279.773	305.543	162.475	166.279	167.859	174.857	280.080	171.411	-8191	255	
29876.547	1	1	0	0	0.33933	0.12108	0.11948	0.20219	0.19959	0.084175	0.096077	0.14162	0.31344	0.045758	0.13878	0.26092	0.053516	0.26865	0.27818	0.24443	-1.9146	-2.7667	-2.1708	-2.7292	-2.7083	-2.0771	-2.9667	-2.3583	-2.2854	-2.9542	-2.2667	-2.75	-2.6917	-1.8021	-2.8021	-2.4313	422.993	438.596	175.826	191.255	160.416	427.434	341.547	223.997	468.510	297.705	333.544	250.528	246.951	500.520	277.928	197.237	0.00021687	0.00024157	7.6743e-05	314.45	4.7076e-06	3.1481e-06	252.46	102.43	1.4281e-06	4.1756e-06	93.565	36.689	39.172	12.921	3.205e-06	13.155	0.0020545	0.002913	0.0008183	362.75	3.1033e-05	3.2932e-05	284.09	114.25	2.9983e-05	3.2057e-05	107.87	41.961	46.05	14.789	3.0795e-05	15.356	184.420	317.886	270.664	159.363	279.875	323.929	158.666	164.294	216.603	258.429	162.346	166.229	167.996	174.481	469.394	171.870	-8191	255	
29876.641	1	1	0	0	0.18869	0.085039	0.1465	0.21155	0.078411	0.3276	0.19207	0.13265	0.044644	0.028043	0.22922	0.17826	0.12465	0.13532	0.29001	0.1601	-1.7646	-3.0896	-2.2229	-2.4896	-2.8125	-2.0958	-2.8438	-2.5167	-2.4938	-2.9417	-2.25	-2.2583	-2.6958	-2.175	-2.7729	-2.6542	401.617	490.905	202.388	235.535	225.248	470.622	506.258	382.944	287.964	454.027	344.683	385.622	158.385	496.448	230.897	393.816	0.0002087	0.00014563	0.00011606	315.85	2.6991e-06	4.7304e-06	251.49	102.47	5.3301e-06	3.8729e-06	94.733	36.904	39.661	12.886	4.9692e-06	13.101	0.0020711	0.0029381	0.00081735	364.56	3.1093e-05	3.2932e-05	284	114.52	3.0308e-05	3.2375e-05	108.71	42.184	46.364	14.889	3.0602e-05	15.379	158.370	309.523	211.268	159.315	288.245	273.973	158.506	164.321	302.366	431.666	162.564	166.118	168.053	174.779	269.764	171.607	-8191	255	
29876.736	1	1	0	0	0.32107	0.083895	0.39061	0.10029	0.17687	0.057862	0.28451	0.19506	0.15042	0.35313	0.018123	0.39313	0.082992	0.20673	0.19047	0.089788	-1.7667	-2.9042	-2.2292	-2.5479	-2.8229	-2.1021	-2.7583	-2.6521	-2.2479	-2.9229	-2.2875	-2.3229	-2.9146	-2.0979	-2.675	-2.725	207.854	233.677	415.774	380.651	503.923	168.494	497.135	466.102	378.492	367.667	214.991	374.205	367.768	437.931	454.109	175.570	0.00021189	0.00039626	3.7409e-05	315.63	1.2336e-06	4.1357e-06	253.3	103.39	1.0671e-06	3.2802e-06	95.116	37.146	39.927	13.026	9.9577e-07	13.205	0.0020683	0.002933	0.00081421	364.92	3.1246e-05	3.3059e-05	285.93	115.1	3.0346e-05	3.2386e-05	109.23	42.407	46.637	14.979	3.079e-05	15.45	169.136	211.065	280.660	159.655	400.053	339.352	158.478	164.419	294.119	257.288	162.549	166.430	167.891	174.709	204.619	171.704	-8191	255	
29876.857	1	1	0	0	0.14707	0.084836	0.19947	0.13505	0.010726	0.11069	0.10423	0.36308	0.057049	0.19761	0.13496	0.1607	0.10929	0.20387	0.23629	0.1419	-1.8333	-2.8917	-2.5417	-2.2625	-3.0146	-2.1333	-2.7271	-2.8583	-2.1208	-3.0292	-2.5417	-2.1875	-2.9833	-2.1854	-2.4667	-2.975	359.876	412.564	215.024	465.259	287.618	381.266	482.499	452.666	178.168	497.469	147.061	274.581	485.377	395.719	495.065	312.243	0.00019676	0.00024411	5.7658e-05	317.38	2.7526e-06	2.3365e-06	253.6	102.74	1.1488e-06	1.314e-06	94.362	37.283	39.954	13.011	3.3963e-06	13.12	0.0020625	0.0029286	0.00080847	365.81	3.1016e-05	3.2684e-05	285.28	115.2	3.0452e-05	3.2443e-05	108.91	42.508	46.601	14.934	3.0835e-05	15.407	172.925	184.956	355.685	159.790	376.364	272.687	158.336	164.773	314.036	246.860	162.613	165.976	167.858	174.504	316.430	171.417	-8191	255	
29876.953	1	1	0	0	0.09351	0.16076	0.14437	0.33774	0.12293	0.18384	0.04261	0.095448	0.063734	0.15807	0.041472	0.33091	0.1904	0.19867	0.091077	0.13375	-1.675	-2.7292	-2.5563	-2.4	-3.0458	-2.1437	-2.4396	-2.7854	-2.2354	-2.8187	-2.6917	-2.1125	-3.0729	-2.3708	-2.3604	-2.8854	475.574	160.197	251.663	407.869	458.133	198.972	503.823	487.792	287.441	318.816	270.292	209.450	176.406	385.075	236.046	344.454	0.00015599	0.0001892	0.00012815	313.58	1.1058e-06	7.5464e-06	253.09	103.33	2.0644e-06	5.1352e-06	94.601	37.194	40.13	13.006	1.9194e-06	13.092	0.0020503	0.0029258	0.00080881	365.56	3.1005e-05	3.2301e-05	285.44	115	2.9913e-05	3.1903e-05	108.71	42.42	46.644	14.944	3.1243e-05	15.414	166.982	236.680	325.061	159.117	456.942	294.904	158.800	164.734	258.867	350.069	162.137	166.157	168.132	174.797	261.089	171.915	-8191	255	
29877.049	1	1	0	0	0.070827	0.17227	0.20295	0.28774	0.12225	0.24783	0.13222	0.29105	0.12948	0.079264	0.19706	0.14451	0.20618	0.14799	0.2414	0.058243	-1.6729	-2.8042	-2.8375	-2.1937	-3.1146	-2.475	-2.35	-2.9917	-2.2146	-2.6063	-2.7917	-2.3063	-3.0792	-2.3979	-2.3125	-2.8875	362.293	336.006	346.048	353.733	424.887	218.248	394.392	416.059	437.024	347.022	484.594	285.316	217.149	306.198	323.181	481.746	0.0002154	0.00034718	8.333e-05	316.72	2.8256e-06	1.9778e-06	253.34	103.23	2.6976e-06	4.2668e-06	94.907	37.298	39.842	13.068	3.127e-06	13.188	0.0020685	0.0029243	0.00081069	365.91	3.0972e-05	3.2525e-05	285.05	115.01	3.0127e-05	3.1853e-05	109.03	42.458	46.511	14.931	3.1123e-05	15.472	171.588	257.053	269.837	159.320	278.207	488.311	158.266	164.418	264.479	327.254	162.699	166.112	168.278	174.551	287.559	171.088	-8191	255	
29877.145	1	1	0	0	0.16367	0.19675	0.20736	0.17164	0.22614	0.1031	0.1514	0.1423	0.082562	0.14391	0.15744	0.26738	0.077352	0.35694	0.23247	0.087576	-1.6542	-2.4708	-2.8083	-2.2021	-2.8604	-2.5708	-2.2396	-3.1792	-2.1521	-2.5771	-2.9396	-2.0729	-2.9375	-2.6625	-2.1167	-2.9271	299.973	154.821	445.012	369.739	271.796	224.294	450.115	186.952	157.117	397.352	201.608	381.073	426.102	441.619	367.870	332.227	0.00018496	0.00023269	4.135e-05	316.09	4.4834e-06	2.6336e-06	254.7	103.75	3.6569e-06	5.7358e-06	95.426	37.286	40.111	13.017	2.6733e-06	13.323	0.0020371	0.0029024	0.00081618	365.84	3.0815e-05	3.2526e-05	286.15	115.46	2.9797e-05	3.2261e-05	109.6	42.629	46.659	14.98	3.1102e-05	15.512	166.256	263.164	493.051	159.359	301.421	370.487	158.654	164.378	277.719	147.976	162.518	166.257	167.695	174.662	325.704	171.829	-8191	255	
29877.240	1	1	0	0	0.11218	0.2944	0.20332	0.12779	0.12397	0.13861	0.039115	0.1814	0.071849	0.10374	0.20112	0.30152	0.28932	0.23663	0.057383	0.055904	-1.9854	-2.4562	-2.6833	-1.8771	-2.8875	-2.5979	-2.1875	-2.9167	-2.3688	-2.4313	-3.0146	-2.2729	-2.6667	-2.675	-2.2333	-2.9333	162.302	313.747	166.182	231.122	365.619	309.380	346.057	448.503	195.974	211.396	211.998	251.857	435.607	425.190	492.813	480.716	0.00017901	0.00049169	0.00011386	316.5	1.0423e-06	5.0263e-06	255.28	103.86	8.2841e-07	3.3241e-06	95.217	37.342	39.898	13.114	1.735e-06	13.357	0.0020286	0.0029341	0.00082015	366.38	3.0557e-05	3.2746e-05	287.67	115.49	2.9976e-05	3.2561e-05	109.6	42.693	46.683	14.968	3.0963e-05	15.519	179.302	228.918	240.668	160.081	353.036	288.808	158.542	164.712	182.622	435.926	162.387	165.858	168.210	174.638	302.610	171.824	-8191	255	
29877.338	1	1	0	0	0.19814	0.21822	0.076227	0.13541	0.22353	0.23228	0.10826	0.107	0.20122	0.18702	0.092359	0.15941	0.11341	0.23015	0.11906	0.18328	-2.1458	-2.2667	-2.9125	-2.2521	-2.6854	-2.8375	-2.2375	-2.7417	-2.4833	-2.3979	-3.0062	-2.3229	-2.6875	-2.9	-2.3479	-3.0708	346.477	243.633	425.603	149.939	328.278	282.506	374.111	466.575	439.239	224.172	422.308	177.738	464.656	497.657	255.640	363.820	0.00019077	0.00021549	5.2718e-05	317.3	2.4017e-06	1.5021e-06	253.86	104.07	2.8827e-06	1.9611e-06	95.085	37.752	39.952	13.003	2.5538e-06	13.363	0.0020338	0.0029471	0.00082043	366.79	3.0918e-05	3.2823e-05	286.44	115.66	3.029e-05	3.2532e-05	109.31	42.782	46.783	15.003	3.1128e-05	15.551	165.161	208.749	264.142	159.750	213.080	321.880	158.537	164.833	301.309	320.506	162.010	166.178	168.516	174.674	232.976	171.613	-8191	255	
29877.434	1	1	0	0	0.092678	0.20907	0.078839	0.079086	0.090006	0.071922	0.14932	0.18123	0.051052	0.12683	0.4971	0.19133	0.12929	0.23771	0.24756	0.094615	-2.0667	-2.3583	-3.0458	-2.3021	-2.5896	-2.7854	-2.225	-3.0271	-2.6917	-2.1896	-3.1729	-2.3688	-2.3688	-2.9833	-2.3438	-2.7875	219.009	316.758	204.412	190.705	336.345	213.975	198.887	444.785	319.633	374.135	156.035	386.428	210.459	203.527	477.402	300.091	0.00019291	0.00019165	0.00010851	319.42	1.5736e-06	2.5359e-06	255.55	104.59	1.7794e-06	2.013e-06	95.755	37.639	40.405	13.144	3.2944e-06	13.382	0.0020305	0.0029736	0.0008182	367.27	3.104e-05	3.3122e-05	286.51	115.99	3.0218e-05	3.3098e-05	110	42.753	47.055	15.08	3.0818e-05	15.665	178.683	188.161	238.663	159.874	155.447	392.866	157.980	164.384	262.010	249.890	162.830	166.168	168.304	174.690	264.541	171.679	-8191	255	
29877.553	1	1	0	0	0.20187	0.27773	0.038434	0.1626	0.37227	0.2502	0.057601	0.22064	0.076418	0.35982	0.22233	0.18218	0.18465	0.25978	0.22416	0.035683	-2.3208	-2.0625	-3.1813	-2.3333	-2.325	-3.0104	-2.3937	-2.8708	-2.7458	-2.125	-3.0354	-2.4854	-2.3312	-2.8521	-2.2938	-2.4896	479.003	427.826	369.764	434.327	273.220	211.194	389.566	158.362	190.664	264.865	416.488	241.221	237.376	506.157	442.098	281.017	0.00018164	0.00018592	5.2701e-05	317.01	1.9489e-06	5.0182e-06	257.04	104.05	2.4382e-06	2.6454e-06	97.123	37.806	40.422	13.356	2.1025e-06	13.586	0.0020738	0.0029822	0.00082652	367.23	3.1698e-05	3.3442e-05	287.62	116.77	3.0913e-05	3.2796e-05	111.66	43.292	47.342	15.268	3.1733e-05	15.94	171.569	216.268	241.998	159.497	505.638	363.112	158.252	164.462	208.134	177.487	162.629	166.008	167.988	174.534	505.577	172.121	-8191	255	
29877.648	1	1	0	0	0.13518	0.18718	0.084003	0.25364	0.16219	0.15117	0.14717	0.040881	0.05485	0.20416	0.011641	0.36311	0.12237	0.056244	0.34369	0.099757	-2.4896	-2.2292	-3.0875	-2.5729	-2.3458	-3.0083	-2.2	-2.5542	-2.9167	-2.1104	-2.8167	-2.5646	-2.1688	-3.2521	-2.3667	-2.6521	393.862	442.982	453.830	231.477	356.392	418.513	191.276	369.057	427.553	505.115	177.476	477.704	373.029	393.926	417.875	180.292	0.00019215	0.00049377	0.00017393	319.8	5.764e-07	2.3158e-06	257.74	105.08	4.0578e-06	1.8738e-06	98.223	38.34	40.612	13.324	2.6968e-06	13.665	0.0020917	0.0030421	0.00084522	369.38	3.1941e-05	3.3459e-05	290.8	117.51	3.0943e-05	3.3012e-05	112.56	43.732	47.657	15.362	3.157e-05	16.046	168.958	505.873	208.928	159.936	286.467	407.218	158.537	164.607	350.517	362.170	162.620	166.163	168.297	174.664	227.058	171.371	-8191	255	
29877.744	1	1	0	0	0.13276	0.14363	0.043303	0.13137	0.30552	0.14739	0.014097	0.20294	0.16297	0.39114	0.069113	0.072001	0.17111	0.34673	0.3077	0.17758	-2.4188	-1.9646	-2.8	-2.675	-2.3187	-2.9313	-2.2771	-2.5854	-2.9917	-2.3604	-2.9583	-2.6479	-2.1458	-3.0229	-2.3083	-2.3833	468.316	427.737	403.216	346.369	386.871	319.594	189.720	488.884	198.903	210.548	198.110	444.743	351.837	491.021	161.873	305.106	0.00017104	0.00025728	8.6652e-05	320.72	3.5743e-06	2.3198e-06	259.18	105.19	1.1754e-06	7.0612e-06	98.384	38.048	40.882	13.42	2.1394e-06	13.805	0.002118	0.0030181	0.00083495	370.52	3.2111e-05	3.3449e-05	290.65	117.87	3.0906e-05	3.319e-05	112.54	43.612	47.707	15.378	3.1567e-05	16.093	182.995	277.221	186.953	159.348	291.658	431.719	158.555	164.499	303.275	320.626	162.501	166.088	168.134	174.678	387.446	171.081	-8191	255	
29877.842	1	1	0	0	0.14566	0.19071	0.10016	0.28098	0.25253	0.21209	0.0065619	0.088022	0.38539	0.33163	0.10303	0.19166	0.27121	0.25089	0.13433	0.13947	-2.7125	-2.3312	-2.8	-2.7792	-2.225	-3.0917	-2.4833	-2.3417	-3.0563	-2.2687	-2.8479	-2.8542	-2.0604	-2.9521	-2.525	-2.2938	402.123	206.371	221.153	500.782	233.781	358.258	459.949	187.975	185.235	485.071	171.480	421.414	504.585	336.165	250.673	421.398	0.00020554	0.00021132	6.1502e-05	319.68	2.8137e-06	2.1038e-06	259.19	105.2	3.5246e-06	3.0292e-06	98.496	38.336	41.047	13.423	1.8414e-06	13.765	0.002118	0.0029964	0.00083092	370.84	3.2363e-05	3.3935e-05	291.19	117.93	3.0606e-05	3.2821e-05	112.78	43.752	47.686	15.401	3.1732e-05	16.128	164.489	186.494	247.868	159.846	334.397	337.703	158.602	164.571	334.611	194.561	162.580	166.052	167.738	174.398	426.741	171.214	-8191	255	
#DATA ENDS
