BOXY.EXE: ISS Imagent and Oximeter Data Acquisition Program Version 0.80
Ascii Record File

#ACQ INFORMATION
2  Detector Channels 
16  External MUX Channels 
1  Auxiliary Channels 
5000  Waveform (CCF) Frequency (Hz)
1  Waveforms Skipped 
30  Waveforms Averaged 
1  Cycles Averaged 
16  Acquisitions per Waveform 
10.0806  Updata Rate (Hz) 

#FILE INFORMATION
TRUE -- External MUX Channel results are PARSED.
FALSE -- AC DC and Phase are NOT grouped.
TRUE -- Companion Program Settings File CREATED.
FALSE -- AC data not excluded
FALSE -- DC data not excluded
FALSE -- Phase data not excluded
FALSE -- Auxillary Chn. data not excluded
Tab delimiters

#CALIBRATION STATE
TRUE -- Waveform Calibration Values APPLIED.


#AUX CALIBRATION VALUES
Val Type	aux-1	

Term	1.0000e+00	
Factor	0.0000e+00	


#WF CALIBRATION VALUES
A = Detector Channel
Val Type	A-AC1	A-AC2	A-AC3	A-AC4	A-AC5	A-AC6	A-AC7	A-AC8	A-AC9	A-AC10	A-AC11	A-AC12	A-AC13	A-AC14	A-AC15	A-AC16	A-DC1	A-DC2	A-DC3	A-DC4	A-DC5	A-DC6	A-DC7	A-DC8	A-DC9	A-DC10	A-DC11	A-DC12	A-DC13	A-DC14	A-DC15	A-DC16	A-Ph1	A-Ph2	A-Ph3	A-Ph4	A-Ph5	A-Ph6	A-Ph7	A-Ph8	A-Ph9	A-Ph10	A-Ph11	A-Ph12	A-Ph13	A-Ph14	A-Ph15	A-Ph16	

Term	0.00000e+00	0.00000e+00	0.00000e+00	0.00000e+00	0.00000e+00	0.00000e+00	0.00000e+00	0.00000e+00	0.00000e+00	0.00000e+00	0.00000e+00	0.00000e+00	0.00000e+00	0.00000e+00	0.00000e+00	0.00000e+00	0.00000e+00	0.00000e+00	0.00000e+00	0.00000e+00	0.00000e+00	0.00000e+00	0.00000e+00	0.00000e+00	0.00000e+00	0.00000e+00	0.00000e+00	0.00000e+00	0.00000e+00	0.00000e+00	0.00000e+00	0.00000e+00	0.00000e+00	0.00000e+00	0.00000e+00	0.00000e+00	0.00000e+00	0.00000e+00	0.00000e+00	0.00000e+00	0.00000e+00	0.00000e+00	0.00000e+00	0.00000e+00	0.00000e+00	0.00000e+00	0.00000e+00	0.00000e+00	
Factor	1.00000e+00	1.00000e+00	1.00000e+00	1.00000e+00	1.00000e+00	1.00000e+00	1.00000e+00	1.00000e+00	1.00000e+00	1.00000e+00	1.00000e+00	1.00000e+00	1.00000e+00	1.00000e+00	1.00000e+00	1.00000e+00	1.00000e+00	1.00000e+00	1.00000e+00	1.00000e+00	1.00000e+00	1.00000e+00	1.00000e+00	1.00000e+00	1.00000e+00	1.00000e+00	1.00000e+00	1.00000e+00	1.00000e+00	1.00000e+00	1.00000e+00	1.00000e+00	X	X	X	X	X	X	X	X	X	X	X	X	X	X	X	X	

B = Detector Channel
Val Type	B-AC1	B-AC2	B-AC3	B-AC4	B-AC5	B-AC6	B-AC7	B-AC8	B-AC9	B-AC10	B-AC11	B-AC12	B-AC13	B-AC14	B-AC15	B-AC16	B-DC1	B-DC2	B-DC3	B-DC4	B-DC5	B-DC6	B-DC7	B-DC8	B-DC9	B-DC10	B-DC11	B-DC12	B-DC13	B-DC14	B-DC15	B-DC16	B-Ph1	B-Ph2	B-Ph3	B-Ph4	B-Ph5	B-Ph6	B-Ph7	B-Ph8	B-Ph9	B-Ph10	B-Ph11	B-Ph12	B-Ph13	B-Ph14	B-Ph15	B-Ph16	

Term	0.00000e+00	0.00000e+00	0.00000e+00	0.00000e+00	0.00000e+00	0.00000e+00	0.00000e+00	0.00000e+00	0.00000e+00	0.00000e+00	0.00000e+00	0.00000e+00	0.00000e+00	0.00000e+00	0.00000e+00	0.00000e+00	0.00000e+00	0.00000e+00	0.00000e+00	0.00000e+00	0.00000e+00	0.00000e+00	0.00000e+00	0.00000e+00	0.00000e+00	0.00000e+00	0.00000e+00	0.00000e+00	0.00000e+00	0.00000e+00	0.00000e+00	0.00000e+00	-1.96768e+02	-1.29699e+02	-1.34807e+02	-1.86339e+02	-7.54990e+01	-7.41266e+01	-1.58506e+02	-1.62015e+02	-8.93850e+01	-6.60437e+01	-1.71896e+02	-1.71132e+02	-1.83122e+02	-1.77420e+02	-7.77319e+01	-1.49721e+02	
Factor	4.32825e-05	1.44022e-04	4.41656e-05	2.97642e-01	1.53383e-06	1.64817e-06	1.64269e-01	5.16134e-02	1.72359e-06	1.70877e-06	8.37101e-02	2.83187e-02	3.98013e-02	9.20130e-03	1.82911e-06	1.31369e-02	6.94130e-06	8.10315e-06	2.27153e-06	1.56454e-01	8.77933e-08	8.93870e-08	8.17851e-02	2.74120e-02	8.57484e-08	8.94539e-08	4.31033e-02	1.45842e-02	2.12693e-02	4.93711e-03	8.74364e-08	6.82897e-03	X	X	X	X	X	X	X	X	X	X	X	X	X	X	X	X	



#DISTANCE SETTINGS
A = Detector Channel
A-1	A-2	A-3	A-4	A-5	A-6	A-7	A-8	A-9	A-10	A-11	A-12	A-13	A-14	A-15	A-16	

2.5000e+00	3.0000e+00	2.5000e+00	3.0000e+00	2.0000e+00	3.0000e+00	1.5000e+00	3.0000e+00	3.0000e+00	3.0000e+00	3.0000e+00	3.0000e+00	3.0000e+00	3.0000e+00	1.5000e+00	3.0000e+00	

B = Detector Channel
B-1	B-2	B-3	B-4	B-5	B-6	B-7	B-8	B-9	B-10	B-11	B-12	B-13	B-14	B-15	B-16	

1.0000e+01	1.0000e+01	1.0000e+01	1.4400e+00	1.0000e+01	1.0000e+01	1.5100e+00	1.9400e+00	1.0000e+01	1.0000e+01	1.9900e+00	2.4900e+00	2.4100e+00	2.9000e+00	1.0000e+01	2.9800e+00	




#DATA BEGINS
time	group	step	mark	flag	A-AC1	A-AC2	A-AC3	A-AC4	A-AC5	A-AC6	A-AC7	A-AC8	A-AC9	A-AC10	A-AC11	A-AC12	A-AC13	A-AC14	A-AC15	A-AC16	A-DC1	A-DC2	A-DC3	A-DC4	A-DC5	A-DC6	A-DC7	A-DC8	A-DC9	A-DC10	A-DC11	A-DC12	A-DC13	A-DC14	A-DC15	A-DC16	A-Ph1	A-Ph2	A-Ph3	A-Ph4	A-Ph5	A-Ph6	A-Ph7	A-Ph8	A-Ph9	A-Ph10	A-Ph11	A-Ph12	A-Ph13	A-Ph14	A-Ph15	A-Ph16	B-AC1	B-AC2	B-AC3	B-AC4	B-AC5	B-AC6	B-AC7	B-AC8	B-AC9	B-AC10	B-AC11	B-AC12	B-AC13	B-AC14	B-AC15	B-AC16	B-DC1	B-DC2	B-DC3	B-DC4	B-DC5	B-DC6	B-DC7	B-DC8	B-DC9	B-DC10	B-DC11	B-DC12	B-DC13	B-DC14	B-DC15	B-DC16	B-Ph1	B-Ph2	B-Ph3	B-Ph4	B-Ph5	B-Ph6	B-Ph7	B-Ph8	B-Ph9	B-Ph10	B-Ph11	B-Ph12	B-Ph13	B-Ph14	B-Ph15	B-Ph16	aux-1	digaux	

21730.824	1	1	0	256	0.1185	0.13582	0.086234	0.31591	0.12659	0.24605	0.23665	0.15035	0.097468	0.089868	0.13397	0.30152	0.2732	0.1164	0.23609	0.25294	-1.5187	-2.5521	-2.6625	-1.9292	-2.6333	-2.3354	-2.1063	-2.6917	-2.2083	-2.3875	-2.6292	-2.0771	-2.5854	-2.4562	-2.1813	-2.8021	233.165	-72.237	182.977	126.187	-110.895	-83.097	-25.487	228.019	109.835	-71.565	190.590	-48.278	145.486	3.272	1.797	45.580	0.00019012	0.0011863	0.00014712	1003.2	5.6469e-06	9.522e-06	914.3	245.45	8.1654e-06	1.3377e-05	247.6	69.825	71.583	16.682	1.1449e-05	16.964	0.010436	0.012289	0.0034301	1213.5	0.00013141	0.00013467	1019.4	281.84	0.00012786	0.00013411	307.47	90.176	101.6	23.861	0.00013062	26.904	178.770	4.785	-11.372	-104.165	233.523	145.664	-104.646	-99.578	194.413	187.553	-100.802	-96.982	-95.700	-90.566	150.455	-93.280	-8191	255	
21730.922	1	1	0	0	0.11239	0.084842	0.2766	0.28908	0.065255	0.13741	0.2721	0.11812	0.076181	0.25926	0.12493	0.29531	0.079668	0.14627	0.16057	0.1268	-1.7625	-2.2146	-2.9938	-2.0271	-2.6083	-2.6333	-2.2979	-2.8021	-2.2292	-2.4083	-2.7938	-1.9458	-2.5354	-2.5792	-1.9875	-2.7938	-34.277	-82.880	157.362	-40.689	136.780	17.574	225.794	-18.885	184.245	240.214	215.565	-73.557	18.869	53.155	239.517	19.284	0.00038326	0.00083719	0.00015167	1006.1	6.1583e-06	7.5734e-06	912.44	246.01	1.328e-05	2.3396e-05	248.63	70.001	71.611	16.736	7.5701e-06	17.086	0.01031	0.012066	0.0033791	1207.7	0.00012928	0.00013136	1013.7	280.48	0.00012328	0.00013012	305.98	89.143	101.17	23.713	0.00012797	26.681	-40.334	42.947	13.503	-104.135	152.999	-45.071	-105.000	-99.023	-36.829	-42.428	-101.034	-97.412	-95.438	-90.438	31.869	-92.999	-8191	255	
21731.016	1	1	0	0	0.089101	0.20826	0.3281	0.13233	0.17359	0.015268	0.24521	0.10559	0.20596	0.13499	0.18904	0.15195	0.18418	0.31009	0.054325	0.18446	-1.7146	-2.2938	-2.7521	-2.1792	-2.6521	-2.7021	-2.2062	-2.9208	-2.3146	-2.1521	-2.8354	-2.2208	-2.525	-2.7979	-2.0167	-2.7458	-91.171	-51.264	192.974	-15.920	-58.886	155.311	213.492	230.777	73.546	67.466	-31.104	239.362	-51.163	208.210	-29.635	183.690	0.00054753	0.001407	0.00030451	1000	5.5383e-06	1.2833e-05	910.12	244.93	5.7261e-06	1.4591e-05	248.85	69.041	71.613	16.838	1.4611e-05	16.976	0.010185	0.011891	0.0033135	1203	0.00012711	0.00012998	1010.2	279.45	0.0001234	0.00012944	305.84	88.953	100.86	23.707	0.00012613	26.532	161.190	-94.216	220.557	-104.019	90.231	121.161	-104.594	-99.285	229.483	-102.906	-101.436	-97.198	-95.735	-90.355	-39.664	-92.957	-8191	255	
21731.113	1	1	0	0	0.10397	0.13528	0.13406	0.028056	0.068289	0.32817	0.093604	0.1586	0.13063	0.23691	0.19858	0.059504	0.1934	0.087552	0.090195	0.30166	-2.0208	-2.2083	-2.9896	-2.3042	-2.4625	-2.7958	-2.1312	-2.775	-2.7396	-2.1729	-2.8396	-2.2	-2.2604	-2.7417	-1.9375	-2.7208	140.713	81.470	-51.783	179.369	-31.902	83.641	41.280	194.958	-6.370	29.562	193.541	17.614	128.897	23.823	65.975	116.114	0.00025941	0.00081745	0.00019569	1002.9	1.4053e-05	1.4779e-05	913.75	245.24	5.683e-06	1.3671e-05	247.8	69.317	71.531	16.929	3.4401e-06	17.092	0.010109	0.011737	0.0032765	1204	0.00012761	0.00012967	1012	280.11	0.00012392	0.00012922	304.57	89.101	100.63	23.658	0.00012433	26.493	45.605	-14.836	123.601	-103.961	2.465	-34.523	-104.820	-99.099	-60.020	29.669	-101.135	-97.528	-95.649	-90.504	144.979	-93.038	-8191	255	
21731.232	1	1	0	0	0.36589	0.14363	0.26507	0.15	0.16278	0.064292	0.19204	0.2034	0.18763	0.1513	0.099176	0.061687	0.28869	0.10819	0.12787	0.15134	-2.1292	-2.0771	-2.7542	-2.4792	-2.1229	-2.7438	-2.2333	-2.6188	-2.5646	-1.925	-2.8271	-2.5042	-2.1437	-2.7479	-2.0792	-2.5354	-53.418	-113.748	135.764	204.797	-66.422	-64.511	215.665	182.781	65.887	-41.299	228.717	197.925	166.859	26.098	-71.423	-87.045	0.00037888	0.00059419	0.00014963	1008.8	9.0921e-06	1.8205e-05	914.59	247.1	3.3599e-06	4.8004e-06	250.29	69.728	70.891	16.664	8.2358e-06	17.289	0.0099499	0.011642	0.0032468	1203.7	0.00012698	0.00012894	1012.2	280.66	0.00012364	0.00012831	305.48	88.808	99.994	23.416	0.00012138	26.392	71.147	-64.346	87.101	-104.334	206.874	72.446	-104.733	-99.371	-17.907	12.547	-100.753	-97.876	-95.646	-90.274	-36.572	-92.506	-8191	255	
21731.305	1	1	0	0	0.26196	0.066656	0.23257	0.23514	0.14003	0.24991	0.1838	0.13432	0.20506	0.294	0.059336	0.079159	0.14915	0.19735	0.25013	0.011858	-2.2875	-1.9083	-2.8521	-2.3125	-2.1146	-2.9479	-2.275	-2.3917	-2.6167	-1.9375	-2.7438	-2.4396	-2.1021	-2.6458	-2.1312	-2.6	33.636	241.658	-17.311	-106.313	218.824	-70.501	203.999	-101.404	92.464	172.809	71.940	78.124	235.725	183.034	-103.805	228.197	0.00060204	0.00052485	0.00013028	1007.4	1.373e-05	6.5157e-06	912.41	245.3	9.1789e-06	2.2532e-05	249.9	69.638	71.1	16.826	1.0963e-05	17.039	0.0098174	0.011388	0.0031636	1199	0.00012305	0.00012439	1006.2	278.78	0.00011846	0.00012301	303.14	88.267	99.289	23.296	0.00011976	26.213	140.209	-102.315	113.630	-103.700	12.685	229.630	-104.745	-99.312	-89.243	64.232	-101.133	-96.840	-95.092	-90.139	43.651	-93.055	-8191	255	
21731.426	1	1	0	0	0.25342	0.22603	0.074045	0.032707	0.097167	0.033236	0.19199	0.29701	0.21895	0.20135	0.26141	0.076055	0.078071	0.19765	0.15324	0.099615	-2.3771	-1.9625	-2.6188	-2.4437	-1.9062	-2.875	-2.4188	-2.4583	-2.7667	-2.1396	-2.7417	-2.6146	-2.0729	-2.7333	-2.2646	-2.1771	91.686	145.576	53.525	-61.752	-104.578	184.472	125.889	-91.831	-108.083	143.473	172.434	137.587	-112.730	-17.655	22.758	153.036	0.00030353	0.00044634	0.0004319	1001.5	1.8329e-06	5.5931e-06	909.44	245.89	1.1884e-05	1.7618e-05	250.11	69.046	71.049	16.84	2.3257e-05	17.018	0.0096233	0.011083	0.0031025	1194.7	0.00012127	0.00012163	1005.5	278.36	0.0001168	0.00012164	302.47	87.863	98.781	23.181	0.00011895	26.032	205.270	-48.443	87.458	-103.622	183.168	67.168	-104.922	-99.254	144.436	10.658	-101.150	-97.292	-95.177	-90.071	24.388	-93.193	-8191	255	
21731.521	1	1	0	0	0.19328	0.018908	0.068579	0.21495	0.14257	0.019228	0.13438	0.20443	0.15525	0.18953	0.07105	0.26819	0.13112	0.17676	0.076445	0.24899	-2.3771	-2.0042	-2.4667	-2.6333	-2.2708	-2.7208	-2.4104	-2.2438	-2.8333	-2.0292	-2.6896	-2.5896	-2.1292	-2.8521	-2.35	-2.1542	201.862	-34.022	-43.238	216.905	86.106	-77.901	-76.848	-69.253	141.573	-111.911	121.824	186.830	211.293	206.888	225.535	-102.141	0.00018878	0.0011013	0.00019029	1004.9	1.3958e-06	7.3876e-06	913.08	245.16	1.5312e-05	1.086e-05	249.47	69.544	70.939	16.987	1.7988e-05	16.992	0.0094982	0.010991	0.0030854	1188.3	0.00011852	0.00011937	999.87	277.05	0.00011401	0.00011987	300.77	87.657	98.47	23.21	0.00011836	26.059	156.985	4.174	-4.152	-103.912	-59.332	81.545	-104.726	-99.282	73.020	57.709	-100.990	-97.340	-95.292	-90.362	40.915	-93.246	-8191	255	
21731.617	1	1	0	0	0.34959	0.079777	0.026121	0.052405	0.1843	0.32324	0.25407	0.32634	0.10984	0.11722	0.089419	0.24417	0.11898	0.12078	0.039169	0.3246	-2.475	-2.0979	-2.3083	-2.7271	-2.1437	-2.8063	-2.7188	-2.1833	-2.7354	-2.0208	-2.4271	-2.7687	-2.0687	-2.7208	-2.4479	-2.1333	-71.801	-110.398	-81.596	186.641	136.200	236.727	-15.830	148.926	48.068	22.906	58.344	28.171	162.875	167.653	125.246	-42.240	4.9615e-05	0.00025489	5.7467e-05	1003.3	7.784e-06	5.7969e-06	909.52	245.21	1.5536e-05	1.6857e-05	248.91	68.543	71.561	16.956	1.4421e-05	17.105	0.0093407	0.010902	0.0030878	1189.1	0.00011807	0.00011951	1001.1	277.2	0.00011307	0.00011872	300.9	87.175	98.114	23.19	0.00011674	25.928	-18.233	7.657	21.706	-103.727	85.350	39.075	-104.694	-99.250	-111.612	165.569	-100.392	-97.338	-95.399	-90.347	21.205	-92.454	-8191	255	
21731.713	1	1	0	0	0.11341	0.39781	0.043651	0.12184	0.093764	0.080689	0.16982	0.11488	0.13405	0.12498	0.10328	0.079498	0.033324	0.23717	0.13468	0.04179	-2.225	-2.2083	-2.2875	-3.0896	-1.9854	-2.7062	-2.8208	-2.1292	-2.8875	-2.4375	-2.4062	-2.8333	-2.05	-2.4833	-2.6125	-2.0896	151.546	58.871	154.059	95.707	220.378	127.647	227.425	115.963	-112.682	183.013	135.617	191.357	-6.730	223.139	-78.597	153.167	0.00019853	0.00072483	0.0001789	1003.7	8.226e-06	7.1887e-06	914.38	244.8	1.0253e-05	3.5862e-06	248.19	68.987	71.609	16.95	5.6116e-06	16.915	0.0092608	0.010803	0.0030045	1184.3	0.00011442	0.00011668	998.26	275.53	0.00010922	0.00011447	297.41	85.768	96.385	22.751	0.00010964	25.209	160.236	17.773	-110.355	-103.443	232.475	66.827	-104.847	-99.159	-66.314	172.731	-100.768	-97.201	-95.445	-90.003	105.486	-92.280	-8191	255	
21731.811	1	1	0	0	0.11236	0.26576	0.25235	0.19185	0.26261	0.15484	0.14607	0.27814	0.12522	0.11749	0.1183	0.10484	0.21092	0.14505	0.26522	0.21076	-2.3396	-2.3583	-2.1854	-2.9021	-2.1646	-2.4125	-2.7562	-2.0521	-2.7854	-2.3563	-2.0896	-2.6979	-2.0042	-2.5354	-2.6729	-2.0125	87.906	63.150	1.227	148.379	180.884	213.664	-90.148	170.436	212.009	219.046	226.673	102.900	238.820	113.690	22.968	68.894	0.00030442	0.0005055	0.00021427	1002.4	8.2877e-06	9.7899e-06	904.59	244.81	1.2425e-05	2.7561e-05	246.82	68.715	70.891	16.729	1.5464e-05	16.883	0.0087335	0.010137	0.0028743	1170.6	0.0001092	0.0001115	991.48	273.27	0.00010536	0.00011072	294.83	85.286	95.582	22.51	0.00010571	24.87	240.980	129.057	-74.619	-104.081	233.727	222.595	-104.336	-99.234	10.306	11.114	-100.437	-97.397	-95.806	-90.100	51.040	-92.674	-8191	255	
21731.906	1	1	0	0	0.27259	0.092985	0.084332	0.27345	0.04754	0.18323	0.33602	0.18473	0.025777	0.10363	0.12206	0.27478	0.096492	0.10008	0.13359	0.25152	-2.1458	-2.4688	-2.0167	-2.7542	-2.0625	-2.4792	-2.9708	-1.9604	-2.6042	-2.4167	-2.1917	-3.0479	-2.1583	-2.2729	-2.8312	-2.1458	-2.530	139.368	63.213	-82.916	-101.545	9.221	190.246	175.719	192.488	66.493	136.457	236.092	115.302	136.888	107.464	-46.349	0.0003407	0.00172	0.00017109	998.3	7.7921e-06	2.4239e-05	904.28	243.56	7.6302e-06	1.3138e-05	248.64	68.34	71.767	16.687	1.6365e-05	17.154	0.0084308	0.0098126	0.0027666	1161.9	0.00010573	0.00010885	985.76	271.59	0.00010365	0.0001085	294.48	85.003	95.398	22.452	0.00010411	24.841	66.382	29.720	-97.781	-104.076	167.785	159.748	-105.163	-99.252	-82.466	216.920	-100.626	-97.350	-95.448	-89.983	-37.476	-92.965	-8191	255	
21732.002	1	1	0	0	0.28731	0.11008	0.17865	0.17632	0.041716	0.27345	0.25236	0.13167	0.14125	0.13335	0.014712	0.077292	0.1595	0.18929	0.303	0.064143	-2.025	-2.6458	-2.0542	-2.7833	-2.1875	-2.1562	-2.9	-1.9562	-2.4208	-2.5104	-2.0729	-2.7896	-2.1063	-2.1792	-2.7292	-2.1208	183.841	97.425	125.135	152.553	170.781	171.567	232.089	140.355	203.003	-89.170	215.123	-97.460	7.958	220.054	241.149	-77.822	0.00023079	0.0011696	0.00020581	997.76	9.5207e-06	9.1645e-06	909.49	243.59	9.6173e-06	1.3913e-05	247.71	68.901	71.48	16.721	1.0118e-05	17.106	0.0082685	0.0096791	0.0027126	1158.6	0.00010415	0.00010632	985.2	271.45	0.00010292	0.00010759	292.75	85.041	95.182	22.403	0.00010408	24.839	44.555	-110.570	-65.009	-103.669	205.609	203.620	-104.508	-99.120	215.758	107.991	-101.102	-97.096	-95.918	-89.509	-60.744	-92.949	-8191	255	
21732.096	1	1	0	0	0.11549	0.22016	0.21204	0.19407	0.073904	0.092606	0.16282	0.19228	0.074332	0.18937	0.20538	0.18589	0.29362	0.031773	0.054496	0.19234	-2.0146	-2.5771	-2.1479	-2.8563	-2.25	-2.0396	-2.925	-1.9375	-2.4938	-2.5667	-1.9375	-2.8563	-2.2938	-2.15	-2.8042	-2.1021	188.228	59.204	-78.939	156.594	113.564	136.652	131.905	189.840	-100.540	204.970	137.597	133.212	214.030	-12.251	-1.124	213.468	0.00037402	0.0012591	0.00024967	1005.5	1.0168e-05	5.0357e-06	915.54	244.65	1.0142e-05	2.0345e-06	248.73	69.301	70.75	16.903	1.27e-05	17.112	0.0082725	0.0096049	0.002674	1158.8	0.00010282	0.00010464	986.38	270.85	9.947e-05	0.00010254	291.4	84.421	93.957	22.106	9.7817e-05	24.324	116.817	223.761	162.206	-103.572	232.968	8.442	-104.776	-99.219	-36.529	1.060	-100.646	-97.093	-95.075	-90.196	2.748	-93.078	-8191	255	
21732.193	1	1	0	0	0.22605	0.1928	0.082346	0.1836	0.27154	0.06408	0.26794	0.077392	0.21714	0.104	0.16174	0.19572	0.14061	0.04895	0.13028	0.12838	-1.8042	-2.6271	-1.9125	-2.6042	-2.4562	-2.0875	-2.7875	-2.3104	-2.2104	-2.7979	-2.15	-2.7146	-2.5229	-2.1521	-2.7625	-2.1896	-9.692	-74.552	26.499	104.563	7.205	20.546	189.418	111.737	-70.599	161.061	148.053	104.584	-60.577	215.837	146.663	27.413	0.00045313	0.0006869	0.00048538	1001.7	1.2978e-05	1.2153e-05	907.76	246.64	8.9672e-06	1.5458e-05	247.59	69.222	71.275	16.874	7.1749e-06	17.087	0.0077801	0.0090492	0.0025126	1149	9.7341e-05	9.8675e-05	979.99	270.6	9.4362e-05	9.7585e-05	289.02	83.75	93.275	21.882	9.5058e-05	24.171	172.690	213.093	-81.183	-103.900	-32.302	-35.407	-104.840	-99.360	-19.668	-106.689	-100.905	-97.258	-95.439	-90.037	18.187	-92.460	-8191	255	
21732.312	1	1	0	0	0.10498	0.16914	0.28225	0.042715	0.37458	0.19435	0.28449	0.2371	0.24074	0.41225	0.24838	0.18494	0.078784	0.16824	0.20771	0.23936	-1.675	-2.5875	-2	-2.5333	-2.575	-1.9771	-2.9542	-2.4458	-2.0438	-2.8771	-1.9896	-2.5417	-2.7375	-2.0875	-2.5771	-2.3646	18.827	2.788	216.538	83.373	95.542	117.882	227.066	131.905	-32.897	242.263	131.188	181.150	72.458	225.889	183.826	-95.102	0.00025547	0.00056169	0.00020722	1006.4	3.9451e-06	9.4357e-06	905.76	246.15	1.4167e-05	8.366e-06	248.06	68.857	71.474	16.801	1.3638e-05	16.874	0.0076274	0.0088687	0.0024706	1151.9	9.6806e-05	9.7838e-05	976.72	270.48	9.4956e-05	9.8399e-05	289.33	83.783	93.377	21.951	9.6827e-05	24.25	158.391	165.266	-31.711	-103.533	216.409	163.429	-104.447	-99.182	1.617	179.866	-101.076	-97.049	-95.153	-90.280	201.588	-92.571	-8191	255	
21732.408	1	1	0	0	0.14489	0.15366	0.11351	0.10757	0.086284	0.16128	0.25047	0.11069	0.052115	0.27063	0.21711	0.024548	0.24382	0.11382	0.17046	0.13538	-1.3333	-2.75	-2.0625	-2.4104	-2.525	-1.9688	-2.7438	-2.3958	-2.0229	-2.8229	-2.1083	-2.4437	-2.7438	-1.8563	-2.5292	-2.5	58.051	99.745	25.481	161.457	58.692	-59.396	137.577	-42.232	-4.658	-11.411	-46.128	107.837	-52.630	229.228	179.442	223.868	0.00042082	0.00072191	7.0075e-05	1004.8	8.2841e-06	4.4706e-06	901.91	244.84	1.5591e-05	8.0263e-06	245.56	68.599	71.696	16.622	1.4612e-06	16.904	0.0077953	0.009052	0.0025362	1148	9.8128e-05	9.9474e-05	974.1	268.98	9.4841e-05	9.8293e-05	287.89	83.278	92.93	21.758	9.5925e-05	24.017	84.122	-4.568	215.170	-103.451	85.796	212.081	-104.712	-98.929	1.548	29.706	-100.500	-96.943	-95.268	-90.337	17.209	-92.408	-8191	255	
21732.506	1	1	0	0	0.1859	0.043405	0.18379	0.06851	0.045105	0.0473	0.16631	0.15104	0.21024	0.14799	0.065233	0.2264	0.095552	0.20933	0.073059	0.17255	-1.6854	-2.7104	-2.1083	-2.2667	-2.7396	-1.9333	-2.6583	-2.6813	-2.0271	-2.6979	-2.1625	-2.0479	-2.6771	-2.0667	-2.6458	-2.5646	169.680	67.085	157.765	34.459	-111.823	-79.673	189.487	106.525	164.523	210.974	38.265	16.988	126.906	-4.500	72.636	-27.247	0.00020683	0.0014635	0.00016968	1001.4	6.0268e-06	8.5917e-06	908.6	246.49	1.1232e-05	1.4597e-05	250.11	70.022	71.801	16.737	8.4993e-06	16.964	0.0075629	0.0086547	0.0024215	1140.9	9.2482e-05	9.2413e-05	973.35	269.56	8.8666e-05	9.2023e-05	287.8	83.474	92.249	21.62	9.0985e-05	23.745	219.962	-99.625	11.819	-103.887	141.800	8.652	-104.426	-99.088	75.347	-32.228	-100.760	-96.925	-95.023	-89.641	24.010	-93.004	-8191	255	
21732.602	1	1	0	0	0.17104	0.24661	0.093845	0.28163	0.14914	0.1006	0.22542	0.20085	0.1964	0.09961	0.079685	0.10964	0.24829	0.12751	0.19889	0.20004	-1.5083	-2.6708	-2.2875	-2.3958	-2.7979	-2.0125	-2.4375	-2.6562	-1.9083	-2.6708	-2.3104	-2.1562	-2.8208	-2.1375	-2.2979	-2.7375	-37.913	16.991	119.376	138.283	210.949	205.884	200.255	230.980	98.653	-47.195	153.196	184.485	155.661	96.531	-9.695	194.173	0.00010205	0.00077495	8.6773e-05	1004.3	1.2668e-05	5.3638e-06	909.89	246.44	8.8348e-06	9.0956e-06	249.28	69.756	71.637	16.752	9.7833e-06	16.819	0.007252	0.0083579	0.0023453	1138.3	8.9876e-05	9.2188e-05	972.76	269.17	8.8221e-05	9.1856e-05	287.4	83.316	92.229	21.604	9.1303e-05	23.739	92.841	-75.261	122.184	-103.102	57.524	207.522	-104.229	-98.986	51.568	-38.050	-100.706	-97.081	-95.361	-90.016	139.496	-92.871	-8191	255	
21732.697	1	1	0	0	0.027051	0.21259	0.035063	0.26351	0.2937	0.22741	0.1291	0.21614	0.21222	0.019052	0.065931	0.16257	0.22602	0.064583	0.11719	0.063886	-1.5604	-2.7521	-2.1813	-2.0396	-2.7479	-2.1646	-2.4375	-2.7458	-1.9438	-2.4479	-2.5417	-1.9	-2.6937	-2.1562	-2.2667	-2.7333	-10.700	-7.656	168.645	68.586	-47.240	-36.681	93.817	220.360	-102.702	213.477	200.848	78.507	-88.313	235.737	138.172	158.077	3.6692e-05	0.00095495	0.00033709	1001.8	8.4774e-06	1.3802e-05	903.68	245.96	1.1353e-05	1.6425e-05	249.75	69.523	71.978	16.711	1.3948e-05	16.843	0.0073544	0.0086672	0.0024444	1142.4	9.4973e-05	9.6841e-05	972.03	270.31	9.2251e-05	9.6894e-05	289.65	84.003	93.502	21.783	9.5788e-05	23.981	115.636	-96.379	12.075	-103.812	79.398	82.861	-104.427	-99.017	-82.674	34.255	-100.754	-96.476	-95.243	-89.547	200.557	-92.614	-8191	255	
21732.795	1	1	0	0	0.12768	0.28223	0.14829	0.13119	0.034536	0.11106	0.40156	0.23428	0.089678	0.16213	0.20071	0.39125	0.052398	0.21638	0.40402	0.26861	-1.4688	-2.4188	-2.5083	-2.0812	-2.7417	-2.0625	-2.1604	-2.7708	-1.9375	-2.5417	-2.7917	-2.0875	-2.7042	-2.3104	-2.2542	-2.7125	123.863	-23.173	140.350	-73.696	111.737	161.903	202.660	226.945	-57.399	-11.851	233.959	204.305	2.792	122.088	124.397	-90.342	0.00018555	0.00083646	0.00035647	1002.2	1.6672e-05	3.3596e-06	906.58	245.86	4.6381e-06	9.5416e-06	248.21	69.029	72.423	16.734	1.214e-05	16.88	0.0076219	0.0089523	0.0025292	1143.5	9.8579e-05	0.000101	976.19	271.02	9.7148e-05	0.00010209	290.99	84.932	94.765	21.982	0.0001006	24.271	-114.443	-28.282	-67.654	-103.453	7.443	138.678	-104.015	-98.956	23.786	147.968	-100.986	-96.426	-95.100	-89.748	227.429	-92.115	-8191	255	
21732.914	1	1	0	0	0.15476	0.56714	0.24577	0.2856	0.19789	0.14325	0.20747	0.23655	0.29326	0.094268	0.1275	0.091669	0.063015	0.25694	0.095586	0.11516	-1.5729	-2.2938	-2.4083	-1.8375	-2.6813	-2.2875	-2.0104	-2.9646	-1.9854	-2.2812	-2.6	-2.0854	-2.525	-2.3604	-2.0604	-2.7625	155.471	81.144	216.926	-83.294	-52.699	242.025	-106.734	206.442	231.335	137.767	-37.810	22.976	-90.222	-100.686	-68.648	-99.706	0.00014776	0.0018493	0.00018771	1003.2	7.9128e-06	1.4106e-05	902.36	245.79	1.5014e-05	8.0388e-06	250.4	69.913	71.914	16.706	3.1389e-06	17.049	0.0080184	0.0093936	0.0026236	1150.7	0.0001013	0.00010378	977.93	271.78	9.9117e-05	0.00010465	293.35	85.715	95.472	22.13	0.00010276	24.563	-53.106	-48.550	57.492	-103.326	199.120	-5.168	-104.426	-98.801	84.823	124.004	-100.285	-96.687	-95.245	-89.889	223.784	-92.258	-8191	255	
21733.010	1	1	0	0	0.28234	0.13247	0.22929	0.14064	0.19369	0.16345	0.27537	0.15306	0.027694	0.10618	0.092534	0.089046	0.25888	0.052877	0.1689	0.12949	-1.6021	-2.2188	-2.6146	-2.0417	-2.6625	-2.6479	-2.0354	-2.8875	-2.2146	-2.2104	-2.9958	-2.0271	-2.5438	-2.5646	-1.6688	-2.8875	-16.911	-96.894	-99.992	219.250	-63.578	53.052	148.279	196.371	163.363	69.099	-26.094	-56.357	-90.283	-7.883	221.455	-22.475	0.00021267	0.0019789	0.00020344	999.58	2.6402e-06	1.0936e-05	902.9	244.6	1.1619e-05	1.3144e-05	247.79	70.066	72.455	16.715	7.6166e-06	16.72	0.0081297	0.0095709	0.0026508	1159.8	0.00010399	0.00010603	982.78	272.97	0.00010276	0.00010768	295.02	86.096	96.219	22.325	0.00010682	24.847	-91.906	-32.521	-92.297	-103.463	168.020	48.810	-103.858	-98.378	-48.401	-3.114	-100.474	-96.906	-95.286	-90.456	225.825	-92.162	-8191	255	
21733.105	1	1	0	0	0.31715	0.12411	0.21152	0.37412	0.11259	0.27095	0.080988	0.14976	0.31894	0.11712	0.15323	0.1525	0.12583	0.43316	0.38947	0.12858	-1.7583	-2.1271	-2.6708	-2.1458	-2.4521	-2.4896	-2.1	-2.8708	-2.2271	-2.1729	-2.8458	-2.0563	-2.2875	-2.8104	-1.9042	-2.7021	144.045	214.230	5.301	175.983	-38.964	40.635	12.220	159.994	233.907	221.838	95.272	216.861	-61.576	231.150	143.622	-99.416	5.5555e-05	0.00077133	0.00052888	997.91	9.2541e-06	1.7689e-05	899.98	243.6	8.3917e-06	1.7571e-05	246.06	69.437	70.93	16.609	6.404e-06	16.585	0.0085566	0.010036	0.0027893	1160.7	0.00010851	0.00011058	980.02	272.88	0.00010678	0.00011264	294.78	86.23	96.881	22.471	0.00011018	24.959	62.661	-74.897	-73.491	-103.773	-8.617	-63.615	-104.750	-98.928	84.407	176.648	-100.425	-97.361	-95.340	-90.410	-29.184	-92.708	-8191	255	
21733.201	1	1	0	0	0.11522	0.3295	0.045002	0.15957	0.094757	0.07236	0.034452	0.33108	0.15309	0.11556	0.22631	0.078875	0.064356	0.096713	0.049961	0.13228	-2.0375	-1.9729	-2.8083	-2.1854	-2.3583	-2.9271	-2.0479	-2.5625	-2.4708	-2.0708	-2.8646	-2.0625	-2.3021	-2.8063	-2.1083	-2.5729	-4.314	-16.203	6.212	109.186	-103.490	37.569	-47.841	146.418	-44.924	192.877	220.203	52.915	19.199	-71.591	-84.526	131.588	0.00013473	0.00075073	0.0002339	992.94	1.4991e-05	1.1803e-05	900.42	244.9	5.3769e-06	3.9417e-06	247.68	69.738	72.502	16.595	1.2171e-05	16.859	0.0088166	0.010275	0.0028443	1160.6	0.0001095	0.00011096	980.29	272.85	0.0001063	0.0001106	294.36	85.953	96.36	22.274	0.0001056	24.676	65.412	-4.393	57.577	-103.795	-32.981	-64.392	-104.809	-99.176	175.079	67.464	-101.132	-96.671	-95.200	-90.372	-10.709	-92.541	-8191	255	
21733.297	1	1	0	0	0.30548	0.33533	0.25162	0.072733	0.25478	0.050547	0.24175	0.041745	0.147	0.16201	0.14231	0.042182	0.1187	0.10291	0.068373	0.29294	-2.0042	-1.9021	-2.8063	-2.3083	-2.1875	-2.5917	-2.1042	-2.6063	-2.5521	-1.9062	-2.9833	-2.4042	-2.1708	-2.7438	-2.0083	-2.3563	-35.702	214.435	33.470	-65.845	-99.938	200.072	127.565	236.590	13.150	237.793	-116.676	74.340	221.001	144.671	-54.764	78.450	0.00024285	0.00025432	0.0001158	996.85	5.2758e-06	4.1971e-06	904.28	244.56	7.8559e-06	1.2292e-05	249.47	69.659	71.777	16.586	8.071e-06	16.776	0.0083796	0.0097345	0.002723	1158.1	0.00010566	0.00010707	983.5	273.35	0.00010439	0.00010895	296.29	86.399	96.813	22.455	0.00010878	25.083	200.640	228.948	46.449	-103.969	-52.241	100.039	-104.699	-99.326	-12.596	36.500	-100.816	-97.206	-95.292	-90.119	-25.937	-92.928	-8191	255	
21733.393	1	1	0	0	0.11951	0.32085	0.27368	0.14681	0.099322	0.17263	0.15979	0.16807	0.14621	0.11211	0.17266	0.161	0.072029	0.094943	0.044388	0.10259	-2.1437	-2.0917	-2.7125	-2.4917	-2.1271	-2.7583	-2.2083	-2.4354	-2.4667	-1.8208	-2.7667	-2.3458	-2.0125	-2.6479	-1.8917	-2.3812	115.517	60.572	106.590	189.722	70.804	210.542	209.600	73.230	-66.568	-29.855	206.928	31.511	2.475	-110.980	-110.662	-42.133	0.00040154	0.0011306	7.4464e-05	1009.7	7.5139e-06	8.8554e-06	903.16	244.97	1.6352e-05	1.7747e-05	250.21	69.544	71.439	16.479	1.2044e-05	16.578	0.0086935	0.010185	0.0028663	1171.2	0.00011189	0.00011336	989.19	275.06	0.00011013	0.0001146	298.19	86.734	97.551	22.617	0.0001134	25.34	82.111	-15.409	-83.453	-103.838	-43.477	89.466	-104.813	-99.259	22.265	24.076	-100.923	-96.850	-95.792	-90.202	121.262	-92.525	-8191	255	
21733.490	1	1	0	0	0.42528	0.20349	0.18237	0.13582	0.09083	0.2849	0.09388	0.34234	0.18994	0.16398	0.21019	0.17629	0.09896	0.099463	0.12028	0.22596	-2.0542	-2.0021	-2.3833	-2.2896	-1.9792	-2.8104	-2.1375	-2.225	-2.6625	-1.8625	-2.7292	-2.4292	-1.9708	-2.6833	-2.1833	-2.2562	-72.157	134.398	-98.912	63.124	0.719	-33.275	154.227	176.686	-88.631	-17.080	147.642	-99.308	-14.404	161.137	219.982	-19.553	0.00049839	0.001004	0.00057043	1000.5	1.725e-05	4.4385e-06	905.58	243.03	6.7882e-06	1.4184e-05	249.65	69.235	71.988	16.557	1.315e-06	16.475	0.0091086	0.010627	0.0029735	1172.7	0.00011432	0.00011543	988.56	274.33	0.00010977	0.00011544	298.37	86.831	97.378	22.573	0.00011187	25.137	121.055	125.358	9.966	-104.029	15.230	87.095	-105.051	-99.480	120.389	18.330	-101.344	-97.181	-95.148	-89.880	-28.149	-93.478	-8191	255	
21733.609	1	1	0	0	0.18834	0.2631	0.082002	0.22012	0.20726	0.22283	0.18203	0.054604	0.19831	0.17508	0.27327	0.088795	0.22207	0.2759	0.11486	0.17985	-2.3333	-1.8937	-2.5917	-2.5417	-1.8208	-2.7208	-2.4417	-2.3354	-2.7896	-1.9479	-2.4229	-2.4521	-1.7854	-2.6208	-2.2958	-2.1375	92.416	-31.399	-48.484	-94.760	-71.909	225.529	98.929	98.265	-70.641	40.318	142.617	229.344	51.900	-114.094	179.040	206.400	0.00032282	0.001168	6.8182e-05	1002.6	9.7295e-06	1.5469e-05	901.81	244.6	7.125e-06	1.499e-05	249.11	69.857	71.81	16.615	7.9439e-06	16.658	0.0089101	0.010386	0.0028995	1169.6	0.00011103	0.00011316	985.17	274.26	0.00010653	0.00011098	296.42	86.258	96.831	22.469	0.0001089	25.022	163.525	65.385	146.451	-103.996	-57.783	133.455	-105.101	-99.313	40.954	30.331	-100.957	-97.598	-95.125	-89.987	-40.330	-93.381	-8191	255	
21733.705	1	1	0	0	0.14622	0.16607	0.17819	0.34041	0.16311	0.11066	0.1881	0.1816	0.14186	0.056859	0.2678	0.030829	0.27499	0.24155	0.1377	0.2725	-2.3792	-2.0687	-2.3292	-2.5542	-1.975	-2.6458	-2.3792	-2.2875	-2.7479	-2.1208	-2.3479	-2.6813	-1.8833	-2.6229	-2.4688	-2.1625	188.252	131.569	-44.369	172.795	165.470	54.211	103.378	148.451	6.796	94.121	-107.017	-80.913	162.071	167.366	168.238	203.491	0.00012264	0.00056777	7.4721e-05	995.77	1.4076e-05	1.2053e-05	907.94	244.97	9.416e-06	1.9332e-05	249.06	69.806	72.411	16.665	1.2161e-05	16.86	0.0087053	0.010139	0.0028326	1167.8	0.00010912	0.00011157	988.44	274.71	0.00010688	0.00011146	297.07	86.502	97.054	22.599	0.0001104	25.141	120.731	4.614	29.436	-104.046	27.264	131.776	-105.039	-98.806	87.209	4.937	-100.682	-97.125	-95.953	-90.293	12.552	-92.337	-8191	255	
21733.777	1	1	0	0	0.17011	0.25925	0.18005	0.094663	0.1183	0.233	0.19778	0.079458	0.24118	0.40401	0.18276	0.42317	0.14366	0.41286	0.12611	0.15833	-2.3708	-2.0917	-2.1562	-2.8604	-1.8208	-2.7125	-2.7625	-2.0354	-2.6792	-2.0417	-2.2562	-2.7396	-2.0146	-2.3875	-2.4833	-1.9354	-73.787	151.731	211.154	189.141	-92.898	-100.090	215.783	-108.027	231.671	169.587	175.686	14.307	156.721	-101.498	15.403	215.250	0.0005343	0.001781	0.00010043	996.74	9.3136e-06	7.4568e-06	901.19	244.27	9.2879e-06	6.4973e-06	251.68	68.905	71.636	16.614	1.0632e-05	16.715	0.0087962	0.010254	0.0029011	1169.1	0.0001126	0.00011485	988.52	274.75	0.0001105	0.0001156	300.04	86.754	97.783	22.746	0.00011425	25.259	165.790	180.091	66.237	-103.651	20.249	211.161	-104.933	-99.125	109.161	148.559	-100.601	-97.652	-95.424	-89.996	46.514	-93.325	-8191	255	
21733.873	1	1	0	0	0.054221	0.35399	0.23666	0.14579	0.1903	0.16722	0.26789	0.15363	0.15284	0.22937	0.1585	0.1132	0.048601	0.12031	0.1978	0.23433	-2.4437	-2.2042	-2.1917	-2.7875	-1.7812	-2.3854	-2.6271	-1.9937	-2.7417	-2.2062	-2.1896	-2.8	-2.1208	-2.3042	-2.6646	-2.0542	-66.486	-35.665	58.827	72.370	187.613	156.172	175.985	-105.513	-26.601	209.336	222.664	237.768	204.651	-89.870	-71.760	150.549	0.00043078	0.0011816	0.00018564	999.08	7.7007e-06	1.5113e-05	898.97	243.9	1.074e-05	1.4679e-05	248.12	68.772	71.752	16.552	9.8957e-06	16.597	0.009031	0.010503	0.0029357	1171.7	0.00011259	0.00011498	986.22	274.44	0.00011	0.00011444	296.79	86.334	97.005	22.542	0.00011168	25.075	185.714	-51.293	191.984	-104.133	85.807	77.753	-104.765	-98.976	21.236	58.805	-100.687	-97.535	-95.208	-90.201	51.388	-92.218	-8191	255	
21733.992	1	1	0	0	0.1424	0.1255	0.14382	0.25924	0.25715	0.076462	0.17196	0.064685	0.2691	0.035176	0.061102	0.1741	0.27749	0.271	0.15182	0.25032	-2.2729	-2.4188	-1.9604	-2.8937	-2.1375	-2.2542	-2.6562	-1.9771	-2.5979	-2.3417	-2.0104	-2.8104	-2.0812	-2.3271	-2.7042	-1.9354	-97.883	-6.917	229.925	-100.590	68.777	146.408	-110.935	-115.463	1.376	98.330	107.567	-110.686	-106.045	236.850	-77.154	40.235	0.00047181	0.00061751	0.00029448	1000.5	1.2097e-05	8.5719e-06	899.64	243.77	1.1799e-05	1.2633e-05	248.2	68.756	71.221	16.59	2.0868e-05	16.762	0.0088381	0.010326	0.0029147	1169	0.00011192	0.00011337	985.99	274	0.00010917	0.0001137	296.04	86.018	96.778	22.506	0.00011091	25.082	181.593	-82.066	-74.439	-103.782	225.827	40.790	-104.854	-98.726	-25.998	50.870	-100.996	-97.179	-95.684	-89.709	237.635	-92.582	-8191	255	
21734.090	1	1	0	0	0.16841	0.11068	0.20099	0.078352	0.051548	0.21987	0.2177	0.24484	0.05729	0.18734	0.071621	0.16168	0.19406	0.081231	0.22243	0.21533	-2.1021	-2.4125	-1.8833	-2.9917	-2.1854	-2.1146	-2.9562	-2.0833	-2.4958	-2.6937	-1.9125	-2.6875	-2.2812	-2.1271	-2.5604	-1.8729	-117.039	102.115	78.052	147.121	194.572	64.005	-85.809	60.179	68.940	94.113	237.526	189.106	-82.471	-66.738	15.100	202.189	0.0003446	0.00047978	0.00036468	1001.6	6.963e-06	8.7538e-06	896.86	243.46	9.9511e-06	1.7993e-05	245.76	68.492	71.103	16.428	2.0318e-05	16.689	0.0089679	0.010442	0.0029605	1172.5	0.00011527	0.00011704	987.53	274.82	0.00011312	0.00011756	296.85	86.284	97.24	22.637	0.00011341	25.188	113.973	238.557	-6.597	-103.763	162.761	-99.840	-104.668	-99.158	-49.582	38.226	-100.980	-97.588	-95.781	-90.462	6.798	-93.641	-8191	255	
21734.188	1	1	0	0	0.11348	0.28774	0.10801	0.49058	0.19243	0.12196	0.25392	0.17687	0.21086	0.12318	0.22904	0.2547	0.2411	0.19871	0.087158	0.16983	-2.1562	-2.5021	-1.8604	-2.6437	-2.1708	-2.05	-2.7208	-1.9583	-2.3875	-2.6771	-1.9333	-2.6562	-2.3167	-1.8375	-2.6604	-1.9688	225.636	110.560	-104.716	228.747	-102.650	164.782	155.511	168.658	-20.136	160.251	28.478	-98.822	187.375	-36.696	-2.199	-41.114	0.00046479	0.0020537	0.00036909	995.27	5.8221e-06	1.3077e-06	901.45	243.22	1.1186e-05	2.566e-05	245.56	68.345	70.654	16.616	1.6332e-05	16.579	0.0091583	0.010689	0.0030049	1174.8	0.00011621	0.00011985	988.78	274.35	0.00011481	0.00011891	296.9	86.484	97.643	22.735	0.00011478	25.293	211.281	-5.256	-70.349	-104.167	216.537	-81.667	-105.065	-99.620	-60.029	200.351	-101.168	-97.605	-95.907	-91.186	-35.083	-93.678	-8191	255	
21734.307	1	1	0	0	0.19454	0.088711	0.27148	0.063923	0.1325	0.20269	0.12885	0.058184	0.10473	0.21473	0.071076	0.08576	0.19437	0.19952	0.21358	0.26537	-1.9708	-2.4062	-1.7687	-2.7583	-2.5521	-2.0875	-3.0208	-2.2104	-2.3396	-2.8354	-1.8542	-2.6917	-2.5125	-2.0229	-2.7854	-2.2375	-63.293	45.754	159.597	-18.837	132.958	-33.661	155.841	111.540	167.792	147.315	-59.452	162.977	212.655	-31.737	176.214	-13.228	0.00013001	0.0016374	0.00012468	997.51	1.714e-05	1.3644e-05	894.1	242.23	1.3823e-05	7.993e-06	244.32	68.837	72.218	16.56	2.0296e-05	16.568	0.009084	0.010577	0.0029582	1173.9	0.00011431	0.00011731	986.6	273.57	0.00011203	0.00011624	296.19	86.763	97.708	22.641	0.00011371	25.155	216.541	227.947	213.452	-104.106	115.465	-62.260	-105.100	-99.431	126.906	195.669	-101.131	-97.764	-96.229	-90.717	41.489	-93.111	-8191	255	
21734.402	1	1	0	0	0.12375	0.22845	0.096326	0.12461	0.23384	0.15011	0.11495	0.31388	0.12094	0.056728	0.16516	0.28096	0.29958	0.039422	0.11778	0.27379	-1.6688	-2.7854	-1.8521	-2.5354	-2.4583	-1.9271	-2.8833	-2.2375	-2.2396	-2.9167	-2.0479	-2.4292	-2.6104	-1.8375	-2.5062	-2.375	87.892	84.094	-62.332	206.723	-33.396	-75.738	173.459	237.896	-46.964	65.504	70.651	-116.955	-75.385	-28.600	185.856	138.710	2.9175e-05	0.00088088	0.00023673	990.56	8.2071e-06	4.9414e-06	898.89	243.72	1.9376e-05	1.0664e-05	246.81	68.804	71.688	16.545	1.4472e-05	16.47	0.009016	0.010471	0.0029258	1171.3	0.00011242	0.00011401	983.7	273.71	0.0001097	0.00011392	295.73	86.602	96.952	22.575	0.00011209	25.044	65.420	-23.132	58.516	-104.116	139.568	-40.592	-104.968	-99.461	151.986	166.083	-101.102	-97.618	-96.050	-90.793	49.741	-93.441	-8191	255	
21734.475	1	1	0	0	0.23109	0.12623	0.14908	0.053644	0.15851	0.29665	0.11637	0.021684	0.29743	0.049548	0.2796	0.055195	0.11701	0.23455	0.11574	0.23153	-1.5292	-2.6875	-1.9438	-2.2125	-2.5563	-2	-2.8625	-2.2812	-2.0333	-2.7313	-1.9104	-2.2833	-2.4979	-1.9229	-2.6188	-2.45	-16.707	30.808	45.273	134.744	84.482	58.360	204.765	48.930	150.189	125.479	-109.826	-25.546	25.654	-68.755	143.847	39.575	0.00038907	0.00048232	0.00020997	1002.7	9.0766e-06	7.807e-06	897.51	243.6	2.6194e-05	5.0858e-06	246.67	69.397	71.812	16.339	1.4184e-05	16.61	0.0089113	0.010436	0.0028931	1171.6	0.00011186	0.00011394	984.01	273.99	0.00011	0.00011456	296.51	87.087	97.907	22.679	0.00011532	25.333	161.953	215.536	-74.540	-103.989	22.443	6.803	-105.153	-99.499	-71.117	39.417	-101.232	-97.761	-95.992	-90.339	74.358	-93.407	-8191	255	
21734.594	1	1	0	0	0.14554	0.15631	0.11007	0.1178	0.047263	0.11404	0.23873	0.20863	0.1688	0.25438	0.045839	0.18603	0.21022	0.20765	0.12938	0.060019	-1.5729	-2.9062	-2.0229	-2.4542	-2.7896	-2.0292	-2.7021	-2.625	-1.9604	-2.7188	-2.2562	-2.2	-2.5875	-2.1021	-2.4146	-2.5146	213.043	127.938	-14.710	-113.258	-1.187	146.338	141.168	107.581	-100.117	53.455	65.755	170.680	226.285	-110.979	-20.970	-87.016	0.00044667	0.0014045	0.00013813	999.24	1.525e-05	1.2348e-05	894.89	241.94	5.9692e-06	6.1725e-06	246.91	68.75	71.8	16.43	1.3738e-05	16.598	0.0092538	0.010831	0.0030428	1183.8	0.00011858	0.00012055	987.64	275.25	0.00011699	0.00012336	300.41	88.204	100.06	22.996	0.00012258	25.852	137.180	-78.053	152.567	-103.999	136.317	169.077	-104.896	-99.529	9.261	90.345	-101.039	-97.430	-95.953	-90.400	241.286	-93.155	-8191	255	
21734.691	1	1	0	0	0.14048	0.16537	0.27635	0.047084	0.14034	0.13497	0.13587	0.1413	0.10872	0.18082	0.15322	0.20191	0.085199	0.14608	0.22455	0.14471	-1.5146	-2.7208	-2.3042	-2.1458	-2.7833	-2.0146	-2.8458	-2.6396	-1.8625	-2.6542	-2.2917	-2.1667	-2.75	-2.0958	-2.4625	-2.6167	208.854	120.936	-70.232	145.210	-55.401	117.147	79.182	140.190	97.084	157.907	-102.232	226.075	-108.312	177.069	-21.127	189.382	0.00026479	0.0026155	0.00021555	992.61	9.6515e-06	2.084e-05	895.81	243.47	1.8758e-05	1.499e-05	247.68	69.158	72.367	16.46	7.6039e-06	16.702	0.0098768	0.011519	0.0032007	1187.7	0.00012395	0.00012584	991.16	276.88	0.00011986	0.00012398	300.91	88.594	100.03	22.911	0.00012083	25.758	160.435	-9.148	-75.379	-104.037	-32.372	-46.843	-105.083	-99.500	139.501	18.086	-100.976	-97.432	-95.760	-90.861	177.066	-93.305	-8191	255	
21734.787	1	1	0	0	0.13491	0.21468	0.12664	0.10715	0.005696	0.25292	0.18946	0.25396	0.21492	0.15172	0.17707	0.072083	0.25036	0.13144	0.14549	0.1114	-1.4562	-2.6688	-2.2021	-2.1917	-2.8125	-2.2292	-2.3917	-2.7958	-1.8854	-2.6813	-2.5271	-1.8625	-2.7354	-1.9792	-2.2188	-2.8104	15.758	238.643	41.005	96.239	36.096	17.025	-67.989	142.525	107.664	201.201	82.536	198.690	-91.412	158.980	242.160	-78.412	0.00043176	0.0011222	0.00047901	985.17	6.0165e-06	4.9115e-06	892.65	243.8	2.3879e-06	1.9807e-05	248.84	69.76	71.993	16.539	2.6333e-06	16.619	0.0096979	0.011226	0.0031594	1185.1	0.00012256	0.00012366	991.03	276.97	0.00011628	0.00011993	300.04	88.204	99.133	22.768	0.00011692	25.486	151.749	12.067	2.060	-103.936	98.062	168.270	-104.954	-99.753	123.579	68.500	-101.006	-97.661	-95.445	-91.070	100.741	-92.528	-8191	255	
21734.906	1	1	0	0	0.20964	0.26377	0.44267	0.26844	0.19078	0.23577	0.087847	0.14688	0.052291	0.12324	0.22865	0.25226	0.21797	0.36701	0.2028	0.037066	-1.3813	-2.4146	-2.35	-2.1208	-2.6354	-2.0687	-2.325	-2.7125	-1.8813	-2.4313	-2.6083	-1.8833	-2.8312	-2.2812	-2.1063	-2.8021	-106.377	223.327	80.102	162.329	135.714	126.149	170.008	185.068	219.355	237.139	129.209	216.290	-81.414	166.328	-88.168	214.669	0.00017656	0.00074867	0.00020105	1009	1.0161e-05	5.5921e-06	894.81	246.11	1.3011e-05	6.6166e-06	250.82	69.579	72.03	16.581	3.4919e-06	16.758	0.0092929	0.010941	0.0030766	1186	0.00011843	0.00011972	990.46	277.62	0.00011369	0.00011906	300.52	88.272	99.38	22.843	0.00011784	25.611	150.682	233.193	20.484	-103.946	-15.779	88.498	-105.001	-99.564	218.047	42.779	-101.464	-97.860	-95.569	-90.821	143.741	-93.544	-8191	255	
21735.004	1	1	0	0	0.081216	0.24161	0.11648	0.20935	0.040719	0.32864	0.31263	0.20005	0.16489	0.12804	0.30797	0.39245	0.18607	0.25189	0.19788	0.14624	-1.6354	-2.3521	-2.55	-1.7958	-2.7083	-2.3229	-2.4458	-2.8167	-2.0271	-2.375	-2.5708	-1.9479	-2.5167	-2.2354	-1.9583	-2.7896	180.447	16.514	163.792	-91.151	-59.587	198.163	149.611	156.230	100.427	-60.552	169.519	223.620	52.768	165.732	-91.283	173.256	0.00015621	0.00092541	0.00027713	1000.1	5.254e-06	1.9393e-05	896.39	244.48	2.6414e-05	9.2063e-06	247.68	69.475	72.826	16.556	1.7762e-05	16.788	0.0093912	0.010951	0.0030765	1188.1	0.00011858	0.0001217	992.66	278.26	0.00011781	0.00012276	302.45	88.746	100.39	23.077	0.00012244	25.924	123.810	-86.971	139.095	-104.227	-78.506	-55.706	-105.158	-99.528	142.272	186.720	-100.950	-97.734	-96.318	-90.664	-3.699	-93.852	-8191	255	
21735.072	1	1	0	0	0.10739	0.10873	0.30332	0.07086	0.0625	0.030683	0.13163	0.29815	0.17298	0.1979	0.16417	0.37748	0.22901	0.14668	0.21093	0.25049	-1.7521	-2.2542	-2.6021	-2.0292	-2.7208	-2.2583	-2.2146	-2.7313	-2.1729	-2.1646	-2.9146	-2.1083	-2.5021	-2.3708	-1.8771	-2.8646	41.709	233.343	-104.533	95.508	-55.823	42.701	-87.812	-99.553	-20.612	179.363	78.331	224.985	126.403	227.591	29.924	156.652	0.00031971	0.0010536	0.00030498	991.62	6.6009e-06	3.374e-06	899.78	244.31	1.7867e-05	2.045e-05	247.62	69.027	71.621	16.441	1.9148e-05	16.59	0.0097072	0.011337	0.0031792	1190.7	0.00012413	0.00012707	998.7	278.51	0.00012361	0.00012977	303.9	89.137	101.32	23.415	0.00012926	26.476	139.402	60.033	-38.644	-104.159	-76.837	-36.698	-104.964	-99.900	120.473	185.623	-101.382	-97.283	-95.850	-90.557	75.071	-93.351	-8191	255	
21735.170	1	1	0	0	0.16663	0.1435	0.0439	0.28044	0.081495	0.21387	0.11452	0.19943	0.24375	0.0779	0.10182	0.18528	0.075397	0.069551	0.28033	0.037349	-1.8563	-2.1188	-2.6312	-2.0104	-2.55	-2.5125	-2.1875	-3.05	-2.1854	-1.9792	-2.9229	-2.0604	-2.275	-2.7271	-2.0083	-2.8208	-116.964	86.467	174.988	7.007	14.395	136.408	173.639	178.976	177.880	169.055	152.106	190.090	48.710	-61.553	45.414	25.066	0.00033821	0.00054195	0.00038804	993.17	7.4761e-06	1.0415e-05	892.53	242.71	1.4894e-05	6.8716e-06	245.29	68.159	70.728	16.377	9.3613e-06	16.643	0.010419	0.012199	0.0034275	1203.1	0.00013199	0.00013552	1001.4	279.14	0.00012829	0.00013536	305.75	89.266	101.74	23.518	0.00013116	26.409	115.914	26.412	-72.517	-103.519	218.405	99.856	-104.991	-99.168	-61.326	-25.161	-101.169	-98.065	-95.749	-90.659	36.906	-92.304	-8191	255	
21735.268	1	1	0	0	0.1068	0.19016	0.16344	0.091215	0.20175	0.059722	0.13671	0.10038	0.09027	0.31159	0.075582	0.025148	0.068343	0.091642	0.094986	0.083387	-1.7208	-2.0687	-2.7333	-1.9854	-2.1833	-2.6875	-1.9062	-2.6354	-2.3896	-2.1312	-2.9083	-2.1542	-2.2271	-2.6813	-1.7792	-2.7583	113.624	50.435	69.405	104.552	191.371	-71.575	122.033	186.895	-29.115	54.450	154.725	36.164	-76.832	-27.647	134.437	-107.827	0.00035953	0.00037721	0.00041155	998.48	4.8161e-06	8.4854e-06	898.19	243.45	1.7201e-05	1.9096e-05	245.53	68.705	71.842	16.54	1.2425e-05	16.612	0.010324	0.012079	0.0033833	1197.9	0.00013004	0.0001331	997.05	279.07	0.00012652	0.00013148	303.3	88.764	100.71	23.259	0.00012545	25.981	128.494	216.934	29.869	-104.366	116.169	219.017	-105.060	-99.232	213.663	-11.229	-101.117	-97.625	-95.276	-90.547	-103.197	-93.483	-8191	255	
21735.387	1	1	0	0	0.26896	0.13757	0.18449	0.2449	0.27245	0.38015	0.097246	0.19948	0.10134	0.31619	0.17406	0.48579	0.15951	0.042587	0.14365	0.032978	-2.1354	-1.8937	-2.7646	-2.2021	-2.1688	-2.5625	-2.0896	-2.6479	-2.4562	-1.9312	-2.7729	-2.2729	-2.075	-2.6375	-2.0229	-2.5542	149.306	-17.101	190.346	-58.187	29.346	64.531	121.291	12.641	-72.697	133.969	-30.602	152.532	46.939	107.691	172.206	-9.599	0.00028361	0.00075572	0.00026086	996.92	6.3521e-06	5.5699e-06	896.95	243.99	1.0035e-05	2.1711e-05	248.74	69.481	73.056	16.675	1.0884e-05	16.793	0.0098575	0.011482	0.0031815	1189.1	0.00012236	0.00012482	993.53	277.29	0.00011806	0.00012329	301.77	88.487	99.762	23.013	0.00011739	25.684	-105.464	235.231	-21.215	-103.876	118.035	-69.409	-105.114	-99.046	-5.307	-5.707	-100.793	-97.255	-95.484	-90.344	7.695	-93.307	-8191	255	
21735.482	1	1	0	0	0.010197	0.14344	0.22587	0.21599	0.19342	0.084496	0.054885	0.24009	0.21331	0.27375	0.28598	0.22393	0.3008	0.065903	0.030202	0.10507	-2.1437	-2.0021	-2.8375	-2.3479	-2.1104	-2.6646	-2.1604	-2.4604	-2.6292	-2.0875	-2.7146	-2.3729	-2.0208	-2.8146	-2.1104	-2.3104	-112.810	-107.410	80.077	-102.406	85.170	229.099	25.264	145.620	163.753	0.341	224.553	228.707	-110.620	-43.194	239.565	-57.089	0.00029294	0.00095516	0.00035689	1003.3	1.0322e-05	1.0166e-05	907.54	246.38	4.3112e-06	1.3313e-05	254.48	71.039	73.389	16.715	9.1105e-07	17.209	0.009405	0.010925	0.0030431	1187.7	0.00011815	0.00011908	1000.5	278.89	0.00011309	0.00011674	303.46	88.798	99.417	22.889	0.00011244	25.521	213.383	182.811	77.118	-103.901	52.986	7.729	-104.626	-99.138	92.271	-101.785	-101.286	-97.671	-95.505	-90.465	174.890	-93.509	-8191	255	
21735.578	1	1	0	0	0.046037	0.156	0.22797	0.25424	0.1827	0.1892	0.067071	0.23173	0.019943	0.062241	0.030275	0.16418	0.11155	0.15806	0.092857	0.039365	-2.3667	-1.9833	-2.6771	-2.3604	-2.1229	-2.55	-2.0021	-2.3646	-2.775	-2.0125	-2.4229	-2.4021	-1.9646	-2.625	-1.9604	-2.2896	173.219	-18.170	50.174	-71.329	125.376	-16.826	-99.404	-64.508	166.672	-36.047	-108.673	163.859	-29.663	-82.763	-102.796	165.169	0.00029007	0.0008365	0.00012407	1016.3	7.7507e-06	1.2136e-05	922.29	252.06	1.7709e-05	8.4981e-06	254.93	71.774	73.993	16.995	1.4885e-06	17.233	0.0089952	0.010511	0.0029389	1192	0.00011472	0.00011726	1008.9	281.82	0.00011221	0.00011696	305.49	89.418	100.23	23.097	0.00011375	25.897	174.127	-13.587	-40.379	-104.105	-70.615	94.006	-104.868	-99.161	28.713	166.151	-100.882	-97.544	-95.871	-90.804	157.987	-92.814	-8191	255	
21735.699	1	1	0	0	0.26301	0.12852	0.12697	0.057651	0.16259	0.12683	0.20573	0.077538	0.23112	0.15855	0.13956	0.10199	0.18935	0.13915	0.09423	0.12317	-2.4292	-1.9062	-2.5104	-2.6063	-1.9542	-2.7562	-2.4375	-2.2625	-2.7812	-2.1875	-2.4479	-2.6042	-2.0542	-2.7396	-2.3167	-2.0708	168.245	-114.385	224.106	140.076	135.035	208.651	185.462	-23.991	200.319	-59.317	-28.519	-111.553	-95.140	133.452	-85.023	165.052	0.0005437	0.0016483	0.00025397	1017.2	1.6726e-05	1.2868e-05	917.29	250.54	1.0398e-05	1.0894e-05	255.2	71.634	74.687	16.886	7.3317e-07	17.251	0.0092109	0.010675	0.0029751	1195.5	0.00011635	0.00011751	1009.8	282.59	0.00011331	0.00011816	306.14	89.907	101.15	23.136	0.00011534	25.883	134.390	209.433	240.950	-103.781	-76.492	-97.709	-104.971	-99.239	-37.606	98.346	-100.649	-97.652	-95.410	-90.098	-17.012	-93.022	-8191	255	
21735.771	1	1	0	0	0.30588	0.25897	0.12586	0.07077	0.18863	0.1391	0.12246	0.1919	0.15136	0.033054	0.31356	0.21375	0.11608	0.054999	0.12066	0.061966	-2.6562	-1.7771	-2.2562	-2.525	-1.9042	-2.6333	-2.3896	-2.1479	-2.6521	-2.0583	-2.4021	-2.5875	-1.9771	-2.7521	-2.3563	-1.9667	178.997	66.779	205.654	212.809	217.668	238.993	169.974	171.286	195.843	-105.183	238.995	164.085	68.491	1.696	-99.728	-104.621	0.00049194	0.0016966	0.00042469	1015.5	1.2572e-05	1.8036e-05	922	250.77	1.045e-05	8.8135e-06	255.81	71.634	74.103	16.782	8.8817e-06	17.076	0.0092848	0.010751	0.0030335	1201.8	0.00011807	0.00012012	1012.4	283.47	0.00011604	0.00012183	308.17	90.672	101.8	23.321	0.0001206	26.317	173.932	147.268	63.034	-104.271	180.363	16.067	-104.735	-99.380	-103.561	54.572	-101.039	-97.501	-96.040	-90.667	2.455	-93.244	-8191	255	
21735.867	1	1	0	0	0.056387	0.32071	0.21123	0.11324	0.13684	0.034785	0.28377	0.18035	0.080247	0.18624	0.24504	0.095836	0.22542	0.45542	0.12653	0.12035	-2.5187	-2.0792	-2.0958	-2.8708	-1.8354	-2.4938	-2.6208	-2.2292	-2.8312	-2.1417	-2.4354	-2.6354	-1.9021	-2.4688	-2.35	-2.0875	83.189	206.598	-10.944	-37.564	103.381	189.613	-116.961	68.406	-66.970	223.821	184.469	-104.410	-77.879	240.328	202.985	36.950	0.0003685	0.00029137	0.00069815	1011.7	4.7605e-06	1.0034e-05	917.58	247.74	8.7038e-06	2.5281e-05	251.83	71.137	73.865	16.834	3.5665e-06	16.882	0.0096995	0.011308	0.003202	1209.9	0.00012545	0.00012792	1016.6	283.66	0.00012577	0.00013158	311.15	91.648	103.45	23.923	0.00013228	27.074	124.719	-41.625	-33.834	-104.133	6.830	119.049	-104.847	-99.358	14.069	66.606	-100.401	-97.300	-95.408	-90.187	-47.473	-93.151	-8191	255	
21735.988	1	1	0	0	0.1645	0.11546	0.13536	0.088782	0.26031	0.23656	0.088792	0.58721	0.086003	0.12792	0.17452	0.12546	0.11217	0.12873	0.11638	0.19466	-2.2708	-2.1083	-2.25	-2.8312	-2.1146	-2.45	-2.6937	-2.2167	-2.7771	-2.4042	-2.1521	-2.7167	-2.1333	-2.5521	-2.6333	-1.9479	226.294	-17.024	87.488	192.296	-36.396	-92.459	160.266	213.932	40.022	159.167	197.465	60.059	-41.360	-53.083	192.027	-39.001	0.00051861	0.0012097	0.000198	1012.2	6.1565e-06	9.0217e-06	914.44	249.69	2.7779e-05	1.7574e-05	252.97	70.986	72.833	16.624	1.1459e-05	17.167	0.010577	0.01229	0.0034696	1221.9	0.00013277	0.00013449	1021.5	284.94	0.0001294	0.00013443	312.36	91.899	103.5	23.988	0.00013434	27.089	214.599	-93.778	50.169	-104.198	35.826	-100.618	-104.721	-99.012	23.382	89.685	-100.650	-97.583	-95.476	-90.214	-63.799	-92.511	-8191	255	
21736.084	1	1	0	0	0.090032	0.065251	0.052809	0.22624	0.10308	0.14435	0.1876	0.1318	0.30848	0.12383	0.09409	0.19593	0.1177	0.31161	0.12858	0.29669	-2.1562	-2.3375	-2.1042	-3.0125	-1.9917	-2.3458	-2.8187	-2.0875	-2.6042	-2.3458	-1.9792	-2.7396	-2.1479	-2.2417	-2.6312	-1.9417	242.350	-109.716	48.207	178.942	77.006	36.452	216.319	-30.717	128.677	-23.686	171.235	206.654	-39.957	-51.341	37.671	-83.642	0.00066696	0.0010376	0.00059797	1007	1.0522e-05	9.7022e-06	915.62	247.51	1.1754e-05	4.0625e-06	252.76	70.91	72.713	16.625	7.7971e-06	16.879	0.010559	0.012277	0.0034653	1219.9	0.000132	0.00013564	1022.5	283.63	0.00012886	0.0001348	311.66	91.519	102.92	23.926	0.00013169	26.933	220.181	28.656	-78.980	-103.914	165.961	151.192	-104.864	-99.438	-111.011	137.997	-101.046	-97.469	-95.451	-90.124	59.444	-92.570	-8191	255	
21736.178	1	1	0	0	0.36578	0.024596	0.28457	0.13075	0.089369	0.20087	0.071017	0.35216	0.39542	0.24607	0.15926	0.012047	0.14486	0.1314	0.18411	0.024845	-1.9417	-2.4917	-1.8542	-2.75	-2.0604	-2.3125	-2.7229	-2.1979	-2.6125	-2.4417	-2.0396	-2.6562	-2.225	-2.2833	-2.6542	-1.9833	-75.294	56.230	3.890	148.471	190.066	156.573	109.509	218.315	-110.348	-3.834	184.022	9.765	221.918	218.475	132.327	214.526	0.00024378	0.00044301	0.0004586	1011.6	8.1504e-06	3.6148e-06	918.38	246.33	1.0338e-05	2.3739e-05	251.07	70.517	71.997	16.837	2.2147e-05	17.152	0.01041	0.012186	0.0034142	1215.6	0.00013129	0.00013433	1019.9	282.54	0.00012648	0.00013253	308.93	90.643	101.98	23.714	0.00012726	26.636	-94.462	104.545	202.787	-103.930	-103.272	11.492	-104.631	-99.174	47.665	93.335	-100.828	-97.428	-95.394	-90.149	84.610	-92.837	-8191	255	
21736.273	1	1	0	0	0.26945	0.2745	0.27552	0.20533	0.12473	0.2269	0.088532	0.092919	0.13495	0.056054	0.31721	0.20803	0.066298	0.38529	0.026668	0.19538	-1.9542	-2.5	-1.9229	-2.6583	-2.2396	-2.0396	-2.8563	-2.0917	-2.2667	-2.6604	-2.0583	-2.8021	-2.2521	-1.9229	-2.7021	-2.1437	192.417	115.266	100.884	213.426	94.689	78.034	234.417	168.908	237.527	151.049	169.564	130.761	-5.315	23.357	-67.397	200.007	0.00026007	0.00043467	0.00047143	1010	1.5035e-06	2.3899e-05	913.6	247.36	1.708e-05	1.2237e-05	253.05	71.128	72.481	16.912	6.7543e-06	17.029	0.010064	0.011866	0.0033171	1210.4	0.00012822	0.00013225	1019.2	282.95	0.00012528	0.00013195	309.62	90.905	102.09	23.713	0.00012513	26.47	156.044	217.108	-48.206	-103.941	-62.998	112.329	-104.751	-99.183	-48.217	97.507	-101.191	-97.309	-95.524	-90.129	-32.170	-92.968	-8191	255	
21736.371	1	1	0	0	0.18775	0.18303	0.25278	0.14595	0.084276	0.1209	0.15987	0.30226	0.25667	0.04544	0.25608	0.090069	0.11218	0.13022	0.138	0.25281	-1.8333	-2.8563	-2.0625	-2.6437	-2.3667	-1.9417	-2.9042	-2.1917	-2.3438	-2.7354	-2.0979	-2.55	-2.3458	-2.0854	-2.7021	-2.3083	120.892	145.447	27.138	186.243	62.131	203.659	-19.510	240.181	13.975	-27.108	-70.634	114.572	-104.847	3.970	213.295	138.762	0.00048281	0.00092226	0.00014944	1017.6	9.1664e-06	1.577e-05	918.77	248.53	7.2399e-06	6.6458e-06	253.4	71.578	73.62	16.798	4.9816e-06	17.045	0.010001	0.011677	0.0032434	1209.5	0.00012522	0.00012863	1018.4	282.52	0.00012216	0.0001282	309.44	90.726	101.93	23.589	0.00012242	26.362	176.430	195.294	144.576	-103.469	-10.965	29.565	-104.708	-99.140	-73.962	217.160	-101.200	-96.808	-95.749	-90.692	-80.447	-93.056	-8191	255	
21736.467	1	1	0	0	0.20615	0.15649	0.15469	0.25461	0.10307	0.2864	0.12516	0.38162	0.18158	0.30549	0.12223	0.19712	0.14633	0.15836	0.059	0.37067	-1.6792	-2.8042	-1.9104	-2.6542	-2.4313	-1.9208	-2.825	-2.2479	-2.0333	-2.6896	-1.9542	-2.5812	-2.4917	-1.9229	-2.6646	-2.3146	-65.458	135.977	-76.954	-54.170	-65.704	124.064	-89.874	159.435	115.941	202.669	-74.718	176.166	205.658	223.642	157.214	225.640	0.00044295	0.0003335	5.6696e-05	1018.4	1.0717e-05	5.4867e-06	931.51	249.07	9.7423e-06	1.1545e-05	254.77	71.464	74.674	16.866	3.2983e-06	17.241	0.0097878	0.011432	0.0031603	1205.1	0.00012072	0.00012225	1019.5	281.38	0.00011637	0.00012081	307.25	90.138	101.19	23.344	0.00011653	26.159	156.952	157.843	206.857	-104.354	-86.949	135.965	-104.868	-99.425	222.475	60.361	-100.805	-97.735	-95.988	-90.155	-109.019	-93.292	-8191	255	
21736.562	1	1	0	0	0.058762	0.18893	0.1034	0.052206	0.2082	0.25491	0.021117	0.10403	0.19477	0.17104	0.086954	0.37913	0.10293	0.22999	0.084294	0.11271	-1.7208	-2.575	-1.9333	-2.3542	-2.7479	-1.9646	-2.9146	-2.4083	-1.7854	-2.5333	-2.0917	-2.2604	-2.5292	-1.9896	-2.6146	-2.5542	-61.760	171.771	-97.315	-96.941	-56.616	92.784	123.331	-83.149	208.856	68.448	83.687	132.487	234.809	205.347	-5.371	76.464	0.00026755	0.00085229	9.0325e-05	1024.2	1.1391e-05	1.4857e-05	931.81	251.31	8.511e-06	1.1795e-05	256.67	71.824	74.127	16.997	1.2078e-05	17.322	0.0093683	0.010792	0.0030129	1200.3	0.00011657	0.00011785	1015.8	281.96	0.00011125	0.00011615	304.71	89.422	100.05	23.061	0.00011224	25.831	134.893	-60.824	19.504	-104.051	11.082	10.569	-104.843	-99.564	160.681	1.710	-101.459	-97.549	-96.117	-90.442	21.735	-93.566	-8191	255	
21736.684	1	1	0	0	0.26942	0.094478	0.073839	0.09848	0.29817	0.22674	0.51447	0.23969	0.13517	0.080144	0.11336	0.14664	0.14954	0.15763	0.20449	0.32708	-1.7021	-2.6833	-2.1437	-2.025	-2.6917	-1.8854	-2.6021	-2.4875	-1.7938	-2.7292	-2.1354	-2.2313	-2.6667	-1.8104	-2.5208	-2.5708	30.188	157.174	154.085	-69.027	20.643	-12.084	195.607	172.111	136.291	210.881	191.268	193.116	221.069	-82.444	-89.092	168.435	0.00014839	0.00087589	0.00020421	1025.9	7.4637e-06	9.9286e-06	926.23	250.84	2.2895e-05	1.9107e-05	255.08	72.183	72.924	16.83	1.1819e-05	17.237	0.0090443	0.010442	0.0029419	1200.1	0.00011496	0.00011558	1015.8	281.78	0.00011325	0.00011676	305.6	89.736	99.877	23.165	0.00011524	26.091	147.062	-107.860	33.925	-103.977	104.803	-46.638	-104.811	-99.385	33.372	-22.862	-101.485	-97.376	-95.567	-90.270	154.962	-93.380	-8191	255	
21736.779	1	1	0	0	0.1771	0.26894	0.093898	0.18202	0.088017	0.12319	0.21358	0.18832	0.16432	0.094559	0.14091	0.0632	0.057321	0.14859	0.088805	0.20613	-1.4458	-2.7542	-2.1708	-2.2542	-2.7229	-2.1458	-2.4833	-2.6208	-1.9438	-2.8979	-2.2229	-2.0646	-2.8104	-2.1542	-2.4396	-2.7917	-43.103	42.966	186.897	128.310	107.864	189.563	-98.776	205.191	-46.441	55.971	201.544	182.567	96.063	186.342	171.060	118.259	6.9118e-05	0.00074441	0.00020832	1019	1.1952e-05	5.6957e-06	924.59	249.06	1.8579e-05	1.2744e-05	254.41	71.55	73.709	16.941	3.9935e-06	17.229	0.0092686	0.010755	0.0030264	1203.8	0.00011706	0.00011895	1017.4	282.11	0.00011495	0.00011945	307.01	89.989	100.46	23.292	0.00011736	26.072	186.425	-24.110	217.446	-103.884	67.026	61.842	-104.967	-99.146	128.549	140.845	-101.129	-97.303	-95.325	-90.223	-76.210	-92.939	-8191	255	
21736.877	1	1	0	0	0.26663	0.098556	0.075771	0.15335	0.15939	0.033308	0.075316	0.14319	0.039039	0.27899	0.15967	0.16905	0.13417	0.10352	0.12098	0.071325	-1.6667	-2.5792	-2.3	-2.1333	-2.4979	-2.1125	-2.5125	-2.825	-2.1354	-2.7875	-2.2938	-2.0833	-2.6688	-2.0042	-2.2292	-2.7042	22.157	112.764	198.420	98.971	4.158	83.314	102.411	204.095	171.839	182.432	-95.022	-100.612	214.213	211.628	86.444	28.131	0.00042392	0.0028429	8.6265e-05	1020	1.1846e-05	3.4717e-06	927.72	250.58	1.6943e-05	1.7227e-05	254.76	71.868	73.914	16.915	5.1696e-06	17.214	0.0094212	0.010918	0.0030861	1205.4	0.00011905	0.00012037	1018.6	281.79	0.00011617	0.00012054	306.41	90.193	100.67	23.302	0.00011686	26.042	102.480	-27.697	155.177	-103.685	-88.062	56.800	-104.857	-99.448	-76.386	196.220	-101.403	-97.442	-95.694	-90.074	-63.837	-93.077	-8191	255	
21736.947	1	1	0	0	0.12605	0.22472	0.096863	0.091775	0.16333	0.082715	0.44738	0.11573	0.066146	0.16231	0.080675	0.25429	0.040153	0.18691	0.08275	0.18684	-1.4771	-2.7667	-2.3937	-2.1604	-2.7562	-2.1708	-2.2875	-2.8396	-2.0854	-2.6021	-2.5563	-1.8854	-2.8583	-2.2271	-1.9208	-2.7792	-97.010	126.639	143.710	-34.171	138.572	-15.715	234.917	242.029	79.617	168.899	99.772	17.332	142.052	172.927	76.491	-80.200	0.00046802	0.0014486	0.00024438	1018.3	1.0805e-05	1.5088e-05	926.37	249.19	1.2639e-05	5.6032e-06	254.61	71.133	74.328	16.951	1.1581e-05	17.104	0.0092014	0.010725	0.0030251	1201.4	0.00011711	0.00011914	1015.8	281.46	0.00011435	0.00011912	305.99	89.692	99.927	23.22	0.00011642	25.893	125.086	-10.849	-55.918	-104.148	-67.348	2.407	-104.908	-99.365	-90.815	50.504	-100.951	-97.542	-95.370	-90.444	88.893	-93.333	-8191	255	
21737.066	1	1	0	0	0.11104	0.29012	0.092049	0.10832	0.15038	0.10731	0.42233	0.11706	0.15819	0.13165	0.064085	0.32743	0.13513	0.3238	0.21291	0.22385	-1.4958	-2.5	-2.5	-1.9333	-2.6396	-2.1646	-2.3083	-2.9083	-1.9167	-2.5375	-2.4375	-1.9562	-2.6	-2.3688	-1.9229	-2.9542	183.385	191.307	-24.922	-74.583	32.625	114.516	105.976	187.672	-70.494	40.968	33.899	205.651	-27.259	180.285	-83.046	73.886	0.00041847	0.00057627	0.00050437	1028.1	2.7652e-06	8.4361e-06	921.54	249.4	1.3822e-05	2.1237e-05	252.65	71.533	73.174	16.849	2.1176e-05	17.056	0.0091902	0.010681	0.0030117	1200.3	0.00011556	0.00011757	1012.1	280.67	0.00011215	0.00011886	304.71	89.354	99.883	23.196	0.00011575	25.787	131.481	127.217	-6.283	-103.836	-75.072	61.489	-105.108	-99.284	8.627	43.173	-100.652	-97.564	-95.661	-90.326	-17.075	-93.425	-8191	255	
21737.162	1	1	0	0	0.34151	0.058017	0.14755	0.22902	0.20744	0.085925	0.19457	0.11577	0.064789	0.24324	0.10818	0.23538	0.063122	0.10126	0.18542	0.024386	-1.6938	-2.4167	-2.5375	-1.9667	-2.6229	-2.4167	-2.1188	-2.9021	-2.0729	-2.2083	-2.8833	-1.8875	-2.5354	-2.4729	-1.9312	-2.6958	93.049	35.959	221.781	193.197	-30.091	46.440	152.657	221.528	-13.913	103.758	149.432	-43.603	35.642	-103.973	14.886	40.758	0.00035292	0.001453	9.5602e-05	1020.4	9.5263e-06	7.3102e-06	923.14	249.24	1.322e-05	8.8895e-06	253.84	71.328	73.47	16.905	4.1093e-06	17.146	0.0090992	0.010716	0.0029962	1195.6	0.00011375	0.00011753	1010.8	280.1	0.00011178	0.00011763	304.59	89.019	100.07	23.153	0.00011571	25.862	175.977	44.873	-84.527	-103.646	54.385	203.985	-104.818	-99.306	-65.285	17.584	-101.255	-97.407	-95.727	-90.535	115.490	-93.040	-8191	255	
21737.260	1	1	0	0	0.23713	0.10113	0.25684	0.092257	0.016364	0.18265	0.27843	0.15308	0.47556	0.17522	0.16575	0.17411	0.28834	0.092351	0.14632	0.15094	-1.75	-2.2354	-2.775	-2.1604	-2.3979	-2.5167	-2.1604	-2.7333	-2.3417	-2.2438	-2.8729	-2.0854	-2.4396	-2.4437	-1.9312	-2.7167	55.956	110.724	-75.980	-67.097	107.784	106.825	156.859	134.669	108.497	-37.616	-94.628	180.271	231.634	-76.979	-86.810	175.963	0.00028132	0.00040129	7.0461e-05	1021.5	1.0589e-05	1.0458e-05	917.93	249.78	5.0506e-06	1.7719e-05	252.62	70.851	73.441	16.807	7.9026e-06	17.13	0.009213	0.010825	0.0030467	1199.7	0.00011743	0.00012028	1009.9	280.77	0.00011453	0.00012061	305.11	89.224	100.02	23.294	0.00011817	25.891	179.651	-87.625	5.742	-103.790	5.295	-96.411	-105.267	-99.312	168.706	26.591	-101.327	-97.559	-95.320	-90.121	-107.879	-92.308	-8191	255	
21737.355	1	1	0	0	0.086914	0.086167	0.090491	0.47022	0.07081	0.20704	0.21561	0.17008	0.15214	0.1151	0.08291	0.18109	0.13554	0.29696	0.2965	0.19817	-1.7375	-2.0583	-2.6937	-1.9729	-2.3021	-2.5292	-2.0833	-2.6833	-2.4167	-1.9542	-2.925	-2.2229	-2.3187	-2.5563	-1.9146	-2.5646	20.105	-59.058	66.110	168.921	76.895	114.583	-81.401	-69.615	144.795	74.718	-28.772	63.633	190.105	-114.072	-47.758	-42.111	0.00025565	0.0016805	0.00051521	1020.3	9.3497e-06	6.9908e-06	922.97	248.57	1.2212e-05	1.0604e-05	253.64	71.063	73.852	16.86	1.5686e-05	16.991	0.0093537	0.010902	0.0030331	1193.6	0.00011803	0.00011918	1009	279.7	0.00011481	0.00012049	305.79	89.141	100.85	23.286	0.00011971	26.073	173.712	79.246	-37.505	-103.733	39.208	236.519	-104.928	-99.195	32.065	83.601	-100.643	-97.761	-95.693	-90.464	65.978	-93.142	-8191	255	
21737.475	1	1	0	0	0.08574	0.086437	0.11253	0.12059	0.09944	0.19942	0.28569	0.15728	0.43656	0.057586	0.088935	0.25099	0.11625	0.36991	0.18545	0.2699	-2.0062	-1.9833	-2.7062	-2.3167	-2.1437	-2.7333	-2.1729	-2.7021	-2.3458	-2.05	-2.8688	-2.0958	-2.1167	-2.9062	-1.8479	-2.4854	22.668	194.954	22.066	199.022	-42.789	168.261	184.179	-109.543	97.692	226.781	-109.122	242.312	228.753	217.705	73.608	212.090	0.00019998	0.00076783	0.00019353	1003.3	1.1484e-05	7.9344e-06	909.63	248.32	1.5421e-05	9.0056e-06	252.17	69.913	72.904	16.736	9.8897e-06	16.795	0.0096582	0.011244	0.0031068	1193.3	0.00012087	0.00012197	1004.6	279.78	0.00011687	0.00012221	304.15	88.952	100.44	23.335	0.00011968	26.036	129.607	-53.618	2.386	-103.958	-36.111	-7.344	-104.800	-99.558	158.525	-82.390	-100.900	-97.434	-95.500	-90.555	-75.270	-92.859	-8191	255	
21737.572	1	1	0	0	0.048738	0.16177	0.26564	0.21591	0.09539	0.2085	0.15742	0.24767	0.21063	0.15563	0.10952	0.16369	0.15194	0.206	0.10276	0.12337	-2.0479	-1.9917	-2.6771	-2.2229	-2.2333	-2.6937	-2.0646	-2.7333	-2.4521	-2.1063	-2.7542	-2.3625	-2.0646	-2.8167	-2.0333	-2.4083	31.551	212.148	38.621	180.952	73.459	165.715	198.505	191.810	183.080	-69.635	68.691	-24.537	-50.407	155.818	195.672	168.630	0.00020738	7.8574e-05	0.00032462	1006.8	1.5514e-05	2.1952e-05	911.29	247.66	1.721e-05	9.1261e-06	250.51	70.368	73.198	16.989	1.4582e-06	17.16	0.009707	0.011257	0.003113	1195.7	0.00012141	0.0001212	1001.5	278.84	0.00011547	0.00011873	302.19	88.49	99.039	23.017	0.00011233	25.576	18.119	-27.611	129.166	-104.059	-41.379	-51.192	-104.832	-98.956	7.678	73.313	-100.980	-97.052	-95.167	-90.740	-26.600	-92.776	-8191	255	
21737.668	1	1	0	0	0.23573	0.19078	0.26091	0.19599	0.097485	0.172	0.15883	0.15288	0.12637	0.26453	0.1679	0.2922	0.081789	0.095992	0.24281	0.073312	-2.3208	-1.8396	-2.5438	-2.3229	-2.0104	-2.7396	-2.2	-2.2562	-2.7188	-1.7958	-2.6813	-2.4458	-1.9271	-2.6646	-2.1083	-2.4208	202.121	-102.761	159.360	14.597	-37.092	92.209	64.427	-88.521	-44.849	223.686	56.407	155.243	18.797	216.770	-1.575	-44.241	0.00023151	0.00061171	2.2339e-05	1004	8.1796e-06	1.1888e-05	917.73	250.71	1.6575e-05	1.4141e-05	252.23	71.369	73.155	16.65	7.3316e-06	17.235	0.0089583	0.010464	0.0029093	1183.7	0.00011357	0.00011554	1001.8	280.02	0.00011087	0.00011474	303.03	88.938	99.366	22.928	0.00011296	25.708	131.400	-59.672	-31.390	-103.904	139.965	163.137	-104.946	-99.388	176.024	126.924	-100.979	-97.566	-96.055	-90.162	-14.561	-92.773	-8191	255	
21737.764	1	1	0	0	0.19031	0.12777	0.075691	0.10015	0.38508	0.054706	0.18559	0.26356	0.39867	0.097508	0.12925	0.13054	0.1671	0.18423	0.2867	0.17541	-2.3708	-2.0062	-2.6979	-2.3021	-1.9917	-3.0458	-2.225	-2.3542	-2.75	-1.9062	-2.5938	-2.5708	-2.1167	-2.7042	-2.3083	-2.2042	179.792	190.207	-14.029	-2.297	-115.481	-20.131	0.438	110.115	141.701	162.400	110.920	20.476	72.347	188.663	87.132	-79.513	0.00011104	0.00055096	0.00016508	1011.1	1.3904e-05	9.979e-06	916.35	250.95	3.6437e-06	5.6782e-06	253.67	71.762	73.406	16.948	5.5663e-06	17.171	0.0090644	0.01047	0.0029374	1187.4	0.00011312	0.00011386	1003.8	279.4	0.00010865	0.00011342	302.95	88.887	99.481	22.979	0.00011285	25.759	190.944	-39.364	105.716	-103.815	64.737	-77.318	-104.868	-99.529	172.898	21.340	-100.880	-97.816	-95.422	-90.132	106.165	-92.624	-8191	255	
21737.859	1	1	0	0	0.18656	0.18178	0.21115	0.1701	0.18987	0.1512	0.14476	0.26714	0.24779	0.14596	0.060135	0.17599	0.32138	0.24322	0.047009	0.17832	-2.2479	-1.9396	-2.5167	-2.8125	-1.9062	-2.8312	-2.3167	-2.2354	-2.8083	-2.0125	-2.5271	-2.7708	-1.8646	-2.6021	-2.1562	-2.0083	200.499	-107.575	-59.588	62.929	165.025	-55.243	159.951	144.668	132.472	-4.571	-109.251	239.881	134.689	205.290	238.082	59.824	0.00057383	0.0010505	0.00035494	1013.8	5.1137e-06	6.9307e-06	915.79	247.6	1.877e-05	6.9815e-06	252.64	70.969	73.621	16.768	9.8284e-06	17.131	0.0090269	0.010456	0.002919	1186.6	0.000112	0.00011461	1000.9	279.56	0.0001096	0.00011406	302.26	88.517	99.064	22.866	0.00011195	25.486	94.945	114.108	-67.435	-104.052	87.241	110.936	-104.634	-99.229	161.153	120.467	-101.138	-97.510	-95.651	-90.740	117.759	-92.489	-8191	255	
21737.955	1	1	0	0	0.30083	0.15305	0.35001	0.447	0.25695	0.06115	0.20539	0.18433	0.11484	0.11758	0.023757	0.12404	0.11667	0.22287	0.043845	0.051512	-2.4354	-2.0583	-2.225	-2.7958	-1.9333	-2.6896	-2.5375	-2.0187	-2.6771	-2.0687	-2.2479	-2.7354	-1.9208	-2.4729	-2.5104	-1.8292	180.830	113.103	69.056	160.263	60.277	-74.331	156.491	-109.184	18.464	68.431	49.110	-29.487	5.418	-97.392	-61.681	-12.644	0.0002567	0.0015595	0.00055028	1009.7	3.2557e-06	1.1132e-05	917.09	248.44	1.7912e-05	7.1313e-06	252.38	71.081	73.272	16.973	1.2302e-05	17.211	0.0088522	0.010268	0.0029008	1182.3	0.00011165	0.00011397	1001.6	279.27	0.00011049	0.00011536	303.27	88.798	99.549	22.983	0.00011317	25.632	66.332	-5.007	-105.380	-103.721	108.045	216.443	-104.701	-99.009	87.140	-95.397	-100.643	-97.418	-95.514	-89.690	184.284	-92.817	-8191	255	
21738.074	1	1	0	0	0.13717	0.0054576	0.18346	0.085202	0.14474	0.072688	0.24603	0.45541	0.16097	0.29017	0.24801	0.037829	0.18126	0.3221	0.035739	0.04691	-2.4437	-2.1771	-2.1	-2.8	-2.0333	-2.6417	-2.6896	-1.9292	-2.7083	-2.2625	-2.2875	-2.8271	-2.0042	-2.4792	-2.6333	-2.0042	122.006	-100.124	125.104	197.583	168.327	-30.600	214.889	173.606	98.803	157.103	219.426	139.471	111.191	69.467	-59.231	-47.022	0.00020835	0.0018077	0.00017565	1012.1	1.7581e-05	1.5249e-06	915.88	250.02	8.3472e-06	9.0253e-06	255.33	70.802	73.48	16.951	1.4678e-05	17.093	0.0089454	0.010425	0.0029401	1187.6	0.00011257	0.00011543	1001.5	279.59	0.00010964	0.00011476	304.01	88.788	99.522	23.029	0.00011506	25.803	-20.165	-17.301	60.994	-103.545	57.665	170.534	-104.756	-99.024	68.298	-85.436	-100.880	-97.235	-94.899	-90.320	-43.453	-93.115	-8191	255	
21738.172	1	1	0	0	0.18975	0.21883	0.12807	0.062076	0.046596	0.11376	0.20283	0.19763	0.20861	0.090856	0.11844	0.29307	0.1977	0.070409	0.30786	0.16665	-2.2812	-2.2292	-2.0292	-2.8042	-1.9667	-2.3021	-2.8771	-1.9937	-2.6437	-2.35	-2.0896	-2.8833	-2.1229	-2.2271	-2.6417	-1.9062	126.402	83.056	89.883	201.038	224.546	-111.995	181.068	164.598	-85.211	-54.459	146.919	189.020	200.922	-3.395	-24.671	201.339	0.00015245	0.0010181	9.0335e-05	1007.2	9.2094e-06	2.1329e-05	913.67	246.73	1.7301e-05	8.3985e-06	251.37	70.796	72.797	16.991	2.1202e-05	16.793	0.009242	0.010941	0.0031051	1196	0.00012005	0.00012413	1008.9	280.45	0.00012029	0.00012676	307.03	89.902	101.87	23.579	0.00012494	26.396	50.243	43.389	231.334	-104.015	85.081	-24.239	-104.987	-98.952	-103.401	-52.730	-101.009	-96.942	-95.350	-90.057	44.355	-93.233	-8191	255	
21738.242	1	1	0	0	0.26501	0.12686	0.14868	0.091848	0.071663	0.32462	0.19572	0.45103	0.043181	0.10868	0.12246	0.10546	0.29316	0.22294	0.16761	0.03187	-2.1104	-2.3542	-1.8542	-2.8333	-2.1521	-2.1688	-2.8333	-2.0021	-2.4917	-2.4479	-1.8312	-2.8042	-2.2729	-2.1792	-2.6708	-1.9438	9.344	30.043	-63.783	229.134	-65.094	160.407	231.494	201.627	-0.460	204.472	187.346	123.928	-6.794	219.302	134.309	82.144	0.00040699	0.00070843	0.00048656	1005.9	1.8166e-05	2.009e-05	902.76	244.8	2.4862e-06	1.2854e-05	249.38	70.029	71.677	16.569	1.4951e-05	16.742	0.010016	0.011812	0.0033384	1207.4	0.00013084	0.00013615	1009.9	281.71	0.00013256	0.00013822	309.56	91.082	103.34	23.977	0.00013421	26.995	10.706	-56.527	-101.726	-104.004	120.290	-58.002	-104.637	-99.362	22.332	64.306	-100.844	-97.183	-95.822	-89.720	190.978	-92.959	-8191	255	
21738.363	1	1	0	0	0.11754	0.29278	0.27281	0.14556	0.12318	0.14213	0.29495	0.45528	0.17042	0.12689	0.12311	0.12933	0.16984	0.18752	0.12531	0.15158	-1.9875	-2.4625	-2.0292	-2.7208	-2.1458	-2.1312	-3.0042	-1.9083	-2.2958	-2.5917	-2.0021	-2.6042	-2.3146	-2.1667	-2.7875	-2.0208	139.822	216.937	5.595	79.601	-19.585	-110.021	135.856	166.839	89.026	-74.991	145.859	212.200	-110.036	124.544	147.222	24.675	0.00011918	0.0010475	6.372e-05	995.44	7.8613e-06	1.5032e-05	896.93	243.36	2.3575e-05	1.2976e-06	247.54	69.583	71.668	16.476	2.4909e-05	16.67	0.010826	0.012631	0.0035229	1211.9	0.0001376	0.00014151	1009	282.2	0.00013566	0.00014223	310.26	91.429	104.02	23.976	0.00013614	27.058	145.088	234.326	9.752	-103.613	177.389	-1.311	-104.520	-99.317	81.153	168.449	-100.433	-97.142	-95.370	-89.803	7.798	-93.261	-8191	255	
21738.461	1	1	0	0	0.056053	0.12279	0.18555	0.25432	0.12147	0.092037	0.20123	0.45233	0.047443	0.11826	0.12577	0.14434	0.20029	0.065052	0.10829	0.038169	-1.8604	-2.5687	-1.8875	-2.8979	-2.3458	-1.9708	-2.9792	-2.1437	-2.3	-2.8063	-2.1271	-2.6083	-2.4333	-1.9292	-2.8354	-2.1167	104.900	241.861	42.497	179.120	22.671	150.749	136.389	-116.305	197.752	231.844	183.546	231.925	199.788	189.759	100.913	110.962	0.00018383	0.00058983	0.00030971	1000.1	1.3115e-05	8.3755e-06	906.1	246.2	1.3605e-05	1.3183e-05	252.5	71.737	74.06	16.658	2.4201e-05	17.247	0.010893	0.012604	0.0034966	1213.8	0.00013428	0.00013652	1011	282.69	0.00012937	0.00013357	310.12	91.475	103.48	23.811	0.00012948	27.025	52.159	135.159	188.858	-103.193	102.293	122.347	-104.529	-98.874	-47.903	47.395	-100.479	-96.668	-95.787	-90.054	-42.236	-93.015	-8191	255	
21738.557	1	1	0	0	0.14569	0.12834	0.22699	0.15502	0.19492	0.16934	0.28334	0.40105	0.22425	0.080261	0.30284	0.070257	0.18797	0.27711	0.043018	0.16965	-1.7792	-2.6625	-1.9958	-2.4771	-2.4458	-1.7938	-2.7958	-2.2062	-2.1167	-2.6708	-2.1167	-2.5521	-2.4479	-1.8708	-2.6813	-2.3833	125.936	188.062	-23.609	217.386	182.857	83.517	200.472	180.335	190.655	228.425	221.581	164.641	-13.438	-69.983	-76.960	-36.331	0.0005167	0.00081793	5.079e-05	1006.2	5.218e-06	9.9552e-06	911.38	248.2	5.5354e-06	1.2003e-05	253.32	72.549	74.133	16.816	1.1495e-05	17.385	0.010521	0.012234	0.0034405	1217.5	0.00013373	0.00013698	1019.7	286.24	0.00013051	0.00013482	313.43	92.503	104.37	23.864	0.00012942	27.093	166.756	140.510	-104.494	-103.534	-51.263	-45.924	-104.626	-99.049	24.336	72.773	-100.564	-96.939	-95.247	-90.037	115.132	-92.906	-8191	255	
21738.652	1	1	0	0	0.24822	0.14601	0.12893	0.042358	0.14307	0.23973	0.17935	0.14467	0.082295	0.284	0.311	0.15962	0.078682	0.15941	0.26466	0.065639	-1.6958	-2.5896	-1.9583	-2.5417	-2.6729	-1.8	-2.8417	-2.3104	-2.0208	-2.9938	-2.0958	-2.4688	-2.5833	-2.0333	-2.7125	-2.2542	38.751	157.566	-4.897	242.010	-6.789	64.148	175.968	118.792	-24.855	129.915	-72.146	-106.374	-102.106	140.982	-86.186	149.639	0.00034364	0.0012986	0.00024069	1011.5	4.9163e-06	3.1308e-06	921.34	249.64	9.8538e-06	1.2234e-05	253.9	71.83	73.935	16.945	1.3282e-05	17.079	0.010454	0.012012	0.0034222	1222.3	0.00013259	0.00013498	1022.5	286.79	0.00013058	0.00013493	313.86	92.726	104.52	24.025	0.00013187	27.147	172.884	-43.475	-49.238	-103.885	-56.858	54.616	-104.665	-99.192	221.321	160.965	-100.688	-97.423	-95.014	-90.113	118.984	-92.528	-8191	255	
21738.773	1	1	0	0	0.17586	0.2559	0.22081	0.15022	0.10227	0.064987	0.15274	0.17519	0.19169	0.15721	0.21015	0.33657	0.22049	0.23481	0.19899	0.13115	-1.7333	-2.7625	-1.9917	-2.3021	-2.7833	-2.0625	-2.8292	-2.6667	-2.1396	-2.7062	-2.3625	-2.1979	-2.7667	-1.8896	-2.5083	-2.6813	-107.325	237.737	155.216	-106.705	-58.189	236.724	-110.251	196.516	-36.769	180.512	186.478	164.835	-77.076	216.288	1.092	71.110	0.00033218	0.00073637	0.00039223	1015.1	2.8783e-06	5.4524e-06	917.19	248.49	1.183e-05	1.2822e-05	252.03	71.596	73.457	16.708	4.4826e-06	17.016	0.010604	0.012284	0.0034866	1222.9	0.00013433	0.00013662	1019.8	285.63	0.0001309	0.00013581	311.7	92.356	104.09	23.879	0.00013189	27.103	125.194	-114.167	-22.103	-103.483	95.742	191.519	-104.582	-99.092	197.700	184.978	-100.481	-96.598	-95.852	-90.240	-95.091	-92.408	-8191	255	
21738.867	1	1	0	0	0.079332	0.10615	0.18202	0.20956	0.18172	0.16984	0.12712	0.215	0.1827	0.094753	0.2424	0.091031	0.18204	0.17167	0.29471	0.21403	-1.4417	-2.65	-2.3271	-2.3458	-2.7292	-2.0979	-2.5771	-2.5792	-2.0604	-2.7958	-2.5521	-2.2104	-2.6354	-2.0292	-2.4146	-2.5938	-57.279	110.804	-2.166	217.561	225.801	204.964	80.261	240.401	43.223	225.675	99.438	2.969	217.974	-44.241	189.303	-63.324	0.00055279	0.0012453	0.00045506	1011.1	5.4507e-06	1.2948e-05	919.03	248.15	7.4085e-06	1.3275e-05	253.18	71.569	73.565	16.738	8.5591e-06	17.276	0.01051	0.012258	0.00344	1223.7	0.00013318	0.00013607	1021.3	285.29	0.00013101	0.00013488	312.76	92.447	103.92	23.973	0.00013228	27.133	194.522	157.808	-90.480	-103.437	-55.371	132.432	-104.424	-99.203	45.956	-0.996	-100.626	-97.127	-95.773	-90.040	32.309	-92.849	-8191	255	
21738.939	1	1	0	0	0.18357	0.035168	0.21242	0.10764	0.2241	0.12633	0.21292	0.14732	0.22761	0.27844	0.068435	0.21492	0.19005	0.15737	0.3032	0.089191	-1.5375	-2.7229	-2.3229	-2.1396	-2.75	-1.8354	-2.325	-2.2771	-1.9271	-2.7604	-2.2667	-2.025	-2.8292	-2.0563	-2.1896	-2.5729	-43.425	111.913	118.882	-11.805	57.723	106.074	147.531	241.798	52.203	-35.903	145.184	187.698	-34.403	-75.338	96.881	129.590	0.0002709	0.0012004	0.0005786	1011.8	1.6256e-06	1.2822e-05	921.43	250.49	4.2198e-06	2.9888e-06	254.32	71.82	74.432	16.891	1.5824e-05	17.426	0.010393	0.01213	0.0034266	1220.5	0.00013194	0.00013408	1023.1	286.6	0.00012855	0.0001344	314.31	92.577	104.3	24.054	0.00013092	27.207	162.035	-30.156	92.995	-103.243	-48.596	22.965	-104.344	-98.760	209.534	-47.578	-100.199	-97.327	-94.958	-90.147	144.569	-92.530	-8191	255	
21739.037	1	1	0	0	0.24464	0.24524	0.090281	0.29179	0.27141	0.14895	0.11513	0.22512	0.10447	0.18432	0.11041	0.23804	0.18344	0.17284	0.075618	0.17693	-1.3542	-2.6354	-2.3729	-1.9167	-2.625	-2.1875	-2.3542	-2.775	-2.0708	-2.5458	-2.6479	-2.05	-2.7042	-2.2208	-2.225	-2.7562	-12.347	-74.543	154.246	-61.325	171.717	208.013	-22.901	219.345	-6.410	-28.268	50.347	-99.600	78.582	85.860	26.830	183.312	0.00014462	0.0007526	0.00062273	1011.1	4.7745e-06	1.0229e-05	921.92	252.36	1.5481e-05	5.6779e-06	256.46	72.56	74.449	17.096	6.7986e-06	17.507	0.010344	0.012162	0.0033913	1220.2	0.00013064	0.000134	1025.1	287.37	0.00012755	0.00013353	314.35	92.455	104.06	23.959	0.00012805	26.956	-110.161	50.313	-22.283	-103.226	63.790	143.640	-104.455	-98.896	169.929	118.228	-100.372	-97.121	-95.083	-89.527	19.268	-93.202	-8191	255	
21739.156	1	1	0	0	0.21222	0.12859	0.29281	0.29973	0.094818	0.18929	0.48761	0.13382	0.1491	0.038528	0.10209	0.10359	0.26377	0.20405	0.090875	0.11632	-1.6104	-2.5979	-2.475	-1.9562	-2.5312	-2.0875	-2.2646	-2.8583	-1.8875	-2.4583	-2.7438	-2.1521	-2.7438	-2.5354	-2.1813	-2.8667	30.288	210.400	16.411	237.226	235.640	18.086	207.781	203.508	-106.094	-50.866	120.624	175.127	138.868	230.915	61.416	215.716	0.00041026	0.0016669	0.00055458	1012.4	1.9664e-05	2.639e-05	930.26	253.28	5.9741e-06	8.4453e-06	258.26	73.031	75.139	17.268	9.7843e-06	17.397	0.010023	0.011712	0.0032612	1211.7	0.00012403	0.00012597	1022.8	285.76	0.00011938	0.00012483	310.93	91.804	102.99	23.637	0.00012146	26.455	199.544	20.480	165.303	-103.407	-111.115	64.731	-104.055	-99.102	94.739	-9.322	-100.364	-97.245	-95.513	-90.005	-78.305	-92.770	-8191	255	
21739.252	1	1	0	0	0.15381	0.13079	0.22634	0.14764	0.10286	0.1585	0.019164	0.15589	0.23215	0.11302	0.24444	0.37512	0.060014	0.1875	0.21106	0.1515	-1.8083	-2.3583	-2.5771	-1.9208	-2.7125	-2.3812	-2.0917	-2.8312	-1.9458	-2.4146	-2.7708	-1.9667	-2.8	-2.5146	-1.8438	-2.8896	203.032	-99.628	176.960	241.156	176.034	45.197	-53.940	75.895	14.960	-24.774	225.587	171.863	165.829	-61.426	145.564	-9.833	0.00016247	0.00084634	0.00022191	1014.9	1.3558e-05	1.2952e-05	923.75	252.86	1.6811e-05	1.5135e-05	259.67	73.136	75.172	17.097	5.6567e-06	17.42	0.0095843	0.011236	0.0031498	1210	0.00012072	0.00012399	1016.6	285.88	0.0001179	0.0001233	311.32	91.423	102.8	23.71	0.00012152	26.643	122.349	86.913	-72.720	-103.454	123.224	-36.334	-104.485	-98.968	102.891	57.503	-100.486	-96.906	-95.625	-90.200	205.621	-92.578	-8191	255	
21739.348	1	1	0	0	0.10061	0.05373	0.045776	0.19679	0.11001	0.12799	0.48862	0.1933	0.10585	0.10609	0.2393	0.073952	0.30649	0.083901	0.20382	0.22413	-1.7021	-2.0917	-2.8042	-2.0083	-2.6562	-2.5417	-2.2375	-2.7938	-2.1604	-2.1542	-2.9125	-2.0854	-2.525	-2.525	-1.9271	-2.5958	-25.532	193.854	-23.049	134.068	141.067	108.157	203.773	-112.671	156.460	-99.075	209.610	126.615	40.123	-82.354	-18.478	1.802	0.00019881	0.0012113	0.00030634	1014.6	8.5007e-06	2.0166e-05	924.43	254.89	1.5028e-05	8.5662e-06	254.67	72.223	73.755	17.003	2.534e-05	17.375	0.0097532	0.011389	0.0031817	1211	0.00012301	0.000125	1018.2	286.35	0.00012005	0.00012614	310.71	91.69	103.09	23.82	0.00012745	27.136	83.987	170.006	10.401	-103.334	195.122	-89.716	-104.325	-99.036	-97.050	-56.369	-100.627	-96.556	-95.052	-89.297	123.887	-92.140	-8191	255	
21739.469	1	1	0	0	0.1309	0.12232	0.077353	0.24463	0.3015	0.16207	0.22565	0.051399	0.28214	0.072185	0.25889	0.11491	0.15896	0.1834	0.071441	0.38164	-1.9396	-2.1604	-2.8083	-2.2438	-2.4042	-2.6104	-2.0438	-2.7458	-2.325	-1.9417	-2.9771	-2.2042	-2.1833	-2.775	-1.7979	-2.5812	-38.393	122.905	101.547	237.858	81.676	57.469	163.838	162.998	105.454	62.082	184.510	-91.023	177.123	-25.645	-103.845	238.193	0.00022421	0.00052985	0.00032917	1012.2	6.8117e-06	1.381e-05	924.76	249.38	1.9462e-05	2.1165e-05	252.83	70.944	73.164	16.861	2.3717e-05	17.315	0.010339	0.012032	0.0034068	1222	0.00013258	0.00013517	1024.5	285.65	0.00012879	0.00013485	312.33	91.728	103.5	23.995	0.00013077	27.219	1.001	202.972	197.448	-103.090	190.182	-96.381	-104.091	-98.458	40.659	81.308	-100.766	-97.107	-95.366	-90.153	-52.431	-92.755	-8191	255	
21739.539	1	1	0	0	0.31912	0.17607	0.23113	0.027752	0.26836	0.21319	0.19679	0.20642	0.34078	0.1452	0.14179	0.19651	0.032054	0.10726	0.23332	0.23693	-1.7437	-1.9604	-2.5646	-1.9646	-2.2167	-2.5875	-2.225	-2.7313	-2.5708	-1.875	-2.8583	-2.0479	-2.3083	-2.7646	-1.8271	-2.6271	237.226	55.823	206.250	137.508	103.828	-7.057	-41.799	195.376	145.037	241.525	17.583	136.725	201.207	158.213	-73.493	73.418	0.00023613	0.00018963	0.00025238	1005.5	1.2019e-05	1.0121e-05	915.68	248.26	3.1011e-06	2.816e-06	254.83	71.28	73.572	16.819	1.1947e-05	17.316	0.010503	0.01225	0.0034259	1219.4	0.00013318	0.000135	1019.7	284.3	0.00012761	0.00013212	310.47	91.045	102.5	23.635	0.00012508	26.57	209.638	-77.487	46.239	-103.685	-0.228	124.308	-104.245	-98.754	4.062	219.412	-100.780	-97.086	-95.465	-89.941	137.025	-92.740	-8191	255	
21739.637	1	1	0	0	0.13956	0.092518	0.178	0.069236	0.11099	0.078829	0.063626	0.12687	0.15546	0.14843	0.10311	0.26496	0.059661	0.17962	0.3185	0.23163	-2.0958	-1.7708	-2.7021	-2.1896	-2.0833	-2.8229	-2.1	-2.5854	-2.4083	-1.8958	-2.7438	-2.2708	-2.0563	-2.7875	-2.1042	-2.5563	180.440	-83.718	200.827	120.699	54.782	145.689	157.770	172.944	-22.680	187.044	223.545	51.506	68.858	135.556	18.741	-87.276	0.00041265	0.0014265	0.00041766	1014.2	2.5126e-06	7.3673e-06	923.48	249.81	5.9843e-06	1.4459e-05	255.1	72.407	74.306	16.989	1.1262e-05	17.409	0.0097888	0.011401	0.0031937	1206.2	0.00012345	0.00012572	1016.3	283.92	0.00011975	0.00012467	309.14	90.924	101.42	23.448	0.00011851	26.318	144.135	6.021	230.355	-103.510	234.573	222.195	-104.879	-99.137	-65.428	16.102	-101.043	-97.608	-95.273	-90.891	218.678	-93.115	-8191	255	
21739.758	1	1	0	0	0.15576	0.22386	0.18009	0.12828	0.31566	0.053967	0.25378	0.027989	0.17466	0.20533	0.23512	0.16862	0.25824	0.10635	0.27076	0.28106	-2.1604	-2.0021	-2.8208	-2.4	-2.0396	-2.6667	-2.1479	-2.5104	-2.4875	-1.9792	-2.7021	-2.4146	-2.0604	-2.6292	-2.1312	-2.3583	100.099	193.100	-116.305	-61.367	-48.787	-29.650	210.002	199.827	99.476	102.360	65.166	73.660	-7.486	101.183	131.944	199.860	0.00022581	0.00046231	0.00032081	1017.5	6.2635e-06	4.0467e-06	919.34	251.1	5.7004e-06	2.0171e-05	255.1	71.426	73.281	16.825	1.8386e-05	17.064	0.0094346	0.011057	0.0031168	1205.5	0.00012123	0.00012306	1015	283.94	0.00012016	0.00012514	309.76	90.871	102.46	23.757	0.00012631	26.73	148.257	94.094	-40.365	-103.950	10.382	39.197	-104.890	-99.304	21.021	150.582	-100.635	-97.269	-95.591	-90.655	46.972	-92.686	-8191	255	
21739.854	1	1	0	0	0.26479	0.095334	0.14748	0.10879	0.081988	0.034314	0.28886	0.089739	0.10586	0.36361	0.18194	0.07873	0.073034	0.13299	0.14976	0.038904	-2.1813	-1.9	-2.6958	-2.3854	-2.0333	-2.7812	-2.1979	-2.2438	-2.6833	-2.1396	-2.6667	-2.5021	-2.1354	-2.8583	-2.2313	-2.1104	75.277	-63.853	116.650	39.085	129.834	-66.823	240.828	226.360	115.903	63.482	97.103	160.601	-70.509	183.738	-14.271	-59.609	0.00031601	0.00057272	0.00014415	1006.7	7.4643e-06	8.8358e-06	910.95	247.22	9.6114e-06	7.7201e-06	251.26	70.009	72.426	16.765	6.9646e-06	16.88	0.010108	0.011877	0.0033258	1214.6	0.00012807	0.00013067	1016.2	282.83	0.00012709	0.00013371	310.61	91.181	103.58	24.053	0.00013573	27.375	-98.039	238.098	85.737	-103.831	-25.721	-59.490	-104.911	-99.590	233.392	-82.366	-100.910	-97.161	-95.641	-90.499	-92.233	-93.436	-8191	255	
21739.949	1	1	0	0	0.13791	0.23347	0.21159	0.044029	0.094648	0.1046	0.19783	0.14198	0.11461	0.22893	0.28352	0.24417	0.32135	0.084314	0.092524	0.052423	-2.3937	-2.0687	-2.45	-2.6083	-1.9854	-2.8021	-2.4542	-2.1417	-2.8375	-2.1146	-2.4167	-2.6875	-1.9333	-2.4979	-2.1437	-2.0708	201.438	67.838	44.508	-51.528	-104.895	108.577	193.290	64.954	64.707	115.157	111.780	204.549	204.732	-94.210	-11.230	-41.472	0.00049772	0.00070429	0.00018744	1006.5	3.9746e-06	3.1401e-06	909.18	244.51	1.2408e-05	1.0841e-05	248.43	69.556	72.783	16.573	1.9651e-05	16.859	0.010858	0.012608	0.0035402	1220.1	0.00013434	0.00013655	1015.9	282.31	0.00012954	0.00013565	308.98	90.76	102.71	23.807	0.00013246	26.894	143.907	-46.245	26.436	-104.204	-79.073	-65.250	-104.919	-99.085	95.014	44.924	-100.691	-97.076	-95.764	-90.551	-2.069	-92.994	-8191	255	
21740.068	1	1	0	0	0.17436	0.055971	0.26189	0.22125	0.12732	0.094329	0.12714	0.30861	0.25487	0.074486	0.063048	0.077554	0.11586	0.039604	0.14951	0.373	-2.4437	-1.9854	-2.2604	-2.8083	-1.825	-2.625	-2.3792	-2.0229	-2.8271	-1.95	-2.2042	-2.8	-1.9333	-2.4292	-2.4646	-2.0167	195.648	62.297	-83.412	207.709	180.732	176.779	53.213	165.986	107.673	122.668	192.894	119.627	77.219	12.162	134.483	182.231	0.00037367	0.0010273	0.00036668	1005.2	2.3409e-05	8.0192e-06	906.84	243.84	8.9421e-06	1.9013e-05	248.37	69.821	72.494	16.731	2.182e-05	16.678	0.010507	0.012239	0.0034432	1215.9	0.00013328	0.00013576	1012.1	280.41	0.00013058	0.00013468	307.63	90.485	102.31	23.831	0.00013318	26.906	82.941	175.924	19.723	-103.966	60.231	-112.106	-104.617	-99.135	209.518	33.093	-100.915	-97.216	-95.515	-90.916	-50.907	-93.114	-8191	255	
21740.141	1	1	0	0	0.26988	0.090334	0.14741	0.15194	0.14779	0.14897	0.1433	0.39565	0.13052	0.13127	0.30725	0.078834	0.055918	0.22777	0.098151	0.21178	-2.2938	-2.0583	-2.0979	-2.8708	-1.9792	-2.6688	-2.6292	-2.1063	-2.7917	-2.2729	-2.3	-2.8	-2.1104	-2.45	-2.4208	-1.9708	124.335	127.426	-10.445	155.373	234.414	-114.274	225.739	164.480	-3.351	14.123	-37.903	190.806	214.619	-87.033	214.527	118.877	9.7929e-05	0.0012669	0.00022337	994.46	8.308e-06	2.7548e-05	903.64	242.42	1.3176e-05	7.1571e-06	245.76	68.751	70.347	16.486	2.8158e-05	16.52	0.010578	0.012407	0.0034777	1210.6	0.00013449	0.00013696	1007.7	280.02	0.00013243	0.00013817	308.23	90.124	102.79	23.984	0.00013917	27.25	-64.643	198.225	232.535	-103.625	-19.585	16.835	-104.881	-99.132	66.189	152.122	-100.481	-97.403	-95.373	-90.300	-72.774	-93.291	-8191	255	
21740.236	1	1	0	0	0.14508	0.10926	0.18136	0.16746	0.17135	0.11867	0.18991	0.081902	0.10775	0.18286	0.31585	0.10716	0.1872	0.21904	0.18812	0.14238	-2.1813	-2.4667	-2.0833	-2.8271	-2.0271	-2.4688	-2.7479	-2.0438	-2.7792	-2.2062	-2.1208	-2.7958	-2.0083	-2.3833	-2.6896	-1.9312	141.317	229.277	-13.820	134.569	-29.162	106.620	-48.396	26.716	33.260	51.673	190.742	35.531	29.097	44.645	187.253	223.580	0.00041597	0.00086277	0.00033201	988.13	2.8786e-06	1.9865e-05	893.15	240.69	1.1515e-05	1.1746e-05	241.81	67.76	70.261	16.351	1.6169e-05	16.472	0.011126	0.013041	0.0036548	1212.3	0.00013958	0.00014253	1004.2	278.31	0.00013506	0.00014011	305.12	89.268	101.55	23.79	0.00013611	26.894	177.911	201.985	-5.298	-103.847	202.951	-48.881	-104.694	-99.129	-30.748	43.215	-101.044	-97.521	-95.037	-90.080	-70.488	-92.885	-8191	255	
21740.332	1	1	0	0	0.20593	0.2021	0.2308	0.11647	0.10721	0.13625	0.1508	0.24152	0.072889	0.055444	0.15649	0.043086	0.035787	0.13235	0.39242	0.0093602	-2.2542	-2.2812	-1.9708	-2.8042	-2.0896	-2.4062	-2.7354	-2.1125	-2.5333	-2.5104	-2.15	-2.7208	-2.0771	-2.1292	-2.6354	-1.8125	93.352	-98.113	39.610	27.388	-102.421	-65.869	96.106	215.535	-45.863	-39.733	125.530	199.086	127.717	192.199	217.667	49.796	0.00023293	0.0013649	0.00044994	987.63	7.1066e-06	1.9754e-05	894.92	238.75	1.1434e-05	1.0057e-05	241.92	68.096	69.45	16.277	5.0029e-06	16.492	0.010823	0.012594	0.0035298	1204.1	0.00013579	0.00013778	1001.9	276.4	0.00013219	0.00013771	302.7	89.143	100.77	23.551	0.00013051	26.388	-54.185	-107.206	231.288	-103.913	-75.667	152.006	-104.800	-99.336	71.076	100.511	-100.585	-97.560	-95.013	-90.107	40.942	-93.235	-8191	255	
21740.453	1	1	0	0	0.071854	0.056395	0.23161	0.14239	0.29706	0.22431	0.28752	0.2231	0.19926	0.26074	0.24102	0.17993	0.33653	0.07427	0.19623	0.17977	-1.975	-2.4271	-1.7583	-2.8333	-2.1562	-2.2354	-2.9562	-2.0083	-2.4646	-2.4042	-1.9229	-2.6146	-2.2812	-2.1792	-2.7333	-1.9542	179.177	203.939	-65.103	3.361	52.571	46.741	230.032	-82.750	-0.005	180.872	112.375	192.215	185.431	152.708	-50.029	142.780	0.00025055	0.0010978	0.0002719	977.16	9.6127e-06	1.5283e-05	894.34	240.61	1.1143e-05	3.9293e-06	243.98	68.183	70.476	16.337	3.7094e-06	16.595	0.010265	0.011901	0.0033275	1190.4	0.00012709	0.00012854	994.4	274.14	0.0001222	0.00012653	299.29	87.549	98.647	23.113	0.00012274	25.801	108.404	-60.144	152.401	-103.758	230.664	-84.901	-104.857	-99.151	102.723	152.479	-100.699	-97.226	-95.748	-90.046	132.504	-92.727	-8191	255	
21740.549	1	1	0	0	0.21205	0.22564	0.14738	0.071186	0.24371	0.15545	0.23876	0.17102	0.069292	0.093906	0.18355	0.12922	0.14943	0.16784	0.37629	0.14087	-1.8687	-2.5458	-1.8937	-2.6458	-2.3604	-1.9542	-2.8583	-2.1104	-2.3563	-2.5771	-2.0563	-2.5875	-2.4583	-1.9833	-2.5875	-2.2854	239.235	-15.896	43.991	-23.765	238.240	231.327	163.846	-70.505	82.770	-47.555	-87.347	153.584	-52.554	-10.972	116.413	120.076	0.00012648	0.0014801	0.0003692	992.27	4.029e-06	1.7936e-05	894.68	240.81	6.9007e-06	1.1739e-05	244.22	68.105	70.972	16.371	2.5234e-05	16.503	0.0097735	0.011365	0.0031896	1185.4	0.00012264	0.00012536	991.24	273.35	0.00011847	0.00012281	296.63	86.869	97.975	22.9	0.00011938	25.493	-0.242	-1.888	12.875	-103.462	-23.902	-71.585	-104.926	-99.255	-112.904	-65.734	-101.031	-97.226	-95.721	-90.299	-16.528	-93.076	-8191	255	
21740.645	1	1	0	0	0.28319	0.063811	0.34386	0.3635	0.11443	0.19619	0.29999	0.37582	0.078832	0.039603	0.32575	0.20999	0.25789	0.14821	0.06624	0.027554	-1.9875	-2.7146	-1.9604	-2.6458	-2.3333	-1.8667	-3.0083	-2.2771	-2.1437	-2.6917	-1.9875	-2.5521	-2.5687	-1.8875	-2.6521	-2.3208	65.513	66.923	95.095	224.532	-112.764	133.424	156.801	111.283	-30.831	65.571	187.257	239.045	215.082	80.020	28.314	157.510	0.00029299	0.0004826	9.9359e-05	997.54	1.0575e-05	8.5886e-06	899.23	240.33	4.7339e-06	1.6146e-05	244.23	68.425	70.79	16.357	2.035e-05	16.507	0.0094817	0.01104	0.0030891	1179.5	0.00011975	0.00012171	989.79	273.12	0.00011609	0.00012146	296.34	86.699	97.614	22.789	0.00011667	25.364	120.576	230.788	-94.836	-103.746	-38.708	-110.137	-104.836	-99.357	48.672	25.815	-100.770	-97.504	-95.604	-90.347	8.358	-92.700	-8191	255	
#DATA ENDS
