BOXY.EXE: ISS Imagent and Oximeter Data Acquisition Program Version 0.80
Ascii Record File

#ACQ INFORMATION
2  Detector Channels 
16  External MUX Channels 
1  Auxiliary Channels 
5000  Waveform (CCF) Frequency (Hz)
1  Waveforms Skipped 
30  Waveforms Averaged 
1  Cycles Averaged 
16  Acquisitions per Waveform 
10.0806  Updata Rate (Hz) 

#FILE INFORMATION
TRUE -- External MUX Channel results are PARSED.
FALSE -- AC DC and Phase are NOT grouped.
TRUE -- Companion Program Settings File CREATED.
FALSE -- AC data not excluded
FALSE -- DC data not excluded
FALSE -- Phase data not excluded
FALSE -- Auxillary Chn. data not excluded
Tab delimiters

#CALIBRATION STATE
TRUE -- Waveform Calibration Values APPLIED.


#AUX CALIBRATION VALUES
Val Type	aux-1	

Term	1.0000e+00	
Factor	0.0000e+00	


#WF CALIBRATION VALUES
A = Detector Channel
Val Type	A-AC1	A-AC2	A-AC3	A-AC4	A-AC5	A-AC6	A-AC7	A-AC8	A-AC9	A-AC10	A-AC11	A-AC12	A-AC13	A-AC14	A-AC15	A-AC16	A-DC1	A-DC2	A-DC3	A-DC4	A-DC5	A-DC6	A-DC7	A-DC8	A-DC9	A-DC10	A-DC11	A-DC12	A-DC13	A-DC14	A-DC15	A-DC16	A-Ph1	A-Ph2	A-Ph3	A-Ph4	A-Ph5	A-Ph6	A-Ph7	A-Ph8	A-Ph9	A-Ph10	A-Ph11	A-Ph12	A-Ph13	A-Ph14	A-Ph15	A-Ph16	

Term	0.00000e+00	0.00000e+00	0.00000e+00	0.00000e+00	0.00000e+00	0.00000e+00	0.00000e+00	0.00000e+00	0.00000e+00	0.00000e+00	0.00000e+00	0.00000e+00	0.00000e+00	0.00000e+00	0.00000e+00	0.00000e+00	0.00000e+00	0.00000e+00	0.00000e+00	0.00000e+00	0.00000e+00	0.00000e+00	0.00000e+00	0.00000e+00	0.00000e+00	0.00000e+00	0.00000e+00	0.00000e+00	0.00000e+00	0.00000e+00	0.00000e+00	0.00000e+00	0.00000e+00	0.00000e+00	0.00000e+00	0.00000e+00	0.00000e+00	0.00000e+00	0.00000e+00	0.00000e+00	0.00000e+00	0.00000e+00	0.00000e+00	0.00000e+00	0.00000e+00	0.00000e+00	0.00000e+00	0.00000e+00	
Factor	1.00000e+00	1.00000e+00	1.00000e+00	1.00000e+00	1.00000e+00	1.00000e+00	1.00000e+00	1.00000e+00	1.00000e+00	1.00000e+00	1.00000e+00	1.00000e+00	1.00000e+00	1.00000e+00	1.00000e+00	1.00000e+00	1.00000e+00	1.00000e+00	1.00000e+00	1.00000e+00	1.00000e+00	1.00000e+00	1.00000e+00	1.00000e+00	1.00000e+00	1.00000e+00	1.00000e+00	1.00000e+00	1.00000e+00	1.00000e+00	1.00000e+00	1.00000e+00	X	X	X	X	X	X	X	X	X	X	X	X	X	X	X	X	

B = Detector Channel
Val Type	B-AC1	B-AC2	B-AC3	B-AC4	B-AC5	B-AC6	B-AC7	B-AC8	B-AC9	B-AC10	B-AC11	B-AC12	B-AC13	B-AC14	B-AC15	B-AC16	B-DC1	B-DC2	B-DC3	B-DC4	B-DC5	B-DC6	B-DC7	B-DC8	B-DC9	B-DC10	B-DC11	B-DC12	B-DC13	B-DC14	B-DC15	B-DC16	B-Ph1	B-Ph2	B-Ph3	B-Ph4	B-Ph5	B-Ph6	B-Ph7	B-Ph8	B-Ph9	B-Ph10	B-Ph11	B-Ph12	B-Ph13	B-Ph14	B-Ph15	B-Ph16	

Term	0.00000e+00	0.00000e+00	0.00000e+00	0.00000e+00	0.00000e+00	0.00000e+00	0.00000e+00	0.00000e+00	0.00000e+00	0.00000e+00	0.00000e+00	0.00000e+00	0.00000e+00	0.00000e+00	0.00000e+00	0.00000e+00	0.00000e+00	0.00000e+00	0.00000e+00	0.00000e+00	0.00000e+00	0.00000e+00	0.00000e+00	0.00000e+00	0.00000e+00	0.00000e+00	0.00000e+00	0.00000e+00	0.00000e+00	0.00000e+00	0.00000e+00	0.00000e+00	-1.41723e+02	-1.33427e+02	-1.27657e+02	-1.82643e+02	-7.29312e+01	-5.90420e+01	-1.56437e+02	-1.62015e+02	-7.50620e+01	-6.54826e+01	-1.75898e+02	-1.69904e+02	-1.79084e+02	-1.76332e+02	-7.30813e+01	-1.49000e+02	
Factor	2.19948e-05	1.76772e-04	4.22463e-05	1.51783e-01	1.32281e-06	2.01978e-06	1.85373e-01	5.47419e-02	1.24077e-06	1.63382e-06	9.98567e-02	3.00697e-02	2.75195e-02	9.87689e-03	1.39127e-06	1.39770e-02	7.96078e-06	1.06646e-05	2.96347e-06	7.91364e-02	1.10375e-07	1.18425e-07	9.07823e-02	2.86722e-02	1.12129e-07	1.17383e-07	5.04514e-02	1.53297e-02	1.45971e-02	5.20825e-03	1.14524e-07	7.14204e-03	X	X	X	X	X	X	X	X	X	X	X	X	X	X	X	X	



#DISTANCE SETTINGS
A = Detector Channel
A-1	A-2	A-3	A-4	A-5	A-6	A-7	A-8	A-9	A-10	A-11	A-12	A-13	A-14	A-15	A-16	

2.5000e+00	3.0000e+00	2.5000e+00	3.0000e+00	2.0000e+00	3.0000e+00	1.5000e+00	3.0000e+00	3.0000e+00	3.0000e+00	3.0000e+00	3.0000e+00	3.0000e+00	3.0000e+00	1.5000e+00	3.0000e+00	

B = Detector Channel
B-1	B-2	B-3	B-4	B-5	B-6	B-7	B-8	B-9	B-10	B-11	B-12	B-13	B-14	B-15	B-16	

1.0000e+01	1.0000e+01	1.0000e+01	1.4400e+00	1.0000e+01	1.0000e+01	1.5100e+00	1.9400e+00	1.0000e+01	1.0000e+01	1.9900e+00	2.4900e+00	2.4100e+00	2.9000e+00	1.0000e+01	2.9800e+00	




#DATA BEGINS
time	group	step	mark	flag	A-AC1	A-AC2	A-AC3	A-AC4	A-AC5	A-AC6	A-AC7	A-AC8	A-AC9	A-AC10	A-AC11	A-AC12	A-AC13	A-AC14	A-AC15	A-AC16	A-DC1	A-DC2	A-DC3	A-DC4	A-DC5	A-DC6	A-DC7	A-DC8	A-DC9	A-DC10	A-DC11	A-DC12	A-DC13	A-DC14	A-DC15	A-DC16	A-Ph1	A-Ph2	A-Ph3	A-Ph4	A-Ph5	A-Ph6	A-Ph7	A-Ph8	A-Ph9	A-Ph10	A-Ph11	A-Ph12	A-Ph13	A-Ph14	A-Ph15	A-Ph16	B-AC1	B-AC2	B-AC3	B-AC4	B-AC5	B-AC6	B-AC7	B-AC8	B-AC9	B-AC10	B-AC11	B-AC12	B-AC13	B-AC14	B-AC15	B-AC16	B-DC1	B-DC2	B-DC3	B-DC4	B-DC5	B-DC6	B-DC7	B-DC8	B-DC9	B-DC10	B-DC11	B-DC12	B-DC13	B-DC14	B-DC15	B-DC16	B-Ph1	B-Ph2	B-Ph3	B-Ph4	B-Ph5	B-Ph6	B-Ph7	B-Ph8	B-Ph9	B-Ph10	B-Ph11	B-Ph12	B-Ph13	B-Ph14	B-Ph15	B-Ph16	aux-1	digaux	

4278.187	1	1	0	256	0.13037	0.19771	0.071521	0.31188	0.19222	0.12507	0.28874	0.18676	0.12005	0.11792	0.31872	0.13666	0.38876	0.093412	0.20636	0.12302	-2.1729	-2.3771	-3.0125	-2.6021	-2.4896	-3.1292	-2.45	-3.0062	-3.0104	-2.2479	-3.0021	-2.6479	-2.5125	-3.0792	-2.3458	-2.8375	-44.337	232.257	89.097	211.511	218.760	261.434	216.690	154.669	82.295	91.092	203.372	139.249	211.539	168.259	73.269	217.064	0.00016139	0.00054604	8.8457e-05	1198.8	2.4286e-06	5.4295e-06	973.86	366.49	1.3339e-06	4.3346e-06	316.36	102.97	108.17	38.899	2.6144e-06	46.361	0.00017903	0.00013344	3.4685e-05	1235.5	1.5761e-06	1.3503e-06	1001.2	379.19	1.5595e-06	1.4304e-06	328.13	107.18	112.35	40.468	1.5821e-06	48.273	174.542	2.207	-1.804	-74.798	25.589	70.106	-75.726	-71.317	39.028	54.092	-72.277	-68.586	-66.903	-62.369	53.282	-64.301	-8191	255	
4278.308	1	1	0	0	0.10431	0.04646	0.21715	0.1361	0.13309	0.10373	0.11647	0.19598	0.26803	0.12636	0.072861	0.11976	0.063663	0.16817	0.088326	0.13917	-2.3042	-2.2646	-2.8479	-2.7104	-2.4188	-3.0125	-2.5563	-3.0458	-2.7667	-2.4062	-3.0146	-2.9208	-2.4667	-2.9396	-2.375	-2.6479	58.117	137.526	-70.398	257.025	84.452	79.624	243.070	167.352	-86.113	19.784	30.483	-36.388	18.975	199.102	216.566	209.945	0.00016105	0.00038444	0.00010495	1209.6	2.4789e-06	5.2576e-06	974.59	370.67	1.6509e-06	4.0593e-06	320.82	104.38	108.54	39.276	2.9843e-06	47.093	0.00017726	0.00013653	3.4882e-05	1239	1.606e-06	1.3641e-06	1005.1	381.87	1.5871e-06	1.3805e-06	330	108.34	113.15	40.767	1.5642e-06	48.78	176.204	-3.607	4.203	-74.708	56.086	68.494	-75.701	-71.266	0.605	36.059	-72.291	-68.562	-66.864	-62.435	71.400	-63.947	-8191	255	
4278.380	1	1	0	0	0.037732	0.098859	0.16871	0.15688	0.1769	0.2017	0.19839	0.30933	0.082925	0.1058	0.092649	0.032491	0.23896	0.25418	0.16049	0.24658	-2.4771	-1.9396	-2.7854	-2.7792	-2.5042	-3.0167	-2.4167	-2.9021	-2.9854	-2.3729	-2.8854	-2.7958	-2.4167	-3.0312	-2.3354	-2.5521	249.144	-12.807	-24.588	200.135	103.942	26.702	-79.828	181.405	265.219	49.943	-56.395	184.878	235.428	-40.709	31.342	191.903	0.00017344	0.0004886	0.00013454	1210	2.8345e-06	4.2247e-06	976.79	373.69	1.1755e-06	5.385e-06	321.44	104.03	110.23	39.67	4.1887e-06	47.167	0.0001859	0.00013471	3.3827e-05	1246.5	1.6336e-06	1.3999e-06	1012.2	385.25	1.595e-06	1.4152e-06	331.99	108.97	114.1	41.16	1.6196e-06	49.029	177.527	0.040	5.093	-74.873	56.184	81.686	-75.673	-71.076	9.810	64.694	-72.490	-68.414	-67.133	-62.869	61.754	-64.179	-8191	255	
4278.476	1	1	0	0	0.070928	0.14003	0.1695	0.22432	0.16566	0.029688	0.27095	0.1991	0.1507	0.17693	0.18993	0.072748	0.32407	0.29992	0.38656	0.21869	-2.3937	-2.1771	-2.5792	-2.8833	-2.2021	-3.0792	-2.7417	-2.6708	-2.9104	-2.4	-2.725	-3	-2.3167	-2.9167	-2.5625	-2.4729	129.301	-59.421	9.993	230.596	-42.332	-85.935	233.554	194.507	57.648	32.013	151.847	-40.124	242.706	-69.350	74.933	225.739	0.00016242	0.00036468	0.00012895	1217	3.283e-06	3.7936e-06	981.05	372.85	1.2692e-06	3.8192e-06	321.21	104.21	108.99	39.384	3.4854e-06	46.51	0.00018134	0.0001288	3.755e-05	1251.7	1.6276e-06	1.3276e-06	1013.5	385.15	1.5864e-06	1.5074e-06	331.01	108.76	113.93	40.925	1.5129e-06	48.453	169.547	-8.088	-3.663	-74.897	58.460	89.376	-75.713	-70.841	-0.340	55.802	-72.633	-68.729	-66.836	-62.426	59.444	-64.023	-8191	255	
4278.572	1	1	0	0	0.16862	0.071263	0.030008	0.24234	0.23839	0.10305	0.21934	0.26648	0.17186	0.10377	0.13547	0.20206	0.13994	0.31734	0.25161	0.10184	-2.5771	-2.2021	-2.5771	-2.8083	-2.1875	-2.7938	-2.8083	-2.4979	-2.9708	-2.5312	-2.6583	-2.9042	-2.3833	-2.8583	-2.5604	-2.4792	94.070	152.531	262.143	230.501	-8.890	-87.733	-72.939	258.917	135.354	141.324	202.264	262.262	56.192	-88.069	122.452	-27.307	0.00017929	0.00054951	0.00010169	1217.6	2.9046e-06	3.4026e-06	977.57	370.28	1.4542e-06	3.0834e-06	321.89	103.36	109.11	39.127	4.6739e-06	46.129	0.00018175	0.00013724	3.6031e-05	1249.2	1.5747e-06	1.391e-06	1010.1	383.86	1.6165e-06	1.3819e-06	330	108.04	113.29	40.65	1.5203e-06	48.281	174.761	5.381	3.527	-75.079	58.244	84.207	-75.707	-71.248	42.749	68.284	-72.568	-68.574	-67.031	-62.640	53.406	-64.237	-8191	255	
4278.692	1	1	0	0	0.06595	0.16977	0.27928	0.14191	0.065736	0.2904	0.37798	0.33072	0.11088	0.1609	0.29159	0.15785	0.15275	0.29446	0.13712	0.48922	-2.6042	-2.4562	-2.5833	-3.1188	-2.3458	-2.8271	-2.8854	-2.4708	-2.9896	-2.6208	-2.5833	-3.0729	-2.5833	-2.8958	-2.7875	-2.3625	234.628	187.264	-26.277	214.038	-56.926	234.579	171.327	190.302	-83.775	231.361	165.104	-76.260	258.366	219.248	-42.430	189.057	0.00016152	0.00051483	0.00010781	1212.9	2.0297e-06	5.6292e-06	973.86	369.83	1.7619e-06	3.346e-06	319.61	104.92	109.28	39.591	2.6684e-06	46.566	0.000179	0.0001332	3.6766e-05	1247.6	1.6108e-06	1.449e-06	1008.7	382.46	1.57e-06	1.3039e-06	330.59	108.87	113.71	40.84	1.4635e-06	48.427	179.112	-0.587	3.633	-74.841	61.667	47.648	-75.607	-70.985	40.929	70.073	-72.834	-68.535	-67.145	-62.442	46.422	-64.315	-8191	255	
4278.789	1	1	0	0	0.12933	0.090811	0.13722	0.22309	0.14233	0.21845	0.11629	0.13152	0.12931	0.23494	0.072468	0.25557	0.072262	0.017768	0.22205	0.1159	-2.6437	-2.575	-2.2771	-3.2438	-2.2188	-2.7542	-2.9833	-2.3625	-2.8208	-2.5938	-2.5	-3.1312	-2.4104	-2.5896	-2.8563	-2.3083	189.025	66.374	236.959	214.557	60.583	-14.980	-87.333	-80.671	41.472	242.278	-45.586	156.139	-51.663	156.413	80.749	162.000	0.00016436	0.00047929	0.0001409	1218.5	3.1657e-06	6.323e-06	977.91	371.32	1.9995e-06	4.0038e-06	322.55	104.99	108.98	39.339	4.9969e-06	47.209	0.00018323	0.0001248	3.6661e-05	1247.8	1.6543e-06	1.4431e-06	1013	382.92	1.6004e-06	1.3565e-06	331.47	109.09	113.22	40.817	1.465e-06	48.953	172.557	-16.801	4.591	-74.883	46.451	72.770	-75.857	-70.995	56.513	74.734	-72.802	-68.641	-67.056	-62.417	54.986	-64.111	-8191	255	
4278.885	1	1	0	0	0.2012	0.21403	0.28257	0.22884	0.38474	0.067566	0.19064	0.18126	0.09086	0.053382	0.27924	0.065906	0.019676	0.21971	0.1759	0.14185	-2.575	-2.475	-2.275	-3.3771	-2.4146	-2.6542	-3.1188	-2.45	-2.7271	-2.5979	-2.6083	-3.0146	-2.6333	-2.6958	-2.9625	-2.4021	120.589	147.351	-83.435	2.669	107.111	146.489	186.611	174.351	216.298	62.556	227.889	-39.800	1.510	-77.154	129.746	-39.777	0.00018802	0.00056653	0.00011301	1211	3.276e-06	5.0023e-06	981.01	372.4	1.8902e-06	3.8415e-06	325.32	104.45	109.45	38.955	3.714e-06	46.245	0.00018238	0.00012338	3.6531e-05	1248.8	1.5694e-06	1.3325e-06	1015.9	385.79	1.5922e-06	1.336e-06	333.11	108.69	113.57	40.461	1.5208e-06	48.077	175.322	-16.282	-3.856	-74.830	53.294	55.807	-75.685	-71.087	36.593	46.293	-72.633	-68.578	-66.790	-62.581	33.053	-63.668	-8191	255	
4278.981	1	1	0	0	0.2316	0.40298	0.1131	0.10186	0.12199	0.039948	0.27258	0.080198	0.32203	0.15282	0.071407	0.26506	0.042055	0.0038942	0.062366	0.1594	-2.425	-2.7708	-2.3063	-3.3042	-2.5708	-2.4792	-3.0271	-2.5208	-2.8604	-2.8708	-2.4	-3.225	-2.5812	-2.7	-3.0375	-2.3958	-55.508	229.392	161.617	11.303	233.845	-85.550	144.906	242.624	252.205	181.943	-47.887	263.943	201.275	212.241	267.846	246.359	0.00015735	0.00040448	0.00013591	1220.4	1.5152e-06	4.5899e-06	981.79	372.61	2.6647e-06	2.7414e-06	322.04	103.07	109.23	39.003	3.4384e-06	46.447	0.00018111	0.000128	3.8389e-05	1253.6	1.523e-06	1.3009e-06	1014.6	384.75	1.6866e-06	1.2846e-06	331.73	107.87	113.42	40.367	1.4363e-06	48.126	168.135	-2.472	17.088	-74.750	68.265	56.789	-75.639	-70.996	36.498	75.105	-73.156	-68.591	-66.826	-62.669	63.364	-64.065	-8191	255	
4279.077	1	1	0	0	0.24512	0.12364	0.092042	0.15158	0.25508	0.088183	0.16276	0.16263	0.16961	0.16686	0.18904	0.037267	0.13841	0.042782	0.35122	0.40296	-2.2833	-2.8792	-2.4771	-3.0542	-2.5938	-2.2104	-3.1688	-2.4667	-2.6792	-2.95	-2.3042	-2.9938	-2.6875	-2.5646	-2.9958	-2.5208	-25.923	33.947	212.323	263.128	67.578	253.087	244.286	200.009	31.726	92.228	64.343	-35.010	81.118	261.047	62.879	187.912	0.00016367	0.00051686	0.00012719	1216.3	2.2061e-06	4.3947e-06	979.48	376.8	1.5302e-06	5.319e-06	328.69	106.41	111.02	39.783	3.6097e-06	47.958	0.00018628	0.00012029	3.416e-05	1254	1.5264e-06	1.2787e-06	1015.2	389.69	1.6074e-06	1.311e-06	337.12	110.31	115.56	41.408	1.49e-06	49.454	166.330	4.817	7.447	-74.820	61.468	72.866	-76.044	-71.260	34.541	63.319	-72.704	-68.630	-67.181	-62.814	22.354	-64.929	-8191	255	
4279.173	1	1	0	0	0.097135	0.079171	0.04068	0.40746	0.065786	0.10028	0.2098	0.3676	0.046501	0.16133	0.067031	0.11249	0.076079	0.20204	0.11014	0.18156	-2.1562	-2.9354	-2.325	-3.2167	-2.7375	-2.2729	-3.0062	-2.5333	-2.6229	-2.9688	-2.4813	-2.8021	-2.8271	-2.35	-3.0771	-2.7604	190.520	33.530	245.368	247.028	232.843	-40.423	189.692	227.483	162.227	157.023	234.022	69.123	45.432	-87.915	-37.535	180.295	0.00016783	0.00059708	0.00014237	1238.7	3.1447e-06	4.3105e-06	993.06	374.24	7.1281e-07	3.4365e-06	324.28	102.64	106.53	37.461	3.488e-06	44.19	0.00017492	0.00012509	3.4234e-05	1261.4	1.5919e-06	1.3871e-06	1022.8	384.47	1.5915e-06	1.3135e-06	331.64	106.47	111.14	38.505	1.517e-06	45.543	172.027	-8.489	-17.227	-75.713	63.875	88.819	-76.467	-71.898	36.818	37.050	-73.950	-69.831	-68.210	-63.379	32.994	-65.084	-8191	255	
4279.292	1	1	0	0	0.17394	0.17074	0.15648	0.19113	0.12058	0.27415	0.13862	0.18834	0.1633	0.22406	0.23909	0.35037	0.24974	0.27841	0.16416	0.081316	-2.1292	-2.8563	-2.2833	-2.8479	-2.875	-2.1833	-3.1354	-2.6562	-2.3583	-2.9354	-2.3833	-2.6792	-2.7167	-2.2292	-2.8229	-2.6979	153.158	259.275	177.897	253.600	52.403	89.749	213.091	173.631	-55.703	238.823	238.609	122.073	205.287	-22.830	1.973	-13.898	0.00015952	0.00044428	0.00013705	1216.7	1.6828e-06	2.4999e-06	984.9	369.87	1.4426e-06	3.5782e-06	316.68	100.21	106.51	35.79	4.1409e-06	42.079	0.00018308	0.00012795	3.5555e-05	1249.7	1.6639e-06	1.4428e-06	1017.3	381.36	1.7186e-06	1.4372e-06	328.74	104.18	110.45	37.125	1.5807e-06	43.71	174.446	2.442	1.031	-75.118	78.999	59.345	-75.601	-70.851	16.310	43.271	-72.586	-68.690	-66.964	-62.489	37.431	-64.003	-8191	255	
4279.388	1	1	0	0	0.14484	0.037062	0.14716	0.22387	0.15048	0.17769	0.19446	0.2602	0.18766	0.19854	0.22945	0.2188	0.13758	0.22885	0.23973	0.37542	-1.9062	-2.8667	-2.45	-2.9062	-2.9833	-2.2083	-2.8937	-2.6271	-2.3438	-2.9167	-2.3125	-2.6	-2.9	-2.6312	-2.7771	-2.7729	-35.751	83.800	-81.436	166.197	178.049	160.009	-65.650	-52.209	27.628	99.633	223.875	268.308	62.073	219.582	-3.990	265.850	0.00014161	0.00059223	0.00016167	1224.7	2.4307e-06	4.0981e-06	982.99	372.95	2.2507e-06	2.9403e-06	322.34	100.13	106.27	36.533	2.4684e-06	43.271	0.00018494	0.00013395	3.9809e-05	1259.2	1.6789e-06	1.5306e-06	1019.7	385.59	1.802e-06	1.3665e-06	332.3	104.29	111.22	37.937	1.6179e-06	44.717	178.228	-9.619	-9.571	-74.799	42.894	77.326	-76.049	-70.865	57.738	56.197	-72.662	-68.652	-66.950	-62.526	59.879	-63.778	-8191	255	
4279.484	1	1	0	0	0.116	0.11248	0.081801	0.18568	0.34523	0.17418	0.18548	0.070562	0.1904	0.20751	0.25053	0.026989	0.1134	0.25164	0.21732	0.33588	-1.9083	-2.7708	-2.4625	-2.5542	-3.1167	-2.4729	-3.0563	-3.0396	-2.4104	-3.1167	-2.5938	-2.5771	-2.9917	-2.4896	-2.7833	-2.7208	113.138	-46.867	206.400	249.365	87.128	230.324	245.627	258.565	57.240	25.291	261.861	30.498	157.589	234.250	-33.501	222.083	0.00016626	0.00049266	0.00012836	1244.1	1.9917e-06	6.9107e-06	995.63	380.77	3.2839e-06	4.615e-06	325.3	101.76	109.85	37.656	4.4767e-06	44.483	0.00018542	0.00013177	3.8013e-05	1274.8	1.6004e-06	1.5324e-06	1030.2	392.98	1.7354e-06	1.4079e-06	336.69	106.46	114.24	39.1	1.6713e-06	46.088	170.010	1.285	-18.412	-75.046	76.460	52.833	-75.613	-71.039	23.723	81.746	-72.234	-68.496	-66.876	-62.437	51.049	-63.752	-8191	255	
4279.605	1	1	0	0	0.092745	0.18396	0.096375	0.033233	0.089294	0.20071	0.037545	0.1779	0.29743	0.052683	0.050122	0.015631	0.12056	0.081267	0.13011	0.26927	-1.8896	-2.9375	-2.5604	-2.6396	-3.1292	-2.2667	-2.8354	-2.9062	-2.0333	-2.8688	-2.7625	-2.4521	-3.2938	-2.4833	-2.6688	-3.0833	152.675	256.178	104.123	186.848	-19.094	71.826	8.232	68.585	170.738	-88.857	71.429	248.270	264.834	266.500	-30.110	224.035	0.00017182	0.00057206	0.00012329	1250.5	2.2793e-06	5.3904e-06	1002.7	383.6	1.9634e-06	4.712e-06	326.67	103.13	110.26	38.512	1.8673e-06	45.066	0.00018771	0.00013504	4.0371e-05	1287.7	1.6676e-06	1.3878e-06	1034.7	395.96	1.7728e-06	1.4e-06	337.25	107.19	114.57	39.871	1.5177e-06	46.869	173.733	0.810	-3.345	-74.969	33.937	47.595	-75.399	-71.087	32.618	44.993	-72.838	-68.506	-66.908	-62.576	48.882	-63.886	-8191	255	
4279.677	1	1	0	0	0.25809	0.1119	0.15372	0.21634	0.18828	0.12129	0.13099	0.18466	0.1613	0.252	0.159	0.1451	0.27837	0.13703	0.087116	0.14219	-1.8854	-2.7396	-2.7042	-2.2938	-2.9729	-2.4417	-2.7562	-2.9604	-2.4271	-2.7333	-2.75	-2.3042	-2.9375	-2.4958	-2.5292	-3.2188	-37.793	94.626	236.651	-48.793	113.994	28.156	210.701	213.324	139.799	244.484	84.159	14.575	-46.935	23.990	249.261	16.328	0.00018911	0.000428	0.00013525	1245.1	1.583e-06	4.5904e-06	994.98	380.11	1.9039e-06	4.1901e-06	325.94	103.62	109.76	38.556	2.5207e-06	45.414	0.00018688	0.00012724	3.671e-05	1278.7	1.6234e-06	1.4167e-06	1029.5	393.35	1.6889e-06	1.4614e-06	336.01	107.56	113.97	39.999	1.4809e-06	47.202	176.027	-9.597	10.314	-75.068	47.584	96.176	-75.796	-70.999	57.956	68.109	-72.307	-68.466	-67.172	-62.334	58.667	-64.165	-8191	255	
4279.773	1	1	0	0	0.075137	0.2448	0.2132	0.19065	0.32839	0.13744	0.17357	0.09516	0.17029	0.20214	0.24567	0.20519	0.19631	0.2528	0.08228	0.14827	-1.9958	-2.8	-2.7167	-2.3375	-3.0604	-2.6063	-2.4375	-3.0563	-2.2833	-2.7083	-2.8917	-2.4625	-3.0208	-2.6188	-2.3646	-3.0354	-31.432	121.989	-27.471	263.058	11.800	159.642	211.982	190.765	188.062	166.090	157.469	-70.122	49.258	214.809	-1.566	46.214	0.00017541	0.00046657	0.00012185	1233.7	4.0581e-06	5.3963e-06	991.84	377.2	2.3887e-06	4.1794e-06	324.32	103.89	110.43	39.038	2.6758e-06	46.223	0.00017797	0.00012806	3.4703e-05	1267.1	1.6637e-06	1.3545e-06	1022.2	389.63	1.6448e-06	1.3511e-06	332.73	108.03	114.02	40.49	1.4158e-06	48.076	178.315	-29.430	-3.481	-74.910	53.391	65.788	-75.614	-71.112	12.753	57.002	-72.615	-68.603	-67.016	-62.607	53.252	-64.079	-8191	255	
4279.869	1	1	0	0	0.054301	0.18246	0.064231	0.41392	0.27995	0.096007	0.19207	0.20939	0.12209	0.17182	0.1703	0.0955	0.28631	0.16277	0.19329	0.26444	-2	-2.5396	-2.8688	-2.5042	-2.8458	-2.6688	-2.4562	-3.1521	-2.4167	-2.3896	-2.8688	-2.3292	-2.8854	-2.9313	-2.4062	-3.0333	67.061	174.220	157.523	-35.469	235.861	20.863	244.583	-71.281	59.187	250.570	202.111	152.736	229.663	60.360	0.261	-81.768	0.00018319	0.00056809	0.00012001	1212.7	2.0642e-06	5.466e-06	980	375.2	3.0296e-06	2.7483e-06	323.69	104.44	109.93	39.785	3.3175e-06	47.457	0.00017734	0.00012698	3.6222e-05	1245.6	1.4765e-06	1.2765e-06	1010.2	386.97	1.613e-06	1.2731e-06	334.17	108.94	114.86	41.296	1.5098e-06	49.262	171.520	-0.958	-14.639	-75.073	87.834	58.521	-75.457	-71.034	15.605	86.197	-72.776	-68.721	-67.253	-62.695	54.740	-64.372	-8191	255	
4279.988	1	1	0	0	0.13551	0.14714	0.30526	0.28606	0.18836	0.19489	0.064164	0.35779	0.078198	0.059317	0.12254	0.23139	0.13173	0.17059	0.2638	0.11197	-1.9583	-2.5521	-2.65	-2.5021	-2.8458	-2.7521	-2.4917	-3.1833	-2.5417	-2.5167	-2.9792	-2.3812	-2.9208	-2.7083	-2.3646	-3.1708	9.308	230.279	5.145	227.210	45.731	153.179	160.385	221.238	42.197	253.057	26.079	187.337	-80.770	9.219	-50.005	209.212	0.00015708	0.00047771	0.00011723	1206.8	6.4675e-06	5.644e-06	981.76	377.72	2.0691e-06	3.5322e-06	323.34	104.83	110.18	39.421	4.9699e-06	46.706	0.00017952	0.00012042	3.2635e-05	1247	1.5717e-06	1.3192e-06	1014.8	388.63	1.6039e-06	1.2641e-06	334.31	109.07	114.54	40.937	1.5819e-06	48.583	173.615	24.491	9.457	-75.191	62.142	61.533	-75.941	-71.171	41.180	49.307	-72.527	-68.497	-67.368	-62.845	42.132	-64.065	-8191	255	
4280.084	1	1	0	0	0.29523	0.32629	0.096427	0.32724	0.048259	0.1678	0.25769	0.40114	0.2173	0.095991	0.27787	0.20002	0.1092	0.2234	0.25667	0.14751	-2.1833	-2.4167	-2.7313	-2.4	-2.6208	-3.0417	-2.4396	-2.9583	-2.6583	-2.475	-3.1521	-2.5146	-2.875	-2.8063	-2.3187	-2.9354	127.427	61.735	-50.351	262.818	83.590	181.603	223.971	187.882	-13.906	-34.299	235.086	191.749	243.978	8.741	-6.300	249.357	0.00016856	0.00066639	0.0001116	1207.9	1.7505e-06	7.9376e-06	973.49	373.79	1.7403e-06	1.9675e-06	324.19	104.52	109.53	39.384	2.8447e-06	46.848	0.00018396	0.00013393	3.2407e-05	1246.9	1.625e-06	1.3372e-06	1009.8	385.87	1.6481e-06	1.2724e-06	333.78	108.87	113.91	40.649	1.4771e-06	48.686	178.087	-0.608	-10.839	-74.859	41.970	67.282	-75.662	-71.276	37.480	65.564	-72.886	-68.750	-67.129	-62.547	40.426	-63.873	-8191	255	
4280.180	1	1	0	0	0.11978	0.3726	0.073093	0.32087	0.069049	0.17735	0.34799	0.3241	0.11585	0.20749	0.21397	0.18441	0.14215	0.40115	0.3054	0.25427	-2.1167	-2.3083	-2.9021	-2.4875	-2.6063	-3.0271	-2.2687	-3.0271	-2.5667	-2.2188	-2.9271	-2.4521	-2.6958	-3.0771	-2.2208	-2.725	20.604	178.051	105.529	259.078	188.342	-14.907	216.855	205.630	28.223	-22.133	190.917	212.818	196.959	235.037	0.146	182.549	0.00016485	0.00055504	0.00013071	1211.2	4.0465e-06	4.7354e-06	983.5	375.38	1.8225e-06	4.8492e-06	327.16	105.15	109.83	39.517	4.3148e-06	47.545	0.00017753	0.00012626	3.2246e-05	1247.9	1.5604e-06	1.219e-06	1014.9	386.43	1.5137e-06	1.3267e-06	336.14	109.81	114.47	40.98	1.6083e-06	49.108	170.267	6.774	-17.262	-75.033	54.007	70.255	-75.915	-71.159	29.851	58.403	-72.318	-68.735	-67.176	-62.316	40.663	-63.917	-8191	255	
4280.254	1	1	0	0	0.14267	0.14432	0.13639	0.072453	0.12022	0.27727	0.12423	0.39628	0.041395	0.13456	0.18758	0.3176	0.10852	0.065164	0.40577	0.1237	-2.3312	-2.25	-2.9146	-2.5375	-2.4375	-2.9958	-2.5563	-2.9667	-2.8917	-2.2188	-2.9917	-2.6583	-2.275	-2.8688	-2.375	-2.775	31.580	-44.571	-68.915	256.455	-26.434	125.194	178.339	215.505	73.177	123.413	156.909	197.924	199.215	71.239	-84.336	232.936	0.00018485	0.00063321	8.3121e-05	1212.5	2.9746e-06	6.2366e-06	985.3	375.88	1.6484e-06	5.2152e-06	324.7	104.99	110.89	39.676	3.9787e-06	47.749	0.00018039	0.00013026	3.3963e-05	1252.5	1.588e-06	1.2718e-06	1017.2	388.64	1.5894e-06	1.3279e-06	335.87	110	114.91	41.195	1.4845e-06	49.355	173.753	-23.258	20.596	-74.778	52.151	78.150	-75.460	-71.247	37.096	67.070	-72.283	-68.558	-67.145	-62.447	60.977	-63.703	-8191	255	
4280.372	1	1	0	0	0.35301	0.082451	0.144	0.16934	0.12761	0.22671	0.057767	0.23752	0.20063	0.13278	0.079862	0.203	0.30116	0.3644	0.25694	0.23115	-2.4167	-2.2708	-3.0042	-2.7833	-2.475	-3.1188	-2.4792	-2.8167	-2.8417	-2.2687	-3.1354	-2.6146	-2.4104	-2.9979	-2.2812	-2.5771	146.642	11.719	26.793	-38.694	193.394	136.414	238.661	236.621	188.927	64.875	179.936	-66.339	-31.018	37.230	77.456	-0.884	0.00017433	0.00045357	0.00012072	1222.4	1.5821e-06	5.1608e-06	989.84	376.58	2.2609e-06	5.1137e-06	328.69	106.09	111.25	39.805	2.656e-06	47.433	0.00017542	0.000128	3.3141e-05	1255.2	1.5374e-06	1.3106e-06	1021.3	389.5	1.589e-06	1.4e-06	338.04	110.74	115.66	41.355	1.4571e-06	49.468	176.275	22.278	-20.858	-75.062	48.081	69.600	-75.728	-71.148	16.962	63.457	-72.762	-68.430	-67.123	-62.406	88.595	-64.474	-8191	255	
4280.469	1	1	0	0	0.22896	0.044113	0.06941	0.34099	0.17756	0.12224	0.071498	0.31802	0.23053	0.068998	0.19342	0.20211	0.096848	0.12802	0.055567	0.29015	-2.6146	-2.1396	-2.8521	-2.9479	-2.3958	-3.0583	-2.6188	-2.6875	-2.8667	-2.2229	-2.7958	-2.7354	-2.375	-3.1333	-2.5542	-2.5958	51.183	-82.837	-2.140	250.206	-43.509	127.865	171.057	184.545	156.283	216.386	144.436	218.696	262.827	171.227	196.286	220.487	0.00019955	0.00051286	0.0001173	1222.7	3.0955e-06	4.9779e-06	992.84	377.76	2.1669e-06	4.473e-06	328.39	106.65	110.92	40.049	3.4113e-06	47.966	0.0001759	0.00012075	3.4358e-05	1260.2	1.6414e-06	1.3207e-06	1025.2	389.79	1.5081e-06	1.414e-06	337.39	110.61	115.83	41.502	1.4261e-06	49.667	171.362	-17.264	-5.131	-74.884	66.492	63.419	-75.703	-71.207	3.535	64.166	-72.697	-68.531	-67.196	-62.634	38.843	-64.212	-8191	255	
4280.565	1	1	0	0	0.12192	0.22572	0.043952	0.12448	0.15767	0.32428	0.29425	0.063789	0.18538	0.24972	0.1086	0.14925	0.073632	0.29248	0.019043	0.16476	-2.6604	-2.3521	-2.875	-2.8729	-2.3063	-2.9938	-2.6896	-2.3583	-2.9062	-2.4313	-2.8396	-2.9479	-2.3042	-2.9938	-2.5292	-2.3917	88.705	171.813	197.893	20.638	65.026	16.230	140.552	50.237	58.740	-12.795	225.504	230.720	-23.684	229.516	106.821	195.637	0.00017931	0.00056915	0.00013065	1221.4	2.6124e-06	4.86e-06	987.83	377.75	1.321e-06	5.1949e-06	328.25	106.94	111.85	40.187	2.7726e-06	48.002	0.00017756	0.00013182	3.4895e-05	1259.3	1.4965e-06	1.1648e-06	1025.2	389.98	1.5794e-06	1.2827e-06	338.9	111.16	116.08	41.611	1.5182e-06	49.824	172.573	-19.246	8.244	-74.797	66.607	68.236	-75.799	-71.157	2.166	54.240	-72.529	-68.681	-67.030	-62.522	57.720	-64.401	-8191	255	
4280.685	1	1	0	0	0.29379	0.27366	0.16196	0.16048	0.13566	0.13354	0.072155	0.34608	0.1726	0.14687	0.092684	0.34137	0.34521	0.17538	0.066863	0.11562	-2.3833	-2.2708	-2.5563	-2.9521	-2.2792	-3.0792	-2.7667	-2.6083	-2.8354	-2.55	-2.4813	-2.9771	-2.2438	-2.9458	-2.6292	-2.3917	15.198	2.783	230.949	204.138	246.771	250.175	6.315	256.233	36.950	-11.439	81.339	240.702	244.858	166.700	67.788	124.190	0.00018136	0.00055219	0.00013668	1219	1.9069e-06	6.2936e-06	990.81	375.78	2.9412e-06	3.6228e-06	326.57	107.45	110.52	40.24	3.6616e-06	48.024	0.00018006	0.0001216	3.6105e-05	1256.6	1.5393e-06	1.282e-06	1024.8	388.82	1.4878e-06	1.3775e-06	338.31	111.6	115.37	41.618	1.4564e-06	49.958	172.128	-12.560	21.796	-74.834	57.550	62.295	-75.804	-71.126	47.757	76.240	-72.662	-68.648	-67.247	-62.612	72.097	-64.212	-8191	255	
4280.782	1	1	0	0	0.15604	0.22718	0.12074	0.30387	0.16674	0.062801	0.25873	0.24514	0.18829	0.18447	0.18689	0.1332	0.16892	0.069055	0.14172	0.12258	-2.8479	-2.5521	-2.4667	-3.1646	-2.3896	-2.8396	-2.8667	-2.4854	-2.9104	-2.6354	-2.4458	-3.0104	-2.4958	-2.9	-2.8208	-2.3688	9.044	188.571	-38.593	230.238	-14.034	184.518	-76.594	228.949	95.049	191.559	-67.657	244.152	194.560	-80.314	16.024	60.770	0.00017803	0.00044464	0.00015719	1221.3	3.0001e-06	5.825e-06	990.06	374.83	2.5561e-06	4.6652e-06	329.31	107.37	111.15	40.208	2.313e-06	48.728	0.00017849	0.000125	3.4105e-05	1256.3	1.6131e-06	1.2632e-06	1022.2	388.21	1.5469e-06	1.2694e-06	338.34	111.73	115.56	41.774	1.3779e-06	50.493	174.568	-12.616	-4.056	-74.808	67.989	58.822	-75.817	-71.222	18.378	53.375	-72.295	-68.435	-67.127	-62.648	50.182	-64.096	-8191	255	
4280.853	1	1	0	0	0.07588	0.091875	0.2992	0.23423	0.066433	0.062213	0.1672	0.089305	0.030884	0.092252	0.24093	0.21866	0.20344	0.11596	0.06082	0.18938	-2.6042	-2.5146	-2.2667	-3.1604	-2.4437	-2.8417	-3.0646	-2.3458	-2.9167	-2.6104	-2.55	-3.1083	-2.5229	-2.6333	-2.8438	-2.3167	-70.617	17.878	192.096	233.574	208.440	262.520	221.038	214.011	-65.058	-12.313	264.972	227.984	36.558	-2.053	75.513	196.762	0.00016539	0.00054198	0.00014076	1218.9	3.4089e-06	5.3829e-06	990.01	376.88	2.2772e-06	3.7475e-06	328.6	108.49	111.47	40.437	2.6757e-06	49.261	0.00017776	0.0001108	3.5407e-05	1255.7	1.5604e-06	1.3266e-06	1025.6	388.9	1.5677e-06	1.2956e-06	339.6	112.94	116.21	41.986	1.4144e-06	50.966	179.300	10.914	-10.321	-74.979	73.285	74.252	-75.638	-71.153	48.524	65.519	-72.274	-68.339	-66.830	-62.831	58.531	-64.469	-8191	255	
4280.974	1	1	0	0	0.083666	0.32896	0.17277	0.071814	0.18465	0.054617	0.19969	0.13516	0.11253	0.16187	0.081025	0.22996	0.15607	0.040604	0.11919	0.10145	-2.3646	-2.6146	-2.4604	-3.3792	-2.3708	-2.6125	-3.0479	-2.4292	-2.7771	-2.7792	-2.3937	-3.0375	-2.5146	-2.6104	-2.9792	-2.2042	174.374	240.282	256.203	170.992	-36.356	-60.666	118.918	197.004	12.166	204.113	33.370	236.150	108.694	194.158	197.747	33.539	0.00018793	0.00063622	0.00016136	1226	2.0384e-06	4.5412e-06	1004.4	378.74	1.3061e-06	4.9918e-06	329.72	108.18	111.3	40.666	3.9343e-06	49.396	0.00018078	0.00013002	3.4685e-05	1262.5	1.5494e-06	1.3414e-06	1035	390.14	1.6245e-06	1.2829e-06	340.95	113.33	116.21	42.08	1.3294e-06	51.144	173.212	-6.445	-0.890	-74.731	10.761	76.578	-75.863	-71.171	11.659	53.290	-72.663	-68.401	-66.983	-62.533	41.486	-64.111	-8191	255	
4281.068	1	1	0	0	0.15236	0.25139	0.14791	0.18752	0.12771	0.12766	0.11492	0.24563	0.060834	0.078576	0.19605	0.24291	0.1506	0.016767	0.043785	0.24724	-2.3208	-2.8354	-2.2354	-3.2292	-2.475	-2.6354	-3.1521	-2.3937	-2.7542	-2.825	-2.4813	-3.0042	-2.7521	-2.4792	-2.9583	-2.3812	263.208	-38.051	164.199	194.619	182.628	48.297	111.239	183.639	83.502	-45.983	99.683	-57.347	240.795	191.020	39.113	203.408	0.00018065	0.00046056	0.00012862	1247.3	3.2949e-06	4.3508e-06	1009.4	383.08	2.2246e-06	3.4239e-06	332.21	110.01	113.08	41.055	1.9712e-06	49.687	0.00018555	0.0001204	3.5333e-05	1279.1	1.5825e-06	1.3347e-06	1044	393.46	1.6637e-06	1.2927e-06	344.29	114.38	117.43	42.334	1.4363e-06	51.317	166.056	-3.311	2.898	-74.891	73.536	91.499	-75.927	-71.204	45.006	48.617	-72.525	-68.472	-67.704	-64.289	68.822	-65.174	-8191	255	
4281.164	1	1	0	0	0.19704	0.067475	0.27843	0.30129	0.13659	0.24762	0.10018	0.3476	0.23682	0.16633	0.048024	0.28703	0.3724	0.080705	0.17644	0.1134	-2.2083	-2.6958	-2.1063	-2.8833	-2.5812	-2.4354	-3.1021	-2.5438	-2.5729	-2.9042	-2.3375	-2.9542	-2.6958	-2.275	-2.85	-2.4292	126.994	134.643	63.144	227.381	116.765	-77.163	213.250	-73.929	143.852	50.468	218.706	206.134	231.147	-44.046	-47.077	202.758	0.00017911	0.00054903	0.00014497	1247.9	3.8839e-06	7.2524e-06	1021.6	382.83	2.2312e-06	3.7668e-06	337.05	110.17	113.94	40.629	3.0363e-06	49.885	0.00018537	0.00012804	3.5154e-05	1278.1	1.6382e-06	1.4213e-06	1047.1	393.85	1.6119e-06	1.2971e-06	344.52	114.4	117.78	42.345	1.4304e-06	51.409	171.050	0.070	9.147	-76.035	65.427	48.540	-76.939	-72.208	25.276	82.053	-73.963	-69.530	-68.057	-63.512	40.076	-65.197	-8191	255	
4281.285	1	1	0	0	0.12116	0.20078	0.16344	0.29476	0.16792	0.14865	0.1378	0.44452	0.23564	0.22953	0.11407	0.21356	0.31098	0.11273	0.093156	0.31332	-2.1354	-2.9042	-2.3958	-2.9292	-2.8312	-2.3417	-3.1333	-2.6188	-2.5083	-2.9917	-2.2625	-2.8604	-2.7979	-2.3875	-2.9354	-2.5292	143.454	165.200	199.410	234.557	217.760	42.560	142.886	186.793	130.141	50.969	225.551	146.458	208.503	-85.673	32.732	202.229	0.00017233	0.00035854	0.00015342	1254	3.4876e-06	3.9682e-06	1017.7	384.79	2.1302e-06	3.9143e-06	336.54	109.89	112.85	40.916	2.1847e-06	49.452	0.00018782	0.00012389	3.4203e-05	1281.4	1.5839e-06	1.4149e-06	1049.3	394.92	1.6866e-06	1.2677e-06	345.42	114.04	117.47	42.272	1.4859e-06	51.121	172.991	12.433	-12.585	-75.707	66.101	70.377	-76.371	-71.563	25.829	45.637	-73.491	-69.204	-67.345	-63.198	46.969	-64.611	-8191	255	
4281.381	1	1	0	0	0.12293	0.19068	0.083399	0.073315	0.13082	0.20418	0.11235	0.062196	0.28499	0.37357	0.13694	0.33167	0.10518	0.14477	0.12358	0.068354	-2.0208	-2.8271	-2.3792	-2.8438	-2.7604	-2.2771	-3.0812	-2.6896	-2.2521	-2.9417	-2.4062	-2.7292	-3.1396	-2.3438	-2.8583	-2.8104	155.007	141.703	245.116	-55.696	164.160	113.167	219.689	186.657	157.302	136.266	243.943	4.606	26.968	222.378	17.746	133.244	0.00018136	0.0004602	0.00011755	1249.3	2.3322e-06	4.7424e-06	1017.9	382.62	1.6632e-06	4.5269e-06	336.46	109.46	113.66	40.565	2.8383e-06	49.271	0.00018902	0.00011838	3.6383e-05	1282.2	1.5273e-06	1.337e-06	1050.7	393.9	1.6226e-06	1.3159e-06	345.5	113.69	117.52	41.915	1.4301e-06	50.923	177.596	6.193	0.548	-75.532	65.403	61.878	-76.481	-71.547	50.081	51.387	-73.106	-69.392	-67.483	-63.064	28.626	-64.685	-8191	255	
4281.477	1	1	0	0	0.20621	0.25555	0.10182	0.25041	0.16107	0.31225	0.12669	0.1073	0.050057	0.063776	0.069394	0.13271	0.042813	0.21369	0.13562	0.14294	-1.9104	-3.0021	-2.4917	-2.9417	-2.9229	-2.5	-3.0208	-2.7979	-2.45	-3.0979	-2.5333	-2.7729	-3.0792	-2.3146	-2.825	-2.8521	-9.829	82.553	-31.722	-59.133	85.605	128.041	255.371	247.923	160.381	24.159	-49.928	33.470	-60.258	241.934	-0.203	257.435	0.00016859	0.00061937	0.00011029	1254.5	1.0358e-06	7.8138e-06	1020.4	382.48	1.8863e-06	5.917e-06	337.06	110.47	113.49	40.796	3.3771e-06	49.29	0.00018369	0.00011875	3.3709e-05	1283.8	1.5683e-06	1.4043e-06	1050.1	394.6	1.6121e-06	1.2993e-06	345.94	114.17	117.62	42.172	1.5062e-06	51.072	177.607	-9.842	2.079	-75.517	47.067	77.031	-76.412	-71.626	16.607	47.001	-72.857	-69.369	-67.877	-63.309	65.465	-64.783	-8191	255	
4281.549	1	1	0	0	0.14171	0.15328	0.095612	0.2601	0.069505	0.1098	0.14753	0.18633	0.29486	0.074461	0.11852	0.34277	0.10534	0.34307	0.17327	0.13897	-1.9583	-2.9167	-2.4167	-2.7021	-2.9813	-2.1854	-2.8583	-2.9292	-2.4458	-2.9521	-2.6521	-2.5187	-3.1521	-2.3333	-2.5438	-2.8833	186.008	-27.842	-84.039	2.854	40.213	76.988	215.106	226.140	200.343	-51.330	108.215	255.407	92.487	233.800	58.594	214.807	0.00015375	0.00071561	0.00010106	1256.3	2.3169e-06	4.3503e-06	1026.6	383.41	2.2714e-06	6.3782e-06	338.23	109.59	114.31	41.26	3.2417e-06	49.956	0.00018738	0.00012242	3.5389e-05	1285.4	1.5538e-06	1.3651e-06	1052.8	395.78	1.6485e-06	1.2665e-06	347.03	114.34	118.43	42.601	1.495e-06	51.442	170.211	-22.885	-1.509	-75.679	52.636	59.626	-76.379	-71.574	33.084	49.964	-72.964	-69.345	-67.483	-62.597	88.043	-64.563	-8191	255	
4281.670	1	1	0	0	0.13702	0.21857	0.020097	0.46367	0.25877	0.066683	0.16736	0.1355	0.183	0.092923	0.1716	0.22664	0.03058	0.07084	0.19885	0.17	-1.7646	-2.9333	-2.4646	-2.6188	-2.9792	-2.3146	-2.8708	-2.9688	-2.2875	-2.9583	-2.5667	-2.3625	-3.05	-2.4146	-2.5	-2.9271	136.224	186.224	22.352	248.307	188.168	136.846	-80.245	49.731	49.772	27.270	214.258	-45.141	183.949	120.316	126.119	218.348	0.00019226	0.0006322	0.0001696	1248.4	1.1594e-06	6.6217e-06	1016.2	386.5	1.8306e-06	2.5535e-06	336.36	110.3	114.71	41.56	4.0512e-06	49.807	0.00019348	0.00012942	3.7105e-05	1282.5	1.522e-06	1.3767e-06	1048.3	396.81	1.5719e-06	1.3105e-06	346.36	114.51	118.34	42.615	1.5578e-06	51.309	171.624	2.325	-13.482	-75.450	69.790	67.886	-76.424	-71.385	36.987	58.586	-73.096	-69.251	-67.537	-62.997	39.229	-64.639	-8191	255	
4281.766	1	1	0	0	0.17284	0.082367	0.1914	0.40622	0.1446	0.13101	0.18212	0.16663	0.21507	0.1134	0.13157	0.16925	0.22143	0.19379	0.17879	0.1154	-1.8312	-2.7083	-2.7625	-2.5312	-3.0604	-2.4104	-2.7146	-3.0042	-2.3729	-2.8667	-2.7604	-2.4979	-3.1937	-2.5938	-2.4875	-3.1625	-54.987	-32.678	-57.182	200.439	-46.470	10.973	227.001	246.611	232.353	171.691	206.254	179.624	162.947	156.132	81.362	201.573	0.00018597	0.00038685	0.00011878	1247.9	3.5545e-06	4.1758e-06	1013.9	384.86	1.6379e-06	2.5237e-06	335.83	108.89	112.51	40.601	2.6234e-06	48.797	0.00018229	0.00012051	3.6037e-05	1279.1	1.5092e-06	1.3061e-06	1044.5	395.05	1.6266e-06	1.3135e-06	344.48	113.39	116.8	41.892	1.3991e-06	50.473	169.141	-2.606	-0.906	-75.553	23.531	59.760	-76.568	-71.487	51.580	41.695	-73.154	-69.190	-67.585	-62.755	52.303	-64.585	-8191	255	
4281.862	1	1	0	0	0.081259	0.27675	0.25778	0.097027	0.22498	0.2674	0.038008	0.1533	0.043442	0.30911	0.27918	0.19238	0.22766	0.13874	0.2042	0.15286	-1.8542	-2.725	-2.6125	-2.3708	-2.9188	-2.6771	-2.5646	-3.0417	-2.4	-2.7021	-2.8417	-2.2812	-2.8708	-2.4417	-2.3542	-3.1729	112.856	-36.040	-27.231	222.730	236.946	194.457	117.128	264.723	73.816	15.971	256.713	265.713	-62.021	225.796	-23.819	-51.964	0.00018159	0.00061987	0.00015401	1244.9	2.8273e-06	5.1493e-06	1017.1	383.48	1.6882e-06	4.7953e-06	336.85	109.68	112.94	40.466	3.9061e-06	49.413	0.00019434	0.00012535	3.4055e-05	1278.6	1.5692e-06	1.3049e-06	1048	394.59	1.5939e-06	1.2624e-06	345.63	113.73	116.87	41.771	1.5241e-06	50.835	179.387	-3.800	5.615	-75.242	46.619	75.173	-76.069	-71.374	-5.862	36.379	-73.089	-69.333	-67.895	-62.944	59.562	-64.725	-8191	255	
4281.958	1	1	0	0	0.054558	0.093	0.25996	0.20368	0.18475	0.14386	0.42522	0.14832	0.1807	0.09852	0.093809	0.30686	0.046408	0.38897	0.40724	0.10276	-2.0646	-2.6229	-2.7875	-2.3292	-2.8438	-2.5104	-2.5646	-3.0667	-2.3854	-2.5146	-3.0104	-2.2917	-2.9313	-2.6667	-2.1979	-2.9	182.716	-49.927	238.051	222.161	-42.147	157.410	243.009	242.748	201.741	234.511	209.956	225.330	141.035	250.836	59.834	5.251	0.00019555	0.00055284	0.00014914	1250	3.2531e-06	5.6947e-06	1023.2	386.48	1.1836e-06	4.9205e-06	340.62	110.45	114.63	40.801	3.4936e-06	49.318	0.00019393	0.00012138	3.6691e-05	1282.3	1.58e-06	1.3269e-06	1054.1	397.28	1.5787e-06	1.3621e-06	348.43	114.36	117.58	42.083	1.4828e-06	50.94	173.507	-28.602	-9.134	-75.925	66.502	56.630	-76.481	-71.906	-11.438	56.376	-73.555	-69.590	-68.528	-63.779	51.521	-64.765	-8191	255	
4282.077	1	1	0	0	0.32377	0.081504	0.20621	0.15565	0.32072	0.077965	0.26052	0.26251	0.19244	0.050974	0.058726	0.13602	0.12993	0.10769	0.12442	0.1174	-2.2083	-2.3896	-2.7646	-2.4396	-2.7146	-2.6521	-2.4375	-3.0812	-2.3521	-2.4292	-2.9813	-2.5042	-2.7042	-2.8917	-2.2479	-2.8917	166.817	-11.465	82.541	250.408	-86.670	29.242	233.568	221.919	158.218	164.872	177.634	246.394	-62.496	105.610	138.571	167.381	0.00018355	0.00048593	0.00015447	1259.5	3.5369e-06	5.4418e-06	1027.5	385.1	2.3624e-06	3.5941e-06	336.56	108.4	112.96	40.366	3.6286e-06	48.712	0.00018958	0.00012529	3.5753e-05	1291.5	1.5988e-06	1.3609e-06	1056.9	397.4	1.613e-06	1.4191e-06	347.74	113.22	117.48	41.944	1.3872e-06	50.712	172.682	-8.105	-2.418	-75.774	59.578	77.653	-76.657	-71.659	55.976	74.977	-72.113	-68.594	-66.685	-61.933	41.660	-64.380	-8191	255	
4282.149	1	1	0	0	0.15575	0.14671	0.097204	0.40843	0.098967	0.20706	0.20376	0.1549	0.13416	0.14148	0.21773	0.15461	0.24484	0.091126	0.22497	0.13303	-2.1229	-2.3896	-2.8146	-2.3583	-2.6521	-2.8354	-2.375	-2.9979	-2.6271	-2.475	-3.0667	-2.2771	-2.7417	-3.0875	-2.4104	-2.9146	127.586	141.411	137.655	224.587	99.606	-62.023	-87.730	255.826	160.576	230.380	-35.339	-37.260	265.387	227.498	-32.234	142.908	0.00017047	0.00052905	0.00020465	1260.9	2.4721e-06	7.1592e-06	1020.4	386.65	1.2102e-06	4.7594e-06	335.93	109.21	113.55	40.887	3.0576e-06	49.795	0.00017794	0.00012718	3.55e-05	1290.7	1.5517e-06	1.3071e-06	1056.4	399.79	1.7317e-06	1.3061e-06	347.58	114.24	118.2	42.434	1.5012e-06	51.428	173.215	2.864	-6.893	-74.696	55.095	64.045	-75.325	-71.095	3.443	46.259	-72.479	-68.757	-67.483	-62.420	53.974	-64.240	-8191	255	
4282.247	1	1	0	0	0.12923	0.21656	0.12696	0.26699	0.067083	0.020096	0.086559	0.44224	0.076519	0.13521	0.19015	0.25694	0.05713	0.065516	0.28471	0.11638	-2.2375	-2.3563	-2.9771	-2.5042	-2.5333	-2.8917	-2.4917	-2.9938	-2.9104	-2.325	-3.0979	-2.575	-2.6417	-2.9313	-2.1958	-2.8792	240.880	140.102	113.379	-29.821	191.068	-1.290	173.653	207.513	-49.276	-63.524	-73.829	190.964	201.606	259.890	259.663	213.836	0.00018064	0.00052458	0.00015467	1252.8	2.8713e-06	9.2565e-06	1023.8	388.67	1.6834e-06	3.929e-06	338.56	110.32	114.74	41.189	3.15e-06	49.77	0.00018442	0.0001298	3.5352e-05	1289.7	1.574e-06	1.3022e-06	1053.9	400.86	1.5658e-06	1.3404e-06	349.23	114.57	119.06	42.603	1.4573e-06	51.518	173.333	-3.188	6.962	-74.932	30.543	58.886	-75.690	-71.420	7.453	71.107	-72.445	-68.723	-66.840	-62.489	46.564	-64.446	-8191	255	
4282.365	1	1	0	0	0.31001	0.1426	0.20564	0.42384	0.1739	0.1659	0.26558	0.20946	0.10069	0.19695	0.17848	0.039326	0.057409	0.11429	0.12252	0.085827	-2.2896	-2.3271	-3.0062	-2.6271	-2.275	-2.9583	-2.2771	-2.8229	-2.7687	-2.2167	-2.9875	-2.6604	-2.4604	-3.0354	-2.4729	-2.6771	241.106	33.797	214.232	260.558	9.122	85.769	206.089	226.582	101.454	94.359	104.732	175.601	226.948	63.070	30.923	263.484	0.000165	0.00067373	0.00011344	1253.1	3.7897e-06	5.2888e-06	1015.7	387.6	2.7191e-06	5.4136e-06	340.2	109.62	113.77	40.866	3.537e-06	49.37	0.00018102	0.00013162	3.4117e-05	1289.7	1.563e-06	1.333e-06	1052.6	400.22	1.6333e-06	1.359e-06	350.08	114.44	118.28	42.434	1.4518e-06	51.362	173.856	-6.784	-4.538	-74.768	42.793	77.811	-75.901	-71.075	27.044	52.303	-72.700	-68.614	-67.307	-62.870	39.127	-64.215	-8191	255	
4282.462	1	1	0	0	0.14452	0.2251	0.13171	0.1649	0.11649	0.13947	0.18361	0.091077	0.28439	0.11497	0.16292	0.1973	0.10814	0.21588	0.12854	0.099533	-2.4271	-2.1604	-2.8625	-2.6417	-2.2375	-2.9417	-2.5563	-2.5479	-2.8875	-2.3479	-2.8375	-2.4813	-2.4792	-2.8937	-2.5479	-2.7292	136.543	226.126	203.639	217.234	262.963	209.157	186.139	227.203	205.627	92.762	-73.991	136.382	166.930	255.270	111.187	202.474	0.00017993	0.00055167	0.0001408	1250.3	3.3254e-06	3.815e-06	1015.3	385.76	4.1799e-06	4.65e-06	339.4	110.63	113.93	41.345	2.8608e-06	50.605	0.00017786	0.00013224	3.4574e-05	1282.5	1.628e-06	1.2259e-06	1050.2	398.76	1.5551e-06	1.3435e-06	349.48	115.02	118.42	42.912	1.4933e-06	52.226	173.131	-6.719	-0.841	-74.976	28.620	46.720	-75.759	-71.203	15.028	73.488	-72.613	-68.570	-66.802	-62.805	42.058	-64.260	-8191	255	
4282.558	1	1	0	0	0.032239	0.092851	0.34219	0.21379	0.23894	0.15077	0.22326	0.083231	0.21227	0.15789	0.065123	0.09579	0.164	0.20698	0.089983	0.19251	-2.4833	-2.2062	-2.7396	-2.8375	-2.3042	-3.0438	-2.6	-2.6688	-2.8375	-2.2687	-2.7521	-2.8208	-2.3063	-3.1125	-2.475	-2.4417	166.998	94.268	-42.853	254.563	96.860	90.660	219.393	229.489	221.361	87.969	-52.885	0.535	-67.431	221.901	203.581	-88.394	0.00018957	0.00054324	0.00014108	1253.6	1.8999e-06	5.4416e-06	1023.8	388.48	1.3523e-06	2.7023e-06	341.86	112.28	115.09	41.696	4.3266e-06	50.78	0.00017985	0.00012513	3.3308e-05	1287.2	1.5662e-06	1.2857e-06	1054.7	401.11	1.5612e-06	1.2893e-06	352.33	116.82	119.72	43.238	1.4253e-06	52.709	173.708	-3.853	6.841	-74.894	62.920	53.347	-76.054	-71.300	43.450	85.763	-72.581	-68.592	-67.090	-62.577	38.144	-64.416	-8191	255	
4282.654	1	1	0	0	0.37666	0.093844	0.30503	0.25132	0.17284	0.011725	0.08791	0.22713	0.1634	0.16923	0.11663	0.096333	0.16112	0.16103	0.23162	0.044296	-2.4542	-2.275	-2.7812	-3.0021	-2.1542	-3.0083	-2.8083	-2.425	-3.0104	-2.4125	-2.5271	-3.1208	-2.3	-3.1167	-2.6813	-2.3521	129.749	243.462	79.215	199.894	-34.301	117.233	169.210	153.797	254.285	72.184	185.363	63.950	247.747	-38.015	61.784	187.176	0.00019047	0.00055252	0.00011883	1258.1	3.3268e-06	3.7907e-06	1028.3	389.97	2.602e-06	3.5245e-06	342.97	112.32	114.98	41.564	3.5177e-06	50.407	0.00018787	0.00013051	3.3246e-05	1296	1.5899e-06	1.2163e-06	1063.9	402.43	1.5429e-06	1.1946e-06	353.51	116.6	119.53	42.988	1.4681e-06	52.141	171.223	-7.400	8.679	-74.762	53.740	79.590	-75.694	-71.286	22.208	42.108	-72.653	-68.384	-67.116	-62.615	48.583	-64.098	-8191	255	
4282.774	1	1	0	0	0.10545	0.23274	0.098844	0.13075	0.10841	0.067257	0.1618	0.071126	0.058836	0.10575	0.12999	0.25238	0.16746	0.21394	0.15676	0.038181	-2.5708	-2.3333	-2.7771	-2.9417	-2.2917	-2.8521	-2.8417	-2.525	-3.0646	-2.5375	-2.5312	-2.9938	-2.4437	-2.7542	-2.8396	-2.4229	94.689	151.216	19.932	164.329	1.279	93.692	161.346	264.006	116.034	145.768	125.738	-51.648	197.568	263.047	56.420	261.308	0.00019026	0.00052188	0.00020028	1265.3	3.435e-06	6.6379e-06	1033.2	388.51	1.1133e-06	3.6938e-06	341.1	111.57	114.89	41.368	2.4363e-06	50.603	0.00018739	0.00011895	3.6531e-05	1303.5	1.5889e-06	1.3518e-06	1070.5	402.94	1.4873e-06	1.3748e-06	353.39	116.48	119.6	42.916	1.3709e-06	52.579	169.607	-15.863	-0.280	-75.103	71.951	85.816	-75.734	-71.273	55.658	65.565	-72.242	-68.619	-67.363	-62.648	41.765	-64.268	-8191	255	
4282.846	1	1	0	0	0.11773	0.26816	0.16473	0.076159	0.18878	0.12323	0.18055	0.30024	0.20195	0.039982	0.24686	0.17465	0.16376	0.17656	0.071351	0.23691	-2.5479	-2.45	-2.3167	-3.0292	-2.2083	-2.6208	-2.9292	-2.3354	-2.9313	-2.5167	-2.5	-3.075	-2.5229	-2.8792	-2.8896	-2.5687	148.036	231.248	-51.726	152.227	64.215	-10.263	227.072	168.928	62.613	193.423	259.014	184.284	267.154	203.224	34.288	217.231	0.00017729	0.00061945	0.00014925	1266.6	3.6916e-06	4.0852e-06	1040.4	394.54	1.6973e-06	4.596e-06	348.81	114.16	115.98	42.494	2.8836e-06	51.811	0.00018683	0.0001254	3.3851e-05	1304	1.5156e-06	1.3441e-06	1076.5	406.2	1.5506e-06	1.2924e-06	358.32	118.56	121.16	43.922	1.4661e-06	53.517	171.611	-15.773	-1.957	-74.834	57.473	68.858	-75.728	-71.143	56.909	74.437	-72.499	-68.553	-67.138	-62.996	41.241	-63.971	-8191	255	
4282.942	1	1	0	0	0.14539	0.29842	0.042549	0.13151	0.025763	0.048989	0.10595	0.092728	0.083039	0.12108	0.12581	0.26246	0.17858	0.051705	0.042133	0.21107	-2.6792	-2.5438	-2.5417	-3.2854	-2.4625	-2.6646	-3.1125	-2.4042	-2.8021	-2.6333	-2.6	-3.1063	-2.325	-2.6958	-2.9396	-2.4875	103.371	204.598	235.409	228.107	245.877	241.020	112.429	262.547	8.529	261.180	37.103	-7.908	139.782	105.985	-49.492	239.803	0.00018095	0.00044319	0.00011706	1283.4	2.4455e-06	5.787e-06	1055.5	396.04	1.2315e-06	6.1746e-06	353.61	114.49	118.29	42.598	2.9707e-06	51.835	0.00018437	0.00012024	3.3864e-05	1320.6	1.5427e-06	1.3737e-06	1088.6	410.61	1.6009e-06	1.3567e-06	362.09	119.38	123.19	44.289	1.557e-06	53.546	171.119	-12.665	0.160	-74.673	62.350	60.437	-75.483	-71.274	44.076	55.035	-72.707	-68.748	-66.993	-62.577	55.274	-64.045	-8191	255	
4283.063	1	1	0	0	0.077364	0.12798	0.19195	0.11669	0.15895	0.10594	0.16092	0.01366	0.16176	0.10399	0.21802	0.15396	0.07776	0.090286	0.086682	0.22365	-2.5271	-2.9021	-2.2479	-3.1437	-2.4271	-2.6042	-3.3208	-2.2521	-2.7104	-2.7562	-2.3042	-3.0396	-2.6917	-2.7125	-2.8479	-2.475	242.331	-45.240	13.892	-25.590	-26.105	2.248	191.069	118.960	205.938	248.908	184.889	146.057	53.802	186.825	29.433	-46.798	0.00020271	0.0004242	0.00013483	1291.6	3.6693e-06	7.8754e-06	1057.8	399.27	2.3567e-06	5.6328e-06	349.78	113.47	117.96	42.571	5.2471e-06	51.266	0.00019588	0.00011216	3.8272e-05	1329.2	1.6572e-06	1.4677e-06	1090.9	412.69	1.6838e-06	1.3729e-06	361.05	118.45	122.88	44.182	1.4728e-06	53.151	179.865	-16.944	19.734	-74.952	61.104	71.295	-75.486	-70.971	39.913	55.422	-72.630	-68.713	-66.937	-62.566	38.900	-64.319	-8191	255	
4283.157	1	1	0	0	0.18061	0.19549	0.45399	0.23072	0.15515	0.16186	0.32329	0.45176	0.17725	0.24766	0.17261	0.26317	0.36407	0.23118	0.11127	0.082006	-2.3042	-2.7792	-2.2771	-3.1042	-2.4708	-2.3563	-3.1042	-2.5062	-2.6104	-2.8021	-2.3333	-3.0312	-2.7396	-2.4625	-3.0875	-2.4208	21.719	149.745	131.287	-63.451	-83.161	-48.607	215.023	206.125	159.107	182.058	241.547	217.288	252.560	5.042	-21.690	214.382	0.00016824	0.00058407	0.0001489	1279.3	2.1617e-06	5.7217e-06	1048.1	396.98	1.5307e-06	4.1123e-06	347.97	113.39	117.68	42.429	4.4055e-06	51.545	0.00019038	0.00013071	3.6364e-05	1317.7	1.6375e-06	1.2708e-06	1080.1	409.4	1.578e-06	1.3176e-06	359.11	118.14	122.12	44.038	1.4067e-06	53.398	169.854	-16.518	1.881	-74.638	29.862	51.923	-75.370	-70.982	44.848	66.766	-73.031	-68.488	-66.915	-62.784	57.823	-64.388	-8191	255	
4283.253	1	1	0	0	0.091844	0.049231	0.11474	0.11234	0.16259	0.31716	0.23393	0.077614	0.13942	0.21965	0.29183	0.30648	0.20377	0.14396	0.16199	0.10517	-2.1958	-2.8354	-2.2833	-3.0062	-2.7417	-2.3438	-3.1312	-2.6875	-2.5583	-2.7583	-2.5229	-2.85	-2.8292	-2.5208	-3.0062	-2.4562	-72.049	260.891	-1.570	212.074	185.656	108.241	196.076	150.000	-80.703	175.937	78.315	123.169	-80.986	-45.378	158.518	188.488	0.00016839	0.00047328	0.00014351	1276.1	2.8123e-06	5.9946e-06	1049.3	395.6	2.7488e-06	5.2361e-06	348.44	113.96	117.66	42.553	3.1059e-06	51.549	0.00018522	0.00012498	3.6685e-05	1314	1.5712e-06	1.3979e-06	1079.4	408.94	1.66e-06	1.2479e-06	359.1	118.44	122.37	44.013	1.4616e-06	53.549	184.193	-0.973	15.389	-74.957	43.945	63.348	-75.636	-71.247	40.519	74.528	-72.696	-68.665	-66.973	-62.793	73.604	-64.003	-8191	255	
4283.374	1	1	0	0	0.13798	0.065325	0.066624	0.13827	0.21419	0.24039	0.27542	0.14807	0.042455	0.31176	0.17185	0.15451	0.18953	0.11851	0.28499	0.25037	-2.1625	-3.0563	-2.2125	-2.9146	-2.6917	-2.2854	-3.1854	-2.5667	-2.4625	-3.1417	-2.4875	-2.7979	-2.8958	-2.4375	-2.8771	-2.6708	171.218	-50.714	29.042	249.845	28.803	-30.292	240.365	236.337	248.442	77.678	54.649	240.660	239.085	176.633	86.366	191.086	0.00019594	0.00071042	0.00016259	1280.7	3.6563e-06	5.5691e-06	1035.4	395.61	1.5439e-06	4.8382e-06	347.53	112.78	117.42	42.743	3.4829e-06	51.314	0.00019625	0.00012686	3.3771e-05	1313.6	1.5724e-06	1.3597e-06	1074.4	407.36	1.6069e-06	1.2391e-06	358.22	118.46	122.29	44.107	1.4356e-06	53.577	166.846	-6.921	-1.474	-74.958	40.762	80.972	-75.538	-71.162	43.369	69.749	-72.478	-68.515	-66.939	-62.563	56.609	-63.974	-8191	255	
4283.446	1	1	0	0	0.097903	0.18255	0.11126	0.1901	0.17774	0.19803	0.3428	0.10654	0.16093	0.12001	0.16418	0.21846	0.1601	0.19378	0.1623	0.1654	-2.0354	-2.9646	-2.4625	-2.9688	-2.9083	-2.4083	-3.0354	-2.7104	-2.3563	-2.9479	-2.5563	-2.8229	-2.8208	-2.4375	-2.9625	-2.8563	232.824	20.560	204.150	264.743	166.359	155.747	-82.228	184.862	-48.362	168.309	-78.045	260.354	220.883	242.591	193.706	207.951	0.00017414	0.00058304	0.00014072	1279.3	3.7485e-06	5.4731e-06	1043.6	392.85	2.8516e-06	4.8178e-06	344.98	113.6	117.35	42.316	3.538e-06	51.443	0.00018552	0.00011804	3.7241e-05	1309.6	1.4832e-06	1.4028e-06	1076.7	406.39	1.7336e-06	1.2521e-06	356.62	118.14	121.77	43.81	1.4874e-06	53.208	168.277	0.461	-5.065	-74.994	50.450	64.079	-75.346	-71.125	39.479	60.362	-72.705	-68.725	-66.996	-62.747	51.942	-64.225	-8191	255	
4283.542	1	1	0	0	0.19671	0.19421	0.14419	0.21189	0.16696	0.024413	0.22519	0.28701	0.090291	0.068608	0.27736	0.20283	0.037145	0.39543	0.12465	0.2211	-2.0542	-2.8958	-2.3917	-2.7771	-3.0812	-2.3979	-2.8729	-3	-2.4729	-3.1729	-2.7479	-2.6271	-3.125	-2.4562	-2.9521	-2.7875	211.198	223.107	198.137	244.296	35.656	117.016	230.582	194.279	18.013	248.087	234.197	207.251	28.957	-72.858	69.313	241.017	0.00019223	0.00055353	0.00013115	1280.2	4.7599e-06	5.2542e-06	1040.5	394.84	1.3405e-06	5.6667e-06	350.26	114.14	117.42	42.554	4.0762e-06	51.597	0.00019257	0.0001306	3.45e-05	1311	1.5522e-06	1.3101e-06	1078.1	408.29	1.6371e-06	1.3208e-06	359.38	118.99	122.43	44.081	1.479e-06	53.741	182.675	1.298	7.077	-74.932	39.319	66.431	-75.834	-71.183	1.711	62.810	-72.671	-68.630	-66.966	-62.496	63.844	-63.956	-8191	255	
4283.638	1	1	0	0	0.29291	0.19301	0.19004	0.22629	0.24086	0.15027	0.13968	0.18037	0.11612	0.28727	0.10647	0.17401	0.25965	0.28241	0.12907	0.075245	-1.9562	-3.0458	-2.6708	-2.675	-3.0875	-2.3042	-2.7771	-3.0333	-2.375	-3.0438	-2.7771	-2.5	-3.2438	-2.4375	-2.8063	-3.0667	241.227	-71.966	117.958	177.516	186.179	197.574	-42.715	196.142	35.084	63.858	155.001	240.220	245.633	188.228	59.826	126.091	0.00018425	0.00064587	0.00016481	1283	3.5264e-06	5.4837e-06	1049.9	397.08	1.1998e-06	3.8108e-06	350	115.69	118.58	42.862	3.4208e-06	52.161	0.00019816	0.00012733	3.5531e-05	1316.7	1.551e-06	1.3794e-06	1082.8	409.54	1.5446e-06	1.3379e-06	361.11	119.84	123	44.417	1.6033e-06	54.161	172.458	4.395	-16.463	-74.931	53.753	66.357	-75.484	-71.149	-8.767	64.403	-72.452	-68.532	-66.813	-62.500	58.980	-64.078	-8191	255	
4283.734	1	1	0	0	0.3017	0.065738	0.10127	0.073142	0.20047	0.22096	0.03442	0.55713	0.2346	0.098611	0.18377	0.17421	0.090319	0.068814	0.13027	0.10434	-1.8583	-2.9771	-2.5917	-2.3729	-3.0208	-2.4833	-2.9042	-2.9875	-2.4146	-3.0542	-2.8104	-2.5583	-3.2313	-2.5729	-2.6333	-3.2146	86.399	204.243	42.324	-56.845	243.872	-55.282	-63.911	244.981	170.605	106.883	265.555	114.599	-64.060	206.968	131.009	-46.619	0.00020941	0.0004485	0.00017551	1281.4	2.8362e-06	6.5872e-06	1053.3	401.03	2.7139e-06	5.9372e-06	352.68	115.29	119.14	42.893	4.3314e-06	52.129	0.00019496	0.00012751	3.8587e-05	1318.1	1.5455e-06	1.351e-06	1086.4	412.64	1.6597e-06	1.2963e-06	363.52	120.01	123.93	44.495	1.5098e-06	54.281	168.615	-0.558	0.169	-74.912	48.074	77.492	-75.963	-71.035	50.664	71.931	-72.432	-69.171	-66.680	-62.679	46.433	-64.120	-8191	255	
4283.855	1	1	0	0	0.13831	0.17216	0.13596	0.24212	0.1633	0.20701	0.24219	0.13075	0.14383	0.089273	0.33385	0.254	0.18408	0.098934	0.085806	0.11908	-1.9021	-2.8146	-2.7625	-2.4708	-2.8792	-2.4854	-2.8042	-2.9313	-2.375	-2.9396	-2.9292	-2.4437	-3.0958	-2.4625	-2.6292	-3.0146	180.944	218.673	193.227	269.902	195.863	146.581	191.071	156.904	-24.129	-2.472	231.274	184.040	238.669	233.777	53.752	95.690	0.00019655	0.00070584	0.0001215	1283.1	2.4505e-06	5.7797e-06	1055.4	398.35	1.5646e-06	3.8333e-06	348.76	113.94	118.44	43.095	4.0063e-06	52.127	0.00019185	0.00012031	3.6574e-05	1319.5	1.54e-06	1.333e-06	1088.9	412.2	1.6663e-06	1.258e-06	362.02	119.44	123.55	44.623	1.4838e-06	53.998	169.930	-16.679	-5.399	-75.047	13.138	89.799	-75.578	-70.727	27.955	64.707	-72.238	-68.773	-67.158	-62.386	35.183	-64.472	-8191	255	
4283.951	1	1	0	0	0.15023	0.093513	0.12398	0.29017	0.36088	0.26553	0.14053	0.29661	0.1875	0.25707	0.30882	0.18279	0.25816	0.03032	0.29843	0.18913	-2.0271	-2.7333	-2.8792	-2.5625	-2.8583	-2.7208	-2.6375	-3.3396	-2.4792	-2.7521	-3.1583	-2.3167	-3.0021	-2.8063	-2.4917	-2.9292	-52.202	169.818	192.689	234.354	64.606	221.521	193.799	228.235	-84.038	-87.035	246.697	204.595	249.484	-68.318	25.894	158.946	0.00018815	0.00057905	0.00012466	1282.1	4.2405e-06	5.2737e-06	1052.1	397.18	2.9355e-06	5.3991e-06	349.63	115.38	118.97	42.657	2.8504e-06	51.405	0.00019142	0.00013475	3.3074e-05	1318.7	1.5774e-06	1.2326e-06	1087.5	410.66	1.6985e-06	1.3854e-06	360.91	119.23	123.41	44.152	1.5148e-06	53.455	179.643	-8.109	21.139	-74.876	69.687	52.812	-75.754	-71.169	33.833	59.806	-72.513	-68.611	-66.795	-62.583	40.323	-64.080	-8191	255	
4284.047	1	1	0	0	0.11816	0.051375	0.18669	0.034697	0.044538	0.21892	0.19212	0.23275	0.15006	0.26289	0.18219	0.16012	0.32062	0.1777	0.21346	0.15191	-2.175	-2.6917	-2.9375	-2.4667	-2.825	-2.8542	-2.4437	-3.1646	-2.3937	-2.8521	-3.2125	-2.4646	-2.8979	-2.6271	-2.1979	-3.0792	57.619	245.301	82.971	14.964	116.757	-14.384	174.281	230.392	129.286	247.708	266.040	-36.375	244.636	252.560	210.943	22.891	0.00020196	0.00082773	0.00014179	1283.4	2.4864e-06	6.3713e-06	1046.7	396.67	3.4797e-06	3.0705e-06	349.74	114.05	118.12	42.94	4.2547e-06	51.78	0.00018816	0.00013631	3.4481e-05	1315.7	1.6044e-06	1.3589e-06	1080	409.27	1.6324e-06	1.3071e-06	360.65	119.19	122.92	44.482	1.6208e-06	53.965	170.342	2.903	3.239	-75.264	28.542	65.938	-75.632	-71.264	22.633	72.727	-72.678	-68.764	-67.144	-62.625	59.341	-64.161	-8191	255	
4284.143	1	1	0	0	0.067739	0.053382	0.24706	0.18008	0.10315	0.21109	0.096681	0.15226	0.10403	0.1325	0.14383	0.10442	0.27869	0.13984	0.10398	0.11673	-2.0667	-2.6583	-3.1042	-2.3021	-2.9188	-2.8229	-2.475	-2.9896	-2.5875	-2.6229	-3.2604	-2.4667	-2.9042	-2.9479	-2.2896	-2.9229	1.948	266.059	242.203	183.889	-65.263	38.296	128.644	130.931	143.465	33.741	230.121	153.475	-73.694	-10.908	38.232	-75.031	0.00021574	0.00063848	0.00013635	1277.7	1.8083e-06	4.6051e-06	1043.1	397.17	2.6274e-06	5.376e-06	351.7	116.71	119.65	43.285	2.9756e-06	53.164	0.00019059	0.00012729	3.3512e-05	1317.6	1.5278e-06	1.2792e-06	1084.7	411.96	1.6158e-06	1.3929e-06	363.54	121.3	124.01	44.989	1.4425e-06	55.098	177.927	-3.311	-0.938	-74.782	46.047	65.889	-75.751	-71.225	25.432	72.220	-72.297	-68.890	-66.744	-62.631	29.858	-64.147	-8191	255	
4284.238	1	1	0	0	0.076446	0.18959	0.17293	0.13562	0.081544	0.13366	0.074676	0.24857	0.13774	0.15818	0.2348	0.35404	0.010681	0.14008	0.1454	0.053513	-2.3042	-2.2583	-2.8792	-2.6562	-2.7625	-2.9771	-2.6958	-3.0979	-2.7062	-2.5792	-3.25	-2.4375	-2.5854	-2.9417	-2.3083	-2.9083	-54.149	-50.354	29.455	220.396	154.020	224.822	257.460	195.165	169.167	-51.978	163.617	216.777	82.724	187.532	120.420	31.611	0.00020727	0.0007598	0.00012358	1293.8	3.6432e-06	4.1735e-06	1059.2	401.66	2.3023e-06	4.741e-06	357.38	117.04	119.18	43.482	4.6018e-06	52.753	0.00018693	0.00012644	3.4407e-05	1328.2	1.5517e-06	1.2738e-06	1095.6	414.43	1.5481e-06	1.3773e-06	367.04	121.75	124.13	45.091	1.5563e-06	55.019	176.489	-12.795	2.014	-74.944	52.135	75.028	-75.598	-70.877	77.327	52.449	-72.124	-68.369	-67.294	-62.339	34.496	-64.234	-8191	255	
4284.334	1	1	0	0	0.052035	0.20476	0.14249	0.15757	0.24863	0.094881	0.059735	0.20338	0.19074	0.17005	0.022203	0.24592	0.24033	0.18917	0.24163	0.29935	-2.4562	-2.1562	-3.0438	-2.6937	-2.6229	-2.8646	-2.5771	-2.8417	-2.8187	-2.3708	-3.1292	-2.7708	-2.7313	-2.8937	-2.2375	-2.875	133.359	-60.310	168.591	236.423	11.611	96.362	225.826	258.777	93.488	119.028	63.727	257.561	269.406	56.568	-59.168	225.789	0.00017874	0.00046127	0.00011557	1297.3	2.1017e-06	5.2818e-06	1060.5	400.85	1.7022e-06	4.9944e-06	352.01	114.23	117.61	42.143	2.7945e-06	51.098	0.00018996	0.00013189	3.4166e-05	1333.3	1.6269e-06	1.3022e-06	1097	413.2	1.6618e-06	1.359e-06	364.49	119.33	122.15	43.766	1.6219e-06	53.243	180.566	-16.345	-1.803	-74.883	65.584	55.084	-75.580	-71.107	10.552	71.388	-72.015	-68.539	-66.948	-62.364	44.719	-64.235	-8191	255	
4284.454	1	1	0	0	0.085509	0.12516	0.05957	0.24848	0.11229	0.082124	0.097727	0.19032	0.25018	0.14037	0.13282	0.14008	0.12934	0.22563	0.14243	0.050355	-2.5083	-2.2938	-2.9083	-2.8187	-2.4604	-3.1583	-2.4583	-3.0417	-2.9188	-2.4	-2.975	-2.7521	-2.5833	-2.8958	-2.4042	-2.8396	-17.287	-59.020	116.439	182.359	15.999	-59.635	-87.728	210.629	102.878	-37.709	18.700	207.524	197.042	263.117	234.143	-23.600	0.00022295	0.00053038	0.0001341	1304.1	3.8408e-06	5.3224e-06	1066.1	400.88	2.5416e-06	5.2014e-06	350.96	112.44	115.2	41.321	3.953e-06	50.116	0.00019124	0.00013613	3.7747e-05	1344.6	1.7823e-06	1.4722e-06	1104	415.02	1.7207e-06	1.526e-06	362.13	116.99	119.88	42.887	1.5964e-06	52	168.760	-17.469	-6.031	-74.614	74.054	49.207	-75.688	-71.148	13.052	61.046	-72.235	-68.377	-67.002	-62.540	44.575	-64.206	-8191	255	
4284.551	1	1	0	0	0.12872	0.22819	0.054637	0.23962	0.16599	0.11969	0.33449	0.27679	0.12558	0.14507	0.23294	0.13266	0.19067	0.15538	0.099513	0.13069	-2.7583	-2.1896	-2.7729	-2.9021	-2.4521	-2.9	-2.6333	-2.725	-2.8167	-2.2	-2.8729	-2.8833	-2.3063	-3.1333	-2.4375	-2.8542	219.318	194.140	129.931	244.828	153.837	250.818	216.572	224.049	234.724	-21.410	269.805	-28.902	-57.498	13.494	153.213	191.928	0.00018745	0.00059615	0.00016085	1298.2	2.8675e-06	5.5068e-06	1063.7	399.34	2.4415e-06	4.3149e-06	344.68	111.26	113.85	41.025	3.141e-06	50.373	0.00019977	0.00014395	3.8673e-05	1334.7	1.8196e-06	1.4929e-06	1093.9	410.89	1.8258e-06	1.5786e-06	356.51	115.61	118.35	42.563	1.6632e-06	52.385	174.896	-4.398	-12.091	-74.796	46.721	65.761	-75.523	-71.084	20.849	60.668	-72.868	-68.336	-67.113	-62.221	42.898	-63.857	-8191	255	
4284.647	1	1	0	0	0.27114	0.045439	0.018002	0.2177	0.21516	0.25075	0.12969	0.37584	0.079256	0.059335	0.07881	0.34503	0.14158	0.21712	0.46259	0.31601	-2.6042	-2.2875	-2.6896	-2.8917	-2.3833	-3.1292	-2.7083	-2.5833	-3.1771	-2.3792	-3.1271	-2.875	-2.4333	-3.0354	-2.5792	-2.3917	175.383	71.738	47.828	-88.968	153.985	83.917	-39.519	215.863	167.883	122.647	-27.169	187.689	71.136	203.465	-52.306	-86.235	0.00018622	0.00059892	0.0001365	1269	3.4819e-06	5.6949e-06	1043.1	395.75	1.5067e-06	4.2728e-06	348.17	113.29	115.91	42.139	3.0377e-06	51.998	0.00019524	0.00013773	3.8278e-05	1306.6	1.6168e-06	1.4075e-06	1077.5	408.53	1.6294e-06	1.313e-06	360.22	117.74	120.39	43.822	1.5394e-06	53.805	168.171	1.320	0.079	-74.856	37.548	80.919	-75.477	-71.098	43.721	63.319	-72.414	-68.418	-67.197	-62.153	80.287	-64.362	-8191	255	
4284.743	1	1	0	0	0.11137	0.22688	0.1571	0.33405	0.14359	0.093959	0.13405	0.33709	0.085415	0.0063352	0.020721	0.1488	0.24181	0.31826	0.18498	0.073539	-2.6146	-2.3063	-2.8583	-3.1813	-2.3042	-3.0104	-2.8312	-2.6625	-3.0312	-2.4604	-2.8583	-2.9542	-2.3187	-3.0646	-2.5917	-2.5708	86.073	251.972	146.007	243.706	-51.066	39.706	176.064	248.194	4.696	-41.224	43.625	254.462	215.061	254.919	258.423	224.327	0.00018607	0.00063289	0.00011577	1278.4	2.754e-06	5.8301e-06	1045.2	397.24	2.5235e-06	4.3102e-06	346.24	112.77	114.85	41.691	3.5897e-06	50.76	0.00019351	0.00013673	3.629e-05	1316.5	1.7421e-06	1.3024e-06	1082.8	409	1.6983e-06	1.4538e-06	358.6	116.94	120.09	43.376	1.5783e-06	52.719	173.527	-16.262	-1.931	-74.957	43.210	55.292	-75.624	-71.037	31.157	71.514	-72.679	-68.909	-66.886	-62.450	55.279	-63.977	-8191	255	
4284.839	1	1	0	0	0.20211	0.19172	0.23388	0.19299	0.086464	0.061092	0.12089	0.1416	0.049768	0.39848	0.16646	0.30537	0.33182	0.1916	0.29255	0.11827	-2.6646	-2.375	-2.5521	-3.0854	-2.2583	-2.9771	-2.8563	-2.5042	-2.9479	-2.5146	-2.5521	-3.0354	-2.4792	-2.8854	-2.8292	-2.3229	218.790	24.001	181.398	166.866	187.943	-16.836	-9.228	270.747	144.140	-25.061	57.708	175.273	216.811	-53.545	123.990	154.439	0.00018421	0.00039241	0.00010392	1282	1.0518e-06	6.9899e-06	1052.3	394.86	1.7246e-06	5.5494e-06	345.99	111.71	115.17	41.329	2.7887e-06	50.268	0.00018748	0.00012882	3.6142e-05	1318.4	1.6434e-06	1.4867e-06	1084.2	408.95	1.6397e-06	1.4563e-06	357.48	115.81	120.01	43.11	1.5201e-06	52.369	173.163	2.960	5.027	-74.700	55.604	63.815	-75.568	-71.181	31.202	39.068	-72.667	-68.311	-67.054	-62.116	44.259	-63.956	-8191	255	
4284.935	1	1	0	0	0.063751	0.20408	0.22008	0.2437	0.12737	0.10556	0.41217	0.085453	0.16234	0.23005	0.19372	0.076911	0.14805	0.15595	0.25413	0.19874	-2.5042	-2.4917	-2.3604	-3.2646	-2.4083	-2.6729	-3.0583	-2.5458	-2.9562	-2.7292	-2.5021	-3.1813	-2.5812	-2.9167	-2.9625	-2.6146	142.724	-22.251	13.529	243.640	30.167	269.650	199.779	249.652	147.258	59.001	-84.469	-31.769	154.958	33.561	46.539	224.294	0.00016438	0.00048183	0.00010467	1283.5	3.4138e-06	5.6333e-06	1048.2	397.15	2.6958e-06	4.9186e-06	348.6	111.6	116.28	41.894	2.5608e-06	50.97	0.00018637	0.00013235	3.6562e-05	1320.1	1.6701e-06	1.4544e-06	1084.4	410.17	1.6927e-06	1.4174e-06	359.33	116.57	120.98	43.562	1.3989e-06	53.064	171.339	1.955	-1.464	-74.865	56.288	81.713	-75.681	-71.156	18.140	68.928	-72.844	-68.170	-67.034	-62.525	51.881	-63.953	-8191	255	
4285.031	1	1	0	0	0.12411	0.028297	0.22438	0.2319	0.29458	0.18522	0.18314	0.26863	0.054029	0.071728	0.24872	0.31143	0.26671	0.13809	0.14019	0.29411	-2.6	-2.7229	-2.3646	-3.3271	-2.4604	-2.7479	-3.2104	-2.5375	-2.9833	-2.7021	-2.4958	-3.2583	-2.5167	-2.6458	-3.0542	-2.3771	266.070	56.173	100.789	270.332	132.430	247.245	-83.601	265.366	-9.957	52.233	267.787	203.094	-73.324	152.334	-37.591	244.966	0.00018052	0.000574	0.00013247	1284.7	3.8336e-06	7.0946e-06	1051	398.66	1.7437e-06	5.3186e-06	349.41	113.41	116.3	41.849	3.0574e-06	51.292	0.00018673	0.00013095	3.5673e-05	1322.9	1.6441e-06	1.3308e-06	1086.3	411.93	1.5953e-06	1.3758e-06	360.57	117.54	121.29	43.554	1.4533e-06	53.121	175.871	-11.042	0.200	-74.858	45.666	74.609	-75.512	-71.041	23.745	57.159	-72.970	-68.694	-66.997	-62.610	72.882	-63.986	-8191	255	
4285.150	1	1	0	0	0.32119	0.218	0.17505	0.082274	0.21046	0.12563	0.2089	0.19794	0.15404	0.031426	0.20622	0.13456	0.1581	0.10984	0.27266	0.23854	-2.4604	-2.7146	-2.5458	-3.1667	-2.4458	-2.6833	-2.9708	-2.4042	-2.9625	-2.7917	-2.3583	-3.1	-2.5125	-2.4771	-2.9354	-2.3708	205.361	243.674	143.034	46.057	-61.203	-61.908	228.693	140.622	175.686	154.713	243.076	247.032	255.910	36.576	43.130	256.206	0.00021464	0.00043967	0.00013266	1283.1	1.8205e-06	6.1102e-06	1038.5	395.22	3.1164e-06	5.0486e-06	345.67	111.37	115.09	40.771	4.9415e-06	50.021	0.00018845	0.00013337	3.3944e-05	1316.1	1.5144e-06	1.3246e-06	1078.3	408.22	1.6495e-06	1.3179e-06	356.47	115.75	119.25	42.534	1.4578e-06	51.999	177.043	-3.700	10.401	-74.817	70.518	62.325	-75.444	-71.327	13.578	43.032	-72.371	-68.828	-66.969	-62.463	46.676	-63.954	-8191	255	
4285.246	1	1	0	0	0.2411	0.15084	0.10983	0.046942	0.14672	0.14429	0.28597	0.23741	0.17375	0.18796	0.28142	0.22803	0.21231	0.096955	0.1193	0.156	-2.2833	-2.7333	-2.3396	-3.2	-2.5646	-2.4792	-3.1708	-2.3125	-2.8354	-2.875	-2.3833	-2.9958	-2.7021	-2.5292	-3.0187	-2.6417	-32.875	162.508	-78.679	254.540	-84.228	262.323	203.100	204.769	257.245	-68.202	247.852	255.222	224.324	269.819	209.554	268.461	0.00019372	0.00049353	8.3445e-05	1258.6	2.8943e-06	8.2196e-06	1033.5	391.27	2.3439e-06	4.5713e-06	343.97	110.09	113.19	40.252	2.9199e-06	49.015	0.00018781	0.00012675	3.5691e-05	1297	1.4763e-06	1.3192e-06	1067	402.87	1.5679e-06	1.2298e-06	352.81	114.39	117.9	41.754	1.4294e-06	50.935	179.535	5.985	15.037	-75.060	40.189	72.770	-75.404	-70.835	23.872	66.619	-72.732	-68.957	-66.910	-62.514	49.199	-63.777	-8191	255	
4285.318	1	1	0	0	0.19217	0.12341	0.18247	0.035035	0.11968	0.22329	0.087376	0.16605	0.18984	0.14452	0.067618	0.21385	0.20592	0.39671	0.10869	0.28108	-2.2979	-3.0104	-2.2812	-3.2188	-2.9	-2.4125	-3.1375	-2.5625	-2.7854	-2.8896	-2.3812	-3.0062	-2.95	-2.6688	-3.2875	-2.7333	217.664	-38.433	164.102	222.310	-67.716	-50.242	-57.738	-71.455	-74.013	255.191	269.976	-84.621	95.165	185.018	65.584	147.898	0.00016974	0.00051444	0.0001308	1260.6	3.1017e-06	6.0151e-06	1034.6	389.34	1.57e-06	2.9082e-06	342.5	109.24	113.74	40.337	2.4984e-06	48.823	0.00017966	0.0001182	3.621e-05	1298.1	1.5802e-06	1.2926e-06	1068.9	401.6	1.6156e-06	1.1252e-06	352.66	114.2	117.86	41.695	1.4268e-06	50.7	177.677	5.089	-13.272	-74.709	39.644	62.538	-75.521	-71.174	20.500	55.986	-72.590	-68.670	-67.300	-62.145	48.155	-63.981	-8191	255	
4285.416	1	1	0	0	0.14152	0.14535	0.047635	0.27335	0.047394	0.16475	0.094264	0.15137	0.090465	0.18272	0.23029	0.32561	0.32181	0.25871	0.14014	0.06092	-2.2438	-3.1063	-2.1958	-2.9271	-2.7958	-2.5812	-3.1229	-2.7979	-2.5062	-3	-2.3937	-2.8063	-3.1042	-2.3875	-3.0375	-2.7979	-49.668	249.438	63.916	254.750	197.017	200.736	-17.835	188.767	267.974	197.128	185.167	218.331	79.286	198.755	127.082	-50.910	0.00020239	0.00065446	0.00014146	1267.1	1.5433e-06	6.0672e-06	1036.5	391.27	1.9805e-06	3.2636e-06	344.59	110.02	113.49	40.561	3.4122e-06	49.704	0.00018152	0.00012964	3.3814e-05	1300.5	1.5292e-06	1.4023e-06	1071.5	403.72	1.6845e-06	1.2807e-06	354.8	114.63	118.44	42.048	1.4234e-06	51.439	176.172	-7.619	-5.046	-74.768	51.809	69.523	-75.769	-70.963	54.249	53.458	-72.489	-68.666	-67.158	-62.353	49.954	-64.145	-8191	255	
4285.535	1	1	0	0	0.18013	0.16558	0.16629	0.20287	0.30625	0.11111	0.13759	0.27713	0.12685	0.1296	0.11253	0.12872	0.25668	0.084242	0.16088	0.13319	-2.1167	-3.0271	-2.4688	-2.8417	-2.8125	-2.3229	-3.1729	-2.8979	-2.4146	-3.0771	-2.4188	-2.8354	-2.9583	-2.5	-3.0167	-2.7917	-58.519	57.920	-51.682	189.616	123.900	158.884	66.551	210.407	202.874	125.576	179.071	227.881	29.363	-64.674	254.698	100.732	0.00014602	0.00045351	0.00010843	1263.1	2.9299e-06	5.5308e-06	1042.2	393.45	1.8891e-06	4.828e-06	344.44	110.87	115	41.035	1.8502e-06	49.909	0.00018799	0.00011562	3.5858e-05	1303	1.4885e-06	1.3108e-06	1073	405.75	1.5794e-06	1.2897e-06	356.58	116.2	119.85	42.565	1.4148e-06	51.786	173.802	-22.735	10.092	-74.954	45.242	68.144	-75.724	-70.913	17.156	84.969	-72.479	-68.781	-66.839	-62.343	70.255	-64.157	-8191	255	
4285.631	1	1	0	0	0.10158	0.33452	0.093037	0.13971	0.12076	0.22505	0.34013	0.034542	0.12143	0.17801	0.19288	0.099504	0.13414	0.17291	0.085141	0.12223	-1.8042	-3.1104	-2.4188	-2.6979	-3.1063	-2.3083	-2.9875	-2.9188	-2.2687	-2.8667	-2.5792	-2.7271	-3.0729	-2.5896	-2.8563	-2.8979	151.176	-24.197	19.782	223.637	20.044	106.942	165.079	131.886	72.274	158.917	231.284	-86.558	40.782	217.422	211.331	192.886	0.00018486	0.0004623	0.00012486	1268.6	2.4878e-06	7.1747e-06	1040.5	392.82	2.5575e-06	3.4908e-06	346.84	110.93	114.77	40.571	2.8741e-06	49.215	0.00018701	0.00012133	3.2431e-05	1304	1.5266e-06	1.3629e-06	1074.7	405.74	1.6576e-06	1.2968e-06	356.32	115.47	119.4	42.16	1.4964e-06	51.107	177.411	-11.934	12.259	-74.916	22.808	72.018	-75.608	-70.978	32.141	60.464	-72.638	-68.622	-66.825	-62.842	62.865	-64.142	-8191	255	
4285.727	1	1	0	0	0.091862	0.20641	0.11115	0.25612	0.083361	0.12121	0.32835	0.26531	0.34249	0.15963	0.13499	0.1277	0.1612	0.2202	0.24097	0.15475	-2.0563	-2.95	-2.6417	-2.6167	-2.9583	-2.4562	-2.9875	-3.0792	-2.4396	-3.0438	-2.6937	-2.5187	-3.0146	-2.6375	-2.7729	-3.0583	240.652	64.813	85.992	253.790	141.629	243.823	164.887	199.581	149.956	37.092	-65.816	259.389	247.459	136.748	153.837	202.136	0.00017023	0.00070658	0.00016013	1267.2	2.6671e-06	3.8788e-06	1036.7	395.13	2.1182e-06	5.0487e-06	343.86	110.04	114.54	40.778	2.6469e-06	49.032	0.00018933	0.00012586	3.6173e-05	1307.7	1.5029e-06	1.337e-06	1074.2	406.32	1.6833e-06	1.266e-06	354.73	114.67	119.34	42.261	1.4819e-06	50.965	176.720	-14.556	-9.162	-75.167	52.983	69.617	-75.540	-70.958	50.456	76.075	-72.685	-68.335	-66.864	-62.348	55.640	-63.964	-8191	255	
4285.848	1	1	0	0	0.12273	0.26283	0.20116	0.13163	0.040204	0.12981	0.24528	0.28224	0.2435	0.19079	0.1204	0.20967	0.096949	0.053597	0.26302	0.24747	-1.9167	-3.0146	-2.6625	-2.5958	-3.0687	-2.4813	-2.5979	-3.1646	-2.4188	-2.8479	-2.7792	-2.525	-3.0375	-2.5979	-2.6771	-3.0375	180.632	-81.455	-13.007	-56.017	229.630	115.155	94.715	221.977	-42.568	134.974	261.606	196.275	208.830	21.598	124.794	-12.674	0.00015166	0.00071467	0.00011451	1270.3	3.4337e-06	7.1469e-06	1031.1	392.72	1.8413e-06	4.3587e-06	342.42	110.22	113.68	40.191	3.564e-06	49.121	0.00019759	0.00012364	3.7525e-05	1303.2	1.5126e-06	1.3787e-06	1067.3	405.07	1.6266e-06	1.3108e-06	354.05	114.52	118.65	41.88	1.4695e-06	50.882	172.464	-2.030	10.022	-74.867	47.776	72.087	-75.748	-71.157	27.899	53.730	-72.637	-68.730	-67.033	-62.597	41.475	-63.906	-8191	255	
4285.942	1	1	0	0	0.18718	0.15038	0.078084	0.29017	0.18145	0.16076	0.15454	0.16581	0.12895	0.17169	0.12396	0.40231	0.055826	0.32887	0.22484	0.33042	-1.925	-2.9583	-2.6479	-2.5375	-3.1521	-2.6542	-2.5812	-3.0708	-2.2708	-2.7021	-2.9646	-2.6063	-3.0521	-2.6937	-2.4729	-3.1625	107.731	207.865	116.892	269.291	-60.601	44.708	-86.888	127.142	15.311	143.119	102.994	256.793	216.143	224.678	197.957	170.396	0.0001656	0.00064388	0.00010387	1262.3	1.8706e-06	4.7925e-06	1036.4	392.28	1.3076e-06	5.5848e-06	344.16	109.76	114.43	40.498	3.1097e-06	49.232	0.00018462	0.00012582	3.358e-05	1300.4	1.5349e-06	1.2647e-06	1068.4	404.23	1.7018e-06	1.4194e-06	353.53	114.55	118.55	41.922	1.4945e-06	51.086	169.323	-6.771	-11.512	-74.981	36.076	76.018	-75.525	-71.090	66.496	64.426	-72.486	-68.237	-66.645	-62.213	58.829	-64.011	-8191	255	
4286.016	1	1	0	0	0.090094	0.048294	0.28912	0.096668	0.10753	0.16817	0.15877	0.16996	0.11043	0.060376	0.21639	0.079664	0.085011	0.27163	0.11068	0.1256	-2.1396	-2.7958	-2.7396	-2.5396	-3.0729	-2.6792	-2.6042	-3.1729	-2.3187	-2.675	-2.9729	-2.5083	-3.0479	-2.7292	-2.3146	-3.125	226.533	196.966	-78.114	-67.952	43.213	255.651	184.735	134.280	195.613	-37.976	191.647	254.647	-57.128	215.696	235.410	172.787	0.00018241	0.00070069	0.00012303	1256.8	2.8508e-06	6.8974e-06	1027	390.42	1.5195e-06	4.3368e-06	341.98	109.85	113.41	40.037	3.2345e-06	48.65	0.0001901	0.00012864	3.3981e-05	1290.9	1.5172e-06	1.1458e-06	1063.2	401.3	1.5563e-06	1.3137e-06	352.59	114.22	117.6	41.577	1.3967e-06	50.518	169.641	-18.560	2.162	-75.033	41.020	82.756	-75.567	-70.996	10.334	80.159	-72.261	-68.783	-67.035	-62.335	90.324	-63.938	-8191	255	
4286.136	1	1	0	0	0.19726	0.21132	0.32829	0.28929	0.21506	0.19572	0.014892	0.33403	0.13977	0.2004	0.074336	0.27683	0.18977	0.18916	0.12076	0.14019	-1.9854	-2.5833	-2.7729	-2.5	-3.1417	-2.6271	-2.6688	-3.325	-2.4688	-2.5979	-3.0021	-2.4437	-2.8479	-2.9208	-2.4271	-3.1271	180.058	-5.808	66.546	267.091	248.661	-2.223	202.178	238.158	-44.463	229.908	83.851	238.755	159.918	265.406	44.006	197.928	0.00016214	0.00051847	0.00013978	1253	3.6097e-06	5.0876e-06	1029.7	387.43	2.2481e-06	5.4574e-06	342.81	108.25	112.41	39.893	2.9192e-06	48.702	0.00017545	0.00012626	3.3777e-05	1289.1	1.5611e-06	1.2457e-06	1063.6	399.94	1.723e-06	1.3748e-06	351.58	113.42	117.39	41.432	1.3788e-06	50.478	177.318	5.432	-23.464	-74.740	40.472	75.290	-75.789	-70.983	14.776	54.743	-72.415	-68.509	-66.927	-62.641	57.922	-64.113	-8191	255	
4286.231	1	1	0	0	0.22015	0.19136	0.13952	0.21257	0.032216	0.21511	0.25906	0.40108	0.097733	0.097067	0.066173	0.35618	0.122	0.3244	0.077259	0.21392	-2.1729	-2.6542	-2.7896	-2.5312	-2.6354	-2.8125	-2.3375	-3.1042	-2.5125	-2.5021	-3.1188	-2.3917	-2.9188	-2.8771	-2.325	-3.075	109.488	55.707	165.375	-69.717	68.082	-88.201	-53.751	265.575	267.137	242.905	122.296	266.019	204.983	265.995	257.837	145.983	0.00017664	0.00059614	0.00013419	1259.6	2.7263e-06	4.4199e-06	1026.5	389.94	2.7036e-06	2.8855e-06	340.12	109.08	113.73	40.156	2.5991e-06	48.815	0.00018207	0.00012135	3.2753e-05	1293.7	1.6136e-06	1.3051e-06	1063.6	402.11	1.5647e-06	1.3083e-06	352.73	114.04	118.37	41.748	1.4936e-06	50.589	169.847	-20.816	-2.328	-74.937	54.149	59.240	-75.888	-71.023	61.232	54.191	-72.236	-68.506	-67.009	-62.422	44.004	-64.222	-8191	255	
4286.327	1	1	0	0	0.18098	0.076494	0.1962	0.23263	0.19583	0.16694	0.15985	0.39561	0.0629	0.15616	0.30268	0.21981	0.10263	0.053044	0.12965	0.063977	-2.2333	-2.3146	-2.9708	-2.5417	-2.6542	-2.9771	-2.5729	-3.1292	-2.6542	-2.5312	-3.0167	-2.4958	-2.7875	-2.9542	-2.3458	-2.9542	33.916	7.891	94.196	-83.192	-30.934	137.960	244.824	210.457	155.434	-52.717	-88.356	118.948	-22.107	186.623	4.856	-81.225	0.00020117	0.00074127	0.0001172	1256.4	2.4427e-06	5.2647e-06	1021.1	389.68	1.3626e-06	5.6158e-06	343.1	109.18	114.03	40.088	3.3581e-06	48.703	0.00018152	0.00013802	3.3191e-05	1296.5	1.5862e-06	1.2462e-06	1060.8	401.17	1.6478e-06	1.4039e-06	352.18	113.93	117.96	41.499	1.4998e-06	50.501	178.644	-6.260	-17.643	-74.894	31.462	69.715	-75.780	-70.958	81.735	61.170	-72.463	-68.509	-66.814	-62.249	48.343	-63.831	-8191	255	
4286.447	1	1	0	0	0.15264	0.18152	0.23231	0.071868	0.13293	0.1562	0.29026	0.22868	0.26228	0.3116	0.13397	0.053946	0.20126	0.12048	0.083771	0.3593	-2.3354	-2.2771	-3.0375	-2.45	-2.4896	-2.9333	-2.3021	-2.9396	-2.7271	-2.3708	-2.8958	-2.6375	-2.6854	-3.0458	-2.3333	-2.7229	134.112	42.092	-80.710	-69.353	152.737	259.589	219.186	211.738	252.093	206.257	157.563	232.600	177.496	260.701	197.998	247.150	0.00019775	0.00056962	0.00011394	1261.6	3.0168e-06	6.3479e-06	1029.1	387.79	8.7486e-07	4.6769e-06	344.55	109.32	113.62	40.295	4.3094e-06	48.871	0.00018753	0.00013197	3.1981e-05	1296.6	1.563e-06	1.2758e-06	1063.5	400.8	1.5369e-06	1.3059e-06	354.17	114.18	118.71	41.856	1.4812e-06	50.79	168.488	-17.303	1.725	-75.023	67.374	84.142	-75.791	-71.193	29.779	40.890	-72.847	-68.856	-66.865	-62.526	48.102	-63.872	-8191	255	
4286.544	1	1	0	0	0.23753	0.12527	0.060474	0.089619	0.25674	0.17544	0.10597	0.1777	0.078	0.33962	0.20749	0.19756	0.15274	0.17458	0.40758	0.12691	-2.3042	-2.2021	-3.0646	-2.6312	-2.5812	-2.9375	-2.5479	-2.9542	-2.8604	-2.3979	-2.9583	-2.6167	-2.6854	-3.0583	-2.5146	-2.6479	33.139	47.760	108.130	-50.062	-49.119	-0.861	142.541	192.165	266.598	128.941	-31.151	-36.068	230.583	237.294	230.422	23.427	0.0001804	0.00055071	8.414e-05	1267.2	2.2209e-06	5.8945e-06	1036.9	392.74	2.0736e-06	4.7434e-06	345.1	110.23	113.91	40.537	3.4101e-06	48.75	0.00018399	0.00013184	3.3506e-05	1303.8	1.6306e-06	1.2551e-06	1073.5	405.8	1.6378e-06	1.4438e-06	356.7	115.2	119.24	42.126	1.5649e-06	50.707	174.296	14.143	1.611	-74.713	63.171	81.445	-75.571	-70.955	12.201	58.500	-72.585	-68.384	-66.912	-62.277	51.327	-64.237	-8191	255	
4286.615	1	1	0	0	0.026265	0.064534	0.061288	0.18069	0.13894	0.11133	0.10307	0.13348	0.12535	0.23601	0.12962	0.088663	0.24723	0.22595	0.10236	0.19999	-2.6375	-2.1813	-2.7146	-2.6625	-2.4625	-2.925	-2.4938	-2.7833	-2.9604	-2.3229	-3.0958	-2.7812	-2.3917	-3.0146	-2.45	-2.6333	7.551	213.891	-18.079	261.651	217.334	249.113	233.744	234.833	17.187	-67.694	193.676	227.419	98.912	224.858	52.387	111.634	0.00020282	0.00058113	0.00010691	1275.1	2.9998e-06	7.6206e-06	1039.6	391.9	1.8723e-06	3.0054e-06	340.94	110.2	114.42	40.669	1.6644e-06	48.747	0.00018557	0.00013766	3.2851e-05	1311.8	1.6262e-06	1.3912e-06	1072	405.1	1.6105e-06	1.3526e-06	353.35	114.47	118.95	42.115	1.5695e-06	50.709	168.223	-32.923	-19.489	-74.684	46.970	84.019	-75.354	-71.231	17.540	67.281	-72.724	-68.722	-67.130	-62.477	54.336	-64.338	-8191	255	
4286.711	1	1	0	0	0.10589	0.31624	0.22864	0.36774	0.21651	0.15624	0.21622	0.14517	0.24881	0.30412	0.072642	0.072629	0.17879	0.21514	0.22462	0.17007	-2.475	-2.3667	-2.9292	-3.0646	-2.2583	-3.1125	-2.7208	-2.6729	-3.1	-2.4917	-2.9125	-2.9125	-2.5125	-3.0375	-2.6896	-2.6333	137.405	18.859	91.176	241.277	70.079	235.392	202.520	140.278	225.413	-33.138	-81.810	134.475	242.036	231.083	94.937	203.176	0.00018723	0.00051333	0.00013408	1271.5	2.6137e-06	4.3475e-06	1039	391.36	2.0894e-06	3.454e-06	346.92	109.82	115.09	40.835	1.8745e-06	48.99	0.0001783	0.00012864	3.5574e-05	1307.6	1.5296e-06	1.2679e-06	1072.1	405.53	1.4883e-06	1.3262e-06	355.69	114.84	119.66	42.266	1.5194e-06	50.804	172.805	11.528	-25.197	-74.912	36.625	55.590	-75.612	-71.337	11.946	68.725	-72.571	-68.890	-67.060	-62.363	31.074	-64.033	-8191	255	
4286.832	1	1	0	0	0.18392	0.14458	0.052785	0.10959	0.16762	0.045402	0.12022	0.3956	0.09141	0.098731	0.094464	0.17146	0.26188	0.15978	0.20914	0.22614	-2.7625	-2.2333	-2.6437	-3.1417	-2.4042	-3.0292	-2.8042	-2.6854	-3.0542	-2.5521	-2.8125	-2.95	-2.225	-3.0417	-2.4604	-2.4875	-86.107	156.073	147.111	152.768	-20.382	166.211	126.392	269.074	62.593	-40.955	76.952	-72.195	-21.942	141.740	76.991	-78.086	0.0001534	0.00053409	8.9409e-05	1278.5	3.3176e-06	4.7013e-06	1030.6	392.37	1.9086e-06	6.4147e-06	341.89	109.67	114.24	40.248	3.662e-06	48.424	0.00018837	0.00013617	3.3203e-05	1311	1.7032e-06	1.2699e-06	1073.4	406.4	1.6119e-06	1.3734e-06	354.54	114.76	118.99	41.973	1.4595e-06	50.635	166.866	-19.676	6.261	-74.788	57.781	71.763	-75.552	-71.109	59.406	65.914	-72.311	-68.605	-66.739	-62.289	56.695	-64.024	-8191	255	
4286.928	1	1	0	0	0.23516	0.19131	0.28416	0.13593	0.077879	0.17012	0.093053	0.17731	0.022757	0.16978	0.14703	0.23258	0.13665	0.1796	0.17913	0.22732	-2.6292	-2.6	-2.5229	-3.0792	-2.325	-2.9875	-2.8917	-2.6604	-2.9813	-2.3458	-2.7229	-3.0208	-2.3479	-2.8083	-2.7313	-2.4083	155.795	-8.678	-6.915	180.624	3.578	184.557	38.808	149.896	119.970	28.901	9.856	30.197	82.793	197.594	189.940	-76.437	0.00018683	0.00033553	0.00012755	1258	3.8476e-06	6.3973e-06	1024.1	387.85	2.2085e-06	3.7808e-06	342.24	108.59	112.8	40.198	3.0874e-06	48.444	0.00017809	0.00013084	3.5734e-05	1294.2	1.6101e-06	1.4221e-06	1063.4	400.87	1.6674e-06	1.3567e-06	351.3	113.56	117.35	41.543	1.4203e-06	50.322	172.026	4.083	8.788	-74.811	65.789	87.058	-75.246	-71.360	27.999	64.619	-72.626	-68.590	-66.739	-62.559	58.488	-63.825	-8191	255	
4287.024	1	1	0	0	0.25101	0.068554	0.21658	0.21721	0.14137	0.052774	0.3218	0.074419	0.19402	0.12263	0.052152	0.14006	0.18818	0.21975	0.21885	0.11406	-2.5042	-2.5104	-2.3958	-3.1958	-2.3583	-2.7562	-2.9375	-2.3958	-3.0667	-2.5667	-2.5667	-2.9708	-2.4	-2.9437	-2.9	-2.3063	31.860	-84.321	236.197	232.519	-54.885	256.287	224.929	-67.728	257.556	30.985	195.400	207.923	26.905	176.018	44.038	-87.712	0.00015885	0.00047964	0.00015888	1251.2	3.4716e-06	3.4353e-06	1020.7	385.54	1.5903e-06	4.7673e-06	337.78	108.97	111.8	39.532	2.895e-06	47.633	0.00017343	0.0001216	3.5488e-05	1283.6	1.5501e-06	1.2701e-06	1056.2	397.56	1.5343e-06	1.377e-06	348.93	113.11	116.84	40.992	1.3507e-06	49.46	179.503	2.404	1.225	-74.742	84.844	81.960	-75.866	-71.015	34.616	53.063	-72.743	-68.772	-66.764	-62.068	47.769	-64.292	-8191	255	
4287.119	1	1	0	0	0.35468	0.28252	0.12913	0.23378	0.40404	0.39893	0.25535	0.32995	0.1704	0.10375	0.26974	0.11533	0.10498	0.13676	0.196	0.20327	-2.6042	-2.3958	-2.3021	-3.1979	-2.4	-2.5625	-3.025	-2.2854	-2.9521	-2.7542	-2.5479	-2.9604	-2.4292	-2.6063	-2.8812	-2.4562	-9.082	117.369	239.034	258.480	162.144	-7.572	255.958	266.413	155.415	249.549	223.397	173.038	-53.929	195.683	257.636	218.806	0.00020261	0.00044643	0.00014041	1254.1	2.7056e-06	4.9232e-06	1024.5	386.29	1.5695e-06	6.2084e-06	337.26	107.59	111.92	39.309	2.5855e-06	47.48	0.00017816	0.000121	3.7142e-05	1289.6	1.5993e-06	1.354e-06	1060.1	398.23	1.6154e-06	1.3685e-06	348.93	112.52	116.82	40.722	1.4029e-06	49.21	177.786	-15.700	5.238	-74.755	30.085	82.206	-75.502	-71.158	8.927	59.470	-72.560	-68.044	-66.794	-62.356	68.379	-64.079	-8191	255	
4287.215	1	1	0	0	0.046464	0.12054	0.15249	0.15059	0.23876	0.17775	0.1218	0.25432	0.031554	0.17083	0.13479	0.32024	0.26889	0.11956	0.16621	0.026053	-2.3375	-2.6333	-2.3042	-3.2438	-2.2583	-2.6708	-3.1125	-2.4417	-2.75	-2.5854	-2.4646	-2.8167	-2.6188	-2.6333	-3.0625	-2.35	259.166	20.966	197.660	271.061	38.927	234.259	238.502	247.173	46.156	110.293	27.531	171.807	227.286	116.668	-61.559	2.634	0.00016567	0.00049859	0.00013038	1240.8	4.225e-06	6.3408e-06	1018.8	383.34	1.8083e-06	5.1255e-06	338.61	108.22	111.07	39.048	2.6009e-06	47.181	0.00017792	0.00012513	3.3821e-05	1280.8	1.6478e-06	1.3767e-06	1053.4	395.55	1.5502e-06	1.2861e-06	348.31	112.63	115.93	40.693	1.3893e-06	49.209	161.512	-12.882	-7.091	-74.791	55.853	64.398	-75.778	-70.644	34.831	66.105	-72.582	-68.550	-66.638	-62.355	40.745	-64.177	-8191	255	
4287.311	1	1	0	0	0.068794	0.071353	0.031665	0.2549	0.16562	0.13962	0.069927	0.039092	0.24766	0.19189	0.15957	0.13438	0.13255	0.16733	0.19189	0.17351	-2.1708	-2.7625	-2.2333	-3.0854	-2.4854	-2.5167	-2.9729	-2.3875	-2.7542	-2.8667	-2.5021	-3.05	-2.7979	-2.5	-3.0083	-2.4437	208.885	55.216	220.510	-84.965	49.095	75.772	184.630	35.672	169.311	33.406	7.574	203.595	194.665	170.321	243.126	165.113	0.0001566	0.00041992	0.000126	1254.1	2.8073e-06	6.4588e-06	1023.7	385.75	1.5231e-06	4.3863e-06	339.1	108.32	112.1	39.333	3.1405e-06	47.475	0.00018607	0.00012264	3.6753e-05	1291.5	1.5595e-06	1.4223e-06	1059.6	398.19	1.6574e-06	1.2956e-06	349.8	112.93	116.64	40.864	1.4113e-06	49.495	169.182	-21.746	3.676	-74.749	76.073	48.572	-75.723	-70.998	37.726	62.314	-72.597	-68.655	-66.651	-62.397	61.330	-64.101	-8191	255	
4287.407	1	1	0	0	0.21091	0.17735	0.24017	0.41851	0.38586	0.23774	0.22828	0.31191	0.14329	0.16199	0.11813	0.2364	0.33533	0.29655	0.10202	0.34686	-2.3229	-2.775	-2.3104	-3.0458	-2.7792	-2.375	-3.1792	-2.5292	-2.5083	-2.9062	-2.425	-2.9562	-2.6562	-2.3583	-2.8521	-2.5021	33.505	8.239	4.755	264.285	267.207	105.881	138.497	190.396	34.766	203.809	-81.515	132.251	191.948	-33.427	131.806	260.302	0.00017319	0.00051132	0.00012667	1258.4	2.7885e-06	4.8658e-06	1028.5	391.14	3.6706e-06	5.4723e-06	343.07	108.7	113.2	39.961	2.8773e-06	48.04	0.00017892	0.00012773	3.671e-05	1294	1.5947e-06	1.4438e-06	1067	402.37	1.7011e-06	1.3839e-06	353.54	113.74	118.06	41.445	1.4595e-06	49.997	175.721	-11.684	11.960	-74.799	75.303	52.877	-75.669	-70.743	20.011	50.537	-72.793	-68.693	-66.907	-62.263	72.253	-64.147	-8191	255	
4287.528	1	1	0	0	0.24477	0.1264	0.30699	0.37922	0.10747	0.15448	0.28751	0.12351	0.10225	0.06734	0.16197	0.19672	0.10205	0.17555	0.1869	0.055517	-1.9937	-3.0208	-2.1125	-3.0563	-2.8146	-2.2833	-3.2958	-2.7062	-2.5125	-2.9854	-2.3896	-2.6917	-2.9313	-2.4354	-2.8833	-2.6042	-4.520	78.340	36.777	236.606	77.698	176.415	186.879	177.074	181.465	-29.056	82.569	269.308	163.766	9.561	221.936	180.742	0.00017789	0.00044994	0.00012252	1261	3.3891e-06	4.6641e-06	1034.1	390.17	1.7324e-06	2.3654e-06	342.35	108.89	113.7	40.047	4.1187e-06	48.009	0.00018355	0.00012304	3.7124e-05	1299.9	1.5894e-06	1.4213e-06	1070.3	403.99	1.6119e-06	1.2362e-06	353.79	113.71	118.71	41.625	1.5375e-06	50.138	186.450	-14.019	1.123	-74.673	62.027	63.767	-75.625	-70.970	34.671	76.915	-72.614	-68.730	-67.132	-62.486	72.536	-64.034	-8191	255	
4287.622	1	1	0	0	0.26855	0.096221	0.1677	0.172	0.079024	0.30424	0.11671	0.36021	0.16676	0.20134	0.20781	0.051865	0.18352	0.17008	0.097508	0.052734	-1.8667	-3.0062	-2.2396	-2.8083	-2.6167	-2.2958	-2.8812	-2.5354	-2.3083	-3.0958	-2.45	-2.6792	-2.9667	-2.4125	-2.7938	-2.9167	-27.813	197.624	263.879	213.487	-40.526	77.230	-72.897	216.191	241.475	209.072	170.609	240.950	176.057	172.768	-66.033	35.089	0.00018272	0.00062258	0.00014373	1261.3	1.73e-06	6.2164e-06	1030.5	391.59	2.1511e-06	5.2949e-06	345.1	109.85	114.49	40.355	1.4362e-06	48.476	0.00018632	0.00012395	3.7198e-05	1299.6	1.5625e-06	1.3429e-06	1066.6	404.51	1.6025e-06	1.3316e-06	354.06	113.98	119.08	41.815	1.4621e-06	50.414	175.500	2.975	-15.078	-74.995	62.806	62.011	-75.643	-71.175	42.932	56.503	-72.669	-68.694	-67.194	-62.596	38.592	-63.812	-8191	255	
4287.718	1	1	0	0	0.13034	0.26282	0.10598	0.086973	0.17588	0.062737	0.2016	0.25487	0.049291	0.06504	0.041153	0.27914	0.18025	0.20209	0.15918	0.37342	-1.9813	-3.0854	-2.4896	-2.6042	-2.9458	-2.2708	-2.8083	-2.85	-2.4458	-2.9958	-2.7	-2.5312	-3.0146	-2.4271	-2.5521	-2.9917	-38.509	-41.302	223.652	-87.707	-14.985	206.070	245.990	174.645	12.046	238.725	175.053	-55.667	106.211	213.500	209.453	212.973	0.00017121	0.00051161	0.00012939	1273.2	2.094e-06	6.6225e-06	1044.2	396.13	2.3237e-06	3.607e-06	347.59	109.72	114.53	40.844	4.6242e-06	48.657	0.00019232	0.00012589	3.5401e-05	1311.2	1.5271e-06	1.4324e-06	1077	409.21	1.6518e-06	1.2985e-06	357.98	114.49	119.84	42.241	1.4774e-06	50.636	180.139	-21.089	7.873	-74.944	49.270	39.427	-75.781	-70.910	27.943	71.316	-72.650	-68.844	-66.615	-62.540	46.869	-64.065	-8191	255	
4287.814	1	1	0	0	0.15177	0.17376	0.11532	0.15364	0.15831	0.10422	0.14944	0.14208	0.118	0.30068	0.14898	0.078343	0.17622	0.2584	0.086686	0.22105	-1.9042	-2.9542	-2.45	-2.5292	-2.8854	-2.4062	-2.7854	-2.8146	-2.2333	-2.8271	-2.4188	-2.5271	-3.2021	-2.4729	-2.6292	-3.0271	-52.647	-41.148	186.553	-80.509	191.381	147.461	203.094	140.445	-57.659	215.209	152.382	-59.504	229.333	101.909	65.428	204.320	0.00015117	0.00059735	0.00010909	1271.1	3.5578e-06	5.2063e-06	1037	394.69	1.5643e-06	6.2598e-06	343.86	110.02	114.7	40.967	4.3869e-06	49.016	0.00019182	0.0001222	3.5802e-05	1305.5	1.6021e-06	1.3589e-06	1072.3	407.46	1.5866e-06	1.313e-06	355.52	114.9	119.3	42.338	1.4301e-06	50.839	174.146	15.367	0.506	-74.935	68.933	63.133	-75.747	-70.955	59.013	59.706	-72.192	-68.739	-67.024	-62.445	56.684	-63.913	-8191	255	
4287.911	1	1	0	0	0.15369	0.19002	0.38248	0.29738	0.033836	0.15465	0.06823	0.21861	0.13081	0.33638	0.23381	0.3321	0.17765	0.14997	0.19428	0.037666	-1.7687	-2.8708	-2.525	-2.2396	-2.9333	-2.2729	-2.6792	-2.9938	-2.1937	-2.8646	-2.7479	-2.3875	-3.0687	-2.5583	-2.4292	-3.1333	196.135	118.678	22.678	-59.344	176.491	91.127	189.132	-88.492	-45.633	242.463	160.520	246.756	-2.551	133.579	-15.428	211.810	0.00016789	0.00053365	0.00017505	1268.6	2.4283e-06	6.0259e-06	1033.1	395.4	1.6089e-06	4.8813e-06	344.22	110.38	115.71	40.887	3.584e-06	48.547	0.00018615	0.0001182	3.55e-05	1304.1	1.565e-06	1.35e-06	1070.4	408.12	1.6137e-06	1.3484e-06	355.48	114.35	120.25	42.319	1.4738e-06	50.596	176.444	-15.016	-1.412	-74.900	58.288	72.315	-75.736	-71.134	25.981	63.391	-72.542	-68.774	-66.879	-62.454	74.983	-64.172	-8191	255	
4288.007	1	1	0	0	0.22964	0.17517	0.18482	0.39187	0.12332	0.10489	0.28072	0.07766	0.0023285	0.045806	0.14665	0.1697	0.084773	0.038355	0.10394	0.15977	-1.8917	-2.5896	-2.6625	-2.3646	-2.9562	-2.6	-2.7396	-3.0604	-2.1792	-2.6437	-2.7146	-2.4813	-3.1833	-2.6271	-2.5167	-3.0833	91.105	170.737	97.555	-69.378	205.960	144.495	189.957	126.114	191.649	73.846	-7.952	-18.286	81.685	77.281	53.279	152.693	0.00018134	0.00044712	0.00011632	1263.1	2.246e-06	4.607e-06	1030.9	395.12	1.31e-06	3.4687e-06	343.87	109.88	115.49	40.504	3.1406e-06	48.205	0.00018121	0.00011911	3.5166e-05	1302.9	1.4294e-06	1.3323e-06	1066.7	407.53	1.6107e-06	1.143e-06	355.22	113.92	119.37	42.05	1.5253e-06	50.144	173.402	5.058	-11.798	-74.735	63.745	67.113	-75.849	-70.960	68.716	55.252	-72.330	-69.018	-67.231	-62.398	43.959	-64.206	-8191	255	
#DATA ENDS
