BOXY.EXE: ISS Imagent and Oximeter Data Acquisition Program Version 0.80
Ascii Record File

#ACQ INFORMATION
2  Detector Channels 
16  External MUX Channels 
1  Auxiliary Channels 
5000  Waveform (CCF) Frequency (Hz)
1  Waveforms Skipped 
30  Waveforms Averaged 
1  Cycles Averaged 
16  Acquisitions per Waveform 
10.0806  Updata Rate (Hz) 

#FILE INFORMATION
TRUE -- External MUX Channel results are PARSED.
FALSE -- AC DC and Phase are NOT grouped.
TRUE -- Companion Program Settings File CREATED.
FALSE -- AC data not excluded
FALSE -- DC data not excluded
FALSE -- Phase data not excluded
FALSE -- Auxillary Chn. data not excluded
Tab delimiters

#CALIBRATION STATE
TRUE -- Waveform Calibration Values APPLIED.


#AUX CALIBRATION VALUES
Val Type	aux-1	

Term	1.0000e+00	
Factor	0.0000e+00	


#WF CALIBRATION VALUES
A = Detector Channel
Val Type	A-AC1	A-AC2	A-AC3	A-AC4	A-AC5	A-AC6	A-AC7	A-AC8	A-AC9	A-AC10	A-AC11	A-AC12	A-AC13	A-AC14	A-AC15	A-AC16	A-DC1	A-DC2	A-DC3	A-DC4	A-DC5	A-DC6	A-DC7	A-DC8	A-DC9	A-DC10	A-DC11	A-DC12	A-DC13	A-DC14	A-DC15	A-DC16	A-Ph1	A-Ph2	A-Ph3	A-Ph4	A-Ph5	A-Ph6	A-Ph7	A-Ph8	A-Ph9	A-Ph10	A-Ph11	A-Ph12	A-Ph13	A-Ph14	A-Ph15	A-Ph16	

Term	0.00000e+00	0.00000e+00	0.00000e+00	0.00000e+00	0.00000e+00	0.00000e+00	0.00000e+00	0.00000e+00	0.00000e+00	0.00000e+00	0.00000e+00	0.00000e+00	0.00000e+00	0.00000e+00	0.00000e+00	0.00000e+00	0.00000e+00	0.00000e+00	0.00000e+00	0.00000e+00	0.00000e+00	0.00000e+00	0.00000e+00	0.00000e+00	0.00000e+00	0.00000e+00	0.00000e+00	0.00000e+00	0.00000e+00	0.00000e+00	0.00000e+00	0.00000e+00	0.00000e+00	0.00000e+00	0.00000e+00	0.00000e+00	0.00000e+00	0.00000e+00	0.00000e+00	0.00000e+00	0.00000e+00	0.00000e+00	0.00000e+00	0.00000e+00	0.00000e+00	0.00000e+00	0.00000e+00	0.00000e+00	
Factor	1.00000e+00	1.00000e+00	1.00000e+00	1.00000e+00	1.00000e+00	1.00000e+00	1.00000e+00	1.00000e+00	1.00000e+00	1.00000e+00	1.00000e+00	1.00000e+00	1.00000e+00	1.00000e+00	1.00000e+00	1.00000e+00	1.00000e+00	1.00000e+00	1.00000e+00	1.00000e+00	1.00000e+00	1.00000e+00	1.00000e+00	1.00000e+00	1.00000e+00	1.00000e+00	1.00000e+00	1.00000e+00	1.00000e+00	1.00000e+00	1.00000e+00	1.00000e+00	X	X	X	X	X	X	X	X	X	X	X	X	X	X	X	X	

B = Detector Channel
Val Type	B-AC1	B-AC2	B-AC3	B-AC4	B-AC5	B-AC6	B-AC7	B-AC8	B-AC9	B-AC10	B-AC11	B-AC12	B-AC13	B-AC14	B-AC15	B-AC16	B-DC1	B-DC2	B-DC3	B-DC4	B-DC5	B-DC6	B-DC7	B-DC8	B-DC9	B-DC10	B-DC11	B-DC12	B-DC13	B-DC14	B-DC15	B-DC16	B-Ph1	B-Ph2	B-Ph3	B-Ph4	B-Ph5	B-Ph6	B-Ph7	B-Ph8	B-Ph9	B-Ph10	B-Ph11	B-Ph12	B-Ph13	B-Ph14	B-Ph15	B-Ph16	

Term	0.00000e+00	0.00000e+00	0.00000e+00	0.00000e+00	0.00000e+00	0.00000e+00	0.00000e+00	0.00000e+00	0.00000e+00	0.00000e+00	0.00000e+00	0.00000e+00	0.00000e+00	0.00000e+00	0.00000e+00	0.00000e+00	0.00000e+00	0.00000e+00	0.00000e+00	0.00000e+00	0.00000e+00	0.00000e+00	0.00000e+00	0.00000e+00	0.00000e+00	0.00000e+00	0.00000e+00	0.00000e+00	0.00000e+00	0.00000e+00	0.00000e+00	0.00000e+00	-1.41723e+02	-1.33427e+02	-1.27657e+02	-1.82643e+02	-7.29312e+01	-5.90420e+01	-1.56437e+02	-1.62015e+02	-7.50620e+01	-6.54826e+01	-1.75898e+02	-1.69904e+02	-1.79084e+02	-1.76332e+02	-7.30813e+01	-1.49000e+02	
Factor	2.19948e-05	1.76772e-04	4.22463e-05	1.51783e-01	1.32281e-06	2.01978e-06	1.85373e-01	5.47419e-02	1.24077e-06	1.63382e-06	9.98567e-02	3.00697e-02	2.75195e-02	9.87689e-03	1.39127e-06	1.39770e-02	7.96078e-06	1.06646e-05	2.96347e-06	7.91364e-02	1.10375e-07	1.18425e-07	9.07823e-02	2.86722e-02	1.12129e-07	1.17383e-07	5.04514e-02	1.53297e-02	1.45971e-02	5.20825e-03	1.14524e-07	7.14204e-03	X	X	X	X	X	X	X	X	X	X	X	X	X	X	X	X	



#DISTANCE SETTINGS
A = Detector Channel
A-1	A-2	A-3	A-4	A-5	A-6	A-7	A-8	A-9	A-10	A-11	A-12	A-13	A-14	A-15	A-16	

2.5000e+00	3.0000e+00	2.5000e+00	3.0000e+00	2.0000e+00	3.0000e+00	1.5000e+00	3.0000e+00	3.0000e+00	3.0000e+00	3.0000e+00	3.0000e+00	3.0000e+00	3.0000e+00	1.5000e+00	3.0000e+00	

B = Detector Channel
B-1	B-2	B-3	B-4	B-5	B-6	B-7	B-8	B-9	B-10	B-11	B-12	B-13	B-14	B-15	B-16	

1.0000e+01	1.0000e+01	1.0000e+01	1.4400e+00	1.0000e+01	1.0000e+01	1.5100e+00	1.9400e+00	1.0000e+01	1.0000e+01	1.9900e+00	2.4900e+00	2.4100e+00	2.9000e+00	1.0000e+01	2.9800e+00	




#DATA BEGINS
time	group	step	mark	flag	A-AC1	A-AC2	A-AC3	A-AC4	A-AC5	A-AC6	A-AC7	A-AC8	A-AC9	A-AC10	A-AC11	A-AC12	A-AC13	A-AC14	A-AC15	A-AC16	A-DC1	A-DC2	A-DC3	A-DC4	A-DC5	A-DC6	A-DC7	A-DC8	A-DC9	A-DC10	A-DC11	A-DC12	A-DC13	A-DC14	A-DC15	A-DC16	A-Ph1	A-Ph2	A-Ph3	A-Ph4	A-Ph5	A-Ph6	A-Ph7	A-Ph8	A-Ph9	A-Ph10	A-Ph11	A-Ph12	A-Ph13	A-Ph14	A-Ph15	A-Ph16	B-AC1	B-AC2	B-AC3	B-AC4	B-AC5	B-AC6	B-AC7	B-AC8	B-AC9	B-AC10	B-AC11	B-AC12	B-AC13	B-AC14	B-AC15	B-AC16	B-DC1	B-DC2	B-DC3	B-DC4	B-DC5	B-DC6	B-DC7	B-DC8	B-DC9	B-DC10	B-DC11	B-DC12	B-DC13	B-DC14	B-DC15	B-DC16	B-Ph1	B-Ph2	B-Ph3	B-Ph4	B-Ph5	B-Ph6	B-Ph7	B-Ph8	B-Ph9	B-Ph10	B-Ph11	B-Ph12	B-Ph13	B-Ph14	B-Ph15	B-Ph16	aux-1	digaux	

4358.819	1	1	0	768	0.039144	0.056328	0.10368	0.2001	0.11491	0.23296	0.15619	0.2281	0.12073	0.090183	0.13319	0.2624	0.27233	0.14707	0.14258	0.18359	-2.2417	-3.0354	-2.3563	-2.9479	-2.7708	-2.4813	-3.2313	-2.5646	-2.6083	-3.1208	-2.4583	-2.9667	-2.9854	-2.5167	-3.1146	-2.7292	-32.819	96.352	179.510	151.043	-109.209	-102.781	193.374	106.495	131.435	-27.914	189.249	134.057	155.852	173.136	-121.713	119.861	0.00077448	0.0010664	0.00024658	1479.7	8.201e-06	1.0011e-05	1344.3	451.15	4.3419e-06	8.7655e-06	520.29	236.19	177.37	74.955	7.1498e-06	109.7	0.0011675	0.0012639	0.0003659	1421.3	1.3565e-05	1.3803e-05	1301.8	437	1.3433e-05	1.3671e-05	503.75	231.15	174.1	72.887	1.3583e-05	107	191.206	-29.631	-69.802	-118.562	21.598	27.540	-118.980	-114.777	-53.492	23.478	-115.646	-112.592	-111.803	-107.398	-13.114	-108.599	-8191	255	
4358.915	1	1	0	0	0.17435	0.16563	0.12257	0.34148	0.099219	0.026738	0.33411	0.2765	0.085205	0.11005	0.31748	0.28464	0.1409	0.075061	0.24664	0.20093	-2.1417	-3.0229	-2.3563	-2.9771	-2.925	-2.5687	-3.1917	-2.9062	-2.6354	-2.9021	-2.6729	-2.9375	-3.125	-2.5146	-2.9771	-3	-26.342	-66.447	96.135	220.901	-72.575	38.681	117.909	210.192	-21.946	194.019	180.048	-128.187	-41.934	-79.467	-10.070	146.919	0.00075664	0.00057435	0.00014987	1457.8	1.3239e-06	1.5673e-05	1332.7	442.62	3.5575e-06	3.617e-06	499.67	231.63	173.2	72.704	2.5702e-06	107.63	0.0011928	0.001281	0.00034716	1408.1	1.3946e-05	1.4854e-05	1297.8	428.39	1.469e-05	1.4757e-05	487.93	225.84	169.44	70.696	1.4333e-05	104.86	190.913	-54.559	-44.234	-118.584	-10.985	-9.120	-119.236	-114.755	51.305	8.078	-115.569	-113.005	-111.418	-107.227	47.190	-108.875	-8191	255	
4359.011	1	1	0	0	0.12565	0.26542	0.082516	0.21439	0.13889	0.11093	0.33026	0.20426	0.21653	0.22916	0.11457	0.16268	0.31986	0.31664	0.078942	0.29293	-2.0646	-3.0646	-2.5187	-2.9042	-2.9083	-2.2729	-3.0854	-3.1	-2.4854	-3.1562	-2.6625	-2.7792	-2.9458	-2.4125	-2.9146	-2.9958	33.314	57.992	31.673	107.775	212.241	178.857	201.219	121.201	66.606	-107.405	-114.267	205.591	209.871	182.492	183.902	146.000	0.0006471	0.0011062	0.00032204	1454.4	8.6394e-06	9.6159e-06	1324.1	435.88	3.2986e-06	5.9411e-06	502.37	229.25	171.13	71.349	9.7948e-06	107.72	0.0012076	0.0013209	0.00036402	1401.1	1.3942e-05	1.4423e-05	1285.2	422.1	1.4318e-05	1.3808e-05	485.29	223.96	166.63	69.615	1.3882e-05	105.19	185.451	-66.705	-32.894	-118.665	-16.517	19.058	-119.163	-114.769	87.779	-6.179	-115.889	-113.047	-111.431	-107.554	2.125	-108.482	-8191	255	
4359.107	1	1	0	0	0.21486	0.031191	0.16509	0.32425	0.045522	0.096397	0.087038	0.21198	0.3506	0.1132	0.12095	0.58437	0.29135	0.16272	0.10484	0.35608	-2.0833	-3.0042	-2.3063	-2.8646	-2.9167	-2.2229	-3.0792	-2.9729	-2.3854	-3.1271	-2.7646	-2.5771	-3.2354	-2.6063	-2.7604	-3.1875	130.534	26.857	206.210	151.590	-76.827	137.270	62.872	208.545	22.896	54.120	166.382	214.572	196.487	-28.181	-107.738	137.308	0.00074828	0.00098762	0.00022701	1408.5	4.806e-06	1.1542e-05	1294.3	431.85	5.1806e-06	8.7407e-06	500.27	231.73	169.4	71.137	6.0735e-06	108.91	0.0011573	0.0012471	0.0003487	1355.1	1.3049e-05	1.3721e-05	1258	417.58	1.3322e-05	1.3549e-05	487.47	225.42	165.86	69.249	1.3161e-05	105.91	186.354	-25.813	-69.740	-118.676	-14.054	31.078	-119.337	-115.047	-24.150	48.383	-116.042	-113.374	-112.066	-107.554	-11.183	-108.461	-8191	255	
4359.202	1	1	0	0	0.24173	0.071215	0.38277	0.28939	0.12692	0.28652	0.26793	0.27406	0.11535	0.29563	0.11252	0.16477	0.37224	0.071242	0.13642	0.12416	-2.0125	-3.1021	-2.4583	-2.85	-2.8979	-2.3917	-2.7313	-3.1292	-2.3333	-2.8333	-2.7458	-2.5229	-3.2583	-2.3042	-2.725	-3.0625	32.244	76.991	105.441	187.112	196.721	31.503	129.859	185.565	73.055	162.574	-19.955	205.467	190.621	49.713	-119.102	159.911	0.00075368	0.0011992	0.00020831	1388.4	4.5795e-06	1.2455e-05	1294.1	436.05	6.6963e-06	5.7029e-06	511.33	233.44	171.08	70.574	5.2507e-06	107.67	0.0011306	0.0012028	0.00033393	1331.6	1.2608e-05	1.3623e-05	1247.8	422.49	1.3281e-05	1.3258e-05	495.67	226.75	166.67	68.7	1.3858e-05	105.28	191.299	-58.454	-7.821	-118.624	54.322	20.411	-119.430	-114.837	18.841	-9.833	-115.890	-113.310	-112.032	-107.196	-73.268	-108.643	-8191	255	
4359.298	1	1	0	0	0.20965	0.051314	0.27868	0.28902	0.14696	0.13378	0.2228	0.079613	0.11371	0.090802	0.12443	0.2986	0.21977	0.25219	0.054727	0.38301	-1.9438	-2.9313	-2.8333	-2.6312	-2.8729	-2.4167	-2.8896	-3.1333	-2.2687	-2.925	-2.925	-2.6167	-3.2188	-2.7854	-2.5062	-3.1146	121.888	-20.397	-11.892	135.666	-20.357	96.464	105.409	142.911	-99.948	169.154	182.623	227.007	202.257	191.332	156.341	187.668	0.00073355	0.0003115	0.0003536	1368.5	1.9545e-06	6.2197e-06	1265.8	433.44	4.2414e-06	1.8559e-06	503.68	228.66	167.41	69.324	4.7397e-06	106.69	0.00117	0.0012676	0.00036471	1314.5	1.3521e-05	1.4284e-05	1233.3	418.45	1.4213e-05	1.4444e-05	490.38	223.3	163.34	67.335	1.3966e-05	104.01	195.612	-46.450	-62.760	-118.702	-108.768	78.736	-119.157	-114.884	-42.201	52.074	-116.006	-113.288	-112.159	-107.511	62.991	-108.796	-8191	255	
4359.418	1	1	0	0	0.11083	0.21389	0.19015	0.18423	0.13416	0.14464	0.27739	0.07125	0.10849	0.17306	0.41389	0.16108	0.38129	0.1009	0.16082	0.10672	-2.0708	-2.8875	-2.8937	-2.5854	-2.8958	-2.4688	-2.5646	-3.0875	-2.3812	-2.7938	-3.1104	-2.5187	-3.125	-2.5792	-2.3688	-3.2708	-87.654	54.243	133.775	188.699	19.264	187.694	-103.255	171.897	-58.611	-120.761	181.721	210.109	173.858	151.643	79.184	69.485	0.00066138	0.0012168	0.00023026	1362.5	9.449e-06	1.0874e-05	1276.3	432	5.2016e-06	1.1738e-05	501.8	228.17	167.01	68.858	8.5197e-06	106.53	0.0011479	0.0013005	0.00035778	1313.4	1.3119e-05	1.382e-05	1236	417.52	1.3812e-05	1.4012e-05	488.6	222.64	163.18	67.247	1.4365e-05	103.6	185.297	-51.874	-26.676	-118.698	-6.783	100.184	-119.359	-115.025	7.960	16.666	-115.676	-113.278	-111.904	-107.552	-3.063	-108.872	-8191	255	
4359.515	1	1	0	0	0.25487	0.101	0.10055	0.22858	0.2126	0.062722	0.22427	0.29582	0.17718	0.13506	0.29407	0.23139	0.21815	0.30464	0.17233	0.22084	-2.0312	-2.5125	-2.8146	-2.5812	-2.9271	-2.7104	-2.5542	-3.0917	-2.4521	-2.725	-3.0958	-2.5875	-3.0146	-2.8312	-2.3063	-3.2	185.468	203.101	212.881	211.619	112.242	213.959	153.942	141.051	198.245	-33.790	170.462	177.862	189.857	-110.082	101.728	141.343	0.00077122	0.00023585	0.00020623	1368.9	6.9136e-06	1.1845e-05	1279.2	430.46	3.991e-06	3.7588e-06	509.76	230.97	168.72	69.879	6.9341e-06	107.26	0.0011978	0.0012957	0.00036992	1316.3	1.396e-05	1.4873e-05	1243.3	416.95	1.4866e-05	1.5076e-05	495.44	225.64	164.84	67.785	1.506e-05	104.69	181.813	-97.554	-21.658	-118.797	-37.924	-13.146	-118.931	-114.971	-27.301	26.849	-115.927	-113.292	-111.584	-107.435	-25.467	-109.050	-8191	255	
4359.611	1	1	0	0	0.07516	0.27552	0.090727	0.1185	0.35628	0.042024	0.2104	0.36023	0.2137	0.17475	0.17264	0.099367	0.15044	0.3165	0.11352	0.37186	-2.1771	-2.5458	-2.8729	-2.5208	-3.0292	-2.8646	-2.4896	-3.125	-2.4542	-2.5229	-3.1354	-2.5438	-3.1146	-2.9167	-2.3563	-3.1875	-60.087	50.911	-89.706	98.904	70.081	86.910	106.474	138.355	220.071	123.841	139.046	169.447	145.568	207.708	109.263	161.725	0.00067649	0.0013497	0.00032103	1356.1	5.1974e-06	1.7508e-05	1278.9	438.5	6.6402e-06	9.0762e-06	511.98	231.14	168.58	69.623	7.0665e-06	105.74	0.0012721	0.0014177	0.00038905	1306.1	1.5264e-05	1.5661e-05	1242.1	423.34	1.5458e-05	1.5446e-05	500.35	225.5	164.5	67.876	1.5684e-05	103.74	190.587	-57.500	-35.684	-118.749	-7.231	39.621	-119.313	-115.141	-31.970	55.582	-115.665	-113.076	-111.727	-107.412	-4.401	-108.489	-8191	255	
4359.707	1	1	0	0	0.12209	0.10299	0.091912	0.10674	0.21423	0.39407	0.20328	0.43829	0.23749	0.087893	0.2365	0.19665	0.069319	0.096104	0.18933	0.11338	-2.3708	-2.6396	-3.2042	-2.6458	-2.9146	-2.8	-2.4292	-3.0604	-2.5896	-2.3125	-3.1167	-2.4292	-2.8312	-3.025	-2.4354	-3.0854	171.220	105.987	74.977	-122.205	165.315	76.279	72.734	163.438	195.456	103.322	139.298	208.812	1.223	158.131	-31.248	183.939	0.00074784	0.00065823	0.00025008	1342.4	4.289e-06	1.0154e-05	1265.8	433.03	3.6841e-06	5.8507e-07	513.05	229.31	167.86	69.323	6.4777e-06	105.57	0.0012818	0.0014096	0.00039047	1295.1	1.4616e-05	1.5912e-05	1229.3	419.58	1.4872e-05	1.5329e-05	496.93	224.34	163.43	67.396	1.5081e-05	103.22	189.321	-23.092	-63.475	-118.567	17.720	40.241	-119.416	-115.296	25.207	-8.948	-115.889	-113.204	-112.202	-107.164	-63.139	-108.904	-8191	255	
4359.803	1	1	0	0	0.26965	0.22471	0.057968	0.2881	0.0086237	0.22295	0.021846	0.23104	0.2446	0.20028	0.22865	0.25986	0.15098	0.20079	0.011687	0.24386	-2.3438	-2.4083	-3.1646	-2.6625	-2.6042	-2.9729	-2.5646	-2.9938	-2.6458	-2.2708	-3.0167	-2.5104	-2.7083	-3.1146	-2.3083	-3.1271	102.188	-88.495	146.989	214.664	-37.468	-123.393	46.304	172.539	7.573	144.583	128.037	203.530	-131.621	-116.298	-104.982	163.488	0.00066721	0.00081979	3.7557e-05	1342.5	2.6642e-06	1.2991e-05	1269.2	431.18	1.0443e-05	1.0346e-05	512.62	229.27	167.52	69.373	1.4239e-05	105.25	0.0012602	0.0013713	0.00037734	1293.8	1.4452e-05	1.4712e-05	1230.2	417.74	1.4616e-05	1.4834e-05	497.67	224.37	163.77	67.681	1.4638e-05	103.19	192.813	-34.961	79.487	-118.695	1.661	59.321	-119.553	-115.086	-45.365	0.643	-115.989	-112.830	-112.612	-107.457	-1.757	-108.598	-8191	255	
4359.899	1	1	0	0	0.21324	0.15516	0.12476	0.10489	0.2212	0.05168	0.12412	0.056077	0.30319	0.1441	0.26738	0.23992	0.022207	0.32298	0.0063321	0.061779	-2.3292	-2.3271	-2.75	-2.6729	-2.6396	-3.0729	-2.3854	-2.8375	-2.7896	-2.4062	-3.0729	-2.6396	-2.7271	-3.1583	-2.2687	-3.1208	220.374	193.894	101.647	205.652	87.101	57.480	167.853	-9.662	170.217	8.866	136.561	209.126	57.273	177.242	106.341	-129.564	0.00074066	0.0011073	0.00038414	1353.2	4.1443e-06	1.3711e-05	1271.9	435.89	7.2758e-06	7.1584e-06	512.78	231.49	168.69	70.12	6.366e-06	105.85	0.0012006	0.0013437	0.00036766	1300.9	1.4001e-05	1.4782e-05	1237.5	420.39	1.4555e-05	1.4614e-05	498.56	226.02	165.14	68.31	1.4849e-05	104.01	189.079	-62.762	-33.682	-118.438	21.395	52.860	-119.082	-114.928	-40.246	10.342	-116.158	-112.545	-112.062	-107.740	-45.029	-108.547	-8191	255	
4359.995	1	1	0	0	0.19953	0.31314	0.090521	0.57838	0.30688	0.12229	0.077536	0.067842	0.083242	0.09076	0.18211	0.25813	0.22486	0.23664	0.38952	0.16822	-2.4292	-2.3	-3.1021	-2.6167	-2.3479	-2.85	-2.4333	-2.8937	-2.9729	-2.2625	-2.8958	-2.8146	-2.5062	-3.1167	-2.4021	-2.9333	92.746	-116.826	-125.758	190.692	-29.526	163.841	74.322	-95.805	168.305	114.647	170.137	185.895	180.634	177.645	197.718	-114.894	0.00077659	0.0003706	0.00019667	1359.6	2.105e-06	9.4306e-06	1287.3	438.19	8.8504e-06	6.1e-06	521.41	233.7	171.79	71.336	1.9547e-06	107.08	0.0012606	0.0013778	0.00037411	1311.6	1.4455e-05	1.4922e-05	1251.9	424.12	1.4636e-05	1.4743e-05	506.42	228.24	167.15	69.284	1.4958e-05	104.62	189.858	-29.284	-60.780	-118.602	2.787	37.388	-119.283	-114.873	-11.060	11.788	-116.147	-112.729	-112.370	-107.162	23.675	-108.583	-8191	255	
4360.114	1	1	0	0	0.14981	0.051323	0.11456	0.20478	0.11605	0.18155	0.29818	0.34326	0.13562	0.24904	0.18866	0.19726	0.07417	0.076216	0.14644	0.15894	-2.3937	-2.2958	-2.7146	-2.9062	-2.3104	-3.0687	-2.5104	-2.8292	-2.8937	-2.3083	-3.0458	-3.0292	-2.3625	-3.0417	-2.3229	-2.6437	122.361	176.779	179.490	183.498	105.977	-72.598	144.083	188.540	-20.473	-53.457	217.391	191.132	196.081	74.250	-111.861	-129.411	0.00063348	0.00017261	0.00023086	1360.3	9.3102e-06	6.7955e-06	1278.4	434.55	7.6535e-06	3.9806e-06	512.93	231.22	168.45	70.612	1.0677e-05	106.74	0.0012381	0.0013789	0.0003861	1309.9	1.413e-05	1.493e-05	1239.3	420.68	1.4592e-05	1.4892e-05	498.63	225.35	165.19	68.751	1.4362e-05	104.04	193.892	-23.198	-52.573	-118.619	4.151	39.625	-119.170	-115.093	-7.259	-35.340	-115.813	-112.905	-111.578	-107.647	45.948	-108.957	-8191	255	
4360.210	1	1	0	0	0.30415	0.24682	0.063156	0.25087	0.13505	0.20757	0.20616	0.22214	0.12596	0.10869	0.032861	0.41319	0.40295	0.23067	0.25911	0.069648	-2.7604	-2.0354	-2.8063	-3.0375	-2.3542	-3.0271	-2.8771	-2.7188	-2.9688	-2.3875	-2.7104	-2.9229	-2.6208	-3.1562	-2.6333	-2.7188	84.057	44.776	-39.708	209.985	5.896	190.776	169.355	-129.183	91.854	103.403	60.553	207.070	136.337	-114.723	48.489	-39.926	0.00076733	0.0012511	8.1543e-05	1346.2	5.4402e-06	1.1345e-05	1275.1	434.53	1.0465e-05	5.4179e-06	508.49	228.97	167	69.408	7.8059e-06	105.79	0.0012226	0.001333	0.0003629	1298.8	1.4193e-05	1.4979e-05	1232.6	418.89	1.4748e-05	1.4749e-05	493.33	224.15	163.79	67.666	1.475e-05	103.41	195.264	-37.239	-31.028	-118.473	-14.121	31.015	-118.900	-115.269	-50.451	-8.764	-116.034	-112.850	-112.042	-107.460	-26.806	-108.899	-8191	255	
4360.307	1	1	0	0	0.20775	0.12122	0.12822	0.29731	0.11757	0.19551	0.15938	0.24452	0.098275	0.19201	0.22791	0.07822	0.13644	0.26892	0.32164	0.2894	-2.6792	-2.3312	-2.6667	-3.1688	-2.1833	-2.8833	-2.9562	-2.5833	-2.8563	-2.5563	-2.8146	-3.0292	-2.375	-2.9146	-2.5563	-2.3542	144.695	124.517	-38.755	164.459	145.579	103.796	92.546	173.426	-5.716	117.557	195.540	193.592	204.065	181.227	162.257	145.613	0.00065408	0.00086847	0.000146	1337.5	6.0213e-06	5.2706e-06	1260.5	425.62	5.5823e-06	5.076e-06	501.92	226.46	165.33	68.989	1.5911e-06	105.63	0.0012401	0.0014228	0.00038289	1286.2	1.4609e-05	1.5464e-05	1220.5	412.61	1.4499e-05	1.5054e-05	488.99	221.91	161.21	66.803	1.4797e-05	103.6	192.435	-54.808	-20.138	-118.295	12.403	-0.870	-119.060	-114.983	-27.535	-13.725	-115.965	-113.092	-112.572	-107.400	-76.076	-108.807	-8191	255	
4360.380	1	1	0	0	0.27278	0.20478	0.021186	0.22214	0.079819	0.16262	0.28259	0.30439	0.070606	0.1317	0.072516	0.2297	0.069959	0.28879	0.15485	0.31101	-2.6354	-2.3354	-2.5208	-3.175	-2.2292	-2.7354	-2.8646	-2.4396	-3.1	-2.5208	-2.6979	-3.1292	-2.4604	-2.8125	-2.7354	-2.5292	175.236	128.391	5.643	168.288	170.914	100.426	169.283	194.584	47.482	-107.643	-93.678	182.232	87.200	141.784	34.277	110.598	0.00075927	0.0012612	0.00037465	1332.5	8.5647e-06	6.2398e-06	1251.9	422.71	5.536e-06	9.6092e-06	502.54	227.26	164.76	68.458	6.3958e-06	104.96	0.0012183	0.0013561	0.00037865	1285.7	1.4269e-05	1.5239e-05	1225.5	411.18	1.4219e-05	1.4825e-05	490	221.86	160.81	66.668	1.4867e-05	103.4	194.069	-87.083	-27.712	-118.775	20.704	61.040	-119.161	-115.428	-43.237	7.874	-116.318	-113.172	-112.098	-107.690	7.210	-108.992	-8191	255	
4360.499	1	1	0	0	0.055362	0.13102	0.20372	0.044099	0.10538	0.11681	0.055375	0.11463	0.075319	0.04175	0.25244	0.2377	0.12746	0.077457	0.095299	0.28781	-2.7125	-2.5896	-2.3021	-3.1104	-2.2875	-2.4958	-2.9771	-2.225	-2.9813	-2.6521	-2.5542	-3.0354	-2.3625	-2.8333	-2.8771	-2.3021	-88.286	74.612	-1.918	121.190	84.413	185.912	219.623	-34.638	-3.605	-79.191	183.652	185.458	221.293	111.917	-10.363	-86.405	0.00070157	0.00081993	0.00025468	1329.8	5.9694e-06	1.3283e-05	1256.9	426.23	4.7966e-06	1.1867e-05	507.91	228.49	164.14	67.7	7.1466e-06	105.43	0.0012278	0.0013801	0.00037555	1280.3	1.4535e-05	1.5277e-05	1224.9	411.83	1.4416e-05	1.4786e-05	492.92	222.62	160.22	66.189	1.4468e-05	102.79	191.193	-58.287	-40.711	-118.583	-24.283	23.709	-118.991	-115.155	-24.427	8.956	-116.560	-113.106	-112.381	-107.577	-19.214	-109.066	-8191	255	
4360.595	1	1	0	0	0.16193	0.22805	0.20729	0.13246	0.35613	0.26298	0.065811	0.23152	0.22754	0.037695	0.31185	0.2138	0.045294	0.19329	0.15501	0.18419	-2.4917	-2.7542	-2.2812	-3.1417	-2.2604	-2.6792	-3.1896	-2.3646	-2.8333	-2.5667	-2.6479	-3.0125	-2.4083	-2.8167	-2.9583	-2.4688	16.621	84.884	-38.735	-89.490	60.925	-5.509	32.940	101.693	-118.514	-52.762	150.477	-44.526	68.138	146.152	131.666	127.083	0.00070167	0.0013574	0.00014247	1329.8	2.1649e-06	1.1205e-05	1252.5	421.71	8.0967e-06	6.94e-06	490.48	222.24	161.53	66.893	3.6859e-06	103.01	0.0012173	0.0013477	0.00036362	1280.4	1.4436e-05	1.4911e-05	1213.4	408.07	1.4117e-05	1.469e-05	480.72	217.38	157.54	65.031	1.4688e-05	100.72	193.604	-49.926	-58.218	-118.560	22.859	58.428	-119.068	-115.379	-57.492	33.684	-116.385	-113.048	-112.386	-108.090	2.243	-108.938	-8191	255	
4360.691	1	1	0	0	0.18136	0.18416	0.11583	0.013784	0.26579	0.25297	0.43384	0.052091	0.38997	0.28341	0.066622	0.27544	0.0070149	0.1628	0.031299	0.20947	-2.5604	-3.0312	-2.3708	-3.2292	-2.5604	-2.5521	-3.0396	-2.4583	-2.6958	-2.8646	-2.4375	-3.2083	-2.6375	-2.7062	-2.9375	-2.6104	50.451	93.922	-105.778	212.805	72.592	91.612	172.257	-34.210	-12.949	-91.386	2.746	-133.025	-130.950	29.452	213.185	-98.466	0.00063841	0.0011281	0.00023934	1317.1	5.3e-06	1.1729e-05	1241.7	413.45	5.6796e-06	1.1713e-05	482.65	217.57	157.14	65.137	4.4666e-06	100.83	0.0012238	0.0013786	0.00038034	1271.3	1.4141e-05	1.4935e-05	1209.1	400.48	1.4706e-05	1.4796e-05	469.17	212.36	153.55	63.294	1.4739e-05	98.777	191.952	-81.310	-95.772	-118.873	-44.377	58.056	-118.962	-115.263	-32.252	102.873	-116.004	-113.419	-112.020	-107.507	60.488	-109.171	-8191	255	
4360.812	1	1	0	0	0.27208	0.071818	0.057431	0.22551	0.12703	0.23541	0.19617	0.19473	0.33709	0.16429	0.23241	0.13277	0.26171	0.091249	0.29034	0.20714	-2.2167	-3.0271	-2.2167	-3.1958	-2.4354	-2.5021	-3.0521	-2.5208	-2.7083	-2.8917	-2.2833	-3.0854	-2.6771	-2.5792	-3.0354	-2.4604	-36.736	-124.606	26.756	113.022	-2.209	84.413	98.315	176.684	108.304	-15.672	55.794	-101.141	153.009	30.630	36.164	197.309	0.00071927	0.00069776	0.00023878	1314.9	1.0727e-05	1.1644e-05	1236.1	406.13	4.287e-06	4.0441e-06	477.05	212.97	153.47	63.246	4.7191e-06	100.5	0.0012325	0.001338	0.00038137	1267.5	1.4482e-05	1.5287e-05	1198	392.46	1.4801e-05	1.4953e-05	461.27	207.91	149.48	61.834	1.4917e-05	98.132	188.957	-52.728	-48.983	-118.992	-32.879	42.588	-119.140	-115.439	-20.040	1.914	-116.375	-113.165	-112.086	-107.664	-39.878	-109.347	-8191	255	
4360.906	1	1	0	0	0.096176	0.11649	0.16594	0.048075	0.36105	0.2216	0.1422	0.1994	0.1616	0.075527	0.32772	0.22527	0.031689	0.23212	0.21889	0.13684	-2.3104	-2.9146	-2.3208	-3.1042	-2.5521	-2.2313	-3.1271	-2.5167	-2.525	-3.0542	-2.2854	-3.0333	-2.8333	-2.5292	-2.9042	-2.7646	220.933	148.893	25.166	134.433	109.693	-14.137	121.993	-108.092	6.234	-72.148	-111.299	188.524	-39.132	207.699	-1.694	202.380	0.00077007	0.00060078	0.00030624	1316.5	4.8006e-06	5.7505e-06	1233.8	402.16	2.8721e-06	5.1809e-06	469.71	209.44	151.31	62.99	1.1983e-06	100.09	0.0012455	0.0013728	0.00038428	1264.5	1.4261e-05	1.4813e-05	1196.1	388.99	1.4449e-05	1.4416e-05	457.36	205.35	147.9	61.293	1.4343e-05	97.753	195.114	-20.907	-39.886	-119.235	36.207	5.724	-119.020	-115.208	-5.236	28.778	-116.321	-113.292	-112.182	-107.942	39.967	-109.090	-8191	255	
4360.980	1	1	0	0	0.17443	0.032707	0.16404	0.327	0.21605	0.24637	0.21777	0.10697	0.26933	0.039122	0.089198	0.16942	0.18846	0.29958	0.15985	0.30481	-2.0979	-2.9167	-2.1667	-2.9729	-2.7	-2.1521	-3.3021	-2.7833	-2.5438	-2.9437	-2.6354	-2.8479	-2.8854	-2.425	-3.1083	-2.6604	-50.809	197.446	35.111	201.769	12.411	78.878	176.306	-60.100	24.535	213.614	-113.461	153.975	-21.519	150.586	-8.984	170.305	0.00069741	0.0011063	0.00013338	1307.6	5.7744e-06	1.5057e-05	1228	399.97	8.366e-06	7.9388e-06	463.94	206.37	148.35	61.552	6.8201e-06	97.925	0.0012568	0.0013429	0.000375	1258.8	1.4204e-05	1.5022e-05	1191.7	386.7	1.4522e-05	1.4704e-05	451.39	201.67	145.14	59.998	1.4898e-05	95.636	192.486	-72.409	-48.023	-118.727	81.176	24.559	-119.358	-115.301	-3.160	40.426	-116.009	-113.274	-112.465	-107.825	-8.721	-109.063	-8191	255	
4361.100	1	1	0	0	0.14383	0.2579	0.084752	0.15493	0.015622	0.27599	0.35259	0.066166	0.21631	0.060383	0.091148	0.13644	0.16499	0.21777	0.064343	0.15257	-1.8771	-2.9	-2.2792	-2.7833	-2.925	-2.3979	-3.0729	-2.675	-2.4437	-3.0312	-2.6667	-2.9208	-2.9854	-2.4958	-2.8396	-2.8312	-83.215	148.114	198.795	188.355	139.045	115.076	-117.467	93.539	150.494	141.282	-93.682	205.602	-117.182	-13.878	199.907	186.986	0.00065673	0.0014685	0.00032037	1302.4	5.2093e-06	1.1344e-05	1208.4	397.58	4.9431e-06	7.903e-06	463.04	205.87	148.24	61.647	1.1131e-05	97.567	0.001227	0.0013639	0.00038102	1254.9	1.4246e-05	1.5227e-05	1180.9	383.88	1.4886e-05	1.5171e-05	449.45	201.17	145.09	60.027	1.5157e-05	95.149	191.838	-28.466	-61.059	-118.862	16.605	16.930	-119.365	-115.263	-7.948	15.434	-116.314	-113.581	-112.301	-107.983	-20.562	-109.091	-8191	255	
4361.195	1	1	0	0	0.28433	0.2194	0.062644	0.17754	0.24035	0.26076	0.32213	0.044936	0.13785	0.11288	0.11166	0.33319	0.23846	0.27029	0.22609	0.19666	-1.9062	-2.9562	-2.3896	-2.7458	-3.1146	-2.2958	-3.0021	-2.9	-2.4188	-3.0479	-2.5021	-2.6146	-3.1333	-2.35	-2.9354	-2.8708	150.324	-57.687	124.040	191.092	132.141	110.000	153.507	-92.365	74.372	214.162	-113.113	185.187	225.068	-131.512	73.144	110.443	0.00066281	0.00043362	0.00026751	1299.2	7.7286e-06	4.4565e-06	1215.5	396.96	1.0125e-05	7.2697e-06	466.43	209.89	150.75	62.346	3.9079e-06	98.595	0.0012214	0.0013751	0.00038308	1255.2	1.4522e-05	1.5312e-05	1183.4	385.31	1.4272e-05	1.4813e-05	453.21	204.37	147.09	60.759	1.4587e-05	96.39	190.347	-82.172	-13.236	-118.651	-40.142	43.119	-119.236	-115.405	28.735	-50.381	-116.531	-113.337	-112.011	-107.813	-64.526	-109.049	-8191	255	
4361.291	1	1	0	0	0.10557	0.18195	0.04028	0.1455	0.13755	0.067572	0.03927	0.29363	0.15777	0.14774	0.16928	0.20495	0.26299	0.43137	0.16143	0.18271	-1.8354	-2.8125	-2.4688	-2.9042	-2.9125	-2.2979	-2.825	-3.0083	-2.3521	-2.8563	-2.6958	-2.6333	-3.0167	-2.3917	-2.6479	-3.0083	-93.345	139.741	115.559	188.780	221.600	60.034	-85.899	170.836	106.278	-8.487	-82.347	205.431	209.912	198.974	8.970	200.791	0.00067836	0.00030616	0.0001106	1310.4	5.2294e-06	1.2802e-05	1222.7	404.78	4.0347e-06	9.4064e-06	467.43	210.95	153.81	63.505	6.7289e-06	99.75	0.0012164	0.0013473	0.00038158	1260.3	1.425e-05	1.5161e-05	1188.5	389.98	1.453e-05	1.5076e-05	459	206.86	149.46	61.977	1.478e-05	97.82	192.666	219.030	-19.343	-118.682	41.208	20.425	-119.336	-115.234	-3.623	32.844	-115.935	-113.089	-112.237	-107.696	1.703	-109.097	-8191	255	
4361.411	1	1	0	0	0.17098	0.19904	0.38294	0.32536	0.11302	0.13704	0.21764	0.10125	0.29251	0.089153	0.42714	0.2496	0.065619	0.17583	0.35388	0.17185	-1.8771	-2.9979	-2.4875	-2.6188	-2.9292	-2.2875	-2.7292	-3.0292	-2.3167	-2.825	-2.775	-2.4938	-2.9667	-2.5792	-2.5292	-3.0042	155.039	2.079	-131.884	211.004	153.962	44.684	138.072	146.568	42.387	6.604	91.857	134.606	-113.698	187.527	9.374	137.332	0.0007225	0.00077574	0.00038155	1302.6	8.0907e-06	1.5727e-05	1229.5	405.38	6.0165e-06	8.6325e-06	472.16	211.74	152.64	63.517	1.0388e-05	99.571	0.0012462	0.0013559	0.00038261	1254.1	1.4298e-05	1.4865e-05	1190.1	391.65	1.4384e-05	1.4888e-05	459.95	207.36	149.73	62.026	1.5008e-05	97.347	189.396	3.676	-19.110	-118.889	53.675	-0.324	-119.517	-115.378	-15.001	59.566	-116.118	-113.806	-112.041	-107.958	-17.935	-109.168	-8191	255	
4361.508	1	1	0	0	0.1677	0.29607	0.2937	0.26722	0.12882	0.1786	0.057227	0.25883	0.20991	0.16272	0.19039	0.1998	0.25269	0.4312	0.17133	0.16024	-2.05	-2.7958	-2.6271	-2.4938	-3.0312	-2.6188	-2.7062	-3.1771	-2.4062	-2.6813	-2.8333	-2.4813	-3.0896	-2.5438	-2.6229	-3.0312	-102.044	83.477	52.926	188.324	134.970	78.187	141.061	133.138	-57.845	172.748	199.819	186.805	171.969	214.694	-129.274	126.305	0.00062687	0.00063208	0.00014347	1294.8	3.1633e-06	8.6541e-06	1214.1	405.47	5.7628e-06	7.6508e-06	475.29	214.91	155.47	64.977	6.1346e-06	100.83	0.0012437	0.0013648	0.00038557	1246.9	1.46e-05	1.5232e-05	1183.3	393.01	1.4871e-05	1.5005e-05	464.41	209.95	151.98	63.192	1.493e-05	98.775	189.984	-40.256	7.823	-118.885	21.217	-0.472	-119.167	-114.901	-9.351	6.594	-116.358	-113.183	-112.390	-107.753	22.529	-109.074	-8191	255	
4361.604	1	1	0	0	0.089028	0.045332	0.11425	0.16336	0.1873	0.2311	0.32883	0.1467	0.12535	0.087684	0.25315	0.13857	0.20465	0.13419	0.14737	0.076125	-1.9937	-2.6979	-2.6896	-2.4375	-2.9583	-2.55	-2.5687	-3.1458	-2.2812	-2.5396	-3.0083	-2.3063	-2.8604	-2.5729	-2.3604	-3.0312	-109.236	-128.286	109.859	185.795	99.524	148.698	97.335	-128.117	-38.845	148.194	149.849	159.269	-81.674	-104.202	73.316	165.755	0.00072855	0.0016657	0.00032328	1302.9	2.9594e-06	6.8785e-06	1224.9	409.75	4.1913e-06	1.2847e-05	483.84	214.57	155.65	65.161	8.1409e-06	101.6	0.0012422	0.0013783	0.00038791	1254.6	1.4434e-05	1.5422e-05	1190.8	396.77	1.4601e-05	1.5093e-05	469.53	210.88	152.85	63.359	1.4964e-05	99.355	190.925	-74.040	-96.177	-118.970	44.624	16.511	-119.499	-115.229	-29.651	24.316	-116.313	-113.438	-111.849	-107.353	-9.334	-109.079	-8191	255	
4361.675	1	1	0	0	0.12654	0.24706	0.084659	0.24629	0.22497	0.10196	0.24816	0.32479	0.1099	0.072168	0.11856	0.28312	0.19909	0.15902	0.21284	0.1929	-1.9104	-2.6521	-2.8958	-2.4771	-2.7375	-2.5625	-2.6104	-3.0708	-2.4958	-2.5125	-2.7875	-2.425	-2.9437	-2.9313	-2.3646	-3.1646	22.162	92.497	25.826	125.861	17.883	28.333	166.824	183.520	173.116	-32.675	201.977	182.643	201.071	206.277	192.266	142.610	0.00074446	0.00086467	0.00039164	1304.9	6.1398e-06	1.3804e-05	1226.2	409.27	1.0282e-05	3.1199e-06	484.73	216.92	156.52	65.002	2.1285e-06	101.32	0.0012472	0.0013905	0.00037554	1255	1.4753e-05	1.5104e-05	1194.4	396.06	1.4209e-05	1.5001e-05	470.79	211.85	153.28	63.597	1.5193e-05	99.466	194.445	-62.627	-31.560	-118.817	3.431	32.195	-119.002	-115.222	-7.016	90.395	-116.096	-113.075	-112.405	-107.763	-53.512	-108.814	-8191	255	
4361.796	1	1	0	0	0.15804	0.085544	0.31197	0.16042	0.097021	0.18826	0.15308	0.10656	0.0505	0.20743	0.091118	0.20096	0.17075	0.20743	0.12392	0.10799	-1.8667	-2.3479	-3.0604	-2.4521	-2.8396	-2.8792	-2.3896	-3.1396	-2.5833	-2.3937	-2.9188	-2.3625	-2.9625	-2.7896	-2.2042	-3.1833	-28.463	-26.859	-92.845	-101.072	-106.044	-35.110	132.521	182.923	-51.486	-95.596	104.557	184.120	218.550	173.272	61.802	177.622	0.00064229	0.00058361	0.00011604	1306.1	7.7024e-06	3.6041e-06	1228.1	409.03	4.6253e-06	6.5469e-06	480.77	216	157.38	65.7	6.8425e-06	101.24	0.0012488	0.0013864	0.00040256	1256	1.4595e-05	1.5504e-05	1196.2	396.08	1.5357e-05	1.5495e-05	469.54	211.69	153.45	63.741	1.5405e-05	98.867	189.542	-23.003	-25.327	-119.032	-50.620	16.426	-119.655	-115.397	-35.225	-8.338	-116.523	-113.388	-112.129	-107.710	38.366	-108.785	-8191	255	
4361.892	1	1	0	0	0.11748	0.30574	0.33297	0.20293	0.11902	0.36303	0.22755	0.3826	0.053582	0.13382	0.16981	0.052768	0.20691	0.29037	0.10865	0.30428	-2.2021	-2.3125	-2.9229	-2.5042	-2.7083	-2.9062	-2.4542	-2.9854	-2.4938	-2.3625	-3.1208	-2.5146	-2.8271	-3.0312	-2.3604	-3.0104	210.847	148.461	200.118	182.150	1.900	70.839	165.869	175.384	182.236	184.277	-132.517	154.608	96.491	121.379	-43.413	128.621	0.00062669	0.00053651	0.00028315	1309.4	1.0215e-05	1.1235e-05	1238.8	409.03	5.7898e-06	1.1681e-06	479.79	214.56	156.65	65.153	1.9732e-06	99.806	0.0013016	0.0014177	0.00040709	1257.2	1.4882e-05	1.5904e-05	1199.4	394.66	1.5301e-05	1.5841e-05	467.64	210.39	152.75	63.35	1.5857e-05	98.147	188.162	-11.468	-6.643	-118.709	0.819	12.637	-119.402	-115.376	9.624	-77.162	-116.392	-113.141	-112.343	-107.199	-105.629	-108.903	-8191	255	
4361.988	1	1	0	0	0.27329	0.18094	0.14612	0.14896	0.08405	0.15045	0.2597	0.31917	0.11935	0.47228	0.1268	0.27059	0.32852	0.29716	0.17196	0.042109	-2.3021	-2.3167	-3.0167	-2.7042	-2.8333	-2.9625	-2.6125	-3.1792	-2.7958	-2.1771	-2.9854	-2.6437	-2.5146	-3.0208	-2.4333	-2.9229	218.919	-52.807	166.415	101.718	140.424	65.878	140.669	201.026	-38.588	113.538	42.715	150.453	207.305	-118.413	-52.423	163.433	0.00063198	0.0019609	0.00016199	1298.4	6.9506e-06	6.6916e-06	1221.7	408.92	7.857e-06	4.6354e-06	482.93	217.2	156.78	65.47	1.046e-05	100.1	0.001297	0.0014572	0.00040541	1255.9	1.5363e-05	1.6375e-05	1189.9	395.96	1.6027e-05	1.6565e-05	470.49	212.5	153.83	63.751	1.6326e-05	98.185	190.022	-56.755	-26.460	-118.821	63.832	-69.369	-119.774	-115.566	-15.301	0.395	-116.375	-113.166	-111.931	-107.285	-12.425	-109.019	-8191	255	
4362.083	1	1	0	0	0.13883	0.12857	0.14599	0.41999	0.13514	0.13356	0.32817	0.012303	0.052184	0.052814	0.036217	0.089384	0.26714	0.32482	0.17459	0.26718	-2.3063	-2.3583	-2.9021	-2.8187	-2.5354	-2.9375	-2.4271	-2.8604	-2.725	-2.225	-3.1771	-2.825	-2.5812	-3.0479	-2.2938	-2.8021	-111.268	34.834	-10.669	201.351	142.445	94.536	90.668	0.251	-48.815	210.723	-127.740	210.604	206.437	161.944	135.672	108.086	0.00067292	0.0011798	0.00018428	1298.1	8.1066e-06	8.0461e-06	1235.9	416.13	3.9967e-06	1.0009e-05	492.22	220.41	159.14	66.105	7.2973e-06	101.27	0.0013218	0.0015094	0.00040901	1255.9	1.585e-05	1.673e-05	1198.6	401.21	1.6264e-05	1.6327e-05	477.26	214.77	155.41	64.434	1.6002e-05	99.132	191.678	-54.211	-37.157	-118.663	15.854	17.197	-119.004	-115.370	-53.411	1.441	-116.205	-113.260	-112.131	-107.608	57.299	-108.849	-8191	255	
4362.181	1	1	0	0	0.097115	0.40399	0.11741	0.24249	0.14797	0.2886	0.29938	0.28635	0.086366	0.059628	0.1109	0.2503	0.23577	0.048875	0.09268	0.1236	-2.3792	-2.1896	-2.8646	-2.8021	-2.3833	-3.1875	-2.5687	-2.8104	-2.8771	-2.2146	-2.9417	-2.8167	-2.4833	-3.0062	-2.4125	-2.8187	60.312	-121.285	2.736	215.758	-49.490	168.176	182.067	187.816	-62.267	-9.829	151.421	168.353	208.112	78.318	71.809	176.993	0.00063221	0.0012396	8.2094e-05	1308.2	3.4915e-06	1.2948e-05	1232.3	414.35	1.022e-05	6.3728e-06	493.29	221.62	158.77	66.386	4.5366e-06	103.13	0.0013129	0.0015025	0.00040813	1262.9	1.5329e-05	1.5686e-05	1202.6	400.63	1.5371e-05	1.5804e-05	478.45	215.2	155.55	64.972	1.5408e-05	100.57	192.938	-104.557	-55.997	-118.345	14.964	24.811	-119.136	-115.376	-2.490	27.281	-116.593	-113.000	-111.924	-108.186	17.435	-109.229	-8191	255	
4362.275	1	1	0	0	0.12966	0.11315	0.16949	0.23224	0.13963	0.21359	0.12086	0.45023	0.20346	0.14602	0.26414	0.28058	0.21635	0.10098	0.2025	0.22458	-2.6854	-2.1792	-2.7771	-2.8229	-2.2292	-2.9688	-2.6583	-2.6208	-2.925	-2.4375	-2.9354	-3.0604	-2.3	-3.1917	-2.425	-2.6333	-34.943	171.477	66.750	177.142	-22.692	14.715	130.812	215.499	30.727	-53.156	204.500	216.781	216.233	190.486	105.199	149.435	0.00080993	0.00093867	0.00019014	1316.3	3.2506e-06	1.4758e-05	1240.9	414.78	9.7409e-06	9.0305e-06	489.8	220.14	160.64	66.747	7.8681e-06	102.69	0.0012667	0.0013758	0.0003934	1264.2	1.467e-05	1.5456e-05	1211.2	401.48	1.4991e-05	1.5262e-05	477.01	214.69	155.98	65.223	1.5214e-05	100.49	193.011	-12.794	-31.759	-118.638	36.709	22.326	-119.373	-115.095	-0.369	15.498	-116.400	-113.035	-112.301	-107.680	-12.875	-108.934	-8191	255	
4362.371	1	1	0	0	0.12407	0.28547	0.093523	0.27184	0.26012	0.17939	0.28655	0.15079	0.1152	0.10525	0.099966	0.42636	0.1004	0.1258	0.316	0.1738	-2.5854	-2.3563	-2.7188	-2.9042	-2.1958	-2.9958	-2.7562	-2.5958	-3.0542	-2.2229	-2.7375	-2.9854	-2.3083	-2.9833	-2.5417	-2.5583	132.007	71.453	94.650	202.551	78.230	-45.900	60.284	134.109	70.517	223.206	1.942	154.856	-130.578	139.210	-23.708	207.066	0.00074161	0.00099574	2.749e-05	1312.2	7.1537e-06	1.2894e-05	1242.2	420.69	4.5254e-06	6.8869e-06	501.24	223.82	162.96	68.655	4.2079e-06	104.13	0.0012428	0.0013745	0.00038716	1264.8	1.4613e-05	1.504e-05	1210.1	406.64	1.4935e-05	1.4982e-05	485.42	218.55	159.15	66.435	1.4991e-05	101.66	190.365	-88.907	191.596	-118.545	-6.883	24.736	-119.137	-115.530	37.897	-27.472	-116.010	-112.899	-112.086	-107.504	-64.575	-108.889	-8191	255	
4362.492	1	1	0	0	0.19267	0.27411	0.15573	0.25705	0.29671	0.052783	0.2201	0.35941	0.2927	0.17659	0.11936	0.17344	0.19893	0.21578	0.01285	0.33196	-2.6229	-2.4667	-2.5333	-3.0042	-2.1729	-2.9292	-2.8271	-2.6083	-2.8812	-2.5979	-2.6229	-3.1146	-2.4396	-2.9104	-2.7417	-2.3208	112.232	30.733	24.689	158.686	138.188	188.587	145.645	205.865	83.173	195.079	183.637	105.192	137.034	119.264	216.810	134.782	0.00073109	0.00067516	0.00029949	1322.9	3.6815e-06	7.5426e-06	1257.5	424.81	1.0236e-05	1.3486e-05	500.95	226.78	164.91	68.699	6.9101e-06	104.79	0.0012563	0.0013909	0.00039491	1271.6	1.4615e-05	1.5187e-05	1222.3	411.33	1.5179e-05	1.5716e-05	489.78	221.13	161.4	67.103	1.4918e-05	102.49	193.154	-24.277	-34.939	-118.582	14.398	31.753	-119.392	-115.231	-23.801	37.576	-116.439	-112.888	-111.913	-107.421	22.236	-108.794	-8191	255	
4362.588	1	1	0	0	0.15988	0.061038	0.015773	0.42076	0.30461	0.19694	0.12747	0.2906	0.14568	0.086735	0.1099	0.41794	0.37195	0.0805	0.20163	0.29943	-2.6542	-2.375	-2.4188	-3.1458	-2.3542	-2.8417	-2.8708	-2.5875	-2.9896	-2.6833	-2.6896	-3.2375	-2.4396	-2.9104	-2.6333	-2.4646	34.986	89.889	-93.624	191.382	150.179	221.878	-34.255	181.260	198.275	188.175	208.788	165.296	182.202	-0.115	-2.895	154.830	0.00074084	0.0012214	0.00024807	1330.8	4.898e-06	1.8536e-05	1268.9	427.37	5.477e-06	7.6905e-06	506.18	227.57	166.37	70.085	5.877e-06	104.91	0.0012249	0.0013956	0.00038099	1278.4	1.4216e-05	1.5022e-05	1232	414.85	1.4675e-05	1.477e-05	494.43	223.22	163.19	68.058	1.469e-05	103.05	185.881	-51.094	-62.510	-118.732	93.273	-6.322	-119.167	-115.211	-18.282	-27.884	-116.493	-112.669	-111.883	-107.512	13.437	-108.921	-8191	255	
4362.684	1	1	0	0	0.16437	0.12437	0.16159	0.15389	0.041262	0.096721	0.08055	0.16812	0.21529	0.14353	0.26612	0.22524	0.18195	0.22447	0.2409	0.16955	-2.5625	-2.5062	-2.3208	-3.1437	-2.3375	-2.8458	-3.025	-2.6104	-2.8875	-2.7104	-2.5167	-3.1146	-2.4896	-2.8521	-2.9583	-2.4917	-104.694	140.192	33.007	200.306	13.629	96.959	69.475	162.394	195.353	188.637	-107.444	208.141	166.152	-84.877	4.319	161.677	0.00073524	0.00070018	0.00039414	1332.7	4.0596e-06	2.0734e-05	1266.1	421.77	5.1085e-06	6.4424e-06	499.79	221.91	162.91	68.598	7.1498e-06	102.95	0.0012097	0.0013441	0.00037913	1284	1.3987e-05	1.5122e-05	1229.7	409.38	1.4695e-05	1.5661e-05	485.5	217.63	159.45	66.61	1.4438e-05	100.95	191.657	-55.374	-26.550	-118.431	71.675	34.633	-118.940	-115.000	76.223	21.771	-116.192	-113.006	-111.917	-107.885	-7.512	-109.100	-8191	255	
4362.780	1	1	0	0	0.17447	0.23436	0.13504	0.26395	0.10884	0.36077	0.08549	0.12311	0.21646	0.3034	0.11408	0.37652	0.19114	0.24215	0.11585	0.14101	-2.5771	-2.5854	-2.2	-3.2521	-2.5438	-2.6229	-2.975	-2.3458	-2.8688	-2.7313	-2.4417	-3.1708	-2.5896	-2.6333	-2.9479	-2.5292	-41.865	-102.667	171.388	198.863	186.939	-83.187	-57.008	41.574	-61.753	81.252	205.592	111.684	141.867	226.037	29.905	-125.971	0.00063003	0.0010025	0.00031557	1313.8	3.7768e-06	1.2264e-05	1254.7	413.58	2.1153e-06	4.8159e-06	486.48	216.54	158.11	66.224	1.082e-05	101.04	0.0012361	0.0013633	0.0003768	1270.9	1.4625e-05	1.5385e-05	1215.3	399.82	1.4042e-05	1.4835e-05	471.96	212.18	154.49	64.366	1.4447e-05	98.608	190.686	-11.333	-55.479	-118.847	21.957	10.985	-119.365	-115.217	-54.295	-20.615	-116.365	-112.982	-112.110	-107.467	5.900	-108.862	-8191	255	
4362.876	1	1	0	0	0.14387	0.15614	0.22541	0.10465	0.04776	0.10407	0.2391	0.15828	0.27938	0.30374	0.17038	0.15748	0.050373	0.22315	0.14358	0.42045	-2.5938	-2.6688	-2.2521	-3.2396	-2.3937	-2.6771	-3.2021	-2.5083	-2.6937	-2.8917	-2.3458	-3.125	-2.9083	-2.4542	-2.9	-2.4208	161.049	220.293	-51.423	-119.597	71.602	124.113	86.304	158.280	143.579	205.757	134.637	84.868	-12.846	158.655	187.198	181.988	0.00066654	0.0010036	0.00022348	1310.2	3.533e-06	1.3841e-05	1248.3	408.67	6.2799e-06	1.4722e-05	478.98	213.99	156.84	64.975	2.6745e-06	99.538	0.0011684	0.001288	0.00035827	1264	1.3314e-05	1.4022e-05	1209.9	395	1.3604e-05	1.445e-05	466.17	209.42	152.98	63.401	1.3882e-05	97.111	185.153	-21.185	-28.740	-118.832	-41.548	19.622	-119.323	-115.313	-29.749	20.377	-116.167	-113.320	-111.723	-107.904	53.993	-108.907	-8191	255	
4362.972	1	1	0	0	0.025198	0.073038	0.1217	0.33405	0.05291	0.18207	0.17141	0.18536	0.19404	0.081624	0.20084	0.28563	0.099921	0.32004	0.18545	0.044164	-2.3646	-2.7083	-2.3479	-3.1562	-2.6937	-2.3792	-3.25	-2.3729	-2.7417	-3.0896	-2.5938	-2.9188	-2.7771	-2.3542	-3.0854	-2.6521	53.369	-45.844	73.366	-117.301	134.182	-99.240	125.553	101.508	194.048	168.807	160.322	-103.594	135.898	206.459	-65.500	132.503	0.00071179	0.001269	0.00025179	1320.9	3.9248e-06	5.4464e-06	1248.9	407.5	9.9241e-06	8.845e-06	473.41	212.06	154.1	64.502	8.7558e-06	98.64	0.0011569	0.0012686	0.00036278	1266.7	1.3819e-05	1.4297e-05	1209.2	391.38	1.4332e-05	1.4281e-05	461.59	206.5	150.99	62.989	1.4198e-05	96.088	189.136	-65.374	-76.497	-118.953	20.134	106.599	-119.221	-114.755	-84.052	41.964	-116.394	-113.170	-111.978	-107.694	17.233	-108.829	-8191	255	
4363.091	1	1	0	0	0.068086	0.23973	0.088435	0.21142	0.10904	0.18193	0.23136	0.026475	0.09435	0.18846	0.43678	0.14767	0.13347	0.2018	0.32616	0.23154	-2.2396	-2.8521	-2.4729	-2.9813	-2.5729	-2.3021	-3.2208	-2.7708	-2.3958	-2.9042	-2.425	-2.8187	-2.8979	-2.4583	-2.9437	-2.9583	164.834	79.458	100.658	169.209	-4.533	18.303	212.294	220.417	-52.421	173.527	181.897	-130.722	216.383	-108.109	105.376	119.040	0.00064836	0.00086106	0.00027658	1317.3	9.8743e-06	8.2214e-06	1244.3	400.72	5.4171e-06	8.3012e-06	468.58	207.9	151.77	63.432	4.6607e-06	96.329	0.0012034	0.0013328	0.00037438	1269.7	1.4258e-05	1.4583e-05	1208.4	386.94	1.449e-05	1.481e-05	454.62	202.82	148.59	61.882	1.4588e-05	94.795	191.978	-43.902	-44.085	-118.762	40.162	79.170	-119.437	-114.923	-39.351	62.017	-116.254	-113.015	-112.219	-107.766	-17.018	-109.053	-8191	255	
4363.188	1	1	0	0	0.11208	0.22263	0.14968	0.18222	0.084416	0.067725	0.10594	0.40771	0.21736	0.11758	0.046053	0.14998	0.31767	0.16837	0.15979	0.21755	-2.0417	-2.9396	-2.2313	-2.9104	-2.7458	-2.2979	-3.1104	-2.6312	-2.525	-2.9708	-2.425	-2.9646	-2.9625	-2.5083	-2.8063	-2.9854	106.845	90.453	164.213	-124.806	108.903	167.973	194.558	216.320	195.807	15.571	216.232	146.872	162.967	-96.657	13.186	203.628	0.0006544	0.0011222	0.00012659	1316.1	1.2166e-06	1.1582e-05	1235.7	396.31	1.9654e-06	8.1119e-06	458.13	203.72	148.04	61.847	1.1766e-05	95.034	0.0011897	0.0013242	0.00036518	1270.9	1.4295e-05	1.5192e-05	1205.1	381.24	1.4364e-05	1.4829e-05	446.89	198.68	145.23	60.572	1.4879e-05	92.896	188.190	-79.787	-89.488	-118.553	15.484	29.499	-119.482	-115.148	30.941	55.744	-116.198	-113.439	-112.053	-107.888	35.631	-108.781	-8191	255	
4363.284	1	1	0	0	0.19211	0.013648	0.15135	0.22847	0.17251	0.19511	0.20981	0.0588	0.148	0.053399	0.13697	0.25992	0.11652	0.1213	0.24156	0.1181	-1.9937	-3.0958	-2.325	-2.8812	-2.9792	-2.3417	-3.1104	-3.0208	-2.4917	-2.9562	-2.6042	-2.85	-2.8979	-2.3208	-2.6875	-2.8896	93.416	31.684	-14.402	156.187	168.633	11.327	186.758	188.099	156.305	4.741	207.764	177.319	-126.977	-80.185	25.541	169.514	0.00072698	0.00091019	0.00022947	1309.5	3.7732e-06	1.1847e-05	1229.7	390.54	8.707e-06	8.0795e-06	454.09	200.88	146.48	61.263	5.9618e-06	93.42	0.0012251	0.0013573	0.00036912	1266.4	1.4204e-05	1.5032e-05	1195.4	377.17	1.4534e-05	1.5333e-05	441.6	196.13	144.03	59.832	1.485e-05	91.301	197.716	-54.748	-79.639	-118.700	43.606	54.684	-119.233	-115.079	15.701	44.327	-116.140	-113.160	-111.540	-107.442	-103.930	-109.039	-8191	255	
4363.380	1	1	0	0	0.1229	0.16813	0.10673	0.28184	0.1471	0.16658	0.21506	0.21024	0.011291	0.24964	0.11552	0.17255	0.036132	0.15069	0.20917	0.074118	-1.9021	-2.9167	-2.4896	-2.7438	-2.9062	-2.2708	-3.0042	-2.8417	-2.1896	-3.0833	-2.525	-2.6688	-3.0438	-2.5312	-2.8083	-2.9813	65.118	-95.441	-102.983	183.477	30.804	60.204	146.551	155.550	96.505	0.612	143.490	169.672	-10.421	219.433	219.836	159.917	0.00062631	0.00074159	0.00033999	1312.6	6.0861e-06	8.7392e-06	1223	386.05	5.9892e-06	6.2691e-06	446.1	197.34	144.08	60.206	9.1449e-06	92.58	0.0012515	0.0014035	0.00038425	1266.7	1.4725e-05	1.5615e-05	1188.5	373.96	1.4924e-05	1.5593e-05	434.79	192.63	141.13	58.445	1.5158e-05	90.056	188.459	-49.901	-44.659	-118.763	-23.048	98.789	-119.501	-114.595	25.978	34.081	-115.840	-112.998	-111.993	-107.709	-25.308	-109.105	-8191	255	
4363.500	1	1	0	0	0.2496	0.1452	0.089383	0.38605	0.24863	0.23826	0.25646	0.15452	0.13776	0.19734	0.18833	0.094677	0.18862	0.1384	0.14595	0.38304	-2.0375	-2.9375	-2.6417	-2.6646	-2.9458	-2.3375	-2.7687	-2.8771	-2.1521	-3.0229	-2.7917	-2.6042	-2.9542	-2.3125	-2.6437	-3.1271	136.097	-88.936	77.727	217.999	115.660	-38.137	156.561	-74.724	-85.368	-116.226	213.781	-88.452	211.568	197.297	7.327	140.588	0.0006097	0.00066732	0.00029602	1296.9	6.1504e-06	1.4994e-05	1214.8	382.96	9.7256e-06	5.2771e-06	445.51	195.45	143.18	59.554	1.0244e-05	92.348	0.0012244	0.0013718	0.00038878	1258.8	1.4168e-05	1.5322e-05	1182.2	370.58	1.4651e-05	1.5093e-05	433.24	191.21	139.87	58.089	1.5003e-05	90.126	187.022	-2.713	-32.326	-118.974	-6.864	42.453	-119.714	-114.841	-5.190	-50.526	-116.262	-113.181	-112.178	-107.702	-12.619	-109.104	-8191	255	
4363.572	1	1	0	0	0.21474	0.23946	0.19281	0.099659	0.23174	0.20808	0.34647	0.20821	0.22207	0.18973	0.058442	0.41246	0.24084	0.073238	0.2761	0.17503	-1.9333	-3.0083	-2.725	-2.5729	-3.2542	-2.5625	-2.6917	-3.0521	-2.4104	-2.9354	-2.7667	-2.4771	-3.1146	-2.6688	-2.5667	-3.0563	95.425	155.871	76.335	-23.252	178.133	158.299	215.254	139.874	84.384	-40.979	51.197	166.492	-130.292	47.101	-131.886	178.006	0.00065466	0.00060784	0.00018764	1293.7	3.2425e-06	1.4674e-05	1201.8	379.38	2.7528e-06	5.0886e-06	439.46	193.33	142.15	58.677	4.488e-06	91.039	0.0011986	0.0013313	0.00037518	1247.9	1.3891e-05	1.5014e-05	1173.3	368.11	1.4013e-05	1.4498e-05	430.26	189.35	138.53	57.172	1.4816e-05	89.148	188.377	-55.746	37.249	-118.785	-47.782	20.460	-119.436	-115.168	-87.626	12.210	-116.227	-113.303	-112.108	-107.549	-15.659	-109.062	-8191	255	
4363.668	1	1	0	0	0.21918	0.28057	0.12973	0.13484	0.13469	0.12127	0.16562	0.31791	0.29199	0.18072	0.27314	0.30492	0.17355	0.068824	0.067098	0.17893	-1.9083	-2.8042	-2.8917	-2.4688	-3.0417	-2.5229	-2.5667	-3.0833	-2.4542	-2.7708	-3.0458	-2.4854	-3.1396	-2.7104	-2.3438	-3.1521	-54.481	64.496	221.626	188.017	55.006	61.583	142.160	172.696	-90.010	100.320	151.720	167.831	153.517	81.138	167.775	128.001	0.00053088	0.00078685	0.00027818	1299	9.3014e-06	5.5705e-06	1210	375.3	5.784e-06	8.1085e-06	432.38	188.76	138.9	57.558	4.5948e-06	89.103	0.0012214	0.0013883	0.00038468	1250.1	1.445e-05	1.5226e-05	1175	365.18	1.4573e-05	1.5513e-05	422.74	185.32	135.85	56.156	1.5303e-05	87.227	198.359	-39.719	-35.088	-119.175	20.639	15.670	-119.564	-115.183	12.374	56.451	-116.238	-113.102	-112.007	-107.324	6.915	-109.116	-8191	255	
4363.764	1	1	0	0	0.012471	0.16991	0.13599	0.37187	0.24516	0.21945	0.026245	0.16082	0.25548	0.057801	0.12388	0.25802	0.3419	0.028021	0.16984	0.18618	-1.8438	-2.6396	-2.8937	-2.375	-2.9104	-2.5833	-2.6542	-2.9958	-2.2917	-2.7375	-2.85	-2.4	-2.9708	-2.7833	-2.2354	-3.1375	51.600	108.897	154.416	180.866	4.693	-4.985	133.368	85.184	65.132	-113.736	181.854	113.650	190.618	93.513	152.855	151.925	0.00058332	0.0006524	0.00015014	1299.7	4.0763e-06	1.5818e-05	1214.7	375.29	3.4381e-06	1.2175e-05	429.51	189.22	138.37	57.151	1.0336e-05	88.699	0.0012184	0.0013939	0.00037875	1257.4	1.4516e-05	1.5814e-05	1176.1	362.68	1.4836e-05	1.4956e-05	420.77	184.04	135.22	55.73	1.5248e-05	86.713	186.156	-79.945	-24.692	-118.593	25.181	12.176	-119.674	-115.492	-3.120	7.283	-115.933	-113.092	-112.057	-107.489	4.035	-109.239	-8191	255	
4363.885	1	1	0	0	0.10915	0.34277	0.23915	0.24184	0.19651	0.25919	0.2318	0.12001	0.04644	0.11487	0.081319	0.15577	0.03742	0.15794	0.095835	0.19467	-2.1	-2.5438	-2.9646	-2.5792	-2.8771	-2.6708	-2.475	-3.1729	-2.5604	-2.45	-3.0708	-2.4188	-3.0208	-2.8125	-2.2687	-3.1167	208.218	95.347	124.777	-103.210	-6.944	4.913	129.540	-105.768	-81.591	-86.081	-71.262	215.134	-53.055	43.615	84.583	-71.945	0.00054249	0.0012827	0.00021682	1296.5	8.2249e-06	1.2296e-05	1197.8	369.79	9.793e-06	6.8606e-06	427.86	187.97	138.13	57.09	3.9594e-06	88.524	0.0012263	0.0013654	0.0003892	1249.1	1.4661e-05	1.532e-05	1169.5	359.94	1.4612e-05	1.5009e-05	419.24	183.96	134.99	55.665	1.5152e-05	86.769	199.384	-40.438	-14.701	-118.986	50.471	45.574	-119.259	-115.195	4.029	65.606	-116.075	-113.253	-112.022	-107.674	89.029	-109.180	-8191	255	
4363.979	1	1	0	0	0.085998	0.15039	0.27888	0.14125	0.17221	0.16131	0.099756	0.38317	0.19853	0.09971	0.048399	0.099274	0.16645	0.13615	0.14951	0.08624	-1.9896	-2.5479	-3.15	-2.5292	-2.8417	-2.7667	-2.3312	-3.3438	-2.5958	-2.6021	-3.1375	-2.375	-2.7042	-2.9417	-2.2833	-3.0667	24.102	-35.231	-5.111	169.393	159.359	156.585	82.248	169.898	151.091	53.385	-3.504	0.562	89.461	-100.361	5.392	181.613	0.00062287	0.00057134	0.00018402	1304.5	1.0404e-05	1.3617e-05	1212.3	375.67	6.5088e-06	4.3656e-06	431.27	188.6	139.36	58.422	1.0622e-05	89.827	0.0012126	0.0014032	0.00038565	1254.6	1.4814e-05	1.5286e-05	1178.5	363.65	1.4951e-05	1.5269e-05	422.17	185.43	136.48	56.842	1.5269e-05	87.993	199.757	-42.396	-53.559	-118.622	-3.661	-1.830	-119.309	-115.185	1.451	27.202	-116.179	-113.423	-112.380	-107.389	-6.523	-109.017	-8191	255	
4364.076	1	1	0	0	0.2824	0.24991	0.043053	0.16496	0.25805	0.12534	0.1674	0.20484	0.16908	0.11841	0.19824	0.18416	0.093546	0.090732	0.30262	0.006454	-2.3125	-2.2958	-2.9125	-2.5312	-2.6208	-2.8521	-2.3146	-3.1167	-2.6125	-2.6771	-3.0229	-2.7521	-2.6792	-3.1521	-2.1604	-3.0479	97.934	69.549	47.729	202.879	-116.990	-51.148	145.658	197.055	-93.626	188.760	82.843	64.471	215.323	222.088	129.989	-115.118	0.00057578	0.00094798	0.00014444	1307.7	3.7818e-06	1.0014e-05	1210.2	379.73	4.887e-06	2.0723e-06	443.58	193.98	143.02	58.975	5.4414e-06	91.409	0.0012734	0.001418	0.00038702	1259.9	1.4867e-05	1.5923e-05	1181.1	366.82	1.4649e-05	1.5471e-05	431.24	189.43	139.76	57.595	1.5539e-05	89.166	194.750	-62.630	-18.985	-118.708	-42.493	54.534	-119.446	-115.438	-17.922	47.143	-116.251	-113.082	-112.226	-107.673	-59.996	-109.129	-8191	255	
4364.173	1	1	0	0	0.098305	0.21973	0.061745	0.17193	0.16979	0.12729	0.085309	0.23734	0.12996	0.14255	0.096315	0.15971	0.335	0.21032	0.024425	0.29702	-2.4229	-2.425	-2.8792	-2.5646	-2.4667	-3.0646	-2.3896	-2.8208	-2.7875	-2.175	-3.1146	-2.7729	-2.6292	-3.1042	-2.3312	-2.9396	-55.132	194.818	106.436	144.691	218.738	118.323	191.498	192.473	-28.070	2.641	106.803	-70.146	142.907	216.522	96.203	101.924	0.00063756	0.00070451	0.00017747	1300.3	4.4246e-06	5.3222e-06	1212.3	379.65	3.9122e-06	3.3544e-06	441.88	194.98	143.21	59.755	8.9445e-06	91.218	0.0012433	0.0014166	0.00038415	1256.8	1.4759e-05	1.5495e-05	1177.8	369.32	1.4891e-05	1.551e-05	431.11	191.55	140.34	58.171	1.545e-05	89.108	183.488	-85.113	-54.863	-118.502	-10.940	17.740	-119.409	-115.347	-35.719	-16.975	-116.415	-112.777	-112.340	-108.036	52.748	-109.055	-8191	255	
4364.268	1	1	0	0	0.46997	0.20905	0.37853	0.36091	0.37547	0.23852	0.28564	0.3766	0.06998	0.1088	0.2472	0.22839	0.13936	0.10146	0.26488	0.15702	-2.3479	-2.3792	-2.9042	-2.825	-2.4104	-3.0083	-2.5563	-2.9417	-2.7708	-2.3083	-3.1667	-2.6396	-2.5583	-3.0021	-2.4292	-2.775	91.140	92.809	-17.611	191.104	-26.925	110.805	136.446	201.420	135.946	-30.007	-99.544	139.375	-101.599	2.842	-93.074	171.371	0.00056883	0.00099823	0.00034879	1306.5	3.7638e-06	9.8135e-06	1206.3	379.41	5.0942e-06	1.2301e-05	440.98	197	145.18	60.036	5.0224e-06	92.078	0.0012743	0.0014107	0.00039651	1255.7	1.5123e-05	1.5654e-05	1176.2	369.73	1.4797e-05	1.5514e-05	432.31	192.76	141.29	58.504	1.5085e-05	90.156	192.563	-60.164	-74.049	-118.572	60.124	33.060	-119.590	-115.079	-18.962	20.806	-116.216	-113.211	-112.157	-107.680	-1.052	-108.977	-8191	255	
4364.364	1	1	0	0	0.064921	0.079001	0.31157	0.19396	0.12258	0.13422	0.15701	0.31153	0.11855	0.2156	0.087964	0.028708	0.13022	0.14392	0.26597	0.16458	-2.6021	-2.2646	-2.9104	-2.8833	-2.375	-3.0917	-2.5521	-2.7396	-2.9604	-2.3333	-2.9104	-2.8146	-2.4833	-3.0271	-2.4125	-2.6521	-82.997	0.295	-12.583	-109.762	90.966	-92.414	-126.472	159.916	187.315	-8.763	144.773	56.723	166.217	136.246	-4.602	211.034	0.00062536	0.00094265	0.00025194	1300.6	1.1288e-05	1.1461e-05	1220.6	384.32	7.9075e-06	6.3628e-06	448.93	197.85	145.38	60.232	5.9526e-06	92.364	0.001223	0.0014086	0.00038442	1255.1	1.4619e-05	1.5011e-05	1185	372.37	1.4528e-05	1.5358e-05	435.78	193.15	141.98	59.021	1.4838e-05	90.512	192.927	-52.699	-39.739	-118.844	-3.439	30.075	-119.169	-115.211	-28.828	-23.229	-116.449	-113.010	-112.296	-107.884	38.133	-109.396	-8191	255	
4364.460	1	1	0	0	0.032023	0.14684	0.11437	0.031053	0.19738	0.055025	0.29058	0.23778	0.038615	0.22537	0.10582	0.16505	0.20738	0.25546	0.083915	0.18523	-2.5146	-2.2896	-2.6646	-2.8937	-2.3292	-2.9729	-2.6688	-2.7208	-3.0292	-2.3167	-2.7896	-2.8646	-2.3792	-3.05	-2.3458	-2.5771	201.335	157.173	50.137	-131.529	1.189	0.754	174.719	170.424	201.777	140.345	-114.383	-48.722	205.931	180.504	52.606	211.872	0.00059675	0.00065629	0.00018505	1309.1	3.2834e-06	2.7046e-07	1221.5	382.91	3.359e-06	1.4183e-06	446.68	197.99	144.81	60.227	1.852e-06	92.719	0.0012202	0.0013694	0.0003739	1259.2	1.4464e-05	1.4838e-05	1186	370.93	1.4201e-05	1.4384e-05	434.77	192.69	141.01	58.82	1.4188e-05	90.786	181.448	-28.291	-41.292	-118.716	-22.157	103.390	-119.270	-115.210	19.661	87.094	-116.758	-112.977	-112.167	-107.535	142.879	-108.999	-8191	255	
4364.581	1	1	0	0	0.0096361	0.24616	0.14442	0.34179	0.22103	0.15033	0.24308	0.23913	0.078796	0.090228	0.35129	0.20198	0.037399	0.19601	0.39285	0.33665	-2.5104	-2.2438	-2.6646	-2.9458	-2.3083	-3.1292	-2.8146	-2.6688	-2.9292	-2.4167	-2.7083	-2.7583	-2.3063	-2.9125	-2.6958	-2.6896	109.671	134.089	34.162	144.256	-103.268	35.259	174.334	-98.506	210.995	-71.466	202.073	162.669	83.127	-90.021	106.001	143.400	0.00062201	0.0001954	0.00041672	1307.3	4.386e-06	1.7127e-05	1214.8	381.09	5.0017e-06	5.9564e-06	438.67	195.93	142.65	59.695	3.2203e-06	91.775	0.0012021	0.0013082	0.00037024	1257.7	1.3493e-05	1.4561e-05	1181.6	369.01	1.3815e-05	1.4335e-05	430.42	191.12	140.15	58.175	1.4544e-05	89.853	194.074	202.612	-90.777	-118.563	36.399	21.676	-119.028	-115.195	-5.072	9.751	-116.049	-113.472	-112.403	-107.396	-19.188	-108.963	-8191	255	
4364.677	1	1	0	0	0.057199	0.22253	0.057487	0.40519	0.15095	0.17368	0.34093	0.23514	0.040464	0.1416	0.14278	0.19061	0.28852	0.08521	0.16032	0.19249	-2.5687	-2.3917	-2.6125	-2.9917	-2.3354	-2.8708	-2.7646	-2.3604	-2.9375	-2.6042	-2.6271	-3.1292	-2.5396	-2.825	-2.8146	-2.5604	67.487	117.624	33.382	-131.546	128.439	170.538	128.679	202.220	96.675	77.215	-112.069	117.756	155.600	187.204	194.457	-9.438	0.00067108	0.0013701	0.00014665	1307.9	1.1419e-05	1.2223e-05	1210.5	380.06	8.4376e-07	7.9774e-06	440.71	194.71	144.15	59.697	9.4986e-06	92.107	0.0011798	0.0013042	0.00037066	1258	1.3845e-05	1.4649e-05	1180.6	368.02	1.4453e-05	1.4557e-05	429.19	190.86	140.26	58.336	1.4124e-05	89.727	195.995	-67.495	-36.724	-118.889	2.844	30.255	-118.917	-115.171	-55.275	-27.975	-116.217	-113.146	-112.044	-107.835	-6.654	-109.400	-8191	255	
4364.773	1	1	0	0	0.4448	0.12003	0.23995	0.12804	0.2387	0.17459	0.41521	0.14422	0.054607	0.036383	0.077483	0.20967	0.29188	0.086935	0.17118	0.19181	-2.4938	-2.4896	-2.3896	-3.2687	-2.2	-2.8125	-2.9813	-2.5458	-2.85	-2.5125	-2.5021	-3.0542	-2.4708	-2.8042	-2.8458	-2.475	43.262	22.462	15.984	183.523	-0.544	-94.982	171.241	200.654	156.182	8.868	27.356	-96.254	223.878	-111.608	126.062	175.496	0.00061574	0.00046093	0.00022757	1298.5	6.8929e-07	1.3858e-05	1212.6	380.17	6.028e-06	1.5679e-05	442.56	194.77	142.48	59.302	6.9179e-06	91.256	0.0011821	0.0012728	0.00036586	1251.1	1.3492e-05	1.4203e-05	1178.7	367.69	1.4062e-05	1.4021e-05	429.8	190.41	139.49	57.906	1.4524e-05	89.493	191.758	-29.360	-85.190	-118.797	-62.618	12.090	-119.098	-115.234	-47.862	12.343	-116.246	-112.871	-111.801	-107.638	-48.151	-109.070	-8191	255	
4364.869	1	1	0	0	0.23079	0.12294	0.27872	0.28033	0.12557	0.10133	0.32181	0.1712	0.4549	0.22985	0.22686	0.090938	0.083037	0.16615	0.17076	0.25118	-2.4062	-2.6167	-2.4458	-3.0125	-2.3104	-2.7896	-2.9938	-2.5208	-2.9437	-2.6542	-2.4229	-3.25	-2.4437	-2.7521	-2.8833	-2.3375	58.673	155.059	225.611	165.310	-1.192	70.005	88.388	91.882	142.980	54.963	212.622	-33.426	83.181	200.641	37.898	132.777	0.00059314	0.00055595	0.00033326	1306.4	2.217e-06	2.9387e-06	1215.9	379.66	8.9776e-06	7.3551e-06	437.67	193.2	141.08	59.191	5.7819e-06	91.088	0.0011851	0.0013166	0.00036544	1256.7	1.3701e-05	1.4637e-05	1181.5	366.77	1.3888e-05	1.4044e-05	427.62	188.99	138.19	57.516	1.4066e-05	89.091	199.540	-107.717	-49.448	-118.457	20.823	-16.535	-119.110	-115.041	15.015	27.011	-116.556	-113.081	-111.904	-107.828	4.876	-109.005	-8191	255	
4364.965	1	1	0	0	0.11079	0.18788	0.37009	0.089577	0.18093	0.048585	0.007979	0.1874	0.22177	0.17945	0.34419	0.42721	0.13136	0.20963	0.19761	0.21754	-2.4062	-2.6146	-2.2271	-3.025	-2.4292	-2.775	-3.0438	-2.5542	-2.75	-2.8563	-2.2854	-3.0604	-2.8	-2.6167	-3.0604	-2.4042	163.306	149.861	-39.722	32.888	-101.465	34.986	113.023	-128.614	-93.480	30.425	-74.095	150.857	-8.051	-97.781	42.239	172.694	0.00065239	0.00063227	0.00030259	1306.1	7.4215e-06	1.1428e-05	1209.8	375.07	7.9294e-06	8.2616e-06	435.5	189.21	139.02	58.426	1.1985e-05	90.117	0.0011904	0.0013138	0.00036	1255.1	1.3449e-05	1.4218e-05	1179.7	363.32	1.3512e-05	1.4153e-05	423.64	185.72	136.57	56.817	1.3828e-05	88.202	192.206	-66.441	-57.755	-118.629	-17.882	18.774	-119.140	-115.347	-13.554	-24.087	-116.348	-113.060	-112.318	-107.678	-1.833	-109.065	-8191	255	
4365.060	1	1	0	0	0.14941	0.14957	0.086077	0.41418	0.16794	0.11115	0.11559	0.27265	0.14698	0.10338	0.12055	0.040489	0.23656	0.18018	0.19064	0.18831	-2.2708	-2.7396	-2.1854	-3.2708	-2.5208	-2.575	-3.1437	-2.4688	-2.7604	-2.8917	-2.4292	-3.1396	-2.6771	-2.5479	-3.0333	-2.5625	59.370	114.264	-52.099	-128.516	86.378	183.294	-103.787	128.601	17.119	-24.530	54.797	-23.682	122.445	161.044	1.575	92.999	0.00049504	0.00080427	0.00038115	1304.4	4.8106e-06	5.5504e-06	1209.6	373.35	3.9525e-06	7.5284e-06	427.09	187.31	138.17	57.444	6.3867e-06	88.885	0.0011528	0.0012579	0.00035135	1251.6	1.3519e-05	1.4348e-05	1173.4	360.12	1.386e-05	1.4017e-05	418.53	184.09	135.34	56.168	1.4226e-05	87.4	184.212	-50.831	-49.812	-118.660	-0.615	5.813	-119.317	-115.318	-55.112	-15.739	-116.577	-113.361	-112.279	-107.360	-34.858	-109.506	-8191	255	
4365.180	1	1	0	0	0.20341	0.081576	0.16501	0.20719	0.21391	0.047301	0.21547	0.14581	0.11328	0.17767	0.16599	0.32802	0.27347	0.30367	0.16277	0.064935	-2.2792	-2.8563	-2.2583	-2.9667	-2.8146	-2.5771	-3.275	-2.5687	-2.7396	-3.075	-2.4833	-2.9938	-2.7562	-2.3646	-2.9062	-2.5917	209.819	-3.784	-8.322	175.410	62.349	133.202	72.358	139.343	203.498	-108.575	1.851	168.444	197.491	129.579	175.874	178.734	0.00063755	0.00067672	0.00023539	1300.6	5.5868e-06	4.4322e-06	1204.1	371.42	5.7006e-06	6.5862e-06	427.72	189.82	137.85	57.502	8.8695e-06	89.753	0.001132	0.0012812	0.00036549	1252.4	1.3723e-05	1.4372e-05	1171.6	359.01	1.3788e-05	1.3948e-05	418.48	184.32	135.21	56.09	1.3698e-05	87.324	193.084	5.698	-90.849	-118.648	-49.156	15.298	-119.246	-115.514	37.040	-8.403	-116.619	-113.684	-111.898	-108.043	-38.390	-109.286	-8191	255	
4365.277	1	1	0	0	0.10195	0.16228	0.25084	0.3409	0.12486	0.10084	0.15391	0.24332	0.20884	0.1502	0.05899	0.056615	0.26634	0.26791	0.32378	0.11152	-2.2396	-2.8875	-2.35	-3.0021	-2.8667	-2.3063	-3.0083	-2.7687	-2.5271	-3.05	-2.5021	-2.8917	-3.0563	-2.3854	-2.9479	-2.7146	126.807	52.769	-79.647	218.031	-102.527	141.007	156.923	194.352	-3.400	-49.979	51.598	165.860	214.318	212.141	119.963	62.163	0.00065367	0.00088713	0.00021306	1292.3	3.8418e-06	7.6698e-06	1204.7	373.14	3.4329e-06	1.0797e-05	431.86	188.91	138.68	57.724	6.1341e-06	90.466	0.0011242	0.0012685	0.00034844	1241.4	1.2684e-05	1.3772e-05	1168.6	361.41	1.3576e-05	1.3828e-05	421.62	185.51	135.3	56.343	1.3701e-05	88.195	192.718	-48.657	-76.285	-118.668	-12.545	31.833	-119.587	-115.138	-55.294	10.469	-115.987	-113.424	-111.890	-107.773	9.806	-109.255	-8191	255	
4365.373	1	1	0	0	0.15092	0.12625	0.14403	0.24069	0.23548	0.20925	0.1627	0.24798	0.28495	0.056543	0.32683	0.12279	0.097897	0.10824	0.18422	0.29317	-2.0062	-3.0375	-2.3	-3.1021	-2.8208	-2.1854	-3.2104	-2.6604	-2.2646	-3.1229	-2.5	-2.8979	-3.0208	-2.2875	-2.8542	-2.8146	-84.437	199.763	182.442	157.606	-119.829	-32.879	130.233	156.802	-130.814	69.749	169.178	138.511	146.315	222.737	22.455	189.324	0.00063586	0.0014705	0.00021707	1294.3	3.5245e-06	1.164e-05	1204.6	374.48	4.0518e-06	1.3213e-05	433.89	189.43	138.67	57.724	5.8733e-06	90.351	0.0011243	0.0012526	0.00035443	1242.4	1.3253e-05	1.4154e-05	1173.6	362.68	1.3627e-05	1.3378e-05	421.81	186	135.67	56.584	1.3687e-05	88.271	190.138	-46.853	-19.206	-119.013	-14.204	16.824	-119.557	-114.988	-3.139	3.366	-116.143	-113.415	-111.824	-107.690	-7.167	-108.784	-8191	255	
4365.444	1	1	0	0	0.21825	0.040743	0.16556	0.084934	0.11317	0.24476	0.2305	0.17159	0.15681	0.1336	0.19297	0.015565	0.30878	0.1782	0.07234	0.21742	-2.1104	-2.9646	-2.4646	-2.8812	-2.8812	-2.3937	-2.8583	-2.9896	-2.4625	-2.8396	-2.5208	-2.6958	-2.9875	-2.3688	-2.8708	-2.6958	67.386	56.615	42.516	213.566	-57.470	-68.606	136.996	152.512	212.148	106.271	176.494	119.368	175.246	-78.792	62.097	169.788	0.00059273	0.0015252	0.0001598	1293.1	5.2062e-06	3.5679e-06	1199	375.4	4.5262e-06	7.3032e-06	433.96	190.26	139.54	57.996	5.3055e-06	89.693	0.0011442	0.0012698	0.00035751	1244.5	1.3262e-05	1.3942e-05	1167.1	362.08	1.3848e-05	1.3815e-05	422.31	185.88	136.2	56.675	1.3738e-05	88.117	184.853	-41.629	-67.219	-118.843	-80.621	86.258	-119.430	-115.518	-36.376	39.624	-116.506	-113.450	-111.939	-107.748	12.046	-109.155	-8191	255	
4365.541	1	1	0	0	0.18538	0.13311	0.075742	0.30717	0.11323	0.22481	0.26955	0.072626	0.11433	0.057836	0.12704	0.25069	0.24677	0.059324	0.21249	0.26381	-1.8646	-2.8854	-2.475	-2.6188	-2.9354	-2.3167	-3.0812	-2.975	-2.2375	-2.8688	-2.6896	-2.575	-3.0729	-2.3563	-2.7042	-2.9458	-0.712	97.234	151.163	188.326	79.022	-21.687	133.640	-59.643	51.193	-28.028	205.174	145.092	100.724	225.396	61.973	176.799	0.00073036	0.00062549	0.00019459	1278.4	7.2816e-06	1.031e-05	1194	373.96	7.8219e-06	1.0825e-05	432.57	191.12	138.21	58.024	8.2293e-06	90.106	0.0011543	0.0012516	0.00034303	1235.7	1.3082e-05	1.3905e-05	1165	361.67	1.3546e-05	1.4108e-05	421.8	185.66	135.65	56.439	1.4196e-05	88.101	194.907	-39.999	-45.721	-118.789	-29.607	127.768	-119.519	-115.364	-15.215	18.248	-116.187	-113.006	-112.007	-107.826	-2.328	-108.846	-8191	255	
4365.661	1	1	0	0	0.09608	0.11411	0.12758	0.12186	0.16024	0.17942	0.24842	0.29579	0.15281	0.082317	0.17849	0.20309	0.049563	0.036392	0.19739	0.30064	-1.9708	-3.0542	-2.5771	-2.5812	-2.8354	-2.5042	-2.9146	-2.9729	-2.3583	-3.0292	-2.65	-2.4813	-3.2083	-2.4729	-2.6875	-3.1063	-2.794	207.880	-37.350	-106.283	25.169	214.202	-116.615	144.767	12.688	167.030	131.232	-109.499	-37.061	-4.782	129.351	-102.815	0.00067316	0.001124	0.0002686	1285.2	3.498e-06	7.8149e-06	1196.7	375.63	4.2026e-06	6.119e-06	433.65	194.24	140.92	58.699	1.0418e-05	91.621	0.0011377	0.0012413	0.00035614	1237.9	1.3364e-05	1.3991e-05	1165.1	363.92	1.3344e-05	1.3717e-05	424.52	189.09	137.62	57.285	1.352e-05	89.353	196.422	-69.115	-69.615	-119.135	-24.569	-5.880	-119.258	-115.068	-71.333	-4.988	-116.275	-113.331	-111.975	-107.571	31.306	-109.570	-8191	255	
4365.757	1	1	0	0	0.1331	0.2438	0.18791	0.31509	0.021718	0.13734	0.092774	0.21191	0.14797	0.48856	0.059458	0.28394	0.23216	0.06449	0.10511	0.34202	-1.9542	-2.8979	-2.4979	-2.4271	-3.0208	-2.4292	-2.7021	-3.0646	-2.3583	-2.7313	-2.8688	-2.425	-3.0458	-2.5833	-2.5292	-3.1083	42.625	70.835	194.436	207.824	-59.058	168.919	5.817	140.107	127.837	-129.211	-65.704	-124.423	216.244	161.434	81.926	217.930	0.00055627	0.0011785	0.0001601	1282.8	5.2326e-06	4.2632e-06	1195.9	373.8	8.0586e-06	1.1876e-06	437.96	190.33	139.37	58.55	8.3931e-06	91.658	0.0011183	0.0012502	0.00035491	1236.4	1.3119e-05	1.3762e-05	1165.6	363.08	1.3352e-05	1.3717e-05	425.18	187.18	136.36	57.118	1.3186e-05	89.671	200.808	-41.516	12.232	-118.942	-17.777	28.870	-118.993	-115.260	-19.279	76.539	-116.045	-113.406	-112.174	-107.751	-60.691	-108.635	-8191	255	
4365.853	1	1	0	0	0.18963	0.098458	0.36266	0.10509	0.13959	0.12911	0.29015	0.14547	0.22503	0.18021	0.059123	0.19212	0.11175	0.14382	0.11659	0.20785	-1.9021	-2.8438	-2.6896	-2.2438	-3.0479	-2.5438	-2.5312	-3.1146	-2.35	-2.7667	-2.8667	-2.3917	-3.0208	-2.7583	-2.5771	-3.1937	-13.689	165.354	150.446	-37.763	-33.037	151.476	150.880	173.799	132.957	-98.783	91.932	-123.598	216.854	169.239	-47.144	209.195	0.0006346	0.0008234	0.00016582	1284.2	4.8899e-06	8.4001e-06	1198	376.2	4.3699e-06	7.6461e-06	439.59	194.38	140.93	58.802	1.0098e-05	91.505	0.0011192	0.0012692	0.00034042	1233.4	1.2542e-05	1.3517e-05	1165.7	364.35	1.3024e-05	1.3188e-05	427.71	189.58	137.88	57.363	1.331e-05	89.86	184.907	-21.302	11.619	-118.648	-4.789	141.806	-119.458	-115.368	-58.096	-10.450	-115.817	-113.216	-111.687	-107.233	-27.450	-109.041	-8191	255	
4365.974	1	1	0	0	0.26195	0.19159	0.040421	0.27636	0.064892	0.10417	0.16501	0.36603	0.093681	0.26985	0.15467	0.071863	0.31863	0.1106	0.15093	0.37533	-1.9458	-2.5812	-2.9021	-2.4646	-3.0375	-2.6542	-2.5417	-3.1479	-2.4021	-2.725	-3.0312	-2.3479	-2.9417	-2.9167	-2.5	-3.2229	9.322	176.812	24.951	214.886	-0.494	64.294	198.702	133.359	-86.122	-72.141	-85.211	177.124	-125.448	-105.778	145.938	203.074	0.00060836	0.00038646	0.00015728	1277.1	5.4341e-06	2.9609e-06	1192.4	376.01	1.388e-06	3.6084e-06	434.55	192.48	139.65	58.448	3.8955e-06	90.913	0.0010951	0.0012248	0.00034514	1228.2	1.3173e-05	1.3085e-05	1157.9	364.01	1.319e-05	1.3282e-05	424.47	188.51	136.68	56.929	1.3378e-05	88.995	190.424	-83.047	-63.323	-118.996	57.813	2.504	-119.285	-115.328	136.535	19.211	-116.270	-113.546	-112.505	-107.591	-18.446	-109.149	-8191	255	
4366.046	1	1	0	0	0.070033	0.092094	0.15501	0.2176	0.094228	0.17203	0.078637	0.23353	0.2749	0.022867	0.13458	0.12575	0.13552	0.025544	0.17257	0.1424	-2.0812	-2.6229	-3.0417	-2.4396	-2.6375	-2.8167	-2.6688	-3.1833	-2.4646	-2.5083	-3.0812	-2.2792	-2.8042	-2.8083	-2.3458	-3.0333	-6.750	13.723	55.848	119.206	-95.525	193.260	184.457	-129.126	199.312	95.333	-118.266	138.642	199.303	65.051	-29.816	99.146	0.00058881	0.0011158	0.00019477	1267.6	6.6107e-06	1.0954e-05	1182.1	372.26	5.0018e-06	6.1167e-06	433.23	190.93	138.34	58.183	4.1577e-06	90.525	0.0011085	0.0012203	0.00034195	1224.4	1.2754e-05	1.345e-05	1153	360.59	1.2913e-05	1.3492e-05	421.53	186.65	135.31	56.439	1.3098e-05	88.554	187.959	-66.119	-64.093	-119.149	18.536	-26.963	-119.574	-115.211	-28.609	37.521	-116.478	-113.216	-112.191	-107.757	-17.261	-108.730	-8191	255	
4366.142	1	1	0	0	0.26482	0.048398	0.095051	0.212	0.22446	0.20085	0.040304	0.25476	0.14905	0.079373	0.21698	0.2882	0.097985	0.27884	0.0564	0.34465	-2.1792	-2.4292	-2.8646	-2.5062	-2.7729	-2.8333	-2.3917	-2.9521	-2.5729	-2.5583	-3.0333	-2.5812	-2.7333	-3.0896	-2.2208	-3.0292	-27.135	43.937	-128.311	175.385	-26.623	136.841	111.085	145.525	173.334	154.109	114.320	206.572	176.907	-104.945	-33.932	194.623	0.00061517	0.00091613	0.00014377	1276	5.3102e-06	4.6468e-06	1190.7	373.78	1.0902e-06	9.151e-06	438.49	193.89	139.86	58.808	5.6426e-06	92.505	0.0010923	0.001223	0.00033858	1223.5	1.3089e-05	1.343e-05	1155.6	362.37	1.2898e-05	1.3824e-05	426.14	189.23	136.63	57.066	1.3293e-05	90.03	194.745	-78.395	-116.892	-118.721	-29.963	93.403	-119.107	-115.043	40.996	10.502	-116.262	-112.723	-111.979	-107.551	27.749	-109.340	-8191	255	
4366.261	1	1	0	0	0.17325	0.25499	0.011392	0.12381	0.2365	0.12134	0.24473	0.073833	0.19734	0.27232	0.05794	0.073561	0.14306	0.20257	0.23219	0.19781	-2.2771	-2.4042	-3.025	-2.7146	-2.6417	-2.8146	-2.4562	-3.0687	-2.7854	-2.3312	-3.1354	-2.7917	-2.7458	-3.2021	-2.4333	-3.0667	165.017	-36.198	212.906	137.257	162.265	78.917	89.418	-123.106	-110.754	-118.151	161.687	209.761	-129.569	172.227	-68.337	99.563	0.00053419	0.0010754	0.00013396	1270	6.6685e-06	1.4594e-05	1198.7	376.6	2.7615e-06	9.3946e-06	438.32	191.51	138.83	58.284	8.9894e-06	91.521	0.0010601	0.0012339	0.00032173	1220.6	1.2829e-05	1.3339e-05	1158.2	363.72	1.2664e-05	1.2964e-05	426.49	187.8	135.73	56.695	1.3185e-05	89.611	192.344	-62.842	-17.941	-118.852	-0.622	30.908	-119.332	-115.393	83.358	78.269	-116.626	-112.746	-112.301	-107.755	-8.257	-109.361	-8191	255	
4366.357	1	1	0	0	0.043811	0.13781	0.14773	0.064313	0.084755	0.070089	0.20047	0.3344	0.052565	0.24137	0.19991	0.1034	0.18662	0.45567	0.033411	0.31796	-2.3833	-2.0792	-2.9646	-2.8	-2.5125	-2.9979	-2.4458	-3.0646	-2.7333	-2.3187	-3.0542	-2.7542	-2.5563	-3.15	-2.3417	-2.8542	46.506	-39.431	-21.534	-101.453	140.628	145.682	183.980	153.464	77.132	45.908	106.218	190.027	207.988	212.172	-0.742	190.655	0.00058967	0.00095928	0.00031071	1261.7	6.4948e-06	1.2243e-05	1182.9	371.26	4.3299e-06	6.6316e-06	433.89	191.8	137.34	57.225	7.9169e-07	90.493	0.0010941	0.0011873	0.00032886	1216.1	1.2669e-05	1.3063e-05	1151.1	359.88	1.2896e-05	1.3071e-05	422.51	186.32	134.05	55.874	1.2876e-05	88.485	191.905	-26.279	-34.325	-118.738	-51.020	38.463	-119.317	-115.427	-18.146	-13.244	-116.353	-112.921	-112.421	-107.701	141.319	-109.196	-8191	255	
4366.453	1	1	0	0	0.062565	0.090766	0.10632	0.12889	0.16157	0.1294	0.30012	0.25053	0.089911	0.21392	0.031967	0.15489	0.2839	0.053738	0.31089	0.062897	-2.4958	-2.2917	-3.0042	-2.8312	-2.2771	-2.9854	-2.6688	-2.7583	-3.0896	-2.3729	-3.1562	-2.7083	-2.3479	-3.1562	-2.4583	-2.7729	208.440	-54.173	-40.544	219.504	86.065	-75.716	161.610	154.845	97.635	12.270	71.710	203.581	193.766	21.955	-85.367	173.041	0.00058301	0.00070813	0.00035342	1260.7	6.4763e-06	1.1854e-05	1181	369.76	6.1259e-06	3.4049e-06	435.3	188.44	136.6	57.275	5.4209e-06	90.399	0.0010649	0.0012162	0.0003273	1213.5	1.2212e-05	1.3043e-05	1145.6	358.84	1.2721e-05	1.3016e-05	421.43	185.05	133.75	55.59	1.2835e-05	88.343	189.410	-72.209	-55.471	-118.819	11.079	12.619	-119.606	-115.236	-16.686	-61.565	-116.175	-113.334	-112.293	-107.735	-57.637	-109.360	-8191	255	
4366.574	1	1	0	0	0.12484	0.068131	0.14296	0.2964	0.12507	0.29153	0.063707	0.14543	0.34096	0.11275	0.10951	0.21946	0.1501	0.15167	0.1398	0.26657	-2.7	-2.4583	-2.9458	-2.7979	-2.2417	-2.8979	-2.725	-2.6292	-2.9042	-2.3417	-2.7479	-2.9604	-2.3812	-3.125	-2.5583	-2.6792	78.033	59.881	144.026	-37.249	-0.005	-40.115	224.195	113.362	56.539	-44.404	164.807	201.934	-20.110	216.449	-106.738	109.879	0.00061572	0.0011837	0.00036356	1258.6	6.0888e-06	5.5235e-06	1175.7	369.91	4.9853e-06	6.4236e-06	431.67	190.92	137.45	56.842	5.8625e-06	90.573	0.0010822	0.001178	0.00033316	1212.6	1.2577e-05	1.3069e-05	1145.3	357.2	1.27e-05	1.3136e-05	420.84	185.83	133.99	55.636	1.2677e-05	88.87	201.168	-67.833	11.772	-118.678	61.820	-2.055	-119.274	-115.736	18.025	57.077	-116.615	-112.935	-112.227	-107.685	-4.583	-109.548	-8191	255	
4366.670	1	1	0	0	0.051847	0.07499	0.38428	0.60549	0.10782	0.20974	0.25701	0.18339	0.2531	0.19044	0.36071	0.15391	0.34384	0.29523	0.07238	0.11905	-2.5229	-2.5	-2.8958	-3.0375	-2.3833	-2.8708	-2.7979	-2.5625	-3.1521	-2.3542	-2.9354	-2.85	-2.5583	-3.1208	-2.6021	-2.6458	166.403	70.565	-37.591	217.517	145.144	57.627	145.972	172.332	138.706	1.250	-109.304	184.423	175.948	192.455	-104.057	190.303	0.00060241	0.00092641	0.00022472	1252.5	2.4664e-06	1.0964e-05	1184.8	372.95	8.2397e-06	9.0461e-06	438.14	193.12	138.78	57.999	4.3601e-06	91.169	0.0010986	0.0012299	0.00034429	1207.4	1.2728e-05	1.3591e-05	1147.1	360.76	1.2977e-05	1.3221e-05	427.11	188.73	135.9	56.51	1.3273e-05	89.324	197.714	-87.347	-79.975	-118.884	65.994	-5.731	-119.312	-115.209	20.616	99.398	-116.669	-113.521	-112.167	-107.864	-24.321	-109.422	-8191	255	
4366.742	1	1	0	0	0.40917	0.11937	0.02396	0.21383	0.079985	0.031633	0.18743	0.33051	0.23347	0.073035	0.1267	0.26436	0.44641	0.18342	0.18349	0.032413	-2.7167	-2.525	-2.5563	-2.9167	-2.3104	-2.9958	-2.9313	-2.5479	-3.0729	-2.4396	-2.6625	-2.9896	-2.5187	-3.1188	-2.6104	-2.5104	21.015	89.355	-124.209	179.616	139.605	-10.737	136.612	130.943	-47.822	-40.913	212.462	-107.178	139.667	165.758	-3.638	43.602	0.00058684	3.6455e-05	0.00033925	1256.8	4.4484e-06	1.2533e-05	1189.8	375.34	6.1946e-06	5.1855e-06	439.66	196.34	140.66	58.493	5.7527e-06	92.18	0.0011544	0.0012287	0.00034778	1212.3	1.3208e-05	1.3631e-05	1153.8	364.02	1.3216e-05	1.3751e-05	429.3	191.64	137.62	57.108	1.3821e-05	89.887	190.166	-88.406	-10.273	-118.923	5.941	41.529	-119.329	-115.412	13.692	43.553	-116.359	-113.074	-112.279	-107.678	42.302	-109.762	-8191	255	
4366.838	1	1	0	0	0.14533	0.10432	0.17524	0.30238	0.056588	0.28648	0.12392	0.079097	0.21869	0.10414	0.17978	0.066384	0.11715	0.12853	0.0306	0.37474	-2.575	-2.4292	-2.5896	-2.9854	-2.2021	-2.8438	-3.0208	-2.5062	-3.1229	-2.4458	-2.625	-2.9917	-2.5896	-2.8917	-2.6646	-2.3063	-128.347	89.695	-63.922	218.115	133.532	-120.185	151.316	158.313	49.978	-114.230	-109.776	116.625	144.414	205.457	70.339	182.038	0.00072104	0.0011401	0.00013862	1262.9	1.7769e-06	9.3347e-06	1178.5	373.77	4.8677e-06	6.8001e-06	440.54	195.02	140.78	58.418	7.6517e-06	90.988	0.0011566	0.0012637	0.00035801	1214.8	1.3374e-05	1.4431e-05	1149.3	363.36	1.4113e-05	1.4171e-05	427.74	190.33	137.21	56.782	1.3899e-05	89.067	193.606	-47.193	-36.849	-118.855	-133.045	1.210	-119.455	-115.245	-12.753	16.338	-116.421	-113.301	-112.027	-107.748	1.248	-109.351	-8191	255	
4366.957	1	1	0	0	0.067255	0.21161	0.13494	0.19724	0.040492	0.10072	0.04826	0.096072	0.42514	0.20583	0.30476	0.16808	0.1381	0.23865	0.068261	0.20168	-2.6083	-2.4938	-2.625	-3.2167	-2.3896	-2.8958	-3.0375	-2.4896	-2.7125	-2.7104	-2.5021	-3.0042	-2.5458	-2.6708	-3.0625	-2.5083	182.078	-51.024	-30.192	159.133	132.013	60.813	143.688	25.104	-79.566	-61.336	-85.270	159.604	65.589	149.668	88.836	165.882	0.00061023	0.001257	0.00023615	1262.4	5.2422e-06	7.9211e-06	1183.8	373.51	2.37e-06	4.0776e-06	437.61	191.6	139.4	57.571	2.1271e-06	91.071	0.0011655	0.0013377	0.0003779	1214.1	1.3987e-05	1.456e-05	1150.7	360.95	1.4321e-05	1.4348e-05	425.09	187.88	136.24	56.284	1.4481e-05	88.639	188.513	-59.049	-17.823	-118.861	92.229	57.131	-119.292	-115.506	-84.082	84.140	-116.169	-113.254	-112.148	-107.764	15.538	-109.039	-8191	255	
4367.053	1	1	0	0	0.10045	0.27842	0.091439	0.26606	0.036704	0.088128	0.14962	0.22394	0.10701	0.13974	0.22689	0.35258	0.073861	0.027169	0.2302	0.22924	-2.4979	-2.7146	-2.2625	-3.1604	-2.425	-2.6396	-3.05	-2.4458	-2.85	-2.5646	-2.4625	-3.1542	-2.4875	-2.6792	-2.9292	-2.4833	22.657	189.914	187.216	196.355	192.415	152.786	168.130	139.944	-106.695	92.448	193.397	189.759	-18.345	136.202	98.806	97.435	0.00057934	0.0010046	0.00032595	1263.1	6.1007e-06	5.7813e-06	1182	373.28	8.0526e-06	7.6937e-06	438.34	194.5	140.29	58.028	5.2687e-06	91.303	0.0011754	0.0013233	0.00036862	1214	1.3835e-05	1.496e-05	1153.5	361.91	1.383e-05	1.4438e-05	427.52	190.05	137.1	56.665	1.4561e-05	89.374	197.461	-27.973	-34.731	-118.710	-48.937	55.819	-119.351	-115.299	-1.158	5.908	-116.165	-113.056	-112.077	-107.848	-24.938	-109.744	-8191	255	
4367.149	1	1	0	0	0.20565	0.015273	0.03507	0.29044	0.17379	0.13131	0.21135	0.15162	0.17	0.17812	0.14447	0.29222	0.095043	0.08445	0.20391	0.11801	-2.3688	-2.8042	-2.3333	-3.1354	-2.4646	-2.4521	-3.1229	-2.3521	-2.7875	-2.7562	-2.4333	-3.0062	-2.7104	-2.4396	-3.1458	-2.4708	57.984	44.408	-66.371	218.295	15.050	224.569	-129.824	-91.093	-43.508	-16.901	-127.670	198.624	-124.771	-11.146	61.269	180.876	0.00060752	0.00094368	0.00018427	1263.8	5.3617e-06	1.2014e-05	1187.1	376.84	6.9784e-06	1.0295e-05	444.05	195.49	140.34	58.658	4.6469e-06	92.412	0.0011906	0.0013433	0.00036472	1214.4	1.3715e-05	1.4891e-05	1154.4	364.16	1.4482e-05	1.4248e-05	430.66	191.23	137.88	57.215	1.4796e-05	90.626	187.270	-62.155	-7.634	-118.823	12.550	0.055	-119.688	-115.198	-0.580	36.943	-116.355	-112.919	-112.268	-107.994	-31.074	-108.937	-8191	255	
4367.245	1	1	0	0	0.16537	0.072028	0.12646	0.17897	0.32736	0.14529	0.11715	0.20869	0.076652	0.26208	0.091426	0.27327	0.21691	0.10065	0.067393	0.28083	-2.4062	-2.7708	-2.3854	-3.2938	-2.8312	-2.3333	-3.225	-2.4958	-2.7729	-2.9708	-2.4271	-3.0542	-2.8083	-2.5167	-3.0625	-2.6208	35.309	57.934	134.664	75.871	-31.801	2.958	-66.353	-55.497	-78.314	-103.391	-101.706	-3.279	-84.890	-45.857	221.020	205.902	0.00059979	0.00089942	0.00017788	1262.2	6.6136e-06	1.0355e-05	1192.7	379.86	3.5878e-06	1.2486e-05	443.39	195.38	140.5	58.328	6.3034e-06	91.147	0.0011774	0.001337	0.00037691	1215.6	1.4029e-05	1.5415e-05	1157.7	366.05	1.4498e-05	1.467e-05	430.66	191.14	137.47	56.903	1.5457e-05	89.236	182.596	1.185	-66.168	-118.756	-15.509	-6.977	-118.959	-115.359	6.697	4.328	-116.241	-113.362	-112.107	-107.897	27.900	-109.349	-8191	255	
4367.341	1	1	0	0	0.22401	0.20938	0.049891	0.42198	0.26165	0.13554	0.043594	0.03579	0.078219	0.14963	0.10668	0.18509	0.15588	0.088435	0.096775	0.11322	-2.1958	-2.9979	-2.1417	-2.9896	-2.55	-2.6417	-3.2479	-2.8396	-2.6896	-2.9188	-2.4188	-3.1042	-3.0542	-2.3667	-3.1208	-2.6542	-120.169	83.350	65.203	144.406	101.964	-118.686	176.412	149.943	31.008	-54.912	-4.746	195.234	181.886	13.528	-29.612	-122.696	0.00058113	0.00095114	0.00016348	1273.7	2.7944e-06	5.6254e-06	1196.4	373.15	5.3264e-06	1.0386e-05	434.06	193.81	138.08	57.491	5.3706e-06	91.049	0.0012288	0.001363	0.00038466	1225.3	1.4783e-05	1.5826e-05	1160	361.43	1.4395e-05	1.513e-05	423.53	188.86	136.08	56.236	1.5077e-05	89.048	187.575	213.909	14.752	-118.957	-75.158	62.615	-119.468	-115.239	8.356	47.018	-116.346	-113.157	-112.260	-107.572	21.682	-109.179	-8191	255	
4367.437	1	1	0	0	0.2086	0.056422	0.29224	0.01927	0.13565	0.18899	0.20751	0.099595	0.13911	0.12833	0.18466	0.23454	0.054403	0.17518	0.066437	0.56907	-2.1708	-2.8479	-2.1708	-2.975	-2.6396	-2.4542	-3.1021	-2.8625	-2.5104	-3.0396	-2.3146	-2.9458	-3.0208	-2.475	-3.1833	-2.6354	30.393	119.596	14.069	-87.378	186.575	-106.552	147.297	-15.360	223.720	194.328	-67.860	197.784	-95.618	161.752	-37.517	136.259	0.00059445	0.00084737	0.00011218	1261.7	8.1155e-06	8.513e-06	1185.6	370.92	1.9426e-06	6.7603e-06	437.72	192.67	137.91	57.916	6.8372e-06	91.273	0.0012173	0.001348	0.00037598	1218.9	1.3831e-05	1.4519e-05	1154	360.36	1.4278e-05	1.3852e-05	424.86	188.41	135.14	56.26	1.4134e-05	89.053	188.001	-53.792	-59.000	-118.743	3.128	-4.110	-118.997	-115.210	-39.007	38.190	-116.228	-113.493	-111.970	-107.768	-0.214	-109.026	-8191	255	
4367.534	1	1	0	0	0.17341	0.15923	0.056691	0.11677	0.14233	0.072435	0.19512	0.18745	0.21827	0.20107	0.10131	0.09734	0.066095	0.088162	0.1836	0.18193	-1.9562	-2.9104	-2.3292	-2.8417	-3.0646	-2.225	-2.9313	-2.8271	-2.4208	-3.0458	-2.6063	-2.8417	-3.1854	-2.3729	-2.8833	-2.9146	-67.125	100.041	170.026	-11.979	196.542	47.499	-112.745	-104.262	192.160	109.554	-18.260	184.711	210.179	-124.560	51.426	156.911	0.00059232	0.00081299	3.4679e-05	1264.5	4.6203e-06	1.1159e-05	1195	374.93	7.9918e-07	8.0869e-06	441.55	193.75	139.21	58.317	4.1639e-06	92.608	0.0011664	0.0012721	0.00035318	1220.4	1.3375e-05	1.4462e-05	1162.1	361.64	1.3491e-05	1.3613e-05	426.49	189.1	136.38	56.8	1.3569e-05	90.159	193.576	-35.179	-0.962	-118.712	-23.024	-27.387	-119.339	-115.103	-55.817	47.332	-116.305	-113.316	-111.903	-107.908	34.525	-109.230	-8191	255	
4367.654	1	1	0	0	0.23163	0.14684	0.11214	0.38367	0.056076	0.20229	0.21369	0.059449	0.14801	0.049154	0.22171	0.34153	0.13741	0.24804	0.23694	0.18646	-2.0938	-2.95	-2.3917	-2.7979	-3.0583	-2.3375	-3.1854	-3.0521	-2.325	-3.0646	-2.7083	-2.6479	-2.9771	-2.3375	-2.7521	-3.0042	94.094	-121.921	-98.736	-117.165	-113.548	140.376	190.158	-28.020	11.102	-112.991	199.680	164.348	-38.322	-131.779	-121.462	116.055	0.00054826	0.00027791	0.00026595	1271	6.8172e-06	1.3382e-05	1193.3	376.04	7.1976e-06	8.2419e-06	441.91	195.25	141.8	58.746	2.2585e-06	92.328	0.0011351	0.0012592	0.00034987	1222.5	1.3312e-05	1.3622e-05	1161.2	364.07	1.3499e-05	1.3836e-05	429.3	190.96	137.92	57.295	1.3764e-05	90.451	186.944	-82.673	27.036	-118.835	-11.390	9.270	-119.329	-115.517	-47.901	-7.993	-116.282	-113.099	-112.103	-107.832	-16.881	-108.681	-8191	255	
4367.750	1	1	0	0	0.14433	0.16637	0.21353	0.34935	0.14038	0.11574	0.29749	0.19146	0.056484	0.38505	0.33163	0.28213	0.26607	0.19518	0.20304	0.1746	-1.8771	-2.9396	-2.4542	-2.6375	-3.0229	-2.5062	-2.8354	-3.0792	-2.2208	-2.9833	-2.8542	-2.5292	-3.0542	-2.4667	-2.575	-2.9958	204.433	210.039	-131.671	146.303	44.762	165.123	-126.039	166.482	29.710	100.177	-112.540	171.138	97.712	131.220	-91.249	176.093	0.00063165	0.0011167	0.0001545	1263.9	6.7904e-06	1.9325e-05	1193.9	376.22	1.5824e-06	1.0308e-05	443.02	197.33	141.94	58.627	4.6232e-06	91.93	0.0011352	0.0012435	0.00033677	1221.9	1.3182e-05	1.343e-05	1160.9	364.93	1.3271e-05	1.3607e-05	431.84	191.4	138.66	57.431	1.3126e-05	90.535	192.342	-70.017	-54.550	-118.969	38.732	31.425	-119.295	-115.161	44.846	6.266	-116.580	-113.152	-112.166	-107.564	10.049	-109.021	-8191	255	
4367.846	1	1	0	0	0.078612	0.14013	0.10221	0.18951	0.23602	0.11406	0.17243	0.2616	0.052125	0.1118	0.21439	0.24351	0.19839	0.2745	0.32012	0.1296	-1.8229	-2.9188	-2.5958	-2.5125	-3.0354	-2.4292	-2.8021	-3.0604	-2.1833	-2.9292	-2.75	-2.6417	-3.0979	-2.6625	-2.6729	-3.1208	137.508	-58.130	135.719	-111.315	106.609	194.348	191.921	149.282	-66.903	125.140	159.847	184.690	159.801	146.242	104.410	-128.552	0.00056353	0.00088442	9.6422e-05	1266.3	3.286e-06	1.4336e-05	1194.6	377.82	7.5398e-06	9.3744e-06	444.71	196.22	142.52	59.2	6.666e-06	93.417	0.0011082	0.0012467	0.00033677	1220.9	1.2857e-05	1.3403e-05	1161.4	365.89	1.3099e-05	1.3623e-05	432.58	192.06	139.06	57.588	1.3352e-05	91.058	187.125	-48.667	-44.126	-118.944	-28.814	28.279	-119.172	-115.106	-19.204	28.746	-116.181	-113.070	-112.489	-108.074	-5.308	-108.988	-8191	255	
4367.943	1	1	0	0	0.21014	0.24404	0.15758	0.35482	0.22363	0.074052	0.26169	0.038595	0.03045	0.057703	0.14379	0.22742	0.3683	0.1851	0.17576	0.11984	-1.9979	-2.6937	-2.6354	-2.4375	-3.1	-2.5563	-2.5625	-3.1292	-2.4437	-2.7792	-2.8167	-2.5396	-3.0979	-2.5833	-2.5021	-3.1146	-16.038	41.442	-39.687	177.651	8.958	40.556	137.268	-105.928	40.789	-8.850	-122.137	181.662	181.969	208.231	73.752	-46.241	0.00067452	0.00066615	0.0002724	1275.7	3.3114e-06	7.3224e-06	1198.3	380.53	9.9722e-06	9.2102e-06	442.15	196.33	141.66	59.207	1.0871e-05	93.146	0.0011356	0.0012407	0.00035358	1224.4	1.2915e-05	1.376e-05	1163.4	366.34	1.3789e-05	1.3843e-05	430.71	191.58	138.41	57.576	1.3663e-05	90.944	192.640	-60.983	-93.024	-119.122	7.409	22.198	-119.529	-115.265	-2.298	63.992	-115.867	-113.414	-112.176	-107.812	-16.941	-108.931	-8191	255	
4368.039	1	1	0	0	0.26999	0.044288	0.043778	0.079341	0.038955	0.12576	0.24352	0.3331	0.055129	0.13014	0.22865	0.16606	0.16257	0.18598	0.17899	0.21926	-2.2188	-2.6396	-2.7854	-2.2438	-2.875	-2.6542	-2.4771	-3.1312	-2.3479	-2.65	-2.8708	-2.5062	-2.975	-2.7125	-2.45	-3.3187	206.820	-28.085	-29.556	141.459	2.881	-15.672	127.927	157.510	176.999	-46.139	212.965	184.463	163.172	217.002	-2.683	170.686	0.00061613	0.00096735	6.4929e-05	1275.1	7.0447e-06	1.1133e-05	1203	379.14	5.677e-06	8.1799e-06	446.81	198.89	142.55	59.929	4.1175e-06	93.952	0.0011255	0.0012514	0.00035244	1226.6	1.3008e-05	1.3661e-05	1169.2	368.06	1.3267e-05	1.3623e-05	436.18	194.47	140.3	58.446	1.3671e-05	92.028	185.280	-41.058	-15.034	-118.848	-22.487	38.119	-119.455	-115.059	-54.906	10.657	-115.963	-113.530	-112.101	-108.093	14.278	-109.083	-8191	255	
4368.133	1	1	0	0	0.2364	0.069714	0.083753	0.19184	0.17135	0.2406	0.32029	0.13551	0.097197	0.17527	0.17358	0.3881	0.35408	0.2465	0.068482	0.17072	-2.2396	-2.5062	-2.8146	-2.4667	-2.8375	-2.625	-2.4667	-3.1146	-2.5292	-2.5229	-2.9562	-2.5104	-3.0229	-2.8083	-2.3354	-3.1437	-105.930	171.662	-47.632	209.533	117.710	122.423	215.272	213.425	59.679	-109.134	-50.286	173.056	175.169	-132.696	-65.722	161.044	0.0005924	0.00081617	4.6501e-05	1272.9	2.0964e-06	6.0221e-06	1204.2	381.33	6.3779e-06	6.3734e-06	450.41	200.51	145.61	60.477	7.0001e-06	94.711	0.0011204	0.0012748	0.00035893	1225.5	1.2977e-05	1.433e-05	1171.7	370.15	1.3576e-05	1.4011e-05	438.82	195.71	141.73	58.886	1.3781e-05	92.357	197.438	-82.103	12.358	-118.827	-95.244	105.826	-119.262	-115.240	-7.930	29.390	-116.153	-113.264	-112.182	-107.577	0.596	-109.022	-8191	255	
4368.254	1	1	0	0	0.11802	0.043128	0.049411	0.19841	0.083548	0.13552	0.23393	0.021116	0.10741	0.117	0.10047	0.1671	0.27715	0.3007	0.14537	0.23323	-1.9958	-2.5708	-2.8812	-2.5729	-2.7458	-2.9708	-2.4521	-3.0292	-2.4938	-2.6104	-3.2812	-2.3875	-2.8979	-2.8771	-2.2958	-3.2042	-30.085	-106.606	-12.976	182.644	68.057	-114.585	178.504	202.635	104.238	-19.131	65.880	143.431	220.143	163.363	145.750	207.504	0.00061751	0.00065639	4.4427e-05	1272.8	3.7318e-06	4.7184e-06	1210	384.62	6.8906e-06	5.7151e-06	451.91	199.79	146.84	60.706	5.6711e-06	94.695	0.0011333	0.0013095	0.00035115	1228.9	1.3806e-05	1.4054e-05	1175.5	373.12	1.3726e-05	1.4014e-05	441.09	196.8	143	59.228	1.4428e-05	92.141	189.044	-38.399	36.684	-118.642	14.201	22.926	-119.373	-115.416	-21.821	13.793	-115.822	-113.045	-112.277	-107.576	10.770	-109.202	-8191	255	
4368.350	1	1	0	0	0.17322	0.13829	0.078141	0.27618	0.1233	0.26212	0.23383	0.1147	0.18386	0.33663	0.26393	0.10358	0.1303	0.16161	0.14167	0.16476	-2.4854	-2.3167	-2.8396	-2.4542	-2.6896	-2.8771	-2.4771	-2.8979	-2.6333	-2.4146	-2.9646	-2.5625	-2.9104	-3.0396	-2.2062	-3.0521	171.651	125.619	163.039	214.233	47.485	74.026	-97.912	-128.378	139.375	-0.955	127.105	153.767	62.453	-99.305	92.992	130.168	0.00057781	0.00099749	0.00018331	1282.4	7.4974e-06	6.6199e-06	1209.6	382.45	4.0118e-06	1.9725e-06	452.14	202.22	145.74	61.359	1.2412e-05	93.786	0.001171	0.0013244	0.00036277	1237.1	1.3579e-05	1.441e-05	1177.2	371.87	1.4048e-05	1.4179e-05	440.91	196.71	142.89	59.429	1.424e-05	92.144	191.209	-87.121	-59.267	-118.575	-7.673	26.388	-119.284	-115.075	20.709	13.947	-115.949	-113.168	-111.678	-107.477	14.421	-108.838	-8191	255	
4368.446	1	1	0	0	0.050007	0.1938	0.31124	0.22356	0.21882	0.11823	0.24973	0.074734	0.11551	0.35729	0.093304	0.34486	0.19357	0.11499	0.18205	0.1534	-2.1875	-2.2875	-2.8833	-2.4458	-2.4938	-2.9938	-2.4562	-2.8979	-2.6542	-2.3458	-3.1562	-2.4958	-2.6792	-2.9562	-2.2938	-2.9125	-2.948	-82.828	-123.740	-101.191	-122.513	65.707	155.170	-110.113	161.058	-31.319	150.986	158.686	174.936	135.046	135.911	170.791	0.00060504	0.00082461	0.00012316	1285.2	3.6912e-06	1.705e-05	1211.7	383.56	6.5119e-06	1.5332e-05	449	199.22	144.37	60.612	6.6363e-06	93.439	0.0011442	0.0012934	0.0003639	1237.9	1.3773e-05	1.4389e-05	1179.9	371.69	1.4011e-05	1.4117e-05	439.38	194.86	141.23	59.091	1.4374e-05	91.386	180.791	-100.206	-41.902	-118.437	72.022	18.971	-119.480	-115.172	-44.180	-7.937	-116.407	-112.860	-112.264	-107.935	-35.549	-108.704	-8191	255	
4368.542	1	1	0	0	0.1031	0.22943	0.35887	0.19541	0.060957	0.12	0.19558	0.29768	0.24722	0.28397	0.30344	0.20941	0.4255	0.22972	0.27733	0.095531	-2.3917	-2.3312	-2.95	-2.6708	-2.6937	-2.8854	-2.2833	-2.8625	-2.6771	-2.3104	-3.0812	-2.7958	-2.4667	-3.0042	-2.4167	-2.9521	86.273	14.553	87.364	140.761	203.295	31.292	158.121	223.985	26.642	-32.814	123.960	180.441	-101.597	193.139	19.216	-74.964	0.00062585	0.0012913	0.00029888	1299.1	6.1336e-06	7.8311e-06	1229.2	381.57	3.8173e-06	7.7343e-06	451.21	200.15	145.87	60.967	8.0394e-06	94.086	0.0011768	0.0013299	0.00037325	1252.5	1.429e-05	1.4898e-05	1195.1	370.16	1.4425e-05	1.4555e-05	439.17	195.43	142.64	59.449	1.4196e-05	91.956	191.526	-18.479	-6.843	-118.825	-26.368	26.803	-119.143	-115.225	45.879	91.770	-116.156	-112.741	-112.071	-107.991	6.599	-109.019	-8191	255	
4368.638	1	1	0	0	0.20719	0.15335	0.075775	0.071642	0.15107	0.23843	0.12649	0.17043	0.11039	0.26542	0.097198	0.30976	0.081718	0.17266	0.079196	0.081513	-2.325	-2.3625	-2.7625	-2.8312	-2.5	-3.2167	-2.5625	-2.7562	-2.9896	-2.1396	-3.0625	-2.9	-2.5375	-2.9833	-2.2958	-2.6042	33.869	117.959	43.885	51.806	97.303	108.018	138.717	127.491	74.944	208.989	134.298	144.794	-12.339	-56.424	15.128	212.640	0.0005865	0.00089277	0.00012364	1294.7	5.168e-06	1.1742e-05	1237	387.76	9.1505e-06	1.0761e-05	450.58	201.18	147.32	61.092	4.0531e-06	93.498	0.0012119	0.0013363	0.00036811	1250.9	1.4072e-05	1.4639e-05	1197.5	374.78	1.4154e-05	1.4179e-05	440.89	196.3	143.65	59.56	1.4737e-05	91.451	192.107	-24.147	-6.400	-118.754	28.934	28.114	-119.248	-115.106	-18.007	29.229	-115.552	-112.993	-112.189	-107.733	18.474	-109.136	-8191	255	
#DATA ENDS
