BOXY.EXE: ISS Imagent and Oximeter Data Acquisition Program Version 0.80
Ascii Record File

#ACQ INFORMATION
2  Detector Channels 
16  External MUX Channels 
1  Auxiliary Channels 
5000  Waveform (CCF) Frequency (Hz)
1  Waveforms Skipped 
30  Waveforms Averaged 
1  Cycles Averaged 
16  Acquisitions per Waveform 
10.0806  Updata Rate (Hz) 

#FILE INFORMATION
TRUE -- External MUX Channel results are PARSED.
FALSE -- AC DC and Phase are NOT grouped.
TRUE -- Companion Program Settings File CREATED.
FALSE -- AC data not excluded
FALSE -- DC data not excluded
FALSE -- Phase data not excluded
FALSE -- Auxillary Chn. data not excluded
Tab delimiters

#CALIBRATION STATE
TRUE -- Waveform Calibration Values APPLIED.


#AUX CALIBRATION VALUES
Val Type	aux-1	

Term	1.0000e+00	
Factor	0.0000e+00	


#WF CALIBRATION VALUES
A = Detector Channel
Val Type	A-AC1	A-AC2	A-AC3	A-AC4	A-AC5	A-AC6	A-AC7	A-AC8	A-AC9	A-AC10	A-AC11	A-AC12	A-AC13	A-AC14	A-AC15	A-AC16	A-DC1	A-DC2	A-DC3	A-DC4	A-DC5	A-DC6	A-DC7	A-DC8	A-DC9	A-DC10	A-DC11	A-DC12	A-DC13	A-DC14	A-DC15	A-DC16	A-Ph1	A-Ph2	A-Ph3	A-Ph4	A-Ph5	A-Ph6	A-Ph7	A-Ph8	A-Ph9	A-Ph10	A-Ph11	A-Ph12	A-Ph13	A-Ph14	A-Ph15	A-Ph16	

Term	0.00000e+00	0.00000e+00	0.00000e+00	0.00000e+00	0.00000e+00	0.00000e+00	0.00000e+00	0.00000e+00	0.00000e+00	0.00000e+00	0.00000e+00	0.00000e+00	0.00000e+00	0.00000e+00	0.00000e+00	0.00000e+00	0.00000e+00	0.00000e+00	0.00000e+00	0.00000e+00	0.00000e+00	0.00000e+00	0.00000e+00	0.00000e+00	0.00000e+00	0.00000e+00	0.00000e+00	0.00000e+00	0.00000e+00	0.00000e+00	0.00000e+00	0.00000e+00	0.00000e+00	0.00000e+00	0.00000e+00	0.00000e+00	0.00000e+00	0.00000e+00	0.00000e+00	0.00000e+00	0.00000e+00	0.00000e+00	0.00000e+00	0.00000e+00	0.00000e+00	0.00000e+00	0.00000e+00	0.00000e+00	
Factor	1.00000e+00	1.00000e+00	1.00000e+00	1.00000e+00	1.00000e+00	1.00000e+00	1.00000e+00	1.00000e+00	1.00000e+00	1.00000e+00	1.00000e+00	1.00000e+00	1.00000e+00	1.00000e+00	1.00000e+00	1.00000e+00	1.00000e+00	1.00000e+00	1.00000e+00	1.00000e+00	1.00000e+00	1.00000e+00	1.00000e+00	1.00000e+00	1.00000e+00	1.00000e+00	1.00000e+00	1.00000e+00	1.00000e+00	1.00000e+00	1.00000e+00	1.00000e+00	X	X	X	X	X	X	X	X	X	X	X	X	X	X	X	X	

B = Detector Channel
Val Type	B-AC1	B-AC2	B-AC3	B-AC4	B-AC5	B-AC6	B-AC7	B-AC8	B-AC9	B-AC10	B-AC11	B-AC12	B-AC13	B-AC14	B-AC15	B-AC16	B-DC1	B-DC2	B-DC3	B-DC4	B-DC5	B-DC6	B-DC7	B-DC8	B-DC9	B-DC10	B-DC11	B-DC12	B-DC13	B-DC14	B-DC15	B-DC16	B-Ph1	B-Ph2	B-Ph3	B-Ph4	B-Ph5	B-Ph6	B-Ph7	B-Ph8	B-Ph9	B-Ph10	B-Ph11	B-Ph12	B-Ph13	B-Ph14	B-Ph15	B-Ph16	

Term	0.00000e+00	0.00000e+00	0.00000e+00	0.00000e+00	0.00000e+00	0.00000e+00	0.00000e+00	0.00000e+00	0.00000e+00	0.00000e+00	0.00000e+00	0.00000e+00	0.00000e+00	0.00000e+00	0.00000e+00	0.00000e+00	0.00000e+00	0.00000e+00	0.00000e+00	0.00000e+00	0.00000e+00	0.00000e+00	0.00000e+00	0.00000e+00	0.00000e+00	0.00000e+00	0.00000e+00	0.00000e+00	0.00000e+00	0.00000e+00	0.00000e+00	0.00000e+00	-1.41723e+02	-1.33427e+02	-1.27657e+02	-1.82643e+02	-7.29312e+01	-5.90420e+01	-1.56437e+02	-1.62015e+02	-7.50620e+01	-6.54826e+01	-1.75898e+02	-1.69904e+02	-1.79084e+02	-1.76332e+02	-7.30813e+01	-1.49000e+02	
Factor	2.19948e-05	1.76772e-04	4.22463e-05	1.51783e-01	1.32281e-06	2.01978e-06	1.85373e-01	5.47419e-02	1.24077e-06	1.63382e-06	9.98567e-02	3.00697e-02	2.75195e-02	9.87689e-03	1.39127e-06	1.39770e-02	7.96078e-06	1.06646e-05	2.96347e-06	7.91364e-02	1.10375e-07	1.18425e-07	9.07823e-02	2.86722e-02	1.12129e-07	1.17383e-07	5.04514e-02	1.53297e-02	1.45971e-02	5.20825e-03	1.14524e-07	7.14204e-03	X	X	X	X	X	X	X	X	X	X	X	X	X	X	X	X	



#DISTANCE SETTINGS
A = Detector Channel
A-1	A-2	A-3	A-4	A-5	A-6	A-7	A-8	A-9	A-10	A-11	A-12	A-13	A-14	A-15	A-16	

2.5000e+00	3.0000e+00	2.5000e+00	3.0000e+00	2.0000e+00	3.0000e+00	1.5000e+00	3.0000e+00	3.0000e+00	3.0000e+00	3.0000e+00	3.0000e+00	3.0000e+00	3.0000e+00	1.5000e+00	3.0000e+00	

B = Detector Channel
B-1	B-2	B-3	B-4	B-5	B-6	B-7	B-8	B-9	B-10	B-11	B-12	B-13	B-14	B-15	B-16	

1.0000e+01	1.0000e+01	1.0000e+01	1.4400e+00	1.0000e+01	1.0000e+01	1.5100e+00	1.9400e+00	1.0000e+01	1.0000e+01	1.9900e+00	2.4900e+00	2.4100e+00	2.9000e+00	1.0000e+01	2.9800e+00	




#DATA BEGINS
time	group	step	mark	flag	A-AC1	A-AC2	A-AC3	A-AC4	A-AC5	A-AC6	A-AC7	A-AC8	A-AC9	A-AC10	A-AC11	A-AC12	A-AC13	A-AC14	A-AC15	A-AC16	A-DC1	A-DC2	A-DC3	A-DC4	A-DC5	A-DC6	A-DC7	A-DC8	A-DC9	A-DC10	A-DC11	A-DC12	A-DC13	A-DC14	A-DC15	A-DC16	A-Ph1	A-Ph2	A-Ph3	A-Ph4	A-Ph5	A-Ph6	A-Ph7	A-Ph8	A-Ph9	A-Ph10	A-Ph11	A-Ph12	A-Ph13	A-Ph14	A-Ph15	A-Ph16	B-AC1	B-AC2	B-AC3	B-AC4	B-AC5	B-AC6	B-AC7	B-AC8	B-AC9	B-AC10	B-AC11	B-AC12	B-AC13	B-AC14	B-AC15	B-AC16	B-DC1	B-DC2	B-DC3	B-DC4	B-DC5	B-DC6	B-DC7	B-DC8	B-DC9	B-DC10	B-DC11	B-DC12	B-DC13	B-DC14	B-DC15	B-DC16	B-Ph1	B-Ph2	B-Ph3	B-Ph4	B-Ph5	B-Ph6	B-Ph7	B-Ph8	B-Ph9	B-Ph10	B-Ph11	B-Ph12	B-Ph13	B-Ph14	B-Ph15	B-Ph16	aux-1	digaux	

3331.160	1	1	0	256	0.056685	0.066202	0.093571	0.24871	0.14686	0.060929	0.3166	0.22639	0.1249	0.23096	0.080487	0.42846	0.14527	0.2095	0.11524	0.02013	-2.1188	-1.7771	-2.3167	-2.6146	-1.8687	-2.6688	-2.4604	-1.9729	-2.5417	-1.9271	-2.2562	-2.4875	-1.9792	-2.4979	-2.1	-1.9604	262.335	294.464	281.884	311.866	281.430	59.207	321.032	278.882	145.544	314.044	284.845	253.294	250.064	51.932	114.304	202.931	0.00014094	0.00049425	3.7886e-05	1100.7	2.1241e-06	2.137e-06	1224.7	223.41	2.2338e-06	4.5227e-06	291.52	80.76	62.394	18.418	2.5003e-06	26.295	0.00029276	0.00032925	8.9256e-05	1083.5	3.7691e-06	3.536e-06	1207.9	222.09	3.5673e-06	3.6352e-06	289.42	81.803	62.671	18.575	3.4591e-06	26.536	124.032	63.662	7.965	-1.707	163.282	114.966	-1.655	5.620	137.484	132.232	5.415	12.457	12.484	19.603	121.069	19.003	-8191	255	
3331.256	1	1	0	0	0.2271	0.33522	0.31058	0.19343	0.078305	0.027803	0.2466	0.3621	0.18552	0.21531	0.041583	0.25015	0.21663	0.09757	0.23516	0.17714	-2.0333	-1.925	-2.1667	-2.5187	-1.75	-2.4729	-2.7667	-1.9167	-2.525	-2.3312	-1.9667	-2.6208	-1.9625	-2.3438	-2.6042	-1.8979	178.436	7.890	279.089	15.058	-3.306	254.180	317.495	1.214	104.066	49.534	17.478	312.334	32.222	248.732	132.943	55.684	0.00013385	2.7916e-05	5.3801e-05	1101.8	2.555e-06	2.2956e-06	1228.6	223.42	2.8113e-06	1.8339e-06	291.75	80.828	62.069	18.397	3.0914e-06	26.108	0.00028816	0.00031796	9.0843e-05	1083.1	3.6472e-06	3.477e-06	1208.5	222.34	3.5907e-06	3.4396e-06	289.65	81.573	62.538	18.608	3.4367e-06	26.509	133.916	220.658	75.382	-1.765	108.982	169.069	-1.736	5.723	144.772	88.916	5.442	12.165	12.799	19.822	131.263	18.972	-8191	255	
3331.350	1	1	0	0	0.16581	0.2643	0.19962	0.39828	0.14761	0.23879	0.12154	0.22102	0.16438	0.34581	0.092885	0.10811	0.39805	0.11528	0.11496	0.1623	-2.2313	-2.1479	-2.0667	-2.6146	-2.0167	-2.2854	-2.5708	-1.8875	-2.5583	-2.25	-2.2333	-2.5583	-2.1271	-2.4146	-2.4542	-1.9417	201.641	313.217	247.426	296.062	62.309	210.257	320.752	277.372	-11.098	98.716	35.150	114.405	255.551	199.136	153.725	139.466	0.00015925	0.00015107	6.0587e-05	1106.9	1.9226e-06	5.153e-06	1228.1	222.55	3.5396e-06	3.3554e-06	290.54	80.964	62.058	18.302	2.9339e-06	26.283	0.00030052	0.00032047	9.3053e-05	1085.3	3.6888e-06	3.6931e-06	1211.7	221.52	3.5657e-06	3.6029e-06	288.78	81.709	62.563	18.584	3.5223e-06	26.504	125.114	5.255	90.796	-1.589	147.762	119.163	-1.586	5.743	185.508	128.834	5.399	12.590	12.500	19.632	173.299	19.544	-8191	255	
3331.447	1	1	0	0	0.25134	0.057883	0.20579	0.087895	0.086222	0.15124	0.21454	0.12512	0.10497	0.31978	0.18258	0.22881	0.16645	0.23028	0.23843	0.23473	-1.9958	-2.0854	-2.0583	-2.7229	-2.0917	-2.2229	-2.6063	-2.0187	-2.4604	-2.2792	-2.0062	-2.9104	-2.1229	-2.1	-2.4375	-1.8771	288.418	196.406	239.097	323.525	325.252	225.233	311.387	254.612	185.218	7.285	218.170	270.169	257.303	274.018	332.088	312.976	0.00017098	0.00037951	0.00014409	1106.2	3.6476e-06	3.4265e-06	1229.8	223.35	2.2667e-06	4.0536e-06	290.33	81.372	62.166	18.395	2.7248e-06	25.856	0.00029327	0.00032627	9.2423e-05	1084.8	3.6727e-06	3.6105e-06	1209.9	222.02	3.5444e-06	3.4723e-06	288.42	81.696	62.552	18.585	3.5188e-06	26.395	123.140	68.953	79.279	-1.810	154.831	137.113	-1.598	5.961	123.569	191.234	5.451	12.158	12.734	19.863	119.033	19.079	-8191	255	
3331.543	1	1	0	0	0.15347	0.046263	0.019088	0.16543	0.15017	0.22491	0.058129	0.092208	0.24349	0.31532	0.19753	0.11282	0.16564	0.19299	0.064548	0.048701	-2.0563	-2.4562	-1.8875	-2.7146	-2.0979	-2.0875	-2.7521	-2.1312	-2.1792	-2.2542	-1.9167	-2.4604	-2.1396	-2.0292	-2.5646	-2.0938	306.865	1.105	-0.131	275.688	270.684	240.065	241.916	105.042	81.665	230.781	329.952	245.028	233.029	156.658	151.749	188.002	0.00015147	0.00023138	0.00010034	1103.6	1.1347e-06	3.9886e-06	1230.6	223.39	2.1768e-06	3.1216e-06	290.39	81.19	62.054	18.322	1.8568e-06	26.093	0.00028856	0.00033127	9.3232e-05	1082.2	3.5934e-06	3.4913e-06	1209.7	221.53	3.5274e-06	3.4249e-06	288.64	81.535	62.51	18.529	3.5321e-06	26.425	122.925	100.182	101.135	-1.898	108.670	114.473	-1.514	5.701	129.288	157.743	5.402	12.270	12.610	19.643	129.837	18.933	-8191	255	
3331.639	1	1	0	0	0.24284	0.24939	0.045065	0.19125	0.16313	0.096324	0.40842	0.1833	0.098613	0.20164	0.081118	0.24578	0.22014	0.15674	0.4374	0.16387	-1.8792	-2.3312	-1.7875	-2.7438	-2.0438	-1.9625	-2.6354	-2.0396	-2.2458	-2.5396	-2.0187	-2.5729	-2.1937	-1.9146	-2.6604	-2.0896	151.587	74.041	172.125	124.689	149.515	295.844	251.615	228.344	65.718	20.183	278.368	59.326	37.709	0.722	230.217	169.858	0.00017145	0.00025967	0.0001293	1105.1	1.008e-06	3.2425e-06	1230.3	223	2.9435e-06	4.8809e-06	289.51	81.42	62.277	18.394	1.5722e-06	25.876	0.00029281	0.0003284	9.28e-05	1082.6	3.7109e-06	3.7037e-06	1208.9	221.75	3.5662e-06	3.6403e-06	288.86	81.689	62.578	18.539	3.5295e-06	26.357	115.810	85.606	73.492	-1.710	113.938	171.268	-1.527	6.059	174.820	174.720	5.309	12.344	13.105	19.727	108.740	19.280	-8191	255	
3331.735	1	1	0	0	0.21762	0.1247	0.10346	0.29647	0.035496	0.13515	0.1254	0.32471	0.088274	0.15197	0.034266	0.15857	0.32747	0.098469	0.086295	0.079264	-1.7771	-2.4396	-1.8646	-2.4771	-2.3229	-2.0062	-2.7313	-2.0771	-2.1417	-2.5792	-2.0438	-2.4771	-2.2979	-1.7021	-2.5583	-2.1	58.674	48.041	166.590	327.241	203.806	166.225	290.489	116.944	326.394	304.229	9.464	246.521	54.808	120.866	35.047	38.260	0.00013633	0.00026672	6.969e-05	1101.2	3.6432e-06	4.1067e-06	1227	223.24	2.1931e-06	3.0284e-06	290.21	80.948	62.539	18.238	1.3401e-06	26.059	0.00030113	0.00032272	9.346e-05	1082.6	3.6656e-06	3.5942e-06	1207.4	221.64	3.569e-06	3.511e-06	288.04	81.626	62.65	18.503	3.5724e-06	26.431	121.286	53.139	97.038	-1.826	162.467	172.020	-1.490	5.887	181.458	163.804	5.505	12.382	13.097	19.639	203.629	19.663	-8191	255	
3331.831	1	1	0	0	0.16984	0.077886	0.18529	0.29123	0.077628	0.16613	0.37721	0.2189	0.22593	0.3159	0.14193	0.10658	0.13943	0.11237	0.049173	0.26883	-1.7042	-2.6	-1.9729	-2.5812	-2.5354	-2.0229	-2.7687	-2.2729	-2.2062	-2.5062	-2.0938	-2.3792	-2.6708	-1.9083	-2.7396	-2.3667	136.955	283.463	220.037	-8.164	261.044	-5.318	263.077	22.329	73.472	14.272	313.900	263.469	323.409	304.941	137.702	182.782	0.00014149	0.00018158	7.5674e-05	1101	1.4016e-06	1.8827e-06	1228.4	223.07	3.3444e-06	2.7975e-06	290.41	81.509	62.301	18.332	2.4808e-06	26.032	0.00029463	0.00032623	8.8466e-05	1082	3.5477e-06	3.7015e-06	1207.2	220.96	3.6893e-06	3.5105e-06	288.89	81.795	62.472	18.53	3.5068e-06	26.454	124.559	77.463	81.257	-1.638	125.700	187.065	-1.421	5.856	156.089	147.354	5.591	12.393	12.414	19.974	109.806	19.284	-8191	255	
3331.952	1	1	0	0	0.28965	0.13948	0.12111	0.13278	0.075043	0.28043	0.30212	0.026102	0.17399	0.19791	0.13382	0.25355	0.30629	0.047962	0.10654	0.28387	-1.3854	-2.6396	-1.8458	-2.3125	-2.6583	-1.9396	-2.5417	-2.4125	-2.1688	-2.7292	-2.1583	-2.25	-2.3958	-1.9583	-2.5354	-2.2208	109.702	48.610	53.956	10.620	171.855	270.413	232.070	95.086	203.236	103.023	251.742	195.103	297.080	23.952	155.516	344.831	0.0001345	0.00017194	5.68e-05	1101.8	1.6126e-06	1.8451e-06	1227.5	222.45	1.4439e-06	4.3683e-06	291.76	81.199	62.169	18.195	1.6695e-06	26.038	0.00028903	0.00032669	9.204e-05	1079.9	3.504e-06	3.6482e-06	1205.6	221.23	3.4449e-06	3.6093e-06	288.33	81.634	62.502	18.443	3.5619e-06	26.376	118.137	-8.087	77.473	-1.878	205.859	172.084	-1.564	5.867	122.357	147.073	5.611	12.815	12.778	20.162	113.201	19.274	-8191	255	
3332.048	1	1	0	0	0.089428	0.097057	0.12988	0.21429	0.23795	0.17178	0.3352	0.24127	0.13893	0.14692	0.14502	0.31137	0.10656	0.23209	0.18995	0.21828	-1.4229	-2.5917	-2.0125	-2.2812	-2.3333	-1.8229	-2.4042	-2.3854	-2.0458	-2.5208	-2.1396	-2.2104	-2.7917	-2.0396	-2.275	-2.3458	160.462	55.233	240.607	10.207	115.078	252.563	266.966	-7.066	322.572	323.119	257.826	-2.722	342.114	42.812	153.449	335.338	0.00013285	0.00037408	5.9133e-05	1102.9	3.0604e-06	3.921e-06	1226	222.21	8.699e-07	2.9015e-06	289.97	81.308	61.671	18.338	3.0834e-06	25.919	0.00029677	0.00032931	9.0738e-05	1080.4	3.6553e-06	3.5907e-06	1205.5	220.97	3.7264e-06	3.6411e-06	288.2	81.676	62.352	18.513	3.5765e-06	26.333	129.776	66.122	115.791	-1.744	151.328	144.368	-1.505	5.815	187.275	151.766	5.756	12.181	12.974	19.949	152.698	19.349	-8191	255	
3332.144	1	1	0	0	0.083009	0.056152	0.39236	0.24436	0.20069	0.13831	0.13376	0.11588	0.21125	0.1455	0.11775	0.063483	0.22853	0.26659	0.088214	0.049523	-1.6146	-2.4229	-2.0667	-2.2583	-2.6312	-1.9771	-2.3833	-2.5104	-1.9208	-2.475	-2.2021	-1.9583	-2.5896	-1.9312	-2.2479	-2.4208	170.605	339.803	146.320	294.366	303.130	316.166	229.420	197.670	289.574	-8.034	338.039	90.318	61.861	289.954	104.480	168.596	0.00011972	0.00015439	7.7979e-05	1101.5	1.8568e-06	4.0912e-06	1223.5	223.57	2.3414e-06	2.2784e-06	288.18	80.984	62.542	18.281	1.9959e-06	26.11	0.00030019	0.00033076	9.238e-05	1078.2	3.6125e-06	3.5809e-06	1204.8	221.34	3.644e-06	3.53e-06	287.39	81.54	62.51	18.474	3.5586e-06	26.339	125.814	91.989	49.465	-1.778	131.388	148.250	-1.699	5.707	176.007	143.856	5.863	12.025	13.005	20.097	203.220	19.739	-8191	255	
3332.240	1	1	0	0	0.26334	0.12285	0.21177	0.2261	0.17933	0.11702	0.16764	0.14057	0.23148	0.16388	0.065916	0.13343	0.2217	0.2504	0.16941	0.12836	-1.425	-2.5104	-2.1813	-2.1146	-2.4896	-1.9562	-2.1562	-2.4271	-1.7	-2.45	-2.3417	-1.9646	-2.625	-2.0958	-2.0833	-2.5687	274.300	177.966	2.697	307.287	235.932	200.439	243.224	263.522	209.808	331.062	296.876	237.345	19.430	-8.632	119.437	308.572	0.00013606	0.00033416	0.00010818	1100.6	2.4904e-06	2.5792e-06	1222	222.71	2.7123e-06	2.8908e-06	290.2	81.245	61.916	18.168	2.0158e-06	26.125	0.00029627	0.00032965	8.9694e-05	1078.8	3.538e-06	3.6317e-06	1203.7	221.09	3.4837e-06	3.5269e-06	288.4	81.414	62.465	18.447	3.5204e-06	26.35	128.349	94.281	70.602	-1.590	145.323	114.334	-1.786	6.078	144.978	147.772	5.650	12.324	13.004	20.308	146.193	19.731	-8191	255	
3332.336	1	1	0	0	0.13631	0.16874	0.26524	0.10734	0.15458	0.094757	0.25071	0.13203	0.22181	0.052158	0.057779	0.12698	0.225	0.19253	0.24894	0.2988	-1.3896	-2.2833	-2.3083	-1.9833	-2.2396	-1.9917	-1.9958	-2.6688	-2.0021	-2.2104	-2.4854	-1.7896	-2.4854	-2.175	-1.9229	-2.7354	37.763	156.549	171.407	337.843	245.681	138.514	280.744	323.234	39.739	254.477	269.088	23.944	-6.092	56.463	290.800	301.092	0.00016181	0.00029901	0.00011313	1097.5	2.583e-06	3.6691e-06	1218.9	224.22	2.5272e-06	2.5132e-06	289.16	80.691	61.803	18.317	2.4751e-06	26.015	0.00029931	0.00032454	9.133e-05	1077.2	3.4782e-06	3.5979e-06	1201	221.28	3.6012e-06	3.5934e-06	287.68	81.341	62.306	18.496	3.4849e-06	26.344	127.492	105.581	63.998	-1.765	162.914	100.741	-1.446	6.120	122.406	161.665	5.761	12.478	12.960	19.589	111.682	19.869	-8191	255	
3332.431	1	1	0	0	0.38211	0.15438	0.12276	0.46018	0.4576	0.20255	0.33452	0.21377	0.021167	0.16915	0.014896	0.12743	0.1593	0.016605	0.11019	0.21147	-1.4438	-2.3708	-2.4813	-2.0062	-2.4958	-2.3458	-2.1667	-2.8542	-1.9875	-2.3792	-2.5812	-1.8896	-2.4146	-2.3438	-1.9708	-2.4562	114.568	271.587	290.256	315.328	34.581	334.174	321.045	88.895	229.911	122.356	251.292	346.374	244.396	259.589	263.873	59.095	0.00013783	0.00036999	7.0174e-05	1098.4	4.002e-06	3.3388e-06	1220.9	222.34	3.096e-06	4.8343e-06	289.87	81.04	61.91	18.195	1.9584e-06	25.948	0.00028901	0.00031823	9.0065e-05	1077.9	3.5647e-06	3.553e-06	1200.8	220.61	3.5199e-06	3.5423e-06	288.39	81.272	62.402	18.513	3.6719e-06	26.35	118.338	57.043	86.521	-1.594	140.297	137.635	-1.692	6.082	149.851	174.018	5.526	12.031	13.014	20.557	98.127	20.039	-8191	255	
3332.529	1	1	0	0	0.2245	0.092325	0.28735	0.18668	0.24438	0.24395	0.32181	0.060868	0.084992	0.21839	0.1312	0.18719	0.23127	0.16402	0.10173	0.12635	-1.6542	-2.1937	-2.4854	-2.0417	-2.4188	-2.55	-2.1354	-2.7854	-2.0938	-2.0354	-2.7354	-1.9979	-2.2979	-2.4229	-1.9312	-2.5104	346.345	137.054	168.116	23.925	233.063	86.965	281.527	268.235	121.856	292.423	48.956	4.485	-8.929	298.757	329.860	185.717	0.00014312	0.00033907	8.014e-05	1098.1	3.3217e-06	4.5545e-06	1217	222.78	2.205e-06	2.1831e-06	288.21	81.109	61.648	18.144	3.3412e-06	26.213	0.00029752	0.00033374	9.2306e-05	1076.6	3.6606e-06	3.5434e-06	1201.6	221.03	3.4753e-06	3.5115e-06	287.51	81.173	62.227	18.379	3.5166e-06	26.304	112.441	93.680	82.527	-1.821	128.473	111.672	-1.527	6.093	177.103	121.531	5.937	12.657	12.726	20.265	119.220	19.638	-8191	255	
3332.648	1	1	0	0	0.10644	0.10218	0.1873	0.37975	0.093003	0.13723	0.32416	0.29684	0.23555	0.22316	0.20953	0.10457	0.22889	0.12674	0.29242	0.18397	-1.7125	-2.0354	-2.5312	-1.9583	-2.2854	-2.625	-1.9667	-2.5625	-2.1708	-2.1042	-2.6417	-2.0917	-2.1958	-2.3917	-1.8188	-2.5104	320.666	81.514	331.067	315.442	343.155	168.845	297.803	332.638	158.952	3.943	316.794	330.822	64.587	8.281	198.217	261.092	0.0001711	0.00045546	8.0047e-05	1097.5	2.7983e-06	2.7159e-06	1217.4	222.91	1.9225e-06	3.2232e-06	289.21	80.553	61.797	18.164	2.9195e-06	25.983	0.00029994	0.00033174	9.0299e-05	1077.7	3.5992e-06	3.6179e-06	1199.6	220.59	3.6645e-06	3.5697e-06	287.43	81.147	62.525	18.419	3.5486e-06	26.346	120.629	63.713	74.177	-1.636	185.123	152.267	-1.399	6.071	105.944	125.420	5.781	12.773	13.023	20.016	169.363	19.672	-8191	255	
3332.744	1	1	0	0	0.20748	0.075524	0.058777	0.33992	0.085994	0.25245	0.23553	0.049509	0.10909	0.074778	0.08973	0.10725	0.2762	0.20212	0.12105	0.22663	-1.7125	-1.8292	-2.5729	-2.275	-2.1667	-2.6021	-2.0792	-2.4396	-2.3979	-1.8417	-2.5896	-2.0104	-2.0271	-2.65	-1.925	-2.5333	104.506	240.237	54.171	334.590	322.591	24.993	313.103	282.898	96.087	94.176	275.739	143.743	2.244	336.713	71.400	99.338	0.00018454	0.00022248	9.0771e-05	1096.3	1.1514e-06	2.1205e-06	1215	222.71	8.369e-07	2.3873e-06	290.24	80.676	62.43	18.173	2.1611e-06	26.004	0.00029518	0.00032116	8.9929e-05	1075.2	3.6332e-06	3.4425e-06	1198.4	221.28	3.4643e-06	3.6169e-06	287.8	81.369	62.506	18.443	3.5646e-06	26.307	132.022	69.227	86.095	-1.614	235.436	160.909	-1.620	6.044	154.111	140.784	6.056	12.573	13.058	20.353	114.800	19.644	-8191	255	
3332.840	1	1	0	0	0.19429	0.33197	0.11769	0.44287	0.044626	0.20401	0.22514	0.24556	0.036581	0.325	0.090115	0.088248	0.20134	0.081381	0.030129	0.037096	-1.9021	-1.9646	-2.5187	-2.2271	-2.0125	-2.6437	-2.0771	-2.3479	-2.2729	-1.7917	-2.6375	-2.225	-2.0229	-2.4688	-1.7792	-2.2583	108.572	136.900	261.501	344.888	296.152	198.125	290.294	-11.435	12.295	64.920	176.029	83.864	290.013	258.427	31.399	263.718	0.00015978	0.00012383	9.294e-05	1096.3	1.439e-06	3.6676e-06	1215.3	222.16	2.9284e-06	2.2242e-06	290.82	80.811	62.211	18.364	2.327e-06	25.934	0.00029168	0.000329	8.8206e-05	1077	3.558e-06	3.4787e-06	1198.4	220.6	3.6339e-06	3.6411e-06	287.72	81.555	62.278	18.474	3.5278e-06	26.261	124.098	49.526	100.363	-1.520	158.618	140.525	-1.567	5.964	145.934	110.392	5.866	12.355	12.747	20.188	153.247	19.488	-8191	255	
3332.936	1	1	0	0	0.10446	0.12622	0.18523	0.58266	0.11933	0.10883	0.14755	0.074786	0.22613	0.19558	0.087589	0.11022	0.16238	0.19232	0.25734	0.085014	-2.0292	-1.5083	-2.3104	-2.4229	-1.9583	-2.6188	-2.1562	-2.4104	-2.4313	-1.875	-2.5958	-2.2833	-1.8896	-2.6083	-1.9333	-2.1063	124.066	164.661	-10.868	307.925	251.221	294.298	298.153	6.808	186.137	290.100	164.756	63.986	247.300	25.718	4.473	259.955	0.0001445	0.00032576	9.4675e-05	1092.2	2.0491e-06	3.4552e-06	1215.4	222.68	2.4675e-06	2.3757e-06	288.83	81.271	62.224	18.218	3.401e-06	25.819	0.00028523	0.00032274	9.0268e-05	1074.2	3.5502e-06	3.4134e-06	1198	220.76	3.4155e-06	3.441e-06	287.27	81.235	62.353	18.407	3.4173e-06	26.347	122.388	90.103	74.133	-1.754	101.859	161.605	-1.496	5.957	137.524	121.552	5.796	12.520	13.027	20.126	140.836	19.702	-8191	255	
3333.032	1	1	0	0	0.17479	0.2594	0.2237	0.2833	0.054846	0.19458	0.27036	0.12705	0.19913	0.20237	0.26517	0.15129	0.25919	0.39826	0.2633	0.1926	-1.9958	-1.8479	-2.3729	-2.3771	-1.9396	-2.575	-2.2271	-2.2854	-2.4125	-1.9688	-2.3458	-2.3625	-1.8563	-2.7125	-2.25	-2.0875	63.882	318.042	260.902	25.650	227.826	213.009	-4.608	24.314	39.337	267.763	296.337	46.234	17.637	15.662	29.827	40.898	0.00013057	0.00042895	9.2751e-05	1095.6	2.8791e-06	4.0231e-06	1217.3	220.79	1.7778e-06	4.9697e-06	290.12	80.854	61.927	18.331	2.2771e-06	25.947	0.00028876	0.00032043	8.8879e-05	1074	3.5953e-06	3.5636e-06	1198.3	220.44	3.4393e-06	3.5252e-06	287.86	81.022	62.271	18.484	3.457e-06	26.264	127.960	64.441	83.781	-1.360	118.786	134.263	-1.195	6.208	179.856	161.075	5.906	12.275	12.888	19.882	157.645	19.688	-8191	255	
3333.128	1	1	0	0	0.074328	0.17638	0.14199	0.18108	0.23321	0.31934	0.3237	0.19885	0.097875	0.14129	0.013269	0.1599	0.14596	0.044615	0.42644	0.25468	-2.2479	-1.9417	-2.275	-2.6354	-1.8208	-2.5333	-2.3542	-2.0021	-2.5208	-2.0646	-2.2292	-2.4854	-1.8042	-2.5396	-2.2229	-1.9688	75.491	12.962	42.162	307.630	35.251	347.738	295.778	310.888	-10.059	278.441	4.566	19.731	0.662	219.197	54.259	89.543	0.00015336	0.00040138	8.8022e-05	1096.1	3.342e-06	4.8221e-06	1213.7	222.11	1.0975e-06	3.3934e-06	291.18	79.846	61.983	18.264	2.2524e-06	25.94	0.00028493	0.00032569	8.7225e-05	1076.8	3.6134e-06	3.4173e-06	1197.7	220.98	3.4428e-06	3.5428e-06	288.01	80.903	62.157	18.474	3.4374e-06	26.29	125.910	111.643	51.972	-1.274	149.193	151.973	-1.372	5.927	140.080	144.343	6.029	12.809	12.609	19.822	119.925	19.473	-8191	255	
3333.249	1	1	0	0	0.048572	0.15278	0.24474	0.12553	0.11358	0.18031	0.32982	0.069389	0.29983	0.16885	0.38669	0.24551	0.14999	0.22392	0.11623	0.03883	-2.15	-2.0938	-2.1208	-2.7313	-1.8125	-2.3854	-2.4167	-2.0563	-2.625	-1.9792	-2.2146	-2.6917	-1.7042	-2.3083	-2.3688	-1.8167	66.303	313.042	158.354	167.672	59.205	143.053	314.934	301.616	270.473	307.672	345.117	8.133	200.373	321.882	270.899	345.792	0.00014567	0.00032596	5.6092e-05	1094.1	1.5878e-06	3.5382e-06	1216.9	221.99	2.4678e-06	2.3941e-06	288.73	80.899	61.594	18.272	2.6249e-06	25.975	0.00029243	0.00032169	8.7089e-05	1076.4	3.5631e-06	3.459e-06	1198.3	220.73	3.5592e-06	3.4792e-06	287.01	81.376	62.097	18.491	3.2355e-06	26.277	130.712	56.006	75.559	-1.345	168.822	154.873	-1.205	6.278	157.769	145.464	6.204	12.470	12.718	19.660	122.353	19.858	-8191	255	
3333.343	1	1	0	0	0.24884	0.25197	0.11055	0.21138	0.16369	0.079324	0.19726	0.37404	0.14623	0.10378	0.1221	0.16611	0.12771	0.27039	0.079041	0.13304	-2.0521	-2.0729	-2.1125	-2.7188	-2.0292	-2.3438	-2.5333	-2.0146	-2.5167	-2.2583	-1.9833	-2.8417	-1.9583	-2.1958	-2.2917	-1.8646	257.109	323.869	71.084	310.721	17.236	176.928	305.089	265.981	19.947	140.072	235.061	166.542	314.428	4.963	285.693	250.396	0.00014511	0.00034127	6.9906e-05	1095.4	2.8929e-06	4.2457e-06	1218.7	222.11	1.6531e-06	4.0759e-06	289.97	80.711	61.93	18.238	1.8115e-06	26.082	0.00029246	0.00032754	8.8935e-05	1075	3.5677e-06	3.589e-06	1200.3	220.53	3.4536e-06	3.5049e-06	287.89	81.112	62.437	18.448	3.5658e-06	26.219	116.973	78.579	132.779	-1.387	162.280	150.097	-1.270	5.993	173.270	145.944	5.776	12.475	13.138	19.980	140.417	19.761	-8191	255	
3333.417	1	1	0	0	0.11355	0.19274	0.16835	0.25081	0.21304	0.26031	0.37405	0.11015	0.1073	0.27235	0.014194	0.094437	0.17019	0.076112	0.16675	0.13183	-2.0542	-2.125	-1.7583	-2.6521	-1.7875	-2.2188	-2.6271	-1.9354	-2.2875	-2.3667	-2.0417	-2.6396	-1.8396	-2.2667	-2.5687	-1.9062	106.004	108.117	278.184	342.169	295.108	309.137	275.212	332.480	127.424	241.798	32.356	21.642	246.244	240.570	200.037	220.766	0.00015367	0.00034644	7.9737e-05	1095.1	2.5712e-06	4.0859e-06	1218.3	222.09	1.8081e-06	3.1019e-06	289.06	80.113	61.854	18.261	2.1577e-06	25.933	0.00029299	0.00032916	8.996e-05	1075.3	3.547e-06	3.4543e-06	1198.4	220.55	3.6395e-06	3.5274e-06	287.57	80.936	62.221	18.437	3.5331e-06	26.199	129.383	62.555	79.295	-1.366	177.311	158.572	-1.198	6.220	176.596	137.330	5.660	12.572	13.024	20.102	117.460	19.915	-8191	255	
3333.511	1	1	0	0	0.28916	0.38829	0.13567	0.20128	0.25562	0.35984	0.17635	0.25871	0.21293	0.37452	0.21815	0.29948	0.10576	0.20566	0.18735	0.055103	-1.8354	-2.3417	-1.7542	-2.5833	-2.1583	-2.1854	-2.7396	-1.9104	-2.4542	-2.3208	-2.1167	-2.7417	-2.1542	-2.2375	-2.4542	-1.85	275.211	183.667	276.723	347.283	23.109	82.645	277.050	293.583	234.242	216.201	222.674	21.987	68.906	146.492	259.601	271.989	0.0001102	0.00045668	0.00011727	1090.2	4.0796e-06	1.7431e-06	1214.1	221.77	2.9347e-06	3.6468e-06	289.96	80.35	61.684	18.088	2.9575e-06	26.196	0.00028511	0.00031529	8.8392e-05	1074.1	3.6316e-06	3.4644e-06	1197.4	220.1	3.455e-06	3.5044e-06	287.79	81.194	62.136	18.394	3.5622e-06	26.283	114.843	61.627	44.260	-1.342	147.526	130.922	-1.129	6.221	153.969	127.303	5.633	12.719	13.554	20.383	148.226	20.050	-8191	255	
3333.632	1	1	0	0	0.20473	0.17609	0.41394	0.18966	0.076238	0.16899	0.22455	0.038802	0.1668	0.29479	0.094917	0.13891	0.16354	0.13588	0.15039	0.059085	-1.75	-2.4188	-1.9333	-2.6521	-2.3167	-1.8021	-2.6208	-2.0833	-2.2271	-2.5604	-1.9646	-2.4833	-2.2604	-1.9479	-2.5583	-1.8625	179.131	230.629	179.783	247.746	149.324	214.296	-0.754	21.193	302.703	284.538	121.469	0.926	226.301	21.919	16.360	67.688	0.00012612	0.0001706	6.1184e-05	1091.1	2.2892e-06	3.4685e-06	1212.9	221.59	2.7015e-06	4.2008e-06	290.84	80.27	61.808	18.267	3.8954e-06	25.852	0.00028737	0.00032334	8.9997e-05	1074.3	3.6268e-06	3.5473e-06	1197	220.56	3.4575e-06	3.5643e-06	287.62	80.967	62.195	18.405	3.4197e-06	26.175	122.355	24.000	85.411	-1.387	179.498	147.817	-1.355	6.207	178.018	133.178	5.565	12.759	12.857	19.848	89.509	19.654	-8191	255	
3333.728	1	1	0	0	0.1594	0.11193	0.29707	0.19865	0.17653	0.064969	0.17792	0.23429	0.024567	0.19891	0.098727	0.092358	0.23155	0.077571	0.052277	0.33851	-1.8646	-2.4958	-1.7812	-2.8187	-2.225	-2.0271	-2.7833	-2.0896	-2.1688	-2.5792	-1.9208	-2.475	-2.3396	-1.8208	-2.5292	-2.0583	55.775	67.085	219.759	318.773	226.245	228.201	192.096	10.792	294.364	14.684	51.456	259.619	268.992	334.404	118.776	275.750	0.00010689	0.00035351	7.4453e-05	1094.2	1.7846e-06	2.3293e-06	1211.9	222.08	7.9844e-07	1.771e-06	288.34	80.589	61.622	18.273	1.4182e-06	26.076	0.00029544	0.0003125	9.0972e-05	1073.7	3.5732e-06	3.5609e-06	1197.6	220.62	3.4919e-06	3.4623e-06	286.8	81.12	62.209	18.412	3.5684e-06	26.195	115.558	48.023	116.294	-1.446	85.235	157.115	-1.179	6.384	148.696	144.205	5.930	12.793	13.082	19.810	99.708	19.721	-8191	255	
3333.824	1	1	0	0	0.14768	0.17695	0.32086	0.26295	0.034057	0.10433	0.067021	0.13655	0.2252	0.19352	0.21424	0.18422	0.19599	0.058361	0.10594	0.06375	-1.7104	-2.4333	-2.0708	-2.3937	-2.2812	-1.725	-2.7854	-2.1958	-2.1458	-2.6417	-1.85	-2.3187	-2.3792	-1.9188	-2.5667	-2.0208	230.755	323.722	259.383	-7.994	4.270	170.427	248.250	57.974	245.585	183.325	3.440	309.500	315.564	111.663	311.107	-0.300	0.00015521	0.00033776	0.00010894	1094.4	3.9945e-06	3.0926e-06	1216.1	222.81	3.3903e-06	2.2711e-06	287.82	80.613	61.608	18.171	2.1166e-06	25.935	0.00029656	0.00031412	8.9904e-05	1073.8	3.6891e-06	3.5239e-06	1197	220.81	3.5713e-06	3.4503e-06	286.6	81.196	62.09	18.393	3.534e-06	26.239	128.423	68.710	66.257	-1.455	165.970	178.262	-1.449	6.518	171.798	116.172	5.920	12.441	13.185	20.311	109.304	19.904	-8191	255	
3333.920	1	1	0	0	0.21204	0.33544	0.35533	0.39575	0.32072	0.10934	0.26921	0.29459	0.12929	0.11701	0.18518	0.17043	0.34561	0.25397	0.22064	0.17829	-1.6271	-2.6833	-2	-2.3625	-2.4625	-1.9312	-2.5062	-2.2458	-1.9875	-2.7583	-1.9854	-2.2375	-2.5396	-1.7917	-2.4938	-2.275	-7.450	98.213	57.128	299.340	321.386	216.684	285.563	235.386	237.946	70.362	21.321	-10.908	346.447	193.923	240.166	74.104	0.0001344	0.00041682	0.00011428	1093	2.2204e-06	3.288e-06	1214	222.2	1.4905e-06	2.0053e-06	287.89	80.086	61.306	18.301	1.7512e-06	25.875	0.00029876	0.00031927	9.4226e-05	1073.7	3.6281e-06	3.4533e-06	1197.4	220.47	3.6087e-06	3.5318e-06	286.55	81.216	62.126	18.432	3.4963e-06	26.204	114.437	31.519	53.471	-1.682	121.622	174.585	-1.091	6.235	152.347	134.563	5.763	12.515	13.088	19.929	146.639	19.667	-8191	255	
3334.041	1	1	0	0	0.089691	0.16592	0.13	0.25145	0.10226	0.15072	0.34367	0.14968	0.055017	0.31145	0.22186	0.12771	0.30053	0.13538	0.37973	0.07493	-1.425	-2.4604	-1.9021	-2.2062	-2.5187	-1.9458	-2.4979	-2.2938	-2.0521	-2.6083	-2.0563	-2.0583	-2.7208	-2.1437	-2.3521	-2.5729	20.994	122.476	68.624	287.845	121.764	316.387	293.147	60.325	9.473	98.716	242.658	187.981	46.830	331.742	187.350	300.597	0.00013662	0.00043523	0.0001435	1091.5	2.7611e-06	2.8944e-06	1213.5	222.61	3.4912e-06	4.1243e-06	288.55	80.784	61.997	18.179	2.5389e-06	25.853	0.00029379	0.00031394	8.9602e-05	1074	3.6203e-06	3.631e-06	1196.6	220.33	3.5092e-06	3.4819e-06	286.73	81.164	62.193	18.421	3.4822e-06	26.194	126.415	75.239	76.407	-1.414	145.585	93.898	-1.428	5.999	120.647	121.109	5.813	12.303	12.840	20.090	159.817	19.895	-8191	255	
3334.113	1	1	0	0	0.17852	0.077943	0.034604	0.36502	0.19021	0.21671	0.17975	0.17677	0.027964	0.14887	0.39825	0.11643	0.22949	0.057759	0.177	0.08826	-1.575	-2.65	-2.2062	-2.1958	-2.5792	-2.0021	-2.3937	-2.5708	-1.7604	-2.6229	-2.2375	-2.0521	-2.4854	-1.9771	-2.1396	-2.4125	-7.862	6.779	172.578	276.045	318.386	171.353	250.546	325.201	28.852	94.368	8.187	77.356	324.054	150.578	34.380	-1.542	0.00013043	0.00035241	4.1077e-05	1096.7	3.3369e-06	3.683e-06	1214.4	221.92	1.523e-06	2.4107e-06	288.7	79.938	61.827	18.343	4.7826e-06	25.898	0.00028864	0.00031267	9.2318e-05	1074.6	3.6323e-06	3.4775e-06	1195.7	220.14	3.4302e-06	3.4528e-06	286.55	80.93	62.164	18.477	3.5328e-06	26.166	122.936	105.919	117.282	-1.455	188.004	167.006	-1.523	6.170	181.340	165.582	5.770	12.524	12.828	19.766	120.069	19.646	-8191	255	
3334.209	1	1	0	0	0.11501	0.028112	0.12757	0.39413	0.11868	0.096572	0.28671	0.065063	0.017762	0.28308	0.14191	0.30007	0.098342	0.13446	0.058565	0.1785	-1.5292	-2.4062	-2.1312	-2.2354	-2.5896	-1.95	-2.3958	-2.6083	-1.9625	-2.3563	-2.3583	-1.9854	-2.7521	-1.9083	-2.1146	-2.6396	89.006	196.391	76.836	295.705	297.597	22.776	322.987	92.124	64.508	169.776	250.275	289.706	335.808	-11.037	12.440	179.755	0.00012795	0.00011993	0.00011076	1094.1	1.8287e-06	2.2458e-06	1216.5	221.7	2.4636e-06	3.3535e-06	288.64	79.916	61.948	18.214	2.3391e-06	25.87	0.00029161	0.00032014	8.9139e-05	1075.4	3.5759e-06	3.5757e-06	1197.4	220.41	3.6019e-06	3.4655e-06	286.4	81.042	62.233	18.413	3.5622e-06	26.189	134.743	176.334	66.502	-1.557	154.538	153.848	-1.545	6.285	157.842	147.091	5.802	12.309	12.980	20.464	171.004	20.124	-8191	255	
3334.329	1	1	0	0	0.14832	0.27525	0.060988	0.21539	0.10928	0.15104	0.095669	0.382	0.13357	0.10968	0.1797	0.16696	0.22918	0.10192	0.30272	0.13533	-1.2375	-2.4	-2.3896	-1.9792	-2.6042	-2.1208	-2.0667	-2.4646	-1.6667	-2.1521	-2.3979	-1.7958	-2.4708	-1.9771	-1.7062	-2.5625	203.978	198.076	0.071	267.535	243.309	12.437	74.643	290.532	32.337	52.241	268.941	244.743	1.391	114.627	242.019	16.495	0.00014438	0.0005607	6.7451e-05	1092.8	2.8888e-06	2.1091e-06	1211.8	222.57	2.3707e-07	3.5638e-06	290.32	80.614	61.929	18.155	2.4661e-06	26.085	0.00029297	0.000321	8.775e-05	1073.7	3.4761e-06	3.3739e-06	1196.3	220.62	3.5521e-06	3.4743e-06	286.88	81.076	62.302	18.414	3.4837e-06	26.254	128.010	68.078	95.257	-1.647	143.440	151.553	-1.375	6.275	139.539	166.404	5.758	12.746	12.794	20.167	103.943	19.795	-8191	255	
3334.424	1	1	0	0	0.22635	0.14439	0.12507	0.30736	0.18528	0.15096	0.29585	0.070933	0.04694	0.15689	0.22959	0.21364	0.29263	0.20254	0.057497	0.01917	-1.4292	-2.2771	-2.3063	-2.0333	-2.6667	-2.2438	-1.8792	-2.6813	-1.7583	-2.0354	-2.5667	-1.9	-2.3792	-2.2354	-1.9167	-2.6437	129.926	269.482	220.306	273.309	333.528	265.677	307.758	93.773	215.008	95.671	206.539	162.281	275.459	66.350	292.029	175.976	0.00017178	0.00014936	9.2023e-05	1090.7	2.4669e-06	5.8833e-06	1212.4	222.33	2.2804e-06	1.9567e-06	288.14	79.948	62.201	18.187	2.2197e-06	25.691	0.00029239	0.00032531	8.7731e-05	1071.9	3.6392e-06	3.5012e-06	1195.3	220.71	3.6096e-06	3.4865e-06	286.22	81.024	62.323	18.372	3.5386e-06	26.127	125.790	56.639	89.954	-1.589	173.073	120.554	-1.307	6.270	172.561	170.764	5.683	12.721	13.411	20.468	125.650	19.713	-8191	255	
3334.522	1	1	0	0	0.11706	0.15433	0.15121	0.25756	0.17244	0.30487	0.043937	0.25756	0.037161	0.20274	0.15963	0.13612	0.21526	0.11904	0.14409	0.044422	-1.475	-2.2833	-2.425	-1.7979	-2.4167	-2.4083	-2.0167	-2.6771	-2.125	-2.15	-2.6646	-2.0542	-2.3458	-2.3292	-2.125	-2.5687	97.950	315.834	345.713	9.125	121.212	46.771	191.923	249.160	145.934	162.207	130.676	35.588	246.107	268.854	-1.084	3.152	0.00014374	0.00021264	9.6267e-05	1090.9	3.3617e-06	4.6169e-06	1212.1	220.75	2.0561e-06	1.2468e-06	289.24	80.889	61.984	18.252	2.537e-06	25.812	0.00029359	0.00032227	8.6768e-05	1072.5	3.7215e-06	3.5735e-06	1194	220.21	3.5507e-06	3.4894e-06	286.94	81.311	62.229	18.425	3.5264e-06	26.156	130.256	58.641	73.363	-1.470	150.248	163.918	-1.422	6.419	106.579	116.827	5.724	12.485	12.641	20.215	119.802	19.776	-8191	255	
3334.640	1	1	0	0	0.20603	0.13613	0.14068	0.15536	0.26959	0.23978	0.33684	0.18436	0.11496	0.12025	0.10647	0.28968	0.21178	0.1415	0.29653	0.27573	-1.6542	-2.0833	-2.4396	-1.8917	-2.2083	-2.325	-2.0625	-2.6396	-2.2896	-2.1813	-2.8354	-2.0833	-2.2333	-2.5208	-1.9417	-2.6458	5.651	58.882	8.700	319.087	173.618	210.968	296.828	327.968	276.713	193.893	205.039	317.129	115.009	43.560	315.791	270.934	0.00015078	0.00017851	8.8531e-05	1095.5	2.7736e-06	4.2732e-06	1213.5	222.24	3.4644e-06	3.9094e-07	287.49	80.378	62.011	18.12	1.9837e-06	26.084	0.00030073	0.00032038	8.8608e-05	1072.1	3.5228e-06	3.5666e-06	1196.8	220.88	3.6131e-06	3.4941e-06	286.47	81.121	62.212	18.392	3.5932e-06	26.225	109.510	61.540	69.723	-1.523	122.753	154.475	-1.128	6.448	151.568	154.554	5.654	12.577	12.641	20.519	113.194	19.940	-8191	255	
3334.712	1	1	0	0	0.23163	0.10242	0.094572	0.1228	0.30698	0.10358	0.14959	0.42213	0.087521	0.18168	0.18781	0.18111	0.17155	0.13913	0.13966	0.19228	-1.7271	-2.0479	-2.7083	-2.2646	-2.0333	-2.5563	-1.9542	-2.4792	-2.1458	-1.9979	-2.6667	-2.1979	-2.2792	-2.5875	-1.7542	-2.4354	341.532	318.129	145.541	293.072	225.508	189.868	237.531	311.629	126.146	198.484	201.402	-7.482	31.447	272.829	335.484	281.596	0.00013432	0.00030979	5.2716e-05	1089.6	2.6509e-06	2.9782e-06	1215.2	221.98	1.3664e-06	3.607e-06	287.96	80.218	61.795	18.264	1.5527e-06	26.071	0.00029297	0.00031594	8.9484e-05	1071.4	3.624e-06	3.516e-06	1194.4	220.04	3.5715e-06	3.6127e-06	286.36	81.027	62.137	18.427	3.5254e-06	26.255	122.752	58.992	72.078	-1.567	170.614	141.770	-1.335	6.041	109.526	99.220	5.975	12.903	12.879	20.680	135.318	19.733	-8191	255	
3334.808	1	1	0	0	0.1401	0.16188	0.10357	0.29769	0.070128	0.1815	0.13664	0.10227	0.077979	0.087098	0.095532	0.11423	0.45325	0.14934	0.28804	0.24577	-1.8917	-1.8667	-2.4917	-2.1354	-2.0104	-2.5667	-2.1625	-2.3208	-2.2562	-1.9125	-2.7104	-1.875	-2.1875	-2.6521	-2.0479	-2.4917	229.294	117.470	319.809	286.457	283.020	44.429	21.872	247.816	130.827	63.914	189.848	339.284	318.566	51.322	59.786	282.945	0.00015762	0.00047026	0.00011077	1094.3	9.0447e-07	3.3068e-06	1213.6	221.38	1.3828e-06	3.5811e-06	288.25	80.348	62.15	18.262	1.5786e-06	25.857	0.00028986	0.00033182	8.8756e-05	1072.4	3.5948e-06	3.6142e-06	1193.7	220.25	3.5293e-06	3.5472e-06	286.5	80.924	62.257	18.405	3.6369e-06	26.17	113.548	54.667	45.928	-1.389	156.768	183.814	-1.396	6.393	94.707	143.352	6.230	12.741	13.226	20.147	102.633	19.399	-8191	255	
3334.929	1	1	0	0	0.15374	0.093489	0.18432	0.35689	0.062815	0.23205	0.2801	0.041567	0.15124	0.26571	0.2222	0.17333	0.23559	0.053798	0.19586	0.12469	-2.2042	-1.8896	-2.4562	-2.3854	-2.0375	-2.6458	-2.0563	-2.225	-2.3604	-1.7646	-2.4813	-2.2188	-2.0875	-2.5062	-2.0479	-2.3375	177.855	169.188	310.863	-1.835	159.336	324.782	337.059	163.030	137.465	58.754	131.218	50.997	146.264	90.440	-6.794	269.300	0.00014374	0.00037591	0.00011628	1087.6	3.3302e-06	3.0354e-06	1216.4	222.34	1.7148e-06	1.4401e-06	289.95	80.752	61.364	18.173	2.4132e-06	25.692	0.00029193	0.00033522	8.7336e-05	1069.5	3.5546e-06	3.3536e-06	1196.4	220.56	3.505e-06	3.4342e-06	286.65	81.006	62.058	18.385	3.4601e-06	26.075	127.637	71.654	82.409	-1.211	156.327	143.300	-1.435	6.039	173.582	101.093	5.907	12.879	13.318	20.466	149.531	19.844	-8191	255	
3335.025	1	1	0	0	0.1289	0.12794	0.16531	0.085021	0.32216	0.13826	0.24476	0.47633	0.11952	0.035544	0.1548	0.27815	0.07076	0.20063	0.075247	0.12714	-2.1063	-1.7437	-2.3229	-2.3146	-1.9375	-2.4958	-2.2417	-2.1417	-2.5167	-2.1271	-2.3396	-2.4146	-2.0687	-2.4354	-2.0292	-2.0896	64.587	251.909	292.901	290.594	133.922	214.855	280.792	322.816	173.373	137.330	272.321	342.728	172.656	62.657	332.459	84.534	0.00013258	0.0002636	0.00010353	1097.5	2.0554e-06	6.1926e-06	1217.5	220.73	2.6277e-06	3.0614e-06	290.54	80.502	61.618	18.152	2.9683e-06	25.786	0.00028556	0.00033711	9.0312e-05	1072.9	3.6394e-06	3.5061e-06	1196.4	220.1	3.4933e-06	3.464e-06	287.17	81.118	62.105	18.365	3.5875e-06	26.155	140.743	36.402	84.080	-1.132	111.100	141.649	-1.138	6.292	159.459	180.291	6.049	12.764	13.053	20.386	146.543	19.943	-8191	255	
3335.121	1	1	0	0	0.23981	0.086849	0.14623	0.059828	0.2327	0.071094	0.024539	0.069418	0.047607	0.078191	0.11005	0.29081	0.22037	0.28332	0.11264	0.094056	-2.0771	-1.8729	-2.2375	-2.1479	-1.8417	-2.5708	-2.4521	-2.0854	-2.4604	-1.8771	-2.3083	-2.5229	-1.9188	-2.4813	-2.1792	-1.9646	11.703	37.787	204.932	346.067	292.567	261.831	77.483	74.938	35.519	222.802	318.078	280.914	4.093	289.251	118.617	51.571	0.00012077	0.00040213	7.6333e-05	1092.7	3.9073e-06	2.022e-06	1211.7	221.65	3.4865e-06	2.8377e-06	288.93	80.546	61.917	18.147	2.5779e-06	25.866	0.00029438	0.0003304	8.6842e-05	1072.5	3.6242e-06	3.4807e-06	1194.9	219.98	3.4669e-06	3.601e-06	287.17	80.985	62.197	18.36	3.4131e-06	26.227	142.190	93.481	78.397	-1.295	172.897	162.386	-1.004	6.490	117.756	152.050	5.796	12.895	12.902	20.368	150.891	20.193	-8191	255	
3335.217	1	1	0	0	0.40829	0.14577	0.21981	0.24509	0.059536	0.079371	0.14182	0.21801	0.10612	0.1452	0.18522	0.14263	0.1503	0.049873	0.21047	0.18771	-2.1875	-1.8875	-2.1	-2.4458	-1.8271	-2.5938	-2.3375	-2.025	-2.5938	-1.8625	-2.2188	-2.5896	-1.7542	-2.4688	-2.2771	-1.8896	303.584	30.214	143.505	280.136	328.963	194.510	189.931	262.366	77.150	194.271	314.108	12.146	154.394	96.152	150.882	140.568	0.00013534	0.00034427	7.2945e-05	1092.2	1.4972e-06	3.4449e-06	1217.2	221.5	1.6475e-06	6.7638e-07	288.93	80.834	61.793	18.246	4.578e-06	25.891	0.00029898	0.00032429	8.9491e-05	1072.3	3.6967e-06	3.514e-06	1195.3	219.84	3.4379e-06	3.5543e-06	286.5	81.29	62.148	18.428	3.4639e-06	26.213	111.546	58.449	96.933	-1.161	128.267	183.734	-1.004	6.387	121.356	112.804	5.946	12.869	13.203	20.528	152.817	20.064	-8191	255	
3335.336	1	1	0	0	0.40834	0.2239	0.22036	0.11778	0.29221	0.091419	0.069557	0.20331	0.1809	0.32723	0.12787	0.19964	0.079126	0.13914	0.13066	0.091319	-2.2625	-1.8937	-2.175	-2.5292	-1.8479	-2.3792	-2.4958	-1.9417	-2.6167	-2.0687	-2.2792	-2.8187	-2.0687	-2.2646	-2.4542	-2.1188	42.865	101.326	10.399	3.211	293.260	215.630	47.409	11.509	163.793	-7.393	318.445	235.462	61.510	9.702	152.864	280.765	0.00017335	0.00033073	0.00011077	1091.2	2.0673e-06	4.1529e-06	1215.8	221.8	1.9164e-06	2.302e-06	289.95	80.716	62.045	18.387	1.2065e-06	25.774	0.00029405	0.00032027	9.3849e-05	1072.5	3.5989e-06	3.5518e-06	1197.4	220.11	3.547e-06	3.4569e-06	286.86	81.169	62.282	18.43	3.3973e-06	26.177	128.441	159.256	80.675	-1.041	193.270	140.496	-0.948	6.645	170.562	181.412	6.538	12.901	13.488	20.540	151.404	20.244	-8191	255	
3335.408	1	1	0	0	0.013001	0.17579	0.22162	0.13662	0.11766	0.15275	0.17084	0.13579	0.17349	0.20271	0.2669	0.10918	0.033092	0.067971	0.13248	0.1552	-2.2354	-2.1896	-2.1562	-2.7917	-1.9271	-2.4854	-2.6396	-2.0354	-2.5042	-2.2771	-2.1167	-2.5417	-2.1354	-2.2313	-2.7125	-1.9188	146.643	301.146	176.225	116.347	22.487	221.763	266.771	142.396	251.721	287.018	145.599	262.647	238.462	133.467	127.140	30.869	0.00015997	0.00040994	4.1469e-05	1091.3	3.9338e-06	4.3653e-06	1211.6	221.98	3.525e-06	3.0558e-06	290.27	80.323	61.702	18.206	2.6794e-06	25.955	0.00029438	0.00032969	8.8145e-05	1072.2	3.667e-06	3.5772e-06	1195.6	220.37	3.5227e-06	3.4814e-06	287.16	81.021	62.329	18.382	3.5789e-06	26.229	121.871	53.564	66.912	-1.095	172.289	135.394	-0.859	6.420	183.223	169.878	6.143	12.838	13.456	20.204	201.365	20.146	-8191	255	
3335.504	1	1	0	0	0.16796	0.21413	0.10054	0.17927	0.046711	0.18216	0.088027	0.17094	0.049515	0.21068	0.15382	0.18919	0.073045	0.17651	0.046067	0.26407	-1.9188	-2.25	-1.8396	-2.7521	-1.9375	-2.1104	-2.7042	-2.0625	-2.425	-2.5125	-2.1042	-2.7354	-2.0354	-2.2583	-2.6208	-1.9125	258.140	140.166	162.473	253.848	288.186	216.053	255.291	333.759	155.790	162.897	314.587	308.964	303.543	17.516	40.628	296.611	0.00015644	2.5506e-05	8.6326e-05	1091.2	1.9357e-06	4.7592e-06	1214.4	222.35	1.19e-06	2.4955e-06	289.02	80.735	62.097	18.23	3.8695e-06	25.902	0.00028931	0.00031576	8.8836e-05	1072.9	3.5762e-06	3.5382e-06	1198	220.74	3.4977e-06	3.5748e-06	287.05	81.041	62.224	18.46	3.4226e-06	26.236	130.532	183.539	97.793	-1.377	154.097	153.709	-0.855	6.468	249.212	155.763	6.209	12.842	13.607	20.381	155.276	19.833	-8191	255	
3335.602	1	1	0	0	0.077586	0.165	0.30892	0.35935	0.060607	0.18326	0.14305	0.25101	0.27931	0.040928	0.27679	0.23058	0.078464	0.18415	0.15724	0.10065	-1.9521	-2.3021	-1.7958	-2.7792	-2.2687	-2.2583	-2.7229	-2.0104	-2.3146	-2.4229	-2.1708	-2.4875	-2.0646	-1.9542	-2.625	-2.0208	115.756	52.805	287.015	328.106	197.621	114.418	74.698	5.756	79.551	74.716	319.949	123.612	148.327	22.946	28.422	186.442	0.00015088	0.00028995	4.6604e-05	1096	1.4724e-06	3.2605e-06	1218.6	220.62	2.4297e-06	1.9602e-06	287.71	80.66	61.619	18.336	3.0359e-06	25.96	0.00029611	0.00031789	8.9596e-05	1073.5	3.5403e-06	3.6063e-06	1198.9	219.97	3.4828e-06	3.3843e-06	286.62	81.24	62.087	18.398	3.4882e-06	26.275	129.310	83.403	64.738	-1.024	157.535	176.985	-0.890	6.583	110.251	172.005	6.301	12.871	13.215	20.068	165.285	20.212	-8191	255	
3335.721	1	1	0	0	0.2285	0.077506	0.31333	0.049376	0.24952	0.094164	0.22547	0.15758	0.12029	0.071561	0.049281	0.12317	0.10986	0.077758	0.075926	0.3099	-1.8583	-2.3438	-1.9813	-2.4875	-2.3083	-2.0583	-2.6271	-1.9188	-2.1937	-2.4583	-1.9854	-2.4833	-2.3896	-2.0271	-2.4562	-1.9771	178.644	5.983	264.156	298.329	122.973	280.949	254.491	264.064	337.198	304.819	225.408	344.744	267.879	20.246	171.175	279.271	0.00011794	0.00012484	9.6101e-05	1097.1	1.3326e-06	4.0464e-06	1217.6	220.8	2.5973e-06	3.1325e-06	288.08	80.458	62.152	18.214	1.6702e-06	25.802	0.000297	0.00031312	8.9614e-05	1074.3	3.5437e-06	3.5542e-06	1197.8	220.34	3.5108e-06	3.4603e-06	286.13	81.077	62.331	18.406	3.3923e-06	26.199	111.891	59.704	58.796	-1.152	242.245	154.026	-0.964	6.569	133.159	139.748	5.954	13.153	13.726	20.670	116.800	19.574	-8191	255	
3335.817	1	1	0	0	0.28776	0.082691	0.19601	0.18183	0.090146	0.027169	0.10016	0.13268	0.16872	0.18361	0.14887	0.27856	0.090782	0.16722	0.16242	0.1738	-1.9	-2.6458	-1.6354	-2.5042	-2.3396	-1.9583	-2.65	-2.1854	-2.0833	-2.3958	-1.8729	-2.2812	-2.4542	-1.8479	-2.5917	-2.35	72.553	243.735	7.859	267.759	266.673	187.472	276.110	125.456	88.931	172.323	333.606	332.201	261.735	346.304	276.434	-7.083	0.00015299	0.00051452	6.8937e-05	1095.8	2.6671e-06	4.1591e-06	1216.2	222.36	2.928e-06	4.0312e-06	289.33	80.797	61.851	18.186	4.4308e-07	26.027	0.00028959	0.00032616	9.0268e-05	1074.1	3.4754e-06	3.5666e-06	1198.8	220.28	3.4825e-06	3.5469e-06	287.28	81.118	62.124	18.427	3.4395e-06	26.254	116.212	64.997	124.593	-1.311	167.442	109.283	-1.335	6.027	191.691	155.037	6.250	12.508	13.541	19.856	124.896	19.990	-8191	255	
3335.913	1	1	0	0	0.35981	0.11986	0.23324	0.044668	0.16876	0.036168	0.29756	0.2854	0.039183	0.14785	0.10836	0.16941	0.17684	0.25723	0.18108	0.10475	-1.4125	-2.4646	-1.8958	-2.2687	-2.3979	-1.8792	-2.6167	-2.1875	-1.9	-2.6771	-2.1667	-2.3292	-2.4771	-1.8583	-2.6208	-2.2875	266.772	310.465	23.550	53.050	172.799	98.946	346.748	192.635	275.141	0.916	150.117	318.263	231.448	70.912	263.310	200.319	0.00013842	0.00031208	7.4641e-05	1092.6	4.7166e-06	4.677e-06	1218.7	222.37	1.8546e-06	2.3773e-06	288.69	80.918	61.8	18.187	3.1323e-06	25.789	0.0002942	0.00032003	9.0324e-05	1075.3	3.44e-06	3.4106e-06	1197.1	220.26	3.4522e-06	3.4264e-06	286.65	81.234	62.144	18.426	3.2775e-06	26.182	115.003	93.041	70.918	-1.550	179.874	123.741	-1.310	6.121	171.516	144.913	6.070	12.633	13.329	20.695	108.967	19.660	-8191	255	
3336.009	1	1	0	0	0.13705	0.070775	0.35026	0.058268	0.086582	0.13281	0.21199	0.085899	0.18091	0.31614	0.02195	0.34837	0.24087	0.27243	0.082812	0.18538	-1.5833	-2.6229	-1.9042	-2.35	-2.5667	-1.975	-2.575	-2.2667	-1.8917	-2.4542	-2.0104	-2.0979	-2.5542	-1.8792	-2.2396	-2.4083	209.496	228.886	156.309	279.449	97.156	329.532	259.821	302.821	174.492	258.577	18.576	109.674	67.888	24.056	185.958	147.280	0.00017292	0.00020822	5.5014e-05	1092.9	2.9786e-06	4.9875e-06	1216.5	222.33	1.6733e-06	3.2352e-06	288.39	80.879	61.819	18.215	3.8219e-06	25.843	0.00027854	0.00030816	8.3051e-05	1072.7	3.2779e-06	3.3509e-06	1198.4	220.29	3.4122e-06	3.3867e-06	285.92	81.193	62.17	18.354	3.274e-06	26.176	107.347	76.399	89.654	-1.529	134.666	172.088	-1.257	6.262	171.686	130.445	6.054	12.257	13.154	20.562	180.358	19.922	-8191	255	
3336.105	1	1	0	0	0.25457	0.050701	0.17983	0.24182	0.20813	0.10976	0.2284	0.18959	0.18001	0.0079663	0.27687	0.222	0.15408	0.078572	0.037568	0.11264	-1.575	-2.6021	-1.8458	-2.2458	-2.4625	-1.9958	-2.3896	-2.4354	-1.8667	-2.75	-2.1437	-2.0062	-2.775	-2.0396	-2.4292	-2.5125	21.870	110.466	147.744	332.351	89.582	187.215	295.498	259.310	17.036	37.663	323.149	1.178	34.137	257.870	276.919	242.681	0.00016038	0.00036969	0.00012522	1100.7	3.2491e-06	2.7362e-06	1217.8	221.8	4.3621e-07	2.2872e-06	287.76	80.547	61.765	18.291	2.8034e-06	25.785	0.00027697	0.00030012	8.0329e-05	1076.4	3.2623e-06	3.3386e-06	1199	220.17	3.2548e-06	3.062e-06	287.08	81.114	62.215	18.435	3.1955e-06	26.132	117.342	94.480	79.256	-1.517	169.984	139.727	-1.348	6.574	89.497	101.568	6.196	12.755	13.341	20.333	155.015	19.993	-8191	255	
3336.202	1	1	0	0	0.29302	0.14289	0.075431	0.13584	0.10514	0.32612	0.05772	0.07195	0.17047	0.27007	0.038487	0.068385	0.17301	0.17549	0.19897	0.10894	-1.5042	-2.375	-1.9417	-2.2104	-2.5917	-2.0458	-2.4375	-2.4896	-1.8458	-2.5083	-2.4208	-2.0375	-2.6188	-1.9688	-2.1688	-2.5021	248.240	183.638	302.164	275.073	102.772	104.376	11.115	-2.503	161.989	172.042	47.110	49.684	7.446	321.360	293.953	105.406	0.00015694	0.00023232	7.3455e-05	1096.4	2.8839e-06	2.9363e-06	1218.7	222.38	1.9531e-06	3.5715e-06	289.04	80.647	62.217	18.203	1.3333e-06	25.935	0.0002734	0.00029172	7.9365e-05	1074.8	3.263e-06	3.2162e-06	1196.8	220.44	3.3459e-06	3.0251e-06	286.83	81.18	62.24	18.421	3.0998e-06	26.226	124.402	54.365	92.365	-1.205	126.841	126.644	-1.150	6.525	132.773	124.711	6.049	13.116	13.017	20.211	124.041	20.187	-8191	255	
3336.322	1	1	0	0	0.14464	0.24998	0.031173	0.35376	0.18438	0.20746	0.3476	0.10923	0.1979	0.14511	0.26793	0.46783	0.061167	0.036838	0.15134	0.021075	-1.4188	-2.2938	-2.3583	-2.0271	-2.6354	-1.9875	-2.1708	-2.7146	-1.7708	-2.5104	-2.1	-2.0375	-2.7125	-2.0792	-1.9937	-2.6958	223.622	321.787	192.495	302.043	139.125	228.836	303.976	164.216	-8.158	346.578	63.716	304.568	211.509	213.814	240.680	123.435	0.00015132	0.00020123	8.4539e-05	1097.2	3.2138e-06	3.3916e-06	1215.9	221.29	9.8682e-07	1.4028e-06	289.11	80.695	61.536	18.109	4.223e-06	26.022	0.00026489	0.00028783	7.7921e-05	1075.5	3.071e-06	3.1679e-06	1197	219.89	3.2095e-06	3.0554e-06	287	81.141	62.057	18.37	3.1046e-06	26.259	126.338	26.117	74.683	-1.126	204.691	92.016	-1.037	6.837	248.584	143.780	6.217	12.757	13.587	20.796	142.850	20.112	-8191	255	
3336.417	1	1	0	0	0.1562	0.086201	0.17913	0.11746	0.28033	0.091824	0.01036	0.29609	0.40138	0.35207	0.19341	0.35881	0.17152	0.23753	0.053474	0.45938	-1.4146	-2.5125	-2.2854	-2.0458	-2.5583	-2.2917	-2.0771	-2.6896	-1.9167	-2.3167	-2.3583	-1.9438	-2.6937	-2.325	-1.9354	-2.7062	321.490	47.486	223.911	290.091	0.397	112.667	169.901	264.937	153.338	283.994	206.704	3.945	-3.927	131.664	9.928	345.149	0.0001526	0.00033994	9.357e-05	1094.1	1.4996e-06	2.2467e-06	1212.9	221.03	1.8988e-06	2.9183e-06	288.33	80.802	61.525	18.096	2.8375e-06	25.825	0.00026773	0.00027424	7.576e-05	1074.6	3.1471e-06	3.0095e-06	1197.3	220.26	3.1132e-06	3.0255e-06	286.35	81.133	62.193	18.348	3.0113e-06	26.224	128.935	56.991	96.013	-1.052	101.850	114.665	-1.126	6.830	124.969	102.564	6.253	13.074	13.449	20.743	158.716	20.064	-8191	255	
3336.513	1	1	0	0	0.17654	0.31535	0.24192	0.1851	0.036089	0.16875	0.20012	0.2294	0.17214	0.15809	0.095762	0.064602	0.081215	0.11169	0.3672	0.15654	-1.5792	-2.0438	-2.3792	-2.1875	-2.4854	-2.3312	-1.9604	-2.6583	-2.0646	-2.2333	-2.6604	-1.9458	-2.6792	-2.2146	-2.0479	-2.7	308.063	108.939	60.973	293.570	227.830	346.964	219.633	138.798	53.960	178.056	118.019	343.497	176.632	71.595	-2.703	61.943	0.00016367	0.0001644	9.9251e-05	1091.7	1.3741e-06	4.6546e-06	1204.8	221.09	2.0131e-06	3.1365e-06	287.28	80.281	61.461	18.052	2.2906e-06	26.014	0.00025974	0.00028121	7.6686e-05	1074.6	3.1383e-06	2.9934e-06	1195.4	220.42	3.1623e-06	3.0263e-06	286.5	81.015	62.086	18.33	2.9938e-06	26.203	121.639	95.220	101.115	-1.017	177.691	161.387	-0.967	6.969	161.524	107.047	6.517	12.957	13.725	20.919	164.985	20.656	-8191	255	
3336.609	1	1	0	0	0.11829	0.12334	0.34036	0.14771	0.14642	0.18202	0.31318	0.069292	0.18609	0.079495	0.21635	0.23775	0.028352	0.06767	0.24436	0.081318	-1.5562	-1.9542	-2.625	-1.9875	-2.375	-2.4938	-2.1104	-2.5875	-2.0729	-2.0646	-2.5292	-1.9521	-2.1958	-2.3312	-1.7917	-2.6167	174.051	92.151	92.581	319.549	38.341	326.146	248.410	45.077	191.010	51.356	324.355	167.231	73.231	274.813	190.362	88.435	0.0001421	0.00015427	0.00010057	1088.6	3.5208e-06	2.9238e-06	1210.4	221.62	2.0104e-06	2.862e-06	285.54	80.033	61.868	18.192	3.6157e-06	25.684	0.00026022	0.0002887	7.7958e-05	1073.5	3.1531e-06	3.1659e-06	1196.3	220.04	3.0508e-06	3.0402e-06	285.86	80.859	62.171	18.435	3.1041e-06	26.136	121.979	69.952	105.062	-0.904	169.529	147.558	-0.612	6.563	164.682	172.012	6.616	13.280	13.463	20.795	153.746	20.248	-8191	255	
3336.705	1	1	0	0	0.14428	0.21391	0.18271	0.28812	0.1617	0.15954	0.080624	0.19739	0.20148	0.11154	0.39074	0.097815	0.1068	0.16505	0.30001	0.22603	-1.7	-2.1292	-2.7687	-2.1417	-2.5646	-2.475	-2.0708	-2.5646	-2.2375	-2.2	-2.625	-1.9458	-2.3688	-2.4313	-1.5688	-2.4083	59.141	88.281	283.979	274.895	271.154	184.817	250.419	86.436	79.483	275.615	339.257	322.014	346.920	311.311	-9.750	126.756	0.00013986	0.00025184	8.2429e-05	1087.4	4.8157e-06	3.7155e-06	1213	220.65	8.2204e-07	3.8275e-06	287.74	80.112	61.455	18.255	2.6293e-06	25.85	0.00025614	0.00028788	7.9649e-05	1073.4	3.2076e-06	2.9821e-06	1196	220.27	3.1868e-06	3.1349e-06	286.79	80.979	62.041	18.421	3.0471e-06	26.15	116.149	94.968	96.253	-1.024	160.495	151.740	-0.791	6.653	192.455	153.007	6.613	12.910	13.481	20.808	145.166	20.128	-8191	255	
3336.801	1	1	0	0	0.23217	0.077532	0.19292	0.23102	0.19577	0.2001	0.17442	0.20816	0.10272	0.082772	0.04439	0.19799	0.18357	0.046835	0.23979	0.11257	-2.0042	-1.9271	-2.7375	-2.1896	-2.15	-2.4688	-1.8708	-2.5625	-2.3354	-1.9708	-2.6458	-2.0708	-2.1604	-2.5438	-2.0792	-2.4354	-4.186	338.951	196.530	260.881	211.969	215.427	272.253	246.846	102.269	138.724	279.430	15.306	329.827	241.476	110.653	259.409	0.00011492	0.00015686	8.1853e-05	1096.1	2.4111e-06	2.8618e-06	1212.2	221.45	1.4478e-06	4.0124e-06	288.01	80.597	61.356	18.099	2.3563e-06	25.758	0.00026621	0.0002957	7.6507e-05	1074.4	3.1531e-06	3.1244e-06	1197.3	220.32	3.0541e-06	3.0312e-06	286.07	81.134	61.992	18.387	3.0845e-06	26.133	129.104	66.159	85.436	-1.057	167.490	147.344	-1.142	6.923	176.740	162.499	6.128	13.192	13.978	20.790	119.079	20.175	-8191	255	
3336.897	1	1	0	0	0.15957	0.21403	0.21118	0.086441	0.18628	0.27049	0.11412	0.23524	0.09395	0.1779	0.32054	0.29156	0.22285	0.17612	0.1914	0.21874	-1.9875	-1.6833	-2.5417	-2.2229	-2.0021	-2.8354	-2.1167	-2.3125	-2.4896	-1.7583	-2.5687	-2.125	-2.0396	-2.7854	-1.9208	-2.3354	331.377	165.494	337.676	321.012	277.679	168.627	324.704	208.219	121.300	258.613	340.005	225.359	304.918	326.811	91.137	242.956	0.00012999	0.00029618	7.0299e-05	1090.7	1.2306e-06	4.2819e-06	1215	221.21	2.8116e-06	3.7705e-06	287.26	80.448	61.548	18.179	2.4638e-06	25.812	0.00026314	0.00028557	7.8686e-05	1074.7	3.1956e-06	2.9587e-06	1197.7	219.99	3.1078e-06	3.1216e-06	286.32	80.969	62.23	18.402	3.163e-06	26.126	135.788	44.897	46.824	-1.011	177.410	162.072	-0.968	6.580	181.515	152.112	6.127	13.491	13.358	20.518	169.833	20.158	-8191	255	
3336.994	1	1	0	0	0.14304	0.060811	0.1109	0.3461	0.094468	0.10755	0.22008	0.28093	0.10279	0.26996	0.02596	0.10884	0.24158	0.16999	0.13926	0.3486	-2.2083	-1.7979	-2.3542	-2.4729	-1.9083	-2.7146	-2.0833	-2.3063	-2.5021	-1.8229	-2.5438	-2.2708	-1.9604	-2.7208	-1.9062	-2.175	78.164	156.423	57.562	298.423	233.474	221.191	6.402	50.984	118.781	242.577	267.267	271.628	311.110	110.862	-5.889	305.234	0.00015542	0.00041113	3.3008e-05	1092.4	2.9207e-06	5.0572e-06	1214.2	220.47	1.8268e-06	3.5385e-06	287.2	80.236	61.277	17.948	3.105e-06	25.82	0.00026297	0.0002949	7.9057e-05	1073.8	3.2749e-06	3.0813e-06	1196.2	219.82	3.1564e-06	3.1415e-06	286.26	80.88	61.949	18.317	3.1339e-06	26.195	118.631	42.381	109.439	-1.092	171.473	133.439	-0.720	6.715	169.551	158.248	6.413	12.984	13.454	20.724	151.729	20.089	-8191	255	
3337.114	1	1	0	0	0.18496	0.2018	0.22561	0.35977	0.22829	0.12146	0.22302	0.097659	0.11261	0.11415	0.16351	0.17609	0.26834	0.077078	0.14358	0.080746	-2.2146	-1.8729	-2.3146	-2.4667	-2.0125	-2.5417	-2.3563	-2.1896	-2.5375	-1.9167	-2.3667	-2.4333	-1.9146	-2.5854	-2.1333	-2.05	126.833	284.220	239.550	309.097	316.996	346.728	310.756	336.358	93.333	174.049	294.313	314.615	287.864	4.964	108.023	270.181	0.00015458	0.00025868	5.3711e-05	1092.4	3.232e-06	2.1477e-06	1213.7	220.94	8.4876e-07	2.6192e-06	287.82	80.085	62.374	18.154	3.5187e-06	25.829	0.00026619	0.0002879	7.8933e-05	1073.1	3.2356e-06	3.0803e-06	1197.6	219.66	3.0768e-06	3.1209e-06	286.65	80.693	62.173	18.362	3.0556e-06	26.114	126.487	113.192	59.145	-1.030	143.283	141.971	-0.813	6.625	110.429	151.316	6.510	13.052	13.286	20.581	113.697	20.834	-8191	255	
3337.210	1	1	0	0	0.11017	0.29342	0.2245	0.045459	0.21036	0.24812	0.11537	0.049813	0.22219	0.17117	0.013013	0.15958	0.31752	0.18967	0.070865	0.18745	-2.4083	-1.9375	-2.1646	-2.5875	-2.0938	-2.6104	-2.4625	-2.1604	-2.45	-2.0292	-2.3063	-2.4167	-1.9979	-2.4583	-2.4188	-2.0687	252.428	327.418	207.593	197.540	253.970	66.839	323.638	273.162	56.648	119.921	327.175	241.008	249.578	279.388	56.206	290.548	0.00017518	0.0003253	8.6779e-05	1093.1	1.8977e-06	4.7629e-06	1217.7	222.52	3.3358e-06	2.7861e-06	286.58	80.853	61.708	18.069	2.6046e-06	25.885	0.00026889	0.00028688	7.9933e-05	1073.2	3.2673e-06	3.1188e-06	1199.2	220.35	3.0121e-06	3.2466e-06	285.76	81.069	62.128	18.361	3.069e-06	26.216	121.147	59.547	74.191	-1.300	118.644	138.949	-0.942	6.437	153.828	117.566	6.197	13.246	13.616	20.438	169.026	20.320	-8191	255	
3337.282	1	1	0	0	0.16111	0.13413	0.14664	0.24649	0.12445	0.21562	0.27861	0.086381	0.39858	0.17438	0.17284	0.083943	0.10933	0.067952	0.24777	0.19575	-2.2375	-2	-2.3583	-2.6896	-1.9	-2.4646	-2.4479	-2.0375	-2.5083	-2.0417	-2.0542	-2.5333	-1.9417	-2.3375	-2.3937	-1.9917	56.252	268.501	259.748	13.055	141.074	218.935	216.130	311.678	58.196	239.918	-6.287	132.454	321.170	-9.236	291.200	326.980	0.00015358	0.00015005	6.9278e-05	1093.6	3.2314e-06	2.5873e-06	1215.8	221.98	6.1212e-07	2.239e-06	289.18	80.702	61.821	18.264	4.0644e-06	25.956	0.00025879	0.00028959	8.1471e-05	1074.4	3.2103e-06	3.1346e-06	1199	220.61	3.1347e-06	3.0302e-06	286.81	81.007	62.057	18.41	3.0513e-06	26.143	122.021	38.941	82.151	-0.991	150.910	83.140	-0.841	6.590	221.785	95.941	6.464	12.742	13.074	20.412	123.437	19.753	-8191	255	
3337.403	1	1	0	0	0.38888	0.19327	0.088953	0.11934	0.22583	0.11358	0.35309	0.050384	0.12955	0.048149	0.17967	0.1021	0.23919	0.24014	0.31651	0.21984	-2.2271	-2.0917	-1.9438	-2.7396	-1.8021	-2.2771	-2.6604	-1.8708	-2.6813	-2.1375	-2.0271	-2.6188	-1.9521	-2.2729	-2.4229	-2.0062	127.006	267.640	236.825	304.986	151.787	258.303	250.271	-10.783	5.650	114.071	322.407	263.035	27.713	340.151	309.198	232.922	0.00014316	0.0005085	0.00012156	1097.8	3.218e-06	3.6075e-06	1214.4	221.59	1.1864e-06	4.6171e-06	287.7	80.56	61.848	18.21	3.4153e-06	25.743	0.00026349	0.00028754	7.9446e-05	1074.4	3.2975e-06	3.121e-06	1198.1	220.28	3.1345e-06	3.1515e-06	285.81	81.086	62.163	18.385	3.0709e-06	26.086	126.129	86.851	80.156	-1.175	171.387	161.868	-0.822	6.588	154.078	173.420	5.892	13.429	13.625	20.328	110.706	20.032	-8191	255	
3337.497	1	1	0	0	0.25287	0.052323	0.15262	0.15477	0.10652	0.30234	0.15685	0.055468	0.25643	0.13511	0.25362	0.26345	0.14979	0.27773	0.5722	0.15559	-2.2521	-2.05	-1.9229	-2.9229	-2.0792	-2.3167	-2.6167	-1.8875	-2.5875	-2.2562	-2.0104	-2.7042	-1.8521	-2.1271	-2.5062	-1.7542	226.127	80.456	271.364	319.608	302.215	237.922	299.761	292.725	112.104	324.149	28.547	-0.518	162.669	326.500	7.302	289.921	0.00016712	0.00025264	0.00011645	1097.1	1.452e-06	3.4378e-06	1219.9	220.99	1.9295e-06	3.2198e-06	288.87	80.9	61.557	18.046	3.2848e-06	25.796	0.0002744	0.00028683	8.1588e-05	1074.9	3.0735e-06	3.0334e-06	1198.7	220.13	3.1665e-06	2.9903e-06	286.27	81.074	62.08	18.309	3.1e-06	26.05	121.644	34.660	94.706	-0.972	152.456	154.910	-0.750	6.719	168.314	138.822	6.183	13.162	13.638	20.649	162.955	20.559	-8191	255	
3337.593	1	1	0	0	0.15685	0.14014	0.15433	0.1909	0.16717	0.058023	0.040804	0.18747	0.10807	0.22843	0.21702	0.070227	0.14713	0.075098	0.16141	0.19767	-2.0458	-2.2521	-1.7875	-2.7042	-2.225	-2.0792	-2.7542	-1.9792	-2.2583	-2.4104	-1.875	-2.4771	-1.9667	-2.0458	-2.6604	-2.05	215.904	22.253	182.213	339.517	24.070	91.610	330.246	6.230	-6.734	94.018	327.154	137.562	250.084	45.051	218.150	46.503	0.00015151	0.00033925	9.9334e-05	1092.9	1.6702e-06	3.0503e-06	1212.6	219.54	2.2502e-06	2.92e-06	286.2	80.396	61.47	18.024	1.6718e-06	25.59	0.00025858	0.00028179	7.9464e-05	1073.1	3.245e-06	3.1432e-06	1197.3	219.47	3.1256e-06	3.0705e-06	285.35	81.006	62.111	18.323	3.1019e-06	26.101	124.161	55.421	72.040	-0.852	179.197	148.057	-0.817	6.879	141.651	137.392	6.394	13.282	13.384	21.020	141.131	19.906	-8191	255	
3337.689	1	1	0	0	0.20726	0.094591	0.15252	0.40713	0.11393	0.23298	0.085489	0.1699	0.089376	0.087757	0.12873	0.22568	0.26555	0.12446	0.11415	0.16926	-1.9646	-2.3833	-1.8396	-2.6437	-2.2125	-2.0375	-2.8563	-1.9375	-2.1854	-2.4813	-2.0833	-2.5354	-2.2167	-2.15	-2.5604	-1.8917	270.315	104.904	251.264	325.335	209.883	128.880	322.384	212.881	195.093	17.514	86.117	101.741	320.015	23.483	94.421	41.320	0.0001506	0.00017697	6.7336e-05	1089.3	3.028e-06	3.7903e-06	1212.3	220.8	1.5138e-06	4.4062e-06	286.91	79.627	61.868	18.228	1.9263e-06	25.926	0.00026763	0.0002851	8.0897e-05	1073.4	3.2611e-06	3.2897e-06	1197.9	219.71	3.2417e-06	3.1309e-06	285.64	80.782	61.947	18.382	3.1485e-06	26.115	127.374	77.530	58.641	-0.885	162.260	172.549	-0.765	6.533	158.855	171.839	6.300	12.954	13.713	19.951	111.788	20.212	-8191	255	
3337.810	1	1	0	0	0.15986	0.25479	0.20364	0.53993	0.1721	0.31896	0.4172	0.1259	0.088561	0.1242	0.32864	0.28843	0.15962	0.17821	0.13092	0.10101	-1.7375	-2.4583	-1.9333	-2.5125	-2.2979	-2.1437	-2.5687	-1.8896	-2.2792	-2.6375	-1.9375	-2.5396	-2.4708	-1.8333	-2.5583	-2.1583	55.048	271.379	51.499	335.176	22.110	26.782	266.331	341.072	299.456	324.943	253.979	312.471	60.045	-3.299	109.898	102.381	0.00015297	0.00047506	0.00011051	1088.6	3.0183e-06	3.4445e-06	1208.3	219.11	9.2431e-07	2.8455e-06	286.13	80.569	61.737	18.212	1.2129e-06	25.96	0.00027723	0.00029912	8.2545e-05	1071.8	3.2687e-06	3.2315e-06	1195.7	219.7	3.2996e-06	3.207e-06	285.72	81.007	62.032	18.392	3.1749e-06	26.17	134.265	70.549	74.007	-1.174	151.889	133.237	-0.758	6.682	110.153	137.779	6.126	13.217	13.543	20.564	156.369	19.881	-8191	255	
3337.882	1	1	0	0	0.10964	0.12474	0.35346	0.15052	0.11621	0.1326	0.26865	0.089185	0.077072	0.1547	0.065327	0.28175	0.14118	0.46692	0.18046	0.37918	-1.6125	-2.7208	-1.8625	-2.5021	-2.3229	-1.8667	-2.8042	-2.1188	-1.9375	-2.5083	-1.8771	-2.4229	-2.4083	-1.6708	-2.6417	-1.9542	54.358	165.038	140.766	346.288	332.734	27.228	183.612	202.302	161.809	124.434	174.853	41.272	272.139	324.437	177.902	324.438	0.00014874	0.00028754	5.8179e-05	1089.6	2.8832e-06	3.0782e-06	1210.3	220.42	3.6349e-06	1.8865e-06	285.46	80.449	61.348	18.096	2.7306e-06	25.717	0.000277	0.00029161	8.4379e-05	1071.8	3.2961e-06	3.2044e-06	1195.6	219.69	3.3987e-06	3.219e-06	285.74	80.877	62.04	18.347	3.2606e-06	26.117	117.788	83.257	135.800	-1.047	134.803	155.822	-0.756	6.700	176.470	157.047	6.246	13.089	13.681	20.759	158.377	20.404	-8191	255	
3338.002	1	1	0	0	0.10669	0.18907	0.14774	0.28256	0.26189	0.28286	0.2194	0.14811	0.29006	0.087355	0.10295	0.17539	0.036927	0.052574	0.34716	0.23527	-1.4438	-2.6708	-1.8042	-2.325	-2.4646	-1.7479	-2.575	-2.4458	-1.9146	-2.7479	-2.0438	-2.2375	-2.4729	-2.0563	-2.4792	-2.3708	255.283	246.157	135.628	39.381	43.799	124.326	228.774	199.843	325.090	224.454	294.218	343.372	230.675	271.136	199.895	219.232	0.00013274	0.00021458	7.9759e-05	1087.9	3.5155e-06	3.4957e-06	1210	221.09	2.1458e-06	2.7314e-06	288.72	79.948	61.492	18.1	2.6742e-06	25.653	0.00027413	0.00030681	8.6472e-05	1072.9	3.3487e-06	3.4319e-06	1196.1	219.8	3.28e-06	3.3437e-06	286.06	80.974	61.991	18.416	3.2231e-06	26.158	115.062	114.647	82.909	-1.070	131.230	146.639	-0.681	6.547	126.606	153.060	6.394	13.021	13.454	20.689	148.295	20.797	-8191	255	
3338.098	1	1	0	0	0.088512	0.17628	0.24301	0.29427	0.076244	0.15967	0.066653	0.18238	0.23322	0.039779	0.05706	0.14129	0.28664	0.046633	0.20804	0.21398	-1.4896	-2.7042	-1.9188	-2.2854	-2.5	-1.8333	-2.4437	-2.4313	-1.8729	-2.7208	-2.2812	-2.1646	-2.6688	-2.0083	-2.2938	-2.4208	10.883	298.827	105.980	278.439	106.435	280.465	39.223	324.408	239.642	144.295	33.589	212.996	330.524	195.189	120.687	184.966	0.00012515	0.00033844	6.8096e-05	1092.4	3.0219e-06	4.5907e-07	1208.9	219.88	1.6346e-06	2.2277e-06	288.91	80.019	61.729	18.021	3.0165e-06	25.702	0.00028218	0.00031045	8.4027e-05	1073	3.2857e-06	3.4119e-06	1198.1	219.43	3.3522e-06	3.4283e-06	286.61	80.737	62.141	18.325	3.2792e-06	26.131	128.433	92.055	62.077	-0.812	140.661	67.532	-0.757	6.719	132.570	143.087	5.960	13.286	13.753	20.743	133.043	20.429	-8191	255	
3338.195	1	1	0	0	0.049096	0.21101	0.10685	0.10065	0.26695	0.028184	0.17198	0.059894	0.059495	0.42805	0.13691	0.11684	0.14005	0.11213	0.19064	0.22062	-1.4188	-2.6437	-2.1833	-2.1188	-2.7479	-1.925	-2.4604	-2.5583	-1.9417	-2.6021	-2.3167	-1.9396	-2.5896	-1.85	-2.0812	-2.5729	202.330	151.909	85.716	325.902	10.936	310.570	-1.842	101.338	132.889	36.839	29.516	190.292	189.112	282.250	295.717	7.966	0.00013641	5.2741e-05	3.7089e-05	1089.1	4.0865e-06	5.0029e-06	1213.2	219.12	1.6961e-06	5.1166e-06	286.44	80.226	61.383	18.021	2.7572e-06	25.848	0.0002767	0.0003103	8.5657e-05	1072.6	3.5138e-06	3.3707e-06	1197.6	219.11	3.4328e-06	3.3114e-06	285.46	80.87	62.107	18.347	3.3713e-06	26.208	136.688	60.947	92.291	-0.912	128.598	110.916	-0.974	6.555	147.080	148.218	6.274	13.262	13.531	20.532	130.369	20.194	-8191	255	
3338.291	1	1	0	0	0.014617	0.20639	0.097423	0.1878	0.087799	0.39941	0.12292	0.097106	0.20848	0.19553	0.052615	0.23154	0.23267	0.073666	0.18401	0.18763	-1.4312	-2.4417	-2.3646	-2.0812	-2.4917	-2.0833	-2.2708	-2.4292	-1.8833	-2.4833	-2.3521	-2.1063	-2.6688	-2.075	-2.1396	-2.4583	235.902	230.997	14.884	225.045	59.617	5.918	20.162	295.931	296.678	52.916	277.691	246.726	299.215	33.990	179.257	23.729	0.00011809	0.00020653	5.4276e-05	1086.9	2.5572e-06	2.5428e-06	1210.7	221.08	6.993e-07	3.353e-06	286.43	80.33	61.31	18.06	1.1945e-06	25.869	0.00028471	0.00029774	8.5076e-05	1070.8	3.455e-06	3.4032e-06	1197.2	219.65	3.3611e-06	3.2921e-06	285.78	80.944	62.153	18.381	3.4505e-06	26.255	122.825	84.925	82.578	-1.093	160.089	126.285	-0.804	7.030	197.620	112.051	6.530	12.923	13.462	20.807	95.866	20.409	-8191	255	
3338.410	1	1	0	0	0.17915	0.10017	0.17085	0.13556	0.21158	0.25725	0.2428	0.2444	0.09128	0.1971	0.10602	0.029234	0.096951	0.096237	0.13578	0.12041	-1.2521	-2.3937	-2.1625	-2.1104	-2.4813	-2.2146	-2.2271	-2.5458	-2.025	-2.3937	-2.4083	-1.8292	-2.7167	-2.0187	-1.9	-2.5604	30.049	271.880	65.644	345.349	27.936	156.195	279.299	322.886	135.059	181.464	314.241	284.808	231.369	-0.826	44.242	333.193	0.00013166	0.00030877	0.00011177	1096.1	3.5221e-06	4.9156e-06	1214.7	221.04	1.0559e-06	3.0524e-06	286.81	80.273	61.674	18.02	2.3835e-06	25.872	0.00028267	0.00031616	8.5039e-05	1075.6	3.4883e-06	3.3591e-06	1197.6	220.01	3.3877e-06	3.2393e-06	286.04	80.971	62.097	18.375	3.3866e-06	26.216	130.367	100.885	66.768	-1.125	153.401	135.704	-0.795	6.925	176.620	136.110	6.526	13.279	13.775	21.001	154.142	20.136	-8191	255	
3338.506	1	1	0	0	0.11489	0.08253	0.18127	0.10504	0.064297	0.091674	0.19481	0.1274	0.067045	0.06024	0.35318	0.42231	0.17842	0.18453	0.23189	0.29049	-1.5063	-2.2542	-2.5458	-1.9688	-2.4667	-2.3146	-1.9708	-2.7958	-1.8167	-2.1875	-2.5083	-1.9958	-2.5583	-2.2875	-1.8833	-2.7479	65.589	141.379	25.657	261.004	227.745	91.509	261.772	325.953	280.741	119.006	324.422	-4.441	16.303	269.061	235.476	5.619	0.00011499	0.00024081	0.00012217	1093	4.8125e-06	1.7167e-06	1212	219.31	1.6159e-06	2.222e-06	284.8	79.646	61.459	18.06	4.5591e-06	25.667	0.00028561	0.00032065	8.828e-05	1074.4	3.4683e-06	3.4168e-06	1196	219.81	3.4449e-06	3.4733e-06	285.5	80.863	62.025	18.348	3.4794e-06	26.24	129.148	126.336	51.251	-0.993	134.797	175.636	-0.842	6.933	101.573	122.895	6.731	13.497	13.705	21.157	150.699	19.837	-8191	255	
3338.577	1	1	0	0	0.10134	0.29928	0.20645	0.1798	0.061885	0.28224	0.2065	0.21388	0.12001	0.044681	0.05041	0.16266	0.021717	0.059096	0.10797	0.22798	-1.5562	-2.1437	-2.3	-2.0271	-2.2521	-2.275	-2.0167	-2.6083	-2.1063	-1.9354	-2.6063	-1.6688	-2.2875	-2.1854	-1.75	-2.6417	190.783	73.529	5.197	260.748	223.293	78.571	282.860	21.683	101.384	23.342	139.736	311.481	7.198	-8.367	62.219	91.623	0.0001692	0.00030037	6.0716e-05	1089.4	2.2663e-06	2.4313e-06	1214	220.95	1.7687e-06	1.5207e-06	289.29	80.402	61.75	18.192	5.6394e-07	25.886	0.00028689	0.00032298	8.4508e-05	1075.3	3.504e-06	3.3956e-06	1198	220.19	3.4125e-06	3.409e-06	287.06	81.001	62.121	18.368	3.5844e-06	26.205	130.416	58.638	105.427	-0.903	161.181	171.666	-1.019	6.644	188.826	136.701	6.533	13.014	13.197	21.089	150.449	19.479	-8191	255	
3338.674	1	1	0	0	0.11506	0.10343	0.1244	0.324	0.17179	0.23524	0.30266	0.10574	0.28377	0.15707	0.24553	0.2593	0.095438	0.27892	0.28388	0.14342	-1.8104	-2.0958	-2.5833	-2.1063	-2.2917	-2.3854	-1.9875	-2.5458	-2.0292	-2.15	-2.6937	-1.9792	-2.2458	-2.3875	-1.8125	-2.3646	58.334	209.314	85.005	334.204	253.992	12.188	286.767	280.832	3.443	118.918	148.849	280.605	336.798	289.732	71.435	182.097	0.00013735	0.00031977	9.0728e-05	1094.4	3.6369e-06	2.1022e-06	1217.3	222.55	5.7407e-07	3.4711e-06	288.65	80.886	61.8	18.297	2.4065e-06	25.798	0.00029521	0.00031409	8.5891e-05	1074.6	3.4943e-06	3.2986e-06	1198.5	220.76	3.3494e-06	3.3236e-06	286.76	80.947	62.059	18.427	3.4271e-06	26.119	108.503	91.359	89.372	-1.310	146.228	142.197	-1.271	6.346	137.397	156.941	6.019	12.796	12.896	20.174	106.574	19.514	-8191	255	
3338.794	1	1	0	0	0.20778	0.011952	0.029489	0.13836	0.034969	0.054652	0.042628	0.22082	0.15483	0.080089	0.21947	0.35476	0.094958	0.17634	0.12911	0.028585	-1.8458	-1.9062	-2.5667	-2.0833	-2.2646	-2.3729	-1.9438	-2.5479	-2.3688	-1.9188	-2.6104	-2.0479	-2.0792	-2.5604	-1.8083	-2.4771	106.855	129.951	267.386	2.654	226.688	124.906	305.527	181.160	65.144	194.333	275.004	333.075	219.015	31.490	257.186	232.250	0.00014552	0.00021946	0.0001226	1096.6	2.967e-06	6.2097e-06	1217.3	221.75	2.9368e-06	2.8135e-06	289.06	80.486	61.639	18.017	1.7869e-06	25.937	0.00029452	0.00031898	8.6885e-05	1075.3	3.5366e-06	3.3129e-06	1198.2	220.21	3.5241e-06	3.519e-06	286.08	81.116	62.147	18.357	3.3906e-06	26.198	110.793	105.992	72.374	-1.232	166.190	151.807	-1.225	6.203	148.255	170.563	5.985	12.690	13.143	19.901	158.285	19.663	-8191	255	
3338.890	1	1	0	0	0.36496	0.15115	0.2141	0.16102	0.11689	0.074218	0.16559	0.2602	0.14001	0.35333	0.19496	0.12873	0.096504	0.24925	0.16029	0.23764	-1.9396	-1.8792	-2.5208	-2.1792	-2.0042	-2.4562	-1.875	-2.3021	-2.4979	-1.7604	-2.6167	-2.1333	-2.0333	-2.4417	-1.9271	-2.3979	58.721	14.849	209.710	279.459	298.426	165.104	325.866	328.591	170.797	63.221	271.380	263.711	175.305	165.822	119.756	167.373	0.0001018	0.00035174	6.8573e-05	1094.8	4.2023e-06	2.8967e-06	1216.3	221.83	1.5009e-06	3.1644e-06	288.84	80.806	62.025	18.16	8.5104e-07	25.798	0.00028476	0.00031509	8.7237e-05	1073	3.5582e-06	3.3791e-06	1197.6	220.21	3.5286e-06	3.4772e-06	286.3	81.036	62.232	18.403	3.3763e-06	26.148	111.921	59.506	93.199	-1.427	195.753	98.845	-1.164	6.293	84.885	112.937	5.739	13.063	13.383	20.113	211.987	19.988	-8191	255	
3338.986	1	1	0	0	0.17524	0.21622	0.1481	0.20739	0.19108	0.12767	0.44005	0.10147	0.20337	0.20289	0.31107	0.40446	0.097587	0.11911	0.2563	0.20394	-1.8833	-1.8417	-2.5042	-2.2417	-1.9854	-2.5375	-2.0479	-2.2146	-2.5375	-1.8354	-2.4604	-2.2438	-1.8312	-2.7042	-2.0479	-2.2021	48.665	-9.545	247.618	348.248	329.159	150.265	252.575	-6.278	8.005	332.197	39.779	14.137	222.092	325.678	85.045	193.220	0.00015589	0.00014628	5.0424e-05	1094.1	2.1689e-06	2.4642e-06	1215.5	220.35	2.0158e-06	4.3063e-06	287.03	80.482	61.542	18.195	2.7281e-06	25.769	0.00028375	0.00031432	8.4193e-05	1073.6	3.5359e-06	3.4435e-06	1196.2	219.49	3.4468e-06	3.3743e-06	286.06	80.941	62.082	18.389	3.4811e-06	26.185	119.311	129.143	91.826	-1.344	183.239	161.992	-1.323	6.432	156.242	182.979	6.053	12.863	12.976	20.346	119.461	19.621	-8191	255	
3339.083	1	1	0	0	0.041804	0.17443	0.098777	0.065747	0.26498	0.15396	0.19367	0.13206	0.11566	0.14198	0.19385	0.1765	0.24764	0.22939	0.14647	0.18488	-1.9542	-1.9146	-2.4021	-2.3	-1.8625	-2.6854	-2.0062	-2.0708	-2.5312	-1.7271	-2.4083	-2.2625	-1.9813	-2.475	-1.9438	-1.9146	208.597	287.758	206.623	226.611	113.028	243.355	323.521	336.520	288.610	319.719	258.471	149.833	309.974	64.718	322.818	9.216	0.00014504	0.00036152	0.00011817	1095.7	3.0449e-06	2.6026e-06	1213.4	222.56	5.6225e-07	2.3627e-06	287.32	80.569	61.945	18.096	4.3191e-06	25.706	0.00027942	0.00031338	8.6756e-05	1073.6	3.5488e-06	3.5e-06	1195.3	220.25	3.3734e-06	3.3669e-06	286.01	81.024	62.32	18.387	3.3956e-06	26.088	118.607	31.885	95.418	-1.246	168.407	137.331	-1.033	6.454	244.191	73.719	6.649	13.038	13.363	20.781	135.261	19.995	-8191	255	
3339.179	1	1	0	0	0.090382	0.10793	0.085992	0.10695	0.066132	0.20563	0.31862	0.22247	0.079211	0.094125	0.23327	0.11368	0.119	0.16425	0.04835	0.14667	-2.1646	-1.7271	-2.2521	-2.5083	-1.7792	-2.6688	-2.4	-2.1021	-2.6354	-1.8854	-2.3583	-2.3958	-1.8729	-2.4167	-2.2583	-1.8667	245.513	220.935	330.252	106.606	252.902	143.560	291.973	317.755	143.933	211.894	272.610	69.818	147.485	58.478	98.943	99.374	0.00014034	0.00037644	8.9195e-05	1087.1	2.1844e-06	1.8834e-06	1204.5	219.17	3.2455e-06	4.3264e-06	288.5	80.268	61.572	18.219	3.1521e-06	25.69	0.00027909	0.00031492	8.9497e-05	1071.1	3.4991e-06	3.3569e-06	1192.6	219.34	3.4286e-06	3.4361e-06	286.09	81.048	62.035	18.384	3.3692e-06	26.136	130.370	60.832	78.689	-0.835	156.264	115.016	-0.692	6.590	154.677	131.170	6.363	12.952	13.307	20.856	146.467	19.973	-8191	255	
3339.275	1	1	0	0	0.19205	0.11856	0.19084	0.40523	0.16423	0.10309	0.29351	0.047924	0.15905	0.22572	0.20904	0.25452	0.44226	0.092313	0.29486	0.12042	-2.0771	-1.8979	-2.3104	-2.5667	-1.8438	-2.5479	-2.4604	-1.9	-2.5729	-1.8813	-2.3312	-2.5875	-1.7729	-2.4458	-2.1188	-1.6271	215.875	37.705	192.007	307.494	77.556	186.841	303.944	157.250	93.772	71.132	299.097	275.564	334.969	147.393	184.270	27.344	0.00014596	0.0001612	8.2816e-05	1092.4	1.8731e-06	4.0069e-06	1212.5	222.07	9.0385e-07	2.1906e-06	286.66	80.557	61.485	18.121	1.1809e-06	25.719	0.00028425	0.00031387	8.6484e-05	1073.7	3.5283e-06	3.3909e-06	1195.7	220.13	3.3237e-06	3.3804e-06	285.6	81.093	62.046	18.319	3.4338e-06	26.184	121.948	92.191	44.437	-0.763	167.561	148.976	-0.906	6.388	174.938	165.693	6.258	13.054	13.521	20.349	108.146	20.384	-8191	255	
3339.371	1	1	0	0	0.22778	0.20496	0.27528	0.22215	0.032636	0.13084	0.057944	0.24381	0.11195	0.15694	0.10532	0.040585	0.20514	0.096816	0.061594	0.23999	-2.0542	-2.0938	-2.0062	-2.4896	-1.7729	-2.3	-2.6021	-1.9562	-2.5708	-2.2521	-2.1396	-2.5125	-1.9667	-2.3063	-2.6042	-1.7583	226.256	61.967	176.141	303.624	213.464	31.214	44.297	304.569	240.159	25.253	283.256	12.227	287.955	2.389	2.309	291.275	0.00012819	0.00023373	7.4044e-06	1093	2.4234e-06	2.2112e-06	1217.3	220.49	3.2561e-06	7.7628e-07	288.47	80.812	61.868	18.005	1.2239e-06	25.855	0.00027528	0.00030363	8.4965e-05	1072.7	3.5647e-06	3.4326e-06	1196.2	219.55	3.3393e-06	3.4403e-06	285.98	80.867	62.238	18.317	3.247e-06	26.171	116.704	77.367	333.986	-1.138	179.371	104.068	-1.039	6.688	164.067	237.477	6.129	12.939	13.226	20.751	151.194	19.983	-8191	255	
3339.492	1	1	0	0	0.23488	0.3135	0.085508	0.39925	0.14091	0.18907	0.12821	0.17449	0.2512	0.28926	0.32568	0.25885	0.1458	0.054716	0.067805	0.16374	-2.125	-2.0521	-2	-2.7542	-1.8563	-2.2958	-2.5979	-1.9604	-2.4271	-2.2458	-1.9396	-2.5792	-2.0229	-2.2042	-2.3646	-1.8833	102.134	310.330	206.313	284.138	134.393	0.699	214.570	306.302	168.264	22.337	306.482	268.787	251.618	108.655	316.010	64.494	0.00012611	0.00026885	0.0001115	1094.8	2.5838e-06	2.1499e-06	1211.5	221.54	1.3757e-06	3.1664e-06	288.16	80.667	61.918	18.278	3.556e-06	26.041	0.00028425	0.00030683	8.699e-05	1074.1	3.4566e-06	3.4326e-06	1194.5	219.83	3.2985e-06	3.5342e-06	286.08	80.983	62.144	18.41	3.3501e-06	26.238	123.393	136.034	98.576	-1.149	140.723	137.394	-0.971	6.806	127.086	169.902	6.067	13.032	13.638	20.440	128.794	19.612	-8191	255	
3339.586	1	1	0	0	0.14212	0.049866	0.14703	0.20597	0.053527	0.10989	0.11788	0.19607	0.074537	0.23497	0.010019	0.085692	0.17921	0.008577	0.057251	0.050739	-1.9771	-2.2979	-1.8771	-2.6458	-1.9979	-2.2771	-2.4729	-1.8333	-2.3521	-2.4479	-2.1125	-2.4771	-2.075	-2.1417	-2.5125	-1.8958	83.843	257.763	0.083	243.649	267.969	16.492	298.175	237.586	149.135	204.974	208.325	170.464	54.804	27.771	27.542	306.779	0.00016872	0.00027559	9.1233e-05	1087.9	1.6634e-06	4.2011e-06	1220.1	222.96	1.9797e-06	2.812e-06	287.41	80.56	62.027	18.237	9.6521e-07	25.903	0.00029093	0.00031192	8.7787e-05	1072.5	3.5028e-06	3.4701e-06	1198.2	220.08	3.4276e-06	3.41e-06	285.86	80.987	62.096	18.377	3.5004e-06	26.125	124.419	85.071	104.661	-1.317	171.240	167.734	-0.985	6.429	147.870	178.463	6.327	12.961	13.861	20.529	89.983	20.158	-8191	255	
3339.682	1	1	0	0	0.29318	0.16891	0.35518	0.28906	0.31768	0.2964	0.18334	0.22302	0.052733	0.057183	0.072707	0.065596	0.19134	0.12046	0.29374	0.10079	-1.9271	-2.2188	-1.7854	-2.5208	-2.075	-1.9937	-2.7625	-1.8354	-2.3229	-2.4146	-1.9458	-2.3833	-2.0896	-1.9729	-2.5958	-1.7458	30.500	62.784	157.577	308.719	272.057	159.672	310.912	302.381	63.684	134.037	264.111	282.550	185.547	325.541	93.345	7.349	0.00017163	0.00032326	9.2372e-05	1093.1	2.8969e-06	2.719e-06	1213.8	221.13	1.8768e-06	2.3805e-06	286.04	80.617	61.672	18.17	2.5431e-06	25.775	0.00028335	0.00030674	8.7583e-05	1073.2	3.4731e-06	3.3499e-06	1196.5	219.96	3.4225e-06	3.5083e-06	285.83	81.195	62.069	18.361	3.3868e-06	26.122	118.610	105.477	89.835	-1.073	133.564	164.044	-0.981	6.610	163.764	146.162	5.880	12.905	13.180	20.841	104.708	20.547	-8191	255	
3339.778	1	1	0	0	0.17855	0.20532	0.081533	0.4126	0.21591	0.15873	0.0094735	0.12353	0.30695	0.10461	0.3329	0.1308	0.089608	0.17592	0.12895	0.12807	-1.7625	-2.3875	-1.8896	-2.4771	-2.2979	-2.0396	-2.65	-1.9667	-2.0833	-2.4313	-1.9354	-2.4229	-2.1646	-2.1021	-2.5292	-2.0771	206.072	193.518	325.148	322.994	337.369	194.045	255.304	8.505	235.846	225.017	174.221	273.272	313.775	237.327	73.321	265.446	0.00015529	0.00038713	3.2247e-05	1094.1	1.7771e-06	3.3092e-06	1215.9	221.32	2.4566e-06	2.7425e-06	287.35	79.999	61.512	18.224	2.9979e-06	25.823	0.00028347	0.00031136	8.8268e-05	1074.2	3.4823e-06	3.3911e-06	1197.3	219.82	3.4858e-06	3.3217e-06	286.14	80.931	62.114	18.426	3.4374e-06	26.129	128.625	83.993	201.284	-1.196	187.790	170.100	-0.588	6.653	177.987	128.821	6.025	13.085	13.886	19.992	142.570	19.987	-8191	255	
3339.875	1	1	0	0	0.25804	0.087829	0.12888	0.20644	0.084449	0.10476	0.19832	0.143	0.20259	0.10326	0.11744	0.11047	0.1229	0.1598	0.13931	0.17659	-1.7771	-2.4875	-1.8896	-2.6354	-2.2729	-1.95	-2.6604	-1.9667	-1.8667	-2.6458	-2.0438	-2.4208	-2.3208	-1.7979	-2.4146	-2.2208	110.379	15.049	47.091	249.750	316.464	124.512	213.616	126.092	138.512	300.146	294.376	-4.110	332.951	302.798	175.200	119.620	0.00013194	0.00023225	4.2082e-05	1088	2.9047e-06	2.0299e-06	1212.3	219.88	1.2083e-06	2.2959e-06	286.55	80.444	61.292	18.216	1.0497e-06	25.803	0.00029034	0.00031532	8.8886e-05	1072.4	3.4479e-06	3.4605e-06	1196.7	219.67	3.433e-06	3.3691e-06	286.09	81.089	61.993	18.426	3.4193e-06	26.154	123.798	52.705	52.034	-0.845	143.226	154.487	-0.700	6.963	75.629	132.787	6.071	13.341	13.882	20.675	229.584	20.170	-8191	255	
3339.971	1	1	0	0	0.063523	0.057314	0.062444	0.30735	0.17806	0.19747	0.04655	0.1288	0.20037	0.11115	0.11565	0.084396	0.15768	0.16681	0.14104	0.16609	-1.6542	-2.5187	-1.9458	-2.4083	-2.4333	-1.8604	-2.6188	-2.1688	-2.0271	-2.6292	-1.9104	-2.275	-2.525	-1.8146	-2.4083	-2.2729	101.899	162.586	39.475	-1.110	-8.183	245.417	193.768	-1.895	113.653	265.695	187.061	271.860	15.985	28.312	224.030	109.920	0.00012413	0.00026371	4.3244e-05	1084.2	2.6886e-06	3.1794e-06	1203.3	219.79	2.1533e-06	3.5761e-06	286.63	79.989	61.628	17.916	8.0158e-07	25.768	0.00027972	0.00031492	8.7651e-05	1071.5	3.4708e-06	3.4521e-06	1195.4	219.85	3.5225e-06	3.2642e-06	286.32	81.003	62.126	18.324	3.3205e-06	26.14	116.953	34.971	93.157	-1.028	191.199	162.208	-0.759	6.476	154.126	135.317	6.393	13.236	13.715	20.717	298.187	20.419	-8191	255	
3340.091	1	1	0	0	0.10699	0.092953	0.15638	0.12884	0.43226	0.14055	0.10279	0.2468	0.15026	0.1793	0.14376	0.10669	0.3043	0.080343	0.044753	0.23653	-1.575	-2.4562	-1.8542	-2.1667	-2.5021	-1.8833	-2.4229	-2.2021	-1.8896	-2.375	-2.0875	-2.3187	-2.5604	-1.9229	-2.3146	-2.3333	-9.440	190.762	347.035	321.983	320.904	135.453	314.353	-9.836	105.280	242.413	275.375	273.076	22.561	313.957	333.393	7.701	0.00013934	0.00052041	6.6647e-05	1089	2.657e-06	2.4454e-06	1214.3	221.97	1.9118e-06	4.9619e-06	287.92	80.988	61.286	18.179	3.6207e-06	25.75	0.00028961	0.00031625	8.6274e-05	1072.5	3.4416e-06	3.4765e-06	1196.6	220.05	3.5094e-06	3.3437e-06	285.61	81.021	62.084	18.37	3.4877e-06	26.11	121.120	102.842	75.374	-0.984	161.919	151.880	-1.033	6.667	105.215	124.340	6.031	13.214	13.126	20.174	144.872	20.263	-8191	255	
3340.186	1	1	0	0	0.26108	0.21016	0.24166	0.3157	0.043718	0.10858	0.040162	0.11235	0.15956	0.079963	0.36523	0.16404	0.10969	0.23069	0.19415	0.057782	-1.575	-2.4208	-1.8792	-2.2542	-2.5542	-1.9312	-2.3917	-2.3146	-2.0229	-2.6063	-2.1625	-2.0042	-2.5312	-1.7458	-2.2188	-2.5812	249.032	294.311	324.872	345.552	118.075	165.385	164.102	60.576	24.943	26.420	317.023	308.416	277.815	152.998	265.565	3.132	0.00015373	0.00017114	4.9513e-05	1090.8	3.4625e-06	5.0889e-06	1214.9	221.79	2.79e-06	5.4941e-06	287.82	80.175	61.661	18.145	1.0888e-06	25.84	0.00029598	0.00031583	8.812e-05	1073	3.4794e-06	3.4474e-06	1196.8	220.27	3.5662e-06	3.3862e-06	285.79	80.897	62.143	18.339	3.4226e-06	26.123	122.724	71.733	98.521	-1.096	175.528	140.449	-1.057	6.854	146.837	177.311	6.340	13.104	13.519	20.456	102.090	20.172	-8191	255	
3340.282	1	1	0	0	0.22617	0.074439	0.25851	0.19843	0.12519	0.072285	0.043441	0.36345	0.23225	0.049424	0.18736	0.18734	0.18608	0.088979	0.30722	0.13959	-1.3271	-2.4083	-2.2	-2.0542	-2.5042	-1.9167	-2.3125	-2.2479	-1.8667	-2.5812	-2.2292	-1.9042	-2.4542	-2.0938	-2.0396	-2.6229	104.139	90.498	73.393	-3.680	94.737	22.092	202.624	341.819	49.837	161.119	246.150	291.369	160.712	20.066	272.261	321.516	0.00014225	0.00025942	0.0001051	1089.9	2.0032e-06	1.8739e-06	1213.1	220.63	1.7212e-06	1.166e-06	289.24	79.951	62.035	18.19	3.2785e-06	25.755	0.00029012	0.00031332	8.7422e-05	1072	3.5373e-06	3.5224e-06	1198.2	219.8	3.4484e-06	3.3997e-06	286.43	80.94	62.167	18.364	3.5145e-06	26.169	133.974	56.946	58.126	-1.131	147.032	190.961	-0.839	6.722	153.242	170.088	6.288	12.782	13.309	20.850	172.337	19.667	-8191	255	
3340.378	1	1	0	0	0.32179	0.16989	0.19676	0.46244	0.33529	0.14098	0.33602	0.21158	0.13462	0.18142	0.023033	0.1613	0.22021	0.22254	0.32678	0.17821	-1.4771	-2.6292	-2.2917	-2.1375	-2.5958	-2.1521	-2.3167	-2.5917	-2.0083	-2.5917	-2.3875	-1.9458	-2.6646	-2.1979	-2.2146	-2.625	76.050	181.940	178.542	26.123	327.037	135.157	318.856	-6.973	229.985	225.772	78.153	243.402	257.326	282.001	41.094	186.129	0.00012335	0.00029388	8.5223e-05	1094.1	2.3449e-06	1.8821e-06	1212.8	221.62	3.2206e-06	2.3232e-06	287.24	80.671	61.69	18.124	2.5649e-06	25.733	0.00029126	0.00031636	8.8009e-05	1072.9	3.4663e-06	3.3746e-06	1194.4	219.97	3.5199e-06	3.3801e-06	286.59	81.075	62.105	18.362	3.498e-06	26.141	128.286	77.738	84.076	-0.829	167.430	71.698	-0.905	6.626	152.601	121.732	6.328	13.093	13.296	20.820	135.094	20.289	-8191	255	
3340.474	1	1	0	0	0.19772	0.37068	0.24441	0.30168	0.25722	0.14759	0.16565	0.21141	0.27607	0.12022	0.18297	0.14285	0.14493	0.047186	0.085382	0.07047	-1.5104	-2.0438	-2.4146	-2.1083	-2.4833	-2.1292	-2.1542	-2.6833	-1.7	-2.4167	-2.6167	-1.7313	-2.5896	-2.3042	-2.0833	-2.7208	31.175	325.128	163.412	16.192	109.378	82.862	291.034	231.473	340.033	101.606	286.027	304.532	343.287	138.626	16.694	77.269	0.00017347	0.00037974	6.4191e-05	1089.7	4.4669e-06	1.3175e-06	1206.4	220.64	1.548e-06	3.1068e-06	288.39	80.186	61.318	18.048	2.4961e-06	25.689	0.00029206	0.00032723	8.6601e-05	1070.5	3.486e-06	3.3971e-06	1192.9	219.58	3.4405e-06	3.3381e-06	286.51	80.944	61.954	18.323	3.3882e-06	26.179	123.997	61.136	108.765	-0.839	155.925	177.279	-0.826	7.043	177.777	150.087	6.457	12.905	13.660	20.658	158.559	20.196	-8191	255	
3340.570	1	1	0	0	0.13551	0.12728	0.17168	0.081174	0.13777	0.24046	0.19568	0.14088	0.090993	0.049258	0.18301	0.26983	0.25188	0.24208	0.21733	0.083757	-1.5167	-2.1958	-2.4313	-2.0854	-2.5667	-2.2542	-2.0312	-2.5271	-2.0708	-2.2458	-2.6583	-1.9375	-2.2375	-2.3917	-2.0958	-2.6333	165.861	224.429	300.935	326.955	311.311	323.265	303.650	61.595	237.440	334.706	90.859	263.898	3.483	13.545	220.246	148.760	0.0001572	0.00037673	9.2346e-05	1087.8	3.0221e-06	4.4861e-06	1210.3	221.3	2.8876e-06	3.4214e-06	285.65	79.505	61.71	18.106	1.6766e-06	25.648	0.00027937	0.00031732	8.6694e-05	1071.7	3.397e-06	3.4365e-06	1193.8	220.2	3.3912e-06	3.2407e-06	285.81	80.799	62.174	18.373	3.4362e-06	26.177	120.535	72.278	95.571	-0.949	182.993	148.705	-0.824	6.909	151.502	122.244	6.193	13.328	13.461	20.684	113.003	20.241	-8191	255	
3340.666	1	1	0	0	0.019794	0.070853	0.16277	0.11059	0.092436	0.26146	0.039142	0.21576	0.079387	0.060222	0.20337	0.11482	0.051038	0.14806	0.16084	0.25812	-1.6938	-1.9813	-2.4958	-2.0542	-2.4021	-2.4854	-2.0625	-2.5312	-2.175	-1.9375	-2.5521	-2.0187	-2.3792	-2.4958	-1.8937	-2.6208	45.408	328.167	150.752	268.884	232.932	116.968	252.839	-5.071	338.364	184.349	121.320	342.702	217.001	60.632	118.119	330.380	0.0001687	0.00040325	6.3098e-05	1086.8	2.1278e-06	3.1506e-06	1210.3	219.71	1.1182e-06	3.9819e-06	288.26	80.404	60.944	18.114	2.1633e-06	25.585	0.00028637	0.00031669	8.7163e-05	1071.2	3.4127e-06	3.5365e-06	1193.5	219.27	3.3865e-06	3.4334e-06	286.17	80.819	61.92	18.355	3.3925e-06	26.11	114.399	87.483	89.155	-0.976	193.902	132.594	-0.865	6.812	240.182	142.989	6.564	13.425	13.255	20.928	138.806	20.337	-8191	255	
3340.763	1	1	0	0	0.27333	0.1639	0.16999	0.19544	0.093604	0.18172	0.11224	0.14183	0.036115	0.26082	0.19077	0.0076884	0.27586	0.045731	0.13251	0.036131	-1.6688	-2.1729	-2.65	-2.0646	-2.4292	-2.3812	-1.9792	-2.5812	-2.1896	-1.9937	-2.7687	-2.0812	-2.2271	-2.5021	-1.8438	-2.5333	80.381	238.441	314.983	252.396	34.991	112.386	52.782	68.517	1.955	319.852	267.455	19.892	198.877	226.910	326.294	81.678	0.0001304	0.00026105	8.1615e-05	1089.6	2.8825e-06	1.2651e-06	1208.4	219.62	2.4593e-06	3.6226e-06	287.04	79.7	61.254	18.214	1.921e-06	25.66	0.00028206	0.00031192	8.528e-05	1073.2	3.4062e-06	3.2638e-06	1196.6	219.2	3.3615e-06	3.2182e-06	285.98	80.734	61.9	18.36	3.3043e-06	26.1	125.251	81.949	98.060	-0.912	135.957	193.772	-1.262	6.661	153.070	136.446	6.592	12.983	13.057	21.066	178.108	20.408	-8191	255	
3340.882	1	1	0	0	0.14011	0.20189	0.22188	0.3366	0.12804	0.13209	0.030621	0.16259	0.10841	0.016182	0.17638	0.038493	0.27813	0.17938	0.11429	0.13141	-1.8083	-2.0167	-2.4229	-2.1375	-2.2208	-2.6042	-1.9917	-2.5375	-2.5292	-1.8854	-2.5604	-1.9979	-2.2354	-2.4813	-1.8729	-2.3812	334.930	171.365	308.346	30.782	82.333	99.340	128.433	331.109	120.145	312.837	337.906	47.776	-3.736	252.025	131.138	86.973	0.00012559	0.00037542	5.0748e-05	1085.9	4.9012e-06	3.7984e-06	1210.6	220.8	2.3788e-06	2.4822e-06	287.82	80.589	61.362	18.135	1.6313e-06	25.675	0.00027947	0.00031134	8.3983e-05	1071.8	3.452e-06	3.2917e-06	1195.3	219.58	3.3767e-06	3.4515e-06	286.21	81.094	61.829	18.339	3.2038e-06	26.096	131.091	78.844	78.826	-0.802	152.789	171.129	-0.944	6.575	147.597	151.130	6.558	12.959	13.616	20.742	137.095	19.937	-8191	255	
3340.978	1	1	0	0	0.18374	0.17701	0.048899	0.083297	0.19442	0.14306	0.20448	0.22559	0.45362	0.032156	0.2978	0.27111	0.29322	0.27961	0.13336	0.20489	-1.95	-1.85	-2.6562	-2.3688	-2.0583	-2.4896	-2.0083	-2.5625	-2.4333	-1.9792	-2.5896	-2.1688	-1.8958	-2.5479	-1.9167	-2.1625	226.110	331.291	122.937	290.534	210.509	39.992	282.723	324.837	333.969	268.731	261.214	230.797	238.022	274.332	116.449	198.280	0.00015914	0.00035141	5.0668e-05	1086	2.7263e-06	3.0283e-06	1206.8	219.95	3.624e-06	1.4525e-06	288.77	79.721	61.355	18.214	2.1263e-06	25.825	0.00027861	0.00030783	8.0971e-05	1069.6	3.2522e-06	3.2601e-06	1194.5	219.7	3.2893e-06	3.2315e-06	286.44	80.717	61.932	18.387	3.2694e-06	26.056	127.229	90.759	96.263	-0.707	161.203	133.715	-0.710	6.882	178.720	124.837	6.358	13.127	13.824	20.895	115.542	20.095	-8191	255	
#DATA ENDS
