BOXY.EXE: ISS Imagent and Oximeter Data Acquisition Program Version 0.80
Ascii Record File

#ACQ INFORMATION
2  Detector Channels 
16  External MUX Channels 
1  Auxiliary Channels 
5000  Waveform (CCF) Frequency (Hz)
1  Waveforms Skipped 
30  Waveforms Averaged 
1  Cycles Averaged 
16  Acquisitions per Waveform 
10.0806  Updata Rate (Hz) 

#FILE INFORMATION
TRUE -- External MUX Channel results are PARSED.
FALSE -- AC DC and Phase are NOT grouped.
TRUE -- Companion Program Settings File CREATED.
FALSE -- AC data not excluded
FALSE -- DC data not excluded
FALSE -- Phase data not excluded
FALSE -- Auxillary Chn. data not excluded
Tab delimiters

#CALIBRATION STATE
TRUE -- Waveform Calibration Values APPLIED.


#AUX CALIBRATION VALUES
Val Type	aux-1	

Term	1.0000e+00	
Factor	0.0000e+00	


#WF CALIBRATION VALUES
A = Detector Channel
Val Type	A-AC1	A-AC2	A-AC3	A-AC4	A-AC5	A-AC6	A-AC7	A-AC8	A-AC9	A-AC10	A-AC11	A-AC12	A-AC13	A-AC14	A-AC15	A-AC16	A-DC1	A-DC2	A-DC3	A-DC4	A-DC5	A-DC6	A-DC7	A-DC8	A-DC9	A-DC10	A-DC11	A-DC12	A-DC13	A-DC14	A-DC15	A-DC16	A-Ph1	A-Ph2	A-Ph3	A-Ph4	A-Ph5	A-Ph6	A-Ph7	A-Ph8	A-Ph9	A-Ph10	A-Ph11	A-Ph12	A-Ph13	A-Ph14	A-Ph15	A-Ph16	

Term	0.00000e+00	0.00000e+00	0.00000e+00	0.00000e+00	0.00000e+00	0.00000e+00	0.00000e+00	0.00000e+00	0.00000e+00	0.00000e+00	0.00000e+00	0.00000e+00	0.00000e+00	0.00000e+00	0.00000e+00	0.00000e+00	0.00000e+00	0.00000e+00	0.00000e+00	0.00000e+00	0.00000e+00	0.00000e+00	0.00000e+00	0.00000e+00	0.00000e+00	0.00000e+00	0.00000e+00	0.00000e+00	0.00000e+00	0.00000e+00	0.00000e+00	0.00000e+00	0.00000e+00	0.00000e+00	0.00000e+00	0.00000e+00	0.00000e+00	0.00000e+00	0.00000e+00	0.00000e+00	0.00000e+00	0.00000e+00	0.00000e+00	0.00000e+00	0.00000e+00	0.00000e+00	0.00000e+00	0.00000e+00	
Factor	1.00000e+00	1.00000e+00	1.00000e+00	1.00000e+00	1.00000e+00	1.00000e+00	1.00000e+00	1.00000e+00	1.00000e+00	1.00000e+00	1.00000e+00	1.00000e+00	1.00000e+00	1.00000e+00	1.00000e+00	1.00000e+00	1.00000e+00	1.00000e+00	1.00000e+00	1.00000e+00	1.00000e+00	1.00000e+00	1.00000e+00	1.00000e+00	1.00000e+00	1.00000e+00	1.00000e+00	1.00000e+00	1.00000e+00	1.00000e+00	1.00000e+00	1.00000e+00	X	X	X	X	X	X	X	X	X	X	X	X	X	X	X	X	

B = Detector Channel
Val Type	B-AC1	B-AC2	B-AC3	B-AC4	B-AC5	B-AC6	B-AC7	B-AC8	B-AC9	B-AC10	B-AC11	B-AC12	B-AC13	B-AC14	B-AC15	B-AC16	B-DC1	B-DC2	B-DC3	B-DC4	B-DC5	B-DC6	B-DC7	B-DC8	B-DC9	B-DC10	B-DC11	B-DC12	B-DC13	B-DC14	B-DC15	B-DC16	B-Ph1	B-Ph2	B-Ph3	B-Ph4	B-Ph5	B-Ph6	B-Ph7	B-Ph8	B-Ph9	B-Ph10	B-Ph11	B-Ph12	B-Ph13	B-Ph14	B-Ph15	B-Ph16	

Term	0.00000e+00	0.00000e+00	0.00000e+00	0.00000e+00	0.00000e+00	0.00000e+00	0.00000e+00	0.00000e+00	0.00000e+00	0.00000e+00	0.00000e+00	0.00000e+00	0.00000e+00	0.00000e+00	0.00000e+00	0.00000e+00	0.00000e+00	0.00000e+00	0.00000e+00	0.00000e+00	0.00000e+00	0.00000e+00	0.00000e+00	0.00000e+00	0.00000e+00	0.00000e+00	0.00000e+00	0.00000e+00	0.00000e+00	0.00000e+00	0.00000e+00	0.00000e+00	-1.41723e+02	-1.33427e+02	-1.27657e+02	-1.82643e+02	-7.29312e+01	-5.90420e+01	-1.56437e+02	-1.62015e+02	-7.50620e+01	-6.54826e+01	-1.75898e+02	-1.69904e+02	-1.79084e+02	-1.76332e+02	-7.30813e+01	-1.49000e+02	
Factor	2.19948e-05	1.76772e-04	4.22463e-05	1.51783e-01	1.32281e-06	2.01978e-06	1.85373e-01	5.47419e-02	1.24077e-06	1.63382e-06	9.98567e-02	3.00697e-02	2.75195e-02	9.87689e-03	1.39127e-06	1.39770e-02	7.96078e-06	1.06646e-05	2.96347e-06	7.91364e-02	1.10375e-07	1.18425e-07	9.07823e-02	2.86722e-02	1.12129e-07	1.17383e-07	5.04514e-02	1.53297e-02	1.45971e-02	5.20825e-03	1.14524e-07	7.14204e-03	X	X	X	X	X	X	X	X	X	X	X	X	X	X	X	X	



#DISTANCE SETTINGS
A = Detector Channel
A-1	A-2	A-3	A-4	A-5	A-6	A-7	A-8	A-9	A-10	A-11	A-12	A-13	A-14	A-15	A-16	

2.5000e+00	3.0000e+00	2.5000e+00	3.0000e+00	2.0000e+00	3.0000e+00	1.5000e+00	3.0000e+00	3.0000e+00	3.0000e+00	3.0000e+00	3.0000e+00	3.0000e+00	3.0000e+00	1.5000e+00	3.0000e+00	

B = Detector Channel
B-1	B-2	B-3	B-4	B-5	B-6	B-7	B-8	B-9	B-10	B-11	B-12	B-13	B-14	B-15	B-16	

1.0000e+01	1.0000e+01	1.0000e+01	1.4400e+00	1.0000e+01	1.0000e+01	1.5100e+00	1.9400e+00	1.0000e+01	1.0000e+01	1.9900e+00	2.4900e+00	2.4100e+00	2.9000e+00	1.0000e+01	2.9800e+00	




#DATA BEGINS
time	group	step	mark	flag	A-AC1	A-AC2	A-AC3	A-AC4	A-AC5	A-AC6	A-AC7	A-AC8	A-AC9	A-AC10	A-AC11	A-AC12	A-AC13	A-AC14	A-AC15	A-AC16	A-DC1	A-DC2	A-DC3	A-DC4	A-DC5	A-DC6	A-DC7	A-DC8	A-DC9	A-DC10	A-DC11	A-DC12	A-DC13	A-DC14	A-DC15	A-DC16	A-Ph1	A-Ph2	A-Ph3	A-Ph4	A-Ph5	A-Ph6	A-Ph7	A-Ph8	A-Ph9	A-Ph10	A-Ph11	A-Ph12	A-Ph13	A-Ph14	A-Ph15	A-Ph16	B-AC1	B-AC2	B-AC3	B-AC4	B-AC5	B-AC6	B-AC7	B-AC8	B-AC9	B-AC10	B-AC11	B-AC12	B-AC13	B-AC14	B-AC15	B-AC16	B-DC1	B-DC2	B-DC3	B-DC4	B-DC5	B-DC6	B-DC7	B-DC8	B-DC9	B-DC10	B-DC11	B-DC12	B-DC13	B-DC14	B-DC15	B-DC16	B-Ph1	B-Ph2	B-Ph3	B-Ph4	B-Ph5	B-Ph6	B-Ph7	B-Ph8	B-Ph9	B-Ph10	B-Ph11	B-Ph12	B-Ph13	B-Ph14	B-Ph15	B-Ph16	aux-1	digaux	

4264.312	1	1	0	256	0.15643	0.08881	0.076905	0.061835	0.017671	0.30532	0.040168	0.046762	0.15677	0.041974	0.1923	0.015984	0.2101	0.11215	0.21064	0.12599	-2.3375	-2.2812	-2.4729	-2.9813	-2.1958	-2.8979	-2.8333	-2.4688	-2.8042	-2.4083	-2.5625	-3.1146	-2.2729	-2.875	-2.8625	-2.3292	-66.600	144.001	198.866	245.144	214.980	115.279	4.555	172.033	176.553	266.827	232.601	96.795	268.318	233.743	-26.818	267.548	0.00013812	0.00013798	6.0266e-05	1124.3	4.3607e-06	4.9417e-06	928.48	304.06	3.0933e-06	4.6028e-06	269.46	80.177	76.92	26.61	4.1101e-06	33.732	0.0018394	0.0023011	0.00062473	1168.3	2.2157e-05	2.3121e-05	973.74	318.72	2.0833e-05	2.0364e-05	282.84	86.072	82.448	28.087	1.5135e-05	35.695	201.186	240.322	-42.764	-75.180	38.096	75.477	-75.835	-71.489	-15.019	47.410	-72.574	-68.330	-66.322	-61.693	41.054	-63.533	-8191	255	
4264.384	1	1	0	0	0.098224	0.10201	0.27313	0.3312	0.089666	0.30462	0.16108	0.096669	0.1044	0.09682	0.080925	0.097787	0.26389	0.099202	0.34182	0.054501	-2.5354	-2.4792	-2.6063	-3.1125	-2.3146	-2.6979	-3.0583	-2.3187	-2.8979	-2.4437	-2.5354	-3.0875	-2.3625	-2.625	-2.9062	-2.3354	223.462	118.110	9.798	28.899	167.772	62.550	99.507	-87.152	-58.769	34.496	195.437	37.779	231.484	-79.691	3.435	-20.400	0.00011164	0.00068024	0.0001539	1145.4	1.9984e-06	3.5656e-06	948.57	320.72	1.652e-06	3.1747e-06	281.14	89.113	86.574	30.495	2.9644e-06	38.788	0.0010178	0.0012572	0.00034396	1184.4	1.2828e-05	1.3265e-05	985.36	334.18	1.1419e-05	1.1189e-05	293.88	93.567	90.844	32.152	1.0833e-05	40.746	163.896	-31.356	-15.692	-75.161	53.628	93.487	-75.676	-71.373	17.315	85.776	-72.961	-68.247	-66.557	-61.834	85.559	-63.501	-8191	255	
4264.480	1	1	0	0	0.1383	0.10103	0.17448	0.16857	0.08049	0.11615	0.14646	0.061709	0.10127	0.19289	0.13288	0.053863	0.18881	0.10888	0.2544	0.11287	-2.5083	-2.5812	-2.3708	-3.1083	-2.3229	-2.6104	-2.9458	-2.45	-2.9333	-2.6521	-2.3333	-3.1458	-2.3521	-2.6021	-2.8771	-2.2687	-45.489	134.909	127.388	-39.679	-34.301	133.570	216.204	170.997	200.296	105.560	19.800	63.181	257.894	261.654	34.938	182.244	0.00016953	8.0496e-05	8.7713e-05	1176.9	3.4453e-07	2.0821e-06	969.02	346.02	1.7905e-06	5.3438e-06	299.22	97.257	96.632	35.411	1.5646e-06	43.901	0.00081089	0.00096439	0.00026349	1214.1	8.7043e-06	8.5441e-06	1002	358.92	6.5588e-06	6.447e-06	309.31	101.17	100.72	36.859	4.4781e-06	45.524	196.215	53.508	53.440	-75.070	-40.814	171.621	-75.832	-71.397	-70.563	89.442	-72.662	-68.509	-66.987	-61.953	52.332	-63.740	-8191	255	
4264.599	1	1	0	0	0.09904	0.24034	0.075392	0.17479	0.22071	0.066363	0.18435	0.1584	0.091695	0.051898	0.17592	0.22374	0.070128	0.14878	0.16225	0.18432	-2.525	-2.65	-2.2875	-3.1854	-2.4521	-2.5333	-2.9313	-2.5	-2.7313	-2.8271	-2.3937	-3.0187	-2.5438	-2.4562	-2.9813	-2.4458	61.510	115.512	171.443	178.305	-7.210	163.442	179.574	192.367	77.221	-70.869	190.762	255.586	-89.259	205.710	193.091	218.298	0.00016052	0.0007855	8.306e-05	1185.9	1.9514e-06	4.4844e-06	978.89	362.71	2.8388e-06	4.961e-06	305.55	101.52	102.08	37.857	1.8944e-06	45.977	0.00033619	0.00031465	7.9736e-05	1216.9	3.0533e-06	2.8711e-06	1008.1	372.25	2.9196e-06	2.6851e-06	316.08	105.61	106.53	39.362	2.6362e-06	47.683	175.842	3.737	-1.288	-75.207	21.063	112.362	-75.779	-71.303	5.496	58.758	-72.962	-68.421	-66.770	-62.998	78.077	-64.334	-8191	255	
4264.695	1	1	0	0	0.0453	0.059635	0.15274	0.30023	0.24053	0.078458	0.13189	0.079559	0.12148	0.085901	0.1518	0.31327	0.22055	0.019608	0.09526	0.084966	-2.1208	-2.8396	-2.2375	-3.1354	-2.525	-2.5375	-3.1937	-2.6354	-2.425	-2.6521	-2.3396	-2.8229	-2.7812	-2.3875	-3.0938	-2.3229	64.859	248.390	113.876	231.743	92.580	118.994	84.636	166.647	247.358	246.380	210.291	35.573	265.609	246.679	-56.127	151.819	0.00014397	0.00046408	0.00011022	1187.9	1.4726e-06	5.6349e-06	977.08	363.23	1.496e-07	4.8368e-06	308.69	103.19	105.63	39.18	3.0343e-06	47.61	0.0002545	0.0002232	6.2535e-05	1224.6	2.4931e-06	2.331e-06	1007.4	372.77	2.3117e-06	1.9882e-06	317.19	107.24	109.3	40.732	1.939e-06	49.276	175.982	-1.228	13.414	-75.018	31.380	71.404	-76.161	-71.389	-24.775	60.478	-72.461	-68.826	-67.019	-62.532	60.407	-64.387	-8191	255	
4264.791	1	1	0	0	0.3636	0.30757	0.15576	0.22823	0.24522	0.19004	0.32246	0.12293	0.12541	0.16623	0.045209	0.15908	0.19616	0.346	0.24375	0.086663	-2.0917	-2.7917	-2.3375	-3.1083	-2.65	-2.3479	-3.3333	-2.8083	-2.8396	-3.1042	-2.5	-3.0104	-2.9896	-2.5646	-3.2292	-2.7188	128.144	-37.590	182.078	-17.922	51.752	-70.518	203.312	227.375	225.608	259.746	180.032	160.687	185.703	207.495	216.810	261.444	0.00015209	0.00044647	9.3812e-05	1194.7	3.3167e-06	5.805e-06	972	362.68	1.871e-06	4.988e-06	310.7	105.55	106.99	40.132	2.5845e-06	48.465	0.00021116	0.00016026	4.536e-05	1223.3	1.8138e-06	1.8459e-06	1004.4	374.43	2.0926e-06	1.7348e-06	320.15	109.7	111.08	41.587	1.7766e-06	50.166	167.204	-0.708	31.112	-75.271	50.454	58.196	-75.613	-71.151	54.074	76.870	-72.824	-68.585	-67.138	-62.834	62.769	-64.332	-8191	255	
4264.887	1	1	0	0	0.026479	0.078714	0.037336	0.41751	0.137	0.18568	0.32765	0.050634	0.093862	0.14628	0.050343	0.32265	0.034218	0.068526	0.16736	0.063089	-2.1396	-2.9938	-2.5104	-3.0229	-2.9729	-2.4708	-3.2979	-2.7938	-2.4792	-3.0354	-2.5458	-2.9792	-3.0604	-2.5083	-3.0542	-2.7042	36.535	30.105	55.901	246.760	18.180	-61.723	167.527	226.973	169.862	-28.271	-12.496	245.066	211.524	269.851	138.271	57.931	0.00017063	0.00048783	0.00010316	1194.7	2.5282e-06	2.8873e-06	979.16	365.83	2.1186e-06	3.6141e-06	311.44	105.07	107.21	40.119	3.6579e-06	48.127	0.00021784	0.00015784	4.586e-05	1229.5	2.0785e-06	1.8556e-06	1013.5	376.83	2.1267e-06	1.8441e-06	320.3	109.39	111.58	41.615	2.0342e-06	50.024	171.692	-18.168	17.895	-75.424	38.626	78.549	-75.927	-71.052	62.059	81.672	-72.382	-68.607	-66.830	-62.685	37.180	-64.194	-8191	255	
4264.983	1	1	0	0	0.15355	0.18747	0.38385	0.16264	0.085103	0.10476	0.12249	0.21373	0.16343	0.15093	0.05269	0.19749	0.51348	0.19139	0.1253	0.093996	-2.35	-3.0792	-2.5563	-3.0396	-3.0146	-2.4646	-3.3646	-2.8271	-2.5042	-3.1979	-2.75	-2.9375	-2.9979	-2.6708	-3.1437	-3.0438	-52.981	240.575	112.842	146.576	93.509	9.312	249.407	194.962	189.984	114.754	-7.683	49.614	224.699	40.000	192.971	-69.181	0.0001944	0.00074275	0.00012745	1188.2	2.8947e-06	4.5486e-06	968.63	360.35	2.2751e-06	3.0057e-06	308.09	103.9	105.14	39.502	2.1555e-06	47.573	0.00021917	0.00016217	4.836e-05	1217.6	1.9566e-06	1.8124e-06	998.76	371.09	2.0557e-06	1.6649e-06	315.65	107.59	109.2	40.972	1.8806e-06	49.319	168.508	-1.497	19.210	-75.242	48.009	49.202	-75.943	-71.184	50.296	96.604	-72.851	-68.769	-67.132	-62.635	28.084	-64.090	-8191	255	
4265.079	1	1	0	0	0.19056	0.13852	0.29532	0.25829	0.061806	0.23087	0.059093	0.31429	0.16948	0.20093	0.06248	0.09827	0.14155	0.21156	0.14364	0.23014	-2.0083	-3.1417	-2.525	-2.8042	-3.0729	-2.5604	-3.1125	-3.075	-2.5354	-3.2646	-2.8521	-2.6813	-3.1208	-2.5208	-2.9062	-3.1854	221.063	243.313	41.106	230.660	240.885	170.083	213.678	222.617	55.123	-75.033	-9.582	-66.956	213.589	261.749	72.717	238.543	0.00018241	0.00042506	0.00012022	1176.3	3.3693e-06	5.1867e-06	965.01	357.81	1.9185e-06	3.6214e-06	305.69	103.02	104.57	39.275	2.5956e-06	47.568	0.00021487	0.00014757	4.3285e-05	1210	1.8274e-06	1.7705e-06	991.53	368.85	1.9155e-06	1.5986e-06	314.83	107.35	108.65	40.786	1.7825e-06	49.347	161.287	-1.926	-30.011	-75.416	67.008	64.915	-75.977	-71.280	7.005	66.900	-72.848	-68.807	-67.107	-62.421	77.148	-64.328	-8191	255	
4265.175	1	1	0	0	0.10604	0.18838	0.15464	0.32444	0.013657	0.16705	0.10239	0.22907	0.19431	0.20727	0.27552	0.031682	0.3736	0.15336	0.24676	0.26196	-2.05	-3.1417	-2.6208	-2.8312	-3.0771	-2.5458	-3.1896	-3.2146	-2.7	-3.1646	-2.9188	-2.5438	-3.3125	-2.6396	-2.9146	-3.0458	144.265	-48.266	128.756	228.640	145.546	-29.855	261.948	190.284	8.186	104.153	182.152	259.468	264.805	186.966	236.627	175.674	0.00016639	0.00061627	0.00010469	1185	3.2415e-06	5.8315e-06	965.73	358	1.0584e-06	3.3711e-06	306.21	102.32	105.19	39.589	1.93e-06	48.174	0.00021138	0.00015699	4.2841e-05	1212.8	1.9658e-06	1.859e-06	996.19	368.57	1.9978e-06	1.684e-06	315.87	107.01	108.79	40.949	1.8904e-06	49.7	182.654	-2.570	3.856	-75.472	64.349	52.330	-75.767	-71.271	-11.980	107.407	-72.517	-68.684	-67.001	-62.954	44.863	-64.275	-8191	255	
4265.296	1	1	0	0	0.24937	0.10162	0.10725	0.25448	0.064537	0.24198	0.13828	0.26533	0.12052	0.20765	0.093522	0.032771	0.31496	0.079482	0.22914	0.26837	-2.1354	-2.9396	-2.8396	-2.7146	-3.1083	-2.6708	-2.9896	-3.3208	-2.4771	-2.975	-2.9125	-2.7	-3.2417	-2.875	-2.6854	-3.1167	134.396	117.479	-19.594	266.030	218.270	6.409	234.929	146.343	-26.103	68.465	144.574	262.529	-56.739	252.326	158.339	264.607	0.00017987	0.00057855	0.0001344	1185.3	2.9925e-06	5.2191e-06	972.42	361.68	1.6537e-06	3.9672e-06	310.44	103.18	106.91	40.126	3.0634e-06	48.64	0.00021073	0.00015677	4.6675e-05	1218.7	1.9316e-06	1.7515e-06	1000.7	373.63	1.9814e-06	1.7967e-06	318.59	107.94	111.09	41.652	1.903e-06	50.385	177.661	-14.162	10.343	-75.066	53.408	46.319	-76.055	-71.502	56.124	79.464	-72.730	-69.052	-67.240	-62.641	41.452	-64.702	-8191	255	
4265.392	1	1	0	0	0.046738	0.014533	0.078852	0.12311	0.21139	0.29387	0.13646	0.042325	0.18707	0.12169	0.016572	0.34502	0.13333	0.049462	0.13813	0.02394	-2.1104	-3.1208	-2.7292	-2.6729	-3.1604	-2.7292	-2.7667	-3.2354	-2.5396	-3.1396	-3.0146	-2.5375	-3.2875	-2.7208	-2.6771	-3.3333	238.436	57.772	180.587	214.505	242.007	168.377	250.740	62.602	146.697	207.945	54.547	179.025	242.286	23.803	19.514	235.646	0.00018162	0.00033163	0.00015537	1190.7	3.2729e-06	7.0355e-06	971.85	362.18	1.7091e-06	3.6739e-06	308.81	104.15	106.59	40.564	3.4976e-06	48.761	0.00021426	0.00015966	4.4946e-05	1221.2	1.8722e-06	1.7665e-06	1002.2	374.38	1.9099e-06	1.6355e-06	317.34	108.26	110.91	41.99	1.8479e-06	50.489	170.852	-20.114	-2.351	-75.359	21.724	69.584	-76.059	-71.304	0.627	46.086	-72.990	-68.752	-67.142	-62.501	35.261	-64.018	-8191	255	
4265.488	1	1	0	0	0.034848	0.18141	0.045702	0.47765	0.10554	0.12066	0.10623	0.1777	0.055196	0.25839	0.22947	0.2374	0.17251	0.30862	0.18505	0.31885	-2.0521	-2.7333	-2.9354	-2.7979	-3.1917	-2.8937	-2.8396	-3.2521	-2.4458	-3.0187	-3.2083	-2.4688	-3.0917	-2.9062	-2.7333	-3.2458	207.012	175.045	72.377	260.079	222.667	94.327	115.036	211.517	137.531	-31.730	-72.803	137.625	192.317	206.202	-16.275	233.571	0.00019764	0.00051512	0.00011013	1176.8	2.4144e-06	7.5349e-06	956.32	360.35	1.5972e-06	6.0249e-06	307.49	103.26	105.79	40.131	3.0701e-06	48.548	0.00021376	0.00014277	4.0544e-05	1210.3	1.8598e-06	1.6345e-06	989.36	370.63	1.8473e-06	1.7143e-06	314.98	107.62	110	41.633	1.7381e-06	50.444	177.239	-15.097	0.583	-75.394	38.749	63.641	-75.734	-71.397	-0.004	60.798	-72.649	-69.218	-67.099	-62.530	21.771	-64.377	-8191	255	
4265.607	1	1	0	0	0.0096846	0.14893	0.30766	0.29518	0.14373	0.15557	0.22878	0.093922	0.16417	0.37308	0.15702	0.047383	0.16935	0.030074	0.032666	0.11334	-2.0729	-2.7562	-3.1312	-2.7062	-2.9833	-2.8021	-2.8187	-3.275	-2.4688	-2.6937	-3.2625	-2.5812	-2.9167	-2.9313	-2.4833	-3.1792	-43.094	229.010	57.033	224.345	-57.238	-10.180	181.553	157.082	-66.621	103.636	220.981	-15.501	129.765	111.579	115.430	118.730	0.00017952	0.00054617	0.00012442	1173.9	4.5725e-07	6.4958e-06	953.05	356.63	2.4358e-06	4.4932e-06	303.89	103.27	105.41	39.746	2.2695e-06	48.736	0.00019907	0.00016241	3.9476e-05	1208	1.7823e-06	1.6172e-06	987.91	369.38	1.8013e-06	1.6162e-06	314.98	107.39	109.42	41.391	1.8336e-06	50.398	172.273	-5.276	-13.533	-75.413	67.395	76.679	-76.168	-71.407	37.731	57.481	-72.162	-68.930	-67.439	-62.688	19.705	-64.569	-8191	255	
4265.679	1	1	0	0	0.088951	0.29163	0.016027	0.23495	0.2131	0.10517	0.073714	0.16903	0.088611	0.24612	0.096477	0.14931	0.19603	0.15153	0.11462	0.11817	-2.1667	-2.6604	-3.1813	-2.5917	-2.8021	-3.0354	-2.6292	-3.2167	-2.75	-2.5354	-3.2396	-2.4958	-2.8604	-3.1604	-2.4938	-3.3042	235.653	30.888	187.201	229.100	51.812	-11.662	124.955	-13.993	104.607	130.468	207.203	242.611	183.799	262.103	-37.612	224.439	0.00020824	0.00046244	7.5119e-05	1176.6	3.5906e-06	7.6418e-06	965.35	360	1.7685e-06	3.392e-06	306.75	103.22	105.28	39.963	3.8065e-06	48.461	0.00020821	0.00015801	3.9056e-05	1209.7	1.9159e-06	1.5694e-06	992.71	370.77	2.0069e-06	1.6715e-06	315.39	107.22	109.1	41.355	1.8877e-06	50.378	185.313	-4.064	-2.088	-75.575	58.311	67.623	-75.945	-71.343	54.145	65.061	-72.434	-68.753	-67.397	-62.254	54.775	-64.257	-8191	255	
4265.775	1	1	0	0	0.10237	0.25997	0.277	0.24939	0.094091	0.065961	0.29907	0.5039	0.18556	0.10135	0.32643	0.11633	0.025782	0.14274	0.091909	0.13961	-2.5167	-2.6292	-3.0708	-2.8167	-2.7917	-3.2021	-2.7562	-3.2271	-2.8729	-2.6042	-3.1375	-2.6063	-2.7146	-3.1896	-2.5312	-3.1417	179.794	56.511	25.279	221.846	-22.517	170.659	233.127	262.708	223.122	2.399	180.784	-68.579	213.648	-16.672	264.184	214.404	0.0001784	0.00063291	0.00013498	1173.3	2.8075e-06	4.4023e-06	960.54	359.47	2.4666e-06	6.1132e-06	306.64	103.49	105.64	40.117	3.426e-06	48.948	0.00021079	0.00014864	4.2495e-05	1205.1	1.8764e-06	1.7347e-06	989.81	370.32	1.9366e-06	1.6754e-06	315.73	107.53	109.49	41.651	1.8706e-06	50.693	179.748	-33.316	6.132	-75.358	54.467	72.156	-76.082	-71.322	-10.257	64.111	-72.990	-68.487	-66.781	-62.575	53.468	-64.426	-8191	255	
4265.896	1	1	0	0	0.21242	0.071214	0.15212	0.30406	0.079985	0.1509	0.20291	0.10476	0.31856	0.22042	0.25733	0.11874	0.090115	0.10825	0.30762	0.063265	-2.4542	-2.4625	-3.1375	-2.7896	-2.7271	-3.15	-2.4583	-3.0208	-2.8375	-2.4521	-3.175	-2.7771	-2.8542	-3.1979	-2.4479	-2.8563	-28.580	261.220	196.837	231.045	83.977	199.309	-31.868	183.236	209.237	3.390	212.548	264.525	186.920	227.233	145.502	163.350	0.00018241	0.00063872	7.3776e-05	1182.9	2.3792e-06	6.3442e-06	961.65	357.33	2.6092e-06	4.4239e-06	305.42	101.86	104.4	39.764	2.5316e-06	48.606	0.00019948	0.00015441	4.268e-05	1213.1	1.9251e-06	1.616e-06	991.44	369.87	2.0022e-06	1.7517e-06	314.18	106.59	108.57	41.335	1.7789e-06	50.63	175.162	-16.714	-16.573	-75.252	37.001	79.643	-75.901	-71.559	32.029	49.539	-72.834	-68.621	-67.013	-62.752	64.797	-63.983	-8191	255	
4265.992	1	1	0	0	0.25396	0.26231	0.24867	0.23921	0.20525	0.30327	0.20209	0.064389	0.18584	0.22195	0.098175	0.022287	0.11988	0.29443	0.084163	0.24344	-2.7229	-2.4604	-3.075	-2.9417	-2.6562	-3.0187	-2.675	-3.0458	-3.1771	-2.5687	-3.1729	-2.8688	-2.6646	-3.2604	-2.5854	-3.0458	126.438	71.384	260.538	254.251	100.575	96.210	57.090	194.164	96.938	174.785	247.796	-35.640	267.786	-35.402	-5.159	162.257	0.00018058	0.00047019	0.00012248	1171.5	4.2221e-06	6.9133e-06	957.59	358.86	1.7211e-06	2.2168e-06	305.02	102.03	104.27	39.707	4.385e-06	48.752	0.00020562	0.00015384	4.0655e-05	1204.9	1.9454e-06	1.638e-06	988.04	369.27	1.7702e-06	1.6407e-06	313.53	106.35	108.08	41.235	1.8245e-06	50.472	177.231	16.234	0.257	-75.108	56.881	80.700	-75.859	-71.169	34.627	72.667	-72.348	-68.937	-67.214	-62.544	50.891	-64.638	-8191	255	
4266.088	1	1	0	0	0.25183	0.15121	0.21488	0.13137	0.17988	0.098078	0.026375	0.14129	0.155	0.1886	0.13321	0.24401	0.16492	0.44847	0.22689	0.19214	-2.7333	-2.2146	-3.0646	-3.1312	-2.6688	-3.1063	-2.7771	-3.0271	-3.0896	-2.5604	-2.9958	-2.9583	-2.4896	-3.1375	-2.7042	-2.7	204.292	194.745	-33.026	189.220	173.736	143.317	208.268	-49.802	-22.797	1.745	-70.788	-76.640	245.451	244.849	-25.712	100.906	0.00016885	0.00033519	0.00014321	1175.5	2.279e-06	5.4793e-06	956.84	358.2	3.5098e-07	3.9301e-06	304.41	101.81	103.84	39.523	3.5179e-06	48.063	0.00020328	0.00014953	4.2538e-05	1207.3	1.9387e-06	1.5903e-06	991.56	368.78	1.9321e-06	1.6761e-06	313.45	106.06	108.1	40.919	1.7455e-06	50.058	173.414	10.352	-5.962	-75.512	34.105	73.397	-75.899	-71.346	88.289	68.492	-72.934	-68.546	-67.175	-62.642	64.944	-64.086	-8191	255	
4266.184	1	1	0	0	0.31357	0.21249	0.28256	0.33697	0.046903	0.13421	0.18906	0.094855	0.056423	0.089005	0.28385	0.23666	0.187	0.062016	0.089804	0.16797	-2.7708	-2.4708	-2.8979	-3.0917	-2.5104	-3.0187	-2.8479	-2.6854	-3.1167	-2.4208	-2.9292	-3.1604	-2.2917	-3.1188	-2.6667	-2.6458	97.828	-76.336	45.387	166.992	176.739	48.569	230.236	194.160	28.262	-1.280	184.601	189.145	16.260	-48.553	199.204	92.525	0.00015412	0.00051616	0.00013885	1181.5	2.4929e-06	4.6381e-06	953.77	359.2	1.2252e-06	4.5536e-06	304.57	98.916	100.15	37.739	2.9352e-06	46.639	0.00020086	0.00015415	4.4619e-05	1211.9	1.8543e-06	1.6604e-06	988.41	369.37	1.8576e-06	1.647e-06	313.38	103.35	104.21	38.999	1.7422e-06	48.083	175.931	7.894	-12.284	-75.045	49.121	80.527	-76.034	-71.692	23.338	46.463	-72.809	-68.717	-67.047	-62.607	27.754	-64.255	-8191	255	
4266.280	1	1	0	0	0.3306	0.15515	0.037569	0.21152	0.12039	0.056153	0.072979	0.06066	0.27157	0.213	0.15547	0.26289	0.23935	0.083725	0.29867	0.10519	-2.7604	-2.3792	-2.8271	-3.2646	-2.5875	-3.2625	-2.7833	-2.7938	-3.1375	-2.425	-2.8958	-3.1104	-2.5021	-3.0354	-2.6917	-2.7479	82.612	26.521	52.210	156.952	218.027	241.270	-76.153	251.663	150.121	184.337	252.432	-5.645	196.319	239.238	-29.865	51.551	0.00015825	0.00043334	7.4206e-05	1179.6	2.9667e-06	6.1174e-06	965.6	357.89	9.2166e-07	3.6642e-06	303.26	98.154	98.99	37.143	2.3833e-06	45.765	0.00020617	0.00015728	4.2334e-05	1210.9	1.9486e-06	1.6715e-06	994.1	368.71	1.9277e-06	1.7906e-06	311.55	102.32	103.19	38.353	1.9316e-06	47.458	179.828	-0.901	4.277	-75.220	34.005	61.659	-76.204	-71.595	51.586	72.101	-72.763	-68.620	-66.966	-62.380	50.232	-64.514	-8191	255	
4266.376	1	1	0	0	0.080565	0.17295	0.15788	0.10432	0.32966	0.019827	0.20657	0.23257	0.21698	0.050087	0.29284	0.1182	0.29542	0.2191	0.066024	0.15123	-2.7396	-2.6188	-2.5583	-3.2729	-2.4875	-2.9188	-3.2	-2.8229	-3.15	-2.7042	-2.8833	-3.25	-2.6521	-2.9833	-2.7604	-2.5938	-50.675	-26.150	-52.334	-15.910	227.508	-9.682	154.784	250.818	-77.541	80.775	224.135	-26.255	247.884	164.629	-8.615	-84.649	0.0001762	0.00027497	0.00013568	1182.9	2.2746e-06	4.6605e-06	965.88	359	2.3555e-06	3.9814e-06	303.1	99.409	101.27	37.861	1.6114e-06	46.892	0.00021267	0.00017765	4.9552e-05	1211.8	2.0852e-06	1.84e-06	993.17	370.05	2.2748e-06	1.906e-06	312.48	103.09	105.09	39.315	2.0922e-06	48.647	171.323	7.053	-6.044	-75.130	42.702	58.934	-76.051	-71.253	79.845	66.561	-73.027	-68.692	-67.089	-62.478	2.479	-64.096	-8191	255	
4266.473	1	1	0	0	0.27864	0.32284	0.26345	0.2696	0.049096	0.26371	0.11693	0.13782	0.29887	0.15973	0.14297	0.16017	0.22223	0.17399	0.066615	0.10152	-2.6979	-2.7729	-2.6833	-3.3375	-2.5271	-2.8396	-3.2188	-2.6354	-3.1958	-2.8479	-2.6562	-3.175	-2.3979	-2.9521	-3.1625	-2.7333	162.100	-13.831	197.078	222.905	-40.260	233.724	209.959	85.348	85.401	145.902	31.455	-16.118	-3.353	206.850	246.165	238.877	0.00014275	0.00021302	9.9249e-05	1176.2	2.1527e-06	4.9357e-06	955.6	356.85	2.2884e-06	3.4683e-06	304.93	101.03	103.75	39.405	2.0915e-06	48.293	0.00022556	0.0001815	5.2348e-05	1209.7	2.2018e-06	1.8797e-06	990.28	368.71	2.1036e-06	1.8485e-06	313.25	104.97	107.73	40.705	2.0738e-06	50.102	169.154	-14.317	-14.583	-75.185	14.507	60.000	-75.997	-71.190	42.691	48.731	-73.087	-68.381	-66.917	-62.659	75.326	-64.189	-8191	255	
4266.569	1	1	0	0	0.25672	0.16779	0.030621	0.29202	0.20606	0.095387	0.14308	0.18509	0.22248	0.18564	0.12318	0.25918	0.21382	0.21834	0.043067	0.26654	-2.675	-2.8271	-2.6979	-3.4354	-2.6312	-2.7917	-3.2958	-2.8021	-3.1937	-3.0396	-2.7229	-3.2438	-2.6896	-3.0062	-3.2375	-2.7292	-50.570	137.452	-43.198	-78.680	67.162	266.089	236.751	50.624	221.488	64.042	222.788	194.403	22.348	256.883	198.404	255.549	0.00015329	0.00039176	0.0001076	1210.6	1.4285e-06	4.0106e-06	993.76	370.26	4.6058e-06	3.9921e-06	314.25	104.75	108.35	40.952	3.4776e-06	49.946	0.00021307	0.00018154	5.1595e-05	1238.8	2.1259e-06	2.0253e-06	1022.7	382.24	2.1702e-06	1.782e-06	323.07	108.63	112.74	42.567	1.9338e-06	51.826	175.734	-7.942	11.106	-75.302	96.139	79.684	-75.997	-71.431	15.953	75.548	-72.453	-68.383	-66.944	-62.828	39.440	-64.297	-8191	255	
4266.688	1	1	0	0	0.15656	0.20235	0.13558	0.16335	0.2148	0.010656	0.036315	0.33735	0.050724	0.10109	0.19795	0.17053	0.126	0.14821	0.063141	0.021237	-2.7438	-3.0938	-2.4521	-3.3271	-2.7	-2.8438	-3.0729	-2.6937	-3.1417	-3.0625	-2.6083	-3.2188	-2.7375	-2.6833	-3.3354	-2.6	-24.894	234.938	29.863	226.320	-86.931	-70.682	199.226	245.031	253.767	-79.850	264.793	265.458	-80.046	191.170	-10.471	-39.032	0.00020965	0.0003501	0.00010739	1211.1	1.966e-06	6.3324e-06	988.27	370.91	2.8789e-06	5.6092e-06	313.45	105.58	110.14	41.675	2.9951e-06	49.983	0.0002127	0.00016304	4.7311e-05	1248.6	1.9838e-06	1.8659e-06	1022.6	383.19	2.0648e-06	1.7312e-06	323.26	109.3	113.9	43.085	1.7272e-06	51.896	171.568	-19.442	-6.323	-75.166	32.840	54.618	-75.925	-71.665	31.092	66.288	-72.726	-68.551	-67.071	-62.151	54.438	-64.379	-8191	255	
4266.784	1	1	0	0	0.16069	0.37034	0.041392	0.24256	0.1767	0.032962	0.23816	0.22282	0.067096	0.07789	0.27161	0.14301	0.20579	0.13757	0.19142	0.21487	-2.4396	-3.0583	-2.5333	-3.2458	-2.8063	-2.65	-3.1167	-2.6479	-2.7021	-3.1	-2.5958	-3.2125	-2.8833	-2.5229	-3.2625	-2.7083	-3.474	228.365	44.446	-61.292	77.928	54.612	198.276	200.010	146.180	214.736	208.438	245.865	260.035	179.184	194.854	-14.816	0.00016719	0.00051138	0.00012127	1210	1.3231e-06	6.7223e-06	983.04	369.1	2.2101e-06	3.9351e-06	314.94	104.45	109.57	41.784	2.1992e-06	49.965	0.00021768	0.00015872	4.5125e-05	1244.3	1.9178e-06	1.7487e-06	1014.2	382.21	1.8347e-06	1.6275e-06	323.83	109.08	113.99	43.194	1.7596e-06	51.954	179.227	7.771	5.419	-75.150	72.149	65.792	-76.035	-71.459	43.050	47.838	-72.637	-68.748	-66.947	-62.822	56.649	-64.406	-8191	255	
4266.880	1	1	0	0	0.1238	0.082287	0.14071	0.27739	0.25883	0.12344	0.11265	0.23753	0.12533	0.24282	0.0587	0.093369	0.078447	0.21367	0.088101	0.17504	-2.3833	-3.0521	-2.5854	-3.3479	-2.7896	-2.5812	-3.4	-2.7604	-2.7062	-3	-2.525	-3.1458	-2.9021	-2.6042	-3.1521	-2.7354	-23.479	166.926	32.727	210.804	131.541	72.200	256.182	229.605	257.972	135.812	161.529	-86.201	-33.413	-55.780	5.405	-75.268	0.00019793	0.00054098	7.6445e-05	1210.3	3.0487e-06	5.1664e-06	983.69	372.99	1.012e-06	3.5547e-06	314.29	104.69	109.68	41.664	3.8414e-06	49.914	0.00020897	0.00014497	4.1847e-05	1243.7	1.7547e-06	1.6101e-06	1016.7	384.08	1.9571e-06	1.5605e-06	323.27	109.08	114.17	43.094	1.773e-06	51.718	171.648	-3.577	-15.912	-75.152	61.119	79.618	-75.918	-71.392	38.802	50.104	-72.954	-68.676	-66.954	-63.049	44.367	-64.377	-8191	255	
4266.976	1	1	0	0	0.231	0.077821	0.12227	0.38261	0.098779	0.16907	0.262	0.34418	0.16535	0.23843	0.15169	0.4144	0.030461	0.25848	0.18935	0.23187	-2.4521	-3.0896	-2.2958	-3.0458	-3.1312	-2.5042	-3.1667	-2.9938	-2.6229	-3.2417	-2.7396	-2.8333	-3.1333	-2.5521	-3.0375	-2.7438	69.715	215.526	164.236	229.762	222.228	-66.479	188.601	239.900	49.282	200.188	-52.535	155.453	-62.721	255.338	-84.573	169.246	0.00016776	0.00035125	0.00015695	1217.6	3.9425e-06	6.5634e-06	984.67	374.56	1.7089e-06	4.7266e-06	315.33	105.02	109.93	41.304	3.9071e-06	49.49	0.00020602	0.00014606	4.5434e-05	1249.4	1.843e-06	1.6417e-06	1017.6	385.3	2.0333e-06	1.5279e-06	323.81	108.51	113.65	42.505	1.8121e-06	50.954	171.535	7.826	-6.048	-75.182	53.419	98.965	-76.698	-71.916	10.993	52.923	-73.576	-69.206	-67.672	-63.313	69.210	-64.706	-8191	255	
4267.072	1	1	0	0	0.20229	0.15118	0.10604	0.17305	0.10129	0.17629	0.087617	0.11252	0.033637	0.24903	0.19845	0.28995	0.074015	0.14942	0.039002	0.29939	-2.2687	-3.2375	-2.3521	-2.85	-2.9479	-2.4833	-3.2292	-2.9729	-2.6229	-3.2833	-2.7417	-2.8333	-3.1083	-2.4938	-3.0229	-2.9792	-36.381	80.674	132.746	188.424	7.742	13.957	218.853	199.340	93.109	209.593	79.841	112.764	-59.721	264.007	172.382	183.651	0.00017795	0.00055982	0.00015253	1223.4	3.8045e-06	6.1869e-06	990.25	375.32	2.1877e-06	4.499e-06	314.28	103.57	110.29	41.232	3.9987e-06	48.996	0.00020323	0.00014957	4.5681e-05	1248	1.8272e-06	1.67e-06	1017.6	385.74	2.0211e-06	1.5497e-06	322.45	107.83	113.77	42.339	1.7472e-06	50.732	181.062	-11.176	-1.926	-75.682	35.936	82.782	-75.992	-71.804	35.780	73.152	-73.225	-69.370	-67.464	-63.096	54.652	-64.538	-8191	255	
4267.168	1	1	0	0	0.11731	0.15586	0.26794	0.39217	0.20616	0.035985	0.27656	0.23152	0.10404	0.19697	0.058424	0.22259	0.39319	0.091911	0.15671	0.26521	-2.0417	-3.125	-2.5792	-2.8896	-3.1188	-2.4292	-3.0604	-3.05	-2.5854	-3.0312	-2.8187	-2.7667	-3.2104	-2.5333	-2.8875	-3.0854	225.474	46.393	7.947	252.782	236.660	37.747	168.322	162.360	119.149	41.351	183.229	268.415	260.323	-56.531	-47.529	204.448	0.00018334	0.00042607	0.00016788	1223.1	1.7408e-06	3.2189e-06	992.91	375.03	2.5681e-06	3.9127e-06	315.69	103.06	110.05	40.696	3.2195e-06	48.718	0.0002062	0.00015333	4.431e-05	1251.5	1.8106e-06	1.5684e-06	1023.4	386.91	1.894e-06	1.6258e-06	324.6	107.57	113.73	42.14	1.7009e-06	50.259	170.529	-14.182	3.958	-75.677	30.846	52.352	-76.299	-71.331	7.106	50.785	-72.706	-68.845	-67.099	-62.869	85.612	-64.444	-8191	255	
4267.289	1	1	0	0	0.1161	0.054592	0.041473	0.29751	0.26047	0.10583	0.41434	0.28842	0.11063	0.094167	0.16557	0.0501	0.059963	0.14567	0.14267	0.21306	-2.0917	-3.2042	-2.7083	-2.6792	-3.1813	-2.4875	-2.9708	-3.3479	-2.2396	-3.2229	-2.8896	-2.6312	-3.275	-2.5563	-2.7354	-3.0708	21.375	132.505	39.720	-70.629	220.142	35.691	258.587	179.316	175.284	-4.612	21.921	222.409	220.748	247.180	234.069	262.462	0.0001624	0.00062424	9.4819e-05	1216.1	2.2483e-06	4.3726e-06	988.08	374.51	2.462e-06	4.6765e-06	313.28	102.56	108.45	40.42	4.8457e-06	48.15	0.00020555	0.00014177	4.0871e-05	1249.6	1.7416e-06	1.6952e-06	1017.8	386.45	1.9837e-06	1.6331e-06	323.21	106.97	113.12	41.899	1.8672e-06	49.874	170.506	3.897	-13.906	-75.217	67.362	79.292	-76.475	-71.274	36.004	59.901	-73.088	-68.697	-66.950	-62.839	65.776	-64.066	-8191	255	
4267.385	1	1	0	0	0.062968	0.16127	0.11428	0.2733	0.04817	0.11919	0.30917	0.013508	0.10841	0.044017	0.1215	0.11715	0.035805	0.11405	0.15088	0.22013	-2.2188	-3.0458	-3.0354	-2.7708	-3.1833	-2.8333	-3.0458	-3.3104	-2.3354	-3.0187	-3.2479	-2.6708	-3.3708	-2.7729	-2.6437	-3.1333	23.013	235.897	55.941	-82.357	112.953	92.692	211.447	214.878	74.015	6.216	-8.607	225.329	232.733	-12.904	128.228	188.952	0.00020204	0.00053076	7.7995e-05	1216.7	2.4589e-06	6.6717e-06	984.96	376.39	2.7456e-06	3.5569e-06	314.32	103	109.32	40.358	3.862e-06	47.737	0.00020647	0.00015324	4.3174e-05	1251	1.7559e-06	1.7056e-06	1018.4	387.8	2.0286e-06	1.6446e-06	324.15	106.77	113.31	41.748	1.9743e-06	49.541	174.978	6.061	-15.680	-75.195	32.774	51.157	-75.979	-71.188	60.292	66.147	-72.554	-69.013	-67.022	-62.589	54.194	-64.221	-8191	255	
4267.480	1	1	0	0	0.21882	0.17707	0.20799	0.26897	0.077	0.11992	0.13353	0.029859	0.042668	0.11489	0.10857	0.030675	0.19229	0.11288	0.33682	0.1129	-2.125	-3.0521	-3.0083	-2.7479	-3.35	-2.6146	-2.8146	-3.3521	-2.6	-2.9417	-3.1104	-2.5729	-3.2792	-2.9479	-2.5583	-3.275	102.805	58.041	245.171	-55.631	83.920	56.935	186.472	-28.329	50.469	79.095	-15.797	169.834	265.326	120.236	108.572	265.953	0.00018341	0.00067357	0.00013591	1222.5	2.1779e-06	7.9503e-06	986.71	376.49	1.9043e-06	4.5761e-06	314.31	103.17	109.17	40.277	1.9757e-06	47.783	0.00021519	0.00015506	4.4205e-05	1253.9	1.8171e-06	1.6747e-06	1018.8	388.79	1.9524e-06	1.6703e-06	323.59	106.85	112.97	41.689	1.7599e-06	49.557	176.725	-5.854	-12.396	-75.239	38.670	81.278	-76.158	-71.076	36.395	68.322	-72.907	-68.607	-67.322	-62.175	49.605	-64.328	-8191	255	
4267.577	1	1	0	0	0.095217	0.085917	0.20992	0.075886	0.11441	0.13374	0.11585	0.27081	0.11088	0.28523	0.088476	0.051704	0.16548	0.12222	0.13055	0.15828	-2.2771	-2.8854	-3.0479	-2.6854	-3.1063	-2.9667	-2.6958	-3.2667	-2.6646	-2.9271	-3.2729	-2.4688	-3.0375	-2.8937	-2.5417	-3.375	239.720	65.839	190.384	259.707	264.638	-3.730	208.546	258.277	171.830	147.089	91.468	269.884	-74.294	-29.818	192.173	-0.696	0.00017473	0.00045732	0.00015835	1223.5	1.6517e-06	6.4915e-06	987.04	378.03	1.0879e-06	3.0076e-06	312.38	101.78	108.77	39.713	2.8605e-06	47.389	0.00021031	0.00015872	4.4273e-05	1255.2	1.8479e-06	1.6641e-06	1020.2	388.77	2.0594e-06	1.7796e-06	323.4	105.85	112.83	41.253	1.8534e-06	49.185	170.489	-6.422	-3.010	-74.992	59.498	88.435	-75.976	-71.197	-16.423	75.884	-72.775	-68.896	-66.979	-62.376	48.402	-64.307	-8191	255	
4267.672	1	1	0	0	0.096834	0.22645	0.10406	0.21556	0.05552	0.12062	0.36378	0.18216	0.12123	0.17397	0.061587	0.085863	0.16238	0.19606	0.18658	0.15626	-2.1958	-2.65	-2.8792	-2.55	-3.0208	-2.9875	-2.8167	-3.2271	-2.6562	-2.7854	-3.2417	-2.5521	-3.0083	-2.9604	-2.5958	-3.2896	146.552	-71.697	165.626	-64.369	-54.949	-22.095	268.228	251.713	249.233	78.961	148.759	198.377	-77.941	229.240	59.299	-83.417	0.00015484	0.00035452	0.00016732	1215.6	1.7502e-06	5.0082e-06	985.33	375.39	1.2762e-06	4.0717e-06	314.49	101.99	108.06	40.29	4.4744e-06	47.215	0.0002098	0.00016237	4.5891e-05	1249.6	1.9238e-06	1.6861e-06	1015.7	387.24	1.9821e-06	1.8236e-06	323.29	105.91	112.72	41.523	1.9665e-06	49.021	174.071	-29.216	-9.921	-75.287	54.699	67.921	-76.104	-71.224	-7.939	77.980	-72.696	-68.900	-67.091	-62.302	57.028	-64.299	-8191	255	
4267.768	1	1	0	0	0.32482	0.25017	0.058891	0.27402	0.11393	0.10059	0.28354	0.29703	0.035851	0.08535	0.29967	0.15605	0.054872	0.17475	0.093133	0.12735	-2.3833	-2.6063	-2.9542	-2.8146	-2.8542	-3.1708	-2.6771	-3.3479	-2.8792	-2.5354	-3.1771	-2.5208	-2.8396	-3.2646	-2.4604	-3.1896	133.902	-75.191	163.042	246.557	-19.902	236.225	234.727	258.855	140.129	13.777	-84.385	-36.543	82.378	73.267	70.762	242.540	0.00017656	0.0005871	0.00016894	1220.3	2.9584e-06	3.741e-06	987.89	377.64	2.659e-06	5.1561e-06	315.5	102	110.09	40.545	3.5808e-06	47.51	0.0002068	0.00016068	4.6681e-05	1251.3	1.9235e-06	1.692e-06	1017	388.91	1.955e-06	1.7368e-06	325.35	106.53	114.12	41.869	1.8877e-06	49.341	177.494	8.731	1.860	-75.419	49.169	67.407	-76.167	-71.151	61.407	79.027	-72.667	-68.748	-67.005	-62.716	74.003	-64.562	-8191	255	
4267.864	1	1	0	0	0.20865	0.15234	0.13056	0.20029	0.15987	0.044045	0.29076	0.13531	0.072467	0.06588	0.33173	0.16424	0.28444	0.24654	0.13638	0.098953	-2.4604	-2.5854	-3.2208	-2.9104	-2.7646	-3.25	-2.5938	-3.1417	-2.9708	-2.6458	-3.2458	-2.7167	-2.925	-3.3042	-2.5958	-2.9667	-31.609	60.497	-38.176	193.879	250.914	169.143	163.244	-82.614	1.625	160.653	-54.884	104.404	-80.235	-66.363	-3.754	193.238	0.00015813	0.00036723	0.0001144	1229.1	2.6308e-06	2.2974e-06	989.2	379.17	1.2591e-06	3.4998e-06	314.21	103.12	109.46	40.056	2.0001e-06	46.959	0.00020942	0.00016206	4.1878e-05	1261.7	1.9826e-06	1.7362e-06	1021.7	391.13	1.9207e-06	1.7607e-06	325.03	106.38	113.21	41.581	1.8498e-06	49.087	175.039	-11.976	22.957	-74.824	50.610	61.551	-76.109	-71.469	41.921	77.117	-72.768	-69.214	-67.053	-62.682	59.702	-64.169	-8191	255	
4267.985	1	1	0	0	0.14595	0.32089	0.15657	0.2265	0.3361	0.14427	0.19685	0.072293	0.25077	0.17845	0.11106	0.21243	0.056805	0.048008	0.31371	0.10187	-2.5333	-2.3958	-3.1375	-2.8958	-2.7479	-3.0458	-2.6854	-3.1604	-2.8958	-2.5917	-3.2313	-2.925	-2.7479	-3.1875	-2.7188	-3.0333	-73.814	120.284	205.858	265.511	168.304	189.822	-54.894	224.608	109.389	169.300	119.900	-49.133	-39.182	89.631	184.936	-5.470	0.00014951	0.00079365	0.0001312	1220.1	2.6568e-06	6.2359e-06	985.36	375.42	2.6579e-06	3.644e-06	312.02	101.68	107.73	39.999	1.9185e-06	47.096	0.00020713	0.00015501	4.1797e-05	1252.5	1.8725e-06	1.5686e-06	1016.5	387.88	1.9468e-06	1.6989e-06	321.78	105.72	112	41.344	1.74e-06	48.923	162.038	-5.787	15.396	-75.230	25.087	63.052	-76.254	-71.467	22.765	84.312	-72.448	-68.582	-67.268	-62.406	94.054	-64.568	-8191	255	
4268.081	1	1	0	0	0.1399	0.048975	0.17901	0.2662	0.059451	0.19799	0.11657	0.052435	0.12081	0.22683	0.1654	0.061631	0.031722	0.05225	0.1291	0.2161	-2.5354	-2.5604	-2.8688	-2.9437	-2.7292	-3.1208	-2.6771	-3.0021	-3.1333	-2.5167	-3.3187	-2.9062	-2.7021	-3.2458	-2.5896	-2.8271	-23.650	143.234	13.987	268.054	190.027	115.990	206.480	-38.971	173.220	9.495	182.967	253.241	42.405	141.259	101.303	-41.558	0.00016331	0.00063404	0.00012686	1212.3	1.0035e-06	6.7022e-06	977.97	373.48	1.2746e-06	5.584e-06	312.72	101.43	107.93	39.415	3.9691e-06	46.557	0.0002061	0.00015888	4.1674e-05	1243.7	1.8044e-06	1.6015e-06	1011.9	384.48	1.9214e-06	1.693e-06	321.89	105.24	111.92	40.864	1.7331e-06	48.363	175.565	5.300	-2.791	-75.024	16.376	66.460	-76.002	-71.547	45.962	82.865	-72.982	-69.121	-67.063	-62.254	45.809	-64.186	-8191	255	
4268.153	1	1	0	0	0.12525	0.2206	0.19037	0.17801	0.27801	0.108	0.27815	0.18409	0.057523	0.11575	0.2698	0.06158	0.11016	0.12494	0.075976	0.40741	-2.6792	-2.3583	-3.0104	-3.1458	-2.3812	-3.0396	-2.6833	-2.9542	-3.0875	-2.625	-3.1375	-3.2188	-2.5667	-3.25	-2.6667	-2.9208	185.026	87.552	82.019	178.733	47.863	117.134	234.037	181.844	260.739	108.841	-31.437	110.200	174.381	37.388	-75.944	184.779	0.00015568	0.00072709	0.00016483	1209.2	2.6185e-06	5.5736e-06	980.18	372.66	1.3358e-06	5.0251e-06	309.52	101.34	107.58	39.603	4.3673e-06	46.854	0.00020046	0.00015537	4.4353e-05	1246.2	1.8258e-06	1.6071e-06	1008.1	384.11	1.891e-06	1.6272e-06	320.08	104.79	111.58	40.952	1.7603e-06	48.475	173.025	7.058	3.912	-75.015	22.863	82.852	-76.226	-71.428	38.581	66.506	-72.683	-68.982	-67.170	-62.367	66.272	-64.360	-8191	255	
4268.249	1	1	0	0	0.17381	0.17542	0.14912	0.13002	0.16467	0.12597	0.12803	0.072352	0.25797	0.15232	0.18967	0.27245	0.23397	0.28309	0.15674	0.18307	-2.6083	-2.5042	-2.8104	-3.0604	-2.425	-3.1188	-3.0854	-2.95	-2.975	-2.5521	-2.9042	-3.3187	-2.3542	-3.1667	-2.8937	-2.7562	119.789	183.208	236.235	185.234	106.454	-81.510	250.765	-16.190	67.177	229.651	217.149	231.262	234.527	268.163	160.762	-72.835	0.00016956	0.00049101	8.4028e-05	1213.6	3.0566e-06	3.9666e-06	981.4	374.24	3.8007e-06	3.0388e-06	311.5	100.92	108.44	39.622	2.5289e-06	46.698	0.00019547	0.00015533	4.6014e-05	1246.9	1.9113e-06	1.6621e-06	1011	385.57	1.9092e-06	1.7038e-06	321.01	105.22	111.98	41.09	1.7887e-06	48.434	179.965	3.992	0.772	-75.126	68.429	70.955	-76.007	-71.560	22.553	55.293	-72.880	-69.142	-67.017	-62.540	76.555	-64.286	-8191	255	
4268.369	1	1	0	0	0.42841	0.27977	0.19038	0.18604	0.051458	0.093156	0.11129	0.20256	0.18642	0.17884	0.022049	0.25791	0.15162	0.11442	0.069184	0.16528	-2.825	-2.4917	-2.7479	-3.1188	-2.3563	-3.0625	-2.9271	-2.6896	-3.4417	-2.6792	-2.9062	-3.0771	-2.5	-3.1521	-2.8979	-2.6521	-52.836	-14.793	113.922	216.471	60.628	216.019	-75.751	230.239	82.721	13.049	-46.495	265.182	238.718	-66.129	-3.170	213.650	0.00016869	0.00045608	0.00010333	1213.6	3.0616e-06	7.5108e-06	979.12	375.97	2.0631e-06	3.5986e-06	313.8	100.59	109.07	39.635	3.2439e-06	46.602	0.00020013	0.00015988	4.3563e-05	1249.9	1.9118e-06	1.7579e-06	1012.2	387.21	1.8417e-06	1.6972e-06	323.52	105.31	112.71	40.996	1.893e-06	48.24	177.769	-7.123	-7.938	-74.863	83.845	61.474	-75.839	-71.470	58.049	73.837	-73.077	-68.970	-67.165	-62.797	27.672	-64.294	-8191	255	
4268.466	1	1	0	0	0.33187	0.15819	0.063833	0.45581	0.074212	0.1844	0.082112	0.17513	0.011293	0.064487	0.05941	0.19813	0.11053	0.14184	0.16557	0.19002	-2.5833	-2.5083	-2.7729	-3.2062	-2.5083	-2.9667	-2.9437	-2.6208	-3.0021	-2.5521	-2.5938	-3.3125	-2.6271	-3.0479	-3.0667	-2.4562	-36.245	113.756	142.825	200.190	49.972	59.072	134.971	208.045	144.893	-9.847	18.889	108.796	219.874	-52.799	179.672	235.504	0.000173	0.00056437	9.8301e-05	1237	3.206e-06	4.1854e-06	1000.7	385.17	2.5361e-06	5.4545e-06	322.08	101.94	109.77	39.54	2.1287e-06	46.159	0.00021698	0.00018081	5.0397e-05	1270.8	2.1608e-06	2.0798e-06	1031.3	396.58	2.3145e-06	2.1559e-06	330.7	105.81	113.91	41.086	2.1495e-06	48.047	179.669	5.273	-20.126	-75.126	26.216	58.304	-75.662	-71.366	13.620	86.991	-73.186	-68.623	-67.104	-62.450	70.064	-64.593	-8191	255	
4268.562	1	1	0	0	0.16531	0.12237	0.027223	0.22627	0.13106	0.21404	0.093887	0.21261	0.17905	0.11867	0.0062121	0.068992	0.1157	0.093322	0.19615	0.15042	-2.6333	-2.8625	-2.3271	-3.3	-2.5438	-2.8708	-3.4083	-2.6104	-3.0167	-2.7104	-2.625	-3.2188	-2.8708	-2.8542	-3.1854	-2.3542	139.633	174.215	-28.764	263.177	-14.075	146.773	130.326	252.632	265.009	106.596	255.017	-58.026	159.958	186.004	-83.938	143.894	0.00016537	0.0002245	0.00012623	1255.8	2.5577e-06	4.3379e-06	1006.6	389.38	5.6268e-07	3.2382e-06	319.55	101.53	109.91	39.974	2.3628e-06	46.669	0.00022514	0.00019085	5.2589e-05	1288.5	2.3593e-06	1.972e-06	1040.9	400.71	2.3304e-06	1.962e-06	329.99	105.71	114.13	41.297	2.0302e-06	48.269	178.159	23.491	-8.750	-74.990	49.456	75.109	-75.604	-71.205	16.518	67.414	-72.345	-68.221	-66.975	-62.358	18.402	-64.009	-8191	255	
4268.658	1	1	0	0	0.13546	0.34059	0.1206	0.097395	0.13412	0.15288	0.15673	0.1297	0.11041	0.12272	0.10749	0.27754	0.15126	0.1108	0.32561	0.086401	-2.725	-2.8896	-2.5875	-3.3937	-2.4771	-2.875	-3.4062	-2.7562	-3.1083	-2.9333	-2.6792	-3.1625	-2.7104	-2.7708	-2.9792	-2.5521	41.552	-77.277	-48.168	210.358	-83.508	243.006	194.149	74.098	207.989	103.712	173.460	246.833	-81.701	-11.829	212.792	191.690	0.00017642	0.00046372	0.00015009	1243.8	2.021e-06	5.2479e-06	1003.1	385.5	2.1748e-06	4.272e-06	316.57	102.17	109.7	40.322	3.3766e-06	46.7	0.00022088	0.0001641	4.97e-05	1284.6	2.1231e-06	1.9214e-06	1034.4	397.81	2.147e-06	1.7559e-06	327.58	106	114	41.584	1.9338e-06	48.483	177.179	-13.717	13.734	-75.082	58.666	36.675	-75.890	-71.215	33.050	51.982	-72.994	-69.119	-67.109	-62.658	68.383	-64.476	-8191	255	
4268.777	1	1	0	0	0.20687	0.062796	0.080898	0.18947	0.042329	0.03906	0.11693	0.40202	0.14267	0.20116	0.14458	0.16144	0.18453	0.45435	0.11987	0.13331	-2.6104	-2.8583	-2.375	-3.2604	-2.6833	-2.7604	-3.2438	-2.7125	-2.9229	-2.9604	-2.4667	-3.3083	-2.8896	-2.6104	-3.1813	-2.5521	228.859	-7.225	13.068	35.584	46.391	199.347	153.273	243.261	214.276	155.177	212.566	-32.114	-63.684	-77.990	173.509	245.836	0.00015023	0.00050974	0.00013963	1249.3	3.9826e-06	5.0181e-06	996.27	382.72	1.1327e-06	4.2867e-06	317.82	101.33	108.46	39.588	1.4413e-06	46.09	0.0002155	0.0001671	4.9385e-05	1281.4	2.0327e-06	1.8462e-06	1030.9	395.68	2.1354e-06	1.8309e-06	327.68	105.67	113.34	40.97	1.8875e-06	47.885	171.482	-18.767	3.185	-75.161	22.896	50.343	-75.893	-71.416	43.755	78.057	-72.743	-68.651	-67.236	-62.751	48.614	-64.307	-8191	255	
4268.850	1	1	0	0	0.1084	0.26257	0.044426	0.07043	0.1261	0.12351	0.084645	0.053759	0.14713	0.25147	0.15139	0.22382	0.23936	0.063473	0.26004	0.03944	-2.6562	-3.0958	-2.2875	-3.2917	-2.7271	-2.7729	-3.3729	-2.9458	-2.7958	-2.825	-2.5333	-3.175	-3.0083	-2.7146	-3.2708	-2.7479	100.185	164.441	-40.368	221.861	151.691	67.403	232.460	151.873	259.039	236.952	-34.229	-2.833	-83.716	-88.511	148.611	132.345	0.00015782	0.0006828	0.00011612	1246.6	1.0899e-06	6.9192e-06	999.31	383.41	1.4597e-06	5.4529e-06	314.63	101.41	108.09	39.3	3.5433e-06	46.74	0.0002093	0.00017677	4.7792e-05	1279.7	2.0636e-06	1.9691e-06	1029.5	394.96	1.9767e-06	1.7126e-06	324.34	105.31	112.25	40.882	1.6432e-06	48.306	172.014	11.304	-26.242	-75.313	61.365	82.682	-76.071	-71.156	18.926	68.359	-72.734	-68.791	-66.982	-62.689	53.283	-64.270	-8191	255	
4268.969	1	1	0	0	0.13989	0.18487	0.2351	0.2254	0.096082	0.10573	0.25178	0.3255	0.16619	0.18257	0.09959	0.1824	0.19837	0.10329	0.16196	0.19265	-2.4854	-3.1813	-2.525	-3.2438	-2.8667	-2.5542	-3.2521	-2.8625	-2.7292	-3.1937	-2.5208	-2.9708	-2.9083	-2.5042	-3.2333	-2.9458	76.320	205.819	79.733	267.125	-44.249	38.163	206.864	122.817	257.622	180.506	105.268	32.448	-30.541	264.147	269.897	68.007	0.00014565	0.00051319	0.00013907	1218.5	2.3943e-06	6.4334e-06	974.97	374.84	6.4037e-07	2.7699e-06	312.88	101.45	107.45	39.443	2.7952e-06	46.648	0.00019501	0.00015093	4.0766e-05	1250	1.6927e-06	1.6385e-06	1012	386.42	1.8653e-06	1.5967e-06	321.06	105.3	111.9	40.942	1.6766e-06	48.347	178.429	-8.104	2.748	-75.277	22.502	70.339	-76.127	-71.325	108.829	72.138	-73.032	-68.985	-67.075	-62.553	68.131	-64.438	-8191	255	
4269.065	1	1	0	0	0.16067	0.29873	0.12148	0.052597	0.072861	0.15676	0.075148	0.15954	0.31553	0.20188	0.29866	0.073177	0.20461	0.23717	0.19281	0.17112	-2.2333	-2.9625	-2.6625	-3.1542	-3.0625	-2.4708	-3.3708	-3.1063	-2.6896	-3.0729	-2.5979	-3.0333	-3.1042	-2.4958	-3.0167	-2.8438	61.425	-63.477	187.696	129.283	255.161	37.209	-67.857	138.373	126.492	227.106	156.794	27.805	265.755	266.118	141.643	107.680	0.00016931	0.00049282	0.00013056	1220.6	2.592e-06	3.0698e-06	980.43	373.15	9.717e-07	1.3747e-06	308.06	100.49	106.78	39.438	3.3083e-06	46.206	0.00019856	0.00015828	4.1896e-05	1250	1.7577e-06	1.5896e-06	1010.9	385.03	2.0515e-06	1.4961e-06	319.78	104.42	111.37	40.713	1.7064e-06	47.874	167.618	-14.111	-14.090	-75.128	37.392	64.519	-76.137	-71.234	4.614	73.054	-72.565	-68.764	-67.225	-62.700	28.717	-64.273	-8191	255	
4269.161	1	1	0	0	0.25546	0.44922	0.16527	0.28084	0.1505	0.023097	0.29799	0.35249	0.046906	0.13071	0.37829	0.1221	0.098268	0.103	0.21356	0.046853	-2.1937	-3.0812	-2.5292	-2.8688	-2.9813	-2.375	-3.0062	-3.0417	-2.55	-3.2146	-2.6208	-2.7979	-3.2354	-2.5792	-3.0438	-3.0375	200.382	34.622	229.047	239.724	44.843	1.458	202.804	173.203	-53.232	245.657	179.556	-50.967	168.767	-51.331	-11.209	23.662	0.00015478	0.000782	0.00011674	1215.2	3.0684e-06	5.1654e-06	981.62	374.15	2.1184e-06	3.8238e-06	311.93	100.44	106.85	39.126	1.4705e-06	46.036	0.00021134	0.00015501	4.3952e-05	1251.9	1.8768e-06	1.7445e-06	1010.7	385.64	1.9471e-06	1.6527e-06	320.19	104.18	111.03	40.279	1.814e-06	47.662	178.153	-8.759	9.587	-74.934	43.254	84.964	-75.973	-70.993	-1.949	92.060	-72.964	-69.017	-66.863	-62.632	69.955	-64.543	-8191	255	
4269.257	1	1	0	0	0.13447	0.18306	0.11752	0.19262	0.07566	0.11682	0.064603	0.080916	0.13006	0.093651	0.17075	0.11387	0.03657	0.4457	0.21381	0.29724	-2.0958	-3.1125	-2.7354	-2.8187	-3.2562	-2.4833	-3.1229	-3.0792	-2.3771	-3.2896	-2.8417	-2.75	-3.2917	-2.6688	-2.8063	-3.2271	228.319	224.997	-70.057	176.092	201.876	254.476	255.489	18.540	235.613	-41.234	19.309	51.870	157.398	270.388	77.037	219.890	0.00017296	0.0004091	9.9402e-05	1207	2.8518e-06	5.975e-06	973.45	369.05	1.1215e-06	5.2317e-06	305.84	100.1	105.51	38.723	3.7455e-06	46.09	0.00021275	0.00015721	4.2316e-05	1240.2	1.8768e-06	1.6668e-06	1004.1	380.45	1.9438e-06	1.605e-06	316	103.91	109.9	40.248	1.8145e-06	47.76	174.992	-1.440	-2.800	-75.156	55.503	90.603	-76.020	-71.261	9.225	65.205	-72.571	-68.698	-67.214	-62.625	48.975	-64.234	-8191	255	
4269.378	1	1	0	0	0.015747	0.36207	0.14944	0.21188	0.031756	0.26255	0.20716	0.18721	0.032837	0.022468	0.24375	0.03543	0.044178	0.14136	0.12921	0.24981	-1.9917	-3.1562	-2.675	-2.6562	-3.2042	-2.5958	-2.9437	-3.1042	-2.4771	-2.95	-2.8979	-2.5438	-3.3104	-2.5604	-2.8333	-3.1104	-10.136	245.173	-57.732	242.206	234.849	43.818	259.090	165.334	31.041	34.188	45.553	46.238	49.695	134.149	7.405	255.912	0.00015383	0.00046094	7.624e-05	1195.5	3.3897e-06	4.5884e-06	966.06	365.62	2.9459e-06	4.5622e-06	305.17	99.998	105.56	39.059	2.3001e-06	45.63	0.00019124	0.0001378	3.8272e-05	1228.5	1.7879e-06	1.654e-06	996.03	377.55	1.9781e-06	1.5355e-06	315.25	104.29	109.81	40.161	1.7133e-06	47.602	174.516	6.228	-15.525	-75.258	36.381	70.131	-76.093	-71.402	36.915	55.696	-72.650	-69.019	-66.953	-62.282	63.628	-64.296	-8191	255	
4269.450	1	1	0	0	0.17338	0.054575	0.066629	0.38351	0.095816	0.083327	0.046011	0.017174	0.1598	0.13268	0.20568	0.043095	0.28289	0.034371	0.21372	0.12024	-1.9042	-2.8688	-2.8958	-2.7021	-3.0708	-2.5812	-2.8208	-3.3312	-2.4958	-3.0271	-2.875	-2.6583	-3.1583	-2.7417	-2.5771	-3.075	259.777	104.972	215.606	269.847	220.158	64.382	123.791	185.707	-64.587	105.061	43.574	232.647	197.822	-82.933	-43.044	174.926	0.0001829	0.0004194	0.00013402	1194.4	2.2599e-06	5.8384e-06	964.46	365.35	1.1627e-06	6.307e-06	306.8	99.553	105	38.278	2.2342e-06	45.778	0.0002028	0.00014957	4.1927e-05	1225.7	1.7518e-06	1.7043e-06	995.6	376.65	1.9204e-06	1.5695e-06	314.49	103.47	109.36	39.765	1.7303e-06	47.453	176.654	-15.638	-6.705	-75.147	61.990	67.104	-75.929	-71.133	33.323	53.015	-72.332	-68.691	-67.118	-62.316	72.364	-64.292	-8191	255	
4269.546	1	1	0	0	0.085114	0.17281	0.23346	0.14864	0.087183	0.28582	0.18613	0.098334	0.10786	0.105	0.1591	0.18111	0.17935	0.2229	0.15635	0.29014	-1.9688	-2.8604	-3.025	-2.6792	-3.0896	-2.8958	-2.6104	-3.2667	-2.4833	-2.7625	-3.0896	-2.4896	-3.1833	-2.9313	-2.4188	-3.2896	7.450	-59.192	254.655	226.539	69.515	-63.096	195.221	170.461	-32.414	79.322	135.370	-36.441	181.768	130.497	203.262	255.089	0.0001593	0.00049168	0.00014924	1185.9	2.706e-06	7.152e-06	958.25	362.36	2.3418e-06	5.2799e-06	305.7	99.135	103.99	38.444	3.4014e-06	45.69	0.00019983	0.0001605	4.2563e-05	1220.1	1.7209e-06	1.6582e-06	987.85	374.2	1.7758e-06	1.5338e-06	312.62	103.02	108.7	39.775	1.5852e-06	47.433	176.336	1.604	-6.897	-75.214	42.798	92.827	-76.240	-71.260	24.652	59.716	-72.818	-68.790	-67.059	-62.467	67.748	-64.473	-8191	255	
4269.642	1	1	0	0	0.14966	0.13038	0.31517	0.12801	0.19246	0.18452	0.048289	0.17378	0.092891	0.17654	0.05852	0.1773	0.20183	0.18184	0.17396	0.20458	-2.0271	-2.8604	-2.8458	-2.65	-2.8833	-2.7917	-2.7042	-3.1562	-2.6146	-2.8854	-3.075	-2.5438	-3.0479	-2.7958	-2.5563	-3.1979	30.248	193.431	37.420	203.323	115.487	-77.939	104.759	193.076	195.232	268.740	169.508	216.992	197.938	-60.392	34.974	32.708	0.00014357	0.00045515	0.0001222	1183.5	2.8093e-06	3.3357e-06	955.61	362.2	1.451e-06	4.8121e-06	306.62	98.863	105.46	38.491	2.7014e-06	45.954	0.00019378	0.00013406	3.9167e-05	1217.9	1.7724e-06	1.5274e-06	987.56	373.98	1.7691e-06	1.5521e-06	314.19	103.5	109.24	39.886	1.6604e-06	47.675	182.685	-12.858	7.951	-75.174	53.294	62.787	-75.916	-71.169	24.088	72.599	-72.952	-68.496	-67.115	-62.542	54.135	-64.326	-8191	255	
4269.761	1	1	0	0	0.20387	0.13353	0.037244	0.19841	0.059144	0.22264	0.17239	0.24643	0.29053	0.10459	0.134	0.13754	0.2464	0.17437	0.26232	0.090646	-2.0625	-2.4771	-3.0333	-2.6542	-2.7771	-2.9333	-2.675	-3.4146	-2.6292	-2.7354	-3.1604	-2.6104	-2.9667	-3.0021	-2.4958	-3.2375	197.731	105.641	212.358	158.999	50.706	2.720	260.730	244.193	-49.469	95.833	159.296	263.902	134.836	214.269	70.168	270.786	0.00015229	0.00055703	0.00013191	1192.7	2.0041e-06	6.4832e-06	964.25	365.6	1.9704e-06	3.6062e-06	305.27	100.43	105.57	39.07	2.4031e-06	45.997	0.00019028	0.00015259	4.063e-05	1224.8	1.68e-06	1.4352e-06	995.33	378.31	1.8228e-06	1.6744e-06	315.93	104.19	110.19	40.258	1.6549e-06	47.923	180.291	-7.763	11.970	-74.898	28.351	83.511	-76.361	-71.208	16.424	77.879	-72.412	-68.351	-67.072	-62.433	31.421	-64.106	-8191	255	
4269.857	1	1	0	0	0.12051	0.10558	0.20573	0.013424	0.12233	0.12573	0.24166	0.3007	0.27682	0.088139	0.098269	0.25086	0.093231	0.16126	0.12633	0.070913	-2.3083	-2.5125	-3.1771	-2.6937	-2.7354	-3.0271	-2.7521	-3.2958	-2.7812	-2.6729	-3.1417	-2.7021	-2.8042	-3.1104	-2.6417	-3.0583	235.460	84.506	-65.103	198.680	-71.659	132.698	150.701	211.806	-38.324	147.558	-53.915	182.404	-67.524	255.083	179.092	177.317	0.00018508	0.00054552	0.00013263	1196.2	1.913e-06	3.1197e-06	967.98	369.7	2.5055e-06	3.3562e-06	307.23	100.19	105.83	38.753	3.4393e-06	45.806	0.00019297	0.00014686	3.9568e-05	1230.1	1.7557e-06	1.5287e-06	998.86	379.56	1.7747e-06	1.4409e-06	316.56	104.51	110.09	40.251	1.5952e-06	47.773	170.622	-9.688	2.169	-75.121	24.064	36.756	-75.924	-71.273	37.460	62.802	-72.535	-68.961	-67.464	-62.556	48.252	-64.726	-8191	255	
4269.953	1	1	0	0	0.29275	0.13391	0.1989	0.39453	0.21987	0.11384	0.18876	0.14398	0.17418	0.16966	0.20188	0.09996	0.3112	0.18744	0.20266	0.30996	-2.4313	-2.4479	-3.0104	-2.6188	-2.8042	-3.0062	-2.7438	-3.1688	-2.9688	-2.3833	-3.2896	-2.8187	-2.6479	-3.3042	-2.5958	-3.0458	58.895	161.488	238.008	247.840	189.590	222.656	259.244	-35.825	232.409	160.929	260.525	101.575	-44.269	268.208	-79.045	186.350	0.00018461	0.00044804	0.00010296	1188	1.5664e-06	4.431e-06	955.73	364.99	1.9158e-06	3.3245e-06	304.61	98.563	105.42	38.329	2.0069e-06	45.397	0.00019035	0.00014273	3.8457e-05	1217.9	1.7065e-06	1.3853e-06	987.98	375.13	1.7093e-06	1.582e-06	312.9	103.04	109.2	39.67	1.495e-06	47.157	172.070	9.418	14.545	-74.883	27.712	54.946	-76.199	-71.195	23.053	57.957	-72.457	-68.301	-67.061	-62.340	39.896	-64.463	-8191	255	
4270.049	1	1	0	0	0.15308	0.16941	0.17201	0.17065	0.25539	0.046206	0.25138	0.072712	0.17047	0.15969	0.16787	0.065591	0.15195	0.30727	0.22518	0.17294	-2.4521	-2.4188	-2.8875	-2.8042	-2.5208	-3.2479	-2.5521	-2.9125	-2.9542	-2.5875	-3.1792	-2.7625	-2.6021	-3.2146	-2.4542	-2.9958	-46.880	-82.981	-31.074	204.347	251.422	-55.449	153.673	-51.368	221.162	127.266	238.459	149.268	-89.120	224.274	241.195	-52.032	0.00017351	0.00051196	0.00012947	1186.6	2.1781e-06	3.6786e-06	962.36	365.48	1.0282e-06	3.6799e-06	303.82	98.47	105.43	38.332	3.3779e-06	45.159	0.00018774	0.00014755	3.8402e-05	1218.5	1.6264e-06	1.5126e-06	993.19	376.33	1.8483e-06	1.5913e-06	313.81	102.81	109.08	39.439	1.6744e-06	46.612	178.442	0.878	-1.955	-75.040	87.706	73.862	-76.093	-71.482	-1.619	63.288	-72.477	-68.654	-66.930	-62.389	73.064	-64.398	-8191	255	
4270.144	1	1	0	0	0.1383	0.056653	0.35529	0.22075	0.30244	0.23307	0.069882	0.17648	0.29012	0.53089	0.14423	0.16508	0.070835	0.2816	0.26354	0.070366	-2.5021	-2.3896	-2.9938	-2.9104	-2.5271	-3.1583	-2.8792	-3.1333	-2.8167	-2.4583	-3.25	-2.9417	-2.6417	-3.2188	-2.6458	-2.7792	134.916	193.574	260.795	202.250	82.712	188.312	-61.188	-19.316	191.563	-30.241	-47.915	139.261	261.900	126.085	-41.410	177.137	0.00013846	0.0005822	0.00010513	1189.4	3.4639e-06	7.458e-06	965.63	365.05	2.2216e-06	3.1854e-06	305.05	98.424	103.81	37.67	1.9125e-06	44.494	0.00018734	0.0001509	3.7685e-05	1222.3	1.7501e-06	1.5524e-06	991.76	376.03	1.8373e-06	1.5274e-06	313.31	102.51	108.1	38.947	1.5625e-06	46.085	166.182	-7.103	-12.352	-74.914	61.530	64.311	-75.980	-71.494	15.864	85.318	-72.743	-68.987	-66.929	-62.126	21.214	-64.522	-8191	255	
4270.242	1	1	0	0	0.11763	0.079847	0.26261	0.049265	0.2704	0.26566	0.050177	0.14476	0.09021	0.11603	0.27168	0.42952	0.21677	0.30439	0.45434	0.2831	-2.9667	-2.2875	-2.8021	-3.0729	-2.5708	-3.0021	-2.6458	-2.7396	-3.1937	-2.5458	-3.0708	-2.9667	-2.5042	-2.8375	-2.6	-2.6646	-61.223	113.626	-56.705	245.366	-42.817	108.335	105.199	7.605	259.848	206.320	241.534	186.197	183.968	175.576	7.578	193.468	0.00015678	0.00042456	0.0001314	1178.8	7.6616e-07	4.7058e-06	951.61	358.4	2.7878e-06	4.0214e-06	299.47	97.533	101.87	36.851	1.5235e-06	43.752	0.0001824	0.00015013	4.2229e-05	1211.3	1.6379e-06	1.4579e-06	981.32	370.26	1.6978e-06	1.5179e-06	309.36	101.17	106.22	38.179	1.553e-06	45.522	177.498	-21.141	0.222	-75.037	49.403	64.429	-76.148	-71.359	37.855	85.927	-72.632	-68.495	-67.171	-62.468	-13.118	-64.315	-8191	255	
4270.361	1	1	0	0	0.087277	0.16992	0.29942	0.19395	0.11477	0.14188	0.22493	0.095038	0.1359	0.20493	0.16953	0.031951	0.25707	0.28302	0.29337	0.16469	-2.8833	-2.3917	-2.95	-3.2313	-2.2562	-3.2375	-2.8625	-2.6875	-3.2188	-2.7958	-2.8729	-3.1937	-2.5104	-3.2021	-2.7458	-2.6646	34.328	41.473	-51.721	212.264	-47.491	240.713	228.536	-36.596	70.083	80.556	39.124	163.452	-85.298	229.353	109.667	41.438	0.00014517	0.00048945	0.00013203	1170.5	1.5566e-06	5.6321e-06	944.27	354.75	1.5927e-06	5.6965e-06	297.6	96.312	101.63	36.503	2.1986e-06	43.204	0.0001787	0.00014713	3.9204e-05	1199.7	1.7051e-06	1.4724e-06	974.13	365.73	1.6366e-06	1.5587e-06	306.51	100.27	105.52	37.915	1.5337e-06	44.849	165.525	-19.254	-4.891	-75.047	58.858	65.788	-75.848	-71.375	56.522	89.097	-72.640	-68.632	-67.356	-62.602	55.515	-64.207	-8191	255	
4270.457	1	1	0	0	0.25691	0.18042	0.10718	0.23196	0.1048	0.14208	0.19497	0.34788	0.17909	0.041641	0.11582	0.18832	0.069838	0.22032	0.11119	0.16298	-2.7458	-2.6396	-2.7917	-3.1125	-2.4188	-2.9771	-2.9896	-2.5083	-3.1813	-2.475	-2.8312	-3.0604	-2.5208	-3.0229	-2.8896	-2.5125	-43.369	69.185	83.792	227.295	110.202	97.530	127.066	173.183	201.610	-61.438	205.703	-49.330	11.299	192.454	59.403	221.379	0.00015989	0.0003667	0.00014408	1174.3	3.274e-06	4.3927e-06	943.43	355.28	2.6335e-06	4.0672e-06	297.05	96.498	103.26	36.828	3.5616e-06	43.289	0.00018295	0.00013766	3.9476e-05	1202.1	1.815e-06	1.4976e-06	975.57	367.73	1.7859e-06	1.5071e-06	307.53	100.55	106.77	38.107	1.6487e-06	45.015	169.183	-24.730	3.345	-74.907	-1.943	71.070	-75.993	-71.566	53.050	57.062	-73.104	-69.024	-66.775	-62.644	59.084	-64.323	-8191	255	
4270.553	1	1	0	0	0.20364	0.16533	0.11547	0.17948	0.17663	0.0056327	0.1093	0.14457	0.057289	0.21412	0.21754	0.19846	0.24806	0.13739	0.1251	0.16508	-2.5479	-2.4854	-2.5	-3.0292	-2.2729	-3.0729	-3.0979	-2.4938	-3.2062	-2.9188	-2.7313	-3.3146	-2.3937	-2.8104	-2.9521	-2.6167	54.203	63.901	3.374	-64.007	-16.019	245.518	46.542	206.777	13.307	181.734	70.219	253.818	221.922	-31.189	149.249	176.716	0.00013237	0.00026995	0.00012407	1176.1	2.4661e-06	4.4927e-06	952.84	360.34	2.2572e-06	4.9213e-06	303.3	97.297	102.98	36.682	2.2926e-06	43.194	0.00019109	0.00014859	4.1945e-05	1208.4	1.7908e-06	1.6348e-06	981.93	371.41	1.7833e-06	1.6483e-06	311.45	101.15	107.28	38.06	1.7307e-06	44.861	178.886	-17.114	-4.993	-74.729	58.981	68.785	-76.176	-71.211	26.193	63.979	-73.051	-68.435	-66.655	-62.428	31.619	-64.167	-8191	255	
4270.649	1	1	0	0	0.11558	0.25296	0.22453	0.068429	0.23795	0.24111	0.24708	0.2391	0.18113	0.28285	0.079866	0.27387	0.18315	0.18035	0.097302	0.037609	-2.7958	-2.6125	-2.5521	-3.3438	-2.5333	-2.8104	-3.1354	-2.7458	-2.8979	-2.7646	-2.8125	-3.2458	-2.4917	-2.8333	-2.9792	-2.4625	230.885	195.703	163.484	184.042	-43.455	202.444	215.739	219.610	213.374	-37.268	149.067	156.655	226.297	226.693	186.134	43.104	0.00013932	0.00061005	0.00010485	1182.4	3.114e-06	5.5391e-06	947.87	356.99	2.1464e-06	2.7801e-06	300.88	97.707	102.78	37.351	3.144e-06	44.571	0.00018837	0.00014875	4.1303e-05	1214.9	1.7363e-06	1.5489e-06	979.67	368.97	1.6298e-06	1.4321e-06	309.25	101.52	106.72	38.698	1.4053e-06	46.297	181.618	-14.239	-2.155	-75.055	58.106	90.966	-76.124	-71.424	22.306	61.316	-73.058	-68.397	-67.073	-62.687	43.771	-64.404	-8191	255	
4270.745	1	1	0	0	0.28301	0.26908	0.15427	0.14026	0.065631	0.15963	0.33837	0.24408	0.037349	0.13341	0.24279	0.35057	0.1834	0.15868	0.030417	0.19101	-2.5625	-2.8521	-2.5354	-3.2771	-2.5729	-2.6583	-3.1646	-2.6167	-2.9521	-2.8292	-2.5542	-3.3875	-2.7417	-2.625	-3.1312	-2.5417	11.397	251.658	8.909	184.595	14.669	-43.827	182.411	247.592	-13.897	3.546	222.214	261.123	253.976	243.940	209.024	196.574	0.00016691	0.00045009	0.00015559	1172.6	2.8587e-06	5.5881e-06	950.01	361.93	2.3011e-06	3.7578e-06	304.28	98.649	104.16	37.874	2.4257e-06	45.3	0.0001851	0.00012249	3.7093e-05	1206.7	1.5956e-06	1.3957e-06	983.06	372.39	1.5848e-06	1.3614e-06	312.76	102.49	108.13	39.401	1.3996e-06	47.053	176.490	-19.621	9.391	-74.993	74.850	54.134	-76.004	-71.144	26.700	60.698	-73.165	-68.863	-66.836	-62.786	67.215	-64.413	-8191	255	
4270.841	1	1	0	0	0.035342	0.097962	0.069148	0.26068	0.099285	0.14895	0.11316	0.39039	0.19493	0.022988	0.18515	0.05816	0.05506	0.14406	0.16818	0.074907	-2.5958	-2.8729	-2.3917	-3.2958	-2.5896	-2.625	-3.3542	-2.5354	-2.8875	-3.0917	-2.5438	-2.9479	-2.95	-2.6271	-3.0833	-2.6813	-13.411	228.588	29.664	264.341	23.267	-15.195	258.836	211.700	198.993	144.909	143.837	-9.316	-78.837	221.350	-12.443	31.580	0.00016292	0.00042666	0.00010167	1188.7	2.6693e-06	3.0171e-06	968.26	369.19	2.4081e-06	3.9454e-06	309.35	98.74	105.82	38.645	3.2822e-06	45.579	0.0001821	0.00013515	3.6185e-05	1220	1.732e-06	1.4601e-06	996.69	380.94	1.7728e-06	1.377e-06	317.74	103.11	110.08	40.145	1.6761e-06	47.375	162.508	-21.625	0.989	-75.286	34.942	78.124	-75.964	-71.184	22.704	64.837	-72.624	-68.535	-66.939	-62.531	75.984	-64.061	-8191	255	
4270.937	1	1	0	0	0.40084	0.20987	0.13	0.14859	0.27315	0.12968	0.2231	0.12964	0.13772	0.19288	0.056813	0.17783	0.14568	0.21332	0.11813	0.31856	-2.4313	-2.925	-2.4792	-3.1833	-2.8229	-2.5708	-3.225	-2.7979	-2.7625	-2.9437	-2.4958	-2.9167	-2.9146	-2.6417	-3.1667	-2.5854	69.914	79.137	17.970	261.418	189.817	137.001	183.633	-65.796	234.781	-49.238	186.493	207.772	-46.547	159.886	215.499	118.737	0.00017964	0.00065152	0.00010857	1202	3.7087e-06	3.8317e-06	967.71	373.57	2.7096e-06	3.5081e-06	307.94	100.02	106.21	39.018	2.3741e-06	45.987	0.00019204	0.00013684	3.8247e-05	1238.6	1.6883e-06	1.5376e-06	1001.1	384.97	1.7177e-06	1.4352e-06	319.29	103.77	111.04	40.334	1.5372e-06	47.608	171.639	-17.676	-1.685	-74.951	49.710	71.522	-76.134	-71.604	18.980	46.790	-72.565	-68.631	-67.225	-62.630	45.956	-64.178	-8191	255	
4271.058	1	1	0	0	0.29069	0.21741	0.08724	0.27635	0.16066	0.13883	0.20463	0.13852	0.095206	0.12888	0.1131	0.15628	0.15341	0.14565	0.13218	0.31155	-2.2729	-2.9646	-2.3417	-2.9854	-2.7188	-2.3937	-3.1333	-2.7271	-2.7479	-3.0958	-2.4729	-3	-2.9125	-2.5563	-3.2521	-2.8438	180.142	-34.288	162.052	254.481	-10.490	-13.293	229.931	250.735	140.528	212.558	-52.746	105.825	168.555	229.235	249.749	170.758	0.00015398	0.00053056	0.0001327	1200.4	2.7782e-06	3.6619e-06	973.84	373.27	2.6535e-06	5.5032e-06	310.83	99.875	106.65	38.756	1.1677e-06	46.217	0.00018824	0.00013951	3.9118e-05	1236.2	1.7016e-06	1.4391e-06	1004.1	385.28	1.7775e-06	1.4519e-06	319.68	104.02	110.75	40.271	1.5287e-06	47.683	177.082	-5.408	-13.652	-75.140	49.911	79.021	-75.839	-71.279	52.902	43.104	-72.526	-68.434	-67.102	-62.592	64.458	-64.279	-8191	255	
4271.153	1	1	0	0	0.19902	0.13001	0.12008	0.092029	0.12062	0.15933	0.29709	0.28141	0.29161	0.15463	0.18534	0.22132	0.13292	0.24875	0.086139	0.27922	-2.0729	-3.0792	-2.475	-2.95	-3.0021	-2.5896	-3.1937	-2.8417	-2.5375	-2.9	-2.5521	-2.875	-3.2333	-2.575	-3.0604	-2.9688	123.960	-14.129	58.633	-5.405	-82.633	-37.266	217.887	203.427	8.326	98.791	267.906	-44.241	146.628	24.643	103.213	142.856	0.00019202	0.00043042	0.0001177	1200.5	3.0878e-06	5.5609e-06	972.28	370.56	1.808e-06	4.3238e-06	310.53	99.473	106.57	38.917	2.9435e-06	45.873	0.00018948	0.00012635	3.8148e-05	1235.3	1.6503e-06	1.5035e-06	1002	382.75	1.7534e-06	1.4289e-06	318.85	103.95	110.72	40.215	1.569e-06	47.515	171.116	-25.525	-11.966	-75.080	49.175	71.624	-76.205	-71.188	20.950	52.378	-72.703	-68.741	-67.056	-62.240	50.429	-64.095	-8191	255	
4271.249	1	1	0	0	0.16686	0.11397	0.19553	0.29378	0.32075	0.067623	0.26471	0.31067	0.1777	0.12421	0.19216	0.11393	0.068529	0.21591	0.075701	0.17723	-2.1625	-3.0812	-2.4375	-2.7062	-2.9188	-2.5833	-3.1	-3.1417	-2.3167	-3.2083	-2.6667	-2.6083	-3.1083	-2.4104	-2.9313	-2.9688	-70.271	-41.623	79.234	258.577	245.155	92.355	218.126	193.420	65.412	19.726	253.486	251.644	165.972	222.149	263.868	41.091	0.00016221	0.000493	0.00010586	1199	2.6578e-06	4.8214e-06	977.23	374.66	1.3047e-06	3.3728e-06	311.3	99.193	106.39	38.848	2.8617e-06	45.951	0.0001922	0.00013264	3.8426e-05	1235	1.6772e-06	1.488e-06	1007.2	385.51	1.7529e-06	1.4313e-06	319.25	103.64	110.92	40.175	1.4886e-06	47.494	162.880	-7.431	3.136	-74.979	74.562	45.779	-75.885	-71.290	23.768	41.972	-72.764	-69.125	-67.000	-62.635	68.750	-64.446	-8191	255	
4271.322	1	1	0	0	0.20887	0.18886	0.26408	0.17527	0.15474	0.33429	0.31304	0.19196	0.030893	0.34968	0.048572	0.15028	0.16042	0.14681	0.16248	0.070752	-2.0208	-3.0563	-2.6042	-2.7562	-3.1104	-2.6312	-2.975	-3.1333	-2.5	-2.9708	-2.7313	-2.5812	-3.1562	-2.5125	-2.8625	-3.1479	173.678	166.553	100.431	211.643	173.068	-0.697	175.420	266.389	174.005	-44.803	176.337	-77.322	-55.239	219.050	256.053	20.701	0.00017983	0.0003088	0.00010482	1202	3.0218e-06	5.0568e-06	966.39	372.35	2.0601e-06	3.3897e-06	309.34	99.85	105.75	38.816	3.9679e-06	45.774	0.00018738	0.00012378	3.7278e-05	1233.3	1.6612e-06	1.5274e-06	997.72	382.59	1.7765e-06	1.4514e-06	317.48	103.48	110.07	40.139	1.6835e-06	47.531	173.926	14.596	21.106	-75.074	50.414	83.435	-76.062	-71.440	31.731	52.495	-72.738	-69.011	-67.340	-62.524	45.549	-64.435	-8191	255	
4271.441	1	1	0	0	0.39998	0.14781	0.27613	0.085425	0.20814	0.26777	0.17885	0.14824	0.13398	0.24382	0.10995	0.14608	0.25166	0.10609	0.2304	0.16535	-2.2479	-2.9437	-2.6958	-2.7083	-3.1271	-2.4562	-3.0187	-3.1063	-2.3187	-2.9417	-2.7	-2.5833	-3.0604	-2.8021	-2.8521	-3.2479	198.284	211.010	16.814	245.744	-66.961	42.294	232.261	249.286	190.753	128.112	45.450	-75.755	-77.527	242.464	-59.713	-83.269	0.00018535	0.00046435	0.00014242	1196.8	1.9151e-06	4.8994e-06	972.32	368.44	1.9151e-06	1.563e-06	307.92	99.503	106.32	38.69	3.5247e-06	45.971	0.00019968	0.0001302	3.7278e-05	1229	1.6175e-06	1.4973e-06	1000.3	381.55	1.7714e-06	1.4653e-06	318.01	103.7	110.09	39.968	1.6453e-06	47.712	171.642	7.262	0.419	-75.127	69.701	81.164	-75.856	-71.102	38.049	54.871	-72.663	-69.115	-67.123	-62.609	54.123	-64.520	-8191	255	
4271.537	1	1	0	0	0.28284	0.10404	0.2189	0.18768	0.27821	0.22087	0.052827	0.22472	0.085921	0.36291	0.025102	0.23785	0.24627	0.13412	0.24211	0.078539	-2.0062	-2.975	-2.6937	-2.8083	-3.2917	-2.4667	-2.7833	-3.125	-2.1979	-2.8208	-3.0542	-2.4396	-2.9875	-2.7833	-2.4562	-3.0271	165.150	240.879	8.900	226.656	228.967	-57.211	231.843	-10.151	191.971	255.066	-85.720	218.683	228.037	155.535	126.748	-71.184	0.00016601	0.00055329	0.00013991	1188.2	3.943e-06	5.5189e-06	964.06	368.15	1.2076e-06	4.8364e-06	309.95	101.09	106.71	38.917	2.6013e-06	46.988	0.00018953	0.00012922	3.6037e-05	1222.4	1.6156e-06	1.4223e-06	996.47	379.94	1.6525e-06	1.3426e-06	318.3	105.26	110.6	40.405	1.49e-06	48.649	176.665	-10.421	0.808	-75.155	77.068	86.549	-76.405	-71.191	15.366	45.325	-72.617	-68.658	-66.938	-62.455	31.608	-64.319	-8191	255	
4271.633	1	1	0	0	0.16712	0.20882	0.062879	0.30864	0.069522	0.106	0.075518	0.33275	0.18166	0.095865	0.12698	0.14093	0.18256	0.21696	0.097616	0.22058	-2.0896	-2.8146	-2.9813	-2.5792	-3.0958	-2.7042	-2.4333	-3.2042	-2.3417	-2.6792	-2.9708	-2.4396	-3.0312	-2.9146	-2.4646	-3.1688	205.909	53.682	83.302	237.690	-45.195	-71.202	232.972	194.727	111.408	-74.145	213.987	227.052	216.763	-23.692	232.315	-75.820	0.00015601	0.00037352	0.00012979	1197.8	1.6861e-06	5.6421e-06	966.75	370.91	1.9996e-06	2.9188e-06	309.57	101.08	107.09	39.285	2.7455e-06	46.872	0.00018306	0.00013017	3.6e-05	1227.3	1.6531e-06	1.429e-06	999.67	382.74	1.6831e-06	1.3814e-06	320.42	104.99	110.91	40.58	1.62e-06	48.343	177.718	28.278	-13.084	-75.287	55.330	66.290	-75.957	-71.367	39.682	61.389	-72.551	-69.021	-67.016	-62.398	71.509	-64.233	-8191	255	
4271.729	1	1	0	0	0.22867	0.20708	0.218	0.058035	0.11328	0.25091	0.3111	0.083707	0.096912	0.12021	0.060528	0.2738	0.23206	0.063888	0.22771	0.15743	-2.2938	-2.5583	-2.9938	-2.6271	-2.9979	-2.8812	-2.6521	-3.2271	-2.4979	-2.6729	-3.3896	-2.5625	-3.075	-3.0521	-2.3812	-3.3063	205.532	23.808	249.975	224.667	-2.212	-7.021	208.708	259.753	115.039	229.249	141.720	-52.557	258.138	88.311	100.736	103.551	0.00017214	0.00043538	0.00011734	1199	2.3093e-06	7.3066e-06	975.46	373.29	7.0131e-07	4.7193e-06	312.9	101.7	108.12	39.371	4.0866e-06	46.462	0.00018758	0.00012675	3.5204e-05	1235.8	1.6418e-06	1.5588e-06	1006.8	386.92	1.6703e-06	1.4573e-06	323.67	105.55	112.35	40.79	1.7102e-06	48.326	178.516	-14.935	-9.882	-74.837	82.812	62.932	-75.852	-71.278	53.233	61.812	-72.673	-68.767	-67.065	-62.423	44.547	-64.724	-8191	255	
4271.850	1	1	0	0	0.30592	0.20023	0.14096	0.20711	0.029206	0.23039	0.30885	0.099583	0.089765	0.14158	0.14194	0.23463	0.24699	0.26297	0.15895	0.12731	-2.2792	-2.5	-3.0417	-2.6708	-2.8208	-2.9771	-2.3854	-3.2646	-2.7083	-2.6292	-3.1354	-2.3125	-2.9437	-3.0833	-2.5979	-3.0729	59.306	214.276	97.136	193.667	258.965	121.475	202.663	263.549	83.941	140.272	229.007	215.487	232.695	188.682	-55.925	-25.194	0.000186	0.00049826	0.00013843	1209.3	1.5437e-06	3.652e-06	974.04	375.31	1.7824e-06	5.5642e-06	312.44	101.19	107.39	39.485	2.3926e-06	46.462	0.0001928	0.0001294	3.6661e-05	1241.4	1.6202e-06	1.4275e-06	1007.9	387.01	1.6794e-06	1.5218e-06	323.03	105.25	111.69	40.58	1.5551e-06	48.028	179.714	1.083	-3.715	-75.065	4.093	56.549	-75.836	-71.244	50.234	49.760	-72.847	-68.440	-67.236	-62.526	82.716	-64.511	-8191	255	
4271.944	1	1	0	0	0.21742	0.12396	0.14334	0.21995	0.18055	0.10445	0.10754	0.25425	0.21448	0.31213	0.067987	0.26025	0.093041	0.21573	0.10224	0.061535	-2.2021	-2.5146	-3.1896	-2.65	-2.7396	-2.9458	-2.475	-3.2021	-2.8	-2.6208	-3.1479	-2.8438	-2.6479	-3.2208	-2.4	-3.1063	127.442	99.926	191.374	69.455	187.172	-53.103	124.100	142.277	-85.082	155.952	51.239	157.270	13.545	224.901	103.306	83.405	0.00019473	0.0005155	0.0001224	1203.4	2.683e-06	3.4546e-06	976.6	374.26	2.4312e-06	4.0784e-06	312.83	101.21	107.15	38.854	2.5802e-06	46.484	0.00018681	0.00013882	3.6926e-05	1234.7	1.6883e-06	1.393e-06	1006.1	385.44	1.7212e-06	1.4284e-06	322.7	105.1	111.42	40.314	1.4824e-06	47.978	175.317	-2.653	-2.993	-75.157	50.650	66.703	-75.835	-71.252	33.010	61.984	-72.917	-68.963	-67.204	-62.521	38.311	-64.183	-8191	255	
4272.042	1	1	0	0	0.20198	0.19309	0.054903	0.090645	0.095114	0.12718	0.1147	0.18694	0.11593	0.16224	0.046646	0.18598	0.23854	0.15356	0.24775	0.19518	-2.3771	-2.4583	-3.1458	-2.7396	-2.7062	-2.9979	-2.5792	-3.0187	-3.0458	-2.4458	-3.3521	-2.7	-2.625	-3.1437	-2.3771	-2.925	150.416	-72.051	256.050	-19.293	-40.856	164.969	211.096	201.685	-66.445	3.130	246.852	188.294	218.687	116.260	94.035	-7.680	0.00015108	0.00050305	0.00011903	1201.4	1.486e-06	5.8941e-06	976.94	372.8	4.2439e-07	5.2196e-06	313.89	102.11	107.67	39.216	2.4661e-06	46.498	0.00018096	0.00014604	3.5957e-05	1236.4	1.6497e-06	1.3266e-06	1009.1	386.09	1.6693e-06	1.4565e-06	323.79	106.06	112.15	40.756	1.5723e-06	48.376	176.996	-14.970	4.641	-74.840	57.694	76.009	-76.208	-71.456	32.830	56.929	-72.952	-68.639	-66.910	-62.496	61.979	-64.317	-8191	255	
4272.138	1	1	0	0	0.19063	0.11985	0.1905	0.29182	0.10249	0.095007	0.20894	0.25799	0.22749	0.17047	0.084867	0.33386	0.18831	0.022036	0.060859	0.090176	-2.5625	-2.35	-3.2125	-2.8083	-2.6875	-3.1042	-2.7375	-2.9396	-3.075	-2.3812	-3.0479	-2.8167	-2.6167	-3.2687	-2.4729	-3.0229	261.570	-70.125	-71.514	200.815	260.212	157.223	183.230	249.437	176.033	-60.123	2.415	136.589	170.853	-52.916	40.577	265.711	0.00016655	0.00045395	0.0001056	1205.1	2.4318e-06	6.8297e-06	978.84	377.58	1.7637e-06	3.6783e-06	314.11	101.26	107.43	39.264	2.2267e-06	46.203	0.00018673	0.00013249	3.8445e-05	1239.2	1.7301e-06	1.5267e-06	1012.8	389	1.72e-06	1.527e-06	324.3	105.65	111.86	40.597	1.5769e-06	48.066	170.978	3.536	4.492	-74.860	51.757	55.453	-75.940	-71.527	11.433	55.211	-72.613	-68.597	-67.178	-62.312	50.879	-64.466	-8191	255	
4272.233	1	1	0	0	0.15143	0.10651	0.072386	0.075805	0.19769	0.16454	0.14047	0.18268	0.085683	0.15827	0.4416	0.17355	0.12457	0.29524	0.35615	0.097538	-2.8375	-2.2521	-3.1583	-2.9042	-2.4417	-3.1271	-2.7354	-2.7562	-2.9208	-2.5438	-3.1958	-2.9854	-2.575	-3.0687	-2.625	-2.7979	-23.746	35.364	-62.970	-82.731	-20.663	258.300	148.162	174.128	118.579	197.085	222.699	-49.986	188.447	-21.453	176.626	219.582	0.00016764	0.00073739	0.00014229	1203.5	2.618e-06	4.9077e-06	982.95	377.75	1.6712e-06	4.1998e-06	317.74	101.7	109.27	39.211	2.7645e-06	46.305	0.0001919	0.00014246	3.8784e-05	1238.3	1.7554e-06	1.3587e-06	1012.3	388.59	1.82e-06	1.5839e-06	326.23	105.86	112.94	40.711	1.4945e-06	47.821	175.997	-11.420	-14.215	-74.916	52.106	71.298	-75.779	-71.120	0.575	79.210	-72.459	-68.510	-67.198	-62.682	71.415	-64.377	-8191	255	
4272.329	1	1	0	0	0.11174	0.10762	0.12478	0.1582	0.038669	0.12366	0.076734	0.20101	0.17421	0.057584	0.23256	0.14391	0.1586	0.27833	0.041795	0.20472	-2.7708	-2.3479	-2.8417	-3.1937	-2.5604	-3.3104	-2.7146	-2.8208	-3.3375	-2.6	-2.8854	-3.1312	-2.525	-3.1792	-2.7875	-2.725	191.054	19.694	22.489	-85.776	74.594	-64.320	61.557	38.146	22.747	231.752	126.767	174.725	172.299	257.921	165.882	236.996	0.00019492	0.00041603	0.00010934	1213.4	2.0864e-06	5.196e-06	982.05	376.74	1.5018e-06	4.4054e-06	313.83	101.01	108.17	39.04	4.7066e-06	46.133	0.00018559	0.00013788	3.7747e-05	1248.2	1.672e-06	1.5583e-06	1013.6	388.2	1.7088e-06	1.5556e-06	323.66	105.17	111.84	40.484	1.6353e-06	47.856	175.969	-18.489	1.401	-75.018	79.880	53.196	-76.057	-71.322	49.326	55.163	-72.813	-68.746	-67.234	-62.515	46.013	-64.534	-8191	255	
4272.450	1	1	0	0	0.14811	0.15482	0.12565	0.30806	0.26557	0.18063	0.040468	0.21431	0.23351	0.22184	0.22176	0.067845	0.11702	0.25168	0.059517	0.11627	-2.5208	-2.5458	-2.6792	-3.0208	-2.6021	-3.1458	-2.9417	-2.8625	-3.0333	-2.5125	-2.8563	-3.2021	-2.4167	-3.0875	-3.0083	-2.5687	117.289	-31.255	37.865	206.842	31.896	-22.060	122.625	188.185	62.935	210.322	-58.732	170.936	87.000	260.689	-51.114	2.635	0.00016573	0.00063136	0.00016468	1223.9	2.4758e-06	3.955e-06	984.59	377.69	2.2239e-06	4.396e-06	316.66	101.57	108.28	38.663	2.8924e-06	45.505	0.00018703	0.00014164	3.8716e-05	1244.7	1.72e-06	1.4571e-06	1015.1	389.2	1.7065e-06	1.4526e-06	325.27	105.89	112.38	40.202	1.6616e-06	47.246	172.174	-6.955	8.107	-75.054	38.740	93.287	-76.083	-71.340	32.185	54.943	-72.708	-68.623	-67.104	-62.411	28.700	-64.140	-8191	255	
4272.546	1	1	0	0	0.41185	0.09116	0.27307	0.20966	0.27462	0.28392	0.022505	0.57942	0.20504	0.16708	0.27812	0.20875	0.35423	0.23609	0.10743	0.10651	-2.8187	-2.6188	-2.9333	-3.3875	-2.3812	-3.075	-2.9771	-2.5604	-3.2875	-2.4896	-2.6021	-3.1458	-2.5583	-2.9562	-2.9979	-2.5917	236.416	144.932	151.207	-85.968	101.309	-3.630	-76.477	262.260	9.544	103.782	-52.102	-64.263	-88.749	240.556	146.585	68.642	0.00014957	0.00062301	0.00015369	1207.2	2.3624e-06	2.3508e-06	987.82	375.87	1.2419e-06	3.0772e-06	317.1	101.19	108.25	38.644	1.9123e-06	45.427	0.00019343	0.00013953	4.0686e-05	1244.2	1.7948e-06	1.4776e-06	1015.6	388.59	1.6674e-06	1.603e-06	325.82	105.44	112.37	40.054	1.6126e-06	47.257	173.435	-4.375	-17.017	-75.015	90.304	85.684	-76.004	-71.192	3.540	59.490	-72.610	-68.482	-67.141	-62.555	66.060	-64.316	-8191	255	
4272.617	1	1	0	0	0.16687	0.25462	0.1329	0.22003	0.15451	0.26057	0.1569	0.19147	0.13102	0.19325	0.26147	0.18034	0.058358	0.10463	0.1578	0.057771	-2.5833	-2.6375	-2.6937	-3.4042	-2.5646	-2.8521	-3.1312	-2.5354	-2.9792	-2.8542	-2.5062	-3.1771	-2.6188	-2.9104	-2.8521	-2.3979	110.273	-60.253	245.136	194.228	248.530	76.258	245.655	232.485	-29.213	199.231	189.057	185.531	27.471	241.906	71.025	201.548	0.00018081	0.00055855	9.5272e-05	1215.6	3.0358e-06	5.456e-06	980.05	376.67	2.4594e-06	4.787e-06	315.09	101.76	107.28	38.861	3.1914e-06	44.939	0.00019693	0.00015255	4.1414e-05	1246.4	1.9111e-06	1.5156e-06	1013.3	389.67	1.8419e-06	1.5042e-06	324.89	105.08	111.92	40.162	1.7544e-06	46.789	172.345	-11.080	-12.044	-74.928	27.748	72.076	-75.870	-71.529	32.891	44.266	-72.928	-68.900	-67.154	-62.532	22.934	-64.154	-8191	255	
4272.738	1	1	0	0	0.12788	0.25434	0.093335	0.25044	0.0019528	0.26525	0.21107	0.1378	0.13208	0.14507	0.28061	0.16166	0.26809	0.2155	0.19774	0.1439	-2.55	-2.8396	-2.5312	-3.2375	-2.4625	-2.775	-3.1958	-2.4208	-3.0021	-2.7958	-2.525	-3.0958	-2.5646	-2.725	-3.0521	-2.5083	-82.955	170.849	123.528	-30.084	180.000	44.107	110.774	-23.643	212.911	89.510	-69.316	91.821	241.143	197.804	9.701	-8.509	0.00014285	0.00047804	0.00013481	1226.4	1.0315e-06	5.3348e-06	996.09	382.56	2.0579e-06	4.3509e-06	318.29	101.16	108.39	38.066	1.9528e-06	45.101	0.00019796	0.00014999	4.6242e-05	1261.2	1.9424e-06	1.7813e-06	1027.6	395.88	1.9833e-06	1.7424e-06	328.89	105.2	112.59	39.853	1.752e-06	46.642	170.675	-3.625	-6.576	-75.142	42.566	56.678	-75.850	-71.242	7.878	46.416	-72.761	-68.889	-67.144	-62.521	73.135	-64.280	-8191	255	
4272.834	1	1	0	0	0.28237	0.14929	0.342	0.18094	0.072117	0.19607	0.074857	0.081135	0.015235	0.098396	0.31565	0.0074702	0.31831	0.084861	0.038601	0.11897	-2.6104	-2.7521	-2.4479	-3.0917	-2.5625	-2.6375	-3.4104	-2.6312	-2.8271	-2.9104	-2.4333	-3.15	-2.7646	-2.6229	-3.1063	-2.6625	237.184	32.885	135.262	-67.667	-57.436	199.639	153.363	-35.989	224.054	-77.595	-21.998	135.263	-63.007	101.024	13.189	241.373	0.00014614	0.00047197	0.00015773	1228.7	3.193e-06	7.6616e-06	997.87	382.56	1.4395e-06	3.8654e-06	319.35	99.681	107.55	38.249	2.5351e-06	44.614	0.00020005	0.00015379	4.4236e-05	1262.5	1.9116e-06	1.7117e-06	1025.9	394.53	1.9265e-06	1.6605e-06	328.15	104.38	111.93	39.581	1.7529e-06	46.169	167.092	-30.795	-9.750	-74.932	60.321	76.308	-75.879	-71.120	28.547	53.250	-72.855	-68.470	-67.172	-62.406	46.008	-64.055	-8191	255	
4272.930	1	1	0	0	0.1944	0.10444	0.14059	0.34976	0.036897	0.24413	0.21946	0.2753	0.22127	0.25868	0.091426	0.19014	0.075571	0.26782	0.18643	0.070531	-2.3583	-2.7729	-2.4521	-3.2625	-2.9167	-2.4854	-3.1521	-2.7979	-2.8375	-2.9708	-2.6063	-3.0938	-2.7562	-2.6917	-3.2604	-2.5938	-71.283	-18.932	88.048	209.628	32.032	102.519	254.066	249.744	221.208	229.990	66.937	232.294	190.924	-57.063	134.882	-67.175	0.00014563	0.00073701	0.00011304	1224.9	1.5495e-06	7.4293e-06	993.15	380.65	3.1365e-07	4.3519e-06	314.4	99.585	106.91	37.802	1.8853e-06	43.791	0.00019753	0.00016339	4.473e-05	1262	1.8414e-06	1.6883e-06	1022.4	391.85	1.9235e-06	1.569e-06	326	103.92	111.28	39.09	1.6985e-06	45.695	170.208	-20.422	10.651	-75.019	47.389	60.441	-75.941	-71.228	177.307	64.886	-72.537	-68.871	-67.076	-62.520	41.912	-63.927	-8191	255	
4273.027	1	1	0	0	0.22039	0.068438	0.097133	0.37752	0.046911	0.1148	0.10719	0.23636	0.029475	0.11811	0.276	0.049472	0.25998	0.086505	0.39995	0.23807	-2.4729	-3.1083	-2.4792	-3.0604	-2.9729	-2.5333	-3.1	-2.8312	-2.4729	-3.0563	-2.5375	-3.0729	-2.9854	-2.5687	-3.0604	-2.6854	250.020	175.149	216.640	233.284	239.174	-81.988	253.355	257.077	88.500	-9.561	157.953	50.208	250.041	197.775	62.674	262.571	0.00014781	0.00061082	0.00012089	1231.5	2.5684e-06	5.915e-06	996.3	382.84	2.0285e-06	3.204e-06	317.85	99.676	107.68	37.408	4.3336e-06	43.792	0.00020595	0.00016601	4.4119e-05	1266.1	1.8502e-06	1.713e-06	1028.6	395.5	1.9602e-06	1.6774e-06	327.81	103.52	111.78	38.964	1.7978e-06	45.305	174.938	-8.349	7.445	-75.070	91.097	66.853	-75.552	-71.223	-13.218	92.063	-72.132	-68.356	-67.078	-62.720	26.482	-64.292	-8191	255	
4273.145	1	1	0	0	0.10978	0.14908	0.1253	0.062499	0.23435	0.089795	0.16517	0.32986	0.11482	0.072209	0.23298	0.21224	0.076234	0.19281	0.19478	0.10066	-2.2687	-3.0583	-2.3792	-3.0187	-3.0833	-2.5312	-3.1979	-2.7875	-2.7083	-3.3187	-2.4833	-2.9708	-3.0083	-2.5917	-3.1708	-2.8479	53.333	251.525	23.679	-64.089	240.663	89.980	266.982	208.368	248.620	86.227	-36.107	165.762	-63.110	-62.760	178.598	-41.301	0.00016717	0.00063411	0.00013058	1240.9	2.4374e-06	6.3158e-06	1003.1	386.53	2.3804e-06	5.1002e-06	318.89	99.632	107.58	37.897	1.7963e-06	44.111	0.00019995	0.00016826	4.7786e-05	1277.7	2.1132e-06	1.9555e-06	1034.4	398.84	2.1592e-06	1.7522e-06	328.6	103.23	111.95	39.299	1.8548e-06	45.719	170.789	-4.368	18.705	-74.980	77.183	76.758	-75.926	-71.212	69.043	51.733	-72.563	-69.231	-67.171	-62.565	51.700	-64.010	-8191	255	
4273.242	1	1	0	0	0.029193	0.25223	0.05196	0.30193	0.2834	0.064202	0.11869	0.26572	0.13539	0.18708	0.15126	0.22083	0.10234	0.045938	0.2004	0.21582	-2.35	-3.1104	-2.5042	-2.9313	-2.9729	-2.3667	-3.1604	-2.9146	-2.4146	-2.9875	-2.5958	-2.7438	-3.1688	-2.5563	-2.8875	-2.8271	84.709	238.612	27.653	243.065	223.277	178.943	-50.427	205.849	125.189	103.755	-59.262	-35.610	-37.506	213.134	199.550	143.360	0.0001574	0.00065151	8.098e-05	1242.2	2.4966e-06	5.1716e-06	993.22	384.44	2.9067e-06	4.2535e-06	317.98	99.818	108.28	38.356	3.5456e-06	44.609	0.00019393	0.00015479	4.155e-05	1273.8	1.7805e-06	1.5442e-06	1027.1	396.19	1.8471e-06	1.4108e-06	327.6	103.86	112.07	39.687	1.689e-06	46.48	177.535	-9.393	-20.826	-74.896	45.052	53.501	-76.142	-71.335	37.250	72.075	-72.729	-68.787	-67.223	-62.961	66.711	-64.030	-8191	255	
4273.313	1	1	0	0	0.112	0.15279	0.19936	0.3318	0.18728	0.0059952	0.22506	0.086056	0.23275	0.1885	0.030849	0.19255	0.16159	0.21134	0.20137	0.08948	-1.9542	-3.0542	-2.65	-2.85	-2.9396	-2.4188	-3.0125	-3.0958	-2.4875	-3.0458	-2.9042	-2.7229	-3.1854	-2.5875	-2.7958	-3.1083	75.031	35.949	57.464	263.692	215.005	245.370	206.248	-77.521	168.920	214.244	69.465	224.577	-88.368	-86.852	-61.304	250.216	0.00018599	0.0004425	0.00012518	1235.2	3.2812e-06	6.4613e-06	987.66	383.37	2.0842e-06	3.5142e-06	320.49	100.11	108.05	38.538	2.0862e-06	45.027	0.00018089	0.00014424	3.8457e-05	1268	1.5975e-06	1.5524e-06	1025.6	396.09	1.8137e-06	1.4404e-06	328.29	104.07	112.37	39.78	1.6217e-06	46.459	166.066	2.657	-13.122	-75.247	36.349	76.883	-75.913	-71.338	60.424	88.592	-72.596	-69.027	-67.112	-62.599	51.748	-64.427	-8191	255	
4273.409	1	1	0	0	0.18552	0.016935	0.10735	0.26422	0.10939	0.23326	0.31188	0.23554	0.20426	0.1795	0.23762	0.073814	0.37012	0.12601	0.14276	0.069497	-2.1479	-3.0083	-2.5792	-2.7521	-3.0083	-2.5062	-2.9417	-3.0563	-2.4146	-3.1208	-2.8396	-2.4375	-3.0646	-2.4708	-2.7833	-3.125	248.193	242.229	231.177	-63.387	16.360	166.505	-49.988	223.627	-23.091	13.065	262.887	185.081	-36.724	19.332	-16.760	-25.395	0.00017139	0.00041724	0.000119	1233.9	2.5857e-06	5.6376e-06	1004.6	386.51	1.7507e-06	3.8841e-06	320.8	100.95	108.95	38.906	2.6638e-06	44.983	0.00018275	0.00012298	3.784e-05	1271	1.6782e-06	1.5003e-06	1034.2	399.78	1.9312e-06	1.5157e-06	331.4	104.75	113.28	40.176	1.6914e-06	46.825	178.324	3.912	11.616	-75.156	66.449	68.535	-76.008	-71.357	55.572	68.514	-72.825	-68.932	-67.025	-62.511	36.003	-64.324	-8191	255	
4273.530	1	1	0	0	0.10524	0.1961	0.086125	0.48177	0.25432	0.32598	0.38493	0.20369	0.092874	0.26766	0.37371	0.17545	0.1667	0.22468	0.15971	0.23063	-1.9688	-3.025	-2.6646	-2.7396	-3.1271	-2.4646	-2.7521	-3.3812	-2.5187	-2.9583	-3.0375	-2.5979	-3.25	-2.7521	-2.5292	-3.1021	84.264	248.657	-36.117	270.603	158.751	13.032	268.606	-29.671	260.028	22.195	206.740	-62.645	176.513	212.540	-67.745	242.128	0.00015857	0.00049307	0.00012304	1242.2	5.6063e-07	4.423e-06	992.15	387.49	2.0106e-06	3.4132e-06	320.02	99.653	108.47	38.866	2.4455e-06	44.895	0.00019393	0.00013371	3.9284e-05	1276.9	1.6706e-06	1.5186e-06	1029	399.27	1.8303e-06	1.4379e-06	329.58	104.21	112.63	40.188	1.6718e-06	46.693	173.185	-9.081	-27.652	-74.989	76.790	56.339	-75.951	-71.274	12.115	80.631	-72.446	-68.588	-67.625	-62.865	67.309	-64.461	-8191	255	
4273.626	1	1	0	0	0.23454	0.1791	0.067179	0.1641	0.41249	0.065559	0.28791	0.19154	0.15697	0.11241	0.14351	0.069508	0.14886	0.23662	0.35798	0.087049	-1.8813	-2.8875	-2.9062	-2.6396	-3.125	-2.7188	-2.6771	-3.2771	-2.5687	-2.7062	-3.0729	-2.5542	-3.1729	-2.9062	-2.6854	-3.2833	82.344	55.379	111.157	-46.986	99.007	-29.577	175.201	219.704	80.898	197.316	175.816	-41.084	116.957	-47.269	-81.290	264.921	0.00015636	0.00043317	0.00010612	1235.6	1.8495e-06	3.7608e-06	993.84	383.52	2.0621e-06	5.1158e-06	316.74	99.584	108.03	38.691	2.9804e-06	45.44	0.00018796	0.00013646	3.8013e-05	1268.6	1.7097e-06	1.446e-06	1024.6	395.87	1.7681e-06	1.4206e-06	327.54	104.19	112.6	40.157	1.5847e-06	46.91	173.551	-5.174	15.723	-75.163	88.298	105.778	-75.894	-71.406	12.958	53.714	-72.927	-69.032	-67.063	-62.720	62.209	-64.069	-8191	255	
4273.722	1	1	0	0	0.33182	0.12835	0.083606	0.0744	0.195	0.18602	0.11016	0.040247	0.13624	0.056221	0.18785	0.081432	0.13076	0.27974	0.25764	0.30077	-2.0896	-2.6958	-3.1083	-2.6333	-2.8854	-2.8646	-2.6208	-3.2792	-2.45	-2.5521	-2.8792	-2.3479	-2.8083	-2.7958	-2.3167	-3.0104	-45.086	62.164	229.007	-35.337	-21.814	158.370	83.654	-20.346	15.848	-69.397	136.869	-55.630	253.329	242.687	-15.587	31.431	0.00014095	0.00042773	0.00015605	1231.9	3.2421e-06	6.3723e-06	989.18	383.11	2.1171e-06	3.2491e-06	317.69	100.93	108.9	38.809	2.7757e-06	45.41	0.00019068	0.00013453	3.8395e-05	1264.1	1.7081e-06	1.561e-06	1021.7	395.98	1.734e-06	1.4335e-06	328.04	104.93	112.71	40.249	1.5916e-06	47.29	170.390	-2.394	-1.366	-74.844	94.032	74.839	-76.108	-71.241	43.491	36.783	-72.719	-68.782	-66.963	-62.611	28.276	-64.299	-8191	255	
4273.843	1	1	0	0	0.32334	0.17147	0.068991	0.16118	0.16866	0.1582	0.16251	0.25088	0.13606	0.34485	0.16793	0.41126	0.11747	0.18607	0.18263	0.21556	-2.0125	-2.4625	-2.9333	-2.3833	-2.8458	-2.8708	-2.3937	-3.0583	-2.4271	-2.4562	-2.8333	-2.2583	-2.825	-2.7917	-2.3875	-3.1312	18.303	268.937	3.818	232.194	232.671	261.685	221.235	154.311	18.040	246.444	-15.394	226.937	-17.906	210.182	-48.867	227.972	0.00016319	0.0003777	0.00014979	1231.3	1.3398e-06	5.8264e-06	995.42	386.29	2.281e-06	4.4528e-06	322.14	101.12	108.98	38.954	3.2499e-06	45.203	0.00018932	0.00013722	3.7371e-05	1264.5	1.6628e-06	1.4576e-06	1028.1	399.3	1.7866e-06	1.5695e-06	331.41	105.48	113.41	40.312	1.6589e-06	47.037	165.248	-22.161	2.587	-74.963	27.168	77.411	-75.724	-71.434	43.853	75.220	-72.775	-68.956	-67.063	-62.446	58.460	-64.059	-8191	255	
4273.915	1	1	0	0	0.19434	0.10828	0.068193	0.20748	0.015735	0.076703	0.42954	0.29139	0.10973	0.055066	0.15747	0.16575	0.047656	0.13948	0.30172	0.24362	-2.1354	-2.5542	-2.8229	-2.4708	-2.6917	-2.9062	-2.275	-2.9188	-2.5021	-2.4	-3.1708	-2.4958	-2.6354	-2.8583	-2.2562	-2.9021	-50.055	20.770	-83.342	-83.487	-55.138	223.825	162.031	211.768	26.938	35.626	177.041	244.723	182.522	245.136	123.283	234.585	0.00019009	0.00042461	0.00013909	1235.9	2.7861e-06	4.2575e-06	992.56	386.61	1.5038e-06	4.4307e-06	320.78	101.07	108.85	38.787	4.1096e-06	45.255	0.00019446	0.00013848	4.0198e-05	1268.2	1.6342e-06	1.5047e-06	1027.1	398.78	1.7707e-06	1.503e-06	329.59	105.1	113.14	40.309	1.6134e-06	46.973	183.326	-30.892	-2.236	-74.953	39.384	63.249	-75.800	-71.245	36.632	46.171	-72.938	-68.962	-67.032	-62.234	45.002	-64.452	-8191	255	
4274.011	1	1	0	0	0.093129	0.33831	0.059968	0.25149	0.014714	0.13755	0.25917	0.16924	0.066883	0.094552	0.2189	0.15183	0.079648	0.16588	0.12375	0.10657	-2.2125	-2.1146	-2.8417	-2.6771	-2.5917	-2.7687	-2.2854	-3.0917	-2.6979	-2.2	-3.0417	-2.3812	-2.6229	-3.0667	-1.9792	-2.9	264.198	-83.193	-51.673	-77.834	240.151	92.452	130.918	236.777	176.258	142.510	71.793	261.289	-56.832	58.767	-86.378	244.685	0.00014795	0.00048214	0.00012667	1222.8	1.9591e-06	3.0689e-06	989.25	382.98	2.1984e-06	6.2135e-06	317.86	100.41	107.76	38.449	3.0637e-06	45.155	0.00018628	0.00014462	3.8914e-05	1259.2	1.7258e-06	1.4102e-06	1021.3	394.64	1.7144e-06	1.4788e-06	326.41	104.68	112.17	39.935	1.5821e-06	47.003	177.614	-2.018	0.478	-74.984	68.352	51.511	-75.975	-71.133	-8.566	56.095	-72.753	-68.796	-66.923	-62.200	68.442	-64.531	-8191	255	
4274.130	1	1	0	0	0.15207	0.12054	0.20543	0.28965	0.15451	0.24217	0.25135	0.27692	0.25609	0.0365	0.16376	0.16409	0.095042	0.2154	0.078376	0.12847	-2.3208	-2.2854	-2.9313	-2.5479	-2.2979	-2.8208	-2.5083	-2.9583	-2.8458	-2.1646	-2.9458	-2.4875	-2.5083	-2.9729	-2.5458	-2.85	-2.933	107.567	130.027	136.113	224.205	51.738	148.792	-84.714	143.486	110.724	100.613	250.299	-63.610	-72.993	87.859	-27.353	0.00017005	0.00047595	0.00011736	1213.4	2.7874e-06	4.5875e-06	983.25	376.37	2.5622e-06	4.6531e-06	316.31	100.75	107.22	38.597	2.6261e-06	45.506	0.00019212	0.00013753	3.8044e-05	1247.4	1.6825e-06	1.4184e-06	1011.4	387.78	1.6667e-06	1.3956e-06	323.9	104.73	111.07	40.015	1.6208e-06	47.111	172.637	17.883	-5.800	-74.974	31.258	60.400	-76.135	-71.150	28.650	82.173	-72.680	-68.819	-66.991	-62.847	54.434	-64.356	-8191	255	
#DATA ENDS
