BOXY.EXE: ISS Imagent and Oximeter Data Acquisition Program Version 0.80
Ascii Record File

#ACQ INFORMATION
2  Detector Channels 
16  External MUX Channels 
1  Auxiliary Channels 
5000  Waveform (CCF) Frequency (Hz)
1  Waveforms Skipped 
30  Waveforms Averaged 
1  Cycles Averaged 
16  Acquisitions per Waveform 
10.0806  Updata Rate (Hz) 

#FILE INFORMATION
TRUE -- External MUX Channel results are PARSED.
FALSE -- AC DC and Phase are NOT grouped.
TRUE -- Companion Program Settings File CREATED.
FALSE -- AC data not excluded
FALSE -- DC data not excluded
FALSE -- Phase data not excluded
FALSE -- Auxillary Chn. data not excluded
Tab delimiters

#CALIBRATION STATE
TRUE -- Waveform Calibration Values APPLIED.


#AUX CALIBRATION VALUES
Val Type	aux-1	

Term	1.0000e+00	
Factor	0.0000e+00	


#WF CALIBRATION VALUES
A = Detector Channel
Val Type	A-AC1	A-AC2	A-AC3	A-AC4	A-AC5	A-AC6	A-AC7	A-AC8	A-AC9	A-AC10	A-AC11	A-AC12	A-AC13	A-AC14	A-AC15	A-AC16	A-DC1	A-DC2	A-DC3	A-DC4	A-DC5	A-DC6	A-DC7	A-DC8	A-DC9	A-DC10	A-DC11	A-DC12	A-DC13	A-DC14	A-DC15	A-DC16	A-Ph1	A-Ph2	A-Ph3	A-Ph4	A-Ph5	A-Ph6	A-Ph7	A-Ph8	A-Ph9	A-Ph10	A-Ph11	A-Ph12	A-Ph13	A-Ph14	A-Ph15	A-Ph16	

Term	0.00000e+00	0.00000e+00	0.00000e+00	0.00000e+00	0.00000e+00	0.00000e+00	0.00000e+00	0.00000e+00	0.00000e+00	0.00000e+00	0.00000e+00	0.00000e+00	0.00000e+00	0.00000e+00	0.00000e+00	0.00000e+00	0.00000e+00	0.00000e+00	0.00000e+00	0.00000e+00	0.00000e+00	0.00000e+00	0.00000e+00	0.00000e+00	0.00000e+00	0.00000e+00	0.00000e+00	0.00000e+00	0.00000e+00	0.00000e+00	0.00000e+00	0.00000e+00	0.00000e+00	0.00000e+00	0.00000e+00	0.00000e+00	0.00000e+00	0.00000e+00	0.00000e+00	0.00000e+00	0.00000e+00	0.00000e+00	0.00000e+00	0.00000e+00	0.00000e+00	0.00000e+00	0.00000e+00	0.00000e+00	
Factor	1.00000e+00	1.00000e+00	1.00000e+00	1.00000e+00	1.00000e+00	1.00000e+00	1.00000e+00	1.00000e+00	1.00000e+00	1.00000e+00	1.00000e+00	1.00000e+00	1.00000e+00	1.00000e+00	1.00000e+00	1.00000e+00	1.00000e+00	1.00000e+00	1.00000e+00	1.00000e+00	1.00000e+00	1.00000e+00	1.00000e+00	1.00000e+00	1.00000e+00	1.00000e+00	1.00000e+00	1.00000e+00	1.00000e+00	1.00000e+00	1.00000e+00	1.00000e+00	X	X	X	X	X	X	X	X	X	X	X	X	X	X	X	X	

B = Detector Channel
Val Type	B-AC1	B-AC2	B-AC3	B-AC4	B-AC5	B-AC6	B-AC7	B-AC8	B-AC9	B-AC10	B-AC11	B-AC12	B-AC13	B-AC14	B-AC15	B-AC16	B-DC1	B-DC2	B-DC3	B-DC4	B-DC5	B-DC6	B-DC7	B-DC8	B-DC9	B-DC10	B-DC11	B-DC12	B-DC13	B-DC14	B-DC15	B-DC16	B-Ph1	B-Ph2	B-Ph3	B-Ph4	B-Ph5	B-Ph6	B-Ph7	B-Ph8	B-Ph9	B-Ph10	B-Ph11	B-Ph12	B-Ph13	B-Ph14	B-Ph15	B-Ph16	

Term	0.00000e+00	0.00000e+00	0.00000e+00	0.00000e+00	0.00000e+00	0.00000e+00	0.00000e+00	0.00000e+00	0.00000e+00	0.00000e+00	0.00000e+00	0.00000e+00	0.00000e+00	0.00000e+00	0.00000e+00	0.00000e+00	0.00000e+00	0.00000e+00	0.00000e+00	0.00000e+00	0.00000e+00	0.00000e+00	0.00000e+00	0.00000e+00	0.00000e+00	0.00000e+00	0.00000e+00	0.00000e+00	0.00000e+00	0.00000e+00	0.00000e+00	0.00000e+00	-1.41723e+02	-1.33427e+02	-1.27657e+02	-1.82643e+02	-7.29312e+01	-5.90420e+01	-1.56437e+02	-1.62015e+02	-7.50620e+01	-6.54826e+01	-1.75898e+02	-1.69904e+02	-1.79084e+02	-1.76332e+02	-7.30813e+01	-1.49000e+02	
Factor	2.19948e-05	1.76772e-04	4.22463e-05	1.51783e-01	1.32281e-06	2.01978e-06	1.85373e-01	5.47419e-02	1.24077e-06	1.63382e-06	9.98567e-02	3.00697e-02	2.75195e-02	9.87689e-03	1.39127e-06	1.39770e-02	7.96078e-06	1.06646e-05	2.96347e-06	7.91364e-02	1.10375e-07	1.18425e-07	9.07823e-02	2.86722e-02	1.12129e-07	1.17383e-07	5.04514e-02	1.53297e-02	1.45971e-02	5.20825e-03	1.14524e-07	7.14204e-03	X	X	X	X	X	X	X	X	X	X	X	X	X	X	X	X	



#DISTANCE SETTINGS
A = Detector Channel
A-1	A-2	A-3	A-4	A-5	A-6	A-7	A-8	A-9	A-10	A-11	A-12	A-13	A-14	A-15	A-16	

2.5000e+00	3.0000e+00	2.5000e+00	3.0000e+00	2.0000e+00	3.0000e+00	1.5000e+00	3.0000e+00	3.0000e+00	3.0000e+00	3.0000e+00	3.0000e+00	3.0000e+00	3.0000e+00	1.5000e+00	3.0000e+00	

B = Detector Channel
B-1	B-2	B-3	B-4	B-5	B-6	B-7	B-8	B-9	B-10	B-11	B-12	B-13	B-14	B-15	B-16	

1.0000e+01	1.0000e+01	1.0000e+01	1.4400e+00	1.0000e+01	1.0000e+01	1.5100e+00	1.9400e+00	1.0000e+01	1.0000e+01	1.9900e+00	2.4900e+00	2.4100e+00	2.9000e+00	1.0000e+01	2.9800e+00	




#DATA BEGINS
time	group	step	mark	flag	A-AC1	A-AC2	A-AC3	A-AC4	A-AC5	A-AC6	A-AC7	A-AC8	A-AC9	A-AC10	A-AC11	A-AC12	A-AC13	A-AC14	A-AC15	A-AC16	A-DC1	A-DC2	A-DC3	A-DC4	A-DC5	A-DC6	A-DC7	A-DC8	A-DC9	A-DC10	A-DC11	A-DC12	A-DC13	A-DC14	A-DC15	A-DC16	A-Ph1	A-Ph2	A-Ph3	A-Ph4	A-Ph5	A-Ph6	A-Ph7	A-Ph8	A-Ph9	A-Ph10	A-Ph11	A-Ph12	A-Ph13	A-Ph14	A-Ph15	A-Ph16	B-AC1	B-AC2	B-AC3	B-AC4	B-AC5	B-AC6	B-AC7	B-AC8	B-AC9	B-AC10	B-AC11	B-AC12	B-AC13	B-AC14	B-AC15	B-AC16	B-DC1	B-DC2	B-DC3	B-DC4	B-DC5	B-DC6	B-DC7	B-DC8	B-DC9	B-DC10	B-DC11	B-DC12	B-DC13	B-DC14	B-DC15	B-DC16	B-Ph1	B-Ph2	B-Ph3	B-Ph4	B-Ph5	B-Ph6	B-Ph7	B-Ph8	B-Ph9	B-Ph10	B-Ph11	B-Ph12	B-Ph13	B-Ph14	B-Ph15	B-Ph16	aux-1	digaux	

4235.524	1	1	0	768	0.15869	0.10593	0.22452	0.23836	0.065601	0.22799	0.23242	0.067553	0.078525	0.051554	0.21433	0.093627	0.13822	0.17629	0.015937	0.063996	-1.7563	-2.7583	-2.6458	-2.5708	-2.9479	-2.5917	-2.6542	-2.9375	-2.2667	-3.0146	-2.7771	-2.2729	-3	-2.6	-2.4417	-2.9354	-87.996	-18.247	115.402	163.093	-59.923	195.014	247.324	143.278	2.437	253.961	206.469	-33.404	246.834	-57.240	-13.084	193.724	0.00016746	0.00058157	0.00013937	991.09	2.478e-06	5.7219e-06	804.01	304.27	2.8775e-06	3.6098e-06	249.38	86.253	91.157	34.795	1.7159e-06	42.463	0.00021338	0.0001785	5.0046e-05	1019	2.1004e-06	1.9994e-06	826.43	314.26	2.1844e-06	1.9808e-06	256.58	90.416	94.151	36.111	1.9751e-06	44.177	173.015	-1.637	-5.566	-75.797	82.270	49.539	-75.779	-71.025	52.432	80.187	-72.651	-68.589	-67.072	-62.403	11.291	-64.083	-8191	255	
4235.621	1	1	0	0	0.10333	0.30799	0.12748	0.27128	0.095029	0.049793	0.21291	0.21602	0.18764	0.22075	0.14272	0.068476	0.088751	0.2958	0.11636	0.19856	-1.85	-2.7021	-2.7896	-2.5854	-2.9229	-2.3688	-2.5938	-3.075	-2.0979	-2.6958	-2.8917	-2.4604	-3.15	-2.5208	-2.5333	-3.0646	137.434	245.727	-50.741	197.361	265.057	-42.511	144.461	239.184	201.373	33.634	38.354	107.530	171.880	-78.823	152.479	134.349	0.00014594	0.000505	8.1337e-05	996.99	2.4042e-06	3.948e-06	791.42	304.2	1.6597e-06	2.1978e-06	248.72	87.133	90.139	34.939	1.4706e-06	42.545	0.00020811	0.00018125	4.8403e-05	1019.6	1.972e-06	1.8178e-06	818.6	313.12	2.0917e-06	1.8008e-06	256.45	90.47	93.886	36.228	2.0872e-06	44.159	172.103	1.183	-30.927	-75.193	19.022	76.305	-76.447	-71.348	82.748	62.536	-72.646	-68.506	-66.901	-62.559	92.884	-63.904	-8191	255	
4235.717	1	1	0	0	0.2733	0.07385	0.30993	0.13807	0.14325	0.20786	0.16651	0.14351	0.10974	0.048527	0.10559	0.094198	0.063781	0.18188	0.066069	0.14733	-2.0042	-2.5875	-2.8	-2.3417	-3.0812	-2.5042	-2.5333	-2.9625	-2.4562	-2.5187	-3.0021	-2.2708	-3.0125	-2.6458	-2.3438	-3.0729	220.387	-35.790	138.369	56.090	1.746	-47.717	190.770	250.638	-7.288	-71.643	133.709	140.245	237.573	146.796	216.248	6.573	0.00013079	0.0003601	3.6596e-05	986.19	3.5682e-06	5.7141e-06	788.21	302.75	8.0895e-07	5.2286e-06	246.88	85.765	89.545	34.814	2.513e-06	42.704	0.00021265	0.00017394	4.7243e-05	1012	1.9983e-06	1.8297e-06	814.49	310.62	2.0634e-06	1.8148e-06	253.78	89.687	93.287	35.975	1.9221e-06	44.14	163.757	-24.642	-19.161	-75.063	41.888	42.799	-75.978	-71.266	-58.166	67.630	-72.526	-68.494	-66.642	-62.445	49.891	-64.373	-8191	255	
4235.813	1	1	0	0	0.058578	0.21491	0.2158	0.099148	0.129	0.19199	0.22902	0.027207	0.30615	0.043174	0.25973	0.11173	0.096696	0.15108	0.12567	0.15212	-1.8646	-2.4917	-2.7188	-2.3479	-2.7979	-2.7979	-2.5687	-3.1146	-2.5771	-2.5062	-2.9104	-2.3187	-2.7792	-2.8042	-2.3333	-3.1458	166.125	85.017	219.380	179.366	48.454	-70.681	193.314	227.467	221.529	139.841	246.627	217.683	256.678	222.470	46.589	45.156	0.00015356	0.0003406	0.00011683	980.53	1.0041e-06	3.9201e-06	785.12	300.98	1.3113e-06	4.3231e-06	244.82	84.954	89.597	34.601	1.4869e-06	42.636	0.00020308	0.00016506	4.6403e-05	1007.6	1.9891e-06	1.8003e-06	810.01	309.37	2.1026e-06	1.8314e-06	252.28	89.05	93.166	35.979	1.9674e-06	43.992	181.248	-18.190	-2.328	-75.370	33.208	57.143	-76.413	-71.205	1.796	73.141	-72.455	-68.746	-66.955	-61.874	64.387	-64.155	-8191	255	
4235.909	1	1	0	0	0.24928	0.21995	0.073682	0.21033	0.19847	0.053864	0.20719	0.20133	0.1191	0.044646	0.072448	0.12387	0.065514	0.30759	0.098682	0.11801	-2.0125	-2.5542	-2.8521	-2.5833	-2.7333	-2.8146	-2.4354	-3.0021	-2.5	-2.5271	-2.8417	-2.4354	-2.7896	-2.8896	-2.2729	-3.0458	164.163	53.354	194.897	206.014	166.701	83.906	-88.189	58.689	236.636	76.529	72.574	198.005	-57.272	243.686	70.730	-2.984	0.00017511	0.00035658	4.8158e-05	982.31	3.9025e-06	5.8581e-06	782.83	300.6	1.0541e-06	4.1941e-06	244.06	85.381	89.289	34.82	1.5739e-06	42.591	0.00021318	0.00017877	4.728e-05	1008	2.0587e-06	1.9044e-06	807.25	309.1	1.9912e-06	1.8837e-06	251.29	89.161	92.775	36.006	1.9901e-06	43.882	175.511	-25.844	-38.826	-75.210	56.975	61.571	-76.049	-71.028	32.622	59.466	-72.317	-68.515	-66.726	-62.625	46.757	-64.524	-8191	255	
4236.005	1	1	0	0	0.093557	0.19045	0.1453	0.19265	0.18005	0.083406	0.097653	0.21113	0.23869	0.24508	0.054175	0.30417	0.29471	0.17508	0.10897	0.033736	-2.1354	-2.325	-2.6875	-2.5896	-2.6958	-2.7021	-2.325	-3.0062	-2.5583	-2.3167	-3.0875	-2.4437	-2.6312	-2.8479	-2.4042	-2.9604	137.881	128.328	260.505	-37.170	98.500	-23.859	-22.783	200.887	150.501	258.804	261.498	27.600	212.742	-74.322	96.940	221.212	0.00017425	0.00044333	0.00014725	976.43	1.6048e-06	5.3103e-06	776.84	298.89	9.1691e-07	3.6438e-06	244.67	85.434	88.828	34.532	3.9681e-06	42.272	0.00020341	0.00016866	4.3847e-05	999.79	1.8311e-06	1.7608e-06	802.14	308.05	1.9681e-06	1.7791e-06	251.45	89.159	92.727	35.93	1.8047e-06	43.868	168.479	-20.679	7.986	-75.106	62.696	62.689	-76.077	-71.240	17.221	55.671	-72.578	-68.884	-67.229	-62.403	66.032	-64.128	-8191	255	
4236.124	1	1	0	0	0.12753	0.23862	0.17242	0.17882	0.069319	0.23999	0.13457	0.41177	0.17869	0.16751	0.064715	0.26371	0.24118	0.21365	0.14494	0.2049	-2.4917	-2.3292	-2.9708	-2.5208	-2.4583	-2.9292	-2.3042	-3	-2.65	-2.3604	-2.9292	-2.3187	-2.6604	-3.0667	-2.1375	-2.7146	-58.225	-76.309	176.491	242.594	151.328	34.595	-10.767	244.906	212.754	94.003	-74.205	249.928	256.836	166.111	-20.982	75.117	0.00015244	0.00032862	0.00013231	985.03	2.1754e-06	3.7628e-06	789.92	301.46	1.5066e-06	3.4419e-06	248.88	86.094	90.035	34.835	2.7597e-06	43.251	0.00019836	0.00016846	4.4434e-05	1009.1	1.9536e-06	1.7882e-06	808.2	309.87	1.7791e-06	1.6216e-06	252.92	89.339	92.894	36.096	1.7219e-06	44.39	172.493	7.648	17.106	-75.160	10.844	79.874	-76.705	-72.039	30.837	53.879	-73.787	-69.082	-67.951	-63.286	48.609	-64.898	-8191	255	
4236.220	1	1	0	0	0.15883	0.19789	0.11464	0.2886	0.17178	0.14759	0.14092	0.08488	0.049399	0.20269	0.18008	0.14009	0.19705	0.039984	0.35181	0.13331	-2.3229	-2.3875	-2.8	-2.8208	-2.4375	-3.0292	-2.3792	-2.7438	-2.7625	-2.2062	-3.0729	-2.6417	-2.4458	-3.15	-2.4083	-2.8563	191.558	215.806	187.426	177.369	15.706	181.471	161.164	223.428	-31.691	-17.320	-49.976	36.881	251.022	-12.645	101.368	252.454	0.00014342	0.00048779	0.00011214	984.8	2.4248e-06	5.5133e-06	789.04	301.87	3.3344e-07	4.9022e-06	246.37	86.482	89.472	35.102	3.3645e-06	42.333	0.00019769	0.00016192	4.2581e-05	1005.3	1.8173e-06	1.5948e-06	809.41	310.15	1.7723e-06	1.7365e-06	252.09	89.38	92.986	36.238	1.7095e-06	43.805	179.564	3.793	3.190	-75.996	53.433	98.615	-76.877	-71.861	77.167	74.480	-73.178	-69.352	-67.802	-63.472	73.281	-64.855	-8191	255	
4236.316	1	1	0	0	0.28617	0.19621	0.05543	0.16294	0.10506	0.18783	0.093273	0.092942	0.072827	0.16377	0.18326	0.01998	0.38084	0.22413	0.40782	0.22002	-2.4833	-2.1229	-2.6396	-2.8812	-2.3729	-2.8271	-2.4917	-2.7917	-2.9417	-2.2708	-2.8875	-2.7229	-2.3104	-2.9	-2.5354	-2.6958	267.034	75.689	77.282	232.653	251.843	-85.162	57.864	166.061	168.271	231.017	86.541	72.831	259.366	262.924	121.327	21.340	0.00014961	0.00047296	0.00011019	973.76	1.6953e-06	4.68e-06	772.79	296.69	1.6592e-06	4.3375e-06	240.72	84.522	88.228	34.244	2.6539e-06	41.719	0.00018978	0.00016659	4.2513e-05	995.32	1.8435e-06	1.6301e-06	794.71	304.76	1.8711e-06	1.6842e-06	248.27	88.214	91.582	35.487	1.6919e-06	43.27	168.746	13.267	4.892	-75.602	102.970	67.667	-76.364	-71.566	18.050	62.226	-72.840	-68.401	-67.069	-62.684	61.032	-64.473	-8191	255	
4236.413	1	1	0	0	0.11239	0.113	0.066276	0.10872	0.25534	0.39898	0.32289	0.20424	0.06127	0.18145	0.067294	0.24751	0.19579	0.18949	0.26389	0.28296	-2.5438	-2.2292	-2.725	-3.0479	-2.2396	-2.9062	-2.5708	-2.5771	-2.9208	-2.3625	-2.875	-2.6646	-2.375	-3.0729	-2.2917	-2.4792	-5.824	68.289	222.027	39.736	-73.649	100.109	170.700	223.184	254.580	159.576	265.704	267.883	182.655	113.177	-58.833	223.102	0.00017527	0.00042356	7.9653e-05	958.75	2.4366e-06	3.9653e-06	773.2	296.42	8.5029e-07	2.4796e-06	239.82	84.582	87.601	34.112	2.2123e-06	41.531	0.00019302	0.00016621	4.5786e-05	988.67	2.0265e-06	1.7475e-06	795.5	304.85	1.9478e-06	1.9014e-06	247.44	87.801	91.049	35.263	1.8238e-06	43	182.128	-1.146	-9.510	-75.184	76.476	48.045	-75.717	-71.278	125.850	81.208	-72.811	-68.111	-66.843	-62.592	51.503	-64.087	-8191	255	
4236.509	1	1	0	0	0.049712	0.11979	0.13821	0.12837	0.22822	0.18089	0.064354	0.1135	0.074583	0.070311	0.037728	0.19248	0.18911	0.26349	0.094058	0.20353	-2.5229	-2.1729	-2.7229	-2.9604	-2.1937	-2.9375	-2.5687	-2.4562	-3.1104	-2.4625	-2.6875	-2.7521	-2.3833	-2.9708	-2.5687	-2.4604	102.187	93.498	-77.836	150.104	252.053	-74.108	245.678	101.155	44.697	204.733	-14.049	182.449	-87.351	264.026	95.013	250.886	0.00017598	0.00039841	0.00011765	967.04	2.4591e-06	4.6244e-06	770.92	294.55	1.6658e-06	3.1597e-06	240.49	84.361	88.311	34.038	2.9054e-06	41.774	0.00019383	0.00016981	4.4106e-05	990.9	1.9152e-06	1.6649e-06	795.75	304.03	1.8618e-06	1.7823e-06	248.3	87.834	91.731	35.361	1.793e-06	43.189	179.991	-12.640	32.676	-75.157	53.767	80.342	-75.926	-71.163	111.518	84.532	-72.449	-68.581	-67.010	-62.205	32.384	-64.028	-8191	255	
4236.605	1	1	0	0	0.17957	0.15285	0.2851	0.36037	0.34487	0.2141	0.4065	0.23124	0.082906	0.1019	0.077552	0.15715	0.20459	0.15995	0.25877	0.43263	-2.55	-2.3792	-2.4979	-3.0875	-2.225	-2.6188	-2.7396	-2.4521	-3.1042	-2.3937	-2.5563	-2.8438	-2.2188	-2.7583	-2.7479	-2.3229	265.170	169.603	194.531	-76.992	-36.694	185.580	-31.026	146.552	189.872	140.334	78.603	209.196	254.980	258.804	201.435	149.213	0.00013565	0.00043765	0.00010955	967.62	2.7724e-06	5.0445e-06	768.76	295.07	7.5106e-07	3.9097e-06	240.83	84.824	87.77	34.007	2.1902e-06	41.463	0.0001999	0.00015924	4.5137e-05	992.72	1.9104e-06	1.6826e-06	796.05	305.43	1.8522e-06	1.7771e-06	249.1	88.072	91.618	35.368	1.8491e-06	43.234	169.646	-26.531	3.829	-75.324	82.167	59.345	-75.832	-71.002	-76.222	72.372	-72.549	-68.469	-66.949	-62.529	90.162	-64.121	-8191	255	
4236.725	1	1	0	0	0.22482	0.20284	0.090315	0.066392	0.31533	0.18345	0.23999	0.2019	0.094925	0.17257	0.10989	0.15911	0.31359	0.091457	0.14361	0.25495	-2.3875	-2.5438	-2.4521	-3.0417	-2.275	-2.6437	-2.8979	-2.35	-2.9292	-2.5771	-2.3354	-2.9146	-2.4708	-2.6646	-2.7646	-2.3604	99.983	267.898	48.283	-39.062	169.176	255.187	-82.716	189.392	139.158	-30.626	149.301	-79.008	153.073	158.081	20.371	183.419	0.00014859	0.00050778	0.00010667	973.16	1.8495e-06	1.5921e-06	775.17	296.98	1.7676e-06	3.408e-06	240.93	84.589	88.156	34.571	3.1481e-06	41.713	0.0002021	0.00016974	4.8977e-05	997.66	1.9118e-06	1.6876e-06	798.25	305.7	1.8992e-06	1.8344e-06	248.17	87.918	91.851	35.585	1.8372e-06	43.199	162.672	18.412	1.112	-75.091	74.116	68.386	-75.844	-71.296	52.065	66.187	-72.680	-68.418	-66.859	-62.613	95.065	-64.314	-8191	255	
4236.820	1	1	0	0	0.14485	0.040826	0.15799	0.21856	0.26448	0.03668	0.13787	0.23716	0.11509	0.086887	0.1862	0.36817	0.1381	0.24201	0.19009	0.2257	-2.4375	-2.6417	-2.375	-3.0521	-2.4646	-2.7687	-2.9167	-2.3458	-2.8625	-2.6917	-2.5271	-2.8271	-2.3542	-2.6354	-2.8458	-2.2875	-75.586	55.048	132.052	218.493	61.465	236.227	187.431	89.206	-19.124	89.985	156.915	62.636	127.508	-55.759	-36.124	-16.315	0.0001596	0.00031657	9.9052e-05	973.82	2.9815e-06	5.2725e-06	769.58	297.42	3.6844e-07	3.9913e-06	239.85	84.534	88.087	34.167	2.6866e-06	41.804	0.00020907	0.00017181	4.8237e-05	999.51	1.9274e-06	1.8484e-06	796.28	306.18	1.9627e-06	1.726e-06	247.23	87.868	91.796	35.514	1.7799e-06	43.144	165.138	-11.138	-23.266	-75.128	54.116	64.339	-76.297	-71.294	37.559	52.501	-72.856	-68.392	-66.786	-62.515	47.485	-64.608	-8191	255	
4236.918	1	1	0	0	0.068142	0.13774	0.13505	0.27601	0.0046683	0.077482	0.3552	0.20866	0.15298	0.082421	0.22468	0.24725	0.21384	0.16316	0.27057	0.025777	-2.3583	-2.7062	-2.2771	-3.2146	-2.3021	-2.6208	-3.275	-2.3646	-2.7271	-2.7333	-2.5938	-3	-2.6437	-2.6312	-2.7625	-2.2625	41.187	43.309	151.723	245.094	196.680	-31.754	183.124	240.349	269.814	130.584	227.363	111.281	233.835	6.627	106.754	44.141	0.00011816	0.00033759	0.0001477	967.19	2.6963e-06	4.5045e-06	770.44	296.77	1.3738e-06	3.5223e-06	239.91	84.399	88.412	34.332	2.9175e-06	41.53	0.00020104	0.00017494	4.8113e-05	994.57	1.8775e-06	1.7623e-06	795.01	305.17	2.0414e-06	1.9402e-06	246.92	87.497	92.056	35.398	2.0025e-06	42.856	181.718	18.530	5.294	-75.703	49.022	62.332	-76.890	-71.763	-26.173	59.509	-73.550	-69.032	-67.310	-63.043	81.563	-64.716	-8191	255	
4237.012	1	1	0	0	0.17957	0.23916	0.009694	0.19844	0.1318	0.19717	0.14565	0.14839	0.1229	0.085511	0.29967	0.071253	0.033997	0.25747	0.01167	0.11618	-2.2875	-2.7729	-2.2521	-3.1729	-2.4562	-2.5333	-2.8625	-2.5042	-2.6542	-2.7125	-2.2375	-2.9	-2.6396	-2.325	-3.0271	-2.3604	178.280	145.825	34.143	224.482	99.658	-36.673	199.766	-57.689	224.895	7.560	-8.363	184.525	168.769	186.431	213.459	251.145	0.0001476	0.00044015	7.2337e-05	974.76	2.0261e-06	4.2391e-06	775.34	295.81	2.2855e-06	3.1273e-06	240.5	83.717	87.952	33.796	1.7051e-06	41.312	0.00021315	0.00017252	4.9558e-05	999.67	1.9235e-06	1.8938e-06	794.7	304.42	2.0169e-06	1.7541e-06	246.27	87.007	91.136	34.895	1.7768e-06	42.39	174.332	7.729	-3.100	-75.699	53.174	58.444	-76.223	-71.718	12.298	34.537	-73.228	-68.861	-67.642	-63.328	99.423	-64.665	-8191	255	
4237.086	1	1	0	0	0.15451	0.13788	0.22529	0.18485	0.23119	0.1008	0.030902	0.025379	0.10183	0.20077	0.10227	0.23856	0.14111	0.29774	0.18724	0.095055	-2.3312	-2.8187	-2.0333	-3.1333	-2.8021	-2.3021	-3.0875	-2.4458	-2.5771	-2.8917	-2.3292	-2.8708	-2.9042	-2.3521	-2.9	-2.5667	42.668	-24.633	-55.554	225.618	-87.644	204.765	253.139	174.962	97.496	80.460	86.097	233.327	267.769	218.689	148.836	174.579	0.00017956	0.00055671	0.00014021	961.8	3.3467e-06	3.9861e-06	753.25	288.79	1.8609e-06	3.5305e-06	235.96	82.543	85.955	33.159	3.7034e-06	40.985	0.00019937	0.00015197	4.1513e-05	981.32	1.7662e-06	1.711e-06	778.61	299.28	1.8174e-06	1.6835e-06	243.58	85.8	89.541	34.418	1.6193e-06	42.214	170.144	-26.170	-8.275	-75.648	46.278	70.309	-75.620	-71.240	35.400	62.751	-72.529	-68.320	-67.029	-62.579	22.806	-64.703	-8191	255	
4237.204	1	1	0	0	0.072514	0.16684	0.34053	0.15873	0.082522	0.25127	0.24204	0.16357	0.22084	0.16526	0.051097	0.2527	0.29956	0.2124	0.14376	0.36225	-2.1104	-2.8563	-2.2938	-2.8875	-2.6937	-2.5042	-3.0521	-2.4562	-2.5687	-3.0312	-2.3771	-2.7542	-2.8646	-2.3771	-2.8917	-2.5417	-58.752	178.634	-61.434	256.103	203.639	2.954	-77.999	-40.827	7.561	148.412	253.221	109.603	135.440	259.877	237.130	102.412	0.00018321	0.00046933	8.0006e-05	953.23	2.6701e-06	5.3767e-06	763.49	292.65	2.3707e-06	3.7953e-06	236.05	82.928	86.388	32.978	2.0928e-06	40.407	0.00019132	0.00015748	4.5681e-05	976.8	1.8978e-06	1.786e-06	783.79	300.92	2.0933e-06	1.8326e-06	242.59	85.912	89.916	34.399	2.0662e-06	41.857	178.097	-30.249	17.078	-75.455	60.075	83.650	-75.943	-71.234	-9.155	58.822	-73.110	-68.077	-66.662	-62.278	55.590	-64.384	-8191	255	
4237.301	1	1	0	0	0.12511	0.06519	0.086674	0.1658	0.21763	0.18962	0.2881	0.071021	0.1532	0.14598	0.15589	0.3486	0.31854	0.3032	0.034829	0.098723	-1.9875	-3	-1.9396	-2.7812	-2.8917	-2.2625	-3.0625	-2.5938	-2.4396	-3.0958	-2.3521	-2.7042	-2.7625	-2.2958	-2.7708	-2.6167	148.484	76.067	175.206	186.227	130.703	178.735	15.728	232.681	51.222	88.882	229.176	238.985	216.899	-56.393	-4.041	50.857	0.0001559	0.00033117	0.0001298	960.9	1.8162e-06	4.1245e-06	762.53	292.59	2.1475e-06	2.7785e-06	235.35	82.655	86.957	33.02	1.4093e-06	40.688	0.000216	0.00016346	4.9447e-05	987.77	1.9601e-06	1.9957e-06	788.67	301.7	2.2124e-06	1.9874e-06	243.16	85.625	90.623	34.371	2.0717e-06	41.888	173.962	-10.043	-17.322	-75.045	30.067	78.309	-76.164	-70.987	33.427	42.092	-72.985	-68.287	-66.524	-62.640	24.747	-64.160	-8191	255	
4237.397	1	1	0	0	0.047712	0.13808	0.11403	0.27202	0.10318	0.094182	0.21866	0.15364	0.058981	0.018332	0.21059	0.12022	0.1947	0.019609	0.016205	0.1581	-2.0229	-2.9229	-2.2438	-2.7167	-2.8458	-2.3625	-2.7771	-2.7354	-2.6229	-3.0667	-2.6354	-2.6083	-3.0312	-2.35	-2.825	-2.8333	217.455	-71.384	196.971	-66.455	-59.909	24.780	235.364	-88.691	193.841	162.641	162.415	233.378	162.248	266.719	-85.579	-83.269	0.00012882	0.00040526	7.2558e-05	961.24	3.15e-06	5.1762e-06	762.98	292.45	2.636e-06	3.3246e-06	237.15	82.854	86.505	33.404	1.7001e-06	40.294	0.00021791	0.00017492	5.1787e-05	988.38	2.001e-06	1.9515e-06	784.95	300.73	1.9863e-06	1.8671e-06	243.49	85.69	90.023	34.541	1.8858e-06	41.903	174.401	6.294	-5.441	-75.260	47.719	90.584	-76.223	-71.024	20.701	40.039	-72.692	-68.347	-67.160	-62.425	51.597	-64.200	-8191	255	
4237.517	1	1	0	0	0.18558	0.034773	0.11997	0.20411	0.25884	0.055951	0.17985	0.20791	0.10128	0.10848	0.040054	0.152	0.24305	0.10447	0.13714	0.16666	-1.8396	-3.0792	-2.4583	-2.7208	-2.8812	-2.1542	-2.7271	-2.8583	-2.3438	-2.9271	-2.5687	-2.3875	-2.9771	-2.3688	-2.7958	-2.9646	222.037	203.487	84.647	-88.439	208.085	41.572	126.714	262.561	132.081	-42.356	77.274	210.586	-17.597	107.293	184.517	45.210	0.00015829	0.00027374	8.0006e-05	954.09	3.5078e-06	3.4987e-06	761.1	291.79	1.9549e-06	5.0304e-06	236.38	82.099	86.924	33.234	2.7191e-06	40.45	0.00019914	0.00017508	4.6267e-05	982.51	2.0449e-06	1.8916e-06	786.08	301.14	2.2253e-06	1.9681e-06	244.19	85.582	90.702	34.526	2.1383e-06	41.985	177.036	-33.599	29.591	-75.068	36.646	46.088	-76.169	-70.824	25.089	79.887	-72.972	-68.589	-66.770	-62.329	41.502	-64.227	-8191	255	
4237.614	1	1	0	0	0.092993	0.14463	0.092301	0.059466	0.039711	0.02464	0.13334	0.094543	0.2089	0.16719	0.12099	0.15938	0.12314	0.11737	0.19528	0.21277	-1.7146	-2.9521	-2.5812	-2.4938	-2.8792	-2.3625	-2.8167	-2.8958	-2.1875	-3.0583	-2.6437	-2.4021	-3.1146	-2.3667	-2.6396	-3.1833	-61.887	-32.334	196.846	134.756	187.897	160.704	259.134	265.225	117.724	45.032	-43.794	-83.256	267.216	71.256	-54.637	199.227	0.00014859	0.00045899	0.00017363	966.31	6.0289e-07	3.6375e-06	764.21	293.69	1.609e-06	5.863e-06	236.5	81.592	87.618	33.301	2.628e-06	40.014	0.00022113	0.00019083	5.5232e-05	993.14	2.2558e-06	2.1652e-06	789.27	303.09	2.4084e-06	2.1782e-06	243.25	85.356	90.704	34.432	2.2967e-06	41.455	173.530	10.509	-16.160	-74.982	60.086	93.623	-76.094	-71.316	82.318	83.379	-72.853	-68.253	-66.895	-62.111	24.213	-64.255	-8191	255	
4237.685	1	1	0	0	0.18559	0.13913	0.039461	0.32098	0.31048	0.14829	0.17004	0.15761	0.17617	0.018079	0.092043	0.069499	0.069347	0.22227	0.13399	0.0977	-1.9021	-2.8229	-2.7438	-2.4708	-3.0312	-2.3146	-2.6208	-3.025	-2.2875	-2.8375	-2.6396	-2.2479	-3.0354	-2.6646	-2.4958	-3.1583	120.493	176.122	-72.458	118.040	10.780	149.513	170.002	-44.071	47.236	50.968	88.170	50.962	109.462	208.258	194.086	-82.830	0.00014691	0.00039335	5.3535e-05	966.67	2.1612e-06	6.1695e-06	761.17	292.4	1.0923e-06	1.0766e-06	234.79	81.87	87.082	33.355	2.3356e-06	39.703	0.00023546	0.00019616	5.7232e-05	990.41	2.2563e-06	2.2481e-06	786.06	302.31	2.4883e-06	2.3741e-06	242.75	84.85	90.62	34.376	2.416e-06	41.427	177.023	-18.556	11.161	-75.222	46.011	93.742	-75.980	-71.143	-13.436	41.261	-72.790	-68.494	-67.115	-62.479	37.031	-64.377	-8191	255	
4237.806	1	1	0	0	0.10011	0.16888	0.036309	0.35878	0.16728	0.12317	0.34948	0.17524	0.12849	0.16817	0.15656	0.14776	0.2313	0.1477	0.15866	0.088689	-1.8958	-2.6458	-2.6083	-2.3083	-3.1688	-2.4417	-2.4896	-3.0333	-2.1979	-2.7417	-2.6458	-2.5104	-2.95	-2.5938	-2.3875	-3.1188	270.102	269.061	197.379	234.546	43.193	130.004	185.336	210.764	237.128	-27.466	163.867	-14.402	2.006	216.408	92.796	46.340	0.00015751	0.00050229	8.1421e-05	960.41	2.5274e-06	4.8013e-06	766.01	294.28	1.5934e-06	1.3082e-06	234.99	82.277	87.915	33.451	3.3558e-06	40.193	0.00022907	0.00021836	5.935e-05	990.51	2.4416e-06	2.3201e-06	789.46	303.69	2.5668e-06	2.3927e-06	243.58	85.462	91.512	34.654	2.4258e-06	41.776	172.179	5.019	24.988	-75.447	35.224	91.647	-75.941	-70.800	0.018	79.772	-72.793	-68.460	-66.770	-62.647	92.347	-64.149	-8191	255	
4237.902	1	1	0	0	0.064325	0.18287	0.09385	0.040557	0.050745	0.12684	0.10997	0.10459	0.30859	0.18466	0.18381	0.14626	0.073442	0.22353	0.15276	0.1819	-2.0896	-2.5542	-2.7583	-2.3354	-2.8937	-2.65	-2.4979	-3.1729	-2.2354	-2.6562	-3.1146	-2.3958	-2.9938	-2.6771	-2.3438	-3.0208	162.480	234.433	134.308	-69.801	98.565	173.354	211.405	-34.525	174.330	264.822	101.615	209.024	-32.462	190.658	-63.744	249.365	0.00015506	0.000624	4.6475e-05	970.01	1.6112e-06	2.979e-06	763.45	293.59	2.7122e-06	5.8052e-06	236.4	81.617	87.163	33.251	2.448e-06	40.233	0.00023138	0.00021209	6.0263e-05	992.61	2.2995e-06	2.2365e-06	788.14	303.25	2.4432e-06	2.1919e-06	244.14	85.112	90.84	34.622	2.1609e-06	41.748	170.810	-26.293	2.279	-75.043	72.671	75.822	-76.024	-71.045	45.090	57.155	-72.585	-68.295	-67.444	-62.264	59.391	-64.159	-8191	255	
4237.998	1	1	0	0	0.20391	0.012012	0.12016	0.27422	0.1371	0.14178	0.35814	0.15475	0.12093	0.2215	0.044762	0.1651	0.1768	0.15233	0.14707	0.20877	-1.9979	-2.65	-2.8042	-2.3958	-2.775	-2.5708	-2.4896	-3.0125	-2.5083	-2.4104	-2.975	-2.2146	-2.7875	-2.8354	-2.25	-3.0604	167.657	234.090	84.842	261.939	-67.561	78.680	-86.280	238.951	-68.510	46.509	149.907	244.550	178.375	134.333	233.923	107.596	0.00016393	0.00041884	0.00010294	964.27	2.5838e-06	5.3255e-06	757.67	295.1	4.4386e-07	2.9455e-06	236.34	81.821	87.304	33.455	3.6597e-06	40.376	0.00022972	0.00019741	5.0632e-05	987.76	2.3324e-06	2.0404e-06	784.03	303.2	2.2732e-06	2.1349e-06	242.82	84.962	90.866	34.71	2.3649e-06	41.814	180.021	-3.231	37.716	-74.894	55.042	84.803	-76.115	-71.329	145.531	83.370	-72.821	-68.736	-67.002	-62.081	47.649	-63.752	-8191	255	
4238.117	1	1	0	0	0.21818	0.11902	0.15623	0.092028	0.11777	0.14922	0.15315	0.084129	0.020687	0.23835	0.081177	0.19873	0.084018	0.28235	0.16753	0.11913	-2.1625	-2.4646	-2.7667	-2.2896	-2.9708	-2.6542	-2.4083	-3.0354	-2.4125	-2.3896	-3.0792	-2.2708	-2.7229	-2.8646	-2.375	-3.0104	256.146	-75.189	133.954	207.883	170.063	127.477	181.818	151.149	197.672	218.510	-49.721	215.311	-43.660	-67.852	70.736	-36.707	0.00012099	0.00070035	5.3677e-05	966.21	1.5531e-06	3.5798e-06	761.99	293.67	1.5624e-06	2.624e-06	234.47	81.256	86.938	33.523	2.3094e-06	39.617	0.00023383	0.00021027	5.8282e-05	989.86	2.4607e-06	2.2928e-06	785.41	302.3	2.7324e-06	2.6915e-06	243.21	84.877	90.96	34.624	2.9187e-06	41.419	171.928	4.516	-32.080	-75.282	73.218	93.167	-76.440	-71.372	80.540	47.270	-72.394	-68.137	-67.220	-62.530	66.349	-64.268	-8191	255	
4238.213	1	1	0	0	0.25337	0.15613	0.14613	0.10797	0.45309	0.16099	0.13957	0.13856	0.090866	0.086742	0.26055	0.089232	0.032004	0.15734	0.18245	0.2397	-2.0667	-2.3875	-3.0438	-2.4437	-2.7979	-2.9188	-2.3438	-2.9354	-2.475	-2.4062	-2.95	-2.5958	-2.5687	-2.8563	-2.25	-2.8896	83.520	117.558	71.994	149.377	121.587	47.689	255.614	263.279	-6.560	195.478	-72.672	-22.794	-7.288	-18.760	149.333	172.655	0.00013942	0.00026228	7.1606e-05	966.58	1.9279e-06	7.3907e-06	766.09	292.23	6.2272e-07	2.5793e-06	233.31	80.386	87.193	32.785	3.0573e-06	39.353	0.00026655	0.0002747	7.3167e-05	993.78	2.9137e-06	2.7401e-06	785.88	301.69	2.8042e-06	2.5296e-06	241.13	83.988	90.243	34.061	2.5997e-06	40.894	190.580	15.351	24.564	-75.065	30.181	76.683	-76.114	-71.085	249.544	97.093	-73.018	-68.595	-66.967	-62.149	47.452	-64.621	-8191	255	
4238.309	1	1	0	0	0.081343	0.23424	0.18868	0.060684	0.30362	0.13619	0.26395	0.2304	0.16176	0.23615	0.1706	0.078576	0.21494	0.022782	0.16058	0.36193	-2.4542	-2.3187	-2.9583	-2.5979	-2.5375	-2.8312	-2.3521	-2.7958	-2.7104	-2.3688	-2.9125	-2.6708	-2.6542	-2.9833	-2.0812	-2.8	-18.126	198.261	-25.137	116.584	94.271	237.276	244.532	-88.287	107.544	-86.442	-77.135	176.225	238.127	30.530	7.909	-48.399	0.00013505	0.00029158	0.00011079	955.7	2.4828e-06	4.6743e-06	753.69	291.1	3.2945e-06	2.3401e-06	233.28	80.258	85.995	32.441	3.4023e-06	39.415	0.00023969	0.00021236	5.7226e-05	982.3	2.4161e-06	2.3414e-06	777.56	299.68	2.3848e-06	2.2415e-06	240.03	83.885	89.112	33.82	2.4224e-06	40.89	167.768	-2.190	-0.968	-75.129	63.926	89.084	-76.164	-71.320	9.669	48.863	-72.660	-68.227	-67.412	-62.286	49.581	-63.830	-8191	255	
4238.381	1	1	0	0	0.13174	0.16683	0.12614	0.42555	0.12498	0.30538	0.062447	0.37081	0.22814	0.199	0.013141	0.072864	0.17901	0.18265	0.10451	0.083414	-2.4896	-2.1667	-2.925	-2.5896	-2.4396	-2.9792	-2.35	-2.7208	-2.9875	-2.2687	-2.925	-2.6104	-2.3875	-2.9729	-2.2771	-2.6021	211.191	238.501	-74.234	252.336	48.170	164.537	8.891	206.931	62.607	250.891	-59.028	198.362	253.922	232.406	105.912	-75.617	0.0001697	0.00028377	3.7221e-05	950.09	2.4126e-06	5.9998e-06	750.85	291.49	1.4891e-06	2.9118e-06	234.43	81.525	86.545	33.252	1.5904e-06	39.828	0.00021361	0.0001957	5.0965e-05	977.51	2.2103e-06	1.9873e-06	776.73	299.86	2.155e-06	1.96e-06	241.59	84.639	89.857	34.419	1.9412e-06	41.405	182.993	-41.632	-6.604	-75.155	49.192	59.766	-75.905	-71.073	29.480	59.420	-72.708	-68.460	-67.349	-62.208	103.721	-64.095	-8191	255	
4238.502	1	1	0	0	0.2918	0.11944	0.22877	0.27286	0.23806	0.19111	0.13367	0.11682	0.14809	0.2009	0.16625	0.14493	0.25888	0.26793	0.012427	0.22623	-2.5083	-2.1979	-2.8167	-2.8167	-2.2521	-2.7521	-2.4396	-2.7521	-2.8083	-2.3375	-3.0375	-2.7104	-2.3708	-3.2021	-2.4188	-2.6458	81.428	164.808	143.095	-84.514	259.545	2.891	-6.012	-26.781	1.160	172.909	-79.666	-81.537	237.101	56.018	-73.150	136.592	0.00014535	0.00035908	9.2934e-05	961.74	3.0554e-06	6.0861e-06	758.66	294.93	1.1839e-06	3.5297e-06	236.02	81.34	87.352	33.599	2.0835e-06	40.453	0.00020408	0.00017608	5.0046e-05	984.65	2.0666e-06	1.97e-06	781.72	303.16	2.048e-06	2.0689e-06	243.76	84.948	90.805	34.758	1.9624e-06	41.817	176.807	-9.036	-13.273	-75.222	63.384	78.909	-76.142	-71.277	57.376	55.888	-73.053	-68.431	-67.231	-62.458	13.881	-64.332	-8191	255	
4238.598	1	1	0	0	0.17065	0.017819	0.16547	0.027456	0.098367	0.33442	0.15335	0.065696	0.12117	0.392	0.1798	0.11313	0.10474	0.23514	0.041503	0.22231	-2.6604	-2.2875	-2.8021	-2.8521	-2.2604	-2.9625	-2.5375	-2.5792	-3.0375	-2.4604	-2.9271	-2.875	-2.3438	-2.9896	-2.7062	-2.4729	-87.286	153.777	230.672	196.577	111.135	149.290	225.041	-33.277	253.788	46.631	152.855	141.327	142.194	146.233	-41.920	-17.920	0.0001558	0.00033178	8.1389e-05	967.69	3.0159e-06	3.7954e-06	767.15	296.2	1.2169e-06	2.3383e-06	236.77	82.53	88.371	33.952	1.1771e-06	40.628	0.00021003	0.00018259	5.1595e-05	992.82	2.1831e-06	1.9148e-06	788.05	304.87	2.0875e-06	1.9588e-06	244.7	85.747	91.729	35.126	2.2179e-06	42.217	176.195	-47.002	-16.583	-75.097	52.925	70.686	-76.014	-71.044	17.639	46.981	-72.781	-68.488	-67.429	-62.464	10.338	-64.382	-8191	255	
4238.694	1	1	0	0	0.18594	0.088269	0.061316	0.26322	0.082797	0.079629	0.15575	0.21324	0.059278	0.43386	0.084446	0.18327	0.11594	0.13469	0.15299	0.11119	-2.7125	-2.3896	-2.6417	-2.9792	-2.35	-2.9583	-2.6479	-2.5062	-2.75	-2.4938	-2.8854	-2.9958	-2.325	-2.8979	-2.5271	-2.4021	241.874	-17.891	-67.806	224.644	-3.444	-37.037	233.410	-32.631	72.642	185.464	-87.521	162.326	236.737	244.746	235.904	110.388	0.00014872	0.0006683	0.0001819	970.97	1.9872e-06	4.1069e-06	762.94	296.03	2.2999e-06	5.6512e-06	237.86	82.286	88.051	33.781	2.3387e-06	40.921	0.00021625	0.00018803	5.2546e-05	997.95	2.23e-06	1.9298e-06	788.1	305.77	2.1739e-06	2.0953e-06	244.9	85.785	91.666	35.167	2.1545e-06	42.236	176.062	-10.665	7.116	-74.815	41.312	53.292	-75.647	-71.325	54.313	66.034	-72.390	-68.345	-67.405	-62.489	49.027	-64.444	-8191	255	
4238.790	1	1	0	0	0.057412	0.26173	0.11835	0.28996	0.22011	0.1172	0.10172	0.42254	0.37278	0.23171	0.1279	0.1149	0.22443	0.03998	0.053947	0.12357	-2.6542	-2.3833	-2.5958	-2.9396	-2.1417	-2.9229	-2.8792	-2.3333	-2.9479	-2.4271	-2.6396	-2.9417	-2.3563	-2.8292	-2.6854	-2.6521	19.197	35.108	-55.548	241.356	-45.153	195.001	161.303	175.483	61.596	267.868	-81.563	33.554	223.201	-74.685	118.265	196.787	0.00014179	0.00055855	7.4679e-05	970.05	2.4079e-06	6.3488e-06	766.34	296.15	1.6969e-06	3.3371e-06	236.57	83.178	87.993	33.926	3.2303e-06	41.185	0.00020887	0.00018181	5.3534e-05	997.05	2.1813e-06	2.0431e-06	787.81	305.48	2.1251e-06	1.8803e-06	244.45	86.098	91.624	35.196	2.0657e-06	42.428	171.759	-17.557	-7.606	-74.934	47.873	90.299	-76.111	-71.132	13.882	84.097	-72.772	-68.599	-67.129	-62.456	10.740	-63.997	-8191	255	
4238.909	1	1	0	0	0.13635	0.060491	0.15483	0.19744	0.19091	0.18982	0.15682	0.19514	0.096169	0.17101	0.16261	0.11759	0.082601	0.31855	0.3535	0.21677	-2.5458	-2.3667	-2.5583	-3.0917	-2.2542	-2.8354	-2.8896	-2.3958	-2.8812	-2.5479	-2.425	-3.0146	-2.1375	-2.7	-2.7958	-2.3625	-38.154	132.022	24.699	257.424	125.643	242.152	209.225	138.057	71.105	219.177	90.513	239.878	200.308	-18.875	102.214	-39.718	0.00015648	0.00052729	9.7137e-05	978.59	1.4525e-06	3.8424e-06	769.04	296.28	1.7372e-06	2.8199e-06	238.22	82.45	88.578	34.055	3.0459e-06	40.647	0.00021154	0.00018336	4.9021e-05	1000.7	2.1155e-06	1.9841e-06	790.61	306.18	2.0489e-06	1.9618e-06	245.31	86.11	91.788	35.234	1.9968e-06	42.269	181.041	-21.257	-6.346	-74.892	121.726	72.168	-75.958	-71.338	47.934	90.345	-72.862	-68.516	-66.810	-62.310	68.330	-64.431	-8191	255	
4238.982	1	1	0	0	0.27385	0.16131	0.17148	0.14023	0.21559	0.1315	0.061284	0.1613	0.069069	0.084847	0.13098	0.37911	0.1069	0.25761	0.10868	0.18532	-2.4771	-2.6354	-2.3833	-3.0229	-2.3229	-2.5396	-3.0292	-2.5042	-3.0146	-2.8812	-2.4521	-3.0271	-2.5687	-2.6979	-3.0854	-2.3104	51.451	108.044	236.068	223.026	151.475	104.972	176.853	178.421	148.331	142.220	-64.411	212.532	18.446	-77.524	34.054	266.375	0.00014358	0.00045845	0.00010907	968.72	1.5528e-06	5.5161e-06	759.9	296.19	2.5245e-06	4.9118e-06	238.41	82.45	88.592	34.118	1.5177e-06	40.718	0.00021103	0.00018145	4.8354e-05	993.54	2.0029e-06	1.933e-06	784.97	304.95	2.0823e-06	2.0048e-06	245.15	85.776	91.811	35.277	1.9796e-06	42.234	170.789	14.693	-0.432	-75.218	94.153	55.123	-75.925	-70.961	33.849	59.996	-72.982	-68.018	-66.921	-62.440	48.903	-64.363	-8191	255	
4239.079	1	1	0	0	0.024795	0.073544	0.18091	0.15383	0.13323	0.10179	0.092195	0.34882	0.1567	0.30519	0.16715	0.22062	0.098806	0.21092	0.20281	0.01297	-2.7083	-2.6292	-2.5458	-3.1458	-2.5271	-2.5708	-3.1021	-2.4188	-2.6917	-2.7938	-2.275	-3.0062	-2.4854	-2.4792	-3.0167	-2.2604	135.485	154.746	-84.000	-40.774	-3.198	-17.077	114.383	142.143	-21.564	40.259	141.655	-68.662	14.951	147.644	-32.963	191.460	0.00015113	0.00048814	0.00011035	969.33	1.8246e-06	6.7135e-06	766.25	297.94	1.4081e-06	3.4865e-06	236.78	82.195	88.439	33.562	1.7875e-06	40.165	0.00021355	0.00019741	5.1898e-05	998.16	2.2974e-06	2.1482e-06	791.07	307.05	2.2244e-06	2.0806e-06	244.57	85.574	91.643	34.801	2.2041e-06	41.695	172.161	8.035	-32.699	-74.899	58.511	64.476	-76.181	-71.059	80.287	75.197	-72.999	-68.722	-66.968	-62.710	29.896	-64.299	-8191	255	
4239.197	1	1	0	0	0.17199	0.27787	0.24588	0.044972	0.19716	0.037216	0.24304	0.26688	0.037667	0.16746	0.12084	0.18715	0.20773	0.070396	0.17332	0.16314	-2.3229	-2.8125	-2.2771	-3.1208	-2.525	-2.4542	-2.9646	-2.5646	-2.6625	-3.0958	-2.4688	-2.9771	-2.5354	-2.5542	-3.1312	-2.3458	115.043	-35.963	68.753	-73.852	256.487	234.322	120.902	-56.811	237.380	86.007	232.253	104.487	149.269	193.264	131.213	-67.435	0.00012738	0.0003322	9.2256e-05	971.59	1.1949e-06	4.5173e-06	770.25	297.28	3.0489e-06	3.1933e-06	236.56	81.562	87.457	33.451	2.7418e-06	40.328	0.00021371	0.00019985	5.4917e-05	998.2	2.2514e-06	2.048e-06	791.25	305.01	2.1342e-06	2.0324e-06	243.67	84.861	90.905	34.681	1.9631e-06	41.739	175.718	11.836	-21.311	-75.070	82.215	60.345	-76.050	-71.325	64.723	87.827	-72.774	-68.220	-67.008	-62.658	71.993	-64.428	-8191	255	
4239.294	1	1	0	0	0.1807	0.10006	0.28256	0.24901	0.14475	0.10951	0.17329	0.20811	0.091111	0.19808	0.062593	0.18458	0.15838	0.25636	0.099361	0.2539	-2.2021	-2.7521	-2.375	-3.1063	-2.5708	-2.4604	-3.1583	-2.4938	-2.6771	-2.9938	-2.2646	-2.8937	-2.7521	-2.4771	-3.0104	-2.6417	181.510	163.231	173.392	262.073	-7.871	179.058	157.761	198.548	186.548	226.237	204.486	130.091	230.490	213.591	-20.830	197.971	0.00015299	0.00050467	0.00011761	971.23	2.2967e-06	5.9009e-06	763.47	295.63	3.1836e-06	6.3235e-06	237.87	82.998	88.251	33.876	3.5187e-06	40.436	0.00021466	0.0001803	5.0151e-05	995.43	1.9987e-06	1.9017e-06	787.23	305.09	2.1024e-06	1.997e-06	245.29	85.799	91.706	34.982	1.9844e-06	42.065	174.373	-1.069	11.854	-74.888	27.885	56.349	-76.022	-71.019	45.881	49.548	-72.398	-68.676	-66.451	-62.156	57.720	-64.002	-8191	255	
4239.390	1	1	0	0	0.22891	0.16164	0.20845	0.19815	0.12304	0.018438	0.036975	0.23181	0.16408	0.23342	0.094602	0.17274	0.14802	0.16266	0.15277	0.13559	-2.2333	-3.0542	-2.2875	-2.9458	-2.7292	-2.35	-3.0938	-2.6125	-2.3167	-2.9542	-2.3438	-2.9208	-2.8104	-2.5521	-3.0604	-2.6708	171.628	250.340	-58.337	242.093	98.385	54.716	-16.815	182.177	210.531	239.028	-38.191	264.391	145.465	9.046	204.377	216.808	0.00017529	0.00044487	0.00010454	974.46	1.0634e-06	4.855e-06	769.04	298.18	1.8152e-06	3.5386e-06	237.6	81.545	88.761	33.908	3.2152e-06	40.543	0.00021227	0.0001913	5.1558e-05	1001.8	2.081e-06	2.0998e-06	791.83	307.5	2.2122e-06	1.908e-06	245.81	85.554	91.996	35.117	2.123e-06	41.877	170.148	5.392	-36.738	-74.981	-21.036	45.777	-76.055	-70.891	17.326	61.517	-72.933	-68.206	-66.941	-62.326	33.201	-63.934	-8191	255	
4239.486	1	1	0	0	0.11316	0.17203	0.30165	0.16318	0.018652	0.14033	0.16993	0.3134	0.17954	0.19162	0.31524	0.24586	0.26512	0.078052	0.10899	0.23597	-2.0729	-3.0646	-2.3917	-2.8771	-2.9313	-2.3563	-3.1604	-2.7354	-2.4083	-3.0354	-2.2812	-2.8083	-2.8958	-2.4646	-2.9479	-2.8125	3.739	-12.521	245.372	178.116	-3.594	-52.447	231.919	194.645	220.549	191.879	236.718	246.863	194.094	112.417	126.988	29.904	0.000138	0.00065101	0.00011392	977.75	2.8705e-06	3.9603e-06	767.68	299.92	2.3297e-06	4.7633e-06	238.8	82.227	89.278	33.88	2.6807e-06	40.26	0.00021968	0.00018528	5.191e-05	1005.1	2.1353e-06	2.2718e-06	793.03	308.61	2.2669e-06	2.0246e-06	246.25	85.617	92.682	35.087	2.4618e-06	41.826	159.920	-27.535	16.741	-75.049	43.526	58.452	-76.069	-71.045	36.389	55.966	-72.972	-68.943	-67.091	-62.235	58.012	-64.038	-8191	255	
4239.582	1	1	0	0	0.21201	0.18149	0.15323	0.48326	0.16405	0.10031	0.14645	0.15058	0.11938	0.14062	0.10459	0.22939	0.27345	0.039698	0.1077	0.16473	-1.9458	-2.9979	-2.4437	-2.7188	-2.9875	-2.1813	-2.9313	-2.7521	-2.3875	-3.0625	-2.4917	-2.4646	-2.8979	-2.4437	-2.8688	-2.8146	150.216	-78.061	62.417	190.754	236.680	20.268	-65.984	55.919	-76.492	180.336	196.483	157.767	190.298	2.338	98.671	191.317	0.00017058	0.00038246	0.00010937	986.66	2.7677e-06	5.4076e-06	773.47	299.92	2.1372e-06	3.9484e-06	241.11	82.282	88.737	34.124	2.553e-06	40.538	0.00024294	0.00021296	6.0714e-05	1012.5	2.5584e-06	2.3419e-06	798.33	309.46	2.4255e-06	2.3543e-06	248.24	85.676	92.721	35.288	2.8741e-06	42.157	173.318	4.283	-9.747	-75.266	46.767	53.242	-75.917	-71.039	28.791	48.031	-72.679	-68.702	-67.054	-62.329	92.986	-64.615	-8191	255	
4239.678	1	1	0	0	0.065452	0.055194	0.25398	0.15149	0.10822	0.10957	0.12943	0.11037	0.14082	0.21881	0.1384	0.072499	0.36452	0.32934	0.032965	0.25473	-2.1312	-3.0104	-2.4375	-2.6417	-3.0229	-2.3146	-2.925	-2.9188	-2.2646	-3.0229	-2.6625	-2.5083	-3.0875	-2.4062	-2.7917	-2.9833	262.512	250.111	192.507	242.931	191.102	90.768	-62.739	261.673	119.045	-1.053	208.683	210.889	149.872	193.150	247.306	232.376	0.00015226	0.00047184	0.00011029	990.61	2.0954e-06	5.3194e-06	775.2	302.85	1.3677e-06	4.8101e-06	240.38	82.73	88.668	34.363	2.9415e-06	40.859	0.00026997	0.00025446	6.6925e-05	1020.4	2.5386e-06	2.5042e-06	801.29	312.25	2.4353e-06	2.0148e-06	248.05	86.262	92.377	35.437	2.2234e-06	42.402	176.226	-17.246	7.850	-74.964	46.396	67.189	-75.947	-71.039	14.177	73.851	-72.534	-68.299	-66.845	-62.249	61.040	-64.431	-8191	255	
4239.799	1	1	0	0	0.13762	0.087064	0.093803	0.067942	0.28937	0.026816	0.20412	0.26885	0.18822	0.12324	0.046616	0.15429	0.24503	0.23583	0.21083	0.1093	-1.9333	-2.9854	-2.4062	-2.675	-3.1396	-2.5667	-2.7354	-3	-2.2438	-3.0583	-2.6167	-2.3667	-2.9604	-2.5687	-2.6521	-2.9208	-40.584	30.752	99.447	191.328	-31.808	201.329	146.756	227.215	216.188	-88.214	-62.478	184.017	180.687	-80.052	100.950	57.431	0.00015382	0.00057776	7.5973e-05	989.33	4.0418e-06	5.9695e-06	776.08	304.83	2.624e-06	2.7917e-06	243.26	83.492	90.478	34.403	2.8648e-06	41.031	0.00022279	0.00019174	5.5707e-05	1016.2	2.3062e-06	2.3739e-06	801.38	314.41	2.422e-06	2.2335e-06	250.76	86.593	94.126	35.787	2.5975e-06	42.641	187.240	-32.799	-66.807	-75.177	38.940	55.540	-76.009	-71.129	73.038	64.913	-72.673	-68.346	-66.858	-62.270	33.508	-63.888	-8191	255	
4239.895	1	1	0	0	0.37605	0.37589	0.32097	0.15932	0.17574	0.17361	0.19916	0.23167	0.079447	0.1259	0.10828	0.15771	0.28689	0.094818	0.18717	0.16654	-1.6104	-3.0292	-2.85	-2.4958	-2.9917	-2.3146	-2.5771	-3.0187	-2.2333	-2.9146	-2.7188	-2.3208	-2.8229	-2.5729	-2.7021	-2.8937	262.472	261.597	-56.457	-55.209	77.033	126.941	205.211	227.858	110.486	121.608	219.274	11.577	233.661	208.836	195.295	-36.267	0.00014301	0.00049183	6.0042e-05	1006.2	2.3994e-06	3.6445e-06	794.64	308.86	1.964e-06	4.3058e-06	245.8	82.561	91.533	35.028	2.0399e-06	40.776	0.00024944	0.00023842	6.6351e-05	1035	2.8624e-06	2.8133e-06	817.91	319.49	2.8749e-06	2.815e-06	252.32	86.533	95.161	36.155	2.8056e-06	42.638	175.866	-8.278	18.788	-75.071	97.705	91.247	-76.111	-70.939	15.375	79.210	-72.738	-68.677	-66.781	-61.933	11.794	-64.275	-8191	255	
4239.989	1	1	0	0	0.037866	0.14474	0.13716	0.13867	0.29115	0.12785	0.24078	0.22859	0.10059	0.3451	0.1206	0.34387	0.15852	0.20175	0.23596	0.17036	-1.9562	-2.9854	-2.6729	-2.6	-2.9458	-2.5458	-2.6396	-3.125	-2.3479	-2.65	-2.8937	-2.2375	-3	-2.6271	-2.6167	-2.8521	247.274	137.410	9.935	0.538	36.241	-30.599	-69.895	-77.748	29.385	165.462	-30.310	41.917	172.050	254.036	-47.056	188.781	0.00017022	0.00056333	0.00014227	1000.9	1.6921e-06	4.3293e-06	784.56	305.38	4.4769e-07	3.291e-06	241.69	82.09	89.951	34.272	1.6195e-06	40.726	0.00025622	0.00023018	6.5079e-05	1025.7	2.5878e-06	2.4783e-06	805.34	315.79	2.6918e-06	2.5161e-06	248.81	86.141	94.06	35.637	2.6109e-06	42.22	179.754	-15.413	-32.077	-75.164	84.579	56.123	-76.147	-70.729	73.488	43.499	-72.159	-68.614	-66.800	-62.511	133.665	-64.561	-8191	255	
4240.085	1	1	0	0	0.19823	0.18758	0.13626	0.13504	0.14143	0.16686	0.33891	0.26903	0.19987	0.035638	0.25858	0.089876	0.023157	0.10949	0.088597	0.17961	-1.9229	-2.7521	-2.9	-2.3521	-3.0917	-2.8563	-2.6208	-3.0354	-2.3375	-2.65	-2.9188	-2.4833	-3.025	-2.6229	-2.2792	-3.0708	192.015	112.690	264.588	237.077	-60.128	57.399	219.751	210.465	120.412	-3.596	214.908	152.399	160.380	17.446	59.818	163.464	0.00014844	0.00055405	0.0001421	981.48	2.1309e-06	3.7088e-06	768.36	298.4	1.949e-06	2.9781e-06	237.07	81.491	88.395	33.719	4.1348e-06	40.177	0.00023962	0.00022747	6.1498e-05	1009.9	2.2333e-06	2.2772e-06	792.15	308.67	2.3706e-06	2.1789e-06	245.15	84.839	91.951	34.958	2.2077e-06	41.572	171.584	-24.963	-35.671	-75.050	96.490	25.237	-76.124	-70.925	2.321	73.057	-72.381	-68.278	-66.813	-62.008	55.027	-64.171	-8191	255	
4240.206	1	1	0	0	0.19207	0.12383	0.10236	0.17751	0.087833	0.20742	0.22245	0.11257	0.17379	0.10274	0.18044	0.1929	0.24781	0.18238	0.020243	0.33615	-2.0125	-2.7438	-2.8312	-2.5271	-2.8438	-2.8479	-2.5938	-3.025	-2.4646	-2.5104	-2.85	-2.5021	-2.6979	-2.7896	-2.4604	-2.9729	-41.807	33.879	200.654	-32.606	99.308	36.523	67.998	49.879	-33.670	16.691	227.249	-68.630	-39.810	-72.623	125.323	241.858	0.00013155	0.00034563	6.0416e-05	980.28	2.9075e-06	3.0497e-06	770.44	299.53	2.3138e-06	4.555e-06	237.14	81.863	88.367	33.594	1.6845e-06	40.155	0.00022559	0.00019207	5.1157e-05	1005.8	2.2567e-06	2.0525e-06	794.6	308.44	2.2944e-06	2.0985e-06	246.15	85.182	91.707	34.882	2.2275e-06	41.554	169.312	28.282	-1.920	-74.983	64.433	71.200	-76.126	-71.189	3.554	81.473	-72.727	-68.362	-66.668	-62.200	23.024	-64.021	-8191	255	
4240.278	1	1	0	0	0.068189	0.24339	0.069292	0.23451	0.16961	0.13947	0.15358	0.10246	0.026994	0.055305	0.38199	0.26478	0.12222	0.20903	0.13658	0.13666	-2.0833	-2.2729	-2.9792	-2.2354	-2.5875	-3	-2.3333	-3.1521	-2.5792	-2.3583	-3.1167	-2.3167	-2.7479	-2.7958	-2.25	-2.8958	-15.405	111.322	233.874	243.447	245.274	-43.778	250.481	-40.866	226.548	172.292	191.279	198.634	251.392	156.968	-8.385	261.209	0.00014118	0.00044529	0.00011233	969.91	4.2173e-06	3.5371e-06	762.98	296.56	3.4293e-06	4.0286e-06	238.9	80.705	87.588	33.355	2.4513e-06	40.071	0.00022209	0.0001895	5.0725e-05	998.14	2.2386e-06	2.0584e-06	785	306.46	2.2328e-06	2.0879e-06	244.56	84.6	90.875	34.632	2.1292e-06	41.57	169.943	-8.900	-3.452	-75.083	61.791	62.597	-76.018	-71.317	-15.808	59.799	-72.359	-68.431	-67.060	-62.332	42.942	-64.267	-8191	255	
4240.374	1	1	0	0	0.25206	0.14944	0.17593	0.029957	0.16205	0.28763	0.31267	0.083058	0.20292	0.094923	0.06278	0.32733	0.16457	0.23058	0.11107	0.16024	-2.2396	-2.3542	-3.0521	-2.4667	-2.7833	-2.7188	-2.2708	-2.9708	-2.7542	-2.4625	-3.0833	-2.475	-2.6979	-2.9188	-2.3729	-2.9125	-47.936	171.839	50.793	37.914	-13.498	267.354	156.284	257.977	-59.609	61.641	-14.883	170.939	-61.629	2.898	73.582	190.041	0.00014694	0.00030298	9.294e-05	973.08	4.0586e-06	4.0123e-06	763.98	297.6	1.5756e-06	2.8052e-06	236.32	81.593	87.456	33.782	4.1821e-06	40.393	0.00020509	0.00018392	4.9317e-05	999.47	2.1919e-06	2.0231e-06	786.79	306.71	2.2933e-06	2.1457e-06	243.7	84.75	91.425	34.939	2.2635e-06	41.699	165.191	-2.866	27.728	-75.255	22.455	85.577	-75.950	-70.769	17.504	83.750	-73.184	-68.514	-66.717	-62.198	72.766	-63.977	-8191	255	
4240.470	1	1	0	0	0.17157	0.13166	0.080534	0.29297	0.1378	0.15952	0.44272	0.36085	0.17146	0.23791	0.094209	0.034702	0.30342	0.024733	0.13387	0.26104	-2.3104	-2.2146	-2.9021	-2.5604	-2.3083	-2.9688	-2.3792	-3.0563	-2.7042	-2.3354	-3.1292	-2.4813	-2.5125	-2.9396	-2.3229	-2.8729	25.611	269.567	31.676	240.736	125.773	-17.538	-83.526	212.115	212.355	134.811	237.744	181.286	-51.595	141.207	100.943	-61.557	0.00012246	0.00035068	0.00010611	973.85	1.4917e-06	3.8506e-06	759.34	297.5	1.9027e-06	3.3691e-06	236.07	81.445	87.686	33.674	1.4543e-06	40.178	0.00021958	0.00019592	4.957e-05	1000.8	2.1558e-06	1.9538e-06	785.83	306.93	2.247e-06	2.0283e-06	244.41	84.933	91.611	34.992	2.0872e-06	41.781	168.084	9.068	-18.549	-75.278	32.843	77.193	-76.273	-71.355	40.339	48.701	-71.977	-68.131	-66.904	-62.382	39.474	-64.552	-8191	255	
4240.591	1	1	0	0	0.091418	0.22814	0.22238	0.20847	0.14024	0.069383	0.35363	0.17997	0.045524	0.065755	0.2124	0.17854	0.17149	0.14643	0.23738	0.28262	-2.3479	-2.275	-3.0438	-2.7208	-2.3063	-3.0375	-2.3604	-2.8521	-2.7917	-2.4062	-3.0833	-2.5938	-2.4688	-3.0312	-2.4292	-2.7687	-86.734	194.017	188.930	234.028	12.214	-41.129	183.346	-65.856	69.750	-82.491	-44.164	225.639	183.863	-70.053	41.672	-9.368	0.00018732	0.00048003	0.00012573	968.44	1.4045e-06	3.7923e-06	755.33	295.08	2.2035e-06	3.2612e-06	236.26	81.141	87.27	33.458	3.1314e-06	40.152	0.00021224	0.00019145	4.8953e-05	997.89	2.0599e-06	1.8733e-06	781.92	304.57	2.0697e-06	1.8578e-06	243.43	84.884	90.423	34.636	1.9331e-06	41.652	165.978	-37.653	-9.375	-75.351	104.302	81.000	-76.434	-71.099	41.060	74.737	-72.547	-68.493	-67.190	-62.588	56.931	-64.376	-8191	255	
4240.687	1	1	0	0	0.15491	0.32356	0.33422	0.062885	0.26379	0.040975	0.063235	0.18693	0.17414	0.065277	0.37989	0.10643	0.28583	0.16388	0.26943	0.13024	-2.5729	-2.2917	-2.8708	-2.6604	-2.4146	-3.0667	-2.4583	-2.7188	-3	-2.3333	-3.0083	-2.7938	-2.4417	-3.0146	-2.4375	-2.6208	202.744	157.385	71.057	268.682	51.782	100.766	-32.368	213.476	209.686	213.289	152.718	109.320	223.295	198.899	83.511	-27.674	0.00012054	0.00027179	0.00010474	971.53	1.6916e-06	5.6975e-06	759.68	296.96	1.6462e-06	5.7492e-06	237.02	81.916	87.845	33.668	2.6972e-06	40.182	0.00019622	0.00017241	4.936e-05	994.19	1.9654e-06	1.8516e-06	784.02	306.25	2.0891e-06	2.1097e-06	244.7	85.23	91.484	34.959	2.1168e-06	41.898	168.719	18.157	-22.939	-75.267	28.982	62.903	-76.207	-71.146	17.613	72.251	-72.685	-68.258	-67.252	-62.534	21.160	-64.262	-8191	255	
4240.783	1	1	0	0	0.1683	0.19053	0.27693	0.23865	0.2036	0.056236	0.24312	0.27565	0.10824	0.14231	0.35365	0.26488	0.20985	0.029858	0.14439	0.24425	-2.3167	-2.1792	-2.8083	-2.7292	-2.3771	-3.0542	-2.5812	-2.5687	-2.9208	-2.2562	-2.9396	-2.8729	-2.4125	-2.8896	-2.5625	-2.3646	36.534	-66.929	234.912	226.203	261.763	-27.709	196.376	214.659	232.058	-6.859	118.366	92.703	72.798	198.908	70.005	-86.318	0.00016434	0.00027677	0.0001268	969.87	1.598e-06	5.2122e-06	762.09	298.18	2.5445e-06	2.304e-06	237.03	82.512	89.465	34.392	3.4564e-06	40.932	0.00019617	0.00018152	5.1009e-05	997.42	2.0831e-06	1.9481e-06	787.6	307.25	2.1571e-06	1.852e-06	244.67	86.16	92.795	35.711	2.0576e-06	42.413	178.148	1.538	-13.329	-75.205	59.285	70.332	-75.894	-71.179	41.274	91.553	-73.306	-68.754	-67.384	-62.206	86.445	-64.069	-8191	255	
4240.879	1	1	0	0	0.086742	0.28806	0.059768	0.23005	0.19252	0.26808	0.11251	0.41089	0.14956	0.17772	0.19112	0.34596	0.032182	0.20552	0.12313	0.37875	-2.5354	-2.3271	-2.6312	-3.0438	-2.2708	-2.7354	-2.7542	-2.5979	-2.9583	-2.3729	-2.75	-2.9875	-2.3104	-2.9229	-2.6917	-2.5917	40.860	-39.311	-26.869	-87.609	-26.484	-65.077	180.054	197.078	33.152	254.893	260.065	41.872	160.710	250.387	121.036	214.272	0.00013047	0.00062537	0.00010085	979.96	3.1457e-06	6.0973e-06	768.41	299.52	1.5362e-06	4.5573e-06	238.33	83.052	89.42	34.111	1.0352e-06	41.152	0.00021786	0.00018452	5.4256e-05	1006.2	2.1965e-06	1.9839e-06	792.3	309.44	2.1858e-06	1.9899e-06	245.18	86.163	92.939	35.549	2.1349e-06	42.349	175.551	-1.420	-11.111	-74.999	53.721	61.508	-76.068	-71.161	36.763	53.325	-72.738	-68.199	-66.881	-62.639	48.607	-64.296	-8191	255	
4240.975	1	1	0	0	0.22905	0.15385	0.055636	0.13219	0.11744	0.39383	0.21927	0.14174	0.19892	0.10872	0.084034	0.12098	0.062161	0.036785	0.032879	0.11035	-2.6208	-2.3708	-2.5521	-3.0854	-2.2062	-2.7188	-2.6854	-2.4792	-2.9375	-2.4729	-2.7021	-2.9771	-2.4	-2.8542	-2.7792	-2.3292	103.571	117.925	246.994	136.156	-46.211	-15.781	148.446	236.472	158.513	234.657	142.705	234.165	169.898	194.999	188.719	262.733	0.00016127	0.00075026	0.0001178	979.79	2.8638e-06	4.5139e-06	769.23	299.14	2.5861e-06	3.2518e-06	235.58	82.332	89.076	33.824	4.7672e-06	40.067	0.00021862	0.00019152	5.3423e-05	1004.8	2.3011e-06	1.9873e-06	790.84	308.09	2.1723e-06	1.9544e-06	244.3	85.466	92.19	35.017	2.133e-06	41.688	179.480	-14.276	18.930	-75.152	78.279	93.502	-76.229	-71.298	31.369	42.122	-72.905	-68.325	-66.510	-62.157	60.937	-63.621	-8191	255	
4241.070	1	1	0	0	0.067503	0.12947	0.043827	0.10256	0.15198	0.40289	0.16063	0.088358	0.14968	0.12286	0.15253	0.19805	0.16805	0.0322	0.10561	0.10761	-2.5625	-2.4229	-2.3979	-3.0687	-2.1813	-2.7104	-2.7646	-2.3146	-3.0667	-2.5708	-2.3354	-2.9479	-2.2542	-2.8375	-2.8833	-2.5354	-13.882	-66.951	73.526	255.388	262.888	206.697	-49.868	25.619	146.804	245.825	122.899	-64.252	240.467	266.671	125.883	9.042	0.00011111	0.00032354	0.0001004	974.59	3.3595e-06	6.4046e-06	765.26	295.51	3.3041e-07	3.0655e-06	236.85	81.345	87.796	33.273	1.1755e-06	39.639	0.00020836	0.0001897	5.4491e-05	999.18	2.1829e-06	2.0547e-06	785.22	304.93	2.1751e-06	2.0422e-06	243.3	84.903	91.188	34.516	2.0431e-06	41.158	172.039	-6.414	2.028	-75.232	60.890	65.158	-76.055	-71.481	38.108	92.027	-72.303	-68.188	-66.543	-62.515	16.878	-64.083	-8191	255	
4241.168	1	1	0	0	0.37894	0.10344	0.15213	0.039073	0.10734	0.12795	0.13041	0.057124	0.096623	0.11726	0.018994	0.080444	0.20391	0.036752	0.14868	0.41651	-2.575	-2.625	-2.2979	-3.0083	-2.1667	-2.6208	-2.9875	-2.3771	-2.9875	-2.8271	-2.4708	-3.1021	-2.5667	-2.6917	-2.8167	-2.6437	121.852	-41.704	-9.827	-39.688	113.555	-79.198	183.132	239.565	92.360	2.891	171.466	9.510	17.645	-79.557	64.745	-83.169	0.00017712	0.00033108	7.7325e-05	966.8	2.446e-06	3.2127e-06	762.15	294.17	5.645e-07	3.6276e-06	235.64	82.008	87.025	33.256	1.826e-06	39.882	0.00021481	0.00018723	5.4102e-05	991.7	2.1958e-06	1.9846e-06	783.32	302.74	2.1403e-06	1.9089e-06	242.38	84.956	90.428	34.486	1.8648e-06	41.281	175.444	-9.172	-27.061	-74.947	73.620	55.135	-76.005	-71.053	89.272	58.035	-72.971	-68.525	-66.663	-62.129	83.644	-64.329	-8191	255	
4241.287	1	1	0	0	0.031374	0.11259	0.14249	0.33394	0.1025	0.13322	0.30791	0.14365	0.055149	0.23875	0.1813	0.11082	0.27581	0.20878	0.075603	0.34398	-2.4396	-2.55	-2.4979	-3.0917	-2.6833	-2.6583	-3.1083	-2.5208	-3.0042	-2.775	-2.4583	-2.9562	-2.6958	-2.575	-2.9771	-2.6167	29.538	-12.719	173.227	243.198	165.201	255.422	256.839	-84.564	13.332	265.871	157.355	159.773	-82.975	-33.946	102.610	196.692	0.00013545	0.00012502	0.00011282	964.86	1.1594e-06	3.5989e-06	749.36	293.16	2.0526e-06	2.8815e-06	234.28	81.929	86.411	33.665	1.1322e-06	40.141	0.00020079	0.00016728	4.7965e-05	988.26	1.9603e-06	1.7512e-06	777.79	302.29	1.9919e-06	1.6969e-06	241.71	85.191	90.481	34.748	1.8111e-06	41.669	165.838	-12.419	-4.619	-75.066	-55.785	42.429	-76.051	-71.006	2.015	34.123	-72.615	-68.172	-66.756	-62.254	109.021	-64.079	-8191	255	
4241.383	1	1	0	0	0.14711	0.029537	0.088837	0.15265	0.13076	0.2095	0.077519	0.045818	0.099034	0.028076	0.3306	0.14506	0.089767	0.14985	0.16117	0.085843	-2.1354	-2.6792	-2.4062	-3.0125	-2.6125	-2.3646	-3.1354	-2.4083	-2.7938	-2.8833	-2.2875	-2.9771	-2.5875	-2.6271	-2.9792	-2.5417	-39.777	3.238	108.047	142.273	43.477	20.124	149.775	150.112	-81.814	64.430	146.585	232.847	-30.218	210.851	-32.497	266.981	0.00014118	0.00037417	8.0726e-05	964.27	1.8182e-06	2.2637e-06	757.41	293.78	1.7552e-06	2.6737e-06	235.47	82.978	87.401	33.615	2.0245e-06	40.777	0.00018746	0.00015524	4.6483e-05	988.23	1.8511e-06	1.7754e-06	781.07	303.42	1.9389e-06	1.7656e-06	244.45	86.337	91.463	35.033	1.8696e-06	42.247	180.651	-5.819	22.692	-75.389	37.630	52.971	-75.650	-71.059	58.669	52.892	-73.146	-68.521	-66.772	-62.399	69.423	-64.112	-8191	255	
4241.479	1	1	0	0	0.081625	0.12942	0.027773	0.093351	0.12023	0.16031	0.19371	0.25801	0.25205	0.076059	0.097811	0.2403	0.071205	0.2499	0.24988	0.074294	-2.1958	-2.7	-2.2729	-3.0479	-2.6333	-2.4083	-3.0917	-2.4708	-2.6208	-2.9458	-2.2396	-2.7479	-2.6958	-2.5104	-3.0646	-2.5229	-27.029	-50.648	140.400	-72.246	90.184	250.609	232.470	182.512	185.602	-53.291	-74.196	82.400	212.145	-30.803	170.396	55.358	0.00014606	0.00056212	0.00011897	967.39	1.6253e-06	4.3288e-06	772.04	297.95	1.594e-06	2.1509e-06	239.82	83.211	88.231	33.602	2.6526e-06	40.507	0.00020283	0.00017632	4.8267e-05	995.28	1.9571e-06	1.8778e-06	790.74	306.47	2.1288e-06	1.7607e-06	245.95	86.361	91.943	34.82	2.0085e-06	42.049	175.881	-12.379	25.665	-74.919	-7.250	40.722	-76.162	-71.103	-8.472	55.658	-72.624	-68.519	-66.875	-62.695	78.139	-64.413	-8191	255	
4241.575	1	1	0	0	0.15702	0.18328	0.087661	0.50251	0.38012	0.17626	0.50847	0.080141	0.19793	0.02357	0.056792	0.22302	0.13912	0.40061	0.052264	0.097681	-2.1354	-2.9938	-2.2521	-2.7771	-2.6542	-2.2958	-3.0833	-2.6167	-2.4604	-2.9208	-2.3229	-2.75	-2.8563	-2.2812	-2.8438	-2.4938	-57.966	258.072	30.526	231.013	28.397	153.792	151.179	233.632	23.875	98.775	122.959	265.716	68.109	-69.648	209.474	-83.227	0.00016617	0.00038079	0.00010158	974.96	1.7549e-06	3.5875e-06	772.92	296.44	1.9956e-06	3.8136e-06	237.02	82.398	88.004	33.536	3.2814e-06	40.285	0.00021459	0.00018743	5.1916e-05	1003.9	2.2494e-06	2.1188e-06	794.34	306.23	2.2192e-06	1.8043e-06	244.41	85.743	91.557	34.8	2.0438e-06	41.69	173.987	-14.212	12.812	-74.835	47.156	26.822	-75.907	-70.692	9.185	82.244	-73.049	-68.880	-66.858	-62.695	65.972	-64.087	-8191	255	
4241.671	1	1	0	0	0.098194	0.1816	0.074418	0.2794	0.12439	0.0287	0.26929	0.18061	0.15028	0.19921	0.21651	0.3634	0.24249	0.094447	0.15024	0.17432	-2.0875	-2.9583	-2.3979	-2.8792	-2.825	-2.4229	-3.1833	-2.6042	-2.4021	-3.1604	-2.5687	-2.8396	-2.9625	-2.2167	-2.7146	-2.6667	205.683	147.801	162.057	265.623	-81.863	34.656	183.803	243.524	263.007	59.747	186.052	135.757	193.034	174.001	169.403	-54.555	0.00016413	0.00041145	8.174e-05	978.91	2.0283e-06	4.6993e-06	768.56	298.85	1.7721e-06	3.9744e-06	239.56	82.318	89.602	34.061	2.179e-06	40.717	0.00020962	0.0001761	5.1589e-05	1003.9	2.1325e-06	2.1457e-06	793.32	308.16	2.415e-06	2.1572e-06	246.23	86.37	93.092	35.377	2.1049e-06	42.244	174.600	13.673	33.583	-75.079	41.224	80.934	-76.282	-70.874	18.733	74.840	-72.808	-68.469	-66.704	-62.368	39.063	-64.169	-8191	255	
4241.767	1	1	0	0	0.21872	0.10466	0.21281	0.1653	0.056889	0.018309	0.18776	0.2968	0.19845	0.28156	0.22285	0.044075	0.1193	0.16649	0.11097	0.067652	-1.9813	-2.8708	-2.2083	-2.6708	-3.0542	-2.1875	-2.8812	-2.9375	-2.3167	-2.8958	-2.4792	-2.6104	-3.0896	-2.1729	-2.85	-2.8146	-83.088	-12.703	42.011	204.252	3.032	-72.556	161.939	223.788	166.871	251.404	29.671	-83.496	150.631	-72.314	-16.046	220.549	0.00013833	0.00045225	0.00017569	983.14	2.7079e-06	6.053e-06	773.83	300.53	1.3747e-06	3.9605e-06	240.35	83.147	89.479	34.099	3.9279e-06	40.722	0.0002223	0.00018501	5.4756e-05	1009.5	2.1744e-06	2.16e-06	796.57	309.95	2.2211e-06	2.0055e-06	246.67	86.681	93.101	35.376	1.9736e-06	42.224	180.529	-6.574	4.579	-74.953	68.843	68.464	-76.117	-70.992	27.806	66.415	-72.309	-68.411	-67.018	-62.510	57.069	-64.289	-8191	255	
4241.888	1	1	0	0	0.10443	0.012101	0.043449	0.34442	0.16948	0.17319	0.19704	0.20966	0.14139	0.13394	0.10546	0.15998	0.2434	0.21592	0.18702	0.065565	-1.7812	-2.9938	-2.3604	-2.5854	-2.9167	-2.1521	-2.8937	-2.9917	-2.2125	-2.9479	-2.4979	-2.4562	-2.9021	-2.3812	-2.7604	-2.9771	60.643	60.318	1.799	258.076	134.108	146.423	210.139	188.843	162.519	210.180	-43.010	-37.708	-3.449	209.132	115.870	178.864	0.0001584	0.0003539	9.3927e-05	974.69	1.3331e-06	4.3328e-06	766.92	299.68	2.1899e-06	2.1783e-06	237.37	82.918	88.934	34.029	2.8867e-06	40.633	0.00021414	0.00017592	4.8193e-05	1001.1	1.9511e-06	1.8538e-06	788.86	307.54	2.0136e-06	1.8339e-06	245.29	86.378	92.69	35.223	1.9264e-06	42.279	165.169	13.027	-23.668	-75.100	95.125	90.550	-76.103	-71.138	30.226	60.388	-72.679	-68.729	-66.825	-62.314	62.361	-64.339	-8191	255	
4241.982	1	1	0	0	0.28205	0.087595	0.12269	0.19853	0.037165	0.20167	0.2134	0.072628	0.074726	0.23219	0.45266	0.36759	0.12646	0.12666	0.043842	0.15992	-1.725	-2.8375	-2.525	-2.4437	-2.8167	-2.3292	-2.5729	-2.8438	-2.3625	-3.0583	-2.5917	-2.3812	-3.0375	-2.4229	-2.675	-2.7854	12.728	95.918	233.069	224.874	167.800	-11.570	88.880	91.892	13.768	-48.616	77.013	191.898	213.820	253.176	-7.580	240.636	0.00018036	0.0005269	9.1044e-05	975.36	2.3945e-06	4.3004e-06	771.1	299.76	1.6297e-06	1.994e-06	239.64	83.335	88.675	34.261	4.4886e-06	40.592	0.00020506	0.00017359	4.8434e-05	1003.6	1.9058e-06	1.9955e-06	794.83	308.37	2.0148e-06	1.9119e-06	247.46	86.692	92.919	35.413	2.1869e-06	42.168	176.258	-15.088	-6.773	-75.357	44.325	88.147	-76.353	-70.914	17.230	65.566	-72.663	-68.450	-66.615	-62.395	60.597	-64.444	-8191	255	
4242.078	1	1	0	0	0.059531	0.035983	0.14368	0.2688	0.29173	0.063743	0.29943	0.26681	0.15205	0.281	0.22101	0.13294	0.1502	0.10113	0.25199	0.16502	-1.9354	-2.8875	-2.5938	-2.5604	-2.9917	-2.2958	-2.6021	-3.1208	-2.3479	-2.7917	-2.5917	-2.4062	-3.1937	-2.5229	-2.4458	-2.9729	103.187	71.794	42.041	264.803	265.602	233.621	-56.245	237.919	160.085	114.045	-52.400	187.905	144.955	109.808	-28.417	245.764	0.00015309	0.00017567	0.00013125	993.91	3.3859e-06	1.4245e-06	782.07	303.98	1.8547e-06	3.3442e-06	241.4	84.155	91.383	34.819	7.9151e-07	41.187	0.00021308	0.00019541	5.2231e-05	1018.2	2.2211e-06	2.0907e-06	805.08	313.41	2.2038e-06	2.0385e-06	249.33	87.452	94.898	36.049	2.1156e-06	42.738	173.089	21.138	-1.600	-75.061	57.643	89.393	-76.298	-70.800	32.915	45.326	-72.341	-68.081	-66.717	-62.013	17.360	-64.688	-8191	255	
4242.152	1	1	0	0	0.22005	0.10214	0.21667	0.1718	0.063429	0.088637	0.18583	0.16605	0.29308	0.16242	0.11936	0.2051	0.23415	0.11055	0.38272	0.099346	-2.025	-2.7604	-2.7292	-2.45	-2.9333	-2.4375	-2.4417	-3.1771	-2.3479	-2.8646	-2.8271	-2.2104	-2.8521	-2.4521	-2.5375	-2.9375	-25.770	41.063	9.775	226.020	68.632	43.737	-56.189	204.739	3.277	237.776	198.226	268.118	237.161	182.913	4.153	235.645	0.00015087	0.00039109	0.00010604	1007	2.4348e-06	5.7041e-06	785.62	309.28	8.6783e-07	3.3738e-06	244.62	84.58	92.034	35.282	3.3899e-06	41.55	0.00021647	0.00019094	5.3917e-05	1030.3	2.1829e-06	2.0596e-06	810.99	317.89	2.2279e-06	2.0684e-06	251.68	87.872	95.907	36.496	2.2292e-06	42.96	170.938	-2.566	-12.257	-75.096	56.147	89.924	-76.039	-70.877	41.431	76.437	-72.878	-68.531	-66.400	-62.362	50.574	-64.189	-8191	255	
4242.271	1	1	0	0	0.13051	0.057586	0.099736	0.13236	0.065042	0.16709	0.2281	0.24414	0.095195	0.069638	0.25724	0.32413	0.014263	0.24723	0.23186	0.084943	-2.0333	-2.6104	-2.8396	-2.475	-2.8958	-2.6708	-2.525	-3.2021	-2.4271	-2.6396	-3.0833	-2.4417	-2.8812	-2.8667	-2.2729	-3.0958	196.991	-79.142	87.893	165.234	85.204	55.487	141.168	238.417	231.260	124.146	133.552	214.744	-1.295	-84.098	-10.946	-2.858	0.00016498	0.00043479	9.767e-05	1000.2	2.9153e-06	4.5415e-06	781.2	306.64	6.6475e-07	4.4065e-06	243.36	84.227	91.119	34.717	2.4381e-06	41.132	0.00021934	0.00018823	5.2367e-05	1031.2	2.1339e-06	2.0026e-06	807.35	316.27	2.158e-06	2.0826e-06	250.35	87.168	94.58	35.988	2.1025e-06	42.749	173.010	-25.523	-2.584	-75.220	39.502	86.438	-76.122	-70.954	101.704	50.544	-72.688	-68.491	-66.711	-62.134	51.811	-64.406	-8191	255	
4242.367	1	1	0	0	0.19859	0.043405	0.096797	0.31715	0.26491	0.16898	0.06935	0.14117	0.13197	0.039777	0.16083	0.058576	0.38868	0.1025	0.095399	0.15054	-2.0729	-2.375	-3.0021	-2.3979	-2.8646	-2.7812	-2.3625	-3.0958	-2.3479	-2.5229	-3.0354	-2.4208	-2.75	-2.7604	-2.2979	-3.2021	134.748	71.385	49.583	249.078	-46.772	50.829	-42.516	194.519	-45.920	163.883	270.038	168.349	-44.961	226.100	72.193	193.935	0.0001424	0.00035474	0.00012071	998.32	1.5378e-06	4.7053e-06	786.48	305.94	7.7983e-07	4.3745e-06	244.41	83.748	91.045	34.62	2.0504e-06	40.718	0.0002171	0.00018539	5.0502e-05	1025.8	2.1374e-06	1.9422e-06	808.53	315.08	2.059e-06	2.0461e-06	250.57	87.348	94.391	35.817	2.0903e-06	42.359	171.073	-9.871	-4.513	-75.081	61.824	62.820	-76.458	-70.960	-18.656	70.383	-72.389	-68.453	-66.819	-62.205	44.805	-64.429	-8191	255	
4242.463	1	1	0	0	0.017206	0.11204	0.10304	0.30983	0.21889	0.17831	0.1413	0.25967	0.3312	0.26355	0.19671	0.14283	0.094293	0.39661	0.25353	0.075437	-2.0333	-2.4125	-2.9875	-2.4604	-2.6688	-2.6167	-2.4688	-3.0896	-2.4771	-2.4958	-2.7875	-2.4	-2.7917	-2.8271	-2.2771	-2.8667	69.782	2.512	5.305	229.059	226.681	69.292	191.874	216.337	266.846	-13.326	247.143	5.092	-74.747	217.645	132.067	245.761	0.00015245	0.00051555	0.00011166	995.31	2.5062e-06	7.8224e-06	777.24	304.38	2.0759e-06	3.9611e-06	242.67	83.054	90.595	34.292	1.6791e-06	40.377	0.00021035	0.00019194	5.1138e-05	1023.6	2.0776e-06	1.8351e-06	803.61	313.51	2.0718e-06	1.9884e-06	249.68	86.649	93.949	35.564	2.1018e-06	42.05	177.810	3.381	-28.713	-75.014	34.795	75.246	-75.983	-71.175	70.275	44.275	-72.313	-68.713	-67.008	-62.206	97.402	-64.479	-8191	255	
4242.559	1	1	0	0	0.076806	0.075997	0.11658	0.25563	0.27214	0.13689	0.30527	0.28857	0.18032	0.12679	0.14952	0.067075	0.097769	0.27927	0.13893	0.21418	-2.3167	-2.3833	-2.9208	-2.5417	-2.7667	-2.8521	-2.4604	-2.9583	-2.6417	-2.4188	-2.9	-2.4458	-2.5375	-2.9938	-2.2292	-2.8792	9.138	-86.593	57.899	-62.142	168.391	-34.518	-27.893	256.628	10.949	-53.394	188.893	-16.601	180.902	-58.929	-64.847	193.337	0.00014329	0.00036943	0.00015514	997.76	2.3828e-06	3.6183e-06	777.52	302.79	2.2717e-06	2.8741e-06	241.02	82.321	89.205	33.831	2.306e-06	39.785	0.00020804	0.00018727	4.9885e-05	1021.7	2.1086e-06	2.0312e-06	803.54	312.49	2.204e-06	2.0222e-06	248.11	85.907	93.096	35.152	2.0691e-06	41.475	179.680	23.179	6.925	-75.045	40.910	48.402	-75.999	-71.060	38.375	79.717	-72.685	-68.577	-66.672	-62.124	78.505	-64.275	-8191	255	
4242.680	1	1	0	0	0.1026	0.26977	0.15705	0.26057	0.10144	0.17088	0.18365	0.17021	0.11785	0.184	0.11606	0.031622	0.17068	0.064521	0.34204	0.22313	-2.4646	-2.2729	-3.0292	-2.6354	-2.5146	-2.8771	-2.4729	-2.9646	-2.8729	-2.25	-3.0354	-2.6292	-2.7333	-3.0104	-2.4	-2.9062	-24.912	129.361	71.408	222.541	119.111	223.519	199.266	259.628	109.868	-36.219	159.233	71.649	52.332	267.433	260.270	172.451	0.0001771	0.00034948	0.00012285	996.29	2.5254e-07	4.2611e-06	777.9	305.6	4.5171e-07	3.4876e-06	243.26	83.352	89.889	34.207	1.028e-06	39.928	0.00020716	0.00017777	4.8829e-05	1021.8	2.1135e-06	1.8973e-06	802.69	314.11	2.1022e-06	2.0041e-06	249.7	86.387	93.935	35.334	2.0345e-06	41.439	176.580	10.189	-11.858	-74.905	41.889	77.712	-76.046	-71.351	13.837	38.265	-72.580	-68.455	-66.910	-62.272	66.699	-64.680	-8191	255	
4242.751	1	1	0	0	0.057713	0.11813	0.235	0.24126	0.16587	0.093076	0.028364	0.2435	0.1187	0.11743	0.075725	0.12203	0.24668	0.21069	0.10116	0.18185	-2.4146	-2.3	-2.8396	-2.7292	-2.3604	-2.8521	-2.5312	-2.825	-2.8833	-2.1521	-2.9021	-2.8042	-2.6708	-3.1417	-2.1937	-2.6354	221.159	80.733	-13.728	247.173	166.790	180.264	202.551	159.273	165.255	17.193	-45.654	-20.368	225.986	-63.604	143.256	-12.848	0.00011346	0.000534	9.0711e-05	1000.8	2.2569e-06	5.9606e-06	783.58	305.92	2.2558e-06	4.3145e-06	242.97	82.732	89.73	33.905	1.8996e-06	40.078	0.00020778	0.00017694	5.0188e-05	1030.6	2.0643e-06	1.8743e-06	809.96	316.69	2.1115e-06	1.9173e-06	251.35	86.082	93.469	35.177	1.8799e-06	41.709	188.355	0.634	7.727	-74.780	59.959	64.723	-75.819	-71.047	30.603	69.741	-72.803	-68.410	-66.876	-62.260	4.899	-64.016	-8191	255	
4242.848	1	1	0	0	0.076626	0.063795	0.03757	0.14359	0.26474	0.16452	0.18772	0.090207	0.22941	0.15964	0.30747	0.07338	0.13535	0.014185	0.056218	0.082747	-2.3937	-2.1646	-3.0229	-2.8042	-2.3937	-3.2062	-2.5729	-2.7104	-2.9437	-2.3438	-2.8375	-2.775	-2.4062	-3.0646	-2.4354	-2.6729	132.994	-24.814	-74.951	230.485	64.362	214.122	160.288	126.435	225.465	74.328	263.758	31.629	-25.129	-4.423	160.506	242.801	0.00015525	0.00032107	9.256e-05	992.51	6.7323e-07	3.8277e-06	779.88	304.67	1.3766e-06	4.5271e-06	243.57	83.221	89.969	34.278	2.0705e-06	40.557	0.00019099	0.00017334	4.3409e-05	1020.1	1.8039e-06	1.6594e-06	800.63	314.27	1.7635e-06	1.6549e-06	251.17	86.762	93.547	35.488	1.7961e-06	42.214	167.513	-9.718	30.279	-74.970	-68.931	65.228	-75.985	-71.525	80.647	86.229	-72.710	-68.595	-67.255	-62.157	18.892	-64.341	-8191	255	
4242.968	1	1	0	0	0.045541	0.28492	0.17824	0.28448	0.044217	0.080802	0.17598	0.23941	0.12851	0.021038	0.21913	0.15622	0.33477	0.26185	0.076163	0.43503	-2.5125	-2.3021	-2.8208	-2.9521	-2.5583	-3.0208	-2.7021	-2.5312	-2.8583	-2.2812	-2.8625	-2.9208	-2.2854	-3.1167	-2.4313	-2.4833	59.598	1.319	229.147	178.531	107.139	185.459	69.559	-61.885	131.784	-66.235	246.135	238.524	258.177	235.124	-82.316	242.097	0.00014534	0.0004276	9.8666e-05	999.77	1.617e-06	2.4724e-06	780.82	308.4	2.1799e-06	3.8038e-06	243.84	83.462	90.468	34.35	2.2985e-06	40.754	0.00019663	0.00016599	4.5854e-05	1025.6	1.9148e-06	1.6777e-06	806.25	316.71	1.8639e-06	1.7938e-06	251.73	86.767	94.116	35.6	1.8534e-06	41.945	170.196	-7.160	-10.650	-75.040	83.910	102.775	-75.942	-71.129	9.192	53.605	-72.806	-68.550	-66.764	-62.345	68.940	-64.509	-8191	255	
4243.063	1	1	0	0	0.39525	0.18292	0.023455	0.13369	0.23042	0.12548	0.058824	0.20568	0.097289	0.19364	0.20291	0.14395	0.19501	0.080012	0.090443	0.3935	-2.5354	-2.2792	-2.5062	-2.9042	-2.1896	-2.9062	-2.6583	-2.375	-3.0208	-2.2188	-2.7542	-2.925	-2.2833	-2.9437	-2.6021	-2.3604	-61.478	41.047	248.695	-35.896	-36.833	224.956	65.788	204.319	124.920	-19.235	-29.049	245.587	-6.612	212.692	208.867	167.311	0.00016299	0.00045406	8.5021e-05	1009.8	2.7993e-06	6.9777e-06	786.73	309.77	8.9232e-07	3.0076e-06	242.69	82.356	90.362	33.704	1.6302e-06	39.608	0.00020249	0.00017048	4.7607e-05	1037.2	1.9923e-06	1.8773e-06	814.13	317.95	1.9466e-06	1.8202e-06	249.71	85.649	94.101	34.968	1.9965e-06	41.061	165.638	5.297	-18.752	-75.201	66.624	66.860	-75.877	-71.192	38.147	63.829	-72.721	-68.380	-66.921	-62.402	56.555	-64.591	-8191	255	
4243.159	1	1	0	0	0.25804	0.25438	0.20719	0.16396	0.06027	0.12261	0.15913	0.19317	0.074976	0.073548	0.16324	0.17377	0.11851	0.19818	0.306	0.23749	-2.3229	-2.4688	-2.575	-2.9708	-2.3063	-2.8271	-2.9021	-2.5979	-2.7438	-2.4792	-2.4813	-3.1083	-2.4437	-2.9313	-2.4958	-2.2521	177.342	98.061	6.355	120.235	-72.212	142.080	-62.286	223.860	77.784	238.161	-85.871	-46.957	-63.391	-69.903	-7.281	143.117	0.0001326	0.00065267	0.00010494	1005.6	2.7426e-06	3.906e-06	779.56	304.65	9.722e-07	2.7394e-06	241.85	81.871	89.874	33.068	2.1997e-06	39.468	0.00019648	0.0001709	4.8002e-05	1032.5	1.927e-06	1.8045e-06	808.29	314.24	1.9473e-06	1.7837e-06	248.95	85.146	92.858	34.497	1.7902e-06	40.863	167.353	-1.262	-9.349	-75.173	56.657	34.178	-76.092	-71.290	109.837	52.000	-72.829	-68.483	-67.225	-62.000	44.716	-64.399	-8191	255	
4243.279	1	1	0	0	0.08783	0.078246	0.059658	0.2039	0.31908	0.084608	0.1244	0.12933	0.30739	0.18258	0.10798	0.19822	0.15853	0.28371	0.26642	0.30178	-2.4542	-2.2646	-2.4333	-3.2104	-2.3271	-2.925	-2.9458	-2.3417	-2.8438	-2.6729	-2.5021	-2.975	-2.3083	-2.8042	-2.9021	-2.3042	229.905	210.997	177.012	210.735	261.349	-62.177	-83.415	205.361	-44.946	236.887	109.656	206.280	243.189	267.341	53.759	255.138	0.00016351	0.00052723	8.3269e-05	1001.6	2.0624e-06	3.265e-06	782.89	305.36	1.9233e-06	2.801e-06	241.64	82.67	90.123	33.699	3.1183e-06	40.145	0.00018623	0.00016994	4.6557e-05	1028.1	1.8633e-06	1.7473e-06	810.22	315.27	1.8709e-06	1.7316e-06	250.51	86.039	93.858	35.035	1.8916e-06	41.466	172.732	-11.276	-2.059	-74.918	23.109	68.861	-75.549	-71.283	71.369	13.726	-72.884	-68.446	-67.318	-62.502	39.186	-64.195	-8191	255	
4243.376	1	1	0	0	0.13834	0.041915	0.10205	0.1804	0.30463	0.2399	0.24242	0.14519	0.16451	0.085352	0.04485	0.11403	0.23246	0.2032	0.4446	0.13061	-2.4646	-2.6146	-2.4479	-3.1271	-2.3646	-2.7667	-2.9854	-2.4167	-2.7479	-2.5875	-2.4292	-3.0917	-2.3563	-2.5458	-2.925	-2.0021	-53.176	98.534	219.798	-69.779	121.329	246.036	229.461	265.486	226.980	58.233	-12.338	229.364	105.440	201.043	-38.099	190.842	0.00015509	0.00037061	4.7862e-05	1005.8	3.4558e-06	3.1409e-06	788.63	307.35	1.2036e-06	3.059e-06	242.26	82.48	91.378	34.147	3.1092e-06	40.584	0.00019985	0.00018114	4.8397e-05	1034	2.0753e-06	1.8536e-06	812.09	316.22	1.9686e-06	1.817e-06	250.7	86.475	94.559	35.386	1.8386e-06	41.88	173.684	-26.024	-18.855	-75.003	67.071	94.873	-75.992	-71.200	39.829	80.491	-72.934	-68.716	-66.655	-62.523	46.734	-64.260	-8191	255	
4243.447	1	1	0	0	0.2075	0.04625	0.04844	0.37027	0.18933	0.11741	0.078787	0.15269	0.12429	0.092516	0.18965	0.017243	0.16896	0.11125	0.26329	0.21933	-2.4167	-2.5417	-2.2375	-2.8542	-2.3812	-2.3979	-2.8917	-2.2604	-2.7062	-2.6833	-2.4188	-2.9646	-2.5	-2.5	-2.975	-2.4	18.624	157.118	-82.017	209.154	141.742	0.313	162.665	239.650	201.728	262.664	198.261	-57.666	-83.635	-52.936	131.242	211.568	0.00015818	0.00048292	0.00011241	1001.3	3.5459e-06	3.7991e-06	776.44	304.57	9.7708e-07	2.1415e-06	241.41	82.402	90.866	34.219	4.7123e-06	40.388	0.00018897	0.00016326	4.5625e-05	1026.5	1.9674e-06	1.8087e-06	805.27	313.98	2.0181e-06	1.7206e-06	248.95	86.207	94.238	35.467	1.972e-06	41.804	168.736	-18.763	-3.985	-75.087	40.441	65.332	-75.797	-71.129	-50.467	14.388	-73.006	-68.646	-66.923	-62.191	29.432	-64.098	-8191	255	
4243.568	1	1	0	0	0.078215	0.15089	0.063876	0.31592	0.24121	0.044543	0.21051	0.050295	0.15691	0.072204	0.1162	0.074665	0.3042	0.13433	0.11196	0.18884	-2.4813	-2.6917	-2.0875	-2.9271	-2.5979	-2.4792	-3.0062	-2.4521	-2.6979	-2.825	-2.5042	-2.8667	-2.6333	-2.5271	-2.9458	-2.3292	102.466	61.280	72.004	267.583	3.869	241.517	215.589	226.813	29.244	100.672	-74.455	108.903	244.083	-87.488	164.890	167.664	0.00017218	0.00041287	0.00011148	999.95	1.9795e-06	3.0601e-06	784.08	306.48	2.3607e-06	5.4913e-06	239.98	82.72	89.995	34.175	3.4944e-06	40.344	0.00021274	0.00016763	4.8675e-05	1025.2	2.0712e-06	1.84e-06	805.49	314.78	2.1118e-06	1.8943e-06	248.91	86.303	94.239	35.535	1.8415e-06	42.053	160.411	7.090	6.020	-74.957	45.463	58.142	-75.819	-71.166	9.169	49.094	-72.731	-68.443	-66.901	-62.340	48.075	-64.281	-8191	255	
4243.664	1	1	0	0	0.1925	0.16502	0.29968	0.19953	0.28174	0.14411	0.21741	0.25768	0.15375	0.10016	0.10691	0.23628	0.17743	0.19343	0.054994	0.21388	-2.1583	-3.0333	-2.25	-2.9813	-2.5417	-2.3833	-2.975	-2.5458	-2.7396	-3.0646	-2.4562	-3.0062	-2.7938	-2.5042	-3.0229	-2.4979	114.366	-79.745	183.458	-61.494	-15.222	101.550	267.529	216.042	127.532	187.815	16.232	-64.757	174.063	42.001	133.143	130.180	0.00014064	0.00034545	8.8794e-05	995.07	2.2299e-06	3.5558e-06	771.63	302.68	2.1558e-06	2.5038e-06	242.08	83.257	90.142	34.328	2.6554e-06	41.358	0.00019476	0.00014902	4.1822e-05	1017.3	1.7798e-06	1.692e-06	798.31	313.12	1.8504e-06	1.6045e-06	249.52	86.798	93.736	35.866	1.6062e-06	42.861	180.759	-1.588	9.189	-74.925	87.360	54.169	-75.869	-70.850	50.094	63.155	-72.580	-68.744	-66.894	-62.651	52.318	-64.502	-8191	255	
4243.760	1	1	0	0	0.36143	0.16266	0.10008	0.11854	0.055535	0.11065	0.25418	0.12149	0.040907	0.28226	0.13025	0.1485	0.13091	0.26448	0.19392	0.2432	-2.3187	-2.9417	-2.25	-2.9458	-2.5583	-2.3438	-3.2167	-2.5625	-2.4333	-3.1042	-2.4042	-2.8563	-2.85	-2.5271	-2.8792	-2.6312	122.076	173.676	-55.216	101.597	207.186	-84.662	220.221	161.987	-73.973	264.161	141.180	-51.036	-30.076	195.980	79.242	212.594	0.00014377	0.00038068	7.8554e-05	991.09	1.1842e-06	5.3692e-06	779.73	305.87	1.305e-06	3.7531e-06	245.31	84.212	92.373	35.284	3.0666e-06	41.54	0.00018527	0.00014251	4.1371e-05	1017.1	1.6556e-06	1.5181e-06	802.98	315.22	1.8226e-06	1.5365e-06	253.04	88.123	95.409	36.569	1.6556e-06	43.363	178.266	-8.718	-5.502	-75.246	67.468	39.613	-76.266	-71.112	9.146	69.459	-72.570	-68.766	-67.219	-62.280	81.148	-63.850	-8191	255	
4243.856	1	1	0	0	0.17784	0.24935	0.17879	0.19509	0.29917	0.19542	0.10065	0.19292	0.093274	0.1717	0.1473	0.2021	0.11882	0.24863	0.11721	0.017977	-2.0458	-3.1083	-2.1708	-2.8875	-2.8167	-2.3771	-3.1146	-2.5438	-2.4125	-3.0042	-2.5396	-2.8021	-2.9292	-2.1333	-2.9	-2.7479	61.015	-86.461	110.177	242.325	193.878	246.990	140.348	208.557	239.832	-29.088	117.607	180.642	-67.623	-81.471	-76.494	243.026	0.0001574	0.00051134	0.00016153	1004.4	3.1892e-06	4.5191e-06	790.44	311.8	8.3461e-07	3.1526e-06	247.18	84.768	93.066	35.487	1.2442e-06	41.846	0.00019683	0.00015035	4.3409e-05	1034.1	1.8718e-06	1.6989e-06	816.3	320.51	1.8419e-06	1.6959e-06	254.63	88.493	96.817	36.847	1.7408e-06	43.463	174.117	-6.697	15.925	-75.194	79.162	62.853	-75.849	-71.010	-82.730	62.383	-72.187	-68.494	-67.134	-62.492	36.193	-64.160	-8191	255	
4243.952	1	1	0	0	0.14835	0.13299	0.21673	0.21341	0.0041294	0.035306	0.28831	0.1177	0.1366	0.26965	0.25113	0.098498	0.12211	0.26491	0.084165	0.22098	-1.9417	-3.0667	-2.3375	-2.7812	-2.9271	-2.2229	-2.9813	-2.8104	-2.3937	-2.9229	-2.5062	-2.7562	-3.0854	-2.4021	-2.8458	-2.7625	-62.112	199.717	68.345	149.568	-43.133	199.626	149.935	238.030	47.324	10.835	-77.448	183.482	131.603	-87.965	-78.372	86.388	0.00015805	0.00054859	0.00010636	1019.8	2.0572e-06	5.3766e-06	795.38	312.34	2.8767e-06	2.1432e-06	246.9	85.967	93.989	36.217	1.8369e-06	42.096	0.00019907	0.00015646	4.2785e-05	1043.5	1.8177e-06	1.712e-06	820.24	322.79	1.9363e-06	1.715e-06	255.85	88.963	97.448	37.25	1.7536e-06	43.677	167.755	-13.514	8.015	-75.170	33.855	70.487	-76.162	-71.085	21.665	72.865	-72.486	-68.505	-66.805	-62.564	60.518	-64.317	-8191	255	
4244.047	1	1	0	0	0.29766	0.19254	0.18348	0.068834	0.21021	0.053169	0.14303	0.2007	0.37808	0.034703	0.10041	0.39992	0.071733	0.24222	0.25615	0.26593	-1.775	-3.0729	-2.5375	-2.6604	-3.0896	-2.3708	-3.1208	-2.8667	-2.2375	-3.0042	-2.5875	-2.3896	-2.9458	-2.3563	-2.4979	-3.1063	-86.473	229.126	-38.232	173.764	162.308	-30.793	168.142	222.312	-16.200	58.616	-67.993	81.742	-64.737	-35.485	24.247	226.841	0.00014822	0.0005262	9.2746e-05	1014.2	2.8923e-06	3.7385e-06	794.63	311.47	2.0035e-06	2.8676e-06	247.71	86.023	94.092	35.792	3.0893e-06	42.375	0.00019597	0.0001489	4.1952e-05	1039.5	1.798e-06	1.62e-06	817.24	320.94	1.838e-06	1.5918e-06	255.18	89.039	97.323	37.081	1.7446e-06	43.801	168.208	-3.804	-8.805	-74.915	54.130	86.740	-76.273	-70.865	6.532	45.003	-72.822	-68.461	-66.847	-62.488	68.369	-64.311	-8191	255	
4244.143	1	1	0	0	0.12277	0.14296	0.23036	0.23927	0.064009	0.025907	0.11486	0.28542	0.28556	0.099249	0.32625	0.13766	0.18737	0.10422	0.062645	0.11043	-1.9937	-2.7521	-2.4938	-2.6333	-2.9667	-2.3312	-2.7792	-2.8563	-2.2708	-2.8542	-2.5979	-2.5083	-3.1729	-2.3292	-2.5021	-3.0146	128.021	104.628	214.430	269.702	7.065	194.735	95.497	87.998	-35.721	206.679	198.580	64.113	88.898	-48.010	104.609	-75.086	0.00015009	0.00046447	0.00012073	1017.9	1.3073e-06	2.5921e-06	790.9	314.2	2.7362e-06	4.3297e-06	246.16	85.378	93.707	36.105	1.7046e-06	42.705	0.00018784	0.00014457	4.3149e-05	1043.5	1.6929e-06	1.559e-06	818.03	322.41	1.7709e-06	1.4761e-06	255.97	89.217	97.548	37.312	1.6215e-06	44.07	171.101	-7.803	-16.287	-75.257	27.808	37.234	-76.199	-71.109	43.924	71.220	-72.545	-68.669	-66.967	-62.224	42.820	-64.032	-8191	255	
4244.241	1	1	0	0	0.10545	0.069828	0.037234	0.12423	0.10889	0.27957	0.11497	0.25542	0.19076	0.2985	0.036028	0.26129	0.11588	0.41317	0.10514	0.094145	-1.9021	-2.8021	-2.7271	-2.3312	-3.0687	-2.3979	-2.5833	-3.2438	-2.1937	-2.9562	-2.8208	-2.5271	-3.0062	-2.5021	-2.4208	-3.0792	52.103	260.175	-62.542	175.546	230.165	69.603	254.792	159.731	25.289	245.091	-86.672	249.545	196.726	188.745	143.920	180.743	0.00014577	0.00042713	8.2781e-05	1014.2	1.2108e-06	4.8751e-06	798.68	313.98	1.3352e-06	4.1663e-06	248.6	86.768	93.931	36.398	2.2413e-06	42.759	0.00018486	0.00013997	4.0371e-05	1041.2	1.6733e-06	1.582e-06	824.4	324.19	1.8424e-06	1.4741e-06	257.71	90.139	97.971	37.703	1.6768e-06	44.376	172.406	22.656	-23.769	-75.021	43.302	55.501	-76.122	-70.945	52.533	74.456	-72.827	-68.526	-66.857	-62.623	85.506	-64.439	-8191	255	
4244.360	1	1	0	0	0.20043	0.1534	0.099461	0.40769	0.057579	0.091347	0.17335	0.12527	0.24184	0.20565	0.088192	0.032164	0.15941	0.21602	0.35131	0.078355	-1.8792	-2.8229	-2.8	-2.3875	-2.9854	-2.7125	-2.7875	-3.2562	-2.3396	-2.7021	-2.7875	-2.375	-2.9313	-2.6958	-2.4083	-3.0104	102.873	-2.454	110.367	199.200	66.711	68.587	186.197	215.172	14.274	-4.490	188.704	255.917	-85.275	-20.186	143.878	254.559	0.00015108	0.00036034	0.00011545	1008.3	3.2866e-06	4.9077e-06	795.66	314.31	1.1108e-06	4.9036e-06	251.04	86.834	94.199	36.671	4.8647e-06	42.924	0.00019622	0.00014022	3.8309e-05	1038.3	1.683e-06	1.4399e-06	819.76	323.07	1.6796e-06	1.4272e-06	257.16	90.17	97.908	37.819	1.641e-06	44.71	178.591	-8.153	18.718	-74.991	59.617	75.692	-76.101	-71.202	12.528	70.168	-72.632	-68.732	-66.991	-62.529	42.192	-64.579	-8191	255	
4244.456	1	1	0	0	0.12256	0.12638	0.14366	0.38662	0.075086	0.060524	0.14163	0.19428	0.08429	0.11593	0.25154	0.2271	0.070411	0.041935	0.11345	0.08718	-1.9521	-2.5625	-2.7354	-2.4542	-2.8854	-2.6729	-2.4313	-3.1937	-2.3479	-2.5667	-2.9708	-2.4792	-2.9854	-2.7938	-2.4792	-2.9813	-85.351	96.677	71.240	268.860	195.625	158.270	-66.500	-8.938	245.931	93.918	-81.913	141.844	253.543	253.163	-27.704	-59.494	0.00016323	0.00036553	0.00011443	1009.9	1.9189e-06	4.4013e-06	792.05	312.89	2.2745e-06	3.5686e-06	248.34	86.727	94.297	36.516	3.2989e-06	43.163	0.00018505	0.00015697	3.8488e-05	1037.7	1.5367e-06	1.4892e-06	816.17	322.49	1.709e-06	1.5372e-06	256.23	90.36	97.835	37.837	1.5511e-06	44.679	178.657	-23.493	-9.465	-75.520	37.459	68.545	-75.860	-71.084	21.917	73.685	-72.636	-68.204	-67.324	-62.034	38.928	-64.618	-8191	255	
4244.552	1	1	0	0	0.23923	0.052302	0.22405	0.21334	0.14337	0.074402	0.30123	0.24768	0.45115	0.1625	0.16552	0.14982	0.091847	0.17784	0.29057	0.14672	-2.05	-2.5625	-2.8521	-2.5021	-2.925	-2.8187	-2.3875	-3.1021	-2.3875	-2.5729	-3.0271	-2.2417	-2.7667	-2.8646	-2.4146	-3.0062	178.848	-31.499	139.608	230.158	173.264	115.118	-78.021	230.792	242.632	160.554	-27.892	148.931	21.527	-53.377	100.830	-84.959	0.00016158	0.00053464	6.7394e-05	1002.8	2.1596e-06	2.7904e-06	790.29	308.87	2.0145e-06	4.2388e-06	249.36	86.595	93.839	36.26	2.5053e-06	43.543	0.00018333	0.00013948	3.4827e-05	1030.8	1.5577e-06	1.4635e-06	813.42	319.72	1.7658e-06	1.3991e-06	256.17	90.111	97.077	37.671	1.5587e-06	44.857	176.456	-3.477	5.362	-75.051	46.706	49.231	-76.314	-71.146	31.863	48.636	-72.787	-68.959	-67.079	-61.848	44.675	-64.253	-8191	255	
4244.648	1	1	0	0	0.11405	0.17425	0.035581	0.21685	0.045933	0.17189	0.17426	0.058625	0.11944	0.12548	0.021273	0.14842	0.06963	0.26887	0.092237	0.089985	-2.3271	-2.5146	-2.9562	-2.4896	-2.7396	-2.7521	-2.425	-3.1521	-2.5479	-2.4167	-2.9042	-2.3646	-2.8021	-2.9875	-2.2896	-3.0312	206.531	52.182	265.296	227.132	55.766	184.135	231.612	-10.091	251.910	270.009	103.378	65.015	213.015	196.130	213.556	200.110	0.00015949	0.00031562	8.7464e-05	998.41	3.7056e-06	3.8009e-06	791.47	307.98	2.7168e-06	5.6226e-06	252.21	87.805	93.535	36.166	3.2122e-06	43.322	0.00017821	0.00013195	3.5944e-05	1027.3	1.523e-06	1.316e-06	813.48	318.02	1.5399e-06	1.4308e-06	258.17	91.042	96.999	37.485	1.4929e-06	44.846	168.094	-2.982	6.133	-75.072	56.169	45.293	-76.087	-71.162	23.895	51.628	-72.803	-68.775	-67.010	-62.305	27.747	-64.035	-8191	255	
4244.744	1	1	0	0	0.11655	0.063791	0.13271	0.24144	0.081911	0.1217	0.11333	0.13235	0.12258	0.066678	0.26055	0.33839	0.084641	0.085261	0.057388	0.050495	-2.4354	-2.2687	-2.8583	-2.4375	-2.4604	-3.0187	-2.3208	-3.0687	-2.6458	-2.3479	-2.8167	-2.5917	-2.725	-2.8646	-2.0354	-2.8583	-69.411	-84.582	-51.296	174.705	237.139	111.238	181.928	198.055	76.932	197.458	68.227	223.842	-17.009	246.613	33.388	190.745	0.00015079	0.00042776	0.00011635	1014.5	3.3445e-06	4.4511e-06	799.82	311.79	1.9818e-06	4.2605e-06	250.37	87.14	93.913	36.525	2.5571e-06	43.495	0.00018013	0.00013688	3.5339e-05	1038.3	1.5085e-06	1.3384e-06	823.05	321.39	1.5822e-06	1.334e-06	259.29	91.333	97.85	37.894	1.5189e-06	45.148	175.432	-5.124	14.685	-74.992	35.036	67.197	-76.187	-71.445	-7.234	60.519	-72.662	-68.836	-66.961	-62.362	50.176	-64.584	-8191	255	
4244.841	1	1	0	0	0.070945	0.086306	0.24109	0.27317	0.18148	0.14049	0.26338	0.23498	0.16277	0.27178	0.25023	0.2006	0.2081	0.068769	0.27104	0.21971	-2.1896	-2.425	-3.0083	-2.75	-2.4229	-2.9125	-2.3812	-2.8958	-2.8625	-2.4167	-2.9875	-2.575	-2.4875	-3.1729	-2.2188	-2.8312	69.729	-1.769	209.148	259.108	81.843	88.709	205.205	151.192	-30.271	107.057	211.491	142.964	-30.382	35.274	-56.900	-85.720	0.00018086	0.00038883	0.0001682	1014.3	3.0804e-06	5.1929e-06	804.21	313.81	1.7685e-06	4.9433e-06	253.43	88.391	95.025	36.766	2.6171e-06	43.537	0.00016958	0.00013093	3.4555e-05	1042.4	1.5646e-06	1.2953e-06	828.49	323.49	1.5609e-06	1.4433e-06	260.72	92.138	98.762	38.202	1.4867e-06	45.231	171.991	21.736	-2.586	-75.178	81.338	62.266	-75.994	-71.440	18.253	86.811	-73.109	-68.230	-66.797	-62.065	43.499	-64.296	-8191	255	
4244.961	1	1	0	0	0.24667	0.2681	0.23372	0.059467	0.12946	0.17035	0.070263	0.11707	0.2025	0.10263	0.079596	0.16453	0.11138	0.16184	0.19149	0.075318	-2.5146	-2.3229	-2.9042	-2.6	-2.45	-2.975	-2.4021	-2.7854	-2.9042	-2.3917	-3.0104	-2.5896	-2.4979	-2.95	-2.4188	-2.7458	110.390	-23.020	-71.402	139.106	248.360	-0.609	118.649	230.034	-78.034	173.000	220.084	183.619	96.526	151.356	65.225	139.643	0.00014636	0.00041913	7.9673e-05	1019.4	3.2437e-06	4.3336e-06	804.39	312.71	2.9013e-06	3.5063e-06	252.13	87.483	94.182	36.483	1.8374e-06	43.422	0.00017426	0.00013742	3.4957e-05	1044.7	1.6278e-06	1.3572e-06	827.87	323.66	1.5775e-06	1.3171e-06	259.25	91.163	98.188	37.774	1.5451e-06	44.791	177.279	15.958	-6.103	-74.900	78.332	57.610	-76.027	-71.284	33.615	55.851	-72.580	-68.478	-66.548	-62.769	65.915	-64.194	-8191	255	
4245.057	1	1	0	0	0.029922	0.054048	0.13532	0.29044	0.15248	0.11561	0.22023	0.16699	0.18509	0.17616	0.36822	0.063929	0.18925	0.44671	0.21292	0.16322	-2.3312	-2.2375	-3.0042	-2.7896	-2.3583	-3.1188	-2.45	-2.6208	-3.0396	-2.3646	-2.9562	-2.7	-2.5333	-2.8563	-2.4958	-2.6208	141.266	75.971	-62.664	221.007	97.356	9.117	113.362	184.939	236.496	30.416	253.272	139.334	-56.602	223.393	152.289	-55.132	0.00015269	0.0004664	0.00015427	1021	2.2646e-06	6.1651e-06	806.33	316.1	1.0799e-06	3.8696e-06	252.76	87.783	95.345	36.727	3.8648e-06	43.617	0.00017976	0.00014286	3.6265e-05	1046.7	1.606e-06	1.3949e-06	829.95	324.39	1.6357e-06	1.5108e-06	260.43	91.383	98.85	38.042	1.6802e-06	45.191	174.827	-8.815	-11.390	-75.335	78.930	69.146	-75.893	-71.241	4.200	65.945	-73.039	-68.654	-67.060	-62.438	56.008	-64.462	-8191	255	
4245.152	1	1	0	0	0.21313	0.19105	0.2277	0.085773	0.063229	0.18022	0.11876	0.12847	0.17673	0.11305	0.17845	0.14059	0.10557	0.08151	0.21876	0.24026	-2.5729	-2.3271	-2.6958	-2.8354	-2.3125	-3.1063	-2.5938	-2.5896	-3.0625	-2.3646	-2.5542	-2.9104	-2.3604	-2.9792	-2.5375	-2.5479	-66.565	-78.239	-10.463	238.579	223.210	33.312	207.924	-61.071	6.745	87.005	181.426	134.028	43.501	236.151	130.956	219.842	0.00017442	0.00053232	0.00010321	1028.4	2.7836e-06	2.7178e-06	808.22	317.07	1.6907e-06	3.9429e-06	255.17	87.822	95.842	36.949	1.6543e-06	43.62	0.0001896	0.00015204	3.6963e-05	1055	1.6637e-06	1.5936e-06	834.13	326.63	1.745e-06	1.5915e-06	261.57	91.476	99.426	38.213	1.6809e-06	45.12	169.749	-9.168	-2.343	-74.839	14.216	57.946	-76.172	-71.209	-0.137	59.116	-72.678	-68.769	-66.842	-62.536	50.611	-64.034	-8191	255	
4245.248	1	1	0	0	0.069833	0.17256	0.24159	0.11595	0.16384	0.064852	0.023873	0.2889	0.17892	0.10099	0.25326	0.11439	0.15471	0.14567	0.12032	0.16842	-2.55	-2.1937	-2.6646	-2.9938	-2.4188	-2.7125	-2.8771	-2.3438	-2.8917	-2.3563	-3.0104	-2.8458	-2.3354	-2.8792	-2.6271	-2.4083	73.707	-79.576	-9.392	255.669	261.916	-15.917	140.150	258.875	181.706	59.629	-1.768	232.382	201.207	163.441	-24.454	197.447	0.00017766	0.00068001	6.1374e-05	1035.3	3.2051e-06	4.5041e-06	808.96	319.07	3.1419e-06	4.3425e-06	254.44	88.353	95.526	36.927	2.5815e-06	43.814	0.00018714	0.00014557	4.1402e-05	1061.3	1.7773e-06	1.6098e-06	836.11	328.98	1.7765e-06	1.6125e-06	261.8	91.517	99.761	38.293	1.7066e-06	45.213	169.632	5.659	-52.259	-75.171	73.977	74.360	-76.371	-71.215	-15.460	69.771	-73.123	-68.168	-66.992	-62.329	67.960	-64.218	-8191	255	
4245.344	1	1	0	0	0.25856	0.26488	0.14455	0.081924	0.14845	0.34082	0.22556	0.19667	0.22382	0.25525	0.056643	0.35555	0.18954	0.20078	0.15461	0.10708	-2.4479	-2.2667	-2.4479	-3.1396	-2.0854	-2.8167	-2.8854	-2.4271	-2.9771	-2.3958	-2.5875	-2.9771	-2.3021	-2.8354	-2.6271	-2.2146	24.870	225.403	-0.805	-35.710	71.643	-86.027	231.753	8.411	70.193	68.679	251.198	177.986	10.930	-15.620	193.391	203.985	0.00017034	0.00038664	0.00011794	1032.6	3.6685e-06	2.3913e-06	808.49	317.87	2.7155e-06	2.3946e-06	254.24	88.624	96.103	37.255	3.1006e-06	43.686	0.00018758	0.00015039	4.1927e-05	1059.4	1.8083e-06	1.539e-06	833.24	328.42	1.731e-06	1.5864e-06	261.74	91.956	99.781	38.655	1.6172e-06	45.321	176.637	-4.741	-5.907	-75.196	58.300	65.748	-75.846	-71.441	2.932	60.139	-72.788	-67.954	-66.872	-62.136	38.394	-63.919	-8191	255	
#DATA ENDS
