BOXY.EXE: ISS Imagent and Oximeter Data Acquisition Program Version 0.80
Ascii Record File

#ACQ INFORMATION
2  Detector Channels 
16  External MUX Channels 
1  Auxiliary Channels 
5000  Waveform (CCF) Frequency (Hz)
1  Waveforms Skipped 
30  Waveforms Averaged 
1  Cycles Averaged 
16  Acquisitions per Waveform 
10.0806  Updata Rate (Hz) 

#FILE INFORMATION
TRUE -- External MUX Channel results are PARSED.
FALSE -- AC DC and Phase are NOT grouped.
TRUE -- Companion Program Settings File CREATED.
FALSE -- AC data not excluded
FALSE -- DC data not excluded
FALSE -- Phase data not excluded
FALSE -- Auxillary Chn. data not excluded
Tab delimiters

#CALIBRATION STATE
TRUE -- Waveform Calibration Values APPLIED.


#AUX CALIBRATION VALUES
Val Type	aux-1	

Term	1.0000e+00	
Factor	0.0000e+00	


#WF CALIBRATION VALUES
A = Detector Channel
Val Type	A-AC1	A-AC2	A-AC3	A-AC4	A-AC5	A-AC6	A-AC7	A-AC8	A-AC9	A-AC10	A-AC11	A-AC12	A-AC13	A-AC14	A-AC15	A-AC16	A-DC1	A-DC2	A-DC3	A-DC4	A-DC5	A-DC6	A-DC7	A-DC8	A-DC9	A-DC10	A-DC11	A-DC12	A-DC13	A-DC14	A-DC15	A-DC16	A-Ph1	A-Ph2	A-Ph3	A-Ph4	A-Ph5	A-Ph6	A-Ph7	A-Ph8	A-Ph9	A-Ph10	A-Ph11	A-Ph12	A-Ph13	A-Ph14	A-Ph15	A-Ph16	

Term	0.00000e+00	0.00000e+00	0.00000e+00	0.00000e+00	0.00000e+00	0.00000e+00	0.00000e+00	0.00000e+00	0.00000e+00	0.00000e+00	0.00000e+00	0.00000e+00	0.00000e+00	0.00000e+00	0.00000e+00	0.00000e+00	0.00000e+00	0.00000e+00	0.00000e+00	0.00000e+00	0.00000e+00	0.00000e+00	0.00000e+00	0.00000e+00	0.00000e+00	0.00000e+00	0.00000e+00	0.00000e+00	0.00000e+00	0.00000e+00	0.00000e+00	0.00000e+00	0.00000e+00	0.00000e+00	0.00000e+00	0.00000e+00	0.00000e+00	0.00000e+00	0.00000e+00	0.00000e+00	0.00000e+00	0.00000e+00	0.00000e+00	0.00000e+00	0.00000e+00	0.00000e+00	0.00000e+00	0.00000e+00	
Factor	1.00000e+00	1.00000e+00	1.00000e+00	1.00000e+00	1.00000e+00	1.00000e+00	1.00000e+00	1.00000e+00	1.00000e+00	1.00000e+00	1.00000e+00	1.00000e+00	1.00000e+00	1.00000e+00	1.00000e+00	1.00000e+00	1.00000e+00	1.00000e+00	1.00000e+00	1.00000e+00	1.00000e+00	1.00000e+00	1.00000e+00	1.00000e+00	1.00000e+00	1.00000e+00	1.00000e+00	1.00000e+00	1.00000e+00	1.00000e+00	1.00000e+00	1.00000e+00	X	X	X	X	X	X	X	X	X	X	X	X	X	X	X	X	

B = Detector Channel
Val Type	B-AC1	B-AC2	B-AC3	B-AC4	B-AC5	B-AC6	B-AC7	B-AC8	B-AC9	B-AC10	B-AC11	B-AC12	B-AC13	B-AC14	B-AC15	B-AC16	B-DC1	B-DC2	B-DC3	B-DC4	B-DC5	B-DC6	B-DC7	B-DC8	B-DC9	B-DC10	B-DC11	B-DC12	B-DC13	B-DC14	B-DC15	B-DC16	B-Ph1	B-Ph2	B-Ph3	B-Ph4	B-Ph5	B-Ph6	B-Ph7	B-Ph8	B-Ph9	B-Ph10	B-Ph11	B-Ph12	B-Ph13	B-Ph14	B-Ph15	B-Ph16	

Term	0.00000e+00	0.00000e+00	0.00000e+00	0.00000e+00	0.00000e+00	0.00000e+00	0.00000e+00	0.00000e+00	0.00000e+00	0.00000e+00	0.00000e+00	0.00000e+00	0.00000e+00	0.00000e+00	0.00000e+00	0.00000e+00	0.00000e+00	0.00000e+00	0.00000e+00	0.00000e+00	0.00000e+00	0.00000e+00	0.00000e+00	0.00000e+00	0.00000e+00	0.00000e+00	0.00000e+00	0.00000e+00	0.00000e+00	0.00000e+00	0.00000e+00	0.00000e+00	-1.41723e+02	-1.33427e+02	-1.27657e+02	-1.82643e+02	-7.29312e+01	-5.90420e+01	-1.56437e+02	-1.62015e+02	-7.50620e+01	-6.54826e+01	-1.75898e+02	-1.69904e+02	-1.79084e+02	-1.76332e+02	-7.30813e+01	-1.49000e+02	
Factor	2.19948e-05	1.76772e-04	4.22463e-05	1.51783e-01	1.32281e-06	2.01978e-06	1.85373e-01	5.47419e-02	1.24077e-06	1.63382e-06	9.98567e-02	3.00697e-02	2.75195e-02	9.87689e-03	1.39127e-06	1.39770e-02	7.96078e-06	1.06646e-05	2.96347e-06	7.91364e-02	1.10375e-07	1.18425e-07	9.07823e-02	2.86722e-02	1.12129e-07	1.17383e-07	5.04514e-02	1.53297e-02	1.45971e-02	5.20825e-03	1.14524e-07	7.14204e-03	X	X	X	X	X	X	X	X	X	X	X	X	X	X	X	X	



#DISTANCE SETTINGS
A = Detector Channel
A-1	A-2	A-3	A-4	A-5	A-6	A-7	A-8	A-9	A-10	A-11	A-12	A-13	A-14	A-15	A-16	

2.5000e+00	3.0000e+00	2.5000e+00	3.0000e+00	2.0000e+00	3.0000e+00	1.5000e+00	3.0000e+00	3.0000e+00	3.0000e+00	3.0000e+00	3.0000e+00	3.0000e+00	3.0000e+00	1.5000e+00	3.0000e+00	

B = Detector Channel
B-1	B-2	B-3	B-4	B-5	B-6	B-7	B-8	B-9	B-10	B-11	B-12	B-13	B-14	B-15	B-16	

1.0000e+01	1.0000e+01	1.0000e+01	1.4400e+00	1.0000e+01	1.0000e+01	1.5100e+00	1.9400e+00	1.0000e+01	1.0000e+01	1.9900e+00	2.4900e+00	2.4100e+00	2.9000e+00	1.0000e+01	2.9800e+00	




#DATA BEGINS
time	group	step	mark	flag	A-AC1	A-AC2	A-AC3	A-AC4	A-AC5	A-AC6	A-AC7	A-AC8	A-AC9	A-AC10	A-AC11	A-AC12	A-AC13	A-AC14	A-AC15	A-AC16	A-DC1	A-DC2	A-DC3	A-DC4	A-DC5	A-DC6	A-DC7	A-DC8	A-DC9	A-DC10	A-DC11	A-DC12	A-DC13	A-DC14	A-DC15	A-DC16	A-Ph1	A-Ph2	A-Ph3	A-Ph4	A-Ph5	A-Ph6	A-Ph7	A-Ph8	A-Ph9	A-Ph10	A-Ph11	A-Ph12	A-Ph13	A-Ph14	A-Ph15	A-Ph16	B-AC1	B-AC2	B-AC3	B-AC4	B-AC5	B-AC6	B-AC7	B-AC8	B-AC9	B-AC10	B-AC11	B-AC12	B-AC13	B-AC14	B-AC15	B-AC16	B-DC1	B-DC2	B-DC3	B-DC4	B-DC5	B-DC6	B-DC7	B-DC8	B-DC9	B-DC10	B-DC11	B-DC12	B-DC13	B-DC14	B-DC15	B-DC16	B-Ph1	B-Ph2	B-Ph3	B-Ph4	B-Ph5	B-Ph6	B-Ph7	B-Ph8	B-Ph9	B-Ph10	B-Ph11	B-Ph12	B-Ph13	B-Ph14	B-Ph15	B-Ph16	aux-1	digaux	

3315.961	1	1	0	256	0.14254	0.13186	0.15255	0.17648	0.071424	0.1509	0.036398	0.16189	0.078235	0.11215	0.21744	0.36843	0.13761	0.15505	0.083074	0.29747	-1.5312	-2.4333	-2.2167	-2.2104	-2.5708	-1.8208	-2.4583	-2.7313	-1.7208	-2.4979	-2.4354	-2.1375	-2.5583	-1.9604	-2.1271	-2.5312	300.259	218.095	249.494	327.897	158.748	241.032	279.805	80.370	84.211	180.458	46.621	333.591	316.153	157.972	211.948	13.404	0.00027981	0.00059356	8.9498e-05	1501.3	5.4144e-06	6.0742e-06	1490.7	401.1	3.8716e-06	5.9466e-06	452.94	151.81	132.67	46.091	5.7205e-06	56.813	0.00082784	0.00098988	0.00027294	1517.9	1.0497e-05	1.0883e-05	1508.7	408.55	1.0677e-05	1.0782e-05	463.67	155.96	136.35	47.364	1.1115e-05	58.388	122.066	43.558	105.887	-5.448	132.183	136.579	-5.390	-0.413	126.708	160.075	-0.937	3.061	3.477	7.706	159.477	7.298	-8191	255	
3316.082	1	1	0	0	0.13593	0.04096	0.28414	0.17777	0.07503	0.04856	0.22225	0.15232	0.38668	0.21459	0.051227	0.22071	0.21122	0.3174	0.097546	0.27136	-1.5521	-2.3563	-2.2687	-2.2833	-2.6667	-2.225	-2.4521	-2.9458	-1.9146	-2.4188	-2.3187	-2.0458	-2.5458	-2.1833	-1.8667	-2.7396	319.869	111.426	333.014	-15.306	-2.982	74.981	132.006	200.426	88.633	318.404	79.628	228.585	294.720	293.054	107.946	255.778	0.00022511	0.00050282	0.00025279	1499	4.6915e-06	6.829e-06	1487.2	399.38	3.2022e-06	9.8357e-07	456.35	151.75	132.33	45.859	2.9357e-06	56.906	0.00086059	0.0010399	0.00028885	1518.7	1.13e-05	1.1342e-05	1509.1	407.93	1.1644e-05	1.1577e-05	464.29	156.12	136.21	47.179	1.1853e-05	58.358	125.349	67.172	82.123	-5.649	110.436	160.428	-5.437	-0.635	161.837	157.583	-1.345	2.873	3.580	8.125	152.238	7.464	-8191	255	
3316.178	1	1	0	0	0.091323	0.15023	0.11146	0.40727	0.024073	0.037971	0.15883	0.21578	0.27009	0.091747	0.32279	0.08759	0.2586	0.15502	0.17359	0.003089	-1.4562	-2.1688	-2.2896	-2.0938	-2.4729	-2.1583	-2.2979	-2.7083	-1.825	-2.1896	-2.5542	-1.9458	-2.6562	-2.2583	-2.0042	-2.6875	34.191	188.028	223.810	323.267	-1.459	158.316	334.311	271.424	302.573	110.584	318.820	121.357	-11.986	320.967	324.156	120.484	0.0002859	0.00059418	0.00010766	1500.9	4.7933e-06	5.9655e-06	1485.8	402.06	1.6861e-06	5.0067e-06	455.33	151.78	132.16	45.952	4.7937e-06	56.935	0.0009165	0.0010857	0.00029749	1519.8	1.1358e-05	1.1699e-05	1508.2	409.12	1.1371e-05	1.1465e-05	464.71	155.9	136.16	47.357	1.1004e-05	58.372	121.672	77.112	125.826	-5.348	189.389	170.755	-5.564	-0.762	174.199	116.129	-0.946	3.323	3.546	8.373	152.597	7.722	-8191	255	
3316.274	1	1	0	0	0.092895	0.079864	0.10805	0.24216	0.16273	0.097565	0.26734	0.14328	0.13525	0.16732	0.32936	0.16739	0.26441	0.11548	0.22358	0.36591	-1.5896	-2.2271	-2.4708	-2.1979	-2.6	-2.3688	-2.1396	-2.8812	-2.0458	-2.3063	-2.6792	-1.9833	-2.4042	-2.4479	-1.9896	-2.5917	37.999	67.263	239.796	294.652	265.722	271.829	261.492	231.874	265.708	313.193	89.151	253.875	301.013	83.881	18.813	272.264	0.00032187	0.0007343	0.00015484	1503.6	4.9638e-06	5.331e-06	1487	401.95	2.1512e-06	2.5743e-06	453.88	151.96	132.5	45.842	5.1307e-06	56.945	0.00085014	0.0010118	0.00027468	1521.5	1.0671e-05	1.0828e-05	1509.8	409.76	1.0644e-05	1.0878e-05	463.62	156.17	136.67	47.316	1.1127e-05	58.492	121.066	57.401	88.496	-5.363	149.210	137.454	-5.435	-0.704	126.458	108.305	-1.122	3.045	3.591	8.307	121.419	7.616	-8191	255	
3316.346	1	1	0	0	0.10094	0.13607	0.24637	0.060347	0.23131	0.2576	0.28906	0.16086	0.26348	0.15969	0.16969	0.31258	0.04184	0.16955	0.1861	0.141	-1.6833	-2.1542	-2.5354	-2.125	-2.3792	-2.4375	-2.0625	-2.7604	-1.9458	-2.1146	-2.6771	-2.0833	-2.4167	-2.4271	-1.7687	-2.5896	156.848	127.887	-2.559	0.558	277.537	146.032	328.683	318.924	155.363	44.980	15.239	321.215	168.354	256.285	15.905	-12.554	0.00028171	0.00071755	0.00022474	1502.5	4.3219e-06	6.0587e-06	1492.2	402.59	3.7746e-06	2.7798e-06	454.55	151.58	132.3	46.016	4.4519e-06	57.032	0.00085968	0.0010469	0.00028453	1522.2	1.1202e-05	1.1955e-05	1512.6	409.68	1.1527e-05	1.1734e-05	464.78	156.01	136.28	47.356	1.1576e-05	58.534	131.620	82.283	67.293	-5.536	152.511	83.453	-5.698	-0.865	131.407	102.080	-1.559	2.808	3.163	7.878	172.863	7.348	-8191	255	
3316.442	1	1	0	0	0.26571	0.087566	0.30109	0.34359	0.2515	0.201	0.66463	0.16618	0.017777	0.1177	0.1082	0.28357	0.17077	0.088056	0.057326	0.1756	-1.7167	-1.9125	-2.4125	-2.0479	-2.1646	-2.4042	-2.0042	-2.8583	-2.2292	-2.1688	-2.7979	-1.9896	-1.9813	-2.8083	-1.8646	-2.4167	116.953	197.258	315.175	264.970	231.827	176.034	263.300	273.311	333.845	291.680	-9.415	77.013	286.263	253.124	15.089	292.998	0.00027303	0.0007254	0.00015784	1503.9	2.2788e-06	6.2183e-06	1494.8	401.61	2.4258e-06	5.6645e-06	453.67	152.23	132.65	46.32	4.2091e-06	56.965	0.00089844	0.0010748	0.00029928	1525.3	1.1503e-05	1.2262e-05	1515	409.62	1.172e-05	1.1975e-05	465.07	156.41	136.75	47.551	1.2039e-05	58.688	118.424	69.127	81.369	-5.634	137.795	117.921	-5.762	-1.214	136.909	147.804	-1.573	2.778	3.357	7.921	120.571	7.347	-8191	255	
3316.562	1	1	0	0	0.14306	0.12222	0.30935	0.42687	0.15628	0.25112	0.37254	0.17748	0.13389	0.23696	0.19044	0.34975	0.22226	0.07736	0.19522	0.040861	-1.8917	-1.9521	-2.6188	-2.4021	-2.2938	-2.5312	-1.9167	-2.6542	-2.3521	-1.8	-2.7833	-2.175	-2.1354	-2.4833	-1.7938	-2.5458	319.663	74.603	106.324	333.827	133.429	192.202	-3.789	-15.027	93.986	169.257	2.964	253.576	276.961	-3.491	280.362	278.895	0.00030474	0.00059551	8.8831e-05	1511.3	4.1518e-06	1.0227e-05	1493.7	402.51	6.1346e-06	7.4954e-06	456.35	151.68	132.95	46.09	8.4782e-06	56.851	0.00093164	0.0011022	0.00030924	1528.3	1.1905e-05	1.2165e-05	1518	410.93	1.2028e-05	1.2111e-05	466.28	156.43	137.06	47.507	1.211e-05	58.591	126.022	98.102	82.112	-5.435	144.577	128.862	-5.586	-1.037	133.466	135.425	-1.200	2.883	3.298	7.506	129.844	7.314	-8191	255	
3316.659	1	1	0	0	0.17538	0.15224	0.25862	0.15128	0.22006	0.12377	0.26036	0.30986	0.11908	0.12786	0.26418	0.12679	0.22492	0.05432	0.22841	0.21562	-2.0458	-1.9646	-2.5521	-2.3458	-2.1083	-2.4292	-2.2896	-2.5271	-2.6375	-1.9208	-2.8208	-2.3208	-2.025	-2.7229	-1.825	-2.3208	138.913	200.120	99.271	285.925	55.296	54.495	282.358	298.758	48.303	318.396	302.398	15.220	216.475	12.060	267.832	303.172	0.00031885	0.00062021	0.00015881	1511.5	5.2792e-06	6.0786e-06	1490.5	401.95	4.5125e-06	4.2295e-06	456.34	151.87	132.75	46.077	4.9238e-06	56.811	0.00096581	0.0011332	0.00031236	1530.6	1.2035e-05	1.249e-05	1515.5	410.95	1.2168e-05	1.2631e-05	466.37	156.34	136.9	47.531	1.2767e-05	58.623	115.265	48.373	71.323	-5.440	142.837	139.599	-5.600	-0.998	135.584	121.911	-1.594	2.801	3.451	8.065	117.228	7.312	-8191	255	
3316.755	1	1	0	0	0.042711	0.10937	0.099602	0.28854	0.14079	0.035391	0.17254	0.056691	0.090573	0.17404	0.13394	0.072574	0.26854	0.1117	0.054201	0.1557	-1.8354	-1.7083	-2.3625	-2.4437	-1.7958	-2.45	-2.075	-2.1667	-2.5833	-1.9333	-2.4958	-2.4771	-1.8854	-2.5875	-2.025	-2.0667	218.472	178.456	205.576	312.688	-6.879	143.145	260.663	72.636	219.868	150.589	217.364	239.633	291.762	328.007	125.061	222.066	0.00028094	0.00034942	9.7762e-05	1508.5	4.592e-06	6.841e-06	1492	402.07	4.9093e-06	8.2758e-06	455.82	150.86	132.16	45.953	2.9845e-06	56.844	0.00098962	0.0011926	0.00033621	1529.1	1.322e-05	1.3491e-05	1517.8	410.67	1.338e-05	1.3846e-05	466.93	156.19	136.87	47.504	1.3635e-05	58.606	133.094	97.296	53.060	-5.418	105.476	99.221	-5.958	-1.319	152.349	147.738	-1.749	2.710	3.121	7.899	176.217	7.102	-8191	255	
3316.874	1	1	0	0	0.035494	0.29487	0.13144	0.11509	0.16088	0.14833	0.28768	0.31485	0.097824	0.10197	0.085768	0.22224	0.16689	0.1268	0.07415	0.20489	-2.2708	-1.8438	-2.2917	-2.55	-1.9458	-2.6146	-2.3438	-2.0917	-2.5833	-1.8625	-2.4104	-2.4604	-2.0167	-2.8708	-2.2208	-2.1021	233.211	56.180	225.302	322.072	60.325	-7.272	319.752	269.026	104.868	32.452	325.407	228.199	314.168	6.270	330.444	288.261	0.00030257	0.00060421	0.00017316	1508.2	3.3252e-06	1.3124e-05	1487.4	401.76	5.4568e-06	7.0371e-06	457.11	151.26	132.3	46.14	3.6822e-06	56.925	0.0010482	0.0012797	0.00034954	1528.3	1.343e-05	1.4004e-05	1515.1	410.66	1.359e-05	1.405e-05	466.91	156.34	136.63	47.501	1.3622e-05	58.663	123.925	15.625	83.466	-5.683	139.739	136.007	-6.020	-1.482	176.174	173.604	-1.487	2.977	3.393	7.842	125.071	7.279	-8191	255	
3316.947	1	1	0	0	0.097387	0.18703	0.068023	0.28054	0.12479	0.092444	0.33028	0.25133	0.13794	0.23989	0.18577	0.13029	0.11306	0.21348	0.14567	0.085943	-2.0396	-1.8875	-2.2792	-2.6104	-1.7771	-2.5375	-2.4146	-2.1229	-2.6583	-1.9708	-2.425	-2.4771	-2.0542	-2.4813	-2.45	-1.9208	293.468	25.762	10.664	0.965	202.278	331.901	301.265	340.109	272.267	304.871	323.693	126.243	110.822	214.581	51.178	82.258	0.00029196	0.00026031	0.00014156	1510.3	3.9757e-06	8.7593e-06	1501.1	403.02	2.4307e-06	5.0744e-06	455.41	151.48	132.54	46.044	1.6992e-06	56.752	0.0010302	0.0012577	0.00034487	1531.6	1.3367e-05	1.3677e-05	1518.8	411.17	1.3555e-05	1.4168e-05	466.56	156.78	136.88	47.547	1.3987e-05	58.613	115.787	41.805	81.822	-5.558	111.837	185.388	-5.578	-1.090	193.637	160.052	-1.730	2.709	3.177	7.625	107.831	6.755	-8191	255	
3317.043	1	1	0	0	0.13565	0.078724	0.24125	0.24413	0.13498	0.29725	0.23375	0.13942	0.15262	0.12448	0.05698	0.27833	0.18826	0.062566	0.2636	0.12546	-2.1396	-1.7375	-2.0229	-2.7833	-1.8458	-2.5104	-2.5979	-2.1875	-2.6292	-2.1625	-2.2417	-2.7292	-2.0396	-2.3042	-2.3583	-2.0292	59.991	289.371	116.675	-15.923	9.334	272.173	314.859	237.661	279.549	190.684	163.156	-6.189	71.223	233.198	-5.776	328.594	0.00027166	0.00088288	0.00018097	1513.8	4.3528e-06	9.188e-06	1493	401.96	4.2888e-06	6.2313e-06	455.78	151.92	132.4	45.931	7.4575e-06	56.906	0.0010744	0.0012857	0.00035941	1532.8	1.3775e-05	1.4533e-05	1518.4	411.2	1.4056e-05	1.4697e-05	467.3	156.88	136.9	47.51	1.4377e-05	58.618	126.323	62.775	83.739	-5.599	128.678	138.708	-5.434	-1.079	101.401	144.241	-1.499	2.709	3.494	7.912	122.832	7.405	-8191	255	
3317.162	1	1	0	0	0.18034	0.15019	0.027349	0.30654	0.21928	0.10248	0.44004	0.42063	0.31657	0.12387	0.49476	0.058374	0.093486	0.25795	0.052696	0.23856	-2.1625	-2.0042	-1.8208	-2.8438	-1.8854	-2.2417	-2.7104	-1.9333	-2.4188	-2.1208	-2.0667	-2.5333	-2.175	-2.425	-2.5021	-2.0104	37.165	133.865	95.355	303.542	9.571	47.768	279.150	326.475	128.458	187.739	292.163	323.539	138.116	307.929	212.722	156.984	0.00025784	0.00084227	4.7655e-05	1508.9	6.6321e-06	3.0159e-06	1490.7	402.13	2.6589e-06	5.9625e-06	456.62	151.3	132.31	45.946	8.4488e-06	56.661	0.001097	0.0013383	0.00037371	1528.6	1.4213e-05	1.4841e-05	1515.2	410.57	1.4169e-05	1.4767e-05	466.72	156.43	136.8	47.448	1.4513e-05	58.497	123.651	65.427	52.667	-5.257	131.397	101.214	-5.461	-0.789	154.429	123.521	-1.324	3.120	3.484	7.917	109.615	7.414	-8191	255	
3317.258	1	1	0	0	0.16794	0.22936	0.13185	0.35581	0.063941	0.19204	0.094844	0.25387	0.094867	0.1901	0.18885	0.27931	0.085563	0.16888	0.28189	0.24261	-1.8062	-1.975	-2.0187	-2.7375	-2.0208	-1.9167	-2.9729	-1.975	-2.4708	-2.1458	-2.0104	-2.7729	-2.0979	-2.225	-2.4521	-1.7479	208.729	223.900	338.513	317.773	276.083	-1.176	270.072	296.744	131.615	250.833	9.165	-16.478	96.067	178.404	49.686	219.868	0.0003132	0.00073679	0.00010926	1509	4.7982e-06	6.0076e-06	1493.7	402.12	2.6029e-06	8.9265e-06	456.55	151.59	132.08	45.906	3.439e-06	56.769	0.0011082	0.0013378	0.00037434	1530.8	1.4383e-05	1.4769e-05	1517.2	410.82	1.4371e-05	1.4863e-05	466.87	156.68	136.81	47.522	1.5158e-05	58.674	130.330	83.666	72.818	-5.601	155.561	178.699	-5.543	-1.119	189.724	140.649	-1.451	3.051	3.536	8.163	167.792	7.427	-8191	255	
3317.354	1	1	0	0	0.10501	0.2523	0.10754	0.38479	0.12861	0.067291	0.24317	0.15311	0.19164	0.17661	0.29401	0.19613	0.11133	0.14723	0.18644	0.059705	-1.8771	-2.3042	-1.8271	-2.65	-1.9646	-2.2687	-2.8354	-2.1229	-2.3563	-2.4542	-1.8875	-2.8146	-2.0271	-1.9083	-2.7417	-2.1063	324.758	266.424	6.863	317.352	0.034	137.173	280.214	253.115	298.162	183.565	302.953	110.486	248.729	318.626	265.482	82.958	0.00027225	0.00074629	0.00025295	1508.7	4.9781e-06	4.766e-06	1492.5	402.79	4.3695e-06	4.7872e-06	455.92	152.19	132.31	45.967	4.6469e-06	56.836	0.0011471	0.0013954	0.00039192	1529.9	1.4677e-05	1.5431e-05	1518.2	411.25	1.4804e-05	1.5229e-05	467.55	156.99	137.17	47.564	1.5397e-05	58.765	113.885	87.296	71.861	-5.412	166.560	78.839	-5.465	-0.798	116.663	145.760	-1.331	3.064	3.574	8.065	232.329	7.522	-8191	255	
3317.475	1	1	0	0	0.22951	0.052815	0.066471	0.31844	0.18627	0.19726	0.17416	0.027741	0.077306	0.21992	0.17562	0.30415	0.13945	0.083399	0.19349	0.04977	-1.6729	-2.3563	-1.6167	-2.6854	-2.2333	-1.9937	-2.775	-1.9562	-2.1104	-2.5333	-1.9875	-2.325	-2.1875	-2.05	-2.6292	-2.0917	210.723	326.410	332.366	339.691	222.946	274.168	306.091	227.329	95.250	44.177	338.190	315.800	312.337	239.337	164.742	132.252	0.00027368	0.0005821	0.00016928	1514	3.1261e-06	4.1597e-06	1492.6	402.11	6.0325e-06	4.5232e-06	459.07	151.13	132.27	46.014	4.7421e-06	56.737	0.0011804	0.0014252	0.00040122	1535	1.5101e-05	1.5971e-05	1520	411.65	1.5449e-05	1.5553e-05	468.93	156.7	136.92	47.509	1.5331e-05	58.668	131.036	46.671	75.571	-5.254	178.952	99.305	-5.252	-0.677	134.032	73.050	-1.320	2.522	3.586	7.907	146.817	7.560	-8191	255	
3317.547	1	1	0	0	0.36098	0.13354	0.23606	0.18604	0.098069	0.21988	0.35874	0.23958	0.35757	0.11507	0.26181	0.10966	0.29356	0.14547	0.11279	0.23081	-1.8687	-2.3812	-1.7625	-2.6063	-2.2917	-2.0333	-2.8625	-2.1083	-2.1813	-2.5729	-1.7979	-2.4625	-2.4771	-2.1729	-2.6417	-2.3083	285.965	33.352	46.202	241.557	306.324	-0.617	336.939	317.637	265.449	97.213	292.913	305.496	13.361	246.782	167.078	115.217	0.00025677	0.00068396	7.5673e-05	1513.5	1.948e-06	3.8364e-06	1495.1	401.39	2.9323e-06	5.0435e-06	456.73	151.25	132.92	46.057	2.7255e-06	56.788	0.0011685	0.0013966	0.00038902	1534.2	1.459e-05	1.5297e-05	1520.3	411.54	1.4577e-05	1.4853e-05	467.42	156.49	137.13	47.541	1.5128e-05	58.638	132.048	28.773	47.272	-5.371	176.771	154.550	-5.523	-0.696	143.535	115.084	-1.558	2.907	3.259	7.946	152.215	7.191	-8191	255	
3317.643	1	1	0	0	0.1781	0.17171	0.31651	0.24583	0.13451	0.12513	0.27268	0.37725	0.11618	0.13718	0.27791	0.21967	0.068288	0.037014	0.26682	0.22556	-1.675	-2.6292	-1.9479	-2.4417	-2.3396	-1.925	-2.6958	-2.3292	-2.1021	-2.6292	-1.8917	-2.3583	-2.6542	-1.9708	-2.5083	-2.3021	5.193	30.961	16.444	340.777	204.712	159.473	283.461	294.548	25.109	314.771	14.803	324.048	-6.625	266.317	303.099	9.001	0.00028775	0.00030552	0.00015281	1510.7	9.6153e-07	6.103e-06	1492.5	402.81	1.5338e-06	4.6056e-06	455.16	151.73	132.43	45.911	4.1028e-06	56.801	0.0011547	0.0013877	0.00038913	1533.1	1.5121e-05	1.5449e-05	1519.9	412.11	1.5093e-05	1.5319e-05	467.18	156.82	136.88	47.521	1.5109e-05	58.663	127.825	88.982	58.883	-5.631	202.067	176.502	-5.556	-0.717	147.539	128.342	-1.275	2.770	3.685	8.153	122.236	7.741	-8191	255	
3317.739	1	1	0	0	0.18419	0.27769	0.19253	0.032551	0.13787	0.26004	0.12786	0.19346	0.15428	0.052826	0.085453	0.46529	0.2055	0.15599	0.13589	0.2129	-1.6979	-2.725	-2.1375	-2.4729	-2.5417	-2.0354	-2.8	-2.2354	-2.0771	-2.7271	-2.1271	-2.2396	-2.5521	-1.9604	-2.3583	-2.5021	293.018	27.401	-5.467	333.261	102.953	14.995	304.093	200.266	302.585	82.426	332.489	316.776	245.224	53.911	38.800	233.790	0.00027042	0.00037667	0.00010641	1512.8	4.2346e-06	5.6284e-06	1491.5	404.01	4.1573e-06	3.3536e-06	456.66	152.19	132.48	45.945	7.9125e-06	56.91	0.0011547	0.001384	0.00038973	1535	1.4929e-05	1.5717e-05	1520.1	412.52	1.5132e-05	1.5518e-05	468.21	156.83	137.12	47.576	1.5571e-05	58.827	119.937	49.512	70.514	-5.490	114.484	164.166	-5.336	-0.834	182.802	71.008	-1.121	2.958	3.436	8.155	154.518	7.665	-8191	255	
3317.858	1	1	0	0	0.1719	0.13183	0.21938	0.13596	0.22533	0.16667	0.3698	0.13951	0.075104	0.40827	0.078176	0.012109	0.10616	0.52515	0.14793	0.15557	-1.5375	-2.4104	-2.0604	-2.3458	-2.5396	-1.9271	-2.2625	-2.5438	-1.8563	-2.6354	-2.1854	-2.1771	-2.5854	-2.0292	-2.3979	-2.4604	37.081	51.870	154.749	244.832	132.615	82.455	296.187	330.125	35.095	98.388	131.680	136.725	24.279	289.502	241.107	307.917	0.00025771	0.00072553	0.00017765	1509.5	3.3125e-06	9.4157e-06	1496.7	402.94	3.6965e-06	2.6482e-06	459.95	151.66	132.62	45.949	5.5878e-06	56.776	0.0011812	0.0014481	0.00040851	1535.7	1.5227e-05	1.6097e-05	1524.1	412.18	1.5552e-05	1.5956e-05	468.8	157.06	137.31	47.513	1.549e-05	58.74	116.370	64.525	91.933	-5.487	84.977	163.167	-5.417	-0.739	140.867	191.393	-1.376	3.294	3.587	8.185	117.326	7.640	-8191	255	
3317.954	1	1	0	0	0.19181	0.080563	0.14908	0.32696	0.16898	0.055666	0.48309	0.21985	0.080818	0.30943	0.18624	0.31278	0.0844	0.13249	0.14365	0.30322	-1.525	-2.4479	-2.2625	-2.2313	-2.7438	-1.9417	-2.3	-2.6917	-1.9271	-2.3479	-2.4	-2.0625	-2.7771	-2.1312	-2.2708	-2.5042	231.197	141.692	32.881	320.507	58.117	148.960	307.937	-16.923	306.962	11.964	190.396	2.120	219.293	259.182	-15.865	57.090	0.00023615	0.00057297	0.00014643	1517.5	4.5487e-06	1.3424e-05	1497	404.74	5.5465e-06	4.4581e-06	458.68	151.92	133	46.195	5.3121e-06	56.843	0.0011775	0.0014485	0.00040088	1538.3	1.5429e-05	1.6352e-05	1525.2	413.19	1.6e-05	1.66e-05	469.44	157.07	137.17	47.672	1.6415e-05	58.769	115.226	54.682	100.523	-5.457	120.417	127.174	-5.531	-0.889	161.772	146.541	-1.192	2.998	3.422	8.003	109.160	7.240	-8191	255	
3318.050	1	1	0	0	0.16631	0.37384	0.043948	0.3868	0.15427	0.10117	0.28868	0.21669	0.080904	0.13176	0.059977	0.18002	0.083538	0.28836	0.17529	0.16118	-1.6667	-2.5542	-2.3583	-2.0542	-2.575	-2.0792	-2.475	-2.7771	-1.7833	-2.4354	-2.3187	-1.9813	-2.6708	-2.1271	-2.0563	-2.7083	146.837	195.540	116.168	290.147	171.042	130.220	267.173	315.959	124.171	101.693	235.461	289.470	255.977	30.056	333.232	196.105	0.00027182	0.00079833	7.7057e-05	1516	4.4683e-06	8.8294e-06	1493.3	402.8	3.9387e-06	5.5449e-06	457.64	152.18	132.35	46.226	4.6889e-06	56.858	0.0012468	0.0015453	0.00041608	1537.6	1.5984e-05	1.6825e-05	1521.9	413.02	1.6067e-05	1.6328e-05	469.2	157.14	137.28	47.733	1.5978e-05	58.763	132.972	46.711	36.869	-5.904	119.386	127.176	-5.794	-1.072	174.039	98.526	-1.564	2.596	3.226	8.051	148.638	7.127	-8191	255	
3318.146	1	1	0	0	0.24591	0.20516	0.0832	0.21261	0.19009	0.052253	0.27616	0.029062	0.11892	0.088076	0.093842	0.2184	0.10037	0.17139	0.26719	0.15679	-1.4646	-2.4771	-2.2667	-2.3229	-2.4479	-2.1188	-2.2396	-2.8271	-1.8896	-2.3937	-2.625	-2.1833	-2.75	-2.2146	-2.0708	-2.6708	292.193	285.651	152.792	281.664	207.720	306.500	253.758	19.245	175.561	150.132	231.900	274.097	27.049	220.243	91.356	336.534	0.000281	0.00056825	0.00022292	1514.3	6.3674e-06	4.8607e-06	1493.9	403.53	5.7267e-06	6.2581e-06	457.35	152.66	132.75	46.141	2.2008e-06	57.02	0.0012076	0.0014999	0.00041583	1537	1.5785e-05	1.657e-05	1524.6	412.95	1.6104e-05	1.6456e-05	468.76	157.1	137.45	47.674	1.6509e-05	58.929	124.049	69.555	72.885	-5.667	154.530	176.053	-5.696	-0.872	159.367	127.094	-1.189	2.955	3.373	8.120	143.743	7.532	-8191	255	
3318.242	1	1	0	0	0.26198	0.043089	0.18833	0.31298	0.10707	0.21206	0.21356	0.1158	0.089356	0.29339	0.28595	0.31366	0.29275	0.21215	0.20686	0.11567	-1.5583	-2.175	-2.4396	-2.1625	-2.5167	-2.3229	-2.1708	-2.85	-2.1063	-2.3729	-2.4875	-2.1333	-2.5083	-2.3187	-2.0146	-2.7542	87.104	101.210	-12.196	279.415	262.032	80.988	307.190	189.016	268.146	70.651	298.650	279.515	292.641	319.477	-9.287	138.426	0.00029373	0.00058932	5.9892e-05	1521.5	4.5645e-06	1.1512e-05	1500.7	404.46	4.9646e-06	4.5892e-06	458.33	152.34	132.98	46.228	8.4312e-06	56.887	0.0012211	0.0014987	0.00042227	1542.6	1.5985e-05	1.6713e-05	1527.4	413.47	1.5835e-05	1.6664e-05	470.02	157.27	137.65	47.721	1.6203e-05	58.828	129.288	96.154	32.496	-5.526	146.836	174.780	-5.547	-1.024	134.216	80.204	-1.370	3.122	3.253	8.025	146.305	7.275	-8191	255	
3318.339	1	1	0	0	0.13897	0.12522	0.060974	0.17538	0.12266	0.12707	0.35579	0.24367	0.16688	0.28772	0.26841	0.33035	0.10211	0.16703	0.12397	0.36204	-1.6646	-2.1917	-2.6208	-2.0187	-2.5146	-2.3229	-2.2396	-2.6583	-2.225	-2.0229	-2.7583	-1.9833	-2.4354	-2.5646	-1.6708	-2.7792	130.579	199.861	91.274	298.963	271.027	37.808	232.013	275.037	152.931	271.659	246.685	280.317	159.667	14.799	224.008	223.390	0.00020769	0.00035976	0.00015688	1516.6	6.2615e-06	8.5328e-06	1502.5	403.27	4.3108e-06	6.484e-06	457.48	151.89	132.97	46.218	4.2709e-06	56.612	0.0012433	0.0014866	0.00041584	1541	1.6011e-05	1.6333e-05	1528.2	413.22	1.5995e-05	1.6533e-05	469.46	157.1	137.47	47.726	1.6209e-05	58.779	116.677	96.628	62.095	-5.496	137.636	124.864	-5.670	-0.885	127.952	143.783	-1.467	2.957	3.243	8.227	180.702	7.443	-8191	255	
3318.435	1	1	0	0	0.12909	0.34585	0.2584	0.11543	0.18259	0.19326	0.12075	0.19781	0.03418	0.070405	0.084797	0.19888	0.24338	0.18445	0.10956	0.22416	-1.6708	-2.175	-2.7687	-2.1708	-2.3833	-2.3167	-2.1083	-2.7604	-1.9667	-2.0833	-2.6292	-1.9042	-2.2313	-2.6021	-1.7479	-2.6208	217.098	116.611	146.453	-0.179	61.316	128.439	324.473	272.008	131.019	222.310	271.346	286.780	332.664	336.476	62.707	310.313	0.00028606	0.0007541	7.9529e-05	1517.6	7.6621e-06	3.5168e-06	1498.7	403.93	7.5095e-06	7.9313e-06	457.92	152.02	132.24	46.055	5.2671e-06	56.793	0.0012341	0.0015039	0.00041616	1539.3	1.5819e-05	1.6374e-05	1526.1	412.87	1.5861e-05	1.6205e-05	469.06	156.79	137.22	47.712	1.6037e-05	58.671	126.613	56.794	25.144	-5.499	115.558	68.099	-5.865	-0.895	116.168	113.593	-1.144	3.207	3.294	7.945	124.421	7.274	-8191	255	
3318.555	1	1	0	0	0.080334	0.19864	0.032409	0.19321	0.095568	0.095637	0.35606	0.25716	0.12369	0.02687	0.16078	0.14661	0.26149	0.23659	0.12492	0.23303	-1.9062	-1.9271	-2.6021	-2.1562	-1.9625	-2.6188	-2.0646	-2.5062	-2.1896	-1.8292	-2.5458	-2.3042	-2.3146	-2.5938	-2.0812	-2.3604	337.459	288.462	94.864	263.374	19.449	237.187	297.273	223.916	335.112	20.136	218.636	315.583	297.125	288.221	250.514	289.124	0.00026086	0.00031011	0.00012797	1513.1	6.1e-06	5.2423e-06	1500.2	403.83	2.698e-06	3.2745e-06	455.98	151.46	132.51	45.944	6.353e-06	56.634	0.0012106	0.0014868	0.00041433	1538	1.5622e-05	1.6276e-05	1525.3	413.35	1.5583e-05	1.6205e-05	468.53	156.72	137.18	47.684	1.5711e-05	58.737	131.830	48.140	33.588	-5.530	121.131	144.226	-5.425	-1.075	133.833	131.275	-1.417	3.100	3.251	8.281	132.405	7.550	-8191	255	
3318.652	1	1	0	0	0.20636	0.39001	0.3953	0.12929	0.14844	0.25943	0.28588	0.30809	0.12951	0.21347	0.034871	0.1244	0.2185	0.12972	0.12128	0.32283	-1.7896	-1.7667	-2.5042	-2.4417	-2.025	-2.5417	-2.1583	-2.4354	-2.2729	-1.9958	-2.6458	-2.3333	-2.1479	-2.6771	-1.9583	-2.3292	158.857	200.535	14.737	259.938	145.219	95.815	269.153	308.823	337.624	236.930	223.729	223.675	279.279	158.123	268.539	304.943	0.00030545	0.00012015	0.00012889	1520.7	2.2812e-06	6.8011e-06	1499.5	403.41	4.6977e-06	3.3155e-06	456.05	151.72	132.6	46.118	6.0551e-06	56.679	0.0011861	0.0014594	0.00040248	1540.9	1.5568e-05	1.6225e-05	1524.4	413.01	1.5458e-05	1.5933e-05	467.68	156.73	137.09	47.662	1.5485e-05	58.74	120.312	68.317	92.628	-5.555	153.483	174.454	-5.607	-0.892	137.942	112.947	-1.488	3.301	3.434	8.487	138.919	7.273	-8191	255	
3318.748	1	1	0	0	0.18383	0.14752	0.065815	0.44695	0.13476	0.12088	0.10486	0.10225	0.27178	0.18812	0.1891	0.27252	0.19513	0.084819	0.030437	0.095946	-2.0312	-1.7563	-2.4604	-2.2792	-1.9937	-2.6271	-2.2104	-2.475	-2.3729	-2.0021	-2.675	-2.5375	-2.1042	-2.7771	-2.05	-2.2958	286.304	63.890	181.676	294.619	9.936	246.471	319.979	-0.946	69.416	227.501	273.758	314.080	-13.330	229.920	170.904	266.069	0.00025809	0.00064119	0.00019025	1516.7	5.9105e-06	7.4161e-06	1498.6	403.56	5.4455e-06	6.8899e-06	457.11	151.88	132.77	45.898	3.0924e-06	56.907	0.0011699	0.0014557	0.00039883	1538	1.5203e-05	1.5795e-05	1523.9	411.49	1.5223e-05	1.5568e-05	468.36	156.7	137.01	47.495	1.5267e-05	58.715	127.809	39.921	69.647	-5.309	140.328	128.661	-5.594	-0.811	139.279	143.237	-1.492	3.037	3.517	8.099	146.681	7.446	-8191	255	
3318.844	1	1	0	0	0.24555	0.064597	0.057836	0.26414	0.076544	0.13888	0.37486	0.017854	0.041481	0.19653	0.2344	0.15473	0.20655	0.16236	0.10642	0.07562	-2.0333	-1.8729	-2.3	-2.5521	-1.7313	-2.4604	-2.1188	-2.3604	-2.4167	-1.9354	-2.4792	-2.3729	-1.7229	-2.7229	-2.1354	-2.0646	335.819	38.948	82.870	323.763	16.378	30.892	285.258	279.624	67.849	270.238	315.550	226.986	321.091	34.094	278.116	188.877	0.00026635	0.00076236	0.00010364	1518.1	7.6148e-06	3.4976e-06	1498	403.77	5.3172e-06	4.5388e-06	456.92	152.2	132.27	45.853	6.7236e-06	56.592	0.0011431	0.0013848	0.00038414	1537.6	1.4825e-05	1.5418e-05	1522.9	412.02	1.4877e-05	1.5414e-05	468.06	156.77	136.83	47.527	1.5325e-05	58.657	127.019	55.476	90.324	-5.498	134.176	134.133	-5.513	-0.785	132.529	144.596	-1.294	3.078	3.215	8.196	91.773	7.377	-8191	255	
3318.938	1	1	0	0	0.16082	0.14374	0.034602	0.3013	0.26257	0.20605	0.27543	0.3294	0.10904	0.28183	0.28093	0.066474	0.12222	0.3883	0.18844	0.30027	-2.1583	-1.8542	-2.2167	-2.6562	-1.9042	-2.4542	-2.3271	-2.0625	-2.6063	-1.9167	-2.3896	-2.4125	-1.9813	-2.6521	-2.2729	-2.0771	253.620	197.691	84.034	-16.523	240.830	166.340	258.544	-0.037	215.880	307.910	317.280	126.185	-10.618	279.951	104.796	338.815	0.00024879	0.00079797	0.00013744	1515.4	8.1289e-06	5.6332e-06	1500.1	402.43	3.6318e-06	2.6366e-06	454.47	151.58	132.39	46.124	6.0076e-06	56.802	0.0011677	0.0014395	0.00039848	1538.4	1.5153e-05	1.5897e-05	1525.4	411.66	1.5239e-05	1.5497e-05	467.19	156.95	136.96	47.546	1.5398e-05	58.68	140.973	69.878	52.379	-5.414	115.391	138.167	-5.804	-1.492	194.900	163.319	-1.775	2.645	3.198	7.730	160.440	6.942	-8191	255	
3319.034	1	1	0	0	0.076744	0.058933	0.30992	0.16599	0.1104	0.028	0.18342	0.1417	0.1604	0.3289	0.16949	0.20353	0.20144	0.087907	0.060398	0.27789	-2.1813	-1.9917	-2.0875	-2.7896	-1.7208	-2.4229	-2.2812	-2.1729	-2.4729	-2.0187	-2.1937	-2.4167	-2.0417	-2.5146	-2.225	-2.0438	238.576	176.652	222.115	334.010	72.247	102.839	250.973	309.019	92.239	42.985	206.236	258.298	326.148	294.826	197.886	225.080	0.00027205	0.0008558	0.00019686	1512	5.31e-06	7.1183e-06	1490.4	403.44	3.8505e-06	4.0482e-06	454.7	151.3	131.91	45.887	5.8833e-06	56.652	0.0011682	0.0014252	0.00039818	1536.9	1.4782e-05	1.5508e-05	1520.7	411.63	1.5008e-05	1.5448e-05	468.08	156.5	136.59	47.528	1.5291e-05	58.637	126.041	66.577	88.020	-5.764	151.943	123.087	-5.759	-1.016	76.625	98.229	-1.400	2.632	3.421	8.011	142.862	7.538	-8191	255	
3319.155	1	1	0	0	0.084802	0.15396	0.14408	0.32146	0.27359	0.1735	0.13744	0.14379	0.087524	0.14039	0.20746	0.097986	0.23576	0.22848	0.1519	0.28044	-2.1792	-2.0479	-2.1042	-2.7875	-1.9792	-2.3104	-2.6354	-2.0812	-2.5521	-1.9854	-2.1479	-2.6146	-1.9813	-2.3542	-2.3563	-2.0042	313.015	112.569	236.400	328.812	124.649	248.891	147.897	299.314	123.312	33.489	277.412	132.737	267.175	339.912	72.790	103.357	0.00026936	0.00067096	0.00011663	1513.8	6.6546e-06	6.6164e-06	1495.3	402.87	4.3724e-06	5.0534e-06	457.25	152.01	132.9	46.164	4.9867e-06	56.97	0.0011527	0.0013938	0.00039096	1535.6	1.4867e-05	1.5347e-05	1525	411.75	1.4891e-05	1.5478e-05	467.98	156.51	137.09	47.639	1.5177e-05	58.668	115.668	69.769	104.109	-5.545	108.967	124.639	-5.595	-0.900	160.351	122.197	-1.796	2.669	3.275	8.146	126.875	7.296	-8191	255	
3319.251	1	1	0	0	0.11487	0.044414	0.087122	0.30067	0.044477	0.067521	0.24235	0.15792	0.11054	0.25257	0.070663	0.20703	0.33267	0.015802	0.15044	0.27692	-2.275	-1.9125	-2.1063	-2.6792	-1.9542	-2.2625	-2.8083	-2.1521	-2.6396	-2.0062	-2.0438	-2.7771	-1.95	-2.3396	-2.6583	-2.1417	84.135	271.548	113.194	265.984	240.902	15.170	276.616	-1.046	36.743	304.629	288.497	284.530	-9.111	175.392	57.223	300.756	0.0002723	0.0006462	0.00016824	1518.1	5.5471e-06	6.079e-06	1505.6	402.76	4.0661e-06	3.7178e-06	455.72	151.68	132.42	46.073	5.8552e-06	57.108	0.0011421	0.001408	0.00039296	1539.5	1.481e-05	1.557e-05	1528.2	411.71	1.4965e-05	1.5271e-05	468.23	156.73	136.81	47.519	1.5427e-05	58.725	119.552	32.538	94.454	-5.843	144.192	133.412	-5.490	-0.993	120.983	125.759	-1.687	2.792	3.475	8.008	96.637	7.493	-8191	255	
3319.347	1	1	0	0	0.17824	0.081725	0.2051	0.25327	0.075929	0.13387	0.08879	0.24001	0.23849	0.22586	0.25173	0.16409	0.053706	0.33051	0.25747	0.13794	-2.0333	-2.125	-1.9542	-2.5687	-2.1646	-2.1021	-2.9729	-1.9312	-2.3042	-2.2958	-1.8687	-2.6625	-2.2083	-2.1688	-2.6146	-2.2125	178.656	212.559	168.154	271.294	204.627	45.184	238.721	315.349	-0.798	250.879	279.250	264.150	-4.628	236.638	239.031	299.319	0.00024998	0.00064127	7.3641e-05	1512.2	5.1877e-06	4.83e-06	1493.2	401.66	3.0177e-06	1.7717e-06	456.27	151.61	132.31	45.962	4.8956e-06	56.601	0.0011651	0.0014296	0.00039491	1536	1.4963e-05	1.5738e-05	1521.4	411.14	1.5093e-05	1.5409e-05	467.42	156.56	136.91	47.52	1.5293e-05	58.53	112.649	34.458	78.722	-5.806	182.699	105.591	-5.818	-1.170	128.096	117.011	-1.481	2.927	3.224	7.760	136.048	7.096	-8191	255	
3319.444	1	1	0	0	0.13643	0.068196	0.20202	0.26103	0.17486	0.14584	0.13119	0.13759	0.23074	0.16622	0.39922	0.18439	0.11011	0.11184	0.118	0.20144	-1.9083	-2.4146	-1.8771	-2.6396	-2.0812	-2.0958	-2.7938	-1.875	-2.2104	-2.4188	-1.7896	-2.6979	-2.2812	-2.1188	-2.4479	-2.1354	29.384	48.190	175.965	327.533	83.958	102.518	-7.152	260.296	289.923	47.015	305.501	276.411	243.895	249.440	173.193	4.399	0.00023792	0.00087261	3.822e-05	1513.2	2.2237e-06	8.0062e-06	1497.9	401.5	4.1194e-06	6.0832e-06	457.82	151.05	131.84	45.968	1.6764e-06	56.699	0.0011761	0.001426	0.00039665	1536.5	1.5176e-05	1.5785e-05	1522.9	410.93	1.5034e-05	1.5505e-05	467.9	156.25	136.77	47.399	1.5186e-05	58.559	125.945	59.324	42.745	-5.724	131.929	110.725	-5.877	-1.209	128.857	108.524	-1.444	2.876	3.747	7.812	217.551	7.583	-8191	255	
3319.540	1	1	0	0	0.050078	0.14839	0.029411	0.15815	0.25864	0.29454	0.37372	0.22371	0.31328	0.12199	0.39803	0.1688	0.094254	0.30398	0.11409	0.444	-1.9813	-2.3396	-1.8708	-2.8667	-2.2521	-2.0229	-2.8	-2.1917	-2.2458	-2.4375	-2.1458	-2.5208	-2.4167	-2.1125	-2.5938	-2.1708	23.796	287.331	104.457	14.319	174.274	235.511	265.296	-6.948	6.036	144.896	213.326	249.959	58.647	-11.914	265.896	312.770	0.00029381	0.00059312	0.00017765	1514.3	4.741e-06	4.5158e-06	1496.9	403.45	5.1905e-06	4.936e-06	455.36	151.29	132.44	45.94	3.5343e-06	56.864	0.0011358	0.001403	0.0003822	1535.5	1.4527e-05	1.5108e-05	1520.3	411.47	1.4387e-05	1.5092e-05	466.31	156.26	136.62	47.49	1.4803e-05	58.564	123.913	111.835	67.300	-5.702	125.051	169.498	-5.422	-1.001	140.907	160.546	-1.192	2.994	3.450	7.938	151.380	7.366	-8191	255	
3319.636	1	1	0	0	0.055395	0.15134	0.050868	0.1296	0.18925	0.086291	0.15935	0.20541	0.072922	0.23336	0.17038	0.34849	0.086246	0.22875	0.041148	0.1596	-1.8021	-2.6063	-1.6479	-2.6688	-2.3583	-1.85	-2.8021	-2.3896	-2.0833	-2.4104	-2.1542	-2.4521	-2.3833	-1.9417	-2.5771	-2.2417	174.200	243.415	134.100	302.725	125.429	11.268	24.823	234.482	8.829	294.522	267.898	286.674	286.365	-5.841	168.641	-15.378	0.00035111	0.00077388	0.00015291	1507.8	4.8318e-06	9.1525e-06	1494.2	402.21	2.5216e-06	4.2587e-06	455.98	151.07	132.18	46.022	2.0898e-06	56.755	0.0011393	0.0013969	0.00038739	1534.3	1.4712e-05	1.5812e-05	1524	411.43	1.5326e-05	1.5786e-05	467.56	156.68	136.98	47.539	1.5948e-05	58.647	119.850	58.990	74.036	-5.575	107.481	79.190	-5.751	-1.108	115.553	133.796	-1.506	2.816	3.445	8.094	141.077	7.495	-8191	255	
3319.732	1	1	0	0	0.24024	0.24015	0.26569	0.32504	0.16784	0.12955	0.29225	0.254	0.33177	0.20501	0.31447	0.17564	0.12673	0.22673	0.067815	0.19907	-1.6854	-2.5271	-1.8188	-2.4583	-2.4667	-1.8833	-2.7521	-2.2521	-1.8458	-2.5667	-2.1271	-2.2958	-2.5687	-1.9813	-2.5083	-2.5479	204.198	254.188	65.944	280.862	132.281	113.438	285.223	279.008	181.851	43.521	337.697	237.880	315.238	-10.705	250.978	113.723	0.00034253	0.00028593	0.00012854	1516.3	4.9822e-06	6.6787e-06	1500.6	403.1	2.5308e-06	6.4484e-06	457.07	150.92	132.45	46.157	6.2297e-06	56.727	0.0012164	0.0015079	0.00041264	1538.1	1.5949e-05	1.6648e-05	1526	411.74	1.5987e-05	1.6664e-05	468.12	156.34	136.92	47.567	1.6128e-05	58.609	119.200	62.315	37.716	-5.317	135.967	135.015	-5.457	-0.796	190.023	151.895	-1.393	3.038	3.755	8.281	133.413	7.568	-8191	255	
3319.828	1	1	0	0	0.20589	0.037943	0.2118	0.16143	0.13179	0.076259	0.21044	0.12079	0.0478	0.40048	0.14241	0.31551	0.068709	0.09064	0.14912	0.12244	-1.5667	-2.6583	-1.9896	-2.3292	-2.6021	-1.9271	-2.7271	-2.6396	-1.9667	-2.5542	-2.2292	-2.2125	-2.6125	-1.9604	-2.3042	-2.3479	179.626	13.199	159.260	324.998	162.085	186.459	317.398	17.897	278.822	66.480	209.967	25.445	128.576	324.172	339.223	111.158	0.00029775	0.00049587	0.00023419	1518.3	5.9358e-06	7.3963e-06	1499.1	402.83	9.406e-07	3.4529e-06	457.82	152.11	132.47	45.861	4.8012e-06	57.1	0.0012137	0.0014927	0.00041266	1539	1.5653e-05	1.6249e-05	1524.5	411.91	1.5761e-05	1.603e-05	467.72	156.88	137.09	47.507	1.5641e-05	58.75	128.437	124.624	49.290	-5.464	146.361	110.840	-5.624	-0.688	210.893	109.301	-1.348	3.061	3.660	8.064	141.727	7.684	-8191	255	
3319.947	1	1	0	0	0.22248	0.18492	0.16911	0.31332	0.23578	0.22999	0.12434	0.26678	0.14061	0.17018	0.23206	0.297	0.26843	0.23342	0.15139	0.17386	-1.5229	-2.4167	-1.9125	-2.1188	-2.4833	-1.7188	-2.4271	-2.4979	-2.0479	-2.475	-2.2729	-2.0833	-2.5833	-1.9646	-2.1083	-2.5229	-17.118	218.844	143.289	291.571	303.232	54.953	341.127	262.546	166.357	252.905	326.557	334.521	290.080	306.499	285.292	276.845	0.00027089	0.00057416	8.6711e-05	1513	3.3997e-06	2.4445e-06	1499.4	401.77	4.0216e-06	5.4322e-06	458.18	151.26	133.06	45.983	3.4162e-06	56.853	0.0011984	0.0014574	0.00040784	1537.1	1.5445e-05	1.6005e-05	1524.8	411.48	1.5527e-05	1.5623e-05	468.25	156.47	137.09	47.514	1.5747e-05	58.685	118.691	102.695	127.454	-5.429	95.952	123.202	-5.402	-0.676	187.105	133.802	-1.315	2.890	3.681	8.010	131.289	7.735	-8191	255	
3320.043	1	1	0	0	0.30607	0.040017	0.16442	0.49314	0.080245	0.20779	0.26456	0.16763	0.25298	0.26969	0.37675	0.14677	0.17353	0.1219	0.21592	0.28558	-1.3021	-2.4646	-2.3354	-2.2562	-2.6917	-1.8875	-2.3667	-2.5563	-1.5646	-2.4521	-2.2562	-2.0708	-2.6188	-2.0833	-2.3375	-2.6437	65.019	194.396	309.404	294.334	233.722	111.552	294.958	330.577	314.380	233.082	5.061	192.035	64.212	273.782	315.664	262.663	0.00027471	0.00089222	0.00014372	1513.1	3.7383e-06	7.0623e-06	1501.4	402.3	2.9987e-06	7.164e-06	455.47	151.83	132.39	46.014	2.9779e-06	56.755	0.0012192	0.0014684	0.00041028	1536.6	1.5643e-05	1.6241e-05	1525.2	411.84	1.5793e-05	1.6027e-05	467.58	156.68	136.96	47.541	1.578e-05	58.762	120.234	82.329	79.454	-5.494	136.239	166.191	-5.557	-0.664	133.161	152.495	-1.407	3.020	3.770	8.216	147.343	7.630	-8191	255	
3320.117	1	1	0	0	0.23336	0.12559	0.18985	0.16062	0.20348	0.17871	0.10709	0.024683	0.071794	0.051383	0.28737	0.30978	0.06684	0.045851	0.41418	0.19018	-1.2313	-2.4188	-2.1875	-2.2146	-2.6167	-2.1104	-2.275	-2.7	-2.1167	-2.2833	-2.375	-1.9417	-2.75	-2.0042	-2.0292	-2.6	184.867	190.849	90.075	311.062	63.660	100.981	44.988	266.057	220.732	221.062	209.592	299.293	335.383	-10.093	124.806	317.403	0.00026272	0.00048839	0.00011695	1515.5	3.288e-06	8.0062e-06	1499.5	402.64	1.6662e-06	5.5002e-06	456.93	151.62	132.5	46.14	4.6375e-06	56.71	0.0012021	0.0014584	0.00040566	1537.5	1.5124e-05	1.5696e-05	1524.5	411.81	1.5397e-05	1.5508e-05	468.09	156.53	136.94	47.538	1.5359e-05	58.679	117.516	89.200	52.220	-5.599	102.645	163.144	-5.704	-0.969	170.032	89.129	-1.326	2.860	3.411	7.931	130.006	7.340	-8191	255	
3320.235	1	1	0	0	0.25695	0.16532	0.14251	0.4702	0.03591	0.13282	0.31231	0.157	0.20233	0.078096	0.20545	0.59846	0.29268	0.22182	0.19894	0.12485	-1.55	-2.3563	-2.4729	-2.0958	-2.6562	-2.0458	-2.1708	-2.8604	-1.8896	-2.3937	-2.475	-1.9708	-2.5646	-2.2687	-1.8896	-2.6292	286.597	303.270	11.172	-17.469	199.662	319.066	271.775	295.678	314.583	19.513	327.142	315.703	238.530	137.096	145.566	201.104	0.00029753	0.00099742	0.00024014	1516.4	6.9712e-06	6.9565e-06	1498.8	402.09	3.3783e-06	5.3755e-06	452.42	151.49	132.22	46.055	1.8107e-06	56.65	0.0011684	0.0014056	0.00039578	1538.6	1.5183e-05	1.5735e-05	1526.1	411.2	1.5193e-05	1.5585e-05	466.66	156.86	136.86	47.572	1.5844e-05	58.54	120.347	72.194	35.176	-5.537	135.036	125.832	-5.589	-0.886	123.894	161.041	-1.312	2.807	3.517	8.185	162.775	7.600	-8191	255	
3320.332	1	1	0	0	0.28429	0.043011	0.026418	0.31512	0.17945	0.22916	0.18526	0.14369	0.11177	0.37885	0.27146	0.36093	0.14818	0.35036	0.22405	0.19656	-1.5438	-2.1792	-2.3854	-2.0312	-2.3083	-2.2562	-2.1083	-2.875	-2.125	-1.975	-2.5563	-2	-2.4313	-2.425	-1.7979	-2.7938	125.635	243.297	99.859	334.059	165.446	3.743	232.691	21.918	-10.370	316.323	218.443	285.381	306.740	-15.053	70.929	324.591	0.00027348	0.00074858	0.00025625	1517.7	5.0268e-06	4.4079e-06	1496.4	403.19	5.0458e-06	3.7694e-06	456.63	151.41	132.48	46.065	2.9546e-06	57.008	0.0011842	0.0014641	0.00040075	1537.3	1.5273e-05	1.599e-05	1523.6	412.02	1.5399e-05	1.6128e-05	467.9	156.58	136.98	47.536	1.5856e-05	58.739	117.376	46.960	90.118	-5.296	167.072	175.173	-5.352	-0.997	147.740	128.657	-1.198	2.881	3.536	8.407	100.382	7.723	-8191	255	
3320.428	1	1	0	0	0.048142	0.18016	0.11392	0.081006	0.18503	0.063701	0.13744	0.33155	0.19786	0.18635	0.10516	0.22639	0.22232	0.31671	0.15911	0.19547	-1.7708	-2.1083	-2.5771	-2.1917	-2.2687	-2.4708	-2.1813	-2.8021	-2.0354	-2.0542	-2.7292	-1.9292	-2.2646	-2.5062	-1.7375	-2.5854	1.073	285.433	274.057	312.116	270.639	79.846	284.323	324.712	-6.039	81.374	177.076	249.140	4.719	281.906	-17.970	297.084	0.00030127	0.00086001	0.00018522	1516.7	7.8408e-06	1.0282e-05	1497.7	403.93	7.3632e-06	4.7421e-06	456.17	151.57	132.42	45.811	5.3642e-06	56.716	0.001205	0.0014508	0.00041318	1537.3	1.5439e-05	1.6273e-05	1524.5	412.44	1.5965e-05	1.612e-05	468.19	156.56	137.07	47.596	1.5946e-05	58.615	119.658	82.988	83.963	-5.563	155.934	123.565	-5.368	-0.661	140.055	131.092	-1.154	3.056	3.431	8.443	130.002	7.644	-8191	255	
3320.524	1	1	0	0	0.16683	0.17055	0.12796	0.26314	0.11625	0.24572	0.18074	0.24397	0.18667	0.015583	0.26521	0.15705	0.23919	0.14358	0.35087	0.14969	-1.5625	-1.8917	-2.4021	-2.2104	-2.2396	-2.2313	-2.1542	-2.6813	-2.2208	-2.1583	-2.6937	-1.9937	-2.1833	-2.5812	-1.675	-2.2583	259.036	274.808	107.348	269.247	64.925	124.299	208.924	206.607	325.017	1.207	302.911	295.106	226.023	222.374	271.186	206.947	0.00028265	0.00028562	7.4841e-05	1519.2	5.3967e-06	8.5051e-06	1497.7	403.24	2.8364e-06	3.2798e-06	458.57	152.3	131.93	46.108	3.5638e-06	56.704	0.0011955	0.0014806	0.00041324	1539.6	1.5701e-05	1.6227e-05	1525.4	412.39	1.5571e-05	1.6394e-05	468.75	156.94	137.08	47.564	1.6167e-05	58.631	132.603	72.871	40.167	-5.310	104.932	81.816	-5.405	-0.903	196.817	162.530	-1.024	3.157	3.450	7.767	141.958	7.371	-8191	255	
3320.645	1	1	0	0	0.25152	0.2714	0.078238	0.19216	0.052638	0.17303	0.18811	0.077593	0.178	0.33947	0.19711	0.14575	0.12824	0.15112	0.10157	0.14179	-1.7687	-1.7542	-2.4313	-2.2438	-1.9083	-2.6583	-2.1437	-2.5604	-2.1479	-1.8937	-2.5792	-2.1417	-2.1063	-2.6937	-1.8167	-2.5938	160.601	338.004	162.035	-3.174	323.473	301.237	299.658	30.448	312.568	121.275	315.661	297.444	9.824	182.987	78.006	176.343	0.00025942	0.00063304	0.00023198	1517.4	3.2715e-06	1.0322e-05	1499.2	403.12	4.1998e-06	2.0328e-06	455.98	150.99	132.59	45.86	4.3294e-06	56.591	0.0012098	0.0014532	0.00040296	1540.2	1.5513e-05	1.636e-05	1526.4	412.08	1.5432e-05	1.6022e-05	468.2	156.46	137.08	47.536	1.5749e-05	58.705	118.385	55.045	77.998	-5.181	192.168	119.362	-5.364	-0.832	140.423	142.698	-1.562	3.079	3.602	8.225	119.313	7.430	-8191	255	
3320.716	1	1	0	0	0.20527	0.082658	0.34234	0.29729	0.29468	0.16586	0.21463	0.1885	0.14874	0.27571	0.21279	0.21458	0.19453	0.39527	0.26666	0.10991	-2.0729	-1.7812	-2.5292	-2.3354	-1.9021	-2.6667	-1.9854	-2.3063	-2.1979	-1.8896	-2.7667	-2.3542	-1.9562	-2.5854	-1.9562	-2.1729	202.052	253.914	42.836	315.868	176.471	314.588	-1.967	255.345	324.045	88.946	319.819	0.096	303.786	284.592	37.498	108.341	0.00028137	0.00057906	0.00020008	1515	3.7816e-06	4.6026e-06	1496.3	402.98	3.0125e-06	5.6555e-06	455.2	151.89	132.89	45.972	6.9679e-06	56.74	0.0011911	0.0014735	0.00040726	1538.2	1.5193e-05	1.6258e-05	1525.8	411.98	1.5777e-05	1.6065e-05	468.08	156.93	137.22	47.612	1.6184e-05	58.692	124.795	95.904	73.041	-5.439	139.407	103.965	-5.434	-0.874	182.345	89.473	-1.009	3.106	3.386	7.912	142.979	7.342	-8191	255	
3320.837	1	1	0	0	0.16392	0.033562	0.24094	0.41959	0.1341	0.16251	0.14005	0.24395	0.21535	0.044595	0.15664	0.14668	0.21584	0.20289	0.28242	0.45464	-1.9833	-1.7771	-2.3208	-2.2729	-2.0125	-2.7333	-2.1771	-2.2125	-2.5708	-1.9021	-2.5187	-2.4833	-1.9479	-2.6625	-2.0854	-2.275	73.468	106.790	176.046	302.102	155.776	125.360	196.500	298.312	340.241	282.642	284.369	231.586	274.199	308.201	212.219	13.615	0.00032212	0.00037745	0.00018594	1522.1	1.131e-06	8.0078e-06	1500	403.51	1.3576e-06	8.1241e-06	455.67	151.24	132.62	46.155	4.5164e-06	56.466	0.0012081	0.0014892	0.00041179	1541.1	1.5684e-05	1.6524e-05	1525.3	412.35	1.5685e-05	1.6417e-05	468.27	156.53	137.03	47.625	1.5889e-05	58.615	120.964	115.798	91.406	-5.150	333.655	117.902	-5.304	-1.025	197.948	121.836	-1.155	3.373	3.648	8.208	103.713	7.626	-8191	255	
3320.933	1	1	0	0	0.34334	0.053393	0.15621	0.60432	0.14597	0.20056	0.37728	0.16262	0.11182	0.25699	0.23452	0.1297	0.095642	0.17284	0.14739	0.13315	-2.1479	-1.7313	-2.1792	-2.5708	-1.8021	-2.5187	-2.3187	-2.0396	-2.7417	-2.0187	-2.3708	-2.5792	-1.8458	-2.6125	-2.0979	-2.2292	68.769	9.116	295.638	332.304	195.781	268.110	308.656	-4.764	192.275	13.331	266.855	265.867	319.516	275.842	115.931	5.580	0.00028149	0.00047975	0.00021251	1519.6	4.2148e-06	4.6951e-06	1500.8	403.43	5.0749e-06	4.5718e-06	456.72	151.23	132.4	46.089	4.9254e-06	56.656	0.0012135	0.0014441	0.00041203	1540.9	1.5495e-05	1.6e-05	1527.1	411.67	1.5614e-05	1.6169e-05	467.68	156.39	136.86	47.598	1.5896e-05	58.688	129.691	67.192	45.973	-4.981	132.448	130.611	-5.578	-0.665	142.768	126.410	-1.287	3.326	3.590	8.180	127.804	7.257	-8191	255	
3321.027	1	1	0	0	0.24903	0.20806	0.085708	0.33781	0.20853	0.13109	0.17826	0.16887	0.29242	0.25888	0.34199	0.22493	0.19592	0.36332	0.53342	0.087367	-2.2021	-1.8312	-2.2812	-2.6854	-2.0542	-2.5125	-2.5125	-2.0917	-2.5208	-1.9167	-2.3312	-2.575	-2.0312	-2.5083	-2.1396	-1.7437	173.055	-14.105	80.360	303.232	264.273	3.543	233.355	-12.019	201.321	311.731	259.885	340.282	2.705	329.745	36.971	211.858	0.00031662	0.00059666	7.3396e-05	1516.1	5.5625e-06	5.145e-06	1497.7	402.52	4.5754e-06	6.5816e-06	457.65	151.6	132.33	46.124	5.5609e-06	56.51	0.0012249	0.0014901	0.00041247	1538.6	1.5643e-05	1.6522e-05	1524.4	411.96	1.5854e-05	1.6188e-05	469.03	156.63	137.02	47.613	1.6421e-05	58.66	121.931	11.130	117.923	-5.441	151.803	132.159	-5.783	-1.218	109.258	153.127	-1.552	3.043	3.325	8.126	161.356	7.270	-8191	255	
3321.124	1	1	0	0	0.13015	0.16824	0.17404	0.29694	0.085385	0.15871	0.33782	0.19324	0.1129	0.19443	0.068134	0.2467	0.17507	0.29146	0.19384	0.20645	-2.1854	-1.9083	-2.1521	-2.625	-1.7458	-2.4333	-2.5292	-2.0812	-2.3604	-1.9542	-2.0354	-2.5667	-1.975	-2.375	-2.3792	-2.0125	62.666	167.495	195.269	319.144	164.058	183.542	272.776	87.728	27.011	309.826	234.991	329.220	-11.388	312.242	277.425	59.500	0.00029264	0.00014217	0.0001504	1513.3	3.7882e-06	5.0901e-06	1504	402.27	4.3846e-06	6.4192e-06	455.75	152.22	132.05	46.174	4.1121e-06	56.574	0.0012259	0.001504	0.00041852	1538	1.626e-05	1.6763e-05	1525.3	411.64	1.6276e-05	1.6753e-05	467.85	156.88	136.85	47.636	1.6404e-05	58.708	128.175	52.482	78.660	-5.484	108.611	140.348	-5.592	-1.052	109.073	220.692	-1.609	3.097	3.499	8.107	120.522	7.162	-8191	255	
3321.244	1	1	0	0	0.16851	0.18309	0.091804	0.11153	0.065008	0.30224	0.31198	0.1738	0.23372	0.16829	0.17543	0.041904	0.14754	0.29113	0.16346	0.13029	-2.1	-2.0104	-2.0583	-2.8604	-1.7229	-2.2167	-2.6521	-2.0208	-2.5375	-2.3333	-2.1521	-2.7354	-2.0146	-2.525	-2.5938	-2.0625	256.298	37.976	162.618	207.038	-13.883	237.260	252.323	249.589	310.033	51.840	241.740	8.273	-3.879	31.407	308.078	80.753	0.00026131	0.00060604	9.7277e-05	1513.3	7.4444e-06	3.185e-06	1493.4	403.01	4.5558e-06	3.7529e-06	455.77	151.58	132.47	45.912	4.1045e-06	56.598	0.0012415	0.0015117	0.00042397	1536.3	1.6025e-05	1.6697e-05	1521.9	411.49	1.5991e-05	1.6542e-05	468.1	156.48	136.8	47.582	1.6179e-05	58.634	119.913	66.391	48.365	-5.408	148.993	129.281	-5.359	-0.934	126.720	94.972	-1.528	3.118	3.411	8.033	93.284	7.451	-8191	255	
3321.340	1	1	0	0	0.1186	0.26118	0.09627	0.33445	0.2767	0.083652	0.17888	0.097544	0.13922	0.06468	0.20875	0.16003	0.38943	0.097395	0.086967	0.25626	-2.1896	-2.1979	-1.95	-2.7687	-2.0021	-2.1437	-2.6083	-2.0271	-2.3667	-2.2313	-1.9292	-2.7083	-1.9896	-2.3812	-2.5458	-2.0125	185.155	328.114	248.044	9.306	291.764	304.441	280.410	253.254	224.559	293.823	229.955	177.983	-3.113	143.642	78.872	301.931	0.00026471	0.00073241	0.00021051	1515	8.6047e-06	1.8697e-06	1497.1	402.61	6.4642e-06	3.4668e-06	454.89	151.32	132.44	45.861	5.6023e-06	56.396	0.0012195	0.001507	0.00041648	1536.1	1.5832e-05	1.6336e-05	1521.9	411.52	1.6062e-05	1.6209e-05	467.71	156.63	136.96	47.485	1.6316e-05	58.533	130.758	78.572	68.712	-5.544	119.831	165.900	-5.460	-1.053	145.683	105.043	-1.184	3.023	3.482	7.905	131.694	7.381	-8191	255	
3321.412	1	1	0	0	0.25209	0.3092	0.32111	0.40429	0.11587	0.21951	0.38103	0.21762	0.19644	0.086821	0.13365	0.14292	0.15966	0.24325	0.28024	0.085127	-1.9104	-2.2687	-1.85	-2.8271	-2.2917	-2.1854	-2.6542	-2.125	-2.4479	-2.4646	-1.9438	-2.7833	-2.2667	-2.1896	-2.5563	-2.0563	196.836	33.518	-9.154	308.591	128.869	20.551	259.262	304.694	275.708	119.658	199.800	68.625	331.054	298.366	128.680	17.504	0.00024614	0.00046174	0.00017096	1515.2	5.0975e-06	8.3535e-06	1497.1	402.33	3.8639e-06	5.0128e-06	454.67	151.64	132.09	46.021	7.0094e-06	56.684	0.0012432	0.0015258	0.00042496	1536.6	1.6178e-05	1.7178e-05	1522.4	411.5	1.635e-05	1.676e-05	467.36	156.63	136.74	47.596	1.6577e-05	58.665	128.586	113.723	74.971	-5.558	85.010	151.076	-5.515	-0.761	142.581	186.508	-1.208	3.102	3.963	8.156	156.112	7.310	-8191	255	
3321.508	1	1	0	0	0.059508	0.1029	0.1581	0.28303	0.07133	0.095406	0.37998	0.29075	0.076984	0.20932	0.043296	0.096115	0.1941	0.26719	0.052967	0.2852	-1.6458	-2.375	-1.725	-2.8229	-2.0771	-1.9229	-2.6937	-1.9833	-2.2188	-2.3729	-2.0479	-2.425	-2.3542	-2.2146	-2.6604	-2.1667	321.129	135.213	56.481	293.137	77.076	137.643	322.359	319.688	216.037	-15.436	230.423	119.314	330.035	331.853	246.898	243.035	0.00030318	0.00060612	0.00014422	1510.2	3.1352e-06	7.2915e-06	1497	402.15	5.0397e-06	5.2853e-06	453.64	151.15	132.29	45.973	4.0774e-06	56.581	0.0012547	0.0015462	0.00042776	1535.6	1.5856e-05	1.679e-05	1522	411.21	1.6216e-05	1.6689e-05	466.5	156.28	136.73	47.524	1.59e-05	58.645	128.951	60.456	85.121	-5.692	157.263	125.035	-5.643	-1.009	141.863	125.473	-1.416	2.920	3.763	8.099	171.826	7.488	-8191	255	
3321.629	1	1	0	0	0.16015	0.12578	0.11173	0.26545	0.13232	0.059345	0.19027	0.46973	0.099161	0.058451	0.22938	0.18128	0.15388	0.14906	0.18844	0.18535	-1.9062	-2.475	-1.8813	-2.5375	-2.2771	-2.0708	-2.7875	-2.1875	-2.1937	-2.4917	-2.0438	-2.3229	-2.2625	-2.1542	-2.6979	-2.3417	67.422	-6.211	196.629	310.438	43.426	272.239	303.912	300.926	316.267	272.996	39.101	242.957	26.062	144.163	210.597	304.412	0.00032989	0.00069608	0.00012521	1508.9	3.4606e-06	1.0665e-05	1495.1	402.8	4.1984e-06	5.6056e-06	455.74	151.37	132.93	45.884	6.2383e-06	56.877	0.0012341	0.0015026	0.00041974	1534.9	1.558e-05	1.6504e-05	1522.1	411.3	1.6145e-05	1.6481e-05	466.97	156.54	137.07	47.467	1.6095e-05	58.665	123.419	71.520	25.127	-5.325	154.216	123.874	-5.485	-0.605	139.317	179.630	-1.193	3.017	3.885	8.288	167.982	7.876	-8191	255	
3321.725	1	1	0	0	0.32902	0.039367	0.066205	0.2404	0.28647	0.16336	0.29637	0.12651	0.076325	0.25405	0.031136	0.25651	0.089574	0.24039	0.042666	0.18209	-1.5729	-2.6562	-1.9417	-2.5563	-2.3833	-1.8042	-2.825	-2.3646	-2.1792	-2.6458	-2.1188	-2.3875	-2.5812	-2.1271	-2.4938	-2.4938	74.711	310.292	270.483	-11.535	273.783	182.105	239.713	93.449	148.849	186.225	285.257	288.461	272.118	332.387	86.687	136.706	0.00028958	0.00033761	0.00011492	1514.4	3.9817e-06	6.6515e-06	1494.9	402.36	1.4985e-06	5.4122e-06	455.28	151.82	132.47	45.792	4.0274e-06	56.692	0.0012202	0.0014966	0.00041599	1535.4	1.5691e-05	1.6556e-05	1520.1	410.73	1.5842e-05	1.621e-05	467.02	156.52	136.89	47.454	1.5821e-05	58.567	123.913	73.545	150.568	-5.322	110.647	141.474	-5.252	-0.602	116.158	166.151	-1.191	3.130	3.823	8.099	134.818	7.554	-8191	255	
3321.821	1	1	0	0	0.032475	0.24634	0.14333	0.042513	0.060426	0.29898	0.49967	0.14902	0.18518	0.1791	0.069921	0.42024	0.18189	0.23723	0.072742	0.1281	-1.6437	-2.6646	-1.9167	-2.3292	-2.3708	-1.8021	-2.6688	-2.2958	-1.9979	-2.4104	-2.0917	-2.1437	-2.6604	-1.9458	-2.3563	-2.3792	337.603	224.578	73.906	17.601	247.736	109.533	293.315	90.024	89.652	216.220	288.045	301.033	146.280	37.239	164.872	322.672	0.00027411	0.00017642	0.00022992	1518.5	4.2106e-06	7.3302e-06	1495.8	400.96	2.4182e-06	2.9999e-06	455.58	152.06	131.84	45.798	3.9848e-06	56.666	0.0011999	0.0014692	0.00041097	1537	1.5605e-05	1.604e-05	1522	411.11	1.577e-05	1.6236e-05	467.13	156.64	136.63	47.496	1.6144e-05	58.523	137.813	111.287	93.758	-5.353	113.505	206.628	-5.692	-0.668	133.601	149.515	-1.372	3.030	3.669	8.157	154.822	7.650	-8191	255	
3321.917	1	1	0	0	0.089969	0.15428	0.29275	0.249	0.09266	0.041825	0.22038	0.17537	0.13904	0.12999	0.11847	0.47141	0.25516	0.13121	0.12817	0.12867	-1.4521	-2.6188	-1.9937	-2.3375	-2.4833	-1.7042	-2.8688	-2.5854	-1.7708	-2.3646	-2.1979	-2.2167	-2.6417	-1.9	-2.3208	-2.6521	133.952	20.990	328.624	265.183	144.567	171.843	239.072	-16.683	41.722	171.604	292.695	317.013	284.906	323.497	91.873	17.953	0.00026944	0.00095992	0.00013418	1509.5	2.9343e-06	4.4522e-06	1496.6	401.74	4.9167e-07	8.6855e-06	452.61	150.96	131.99	45.826	5.0023e-06	56.703	0.0012279	0.0015029	0.00041303	1535.6	1.5686e-05	1.6383e-05	1521.6	411.48	1.6101e-05	1.6113e-05	466.06	156.48	136.78	47.46	1.6043e-05	58.634	127.856	77.632	100.085	-5.303	103.458	165.447	-5.371	-0.640	74.383	111.673	-1.371	3.149	3.585	8.371	144.146	7.632	-8191	255	
3322.012	1	1	0	0	0.15563	0.20021	0.19067	0.21216	0.18146	0.079604	0.39258	0.28901	0.1368	0.16624	0.071396	0.10911	0.018247	0.24653	0.14936	0.11722	-1.4229	-2.4292	-1.9854	-2.3875	-2.5625	-2.0938	-2.5	-2.6813	-1.8229	-2.4562	-2.2792	-2.0896	-2.6667	-1.9646	-2.0521	-2.5375	300.866	0.232	7.257	277.608	81.141	84.239	273.940	264.038	15.102	81.641	318.827	319.024	282.247	26.784	134.970	320.540	0.0002667	0.0010021	0.0001981	1515.3	5.244e-06	7.8868e-06	1493.2	401.54	2.8816e-06	4.9396e-06	454.81	151.29	132.29	46.063	5.1971e-06	56.726	0.0012177	0.0015158	0.00041485	1537.6	1.5903e-05	1.6484e-05	1522.7	410.87	1.5921e-05	1.6478e-05	467.54	156.18	136.99	47.605	1.5966e-05	58.667	127.655	88.293	82.852	-5.407	151.630	125.523	-5.617	-0.885	144.441	103.043	-0.933	2.994	3.996	8.607	170.602	7.631	-8191	255	
3322.108	1	1	0	0	0.064186	0.21727	0.26197	0.24383	0.23871	0.08111	0.2254	0.15484	0.16258	0.10745	0.072739	0.22672	0.32206	0.1952	0.10404	0.10692	-1.5187	-2.2167	-2.2646	-2.2292	-2.5187	-1.8125	-2.3625	-2.7979	-1.7563	-2.2021	-2.5875	-2.1562	-2.7083	-2.2125	-2.1417	-2.7333	177.285	216.928	97.536	325.889	109.807	72.947	288.410	305.095	23.282	235.488	311.855	317.306	224.686	338.220	318.405	318.946	0.00031932	0.00058778	0.00018074	1513	3.1222e-06	8.4732e-06	1499.9	400.95	1.4584e-06	5.7834e-06	454.31	151.1	132.21	45.904	3.5668e-06	56.597	0.0012175	0.001493	0.00041476	1535.4	1.578e-05	1.6358e-05	1522.6	411.08	1.5953e-05	1.6316e-05	467.56	156.26	136.84	47.501	1.6051e-05	58.549	125.072	109.617	140.603	-5.730	165.292	155.810	-5.463	-0.827	43.797	135.916	-1.063	3.256	3.523	8.179	128.882	7.471	-8191	255	
3322.204	1	1	0	0	0.11873	0.2035	0.18551	0.18918	0.32854	0.1757	0.41373	0.054988	0.087583	0.15343	0.26818	0.30865	0.12977	0.19626	0.071476	0.20428	-1.3521	-2.2812	-2.4458	-1.9896	-2.6542	-2.0729	-2.3375	-2.7687	-2.05	-2.2854	-2.5542	-2.0771	-2.6937	-2.3438	-2.0333	-2.5854	137.272	263.126	323.319	285.470	8.118	244.333	298.229	175.139	24.703	301.888	57.920	294.094	211.432	330.746	281.753	297.908	0.00029384	0.00079591	0.00016546	1514.2	6.7779e-06	9.5301e-06	1497.8	402.72	2.5625e-06	1.0557e-05	456.88	151.33	132.14	45.932	3.4752e-06	56.948	0.0012185	0.0014776	0.00041441	1535.5	1.5595e-05	1.6453e-05	1523.3	411.55	1.5927e-05	1.6493e-05	468.07	156.57	136.81	47.486	1.6165e-05	58.721	122.798	77.093	44.436	-5.445	149.362	137.315	-5.463	-0.590	186.444	131.323	-1.256	3.139	3.518	8.007	120.414	7.668	-8191	255	
3322.325	1	1	0	0	0.26526	0.023407	0.089714	0.2422	0.13345	0.24884	0.12084	0.13624	0.2151	0.15056	0.30334	0.21771	0.16592	0.10007	0.15367	0.20826	-1.4896	-2.125	-2.4042	-2.0042	-2.4083	-2.2938	-1.9688	-2.5792	-1.8813	-2.2417	-2.6562	-2.0604	-2.5729	-2.3833	-1.8333	-2.8458	-5.131	132.634	51.020	295.555	-11.005	264.186	291.715	177.918	60.613	106.320	248.336	322.869	317.554	264.767	9.537	237.983	0.0002694	0.00071866	0.00021013	1512.2	2.971e-06	6.5369e-06	1493.5	402.34	3.4818e-06	6.4858e-06	457.58	151.6	132.1	45.962	3.008e-06	56.753	0.0012354	0.0015212	0.00042513	1534.6	1.5782e-05	1.6367e-05	1521.4	411.66	1.6237e-05	1.6317e-05	467.59	156.44	136.82	47.536	1.6177e-05	58.667	127.115	53.429	63.586	-5.355	123.174	165.505	-5.389	-0.775	170.311	111.496	-1.234	2.986	3.975	8.434	147.891	7.394	-8191	255	
3322.421	1	1	0	0	0.29473	0.2123	0.25959	0.29855	0.1933	0.10662	0.40106	0.25892	0.017991	0.1102	0.056104	0.059784	0.24903	0.14737	0.17239	0.11649	-1.5375	-2.0187	-2.3438	-1.9792	-2.5438	-2.3042	-2.0312	-2.6979	-1.9937	-2.2729	-2.7208	-2.0687	-2.4271	-2.5396	-1.7563	-2.6312	150.522	250.471	101.700	325.927	95.290	66.892	326.409	298.477	204.171	61.353	3.807	301.892	336.852	310.777	273.433	-14.595	0.00030544	0.0010343	0.00013327	1511.6	3.7657e-06	5.4187e-06	1492.8	400.78	2.3881e-06	4.0242e-06	456.25	151.69	132.89	45.788	5.2976e-06	56.799	0.0011985	0.0014962	0.00041443	1533.4	1.5623e-05	1.6237e-05	1520.5	410.94	1.607e-05	1.6204e-05	468	156.45	136.82	47.521	1.6064e-05	58.621	120.443	54.249	66.912	-5.481	210.763	215.803	-5.190	-0.471	71.831	157.577	-1.242	3.154	3.350	7.892	119.740	8.175	-8191	255	
3322.517	1	1	0	0	0.13788	0.2544	0.056298	0.27031	0.30041	0.090544	0.14402	0.18138	0.1178	0.025286	0.10563	0.15006	0.14837	0.17795	0.084254	0.16947	-1.7604	-1.9167	-2.6021	-2.2562	-2.2417	-2.3854	-2.1312	-2.75	-2.1	-2.0292	-2.7292	-2.0146	-2.375	-2.6188	-1.9813	-2.475	214.034	-12.650	292.664	2.594	301.751	199.035	314.536	329.070	-4.349	51.585	129.734	4.844	288.627	327.921	328.529	267.115	0.00018796	0.00050073	5.7683e-05	1512.6	2.9963e-06	7.1001e-06	1492	403.4	2.4528e-06	5.0351e-06	455.62	151	132.03	46.057	3.519e-06	56.903	0.0012213	0.0014876	0.00041137	1534.6	1.5664e-05	1.6213e-05	1519.8	411.72	1.5326e-05	1.6046e-05	466.53	156.19	136.6	47.48	1.5808e-05	58.709	126.142	66.183	61.862	-5.261	214.802	80.921	-5.549	-0.964	184.326	105.288	-1.125	3.275	3.529	8.155	107.034	7.572	-8191	255	
3322.613	1	1	0	0	0.23598	0.03522	0.1792	0.18758	0.12274	0.21846	0.10894	0.27918	0.14735	0.27066	0.00079337	0.17115	0.31469	0.1473	0.22679	0.27379	-1.8937	-2.05	-2.6	-2.4062	-2.3083	-2.5563	-2.1729	-2.5604	-2.2458	-1.8833	-2.7958	-2.3187	-2.225	-2.5812	-1.9271	-2.5146	187.165	122.234	156.189	310.890	304.667	328.883	233.319	272.235	335.203	191.464	180.000	280.403	-5.659	137.771	216.556	269.045	0.00025851	0.00067769	0.00012437	1514.4	3.8417e-06	5.0836e-06	1497.3	401.65	2.6023e-06	6.7807e-06	455.68	150.84	132.37	45.708	2.3435e-06	56.624	0.0012003	0.001453	0.00041067	1535	1.5729e-05	1.6112e-05	1522.3	410.55	1.5468e-05	1.6046e-05	467.57	156.11	136.84	47.368	1.5648e-05	58.608	132.582	24.767	65.687	-5.533	175.954	129.514	-5.445	-0.735	116.787	117.227	-1.109	3.173	3.824	8.464	117.622	7.651	-8191	255	
3322.707	1	1	0	0	0.1821	0.12105	0.084643	0.18608	0.26562	0.35415	0.35977	0.13346	0.16447	0.17934	0.059838	0.12236	0.14862	0.13282	0.26287	0.082254	-2.0542	-2.0771	-2.5667	-2.4104	-2.1125	-2.5667	-2.1167	-2.6854	-2.4979	-1.9042	-2.7625	-2.2313	-2.2104	-2.5292	-1.9833	-2.475	294.800	196.145	169.526	299.249	175.853	183.086	250.704	67.885	38.148	52.226	18.795	120.236	253.560	331.579	327.725	148.597	0.00025893	0.00076408	0.00011581	1510.7	3.0771e-06	4.0778e-06	1490.1	400.7	4.6806e-06	4.0562e-06	456.08	151.46	132.05	45.79	4.7755e-06	56.838	0.0011823	0.0014516	0.00039898	1533.7	1.5247e-05	1.5842e-05	1516.5	410.33	1.5157e-05	1.5722e-05	467.23	156.25	136.52	47.43	1.5443e-05	58.618	118.899	35.840	78.747	-5.243	181.618	153.962	-5.292	-0.726	148.774	124.822	-1.050	3.434	3.550	8.302	143.000	7.869	-8191	255	
3322.804	1	1	0	0	0.1432	0.14486	0.059502	0.38202	0.13694	0.26665	0.3801	0.27691	0.083713	0.028257	0.012296	0.090848	0.099007	0.15271	0.16941	0.054279	-2.0687	-1.7458	-2.4292	-2.525	-1.9813	-2.4583	-2.1604	-2.4167	-2.425	-1.9021	-2.5771	-2.4229	-2.1042	-2.6729	-2.0417	-2.1604	112.074	282.834	252.386	336.570	210.303	150.859	258.691	282.277	333.708	314.601	206.314	127.944	291.680	334.255	286.762	244.367	0.00028373	0.0007397	0.00021185	1513.5	1.8504e-06	9.3681e-06	1490.7	401.76	6.8587e-06	7.5107e-06	454.31	151.4	132.51	45.981	6.6622e-06	56.881	0.0011763	0.0014246	0.00039482	1533.3	1.5103e-05	1.5832e-05	1518.1	411.05	1.5347e-05	1.5534e-05	466.33	156.54	136.89	47.519	1.5478e-05	58.628	130.939	78.449	45.528	-5.207	149.213	141.008	-5.491	-0.790	140.792	113.533	-1.031	3.204	3.476	8.541	118.733	7.736	-8191	255	
3322.924	1	1	0	0	0.025355	0.10499	0.30893	0.31241	0.10628	0.21096	0.090062	0.040157	0.062641	0.40339	0.23045	0.12374	0.17664	0.13054	0.135	0.31177	-2.25	-1.9167	-2.2354	-2.5646	-2.0083	-2.5187	-2.4146	-2.3625	-2.6063	-1.85	-2.3438	-2.4396	-2.0938	-2.7896	-2.2104	-1.9896	39.300	253.614	30.155	296.157	119.196	331.926	307.349	54.299	159.143	143.884	219.854	274.700	79.069	111.151	261.781	265.101	0.0003091	0.0007649	0.00011733	1512.4	3.2002e-06	6.0644e-06	1496.2	401.58	4.4449e-06	6.334e-06	455.77	151.1	132.37	46.019	2.757e-06	56.697	0.0011581	0.001424	0.00039983	1533	1.525e-05	1.5807e-05	1520.7	410.91	1.5203e-05	1.5831e-05	466.08	156.31	136.8	47.481	1.5416e-05	58.559	121.685	70.916	48.309	-5.068	146.187	140.659	-5.519	-0.565	130.726	97.447	-0.813	3.750	3.889	8.476	156.170	7.666	-8191	255	
3323.020	1	1	0	0	0.31106	0.24263	0.23473	0.31126	0.1505	0.073905	0.25258	0.17961	0.14924	0.2017	0.058221	0.1102	0.17605	0.35343	0.18169	0.20342	-2.2583	-1.8542	-2.4021	-2.7188	-1.9688	-2.55	-2.3396	-2.1271	-2.4917	-1.9729	-2.4417	-2.5417	-1.8146	-2.8083	-2.0938	-1.9708	55.682	24.561	18.399	321.272	317.901	184.354	188.531	31.461	77.435	216.467	141.980	70.932	316.553	198.207	142.070	331.610	0.00024389	0.00036226	0.00012581	1508.1	3.5369e-06	8.1172e-06	1495.7	402.26	2.7979e-06	4.4162e-06	453.86	151.64	131.44	45.962	4.4075e-06	56.709	0.0011855	0.0014417	0.00040248	1533.6	1.5125e-05	1.5888e-05	1522.2	410.62	1.5215e-05	1.5944e-05	465.92	156.42	136.54	47.427	1.5887e-05	58.593	122.278	48.717	47.731	-5.087	182.370	147.658	-5.316	-0.761	91.693	156.527	-1.375	3.408	3.868	8.617	141.737	7.630	-8191	255	
3323.116	1	1	0	0	0.17394	0.021801	0.33752	0.27535	0.12179	0.16151	0.055984	0.051274	0.2352	0.11985	0.27176	0.20258	0.36794	0.10995	0.062171	0.11632	-2.0708	-1.8083	-2.0687	-2.6521	-1.8396	-2.4667	-2.4021	-1.9896	-2.5708	-2.1562	-2.2354	-2.6146	-1.9688	-2.6333	-2.2542	-1.8104	123.763	195.364	2.763	337.997	181.723	230.336	308.010	273.253	98.172	120.941	242.873	330.059	267.992	275.242	239.727	215.375	0.00025917	0.00078956	0.00011839	1515.5	2.9253e-06	8.2895e-06	1497	402.12	4.9163e-06	7.2251e-06	455.18	151.48	131.51	45.932	4.4528e-06	56.465	0.0011927	0.0014355	0.00041087	1535.8	1.5449e-05	1.6174e-05	1522.3	411.21	1.5961e-05	1.6132e-05	466.73	156.37	136.65	47.522	1.5749e-05	58.621	131.166	64.417	51.964	-5.314	133.113	169.602	-5.430	-0.653	128.605	138.356	-1.932	2.578	3.262	7.820	114.367	7.388	-8191	255	
3323.213	1	1	0	0	0.071081	0.23945	0.10039	0.1672	0.1968	0.33403	0.26509	0.11718	0.17894	0.22625	0.14893	0.11061	0.075706	0.35055	0.34987	0.058366	-2.2062	-2.0583	-2.0521	-2.7917	-1.8687	-2.3958	-2.5042	-1.9188	-2.5104	-2.1646	-2.0958	-2.7208	-1.8375	-2.5271	-2.1396	-1.9604	72.239	-5.531	35.948	295.970	212.725	195.826	338.398	278.205	40.174	242.430	164.294	12.279	296.610	-13.006	61.550	257.190	0.0003004	0.00040729	0.00013746	1509.3	2.1466e-06	6.3765e-06	1498.4	401.39	4.07e-06	6.7017e-06	455.59	151.17	132.46	45.841	4.889e-06	56.744	0.0012079	0.001481	0.00040937	1534.9	1.5792e-05	1.6245e-05	1523.3	410.9	1.5547e-05	1.596e-05	466.57	156.18	136.67	47.511	1.6084e-05	58.663	131.619	50.947	72.051	-5.464	137.702	149.024	-5.778	-0.901	138.309	155.889	-1.322	3.003	3.299	7.969	82.145	7.593	-8191	255	
3323.307	1	1	0	0	0.025847	0.014808	0.27325	0.22101	0.42818	0.12044	0.55974	0.28402	0.15246	0.11526	0.2793	0.22642	0.22896	0.12419	0.10516	0.24726	-2.1625	-1.9958	-1.9667	-2.7104	-2.0625	-2.2458	-2.6417	-1.9396	-2.5187	-2.1521	-2.1521	-2.725	-2.1896	-2.1729	-2.5417	-1.9458	160.348	266.452	206.049	240.957	330.569	199.358	296.811	15.378	123.791	242.007	293.404	258.494	-4.890	280.607	318.923	215.267	0.00026613	0.00078585	0.00015864	1515.7	4.5267e-06	7.9324e-06	1499.6	402.12	3.343e-06	3.3389e-06	453.86	151.32	132.35	45.765	8.3946e-06	56.705	0.0012053	0.0014958	0.00041256	1535.5	1.564e-05	1.6302e-05	1521	411.34	1.5987e-05	1.6455e-05	467	156.47	136.87	47.417	1.6143e-05	58.699	131.370	78.534	84.163	-5.262	141.131	91.055	-5.459	-0.868	132.452	129.981	-1.395	3.003	3.866	8.243	137.431	7.690	-8191	255	
3323.403	1	1	0	0	0.41287	0.2209	0.16385	0.22622	0.26576	0.10749	0.27749	0.4764	0.16075	0.067158	0.1715	0.29107	0.13124	0.097296	0.096998	0.3062	-2.0833	-2.3875	-1.7375	-2.7479	-2.0958	-2.2125	-2.7208	-2.1104	-2.3083	-2.3896	-2.1063	-2.7271	-2.1917	-2.2438	-2.6271	-1.7687	298.122	163.103	337.354	303.710	88.503	69.975	224.482	291.230	234.016	90.743	-11.255	313.239	-6.620	-13.298	-8.170	295.272	0.00028701	0.00044059	6.3076e-05	1514.8	5.4116e-06	6.7936e-06	1495.8	400.85	5.6094e-06	5.2794e-06	454.81	152.58	132.08	45.921	1.7913e-06	56.669	0.0012288	0.0015276	0.00041659	1534.3	1.5933e-05	1.6601e-05	1522.5	410.98	1.5986e-05	1.6427e-05	466.74	156.57	136.61	47.521	1.6024e-05	58.659	115.240	27.483	33.635	-5.439	109.507	146.196	-5.451	-0.840	167.158	154.263	-1.419	2.898	3.609	8.103	201.902	7.623	-8191	255	
3323.499	1	1	0	0	0.3519	0.029808	0.0945	0.26336	0.24489	0.12124	0.4121	0.31732	0.14029	0.24386	0.28852	0.28258	0.18882	0.17661	0.057111	0.039648	-1.9458	-2.3833	-1.9792	-2.7896	-1.9896	-2.0458	-2.6979	-2.0396	-2.25	-2.4938	-1.9229	-2.7167	-2.1396	-1.9604	-2.5333	-1.9688	121.644	193.903	24.639	288.738	163.813	302.588	266.857	284.589	339.215	297.331	275.347	324.707	168.186	329.335	76.319	-13.921	0.00026696	0.00054256	0.00015295	1512.4	3.3e-06	1.2156e-05	1487.8	400.95	3.8949e-06	6.6196e-06	452.56	151.64	132.73	46.044	7.9368e-06	56.712	0.0012301	0.0014938	0.00042318	1535.2	1.5944e-05	1.6789e-05	1521.1	410.66	1.6e-05	1.6679e-05	466.37	156.55	136.98	47.495	1.6386e-05	58.644	121.909	57.496	106.458	-5.351	113.282	119.846	-5.579	-0.718	161.446	179.090	-1.348	2.901	3.667	8.000	160.670	7.109	-8191	255	
3323.595	1	1	0	0	0.055695	0.14587	0.20101	0.29267	0.26486	0.068472	0.31974	0.22155	0.1597	0.28151	0.43156	0.028479	0.17642	0.14547	0.1934	0.055415	-1.8021	-2.4625	-1.8104	-2.6854	-2.175	-1.8813	-2.8917	-2.05	-2.1667	-2.625	-1.8604	-2.4292	-2.4583	-2.0271	-2.4271	-2.1646	160.233	70.534	207.951	290.819	318.980	211.449	319.138	260.301	280.527	325.179	337.265	128.643	294.406	189.545	223.164	276.294	0.00031264	0.00067683	0.00014213	1509.6	3.9333e-06	6.0143e-06	1494.3	400.48	4.0692e-06	6.9446e-06	452.97	152.02	131.78	46.073	4.1555e-06	56.536	0.0012321	0.0015189	0.0004228	1536.6	1.6009e-05	1.666e-05	1522.6	410.84	1.6391e-05	1.6608e-05	467	156.66	136.69	47.521	1.6528e-05	58.657	126.155	57.341	72.683	-5.370	137.591	152.623	-5.528	-0.886	108.334	97.788	-1.423	2.955	3.790	7.980	95.260	7.460	-8191	255	
3323.716	1	1	0	0	0.1022	0.15496	0.15706	0.32556	0.15014	0.029862	0.20226	0.22413	0.094111	0.0864	0.33422	0.21813	0.066339	0.25232	0.11491	0.28474	-1.8188	-2.5062	-1.6875	-2.6188	-2.3646	-2.0479	-2.6688	-2.2458	-2.1042	-2.5771	-2.0354	-2.3979	-2.5083	-1.9792	-2.5333	-2.2458	282.259	132.526	56.378	324.055	173.615	9.679	280.357	253.076	8.916	69.083	32.409	307.033	196.574	268.482	94.407	227.698	0.00028386	0.00027703	0.00015423	1512.6	2.3277e-06	7.9038e-06	1494.1	401.26	3.4404e-06	3.3474e-06	455.74	151.12	131.81	45.854	8.5847e-06	56.791	0.0012476	0.0015427	0.00042837	1535.4	1.6228e-05	1.6957e-05	1520.7	411.02	1.6322e-05	1.6968e-05	467.66	156.53	136.79	47.509	1.6654e-05	58.674	124.737	107.012	90.363	-5.640	111.438	144.147	-5.738	-1.179	179.581	126.841	-1.528	2.804	3.174	7.970	155.062	7.294	-8191	255	
3323.812	1	1	0	0	0.10487	0.053273	0.14544	0.35728	0.29455	0.32345	0.15951	0.038476	0.25619	0.049495	0.237	0.20408	0.20849	0.16139	0.26609	0.31983	-1.4854	-2.4875	-1.8625	-2.4229	-2.4021	-1.9458	-2.6646	-2.1917	-2.0375	-2.6875	-2.0875	-2.2042	-2.5	-2.1479	-2.3688	-2.35	170.504	312.862	166.458	317.956	102.907	96.271	250.907	241.484	120.062	-1.759	240.609	-0.614	43.572	43.534	117.872	239.254	0.00025706	0.0007138	0.00016589	1512.4	5.472e-06	5.1669e-06	1493.8	403.23	4.6322e-06	5.3076e-06	455.57	151.65	131.85	45.709	2.9309e-06	56.917	0.0012561	0.0015435	0.00043362	1535.6	1.6277e-05	1.712e-05	1522.3	411.37	1.6535e-05	1.7095e-05	467.81	156.83	136.81	47.58	1.6605e-05	58.7	116.092	44.465	70.138	-5.600	152.967	172.262	-5.728	-0.921	102.623	115.150	-1.361	2.790	3.162	7.886	151.355	7.325	-8191	255	
3323.884	1	1	0	0	0.25897	0.12745	0.13991	0.27454	0.25204	0.023607	0.31785	0.1596	0.27191	0.22687	0.10682	0.15972	0.3552	0.065077	0.027605	0.057023	-1.5292	-2.5917	-2.0479	-2.2604	-2.4208	-1.9104	-2.5458	-2.3458	-1.8667	-2.4479	-2.15	-2.3042	-2.5812	-1.9062	-2.4771	-2.4042	259.083	-18.074	317.531	-3.910	100.005	270.282	272.759	279.006	63.896	302.594	-15.605	-5.804	254.502	251.481	66.763	335.646	0.00028808	0.00032998	4.5148e-05	1514.4	4.718e-06	3.8174e-06	1493.1	402.42	5.6705e-06	1.8377e-06	455.47	151.96	132.85	45.814	1.5025e-06	56.889	0.0012694	0.0015593	0.00043328	1536	1.6271e-05	1.7029e-05	1520.7	411.44	1.6653e-05	1.6908e-05	467.9	156.66	137.16	47.497	1.663e-05	58.73	125.196	36.112	25.123	-5.800	177.126	118.432	-5.692	-1.056	169.502	306.984	-1.279	2.830	3.492	8.218	133.987	7.595	-8191	255	
3324.005	1	1	0	0	0.057008	0.25221	0.061206	0.31123	0.10254	0.14936	0.25501	0.26708	0.17547	0.31391	0.062416	0.23194	0.31296	0.25585	0.10438	0.094776	-1.3292	-2.3292	-2.0833	-2.1833	-2.5146	-1.85	-2.5146	-2.5625	-1.9479	-2.5104	-2.1688	-1.8667	-2.5083	-2.0312	-2.3208	-2.5521	28.149	274.127	-2.373	304.662	335.363	209.553	313.343	257.560	255.668	53.260	300.116	330.910	-6.920	100.399	256.450	49.944	0.00025709	0.00074237	7.2307e-05	1517	3.6058e-06	7.3783e-06	1496	400.93	2.3588e-06	2.0368e-06	455.87	152.63	132.45	45.912	5.3803e-06	56.609	0.0012688	0.0015469	0.00042738	1538.2	1.6096e-05	1.7078e-05	1523.9	411.16	1.6483e-05	1.681e-05	467.99	156.89	137.05	47.494	1.6794e-05	58.71	118.715	71.183	94.633	-5.570	175.575	143.393	-5.574	-0.836	168.232	121.653	-1.179	2.853	3.647	8.142	132.052	7.745	-8191	255	
3324.101	1	1	0	0	0.33086	0.31024	0.20997	0.28907	0.2146	0.14631	0.36833	0.28053	0.1352	0.22698	0.073431	0.20057	0.33047	0.58237	0.15143	0.1645	-1.4792	-2.3021	-2.2333	-2.2729	-2.375	-1.9813	-2.475	-2.6479	-1.8417	-2.4938	-2.5062	-2.0021	-2.6625	-2.1437	-2.0896	-2.7292	196.651	24.391	220.310	297.691	76.739	123.464	289.233	293.026	203.015	140.088	140.821	293.389	326.706	322.581	308.837	262.691	0.00030764	0.00052265	0.00015354	1512	5.828e-06	5.7361e-06	1493.8	401.67	1.8889e-06	6.3701e-06	455.97	151.44	132.6	46.039	5.5613e-06	56.556	0.0012767	0.0015397	0.00043604	1535.9	1.6417e-05	1.721e-05	1523	411.35	1.6587e-05	1.6931e-05	467.75	156.66	137.29	47.517	1.7029e-05	58.658	128.613	57.392	68.492	-5.300	145.066	126.834	-5.383	-0.667	107.477	125.651	-1.190	3.018	3.531	8.537	123.164	7.702	-8191	255	
3324.197	1	1	0	0	0.18818	0.21071	0.20063	0.23375	0.35616	0.13686	0.29645	0.22873	0.093432	0.30521	0.16456	0.34922	0.050248	0.27031	0.20483	0.10191	-1.5979	-2.4729	-2.2729	-2.1958	-2.4896	-2.1729	-2.2146	-2.7479	-1.7542	-2.3167	-2.3479	-1.8937	-2.5458	-2.175	-2.05	-2.5604	-9.879	300.643	-17.086	325.108	36.662	191.016	336.457	-2.445	264.658	56.984	273.386	336.121	319.146	296.710	53.755	300.511	0.00022786	0.0004666	3.3952e-05	1510.5	3.6779e-06	5.3657e-06	1493	401.99	3.0199e-06	8.8797e-06	457.79	152.1	132.49	45.9	2.1904e-06	56.807	0.0012872	0.0015686	0.00043825	1535	1.6559e-05	1.7637e-05	1521.5	411.27	1.6761e-05	1.7291e-05	468.54	156.73	137.04	47.543	1.7002e-05	58.744	120.491	80.992	230.594	-5.569	147.935	141.382	-5.423	-0.721	93.832	125.564	-1.446	2.953	3.542	8.418	152.522	7.708	-8191	255	
3324.317	1	1	0	0	0.20445	0.11552	0.069042	0.3037	0.27071	0.099155	0.17012	0.30446	0.11892	0.27955	0.12008	0.1776	0.17452	0.057442	0.096046	0.24989	-1.5125	-2.3979	-2.4437	-2.1833	-2.5646	-2.1271	-2.3146	-2.9646	-1.9333	-2.2625	-2.4062	-1.9875	-2.5646	-2.2875	-1.9417	-2.7333	184.576	-0.653	92.475	309.488	173.568	324.925	324.553	304.624	322.664	184.567	64.946	216.558	-13.228	216.655	287.370	256.972	0.00025292	0.00078574	0.00013317	1512.3	2.7686e-06	1.1887e-05	1496.7	401.72	4.7546e-06	8.4061e-06	452.68	151.14	132.26	45.887	6.6775e-06	56.492	0.0012896	0.0015601	0.00043875	1536.7	1.6645e-05	1.7404e-05	1522.3	412.02	1.685e-05	1.7328e-05	467.07	156.53	136.91	47.5	1.6799e-05	58.629	131.439	40.169	90.378	-5.181	174.867	170.647	-5.685	-0.795	113.799	180.272	-0.977	2.904	3.834	8.215	163.764	7.664	-8191	255	
3324.412	1	1	0	0	0.042477	0.091975	0.062122	0.14864	0.25439	0.13101	0.33267	0.22792	0.094102	0.056955	0.13559	0.23316	0.14105	0.11244	0.12828	0.1081	-1.4229	-2.2979	-2.4792	-2.0917	-2.4979	-2.2354	-2.0896	-2.6875	-2.0229	-2.2562	-2.5333	-2.05	-2.3312	-2.45	-1.9167	-2.7396	64.890	325.810	148.184	334.215	38.527	8.164	-5.944	276.171	215.064	119.092	255.703	242.706	314.422	64.163	48.335	301.722	0.00026144	0.00073315	0.00012233	1511.5	6.8257e-06	4.4122e-06	1494.7	401.31	3.0412e-06	7.2331e-06	456.24	151.25	132.42	46.024	9.0669e-07	56.725	0.0012934	0.0015874	0.00043625	1534.8	1.6353e-05	1.7372e-05	1522.1	411.57	1.6699e-05	1.7188e-05	467.14	156.53	137.07	47.603	1.7056e-05	58.723	126.927	80.475	77.968	-5.405	152.506	141.859	-5.397	-0.765	109.163	122.910	-1.113	3.392	3.666	8.342	4.879	7.757	-8191	255	
3324.508	1	1	0	0	0.26329	0.034014	0.1485	0.55112	0.20141	0.11937	0.20668	0.45841	0.23434	0.11863	0.052691	0.17211	0.1413	0.17819	0.21436	0.083379	-1.7437	-2.1458	-2.5292	-2.1125	-2.2479	-2.3479	-2.1813	-2.6896	-2.0292	-2.0146	-2.6042	-2.0146	-2.4042	-2.4188	-1.8354	-2.5396	64.670	170.588	263.538	285.802	260.514	306.048	229.571	208.327	36.374	335.852	43.660	313.887	330.256	323.016	269.871	-15.852	0.00027631	0.00070968	0.00011653	1511.4	5.691e-06	4.1588e-06	1488.8	404.01	8.1367e-06	5.8848e-06	455.72	150.93	132.43	45.809	3.8568e-06	56.831	0.0012792	0.0015672	0.00043977	1534.9	1.6544e-05	1.716e-05	1520.4	411.91	1.6724e-05	1.6928e-05	467.57	156.39	137.14	47.566	1.6747e-05	58.765	114.322	61.536	46.205	-5.267	149.264	156.596	-5.284	-0.781	128.118	137.811	-1.524	3.014	3.204	8.047	116.070	7.248	-8191	255	
3324.604	1	1	0	0	0.17142	0.15307	0.12911	0.22457	0.21661	0.23244	0.2488	0.2316	0.16091	0.21741	0.053708	0.11958	0.35188	0.20899	0.37497	0.16228	-1.7667	-1.9958	-2.6167	-2.1375	-2.2146	-2.5062	-2.1083	-2.6875	-2.1937	-1.8875	-2.8729	-2.2188	-2.3729	-2.6104	-1.875	-2.45	101.936	51.334	270.112	310.403	132.227	71.495	214.767	319.686	237.271	101.268	168.290	42.734	305.896	284.536	44.920	212.302	0.0002849	0.00079404	0.00010872	1513.9	7.004e-06	7.9868e-06	1491.2	401.94	4.5818e-06	7.2854e-06	455.52	150.94	132.53	45.931	5.0858e-06	56.544	0.0012682	0.0015854	0.00043661	1535.8	1.6545e-05	1.739e-05	1520	411.42	1.6749e-05	1.7174e-05	467.58	156.51	137.1	47.556	1.7095e-05	58.612	122.920	92.251	23.610	-5.340	140.023	104.427	-5.682	-0.734	129.441	134.924	-0.992	3.006	3.434	8.097	148.964	7.824	-8191	255	
3324.700	1	1	0	0	0.12062	0.27583	0.232	0.26385	0.16553	0.09516	0.022053	0.3072	0.27655	0.090255	0.23631	0.18645	0.38999	0.14438	0.26594	0.2075	-2.05	-1.8958	-2.4625	-2.2562	-2.2229	-2.8021	-2.1854	-2.5479	-2.3229	-2.0729	-2.6292	-2.1271	-2.1125	-2.65	-2.0646	-2.4646	91.204	96.491	209.382	309.625	324.159	44.930	325.885	277.019	332.512	125.990	336.669	239.109	-17.150	317.542	156.047	300.797	0.00030289	0.00068023	0.0001988	1514.7	4.9148e-06	9.1605e-06	1494.9	402.82	2.2097e-06	7.505e-06	456.66	151.74	132.07	46.051	6.0463e-06	56.689	0.0012833	0.001581	0.00043601	1536.3	1.642e-05	1.7493e-05	1521.8	411.81	1.6668e-05	1.7201e-05	468.12	156.54	136.97	47.525	1.6845e-05	58.693	123.703	77.096	53.778	-5.037	134.395	110.077	-5.272	-0.685	72.043	156.446	-0.981	3.194	3.746	8.550	127.738	7.641	-8191	255	
3324.796	1	1	0	0	0.093236	0.28056	0.19347	0.23118	0.32185	0.093077	0.15328	0.18858	0.22873	0.18153	0.15866	0.2304	0.095186	0.17108	0.098031	0.070337	-1.9896	-1.9958	-2.5542	-2.4313	-1.825	-2.5958	-2.0375	-2.4667	-2.3021	-1.8542	-2.6479	-2.3229	-2.0604	-2.625	-1.8542	-2.4083	253.408	260.618	56.900	304.632	190.757	142.678	318.800	284.751	139.563	10.460	106.702	313.185	58.045	207.130	17.753	175.408	0.0003046	0.00058632	9.6674e-05	1514.7	6.7189e-06	5.6639e-06	1494	402.7	3.1608e-06	3.939e-06	455.56	150.93	131.98	45.875	5.6068e-06	56.521	0.0012591	0.0015622	0.00043282	1534.8	1.6359e-05	1.7034e-05	1521.6	411.65	1.6409e-05	1.7048e-05	468.11	156.56	136.74	47.518	1.6517e-05	58.614	130.582	61.514	99.099	-5.114	148.636	172.064	-5.271	-0.498	126.811	123.531	-0.795	3.099	3.685	8.229	172.682	7.170	-8191	255	
3324.893	1	1	0	0	0.12941	0.17114	0.10697	0.088422	0.15334	0.12742	0.20005	0.35491	0.28368	0.21483	0.19373	0.20081	0.16818	0.2775	0.22049	0.13416	-2.1229	-1.6979	-2.2875	-2.5833	-1.8854	-2.5812	-2.1979	-2.2146	-2.5042	-2.0792	-2.4042	-2.4604	-2.1375	-2.6396	-2.1188	-2.1958	33.745	63.691	270.780	3.079	2.324	62.116	328.720	339.958	80.038	128.060	251.382	198.086	186.508	22.229	223.963	231.587	0.00027091	0.00052509	7.1722e-05	1515.1	4.8061e-06	5.5179e-06	1495.1	401.86	4.0101e-06	7.0268e-06	456.58	151.3	132.14	45.951	6.65e-06	56.782	0.0012661	0.0015396	0.00042931	1534	1.6319e-05	1.707e-05	1522	411.18	1.6471e-05	1.7064e-05	467.45	156.63	136.87	47.538	1.6737e-05	58.689	120.643	76.642	93.986	-5.220	112.372	99.549	-5.290	-0.671	129.994	148.285	-0.642	3.060	3.319	8.355	122.333	7.151	-8191	255	
3325.013	1	1	0	0	0.064457	0.015222	0.047627	0.23065	0.16469	0.17764	0.079046	0.3525	0.24943	0.23025	0.12133	0.22282	0.12346	0.16152	0.074717	0.17539	-2.1792	-1.8312	-2.35	-2.6229	-2.1604	-2.7021	-2.3771	-2.3104	-2.6292	-2.0479	-2.4396	-2.6562	-2.0938	-2.7062	-2.0354	-2.0396	120.520	312.671	320.290	17.995	82.552	226.753	-5.084	287.875	262.453	156.463	133.405	291.951	118.632	304.798	120.086	205.123	0.0002842	0.00024981	0.00011476	1515.9	7.7081e-06	5.4778e-06	1496.7	402.58	5.6186e-06	3.2452e-06	455.05	151.96	131.59	45.974	6.691e-06	56.53	0.0012628	0.0015453	0.00042872	1536.7	1.6254e-05	1.692e-05	1520.7	411.21	1.6308e-05	1.6752e-05	466.99	156.67	136.89	47.534	1.6583e-05	58.656	136.654	110.432	128.708	-5.354	132.120	196.878	-5.504	-0.886	129.450	144.382	-1.392	3.371	3.503	8.151	130.504	7.430	-8191	255	
3325.109	1	1	0	0	0.20097	0.25164	0.10034	0.11196	0.20403	0.07215	0.13073	0.012285	0.21505	0.20351	0.2075	0.10077	0.13823	0.15764	0.17899	0.19534	-1.9396	-1.8354	-2.1688	-2.7313	-1.8792	-2.6417	-2.5312	-2.1125	-2.5604	-2.0938	-2.2042	-2.5875	-1.8354	-2.3146	-2.3375	-2.0792	223.873	337.965	18.821	315.718	168.238	273.443	192.576	291.038	236.096	74.851	94.094	20.535	26.429	-17.708	273.789	303.441	0.00032134	0.00068124	0.00018748	1515.3	6.9061e-06	6.7083e-06	1496.3	402.85	4.2118e-06	3.6386e-06	456.43	152.09	132.04	45.864	5.7477e-06	56.67	0.0012548	0.0015388	0.00042292	1534.5	1.6469e-05	1.6735e-05	1521.5	411.72	1.6424e-05	1.6623e-05	468.01	156.75	136.81	47.602	1.6393e-05	58.708	123.145	60.121	93.669	-5.231	148.204	114.417	-5.346	-0.758	140.657	59.618	-1.210	3.299	3.655	8.228	92.669	7.454	-8191	255	
3325.181	1	1	0	0	0.23922	0.28369	0.11018	0.12104	0.062898	0.20233	0.1119	0.22023	0.12639	0.096246	0.34135	0.22127	0.14454	0.22883	0.1729	0.066758	-2.125	-1.9479	-2.1437	-2.7917	-2	-2.4958	-2.6104	-2.1188	-2.6354	-2.075	-2.2375	-2.6792	-2.1771	-2.45	-2.4813	-1.9042	95.965	273.936	271.205	3.207	93.341	58.936	312.911	315.135	278.232	214.559	257.686	16.651	138.020	-0.123	42.074	327.865	0.00023356	0.00078918	9.6257e-05	1512.6	5.578e-06	5.2762e-06	1491.3	401.56	4.7938e-06	4.3458e-06	453.87	151.58	132.68	45.875	6.7201e-06	56.674	0.0012662	0.001538	0.00043125	1535.6	1.6395e-05	1.7148e-05	1521	411	1.6713e-05	1.7025e-05	466.81	156.67	137.08	47.548	1.6616e-05	58.684	118.960	76.161	46.200	-5.308	159.269	88.702	-5.439	-0.715	157.331	111.618	-1.435	3.187	3.424	8.090	106.144	7.604	-8191	255	
3325.277	1	1	0	0	0.084305	0.10875	0.068449	0.12347	0.068499	0.37214	0.32528	0.16871	0.12578	0.18447	0.14895	0.37901	0.20826	0.10965	0.21915	0.29995	-2.2104	-2.1625	-2.0062	-2.8542	-1.9813	-2.2896	-2.6333	-2.1312	-2.5333	-2.2396	-2.225	-2.7042	-2.0521	-2.2313	-2.4583	-1.9562	237.261	237.560	193.265	282.817	14.084	302.733	224.035	292.264	-12.405	4.109	296.814	275.650	253.974	40.871	56.389	303.676	0.00028145	0.00052952	6.1695e-05	1513.2	5.3377e-06	5.0466e-06	1491.5	401.82	3.8275e-06	5.8156e-06	455.94	151.45	132.52	45.816	4.0127e-06	56.833	0.0012583	0.0015349	0.00043536	1535.8	1.6267e-05	1.7061e-05	1520	411.05	1.6518e-05	1.7051e-05	468.11	156.83	137.02	47.577	1.656e-05	58.779	127.322	4.600	70.731	-5.291	123.579	94.434	-5.388	-0.766	188.374	156.767	-1.346	3.168	3.764	7.933	149.263	7.438	-8191	255	
3325.396	1	1	0	0	0.16116	0.16623	0.031172	0.32986	0.25432	0.28048	0.44137	0.083074	0.16804	0.30275	0.29019	0.171	0.19377	0.18648	0.056304	0.27307	-2.1354	-2.1792	-1.9021	-2.675	-1.875	-2.2833	-2.8438	-2.2333	-2.35	-2.2188	-1.9396	-2.6875	-2.1146	-2.1896	-2.5375	-1.9667	235.255	170.957	272.350	322.104	18.604	327.516	262.226	337.518	269.946	314.579	248.305	148.506	257.183	-5.719	70.156	-9.499	0.00024834	0.0006778	0.00020724	1510.8	3.2145e-06	4.7395e-06	1495.1	402	1.1735e-06	3.6069e-06	455.21	151.83	132.73	45.977	3.9552e-06	56.942	0.0012702	0.0015466	0.00043275	1534.9	1.6232e-05	1.7255e-05	1521.8	411.3	1.661e-05	1.7026e-05	467.54	156.71	137.11	47.537	1.6446e-05	58.748	121.654	63.509	42.954	-5.392	141.635	178.685	-5.652	-0.644	74.242	105.957	-1.436	3.215	3.665	8.283	129.558	7.465	-8191	255	
3325.492	1	1	0	0	0.15309	0.3555	0.095737	0.3948	0.27184	0.10065	0.38762	0.24158	0.1486	0.08618	0.15856	0.20896	0.21608	0.27703	0.080054	0.086501	-2.0938	-2.3729	-1.8479	-2.6542	-2.1042	-2.1437	-2.7188	-2.1354	-2.3063	-2.425	-2.0333	-2.6167	-2.3125	-2.0917	-2.6813	-2.0854	146.281	107.801	322.420	333.730	279.263	335.317	251.263	243.695	207.549	266.950	299.901	267.042	309.339	245.958	61.514	258.631	0.0003027	0.0005806	0.00019941	1513.4	4.8813e-06	7.9109e-06	1496.4	400.27	2.9083e-06	7.27e-06	457.85	151.17	131.86	45.963	5.8483e-06	56.928	0.0012674	0.0015278	0.00042949	1533.8	1.622e-05	1.7018e-05	1519.1	410.25	1.6335e-05	1.7013e-05	467.85	156.59	136.71	47.506	1.7068e-05	58.703	132.072	65.540	53.451	-5.424	178.469	113.098	-5.427	-0.786	123.704	156.286	-1.243	3.335	3.692	7.974	121.991	7.640	-8191	255	
3325.588	1	1	0	0	0.21606	0.079292	0.1848	0.40285	0.18921	0.43571	0.087391	0.29832	0.078654	0.055016	0.14084	0.14624	0.4002	0.37494	0.11006	0.26057	-1.7812	-2.4958	-1.9813	-2.8396	-2.275	-1.8417	-2.8042	-2.0938	-2.1708	-2.5083	-2.0521	-2.5542	-2.4583	-1.9333	-2.5354	-1.9562	244.583	312.362	337.998	301.960	133.634	332.073	290.442	328.086	-3.323	259.511	23.231	306.359	-14.611	325.111	235.368	272.738	0.00030212	0.00044044	0.00012926	1509.2	5.6e-06	6.0032e-06	1492.8	401.29	1.8732e-06	7.7637e-06	454.44	151.73	132.29	46.028	5.6123e-06	56.85	0.0012572	0.0015523	0.00044165	1534.3	1.6417e-05	1.7134e-05	1520.8	411.12	1.6672e-05	1.7111e-05	466.99	156.62	136.79	47.509	1.6954e-05	58.72	127.598	4.762	89.524	-5.477	141.236	128.599	-5.336	-0.785	119.193	147.448	-1.210	3.108	3.838	8.444	165.024	7.850	-8191	255	
3325.685	1	1	0	0	0.15582	0.15806	0.046943	0.34601	0.055682	0.22775	0.075269	0.29249	0.14961	0.075538	0.26151	0.16326	0.27999	0.12616	0.24682	0.16592	-1.925	-2.4875	-1.7313	-2.7896	-2.3375	-1.925	-2.7646	-2.1437	-2.1625	-2.55	-1.7521	-2.4458	-2.325	-2.1229	-2.7396	-2.1875	326.516	47.485	257.154	-11.820	39.055	139.245	281.557	274.208	305.583	302.913	50.488	268.977	320.759	74.930	165.908	172.072	0.00031988	0.000536	7.1845e-05	1518.2	7.4331e-06	6.9521e-06	1492	401.8	2.5969e-06	6.1277e-06	455.96	151.65	132.66	45.855	4.0248e-06	56.725	0.0012919	0.0015577	0.00043521	1534.5	1.6624e-05	1.749e-05	1519.6	411.17	1.6493e-05	1.7218e-05	467.78	156.44	137.06	47.537	1.7094e-05	58.644	128.814	58.390	75.360	-5.257	182.518	163.182	-5.444	-0.657	116.808	121.907	-1.108	3.087	3.879	8.370	117.852	8.142	-8191	255	
3325.805	1	1	0	0	0.16697	0.052252	0.093055	0.086514	0.17284	0.23792	0.21857	0.16269	0.082169	0.10711	0.22681	0.10248	0.066271	0.12987	0.06727	0.17565	-1.6313	-2.6667	-1.9146	-2.5104	-2.4792	-1.9854	-2.7333	-2.3187	-2.0083	-2.4875	-2.0458	-2.2146	-2.3833	-1.7708	-2.3208	-2.2875	218.354	63.189	147.096	226.005	317.647	273.888	290.034	308.099	89.031	-13.956	276.136	289.835	91.355	108.864	237.093	237.966	0.00025184	0.00087965	0.00014616	1510.6	5.6968e-06	1.2225e-05	1493.3	400.57	2.5163e-06	8.4932e-06	454.97	151.37	131.88	45.955	5.1171e-06	56.561	0.0012696	0.001599	0.00044136	1534	1.6547e-05	1.7225e-05	1518.3	410.58	1.7075e-05	1.7305e-05	467.06	156.46	136.8	47.543	1.7067e-05	58.709	127.150	48.585	94.397	-5.273	131.813	119.272	-5.361	-0.732	103.142	151.485	-1.071	3.115	3.680	8.456	112.530	7.941	-8191	255	
#DATA ENDS
