BOXY.EXE: ISS Imagent and Oximeter Data Acquisition Program Version 0.80
Ascii Record File

#ACQ INFORMATION
2  Detector Channels 
16  External MUX Channels 
1  Auxiliary Channels 
5000  Waveform (CCF) Frequency (Hz)
1  Waveforms Skipped 
30  Waveforms Averaged 
1  Cycles Averaged 
16  Acquisitions per Waveform 
10.0806  Updata Rate (Hz) 

#FILE INFORMATION
TRUE -- External MUX Channel results are PARSED.
FALSE -- AC DC and Phase are NOT grouped.
TRUE -- Companion Program Settings File CREATED.
FALSE -- AC data not excluded
FALSE -- DC data not excluded
FALSE -- Phase data not excluded
FALSE -- Auxillary Chn. data not excluded
Tab delimiters

#CALIBRATION STATE
TRUE -- Waveform Calibration Values APPLIED.


#AUX CALIBRATION VALUES
Val Type	aux-1	

Term	1.0000e+00	
Factor	0.0000e+00	


#WF CALIBRATION VALUES
A = Detector Channel
Val Type	A-AC1	A-AC2	A-AC3	A-AC4	A-AC5	A-AC6	A-AC7	A-AC8	A-AC9	A-AC10	A-AC11	A-AC12	A-AC13	A-AC14	A-AC15	A-AC16	A-DC1	A-DC2	A-DC3	A-DC4	A-DC5	A-DC6	A-DC7	A-DC8	A-DC9	A-DC10	A-DC11	A-DC12	A-DC13	A-DC14	A-DC15	A-DC16	A-Ph1	A-Ph2	A-Ph3	A-Ph4	A-Ph5	A-Ph6	A-Ph7	A-Ph8	A-Ph9	A-Ph10	A-Ph11	A-Ph12	A-Ph13	A-Ph14	A-Ph15	A-Ph16	

Term	0.00000e+00	0.00000e+00	0.00000e+00	0.00000e+00	0.00000e+00	0.00000e+00	0.00000e+00	0.00000e+00	0.00000e+00	0.00000e+00	0.00000e+00	0.00000e+00	0.00000e+00	0.00000e+00	0.00000e+00	0.00000e+00	0.00000e+00	0.00000e+00	0.00000e+00	0.00000e+00	0.00000e+00	0.00000e+00	0.00000e+00	0.00000e+00	0.00000e+00	0.00000e+00	0.00000e+00	0.00000e+00	0.00000e+00	0.00000e+00	0.00000e+00	0.00000e+00	0.00000e+00	0.00000e+00	0.00000e+00	0.00000e+00	0.00000e+00	0.00000e+00	0.00000e+00	0.00000e+00	0.00000e+00	0.00000e+00	0.00000e+00	0.00000e+00	0.00000e+00	0.00000e+00	0.00000e+00	0.00000e+00	
Factor	1.00000e+00	1.00000e+00	1.00000e+00	1.00000e+00	1.00000e+00	1.00000e+00	1.00000e+00	1.00000e+00	1.00000e+00	1.00000e+00	1.00000e+00	1.00000e+00	1.00000e+00	1.00000e+00	1.00000e+00	1.00000e+00	1.00000e+00	1.00000e+00	1.00000e+00	1.00000e+00	1.00000e+00	1.00000e+00	1.00000e+00	1.00000e+00	1.00000e+00	1.00000e+00	1.00000e+00	1.00000e+00	1.00000e+00	1.00000e+00	1.00000e+00	1.00000e+00	X	X	X	X	X	X	X	X	X	X	X	X	X	X	X	X	

B = Detector Channel
Val Type	B-AC1	B-AC2	B-AC3	B-AC4	B-AC5	B-AC6	B-AC7	B-AC8	B-AC9	B-AC10	B-AC11	B-AC12	B-AC13	B-AC14	B-AC15	B-AC16	B-DC1	B-DC2	B-DC3	B-DC4	B-DC5	B-DC6	B-DC7	B-DC8	B-DC9	B-DC10	B-DC11	B-DC12	B-DC13	B-DC14	B-DC15	B-DC16	B-Ph1	B-Ph2	B-Ph3	B-Ph4	B-Ph5	B-Ph6	B-Ph7	B-Ph8	B-Ph9	B-Ph10	B-Ph11	B-Ph12	B-Ph13	B-Ph14	B-Ph15	B-Ph16	

Term	0.00000e+00	0.00000e+00	0.00000e+00	0.00000e+00	0.00000e+00	0.00000e+00	0.00000e+00	0.00000e+00	0.00000e+00	0.00000e+00	0.00000e+00	0.00000e+00	0.00000e+00	0.00000e+00	0.00000e+00	0.00000e+00	0.00000e+00	0.00000e+00	0.00000e+00	0.00000e+00	0.00000e+00	0.00000e+00	0.00000e+00	0.00000e+00	0.00000e+00	0.00000e+00	0.00000e+00	0.00000e+00	0.00000e+00	0.00000e+00	0.00000e+00	0.00000e+00	-1.41723e+02	-1.33427e+02	-1.27657e+02	-1.82643e+02	-7.29312e+01	-5.90420e+01	-1.56437e+02	-1.62015e+02	-7.50620e+01	-6.54826e+01	-1.75898e+02	-1.69904e+02	-1.79084e+02	-1.76332e+02	-7.30813e+01	-1.49000e+02	
Factor	2.19948e-05	1.76772e-04	4.22463e-05	1.51783e-01	1.32281e-06	2.01978e-06	1.85373e-01	5.47419e-02	1.24077e-06	1.63382e-06	9.98567e-02	3.00697e-02	2.75195e-02	9.87689e-03	1.39127e-06	1.39770e-02	7.96078e-06	1.06646e-05	2.96347e-06	7.91364e-02	1.10375e-07	1.18425e-07	9.07823e-02	2.86722e-02	1.12129e-07	1.17383e-07	5.04514e-02	1.53297e-02	1.45971e-02	5.20825e-03	1.14524e-07	7.14204e-03	X	X	X	X	X	X	X	X	X	X	X	X	X	X	X	X	



#DISTANCE SETTINGS
A = Detector Channel
A-1	A-2	A-3	A-4	A-5	A-6	A-7	A-8	A-9	A-10	A-11	A-12	A-13	A-14	A-15	A-16	

2.5000e+00	3.0000e+00	2.5000e+00	3.0000e+00	2.0000e+00	3.0000e+00	1.5000e+00	3.0000e+00	3.0000e+00	3.0000e+00	3.0000e+00	3.0000e+00	3.0000e+00	3.0000e+00	1.5000e+00	3.0000e+00	

B = Detector Channel
B-1	B-2	B-3	B-4	B-5	B-6	B-7	B-8	B-9	B-10	B-11	B-12	B-13	B-14	B-15	B-16	

1.0000e+01	1.0000e+01	1.0000e+01	1.4400e+00	1.0000e+01	1.0000e+01	1.5100e+00	1.9400e+00	1.0000e+01	1.0000e+01	1.9900e+00	2.4900e+00	2.4100e+00	2.9000e+00	1.0000e+01	2.9800e+00	




#DATA BEGINS
time	group	step	mark	flag	A-AC1	A-AC2	A-AC3	A-AC4	A-AC5	A-AC6	A-AC7	A-AC8	A-AC9	A-AC10	A-AC11	A-AC12	A-AC13	A-AC14	A-AC15	A-AC16	A-DC1	A-DC2	A-DC3	A-DC4	A-DC5	A-DC6	A-DC7	A-DC8	A-DC9	A-DC10	A-DC11	A-DC12	A-DC13	A-DC14	A-DC15	A-DC16	A-Ph1	A-Ph2	A-Ph3	A-Ph4	A-Ph5	A-Ph6	A-Ph7	A-Ph8	A-Ph9	A-Ph10	A-Ph11	A-Ph12	A-Ph13	A-Ph14	A-Ph15	A-Ph16	B-AC1	B-AC2	B-AC3	B-AC4	B-AC5	B-AC6	B-AC7	B-AC8	B-AC9	B-AC10	B-AC11	B-AC12	B-AC13	B-AC14	B-AC15	B-AC16	B-DC1	B-DC2	B-DC3	B-DC4	B-DC5	B-DC6	B-DC7	B-DC8	B-DC9	B-DC10	B-DC11	B-DC12	B-DC13	B-DC14	B-DC15	B-DC16	B-Ph1	B-Ph2	B-Ph3	B-Ph4	B-Ph5	B-Ph6	B-Ph7	B-Ph8	B-Ph9	B-Ph10	B-Ph11	B-Ph12	B-Ph13	B-Ph14	B-Ph15	B-Ph16	aux-1	digaux	

4507.493	1	1	0	768	0.10964	0.12008	0.060758	0.23966	0.035228	0.1346	0.28839	0.03342	0.15054	0.12615	0.30961	0.063939	0.27858	0.043648	0.13439	0.20489	-2.55	-2.0667	-3.0646	-2.8625	-2.4417	-2.8333	-2.4771	-2.7438	-2.975	-2.3896	-3.0104	-2.8354	-2.5333	-3.1896	-2.4333	-2.7438	217.722	254.506	55.449	229.052	63.794	21.410	259.098	166.863	192.116	213.185	-7.226	81.596	249.843	-40.312	195.144	275.874	0.0001083	0.00017383	5.1125e-05	1145	1.8555e-06	6.7145e-06	935.32	310.18	4.5489e-06	5.5554e-06	285.71	81.942	79.595	19.082	7.2828e-06	27.418	0.0011703	0.0015144	0.0004243	1105.9	1.6098e-05	1.6712e-05	910.62	300.8	1.6732e-05	1.7371e-05	280.43	81.612	79.576	19.409	1.7972e-05	27.664	76.042	149.999	25.311	-35.702	115.689	47.990	-35.737	-31.999	111.665	158.699	-32.643	-29.842	-28.999	-24.094	50.187	-25.531	-8191	255	
4507.588	1	1	0	0	0.022595	0.11203	0.053525	0.089878	0.075483	0.17146	0.021823	0.27978	0.080935	0.19204	0.21957	0.17341	0.25146	0.15887	0.12567	0.093954	-2.7438	-2.45	-2.8333	-3.0062	-2.4229	-3.1708	-2.8063	-2.5167	-2.9188	-2.4271	-2.9521	-2.8708	-2.3375	-3.1542	-2.7354	-2.4958	170.041	62.969	161.884	309.211	-24.751	250.673	279.701	194.808	-10.704	-36.138	-18.211	197.327	209.105	167.568	-49.174	225.116	0.00019804	0.00062747	0.00010615	1164.3	5.9967e-07	8.884e-06	960.18	323.39	4.0037e-06	1.7023e-06	295.81	87.298	87.151	20.224	9.1037e-06	27.263	0.0013126	0.0017312	0.00047764	1132.4	1.84e-05	1.9828e-05	940.05	315.06	1.9766e-05	2.0896e-05	291.6	87.102	86.727	20.423	2.1875e-05	27.359	153.392	46.620	278.461	-35.796	203.813	153.517	-36.487	-32.107	28.049	6.203	-33.428	-30.223	-29.034	-25.124	68.717	-25.524	-8191	255	
4507.686	1	1	0	0	0.29011	0.013141	0.192	0.29824	0.14609	0.22837	0.20113	0.20734	0.17722	0.064728	0.24251	0.13606	0.1048	0.1331	0.03692	0.075425	-2.6521	-2.4813	-2.8729	-2.9729	-2.5354	-3.1792	-2.9188	-2.5854	-3.1479	-2.5229	-2.8604	-3.15	-2.5167	-3.0125	-2.7687	-2.4417	110.968	181.303	-19.777	-31.726	188.029	0.457	251.248	250.069	68.641	256.589	-15.055	184.498	42.136	201.508	224.416	-15.678	9.9699e-05	0.00090245	5.3147e-05	1205.2	2.5646e-06	1.143e-05	992.77	332.42	1.999e-06	5.1826e-06	300.31	89.678	91	21.412	7.0786e-06	27.156	0.0015465	0.0020304	0.00056793	1170.9	2.2017e-05	2.333e-05	970.89	325.11	2.2819e-05	2.3649e-05	299.24	90.072	90.754	21.698	2.448e-05	27.564	-6.304	-15.748	114.769	-35.897	125.130	90.275	-36.754	-32.724	87.202	106.228	-33.501	-30.287	-28.828	-25.312	256.569	-25.523	-8191	255	
4507.780	1	1	0	0	0.087378	0.021235	0.1251	0.12804	0.095083	0.2666	0.30793	0.30318	0.086511	0.16453	0.18408	0.1644	0.10822	0.066001	0.16603	0.11625	-2.6542	-2.4792	-2.5312	-3.1417	-2.3292	-3.1021	-2.925	-2.5938	-3.1	-2.7062	-2.7583	-2.975	-2.4021	-2.8646	-2.825	-2.3896	190.854	28.564	148.354	-38.981	171.646	39.652	279.328	294.135	57.750	100.365	148.680	32.034	127.967	25.662	128.794	25.368	8.306e-05	0.00051797	0.0004467	1227	3.4304e-06	1.525e-05	1007.7	342.61	3.6309e-06	5.3952e-06	308.31	94.2	95.556	23.362	1.1418e-05	27.572	0.0017591	0.0023546	0.00065125	1192.4	2.4233e-05	2.6817e-05	990.82	335.97	2.59e-05	2.6868e-05	308.64	94.621	95.593	23.801	2.7394e-05	28.337	156.935	-28.505	68.245	-35.590	214.327	166.865	-36.243	-32.242	135.030	67.564	-33.744	-30.349	-29.290	-26.254	84.183	-27.007	-8191	255	
4507.876	1	1	0	0	0.048621	0.24927	0.21146	0.15283	0.15144	0.22052	0.19139	0.10031	0.087304	0.16847	0.19283	0.18366	0.20123	0.1249	0.19904	0.052622	-2.625	-2.6312	-2.6167	-3.1771	-2.3312	-2.8542	-3.1604	-2.6063	-3	-2.65	-2.5083	-3.0542	-2.5083	-2.8792	-2.8208	-2.3688	3.117	-6.009	162.203	300.790	257.699	272.565	211.490	-32.763	136.939	132.786	97.422	12.610	34.326	300.115	-2.698	274.025	3.53e-05	0.0010843	0.00033124	1237.3	2.988e-06	4.9667e-06	1018.7	347.73	2.4145e-06	8.2729e-06	313.36	96.934	98.278	25.29	4.9835e-06	28.458	0.0019454	0.0025235	0.00070021	1208.1	2.6257e-05	2.773e-05	1000.7	340.83	2.7125e-05	2.891e-05	313.41	97.361	99.023	25.565	2.8263e-05	29.272	-6.290	18.272	17.328	-35.560	137.053	58.244	-36.100	-32.283	139.606	106.273	-33.384	-30.211	-29.243	-27.037	103.509	-26.820	-8191	255	
4507.972	1	1	0	0	0.17258	0.30412	0.28334	0.18005	0.19827	0.18136	0.32894	0.26954	0.22543	0.13448	0.18462	0.26568	0.3979	0.25067	0.21854	0.12643	-2.6021	-2.6021	-2.5458	-3.1854	-2.3937	-2.7396	-2.9854	-2.6104	-2.9667	-2.6958	-2.55	-2.9833	-2.525	-2.6146	-3.075	-2.3354	230.286	-34.254	68.306	-10.135	241.414	137.106	292.796	195.870	83.638	247.831	51.855	-44.997	265.265	132.720	-43.089	307.947	6.0719e-05	0.00088278	0.00031609	1252.3	5.0166e-06	4.0129e-06	1027.8	358.53	1.6962e-06	8.8932e-06	318.98	101.46	104.82	29.29	8.3583e-06	31.31	0.0020295	0.0027116	0.00076149	1216.8	2.78e-05	3.0561e-05	1011.7	351.15	2.9569e-05	3.1731e-05	321.24	102.48	105.34	29.609	3.2399e-05	32.093	96.327	27.977	33.573	-35.730	284.644	85.345	-36.456	-32.453	141.712	52.390	-33.854	-30.737	-29.537	-28.700	179.924	-27.498	-8191	255	
4508.093	1	1	0	0	0.037938	0.18178	0.13937	0.28307	0.16144	0.1866	0.15087	0.057878	0.11686	0.25167	0.20172	0.11754	0.16307	0.15562	0.16183	0.23593	-2.5521	-2.6833	-2.3771	-3.1104	-2.3312	-2.5896	-3.1354	-2.525	-2.7313	-2.7708	-2.4896	-3.2021	-2.5729	-2.6854	-3.0938	-2.4458	90.313	273.398	126.517	220.902	286.867	98.428	238.020	120.775	266.999	8.600	261.625	-21.512	204.176	196.124	182.064	230.600	0.00015064	0.0010749	0.00015665	1280.3	8.5607e-06	1.5043e-05	1058.2	377.72	7.3476e-06	4.3447e-06	336.15	111.71	116.73	36.559	5.1862e-06	35.944	0.0023585	0.0031337	0.00088453	1252.8	3.3837e-05	3.6755e-05	1047.6	371.51	3.5533e-05	3.7713e-05	341.05	113.57	117.73	37.007	3.5796e-05	36.793	160.839	-15.537	295.525	-35.970	152.743	147.841	-36.623	-32.658	300.185	120.836	-33.807	-31.326	-29.888	-29.786	185.354	-28.451	-8191	255	
4508.189	1	1	0	0	0.11933	0.1355	0.10127	0.25244	0.10712	0.10362	0.26363	0.084872	0.036429	0.20798	0.25613	0.30938	0.064255	0.18828	0.09576	0.12992	-2.5	-2.7917	-2.3354	-3.4792	-2.5875	-2.6312	-3.3083	-2.6771	-3.05	-2.7458	-2.5125	-3.1937	-2.6896	-2.7146	-3.1021	-2.5458	11.051	135.099	-38.994	293.361	72.433	59.344	233.431	183.942	281.433	27.901	250.553	241.032	141.919	47.406	82.925	300.229	0.00010155	0.00018425	0.0001931	1295.3	7.8297e-06	2.7851e-06	1082.7	369.86	2.5556e-06	6.7953e-06	331.82	111.2	113.99	35.29	8.5379e-06	35.431	0.0025201	0.0033267	0.00090073	1264.7	3.3521e-05	3.6246e-05	1066.8	364.8	3.4414e-05	3.5804e-05	332.77	112.06	114.05	35.574	3.3786e-05	36.876	99.385	22.760	268.655	-35.935	290.724	-3.298	-35.974	-32.544	307.652	106.722	-33.488	-31.186	-29.773	-29.442	77.204	-28.873	-8191	255	
4508.285	1	1	0	0	0.13334	0.24188	0.14972	0.13478	0.084318	0.075561	0.3245	0.14426	0.1948	0.27165	0.070824	0.061465	0.26703	0.30108	0.20969	0.11902	-2.3937	-2.8354	-2.5792	-3.0979	-2.6021	-2.5167	-3.1146	-2.6292	-2.6104	-3.0833	-2.4229	-3.0229	-2.9917	-2.6979	-3.2938	-2.5104	288.058	43.592	-3.583	-25.046	272.618	31.000	285.544	225.030	63.987	232.389	9.277	212.916	-21.781	216.303	245.450	224.863	0.00021008	0.001386	0.000268	1284.3	1.3768e-05	2.573e-06	1065.2	364.56	8.845e-06	1.9181e-06	324.8	109.55	109.84	32.414	3.2553e-06	34.014	0.002376	0.003136	0.00086905	1253.5	3.3341e-05	3.5305e-05	1053.7	357.05	3.355e-05	3.4351e-05	327.6	110.01	110.49	32.703	3.3023e-05	34.846	134.282	307.641	51.809	-36.260	117.916	84.041	-36.489	-32.415	133.330	264.406	-33.444	-30.462	-29.094	-29.742	104.103	-28.156	-8191	255	
4508.381	1	1	0	0	0.12518	0.042303	0.13035	0.041733	0.047017	0.12233	0.25537	0.28172	0.15729	0.19917	0.24251	0.079944	0.2573	0.23933	0.082915	0.038861	-2.2938	-3.0625	-2.2875	-3.0062	-2.95	-2.4813	-3.0604	-2.7583	-2.6771	-3.0479	-2.2604	-2.8438	-2.8958	-2.6542	-3.1063	-2.4562	251.495	238.152	103.408	261.273	99.240	1.873	251.440	246.188	-44.256	35.343	261.945	247.871	226.957	305.616	205.389	273.769	5.7697e-05	0.00082749	0.00038083	1268.1	7.6959e-06	1.3469e-05	1050.8	353.85	3.1165e-06	4.1769e-06	317.33	105.46	103.93	27.042	1.0987e-05	30.93	0.0022875	0.0029816	0.0008197	1234.8	3.0609e-05	3.1879e-05	1036.8	346.55	2.9599e-05	3.03e-05	319.62	105.51	104.04	27.398	2.7938e-05	31.51	153.700	-17.251	53.782	-35.864	49.621	130.931	-36.549	-32.466	99.661	113.525	-33.589	-30.860	-29.301	-28.102	103.702	-27.297	-8191	255	
4508.478	1	1	0	0	0.14409	0.21471	0.10714	0.43129	0.087864	0.1017	0.17373	0.28696	0.13716	0.069558	0.12679	0.27076	0.27073	0.23067	0.26218	0.25884	-2.2479	-3.0479	-2.3	-2.925	-2.9625	-2.3146	-3.0979	-2.6833	-2.6083	-3.1792	-2.4396	-2.6104	-2.9542	-2.5938	-2.9833	-2.7333	133.157	252.860	195.191	273.432	201.053	300.754	283.602	-25.309	306.539	12.300	127.811	-17.275	-33.653	102.417	190.020	-33.538	0.0002738	0.0015233	2.837e-05	1263.8	1.2171e-05	1.5981e-05	1060.3	347.04	3.5458e-06	6.8967e-06	320	100.25	98.655	22.986	1.9334e-06	28.611	0.0019491	0.0025138	0.00069225	1229.4	2.5401e-05	2.6856e-05	1035.4	339.44	2.5477e-05	2.6026e-05	315.76	100.35	97.858	23.292	2.5243e-05	29.353	107.203	-19.454	-1.814	-35.710	173.505	85.829	-36.287	-32.462	156.361	152.245	-33.148	-30.207	-29.036	-26.378	117.922	-26.646	-8191	255	
4508.574	1	1	0	0	0.1783	0.12749	0.063634	0.37183	0.11576	0.29196	0.061171	0.15056	0.015016	0.1606	0.016892	0.21104	0.24817	0.17775	0.092374	0.11057	-1.9667	-3.1521	-2.3708	-2.8604	-2.9062	-2.5625	-2.9979	-2.8792	-2.2812	-3.1042	-2.5604	-2.6271	-3.0625	-2.4167	-2.8604	-2.9562	29.585	222.664	176.414	299.478	186.247	305.067	241.673	-36.922	287.461	-33.156	159.405	302.990	-0.670	200.658	156.281	246.746	2.1589e-05	0.0010337	8.2129e-05	1256.3	1.242e-06	2.0698e-07	1048.9	339.37	1.3289e-05	5.973e-06	309.54	95.706	93.378	20.962	7.9539e-06	27.522	0.0017872	0.002305	0.00063797	1220.5	2.3762e-05	2.5105e-05	1027.6	332.76	2.4405e-05	2.4897e-05	308.51	96.301	93.317	21.115	2.3559e-05	28.187	184.527	24.583	86.148	-35.679	309.265	15.279	-36.447	-32.415	137.190	265.434	-33.784	-30.210	-28.628	-26.019	64.323	-25.118	-8191	255	
4508.670	1	1	0	0	0.18083	0.15775	0.088185	0.13076	0.12955	0.24924	0.10958	0.13888	0.14697	0.15164	0.21762	0.14522	0.11903	0.12548	0.10119	0.31497	-2.0417	-3.1792	-2.5958	-2.7875	-3.025	-2.3958	-2.9021	-3.0208	-2.4292	-3.1208	-2.7083	-2.5375	-3.1333	-2.4104	-2.7208	-2.9437	272.990	119.430	108.514	35.848	14.385	303.851	273.191	215.253	130.347	130.203	182.427	-27.557	269.271	185.815	305.696	69.433	0.00014503	0.0010068	0.00032234	1250.3	2.9862e-06	7.4298e-06	1040.8	336.07	7.493e-06	4.0089e-06	311.07	94.836	91.31	20.194	6.3897e-06	27.279	0.0016522	0.0021809	0.00060964	1215	2.2177e-05	2.3332e-05	1017.8	329.03	2.239e-05	2.2724e-05	306.38	94.653	91.351	20.456	2.2444e-05	27.801	112.377	72.952	60.831	-35.871	248.498	158.639	-36.751	-32.353	86.022	301.056	-33.285	-30.302	-28.815	-25.444	-27.981	-25.703	-8191	255	
4508.789	1	1	0	0	0.096479	0.3353	0.22352	0.29201	0.036126	0.22975	0.17094	0.13371	0.19759	0.070147	0.15191	0.19699	0.20882	0.27122	0.21155	0.23417	-2.0208	-3.1437	-2.7167	-2.7396	-3.1125	-2.6125	-2.9146	-3.0875	-2.3875	-3.0042	-2.8146	-2.4688	-3.0854	-2.4917	-2.7021	-3.0812	273.283	152.540	183.917	306.570	245.318	131.803	243.201	276.126	207.904	288.127	-32.966	99.910	-15.276	-39.178	226.513	80.790	0.0001297	0.0010594	0.00016508	1258.4	6.6674e-07	8.9056e-06	1039.4	334.93	2.5588e-06	8.8732e-06	307.04	93.214	91.28	19.952	7.5661e-06	27.125	0.001592	0.0020436	0.00056979	1214.2	2.1538e-05	2.2783e-05	1016.9	327.51	2.1497e-05	2.2459e-05	304.89	93.189	90.932	20.163	2.2055e-05	27.608	132.792	119.759	68.347	-35.920	-36.840	90.242	-36.646	-32.405	239.077	172.913	-33.515	-30.226	-28.821	-25.216	60.241	-24.992	-8191	255	
4508.885	1	1	0	0	0.25077	0.042938	0.070834	0.26114	0.059275	0.16521	0.2798	0.30907	0.3115	0.10673	0.035321	0.29755	0.13389	0.072259	0.20195	0.16308	-1.8354	-2.8771	-2.8396	-2.6667	-3.0396	-2.55	-2.6979	-3.1688	-2.5146	-2.9792	-2.9938	-2.6104	-3.2042	-2.5354	-2.55	-3.0563	-15.241	86.185	-1.542	-35.676	113.511	-43.223	276.899	251.237	19.442	28.186	256.750	279.837	284.436	227.433	171.002	295.301	0.00012826	0.0014361	0.00012041	1254.7	4.8919e-06	8.5436e-06	1035.1	332.19	3.6511e-06	3.6054e-06	303.16	92.29	90.922	19.644	5.0688e-06	26.976	0.0015699	0.0020909	0.00057809	1211.7	2.1954e-05	2.2958e-05	1013.2	325.55	2.2067e-05	2.3023e-05	302.32	93.106	90.287	20.086	2.2404e-05	27.429	106.142	-15.894	111.627	-35.813	51.743	124.292	-36.532	-32.448	15.755	28.357	-33.504	-29.941	-28.542	-24.855	79.324	-25.239	-8191	255	
4508.981	1	1	0	0	0.083153	0.15658	0.10324	0.14669	0.062919	0.2765	0.081549	0.083237	0.023523	0.078712	0.053959	0.49824	0.23487	0.30404	0.33258	0.094228	-1.9708	-2.6125	-3.0271	-2.5958	-3.0458	-2.7229	-2.9104	-3.1104	-2.4667	-2.9083	-2.9917	-2.4083	-3.1042	-2.7438	-2.6375	-3.1833	270.062	114.810	-27.810	229.442	229.310	60.137	-1.390	248.642	191.063	114.027	65.089	-43.023	296.895	16.817	125.086	41.367	9.9609e-05	0.00098907	0.00022345	1242.3	6.8518e-06	1.1446e-05	1038.6	331.84	3.0226e-06	5.3071e-06	301.82	92.603	89.548	19.568	5.4998e-06	26.87	0.0015659	0.0020436	0.00057431	1207.8	2.1585e-05	2.3297e-05	1014.4	325.18	2.1665e-05	2.2906e-05	301.89	92.432	89.314	19.813	2.1984e-05	27.435	144.346	42.693	-22.520	-36.066	164.748	78.344	-36.428	-32.476	53.887	46.464	-33.007	-29.833	-28.843	-25.053	138.971	-24.777	-8191	255	
4509.053	1	1	0	0	0.18387	0.30777	0.093014	0.16915	0.32327	0.066314	0.27157	0.066798	0.11597	0.085919	0.30643	0.12106	0.16476	0.1001	0.074011	0.20495	-2.225	-2.6729	-2.8312	-2.4792	-3.0479	-2.8458	-2.7917	-3.0125	-2.6042	-2.6458	-3.0354	-2.35	-3.0563	-2.9375	-2.5354	-3.1958	156.078	280.606	157.686	-13.235	213.299	216.575	211.668	294.954	-17.964	235.445	307.656	246.343	239.848	37.661	280.348	190.524	0.00012117	0.00063928	0.00015077	1251	5.2065e-06	1.2355e-05	1042.6	332.7	7.1755e-06	4.8057e-06	303.34	91.979	89.059	19.538	2.1284e-06	26.94	0.0015741	0.0020788	0.00057259	1210.4	2.1113e-05	2.277e-05	1016.3	324.99	2.1205e-05	2.2448e-05	302.41	92.196	89.285	19.853	2.1669e-05	27.461	100.666	210.537	0.313	-35.941	-49.809	76.710	-36.445	-32.438	15.949	107.680	-33.325	-30.040	-28.586	-25.435	116.196	-24.859	-8191	255	
4509.173	1	1	0	0	0.29131	0.19615	0.22333	0.24963	0.041543	0.13655	0.33461	0.028357	0.10055	0.17164	0.080755	0.071372	0.18159	0.44184	0.15487	0.095974	-2.3271	-2.4896	-3.0687	-2.6146	-2.8479	-2.825	-2.5729	-3.1479	-2.5875	-2.6104	-3.1917	-2.4333	-2.8563	-2.9583	-2.4854	-3.1479	240.806	192.794	20.962	299.520	23.644	165.156	164.486	259.549	118.312	282.207	299.362	-11.900	155.796	235.476	228.322	256.134	0.00020755	0.00094744	0.00031537	1251.2	4.1071e-06	4.694e-06	1041.8	331.88	1.7492e-06	9.6501e-06	305.11	92.219	89.765	19.526	9.8138e-06	26.609	0.0015972	0.0020722	0.00057373	1213.4	2.1437e-05	2.3394e-05	1015.7	324.64	2.2137e-05	2.2777e-05	301.5	92.53	89.412	19.908	2.2745e-05	27.234	123.598	34.547	63.049	-35.741	-27.825	107.012	-36.755	-32.394	248.181	172.129	-33.165	-30.091	-29.106	-24.604	128.794	-25.055	-8191	255	
4509.269	1	1	0	0	0.18545	0.18392	0.22149	0.36162	0.30042	0.033207	0.37505	0.021729	0.19781	0.025603	0.20351	0.06271	0.1834	0.29111	0.24996	0.046343	-2.0396	-2.5438	-3.1854	-2.7771	-2.8417	-2.9979	-2.5292	-3.1375	-2.6854	-2.4896	-3.0812	-2.7667	-2.6562	-2.9708	-2.3354	-3.1208	-41.561	-45.137	127.149	281.862	80.249	60.412	232.588	37.139	14.033	271.200	265.228	237.819	212.169	287.060	58.265	225.533	4.8365e-05	0.0008746	0.0002781	1243.6	4.0574e-06	9.9982e-06	1040.9	331.22	4.6953e-06	8.0205e-06	303.51	91.373	89.926	19.593	6.4214e-06	26.531	0.0015861	0.0020924	0.00059118	1208.7	2.215e-05	2.364e-05	1014.5	323.04	2.2592e-05	2.3672e-05	301.07	91.953	89.592	19.871	2.2856e-05	27.032	91.211	75.175	-1.612	-36.055	65.361	27.453	-36.560	-32.202	123.818	117.635	-33.742	-30.721	-29.041	-24.267	83.417	-25.863	-8191	255	
4509.366	1	1	0	0	0.11783	0.16965	0.15038	0.34955	0.0874	0.1025	0.18052	0.17353	0.13019	0.13816	0.12987	0.17018	0.25647	0.28691	0.15622	0.233	-2.2958	-2.4375	-3.05	-2.675	-2.8542	-3.0062	-2.6688	-3.2104	-2.8104	-2.3396	-3.1917	-2.7042	-2.5438	-3.0167	-2.2854	-2.8646	96.997	48.224	-35.050	192.794	278.424	-29.741	240.169	196.616	139.201	284.357	-17.588	306.638	-10.527	124.400	299.356	234.118	3.5504e-05	0.00044751	0.00019435	1244.7	8.0031e-06	1.0012e-05	1036.4	330.91	4.5828e-06	1.1346e-05	302.05	92.038	89.532	19.635	2.9746e-06	26.719	0.0016308	0.0021293	0.00059058	1209.2	2.2523e-05	2.3233e-05	1014.8	323.37	2.279e-05	2.3448e-05	300.82	92.01	89.975	19.994	2.2781e-05	27.127	122.935	17.449	5.251	-35.723	139.393	88.551	-36.621	-32.362	108.095	35.663	-33.332	-29.749	-28.644	-25.169	213.662	-25.346	-8191	255	
4509.486	1	1	0	0	0.21549	0.12914	0.088155	0.19027	0.20412	0.19326	0.24039	0.15607	0.14106	0.20826	0.31924	0.19862	0.14066	0.17182	0.17492	0.252	-2.4042	-2.5021	-3.1188	-2.7687	-2.5292	-3.1104	-2.5229	-2.9771	-2.9042	-2.2208	-3.025	-2.7938	-2.5292	-2.9833	-2.4562	-2.7562	8.262	234.898	121.334	303.620	5.581	8.711	-8.684	224.637	265.793	295.139	284.822	-12.075	274.926	124.514	296.189	80.709	0.00020135	0.00087441	0.00021662	1253	3.2173e-06	1.437e-06	1038.8	332.37	7.1876e-07	6.4654e-06	305.02	92.759	90.704	19.577	3.333e-06	26.696	0.0016048	0.002161	0.00059671	1214.7	2.2344e-05	2.3562e-05	1019.5	325.11	2.2659e-05	2.3384e-05	303.04	92.772	90.17	19.998	2.2682e-05	27.226	169.673	-32.718	5.034	-35.831	104.805	15.514	-36.566	-32.112	77.965	191.412	-33.363	-29.579	-28.838	-25.560	1.338	-25.687	-8191	255	
4509.581	1	1	0	0	0.27727	0.11496	0.13542	0.048446	0.19608	0.16897	0.37697	0.25858	0.14463	0.085842	0.038369	0.23472	0.23025	0.20464	0.21595	0.076015	-2.6583	-2.4542	-2.9729	-2.9167	-2.3646	-3.1813	-2.6375	-2.8854	-3.1667	-2.3083	-3.2417	-2.7438	-2.5604	-3.1063	-2.6208	-2.8208	160.365	183.753	156.135	137.783	247.289	3.704	291.465	304.497	58.780	45.257	37.470	208.073	202.164	60.752	164.882	-17.610	7.0619e-05	0.00087011	0.00013247	1252.4	5.2174e-06	5.145e-06	1044.3	331.62	6.4275e-06	3.2492e-06	304.96	92.258	89.159	19.477	8.532e-06	26.499	0.0016127	0.0021463	0.00058915	1213.9	2.228e-05	2.3245e-05	1019.6	324.73	2.1825e-05	2.2604e-05	301.79	92.01	89.111	19.878	2.2601e-05	27.189	143.782	-16.049	-46.151	-36.013	190.001	110.747	-36.452	-32.528	121.809	33.870	-33.171	-29.850	-28.913	-24.814	29.444	-25.446	-8191	255	
4509.654	1	1	0	0	0.046614	0.089862	0.091982	0.21171	0.057916	0.046518	0.19258	0.19436	0.14952	0.1723	0.20057	0.21695	0.27803	0.095859	0.15831	0.21899	-2.5729	-2.3042	-2.925	-3.0333	-2.3979	-3.1229	-2.8063	-2.7458	-3.1146	-2.375	-3	-2.9542	-2.3625	-3.1625	-2.7167	-2.5979	108.620	25.340	-49.729	290.493	26.463	137.738	192.477	216.069	306.870	-33.760	216.180	-44.402	263.821	93.249	46.577	288.195	5.9765e-05	0.00067263	0.00028536	1249.1	2.9476e-06	1.0109e-05	1033.5	332.15	4.4848e-06	4.1852e-06	302.81	92.179	90.061	19.774	8.0994e-06	26.647	0.0016512	0.002133	0.00059987	1211.9	2.245e-05	2.3321e-05	1013.9	323.9	2.2569e-05	2.3418e-05	300.59	92.328	89.639	20.03	2.3413e-05	27.019	43.328	47.432	70.261	-35.686	154.214	38.000	-36.453	-32.176	33.151	179.819	-33.026	-29.831	-28.722	-25.318	6.203	-25.296	-8191	255	
4509.773	1	1	0	0	0.10033	0.29096	0.16261	0.2176	0.11745	0.15199	0.30642	0.050791	0.15888	0.13449	0.3556	0.12973	0.12041	0.062366	0.20637	0.079364	-2.65	-2.4854	-2.8479	-3.0312	-2.3979	-3.0667	-2.7833	-2.5729	-2.8229	-2.3417	-2.8208	-2.9125	-2.4146	-3.1417	-2.5563	-2.6146	154.548	235.225	-24.283	260.225	279.100	193.771	268.426	183.089	141.417	-16.913	266.342	40.801	-47.789	-29.067	111.509	227.317	0.00015254	0.00073478	0.00017337	1242.3	2.2409e-06	8.4999e-06	1033	330.57	2.7456e-06	1.6341e-06	299.38	90.971	89.212	19.664	5.9009e-06	26.388	0.0016574	0.0021374	0.00060512	1210.2	2.2501e-05	2.3853e-05	1013.8	323.21	2.3309e-05	2.3822e-05	299.41	91.633	89.079	19.948	2.3063e-05	26.832	80.418	32.807	-7.386	-35.991	84.162	37.350	-36.635	-32.327	25.657	268.151	-33.336	-30.101	-28.854	-25.088	145.901	-25.275	-8191	255	
4509.869	1	1	0	0	0.17986	0.23728	0.30961	0.19129	0.035505	0.20153	0.2419	0.20437	0.26235	0.027161	0.10007	0.29047	0.044742	0.16765	0.10084	0.055588	-2.7792	-2.3583	-2.8417	-3.225	-2.4042	-3.0708	-2.8333	-2.6479	-3.0292	-2.4042	-2.7604	-3.0687	-2.3729	-2.8167	-2.8146	-2.2562	-8.967	293.506	232.292	-1.226	208.225	41.036	228.906	278.394	13.856	120.509	267.265	201.102	-44.194	205.904	-49.582	283.822	0.00013094	0.00084909	0.00023577	1243.1	3.7684e-06	1.4608e-05	1033.4	331.79	2.382e-06	8.6552e-06	301.53	91.535	88.596	19.54	4.2722e-06	26.528	0.0016422	0.0020972	0.00059861	1208.6	2.2045e-05	2.3675e-05	1011.3	324.15	2.2564e-05	2.3842e-05	300.17	91.965	89.015	19.864	2.3063e-05	27.041	133.200	59.686	103.250	-36.087	87.727	163.288	-36.380	-32.670	61.960	63.564	-33.667	-29.643	-29.035	-25.220	3.991	-26.015	-8191	255	
4509.965	1	1	0	0	0.038535	0.3367	0.14708	0.28413	0.26442	0.067123	0.22789	0.10029	0.070937	0.073297	0.24118	0.13532	0.062703	0.071997	0.20526	0.09156	-2.675	-2.4396	-2.7396	-3.1646	-2.4917	-2.7188	-3.0625	-2.5854	-3.1833	-2.6521	-2.7313	-3.2667	-2.4313	-2.7896	-3	-2.5438	21.267	218.123	83.443	256.517	256.708	249.902	196.440	-34.584	-25.154	208.291	-47.158	111.931	13.503	44.455	217.790	291.094	5.8017e-05	0.00052468	0.00022713	1251.4	8.7322e-06	1.7514e-06	1038.4	331.08	1.6096e-06	4.7754e-06	300.47	91.966	89.843	19.446	3.8955e-06	26.775	0.0016517	0.0021133	0.00059763	1212.4	2.2234e-05	2.4313e-05	1017	323.25	2.3038e-05	2.3567e-05	300.69	92.29	89.64	19.823	2.2573e-05	27.257	276.380	92.182	25.212	-35.835	55.265	82.385	-36.334	-32.268	69.146	-22.717	-33.267	-29.754	-29.233	-25.041	176.251	-25.945	-8191	255	
4510.086	1	1	0	0	0.15239	0.12465	0.23574	0.027112	0.13977	0.097646	0.033925	0.074073	0.046512	0.14522	0.2511	0.17714	0.035708	0.14024	0.23634	0.13392	-2.825	-2.8479	-2.5646	-3.2042	-2.5854	-2.8229	-3.0479	-2.3875	-3.1479	-2.8042	-2.6271	-3.3271	-2.4437	-2.7333	-3.0833	-2.4854	309.571	295.650	289.589	139.370	55.816	22.554	156.339	172.870	20.154	163.086	-34.386	196.775	28.975	107.863	72.342	255.840	9.5847e-05	0.00060025	0.00019419	1248.4	8.1601e-06	6.1265e-06	1030.8	331.23	9.5412e-06	5.3863e-06	301.32	91.945	89.833	19.495	5.2224e-06	26.649	0.0016422	0.0021104	0.00059125	1212	2.2367e-05	2.3525e-05	1013.4	324.02	2.2765e-05	2.3561e-05	300.31	92.11	89.578	19.886	2.3211e-05	27.136	152.329	307.128	-47.231	-36.161	118.745	46.142	-36.518	-32.418	208.900	137.357	-33.949	-29.914	-29.147	-25.165	82.952	-25.287	-8191	255	
4510.182	1	1	0	0	0.32463	0.28897	0.046356	0.17037	0.15813	0.21186	0.031208	0.21169	0.072568	0.19859	0.17155	0.18868	0.20407	0.17673	0.18091	0.18061	-2.5146	-2.7687	-2.5104	-3.1646	-2.55	-2.6562	-2.9896	-2.4958	-2.9667	-2.8854	-2.4542	-3.0229	-2.725	-2.6292	-2.9	-2.3438	210.794	122.317	259.102	226.151	220.933	126.337	263.537	-13.053	35.001	67.158	37.782	175.474	55.666	257.569	28.963	157.731	0.00012006	0.0008191	0.00025709	1242.4	5.3308e-06	7.3282e-06	1027	332.1	3.2796e-06	4.0224e-06	302.61	91.379	89.055	19.651	1.2323e-05	26.217	0.0016339	0.0021572	0.0006026	1204.3	2.2962e-05	2.4046e-05	1010.5	323.63	2.3383e-05	2.4081e-05	299.96	91.915	89.633	19.927	2.3387e-05	26.905	120.216	298.824	26.371	-35.709	2.852	113.534	-36.616	-32.267	28.556	181.789	-33.500	-30.780	-28.436	-25.082	67.161	-25.285	-8191	255	
4510.278	1	1	0	0	0.1352	0.11023	0.12446	0.16425	0.17977	0.20175	0.19507	0.31571	0.36765	0.028768	0.15848	0.078672	0.12873	0.23209	0.16846	0.29823	-2.5312	-2.7188	-2.3312	-3.0521	-2.5833	-2.3896	-3.1875	-2.3229	-2.8646	-3.0583	-2.4542	-2.9437	-2.7208	-2.5438	-3.2083	-2.4313	153.877	206.509	30.684	-48.737	284.010	30.130	-41.292	270.365	270.994	16.552	-21.349	38.207	29.365	30.668	87.212	217.296	6.9329e-05	0.00090424	0.00015871	1243.6	4.0239e-06	7.1665e-06	1040	327.8	1.0204e-05	1.3049e-06	300.6	90.251	89.62	19.111	4.1302e-06	26.03	0.001681	0.0021772	0.0006153	1207.3	2.2706e-05	2.4049e-05	1010.6	321.56	2.2898e-05	2.4272e-05	297.7	90.608	89.066	19.532	2.2439e-05	26.652	213.828	29.839	80.766	-35.710	96.960	112.891	-36.442	-32.180	129.629	41.604	-33.143	-30.098	-29.234	-24.722	124.325	-24.496	-8191	255	
4510.350	1	1	0	0	0.25998	0.13331	0.045644	0.15555	0.079966	0.23079	0.11047	0.11885	0.1702	0.12513	0.21553	0.15707	0.21125	0.18836	0.32965	0.12023	-2.2521	-3.0625	-2.3875	-3.0583	-2.8042	-2.5938	-3.1479	-2.6771	-2.7354	-2.7729	-2.4	-2.8542	-2.6771	-2.5021	-3.2021	-2.4417	-34.115	87.527	163.591	267.353	-23.499	22.349	-11.257	211.337	291.931	3.924	252.516	264.741	305.640	309.421	225.504	-18.767	9.3589e-05	0.00097669	0.0001625	1234.4	7.1146e-06	1.2415e-05	1028.2	330.39	3.1695e-06	8.7523e-06	299.7	91.061	88.707	19.422	9.3073e-06	25.998	0.0016235	0.0021124	0.00057576	1205.3	2.2254e-05	2.2991e-05	1008.5	322.49	2.2526e-05	2.3077e-05	297.3	90.974	88.976	19.71	2.2718e-05	26.729	146.079	55.963	100.493	-35.733	108.720	191.205	-36.576	-32.216	237.279	13.559	-33.697	-29.810	-28.686	-24.844	50.250	-25.432	-8191	255	
4510.470	1	1	0	0	0.12838	0.14426	0.026475	0.22068	0.16793	0.32628	0.12243	0.09324	0.042095	0.14176	0.092457	0.22099	0.25429	0.20633	0.04944	0.096323	-2.4479	-2.8667	-2.2875	-2.9125	-2.8021	-2.4833	-3.0021	-2.4854	-2.5917	-2.95	-2.4125	-2.8292	-2.9562	-2.5	-3.0438	-2.4417	45.184	121.934	121.443	-40.905	297.174	97.198	255.276	270.441	50.173	-12.927	290.994	-31.191	236.804	-12.026	301.251	72.642	8.8159e-05	0.00066069	0.00013133	1248.7	5.1525e-06	4.8835e-06	1036.6	331.41	1.0183e-05	6.1728e-06	297.79	90.679	89.572	19.499	4.8558e-06	26.308	0.0016526	0.002108	0.0005875	1210.5	2.2408e-05	2.3681e-05	1013.6	323.17	2.2801e-05	2.3216e-05	297.01	90.755	89.152	19.749	2.286e-05	26.734	232.964	96.083	72.889	-35.652	11.267	287.943	-36.603	-31.912	165.412	136.361	-33.631	-30.234	-28.809	-24.510	147.264	-25.364	-8191	255	
4510.567	1	1	0	0	0.099307	0.1442	0.1373	0.12402	0.065344	0.03415	0.01048	0.19368	0.22242	0.13393	0.27353	0.082814	0.046573	0.27497	0.1009	0.14752	-2.1437	-2.9458	-2.4292	-2.7521	-2.8083	-2.2729	-3.2646	-2.6583	-2.4521	-3.0438	-2.3979	-2.6896	-2.975	-2.4083	-3.0812	-2.8354	236.815	144.467	183.259	307.087	-29.280	274.314	201.288	239.447	116.288	282.206	249.177	177.621	266.904	-23.132	187.494	86.973	0.00021634	0.00063597	0.0001083	1243.7	4.5597e-06	1.6113e-05	1024.5	328.08	2.9706e-06	6.017e-06	299.3	89.223	88.813	19.166	2.9949e-06	26.224	0.0016219	0.0021114	0.00058714	1207	2.2211e-05	2.3623e-05	1006.6	322.13	2.2229e-05	2.3114e-05	295.62	89.679	88.265	19.586	2.2481e-05	26.544	141.266	83.281	156.599	-35.936	137.496	188.182	-36.396	-32.189	150.230	29.576	-33.297	-29.953	-28.752	-24.973	103.839	-25.026	-8191	255	
4510.661	1	1	0	0	0.12965	0.11446	0.23872	0.21908	0.061204	0.035984	0.029103	0.40536	0.070786	0.15262	0.25171	0.084605	0.052439	0.067762	0.19905	0.11828	-2.1833	-3.0896	-2.525	-2.6583	-3.0354	-2.3354	-3.1042	-2.8333	-2.5479	-3.1146	-2.5208	-2.5729	-3.0729	-2.3458	-2.9208	-2.8604	4.821	35.739	25.031	-44.983	294.129	68.831	293.718	267.306	269.184	25.916	-3.089	266.549	149.214	0.806	-19.046	-46.908	8.5994e-05	0.00081846	0.00012544	1236.8	7.6936e-06	7.201e-06	1019.7	328.6	6.3633e-06	1.4592e-05	298.22	89.922	89.635	18.87	3.4362e-06	25.809	0.0015793	0.0020461	0.00057525	1201.9	2.1248e-05	2.2584e-05	999.59	320.83	2.1528e-05	2.2609e-05	294	89.604	88.706	19.409	2.1963e-05	26.145	125.110	25.721	60.109	-36.067	-31.191	9.151	-36.336	-32.090	92.476	95.522	-32.628	-30.232	-28.018	-24.238	166.321	-24.983	-8191	255	
4510.757	1	1	0	0	0.11297	0.14754	0.13185	0.32162	0.14632	0.23548	0.13414	0.0927	0.10307	0.16676	0.0955	0.20657	0.044094	0.058958	0.10156	0.042528	-2.0062	-3.1688	-2.4125	-2.7812	-2.9354	-2.3333	-3.0375	-2.9646	-2.4396	-2.9917	-2.6937	-2.575	-3.1188	-2.5708	-2.7562	-2.9437	89.288	200.714	243.201	220.228	95.290	23.095	206.055	-0.255	-12.810	282.842	-44.873	-5.783	21.158	-4.239	225.314	113.387	0.00010687	0.00029907	0.00026058	1230.5	6.1025e-06	7.886e-06	1023.5	326.65	3.2859e-06	3.9746e-06	291.45	88.219	88.857	19.18	4.447e-06	25.483	0.001566	0.0020331	0.00056156	1197.7	2.1159e-05	2.2509e-05	999.36	319.47	2.123e-05	2.1618e-05	290.79	88.808	88.245	19.299	2.1797e-05	26.043	113.661	-37.282	50.994	-35.756	100.224	102.600	-36.570	-32.053	273.559	188.501	-33.259	-30.371	-28.863	-24.491	134.509	-25.690	-8191	255	
4510.855	1	1	0	0	0.21135	0.069478	0.15985	0.40416	0.1169	0.18122	0.24999	0.20984	0.15069	0.13724	0.040075	0.10541	0.23926	0.17467	0.05511	0.030025	-1.9042	-3.0583	-2.6854	-2.5729	-3.0583	-2.7333	-2.8229	-3.1813	-2.3292	-2.9062	-2.7771	-2.6646	-2.9688	-2.3229	-2.5667	-3.1646	21.324	93.024	24.132	297.875	149.532	170.252	243.666	259.708	66.409	16.320	203.597	90.909	228.894	309.665	107.287	92.296	0.00015237	0.00087886	5.6426e-05	1225.1	1.1757e-05	8.4186e-06	1016.3	326.49	5.6614e-06	5.7944e-06	293.81	88.684	88.269	18.764	1.1923e-06	25.189	0.0015493	0.0020177	0.0005643	1191.4	2.1344e-05	2.2332e-05	995.14	318.97	2.1108e-05	2.2016e-05	292.04	88.593	88.238	19.256	2.1851e-05	25.813	139.068	36.512	53.345	-35.935	147.194	90.489	-36.158	-31.994	121.085	115.340	-33.507	-30.209	-28.231	-25.095	97.286	-25.024	-8191	255	
4510.949	1	1	0	0	0.11821	0.13194	0.1152	0.034191	0.075284	0.28123	0.16792	0.16706	0.14904	0.12805	0.1064	0.29469	0.083101	0.088075	0.10815	0.17517	-1.9854	-2.8771	-2.6063	-2.4146	-2.8792	-2.4625	-2.8521	-2.9479	-2.3375	-2.775	-2.8	-2.4292	-3.1917	-2.5896	-2.7021	-2.8583	68.608	236.492	229.525	-6.626	74.098	30.484	71.489	237.971	142.730	233.064	160.355	286.791	-43.506	35.070	-41.335	206.860	7.5009e-05	0.00026095	0.00024881	1224.7	2.143e-06	7.743e-06	1010.3	324.42	6.0494e-06	6.0851e-06	295.07	87.142	88.195	18.771	1.8473e-06	25.243	0.0015473	0.0020714	0.00056201	1187.8	2.1255e-05	2.2895e-05	989.53	317.86	2.186e-05	2.2755e-05	291.43	87.911	87.714	19.22	2.2427e-05	25.62	229.769	156.545	-5.266	-35.757	202.884	106.588	-36.516	-31.901	141.365	-45.541	-33.195	-29.657	-28.554	-24.779	108.067	-24.715	-8191	255	
4511.046	1	1	0	0	0.2053	0.33798	0.2027	0.25124	0.30854	0.27186	0.20814	0.12287	0.050408	0.093694	0.12134	0.25501	0.12192	0.064631	0.16368	0.16321	-1.7687	-2.6354	-2.9396	-2.3312	-3.0167	-2.6854	-2.6292	-2.9688	-2.35	-2.8208	-2.9938	-2.3271	-3.2083	-2.5771	-2.6396	-3.1771	62.155	0.549	-23.972	298.672	162.698	203.099	184.530	136.431	34.365	64.621	245.087	250.656	300.734	250.719	161.348	76.807	0.00011146	0.00085312	0.00021475	1216.6	5.662e-06	3.7145e-06	1012.2	325.1	2.1071e-06	5.9976e-06	291.14	88.182	87.729	18.961	4.1396e-06	25.039	0.0015515	0.0020647	0.00057485	1180.7	2.1571e-05	2.2465e-05	986.45	317.5	2.159e-05	2.2612e-05	289.7	88.204	87.824	19.391	2.2032e-05	25.517	140.361	33.275	19.539	-35.998	193.654	136.057	-36.485	-32.489	88.574	102.420	-32.788	-29.952	-28.529	-24.987	36.947	-25.440	-8191	255	
4511.166	1	1	0	0	0.21067	0.14988	0.15482	0.21991	0.10463	0.36993	0.071304	0.20228	0.053465	0.1995	0.12397	0.33304	0.14394	0.059614	0.16658	0.091706	-2.0083	-2.7854	-3.0146	-2.4688	-3.0792	-2.6312	-2.4896	-3.3312	-2.4708	-2.8271	-3.025	-2.2687	-3.0708	-2.8625	-2.5375	-2.8292	19.984	195.532	-4.141	292.291	-40.707	171.614	169.198	218.466	84.414	239.381	6.907	6.510	279.785	232.852	-32.227	17.347	9.5776e-06	0.00070307	0.00013565	1209.7	2.9462e-06	7.3684e-07	1003.2	323.9	5.4649e-06	3.5869e-06	291.03	87.68	88.007	18.87	9.4885e-06	25.026	0.001578	0.0020713	0.00056321	1176.8	2.0782e-05	2.2639e-05	977.11	316.13	2.168e-05	2.2725e-05	288.81	87.782	87.755	19.28	2.2157e-05	25.505	39.555	30.427	30.694	-35.800	127.716	232.535	-36.796	-31.995	261.389	218.200	-33.202	-30.001	-28.868	-25.258	49.416	-25.061	-8191	255	
4511.262	1	1	0	0	0.20173	0.18696	0.091607	0.30878	0.14585	0.11527	0.21589	0.055222	0.06563	0.11256	0.16156	0.11273	0.21368	0.12756	0.1327	0.10087	-2.1958	-2.5958	-2.8271	-2.6	-2.8771	-2.7167	-2.6083	-3.2875	-2.6521	-2.6646	-3.1625	-2.4062	-2.75	-2.9396	-2.3917	-3.0438	217.171	237.191	15.970	-20.740	287.611	220.740	268.552	82.240	158.873	110.913	304.008	287.879	-23.072	188.043	160.687	103.281	0.00012975	0.00015153	0.00012955	1212.7	2.7175e-06	8.0206e-06	1001.9	323.14	8.3516e-06	8.5858e-06	291.79	87.857	89.015	18.949	8.4963e-07	25.186	0.0015345	0.002091	0.00055885	1176.6	2.1147e-05	2.243e-05	979.85	315.77	2.1787e-05	2.2394e-05	289.29	88.055	88.14	19.334	2.1986e-05	25.709	112.113	5.716	242.205	-35.909	274.526	85.803	-36.392	-32.261	181.943	131.444	-32.860	-30.130	-29.060	-25.114	215.714	-25.599	-8191	255	
4511.359	1	1	0	0	0.031347	0.1979	0.23962	0.16969	0.15629	0.19237	0.20852	0.15374	0.097255	0.19842	0.15766	0.014626	0.094888	0.24989	0.05117	0.10738	-2.1958	-2.3333	-2.9042	-2.675	-2.6792	-2.9104	-2.4354	-3.0708	-2.6021	-2.5917	-3.2208	-2.4562	-2.9229	-2.9021	-2.4521	-2.9375	142.946	248.717	17.830	249.718	222.198	166.990	205.138	238.102	306.984	163.079	303.405	-3.507	259.164	272.854	280.733	205.031	0.00013204	0.0011314	0.00025864	1214.7	2.8135e-06	3.9836e-06	1006.5	324.26	1.9961e-06	8.6574e-06	289.38	87.927	87.324	19.065	7.1557e-06	24.965	0.0016063	0.0021065	0.00056901	1181	2.1773e-05	2.2841e-05	983.58	316.39	2.2049e-05	2.2386e-05	290.01	88.275	87.616	19.362	2.2135e-05	25.81	167.003	75.696	92.579	-35.523	-9.560	-43.510	-36.675	-32.446	307.869	96.824	-32.999	-29.771	-28.995	-24.712	80.339	-25.855	-8191	255	
4511.455	1	1	0	0	0.14347	0.20776	0.033423	0.30781	0.11079	0.013947	0.079386	0.19688	0.12038	0.23159	0.12774	0.19169	0.12667	0.12061	0.12442	0.065371	-2.1271	-2.4146	-2.9292	-2.5667	-2.5875	-3.0646	-2.4062	-2.95	-2.8167	-2.4271	-3.0125	-2.5167	-2.5646	-3.0167	-2.2958	-2.85	99.258	39.653	210.914	253.372	257.365	17.111	27.990	210.880	157.932	2.544	239.629	41.570	288.196	104.510	257.862	213.785	7.4277e-05	0.0010456	0.00023635	1214	1.1831e-06	1.2798e-05	997.45	322.39	4.1171e-06	8.2508e-06	292.14	86.984	87.745	18.758	5.6854e-06	25.265	0.0015829	0.0020778	0.00057462	1178	2.1205e-05	2.315e-05	980.63	315.42	2.2006e-05	2.2551e-05	289.45	87.705	87.377	19.108	2.252e-05	25.807	43.050	123.265	79.201	-35.737	77.364	58.966	-36.554	-32.060	13.461	124.636	-32.796	-29.861	-28.966	-24.192	2.946	-25.723	-8191	255	
4511.551	1	1	0	0	0.025985	0.12031	0.049401	0.17084	0.069526	0.090458	0.21781	0.22253	0.21451	0.11532	0.077053	0.13038	0.095793	0.10184	0.18879	0.16616	-2.4271	-2.3896	-3.1437	-2.6542	-2.5208	-2.9792	-2.2188	-2.8854	-2.75	-2.2938	-3.0479	-2.8375	-2.7646	-3.0271	-2.2104	-2.7271	168.267	122.412	-18.309	295.142	217.280	293.241	201.098	251.205	-4.888	282.025	296.522	60.129	161.011	17.469	74.848	270.280	0.00012282	0.00092374	0.00012681	1218.1	6.1555e-06	1.7053e-05	999.6	323.43	1.587e-06	7.0329e-06	291.35	88.304	87.754	18.759	7.0967e-06	25.255	0.0015744	0.0021095	0.00058148	1176.2	2.2318e-05	2.3184e-05	978.04	314.78	2.2753e-05	2.3062e-05	288.64	87.721	87.456	19.09	2.2634e-05	25.777	134.841	-13.753	18.597	-35.641	82.862	39.712	-36.847	-32.356	55.575	138.157	-33.218	-30.416	-28.614	-24.851	32.523	-25.171	-8191	255	
4511.647	1	1	0	0	0.05338	0.043315	0.15796	0.28838	0.17522	0.24044	0.078496	0.39912	0.17858	0.060535	0.1942	0.11925	0.47658	0.13683	0.23617	0.20822	-2.6625	-2.3729	-2.9437	-2.875	-2.5021	-3.1333	-2.5729	-2.9229	-2.9854	-2.3438	-3	-2.6042	-2.4042	-3.0938	-2.4667	-2.7687	173.744	170.746	116.409	269.332	80.044	101.084	240.111	247.635	53.395	-29.105	295.274	276.810	198.669	265.712	244.960	281.593	0.00015715	0.0018021	2.7528e-05	1219.5	3.3925e-06	7.2981e-06	998.87	322.2	2.2866e-06	8.73e-06	293.48	87.528	86.852	18.902	1.7894e-06	25.191	0.0016583	0.0021071	0.00060181	1179.5	2.2251e-05	2.3152e-05	979.07	314.01	2.2149e-05	2.2708e-05	290.35	87.813	87.042	19.115	2.2726e-05	25.87	23.736	-6.950	300.965	-35.836	304.154	62.425	-36.257	-32.176	133.344	74.012	-32.703	-29.936	-28.615	-24.950	25.701	-24.225	-8191	255	
4511.766	1	1	0	0	0.16736	0.12825	0.11693	0.24684	0.36593	0.15918	0.057465	0.24538	0.20642	0.0419	0.13904	0.27687	0.34445	0.10052	0.21098	0.043064	-2.6375	-2.2396	-2.9313	-2.9708	-2.3458	-3.0354	-2.4875	-2.6562	-2.9417	-2.4667	-2.9938	-2.8063	-2.4667	-3.0312	-2.4688	-2.5104	266.218	173.327	299.732	-25.420	-11.876	50.548	292.873	272.693	229.951	-4.872	285.470	286.363	277.374	187.944	164.114	119.447	0.00012645	0.0013188	0.0001205	1211.7	3.1795e-06	1.1448e-05	998.69	323.85	1.8953e-06	3.692e-06	290.34	86.94	87.126	18.753	2.7234e-06	25.54	0.0016125	0.0020593	0.00057548	1178	2.169e-05	2.2753e-05	981.47	315.29	2.2033e-05	2.3244e-05	289.3	87.819	87.191	19.09	2.286e-05	26.135	90.708	18.715	54.479	-35.632	50.500	175.045	-36.434	-32.206	160.172	82.950	-33.070	-29.782	-28.918	-24.710	120.430	-25.254	-8191	255	
4511.862	1	1	0	0	0.14732	0.22008	0.1551	0.28459	0.25151	0.090768	0.061015	0.057933	0.093071	0.20431	0.2294	0.13767	0.27107	0.25852	0.25463	0.17417	-2.5458	-2.3375	-2.8146	-3.0333	-2.3646	-3.0917	-2.5979	-2.5729	-2.9833	-2.375	-2.8563	-3.1292	-2.5396	-3.0396	-2.6604	-2.6521	100.541	161.184	276.991	222.138	-49.911	107.117	22.172	224.106	198.392	245.586	307.246	104.447	216.377	306.685	85.786	14.230	3.1808e-05	0.00051314	0.0001661	1216.7	1.1559e-05	9.5428e-06	1008.8	322.41	7.4646e-06	1.1348e-05	290.1	88.12	87.744	18.932	7.8616e-06	25.609	0.0015981	0.0021156	0.00059303	1181.7	2.2103e-05	2.3354e-05	983.91	315.27	2.2259e-05	2.3195e-05	289.48	88.081	87.334	19.11	2.3071e-05	26.165	131.431	12.139	-31.614	-35.740	144.785	221.109	-36.608	-32.437	161.856	87.462	-33.695	-29.768	-28.718	-25.248	145.887	-25.323	-8191	255	
4511.958	1	1	0	0	0.1	0.32193	0.053171	0.50377	0.047809	0.15527	0.23977	0.24018	0.14424	0.1235	0.19489	0.13314	0.080067	0.19737	0.15109	0.045551	-2.7667	-2.3708	-2.6042	-3.1417	-2.2125	-3.1	-2.7958	-2.4417	-2.9646	-2.4958	-2.8792	-2.9729	-2.3979	-2.9083	-2.8417	-2.5	291.078	21.111	191.725	298.405	173.504	-8.629	171.942	184.270	-14.898	219.624	249.299	250.865	250.051	301.258	13.250	224.056	0.00014345	5.3853e-05	0.00011439	1215.4	3.7269e-06	8.8825e-06	997.27	320.15	8.0394e-06	2.5067e-06	290.12	86.25	87.263	18.62	1.388e-06	25.296	0.0016342	0.0021834	0.00059539	1178.3	2.2136e-05	2.3829e-05	982.83	314.24	2.2553e-05	2.329e-05	289.39	87.27	87.04	19.012	2.3248e-05	25.831	128.631	46.046	-7.007	-35.641	235.619	43.637	-36.455	-32.165	89.307	151.409	-33.538	-29.861	-28.568	-24.755	111.956	-24.710	-8191	255	
4512.054	1	1	0	0	0.036787	0.12088	0.046865	0.20156	0.092305	0.12932	0.22911	0.2829	0.25547	0.29611	0.26541	0.14445	0.067473	0.062985	0.36296	0.04817	-2.6667	-2.4896	-2.5458	-3.0729	-2.4417	-2.8208	-3.1521	-2.4437	-3.1312	-2.5208	-2.5646	-3.0438	-2.3208	-2.7375	-2.8521	-2.2021	213.869	226.663	117.593	276.965	103.999	142.232	73.030	247.221	6.188	76.813	-47.215	203.905	45.978	12.530	-19.863	31.463	8.9764e-05	0.00084	6.6946e-05	1211	6.894e-06	1.2975e-05	1001.9	318.8	1.0264e-05	1.0678e-05	291.46	86.117	86.863	18.696	1.1074e-05	25.386	0.0016107	0.0021219	0.00058803	1177.7	2.247e-05	2.3358e-05	981.09	312.76	2.1902e-05	2.3456e-05	288.24	87.248	86.567	19.009	2.2255e-05	25.967	137.971	234.165	18.774	-35.612	-3.912	151.295	-36.614	-32.201	204.367	86.396	-32.787	-29.209	-28.565	-23.989	134.825	-25.084	-8191	255	
4512.175	1	1	0	0	0.1144	0.11182	0.10177	0.35277	0.12178	0.14753	0.15932	0.16181	0.098414	0.19212	0.088477	0.26475	0.32108	0.2525	0.19672	0.3367	-2.6333	-2.5271	-2.2313	-3.0062	-2.1979	-2.6583	-2.9833	-2.3604	-3.0771	-2.6542	-2.425	-3.0417	-2.3542	-2.6979	-2.875	-2.3354	-40.125	69.043	154.705	256.461	-19.344	-5.013	259.172	-10.120	92.727	4.494	-39.902	-44.484	239.611	45.845	224.844	178.140	0.0001262	0.00016752	0.00021604	1215.4	6.4708e-06	7.2228e-06	1009.1	323.67	6.1355e-06	4.0494e-06	290.95	87.48	85.938	18.85	7.0255e-06	25.805	0.0016004	0.0021241	0.00059598	1179.6	2.1928e-05	2.339e-05	985.5	315.22	2.1984e-05	2.2882e-05	290.03	87.581	86.656	19.041	2.2455e-05	26.047	144.195	123.393	6.014	-35.518	98.442	47.995	-36.234	-32.266	155.793	172.374	-32.939	-30.126	-28.956	-24.728	38.971	-25.706	-8191	255	
4512.247	1	1	0	0	0.23227	0.1031	0.21836	0.048413	0.14889	0.17857	0.12752	0.28641	0.12925	0.154	0.30739	0.20601	0.26007	0.30698	0.23201	0.18361	-2.6167	-2.5896	-2.3417	-3.2479	-2.4646	-2.5479	-3.1708	-2.3167	-2.9437	-2.8312	-2.3729	-3.1875	-2.45	-2.5021	-2.8021	-2.3396	21.705	287.939	49.067	202.158	216.533	134.661	304.142	3.054	298.413	125.033	-39.521	49.950	280.795	298.986	205.254	201.445	0.00014007	0.0004387	0.00032269	1218.1	2.018e-06	1.2625e-05	1002.3	323.49	6.8908e-06	2.2844e-06	291.33	87.332	87.247	18.731	5.8741e-06	25.726	0.0015632	0.0020994	0.00055865	1181.8	2.1571e-05	2.3023e-05	981.87	315.08	2.175e-05	2.2531e-05	289.79	87.452	86.598	18.996	2.2199e-05	26.262	171.732	-19.123	62.303	-35.687	-19.836	177.813	-36.469	-32.057	152.069	153.447	-33.225	-30.225	-28.676	-24.888	74.490	-24.640	-8191	255	
4512.343	1	1	0	0	0.48034	0.24137	0.10387	0.20508	0.20622	0.090151	0.18919	0.29344	0.20127	0.13463	0.27785	0.1557	0.21161	0.090454	0.13697	0.25304	-2.4417	-2.625	-2.3271	-3.2438	-2.4458	-2.4604	-3.1792	-2.4188	-2.7542	-2.7792	-2.3417	-3.0021	-2.6771	-2.45	-2.8937	-2.3708	288.702	303.895	116.454	-8.205	69.951	225.820	305.049	212.791	-0.604	206.451	256.477	308.725	175.616	128.432	308.909	176.079	0.00015854	0.00076173	0.00016978	1214.6	3.0299e-06	1.0047e-05	1002.5	320.19	3.0909e-06	2.5388e-06	294.71	87.593	86.948	18.516	5.3673e-06	25.382	0.0015499	0.0020504	0.00056008	1179.6	2.1325e-05	2.2639e-05	983.38	313.63	2.1326e-05	2.237e-05	289.17	87.263	86.355	18.81	2.2311e-05	25.964	151.543	108.000	3.547	-35.921	191.832	100.028	-36.151	-31.821	179.242	255.539	-33.407	-29.953	-28.482	-24.491	87.294	-25.360	-8191	255	
4512.439	1	1	0	0	0.18414	0.15242	0.16734	0.28045	0.06992	0.28162	0.15786	0.075198	0.14445	0.13001	0.2488	0.22105	0.28518	0.21723	0.094693	0.20785	-2.3021	-2.8104	-2.1792	-3.0354	-2.6312	-2.4458	-3.1083	-2.4854	-2.6646	-2.8792	-2.3396	-2.9729	-2.725	-2.375	-3.0729	-2.3312	59.104	239.187	14.445	271.979	25.979	73.617	75.756	268.168	211.072	63.873	253.705	23.632	253.604	-36.098	253.728	127.103	0.00011862	0.00095533	0.0002296	1216.5	7.0021e-06	1.0964e-06	999.18	319.18	6.4681e-06	2.8701e-06	288.54	86.014	85.7	18.356	4.5796e-06	25.411	0.0015476	0.0020455	0.00055772	1179.2	2.2138e-05	2.3014e-05	982.79	313.96	2.1381e-05	2.2692e-05	287.83	86.448	85.83	18.823	2.215e-05	25.961	157.729	109.922	104.985	-35.600	150.310	63.058	-36.449	-31.842	-5.642	267.803	-32.609	-29.961	-28.587	-24.145	92.083	-25.110	-8191	255	
4512.535	1	1	0	0	0.14571	0.10195	0.27139	0.12398	0.12233	0.073935	0.073197	0.10329	0.29752	0.24075	0.19446	0.28513	0.15356	0.086741	0.061435	0.2209	-2.2313	-2.8667	-2.4646	-3.0312	-2.8479	-2.3521	-3.1229	-2.6188	-2.5521	-2.975	-2.4729	-3.0083	-2.8896	-2.3771	-3.1063	-2.6958	272.846	62.141	144.209	248.814	151.865	186.811	135.129	220.749	92.717	185.773	238.461	279.235	297.183	-5.774	256.036	274.831	0.00016553	0.00072957	9.095e-05	1213.9	3.9044e-06	1.0857e-05	1006.2	321.45	3.413e-06	7.534e-06	291.35	86.948	87.011	18.519	5.9743e-06	25.348	0.0015935	0.0020701	0.00057684	1179.3	2.172e-05	2.2573e-05	986.39	313.85	2.2409e-05	2.2527e-05	289.67	87.268	86.551	18.861	2.2428e-05	25.964	129.163	-27.166	46.557	-35.673	39.580	101.018	-36.169	-32.286	133.412	178.854	-33.149	-29.429	-28.592	-24.548	77.043	-24.491	-8191	255	
4512.654	1	1	0	0	0.29193	0.15824	0.090072	0.32502	0.20889	0.15126	0.25594	0.23898	0.34705	0.15739	0.11553	0.1741	0.35498	0.12657	0.14641	0.3174	-2.2396	-2.8958	-2.4062	-2.8333	-2.7542	-2.3167	-3.3146	-2.5104	-2.5708	-2.9625	-2.4208	-2.8542	-3.0042	-2.4792	-2.9792	-2.7125	58.205	148.854	57.588	244.968	12.351	13.233	209.642	182.172	253.115	164.784	-24.445	32.394	-33.295	173.806	229.687	274.553	0.00010927	0.00076498	5.8357e-05	1213.4	1.1154e-06	6.7952e-06	1007.6	322.39	3.9772e-06	2.419e-06	293.99	86.942	86.39	18.453	5.5101e-06	25.557	0.0016012	0.0020806	0.00057655	1181.4	2.1139e-05	2.2513e-05	985.89	314.54	2.2419e-05	2.2478e-05	290.68	87.595	86.263	18.847	2.1968e-05	26.205	155.602	35.796	97.000	-36.060	175.570	-27.567	-36.423	-32.182	28.032	143.597	-33.121	-30.402	-28.327	-24.329	-33.221	-25.076	-8191	255	
4512.750	1	1	0	0	0.054135	0.2705	0.040155	0.068044	0.26311	0.076154	0.22949	0.1492	0.23385	0.16236	0.2991	0.118	0.093429	0.0061528	0.15939	0.22509	-1.9958	-3.0396	-2.3333	-2.85	-2.8229	-2.4854	-3.0625	-2.8375	-2.4479	-3.0208	-2.4396	-2.5896	-3.0104	-2.4333	-2.8604	-2.7292	11.298	74.346	108.666	198.389	194.247	144.359	10.485	0.729	261.377	288.885	277.904	18.901	223.451	54.329	12.075	171.374	4.5347e-05	0.0007119	0.00014613	1219.9	3.5644e-06	5.5686e-06	1011.7	322.2	6.9698e-06	8.4221e-06	292.15	86.654	87.363	18.565	7.434e-06	25.402	0.0015758	0.0020009	0.00057034	1184.1	2.1635e-05	2.2767e-05	989.56	315.94	2.2271e-05	2.2865e-05	291.05	87.346	86.455	18.936	2.2353e-05	26.167	94.195	187.765	132.903	-35.910	97.815	41.677	-36.592	-32.261	150.158	87.928	-32.887	-30.003	-28.309	-24.653	137.798	-24.851	-8191	255	
4512.846	1	1	0	0	0.17883	0.13967	0.13938	0.1862	0.29298	0.1176	0.14454	0.28018	0.25601	0.24737	0.04871	0.16341	0.24258	0.2568	0.22102	0.49292	-2.0271	-2.9667	-2.4271	-2.6562	-2.9167	-2.3729	-2.8937	-2.8	-2.3542	-3.0625	-2.5521	-2.4083	-3.0792	-2.4813	-2.725	-2.8896	110.123	243.670	105.612	235.159	67.479	1.327	267.743	254.394	304.842	178.293	210.286	66.983	-49.731	37.057	77.410	-7.839	6.6595e-05	0.00016249	5.7549e-05	1217	8.6697e-07	6.9603e-06	1007.3	321.81	2.7552e-06	7.9738e-06	290.75	86.843	86.168	18.499	8.8691e-06	25.49	0.0015858	0.0020226	0.00057415	1187.1	2.2083e-05	2.329e-05	989.03	315.52	2.2006e-05	2.306e-05	290.87	87.55	86.164	18.835	2.3024e-05	25.965	87.907	-48.906	37.468	-35.758	307.554	129.536	-36.646	-32.021	230.536	67.171	-33.110	-30.263	-28.762	-25.731	125.149	-24.807	-8191	255	
4512.942	1	1	0	0	0.1977	0.29428	0.10262	0.31286	0.10737	0.28723	0.29048	0.24085	0.16197	0.094238	0.10615	0.3074	0.071955	0.013254	0.1549	0.26601	-1.9167	-3.0604	-2.625	-2.6146	-2.9708	-2.3688	-2.925	-3.0854	-2.3125	-2.9208	-2.8771	-2.4417	-3.1208	-2.4562	-2.4958	-2.7833	309.495	271.509	39.712	277.714	19.094	185.459	260.054	269.442	133.445	275.423	-12.193	276.577	133.576	146.650	8.123	81.611	0.00013608	0.00093854	8.0861e-05	1221.2	3.9785e-06	5.3564e-06	1007.1	322.96	5.8035e-06	6.0447e-06	292.89	87.184	86.15	18.447	5.1662e-06	25.858	0.0016346	0.0021153	0.00059474	1186.8	2.2199e-05	2.3786e-05	989.12	314.86	2.1931e-05	2.2914e-05	290.78	87.387	86.076	18.786	2.3079e-05	26.21	123.353	58.749	127.164	-35.940	122.008	38.130	-36.340	-31.907	143.950	293.940	-33.384	-29.981	-28.534	-24.551	137.812	-25.243	-8191	255	
4513.039	1	1	0	0	0.27424	0.15497	0.26662	0.097157	0.060155	0.24305	0.14851	0.14304	0.11305	0.10411	0.3839	0.13211	0.24854	0.17098	0.016462	0.099638	-1.9604	-2.7542	-2.7771	-2.6917	-2.9938	-2.375	-2.5479	-2.9521	-2.4	-2.7479	-2.7708	-2.3979	-3.0438	-2.4938	-2.4813	-2.9813	93.178	57.400	25.679	134.518	28.703	129.810	228.639	208.803	275.387	166.068	186.409	100.797	-27.307	-34.966	249.916	266.140	0.00012656	0.00033333	0.00017616	1219.3	4.0292e-06	9.4876e-06	1016.7	325.11	8.7172e-07	1.5454e-06	293.78	87.75	86.627	18.483	8.0678e-06	25.952	0.0016118	0.0021466	0.00059628	1186.7	2.2414e-05	2.3775e-05	994.75	316.72	2.3233e-05	2.3454e-05	293.26	88.08	86.34	18.856	2.3424e-05	26.513	71.403	84.202	148.161	-35.845	175.681	145.364	-36.781	-31.807	305.584	76.791	-33.484	-29.880	-28.327	-24.388	96.477	-24.668	-8191	255	
4513.135	1	1	0	0	0.082923	0.19963	0.039512	0.23809	0.16695	0.03099	0.078662	0.13802	0.22388	0.12877	0.38049	0.21486	0.13738	0.32314	0.19112	0.16247	-1.8979	-2.7125	-2.8688	-2.675	-2.925	-2.5354	-2.5729	-3.2979	-2.2604	-2.8979	-2.8937	-2.3896	-3.0875	-2.6625	-2.5417	-3.1375	274.100	275.163	298.489	-22.052	24.829	-22.263	96.037	11.391	118.251	113.687	238.302	301.807	235.521	86.065	38.210	-27.635	0.00011607	0.00077374	0.00014032	1217.1	5.1345e-06	8.3526e-06	1019.8	322.5	2.3623e-06	9.0091e-06	297.8	88.119	86.512	18.531	6.434e-06	26.182	0.0016435	0.0022099	0.00059845	1187.7	2.2262e-05	2.4488e-05	998.7	316.03	2.3661e-05	2.4007e-05	295.26	88.621	86.48	18.904	2.409e-05	26.746	135.254	15.109	78.263	-35.810	13.081	59.974	-36.402	-32.009	108.747	191.096	-33.307	-30.012	-28.695	-24.138	188.689	-25.175	-8191	255	
4513.255	1	1	0	0	0.17688	0.26718	0.044829	0.31068	0.073842	0.16906	0.15027	0.11408	0.35247	0.21303	0.14981	0.25442	0.11524	0.10107	0.14071	0.1047	-2.0687	-2.7729	-2.9938	-2.5667	-3.0687	-2.6792	-2.6	-3.2875	-2.5625	-2.7271	-3.0521	-2.4979	-3.0563	-2.9792	-2.425	-3.2208	151.533	191.165	306.075	285.367	38.749	160.209	223.613	309.177	189.659	273.984	297.744	205.321	135.950	160.600	270.391	292.223	9.3494e-05	0.00036672	0.00028538	1229	1.0622e-06	1.1995e-05	1013.1	321.45	7.4164e-06	7.2348e-06	295.22	87.686	85.975	18.367	3.7525e-06	25.768	0.0016909	0.0022322	0.00061559	1190.7	2.243e-05	2.4567e-05	995.19	315.19	2.3337e-05	2.4351e-05	293.9	88.104	86.131	18.763	2.307e-05	26.556	136.140	19.012	46.911	-35.793	176.999	30.705	-36.405	-32.075	150.499	106.971	-33.542	-29.608	-29.039	-24.291	240.511	-24.745	-8191	255	
4513.351	1	1	0	0	0.054751	0.0737	0.20162	0.24716	0.1554	0.16635	0.17486	0.025199	0.20062	0.1854	0.16319	0.26684	0.22761	0.12022	0.2916	0.11817	-2.1229	-2.65	-2.8812	-2.3333	-2.9167	-2.9771	-2.4771	-3.1104	-2.6229	-2.675	-3.1021	-2.4771	-2.9708	-2.8375	-2.4188	-3.1875	131.904	54.057	93.365	264.404	221.844	292.404	243.423	106.850	-38.020	224.728	161.471	70.662	283.024	201.064	70.824	283.054	5.9245e-05	0.00047885	9.8716e-05	1214.1	7.2786e-06	9.7771e-06	1009.5	322.38	5.7458e-06	6.5578e-06	293.1	87.017	85.001	18.223	9.3104e-07	26.22	0.0016598	0.0021531	0.00059099	1181.1	2.2308e-05	2.4167e-05	992.18	315.54	2.2685e-05	2.3245e-05	291.34	87.66	85.433	18.674	2.2383e-05	26.562	157.551	279.773	-45.217	-35.706	126.342	196.932	-36.644	-32.457	57.573	86.936	-32.875	-29.684	-28.394	-23.828	139.185	-24.868	-8191	255	
4513.448	1	1	0	0	0.11389	0.15838	0.12024	0.23961	0.12664	0.21415	0.13201	0.18025	0.12509	0.15839	0.054545	0.15584	0.16289	0.23201	0.21407	0.14845	-2.3479	-2.4354	-2.9813	-2.5646	-2.7792	-2.8625	-2.65	-3.2021	-2.6208	-2.4979	-3.175	-2.4792	-2.8354	-2.9062	-2.4229	-2.8667	72.645	-18.334	285.043	304.032	80.343	53.620	309.355	166.368	143.486	234.750	77.688	33.177	267.424	286.228	269.808	105.351	6.1077e-05	0.00104	6.8146e-05	1213.5	2.66e-06	7.9668e-06	1011.6	321.39	4.1918e-06	7.4101e-06	294.11	86.654	85.844	18.294	7.1929e-06	26.196	0.0015744	0.0021109	0.00057924	1182.3	2.2437e-05	2.3579e-05	992.92	314.94	2.2723e-05	2.2765e-05	292.67	87.468	85.739	18.626	2.2056e-05	26.612	52.444	13.359	4.625	-35.934	156.313	-30.732	-36.622	-32.197	241.040	83.481	-32.540	-29.751	-28.593	-23.974	132.541	-24.989	-8191	255	
4513.544	1	1	0	0	0.35507	0.28325	0.040707	0.22678	0.16312	0.21753	0.49535	0.26676	0.21696	0.19004	0.12317	0.10435	0.012718	0.125	0.17632	0.22314	-2.1958	-2.4958	-3.075	-2.6188	-2.7375	-2.9542	-2.3833	-3.1292	-2.8417	-2.2396	-2.9521	-2.5479	-2.7396	-2.9854	-2.4021	-2.9062	232.137	82.111	-23.412	283.549	107.974	148.251	277.381	273.157	99.604	275.594	-27.672	-24.408	85.358	73.292	-42.376	40.600	0.00011565	0.0013512	4.2022e-05	1225.4	1.8594e-06	8.2831e-06	1010.6	321.77	4.8124e-06	4.399e-06	292.65	87.7	84.945	18.257	3.9673e-06	26.134	0.0015911	0.0020696	0.00056323	1188.3	2.1311e-05	2.2737e-05	992.78	315.09	2.1718e-05	2.2784e-05	292.43	87.233	85.176	18.593	2.1608e-05	26.718	156.337	-13.775	22.570	-36.035	96.374	-9.328	-36.100	-32.166	180.560	62.826	-33.459	-29.126	-28.682	-24.889	94.501	-24.526	-8191	255	
4513.638	1	1	0	0	0.075737	0.013019	0.1376	0.21013	0.055718	0.20054	0.050907	0.1722	0.20394	0.10817	0.10773	0.18599	0.20844	0.096347	0.2244	0.07196	-2.3563	-2.4667	-3.0583	-2.5083	-2.6042	-3.1271	-2.4979	-2.8458	-2.7375	-2.5646	-3.1604	-2.5812	-2.5292	-3.0604	-2.5167	-2.7854	111.781	157.110	62.333	52.308	-43.631	79.382	98.226	228.400	-14.537	-38.461	149.916	287.504	49.698	-41.803	115.856	220.753	0.00017252	0.00055259	4.5249e-05	1228.3	9.4466e-06	6.7552e-06	1022.7	322.64	2.4037e-06	8.2327e-06	296.16	87.182	85.29	18.248	5.254e-06	26.075	0.0015901	0.002009	0.00054349	1192.3	2.1053e-05	2.2378e-05	996.6	315.28	2.1237e-05	2.2235e-05	293.65	87.274	85.144	18.582	2.1695e-05	26.504	77.816	-10.154	90.541	-36.054	166.129	43.767	-36.674	-32.235	159.357	86.958	-33.154	-29.547	-28.566	-23.794	48.052	-24.781	-8191	255	
4513.734	1	1	0	0	0.27562	0.043565	0.20519	0.11232	0.54251	0.14911	0.16971	0.27611	0.1832	0.1113	0.14292	0.19049	0.26751	0.17286	0.11666	0.13532	-2.4688	-2.3375	-2.9458	-2.9646	-2.5417	-3.1104	-2.4333	-2.8875	-3.0271	-2.5125	-3.1042	-2.7125	-2.4396	-3.0354	-2.4229	-2.6625	89.247	-30.352	-23.577	272.013	271.931	143.112	-5.699	-34.235	7.367	68.969	104.005	54.468	288.588	31.867	-10.245	273.100	0.00019979	0.0011434	0.00023583	1217.8	7.1086e-06	1.2115e-05	1016.7	320.81	5.2839e-06	8.077e-06	292.03	87.514	85.217	18.279	9.4367e-06	25.861	0.0015304	0.0020536	0.00055785	1185.1	2.1376e-05	2.2503e-05	994.16	313.76	2.1732e-05	2.2082e-05	290.33	87.119	84.96	18.513	2.1916e-05	26.282	74.131	79.527	68.022	-36.003	78.709	213.009	-36.374	-32.199	39.840	127.642	-33.109	-29.961	-28.866	-24.393	168.070	-25.103	-8191	255	
4513.830	1	1	0	0	0.14405	0.11702	0.056714	0.16868	0.17788	0.14706	0.12411	0.076002	0.14904	0.27149	0.11236	0.16186	0.066927	0.056304	0.16104	0.11943	-2.4646	-2.4938	-2.8875	-2.8833	-2.5062	-3.0687	-2.3729	-2.7292	-2.8104	-2.4625	-2.8563	-2.8396	-2.4562	-3.1521	-2.6	-2.7271	-25.687	92.889	-1.251	256.801	6.887	-0.982	141.488	281.466	67.410	102.579	168.631	132.662	262.473	-19.502	-47.599	-25.952	5.3368e-05	0.0002216	8.2614e-05	1218.7	6.4962e-06	8.5806e-06	1009.8	317.6	7.321e-06	3.9542e-06	289.03	85.853	83.598	18.015	2.0379e-06	25.779	0.0015773	0.0020598	0.0005672	1182.9	2.1243e-05	2.2118e-05	991.08	311.98	2.1659e-05	2.2464e-05	288.53	86.11	83.833	18.26	2.1351e-05	26.061	15.811	67.929	11.053	-35.992	35.910	212.611	-36.205	-32.258	108.863	87.664	-33.087	-29.987	-28.408	-24.433	67.220	-25.594	-8191	255	
4513.951	1	1	0	0	0.16327	0.16957	0.23893	0.15419	0.1131	0.23662	0.1767	0.25172	0.29014	0.089411	0.065582	0.24501	0.036693	0.087295	0.10811	0.12291	-2.7125	-2.3729	-2.6729	-3.2083	-2.2792	-3.0917	-2.7771	-2.725	-2.8896	-2.4062	-3.0542	-2.9188	-2.4646	-2.9854	-2.6625	-2.5604	270.082	40.836	-21.697	205.380	165.843	170.092	211.671	295.842	198.653	124.346	255.560	208.801	98.086	-16.229	235.241	174.041	4.9741e-05	0.00050896	7.6088e-05	1213.8	5.1314e-06	5.6607e-06	1007.6	318.49	5.3827e-06	9.2288e-06	288.29	84.741	83.571	17.947	8.0464e-06	25.479	0.0015196	0.0019582	0.00055441	1178	2.088e-05	2.2077e-05	985.41	311.26	2.1039e-05	2.1684e-05	287.42	85.541	83.443	18.117	2.1545e-05	25.982	86.680	126.196	68.204	-35.777	66.315	-48.932	-36.589	-32.253	241.748	60.088	-32.777	-29.777	-28.530	-24.223	4.251	-24.848	-8191	255	
4514.047	1	1	0	0	0.2363	0.1855	0.13481	0.19661	0.10387	0.099546	0.4157	0.23615	0.082834	0.051077	0.1957	0.1542	0.34319	0.078918	0.1676	0.024814	-2.5875	-2.4813	-2.6292	-3.1063	-2.4167	-3.0458	-2.875	-2.575	-3.1688	-2.4646	-2.8229	-3.1125	-2.5229	-3.0458	-2.8104	-2.6021	83.710	24.882	-45.814	294.560	214.674	17.511	-46.000	-46.041	220.933	203.293	200.098	-6.137	1.849	287.171	52.098	105.252	8.7005e-05	0.0011014	0.00018818	1211.5	3.2846e-06	5.1826e-06	1010.7	314.78	4.343e-06	3.8668e-06	288.98	85.143	84.259	17.854	2.0964e-06	25.891	0.0015475	0.0020053	0.00055838	1172.8	2.1121e-05	2.2253e-05	987.16	309.67	2.0841e-05	2.1528e-05	287.58	85.519	83.442	18.121	2.1651e-05	26.03	125.447	66.137	24.666	-35.765	12.185	117.227	-36.541	-32.436	18.397	31.560	-33.346	-29.573	-28.417	-24.345	172.957	-25.180	-8191	255	
4514.119	1	1	0	0	0.12343	0.23099	0.084943	0.19659	0.15461	0.05733	0.17267	0.054917	0.22764	0.079257	0.071809	0.069313	0.16288	0.081312	0.13117	0.17449	-2.7188	-2.2979	-2.5708	-3.2854	-2.3708	-2.9125	-2.85	-2.5125	-3.1729	-2.6792	-2.5979	-3.05	-2.4	-2.8271	-2.75	-2.4958	296.961	171.110	124.131	292.592	146.192	38.605	246.885	103.727	33.674	19.661	244.561	249.309	-29.912	275.298	173.529	282.220	8.9401e-05	0.0011205	0.00019507	1204.3	3.2941e-06	6.1811e-06	998.51	316.07	5.4889e-06	1.2796e-05	287.92	84.437	82.939	17.661	1.267e-05	25.485	0.0015358	0.0020024	0.00055606	1171.1	2.0891e-05	2.2454e-05	981.32	309.16	2.1402e-05	2.1458e-05	285.74	85.202	83.068	18.016	2.1817e-05	25.696	66.207	33.058	-15.322	-35.978	82.779	105.163	-36.375	-32.239	92.286	100.137	-32.869	-29.764	-28.115	-24.491	115.679	-24.323	-8191	255	
4514.215	1	1	0	0	0.1965	0.13063	0.11771	0.20497	0.32083	0.14986	0.15659	0.18603	0.098512	0.15119	0.29147	0.14557	0.010544	0.15872	0.072137	0.27361	-2.7812	-2.6396	-2.5479	-3.0146	-2.4125	-2.6688	-2.9125	-2.45	-3.0563	-2.6792	-2.5708	-3.1792	-2.5438	-2.9042	-2.9729	-2.6188	107.799	142.055	-8.205	276.201	160.849	-6.789	237.237	152.780	-8.844	127.777	146.275	188.601	302.756	-31.753	47.323	190.530	6.7171e-05	0.0012334	9.6338e-05	1213.8	5.9381e-06	2.0633e-06	994.97	313.98	6.7124e-06	9.7743e-06	289.29	85.845	84.217	17.541	5.0549e-06	25.106	0.0015085	0.0020157	0.00056141	1173.3	2.098e-05	2.2449e-05	980.85	308.19	2.1375e-05	2.2111e-05	286.87	85.467	83.53	17.911	2.2038e-05	25.669	47.971	11.454	78.765	-36.053	-24.702	244.599	-36.555	-32.247	37.292	201.644	-33.723	-29.492	-28.594	-24.885	-21.477	-25.447	-8191	255	
4514.336	1	1	0	0	0.077054	0.13605	0.44672	0.099353	0.040904	0.11652	0.14039	0.36308	0.25017	0.10403	0.029834	0.1838	0.19584	0.10958	0.0337	0.15752	-2.6396	-2.8125	-2.4062	-3.2938	-2.5687	-2.4813	-3.0417	-2.5708	-2.9562	-2.9083	-2.5396	-3.1063	-2.5604	-2.7167	-3.1229	-2.5583	300.283	175.922	246.126	240.129	65.190	-46.307	189.077	265.877	106.399	131.069	-31.911	141.402	270.182	245.011	279.937	248.253	5.6876e-05	0.00039422	0.00023139	1209.5	4.2871e-06	8.1743e-06	1001.6	318.63	4.5377e-06	3.1595e-06	288.53	85.651	83.8	17.882	3.4402e-06	25.405	0.0015108	0.0019774	0.00055785	1174	2.0755e-05	2.1896e-05	982.15	309.76	2.0995e-05	2.1377e-05	286.48	85.519	83.541	18.117	2.1031e-05	25.833	30.941	56.371	44.604	-36.012	116.050	91.931	-36.480	-32.175	106.126	-44.941	-33.088	-30.003	-28.829	-24.461	-32.230	-24.276	-8191	255	
4514.432	1	1	0	0	0.18685	0.31336	0.23053	0.12906	0.16889	0.27923	0.19722	0.13118	0.07907	0.23954	0.10135	0.37174	0.03816	0.21822	0.1131	0.057623	-2.4375	-2.8042	-2.4896	-3.1771	-2.675	-2.5604	-3.2833	-2.6208	-2.8729	-2.775	-2.6229	-3.1458	-2.6813	-2.5563	-3.05	-2.5208	-33.300	111.898	13.928	-33.470	174.638	185.551	-23.526	-14.648	101.917	155.034	258.265	259.729	-35.642	53.371	109.341	226.657	6.0154e-05	0.001145	8.5248e-05	1212.3	1.7794e-06	4.783e-06	1008.4	317.73	1.196e-06	3.1087e-06	289.88	85.745	83.552	17.721	7.1432e-06	25.873	0.0014848	0.0019782	0.00054499	1174.3	2.0676e-05	2.1744e-05	986.76	309.71	2.0274e-05	2.1236e-05	287.83	85.828	83.616	18.008	2.0451e-05	26.106	165.343	-0.937	59.583	-35.983	11.022	215.214	-36.181	-32.177	15.089	115.061	-33.155	-29.640	-28.263	-25.020	59.652	-24.789	-8191	255	
4514.528	1	1	0	0	0.088186	0.17306	0.16092	0.23223	0.079817	0.069604	0.055161	0.29556	0.13335	0.18153	0.29974	0.26349	0.075466	0.2415	0.29223	0.26395	-2.3396	-3.0187	-2.2917	-3.1667	-2.7188	-2.3771	-3.2646	-2.4333	-2.8146	-2.8937	-2.6979	-2.9979	-2.7625	-2.3667	-2.9875	-2.6417	289.485	146.359	115.163	299.741	14.770	185.164	272.324	180.326	287.474	195.027	308.559	245.777	232.317	203.926	181.303	19.699	0.00016749	0.00046808	0.0001426	1210.5	1.6084e-06	3.5298e-06	1007.9	319.4	4.9732e-06	6.5766e-06	291.14	86.052	83.82	18.004	4.8194e-06	25.461	0.0015054	0.0019539	0.00054415	1176.2	2.058e-05	2.1904e-05	987.82	311.21	2.1641e-05	2.2004e-05	288.66	86.226	84.104	18.263	2.1261e-05	26.039	86.020	49.115	35.527	-35.832	178.957	218.105	-36.792	-32.031	178.615	154.065	-33.287	-29.597	-28.428	-24.383	-34.515	-24.580	-8191	255	
4514.649	1	1	0	0	0.17605	0.12467	0.085756	0.25027	0.28264	0.15465	0.26937	0.17676	0.31806	0.24352	0.28342	0.16041	0.13204	0.11371	0.14748	0.079562	-2.275	-2.9083	-2.2208	-3.0729	-2.4813	-2.4271	-3.2583	-2.6083	-2.6542	-3.1125	-2.4333	-2.8229	-2.7417	-2.6146	-3.1604	-2.5396	-16.733	-4.553	13.794	278.212	258.761	107.098	243.251	252.110	-4.357	211.989	289.171	185.991	303.057	-10.467	42.561	182.753	6.4266e-05	0.0007383	0.00016781	1211.2	5.11e-06	1.3628e-05	1018.2	315.33	6.8767e-06	3.1294e-06	291.78	85.604	83.725	17.811	9.102e-06	25.268	0.0015257	0.0020127	0.00056654	1175.2	2.1107e-05	2.235e-05	990.21	310.41	2.1561e-05	2.2008e-05	289.28	85.669	84.211	18.211	2.1755e-05	25.931	45.932	-1.399	-30.475	-35.700	18.561	287.915	-36.347	-32.359	48.334	146.166	-33.010	-30.262	-28.400	-23.651	88.873	-24.812	-8191	255	
4514.719	1	1	0	0	0.043319	0.051125	0.061908	0.14787	0.20599	0.2477	0.024667	0.14795	0.092036	0.21318	0.23264	0.18397	0.21447	0.19187	0.37198	0.27204	-2.1271	-3.0729	-2.3833	-2.9021	-2.8708	-2.5125	-3.05	-2.8167	-2.6208	-2.9479	-2.4979	-2.75	-3.05	-2.5563	-3.0708	-2.6042	197.854	-4.081	54.019	289.054	253.214	84.486	44.969	291.544	298.003	234.225	245.680	69.364	242.715	190.244	154.696	269.511	9.2829e-05	0.00060742	0.00017017	1213.6	3.9955e-06	8.4691e-06	1014.2	317.56	6.2525e-06	4.9506e-06	285.82	86.027	83.235	17.895	8.1249e-07	25.323	0.0015776	0.0020167	0.00056256	1173.5	2.0861e-05	2.2714e-05	990.07	310.95	2.1658e-05	2.2851e-05	286.59	85.798	83.526	18.157	2.1996e-05	26.002	27.880	2.397	14.495	-35.715	82.278	264.591	-36.856	-32.154	99.403	151.767	-33.170	-29.886	-28.434	-23.940	134.149	-24.734	-8191	255	
4514.816	1	1	0	0	0.24833	0.30341	0.24704	0.24939	0.29726	0.082131	0.20391	0.14343	0.14485	0.22607	0.10947	0.15648	0.17636	0.047818	0.12466	0.12861	-1.9229	-3.0771	-2.4771	-2.775	-2.9875	-2.5563	-3.0958	-2.7938	-2.575	-3.0271	-2.4021	-2.6083	-3.0917	-2.2646	-2.9375	-2.75	290.067	172.918	-15.307	275.076	279.598	159.691	300.593	295.504	36.367	143.450	297.278	148.597	288.288	90.229	293.993	-12.404	0.00014254	0.00096518	0.00020429	1209.5	5.9995e-06	3.6909e-06	1008.9	318.98	4.9111e-06	1.3082e-05	290.03	85.787	84.437	18.017	6.372e-06	25.823	0.0015723	0.002028	0.00055563	1176.2	2.1543e-05	2.2148e-05	988.78	311.32	2.1673e-05	2.225e-05	288.4	86.42	84.282	18.322	2.1738e-05	26.296	129.895	18.599	44.636	-35.722	299.488	286.076	-36.332	-32.023	90.749	110.543	-33.049	-29.815	-28.487	-24.020	111.691	-25.468	-8191	255	
4514.935	1	1	0	0	0.037237	0.34026	0.095622	0.24196	0.1556	0.12271	0.11152	0.16807	0.11239	0.11126	0.10909	0.24903	0.23657	0.2107	0.32709	0.067888	-1.975	-2.9167	-2.375	-2.7125	-3.0354	-2.5021	-2.8563	-2.9	-2.3229	-2.9167	-2.7292	-2.6229	-3.1625	-2.2417	-2.7417	-2.9667	160.839	178.215	17.640	-38.405	57.520	148.208	297.620	185.509	266.085	263.144	305.269	304.862	250.012	67.246	-28.957	263.843	2.2989e-05	0.0014676	6.821e-05	1213.4	1.8935e-06	1.071e-05	1016.5	320.39	2.3015e-06	5.9015e-06	292.49	86.844	84.755	18.081	7.8397e-06	26.237	0.0015257	0.0020166	0.00056184	1180.3	2.0989e-05	2.2397e-05	994.42	312.51	2.1032e-05	2.2358e-05	290.96	86.674	84.277	18.324	2.1817e-05	26.481	131.592	11.047	67.636	-35.842	141.982	76.331	-36.366	-31.781	-41.280	22.833	-32.893	-29.867	-28.183	-23.967	97.096	-25.727	-8191	255	
4515.031	1	1	0	0	0.16654	0.05708	0.18246	0.15537	0.032308	0.28145	0.082629	0.035114	0.13402	0.06118	0.16184	0.236	0.21696	0.27652	0.20542	0.059351	-2.1063	-2.8958	-2.4792	-2.6708	-3.0271	-2.4229	-2.9437	-2.9646	-2.3542	-3.0875	-2.8396	-2.5625	-3.2271	-2.3354	-2.7333	-2.9833	9.242	117.502	146.527	202.600	202.191	88.588	181.561	150.485	14.804	-29.129	309.618	261.488	64.959	271.050	88.011	277.857	6.9008e-05	0.0004049	0.0002243	1217.6	8.5496e-07	5.6487e-06	1018.4	321.57	4.1511e-06	9.5422e-06	292.51	86.417	83.945	17.866	4.3737e-06	25.19	0.0015571	0.0019831	0.00056789	1182.5	2.0741e-05	2.2366e-05	993.92	313.03	2.0901e-05	2.1937e-05	291	86.639	84.076	18.268	2.2255e-05	26.093	82.382	243.084	54.288	-35.956	59.227	100.194	-36.421	-31.773	130.187	134.652	-33.132	-29.587	-28.751	-23.730	131.997	-24.678	-8191	255	
4515.128	1	1	0	0	0.2272	0.15778	0.13872	0.16329	0.11894	0.15983	0.25936	0.17043	0.10548	0.28803	0.1908	0.19298	0.40049	0.29546	0.14679	0.03183	-1.9188	-2.7562	-2.6667	-2.5417	-3.1396	-2.5312	-2.8979	-3.2208	-2.3958	-3.0354	-2.7604	-2.5479	-2.8833	-2.5646	-2.6292	-3.0396	235.541	227.947	137.553	221.305	198.685	99.005	-48.633	259.980	285.976	286.117	213.742	265.202	-34.180	152.258	99.350	173.120	5.3537e-05	0.0006651	0.00014094	1216.1	8.8884e-06	7.2955e-06	1017.1	318.3	1.077e-05	5.4044e-06	290.39	85.994	83.937	17.889	9.1599e-06	25.424	0.0015452	0.0019889	0.00056787	1179.7	2.0918e-05	2.2135e-05	992.97	311.79	2.093e-05	2.225e-05	289.35	86.066	83.975	18.218	2.1943e-05	26.152	141.598	299.956	-10.862	-35.909	123.005	-12.827	-36.565	-31.749	193.083	95.594	-33.341	-29.812	-28.574	-24.672	51.861	-24.632	-8191	255	
4515.248	1	1	0	0	0.15993	0.031804	0.24879	0.2393	0.26193	0.21626	0.14393	0.17708	0.17323	0.20481	0.25598	0.030077	0.1787	0.052831	0.2235	0.10999	-1.95	-2.7812	-2.7271	-2.5083	-3.1104	-2.5812	-2.5917	-3.2188	-2.3354	-2.925	-2.85	-2.4167	-3.0542	-2.7208	-2.6667	-2.9375	85.428	252.362	297.097	-24.196	99.267	295.542	-42.497	-16.380	43.277	297.638	-41.634	66.106	235.810	87.572	301.325	94.310	0.00017968	0.00056937	0.00010732	1208.7	4.4061e-06	4.1102e-06	1012.3	319.34	2.1905e-06	1.1968e-05	293.7	85.735	84.732	18.106	9.072e-06	25.831	0.0015356	0.0020475	0.00056582	1177.4	2.0636e-05	2.2899e-05	992.37	312.28	2.1646e-05	2.2338e-05	291.09	86.331	84.245	18.344	2.1918e-05	26.157	142.053	161.742	51.011	-35.662	50.167	127.425	-36.725	-32.013	276.471	170.037	-33.168	-29.716	-28.428	-24.248	58.551	-23.933	-8191	255	
4515.344	1	1	0	0	0.19043	0.14958	0.10598	0.03021	0.38752	0.099509	0.35159	0.22125	0.23434	0.1184	0.34093	0.28503	0.21494	0.17582	0.32646	0.21458	-2.0229	-2.7417	-2.8271	-2.5062	-3.0812	-2.6083	-2.7021	-3.1458	-2.4479	-2.8854	-3.1188	-2.4021	-3.0083	-2.7875	-2.5312	-3.2687	110.357	292.326	80.153	-21.818	273.151	174.639	257.832	-43.993	29.162	173.594	-40.824	-5.982	170.303	19.714	163.528	118.144	0.0002116	0.00077705	0.00023173	1216.3	4.1323e-06	4.5793e-06	1009.9	319.26	4.2396e-06	1.2889e-05	291.85	86.569	84.463	18.17	6.8898e-06	25.88	0.0015346	0.0020722	0.00056274	1179.6	2.0874e-05	2.2314e-05	993.74	311.98	2.1128e-05	2.21e-05	290.45	86.389	84.07	18.374	2.1659e-05	26.205	99.414	29.774	22.593	-35.949	98.381	52.786	-36.622	-31.786	109.189	109.276	-33.087	-29.955	-28.825	-23.710	99.631	-24.365	-8191	255	
4515.416	1	1	0	0	0.1399	0.15596	0.21423	0.3099	0.15331	0.19589	0.2469	0.42875	0.11293	0.17716	0.24036	0.13763	0.0986	0.09821	0.18133	0.25193	-2.0229	-2.7229	-3.0271	-2.5854	-3.0125	-2.7833	-2.4229	-3.175	-2.5583	-2.6229	-3.0812	-2.5854	-2.8708	-2.8104	-2.2625	-3.0333	129.197	38.549	50.232	297.694	181.924	295.344	-43.115	284.343	82.477	10.530	198.588	259.192	-17.063	-41.495	270.901	-45.960	0.00010816	0.00087312	8.4176e-05	1220.9	6.7214e-06	9.0046e-06	1015.6	321.55	1.6351e-06	5.0399e-06	293.73	86.029	83.941	18.021	4.2206e-06	25.883	0.0015462	0.0020381	0.00055284	1184.1	2.1176e-05	2.2973e-05	997.24	312.77	2.2042e-05	2.2672e-05	291.97	86.739	84.115	18.373	2.2502e-05	26.506	76.033	79.258	77.220	-35.885	63.196	-24.994	-36.240	-32.014	10.547	17.696	-33.654	-29.259	-28.487	-23.946	83.691	-24.755	-8191	255	
4515.512	1	1	0	0	0.081334	0.27036	0.21118	0.075829	0.24214	0.095306	0.2157	0.11287	0.12194	0.11464	0.10551	0.13073	0.11123	0.35382	0.051152	0.26744	-2.0354	-2.5708	-2.9458	-2.4667	-2.875	-2.8646	-2.3833	-3.3146	-2.5292	-2.4625	-3.075	-2.3125	-2.7062	-2.9083	-2.4958	-3.0479	162.152	77.672	188.874	293.870	82.830	231.672	296.026	260.202	104.602	117.160	240.233	242.892	104.205	204.672	257.784	194.149	7.2382e-05	0.0017507	0.00023633	1213.7	9.3937e-06	7.4601e-06	1015.4	319.87	2.5052e-06	5.6061e-06	295.28	86.417	83.774	18.017	3.6216e-06	25.734	0.0016236	0.0020842	0.00058094	1179.5	2.1585e-05	2.3662e-05	994.66	312.07	2.2789e-05	2.3411e-05	291.65	86.842	84.151	18.333	2.2809e-05	26.337	79.712	-23.792	10.272	-35.863	180.628	-43.471	-36.427	-31.883	9.581	224.965	-33.198	-29.574	-28.466	-23.913	-28.571	-25.070	-8191	255	
4515.631	1	1	0	0	0.17715	0.27023	0.31986	0.24606	0.082607	0.1382	0.10498	0.16483	0.106	0.088739	0.26087	0.12905	0.27359	0.15918	0.14218	0.16958	-2.2938	-2.5146	-3.0229	-2.6229	-2.8604	-2.975	-2.3896	-3.0438	-2.7042	-2.5354	-3.1729	-2.7396	-2.6	-3.2479	-2.3354	-2.9729	82.471	61.028	205.622	307.216	278.730	56.818	261.576	176.297	35.615	285.423	255.961	261.826	237.160	50.672	174.419	271.575	4.5453e-05	0.0008996	0.00027209	1204.5	8.5302e-06	1.2165e-05	1014.7	319.19	7.3146e-06	2.8018e-06	293.39	85.321	83.312	17.924	5.5639e-06	25.298	0.0016143	0.0021429	0.00058793	1177.1	2.2429e-05	2.3517e-05	994.41	311.71	2.2809e-05	2.2892e-05	290.37	86.326	83.742	18.219	2.2414e-05	26.182	214.576	9.773	15.662	-35.737	151.901	157.480	-36.576	-32.077	63.936	127.526	-33.109	-29.791	-28.413	-23.878	28.367	-24.993	-8191	255	
4515.727	1	1	0	0	0.094308	0.12771	0.21591	0.017394	0.1693	0.062472	0.049495	0.17797	0.10397	0.30072	0.17964	0.1888	0.32306	0.2563	0.16797	0.021032	-2.4604	-2.3458	-3.0729	-2.5979	-2.5667	-3.0042	-2.5375	-2.8479	-2.8417	-2.4333	-3.2292	-2.6229	-2.7292	-3.0583	-2.4688	-2.8646	40.655	56.382	-27.847	102.651	292.924	220.699	278.156	198.238	27.469	269.614	-4.426	212.890	219.100	-35.458	300.634	132.796	2.8188e-05	0.00054045	0.00017444	1215	4.7228e-06	7.9922e-06	1015.6	318.57	2.6386e-06	5.5471e-06	292.31	85.608	83.858	18.039	4.3517e-06	25.761	0.0016337	0.0021234	0.00058264	1181.7	2.198e-05	2.3318e-05	994.2	311.46	2.2417e-05	2.3665e-05	291.24	86.566	83.888	18.331	2.2583e-05	26.304	194.265	48.904	14.977	-35.966	121.344	78.662	-36.527	-32.007	82.096	53.198	-32.962	-29.281	-28.567	-24.370	88.941	-25.454	-8191	255	
4515.823	1	1	0	0	0.084581	0.078088	0.093992	0.18145	0.315	0.23211	0.15708	0.13048	0.3364	0.07642	0.028981	0.16371	0.14936	0.14718	0.094369	0.10888	-2.5104	-2.5292	-2.9229	-2.7458	-2.4521	-3.1354	-2.6729	-3.0292	-2.9396	-2.4188	-3.3208	-2.7771	-2.5187	-3.2083	-2.6604	-2.9729	113.088	288.885	195.926	220.310	146.768	12.102	199.728	-4.149	170.952	60.353	297.012	240.185	27.362	29.000	38.366	178.065	6.7397e-05	0.001287	0.00018425	1223.4	6.1971e-06	5.2194e-06	1012.3	318.18	2.478e-06	5.3802e-06	291.26	86.98	83.354	17.923	5.7324e-06	25.955	0.0015852	0.0020617	0.00058165	1186.1	2.1668e-05	2.2522e-05	997.11	311.84	2.2218e-05	2.2512e-05	290.81	86.499	83.529	18.184	2.1924e-05	26.529	124.427	-10.495	118.069	-35.813	166.229	264.101	-36.541	-32.314	23.682	120.443	-33.498	-29.337	-28.338	-23.752	65.528	-25.048	-8191	255	
4515.920	1	1	0	0	0.19893	0.27196	0.045299	0.32495	0.11305	0.12931	0.4224	0.11263	0.1487	0.10281	0.20379	0.1253	0.18041	0.24831	0.029935	0.17654	-2.7854	-2.4292	-2.9146	-2.8875	-2.5542	-3.0229	-2.5458	-2.7354	-2.9813	-2.2938	-2.7417	-2.9917	-2.4708	-2.9813	-2.5708	-2.7375	110.642	-36.583	159.057	-46.281	-15.788	21.644	232.812	282.192	-12.906	89.013	48.660	267.603	271.981	292.790	264.629	167.451	4.3311e-05	0.0011069	0.00015213	1221.8	3.0332e-06	5.7821e-06	1023.2	319.95	8.392e-06	6.3355e-06	293.85	85.721	82.826	17.644	2.0656e-06	25.675	0.0015825	0.0020579	0.00057609	1186.6	2.1952e-05	2.2354e-05	997.74	312.75	2.1618e-05	2.2571e-05	292.26	86.178	83.163	18.107	2.2643e-05	26.371	29.273	47.898	73.392	-35.749	8.711	161.563	-36.354	-32.246	75.476	-1.327	-33.597	-29.565	-28.380	-23.902	-16.473	-25.275	-8191	255	
4516.016	1	1	0	0	0.094752	0.19877	0.15754	0.13827	0.14793	0.2728	0.14238	0.31856	0.17441	0.22034	0.12451	0.28219	0.36417	0.1398	0.21924	0.11902	-2.7417	-2.5125	-2.7687	-3.0771	-2.5521	-3.1667	-2.8104	-2.725	-3.0375	-2.3063	-2.7854	-2.8688	-2.375	-2.9271	-2.6396	-2.5646	179.297	-46.413	165.745	283.569	260.255	-41.657	224.050	-28.907	21.714	-32.969	191.801	282.883	-21.559	288.733	170.141	-22.728	0.00011825	0.00056102	0.00032035	1216.5	4.1908e-06	2.2511e-06	1008.4	318.29	6.6427e-06	1.0348e-05	291.29	85.282	83.018	17.894	3.3131e-06	25.517	0.0015615	0.0021154	0.00058163	1181.9	2.1253e-05	2.327e-05	993.13	311.37	2.2037e-05	2.2649e-05	290.7	85.764	83.055	18.108	2.241e-05	26.27	24.265	237.631	4.195	-35.781	116.937	63.564	-36.310	-32.397	130.913	199.005	-32.657	-29.198	-28.164	-23.962	236.176	-24.486	-8191	255	
4516.112	1	1	0	0	0.13839	0.23578	0.18481	0.13773	0.084737	0.093297	0.13356	0.24954	0.16975	0.10963	0.11152	0.19195	0.086669	0.23864	0.13151	0.12548	-2.7792	-2.3583	-2.6708	-3.0854	-2.3479	-2.9813	-2.7	-2.5187	-2.9708	-2.4979	-2.9938	-3.0208	-2.3292	-2.9938	-2.7667	-2.6	192.508	204.875	95.596	35.560	225.806	89.661	252.894	294.762	134.391	166.736	259.513	-11.467	24.135	79.480	242.161	77.391	0.00010967	0.00053427	0.00013175	1220.7	2.522e-06	6.1851e-06	1011.5	317.03	6.7506e-06	8.4526e-06	295.4	85.44	82.148	17.803	8.2176e-06	26.032	0.0015894	0.0020925	0.00057908	1182.1	2.1282e-05	2.2746e-05	996.26	310.4	2.1513e-05	2.3174e-05	291.73	85.85	82.657	18.145	2.2361e-05	26.447	72.356	123.307	28.408	-35.705	68.131	122.242	-36.320	-32.231	70.259	8.176	-33.631	-29.476	-28.672	-23.953	56.537	-25.015	-8191	255	
4516.208	1	1	0	0	0.047158	0.35463	0.3166	0.079561	0.028203	0.072871	0.10513	0.23166	0.23733	0.14971	0.26444	0.28534	0.15095	0.21593	0.13949	0.084053	-2.5271	-2.5354	-2.6292	-3.1667	-2.4521	-2.9188	-2.8438	-2.4813	-3.2146	-2.6333	-2.6042	-3.1125	-2.4208	-2.8833	-3.0042	-2.3833	184.452	178.469	278.859	116.757	83.747	-32.752	261.694	266.273	208.654	168.103	255.087	-35.969	304.833	286.033	156.201	-27.290	0.00010132	0.00051915	5.2114e-05	1218.1	4.6397e-06	7.2758e-06	1023.2	318.02	4.3268e-06	5.0349e-06	295.5	86.041	82.767	18.002	7.9545e-06	26.275	0.0015813	0.0020569	0.00057247	1184.8	2.1262e-05	2.3456e-05	1002.2	311.74	2.1595e-05	2.2589e-05	292.62	86.585	83.127	18.315	2.2376e-05	26.43	151.814	4.881	2.379	-35.618	233.035	64.051	-35.921	-32.200	304.531	187.287	-33.439	-29.371	-28.692	-23.830	78.525	-25.288	-8191	255	
4516.329	1	1	0	0	0.028162	0.099622	0.11926	0.27381	0.22744	0.087328	0.037536	0.33218	0.24512	0.038425	0.33494	0.19794	0.091694	0.11928	0.15439	0.30139	-2.7521	-2.5292	-2.5625	-3.3979	-2.5042	-2.9437	-3.0021	-2.4167	-2.8375	-2.8146	-2.6354	-3.1521	-2.6958	-2.7812	-2.9625	-2.3667	15.685	114.244	121.200	216.607	104.392	99.677	25.973	237.853	-40.592	132.495	305.897	213.776	218.283	1.717	140.944	275.381	0.00010712	0.00078385	0.00024714	1223.3	8.9939e-06	3.5494e-06	1012.5	319.34	4.1585e-06	6.7567e-06	293.1	86.034	82.952	17.75	6.7468e-06	25.707	0.0015944	0.0020215	0.00058966	1190.5	2.1052e-05	2.268e-05	1004.2	311.91	2.115e-05	2.2075e-05	291.89	86.112	83.25	18.165	2.1949e-05	26.359	138.405	34.061	77.801	-35.727	84.703	66.009	-36.455	-32.427	114.318	142.816	-33.717	-29.826	-29.095	-24.233	71.360	-25.056	-8191	255	
4516.425	1	1	0	0	0.23282	0.20176	0.061067	0.047611	0.18781	0.1193	0.22298	0.21679	0.23147	0.10851	0.22025	0.13284	0.10045	0.13391	0.31378	0.37144	-2.725	-2.7125	-2.5292	-3.2313	-2.4083	-2.8354	-3.1854	-2.675	-3.1375	-2.9146	-2.5896	-3.0417	-2.375	-2.6854	-3.1188	-2.4104	70.820	53.538	170.465	94.748	-3.800	136.347	-46.397	261.597	130.962	193.064	25.568	46.692	256.790	117.701	50.760	263.384	0.00012244	0.0001927	0.00025222	1225.2	4.5199e-06	1.0828e-05	1017.9	320.43	3.6323e-06	3.1072e-06	293.14	85.842	82.683	17.883	4.8439e-06	25.697	0.0015641	0.0020532	0.00056907	1189.7	2.1665e-05	2.2657e-05	999.5	312.88	2.1515e-05	2.2097e-05	290.38	85.881	82.925	17.997	2.147e-05	26.006	90.446	190.619	9.162	-35.368	243.866	111.691	-36.555	-32.285	257.498	198.118	-32.885	-29.876	-27.955	-24.221	101.071	-25.252	-8191	255	
4516.521	1	1	0	0	0.22991	0.22322	0.14019	0.28967	0.16668	0.23094	0.14199	0.026436	0.2843	0.078299	0.26631	0.093262	0.17972	0.17387	0.2129	0.20754	-2.5229	-2.7875	-2.4	-3.2125	-2.6063	-2.5104	-2.9208	-2.6354	-2.8521	-2.775	-2.5479	-3.2313	-2.6104	-2.5958	-3.0083	-2.3625	176.331	61.838	64.494	247.322	114.446	-50.008	270.523	-15.337	154.476	151.446	112.890	155.840	246.508	254.621	-8.048	220.478	0.00011016	0.00081261	0.0002646	1229.1	2.2761e-06	3.4297e-06	1015.6	316.46	4.9856e-06	6.6782e-06	290.36	85.88	82.725	17.648	7.5474e-06	25.516	0.0015629	0.002013	0.00055761	1188	2.1193e-05	2.2793e-05	998.81	310.06	2.1578e-05	2.2054e-05	289.34	85.792	82.931	17.925	2.2115e-05	26.039	90.187	33.307	-14.867	-35.745	73.744	103.994	-36.285	-32.218	96.544	147.065	-33.334	-29.749	-28.625	-24.255	123.278	-24.714	-8191	255	
4516.617	1	1	0	0	0.039474	0.077123	0.1483	0.42946	0.20774	0.12892	0.1391	0.45826	0.1404	0.28757	0.019976	0.37713	0.048582	0.047088	0.055007	0.28303	-2.3896	-2.8625	-2.3021	-3.2313	-2.6979	-2.5771	-3.2229	-2.4896	-2.825	-2.9417	-2.4104	-2.9854	-2.6312	-2.3667	-2.9	-2.4271	7.708	297.080	-6.987	283.872	167.845	173.018	183.150	268.338	246.433	122.029	225.716	269.626	93.974	284.182	168.715	120.377	5.9529e-05	0.0012045	0.00019145	1219.9	2.008e-06	1.2832e-05	1022.8	318.01	2.4773e-06	5.1789e-06	293.65	84.891	83.302	17.589	5.4031e-06	25.606	0.0015796	0.0020352	0.00055881	1184.5	2.0804e-05	2.2223e-05	998.63	310.27	2.1602e-05	2.2148e-05	290	85.144	82.683	17.898	2.1698e-05	26.149	105.025	16.530	41.068	-36.033	174.097	158.771	-36.321	-31.933	98.325	94.066	-33.334	-29.443	-28.572	-23.788	-39.763	-25.798	-8191	255	
4516.711	1	1	0	0	0.1996	0.29308	0.14764	0.18779	0.23089	0.051843	0.19359	0.3131	0.2666	0.26343	0.074767	0.065076	0.068414	0.11374	0.29156	0.26345	-2.3292	-2.8812	-2.4521	-3.1479	-2.7	-2.55	-3.1167	-2.475	-2.6292	-2.9771	-2.4104	-2.9104	-2.8125	-2.5042	-2.9708	-2.6896	129.318	-33.743	-25.357	242.653	79.310	6.447	234.984	227.232	215.666	-47.562	-14.302	267.405	246.553	154.506	110.888	185.065	0.0001131	0.00021933	0.00023503	1221.1	7.2628e-06	1.0638e-05	1017.9	318.3	2.6289e-06	4.8471e-06	292.34	84.946	82.69	17.604	1.6061e-06	25.156	0.0015209	0.002015	0.00055861	1183.3	2.0883e-05	2.1975e-05	1000.1	311.53	2.1367e-05	2.233e-05	289.55	85.426	82.375	17.846	2.1154e-05	25.983	145.595	88.066	90.136	-35.732	118.254	115.384	-36.813	-32.159	52.809	189.133	-33.238	-29.567	-28.149	-24.524	95.096	-24.324	-8191	255	
4516.808	1	1	0	0	0.078066	0.12342	0.22393	0.16379	0.074488	0.11566	0.052792	0.31598	0.43703	0.024328	0.13386	0.21295	0.046657	0.11663	0.29687	0.046179	-2.3688	-3.1167	-2.475	-3.1396	-2.8833	-2.3042	-3.2521	-2.6896	-2.6271	-3.1417	-2.3292	-2.7521	-2.9792	-2.3542	-2.9562	-2.6312	170.071	291.544	229.349	306.001	187.774	80.676	-24.709	247.287	-35.812	19.151	217.019	56.247	176.369	55.787	100.279	202.488	8.0512e-05	0.00018778	0.00023189	1211.7	7.082e-06	4.2475e-06	1016.9	316.74	7.398e-06	3.8672e-06	290.9	84.342	82.613	17.455	6.8579e-06	25.102	0.0015186	0.0019637	0.0005589	1178.2	2.0826e-05	2.1626e-05	995.42	309.41	2.074e-05	2.2152e-05	288.11	84.603	82.451	17.76	2.1329e-05	25.671	122.290	211.110	-5.812	-35.847	143.239	30.476	-36.437	-31.965	51.975	101.528	-33.186	-29.877	-28.006	-23.866	142.681	-24.904	-8191	255	
4516.928	1	1	0	0	0.098421	0.15969	0.19653	0.21881	0.1837	0.083823	0.22673	0.375	0.1427	0.16316	0.1134	0.17829	0.17662	0.066258	0.055802	0.29559	-1.9625	-3.0646	-2.4458	-3.0563	-2.9896	-2.4396	-3.0875	-2.8521	-2.4333	-3.2167	-2.4	-2.8125	-3.2104	-2.2542	-2.8063	-2.7833	303.776	162.795	270.491	262.632	69.694	109.427	-33.560	260.177	299.253	179.353	43.127	289.480	226.776	-38.336	-38.465	205.602	0.00011772	0.00094074	0.00010753	1214	6.5529e-06	9.0371e-06	1012.5	314.93	3.5142e-06	5.2642e-06	287.96	83.751	81.578	17.272	2.9591e-06	24.932	0.0015451	0.0019943	0.00055483	1175.6	2.0607e-05	2.1781e-05	992.29	308.53	2.1251e-05	2.1633e-05	286.79	84.228	81.976	17.655	2.1202e-05	25.402	117.908	59.840	-16.256	-35.831	247.868	84.790	-36.561	-31.781	190.796	58.203	-33.487	-29.559	-28.749	-24.560	29.796	-24.960	-8191	255	
4517.024	1	1	0	0	0.28633	0.039371	0.21772	0.36917	0.20952	0.13259	0.33904	0.070446	0.18311	0.11012	0.1695	0.18577	0.096008	0.36388	0.11599	0.14974	-1.9229	-3.0333	-2.5125	-2.6375	-2.9604	-2.3625	-2.9417	-2.9792	-2.2875	-3.0417	-2.4979	-2.7104	-3.0229	-2.3708	-2.8688	-2.8354	173.882	255.347	99.066	268.251	109.899	241.722	267.689	1.769	71.823	123.962	112.095	143.271	30.501	246.825	252.831	151.256	9.1937e-05	0.00036126	0.00027739	1200.8	3.1996e-06	6.6607e-06	1012.9	313.86	8.0949e-06	2.8407e-06	289.55	83.416	81.325	17.293	4.5264e-06	24.657	0.0015095	0.0020032	0.00055358	1171.8	2.0514e-05	2.1696e-05	990.18	306.81	2.0572e-05	2.1683e-05	285.87	83.744	81.227	17.526	2.0906e-05	25.159	169.289	59.223	-2.864	-35.947	138.690	308.854	-36.374	-32.015	141.477	263.117	-33.470	-29.772	-28.080	-24.020	38.960	-24.388	-8191	255	
4517.121	1	1	0	0	0.057929	0.20755	0.18003	0.1183	0.14334	0.069409	0.20662	0.19377	0.043877	0.057592	0.15049	0.13045	0.28242	0.22748	0.075653	0.16501	-1.9729	-3.1042	-2.6937	-2.7333	-3.0333	-2.45	-3.0438	-3.0458	-2.4146	-3.0917	-2.7833	-2.6063	-3.225	-2.5958	-2.7479	-2.95	-33.118	27.831	-30.738	284.691	227.668	-46.148	-29.976	-1.439	-22.113	5.605	192.573	276.066	183.035	296.746	22.124	-28.694	9.2703e-05	0.00037293	0.00014674	1202	2.981e-06	9.8221e-06	1012.4	311.96	4.3868e-06	1.4384e-05	288.48	83.447	81.972	17.304	5.1997e-06	24.604	0.0014897	0.001961	0.00054653	1169.9	2.0491e-05	2.1712e-05	988.96	306.52	2.0382e-05	2.1773e-05	286.36	84.081	81.759	17.612	2.0944e-05	25.243	183.967	5.054	44.847	-35.615	-1.935	128.707	-36.533	-32.479	30.935	53.759	-33.633	-29.865	-28.859	-24.005	-11.939	-25.000	-8191	255	
4517.217	1	1	0	0	0.17475	0.12703	0.11964	0.15566	0.24269	0.17915	0.096247	0.036359	0.10373	0.12887	0.20917	0.20261	0.17993	0.059175	0.12852	0.16272	-1.7687	-2.9938	-2.8187	-2.6979	-3.1042	-2.4958	-2.6958	-3.1021	-2.4396	-3.0417	-3.0312	-2.5917	-3.0208	-2.7021	-2.6271	-3.175	-19.607	-33.755	151.517	240.584	-16.282	-7.195	214.825	29.203	-31.523	-15.267	200.037	38.272	97.469	111.610	293.372	305.850	0.00010662	0.00061971	0.00013872	1213	5.8175e-06	1.1706e-05	1009.4	314.59	3.6186e-06	5.8634e-06	286.59	82.319	81.073	17.235	8.7114e-06	24.776	0.0015121	0.0019349	0.0005356	1172.7	1.9813e-05	2.1653e-05	989.78	307.67	2.049e-05	2.1076e-05	285.95	83.383	81.269	17.441	2.0934e-05	25.167	117.420	5.805	-17.990	-36.088	234.930	83.171	-36.066	-31.269	145.084	231.251	-33.196	-30.425	-28.569	-24.619	141.723	-25.174	-8191	255	
4517.313	1	1	0	0	0.084529	0.089435	0.10398	0.24399	0.09375	0.19019	0.24924	0.34044	0.15254	0.027934	0.13048	0.071354	0.23318	0.19121	0.098788	0.26909	-2.0021	-2.9708	-2.9333	-2.6417	-3.0417	-2.6917	-2.7479	-3.1729	-2.4458	-2.8042	-2.925	-2.4979	-3.0771	-2.7167	-2.5583	-2.9813	262.789	143.616	-24.628	179.091	119.491	90.178	209.310	219.572	200.449	202.906	224.716	223.687	-6.853	253.311	178.766	127.289	8.5062e-05	0.00040014	0.00019578	1201.6	4.1914e-06	5.9119e-06	1005.1	312.73	3.8489e-06	5.1161e-06	286.7	83.968	81.965	17.234	5.9568e-06	24.94	0.0014701	0.001901	0.00053496	1168.2	1.9836e-05	2.1333e-05	982.78	306.14	2.0419e-05	2.1089e-05	284.49	84.051	81.48	17.529	2.0536e-05	25.212	95.516	273.413	-7.113	-36.114	0.491	85.423	-36.699	-32.114	167.752	64.871	-33.174	-29.743	-28.293	-23.923	56.349	-24.917	-8191	255	
#DATA ENDS
