BOXY.EXE: ISS Imagent and Oximeter Data Acquisition Program Version 0.80
Ascii Record File

#ACQ INFORMATION
2  Detector Channels 
16  External MUX Channels 
1  Auxiliary Channels 
5000  Waveform (CCF) Frequency (Hz)
1  Waveforms Skipped 
30  Waveforms Averaged 
1  Cycles Averaged 
16  Acquisitions per Waveform 
10.0806  Updata Rate (Hz) 

#FILE INFORMATION
TRUE -- External MUX Channel results are PARSED.
FALSE -- AC DC and Phase are NOT grouped.
TRUE -- Companion Program Settings File CREATED.
FALSE -- AC data not excluded
FALSE -- DC data not excluded
FALSE -- Phase data not excluded
FALSE -- Auxillary Chn. data not excluded
Tab delimiters

#CALIBRATION STATE
TRUE -- Waveform Calibration Values APPLIED.


#AUX CALIBRATION VALUES
Val Type	aux-1	

Term	1.0000e+00	
Factor	0.0000e+00	


#WF CALIBRATION VALUES
A = Detector Channel
Val Type	A-AC1	A-AC2	A-AC3	A-AC4	A-AC5	A-AC6	A-AC7	A-AC8	A-AC9	A-AC10	A-AC11	A-AC12	A-AC13	A-AC14	A-AC15	A-AC16	A-DC1	A-DC2	A-DC3	A-DC4	A-DC5	A-DC6	A-DC7	A-DC8	A-DC9	A-DC10	A-DC11	A-DC12	A-DC13	A-DC14	A-DC15	A-DC16	A-Ph1	A-Ph2	A-Ph3	A-Ph4	A-Ph5	A-Ph6	A-Ph7	A-Ph8	A-Ph9	A-Ph10	A-Ph11	A-Ph12	A-Ph13	A-Ph14	A-Ph15	A-Ph16	

Term	0.00000e+00	0.00000e+00	0.00000e+00	0.00000e+00	0.00000e+00	0.00000e+00	0.00000e+00	0.00000e+00	0.00000e+00	0.00000e+00	0.00000e+00	0.00000e+00	0.00000e+00	0.00000e+00	0.00000e+00	0.00000e+00	0.00000e+00	0.00000e+00	0.00000e+00	0.00000e+00	0.00000e+00	0.00000e+00	0.00000e+00	0.00000e+00	0.00000e+00	0.00000e+00	0.00000e+00	0.00000e+00	0.00000e+00	0.00000e+00	0.00000e+00	0.00000e+00	0.00000e+00	0.00000e+00	0.00000e+00	0.00000e+00	0.00000e+00	0.00000e+00	0.00000e+00	0.00000e+00	0.00000e+00	0.00000e+00	0.00000e+00	0.00000e+00	0.00000e+00	0.00000e+00	0.00000e+00	0.00000e+00	
Factor	1.00000e+00	1.00000e+00	1.00000e+00	1.00000e+00	1.00000e+00	1.00000e+00	1.00000e+00	1.00000e+00	1.00000e+00	1.00000e+00	1.00000e+00	1.00000e+00	1.00000e+00	1.00000e+00	1.00000e+00	1.00000e+00	1.00000e+00	1.00000e+00	1.00000e+00	1.00000e+00	1.00000e+00	1.00000e+00	1.00000e+00	1.00000e+00	1.00000e+00	1.00000e+00	1.00000e+00	1.00000e+00	1.00000e+00	1.00000e+00	1.00000e+00	1.00000e+00	X	X	X	X	X	X	X	X	X	X	X	X	X	X	X	X	

B = Detector Channel
Val Type	B-AC1	B-AC2	B-AC3	B-AC4	B-AC5	B-AC6	B-AC7	B-AC8	B-AC9	B-AC10	B-AC11	B-AC12	B-AC13	B-AC14	B-AC15	B-AC16	B-DC1	B-DC2	B-DC3	B-DC4	B-DC5	B-DC6	B-DC7	B-DC8	B-DC9	B-DC10	B-DC11	B-DC12	B-DC13	B-DC14	B-DC15	B-DC16	B-Ph1	B-Ph2	B-Ph3	B-Ph4	B-Ph5	B-Ph6	B-Ph7	B-Ph8	B-Ph9	B-Ph10	B-Ph11	B-Ph12	B-Ph13	B-Ph14	B-Ph15	B-Ph16	

Term	0.00000e+00	0.00000e+00	0.00000e+00	0.00000e+00	0.00000e+00	0.00000e+00	0.00000e+00	0.00000e+00	0.00000e+00	0.00000e+00	0.00000e+00	0.00000e+00	0.00000e+00	0.00000e+00	0.00000e+00	0.00000e+00	0.00000e+00	0.00000e+00	0.00000e+00	0.00000e+00	0.00000e+00	0.00000e+00	0.00000e+00	0.00000e+00	0.00000e+00	0.00000e+00	0.00000e+00	0.00000e+00	0.00000e+00	0.00000e+00	0.00000e+00	0.00000e+00	-1.41723e+02	-1.33427e+02	-1.27657e+02	-1.82643e+02	-7.29312e+01	-5.90420e+01	-1.56437e+02	-1.62015e+02	-7.50620e+01	-6.54826e+01	-1.75898e+02	-1.69904e+02	-1.79084e+02	-1.76332e+02	-7.30813e+01	-1.49000e+02	
Factor	2.19948e-05	1.76772e-04	4.22463e-05	1.51783e-01	1.32281e-06	2.01978e-06	1.85373e-01	5.47419e-02	1.24077e-06	1.63382e-06	9.98567e-02	3.00697e-02	2.75195e-02	9.87689e-03	1.39127e-06	1.39770e-02	7.96078e-06	1.06646e-05	2.96347e-06	7.91364e-02	1.10375e-07	1.18425e-07	9.07823e-02	2.86722e-02	1.12129e-07	1.17383e-07	5.04514e-02	1.53297e-02	1.45971e-02	5.20825e-03	1.14524e-07	7.14204e-03	X	X	X	X	X	X	X	X	X	X	X	X	X	X	X	X	



#DISTANCE SETTINGS
A = Detector Channel
A-1	A-2	A-3	A-4	A-5	A-6	A-7	A-8	A-9	A-10	A-11	A-12	A-13	A-14	A-15	A-16	

2.5000e+00	3.0000e+00	2.5000e+00	3.0000e+00	2.0000e+00	3.0000e+00	1.5000e+00	3.0000e+00	3.0000e+00	3.0000e+00	3.0000e+00	3.0000e+00	3.0000e+00	3.0000e+00	1.5000e+00	3.0000e+00	

B = Detector Channel
B-1	B-2	B-3	B-4	B-5	B-6	B-7	B-8	B-9	B-10	B-11	B-12	B-13	B-14	B-15	B-16	

1.0000e+01	1.0000e+01	1.0000e+01	1.4400e+00	1.0000e+01	1.0000e+01	1.5100e+00	1.9400e+00	1.0000e+01	1.0000e+01	1.9900e+00	2.4900e+00	2.4100e+00	2.9000e+00	1.0000e+01	2.9800e+00	




#DATA BEGINS
time	group	step	mark	flag	A-AC1	A-AC2	A-AC3	A-AC4	A-AC5	A-AC6	A-AC7	A-AC8	A-AC9	A-AC10	A-AC11	A-AC12	A-AC13	A-AC14	A-AC15	A-AC16	A-DC1	A-DC2	A-DC3	A-DC4	A-DC5	A-DC6	A-DC7	A-DC8	A-DC9	A-DC10	A-DC11	A-DC12	A-DC13	A-DC14	A-DC15	A-DC16	A-Ph1	A-Ph2	A-Ph3	A-Ph4	A-Ph5	A-Ph6	A-Ph7	A-Ph8	A-Ph9	A-Ph10	A-Ph11	A-Ph12	A-Ph13	A-Ph14	A-Ph15	A-Ph16	B-AC1	B-AC2	B-AC3	B-AC4	B-AC5	B-AC6	B-AC7	B-AC8	B-AC9	B-AC10	B-AC11	B-AC12	B-AC13	B-AC14	B-AC15	B-AC16	B-DC1	B-DC2	B-DC3	B-DC4	B-DC5	B-DC6	B-DC7	B-DC8	B-DC9	B-DC10	B-DC11	B-DC12	B-DC13	B-DC14	B-DC15	B-DC16	B-Ph1	B-Ph2	B-Ph3	B-Ph4	B-Ph5	B-Ph6	B-Ph7	B-Ph8	B-Ph9	B-Ph10	B-Ph11	B-Ph12	B-Ph13	B-Ph14	B-Ph15	B-Ph16	aux-1	digaux	

4373.993	1	1	0	256	0.25171	0.061707	0.044795	0.23388	0.13597	0.12447	0.22241	0.1249	0.010059	0.39742	0.08582	0.12275	0.33411	0.49169	0.045082	0.2625	-2.0875	-2.9813	-2.3917	-2.55	-2.8042	-2.1625	-2.8917	-2.825	-2.225	-2.9458	-2.4667	-2.8167	-3.0396	-2.3083	-2.7479	-3.0667	144.378	-16.408	94.379	180.847	195.978	85.266	-62.883	97.675	209.194	77.195	200.371	-104.264	-115.813	212.089	55.794	148.013	0.00079457	0.00051819	0.00010585	1258.8	6.0777e-06	3.1863e-06	1296.2	369.9	5.9329e-06	8.6263e-06	516.54	238.98	166.2	67.457	1.0912e-05	99.43	0.00086399	0.00087652	0.0002435	1205.6	9.2619e-06	9.7363e-06	1262.3	356.78	9.5763e-06	9.7393e-06	497.55	233.17	161.38	65.587	9.7357e-06	96.755	189.227	-78.482	4.597	-119.120	10.211	44.730	-119.626	-115.610	-23.882	32.156	-116.390	-113.404	-112.623	-107.722	13.202	-109.162	-8191	255	
4374.089	1	1	0	0	0.23759	0.18095	0.069226	0.095689	0.081506	0.26295	0.35809	0.24338	0.22562	0.26874	0.25792	0.1311	0.32975	0.084253	0.077487	0.11934	-1.8917	-2.9354	-2.3812	-2.5854	-2.9521	-2.3146	-3.0042	-2.9583	-2.325	-2.9833	-2.8667	-2.5729	-3.1333	-2.2979	-2.7146	-3.1104	77.201	47.254	11.617	215.278	-5.972	173.389	158.447	147.072	48.833	-88.199	111.427	224.883	161.167	-59.931	-39.981	34.212	0.00075511	0.001309	0.00030593	1235.9	6.374e-06	6.9991e-06	1299.1	363.4	2.6863e-06	8.8219e-06	513.39	239.84	166.83	67.775	5.2402e-06	99.943	0.00086577	0.00092675	0.00024668	1194.8	9.4909e-06	9.7646e-06	1255.6	352.6	9.4282e-06	9.765e-06	498.3	233.7	161.49	65.782	9.4129e-06	97.28	188.631	-71.828	-20.678	-119.141	14.877	30.346	-119.500	-115.543	13.275	26.141	-116.253	-113.493	-112.829	-107.805	-9.605	-108.662	-8191	255	
4374.208	1	1	0	0	0.16059	0.034584	0.17498	0.34265	0.18468	0.16506	0.2364	0.17074	0.052026	0.12783	0.11018	0.30956	0.12686	0.070019	0.22674	0.12587	-1.9813	-2.9896	-2.4125	-2.5979	-3.1292	-2.425	-2.8875	-3.0583	-2.2792	-3.0292	-2.7708	-2.6479	-3.0458	-2.35	-2.6771	-3.1937	84.623	9.415	199.677	181.137	87.598	29.746	158.112	189.859	-33.080	-117.670	140.936	185.563	224.348	224.117	79.526	177.065	0.00067878	0.00072903	0.00024619	1247.9	7.733e-06	1.3544e-05	1299.3	369.34	7.1501e-06	9.0924e-06	518.16	241.41	166.69	68.322	5.9435e-06	100.23	0.00088637	0.00088627	0.00025045	1198.8	9.1005e-06	1.0005e-05	1257.4	354.72	9.6463e-06	9.643e-06	500.13	234.84	162.22	66.128	9.9319e-06	97.983	188.383	-47.270	-33.021	-119.304	5.695	46.930	-119.536	-115.504	-5.413	20.738	-116.076	-113.578	-112.308	-107.734	63.853	-108.866	-8191	255	
4374.304	1	1	0	0	0.13332	0.26047	0.15521	0.20241	0.18634	0.15779	0.38831	0.3157	0.058866	0.17597	0.12112	0.29562	0.061623	0.13236	0.39862	0.19175	-1.925	-2.8312	-2.7542	-2.6333	-3.0563	-2.4104	-2.5604	-3.0375	-2.2583	-2.9542	-2.9062	-2.5479	-3.0542	-2.5958	-2.5396	-3.1042	141.791	129.335	107.722	-127.532	-7.649	-57.084	160.754	170.489	33.569	-130.014	195.782	131.220	72.552	-121.845	-22.385	146.009	0.00062375	0.00029781	0.0001987	1252.4	5.333e-06	1.4664e-05	1306	368.98	6.9702e-06	1.0652e-05	518.89	240.94	166.37	67.902	7.9219e-06	100.63	0.00085811	0.00087412	0.0002403	1204.2	9.2129e-06	9.5793e-06	1264.6	356.64	9.552e-06	9.6095e-06	501.95	234.79	161.92	65.825	9.8025e-06	97.709	192.483	-83.925	-86.954	-119.232	10.705	30.599	-119.765	-114.967	-31.430	37.718	-116.428	-113.564	-112.407	-107.670	-25.419	-108.734	-8191	255	
4374.378	1	1	0	0	0.12734	0.21516	0.13089	0.38447	0.16017	0.035881	0.032657	0.22816	0.053138	0.072849	0.23995	0.318	0.25342	0.18061	0.10292	0.21918	-1.9688	-2.8125	-3.0229	-2.5687	-2.8333	-2.5021	-2.6146	-3.1208	-2.4167	-2.7083	-3.0396	-2.3354	-3.0187	-2.65	-2.225	-3.1417	-45.015	120.531	23.794	188.730	179.156	-126.612	92.031	169.360	75.981	14.139	143.478	139.717	130.693	210.162	159.287	-93.926	0.0006092	0.001126	0.00036483	1251.5	7.8028e-06	4.4503e-06	1299.4	364.95	2.8835e-06	9.2276e-06	511.05	237.26	163.84	66.985	7.1645e-06	97.967	0.00084898	0.00090054	0.00024507	1204.1	9.3396e-06	9.7669e-06	1256.6	352.91	9.4679e-06	9.8396e-06	494.89	231.37	159.87	65.014	9.5196e-06	96.013	186.732	-40.114	-28.806	-119.614	6.288	85.842	-120.043	-115.286	11.243	-2.107	-116.049	-113.701	-113.013	-107.803	-8.259	-109.076	-8191	255	
4374.497	1	1	0	0	0.24046	0.18659	0.090329	0.22485	0.12195	0.42917	0.18287	0.15916	0.16164	0.10361	0.1172	0.1182	0.22211	0.12261	0.27657	0.11341	-1.8854	-2.7313	-2.9583	-2.5625	-2.9083	-2.6208	-2.6937	-3.0583	-2.4208	-2.775	-2.975	-2.5312	-3.0042	-2.8312	-2.3187	-2.9208	-101.088	51.689	30.235	211.430	-57.736	82.915	114.257	144.259	45.579	41.674	35.206	-96.388	214.397	100.041	62.806	196.073	0.0006485	0.0010643	0.00020427	1250.1	6.2883e-06	9.7321e-06	1291.9	364.7	5.8569e-06	7.2773e-06	512.21	238.03	164.45	66.357	6.3334e-06	98.421	0.00085452	0.00087841	0.00024387	1200.3	9.3904e-06	9.605e-06	1252.6	351.83	9.2651e-06	9.5396e-06	495.29	231.1	159.8	64.63	9.3681e-06	96.098	195.856	-82.975	-34.902	-119.435	-13.929	48.732	-119.819	-115.201	-30.771	12.091	-116.656	-113.755	-112.481	-107.863	13.151	-108.824	-8191	255	
4374.593	1	1	0	0	0.025963	0.37698	0.1063	0.068664	0.11621	0.20297	0.14972	0.3167	0.10941	0.17308	0.20759	0.15486	0.03978	0.034324	0.16701	0.33282	-1.9771	-2.6146	-3.0229	-2.5083	-2.8979	-2.7083	-2.3604	-3.1188	-2.5021	-2.4625	-3.2396	-2.6042	-2.8688	-2.8667	-2.3396	-2.925	100.644	-24.953	-63.992	-130.072	214.545	137.098	214.808	209.781	-5.985	-9.824	223.814	173.646	-107.373	192.277	225.733	182.256	0.00063528	0.0015531	0.00026475	1248.2	8.5493e-06	1.2476e-05	1286.2	362.89	6.1754e-06	6.4624e-06	506.15	237.3	162.93	66.664	7.6426e-06	98.006	0.00086988	0.00086266	0.00023424	1198.3	9.1076e-06	9.4076e-06	1249	350.2	9.2462e-06	9.2789e-06	490.69	230.15	158.32	64.528	9.2378e-06	96.124	191.569	-25.519	-46.747	-119.402	-7.668	27.075	-119.783	-115.316	-0.610	15.481	-116.359	-113.759	-112.442	-107.891	9.937	-108.841	-8191	255	
4374.689	1	1	0	0	0.27495	0.12052	0.081716	0.16605	0.17648	0.13093	0.19955	0.14429	0.031223	0.038735	0.30427	0.16321	0.091269	0.4566	0.16755	0.15516	-2.1917	-2.4313	-3.0208	-2.4958	-2.6542	-2.9167	-2.4583	-3.2938	-2.6771	-2.4813	-3.1146	-2.5417	-2.7229	-2.9042	-2.0854	-3.225	183.564	110.350	-131.179	142.084	-22.388	103.644	180.628	60.488	170.399	21.243	191.287	107.453	-119.898	219.972	-52.837	73.011	0.00063101	0.00073795	0.00014469	1243.6	5.2932e-06	1.7226e-05	1296.5	364.01	3.3562e-06	5.5782e-06	506.49	237.72	163.27	66.992	4.3775e-06	99.958	0.00084736	0.00086248	0.00024512	1198.3	9.2295e-06	9.7054e-06	1255.4	351.21	9.4202e-06	9.3711e-06	493.55	231.27	158.65	64.904	9.5651e-06	96.798	196.245	-60.481	-79.775	-118.928	10.421	50.499	-119.515	-115.271	-17.549	3.472	-116.025	-113.614	-112.988	-107.772	-70.169	-108.934	-8191	255	
4374.785	1	1	0	0	0.11092	0.20324	0.23172	0.18156	0.14517	0.12879	0.3118	0.24779	0.064818	0.12047	0.0089562	0.18463	0.3174	0.053753	0.21344	0.22589	-2.0812	-2.3021	-2.9104	-2.5604	-2.5667	-2.8896	-2.4958	-2.8854	-2.7167	-2.3438	-3.2854	-2.4229	-2.7021	-2.9417	-2.3312	-3.0896	-54.902	12.348	169.255	-47.024	-127.024	-102.392	207.876	201.606	-97.577	144.235	147.990	104.827	182.864	144.165	84.066	182.270	0.00070543	0.0011823	0.00019873	1254.4	1.069e-05	6.8857e-06	1298.3	363.77	2.6054e-06	7.3439e-06	509.81	237.2	163.72	66.742	5.6552e-06	99.424	0.00084464	0.0008839	0.00023714	1202	9.2336e-06	9.6916e-06	1255.8	351.77	9.6812e-06	9.6112e-06	493.35	231.26	158.84	64.75	9.4621e-06	96.681	186.142	-53.016	-59.118	-119.386	-11.867	-31.067	-119.515	-115.803	-31.315	24.180	-116.595	-113.478	-112.789	-107.685	38.823	-109.021	-8191	255	
4374.906	1	1	0	0	0.2084	0.069728	0.10791	0.11191	0.1611	0.20887	0.14238	0.38438	0.22667	0.21455	0.13157	0.25084	0.083193	0.080217	0.2027	0.059582	-2.4271	-2.1854	-3.0479	-2.5771	-2.4896	-2.9688	-2.5479	-2.9417	-2.7875	-2.4479	-2.9313	-2.7104	-2.6646	-3.1792	-2.4313	-2.8521	94.594	-46.261	58.099	210.211	47.979	0.147	148.441	-55.377	-84.384	52.665	223.252	207.900	90.456	146.996	103.427	-129.051	0.00063886	0.00078353	0.00026829	1251.9	3.4104e-06	7.1665e-06	1292.7	366.91	5.072e-06	9.6358e-06	510.87	237.45	162.83	66.628	7.9096e-06	99.509	0.0008751	0.00085777	0.00023656	1201.1	9.2058e-06	9.4676e-06	1251.5	352.75	9.2976e-06	9.7271e-06	494.28	231.31	158.88	64.599	9.4568e-06	96.669	194.355	-41.730	-46.409	-119.066	26.399	-15.900	-119.442	-115.538	-0.800	0.414	-116.247	-113.850	-112.691	-107.893	25.634	-109.427	-8191	255	
4374.977	1	1	0	0	0.047959	0.12473	0.070316	0.24021	0.099936	0.1897	0.23043	0.17432	0.18569	0.12084	0.1898	0.39424	0.41938	0.34191	0.16659	0.25961	-2.3667	-2.3229	-3.0417	-2.6458	-2.4333	-3.0875	-2.5458	-2.6542	-2.9292	-2.2646	-3.1083	-2.8083	-2.4833	-3.1146	-2.3979	-2.8063	189.439	67.536	-21.654	-88.777	-27.111	89.887	157.319	-19.278	67.666	-133.370	195.431	202.182	190.320	173.544	149.833	163.192	0.00069123	0.0014394	0.00013119	1255.8	4.1886e-06	7.5691e-06	1286.3	364.96	4.206e-06	1.0831e-05	509.94	236.82	163.21	67.005	4.9759e-06	99.189	0.00087957	0.00088921	0.00023802	1202.7	9.2499e-06	9.3827e-06	1253.4	352.54	9.4873e-06	9.6058e-06	495.89	230.92	158.51	64.609	9.5883e-06	96.495	188.968	-68.746	-14.631	-119.095	32.440	55.005	-119.808	-115.865	18.143	7.609	-116.588	-113.526	-113.020	-107.869	8.255	-109.247	-8191	255	
4375.098	1	1	0	0	0.033369	0.26718	0.08431	0.56834	0.060703	0.03324	0.28547	0.19989	0.2311	0.20669	0.11249	0.25587	0.24692	0.12073	0.18041	0.27916	-2.5167	-2.3438	-2.8542	-2.7958	-2.3792	-2.9917	-2.6604	-2.7625	-2.8979	-2.2292	-3.0125	-2.7271	-2.3937	-3.1375	-2.55	-2.7313	95.817	-7.385	223.201	200.330	93.657	98.522	176.443	164.040	79.683	-62.735	179.450	-130.047	-66.027	177.361	113.715	152.454	0.00053272	0.0010832	0.00025584	1251.7	6.3059e-06	6.5311e-06	1305.1	363.57	9.7238e-06	9.2515e-06	508.57	236.28	162.54	66.922	5.345e-06	99.282	0.00087928	0.0008675	0.00024273	1203.9	9.2414e-06	9.3018e-06	1259.1	351.2	9.3894e-06	9.7217e-06	493.22	230.55	157.72	64.618	9.6274e-06	96.732	188.237	-42.458	-47.107	-119.145	14.286	25.582	-119.740	-115.769	-8.618	18.310	-116.739	-113.563	-112.815	-108.253	-3.334	-109.096	-8191	255	
4375.194	1	1	0	0	0.15631	0.21044	0.066667	0.29318	0.20215	0.073968	0.21575	0.2787	0.1031	0.073662	0.16426	0.24713	0.0070579	0.30261	0.24557	0.14058	-2.45	-2.3417	-2.6833	-2.9375	-2.3396	-2.9104	-2.8375	-2.6146	-3.0417	-2.1562	-2.9896	-3.0875	-2.4896	-2.9625	-2.7208	-2.5625	161.577	-62.652	-37.770	191.459	-56.421	8.931	119.732	110.075	217.783	149.353	170.258	162.212	15.171	173.548	154.789	161.294	0.00065893	0.0010554	0.00032743	1256.2	7.6567e-06	1.4556e-05	1302.3	365.52	8.5909e-06	1.3539e-05	512.48	239.9	164.17	67.291	9.2515e-06	99.986	0.00086277	0.00087736	0.00023721	1206.7	9.3237e-06	9.2164e-06	1262.2	353.21	9.2749e-06	9.5809e-06	497.31	232.62	159.42	65.388	9.735e-06	97.884	187.878	-37.881	-26.099	-119.062	0.171	22.683	-119.613	-115.843	6.114	15.949	-116.401	-113.476	-112.860	-108.376	-11.268	-109.105	-8191	255	
4375.288	1	1	0	0	0.15427	0.12566	0.13969	0.29806	0.15979	0.021505	0.43771	0.20995	0.1864	0.18186	0.034092	0.10985	0.11269	0.16976	0.34964	0.22895	-2.4792	-2.2375	-2.4917	-2.9896	-2.3917	-2.9167	-2.8479	-2.5667	-3.0125	-2.4104	-2.7958	-2.9083	-2.4917	-2.9792	-2.725	-2.4896	56.877	-76.830	128.758	211.393	8.251	-98.174	169.556	162.038	134.334	-123.966	212.855	99.255	116.724	86.923	81.806	131.488	0.000692	0.0011468	0.00016765	1253.3	7.3593e-06	7.006e-06	1293	366.25	9.6881e-06	1.0626e-05	510.53	239.53	164.19	66.684	3.6382e-06	99.662	0.00087625	0.00090336	0.00025378	1207	9.2141e-06	9.7715e-06	1259	353.47	9.6702e-06	9.7917e-06	495.6	232.65	159.22	64.974	9.793e-06	97.011	187.602	-29.263	-43.853	-119.186	31.263	49.098	-119.606	-115.709	-26.062	10.356	-116.766	-113.438	-113.106	-108.290	58.439	-109.206	-8191	255	
4375.385	1	1	0	0	0.078765	0.20833	0.32802	0.36473	0.24272	0.011603	0.097399	0.13365	0.23927	0.10628	0.2367	0.23879	0.2859	0.21859	0.063129	0.16691	-2.7375	-2.3833	-2.7542	-3.0417	-2.375	-2.6312	-2.875	-2.4479	-3.0625	-2.5417	-2.7042	-3.1021	-2.3896	-2.9146	-2.7604	-2.3229	60.499	76.915	19.216	220.141	21.465	96.524	-98.479	59.267	150.927	202.552	148.053	207.376	184.784	-89.146	-26.605	168.840	0.00063551	0.0010538	0.00033833	1248.9	9.6694e-06	1.105e-05	1294	361.66	5.2545e-06	5.9503e-06	506.51	235.33	160.82	65.794	6.6946e-06	97.57	0.00086268	0.00090014	0.00025489	1202	9.4293e-06	1.015e-05	1253	349.49	9.7489e-06	9.5523e-06	490.27	228.75	156.17	63.752	9.8316e-06	95.143	180.959	-40.893	-49.973	-119.154	-0.121	37.383	-119.638	-115.881	1.939	39.186	-116.522	-113.366	-112.785	-107.798	-7.300	-108.823	-8191	255	
4375.505	1	1	0	0	0.0082672	0.16114	0.29663	0.1405	0.085925	0.092211	0.12611	0.50898	0.35831	0.19078	0.21712	0.49315	0.10648	0.10581	0.14469	0.20818	-2.5729	-2.4375	-2.3	-3.0854	-2.2479	-2.7229	-2.8354	-2.2792	-3.0083	-2.6688	-2.4896	-3.0958	-2.5062	-2.8021	-2.8021	-2.4958	84.577	9.710	177.970	183.323	147.338	-88.195	136.123	-130.983	-36.367	18.959	44.852	190.765	-88.203	135.444	46.803	168.052	0.00061953	0.00074271	0.00011656	1244.6	4.2725e-06	9.8738e-06	1291.1	358.9	7.627e-06	9.8096e-06	497.04	231.82	158.26	64.45	5.8996e-06	96.872	0.00085295	0.00089958	0.00024392	1198.4	9.5309e-06	9.9677e-06	1246.8	346.06	9.4174e-06	9.5444e-06	483.6	225.13	153.75	62.813	9.6644e-06	94.251	196.772	-6.872	-39.526	-119.043	31.264	23.639	-119.850	-115.644	-21.589	30.989	-116.675	-113.964	-112.979	-108.337	-77.820	-109.271	-8191	255	
4375.577	1	1	0	0	0.06236	0.11736	0.17828	0.1843	0.26784	0.17017	0.11788	0.057008	0.23427	0.21772	0.050985	0.31953	0.088434	0.149	0.18289	0.23951	-2.5062	-2.5583	-2.3292	-3.2333	-2.4167	-2.5146	-3.0563	-2.4062	-2.8458	-2.7375	-2.3563	-3.0354	-2.5229	-2.6437	-2.9062	-2.3167	27.323	14.420	36.672	169.909	-68.780	44.574	53.529	53.957	75.135	179.557	198.461	178.074	-75.813	0.321	-29.668	130.288	0.00061818	0.00078297	0.00028016	1240.7	2.2874e-06	1.5907e-05	1282.6	355.47	8.0998e-06	7.6183e-06	493.47	228.5	156.8	64.005	8.8535e-06	95.951	0.0008497	0.00087436	0.00024389	1191.8	9.2343e-06	9.9334e-06	1238.7	341.61	9.4513e-06	9.7227e-06	477.06	222.31	151.99	62.013	9.5971e-06	93.635	194.828	-37.052	-11.366	-119.197	84.898	17.570	-119.465	-115.676	-16.385	46.164	-116.559	-113.484	-112.690	-107.860	33.123	-109.038	-8191	255	
4375.673	1	1	0	0	0.056097	0.19495	0.36269	0.078751	0.26627	0.081519	0.21152	0.026174	0.38542	0.050807	0.050002	0.07089	0.11353	0.14101	0.033957	0.19084	-2.4979	-2.8292	-2.4	-3.0542	-2.6	-2.5479	-2.8271	-2.4104	-2.8688	-2.9021	-2.3583	-3.0646	-2.5271	-2.4958	-2.8104	-2.4896	203.456	26.577	216.170	167.853	81.888	-109.228	201.323	-53.700	165.757	13.489	-90.210	217.121	178.717	-81.967	122.314	116.664	0.00055989	0.0013763	0.00022623	1235.5	7.3647e-06	5.4416e-06	1281.7	350.34	3.9386e-06	2.7009e-06	489.3	227.27	154.62	63.578	4.4671e-06	94.923	0.00085913	0.00088301	0.0002471	1190.3	9.0857e-06	9.9867e-06	1238.5	338.37	9.7188e-06	9.7149e-06	474.3	221.8	151.06	61.507	9.5883e-06	92.927	198.179	-50.765	-36.656	-119.315	-7.746	26.692	-119.796	-115.277	-23.618	14.049	-116.475	-113.491	-112.852	-108.250	-12.480	-109.262	-8191	255	
4375.769	1	1	0	0	0.15923	0.39618	0.1695	0.14439	0.1404	0.063858	0.16243	0.27595	0.22171	0.16559	0.11656	0.4615	0.093485	0.13634	0.096347	0.18513	-2.2938	-2.6208	-2.2021	-3.0938	-2.7167	-2.4375	-3.2438	-2.5271	-2.6833	-2.9458	-2.3	-3.1	-2.7833	-2.4437	-2.9354	-2.5604	25.078	37.526	-42.846	185.837	38.962	90.967	-96.785	158.894	-4.358	-99.859	165.525	218.513	214.095	198.768	-55.615	190.396	0.0006633	0.0011202	0.00015926	1237.1	4.0953e-06	1.1714e-05	1278.5	354.35	8.0884e-06	6.1871e-06	492.99	228.09	156.96	63.411	7.1524e-06	95.603	0.00083922	0.00087805	0.000245	1186.1	9.4557e-06	9.6284e-06	1232.4	341.17	9.5246e-06	9.4987e-06	477.64	222.19	152.34	61.505	9.5601e-06	92.918	189.757	-44.625	-29.646	-119.429	7.892	31.010	-119.778	-115.769	-14.937	24.737	-116.688	-113.632	-112.769	-107.997	8.014	-109.204	-8191	255	
4375.888	1	1	0	0	0.16534	0.078789	0.15334	0.30633	0.085273	0.12576	0.095161	0.32147	0.18177	0.19339	0.36125	0.21147	0.09592	0.12624	0.22511	0.4469	-2.1063	-2.9437	-2.3583	-2.9958	-2.6375	-2.3667	-3.1083	-2.4542	-2.5542	-2.8083	-2.4417	-2.9479	-2.9104	-2.4125	-3.0396	-2.6333	130.947	-50.939	-28.592	175.613	41.423	119.717	82.685	125.926	-127.739	120.000	209.523	180.830	79.930	114.861	204.763	133.221	0.00059167	0.0016108	0.0002441	1234.4	5.5364e-06	4.8897e-06	1272.3	350.78	7.346e-06	5.4031e-06	493.83	229.51	155.38	63.353	6.3957e-06	95.411	0.00083313	0.00087699	0.00024762	1185.3	9.223e-06	9.6304e-06	1232.7	340	9.5092e-06	9.5953e-06	475.73	222.7	151.35	61.403	9.8161e-06	92.824	191.891	-48.603	-35.442	-119.263	4.684	35.092	-120.267	-115.445	-7.196	-13.309	-116.628	-113.617	-112.641	-108.565	9.976	-109.197	-8191	255	
4375.984	1	1	0	0	0.065125	0.029109	0.081236	0.17156	0.13566	0.31905	0.30064	0.308	0.12983	0.29767	0.13935	0.22864	0.067415	0.13592	0.052458	0.36938	-2.1	-2.7458	-2.1792	-3.0708	-2.7313	-2.3937	-3.0438	-2.6083	-2.4688	-3.1771	-2.5979	-2.8812	-2.8958	-2.45	-2.7687	-2.65	188.622	188.119	55.801	224.541	112.844	-125.205	199.734	200.365	53.045	125.614	172.848	-120.375	-79.642	201.504	23.157	139.973	0.0006753	0.00076613	0.00018601	1233.3	1.029e-05	9.5222e-06	1264.6	348.47	5.2802e-06	6.2335e-06	489.94	227.69	154.36	62.958	9.0526e-06	94.545	0.00088093	0.00085284	0.00024105	1183.5	9.3224e-06	9.7207e-06	1228.2	338.2	9.2665e-06	9.4129e-06	475.42	221.65	150.52	61.211	9.365e-06	92.512	188.571	-81.605	-37.750	-119.314	-0.756	25.262	-119.801	-115.349	13.239	12.343	-116.504	-113.564	-112.624	-107.945	-33.208	-108.885	-8191	255	
4376.080	1	1	0	0	0.087364	0.18478	0.01792	0.23992	0.20283	0.09583	0.14503	0.030785	0.13616	0.22541	0.34374	0.34089	0.080368	0.090899	0.10523	0.23722	-2.0646	-2.7708	-2.3229	-2.7458	-2.8521	-2.1771	-2.9625	-2.8	-2.5229	-3.0771	-2.5479	-2.8583	-2.9229	-2.5479	-2.7729	-2.8854	40.737	183.249	84.903	189.022	-18.495	137.423	177.626	-62.272	5.900	79.291	115.166	186.177	124.483	210.723	128.129	-79.195	0.00064045	0.00095057	0.00010836	1230.5	4.3995e-06	7.3411e-06	1271.2	351.25	9.3536e-06	1.0496e-05	492.14	226.78	153.86	63.375	7.19e-06	95.599	0.00083827	0.00088638	0.0002384	1183.9	8.982e-06	9.4474e-06	1232.4	338.6	9.4368e-06	9.2507e-06	475.52	221.47	150.71	61.439	9.4458e-06	93.005	193.434	-27.675	-20.222	-119.259	-35.449	-3.033	-119.792	-115.487	-16.058	24.343	-116.664	-113.540	-112.667	-108.234	16.792	-109.281	-8191	255	
4376.177	1	1	0	0	0.23207	0.21841	0.06663	0.25429	0.21463	0.20109	0.21972	0.19171	0.34285	0.20472	0.24155	0.18251	0.31011	0.15501	0.48299	0.056557	-2.025	-3	-2.4333	-2.5583	-2.9271	-2.3187	-3.0167	-2.7625	-2.3979	-2.8979	-2.5896	-2.5646	-2.9604	-2.4292	-2.6708	-2.8854	104.895	-75.838	-111.582	106.914	67.436	-25.189	-128.317	54.279	-31.242	-108.664	168.413	81.768	196.501	-110.212	-19.276	42.127	0.00070616	0.00073619	0.00028577	1233.5	4.0331e-06	1.9346e-05	1276.4	350.58	2.2874e-06	4.4766e-06	492.51	228.58	155.08	63.386	9.8589e-06	95.47	0.00081807	0.0008485	0.00024396	1184	8.8185e-06	9.3987e-06	1234.1	339.37	9.0525e-06	9.2679e-06	477.89	223.32	151.49	61.557	9.3003e-06	92.921	188.368	3.405	-57.913	-119.237	-5.487	24.616	-119.925	-115.515	20.316	7.588	-116.219	-113.361	-112.982	-108.216	-25.389	-109.434	-8191	255	
4376.273	1	1	0	0	0.070286	0.14257	0.017602	0.11429	0.19114	0.079885	0.17113	0.17227	0.20844	0.27991	0.048546	0.20257	0.1388	0.3098	0.047774	0.20231	-1.9479	-3.025	-2.3375	-2.4979	-3.0854	-2.3958	-2.7542	-2.8292	-2.1	-2.8479	-2.6292	-2.6208	-3.0438	-2.5062	-2.6792	-3.0875	-36.471	1.705	-98.264	165.310	-70.648	85.376	184.216	182.725	113.040	-33.176	121.841	215.047	-61.475	196.770	-113.295	92.388	0.00064099	0.00073697	0.00012794	1235.8	7.0869e-06	7.413e-06	1273.8	350.78	8.2405e-06	1.1001e-05	497.39	229.24	156.7	63.769	6.0892e-06	95.509	0.00082938	0.00082586	0.0002395	1182.6	9.0462e-06	9.3719e-06	1229.9	339.78	9.1534e-06	9.3561e-06	479.66	223.51	152.62	61.966	9.181e-06	93.259	191.554	-23.258	-12.601	-119.437	16.317	9.056	-119.632	-115.754	-45.164	29.552	-116.561	-113.477	-112.461	-108.044	19.309	-109.038	-8191	255	
4376.369	1	1	0	0	0.25474	0.029055	0.29017	0.042051	0.16127	0.10262	0.23661	0.10764	0.22362	0.049399	0.10354	0.10647	0.035509	0.23931	0.2507	0.28391	-1.8271	-2.7333	-2.6188	-2.6229	-3.0396	-2.5208	-2.6833	-3.025	-2.3667	-2.8583	-2.8625	-2.4146	-3.0646	-2.4146	-2.5396	-2.9292	126.078	188.266	126.128	222.355	113.695	126.672	187.753	114.791	-128.464	-82.195	97.717	66.620	192.888	-102.469	51.571	183.995	0.00069371	0.0009984	7.4537e-05	1235.1	2.823e-06	7.5533e-06	1270.1	352.96	6.0866e-06	7.9788e-06	495.23	228.04	156.14	63.67	7.0746e-06	95.012	0.00083139	0.00086234	0.00023418	1183.7	9.1596e-06	9.3667e-06	1229.8	340.85	9.3607e-06	9.3654e-06	478.17	222.85	152.13	61.499	9.7813e-06	92.807	197.027	-75.994	-46.282	-119.477	8.073	5.720	-119.963	-115.420	-15.085	-7.004	-116.683	-113.628	-112.712	-107.994	1.659	-108.640	-8191	255	
4376.465	1	1	0	0	0.44937	0.15086	0.18736	0.062662	0.1928	0.25783	0.19606	0.15023	0.047251	0.094865	0.079335	0.17105	0.28929	0.37254	0.081649	0.14631	-1.7958	-2.8396	-2.6833	-2.3854	-2.9729	-2.3646	-2.5875	-3.1063	-2.175	-2.7792	-2.8417	-2.475	-2.9521	-2.5938	-2.4521	-3.1979	-68.028	97.035	35.734	171.504	-62.924	-6.109	55.246	199.263	-78.734	-7.791	209.595	219.428	-36.117	173.115	-7.746	149.647	0.00062018	0.0011071	0.00020678	1231.6	6.2361e-06	2.8952e-06	1263.2	346.72	5.8563e-06	1.2196e-05	483.83	226.12	153.47	62.864	8.1772e-06	94.718	0.00084243	0.00089223	0.00023755	1178.9	9.1094e-06	9.4234e-06	1221.4	335.51	9.4648e-06	9.4273e-06	471.54	220.33	149.36	60.907	9.3258e-06	92.166	195.364	-57.074	-30.400	-119.091	27.749	94.233	-119.920	-115.666	29.622	-19.170	-116.313	-113.627	-112.470	-108.001	1.264	-109.140	-8191	255	
4376.586	1	1	0	0	0.10596	0.24184	0.26275	0.14708	0.23037	0.11326	0.23269	0.11837	0.11653	0.11972	0.45347	0.20009	0.083937	0.051705	0.16261	0.13384	-1.8687	-2.5625	-2.8187	-2.4437	-2.9417	-2.5687	-2.5479	-3.0479	-2.4688	-2.7917	-2.8771	-2.5604	-2.8625	-2.6521	-2.2229	-3.1729	-44.748	73.246	45.636	127.339	69.271	109.659	205.033	133.931	-115.282	-30.470	197.440	205.120	-100.929	142.800	215.259	192.728	0.00062875	0.0016894	0.00022974	1230.7	1.1981e-06	9.2504e-06	1255.1	347.27	1.9194e-06	8.7365e-06	488.57	226.59	154.03	62.912	4.5291e-06	94.415	0.0008459	0.00088925	0.00023542	1175.8	9.26e-06	9.5756e-06	1219.7	335.61	9.5756e-06	9.5777e-06	472.9	220.63	149.74	61.029	9.7317e-06	92.261	189.466	-50.586	-42.348	-119.369	-63.012	35.817	-119.823	-115.476	22.832	-0.561	-116.598	-113.459	-112.770	-108.149	23.399	-109.297	-8191	255	
4376.680	1	1	0	0	0.087412	0.21816	0.056346	0.23288	0.045776	0.29504	0.25052	0.43555	0.27975	0.12458	0.067544	0.25099	0.073375	0.062926	0.067639	0.21162	-1.8458	-2.5229	-2.8563	-2.4292	-2.8708	-2.7729	-2.3729	-3.0417	-2.5	-2.4354	-3.0229	-2.4479	-2.9458	-2.7896	-2.2625	-2.9313	-34.154	17.658	190.320	177.698	137.056	94.312	116.139	208.155	166.979	156.539	-128.585	152.272	187.661	27.475	-89.751	164.127	0.00065053	0.001322	0.00027242	1222.8	5.6242e-06	1.0785e-05	1263.3	347.72	4.5866e-06	5.7932e-06	484.81	226.02	153.91	62.922	6.2985e-06	94.101	0.00084567	0.00087665	0.00024489	1174.4	9.229e-06	9.5734e-06	1222.2	335.45	9.3067e-06	9.485e-06	470.66	220.19	149.93	60.905	9.5577e-06	91.711	194.550	-53.348	-69.272	-119.401	-21.991	45.726	-119.734	-115.723	6.708	-19.523	-116.592	-113.741	-112.661	-108.357	-5.193	-109.184	-8191	255	
4376.776	1	1	0	0	0.1878	0.17814	0.093936	0.09615	0.22972	0.14204	0.07764	0.36268	0.06889	0.14931	0.10192	0.20338	0.18702	0.30573	0.13114	0.15076	-2.0583	-2.3979	-2.9021	-2.4062	-2.7458	-2.8792	-2.45	-2.9229	-2.5062	-2.4313	-3.0396	-2.4688	-2.8104	-3.0646	-2.275	-3.0646	-3.704	64.285	-58.027	87.027	139.872	-34.900	-1.994	145.167	-60.851	134.782	191.217	159.885	168.706	219.548	-77.291	138.086	0.00064868	0.0013428	0.00029275	1220.4	1.0299e-05	5.9521e-06	1264.6	346.81	6.1774e-06	1.4107e-05	485.21	226.57	153.88	62.775	8.1651e-06	94.732	0.0008162	0.00087703	0.00024403	1170.9	9.2058e-06	9.269e-06	1216.9	333.72	9.5001e-06	9.4552e-06	470.19	220.46	149.67	60.963	9.4196e-06	92.293	191.087	-46.957	-52.041	-119.490	2.861	49.044	-119.626	-115.733	-13.480	-7.504	-116.292	-113.669	-112.592	-107.809	-32.026	-108.976	-8191	255	
4376.872	1	1	0	0	0.090037	0.20578	0.096492	0.036146	0.064369	0.1177	0.23254	0.35315	0.31881	0.22846	0.23818	0.081518	0.12163	0.21363	0.27363	0.12185	-2.3417	-2.5208	-2.8146	-2.4417	-2.4667	-2.6979	-2.2917	-2.9771	-2.6375	-2.3229	-3.0875	-2.4833	-2.6083	-3.2583	-2.2021	-2.975	-62.481	1.234	164.319	9.585	114.835	112.066	138.783	170.435	185.136	69.706	-129.505	63.460	-113.294	169.013	56.808	180.575	0.00061204	0.00056494	0.00036526	1216.2	6.8747e-06	1.2129e-05	1264.7	344.97	4.6903e-06	6.2003e-06	489.6	227.71	154.66	63.031	7.8434e-06	95.172	0.00081955	0.00087081	0.00024241	1171	8.9659e-06	9.609e-06	1219.9	334.04	9.2221e-06	8.9791e-06	473.99	222.2	150.65	61.025	9.3781e-06	92.811	194.137	-82.499	-70.029	-119.491	5.130	34.416	-119.881	-115.736	-36.770	29.762	-116.625	-113.600	-112.826	-108.199	-1.122	-109.177	-8191	255	
4376.968	1	1	0	0	0.24811	0.065694	0.10263	0.2127	0.20222	0.15646	0.17541	0.17006	0.17072	0.11059	0.24256	0.15278	0.14592	0.43768	0.22332	0.054461	-2.2375	-2.2708	-2.7938	-2.5917	-2.4979	-2.8208	-2.3375	-2.7854	-2.7979	-2.3104	-3.0938	-2.6208	-2.55	-3.1125	-2.3354	-2.95	46.570	29.367	88.167	173.049	63.052	41.856	143.643	118.591	155.162	78.421	-102.525	138.110	168.588	-105.286	-124.816	193.560	0.00068223	0.0014207	0.00030891	1223.9	8.0241e-06	9.1207e-06	1273.8	346.42	5.2504e-06	9.8331e-06	489.76	228.97	154.11	63.351	3.5226e-06	95.977	0.00085038	0.00086266	0.00023734	1178.4	8.8698e-06	9.1404e-06	1228.3	336.74	9.431e-06	9.5574e-06	475.1	223.06	150.65	61.633	9.4308e-06	93.431	189.094	-48.738	-39.644	-119.228	-9.317	24.220	-119.655	-115.747	20.558	24.098	-116.604	-113.483	-112.939	-108.154	36.225	-109.300	-8191	255	
4377.065	1	1	0	0	0.10055	0.20291	0.35483	0.23219	0.39358	0.26171	0.21063	0.097023	0.15485	0.10223	0.18599	0.18597	0.26287	0.20177	0.060856	0.48238	-2.3583	-2.25	-3.0083	-2.7313	-2.5625	-3.0771	-2.5854	-2.925	-2.975	-2.3479	-3.0396	-2.7396	-2.3396	-3.0938	-2.3958	-2.775	28.463	64.155	-69.200	177.910	-63.159	19.929	179.574	113.430	72.146	-7.577	-105.432	221.052	154.997	20.559	184.352	-112.352	0.0005972	0.00047719	0.00024957	1226.5	1.0461e-06	1.0882e-05	1263.1	345.54	3.8137e-06	1.1693e-05	493.58	228.53	156.03	63.769	1.043e-05	95.391	0.00085709	0.00087179	0.00023696	1179.8	9.1499e-06	9.5046e-06	1226.4	335.97	9.2665e-06	8.8744e-06	476.23	224.02	151.91	62	9.5935e-06	93.582	192.495	-50.635	-28.297	-119.079	71.837	30.959	-119.679	-115.518	-19.337	7.517	-116.442	-113.406	-112.778	-108.172	-19.708	-108.979	-8191	255	
4377.185	1	1	0	0	0.078951	0.35276	0.23591	0.18366	0.12035	0.12643	0.26645	0.3208	0.15826	0.29082	0.17727	0.41058	0.2256	0.29248	0.13063	0.1614	-2.4917	-2.2604	-2.9083	-2.8021	-2.4479	-2.9875	-2.6458	-2.6208	-2.8396	-2.4083	-3.0396	-2.825	-2.3833	-3.0417	-2.4896	-2.7542	27.029	188.442	59.134	181.994	87.779	170.392	156.120	170.573	103.632	154.587	171.307	106.687	26.630	128.358	117.540	159.471	0.00063256	0.0014031	0.00016737	1230.4	3.53e-06	6.0207e-06	1260.1	349.14	2.8886e-06	9.9719e-06	492.84	229.14	155.18	63.486	6.6498e-06	95.764	0.00082688	0.00087114	0.00023042	1179.8	9.2897e-06	9.4552e-06	1227.5	337.3	8.8764e-06	9.3982e-06	476.77	223.75	152.02	61.696	9.2478e-06	93.304	190.313	-52.118	-43.614	-119.462	-12.324	68.841	-119.463	-116.015	3.106	6.362	-116.888	-113.481	-112.792	-107.786	-5.086	-109.205	-8191	255	
4377.281	1	1	0	0	0.14509	0.04529	0.33364	0.15933	0.051521	0.10635	0.2634	0.15425	0.16506	0.24566	0.35417	0.2177	0.25388	0.050437	0.19723	0.11887	-2.4208	-2.3063	-2.7146	-2.9854	-2.3625	-3.1417	-2.6604	-2.5625	-2.9521	-2.3229	-2.8896	-2.9813	-2.3438	-3.0229	-2.4458	-2.6083	36.855	-29.732	-81.124	215.220	159.802	151.234	-107.737	160.379	-15.560	200.333	207.193	119.267	158.418	75.226	-26.789	216.127	0.00066379	0.00047073	0.00013564	1227.6	4.334e-06	1.0671e-05	1270.2	348.75	5.721e-06	7.3182e-06	488.44	229.68	155.74	63.768	8.7743e-06	95.655	0.00084243	0.00086123	0.00024232	1178.1	8.9772e-06	9.3001e-06	1228.8	337.06	9.1647e-06	9.182e-06	476.38	223.9	151.69	61.64	9.1758e-06	93.146	195.561	-12.679	-2.547	-119.383	-26.861	-18.037	-119.419	-115.852	3.345	41.287	-116.901	-113.836	-112.717	-108.363	1.147	-109.432	-8191	255	
4377.378	1	1	0	0	0.034792	0.058899	0.066271	0.37479	0.25805	0.12554	0.28902	0.30524	0.10774	0.23506	0.021993	0.2362	0.22639	0.070364	0.11575	0.27191	-2.5646	-2.1833	-2.6979	-2.8333	-2.2958	-2.7875	-2.5438	-2.6708	-3.1354	-2.2604	-2.4896	-3.0354	-2.4396	-2.9833	-2.5042	-2.4771	-103.165	38.357	-101.628	196.007	26.472	116.810	92.218	-119.882	-90.185	198.722	136.491	160.476	154.909	214.055	210.068	212.249	0.00067082	0.0008374	0.0002596	1225.6	6.2994e-06	6.8041e-06	1263.9	349.5	5.5031e-06	9.173e-06	493.35	231.69	155.31	63.518	6.4989e-06	95.967	0.00082281	0.00088903	0.00023991	1176.5	9.0984e-06	9.3859e-06	1226.8	336.53	8.9145e-06	9.4002e-06	477.46	224.64	151.48	61.852	9.4186e-06	93.801	196.585	-67.087	-82.525	-119.192	3.520	74.679	-119.550	-115.445	-1.504	6.322	-116.578	-113.455	-112.928	-108.201	-5.532	-109.011	-8191	255	
4377.474	1	1	0	0	0.11236	0.32489	0.081384	0.057971	0.15075	0.085483	0.39457	0.19324	0.17621	0.22176	0.14888	0.11608	0.14159	0.29631	0.087027	0.14064	-2.5479	-2.3792	-2.5333	-3.1083	-2.3917	-2.9729	-2.8771	-2.4562	-2.8125	-2.5729	-2.5687	-3.2188	-2.3229	-2.8854	-2.6813	-2.5563	36.869	-88.244	185.413	-35.351	210.940	83.116	170.461	163.999	47.976	11.599	110.102	184.866	212.153	-127.141	59.497	7.176	0.00059297	0.00079563	0.00026846	1230.2	7.5067e-06	9.973e-06	1275	348.93	4.9536e-06	1.3207e-05	495.7	231.35	156.6	64.353	7.7677e-06	96.525	0.00084494	0.00090163	0.00024465	1182.5	9.2911e-06	9.4202e-06	1229.7	338.37	9.3483e-06	9.6626e-06	478.98	225.54	152.53	62.308	9.4974e-06	94.12	189.381	-82.840	-45.706	-119.491	39.665	1.653	-119.819	-115.819	-34.588	5.047	-116.528	-113.431	-112.557	-108.352	34.111	-109.346	-8191	255	
4377.545	1	1	0	0	0.10897	0.28945	0.036548	0.23433	0.095691	0.18578	0.24566	0.24348	0.15447	0.19078	0.091816	0.20001	0.31736	0.33395	0.10246	0.11133	-2.675	-2.4354	-2.2208	-3.0583	-2.4729	-2.8854	-3.0375	-2.45	-2.8563	-2.5083	-2.6646	-3.0792	-2.5854	-2.6979	-2.8354	-2.6479	-23.052	54.380	2.643	-133.021	168.769	86.847	156.286	195.172	190.719	74.506	-24.953	155.340	184.543	224.749	-82.028	152.375	0.00055901	0.0010105	0.00022041	1229.4	3.2468e-06	7.149e-06	1269.2	348.11	8.4685e-06	1.04e-05	494.95	230.78	156.03	63.957	6.8618e-06	95.787	0.0008767	0.00088016	0.00024964	1181.9	9.2049e-06	1.0004e-05	1230.9	337.28	9.6508e-06	9.8638e-06	478.17	225.05	152.1	62.062	9.4482e-06	93.594	190.563	-86.065	-17.573	-119.050	3.147	23.352	-119.714	-115.600	-19.192	-11.904	-116.211	-113.545	-112.881	-108.586	-38.175	-109.439	-8191	255	
4377.664	1	1	0	0	0.075898	0.085833	0.25721	0.24275	0.059707	0.3497	0.18003	0.14033	0.34088	0.24589	0.23198	0.13058	0.053025	0.22203	0.12902	0.24555	-2.6583	-2.4188	-2.175	-3.1312	-2.4479	-2.6083	-2.9333	-2.3854	-3.0042	-2.6208	-2.4542	-3.1667	-2.4229	-2.7	-2.85	-2.475	1.770	-53.165	-68.295	142.930	57.197	62.154	173.975	217.475	213.299	-58.256	-74.656	213.510	186.571	213.308	29.568	80.828	0.00069204	0.0015703	0.00028303	1223.5	7.1059e-06	8.3472e-06	1266.7	346.91	2.6222e-06	8.0423e-06	491.04	230.24	156.5	63.396	4.7771e-06	94.99	0.00087106	0.00087508	0.00025259	1177.2	9.0149e-06	9.771e-06	1225.1	335.76	9.6377e-06	9.8298e-06	475.56	224.04	151.78	61.711	9.4213e-06	93.127	186.353	-35.204	-44.410	-119.361	36.084	91.477	-119.425	-115.497	-68.451	16.216	-116.749	-113.812	-112.922	-108.223	-33.151	-109.229	-8191	255	
4377.760	1	1	0	0	0.28336	0.15093	0.046057	0.10024	0.087262	0.23011	0.2451	0.12504	0.18899	0.36284	0.13438	0.15134	0.082771	0.28732	0.23852	0.14379	-2.3896	-2.5021	-2.4688	-3.0625	-2.6354	-2.5292	-2.9875	-2.55	-2.7792	-2.7896	-2.5875	-3.1583	-2.6917	-2.6708	-2.9375	-2.4938	191.212	40.788	49.291	202.055	189.541	204.031	151.832	94.569	-47.458	148.956	125.909	-120.925	197.861	142.718	59.504	-132.243	0.00062176	0.00067045	3.6182e-05	1227	7.5576e-06	8.6876e-06	1267.8	346.48	5.1347e-06	6.6456e-06	494.42	230.86	154.8	63.18	8.0736e-06	95.254	0.00086676	0.00089529	0.00024129	1178.1	9.5707e-06	9.7195e-06	1225.5	335.68	9.5875e-06	9.2605e-06	476.21	223.62	151	61.4	9.6596e-06	93.185	196.892	-13.570	-111.431	-119.220	10.611	13.612	-119.638	-115.743	-12.915	-10.179	-116.494	-113.667	-112.488	-108.269	-10.022	-109.191	-8191	255	
4377.857	1	1	0	0	0.062559	0.18277	0.2275	0.27944	0.13135	0.10105	0.10224	0.092493	0.24388	0.19338	0.27588	0.13226	0.16078	0.1873	0.11842	0.12418	-2.5708	-2.6813	-2.2354	-3.1729	-2.575	-2.6604	-3.2375	-2.4562	-2.7167	-2.925	-2.4375	-2.9979	-2.7896	-2.6542	-3.0625	-2.4771	-96.506	-73.293	31.068	225.058	43.533	21.281	-129.861	138.601	-45.510	201.707	53.275	159.857	25.444	-111.784	-111.590	179.746	0.00062337	0.0012241	0.00023351	1227.6	2.684e-06	1.5161e-05	1267.3	348.12	7.2498e-06	7.1687e-06	494.11	231.42	156.49	63.985	7.537e-06	97.198	0.00085542	0.00086068	0.00024116	1178.1	9.6431e-06	9.5194e-06	1228	336.1	9.5641e-06	9.2982e-06	477.07	224.88	152.29	62.234	9.8169e-06	94.562	186.179	-24.584	-10.047	-119.081	-9.359	-28.257	-119.542	-115.413	12.819	-19.492	-116.537	-113.701	-112.784	-108.334	-29.116	-108.874	-8191	255	
4377.977	1	1	0	0	0.20278	0.095181	0.11034	0.42789	0.08806	0.072212	0.27294	0.098654	0.097271	0.12277	0.14128	0.14228	0.13284	0.071629	0.013702	0.26252	-2.2396	-2.9958	-2.2333	-3.075	-2.5438	-2.4646	-3.1667	-2.4688	-2.5833	-2.8792	-2.4813	-2.9396	-2.7292	-2.5521	-2.9542	-2.6208	-67.663	103.137	-89.085	209.865	40.674	139.078	142.565	179.506	-8.793	-3.547	141.853	42.287	-124.359	-31.002	40.036	93.378	0.00070236	0.00092676	0.00010349	1230.1	9.2531e-06	3.4552e-06	1273.8	350.59	2.5745e-06	9.1366e-06	494.83	233.14	157.76	64.105	4.3254e-06	96.914	0.00086074	0.0008873	0.00024927	1181.6	9.2773e-06	9.6055e-06	1235.1	338.71	9.2791e-06	9.3625e-06	481.46	226.72	153.41	62.253	9.3571e-06	94.27	194.401	-34.954	-62.676	-119.601	-8.037	1.410	-119.653	-115.414	-36.076	36.527	-116.202	-113.523	-112.708	-108.638	-25.577	-109.199	-8191	255	
4378.073	1	1	0	0	0.30216	0.091658	0.064084	0.19223	0.061654	0.21312	0.26212	0.26383	0.14821	0.1009	0.15576	0.13636	0.14737	0.10323	0.16974	0.10966	-2.2729	-2.9938	-2.2292	-3.0812	-2.8396	-2.3167	-3.1229	-2.5438	-2.5854	-3.0375	-2.6979	-3.0375	-2.9167	-2.4167	-2.8583	-2.7625	-15.022	-35.131	134.764	-102.219	115.615	179.927	142.510	140.213	-17.238	-44.033	176.235	214.404	166.735	-95.754	27.704	-94.222	0.00068255	0.0011088	0.00031861	1228.1	8.5765e-06	6.7528e-06	1256.7	350.42	3.1139e-06	5.3585e-06	491.01	227.83	154.72	63.01	8.8974e-06	94.737	0.00086088	0.0008609	0.0002487	1178.5	9.246e-06	9.7289e-06	1225.6	336.23	9.5578e-06	9.305e-06	473.55	222.31	150.48	61.2	9.7508e-06	92.429	181.428	-38.590	-24.062	-119.652	-1.817	-4.364	-119.722	-115.527	-6.541	14.852	-116.833	-113.729	-112.808	-108.378	-12.755	-109.327	-8191	255	
4378.145	1	1	0	0	0.17962	0.066916	0.083435	0.14235	0.10347	0.1658	0.060889	0.13213	0.23662	0.12371	0.096334	0.23091	0.20758	0.10943	0.25523	0.15079	-2.0396	-2.975	-2.1417	-3.05	-2.8375	-2.3458	-2.9979	-2.6521	-2.4875	-3.1396	-2.6104	-2.6917	-2.9583	-2.4104	-3.0271	-2.7896	184.341	125.246	-12.359	-46.559	-87.705	109.391	160.860	191.067	55.795	165.780	216.171	151.988	157.810	219.115	138.852	128.516	0.00065147	0.00095677	0.0001609	1219.7	3.367e-06	1.0316e-05	1257.3	342.54	8.3156e-06	4.8645e-06	483.23	226.83	153.73	61.881	6.1867e-06	94.28	0.00084358	0.00086543	0.0002392	1172.3	9.2262e-06	9.5781e-06	1218.8	331.71	9.4548e-06	9.273e-06	469.46	220.33	148.9	60.311	9.3602e-06	91.792	190.517	-38.749	-7.647	-119.342	-121.500	1.559	-119.761	-115.240	-44.049	-9.586	-116.465	-113.744	-112.795	-108.117	11.341	-108.925	-8191	255	
4378.266	1	1	0	0	0.13696	0.18596	0.18648	0.13551	0.12973	0.21155	0.19892	0.13442	0.13802	0.2991	0.084806	0.34504	0.14836	0.15846	0.043401	0.23059	-1.9458	-2.8917	-2.3688	-2.7833	-2.9625	-2.4896	-3.1271	-2.9417	-2.3729	-3.0854	-2.7771	-2.8042	-3.1	-2.4125	-2.9104	-3.1063	-24.731	-29.712	-59.519	-108.654	-50.477	-93.372	-52.159	-83.766	112.069	-29.280	31.497	178.498	197.447	204.524	-105.744	63.499	0.00060399	0.0010757	0.00027298	1220.7	6.5353e-06	5.7333e-06	1251.8	342.69	7.3812e-06	6.7875e-06	483.46	225.65	151.36	62.191	1.6774e-06	93.342	0.00083732	0.0008627	0.00024701	1168.8	8.8829e-06	9.475e-06	1213.6	330.97	9.7837e-06	9.6736e-06	467.26	218.99	147.72	60.144	9.3048e-06	91.356	192.923	-75.454	-53.045	-119.321	34.549	48.024	-120.048	-115.560	-42.770	-21.193	-116.355	-113.871	-112.988	-108.450	-90.634	-108.997	-8191	255	
4378.362	1	1	0	0	0.16901	0.065804	0.16193	0.16987	0.13747	0.14453	0.14795	0.17421	0.17572	0.18029	0.44678	0.40142	0.12731	0.17637	0.17426	0.24031	-2.0104	-3.0521	-2.7333	-2.7333	-3.1708	-2.4104	-3.0771	-2.9917	-2.4333	-3.1396	-2.6188	-2.6562	-3.1125	-2.6854	-2.7188	-3.1167	169.320	-125.754	-80.069	169.024	-79.622	-73.109	101.516	163.129	-0.937	141.227	189.001	166.162	-92.996	127.233	95.952	132.135	0.00061014	0.00092823	0.00018366	1215.1	8.4671e-06	1.3138e-05	1262.4	340.25	4.8564e-06	8.9099e-06	479.96	223.84	152.56	61.886	2.9682e-06	93.923	0.00083978	0.00085221	0.00024473	1167.7	9.2485e-06	9.8801e-06	1215.1	329.81	9.3004e-06	9.0923e-06	466.93	218.81	147.74	60.096	9.3258e-06	91.671	196.731	-37.805	-28.749	-119.588	23.043	-18.061	-119.898	-115.573	-43.013	56.117	-116.569	-113.700	-112.752	-108.194	26.117	-108.871	-8191	255	
4378.456	1	1	0	0	0.33957	0.068932	0.082546	0.22796	0.13583	0.055027	0.32695	0.21577	0.15978	0.11386	0.09313	0.11117	0.055862	0.37668	0.19598	0.20446	-2.075	-3.0396	-2.7542	-2.5458	-3.1229	-2.5167	-2.9958	-2.9417	-2.3667	-3.1167	-2.8042	-2.7292	-3.1813	-2.7021	-2.6667	-3.1604	49.271	144.416	89.530	188.469	85.485	126.653	179.457	193.614	150.444	-130.688	225.854	207.786	82.244	171.387	25.577	166.115	0.0006904	0.0011298	0.00036225	1219.9	5.1856e-06	1.1418e-05	1261.4	342.77	3.6875e-06	1.0028e-05	480.96	224.51	151.98	61.606	4.0185e-06	92.936	0.00082117	0.00083342	0.00024003	1170.9	9.0264e-06	9.1074e-06	1218.1	330.82	9.4158e-06	9.3055e-06	466.71	218.79	147.73	59.786	9.2481e-06	90.622	192.992	-57.723	-23.924	-119.337	32.725	19.767	-119.808	-115.642	9.738	29.739	-116.700	-113.856	-112.923	-107.759	-46.688	-108.906	-8191	255	
4378.577	1	1	0	0	0.060502	0.15019	0.033463	0.3132	0.056049	0.094675	0.14651	0.11222	0.12704	0.17063	0.069156	0.36938	0.21204	0.32646	0.069866	0.104	-1.8833	-2.8312	-2.7062	-2.6063	-3.1646	-2.6208	-2.8104	-3.2646	-2.5542	-3.1417	-2.9333	-2.7583	-3.1646	-2.4792	-2.6917	-3.1917	98.564	-58.778	185.056	139.388	-27.500	69.611	179.470	-87.326	-77.244	-98.779	179.505	161.181	49.596	167.717	-26.899	-113.475	0.00061979	0.00075777	0.00035539	1209.5	1.0111e-05	1.0213e-05	1250.2	340.78	5.0582e-06	4.6121e-06	479.73	223.45	152	61.404	8.3228e-06	93.054	0.00084598	0.0008577	0.00024316	1165.4	9.2242e-06	9.81e-06	1210.6	330.45	9.2252e-06	9.1984e-06	465.66	217.43	147.08	59.407	9.4129e-06	90.475	187.680	-41.018	-42.483	-119.631	9.307	17.941	-119.644	-115.630	-32.758	-8.995	-116.229	-113.381	-112.770	-108.178	36.141	-109.238	-8191	255	
4378.673	1	1	0	0	0.38602	0.13828	0.015665	0.04598	0.13633	0.28775	0.27297	0.16283	0.17953	0.25491	0.20293	0.23916	0.29292	0.23772	0.087984	0.13692	-2.0604	-2.8375	-2.7313	-2.4125	-3.0771	-2.8	-2.7354	-3.1813	-2.6333	-2.7792	-3.0062	-2.4708	-3.1333	-2.8479	-2.4896	-3.2083	40.423	-65.173	-28.440	151.552	214.293	72.029	114.719	155.852	99.839	12.584	100.663	198.598	189.840	138.360	43.887	149.660	0.00068058	0.00044052	0.00031476	1210.6	6.1486e-06	1.4256e-05	1246	340.01	6.9724e-06	6.7311e-06	472.8	220.53	148.57	60.371	6.5474e-06	91.089	0.00082641	0.00085661	0.00024529	1162.7	9.0579e-06	9.3896e-06	1209.1	328.09	9.195e-06	9.2977e-06	461.11	214.76	144.86	58.674	9.5718e-06	89.235	185.763	-20.355	-50.815	-119.391	42.656	13.084	-119.678	-115.768	-13.942	12.003	-116.433	-113.719	-112.570	-108.196	41.642	-109.355	-8191	255	
4378.745	1	1	0	0	0.21754	0.21664	0.14934	0.11062	0.028656	0.096429	0.24341	0.18748	0.27115	0.087465	0.18363	0.3266	0.26275	0.16599	0.19653	0.17538	-2.0687	-2.7604	-2.9333	-2.6354	-3.1583	-2.8104	-2.5583	-3.2188	-2.5229	-2.6021	-3.0292	-2.425	-3.15	-2.9375	-2.45	-3.4146	22.293	34.845	87.135	185.830	213.819	110.359	155.364	143.129	-120.721	190.082	-5.239	158.352	-113.373	184.980	214.348	152.918	0.00060928	0.00070041	0.00020727	1219.3	6.1824e-06	5.3726e-06	1247.7	338.87	6.3976e-06	1.3988e-05	476.72	221.45	148.34	60.559	5.3136e-06	92.267	0.00083527	0.00087252	0.00022979	1164.1	8.8806e-06	9.4812e-06	1208.8	327.09	9.1217e-06	9.3241e-06	461.45	215.05	144.56	58.868	9.4225e-06	89.746	187.482	-25.767	-57.620	-119.546	4.528	48.740	-119.655	-115.603	-3.875	18.725	-116.734	-113.894	-112.617	-107.846	-45.415	-109.146	-8191	255	
4378.841	1	1	0	0	0.22265	0.054032	0.34408	0.053566	0.19202	0.080999	0.22655	0.16895	0.21833	0.20441	0.20627	0.25738	0.21742	0.080492	0.042332	0.11809	-1.9083	-2.6542	-2.8333	-2.5833	-2.8875	-2.6583	-2.5938	-3.3167	-2.3979	-2.4813	-3.0458	-2.5729	-2.6333	-2.9646	-2.4104	-3.05	212.548	193.376	53.751	87.092	199.126	-14.241	-107.680	-121.267	190.399	39.108	140.865	-71.271	178.034	-69.270	74.762	217.158	0.0005779	0.0001165	0.00030435	1212	7.3259e-06	7.447e-06	1244.6	339.15	1.9017e-06	5.1777e-06	482.24	222.89	149.84	60.822	3.8147e-06	92.321	0.00082454	0.0008641	0.00023322	1168.1	8.736e-06	9.1639e-06	1210.2	327.69	9.2607e-06	9.6105e-06	465.41	216.73	146.23	59.267	9.3988e-06	90.009	190.980	145.595	-31.775	-119.264	13.823	63.111	-119.793	-115.406	5.433	17.321	-116.657	-113.794	-113.027	-107.904	16.270	-109.149	-8191	255	
4378.961	1	1	0	0	0.17859	0.22011	0.25013	0.25209	0.12575	0.025305	0.47919	0.17349	0.14013	0.12905	0.12599	0.25078	0.050122	0.12708	0.10693	0.31786	-2.225	-2.2708	-3.0458	-2.4854	-2.5542	-3.0292	-2.4854	-3.0875	-2.7188	-2.4729	-3.1708	-2.4938	-2.7958	-3.0854	-2.3854	-3.1083	190.966	54.768	72.342	216.893	21.683	121.573	161.422	187.360	176.651	56.542	220.854	-96.171	174.172	123.277	-45.019	177.967	0.00055012	0.0012924	0.00025707	1211.4	7.8686e-06	1.2083e-05	1240.9	341.64	5.4205e-06	4.596e-06	482.86	223.59	150.66	61.384	6.9756e-06	92.298	0.00083142	0.00090467	0.00024034	1164.5	9.2274e-06	9.8409e-06	1208.6	328.97	9.5092e-06	9.3124e-06	467.28	217.51	147.47	59.437	9.4771e-06	90.035	191.562	-53.031	-45.206	-119.501	11.879	3.772	-119.822	-115.979	-5.571	-26.953	-116.492	-113.448	-112.608	-108.105	-17.769	-108.993	-8191	255	
4379.058	1	1	0	0	0.13044	0.15535	0.053541	0.22426	0.25088	0.14396	0.17764	0.29871	0.14521	0.11061	0.21148	0.32215	0.24227	0.13405	0.084464	0.093798	-2.075	-2.2875	-3.1021	-2.5646	-2.5625	-2.8625	-2.4813	-2.7875	-2.5708	-2.3187	-2.9979	-2.4562	-2.6063	-3.1479	-2.2521	-2.9271	80.314	173.274	-6.967	-129.776	47.219	39.535	-99.524	188.237	71.925	211.352	-107.917	182.360	146.253	123.053	2.884	174.675	0.00063112	0.00050989	0.00031052	1215.4	4.5174e-06	1.4683e-05	1251.4	341.53	5.4541e-06	4.8475e-06	478.13	221.65	150.31	61.057	7.4465e-06	91.071	0.00085301	0.00084957	0.00024254	1168.5	9.3658e-06	9.4074e-06	1212.6	330.16	9.3345e-06	9.5217e-06	464.81	216.69	146.42	59.1	9.5861e-06	89.242	198.979	-65.857	-50.630	-119.409	7.171	31.535	-119.471	-115.913	1.816	-47.612	-116.446	-113.746	-112.770	-107.920	-0.593	-109.094	-8191	255	
4379.154	1	1	0	0	0.18871	0.15241	0.15705	0.18118	0.37184	0.14517	0.47045	0.19289	0.26836	0.11161	0.063994	0.21887	0.18568	0.26213	0.091899	0.2958	-2.2167	-2.2292	-2.9062	-2.5938	-2.4875	-3.2562	-2.4354	-2.9521	-2.7042	-2.4771	-3.1354	-2.5146	-2.4646	-3.0729	-2.3521	-2.7875	214.989	13.238	204.243	175.353	-54.476	64.817	174.576	193.470	5.476	-88.796	193.384	-118.035	43.149	-126.350	-71.491	175.813	0.00058061	0.00087941	0.00026692	1212.1	5.949e-06	9.5564e-06	1249.8	341.27	1.1873e-05	4.7909e-06	482.74	223.19	151.5	61.493	1.0587e-05	92.417	0.00083076	0.00087083	0.0002462	1164.9	9.2233e-06	9.4466e-06	1212.2	328.95	9.4884e-06	9.6305e-06	467.51	217.64	147.37	59.586	9.693e-06	90.012	197.212	-31.716	-103.180	-119.336	21.776	74.289	-119.765	-115.612	-23.266	-5.671	-116.378	-113.782	-112.643	-108.175	23.086	-109.248	-8191	255	
4379.250	1	1	0	0	0.17884	0.094585	0.093822	0.088688	0.22213	0.33717	0.23669	0.2189	0.20366	0.043627	0.10685	0.34725	0.25498	0.31286	0.29625	0.13386	-2.4771	-2.2792	-2.95	-2.7417	-2.4333	-2.9271	-2.5375	-2.7583	-3.0125	-2.3146	-2.8688	-2.8646	-2.6896	-3.2687	-2.4875	-2.6562	149.252	205.202	18.817	138.086	203.659	200.394	177.064	187.779	182.223	-108.675	133.956	165.805	-101.346	147.538	50.128	-114.583	0.00063586	0.00060437	0.00022086	1215.3	6.8022e-06	7.064e-06	1263.6	344.83	3.4947e-06	7.9845e-06	488.32	227.28	153.29	62.095	4.287e-06	93.541	0.0008263	0.00086377	0.00023949	1167.1	9.0234e-06	9.288e-06	1217.7	332.67	9.3462e-06	9.286e-06	473.35	221.08	148.83	60.249	9.5076e-06	91.176	188.152	-55.734	-50.006	-118.929	14.148	86.091	-119.733	-115.787	5.646	41.370	-116.123	-113.758	-113.092	-108.157	-2.512	-109.413	-8191	255	
4379.370	1	1	0	0	0.11919	0.0034311	0.12844	0.25378	0.064709	0.17093	0.21891	0.18841	0.2304	0.093371	0.11697	0.231	0.16445	0.16179	0.11676	0.14413	-2.5938	-2.1312	-2.8667	-2.8	-2.4854	-2.9458	-2.5833	-2.4333	-2.9521	-2.4	-2.9667	-3.025	-2.3604	-3.0187	-2.3729	-2.4938	24.848	153.759	-86.598	184.556	-71.955	-4.500	97.642	-117.658	91.334	116.571	4.882	179.733	177.063	169.545	203.945	59.295	0.00066785	0.00044758	0.00023966	1223.9	3.269e-06	1.1932e-05	1263.6	346.92	4.0162e-06	1.1261e-05	486.75	227.26	154.46	61.996	5.2198e-06	93.464	0.00080679	0.00087776	0.00024226	1173.3	9.0823e-06	9.2379e-06	1223.1	334.76	8.8988e-06	9.4395e-06	473.21	221.91	149.91	60.391	9.7198e-06	91.244	184.775	-47.804	-36.941	-118.932	7.665	-5.668	-119.833	-115.815	-21.803	24.949	-116.514	-113.438	-113.041	-108.037	12.213	-109.161	-8191	255	
4379.442	1	1	0	0	0.39827	0.062444	0.15283	0.12656	0.30618	0.16673	0.23485	0.14075	0.087051	0.055638	0.10083	0.21174	0.37389	0.21507	0.10213	0.28495	-2.5812	-2.4125	-2.7625	-2.9396	-2.3104	-2.7708	-2.6917	-2.6833	-3.0812	-2.4458	-2.7938	-3.0208	-2.2521	-3.0687	-2.6583	-2.5771	221.101	147.526	62.009	-119.232	-118.372	-118.330	133.007	126.967	-83.737	204.082	-125.152	115.648	217.637	202.641	174.640	152.532	0.00064031	0.0012265	0.00028043	1219	2.6818e-06	2.7074e-06	1261.4	346.91	5.4936e-06	7.9132e-06	489.6	227.87	153.31	61.965	6.4599e-06	93.751	0.00082314	0.00086457	0.00024003	1171.7	9.192e-06	9.3667e-06	1220.2	334.87	9.1121e-06	9.3116e-06	473.48	221.52	149.64	60.226	9.4389e-06	91.063	190.992	-82.613	-41.135	-119.157	81.537	23.417	-119.795	-115.855	-5.550	9.198	-116.979	-113.875	-112.512	-108.178	20.011	-109.198	-8191	255	
4379.538	1	1	0	0	0.28236	0.16283	0.031971	0.28357	0.045102	0.29953	0.20543	0.061831	0.34057	0.16056	0.2418	0.15789	0.11817	0.12191	0.35036	0.34876	-2.5229	-2.4646	-2.5104	-2.9437	-2.4229	-2.9708	-2.8375	-2.6271	-2.8833	-2.3833	-2.8792	-3.1604	-2.3771	-3.0854	-2.725	-2.5583	13.576	-24.992	150.155	181.033	89.745	-59.084	175.226	174.729	103.683	-19.088	205.105	143.495	-125.865	164.617	-41.057	120.803	0.00061825	0.0013809	0.00034987	1222.4	8.3199e-06	1.5524e-05	1261.5	344.34	6.4358e-06	8.5515e-06	489.09	228.02	153.41	62.441	4.669e-06	93.986	0.00082356	0.00084604	0.0002382	1170.7	8.9873e-06	9.6432e-06	1220.3	332.8	8.8423e-06	9.2926e-06	473.36	222.03	149.57	60.614	8.956e-06	91.537	197.368	-13.724	-67.058	-119.058	-25.200	23.947	-119.434	-115.654	5.595	11.969	-116.711	-113.599	-112.603	-108.262	-28.146	-109.209	-8191	255	
4379.659	1	1	0	0	0.13657	0.0809	0.183	0.35683	0.31116	0.14604	0.29198	0.10597	0.19687	0.31403	0.17367	0.39934	0.16068	0.009034	0.091472	0.18724	-2.6979	-2.3812	-2.6396	-3.3021	-2.3104	-3.0771	-3.0271	-2.4792	-3.0042	-2.4875	-2.7938	-3.2104	-2.3958	-2.8979	-2.775	-2.2958	119.331	24.140	-17.334	147.018	61.221	194.338	207.372	136.375	205.227	-27.635	186.050	153.103	174.156	24.634	-120.432	168.421	0.00062704	0.0015843	0.00026432	1226.3	4.1432e-06	8.2001e-06	1266.5	346.26	4.8749e-06	5.2395e-06	489.76	227.71	153.86	62.361	4.9113e-06	94.429	0.00082454	0.00083779	0.00023311	1176	8.8059e-06	9.5564e-06	1224.1	335.49	9.2102e-06	9.128e-06	473.04	222.12	149.54	60.601	9.7305e-06	91.648	191.184	-64.020	-32.634	-119.241	4.175	-5.393	-119.831	-115.752	2.881	53.427	-117.001	-113.864	-113.062	-108.223	40.478	-109.030	-8191	255	
4379.753	1	1	0	0	0.21793	0.18363	0.17383	0.058976	0.10458	0.076633	0.19379	0.30104	0.15997	0.058763	0.27305	0.11353	0.15517	0.23273	0.11626	0.23449	-2.4896	-2.5667	-2.5042	-3.1479	-2.2646	-2.7583	-3.1063	-2.4271	-3.0292	-2.5958	-2.6208	-3.2271	-2.4542	-2.8896	-2.9833	-2.5167	66.634	111.141	147.377	99.398	195.930	-103.519	209.525	99.731	151.650	135.458	197.879	195.625	199.867	-69.234	-118.958	221.017	0.00060324	0.00058305	0.00015804	1221.7	8.754e-06	1.1233e-05	1267.6	343.79	5.8795e-06	8.8497e-06	489.98	227.17	154.11	62.425	5.4855e-06	93.853	0.00083704	0.00083804	0.00023971	1175.1	9.131e-06	9.2579e-06	1226	332.98	8.9586e-06	9.4476e-06	472.57	221.35	149.27	60.503	9.4802e-06	91.433	188.855	-96.337	-45.355	-119.009	40.136	64.412	-119.652	-115.953	3.003	0.115	-117.011	-113.417	-112.812	-108.416	-16.602	-109.030	-8191	255	
4379.849	1	1	0	0	0.1375	0.24457	0.26093	0.28588	0.20833	0.10007	0.1751	0.14858	0.11883	0.15957	0.1805	0.0058144	0.21423	0.093615	0.28924	0.23992	-2.5875	-2.5292	-2.2708	-3.1979	-2.475	-2.6562	-2.875	-2.2062	-2.9604	-2.6937	-2.5667	-3.1125	-2.6146	-2.5771	-3.0604	-2.4583	179.269	-0.334	102.429	217.224	-104.442	-37.099	121.886	-62.962	-68.285	-69.427	226.403	40.771	201.071	-125.132	-1.306	166.723	0.00064601	0.00082438	0.00021117	1223.2	7.4979e-06	9.1505e-06	1255.1	343.97	4.7902e-06	5.2379e-06	483.95	223.53	152.61	61.764	6.8233e-06	92.474	0.00082475	0.00086688	0.00023335	1172.2	8.9988e-06	9.4886e-06	1215.6	331.97	9.4349e-06	9.2319e-06	467.68	218.75	148.15	59.897	9.7756e-06	90.322	191.510	-63.393	-60.729	-119.303	-6.783	20.922	-119.919	-115.589	-34.160	27.645	-116.695	-113.738	-112.534	-108.214	-12.367	-108.733	-8191	255	
4379.946	1	1	0	0	0.27785	0.1975	0.18559	0.22381	0.073781	0.074044	0.27277	0.15635	0.12841	0.19528	0.11538	0.068079	0.15265	0.12567	0.15526	0.28325	-2.3229	-2.85	-2.3312	-3.175	-2.5854	-2.5396	-3.0604	-2.5396	-2.6396	-2.725	-2.3875	-3.0854	-2.7083	-2.5667	-3.0083	-2.3646	1.914	6.218	72.195	-87.507	184.134	-37.177	171.397	124.832	33.585	-13.566	-102.540	104.614	-73.356	168.768	99.986	192.344	0.00059508	0.001243	0.00019305	1214.7	6.0729e-06	9.6065e-06	1256	343.05	4.0372e-06	8.2827e-06	485.93	225.34	152.12	61.395	9.3281e-06	93.667	0.00083971	0.00084401	0.00023605	1166.8	8.896e-06	9.3001e-06	1215	330.81	9.082e-06	9.2825e-06	469.2	219.4	148.14	59.594	9.2178e-06	90.833	190.130	-64.659	-10.598	-119.130	-22.329	-7.457	-119.675	-115.675	7.986	8.308	-116.752	-113.182	-112.643	-108.347	10.107	-109.353	-8191	255	
4380.042	1	1	0	0	0.11781	0.096504	0.018794	0.31272	0.076963	0.1849	0.31677	0.06304	0.13834	0.25392	0.17206	0.12895	0.10847	0.084822	0.16805	0.25473	-2.375	-2.7708	-2.2021	-3.2104	-2.5438	-2.5146	-3.0167	-2.4292	-2.6542	-2.8708	-2.3708	-3.1854	-2.6521	-2.7333	-3.0208	-2.5458	174.789	74.365	204.204	-124.490	-52.431	-82.913	187.820	-57.160	71.143	190.958	-14.710	128.042	189.992	204.508	-48.353	69.307	0.00059006	0.00071649	0.0003478	1215.5	5.3086e-06	4.8367e-06	1260.9	344.52	7.4614e-06	8.4264e-06	485.82	226.05	152.38	61.807	8.2573e-06	93.189	0.00081255	0.0008567	0.00023559	1165.3	8.9558e-06	9.1851e-06	1216.6	331.11	9.3107e-06	9.2642e-06	468.07	220.13	148.12	60.067	9.6744e-06	91.317	188.528	-60.593	-41.177	-119.168	26.127	44.667	-119.733	-115.323	18.433	42.852	-116.895	-113.401	-112.863	-107.945	-5.084	-108.739	-8191	255	
4380.138	1	1	0	0	0.29899	0.20002	0.22677	0.09116	0.033085	0.17839	0.21971	0.43257	0.090587	0.16395	0.084271	0.23257	0.11451	0.051055	0.09311	0.080788	-1.9792	-2.8646	-2.2708	-3.0083	-2.7729	-2.2917	-3.1979	-2.575	-2.5021	-3.1292	-2.4292	-3.0708	-2.7042	-2.3521	-2.9958	-2.7229	32.983	106.349	-25.057	-26.788	158.843	-64.536	142.992	203.068	-84.038	16.432	162.153	204.300	225.930	-104.008	-93.768	-86.957	0.0007196	0.00079746	0.00023662	1215.2	7.3171e-06	1.141e-05	1256.5	343.26	6.0952e-06	2.1556e-06	486.84	228.83	152.66	62.772	4.9069e-06	94.823	0.00083331	0.00085341	0.00023933	1167.1	9.0234e-06	9.7414e-06	1217.5	330.57	9.3539e-06	9.4412e-06	471.12	222.66	149.65	61.147	9.6651e-06	92.383	192.017	-56.835	-54.053	-119.323	9.628	53.539	-119.639	-115.454	-18.250	21.786	-116.363	-113.491	-112.748	-108.212	-1.822	-108.997	-8191	255	
4380.259	1	1	0	0	0.04118	0.13542	0.24897	0.33348	0.14952	0.16044	0.057064	0.24333	0.20231	0.057886	0.19993	0.089152	0.31677	0.35408	0.07304	0.20753	-1.775	-3.075	-2.4042	-2.9958	-2.7917	-2.3438	-3.1063	-2.7125	-2.4542	-2.875	-2.4625	-2.7313	-2.9688	-2.5771	-3	-2.6292	63.032	-97.847	-68.246	-133.020	131.144	204.230	149.313	213.083	97.649	-127.460	-112.202	17.425	211.294	-120.351	-69.907	141.800	0.00059741	0.0011274	0.00028074	1211.5	7.9504e-06	1.0763e-05	1248.9	343	5.5395e-06	7.4595e-06	487.75	229.33	155.67	62.653	9.0519e-07	94.634	0.00085981	0.00086428	0.00023813	1166.9	9.3582e-06	9.9339e-06	1218.9	331.7	9.5326e-06	9.4904e-06	472.46	223.26	151.08	61.035	9.4897e-06	92.163	193.975	-74.180	-50.593	-119.350	19.702	22.531	-119.658	-115.517	-30.851	20.462	-116.130	-113.846	-112.287	-108.240	-89.332	-109.113	-8191	255	
4380.355	1	1	0	0	0.1771	0.25834	0.1574	0.3608	0.26574	0.22126	0.18789	0.05824	0.12937	0.16292	0.093815	0.048404	0.28545	0.089602	0.11712	0.33793	-2.0542	-3.0229	-2.1083	-2.9083	-2.7833	-2.3521	-3.2458	-2.6854	-2.3354	-2.7604	-2.5438	-2.85	-3.0979	-2.525	-2.9813	-3.0667	-71.085	-103.287	-105.751	199.667	153.964	-40.084	145.342	150.733	-38.238	165.310	-114.177	190.827	174.621	118.865	-107.097	145.746	0.00062203	0.00072857	0.00030529	1211.2	5.3523e-06	7.9639e-06	1251.6	345.26	8.0124e-06	5.3509e-06	491.43	227.88	154.52	62.785	7.6555e-06	94.258	0.00085711	0.00086841	0.00024247	1166.8	9.2028e-06	9.7308e-06	1214.7	332.19	9.4127e-06	9.7413e-06	471.41	222.49	150.71	60.899	9.3879e-06	91.855	194.192	-30.455	-31.327	-119.223	40.090	-20.893	-119.468	-115.465	-17.479	30.739	-116.552	-113.141	-112.649	-108.034	6.443	-109.015	-8191	255	
4380.451	1	1	0	0	0.19077	0.085602	0.082956	0.35008	0.24123	0.06471	0.24906	0.31784	0.14915	0.14656	0.1794	0.25999	0.19004	0.0075496	0.097122	0.094872	-1.9583	-3.0896	-2.275	-2.6688	-2.9562	-2.4354	-2.9833	-3.0458	-2.325	-2.8875	-2.5854	-2.6583	-2.9708	-2.5042	-2.8917	-3.0958	164.019	31.924	171.001	-130.528	64.149	-78.257	86.538	202.186	182.753	-9.406	-77.375	168.867	155.200	-70.284	192.688	217.805	0.00067972	0.00087875	0.0002476	1215.1	4.9554e-06	3.8386e-06	1260.8	345.23	4.2365e-06	4.4091e-06	485.77	230.56	156.28	63.29	6.2954e-06	95.023	0.00084966	0.00085052	0.00024352	1166.7	9.2012e-06	9.569e-06	1221.2	333.54	9.462e-06	9.712e-06	474.52	224.22	151.68	61.356	9.3664e-06	92.557	191.935	-68.488	-60.713	-119.470	14.135	-9.279	-119.664	-115.397	16.204	18.330	-116.776	-113.773	-112.832	-108.047	-4.857	-108.937	-8191	255	
4380.547	1	1	0	0	0.13824	0.037696	0.1148	0.13107	0.062706	0.22472	0.2708	0.13169	0.34957	0.14902	0.23431	0.15931	0.22937	0.35739	0.15448	0.10351	-2.0312	-2.8604	-2.6292	-2.7333	-2.8646	-2.2958	-2.8167	-2.975	-2.4313	-2.975	-2.6917	-2.5896	-3.0104	-2.4292	-2.6958	-3.2083	41.975	147.027	172.058	157.962	150.338	130.065	200.760	190.700	65.891	-106.130	-131.192	72.636	-130.611	172.019	200.674	176.273	0.00066499	0.00079501	0.00010375	1209.9	4.842e-06	8.7611e-06	1253	344.26	6.4837e-06	5.8241e-06	488.49	229.23	154.21	62.75	4.8883e-06	94.478	0.00084832	0.00087434	0.00024166	1165.3	9.2279e-06	9.5488e-06	1212.3	333.09	9.52e-06	9.4356e-06	473.23	223.53	150.33	61.121	9.5997e-06	92.432	187.076	-88.815	-37.658	-119.274	21.892	15.258	-119.819	-115.537	-36.647	57.745	-116.130	-113.610	-112.674	-108.500	-33.718	-108.689	-8191	255	
4380.666	1	1	0	0	0.077801	0.28332	0.067057	0.156	0.09689	0.077647	0.19992	0.40514	0.19744	0.11704	0.12782	0.20461	0.21744	0.3409	0.18101	0.0060397	-1.7958	-2.7479	-2.575	-2.6979	-2.9958	-2.5521	-2.8729	-3.0708	-2.4208	-3.0062	-2.7833	-2.5396	-3.1063	-2.5062	-2.6542	-2.9938	157.581	-60.049	51.583	167.223	-61.267	-132.207	122.266	173.398	-32.793	167.629	212.557	197.447	125.941	140.747	130.504	137.305	0.00063139	0.00053066	0.00017187	1210	6.3792e-06	6.2753e-06	1260.3	341.7	5.1651e-06	4.8651e-06	480.76	226.17	152.47	62.224	4.7793e-06	93.182	0.00084527	0.00084988	0.00024491	1164.6	9.4831e-06	9.7331e-06	1217	329.87	9.3691e-06	9.4794e-06	467.92	220.46	148.33	60.387	9.3996e-06	91.078	192.792	-89.246	-57.394	-119.360	39.856	21.542	-119.762	-115.474	-15.991	50.286	-116.227	-113.686	-112.703	-107.840	53.283	-109.264	-8191	255	
4380.738	1	1	0	0	0.24952	0.11815	0.081461	0.11233	0.23691	0.033519	0.26007	0.26296	0.021363	0.15817	0.26177	0.42235	0.14461	0.039493	0.13437	0.44701	-1.8208	-2.6708	-2.6792	-2.3792	-3.0208	-2.4354	-2.5542	-3.2792	-2.4083	-2.7479	-2.95	-2.3854	-2.8937	-2.7521	-2.4333	-3.3563	130.488	178.156	-34.829	120.934	220.591	216.262	168.856	152.963	-122.935	138.342	171.099	157.189	-50.459	216.330	3.813	150.661	0.00063408	0.0012228	0.00031032	1205.8	9.5565e-06	9.6041e-06	1250.5	340.67	4.6786e-06	5.8743e-06	481.26	223.36	151.93	61.894	6.4612e-06	92.233	0.00087156	0.00087392	0.00024476	1161.3	9.479e-06	9.5016e-06	1211	329.02	9.1714e-06	9.6083e-06	466.18	218.41	147.93	59.994	9.6389e-06	90.212	196.287	-41.935	-29.080	-119.362	-26.062	-15.857	-119.717	-115.293	-12.506	10.145	-116.465	-113.474	-112.657	-107.997	36.090	-108.855	-8191	255	
4380.834	1	1	0	0	0.052338	0.20783	0.17887	0.044668	0.22589	0.10009	0.21615	0.29606	0.031299	0.1883	0.074712	0.26568	0.30376	0.36844	0.17893	0.045051	-1.9688	-2.7542	-2.8979	-2.3021	-2.8979	-2.4667	-2.4479	-3.1	-2.4542	-2.7417	-2.9292	-2.4667	-3.0354	-2.8646	-2.4021	-3.3521	40.656	130.717	-117.800	-38.539	141.987	138.429	205.058	206.876	163.976	206.385	146.920	-108.356	224.366	183.865	-94.120	49.064	0.00065339	0.00046717	0.00034334	1208.8	8.0978e-06	7.3466e-06	1247.8	339.22	2.1383e-06	1.591e-06	475.65	220.72	150.28	61.22	9.3893e-06	92.048	0.00082195	0.00086343	0.00023694	1160.1	9.4286e-06	9.5061e-06	1208.5	328.26	9.2523e-06	9.4342e-06	462.33	216.7	146.24	59.399	9.6339e-06	89.851	189.277	-43.677	-63.907	-119.500	30.142	23.376	-119.834	-115.498	-53.027	-2.043	-116.680	-113.639	-112.689	-108.406	-14.372	-109.158	-8191	255	
4380.930	1	1	0	0	0.22803	0.2573	0.15794	0.28031	0.298	0.070036	0.22374	0.13937	0.1375	0.12869	0.14048	0.11027	0.36357	0.24026	0.16752	0.22764	-2.1	-2.6125	-2.8	-2.4437	-2.8354	-2.7792	-2.5604	-3.1583	-2.4875	-2.5917	-2.8833	-2.3896	-2.9062	-2.7292	-2.3958	-3.2229	137.004	29.695	197.750	170.965	18.681	70.294	143.188	179.875	10.499	-54.797	185.708	-107.805	184.057	135.654	35.600	112.565	0.00062505	0.00074056	0.0001792	1207.5	4.8172e-06	7.4677e-06	1246.3	340.13	3.3083e-06	3.0812e-06	481.53	225.25	152.64	61.338	7.918e-06	92.566	0.00085323	0.00084524	0.00023577	1162.1	9.1032e-06	9.6766e-06	1209.2	328.45	9.0698e-06	9.409e-06	466.03	219.01	147.8	59.876	9.3755e-06	90.401	192.641	-53.365	-49.883	-119.240	-2.507	11.256	-119.771	-115.700	22.407	-91.227	-116.213	-113.506	-112.754	-108.255	-35.429	-109.041	-8191	255	
4381.050	1	1	0	0	0.19024	0.27549	0.10875	0.23473	0.074445	0.098915	0.31807	0.11695	0.19702	0.22015	0.22048	0.10044	0.15207	0.12092	0.046865	0.38502	-2.2229	-2.55	-2.9417	-2.2917	-2.7854	-2.7625	-2.3937	-3.0083	-2.6833	-2.4396	-3.1562	-2.5167	-2.7229	-2.9479	-2.2333	-3.0854	7.065	-106.141	204.022	154.648	177.294	-56.695	141.486	-28.832	-12.630	157.016	7.402	-111.522	-125.332	202.200	115.949	175.014	0.00067131	0.0010449	0.00027389	1209.5	8.3917e-06	9.082e-06	1249.9	343.37	6.5036e-06	8.6925e-06	484.96	227.5	153.38	62.634	5.8509e-06	93.662	0.00083069	0.00088485	0.00023261	1161.9	9.1658e-06	9.5453e-06	1213	331.05	9.5356e-06	9.7802e-06	469.14	221.06	149.26	60.773	9.5387e-06	91.371	194.198	-44.151	-2.499	-119.414	7.810	-6.883	-119.992	-115.525	-28.336	5.009	-116.409	-113.518	-112.773	-108.059	-24.220	-109.270	-8191	255	
4381.147	1	1	0	0	0.14791	0.18324	0.17697	0.15783	0.2482	0.24577	0.20701	0.15139	0.23599	0.18297	0.025449	0.42748	0.18233	0.29784	0.10339	0.17037	-2.0312	-2.2958	-2.7896	-2.4062	-2.6479	-2.9167	-2.4396	-3.0604	-2.6917	-2.2521	-3.1396	-2.5729	-2.6875	-2.9646	-2.3292	-2.9917	-107.111	14.095	206.300	192.723	123.663	42.300	200.449	-110.086	137.519	-54.135	205.529	226.042	171.399	78.085	-88.433	174.998	0.00060069	0.0011687	0.0002075	1212.4	4.6155e-06	6.2779e-06	1240.2	342.19	4.7774e-06	2.4515e-06	482.91	226	151.81	61.779	1.001e-05	91.187	0.00084295	0.00090267	0.00023934	1164.1	9.2322e-06	9.5636e-06	1206.9	330.15	9.5116e-06	9.731e-06	466.01	218.91	147.88	59.925	9.3547e-06	89.466	189.205	-37.849	-52.344	-119.252	-21.795	13.173	-120.059	-115.480	-50.779	-47.712	-116.743	-113.461	-113.016	-108.053	-16.987	-109.014	-8191	255	
4381.243	1	1	0	0	0.14326	0.14887	0.062056	0.19644	0.071336	0.23864	0.44487	0.28684	0.14078	0.075207	0.21415	0.45536	0.26737	0.20908	0.051789	0.16634	-2.2687	-2.2188	-3.1021	-2.4979	-2.4979	-2.9271	-2.3958	-3.0062	-2.8521	-2.1875	-3.0812	-2.5104	-2.6312	-2.9958	-2.3271	-2.8917	41.626	-99.640	64.409	-86.871	-80.412	12.794	159.458	202.764	-88.774	6.554	223.573	201.143	195.369	-123.118	125.348	128.321	0.00057833	6.0272e-05	0.00025343	1198.9	7.3337e-06	7.7855e-06	1246.8	338.68	6.0374e-06	5.5791e-06	477.09	221.61	149.71	60.912	6.8068e-06	90.689	0.00085565	0.00084715	0.00023674	1155.5	9.0338e-06	9.7039e-06	1205	326.95	9.2681e-06	9.1341e-06	462.15	216.03	145.16	58.956	9.4239e-06	88.437	185.782	147.292	-14.800	-119.468	-22.554	10.608	-119.812	-115.911	13.030	57.219	-116.120	-113.721	-112.646	-108.133	27.442	-109.514	-8191	255	
4381.339	1	1	0	0	0.081652	0.13193	0.10868	0.16317	0.14875	0.19449	0.22431	0.2652	0.040574	0.13276	0.084142	0.3702	0.1822	0.38211	0.16315	0.19503	-2.4667	-2.2438	-3.0083	-2.8042	-2.4229	-3.0812	-2.4062	-3.0062	-3.0042	-2.2646	-3.0375	-2.6854	-2.5167	-3.1437	-2.3208	-2.9021	76.934	136.905	150.066	-61.183	-112.429	82.111	-113.324	145.244	-26.165	62.497	159.664	208.277	102.943	144.946	106.404	150.037	0.00059409	0.001061	0.00019888	1200	7.4256e-06	6.346e-06	1239.3	335.88	2.1011e-06	7.7367e-06	471.66	217.39	147.4	59.451	1.8628e-06	89.316	0.00082885	0.00086046	0.0002374	1155.5	9.1e-06	9.019e-06	1196.9	323.84	9.1567e-06	9.5056e-06	456.36	212.26	142.81	57.727	9.3664e-06	87.186	196.575	-8.483	-62.930	-119.435	-28.602	-34.681	-119.552	-115.466	-6.659	-2.750	-116.759	-113.749	-112.853	-107.811	-57.047	-108.888	-8191	255	
4381.435	1	1	0	0	0.21363	0.20685	0.15589	0.30248	0.12171	0.09509	0.18106	0.35177	0.23652	0.19054	0.39022	0.21493	0.12626	0.22105	0.094991	0.29096	-2.4333	-2.0146	-3.0604	-2.6312	-2.4479	-2.9479	-2.4667	-2.6	-2.925	-2.3438	-2.8625	-2.7562	-2.4542	-3.1083	-2.4188	-2.5792	-95.556	201.074	-27.518	-102.945	-69.150	120.357	151.315	-92.474	141.298	181.457	175.310	-114.896	195.964	158.036	-53.321	113.400	0.00057776	0.0012441	0.00014292	1201.1	3.43e-06	8.1206e-06	1236.6	332.9	4.6803e-06	6.5252e-06	467.54	217.01	145.99	58.742	4.1148e-06	89.272	0.00081757	0.00088829	0.00023832	1154.3	9.1669e-06	8.9732e-06	1196.1	320.72	9.3831e-06	9.2549e-06	452.62	211.01	141.7	57.269	9.475e-06	87.102	192.530	-56.317	-33.288	-119.174	-2.952	73.779	-119.563	-115.525	-17.133	18.518	-116.934	-113.382	-112.660	-108.247	-30.380	-108.769	-8191	255	
4381.531	1	1	0	0	0.23912	0.12904	0.17072	0.13614	0.36893	0.15354	0.086204	0.31425	0.083242	0.11013	0.25705	0.10923	0.31465	0.34776	0.034052	0.33808	-2.7083	-2.0563	-2.6792	-2.8042	-2.3229	-3.0458	-2.675	-2.6042	-2.9896	-2.3021	-2.7417	-2.8646	-2.1792	-3.0812	-2.5854	-2.6312	-97.046	23.136	52.297	210.995	94.153	189.919	201.557	201.150	154.110	-93.875	181.040	205.919	139.029	121.340	85.411	174.189	0.00061096	0.00038651	0.00036979	1198.1	4.9071e-06	6.892e-06	1232.7	329.56	5.1216e-06	8.5726e-06	471.75	217.22	146.09	58.713	4.3952e-06	89.381	0.00081736	0.00089234	0.00024439	1152.4	9.108e-06	9.4905e-06	1195.8	319.1	9.4027e-06	9.6056e-06	453.05	210.72	142.02	57.27	9.6587e-06	87.028	193.370	-8.321	-45.182	-119.348	9.477	40.967	-119.751	-115.596	-6.904	16.618	-116.750	-113.797	-112.795	-108.210	-22.621	-109.099	-8191	255	
4381.627	1	1	0	0	0.21018	0.22743	0.14027	0.40725	0.20579	0.10739	0.25844	0.11357	0.14706	0.15458	0.19384	0.36233	0.1372	0.097283	0.062612	0.14027	-2.5312	-2.3646	-2.6729	-2.8042	-2.1688	-3.0271	-2.6479	-2.6167	-2.9521	-2.3354	-2.6	-3.0521	-2.2812	-2.9271	-2.8208	-2.6396	150.846	-29.713	-105.296	161.026	213.849	176.209	98.455	103.782	-81.400	96.575	-61.151	153.138	201.496	-110.191	209.469	136.898	0.0005468	0.00056286	0.00024087	1200	7.999e-06	7.5509e-06	1231.8	332.32	7.2192e-06	6.2593e-06	465.89	216.22	145.98	58.872	4.726e-06	88.903	0.00081998	0.00086428	0.00023898	1151.3	9.1195e-06	9.322e-06	1195.5	320.91	9.1845e-06	9.6354e-06	452.59	211.26	142.21	57.183	9.7009e-06	86.79	188.395	-73.650	-71.439	-119.293	-2.805	14.075	-119.826	-116.111	-49.048	37.098	-116.871	-113.474	-112.492	-108.015	-19.068	-109.362	-8191	255	
4381.746	1	1	0	0	0.12677	0.080999	0.10912	0.31885	0.24256	0.19005	0.21562	0.13458	0.22611	0.19632	0.090212	0.10284	0.26836	0.42776	0.085956	0.10485	-2.5771	-2.4	-2.475	-2.9896	-2.2646	-3.0896	-2.8042	-2.5208	-2.9896	-2.3292	-2.7396	-3.1229	-2.4313	-2.8312	-2.5729	-2.2833	177.117	120.775	33.740	223.843	-113.168	-80.704	180.655	86.186	183.528	32.816	188.832	-118.209	138.079	173.444	83.119	173.089	0.00055758	0.00089637	0.00022318	1193.9	1.0891e-05	9.7811e-06	1231.8	329.96	6.0407e-06	4.7217e-06	469.66	217.9	146.02	58.879	5.7332e-06	89.465	0.00082107	0.00087208	0.00023983	1147.8	8.9434e-06	9.8668e-06	1188.9	318.62	9.1908e-06	9.6088e-06	453.58	211.69	142.16	57.279	9.574e-06	86.794	195.794	-54.356	-105.661	-119.485	-4.208	65.434	-120.004	-115.733	-13.960	-14.410	-116.758	-114.139	-113.035	-108.296	-21.878	-109.432	-8191	255	
4381.842	1	1	0	0	0.23711	0.29496	0.19386	0.1407	0.16479	0.13412	0.090394	0.15772	0.2878	0.20754	0.13208	0.15264	0.17101	0.21756	0.23765	0.17622	-2.7667	-2.3812	-2.3438	-3.1479	-2.1833	-2.6104	-2.9188	-2.3708	-2.8292	-2.4521	-2.5062	-3.1333	-2.5375	-2.8792	-2.8688	-2.5333	-8.717	-104.299	-41.389	171.749	83.983	172.115	199.273	46.210	61.342	-23.030	208.051	211.118	94.940	151.675	180.131	96.818	0.0006387	0.00093065	0.00014541	1191.9	7.8098e-06	9.671e-06	1238	331.82	5.7744e-06	1.0671e-05	464.96	217.86	145.06	59.607	2.5587e-06	89.608	0.00083533	0.00087859	0.00024152	1145.3	9.281e-06	9.5663e-06	1195.4	319.42	9.3737e-06	9.6814e-06	451.71	212.48	142.49	57.728	9.5799e-06	87.496	184.778	-59.590	-17.104	-119.612	-8.090	26.787	-120.080	-116.196	-12.332	5.470	-116.640	-113.792	-113.003	-108.149	8.574	-109.428	-8191	255	
4381.939	1	1	0	0	0.10655	0.11504	0.19394	0.36259	0.13674	0.10544	0.22355	0.036721	0.015235	0.11014	0.047414	0.12819	0.053396	0.23904	0.14941	0.29382	-2.5354	-2.4854	-2.4854	-3.2604	-2.2958	-2.7354	-3.0396	-2.3667	-2.7979	-2.7375	-2.4667	-3.2062	-2.3542	-2.7604	-2.9854	-2.4583	49.727	1.956	-51.124	-129.176	-123.105	-28.484	167.955	29.212	-26.527	115.278	102.794	98.044	146.319	183.005	110.471	151.295	0.00056841	0.00078707	0.00014642	1199.6	3.1906e-06	8e-06	1247.7	333.02	7.1139e-06	7.8005e-06	469.73	220.13	147.53	60.246	7.9481e-06	90.443	0.00084794	0.00088456	0.00024853	1152.3	9.212e-06	9.7483e-06	1200.3	321.03	9.4172e-06	9.8342e-06	457.14	214.6	143.84	58.384	9.6353e-06	88.401	187.134	-61.827	-11.405	-119.907	0.021	32.100	-119.529	-115.868	-7.526	-9.615	-116.541	-114.155	-112.897	-108.143	31.400	-109.347	-8191	255	
4382.035	1	1	0	0	0.12727	0.081232	0.1634	0.089297	0.11562	0.13464	0.24622	0.24161	0.17284	0.062574	0.20874	0.13997	0.18272	0.21413	0.24269	0.2867	-2.4708	-2.6458	-2.3438	-3.1229	-2.525	-2.5312	-3.0771	-2.3354	-2.8604	-2.7188	-2.4417	-2.9625	-2.425	-2.6729	-2.9396	-2.3646	6.557	91.421	-100.141	-129.453	40.488	-43.943	-112.657	156.351	87.605	-50.748	-54.091	94.891	-133.516	-109.373	-14.330	115.406	0.00060556	0.00086752	0.00018133	1199.1	3.7262e-06	6.6453e-06	1231.9	334.6	8.9681e-06	1.0506e-05	469.14	221.17	149.45	60.253	5.1814e-06	90.802	0.00084495	0.00088903	0.00022744	1154.2	9.1853e-06	9.4626e-06	1200.4	322.03	9.3002e-06	9.5188e-06	456.72	215.64	145.3	58.574	9.5215e-06	88.739	192.803	-83.370	-21.027	-119.400	18.509	88.292	-119.583	-115.667	-15.889	10.808	-116.520	-113.505	-112.373	-107.972	-29.230	-109.371	-8191	255	
4382.131	1	1	0	0	0.06347	0.24238	0.16477	0.25059	0.080661	0.1089	0.16205	0.30134	0.24777	0.046506	0.22032	0.15369	0.059216	0.21157	0.21403	0.082065	-2.2542	-2.7188	-2.1896	-3.0604	-2.5104	-2.4354	-3.0146	-2.3771	-2.6479	-2.8354	-2.4562	-3.0042	-2.8083	-2.4958	-2.8812	-2.4333	6.928	-93.405	206.158	167.771	-87.650	103.603	162.600	173.969	7.148	-128.531	151.233	190.476	161.741	-84.755	-1.872	210.184	0.000651	0.00072252	0.00024997	1209.9	5.7296e-06	1.2421e-05	1234.7	335.16	4.8714e-06	6.4655e-06	475.75	222.65	150.26	60.569	1.2542e-05	91.059	0.00084192	0.00084015	0.00023883	1156.9	9.3217e-06	9.5041e-06	1196	323.34	9.7814e-06	9.5261e-06	461.61	216.88	146.37	58.975	9.264e-06	89.118	189.102	-93.114	-51.411	-119.340	20.756	57.188	-119.550	-115.465	-10.818	-11.055	-117.091	-113.616	-112.782	-108.442	-6.379	-109.183	-8191	255	
4382.227	1	1	0	0	0.25051	0.018184	0.19767	0.14846	0.14246	0.068219	0.096022	0.32793	0.15252	0.30692	0.067944	0.27634	0.33737	0.47434	0.18429	0.066096	-2.2313	-2.8167	-2.2646	-2.8667	-2.6437	-2.55	-3.1667	-2.6708	-2.5229	-2.8458	-2.5062	-2.7875	-2.7583	-2.4313	-2.8958	-2.6063	190.295	-61.324	-104.159	157.470	67.909	54.740	205.149	223.541	150.230	200.768	-35.084	119.417	106.504	207.294	-25.314	195.997	0.00065177	0.0016812	0.0003605	1198.6	3.9111e-06	6.4151e-06	1243	335.6	6.8246e-06	8.5718e-06	471.44	221.03	149.54	60.729	1.0486e-05	91.059	0.00082887	0.00085939	0.00024746	1150.6	9.1991e-06	9.4168e-06	1198.9	323.01	9.3118e-06	9.2331e-06	458.34	216.01	145.36	58.877	9.3571e-06	88.811	187.036	-29.364	-68.108	-119.295	-24.523	29.202	-119.890	-115.399	-27.389	42.943	-116.747	-113.700	-112.758	-107.862	2.592	-108.961	-8191	255	
4382.348	1	1	0	0	0.18886	0.13756	0.19379	0.25948	0.31152	0.21296	0.14925	0.056377	0.41613	0.37962	0.36184	0.38173	0.21764	0.25167	0.15111	0.1766	-2.2542	-2.975	-2.1042	-2.8833	-2.7354	-2.3729	-3.3271	-2.5875	-2.4729	-2.8438	-2.2104	-2.9146	-2.8063	-2.5729	-3.1312	-2.6937	127.039	105.449	-61.852	200.820	215.369	-68.770	166.918	199.532	141.951	84.402	-129.110	193.992	-106.646	-119.756	167.893	-107.396	0.00061951	0.00088147	0.00025194	1197.3	7.0828e-06	1.2281e-05	1243.8	335.59	5.1417e-06	2.6273e-06	475.87	224.29	150.09	61.143	5.2198e-06	91.922	0.00084885	0.00086494	0.0002375	1153.1	9.1554e-06	9.5322e-06	1201.3	323.47	9.562e-06	9.1001e-06	461.84	218.2	146.25	59.346	9.2939e-06	89.982	189.399	-80.604	-60.136	-119.268	-1.873	34.017	-119.447	-115.406	-18.483	1.893	-116.824	-113.764	-112.850	-107.954	-29.983	-108.953	-8191	255	
4382.442	1	1	0	0	0.063674	0.24873	0.12415	0.25724	0.066168	0.085386	0.047493	0.2004	0.14556	0.1634	0.095828	0.058156	0.19468	0.41048	0.17848	0.085716	-2.0563	-2.9688	-2.3125	-2.7792	-2.9375	-2.1875	-2.9875	-2.7083	-2.3583	-3.0271	-2.4542	-2.6417	-2.7396	-2.2083	-2.875	-2.7417	-59.350	-124.323	181.278	-113.348	183.264	128.552	-84.976	173.325	-2.459	192.232	72.289	119.390	-122.381	138.509	-76.001	190.594	0.00062731	0.00067842	0.00023202	1201.2	5.0279e-06	2.7608e-06	1246.6	338.13	3.2458e-06	3.0455e-06	481.08	224.66	150.67	61.837	6.8725e-06	92.486	0.00084223	0.00085324	0.00024455	1154.7	8.8505e-06	9.5505e-06	1205.7	326	9.245e-06	9.4224e-06	465.57	218.93	146.87	59.669	9.5162e-06	90.064	192.615	-28.460	-29.352	-119.263	13.823	39.774	-119.849	-115.454	12.621	-7.359	-116.667	-113.579	-112.999	-108.111	36.452	-109.135	-8191	255	
4382.538	1	1	0	0	0.095757	0.1116	0.20101	0.20614	0.18494	0.06715	0.20837	0.078759	0.19721	0.070976	0.24675	0.46897	0.28512	0.13107	0.23512	0.12521	-2.1312	-2.9021	-2.4229	-2.6708	-2.7583	-2.2687	-2.9021	-2.775	-2.2938	-3.0042	-2.5354	-2.7	-3.025	-2.375	-2.8125	-2.8417	16.803	222.294	-8.730	-106.934	64.955	174.753	208.635	137.998	19.992	81.198	-119.886	171.858	147.410	216.871	-20.102	206.792	0.00057365	0.00073448	0.00016684	1198	3.7163e-06	1.5442e-05	1239.9	338.1	3.6276e-06	8.7013e-06	477.32	222.7	150.07	60.977	4.4932e-06	90.968	0.00085875	0.00086317	0.00024396	1155.4	9.0738e-06	9.4787e-06	1202.1	325.07	8.9593e-06	9.3517e-06	460.68	216.71	145.71	59.057	9.4e-06	88.769	184.618	-37.745	-55.115	-119.160	-24.175	27.964	-119.989	-115.571	22.390	29.947	-116.418	-113.880	-112.144	-108.099	-20.484	-108.769	-8191	255	
4382.612	1	1	0	0	0.13338	0.036113	0.071485	0.11822	0.21569	0.19823	0.26436	0.17205	0.086466	0.29359	0.16582	0.32666	0.18533	0.10776	0.19838	0.2123	-1.8813	-2.9604	-2.3812	-2.6813	-2.9938	-2.2604	-2.8792	-2.8208	-2.3229	-3.1562	-2.6354	-2.5042	-3.2146	-2.4729	-2.8563	-3.1479	-69.823	-5.717	-14.651	178.504	93.327	207.884	117.887	-92.946	-122.305	152.300	158.425	221.555	186.708	144.830	174.537	128.599	0.00061933	0.0010828	0.00014728	1196.3	7.2182e-06	1.2118e-05	1235.7	334.35	6.7932e-06	7.7952e-06	471.43	220.26	149.24	59.979	6.0556e-06	90.913	0.00084349	0.00085599	0.00023698	1150.8	9.0561e-06	9.6963e-06	1196.9	322.72	9.5253e-06	9.678e-06	457.55	214.96	144.63	58.273	9.2724e-06	88.227	184.921	-58.148	-16.429	-119.416	-18.570	12.487	-119.948	-115.586	-34.899	36.775	-116.555	-113.637	-112.405	-107.956	29.258	-109.204	-8191	255	
4382.730	1	1	0	0	0.14041	0.26368	0.1128	0.20501	0.13243	0.03989	0.34245	0.1826	0.19886	0.077653	0.11119	0.22135	0.23459	0.26634	0.043235	0.25428	-1.9333	-2.6979	-2.5708	-2.5646	-3.0042	-2.2354	-2.7479	-3	-2.3833	-2.9271	-2.8208	-2.4583	-3.0062	-2.4458	-2.6917	-2.9208	59.754	-93.920	200.965	-41.335	200.377	-17.435	133.637	-128.491	115.341	-29.663	214.345	217.516	-4.995	179.679	202.760	159.086	0.0005649	0.001257	0.00018113	1191.6	4.5485e-06	4.8844e-06	1232.2	329.15	5.1874e-06	7.3921e-06	469.22	219.55	147.19	59.328	4.8324e-06	90.379	0.00083185	0.00088794	0.00024494	1146.6	9.1007e-06	9.6018e-06	1193.2	319.43	9.2013e-06	9.7115e-06	454.8	213.16	143.49	57.888	9.4647e-06	88.213	193.289	-44.385	-64.145	-119.301	23.004	-0.220	-119.790	-115.524	-42.706	13.481	-116.880	-113.879	-112.236	-107.911	-29.287	-108.930	-8191	255	
4382.827	1	1	0	0	0.14749	0.18432	0.19726	0.3445	0.22105	0.075151	0.43152	0.1984	0.18005	0.23824	0.26703	0.33302	0.14991	0.26044	0.26228	0.13427	-1.8188	-2.6792	-2.5917	-2.3646	-3.1354	-2.3479	-2.8354	-2.8063	-2.1875	-2.7562	-2.8458	-2.4021	-3.0687	-2.6854	-2.3208	-3.1021	-48.978	-90.599	80.063	175.135	4.065	-48.683	171.494	220.254	-120.818	93.143	181.697	90.512	-5.097	134.126	73.562	163.050	0.0005767	0.0005181	0.00024263	1202.1	5.0234e-06	1.478e-05	1226.9	332.93	4.055e-06	5.5663e-06	470.05	221.02	148.54	60.156	3.3784e-06	91.369	0.00085769	0.00090478	0.0002476	1150.3	9.3769e-06	9.7597e-06	1190.4	321.27	9.4445e-06	9.3009e-06	455.67	214.59	144.38	58.477	9.8877e-06	88.955	193.828	-83.527	-48.125	-119.416	20.824	47.920	-119.969	-115.518	32.009	-1.797	-115.989	-113.758	-112.571	-108.066	-54.838	-109.338	-8191	255	
4382.923	1	1	0	0	0.1866	0.13751	0.084806	0.099961	0.12128	0.043999	0.19639	0.24283	0.12074	0.29872	0.015058	0.21683	0.15903	0.16447	0.15925	0.12545	-1.9792	-2.775	-2.7667	-2.5312	-2.9104	-2.5062	-2.9604	-2.9875	-2.3354	-2.7792	-2.9708	-2.3542	-3.1667	-2.6625	-2.4521	-3.2271	216.298	184.638	-6.513	-75.793	137.496	-82.302	223.197	199.349	183.251	95.711	30.267	-117.950	46.655	-114.835	-58.872	203.663	0.00066218	0.0011545	0.00021674	1199.3	5.5241e-06	1.1568e-05	1239	333.35	5.6011e-06	9.1252e-06	473.75	221.94	149.11	60.474	1.0795e-05	90.674	0.00085794	0.00089041	0.0002391	1148.2	9.41e-06	9.9129e-06	1195.3	320.54	9.9755e-06	9.6719e-06	456.94	214.89	145.1	58.708	9.7367e-06	88.525	189.259	-39.532	-37.877	-119.696	-2.026	23.263	-120.283	-116.228	-17.705	20.956	-116.592	-113.653	-112.678	-108.064	14.996	-109.604	-8191	255	
4383.019	1	1	0	0	0.2372	0.15423	0.17591	0.23571	0.062334	0.12304	0.21467	0.18371	0.21489	0.21869	0.15682	0.16766	0.17468	0.10611	0.19715	0.2569	-2.0146	-2.5375	-2.8688	-2.5646	-3	-2.6417	-2.5167	-3.0125	-2.4646	-2.7375	-2.9313	-2.4458	-2.8688	-2.6771	-2.3438	-3.1813	132.383	223.680	-126.276	-130.117	131.773	101.013	156.718	-14.542	77.039	51.135	181.464	193.202	-68.335	191.213	151.701	115.278	0.00055002	0.00040887	0.00012728	1189.3	5.1671e-06	1.3373e-05	1236.1	333.97	3.3092e-06	6.2575e-06	471.2	221.25	147.98	59.942	1.075e-05	90.633	0.00082391	0.00087745	0.00024634	1146	9.4058e-06	1.0041e-05	1191.3	320.37	9.6389e-06	9.7579e-06	456.56	215.15	144.55	58.321	9.9452e-06	88.018	193.586	-110.207	-79.534	-119.608	-28.835	17.961	-120.366	-115.779	-5.662	-9.377	-116.787	-113.934	-113.389	-108.323	17.496	-109.147	-8191	255	
4383.140	1	1	0	0	0.21503	0.21392	0.18063	0.22852	0.27506	0.33858	0.16296	0.17342	0.17454	0.046445	0.20346	0.33042	0.097814	0.088237	0.11266	0.13776	-2.0187	-2.5167	-2.7146	-2.4	-2.7896	-2.7979	-2.4083	-3.0292	-2.55	-2.6167	-3.0021	-2.4104	-2.9146	-2.9375	-2.2854	-2.95	140.609	-81.083	158.559	169.843	9.583	-93.262	137.887	155.307	-77.745	-48.017	157.307	-124.108	61.969	112.370	-92.621	108.111	0.0005926	0.00048036	0.00012507	1189.7	5.848e-06	1.1086e-05	1232.2	331.45	2.7541e-06	1.0594e-05	470.36	219.09	148.65	60.065	4.826e-06	90.182	0.00087514	0.00085675	0.00025358	1141.5	9.3605e-06	9.9339e-06	1189.1	319.6	9.5445e-06	9.9866e-06	456.23	214.4	144.09	58.381	9.8634e-06	87.947	190.662	-66.401	-27.389	-119.694	-29.605	-10.628	-120.311	-115.655	15.951	11.880	-116.218	-113.221	-112.620	-107.915	10.314	-109.150	-8191	255	
4383.211	1	1	0	0	0.21673	0.086666	0.23078	0.34185	0.15488	0.13322	0.092112	0.089168	0.13379	0.25431	0.22401	0.33974	0.33618	0.26373	0.063359	0.12176	-2.2812	-2.2604	-2.9583	-2.4292	-2.6271	-2.9708	-2.4958	-2.9604	-2.5354	-2.5271	-3.175	-2.5146	-2.7917	-2.8667	-2.2875	-3.1104	175.410	-121.995	86.633	113.984	-128.528	179.587	68.312	211.402	99.998	78.268	73.100	149.424	172.273	166.914	18.615	104.353	0.00063299	0.0015543	0.00020405	1182.8	5.7398e-06	1.0234e-05	1218.8	328.39	5.9702e-06	1.0591e-05	471.01	222.5	147.3	60.354	6.688e-06	91.093	0.00085051	0.00090607	0.00024641	1142.2	9.4199e-06	1.0041e-05	1185.4	318.64	9.7713e-06	9.7592e-06	456.43	215.65	143.9	58.735	9.6952e-06	88.794	195.843	-21.120	-19.632	-119.138	-14.686	25.308	-119.772	-115.680	-41.472	7.032	-116.435	-113.600	-112.885	-108.230	9.725	-109.281	-8191	255	
4383.307	1	1	0	0	0.11751	0.26055	0.20414	0.19185	0.18465	0.13019	0.15938	0.025427	0.11269	0.051728	0.096093	0.29443	0.27835	0.15855	0.08812	0.27618	-2.3958	-2.2792	-2.8792	-2.5812	-2.6083	-3.0833	-2.3312	-3.0792	-2.6417	-2.2938	-3.2354	-2.6396	-2.5687	-3.1292	-2.3063	-2.8354	88.070	37.344	59.579	185.590	-55.351	-41.885	173.637	103.151	98.721	-132.279	24.316	187.529	170.209	-111.190	41.608	-110.145	0.00059356	0.0006796	0.00013337	1194.4	8.3472e-06	1.5275e-05	1234.5	333.48	6.5308e-06	5.166e-06	474.39	223	150.6	60.707	7.5424e-06	91.747	0.00086758	0.00089374	0.00024781	1144	9.6664e-06	9.9938e-06	1196	321.67	9.5611e-06	1.009e-05	460.43	217.51	146.07	58.99	9.8145e-06	89.261	184.705	-34.028	-82.171	-119.502	6.902	14.488	-119.548	-115.367	-45.039	63.485	-116.423	-113.473	-112.386	-108.012	64.392	-108.924	-8191	255	
4383.428	1	1	0	0	0.074676	0.15501	0.14028	0.10983	0.15472	0.18676	0.19184	0.45882	0.15434	0.045595	0.13132	0.29577	0.075201	0.12732	0.20178	0.086081	-2.4437	-2.0854	-2.9708	-2.6	-2.4708	-3.0229	-2.3542	-2.8937	-2.8792	-2.2354	-3.0292	-2.6437	-2.6333	-3.1625	-2.2604	-2.7583	-101.471	173.839	134.769	-125.201	-114.766	-54.484	164.831	-127.076	70.614	47.470	-37.771	147.907	-89.497	177.940	139.639	-9.971	0.00066035	0.0010972	0.00020082	1195.8	3.3384e-06	6.5046e-06	1225.4	330.57	7.5609e-06	1.6828e-06	472.87	221.26	147.96	60.194	3.1532e-06	90.574	0.00087646	0.00089552	0.0002512	1146.5	9.5673e-06	9.682e-06	1193.1	320.26	9.8561e-06	9.7936e-06	457.32	215.86	144.63	58.617	9.8686e-06	88.266	188.628	-94.280	-45.696	-119.312	3.259	19.061	-119.587	-115.536	-14.029	157.445	-116.175	-113.683	-112.416	-107.866	-34.486	-109.262	-8191	255	
4383.522	1	1	0	0	0.32258	0.3851	0.071511	0.40308	0.20506	0.063638	0.24067	0.18043	0.12477	0.19201	0.10252	0.088447	0.13475	0.39211	0.059781	0.25214	-2.2875	-2.2375	-2.8292	-2.7917	-2.4792	-2.9083	-2.4979	-2.7625	-2.8812	-2.3812	-2.9292	-2.7667	-2.5125	-3.1479	-2.2979	-2.7	128.825	89.479	-19.822	-125.336	-7.403	9.082	178.856	152.191	-125.344	-74.713	129.110	161.759	-81.427	108.318	-61.371	193.161	0.00065574	0.00088395	0.00012525	1186.8	6.1283e-06	1.3529e-05	1232.4	329.53	1.5975e-06	7.0799e-06	470.78	221.61	149.01	59.945	3.0505e-06	90.63	0.00084792	0.00092467	0.00025632	1141.6	9.4408e-06	9.871e-06	1189.7	319.44	9.8176e-06	9.3804e-06	456.9	215.98	144.81	58.422	9.6365e-06	88.187	192.949	-76.929	1.998	-119.078	38.484	27.398	-119.683	-115.583	36.514	20.632	-116.517	-113.407	-112.643	-108.068	92.907	-109.227	-8191	255	
4383.620	1	1	0	0	0.16199	0.15481	0.16926	0.044259	0.136	0.25698	0.24497	0.18307	0.064834	0.28381	0.26219	0.35721	0.20473	0.21529	0.20318	0.19805	-2.6021	-2.2542	-2.7438	-2.8917	-2.2396	-3.0312	-2.5812	-2.5646	-2.8854	-2.2979	-2.9083	-2.825	-2.3292	-2.9688	-2.2542	-2.5187	-109.122	-91.045	-27.757	-98.129	-4.411	-126.913	224.583	-114.430	-44.414	14.399	205.707	129.572	104.523	66.305	168.961	-107.585	0.0006957	0.0010521	5.8847e-05	1188.5	5.1718e-06	9.0411e-06	1233.4	332.14	7.8692e-06	8.0671e-06	474.08	223.61	150.25	60.839	5.3898e-06	91.506	0.00085308	0.00089705	0.00024689	1144.6	9.4017e-06	9.8357e-06	1191	319.97	9.6762e-06	9.7301e-06	459.48	217.77	146.12	59.17	9.8476e-06	89.316	194.224	-69.412	-57.571	-118.882	25.677	13.545	-119.954	-115.430	4.176	20.230	-116.483	-113.695	-112.788	-107.840	17.635	-109.197	-8191	255	
4383.739	1	1	0	0	0.036582	0.20291	0.13662	0.1489	0.33144	0.1097	0.21508	0.16466	0.29801	0.17817	0.20872	0.17164	0.090282	0.16505	0.17682	0.32052	-2.5667	-2.1729	-2.675	-2.8583	-2.3021	-2.9375	-2.9437	-2.5646	-2.9042	-2.3458	-2.8896	-3.025	-2.4313	-3.2479	-2.5792	-2.6417	-6.070	47.958	214.343	216.594	165.814	-66.439	151.755	183.641	149.214	99.727	173.413	179.889	103.268	-125.134	-2.995	-112.551	0.00056215	0.0010482	0.0002242	1190.8	4.8314e-06	1.5257e-05	1233.3	334.63	4.7049e-06	6.1939e-06	476.21	225.15	150.21	60.943	3.2475e-06	92.334	0.00081366	0.0008813	0.00025345	1144.8	9.6806e-06	9.7821e-06	1200.4	322.92	9.6548e-06	9.8418e-06	462.62	219.35	146.62	59.48	9.5029e-06	89.957	195.790	-42.294	-27.332	-119.126	28.408	42.507	-119.886	-115.883	-9.445	-31.307	-116.723	-113.138	-112.660	-108.454	70.475	-108.899	-8191	255	
4383.835	1	1	0	0	0.068928	0.16504	0.030596	0.45159	0.089797	0.18261	0.20523	0.12572	0.065615	0.40199	0.16475	0.040525	0.091503	0.19929	0.18667	0.3456	-2.8958	-2.3146	-2.6333	-2.8604	-2.1875	-2.8479	-2.8771	-2.5104	-2.8438	-2.4875	-2.6771	-2.8479	-2.4229	-2.8271	-2.775	-2.4833	-26.962	-94.287	183.913	200.317	99.657	-131.894	104.328	-120.384	51.054	56.580	117.648	156.816	-114.506	225.120	1.594	-32.203	0.00054765	0.0013137	0.00010638	1201.4	4.3669e-06	1.3724e-05	1234.9	334.96	8.0418e-06	8.355e-06	479.27	225.25	149.71	60.647	9.708e-06	91.216	0.00087044	0.00091405	0.00024458	1152	9.1361e-06	9.9043e-06	1199.9	324.16	9.4791e-06	9.9105e-06	461.9	218.75	146.18	59.125	1.0196e-05	89.001	191.672	-32.109	-40.890	-119.167	35.274	21.867	-119.537	-115.247	-5.932	60.080	-116.519	-113.500	-112.429	-108.027	11.782	-109.066	-8191	255	
#DATA ENDS
