BOXY.EXE: ISS Imagent and Oximeter Data Acquisition Program Version 0.80
Ascii Record File

#ACQ INFORMATION
2  Detector Channels 
16  External MUX Channels 
1  Auxiliary Channels 
5000  Waveform (CCF) Frequency (Hz)
1  Waveforms Skipped 
30  Waveforms Averaged 
1  Cycles Averaged 
16  Acquisitions per Waveform 
10.0806  Updata Rate (Hz) 

#FILE INFORMATION
TRUE -- External MUX Channel results are PARSED.
FALSE -- AC DC and Phase are NOT grouped.
TRUE -- Companion Program Settings File CREATED.
FALSE -- AC data not excluded
FALSE -- DC data not excluded
FALSE -- Phase data not excluded
FALSE -- Auxillary Chn. data not excluded
Tab delimiters

#CALIBRATION STATE
TRUE -- Waveform Calibration Values APPLIED.


#AUX CALIBRATION VALUES
Val Type	aux-1	

Term	1.0000e+00	
Factor	0.0000e+00	


#WF CALIBRATION VALUES
A = Detector Channel
Val Type	A-AC1	A-AC2	A-AC3	A-AC4	A-AC5	A-AC6	A-AC7	A-AC8	A-AC9	A-AC10	A-AC11	A-AC12	A-AC13	A-AC14	A-AC15	A-AC16	A-DC1	A-DC2	A-DC3	A-DC4	A-DC5	A-DC6	A-DC7	A-DC8	A-DC9	A-DC10	A-DC11	A-DC12	A-DC13	A-DC14	A-DC15	A-DC16	A-Ph1	A-Ph2	A-Ph3	A-Ph4	A-Ph5	A-Ph6	A-Ph7	A-Ph8	A-Ph9	A-Ph10	A-Ph11	A-Ph12	A-Ph13	A-Ph14	A-Ph15	A-Ph16	

Term	0.00000e+00	0.00000e+00	0.00000e+00	0.00000e+00	0.00000e+00	0.00000e+00	0.00000e+00	0.00000e+00	0.00000e+00	0.00000e+00	0.00000e+00	0.00000e+00	0.00000e+00	0.00000e+00	0.00000e+00	0.00000e+00	0.00000e+00	0.00000e+00	0.00000e+00	0.00000e+00	0.00000e+00	0.00000e+00	0.00000e+00	0.00000e+00	0.00000e+00	0.00000e+00	0.00000e+00	0.00000e+00	0.00000e+00	0.00000e+00	0.00000e+00	0.00000e+00	0.00000e+00	0.00000e+00	0.00000e+00	0.00000e+00	0.00000e+00	0.00000e+00	0.00000e+00	0.00000e+00	0.00000e+00	0.00000e+00	0.00000e+00	0.00000e+00	0.00000e+00	0.00000e+00	0.00000e+00	0.00000e+00	
Factor	1.00000e+00	1.00000e+00	1.00000e+00	1.00000e+00	1.00000e+00	1.00000e+00	1.00000e+00	1.00000e+00	1.00000e+00	1.00000e+00	1.00000e+00	1.00000e+00	1.00000e+00	1.00000e+00	1.00000e+00	1.00000e+00	1.00000e+00	1.00000e+00	1.00000e+00	1.00000e+00	1.00000e+00	1.00000e+00	1.00000e+00	1.00000e+00	1.00000e+00	1.00000e+00	1.00000e+00	1.00000e+00	1.00000e+00	1.00000e+00	1.00000e+00	1.00000e+00	X	X	X	X	X	X	X	X	X	X	X	X	X	X	X	X	

B = Detector Channel
Val Type	B-AC1	B-AC2	B-AC3	B-AC4	B-AC5	B-AC6	B-AC7	B-AC8	B-AC9	B-AC10	B-AC11	B-AC12	B-AC13	B-AC14	B-AC15	B-AC16	B-DC1	B-DC2	B-DC3	B-DC4	B-DC5	B-DC6	B-DC7	B-DC8	B-DC9	B-DC10	B-DC11	B-DC12	B-DC13	B-DC14	B-DC15	B-DC16	B-Ph1	B-Ph2	B-Ph3	B-Ph4	B-Ph5	B-Ph6	B-Ph7	B-Ph8	B-Ph9	B-Ph10	B-Ph11	B-Ph12	B-Ph13	B-Ph14	B-Ph15	B-Ph16	

Term	0.00000e+00	0.00000e+00	0.00000e+00	0.00000e+00	0.00000e+00	0.00000e+00	0.00000e+00	0.00000e+00	0.00000e+00	0.00000e+00	0.00000e+00	0.00000e+00	0.00000e+00	0.00000e+00	0.00000e+00	0.00000e+00	0.00000e+00	0.00000e+00	0.00000e+00	0.00000e+00	0.00000e+00	0.00000e+00	0.00000e+00	0.00000e+00	0.00000e+00	0.00000e+00	0.00000e+00	0.00000e+00	0.00000e+00	0.00000e+00	0.00000e+00	0.00000e+00	-3.28693e+01	-1.32896e+02	-1.28227e+02	-1.84331e+02	-5.50572e+01	-6.76425e+01	-1.55816e+02	-1.62015e+02	-2.49983e+01	-7.00590e+01	-1.85569e+02	-1.70510e+02	-1.86375e+02	-1.76893e+02	-4.33464e+01	-1.49751e+02	
Factor	2.47962e-05	2.18224e-04	5.54421e-05	2.29676e-01	2.20983e-06	2.16624e-06	1.69630e-01	5.37163e-02	1.72526e-06	2.07229e-06	2.26844e-01	3.20966e-02	6.82822e-02	9.64419e-03	2.46265e-06	1.39987e-02	1.08586e-05	1.59674e-05	4.46559e-06	1.17077e-01	1.66956e-07	1.78009e-07	8.13498e-02	2.74856e-02	1.61655e-07	1.76989e-07	1.11723e-01	1.59859e-02	3.49321e-02	4.98455e-03	1.69818e-07	7.00431e-03	X	X	X	X	X	X	X	X	X	X	X	X	X	X	X	X	



#DISTANCE SETTINGS
A = Detector Channel
A-1	A-2	A-3	A-4	A-5	A-6	A-7	A-8	A-9	A-10	A-11	A-12	A-13	A-14	A-15	A-16	

2.5000e+00	3.0000e+00	2.5000e+00	3.0000e+00	2.0000e+00	3.0000e+00	1.5000e+00	3.0000e+00	3.0000e+00	3.0000e+00	3.0000e+00	3.0000e+00	3.0000e+00	3.0000e+00	1.5000e+00	3.0000e+00	

B = Detector Channel
B-1	B-2	B-3	B-4	B-5	B-6	B-7	B-8	B-9	B-10	B-11	B-12	B-13	B-14	B-15	B-16	

1.0000e+01	1.0000e+01	1.0000e+01	1.4400e+00	1.0000e+01	1.0000e+01	1.5100e+00	1.9400e+00	1.0000e+01	1.0000e+01	1.9900e+00	2.4900e+00	2.4100e+00	2.9000e+00	1.0000e+01	2.9800e+00	




#DATA BEGINS
time	group	step	mark	flag	A-AC1	A-AC2	A-AC3	A-AC4	A-AC5	A-AC6	A-AC7	A-AC8	A-AC9	A-AC10	A-AC11	A-AC12	A-AC13	A-AC14	A-AC15	A-AC16	A-DC1	A-DC2	A-DC3	A-DC4	A-DC5	A-DC6	A-DC7	A-DC8	A-DC9	A-DC10	A-DC11	A-DC12	A-DC13	A-DC14	A-DC15	A-DC16	A-Ph1	A-Ph2	A-Ph3	A-Ph4	A-Ph5	A-Ph6	A-Ph7	A-Ph8	A-Ph9	A-Ph10	A-Ph11	A-Ph12	A-Ph13	A-Ph14	A-Ph15	A-Ph16	B-AC1	B-AC2	B-AC3	B-AC4	B-AC5	B-AC6	B-AC7	B-AC8	B-AC9	B-AC10	B-AC11	B-AC12	B-AC13	B-AC14	B-AC15	B-AC16	B-DC1	B-DC2	B-DC3	B-DC4	B-DC5	B-DC6	B-DC7	B-DC8	B-DC9	B-DC10	B-DC11	B-DC12	B-DC13	B-DC14	B-DC15	B-DC16	B-Ph1	B-Ph2	B-Ph3	B-Ph4	B-Ph5	B-Ph6	B-Ph7	B-Ph8	B-Ph9	B-Ph10	B-Ph11	B-Ph12	B-Ph13	B-Ph14	B-Ph15	B-Ph16	aux-1	digaux	

41356.762	1	1	0	768	0.08474	0.21423	0.25842	0.23455	0.10983	0.28948	0.29357	0.35061	0.22524	0.12465	0.11095	0.31321	0.109	0.20567	0.23308	0.11731	-1.1417	-1.8583	-1.7896	-1.7	-2.1417	-1.6583	-2.3354	-2.0208	-1.5896	-2.0146	-1.9833	-1.7583	-2.0083	-1.6688	-1.725	-2.05	181.462	125.347	129.930	-48.103	-76.422	67.295	182.826	-87.101	-11.622	-87.723	-62.734	-75.011	-55.038	-72.384	262.639	141.536	0.00038376	0.00054804	0.00013606	574.4	5.1222e-06	3.5539e-06	700.27	230.61	3.8263e-06	5.4829e-06	313.38	132.04	90.531	42.344	4.089e-06	69.785	0.00028504	0.00013742	3.7846e-05	583.59	1.521e-06	1.4389e-06	713.65	236.23	1.7267e-06	1.3849e-06	317.12	136.03	93.422	44.021	1.7382e-06	71.985	-74.085	-8.038	-6.167	-83.718	58.442	38.232	-84.482	-79.015	73.028	46.208	-80.667	-76.599	-74.502	-70.804	90.859	-72.851	-8191	255	
41356.855	1	1	0	0	0.13417	0.15839	0.078306	0.33519	0.099447	0.16516	0.30869	0.14394	0.22667	0.092989	0.35138	0.27176	0.24594	0.16928	0.16582	0.17431	-0.85625	-1.9229	-1.7854	-1.6063	-2.1729	-1.6146	-1.8042	-2.0646	-1.5792	-1.9542	-1.8917	-1.7437	-2.1583	-1.7417	-1.5333	-2.1646	108.692	257.995	-75.250	189.896	15.550	151.527	215.084	-51.675	143.070	225.289	8.876	245.760	234.847	202.784	-73.559	205.204	0.00035577	0.00056077	0.00012517	576.95	5.7396e-06	4.1167e-06	702.56	230.77	2.8202e-06	5.6136e-06	310.66	131.54	90.725	42.626	4.2696e-06	69.492	0.00028732	0.00013087	3.8637e-05	584.13	1.5165e-06	1.5446e-06	714.67	236.44	1.6182e-06	1.486e-06	315.31	135.6	93.538	44.08	1.7028e-06	71.891	-72.358	-4.070	-1.826	-84.069	60.732	31.636	-84.475	-78.706	55.806	48.531	-81.112	-76.799	-74.439	-70.867	65.121	-73.000	-8191	255	
41356.953	1	1	0	0	0.10585	0.30123	0.11075	0.31826	0.086277	0.065006	0.25603	0.22534	0.1117	0.09576	0.33102	0.20361	0.23489	0.055863	0.25917	0.17916	-0.89167	-1.9625	-1.9438	-1.4333	-2.0208	-1.7604	-1.6708	-2.1833	-1.7333	-1.7479	-2.0438	-1.6125	-2.0896	-1.7875	-1.6646	-2.1396	180.510	235.500	103.058	188.084	50.765	-27.053	203.761	196.972	101.907	138.285	45.166	-82.894	209.366	57.350	-6.655	214.797	0.00038879	0.0004904	0.00013314	571.1	4.0201e-06	5.0585e-06	699.22	231.08	2.5628e-06	4.1665e-06	307.71	131.25	89.479	42.615	5.4952e-06	69.74	0.00028585	0.00012734	3.7102e-05	583.13	1.3746e-06	1.5123e-06	712.63	236.52	1.6546e-06	1.3591e-06	315.26	135.19	93.059	44.012	1.6766e-06	72.016	-75.039	-11.019	-1.306	-83.978	72.598	60.666	-84.429	-78.960	75.158	54.522	-80.428	-76.307	-74.974	-70.941	85.159	-73.178	-8191	255	
41357.047	1	1	0	0	0.17206	0.12293	0.18117	0.21673	0.20225	0.048034	0.55851	0.3466	0.098073	0.17928	0.3492	0.27637	0.49872	0.33062	0.28643	0.18264	-1.2125	-1.7458	-1.9083	-1.4875	-1.8646	-1.7375	-1.6042	-2.3042	-1.7125	-1.725	-1.9562	-1.6688	-2.0375	-1.9604	-1.5667	-2.1354	-18.558	202.448	197.015	231.271	92.356	43.377	210.853	192.147	262.936	-3.606	-21.047	125.144	-18.012	192.121	2.973	196.555	0.0003879	0.00058222	0.00015101	571.14	6.1293e-06	5.5752e-06	700.74	231.05	1.6311e-06	4.4435e-06	308.75	131.13	89.409	42.188	5.5725e-06	69.011	0.00027664	0.00013665	4.0776e-05	582.09	1.3885e-06	1.5079e-06	713.96	235.85	1.6317e-06	1.347e-06	314.54	135.18	92.928	43.675	1.666e-06	71.481	-72.695	-14.644	-3.863	-83.928	47.222	60.930	-84.616	-78.913	91.748	48.895	-80.641	-76.503	-74.767	-70.912	70.850	-73.129	-8191	255	
41357.145	1	1	0	0	0.11384	0.20442	0.19518	0.14782	0.053331	0.21907	0.24931	0.21868	0.12407	0.13891	0.11394	0.16939	0.39262	0.083314	0.018812	0.24741	-1.3708	-1.7167	-2.1167	-1.5542	-1.9833	-1.7188	-1.5021	-1.875	-1.5979	-1.7062	-2.0187	-1.5833	-1.7542	-2.0333	-1.5875	-2.0208	33.078	56.248	186.952	139.783	164.507	50.273	258.663	215.202	108.744	50.951	79.209	208.221	216.616	-67.542	54.376	215.215	0.00037881	0.00048065	0.00013364	569.89	5.9279e-06	4.222e-06	700.45	230.1	3.6447e-06	4.1652e-06	308.23	132.29	90.175	41.887	4.426e-06	69.495	0.00028072	0.00013173	3.672e-05	581.55	1.3659e-06	1.4756e-06	712.83	235.4	1.6475e-06	1.4325e-06	314.95	135.98	93.191	43.506	1.6985e-06	71.729	-73.417	-13.212	-6.585	-84.078	66.907	53.949	-84.570	-78.722	59.014	63.574	-80.881	-76.579	-74.524	-70.825	80.571	-73.051	-8191	255	
41357.238	1	1	0	0	0.21859	0.07735	0.14805	0.060798	0.25629	0.10174	0.15219	0.088293	0.019849	0.035485	0.24076	0.25623	0.16164	0.13335	0.073029	0.27513	-1.3167	-1.6292	-2.0396	-1.3604	-1.8542	-1.7604	-1.6688	-2.0542	-1.8292	-1.6458	-2.1604	-1.5604	-1.7125	-1.9979	-1.4562	-1.8979	49.428	176.919	-79.387	-1.328	70.655	95.246	42.395	-20.401	37.354	-60.229	-18.104	-88.904	216.957	136.431	163.090	243.327	0.00039459	0.00064848	0.00010212	570.69	3.5414e-06	5.2785e-06	698.28	229.81	2.1938e-06	4.3197e-06	309.92	131.63	89.902	41.923	3.4639e-06	69.482	0.00027873	0.00014161	3.218e-05	580.64	1.4473e-06	1.4196e-06	712.95	235.4	1.6765e-06	1.3606e-06	315.45	135.65	93.216	43.661	1.6766e-06	71.79	-73.179	-25.933	-7.174	-84.009	47.941	53.055	-84.390	-78.919	75.009	53.535	-80.567	-76.652	-74.719	-70.817	64.886	-72.855	-8191	255	
41357.359	1	1	0	0	0.13983	0.013178	0.12077	0.11738	0.20909	0.26217	0.34064	0.035545	0.15978	0.11388	0.30779	0.10883	0.27685	0.22782	0.1819	0.19454	-1.6167	-1.5458	-1.9083	-1.6542	-1.8312	-1.9083	-1.7021	-2.0208	-1.9	-1.6437	-2.0312	-1.8396	-1.5854	-2	-1.6667	-1.8583	157.516	14.147	4.907	-35.622	66.901	76.223	212.609	-33.876	-77.083	70.653	233.182	198.927	120.467	236.315	105.073	-34.854	0.0003627	0.00053773	0.00014084	570.55	5.5412e-06	4.5267e-06	699.85	229.76	3.188e-06	4.0631e-06	309.01	131.84	90.354	42.193	5.3763e-06	69.827	0.00028366	0.00013526	3.4915e-05	580.91	1.4657e-06	1.4204e-06	711.78	235.03	1.6229e-06	1.3967e-06	314.33	135.75	93.266	43.681	1.7852e-06	71.771	-74.139	-7.747	-11.711	-83.730	49.008	28.249	-84.314	-78.895	94.496	36.666	-80.748	-76.372	-74.494	-70.978	73.832	-73.128	-8191	255	
41357.457	1	1	0	0	0.21566	0.16436	0.29869	0.28058	0.19338	0.1626	0.21919	0.2713	0.15145	0.24024	0.0828	0.14092	0.072724	0.17624	0.09347	0.035317	-1.375	-1.3271	-2.0354	-1.4292	-1.7687	-2.1375	-1.5875	-1.8896	-1.7875	-1.6063	-1.9625	-1.5833	-1.5479	-2.0771	-1.6771	-1.9854	-46.605	218.832	78.196	243.882	108.997	240.625	181.617	-95.055	186.027	13.723	101.168	-68.479	-24.960	-43.068	-17.471	144.679	0.00039688	0.00059439	0.00015127	571.75	4.74e-06	5.5231e-06	697.03	229.72	3.9063e-06	4.9594e-06	308.95	131.89	90.642	42.139	2.1417e-06	69.468	0.00027771	0.00013256	3.5148e-05	581.35	1.4772e-06	1.3859e-06	712.91	235.66	1.6347e-06	1.4141e-06	315.02	135.84	93.345	43.673	1.632e-06	71.784	-75.817	-16.940	-21.361	-83.951	54.924	53.866	-84.517	-78.971	85.038	48.460	-80.805	-76.606	-74.632	-70.916	86.302	-73.085	-8191	255	
41357.551	1	1	0	0	0.3447	0.11301	0.13055	0.12158	0.18976	0.20283	0.26895	0.34162	0.12425	0.051474	0.048634	0.10046	0.14509	0.37626	0.086307	0.02539	-1.2687	-1.4562	-1.8708	-1.95	-1.6021	-1.9542	-1.6938	-1.8271	-1.95	-1.4458	-2.0687	-1.8042	-1.7417	-2.0687	-1.5688	-1.8167	-95.672	160.999	61.964	252.770	84.576	247.514	64.718	179.328	-89.498	35.249	236.497	201.415	136.281	196.654	67.596	234.270	0.0003909	0.00052502	0.0001202	571.56	4.1078e-06	5.4396e-06	703.63	230.04	3.2253e-06	4.3067e-06	308.94	131.95	89.854	42.018	4.1228e-06	69.41	0.00027927	0.00013642	3.5306e-05	581.87	1.4146e-06	1.3462e-06	714.35	235.35	1.6085e-06	1.4144e-06	315.08	135.68	93.015	43.647	1.6911e-06	71.665	-74.118	-10.223	-8.562	-84.270	50.057	46.344	-84.256	-78.824	84.883	45.903	-81.130	-76.352	-74.568	-71.036	70.639	-73.017	-8191	255	
41357.648	1	1	0	0	0.089117	0.11379	0.071141	0.14204	0.1702	0.27382	0.2445	0.13909	0.11632	0.13853	0.11949	0.16111	0.18833	0.21581	0.064679	0.21241	-1.5021	-1.5312	-1.9292	-1.7771	-1.6562	-2.0812	-1.5708	-1.9167	-1.9333	-1.4521	-2.0125	-1.7812	-1.6292	-2.1271	-1.6583	-1.9604	165.522	-52.539	-15.228	-79.615	43.875	176.741	144.308	234.663	-76.293	-28.975	157.983	-40.454	-90.839	212.656	57.188	197.527	0.00036155	0.00057914	0.00015024	571.27	4.5743e-06	3.5025e-06	701.44	229.27	3.309e-06	5.5402e-06	308.7	131.39	90.672	41.951	3.5347e-06	69.628	0.00027748	0.00014547	3.4255e-05	582.49	1.4936e-06	1.3087e-06	714.95	235.38	1.5771e-06	1.3805e-06	315.1	135.77	93.145	43.567	1.6437e-06	71.878	-72.893	-15.034	-9.303	-84.080	61.778	45.818	-84.670	-78.669	58.424	53.708	-80.891	-76.597	-74.512	-71.054	65.180	-73.131	-8191	255	
41357.742	1	1	0	0	0.13882	0.23816	0.087736	0.16162	0.26795	0.10449	0.22505	0.090082	0.21237	0.10614	0.13265	0.11314	0.054935	0.20172	0.15856	0.31166	-1.4646	-1.4729	-1.6792	-1.875	-1.5063	-2.0271	-1.6917	-1.7958	-1.9875	-1.6583	-1.8104	-2.0563	-1.5417	-1.9875	-1.8667	-1.8583	106.758	-95.992	164.876	216.860	94.530	-88.246	238.733	238.248	103.416	10.906	-38.313	-39.678	221.982	248.270	-61.394	230.177	0.00036596	0.0004676	0.00012341	572.88	5.0495e-06	5.0124e-06	704.95	230.08	2.7226e-06	4.9079e-06	309.5	131.84	90.996	42.652	4.3709e-06	69.935	0.00028056	0.00013619	3.4534e-05	582.87	1.4543e-06	1.2813e-06	715.55	235.66	1.5017e-06	1.4023e-06	316.06	136.06	93.516	44.042	1.6172e-06	72.035	-74.306	-22.353	-0.329	-83.809	59.275	52.190	-84.341	-79.027	74.843	30.908	-81.142	-76.698	-74.938	-70.998	54.792	-73.374	-8191	255	
41357.840	1	1	0	0	0.20808	0.1939	0.070263	0.23506	0.25863	0.45549	0.34042	0.2855	0.18478	0.14256	0.3549	0.20612	0.36466	0.22311	0.095424	0.2086	-1.5917	-1.4854	-1.8292	-1.9958	-1.5312	-1.7646	-1.8771	-1.7104	-1.9583	-1.6021	-1.7542	-2.1312	-1.6625	-1.9062	-1.8521	-1.6042	184.088	-4.419	192.442	97.482	-89.244	-50.073	177.098	216.434	86.217	3.520	-91.138	132.288	187.212	-91.226	-72.831	210.098	0.00037335	0.00060436	0.00011482	573.47	5.4839e-06	4.5807e-06	701.36	230.25	2.3328e-06	4.1504e-06	311.05	130.97	90.1	42.357	3.5477e-06	69.629	0.00027183	0.00013027	3.379e-05	583.56	1.464e-06	1.2524e-06	713.28	235.66	1.534e-06	1.3978e-06	316.11	135.44	93.354	43.897	1.6264e-06	71.979	-72.516	-19.297	-14.828	-83.831	70.430	56.965	-84.466	-78.893	77.300	37.625	-81.003	-76.757	-75.026	-70.958	78.970	-73.168	-8191	255	
41357.961	1	1	0	0	0.2044	0.072122	0.18909	0.20567	0.15973	0.12844	0.28274	0.26756	0.10426	0.17239	0.22559	0.13849	0.10836	0.15195	0.19645	0.15803	-1.7125	-1.5812	-1.6187	-2.0854	-1.4208	-1.8917	-2.0687	-1.3813	-2.1063	-1.775	-1.7479	-2.1417	-1.5167	-1.9729	-1.975	-1.5333	195.064	56.140	112.246	217.849	138.520	-73.075	171.088	229.580	186.611	-37.406	171.863	185.191	-7.479	184.159	17.488	220.979	0.00037351	0.0004643	0.00018147	571.84	4.8646e-06	4.601e-06	701.27	228.45	2.7e-06	4.6881e-06	311.04	132.24	91.079	42.327	4.3654e-06	70.167	0.00027305	0.00013832	3.6618e-05	581.97	1.4984e-06	1.3043e-06	714.59	235.09	1.533e-06	1.3344e-06	316.97	136.02	93.686	43.889	1.5797e-06	72.354	-71.402	-11.482	-7.630	-84.139	62.456	39.414	-84.491	-79.062	83.147	54.489	-80.917	-76.594	-74.922	-70.967	63.511	-73.264	-8191	255	
41358.059	1	1	0	0	0.046619	0.1984	0.12483	0.24482	0.10624	0.26164	0.22246	0.070548	0.1911	0.018327	0.16151	0.16905	0.059719	0.23315	0.15073	0.23006	-1.4708	-1.7437	-1.6354	-2.1333	-1.4646	-1.8854	-2.2125	-1.5438	-1.9896	-1.7792	-1.5792	-2.0312	-1.5417	-1.8833	-1.9813	-1.6375	196.042	78.759	65.965	-46.680	135.246	6.098	219.777	12.217	59.859	-81.281	6.799	115.431	51.128	251.737	87.724	194.847	0.00037583	0.00064206	0.00013865	570.82	4.8343e-06	4.8078e-06	697.71	228.86	3.1954e-06	5.0002e-06	309.01	132.11	91.02	42.418	3.0783e-06	70.674	0.00027373	0.00013393	3.4925e-05	581.54	1.4591e-06	1.2475e-06	714.93	235.61	1.4569e-06	1.3761e-06	316.31	135.98	93.597	44.078	1.5588e-06	72.698	-72.266	-13.808	-5.232	-84.162	69.454	53.264	-84.276	-78.897	62.172	65.706	-80.882	-76.690	-74.682	-71.087	53.448	-73.236	-8191	255	
41358.152	1	1	0	0	0.13918	0.32373	0.24935	0.11407	0.19541	0.16526	0.24736	0.30772	0.20359	0.18635	0.23484	0.13722	0.2108	0.066	0.17501	0.19069	-1.3646	-1.8042	-1.5458	-2.0375	-1.8021	-1.7083	-2.0146	-1.625	-1.7604	-1.9083	-1.6229	-2.2313	-1.5771	-1.8896	-1.9875	-1.7146	-30.628	52.177	177.782	217.973	-40.317	-27.057	-62.852	166.187	159.785	234.160	-87.318	17.034	65.941	165.111	54.664	191.204	0.00038728	0.00054509	0.00010384	574.41	5.0046e-06	4.342e-06	704.13	230.69	3.9089e-06	5.2652e-06	310.09	132.61	90.445	42.522	4.0732e-06	70.011	0.00027805	0.00013386	3.7446e-05	584.21	1.4389e-06	1.321e-06	715.8	235.9	1.529e-06	1.3706e-06	316.98	136.1	93.718	44.175	1.4845e-06	72.435	-73.520	-9.907	-0.713	-84.238	63.790	51.077	-84.461	-78.874	71.825	49.318	-81.052	-76.570	-75.023	-71.060	79.179	-73.367	-8191	255	
41358.250	1	1	0	0	0.17086	0.25081	0.089908	0.25556	0.28494	0.15694	0.20204	0.18263	0.31693	0.10379	0.08597	0.14523	0.38869	0.23656	0.22038	0.34164	-1.5542	-1.875	-1.2938	-1.8083	-1.7271	-1.7104	-2.2479	-1.7354	-1.7833	-1.9125	-1.6083	-2.1021	-1.6063	-1.4792	-2.0687	-1.6688	52.650	128.504	108.229	243.476	-92.925	1.692	193.195	141.829	49.012	21.401	-3.621	7.046	121.899	-23.649	-94.068	251.530	0.00038348	0.00056844	0.00013196	570.39	5.9621e-06	5.1183e-06	699	229.07	4.0931e-06	4.0971e-06	309.44	131.55	90.742	42.577	4.7065e-06	69.961	0.00027355	0.00013436	3.6488e-05	581.86	1.4685e-06	1.331e-06	713.61	235.39	1.5553e-06	1.3639e-06	315.51	135.69	93.468	44.113	1.6395e-06	72.223	-75.491	-13.393	-13.792	-83.876	57.478	52.679	-84.474	-78.727	81.894	37.844	-80.955	-76.661	-74.724	-70.812	57.532	-73.256	-8191	255	
41358.320	1	1	0	0	0.068391	0.093305	0.24884	0.13443	0.09115	0.15432	0.30065	0.22375	0.061207	0.15755	0.18757	0.177	0.11523	0.043093	0.15233	0.27321	-1.1146	-1.8396	-1.2729	-1.9792	-1.8896	-1.4688	-2.1208	-1.65	-1.6562	-2.0812	-1.6417	-1.9813	-1.7604	-1.7	-1.975	-1.8167	166.371	-88.449	-70.022	59.372	-63.445	228.944	136.439	243.831	-59.453	137.909	4.768	229.971	253.867	-45.857	203.016	124.857	0.0003795	0.00060661	0.00015098	566.12	3.8747e-06	3.2993e-06	702.26	229.27	2.4421e-06	4.2916e-06	307.9	132	90.478	42.091	4.4194e-06	69.762	0.00027585	0.00013216	3.6348e-05	580.2	1.4143e-06	1.3024e-06	714.26	234.88	1.5317e-06	1.2592e-06	315.43	135.73	93.528	43.784	1.533e-06	72.103	-71.438	-10.511	1.707	-83.968	67.345	40.610	-84.593	-78.982	86.572	38.685	-81.045	-76.685	-74.440	-70.993	59.744	-73.309	-8191	255	
41358.441	1	1	0	0	0.21132	0.13009	0.29447	0.11072	0.03111	0.28317	0.054193	0.11674	0.19611	0.16929	0.25904	0.15384	0.2505	0.12053	0.16104	0.37556	-1.3104	-1.9062	-1.5271	-2.0062	-1.8833	-1.4854	-2.0396	-1.6146	-1.6771	-1.8396	-1.6729	-1.8125	-1.7938	-1.6938	-1.8792	-1.7021	59.831	156.334	127.938	-20.224	-71.475	50.067	241.572	122.438	-82.076	184.551	207.786	-29.906	26.309	206.622	111.882	93.790	0.00037861	0.00057992	0.00013953	569.22	4.9532e-06	4.0876e-06	703.1	228.97	2.4672e-06	3.6846e-06	310.88	132.06	90.758	42.173	3.924e-06	70.172	0.00027558	0.000131	3.8302e-05	581.12	1.4529e-06	1.3265e-06	715.7	235.16	1.5866e-06	1.2983e-06	316.62	136.07	93.563	43.846	1.6451e-06	72.363	-73.013	-6.691	-16.578	-84.068	61.770	53.240	-84.612	-79.096	67.136	37.886	-80.540	-76.576	-74.316	-71.085	59.467	-73.080	-8191	255	
41358.535	1	1	0	0	0.31756	0.24651	0.64721	0.11107	0.061902	0.16812	0.15242	0.066593	0.2812	0.062694	0.24877	0.20542	0.16467	0.27681	0.042264	0.40524	-1.3396	-1.9729	-1.5479	-1.8188	-1.8729	-1.3188	-2.0354	-1.8292	-1.6958	-2.2083	-1.7062	-1.9646	-2.0208	-1.6437	-1.7229	-1.9375	145.866	5.364	-92.046	197.732	89.056	-35.271	231.972	241.254	200.767	137.142	-39.521	227.832	83.101	241.081	253.410	229.393	0.00037692	0.0005055	0.00012965	570.2	4.0333e-06	3.9787e-06	701.49	230.82	2.8149e-06	3.8136e-06	307.99	131.49	89.879	42.245	4.0203e-06	69.865	0.0002771	0.00012465	3.8674e-05	581.14	1.4949e-06	1.4063e-06	715.77	235.26	1.6421e-06	1.2964e-06	315.12	135.7	93.023	43.789	1.5167e-06	72.107	-74.247	-21.694	-13.829	-84.117	51.817	37.167	-84.275	-79.000	77.006	51.671	-80.881	-76.738	-74.419	-71.003	79.207	-73.269	-8191	255	
41358.633	1	1	0	0	0.21	0.1442	0.23419	0.23772	0.20287	0.15243	0.19606	0.23396	0.10424	0.3613	0.18939	0.1161	0.17207	0.13943	0.25135	0.29896	-1.0479	-2.0208	-1.5396	-1.7563	-1.9917	-1.4875	-2.075	-1.8271	-1.5438	-2.1271	-1.7687	-1.7875	-2.0042	-1.7021	-1.675	-2.0396	-66.521	43.608	-87.027	254.458	0.708	88.778	247.937	239.893	126.545	-40.189	241.520	238.317	150.711	56.418	219.921	176.972	0.00037197	0.00061698	0.00012548	567.83	4.8997e-06	4.3107e-06	699.37	228.2	2.2008e-06	5.8181e-06	308.79	131.39	90.053	42.104	5.8838e-06	69.234	0.00027359	0.00012751	3.5864e-05	579.92	1.4031e-06	1.3859e-06	712.06	234.47	1.6058e-06	1.3842e-06	315.02	135.2	92.909	43.599	1.5853e-06	71.904	-73.642	-16.041	-16.518	-83.894	48.537	51.527	-84.476	-78.963	83.538	48.953	-80.804	-76.559	-74.847	-71.334	76.463	-73.311	-8191	255	
41358.730	1	1	0	0	0.24497	0.13971	0.21598	0.21215	0.19511	0.18521	0.20929	0.086451	0.24704	0.12442	0.29286	0.20324	0.25181	0.27817	0.36828	0.054578	-1.1333	-1.9625	-1.525	-1.7188	-2	-1.5896	-1.9438	-1.9708	-1.4771	-1.9062	-1.8375	-1.5417	-1.9083	-1.5333	-1.6521	-2.1437	136.746	34.829	19.768	112.366	35.321	63.165	261.907	30.662	5.215	-20.401	126.145	187.060	2.576	24.378	-85.376	-25.055	0.00037836	0.00047045	0.00012685	570.11	5.385e-06	3.8415e-06	700.62	228.5	2.9536e-06	4.5358e-06	307.63	130.67	89.226	41.965	4.2676e-06	69.644	0.0002768	0.00012212	3.6069e-05	578.55	1.3673e-06	1.4534e-06	712.52	234.28	1.6438e-06	1.3529e-06	314.24	135.02	92.831	43.545	1.5641e-06	71.912	-74.598	-8.703	-13.040	-84.111	63.073	42.774	-84.343	-78.754	74.910	49.964	-80.623	-76.797	-74.919	-71.148	95.643	-72.936	-8191	255	
41358.848	1	1	0	0	0.17287	0.19159	0.21729	0.14546	0.08865	0.10904	0.24524	0.38299	0.25137	0.22333	0.1695	0.10276	0.057505	0.14892	0.19062	0.062026	-0.91667	-1.9062	-1.5125	-1.55	-1.9562	-1.55	-1.9208	-1.9396	-1.4438	-1.9438	-1.8104	-1.7542	-2.0125	-1.6479	-1.7375	-1.9917	16.542	-9.828	54.368	-92.571	8.480	250.645	218.255	229.601	198.404	219.385	-50.163	160.671	11.075	228.924	122.028	-66.439	0.00037168	0.00038119	8.5169e-05	567.96	3.9083e-06	4.6781e-06	698.92	228.18	3.3759e-06	5.7511e-06	309.08	131.19	89.044	41.774	4.5237e-06	69.345	0.00027402	0.00013137	3.5585e-05	577.88	1.3732e-06	1.3818e-06	712.89	234.04	1.6502e-06	1.3289e-06	313.95	134.97	92.6	43.321	1.4997e-06	71.57	-72.256	-2.109	-12.772	-83.951	56.218	66.447	-84.691	-78.864	80.318	60.043	-81.058	-76.639	-74.903	-71.050	102.168	-73.105	-8191	255	
41358.922	1	1	0	0	0.20842	0.21932	0.14011	0.19548	0.28916	0.078948	0.23422	0.15248	0.28799	0.051011	0.081838	0.064824	0.094488	0.14483	0.10951	0.19025	-1.1667	-1.9833	-1.7292	-1.5271	-1.8667	-1.5042	-1.7437	-2.0563	-1.5958	-1.8396	-1.7771	-1.4833	-2.0292	-1.5958	-1.7625	-2.0229	127.036	167.811	239.990	239.759	-6.524	-6.987	174.638	249.665	246.033	145.724	170.616	52.072	210.927	142.606	208.792	121.979	0.00034139	0.00041068	0.00017311	568.37	4.3871e-06	3.4946e-06	700.3	228.93	4.3208e-06	4.9093e-06	308.42	131.88	89.71	41.995	4.2515e-06	69.503	0.00027547	0.00012548	3.7985e-05	579.1	1.3715e-06	1.4044e-06	713.8	234.21	1.6374e-06	1.3127e-06	315.4	135.81	92.906	43.451	1.5747e-06	71.925	-73.731	-12.846	-1.385	-84.347	68.288	35.685	-84.447	-78.719	76.721	49.178	-80.593	-76.587	-74.886	-71.146	83.089	-73.054	-8191	255	
41359.039	1	1	0	0	0.25184	0.1544	0.22245	0.17332	0.064871	0.15469	0.24407	0.0611	0.19545	0.11976	0.31246	0.24013	0.094089	0.1303	0.11638	0.17141	-1.1271	-1.6854	-1.7854	-1.3958	-1.8563	-1.7479	-1.6604	-2.0458	-1.4979	-1.8354	-1.8062	-1.5646	-1.75	-1.8542	-1.5562	-2.2104	147.689	-60.759	168.082	-3.403	255.306	16.351	200.723	-93.945	76.970	57.349	182.540	-70.555	225.842	187.278	-31.572	252.644	0.00036807	0.00039891	0.00014126	567.66	3.4244e-06	4.277e-06	697.71	228.67	3.4318e-06	4.081e-06	309.42	131.2	90.405	41.92	4.7058e-06	69.647	0.00027664	0.00012401	3.739e-05	578.59	1.3457e-06	1.3588e-06	712.72	234.28	1.6536e-06	1.3005e-06	314.29	135.33	93.133	43.464	1.5867e-06	71.752	-72.547	-1.460	-5.001	-84.127	52.344	43.912	-84.641	-79.023	82.196	66.019	-80.651	-76.777	-74.939	-71.206	71.152	-73.132	-8191	255	
41359.137	1	1	0	0	0.023371	0.093803	0.13362	0.1247	0.097803	0.10583	0.12424	0.13726	0.096742	0.057137	0.12808	0.031788	0.080718	0.22843	0.118	0.10215	-1.2917	-1.7917	-1.9813	-1.4792	-1.9125	-1.9396	-1.65	-2.1667	-1.625	-1.7208	-2.0125	-1.4896	-2.1167	-1.8458	-1.5042	-2.2146	26.525	67.346	156.036	104.953	166.312	206.995	-89.161	155.666	131.279	-71.185	162.916	-59.906	-19.560	228.568	168.492	55.423	0.0003679	0.00047526	0.00012763	566.19	4.1237e-06	4.8496e-06	698.35	228.48	3.4284e-06	5.2319e-06	308.15	131.04	89.826	42.004	4.3172e-06	69.669	0.00028099	0.00012717	3.7604e-05	577.45	1.3767e-06	1.3825e-06	711.6	234.14	1.6496e-06	1.2651e-06	314.1	135.14	92.711	43.461	1.6306e-06	71.678	-74.086	-4.757	-15.783	-84.210	75.771	46.420	-84.519	-78.915	76.599	41.753	-81.335	-76.808	-75.082	-71.372	80.640	-73.252	-8191	255	
41359.234	1	1	0	0	0.17177	0.090239	0.099022	0.20888	0.284	0.21329	0.039947	0.30213	0.23175	0.22063	0.1059	0.21081	0.22521	0.33367	0.3637	0.21067	-0.97292	-1.7104	-2.0271	-1.3292	-1.85	-1.8396	-1.5583	-2.1604	-1.5729	-1.625	-1.9062	-1.5479	-1.7396	-2.0375	-1.4	-1.9375	153.201	186.218	184.772	185.024	132.666	150.622	190.545	130.468	37.856	37.035	26.411	241.146	-2.079	247.653	94.887	250.384	0.00038405	0.00057303	0.00017056	568.02	4.8867e-06	3.8803e-06	696.46	228.2	3.4759e-06	5.8893e-06	305.76	131.73	89.976	41.878	3.2924e-06	69.475	0.00027999	0.00013273	3.5604e-05	577.03	1.4633e-06	1.371e-06	711.77	234.22	1.6048e-06	1.2791e-06	313.6	135.38	93.027	43.376	1.6621e-06	71.759	-73.273	-14.796	-5.872	-83.649	80.525	50.083	-84.647	-79.036	70.829	40.521	-80.730	-76.700	-74.634	-71.118	59.147	-73.236	-8191	255	
41359.328	1	1	0	0	0.14626	0.17014	0.32613	0.11875	0.21832	0.22801	0.45662	0.10913	0.22204	0.12723	0.39482	0.25377	0.17889	0.23902	0.19892	0.23808	-1.2625	-1.6437	-2.0812	-1.5229	-1.7667	-1.7854	-1.4146	-1.9208	-1.7313	-1.5417	-1.8604	-1.5354	-1.5083	-1.7938	-1.575	-2.0125	79.163	243.821	162.816	242.127	-63.160	209.374	167.779	234.830	-78.059	166.981	-23.625	259.371	-85.619	221.078	-37.414	161.789	0.00034907	0.00044981	0.00018658	565.47	4.5863e-06	5.3355e-06	699.9	228.44	3.1513e-06	4.0581e-06	309.47	131.1	89.462	41.811	4.8353e-06	69.756	0.00027287	0.00013213	3.7009e-05	578.13	1.4143e-06	1.3032e-06	713.13	233.94	1.6176e-06	1.323e-06	315.47	135.32	92.629	43.353	1.706e-06	71.79	-72.807	-16.599	-5.160	-84.015	72.669	35.812	-84.336	-78.932	71.201	47.406	-80.905	-76.711	-74.672	-71.110	82.532	-73.189	-8191	255	
41359.449	1	1	0	0	0.18676	0.043684	0.26852	0.065536	0.052431	0.2554	0.10582	0.048295	0.25297	0.10144	0.085869	0.25354	0.15874	0.35045	0.1797	0.20864	-1.2396	-1.5375	-1.9917	-1.5312	-1.625	-1.8354	-1.5312	-1.9417	-1.7563	-1.4479	-2.0542	-1.7604	-1.55	-1.8979	-1.3021	-2.0042	259.741	-81.295	179.971	-80.249	41.131	135.523	102.374	222.581	43.185	29.912	181.861	262.176	164.923	206.103	-1.005	194.754	0.00034055	0.00058515	0.00015764	566.87	5.5038e-06	6.5238e-06	701.55	228.5	2.5987e-06	5.1417e-06	308.04	131.78	90.162	41.844	4.6376e-06	69.745	0.00027873	0.00012857	3.5111e-05	577.77	1.4163e-06	1.3061e-06	714.79	233.78	1.5603e-06	1.4211e-06	313.78	135.5	92.55	43.288	1.6547e-06	71.634	-74.639	-13.203	-1.788	-83.765	71.398	44.849	-84.478	-78.807	82.869	64.070	-80.968	-76.691	-74.688	-71.177	53.348	-73.301	-8191	255	
41359.543	1	1	0	0	0.20377	0.17822	0.091464	0.14972	0.41236	0.12146	0.24964	0.25858	0.36161	0.12037	0.30131	0.031652	0.18549	0.37945	0.20035	0.15968	-1.3417	-1.3937	-2.0292	-1.6583	-1.6187	-1.9208	-1.4688	-1.9979	-1.8062	-1.4688	-1.8062	-1.8188	-1.4792	-2.0854	-1.5438	-1.9438	229.784	213.303	113.703	133.129	170.397	-53.679	188.272	158.817	104.994	185.788	207.143	47.371	-5.421	255.551	-43.047	-59.889	0.00036629	0.00046902	0.00012219	567.59	4.5373e-06	4.9865e-06	696.67	227.68	2.8879e-06	4.483e-06	306.4	130.81	88.773	41.674	4.4771e-06	69.171	0.00027079	0.00012797	3.5232e-05	577.16	1.4396e-06	1.3777e-06	711.93	233.45	1.5155e-06	1.4414e-06	312.14	134.64	92.102	43.146	1.602e-06	71.244	-71.440	-26.593	-8.210	-83.889	61.443	46.517	-84.421	-78.867	55.183	51.163	-80.940	-76.974	-75.231	-71.323	61.225	-73.120	-8191	255	
41359.617	1	1	0	0	0.21634	0.093185	0.060948	0.16375	0.068166	0.16492	0.31689	0.21273	0.17215	0.21405	0.28135	0.028757	0.26613	0.13598	0.12731	0.28833	-1.4396	-1.3271	-1.8354	-1.8667	-1.6938	-2.1063	-1.6542	-1.825	-1.9917	-1.5896	-1.8917	-1.8125	-1.3042	-2.0875	-1.5729	-1.9292	260.267	96.147	-68.084	235.597	-78.049	87.190	185.325	179.367	-77.062	-36.995	-93.162	226.268	23.174	231.214	235.903	-49.453	0.00034377	0.00045318	8.5731e-05	566.39	5.2966e-06	3.5777e-06	697.46	227.96	3.0267e-06	4.6468e-06	306.92	130.69	89.07	41.482	5.0118e-06	69.202	0.00027443	0.00013802	3.2031e-05	577.65	1.5318e-06	1.3199e-06	712.58	233.08	1.5445e-06	1.3363e-06	313.01	134.64	92.486	42.975	1.6253e-06	71.248	-76.118	-20.975	10.006	-83.797	75.902	56.885	-84.439	-79.119	77.188	49.499	-80.975	-76.807	-74.640	-71.103	71.891	-73.301	-8191	255	
41359.738	1	1	0	0	0.25475	0.22604	0.17552	0.21431	0.27684	0.18552	0.26806	0.056565	0.20452	0.062821	0.041856	0.44205	0.29834	0.39392	0.079628	0.23784	-1.5979	-1.6063	-1.9271	-1.85	-1.4958	-2.0042	-1.8354	-1.8937	-2.1458	-1.6583	-2.0167	-1.9646	-1.4875	-1.8854	-1.7188	-1.7833	233.134	-55.423	2.357	171.364	261.300	143.795	179.138	257.645	59.563	240.644	-45.525	5.518	260.278	250.857	11.478	183.471	0.00038246	0.00064574	8.83e-05	564.97	4.7939e-06	3.8129e-06	701.8	227.81	2.7488e-06	3.4038e-06	306.39	132.21	89.489	41.871	4.9404e-06	69.463	0.00026909	0.00013117	3.392e-05	576.26	1.5391e-06	1.295e-06	714.74	233.54	1.5812e-06	1.3868e-06	313.57	135.51	92.766	43.307	1.6189e-06	71.74	-74.719	-2.862	-9.721	-83.964	64.787	53.740	-84.620	-79.175	65.724	65.088	-80.928	-76.679	-74.467	-70.963	85.252	-73.195	-8191	255	
41359.832	1	1	0	0	0.20648	0.10768	0.076851	0.12256	0.32138	0.12107	0.16229	0.16055	0.12038	0.21668	0.14874	0.17129	0.257	0.067767	0.14854	0.060767	-1.6771	-1.3229	-1.7958	-1.925	-1.4458	-1.8687	-2.0396	-1.55	-1.9396	-1.5854	-1.7854	-1.9583	-1.4562	-2.1771	-1.7812	-1.6333	168.463	155.603	-13.317	115.072	157.514	126.209	261.180	153.845	-74.043	-16.592	-66.879	202.874	-33.551	224.157	-70.041	12.277	0.00037611	0.00048537	0.00014802	566.51	5.077e-06	5.1188e-06	702.51	228.86	3.2634e-06	4.8088e-06	310.47	131.96	90.441	42.004	4.1157e-06	69.939	0.0002687	0.00013576	3.4255e-05	577.45	1.4685e-06	1.2705e-06	714.28	234.32	1.5899e-06	1.3282e-06	315.6	135.91	93.244	43.519	1.6225e-06	71.984	-72.019	-11.801	-8.241	-84.035	48.459	59.821	-84.750	-78.961	73.186	63.685	-80.559	-76.770	-74.703	-71.087	74.036	-73.411	-8191	255	
41359.930	1	1	0	0	0.25623	0.091094	0.16952	0.12394	0.17712	0.19771	0.066175	0.13563	0.22283	0.078219	0.13409	0.15789	0.25	0.074928	0.28288	0.22568	-1.7146	-1.5479	-1.7229	-1.9604	-1.3708	-1.8958	-2.0062	-1.5333	-1.9542	-1.6375	-1.7042	-2.0167	-1.5896	-1.9479	-1.8271	-1.8292	171.959	135.516	-91.946	167.827	183.929	153.943	213.828	-72.177	188.623	200.692	73.287	232.325	95.868	259.286	135.009	172.748	0.00040217	0.00050304	0.00012155	566.64	4.7364e-06	4.7146e-06	700.18	228.42	2.6261e-06	5.2503e-06	307.88	131.61	90.503	42.182	3.5166e-06	69.542	0.00027653	0.00013379	3.3306e-05	577.48	1.4306e-06	1.2869e-06	714.52	234.15	1.6017e-06	1.3455e-06	314.37	135.83	93.179	43.56	1.6267e-06	71.798	-73.542	-0.909	-6.713	-83.971	61.774	57.120	-84.415	-79.085	76.902	57.902	-80.720	-77.060	-74.651	-71.272	50.481	-73.077	-8191	255	
41360.023	1	1	0	0	0.11508	0.15932	0.043835	0.17762	0.25883	0.097876	0.08975	0.30722	0.063618	0.18678	0.18998	0.32901	0.29148	0.31228	0.1214	0.18445	-1.6521	-1.7104	-1.575	-2.2458	-1.5646	-1.7917	-1.9104	-1.4854	-1.8312	-1.6104	-1.7687	-2.1521	-1.6771	-1.9104	-1.9375	-1.6479	11.702	227.292	92.683	-56.503	40.324	70.472	126.629	227.240	117.129	31.903	-56.841	-75.240	236.270	237.370	-66.507	-71.491	0.00036417	0.00057701	0.00012658	568.02	3.5695e-06	4.9672e-06	696.69	228.72	2.053e-06	5.1104e-06	309.58	131.69	89.801	42.096	5.346e-06	69.496	0.00028232	0.0001298	3.498e-05	575.81	1.5645e-06	1.2924e-06	712.7	233.85	1.5165e-06	1.3551e-06	313.95	135.44	92.953	43.487	1.603e-06	71.705	-73.689	-26.200	-12.107	-83.964	55.768	58.705	-84.372	-79.013	49.629	41.558	-80.796	-76.929	-74.670	-71.155	60.111	-73.340	-8191	255	
41360.145	1	1	0	0	0.078163	0.13509	0.11012	0.23086	0.091894	0.11325	0.067996	0.17422	0.32252	0.083397	0.16727	0.17352	0.18388	0.3619	0.073185	0.24672	-1.5271	-1.7333	-1.7	-2.0958	-1.6354	-1.8146	-2.1979	-1.5312	-1.9937	-1.7938	-1.4354	-2.0542	-1.7792	-1.8375	-1.9292	-1.7604	-6.927	174.727	-67.190	126.068	254.458	-55.546	143.035	14.861	226.988	248.237	250.758	-46.853	-72.918	222.932	44.768	-83.184	0.00036588	0.00051152	0.00015316	565.69	5.1974e-06	5.007e-06	701.02	228.43	2.9454e-06	4.6414e-06	306.96	132.01	89.629	41.734	5.1049e-06	69.063	0.00027189	0.00014095	3.8339e-05	577.48	1.5169e-06	1.3529e-06	713.81	233.78	1.5785e-06	1.3551e-06	313.91	135.5	92.829	43.228	1.6402e-06	71.518	-75.347	-1.431	-18.271	-84.240	74.984	64.918	-84.657	-79.259	73.929	46.131	-80.960	-76.718	-74.979	-71.000	71.108	-73.271	-8191	255	
41360.219	1	1	0	0	0.21187	0.16913	0.2065	0.0797	0.26046	0.20273	0.12586	0.22565	0.2868	0.12509	0.14476	0.11647	0.049592	0.1779	0.16872	0.084562	-1.5292	-1.6854	-1.4729	-2.0396	-1.7375	-1.6313	-2.2042	-1.6708	-1.7958	-1.7771	-1.5729	-2.0125	-1.9292	-1.6604	-2.0563	-1.7083	118.163	50.861	227.288	206.267	226.811	-44.428	-63.808	195.594	-83.404	125.567	-22.902	-65.120	222.287	206.984	-78.198	220.302	0.00036083	0.00054221	0.00011704	567.31	5.4833e-06	4.538e-06	701.61	227.52	2.6929e-06	4.2437e-06	307.24	130.75	90.262	41.54	3.6031e-06	68.695	0.00027965	0.00013276	3.7092e-05	576.75	1.4682e-06	1.427e-06	715.09	233.09	1.6411e-06	1.2924e-06	314.21	135.07	92.78	42.949	1.6317e-06	71.026	-77.370	-15.694	-12.234	-84.298	61.306	62.897	-84.544	-78.954	64.662	58.790	-80.607	-76.633	-74.734	-71.167	57.970	-73.061	-8191	255	
41360.312	1	1	0	0	0.058314	0.1786	0.26209	0.19208	0.13349	0.19461	0.23794	0.055391	0.28439	0.24446	0.14562	0.1883	0.18851	0.2624	0.053434	0.068101	-1.2583	-1.9479	-1.4479	-2.0521	-1.5917	-1.5854	-2.0396	-1.5417	-1.7167	-1.9646	-1.4375	-2	-1.6479	-1.5917	-1.9438	-1.6896	-34.496	43.693	85.512	109.090	160.084	91.776	261.931	209.210	27.659	-32.483	181.029	250.594	-61.706	-2.281	145.265	66.249	0.00038008	0.00056052	0.00014977	569.79	4.3673e-06	4.6247e-06	703.33	226.48	2.4104e-06	5.6237e-06	305.95	130.22	89.328	40.662	3.4856e-06	66.965	0.00027067	0.00012983	3.7334e-05	578.51	1.5621e-06	1.3963e-06	715.13	232.47	1.5445e-06	1.4388e-06	311.28	133.9	92.016	42.156	1.6239e-06	69.343	-74.034	-12.548	-1.315	-83.801	57.512	52.168	-84.559	-78.990	70.059	51.567	-80.816	-76.669	-74.791	-71.039	64.742	-73.148	-8191	255	
41360.410	1	1	0	0	0.086026	0.079813	0.20753	0.074877	0.18109	0.19489	0.13452	0.20825	0.13438	0.050393	0.20872	0.17798	0.1542	0.1856	0.16785	0.046	-1.2208	-1.8396	-1.6396	-1.925	-1.7646	-1.5063	-2.3063	-1.7812	-1.7958	-1.8979	-1.5396	-1.7833	-1.6333	-1.6167	-1.9125	-1.7167	246.381	91.319	171.659	5.708	209.246	234.292	222.317	202.991	-42.180	-47.047	-4.378	245.178	-44.903	-48.312	149.640	188.641	0.00033536	0.00055645	0.00015404	568.68	3.7177e-06	5.2868e-06	702.47	225.65	2.4485e-06	5.0528e-06	302.34	129.12	88.798	41.169	5.6797e-06	67.72	0.00026852	0.0001285	3.7837e-05	577.69	1.4856e-06	1.4408e-06	713.67	231.31	1.5185e-06	1.3462e-06	309.58	133.07	91.883	42.41	1.6596e-06	69.958	-75.932	-3.514	-4.746	-83.826	78.117	51.359	-84.659	-78.901	64.588	43.200	-80.824	-76.456	-74.839	-71.217	70.438	-73.343	-8191	255	
41360.531	1	1	0	0	0.066607	0.23586	0.18448	0.16521	0.30181	0.2595	0.25283	0.15609	0.071712	0.49724	0.073448	0.091125	0.050265	0.11999	0.2132	0.097941	-1.1417	-1.8146	-1.5458	-1.9021	-1.7208	-1.5604	-2.1521	-1.7375	-1.6792	-2.0062	-1.6708	-1.8542	-1.7958	-1.3937	-1.8104	-1.7563	142.647	100.898	-25.061	-76.121	-12.311	165.644	102.821	196.702	193.270	-24.304	52.487	162.954	-50.264	226.001	96.206	194.469	0.0003599	0.00044456	0.0001291	568.53	4.1519e-06	4.8816e-06	702.21	227.88	2.6171e-06	4.8011e-06	305.65	130.38	89.296	41.198	5.5159e-06	67.926	0.00027934	0.0001295	3.8358e-05	578.46	1.4991e-06	1.4582e-06	715.86	232.72	1.5751e-06	1.264e-06	311.9	133.85	92.415	42.619	1.6759e-06	70.023	-73.295	-13.099	-7.188	-84.220	59.575	47.066	-84.574	-79.088	68.209	43.910	-81.107	-76.860	-74.553	-71.184	75.435	-73.011	-8191	255	
41360.625	1	1	0	0	0.33565	0.016125	0.43646	0.067017	0.17527	0.24169	0.18295	0.20788	0.20595	0.23274	0.16848	0.48145	0.21008	0.117	0.15222	0.25375	-1.3667	-1.8563	-1.7062	-1.7917	-1.9521	-1.4229	-2.1417	-1.8417	-1.6292	-2.0187	-1.5583	-1.7396	-1.9583	-1.5396	-1.7292	-1.9125	191.834	-0.039	58.679	131.000	141.918	136.232	93.338	-78.535	184.993	-47.919	87.375	235.073	-77.929	86.396	215.553	245.241	0.00036595	0.00040074	0.00012854	571.74	4.362e-06	3.3797e-06	703.92	226.04	2.9888e-06	4.8256e-06	308.11	130.11	89.357	41.342	3.7215e-06	68.222	0.0002728	0.00012129	3.8283e-05	579.55	1.4793e-06	1.4226e-06	716.88	231.82	1.564e-06	1.3459e-06	312.69	134.23	92.413	42.678	1.5301e-06	70.206	-77.317	-11.574	-11.301	-83.997	60.298	36.973	-84.802	-79.069	75.477	33.532	-80.650	-76.853	-75.061	-71.012	67.302	-73.175	-8191	255	
41360.723	1	1	0	0	0.099868	0.064651	0.1685	0.23239	0.11237	0.18112	0.10303	0.090158	0.10016	0.32333	0.13061	0.10811	0.10369	0.21663	0.15006	0.3322	-1.0125	-2.0563	-1.5208	-1.5854	-1.9125	-1.6437	-2.0479	-2.0104	-1.6167	-1.9708	-1.8646	-1.5792	-2.1104	-1.5521	-1.85	-2.0521	-53.115	-75.800	147.238	261.694	60.859	183.652	158.587	-29.421	147.822	41.805	153.828	171.337	219.294	138.556	146.375	118.842	0.00036158	0.00062278	0.00014095	568.92	3.5549e-06	5.0395e-06	704.93	227.62	3.0774e-06	5.0457e-06	304.87	129.97	88.734	40.718	4.2464e-06	67.116	0.00026484	0.00013699	3.7567e-05	579.97	1.4122e-06	1.4853e-06	717.7	231.85	1.6108e-06	1.3997e-06	311.37	133.69	91.675	42.268	1.5269e-06	69.201	-76.497	-21.226	-0.384	-83.914	64.400	44.179	-84.361	-78.913	71.516	45.566	-81.088	-76.680	-74.940	-71.026	67.177	-73.161	-8191	255	
41360.816	1	1	0	0	0.12373	0.2341	0.13842	0.058617	0.2029	0.11492	0.29319	0.090244	0.31834	0.18047	0.092288	0.28406	0.10246	0.019721	0.052624	0.30651	-0.98125	-2.05	-1.5708	-1.4375	-2	-1.4438	-1.9479	-1.8854	-1.35	-2.0521	-1.4646	-1.4833	-2.0104	-1.5667	-1.9146	-2.1146	155.591	-44.455	19.313	-17.674	2.306	230.113	229.089	-70.454	233.761	212.840	-49.945	137.980	85.447	123.395	84.381	224.657	0.0003191	0.00046531	0.0001397	569.13	5.3651e-06	5.7279e-06	696.46	225.43	2.7675e-06	4.6961e-06	303.55	128.61	88.984	40.633	4.723e-06	67.166	0.00027038	0.00012924	3.8804e-05	579.35	1.4567e-06	1.42e-06	710.93	231.02	1.6246e-06	1.2828e-06	308.51	132.59	92.052	42.191	1.5453e-06	69.075	-77.096	-28.686	-2.391	-83.842	72.466	66.954	-84.733	-78.895	88.621	50.390	-80.854	-76.796	-75.254	-71.044	73.146	-73.322	-8191	255	
41360.914	1	1	0	0	0.20157	0.11175	0.21213	0.23671	0.10116	0.22949	0.27278	0.17062	0.077754	0.17715	0.30262	0.13046	0.16239	0.12719	0.087232	0.36346	-1.225	-1.8917	-1.6938	-1.7125	-2.0438	-1.7062	-2.1188	-2.0333	-1.5312	-1.9854	-1.7208	-1.6271	-2.2167	-1.875	-1.7583	-1.9771	205.132	214.835	84.163	208.795	45.944	246.390	186.493	-64.575	190.738	108.608	-35.122	-94.875	43.091	207.367	170.884	228.014	0.00033481	0.0004666	0.00010418	567.01	3.9798e-06	5.423e-06	698.47	226	2.7826e-06	4.8934e-06	303.6	129.4	90.078	41.25	4.1779e-06	67.312	0.00026692	0.0001298	3.6748e-05	576.61	1.3722e-06	1.3696e-06	710.79	231.66	1.6546e-06	1.2802e-06	308.93	133.22	92.578	42.65	1.5464e-06	69.701	-73.503	-12.530	5.327	-84.211	61.248	54.457	-84.561	-78.988	82.563	52.404	-80.796	-76.772	-74.665	-71.266	60.637	-73.133	-8191	255	
41361.008	1	1	0	0	0.090942	0.18902	0.041525	0.2257	0.18391	0.05717	0.22562	0.13387	0.28839	0.20469	0.038935	0.10387	0.19108	0.15288	0.338	0.44911	-1.0646	-1.7542	-1.7229	-1.4875	-1.9646	-1.7333	-1.6938	-2.0958	-1.675	-1.9417	-1.9292	-1.4792	-2.0667	-1.7771	-1.6	-2.2104	-52.649	-81.921	-76.532	137.278	-25.908	29.217	256.376	195.203	221.784	-85.840	226.914	216.627	60.925	74.404	202.257	189.487	0.00034781	0.00047099	0.00012912	565.75	3.6541e-06	5.1022e-06	698.45	227.49	2.1291e-06	5.2788e-06	305.09	130.79	90.166	41.572	3.42e-06	68.288	0.00027307	0.00012644	3.8692e-05	575.45	1.3989e-06	1.295e-06	711.6	232.36	1.5681e-06	1.3075e-06	310.78	134.26	92.955	43.06	1.5195e-06	70.469	-72.314	-9.938	2.809	-84.018	49.930	40.534	-84.761	-79.134	50.481	35.636	-80.885	-76.742	-74.839	-71.160	86.424	-73.617	-8191	255	
41361.129	1	1	0	0	0.13143	0.2455	0.0074458	0.10415	0.1175	0.077569	0.35677	0.44391	0.18486	0.04239	0.29494	0.18987	0.25351	0.20153	0.13983	0.33671	-1.3083	-1.9792	-1.775	-1.5792	-1.8937	-1.7042	-1.7042	-2.0646	-1.65	-1.9667	-1.8875	-1.7437	-1.9604	-1.9042	-1.5625	-2.0812	55.813	49.114	33.285	-39.525	-84.796	-24.891	189.115	217.064	35.283	63.543	165.424	-27.837	-58.543	-50.780	245.204	235.061	0.00035675	0.00055975	0.00016529	567.09	4.5487e-06	4.4133e-06	699.94	228.51	2.0058e-06	4.1936e-06	303.6	131.23	89.978	41.809	4.3081e-06	68.824	0.00027493	0.00012618	3.6674e-05	576.57	1.376e-06	1.4163e-06	711.49	232.78	1.5731e-06	1.3119e-06	311.53	134.99	93.375	43.27	1.6494e-06	70.978	-74.368	-21.031	-16.143	-83.976	66.799	47.997	-84.510	-79.267	52.790	55.263	-80.768	-76.757	-74.534	-71.071	75.455	-73.388	-8191	255	
41361.227	1	1	0	0	0.15741	0.14253	0.23688	0.20924	0.19238	0.13919	0.1867	0.050345	0.28758	0.04318	0.20431	0.23422	0.10969	0.17253	0.19503	0.28189	-1.0896	-1.8771	-1.8667	-1.4208	-1.8292	-1.6646	-1.4958	-2.0687	-1.5688	-1.6979	-2.0917	-1.6458	-1.9479	-1.9438	-1.5125	-1.9937	76.019	202.289	-53.050	129.993	177.151	100.079	208.995	180.636	193.316	240.534	197.198	258.453	-40.160	198.790	29.713	207.985	0.00037291	0.00048063	0.00011731	564.24	4.6995e-06	4.7122e-06	696.97	226.59	3.7212e-06	4.2429e-06	302.77	130.62	91.409	41.985	4.1025e-06	68.42	0.00027719	0.00012807	3.5232e-05	575.86	1.3941e-06	1.3321e-06	709.93	232.59	1.626e-06	1.3101e-06	308.68	134.04	93.818	43.57	1.5828e-06	70.574	-73.661	-12.962	-8.921	-84.169	69.395	42.269	-84.824	-79.015	76.660	42.316	-80.925	-76.952	-74.547	-71.183	66.864	-73.413	-8191	255	
41361.320	1	1	0	0	0.08901	0.29134	0.20459	0.13036	0.082727	0.32136	0.16551	0.13926	0.20277	0.1687	0.10186	0.18022	0.16681	0.099409	0.32875	0.15597	-1.1458	-1.6646	-1.9604	-1.4792	-1.9125	-1.8021	-1.6958	-2.1312	-1.7375	-1.5396	-1.8583	-1.6917	-1.9146	-1.8521	-1.4438	-2.0771	1.875	34.038	46.023	35.140	106.862	2.246	183.901	114.834	172.735	-71.933	199.594	60.140	-32.763	156.240	239.057	159.363	0.00037516	0.00038537	0.00013481	568.7	4.9665e-06	3.5266e-06	691.26	227.84	2.293e-06	4.3604e-06	302.95	130.1	90.442	41.839	3.2043e-06	68.544	0.00027038	0.00011856	3.2683e-05	576.32	1.3221e-06	1.3592e-06	704.09	232.48	1.4835e-06	1.2891e-06	307.78	133.86	93.358	43.536	1.4933e-06	70.716	-74.498	-8.831	-16.453	-83.964	55.612	51.056	-84.632	-79.031	74.222	52.379	-80.864	-76.677	-75.349	-71.170	81.998	-73.731	-8191	255	
41361.441	1	1	0	0	0.34995	0.12078	0.23635	0.22524	0.05238	0.18532	0.24501	0.34189	0.060342	0.069685	0.099041	0.031951	0.2461	0.10448	0.17363	0.043975	-1.3	-1.6854	-2.0021	-1.75	-1.8875	-1.8833	-1.7271	-2.1771	-1.6958	-1.575	-2.025	-1.9	-1.7604	-2.0604	-1.6604	-2.2562	185.662	3.408	-72.320	126.717	102.654	107.725	221.452	177.382	115.316	139.885	3.972	187.229	124.545	254.509	-51.647	235.918	0.00037964	0.00054453	0.00013627	561.92	5.3583e-06	5.3698e-06	689.81	226.46	2.4265e-06	4.1678e-06	302.61	130.74	90.32	42.102	4.5121e-06	68.793	0.00027947	0.00013193	3.458e-05	572.95	1.3749e-06	1.3065e-06	702.75	231.79	1.5391e-06	1.3256e-06	307.9	134.52	93.679	43.666	1.6058e-06	71.096	-76.033	-18.243	-5.865	-83.823	52.614	51.175	-84.536	-79.290	79.871	54.134	-80.959	-76.939	-75.253	-71.425	58.528	-73.551	-8191	255	
41361.516	1	1	0	0	0.1335	0.11057	0.23267	0.10116	0.14844	0.1091	0.089175	0.2472	0.086919	0.3209	0.10569	0.2022	0.21143	0.073135	0.31822	0.33591	-1.4354	-1.6333	-2.0979	-1.7583	-1.7313	-2.0458	-1.7104	-2.0187	-1.875	-1.5604	-1.9667	-1.8188	-1.65	-2.2417	-1.3771	-1.9292	170.541	149.767	137.894	206.867	123.488	192.295	226.682	195.392	-60.654	260.380	5.332	-54.408	237.585	125.808	252.464	211.024	0.00035517	0.00049954	8.0554e-05	563.37	3.5851e-06	3.6553e-06	693.37	228.29	3.0546e-06	5.9273e-06	304.8	131.13	90.97	41.894	4.0118e-06	68.5	0.00027146	0.00012448	3.3278e-05	573.48	1.337e-06	1.3173e-06	704.06	233.11	1.5627e-06	1.3794e-06	309.73	135.09	93.953	43.428	1.6097e-06	71.042	-75.253	-21.846	-11.290	-84.532	43.829	39.008	-84.367	-79.081	66.148	46.026	-81.225	-76.821	-75.043	-71.440	62.364	-73.716	-8191	255	
41361.609	1	1	0	0	0.088729	0.096779	0.32803	0.2091	0.11272	0.068589	0.31098	0.10805	0.16844	0.041751	0.1671	0.23673	0.14846	0.12108	0.073469	0.04134	-1.375	-1.5	-1.8438	-1.8854	-1.6042	-2.0771	-1.7479	-1.7333	-1.9771	-1.8146	-1.8417	-1.8	-1.6229	-2.1542	-1.6479	-1.9167	137.196	-39.334	-86.292	133.733	5.222	246.777	234.141	199.089	-15.089	-79.281	199.865	171.419	145.822	238.289	-15.943	158.012	0.00038112	0.00053157	0.00013096	561.36	4.7805e-06	3.8032e-06	692.02	226.58	3.2173e-06	5.1511e-06	301.21	130.25	91.12	41.912	4.9348e-06	68.768	0.00027316	0.00013506	3.3083e-05	572.71	1.3596e-06	1.2995e-06	703.48	232	1.5643e-06	1.3543e-06	306.98	134.33	93.966	43.407	1.5974e-06	70.676	-70.116	-9.769	-14.652	-84.016	74.993	63.275	-84.776	-79.284	59.921	48.810	-81.199	-77.022	-75.178	-71.479	51.636	-73.574	-8191	255	
41361.703	1	1	0	0	0.058545	0.063864	0.2704	0.12295	0.15767	0.12394	0.19706	0.53844	0.24375	0.26291	0.3718	0.25805	0.1281	0.24943	0.21537	0.21852	-1.5458	-1.4937	-1.9438	-1.9146	-1.6417	-2.1396	-1.8958	-1.975	-1.8792	-1.5938	-2.1271	-1.9438	-1.55	-2.0354	-1.6146	-1.8687	151.531	8.534	-21.166	227.477	135.917	195.019	208.652	227.626	88.762	-49.594	159.030	61.530	17.836	-65.321	-52.607	191.757	0.0003608	0.00057925	0.00012804	562.98	4.8005e-06	4.4019e-06	682.54	225.6	1.7495e-06	4.172e-06	298.62	129.76	90.983	41.903	3.5599e-06	68.448	0.00027189	0.00012631	3.1985e-05	571.28	1.4198e-06	1.216e-06	695.67	231.28	1.4751e-06	1.2968e-06	304.46	133.52	93.703	43.49	1.62e-06	70.685	-73.424	-19.830	-9.791	-84.096	61.781	55.050	-84.823	-79.090	81.869	41.862	-81.175	-76.773	-74.813	-71.331	51.797	-73.436	-8191	255	
41361.824	1	1	0	0	0.20097	0.43825	0.29527	0.2008	0.060539	0.21435	0.21929	0.076881	0.1923	0.17292	0.14481	0.29588	0.12433	0.11686	0.10985	0.24609	-1.4479	-1.3354	-1.6708	-1.7833	-1.4792	-2.0667	-1.8354	-1.7229	-2.1354	-1.6271	-1.8417	-2.0771	-1.4125	-2.1729	-1.7938	-1.8417	-49.021	-31.080	77.933	146.732	181.422	-79.768	202.569	85.868	182.083	192.018	132.450	187.338	181.699	252.617	82.254	-78.524	0.00037477	0.00053626	0.00014195	561.93	5.6224e-06	4.238e-06	682.58	226.08	3.0007e-06	5.1592e-06	297.38	130.2	90.71	41.918	4.4028e-06	68.678	0.00026549	0.00012012	3.2785e-05	571.57	1.3812e-06	1.2004e-06	696.77	231.93	1.4448e-06	1.285e-06	305.23	134.04	93.753	43.491	1.5294e-06	70.729	-73.382	-4.465	-1.228	-83.694	78.777	44.446	-84.612	-79.055	85.503	59.058	-80.977	-76.798	-74.928	-71.421	49.657	-73.390	-8191	255	
41361.922	1	1	0	0	0.22425	0.072466	0.19598	0.31579	0.083541	0.23757	0.1025	0.25036	0.10018	0.16324	0.1902	0.17277	0.1024	0.19857	0.040662	0.086338	-1.7396	-1.375	-1.8104	-1.8958	-1.5125	-1.975	-1.7563	-1.7687	-2.0375	-1.6167	-1.8396	-2.1188	-1.675	-2.1354	-1.6229	-1.5875	-84.991	212.960	111.054	217.595	118.523	221.137	142.423	22.581	-91.961	-96.656	6.987	-10.349	28.881	156.196	21.022	197.935	0.00037021	0.00061254	0.0001433	563.35	4.6933e-06	6.5095e-06	683.9	225.52	3.2767e-06	5.1395e-06	301.44	130.51	90.581	41.938	3.8846e-06	68.809	0.00026373	0.00013203	3.3324e-05	572.42	1.3916e-06	1.2294e-06	697.85	231.67	1.5138e-06	1.3127e-06	306.63	134.26	93.656	43.395	1.5163e-06	70.973	-72.637	-6.227	-20.143	-84.218	51.385	51.566	-84.787	-78.996	82.616	43.290	-80.533	-76.962	-74.813	-71.331	74.018	-73.597	-8191	255	
41362.020	1	1	0	0	0.071984	0.085773	0.13109	0.25627	0.2312	0.36891	0.15263	0.1015	0.086567	0.10512	0.05159	0.46105	0.17418	0.066986	0.075178	0.23564	-1.6771	-1.4375	-1.8125	-1.8729	-1.5354	-2.0375	-1.9708	-1.625	-2.1354	-1.4792	-1.7292	-2.0896	-1.8438	-2.0021	-1.9208	-1.7792	205.349	-70.050	55.635	-92.655	182.732	-63.608	198.671	149.555	10.138	43.357	-9.096	261.114	-63.432	147.078	73.665	181.399	0.00037031	0.00052425	0.00015222	562.62	3.9837e-06	4.2467e-06	689.9	226.03	3.5427e-06	5.7259e-06	303.89	130.79	90.427	41.906	4.5764e-06	68.535	0.00026694	0.00012218	3.138e-05	571.56	1.3468e-06	1.1726e-06	699.61	231.76	1.4232e-06	1.3248e-06	307.58	134.68	93.617	43.56	1.5499e-06	70.925	-74.460	-11.395	-3.996	-84.036	85.971	45.111	-84.442	-79.069	75.375	29.860	-81.327	-76.939	-74.596	-71.259	74.815	-73.455	-8191	255	
41362.090	1	1	0	0	0.087855	0.062812	0.27543	0.156	0.14701	0.0047225	0.24119	0.11503	0.033927	0.31104	0.27754	0.10367	0.14359	0.12698	0.18172	0.090545	-1.5729	-1.6958	-1.6521	-2.1333	-1.4875	-1.9125	-1.825	-1.6042	-2.0542	-1.7437	-1.7375	-2.1937	-1.65	-1.9958	-1.8958	-1.6271	-65.861	142.116	115.386	47.831	97.304	-95.351	162.578	138.397	2.510	-72.994	142.359	118.058	122.114	235.703	227.242	38.401	0.00037192	0.00047776	0.00012763	562.76	3.0863e-06	4.2125e-06	683.89	225.58	2.4834e-06	3.963e-06	297.13	130.08	90.722	41.912	4.7592e-06	67.914	0.00026746	0.00012368	3.2441e-05	571.85	1.3666e-06	1.2034e-06	695.2	231.19	1.4461e-06	1.3186e-06	303.7	133.22	93.495	43.328	1.5057e-06	70.133	-72.671	-27.644	-8.441	-84.265	66.531	42.524	-84.657	-78.848	82.265	56.329	-80.966	-76.861	-74.694	-71.488	60.948	-73.468	-8191	255	
41362.211	1	1	0	0	0.12206	0.060697	0.14792	0.10002	0.15319	0.066121	0.086174	0.098629	0.10271	0.22624	0.16423	0.19746	0.34206	0.2049	0.10451	0.29313	-1.5875	-1.6208	-1.6667	-2.0354	-1.5125	-1.7854	-1.9833	-1.3771	-1.7375	-1.675	-1.6583	-2.1375	-1.4771	-1.8625	-2.0208	-1.7583	-0.831	54.973	140.820	76.937	95.649	241.465	-8.098	198.001	82.795	11.477	239.132	218.231	152.566	242.227	212.444	145.827	0.00037468	0.0005504	0.00014234	562.82	4.6929e-06	5.0997e-06	681.21	225.46	2.7584e-06	4.8945e-06	297.36	129.46	90.349	41.584	4.9627e-06	68.272	0.00026371	0.00012445	3.3148e-05	572.24	1.3322e-06	1.2535e-06	693.94	230.63	1.4108e-06	1.2754e-06	303.93	132.8	93.224	43.157	1.5103e-06	70.25	-75.065	-12.169	-3.035	-83.968	58.660	66.254	-84.784	-79.150	63.561	23.248	-81.467	-77.156	-74.753	-71.404	65.652	-73.661	-8191	255	
41362.309	1	1	0	0	0.08934	0.24072	0.079291	0.19816	0.15938	0.17012	0.042415	0.29267	0.10761	0.13216	0.37402	0.090862	0.22894	0.18311	0.24858	0.24216	-1.525	-1.7583	-1.5875	-1.8729	-1.7271	-1.6979	-2.2896	-1.7208	-2.0146	-1.9271	-1.6583	-2.1375	-1.8479	-1.8813	-2.0354	-1.675	158.362	167.869	-26.233	209.268	-20.562	249.018	102.525	220.525	223.350	134.316	156.931	82.001	165.368	203.996	73.674	208.443	0.00035653	0.00054243	0.00011365	560.6	4.3253e-06	4.7128e-06	683.88	225.23	2.5069e-06	4.6964e-06	301.16	129.53	90.16	41.947	3.8562e-06	68.728	0.00026389	0.00012135	3.3427e-05	570.35	1.329e-06	1.2724e-06	696.47	230.82	1.4727e-06	1.2389e-06	305.43	133.44	93.245	43.38	1.4728e-06	70.771	-75.254	-6.244	-26.117	-84.153	71.863	59.819	-84.560	-79.052	96.159	38.393	-81.265	-76.949	-74.820	-71.337	66.375	-73.563	-8191	255	
41362.402	1	1	0	0	0.19194	0.3387	0.34749	0.12827	0.12353	0.3269	0.2434	0.26578	0.063349	0.21681	0.17106	0.20266	0.072485	0.2944	0.2359	0.02373	-1.4708	-1.9729	-1.5646	-2.0729	-1.5812	-1.6938	-2.1396	-1.6625	-1.7021	-1.9625	-1.4417	-1.975	-1.8146	-1.6229	-2.0958	-1.6396	150.653	121.096	234.538	-54.480	50.714	162.271	238.460	102.508	-28.095	190.950	-48.549	-21.128	216.606	197.344	69.520	142.212	0.00038886	0.00053213	0.00013284	561.88	4.2322e-06	5.2107e-06	686.48	226.21	2.328e-06	4.3761e-06	299.34	131.18	91.242	42.101	5.6566e-06	69.293	0.00025981	0.00012834	3.5976e-05	571.31	1.3231e-06	1.2264e-06	698.81	231.26	1.4892e-06	1.2445e-06	307	134.52	93.748	43.637	1.413e-06	71.338	-73.147	-13.627	-14.894	-84.004	62.685	52.998	-84.351	-79.011	58.031	50.232	-81.105	-76.951	-74.996	-71.363	57.102	-73.750	-8191	255	
41362.523	1	1	0	0	0.22984	0.19604	0.29255	0.20095	0.25298	0.093106	0.12953	0.051641	0.067491	0.2705	0.1942	0.28004	0.15343	0.20669	0.25834	0.12456	-1.1896	-1.9375	-1.4542	-2.0938	-1.8875	-1.5187	-2.0771	-1.7583	-1.7208	-1.9854	-1.6646	-2.0479	-1.7333	-1.625	-1.9771	-1.7563	120.883	-11.974	-41.549	202.465	138.163	62.732	163.822	63.006	-72.746	-75.725	56.677	156.739	152.187	218.473	70.119	22.939	0.00036147	0.00057109	0.00014526	558.81	4.9186e-06	3.7204e-06	681.44	226.56	3.0463e-06	5.6657e-06	298.26	130.15	90.59	42.326	5.0628e-06	68.803	0.0002702	0.00012697	3.5139e-05	570.26	1.3903e-06	1.2342e-06	696.89	231.62	1.4778e-06	1.2787e-06	304.35	133.75	93.636	43.771	1.534e-06	70.833	-73.671	-12.057	-8.832	-84.122	56.523	42.842	-84.371	-79.226	71.457	42.423	-81.422	-76.819	-75.179	-71.375	94.239	-73.504	-8191	255	
41362.617	1	1	0	0	0.17852	0.11279	0.17364	0.22504	0.2295	0.29903	0.35659	0.10117	0.12016	0.12672	0.12874	0.087605	0.15524	0.33231	0.34184	0.097636	-1.0562	-1.8062	-1.3896	-1.9083	-1.6729	-1.5063	-2.0896	-1.6396	-1.7333	-1.9896	-1.8708	-1.8875	-1.9062	-1.5854	-1.9042	-1.8542	10.472	261.153	211.842	43.865	-92.030	39.164	187.484	180.530	252.549	211.171	177.457	152.896	216.557	143.343	97.352	116.448	0.00038208	0.00046291	0.00014522	559.99	4.9426e-06	5.3463e-06	682.2	224.32	3.0183e-06	4.1808e-06	297.53	129.56	90.852	42.303	3.8378e-06	68.776	0.00026805	0.00012145	3.4599e-05	569.18	1.336e-06	1.2817e-06	692.22	231.03	1.4559e-06	1.1921e-06	302.64	132.98	93.464	43.742	1.3508e-06	70.848	-73.340	-12.394	-7.243	-83.925	67.467	43.536	-84.588	-79.215	79.111	48.385	-81.028	-77.193	-74.859	-71.546	69.269	-73.621	-8191	255	
41362.715	1	1	0	0	0.18828	0.23374	0.13716	0.26611	0.0939	0.27321	0.11974	0.1915	0.08523	0.16343	0.15895	0.073735	0.19878	0.041906	0.22195	0.073954	-0.88125	-2.0687	-1.525	-1.8563	-1.9729	-1.45	-2.0208	-1.9229	-1.6917	-2.0958	-1.5646	-1.8021	-2.075	-1.6396	-1.9583	-1.8479	51.208	175.772	253.202	165.354	139.449	251.260	66.439	-65.109	-20.914	-86.145	-4.554	-89.983	259.656	-32.989	38.545	20.335	0.00037056	0.00055745	0.00011082	559.92	4.0952e-06	6.1865e-06	682.31	225.64	2.9857e-06	5.2762e-06	297.62	130.27	90.406	42.319	5.2706e-06	69	0.00026588	0.00012302	3.2227e-05	569.48	1.296e-06	1.3098e-06	694.02	231.31	1.5169e-06	1.2009e-06	304.58	133.64	93.554	43.883	1.4265e-06	71.215	-75.076	-11.379	-23.783	-84.220	50.852	38.859	-84.723	-79.155	76.884	44.308	-80.971	-77.059	-74.604	-71.511	45.973	-73.632	-8191	255	
41362.809	1	1	0	0	0.11585	0.0462	0.10748	0.16422	0.15822	0.27724	0.081158	0.095883	0.054014	0.24662	0.19093	0.13677	0.05714	0.52413	0.40975	0.088673	-1.2125	-1.9333	-1.675	-1.7146	-2.0812	-1.5771	-2.1292	-1.9125	-1.4708	-2.0375	-1.7771	-1.8708	-2.0146	-1.5854	-1.8292	-2.0042	159.108	45.253	207.735	207.906	146.953	145.914	80.588	30.101	175.293	-49.641	91.344	151.146	83.544	-89.249	-35.595	10.390	0.00039858	0.00042192	0.00014756	562.09	4.3315e-06	5.6694e-06	684.87	226.01	3.2923e-06	3.6774e-06	303.54	131.19	91.093	42.788	4.4352e-06	69.498	0.0002714	0.00011713	3.4022e-05	569.97	1.1972e-06	1.3176e-06	696.72	231.75	1.526e-06	1.1357e-06	306.5	134.51	94.08	44.313	1.4764e-06	72.078	-75.005	-9.891	-11.474	-84.255	65.153	53.770	-84.488	-79.149	71.758	47.245	-81.106	-77.134	-74.880	-71.622	70.451	-73.563	-8191	255	
41362.906	1	1	0	0	0.21477	0.1505	0.04357	0.16747	0.032894	0.155	0.17123	0.14791	0.11948	0.29323	0.21568	0.2939	0.24873	0.091551	0.24637	0.13953	-1.1375	-2	-1.7354	-1.6271	-1.9833	-1.6938	-1.975	-2.0417	-1.6375	-1.9896	-1.7104	-1.7771	-1.9625	-1.8021	-1.775	-2.0958	73.066	18.449	-21.610	180.566	87.258	187.377	78.329	-54.234	31.056	242.766	165.417	95.830	258.040	114.368	74.688	225.024	0.00038026	0.00059586	0.00010348	560.47	4.5539e-06	5.5475e-06	687.46	226.76	2.3356e-06	5.5269e-06	301.37	130.67	90.714	42.771	6.3922e-06	69.225	0.00027269	0.00011756	3.4506e-05	570.77	1.249e-06	1.3829e-06	699.27	232.4	1.5815e-06	1.2065e-06	306.31	134.43	93.816	44.212	1.4845e-06	71.435	-75.112	-8.550	-9.084	-84.117	51.901	44.973	-84.545	-79.255	91.986	61.770	-81.329	-77.046	-75.074	-71.478	75.408	-73.723	-8191	255	
41363.004	1	1	0	0	0.11074	0.24342	0.11979	0.14216	0.085234	0.080871	0.013431	0.24238	0.042718	0.25701	0.24677	0.09387	0.13956	0.21777	0.08419	0.087896	-1.0479	-2.2354	-1.8917	-1.6896	-2.2062	-1.6646	-1.7292	-2.1292	-1.5167	-2.1	-1.8563	-1.7188	-2.0458	-1.7333	-1.8479	-2.1229	-67.267	89.277	136.605	-60.659	250.298	-60.713	9.662	208.812	136.474	154.636	-26.059	-7.739	82.146	236.652	155.878	115.400	0.00035149	0.00059496	0.00013767	559.06	4.1783e-06	4.4206e-06	681.57	224.89	2.2902e-06	4.3835e-06	297.39	129.06	90.093	42.193	4.2832e-06	68.303	0.00026814	0.00011473	3.3362e-05	570.07	1.2376e-06	1.2616e-06	693.33	231.05	1.533e-06	1.1821e-06	302.35	132.67	93.275	43.714	1.5259e-06	70.476	-73.372	-22.024	-13.891	-84.146	68.727	59.407	-84.835	-78.889	77.922	46.774	-81.319	-77.010	-75.029	-71.476	63.306	-73.777	-8191	255	
41363.121	1	1	0	0	0.2399	0.14376	0.1374	0.33351	0.23229	0.11467	0.30773	0.25572	0.35941	0.28693	0.19693	0.27495	0.16795	0.12253	0.082238	0.12218	-1.1729	-1.8833	-1.7729	-1.5271	-2.0521	-1.5625	-1.8687	-2.2333	-1.6021	-1.6292	-1.9937	-1.4375	-1.9708	-1.9021	-1.6313	-1.8604	-26.924	108.044	55.826	-48.342	203.211	29.182	121.009	249.483	-54.990	-73.958	260.651	223.090	64.187	246.041	101.088	-21.546	0.00036273	0.00045962	0.00014202	560.62	3.9104e-06	5.054e-06	684.1	225.6	3.3998e-06	4.2014e-06	296.01	128.77	90.603	42.02	4.3601e-06	67.983	0.0002699	0.00011713	3.4655e-05	570.5	1.2974e-06	1.3729e-06	693.67	230.71	1.559e-06	1.1766e-06	301.74	132.5	93.319	43.507	1.4841e-06	70.357	-72.621	-14.803	-5.933	-83.922	55.476	50.933	-84.686	-78.775	74.046	51.740	-80.956	-77.057	-74.896	-71.490	75.518	-73.744	-8191	255	
41363.219	1	1	0	0	0.24854	0.12198	0.084045	0.17632	0.11796	0.07681	0.16435	0.22941	0.060588	0.084846	0.19191	0.18809	0.11716	0.17332	0.19111	0.073655	-0.97083	-1.875	-1.8146	-1.4833	-1.9292	-1.625	-1.9354	-2.1042	-1.5167	-1.8042	-1.9438	-1.5604	-1.95	-1.8979	-1.4229	-1.9729	-31.641	38.239	234.190	-32.880	-64.926	52.449	-53.467	104.830	90.861	130.646	160.094	204.907	41.018	252.102	247.945	26.752	0.00036139	0.00060438	0.00015131	559.46	4.9474e-06	3.9822e-06	682.08	225.58	3.2622e-06	4.5638e-06	295.53	129.05	90.263	41.808	5.4668e-06	68.047	0.00027357	0.00012411	3.3185e-05	569.65	1.2303e-06	1.3084e-06	694.17	230.64	1.4933e-06	1.174e-06	302.39	132.8	93.274	43.397	1.614e-06	70.35	-72.935	-9.751	-7.009	-84.264	64.917	48.209	-84.719	-79.006	90.024	54.024	-81.195	-77.105	-74.626	-71.426	82.141	-73.737	-8191	255	
41363.316	1	1	0	0	0.14701	0.10946	0.10484	0.26955	0.33025	0.11303	0.16907	0.21503	0.11443	0.11334	0.30896	0.30654	0.026131	0.22593	0.211	0.24749	-1.1958	-1.7896	-1.8958	-1.725	-1.8833	-1.7792	-1.6042	-1.9833	-1.6375	-1.8021	-1.9771	-1.6979	-1.8937	-1.8	-1.5479	-2.1146	77.854	49.693	-47.473	194.990	-69.425	226.637	155.779	224.230	-23.361	-65.811	-28.202	187.034	-54.369	-79.081	-82.291	-84.768	0.00038169	0.00057412	0.0001445	559.9	5.2279e-06	5.0014e-06	681.31	224.5	3.5851e-06	4.9376e-06	296.44	128.94	90.501	41.842	3.9296e-06	68.003	0.00027316	0.00011952	3.2375e-05	570.53	1.2859e-06	1.2995e-06	696.56	230.75	1.5027e-06	1.1899e-06	303.19	132.84	93.564	43.355	1.5425e-06	70.276	-73.637	-13.925	-1.745	-83.936	63.773	54.830	-84.704	-79.290	72.676	46.500	-80.875	-77.103	-74.829	-71.516	77.841	-73.517	-8191	255	
41363.387	1	1	0	0	0.11724	0.33977	0.22905	0.075082	0.12084	0.10291	0.1395	0.051083	0.22197	0.077645	0.05197	0.43461	0.23867	0.10941	0.14066	0.47703	-1.3271	-1.4125	-1.9813	-1.575	-1.9958	-1.9708	-1.5583	-1.9354	-1.6938	-1.575	-2.1521	-1.6521	-1.8375	-2.0292	-1.5438	-2.1667	128.898	-1.592	-4.666	100.682	-31.508	181.361	252.897	124.784	152.027	131.802	239.515	211.304	217.422	75.648	100.349	231.620	0.00038227	0.00053789	0.00014078	559.13	3.1238e-06	5.0767e-06	681.22	225.26	1.8475e-06	4.6222e-06	295.82	127.57	89.723	41.954	4.0066e-06	68.003	0.00026597	0.00012185	3.1668e-05	570.59	1.2657e-06	1.2605e-06	694.98	230.75	1.5014e-06	1.292e-06	300.81	131.7	93.11	43.539	1.5206e-06	70.144	-75.548	-3.870	-11.124	-84.144	44.178	63.347	-84.749	-78.986	83.820	33.500	-81.403	-77.024	-75.250	-71.499	75.515	-73.894	-8191	255	
41363.508	1	1	0	0	0.17529	0.2053	0.083214	0.016263	0.10819	0.3407	0.32514	0.080236	0.12226	0.15619	0.2405	0.3242	0.25157	0.18924	0.28558	0.1023	-1.4188	-1.5333	-1.9354	-1.6396	-1.7083	-1.9729	-1.4875	-1.8687	-1.6396	-1.5771	-1.9708	-1.7167	-1.5896	-2.0167	-1.4625	-1.8792	89.258	-45.845	-57.730	156.399	-67.547	-96.157	245.118	235.421	36.568	237.958	216.672	154.586	228.159	258.912	-21.246	230.686	0.00036199	0.0005383	0.00012183	557.81	4.99e-06	4.907e-06	679.29	225.12	3.1562e-06	4.2012e-06	295	127.94	90.595	42.412	4.8864e-06	68.613	0.00027072	0.00011899	3.1482e-05	569.7	1.4003e-06	1.2635e-06	691.64	231.01	1.5175e-06	1.2426e-06	301.52	132.32	93.721	43.977	1.6087e-06	70.901	-72.280	-13.194	-11.758	-84.368	72.269	45.261	-84.767	-79.203	72.801	49.457	-81.449	-77.012	-74.867	-71.564	75.584	-73.680	-8191	255	
41363.602	1	1	0	0	0.20088	0.1822	0.10543	0.16871	0.17341	0.23517	0.11535	0.25751	0.11623	0.2107	0.64168	0.089373	0.197	0.18458	0.3483	0.24974	-1.4542	-1.2812	-2.0833	-1.7833	-1.8188	-2.0396	-1.7188	-1.9604	-1.9292	-1.4521	-1.925	-1.85	-1.4625	-2.2104	-1.4104	-1.9354	137.898	48.336	100.956	155.770	173.428	77.125	-70.181	262.219	-79.652	-63.875	-10.357	182.788	-42.382	225.539	62.750	-89.923	0.00037209	0.00036464	0.00012292	560.18	3.314e-06	4.1591e-06	680.36	225.71	2.0727e-06	4.9197e-06	296.2	128.79	90.355	42.414	4.0853e-06	68.972	0.0002685	0.00012691	3.0254e-05	571.05	1.3541e-06	1.2583e-06	693.33	231.33	1.5051e-06	1.316e-06	301.43	132.65	93.747	44.007	1.5216e-06	70.915	-75.790	-10.111	-21.548	-84.238	75.192	37.148	-84.550	-79.078	132.015	57.857	-80.935	-77.026	-75.100	-71.217	71.163	-73.788	-8191	255	
41363.699	1	1	0	0	0.1427	0.056832	0.19451	0.28311	0.11073	0.18235	0.16871	0.20848	0.15433	0.12787	0.21085	0.13152	0.157	0.097023	0.07744	0.19289	-1.4708	-1.5438	-2.0771	-1.7875	-1.6063	-2.0146	-1.7208	-1.5771	-1.9562	-1.4583	-2.0438	-1.6688	-1.6104	-2.0292	-1.7208	-1.9917	28.708	189.859	61.800	215.721	59.656	206.489	-71.686	0.686	-28.136	208.882	-18.298	175.423	-42.229	87.338	-15.635	133.292	0.00037079	0.00043815	0.00014386	560.33	4.3538e-06	6.0302e-06	681.43	225.34	1.8681e-06	4.2984e-06	294.14	128.85	89.757	42.146	5.9858e-06	68.52	0.00026827	0.00012368	3.298e-05	572.28	1.3196e-06	1.2839e-06	695.33	230.82	1.5202e-06	1.3388e-06	301.66	132.55	93.494	43.731	1.5864e-06	70.642	-74.257	10.912	-6.177	-84.205	58.499	47.457	-84.676	-79.243	77.213	37.753	-81.243	-76.924	-75.139	-71.523	70.637	-73.862	-8191	255	
41363.793	1	1	0	0	0.17758	0.26313	0.14455	0.069467	0.030641	0.38652	0.031999	0.15361	0.18187	0.21637	0.20403	0.23793	0.20798	0.16502	0.031585	0.3927	-1.5125	-1.1979	-1.8917	-1.9958	-1.6	-1.8937	-1.7167	-1.9479	-1.8563	-1.3854	-2.0229	-2.0062	-1.6667	-2.0375	-1.775	-1.8667	118.459	-20.775	20.092	10.940	115.937	84.687	216.326	205.288	115.392	252.490	245.527	163.287	53.357	241.517	5.914	248.556	0.00038596	0.00052475	0.00013343	560.6	5.919e-06	4.852e-06	679.13	224.3	2.5067e-06	4.1907e-06	295.71	127.88	90.5	42.195	4.9001e-06	68.143	0.00026662	0.00012521	3.218e-05	572.4	1.3763e-06	1.2168e-06	695.63	230.94	1.5125e-06	1.3046e-06	301.46	132.13	94.033	43.852	1.5319e-06	70.517	-74.489	-26.966	-12.544	-84.130	55.389	45.381	-84.817	-79.180	78.273	62.909	-81.121	-77.281	-75.400	-71.485	58.875	-73.800	-8191	255	
41363.891	1	1	0	0	0.16807	0.061979	0.091441	0.13684	0.18423	0.20611	0.17223	0.13755	0.03681	0.28804	0.10903	0.29575	0.22764	0.22754	0.12658	0.30559	-1.5792	-1.5187	-1.6583	-2.0021	-1.6854	-2	-1.9188	-1.6708	-2.2229	-1.6187	-1.7458	-2.0271	-1.5	-1.9958	-1.6292	-1.55	-31.330	134.643	6.184	198.323	250.223	194.447	90.089	250.303	-96.269	-77.294	-33.034	80.094	16.023	-90.300	56.097	216.402	0.00039297	0.00043814	0.00014224	559.11	4.6183e-06	4.3001e-06	676.79	224.95	3.9629e-06	3.1606e-06	292.84	128.13	91.181	42.741	5.0796e-06	68.399	0.00026348	0.0001149	3.0394e-05	570.62	1.456e-06	1.262e-06	690.73	230.8	1.4778e-06	1.2592e-06	300.02	132.08	94.366	44.321	1.5736e-06	70.951	-70.415	-5.232	-8.908	-84.116	64.218	58.093	-84.743	-79.283	79.085	52.116	-81.811	-77.274	-75.116	-71.549	77.629	-73.853	-8191	255	
41363.988	1	1	0	0	0.057398	0.057184	0.08049	0.13839	0.26435	0.12345	0.18441	0.26276	0.38092	0.16302	0.14406	0.27683	0.23677	0.20637	0.26459	0.1082	-1.4875	-1.5167	-1.5479	-2.0208	-1.4292	-1.9917	-1.8833	-1.7625	-1.9229	-1.6625	-1.6958	-2.0458	-1.4625	-1.9646	-1.6812	-1.4146	62.078	-78.582	58.685	133.305	-64.923	212.457	158.696	179.255	-57.774	-80.298	-90.987	78.575	34.867	-73.662	74.189	171.816	0.00036573	0.00050011	0.00014448	560.42	3.9183e-06	4.233e-06	677.22	224.39	3.4274e-06	5.3729e-06	292.64	128.63	90.377	42.439	5.1984e-06	68.436	0.00026561	0.00012628	3.1631e-05	571.88	1.287e-06	1.2149e-06	691.77	231.06	1.4212e-06	1.3418e-06	300.5	132.3	93.87	44.26	1.5998e-06	71.027	-72.609	-24.888	-1.490	-84.117	69.554	47.470	-84.741	-79.062	71.467	54.641	-81.524	-77.217	-75.286	-71.514	47.364	-73.647	-8191	255	
41364.082	1	1	0	0	0.22389	0.069325	0.22598	0.16783	0.10419	0.082366	0.18329	0.30597	0.38125	0.34584	0.10269	0.17849	0.16069	0.13644	0.023141	0.045018	-1.4667	-1.5021	-1.5854	-2.0583	-1.4583	-1.675	-1.8604	-1.4688	-1.9521	-1.6542	-1.5688	-2.1042	-1.3604	-1.75	-1.9312	-1.5333	-87.475	254.267	27.339	196.843	-74.323	-77.530	155.873	227.472	9.581	78.169	85.417	-16.029	-68.039	-76.539	-96.401	262.260	0.00036477	0.00044965	0.00016311	556.07	5.3597e-06	4.5716e-06	676.42	223.46	2.774e-06	4.8819e-06	293.96	127.55	90.661	42.422	4.7641e-06	68.397	0.00026262	0.00012694	3.5353e-05	570.05	1.4744e-06	1.1708e-06	692.18	230.78	1.4195e-06	1.3617e-06	301.64	132.48	94.129	44.205	1.5436e-06	71.084	-73.943	-23.701	1.175	-84.189	71.516	61.018	-84.879	-79.182	73.777	49.275	-81.287	-77.137	-74.631	-71.601	83.581	-73.434	-8191	255	
41364.203	1	1	0	0	0.2746	0.26083	0.029087	0.15767	0.07078	0.1964	0.23278	0.34707	0.28581	0.17757	0.17482	0.18801	0.27097	0.22234	0.10395	0.13667	-1.575	-1.7208	-1.7313	-1.9292	-1.4813	-1.8687	-2.1146	-1.7104	-1.9083	-1.8104	-1.5438	-1.9708	-1.5	-1.775	-2.0854	-1.5187	123.855	25.928	172.314	240.921	86.169	249.359	165.822	219.952	48.110	-67.778	220.091	34.168	-71.587	-60.207	1.304	262.673	0.00036391	0.00052646	0.00015396	560.71	5.2062e-06	3.5681e-06	678.93	225.16	2.65e-06	5.0901e-06	295.53	128.81	90.54	42.208	4.8739e-06	68.482	0.00026868	0.00012837	3.5548e-05	571.95	1.3628e-06	1.2613e-06	695.95	231.22	1.3566e-06	1.3905e-06	302.85	132.92	94.006	44.085	1.5613e-06	70.89	-73.643	-19.454	-18.694	-84.279	75.692	52.704	-84.830	-79.103	72.276	45.985	-81.582	-77.256	-75.195	-71.584	78.098	-73.836	-8191	255	
41364.301	1	1	0	0	0.13349	0.09899	0.37252	0.49036	0.15495	0.23989	0.36009	0.24643	0.1209	0.091654	0.090773	0.086112	0.18532	0.22867	0.055147	0.064548	-1.2146	-1.7208	-1.3667	-2.1521	-1.5688	-1.8146	-2.2875	-1.5167	-1.875	-1.8354	-1.5854	-2.0187	-1.5312	-1.6229	-1.7938	-1.7104	-33.266	1.650	-65.135	232.202	40.415	82.147	201.311	192.234	260.007	258.469	83.852	203.294	257.217	219.248	150.382	253.768	0.00035788	0.00055553	0.00012656	556.4	4.734e-06	4.6137e-06	678.87	223.77	2.3114e-06	4.786e-06	293.99	127.49	90.522	42.369	4.2088e-06	67.973	0.00026332	0.00012328	3.3687e-05	569.46	1.3829e-06	1.2412e-06	691.65	230.61	1.3825e-06	1.2861e-06	300.38	131.99	94.128	44.197	1.4601e-06	70.869	-72.938	-8.490	-3.661	-84.512	64.194	55.018	-84.783	-79.388	92.834	37.460	-81.560	-77.145	-75.320	-71.783	95.180	-73.873	-8191	255	
41364.395	1	1	0	0	0.13566	0.24228	0.24079	0.21754	0.15417	0.24955	0.29418	0.29581	0.163	0.50944	0.03834	0.20521	0.10613	0.13591	0.18012	0.10778	-1.6625	-1.8563	-1.45	-1.7563	-1.7021	-1.5208	-2.1417	-1.6208	-1.8896	-1.8312	-1.4479	-1.9688	-1.6583	-1.5312	-2.0521	-1.625	90.321	93.685	114.343	161.797	247.908	225.239	203.564	189.906	151.505	-7.520	220.807	221.041	15.410	181.163	88.803	-38.053	0.00038303	0.00062019	0.00012616	552.93	3.9614e-06	4.6599e-06	671.97	224.02	1.9233e-06	5.4798e-06	292.54	128.73	90.804	42.793	3.3326e-06	68.853	0.00026463	0.00012481	3.498e-05	569.66	1.3586e-06	1.3703e-06	691.68	231.29	1.4623e-06	1.2478e-06	301.06	133.04	94.341	44.617	1.4042e-06	71.483	-73.193	-21.953	6.726	-84.095	60.271	49.391	-84.816	-79.166	81.087	46.446	-81.177	-77.391	-75.176	-71.547	58.850	-73.807	-8191	255	
41364.492	1	1	0	0	0.19584	0.16013	0.1419	0.15687	0.096175	0.20929	0.21075	0.10107	0.16414	0.1019	0.22779	0.21203	0.12465	0.11626	0.17236	0.24988	-1.1271	-1.65	-1.4625	-1.7417	-1.7917	-1.525	-1.8667	-1.775	-1.8167	-1.9104	-1.6917	-1.8354	-1.75	-1.6583	-2.1312	-1.7458	256.644	217.481	143.444	13.625	141.858	131.658	261.971	112.699	147.672	127.204	254.779	-81.601	81.864	148.022	73.090	189.635	0.00036464	0.00059193	0.0001176	556.31	6.5401e-06	4.3457e-06	674.91	225.48	3.5302e-06	3.9282e-06	291.51	128.44	91.287	42.569	3.6729e-06	68.605	0.00027008	0.00012315	3.6041e-05	570.17	1.4438e-06	1.1826e-06	692.24	231.98	1.5061e-06	1.2448e-06	300.68	132.8	94.461	44.396	1.4753e-06	71.148	-73.319	-20.684	-15.564	-84.379	56.249	54.772	-84.947	-79.220	63.219	38.455	-81.090	-77.234	-75.119	-71.557	79.358	-73.819	-8191	255	
41364.609	1	1	0	0	0.26494	0.092681	0.16551	0.33013	0.2728	0.15668	0.28639	0.13248	0.14867	0.14942	0.27084	0.20523	0.036001	0.24037	0.19533	0.37609	-1.3292	-1.9438	-1.4625	-2.0479	-1.8062	-1.4208	-2.1396	-1.6625	-1.7417	-2.0312	-1.5938	-1.9937	-2.0729	-1.5917	-1.9312	-1.8542	99.336	-41.165	-76.991	-92.688	62.975	246.724	246.298	161.577	-60.297	245.728	-16.118	219.594	246.803	144.390	53.823	191.629	0.00037811	0.00055356	0.00011758	557.58	4.2565e-06	5.7401e-06	679.9	224.55	2.5205e-06	4.2225e-06	294.41	128.73	90.282	42.548	4.1585e-06	68.488	0.00027094	0.00011709	3.5213e-05	571.13	1.3544e-06	1.2564e-06	695	231.17	1.4421e-06	1.247e-06	301.79	132.96	94.035	44.264	1.4113e-06	70.834	-73.379	-12.537	-8.594	-84.232	67.806	53.963	-84.862	-79.190	62.163	46.801	-81.385	-77.309	-75.004	-71.239	85.247	-73.781	-8191	255	
41364.684	1	1	0	0	0.12665	0.101	0.14886	0.053303	0.20204	0.1507	0.064139	0.44063	0.13705	0.14352	0.077028	0.10118	0.26476	0.080448	0.14847	0.20506	-1.125	-1.8875	-1.5021	-1.9229	-2.0208	-1.4937	-2.125	-1.7146	-1.6167	-2.0625	-1.6208	-1.9417	-1.8937	-1.4562	-1.95	-2.0146	53.273	70.256	96.681	117.139	136.245	49.738	76.283	172.175	7.490	84.351	44.517	138.887	168.177	224.200	47.121	216.785	0.0003772	0.0005333	0.00014431	558.98	4.2819e-06	4.3649e-06	674.61	224.31	1.8861e-06	4.9697e-06	292.16	126.62	90.69	41.838	3.7327e-06	67.408	0.00026427	0.00012208	3.418e-05	572.35	1.2943e-06	1.2464e-06	691.79	230.83	1.4643e-06	1.2057e-06	299.01	131.5	93.916	43.722	1.4275e-06	69.704	-70.176	-19.793	-17.699	-84.312	60.179	59.822	-84.691	-79.213	90.963	47.559	-81.079	-77.086	-75.250	-71.676	47.409	-73.628	-8191	255	
41364.805	1	1	0	0	0.1094	0.042926	0.064536	0.18951	0.19209	0.43193	0.079657	0.33617	0.18766	0.10388	0.13563	0.26538	0.043353	0.25168	0.058968	0.085043	-1.2375	-1.9958	-1.5625	-1.8333	-1.9479	-1.4396	-2.0792	-1.7313	-1.5771	-1.8771	-1.6708	-1.5688	-1.975	-1.5688	-1.9333	-2.0792	207.244	-94.213	50.357	245.937	248.446	-48.935	-80.750	167.087	202.338	91.965	-29.013	248.766	-4.202	247.057	46.873	241.830	0.00037779	0.00063752	0.00012527	558.1	5.3964e-06	4.5579e-06	674.21	223.08	3.6359e-06	4.8686e-06	289.71	127.92	91.322	42.555	5.8178e-06	67.585	0.000269	0.00012115	3.3985e-05	570.98	1.3402e-06	1.2234e-06	689.54	230.33	1.5687e-06	1.2319e-06	297.46	131.71	94.31	44.19	1.4452e-06	70.163	-74.426	-15.888	-23.763	-84.413	59.196	47.031	-84.704	-79.063	72.738	47.486	-80.895	-77.167	-75.047	-71.609	82.182	-73.782	-8191	255	
41364.898	1	1	0	0	0.11769	0.13813	0.057182	0.054456	0.31904	0.16988	0.25052	0.10047	0.1317	0.097722	0.26502	0.21541	0.12902	0.084825	0.32467	0.26341	-0.89375	-1.8542	-1.6063	-1.5875	-1.8167	-1.5938	-2.0187	-1.8146	-1.4312	-2.1312	-1.6854	-1.6917	-1.8208	-1.5125	-1.8375	-2.0812	35.795	11.862	258.951	19.387	67.901	29.976	220.561	261.764	84.260	-37.209	-84.877	216.026	219.799	-61.249	136.774	136.090	0.00033867	0.00047831	0.00015376	561.83	4.4605e-06	5.2905e-06	679.73	225.53	3.2394e-06	5.4916e-06	292.64	128.42	92.069	42.885	3.3191e-06	68.699	0.00026551	0.0001147	3.6376e-05	572.38	1.3103e-06	1.2627e-06	691.56	231.1	1.5212e-06	1.1394e-06	299.73	132.33	94.744	44.506	1.412e-06	70.921	-74.652	-11.579	-13.474	-84.115	67.973	59.441	-84.877	-79.214	66.727	42.049	-81.438	-77.033	-74.948	-71.513	66.865	-73.910	-8191	255	
41364.996	1	1	0	0	0.19848	0.077455	0.24781	0.17953	0.04891	0.12563	0.30459	0.20419	0.42196	0.060926	0.19417	0.2097	0.17083	0.10156	0.34478	0.12247	-1.0583	-1.7708	-1.675	-1.4292	-2.2292	-1.7542	-1.7875	-1.9854	-1.4625	-1.9646	-1.8292	-1.7	-2.0229	-1.6	-1.725	-2.0083	-75.789	260.058	204.016	189.560	30.770	92.896	-71.324	159.863	-64.644	-19.407	230.678	11.609	-50.330	-36.725	98.523	240.225	0.00038261	0.0005295	0.00010032	557.61	3.7965e-06	4.6424e-06	679.33	224.85	2.2999e-06	4.8561e-06	295.14	129.52	91.675	42.874	4.6645e-06	69.121	0.00026999	0.00011214	3.4097e-05	571.66	1.3242e-06	1.3473e-06	692.86	231.27	1.5179e-06	1.1711e-06	300.43	133.19	94.9	44.495	1.5082e-06	71.211	-73.184	-22.110	-11.243	-84.159	62.976	53.105	-84.769	-79.238	82.373	49.364	-81.020	-77.229	-74.868	-71.417	74.200	-73.786	-8191	255	
41365.090	1	1	0	0	0.082239	0.22865	0.43283	0.14347	0.087285	0.39701	0.23323	0.21845	0.24112	0.14288	0.066298	0.21769	0.13373	0.30941	0.083192	0.01837	-1.2021	-1.7083	-1.7583	-1.6229	-1.8667	-1.6875	-1.9188	-2.1729	-1.55	-1.7958	-1.9771	-1.6375	-1.9729	-1.8229	-1.5521	-2.0021	-14.032	-36.051	183.954	192.924	-55.640	220.229	179.314	115.042	106.555	-52.254	-27.906	177.035	18.862	224.952	86.172	233.169	0.00035482	0.0004872	0.00011608	564.24	4.7471e-06	6.2458e-06	683.08	225.8	3.1809e-06	3.2902e-06	293.16	129.07	91.838	42.953	4.7437e-06	68.363	0.00027291	0.00011789	3.098e-05	573.17	1.3196e-06	1.2772e-06	693.69	231.63	1.5549e-06	1.188e-06	299.14	132.47	94.782	44.503	1.4403e-06	70.568	-73.492	-9.955	-8.476	-83.886	55.808	28.394	-84.664	-79.072	51.836	45.332	-80.970	-77.118	-75.202	-71.363	74.843	-73.728	-8191	255	
41365.211	1	1	0	0	0.12458	0.20572	0.076937	0.066968	0.26057	0.24097	0.16365	0.24483	0.2771	0.14593	0.16165	0.177	0.19917	0.20208	0.18867	0.28948	-1.1104	-1.875	-1.9958	-1.5167	-2.0542	-1.6313	-1.5583	-1.9625	-1.5229	-1.7938	-2.0167	-1.5729	-1.9813	-1.8604	-1.6271	-2.0729	16.610	176.842	-48.507	-66.906	-36.507	-59.397	-60.213	-78.782	201.042	-6.990	37.037	-86.773	102.746	185.894	52.791	142.311	0.00035521	0.0004385	0.00012227	557.37	5.164e-06	4.5628e-06	674.53	224.81	1.9897e-06	4.6203e-06	289.97	127.25	91.467	42.63	4.3974e-06	67.782	0.00027169	0.0001152	3.3073e-05	570.61	1.2769e-06	1.2887e-06	684.81	230.43	1.5374e-06	1.2043e-06	295.77	131.15	94.492	44.231	1.5461e-06	69.995	-71.575	-19.257	0.765	-84.210	55.962	39.445	-84.685	-79.151	71.946	53.399	-80.943	-77.324	-75.078	-71.621	64.724	-73.622	-8191	255	
41365.285	1	1	0	0	0.14949	0.24753	0.32574	0.46919	0.2566	0.064161	0.21476	0.059912	0.26758	0.097227	0.24525	0.15429	0.028613	0.15685	0.061374	0.22317	-1.2042	-1.6375	-1.8875	-1.4229	-1.8875	-1.6479	-1.6333	-2.2396	-1.6917	-1.7354	-1.975	-1.5792	-1.9458	-1.9271	-1.5187	-2.2146	-4.883	81.620	67.040	223.453	86.316	244.167	110.039	114.145	29.577	262.712	-47.771	1.259	16.659	180.470	6.822	112.339	0.0003775	0.00044246	0.00013558	559.57	4.7027e-06	4.2958e-06	675.04	225.45	3.5175e-06	4.137e-06	290.85	128.05	91.604	42.637	3.9154e-06	68.031	0.00026101	0.00011739	3.1036e-05	570.12	1.328e-06	1.2794e-06	685.06	230.5	1.5505e-06	1.2268e-06	296.34	131.62	94.633	44.252	1.5457e-06	70.216	-71.593	-1.873	-14.577	-84.016	65.006	40.616	-84.914	-79.108	82.812	57.923	-81.010	-77.253	-74.866	-71.414	60.884	-73.772	-8191	255	
41365.379	1	1	0	0	0.1009	0.013567	0.15264	0.26361	0.22867	0.1606	0.13586	0.39521	0.11284	0.13559	0.24197	0.1846	0.11872	0.21632	0.14877	0.18752	-1.0312	-1.7146	-1.9146	-1.5562	-2.0062	-1.8813	-1.575	-2.075	-1.8188	-1.8083	-2.2271	-1.7625	-1.8521	-1.9021	-1.2563	-2.0062	-4.737	-68.226	-66.296	215.303	-2.560	19.629	71.307	197.219	-54.916	20.917	157.046	157.361	-62.716	-87.528	-30.455	261.627	0.00036296	0.00048419	0.00010905	563.36	4.6083e-06	4.4013e-06	677.76	225.93	3.7729e-06	5.7427e-06	289.92	127.91	91.581	42.843	5.3256e-06	68.248	0.00026746	0.00012368	3.1101e-05	571.84	1.2609e-06	1.1871e-06	688.48	230.57	1.4862e-06	1.1821e-06	296.65	131.6	94.461	44.297	1.5966e-06	70.347	-75.739	-5.243	-4.595	-84.147	66.685	46.133	-84.850	-79.079	61.915	40.245	-81.227	-77.012	-75.048	-71.340	64.548	-73.770	-8191	255	
41365.477	1	1	0	0	0.21218	0.17322	0.17943	0.18359	0.20006	0.12923	0.067507	0.13613	0.08808	0.25072	0.23274	0.18547	0.27893	0.22854	0.013856	0.11014	-1.2083	-1.6812	-2.1354	-1.4542	-1.9021	-1.9604	-1.6833	-2.0292	-1.6708	-1.4979	-2.1229	-1.6292	-1.6521	-2.0104	-1.4458	-1.9792	-55.818	134.277	94.960	128.809	246.309	-67.848	222.392	23.941	236.382	96.120	-88.348	-91.249	112.866	-76.015	162.133	77.257	0.00036835	0.00057589	0.00013017	560.44	4.0096e-06	4.7883e-06	678.25	225.57	3.3478e-06	4.6753e-06	291.59	128.17	91.698	42.512	3.7714e-06	68.043	0.00026423	0.00011556	3.2599e-05	570.88	1.2195e-06	1.1797e-06	690.89	230.71	1.533e-06	1.1832e-06	298.21	131.77	94.501	44.105	1.4332e-06	69.958	-73.551	-3.829	8.543	-84.368	68.786	46.432	-84.656	-79.146	77.057	45.768	-81.261	-77.124	-75.297	-71.139	85.624	-73.671	-8191	255	
41365.570	1	1	0	0	0.059123	0.12141	0.15443	0.15159	0.31745	0.36188	0.28549	0.15096	0.25457	0.066259	0.084393	0.1765	0.18964	0.19418	0.14094	0.1866	-1.4188	-1.3312	-1.8646	-1.7958	-1.6104	-2.1958	-1.6	-1.8625	-1.7604	-1.5938	-2.0667	-1.7896	-1.5125	-2.0667	-1.6792	-1.9229	-41.192	135.759	41.840	-58.073	161.039	233.991	229.582	195.085	251.854	75.828	137.799	61.211	-73.568	-25.541	-29.659	124.545	0.00035929	0.00054769	0.00014189	563.49	4.6395e-06	4.8101e-06	677.47	225.61	3.091e-06	4.2629e-06	292.53	127.58	91.2	42.701	4.071e-06	67.553	0.0002588	0.00012977	3.2106e-05	571.52	1.3179e-06	1.222e-06	686.73	230.69	1.4549e-06	1.2382e-06	295.44	130.92	94.465	44.221	1.5107e-06	69.785	-74.361	-11.750	-6.778	-84.080	49.522	37.474	-84.616	-79.188	79.824	51.098	-81.247	-77.105	-75.130	-71.528	50.589	-73.826	-8191	255	
41365.691	1	1	0	0	0.12773	0.3506	0.1245	0.13426	0.17414	0.18672	0.28799	0.13056	0.36108	0.3567	0.35311	0.27216	0.27705	0.042459	0.098075	0.33399	-1.4438	-1.6396	-1.9562	-1.6875	-1.5354	-2.125	-1.7958	-1.7896	-1.7479	-1.4875	-1.9625	-1.7833	-1.5312	-2.0333	-1.5729	-1.975	153.091	124.521	13.604	206.475	-48.141	8.821	11.380	-78.544	163.278	118.106	-79.861	-85.477	57.761	-46.578	73.316	227.854	0.00034706	0.00063207	0.00014386	562.09	5.0972e-06	5.5092e-06	674.73	225.68	2.4066e-06	5.6632e-06	288.82	127.68	91.804	42.514	5.3421e-06	67.551	0.00026002	0.00012178	3.2264e-05	571.83	1.3012e-06	1.1634e-06	684.7	230.55	1.4337e-06	1.3381e-06	294.47	130.78	94.193	44.098	1.5666e-06	69.559	-74.045	-6.901	-18.655	-84.618	71.756	55.316	-84.522	-78.953	74.359	53.903	-81.103	-76.860	-75.177	-71.378	70.587	-73.595	-8191	255	
41365.785	1	1	0	0	0.029576	0.079071	0.13358	0.22445	0.22219	0.065076	0.02781	0.092361	0.25557	0.21809	0.19703	0.11194	0.1381	0.34835	0.17629	0.17022	-1.5438	-1.6333	-1.95	-1.9042	-1.6083	-1.9396	-1.8	-1.7979	-1.7625	-1.65	-1.7646	-1.9042	-1.4417	-2.2208	-1.525	-1.9979	176.035	-87.489	-17.975	259.003	205.480	251.052	-68.319	145.617	200.231	167.033	223.142	90.300	140.557	240.809	27.254	207.939	0.00036716	0.0004948	0.00015138	564.02	5.1256e-06	4.3689e-06	674.01	224.88	2.7891e-06	4.0502e-06	289.23	126.65	90.79	42.155	3.8695e-06	67.049	0.00026024	0.00012069	3.2543e-05	572.62	1.3736e-06	1.1715e-06	685.94	229.94	1.4374e-06	1.2411e-06	293.83	129.9	93.497	43.523	1.4983e-06	69.01	-70.203	-13.872	9.485	-84.112	67.582	57.630	-84.804	-78.973	76.774	44.385	-81.014	-76.989	-74.784	-71.474	43.256	-73.586	-8191	255	
41365.883	1	1	0	0	0.15703	0.16645	0.097362	0.085421	0.15348	0.19514	0.11758	0.11854	0.21137	0.015744	0.17953	0.28054	0.046186	0.21763	0.1309	0.067289	-1.55	-1.4062	-1.8563	-1.8354	-1.4771	-1.9438	-1.6562	-1.6292	-1.9771	-1.6812	-1.9083	-2.0687	-1.5125	-2.2125	-1.6187	-1.8479	182.066	179.016	-57.936	-90.101	35.641	14.362	113.963	229.147	174.994	249.807	18.363	184.730	126.300	212.619	113.813	-91.215	0.00037833	0.00060587	0.00011353	568.03	5.69e-06	4.9176e-06	679.45	224.48	2.9513e-06	4.4754e-06	288.69	126.44	91.035	42.357	3.2294e-06	67.524	0.00026205	0.00012079	3.1101e-05	574.64	1.2845e-06	1.206e-06	690.16	229.86	1.4037e-06	1.2116e-06	295.56	129.97	93.637	43.732	1.4516e-06	69.491	-70.517	-9.450	-3.514	-84.058	52.113	51.392	-84.639	-78.758	69.687	54.094	-80.885	-76.876	-75.058	-71.235	69.300	-73.749	-8191	255	
41365.980	1	1	0	0	0.22406	0.072697	0.14763	0.20227	0.18577	0.24535	0.13466	0.35695	0.058972	0.20008	0.032897	0.26687	0.099725	0.10427	0.16245	0.27653	-1.4979	-1.5833	-1.9208	-1.9625	-1.5042	-1.9271	-2.0271	-1.675	-2.1271	-1.6104	-1.8687	-2.0979	-1.5167	-2.0854	-1.775	-1.7271	-6.920	193.876	-20.495	-18.703	74.569	32.062	182.045	186.355	4.311	260.844	239.997	-72.918	27.506	-44.759	145.734	78.435	0.00036754	0.00047365	0.00013269	563.04	4.8366e-06	5.1444e-06	675.83	224.3	2.9381e-06	4.6308e-06	288.47	125.93	91.165	41.961	2.9488e-06	66.323	0.00026201	0.00012295	3.165e-05	573.41	1.3217e-06	1.1103e-06	689.56	229.97	1.3576e-06	1.2338e-06	293.91	129.1	93.558	43.395	1.435e-06	68.377	-74.483	-22.247	-20.775	-84.321	61.206	59.163	-84.564	-79.074	71.892	29.523	-81.125	-76.965	-74.772	-71.263	81.333	-73.644	-8191	255	
41366.074	1	1	0	0	0.074941	0.17261	0.036506	0.20329	0.25635	0.25555	0.10475	0.1327	0.24023	0.11566	0.19024	0.20354	0.064378	0.19742	0.010073	0.047666	-1.5083	-1.6042	-1.7396	-1.7792	-1.1229	-1.8979	-1.975	-1.6542	-2.0354	-1.575	-1.5875	-2.2229	-1.7896	-1.9833	-1.9188	-1.5979	183.278	250.736	-57.216	183.596	245.725	-52.916	231.174	194.136	262.741	26.467	213.824	161.194	-96.750	-38.633	-20.728	167.135	0.00037167	0.00038696	0.00013722	564.16	4.9714e-06	5.0014e-06	671.48	223.82	2.7976e-06	4.9232e-06	286.71	123.82	89.123	41.515	5.4761e-06	65.387	0.00025411	0.00011463	3.1929e-05	574.2	1.3624e-06	1.1686e-06	684.29	228.83	1.3239e-06	1.25e-06	291.59	127.14	92.297	43.012	1.5156e-06	67.603	-74.605	-7.185	-21.277	-83.798	71.257	46.407	-84.711	-79.107	77.845	38.781	-80.950	-77.035	-74.903	-71.162	63.373	-73.452	-8191	255	
41366.172	1	1	0	0	0.35723	0.24961	0.22491	0.23184	0.12948	0.14358	0.29128	0.14126	0.21098	0.03318	0.30996	0.21133	0.18239	0.40637	0.20586	0.30871	-1.6708	-1.7083	-1.3708	-2.0208	-1.4188	-1.8396	-2.1271	-1.55	-1.8979	-1.825	-1.6104	-1.9542	-1.5063	-1.8896	-1.8917	-1.5917	144.331	-28.108	85.627	61.766	104.464	91.593	187.757	93.143	-91.943	70.392	-31.342	220.195	-61.232	-89.108	-30.414	199.620	0.00034497	0.00046519	0.00010198	564.99	6.0762e-06	4.8234e-06	675	222.47	3.8366e-06	5.0712e-06	287.18	121.77	87.708	40.635	4.5955e-06	64.726	0.00024583	0.00011962	3.2329e-05	574.75	1.3941e-06	1.255e-06	687.38	227.23	1.4515e-06	1.3318e-06	291.31	125.05	90.643	42.073	1.4979e-06	66.69	-74.232	-16.859	-13.759	-84.352	65.412	40.960	-84.829	-78.921	78.445	41.276	-81.171	-76.963	-74.726	-71.023	64.605	-73.572	-8191	255	
41366.293	1	1	0	0	0.23887	0.041115	0.13941	0.36973	0.22061	0.36374	0.29044	0.13731	0.27473	0.073316	0.12478	0.1242	0.03864	0.26843	0.12557	0.1783	-1.5938	-1.675	-1.5229	-2.0396	-1.7375	-1.7833	-2.1479	-1.6854	-1.9146	-1.6437	-1.5708	-1.8479	-1.6146	-1.9417	-2.1167	-1.7979	203.779	132.550	82.969	-88.504	70.612	-31.446	251.115	6.905	-0.933	56.148	156.589	132.099	-96.523	236.827	11.965	206.245	0.00034742	0.00057221	0.00011741	564.98	3.6184e-06	4.3118e-06	675.65	221.62	2.2463e-06	4.1549e-06	285.79	121.88	88.132	40.498	3.9159e-06	64.448	0.00025162	0.00012421	3.2599e-05	574.69	1.3485e-06	1.2327e-06	690.25	227.02	1.4825e-06	1.2769e-06	291.74	125.2	90.711	41.88	1.4098e-06	66.635	-73.353	-28.250	-16.543	-84.064	74.477	47.914	-84.898	-79.216	79.709	50.439	-81.144	-76.971	-74.879	-71.110	64.312	-73.262	-8191	255	
41366.391	1	1	0	0	0.10339	0.11826	0.21722	0.22509	0.16247	0.18515	0.12761	0.49017	0.21983	0.26621	0.14264	0.28392	0.23036	0.14596	0.030151	0.21314	-1.4458	-1.8771	-1.4896	-2.0875	-1.6063	-1.6896	-1.9896	-1.775	-1.7875	-1.8875	-1.6333	-1.9875	-1.6833	-1.925	-1.8792	-1.6396	83.572	136.796	257.871	221.559	7.831	172.253	141.964	258.293	37.415	159.142	187.294	211.032	-91.024	141.541	-58.504	147.786	0.00034138	0.00057002	0.00010189	565.68	4.1319e-06	6.8054e-06	682.49	221.9	2.8136e-06	4.9716e-06	287.69	121.56	87.369	40.168	4.3091e-06	63.867	0.00025443	0.00012348	3.0989e-05	574.05	1.3443e-06	1.3202e-06	696.12	226.98	1.4495e-06	1.2032e-06	292.83	125.15	90.273	41.651	1.4686e-06	65.838	-75.362	-14.808	-12.298	-84.166	70.825	54.619	-84.944	-78.931	85.906	25.546	-81.247	-77.025	-75.011	-71.171	85.035	-73.336	-8191	255	
41366.484	1	1	0	0	0.084792	0.1819	0.090086	0.22913	0.30551	0.26011	0.16695	0.20671	0.095945	0.26686	0.19884	0.35004	0.37469	0.38724	0.24701	0.1435	-1.4354	-1.8813	-1.6396	-2.0271	-1.5688	-1.5771	-1.8625	-1.6396	-1.7771	-1.8708	-1.575	-2.0687	-1.7313	-1.5417	-1.9854	-1.7042	162.407	-13.505	-57.096	-48.427	32.080	10.603	180.259	163.287	88.583	32.661	239.951	-71.528	-53.719	-79.836	-19.878	221.460	0.00036302	0.00047694	0.00010816	561.31	5.1288e-06	4.0295e-06	677.07	220.3	1.9908e-06	4.4605e-06	281.62	119.62	87.554	39.599	3.7701e-06	62.66	0.00025644	0.00011743	3.151e-05	571.99	1.3447e-06	1.2724e-06	688.84	225.85	1.4549e-06	1.2393e-06	287.6	123.54	89.492	41.022	1.4371e-06	64.458	-72.211	-12.235	-9.048	-83.850	73.294	48.370	-84.638	-79.145	95.455	42.667	-81.112	-77.200	-74.271	-71.009	78.166	-73.315	-8191	255	
41366.582	1	1	0	0	0.11707	0.28572	0.15876	0.078468	0.219	0.21553	0.11166	0.14265	0.24337	0.084004	0.20616	0.24364	0.24629	0.46857	0.078981	0.10823	-1.3083	-1.9042	-1.5146	-1.8396	-1.5583	-1.4438	-2.0979	-1.7917	-1.7854	-1.9958	-1.4062	-1.9729	-1.8042	-1.6146	-2.2146	-1.6875	-55.772	2.813	-24.566	237.015	187.206	12.064	128.928	229.713	251.492	100.798	-31.250	-71.417	64.958	255.386	72.327	117.409	0.00033066	0.00052727	0.00014204	561.88	5.4968e-06	4.5431e-06	678.32	218.36	3.3907e-06	3.9464e-06	280.24	119.59	84.993	38.403	4.3053e-06	60.028	0.00024581	0.00011151	3.4069e-05	571.05	1.2856e-06	1.262e-06	687.19	223.98	1.43e-06	1.1891e-06	287.68	123.59	88.96	40.014	1.4389e-06	62.268	-74.706	-21.525	-6.107	-84.136	70.980	53.630	-84.731	-78.860	72.647	50.059	-80.982	-76.862	-74.594	-70.805	70.724	-73.370	-8191	255	
#DATA ENDS
