BOXY.EXE: ISS Imagent and Oximeter Data Acquisition Program Version 0.80
Ascii Record File

#ACQ INFORMATION
2  Detector Channels 
16  External MUX Channels 
1  Auxiliary Channels 
5000  Waveform (CCF) Frequency (Hz)
1  Waveforms Skipped 
30  Waveforms Averaged 
1  Cycles Averaged 
16  Acquisitions per Waveform 
10.0806  Updata Rate (Hz) 

#FILE INFORMATION
TRUE -- External MUX Channel results are PARSED.
FALSE -- AC DC and Phase are NOT grouped.
TRUE -- Companion Program Settings File CREATED.
FALSE -- AC data not excluded
FALSE -- DC data not excluded
FALSE -- Phase data not excluded
FALSE -- Auxillary Chn. data not excluded
Tab delimiters

#CALIBRATION STATE
TRUE -- Waveform Calibration Values APPLIED.


#AUX CALIBRATION VALUES
Val Type	aux-1	

Term	1.0000e+00	
Factor	0.0000e+00	


#WF CALIBRATION VALUES
A = Detector Channel
Val Type	A-AC1	A-AC2	A-AC3	A-AC4	A-AC5	A-AC6	A-AC7	A-AC8	A-AC9	A-AC10	A-AC11	A-AC12	A-AC13	A-AC14	A-AC15	A-AC16	A-DC1	A-DC2	A-DC3	A-DC4	A-DC5	A-DC6	A-DC7	A-DC8	A-DC9	A-DC10	A-DC11	A-DC12	A-DC13	A-DC14	A-DC15	A-DC16	A-Ph1	A-Ph2	A-Ph3	A-Ph4	A-Ph5	A-Ph6	A-Ph7	A-Ph8	A-Ph9	A-Ph10	A-Ph11	A-Ph12	A-Ph13	A-Ph14	A-Ph15	A-Ph16	

Term	0.00000e+00	0.00000e+00	0.00000e+00	0.00000e+00	0.00000e+00	0.00000e+00	0.00000e+00	0.00000e+00	0.00000e+00	0.00000e+00	0.00000e+00	0.00000e+00	0.00000e+00	0.00000e+00	0.00000e+00	0.00000e+00	0.00000e+00	0.00000e+00	0.00000e+00	0.00000e+00	0.00000e+00	0.00000e+00	0.00000e+00	0.00000e+00	0.00000e+00	0.00000e+00	0.00000e+00	0.00000e+00	0.00000e+00	0.00000e+00	0.00000e+00	0.00000e+00	0.00000e+00	0.00000e+00	0.00000e+00	0.00000e+00	0.00000e+00	0.00000e+00	0.00000e+00	0.00000e+00	0.00000e+00	0.00000e+00	0.00000e+00	0.00000e+00	0.00000e+00	0.00000e+00	0.00000e+00	0.00000e+00	
Factor	1.00000e+00	1.00000e+00	1.00000e+00	1.00000e+00	1.00000e+00	1.00000e+00	1.00000e+00	1.00000e+00	1.00000e+00	1.00000e+00	1.00000e+00	1.00000e+00	1.00000e+00	1.00000e+00	1.00000e+00	1.00000e+00	1.00000e+00	1.00000e+00	1.00000e+00	1.00000e+00	1.00000e+00	1.00000e+00	1.00000e+00	1.00000e+00	1.00000e+00	1.00000e+00	1.00000e+00	1.00000e+00	1.00000e+00	1.00000e+00	1.00000e+00	1.00000e+00	X	X	X	X	X	X	X	X	X	X	X	X	X	X	X	X	

B = Detector Channel
Val Type	B-AC1	B-AC2	B-AC3	B-AC4	B-AC5	B-AC6	B-AC7	B-AC8	B-AC9	B-AC10	B-AC11	B-AC12	B-AC13	B-AC14	B-AC15	B-AC16	B-DC1	B-DC2	B-DC3	B-DC4	B-DC5	B-DC6	B-DC7	B-DC8	B-DC9	B-DC10	B-DC11	B-DC12	B-DC13	B-DC14	B-DC15	B-DC16	B-Ph1	B-Ph2	B-Ph3	B-Ph4	B-Ph5	B-Ph6	B-Ph7	B-Ph8	B-Ph9	B-Ph10	B-Ph11	B-Ph12	B-Ph13	B-Ph14	B-Ph15	B-Ph16	

Term	0.00000e+00	0.00000e+00	0.00000e+00	0.00000e+00	0.00000e+00	0.00000e+00	0.00000e+00	0.00000e+00	0.00000e+00	0.00000e+00	0.00000e+00	0.00000e+00	0.00000e+00	0.00000e+00	0.00000e+00	0.00000e+00	0.00000e+00	0.00000e+00	0.00000e+00	0.00000e+00	0.00000e+00	0.00000e+00	0.00000e+00	0.00000e+00	0.00000e+00	0.00000e+00	0.00000e+00	0.00000e+00	0.00000e+00	0.00000e+00	0.00000e+00	0.00000e+00	-3.28693e+01	-1.32896e+02	-1.28227e+02	-1.84331e+02	-5.50572e+01	-6.76425e+01	-1.55816e+02	-1.62015e+02	-2.49983e+01	-7.00590e+01	-1.85569e+02	-1.70510e+02	-1.86375e+02	-1.76893e+02	-4.33464e+01	-1.49751e+02	
Factor	2.47962e-05	2.18224e-04	5.54421e-05	2.29676e-01	2.20983e-06	2.16624e-06	1.69630e-01	5.37163e-02	1.72526e-06	2.07229e-06	2.26844e-01	3.20966e-02	6.82822e-02	9.64419e-03	2.46265e-06	1.39987e-02	1.08586e-05	1.59674e-05	4.46559e-06	1.17077e-01	1.66956e-07	1.78009e-07	8.13498e-02	2.74856e-02	1.61655e-07	1.76989e-07	1.11723e-01	1.59859e-02	3.49321e-02	4.98455e-03	1.69818e-07	7.00431e-03	X	X	X	X	X	X	X	X	X	X	X	X	X	X	X	X	



#DISTANCE SETTINGS
A = Detector Channel
A-1	A-2	A-3	A-4	A-5	A-6	A-7	A-8	A-9	A-10	A-11	A-12	A-13	A-14	A-15	A-16	

2.5000e+00	3.0000e+00	2.5000e+00	3.0000e+00	2.0000e+00	3.0000e+00	1.5000e+00	3.0000e+00	3.0000e+00	3.0000e+00	3.0000e+00	3.0000e+00	3.0000e+00	3.0000e+00	1.5000e+00	3.0000e+00	

B = Detector Channel
B-1	B-2	B-3	B-4	B-5	B-6	B-7	B-8	B-9	B-10	B-11	B-12	B-13	B-14	B-15	B-16	

1.0000e+01	1.0000e+01	1.0000e+01	1.4400e+00	1.0000e+01	1.0000e+01	1.5100e+00	1.9400e+00	1.0000e+01	1.0000e+01	1.9900e+00	2.4900e+00	2.4100e+00	2.9000e+00	1.0000e+01	2.9800e+00	




#DATA BEGINS
time	group	step	mark	flag	A-AC1	A-AC2	A-AC3	A-AC4	A-AC5	A-AC6	A-AC7	A-AC8	A-AC9	A-AC10	A-AC11	A-AC12	A-AC13	A-AC14	A-AC15	A-AC16	A-DC1	A-DC2	A-DC3	A-DC4	A-DC5	A-DC6	A-DC7	A-DC8	A-DC9	A-DC10	A-DC11	A-DC12	A-DC13	A-DC14	A-DC15	A-DC16	A-Ph1	A-Ph2	A-Ph3	A-Ph4	A-Ph5	A-Ph6	A-Ph7	A-Ph8	A-Ph9	A-Ph10	A-Ph11	A-Ph12	A-Ph13	A-Ph14	A-Ph15	A-Ph16	B-AC1	B-AC2	B-AC3	B-AC4	B-AC5	B-AC6	B-AC7	B-AC8	B-AC9	B-AC10	B-AC11	B-AC12	B-AC13	B-AC14	B-AC15	B-AC16	B-DC1	B-DC2	B-DC3	B-DC4	B-DC5	B-DC6	B-DC7	B-DC8	B-DC9	B-DC10	B-DC11	B-DC12	B-DC13	B-DC14	B-DC15	B-DC16	B-Ph1	B-Ph2	B-Ph3	B-Ph4	B-Ph5	B-Ph6	B-Ph7	B-Ph8	B-Ph9	B-Ph10	B-Ph11	B-Ph12	B-Ph13	B-Ph14	B-Ph15	B-Ph16	aux-1	digaux	

41293.742	1	1	0	768	0.31417	0.1614	0.18293	0.16585	0.13719	0.31921	0.08904	0.086281	0.10612	0.26609	0.10342	0.19187	0.13132	0.13635	0.16427	0.11307	-1.3833	-1.2833	-2.0708	-2.0146	-1.6083	-2.1125	-1.6187	-1.8937	-1.8146	-1.5042	-1.9521	-2.0458	-1.7417	-2.0938	-1.7542	-2.0521	58.997	174.079	-75.745	142.462	-77.493	168.322	185.204	-100.307	-42.521	45.524	20.069	67.022	125.274	-160.126	146.823	130.085	0.0009445	0.0005922	0.00012247	467.66	7.3882e-06	5.6453e-06	567.32	195.85	4.7251e-06	3.5361e-06	255.5	140.43	102.62	58.719	6.5124e-06	82.983	0.00048425	0.00025698	6.8137e-05	486.21	2.6661e-06	2.6423e-06	588.95	204.2	2.8441e-06	2.9152e-06	267.06	146.68	107.16	62.237	3.0224e-06	87.293	-66.739	-84.378	-82.180	-153.611	-12.341	1.981	-154.081	-148.684	21.057	-31.736	-151.076	-147.198	-146.149	-141.912	-21.041	-144.014	-8191	255	
41293.840	1	1	0	0	0.15978	0.27988	0.19461	0.29093	0.17146	0.24808	0.45242	0.14559	0.12037	0.11857	0.3282	0.1672	0.23349	0.28083	0.10921	0.22255	-1.4667	-1.4562	-1.7333	-1.8208	-1.5167	-1.9417	-1.8	-1.7354	-2.0187	-1.4833	-2.0875	-2.0083	-1.5771	-2.2583	-1.7792	-1.6458	-69.627	102.075	125.308	108.890	36.499	65.887	140.952	144.135	20.855	171.717	-164.393	191.395	29.726	-128.606	139.973	69.838	0.0009643	0.00049014	0.00019334	467.26	5.8556e-06	4.2694e-06	568.75	196.29	4.5306e-06	4.6739e-06	256.82	140.66	103.02	59.056	8.7349e-06	83.281	0.00049162	0.00024833	6.9682e-05	485.89	2.6782e-06	2.6423e-06	590.58	204.7	2.8077e-06	2.6847e-06	268.74	147.06	107.14	62.41	3.016e-06	87.605	-67.169	-72.996	-79.070	-153.622	-3.497	-1.954	-154.427	-148.927	18.137	-20.307	-151.186	-147.044	-146.356	-142.000	-15.014	-143.911	-8191	255	
41293.938	1	1	0	0	0.23844	0.28759	0.030316	0.060588	0.19629	0.2727	0.17132	0.04004	0.22456	0.11731	0.18193	0.09605	0.25786	0.27092	0.33581	0.10894	-1.5896	-1.6833	-1.7563	-1.9042	-1.45	-1.8333	-1.9208	-1.7896	-2.1146	-1.9208	-1.9354	-2.1188	-1.7062	-2.0417	-1.7188	-1.8646	72.467	161.900	-81.578	16.525	20.909	-27.708	20.235	15.241	37.156	120.395	76.945	148.374	-122.230	-126.614	-35.237	-110.735	0.0009784	0.00056264	0.00011181	468.79	5.9051e-06	6.0352e-06	571.11	196.04	6.2754e-06	5.1137e-06	257.3	141.58	103.62	59.113	6.7547e-06	83.644	0.00049121	0.00025857	6.4928e-05	487.67	2.7412e-06	2.5552e-06	591.53	204.87	2.6969e-06	2.7891e-06	269.17	147.74	107.43	62.565	3.0093e-06	87.991	-66.347	-89.029	-67.474	-153.644	-14.571	-20.861	-154.384	-148.820	13.035	-34.282	-151.247	-147.156	-146.116	-142.094	-20.946	-143.969	-8191	255	
41294.031	1	1	0	0	0.20756	0.080563	0.026732	0.096978	0.037222	0.28844	0.1428	0.14107	0.22471	0.37259	0.20168	0.15108	0.229	0.22005	0.040433	0.28223	-1.6	-1.6271	-1.6917	-2.05	-1.4604	-1.8854	-1.8708	-1.5771	-2.0187	-1.5688	-1.8396	-1.875	-1.5458	-2.1854	-2.0625	-1.8667	108.176	-105.236	-40.240	106.195	-162.587	55.097	182.952	108.401	29.959	-8.721	-129.851	128.402	-148.131	-137.333	-58.360	183.741	0.00097808	0.00056906	0.00016723	471.04	6.4501e-06	4.7567e-06	573.22	196.76	5.7299e-06	5.0699e-06	259.22	140.51	102.19	58.992	7.134e-06	82.952	0.00048221	0.00025811	6.8268e-05	487.43	2.7318e-06	2.6579e-06	593.04	205.1	2.6255e-06	2.7168e-06	269.43	147.53	107.15	62.341	3.0514e-06	87.303	-67.406	-62.847	-92.840	-153.666	-26.380	-30.039	-154.477	-148.532	-17.023	-25.172	-151.580	-147.333	-146.111	-141.835	-25.846	-144.111	-8191	255	
41294.129	1	1	0	0	0.26137	0.19248	0.071129	0.17658	0.17565	0.12106	0.2279	0.22725	0.17505	0.042444	0.074409	0.3392	0.17771	0.12861	0.26539	0.24164	-1.4854	-1.5688	-1.5396	-1.8333	-1.5187	-1.6792	-1.7313	-1.5562	-2.0687	-1.8208	-1.4813	-1.9625	-1.5292	-1.8583	-2.0896	-1.8271	-97.949	167.412	20.581	-109.359	-124.626	-154.026	168.644	-16.427	-50.771	39.845	-33.573	108.047	141.288	150.616	-30.618	70.043	0.00096133	0.00059149	0.00014864	469.85	5.7649e-06	5.8996e-06	569.13	196.62	4.3334e-06	4.3382e-06	256.35	139.79	103.24	58.832	6.6349e-06	82.686	0.00048101	0.00024946	6.5951e-05	486.36	2.6205e-06	2.7424e-06	589.08	204.66	2.6003e-06	2.5494e-06	267.04	146.29	107.22	62.216	2.906e-06	87.008	-67.232	-71.274	-59.101	-153.901	-12.593	-19.397	-154.618	-148.806	12.436	-5.793	-151.457	-147.223	-146.157	-141.847	-8.880	-144.029	-8191	255	
41294.227	1	1	0	0	0.088616	0.15431	0.2177	0.24525	0.08958	0.18866	0.24638	0.14368	0.20696	0.2789	0.13458	0.094899	0.20291	0.29436	0.028012	0.084215	-1.5479	-1.7146	-1.5333	-2.1146	-1.725	-1.8	-2.2396	-1.5875	-1.8312	-1.6562	-1.6271	-2.1875	-1.6562	-1.7854	-2.0896	-1.5792	-90.547	33.020	-157.430	125.943	75.767	36.988	131.939	-138.390	64.168	27.728	-19.498	-157.710	-121.232	175.548	159.261	48.518	0.00099495	0.00046765	0.000163	468.31	5.0567e-06	5.007e-06	570.16	195.83	5.1043e-06	5.9786e-06	258.16	139.8	102.28	58.817	7.7072e-06	82.805	0.00048047	0.000247	6.7542e-05	486.83	2.5965e-06	2.5036e-06	590.87	204.94	2.6138e-06	2.6884e-06	268.67	146.93	107.23	62.347	2.9283e-06	87.51	-67.025	-83.195	-74.589	-153.864	-14.995	-13.107	-154.409	-148.740	2.723	-19.874	-151.222	-147.272	-146.469	-141.901	-5.246	-143.912	-8191	255	
41294.348	1	1	0	0	0.10634	0.35655	0.13191	0.10629	0.13417	0.14951	0.12577	0.1747	0.14748	0.036035	0.15828	0.037048	0.13301	0.36337	0.13245	0.17877	-1.3458	-1.8	-1.3292	-1.9813	-1.65	-1.5958	-2.1292	-1.6063	-1.8083	-1.9167	-1.5063	-2.1688	-1.7375	-1.8	-2.0021	-1.6854	-8.523	-14.043	180.686	132.036	149.187	64.033	109.485	-2.796	-48.146	-14.476	-57.776	-147.688	169.592	-73.251	16.485	129.885	0.00097234	0.00044856	0.00013499	467.95	5.2639e-06	6.8653e-06	572.41	196.92	4.3552e-06	5.1744e-06	258.26	140.61	103.08	59.106	7.1666e-06	83.279	0.00047798	0.00025285	6.9635e-05	486.89	2.5896e-06	2.646e-06	592.67	205.15	2.568e-06	2.7031e-06	268.84	147.74	107.58	62.48	3.0015e-06	87.959	-67.261	-96.374	-79.543	-153.647	-16.917	-23.816	-154.326	-148.905	9.932	-20.082	-150.752	-147.185	-145.967	-141.866	-19.187	-143.926	-8191	255	
41294.441	1	1	0	0	0.16163	0.095943	0.0084233	0.12862	0.15249	0.29404	0.22763	0.054236	0.093832	0.064087	0.1945	0.29334	0.21963	0.094234	0.10553	0.17029	-1.4854	-1.8729	-1.475	-1.9667	-1.7833	-1.6688	-2.1917	-1.5167	-1.9042	-2.0646	-1.5646	-1.8917	-1.7604	-1.5396	-1.8792	-1.9813	-130.725	-58.293	180.382	-13.356	-46.660	56.556	-5.553	176.487	-60.401	-113.061	168.531	-83.134	58.408	143.586	79.120	162.257	0.00096996	0.00075727	0.00019135	472.27	5.9557e-06	5.7155e-06	573.02	196.98	6.0705e-06	4.4699e-06	258.33	142.25	103.16	59.277	7.326e-06	83.842	0.00047997	0.00023775	6.8612e-05	488.87	2.6167e-06	2.5455e-06	595.35	205.9	2.6865e-06	2.5741e-06	270.41	148.76	107.93	62.647	2.8692e-06	88.303	-66.687	-83.416	-70.795	-154.029	-16.215	-1.699	-154.450	-148.825	-0.842	-31.529	-151.643	-147.249	-146.342	-141.638	-16.096	-143.960	-8191	255	
41294.535	1	1	0	0	0.14945	0.0064048	0.036897	0.11869	0.20852	0.10334	0.20723	0.1781	0.17873	0.24589	0.10388	0.17213	0.2539	0.049851	0.36662	0.44791	-1.5104	-2.0229	-1.45	-2.0833	-1.8563	-1.4896	-2.1	-1.8417	-1.7771	-1.9792	-1.6083	-2.0208	-1.8167	-1.65	-2.0167	-1.9646	137.806	-24.029	-105.734	24.557	109.819	85.282	63.772	99.070	121.736	52.366	12.094	161.691	-100.222	-106.212	-54.836	109.895	0.0009889	0.0006807	0.00017281	471	5.1551e-06	7.0099e-06	572.97	196.92	5.2897e-06	5.1418e-06	259.36	141.83	103.34	59.019	7.0084e-06	83.328	0.00049198	0.00025618	7.0324e-05	487.88	2.6254e-06	2.6572e-06	594.7	205.69	2.605e-06	2.5627e-06	269.92	148.02	107.76	62.5	2.8547e-06	87.739	-68.413	-85.986	-73.154	-153.526	-0.982	-12.108	-154.576	-148.748	5.044	-29.360	-151.353	-147.348	-146.105	-141.836	-18.041	-143.994	-8191	255	
41294.633	1	1	0	0	0.069665	0.22222	0.23153	0.18467	0.34899	0.18449	0.21587	0.12201	0.24347	0.067704	0.27634	0.45842	0.084187	0.17706	0.13367	0.25756	-1.1187	-2.0125	-1.6125	-1.9896	-1.9333	-1.5583	-2.2062	-1.8312	-1.6396	-1.9604	-1.6938	-1.7896	-1.9	-1.5438	-1.9708	-1.9958	86.289	126.512	-64.158	80.649	-13.572	0.339	-29.598	7.223	17.315	0.946	-50.747	102.682	-121.410	-129.002	-111.550	129.280	0.00094839	0.00080428	0.00015901	471.92	4.708e-06	6.4747e-06	570.76	198.77	4.8703e-06	6.2467e-06	259.86	140.94	103.46	59.322	8.8665e-06	83.337	0.00048298	0.00023369	6.8323e-05	489.24	2.6386e-06	2.5444e-06	592.64	206.3	2.6713e-06	2.5682e-06	269.81	147.87	107.6	62.585	2.8646e-06	87.732	-67.404	-94.723	-78.375	-153.899	-12.021	-42.882	-154.264	-149.028	3.675	-12.114	-150.785	-147.382	-146.258	-141.868	-21.030	-143.948	-8191	255	
41294.730	1	1	0	0	0.29534	0.18711	0.1701	0.055786	0.17448	0.20174	0.043884	0.22045	0.036952	0.20691	0.16861	0.093799	0.25463	0.34689	0.093291	0.16422	-1.1792	-2.0396	-1.5187	-1.7938	-1.9458	-1.4458	-1.9729	-1.9229	-1.5083	-1.9229	-1.7521	-1.9854	-2.0583	-1.675	-2.1104	-1.8854	126.583	-132.374	-89.981	138.084	-76.723	97.497	27.672	83.164	-29.731	-5.110	32.123	113.990	-10.765	173.212	-46.067	142.565	0.00097556	0.00043916	0.00016386	469.54	7.4225e-06	6.0816e-06	574.16	197.85	4.5857e-06	5.1208e-06	258.62	141.24	103.39	59.31	8.2549e-06	83.689	0.00048748	0.00023642	7.01e-05	487.99	2.6247e-06	2.7413e-06	595.06	206.1	2.6814e-06	2.556e-06	270.53	148.42	107.83	62.605	2.9722e-06	88.161	-67.623	-79.016	-81.782	-154.121	-9.419	-11.479	-154.362	-148.866	-2.207	-20.532	-151.300	-147.457	-146.502	-141.700	-5.080	-143.982	-8191	255	
41294.824	1	1	0	0	0.13848	0.17317	0.012051	0.16767	0.19827	0.067557	0.17131	0.22882	0.31675	0.22933	0.2199	0.16094	0.1726	0.084392	0.2141	0.36786	-1.3687	-2.0208	-1.6125	-1.8875	-2.0896	-1.4521	-2.0729	-2.0312	-1.5812	-2.2313	-1.6146	-1.8417	-1.8375	-1.5958	-1.7896	-1.8729	160.965	137.470	-103.377	-68.754	-129.750	-143.007	111.972	172.180	180.049	-19.490	54.177	-159.028	-60.860	47.061	-45.403	108.813	0.00096399	0.00049206	0.00014829	469.55	5.2713e-06	5.3219e-06	571.1	197.03	5.6264e-06	5.6429e-06	259.65	141.93	103.79	58.968	8.0024e-06	83.983	0.00049226	0.00023505	7.0575e-05	487.59	2.7276e-06	2.7161e-06	593.72	206.05	2.7869e-06	2.6346e-06	269.58	148.32	107.72	62.475	2.9927e-06	88.306	-67.277	-97.640	-79.414	-153.739	-5.635	-32.912	-154.273	-148.837	-7.497	-25.128	-151.195	-147.200	-146.398	-141.803	-24.906	-144.139	-8191	255	
41294.945	1	1	0	0	0.24689	0.27429	0.098707	0.15882	0.137	0.2744	0.19441	0.22607	0.1592	0.17434	0.29706	0.084007	0.11456	0.22036	0.23571	0.13416	-1.0958	-2.0979	-1.7792	-1.625	-2.0125	-1.6	-1.8625	-1.9146	-1.6063	-1.8479	-1.8021	-1.8	-2.0604	-1.6333	-1.9104	-1.9	-11.180	-114.168	-31.706	154.204	185.244	-99.581	-28.931	171.370	-72.130	79.176	-61.113	130.323	-108.269	91.647	50.006	168.529	0.00097436	0.0005472	0.00014307	470.04	4.9852e-06	6.6598e-06	573.28	196.59	5.3715e-06	6.2541e-06	260.25	142.1	103.32	59.039	7.5024e-06	83.274	0.00049486	0.00024221	7.1254e-05	488.79	2.7096e-06	2.692e-06	594.53	205.91	2.7532e-06	2.601e-06	270.09	148.45	107.71	62.435	2.9046e-06	87.7	-68.080	-86.578	-65.213	-153.897	-4.116	-21.410	-154.261	-148.752	-0.383	-15.151	-150.994	-147.109	-146.232	-141.846	-28.538	-144.161	-8191	255	
41295.043	1	1	0	0	0.11	0.085266	0.01356	0.22311	0.17892	0.11756	0.22741	0.16293	0.10761	0.12772	0.080872	0.20489	0.55468	0.44049	0.067712	0.15865	-1.0833	-1.7708	-1.6396	-1.8479	-2.1021	-1.725	-1.8625	-1.9479	-1.5146	-2.0479	-1.8792	-1.6542	-2.0375	-1.6167	-1.7792	-2.1542	-81.045	-166.394	23.070	132.990	-74.761	-22.051	142.219	166.836	-138.002	72.938	78.152	-165.839	-59.052	-136.931	-48.007	42.942	0.00098115	0.00083131	0.00018036	469.61	5.2023e-06	5.2662e-06	569.58	196.06	6.6081e-06	3.7278e-06	255.63	140.65	102.14	58.986	6.1099e-06	83.157	0.00049529	0.00024876	7.2277e-05	486.25	2.6605e-06	2.7918e-06	590.6	204.65	2.7835e-06	2.5999e-06	267.07	147.33	107	62.287	3.0086e-06	87.33	-67.373	-97.966	-74.942	-153.778	-1.505	-18.812	-154.515	-148.835	-4.443	-17.001	-150.551	-147.157	-145.985	-142.002	-14.212	-144.074	-8191	255	
41295.137	1	1	0	0	0.19711	0.23762	0.24509	0.24124	0.093664	0.1428	0.15945	0.098448	0.053392	0.17107	0.25388	0.26228	0.12417	0.15488	0.085536	0.31753	-1.0042	-1.6396	-1.7875	-1.5958	-2.0979	-1.6104	-1.85	-1.95	-1.6375	-1.9562	-1.7958	-1.4708	-2.1063	-1.75	-1.6458	-2.1917	16.990	14.984	52.969	-159.425	-65.881	-132.077	26.653	-137.580	169.783	139.739	161.080	182.693	150.460	-47.497	-98.483	-29.617	0.00097737	0.00062176	0.00015721	468.15	5.8957e-06	4.898e-06	570.14	197.08	5.3098e-06	4.7673e-06	257.01	140.79	102.96	58.806	5.0844e-06	82.983	0.00048723	0.00023109	6.8658e-05	485.21	2.5986e-06	2.8151e-06	591.22	205.15	2.8162e-06	2.5494e-06	267.8	147.73	107.41	62.279	3.0889e-06	87.577	-67.089	-70.968	-77.086	-153.845	-15.312	-18.715	-154.484	-148.794	-8.645	-22.396	-151.060	-147.110	-145.924	-141.924	-9.445	-143.950	-8191	255	
41295.234	1	1	0	0	0.14221	0.019975	0.1852	0.15924	0.068149	0.42605	0.22008	0.054963	0.21289	0.052368	0.1202	0.051693	0.23305	0.19865	0.052571	0.33434	-1.2333	-1.6938	-1.9396	-1.4375	-1.95	-1.7271	-1.7125	-1.9937	-1.4646	-1.8854	-2.1	-1.3792	-1.8854	-1.9458	-1.475	-2.0083	-157.572	137.036	-157.090	-143.182	82.986	141.268	155.938	66.835	-72.249	2.605	-14.674	120.844	182.803	21.612	17.438	108.766	0.0010116	0.00055632	0.00017304	465.51	4.0715e-06	5.0535e-06	570.41	197.16	5.3948e-06	3.8632e-06	259.65	141.27	104.03	59.064	5.9278e-06	83.886	0.00050282	0.00024227	7.3431e-05	485.88	2.6212e-06	2.6898e-06	592.24	205.81	2.7074e-06	2.5981e-06	269.87	148.38	107.79	62.549	3.1162e-06	88.431	-66.071	-89.120	-84.571	-153.824	-19.748	-33.947	-154.297	-148.819	4.016	-29.936	-151.304	-147.184	-146.296	-142.059	-14.821	-143.736	-8191	255	
41295.305	1	1	0	0	0.11947	0.10718	0.0074517	0.075605	0.21507	0.17314	0.04701	0.16051	0.071806	0.11615	0.13205	0.18816	0.24928	0.08824	0.26591	0.22729	-1.0562	-1.6958	-1.8292	-1.5146	-2.0729	-1.9229	-1.6104	-2.0667	-1.5583	-1.8563	-1.9521	-1.6542	-1.8438	-1.85	-1.5854	-2.2604	-76.554	59.239	-126.341	113.310	-36.056	124.079	112.291	185.636	186.531	-39.111	-116.963	-166.360	-17.466	-100.381	54.537	73.593	0.00096769	0.00065448	0.00010792	468.48	5.4061e-06	5.5145e-06	569.24	196.23	4.8697e-06	5.4737e-06	259.53	142.67	103.6	59.215	6.1578e-06	83.847	0.00050151	0.00025252	7.1812e-05	487.12	2.6856e-06	2.9616e-06	593.28	205.89	2.8414e-06	2.7732e-06	269.96	149.22	107.95	62.69	3.1586e-06	88.487	-66.762	-90.697	-72.185	-153.418	-19.416	-18.281	-154.382	-148.671	5.998	-21.075	-151.086	-147.084	-145.983	-141.748	-8.215	-143.979	-8191	255	
41295.426	1	1	0	0	0.053272	0.37221	0.25006	0.234	0.23939	0.027563	0.10189	0.11114	0.29034	0.27436	0.14162	0.14565	0.23711	0.26788	0.21865	0.14417	-1.2042	-1.7583	-1.8833	-1.5	-1.8125	-1.8875	-1.4958	-2.0125	-1.6729	-1.7604	-2.0375	-1.5438	-1.8542	-1.8646	-1.7021	-2.2167	-163.438	-34.138	86.644	-14.406	38.007	-8.681	-2.941	-35.026	68.699	-69.037	-165.170	115.362	17.503	178.454	-24.224	140.858	0.0010054	0.00069653	0.00017246	467.68	5.6466e-06	6.7101e-06	567.47	195.82	5.1573e-06	6.1904e-06	256.35	140.62	102.32	58.99	7.2855e-06	82.727	0.00050635	0.00026346	6.9719e-05	485.71	2.6845e-06	2.9008e-06	588.59	204.67	2.8808e-06	2.7334e-06	266.72	147.23	107.36	62.339	3.0967e-06	87.11	-68.512	-86.398	-79.183	-154.168	-6.325	-12.027	-154.509	-148.624	16.134	-25.553	-151.062	-147.358	-146.056	-141.869	-18.628	-144.026	-8191	255	
41295.523	1	1	0	0	0.12275	0.050655	0.1781	0.055049	0.088088	0.23651	0.21383	0.16157	0.25926	0.1488	0.1779	0.11164	0.023984	0.12437	0.13512	0.27331	-1.2583	-1.5167	-1.9375	-1.7	-1.825	-1.9521	-1.5167	-1.8375	-1.8438	-1.6458	-2.3	-1.5646	-1.75	-1.9813	-1.3917	-2.025	-49.095	-92.395	91.722	-132.150	142.778	81.114	21.251	99.706	127.864	-46.295	-141.214	114.852	-49.372	114.591	30.874	-163.217	0.0010314	0.00078729	0.00011965	463.95	6.9843e-06	4.2471e-06	565.25	195.71	5.7692e-06	6.4529e-06	256.64	140.66	103.25	58.913	4.948e-06	83.065	0.00050241	0.00026253	7.0668e-05	482.98	2.6894e-06	2.8318e-06	584.57	204.45	2.9714e-06	2.7127e-06	266.94	147.31	107.81	62.358	3.0635e-06	87.554	-67.058	-88.012	-65.149	-153.609	-1.768	-12.634	-154.435	-148.955	-2.073	-8.945	-150.792	-147.239	-145.981	-141.795	-33.288	-143.979	-8191	255	
41295.617	1	1	0	0	0.047488	0.16167	0.11543	0.18785	0.11148	0.17598	0.21198	0.095446	0.39991	0.020888	0.13379	0.36172	0.18271	0.093302	0.17287	0.14881	-1.3208	-1.4333	-1.8125	-1.5354	-1.7521	-2.0604	-1.3813	-1.9062	-1.6792	-1.6625	-2.0021	-1.6708	-1.7313	-2.0833	-1.5542	-2.0667	-157.349	118.522	61.647	-158.243	12.664	-25.772	132.402	-73.363	153.884	-142.517	-162.508	172.248	144.741	-116.740	69.966	-98.741	0.00097306	0.00068454	0.000171	467.57	4.1778e-06	5.9758e-06	563.44	196.4	4.9429e-06	6.1364e-06	258.85	141.03	102.26	59.068	7.5434e-06	83.495	0.00050228	0.00026676	7.3943e-05	484.59	2.6998e-06	2.9409e-06	585.85	204.37	2.9667e-06	2.9041e-06	267.59	147.76	107.47	62.441	3.194e-06	87.831	-66.989	-70.937	-67.858	-154.350	-13.046	-21.078	-154.325	-148.721	5.387	-44.086	-151.446	-147.144	-146.174	-141.849	-21.823	-143.997	-8191	255	
41295.715	1	1	0	0	0.059564	0.28209	0.089763	0.12258	0.34106	0.2016	0.06308	0.20653	0.096838	0.31933	0.16259	0.16973	0.2947	0.30358	0.28485	0.23311	-1.3687	-1.45	-1.825	-1.7542	-1.6083	-2.0396	-1.6646	-1.9229	-1.9062	-1.6917	-1.9875	-1.6521	-1.6521	-2.0625	-1.5292	-1.8146	48.609	2.691	-18.134	63.337	-1.190	-93.243	-13.831	-100.228	-149.825	-35.677	123.946	192.083	46.374	32.697	-103.578	-158.213	0.00097643	0.00041001	0.00017636	463.52	4.8553e-06	5.2812e-06	560.68	196.94	5.034e-06	5.356e-06	256.23	141.88	103.19	59.188	6.3291e-06	84.331	0.00050947	0.0002772	7.1682e-05	481.41	2.8028e-06	2.9638e-06	584.06	204.85	3.1031e-06	2.8587e-06	267.56	148.87	108.11	62.701	3.3153e-06	88.663	-66.820	-88.881	-84.602	-153.834	-11.185	-19.605	-154.307	-148.820	0.471	4.955	-150.658	-147.296	-146.064	-141.765	-17.305	-143.883	-8191	255	
41295.836	1	1	0	0	0.083608	0.082699	0.31774	0.23311	0.067093	0.11435	0.099719	0.22885	0.12911	0.23385	0.13272	0.21977	0.15499	0.22164	0.13101	0.086314	-1.6458	-1.5104	-1.9688	-1.7083	-1.6146	-2.1125	-1.6583	-1.8771	-1.9354	-1.4937	-1.9583	-1.9583	-1.5396	-2.0125	-1.5375	-1.8542	-151.620	-154.789	32.344	-24.506	-39.229	137.495	124.272	121.078	121.862	-158.474	8.121	75.601	-70.505	160.240	-63.511	130.483	0.00096294	0.0006749	0.00014316	464.05	5.0513e-06	5.3121e-06	564.09	195.71	5.2414e-06	4.4109e-06	260.09	143.07	104.71	59.43	6.753e-06	83.989	0.00050415	0.00027291	7.0789e-05	482.96	2.9057e-06	2.8604e-06	586.41	205.24	3.0977e-06	2.9314e-06	270.25	149.79	108.92	62.911	3.2633e-06	88.515	-66.172	-84.810	-61.693	-154.001	-17.201	-9.196	-154.386	-148.676	15.308	-10.681	-151.147	-147.096	-145.823	-141.773	-12.379	-143.862	-8191	255	
41295.906	1	1	0	0	0.18319	0.20598	0.23554	0.16361	0.16341	0.17175	0.38206	0.26671	0.13464	0.16681	0.057881	0.10377	0.10895	0.51638	0.30041	0.37562	-1.7104	-1.6187	-1.8729	-1.75	-1.6771	-1.9792	-1.7458	-1.8542	-2.0417	-1.6042	-1.9271	-1.8062	-1.45	-2.1333	-1.5896	-1.9146	106.087	-166.330	-32.574	113.870	189.590	-74.815	178.775	-108.255	-97.950	-143.388	9.189	157.599	168.271	124.400	107.408	152.491	0.00097504	0.00046259	0.00017462	462.45	7.3461e-06	4.8504e-06	561.47	196.81	4.9134e-06	4.5609e-06	256.77	141.81	103.39	59.366	4.9694e-06	83.898	0.00051074	0.00026812	7.0984e-05	480.54	2.8285e-06	2.8593e-06	583.18	205.44	3.1159e-06	2.9244e-06	267.63	148.78	108.53	62.738	3.1491e-06	88.339	-67.760	-82.863	-83.204	-153.740	-22.319	-27.828	-154.422	-148.735	22.985	-28.377	-150.874	-147.307	-146.390	-141.593	-24.863	-143.859	-8191	255	
41296.027	1	1	0	0	0.25524	0.19139	0.18059	0.13028	0.086417	0.035615	0.29647	0.075512	0.058214	0.11958	0.16685	0.18056	0.19995	0.15996	0.16768	0.40089	-1.5438	-1.6792	-1.7458	-1.8958	-1.5	-2.0062	-1.8542	-1.9125	-2.0812	-1.6167	-1.9208	-1.9375	-1.3583	-2.1229	-1.7625	-1.8771	-119.174	111.858	-113.598	-134.884	-43.320	90.851	-63.236	154.774	7.617	-55.246	-71.901	80.115	56.506	118.530	190.014	159.787	0.000991	0.00069933	0.00015921	460.65	5.2051e-06	5.6011e-06	560	196.19	5.4487e-06	5.0817e-06	257.75	141.21	103.71	59.145	7.435e-06	84.048	0.00051219	0.0002756	7.0649e-05	480.56	2.873e-06	2.9546e-06	581.15	204.64	2.9526e-06	3.0457e-06	268.01	148.46	108.54	62.686	3.4084e-06	88.487	-67.596	-93.501	-77.441	-153.202	-10.342	-19.545	-154.189	-148.787	9.156	-34.427	-150.852	-147.354	-146.188	-141.689	-12.555	-144.022	-8191	255	
41296.121	1	1	0	0	0.11154	0.088623	0.23754	0.11102	0.30268	0.22015	0.19743	0.11909	0.26333	0.034861	0.13029	0.11084	0.1769	0.30141	0.30773	0.16861	-1.3917	-1.5375	-1.7875	-1.9729	-1.45	-2.1125	-1.6854	-1.5812	-1.9479	-1.5917	-1.7125	-2.0708	-1.4917	-1.9583	-1.8646	-1.7667	174.514	80.142	-149.563	20.330	34.678	143.882	-158.167	-143.554	-67.068	-22.495	-67.954	155.272	92.839	105.811	-29.053	51.262	0.00097342	0.00038131	0.0001489	465.11	7.605e-06	6.5058e-06	563.57	196.34	5.6455e-06	2.7823e-06	257.07	142.98	103.85	59.323	6.7653e-06	84.274	0.00050298	0.00026855	7.4501e-05	481.46	2.881e-06	2.7113e-06	583.05	204.9	2.8916e-06	2.7972e-06	268.18	149.35	108.72	62.816	3.2814e-06	89.005	-67.602	-65.106	-82.551	-153.705	-21.062	-29.729	-154.227	-148.827	12.128	-1.394	-151.313	-147.288	-146.132	-141.666	-19.937	-144.015	-8191	255	
41296.219	1	1	0	0	0.1249	0.23276	0.20163	0.051533	0.18602	0.19178	0.19427	0.087339	0.11324	0.22991	0.070868	0.027521	0.16573	0.28871	0.079583	0.38804	-1.6208	-1.5875	-1.5625	-2.0604	-1.3521	-1.9542	-1.8542	-1.6875	-2.075	-1.8396	-1.7854	-2.2021	-1.5042	-1.8771	-1.7708	-1.8167	152.145	18.725	-156.154	193.288	81.683	149.590	158.870	-125.871	-104.519	48.168	-4.919	-73.390	-87.564	136.611	25.606	173.798	0.0010014	0.00053899	0.00015825	463.75	6.275e-06	4.9385e-06	568.43	197.14	4.3497e-06	4.8497e-06	256.3	143.23	103.24	59.56	7.1932e-06	84.161	0.00050334	0.00028039	7.7487e-05	482.64	2.9527e-06	2.817e-06	586.85	205.5	2.8263e-06	3.0892e-06	268.84	149.7	108.57	62.877	3.3829e-06	88.82	-67.200	-97.218	-81.691	-153.529	-14.994	-9.737	-154.561	-148.714	-0.077	1.419	-151.245	-147.525	-146.166	-141.793	-9.987	-143.697	-8191	255	
41296.312	1	1	0	0	0.35793	0.078711	0.20234	0.23396	0.07633	0.089628	0.20752	0.12675	0.20155	0.31167	0.11104	0.097813	0.070743	0.10812	0.083103	0.22154	-1.3667	-1.7354	-1.7042	-1.8583	-1.625	-1.7896	-1.9708	-1.5854	-2.1521	-1.8312	-1.7458	-2.2083	-1.5625	-1.9875	-1.8521	-1.6375	-148.376	-160.899	-144.867	145.548	-77.699	-14.360	91.349	193.164	-140.429	30.124	-1.112	131.351	-63.120	-113.747	137.814	-117.089	0.00093947	0.00059738	0.00014514	465.64	6.4545e-06	5.2362e-06	563.74	196	5.2313e-06	4.9129e-06	256.23	141.75	103.39	58.89	7.0611e-06	83.154	0.00049438	0.00029167	7.6715e-05	482.45	2.9788e-06	2.8593e-06	583.67	204.63	2.9357e-06	2.8827e-06	267.25	147.94	107.89	62.277	3.217e-06	87.674	-67.408	-81.994	-80.584	-153.663	-30.365	-13.028	-154.333	-148.737	6.651	-15.117	-150.482	-147.278	-146.567	-141.661	-9.529	-143.996	-8191	255	
41296.434	1	1	0	0	0.043062	0.31193	0.091663	0.11019	0.18476	0.10743	0.32462	0.074247	0.29184	0.15367	0.39865	0.099875	0.25905	0.10084	0.17201	0.056581	-1.6083	-1.8542	-1.4062	-2.0604	-1.6542	-1.7333	-2.0583	-1.7771	-2.0542	-1.7667	-1.5104	-2.0417	-1.7437	-1.8646	-1.9562	-1.5396	-112.928	-6.252	160.504	-121.222	-75.749	14.248	170.045	-29.166	-12.912	178.657	156.457	49.714	89.781	76.088	114.017	104.322	0.00096914	0.00052	0.00013821	464.04	5.5339e-06	5.0495e-06	562.2	195.08	5.4455e-06	6.1317e-06	257.65	141.46	103.92	59.032	6.9885e-06	83.714	0.00049716	0.00027045	7.4668e-05	480.9	2.9544e-06	2.8481e-06	582.57	204.31	2.7983e-06	2.9148e-06	268.46	148.57	108.44	62.627	3.1335e-06	88.277	-66.810	-87.696	-69.626	-153.916	-3.438	-26.653	-154.514	-148.927	2.687	-9.250	-150.934	-147.310	-145.948	-141.921	-10.388	-143.928	-8191	255	
41296.527	1	1	0	0	0.17478	0.077963	0.035197	0.16522	0.16873	0.10921	0.10129	0.088699	0.25652	0.15703	0.27898	0.12293	0.094028	0.16732	0.21716	0.12075	-1.5417	-1.7375	-1.6146	-1.9542	-1.5104	-1.7479	-2.125	-1.725	-1.8104	-2.0083	-1.5312	-1.9708	-1.8042	-1.8917	-2.2188	-1.7396	177.713	-3.190	178.674	-154.217	-2.134	-76.837	-86.284	95.688	89.558	-51.022	73.476	-39.832	12.421	-137.901	57.966	160.327	0.0010101	0.00034046	0.00013501	465.51	4.7493e-06	6.6446e-06	567.44	197.3	4.1489e-06	4.8504e-06	258.77	141.73	103.62	59.347	7.9241e-06	84.17	0.00050257	0.00027055	7.3347e-05	482.49	2.9711e-06	2.8667e-06	587.26	205.41	2.8525e-06	2.9152e-06	269.51	148.83	108.37	62.746	3.1806e-06	88.788	-67.748	-90.131	-84.055	-153.919	-29.870	-15.589	-154.731	-148.619	21.314	-33.089	-151.157	-147.183	-146.279	-141.863	-11.771	-144.062	-8191	255	
41296.629	1	1	0	0	0.070829	0.21265	0.28725	0.14655	0.048162	0.21685	0.13991	0.25941	0.3374	0.098018	0.33625	0.057414	0.19424	0.23619	0.22784	0.24135	-1.5854	-1.8604	-1.3813	-2.1063	-1.825	-1.7021	-2.1312	-1.5812	-1.7729	-2.0021	-1.6479	-1.9729	-1.7458	-1.6917	-2.0125	-1.9896	80.919	-43.653	-4.071	-147.741	16.095	-120.818	99.539	189.224	-24.676	45.726	109.461	70.041	-163.095	157.002	-73.790	74.501	0.00096044	0.00080535	0.00014186	470.17	7.0877e-06	4.7088e-06	567.09	196.83	7.2958e-06	4.263e-06	260.72	142.93	104.08	59.323	6.7878e-06	84.78	0.00049909	0.00027733	7.4575e-05	487.3	2.9377e-06	2.8214e-06	590.95	206.06	3.0017e-06	3.0243e-06	271.01	149.4	108.31	62.732	3.1551e-06	89.012	-67.242	-73.792	-79.555	-153.969	-22.538	-18.719	-154.337	-148.736	10.368	-4.989	-150.846	-147.210	-146.362	-141.961	6.401	-143.947	-8191	255	
41296.723	1	1	0	0	0.21096	0.19613	0.057407	0.0029054	0.23446	0.33782	0.30863	0.13297	0.1726	0.14687	0.11709	0.15725	0.15718	0.097763	0.17325	0.28801	-1.3354	-1.8396	-1.5375	-1.8146	-1.8729	-1.5625	-2.2208	-1.7563	-1.9354	-2.1042	-1.5854	-2.0146	-1.9292	-1.8563	-2.1542	-2.0167	80.633	115.392	-158.668	77.384	-138.782	22.491	-23.827	-128.386	114.470	-43.985	93.910	179.025	77.822	107.896	12.789	81.545	0.0010071	0.00066398	0.00016918	468.78	5.2373e-06	5.798e-06	571.03	197.81	6.5034e-06	3.7821e-06	260.33	142.55	104.24	59.562	9.2437e-06	84.001	0.00051343	0.00027487	7.8604e-05	487.21	2.9975e-06	2.9171e-06	594.18	206.35	2.9175e-06	2.7798e-06	271.42	149.41	108.57	62.72	3.0854e-06	88.4	-66.199	-94.688	-71.424	-153.601	-13.733	-38.330	-154.288	-148.766	6.535	-47.341	-151.222	-147.352	-146.264	-141.999	-23.400	-143.957	-8191	255	
41296.816	1	1	0	0	0.033487	0.12801	0.095917	0.087482	0.091315	0.090724	0.069499	0.14033	0.053162	0.20755	0.044181	0.21469	0.063643	0.34602	0.30338	0.30719	-1.2167	-2.0563	-1.5688	-1.7667	-1.9125	-1.5083	-2.2208	-1.7583	-1.625	-2.1146	-1.7479	-2	-1.8563	-1.8062	-1.9854	-1.9229	-164.916	81.470	-4.410	-19.445	36.095	72.516	-59.286	102.033	-78.007	-37.263	78.006	132.900	-41.949	-141.437	-14.226	26.002	0.00097619	0.00047799	0.0001563	467.89	7.5712e-06	4.7084e-06	568.75	198.2	6.2888e-06	4.3828e-06	260.02	141.72	102.87	59.072	7.2755e-06	83.339	0.00050576	0.00027338	7.6324e-05	488.13	2.8967e-06	2.9175e-06	592.01	206.26	2.8535e-06	2.7009e-06	270.55	148.43	107.59	62.499	3.0383e-06	87.938	-66.566	-81.277	-83.917	-153.757	-32.241	-17.736	-154.514	-148.683	-4.115	-0.882	-150.861	-147.383	-145.856	-141.982	-18.384	-144.103	-8191	255	
41296.914	1	1	0	0	0.14509	0.19245	0.27596	0.045886	0.17896	0.12072	0.25144	0.20023	0.13786	0.032696	0.26783	0.10546	0.082995	0.1857	0.16334	0.068818	-1.2563	-2.0354	-1.6375	-1.8667	-2.0833	-1.5042	-2.0708	-1.9188	-1.4062	-2.1729	-1.6562	-1.9354	-2.0062	-1.7021	-1.9333	-1.825	158.344	32.533	-43.578	-162.609	-68.512	-134.616	100.233	-154.008	190.516	0.460	-117.732	89.070	-10.760	184.719	105.126	-122.075	0.0010039	0.00068811	0.00013523	470.7	5.0312e-06	5.5735e-06	571.78	198.06	6.556e-06	4.4846e-06	262.16	141.48	104.37	59.075	8.6864e-06	83.808	0.00050289	0.00026656	7.2519e-05	488.32	2.8741e-06	2.9627e-06	593.12	206.51	2.9185e-06	2.8728e-06	271.57	148.44	108.42	62.491	3.0974e-06	88.19	-66.065	-76.134	-59.933	-153.390	5.975	-25.791	-154.402	-148.720	10.123	-10.378	-151.269	-147.145	-146.056	-141.824	-7.041	-144.032	-8191	255	
41297.012	1	1	0	0	0.16256	0.055502	0.20022	0.080194	0.29373	0.025145	0.12452	0.076843	0.21461	0.16328	0.092606	0.20147	0.060887	0.27083	0.23428	0.21025	-1.3708	-1.9292	-1.8042	-1.8792	-1.9229	-1.7062	-1.9458	-1.8604	-1.6375	-2.0875	-1.5729	-1.5625	-2.075	-1.7729	-1.8875	-1.9625	14.382	-163.458	81.199	72.009	158.105	-65.899	104.930	-41.383	-124.028	191.099	-111.794	179.868	112.805	162.273	8.616	83.374	0.00099561	0.00056256	0.00013981	469.36	5.6755e-06	4.0831e-06	570.66	198.15	4.3022e-06	6.0628e-06	260.95	142.69	104.26	59.37	6.2078e-06	84.258	0.00050635	0.00026093	7.2529e-05	488.65	2.8042e-06	2.8956e-06	593.98	206.65	2.7741e-06	2.8348e-06	271.2	149.29	108.2	62.721	3.1377e-06	88.783	-67.513	-99.583	-82.242	-153.751	-12.220	-13.879	-154.362	-148.864	-0.268	-30.799	-151.065	-147.171	-146.345	-142.088	-23.181	-144.008	-8191	255	
41297.133	1	1	0	0	0.065348	0.14196	0.12579	0.055414	0.20931	0.093142	0.085068	0.19164	0.20838	0.16604	0.16643	0.13598	0.12381	0.24129	0.041685	0.21608	-0.975	-1.9188	-1.7417	-1.6771	-1.9646	-1.6979	-2.0583	-2.2146	-1.7417	-1.8687	-1.8542	-1.6042	-2.0854	-1.8396	-1.7437	-2.1063	3.700	45.871	-26.035	17.748	177.044	111.981	135.112	-136.194	-36.669	-124.686	188.692	185.928	-29.872	-160.792	-70.054	143.456	0.00098493	0.00063664	0.0001525	472.72	6.1043e-06	6.5429e-06	576.49	198.3	6.6267e-06	4.303e-06	263.71	143.34	104.32	59.526	7.4126e-06	84.549	0.00051271	0.00025594	7.5161e-05	490.11	2.8202e-06	2.9653e-06	596.77	207.5	2.9579e-06	2.67e-06	273.74	150.23	108.74	62.86	3.0617e-06	89.003	-68.118	-82.827	-74.687	-153.608	-7.501	-18.898	-154.814	-148.858	23.142	-5.090	-151.365	-147.185	-145.874	-141.915	-6.132	-144.018	-8191	255	
41297.203	1	1	0	0	0.12374	0.15986	0.1818	0.23265	0.11125	0.21174	0.13305	0.10499	0.10755	0.20711	0.14804	0.093888	0.078918	0.13229	0.14084	0.26348	-0.9375	-1.6333	-1.9813	-1.5896	-2.0583	-1.5167	-1.7875	-1.9417	-1.4125	-1.9625	-1.7958	-1.4604	-2.0021	-1.7354	-1.7417	-2	69.905	93.918	-38.441	-58.899	-2.085	53.099	167.974	104.500	-2.501	175.062	-7.714	-146.525	106.714	187.793	59.848	-104.458	0.00097008	0.00058193	0.00012593	472.62	3.8435e-06	5.5875e-06	574.75	198.39	5.2106e-06	6.4968e-06	259.94	142.09	103.33	59.203	8.5667e-06	83.342	0.00050024	0.00026426	7.2817e-05	490.12	2.6922e-06	2.8875e-06	595.78	207.21	2.8751e-06	2.7367e-06	270.94	148.64	108	62.46	3.1632e-06	87.755	-67.995	-66.647	-94.115	-153.664	-3.467	-9.767	-154.358	-148.738	-2.746	-25.948	-151.189	-147.205	-146.413	-141.897	-17.139	-143.994	-8191	255	
41297.301	1	1	0	0	0.2175	0.22176	0.17648	0.027017	0.11566	0.041102	0.13619	0.070735	0.18377	0.084944	0.28473	0.25841	0.17548	0.24091	0.16969	0.15909	-0.9375	-2.0229	-1.7437	-1.4583	-1.9333	-1.6667	-1.7521	-2.0625	-1.6083	-1.8188	-1.9854	-1.6958	-1.925	-1.7437	-1.6792	-2.1458	-127.777	-9.834	61.135	-33.247	52.468	-34.872	-158.554	134.311	-134.122	139.212	150.237	152.971	183.600	-148.269	164.211	16.588	0.0010039	0.00059547	0.00017365	472.63	6.2644e-06	5.7678e-06	573.02	198.95	4.9466e-06	3.8971e-06	261.32	142.63	103.72	58.875	6.8854e-06	83.676	0.00050886	0.00025132	7.2594e-05	490.22	2.7186e-06	2.8645e-06	593.58	207.45	2.9044e-06	2.6467e-06	271.84	148.9	108.36	62.48	3.1144e-06	88.112	-67.337	-76.116	-74.283	-153.704	-1.678	-5.533	-154.321	-148.922	2.664	-42.217	-151.320	-147.401	-146.223	-141.925	-22.300	-143.911	-8191	255	
41297.395	1	1	0	0	0.14234	0.066254	0.24522	0.14573	0.11116	0.16039	0.22239	0.15161	0.10378	0.17257	0.18016	0.27944	0.1546	0.12277	0.12368	0.14187	-1.1604	-1.7812	-1.7104	-1.5521	-2.2146	-1.925	-1.8208	-2.0417	-1.5354	-1.7479	-2.0062	-1.7833	-1.9583	-1.8792	-1.5021	-2.4125	-133.230	-83.441	122.185	53.362	68.739	-52.723	136.294	105.663	65.008	-40.679	-117.655	45.693	168.049	-159.772	-149.850	160.415	0.00097919	0.00067097	0.00013413	471.36	7.4999e-06	5.5365e-06	574.02	199.54	5.865e-06	5.5435e-06	262.24	142.74	104.11	59.389	5.9239e-06	84.287	0.00049345	0.00025395	7.3403e-05	488.64	2.6459e-06	2.8671e-06	595.76	207.28	2.8583e-06	2.7529e-06	272.18	149.8	108.49	62.694	3.056e-06	88.712	-67.797	-81.838	-80.699	-153.755	-21.368	-12.034	-154.477	-148.707	9.004	-15.039	-151.201	-147.391	-146.370	-141.924	-7.468	-144.186	-8191	255	
41297.516	1	1	0	0	0.13723	0.087378	0.1832	0.076747	0.24381	0.11407	0.21394	0.23619	0.19352	0.033295	0.13187	0.23397	0.070957	0.074914	0.18422	0.1702	-1.3125	-1.7188	-1.8917	-1.4229	-1.9333	-1.7792	-1.7542	-2.1646	-1.6292	-1.7667	-2.0625	-1.6667	-1.9667	-2.1271	-1.6437	-2.1937	-43.486	-142.357	-138.292	-130.207	-155.237	-134.605	66.270	-49.167	-5.306	130.092	181.160	32.108	-128.322	-101.592	-41.937	-149.337	0.0010009	0.00065418	0.00019018	475.49	7.2178e-06	3.3805e-06	576.03	200.11	4.6102e-06	5.1219e-06	263.46	143.34	103.87	59.38	6.7924e-06	84.525	0.00050538	0.0002452	6.9747e-05	492.1	2.7033e-06	2.8129e-06	598.94	207.86	2.7532e-06	2.6618e-06	274.06	150.35	108.48	62.82	3.078e-06	89.229	-67.019	-93.559	-67.606	-153.944	2.516	-25.902	-154.096	-148.604	10.969	-19.972	-151.076	-147.278	-146.544	-141.951	-2.352	-143.811	-8191	255	
41297.609	1	1	0	0	0.27997	0.11791	0.11225	0.15897	0.15772	0.18086	0.24135	0.29485	0.20749	0.099812	0.1321	0.36364	0.028289	0.30959	0.31708	0.079997	-1.2062	-1.4667	-2.2083	-1.6521	-1.925	-1.8917	-1.7042	-2.0438	-1.7708	-1.55	-2	-1.7167	-1.8354	-2.0833	-1.4813	-2.2021	-10.257	187.350	15.989	122.723	-157.464	107.020	58.959	87.034	38.355	136.320	81.184	141.081	150.304	161.174	85.696	-127.478	0.00099494	0.00069595	0.00017475	474.17	7.2904e-06	5.6766e-06	577.95	199.56	6.0731e-06	6.7389e-06	263.91	143.77	103.69	59.38	7.3085e-06	83.974	0.00050753	0.00025934	7.1012e-05	492.67	2.6692e-06	2.708e-06	601.52	208.07	2.9054e-06	2.6541e-06	274.07	150.21	108.44	62.657	3.1126e-06	88.674	-68.428	-78.191	-79.458	-153.887	-6.976	-23.172	-154.127	-148.868	-4.398	-21.774	-151.248	-147.056	-145.978	-141.931	-7.076	-143.793	-8191	255	
41297.707	1	1	0	0	0.25051	0.16686	0.08156	0.17728	0.13362	0.10792	0.0087614	0.12321	0.13981	0.18792	0.091625	0.18828	0.12785	0.23224	0.2537	0.45294	-1.3125	-1.45	-1.9583	-1.5187	-1.8875	-2.0417	-1.6021	-2.0646	-1.6688	-1.5625	-2.2062	-1.5187	-1.7083	-1.9771	-1.4062	-2.0312	169.699	-135.640	101.895	169.182	-41.095	77.098	26.193	98.366	16.017	12.000	109.418	-140.270	152.913	177.215	-138.595	79.127	0.0010038	0.0006276	0.00016386	471.11	5.3877e-06	4.398e-06	575.65	199.41	5.6563e-06	4.478e-06	259.6	142.14	103.91	59.136	9.1983e-06	83.917	0.0005082	0.00025954	7.2482e-05	490.39	2.6984e-06	2.8088e-06	597.7	207.7	2.8242e-06	2.771e-06	271.76	148.8	108.23	62.477	3.131e-06	88.366	-67.419	-91.763	-87.208	-153.932	5.356	-16.177	-154.351	-148.778	4.370	-18.127	-151.505	-147.350	-146.222	-141.812	-20.108	-144.092	-8191	255	
41297.801	1	1	0	0	0.10634	0.12572	0.045397	0.02492	0.39207	0.31176	0.46231	0.1106	0.054694	0.27119	0.033768	0.073743	0.15629	0.2918	0.12935	0.18716	-1.325	-1.4604	-1.9646	-1.7208	-1.825	-1.9417	-1.6146	-1.8521	-1.7396	-1.5792	-1.8708	-1.7812	-1.4771	-2.0604	-1.5167	-2.1771	179.732	-130.330	-2.336	63.415	9.174	33.119	142.757	155.525	-96.486	166.980	-130.001	-94.887	144.190	-164.795	-109.521	77.548	0.0009621	0.00047742	0.00012811	471.88	4.5302e-06	5.5423e-06	575.83	198.35	5.2971e-06	6.4046e-06	261.5	142.74	103.75	59.285	5.1204e-06	84.318	0.0005104	0.00026762	6.8863e-05	489.92	2.5742e-06	2.7347e-06	597.81	207.31	2.9014e-06	2.7684e-06	272.96	149.59	108.54	62.69	3.2092e-06	88.786	-67.800	-82.603	-76.112	-153.916	-8.215	-16.021	-154.419	-148.528	11.600	-13.725	-151.048	-147.361	-146.305	-141.819	-1.551	-144.153	-8191	255	
41297.898	1	1	0	0	0.27941	0.24481	0.13972	0.064973	0.23377	0.2389	0.27548	0.10285	0.099588	0.37806	0.19644	0.032193	0.22145	0.31105	0.17057	0.30834	-1.5875	-1.4562	-2.0167	-1.775	-1.6437	-2.0458	-1.7083	-1.9188	-2.0833	-1.5458	-1.8687	-1.7521	-1.6042	-2.1979	-1.575	-1.9854	170.081	-138.993	-59.371	-133.856	-166.501	-11.677	129.930	-65.765	-73.164	4.766	66.317	-158.722	176.198	140.496	26.952	175.275	0.0009928	0.00068073	0.00012696	471.57	6.6527e-06	6.5729e-06	577.85	199.42	6.0103e-06	6.4535e-06	263.5	143.13	103.83	59.428	7.9521e-06	84.467	0.00050289	0.00026503	6.9179e-05	491.19	2.793e-06	2.8122e-06	599.23	207.92	2.7717e-06	2.7761e-06	274.28	149.96	108.52	62.849	3.1781e-06	89.077	-66.912	-77.168	-62.046	-153.727	1.152	-11.151	-154.535	-148.814	9.162	-31.336	-151.031	-147.158	-146.316	-141.827	0.402	-143.944	-8191	255	
41297.992	1	1	0	0	0.14975	0.15911	0.14319	0.22977	0.24952	0.08899	0.13173	0.29286	0.082526	0.044225	0.10934	0.04167	0.090937	0.31892	0.26428	0.24573	-1.4813	-1.5958	-1.975	-1.9583	-1.3687	-2.0521	-1.8646	-1.8312	-2.0542	-1.5646	-1.9917	-1.8021	-1.5896	-2.1542	-1.6042	-1.9062	75.508	-50.718	135.149	108.815	108.499	184.824	-75.095	85.410	124.547	174.634	-120.597	-130.838	-134.827	122.097	80.612	153.441	0.00098864	0.00056934	0.00016619	476.22	5.944e-06	5.296e-06	580.15	199.11	4.3355e-06	5.1733e-06	263.19	143.83	104.03	59.45	7.6006e-06	84.449	0.00050341	0.00026552	7.2826e-05	492.79	2.6901e-06	2.7977e-06	601.59	208.04	2.7515e-06	2.8009e-06	274.92	150.77	108.76	62.778	3.1392e-06	88.976	-65.924	-88.017	-79.279	-153.798	13.329	-16.438	-154.328	-148.911	-0.759	-18.963	-150.991	-147.305	-146.032	-141.890	-9.996	-143.925	-8191	255	
41298.113	1	1	0	0	0.11071	0.13159	0.38657	0.13878	0.14631	0.081011	0.16092	0.15708	0.27685	0.47021	0.24194	0.38153	0.20999	0.11252	0.096195	0.20636	-1.7021	-1.6729	-1.7979	-1.9625	-1.6688	-1.9937	-1.7917	-1.7146	-2.1667	-1.65	-2.1188	-1.9125	-1.5187	-2.2313	-1.8292	-1.7062	-72.394	113.967	-77.329	-81.456	160.765	-93.077	183.519	42.785	7.736	60.975	56.582	190.496	-138.060	157.071	156.377	159.168	0.00099235	0.00064437	0.00014481	472.25	8.5641e-06	4.9348e-06	577.75	199	5.5042e-06	5.3809e-06	262.26	142.61	103.82	59.086	7.8609e-06	83.57	0.00050744	0.00025601	7.277e-05	492.95	2.8539e-06	2.8085e-06	600.04	208.53	2.7835e-06	2.8488e-06	273.42	149.59	108.43	62.587	3.2269e-06	88.18	-68.555	-93.785	-82.313	-153.768	-15.021	-17.310	-154.468	-148.844	-4.557	-18.362	-150.827	-147.387	-146.191	-141.901	-8.822	-143.978	-8191	255	
41298.211	1	1	0	0	0.17905	0.196	0.1587	0.19093	0.050074	0.15563	0.21629	0.080316	0.13484	0.2021	0.0024244	0.080538	0.11002	0.25283	0.12437	0.25381	-1.5646	-1.6187	-1.8083	-1.9479	-1.5521	-2.1104	-1.75	-1.675	-1.9708	-1.6292	-1.7563	-2.0167	-1.4604	-2	-1.9167	-1.8083	-34.687	-144.490	-14.549	-114.866	24.218	172.514	127.598	-24.131	152.908	-69.199	180.000	-21.417	-20.622	172.143	154.424	94.489	0.00098428	0.00046899	0.000196	475.66	6.4964e-06	5.6829e-06	577.91	200.41	5.197e-06	6.1237e-06	264.85	143.09	104.1	59.274	6.3267e-06	83.895	0.00049626	0.00025997	7.2315e-05	492.6	2.8626e-06	2.8214e-06	599.88	208.83	2.8539e-06	2.8562e-06	274.32	149.77	108.63	62.702	3.1257e-06	88.614	-65.527	-98.045	-77.508	-153.818	-9.263	-7.195	-154.501	-148.852	15.832	-40.320	-151.022	-147.197	-146.054	-142.001	-20.355	-144.249	-8191	255	
41298.309	1	1	0	0	0.10863	0.16092	0.20334	0.018708	0.066378	0.26047	0.25883	0.25163	0.17981	0.10844	0.31091	0.15131	0.15208	0.1767	0.10557	0.25218	-1.5625	-1.4	-1.6792	-1.7979	-1.475	-2.1375	-1.8062	-1.8396	-2.0333	-1.6792	-1.9604	-1.9833	-1.3083	-2.0667	-1.9312	-1.6812	-154.224	179.624	119.568	119.866	24.273	-101.394	170.499	-159.811	97.938	-44.737	-50.051	-101.513	-130.069	-139.635	-145.458	164.539	0.00099953	0.00056952	0.00018579	476.16	6.7492e-06	5.1064e-06	581.01	200.78	6.6836e-06	6.352e-06	263.91	142.91	103.89	59.435	7.1381e-06	84.483	0.00050954	0.00025668	7.1905e-05	493.5	2.8636e-06	2.7198e-06	600.82	209.11	2.74e-06	2.9966e-06	274.5	150.09	108.62	62.807	3.229e-06	88.779	-67.117	-88.277	-95.507	-153.872	-9.680	-24.385	-154.168	-148.763	-6.521	-33.438	-151.182	-147.189	-146.351	-141.915	-15.580	-144.053	-8191	255	
41298.430	1	1	0	0	0.073982	0.1308	0.2173	0.31087	0.13136	0.21729	0.34981	0.22376	0.052118	0.20125	0.16269	0.03788	0.22769	0.31074	0.22419	0.25854	-1.6938	-1.5292	-1.8188	-2.1417	-1.4042	-1.8729	-1.9188	-1.4729	-2.1896	-1.7417	-1.6542	-2.1167	-1.5458	-1.9083	-2.1562	-1.65	38.346	84.897	-140.468	22.179	6.720	-107.118	187.081	159.458	-163.012	64.035	113.999	97.029	75.303	-123.762	-117.274	166.562	0.00097624	0.00068321	0.00014051	478.73	5.8585e-06	5.67e-06	580.68	199.39	6.9246e-06	4.5798e-06	264.11	144.33	104.25	59.287	7.363e-06	84.294	0.00049918	0.00027281	6.8398e-05	493.97	2.8755e-06	2.778e-06	602.95	208.59	2.7394e-06	2.754e-06	274.62	150.6	108.34	62.696	3.2881e-06	88.965	-67.553	-84.459	-63.073	-153.725	0.590	-37.431	-154.563	-148.853	6.193	-39.955	-151.372	-147.429	-146.291	-142.032	-20.566	-144.125	-8191	255	
41298.500	1	1	0	0	0.10393	0.31587	0.2868	0.29562	0.23876	0.24391	0.023525	0.25043	0.2724	0.19031	0.13006	0.36425	0.13608	0.15234	0.091955	0.34229	-1.5812	-1.7938	-1.6792	-2.3937	-1.6313	-1.8771	-2.0187	-1.6229	-1.9646	-1.9292	-1.7646	-2.1	-1.6125	-2.0417	-2.0021	-1.6104	89.505	-31.001	92.228	-47.690	173.742	135.050	102.251	-135.178	18.960	188.120	29.397	145.531	-73.986	51.491	158.009	139.318	0.00096781	0.00036912	0.00012986	476.53	3.9855e-06	6.8357e-06	580.93	199.86	6.3189e-06	4.8732e-06	263.53	142.1	104.1	59.244	6.0337e-06	83.704	0.00050169	0.00026679	7.4361e-05	494.87	2.832e-06	2.7165e-06	602.71	208.48	2.8441e-06	2.8783e-06	274.54	149.4	108.38	62.472	3.1678e-06	88.123	-66.821	-97.550	-88.803	-153.701	-1.094	-27.890	-154.385	-148.883	4.293	-10.567	-150.966	-147.401	-146.468	-141.884	-39.236	-143.999	-8191	255	
41298.598	1	1	0	0	0.15593	0.24464	0.12691	0.2249	0.11962	0.094578	0.26307	0.15203	0.055826	0.18688	0.19408	0.191	0.082072	0.21998	0.21208	0.37957	-1.5833	-1.7646	-1.4646	-2.1688	-1.6896	-1.7563	-2.0917	-1.4896	-1.6292	-1.7396	-1.5667	-2.0333	-1.6	-1.8042	-1.8542	-1.7542	89.555	141.856	-107.376	-138.726	-153.329	71.155	-147.254	-131.764	18.829	-98.658	127.883	-158.289	178.036	184.750	166.491	168.479	0.001001	0.00062183	0.00013808	473.82	4.7731e-06	5.0622e-06	581.1	199.89	6.2342e-06	6.5677e-06	262.34	142.04	103.38	58.896	7.6797e-06	83.183	0.00050239	0.00026596	7.5552e-05	492.94	2.8661e-06	2.7973e-06	601.13	208.08	2.8034e-06	2.9177e-06	272.83	148.69	108.17	62.341	3.2301e-06	87.734	-67.027	-84.788	-76.149	-153.574	-10.972	-28.066	-154.552	-149.009	-5.882	-13.877	-150.631	-147.262	-146.020	-141.952	-15.170	-144.027	-8191	255	
41298.691	1	1	0	0	0.14011	0.14626	0.15193	0.11108	0.13366	0.12462	0.14671	0.14921	0.12814	0.25812	0.14319	0.19095	0.18561	0.074328	0.078722	0.059142	-1.4833	-1.7958	-1.625	-2.0479	-1.7771	-1.825	-2.2083	-1.7292	-2.0271	-2.0812	-1.7521	-2.3	-1.9271	-1.8146	-2.1312	-1.65	-22.974	52.668	67.765	-149.480	15.779	-160.359	152.455	115.624	113.627	-108.522	147.021	167.080	26.531	-154.891	-95.095	122.110	0.00094613	0.00052612	0.00016173	475.18	2.7334e-06	4.3499e-06	578.11	199.69	6.8142e-06	3.6209e-06	263.84	142.73	104.21	59.048	8.6937e-06	83.468	0.00048637	0.00026376	7.531e-05	493.66	2.8588e-06	2.9331e-06	599.35	208.57	2.8717e-06	2.8222e-06	273.38	149.39	108.3	62.525	3.2248e-06	88.082	-66.496	-91.860	-75.487	-153.650	-24.380	-27.816	-154.239	-148.677	-0.659	-45.169	-151.430	-147.267	-146.422	-141.770	-11.805	-144.259	-8191	255	
41298.812	1	1	0	0	0.2515	0.064738	0.1905	0.16883	0.049302	0.12585	0.049921	0.29536	0.096583	0.062262	0.27187	0.11908	0.20965	0.16037	0.08307	0.38833	-1.4896	-2.1188	-1.6146	-2.1396	-1.8167	-1.8104	-2.1958	-1.7667	-1.8396	-1.9042	-1.5375	-2.1458	-1.9354	-1.8958	-2.2396	-2.0812	154.891	-36.619	50.384	-44.269	17.828	108.438	-165.333	126.751	4.605	178.384	-1.863	157.301	13.338	130.573	-88.900	97.334	0.00096109	0.00066194	0.00016286	475.84	5.293e-06	5.8742e-06	580.72	199.34	6.7735e-06	4.8505e-06	263.37	144.16	104.18	59.353	6.4377e-06	83.883	0.00050006	0.00027477	7.6948e-05	493.87	2.8097e-06	2.9249e-06	600.92	208.46	2.9771e-06	2.8967e-06	275.29	150.47	108.73	62.76	3.2333e-06	88.573	-66.306	-86.814	-75.798	-153.838	1.298	-22.800	-154.465	-148.662	18.423	-32.494	-151.264	-147.518	-146.284	-141.829	-20.447	-144.089	-8191	255	
41298.906	1	1	0	0	0.26562	0.15385	0.26934	0.12584	0.28535	0.12311	0.11195	0.075608	0.1118	0.18806	0.31295	0.17885	0.047671	0.15092	0.026166	0.083945	-1.4104	-1.9792	-1.6667	-2.1896	-1.8396	-1.5021	-2.1979	-1.8375	-1.7854	-1.9771	-1.625	-2.0708	-1.9583	-1.7104	-1.9604	-1.9562	-59.004	-30.863	188.592	149.063	145.477	-9.096	-40.244	-144.057	-77.520	-75.409	119.234	56.604	37.945	-144.685	176.068	122.430	0.00099864	0.00058556	0.00016811	475.63	5.323e-06	5.205e-06	582.42	200.13	4.0253e-06	5.1415e-06	260.58	144.48	103.42	59.435	8.5183e-06	84.321	0.00050809	0.00026815	7.5506e-05	493.77	2.8028e-06	2.8696e-06	603.46	209.39	2.9421e-06	2.8621e-06	275	151.23	108.48	62.854	3.2301e-06	88.771	-66.845	-89.245	-85.731	-153.676	-4.429	-24.677	-154.363	-148.585	18.869	-27.550	-151.392	-147.355	-146.153	-141.885	-9.655	-143.987	-8191	255	
41299.004	1	1	0	0	0.039132	0.070178	0.31757	0.25097	0.12466	0.29979	0.10767	0.45074	0.15018	0.16586	0.18861	0.025624	0.10377	0.20096	0.078435	0.087008	-1.4062	-2.0854	-1.5583	-1.9375	-2.0208	-1.4167	-2	-1.6854	-1.7125	-2.2021	-1.7667	-1.9292	-2.0958	-1.6333	-1.9771	-1.975	62.922	128.050	-139.181	-22.425	-31.937	130.381	37.878	84.912	73.403	-48.623	-16.107	140.400	190.954	-3.957	-129.143	-11.144	0.00097216	0.00061453	0.00020717	474.12	6.3523e-06	3.9971e-06	579.6	200.1	5.1164e-06	6.2367e-06	262.43	142.97	103.64	59.275	7.1511e-06	83.244	0.00049481	0.00027198	7.7497e-05	493.9	2.9711e-06	2.9994e-06	600.6	208.89	2.9253e-06	3.0077e-06	274.04	149.85	108.63	62.562	3.1289e-06	87.839	-67.350	-75.423	-73.500	-153.901	-19.016	-12.522	-154.360	-148.813	-4.681	-18.283	-151.206	-147.299	-145.957	-141.917	-16.996	-144.028	-8191	255	
41299.074	1	1	0	0	0.13284	0.066832	0.17268	0.3272	0.28477	0.065632	0.11376	0.1616	0.12	0.26211	0.022368	0.27915	0.10769	0.22683	0.099001	0.13321	-1.1021	-1.9854	-1.6708	-1.8687	-1.9937	-1.5417	-1.9854	-1.8521	-1.6271	-2.2271	-1.7917	-1.9562	-2.0458	-1.5854	-1.8896	-2.0708	143.079	-64.317	45.319	104.288	50.342	70.892	47.823	110.861	74.321	29.655	-16.544	128.736	126.177	62.537	-113.159	-159.512	0.00097451	0.00060353	0.0001123	473.08	5.3717e-06	4.3422e-06	578.26	200.28	5.1935e-06	5.4977e-06	263.85	143.32	103.47	59.072	6.0834e-06	83.652	0.00051126	0.00026306	7.2696e-05	492.85	2.9356e-06	2.9735e-06	599.51	208.67	2.9714e-06	2.938e-06	274.33	149.67	108.45	62.458	3.1558e-06	88.178	-66.257	-86.091	-78.510	-154.298	-18.321	-35.024	-154.401	-148.631	-9.646	-15.820	-151.381	-147.362	-146.255	-141.901	-14.937	-143.973	-8191	255	
41299.195	1	1	0	0	0.10417	0.062176	0.10413	0.1086	0.19286	0.11841	0.076298	0.29813	0.14258	0.29831	0.25739	0.12147	0.20358	0.10614	0.17156	0.13702	-1.0917	-2.1312	-1.8646	-1.8625	-2.0583	-1.6396	-1.9771	-1.8438	-1.6271	-2.0396	-1.9875	-1.6333	-2.1125	-1.6208	-1.9521	-2.1229	99.883	30.407	122.772	173.780	99.623	-61.835	-159.109	114.844	73.435	77.919	166.070	180.222	144.445	-62.845	186.672	25.420	0.00098599	0.00070814	0.00017445	474.03	5.9137e-06	4.8996e-06	576.97	200.27	4.4072e-06	4.4969e-06	264.3	143.75	103.24	59.222	5.6549e-06	84.442	0.00050549	0.00027713	7.8762e-05	494.22	2.9422e-06	3.0799e-06	599.4	209.11	2.9792e-06	2.8547e-06	274.79	150.48	108.35	62.66	3.1894e-06	88.892	-67.196	-91.235	-76.976	-153.837	-14.818	-14.181	-154.343	-148.638	2.383	-39.167	-151.095	-147.324	-146.058	-141.781	-32.077	-143.950	-8191	255	
41299.289	1	1	0	0	0.17311	0.186	0.069341	0.0615	0.27346	0.19296	0.11373	0.11135	0.26245	0.2007	0.12633	0.1242	0.27342	0.089593	0.13939	0.26276	-1.1187	-2.0542	-1.7292	-1.6875	-2.0083	-1.7229	-1.9521	-2.0104	-1.4479	-2.0729	-1.7292	-1.7812	-2.1937	-1.6562	-1.7854	-1.9896	4.777	-126.642	-71.155	37.338	-65.080	-71.076	-32.804	-110.520	-128.662	-67.484	-140.841	-158.851	-51.781	-162.662	-123.051	177.979	0.00097724	0.00049139	0.00022299	477.61	6.0952e-06	5.7506e-06	581.01	201.23	6.5137e-06	5.2483e-06	264.11	144.25	105.02	59.602	5.8311e-06	84.806	0.00051646	0.00026629	7.8687e-05	495.86	2.9516e-06	3.0328e-06	603.25	209.73	3.1132e-06	2.8787e-06	276.61	151.23	109.07	62.954	3.1961e-06	89.397	-67.979	-69.349	-77.164	-154.152	-8.735	-30.691	-154.579	-148.779	7.827	-20.587	-151.348	-147.327	-146.426	-142.086	-0.168	-143.892	-8191	255	
41299.387	1	1	0	0	0.21221	0.20264	0.13769	0.19441	0.30687	0.27554	0.27847	0.32077	0.15138	0.21227	0.11459	0.094228	0.18848	0.0075761	0.23734	0.041071	-0.91667	-1.8312	-1.9312	-1.6229	-2.0687	-1.6708	-1.9125	-1.9688	-1.6396	-1.9896	-1.95	-1.5333	-2.1042	-1.7583	-1.675	-2.2125	137.914	158.996	-155.520	-131.829	12.945	-4.881	185.463	114.739	148.224	75.895	-33.268	68.724	96.910	116.978	-41.215	113.418	0.0010153	0.00059986	0.00012507	473.98	6.8415e-06	6.1812e-06	581.12	201.03	4.3976e-06	5.5513e-06	265.62	143.36	104.05	59.667	8.8723e-06	83.947	0.00052614	0.00026875	7.8185e-05	493.78	2.9652e-06	3.1356e-06	603.88	209.53	3.093e-06	2.8735e-06	276.59	150.69	109	62.907	3.228e-06	88.581	-67.767	-85.826	-73.697	-153.751	-19.800	-25.212	-154.241	-148.887	1.385	-25.153	-151.402	-147.229	-146.296	-142.075	-16.192	-144.035	-8191	255	
41299.508	1	1	0	0	0.23574	0.132	0.15132	0.090239	0.042943	0.21783	0.25062	0.22853	0.23268	0.067638	0.20442	0.17879	0.12458	0.081562	0.28157	0.10614	-1.1167	-1.8521	-1.9688	-1.525	-1.9979	-1.6938	-1.7583	-2.3083	-1.5229	-1.9188	-1.9375	-1.6792	-2.0646	-1.9333	-1.6854	-2.2292	37.018	-84.606	51.631	180.934	146.772	-108.624	144.202	-140.233	-154.592	38.726	-20.025	156.083	-152.062	161.654	46.750	137.649	0.00097527	0.00074635	0.00015798	475.15	6.84e-06	5.2859e-06	577.07	199.07	5.4203e-06	4.0738e-06	264.66	142.89	104.16	59.215	7.7972e-06	83.867	0.00051945	0.00026715	7.6417e-05	494.16	2.9885e-06	2.9368e-06	600.47	209.04	3.1139e-06	2.9273e-06	275.27	149.87	108.77	62.753	3.2566e-06	88.588	-67.598	-89.164	-79.409	-153.872	-5.956	-25.332	-154.583	-148.719	0.486	-49.183	-150.996	-147.041	-146.382	-142.060	-9.752	-144.093	-8191	255	
41299.602	1	1	0	0	0.26521	0.10812	0.18516	0.28479	0.26095	0.13116	0.28636	0.24369	0.10512	0.1214	0.20585	0.044379	0.19223	0.15852	0.12774	0.13743	-1.0562	-1.8542	-1.9125	-1.5021	-2.025	-1.9	-1.7062	-1.9688	-1.5729	-1.8854	-1.8813	-1.7	-2.1042	-1.8687	-1.4375	-2.2271	3.814	123.463	-120.105	173.565	42.849	-10.043	163.408	74.592	-152.137	54.055	-45.450	-49.929	155.608	125.803	57.328	32.785	0.0010064	0.00061351	0.00015573	476.95	4.6053e-06	5.3895e-06	582.65	200.52	4.7271e-06	5.7335e-06	265.65	142.79	103.65	59.314	6.0328e-06	83.891	0.00051456	0.00026765	7.6678e-05	495.26	2.7165e-06	2.896e-06	602.35	209.59	3.0718e-06	2.8119e-06	275.65	150.19	108.6	62.736	3.3645e-06	88.752	-66.945	-74.407	-70.942	-153.917	-19.620	2.121	-154.372	-148.896	-6.923	-15.233	-151.275	-147.250	-146.256	-141.968	-0.604	-144.038	-8191	255	
41299.699	1	1	0	0	0.2716	0.073105	0.20532	0.092	0.084451	0.13546	0.17692	0.12929	0.28735	0.1054	0.2013	0.032233	0.13018	0.34089	0.13217	0.075514	-1.1979	-1.7708	-1.8229	-1.6229	-1.7854	-1.9104	-1.8458	-2.2729	-1.8292	-1.9146	-2.0583	-1.8	-2.0729	-1.9417	-1.5917	-2.2062	169.936	86.788	134.810	37.667	171.133	-99.591	55.683	88.079	-2.029	34.700	81.488	75.217	129.753	143.566	55.114	-92.323	0.00098318	0.00062883	0.0001571	479.11	5.7694e-06	5.4347e-06	580.68	201.41	6.2854e-06	4.8177e-06	265.6	143.73	104.1	59.319	1.0351e-05	84.587	0.00052132	0.00027115	7.9078e-05	495.53	2.8525e-06	3.0083e-06	602.39	209.55	3.0906e-06	2.9365e-06	275.95	150.55	109	62.828	3.3748e-06	89.078	-66.341	-85.907	-80.041	-153.459	-8.818	-14.211	-154.477	-148.978	5.959	-29.108	-151.261	-147.117	-146.311	-141.977	-22.239	-144.230	-8191	255	
41299.797	1	1	0	0	0.11315	0.065968	0.06359	0.20573	0.17706	0.1616	0.15185	0.37528	0.10347	0.23284	0.099901	0.20042	0.16695	0.26726	0.17396	0.20202	-1.2125	-1.7646	-2.1208	-1.5979	-1.8833	-1.9833	-1.6646	-2.0917	-1.8542	-1.6708	-2.2125	-1.7958	-1.8188	-2.1458	-1.5521	-2.2917	31.729	-157.750	34.536	178.612	38.241	-111.834	191.827	132.939	-130.821	-121.212	136.611	-15.423	131.890	183.668	80.300	142.301	0.0010148	0.00067741	0.00014921	472.67	5.2421e-06	6.4049e-06	579.89	200	5.1294e-06	6.4877e-06	264.51	144.17	104.87	59.356	8.403e-06	84.142	0.00052757	0.00027853	7.7292e-05	494.3	2.912e-06	3.1237e-06	604.05	209.66	3.1381e-06	2.9281e-06	275.99	151.13	109.13	62.822	3.286e-06	88.896	-66.687	-93.369	-61.105	-153.601	0.298	-16.985	-154.378	-148.766	9.121	-39.935	-150.821	-147.046	-146.209	-141.998	-10.638	-143.945	-8191	255	
41299.891	1	1	0	0	0.10517	0.19904	0.48339	0.18394	0.15251	0.22622	0.13766	0.17494	0.28637	0.17649	0.063951	0.20065	0.037614	0.20726	0.31977	0.43027	-1.2729	-1.5875	-2.025	-1.6958	-1.9062	-1.9896	-1.3875	-2.0938	-1.8271	-1.575	-2.0187	-1.6583	-1.775	-2.2083	-1.4458	-2.0458	33.840	162.818	11.196	-111.483	5.145	-65.835	122.016	88.259	-43.345	94.366	-159.030	-120.766	-58.371	191.422	100.840	29.672	0.00099849	0.0006909	0.00021415	473.45	5.6826e-06	5.231e-06	581.56	200.45	5.2685e-06	3.8002e-06	263.74	142.99	104.06	59.133	4.8911e-06	83.542	0.00052347	0.00028385	7.7552e-05	494.21	2.9144e-06	3.0414e-06	601.57	209.62	2.9906e-06	2.9745e-06	274.04	149.55	108.36	62.553	3.3748e-06	88.207	-67.303	-76.227	-76.401	-153.941	-3.413	-26.315	-154.455	-148.798	-1.423	-15.532	-150.945	-147.380	-146.174	-141.999	-11.046	-144.205	-8191	255	
41299.988	1	1	0	0	0.0086015	0.15571	0.07368	0.10359	0.23816	0.074302	0.36902	0.096082	0.05855	0.19583	0.31574	0.23915	0.1563	0.1967	0.21089	0.20366	-1.4396	-1.6354	-2.0229	-1.7167	-1.6812	-1.9375	-1.8917	-1.9208	-1.9729	-1.5229	-2.025	-1.8167	-1.6458	-2.25	-1.5667	-2.2667	-103.762	-44.043	175.628	90.261	101.099	120.832	173.363	99.704	-17.173	-120.977	36.291	-36.164	-160.401	-142.099	128.595	77.065	0.00099984	0.00065723	0.00015488	473.36	5.7648e-06	5.8518e-06	577.85	199.34	5.4866e-06	5.703e-06	265.26	143.33	104.35	59.23	8.9217e-06	84.295	0.00051721	0.00028801	7.3887e-05	493.89	2.8264e-06	2.9371e-06	601.51	209.25	3.188e-06	2.9458e-06	275.6	150.38	109.09	62.775	3.3574e-06	88.797	-67.939	-87.151	-62.293	-153.353	-20.272	-39.844	-154.281	-148.593	2.671	-21.005	-151.052	-147.210	-146.091	-142.022	-19.468	-144.012	-8191	255	
41300.109	1	1	0	0	0.13348	0.27644	0.11781	0.12971	0.33375	0.090009	0.21993	0.19511	0.02179	0.029738	0.27511	0.22986	0.31168	0.15402	0.17844	0.174	-1.5292	-1.3271	-1.9354	-1.6854	-1.4833	-2.0917	-1.8854	-1.9104	-1.9729	-1.6063	-1.8292	-1.8875	-1.6146	-2.4292	-1.5771	-1.8708	-123.362	-59.042	180.146	83.675	-98.978	-3.984	120.265	35.049	-14.335	100.716	73.073	-62.733	-86.876	110.741	63.344	184.071	0.0010146	0.00056005	0.00013552	480.08	5.0745e-06	5.8431e-06	582.65	201.66	5.4145e-06	5.9596e-06	265.03	143.99	105.27	59.656	7.7462e-06	84.787	0.0005294	0.00028009	7.6082e-05	496.64	2.8706e-06	3.008e-06	603.97	210.64	3.0203e-06	3.049e-06	277	151.42	109.36	63.074	3.3592e-06	89.561	-66.723	-79.615	-73.598	-153.792	-9.019	7.629	-154.393	-148.866	4.306	-20.891	-151.598	-147.232	-146.232	-141.919	-16.369	-144.027	-8191	255	
41300.203	1	1	0	0	0.21627	0.19042	0.20199	0.26098	0.23944	0.22114	0.10428	0.26011	0.021731	0.24	0.046433	0.14573	0.26124	0.12687	0.15761	0.21918	-1.55	-1.4917	-1.9125	-1.8625	-1.6375	-2.0208	-1.7917	-1.7417	-1.9708	-1.475	-2.0312	-2.1063	-1.9208	-2.3792	-1.6	-1.9833	-146.436	72.117	130.946	-158.947	83.514	-69.907	170.591	125.118	-96.714	122.188	56.978	22.378	-43.458	-157.938	-147.249	92.758	0.00099532	0.00047305	0.00019224	478.26	6.9468e-06	5.9548e-06	582.62	201.97	5.1878e-06	3.8254e-06	265.86	145.92	105.15	59.964	7.4571e-06	85.913	0.00051433	0.00027427	7.5664e-05	496.22	3.0156e-06	2.9946e-06	605.85	211.21	3.1462e-06	3e-06	278.19	152.6	109.85	63.501	3.4519e-06	90.445	-66.361	-96.092	-65.133	-153.749	-0.771	-12.597	-154.194	-148.861	7.534	-36.238	-150.960	-147.211	-146.297	-141.882	-24.824	-144.313	-8191	255	
41300.301	1	1	0	0	0.092024	0.27043	0.27548	0.10497	0.091658	0.056942	0.09242	0.09564	0.21291	0.11293	0.015442	0.47794	0.28216	0.074893	0.10273	0.047879	-1.6479	-1.6396	-1.8896	-1.9854	-1.4583	-2.1625	-2.0062	-1.7479	-2.2229	-1.5354	-2.1146	-2.0479	-1.4813	-2.1771	-1.85	-1.7854	-19.730	132.595	140.140	-144.537	-10.856	-105.441	184.797	17.831	-159.549	180.107	134.904	159.968	151.637	62.724	57.765	2.047	0.001006	0.00074952	0.00014871	475.75	6.2112e-06	6.1144e-06	584.95	202.56	5.8882e-06	4.6664e-06	266.58	145.82	105.6	59.955	8.5949e-06	85.173	0.00052617	0.00028761	7.4854e-05	497.78	3.0636e-06	2.9516e-06	607.93	212.13	2.9734e-06	2.927e-06	278.37	152.83	110.47	63.488	3.2839e-06	89.806	-66.839	-72.264	-86.681	-153.940	-23.785	-17.373	-154.538	-148.800	2.985	-29.837	-151.091	-147.481	-146.407	-141.968	-30.763	-144.116	-8191	255	
41300.371	1	1	0	0	0.28403	0.062321	0.2483	0.12919	0.12041	0.31174	0.052481	0.18633	0.16185	0.25173	0.36956	0.1557	0.16514	0.28264	0.081509	0.1567	-1.7771	-1.4021	-1.9125	-1.9646	-1.475	-1.8521	-1.7292	-1.7646	-2.2042	-1.5521	-1.8	-1.8208	-1.3375	-2.1729	-1.8292	-1.9125	-0.852	77.144	138.479	169.188	-135.278	-23.610	-64.277	112.062	150.170	47.798	16.052	-7.308	24.052	161.192	-20.768	146.653	0.00098406	0.00065871	0.00013156	481.17	5.0781e-06	6.505e-06	583.04	204.41	5.6491e-06	5.2999e-06	267.71	145.43	105.64	60.039	5.9945e-06	85.005	0.00051802	0.00028528	7.7887e-05	498.8	3.0146e-06	3.0009e-06	606.18	212.82	3.0836e-06	3.2419e-06	277.65	152.16	110.17	63.395	3.4133e-06	89.584	-67.396	-92.057	-83.477	-153.723	-12.889	-11.843	-154.247	-148.798	27.219	-20.727	-151.085	-147.405	-145.945	-141.930	-17.362	-144.038	-8191	255	
41300.492	1	1	0	0	0.049484	0.18525	0.22147	0.20887	0.18995	0.18156	0.15436	0.34076	0.15434	0.15375	0.067849	0.35272	0.14659	0.3171	0.085688	0.27062	-1.5771	-1.5104	-1.8896	-2.0542	-1.4521	-1.7979	-1.8417	-1.5146	-2.0625	-1.8062	-1.9083	-1.9646	-1.6167	-2.0604	-1.8896	-1.8521	-130.129	-69.884	-21.514	-141.041	72.139	-46.039	58.404	169.622	122.873	-156.958	62.565	48.774	42.069	141.563	-164.541	123.871	0.0010432	0.00055068	0.00014968	477.92	5.558e-06	5.6124e-06	582.99	201.61	5.3374e-06	5.5426e-06	266.44	144.8	104.57	59.797	7.6309e-06	84.88	0.00052908	0.00027421	7.6417e-05	497.4	2.8873e-06	2.8641e-06	605.45	211.49	3.033e-06	3.1054e-06	277.27	151.78	109.93	63.334	3.3093e-06	89.687	-66.118	-90.879	-87.130	-153.641	-12.980	-28.562	-154.720	-148.832	8.687	-29.842	-150.878	-147.075	-146.126	-141.714	-8.489	-144.033	-8191	255	
41300.590	1	1	0	0	0.15109	0.268	0.09874	0.051884	0.30889	0.066653	0.07228	0.41185	0.039159	0.023407	0.033034	0.27997	0.13815	0.23988	0.12452	0.14829	-1.6229	-1.4688	-1.5938	-1.9396	-1.6063	-1.8229	-2.0104	-1.6583	-2.1208	-1.8542	-1.7854	-2.1688	-1.6625	-2.1271	-1.8458	-1.6146	-102.195	-141.918	-125.524	75.431	26.648	96.925	40.061	74.602	-118.029	-87.837	48.538	83.605	-81.347	126.017	167.784	146.180	0.00099165	0.00050593	0.00014831	476.36	5.3609e-06	5.0896e-06	585.07	202.81	6.1949e-06	4.9278e-06	265.87	145.42	105.15	59.968	8.4557e-06	85.562	0.00051918	0.00027846	7.8287e-05	497.28	2.9819e-06	2.8567e-06	606.62	211.62	3.0226e-06	2.9848e-06	278.09	152.57	109.87	63.411	3.31e-06	90.094	-67.918	-83.601	-93.435	-153.631	8.832	-25.502	-154.410	-148.818	-4.405	-21.375	-151.184	-147.373	-146.640	-142.015	-11.832	-144.182	-8191	255	
41300.684	1	1	0	0	0.29889	0.26137	0.065464	0.1364	0.15748	0.18052	0.14381	0.038445	0.099785	0.14536	0.17958	0.04745	0.17442	0.18556	0.13964	0.067228	-1.5229	-1.6729	-1.5604	-2.2167	-1.7292	-1.9688	-1.9833	-1.7146	-1.9104	-1.6271	-1.6938	-2.0771	-1.5438	-1.8125	-1.8521	-1.6542	-63.210	-49.484	57.871	39.747	-160.794	144.535	150.436	151.330	-137.070	62.092	57.829	-1.458	166.253	49.971	86.340	-141.743	0.0010158	0.00053377	0.00015877	480.81	6.5085e-06	5.2855e-06	588.86	202.93	4.909e-06	6.7493e-06	267	146.12	105.28	60.201	7.6558e-06	85.383	0.00051185	0.00027697	7.6175e-05	499.07	3.0268e-06	2.9457e-06	609.02	212.16	2.932e-06	2.9598e-06	279.12	152.99	110.06	63.495	3.3373e-06	90.046	-66.689	-91.184	-97.663	-154.105	-8.249	-17.107	-154.261	-148.678	1.937	-22.525	-151.267	-147.349	-146.232	-141.801	-6.049	-144.063	-8191	255	
41300.777	1	1	0	0	0.14692	0.18254	0.069996	0.1498	0.20011	0.17304	0.23367	0.041581	0.15174	0.2555	0.091639	0.19986	0.23771	0.38831	0.13963	0.092574	-1.2417	-1.6729	-1.3896	-1.9312	-1.6688	-1.5833	-2.0646	-1.5	-1.7583	-1.9375	-1.6958	-2.1229	-1.6437	-1.7687	-2.2438	-1.6583	4.077	-22.013	-103.479	63.353	91.784	140.960	108.402	-73.608	49.646	-166.738	14.838	90.036	96.500	169.671	110.448	123.559	0.0010278	0.00072466	0.00015228	477.5	4.9777e-06	5.2217e-06	584.09	202.74	5.9962e-06	5.8523e-06	269.03	144.4	105.13	59.74	6.9309e-06	84.221	0.00051277	0.00027996	7.3264e-05	498.18	2.9558e-06	2.9409e-06	607.07	211.69	2.8973e-06	2.9465e-06	278.23	151.65	109.64	63.114	3.2725e-06	88.921	-66.372	-72.883	-92.931	-153.909	-10.413	-8.017	-154.083	-148.938	0.775	-26.340	-150.989	-147.100	-146.375	-141.928	-5.861	-144.092	-8191	255	
41300.898	1	1	0	0	0.20425	0.39195	0.078022	0.2628	0.27721	0.14258	0.036671	0.16398	0.041828	0.14958	0.045055	0.20289	0.22994	0.29346	0.1457	0.26302	-1.5292	-1.8188	-1.5417	-2.1771	-1.775	-1.6042	-2.2604	-1.5646	-1.7917	-2.0083	-1.4937	-2.0292	-1.5667	-1.6562	-1.9396	-1.8146	140.603	-47.618	27.321	179.152	-25.777	143.771	69.282	-165.559	-22.967	129.598	70.085	143.739	-74.738	185.399	49.458	175.472	0.000954	0.00048934	0.00018248	477.71	4.1144e-06	4.794e-06	583.88	203.13	5.2864e-06	4.7903e-06	267.15	145.16	105.08	59.7	6.3695e-06	84.741	0.00048925	0.00027175	7.384e-05	497.67	2.9116e-06	2.7973e-06	607.19	211.75	2.8131e-06	2.9572e-06	278.03	151.79	109.65	63.195	3.1731e-06	89.455	-66.733	-87.653	-80.549	-153.688	-18.113	-23.314	-154.531	-148.966	9.388	-11.497	-150.678	-147.436	-145.989	-141.820	2.750	-144.197	-8191	255	
41300.973	1	1	0	0	0.13919	0.15163	0.19118	0.11886	0.064137	0.22836	0.14484	0.14642	0.088977	0.061196	0.1617	0.14168	0.15604	0.033393	0.16428	0.15052	-1.3146	-1.8771	-1.4042	-1.7375	-1.7979	-1.8583	-2.2042	-1.9062	-1.6104	-1.9917	-1.5	-1.9312	-1.9417	-1.6271	-2.0812	-1.8042	180.886	92.089	-117.530	154.046	147.213	28.457	-146.046	-104.918	-83.907	-43.062	74.982	76.136	-130.233	80.568	-111.163	-156.117	0.0010149	0.00071031	0.00013308	477.9	5.1283e-06	5.884e-06	584.68	203.31	5.4169e-06	5.9648e-06	268.64	145.66	105.5	60.171	8.1392e-06	85.735	0.00050807	0.00027993	7.3636e-05	497.31	2.8097e-06	2.7799e-06	608.32	211.82	2.832e-06	2.9502e-06	279.4	152.99	110.24	63.546	3.0475e-06	90.442	-67.304	-84.939	-80.277	-153.673	-3.623	-15.920	-154.314	-148.804	3.106	-23.082	-150.844	-147.359	-146.242	-141.740	-11.743	-144.011	-8191	255	
41301.066	1	1	0	0	0.20033	0.067539	0.23586	0.27382	0.18672	0.12957	0.22878	0.10165	0.075128	0.22523	0.087229	0.081315	0.41862	0.22969	0.02442	0.14631	-1.2708	-2.0583	-1.7083	-1.9562	-1.7854	-1.5771	-1.9646	-1.6854	-1.725	-2	-1.6125	-1.9667	-2.0062	-1.5896	-1.8417	-2.0667	-64.203	158.658	37.956	-140.527	-16.069	-6.703	-157.836	37.941	19.562	76.043	181.084	-122.209	66.064	125.624	91.048	100.138	0.0010113	0.00071771	0.00013095	478.97	7.8748e-06	5.0151e-06	588.54	205.02	4.5234e-06	5.8916e-06	269.15	146.98	105.67	60.492	5.8547e-06	86.493	0.00051463	0.00028192	7.7924e-05	499.11	2.9416e-06	2.9501e-06	611.2	213.25	2.9145e-06	2.7809e-06	280.88	154.24	110.66	63.924	3.176e-06	91.349	-67.524	-76.391	-80.253	-153.650	-22.464	-18.907	-154.554	-149.026	10.890	-26.207	-151.150	-147.317	-146.266	-141.983	5.760	-143.836	-8191	255	
41301.188	1	1	0	0	0.23409	0.15715	0.096896	0.35986	0.033882	0.13248	0.097234	0.07412	0.080774	0.22829	0.38021	0.27735	0.095855	0.11183	0.12055	0.15056	-1.0104	-1.9792	-1.5208	-1.9208	-1.9937	-1.625	-2.275	-1.7646	-1.6229	-2.0208	-1.6938	-1.8312	-2.0104	-1.7146	-2.1042	-2.0729	45.601	-65.059	148.599	154.756	-91.490	-55.659	-164.023	-100.910	-102.324	-34.698	-149.384	49.427	-102.846	190.342	-92.185	163.737	0.0010304	0.00063464	0.00014139	482.8	4.0214e-06	5.8137e-06	587.63	204.64	5.8614e-06	6.892e-06	269.63	146.13	106.52	60.247	5.9949e-06	86.297	0.00052155	0.0002794	7.5217e-05	501.1	2.8334e-06	2.9776e-06	612.38	213.56	2.9324e-06	2.9159e-06	280.82	153.6	110.78	63.741	3.1215e-06	90.618	-65.756	-75.751	-84.248	-153.621	-16.203	-18.890	-154.363	-148.852	6.968	-26.991	-151.705	-147.339	-146.504	-141.917	-20.558	-144.319	-8191	255	
41301.285	1	1	0	0	0.2365	0.36698	0.13783	0.17722	0.27686	0.1244	0.1875	0.17455	0.16424	0.078544	0.10881	0.14367	0.075122	0.24195	0.1715	0.12707	-1.0979	-1.7292	-1.4688	-1.7062	-2.1229	-1.5604	-1.8062	-1.9146	-1.5792	-1.9937	-1.8687	-1.8104	-1.9021	-1.6125	-1.9833	-1.9542	-145.258	36.048	141.447	54.589	-132.519	16.689	146.092	182.523	132.773	124.466	109.684	116.616	-120.001	192.313	140.581	83.715	0.0010393	0.0006703	0.00019713	483.27	6.1499e-06	6.8086e-06	588.4	203.1	5.4312e-06	3.7922e-06	270.39	146.16	105.46	60.204	7.4155e-06	85.562	0.00052035	0.00025914	7.6566e-05	500.96	2.7951e-06	2.8989e-06	610.98	213.04	2.9593e-06	2.7739e-06	281.63	153.36	110.06	63.599	3.1066e-06	90.234	-67.035	-97.363	-65.611	-153.705	-8.187	-34.647	-154.184	-148.622	-3.863	-10.127	-151.216	-147.291	-146.095	-141.914	-10.994	-144.035	-8191	255	
41301.383	1	1	0	0	0.019302	0.19299	0.1739	0.22668	0.073115	0.26107	0.18129	0.11721	0.32012	0.088318	0.11023	0.13261	0.23933	0.27712	0.16972	0.12525	-1.1208	-1.9438	-1.6604	-1.75	-1.9917	-1.3479	-1.8438	-2.1167	-1.375	-2.0208	-1.7292	-1.7563	-1.9229	-1.6375	-1.7521	-1.9937	33.567	94.921	76.618	-52.813	134.710	-162.682	164.503	-91.826	-50.091	141.175	-94.814	-75.550	139.171	-145.188	92.784	-145.718	0.0010143	0.00058165	0.00014302	483.76	4.5219e-06	3.7444e-06	589.32	204.16	3.7763e-06	5.8033e-06	271.21	147.39	105.98	60.42	7.1974e-06	86.065	0.00052171	0.00025511	7.4259e-05	502.12	2.9158e-06	2.9075e-06	612.34	213.46	2.9711e-06	2.8392e-06	281.56	154.11	110.87	63.79	3.165e-06	90.843	-67.553	-97.263	-76.389	-153.523	-10.522	-41.959	-154.182	-148.640	-1.477	-16.429	-151.125	-147.314	-146.185	-141.861	-15.240	-144.081	-8191	255	
41301.477	1	1	0	0	0.08173	0.24578	0.058059	0.19803	0.40269	0.075635	0.098411	0.16844	0.16988	0.23557	0.073276	0.14262	0.12229	0.13329	0.10057	0.071713	-1.2042	-1.8021	-1.7083	-1.7729	-1.8104	-1.75	-1.9583	-2.1583	-1.5542	-1.8188	-1.7958	-1.6938	-2.1979	-1.6396	-1.8042	-2.1437	-51.626	-43.383	-114.302	-119.014	183.577	-147.152	-133.605	89.030	-78.004	-140.076	-35.926	93.139	105.712	154.781	191.813	188.158	0.0010137	0.00058629	0.00014349	483.01	7.3626e-06	6.6678e-06	593.77	205.48	5.0568e-06	6.3781e-06	270.4	147.84	106.9	60.697	6.9213e-06	87.1	0.00052101	0.00025684	7.6166e-05	501.87	2.8842e-06	2.9816e-06	615.45	213.97	3.0778e-06	2.8256e-06	282.47	154.67	111.42	64.148	3.2824e-06	91.542	-67.859	-82.177	-68.310	-153.914	-16.132	-8.709	-154.450	-149.137	7.743	-17.742	-150.613	-147.389	-146.426	-141.871	-4.762	-144.191	-8191	255	
41301.598	1	1	0	0	0.10566	0.06412	0.099775	0.063626	0.15037	0.149	0.12935	0.074704	0.23659	0.27104	0.24846	0.19087	0.13817	0.11909	0.10352	0.31905	-0.96667	-1.9	-1.8771	-1.5938	-1.9292	-1.7563	-1.7854	-2.0583	-1.6583	-2.0083	-1.8167	-1.7375	-1.9562	-1.725	-1.7417	-2.2229	-129.782	-5.780	-83.224	3.023	141.327	-159.705	-166.058	102.909	-134.363	36.856	182.392	155.304	83.279	111.946	-110.100	100.049	0.0010153	0.00074334	0.00013324	487.52	6.4788e-06	5.2287e-06	592.82	206.45	6.5647e-06	5.7204e-06	272.72	148.99	106.46	60.629	8.1152e-06	86.528	0.00052404	0.00026446	7.6948e-05	504.19	2.9854e-06	2.972e-06	616.57	214.7	3.1526e-06	2.8694e-06	283.35	155.33	111.34	64.089	3.2085e-06	91.067	-66.749	-95.907	-70.012	-153.695	-23.327	-31.983	-154.501	-148.702	0.516	-18.708	-150.797	-147.266	-146.333	-142.136	-15.793	-144.072	-8191	255	
41301.668	1	1	0	0	0.14928	0.4116	0.25892	0.037982	0.065546	0.12186	0.14502	0.11342	0.26421	0.20676	0.046655	0.014909	0.081565	0.32843	0.083883	0.11116	-1.15	-1.9542	-1.8708	-1.4125	-2.0021	-1.7021	-1.8229	-2.0583	-1.4375	-2.0625	-1.9708	-1.65	-2.1271	-1.7771	-1.6979	-2.2458	-3.398	36.148	145.023	-136.574	109.880	-99.939	58.899	95.398	90.985	37.212	45.079	-136.309	-153.438	-157.342	-47.322	29.083	0.001011	0.0003659	0.0001757	483.07	5.3838e-06	6.1876e-06	590.08	204.6	6.054e-06	7.2916e-06	269.09	147.13	106.16	60.243	5.5223e-06	85.78	0.00051454	0.00026762	7.8669e-05	504.08	2.8278e-06	3.0117e-06	614.54	214.19	3.0755e-06	2.9336e-06	281.2	153.75	110.71	63.695	3.1363e-06	90.132	-68.628	-95.623	-80.804	-153.827	-9.984	-19.302	-154.525	-149.057	1.719	-10.888	-151.280	-147.578	-146.495	-141.866	-24.856	-144.031	-8191	255	
41301.789	1	1	0	0	0.20185	0.12271	0.04184	0.21758	0.17664	0.1609	0.2834	0.076687	0.4149	0.41481	0.19701	0.080511	0.097026	0.21425	0.16299	0.17158	-1.0292	-1.8188	-1.9229	-1.6104	-2.0854	-1.8146	-1.4896	-2.1292	-1.6187	-1.7896	-2.0521	-1.5875	-1.9062	-1.9083	-1.5583	-2.0792	15.342	-141.653	11.287	-162.940	-57.221	-143.750	57.105	35.361	119.103	-120.679	98.002	-131.195	-56.529	173.231	13.821	113.597	0.0009984	0.00054067	0.00014631	483.77	7.0902e-06	5.7819e-06	588.34	204.86	5.489e-06	5.8152e-06	269.19	146.66	105.37	60.021	7.4881e-06	85.497	0.0005175	0.00026689	7.4175e-05	500.57	2.8393e-06	3.0681e-06	610.33	213.8	3.0411e-06	2.938e-06	280.02	153.38	110.51	63.506	3.3631e-06	90.16	-67.297	-90.798	-82.494	-153.432	-8.280	-24.437	-154.581	-149.090	14.514	-19.899	-150.848	-147.503	-146.333	-142.012	-15.493	-144.081	-8191	255	
41301.883	1	1	0	0	0.12486	0.16623	0.17623	0.13647	0.093197	0.14873	0.12839	0.090224	0.17195	0.091967	0.23132	0.41422	0.098668	0.18661	0.082554	0.20108	-0.96458	-1.6146	-1.9208	-1.8375	-1.9479	-1.9792	-1.5979	-1.9333	-1.75	-1.6354	-1.9813	-1.5875	-1.9562	-2.0208	-1.4604	-2.1188	119.763	-138.767	67.284	166.683	-78.925	-150.390	-51.929	140.491	-34.025	60.194	-159.456	94.111	29.062	140.585	157.831	168.628	0.0009748	0.0008623	0.00015016	485.26	4.5135e-06	5.2709e-06	588.79	204.59	5.4307e-06	4.7905e-06	270.79	147.33	106.39	60.442	6.9483e-06	86.234	0.00053311	0.00028435	7.7078e-05	501.67	2.9238e-06	3.094e-06	611.53	214.01	3.1775e-06	3.0387e-06	282.12	154.14	111.1	63.832	3.2817e-06	90.852	-65.731	-88.822	-71.239	-153.806	-1.795	-18.913	-154.452	-148.831	-2.335	-29.106	-151.145	-147.476	-146.375	-142.164	-11.166	-144.082	-8191	255	
41301.980	1	1	0	0	0.090383	0.20945	0.11812	0.096895	0.24077	0.23452	0.039115	0.054947	0.28161	0.17175	0.26088	0.11765	0.12062	0.27758	0.17286	0.35875	-1.2667	-1.5417	-2.0333	-1.5896	-1.9104	-1.7437	-1.5604	-1.9604	-1.5646	-1.675	-2.1792	-1.7687	-1.6625	-2.0896	-1.4	-1.9479	-125.131	-88.189	87.151	161.468	178.305	101.167	-67.807	0.061	165.195	37.691	-103.201	134.715	191.443	96.580	-136.837	133.871	0.0010041	0.00066113	0.0001611	482.47	6.1213e-06	6.3887e-06	590.42	205.97	6.7339e-06	5.5402e-06	271.41	148.25	106.63	60.819	7.4039e-06	87.257	0.00053037	0.00028026	7.7106e-05	501.69	3.0024e-06	3.0907e-06	613.15	214.65	3.1563e-06	3.0752e-06	283.58	155.35	111.34	64.294	3.3023e-06	91.88	-67.432	-89.768	-75.504	-153.696	-14.720	-18.673	-154.513	-148.682	7.021	-17.119	-151.050	-147.455	-146.491	-141.882	-20.124	-144.217	-8191	255	
41302.074	1	1	0	0	0.13014	0.26008	0.25137	0.20782	0.1286	0.24478	0.10698	0.22442	0.23674	0.19785	0.19352	0.35589	0.21131	0.21765	0.15719	0.42422	-1.3458	-1.7292	-1.825	-1.7417	-1.8167	-1.9854	-1.6354	-1.9417	-1.7792	-1.4604	-2.0375	-1.6479	-1.5667	-2	-1.4771	-1.9479	158.983	-31.905	60.534	-71.405	55.899	-0.512	171.975	101.084	-20.607	55.933	95.757	91.933	-29.391	126.631	-9.805	115.672	0.0010051	0.00074671	0.00013831	481.09	5.664e-06	4.8504e-06	590.52	205.38	6.0856e-06	5.5848e-06	269.44	147.87	107.08	60.414	6.5791e-06	85.695	0.00053033	0.00027986	7.7171e-05	503.02	2.9064e-06	3.0859e-06	615	214.8	3.1974e-06	2.9159e-06	282.6	154.7	111.4	63.915	3.31e-06	90.382	-68.081	-70.904	-88.000	-153.961	-16.117	-30.896	-154.418	-148.840	5.906	-23.270	-151.354	-147.335	-146.251	-142.030	-20.010	-144.136	-8191	255	
41302.172	1	1	0	0	0.099139	0.14427	0.14834	0.15067	0.13878	0.18556	0.073784	0.14049	0.031824	0.1392	0.30756	0.23765	0.084807	0.20379	0.091312	0.18896	-1.4083	-1.4708	-2.2125	-1.6354	-1.7938	-2.1604	-1.65	-2	-1.6479	-1.6688	-1.9646	-1.7667	-1.6542	-2.0083	-1.6792	-1.9583	-69.952	-7.137	77.832	113.744	-93.873	93.129	-27.138	152.732	8.017	-86.915	22.769	183.215	150.108	175.271	-2.834	-79.117	0.0010309	0.0006565	0.00014398	483.87	3.8878e-06	7.4792e-06	584.67	204.61	4.9859e-06	5.014e-06	270.49	146.76	106.23	60.259	5.9616e-06	85.664	0.00052402	0.00028036	7.1366e-05	502.66	2.8977e-06	2.9505e-06	610.24	214.07	3.1119e-06	3.0073e-06	280.74	153.62	110.71	63.811	3.3157e-06	90.132	-66.362	-94.589	-97.932	-153.896	-13.022	-14.564	-154.359	-148.755	5.977	-19.900	-151.312	-147.495	-146.171	-142.021	-9.733	-144.184	-8191	255	
41302.270	1	1	0	0	0.097243	0.23019	0.1488	0.19823	0.2621	0.34105	0.18138	0.33481	0.30232	0.05511	0.12833	0.25599	0.34691	0.4078	0.13999	0.11888	-1.5688	-1.2771	-1.8896	-1.8958	-1.6604	-2.1562	-1.7708	-1.8854	-2.1229	-1.5125	-2.1437	-1.9167	-1.7333	-2.1792	-1.7188	-1.9833	1.149	-71.051	-140.389	-166.003	-37.827	43.374	63.380	52.092	11.126	11.525	-51.253	151.250	-11.824	133.191	185.878	44.150	0.00097857	0.00073779	0.00011084	482.24	4.5639e-06	3.8862e-06	587.56	204.97	5.6579e-06	5.9107e-06	272.35	147.58	106.62	60.374	6.9364e-06	85.981	0.00051574	0.00029127	7.3729e-05	502.32	3.0532e-06	2.932e-06	611	214.11	3.0677e-06	3.0501e-06	282.03	154.29	111.34	63.866	3.3005e-06	90.804	-67.023	-93.657	-70.744	-153.833	4.761	-31.775	-154.405	-148.908	0.332	-17.912	-151.383	-147.396	-146.232	-141.786	-19.634	-144.154	-8191	255	
41302.363	1	1	0	0	0.24322	0.12607	0.19009	0.2133	0.34802	0.1209	0.24754	0.12099	0.37033	0.13424	0.074023	0.053273	0.12562	0.28149	0.10566	0.32459	-1.575	-1.4792	-1.9667	-1.8146	-1.5938	-2.2167	-1.6354	-1.7042	-2.0062	-1.6104	-1.8479	-1.7875	-1.5083	-2.2313	-1.6521	-1.6938	12.278	23.948	-96.656	119.874	-76.609	-6.359	129.948	51.021	-79.492	162.716	-22.562	83.936	143.496	168.025	-46.840	-163.607	0.00099316	0.00067056	0.00015855	483.95	5.5476e-06	6.9018e-06	593.17	204.9	6.3874e-06	5.2592e-06	272.49	148.32	107.59	60.369	6.5211e-06	86.594	0.00051906	0.00028665	7.5627e-05	503.22	2.9809e-06	3.0688e-06	614.14	214.8	3.2163e-06	3.1972e-06	283.32	155.26	111.56	64.054	3.5305e-06	91.319	-68.084	-79.132	-90.834	-153.850	3.057	-23.113	-154.366	-148.847	8.163	-24.698	-151.286	-147.240	-146.200	-141.860	-13.533	-144.190	-8191	255	
41302.461	1	1	0	0	0.064802	0.115	0.13473	0.18195	0.52466	0.13709	0.25963	0.29043	0.28782	0.16207	0.11349	0.29144	0.079104	0.35605	0.1087	0.21419	-1.6688	-1.4708	-1.6938	-1.9854	-1.7167	-1.9062	-1.8167	-1.875	-2.0625	-1.5646	-2.0042	-2.1125	-1.5333	-1.9792	-1.8979	-1.6729	-137.206	101.236	-48.261	36.133	11.171	-82.444	17.999	-160.815	33.559	20.672	150.928	136.719	129.205	108.783	154.178	137.607	0.0010089	0.0004401	0.00015983	482.26	7.1197e-06	5.1337e-06	595.15	205.23	6.8119e-06	5.3528e-06	271.1	147.95	106.58	60.35	8.757e-06	85.844	0.00052834	0.00028419	7.6603e-05	503.26	2.9805e-06	2.886e-06	615.94	214.61	3.1183e-06	3.0674e-06	283.32	155.01	111.3	63.843	3.4788e-06	90.631	-67.734	-91.571	-76.507	-153.483	-0.006	-32.922	-154.450	-148.832	5.629	-36.833	-150.941	-147.325	-146.120	-142.088	-8.697	-144.020	-8191	255	
41302.559	1	1	0	0	0.24532	0.27538	0.24169	0.13621	0.31199	0.15658	0.38697	0.2311	0.1177	0.38234	0.19124	0.11642	0.10659	0.16804	0.082753	0.18388	-1.4229	-1.575	-1.7604	-1.9167	-1.6292	-2.1417	-1.7188	-1.7375	-2.0062	-1.6021	-1.8188	-1.9813	-1.5312	-1.8667	-1.6542	-1.7542	95.187	-114.650	106.540	-45.886	72.091	-133.111	11.786	171.459	-55.929	-83.005	186.507	52.444	108.579	-131.622	113.665	179.196	0.0010055	0.00063905	0.00016493	484.35	4.312e-06	7.0573e-06	586.5	203.78	3.9472e-06	4.547e-06	268.55	146.14	105.84	59.933	5.6432e-06	85.324	0.00052375	0.00028771	7.3794e-05	501.87	2.9412e-06	2.89e-06	609.5	213.37	2.83e-06	2.9439e-06	280.7	152.88	110.32	63.488	3.396e-06	89.789	-67.814	-73.804	-69.825	-153.953	-23.968	-22.041	-154.383	-149.253	9.373	-24.563	-151.077	-147.212	-146.134	-141.932	-21.675	-144.243	-8191	255	
41302.676	1	1	0	0	0.22511	0.16107	0.10844	0.099928	0.19195	0.12645	0.058931	0.16499	0.21874	0.11245	0.28962	0.21314	0.15451	0.19574	0.16471	0.22702	-1.5167	-1.6063	-1.6313	-2.1521	-1.4792	-1.7229	-1.9188	-1.5771	-2.0062	-1.5333	-1.6521	-2.2125	-1.6604	-1.9208	-2.0917	-1.6646	-10.978	101.468	-139.727	-29.969	31.943	161.549	151.556	147.075	-39.120	-49.310	94.319	178.290	104.077	136.429	1.086	125.758	0.0010268	0.00069679	0.00020099	480.08	5.8375e-06	3.9658e-06	588.69	204.73	6.9405e-06	4.0189e-06	269.34	146.91	106.44	60.321	7.655e-06	85.836	0.00052562	0.00028192	7.7199e-05	500.76	2.9694e-06	2.9167e-06	609.68	213.41	3.0698e-06	2.9911e-06	279.97	153.62	110.61	63.729	3.3847e-06	90.519	-68.037	-71.937	-79.874	-153.627	-24.709	-18.787	-154.261	-148.947	-2.471	-23.132	-150.674	-147.286	-146.399	-141.983	-19.855	-144.322	-8191	255	
41302.773	1	1	0	0	0.13547	0.36927	0.098087	0.051653	0.069413	0.16116	0.26295	0.10165	0.074809	0.2021	0.20703	0.32812	0.11343	0.29407	0.27093	0.16314	-1.4333	-1.6979	-1.65	-2.0646	-1.7938	-1.8396	-1.9396	-1.7708	-1.9104	-1.9479	-1.5604	-2.2812	-1.7021	-2.0542	-1.9312	-1.5979	176.330	-50.752	-76.997	-49.627	-24.545	-22.805	59.763	171.060	164.226	111.351	181.929	-153.690	-50.260	74.302	7.000	164.783	0.0010394	0.00057109	0.00012869	485.92	6.7823e-06	5.5088e-06	590.34	205.77	6.2601e-06	5.5593e-06	271.09	147.78	107.07	60.573	8.8076e-06	86.579	0.00052164	0.00028585	7.8687e-05	503.52	3.096e-06	2.9368e-06	613.47	215.14	3.0687e-06	3.0479e-06	282.76	154.78	111.54	64.113	3.4144e-06	91.535	-67.391	-90.472	-76.815	-153.832	-29.309	-13.728	-154.287	-149.078	4.320	-5.758	-150.846	-147.345	-146.471	-141.971	-5.168	-143.938	-8191	255	
41302.867	1	1	0	0	0.21647	0.018381	0.14699	0.12374	0.0069716	0.091094	0.10929	0.14589	0.14894	0.28902	0.18778	0.072933	0.15198	0.16622	0.12473	0.27302	-1.4604	-1.8	-1.4958	-1.9458	-1.6979	-1.7625	-2.1562	-1.5208	-2.2083	-1.8792	-1.6	-2.3688	-1.775	-1.7646	-2.0167	-1.8917	-135.204	-64.651	-102.830	123.990	92.452	91.500	-120.524	126.673	30.231	-40.505	-5.654	166.067	168.468	132.389	-159.997	82.189	0.0010497	0.00069361	0.00013665	485.06	6.2057e-06	7.2405e-06	595.47	206.64	5.191e-06	5.9472e-06	270.75	149.14	107.42	60.899	1.0408e-05	86.892	0.00051888	0.00030142	7.8408e-05	504.57	3.0866e-06	2.87e-06	616.07	215.4	2.865e-06	2.952e-06	283.96	156.01	111.98	64.357	3.3203e-06	91.883	-67.555	-80.126	-76.832	-154.019	-6.227	-18.586	-154.370	-148.964	-13.455	-15.572	-151.216	-147.361	-146.227	-141.992	-18.805	-144.073	-8191	255	
41302.965	1	1	0	0	0.13422	0.087608	0.29996	0.072006	0.13088	0.088655	0.20827	0.053869	0.23218	0.090285	0.14299	0.25497	0.17683	0.21099	0.22171	0.3785	-1.4521	-1.8646	-1.5125	-1.9646	-1.6792	-1.6771	-2.1417	-1.5458	-1.8833	-1.85	-1.4729	-2.0292	-1.7854	-1.7229	-2.0292	-1.7021	146.727	166.376	4.113	89.710	-110.071	-40.585	168.592	-25.171	-7.095	-102.430	-5.884	94.869	-165.959	181.267	138.768	-115.005	0.0010206	0.00057764	0.00014883	486.05	6.2621e-06	4.1315e-06	593.45	204.76	5.2571e-06	5.0087e-06	270.76	147.39	106.34	60.65	6.4947e-06	85.598	0.00052798	0.00028429	7.6417e-05	503.68	3.0282e-06	3.0198e-06	613.91	214.39	2.9916e-06	2.9568e-06	281.94	154.58	111.59	63.927	3.3284e-06	90.482	-66.323	-94.033	-76.361	-153.662	-15.375	-16.308	-154.290	-148.636	-5.522	-24.622	-150.748	-147.351	-146.115	-142.059	-17.174	-144.137	-8191	255	
41303.062	1	1	0	0	0.012681	0.26572	0.23975	0.079196	0.14403	0.19627	0.10333	0.059322	0.20137	0.14588	0.29747	0.32416	0.19725	0.18492	0.17772	0.20775	-1.2979	-2.0812	-1.4958	-1.9062	-1.8125	-1.6396	-2.1875	-1.5729	-2.0708	-1.9146	-1.5958	-2.0875	-1.9042	-1.8167	-2.0979	-1.8292	-25.856	128.142	61.305	138.038	18.090	141.573	-10.555	148.239	32.045	97.079	14.423	89.244	-59.835	173.354	177.370	79.495	0.0010274	0.00069209	0.00014408	483.37	4.6376e-06	7.2667e-06	589.39	206.98	4.863e-06	4.1663e-06	268.11	146.99	106.27	60.507	8.4714e-06	85.903	0.00051422	0.00027354	7.7227e-05	503.23	3.0195e-06	2.9816e-06	611.26	215.36	2.9478e-06	2.8174e-06	281.77	154.3	111.12	64.001	3.2736e-06	90.794	-67.331	-91.553	-83.625	-153.932	11.206	-37.621	-154.299	-148.821	14.492	-17.573	-151.135	-147.255	-146.335	-142.012	-20.670	-144.127	-8191	255	
41303.156	1	1	0	0	0.10168	0.14742	0.10971	0.089186	0.16389	0.24336	0.15751	0.10135	0.084368	0.20479	0.27668	0.039688	0.086988	0.2796	0.20345	0.3376	-1.3	-2.0687	-1.6729	-2.0042	-1.9292	-1.4917	-2.1583	-1.7083	-1.775	-2.0167	-1.5604	-2.0771	-1.7917	-1.7083	-1.9167	-1.9937	-9.301	-165.598	-140.926	-131.167	168.917	114.170	-105.109	-18.989	-50.460	42.320	-165.169	-10.677	21.977	181.477	-77.827	90.535	0.0010049	0.00068547	0.00015609	486.28	6.2387e-06	5.0693e-06	592.12	206.59	5.7578e-06	5.3256e-06	273.36	148.95	106.78	60.742	8.8675e-06	86.861	0.00051157	0.00027304	7.9357e-05	505.04	2.8473e-06	2.965e-06	614.78	216.25	3.0836e-06	2.9974e-06	283.43	155.88	112.03	64.286	3.2768e-06	91.638	-67.002	-94.037	-83.531	-153.708	-9.485	-25.029	-154.307	-148.769	1.022	-21.610	-151.417	-147.219	-146.469	-141.846	-17.112	-144.058	-8191	255	
41303.277	1	1	0	0	0.35229	0.090217	0.04018	0.30932	0.16056	0.08005	0.21897	0.17706	0.20777	0.065871	0.25195	0.22037	0.24876	0.30679	0.041132	0.18663	-1.4333	-1.9312	-1.425	-1.8896	-1.8708	-1.5187	-2.0646	-1.7396	-1.7396	-2.0563	-1.5896	-1.7958	-1.9604	-1.6	-2.0417	-1.7583	11.525	171.288	8.250	79.224	-156.983	21.110	85.674	86.622	-28.555	189.769	119.945	164.873	65.900	161.199	-72.958	132.005	0.0010141	0.00082832	0.00016199	487.33	6.0568e-06	6.4951e-06	594.71	208.17	4.1067e-06	4.2685e-06	274.67	149.8	107.58	61.05	8.9329e-06	87.109	0.00052119	0.00028382	8.1813e-05	506	2.9374e-06	3.0777e-06	617.14	217.19	3.0832e-06	2.9937e-06	285.86	156.56	112.53	64.614	3.3362e-06	92.11	-67.749	-92.722	-68.963	-153.525	-28.780	-22.326	-154.303	-148.840	23.925	-25.003	-151.252	-147.472	-146.337	-142.099	-11.248	-144.149	-8191	255	
41303.371	1	1	0	0	0.37027	0.024972	0.38339	0.039735	0.076195	0.094483	0.31245	0.10005	0.069881	0.14694	0.039567	0.37098	0.1332	0.10444	0.1197	0.19633	-1.1271	-2.075	-1.5396	-1.9417	-2.0333	-1.65	-1.9958	-1.8625	-1.6417	-1.9333	-1.8729	-1.8312	-2.1229	-1.7062	-2.0896	-1.875	-77.494	-26.498	0.812	152.620	-69.338	-130.728	140.462	-121.193	-45.147	-86.778	70.317	135.906	156.698	-160.437	-54.693	-159.467	0.001042	0.00058544	0.00021499	491.07	6.6437e-06	6.0996e-06	597.01	207.81	5.4486e-06	5.0243e-06	275.11	150.25	108.28	60.964	6.3945e-06	86.99	0.0005315	0.00028419	7.7217e-05	508.3	2.9346e-06	2.9798e-06	621.1	217.14	3.0522e-06	2.9318e-06	285.9	157.29	112.61	64.559	3.1954e-06	91.692	-68.157	-74.745	-92.694	-153.746	-6.904	-10.811	-154.532	-149.045	9.807	-31.777	-151.157	-147.166	-146.503	-141.977	-1.587	-144.169	-8191	255	
41303.469	1	1	0	0	0.14804	0.088942	0.24302	0.23225	0.19782	0.18994	0.027812	0.15159	0.19858	0.12065	0.26832	0.41263	0.14762	0.23145	0.18584	0.06173	-1.1792	-1.9	-1.7292	-1.8208	-1.9354	-1.5083	-2.0354	-1.9562	-1.5812	-2.0646	-1.85	-1.9167	-1.9521	-1.7354	-1.6125	-2.1167	-17.748	-99.807	95.022	-50.284	20.784	-50.272	42.894	-103.827	74.337	89.177	13.709	135.053	167.334	93.330	-141.466	-27.634	0.0010429	0.00054694	0.00018171	486	5.8846e-06	5.087e-06	596.11	207.27	4.9185e-06	4.8049e-06	270.65	148.55	108.21	60.884	9.0126e-06	86.543	0.00052408	0.00027341	7.7143e-05	505.31	3.0396e-06	3.041e-06	616.62	215.99	3.0718e-06	2.9764e-06	282.64	155.6	112.39	64.286	3.1947e-06	91.239	-66.573	-86.262	-86.378	-153.901	3.495	-36.297	-154.733	-148.999	16.955	-30.077	-151.619	-147.364	-146.598	-141.894	-22.092	-144.111	-8191	255	
41303.566	1	1	0	0	0.11414	0.11245	0.039443	0.30802	0.14534	0.23594	0.47035	0.15984	0.10634	0.15011	0.12284	0.18695	0.095967	0.43278	0.0494	0.047856	-1.2313	-1.9896	-1.7354	-1.5271	-1.9688	-1.7458	-1.9854	-1.9125	-1.4521	-2.0542	-1.8875	-1.7896	-1.8792	-1.8708	-1.6729	-1.9979	16.277	-32.269	-125.359	132.658	33.370	-29.337	94.177	141.797	-166.544	69.949	181.605	175.697	79.330	183.550	-36.098	143.215	0.0010385	0.00053818	0.00012484	484.8	5.7831e-06	4.8388e-06	593.45	206.93	6.212e-06	5.8162e-06	273.51	148.66	107.76	61.056	8.4772e-06	86.866	0.00054128	0.00027208	8.0855e-05	505.77	2.9273e-06	2.9568e-06	615.22	216.36	3.1364e-06	2.889e-06	284.68	156.25	112.31	64.562	3.2966e-06	91.872	-67.177	-59.295	-80.714	-153.967	-0.927	-24.423	-154.378	-148.844	16.220	-26.082	-151.095	-147.356	-146.203	-142.062	-19.948	-144.117	-8191	255	
#DATA ENDS
