BOXY.EXE: ISS Imagent and Oximeter Data Acquisition Program Version 0.80
Ascii Record File

#ACQ INFORMATION
2  Detector Channels 
16  External MUX Channels 
1  Auxiliary Channels 
5000  Waveform (CCF) Frequency (Hz)
1  Waveforms Skipped 
30  Waveforms Averaged 
1  Cycles Averaged 
16  Acquisitions per Waveform 
10.0806  Updata Rate (Hz) 

#FILE INFORMATION
TRUE -- External MUX Channel results are PARSED.
FALSE -- AC DC and Phase are NOT grouped.
TRUE -- Companion Program Settings File CREATED.
FALSE -- AC data not excluded
FALSE -- DC data not excluded
FALSE -- Phase data not excluded
FALSE -- Auxillary Chn. data not excluded
Tab delimiters

#CALIBRATION STATE
TRUE -- Waveform Calibration Values APPLIED.


#AUX CALIBRATION VALUES
Val Type	aux-1	

Term	1.0000e+00	
Factor	0.0000e+00	


#WF CALIBRATION VALUES
A = Detector Channel
Val Type	A-AC1	A-AC2	A-AC3	A-AC4	A-AC5	A-AC6	A-AC7	A-AC8	A-AC9	A-AC10	A-AC11	A-AC12	A-AC13	A-AC14	A-AC15	A-AC16	A-DC1	A-DC2	A-DC3	A-DC4	A-DC5	A-DC6	A-DC7	A-DC8	A-DC9	A-DC10	A-DC11	A-DC12	A-DC13	A-DC14	A-DC15	A-DC16	A-Ph1	A-Ph2	A-Ph3	A-Ph4	A-Ph5	A-Ph6	A-Ph7	A-Ph8	A-Ph9	A-Ph10	A-Ph11	A-Ph12	A-Ph13	A-Ph14	A-Ph15	A-Ph16	

Term	0.00000e+00	0.00000e+00	0.00000e+00	0.00000e+00	0.00000e+00	0.00000e+00	0.00000e+00	0.00000e+00	0.00000e+00	0.00000e+00	0.00000e+00	0.00000e+00	0.00000e+00	0.00000e+00	0.00000e+00	0.00000e+00	0.00000e+00	0.00000e+00	0.00000e+00	0.00000e+00	0.00000e+00	0.00000e+00	0.00000e+00	0.00000e+00	0.00000e+00	0.00000e+00	0.00000e+00	0.00000e+00	0.00000e+00	0.00000e+00	0.00000e+00	0.00000e+00	0.00000e+00	0.00000e+00	0.00000e+00	0.00000e+00	0.00000e+00	0.00000e+00	0.00000e+00	0.00000e+00	0.00000e+00	0.00000e+00	0.00000e+00	0.00000e+00	0.00000e+00	0.00000e+00	0.00000e+00	0.00000e+00	
Factor	1.00000e+00	1.00000e+00	1.00000e+00	1.00000e+00	1.00000e+00	1.00000e+00	1.00000e+00	1.00000e+00	1.00000e+00	1.00000e+00	1.00000e+00	1.00000e+00	1.00000e+00	1.00000e+00	1.00000e+00	1.00000e+00	1.00000e+00	1.00000e+00	1.00000e+00	1.00000e+00	1.00000e+00	1.00000e+00	1.00000e+00	1.00000e+00	1.00000e+00	1.00000e+00	1.00000e+00	1.00000e+00	1.00000e+00	1.00000e+00	1.00000e+00	1.00000e+00	X	X	X	X	X	X	X	X	X	X	X	X	X	X	X	X	

B = Detector Channel
Val Type	B-AC1	B-AC2	B-AC3	B-AC4	B-AC5	B-AC6	B-AC7	B-AC8	B-AC9	B-AC10	B-AC11	B-AC12	B-AC13	B-AC14	B-AC15	B-AC16	B-DC1	B-DC2	B-DC3	B-DC4	B-DC5	B-DC6	B-DC7	B-DC8	B-DC9	B-DC10	B-DC11	B-DC12	B-DC13	B-DC14	B-DC15	B-DC16	B-Ph1	B-Ph2	B-Ph3	B-Ph4	B-Ph5	B-Ph6	B-Ph7	B-Ph8	B-Ph9	B-Ph10	B-Ph11	B-Ph12	B-Ph13	B-Ph14	B-Ph15	B-Ph16	

Term	0.00000e+00	0.00000e+00	0.00000e+00	0.00000e+00	0.00000e+00	0.00000e+00	0.00000e+00	0.00000e+00	0.00000e+00	0.00000e+00	0.00000e+00	0.00000e+00	0.00000e+00	0.00000e+00	0.00000e+00	0.00000e+00	0.00000e+00	0.00000e+00	0.00000e+00	0.00000e+00	0.00000e+00	0.00000e+00	0.00000e+00	0.00000e+00	0.00000e+00	0.00000e+00	0.00000e+00	0.00000e+00	0.00000e+00	0.00000e+00	0.00000e+00	0.00000e+00	-3.28693e+01	-1.32896e+02	-1.28227e+02	-1.84331e+02	-5.50572e+01	-6.76425e+01	-1.55816e+02	-1.62015e+02	-2.49983e+01	-7.00590e+01	-1.85569e+02	-1.70510e+02	-1.86375e+02	-1.76893e+02	-4.33464e+01	-1.49751e+02	
Factor	2.47962e-05	2.18224e-04	5.54421e-05	2.29676e-01	2.20983e-06	2.16624e-06	1.69630e-01	5.37163e-02	1.72526e-06	2.07229e-06	2.26844e-01	3.20966e-02	6.82822e-02	9.64419e-03	2.46265e-06	1.39987e-02	1.08586e-05	1.59674e-05	4.46559e-06	1.17077e-01	1.66956e-07	1.78009e-07	8.13498e-02	2.74856e-02	1.61655e-07	1.76989e-07	1.11723e-01	1.59859e-02	3.49321e-02	4.98455e-03	1.69818e-07	7.00431e-03	X	X	X	X	X	X	X	X	X	X	X	X	X	X	X	X	



#DISTANCE SETTINGS
A = Detector Channel
A-1	A-2	A-3	A-4	A-5	A-6	A-7	A-8	A-9	A-10	A-11	A-12	A-13	A-14	A-15	A-16	

2.5000e+00	3.0000e+00	2.5000e+00	3.0000e+00	2.0000e+00	3.0000e+00	1.5000e+00	3.0000e+00	3.0000e+00	3.0000e+00	3.0000e+00	3.0000e+00	3.0000e+00	3.0000e+00	1.5000e+00	3.0000e+00	

B = Detector Channel
B-1	B-2	B-3	B-4	B-5	B-6	B-7	B-8	B-9	B-10	B-11	B-12	B-13	B-14	B-15	B-16	

1.0000e+01	1.0000e+01	1.0000e+01	1.4400e+00	1.0000e+01	1.0000e+01	1.5100e+00	1.9400e+00	1.0000e+01	1.0000e+01	1.9900e+00	2.4900e+00	2.4100e+00	2.9000e+00	1.0000e+01	2.9800e+00	




#DATA BEGINS
time	group	step	mark	flag	A-AC1	A-AC2	A-AC3	A-AC4	A-AC5	A-AC6	A-AC7	A-AC8	A-AC9	A-AC10	A-AC11	A-AC12	A-AC13	A-AC14	A-AC15	A-AC16	A-DC1	A-DC2	A-DC3	A-DC4	A-DC5	A-DC6	A-DC7	A-DC8	A-DC9	A-DC10	A-DC11	A-DC12	A-DC13	A-DC14	A-DC15	A-DC16	A-Ph1	A-Ph2	A-Ph3	A-Ph4	A-Ph5	A-Ph6	A-Ph7	A-Ph8	A-Ph9	A-Ph10	A-Ph11	A-Ph12	A-Ph13	A-Ph14	A-Ph15	A-Ph16	B-AC1	B-AC2	B-AC3	B-AC4	B-AC5	B-AC6	B-AC7	B-AC8	B-AC9	B-AC10	B-AC11	B-AC12	B-AC13	B-AC14	B-AC15	B-AC16	B-DC1	B-DC2	B-DC3	B-DC4	B-DC5	B-DC6	B-DC7	B-DC8	B-DC9	B-DC10	B-DC11	B-DC12	B-DC13	B-DC14	B-DC15	B-DC16	B-Ph1	B-Ph2	B-Ph3	B-Ph4	B-Ph5	B-Ph6	B-Ph7	B-Ph8	B-Ph9	B-Ph10	B-Ph11	B-Ph12	B-Ph13	B-Ph14	B-Ph15	B-Ph16	aux-1	digaux	

41468.840	1	1	0	768	0.21939	0.16725	0.45751	0.3271	0.26581	0.12489	0.22535	0.37907	0.20954	0.19176	0.23383	0.1259	0.014966	0.38267	0.30757	0.14962	-1.4125	-1.6521	-2.0229	-1.6458	-1.9917	-2.0021	-1.8458	-2.2229	-1.9167	-2.1125	-2.0938	-1.8062	-1.9062	-2.2854	-1.5979	-2.4292	206.802	75.443	21.803	197.323	116.116	94.055	182.964	180.549	3.038	-36.416	14.829	237.717	0.210	258.282	-76.667	153.946	0.00053466	0.0007877	0.00019345	689.06	6.6103e-06	6.1584e-06	768.56	293.66	3.8385e-06	5.6371e-06	341	171.75	126.26	63.079	5.6948e-06	97.037	0.00043385	0.0002461	6.9952e-05	713.61	2.6236e-06	2.7228e-06	796.83	306.65	2.7821e-06	2.5361e-06	355.67	180.35	133.04	66.475	3.0543e-06	101.7	-72.733	-18.514	-16.539	-83.776	52.016	43.647	-84.980	-78.817	88.043	50.125	-81.018	-76.950	-74.507	-71.494	91.740	-73.933	-8191	255	
41468.934	1	1	0	0	0.19727	0.27204	0.21381	0.14493	0.22994	0.18702	0.32969	0.26337	0.12812	0.25188	0.10519	0.24796	0.16822	0.18555	0.18492	0.1813	-1.5771	-1.7271	-2.0292	-1.775	-1.9354	-2.075	-1.8083	-2.3083	-2.2562	-1.7188	-2.3354	-2.0146	-1.9208	-2.3979	-1.6896	-2.3708	-60.305	132.167	38.153	201.680	27.945	-30.071	211.322	235.570	153.911	189.399	150.460	177.497	199.597	158.771	135.534	188.450	0.00054553	0.00068954	0.00016654	686.95	5.9769e-06	6.5243e-06	762.91	290.74	2.5883e-06	6.443e-06	334.56	166.35	122.83	60.627	5.5441e-06	93.031	0.00043455	0.00024101	6.8649e-05	712.53	2.5461e-06	2.7228e-06	789.03	303.02	2.8229e-06	2.5553e-06	348.41	174.73	129.51	64.117	3.0921e-06	97.645	-75.147	-4.108	-12.266	-83.995	47.449	42.512	-84.837	-78.636	67.040	66.964	-80.565	-76.767	-74.560	-71.369	71.308	-73.786	-8191	255	
41469.031	1	1	0	0	0.0492	0.10853	0.18485	0.11873	0.017081	0.21694	0.19	0.1439	0.22008	0.15144	0.058904	0.23462	0.42415	0.47659	0.23429	0.13646	-1.5854	-1.725	-2.2708	-1.9708	-1.8875	-2.2542	-1.9542	-2.3521	-2.0542	-1.8687	-2.4708	-2.1667	-1.9708	-2.3708	-1.8687	-2.2792	-89.034	104.252	-78.795	-34.736	92.496	79.676	177.728	-51.446	43.526	137.800	140.241	210.910	161.154	227.017	78.734	169.325	0.00051542	0.00070615	0.00018746	681.27	8.6229e-06	7.2782e-06	752.18	287.72	3.6625e-06	6.2604e-06	331.65	166.5	122.78	60.794	5.2969e-06	93.735	0.0004378	0.00024949	6.6844e-05	705.89	2.7276e-06	2.6605e-06	780.84	300.64	2.9795e-06	2.7046e-06	346.63	174.7	129.62	64.163	3.0744e-06	98.523	-74.815	-1.763	-11.554	-84.005	59.448	46.244	-84.937	-78.686	96.417	51.834	-80.728	-76.685	-74.570	-71.290	63.239	-73.920	-8191	255	
41469.129	1	1	0	0	0.07668	0.11773	0.12766	0.2945	0.23411	0.090029	0.11008	0.10142	0.18099	0.26624	0.21256	0.40659	0.17506	0.18222	0.20105	0.13794	-1.7583	-1.8417	-2.2167	-1.975	-1.7958	-2.275	-2.0979	-2	-2.1729	-1.7687	-2.1083	-2.0563	-1.7417	-2.3438	-1.8021	-2.2292	181.577	-29.586	220.776	260.501	253.948	178.252	214.220	227.251	140.756	89.246	-62.233	204.698	258.129	40.362	-9.239	248.493	0.00050787	0.00081242	0.00015876	681.09	6.2306e-06	5.9303e-06	758.33	289.04	3.2009e-06	5.625e-06	336.41	168.2	123.59	61.495	7.6291e-06	95.884	0.00043133	0.0002469	6.5542e-05	705.57	2.6501e-06	2.5834e-06	787.37	301.12	2.8317e-06	2.7264e-06	349.02	176.63	130.41	64.819	3.0698e-06	100.78	-74.314	-21.780	-24.575	-83.821	66.114	59.212	-84.889	-78.611	56.305	48.610	-80.542	-76.809	-74.015	-71.573	64.645	-73.805	-8191	255	
41469.223	1	1	0	0	0.081706	0.3356	0.048832	0.26642	0.30848	0.087632	0.12333	0.26278	0.23535	0.19316	0.24122	0.10039	0.17256	0.27889	0.12133	0.17239	-1.6146	-1.6354	-2.2417	-2.0312	-1.7208	-2.3354	-2.1771	-2.0854	-2.3146	-1.7687	-2.2167	-2.1604	-1.8479	-2.4375	-1.8146	-2.1271	51.212	91.151	167.064	158.578	99.869	136.697	187.221	83.686	74.060	-4.125	155.782	201.044	158.503	247.449	245.291	217.255	0.00052187	0.00066809	0.00019796	681.66	4.2017e-06	5.7422e-06	768.32	291.06	3.5947e-06	7.1047e-06	343.65	172.11	124.79	62.47	4.8824e-06	98.499	0.00043511	0.00024423	6.5616e-05	705.48	2.5589e-06	2.5374e-06	793.59	303.54	2.7387e-06	2.6253e-06	355.37	180.31	131.85	66.045	2.9513e-06	103.47	-72.064	-19.516	-5.645	-83.911	51.560	51.088	-84.907	-78.691	79.463	51.582	-80.698	-76.901	-74.611	-71.367	60.699	-73.914	-8191	255	
41469.320	1	1	0	0	0.11938	0.30883	0.26182	0.053135	0.17164	0.16984	0.15868	0.20157	0.35108	0.11096	0.19012	0.14089	0.32028	0.35221	0.22853	0.026998	-1.9438	-1.6417	-2.0875	-2.1458	-1.7437	-1.9854	-2.1583	-2.0438	-2.2729	-1.9167	-2.0583	-2.2333	-1.65	-2.4417	-1.8188	-1.9312	127.819	148.431	139.156	255.510	44.947	113.696	204.967	187.542	17.077	23.259	16.434	-37.511	188.152	-82.826	129.441	261.546	0.00052735	0.00073672	0.00019095	682.62	5.5646e-06	6.6443e-06	771.33	293.22	3.4388e-06	7.4296e-06	342.78	174.31	127.5	63.454	7.0699e-06	98.612	0.000426	0.00024134	6.0509e-05	706.93	2.5496e-06	2.3861e-06	798.43	305.76	2.6713e-06	2.5431e-06	357.09	182.69	133.67	67.081	2.7981e-06	103.56	-73.959	2.547	-15.258	-84.056	58.569	41.820	-84.835	-78.745	50.861	39.448	-81.047	-76.922	-74.427	-71.626	75.012	-73.898	-8191	255	
41469.441	1	1	0	0	0.064285	0.21339	0.09172	0.024432	0.18764	0.20792	0.087328	0.13442	0.11515	0.072001	0.022508	0.18261	0.13184	0.21322	0.16983	0.090603	-1.9521	-2.0333	-2.0521	-2.3625	-1.6833	-2.0646	-2.1417	-2.075	-2.4292	-1.9188	-2.0854	-2.1896	-1.8833	-2.2438	-1.9896	-2.1917	169.009	177.201	227.167	64.652	131.482	156.415	146.805	-75.166	116.166	146.037	108.113	237.051	-81.199	240.107	245.762	179.264	0.00054051	0.00084838	0.00019913	676.91	7.2039e-06	7.1086e-06	761.08	293.04	4.4416e-06	6.7948e-06	341.35	173.66	126.15	64.175	7.0592e-06	99.111	0.00041901	0.00023559	5.9569e-05	702.39	2.3767e-06	2.1773e-06	786.59	305.15	2.4555e-06	2.4133e-06	354.37	181.95	133.43	67.719	2.7511e-06	104.19	-75.733	-18.527	-10.757	-83.627	65.263	46.911	-84.990	-78.478	80.312	41.303	-80.844	-77.063	-75.066	-71.708	65.955	-74.122	-8191	255	
41469.535	1	1	0	0	0.19206	0.20672	0.10253	0.052197	0.21298	0.085644	0.066266	0.34341	0.10204	0.12702	0.31817	0.239	0.078917	0.17301	0.027374	0.2843	-1.8604	-1.8042	-2.15	-2.2625	-1.8458	-2.2687	-2.0917	-1.8875	-2.2687	-2.0312	-2.0479	-2.4479	-1.8771	-2.1896	-2.1792	-2.1625	180.106	-66.320	-20.863	14.341	223.627	-32.361	130.256	151.623	247.174	-45.626	180.957	262.873	-20.815	198.132	-24.738	166.107	0.0005403	0.00062944	0.00016995	678.63	7.9201e-06	8.0551e-06	756.7	292.59	2.7218e-06	5.4222e-06	339.27	175.15	128.17	64.588	6.9164e-06	100.25	0.00041609	0.00022191	5.5317e-05	702.72	2.4076e-06	2.1758e-06	785.96	305.59	2.3497e-06	2.3274e-06	355.08	183.49	134.47	68.356	2.836e-06	105.37	-76.810	-17.578	-21.816	-84.109	61.135	46.975	-84.853	-78.741	72.956	41.730	-80.661	-77.050	-74.775	-71.549	71.794	-74.178	-8191	255	
41469.633	1	1	0	0	0.03493	0.093999	0.195	0.15504	0.20071	0.16262	0.097899	0.2814	0.25659	0.12075	0.069268	0.30778	0.23394	0.1515	0.081638	0.20594	-1.8042	-1.9729	-1.7708	-2.4229	-1.7542	-1.9458	-2.1125	-1.7792	-2.3146	-1.9062	-1.7812	-2.2896	-1.6521	-2.2188	-2.1771	-1.9062	204.031	40.505	-46.311	206.776	50.168	-37.864	-24.852	185.614	42.851	240.873	-45.244	229.434	46.000	-68.327	233.275	211.781	0.00057176	0.00060773	0.00017829	678.41	6.5731e-06	6.647e-06	763.05	294.29	4.6097e-06	5.5936e-06	342.66	175.51	128.1	64.992	4.7874e-06	100.85	0.00041378	0.00022966	5.8183e-05	704.21	2.4483e-06	2.2032e-06	790.36	306.59	2.4706e-06	2.3912e-06	356.29	184.32	134.89	68.604	2.6127e-06	106.06	-73.355	-2.543	2.844	-83.976	62.686	59.158	-84.792	-78.708	65.978	46.373	-81.389	-76.980	-74.865	-71.767	70.268	-74.102	-8191	255	
41469.730	1	1	0	0	0.1564	0.11715	0.24591	0.11091	0.27005	0.13145	0.31415	0.095977	0.23181	0.21245	0.099565	0.10548	0.1367	0.075227	0.23048	0.14459	-1.6146	-1.8896	-1.6583	-2.2979	-1.9458	-1.9646	-2.0438	-2.0479	-2.1729	-1.9396	-1.9417	-2.2833	-1.8354	-2.0646	-2.1688	-2.0625	169.396	-35.936	-35.985	103.323	138.007	123.567	-40.946	-63.335	-88.431	247.642	95.235	153.329	-8.673	-28.035	-7.687	249.706	0.00057332	0.00068239	0.00018287	682.11	5.664e-06	7.2943e-06	762.68	294.57	3.0108e-06	5.1314e-06	344.02	176.32	128.08	64.703	5.4276e-06	100.29	0.000424	0.00022384	5.9783e-05	706.23	2.393e-06	2.2455e-06	794.41	307.07	2.4329e-06	2.313e-06	357.18	184.74	134.87	68.421	2.7532e-06	105.19	-73.661	-4.844	-7.594	-83.827	56.208	57.697	-84.841	-78.717	71.685	31.816	-81.038	-77.061	-74.892	-71.724	51.094	-74.185	-8191	255	
41469.824	1	1	0	0	0.13767	0.26367	0.3005	0.11488	0.10812	0.068504	0.14447	0.19405	0.14809	0.1399	0.57331	0.39539	0.14246	0.17039	0.097389	0.1513	-1.6917	-2.0667	-1.6771	-2.2792	-1.8875	-1.9562	-2.3146	-1.8729	-2.0187	-2.1125	-1.6646	-2.4146	-1.9583	-1.9	-2.2021	-2.025	135.726	188.230	-80.164	250.159	-85.483	238.321	205.615	-96.596	197.872	-71.225	238.495	222.805	145.162	73.101	124.459	189.431	0.00057087	0.0006978	0.00021048	679.08	8.416e-06	8.1936e-06	755.77	292.91	2.6494e-06	5.1293e-06	337.62	173.22	127.18	64.004	5.3576e-06	98.502	0.00041971	0.00022577	6.0071e-05	703.74	2.3777e-06	2.1765e-06	782.96	305.21	2.3528e-06	2.316e-06	351.04	181.49	133.98	67.71	2.7132e-06	103.65	-73.285	-8.168	-3.882	-84.031	61.606	57.848	-84.826	-78.732	75.662	31.390	-81.327	-77.034	-74.906	-71.658	73.795	-74.042	-8191	255	
41469.922	1	1	0	0	0.15852	0.21841	0.070187	0.32416	0.11095	0.11728	0.15932	0.28879	0.22235	0.20139	0.18536	0.28912	0.052029	0.21144	0.13152	0.30253	-1.6646	-1.9646	-1.5646	-2.2229	-2.0479	-1.8521	-2.3021	-2.0938	-2.1	-2.1542	-1.575	-2.3771	-2.0917	-1.8667	-2.2479	-2.1583	80.328	199.603	181.404	126.211	94.744	-36.105	-90.050	-89.597	131.809	-90.484	58.588	-96.465	248.847	188.181	14.867	181.667	0.0005634	0.00059356	0.0001631	678.8	4.1681e-06	6.7449e-06	753.67	292.1	4.5782e-06	5.6524e-06	338.05	174.38	127.14	64.48	5.4052e-06	99.581	0.00040987	0.00022092	5.8155e-05	701.6	2.3864e-06	2.25e-06	780.8	304.74	2.5387e-06	2.3027e-06	353.06	182.36	134.02	67.969	2.7295e-06	104.67	-74.731	-27.153	-5.854	-83.802	66.663	55.015	-85.043	-78.806	83.354	57.466	-81.319	-77.106	-74.854	-71.637	51.122	-74.161	-8191	255	
41470.039	1	1	0	0	0.095631	0.26934	0.59379	0.17224	0.21105	0.054154	0.092302	0.15688	0.13594	0.22373	0.088491	0.16244	0.025976	0.21039	0.19105	0.32119	-1.5625	-2.0583	-1.6167	-1.9396	-1.95	-1.7646	-2.2771	-1.9833	-1.9042	-2.1813	-2.0354	-2.0771	-2.1542	-1.9271	-2.2625	-2.1	225.101	203.005	-33.356	147.403	-49.207	170.986	-45.255	226.490	-64.709	98.375	55.370	173.496	-1.352	219.225	-34.030	221.474	0.0005632	0.00068074	0.00018391	678.32	5.947e-06	7.8456e-06	758.29	293.88	3.8693e-06	4.7605e-06	340.24	175.53	127.43	64.42	3.4594e-06	99.921	0.00041554	0.00022381	5.929e-05	702.16	2.3523e-06	2.3582e-06	785.74	305.54	2.4023e-06	2.2385e-06	355.05	183.78	134.23	68.018	2.4503e-06	105.42	-71.819	-4.356	-15.450	-83.941	55.457	44.699	-84.842	-78.772	66.569	37.818	-80.892	-77.060	-74.516	-71.869	63.245	-74.338	-8191	255	
41470.137	1	1	0	0	0.12538	0.18682	0.2226	0.20484	0.24507	0.19137	0.11055	0.2061	0.17888	0.31698	0.073874	0.27591	0.36279	0.27245	0.096032	0.09515	-1.4438	-2.2188	-2.0583	-2.2646	-1.9104	-1.8333	-2.4042	-2.1312	-1.9937	-2.2583	-1.8104	-2.0104	-2.0896	-1.9958	-2.1604	-2.3271	-43.724	0.642	-65.573	219.620	124.784	230.056	134.414	59.598	-86.480	-22.518	252.286	167.385	218.653	220.271	-31.646	251.277	0.00057032	0.00083662	0.0001951	679.68	6.3546e-06	6.5302e-06	763.96	293.44	5.3726e-06	4.9637e-06	344.5	177.31	126.88	64.445	5.3834e-06	100.48	0.00042072	0.0002133	6.2155e-05	703.68	2.4734e-06	2.1917e-06	792.17	305.7	2.5511e-06	2.1593e-06	357.13	184.74	134.25	67.978	2.5207e-06	105.6	-73.102	-20.937	-4.968	-84.082	51.768	42.799	-84.790	-78.980	83.712	48.838	-81.089	-77.156	-74.707	-71.706	59.345	-74.222	-8191	255	
41470.234	1	1	0	0	0.16997	0.35512	0.095395	0.11021	0.26809	0.012755	0.13085	0.24563	0.15484	0.25022	0.14954	0.057978	0.036718	0.37202	0.15097	0.14203	-1.5771	-2.2938	-2.0083	-1.9958	-2.1521	-1.9042	-2.2542	-2.3146	-1.8438	-2.0521	-1.7542	-2.0792	-2.0271	-1.8604	-2.3563	-2.2604	152.936	27.823	200.564	206.032	174.904	107.966	239.331	257.853	224.276	122.633	119.417	155.166	34.543	214.705	-79.180	162.796	0.00058107	0.00078763	0.00019306	677.12	6.4069e-06	8.2682e-06	760.63	292.11	3.03e-06	6.4296e-06	342.77	174.74	126.63	63.942	5.5135e-06	99.166	0.00041061	0.00020528	6.2509e-05	703.16	2.4191e-06	2.3961e-06	787.81	304.88	2.4888e-06	2.146e-06	354.77	183.04	133.81	67.585	2.497e-06	104.12	-72.140	-16.162	-8.080	-83.980	64.178	37.537	-84.663	-78.857	83.931	49.984	-81.028	-76.867	-74.845	-71.787	60.841	-74.200	-8191	255	
41470.328	1	1	0	0	0.060372	0.19373	0.21222	0.18155	0.18067	0.16488	0.17455	0.32342	0.11961	0.17204	0.089341	0.14355	0.11901	0.21197	0.21634	0.13304	-1.2542	-2.1437	-1.9	-2.0458	-2.2687	-1.7708	-1.8813	-2.1688	-1.6917	-2.2792	-1.8917	-2.2125	-2.1688	-1.8292	-2.1021	-2.4042	239.977	105.251	152.694	263.252	240.976	-55.158	-31.823	218.409	105.196	-67.698	22.683	14.796	193.084	-64.210	38.981	230.837	0.00053502	0.00074879	0.0002047	674.57	5.98e-06	6.0736e-06	753.62	289.91	3.6557e-06	4.7153e-06	339.35	174.11	127.21	63.733	5.4766e-06	99.155	0.00041459	0.00020422	6.4639e-05	698.59	2.3704e-06	2.231e-06	780.18	303.33	2.4474e-06	2.1183e-06	352.72	182.38	133.54	67.278	2.4578e-06	104.22	-73.155	-5.101	-14.139	-83.839	69.071	45.939	-84.728	-78.687	57.361	56.566	-80.987	-76.962	-74.846	-71.900	75.188	-74.124	-8191	255	
41470.398	1	1	0	0	0.1796	0.23876	0.11977	0.15064	0.21166	0.11213	0.23318	0.24543	0.06378	0.14071	0.12464	0.1555	0.1584	0.24913	0.12016	0.08373	-1.3312	-1.9458	-1.7	-1.875	-2.2417	-1.8042	-1.9896	-2.4042	-1.6604	-2.2146	-2.0187	-1.7208	-2.1771	-1.9333	-1.8333	-2.4417	95.289	-16.145	98.466	-47.813	182.233	-87.250	240.384	186.691	-9.624	70.796	163.519	186.455	-52.841	187.373	14.688	238.039	0.00053947	0.00071319	0.00015975	674.28	7.0018e-06	6.2288e-06	755.61	292.02	3.1136e-06	6.6547e-06	339.19	174.35	126.08	63.494	5.3749e-06	99.491	0.0004241	0.00019856	6.2667e-05	698.71	2.4e-06	2.3312e-06	782.56	304.15	2.5464e-06	2.2157e-06	351.74	182.82	132.98	67.09	2.4479e-06	104.4	-74.464	-11.379	-0.855	-83.690	71.108	50.543	-84.957	-78.734	68.393	46.468	-80.676	-76.999	-74.494	-71.865	72.520	-74.131	-8191	255	
41470.520	1	1	0	0	0.34606	0.078045	0.13902	0.38662	0.12521	0.19715	0.043364	0.43707	0.091499	0.075126	0.088375	0.32549	0.17716	0.23552	0.07468	0.62615	-1.1833	-2.1125	-1.9312	-1.8542	-2.2021	-1.7625	-1.9833	-2.325	-1.7521	-2.0104	-2.1229	-1.65	-2.1958	-1.9083	-1.8521	-2.3021	241.813	213.760	227.358	174.501	-54.542	-23.926	134.260	172.024	-88.726	37.044	40.037	188.575	73.204	243.417	-64.931	226.864	0.00054714	0.00079611	0.00012378	671.4	5.1735e-06	6.406e-06	755.9	291.8	4.2787e-06	5.707e-06	341.54	174.9	126.45	63.415	5.0697e-06	99.34	0.00041837	0.00021017	6.0183e-05	697.45	2.2376e-06	2.3041e-06	783.45	303.63	2.5427e-06	2.191e-06	353.85	183.11	133.1	66.869	2.5897e-06	104.48	-74.331	-11.312	-10.212	-83.691	60.600	48.458	-85.016	-78.638	69.774	49.427	-81.115	-76.859	-74.808	-71.858	85.966	-74.063	-8191	255	
41470.617	1	1	0	0	0.24599	0.20063	0.18155	0.21442	0.25394	0.25278	0.23913	0.1445	0.35754	0.22395	0.16814	0.081636	0.15247	0.24803	0.15209	0.31261	-1.4438	-1.9062	-2.0333	-1.7458	-2.3417	-1.825	-2.0979	-2.3937	-1.825	-2	-2.0187	-1.7583	-2.2167	-2.2771	-1.6604	-2.3312	216.597	-84.010	91.457	162.300	104.168	129.034	102.620	237.800	9.969	248.674	79.295	229.401	225.979	259.109	79.396	202.442	0.00056366	0.00082995	0.0001799	675.87	6.2068e-06	6.6699e-06	757.34	291.84	3.1826e-06	4.8212e-06	340.91	175.12	125.78	63.379	6.8075e-06	98.31	0.00041489	0.00020272	6.2686e-05	700.43	2.1819e-06	2.3293e-06	785.71	303.62	2.4878e-06	2.1287e-06	353.04	183.13	133.01	66.874	2.5381e-06	103.63	-73.508	-26.302	-11.406	-83.973	57.684	47.021	-84.884	-78.765	75.937	52.563	-80.763	-76.951	-74.919	-71.881	61.969	-74.345	-8191	255	
41470.715	1	1	0	0	0.27991	0.036893	0.23772	0.25462	0.06968	0.06983	0.27633	0.32418	0.20348	0.3371	0.16625	0.48676	0.08724	0.28547	0.38454	0.10353	-1.35	-1.8625	-2.1292	-1.8771	-2.1688	-2.0625	-1.9875	-2.5229	-1.8792	-1.75	-2.2125	-1.8417	-2.2375	-2.1229	-1.8729	-2.3667	150.105	222.992	229.728	157.503	111.383	167.464	260.004	219.455	224.500	140.182	-73.770	-91.198	111.439	156.066	255.768	198.362	0.00056641	0.0008653	0.00018591	670.56	6.3509e-06	5.7304e-06	749.87	290.66	2.826e-06	5.2395e-06	335.2	173.94	125.78	63.107	6.1299e-06	98.277	0.00042706	0.00020937	6.023e-05	695.66	2.1315e-06	2.3178e-06	776.66	302.26	2.5915e-06	2.202e-06	350.09	181.84	132.65	66.584	2.6753e-06	103.35	-74.376	-15.455	-10.585	-84.011	53.208	42.968	-84.652	-78.591	67.369	57.664	-80.390	-77.026	-74.636	-71.803	70.587	-74.186	-8191	255	
41470.809	1	1	0	0	0.15613	0.23818	0.22548	0.15321	0.34053	0.10232	0.3196	0.13019	0.17818	0.16944	0.25096	0.13983	0.097009	0.14429	0.1514	0.30789	-1.6292	-2.0146	-2.1896	-1.6979	-2.1646	-1.9021	-1.9375	-2.425	-1.8979	-1.875	-2.3396	-2	-1.9312	-2.3042	-1.9792	-2.4437	8.157	174.034	-20.410	-71.407	40.454	84.704	196.903	205.022	237.329	-15.442	202.341	169.546	0.728	229.615	-20.173	202.651	0.00058245	0.00079392	0.00013946	666.84	5.6747e-06	6.0326e-06	748.07	289.77	4.3378e-06	5.3755e-06	338.85	174.55	126.11	63.368	6.5719e-06	99.044	0.000426	0.00021636	5.9569e-05	691.11	2.1273e-06	2.3393e-06	775.42	301.99	2.4821e-06	2.202e-06	351.53	182.91	132.95	66.818	2.6587e-06	104.33	-71.933	-31.778	-19.538	-83.976	55.641	52.461	-84.974	-78.721	69.247	47.094	-81.019	-77.071	-74.990	-72.016	66.858	-74.450	-8191	255	
41470.930	1	1	0	0	0.096894	0.050922	0.13472	0.132	0.1006	0.14859	0.27505	0.23714	0.33326	0.24746	0.12509	0.10135	0.14949	0.1392	0.22532	0.011264	-1.3563	-1.9167	-2.1917	-1.5583	-1.975	-2.1604	-1.9542	-2.2479	-2.0917	-1.7125	-2.2833	-1.8021	-2.1312	-2.25	-1.7458	-2.2771	-47.819	-1.677	161.062	236.130	-94.204	125.887	113.671	219.423	135.128	8.572	238.132	155.153	218.191	229.033	-74.925	63.691	0.00057206	0.000783	0.00018874	668.73	6.4878e-06	6.4751e-06	753.79	290.67	3.9533e-06	6.29e-06	342.51	175.85	125.42	63.201	5.6034e-06	99.9	0.00041774	0.00021383	5.6722e-05	693.48	2.1913e-06	2.2752e-06	780.85	302.74	2.5228e-06	2.1711e-06	353.81	184.3	133.01	66.826	2.7475e-06	105.03	-74.438	-10.795	-3.670	-84.109	70.050	60.304	-84.724	-78.657	68.977	45.596	-81.008	-77.007	-74.756	-71.879	63.576	-74.097	-8191	255	
41471.004	1	1	0	0	0.21843	0.1696	0.23601	0.10001	0.070562	0.083568	0.19577	0.033911	0.10279	0.31189	0.22447	0.1616	0.099341	0.19862	0.24596	0.12951	-1.7271	-1.7979	-2.1917	-2.2167	-1.8604	-2.3187	-1.8708	-2.0354	-1.8563	-1.6958	-2.2542	-2.0708	-1.9604	-2.4479	-1.775	-2.1979	10.236	-86.273	60.821	94.596	1.268	243.009	134.785	117.853	-82.427	12.427	163.251	-71.221	-57.572	-27.716	-38.127	100.247	0.00055576	0.00081193	0.00015942	669	6.702e-06	6.744e-06	760.15	291.01	3.5151e-06	6.9686e-06	342.87	176.01	126.11	63.106	6.7147e-06	99.344	0.00043206	0.0002131	5.5662e-05	693.39	2.2605e-06	2.27e-06	787.02	303.31	2.5599e-06	2.3411e-06	355.65	184.76	132.98	66.629	2.7695e-06	104.53	-74.358	-22.114	-11.788	-83.858	76.288	54.606	-85.037	-78.702	78.869	52.774	-80.674	-76.846	-74.958	-71.731	79.079	-74.138	-8191	255	
41471.121	1	1	0	0	0.14673	0.15185	0.18584	0.3006	0.11702	0.074038	0.15345	0.22719	0.064066	0.085614	0.042367	0.13128	0.25817	0.1513	0.34389	0.25491	-1.5854	-1.6229	-2.175	-2.0042	-1.825	-2.2083	-1.8667	-2.1562	-2.1125	-1.6417	-2.1125	-2.0542	-1.675	-2.3083	-1.95	-2.25	1.459	244.364	-92.309	-6.292	90.278	197.095	181.064	251.973	3.446	-29.510	214.579	205.435	258.010	-91.932	157.639	-15.036	0.00055512	0.00071306	0.00018037	667.77	7.6223e-06	6.351e-06	752.33	289.18	4.2612e-06	6.103e-06	337.8	173.38	125.96	62.498	5.0592e-06	97.815	0.00041588	0.00021403	5.5541e-05	692.69	2.3419e-06	2.237e-06	777.37	300.89	2.4326e-06	2.2315e-06	350.71	181.52	131.91	65.945	2.6477e-06	102.75	-75.539	-14.605	-4.838	-84.068	58.844	51.273	-84.882	-78.572	75.256	33.046	-80.774	-77.060	-74.734	-71.703	58.322	-74.229	-8191	255	
41471.219	1	1	0	0	0.25371	0.32373	0.073357	0.097687	0.06073	0.38516	0.35768	0.34061	0.176	0.23266	0.13716	0.11192	0.070339	0.11164	0.13813	0.13225	-1.6521	-1.5292	-2.0187	-2.0604	-1.6333	-2.2396	-2.0125	-2.0687	-2.1708	-1.8813	-2.1312	-2.2458	-1.9062	-2.3563	-1.8792	-2.15	217.106	150.755	86.219	256.025	126.756	127.852	237.157	234.255	117.962	180.710	209.164	34.064	34.068	-85.060	235.275	-72.021	0.00055623	0.00070183	0.0001805	663.91	4.366e-06	6.4281e-06	746.93	287.62	4.834e-06	6.4419e-06	336.02	172.91	125.18	62.131	6.4784e-06	98.17	0.00040428	0.00022747	5.5513e-05	688.94	2.2473e-06	2.1231e-06	773.48	299.69	2.4541e-06	2.2717e-06	349.23	181.26	131.28	65.713	2.767e-06	103.13	-74.338	-19.679	-18.737	-83.881	54.819	44.201	-84.770	-78.949	78.467	58.741	-80.959	-76.964	-75.460	-71.714	61.658	-74.142	-8191	255	
41471.312	1	1	0	0	0.21988	0.022123	0.1094	0.23541	0.17127	0.15505	0.15482	0.16366	0.18124	0.12201	0.17818	0.089032	0.096934	0.17824	0.2118	0.16856	-1.6771	-1.7083	-2.1312	-2.0958	-1.6208	-2.1813	-2.0146	-1.8188	-2.1646	-1.8042	-2.1104	-2.3104	-1.5646	-2.2771	-2.0854	-1.9854	18.856	191.474	248.953	-91.313	-18.074	222.195	-89.869	232.496	123.699	-56.574	62.801	234.898	193.518	142.465	231.982	-37.556	0.00055113	0.00053118	0.00014643	666.19	7.3371e-06	7.1288e-06	747.27	288.27	4.1541e-06	5.7789e-06	337.74	174.47	125.65	62.457	3.9465e-06	98.367	0.00041543	0.00020591	5.8294e-05	689.35	2.3436e-06	2.2095e-06	774.93	300.18	2.439e-06	2.1891e-06	349.67	182.36	131.81	65.885	2.5911e-06	103.6	-75.277	-8.700	-2.353	-83.714	63.525	65.721	-84.789	-78.793	83.472	52.664	-81.043	-77.090	-74.728	-71.792	72.327	-74.366	-8191	255	
41471.410	1	1	0	0	0.35676	0.21601	0.071475	0.14936	0.20304	0.17923	0.13062	0.10517	0.35269	0.069214	0.21647	0.063758	0.21754	0.27383	0.22329	0.32129	-1.7708	-1.8021	-2.0021	-2.0021	-1.7292	-2.1562	-1.9229	-1.8354	-2.2188	-1.7625	-2.1813	-2.1688	-1.85	-2.4104	-2.0021	-1.8458	115.216	-35.199	251.327	222.957	161.298	133.740	190.758	120.452	232.707	254.944	-69.298	97.546	15.477	208.679	147.140	246.393	0.00053171	0.00065652	0.00020471	664.57	6.0828e-06	6.0839e-06	750.68	289.65	3.7646e-06	7.6718e-06	338.23	175.15	124.88	62.506	5.4205e-06	98.91	0.00041896	0.00022145	5.5894e-05	688.78	2.3422e-06	2.1153e-06	779.42	300.98	2.3366e-06	2.2758e-06	352.59	183.48	131.95	65.874	2.6686e-06	104.14	-73.773	-6.764	-15.790	-83.770	52.801	61.790	-84.891	-78.613	72.249	52.273	-81.118	-77.042	-74.777	-71.938	67.589	-74.190	-8191	255	
41471.531	1	1	0	0	0.14239	0.27236	0.20645	0.33022	0.14163	0.1053	0.019124	0.24263	0.041827	0.19006	0.086736	0.29184	0.12326	0.20869	0.075669	0.34267	-1.4667	-1.7542	-1.8458	-2.075	-1.4479	-2.1813	-2.0458	-1.9021	-2.0812	-1.9625	-1.7979	-2.2729	-1.8167	-2.3792	-2.1458	-2.0354	198.280	82.114	-57.619	236.393	222.410	77.253	-47.217	220.116	219.118	173.955	-11.732	209.945	104.994	206.665	-25.817	246.221	0.00053791	0.00082677	0.00017213	670.63	5.1552e-06	5.8514e-06	750.3	287.81	2.5522e-06	3.6247e-06	337.57	174.83	125.32	61.969	4.0498e-06	97.484	0.00041301	0.00022314	5.8257e-05	690.92	2.2977e-06	2.0983e-06	777.65	300.33	2.3453e-06	2.2798e-06	350	182.23	131.32	65.553	2.745e-06	102.71	-71.763	-3.208	-7.720	-83.728	54.552	51.178	-85.222	-78.835	95.340	61.651	-81.037	-77.092	-74.848	-71.869	64.477	-74.274	-8191	255	
41471.625	1	1	0	0	0.16193	0.086333	0.079653	0.081734	0.22001	0.14248	0.066427	0.14069	0.24085	0.16556	0.15728	0.020199	0.11406	0.33848	0.14721	0.20616	-1.8333	-1.8104	-1.775	-2.3333	-1.7104	-1.9458	-2.3104	-1.8146	-2.2104	-1.9146	-1.8438	-2.4396	-1.7271	-2.0438	-2.1792	-1.9208	122.758	-10.710	-84.293	134.857	-46.409	115.674	-14.103	217.093	170.013	262.050	55.198	92.886	170.601	257.422	-3.712	95.637	0.00054357	0.00056636	0.00018455	661.74	5.8075e-06	7.4107e-06	739.12	286.57	2.6616e-06	5.532e-06	339.42	173.39	125.2	62.129	5.6895e-06	97.863	0.00040484	0.00022085	5.5894e-05	683.81	2.2748e-06	2.1743e-06	769.1	299.12	2.2824e-06	2.2238e-06	349.09	181.56	131.31	65.6	2.5498e-06	102.95	-74.656	-12.513	-7.462	-84.014	72.394	58.112	-84.555	-78.796	70.955	28.491	-81.133	-77.523	-74.823	-71.703	53.412	-74.223	-8191	255	
41471.723	1	1	0	0	0.13347	0.14191	0.058747	0.29061	0.11372	0.10682	0.06824	0.21522	0.11871	0.14541	0.19872	0.17575	0.24913	0.33202	0.057317	0.098264	-1.6812	-1.7771	-1.7125	-2.1562	-1.9771	-2.0396	-2.2833	-1.7375	-2.1417	-2.0396	-1.7563	-2.2875	-1.9479	-2.175	-2.1833	-2.1583	31.233	95.031	235.808	231.032	60.366	197.607	231.277	253.772	133.056	200.435	-92.058	-53.686	180.136	254.216	35.449	177.234	0.00052581	0.00061642	0.00017984	656.95	6.157e-06	6.2869e-06	747.9	286.26	4.0573e-06	5.4805e-06	336.93	174.69	124.97	62.069	4.3206e-06	99.204	0.00039512	0.00020954	5.5783e-05	681.74	2.3864e-06	2.1406e-06	771.63	298.88	2.3982e-06	2.1976e-06	350.88	182.66	131.28	65.528	2.4606e-06	103.95	-72.640	-20.136	-5.420	-83.716	62.627	50.322	-84.801	-78.540	60.412	41.211	-80.585	-77.036	-74.588	-71.929	77.417	-74.185	-8191	255	
41471.816	1	1	0	0	0.22425	0.20759	0.15407	0.12587	0.18925	0.13046	0.31082	0.2941	0.31012	0.42847	0.11486	0.081811	0.088702	0.12398	0.14593	0.29417	-1.5438	-2.0917	-1.7604	-2.3417	-1.7854	-1.8833	-2.4	-1.9042	-2.1479	-2.0292	-1.7479	-2.3167	-1.9042	-1.975	-2.375	-1.9354	75.377	38.733	262.948	185.960	7.284	114.677	238.163	206.652	-35.474	-67.017	258.552	148.026	195.484	-12.343	160.020	179.167	0.00053878	0.00070014	0.00019637	660.18	5.6366e-06	5.5953e-06	749.91	287.55	3.7642e-06	4.6737e-06	338.58	175.85	125.74	62.039	6.3664e-06	99.69	0.00040634	0.00021456	5.6555e-05	683.93	2.368e-06	2.0471e-06	775.96	299.41	2.3046e-06	2.2832e-06	352.35	184.19	131.89	65.645	2.6099e-06	104.49	-74.464	-5.339	-4.933	-84.031	60.021	45.734	-85.016	-78.727	76.267	46.535	-80.911	-76.998	-74.633	-71.929	70.008	-74.066	-8191	255	
41471.914	1	1	0	0	0.12509	0.13874	0.059795	0.15192	0.25997	0.093287	0.18921	0.28234	0.13143	0.1449	0.078016	0.16451	0.15659	0.34344	0.22894	0.25719	-1.5292	-2.1063	-1.825	-2.2625	-2	-1.925	-2.3583	-1.8271	-2.1188	-2.3229	-1.9167	-2.3125	-2.0542	-1.7333	-2.2417	-1.9479	103.250	230.161	183.347	224.565	99.635	71.755	182.974	221.890	60.989	125.128	191.651	197.765	-14.191	238.987	63.145	247.386	0.00056168	0.00080721	0.0001707	661.27	6.6055e-06	6.8531e-06	756.35	287.62	4.7766e-06	7.3366e-06	338.31	175.56	125.04	61.961	3.4769e-06	98.595	0.00041489	0.00021626	5.969e-05	686.16	2.2696e-06	2.0916e-06	781.44	299.84	2.4605e-06	2.2806e-06	353.62	184.29	131.25	65.551	2.4185e-06	103.48	-73.554	-12.486	-8.850	-83.733	45.818	53.324	-84.971	-78.709	89.716	34.298	-80.748	-77.222	-74.774	-71.782	70.564	-74.086	-8191	255	
41472.008	1	1	0	0	0.21565	0.10715	0.25338	0.18413	0.13222	0.19359	0.072611	0.26357	0.10546	0.205	0.15079	0.086344	0.29159	0.18922	0.20838	0.076962	-1.4042	-2.2958	-1.6854	-2.2417	-2.1688	-1.8521	-2.4625	-1.8354	-1.9167	-2.2854	-1.6771	-2.3146	-2.1813	-1.9417	-2.1188	-1.9646	-26.137	-27.478	-17.387	38.924	239.324	229.480	115.829	250.086	222.029	-21.685	250.540	111.072	209.814	-37.437	199.971	62.839	0.00055262	0.00072298	0.00019199	655.61	5.4007e-06	6.6878e-06	741.83	285.8	4.7127e-06	6.7341e-06	335.36	173.11	125.13	61.677	4.9542e-06	98.067	0.0004065	0.00021127	5.8462e-05	679.77	2.2435e-06	2.102e-06	768.43	297.47	2.4063e-06	2.0745e-06	348.38	181.52	131.13	65.17	2.3552e-06	102.78	-74.315	-21.354	-13.914	-83.788	73.430	51.220	-84.787	-78.658	64.152	52.037	-80.869	-76.948	-74.733	-71.916	46.330	-74.213	-8191	255	
41472.105	1	1	0	0	0.098364	0.073016	0.07538	0.049656	0.02485	0.17545	0.18894	0.36058	0.061687	0.25688	0.21373	0.12947	0.050045	0.41504	0.22248	0.31622	-1.2437	-2.0396	-1.7458	-2.1917	-2.075	-1.8375	-2.2167	-2.0812	-1.6375	-2.2521	-1.9167	-2.2625	-2.1937	-1.6875	-1.9875	-2.25	16.127	-36.988	-91.239	261.194	58.087	157.601	-64.080	201.607	-76.851	107.741	-56.118	215.944	176.667	258.876	8.148	216.365	0.00054962	0.00060432	0.00020357	656.25	5.6461e-06	6.2181e-06	737.96	285.19	4.3979e-06	3.4782e-06	335.79	173.45	124.46	61.323	4.6625e-06	98.582	0.00040046	0.00020082	5.8164e-05	678.23	2.2501e-06	2.1335e-06	765.92	296.67	2.4161e-06	1.9624e-06	348.77	181.95	130.82	64.99	2.3718e-06	103.4	-72.721	-19.969	-10.943	-84.093	56.231	39.005	-84.748	-78.669	49.647	60.035	-81.097	-76.989	-74.684	-72.013	63.867	-74.383	-8191	255	
41472.227	1	1	0	0	0.25795	0.22326	0.2537	0.069004	0.22756	0.20077	0.19176	0.063924	0.14014	0.25809	0.052142	0.39966	0.23943	0.26446	0.19238	0.32725	-1.45	-2.1188	-1.7229	-1.9375	-2.0875	-1.8083	-2.1063	-2.1417	-1.6667	-2.2083	-1.8	-2.0833	-2.1146	-1.9021	-2.2021	-2.1437	260.544	84.093	209.354	-8.090	-48.039	-64.000	192.651	-91.726	229.263	-13.042	49.868	255.900	-20.421	-94.011	-69.372	180.582	0.00055588	0.000632	0.00019563	655.23	6.9728e-06	5.9426e-06	741.77	286.24	3.6572e-06	6.4739e-06	339.3	174.42	125.03	61.888	6.7714e-06	99.233	0.00040677	0.0001977	5.6918e-05	677.5	2.3033e-06	2.1368e-06	770.09	297.58	2.3746e-06	2.1224e-06	351.3	183.39	131.19	65.281	2.4765e-06	104.24	-72.069	-20.455	-11.554	-83.797	58.080	51.604	-84.916	-78.704	78.107	33.869	-81.143	-77.140	-75.146	-71.915	72.903	-74.237	-8191	255	
41472.297	1	1	0	0	0.10452	0.16707	0.1886	0.26215	0.078489	0.12243	0.16836	0.16277	0.11806	0.11083	0.19153	0.40228	0.027334	0.16855	0.10857	0.23749	-1.4146	-2.2083	-1.9146	-1.8167	-2.325	-1.925	-2.125	-2.0729	-1.7333	-2.0979	-1.9229	-2.1125	-2.3208	-1.9646	-2.0104	-2.3521	-38.783	107.914	241.167	200.979	-1.803	102.213	182.041	201.683	-11.520	150.308	65.170	178.637	51.921	-91.798	199.295	-89.464	0.00054985	0.00080968	0.00020536	655.56	5.7438e-06	7.094e-06	744.22	285.57	3.6732e-06	4.236e-06	342.12	176.08	124.1	62.104	5.8083e-06	99.517	0.00040672	0.00020827	6.0378e-05	677.93	2.2393e-06	2.1995e-06	773.98	297.76	2.4393e-06	2.0365e-06	353.8	184.7	131.04	65.497	2.3905e-06	104.58	-73.092	-7.801	-14.116	-83.909	74.199	50.504	-84.732	-78.569	73.227	37.720	-80.906	-76.898	-74.677	-71.997	72.466	-74.267	-8191	255	
41472.395	1	1	0	0	0.24206	0.12903	0.11173	0.25248	0.057023	0.23354	0.18839	0.040784	0.31389	0.06576	0.19552	0.091115	0.21443	0.35962	0.19429	0.47458	-1.3042	-2.2771	-2.0563	-1.8521	-2.0167	-1.8479	-2.0875	-2.4604	-1.6292	-2.0333	-2.0187	-1.8687	-2.3021	-1.8958	-2.0333	-2.0375	256.441	-77.754	245.864	200.589	235.652	149.291	30.426	-66.455	163.000	75.992	-61.918	185.511	-47.931	246.518	144.178	237.305	0.00054207	0.00068735	0.00018831	656.04	4.5715e-06	5.2141e-06	738.67	284.17	3.3441e-06	6.1286e-06	336.63	173.34	124.31	61.477	5.2202e-06	98.073	0.00041552	0.00020156	5.8853e-05	678.15	2.1989e-06	2.2121e-06	767.48	296.53	2.2928e-06	2.0955e-06	348.61	182.16	130.61	65.008	2.4334e-06	103.03	-75.462	-9.002	-18.853	-83.919	53.324	42.751	-84.705	-78.657	63.573	58.822	-81.209	-77.007	-74.820	-71.824	63.585	-74.317	-8191	255	
41472.488	1	1	0	0	0.1314	0.29558	0.2097	0.25198	0.24107	0.096366	0.19223	0.35553	0.18772	0.19216	0.12116	0.2982	0.062631	0.20955	0.21108	0.23139	-1.2938	-2.2521	-2.0687	-1.6125	-2.3063	-1.8813	-1.8875	-2.1646	-1.5146	-2.05	-2.2104	-1.8229	-2.0792	-1.7563	-2.0229	-2.3187	-85.694	82.973	116.292	221.703	91.533	-74.890	183.160	-36.804	125.087	116.073	179.350	254.135	124.600	216.578	2.665	221.313	0.00053829	0.00059652	0.00017168	647.95	6.9837e-06	7.1254e-06	734.61	284.19	3.732e-06	6.6885e-06	336.02	174.77	123.88	61.441	5.1713e-06	98.092	0.00040722	0.00020006	5.9783e-05	673.78	2.1297e-06	2.1969e-06	762.81	296.28	2.4491e-06	2.052e-06	347.64	182.12	130.47	65.103	2.5009e-06	103.29	-75.090	-3.496	1.023	-83.883	71.906	57.681	-84.847	-78.614	82.129	49.841	-81.071	-77.190	-74.952	-71.988	78.876	-74.363	-8191	255	
41472.609	1	1	0	0	0.19104	0.18194	0.094712	0.1767	0.20683	0.23319	0.22977	0.084365	0.11765	0.21451	0.23846	0.33122	0.096492	0.39374	0.20732	0.18352	-1.225	-2.0396	-2.1229	-1.6854	-2.3354	-1.8979	-2.0312	-2.2354	-1.7167	-2.0187	-2.1729	-1.7125	-2.0792	-2.0438	-1.8	-2.3979	140.581	-63.850	190.138	65.092	75.152	51.693	208.374	122.336	70.602	141.438	233.318	247.251	30.683	217.130	110.472	55.701	0.00053547	0.00073928	0.00018267	651.3	7.9902e-06	6.1814e-06	738	283.38	3.564e-06	6.679e-06	335.42	174.73	124.01	61.842	5.9481e-06	99.005	0.0004134	0.00019583	6.1997e-05	674.5	2.1162e-06	2.2158e-06	764.88	295.71	2.4198e-06	2.1453e-06	348.7	183.14	130.49	65.357	2.4054e-06	104.13	-70.899	-15.711	-7.600	-83.909	64.259	48.394	-84.957	-78.823	91.883	51.736	-81.001	-77.346	-74.917	-72.010	59.679	-74.234	-8191	255	
41472.707	1	1	0	0	0.10198	0.22618	0.19504	0.22211	0.14131	0.11572	0.15776	0.1488	0.14371	0.22125	0.2442	0.44905	0.096462	0.2555	0.0111	0.18048	-1.5021	-2.0229	-2.1729	-1.7375	-2.0042	-2.0771	-1.7542	-2.2958	-2.0604	-1.7437	-2.1229	-1.6812	-1.85	-2.2313	-1.9979	-2.4458	231.741	117.349	56.102	244.110	-73.068	2.233	-78.648	257.032	118.174	99.162	146.732	201.855	250.839	214.535	45.769	201.909	0.00058702	0.00062373	0.00017082	652.88	5.2985e-06	6.2436e-06	742.32	283.97	4.5382e-06	5.3572e-06	337.81	176	124.37	61.949	5.5339e-06	99.945	0.00042043	0.00019294	5.6973e-05	675.99	2.0536e-06	2.2644e-06	768.62	296.68	2.4339e-06	2.0616e-06	350.65	184.01	130.86	65.426	2.4475e-06	104.9	-74.351	-16.217	-20.445	-83.957	71.313	60.359	-84.892	-78.633	83.970	42.489	-81.043	-76.853	-74.930	-72.173	64.982	-74.141	-8191	255	
41472.801	1	1	0	0	0.1513	0.20142	0.33736	0.16513	0.12157	0.090475	0.29056	0.21957	0.20952	0.28513	0.14968	0.025597	0.10553	0.36339	0.099311	0.12902	-1.4062	-1.9375	-2.3521	-1.6854	-2.0438	-2.1	-1.9813	-2.4833	-2.2083	-1.8958	-2.3042	-1.9521	-1.9271	-2.3625	-1.7208	-2.5208	191.405	161.144	78.863	189.141	98.913	214.531	225.143	238.657	254.383	-79.395	207.528	177.754	187.494	-30.218	226.621	5.638	0.0005855	0.00080396	0.00019067	648.42	5.7114e-06	7.6273e-06	742.02	283.71	3.009e-06	6.1822e-06	337.55	174.61	123.81	61.687	6.6012e-06	98.703	0.0004179	0.00020658	5.4769e-05	674.13	2.0605e-06	2.3189e-06	767.97	295.78	2.4474e-06	2.0221e-06	349.25	183.08	130.49	65.243	2.4284e-06	103.55	-72.674	-15.188	-8.766	-83.744	56.311	44.439	-85.069	-78.706	76.304	51.327	-81.163	-77.071	-74.753	-71.869	57.260	-74.260	-8191	255	
41472.898	1	1	0	0	0.23021	0.089904	0.16412	0.1879	0.13755	0.13483	0.10109	0.43127	0.053383	0.093616	0.15654	0.31195	0.11118	0.17473	0.11005	0.022432	-1.3604	-1.8417	-2.0708	-1.8354	-2.0229	-2.1771	-1.7229	-2.3104	-2.05	-1.7313	-2.4604	-1.8792	-2.0375	-2.2875	-1.6437	-2.3042	257.481	-54.922	176.564	253.093	-85.122	-40.135	-65.387	239.647	60.403	103.637	19.084	206.462	56.170	215.029	20.056	48.579	0.00055725	0.00049714	0.00016911	644.78	5.2645e-06	5.4796e-06	728.98	281.6	4.2833e-06	5.6998e-06	332.29	173.99	123.85	61.678	9.0038e-06	98.586	0.00041317	0.00019653	5.4629e-05	668.35	2.0264e-06	2.2244e-06	755.28	294	2.5424e-06	1.9926e-06	345.82	182.21	130.07	65.301	2.5819e-06	103.55	-73.202	-12.536	-12.828	-83.764	74.657	48.682	-84.763	-78.660	96.965	39.422	-80.626	-77.129	-75.201	-72.112	59.400	-74.388	-8191	255	
41472.996	1	1	0	0	0.24005	0.14184	0.14076	0.027894	0.13078	0.17134	0.39432	0.25405	0.15384	0.17602	0.2175	0.07648	0.084975	0.20413	0.22581	0.048501	-1.7354	-1.8479	-1.9167	-1.9479	-1.8438	-2.3438	-1.8083	-2.3438	-2.0833	-1.8208	-2.2854	-2.0104	-1.8667	-2.3521	-1.8875	-2.3104	156.125	164.725	3.445	138.626	170.504	-85.044	211.443	105.317	112.752	152.217	150.985	160.737	116.545	115.918	12.740	169.972	0.00056021	0.00067227	0.00017053	642.79	6.0996e-06	6.3012e-06	725.2	279.82	3.9727e-06	7.357e-06	332.66	174.28	122.83	61.645	7.2847e-06	98.936	0.00041717	0.00020511	5.4387e-05	664.63	2.0803e-06	2.1216e-06	753.88	292.69	2.4033e-06	2.1342e-06	345.95	182.35	129.77	65.191	2.4341e-06	103.87	-74.303	-25.567	-7.378	-83.442	77.026	61.781	-84.699	-78.502	88.465	53.185	-81.506	-77.000	-74.519	-71.830	70.700	-74.130	-8191	255	
41473.090	1	1	0	0	0.037147	0.19227	0.026322	0.20076	0.07979	0.3669	0.23314	0.12072	0.24549	0.18085	0.1793	0.039505	0.23363	0.23793	0.17992	0.1912	-1.7687	-1.6458	-2.1479	-2.2542	-1.8229	-2.2458	-1.8438	-2.1917	-2.1208	-1.7	-2.2417	-2.0729	-1.8917	-2.4917	-2.0125	-2.1167	-63.736	165.437	72.577	-80.078	59.180	80.548	122.745	139.244	33.924	145.741	68.876	209.727	183.336	-61.437	177.932	223.058	0.00054881	0.00066626	0.00020661	644.77	5.3328e-06	6.279e-06	730.57	281.4	4.1002e-06	6.3595e-06	333	175.1	123.9	61.725	5.0497e-06	99.591	0.0004091	0.00019523	5.1922e-05	665.77	2.0629e-06	2.0849e-06	757.73	293.84	2.3979e-06	2.1489e-06	347.22	183.15	130.12	65.147	2.4882e-06	104.57	-74.023	-24.411	-17.760	-83.747	68.679	38.470	-84.897	-78.915	90.502	44.337	-80.817	-77.035	-74.740	-72.054	72.793	-74.114	-8191	255	
41473.211	1	1	0	0	0.097707	0.11614	0.23743	0.11319	0.18006	0.018556	0.20412	0.34048	0.23755	0.19523	0.16754	0.23658	0.13575	0.48509	0.17294	0.13373	-1.8042	-1.8312	-2.275	-2.0062	-1.7687	-2.2854	-1.8833	-2.0604	-2.1146	-1.6625	-2.2042	-2.0896	-1.7417	-2.3458	-1.8896	-2.1667	72.477	103.938	235.247	-69.957	-59.946	-11.364	220.638	236.220	-47.302	-7.274	229.759	147.019	2.311	222.043	10.095	165.165	0.00052841	0.00056018	0.00018271	642.14	4.8202e-06	5.7178e-06	737.23	281.77	4.1224e-06	5.8028e-06	337.1	174.6	122.79	61.372	4.3127e-06	98.496	0.00040812	0.00019909	5.4527e-05	665.69	2.2355e-06	2.0834e-06	762.75	294.19	2.4336e-06	2.1231e-06	349.22	183.37	129.81	64.848	2.549e-06	103.44	-75.228	-6.123	-17.441	-83.748	62.685	50.221	-84.945	-78.643	87.391	38.969	-81.053	-77.163	-74.696	-71.900	55.069	-74.161	-8191	255	
41473.305	1	1	0	0	0.23327	0.16815	0.48513	0.30081	0.11528	0.12231	0.10092	0.025247	0.28008	0.082322	0.22448	0.13157	0.10641	0.09197	0.19388	0.16654	-1.6146	-1.7437	-2.2167	-2.1021	-1.7687	-2.1875	-1.9688	-1.9417	-2.4083	-1.5583	-2.0917	-2.1396	-1.7521	-2.3833	-2.05	-1.9875	184.458	188.385	36.850	218.335	254.393	-49.281	115.832	124.561	211.056	44.971	223.621	-8.373	59.198	-28.943	253.166	181.368	0.00053657	0.00059171	0.00015034	643.95	6.9048e-06	5.3445e-06	732.22	281.64	2.8546e-06	7.5447e-06	329.9	172.46	121.96	60.749	6.2689e-06	96.568	0.00041111	0.00021173	5.0954e-05	668.84	2.1861e-06	2.0983e-06	759.8	292.85	2.2558e-06	2.2798e-06	344.05	180.05	128.56	64.159	2.5211e-06	101.55	-74.511	-12.464	-12.780	-84.128	44.613	45.040	-85.060	-78.666	65.755	39.930	-80.899	-77.149	-74.578	-71.757	42.057	-74.326	-8191	255	
41473.402	1	1	0	0	0.1402	0.208	0.20591	0.1012	0.2833	0.30923	0.3124	0.1441	0.064308	0.08325	0.32503	0.18482	0.10208	0.05902	0.10549	0.12395	-1.9271	-1.9188	-1.9729	-2.1271	-1.5604	-2.125	-2.1458	-1.7292	-2.3292	-1.6667	-1.8813	-2.2708	-1.8312	-2.3625	-2.0812	-1.775	111.030	73.494	203.234	180.138	154.052	207.717	156.543	161.753	58.073	-76.164	205.591	-62.204	139.801	147.368	-2.918	179.057	0.00053478	0.00066108	0.00019939	645.13	6.5196e-06	6.4092e-06	740.25	280.97	4.1905e-06	6.1766e-06	330.45	171.51	121.37	60.423	7.033e-06	96.44	0.00039912	0.00021153	5.4387e-05	672.51	2.2146e-06	2.0423e-06	766.08	293.39	2.31e-06	2.2526e-06	343.63	179.57	128.48	63.836	2.6025e-06	101.19	-73.385	-26.127	-9.471	-83.925	67.808	39.585	-84.768	-78.613	68.368	44.266	-80.996	-76.993	-75.132	-72.068	71.485	-74.135	-8191	255	
41473.523	1	1	0	0	0.14363	0.30282	0.34331	0.11118	0.20848	0.36783	0.14674	0.40339	0.23854	0.14485	0.035773	0.3158	0.054444	0.10212	0.11364	0.19484	-1.85	-1.8979	-1.9104	-2.2438	-1.875	-2.3042	-2.3187	-1.7563	-2.3646	-1.9167	-1.9417	-2.4521	-1.7708	-2.1479	-2.2062	-2.0875	7.294	52.974	24.443	-85.766	117.203	102.313	-61.819	-14.832	-29.841	203.963	210.209	-84.434	136.259	-18.556	-38.516	131.317	0.00053575	0.00075492	0.00019653	659.3	5.76e-06	6.0827e-06	753.61	283.33	3.8516e-06	4.8307e-06	333.5	171.45	121.51	60.126	5.3328e-06	96.573	0.00039645	0.00021692	5.4955e-05	685.85	2.1509e-06	2.0946e-06	780.3	295.35	2.2049e-06	2.2426e-06	345.35	179.67	128.7	63.672	2.5543e-06	101.38	-73.511	-13.032	-15.250	-83.662	60.436	39.759	-84.882	-78.770	87.853	58.634	-80.583	-77.086	-74.838	-71.718	56.720	-74.066	-8191	255	
41473.594	1	1	0	0	0.12961	0.2664	0.28645	0.15397	0.20536	0.23527	0.087787	0.21604	0.19455	0.17053	0.13384	0.17572	0.13534	0.33515	0.13525	0.36143	-1.8208	-1.9125	-1.9375	-2.2333	-1.7521	-2.0563	-2.3875	-1.7604	-2.1104	-2.0687	-1.9438	-2.4813	-1.9417	-2.1271	-2.0729	-1.8396	173.051	110.584	43.556	220.377	-52.616	103.253	91.645	135.966	-53.002	-24.174	21.136	180.852	-93.627	-94.485	-47.031	245.301	0.00053663	0.0008431	0.0001742	671.77	5.6399e-06	5.4173e-06	764.15	283.78	3.6028e-06	5.9757e-06	332.56	172.04	121.18	60.218	4.6333e-06	96.14	0.00040344	0.00021756	5.462e-05	694.08	2.2702e-06	2.0345e-06	791.08	295.62	2.25e-06	2.233e-06	346.22	180	128.45	63.553	2.6049e-06	100.91	-75.396	-18.833	-1.190	-83.567	68.810	56.907	-84.997	-78.946	73.408	58.159	-80.832	-76.962	-75.056	-71.819	43.109	-74.269	-8191	255	
41473.691	1	1	0	0	0.26602	0.12823	0.16602	0.16805	0.22051	0.079022	0.21906	0.11962	0.095171	0.18249	0.19684	0.17857	0.1664	0.17271	0.30573	0.063946	-1.7604	-1.9792	-1.8417	-2.2417	-1.7437	-1.9875	-2.2729	-1.7792	-2.1354	-2.0625	-1.9104	-2.275	-1.9188	-1.8958	-2.0979	-2.0917	250.948	102.266	-18.858	253.716	210.646	-24.354	151.143	241.586	79.853	-59.869	-92.547	-96.060	216.774	-71.442	247.054	139.766	0.00054827	0.00061584	0.00017987	674.17	6.9367e-06	7.4443e-06	759.69	281.21	3.2013e-06	4.9588e-06	326.15	168.41	120.61	59.408	6.1089e-06	93.501	0.00039822	0.00022012	5.5299e-05	700.14	2.3603e-06	2.2184e-06	788.43	293.49	2.308e-06	2.2817e-06	339.34	176.23	126.81	62.747	2.5476e-06	98.568	-70.852	-18.474	-12.775	-83.631	56.942	49.576	-85.059	-78.666	83.236	50.400	-80.959	-77.138	-74.235	-71.865	53.305	-74.134	-8191	255	
41473.785	1	1	0	0	0.019669	0.099457	0.20606	0.059604	0.10819	0.087232	0.17241	0.25779	0.13266	0.19041	0.060059	0.091657	0.085694	0.17256	0.076177	0.21139	-1.6396	-2.05	-1.7583	-2.1958	-1.9	-1.8792	-2.45	-1.9188	-1.9979	-1.9875	-1.7188	-2.3896	-1.9562	-1.9292	-2.3396	-1.9875	185.755	-37.955	177.026	98.523	36.747	-42.163	-85.569	-87.226	-63.390	-16.131	52.929	256.718	-80.050	215.035	-95.239	153.056	0.000547	0.00063209	0.0001927	665.63	5.108e-06	4.4821e-06	746.6	277.89	3.1472e-06	6.703e-06	322.93	166.07	119.08	58.413	4.4788e-06	93.03	0.00039342	0.00021642	5.7857e-05	688.11	2.3377e-06	2.0393e-06	771.07	289.53	2.3413e-06	2.3311e-06	335.44	174.22	125.62	61.783	2.5901e-06	97.578	-72.983	-12.495	-2.543	-84.029	60.033	50.882	-84.838	-78.450	79.927	48.846	-81.386	-76.771	-74.912	-71.801	73.117	-74.147	-8191	255	
41473.906	1	1	0	0	0.29005	0.055254	0.27742	0.24431	0.19045	0.1131	0.2681	0.10739	0.17921	0.12226	0.27246	0.17656	0.1717	0.20357	0.20979	0.21525	-1.6521	-2.1417	-1.7042	-2.1312	-1.9708	-1.925	-2.5083	-2.075	-2.1083	-2.3854	-1.5833	-2.3104	-2.2521	-1.9438	-2.275	-1.9917	224.676	159.806	149.118	234.883	95.973	63.152	189.880	184.594	-87.732	210.067	47.544	245.362	139.969	227.900	255.292	142.805	0.00051917	0.00065016	0.00018182	652.1	6.2691e-06	6.0659e-06	734.38	274.01	3.1332e-06	5.0492e-06	321.25	165.58	117.78	57.886	5.0532e-06	93.077	0.00040317	0.00021666	6.0388e-05	676.81	2.5155e-06	2.2411e-06	761	286.33	2.4336e-06	2.3584e-06	334.98	173.25	124.39	61.154	2.5395e-06	97.688	-72.341	-17.444	-1.333	-83.849	64.114	44.783	-84.819	-78.622	69.463	52.129	-80.593	-76.790	-74.573	-71.644	54.932	-74.290	-8191	255	
41474.004	1	1	0	0	0.079405	0.21672	0.11697	0.18416	0.27999	0.12754	0.25524	0.32451	0.29508	0.10178	0.16085	0.12272	0.14606	0.29785	0.17147	0.36784	-1.6021	-2.0771	-1.7708	-2.05	-2.0729	-1.8771	-2.3229	-1.9042	-1.7812	-2.2333	-1.8479	-2.1875	-2.0208	-1.7833	-2.1417	-2.1562	141.715	222.423	169.382	208.312	123.001	177.248	199.240	259.226	58.522	-45.297	126.996	-74.961	201.499	17.579	255.781	254.561	0.00051034	0.00061329	0.00021948	647.61	5.7687e-06	5.6585e-06	731.91	274.85	2.9025e-06	6.253e-06	325.26	166.75	118.14	58.048	4.6775e-06	93.738	0.00039677	0.00021543	6.0778e-05	671.58	2.408e-06	2.198e-06	759.01	286.89	2.5349e-06	2.1895e-06	336.75	174.48	124.62	61.288	2.5508e-06	98.623	-73.805	-19.377	-5.496	-83.984	64.299	50.876	-85.061	-78.444	62.564	45.170	-80.716	-76.991	-74.601	-71.480	51.536	-74.362	-8191	255	
41474.098	1	1	0	0	0.10785	0.15793	0.12006	0.15523	0.2192	0.065629	0.061065	0.10783	0.093179	0.096899	0.2436	0.085779	0.27372	0.30042	0.19093	0.23683	-1.2771	-2.0583	-1.6458	-2.1583	-1.9062	-1.9292	-2.3187	-1.8146	-1.8813	-2.2917	-1.7771	-2.3708	-2.1917	-1.9042	-2.1	-2.0396	176.532	163.511	212.093	148.191	45.233	-81.822	78.691	203.698	178.941	144.651	35.868	245.236	211.773	208.954	186.940	160.136	0.00051864	0.00091687	0.00014855	645.51	4.2533e-06	6.1052e-06	732.7	275.66	3.8565e-06	5.982e-06	325.58	166.72	118.23	57.815	4.8006e-06	92.595	0.0003922	0.00021257	5.8992e-05	668.7	2.2546e-06	2.2759e-06	758.93	287.3	2.3689e-06	2.1095e-06	337.14	174.61	124.65	61.076	2.3828e-06	97.211	-74.574	-9.782	-12.799	-83.621	68.021	36.803	-84.989	-78.433	69.209	50.909	-80.955	-76.813	-74.639	-71.760	59.860	-74.028	-8191	255	
41474.172	1	1	0	0	0.22536	0.24534	0.061597	0.28207	0.25329	0.30963	0.14258	0.31511	0.1094	0.093051	0.2696	0.21524	0.20545	0.18027	0.24378	0.152	-1.2771	-2.2167	-1.7292	-1.8958	-2.2646	-1.7396	-2.3104	-2.05	-1.8146	-2.1833	-1.7271	-1.9896	-2.2208	-1.7417	-2.1583	-2.0938	-77.950	76.801	196.634	208.667	198.870	126.676	182.659	228.259	191.387	199.143	192.784	225.122	73.991	230.588	70.949	30.240	0.00050482	0.00066571	0.00013959	643.95	6.046e-06	5.2048e-06	726.33	273.93	3.814e-06	5.9798e-06	320.55	165.67	118.26	57.872	6.4137e-06	92.739	0.00038602	0.00019909	5.902e-05	666.52	2.2737e-06	2.1428e-06	751.67	286.13	2.3255e-06	2.1559e-06	333.84	173.59	124.79	61.233	2.3569e-06	97.503	-73.291	-21.901	-17.198	-83.667	48.136	52.620	-84.982	-78.692	59.344	31.146	-80.766	-76.973	-74.196	-71.701	59.116	-74.217	-8191	255	
41474.289	1	1	0	0	0.12488	0.29106	0.095372	0.21435	0.25012	0.17756	0.27371	0.2235	0.17752	0.27665	0.26531	0.16882	0.17296	0.070316	0.23601	0.11959	-1.3042	-2.2146	-1.7854	-1.975	-2.3458	-1.8104	-2.0208	-2.2125	-1.5625	-2.1688	-1.9708	-2.0312	-2.525	-1.9479	-2.075	-2.3375	-46.996	5.645	-24.445	255.289	203.575	205.873	204.253	-94.790	-41.027	8.482	52.528	185.658	194.203	-66.639	102.797	210.747	0.0005214	0.00071103	0.00017141	643.13	5.2753e-06	5.5642e-06	729.06	276.5	3.5344e-06	6.5164e-06	323.73	167.46	119.33	58.263	6.2141e-06	93.555	0.0003917	0.00019031	5.7169e-05	667.5	2.1325e-06	1.9881e-06	755.47	287.68	2.2979e-06	1.9797e-06	336.51	175.43	125.62	61.608	2.2968e-06	98.416	-75.890	-22.008	-14.241	-84.150	55.177	53.516	-84.609	-78.619	70.496	53.916	-81.135	-76.937	-74.650	-71.739	84.290	-74.186	-8191	255	
41474.387	1	1	0	0	0.09073	0.12088	0.11191	0.095128	0.10928	0.13902	0.05621	0.19031	0.23372	0.21697	0.080971	0.23604	0.087941	0.5961	0.11719	0.11517	-1.3521	-2.0021	-2.0271	-1.8021	-2.3063	-1.7604	-2.225	-2.1875	-1.8458	-2.1208	-2.0104	-1.8771	-2.3354	-2.0083	-1.8396	-2.2896	-13.625	177.934	100.484	35.382	152.521	-65.394	94.745	-89.610	251.604	-28.555	229.623	156.812	-58.266	200.134	-31.217	259.010	0.00052733	0.00044731	0.00020641	649.42	6.4752e-06	5.0345e-06	735.16	276.37	3.6066e-06	6.4483e-06	326.34	167.81	119.8	58.353	6.1185e-06	94.174	0.00039473	0.00019281	5.688e-05	672.1	2.0991e-06	2.0912e-06	761.59	288.42	2.3891e-06	2.042e-06	338.81	175.96	125.77	61.658	2.3849e-06	98.975	-72.638	-7.134	-13.106	-83.816	57.528	22.200	-84.878	-78.622	71.303	52.860	-81.101	-76.877	-74.711	-71.705	68.476	-74.248	-8191	255	
41474.480	1	1	0	0	0.29313	0.24358	0.098943	0.071813	0.27281	0.042087	0.2261	0.20577	0.092315	0.21135	0.091834	0.06315	0.18806	0.20116	0.1833	0.1151	-1.2896	-1.95	-2	-1.7583	-2.05	-2.0146	-1.9458	-2.3604	-1.8083	-2.0875	-2.1562	-1.8792	-2.3458	-1.9479	-2.0479	-2.2208	159.730	79.088	179.959	120.539	-71.545	181.379	235.294	257.140	-58.934	-29.750	-79.493	208.534	261.108	17.355	-51.728	256.888	0.00052706	0.0008767	0.00017534	648.05	5.4155e-06	5.6681e-06	738.84	277.03	4.0152e-06	6.7075e-06	327.6	168.08	120.27	58.137	5.7188e-06	93.429	0.00040077	0.0001939	5.9783e-05	672.8	2.1103e-06	2.2106e-06	766.01	289.35	2.2746e-06	1.9797e-06	339.55	176.09	126.02	61.582	2.3997e-06	98.149	-73.273	-14.681	-0.733	-83.863	45.323	55.821	-84.610	-78.569	82.687	41.663	-81.272	-76.934	-74.732	-71.789	67.421	-74.212	-8191	255	
41474.602	1	1	0	0	0.080496	0.27361	0.20955	0.26307	0.061288	0.14707	0.16658	0.1175	0.30493	0.060503	0.1806	0.14002	0.14337	0.057096	0.16609	0.33934	-1.3667	-2.0979	-2.0583	-1.6417	-2.0396	-1.7771	-1.8521	-2.4625	-1.8792	-2.0687	-1.8958	-2.0208	-2.1854	-1.9896	-1.8687	-2.2604	-57.241	175.108	206.131	220.273	77.224	-74.698	128.794	197.371	-4.356	144.281	172.863	205.790	-89.940	261.363	156.612	237.662	0.00052389	0.00063754	0.00019672	646.65	5.9714e-06	6.4213e-06	728.85	276.59	3.7086e-06	5.625e-06	322.36	165.99	118.24	57.85	4.4751e-06	92.324	0.00039177	0.00018725	5.6499e-05	673.19	2.1339e-06	2.2014e-06	757.58	287.9	2.4875e-06	2.0085e-06	335.13	173.77	125.02	61.175	2.3361e-06	96.869	-74.084	-19.685	3.806	-83.731	60.801	55.073	-84.587	-78.684	62.100	40.736	-81.108	-76.792	-74.492	-71.742	77.426	-74.260	-8191	255	
41474.699	1	1	0	0	0.11216	0.14635	0.3233	0.17352	0.33682	0.098149	0.16439	0.17661	0.31441	0.15668	0.088288	0.29258	0.095602	0.38763	0.068413	0.29541	-1.3083	-1.9937	-2.0229	-1.8271	-2.025	-1.9708	-1.9438	-2.3333	-1.9146	-1.8417	-2.3021	-1.8875	-2.0542	-2.0875	-1.4854	-2.2625	150.596	245.757	211.906	197.828	256.649	217.160	237.898	-77.973	-54.752	-61.235	175.869	230.565	195.380	185.257	249.816	207.150	0.00052611	0.00066688	0.00013692	647.58	4.688e-06	4.88e-06	726.82	274.86	3.2074e-06	5.6318e-06	322.65	165.46	118.45	57.783	4.6631e-06	91.904	0.00038105	0.00019334	5.3829e-05	671.73	2.0685e-06	2.1205e-06	755.51	287.1	2.3393e-06	2.07e-06	334.17	173.6	124.65	60.948	2.3559e-06	96.85	-73.008	-12.557	-15.043	-83.860	58.750	68.887	-84.925	-78.812	48.892	47.211	-80.597	-76.836	-74.851	-71.902	50.515	-74.199	-8191	255	
41474.797	1	1	0	0	0.29039	0.041848	0.16004	0.2662	0.065993	0.1003	0.11296	0.24967	0.30867	0.044913	0.20128	0.19859	0.16556	0.055627	0.088175	0.27596	-1.5375	-1.7729	-1.9729	-1.8521	-2.1979	-1.9583	-1.9417	-2.2354	-2.1375	-1.925	-2.1896	-1.8958	-2.1312	-2.2708	-1.7208	-2.4417	-89.101	44.262	-5.401	-83.610	189.493	91.572	-69.179	-66.746	3.123	3.150	39.824	-16.885	39.424	212.826	28.671	207.714	0.00049581	0.0006175	0.0001696	648.65	4.8362e-06	4.7394e-06	731.45	275.42	3.1236e-06	6.9309e-06	320.62	166.31	119.22	57.946	6.4434e-06	92.932	0.00039107	0.00018735	5.4052e-05	671.54	2.0497e-06	2.1328e-06	759.28	287.99	2.3598e-06	2.0306e-06	334.39	174.58	125.29	61.222	2.4868e-06	97.567	-74.449	-15.271	-7.441	-83.896	67.993	40.720	-84.612	-78.719	64.550	51.930	-80.450	-76.924	-74.662	-71.751	82.228	-74.115	-8191	255	
41474.891	1	1	0	0	0.30712	0.17819	0.034799	0.25929	0.26487	0.13483	0.25708	0.12945	0.1979	0.1107	0.027652	0.18366	0.15785	0.41796	0.21359	0.19545	-1.3167	-1.6417	-2.2188	-1.8917	-1.9708	-2.0833	-1.8917	-2.3375	-1.8687	-2.0187	-2.2354	-1.7771	-2.0583	-2.0854	-1.75	-2.1271	35.454	137.274	94.808	151.989	207.258	-48.958	235.245	27.915	106.303	123.740	86.603	250.622	-43.108	-85.978	198.582	198.157	0.00054139	0.0006777	0.0002189	650.04	5.3643e-06	5.5496e-06	733.51	276.73	2.6778e-06	4.9099e-06	326.78	167.74	118.64	58.21	4.6577e-06	93.356	0.00040145	0.00019264	5.515e-05	673.6	2.0348e-06	2.1098e-06	764.29	288.8	2.3214e-06	1.9793e-06	337.63	175.49	125.33	61.325	2.3962e-06	98.198	-75.181	-14.270	-12.564	-83.842	73.791	45.241	-84.832	-78.450	87.850	48.216	-81.010	-76.870	-74.441	-71.734	65.459	-74.248	-8191	255	
41474.984	1	1	0	0	0.23908	0.20613	0.12183	0.1358	0.096643	0.21318	0.21	0.22927	0.18996	0.14576	0.11735	0.31584	0.32747	0.12544	0.11818	0.24086	-1.5146	-1.7271	-2.4062	-1.9979	-1.9333	-2.2083	-1.9542	-2.2958	-2.1937	-1.7125	-2.2979	-2.1854	-1.8104	-2.3479	-1.7021	-2.2125	-18.413	-91.395	56.356	37.365	144.458	198.160	-50.786	169.446	193.724	-38.204	97.091	157.062	-38.136	-95.095	219.849	116.405	0.00051948	0.00070053	0.00017942	649.15	5.8535e-06	6.6105e-06	734.34	277	4.2107e-06	5.2022e-06	322.72	166.44	118.41	57.742	5.8018e-06	92.284	0.00039623	0.00019241	5.2229e-05	672.78	2.0452e-06	2.0872e-06	762.51	288.79	2.3693e-06	2.1147e-06	335.47	174.25	124.78	60.947	2.479e-06	96.974	-75.226	-13.123	-13.772	-83.799	59.641	55.541	-84.920	-78.613	67.185	43.118	-80.893	-76.927	-74.313	-71.912	72.200	-74.194	-8191	255	
41475.082	1	1	0	0	0.15428	0.17907	0.050842	0.18369	0.12508	0.10231	0.15064	0.17834	0.12604	0.15019	0.082806	0.36992	0.044996	0.34828	0.084313	0.46865	-1.6542	-1.7708	-2.2812	-2.0708	-1.9854	-2.1792	-1.9271	-2.1625	-2.2396	-1.7354	-2.25	-2.0479	-1.8875	-2.2854	-1.9021	-2.2271	206.368	-29.607	43.154	233.078	145.167	-54.620	-36.038	208.926	45.527	213.128	16.343	175.520	-70.593	-58.981	172.015	225.061	0.0005151	0.00058482	0.00020439	646.07	6.5114e-06	7.6112e-06	728.4	274.84	2.6168e-06	4.9009e-06	320.51	165.44	119.3	57.47	5.9457e-06	92.291	0.00039412	0.00019231	5.568e-05	668.71	2.0581e-06	2.0846e-06	753.9	287.31	2.2534e-06	2.0722e-06	333.73	173.09	125.1	60.743	2.4797e-06	96.745	-73.894	-16.849	-14.057	-83.718	67.412	54.741	-84.799	-78.570	82.872	45.846	-80.562	-76.853	-74.726	-71.817	75.706	-74.279	-8191	255	
41475.203	1	1	0	0	0.21892	0.20118	0.27682	0.43523	0.10466	0.063234	0.0455	0.17715	0.3259	0.23937	0.19578	0.027011	0.092056	0.35057	0.14386	0.1025	-1.5729	-1.6604	-2.0854	-1.9958	-1.6521	-2.1917	-1.9583	-2.075	-2.1312	-1.8042	-2.1396	-2.0604	-1.8854	-2.3479	-1.9	-2.0083	-60.895	129.766	-76.207	-90.265	-7.999	14.861	21.239	136.325	224.128	236.014	139.573	-13.020	-59.113	202.051	-85.258	197.284	0.00052435	0.00065365	0.00015204	644.72	6.149e-06	5.717e-06	726.26	275.41	2.7728e-06	5.4637e-06	322.56	166.64	118.63	58.176	4.5849e-06	93.164	0.00039389	0.00020232	5.1754e-05	666.38	2.1273e-06	2.007e-06	753.72	287.41	2.3349e-06	2.0564e-06	334.51	174.54	125.09	61.227	2.5112e-06	97.907	-74.764	-21.359	2.577	-83.932	67.669	45.885	-84.875	-78.743	72.428	37.967	-80.852	-77.073	-74.753	-71.711	74.227	-74.139	-8191	255	
41475.301	1	1	0	0	0.093072	0.19398	0.10636	0.12785	0.25722	0.10003	0.12831	0.23624	0.12882	0.11774	0.14752	0.18908	0.43715	0.43669	0.20898	0.4356	-1.7875	-1.5833	-1.9667	-2.0479	-1.9188	-2.0958	-2.0042	-1.9583	-2.2292	-1.8771	-2.1167	-2.4125	-1.7563	-2.2708	-1.8292	-2.1646	15.237	133.361	48.658	148.382	30.251	-22.382	261.894	-51.392	-11.236	37.644	201.238	142.486	246.155	220.192	235.575	215.707	0.00053134	0.00069779	0.00016055	642.38	6.6752e-06	5.8372e-06	726.47	275.19	4.0182e-06	5.0443e-06	322.19	167.38	118.32	58.159	3.9558e-06	94.05	0.00039218	0.00020069	5.3085e-05	666.49	2.2122e-06	1.9911e-06	754.09	287.63	2.2366e-06	2.0287e-06	337.06	175.57	125.28	61.493	2.5614e-06	98.739	-72.214	-20.999	0.180	-83.806	53.813	62.833	-84.938	-78.376	83.234	38.236	-81.163	-76.882	-74.696	-71.913	93.597	-74.096	-8191	255	
41475.395	1	1	0	0	0.32968	0.087859	0.17898	0.087348	0.17977	0.19967	0.23242	0.26931	0.093302	0.06662	0.32425	0.062838	0.10362	0.077467	0.25234	0.26015	-1.8521	-1.6979	-2.1063	-2.0917	-1.775	-2.1146	-1.975	-2.0104	-2.325	-1.7625	-2.0042	-2.0563	-1.6417	-2.1312	-2.0396	-1.8104	-7.544	63.485	16.221	99.183	31.398	82.922	245.143	193.941	170.658	258.612	203.922	-83.718	182.923	259.551	-70.776	205.212	0.00051143	0.00055407	0.00017929	634.09	3.9312e-06	6.6381e-06	724.03	275.93	3.9805e-06	5.4919e-06	321.78	166.76	118.05	58.076	6.4492e-06	93.022	0.00039274	0.00019444	5.0973e-05	659.58	2.0316e-06	1.9407e-06	750.49	286.5	2.1891e-06	2.1449e-06	335.48	175.08	124.89	61.391	2.5186e-06	97.585	-74.733	-14.600	-8.707	-83.595	63.763	38.789	-84.523	-78.640	78.678	39.738	-81.302	-76.756	-74.536	-71.789	59.169	-74.305	-8191	255	
41475.469	1	1	0	0	0.14286	0.16108	0.098308	0.14036	0.32956	0.15061	0.069557	0.46601	0.26722	0.081044	0.025218	0.047036	0.1653	0.35684	0.33674	0.109	-1.75	-1.6875	-1.8458	-2.1937	-1.6104	-1.9438	-2.0083	-1.8667	-2.2271	-1.8271	-1.8771	-2.4375	-1.8104	-2.0083	-2.0187	-1.8854	-68.700	68.866	163.943	218.270	59.563	109.110	201.213	223.426	-37.443	77.772	123.410	-32.131	225.328	195.464	86.465	205.600	0.00050647	0.0006428	0.0001695	627.95	5.025e-06	6.1634e-06	709.68	272.21	3.4104e-06	5.8671e-06	320.13	165.64	118.06	57.915	5.409e-06	92.569	0.00039231	0.00019783	5.2303e-05	653.6	2.1301e-06	1.9603e-06	736.03	283.67	2.1877e-06	2.1121e-06	331.1	173.28	124.57	61.209	2.3891e-06	97.08	-74.518	-26.347	3.938	-83.905	55.543	46.076	-84.946	-78.622	70.076	54.185	-80.430	-77.103	-74.465	-71.770	75.293	-74.286	-8191	255	
41475.562	1	1	0	0	0.09121	0.11366	0.11271	0.12359	0.36852	0.30412	0.053412	0.12829	0.25396	0.30416	0.13528	0.19044	0.20961	0.090755	0.18813	0.24099	-1.7667	-1.8583	-1.85	-2.4229	-1.7979	-1.9104	-2.1542	-1.9021	-2.1312	-1.725	-1.9	-2.2646	-1.7896	-2.0646	-2.4542	-1.9896	149.036	41.458	-34.013	246.064	218.691	81.768	57.378	28.337	252.806	222.405	144.061	221.229	179.917	153.327	133.776	228.204	0.00051515	0.00063134	0.00017827	628.07	5.2322e-06	6.2016e-06	706.89	271.73	4.226e-06	5.3127e-06	322.26	165.97	117.65	58.048	7.3236e-06	93.214	0.00038077	0.00020511	5.0256e-05	649.56	2.2386e-06	1.8702e-06	732.52	283.65	2.2985e-06	2.1235e-06	332.32	173.87	124.62	61.401	2.3923e-06	97.87	-73.155	-25.925	-10.925	-83.758	73.804	49.970	-84.605	-78.475	67.832	44.474	-80.955	-76.924	-75.120	-71.751	83.726	-74.431	-8191	255	
41475.684	1	1	0	0	0.16038	0.20244	0.21645	0.048178	0.27061	0.15151	0.33544	0.3409	0.12222	0.22097	0.21847	0.19147	0.11283	0.33084	0.21679	0.24294	-1.7708	-1.875	-1.8646	-2.5021	-1.7729	-1.8896	-2.0625	-1.6812	-2.0896	-1.9937	-1.7271	-2.1875	-1.95	-2.2375	-2.0292	-1.9792	20.081	84.627	84.192	215.369	60.729	-73.652	174.052	198.493	-25.126	100.688	-33.288	-9.012	176.486	257.647	261.302	123.071	0.00050057	0.00066304	0.00016652	625.77	7.0092e-06	6.9071e-06	708.84	272.39	4.104e-06	5.0406e-06	318.84	166.33	119.49	58.066	5.9948e-06	93.59	0.00038157	0.00020338	5.3541e-05	648.79	2.1805e-06	1.9243e-06	735.79	284.22	2.2059e-06	2.0586e-06	332.47	174.68	125.39	61.584	2.3764e-06	98.478	-76.189	0.611	-11.684	-83.948	58.501	54.990	-84.944	-78.720	73.785	45.101	-80.460	-77.122	-74.475	-71.713	72.033	-74.283	-8191	255	
41475.781	1	1	0	0	0.23275	0.30657	0.14655	0.14884	0.28427	0.11151	0.44387	0.076883	0.25949	0.12776	0.08908	0.25741	0.28304	0.14882	0.096391	0.35559	-1.7729	-1.9208	-1.7146	-2.2792	-1.6542	-1.7687	-2.3292	-1.7792	-2.2458	-2.2167	-1.6688	-2.175	-1.8875	-1.9958	-2.375	-1.8167	195.340	-16.836	251.244	61.966	140.386	25.791	214.744	-72.810	87.614	84.431	204.668	204.377	200.392	257.263	132.273	229.422	0.00053129	0.00063602	0.00018501	627.18	6.1652e-06	5.0371e-06	714.56	271.91	2.8605e-06	6.7425e-06	320.68	167.51	118.69	58.439	5.0764e-06	94.314	0.00038498	0.00020335	5.2657e-05	649.84	2.1948e-06	1.9325e-06	739.37	284.07	2.1116e-06	2.0829e-06	334.64	175.67	125.3	61.778	2.3966e-06	99.155	-72.540	-16.441	-12.223	-83.870	65.415	43.918	-84.529	-78.478	76.453	43.928	-80.634	-77.151	-74.500	-71.781	64.779	-74.424	-8191	255	
41475.875	1	1	0	0	0.10203	0.085767	0.10605	0.34895	0.18924	0.23671	0.11282	0.24329	0.17079	0.10898	0.073051	0.19445	0.12771	0.12859	0.17118	0.15213	-1.6292	-1.9083	-1.7125	-2.0896	-1.7687	-2.0333	-2.2188	-1.9167	-2.0583	-2.1521	-1.8458	-2.1354	-1.8312	-1.8146	-2.1937	-2.0604	251.824	-63.774	-85.162	4.849	159.157	252.382	35.035	236.254	-15.375	-22.160	120.540	195.430	169.172	127.194	92.694	242.772	0.00051983	0.00066343	0.00016436	625.05	5.7037e-06	6.1735e-06	708.58	271.76	5.121e-06	7.2658e-06	318.93	165.52	118.23	57.985	5.6506e-06	92.736	0.00038401	0.00019766	5.4201e-05	648.73	2.1687e-06	1.9841e-06	735.38	283.66	2.1972e-06	2.1298e-06	330.93	173.64	124.5	61.297	2.196e-06	97.251	-73.623	-18.693	-17.339	-83.557	67.376	53.479	-84.663	-78.492	73.462	49.124	-80.908	-77.031	-74.567	-71.771	69.073	-74.217	-8191	255	
41475.973	1	1	0	0	0.28862	0.13836	0.22372	0.30072	0.28214	0.1983	0.32514	0.18665	0.27959	0.10046	0.15956	0.29134	0.10339	0.32752	0.28123	0.1948	-1.4	-1.9896	-1.5667	-2.0917	-1.9125	-1.7188	-2.5354	-1.8188	-1.9813	-2.0542	-1.5688	-2.1271	-1.9917	-2.0854	-2.2854	-2.1042	62.364	-17.030	-64.008	260.240	216.641	97.959	-25.832	215.424	115.022	84.698	228.239	164.507	242.772	-37.882	102.530	-66.033	0.00050502	0.00063011	0.00015324	624.58	5.2496e-06	6.1738e-06	705.43	271.47	3.8604e-06	5.951e-06	317.86	165.71	117.49	57.66	3.4578e-06	92.372	0.00038224	0.00019979	5.4424e-05	647.92	2.1836e-06	1.9536e-06	731.79	283.3	2.2076e-06	2.0571e-06	330.43	173.03	124.01	61.075	2.2809e-06	97.109	-73.510	-14.429	-11.066	-83.460	61.876	46.514	-84.698	-78.505	83.701	50.629	-80.809	-76.934	-74.536	-71.916	83.755	-74.387	-8191	255	
41476.066	1	1	0	0	0.2417	0.095178	0.23956	0.26918	0.066041	0.11003	0.11715	0.20516	0.11162	0.21781	0.18781	0.22467	0.18967	0.2273	0.21039	0.36818	-1.3417	-2.1708	-1.6125	-1.9333	-2.0271	-1.7833	-2.4646	-2.0375	-2.0542	-2.2979	-1.7083	-2.0312	-2.2167	-1.7812	-2.0354	-2.0417	104.712	-25.627	14.525	134.378	3.522	67.942	131.662	-77.298	-27.098	146.063	135.509	154.962	157.210	250.115	-4.392	209.388	0.00049551	0.00062971	0.00016876	623.18	5.0013e-06	7.4707e-06	708.85	271.12	3.8596e-06	6.9639e-06	316.31	165.34	118.01	57.715	7.07e-06	92.648	0.00037905	0.00019364	5.6127e-05	648.25	2.1266e-06	2.1183e-06	733.85	283.24	2.2063e-06	1.9767e-06	331.03	173.26	124.56	61.139	2.306e-06	97.46	-71.947	-5.834	-4.965	-83.826	79.182	56.978	-84.479	-78.560	73.512	42.804	-80.249	-77.037	-74.358	-71.869	51.967	-74.347	-8191	255	
41476.164	1	1	0	0	0.17703	0.15495	0.038817	0.14625	0.15506	0.14317	0.073352	0.073975	0.24527	0.010534	0.10268	0.074655	0.095365	0.17031	0.28171	0.066121	-1.2917	-1.9896	-1.8312	-2.225	-2.0792	-1.7479	-2.1875	-2.1312	-1.8792	-2.2354	-1.7437	-1.9271	-2.1562	-1.7417	-2.0938	-2.2271	103.292	151.398	119.491	-9.946	235.042	12.822	-10.102	110.034	184.808	244.291	100.989	187.539	-16.426	255.098	131.508	189.544	0.00050619	0.00083891	0.00019597	624.78	6.2032e-06	5.9549e-06	710.95	271.62	3.6253e-06	6.2434e-06	318.99	165.98	117.95	57.946	7.0794e-06	93.177	0.00038077	0.00019098	5.5848e-05	649.18	2.1002e-06	2.0601e-06	735.39	283.98	2.2574e-06	2.0774e-06	331.51	173.77	124.63	61.2	2.3799e-06	98.07	-75.634	-1.996	-12.622	-83.979	61.448	44.249	-84.735	-78.564	69.727	51.929	-80.574	-77.037	-74.549	-71.917	62.330	-74.149	-8191	255	
41476.281	1	1	0	0	0.030861	0.019607	0.19601	0.12248	0.20872	0.11706	0.24202	0.2278	0.18691	0.24212	0.36682	0.10834	0.1426	0.10513	0.14982	0.1165	-1.4042	-2.1437	-1.7646	-1.8854	-2.1312	-1.6979	-2.2625	-2.1479	-1.6458	-2.1958	-2.0729	-2.1417	-2.2562	-1.8271	-2.1458	-2.2604	201.018	22.944	103.083	-66.713	251.325	243.111	166.841	258.311	61.736	195.175	75.682	199.448	-93.039	248.567	-71.721	162.281	0.00052667	0.00060271	0.00018207	628.54	4.672e-06	6.3223e-06	709.68	270.98	3.4565e-06	5.9259e-06	318.83	164.44	118.61	57.622	5.2324e-06	91.803	0.00039417	0.00019683	5.6229e-05	651.21	2.1273e-06	2.1717e-06	736.67	283.19	2.2399e-06	1.9189e-06	330.45	172.57	124.32	60.987	2.2243e-06	96.565	-73.644	-17.891	-19.423	-83.620	62.843	53.379	-84.683	-78.369	72.334	51.417	-80.624	-77.249	-74.954	-71.811	81.290	-74.169	-8191	255	
41476.379	1	1	0	0	0.19194	0.070309	0.15685	0.13814	0.10698	0.17656	0.1414	0.061062	0.20128	0.096065	0.32209	0.14404	0.1508	0.23044	0.034708	0.17307	-1.2	-2.0792	-2.05	-1.9562	-2.15	-1.7354	-2.1229	-2.3271	-1.6042	-2.2479	-1.9813	-2.0042	-2.3937	-1.8479	-2.0062	-2.5271	83.169	133.300	72.901	59.723	13.588	-77.327	217.175	189.617	37.510	146.324	159.181	-30.826	-86.664	262.526	47.791	139.724	0.00050054	0.00076025	0.00019474	622.07	5.176e-06	6.7884e-06	703.14	270.06	3.6059e-06	4.9022e-06	315.03	164.02	117.41	57.476	5.7518e-06	91.951	0.00038136	0.00019094	5.529e-05	647.01	2.0379e-06	2.2158e-06	729.01	282.52	2.3096e-06	1.9111e-06	328.64	171.92	123.67	60.875	2.2954e-06	96.624	-72.784	-4.396	-9.410	-83.537	62.008	58.051	-84.867	-78.641	78.621	37.391	-80.803	-77.101	-74.567	-71.981	81.089	-74.286	-8191	255	
41476.477	1	1	0	0	0.079525	0.23696	0.089513	0.015995	0.14731	0.18636	0.15925	0.23812	0.15827	0.044594	0.36327	0.29001	0.10945	0.27659	0.12423	0.236	-1.4354	-2.1792	-2.0312	-1.7188	-2.2938	-1.9188	-1.7583	-2.3667	-1.7938	-2.1437	-2.2333	-1.7542	-2.1042	-2.0042	-1.7854	-2.3854	73.955	138.710	-26.503	180.336	-82.331	109.460	-11.107	222.756	241.571	261.962	249.597	214.969	192.411	-67.374	99.316	185.600	0.00053111	0.00051441	0.00017704	625.36	6.7463e-06	6.4292e-06	705.81	270.37	3.5135e-06	7.8578e-06	315.63	164.53	117.9	57.756	5.4362e-06	92.657	0.00038625	0.00017987	5.461e-05	646.05	2.025e-06	2.0582e-06	730.3	282.54	2.3171e-06	1.9782e-06	329.36	172.75	123.99	61.091	2.3591e-06	97.35	-72.855	-15.322	-21.495	-83.484	46.864	50.655	-84.921	-78.558	86.886	31.778	-80.981	-77.052	-74.697	-71.641	71.793	-74.313	-8191	255	
41476.570	1	1	0	0	0.30746	0.090403	0.096025	0.17611	0.077401	0.13303	0.095557	0.083428	0.15807	0.044226	0.15143	0.37533	0.090732	0.088036	0.16938	0.25529	-1.4229	-2.0771	-2.0125	-1.8687	-2.3333	-1.9604	-2.0354	-2.1083	-1.7833	-2.1083	-2.0583	-1.9833	-2.1104	-2.1188	-1.8229	-2.3229	0.146	-82.058	28.024	27.039	173.362	-90.772	132.310	11.052	-62.926	232.190	7.685	190.864	29.738	-93.424	188.117	150.904	0.00053674	0.00064044	0.00016393	621.13	5.5342e-06	5.8602e-06	706.18	272.02	3.5831e-06	5.9324e-06	318.96	166.53	117.9	57.963	6.3295e-06	93.247	0.00038874	0.00018063	5.4443e-05	644.86	2e-06	2.1528e-06	733.64	283.28	2.2975e-06	1.9229e-06	331.41	174	124.23	61.368	2.2897e-06	98.259	-74.059	-18.753	-37.941	-83.529	64.694	42.905	-84.791	-78.198	62.670	41.398	-80.895	-77.135	-74.763	-71.678	60.900	-74.254	-8191	255	
41476.691	1	1	0	0	0.19301	0.22169	0.10171	0.28407	0.12441	0.18541	0.10067	0.19362	0.15763	0.069479	0.13882	0.26057	0.31364	0.343	0.077588	0.1007	-1.4083	-2.1042	-1.9604	-1.7083	-1.9417	-1.9875	-1.8625	-2.2188	-1.875	-1.8854	-2.0479	-1.6396	-2.1979	-2.0271	-1.8021	-2.3729	45.870	-8.054	-16.199	207.620	105.932	90.459	230.070	85.173	182.238	210.987	105.306	202.808	99.920	-85.494	100.139	106.601	0.00051961	0.00069293	0.00015872	622.61	5.8897e-06	6.3061e-06	709.91	271.03	3.1178e-06	6.0334e-06	320.87	166.59	117.93	57.84	4.783e-06	92.526	0.00038638	0.00018432	5.4964e-05	646.46	2.0908e-06	2.089e-06	736.97	283.41	2.2278e-06	1.8739e-06	332.77	174.41	124.54	61.247	2.3109e-06	97.411	-73.816	-9.421	-20.720	-83.757	58.854	43.769	-84.697	-78.685	52.564	42.769	-80.869	-76.956	-74.640	-71.715	80.102	-74.196	-8191	255	
41476.766	1	1	0	0	0.15606	0.24313	0.1353	0.15811	0.17764	0.23435	0.38489	0.23951	0.23461	0.21322	0.10921	0.22244	0.31037	0.17265	0.13828	0.18598	-1.4188	-2.1125	-2.1688	-1.8396	-2.1417	-2.0438	-1.8208	-2.3229	-1.8583	-1.95	-2.2438	-1.8937	-2.1729	-2.1583	-1.7417	-2.325	217.502	218.292	-79.415	9.607	12.024	242.784	201.720	138.849	126.132	26.995	249.418	134.558	216.048	-54.894	170.396	234.997	0.00049097	0.00063015	0.00016573	623.84	6.718e-06	7.2176e-06	704.84	270.8	3.4119e-06	6.2632e-06	317.19	164.54	117.62	57.816	4.9173e-06	92.091	0.00038376	0.00018219	5.3308e-05	645.83	2.0337e-06	2.0868e-06	730.94	282.84	2.2814e-06	2.0055e-06	328.92	172.39	124	61.069	2.3934e-06	96.657	-75.422	-18.832	-6.493	-83.644	70.506	50.154	-84.634	-78.259	63.823	38.307	-80.533	-77.201	-74.703	-71.915	66.543	-74.231	-8191	255	
41476.859	1	1	0	0	0.12851	0.14266	0.13392	0.21701	0.22672	0.32291	0.13835	0.28021	0.17436	0.24758	0.20711	0.15214	0.25625	0.24576	0.12902	0.29823	-1.5812	-1.8542	-2.1854	-1.7979	-1.9604	-2.1083	-1.7938	-2.4875	-1.9562	-1.6042	-2.3104	-1.8354	-2.0833	-2.2	-1.6104	-2.2938	31.746	172.682	-81.415	123.263	148.358	37.145	217.328	207.174	-72.040	-20.729	-76.631	259.611	-20.413	-11.402	242.856	181.861	0.00050235	0.00067408	0.00020272	623.54	4.3397e-06	5.6136e-06	704.65	271.29	3.9507e-06	5.6704e-06	313.79	164.28	117.18	57.751	3.3486e-06	92.096	0.000386	0.00018762	5.4983e-05	644.94	2.0163e-06	2.1687e-06	732.27	282.98	2.3006e-06	2.0645e-06	327.76	172.14	123.53	60.912	2.3152e-06	96.929	-74.619	-17.351	-16.978	-83.741	65.215	55.609	-84.670	-78.499	60.871	44.836	-81.043	-76.980	-74.476	-71.824	56.068	-74.237	-8191	255	
41476.980	1	1	0	0	0.21374	0.085169	0.18508	0.26279	0.40687	0.11325	0.20836	0.14104	0.040343	0.057448	0.09281	0.12959	0.17489	0.36892	0.22622	0.072772	-1.4625	-1.7583	-2.2771	-1.8958	-2.0958	-2.1104	-1.9354	-2.0854	-2.0458	-1.8292	-2.2792	-1.9542	-1.9417	-2.4396	-1.6771	-2.2729	108.577	33.735	202.720	177.214	42.252	129.807	231.738	186.349	71.092	177.385	-69.722	-87.871	189.596	212.979	55.691	-86.978	0.00051703	0.0006478	0.00016013	626.62	5.8369e-06	6.7915e-06	707.55	271.24	3.723e-06	5.0589e-06	316.56	165.68	118.85	57.915	3.9935e-06	93.109	0.00039661	0.00018815	5.3168e-05	646.81	2.0358e-06	2.086e-06	732.76	283.32	2.2672e-06	1.9793e-06	330.28	173.64	124.81	61.22	2.3541e-06	98.02	-74.961	-10.622	-19.068	-83.710	74.432	59.634	-84.906	-78.569	40.957	43.133	-80.633	-77.198	-74.773	-71.855	72.027	-74.089	-8191	255	
41477.074	1	1	0	0	0.21111	0.10898	0.15429	0.086419	0.38502	0.090215	0.2381	0.23971	0.17822	0.091447	0.36535	0.29495	0.13514	0.28592	0.28406	0.46405	-1.65	-1.725	-2.2938	-1.9604	-1.8146	-2.4646	-1.9438	-2.1729	-2.3063	-1.7375	-2.2229	-1.8792	-1.8396	-2.1917	-1.8	-2.2333	3.155	150.657	-21.669	-88.797	-29.950	89.418	204.284	251.097	56.863	245.615	-32.184	-71.257	71.104	-53.281	239.706	217.947	0.00052747	0.000752	0.00015273	622.04	6.5062e-06	5.7128e-06	713.96	272.03	3.3515e-06	5.379e-06	320.11	166.29	118.43	58.235	5.3056e-06	94.181	0.00039858	0.00019726	5.3438e-05	646.2	2.1502e-06	2.0808e-06	737.29	283.97	2.247e-06	2.0369e-06	332.77	175.05	125	61.688	2.4426e-06	98.975	-73.123	-0.508	-11.862	-83.780	46.865	55.953	-84.790	-78.341	65.234	27.680	-80.658	-76.895	-74.661	-71.820	76.383	-74.276	-8191	255	
41477.172	1	1	0	0	0.052019	0.19023	0.18519	0.30406	0.21237	0.12694	0.15924	0.12896	0.23957	0.12793	0.25018	0.085033	0.14299	0.20878	0.13186	0.073449	-1.7229	-1.5354	-2.1333	-2.0542	-1.9354	-2.3187	-1.75	-2.2229	-2.2687	-1.6229	-2	-1.9833	-1.775	-2.525	-1.8375	-2.2771	-15.867	189.676	94.500	-89.206	141.810	-5.817	223.514	211.752	213.082	29.456	-68.628	30.541	58.259	235.935	90.066	-84.094	0.00052288	0.00073566	0.00016646	622.59	6.6711e-06	5.3603e-06	708.03	272.64	2.5016e-06	5.9891e-06	318.86	165.17	118.87	58.064	5.0969e-06	92.452	0.00039258	0.00019926	5.168e-05	645.83	2.1374e-06	2.1109e-06	734.96	284.24	2.3356e-06	2.0837e-06	329.86	173.23	124.88	61.28	2.4549e-06	97.136	-74.795	-15.141	-11.101	-83.753	60.317	45.708	-84.684	-78.493	44.637	49.146	-80.618	-77.116	-74.579	-71.799	60.010	-74.284	-8191	255	
41477.266	1	1	0	0	0.16797	0.11495	0.10007	0.016557	0.11849	0.062888	0.18009	0.35811	0.1546	0.20119	0.35493	0.4016	0.086295	0.20275	0.13683	0.23022	-1.6979	-1.6375	-1.9354	-2.1958	-1.6354	-2.2979	-1.8729	-1.9688	-2.1396	-1.7896	-2.0792	-2.2062	-1.8	-2.1104	-1.8438	-2.1021	-84.133	-53.280	126.110	178.726	72.378	-65.317	156.450	-94.227	9.127	4.189	177.667	250.657	110.379	106.298	-36.986	228.504	0.00053222	0.00080974	0.00018658	621.37	6.6186e-06	4.7194e-06	707	271.27	2.2518e-06	5.1765e-06	318.17	165.1	118.66	58.171	4.7455e-06	92.828	0.00039367	0.00020694	5.3606e-05	645.31	2.0946e-06	2.0397e-06	732.76	283.22	2.2915e-06	2.1091e-06	330.52	173.34	124.7	61.419	2.45e-06	97.578	-73.849	-11.041	-20.585	-83.684	67.638	52.975	-84.685	-78.655	85.339	46.843	-80.899	-76.830	-74.719	-71.804	79.198	-74.231	-8191	255	
41477.363	1	1	0	0	0.18262	0.22525	0.064221	0.27796	0.023497	0.1311	0.17215	0.1833	0.051901	0.28873	0.22326	0.29019	0.37655	0.19772	0.09704	0.094482	-1.6792	-1.8125	-2.0896	-2.2354	-1.7854	-2.2271	-1.9021	-1.9292	-2.1792	-1.8208	-2.0833	-2.1979	-1.8042	-2.1833	-1.9	-1.9771	109.003	-91.894	67.096	256.839	190.258	27.278	0.528	-64.374	150.265	-53.376	118.695	190.623	123.628	152.558	224.547	225.848	0.00050281	0.00073831	0.00018063	622.9	4.9622e-06	6.8693e-06	709.31	271.13	2.9371e-06	5.2493e-06	318.12	165.49	118.03	58.047	5.6951e-06	93.66	0.00038258	0.0001959	4.9577e-05	646.67	2.1454e-06	1.9726e-06	735.91	283.4	2.2308e-06	2.0918e-06	331.13	173.9	124.59	61.426	2.428e-06	98.247	-73.765	-16.239	-9.690	-83.920	71.099	59.718	-84.502	-78.604	83.117	31.657	-81.170	-76.828	-74.821	-71.673	85.723	-74.232	-8191	255	
41477.461	1	1	0	0	0.046698	0.1096	0.24868	0.2168	0.067175	0.15151	0.28085	0.21748	0.07665	0.30628	0.24295	0.020081	0.11487	0.45061	0.18501	0.37283	-1.7375	-1.8583	-1.8875	-2.2833	-1.6646	-2.0875	-2.0417	-1.9896	-2.1604	-1.7833	-2.0104	-2.3646	-1.7979	-2.2021	-1.9521	-1.8146	3.532	142.215	-65.835	161.414	56.594	33.154	175.387	212.390	118.614	134.046	91.658	-9.519	-26.611	219.535	120.768	205.947	0.00053824	0.00066678	0.00016657	622.43	6.3389e-06	5.3972e-06	711.36	273.69	3.0688e-06	6.5883e-06	322.96	167.16	118.97	58.279	4.9604e-06	94.323	0.00038901	0.00018868	5.0489e-05	646.83	2.2212e-06	1.9603e-06	739.21	284.75	2.2972e-06	2.1936e-06	334.09	175.42	125.5	61.706	2.3697e-06	99.143	-71.911	-3.233	-12.631	-83.676	67.382	46.460	-84.598	-78.539	67.512	43.061	-80.660	-77.001	-74.492	-71.768	72.369	-74.100	-8191	255	
41477.555	1	1	0	0	0.079524	0.1556	0.20074	0.12982	0.046981	0.11593	0.12106	0.082138	0.10102	0.10696	0.066713	0.3602	0.37311	0.086793	0.24301	0.11925	-1.8708	-1.8312	-1.9625	-2.2313	-1.6396	-2.2167	-2.2104	-1.975	-2.0646	-1.9583	-1.7854	-2.3021	-1.7062	-2.3125	-2.1083	-1.7062	164.550	32.515	216.427	240.315	-1.646	251.809	127.061	48.198	222.821	146.668	-15.044	125.078	254.007	133.969	155.292	80.889	0.00052578	0.00068548	0.0001558	625.95	5.3262e-06	7.252e-06	718.64	272.82	4.2581e-06	5.0983e-06	321.06	167.06	119.36	58.115	5.2593e-06	92.921	0.00038862	0.0001973	5.1708e-05	649.12	2.1214e-06	2.0215e-06	742.2	285.08	2.2113e-06	2.0029e-06	333.27	174.67	125.54	61.572	2.4631e-06	97.685	-73.901	-12.322	-9.980	-83.679	52.854	49.801	-84.861	-78.410	71.194	46.754	-80.793	-77.008	-74.525	-71.767	57.840	-74.212	-8191	255	
41477.652	1	1	0	0	0.13754	0.2415	0.2041	0.061672	0.055432	0.28797	0.15097	0.11039	0.080835	0.25726	0.018613	0.20168	0.1412	0.39307	0.22464	0.18511	-1.6708	-1.9604	-1.7563	-2.2104	-1.7396	-2.0333	-2.1813	-1.8375	-2.075	-1.8792	-2.0062	-2.3958	-1.6792	-2.0354	-2.0833	-1.6333	62.957	159.802	-58.670	251.802	-64.529	154.676	248.503	144.244	-28.734	161.640	258.208	104.467	157.059	-46.201	15.953	187.152	0.0005268	0.00071655	0.00018628	622.73	6.4245e-06	5.247e-06	706.78	271.03	2.66e-06	5.3919e-06	317.63	165.24	118.52	58.048	5.5794e-06	92.572	0.00037951	0.00019763	5.2778e-05	645.96	2.2299e-06	1.9077e-06	734.62	283.6	2.1732e-06	2.0759e-06	329.31	173.13	124.62	61.355	2.3877e-06	97.185	-74.527	-13.145	-14.780	-83.644	53.677	44.177	-84.876	-78.516	90.873	52.085	-80.845	-76.977	-74.488	-71.745	59.931	-74.210	-8191	255	
41477.773	1	1	0	0	0.098903	0.1172	0.26833	0.16852	0.1168	0.1966	0.14911	0.14551	0.22525	0.23738	0.28126	0.21387	0.077979	0.020727	0.21989	0.17515	-1.7083	-1.9792	-1.6333	-2.275	-1.9646	-1.7437	-2.3083	-1.7542	-2.0208	-1.9479	-1.5854	-2.0833	-1.8354	-1.8021	-2.1875	-1.9188	224.210	-64.672	99.573	88.271	135.906	81.924	243.748	139.793	247.415	156.984	235.509	-71.453	227.958	220.298	203.560	154.275	0.00052162	0.00073053	0.000153	623.3	4.8809e-06	6.1836e-06	709.66	271.95	3.4293e-06	5.5371e-06	317.75	165.34	118.07	57.919	4.8523e-06	92.356	0.00037921	0.00020355	5.3587e-05	646.09	2.2302e-06	2.0267e-06	735.78	283.85	2.1258e-06	2.1692e-06	329.71	173.29	124.69	61.223	2.3796e-06	97.37	-74.318	-14.662	-6.500	-83.494	62.704	55.135	-84.648	-78.393	70.555	46.211	-80.997	-76.946	-74.664	-71.870	70.549	-74.236	-8191	255	
41477.867	1	1	0	0	0.23876	0.3515	0.14006	0.19742	0.31429	0.072202	0.1675	0.16775	0.063386	0.074499	0.11083	0.32698	0.092873	0.15611	0.14619	0.071931	-1.5375	-1.9583	-1.725	-2.1146	-1.8354	-1.8042	-2.1021	-1.8188	-1.9729	-1.9542	-1.5521	-2.2938	-1.7792	-1.8062	-2.425	-1.7833	-26.044	60.459	242.399	170.970	-60.435	160.617	-55.856	223.008	-68.175	140.284	73.541	-95.994	204.723	-55.780	110.457	-82.267	0.00051194	0.00075256	0.00013806	622.35	5.3619e-06	6.8643e-06	712.71	272.67	3.9122e-06	6.222e-06	317.04	166.37	118.89	58.001	4.5477e-06	93.228	0.00037781	0.00020199	5.3196e-05	646.75	2.2132e-06	2.0215e-06	739.31	284.62	2.2164e-06	2.0601e-06	331.25	174.3	124.97	61.295	2.3895e-06	97.936	-72.928	-15.171	-4.675	-83.858	64.837	57.565	-85.008	-78.506	79.104	50.239	-81.163	-76.937	-74.379	-71.681	68.064	-74.121	-8191	255	
41477.965	1	1	0	0	0.15617	0.21526	0.26728	0.1095	0.056845	0.24863	0.062928	0.36366	0.20245	0.31325	0.11903	0.14905	0.24069	0.12777	0.15794	0.29633	-1.5708	-1.975	-1.7021	-2.1417	-2.0104	-1.5958	-2.4	-1.8646	-2.1	-2.1875	-1.8229	-2.1063	-1.9354	-1.7646	-2.2333	-2.0729	258.970	109.670	-92.835	51.155	12.765	96.216	-13.138	168.998	33.296	74.577	-56.219	144.854	-5.195	212.225	-41.733	174.621	0.00051498	0.00074778	0.00018344	628.36	7.3221e-06	6.1478e-06	716.31	274.41	4.4711e-06	5.9873e-06	320.36	167.05	118.56	58.053	5.1476e-06	93.208	0.00038154	0.0001967	5.5959e-05	650.27	2.2289e-06	2.0497e-06	743.96	285.73	2.2403e-06	2.0848e-06	333.99	175.1	125.25	61.388	2.2883e-06	97.679	-73.107	-19.903	4.061	-83.687	74.807	63.282	-84.848	-78.648	85.168	46.634	-80.861	-77.054	-74.880	-71.587	63.220	-74.156	-8191	255	
41478.059	1	1	0	0	0.085125	0.19542	0.20307	0.12513	0.01458	0.16633	0.13502	0.098014	0.2539	0.1132	0.19244	0.25998	0.11807	0.31599	0.22377	0.18202	-1.4	-2.0208	-1.7729	-1.9958	-2.0375	-1.6896	-2.2458	-2.0021	-1.8937	-2.2792	-1.6	-2.0917	-2.2208	-1.8875	-2.2	-2.0792	68.823	37.237	79.430	41.147	214.170	154.848	-95.250	59.423	-3.588	-20.413	219.950	144.832	248.183	206.309	137.797	141.984	0.00052716	0.00064913	0.00018617	622.95	5.281e-06	5.8032e-06	714.95	273.52	4.0055e-06	6.2456e-06	318.05	165.98	117.6	57.769	4.6143e-06	91.992	0.00038491	0.0001944	5.6452e-05	647.44	2.0525e-06	1.9674e-06	740.53	284.77	2.2497e-06	1.9325e-06	331.86	173.38	124.94	61.273	2.2179e-06	97.132	-75.827	-15.077	-14.320	-83.427	64.741	37.915	-85.074	-78.446	85.185	48.942	-81.017	-76.920	-74.432	-71.689	61.728	-74.156	-8191	255	
41478.156	1	1	0	0	0.19132	0.18495	0.10109	0.21481	0.31872	0.18815	0.24567	0.24004	0.08434	0.062548	0.21789	0.27415	0.053354	0.27484	0.11463	0.1514	-1.2375	-2.2333	-1.9354	-1.9583	-2.1854	-1.8042	-2.3667	-2.0229	-1.5896	-2.1979	-1.8646	-1.9708	-2.2542	-1.7208	-2.0187	-2.2375	94.240	16.344	-74.380	-73.815	-78.727	36.629	197.771	148.317	183.997	167.637	-64.641	243.851	130.481	-73.741	243.407	228.348	0.00052367	0.00051601	0.00016563	625.04	6.2948e-06	6.3795e-06	712.63	273.18	3.8914e-06	5.5144e-06	318.37	166.27	119.1	58.151	6.8194e-06	92.752	0.00038552	0.00019277	5.2201e-05	647.32	2.1447e-06	2.043e-06	738.91	284.84	2.2271e-06	2.0287e-06	330.78	174.01	125.58	61.515	2.3856e-06	97.738	-75.269	-12.178	-15.495	-83.845	74.642	58.385	-84.799	-78.605	73.102	55.840	-80.872	-77.272	-74.693	-71.788	66.858	-74.205	-8191	255	
41478.254	1	1	0	0	0.24563	0.14765	0.32257	0.32379	0.095324	0.024203	0.1088	0.1471	0.027618	0.18582	0.08712	0.21999	0.094702	0.20941	0.13545	0.12134	-1.2417	-2.3854	-1.7563	-2.0333	-2.1417	-1.8354	-2.2167	-1.9562	-1.6625	-2.2083	-1.7875	-1.8917	-2.2333	-1.7875	-1.9958	-2.1146	-47.800	246.694	45.014	120.258	207.539	-67.171	224.082	192.759	45.535	94.765	57.197	163.655	-36.564	194.340	66.150	156.618	0.00052168	0.0005746	0.00019662	624.7	5.4078e-06	5.8301e-06	711.78	274.32	4.5074e-06	8.3769e-06	319.97	167.99	119.5	58.481	6.7296e-06	93.567	0.00038507	0.00019523	5.7457e-05	646.42	2.161e-06	2.1576e-06	740.55	285.69	2.243e-06	2.0708e-06	333.28	175.3	125.92	61.92	2.3124e-06	98.35	-75.278	-13.259	-0.162	-83.640	64.564	39.463	-84.696	-78.567	75.826	42.692	-80.631	-76.925	-74.739	-71.773	64.308	-74.217	-8191	255	
41478.371	1	1	0	0	0.10282	0.067024	0.088647	0.19764	0.23515	0.26877	0.21498	0.26804	0.10691	0.059407	0.22422	0.17013	0.10919	0.12306	0.082631	0.23341	-1.2146	-1.8312	-1.9021	-1.8521	-2.0792	-1.9688	-2.0854	-2.2	-1.8708	-2.1979	-2.0229	-1.9667	-2.3729	-2.0292	-2.0833	-2.1312	236.566	80.645	-79.799	194.770	73.930	166.140	248.687	208.922	-27.604	179.226	198.994	226.470	49.552	183.368	222.015	169.545	0.00050186	0.000756	0.00015528	624.96	7.0142e-06	5.6467e-06	718.33	274.24	2.9893e-06	6.2142e-06	321.31	167.57	121.28	58.757	3.8813e-06	93.927	0.00038867	0.00020016	5.6518e-05	648	2.1565e-06	2.1087e-06	743.74	286.24	2.2642e-06	1.955e-06	333.92	175.62	126.6	62.058	2.2911e-06	98.491	-76.423	-11.222	3.851	-83.712	62.813	53.208	-84.539	-78.597	63.189	46.677	-80.834	-76.713	-74.492	-71.756	56.795	-74.025	-8191	255	
41478.469	1	1	0	0	0.096626	0.30914	0.086337	0.1197	0.17722	0.1987	0.15356	0.12974	0.19112	0.1106	0.077982	0.19035	0.13178	0.23558	0.059328	0.12859	-1.2437	-2.1396	-1.9062	-1.7125	-2.2854	-1.7479	-1.9958	-2.0833	-1.6437	-2.1229	-1.9729	-1.7771	-2.0729	-1.8667	-1.7417	-2.4562	230.549	-66.575	-49.822	-57.493	-25.703	-44.967	262.361	-57.817	87.439	-6.650	-31.193	-62.330	180.677	247.915	100.460	-66.288	0.00052199	0.00068929	0.00016907	623.86	4.6431e-06	7.2838e-06	709.94	273.73	3.1394e-06	6.9095e-06	318.71	165.88	119.22	58.39	6.0405e-06	92.101	0.00040292	0.00018602	5.5894e-05	648.36	2.0115e-06	2.1257e-06	738.35	285.53	2.342e-06	1.9756e-06	331.72	174.13	125.81	61.698	2.3484e-06	97.053	-73.433	-19.127	-12.382	-83.734	59.953	57.137	-84.691	-78.758	63.523	34.217	-80.785	-77.002	-74.614	-71.658	63.198	-74.188	-8191	255	
41478.562	1	1	0	0	0.18559	0.24182	0.1219	0.061187	0.16731	0.16191	0.25985	0.1059	0.091282	0.16402	0.10173	0.10477	0.22733	0.2246	0.16333	0.13367	-1.1979	-1.8479	-1.9521	-1.7875	-2.0563	-1.9708	-1.9813	-2.2313	-1.5688	-2.0208	-2.1125	-1.6875	-2.0604	-2.0375	-1.8771	-2.2729	202.193	2.119	85.511	102.634	8.215	260.264	222.404	185.908	231.109	202.713	193.430	-37.174	61.828	178.297	207.655	95.431	0.00053657	0.00063038	0.00012267	622.3	7.2564e-06	5.06e-06	707.31	272.32	3.8034e-06	6.0904e-06	316.65	165.04	118.64	58.263	6.3157e-06	92.705	0.0003946	0.00018888	5.5215e-05	645.4	2.0483e-06	2.0419e-06	732.97	284.44	2.3554e-06	1.952e-06	329.32	173.34	125.31	61.619	2.4252e-06	97.408	-71.639	-10.707	-4.589	-83.737	63.838	57.964	-84.692	-78.382	75.228	52.489	-80.945	-77.030	-74.687	-71.775	79.710	-74.226	-8191	255	
41478.660	1	1	0	0	0.35289	0.11573	0.29249	0.023682	0.19184	0.25737	0.20395	0.13938	0.10115	0.26531	0.13239	0.11432	0.32579	0.026424	0.031614	0.16626	-1.1542	-2.0875	-1.9688	-1.5875	-2.1917	-2.0563	-1.6667	-2.3542	-1.6333	-1.8958	-2.2208	-1.6875	-2.1104	-2.0104	-1.7646	-2.3125	228.936	221.275	111.088	177.899	-25.625	44.048	258.066	231.387	129.779	-42.125	194.285	169.723	228.062	41.291	166.327	227.036	0.00054267	0.00065165	0.00020177	619.2	7.309e-06	5.2055e-06	708.11	271.55	3.1515e-06	5.8192e-06	320.75	166.25	119.61	58.346	6.0859e-06	93.374	0.00038792	0.00018339	5.6471e-05	643.26	2.0264e-06	2.0834e-06	734.65	284.29	2.2827e-06	1.9624e-06	331.95	174.42	125.79	61.717	2.33e-06	98.016	-73.676	-27.411	-8.519	-83.665	50.903	52.750	-84.645	-78.273	66.221	58.093	-80.643	-77.098	-74.349	-71.686	52.074	-74.273	-8191	255	
#DATA ENDS
