BOXY.EXE: ISS Imagent and Oximeter Data Acquisition Program Version 0.80
Ascii Record File

#ACQ INFORMATION
2  Detector Channels 
16  External MUX Channels 
1  Auxiliary Channels 
5000  Waveform (CCF) Frequency (Hz)
1  Waveforms Skipped 
30  Waveforms Averaged 
1  Cycles Averaged 
16  Acquisitions per Waveform 
10.0806  Updata Rate (Hz) 

#FILE INFORMATION
TRUE -- External MUX Channel results are PARSED.
FALSE -- AC DC and Phase are NOT grouped.
TRUE -- Companion Program Settings File CREATED.
FALSE -- AC data not excluded
FALSE -- DC data not excluded
FALSE -- Phase data not excluded
FALSE -- Auxillary Chn. data not excluded
Tab delimiters

#CALIBRATION STATE
TRUE -- Waveform Calibration Values APPLIED.


#AUX CALIBRATION VALUES
Val Type	aux-1	

Term	1.0000e+00	
Factor	0.0000e+00	


#WF CALIBRATION VALUES
A = Detector Channel
Val Type	A-AC1	A-AC2	A-AC3	A-AC4	A-AC5	A-AC6	A-AC7	A-AC8	A-AC9	A-AC10	A-AC11	A-AC12	A-AC13	A-AC14	A-AC15	A-AC16	A-DC1	A-DC2	A-DC3	A-DC4	A-DC5	A-DC6	A-DC7	A-DC8	A-DC9	A-DC10	A-DC11	A-DC12	A-DC13	A-DC14	A-DC15	A-DC16	A-Ph1	A-Ph2	A-Ph3	A-Ph4	A-Ph5	A-Ph6	A-Ph7	A-Ph8	A-Ph9	A-Ph10	A-Ph11	A-Ph12	A-Ph13	A-Ph14	A-Ph15	A-Ph16	

Term	0.00000e+00	0.00000e+00	0.00000e+00	0.00000e+00	0.00000e+00	0.00000e+00	0.00000e+00	0.00000e+00	0.00000e+00	0.00000e+00	0.00000e+00	0.00000e+00	0.00000e+00	0.00000e+00	0.00000e+00	0.00000e+00	0.00000e+00	0.00000e+00	0.00000e+00	0.00000e+00	0.00000e+00	0.00000e+00	0.00000e+00	0.00000e+00	0.00000e+00	0.00000e+00	0.00000e+00	0.00000e+00	0.00000e+00	0.00000e+00	0.00000e+00	0.00000e+00	0.00000e+00	0.00000e+00	0.00000e+00	0.00000e+00	0.00000e+00	0.00000e+00	0.00000e+00	0.00000e+00	0.00000e+00	0.00000e+00	0.00000e+00	0.00000e+00	0.00000e+00	0.00000e+00	0.00000e+00	0.00000e+00	
Factor	1.00000e+00	1.00000e+00	1.00000e+00	1.00000e+00	1.00000e+00	1.00000e+00	1.00000e+00	1.00000e+00	1.00000e+00	1.00000e+00	1.00000e+00	1.00000e+00	1.00000e+00	1.00000e+00	1.00000e+00	1.00000e+00	1.00000e+00	1.00000e+00	1.00000e+00	1.00000e+00	1.00000e+00	1.00000e+00	1.00000e+00	1.00000e+00	1.00000e+00	1.00000e+00	1.00000e+00	1.00000e+00	1.00000e+00	1.00000e+00	1.00000e+00	1.00000e+00	X	X	X	X	X	X	X	X	X	X	X	X	X	X	X	X	

B = Detector Channel
Val Type	B-AC1	B-AC2	B-AC3	B-AC4	B-AC5	B-AC6	B-AC7	B-AC8	B-AC9	B-AC10	B-AC11	B-AC12	B-AC13	B-AC14	B-AC15	B-AC16	B-DC1	B-DC2	B-DC3	B-DC4	B-DC5	B-DC6	B-DC7	B-DC8	B-DC9	B-DC10	B-DC11	B-DC12	B-DC13	B-DC14	B-DC15	B-DC16	B-Ph1	B-Ph2	B-Ph3	B-Ph4	B-Ph5	B-Ph6	B-Ph7	B-Ph8	B-Ph9	B-Ph10	B-Ph11	B-Ph12	B-Ph13	B-Ph14	B-Ph15	B-Ph16	

Term	0.00000e+00	0.00000e+00	0.00000e+00	0.00000e+00	0.00000e+00	0.00000e+00	0.00000e+00	0.00000e+00	0.00000e+00	0.00000e+00	0.00000e+00	0.00000e+00	0.00000e+00	0.00000e+00	0.00000e+00	0.00000e+00	0.00000e+00	0.00000e+00	0.00000e+00	0.00000e+00	0.00000e+00	0.00000e+00	0.00000e+00	0.00000e+00	0.00000e+00	0.00000e+00	0.00000e+00	0.00000e+00	0.00000e+00	0.00000e+00	0.00000e+00	0.00000e+00	-1.31583e+02	-1.21578e+02	-1.40012e+02	-1.81298e+02	-8.87385e+01	-6.29981e+01	-1.57795e+02	-1.62015e+02	-6.94921e+01	-9.60310e+01	-1.75953e+02	-1.70521e+02	-1.80371e+02	-1.76072e+02	-6.81803e+01	-1.48893e+02	
Factor	1.93261e-05	1.42640e-04	3.75110e-05	1.68919e-01	1.12948e-06	1.23653e-06	1.80120e-01	7.03469e-02	1.11070e-06	1.40164e-06	1.16901e-01	3.27342e-02	2.64059e-02	1.04235e-02	1.14977e-06	1.44954e-02	1.13826e-06	1.18118e-06	3.28429e-07	8.21832e-02	1.29226e-08	1.29492e-08	8.20368e-02	3.39068e-02	1.29380e-08	1.29875e-08	5.34765e-02	1.52769e-02	1.27878e-02	5.00872e-03	1.30016e-08	6.72239e-03	X	X	X	X	X	X	X	X	X	X	X	X	X	X	X	X	



#DISTANCE SETTINGS
A = Detector Channel
A-1	A-2	A-3	A-4	A-5	A-6	A-7	A-8	A-9	A-10	A-11	A-12	A-13	A-14	A-15	A-16	

2.5000e+00	3.0000e+00	2.5000e+00	3.0000e+00	2.0000e+00	3.0000e+00	1.5000e+00	3.0000e+00	3.0000e+00	3.0000e+00	3.0000e+00	3.0000e+00	3.0000e+00	3.0000e+00	1.5000e+00	3.0000e+00	

B = Detector Channel
B-1	B-2	B-3	B-4	B-5	B-6	B-7	B-8	B-9	B-10	B-11	B-12	B-13	B-14	B-15	B-16	

1.0000e+01	1.0000e+01	1.0000e+01	1.4400e+00	1.0000e+01	1.0000e+01	1.5100e+00	1.9400e+00	1.0000e+01	1.0000e+01	1.9900e+00	2.4900e+00	2.4100e+00	2.9000e+00	1.0000e+01	2.9800e+00	




#DATA BEGINS
time	group	step	mark	flag	A-AC1	A-AC2	A-AC3	A-AC4	A-AC5	A-AC6	A-AC7	A-AC8	A-AC9	A-AC10	A-AC11	A-AC12	A-AC13	A-AC14	A-AC15	A-AC16	A-DC1	A-DC2	A-DC3	A-DC4	A-DC5	A-DC6	A-DC7	A-DC8	A-DC9	A-DC10	A-DC11	A-DC12	A-DC13	A-DC14	A-DC15	A-DC16	A-Ph1	A-Ph2	A-Ph3	A-Ph4	A-Ph5	A-Ph6	A-Ph7	A-Ph8	A-Ph9	A-Ph10	A-Ph11	A-Ph12	A-Ph13	A-Ph14	A-Ph15	A-Ph16	B-AC1	B-AC2	B-AC3	B-AC4	B-AC5	B-AC6	B-AC7	B-AC8	B-AC9	B-AC10	B-AC11	B-AC12	B-AC13	B-AC14	B-AC15	B-AC16	B-DC1	B-DC2	B-DC3	B-DC4	B-DC5	B-DC6	B-DC7	B-DC8	B-DC9	B-DC10	B-DC11	B-DC12	B-DC13	B-DC14	B-DC15	B-DC16	B-Ph1	B-Ph2	B-Ph3	B-Ph4	B-Ph5	B-Ph6	B-Ph7	B-Ph8	B-Ph9	B-Ph10	B-Ph11	B-Ph12	B-Ph13	B-Ph14	B-Ph15	B-Ph16	aux-1	digaux	

1532.553	1	1	0	768	0.083044	0.23582	0.027335	0.43045	0.38524	0.13192	0.26167	0.42809	0.26023	0.22148	0.19657	0.1157	0.26079	0.31659	0.020362	0.22416	0.10208	-0.91458	-0.85417	-0.4875	-1.4271	-0.53333	-0.51458	-1.4354	-0.4875	-0.86458	-1.1854	-0.48542	-1.3792	-0.975	-0.38542	-1.3708	173.693	-29.769	79.266	201.988	145.133	-4.889	209.184	241.603	185.417	246.210	171.625	197.711	174.070	246.147	230.976	-76.151	0.00041686	0.0022663	0.00063618	1116.9	6.9768e-06	2.7864e-06	1374.4	413.19	1.4542e-05	1.3227e-05	602.81	236.41	160.74	65.067	7.939e-06	105.02	0.0032137	0.0033439	0.00092356	1173.9	3.6958e-05	3.6931e-05	1396.7	442.16	3.6801e-05	3.7378e-05	647.76	241.75	171.22	68.517	3.6938e-05	106.67	234.018	-49.482	-41.384	-82.147	50.632	38.242	-82.964	-78.056	224.209	79.778	-79.466	-75.202	-73.962	-68.891	259.030	-70.690	-8191	255	
1532.649	1	1	0	0	0.099304	0.10157	0.11591	0.37761	0.11062	0.20945	0.10374	0.17841	0.15421	0.20556	0.15187	0.34822	0.13857	0.24504	0.076192	0.42172	-0.23542	-0.73542	-1.2167	-0.50208	-1.175	-1.1292	-0.63958	-1.3792	-0.41458	-0.79792	-1.1667	-0.47083	-1.2125	-1.1	-0.39792	-1.6021	-60.779	-57.267	-54.515	172.619	168.469	231.363	226.027	247.684	41.669	60.286	216.976	232.633	214.981	214.530	231.900	192.594	0.00031709	0.00064918	0.00010414	1112.9	1.2297e-05	6.536e-06	1365.1	413.19	3.2776e-05	5.167e-06	605.89	237	159.46	64.968	1.8161e-05	105.89	0.0032762	0.0033883	0.00093294	1171.8	3.7226e-05	3.7244e-05	1395.9	442.64	3.7352e-05	3.7533e-05	651.51	242.5	171.42	68.611	3.7341e-05	107.38	207.159	-31.783	195.532	-82.438	152.686	18.635	-82.924	-78.153	229.213	247.230	-79.081	-75.643	-74.289	-68.970	6.361	-70.752	-8191	255	
1532.745	1	1	0	0	0.18392	0.15447	0.12234	0.12915	0.086715	0.27691	0.20414	0.19121	0.28591	0.063341	0.10738	0.30259	0.24933	0.36236	0.11496	0.20758	-0.35417	-0.71458	-1.1271	-0.42292	-1.0375	-0.81875	-0.59583	-1.3563	-0.6875	-0.44792	-1.2771	-0.54167	-1.0542	-1.2104	-0.45208	-1.4062	-5.379	103.872	-52.985	227.355	-43.068	208.773	129.899	178.653	-86.524	82.729	-89.892	258.508	243.121	229.525	243.402	187.724	0.00054017	0.0017686	0.00068613	1108.4	9.5311e-07	2.8154e-05	1377.7	415.12	1.5762e-05	1.6579e-05	606.97	236.39	160.27	65.138	2.7567e-05	106.06	0.0033134	0.0034289	0.00094793	1173.7	3.783e-05	3.7407e-05	1398	445.75	3.7252e-05	3.7374e-05	650.17	241.57	170.88	68.349	3.6339e-05	106.55	180.834	49.283	11.231	-82.493	-43.007	128.160	-82.914	-77.778	-22.842	-38.823	-79.353	-75.864	-74.226	-69.179	70.847	-71.366	-8191	255	
1532.841	1	1	0	0	0.22415	0.15697	0.29076	0.19587	0.048873	0.25085	0.27486	0.24095	0.24761	0.0098876	0.31011	0.37313	0.033359	0.032637	0.19882	0.24413	-0.28333	-0.39375	-1.3021	-0.58125	-0.87917	-1.125	-0.58125	-1.3792	-0.72708	-0.47292	-1.2417	-0.5875	-0.84583	-1.1875	-0.45625	-1.2	-74.199	-61.173	-31.767	-91.260	133.107	-66.273	251.057	190.247	-19.911	146.179	-64.099	190.077	243.285	158.654	79.945	244.380	0.00027498	0.0011777	0.00010093	1112.3	1.4837e-05	2.7833e-05	1369.6	418.59	1.0883e-05	1.9225e-05	610.39	237.39	161.05	65.225	3.6255e-06	106.06	0.0031981	0.0032956	0.00090725	1163.4	3.5604e-05	3.5417e-05	1386.2	441.91	3.5418e-05	3.5201e-05	644.62	240.32	169.62	67.778	3.4868e-05	106.06	150.363	-13.974	-79.598	-82.575	-4.941	136.594	-83.150	-77.725	-84.974	18.379	-79.280	-75.692	-74.204	-68.930	81.373	-70.784	-8191	255	
1532.937	1	1	0	0	0.17949	0.10821	0.24907	0.092306	0.29845	0.071543	0.16227	0.41194	0.22815	0.046462	0.34286	0.24799	0.10461	0.18563	0.081113	0.17623	-0.48958	-0.37917	-1.1875	-0.51042	-0.56875	-1.1042	-0.4375	-1.0729	-0.92708	-0.33333	-1.5917	-0.81667	-0.85417	-1.0104	-0.46875	-1.1771	201.034	-14.173	126.560	-78.412	62.375	-79.437	227.756	138.533	-81.353	-91.215	196.548	183.653	255.457	219.538	200.077	205.800	0.0004829	0.0022564	0.0006212	1121.2	1.4628e-05	1.9382e-05	1378.3	418.84	1.4695e-05	3.1138e-05	612.54	236.75	161.37	65.406	2.8022e-05	105.62	0.003094	0.0031737	0.00088615	1165.6	3.4784e-05	3.4893e-05	1388.5	443.67	3.5357e-05	3.5371e-05	648.78	240.7	170.28	68.091	3.5392e-05	106.28	196.468	35.861	118.356	-82.343	237.132	76.486	-83.189	-78.260	20.386	-76.538	-79.114	-75.981	-74.327	-68.972	225.506	-71.125	-8191	255	
1533.033	1	1	0	0	0.23629	0.15667	0.14305	0.41968	0.055972	0.061446	0.17635	0.2018	0.18444	0.26105	0.077514	0.11481	0.087989	0.098027	0.39863	0.36552	-0.61667	-0.225	-1.0646	-0.7	-0.60833	-1.3438	-0.41875	-1.0417	-0.88333	-0.37708	-1.3333	-1	-0.4125	-1.3208	-0.45208	-1.0646	157.935	171.742	245.936	185.655	173.062	-68.263	256.273	197.247	-85.917	85.800	53.462	161.821	-90.858	-28.599	120.797	181.047	0.00049733	0.0027245	0.00044324	1114.3	1.2592e-05	3.1804e-05	1382.4	421.53	4.5075e-06	2.2763e-05	613.44	237.04	161.98	65.61	2.434e-05	106.13	0.0031198	0.0032156	0.00089991	1166.4	3.5223e-05	3.5111e-05	1392.2	444.33	3.4975e-05	3.5171e-05	651.81	240.97	169.9	68.027	3.5281e-05	106.39	153.124	87.063	9.181	-82.092	-72.179	73.753	-83.317	-77.872	130.315	56.180	-79.105	-75.959	-74.042	-69.206	21.578	-70.845	-8191	255	
1533.154	1	1	0	0	0.17823	0.37633	0.055361	0.29085	0.16039	0.1519	0.17439	0.2661	0.12998	0.23288	0.24181	0.087381	0.33214	0.3163	0.40451	0.18972	-0.92292	-0.47292	-1.2167	-1.0542	-0.42292	-1.3083	-0.58958	-0.99583	-1.1854	-0.43333	-1.2521	-1.0021	-0.59375	-1.375	-0.43333	-1.0583	248.281	-8.461	257.989	-95.127	18.757	-34.549	166.467	235.602	-92.963	61.633	-88.347	195.684	243.207	-37.708	129.841	236.460	0.00019991	0.0011255	0.00031589	1124.5	1.3811e-05	1.0637e-05	1378.8	419.63	2.5731e-05	2.9702e-05	618.39	236.34	160.54	65.595	1.6462e-05	106.14	0.0030924	0.0031928	0.00089112	1172.2	3.5098e-05	3.5176e-05	1391.4	443.81	3.4963e-05	3.5187e-05	651.32	239.98	169.39	68.062	3.5124e-05	106.14	113.582	240.059	-7.026	-82.072	-45.947	216.336	-83.109	-78.116	-61.781	-20.867	-79.191	-75.953	-74.333	-68.823	-67.973	-71.141	-8191	255	
1533.250	1	1	0	0	0.18585	0.12481	0.40458	0.25111	0.049747	0.17468	0.062281	0.27722	0.11014	0.080965	0.15841	0.21477	0.17479	0.16904	0.4074	0.44013	-0.92917	-0.3875	-1.1625	-0.93958	-0.23125	-1.2604	-0.74167	-0.76042	-1.3104	-0.32083	-1.2062	-0.9875	-0.55417	-1.3521	-0.53333	-0.65833	199.162	263.279	-67.626	118.343	-2.897	78.421	-88.153	170.385	125.253	171.313	144.469	-93.887	-66.815	216.918	101.852	248.062	0.00050868	0.00072465	0.00070521	1125.5	1.4538e-05	1.2616e-05	1360.7	416.72	9.0722e-06	8.4664e-06	611.93	234.28	160.19	65.272	7.1246e-06	105.39	0.0030911	0.0031866	0.0008928	1164.6	3.5138e-05	3.5395e-05	1384.1	442.16	3.5095e-05	3.5632e-05	649.92	239.12	169.24	68.183	3.547e-05	105.86	201.974	-64.046	15.310	-82.429	200.163	8.443	-83.340	-77.981	225.331	92.942	-79.173	-75.986	-74.797	-68.972	144.565	-71.099	-8191	255	
1533.346	1	1	0	0	0.16294	0.20057	0.26836	0.16813	0.04492	0.34887	0.37857	0.12382	0.099214	0.1243	0.27471	0.24381	0.12375	0.055364	0.063761	0.19084	-0.80417	-0.25625	-0.87292	-1.0125	-0.38542	-1.2417	-0.70208	-0.725	-1.2167	-0.29167	-1.0896	-1.15	-0.41042	-1.2437	-0.67708	-0.59375	103.784	231.562	185.937	-74.109	-69.135	180.062	159.927	256.820	37.434	162.843	-76.956	175.881	197.312	111.337	-93.297	211.465	0.0002493	0.0012677	0.00077557	1114.7	1.4847e-05	3.0045e-05	1381	419.97	4.9448e-06	7.7449e-06	606.15	235.26	160.48	65.379	1.5982e-05	105.35	0.0031249	0.0032165	0.00089896	1164.1	3.5014e-05	3.5298e-05	1388.9	443.14	3.5209e-05	3.5446e-05	648.23	239.53	169.48	68.162	3.548e-05	105.67	243.893	136.474	44.656	-82.514	191.689	17.220	-83.231	-78.185	-39.112	-49.048	-79.589	-75.939	-74.364	-68.961	31.443	-70.919	-8191	255	
1533.442	1	1	0	0	0.36346	0.10318	0.29633	0.11448	0.13558	0.10742	0.075158	0.32303	0.080258	0.24895	0.20414	0.28578	0.11627	0.23278	0.19027	0.41624	-0.7875	-0.30208	-0.70833	-1.1646	-0.46042	-1.1	-1.0146	-0.55	-1.2375	-0.525	-0.89583	-1.5562	-0.29167	-1.125	-0.74583	-0.55833	236.354	218.273	153.450	-76.314	186.272	137.861	143.881	-58.751	-19.758	193.757	260.557	-74.762	75.973	-63.457	214.310	165.987	0.00022671	0.0023127	0.00047728	1112.9	1.072e-05	1.6826e-05	1375.2	422.23	1.0117e-05	9.1483e-06	617.67	237.37	160.71	65.685	1.8771e-05	105.4	0.0030777	0.0032029	0.00088713	1164.5	3.4619e-05	3.5159e-05	1387	443.68	3.475e-05	3.5042e-05	649.16	239.33	169.08	68.134	3.498e-05	105.8	126.301	80.473	-88.872	-82.366	30.871	143.696	-83.230	-77.857	143.439	100.192	-79.206	-75.796	-74.181	-68.741	168.781	-70.674	-8191	255	
1533.539	1	1	0	0	0.12807	0.14924	0.20893	0.34135	0.03812	0.3278	0.24641	0.07015	0.22999	0.18572	0.19874	0.12672	0.19081	0.15513	0.038359	0.066954	-0.86458	-0.48958	-0.61458	-1.4688	-0.43125	-1.0667	-1.2083	-0.65833	-1.075	-0.59792	-0.83958	-1.2979	-0.5	-1.0625	-0.93958	-0.45833	58.999	-94.110	-47.273	223.046	-89.113	87.651	251.577	199.477	-2.497	6.959	240.664	207.776	238.560	242.337	-25.835	75.718	0.00023928	0.0034224	0.00028563	1126.6	3.0135e-06	2.7017e-05	1379.2	419.58	2.4767e-05	2.7257e-05	617.86	236.27	160.32	65.122	6.0326e-06	105.51	0.0030981	0.0032066	0.00089072	1165.1	3.4874e-05	3.5394e-05	1388.7	442.67	3.5577e-05	3.5811e-05	651.51	240.63	169.79	68.314	3.5675e-05	105.94	194.263	17.224	-32.541	-82.056	163.664	74.553	-82.692	-77.952	77.043	92.591	-78.890	-76.068	-74.567	-68.588	164.030	-70.791	-8191	255	
1533.633	1	1	0	0	0.1695	0.034494	0.1171	0.071408	0.13856	0.20833	0.22333	0.32978	0.019061	0.21915	0.185	0.077642	0.30198	0.2602	0.23633	0.16479	-0.73958	-0.67917	-0.32292	-1.5833	-0.46458	-0.84792	-1.225	-0.57083	-1.1688	-0.875	-0.50625	-1.3875	-0.60833	-0.83542	-0.92708	-0.52708	129.965	237.352	44.861	-35.725	115.587	8.959	257.646	179.214	11.082	262.181	9.732	172.104	215.046	-94.879	-6.615	238.592	0.00042457	0.0014465	0.00072832	1114.1	1.2663e-05	1.8098e-05	1366.7	416.59	1.6908e-05	6.193e-06	606.32	234.31	160.71	64.578	9.2799e-06	104.29	0.0031395	0.0032352	0.0008999	1163.6	3.5598e-05	3.5962e-05	1383.3	442.2	3.5766e-05	3.5798e-05	646.53	238.67	168.9	67.882	3.5499e-05	105.34	231.904	-3.289	-12.206	-82.471	134.188	186.181	-83.409	-78.196	13.545	142.788	-79.228	-75.625	-74.380	-68.971	104.627	-71.021	-8191	255	
1533.754	1	1	0	0	0.25305	0.17022	0.14141	0.1717	0.28713	0.12822	0.27608	0.1641	0.26446	0.028424	0.16921	0.15147	0.16185	0.30893	0.18065	0.16055	-0.81042	-0.72708	-0.35	-1.4562	-0.51458	-0.83333	-1.2604	-0.37708	-0.90833	-0.86458	-0.49375	-1.5271	-0.61667	-0.78125	-1.1667	-0.41875	249.052	217.814	-38.080	-42.116	8.314	168.304	181.418	256.487	259.320	36.961	167.256	49.390	40.724	-92.642	-27.050	184.400	0.00022351	0.0030913	0.00017624	1113.3	1.2458e-05	1.0914e-06	1362.8	413.09	9.3754e-06	3.2834e-05	608.47	233.59	159.4	65.233	5.6568e-06	105.23	0.0031479	0.003252	0.00089519	1159.4	3.5319e-05	3.5528e-05	1377.5	439.38	3.5436e-05	3.5673e-05	644.83	238.36	168.63	68.042	3.5629e-05	105.71	204.706	44.659	-64.903	-82.226	70.372	-7.856	-83.828	-78.727	4.980	256.267	-79.479	-76.015	-74.892	-68.921	135.584	-71.187	-8191	255	
1533.850	1	1	0	0	0.026054	0.12879	0.20092	0.093748	0.3801	0.29812	0.40672	0.29545	0.31538	0.082409	0.21798	0.33512	0.15765	0.099919	0.12912	0.035461	-0.57917	-0.87917	-0.35625	-1.4104	-0.53125	-0.52708	-1.5208	-0.40625	-1.05	-0.93333	-0.44167	-1.4188	-0.76667	-0.69792	-1.0688	-0.54167	163.343	237.287	209.848	176.405	245.303	-0.713	185.191	257.939	-50.157	218.613	-14.487	182.979	233.476	176.763	255.119	94.218	0.00033742	0.0021737	0.000266	1110.2	2.5523e-05	1.1223e-05	1353.4	417.13	8.992e-06	3.1557e-05	609.95	236.48	159.86	65.569	1.9178e-05	105.04	0.0031439	0.0032615	0.00090756	1159.4	3.5762e-05	3.5619e-05	1376.4	440.13	3.5752e-05	3.5771e-05	645.65	239.55	168.61	67.94	3.5315e-05	105.95	152.183	-25.390	54.789	-82.365	231.193	3.789	-83.471	-77.697	66.704	130.459	-79.558	-75.868	-74.542	-69.248	90.110	-71.274	-8191	255	
1533.946	1	1	0	0	0.09755	0.12678	0.12928	0.099298	0.092272	0.20817	0.20941	0.12846	0.19257	0.23967	0.15731	0.32117	0.34429	0.145	0.19219	0.23728	-0.71042	-1.1479	-0.3125	-1.2792	-0.80417	-0.57917	-1.6688	-0.5	-0.72917	-1.1187	-0.475	-1.3708	-1.0583	-0.72083	-1.2521	-0.625	-29.113	20.195	180.249	-64.945	194.435	123.602	223.467	207.029	235.543	19.709	143.303	198.153	199.331	179.199	21.835	217.052	0.00053649	0.00081045	0.00060821	1106.4	8.8427e-06	1.4476e-05	1369.2	415.45	1.7816e-05	3.814e-05	607.83	235.35	158.23	65.408	2.8776e-05	105.84	0.0031376	0.0032226	0.00089437	1156.1	3.523e-05	3.5228e-05	1379.6	439.37	3.5404e-05	3.5513e-05	645.75	239.95	168.22	68.162	3.5503e-05	106.59	219.928	-1.382	-75.782	-82.102	261.622	-37.891	-83.101	-78.247	69.214	61.263	-79.541	-75.942	-74.632	-68.970	-26.929	-70.955	-8191	255	
1534.042	1	1	0	0	0.16594	0.30407	0.20319	0.47814	0.16107	0.12255	0.1447	0.26051	0.093146	0.17933	0.059667	0.13461	0.11844	0.17641	0.38048	0.36127	-0.17708	-1.2062	-0.39375	-1.3292	-0.95625	-0.34792	-1.4	-0.67917	-0.52292	-1.2958	-0.45625	-1.0917	-1.1604	-0.49167	-1.2021	-0.73333	105.524	111.355	243.825	-95.577	-93.387	42.384	249.700	28.166	110.946	118.827	-92.468	249.047	243.343	54.948	226.225	195.968	0.00044207	0.0015137	0.00048305	1101.3	9.7911e-06	1.3305e-05	1359.9	414.49	5.0506e-06	2.3025e-05	605.44	236.14	159.46	65.367	1.497e-06	105.31	0.0031481	0.0032178	0.00090121	1155.3	3.5353e-05	3.5442e-05	1378.2	439.14	3.5146e-05	3.5249e-05	643.62	239.06	168.14	68.095	3.5228e-05	105.61	165.927	-30.598	142.453	-82.270	213.402	148.589	-83.149	-78.704	-2.971	66.547	-79.317	-75.547	-74.531	-68.757	-44.874	-70.919	-8191	255	
1534.114	1	1	0	0	0.12907	0.2077	0.19914	0.19012	0.1485	0.38873	0.14444	0.348	0.12279	0.26097	0.083992	0.19275	0.15867	0.1283	0.20186	0.22191	-0.39792	-1.3792	-0.20208	-1.0583	-1.0417	-0.12292	-1.3917	-0.82083	-0.58125	-1.3271	-0.39167	-0.94792	-1.1042	-0.44583	-1.1125	-0.98542	87.750	162.050	55.366	233.077	145.786	31.965	232.499	211.964	3.972	72.836	154.921	213.458	187.984	-93.775	105.798	145.367	0.00043313	0.0035686	0.00069	1105.9	2.7806e-05	2.1396e-05	1357.7	411.14	5.2198e-06	1.7125e-05	601.88	234.99	159.24	65.311	2.4918e-05	105.5	0.0031116	0.0032322	0.00090412	1155	3.5266e-05	3.536e-05	1378.6	437.85	3.5239e-05	3.5477e-05	642.42	238.68	167.84	67.769	3.5148e-05	105.78	231.321	8.480	-20.756	-82.203	-6.616	36.682	-82.850	-78.149	-96.052	-70.957	-79.233	-76.096	-74.342	-68.742	-11.952	-71.380	-8191	255	
1534.234	1	1	0	0	0.20222	0.055042	0.17771	0.41456	0.18465	0.060193	0.34856	0.094846	0.067716	0.32605	0.097484	0.10655	0.343	0.18703	0.10373	0.15779	-0.10208	-1.1938	-0.37083	-0.92917	-1.1729	-0.30625	-1.3792	-0.93542	-0.31667	-1.2208	-0.67292	-0.97708	-1.2	-0.49375	-1.1125	-0.95833	-46.945	73.939	203.187	261.368	180.141	97.601	260.233	118.065	179.736	203.060	176.789	253.466	-89.724	179.823	30.269	129.046	0.00048974	0.0026259	0.0010674	1103.1	1.0203e-05	8.9931e-06	1367.2	415.36	1.3667e-05	2.5068e-05	602.54	236.06	160.69	65.657	1.1717e-05	106.1	0.0030576	0.0031762	0.00088949	1152.9	3.4962e-05	3.5099e-05	1379.9	439.21	3.5103e-05	3.5107e-05	644.29	239.18	168.33	67.97	3.4779e-05	105.72	200.523	216.281	55.651	-82.125	192.177	101.159	-82.810	-78.024	168.619	19.365	-79.494	-75.812	-74.424	-69.162	47.411	-71.229	-8191	255	
1534.330	1	1	0	0	0.13864	0.082548	0.2761	0.18202	0.21939	0.13633	0.07094	0.068025	0.17922	0.019118	0.25815	0.19817	0.13828	0.1826	0.23013	0.24051	0.01875	-1.1313	-0.52708	-0.6875	-1.1042	-0.30833	-1.2229	-1.0208	-0.39583	-1.3771	-0.72292	-0.7125	-1.3687	-0.39792	-0.90208	-1.1875	-64.321	245.802	69.289	-17.498	150.079	-28.848	161.916	247.040	213.961	-59.341	-55.534	224.030	-66.689	237.696	116.380	171.535	0.00052732	0.0011858	7.5979e-05	1105.4	1.0175e-05	1.2993e-05	1366.1	416.64	2.2236e-05	1.1228e-05	612.71	235.92	161.06	65.55	1.3404e-05	105.92	0.0030451	0.0031525	0.00087669	1150.8	3.4226e-05	3.4661e-05	1376.2	438.2	3.4226e-05	3.4546e-05	644.9	239.24	168.31	67.986	3.4389e-05	105.91	242.237	104.506	198.993	-82.360	99.834	193.656	-82.918	-78.775	24.089	-88.394	-79.229	-75.914	-74.714	-69.019	170.933	-71.027	-8191	255	
1534.427	1	1	0	0	0.16934	0.13928	0.10768	0.27138	0.075442	0.18669	0.23971	0.23942	0.14934	0.23337	0.25802	0.16451	0.16116	0.22096	0.18238	0.12698	0.16875	-1.125	-0.51042	-0.45417	-1.2771	-0.57917	-1.1542	-1.2417	-0.34792	-1.1396	-0.84167	-0.45	-1.4521	-0.5875	-0.82083	-1.2625	38.458	-45.844	158.418	-92.770	57.944	216.168	116.369	154.573	31.094	-39.406	254.074	215.937	228.970	248.305	105.405	-80.297	0.00044925	0.0014887	0.00028544	1107.5	1.2137e-05	2.2121e-05	1362.7	417.8	6.9588e-06	1.9663e-05	612.76	236.13	160.45	65.034	6.2875e-06	105.59	0.0030227	0.0031364	0.00087434	1151.9	3.4039e-05	3.4269e-05	1377.4	438.32	3.4199e-05	3.4555e-05	642.59	238.28	168.16	67.817	3.458e-05	105.1	165.350	-39.501	250.179	-82.208	263.606	239.080	-83.304	-78.198	38.891	199.148	-79.183	-76.036	-74.210	-69.214	18.921	-71.316	-8191	255	
1534.523	1	1	0	0	0.23839	0.073349	0.03009	0.25552	0.30668	0.27614	0.25038	0.32207	0.40346	0.092611	0.046397	0.1438	0.39716	0.11707	0.08055	0.064816	0.035417	-1.075	-0.87708	-0.49792	-1.4021	-0.5	-0.84167	-1.35	-0.34375	-1.1396	-0.87083	-0.41667	-1.5312	-0.55625	-0.74167	-1.2812	-88.318	78.659	236.564	225.966	60.789	183.488	209.485	203.604	26.697	10.468	217.219	-54.822	197.251	-42.574	247.381	262.711	0.00070009	0.00084877	0.0010977	1105.9	8.8129e-06	2.1033e-05	1355.6	417.83	1.8643e-05	3.235e-05	608.59	233.7	159.91	65.029	1.251e-05	104.73	0.0030377	0.003166	0.00087823	1150.9	3.4321e-05	3.4644e-05	1370.7	437.51	3.4227e-05	3.4669e-05	640.81	237.68	167.54	67.624	3.4439e-05	105.11	179.650	98.161	-3.307	-82.153	65.208	-22.411	-82.948	-78.105	-40.572	53.492	-79.532	-75.996	-74.371	-69.136	220.729	-71.172	-8191	255	
1534.642	1	1	0	0	0.16262	0.060723	0.24547	0.41806	0.33607	0.12076	0.13418	0.18984	0.17214	0.18927	0.16757	0.1296	0.27106	0.21193	0.26769	0.28096	0.0083333	-0.91458	-0.92292	-0.47708	-1.1417	-0.62083	-0.89375	-1.3667	-0.18542	-0.86042	-1.3146	-0.30208	-1.2333	-0.775	-0.57083	-1.4542	147.976	262.026	-30.323	229.682	-80.070	160.037	136.686	240.488	35.750	41.957	175.812	260.704	-48.352	-93.212	164.582	179.698	0.0003594	0.0017167	0.00052206	1114.9	5.7289e-06	1.1546e-05	1364.5	414.54	1.4972e-05	1.8036e-05	607.12	234.25	159.85	65.515	1.036e-05	105.76	0.00306	0.00318	0.00087561	1153.7	3.4462e-05	3.4902e-05	1374.9	438.62	3.5033e-05	3.5681e-05	643.42	238.19	169.07	68.058	3.5529e-05	105.91	190.416	-62.495	10.991	-82.374	81.158	176.285	-82.774	-77.620	81.158	13.249	-78.839	-75.816	-74.345	-69.122	-14.956	-70.907	-8191	255	
1534.715	1	1	0	0	0.19519	0.056132	0.2453	0.30358	0.28838	0.11343	0.087704	0.27058	0.33739	0.065161	0.2262	0.13803	0.12085	0.16859	0.067912	0.27961	-0.12708	-0.94583	-0.83958	-0.50833	-1.1021	-0.83333	-0.54792	-1.3625	-0.50417	-0.83958	-1.1	-0.475	-1.3	-0.77292	-0.23125	-1.3833	48.065	-55.119	131.695	203.120	-5.436	-25.715	-16.337	202.036	184.618	124.659	-89.471	-41.354	231.688	251.146	51.367	181.808	0.00040386	0.0013075	0.00038424	1106	2.7038e-05	2.621e-05	1369.2	416.49	1.2302e-05	2.7319e-05	609.48	236.36	159.53	65.653	1.4966e-05	105.49	0.003123	0.0032199	0.00089326	1155.6	3.5161e-05	3.5337e-05	1375.8	439.33	3.4765e-05	3.5231e-05	643.48	238.39	168.43	67.874	3.4579e-05	105.82	190.186	-41.795	6.239	-82.208	189.861	237.932	-83.381	-78.448	-38.312	73.597	-79.222	-75.511	-74.334	-69.023	2.372	-70.805	-8191	255	
1534.834	1	1	0	0	0.20094	0.30114	0.1401	0.15629	0.11392	0.1062	0.1274	0.060557	0.17559	0.052458	0.17601	0.17009	0.12308	0.18054	0.13587	0.26879	-0.14583	-0.57917	-1.3083	-0.54583	-1.1208	-1.1167	-0.64375	-1.4229	-0.53958	-0.59792	-1.4292	-0.575	-1.0833	-1.0625	-0.39792	-1.3354	142.009	239.788	24.292	166.776	-0.907	168.239	131.916	262.936	176.519	140.445	-79.281	188.533	57.822	-73.156	164.498	195.696	0.00044908	0.0011174	0.00076166	1106.2	2.0484e-05	2.8774e-05	1368.3	417.58	1.0781e-05	3.5123e-05	609.91	236.47	159.54	65.336	1.6574e-05	106.32	0.0030734	0.003162	0.00086891	1150.9	3.4413e-05	3.4243e-05	1375.3	437.69	3.4072e-05	3.4359e-05	642.16	238.17	168.12	67.795	3.4127e-05	105.81	157.993	-3.825	-77.016	-82.174	72.081	5.956	-82.818	-77.957	23.846	-34.741	-78.984	-75.609	-74.306	-69.276	262.538	-70.935	-8191	255	
1534.930	1	1	0	0	0.088881	0.17246	0.026581	0.21353	0.21499	0.072384	0.14333	0.36746	0.28256	0.10549	0.15646	0.23655	0.18636	0.18326	0.22	0.22158	-0.41042	-0.64375	-1.1792	-0.5875	-0.86875	-1.0521	-0.58542	-1.4062	-0.71042	-0.43125	-1.4625	-0.61667	-0.95625	-1.175	-0.19167	-1.3958	59.589	32.014	138.148	114.949	-45.236	154.222	-32.046	211.082	262.296	181.028	259.471	229.291	252.963	181.142	61.721	231.258	0.0002602	0.0009928	0.00059407	1106.7	7.6177e-06	2.2332e-05	1363.1	416.7	9.325e-06	4.0434e-06	607.02	233.81	160.91	65.58	7.736e-06	105.2	0.0030099	0.0031175	0.00086562	1149.2	3.4093e-05	3.409e-05	1368.7	437.36	3.414e-05	3.4422e-05	638.5	236.69	167.86	67.526	3.3696e-05	105.3	206.285	31.989	-62.073	-81.981	-92.089	117.147	-82.510	-77.485	14.600	261.989	-78.949	-75.454	-74.736	-68.691	77.606	-70.751	-8191	255	
1535.026	1	1	0	0	0.17042	0.13101	0.16563	0.16842	0.19241	0.28128	0.36462	0.33799	0.33386	0.1812	0.10933	0.1976	0.47092	0.12304	0.11103	0.27194	-0.4625	-0.47292	-1.3875	-0.66042	-0.59167	-1.0354	-0.56667	-1.1083	-0.76667	-0.29167	-1.3521	-0.67708	-0.77708	-1.2146	-0.46042	-1.325	144.623	-7.776	224.503	-64.858	238.061	260.705	189.419	244.116	-48.568	38.208	23.647	206.995	187.152	-82.937	246.442	196.830	0.0003119	0.0021379	0.00042148	1112.3	2.7452e-05	2.0047e-05	1370.3	418.15	1.8524e-05	1.6174e-05	608.24	235.9	161.07	65.312	1.149e-05	105.79	0.0029771	0.0030583	0.00085317	1146	3.3687e-05	3.3508e-05	1367.8	436.93	3.3662e-05	3.3852e-05	639.14	237.75	167.64	67.479	3.3552e-05	105.64	114.381	62.714	-33.727	-82.077	218.499	72.177	-82.731	-78.006	4.119	182.314	-79.151	-75.665	-74.436	-68.951	86.454	-70.603	-8191	255	
1535.122	1	1	0	0	0.080121	0.284	0.067434	0.34938	0.11834	0.1751	0.39544	0.37204	0.12594	0.069974	0.13914	0.28605	0.34137	0.31474	0.24674	0.15633	-0.48542	-0.2	-1.0667	-0.7375	-0.6125	-1.3125	-0.51667	-1.1437	-1.0396	-0.37083	-1.4813	-0.73542	-0.76458	-1.3354	-0.36458	-1.1271	138.117	43.347	-88.020	174.629	-57.834	184.102	235.861	201.080	-1.906	85.140	89.221	217.748	-94.900	200.655	-65.687	199.968	0.00023698	0.0024528	0.00034891	1105.5	2.1747e-06	1.3305e-05	1372.5	417.71	5.0329e-06	3.0994e-05	607.2	236.58	161.43	65.257	5.1389e-06	106.2	0.0029461	0.0030506	0.00084248	1143.1	3.2882e-05	3.2906e-05	1366.1	436.19	3.2852e-05	3.3056e-05	638.05	237.45	167.33	67.4	3.3381e-05	105.71	152.552	-1.438	-20.899	-81.665	47.428	222.712	-82.308	-77.793	63.172	-64.237	-78.647	-75.729	-74.291	-68.748	187.575	-70.684	-8191	255	
1535.243	1	1	0	0	0.17957	0.037567	0.088367	0.13508	0.11418	0.098461	0.088574	0.24936	0.096358	0.118	0.084642	0.21865	0.35757	0.17017	0.38779	0.15412	-0.475	-0.22292	-1.0187	-0.93958	-0.34792	-1.1479	-0.63958	-0.88333	-1.0396	-0.30208	-1.1313	-0.80625	-0.41458	-1.4188	-0.32083	-0.78333	261.924	46.217	37.512	209.309	199.305	230.324	123.169	171.470	3.004	210.720	96.830	-80.464	-86.091	118.587	91.301	-81.684	0.00045709	0.00052703	0.00024766	1113.2	9.2637e-06	9.572e-06	1375	422.14	1.1463e-05	1.8759e-05	616.2	238.99	161.48	65.682	4.5725e-06	106.46	0.0029372	0.0030096	0.00084027	1144.1	3.2931e-05	3.282e-05	1369	437.33	3.2378e-05	3.2635e-05	640.07	237.85	166.9	67.196	3.2588e-05	105.11	173.448	0.908	31.746	-81.947	24.869	87.464	-82.961	-77.410	64.789	111.403	-79.155	-75.802	-73.889	-68.788	46.213	-70.978	-8191	255	
1535.339	1	1	0	0	0.23076	0.062448	0.24347	0.074665	0.20008	0.084033	0.21083	0.22642	0.33783	0.18686	0.13533	0.19401	0.23138	0.28107	0.1534	0.36176	-0.64583	-0.1875	-0.90208	-1.0271	-0.54792	-1.3021	-0.77083	-0.96458	-1.1708	-0.36875	-1.2417	-1.0271	-0.63542	-1.3854	-0.50625	-0.86875	158.738	114.472	229.935	172.727	54.467	-92.350	-56.037	229.384	135.482	134.374	-67.627	209.955	-94.302	247.951	-52.816	167.962	0.00037626	0.0010124	0.00049521	1107.7	2.172e-05	2.3376e-05	1378.9	418.55	1.9058e-05	9.834e-06	612.59	237.12	161.11	65.91	2.0521e-05	105.67	0.00284	0.00294	0.00082438	1138.3	3.1995e-05	3.2127e-05	1366.8	435.2	3.1924e-05	3.2355e-05	636.15	236.47	166.57	67.162	3.2458e-05	104.32	158.550	239.977	157.292	-82.397	6.752	24.641	-83.351	-77.587	82.932	-43.949	-78.735	-75.463	-74.265	-68.594	81.083	-70.627	-8191	255	
1535.435	1	1	0	0	0.05482	0.10213	0.14495	0.1058	0.066594	0.22908	0.11786	0.16242	0.26619	0.059011	0.055992	0.33491	0.097328	0.065816	0.0075882	0.2388	-0.81875	-0.36875	-0.9375	-1.0396	-0.4125	-1.3667	-0.82083	-0.77292	-1.1583	-0.51042	-1.1875	-1.1063	-0.52917	-1.2979	-0.73125	-0.57292	238.116	163.160	-26.885	-1.845	234.921	-5.201	193.510	217.937	236.865	-80.790	191.727	211.164	181.849	3.561	74.315	226.637	0.00021227	0.0032714	0.00040084	1107.9	1.4639e-05	2.4843e-05	1368.1	420.41	1.5668e-05	2.5196e-05	614.18	236.47	160.65	65.69	1.2204e-05	105.37	0.0028383	0.0029447	0.00081969	1137.8	3.1953e-05	3.2395e-05	1361	434.78	3.2263e-05	3.2557e-05	637.23	236.56	166.61	67.209	3.2936e-05	104.61	148.148	0.088	44.979	-81.952	-33.981	48.406	-83.060	-77.536	240.332	50.829	-78.601	-75.484	-74.197	-68.249	-66.444	-70.024	-8191	255	
1535.530	1	1	0	0	0.27235	0.15165	0.075215	0.23989	0.074412	0.14545	0.11893	0.10038	0.15113	0.1129	0.42609	0.094909	0.24873	0.46716	0.23142	0.32036	-1.0333	-0.43542	-1	-1.3354	-0.39375	-1.2354	-1.0896	-0.69583	-1.1771	-0.36042	-1.025	-1.3	-0.32917	-1.2625	-0.86458	-0.75	24.166	-26.357	262.988	240.942	160.964	-59.108	193.986	-38.471	-17.839	57.670	223.338	241.456	226.340	247.234	201.546	230.865	0.00013039	0.0014335	0.00044952	1105.3	1.8528e-05	1.5534e-05	1359.2	417.51	1.211e-05	1.3995e-05	609.02	236.08	160.54	65.207	6.3396e-06	105.73	0.0028941	0.0029899	0.00084026	1139.6	3.2663e-05	3.292e-05	1361.7	434.61	3.2587e-05	3.2953e-05	636.86	236.75	166.37	67.111	3.2935e-05	104.8	120.455	254.916	2.247	-81.361	233.493	120.752	-82.537	-77.523	-39.696	7.295	-78.570	-75.407	-74.485	-68.345	75.110	-70.788	-8191	255	
1535.626	1	1	0	0	0.20453	0.14029	0.19269	0.26168	0.29093	0.15587	0.48518	0.23238	0.11534	0.28835	0.030064	0.2383	0.14303	0.15889	0.19045	0.21245	-0.73125	-0.58542	-0.66667	-1.3312	-0.29167	-1.0646	-1.0979	-0.45833	-1.1625	-0.50208	-0.71042	-1.4167	-0.37083	-1.1896	-0.95417	-0.65208	5.196	-41.472	225.535	-65.731	149.645	248.734	192.723	208.257	29.338	-90.547	183.157	182.007	190.654	242.843	-29.143	226.525	0.00028068	0.0039243	0.00022465	1104.9	4.0097e-06	1.2314e-05	1361	415.92	1.7862e-05	5.1955e-06	612.84	237.69	161.48	65.466	1.9973e-05	106.39	0.0028857	0.0029797	0.00083283	1139.3	3.2425e-05	3.2727e-05	1360.9	433.1	3.2198e-05	3.2362e-05	636	237.21	165.75	66.836	3.1769e-05	105.01	181.422	-12.399	5.716	-81.989	169.249	-15.688	-83.116	-77.676	146.879	101.091	-78.975	-75.847	-74.512	-68.537	121.005	-70.775	-8191	255	
1535.722	1	1	0	0	0.13033	0.15042	0.13125	0.30702	0.20712	0.13158	0.31788	0.54667	0.17846	0.21374	0.30273	0.25528	0.27644	0.10661	0.20766	0.14467	-0.95	-0.5875	-0.83333	-1.3375	-0.5125	-0.97917	-1.2521	-0.40208	-1.2521	-0.61042	-0.67292	-1.3396	-0.62917	-0.98333	-1.2542	-0.60417	-42.030	96.426	209.765	247.995	-48.197	-35.928	182.772	216.833	42.195	60.934	233.388	-28.286	247.123	215.796	197.372	163.740	0.00034532	0.0023015	0.00036118	1104	6.706e-06	2.1348e-05	1371.1	416.93	1.3635e-05	1.6786e-05	613.42	236.14	159.9	65.828	1.3898e-05	106.47	0.0028262	0.0029228	0.00080936	1133	3.1886e-05	3.2143e-05	1359.7	433.12	3.1973e-05	3.2004e-05	634.19	236.17	165.44	66.936	3.1401e-05	104.48	182.144	29.093	-47.631	-82.159	123.766	118.471	-83.506	-77.990	176.369	-82.124	-79.215	-76.005	-74.821	-68.924	222.978	-71.029	-8191	255	
1535.818	1	1	0	0	0.43331	0.18235	0.043179	0.31066	0.096249	0.04893	0.1483	0.27239	0.021668	0.089031	0.16268	0.02443	0.22615	0.1376	0.084736	0.079552	-0.82708	-0.77708	-0.46042	-1.4104	-0.61875	-0.82708	-1.3146	-0.50417	-1.2146	-0.84375	-0.63125	-1.5167	-0.50417	-0.86875	-1.125	-0.54375	171.444	-25.797	16.239	190.841	260.698	230.325	-74.278	204.287	-23.233	19.202	215.883	110.383	116.696	222.140	240.682	149.642	0.0004137	0.0012523	0.00015669	1109.9	1.3168e-05	2.3023e-05	1362.3	418.99	5.2969e-06	2.4367e-05	612.32	235.82	159.97	65.084	1.0128e-05	106.01	0.0027717	0.0028684	0.00079226	1131.3	3.1169e-05	3.1279e-05	1354.2	431.18	3.1142e-05	3.1298e-05	631.51	235.2	165.2	66.592	3.1442e-05	104.32	134.595	-24.924	31.255	-82.670	78.373	9.887	-83.210	-78.151	97.213	68.738	-79.206	-75.911	-74.690	-69.146	22.045	-70.881	-8191	255	
1535.939	1	1	0	0	0.031865	0.16752	0.20676	0.3729	0.24511	0.094015	0.32577	0.010876	0.059814	0.092838	0.16016	0.027179	0.13432	0.19687	0.15941	0.34267	-0.65833	-0.94167	-0.4	-1.3979	-0.59583	-0.45625	-1.3	-0.575	-0.97292	-0.87083	-0.32708	-1.2833	-0.72708	-0.73333	-1.2271	-0.5	163.765	156.608	261.903	229.863	77.245	32.514	228.368	87.491	-32.987	155.268	230.212	113.946	183.333	164.627	207.708	242.845	0.00014401	0.002061	0.00038147	1110.9	1.5978e-05	9.2839e-06	1370.2	418.39	1.1157e-05	2.1732e-05	612.16	239.26	159.51	65.271	2.5034e-05	105.49	0.0028165	0.0028774	0.00080118	1133.3	3.158e-05	3.169e-05	1356.3	432.62	3.1673e-05	3.1565e-05	631.59	237.17	165.61	66.834	3.2072e-05	104.74	262.075	-19.865	-84.063	-82.233	70.979	109.129	-83.045	-78.507	7.980	231.471	-79.591	-75.818	-74.654	-69.169	1.016	-71.364	-8191	255	
1536.010	1	1	0	0	0.2307	0.11845	0.042476	0.1598	0.26286	0.18717	0.23407	0.30432	0.15812	0.06121	0.13848	0.29081	0.25887	0.29881	0.22823	0.48886	-0.45	-0.9375	-0.33125	-0.95208	-0.54167	-0.46667	-1.3396	-0.5125	-0.80208	-1.2396	-0.46042	-1.2021	-0.93542	-0.59792	-1.2771	-0.59375	229.347	58.408	165.746	-41.202	177.591	201.733	210.115	208.063	252.699	263.077	-22.494	224.345	162.149	182.951	70.011	190.970	0.00014027	0.00074279	0.00090322	1100.9	8.1418e-06	1.9536e-05	1362.6	415.34	6.4286e-06	2.3616e-05	612.05	236.03	159.57	65.038	2.1225e-05	104.59	0.0028669	0.0029437	0.00082226	1138.5	3.2519e-05	3.2432e-05	1363	433.23	3.3062e-05	3.3389e-05	639.64	238.15	167.39	67.437	3.4787e-05	105.54	174.685	260.707	-7.924	-82.017	101.884	160.060	-82.900	-78.239	24.949	-67.012	-78.572	-75.762	-74.333	-68.534	115.648	-71.247	-8191	255	
1536.107	1	1	0	0	0.17685	0.1471	0.12778	0.13112	0.13023	0.37297	0.13756	0.16754	0.2146	0.31002	0.29123	0.087891	0.29375	0.28821	0.22608	0.24524	-0.41875	-1.0979	-0.31042	-1.3062	-0.7375	-0.48542	-1.3333	-0.74792	-0.8125	-1.1479	-0.56667	-1.1458	-0.90833	-0.56667	-1.275	-0.86458	-69.623	116.310	-73.938	0.831	19.946	5.713	115.635	201.190	135.381	-43.958	217.141	109.024	222.241	220.642	115.590	244.788	0.00023981	0.0014556	0.0003801	1094.5	1.8688e-05	7.0291e-06	1352.5	409.41	1.1319e-05	1.5117e-05	595.16	232.2	154.87	63.929	2.0483e-05	103.32	0.0031362	0.0032387	0.00090733	1153.9	3.6467e-05	3.7028e-05	1380.6	440.41	3.7905e-05	3.8667e-05	651.05	240.35	169.49	68.678	3.9773e-05	106.76	-41.132	28.130	88.759	-82.158	131.121	-15.479	-82.537	-77.915	71.166	-47.202	-79.185	-75.163	-74.464	-68.789	249.646	-71.012	-8191	255	
1536.203	1	1	0	0	0.12654	0.43265	0.027337	0.21543	0.28813	0.019862	0.31195	0.075507	0.20514	0.10632	0.39575	0.31734	0.24596	0.069782	0.23811	0.05216	-0.35	-1.2583	-0.48125	-1.0688	-1.1146	-0.32708	-1.3271	-0.6625	-0.73542	-1.1292	-0.41875	-0.93958	-1.125	-0.47083	-0.99792	-1.0083	36.496	52.170	217.883	71.309	-68.507	86.671	199.258	-44.731	-86.074	194.177	193.519	261.417	-68.963	230.077	46.059	-35.967	0.00028575	0.0013522	0.00041808	1073.9	2.0616e-05	2.9799e-05	1336	401.87	2.3689e-05	3.0286e-05	586.8	228.77	154.77	63.195	2.0709e-05	102.51	0.0035384	0.0036557	0.0010245	1168.4	4.0485e-05	4.0869e-05	1391.6	443.75	4.1166e-05	4.1509e-05	654.88	241.32	171.28	69.345	4.297e-05	107.56	135.816	57.241	-53.333	-81.613	38.334	15.946	-83.106	-77.624	70.845	35.791	-78.987	-75.647	-74.664	-69.184	39.486	-71.142	-8191	255	
1536.323	1	1	0	0	0.16128	0.08865	0.10405	0.10196	0.16767	0.08976	0.29462	0.26022	0.16903	0.12867	0.18301	0.23457	0.36651	0.036952	0.12206	0.11617	-0.075	-1	-0.42292	-0.94167	-0.93125	-0.24792	-1.3458	-1.0229	-0.37708	-1.1042	-0.35417	-0.78958	-1.1667	-0.32917	-1.1083	-1.0146	-73.401	104.112	99.464	-28.315	-28.240	-86.527	123.548	216.804	-34.541	27.497	-83.200	221.780	-11.956	-81.220	-1.197	-57.796	9.0169e-05	0.001217	0.00075529	1076.2	2.0124e-05	2.0488e-05	1326.8	398.39	1.4533e-05	8.0181e-06	586.71	227.82	153.37	63.617	2.1922e-05	102.31	0.0038153	0.0039628	0.0011022	1182.7	4.3303e-05	4.3305e-05	1399.2	447.35	4.3369e-05	4.3733e-05	664.42	243.45	172.6	70.038	4.4665e-05	108.36	66.119	176.465	47.539	-81.854	-5.633	96.893	-82.544	-77.819	83.672	179.894	-78.846	-75.989	-74.855	-69.485	-32.771	-71.291	-8191	255	
1536.420	1	1	0	0	0.1913	0.21534	0.1169	0.47159	0.11806	0.046852	0.26348	0.093047	0.14919	0.066574	0.26171	0.29097	0.14432	0.21244	0.22615	0.46375	-0.05625	-1.2667	-0.4625	-0.64375	-0.91875	-0.34583	-1.1271	-0.91875	-0.091667	-1.1313	-0.55833	-0.5	-1.2938	-0.31667	-0.89375	-1.1104	10.660	235.331	113.213	209.133	159.140	163.522	200.557	240.609	-41.435	58.631	255.332	247.741	202.875	235.692	98.836	208.352	0.00028358	0.0051973	0.00067009	1078.8	1.1794e-05	7.357e-06	1325.8	398.3	1.7149e-05	3.4407e-05	586.46	227.38	153.75	63.526	9.6208e-06	103	0.0039536	0.0041059	0.0011538	1194	4.5438e-05	4.5459e-05	1420.4	453.74	4.575e-05	4.5996e-05	670.25	245.22	173.58	70.493	4.4998e-05	108.72	197.161	28.076	-55.735	-82.398	121.385	-41.972	-83.108	-78.587	-36.486	-30.269	-79.627	-75.830	-75.050	-69.298	253.635	-71.133	-8191	255	
1536.516	1	1	0	0	0.11808	0.1284	0.23843	0.097821	0.1359	0.20555	0.20974	0.23302	0.24758	0.093343	0.35677	0.10207	0.30108	0.056614	0.10147	0.25711	0.072917	-1.1292	-0.72292	-0.725	-1.3646	-0.35208	-1.1583	-1.0833	-0.35625	-1.1729	-0.77708	-0.67708	-1.2896	-0.44167	-0.80208	-1.3312	182.913	-2.425	42.594	181.257	44.647	47.555	-50.419	232.099	160.073	-4.616	220.769	-56.076	-45.775	-61.425	168.460	262.678	0.00028057	0.0031506	0.00067355	1082.3	1.4338e-05	2.6285e-05	1351.6	406.75	1.5558e-05	7.6997e-06	588.51	228.17	155.62	63.084	1.1952e-05	102.66	0.0038925	0.0040346	0.0011303	1197.2	4.3873e-05	4.4149e-05	1420.5	454.24	4.396e-05	4.4284e-05	669.06	243.42	172.8	69.66	4.3549e-05	107.25	201.005	4.776	96.593	-82.222	188.414	21.646	-83.157	-78.462	207.690	0.249	-79.419	-76.198	-74.910	-69.022	84.924	-71.035	-8191	255	
1536.610	1	1	0	0	0.211	0.060133	0.25917	0.37634	0.12257	0.19287	0.14234	0.049819	0.18608	0.14959	0.089386	0.070351	0.35947	0.452	0.22086	0.11477	-0.12083	-1.0292	-0.75625	-0.425	-1.1521	-0.40417	-0.62708	-1.2396	-0.25208	-1.0875	-0.99375	-0.43542	-1.4104	-0.52083	-0.75417	-1.4229	217.916	66.726	230.550	-41.206	200.596	-74.545	138.404	140.439	235.161	43.263	-4.492	181.011	187.845	224.911	-77.326	207.333	0.0004416	0.0039722	0.00047655	1099	2.3431e-05	2.0511e-05	1350.8	410.92	1.9729e-05	3.602e-05	593.38	226.68	154.11	63.028	2.4771e-05	102.11	0.0037368	0.0038641	0.0010701	1193.7	4.0763e-05	4.1217e-05	1406.2	448.88	4.0597e-05	4.0908e-05	657.14	238.7	169.97	68.725	4.1534e-05	106.05	207.239	21.999	7.331	-82.317	54.517	110.190	-83.044	-78.907	50.701	-51.576	-79.786	-76.002	-74.750	-68.987	175.348	-71.360	-8191	255	
1536.706	1	1	0	0	0.15706	0.14542	0.096013	0.19849	0.21676	0.095744	0.13585	0.291	0.20845	0.18162	0.095025	0.091549	0.29528	0.20783	0.24707	0.37585	-0.039583	-0.95	-0.88542	-0.30833	-1.1625	-0.50208	-0.62708	-1.4479	-0.27292	-0.84792	-1.0375	-0.42292	-1.2083	-0.56875	-0.36875	-1.2375	244.903	-50.917	90.510	247.757	179.522	207.356	222.969	213.330	-88.427	82.463	88.887	191.498	236.802	169.907	111.534	253.993	0.0002515	0.0018227	0.00063723	1108.8	1.8827e-05	2.4989e-05	1360.8	408.98	6.3103e-06	1.0162e-05	597.26	226.65	153.7	63.638	1.413e-05	102.03	0.0036597	0.0037883	0.0010428	1192.3	4.0583e-05	4.0617e-05	1401.6	446.89	3.9538e-05	3.9739e-05	650.84	236.3	167.32	67.872	3.8343e-05	104.54	182.895	113.044	23.321	-82.734	27.087	78.183	-83.660	-78.281	240.559	233.855	-80.030	-75.978	-74.873	-69.179	95.712	-71.031	-8191	255	
1536.804	1	1	0	0	0.27718	0.17272	0.23133	0.02287	0.23208	0.43182	0.065668	0.083785	0.12168	0.10937	0.18747	0.17406	0.24458	0.26193	0.043411	0.22734	-0.00625	-0.97083	-0.89375	-0.35625	-0.9375	-0.63333	-0.59167	-1.2792	-0.37292	-0.81875	-0.9375	-0.51875	-1.1583	-0.82292	-0.4875	-1.4146	-84.658	218.263	233.310	-31.879	112.735	116.741	253.420	164.582	-42.590	-31.563	192.363	239.272	213.076	257.175	98.916	66.273	0.00030687	0.001075	0.00072918	1112.2	9.5886e-06	1.7747e-05	1366	417.23	1.0835e-05	1.7923e-05	606.18	228.58	155	63.49	6.5142e-06	101.77	0.0033607	0.0034846	0.00095623	1178.5	3.7399e-05	3.7399e-05	1390.5	441.05	3.5803e-05	3.56e-05	640.78	232.42	163.21	65.979	3.3264e-05	101.72	210.854	134.837	-49.074	-82.682	194.718	51.125	-83.618	-78.098	14.376	-53.567	-79.752	-75.882	-75.049	-69.181	223.473	-71.159	-8191	255	
1536.923	1	1	0	0	0.19933	0.17363	0.17325	0.20546	0.2309	0.30084	0.14306	0.34871	0.11726	0.17918	0.15583	0.18328	0.14484	0.17118	0.25325	0.28541	-0.21042	-0.64375	-1.1167	-0.35417	-1.1562	-0.82917	-0.56458	-1.4021	-0.64583	-0.74167	-1.4646	-0.37292	-1.0104	-0.80417	-0.37708	-1.4125	72.059	69.136	251.841	-40.262	-4.524	-49.943	136.007	-44.470	-15.941	131.023	259.050	238.338	-69.739	130.103	156.652	206.478	0.00044645	0.0013937	0.00058933	1153.2	2.209e-05	1.0003e-05	1391.8	418.82	5.8429e-06	2.508e-05	615.56	229.9	155.16	63.876	1.5485e-05	103.29	0.0028678	0.0029543	0.00081081	1171.3	3.181e-05	3.198e-05	1379.4	434.13	3.2098e-05	3.251e-05	637.38	231.66	162.86	65.834	3.3125e-05	102.53	201.675	18.516	-74.695	-82.883	91.059	49.129	-83.795	-78.449	43.069	136.232	-79.754	-75.889	-74.953	-69.280	193.277	-71.206	-8191	255	
1537.019	1	1	0	0	0.18106	0.13479	0.14567	0.34974	0.15843	0.071401	0.18131	0.2934	0.081573	0.082382	0.092558	0.036349	0.22502	0.28699	0.064038	0.19155	-0.175	-0.42708	-1.1208	-0.71667	-1.0771	-1.0333	-0.50833	-1.2708	-0.45833	-0.56667	-1.3604	-0.51042	-1.0812	-1.0854	-0.1375	-1.2979	230.314	101.424	139.400	212.760	217.396	107.898	230.215	172.048	171.274	54.215	181.234	244.390	161.439	180.790	-22.869	258.558	0.00035336	0.0024848	0.00052127	1138.6	2.7691e-05	1.6327e-05	1380.8	414.12	7.6691e-06	8.2897e-06	605.03	228.26	153.56	64.35	1.5727e-05	102.64	0.0029271	0.0029987	0.00083352	1169.4	3.3069e-05	3.2815e-05	1373.4	433.5	3.2892e-05	3.3383e-05	635.03	231.85	163.29	66.703	3.4539e-05	103.57	186.283	146.822	75.839	-82.718	214.200	29.098	-83.301	-78.520	24.792	172.197	-79.241	-75.522	-74.341	-69.133	65.553	-70.922	-8191	255	
1537.115	1	1	0	0	0.12085	0.14833	0.054881	0.18212	0.31451	0.056906	0.14238	0.19799	0.30394	0.24645	0.12273	0.42622	0.21355	0.29091	0.15559	0.29171	-0.13542	-0.48542	-1.1229	-0.34792	-0.78333	-1.0375	-0.45	-1.3375	-0.72917	-0.43958	-1.3583	-0.53542	-0.85833	-1.0896	-0.44792	-1.2333	-90.782	159.591	-4.245	189.055	87.993	55.364	200.750	195.596	-82.253	229.877	-39.359	193.276	234.066	187.956	159.141	166.502	0.0003576	0.0017727	0.00068466	1132.6	2.4787e-05	8.1611e-06	1367	416.32	9.0611e-06	1.6592e-05	603.12	227.33	153.07	63.293	1.0825e-05	102.03	0.0030925	0.0031857	0.00087967	1169.7	3.4247e-05	3.4177e-05	1372	435.23	3.3664e-05	3.4162e-05	637.19	231.59	163.44	66.506	3.6156e-05	103.62	169.851	76.942	-31.166	-82.631	122.688	249.822	-83.441	-78.355	67.464	58.183	-79.417	-75.930	-74.708	-69.004	225.844	-70.954	-8191	255	
1537.236	1	1	0	0	0.14036	0.13449	0.14265	0.12079	0.36406	0.18145	0.21385	0.069458	0.058054	0.12876	0.22288	0.25385	0.29711	0.27332	0.045285	0.27948	-0.40625	-0.29375	-1.0958	-0.37292	-0.74792	-1.1042	-0.38333	-1.0187	-0.7875	-0.31458	-1.2417	-0.47083	-0.63542	-1.1938	-0.21875	-1.3312	-47.575	-62.171	161.179	187.411	-65.031	-71.100	165.378	-1.014	-84.856	256.330	85.353	-83.784	-82.396	213.276	-45.798	225.006	0.00032059	0.0030951	0.0004274	1132.4	1.3975e-05	1.1824e-05	1371.2	413.92	1.2229e-05	1.7522e-05	597.73	225.95	153.04	62.91	2.7243e-05	100.7	0.0032484	0.003386	0.00095051	1193.4	3.7744e-05	3.7712e-05	1401.3	445.56	3.7869e-05	3.818e-05	649.21	234.75	165.81	67.051	3.8446e-05	103.88	205.562	26.241	45.607	-82.850	244.542	234.797	-83.869	-78.486	79.916	262.728	-79.524	-76.200	-74.801	-69.577	113.033	-70.900	-8191	255	
1537.308	1	1	0	0	0.15622	0.18834	0.058876	0.34171	0.036305	0.063563	0.26962	0.16949	0.32717	0.22122	0.14075	0.17479	0.15279	0.36271	0.19903	0.18874	-0.41875	-0.35625	-1.0667	-0.53542	-0.54375	-1.2042	-0.36458	-1.0063	-0.98125	-0.39167	-1.2583	-0.66458	-0.56875	-1.4396	-0.4875	-1.1104	-93.996	-7.793	248.427	-27.318	80.726	-12.585	258.735	201.099	50.685	101.160	-33.592	151.757	228.452	244.438	41.382	252.213	0.00064646	0.002007	0.00066347	1140.7	1.7893e-05	1.5328e-05	1366.7	410.5	2.0129e-05	1.805e-05	598.77	225.32	152.99	62.648	2.1122e-05	101.55	0.0034149	0.0034937	0.00097558	1202.4	3.8353e-05	3.8104e-05	1400	443.01	3.7758e-05	3.8168e-05	649.54	234.16	165.42	66.922	3.8007e-05	104.01	187.751	32.716	-30.436	-82.647	81.351	11.226	-83.559	-78.536	133.136	187.655	-79.844	-76.324	-74.952	-69.400	63.699	-71.269	-8191	255	
1537.404	1	1	0	0	0.1744	0.040491	0.40908	0.20747	0.080041	0.12873	0.10415	0.12255	0.30344	0.2693	0.11954	0.42294	0.062871	0.064085	0.17163	0.14591	-0.66458	-0.20417	-1.1042	-0.89167	-0.43542	-1.2417	-0.5125	-0.85625	-1	-0.34167	-1.3042	-0.675	-0.39583	-1.2208	-0.37292	-0.775	155.571	198.861	45.477	261.909	132.028	169.512	149.114	171.646	-68.084	-31.072	228.373	212.246	-5.441	32.398	10.729	89.299	0.00038049	0.0012757	0.00026504	1134.5	7.6836e-06	2.7957e-05	1371.2	410.18	8.7939e-06	1.7249e-05	600.76	225.75	152.78	62.317	4.9726e-06	101.87	0.0032883	0.0033688	0.00093561	1187	3.577e-05	3.5449e-05	1384	434.97	3.4478e-05	3.462e-05	638.2	231.38	162.05	65.55	3.4889e-05	102.46	-83.877	-34.569	-34.216	-83.135	-19.429	-78.487	-83.468	-78.803	72.963	178.753	-79.491	-76.202	-74.942	-68.863	-0.466	-71.118	-8191	255	
1537.500	1	1	0	0	0.35738	0.17617	0.18184	0.075485	0.048111	0.27216	0.15374	0.15739	0.13561	0.15059	0.28944	0.2054	0.23849	0.25481	0.28721	0.078723	-0.7875	-0.16875	-0.97292	-0.70833	-0.45417	-1.0167	-0.65417	-0.47292	-0.99167	-0.30833	-0.96458	-1.0167	-0.41667	-1.0458	-0.39792	-0.51458	-8.988	55.320	146.109	-94.582	92.362	-70.885	93.625	176.074	228.486	257.479	-84.026	163.966	240.288	99.088	-82.517	235.830	0.00050358	0.0012117	0.00068808	1125.7	8.1853e-06	9.0324e-06	1367.1	410.94	1.674e-05	7.7033e-06	599.54	226.81	151.26	63.024	1.5418e-05	101.42	0.0031067	0.0032406	0.00091392	1174.1	3.5559e-05	3.597e-05	1385.1	437.79	3.5794e-05	3.6243e-05	642.56	232.82	163.34	66.881	3.7103e-05	103.8	208.903	-11.394	247.060	-82.656	94.410	97.421	-83.511	-78.794	123.552	-81.913	-79.979	-76.204	-74.544	-68.989	49.843	-71.321	-8191	255	
1537.619	1	1	0	0	0.080826	0.10966	0.37752	0.099656	0.09521	0.18766	0.12789	0.25671	0.092138	0.072529	0.24544	0.12419	0.23493	0.31334	0.2223	0.12412	-0.58125	-0.2	-0.9875	-1.1437	-0.10417	-1.0104	-0.71458	-0.60833	-1.1958	-0.29167	-0.93333	-1.275	-0.3875	-1.1354	-0.775	-0.58542	112.455	185.956	32.697	170.074	102.493	113.750	236.207	214.608	-94.686	-86.727	148.115	185.225	186.208	241.176	147.725	61.528	0.00014712	0.003216	0.0010129	1111.1	2.4981e-05	2.218e-05	1347	402.93	2.0421e-05	1.6934e-05	594.8	225.84	151.17	63.634	2.2197e-05	102.74	0.0032871	0.0034331	0.00097027	1177.9	3.8041e-05	3.8744e-05	1384.5	437.82	3.8367e-05	3.89e-05	649.27	234.26	165.2	67.916	3.8825e-05	105.3	206.158	61.961	-48.172	-82.843	144.387	58.363	-83.392	-78.336	79.769	114.008	-79.719	-76.272	-74.959	-69.073	-27.363	-71.332	-8191	255	
1537.715	1	1	0	0	0.14413	0.24459	0.282	0.28656	0.12878	0.14602	0.14554	0.13497	0.27359	0.20986	0.082412	0.14488	0.071115	0.29082	0.047635	0.24236	-0.84167	-0.4375	-0.675	-1.0479	-0.2875	-1.0729	-0.85417	-0.47292	-0.97083	-0.47708	-0.83542	-1.2708	-0.33958	-1.2042	-0.7	-0.52292	106.610	161.032	225.262	243.186	-1.239	-69.142	214.894	256.584	-35.440	-7.083	241.552	161.717	-27.522	-86.665	247.371	194.658	0.00014689	0.0015531	0.00084511	1103.6	7.339e-06	2.744e-05	1358.1	404.9	1.1518e-05	4.8207e-06	594.9	229.33	153.85	64.505	2.3285e-05	105.15	0.0033837	0.0035154	0.00097357	1172.7	3.7355e-05	3.7638e-05	1378.7	433.9	3.5834e-05	3.5639e-05	636.73	233.27	163.08	66.649	3.2762e-05	104.02	215.976	24.279	-17.394	-82.751	-45.004	115.520	-83.866	-78.513	-57.328	16.441	-79.541	-76.518	-75.235	-69.247	115.171	-71.211	-8191	255	
1537.811	1	1	0	0	0.049448	0.15149	0.17941	0.085258	0.27392	0.27962	0.38305	0.067824	0.14498	0.14737	0.25468	0.33577	0.30948	0.34143	0.21413	0.20131	-0.93333	-0.51458	-0.61875	-1.1167	-0.32917	-1.0938	-1.0521	-0.42292	-1.0917	-0.625	-0.57708	-1.2812	-0.40417	-0.85	-0.87292	-0.4125	130.364	136.565	256.061	174.798	243.501	19.466	225.587	-91.528	30.988	126.286	202.907	238.746	252.685	226.796	-64.768	245.527	0.00041495	0.0014042	0.00030641	1127.4	2.4612e-05	2.405e-05	1391.2	418.19	1.7719e-05	2.1785e-05	623.47	238.66	161.05	65.722	1.7208e-05	107.47	0.0027581	0.0028178	0.00076397	1136.3	2.8721e-05	2.8339e-05	1350.4	420.1	2.6376e-05	2.6007e-05	613.83	229.53	158.83	64.126	2.3872e-05	101.22	212.663	214.283	-60.535	-83.197	39.927	74.245	-83.717	-78.846	235.672	54.114	-79.817	-76.356	-75.144	-69.297	49.786	-71.284	-8191	255	
1537.885	1	1	0	0	0.21276	0.035546	0.42769	0.071388	0.087683	0.098476	0.10677	0.52728	0.047789	0.20982	0.1757	0.19574	0.22389	0.26591	0.14644	0.25987	-0.87292	-0.5875	-0.44375	-1.3708	-0.27917	-0.90417	-1.1542	-0.33542	-1.0646	-0.79375	-0.6875	-1.1833	-0.44792	-0.70625	-0.96042	-0.39167	124.094	21.560	-46.481	86.209	116.748	245.321	201.615	224.234	121.490	-41.144	210.865	224.008	188.153	-47.313	164.327	141.478	0.00036994	0.0025485	0.00060792	1146.3	8.8438e-06	8.5149e-06	1399	423.73	9.5796e-06	8.9154e-06	624.86	237.04	159.28	64.742	4.76e-06	106.63	0.0020876	0.0021393	0.00059167	1119	2.3232e-05	2.3469e-05	1331.5	414.65	2.3551e-05	2.3904e-05	607.17	227.17	156.95	63.597	2.4541e-05	101.04	149.258	-69.013	-52.030	-83.323	87.213	69.090	-83.692	-78.670	215.434	-9.950	-79.482	-76.411	-74.926	-69.523	95.256	-71.174	-8191	255	
1538.003	1	1	0	0	0.074331	0.086926	0.21033	0.20451	0.057261	0.18253	0.23818	0.052109	0.19315	0.063566	0.19587	0.11337	0.20582	0.1895	0.056574	0.22749	-0.52083	-0.6625	-0.39375	-1.2042	-0.47917	-0.59375	-1.2521	-0.34375	-0.93958	-0.82083	-0.325	-1.2417	-0.65833	-0.75417	-1.1437	-0.37083	200.505	-76.325	10.397	226.861	164.892	-21.698	185.071	35.651	246.656	166.022	57.101	232.472	207.591	-41.461	248.924	-60.202	0.00032299	0.0018452	0.00040991	1147.7	1.4442e-05	1.4954e-05	1385.5	420.24	8.097e-06	2.2697e-05	614.85	235.15	157.06	65.592	6.9266e-06	106.14	0.0022219	0.0022993	0.0006404	1128.7	2.576e-05	2.6148e-05	1341.6	419.61	2.6608e-05	2.6857e-05	613.86	228.96	158.51	65.116	2.7288e-05	102.74	213.693	21.540	227.804	-82.969	-53.435	-37.556	-83.756	-78.811	158.192	-7.097	-80.008	-76.102	-75.177	-69.025	28.083	-71.746	-8191	255	
1538.100	1	1	0	0	0.14621	0.11029	0.1132	0.13607	0.27469	0.097199	0.23438	0.10126	0.17974	0.32618	0.01775	0.080612	0.060246	0.21559	0.11841	0.24428	-0.54167	-0.9625	-0.21875	-1.1562	-0.44583	-0.56667	-1.1063	-0.41667	-1.0167	-0.8375	-0.61875	-1.375	-0.5875	-0.56042	-1.1562	-0.5	52.579	-24.441	71.413	228.514	-90.049	10.281	197.789	155.538	92.871	193.556	131.630	0.440	170.985	228.090	104.319	151.624	0.00038036	0.00067371	0.00017129	1132.3	2.3131e-06	5.5583e-06	1383.7	419.13	8.3054e-06	1.9902e-05	613.14	236.86	157.32	65.766	6.6849e-06	106.7	0.0024594	0.0025155	0.0006963	1132.4	2.739e-05	2.7476e-05	1343.4	421.16	2.7051e-05	2.6882e-05	616.51	230.19	158.64	64.999	2.6487e-05	102.52	213.706	133.585	-38.499	-82.992	82.595	221.318	-84.190	-78.708	8.800	-22.943	-79.831	-76.331	-75.166	-69.109	209.246	-71.473	-8191	255	
1538.196	1	1	0	0	0.16594	0.14421	0.18368	0.34354	0.02157	0.33544	0.17959	0.096607	0.14219	0.32195	0.28245	0.28974	0.36048	0.37552	0.11127	0.2114	-0.37917	-0.79375	-0.34375	-1.2792	-0.48958	-0.35833	-1.3104	-0.4125	-0.6875	-1.1875	-0.34583	-1.0833	-0.84583	-0.34167	-1.175	-0.575	69.855	211.364	81.554	-72.551	-48.994	202.052	238.221	177.319	211.540	-91.132	239.290	245.743	215.160	229.226	177.008	184.646	0.00016638	0.00020914	7.679e-05	1148.9	1.3922e-05	1.7042e-05	1396.8	419.07	1.3484e-05	1.1499e-05	618.77	236.1	157.34	65.347	5.9726e-06	105.99	0.0023643	0.0024332	0.00067588	1133.1	2.6869e-05	2.6924e-05	1349.7	421.33	2.7058e-05	2.6994e-05	618.15	230.32	158.76	64.979	2.7234e-05	102.68	239.690	262.871	-91.044	-82.940	23.794	58.360	-83.769	-78.716	110.112	-51.269	-79.523	-75.977	-74.990	-69.270	237.863	-71.861	-8191	255	
1538.316	1	1	0	0	0.1065	0.1786	0.21339	0.34434	0.064065	0.16012	0.17054	0.1702	0.11883	0.065431	0.33878	0.12289	0.20331	0.24321	0.15308	0.056311	-0.077083	-1.1625	-0.28542	-1.1625	-0.8125	-0.19583	-1.4271	-0.32708	-0.48333	-1.1	-0.33958	-0.92708	-0.96458	-0.34792	-1.1042	-0.70625	-57.820	105.490	238.479	182.113	-54.460	165.842	-73.827	173.504	238.513	262.698	233.597	224.171	102.093	210.924	34.557	-55.508	0.00062781	0.0021379	0.00020178	1151.5	1.4472e-05	1.6283e-05	1392.8	413.53	6.8703e-06	2.3559e-05	610.07	231.63	155.26	64.615	1.7467e-05	104.95	0.002426	0.0024757	0.00069134	1141.4	2.7176e-05	2.7169e-05	1350.3	419.07	2.7696e-05	2.7668e-05	615.72	227.24	157.3	64.485	2.7891e-05	101.5	182.811	20.846	202.102	-82.998	241.035	-27.526	-83.770	-79.112	59.409	-53.227	-79.862	-76.609	-75.120	-69.032	87.890	-71.580	-8191	255	
1538.412	1	1	0	0	0.10282	0.20017	0.30396	0.075041	0.14527	0.10764	0.34895	0.21992	0.13888	0.067772	0.23948	0.064238	0.17555	0.41069	0.27036	0.21644	-0.11458	-1.1021	-0.29375	-0.86458	-0.96458	-0.16458	-1.3625	-0.47917	-0.37292	-1.1917	-0.33125	-0.83958	-1.1146	-0.46667	-1.1833	-0.82708	165.671	129.003	13.797	27.339	135.295	99.657	191.008	262.927	36.911	-92.888	-90.159	-20.922	209.127	-40.594	196.939	-25.769	0.00050614	0.0013873	0.00071287	1137.2	2.2027e-06	2.7617e-05	1382.2	415.83	2.3549e-05	2.0923e-05	606.58	232.69	156.2	65.083	9.2171e-06	106.14	0.0024613	0.0025344	0.00070567	1137.2	2.7616e-05	2.8034e-05	1347.9	421.33	2.8419e-05	2.8755e-05	619.32	229.26	159.13	65.664	2.9618e-05	103.77	177.503	-6.715	179.466	-82.990	-16.732	-93.027	-83.894	-78.773	49.398	13.699	-79.763	-76.572	-74.991	-69.216	-63.461	-71.249	-8191	255	
1538.507	1	1	0	0	0.21404	0.032976	0.2109	0.26955	0.24469	0.32344	0.23842	0.2047	0.12163	0.15276	0.30689	0.28966	0.28147	0.11978	0.26697	0.30188	-0.041667	-1.0271	-0.35	-0.84375	-0.89792	-0.15625	-1.2375	-0.83542	-0.22917	-1.1146	-0.55833	-0.78542	-1.0771	-0.34792	-0.99167	-1.1792	170.926	17.690	94.402	-80.920	189.567	-13.507	-17.071	261.597	163.439	250.337	200.224	215.388	210.648	206.371	-8.080	197.190	0.00036594	0.00051863	0.00025397	1128.5	1.2906e-05	1.6561e-05	1367	412.49	1.7619e-05	2.9233e-05	607.2	233.96	156.6	65.893	5.2348e-06	107.36	0.0026258	0.0027274	0.00075973	1136.3	2.9561e-05	2.9701e-05	1348.2	422.36	2.9242e-05	2.9629e-05	620.55	231.61	160.43	66.284	3.0189e-05	104.9	178.150	12.777	-58.612	-82.751	-0.294	141.673	-83.593	-78.642	61.021	64.491	-79.614	-76.165	-74.957	-69.396	41.526	-71.649	-8191	255	
1538.605	1	1	0	0	0.0041336	0.13893	0.067591	0.17709	0.20996	0.18268	0.043534	0.23078	0.10194	0.31541	0.30679	0.18915	0.38044	0.41997	0.12514	0.3129	0.052083	-1.1771	-0.53542	-0.66042	-1.2458	-0.24167	-1.0146	-0.93958	-0.39167	-1.2167	-0.71667	-0.57708	-1.0583	-0.2125	-0.74375	-1.0521	-72.982	-56.316	71.134	237.451	-25.860	-28.814	103.669	-78.064	-28.696	80.513	231.400	257.366	221.804	260.267	30.968	240.654	0.000263	0.0020466	0.00028306	1120	5.0109e-06	1.3414e-05	1366.6	414.41	2.3458e-05	1.3079e-05	610.27	235.89	158.04	65.698	3.3271e-05	108.24	0.0026642	0.0027782	0.00077676	1136.1	3.0178e-05	3.0591e-05	1356	424.67	3.0157e-05	3.0435e-05	626.91	233.85	161.8	66.42	3.0032e-05	105.09	192.031	86.027	41.695	-82.728	22.999	34.567	-83.396	-78.543	76.837	242.589	-79.610	-76.145	-75.105	-69.357	1.462	-71.663	-8191	255	
1538.699	1	1	0	0	0.044544	0.32874	0.105	0.30896	0.19492	0.14132	0.17219	0.18821	0.14469	0.070417	0.082837	0.17566	0.32563	0.11945	0.24451	0.10479	0.041667	-1.075	-0.55833	-0.53333	-0.99167	-0.27292	-0.97292	-0.93958	-0.2	-0.85417	-1.0667	-0.51667	-1.2812	-0.41875	-0.83125	-1.2479	-17.824	234.937	202.705	194.539	-85.614	20.794	-43.080	25.317	100.200	214.867	221.342	194.705	234.009	-18.918	-86.687	138.829	0.00057608	0.0028135	0.00059398	1118.5	1.8167e-05	6.1842e-06	1368.6	414.45	1.297e-05	1.402e-05	606.58	234.73	156.85	64.659	4.618e-06	105.83	0.0026339	0.0027547	0.00076201	1132.9	3.0077e-05	3.0337e-05	1356.4	424.87	3.0415e-05	3.08e-05	627.74	232.98	161.24	65.958	3.0491e-05	103.52	141.507	230.856	-27.556	-82.702	99.501	8.305	-83.523	-78.824	122.024	-83.625	-79.576	-76.293	-74.983	-69.326	38.814	-71.371	-8191	255	
1538.795	1	1	0	0	0.15795	0.14212	0.24477	0.077519	0.15081	0.12355	0.33864	0.25907	0.19202	0.20969	0.32663	0.16186	0.39918	0.25954	0.086811	0.36616	0.17292	-0.91667	-0.70833	-0.47083	-0.94167	-0.34375	-0.82292	-1.2729	-0.20208	-1.0667	-0.86875	-0.33958	-1.1229	-0.61667	-0.6625	-1.2208	-89.011	19.966	124.818	220.328	-45.527	-85.385	192.000	66.519	204.757	11.679	235.042	160.023	139.473	-61.025	88.865	202.145	0.00015753	0.0016516	0.00054123	1135	1.4538e-05	5.7036e-06	1361.7	413.21	4.0128e-06	1.0281e-05	603.03	230.98	155.12	65.044	7.2506e-06	104.9	0.0026662	0.0027521	0.00076816	1137.7	3.0062e-05	3.0506e-05	1352.6	423.65	3.0443e-05	3.0857e-05	623.76	229.88	160.24	65.681	3.0989e-05	103.17	169.031	35.784	165.953	-82.807	155.796	172.734	-83.690	-78.260	202.095	68.753	-79.919	-76.120	-74.558	-69.096	5.044	-71.542	-8191	255	
1538.916	1	1	0	0	0.24696	0.08113	0.20471	0.19209	0.18214	0.077769	0.2179	0.12426	0.14813	0.34767	0.23754	0.41939	0.027328	0.18645	0.11463	0.20001	0.23125	-0.77292	-0.925	-0.33333	-1.2042	-0.53542	-0.64167	-1.4521	-0.40208	-0.96458	-1.0542	-0.31875	-1.3417	-0.6625	-0.3625	-1.5208	249.751	247.855	-34.541	234.638	-2.944	221.272	194.946	-61.308	-66.568	-16.890	215.972	217.293	95.758	-14.328	250.245	190.881	0.00017102	0.0023797	0.00028689	1131.4	3.8075e-06	1.2765e-05	1375.3	409.5	7.5373e-07	8.319e-06	604.65	232.88	154.54	64.37	1.185e-05	105.27	0.0027572	0.0028408	0.00078817	1145.3	3.0995e-05	3.1313e-05	1358.8	423.81	3.089e-05	3.1213e-05	623.81	230.46	159.69	65.4	3.0376e-05	102.99	154.082	-35.929	-70.572	-82.850	190.599	-0.373	-83.364	-78.824	179.971	249.428	-79.823	-76.119	-74.841	-68.953	122.236	-71.221	-8191	255	
1539.012	1	1	0	0	0.25799	0.26945	0.19637	0.15458	0.089264	0.22985	0.14369	0.16008	0.19806	0.015871	0.22462	0.23859	0.063841	0.095886	0.26137	0.27728	-0.010417	-0.90417	-0.89167	-0.52708	-1.05	-0.8	-0.73333	-1.2979	-0.39167	-0.52917	-1.0083	-0.27708	-1.0646	-0.78958	-0.47708	-1.3333	-36.178	32.525	100.176	209.919	-73.197	-7.621	-82.986	156.578	258.408	32.219	203.892	226.951	235.352	-80.881	107.042	237.413	0.00043096	0.00065361	2.3369e-05	1132.2	9.2808e-06	2.1458e-06	1366.5	414.37	4.9971e-06	1.3385e-05	607.9	233.03	155.11	64.577	3.3337e-05	105.03	0.0026824	0.00275	0.00075597	1141.2	2.9806e-05	2.9987e-05	1352.2	423.33	2.9537e-05	2.9975e-05	621.82	229.9	159.49	65.107	2.9539e-05	102.85	164.035	47.270	191.540	-82.616	252.931	120.217	-83.512	-78.635	29.575	-16.070	-79.770	-76.282	-74.756	-69.415	1.644	-71.374	-8191	255	
1539.108	1	1	0	0	0.15533	0.09228	0.075497	0.15173	0.016013	0.32885	0.207	0.070134	0.21757	0.080097	0.20854	0.1119	0.24955	0.018189	0.047627	0.19834	0.066667	-0.65625	-0.95625	-0.38125	-1.0688	-0.75625	-0.38333	-1.3167	-0.57917	-0.61042	-1.2104	-0.29792	-0.97708	-0.97292	-0.18958	-1.375	31.020	220.812	101.192	-72.439	223.445	225.293	241.185	173.066	152.035	88.474	28.563	149.477	-90.733	-69.791	-74.019	48.226	0.00034037	0.0019964	0.00067498	1136.8	2.4523e-05	1.566e-05	1379.1	415.6	1.5883e-05	2.1045e-05	610.56	233.03	155.05	64.305	6.3019e-06	105.45	0.0026109	0.0026757	0.00073776	1141.1	2.9216e-05	2.9098e-05	1350.1	422.41	2.9368e-05	2.9645e-05	621.04	229.67	159.37	64.981	2.9857e-05	103.01	178.675	-42.335	23.183	-82.720	-11.908	49.377	-83.702	-78.332	41.339	-14.100	-79.602	-76.314	-74.546	-69.122	15.662	-71.292	-8191	255	
1539.180	1	1	0	0	0.24308	0.017779	0.27068	0.15951	0.15961	0.15834	0.27659	0.19452	0.10189	0.071115	0.14248	0.24513	0.16005	0.14888	0.39845	0.16403	-0.21042	-0.45417	-1.3104	-0.44167	-0.82708	-1.0208	-0.46458	-1.3292	-0.5875	-0.45208	-1.3479	-0.65208	-0.92917	-1.1479	-0.26667	-1.2313	65.467	98.705	185.941	-9.065	254.271	239.225	224.645	251.150	110.639	47.361	225.427	190.725	221.835	246.483	-35.477	119.494	0.00052516	0.0019211	0.00036922	1125.1	1.4789e-05	1.3187e-05	1371.9	414.04	9.9184e-06	1.5706e-05	604.14	230.67	154.03	64.014	1.6244e-05	104.42	0.0026514	0.0027437	0.00075751	1137.8	3.0005e-05	2.9924e-05	1352.4	424.64	2.9936e-05	2.9997e-05	620.6	228.86	158.97	64.939	2.9953e-05	102.52	188.612	-17.685	-34.813	-82.784	19.765	-6.670	-83.578	-78.409	157.535	11.590	-79.928	-76.211	-74.748	-69.428	163.231	-71.358	-8191	255	
1539.301	1	1	0	0	0.20483	0.32206	0.36289	0.084501	0.34615	0.17904	0.18933	0.2042	0.13044	0.011281	0.24657	0.18189	0.28543	0.10939	0.1205	0.34353	-0.26042	-0.34375	-1.0271	-0.325	-0.70625	-1.0438	-0.275	-1.1583	-0.68333	-0.22292	-1.1417	-0.74375	-0.90833	-1.1292	-0.08125	-1.2354	100.694	20.289	122.528	-48.268	80.409	176.131	235.167	187.063	77.741	132.002	202.374	180.435	222.256	-0.166	6.374	200.791	0.00021841	0.0015388	0.00048886	1122.3	3.607e-06	1.2755e-05	1371.5	410.32	2.0199e-05	2.0374e-05	608.01	231.77	154.36	64.724	1.9436e-05	104.31	0.0026729	0.0027526	0.00076626	1139.1	3.0503e-05	3.0515e-05	1354.4	425.3	3.0928e-05	3.0927e-05	625	230.76	160.35	65.744	3.1223e-05	103.1	227.706	-95.875	-33.374	-82.913	89.780	182.069	-83.402	-78.386	-6.102	47.829	-79.728	-76.264	-74.619	-69.757	123.413	-71.114	-8191	255	
1539.397	1	1	0	0	0.28871	0.29921	0.16029	0.35592	0.11395	0.15087	0.40956	0.18114	0.085534	0.14909	0.20929	0.27104	0.17472	0.36489	0.035547	0.23694	-0.46458	-0.26458	-1.2021	-0.54583	-0.35208	-1.2083	-0.625	-1.1083	-0.93542	-0.32917	-1.2896	-0.59583	-0.74583	-1.3458	-0.097917	-1	132.596	183.793	210.720	238.447	7.366	-21.538	190.720	-2.870	-21.178	-45.406	-95.619	244.651	233.626	238.455	-70.214	154.875	7.6417e-05	0.00025785	0.00059977	1123.9	1.6408e-05	1.5013e-05	1371.7	410.54	8.0462e-06	1.7381e-05	605.89	231.11	153.83	64.004	6.9824e-06	104.08	0.0027566	0.0028421	0.00079615	1143.5	3.1151e-05	3.1181e-05	1356.4	426.08	3.1339e-05	3.1477e-05	625.96	230.45	160.26	65.446	3.1904e-05	103.21	248.504	-71.398	217.559	-82.750	109.174	101.002	-83.719	-78.751	20.239	128.875	-79.804	-76.129	-74.694	-69.229	125.471	-70.905	-8191	255	
1539.493	1	1	0	0	0.10718	0.16844	0.14446	0.15779	0.010762	0.093123	0.13956	0.16517	0.13736	0.1509	0.19222	0.13505	0.074442	0.17939	0.17634	0.11065	-0.81042	-0.29792	-0.90833	-0.7375	-0.51458	-1.2479	-0.46667	-0.90417	-1.125	-0.22292	-1.1083	-0.95208	-0.50417	-1.2896	-0.37708	-0.70417	-26.794	173.864	105.506	29.472	153.498	41.954	131.815	136.710	198.040	134.524	-95.253	236.961	136.139	225.941	218.785	232.976	0.00033221	0.0031091	0.00056573	1112.4	5.2099e-06	2.191e-05	1375.2	411.3	5.7415e-06	1.0828e-05	604.55	229.84	153.89	63.75	6.0555e-06	104.43	0.0027898	0.0028738	0.00081023	1144	3.1725e-05	3.169e-05	1362.6	426.42	3.1696e-05	3.2039e-05	628.83	231.15	160.5	65.658	3.2582e-05	103.58	184.184	-14.502	46.883	-83.194	-96.199	234.465	-83.552	-78.677	114.307	-14.667	-79.692	-76.038	-75.005	-69.141	39.555	-71.371	-8191	255	
1539.589	1	1	0	0	0.14514	0.12836	0.11336	0.27293	0.2768	0.11159	0.16837	0.40182	0.090833	0.23485	0.078227	0.22447	0.34987	0.26872	0.2288	0.2071	-0.48125	-0.28958	-0.79583	-0.79792	-0.24792	-1.1229	-0.475	-0.79375	-1.0438	-0.30417	-1.0792	-1.0104	-0.50833	-1.3438	-0.44792	-0.76458	218.368	-51.404	-32.352	127.420	254.830	206.092	-30.585	174.863	130.019	106.410	236.883	173.261	221.547	-93.909	99.713	228.432	0.0004264	0.0031133	0.00018317	1121.4	1.7699e-05	1.5957e-05	1359.7	408.42	1.0103e-05	1.1928e-05	598.47	228.91	150.7	63.447	6.7295e-06	103.23	0.0028474	0.0029673	0.00083448	1149.1	3.2623e-05	3.302e-05	1362.4	427.41	3.2851e-05	3.332e-05	629.59	230.48	160.13	65.653	3.335e-05	102.88	178.178	189.006	-81.400	-83.123	109.392	79.079	-83.631	-78.620	80.523	-57.405	-80.109	-76.238	-74.666	-68.837	-95.231	-71.361	-8191	255	
1539.708	1	1	0	0	0.18587	0.096137	0.15872	0.10265	0.060615	0.2285	0.17941	0.35097	0.031327	0.17595	0.042185	0.2515	0.29756	0.22155	0.21615	0.1579	-0.85	-0.18958	-0.79375	-0.69167	-0.24167	-1.1583	-0.5875	-0.76458	-1.1229	-0.23333	-0.98958	-0.98542	-0.25833	-1.1562	-0.575	-0.67708	141.921	0.635	108.783	-56.973	98.843	187.272	196.090	226.080	33.028	-65.174	151.523	203.666	20.165	223.150	141.332	221.840	0.00053436	0.00049755	0.00051072	1125.4	1.019e-05	1.3598e-05	1361.7	407.27	1.5035e-05	4.156e-06	598.34	229.22	151.99	63.815	1.6747e-05	102.99	0.0029201	0.0030178	0.00084442	1151	3.2931e-05	3.3665e-05	1360	428.11	3.3548e-05	3.393e-05	631.24	231.68	161.23	66.134	3.432e-05	103.39	223.068	-76.751	-3.473	-82.936	-68.851	195.089	-83.828	-78.786	65.767	116.524	-79.641	-76.404	-74.992	-68.990	171.500	-71.382	-8191	255	
1539.780	1	1	0	0	0.27096	0.10608	0.22254	0.28223	0.11053	0.037828	0.22926	0.18584	0.17946	0.11657	0.21663	0.17817	0.21039	0.24193	0.15506	0.32729	-0.81458	-0.11667	-0.6	-1.0021	-0.10625	-1.0354	-0.7125	-0.55208	-1.0812	-0.30208	-0.73333	-1.0125	-0.097917	-1.1458	-0.66875	-0.42708	102.618	120.317	-79.248	176.785	257.400	-61.675	221.730	255.732	193.733	91.052	156.933	200.168	224.643	204.563	205.354	116.008	0.00021552	0.0021774	0.00016567	1105.7	1.2996e-05	2.0129e-05	1360.4	404.63	1.2968e-05	2.4646e-05	591.19	226.7	153.13	63.469	5.399e-06	103.34	0.0030204	0.0031447	0.0008759	1153.1	3.412e-05	3.448e-05	1365.1	429.49	3.4337e-05	3.4792e-05	634.28	231.1	161.88	66.358	3.4432e-05	103.77	140.374	-76.291	65.935	-83.008	132.595	111.602	-83.623	-78.518	-5.936	111.490	-79.745	-76.371	-74.760	-69.215	156.219	-71.160	-8191	255	
1539.877	1	1	0	0	0.17234	0.023727	0.15588	0.38121	0.22877	0.29648	0.36349	0.19614	0.29514	0.19792	0.27977	0.45584	0.12041	0.14643	0.44337	0.1532	-0.5625	-0.09375	-0.575	-1.1354	-0.25625	-1.0146	-0.9875	-0.325	-0.93542	-0.3875	-0.69792	-1.0938	-0.38958	-0.9125	-1.0083	-0.625	226.360	-56.817	262.749	236.346	239.140	98.674	229.294	233.367	125.531	110.716	-50.601	224.312	-27.788	-53.669	21.625	-81.488	0.00058685	0.00094612	0.00044288	1111.3	6.3299e-06	2.1129e-05	1361.2	408.32	1.5796e-05	1.0774e-05	596.5	228.92	152.06	64.17	1.2412e-05	104	0.0030544	0.0031732	0.00088527	1151.1	3.4358e-05	3.4832e-05	1365.4	429.85	3.463e-05	3.4929e-05	634.56	233.19	162.54	66.673	3.5328e-05	104.71	212.469	139.604	8.554	-82.619	27.772	122.393	-83.661	-78.394	86.287	-69.450	-79.916	-75.952	-74.719	-69.077	-5.355	-71.267	-8191	255	
1539.996	1	1	0	0	0.18671	0.091924	0.1567	0.30951	0.16386	0.12318	0.10978	0.11053	0.27183	0.24129	0.15832	0.17765	0.19989	0.23147	0.059097	0.40311	-0.70833	-0.5875	-0.39167	-1.4042	-0.23333	-0.85	-1.0208	-0.43333	-1.1208	-0.55208	-0.79583	-1.2563	-0.51042	-0.91042	-1.0479	-0.29375	80.792	119.213	37.267	-63.320	200.042	-2.289	-31.878	147.174	-42.934	215.894	52.158	209.575	187.188	224.212	-6.546	187.929	0.00026584	0.0024893	0.0005434	1108.8	1.1748e-05	1.6539e-05	1351.1	404.49	1.9128e-05	2.3154e-05	596.94	227.67	152.19	63.665	1.2505e-05	103.53	0.0031253	0.0032455	0.00089534	1152.8	3.5294e-05	3.5659e-05	1367.5	430.08	3.5248e-05	3.54e-05	633.25	232.63	161.78	66.6	3.5074e-05	103.88	130.020	10.099	-2.996	-83.073	-28.654	141.834	-83.635	-78.724	87.019	-56.676	-79.482	-75.649	-74.740	-68.489	52.903	-70.711	-8191	255	
1540.093	1	1	0	0	0.15635	0.23125	0.27985	0.21987	0.20524	0.24143	0.06775	0.15306	0.1536	0.21287	0.085092	0.35622	0.20429	0.2888	0.22755	0.27414	-0.79792	-0.67708	-0.39167	-1.3312	-0.375	-0.60417	-1.275	-0.28542	-0.97083	-0.825	-0.375	-1.2	-0.60833	-0.64583	-1.0167	-0.4125	-72.778	96.543	47.933	253.452	88.201	68.136	116.518	231.702	93.255	-88.979	172.918	220.464	259.338	-81.871	141.556	183.807	0.00046176	0.001269	0.00026885	1110	5.9098e-06	1.4525e-05	1354.4	401.72	1.3677e-06	3.6113e-05	594.3	226.49	152.46	63.809	1.2064e-05	103.22	0.0031155	0.0032044	0.00089314	1153.9	3.5205e-05	3.5284e-05	1366.1	428.57	3.5266e-05	3.506e-05	633.35	231.44	161.68	66.7	3.5034e-05	103.79	192.995	50.858	243.568	-82.775	165.385	-46.510	-82.989	-77.832	256.265	53.384	-79.291	-75.454	-74.421	-68.769	35.041	-70.416	-8191	255	
1540.189	1	1	0	0	0.056963	0.1617	0.27368	0.18952	0.17201	0.12273	0.32573	0.21981	0.1156	0.27083	0.31302	0.17511	0.25182	0.18852	0.15419	0.15908	-0.75625	-0.72708	-0.27917	-1.2354	-0.61042	-0.725	-1.1938	-0.31042	-0.94792	-0.7625	-0.325	-1.4458	-0.74375	-0.75417	-1.1437	-0.31875	-20.426	129.092	-95.430	223.083	16.761	-74.973	199.622	263.619	-23.624	65.564	146.445	149.782	-88.928	104.388	190.147	205.372	0.00023823	0.0018335	0.00066668	1106.6	6.9942e-06	3.0341e-05	1346.9	404.59	7.279e-06	7.4164e-06	593.56	226.64	150.63	63.755	2.0433e-05	103.44	0.0031177	0.0032092	0.00089539	1155	3.5299e-05	3.5619e-05	1364.1	430.12	3.5519e-05	3.5666e-05	634.01	232.52	161.97	66.602	3.5264e-05	104.02	225.666	-15.411	32.825	-82.245	177.003	59.844	-83.392	-78.259	257.729	41.452	-79.043	-75.623	-74.354	-68.545	27.615	-71.049	-8191	255	
1540.285	1	1	0	0	0.11783	0.12023	0.35416	0.30693	0.35397	0.15586	0.16127	0.30082	0.09909	0.18376	0.18844	0.23703	0.30922	0.093327	0.18093	0.26319	-0.33333	-0.75208	-0.20625	-1.1833	-0.51667	-0.44375	-1.3563	-0.35	-0.80417	-0.96458	-0.375	-1.275	-0.65208	-0.40208	-1.0979	-0.4375	213.338	229.708	13.573	255.844	-91.861	199.787	166.245	180.880	188.822	51.747	70.364	-74.232	181.552	231.160	189.109	199.333	0.00039992	0.0010454	0.0010946	1106.4	1.7725e-05	1.1765e-05	1359.4	404.62	1.7104e-05	1.5149e-05	599.28	226.01	151.58	63.762	1.1703e-05	103.48	0.00313	0.0032081	0.00089027	1157.4	3.5255e-05	3.5348e-05	1367.6	429.38	3.5042e-05	3.5078e-05	634.64	232.17	161.65	66.564	3.5104e-05	104.24	165.121	62.993	66.936	-82.559	19.923	51.758	-83.072	-78.247	187.611	88.388	-79.398	-75.493	-74.539	-68.395	-14.322	-71.008	-8191	255	
1540.405	1	1	0	0	0.10373	0.25045	0.22534	0.28793	0.23735	0.081643	0.29322	0.18459	0.13883	0.4354	0.317	0.42378	0.28222	0.25138	0.11465	0.32621	-0.32708	-0.9625	-0.30208	-1.3188	-0.58542	-0.26042	-1.3604	-0.51458	-0.49583	-1.1521	-0.4125	-1.0771	-0.99792	-0.17917	-0.96042	-0.60625	234.751	209.818	-81.953	186.262	135.269	41.767	-68.405	143.294	-20.876	104.852	169.313	250.776	243.195	-84.645	256.520	216.888	0.00042107	0.0037486	0.0004708	1105.1	2.6849e-05	1.4023e-05	1361.8	407.36	5.4425e-06	1.5457e-05	598.71	228.49	150.31	63.239	1.2848e-05	102.65	0.0031133	0.003193	0.00088957	1160	3.5309e-05	3.5063e-05	1372.6	431.12	3.5577e-05	3.5425e-05	635.74	232.44	161.34	66.312	3.5444e-05	103.79	239.095	-64.640	64.980	-82.230	4.638	67.361	-82.723	-77.775	51.314	99.176	-79.257	-75.190	-73.423	-67.768	84.780	-70.859	-8191	255	
1540.477	1	1	0	0	0.13365	0.053895	0.2608	0.020749	0.2601	0.12731	0.12603	0.10793	0.072862	0.069735	0.27772	0.39673	0.20322	0.34965	0.083915	0.10408	-0.16042	-1.0312	-0.26875	-1.0583	-0.775	-0.31458	-1.2667	-0.77917	-0.56875	-1.1063	-0.13958	-1.0625	-1.0542	-0.54167	-1.2104	-0.825	169.381	261.497	235.577	243.904	-10.691	105.486	124.118	224.874	150.350	132.080	252.623	188.283	-47.117	243.249	-46.458	233.047	0.00033048	0.00098359	0.0010581	1109.4	7.7274e-06	1.3716e-05	1350.3	403.35	6.5385e-06	2.0467e-05	593.31	223.7	151.15	62.949	2.2542e-05	102.31	0.0031474	0.0032554	0.00090829	1158.6	3.5763e-05	3.5989e-05	1367.8	430.71	3.5618e-05	3.592e-05	633.86	230.8	161	66.075	3.5646e-05	103.38	154.181	37.800	52.767	-82.363	42.181	137.291	-82.737	-77.598	236.060	207.306	-79.385	-75.305	-73.985	-68.578	127.963	-70.906	-8191	255	
1540.598	1	1	0	0	0.13421	0.35561	0.18006	0.35546	0.12034	0.1403	0.12174	0.42738	0.11679	0.14298	0.49808	0.3172	0.1105	0.13183	0.27782	0.013532	-0.097917	-1.1917	-0.14167	-0.7125	-1.0146	-0.14167	-1.3583	-0.84583	-0.43125	-1.1646	-0.51875	-0.87917	-0.83542	-0.3125	-1.0271	-0.84792	191.152	176.352	129.532	257.808	18.725	44.340	27.339	185.419	48.711	-84.495	233.688	170.556	-30.262	-21.497	73.951	157.358	0.00041709	0.0010394	0.0002867	1100.6	1.2055e-05	1.4509e-05	1345.5	401.17	3.3765e-06	1.2108e-05	595.46	225.18	151.33	63.302	7.6868e-06	103.13	0.0031299	0.0032418	0.00091188	1155.4	3.5625e-05	3.5857e-05	1365.4	429.33	3.5889e-05	3.6054e-05	634.19	232.38	162.01	66.577	3.6162e-05	104.1	-70.588	127.771	-41.010	-82.101	19.709	223.024	-83.063	-77.836	31.698	181.420	-79.435	-75.557	-74.322	-68.746	167.651	-71.011	-8191	255	
1540.692	1	1	0	0	0.14253	0.30679	0.066411	0.47414	0.29331	0.096015	0.22348	0.17865	0.058745	0.31378	0.041425	0.16738	0.2544	0.19815	0.057811	0.41161	0.24375	-1.175	-0.26667	-0.80625	-1.0521	-0.18125	-1.0479	-0.82083	-0.5375	-1.2792	-0.50625	-0.77292	-1.2854	-0.20833	-0.83542	-1.0229	188.807	242.384	101.103	211.005	151.718	-55.392	222.580	194.469	118.905	177.430	233.218	226.999	-81.739	76.567	-2.965	255.560	0.0003012	0.00074987	0.00066391	1100.6	2.7874e-05	7.3519e-06	1351.9	402.82	1.0608e-05	2.6926e-06	592.82	228.99	150.98	63.303	1.949e-05	103.25	0.0031539	0.003253	0.00090201	1153.5	3.5358e-05	3.5584e-05	1368.5	429.22	3.5578e-05	3.5728e-05	633.93	233.81	162.11	66.649	3.625e-05	104.65	176.372	224.286	6.192	-82.585	103.911	112.785	-83.240	-78.033	179.067	190.347	-79.352	-75.648	-74.075	-68.835	-91.282	-70.904	-8191	255	
1540.788	1	1	0	0	0.12138	0.13783	0.23274	0.037866	0.1213	0.11843	0.15641	0.17329	0.10007	0.16818	0.19211	0.25438	0.35736	0.12332	0.24332	0.25645	-0.083333	-0.95833	-0.66458	-0.61667	-1.0625	-0.40625	-1.1667	-1.175	-0.27083	-1.3687	-0.62292	-0.72708	-1.4062	-0.60625	-0.94583	-1.1812	80.830	105.150	126.704	-12.347	-24.252	21.925	-34.329	-94.914	-84.903	94.560	219.053	181.731	255.507	-21.426	-32.908	70.821	0.0004382	0.00052277	0.00060711	1100.1	9.0948e-06	8.3879e-06	1348.1	404.1	2.6148e-05	1.4853e-05	594.05	227.26	150.97	63.286	1.1756e-05	103.28	0.0031903	0.0033071	0.00092239	1158.4	3.5951e-05	3.6096e-05	1370.8	429.48	3.5786e-05	3.6158e-05	636	232.74	162.11	66.589	3.6426e-05	104.31	231.460	46.837	-10.834	-81.859	-80.892	143.662	-82.941	-78.102	-31.496	34.310	-78.661	-75.184	-74.212	-68.836	-70.448	-70.580	-8191	255	
1540.884	1	1	0	0	0.14301	0.19564	0.27389	0.16073	0.075473	0.29653	0.20845	0.32297	0.19686	0.13036	0.14321	0.26868	0.33698	0.29827	0.09693	0.33063	0.054167	-1.0479	-0.375	-0.50833	-1.2021	-0.46042	-0.69375	-0.97083	-0.22917	-1.125	-0.97083	-0.41667	-1.3062	-0.66875	-0.7875	-1.3396	-65.314	197.948	219.365	235.703	86.690	125.734	209.620	190.057	44.672	-72.027	260.459	226.415	219.779	202.190	-34.668	247.429	0.0001825	0.0032562	0.00053792	1102.9	3.2128e-06	3.165e-05	1350	401.09	2.3581e-06	1.2903e-05	590.17	226.09	150.61	62.877	1.1102e-05	102.41	0.0031981	0.0033356	0.00092426	1154.8	3.6097e-05	3.6139e-05	1366.5	428.22	3.5656e-05	3.61e-05	633.15	231.35	161.73	66.241	3.5962e-05	103.36	169.204	58.651	18.248	-81.909	47.280	34.222	-82.675	-77.908	-79.913	-90.713	-79.152	-75.687	-73.965	-68.463	97.268	-70.445	-8191	255	
1540.981	1	1	0	0	0.12996	0.10848	0.16358	0.27274	0.05153	0.129	0.18527	0.32663	0.014225	0.077481	0.10813	0.22117	0.36368	0.074168	0.23061	0.48657	-0.0083333	-1.0125	-0.65625	-0.14583	-1.25	-0.40833	-0.60625	-1.2375	-0.17917	-0.99583	-0.99792	-0.2875	-1.2875	-0.78333	-0.44792	-1.3458	-66.285	31.557	-54.150	242.575	140.202	77.349	-75.476	214.541	232.317	247.243	210.834	242.357	-76.681	142.944	92.183	232.714	0.00036183	0.00114	0.00034939	1097.9	8.7767e-06	2.5255e-05	1339.4	401.08	5.7703e-06	2.7333e-05	589.61	226.13	151.22	63.123	1.0242e-05	103.1	0.0031736	0.0032984	0.00092114	1149.8	3.6384e-05	3.6393e-05	1366.4	429.18	3.6059e-05	3.6552e-05	633.94	232.88	162.54	66.496	3.5875e-05	104.07	147.169	33.468	171.146	-82.541	20.461	103.914	-82.856	-77.678	102.067	52.289	-79.353	-75.460	-74.533	-69.055	15.509	-71.053	-8191	255	
1541.077	1	1	0	0	0.043536	0.25433	0.10229	0.18546	0.18561	0.22402	0.23168	0.14944	0.30329	0.17051	0.17666	0.14546	0.18452	0.19208	0.16605	0.41209	0.027083	-0.74167	-0.875	-0.36458	-1.0042	-0.56667	-0.60208	-1.1833	-0.275	-0.83125	-1.1187	-0.42708	-1.2354	-0.73958	-0.375	-1.25	48.705	178.453	-59.645	112.753	6.731	85.453	-79.496	154.127	-13.751	-72.929	-26.507	-93.092	228.432	228.829	234.882	212.696	0.0002996	0.0016478	0.00084975	1095.8	1.1984e-05	2.325e-05	1351.9	399.33	2.5162e-06	2.2218e-05	594.54	227.19	151.91	63.256	1.6444e-05	103.01	0.003173	0.003287	0.00090819	1148.7	3.5662e-05	3.5986e-05	1363.4	428.26	3.5613e-05	3.6038e-05	633.19	232.58	162.11	66.562	3.5244e-05	104.11	179.917	225.536	33.324	-82.169	80.980	-39.442	-82.802	-77.536	5.423	33.681	-79.015	-75.687	-74.450	-69.099	13.616	-71.034	-8191	255	
1541.173	1	1	0	0	0.18901	0.012743	0.24614	0.20039	0.25193	0.1305	0.35529	0.35953	0.22242	0.11403	0.16914	0.35242	0.35404	0.27247	0.058881	0.35524	-0.045833	-0.625	-1.1437	-0.32292	-1.1083	-0.83125	-0.50417	-1.2271	-0.50208	-0.63333	-1.2563	-0.44375	-1.1042	-1.0187	-0.22292	-1.2625	188.479	-15.807	191.415	246.920	171.098	32.941	197.175	251.313	42.553	68.678	-75.689	190.476	135.334	151.771	192.632	180.272	0.00011725	0.0026284	0.00020446	1101.6	8.6553e-06	1.9177e-06	1353.9	405.41	5.239e-06	2.2112e-06	598.28	229.02	153.03	62.945	1.5568e-05	103.26	0.0031168	0.0032055	0.00088913	1149.4	3.4914e-05	3.4892e-05	1364.1	428.66	3.4431e-05	3.4751e-05	630.75	231.68	161.71	65.923	3.439e-05	103.61	4.834	27.324	-61.263	-82.439	36.712	-90.383	-83.409	-78.302	-93.091	239.378	-79.750	-75.876	-74.442	-69.147	222.688	-70.940	-8191	255	
1541.269	1	1	0	0	0.13034	0.14972	0.22342	0.11632	0.15089	0.028335	0.25867	0.3549	0.15209	0.12206	0.30072	0.34252	0.21486	0.3003	0.046082	0.42871	-0.060417	-0.73333	-0.95417	-0.3625	-1.1104	-1	-0.34167	-1.2875	-0.52917	-0.58125	-1.1187	-0.44583	-0.87917	-0.96458	-0.49167	-1.3729	116.082	155.916	-28.801	246.753	237.157	178.452	186.114	199.255	200.647	256.717	241.038	207.968	109.247	249.296	112.677	209.464	0.00068046	0.0035459	0.00054009	1102	7.1914e-06	2.4995e-05	1351.9	404.27	1.2662e-05	1.6381e-05	594.02	225.84	151.67	62.951	1.1882e-05	102.98	0.0030362	0.0031454	0.00086742	1150.6	3.4271e-05	3.4562e-05	1361.7	428.24	3.4495e-05	3.4532e-05	630.69	230.87	160.95	65.759	3.45e-05	103.2	189.648	-15.267	210.376	-82.520	236.351	44.408	-83.100	-78.166	-82.602	254.653	-79.309	-76.091	-74.135	-69.175	95.590	-70.634	-8191	255	
1541.365	1	1	0	0	0.25146	0.033752	0.16728	0.14339	0.34091	0.13144	0.1904	0.19274	0.45549	0.14031	0.22225	0.06044	0.2186	0.21587	0.13495	0.080732	-0.33333	-0.3875	-1.2146	-0.39167	-0.88125	-0.98333	-0.21667	-1.2896	-0.61667	-0.6875	-1.2896	-0.51667	-0.83542	-1.2938	-0.31458	-1.2354	-8.489	17.712	-89.786	106.159	249.028	131.925	-51.592	172.044	139.764	95.188	204.920	-27.410	216.663	233.685	-62.829	80.829	0.00078005	0.0031008	0.00035685	1092.6	1.3011e-05	3.0423e-06	1337.7	403.85	7.964e-06	1.4947e-05	595.3	227.21	152.22	63.142	1.1566e-05	102.36	0.0030546	0.003145	0.00087626	1141.4	3.4716e-05	3.4367e-05	1353.3	427.66	3.4581e-05	3.4727e-05	630.68	231.58	161.41	65.915	3.4448e-05	103.22	165.381	183.631	-48.775	-82.543	1.683	158.134	-83.210	-77.707	38.695	74.121	-79.360	-75.940	-74.210	-68.835	212.335	-70.920	-8191	255	
1541.486	1	1	0	0	0.23659	0.20311	0.11114	0.21626	0.10559	0.18471	0.37305	0.18342	0.21283	0.2378	0.1854	0.21422	0.1587	0.16856	0.14118	0.080251	-0.48125	-0.21875	-0.99583	-0.52292	-0.71042	-1.1833	-0.31042	-0.99792	-0.75	-0.325	-1.2	-0.48333	-0.53333	-1.4	-0.275	-1.0792	33.151	63.524	92.137	-91.216	125.787	168.532	167.879	154.021	-34.009	243.806	179.572	204.756	250.150	130.248	68.176	90.891	0.00020287	0.0014546	0.000615	1099.7	1.1187e-05	3.3856e-05	1345	405.54	4.4232e-06	8.7509e-06	599.95	228.49	152.07	63.418	8.9541e-06	103.26	0.0030339	0.0031069	0.00086427	1139.6	3.4148e-05	3.3878e-05	1356.4	426.66	3.382e-05	3.3942e-05	630.75	231.46	160.61	65.733	3.3795e-05	103.26	221.406	-32.437	89.773	-82.653	127.795	29.606	-83.295	-78.250	254.705	244.358	-79.156	-75.481	-74.570	-68.780	53.818	-70.985	-8191	255	
1541.580	1	1	0	0	0.23566	0.39675	0.21149	0.19787	0.19798	0.21547	0.38584	0.27159	0.1296	0.28978	0.20919	0.095661	0.17936	0.079491	0.0075262	0.3758	-0.44792	-0.27708	-0.96042	-0.60833	-0.31667	-1.1083	-0.37917	-0.86458	-0.84583	-0.10417	-1.1854	-0.6375	-0.45833	-1.2667	-0.17292	-1	5.103	-21.895	-56.350	229.360	5.843	92.273	207.425	222.274	257.611	169.108	149.069	70.754	-63.552	173.077	252.682	206.263	1.5273e-05	9.0818e-06	0.0008429	1105.2	1.4431e-05	9.9275e-07	1357.1	407.68	2.6239e-06	3.321e-05	598.15	228.41	151.34	63.38	1.8225e-05	102.84	0.0029832	0.0030975	0.00085969	1145.5	3.422e-05	3.4325e-05	1365.1	428.1	3.4324e-05	3.4683e-05	632.72	232.57	161.54	66.012	3.4935e-05	103.32	45.853	21.707	-53.043	-82.273	248.088	136.657	-83.174	-78.086	-35.212	-3.115	-79.454	-75.780	-74.401	-68.883	-72.280	-70.907	-8191	255	
1541.678	1	1	0	0	0.38497	0.095071	0.11025	0.16785	0.14108	0.20428	0.13783	0.28489	0.026768	0.11	0.15973	0.40404	0.2064	0.063796	0.28717	0.24466	-0.6875	-0.20625	-1.1396	-0.85625	-0.46042	-1.0646	-0.39375	-0.63333	-0.92917	-0.15833	-1.2021	-0.66667	-0.25625	-1.1938	-0.18542	-0.75208	-47.151	197.356	-41.590	230.226	151.082	-38.703	207.410	-89.139	-29.015	44.558	250.818	200.968	209.514	-92.496	14.962	155.162	0.00053861	0.0033042	0.00017782	1100.1	1.5304e-05	7.2295e-06	1347.4	400.99	2.4187e-05	1.6071e-05	592.59	225.15	150.92	62.865	8.5218e-06	101.15	0.0030639	0.0031719	0.00088452	1145.3	3.4462e-05	3.4585e-05	1359.1	426.68	3.4509e-05	3.4634e-05	630.86	230.71	160.51	65.695	3.5068e-05	102.5	205.173	-0.884	38.305	-82.209	-76.468	98.907	-83.199	-78.278	135.269	-93.071	-79.323	-75.461	-74.331	-68.446	15.438	-70.852	-8191	255	
1541.773	1	1	0	0	0.20103	0.23177	0.24155	0.076621	0.065354	0.18191	0.39556	0.40788	0.1027	0.15282	0.28735	0.49909	0.1776	0.17077	0.17592	0.1819	-0.70208	-0.091667	-0.82917	-1.0312	-0.32708	-1.2167	-0.56875	-0.64583	-1.0063	-0.34167	-1.1167	-1.1292	-0.28125	-1.3167	-0.32708	-0.57083	-46.138	244.149	253.298	215.204	53.538	-50.686	259.682	193.929	244.882	-94.307	170.967	202.575	-69.052	225.198	207.187	-72.256	0.00020105	0.0024285	0.00038453	1098	1.3093e-05	7.0618e-06	1339.5	403.84	2.2084e-06	2.3642e-06	593.35	225.21	150.04	62.798	3.6428e-06	101.77	0.0030608	0.0031882	0.00088982	1144.6	3.4569e-05	3.4567e-05	1354.3	427.45	3.4418e-05	3.4938e-05	630.06	229.91	159.93	65.75	3.4984e-05	102.46	-78.508	54.205	0.008	-82.820	34.385	65.664	-83.330	-78.297	-60.000	-7.839	-79.724	-76.099	-74.466	-69.006	147.475	-71.241	-8191	255	
1541.869	1	1	0	0	0.17122	0.1688	0.088475	0.32362	0.082675	0.14264	0.40272	0.32241	0.14817	0.35024	0.11386	0.13406	0.13747	0.069074	0.2896	0.18266	-0.89167	-0.26667	-0.86458	-1.1	-0.27917	-1.3604	-0.54167	-0.59375	-1.2396	-0.41042	-0.83958	-1.0208	-0.27292	-1.0958	-0.65	-0.57083	225.342	115.086	205.764	163.665	159.825	20.519	156.189	213.311	41.928	158.001	231.087	131.220	-42.941	-36.973	-52.871	172.058	0.00042578	0.001249	0.00062125	1101.9	2.6785e-05	2.7047e-05	1344.3	402.81	8.6134e-06	1.1178e-05	595.38	225.81	151.22	62.917	8.9881e-06	102.17	0.0030565	0.0031853	0.00088849	1147.9	3.4884e-05	3.534e-05	1360.6	428.66	3.5353e-05	3.5728e-05	634.69	231.38	161.51	66.208	3.5781e-05	103.19	201.528	126.216	-10.031	-82.244	38.437	87.624	-83.311	-78.051	192.793	-62.833	-79.612	-76.219	-74.714	-69.008	107.217	-71.018	-8191	255	
1541.965	1	1	0	0	0.18498	0.20046	0.18032	0.2455	0.17113	0.10267	0.28991	0.076207	0.35465	0.2018	0.20405	0.21106	0.39244	0.12215	0.18852	0.4801	-0.54792	-0.225	-0.7125	-1.0438	-0.24583	-1.0208	-0.96458	-0.42083	-1.1187	-0.34792	-0.83333	-1.1646	-0.14167	-1.2708	-0.89375	-0.53333	21.389	115.047	72.962	138.923	69.315	106.637	198.197	139.428	69.604	211.078	230.632	174.514	214.085	205.011	38.487	258.033	0.00033373	0.0032658	0.0004834	1099.6	4.6883e-06	4.7037e-05	1335.9	404.16	1.1922e-05	2.6537e-05	596.39	227.48	150.43	62.815	5.7764e-06	103.21	0.0031301	0.0032479	0.00090329	1147.1	3.5339e-05	3.5773e-05	1359.3	429.33	3.5585e-05	3.5909e-05	636.39	232.43	161.5	66.134	3.5645e-05	103.69	216.686	-37.315	77.117	-82.493	43.315	53.009	-83.259	-78.212	-54.891	18.121	-79.096	-75.807	-74.201	-68.937	163.969	-71.252	-8191	255	
1542.085	1	1	0	0	0.17681	0.18747	0.14578	0.2796	0.12199	0.073771	0.18124	0.17558	0.16122	0.1195	0.1951	0.28997	0.26634	0.078856	0.2094	0.020447	-0.775	-0.41042	-0.77708	-1.2771	-0.20625	-0.98125	-1.1271	-0.42917	-0.97917	-0.47917	-0.46667	-1.3813	-0.43125	-0.92708	-0.65833	-0.39375	-78.235	95.124	93.617	154.294	-23.354	153.343	232.642	-79.184	243.157	193.361	-93.900	-84.783	210.235	-4.106	-91.291	110.234	0.00023108	0.00080032	0.0008218	1095.3	1.424e-05	2.052e-05	1343	405.85	1.4177e-05	2.3758e-05	589.71	226.05	150	62.58	2.3003e-05	102.08	0.0031233	0.0032276	0.00090099	1146.8	3.5241e-05	3.5601e-05	1360.8	429.79	3.558e-05	3.5935e-05	633.99	231.93	161.4	66.325	3.6062e-05	103.55	179.212	166.738	30.681	-82.693	-92.184	40.343	-83.255	-78.112	73.805	-78.059	-79.534	-75.996	-74.693	-68.904	-9.301	-71.122	-8191	255	
1542.182	1	1	0	0	0.1826	0.077223	0.29588	0.15992	0.24994	0.12547	0.18817	0.34394	0.17439	0.24066	0.11091	0.08476	0.20656	0.036339	0.26426	0.32027	-0.67292	-0.36458	-0.38542	-1.3792	-0.29792	-0.7875	-0.89583	-0.4625	-1.1396	-0.67083	-0.28333	-1.2771	-0.42083	-0.85833	-0.85833	-0.55833	90.232	-60.466	-48.724	158.961	147.103	-64.835	250.059	204.727	-68.709	91.215	-38.022	-25.953	251.641	11.717	104.993	139.265	0.00034718	0.00318	0.00046491	1093.3	5.7447e-06	1.0863e-05	1328.7	399.86	8.0042e-06	3.4538e-05	589.37	226.82	150.16	62.669	1.3055e-05	101.47	0.0031964	0.0033139	0.00091914	1148.8	3.6348e-05	3.66e-05	1361.5	429.24	3.6506e-05	3.6682e-05	633.93	232.11	162.11	66.596	3.6333e-05	103.51	164.813	81.507	4.407	-82.469	-14.608	165.600	-83.340	-78.330	17.137	6.681	-79.268	-75.713	-74.234	-68.430	131.982	-70.935	-8191	255	
1542.278	1	1	0	0	0.12215	0.094279	0.2371	0.15794	0.16214	0.08654	0.32469	0.4935	0.043765	0.27108	0.15202	0.3103	0.33845	0.24833	0.070941	0.15409	-0.6875	-0.64375	-0.37917	-1.2542	-0.4	-0.78958	-1.2104	-0.3375	-0.87917	-0.94583	-0.40208	-1.5312	-0.74583	-0.69375	-1.2146	-0.44167	-2.498	185.162	83.467	194.472	213.645	-56.210	-63.167	255.442	13.021	151.397	231.121	-36.696	187.761	242.347	174.219	-86.896	0.00034721	0.0023743	0.00044305	1089.5	1.394e-05	9.8366e-06	1345.3	402.51	1.2014e-05	2.3489e-05	597.29	226.08	150.76	63.222	1.9507e-05	102.62	0.0031872	0.0033032	0.00091737	1146	3.5872e-05	3.5769e-05	1359.9	428.07	3.5819e-05	3.5703e-05	632.96	231.61	161.67	66.332	3.5261e-05	103.21	231.592	63.861	43.682	-82.538	-38.117	-35.646	-83.457	-78.322	-67.992	6.200	-79.068	-76.027	-74.769	-69.060	168.163	-70.977	-8191	255	
1542.374	1	1	0	0	0.27085	0.17939	0.10966	0.19857	0.37791	0.44127	0.12587	0.089207	0.078741	0.13284	0.06026	0.30319	0.18244	0.1994	0.20912	0.16574	-0.49583	-0.75417	-0.32083	-0.9375	-0.56458	-0.45833	-1.3979	-0.3	-0.79792	-0.95208	-0.29792	-1.2875	-0.49167	-0.5	-1.0104	-0.39792	86.886	-4.820	-38.658	118.397	208.259	180.559	174.363	-27.155	173.323	15.804	193.220	234.074	-33.994	223.888	75.263	-90.594	0.00031759	0.0023112	0.00068114	1101.6	1.6859e-05	2.0424e-05	1349.6	401.33	1.1881e-05	2.7053e-05	596.03	228.31	151.6	63.394	1.1834e-05	102.75	0.003145	0.0031969	0.00088485	1143.4	3.4655e-05	3.4463e-05	1357.4	426.44	3.4493e-05	3.4726e-05	630.51	231.43	161.04	66.11	3.4818e-05	103.56	151.233	23.573	183.577	-82.783	87.939	133.890	-83.106	-77.995	92.592	-16.932	-79.447	-75.840	-74.547	-68.825	-28.337	-70.999	-8191	255	
#DATA ENDS
