BOXY.EXE: ISS Imagent and Oximeter Data Acquisition Program Version 0.80
Ascii Record File

#ACQ INFORMATION
2  Detector Channels 
16  External MUX Channels 
1  Auxiliary Channels 
5000  Waveform (CCF) Frequency (Hz)
1  Waveforms Skipped 
30  Waveforms Averaged 
1  Cycles Averaged 
16  Acquisitions per Waveform 
10.0806  Updata Rate (Hz) 

#FILE INFORMATION
TRUE -- External MUX Channel results are PARSED.
FALSE -- AC DC and Phase are NOT grouped.
TRUE -- Companion Program Settings File CREATED.
FALSE -- AC data not excluded
FALSE -- DC data not excluded
FALSE -- Phase data not excluded
FALSE -- Auxillary Chn. data not excluded
Tab delimiters

#CALIBRATION STATE
TRUE -- Waveform Calibration Values APPLIED.


#AUX CALIBRATION VALUES
Val Type	aux-1	

Term	1.0000e+00	
Factor	0.0000e+00	


#WF CALIBRATION VALUES
A = Detector Channel
Val Type	A-AC1	A-AC2	A-AC3	A-AC4	A-AC5	A-AC6	A-AC7	A-AC8	A-AC9	A-AC10	A-AC11	A-AC12	A-AC13	A-AC14	A-AC15	A-AC16	A-DC1	A-DC2	A-DC3	A-DC4	A-DC5	A-DC6	A-DC7	A-DC8	A-DC9	A-DC10	A-DC11	A-DC12	A-DC13	A-DC14	A-DC15	A-DC16	A-Ph1	A-Ph2	A-Ph3	A-Ph4	A-Ph5	A-Ph6	A-Ph7	A-Ph8	A-Ph9	A-Ph10	A-Ph11	A-Ph12	A-Ph13	A-Ph14	A-Ph15	A-Ph16	

Term	0.00000e+00	0.00000e+00	0.00000e+00	0.00000e+00	0.00000e+00	0.00000e+00	0.00000e+00	0.00000e+00	0.00000e+00	0.00000e+00	0.00000e+00	0.00000e+00	0.00000e+00	0.00000e+00	0.00000e+00	0.00000e+00	0.00000e+00	0.00000e+00	0.00000e+00	0.00000e+00	0.00000e+00	0.00000e+00	0.00000e+00	0.00000e+00	0.00000e+00	0.00000e+00	0.00000e+00	0.00000e+00	0.00000e+00	0.00000e+00	0.00000e+00	0.00000e+00	0.00000e+00	0.00000e+00	0.00000e+00	0.00000e+00	0.00000e+00	0.00000e+00	0.00000e+00	0.00000e+00	0.00000e+00	0.00000e+00	0.00000e+00	0.00000e+00	0.00000e+00	0.00000e+00	0.00000e+00	0.00000e+00	
Factor	1.00000e+00	1.00000e+00	1.00000e+00	1.00000e+00	1.00000e+00	1.00000e+00	1.00000e+00	1.00000e+00	1.00000e+00	1.00000e+00	1.00000e+00	1.00000e+00	1.00000e+00	1.00000e+00	1.00000e+00	1.00000e+00	1.00000e+00	1.00000e+00	1.00000e+00	1.00000e+00	1.00000e+00	1.00000e+00	1.00000e+00	1.00000e+00	1.00000e+00	1.00000e+00	1.00000e+00	1.00000e+00	1.00000e+00	1.00000e+00	1.00000e+00	1.00000e+00	X	X	X	X	X	X	X	X	X	X	X	X	X	X	X	X	

B = Detector Channel
Val Type	B-AC1	B-AC2	B-AC3	B-AC4	B-AC5	B-AC6	B-AC7	B-AC8	B-AC9	B-AC10	B-AC11	B-AC12	B-AC13	B-AC14	B-AC15	B-AC16	B-DC1	B-DC2	B-DC3	B-DC4	B-DC5	B-DC6	B-DC7	B-DC8	B-DC9	B-DC10	B-DC11	B-DC12	B-DC13	B-DC14	B-DC15	B-DC16	B-Ph1	B-Ph2	B-Ph3	B-Ph4	B-Ph5	B-Ph6	B-Ph7	B-Ph8	B-Ph9	B-Ph10	B-Ph11	B-Ph12	B-Ph13	B-Ph14	B-Ph15	B-Ph16	

Term	0.00000e+00	0.00000e+00	0.00000e+00	0.00000e+00	0.00000e+00	0.00000e+00	0.00000e+00	0.00000e+00	0.00000e+00	0.00000e+00	0.00000e+00	0.00000e+00	0.00000e+00	0.00000e+00	0.00000e+00	0.00000e+00	0.00000e+00	0.00000e+00	0.00000e+00	0.00000e+00	0.00000e+00	0.00000e+00	0.00000e+00	0.00000e+00	0.00000e+00	0.00000e+00	0.00000e+00	0.00000e+00	0.00000e+00	0.00000e+00	0.00000e+00	0.00000e+00	-1.31583e+02	-1.21578e+02	-1.40012e+02	-1.81298e+02	-8.87385e+01	-6.29981e+01	-1.57795e+02	-1.62015e+02	-6.94921e+01	-9.60310e+01	-1.75953e+02	-1.70521e+02	-1.80371e+02	-1.76072e+02	-6.81803e+01	-1.48893e+02	
Factor	1.93261e-05	1.42640e-04	3.75110e-05	1.68919e-01	1.12948e-06	1.23653e-06	1.80120e-01	7.03469e-02	1.11070e-06	1.40164e-06	1.16901e-01	3.27342e-02	2.64059e-02	1.04235e-02	1.14977e-06	1.44954e-02	1.13826e-06	1.18118e-06	3.28429e-07	8.21832e-02	1.29226e-08	1.29492e-08	8.20368e-02	3.39068e-02	1.29380e-08	1.29875e-08	5.34765e-02	1.52769e-02	1.27878e-02	5.00872e-03	1.30016e-08	6.72239e-03	X	X	X	X	X	X	X	X	X	X	X	X	X	X	X	X	



#DISTANCE SETTINGS
A = Detector Channel
A-1	A-2	A-3	A-4	A-5	A-6	A-7	A-8	A-9	A-10	A-11	A-12	A-13	A-14	A-15	A-16	

2.5000e+00	3.0000e+00	2.5000e+00	3.0000e+00	2.0000e+00	3.0000e+00	1.5000e+00	3.0000e+00	3.0000e+00	3.0000e+00	3.0000e+00	3.0000e+00	3.0000e+00	3.0000e+00	1.5000e+00	3.0000e+00	

B = Detector Channel
B-1	B-2	B-3	B-4	B-5	B-6	B-7	B-8	B-9	B-10	B-11	B-12	B-13	B-14	B-15	B-16	

1.0000e+01	1.0000e+01	1.0000e+01	1.4400e+00	1.0000e+01	1.0000e+01	1.5100e+00	1.9400e+00	1.0000e+01	1.0000e+01	1.9900e+00	2.4900e+00	2.4100e+00	2.9000e+00	1.0000e+01	2.9800e+00	




#DATA BEGINS
time	group	step	mark	flag	A-AC1	A-AC2	A-AC3	A-AC4	A-AC5	A-AC6	A-AC7	A-AC8	A-AC9	A-AC10	A-AC11	A-AC12	A-AC13	A-AC14	A-AC15	A-AC16	A-DC1	A-DC2	A-DC3	A-DC4	A-DC5	A-DC6	A-DC7	A-DC8	A-DC9	A-DC10	A-DC11	A-DC12	A-DC13	A-DC14	A-DC15	A-DC16	A-Ph1	A-Ph2	A-Ph3	A-Ph4	A-Ph5	A-Ph6	A-Ph7	A-Ph8	A-Ph9	A-Ph10	A-Ph11	A-Ph12	A-Ph13	A-Ph14	A-Ph15	A-Ph16	B-AC1	B-AC2	B-AC3	B-AC4	B-AC5	B-AC6	B-AC7	B-AC8	B-AC9	B-AC10	B-AC11	B-AC12	B-AC13	B-AC14	B-AC15	B-AC16	B-DC1	B-DC2	B-DC3	B-DC4	B-DC5	B-DC6	B-DC7	B-DC8	B-DC9	B-DC10	B-DC11	B-DC12	B-DC13	B-DC14	B-DC15	B-DC16	B-Ph1	B-Ph2	B-Ph3	B-Ph4	B-Ph5	B-Ph6	B-Ph7	B-Ph8	B-Ph9	B-Ph10	B-Ph11	B-Ph12	B-Ph13	B-Ph14	B-Ph15	B-Ph16	aux-1	digaux	

1033.793	1	1	0	768	0.13426	0.2349	0.22922	0.13926	0.26161	0.19767	0.1678	0.15197	0.12586	0.10224	0.18314	0.16059	0.28108	0.30655	0.36876	0.10813	-1.2313	-0.8	-1.075	-1.5375	-0.69792	-1.5229	-1.1792	-0.78333	-1.525	-0.81667	-1.0979	-1.4854	-0.68958	-1.5292	-1.35	-0.76458	261.989	57.781	216.762	224.176	47.945	140.202	203.059	-38.304	-55.816	258.436	-6.041	107.490	214.000	159.390	84.709	195.205	8.6494e-05	0.00032601	8.2365e-05	1014.5	3.7578e-06	3.7971e-06	1093.4	209.92	1.8058e-06	9.4781e-07	264.88	75.256	59.26	17.196	1.0554e-06	23.924	0.00011107	0.00010972	3.0156e-05	972.62	1.2351e-06	1.1927e-06	1047.6	201.32	1.2139e-06	1.1811e-06	251.48	73.329	57.994	16.844	1.1535e-06	23.422	166.980	34.700	-45.808	-64.219	13.633	24.099	-64.229	-56.861	34.058	79.475	-56.998	-50.505	-49.917	-42.806	88.581	-43.344	-8191	255	
1033.889	1	1	0	0	0.029062	0.094891	0.2309	0.4308	0.091225	0.084964	0.19337	0.21978	0.26526	0.076618	0.15851	0.098662	0.34888	0.20551	0.15699	0.20558	-1.2875	-0.78958	-0.93958	-1.6187	-0.63542	-1.3	-1.2896	-0.79792	-1.5146	-0.98333	-0.98958	-1.6604	-0.66875	-1.275	-1.4208	-0.73333	99.689	163.389	15.785	-63.835	230.139	279.348	196.415	30.016	203.903	213.366	190.202	54.646	130.144	18.192	-57.224	-6.473	8.8001e-05	0.00011958	7.1059e-05	1014.9	1.1371e-06	1.5547e-06	1092	209.76	1.4382e-06	2.1855e-06	264.38	75.354	60.076	17.279	2.9615e-06	24.077	0.0001056	0.00010554	2.9154e-05	972.91	1.183e-06	1.1379e-06	1048.1	201.37	1.1753e-06	1.1665e-06	250.99	73.302	58.014	16.844	1.1997e-06	23.517	159.075	-3.293	7.495	-64.268	-39.592	151.168	-64.489	-57.258	139.846	1.958	-56.976	-50.551	-50.307	-42.681	-48.560	-42.905	-8191	255	
1033.986	1	1	0	0	0.30416	0.075652	0.2609	0.26771	0.081394	0.21048	0.11907	0.17937	0.079561	0.28942	0.26379	0.068787	0.32663	0.14491	0.085706	0.11602	-1.3167	-0.88125	-0.86875	-1.5396	-0.75417	-1.0021	-1.5667	-0.63125	-1.6187	-0.88333	-0.70625	-1.7604	-0.84375	-1.0896	-1.3417	-0.62708	209.283	0.250	187.376	-25.824	268.151	100.505	162.585	245.546	-4.900	86.789	29.159	6.512	-50.390	201.209	-29.304	107.623	5.1984e-05	0.00017679	3.6439e-05	1018.6	1.0827e-06	4.4247e-06	1091.4	209.51	2.2364e-06	5.6882e-07	264.8	75.721	59.499	17.192	2.2097e-07	24.08	0.00011207	0.00011109	3.071e-05	971.27	1.2365e-06	1.2084e-06	1048.2	201.54	1.2087e-06	1.1763e-06	251.2	73.371	57.865	16.829	1.2194e-06	23.421	161.559	162.052	74.894	-64.081	-67.944	67.765	-64.180	-56.666	34.937	54.245	-57.540	-50.633	-50.638	-42.871	-18.526	-43.268	-8191	255	
1034.082	1	1	0	0	0.14259	0.22775	0.077672	0.27784	0.097171	0.33137	0.26055	0.077979	0.10161	0.32925	0.066341	0.16849	0.20069	0.19696	0.025035	0.41298	-0.98333	-1.0792	-0.78125	-1.8083	-0.65	-1.1375	-1.7896	-0.77083	-1.5271	-1.1854	-0.77708	-1.4667	-0.96875	-0.97917	-1.5854	-0.78125	265.801	62.931	251.285	229.904	190.580	234.770	172.394	171.026	34.027	-58.550	253.125	25.948	206.817	-62.144	-46.182	-13.250	5.6738e-05	0.00027873	7.427e-05	1011.6	3.1181e-06	1.7872e-06	1090	208.29	8.094e-07	3.3327e-06	264.08	75.659	59.816	17.238	4.0252e-06	24.167	0.00011057	0.00010898	3.0218e-05	969.76	1.1946e-06	1.1765e-06	1047.2	200.73	1.1895e-06	1.1998e-06	250.94	73.485	58.028	16.839	1.2059e-06	23.477	175.801	51.584	-56.955	-64.449	-27.010	91.149	-64.676	-56.995	85.645	13.286	-57.054	-50.357	-50.254	-42.776	75.430	-42.772	-8191	255	
1034.178	1	1	0	0	0.14921	0.20487	0.1207	0.26356	0.20277	0.074942	0.33575	0.16152	0.26478	0.055936	0.25005	0.047347	0.1235	0.28369	0.29523	0.21753	-0.91458	-1.3104	-0.72708	-1.8917	-1.0333	-1.0667	-1.8479	-0.77083	-1.3917	-1.2208	-0.67083	-1.5438	-1.0792	-0.875	-1.8271	-0.71458	-34.780	-23.831	123.909	109.435	261.061	276.776	217.208	218.223	215.846	80.675	117.359	129.161	108.701	246.382	189.933	154.752	9.8937e-05	0.00018447	0.00010042	1013.1	1.3325e-06	1.5361e-06	1090.2	209.7	2.2232e-06	7.2463e-07	264.94	75.674	59.748	17.246	2.2865e-06	24.328	0.0001098	0.00011023	3.0715e-05	971.26	1.2034e-06	1.2146e-06	1047.8	201.44	1.1799e-06	1.1888e-06	250.8	73.417	57.99	16.842	1.164e-06	23.436	153.011	17.179	14.065	-64.236	143.867	57.374	-64.069	-56.810	280.636	66.707	-57.349	-50.465	-50.658	-43.001	136.206	-43.527	-8191	255	
1034.274	1	1	0	0	0.12055	0.065371	0.089059	0.11861	0.12209	0.20724	0.23266	0.18321	0.045611	0.24073	0.14338	0.19198	0.04856	0.25353	0.3472	0.2302	-0.98958	-1.5479	-0.66458	-1.6833	-1.175	-0.80208	-1.9458	-1.0146	-1.0729	-1.5083	-0.76667	-1.5896	-1.1896	-0.81875	-1.6437	-0.87917	241.214	-28.805	-0.961	-22.996	70.931	250.548	231.868	270.272	-41.873	260.888	123.274	53.880	66.379	276.589	62.163	213.997	5.8866e-05	0.00031965	0.00011735	1016.8	1.8216e-06	2.3633e-06	1093.1	208.91	1.0061e-06	1.6459e-06	264.14	75.933	60.017	17.29	1.6106e-06	24.125	0.00010759	0.00010674	2.9829e-05	973.63	1.189e-06	1.1823e-06	1048.7	200.97	1.2153e-06	1.2032e-06	251.34	73.615	58.185	16.885	1.2161e-06	23.426	181.541	11.206	22.210	-64.335	103.333	65.215	-64.188	-56.560	46.107	-42.728	-57.316	-50.349	-49.723	-42.435	61.842	-42.874	-8191	255	
1034.395	1	1	0	0	0.24271	0.10843	0.13623	0.094573	0.15568	0.1754	0.21383	0.21968	0.031329	0.074586	0.20839	0.28131	0.13015	0.19492	0.043073	0.17811	-0.77083	-1.6146	-0.65625	-1.6021	-1.2417	-0.6625	-1.7437	-1.1354	-0.87917	-1.5417	-0.63542	-1.4438	-1.4333	-0.74792	-1.4021	-0.95625	96.891	230.321	131.703	214.715	105.850	-71.766	219.592	-62.622	75.514	139.292	256.944	32.238	195.954	120.187	36.962	85.506	0.00011548	0.00021464	9.4556e-05	1013.3	8.8992e-07	1.6922e-06	1093.6	207.22	1.8727e-06	5.9872e-06	265.16	75.589	59.79	17.211	2.8083e-06	24.183	0.00011072	0.00010919	3.1015e-05	969.82	1.246e-06	1.2171e-06	1048.6	200.63	1.2297e-06	1.2133e-06	251.11	73.399	58.119	16.89	1.2125e-06	23.455	164.008	102.000	24.402	-64.155	80.600	-5.000	-63.872	-56.539	252.606	64.202	-56.820	-50.280	-50.680	-42.717	102.629	-43.423	-8191	255	
1034.489	1	1	0	0	0.16431	0.1783	0.052488	0.31754	0.10787	0.07895	0.038409	0.076983	0.057185	0.16881	0.19602	0.066994	0.20763	0.15078	0.070655	0.23023	-0.46875	-1.6875	-0.65833	-1.4625	-1.2792	-0.63542	-1.5562	-1.0333	-0.75208	-1.6396	-0.80625	-1.1875	-1.5375	-0.73542	-1.5812	-1.3312	148.720	138.340	15.316	149.889	30.963	269.403	161.338	-14.785	13.423	151.751	48.530	11.134	144.080	42.086	-23.039	239.147	3.7114e-05	0.0004229	7.2649e-05	1017.5	1.2622e-06	3.5295e-06	1087.2	207.5	2.0333e-07	3.2347e-06	265.19	75.798	59.486	17.142	1.3803e-06	24.189	0.000114	0.00011157	3.0417e-05	971.71	1.2478e-06	1.2373e-06	1046.7	200.63	1.2613e-06	1.2184e-06	250.9	73.331	57.87	16.849	1.1964e-06	23.476	211.596	35.017	242.986	-64.766	79.440	54.797	-64.614	-56.933	214.766	-41.222	-57.962	-50.915	-50.599	-43.252	59.393	-44.076	-8191	255	
1034.587	1	1	0	0	0.30488	0.27023	0.31306	0.22043	0.16831	0.3643	0.32267	0.2527	0.13846	0.14347	0.074687	0.07224	0.22648	0.10475	0.16541	0.19312	-0.50833	-1.7146	-0.7875	-1.1958	-1.5292	-0.91042	-1.4771	-1.3312	-0.79375	-1.6729	-0.9	-1.175	-1.6667	-0.78542	-1.4979	-1.4208	-13.543	251.242	-26.879	130.305	128.667	93.659	232.893	221.406	172.028	-7.515	162.144	115.887	137.878	209.523	86.954	-67.572	7.5898e-05	0.00046923	0.00010028	1016.5	1.085e-06	2.253e-06	1091.6	208.31	2.2767e-06	1.9416e-06	264.08	75.581	59.672	17.202	1.1091e-06	24.087	0.00011149	0.00011021	2.9797e-05	972.85	1.232e-06	1.193e-06	1048.5	200.9	1.2085e-06	1.1639e-06	250.58	73.349	58.052	16.794	1.1554e-06	23.41	187.841	3.908	-50.894	-64.601	21.159	186.995	-64.715	-57.321	144.210	13.278	-57.753	-51.192	-50.814	-43.108	85.560	-43.953	-8191	255	
1034.683	1	1	0	0	0.064328	0.14115	0.23268	0.067991	0.33715	0.1395	0.26318	0.10443	0.035373	0.18578	0.31566	0.13562	0.035001	0.34263	0.26458	0.16889	-0.48125	-1.6521	-1.0688	-0.97292	-1.5917	-0.74792	-1.6083	-1.3167	-0.52292	-1.7062	-1.1417	-0.98125	-1.6271	-0.82917	-1.0958	-1.5562	82.315	74.635	251.840	-13.531	67.806	264.672	208.307	112.659	-41.599	-74.619	177.967	-14.463	262.692	-12.456	47.554	-34.286	4.1944e-05	0.00035838	3.0408e-05	1014.4	8.8846e-07	2.7196e-06	1092.8	209.27	3.0408e-06	1.9716e-06	263.02	75.255	59.527	17.238	2.0409e-06	23.976	0.00011037	0.0001055	2.9407e-05	971.21	1.1888e-06	1.153e-06	1049.2	200.89	1.194e-06	1.1577e-06	250.42	73.479	57.974	16.849	1.1561e-06	23.448	164.703	25.997	-23.402	-64.865	39.579	49.536	-64.639	-57.526	74.527	47.334	-57.422	-50.799	-50.568	-43.286	153.357	-43.788	-8191	255	
1034.778	1	1	0	0	0.046113	0.18913	0.18273	0.15569	0.23219	0.10825	0.3668	0.31839	0.11727	0.18842	0.27767	0.15254	0.1174	0.26526	0.10783	0.16589	-0.24792	-1.6313	-0.96875	-0.86458	-1.4771	-0.86875	-1.225	-1.5208	-0.74583	-1.3521	-1.175	-0.79792	-1.6521	-0.93125	-0.97708	-1.4229	156.942	37.202	135.991	267.990	165.881	273.811	177.393	164.028	-6.423	145.030	-30.407	215.728	-56.022	132.237	-8.253	-59.612	5.4301e-05	0.00035798	9.5278e-05	1015.6	1.7114e-06	1.4106e-06	1093.3	209.17	2.0274e-06	1.979e-06	266.44	75.374	59.851	17.245	3.1621e-06	23.933	0.00010796	0.00010257	2.8661e-05	971.82	1.1469e-06	1.1206e-06	1047.9	201.12	1.1562e-06	1.1196e-06	251.62	73.421	58.105	16.806	1.1863e-06	23.396	190.155	22.104	70.688	-65.016	274.812	54.932	-64.840	-57.305	-67.158	29.446	-57.371	-51.247	-50.560	-43.385	8.466	-43.720	-8191	255	
1034.874	1	1	0	0	0.17142	0.16988	0.1564	0.25433	0.3447	0.22547	0.1962	0.23886	0.028217	0.15279	0.072378	0.31264	0.088606	0.21248	0.17711	0.27933	-0.35208	-1.4333	-1.1146	-0.74167	-1.4396	-1.0292	-1.3083	-1.5812	-0.5625	-1.3104	-1.3125	-0.80625	-1.4167	-1.1021	-1.1917	-1.5958	269.822	154.592	38.694	263.665	189.432	-12.772	281.075	116.571	215.482	215.123	221.501	217.535	156.138	219.880	91.719	189.794	5.6043e-05	0.00031889	9.207e-06	1013.4	5.3727e-07	8.6903e-07	1090.9	209.6	1.5645e-06	2.419e-06	265.44	75.536	59.875	17.358	4.8554e-06	24.23	0.00011219	0.00010654	3.0101e-05	971.51	1.1952e-06	1.1851e-06	1048.9	201.39	1.217e-06	1.1993e-06	251.57	73.587	58.201	16.879	1.2008e-06	23.495	165.314	53.587	151.022	-64.774	84.533	162.126	-64.773	-57.317	155.854	71.845	-57.831	-51.124	-50.903	-43.479	87.719	-43.419	-8191	255	
1034.994	1	1	0	0	0.29361	0.051751	0.022845	0.11914	0.079859	0.18744	0.2589	0.23165	0.085974	0.098275	0.27023	0.14889	0.19337	0.051706	0.041034	0.20984	-0.3375	-1.2292	-1.2521	-0.65417	-1.4937	-0.9625	-0.96458	-1.6187	-0.89167	-1.1354	-1.5458	-0.675	-1.3958	-0.91458	-0.6125	-1.6979	155.461	160.055	-57.837	227.864	247.012	29.190	241.736	216.253	211.283	209.253	95.804	146.686	135.297	120.850	187.698	-70.680	4.731e-05	0.00029118	8.8087e-05	1021.7	4.3776e-06	2.2864e-06	1091.6	210.08	1.4482e-06	1.2648e-06	266.15	75.159	59.286	17.382	2.3436e-06	24.049	0.0001084	0.00010691	2.9825e-05	975.78	1.1776e-06	1.1785e-06	1048.8	201.53	1.2019e-06	1.1861e-06	252.05	73.446	58.091	16.872	1.2323e-06	23.517	192.513	-13.994	16.229	-64.999	158.221	96.751	-64.908	-57.297	103.412	39.068	-57.994	-51.395	-50.919	-43.544	104.435	-43.159	-8191	255	
1035.090	1	1	0	0	0.18025	0.3125	0.12147	0.13843	0.14251	0.18587	0.1365	0.11004	0.11618	0.028314	0.34056	0.22938	0.091039	0.09269	0.13407	0.1517	-0.34375	-1.0458	-1.5542	-0.77292	-1.5854	-1.1229	-0.92292	-1.6833	-0.82083	-0.98542	-1.7229	-0.77083	-1.6313	-1.1708	-0.63125	-1.6437	242.774	185.597	225.910	-65.170	166.176	-54.802	175.420	198.334	87.945	249.869	256.443	-62.894	137.756	273.259	212.007	121.745	6.9084e-05	0.00020352	3.2566e-05	1014.4	1.7453e-06	3.2282e-06	1092.8	209.74	2.1661e-06	2.765e-06	265.27	75.291	59.896	17.335	3.0903e-06	24.064	0.00011395	0.00010751	3.0053e-05	974.05	1.209e-06	1.1918e-06	1050.1	201.6	1.1919e-06	1.1978e-06	252.08	73.315	58.142	16.923	1.2405e-06	23.478	147.908	11.330	17.890	-64.624	-1.970	111.720	-64.789	-57.438	250.663	52.727	-57.760	-51.020	-50.942	-43.105	82.933	-43.737	-8191	255	
1035.187	1	1	0	0	0.1457	0.32044	0.24148	0.22033	0.1236	0.15516	0.31404	0.050328	0.16008	0.14226	0.39701	0.20254	0.326	0.17603	0.11364	0.13482	-0.57292	-0.91458	-1.5229	-0.88542	-1.4188	-1.3687	-0.75833	-1.4917	-0.81458	-0.78958	-1.5333	-0.48125	-1.4229	-1.4042	-0.41875	-1.5667	141.338	140.994	102.237	-52.432	-22.943	238.691	260.729	23.732	105.826	-65.794	268.761	192.184	187.034	224.108	31.226	68.607	4.5592e-05	0.00015511	5.5962e-05	1014.2	2.4272e-06	1.5947e-06	1089.8	207.81	1.3698e-06	3.1949e-06	266.19	74.971	59.809	17.425	1.729e-06	24.026	0.00010978	0.00011073	3.0441e-05	973.97	1.2199e-06	1.1763e-06	1050.2	201.28	1.2055e-06	1.1981e-06	251.85	73.393	58.172	16.927	1.2579e-06	23.502	165.092	149.251	29.908	-64.792	49.251	169.869	-64.987	-57.363	105.540	88.535	-57.735	-51.521	-50.769	-43.154	114.619	-43.854	-8191	255	
1035.283	1	1	0	0	0.079708	0.30903	0.048487	0.25069	0.21575	0.21167	0.2556	0.228	0.04186	0.15028	0.21602	0.20222	0.054528	0.28405	0.1662	0.19884	-0.6125	-0.88333	-1.5438	-0.82292	-1.4042	-1.3729	-0.95	-1.5875	-1.0833	-0.5875	-1.4542	-0.84375	-1.2729	-1.3771	-0.76667	-1.5146	250.838	86.760	200.383	191.138	-16.830	145.676	207.984	214.531	195.989	257.618	280.193	257.982	266.956	-61.529	95.884	-72.621	2.2404e-05	3.4101e-05	1.6459e-05	1017.6	1.6116e-06	2.3192e-06	1088.2	210.21	7.0795e-07	4.0688e-06	263.21	75.964	59.72	17.39	2.4196e-06	24.198	0.00011389	0.00011271	3.1194e-05	974.71	1.2486e-06	1.2104e-06	1049.8	201.78	1.221e-06	1.2205e-06	251.44	73.514	58.131	16.939	1.2239e-06	23.588	204.014	164.757	250.699	-65.133	2.067	12.875	-64.995	-57.362	144.744	37.094	-57.607	-51.396	-50.902	-42.909	120.983	-43.879	-8191	255	
1035.354	1	1	0	0	0.11041	0.2036	0.1291	0.33561	0.066661	0.075875	0.17461	0.42342	0.12844	0.199	0.23105	0.016241	0.36012	0.11339	0.070537	0.25124	-1.0167	-0.7625	-1.625	-0.84583	-0.93333	-1.4917	-0.92708	-1.4417	-1.2125	-0.525	-1.7271	-0.88542	-1.1688	-1.6167	-0.67708	-1.3375	185.895	122.120	177.094	264.818	198.558	65.639	250.330	275.085	15.891	-30.462	273.243	73.828	-40.554	222.293	168.333	263.353	0.00010751	0.0001125	0.00013886	1019	4.6694e-07	1.2491e-06	1095.2	210.3	1.4677e-06	2.0748e-06	266.27	74.939	59.954	17.246	6.3789e-07	24.114	0.00011106	0.00011044	3.0577e-05	974.31	1.2198e-06	1.2071e-06	1052	202.04	1.2228e-06	1.1976e-06	252.26	73.378	58.188	16.946	1.2651e-06	23.573	184.272	79.178	12.163	-65.009	83.844	31.359	-65.136	-57.512	41.204	69.947	-57.819	-50.872	-50.625	-43.243	-57.355	-43.733	-8191	255	
1035.473	1	1	0	0	0.33147	0.21917	0.25499	0.30954	0.02395	0.16483	0.073406	0.38095	0.11091	0.10905	0.096157	0.2052	0.36834	0.021918	0.19916	0.15294	-1.0208	-0.67708	-1.4667	-0.93125	-0.75625	-1.6229	-0.81458	-1.3104	-1.5292	-0.62083	-1.4708	-1.1396	-0.75833	-1.6688	-0.77917	-1.6125	53.220	266.386	165.542	261.873	-38.705	76.428	222.156	187.059	283.553	-2.252	-60.043	232.580	-27.546	268.944	265.006	-55.963	7.1011e-05	6.0644e-06	6.6432e-05	1015.8	1.9482e-06	1.8319e-06	1092.1	208.96	1.9392e-06	2.6857e-06	265.42	75.282	60.139	17.421	4.1117e-06	24.116	0.00011469	0.00011396	3.1408e-05	973.38	1.2466e-06	1.2412e-06	1049.3	201.71	1.2228e-06	1.2234e-06	251.79	73.437	58.176	16.963	1.1934e-06	23.531	146.367	172.517	69.303	-65.112	126.336	29.222	-65.006	-57.140	-17.781	59.784	-57.573	-51.139	-50.685	-43.415	59.979	-43.794	-8191	255	
1035.569	1	1	0	0	0.28702	0.10114	0.28631	0.34749	0.13422	0.22565	0.27158	0.16064	0.10887	0.29786	0.24574	0.23815	0.20739	0.22475	0.10369	0.25348	-1.0896	-0.6875	-1.375	-1.1958	-0.5375	-1.4688	-1.0479	-1.0562	-1.4937	-0.56875	-1.3979	-1.2188	-0.76042	-1.575	-0.64792	-0.94583	159.555	114.709	32.167	215.311	59.614	134.973	221.682	-33.060	179.181	134.331	282.043	272.210	238.210	-70.996	-36.036	155.321	6.9613e-05	0.0004165	3.8847e-05	1014.7	1.8616e-06	3.6651e-06	1096.5	208.26	1.2433e-06	4.1846e-06	265.66	75.245	59.83	17.345	2.5584e-06	24.273	0.00011184	0.00011018	2.9834e-05	975.76	1.2244e-06	1.1903e-06	1050.5	201.35	1.2251e-06	1.2007e-06	251.7	73.397	58.213	16.897	1.2009e-06	23.593	201.855	97.531	-70.711	-65.034	270.541	81.312	-65.062	-57.076	46.557	52.036	-57.595	-51.177	-50.472	-42.953	133.840	-43.385	-8191	255	
1035.667	1	1	0	0	0.15304	0.098641	0.25708	0.33247	0.14051	0.23621	0.058165	0.20317	0.14702	0.18711	0.28951	0.14261	0.38765	0.1347	0.20853	0.24018	-1.3771	-0.66875	-1.3937	-1.4021	-0.75833	-1.6125	-1.0771	-0.96875	-1.4208	-0.62917	-1.3771	-1.4354	-0.63125	-1.4771	-1.0063	-0.94375	204.217	265.310	-69.685	256.851	162.879	231.521	164.940	171.671	70.248	105.841	42.904	106.999	-40.816	231.808	178.268	-54.049	7.856e-05	0.00027196	9.2405e-05	1016	3.6649e-06	2.95e-06	1091.2	209.99	6.5583e-07	2.5056e-06	266.32	75.727	59.621	17.354	2.1899e-06	24.237	0.00010968	0.00010976	2.9345e-05	974	1.2212e-06	1.1632e-06	1050.7	201.58	1.1845e-06	1.1693e-06	252.06	73.56	58.06	16.906	1.2023e-06	23.574	171.380	32.259	17.312	-64.995	61.379	56.438	-64.940	-57.426	23.788	-11.954	-57.678	-51.225	-50.785	-43.612	56.786	-43.641	-8191	255	
1035.786	1	1	0	0	0.13823	0.30396	0.1726	0.13908	0.041445	0.29711	0.084149	0.18084	0.12216	0.18925	0.06522	0.19009	0.22513	0.070152	0.10507	0.095776	-1.3604	-0.66042	-1.2625	-1.6521	-0.72292	-1.475	-1.0354	-0.90625	-1.6042	-0.99375	-1.3	-1.4021	-0.49167	-1.5312	-1.1271	-0.72708	106.713	173.848	-11.882	157.485	281.323	135.046	16.770	1.034	146.806	-13.245	213.212	267.950	22.469	-55.592	105.895	-63.830	4.6813e-05	0.00022145	8.8761e-05	1015.6	1.6582e-06	3.3763e-06	1091.3	209.39	2.7646e-06	4.5945e-06	264.37	75.609	59.55	17.337	2.2003e-06	24.182	0.00010815	0.00010775	3.0006e-05	973.85	1.2187e-06	1.1858e-06	1050.3	201.56	1.1996e-06	1.1635e-06	251.25	73.354	58.02	16.911	1.1769e-06	23.504	94.586	-10.738	-5.686	-64.907	84.561	61.441	-65.013	-57.421	121.506	117.636	-57.721	-51.438	-50.921	-43.204	123.123	-43.387	-8191	255	
1035.882	1	1	0	0	0.2717	0.20145	0.095198	0.23995	0.21559	0.2387	0.14104	0.17786	0.13764	0.22988	0.15616	0.30902	0.10584	0.19822	0.44099	0.11913	-1.2792	-0.71875	-1.1354	-1.675	-0.7125	-1.1958	-1.3542	-0.7	-1.6104	-0.85417	-0.81458	-1.6167	-0.54792	-1.3771	-1.3125	-0.78958	2.312	67.864	63.168	222.080	209.207	39.551	216.654	-54.111	14.752	162.838	228.739	5.084	284.690	-63.986	-17.125	-25.985	4.9377e-05	9.3731e-05	0.00016661	1017.6	7.1648e-08	2.4216e-06	1085.5	208.68	1.063e-06	1.7357e-06	264.36	75.203	59.587	17.308	4.0663e-07	24.228	0.00010869	0.00010407	3.0106e-05	973.64	1.2149e-06	1.1499e-06	1047.5	201.55	1.1874e-06	1.1716e-06	251.61	73.433	58.035	16.919	1.1768e-06	23.528	150.244	79.233	12.875	-65.107	-67.896	87.488	-64.923	-57.226	55.129	74.518	-57.686	-51.012	-51.047	-43.220	5.551	-43.977	-8191	255	
1035.954	1	1	0	0	0.24657	0.074206	0.086173	0.35205	0.069716	0.27522	0.32581	0.24169	0.23565	0.14939	0.10379	0.21181	0.19523	0.1727	0.15851	0.095223	-1.2938	-0.80833	-0.87917	-1.6313	-0.60625	-1.1792	-1.5104	-0.60208	-1.5792	-0.9	-0.83333	-1.525	-0.65417	-1.1938	-1.4	-0.75833	125.891	190.370	-49.419	282.693	125.155	-29.245	208.929	178.350	124.943	137.826	217.756	-41.258	165.078	222.177	74.162	187.542	4.5393e-05	0.00060071	6.1631e-05	1016.9	2.2888e-06	2.1588e-06	1092.3	209.25	2.538e-06	2.029e-06	264.93	75.615	59.521	17.263	2.672e-06	23.991	0.00010843	0.00010505	2.996e-05	973.78	1.1963e-06	1.17e-06	1047.7	201.62	1.1873e-06	1.1839e-06	251.82	73.417	57.979	16.899	1.1942e-06	23.477	171.022	11.652	70.558	-64.837	39.467	53.644	-65.156	-57.404	18.014	-12.441	-58.002	-51.112	-50.857	-43.122	108.481	-44.364	-8191	255	
1036.075	1	1	0	0	0.061608	0.11678	0.31853	0.41064	0.1763	0.37358	0.208	0.23996	0.11361	0.16993	0.10794	0.33924	0.094896	0.049052	0.39577	0.086913	-1.0583	-0.89167	-0.73333	-1.7875	-0.56042	-0.9875	-1.6688	-0.67292	-1.5271	-1.1083	-0.80208	-1.3979	-0.75625	-1.1771	-1.4125	-0.56875	92.959	-50.585	220.809	254.084	159.298	-63.097	139.805	245.664	-39.052	159.968	238.383	-32.392	238.860	157.743	260.858	39.168	4.2722e-05	0.00045471	5.7221e-05	1002.2	1.3388e-06	2.2658e-06	1069.9	205.68	4.6478e-07	6.5066e-06	261.95	73.904	58.831	17.07	1.3186e-06	23.855	0.00010962	0.00010757	3.1067e-05	970.61	1.2062e-06	1.1685e-06	1044.4	200.64	1.2016e-06	1.1851e-06	250.48	73.064	57.729	16.825	1.21e-06	23.397	162.316	14.579	-9.583	-64.990	65.705	120.545	-65.346	-57.771	97.366	14.039	-58.055	-51.613	-51.402	-43.380	28.698	-44.125	-8191	255	
1036.171	1	1	0	0	0.2269	0.069118	0.11405	0.24382	0.13678	0.26858	0.18346	0.10913	0.1123	0.067276	0.073365	0.057076	0.12881	0.33891	0.081341	0.11087	-0.91667	-1.1396	-0.5375	-1.8854	-0.86458	-1.1583	-1.7479	-0.61042	-1.3917	-1.2042	-0.79167	-1.6583	-0.96667	-1.1667	-1.6562	-0.81042	-58.785	254.710	8.077	253.414	-16.410	32.740	179.838	263.683	243.064	150.939	5.922	143.460	241.365	8.604	-3.563	146.354	7.6533e-05	0.0002408	3.6658e-05	996.37	1.1743e-06	2.2554e-06	1075	205.24	8.7474e-07	3.0809e-06	259.34	74.078	58.446	17.112	1.9344e-06	23.568	0.00010932	0.00010785	3.0448e-05	969.96	1.2e-06	1.2029e-06	1044.9	200.53	1.1953e-06	1.1949e-06	250.09	73.088	57.701	16.868	1.1908e-06	23.361	170.824	-39.104	51.377	-65.082	32.955	-3.359	-65.398	-57.881	143.142	-23.835	-58.256	-51.200	-51.350	-43.412	72.504	-44.307	-8191	255	
1036.267	1	1	0	0	0.07971	0.14022	0.27264	0.095795	0.07817	0.113	0.10484	0.30317	0.42527	0.18024	0.27441	0.20488	0.27314	0.32755	0.1161	0.23684	-0.90208	-1.3958	-0.56042	-1.7083	-1.0125	-0.7625	-1.7042	-0.79792	-1.1542	-1.3604	-0.65625	-1.5458	-1.2208	-0.74583	-1.5667	-0.90208	103.259	177.702	67.463	12.234	148.196	43.333	211.226	269.544	235.721	60.810	-67.817	173.272	196.439	-49.341	-1.751	212.652	7.9542e-05	0.00022752	7.4856e-06	1002.2	1.6202e-06	2.8695e-06	1075.1	205.31	2.0842e-06	5.5111e-06	261.2	74.29	58.986	17.086	1.4229e-06	23.944	0.00011124	0.00011139	3.0948e-05	971.01	1.1961e-06	1.199e-06	1045.8	200.26	1.2091e-06	1.2041e-06	250.73	73.128	57.896	16.889	1.1934e-06	23.452	168.866	56.887	-1.318	-65.037	206.035	164.921	-65.379	-57.841	15.877	62.175	-58.096	-51.861	-50.907	-43.333	193.312	-44.490	-8191	255	
1036.388	1	1	0	0	0.19865	0.099198	0.14825	0.26096	0.061388	0.086615	0.089265	0.37292	0.11315	0.14513	0.10114	0.099975	0.10878	0.053874	0.32388	0.018045	-0.84167	-1.4813	-0.58542	-1.5375	-0.90625	-0.69792	-1.8229	-0.79167	-0.97917	-1.6771	-0.71667	-1.4146	-1.3396	-0.53333	-1.5479	-0.775	185.685	226.246	195.572	274.336	148.559	-32.895	227.565	213.735	-57.433	163.304	-46.320	22.126	-20.228	113.225	264.842	259.873	6.7988e-05	0.00026469	6.4515e-05	1011.8	1.5597e-06	3.2715e-06	1082.1	206.2	1.4219e-06	3.3923e-06	262.45	74.681	59.056	17.154	6.9479e-07	23.955	0.00011077	0.00011105	3.0895e-05	973.88	1.2326e-06	1.2048e-06	1048.3	200.9	1.2302e-06	1.1893e-06	251.11	73.299	57.806	16.873	1.2001e-06	23.436	158.752	45.368	-69.012	-65.054	29.645	124.306	-64.949	-57.539	2.685	-22.661	-57.818	-51.599	-51.485	-43.374	156.412	-44.017	-8191	255	
1036.484	1	1	0	0	0.47238	0.16111	0.05464	0.07941	0.1966	0.32015	0.31129	0.14046	0.13143	0.26918	0.19188	0.14914	0.1721	0.17366	0.19191	0.22638	-0.42083	-1.4396	-0.60417	-1.3188	-1.175	-0.73125	-1.5833	-0.875	-0.50625	-1.6979	-0.7125	-1.2292	-1.5	-0.725	-1.5979	-0.99583	144.106	143.663	151.909	195.144	-7.017	36.819	257.476	160.244	236.101	78.985	148.585	254.950	209.768	-22.099	44.241	202.800	8.2016e-05	0.00035989	5.0415e-05	1010.6	1.5345e-06	3.3236e-06	1083.7	208.37	2.3278e-06	2.2053e-06	262.87	74.765	59.343	17.331	2.3284e-06	23.874	0.00011208	0.0001082	3.042e-05	973.42	1.217e-06	1.1865e-06	1048.9	201.01	1.2128e-06	1.195e-06	250.74	73.229	57.86	16.9	1.1652e-06	23.368	140.093	1.640	272.073	-64.905	110.368	62.784	-64.756	-57.370	117.556	52.410	-57.924	-50.909	-50.765	-43.144	67.602	-43.482	-8191	255	
1036.578	1	1	0	0	0.054486	0.19976	0.14922	0.21433	0.26953	0.22375	0.11362	0.29441	0.17842	0.11548	0.13011	0.44208	0.16411	0.23394	0.073752	0.15657	-0.46875	-1.5833	-0.72917	-1.3438	-1.5375	-0.79167	-1.7042	-0.97292	-0.57292	-1.5167	-0.7375	-1.1896	-1.4208	-0.63125	-1.5083	-1.2167	283.505	129.154	248.146	-55.564	-47.353	69.023	188.796	0.517	68.497	98.919	-52.210	-70.344	279.411	102.565	204.996	8.537	7.2272e-05	0.0002939	0.00010633	1007.7	2.256e-06	4.402e-06	1083.8	206.18	9.567e-07	4.1516e-07	261.96	74.557	59.403	17.147	1.3472e-06	23.956	0.00011173	0.00010776	3.0156e-05	972.32	1.2134e-06	1.1941e-06	1047.1	200.71	1.2099e-06	1.1561e-06	250.16	73.195	58.04	16.828	1.1667e-06	23.427	132.145	25.372	-37.736	-65.016	236.911	100.462	-65.147	-57.185	154.811	79.380	-57.984	-51.362	-51.109	-43.176	24.630	-43.815	-8191	255	
1036.650	1	1	0	0	0.37557	0.097594	0.27957	0.25955	0.41762	0.20716	0.31652	0.27115	0.16216	0.25386	0.085635	0.22349	0.12244	0.03267	0.28196	0.13604	-0.23125	-1.5646	-0.88958	-1.0938	-1.5792	-0.46458	-1.4646	-1.2563	-0.71667	-1.4542	-0.8125	-1.0125	-1.4083	-0.78958	-1.4188	-1.3896	170.775	50.648	195.528	262.006	-73.736	48.585	209.704	154.144	-14.741	1.068	-31.057	245.820	210.742	279.474	-54.714	88.080	3.6043e-05	0.00012605	5.7317e-05	1010.7	1.4949e-06	2.5129e-06	1082.8	207.8	1.359e-06	2.3668e-06	262.78	74.526	59.454	17.301	1.7661e-06	23.929	0.00010966	0.00010735	2.9512e-05	971.56	1.1828e-06	1.1748e-06	1047.5	200.86	1.2348e-06	1.1908e-06	250.98	73.172	57.927	16.905	1.1817e-06	23.437	199.570	-26.333	-61.976	-64.896	117.814	27.838	-64.876	-57.589	110.290	246.906	-57.447	-51.135	-51.012	-43.348	77.301	-43.781	-8191	255	
1036.770	1	1	0	0	0.39849	0.23296	0.12543	0.092497	0.15809	0.15968	0.07521	0.26071	0.19353	0.24326	0.063074	0.055624	0.12737	0.074336	0.043992	0.28714	-0.32917	-1.5688	-0.96667	-1.0458	-1.375	-0.76458	-1.4	-1.4104	-0.49792	-1.3771	-1.1104	-0.48125	-1.6042	-0.66042	-1.1333	-1.3792	-37.335	160.446	91.968	120.664	125.829	280.103	187.707	-5.299	188.168	-63.116	-71.833	212.143	178.480	-5.674	152.655	-34.013	9.7104e-05	0.00012995	9.9496e-05	1011.4	1.3074e-06	3.0338e-06	1083.5	207.43	3.479e-06	6.7781e-07	263.6	75.152	58.986	17.216	1.2415e-06	23.968	0.00011128	0.00010812	3.0484e-05	973.08	1.2343e-06	1.1974e-06	1046.5	200.74	1.2286e-06	1.167e-06	250.7	73.474	57.876	16.874	1.1637e-06	23.402	187.982	116.534	57.249	-65.145	274.975	124.322	-64.584	-57.507	68.572	177.807	-58.029	-51.089	-50.457	-43.816	24.093	-43.605	-8191	255	
1036.867	1	1	0	0	0.16026	0.034637	0.11445	0.11684	0.17297	0.16177	0.34869	0.16644	0.11118	0.20794	0.096966	0.22468	0.11123	0.040098	0.16658	0.17278	-0.25417	-1.4667	-1.0375	-0.87083	-1.6187	-0.78542	-1.0708	-1.5396	-0.78333	-1.475	-1.2833	-0.61042	-1.7708	-0.80625	-1.0187	-1.5708	72.645	-51.571	211.357	193.866	-12.011	-9.940	257.495	72.819	222.243	22.029	264.571	210.522	73.443	-68.258	89.868	-45.947	5.0976e-05	0.00044062	0.00010639	1013	1.6161e-06	2.2515e-06	1083.9	208.13	2.2319e-06	2.0622e-06	262.75	74.304	59.428	17.079	3.9218e-06	23.769	0.00011222	0.00010583	2.9269e-05	972.07	1.2054e-06	1.1914e-06	1048.5	201.26	1.2123e-06	1.1834e-06	250.48	73.255	57.948	16.832	1.2129e-06	23.45	103.250	71.941	46.927	-64.944	64.435	49.138	-64.875	-57.174	81.736	133.170	-57.763	-51.157	-50.470	-43.606	29.613	-43.725	-8191	255	
1036.963	1	1	0	0	0.18912	0.08807	0.2326	0.20253	0.053246	0.018059	0.12052	0.12806	0.35093	0.059945	0.19833	0.42089	0.2008	0.065743	0.16573	0.28334	-0.44375	-1.3333	-1.3646	-0.61458	-1.525	-0.91875	-1	-1.5708	-0.60833	-1.2188	-1.275	-0.72708	-1.5625	-0.94375	-0.725	-1.6417	254.430	106.261	-68.170	-45.341	189.895	261.346	195.834	266.179	14.165	207.665	152.519	216.671	218.652	-54.678	87.562	101.846	7.8854e-05	0.00028194	0.00011674	1009.2	1.2567e-06	5.3417e-06	1084.4	208	1.6394e-06	1.5279e-06	263.55	74.815	59.207	17.293	1.6628e-06	24.052	0.00011122	0.00010666	2.984e-05	973.25	1.1967e-06	1.1766e-06	1048.4	201.23	1.2109e-06	1.1756e-06	250.97	72.981	57.883	16.856	1.1923e-06	23.448	142.796	51.441	-5.021	-64.897	114.662	120.856	-64.775	-57.327	130.340	49.978	-57.619	-51.279	-50.727	-43.191	97.320	-43.488	-8191	255	
1037.059	1	1	0	0	0.17557	0.40991	0.039054	0.19773	0.31223	0.21885	0.2329	0.04882	0.2424	0.26654	0.12	0.36757	0.079153	0.1059	0.11072	0.073665	-0.37292	-1.3833	-1.5375	-0.9	-1.4708	-1.225	-0.92292	-1.6667	-0.63333	-1.1333	-1.6708	-0.68958	-1.5896	-1.0729	-0.69792	-1.6833	-30.152	250.126	69.714	180.794	51.325	95.046	-61.006	219.915	-31.103	173.360	11.918	224.319	176.548	11.453	10.441	126.016	8.2706e-05	0.00018763	5.5309e-05	1009	1.3535e-06	2.2146e-06	1085	207.49	5.294e-07	2.0434e-06	263.79	74.4	59.021	17.297	1.7508e-06	24.111	0.00010996	0.00010546	2.9531e-05	972.19	1.162e-06	1.1489e-06	1049	200.63	1.1897e-06	1.1635e-06	251.16	73.211	58.024	16.912	1.2121e-06	23.492	166.168	-34.151	-41.257	-64.710	192.743	162.313	-64.768	-57.388	37.640	58.910	-57.420	-51.373	-50.510	-43.449	49.627	-43.579	-8191	255	
1037.180	1	1	0	0	0.14235	0.25286	0.062795	0.15353	0.13551	0.28945	0.11924	0.20646	0.084948	0.23593	0.37281	0.062485	0.1751	0.18084	0.23409	0.16068	-0.34167	-0.95	-1.3208	-0.56667	-1.5354	-1.2354	-0.69792	-1.6437	-0.85208	-0.96042	-1.5021	-0.68333	-1.4333	-1.3271	-0.56042	-1.6104	196.493	232.810	22.691	254.211	134.328	-15.460	156.426	39.535	37.965	41.169	234.063	254.782	235.648	263.542	141.743	13.996	7.932e-05	0.00015681	6.2781e-05	1013.9	9.1951e-07	4.1657e-06	1086.2	208.85	1.2451e-06	2.7994e-06	264.96	74.789	59.562	17.25	2.1311e-06	24.038	0.00010929	0.0001067	2.9715e-05	972.62	1.2162e-06	1.1735e-06	1049.3	201.13	1.1792e-06	1.2044e-06	251.38	73.182	57.988	16.831	1.221e-06	23.452	162.090	164.869	7.227	-64.696	19.130	47.922	-64.894	-57.525	235.104	197.419	-57.814	-50.842	-50.849	-42.575	71.218	-43.358	-8191	255	
1037.251	1	1	0	0	0.14676	0.12975	0.32405	0.51434	0.1346	0.27148	0.31639	0.2907	0.17183	0.11702	0.18186	0.11315	0.042153	0.096849	0.17809	0.16289	-0.68333	-0.83333	-1.5625	-0.775	-1.1646	-1.3146	-0.775	-1.5812	-0.9625	-0.79375	-1.6625	-0.66875	-1.3563	-1.1458	-0.575	-1.4958	11.055	-60.756	134.702	199.449	100.131	145.621	266.451	122.021	225.145	226.103	63.773	243.366	123.790	-74.538	-13.222	34.838	5.7629e-05	0.00039621	6.2037e-05	1010.9	1.7757e-06	2.675e-06	1085.6	208.74	3.3585e-06	2.26e-06	263.35	74.948	59.566	17.312	2.0839e-06	24.096	0.00011162	0.0001092	3.08e-05	973.4	1.2251e-06	1.2051e-06	1047	201.09	1.2101e-06	1.2038e-06	250.8	73.336	58.076	16.896	1.2104e-06	23.42	157.703	34.787	-0.598	-64.599	-51.265	59.687	-64.487	-57.206	-14.067	15.896	-57.356	-50.496	-50.458	-42.716	111.240	-43.858	-8191	255	
1037.347	1	1	0	0	0.13029	0.1679	0.13709	0.26228	0.15843	0.26306	0.20179	0.20628	0.21197	0.067955	0.28331	0.12103	0.090576	0.11688	0.44612	0.10848	-0.81667	-0.75625	-1.5521	-0.825	-0.96458	-1.6125	-0.6375	-1.5375	-1.0479	-0.59792	-1.675	-0.85208	-1.0375	-1.3833	-0.49583	-1.3604	73.377	138.211	281.164	194.098	53.700	-52.551	218.535	129.858	177.470	-4.596	274.860	214.810	201.940	-44.539	199.706	199.109	4.2713e-05	0.00034269	6.4496e-05	1009.7	1.7732e-06	2.4966e-06	1086.7	208.68	1.1188e-06	9.1905e-07	262.96	74.694	59.48	17.166	2.395e-06	23.952	0.00010932	0.00011095	2.9879e-05	972.19	1.2051e-06	1.1776e-06	1049.1	201.28	1.1992e-06	1.2115e-06	250.64	73.161	57.905	16.817	1.2171e-06	23.447	238.134	-15.543	24.229	-64.525	141.633	98.600	-64.619	-56.855	8.086	273.096	-57.524	-50.944	-50.948	-42.855	95.415	-43.071	-8191	255	
1037.468	1	1	0	0	0.021422	0.31381	0.085127	0.21513	0.14527	0.14789	0.20752	0.16685	0.225	0.076368	0.25395	0.21893	0.16695	0.10841	0.24392	0.16506	-0.89375	-0.60625	-1.6792	-1.0333	-0.93333	-1.65	-0.68958	-1.3479	-1.375	-0.7125	-1.7062	-1.1354	-1.0146	-1.5917	-0.59583	-1.3	-53.127	65.053	134.834	222.003	132.252	23.603	158.331	177.329	129.600	214.803	118.732	186.930	4.688	-35.643	54.035	233.291	9.1811e-05	0.00050595	0.00011422	1011.2	2.7678e-06	2.6499e-06	1082.8	207.51	1.9566e-06	3.3068e-06	264.27	74.815	59.352	17.185	2.2442e-06	24.009	0.00011222	0.00011242	3.041e-05	970.78	1.2018e-06	1.1975e-06	1047.1	200.83	1.2105e-06	1.2033e-06	251.27	73.177	57.752	16.852	1.1833e-06	23.45	170.619	21.834	-26.071	-64.824	153.336	20.080	-64.614	-57.013	160.182	95.263	-57.541	-51.325	-50.376	-42.702	38.925	-43.331	-8191	255	
1037.562	1	1	0	0	0.15148	0.07073	0.2153	0.14468	0.052698	0.25829	0.11321	0.20565	0.30447	0.13668	0.30069	0.16249	0.15827	0.18437	0.18131	0.25917	-0.85625	-0.76667	-1.4479	-1.1479	-0.8375	-1.5729	-0.89167	-1.3396	-1.4104	-0.69792	-1.4438	-1.1521	-0.84792	-1.7167	-0.68542	-1.0417	138.229	121.684	242.678	-60.213	168.850	-26.248	180.302	267.316	33.978	52.461	220.408	-59.854	-74.733	210.413	188.010	234.200	3.4272e-05	0.00049183	0.00014486	1012.5	3.1179e-06	3.265e-06	1085.7	209.82	1.8738e-06	4.1986e-06	261.21	74.719	59.36	17.121	1.5644e-06	23.903	0.00011061	0.00010786	2.9757e-05	971.01	1.2157e-06	1.1705e-06	1046.4	201.41	1.2041e-06	1.1913e-06	250.06	73.044	57.856	16.855	1.2114e-06	23.384	170.766	33.780	33.582	-64.675	78.126	71.268	-64.405	-56.778	13.929	24.580	-57.336	-50.775	-50.608	-43.024	39.427	-43.089	-8191	255	
1037.659	1	1	0	0	0.31619	0.15131	0.060321	0.044311	0.40103	0.30991	0.25344	0.082609	0.22076	0.11736	0.16283	0.19615	0.13571	0.32174	0.13103	0.33089	-1.05	-0.61458	-1.4625	-1.4333	-0.73958	-1.5625	-0.94167	-1.1437	-1.5646	-0.61458	-1.4646	-1.3312	-0.6625	-1.4292	-0.91875	-0.98542	207.474	219.400	72.541	152.374	72.025	244.779	273.985	206.372	36.614	-35.497	74.983	142.057	-2.715	187.904	245.017	194.386	7.3195e-05	0.00038558	6.9794e-05	1009.4	1.9605e-06	2.6225e-06	1078.4	207.25	3.9003e-06	2.5324e-06	261.91	74.262	59.337	17.127	1.7575e-06	23.677	0.0001117	0.00011157	3.0485e-05	970.65	1.2695e-06	1.1897e-06	1044	200.77	1.264e-06	1.2472e-06	250.3	72.935	57.871	16.811	1.223e-06	23.327	167.590	8.806	273.488	-64.451	144.016	21.162	-64.575	-56.876	111.682	43.802	-57.397	-50.738	-50.772	-42.874	246.676	-43.527	-8191	255	
1037.755	1	1	0	0	0.065114	0.20166	0.16176	0.33806	0.15441	0.2234	0.11008	0.31205	0.30444	0.10377	0.28954	0.27658	0.21081	0.14946	0.29727	0.13698	-1.1167	-0.6875	-1.4604	-1.3958	-0.56875	-1.6812	-1.2104	-0.77917	-1.4667	-0.7125	-1.3687	-1.3604	-0.71042	-1.5958	-1.0063	-0.91875	-22.251	126.796	93.548	227.397	190.311	6.334	148.407	196.133	150.824	29.488	125.770	220.488	-13.628	6.888	32.226	152.181	8.9042e-05	0.00021732	0.00011879	1006.6	2.6857e-06	9.6144e-07	1078	206.82	1.7812e-06	1.2321e-06	262.18	74.166	59.148	17.171	2.2613e-06	23.791	0.00011515	0.0001115	3.0857e-05	969.91	1.2391e-06	1.2021e-06	1044.3	200.8	1.1968e-06	1.1902e-06	250.61	72.814	57.69	16.767	1.1483e-06	23.231	182.713	-15.748	0.510	-64.787	89.513	273.462	-64.636	-57.221	85.183	95.320	-57.310	-51.148	-50.199	-42.966	5.406	-43.461	-8191	255	
1037.851	1	1	0	0	0.27771	0.24787	0.11031	0.18246	0.018307	0.16645	0.085601	0.21028	0.055172	0.22945	0.14742	0.097782	0.11782	0.09483	0.31339	0.32273	-1.1854	-0.55833	-1.0396	-1.5292	-0.55417	-1.3188	-1.4458	-0.64792	-1.4833	-0.75208	-1.1667	-1.6479	-0.57708	-1.5875	-1.3312	-0.85833	-41.583	-32.088	168.828	282.654	-57.051	174.678	284.092	-45.468	229.412	72.971	39.875	38.915	124.810	-22.494	-39.250	196.800	0.00011164	0.00025748	2.8146e-05	1007.5	7.8668e-07	2.3118e-06	1084.5	207.79	1.8337e-06	2.3651e-06	261.23	74.293	59.068	17.045	2.4964e-06	23.609	0.00010717	0.00010416	2.9012e-05	968.97	1.2019e-06	1.1459e-06	1044.6	200.63	1.1898e-06	1.1789e-06	250.69	72.976	57.769	16.775	1.2288e-06	23.25	170.844	61.975	37.222	-64.379	277.747	62.551	-64.718	-56.832	91.760	92.466	-57.625	-51.302	-50.211	-43.032	-24.406	-43.280	-8191	255	
1037.947	1	1	0	0	0.22536	0.12927	0.1212	0.21361	0.1247	0.16002	0.21828	0.33283	0.0071555	0.18603	0.055016	0.11688	0.18974	0.25061	0.10242	0.23251	-1.3104	-0.84583	-0.89792	-1.7521	-0.64375	-1.4312	-1.4417	-0.89792	-1.5854	-0.93125	-0.93125	-1.6729	-0.6625	-1.4188	-1.3271	-0.58333	261.160	-49.493	-36.015	209.041	-44.651	227.875	258.453	212.725	260.687	130.269	-62.722	102.420	168.481	-53.364	39.150	241.131	7.4708e-05	0.00049684	3.9385e-05	1008.5	1.1451e-06	2.42e-06	1081.1	207.15	2.1007e-06	2.108e-06	263.24	74.44	58.735	17.21	1.2742e-06	23.872	0.00011368	0.00011267	3.1476e-05	970.78	1.2434e-06	1.2347e-06	1044.1	200.65	1.2293e-06	1.221e-06	250.54	73.036	57.566	16.758	1.2153e-06	23.322	164.127	65.323	22.762	-64.449	125.263	185.590	-64.396	-56.799	-21.164	138.769	-58.020	-50.710	-50.749	-42.559	59.931	-43.632	-8191	255	
1038.068	1	1	0	0	0.23534	0.21472	0.28688	0.22836	0.37649	0.099486	0.32617	0.26231	0.12679	0.11396	0.55707	0.30884	0.059309	0.076426	0.062599	0.13148	-1.2146	-1.1458	-1.0292	-1.7458	-0.76458	-1.1896	-1.5708	-0.81458	-1.3979	-1.0292	-0.84583	-1.7625	-0.80625	-1.125	-1.3979	-0.725	-42.171	88.965	219.097	184.306	3.883	-0.126	265.000	214.144	53.377	161.959	-25.362	230.540	166.362	111.196	189.664	-22.416	0.00012919	5.1115e-05	9.3828e-05	1007.7	6.6839e-07	3.769e-06	1083.3	207.14	1.7414e-06	1.0383e-06	261.64	74.57	59.036	17.096	2.3584e-06	23.797	0.00010937	0.00011083	3.0742e-05	971.1	1.235e-06	1.2077e-06	1045.7	200.96	1.233e-06	1.2301e-06	250.02	73.119	57.831	16.795	1.242e-06	23.295	175.060	36.550	50.740	-64.445	-1.669	59.042	-64.525	-57.229	-10.498	191.577	-57.316	-50.782	-50.400	-43.076	99.875	-43.161	-8191	255	
1038.164	1	1	0	0	0.19736	0.21164	0.14568	0.15747	0.3123	0.29982	0.27331	0.20325	0.19662	0.26685	0.27686	0.19866	0.12327	0.31401	0.10541	0.19089	-1.1125	-1.3042	-0.72917	-1.7771	-0.59792	-1.0146	-1.5625	-0.67083	-1.5938	-1.3083	-0.87292	-1.7	-0.90208	-1.0646	-1.5333	-0.78333	102.581	24.435	220.720	254.222	-13.959	109.136	152.427	219.797	96.506	126.968	107.570	117.811	242.350	-60.157	240.691	168.373	7.5864e-05	0.0001482	0.00010104	1010.1	1.2683e-06	1.8087e-06	1085.7	207.18	1.249e-06	1.1766e-06	262.38	74.854	58.986	17.143	2.2053e-06	23.739	0.00011449	0.00011234	3.2757e-05	970.39	1.2748e-06	1.2322e-06	1044.8	200.74	1.2438e-06	1.2453e-06	250.5	73.282	57.676	16.827	1.2391e-06	23.287	186.508	105.834	-36.130	-64.581	-2.796	131.305	-64.432	-56.699	125.985	120.970	-57.040	-50.703	-50.320	-42.709	136.120	-43.354	-8191	255	
1038.260	1	1	0	0	0.15142	0.31592	0.036867	0.3454	0.063475	0.18005	0.41554	0.19322	0.12968	0.17089	0.090539	0.076691	0.1149	0.077482	0.083665	0.34111	-1	-1.3	-0.675	-1.7313	-0.77708	-1	-1.6417	-0.66875	-1.225	-1.575	-0.76458	-1.6583	-1	-0.84375	-1.8312	-0.77292	239.980	35.105	-33.247	226.235	169.647	69.803	248.159	218.706	153.318	272.487	203.722	284.410	120.523	18.580	93.624	191.349	8.0238e-05	0.00025916	1.7624e-05	1009.7	1.5335e-06	1.9972e-07	1078.8	205.8	1.3885e-06	4.0958e-06	262.22	74.094	59.166	17.085	1.3497e-06	24.08	0.00011668	0.00011393	3.1342e-05	970.77	1.246e-06	1.2164e-06	1043.8	200.2	1.2069e-06	1.2101e-06	249.62	72.758	57.718	16.797	1.2131e-06	23.37	201.371	42.128	72.807	-64.418	94.844	230.105	-64.237	-56.974	33.885	48.446	-57.313	-50.497	-50.238	-42.367	243.400	-43.666	-8191	255	
1038.356	1	1	0	0	0.25371	0.20516	0.066312	0.23912	0.18043	0.3002	0.192	0.08916	0.087714	0.27793	0.26181	0.20421	0.069693	0.15511	0.061465	0.025254	-1.0729	-1.4208	-0.7	-1.7062	-0.96667	-0.85208	-1.7958	-0.81667	-1.0292	-1.4854	-0.67292	-1.4688	-1.2104	-0.83958	-1.6771	-1.0854	196.902	272.053	-50.599	259.100	143.072	275.164	136.733	-37.514	197.332	96.373	201.399	262.539	256.065	269.639	208.165	102.126	7.2319e-05	7.6045e-05	9.6383e-05	1007.6	8.7717e-07	2.1582e-06	1080.2	207.01	1.8538e-06	1.8526e-06	263.5	74.133	58.657	17.115	2.5664e-06	23.786	0.00011254	0.00011048	3.0962e-05	969.1	1.2184e-06	1.2027e-06	1044.9	200.45	1.2115e-06	1.2371e-06	250.53	72.887	57.829	16.749	1.2267e-06	23.33	151.499	209.757	-11.403	-64.394	165.792	49.521	-64.420	-56.928	76.926	139.243	-57.182	-50.603	-49.884	-42.623	134.854	-42.960	-8191	255	
1038.475	1	1	0	0	0.14198	0.14218	0.25559	0.21027	0.19565	0.11418	0.19675	0.21394	0.15208	0.20882	0.11486	0.26322	0.05354	0.1542	0.10603	0.10669	-0.70208	-1.5938	-0.70208	-1.4771	-1.25	-0.82708	-1.8062	-0.89375	-0.94375	-1.4146	-0.65625	-1.3917	-1.475	-0.82708	-1.6458	-0.98542	241.984	70.482	105.905	159.796	233.452	246.605	264.069	73.288	85.898	214.071	284.414	237.920	165.703	-18.749	211.134	120.632	4.852e-05	0.00029664	0.0001043	1012.8	1.6067e-06	3.7411e-06	1082	206.55	2.1179e-06	2.8765e-06	263.09	74.852	58.795	17.114	1.6527e-06	23.761	0.00011232	0.00011119	3.0761e-05	970.72	1.2551e-06	1.2271e-06	1045.4	199.95	1.2196e-06	1.2458e-06	250.37	73.04	57.713	16.809	1.2282e-06	23.216	143.323	33.009	66.373	-64.332	67.537	188.485	-64.438	-56.919	170.401	-23.022	-57.689	-50.830	-50.561	-42.739	-26.131	-43.254	-8191	255	
1038.547	1	1	0	0	0.28419	0.12714	0.11467	0.24816	0.24547	0.093898	0.26822	0.23296	0.06591	0.099909	0.32178	0.11889	0.18751	0.024464	0.19484	0.11333	-0.58958	-1.6708	-0.59583	-1.6229	-1.4979	-0.70833	-1.725	-1.1042	-0.72708	-1.6021	-0.80625	-1.0562	-1.4854	-0.61875	-1.4646	-1.1542	265.255	49.703	197.259	-17.899	72.493	274.208	246.251	182.153	-1.603	88.055	272.775	123.225	-45.292	226.338	24.426	27.436	0.0001038	0.00025644	6.5885e-05	1008.3	3.3917e-06	6.0706e-06	1078.9	207.41	4.297e-06	2.6793e-06	261.36	74.156	58.926	16.999	2.0433e-06	23.911	0.00011405	0.00011152	3.0603e-05	969.94	1.235e-06	1.2424e-06	1044.2	200.55	1.2619e-06	1.2115e-06	249.74	72.929	57.589	16.731	1.2064e-06	23.23	151.145	6.925	-0.665	-64.393	92.203	96.227	-64.066	-56.596	29.690	-0.722	-57.170	-50.360	-50.128	-42.929	26.207	-42.974	-8191	255	
1038.643	1	1	0	0	0.36175	0.40858	0.10953	0.25581	0.16322	0.23766	0.088273	0.30766	0.096034	0.3588	0.35389	0.15697	0.099983	0.31816	0.24949	0.23821	-0.29375	-1.7	-0.66875	-1.4458	-1.5354	-0.72292	-1.8146	-1.3229	-0.60833	-1.55	-0.76458	-1.0396	-1.6896	-0.75208	-1.3729	-1.5021	168.775	22.330	-20.964	242.097	-2.451	49.822	-63.682	263.576	103.515	78.774	254.382	208.326	234.586	277.081	177.718	158.961	5.9826e-05	0.00026032	8.4861e-05	1008.1	1.1301e-06	4.9529e-06	1078.7	206.91	1.3276e-06	2.2337e-06	261.76	74.967	58.816	16.942	1.7943e-06	23.855	0.00011474	0.00010843	3.0086e-05	971.1	1.2504e-06	1.2226e-06	1044.7	200.09	1.2685e-06	1.2156e-06	250.2	73.156	57.772	16.71	1.2262e-06	23.255	154.442	59.039	13.655	-64.053	81.859	93.148	-63.933	-56.872	152.676	83.090	-57.270	-50.533	-50.260	-42.719	-5.688	-43.054	-8191	255	
1038.739	1	1	0	0	0.14265	0.064689	0.14205	0.059147	0.19998	0.13342	0.1018	0.1181	0.14531	0.24747	0.16066	0.3523	0.21309	0.23153	0.013656	0.32922	-0.25	-1.6229	-0.78125	-0.98333	-1.6375	-0.67292	-1.5271	-1.4667	-0.5375	-1.5667	-1.05	-0.96875	-1.6979	-0.78333	-1.1729	-1.3792	153.462	238.141	62.037	182.518	53.534	8.967	167.143	-8.331	201.941	224.812	-19.381	262.180	223.648	-2.391	96.445	279.929	7.7164e-05	0.00050796	0.00011167	1005.2	4.0504e-07	6.4385e-07	1074.2	206.76	2.4927e-07	2.432e-06	261.04	74.291	58.96	17.041	2.79e-06	23.647	0.00011345	0.00011231	3.0357e-05	969.39	1.2113e-06	1.2231e-06	1043.2	200.31	1.2623e-06	1.2273e-06	249.73	72.933	57.75	16.726	1.2361e-06	23.198	147.391	55.584	-13.910	-64.466	31.701	67.693	-64.296	-56.815	43.631	30.307	-56.984	-50.131	-50.477	-42.236	54.612	-43.179	-8191	255	
1038.860	1	1	0	0	0.17421	0.18944	0.15937	0.2838	0.19365	0.062508	0.20145	0.16695	0.0879	0.22358	0.093584	0.10393	0.21485	0.052704	0.14116	0.25418	-0.28333	-1.6083	-0.96042	-1.2104	-1.6292	-0.73958	-1.2792	-1.3792	-0.68125	-1.5083	-1.2	-0.66458	-1.7042	-0.86667	-1.0021	-1.5812	268.982	14.233	65.717	216.980	-22.138	241.843	231.161	223.439	211.040	-64.685	35.959	-60.855	260.222	-15.476	51.866	148.553	9.6231e-05	0.00010253	8.7689e-05	1009	1.5422e-06	2.1557e-06	1088.4	206.29	3.5997e-06	2.3804e-06	263.69	74.091	58.525	17.126	2.5644e-06	23.628	0.00011677	0.00011332	3.1016e-05	970.92	1.2686e-06	1.2344e-06	1047	200.27	1.2546e-06	1.2128e-06	250.57	72.89	57.608	16.759	1.2335e-06	23.176	147.412	-72.460	37.119	-64.247	103.060	135.913	-64.323	-56.632	32.482	24.351	-57.261	-50.478	-50.075	-42.226	-22.459	-42.742	-8191	255	
1038.956	1	1	0	0	0.25818	0.25712	0.042383	0.21923	0.16947	0.27612	0.064099	0.18981	0.19568	0.066492	0.1642	0.32641	0.18328	0.21272	0.13372	0.33818	-0.46042	-1.2729	-1.2313	-0.89583	-1.7313	-0.87708	-1.0854	-1.6396	-0.67292	-1.3438	-1.3687	-0.59375	-1.5146	-0.65833	-0.91042	-1.5792	224.023	76.591	246.494	267.515	177.283	172.541	155.130	60.941	-51.900	203.096	25.918	62.984	-38.757	200.062	163.098	74.730	6.9739e-05	0.00044129	3.6209e-05	1004.8	1.556e-06	3.0512e-07	1083.1	207.18	2.609e-06	2.0896e-06	262.91	74.589	58.864	16.959	1.6116e-06	23.646	0.00011595	0.0001116	3.1148e-05	970.25	1.2528e-06	1.225e-06	1045.5	200.76	1.2565e-06	1.2503e-06	250.65	73.022	57.628	16.669	1.2499e-06	23.158	170.950	53.311	-15.241	-64.121	132.269	92.116	-64.088	-56.597	58.607	165.066	-57.319	-50.440	-49.998	-42.711	190.335	-43.197	-8191	255	
1039.052	1	1	0	0	0.1977	0.30155	0.19933	0.15108	0.16732	0.18021	0.12997	0.16034	0.076685	0.22029	0.14926	0.08472	0.19624	0.13024	0.086764	0.11321	-0.55208	-1.2479	-1.45	-0.72292	-1.3042	-0.82083	-0.94583	-1.5354	-0.61458	-1.125	-1.4813	-0.68958	-1.4208	-0.87917	-0.65	-1.5792	171.855	172.513	68.468	100.637	167.215	122.608	209.319	210.328	-17.422	-43.174	123.491	43.267	225.932	180.609	49.859	75.687	9.2343e-05	0.00032315	2.278e-05	1006.3	2.5824e-06	3.2697e-06	1079.2	207.42	6.0939e-07	3.6198e-06	262.26	74.098	59.067	17.057	1.7009e-06	23.765	0.00011595	0.00011294	3.17e-05	970.41	1.2294e-06	1.229e-06	1043.8	200.53	1.2428e-06	1.2155e-06	250.64	72.908	57.813	16.726	1.2386e-06	23.236	181.738	76.933	120.899	-64.082	83.611	120.853	-63.785	-56.301	196.144	31.421	-57.039	-50.078	-49.712	-42.224	256.267	-42.621	-8191	255	
1039.148	1	1	0	0	0.23013	0.10421	0.23246	0.24626	0.32334	0.33102	0.21415	0.12598	0.018344	0.1169	0.16264	0.15987	0.209	0.045567	0.041683	0.34808	-0.38542	-1.2104	-1.5292	-0.65208	-1.55	-1.3417	-0.90417	-1.6417	-0.67917	-0.8625	-1.6521	-0.80208	-1.6771	-1.4	-0.525	-1.6667	-21.331	73.976	-48.787	194.440	230.067	45.613	181.461	8.233	73.394	-65.908	13.294	218.223	-31.073	45.223	186.055	153.328	6.8331e-05	0.00010306	4.6629e-05	1009.8	9.2304e-07	2.8253e-06	1081	206.59	2.0246e-06	1.8573e-06	262.64	74.425	59.15	17.011	9.0479e-07	23.752	0.00011192	0.00010886	3.1103e-05	970.08	1.1894e-06	1.1974e-06	1045.7	200.48	1.2152e-06	1.1872e-06	250.47	72.98	57.767	16.68	1.2234e-06	23.195	140.160	70.426	-4.575	-63.956	155.798	90.319	-63.665	-56.029	168.300	-1.074	-56.949	-50.141	-49.431	-42.351	27.265	-42.184	-8191	255	
1039.244	1	1	0	0	0.16499	0.2171	0.21412	0.26325	0.045809	0.17745	0.43771	0.30043	0.1313	0.20207	0.1119	0.1768	0.092592	0.10048	0.088263	0.026233	-0.55625	-0.87917	-1.6417	-0.625	-1.3333	-1.1792	-0.86667	-1.625	-0.9625	-0.9	-1.4958	-0.75208	-1.1854	-1.2042	-0.5875	-1.5938	-52.873	185.895	243.555	197.332	165.600	133.573	211.424	58.003	21.570	237.508	229.614	164.237	-44.250	143.234	-2.126	23.791	9.7935e-05	0.00010222	5.1287e-05	1009.4	2.036e-06	2.1193e-06	1086.9	207.19	1.6331e-06	1.4861e-06	263.18	74.663	59.419	17.217	4.4334e-06	23.862	0.00011086	0.00010984	3.0564e-05	968.82	1.2267e-06	1.1889e-06	1045.9	200.47	1.2225e-06	1.2098e-06	250.82	72.937	57.788	16.756	1.2202e-06	23.248	148.041	10.189	28.709	-63.990	81.669	89.876	-63.858	-56.106	78.438	103.655	-56.964	-50.019	-49.622	-41.824	63.786	-42.420	-8191	255	
1039.340	1	1	0	0	0.096901	0.17563	0.16036	0.16772	0.015108	0.089648	0.18598	0.061334	0.013058	0.2148	0.43453	0.21585	0.053618	0.22646	0.16826	0.26695	-0.50208	-0.81042	-1.5708	-0.76875	-1.2917	-1.625	-0.90833	-1.7229	-0.90417	-0.82083	-1.6583	-0.78958	-1.1063	-1.5	-0.52708	-1.5521	223.158	-16.433	47.123	228.883	187.360	216.654	113.760	162.357	39.507	-52.084	166.715	66.304	41.490	274.051	181.692	167.135	8.0847e-05	0.00040979	9.1681e-05	1010.1	2.3874e-06	2.1925e-06	1083.6	207.47	2.9399e-06	1.5246e-06	264.27	74.75	59.144	17.05	1.7365e-06	23.849	0.00010978	0.00011067	2.9737e-05	970.28	1.2106e-06	1.1824e-06	1044.9	200.57	1.2023e-06	1.2154e-06	250.61	72.957	57.711	16.684	1.1943e-06	23.195	180.555	31.261	-5.068	-63.302	74.424	79.843	-63.487	-56.413	-32.855	54.248	-56.473	-50.054	-49.328	-41.991	166.608	-42.358	-8191	255	
1039.436	1	1	0	0	0.062756	0.16006	0.11792	0.13564	0.25857	0.17656	0.17748	0.2067	0.14523	0.11277	0.085705	0.27528	0.057618	0.25774	0.19265	0.0961	-0.55625	-0.70833	-1.5125	-0.87708	-1	-1.5125	-0.60208	-1.4708	-1.3396	-0.77917	-1.5063	-0.8625	-1.0042	-1.4917	-0.74167	-1.5229	194.035	45.759	113.108	236.408	119.967	-11.322	-58.308	201.934	-63.692	147.407	-60.067	169.693	185.012	-23.118	123.219	234.087	6.4894e-05	0.00031938	2.8475e-05	1006.8	1.1815e-06	1.4221e-06	1085.4	206.5	1.7646e-06	1.4429e-06	262.29	74.249	59.054	17.109	6.0095e-06	23.694	0.00010787	0.00011203	3.0581e-05	968.48	1.2271e-06	1.1949e-06	1044.9	200.47	1.2292e-06	1.1847e-06	250.15	72.723	57.665	16.68	1.1688e-06	23.149	171.826	49.859	-57.803	-63.850	159.336	170.788	-64.103	-56.613	-29.111	81.643	-56.966	-50.404	-49.951	-41.924	49.628	-42.814	-8191	255	
1039.557	1	1	0	0	0.41484	0.11551	0.084968	0.19204	0.17346	0.1366	0.11967	0.22202	0.19597	0.063162	0.22926	0.064378	0.045948	0.22838	0.48734	0.2354	-0.97083	-0.74583	-1.5375	-1.0688	-0.80833	-1.5125	-0.79167	-1.2687	-1.4333	-0.73542	-1.3854	-1.125	-0.64375	-1.6333	-0.80625	-1.15	101.054	51.203	6.133	183.743	39.896	234.998	174.234	230.997	86.627	164.880	142.986	122.405	262.743	-45.070	241.362	232.367	9.5039e-05	0.00030769	3.6516e-05	1008.8	1.6184e-06	1.4132e-06	1082.3	208.32	1.9282e-06	4.8102e-06	263.54	74.953	59.401	17.004	2.3811e-06	23.711	0.00011083	0.00010853	2.9558e-05	969.45	1.2116e-06	1.1925e-06	1044.5	200.74	1.209e-06	1.216e-06	250.66	72.793	57.742	16.701	1.19e-06	23.212	173.657	2.957	-44.407	-63.928	-54.033	94.263	-63.853	-56.391	80.387	33.078	-56.753	-50.313	-49.431	-42.367	94.917	-42.999	-8191	255	
1039.652	1	1	0	0	0.20772	0.17344	0.209	0.032112	0.17602	0.10259	0.12747	0.23065	0.11454	0.12325	0.15775	0.34031	0.086711	0.27181	0.13546	0.33129	-0.82708	-0.65625	-1.6896	-1.15	-0.65208	-1.4229	-0.96875	-1	-1.375	-0.5375	-1.3104	-1.2	-0.6	-1.5646	-0.84792	-0.83125	176.619	233.814	77.908	203.271	138.156	260.027	61.750	181.130	279.872	-0.792	154.688	270.409	160.986	210.800	102.334	241.883	6.4588e-05	0.00057903	7.7412e-05	1007.5	4.0822e-06	3.6893e-06	1086.9	207.22	5.687e-07	2.9366e-06	263.11	74.439	59.217	17.142	2.253e-06	23.682	0.00011251	0.00010752	2.958e-05	969.14	1.2362e-06	1.1774e-06	1045.1	200.55	1.1831e-06	1.1944e-06	250.66	72.766	57.728	16.704	1.1914e-06	23.133	109.311	11.618	-1.008	-64.733	57.726	111.197	-64.526	-57.246	270.347	73.491	-57.748	-50.954	-50.334	-43.182	140.886	-43.386	-8191	255	
1039.748	1	1	0	0	0.21306	0.17042	0.16678	0.1079	0.24868	0.21268	0.13914	0.28431	0.12598	0.117	0.048046	0.31403	0.43073	0.11951	0.31314	0.44573	-1.3083	-0.68333	-1.3521	-1.1917	-0.51875	-1.6083	-0.83125	-0.74792	-1.5438	-0.82292	-1.4917	-1.3833	-0.75417	-1.7042	-0.9125	-0.88542	44.944	151.100	79.860	144.144	262.385	150.939	202.181	187.183	179.617	215.762	179.201	282.105	159.734	102.396	284.177	193.561	5.3464e-05	0.00024629	0.00011298	1007	2.6143e-06	3.069e-06	1079.2	208.37	1.8201e-06	3.1636e-06	263.03	74.366	58.642	16.988	3.6291e-06	23.594	0.00010952	0.0001058	2.933e-05	968.3	1.201e-06	1.1775e-06	1045	201.03	1.2015e-06	1.1842e-06	250.79	72.675	57.568	16.656	1.1788e-06	23.136	143.615	16.360	-53.599	-64.602	125.016	79.334	-64.960	-57.132	113.110	70.354	-57.529	-51.193	-50.478	-43.264	77.718	-43.723	-8191	255	
1039.844	1	1	0	0	0.14957	0.34486	0.21303	0.20416	0.23917	0.26186	0.28978	0.078401	0.068481	0.12174	0.18032	0.065488	0.051295	0.17167	0.26058	0.22307	-1.1375	-0.52917	-1.1146	-1.4875	-0.64583	-1.4708	-1.1625	-0.77917	-1.275	-0.51667	-1.0375	-1.4667	-0.475	-1.325	-1.1604	-0.88542	37.664	235.820	37.014	150.727	209.738	187.085	243.399	199.806	159.115	-47.924	220.358	178.151	22.049	77.422	-45.315	261.461	9.1125e-05	0.00020175	7.9086e-05	1005.2	1.2034e-06	2.3989e-06	1084.5	207.53	1.3404e-06	4.4403e-06	261.26	74.511	59.309	17.096	2.6852e-06	23.834	0.00010936	0.00010741	2.9297e-05	968.23	1.2192e-06	1.1383e-06	1044.1	200.71	1.1747e-06	1.1551e-06	249.92	72.85	57.686	16.689	1.2e-06	23.144	143.512	9.169	23.691	-64.845	197.761	22.160	-64.891	-57.268	58.632	27.095	-57.460	-51.201	-50.436	-43.215	93.525	-43.542	-8191	255	
1039.940	1	1	0	0	0.075093	0.22226	0.18292	0.19028	0.29659	0.072609	0.17924	0.1675	0.060468	0.086413	0.33312	0.13427	0.15944	0.18651	0.23302	0.26321	-1.1875	-0.75417	-1.05	-1.5292	-0.52083	-1.2625	-1.3563	-0.5875	-1.5083	-0.57292	-1.0083	-1.45	-0.5375	-1.3604	-1.3292	-0.70417	183.912	9.599	78.940	266.602	153.552	62.851	245.947	38.714	107.343	234.998	-37.615	234.984	-52.762	129.320	53.813	261.724	1.7619e-05	0.00059305	0.00013588	1012.6	1.7917e-06	1.8976e-06	1088.6	207.61	1.3159e-06	4.1553e-06	261.38	74.788	58.883	17.201	4.3749e-06	23.517	0.00010947	0.00010669	2.9407e-05	969.41	1.1923e-06	1.1345e-06	1045.5	200.43	1.1824e-06	1.171e-06	249.99	72.9	57.594	16.716	1.1808e-06	23.114	159.493	-0.394	3.737	-64.861	63.443	106.500	-64.780	-57.523	43.900	88.661	-57.574	-51.136	-51.104	-43.309	44.657	-43.595	-8191	255	
1040.036	1	1	0	0	0.16442	0.1607	0.30928	0.30728	0.080959	0.19896	0.11565	0.21033	0.14508	0.13896	0.32311	0.21069	0.14509	0.20392	0.14738	0.22662	-1.2625	-0.94792	-0.87917	-1.6979	-0.525	-1.0312	-1.7104	-0.59792	-1.5042	-0.87083	-0.8375	-1.5187	-0.65833	-1.0167	-1.4271	-0.67083	10.499	-18.555	187.920	251.733	162.923	-25.017	194.960	187.807	31.704	-7.591	143.395	264.269	146.891	240.091	-30.408	262.886	6.2982e-05	0.0002227	8.8103e-05	1010.5	1.0504e-06	1.1945e-06	1085.8	206.57	1.7372e-06	4.8144e-06	261.82	74.431	58.907	17.009	5.0587e-07	23.782	0.000109	0.0001088	3.0246e-05	970.03	1.208e-06	1.2012e-06	1045.5	200.19	1.1841e-06	1.1971e-06	250.15	72.864	57.637	16.673	1.2086e-06	23.157	167.938	39.662	-52.816	-64.796	98.368	60.898	-64.864	-57.344	77.847	29.412	-57.370	-50.732	-50.820	-42.674	-41.741	-43.480	-8191	255	
1040.132	1	1	0	0	0.049886	0.21013	0.10729	0.17809	0.17243	0.39982	0.11393	0.3016	0.24322	0.2136	0.19874	0.33184	0.19279	0.31525	0.24443	0.26841	-1.2833	-0.89583	-0.72292	-1.7083	-0.61667	-1.2021	-1.5417	-0.53125	-1.5083	-1.1812	-0.66667	-1.6396	-0.88958	-0.8625	-1.4375	-0.64375	126.100	120.004	175.388	49.439	136.051	-17.351	235.191	-63.638	-42.257	29.921	240.730	263.589	95.184	193.933	283.994	225.632	4.8184e-05	0.00039742	8.7149e-05	1006.4	1.513e-06	3.3147e-06	1084.3	205.77	1.6428e-06	2.6404e-06	263.37	74.69	58.943	16.97	3.6082e-06	23.707	0.00010909	0.00010978	3.04e-05	969.54	1.2131e-06	1.191e-06	1044.8	200.44	1.1817e-06	1.1732e-06	250.12	72.803	57.625	16.63	1.1586e-06	23.164	146.245	134.464	-8.090	-64.762	23.604	123.064	-64.643	-57.123	16.770	95.516	-57.747	-50.691	-50.732	-43.228	101.211	-43.711	-8191	255	
1040.253	1	1	0	0	0.20993	0.19722	0.26964	0.22887	0.016648	0.16173	0.18199	0.30568	0.39025	0.10345	0.13352	0.33987	0.1864	0.20002	0.053718	0.20392	-1.0917	-1.1646	-0.475	-1.6125	-0.80208	-0.88125	-1.6437	-0.59792	-1.2146	-1.15	-0.7625	-1.5271	-0.97917	-0.74583	-1.6	-0.48125	-69.109	195.059	2.893	270.079	-3.880	30.419	-56.959	195.469	-42.767	-4.468	47.325	259.754	-70.105	10.750	257.173	-40.445	7.5543e-05	0.00034803	0.00014229	1009.9	2.99e-06	7.5708e-07	1080	207.32	1.0842e-06	3.5686e-06	263.24	74.954	58.724	16.93	1.9051e-06	23.644	0.00010913	0.00010876	3.0551e-05	968.29	1.2073e-06	1.193e-06	1045	200.22	1.2068e-06	1.2238e-06	249.84	72.765	57.456	16.654	1.2222e-06	23.102	161.484	19.982	-13.666	-64.561	113.288	-1.938	-64.806	-57.292	47.252	-5.888	-57.795	-50.893	-50.805	-42.756	191.864	-43.397	-8191	255	
1040.349	1	1	0	0	0.14331	0.35796	0.21525	0.0791	0.076371	0.11375	0.15514	0.14758	0.15418	0.17312	0.1909	0.269	0.091667	0.30443	0.16552	0.086069	-0.97083	-1.1167	-0.41875	-1.6229	-1.15	-0.94792	-1.6187	-0.72292	-1.2208	-1.5604	-0.74583	-1.375	-1.0271	-0.75625	-1.6063	-0.58542	81.431	238.043	-25.791	156.990	24.334	186.764	85.792	279.398	-12.623	13.724	262.717	144.231	101.245	-74.039	-31.560	261.795	4.2485e-05	0.00014007	4.2705e-05	1005.2	5.3953e-07	8.2172e-07	1077.8	207.73	1.0885e-06	2.3279e-06	261.44	74.591	59.21	17.016	1.7635e-06	23.743	0.00011057	0.00011114	3.0796e-05	968.26	1.2378e-06	1.1902e-06	1043.4	200.35	1.2198e-06	1.2119e-06	249.6	72.778	57.728	16.661	1.2242e-06	23.173	168.513	62.402	106.154	-64.756	75.343	201.311	-64.711	-57.435	52.817	-16.977	-57.876	-50.887	-50.431	-42.896	84.147	-43.631	-8191	255	
1040.421	1	1	0	0	0.26683	0.22042	0.19792	0.24589	0.044009	0.023612	0.21894	0.25493	0.12104	0.11539	0.070442	0.22869	0.28513	0.26138	0.088309	0.41773	-0.75625	-1.3333	-0.58542	-1.3917	-0.95	-0.54792	-1.6833	-0.89583	-1.0083	-1.3542	-0.7	-1.3583	-1.3604	-0.66458	-1.6562	-0.77917	73.542	55.378	127.044	267.314	104.808	-37.370	193.848	269.467	117.497	249.244	-13.555	193.737	21.023	281.636	277.337	250.377	7.638e-05	0.00016815	4.5169e-05	1008.5	5.1158e-07	2.8677e-06	1080.1	207.3	1.9926e-06	2.4208e-06	261.92	74.219	59.088	16.884	1.1738e-06	23.634	0.00011143	0.00011035	3.0984e-05	967.9	1.224e-06	1.21e-06	1043.6	200.4	1.2174e-06	1.2007e-06	249.46	72.978	57.611	16.638	1.1981e-06	23.056	176.007	204.178	10.262	-64.730	-61.227	68.044	-64.523	-57.057	228.387	64.939	-57.517	-51.136	-50.867	-43.275	-14.458	-43.968	-8191	255	
1040.540	1	1	0	0	0.21363	0.2091	0.27427	0.24356	0.36799	0.10885	0.16597	0.11922	0.11553	0.26699	0.14382	0.087234	0.18628	0.044857	0.27344	0.11287	-0.38542	-1.5625	-0.40625	-1.1771	-1.2208	-0.43958	-1.6604	-1.0167	-0.88542	-1.5542	-0.58958	-1.2021	-1.4042	-0.62708	-1.3333	-1.1354	-3.047	229.149	248.687	280.177	194.150	144.090	1.616	241.789	-8.804	130.993	120.938	-38.912	127.861	260.611	-60.538	189.602	6.4783e-05	0.00062928	0.00010625	1008.6	3.63e-06	1.6486e-06	1084.1	207.58	1.1413e-06	1.5528e-06	261.59	74.935	58.824	16.894	1.2096e-06	23.647	0.00011235	0.00011012	3.0928e-05	970.13	1.2249e-06	1.2299e-06	1045.5	200.55	1.2319e-06	1.2268e-06	249.71	72.888	57.515	16.624	1.1998e-06	23.116	168.066	40.889	-22.728	-64.601	45.600	50.664	-64.849	-57.522	169.224	45.186	-57.466	-50.877	-50.819	-43.394	53.485	-43.769	-8191	255	
1040.636	1	1	0	0	0.004792	0.03604	0.15197	0.073702	0.32333	0.26395	0.24575	0.19331	0.24064	0.15179	0.26704	0.099537	0.19231	0.21894	0.10572	0.13208	-0.29167	-1.5167	-0.65625	-1.2083	-1.2958	-0.61458	-1.5271	-1.0833	-0.7125	-1.5167	-0.77292	-0.8375	-1.3271	-0.43958	-1.3312	-1.1688	30.073	235.872	104.921	150.574	127.393	273.829	199.784	206.424	223.218	91.083	163.802	-61.563	172.084	-39.906	-14.132	243.764	8.2016e-05	0.00042319	7.7754e-05	1008.6	9.7463e-07	3.0598e-06	1082	207.51	1.4392e-06	1.3189e-06	262.25	74.146	59.455	17.046	1.5869e-06	23.599	0.00011459	0.00011019	3.0121e-05	968.86	1.2463e-06	1.2424e-06	1044.8	200.46	1.2499e-06	1.2148e-06	249.83	72.7	57.673	16.661	1.2197e-06	23.044	169.553	69.682	22.688	-64.967	101.311	83.422	-64.951	-57.574	-39.618	81.477	-57.870	-51.162	-50.533	-43.451	73.748	-43.903	-8191	255	
1040.732	1	1	0	0	0.12959	0.39128	0.02477	0.16491	0.21479	0.027856	0.20433	0.15558	0.1497	0.073789	0.37189	0.10509	0.2041	0.020945	0.12167	0.091658	-0.3	-1.3979	-0.70417	-0.96042	-1.2833	-0.38125	-1.2333	-1.2229	-0.475	-1.5688	-0.72917	-0.88958	-1.6083	-0.60625	-1.175	-1.5063	86.750	230.307	194.769	-22.037	149.096	239.142	277.031	161.063	180.239	176.761	153.753	139.003	264.576	120.034	84.523	-68.189	8.029e-05	0.0004364	2.7892e-05	1006.1	5.5266e-07	2.4669e-06	1079.6	207.19	1.953e-06	2.0437e-06	262.66	74.03	59.15	16.901	2.2829e-06	23.721	0.00011451	0.00010999	3.0584e-05	967.58	1.2474e-06	1.2177e-06	1042.3	200.14	1.2607e-06	1.2213e-06	249.31	72.602	57.745	16.623	1.2161e-06	23.098	163.689	43.989	-67.472	-64.817	68.501	66.253	-64.868	-57.600	143.464	38.496	-58.031	-51.105	-50.713	-43.031	-34.862	-43.626	-8191	255	
1040.828	1	1	0	0	0.076792	0.08363	0.13602	0.0958	0.094067	0.022809	0.2175	0.18414	0.2857	0.13041	0.25299	0.16656	0.14017	0.14467	0.21016	0.22674	-0.095833	-1.5958	-0.88333	-0.91875	-1.4354	-0.37292	-1.2792	-1.4604	-0.61667	-1.4854	-0.89167	-0.67917	-1.6708	-0.63542	-1	-1.4	248.126	183.958	69.089	125.614	94.189	-2.469	240.507	170.742	-8.555	37.885	188.264	70.484	262.948	-65.503	-54.252	227.445	5.9752e-05	0.0004097	6.2318e-05	1010	1.3944e-06	1.6193e-06	1085.3	206.85	2.1586e-06	4.2689e-06	261.58	74.226	58.954	16.92	1.1562e-06	23.558	0.00011409	0.00010987	3.0878e-05	968.59	1.2273e-06	1.199e-06	1044.1	200.05	1.2466e-06	1.214e-06	250.13	72.612	57.667	16.598	1.204e-06	23.049	135.456	29.407	-17.485	-64.924	-26.937	65.794	-64.729	-57.497	59.341	48.077	-57.677	-51.330	-50.772	-43.075	139.239	-43.588	-8191	255	
1040.949	1	1	0	0	0.082727	0.10589	0.1323	0.20456	0.22014	0.20501	0.35808	0.30295	0.39426	0.20478	0.086379	0.27509	0.15831	0.077231	0.15231	0.24312	-0.32917	-1.6208	-1.2146	-0.91458	-1.3875	-0.75417	-1.2417	-1.3188	-0.46458	-1.5104	-1.0604	-0.625	-1.6313	-0.72292	-0.81458	-1.3958	26.163	163.634	24.461	-59.707	13.623	103.456	213.652	106.004	123.383	55.018	201.219	-24.381	173.084	-17.825	227.904	200.103	6.0334e-05	0.0001866	3.6241e-05	1007.6	1.9267e-06	4.2657e-06	1084.2	207.14	1.9566e-06	2.4969e-06	261.48	73.885	59.44	16.887	2.9882e-06	23.605	0.00011601	0.00010891	3.1043e-05	968.16	1.2249e-06	1.2021e-06	1043.7	200.33	1.2241e-06	1.1842e-06	249.17	72.686	57.785	16.573	1.2323e-06	23.021	208.847	30.596	10.529	-64.909	199.373	93.052	-64.737	-57.509	154.360	1.862	-57.891	-51.076	-50.840	-43.742	44.465	-43.864	-8191	255	
1041.020	1	1	0	0	0.24577	0.12392	0.153	0.22706	0.31354	0.039422	0.15575	0.054914	0.0431	0.22791	0.13789	0.23223	0.031995	0.19352	0.14861	0.18158	-0.31667	-1.2979	-1.3271	-0.73333	-1.65	-0.73958	-1.1271	-1.4708	-0.56042	-1.0688	-1.3625	-0.80833	-1.4688	-0.92083	-0.825	-1.5146	152.389	229.798	109.768	250.711	31.694	-50.696	217.542	-26.052	57.066	45.731	19.008	157.102	-49.931	51.684	13.403	-69.794	6.1493e-05	0.00012567	0.00010199	1006.1	3.5259e-06	9.3376e-07	1082.6	206.42	1.2723e-06	1.2066e-06	263.04	73.597	58.746	16.929	7.182e-07	23.686	0.00011264	0.00011004	3.1244e-05	968.71	1.2412e-06	1.1992e-06	1043.4	200.02	1.2338e-06	1.2133e-06	249.65	72.516	57.543	16.63	1.222e-06	23.072	168.117	22.150	-10.459	-65.046	24.841	9.099	-64.769	-57.600	27.454	-64.408	-57.736	-51.465	-50.974	-43.680	260.454	-43.752	-8191	255	
1041.116	1	1	0	0	0.22126	0.2999	0.10738	0.20277	0.12327	0.066011	0.18057	0.18805	0.1489	0.13204	0.12702	0.13404	0.14428	0.10655	0.3366	0.21322	-0.41458	-1.1625	-1.2625	-0.8875	-1.3813	-0.78542	-0.87917	-1.625	-0.61458	-1.0938	-1.4208	-0.73958	-1.4312	-1.2146	-0.66667	-1.5917	-57.375	-19.154	213.815	246.517	73.241	245.230	151.280	270.363	36.491	252.312	261.998	152.937	237.417	7.114	-46.841	52.502	6.4369e-05	0.00010724	6.8179e-05	1005	6.055e-07	5.6452e-07	1083.7	206.45	2.6279e-06	1.7768e-06	261.19	73.872	59.157	16.86	1.5097e-06	23.447	0.00011128	0.00010882	3.0875e-05	966.93	1.2233e-06	1.2079e-06	1043.8	200.37	1.2274e-06	1.2115e-06	249.59	72.539	57.55	16.603	1.227e-06	23.037	172.737	-43.221	62.458	-64.955	-48.716	-5.136	-64.938	-57.507	79.399	88.907	-57.817	-51.319	-50.581	-43.201	111.225	-43.538	-8191	255	
1041.237	1	1	0	0	0.16807	0.11912	0.045596	0.1746	0.27506	0.25734	0.059727	0.11767	0.15731	0.13673	0.095273	0.087352	0.18587	0.020542	0.027391	0.077235	-0.34792	-1.0562	-1.3229	-0.57917	-1.325	-1.1792	-0.79167	-1.6292	-0.72917	-0.85625	-1.5125	-0.72708	-1.2625	-1.2938	-0.64583	-1.6	219.011	134.898	20.933	-55.970	225.717	28.950	212.459	-16.736	242.886	218.302	265.767	148.121	-44.508	-14.633	10.974	198.996	4.8963e-05	0.00027588	5.703e-05	1009.2	3.2873e-06	9.2426e-07	1082.7	207.73	1.7418e-06	7.1226e-06	262.45	74.519	59.38	17.084	1.2138e-06	23.6	0.00010882	0.00011062	3.0763e-05	968.63	1.198e-06	1.2116e-06	1043.5	200.46	1.2231e-06	1.2232e-06	249.9	72.712	57.648	16.624	1.223e-06	23.061	207.298	-60.139	36.608	-64.863	126.742	-14.418	-64.653	-57.131	247.926	48.775	-57.885	-51.197	-50.824	-43.322	-17.072	-43.777	-8191	255	
1041.333	1	1	0	0	0.20111	0.13129	0.22943	0.09688	0.21054	0.10898	0.3749	0.20812	0.17016	0.37732	0.094791	0.12807	0.042399	0.31579	0.26	0.11818	-0.71667	-0.8	-1.4917	-0.70208	-1.1771	-1.225	-0.56042	-1.5646	-0.79167	-0.75208	-1.5854	-0.73542	-1.1646	-1.3479	-0.65	-1.4479	153.514	-55.119	40.718	236.847	34.794	-36.650	-72.866	186.115	-4.737	160.829	276.211	-65.594	247.975	-71.730	94.152	142.644	5.3656e-05	0.00027567	0.00010812	1003.3	2.2507e-06	5.0054e-06	1076	207.74	6.0671e-07	4.0786e-06	261.91	74.437	59.263	16.9	1.6833e-06	23.723	0.00011186	0.0001097	3.0405e-05	965.81	1.1986e-06	1.2056e-06	1041.7	200.6	1.201e-06	1.2316e-06	249.79	72.825	57.644	16.578	1.2033e-06	23.127	175.260	64.438	-11.196	-64.890	155.131	122.299	-64.668	-57.450	270.872	53.113	-57.730	-50.929	-50.472	-43.193	31.498	-43.243	-8191	255	
1041.429	1	1	0	0	0.25495	0.22376	0.17749	0.11326	0.13087	0.26314	0.32157	0.051336	0.33565	0.10422	0.1105	0.34981	0.28497	0.062743	0.059452	0.25883	-0.6125	-0.47917	-1.6667	-0.77083	-1.05	-1.4083	-0.7125	-1.4333	-1.0875	-0.82917	-1.4937	-0.79792	-0.77292	-1.4958	-0.64792	-1.3104	94.613	134.740	42.962	221.922	-63.873	147.118	244.265	152.742	167.247	223.907	-32.589	118.096	138.877	10.345	125.699	115.880	5.6673e-05	0.00020762	7.1738e-05	1006.5	1.0112e-06	3.2496e-06	1082.2	207.88	1.9597e-06	4.3144e-06	261.39	74.456	59.17	16.741	1.2662e-06	23.791	0.00010937	0.00011002	3.0614e-05	966.87	1.201e-06	1.1762e-06	1042.6	200.63	1.1877e-06	1.1777e-06	249.69	72.727	57.816	16.567	1.1885e-06	23.075	163.805	38.796	23.905	-64.804	203.831	124.168	-64.834	-57.302	160.833	-0.471	-58.018	-51.196	-51.201	-43.415	30.603	-43.701	-8191	255	
1041.548	1	1	0	0	0.2572	0.087277	0.12446	0.42025	0.058776	0.26024	0.14809	0.10241	0.3227	0.12271	0.18262	0.080665	0.10036	0.22147	0.037277	0.20192	-0.85	-0.63958	-1.4979	-0.9375	-0.82917	-1.5187	-0.58333	-1.2083	-1.0854	-0.75417	-1.4958	-0.76667	-0.87083	-1.5771	-0.58958	-1.1313	236.909	98.769	105.337	222.436	77.005	70.922	177.398	-9.681	262.132	-9.410	153.435	232.606	281.725	239.042	179.364	191.321	7.0499e-05	0.00038645	3.1896e-05	1007.3	1.6636e-06	2.8657e-06	1082.3	206.5	7.8395e-07	3.7096e-06	263.54	73.976	59.311	16.896	2.3809e-06	23.691	0.00010755	0.00010783	2.9221e-05	967.83	1.1754e-06	1.1582e-06	1042.2	200.56	1.1473e-06	1.1903e-06	250.02	72.725	57.627	16.575	1.1505e-06	23.064	132.045	14.556	-64.233	-64.931	107.505	131.781	-64.973	-57.433	177.855	40.726	-57.678	-51.306	-50.542	-42.945	121.992	-43.771	-8191	255	
1041.644	1	1	0	0	0.12738	0.1531	0.07256	0.19611	0.21763	0.09927	0.14612	0.050171	0.22598	0.29666	0.18748	0.10147	0.11524	0.22396	0.20808	0.12969	-0.86875	-0.50833	-1.6896	-1.1771	-0.86667	-1.3833	-0.87292	-1.2125	-1.4333	-0.53333	-1.6104	-0.98542	-0.75625	-1.5833	-0.76875	-1.0125	57.517	77.860	242.627	221.999	-14.000	-74.705	155.376	235.988	226.540	-15.740	-51.534	4.585	135.129	181.265	-44.413	83.200	6.2743e-05	0.00019937	3.6414e-05	1007.6	4.0099e-06	2.5969e-06	1078	206.74	1.4279e-06	3.252e-06	261.28	74.329	59.32	16.935	2.681e-07	23.744	0.00010794	0.00010443	2.8662e-05	967.51	1.161e-06	1.154e-06	1040.8	200.44	1.1454e-06	1.1259e-06	249.4	72.625	57.643	16.578	1.1293e-06	23.1	175.468	8.726	-5.558	-64.844	78.032	68.085	-64.735	-57.062	81.104	27.025	-57.760	-50.834	-50.313	-43.016	239.465	-43.872	-8191	255	
1041.716	1	1	0	0	0.068015	0.21344	0.104	0.29117	0.31269	0.2619	0.15372	0.14084	0.26176	0.30941	0.13106	0.10594	0.19516	0.099014	0.30723	0.24327	-1.0792	-0.55625	-1.4062	-1.1938	-0.70208	-1.5896	-0.9	-0.91875	-1.4417	-0.7	-1.4458	-1.25	-0.77917	-1.65	-0.84792	-0.87708	216.169	124.374	185.441	195.431	-26.757	87.977	179.639	212.258	108.075	264.053	12.630	265.990	260.845	6.425	184.481	149.414	5.3002e-05	0.00032728	4.0322e-05	1005.9	1.1764e-06	2.1402e-06	1079.4	208.57	3.5725e-06	2.0657e-06	262.23	74.84	59.079	17.082	1.7146e-06	23.622	0.00010362	0.00010392	2.8227e-05	966.73	1.178e-06	1.0982e-06	1041.9	200.25	1.1337e-06	1.1092e-06	249.14	72.642	57.49	16.617	1.1219e-06	23.016	200.119	54.970	98.687	-65.047	-54.153	-16.447	-64.538	-57.175	51.817	30.102	-57.636	-51.408	-50.729	-43.183	81.078	-43.271	-8191	255	
1041.837	1	1	0	0	0.099288	0.21412	0.25736	0.31818	0.079804	0.27674	0.093772	0.22834	0.21032	0.047454	0.027335	0.14252	0.0040915	0.26545	0.28246	0.16875	-1.1146	-0.41875	-1.3958	-1.4708	-0.65833	-1.5958	-1.0625	-0.8	-1.5396	-0.77708	-1.1812	-1.4479	-0.67083	-1.5958	-0.84375	-0.7125	280.466	241.215	239.294	265.451	134.334	76.406	104.202	208.945	197.390	-30.253	35.808	58.112	91.469	236.493	98.893	42.853	5.2715e-05	0.00024582	9.7359e-05	1004	9.9097e-07	2.4507e-06	1080.2	207.36	1.8779e-06	3.1143e-06	261.78	74.216	58.574	16.986	2.6097e-06	23.67	0.00010524	0.00010122	2.8195e-05	965.01	1.1635e-06	1.0798e-06	1041.7	200.17	1.1451e-06	1.1336e-06	249.2	72.531	57.376	16.556	1.121e-06	23.016	152.178	-8.919	28.289	-64.911	-30.855	97.223	-65.000	-57.169	50.472	65.165	-57.803	-50.890	-50.759	-42.808	62.189	-44.019	-8191	255	
1041.933	1	1	0	0	0.22109	0.074084	0.15174	0.18077	0.13007	0.09586	0.11522	0.26473	0.096051	0.12233	0.19219	0.029047	0.19839	0.1335	0.16052	0.30224	-1.1833	-0.68125	-1.0646	-1.5021	-0.68125	-1.5021	-1.2708	-0.75	-1.6479	-0.79792	-1	-1.6229	-0.49375	-1.4542	-1.0458	-0.65833	203.682	26.285	136.025	70.004	136.282	30.259	165.811	210.079	282.974	-42.423	-35.920	11.002	111.061	195.667	112.718	278.089	7.0165e-05	0.00011815	6.0387e-05	1002.9	5.9485e-07	3.2185e-06	1076.6	206.1	9.2887e-07	2.9817e-06	261.26	74.179	58.864	16.837	1.703e-06	23.584	0.00010328	9.8998e-05	2.7704e-05	964.08	1.1232e-06	1.0939e-06	1039.7	199.29	1.131e-06	1.0859e-06	248.55	72.453	57.346	16.474	1.1029e-06	22.946	156.066	93.698	45.997	-64.875	94.965	71.336	-64.761	-57.711	190.601	40.284	-57.554	-51.026	-50.907	-42.977	108.682	-43.526	-8191	255	
1042.029	1	1	0	0	0.097306	0.10329	0.19772	0.15794	0.20427	0.050849	0.3607	0.10932	0.30662	0.013152	0.26912	0.10653	0.22629	0.051973	0.25158	0.27506	-0.89375	-0.71667	-0.92292	-1.4792	-0.6875	-1.4125	-1.4292	-0.49583	-1.4854	-0.96458	-0.94375	-1.5562	-0.63542	-1.2104	-1.2104	-0.5125	107.614	-19.151	216.123	-17.754	28.135	139.213	43.235	183.803	272.753	97.856	107.651	260.361	157.582	238.732	-72.212	1.362	4.9772e-05	0.00031957	8.3666e-05	1004.6	1.9389e-06	2.181e-06	1078.8	205.74	2.1146e-06	2.1111e-06	262	73.93	58.882	16.748	2.3092e-06	23.671	0.00010114	9.8784e-05	2.7421e-05	962.56	1.0991e-06	1.0676e-06	1039.4	199.25	1.0875e-06	1.0922e-06	248.65	72.528	57.346	16.491	1.092e-06	23.024	181.723	17.291	-16.451	-64.840	164.727	68.598	-65.026	-57.404	57.711	78.112	-57.734	-51.425	-50.589	-42.776	62.544	-44.016	-8191	255	
1042.125	1	1	0	0	0.052496	0.24851	0.35937	0.28352	0.21929	0.24641	0.58272	0.2126	0.13883	0.026954	0.061098	0.073674	0.20678	0.16629	0.41203	0.13245	-1.1437	-1.1104	-0.92292	-1.5958	-0.64792	-1.125	-1.3771	-0.45208	-1.1583	-0.7875	-0.89583	-1.4937	-0.73125	-0.93125	-1.4875	-0.69167	116.157	213.311	161.854	241.247	-57.996	-10.816	225.673	-46.497	-8.409	-35.751	96.029	89.343	282.910	184.239	121.161	-36.645	7.786e-05	0.00016732	5.6337e-05	1003.9	3.8106e-06	3.9347e-06	1071.2	206	1.993e-06	4.3279e-06	261	73.863	58.621	16.812	2.0787e-06	23.519	9.9427e-05	9.7263e-05	2.742e-05	963.03	1.1182e-06	1.0515e-06	1037.7	198.79	1.0712e-06	1.0602e-06	248.57	72.219	57.234	16.437	1.0688e-06	22.946	154.716	60.206	95.769	-64.852	81.335	118.350	-65.023	-57.158	106.558	-18.873	-57.759	-51.185	-50.924	-43.132	86.537	-44.042	-8191	255	
1042.221	1	1	0	0	0.20648	0.03877	0.16541	0.18519	0.14629	0.20047	0.40736	0.058943	0.1507	0.064918	0.046447	0.18632	0.22727	0.24474	0.13256	0.16186	-1.0958	-1.1708	-0.64583	-1.425	-0.74583	-0.94375	-1.6021	-0.7625	-1.2896	-1.1333	-0.74167	-1.65	-0.89167	-0.85625	-1.5271	-0.68125	281.486	16.907	246.341	210.255	-47.110	134.692	252.109	20.653	-9.459	145.342	-69.851	77.425	82.103	124.680	146.949	-44.902	2.1918e-05	0.00010872	8.5916e-05	1007.6	2.3308e-06	2.7052e-06	1074.1	205.76	1.6682e-06	3.3484e-06	261.63	73.622	59.085	16.807	2.5617e-06	23.557	9.7145e-05	9.6692e-05	2.6998e-05	963.06	1.0713e-06	1.0712e-06	1035.9	199.18	1.0557e-06	1.0812e-06	248.16	72.122	57.17	16.426	1.041e-06	22.902	185.223	94.430	40.210	-65.002	94.934	70.696	-64.792	-57.439	86.651	131.478	-57.609	-51.450	-50.780	-42.962	142.262	-43.715	-8191	255	
1042.317	1	1	0	0	0.18354	0.079885	0.10474	0.2337	0.05291	0.14742	0.077255	0.08972	0.13387	0.11656	0.12409	0.26399	0.25519	0.045278	0.079029	0.07147	-0.96875	-1.1417	-0.47292	-1.4937	-0.84583	-0.65417	-1.7417	-0.76458	-1.2687	-1.3188	-0.62708	-1.6458	-0.98958	-0.74167	-1.5271	-0.74583	-63.590	5.510	-51.284	-52.716	190.124	35.672	193.219	143.611	249.682	49.652	66.342	269.204	249.320	-61.462	-25.728	165.113	7.7244e-05	0.00032899	4.1692e-05	998.42	1.5746e-06	3.1618e-06	1075.7	206.53	1.2147e-06	3.0429e-06	259.94	73.375	58.85	16.799	2.3076e-06	23.456	9.779e-05	9.526e-05	2.6972e-05	959.5	1.0588e-06	1.0459e-06	1035.1	198.68	1.0363e-06	1.0256e-06	248	72.099	57.059	16.48	1.0357e-06	22.927	151.337	-59.457	-11.038	-64.701	105.156	108.970	-64.865	-57.225	21.745	-16.738	-57.466	-51.380	-50.632	-42.623	17.061	-43.141	-8191	255	
1042.414	1	1	0	0	0.18211	0.13661	0.1892	0.055402	0.02503	0.39611	0.0615	0.071076	0.19033	0.14033	0.12481	0.19488	0.072155	0.17809	0.18082	0.13745	-0.65	-1.3	-0.45833	-1.4062	-0.97708	-0.57917	-1.8208	-0.62083	-1.1021	-1.5312	-0.64375	-1.5187	-1.0542	-0.60625	-1.4062	-0.69583	257.366	245.898	-17.379	-10.184	278.419	49.855	267.276	2.957	223.419	-67.609	179.862	162.734	145.839	241.713	89.148	174.584	7.3428e-05	0.00038245	1.5778e-05	996.96	2.6656e-06	3.4407e-06	1072.7	204.19	4.0224e-07	2.9711e-06	258.32	74.244	58.208	16.898	1.7951e-06	23.339	9.6235e-05	9.3456e-05	2.6222e-05	958.36	1.0276e-06	1.0411e-06	1033.3	197.78	1.0497e-06	1.0165e-06	246.87	72.252	56.843	16.473	1.0246e-06	22.793	136.113	1.641	-19.550	-64.647	66.603	71.265	-64.563	-57.504	-26.795	-15.215	-57.722	-51.139	-50.470	-42.978	82.980	-43.934	-8191	255	
1042.510	1	1	0	0	0.10912	0.26834	0.060127	0.18481	0.21456	0.033201	0.21304	0.16193	0.32236	0.15438	0.15858	0.19528	0.058148	0.053929	0.18061	0.14319	-0.64792	-1.4937	-0.50625	-1.4896	-0.96875	-0.49792	-1.6771	-0.77917	-0.8625	-1.3729	-0.775	-1.3062	-1.2042	-0.58958	-1.4	-0.86667	188.920	-45.083	204.238	143.699	-9.112	-3.813	115.738	89.615	10.277	177.469	8.180	-53.573	-23.979	281.294	55.113	212.479	7.1391e-05	0.00030175	3.3512e-05	995.9	1.4022e-06	8.6189e-07	1074	205.74	7.2303e-07	2.2897e-06	258.64	73.42	57.653	16.83	5.1307e-07	23.608	9.5424e-05	9.3638e-05	2.6379e-05	957.05	1.0298e-06	1.02e-06	1032.5	197.94	1.0278e-06	1.0125e-06	245.98	71.754	56.646	16.386	1.0106e-06	22.854	133.696	44.878	70.681	-64.856	178.629	58.575	-64.789	-57.285	131.935	3.683	-57.428	-51.065	-50.478	-43.056	144.741	-44.058	-8191	255	
1042.629	1	1	0	0	0.31402	0.1762	0.11144	0.1571	0.15313	0.13512	0.16686	0.27316	0.19523	0.18079	0.23071	0.11903	0.15101	0.0096709	0.1416	0.1759	-0.52292	-1.4937	-0.45208	-1.4062	-1.2875	-0.5375	-1.6354	-0.91458	-0.82917	-1.4854	-0.66875	-1.2417	-1.4458	-0.51458	-1.5	-0.92292	-72.694	262.884	98.971	-9.445	275.659	173.077	232.047	176.998	283.679	236.185	243.005	-14.410	281.545	271.052	245.430	68.496	3.6976e-05	6.3545e-05	5.5725e-05	997.47	6.1973e-07	3.2006e-06	1069.6	204.11	7.7818e-07	3.2684e-06	259.24	74.385	58.698	16.937	2.4592e-06	23.272	9.674e-05	9.1561e-05	2.5754e-05	956.14	1.0405e-06	1.0152e-06	1032	197.28	1.0332e-06	1.0299e-06	246.27	72.044	56.887	16.4	1.004e-06	22.777	142.481	-20.092	-38.254	-64.720	110.455	93.353	-64.856	-57.414	103.554	107.596	-58.032	-50.928	-50.655	-42.741	83.268	-43.826	-8191	255	
1042.725	1	1	0	0	0.013916	0.069252	0.18556	0.20472	0.093408	0.20026	0.38536	0.32247	0.37145	0.18228	0.15047	0.16501	0.12528	0.069811	0.10525	0.078159	-0.33542	-1.4146	-0.75833	-0.98333	-1.4979	-0.65417	-1.3375	-1.0583	-0.63333	-1.3729	-0.80625	-0.78542	-1.4667	-0.62083	-1.3208	-1.1042	203.805	137.143	132.891	-71.815	35.205	109.904	231.409	130.004	-60.125	30.031	59.516	263.948	163.113	130.324	283.447	124.796	7.068e-05	0.00033715	7.8788e-05	992.16	2.6718e-06	2.9532e-06	1062.4	204.39	1.7811e-06	7.6309e-07	258.57	73.564	58.428	16.649	2.5604e-06	23.499	9.5303e-05	9.2563e-05	2.5134e-05	952.96	1.0399e-06	1.0162e-06	1027.5	197.22	1.029e-06	9.9636e-07	245.6	71.913	56.754	16.36	1.0155e-06	22.75	175.176	55.308	-26.611	-64.700	95.960	61.931	-64.655	-57.458	95.112	270.088	-57.865	-50.689	-50.425	-42.923	60.098	-44.002	-8191	255	
1042.821	1	1	0	0	0.039699	0.1053	0.12465	0.13079	0.15987	0.11517	0.33656	0.055047	0.19889	0.18206	0.099015	0.18131	0.11264	0.075436	0.30292	0.20514	-0.19583	-1.4208	-0.93542	-0.90833	-1.6292	-0.55417	-1.3937	-1.3104	-0.51875	-1.3417	-1.05	-0.76875	-1.55	-0.57708	-1.1417	-1.3021	-21.207	133.155	-66.839	269.715	65.645	252.332	194.962	214.841	250.770	261.029	5.935	234.033	71.555	97.967	254.819	182.330	6.3765e-05	0.0003012	0.00015104	988.79	1.0003e-06	2.2417e-06	1071.2	203.18	2.6263e-06	6.5646e-07	259.17	73.642	58.232	16.824	3.4741e-07	23.299	9.3837e-05	8.9386e-05	2.4655e-05	951.21	1.0314e-06	9.922e-07	1030.2	196.73	1.0236e-06	9.5515e-07	245.3	71.702	56.781	16.372	9.755e-07	22.685	159.515	9.510	-1.875	-64.785	49.753	100.232	-64.532	-57.188	105.814	40.935	-57.492	-50.653	-50.718	-43.315	218.078	-44.026	-8191	255	
1042.917	1	1	0	0	0.37406	0.084567	0.11741	0.23027	0.19944	0.32164	0.34242	0.043852	0.22027	0.20953	0.14331	0.10181	0.17894	0.14604	0.10245	0.24952	-0.14583	-1.2167	-0.92708	-0.75833	-1.4417	-0.64375	-1.3667	-1.3958	-0.48542	-1.2625	-0.95833	-0.77708	-1.6313	-0.775	-0.92083	-1.5688	121.655	166.605	147.116	229.892	177.330	-35.174	158.809	57.356	35.980	122.963	269.400	283.975	137.146	9.976	236.342	228.750	7.9711e-05	0.00023383	0.00010008	990.01	2.3523e-06	3.5039e-06	1066.6	203.73	1.234e-06	1.8401e-06	259.24	73.61	58.251	16.815	3.7793e-06	23.203	9.3546e-05	8.8628e-05	2.5013e-05	952.3	1.0119e-06	9.8168e-07	1026.5	196.72	1.0193e-06	9.6354e-07	246.18	71.818	56.779	16.32	1.0053e-06	22.678	160.118	53.628	53.225	-64.723	83.539	58.696	-64.787	-57.055	94.739	58.299	-57.722	-51.002	-50.517	-42.722	109.534	-43.737	-8191	255	
1043.013	1	1	0	0	0.15813	0.03598	0.18319	0.16309	0.29714	0.11299	0.16402	0.10365	0.05304	0.1839	0.18806	0.060686	0.16773	0.085401	0.031281	0.16742	-0.25	-1.4833	-1.1458	-0.56875	-1.4146	-0.68542	-1.0896	-1.4854	-0.43542	-1.35	-1.1896	-0.64375	-1.5	-0.82917	-0.83125	-1.4583	232.200	195.097	55.944	263.376	169.873	148.579	251.265	154.217	74.302	56.566	30.388	101.704	169.411	-62.650	99.708	225.862	5.7365e-05	0.00031343	8.9309e-05	992.58	1.9433e-06	1.7732e-06	1067.2	204.15	3.9423e-06	9.9644e-07	260.5	73.172	58.559	16.779	2.4423e-06	23.362	9.4058e-05	8.7969e-05	2.4829e-05	951.99	1.0054e-06	9.7413e-07	1026.8	197.09	1.0091e-06	9.7271e-07	245.72	71.639	56.779	16.344	9.8902e-07	22.758	128.408	35.225	6.450	-64.860	269.249	49.963	-64.716	-57.527	32.600	26.296	-57.498	-51.434	-50.342	-43.139	64.609	-43.414	-8191	255	
1043.109	1	1	0	0	0.31406	0.13914	0.22658	0.13868	0.1348	0.28741	0.19283	0.16981	0.11307	0.018952	0.41013	0.095519	0.089353	0.32025	0.22859	0.056365	-0.11875	-1.1229	-1.3438	-0.74792	-1.6208	-0.88542	-0.90208	-1.5167	-0.55417	-1.2188	-1.2667	-0.77292	-1.3604	-0.98125	-0.61042	-1.3917	2.811	138.751	101.989	242.467	93.184	119.811	130.364	170.484	-40.852	-54.243	163.767	190.562	283.232	151.900	192.487	268.510	5.3841e-05	0.0002051	7.6317e-05	994.25	2.8187e-06	1.3567e-06	1067.8	204.37	1.2915e-06	3.1417e-06	259.15	73.28	58.134	16.744	2.235e-06	23.308	9.3574e-05	8.899e-05	2.4686e-05	952.66	9.9625e-07	9.7823e-07	1026.8	197.1	1.0217e-06	9.6395e-07	245.57	71.711	56.714	16.357	1.0341e-06	22.75	167.340	9.283	96.800	-64.644	132.083	36.859	-64.690	-57.254	54.829	54.316	-57.853	-50.954	-50.547	-42.942	161.624	-43.732	-8191	255	
1043.230	1	1	0	0	0.11093	0.20883	0.36889	0.31066	0.18319	0.19347	0.19448	0.057119	0.2618	0.28332	0.27842	0.073025	0.015233	0.082053	0.27482	0.2955	-0.36458	-0.98542	-1.4417	-0.575	-1.2687	-0.96667	-0.89167	-1.4646	-0.50417	-1.1125	-1.4042	-0.54375	-1.4	-1.1479	-0.47083	-1.575	87.097	-37.426	99.507	-74.988	49.146	237.323	265.301	152.885	-12.781	-70.855	-73.288	161.060	224.967	50.042	216.207	136.465	4.7462e-05	0.0004683	4.411e-05	986.98	7.4405e-07	7.1313e-07	1060	204.54	2.3493e-06	1.0769e-06	259.06	73.738	58.273	16.831	1.3876e-06	23.414	9.1096e-05	9.1298e-05	2.466e-05	950.74	9.9154e-07	9.8667e-07	1026.1	197.34	1.0026e-06	9.8502e-07	246.01	71.737	56.657	16.352	1.0037e-06	22.81	183.075	-19.134	8.158	-64.826	186.865	83.494	-64.747	-57.450	66.186	14.605	-57.669	-51.084	-50.314	-42.974	138.537	-43.431	-8191	255	
1043.326	1	1	0	0	0.15785	0.063991	0.11418	0.25902	0.07472	0.3144	0.20552	0.40504	0.069808	0.30502	0.24254	0.37427	0.049593	0.10977	0.23533	0.14066	-0.57708	-0.80833	-1.4854	-0.60208	-1.4021	-1.2146	-0.85	-1.5063	-0.825	-0.67917	-1.6333	-0.51875	-1.3396	-1.1437	-0.54792	-1.5646	174.063	0.434	75.695	215.812	-47.037	256.840	248.165	-36.300	198.591	42.031	-4.795	260.855	-17.555	71.505	-63.781	72.531	7.2249e-05	0.00022332	8.437e-05	989.26	1.8116e-06	4.0061e-07	1060.5	203.31	1.5884e-06	2.5854e-06	260.29	73.243	58.328	16.861	1.5635e-06	23.423	9.0942e-05	9.0983e-05	2.5233e-05	949.86	1.0076e-06	9.8964e-07	1025.3	196.94	9.6717e-07	9.7699e-07	246.04	71.578	56.687	16.363	1.0058e-06	22.772	145.259	29.384	-18.539	-64.807	-7.620	50.182	-64.402	-57.140	-1.110	71.263	-57.506	-51.266	-50.596	-43.592	-58.063	-43.387	-8191	255	
1043.421	1	1	0	0	0.028277	0.13505	0.19826	0.17123	0.11199	0.17873	0.27618	0.055076	0.091435	0.2676	0.12045	0.3521	0.20252	0.015989	0.098114	0.11685	-0.60208	-0.68125	-1.5042	-0.73125	-1.2292	-1.3979	-0.7125	-1.3479	-1.0312	-0.6375	-1.6354	-0.77292	-1.1854	-1.3396	-0.56458	-1.4604	-75.347	137.079	243.914	225.633	56.919	35.731	-57.900	205.095	273.328	206.874	-26.951	193.017	240.511	224.846	-40.087	219.108	6.4927e-05	0.00014228	4.4802e-05	988.42	9.8336e-07	2.7485e-06	1063.3	204.49	2.0835e-06	2.426e-06	257.79	73.74	58.206	16.713	6.617e-07	23.384	9.3045e-05	9.0712e-05	2.4793e-05	948.9	9.917e-07	9.7664e-07	1024.9	197.02	9.562e-07	9.8846e-07	245.22	71.603	56.648	16.323	9.9473e-07	22.696	152.310	-3.431	-3.043	-64.897	-10.811	52.819	-64.598	-57.429	47.501	-13.705	-57.745	-51.278	-50.649	-43.201	58.304	-43.480	-8191	255	
1043.517	1	1	0	0	0.14794	0.13047	0.077263	0.31367	0.24855	0.069123	0.30434	0.2642	0.10418	0.21036	0.23835	0.12169	0.02294	0.23757	0.20693	0.22608	-0.6375	-0.67708	-1.4667	-0.80625	-0.97083	-1.4146	-0.7	-1.4542	-1.0708	-0.62708	-1.5292	-0.825	-0.90417	-1.5146	-0.59167	-1.2896	-28.038	50.671	-65.455	141.287	-11.194	201.179	245.791	163.960	110.119	36.863	199.195	-73.877	188.904	124.852	-11.343	-44.903	5.3481e-05	0.00027091	8.8013e-05	992.9	9.1189e-07	1.666e-06	1066	204.61	1.7107e-06	3.7765e-06	259.3	73.852	58.304	16.647	1.8023e-06	23.349	9.025e-05	8.9915e-05	2.3803e-05	950.6	1.01e-06	9.6355e-07	1024.8	196.97	9.6981e-07	9.7766e-07	245.6	71.523	56.65	16.263	9.8525e-07	22.737	158.371	-28.380	-21.728	-64.807	235.677	164.867	-65.038	-57.494	67.625	8.786	-57.707	-51.016	-50.728	-43.742	58.748	-43.446	-8191	255	
1043.613	1	1	0	0	0.31092	0.078475	0.18327	0.39087	0.27148	0.22458	0.33384	0.084999	0.32588	0.23367	0.12322	0.22399	0.12064	0.42918	0.080642	0.30367	-1.0292	-0.34167	-1.55	-0.80417	-0.7875	-1.6667	-0.775	-1.3271	-1.425	-0.69375	-1.4562	-1.0604	-0.84583	-1.5104	-0.53958	-1.0688	220.260	109.188	-39.023	273.526	115.840	112.335	222.723	214.639	-42.189	167.549	-9.238	124.258	-49.751	74.770	-25.639	188.784	7.1728e-05	0.00033136	5.2593e-05	986.76	2.1676e-06	4.9795e-07	1063.4	204.5	1.4304e-06	3.6968e-06	256.59	73.563	57.909	16.693	2.1767e-06	23.333	9.1528e-05	8.9312e-05	2.3886e-05	947.99	1.0075e-06	9.5395e-07	1023.6	197	9.507e-07	9.7109e-07	244.52	71.517	56.576	16.317	9.4386e-07	22.726	150.358	27.476	-32.233	-64.780	-49.310	-4.824	-64.710	-57.495	31.439	85.103	-57.485	-50.902	-50.649	-42.879	-20.129	-43.426	-8191	255	
#DATA ENDS
