BOXY.EXE: ISS Imagent and Oximeter Data Acquisition Program Version 0.80
Ascii Record File

#ACQ INFORMATION
2  Detector Channels 
16  External MUX Channels 
1  Auxiliary Channels 
5000  Waveform (CCF) Frequency (Hz)
1  Waveforms Skipped 
30  Waveforms Averaged 
1  Cycles Averaged 
16  Acquisitions per Waveform 
10.0806  Updata Rate (Hz) 

#FILE INFORMATION
TRUE -- External MUX Channel results are PARSED.
FALSE -- AC DC and Phase are NOT grouped.
TRUE -- Companion Program Settings File CREATED.
FALSE -- AC data not excluded
FALSE -- DC data not excluded
FALSE -- Phase data not excluded
FALSE -- Auxillary Chn. data not excluded
Tab delimiters

#CALIBRATION STATE
TRUE -- Waveform Calibration Values APPLIED.


#AUX CALIBRATION VALUES
Val Type	aux-1	

Term	1.0000e+00	
Factor	0.0000e+00	


#WF CALIBRATION VALUES
A = Detector Channel
Val Type	A-AC1	A-AC2	A-AC3	A-AC4	A-AC5	A-AC6	A-AC7	A-AC8	A-AC9	A-AC10	A-AC11	A-AC12	A-AC13	A-AC14	A-AC15	A-AC16	A-DC1	A-DC2	A-DC3	A-DC4	A-DC5	A-DC6	A-DC7	A-DC8	A-DC9	A-DC10	A-DC11	A-DC12	A-DC13	A-DC14	A-DC15	A-DC16	A-Ph1	A-Ph2	A-Ph3	A-Ph4	A-Ph5	A-Ph6	A-Ph7	A-Ph8	A-Ph9	A-Ph10	A-Ph11	A-Ph12	A-Ph13	A-Ph14	A-Ph15	A-Ph16	

Term	0.00000e+00	0.00000e+00	0.00000e+00	0.00000e+00	0.00000e+00	0.00000e+00	0.00000e+00	0.00000e+00	0.00000e+00	0.00000e+00	0.00000e+00	0.00000e+00	0.00000e+00	0.00000e+00	0.00000e+00	0.00000e+00	0.00000e+00	0.00000e+00	0.00000e+00	0.00000e+00	0.00000e+00	0.00000e+00	0.00000e+00	0.00000e+00	0.00000e+00	0.00000e+00	0.00000e+00	0.00000e+00	0.00000e+00	0.00000e+00	0.00000e+00	0.00000e+00	0.00000e+00	0.00000e+00	0.00000e+00	0.00000e+00	0.00000e+00	0.00000e+00	0.00000e+00	0.00000e+00	0.00000e+00	0.00000e+00	0.00000e+00	0.00000e+00	0.00000e+00	0.00000e+00	0.00000e+00	0.00000e+00	
Factor	1.00000e+00	1.00000e+00	1.00000e+00	1.00000e+00	1.00000e+00	1.00000e+00	1.00000e+00	1.00000e+00	1.00000e+00	1.00000e+00	1.00000e+00	1.00000e+00	1.00000e+00	1.00000e+00	1.00000e+00	1.00000e+00	1.00000e+00	1.00000e+00	1.00000e+00	1.00000e+00	1.00000e+00	1.00000e+00	1.00000e+00	1.00000e+00	1.00000e+00	1.00000e+00	1.00000e+00	1.00000e+00	1.00000e+00	1.00000e+00	1.00000e+00	1.00000e+00	X	X	X	X	X	X	X	X	X	X	X	X	X	X	X	X	

B = Detector Channel
Val Type	B-AC1	B-AC2	B-AC3	B-AC4	B-AC5	B-AC6	B-AC7	B-AC8	B-AC9	B-AC10	B-AC11	B-AC12	B-AC13	B-AC14	B-AC15	B-AC16	B-DC1	B-DC2	B-DC3	B-DC4	B-DC5	B-DC6	B-DC7	B-DC8	B-DC9	B-DC10	B-DC11	B-DC12	B-DC13	B-DC14	B-DC15	B-DC16	B-Ph1	B-Ph2	B-Ph3	B-Ph4	B-Ph5	B-Ph6	B-Ph7	B-Ph8	B-Ph9	B-Ph10	B-Ph11	B-Ph12	B-Ph13	B-Ph14	B-Ph15	B-Ph16	

Term	0.00000e+00	0.00000e+00	0.00000e+00	0.00000e+00	0.00000e+00	0.00000e+00	0.00000e+00	0.00000e+00	0.00000e+00	0.00000e+00	0.00000e+00	0.00000e+00	0.00000e+00	0.00000e+00	0.00000e+00	0.00000e+00	0.00000e+00	0.00000e+00	0.00000e+00	0.00000e+00	0.00000e+00	0.00000e+00	0.00000e+00	0.00000e+00	0.00000e+00	0.00000e+00	0.00000e+00	0.00000e+00	0.00000e+00	0.00000e+00	0.00000e+00	0.00000e+00	-1.31583e+02	-1.21578e+02	-1.40012e+02	-1.81298e+02	-8.87385e+01	-6.29981e+01	-1.57795e+02	-1.62015e+02	-6.94921e+01	-9.60310e+01	-1.75953e+02	-1.70521e+02	-1.80371e+02	-1.76072e+02	-6.81803e+01	-1.48893e+02	
Factor	1.93261e-05	1.42640e-04	3.75110e-05	1.68919e-01	1.12948e-06	1.23653e-06	1.80120e-01	7.03469e-02	1.11070e-06	1.40164e-06	1.16901e-01	3.27342e-02	2.64059e-02	1.04235e-02	1.14977e-06	1.44954e-02	1.13826e-06	1.18118e-06	3.28429e-07	8.21832e-02	1.29226e-08	1.29492e-08	8.20368e-02	3.39068e-02	1.29380e-08	1.29875e-08	5.34765e-02	1.52769e-02	1.27878e-02	5.00872e-03	1.30016e-08	6.72239e-03	X	X	X	X	X	X	X	X	X	X	X	X	X	X	X	X	



#DISTANCE SETTINGS
A = Detector Channel
A-1	A-2	A-3	A-4	A-5	A-6	A-7	A-8	A-9	A-10	A-11	A-12	A-13	A-14	A-15	A-16	

2.5000e+00	3.0000e+00	2.5000e+00	3.0000e+00	2.0000e+00	3.0000e+00	1.5000e+00	3.0000e+00	3.0000e+00	3.0000e+00	3.0000e+00	3.0000e+00	3.0000e+00	3.0000e+00	1.5000e+00	3.0000e+00	

B = Detector Channel
B-1	B-2	B-3	B-4	B-5	B-6	B-7	B-8	B-9	B-10	B-11	B-12	B-13	B-14	B-15	B-16	

1.0000e+01	1.0000e+01	1.0000e+01	1.4400e+00	1.0000e+01	1.0000e+01	1.5100e+00	1.9400e+00	1.0000e+01	1.0000e+01	1.9900e+00	2.4900e+00	2.4100e+00	2.9000e+00	1.0000e+01	2.9800e+00	




#DATA BEGINS
time	group	step	mark	flag	A-AC1	A-AC2	A-AC3	A-AC4	A-AC5	A-AC6	A-AC7	A-AC8	A-AC9	A-AC10	A-AC11	A-AC12	A-AC13	A-AC14	A-AC15	A-AC16	A-DC1	A-DC2	A-DC3	A-DC4	A-DC5	A-DC6	A-DC7	A-DC8	A-DC9	A-DC10	A-DC11	A-DC12	A-DC13	A-DC14	A-DC15	A-DC16	A-Ph1	A-Ph2	A-Ph3	A-Ph4	A-Ph5	A-Ph6	A-Ph7	A-Ph8	A-Ph9	A-Ph10	A-Ph11	A-Ph12	A-Ph13	A-Ph14	A-Ph15	A-Ph16	B-AC1	B-AC2	B-AC3	B-AC4	B-AC5	B-AC6	B-AC7	B-AC8	B-AC9	B-AC10	B-AC11	B-AC12	B-AC13	B-AC14	B-AC15	B-AC16	B-DC1	B-DC2	B-DC3	B-DC4	B-DC5	B-DC6	B-DC7	B-DC8	B-DC9	B-DC10	B-DC11	B-DC12	B-DC13	B-DC14	B-DC15	B-DC16	B-Ph1	B-Ph2	B-Ph3	B-Ph4	B-Ph5	B-Ph6	B-Ph7	B-Ph8	B-Ph9	B-Ph10	B-Ph11	B-Ph12	B-Ph13	B-Ph14	B-Ph15	B-Ph16	aux-1	digaux	

2111.083	1	1	0	768	0.26059	0.14135	0.13132	0.24651	0.20784	0.072791	0.045445	0.15033	0.27182	0.14618	0.1725	0.12213	0.26434	0.33485	0.096351	0.16179	-0.56667	-0.20625	-1.1021	-0.59167	-0.45	-1.2125	-0.46875	-0.89792	-0.91458	-0.39583	-1.1146	-0.56458	-0.6625	-1.0729	-0.35417	-1.1125	9.875	-17.604	137.606	-8.324	-47.575	70.444	198.675	-52.223	-58.492	218.877	-25.200	45.848	-1.707	-59.705	-63.481	134.071	0.00022511	0.00053084	6.4231e-05	629.63	5.622e-06	1.677e-05	962	163.34	2.726e-06	1.4015e-05	357.36	148.42	63.934	30.13	1.307e-05	64.681	0.00049588	0.00050155	0.00014238	488.03	5.5232e-06	5.5937e-06	731.21	130.84	5.6758e-06	5.7269e-06	273.6	113.43	51.496	23.631	5.8204e-06	48.981	157.350	-87.640	200.087	-79.725	34.225	11.398	-79.272	-74.514	-25.614	-61.918	-75.448	-71.211	-69.081	-65.585	4.783	-66.146	-8191	255	
2111.179	1	1	0	0	0.1043	0.038918	0.096185	0.073162	0.20035	0.16827	0.24705	0.18161	0.21339	0.17032	0.22478	0.40311	0.12108	0.17798	0.14229	0.11338	-0.74375	-0.175	-1.1542	-0.64792	-0.67083	-1.2479	-0.32292	-0.825	-1.0771	-0.11875	-1.1688	-0.67708	-0.51042	-1.3042	-0.38333	-0.91458	67.106	150.977	171.483	216.211	23.054	245.560	180.374	-78.732	102.182	28.786	90.422	139.959	54.738	182.768	-60.502	100.144	0.00036712	0.0016016	0.00029929	627.15	8.0928e-06	1.3126e-05	956.24	164.17	7.9284e-06	7.467e-06	355.28	149.88	63.597	30.213	5.089e-06	64.129	0.00051489	0.00053022	0.00014578	486.66	5.7043e-06	5.7718e-06	729.86	132.24	5.534e-06	5.6264e-06	274.9	113.92	51.528	23.647	5.6552e-06	48.74	226.234	214.856	51.540	-79.081	220.027	61.194	-78.931	-74.606	78.277	167.607	-74.931	-71.075	-69.692	-65.781	75.569	-66.200	-8191	255	
2111.276	1	1	0	0	0.098961	0.17422	0.11793	0.3271	0.31335	0.24197	0.16406	0.25551	0.080068	0.12098	0.16757	0.11744	0.32434	0.4708	0.22365	0.17693	-0.64375	-0.2125	-1.0417	-0.72083	-0.375	-1.0667	-0.46667	-0.77083	-1.0229	-0.24375	-1.0458	-0.73542	-0.29792	-1.2667	-0.59375	-0.65208	98.169	-62.289	245.652	-42.687	13.660	224.195	224.244	85.416	-83.650	59.246	203.444	-1.359	263.336	-48.671	-88.997	-21.950	0.00016005	0.0010954	9.2631e-05	635.76	6.5964e-06	5.0848e-06	976.83	164.53	1.1867e-05	1.2797e-05	359.17	150.2	64.149	30.335	6.3984e-06	64.509	0.00048836	0.00049766	0.00013752	489.54	5.4155e-06	5.3711e-06	736.03	130.84	5.3367e-06	5.3676e-06	272.66	113.27	51.421	23.704	5.2859e-06	48.473	120.211	1.587	125.130	-79.557	23.631	119.341	-79.332	-74.381	155.256	267.001	-75.099	-70.981	-69.557	-65.098	-47.981	-66.541	-8191	255	
2111.372	1	1	0	0	0.22957	0.16237	0.17991	0.12661	0.20598	0.16352	0.10391	0.16004	0.3095	0.11848	0.071753	0.20215	0.17865	0.20242	0.20013	0.34321	-0.76458	-0.16042	-1.025	-1	-0.19792	-1.0708	-0.53125	-0.48958	-1.1292	-0.2375	-0.85417	-0.81875	-0.34167	-1.1938	-0.52917	-0.36875	36.612	55.559	101.109	-83.134	-87.364	143.371	-25.286	170.709	-55.275	131.441	144.367	260.490	135.225	182.797	240.443	172.458	0.00027112	0.00040068	0.00026649	632.06	3.0395e-06	9.7457e-06	972.88	165.23	6.1437e-06	1.2445e-05	361.67	148.26	64.371	30.473	5.2068e-06	64.686	0.00047604	0.00047677	0.00013262	487.26	5.2249e-06	5.1613e-06	733.19	131.29	5.1618e-06	5.301e-06	275.3	113.24	51.321	23.774	5.0898e-06	48.665	192.472	0.621	20.883	-79.490	22.824	108.239	-78.996	-75.101	-19.182	96.194	-74.507	-71.321	-70.192	-65.450	137.437	-65.958	-8191	255	
2111.468	1	1	0	0	0.23482	0.35858	0.065947	0.10356	0.24669	0.15101	0.18696	0.02233	0.31883	0.14027	0.25798	0.221	0.21956	0.2021	0.10055	0.33273	-0.67917	-0.35625	-1.0125	-1.0562	-0.325	-1.0083	-0.66667	-0.49167	-1.0917	-0.33542	-0.925	-1.0021	-0.15	-1.1583	-0.60417	-0.50208	43.376	244.736	69.232	180.669	57.034	179.883	12.397	44.791	27.749	133.835	-29.854	-26.942	252.382	186.971	91.987	172.553	0.00026079	0.0018816	0.00027108	627.24	1.7017e-05	1.667e-05	969.58	165.74	2.903e-06	5.0192e-06	363.79	149.25	64.706	30.606	4.817e-06	64.634	0.00045808	0.00047018	0.00012928	486.14	4.995e-06	5.0088e-06	735.01	132.29	4.9678e-06	5.2189e-06	275.45	113.02	51.442	23.915	5.1071e-06	48.687	203.533	196.218	199.947	-79.339	41.668	55.922	-78.925	-75.011	236.131	84.021	-75.171	-71.880	-69.244	-65.183	-22.112	-66.001	-8191	255	
2111.564	1	1	0	0	0.28576	0.24425	0.098301	0.21533	0.14199	0.18004	0.31223	0.040233	0.0844	0.10397	0.091282	0.18519	0.21384	0.15405	0.088204	0.16957	-1.0417	-0.53958	-0.6875	-1.0354	-0.1625	-1.0771	-0.67083	-0.4125	-1.1604	-0.36042	-0.62292	-1.2938	-0.33958	-0.81875	-0.87292	-0.66667	125.788	-31.119	199.655	-76.372	30.897	-73.358	204.489	201.363	224.742	57.918	267.323	191.712	203.684	-75.314	106.823	-70.566	0.00012794	0.00037043	0.00018474	635.55	5.5303e-06	8.5985e-06	966.39	164.43	5.7627e-06	8.1839e-06	362.04	150.79	63.658	30.478	1.1762e-05	64.893	0.00044993	0.00046039	0.00012916	487.82	5.0193e-06	4.9838e-06	733.68	131.12	4.9209e-06	4.9382e-06	272.83	113.9	50.955	23.721	5.094e-06	48.572	205.850	150.083	89.352	-79.283	-19.780	-2.553	-79.179	-74.123	102.736	-50.607	-75.036	-70.567	-69.201	-64.939	127.522	-66.131	-8191	255	
2111.685	1	1	0	0	0.21916	0.2351	0.11559	0.22161	0.27355	0.19417	0.15225	0.30609	0.19677	0.25374	0.1614	0.067051	0.1832	0.11343	0.1056	0.074835	-0.86875	-0.54583	-0.43333	-1.1125	-0.22708	-0.88958	-0.99375	-0.47292	-1.0938	-0.29375	-0.51458	-1.2208	-0.39167	-0.79167	-0.90833	-0.26042	57.103	58.337	144.527	163.956	178.606	216.551	176.590	169.532	-2.598	160.790	13.948	-54.564	255.067	209.209	16.145	-89.527	0.00013653	0.00099103	0.00025543	637.21	2.1884e-06	9.2145e-06	963.92	166.84	1.4483e-05	3.2201e-06	361	148.84	65.123	30.437	1.3063e-05	63.326	0.00044725	0.0004594	0.00012764	488.98	5.019e-06	5.0588e-06	731.98	131.56	4.8886e-06	5.0441e-06	271.18	111.59	50.883	23.576	4.9643e-06	47.514	158.909	109.098	228.308	-78.449	166.148	166.413	-78.558	-74.578	121.666	224.497	-75.064	-71.164	-68.858	-65.091	152.233	-66.157	-8191	255	
2111.781	1	1	0	0	0.091836	0.17075	0.059155	0.10217	0.32132	0.26684	0.19656	0.35519	0.2069	0.27699	0.26284	0.058975	0.06194	0.3155	0.17178	0.30784	-0.60833	-0.60833	-0.13542	-1.2833	-0.425	-0.73125	-1.1313	-0.33125	-1.0104	-0.70625	-0.41042	-1.2	-0.44583	-0.57708	-1.0708	-0.37292	142.638	243.706	-83.880	219.797	49.815	106.520	201.171	261.972	63.252	207.146	216.855	-83.687	-46.050	171.990	131.737	205.262	0.00012194	0.00080308	0.00011145	631.28	2.6947e-06	4.8221e-06	970.22	166.4	1.0447e-05	3.6914e-06	358.35	148.69	64.041	30.609	4.0262e-06	64.101	0.00044337	0.00043972	0.00012269	486.02	4.7375e-06	4.8801e-06	731.54	131.09	4.8395e-06	4.7206e-06	270.51	112.19	50.83	23.565	4.74e-06	47.986	155.228	-30.003	236.676	-78.528	56.637	168.922	-78.328	-73.709	120.910	-79.482	-75.312	-70.452	-68.373	-64.189	6.206	-65.629	-8191	255	
2111.877	1	1	0	0	0.11522	0.25615	0.27015	0.25769	0.11171	0.10199	0.25363	0.23307	0.20532	0.12374	0.12549	0.26703	0.19594	0.35767	0.081183	0.29956	-0.55417	-0.825	-0.19375	-1.2917	-0.49583	-0.56667	-1.0417	-0.13125	-0.93125	-0.84583	-0.36875	-1.0917	-0.52708	-0.4625	-1.2	-0.28542	104.676	265.329	252.231	183.232	145.886	183.320	220.209	-75.810	74.604	218.676	141.770	222.046	247.277	225.037	12.658	198.905	0.00029861	0.00072176	0.00017935	637.52	6.6133e-06	8.9167e-06	973.18	165.86	6.707e-06	6.8397e-06	358.08	150.13	65.013	30.365	4.4143e-06	64.447	0.00043376	0.00044261	0.00012236	490.71	4.8464e-06	4.8525e-06	734.75	131.26	4.8909e-06	4.8179e-06	270.63	112.86	50.944	23.594	4.7504e-06	48.174	134.407	141.518	33.323	-78.403	75.026	170.369	-78.745	-74.191	2.060	-53.603	-74.973	-70.885	-67.986	-64.161	35.654	-65.715	-8191	255	
2111.973	1	1	0	0	0.15449	0.065758	0.050422	0.23807	0.27485	0.18094	0.23475	0.3265	0.051613	0.15969	0.2098	0.16798	0.1149	0.18531	0.10378	0.12681	-0.52083	-1.0208	-0.0625	-1.1938	-0.57292	-0.55625	-1.2542	-0.24792	-0.8625	-1.225	-0.21667	-1.1042	-0.6625	-0.3375	-1.1	-0.44167	153.797	85.715	-12.786	-72.837	51.857	147.584	150.769	26.937	39.639	149.259	230.995	180.810	143.929	196.660	152.489	152.115	0.0001458	0.00050229	6.1637e-05	635.22	2.4824e-06	5.4768e-06	976.41	166.49	3.7791e-06	1.7254e-06	363.15	150.53	63.592	30.55	1.0011e-05	63.435	0.00042684	0.00043109	0.00012212	488.05	4.682e-06	4.5934e-06	735.33	130.3	4.4786e-06	4.527e-06	273.27	112.91	50.736	23.521	4.475e-06	47.942	136.707	204.884	175.133	-78.056	112.210	195.693	-78.091	-74.204	96.443	-54.531	-75.020	-70.616	-69.554	-64.893	70.589	-66.229	-8191	255	
2112.069	1	1	0	0	0.13308	0.086803	0.12578	0.074045	0.25184	0.047336	0.16011	0.16519	0.081481	0.24633	0.12943	0.065552	0.11067	0.16459	0.10119	0.065449	-0.41875	-0.92708	-0.11458	-1.0083	-0.80208	-0.49167	-1.125	-0.43958	-0.59792	-0.97083	-0.28333	-1.0583	-0.79583	-0.35	-1.1396	-0.49167	-58.506	202.441	235.825	111.276	95.256	-80.693	-88.819	135.062	178.654	1.596	110.797	242.301	8.135	136.249	25.174	-49.821	4.4143e-05	0.0011066	0.00024751	643.26	1.2329e-05	1.3294e-05	972.42	166.28	4.8141e-06	9.3508e-06	361.58	147.45	64.49	30.387	6.2082e-06	63.622	0.00040493	0.00040078	0.00011293	493.13	4.5874e-06	4.6738e-06	732.94	130.29	4.5822e-06	4.5697e-06	270.72	111.17	50.887	23.426	4.673e-06	47.631	68.121	88.538	178.577	-78.687	-2.709	150.183	-78.751	-74.525	-34.120	-15.169	-74.533	-70.644	-69.267	-65.216	65.833	-65.899	-8191	255	
2112.164	1	1	0	0	0.15171	0.27188	0.10271	0.1526	0.19523	0.047562	0.054965	0.30929	0.30182	0.37062	0.21273	0.14346	0.065554	0.11497	0.13969	0.20169	-0.27708	-1.0438	-0.175	-0.99167	-0.87708	-0.27083	-1.3312	-0.49167	-0.35	-1.2604	-0.30833	-1.0104	-1.0354	-0.17292	-0.92083	-0.52708	110.325	59.896	22.285	-43.059	138.622	21.971	170.295	136.992	-42.656	-26.215	-83.420	163.818	133.701	239.337	74.239	175.935	0.00029349	0.00042245	0.0003066	642.98	5.5292e-06	5.5467e-06	980.23	168.27	5.7912e-06	1.698e-05	363.89	150.3	64.35	30.607	7.4565e-06	64.221	0.00041527	0.00041632	0.00011904	489.46	4.5815e-06	4.6658e-06	736.89	130.53	4.5227e-06	4.5768e-06	272.68	112.38	50.715	23.488	4.6794e-06	48.038	209.992	225.403	-68.252	-78.530	34.466	-77.371	-78.364	-74.712	68.077	-20.097	-75.535	-70.697	-68.900	-65.289	209.011	-66.598	-8191	255	
2112.284	1	1	0	0	0.12746	0.09743	0.32316	0.17099	0.2408	0.089	0.26291	0.27064	0.073499	0.16827	0.10574	0.15134	0.15766	0.3464	0.12009	0.24562	0.014583	-1.2708	-0.375	-0.875	-0.79167	-0.4125	-1.1979	-0.73333	-0.34792	-1.0917	-0.47917	-0.87917	-1.1812	-0.35625	-0.93958	-0.71875	35.254	174.629	173.933	-85.065	128.415	0.305	77.682	263.975	19.897	-5.890	134.859	232.313	139.969	-87.300	126.555	122.794	0.00020708	0.0011588	0.00020366	632.08	4.3238e-06	1.2018e-05	974.24	165.77	5.2927e-06	2.4393e-05	363.75	152.31	64.979	30.453	7.735e-06	64.023	0.00042658	0.00041475	0.00011805	486.48	4.7271e-06	4.5995e-06	735.34	131.03	4.6811e-06	4.6791e-06	273.45	113.95	51.372	23.774	4.8435e-06	48.445	188.553	97.752	74.971	-78.352	-33.220	70.201	-77.903	-74.155	-36.660	13.986	-74.850	-70.353	-68.965	-64.785	43.858	-65.885	-8191	255	
2112.380	1	1	0	0	0.13784	0.055273	0.24284	0.13103	0.27821	0.081413	0.35434	0.20642	0.10429	0.11988	0.19641	0.39961	0.13853	0.21006	0.21958	0.1418	0.175	-1.2083	-0.44167	-0.625	-0.89167	-0.24792	-0.93958	-0.81042	-0.29375	-1.0333	-0.33958	-0.73542	-1.3	-0.26458	-0.87083	-0.96458	153.472	179.266	-81.076	232.544	102.408	-80.888	174.597	210.144	99.326	19.419	35.775	200.109	198.189	-28.330	-17.897	93.243	0.00048711	0.001077	0.0002579	641.64	1.0951e-05	1.7162e-06	980.89	169.82	5.7388e-06	1.6088e-05	362.76	151.84	65.481	30.603	8.7887e-06	65.428	0.00044169	0.00045815	0.00012347	492.35	4.8362e-06	4.9324e-06	741.64	132.9	5.0124e-06	5.043e-06	274.67	114.23	51.47	23.801	4.9608e-06	48.732	210.788	137.183	256.626	-78.424	23.125	-35.226	-78.044	-74.142	72.988	21.182	-74.791	-70.453	-68.221	-64.423	-50.870	-65.769	-8191	255	
2112.477	1	1	0	0	0.18942	0.31704	0.19113	0.40516	0.1347	0.1769	0.17162	0.13732	0.09842	0.06173	0.21865	0.15232	0.2949	0.22862	0.32574	0.2318	0.089583	-1.2437	-0.52292	-0.44375	-1.0833	-0.1125	-0.95	-0.84583	-0.35208	-1.1812	-0.76875	-0.45417	-1.0187	-0.19375	-0.64167	-1.1375	170.265	-64.507	233.631	165.024	-76.080	239.248	63.253	-77.009	81.861	121.860	191.176	-57.232	-75.864	256.428	-85.874	106.542	0.0001633	0.00083547	0.000309	641.5	8.8716e-06	6.1939e-06	979.97	166.74	8.3887e-06	2.2587e-05	359.42	149.49	64.937	30.967	6.0108e-07	64.869	0.00044694	0.00045084	0.0001247	491.51	4.8968e-06	4.8589e-06	741.17	131.03	4.7547e-06	4.8738e-06	273.82	113.6	51.578	23.897	4.8246e-06	48.273	158.720	-22.685	-70.152	-78.237	-32.930	55.339	-78.231	-74.121	-84.535	50.068	-75.914	-71.209	-69.093	-64.292	-65.046	-66.383	-8191	255	
2112.573	1	1	0	0	0.13426	0.025647	0.24494	0.2096	0.12056	0.22063	0.22097	0.16932	0.14211	0.1832	0.147	0.27576	0.11633	0.046743	0.18844	0.19078	0.29167	-0.97083	-0.55833	-0.5375	-1.0375	-0.25417	-0.8625	-0.99167	-0.1125	-1.05	-0.77917	-0.41042	-1.2208	-0.59583	-0.56458	-1.1354	81.718	-88.203	96.781	259.293	164.101	-68.857	83.020	173.634	170.273	171.625	89.099	199.071	-92.058	60.851	254.936	246.086	0.00015876	0.0011391	0.0003233	649.49	7.5966e-06	5.9802e-06	987.65	167.32	1.3044e-05	1.4643e-05	360.19	151.97	65.143	31.098	2.5541e-06	64.228	0.00043166	0.00044291	0.00012348	494.06	4.9565e-06	4.9621e-06	743.13	131.69	4.9278e-06	5.0662e-06	273.71	114.19	52.008	24.028	5.0594e-06	48.591	104.690	118.598	-71.923	-78.768	110.985	-82.789	-78.286	-74.501	97.614	115.582	-74.957	-70.937	-68.196	-65.017	235.941	-66.229	-8191	255	
2112.644	1	1	0	0	0.30173	0.20976	0.021112	0.16485	0.094075	0.17186	0.19785	0.13044	0.15948	0.28001	0.37453	0.25578	0.033131	0.16647	0.1512	0.11678	0.27708	-0.94792	-0.85	-0.3375	-1.1229	-0.60625	-0.58542	-1.175	-0.11875	-0.79583	-0.77083	-0.35833	-1.2208	-0.55	-0.66875	-1.1958	155.389	90.555	105.225	239.455	207.336	213.430	187.706	211.531	-48.570	40.468	160.213	185.407	237.060	196.456	225.658	74.097	0.00017592	0.00065164	8.6649e-05	647.42	1.0029e-05	1.9201e-05	986.78	165.73	5.4518e-06	5.9049e-06	362.43	149.75	65.788	31.197	5.9143e-06	64.607	0.00044627	0.00045647	0.00012817	494.75	5.0424e-06	5.0048e-06	743.89	132.27	5.0345e-06	5.1411e-06	275	113.54	52.135	24.067	4.9348e-06	48.68	189.321	215.934	145.717	-78.299	-53.611	20.137	-78.882	-74.734	104.419	54.178	-75.275	-70.316	-69.126	-65.739	58.053	-65.893	-8191	255	
2112.765	1	1	0	0	0.11839	0.20169	0.11132	0.19359	0.097326	0.16448	0.12167	0.084875	0.085993	0.30766	0.15605	0.30873	0.033884	0.1796	0.25005	0.035998	-0.13542	-0.72292	-0.86667	-0.17292	-1.1333	-0.55833	-0.39792	-1.2938	-0.19375	-0.88125	-1	-0.26875	-1.1313	-0.59792	-0.45417	-1.2062	156.758	59.426	37.931	-83.146	-5.330	74.091	142.205	172.989	251.379	98.666	35.234	156.265	14.966	229.137	127.739	-50.668	0.00011654	0.00088472	3.3397e-05	651.46	1.1316e-05	1.6685e-05	983.91	167.97	1.032e-05	1.0181e-05	363.58	152.51	65.332	31.217	4.0425e-06	64.782	0.00044451	0.00046009	0.00012776	495.6	4.9667e-06	4.8522e-06	742.61	132.51	4.9287e-06	4.8546e-06	273.8	114.62	51.822	24.16	4.9287e-06	48.648	117.203	-18.056	122.858	-78.451	-39.848	103.921	-78.524	-74.969	43.142	-88.963	-74.290	-70.845	-69.175	-64.668	92.264	-66.334	-8191	255	
2112.861	1	1	0	0	0.17506	0.1185	0.19432	0.15391	0.053998	0.27625	0.14303	0.13641	0.37407	0.078797	0.19975	0.11528	0.23852	0.26318	0.1419	0.37793	-0.064583	-0.62083	-0.93125	-0.38125	-0.94792	-0.90625	-0.35417	-1.2313	-0.43125	-0.59375	-1.0771	-0.30625	-1.0375	-0.81458	-0.25	-1.1542	-13.137	239.386	3.214	-25.446	100.192	132.136	38.122	36.865	210.606	238.153	263.359	175.734	200.921	240.936	233.848	223.279	0.00013409	0.0009878	0.00013548	641.06	8.4918e-06	2.1741e-06	980.6	167.87	1.1306e-05	2.6461e-06	367.09	150.44	65.169	30.954	3.6091e-06	64.906	0.00044854	0.00043402	0.0001212	492.62	4.7818e-06	4.7374e-06	740.85	131.89	4.7483e-06	4.7015e-06	273.69	113.29	51.442	23.828	4.6119e-06	48.443	206.669	94.645	4.814	-78.921	169.786	168.682	-78.908	-74.173	57.374	-71.212	-75.047	-71.187	-69.537	-65.340	-67.847	-65.718	-8191	255	
2112.957	1	1	0	0	0.32988	0.090804	0.1169	0.20049	0.23589	0.097422	0.1295	0.24577	0.083238	0.40892	0.35675	0.32832	0.26173	0.20176	0.32093	0.095075	0.0041667	-0.42917	-1.2396	-0.095833	-0.97708	-0.75	-0.46667	-0.99375	-0.5375	-0.62083	-1.2833	-0.42917	-0.92083	-0.97917	-0.3375	-1.0958	5.105	236.806	-74.644	-89.089	154.154	153.137	228.926	257.722	227.201	16.498	202.914	223.921	230.698	244.828	-23.715	-66.343	0.000148	0.00070728	0.00043929	636.84	6.7821e-06	2.0418e-06	977.55	167.14	8.2158e-06	1.0328e-05	358.87	149.14	65.323	30.349	8.2028e-06	63.225	0.00043176	0.00043524	0.00011958	492.3	4.7627e-06	4.6936e-06	735.99	131.8	4.8445e-06	4.8357e-06	270.26	112.72	51.47	23.64	4.8233e-06	47.806	204.555	138.916	-12.976	-78.562	-15.608	207.153	-78.616	-74.735	-74.890	86.379	-75.036	-70.651	-68.424	-64.722	50.323	-66.078	-8191	255	
2113.053	1	1	0	0	0.19343	0.18482	0.1974	0.22997	0.11209	0.16636	0.23118	0.17916	0.14178	0.12539	0.080125	0.075021	0.16278	0.38311	0.24347	0.18057	-0.275	-0.44375	-1.3438	-0.31042	-0.83125	-1.1083	-0.27292	-1.0312	-0.56875	-0.28958	-1.1437	-0.51667	-0.76042	-1.1917	-0.14583	-1.0375	203.478	-18.945	9.812	154.590	-13.733	189.988	167.571	265.277	18.156	42.874	67.944	21.085	224.082	263.422	211.840	168.800	8.4026e-05	0.0014096	0.00047069	642.67	4.9333e-06	1.0872e-05	982.63	166.02	4.4303e-06	1.1963e-05	358.65	150.38	64.712	30.764	1.9255e-06	63.429	0.000433	0.00042762	0.00011989	490.43	4.7501e-06	4.7936e-06	739.45	130.8	4.7494e-06	4.7258e-06	272.3	113.1	51.466	23.608	4.7065e-06	47.896	42.455	17.277	68.070	-78.496	-35.119	117.105	-78.792	-74.570	50.962	240.351	-75.571	-71.687	-69.088	-65.737	47.764	-66.235	-8191	255	
2113.172	1	1	0	0	0.079395	0.14287	0.29336	0.13543	0.19149	0.10489	0.25584	0.21436	0.14861	0.26416	0.11282	0.50799	0.091718	0.14762	0.13105	0.045858	-0.25208	-0.20417	-1.1458	-0.50208	-0.49375	-1.1667	-0.50208	-1.0229	-0.78542	-0.16667	-1.2396	-0.64167	-0.55417	-1.0792	-0.30417	-0.93542	188.724	32.840	15.528	-9.993	10.821	55.050	203.247	-84.294	165.190	104.850	251.721	203.365	-38.581	241.533	209.192	-53.006	0.00015014	0.00048362	0.00033095	633.69	6.5474e-06	6.0957e-06	980.59	165.9	9.3265e-06	2.6337e-05	359.98	148.2	65.193	30.686	5.9327e-06	64.577	0.00041749	0.0004194	0.00011597	485.05	4.7907e-06	4.7363e-06	737.27	131.55	4.6912e-06	4.7012e-06	272.68	112.9	51.491	23.745	4.8677e-06	48.443	140.978	-15.786	96.252	-78.993	-18.852	51.209	-78.831	-74.171	80.445	45.242	-75.976	-71.024	-68.477	-65.377	142.151	-65.698	-8191	255	
2113.246	1	1	0	0	0.14269	0.16394	0.28052	0.068864	0.33608	0.29511	0.1753	0.14305	0.31519	0.22446	0.096884	0.32928	0.3408	0.30146	0.23757	0.27985	-0.56875	-0.17917	-1.1333	-0.60833	-0.37917	-1.0542	-0.51667	-0.87083	-0.95	-0.34792	-1.1542	-0.62083	-0.55417	-1.0292	-0.34792	-0.76042	56.264	9.574	62.046	191.184	-17.078	173.884	194.166	4.360	16.829	-4.256	79.645	226.631	220.181	155.484	246.272	244.028	0.00017887	0.00087614	0.00018425	638.9	1.1974e-05	1.0048e-05	977.71	164.85	5.0201e-06	5.8687e-06	359.97	146.8	65.079	29.971	2.8582e-06	63.686	0.00042231	0.00043729	0.00012144	491.3	4.6978e-06	4.6844e-06	736.15	130.16	4.8747e-06	4.8805e-06	271.28	111.94	50.985	23.38	4.8849e-06	47.597	186.487	96.779	-46.876	-79.190	14.864	88.162	-79.194	-74.878	210.987	216.941	-74.680	-71.253	-69.364	-64.715	246.795	-65.937	-8191	255	
2113.365	1	1	0	0	0.15309	0.29303	0.11784	0.38106	0.19678	0.19123	0.36516	0.2	0.1764	0.23233	0.20767	0.044946	0.20295	0.18283	0.30178	0.056888	-0.68542	-0.072917	-0.97292	-0.77083	-0.23542	-1.2896	-0.57083	-0.76458	-1.1646	-0.325	-1.0292	-0.88958	-0.38333	-1.3083	-0.30208	-0.61458	184.496	131.524	150.175	214.021	242.526	179.271	151.560	153.474	189.089	150.296	38.792	-33.101	28.470	174.998	-83.719	0.664	0.0001638	0.0021287	0.00028179	640.96	1.7747e-05	5.522e-06	970.33	162.77	8.1281e-06	5.9707e-06	357.61	148.28	64.34	30.186	8.1796e-06	62.951	0.00043024	0.00044463	0.00012211	488.8	4.7839e-06	4.7995e-06	735.49	129.96	4.9738e-06	4.9235e-06	271.82	111.64	50.843	23.398	5.07e-06	47.599	45.004	62.873	-22.186	-78.410	102.117	6.284	-78.834	-74.353	-34.115	50.194	-75.397	-71.480	-68.727	-65.331	166.987	-65.967	-8191	255	
2113.461	1	1	0	0	0.21751	0.27135	0.15247	0.33072	0.18192	0.21817	0.30971	0.17632	0.14922	0.054806	0.093025	0.30486	0.12568	0.3693	0.19029	0.32792	-0.70625	-0.30417	-1.0021	-0.96875	-0.30625	-1.4604	-0.71458	-0.61667	-1.2437	-0.30208	-0.76667	-1.0229	-0.32292	-1.2208	-0.65208	-0.53542	-36.361	-59.209	222.801	-75.805	86.851	19.183	203.596	-87.179	-3.789	140.784	141.442	193.360	-46.619	-89.599	101.222	176.002	0.00010683	0.00196	6.8207e-05	632.87	1.1267e-05	9.176e-06	974.03	164.33	3.5021e-06	1.338e-05	359.52	148.71	64.676	30.27	8.4972e-06	63.679	0.00045086	0.00046171	0.000131	488.08	5.0833e-06	5.1073e-06	736.34	130.84	5.1383e-06	5.1738e-06	273.44	112.27	51.274	23.599	5.3951e-06	48.293	204.246	2.604	-79.474	-78.882	16.080	35.538	-79.275	-73.725	11.676	56.578	-75.425	-71.184	-69.611	-64.826	53.540	-66.365	-8191	255	
2113.557	1	1	0	0	0.094047	0.17483	0.17267	0.15735	0.13677	0.24174	0.063946	0.27248	0.23522	0.17945	0.25675	0.22608	0.17384	0.28754	0.070757	0.27404	-0.81875	-0.125	-0.93125	-1.0354	-0.30417	-0.99375	-1.0375	-0.38542	-1.1104	-0.42083	-0.71667	-1.0833	-0.19375	-0.92708	-0.81042	-0.3875	155.623	-34.274	174.485	156.905	-65.291	-68.558	150.309	173.868	176.187	-32.698	220.896	-61.830	-69.449	189.732	-29.336	141.044	0.00022617	0.0020161	0.00022513	633.17	4.8084e-06	6.1289e-06	979.47	163.75	4.5103e-06	1.1304e-05	362.2	150.09	64.071	30.414	3.7512e-06	64.307	0.00047993	0.00048795	0.00013801	488.44	5.4476e-06	5.6353e-06	740.89	131.39	5.493e-06	5.5296e-06	276.69	113.69	51.354	23.931	5.8691e-06	48.846	166.942	-42.038	165.530	-78.464	92.582	-10.948	-78.880	-74.655	219.784	-13.986	-75.057	-70.761	-68.869	-65.201	119.320	-66.473	-8191	255	
2113.653	1	1	0	0	0.16776	0.15622	0.16091	0.19177	0.061637	0.16124	0.39983	0.1005	0.16728	0.33442	0.28536	0.37765	0.073203	0.20145	0.028693	0.13254	-0.76458	-0.36875	-0.575	-1.0667	-0.36042	-0.97292	-0.98125	-0.32292	-1.0083	-0.35625	-0.65417	-1.05	-0.2875	-0.75417	-0.96458	-0.23333	88.243	-69.823	-89.299	213.843	124.140	128.272	202.902	-63.353	234.500	163.028	82.089	213.605	140.764	266.836	14.082	173.936	0.00017735	0.00097091	0.00048526	634.48	1.9341e-06	1.6084e-05	961.12	161.94	1.2575e-05	3.9046e-06	360.73	150.08	63.271	30.048	3.7581e-06	63.278	0.00053163	0.00054798	0.000153	492.65	6.034e-06	6.0968e-06	736.49	131.66	6.1419e-06	6.1894e-06	276.24	114.66	51.436	23.831	6.0147e-06	48.446	89.721	-19.339	219.294	-78.992	-9.085	106.122	-78.377	-73.381	-55.151	20.495	-75.171	-70.400	-69.363	-64.965	-37.334	-65.543	-8191	255	
2113.774	1	1	0	0	0.31004	0.12053	0.28026	0.35509	0.24888	0.068986	0.083583	0.26562	0.04032	0.283	0.10863	0.11137	0.10536	0.099937	0.24743	0.33653	-0.73125	-0.29583	-0.44167	-1.1667	-0.24583	-1.0104	-1.125	-0.38333	-1.1521	-0.66667	-0.48958	-1.2479	-0.40417	-0.74375	-0.84792	-0.30833	254.629	120.166	195.590	258.004	-15.689	250.715	32.679	156.615	-56.222	4.436	108.242	228.748	162.741	199.912	103.451	121.108	0.00020084	0.00095396	0.00040576	631.34	5.6094e-06	1.0867e-05	973.48	161.8	1.1182e-05	6.9128e-06	359.07	148.2	63.824	30.46	8.6013e-06	63.725	0.00054637	0.00056288	0.00015181	491.69	6.0259e-06	6.0376e-06	738.43	131.36	6.0145e-06	5.9819e-06	275.53	113.3	52.002	23.916	5.8249e-06	48.404	-72.393	81.468	-11.479	-78.699	12.320	52.383	-78.783	-74.175	-45.840	245.387	-75.070	-71.318	-68.834	-65.008	173.059	-66.003	-8191	255	
2113.870	1	1	0	0	0.05293	0.092864	0.25615	0.24031	0.11347	0.37323	0.18374	0.035179	0.24091	0.12647	0.15352	0.4055	0.2572	0.087171	0.21381	0.1224	-0.76458	-0.63542	-0.30417	-1.05	-0.44167	-0.57708	-1.1229	-0.42292	-1.2021	-0.77292	-0.38333	-1.2583	-0.40625	-0.6125	-1.1146	-0.42083	247.732	121.345	225.468	-71.163	56.306	18.921	209.514	141.612	-8.493	15.760	163.730	239.992	206.243	-15.206	254.007	145.367	0.00040457	0.001596	0.0001975	629.7	1.7694e-05	2.4155e-05	962.9	164.77	1.1666e-06	1.412e-05	358.62	149.14	64.567	30.343	8.4009e-06	63.627	0.000534	0.00054586	0.00015181	490.65	5.9549e-06	5.9906e-06	738.51	132.94	5.8358e-06	5.9446e-06	276.38	114.35	52.083	24.064	5.9858e-06	48.481	212.729	-20.923	-73.851	-78.761	82.755	57.413	-78.761	-74.902	249.399	27.752	-74.926	-70.652	-69.253	-64.607	129.919	-66.000	-8191	255	
2113.942	1	1	0	0	0.21264	0.0935	0.21668	0.12224	0.16028	0.090928	0.063141	0.16529	0.23097	0.061796	0.17024	0.32228	0.16743	0.39754	0.37134	0.24412	-0.57292	-0.825	-0.21667	-1.3229	-0.49375	-0.5125	-1.1688	-0.22083	-0.89375	-0.86042	-0.46875	-1.3312	-0.75417	-0.6875	-1.1646	-0.40833	177.722	57.639	0.720	147.385	132.873	214.371	18.430	89.674	122.270	192.435	254.796	-28.625	228.962	9.413	7.969	-64.221	0.00011706	0.00016528	0.00023026	634.21	1.2405e-05	9.7064e-06	981.28	162.36	3.8197e-06	5.0367e-06	366.37	151.17	65.291	30.331	1.4806e-05	64.585	0.00054287	0.00054982	0.00015142	492.6	5.9642e-06	5.8415e-06	741.34	131.92	5.8409e-06	5.8363e-06	278.61	115.95	52.129	23.97	5.7365e-06	49.036	183.828	72.515	41.608	-79.035	4.670	239.979	-78.147	-74.409	3.620	192.339	-74.769	-70.246	-69.058	-64.753	30.599	-65.590	-8191	255	
2114.060	1	1	0	0	0.060745	0.24217	0.068688	0.43891	0.18462	0.13212	0.17632	0.28726	0.09683	0.16138	0.19761	0.32617	0.27841	0.16008	0.15767	0.044287	-0.36042	-0.95208	-0.15208	-0.98542	-0.57292	-0.46458	-1.2604	-0.2625	-0.75	-0.88958	-0.275	-1.05	-0.69167	-0.48542	-1.0812	-0.325	-78.393	222.655	265.900	179.695	228.608	143.353	146.102	248.399	-40.976	196.122	-6.940	169.789	204.783	228.328	9.010	140.879	0.000313	0.0010962	0.00029813	636	1.2027e-05	1.4157e-05	973.16	167.9	4.3608e-06	1.7491e-05	359.86	149.79	64.645	30.483	3.6581e-06	63.735	0.00051548	0.00052445	0.00014558	494.57	5.7379e-06	5.6342e-06	739.49	133.63	5.6116e-06	5.5603e-06	276.8	114.19	51.823	23.907	5.6607e-06	48.453	137.546	-40.932	-79.564	-78.602	-36.943	47.142	-78.542	-74.061	49.969	32.682	-75.021	-70.280	-69.279	-65.051	237.660	-66.012	-8191	255	
2114.157	1	1	0	0	0.29612	0.1449	0.073058	0.43938	0.041341	0.2702	0.071307	0.026489	0.1198	0.12456	0.1877	0.16932	0.24199	0.096057	0.12514	0.11003	-0.25	-1.0729	-0.29375	-1.1583	-0.76042	-0.375	-1.3188	-0.41667	-0.65833	-1.1292	-0.37917	-1.0979	-0.75833	-0.53958	-1.1729	-0.68542	-50.271	-62.936	-67.645	248.082	123.137	245.126	236.401	216.935	128.915	204.680	118.737	225.533	74.462	-56.489	39.361	260.737	0.00027643	0.0013028	4.8104e-05	643.12	1.0875e-05	1.4145e-05	973.09	165.56	4.2813e-06	1.1131e-06	358.36	148.35	64.499	30.734	4.9515e-06	63.038	0.00050959	0.00050839	0.00014114	495.79	5.5483e-06	5.5612e-06	737.88	131.97	5.5237e-06	5.5742e-06	273.38	113.06	51.492	23.895	5.5931e-06	48.052	187.730	112.187	54.273	-77.884	-6.875	45.839	-78.241	-74.557	112.031	200.023	-74.484	-70.225	-68.229	-65.509	68.765	-66.455	-8191	255	
2114.253	1	1	0	0	0.16148	0.40384	0.0864	0.3977	0.17065	0.29427	0.2148	0.11606	0.073337	0.079919	0.21263	0.13759	0.10302	0.18493	0.099449	0.14186	-0.24792	-1.2437	-0.2375	-0.93542	-0.88125	-0.23542	-1.0812	-0.46042	-0.56042	-1.3354	-0.2875	-0.98542	-0.93958	-0.43542	-1.1208	-0.68333	137.595	-41.806	53.369	239.222	90.446	-30.887	262.620	256.031	259.987	107.055	233.361	-19.336	-80.337	209.311	-22.929	82.283	0.00013245	0.00052412	0.00032132	630.11	3.7717e-06	1.8117e-06	970.13	165.04	3.3097e-06	1.7203e-05	358.03	149.18	64.77	30.548	6.1867e-06	63.601	0.00049869	0.00050413	0.00014002	490.3	5.4495e-06	5.5835e-06	738.48	132.91	5.6177e-06	5.4651e-06	274.37	114.03	51.891	23.872	5.6781e-06	48.35	180.442	34.641	-29.409	-78.503	26.060	191.162	-78.575	-74.212	-13.579	-26.545	-74.882	-70.447	-68.733	-64.550	84.701	-66.436	-8191	255	
2114.349	1	1	0	0	0.10768	0.045492	0.026326	0.35596	0.34119	0.26842	0.15498	0.17978	0.2025	0.11877	0.17437	0.15445	0.36857	0.21561	0.1519	0.22508	-0.016667	-1.1792	-0.29583	-0.92917	-1.0562	-0.10417	-1.2917	-0.56458	-0.475	-1.1375	-0.38958	-0.80417	-1.0958	-0.17292	-1.0333	-0.82917	108.850	-76.325	213.293	256.436	67.253	251.407	108.817	189.953	-60.427	5.360	87.143	-75.952	224.081	-26.398	79.213	183.051	0.00017405	0.0013791	0.00018998	642.12	8.9513e-06	5.0707e-06	978.57	166.52	1.9766e-05	1.6426e-05	358.62	149.17	65.056	30.688	7.4427e-06	63.716	0.00050354	0.00050017	0.00014348	497.13	5.5464e-06	5.678e-06	742.03	133.66	5.5985e-06	5.5743e-06	275.02	114.25	52.199	24.004	5.6951e-06	48.46	138.021	83.811	261.144	-78.143	152.883	154.318	-78.701	-74.559	33.367	220.829	-75.476	-70.673	-69.133	-64.555	-27.602	-66.152	-8191	255	
2114.470	1	1	0	0	0.23154	0.3383	0.061929	0.10619	0.34112	0.12088	0.31206	0.31173	0.15215	0.11855	0.40926	0.065409	0.23231	0.32237	0.163	0.24557	-0.01875	-1.05	-0.53542	-0.75	-1.0312	-0.44583	-1.025	-0.7875	-0.27292	-1.1333	-0.52292	-0.67292	-1	-0.20833	-0.92708	-1.1021	-35.528	191.075	1.124	62.049	254.595	110.461	194.062	225.200	41.710	191.336	211.344	199.529	241.621	203.520	202.655	184.053	0.00011832	0.00050723	8.3184e-05	640.46	9.7908e-06	6.4264e-06	978.5	167.97	6.6658e-06	6.2147e-06	360.36	150.34	65.002	30.847	4.7427e-06	63.891	0.00050725	0.00051714	0.00014502	496.53	5.5415e-06	5.6485e-06	743.42	133.19	5.4423e-06	5.5921e-06	276.01	114.43	51.79	24.121	5.649e-06	48.604	219.723	-82.014	57.366	-78.633	135.403	44.908	-78.611	-74.532	-19.359	56.130	-74.991	-69.770	-69.531	-64.811	78.971	-65.882	-8191	255	
2114.541	1	1	0	0	0.12419	0.090322	0.32781	0.12626	0.35016	0.20202	0.081096	0.25434	0.14712	0.38479	0.10026	0.21715	0.1622	0.32547	0.1997	0.11245	-0.014583	-1.1104	-0.61042	-0.69583	-1.2896	-0.25833	-0.83333	-0.85417	-0.28125	-1.175	-0.68333	-0.46042	-1.1375	-0.57708	-0.92917	-1.1417	238.698	70.079	83.512	180.288	177.370	169.474	-55.450	100.944	-49.278	255.834	50.931	-91.831	-10.615	206.361	92.293	161.240	0.00020307	0.00089534	0.00023131	641.75	8.0152e-06	1.0829e-05	973.82	165.66	1.3875e-05	1.4129e-05	353.41	147.46	63.878	30.134	1.1587e-05	63.188	0.00051014	0.00051197	0.00014462	495.55	5.5333e-06	5.583e-06	737.49	132.31	5.5366e-06	5.5415e-06	272.85	112.62	51.483	23.638	5.5683e-06	47.883	252.039	106.073	-46.029	-78.250	50.807	-0.355	-78.083	-74.531	61.976	30.433	-74.736	-71.167	-68.828	-65.552	-64.433	-66.569	-8191	255	
2114.637	1	1	0	0	0.047958	0.19849	0.23999	0.47161	0.071811	0.05913	0.42589	0.19394	0.18464	0.16653	0.11043	0.1236	0.17265	0.076103	0.10084	0.20233	0.11875	-0.9875	-0.5375	-0.34583	-1.0875	-0.20833	-0.66042	-1.2021	0.01875	-0.97917	-0.76042	-0.46458	-1.05	-0.48333	-0.49792	-1.2104	-3.537	22.334	-83.826	217.025	-90.618	-88.554	-69.758	43.075	105.038	-70.374	81.083	-82.904	-82.794	138.912	117.905	118.979	0.00015457	0.0012952	0.00082479	640.25	7.8896e-06	3.9415e-06	966.37	164.88	4.7032e-06	6.0985e-06	353.79	148.74	64.405	30.235	7.9819e-06	63.386	0.00049079	0.00051074	0.00013767	492.72	5.4307e-06	5.5254e-06	735.89	131.85	5.4281e-06	5.5417e-06	271.91	112.82	51.469	23.744	5.6488e-06	47.812	-17.834	34.940	61.248	-78.862	138.216	52.314	-78.713	-73.442	137.784	180.056	-75.226	-70.632	-69.642	-65.448	32.606	-66.223	-8191	255	
2114.734	1	1	0	0	0.12601	0.094126	0.27866	0.29543	0.12681	0.18386	0.16454	0.05938	0.018507	0.18718	0.17243	0.17302	0.13649	0.11778	0.33518	0.12893	0.15833	-0.96042	-0.64583	-0.33958	-1.1104	-0.58333	-0.75	-1.1562	-0.28542	-0.96875	-0.89167	-0.14167	-1.0167	-0.62083	-0.42083	-1.2188	37.102	-25.898	123.170	-76.542	236.374	11.570	243.975	93.330	116.172	179.465	235.392	149.249	246.977	241.517	204.417	111.120	0.00017689	0.0013435	0.00052257	636.48	8.0578e-06	7.9793e-06	958.95	164.84	1.451e-05	5.5336e-06	357.83	149.52	64.459	30.499	7.2148e-06	63.736	0.0004987	0.00050691	0.00014161	492.36	5.4785e-06	5.4757e-06	733.15	131.43	5.6359e-06	5.6504e-06	273.33	113.75	51.592	23.816	5.7028e-06	48.073	204.106	11.668	259.842	-77.719	-55.209	101.603	-78.891	-75.244	40.020	69.928	-74.945	-70.979	-69.415	-65.557	82.668	-66.015	-8191	255	
2114.854	1	1	0	0	0.21724	0.11531	0.020606	0.39177	0.11731	0.10986	0.26666	0.15872	0.019496	0.18123	0.16243	0.2782	0.25857	0.061532	0.04382	0.14515	0.25417	-0.88333	-0.94583	-0.16458	-1.2292	-0.72083	-0.59375	-1.1562	-0.2125	-0.78125	-0.96667	-0.16458	-0.93542	-0.85417	-0.36042	-1.3937	250.385	-68.932	-38.114	227.009	-37.481	175.314	204.348	-88.980	230.418	88.139	-75.508	170.365	-87.334	177.688	132.896	251.839	0.00039352	0.0010403	0.0002511	639.85	6.9659e-06	1.1589e-05	973.29	163.71	5.4343e-06	2.6633e-06	362.07	148.4	64.255	30.477	6.9143e-06	63.655	0.00049607	0.00050726	0.00014074	492.56	5.5622e-06	5.4797e-06	735.09	131.97	5.5954e-06	5.5467e-06	275.17	113.9	51.626	23.8	5.6206e-06	48.272	211.174	258.970	6.703	-79.024	183.400	144.030	-79.066	-74.061	7.156	247.863	-74.871	-70.616	-69.064	-65.041	-63.689	-66.093	-8191	255	
2114.950	1	1	0	0	0.13346	0.060771	0.099634	0.23795	0.14862	0.089155	0.13169	0.21964	0.13089	0.030664	0.20901	0.3	0.34814	0.048111	0.13584	0.2525	0.1625	-0.80208	-1.0625	-0.16042	-0.86042	-0.83958	-0.32708	-1.1292	-0.46458	-0.49375	-1.1417	-0.1375	-0.8	-1.1313	-0.1625	-1.0479	-54.146	-19.921	-20.953	148.462	79.669	237.801	218.972	221.104	151.572	204.024	261.825	255.174	36.624	220.996	110.874	176.527	0.0001697	0.0013367	0.00019253	631.56	9.6471e-06	1.0293e-05	956.64	164.77	1.0069e-05	5.0289e-06	354.54	147.49	62.7	30.142	1.256e-05	62.5	0.00050353	0.00051299	0.00013989	490.22	5.6123e-06	5.7649e-06	732.39	131.44	5.6695e-06	5.6705e-06	271.4	112.69	51.244	23.671	5.929e-06	47.725	195.121	95.207	241.984	-78.619	-88.249	-62.227	-78.971	-74.693	-81.221	106.628	-75.451	-71.362	-69.237	-65.197	137.243	-66.486	-8191	255	
2115.046	1	1	0	0	0.18298	0.11047	0.17097	0.047393	0.21796	0.20117	0.075051	0.16414	0.06339	0.086116	0.23727	0.16107	0.19152	0.031813	0.0299	0.20253	0	-0.475	-0.92917	-0.30625	-0.77083	-0.74583	-0.3875	-1.1854	-0.51875	-0.54792	-1.275	-0.21042	-0.89375	-1.0229	-0.21875	-1.1375	182.465	-60.163	253.666	-28.416	127.066	100.260	124.558	178.235	198.087	217.797	-78.529	186.051	150.986	104.300	174.385	82.612	0.00024059	0.0013859	0.00051884	635.09	9.4951e-06	3.7177e-06	965.28	164.34	2.2723e-06	1.3003e-05	354.63	147.83	63.347	30.077	5.4284e-06	63.163	0.00053258	0.00053982	0.0001461	492.52	5.8343e-06	5.9512e-06	736.64	132.08	6.0721e-06	5.917e-06	272.73	113.37	51.156	23.737	5.9223e-06	48.107	242.390	189.348	-36.519	-79.335	78.434	259.182	-78.337	-74.284	181.729	244.263	-75.524	-70.861	-69.716	-64.968	258.552	-65.946	-8191	255	
2115.143	1	1	0	0	0.26558	0.221	0.1808	0.24329	0.18941	0.12577	0.21026	0.12111	0.019511	0.19886	0.20886	0.14978	0.10553	0.12438	0.10189	0.15859	-0.3625	-0.29167	-1.1833	-0.32292	-0.57292	-1.0583	-0.1875	-1	-0.63542	-0.40208	-1.2021	-0.42292	-0.52083	-1.1208	-0.21875	-1.0771	-22.598	13.731	148.284	237.619	-81.952	138.244	239.072	152.826	247.592	-77.963	60.005	-27.555	78.523	178.774	-34.172	205.825	0.00020171	0.0013357	0.0002228	637.05	3.7288e-06	8.834e-06	958.08	164.36	1.1551e-05	5.5523e-06	356.11	149.32	64.691	30.712	6.6412e-06	63.827	0.0005426	0.00054749	0.0001486	494.75	6.0328e-06	5.9726e-06	736.63	132.46	5.9378e-06	5.8564e-06	275.44	114.35	51.812	24.034	5.9296e-06	48.644	164.631	-4.818	2.056	-78.609	119.802	30.283	-78.335	-74.436	-29.765	217.898	-74.946	-70.873	-68.617	-65.461	32.135	-66.295	-8191	255	
2115.237	1	1	0	0	0.23038	0.12767	0.10391	0.12403	0.16245	0.17032	0.049441	0.10462	0.17653	0.11353	0.15897	0.091773	0.17532	0.19762	0.06371	0.096186	-0.33333	-0.12917	-1.0125	-0.39792	-0.47708	-1.0187	-0.26875	-0.73542	-0.65208	-0.19583	-1.0771	-0.51667	-0.46458	-1.1583	-0.37083	-1.0021	147.066	150.319	56.486	-92.030	167.580	192.282	164.448	3.956	127.975	-82.538	37.113	13.232	35.569	246.701	222.873	106.862	0.00031591	0.0026637	0.00041166	633.14	6.8541e-06	9.3077e-06	971.37	163.93	3.614e-06	2.0227e-05	359.95	149.97	65.048	30.554	8.6555e-06	64.461	0.00053196	0.00053191	0.00014604	493.38	5.8772e-06	5.7144e-06	739.02	132.41	5.8894e-06	5.8646e-06	277.8	114.8	52.344	24.102	5.8843e-06	48.915	207.962	-4.187	-17.007	-78.606	21.912	-9.499	-79.019	-75.327	123.209	-28.170	-75.591	-71.459	-69.766	-66.234	97.576	-66.417	-8191	255	
2115.335	1	1	0	0	0.15785	0.19692	0.21613	0.1897	0.17195	0.27687	0.051663	0.068168	0.20674	0.11966	0.22671	0.41925	0.11957	0.12731	0.17527	0.20099	-0.53333	-0.26667	-1.1979	-0.59583	-0.46875	-1.1333	-0.38333	-0.775	-0.96875	-0.25833	-0.95833	-0.65833	-0.29792	-1.2	-0.22292	-0.675	263.863	127.650	214.591	-79.900	108.618	161.163	181.793	166.893	192.414	144.306	254.399	156.759	2.841	161.642	210.946	168.056	0.00012534	0.0012616	0.00056023	636.6	1.1845e-05	1.557e-05	963.71	164.64	9.0342e-06	3.9222e-06	356.73	148.94	64.025	30.685	3.3003e-06	63.202	0.00052386	0.00054156	0.00014892	494.05	5.9223e-06	5.8951e-06	738.04	132.71	5.7354e-06	5.8037e-06	275.93	113.93	51.884	23.944	5.7755e-06	48.102	223.784	101.108	-3.056	-79.302	117.085	9.470	-79.193	-75.408	-24.600	185.905	-75.837	-71.577	-70.205	-65.765	-58.488	-66.331	-8191	255	
2115.454	1	1	0	0	0.089684	0.32693	0.29652	0.13813	0.21575	0.10123	0.1867	0.43268	0.20884	0.1728	0.059638	0.4055	0.17703	0.033143	0.18908	0.21594	-0.60625	-0.1375	-0.95417	-0.68333	-0.10208	-1.3208	-0.54167	-0.7	-0.94167	-0.17708	-0.85625	-0.8375	-0.125	-0.95	-0.28958	-0.67292	-87.382	250.692	-86.737	86.752	-10.735	-20.022	150.584	221.870	-69.946	-35.644	196.326	195.121	263.059	-58.233	81.551	203.561	0.00012545	0.00044511	0.00035949	633.19	2.6585e-05	1.7293e-05	975.37	163.24	9.3781e-06	6.6548e-06	357.42	149.55	64.955	30.649	7.6489e-06	63.601	0.00051486	0.00052831	0.0001477	493.47	5.7759e-06	5.8742e-06	738.99	131.86	5.8436e-06	5.914e-06	275.38	113.83	52.009	24.223	5.9187e-06	48.605	187.876	53.257	107.399	-79.370	-8.914	-33.844	-79.344	-75.751	86.433	-61.764	-75.280	-71.786	-69.755	-65.853	59.846	-66.716	-8191	255	
2115.550	1	1	0	0	0.38492	0.066926	0.13603	0.37961	0.12508	0.051421	0.22738	0.14457	0.2108	0.083442	0.2462	0.091644	0.39545	0.10275	0.12379	0.2483	-0.64792	-0.10417	-0.88958	-0.91875	-0.34792	-1.0625	-0.65208	-0.53958	-1.1604	-0.2875	-1.1271	-1.0021	-0.24792	-1.1958	-0.59375	-0.37292	191.174	-58.048	155.518	245.860	20.871	83.557	263.593	192.095	45.219	141.233	91.288	14.154	180.783	201.747	132.445	119.515	0.0003586	0.0011513	0.0004231	640.22	1.0617e-05	1.4236e-05	973.38	165.56	1.1561e-05	1.8077e-06	360.04	150.83	65.117	30.959	3.5448e-06	63.527	0.00052616	0.00053851	0.00015091	495.98	5.9698e-06	6.0434e-06	742.91	133.62	5.8619e-06	5.9984e-06	278.14	115.36	52.675	24.444	6.1538e-06	48.748	165.335	29.641	-28.813	-79.602	4.303	115.502	-79.423	-75.360	15.296	169.624	-75.275	-72.092	-69.831	-65.732	139.860	-66.724	-8191	255	
2115.646	1	1	0	0	0.08882	0.084894	0.15038	0.45366	0.25061	0.014354	0.16135	0.10971	0.12308	0.28576	0.061708	0.10834	0.43726	0.18766	0.11756	0.12089	-0.57292	-0.17917	-0.66042	-0.76667	-0.14375	-1.0771	-0.66667	-0.52708	-1.1688	-0.24375	-0.84167	-1.0958	-0.20833	-1.0229	-0.54375	-0.41042	225.261	-81.071	-6.707	127.530	243.143	-33.299	-92.568	30.660	206.842	-56.448	204.604	161.616	245.593	226.484	-45.552	-84.751	0.00024791	0.0024735	0.00018302	640.09	8.5393e-06	9.5284e-06	971.92	166.07	7.896e-06	9.0307e-06	362.87	150.22	65.94	30.764	1.7399e-05	65.231	0.00054058	0.00055885	0.00015659	496.27	5.9902e-06	5.9785e-06	743.18	134.28	6.0336e-06	6.0161e-06	279	115.53	52.645	24.374	6.0905e-06	49.389	151.857	38.317	120.692	-78.914	-56.283	-33.009	-79.365	-75.257	35.459	202.230	-75.433	-71.706	-70.156	-65.513	115.068	-66.659	-8191	255	
2115.767	1	1	0	0	0.19848	0.17405	0.28352	0.098945	0.32365	0.22846	0.29191	0.38107	0.08036	0.23613	0.36413	0.13932	0.21459	0.11082	0.10422	0.033154	-0.65417	-0.2875	-0.48542	-1.0812	-0.25417	-0.80417	-0.8625	-0.31458	-0.95833	-0.42083	-0.59167	-1.0958	-0.11042	-0.87292	-0.94167	-0.40208	169.290	-4.247	-35.041	209.308	24.767	106.325	71.764	218.444	193.654	166.144	-51.801	235.748	238.611	83.262	47.129	239.639	0.00011727	0.00079621	0.00032794	637.75	8.6652e-06	1.7152e-05	968.12	167.5	5.4937e-06	2.181e-05	355.55	150.41	64.388	30.913	5.8572e-06	63.725	0.00053429	0.00055119	0.00015068	496.87	6.027e-06	6.0387e-06	739.37	134.61	5.933e-06	5.9979e-06	274.92	114.93	52.179	24.492	6.0457e-06	48.613	252.500	148.851	-44.968	-79.440	8.977	-88.651	-79.781	-75.595	63.875	140.113	-75.651	-71.437	-70.616	-65.545	79.811	-66.899	-8191	255	
2115.838	1	1	0	0	0.059137	0.15688	0.081361	0.12095	0.046085	0.29937	0.27607	0.08333	0.25286	0.16142	0.12666	0.34327	0.31878	0.2033	0.10416	0.15144	-0.77917	-0.38542	-0.47083	-1.1938	-0.17292	-0.71042	-0.91458	-0.21875	-1.0312	-0.56667	-0.47083	-1.1146	-0.28125	-0.75	-1.0667	-0.43125	61.645	176.433	19.308	212.342	170.645	56.651	-79.215	222.856	216.939	-56.433	-72.900	217.430	-62.966	-57.736	6.152	241.952	0.0002989	0.0008085	9.5436e-05	643.83	1.5686e-05	4.6732e-06	970.19	166.26	8.3114e-07	6.6047e-06	356.96	150.42	64.839	30.889	2.0441e-05	64.017	0.00053207	0.00053367	0.00014851	498.69	5.8402e-06	5.7798e-06	740.43	134.04	5.7321e-06	5.8274e-06	273.55	114.34	52.183	24.315	5.8542e-06	48.384	-91.467	-5.143	117.078	-79.386	104.603	-7.740	-79.944	-75.879	185.708	176.981	-76.202	-71.639	-70.427	-66.938	88.369	-67.349	-8191	255	
2115.935	1	1	0	0	0.20381	0.26772	0.29564	0.041368	0.048442	0.1523	0.20788	0.17576	0.20076	0.069433	0.27497	0.095462	0.27661	0.14179	0.19708	0.15823	-0.70417	-0.53542	-0.225	-1.0646	-0.10208	-0.75833	-1.0812	-0.50417	-0.91875	-0.6625	-0.36875	-0.96458	-0.45417	-0.5	-1.075	-0.23542	-6.767	63.629	212.298	258.373	131.368	125.081	206.613	258.792	86.726	242.648	238.684	72.541	208.051	-92.467	49.339	219.233	0.00018494	0.00041249	0.00037407	647.4	1.471e-05	8.6405e-06	974.64	169.73	1.7764e-05	1.5662e-05	359.47	150.67	65.204	30.632	1.0333e-05	64.129	0.00052753	0.00053148	0.00014283	498.42	5.6929e-06	5.6804e-06	741.33	135.25	5.8627e-06	5.7623e-06	275.88	114.57	52.25	24.394	5.6556e-06	48.766	161.359	-85.455	195.539	-79.219	107.128	155.074	-79.196	-74.810	20.404	169.013	-76.224	-71.178	-70.848	-66.082	47.696	-67.103	-8191	255	
2116.031	1	1	0	0	0.28297	0.35556	0.16442	0.018199	0.28482	0.0265	0.085806	0.08667	0.34229	0.27269	0.03952	0.29498	0.16032	0.21694	0.096002	0.11626	-0.43958	-0.61667	-0.15	-1.1958	-0.29792	-0.4375	-1.1437	-0.25417	-0.92917	-0.8125	-0.36875	-1.0771	-0.4625	-0.4125	-1.1542	-0.42292	87.104	120.030	215.231	146.661	-91.128	203.352	225.918	76.295	-28.664	-46.604	0.595	-89.031	124.141	-71.174	189.576	-69.114	0.0002271	0.0021235	9.4409e-05	646.36	8.3283e-06	9.8189e-06	971.55	170.01	1.4015e-05	3.6895e-06	360.96	149.83	65.85	30.989	9.9189e-06	64.378	0.00050895	0.00051868	0.000147	498.49	5.8145e-06	5.6728e-06	740.54	135.4	5.6962e-06	5.7484e-06	275.87	115.3	52.688	24.557	5.7795e-06	49.207	-75.360	3.429	95.951	-79.532	-66.383	42.181	-79.486	-75.635	91.384	154.529	-75.912	-71.821	-70.051	-66.186	23.422	-67.321	-8191	255	
2116.150	1	1	0	0	0.044216	0.1508	0.22918	0.16563	0.033848	0.30965	0.33452	0.22611	0.087791	0.069861	0.40465	0.046559	0.090993	0.25606	0.10851	0.23315	-0.48333	-0.90208	-0.089583	-1.0646	-0.51042	-0.36667	-1.0042	-0.17708	-0.64792	-0.86042	-0.33542	-1.0812	-0.70417	-0.38958	-1.2083	-0.65	228.168	45.063	55.750	100.677	186.181	113.839	202.540	119.342	135.592	97.114	248.561	59.469	190.459	210.507	181.695	189.646	0.00022047	0.0017391	0.00028574	647.49	3.0212e-06	1.704e-05	978.84	165.7	6.0785e-06	1.4845e-05	361.2	150.4	64.644	31.137	1.0262e-05	63.298	0.00052383	0.00053125	0.0001484	502.08	5.792e-06	5.673e-06	742.37	133.75	5.792e-06	5.7957e-06	276.12	114.81	52.24	24.436	5.694e-06	48.583	225.624	135.692	154.689	-79.518	-74.493	7.986	-79.470	-74.964	83.454	5.561	-75.729	-71.753	-69.569	-65.484	83.533	-67.312	-8191	255	
2116.246	1	1	0	0	0.22135	0.055444	0.17098	0.075783	0.32027	0.10431	0.30168	0.1345	0.22725	0.10135	0.24747	0.28617	0.10413	0.2265	0.05543	0.097937	-0.50625	-1.1063	-0.31875	-0.98542	-0.66458	-0.29792	-1.1896	-0.32083	-0.64583	-0.98958	-0.30208	-1.1167	-0.85417	-0.325	-1.35	-0.59583	213.003	108.913	183.752	266.184	160.482	246.799	257.960	212.198	69.027	125.729	251.466	142.037	221.335	234.371	-53.686	83.657	0.00010744	0.0015322	0.00028683	653.39	1.179e-05	5.1947e-06	971.51	165.55	4.9666e-06	1.5927e-05	355.52	148.7	64.309	31.028	3.1127e-06	63.419	0.00051813	0.00050593	0.00014718	500.23	5.6703e-06	5.7745e-06	739.95	133.87	5.7037e-06	5.6039e-06	273.78	113.68	51.942	24.418	5.767e-06	48.366	247.568	115.863	-55.380	-79.055	-36.630	66.474	-79.782	-75.739	263.798	161.515	-75.870	-71.612	-69.152	-66.001	-9.995	-66.671	-8191	255	
2116.342	1	1	0	0	0.1225	0.31368	0.078373	0.14166	0.044758	0.066935	0.090285	0.1514	0.11761	0.391	0.30256	0.4778	0.19038	0.01952	0.048021	0.10535	-0.095833	-0.82917	-0.29792	-0.85	-0.81875	-0.31042	-1.2125	-0.52083	-0.41667	-1.3521	-0.39167	-0.97292	-1.0208	-0.25	-1.1063	-0.71042	216.412	16.867	-33.475	231.897	2.571	143.813	183.284	62.810	-54.209	92.726	254.155	-56.612	215.375	257.670	-0.532	148.804	0.00026279	0.00093118	8.9907e-05	636.37	9.2385e-06	2.0159e-06	970.06	166.2	1.247e-05	2.9158e-06	355.38	148.67	64.328	31.336	4.6966e-06	63.461	0.00051232	0.00050915	0.00014838	496.76	5.5769e-06	5.6893e-06	739.96	133.67	5.5966e-06	5.6412e-06	274.29	113.95	52.038	24.621	5.8154e-06	48.507	177.759	-7.880	249.919	-79.128	88.763	153.704	-79.072	-75.845	105.517	264.001	-76.105	-71.850	-70.180	-65.889	191.934	-67.309	-8191	255	
2116.415	1	1	0	0	0.234	0.23447	0.24781	0.2463	0.31456	0.11554	0.14097	0.16047	0.24265	0.19504	0.17425	0.22995	0.1446	0.16358	0.15316	0.36213	-0.033333	-1.1083	-0.38542	-0.75	-0.94375	-0.11042	-1.0021	-0.63125	-0.32083	-1.2208	-0.40625	-0.72083	-1.0625	-0.17292	-0.99375	-0.93333	-53.462	189.132	-48.778	202.075	-69.635	190.562	207.555	61.126	256.273	17.542	232.307	-48.174	-61.640	-82.535	240.573	185.842	0.00014833	0.0021096	0.0003159	638.4	7.6369e-06	2.6594e-06	968.03	165.29	7.1747e-06	1.264e-05	357.62	149.32	64.813	31.549	1.4667e-05	64.404	0.00052437	0.0005244	0.00014763	496.25	5.9241e-06	5.9227e-06	739.85	133.11	5.9726e-06	5.9348e-06	275.81	114.49	52.336	24.775	6.0785e-06	49.104	159.606	36.109	-73.294	-79.704	80.674	-63.188	-78.848	-75.054	66.194	-20.961	-76.152	-71.587	-69.103	-65.802	91.362	-67.293	-8191	255	
2116.534	1	1	0	0	0.22547	0.23734	0.15683	0.21714	0.10645	0.095513	0.063924	0.1471	0.26061	0.11199	0.15746	0.29527	0.11439	0.31095	0.15164	0.01005	-0.27917	-1.2188	-0.675	-0.77292	-1.1979	-0.14167	-1.1375	-0.66458	-0.34375	-1.1833	-0.6	-0.5125	-1.0438	-0.41667	-0.86875	-0.925	241.073	246.385	248.367	99.443	265.870	187.885	9.273	65.666	134.296	-91.962	143.842	-18.268	2.918	-89.376	166.316	50.325	8.0805e-05	0.0015401	0.00018537	644.97	6.1295e-06	8.8593e-06	965.58	164.95	1.9245e-05	2.1018e-05	360.01	150.09	64.063	31.408	1.0927e-05	64.038	0.00053995	0.00055772	0.00015157	499.87	5.8645e-06	5.9205e-06	737.45	133.27	5.8743e-06	5.9085e-06	274.47	114.55	52.076	24.643	5.836e-06	48.829	127.387	-61.103	-70.890	-79.445	5.359	91.215	-79.194	-75.119	22.298	52.083	-75.102	-71.444	-69.635	-66.560	115.173	-67.016	-8191	255	
2116.630	1	1	0	0	0.022422	0.10017	0.26694	0.33479	0.21209	0.10974	0.31111	0.52897	0.32373	0.079115	0.20114	0.27722	0.1956	0.34251	0.090445	0.059066	0.29583	-1.0375	-0.38333	-0.56458	-1.1104	-0.3	-0.93542	-0.81042	-0.24167	-1.0583	-0.68125	-0.37708	-1.2354	-0.45833	-0.68542	-1.3083	-77.772	217.404	37.354	216.875	-62.944	165.670	223.546	143.917	-61.064	205.925	-72.356	-88.957	54.100	185.278	139.540	122.748	0.00013042	0.00062726	0.00037137	631.19	9.5972e-06	1.1962e-05	956.97	165.89	9.8233e-06	4.3806e-06	354.42	148.7	64.386	31.268	5.8064e-06	62.913	0.00052244	0.00053367	0.00014639	495.2	5.938e-06	5.9909e-06	733.25	133.13	6.0296e-06	5.9813e-06	273.48	114.11	52.285	24.571	5.9809e-06	48.138	103.474	-46.422	-15.064	-79.553	-57.606	-12.997	-79.400	-75.732	13.415	97.519	-75.638	-71.914	-70.267	-65.960	-18.647	-66.702	-8191	255	
2116.726	1	1	0	0	0.13627	0.30301	0.097287	0.13735	0.24325	0.072067	0.17464	0.25268	0.02656	0.25301	0.18871	0.24983	0.18572	0.16916	0.32954	0.058636	0.36042	-1.1708	-0.73125	-0.29167	-1.1854	-0.41042	-0.90417	-1.0562	-0.37083	-1.0396	-0.82708	-0.16875	-1.2104	-0.5125	-0.42083	-1.2208	226.511	239.938	-67.518	183.193	-55.265	233.608	138.655	160.347	182.945	243.309	213.202	253.075	249.433	185.122	5.961	-22.543	6.9432e-05	0.00085865	0.00015932	633.38	9.8046e-06	1.3363e-05	959.02	165.13	9.3757e-06	1.6701e-05	355.14	151.48	64.667	31.314	7.1867e-06	63.398	0.00052665	0.00054388	0.00015384	495.28	6.0815e-06	6.1412e-06	734.53	133.4	6.1695e-06	6.1326e-06	273.06	114.98	52.483	24.666	6.2063e-06	48.639	215.578	206.238	-35.147	-79.121	20.836	133.953	-78.969	-75.236	134.541	33.673	-75.561	-71.666	-69.741	-65.464	259.867	-66.721	-8191	255	
2116.847	1	1	0	0	0.18739	0.056248	0.044093	0.20222	0.26891	0.23931	0.094244	0.26807	0.26219	0.16736	0.10686	0.066786	0.12925	0.12472	0.18069	0.072323	0.22292	-0.96667	-0.95208	-0.31667	-1.0833	-0.53333	-0.425	-1.1354	-0.3625	-0.85833	-0.6875	-0.2	-1.1896	-0.59167	-0.46458	-1.2542	75.807	79.684	-60.924	30.443	84.532	192.983	128.859	20.598	-50.594	70.401	-84.443	-62.680	221.410	208.612	142.901	-70.074	0.00024441	0.00037019	9.7754e-05	630.57	3.2338e-06	1.0283e-05	962.72	167.46	7.4889e-06	1.4017e-05	359.55	150.58	65.184	31.498	2.9857e-06	64.724	0.00056348	0.00056396	0.00015576	493.4	6.1232e-06	6.1577e-06	739.22	134.02	6.2064e-06	6.2773e-06	277.25	115.89	52.722	24.74	6.2073e-06	49.46	197.969	117.377	256.362	-78.840	113.452	53.085	-79.663	-75.299	-31.882	9.148	-76.595	-71.256	-69.546	-66.142	49.038	-66.474	-8191	255	
2116.943	1	1	0	0	0.25891	0.13475	0.11637	0.32679	0.097891	0.17929	0.19625	0.088897	0.26123	0.1767	0.087098	0.22924	0.1851	0.27781	0.089	0.026277	0.11458	-0.88333	-0.83958	-0.17917	-0.88542	-0.41667	-0.53958	-1.0583	-0.22917	-0.60625	-1.0125	-0.225	-1.0688	-0.69583	-0.38125	-1.1458	223.246	172.478	43.798	257.617	52.926	87.295	-60.238	-70.680	101.897	-3.945	206.449	223.793	163.314	116.482	-91.671	-61.889	6.2029e-05	0.0019675	0.00061483	624.47	1.3357e-05	1.153e-05	981.77	163.77	7.3251e-06	6.5769e-06	358.8	150.25	66.063	31.832	2.3365e-06	64.133	0.00054428	0.00057237	0.00015912	493.55	6.1399e-06	6.1727e-06	742.89	133.48	6.1986e-06	6.2154e-06	277.18	115.68	53.094	24.932	6.0615e-06	49.13	147.302	42.683	241.052	-79.812	14.554	101.751	-78.947	-75.048	-27.964	-42.831	-75.723	-71.500	-69.770	-64.935	149.605	-66.549	-8191	255	
2117.038	1	1	0	0	0.10525	0.042591	0.28074	0.36686	0.27751	0.36935	0.37177	0.13702	0.26054	0.15437	0.22382	0.17234	0.065528	0.038356	0.11498	0.08801	0.039583	-0.51042	-1.0812	-0.24583	-1	-0.85208	-0.39583	-1.3729	-0.41667	-0.58333	-1.225	-0.4	-0.85833	-0.77708	-0.36458	-1.1792	152.779	238.055	159.235	247.252	43.579	160.102	223.962	203.740	87.341	264.857	-42.791	-47.979	184.923	7.970	224.182	221.580	0.00032811	0.0015818	0.00011888	640.2	1.2636e-05	9.7967e-06	966	165.98	6.9282e-06	1.0892e-05	355.7	151.25	64.888	32.148	1.073e-05	64.202	0.0005611	0.00056284	0.00015682	496.3	6.2679e-06	6.2136e-06	740.62	133.28	6.2909e-06	6.1714e-06	275.32	115.43	52.826	25.059	6.3045e-06	49.009	180.447	40.869	-11.697	-79.273	175.088	201.417	-79.391	-75.291	40.430	196.810	-75.774	-71.060	-69.489	-65.664	64.059	-66.689	-8191	255	
2117.136	1	1	0	0	0.22089	0.091255	0.17662	0.34767	0.17566	0.26091	0.13821	0.20996	0.32233	0.19865	0.15551	0.44991	0.10501	0.26489	0.19159	0.15027	-0.04375	-0.26875	-1.1688	-0.40208	-0.75417	-0.90208	-0.36042	-1.25	-0.57708	-0.26667	-1.4229	-0.32083	-0.71458	-0.99375	-0.22292	-1.0896	239.427	-71.343	-43.692	118.324	-32.775	34.314	175.645	247.076	119.425	201.769	-7.521	251.493	111.883	-57.644	-15.903	224.296	0.00024673	0.0014419	0.00044444	636.59	3.349e-06	9.1e-06	978.31	164.04	8.9137e-06	1.0054e-05	357.68	151.68	66.872	31.939	1.3932e-05	65.833	0.00056538	0.00057224	0.00015962	496.19	6.3222e-06	6.1855e-06	747.73	132.92	6.2553e-06	6.2732e-06	276.51	116.29	53.954	25.039	6.2133e-06	49.782	235.918	33.611	-10.981	-79.562	37.942	63.841	-79.602	-74.368	131.861	-22.175	-75.508	-71.650	-68.708	-66.313	236.840	-66.856	-8191	255	
2117.230	1	1	0	0	0.12356	0.26078	0.26755	0.14164	0.087907	0.16414	0.24355	0.011621	0.13193	0.2667	0.18879	0.18445	0.1061	0.12617	0.22362	0.23549	-0.30625	-0.27292	-1.0229	-0.35	-0.51458	-1.1083	-0.25417	-0.92917	-0.83958	-0.35833	-1.1646	-0.47917	-0.58958	-1.1417	-0.064583	-0.98125	127.524	-26.713	68.572	-42.258	-26.809	9.984	226.864	124.521	133.638	235.403	211.839	224.441	232.388	87.178	122.001	235.729	0.00026345	0.00013772	0.00038078	640.93	9.0145e-06	4.299e-06	975.71	164.76	7.5326e-06	2.9239e-05	362.1	152.86	65.15	32.585	2.051e-06	65.515	0.00057257	0.00057066	0.00015722	499.12	6.3247e-06	6.2147e-06	748.52	133.45	6.2262e-06	6.2168e-06	278.39	117.17	53.134	25.449	6.1957e-06	50.267	241.699	143.058	137.710	-79.431	117.036	-88.501	-79.220	-75.433	224.076	-36.888	-75.464	-71.474	-68.923	-65.696	-54.337	-66.563	-8191	255	
2117.326	1	1	0	0	0.10116	0.33114	0.14237	0.11665	0.31576	0.36992	0.31799	0.036042	0.20917	0.13152	0.10416	0.19136	0.18331	0.164	0.13036	0.16373	-0.2875	-0.22708	-0.95833	-0.3625	-0.55208	-1.0875	-0.35833	-0.77292	-0.7875	-0.20625	-1.2313	-0.44792	-0.50208	-1.1875	-0.19792	-0.93333	250.201	-16.285	120.366	-25.527	93.049	75.734	2.981	104.534	211.006	125.146	-19.101	240.705	190.905	262.198	-44.792	178.239	0.00029183	0.00093264	0.00052389	639.41	1.8643e-05	1.6341e-05	987.46	165.94	4.3332e-06	1.1453e-05	361.12	152.78	66.347	32.999	5.9098e-06	65.707	0.00055061	0.00056121	0.00015453	499.26	6.0671e-06	6.0044e-06	752.9	134.62	5.9993e-06	6.0935e-06	278.76	117.1	53.389	25.458	6.169e-06	50.128	187.161	66.535	-43.450	-79.549	53.176	-10.640	-79.524	-74.857	170.505	19.855	-75.383	-70.942	-69.976	-66.104	3.033	-66.336	-8191	255	
2117.447	1	1	0	0	0.10314	0.025781	0.077091	0.26905	0.067299	0.13486	0.31395	0.21531	0.23326	0.078702	0.2944	0.31384	0.1509	0.043107	0.2027	0.19	-0.41667	-0.49375	-1.0875	-0.64375	-0.30417	-1.4125	-0.48542	-0.75833	-1.1187	-0.29167	-1.2458	-0.62708	-0.40208	-1.2104	-0.35625	-0.66042	227.502	245.530	183.195	188.350	182.082	75.209	183.484	168.936	-15.352	-4.498	129.350	161.758	-50.630	174.853	66.956	258.776	0.00022295	0.00078495	0.00022678	642.4	3.8643e-06	9.12e-06	976.18	166.72	6.8755e-06	2.3508e-05	353.55	151.01	66.537	32.37	5.4729e-06	65.138	0.00051999	0.00053902	0.00014667	499.62	5.7169e-06	5.8676e-06	748.17	134.31	5.6829e-06	5.6844e-06	274.62	115.18	53.121	25.236	5.7255e-06	49.305	135.568	-48.324	-3.985	-79.480	175.360	78.592	-78.766	-74.795	-50.591	-1.861	-75.622	-71.137	-69.394	-65.608	83.376	-66.348	-8191	255	
2117.543	1	1	0	0	0.31786	0.25662	0.029171	0.29384	0.17839	0.30182	0.21177	0.072095	0.11045	0.28678	0.35439	0.099545	0.082656	0.066423	0.060789	0.3902	-0.6375	-0.075	-0.94792	-0.74375	-0.51458	-1.0271	-0.375	-0.69583	-0.93333	-0.38125	-1.1	-1.0125	-0.38333	-1.3375	-0.57917	-0.5875	208.843	194.860	37.509	-77.564	109.944	-38.407	195.958	224.823	263.294	45.840	251.601	211.106	211.800	-89.859	-39.300	180.416	0.00016583	0.0012739	0.0002107	657.15	2.1927e-06	9.5586e-06	978.95	168.42	7.2351e-06	9.0268e-06	361.86	153.01	66.799	32.981	5.2764e-06	65.511	0.00049533	0.00051533	0.00014518	504.67	5.5524e-06	5.5172e-06	745.82	134.6	5.5655e-06	5.4743e-06	275.52	115.78	53.237	25.429	5.7223e-06	49.542	201.928	48.458	-41.485	-78.669	145.254	140.343	-78.576	-75.465	152.697	11.281	-74.443	-70.207	-69.137	-64.856	170.771	-66.485	-8191	255	
2117.639	1	1	0	0	0.16975	0.11026	0.092366	0.16701	0.35531	0.30829	0.21947	0.12467	0.27571	0.081896	0.20566	0.11623	0.04192	0.27878	0.089307	0.1567	-0.8	-0.24583	-0.80625	-0.80417	-0.21875	-1.3875	-0.76875	-0.41875	-1.1313	-0.24375	-0.95208	-1.0146	-0.3	-1.0854	-0.57292	-0.62083	195.949	181.985	32.192	2.390	181.152	186.742	93.928	146.431	52.034	-80.025	-61.800	258.407	234.277	-31.064	65.120	230.226	0.00022544	0.00099768	0.0001369	652.38	1.1218e-05	1.8846e-05	988.24	166.19	1.7369e-05	8.4867e-06	354.75	151.36	66.798	32.541	8.2418e-06	65.218	0.00049793	0.00050264	0.00014046	501.67	5.4673e-06	5.5438e-06	748.71	133.52	5.616e-06	5.5696e-06	274.71	115.57	53.515	25.383	5.6979e-06	49.979	152.506	52.057	-0.815	-78.714	54.037	36.329	-78.799	-74.315	46.100	208.076	-74.938	-70.869	-69.721	-64.985	-16.352	-66.201	-8191	255	
2117.711	1	1	0	0	0.21065	0.35499	0.28268	0.078923	0.066266	0.23773	0.19806	0.090044	0.52491	0.026789	0.25887	0.29465	0.14811	0.31961	0.004038	0.21474	-0.75417	-0.39375	-0.66667	-1.1625	-0.2125	-1.1417	-0.86458	-0.3125	-1.25	-0.41458	-0.825	-1.1437	-0.19167	-1.1042	-0.78333	-0.49583	184.924	200.075	77.653	261.482	113.720	15.272	228.268	58.987	149.442	-76.305	238.493	247.702	222.382	215.429	-82.542	139.803	0.00014081	0.0006835	0.000315	647.31	3.5823e-06	1.3371e-05	979.64	170.09	1.3966e-05	1.0839e-05	367.51	154.44	66.865	33.04	3.8954e-06	66.957	0.00050753	0.00051622	0.00014239	500.96	5.6713e-06	5.6518e-06	748.45	135.45	5.5908e-06	5.6401e-06	277.98	116.94	53.556	25.658	5.4267e-06	50.323	213.082	167.842	-86.164	-78.863	248.531	138.524	-78.719	-74.113	138.888	-61.826	-74.911	-70.718	-69.449	-64.604	120.405	-66.563	-8191	255	
2117.807	1	1	0	0	0.27598	0.11109	0.2476	0.13732	0.11154	0.33299	0.072388	0.24107	0.050406	0.1644	0.042018	0.36542	0.16205	0.25438	0.064374	0.217	-0.925	-0.45833	-0.54375	-1.1104	-0.3625	-0.84583	-0.97917	-0.3	-1.1688	-0.63333	-0.625	-1.2229	-0.38125	-0.86458	-0.86458	-0.39167	-74.710	128.156	251.546	117.821	181.743	162.262	7.860	99.647	132.715	120.857	180.933	171.683	75.293	-58.138	168.188	75.183	0.00023047	0.0013899	0.00031803	647.95	9.6947e-06	1.4816e-05	984.87	165.35	6.1343e-06	1.7656e-05	356.77	151.86	65.918	32.787	6.7744e-06	65.875	0.000489	0.00050001	0.00013552	500.6	5.4418e-06	5.3719e-06	745.32	133.12	5.4019e-06	5.3732e-06	273.28	115.32	53.134	25.447	5.371e-06	49.533	241.844	-58.735	219.328	-79.166	-41.908	144.679	-78.906	-74.825	109.948	92.540	-75.402	-71.878	-69.982	-65.832	5.333	-66.827	-8191	255	
2117.927	1	1	0	0	0.29244	0.21669	0.17943	0.14328	0.12135	0.25316	0.049639	0.25753	0.13173	0.18199	0.22459	0.2621	0.2719	0.13423	0.26828	0.22783	-0.90417	-0.6375	-0.66458	-1.2083	-0.28542	-0.85208	-0.9125	-0.43125	-1.1313	-0.50625	-0.48542	-1.2375	-0.41875	-0.80625	-0.97917	-0.24167	197.428	174.484	161.905	120.324	-62.575	-72.990	-83.255	-70.908	-66.283	6.211	167.380	266.707	-85.194	-31.712	148.199	185.492	0.00013567	0.00052	0.00015636	648.21	1.4679e-05	1.8681e-05	979.14	167.5	3.8151e-07	1.9187e-05	357.7	150.76	65.872	32.659	7.0231e-06	65.66	0.00048	0.00048765	0.00013681	499.17	5.358e-06	5.3329e-06	744.65	133.79	5.3996e-06	5.365e-06	272.5	114.32	52.92	25.527	5.3483e-06	49.607	160.329	209.444	118.482	-79.194	29.419	84.411	-79.011	-75.077	-28.435	75.490	-75.353	-71.156	-68.942	-64.561	-37.439	-66.386	-8191	255	
2118.024	1	1	0	0	0.20601	0.066107	0.2434	0.30557	0.11514	0.1317	0.16572	0.15248	0.14345	0.3283	0.069564	0.31819	0.08569	0.37898	0.11495	0.22344	-0.7125	-0.65417	-0.43542	-1.0667	-0.51875	-0.61458	-1.3104	0.035417	-0.9375	-0.78333	-0.22083	-1.1792	-0.64583	-0.58958	-0.97083	-0.25208	234.102	136.735	175.973	140.947	-58.160	105.361	264.903	141.831	31.843	116.775	221.684	230.702	76.449	-27.000	173.116	208.853	0.00045332	0.00084441	0.00012733	648.3	7.5385e-06	8.7093e-06	975.17	167.63	1.2495e-05	2.5809e-05	356.03	151.99	67.007	32.923	7.0199e-06	65.726	0.00049035	0.0004885	0.00013768	500.28	5.4071e-06	5.4899e-06	740.47	133.17	5.4616e-06	5.3805e-06	272.43	115.3	53.272	25.607	5.3089e-06	49.762	163.566	243.673	118.305	-79.181	102.696	-50.072	-78.077	-74.038	76.362	24.165	-75.234	-71.042	-68.827	-65.134	159.116	-65.942	-8191	255	
2118.120	1	1	0	0	0.18949	0.053971	0.10467	0.065105	0.065104	0.1856	0.28622	0.16188	0.17349	0.1767	0.21461	0.30188	0.13734	0.20325	0.48894	0.071395	-0.63958	-0.74167	-0.35417	-1.2083	-0.71875	-0.51875	-1.4333	-0.20417	-1.0021	-0.93333	-0.46458	-1.1833	-0.65	-0.36667	-1.1417	-0.20208	94.330	69.927	101.109	94.350	95.747	134.745	163.916	189.538	-64.831	83.611	-64.143	254.985	90.772	221.348	-11.184	-32.530	0.00031106	0.0019189	0.00015534	652.24	1.8075e-06	2.0622e-05	990.9	166.75	3.1613e-06	4.5508e-06	359.3	152.72	67.313	33.207	7.1951e-06	66.117	0.00048715	0.00048585	0.00013377	503.22	5.3751e-06	5.4502e-06	748.76	132.99	5.5638e-06	5.3988e-06	273	115.85	53.388	25.674	5.521e-06	50.155	203.304	-67.341	61.902	-78.635	241.183	94.010	-78.206	-74.828	191.438	93.342	-75.216	-70.295	-68.794	-64.241	143.277	-65.640	-8191	255	
2118.239	1	1	0	0	0.062811	0.19516	0.30409	0.070033	0.20752	0.045914	0.26431	0.12709	0.075281	0.25566	0.26986	0.17209	0.17509	0.27761	0.09355	0.30173	-0.38542	-0.90625	-0.375	-1.2229	-0.57917	-0.41458	-1.2979	-0.38542	-0.76458	-0.98958	-0.25625	-1.2625	-0.95208	-0.42917	-1.3354	-0.48125	149.695	85.814	64.792	201.427	112.451	257.426	209.010	74.964	-62.130	209.832	-60.463	264.224	224.769	208.449	-20.909	169.670	3.4997e-05	0.0011389	8.6012e-05	656.71	8.4301e-06	1.3461e-05	992.64	168.29	1.5743e-05	1.4452e-05	358.39	151.92	66.158	32.763	1.5463e-05	65.551	0.00048845	0.00049216	0.00013732	503.69	5.4352e-06	5.4265e-06	750.35	133.41	5.4784e-06	5.4019e-06	272.04	115.27	52.828	25.525	5.5203e-06	49.407	254.015	-32.429	14.486	-77.907	-33.078	-32.963	-78.939	-74.219	42.885	31.580	-74.269	-70.826	-68.853	-65.211	244.014	-66.285	-8191	255	
2118.310	1	1	0	0	0.30592	0.28643	0.24112	0.18803	0.23054	0.11705	0.070215	0.19613	0.1399	0.23912	0.18755	0.11236	0.082316	0.30631	0.29329	0.11807	-0.3875	-1.1542	-0.09375	-1.0354	-0.83542	-0.50417	-1.3917	-0.34167	-0.55833	-1.2146	-0.41667	-1.1479	-0.90208	-0.35	-1.0625	-0.525	54.925	80.522	-13.067	255.723	-60.448	44.326	223.865	132.182	161.143	263.883	-86.283	210.462	-81.093	160.318	48.481	104.202	0.00043387	0.0011673	8.6484e-05	655.7	1.3834e-05	7.1058e-06	994.24	164.44	5.6064e-06	1.3416e-05	352.35	152.2	66.493	33.285	5.763e-06	65.453	0.00049682	0.00050663	0.00013999	504.32	5.3398e-06	5.4692e-06	753.92	131.32	5.3129e-06	5.39e-06	271.29	115.41	53.307	25.796	5.5828e-06	49.466	240.138	212.774	-30.499	-79.162	62.336	-75.932	-78.790	-74.379	13.581	54.806	-75.608	-70.465	-68.864	-65.582	-75.047	-66.423	-8191	255	
2118.408	1	1	0	0	0.19739	0.26124	0.12851	0.079152	0.38331	0.15531	0.42941	0.1968	0.18439	0.22944	0.031374	0.20472	0.14397	0.26879	0.072785	0.20784	-0.0875	-1.4312	-0.25208	-1	-0.825	-0.19792	-1.1958	-0.55	-0.26667	-1.2896	-0.34583	-0.9375	-0.91042	-0.016667	-1.0875	-0.6875	198.752	91.392	150.381	-38.712	145.010	17.581	186.734	150.197	43.468	122.272	72.086	231.685	232.522	265.967	114.832	151.774	0.00014192	0.00089683	0.00019837	655.08	2.0695e-05	8.9441e-06	998.48	165.25	1.7302e-06	2.3969e-05	355.42	152.9	66.414	33.484	1.2369e-05	66.061	0.00048572	0.00050066	0.00013913	505.47	5.3279e-06	5.3545e-06	760.5	132.73	5.2479e-06	5.1786e-06	270.32	115.86	52.852	25.75	5.108e-06	50.001	235.693	65.732	218.022	-78.935	-45.897	144.712	-78.901	-75.316	164.430	-60.673	-75.085	-70.735	-68.687	-65.043	111.424	-66.556	-8191	255	
2118.527	1	1	0	0	0.058797	0.20365	0.11225	0.47918	0.11626	0.17807	0.24495	0.30897	0.23155	0.17331	0.17135	0.19809	0.252	0.28988	0.12503	0.20809	-0.10208	-0.99583	-0.35208	-0.74583	-1.0146	-0.27292	-1.2271	-0.65625	-0.28333	-1.2146	-0.56042	-0.70208	-1.0521	-0.225	-1.0229	-0.84583	43.209	-37.877	54.087	241.395	239.135	24.224	147.433	235.330	-24.529	70.138	194.162	222.644	-49.809	-42.845	259.754	96.673	0.00017618	0.0015651	8.7734e-05	661.01	1.4023e-06	1.2036e-05	1006.5	167.87	5.762e-06	6.8431e-06	357.54	154.93	68.021	33.663	1.3076e-05	67.111	0.00045849	0.00046715	0.00012849	508.56	5.1457e-06	5.1832e-06	764.55	133.18	5.3672e-06	5.3758e-06	272.75	117.01	53.685	26.116	5.3749e-06	50.606	8.112	224.909	59.454	-78.603	42.003	228.524	-78.709	-73.882	-0.957	51.082	-75.287	-70.723	-68.822	-65.883	3.819	-66.165	-8191	255	
2118.623	1	1	0	0	0.12461	0.23096	0.11018	0.33453	0.29534	0.25025	0.16491	0.44459	0.16126	0.19667	0.24662	0.16391	0.094923	0.18972	0.23687	0.173	-0.075	-1.0604	-0.4375	-0.71458	-1.2604	-0.17708	-1.1229	-0.81042	-0.10833	-1.2417	-0.66042	-0.43542	-1.1667	-0.24792	-0.65208	-1.0812	-6.214	116.728	206.254	170.669	14.931	102.097	-57.407	246.361	34.358	53.704	19.111	247.953	247.531	-55.598	-55.638	119.199	0.00015017	0.00037688	0.0003885	657.8	3.2133e-06	4.7864e-06	1000.1	166.21	4.6968e-06	1.8619e-05	355.8	153.43	67.609	33.226	3.0137e-06	65.62	0.00047768	0.00049854	0.00013741	505.64	5.4084e-06	5.4098e-06	756.43	132.67	5.3657e-06	5.4922e-06	270.19	115.74	53.415	25.83	5.5053e-06	49.898	179.980	204.458	256.874	-78.476	2.451	-51.210	-78.427	-74.511	42.388	52.439	-75.523	-70.942	-69.089	-65.321	161.168	-66.267	-8191	255	
2118.719	1	1	0	0	0.25409	0.042273	0.10415	0.066512	0.077026	0.25439	0.17058	0.089906	0.26974	0.13967	0.35657	0.48296	0.12034	0.13325	0.32926	0.15564	-0.072917	-1.15	-0.64375	-0.45	-1.2958	-0.44375	-1.0625	-0.88125	-0.070833	-1.2625	-0.6	-0.4	-1.1083	-0.21875	-0.825	-1.1	112.600	234.997	153.732	80.525	4.414	125.816	192.801	215.638	8.808	-41.460	191.981	-84.422	-67.847	221.637	-58.202	189.192	0.00033851	0.0011814	0.00016053	658.93	7.8938e-06	4.7482e-06	992.4	166.79	8.8147e-06	7.3137e-06	353.57	152.15	67.359	33.228	8.7262e-06	66.386	0.00048453	0.00049215	0.0001398	505.31	5.3121e-06	5.533e-06	756.53	132.41	5.3313e-06	5.4507e-06	270.86	116.18	53.545	25.823	5.4203e-06	50.235	189.483	87.374	-44.576	-77.908	24.185	-72.749	-78.367	-73.327	72.179	151.413	-74.135	-70.529	-69.125	-64.798	9.385	-65.789	-8191	255	
2118.816	1	1	0	0	0.48151	0.21057	0.20924	0.10323	0.12494	0.10947	0.19699	0.11713	0.099547	0.063972	0.17255	0.16313	0.10107	0.07014	0.083641	0.39712	0.18125	-1.0542	-0.63333	-0.36042	-1.0292	-0.34583	-0.77292	-1.0083	-0.31042	-0.89583	-0.77917	-0.43958	-1.0542	-0.55625	-0.50833	-1.1854	245.492	-57.959	-50.880	15.851	-67.215	110.361	221.425	256.756	-89.542	221.760	194.404	235.448	193.500	-91.340	95.201	183.832	0.00028566	0.0008903	0.00021581	657.65	1.1756e-05	1.4633e-05	1020	168.99	6.9569e-06	1.2399e-05	357.28	153.7	67.321	33.638	9.7545e-06	66.609	0.00049088	0.00049639	0.00013658	507.39	5.4132e-06	5.2589e-06	766.32	133.72	5.3917e-06	5.4517e-06	273.44	116.14	53.859	26.049	5.5071e-06	50.521	169.602	35.029	63.828	-78.617	1.234	-60.344	-78.651	-73.679	151.081	15.705	-74.645	-70.632	-68.860	-65.326	-7.472	-66.811	-8191	255	
2118.936	1	1	0	0	0.025004	0.10516	0.12733	0.24957	0.10318	0.053707	0.15876	0.25674	0.23464	0.35093	0.26776	0.076115	0.20799	0.17231	0.070799	0.30219	-0.014583	-0.92917	-0.89583	-0.39792	-1.1896	-0.56667	-0.71042	-1.2958	-0.22083	-0.85	-1.1396	-0.29583	-1.1938	-0.6125	-0.36667	-1.3813	14.364	-92.135	-26.946	244.520	66.007	41.488	227.288	165.465	202.329	91.944	-76.607	204.321	28.275	72.934	257.618	233.885	0.0001298	0.0014677	0.00015513	665.05	4.063e-06	7.5764e-06	1012.4	165.4	1.6293e-05	1.4653e-05	356.36	155.21	68.186	33.699	6.0112e-06	66.708	0.00050006	0.00048738	0.00013745	511.91	5.5393e-06	5.4785e-06	771.15	133.07	5.411e-06	5.4687e-06	273.38	116.78	54.261	26.177	5.5891e-06	50.854	-81.080	264.272	216.448	-78.680	7.731	244.581	-79.135	-74.944	72.195	-9.597	-75.305	-70.985	-69.218	-66.238	88.799	-66.527	-8191	255	
2119.008	1	1	0	0	0.060306	0.19385	0.12264	0.29966	0.3313	0.047931	0.20136	0.16806	0.41318	0.25492	0.15452	0.31829	0.20164	0.33543	0.17215	0.05545	0.054167	-0.75	-0.98958	-0.56667	-1.0625	-0.73542	-0.48333	-1.1271	-0.37292	-0.70833	-0.96042	-0.40417	-1.2875	-0.86042	-0.37708	-1.1708	156.416	116.667	218.591	-7.028	-32.723	204.530	224.965	253.401	29.737	-65.424	204.670	-87.610	0.008	-13.123	109.578	167.407	0.00026248	0.001682	9.9002e-05	664.65	2.0953e-06	9.8609e-06	1002.4	167.31	5.2462e-06	1.414e-05	352.86	151.99	66.99	33.263	1.4918e-05	64.852	0.00050515	0.00051464	0.00014477	509.89	5.6727e-06	5.728e-06	756.95	133.52	5.7039e-06	5.8097e-06	272.55	115.95	53.805	25.808	5.8104e-06	49.537	163.964	-5.230	86.948	-78.206	214.962	138.872	-78.736	-74.173	-27.796	57.596	-74.925	-70.624	-69.555	-64.975	-5.647	-65.939	-8191	255	
2119.128	1	1	0	0	0.12678	0.27286	0.10222	0.3386	0.030468	0.09257	0.2977	0.047447	0.23288	0.12693	0.051255	0.33541	0.34696	0.13752	0.084437	0.1867	-0.31458	-0.59167	-1.2313	-0.4125	-1.0229	-1.0771	-0.425	-1.2042	-0.55	-0.8875	-1.0375	-0.2	-0.88125	-0.73333	-0.18125	-1.2271	197.982	-2.868	210.337	210.930	88.925	167.997	220.708	203.922	148.592	220.966	148.688	-59.085	196.240	238.027	108.220	259.201	0.00010655	0.00068274	0.0002439	646.73	1.4826e-05	1.0888e-05	978.45	167.25	3.2513e-06	1.5435e-05	352.27	150.46	67.074	32.845	4.3383e-06	65.684	0.00052282	0.00053974	0.00014757	503.72	5.8728e-06	5.9375e-06	747.95	134.43	5.8715e-06	5.9505e-06	271.33	115.39	54.086	25.655	6.0064e-06	49.734	124.171	69.782	258.346	-78.839	-58.571	-15.279	-78.897	-75.092	190.924	85.893	-74.684	-71.731	-69.004	-65.213	156.025	-66.305	-8191	255	
2119.223	1	1	0	0	0.063797	0.25061	0.23601	0.070616	0.2664	0.033744	0.080845	0.15643	0.041057	0.20336	0.28948	0.28822	0.17512	0.18468	0.047964	0.043469	-0.24583	-0.39375	-1.1938	-0.36667	-0.90833	-0.9	-0.56458	-1.1875	-0.77292	-0.42917	-1.2917	-0.475	-0.98333	-1.1396	-0.42083	-1.3292	231.583	-63.761	22.746	-87.510	83.475	-66.237	67.481	-44.672	247.148	168.529	250.320	-21.256	47.175	237.691	102.751	79.165	0.00016624	0.0011721	0.00025154	655.26	2.299e-06	1.0766e-05	980.05	170.18	6.0215e-06	5.2027e-07	351.12	151.21	66.389	32.926	7.6254e-06	65.35	0.00053027	0.00054143	0.00015302	504.93	5.9418e-06	5.9562e-06	747.52	136.29	6.0945e-06	6.0692e-06	273.33	115.94	53.955	25.804	6.1906e-06	49.682	35.934	-3.645	222.513	-78.630	86.962	40.011	-77.889	-74.284	0.583	-11.099	-73.877	-70.694	-68.808	-65.549	226.183	-66.495	-8191	255	
2119.319	1	1	0	0	0.14741	0.14667	0.10638	0.22192	0.23449	0.0495	0.064407	0.1471	0.37449	0.12851	0.24027	0.15207	0.46701	0.37261	0.18472	0.54202	-0.25417	-0.31667	-1.3021	-0.6125	-0.84792	-1.05	-0.475	-1.1562	-0.80208	-0.275	-1.3375	-0.55208	-0.6125	-1.0292	-0.30625	-1.1417	190.868	110.664	-16.703	-51.064	-29.618	74.121	45.463	179.059	97.624	106.834	177.227	228.290	171.193	-75.893	-32.664	218.740	0.00023388	0.00068906	0.00025715	647.47	4.4911e-06	4.5062e-06	962.7	169.51	1.0679e-05	1.5473e-05	352.67	151.37	68.071	32.733	1.1993e-05	64.442	0.00056336	0.00057936	0.00016095	504.14	6.4028e-06	6.4102e-06	742.79	137.92	6.6528e-06	6.6073e-06	275.32	116.79	54.962	25.758	6.632e-06	49.531	101.782	-82.892	-33.236	-78.779	242.797	46.887	-78.814	-74.546	16.835	-16.510	-74.339	-71.122	-68.976	-65.127	255.730	-66.525	-8191	255	
2119.415	1	1	0	0	0.31007	0.25556	0.062147	0.13543	0.12889	0.1156	0.29538	0.10103	0.22702	0.25609	0.21908	0.070363	0.10889	0.149	0.084266	0.14866	-0.375	-0.23542	-1.1854	-0.55	-0.51875	-0.95208	-0.32083	-0.86875	-1.0312	-0.16458	-1.05	-0.64792	-0.43958	-1.2812	-0.39583	-0.97083	264.772	146.790	256.557	81.277	177.871	134.411	218.353	205.756	-62.308	211.631	241.838	-3.163	40.692	77.577	181.759	-38.426	0.00024296	0.0015568	1.6897e-05	640.43	1.6728e-05	5.6473e-06	961.06	169.59	2.093e-05	2.2357e-05	350.17	149.8	65.204	32.628	1.1366e-05	63.523	0.00059338	0.00060507	0.0001679	503.73	6.6244e-06	6.6327e-06	736.63	137.83	6.7731e-06	6.831e-06	274.47	115.55	54.104	25.722	6.6717e-06	48.933	170.729	75.195	-60.432	-78.424	-53.269	239.154	-78.901	-74.511	21.223	-9.296	-74.738	-71.320	-69.160	-64.504	203.212	-66.010	-8191	255	
2119.536	1	1	0	0	0.1633	0.34362	0.14822	0.43285	0.26137	0.38117	0.10006	0.068471	0.16684	0.3467	0.18113	0.11183	0.1252	0.10297	0.15477	0.083903	-0.48125	-0.125	-1.0333	-0.56458	-0.58542	-1.2104	-0.56667	-0.92708	-0.9375	-0.25	-1.0958	-0.57917	-0.50833	-1.2583	-0.5875	-0.89375	244.132	232.582	267.576	172.308	154.718	53.009	167.919	131.177	-45.503	173.393	154.641	-44.530	205.081	-56.863	152.663	69.507	0.00023277	0.0016702	0.00026658	639.24	1.8863e-06	1.7279e-05	960.59	167.06	1.0634e-05	1.2222e-05	352.93	148.8	66.837	32.573	1.4772e-05	62.978	0.00060126	0.00059653	0.00016712	501.47	6.6672e-06	6.6109e-06	733.87	136.66	6.6217e-06	6.5111e-06	272.63	114.67	54.118	25.479	6.5153e-06	48.679	212.961	55.868	153.705	-79.056	80.665	115.521	-78.627	-74.335	89.820	56.050	-74.973	-70.887	-68.879	-64.494	112.059	-65.444	-8191	255	
2119.607	1	1	0	0	0.25498	0.22441	0.24641	0.38443	0.11861	0.094043	0.077062	0.3212	0.064271	0.11705	0.11585	0.11481	0.15651	0.21968	0.16894	0.18348	-0.75	-0.52292	-0.91875	-0.78333	-0.37083	-1.2479	-0.75625	-0.70417	-1.0375	-0.44583	-0.97083	-0.725	-0.34792	-1.2687	-0.60833	-0.36667	87.964	-12.481	83.715	267.477	188.165	66.723	249.083	213.365	-16.485	-35.212	-16.502	252.801	-39.391	-44.532	3.597	-45.000	5.1412e-05	0.0008986	0.00027298	638.34	3.505e-06	8.3254e-06	955.13	169.43	7.6756e-06	1.7187e-05	357.96	149.34	66.146	32.299	1.979e-05	64.058	0.00058196	0.0005807	0.00016528	499.91	6.5773e-06	6.5067e-06	734.96	138.01	6.4562e-06	6.4623e-06	275.7	114.67	53.886	25.541	6.5334e-06	48.774	-60.860	77.109	86.225	-78.546	221.237	-0.295	-78.689	-74.153	-27.225	244.848	-74.927	-71.560	-70.041	-64.862	-49.017	-65.812	-8191	255	
2119.704	1	1	0	0	0.23461	0.24887	0.12396	0.10465	0.13552	0.24191	0.25746	0.079317	0.19652	0.09745	0.11599	0.25989	0.29971	0.11858	0.14236	0.10081	-0.91458	-0.2625	-0.92292	-0.92292	-0.066667	-1.1833	-0.82917	-0.51042	-1.1396	-0.21667	-0.96458	-1.0333	-0.33125	-1.1146	-0.71458	-0.65625	101.320	69.693	165.121	33.709	94.117	124.737	201.891	210.087	-11.460	47.412	144.735	-73.690	252.279	218.978	24.052	239.176	9.1795e-05	0.00036363	0.00060446	636.32	1.121e-05	6.7248e-06	963.42	168.38	7.6351e-06	1.7017e-05	356.84	149.46	67.475	32.539	1.0678e-05	64.391	0.00057649	0.00059704	0.00016128	500.01	6.3761e-06	6.3237e-06	737.03	137.86	6.4835e-06	6.4077e-06	276.31	114.6	54.238	25.557	6.5093e-06	49.136	108.656	-51.278	-30.007	-78.552	198.552	62.075	-78.906	-75.149	8.988	240.647	-75.046	-70.791	-69.990	-64.641	246.846	-66.113	-8191	255	
2119.800	1	1	0	0	0.15556	0.29964	0.075986	0.28683	0.28565	0.15362	0.14643	0.24653	0.11558	0.069672	0.1421	0.22986	0.039843	0.21141	0.20799	0.30934	-0.86042	-0.5	-0.84375	-1.0521	-0.36875	-1.0625	-0.83958	-0.41875	-1.1104	-0.4875	-0.74792	-1.1646	-0.20417	-1.3146	-0.85625	-0.5125	12.782	101.924	-86.891	141.197	152.408	231.084	153.990	-78.910	151.756	49.673	213.833	208.345	192.401	235.697	154.156	-89.608	0.00014851	0.002006	0.00018081	636.3	1.3344e-05	4.2346e-06	953.16	170.3	4.4909e-06	2.4692e-05	352.12	149.59	66.858	31.799	1.0076e-05	62.967	0.0005779	0.00059803	0.00016504	499.85	6.3195e-06	6.5052e-06	731.6	137.25	6.3207e-06	6.4391e-06	274.6	114.72	54.204	25.45	6.5872e-06	48.553	200.706	69.141	-34.371	-78.955	62.138	92.292	-79.015	-73.926	-28.416	81.034	-74.567	-70.781	-68.593	-64.823	59.920	-66.245	-8191	255	
2119.896	1	1	0	0	0.19298	0.014207	0.22872	0.15904	0.15034	0.18237	0.090489	0.24576	0.21683	0.20487	0.17132	0.10992	0.165	0.20764	0.18177	0.1621	-0.79375	-0.4125	-0.64375	-0.95833	-0.21042	-1.0354	-1.0458	-0.38958	-1.2625	-0.72083	-0.51667	-1.1771	-0.35	-1.0292	-0.92083	-0.42292	129.376	78.959	160.072	155.312	-7.307	193.500	40.437	170.930	75.102	185.967	245.144	189.395	263.540	-82.014	113.982	-17.024	0.0003173	0.00049749	0.00042777	639.27	1.8554e-05	1.2263e-05	949.8	167.91	1.8111e-05	6.7224e-06	345.32	147.71	65.636	31.351	7.7452e-06	61.93	0.0005862	0.00058759	0.00016623	499.5	6.5849e-06	6.479e-06	730.68	136.78	6.6198e-06	6.5392e-06	270.55	113.15	53.615	25.175	6.6557e-06	47.804	122.476	207.474	193.013	-78.590	-54.063	21.476	-78.307	-74.718	160.831	138.434	-76.237	-70.584	-69.373	-64.931	-0.212	-66.472	-8191	255	
2120.017	1	1	0	0	0.24518	0.18311	0.17891	0.12849	0.11881	0.1349	0.13912	0.084404	0.18369	0.20492	0.23203	0.15728	0.15157	0.17028	0.22107	0.20744	-0.82708	-0.64167	-0.44167	-1.0958	-0.30833	-0.8125	-1.1979	-0.29375	-1.2854	-0.70208	-0.40833	-1.3271	-0.8625	-0.85417	-0.9625	-0.47083	-29.336	17.627	266.005	177.583	-32.309	43.123	186.596	167.626	261.901	231.474	218.313	218.037	107.663	137.764	66.416	204.086	0.00012489	0.0008733	0.00051706	637.92	7.7916e-06	1.2338e-05	952.07	170.08	1.3602e-05	1.1403e-05	350.12	149.05	65.168	31.965	1.3061e-05	62.132	0.00059387	0.00060063	0.00017026	498.98	6.6933e-06	6.4772e-06	731.1	137.49	6.544e-06	6.4602e-06	273.21	114	53.574	25.193	6.6598e-06	47.873	205.648	90.731	-61.884	-78.677	-28.465	-26.771	-78.547	-74.783	33.595	59.765	-75.890	-70.813	-68.246	-64.921	105.564	-66.213	-8191	255	
2120.111	1	1	0	0	0.29839	0.16415	0.32789	0.19267	0.07616	0.097955	0.18773	0.098553	0.13916	0.01997	0.056239	0.072641	0.10609	0.30339	0.06692	0.071878	-0.81875	-0.72083	-0.45625	-1.3292	-0.44375	-0.61042	-1.1437	-0.325	-1.0229	-0.68333	-0.48125	-0.95417	-0.525	-0.62083	-1.1479	-0.25625	265.149	207.313	87.292	256.023	87.344	198.710	125.221	-52.757	254.920	257.446	238.841	-68.611	26.698	209.122	-61.546	216.805	0.00011997	0.00086996	0.00055225	638.11	5.8569e-06	5.6712e-06	947.03	168.25	1.1894e-05	1.0614e-05	353.99	146.71	65.222	31.925	1.1106e-05	62.69	0.00057867	0.00060837	0.0001678	502.17	6.633e-06	6.5309e-06	729.97	137.08	6.5722e-06	6.7646e-06	275.48	114	53.757	25.202	6.6379e-06	48.297	161.292	-12.691	197.602	-78.238	15.980	-44.020	-78.424	-74.603	108.572	11.775	-75.118	-70.310	-69.029	-64.708	44.439	-66.223	-8191	255	
2120.209	1	1	0	0	0.11608	0.085607	0.33261	0.13755	0.12694	0.078753	0.2429	0.28192	0.2104	0.12134	0.2425	0.20726	0.1157	0.25245	0.091299	0.15599	-0.575	-0.83125	-0.44792	-1.2687	-0.62083	-0.43542	-1.4021	-0.34167	-0.90208	-0.93125	-0.4125	-1.1646	-0.5625	-0.56458	-1.2437	-0.49167	-86.559	58.027	-27.853	185.136	251.180	5.421	40.769	126.104	-46.890	3.042	244.889	177.978	213.119	-46.894	204.805	-64.179	0.00017271	0.0016672	0.00045842	636.86	5.3791e-06	4.9509e-06	950.12	168.16	1.2986e-05	1.2332e-05	353.54	149.55	65.416	31.785	2.6654e-06	62.94	0.0006111	0.00060129	0.00016741	498.48	6.5969e-06	6.6695e-06	728.6	137.3	6.5865e-06	6.5776e-06	274.8	114.28	53.624	25.061	6.6796e-06	48.157	121.255	110.036	-0.348	-78.366	175.026	178.289	-78.407	-74.275	-74.768	53.238	-74.319	-70.820	-68.895	-65.080	36.791	-65.975	-8191	255	
2120.303	1	1	0	0	0.31372	0.09186	0.067788	0.09948	0.15743	0.14889	0.062079	0.078974	0.11902	0.24924	0.24969	0.20803	0.24784	0.18676	0.2238	0.14272	-0.37708	-0.95625	-0.066667	-1.1792	-0.42292	-0.44167	-1.2729	-0.24792	-0.75	-1.1646	-0.26667	-1.1354	-0.75417	-0.3	-1.2479	-0.48958	222.826	196.386	92.104	246.021	21.832	262.762	74.171	145.586	238.831	32.162	242.706	235.990	193.993	-3.712	208.096	-86.537	0.00021778	0.00074265	3.9317e-05	640.46	7.6425e-06	1.6536e-05	949.66	165.2	8.4449e-06	4.3632e-06	347.74	146.43	65.565	31.332	3.2743e-06	62.306	0.00058512	0.00060072	0.00017033	497.82	6.5989e-06	6.6524e-06	727.48	136.03	6.7144e-06	6.7884e-06	270.7	112.72	53.346	24.804	6.5884e-06	47.589	195.145	-56.777	76.977	-78.077	-53.542	102.084	-78.821	-73.959	23.882	-69.498	-74.426	-70.772	-69.090	-65.602	92.070	-66.703	-8191	255	
2120.399	1	1	0	0	0.36776	0.19844	0.24117	0.28688	0.2832	0.22739	0.20499	0.079991	0.051545	0.139	0.18396	0.24309	0.092446	0.2213	0.23587	0.19829	-0.33125	-1.1313	-0.1625	-0.92917	-0.76875	-0.14792	-1.2625	-0.70625	-0.6375	-1.2146	-0.33958	-0.86667	-0.975	-0.34375	-1.2229	-0.6875	13.238	198.369	-7.333	-77.473	187.854	-61.099	119.389	151.745	-80.380	122.345	205.297	264.972	259.787	-74.982	234.070	244.095	0.0001722	0.00057273	0.0001476	639.7	7.8062e-06	1.8655e-05	943.22	166.47	1.0002e-05	4.0383e-06	349.37	146.86	65.088	31.381	9.4872e-06	62.351	0.00058596	0.00058972	0.00016462	499.28	6.4805e-06	6.5114e-06	723.84	135.66	6.5828e-06	6.3644e-06	271.17	113.2	52.868	24.94	6.5106e-06	47.908	172.885	267.165	-38.339	-78.298	68.128	3.679	-78.849	-74.568	202.506	97.563	-75.190	-70.842	-69.488	-64.714	-3.456	-65.662	-8191	255	
2120.496	1	1	0	0	0.26936	0.14456	0.21106	0.19456	0.14049	0.17868	0.069133	0.1443	0.23832	0.11404	0.24812	0.16408	0.076527	0.13244	0.075135	0.29371	-0.2125	-1.1646	-0.44375	-0.86667	-0.90208	-0.066667	-1.0958	-0.82708	-0.36042	-1.0438	-0.40625	-0.78958	-0.93333	-0.2375	-0.95417	-0.675	127.604	128.476	77.226	-54.867	-3.165	183.087	175.828	-59.099	209.354	175.305	90.339	255.352	93.965	248.171	211.138	217.458	0.00019622	0.00087199	0.0003982	628.14	1.4087e-06	9.1976e-06	944.04	167.28	1.2832e-05	1.359e-05	351.21	145.35	64.172	31.473	1.4628e-05	62.998	0.00059078	0.00058505	0.00016616	497.06	6.508e-06	6.3101e-06	725.19	136.13	6.3875e-06	6.3233e-06	273	112.82	52.756	24.78	6.2645e-06	48.247	163.728	-4.361	-66.743	-78.613	78.920	159.089	-78.495	-74.055	24.208	3.404	-75.094	-71.407	-69.483	-64.597	111.831	-66.426	-8191	255	
2120.616	1	1	0	0	0.199	0.16921	0.27234	0.23151	0.17444	0.15003	0.14083	0.25528	0.059939	0.17623	0.024107	0.15611	0.076701	0.38296	0.25304	0.23667	-0.13958	-1.0104	-0.3875	-0.62708	-0.77292	-0.35208	-1.2062	-0.69167	-0.30833	-1.0604	-0.53542	-0.85208	-1.1479	-0.27083	-1.0167	-0.98958	180.272	208.523	5.209	188.455	163.994	66.277	-67.091	97.719	138.407	42.239	82.028	232.723	15.617	99.193	88.342	258.922	0.00018248	0.001111	0.00016651	627.11	1.3064e-05	1.888e-05	950.53	167.08	7.2324e-06	2.1519e-05	351.32	147.31	65.474	31.526	4.5363e-06	62.756	0.00056882	0.00057457	0.00016372	494.55	6.2408e-06	6.3322e-06	725.9	136.56	6.3332e-06	6.3619e-06	271.74	113.46	52.771	24.883	6.5648e-06	48.197	228.860	-10.324	145.179	-78.356	127.799	13.535	-78.374	-74.590	45.016	-30.941	-75.096	-70.564	-68.663	-65.143	91.355	-66.020	-8191	255	
2120.712	1	1	0	0	0.20252	0.050926	0.27292	0.30993	0.087526	0.27677	0.31027	0.12065	0.0363	0.23808	0.22243	0.10793	0.26341	0.229	0.17915	0.16792	0.045833	-1.1104	-0.45	-0.525	-1.025	-0.29583	-1.0938	-0.80208	-0.12708	-1.1583	-0.62083	-0.6375	-1.3563	-0.39583	-0.95417	-1.1271	63.505	-10.805	28.829	-30.574	116.318	71.763	181.401	156.166	206.896	80.626	195.134	264.573	223.697	229.824	22.111	100.239	0.00027892	0.0017104	0.00015861	637.49	6.0278e-06	1.7572e-05	944.69	165.31	9.0822e-06	1.575e-05	348	145.9	64.269	31.142	1.5143e-05	62.435	0.00057638	0.00058826	0.00016593	497.73	6.4369e-06	6.3936e-06	725.58	136.11	6.3065e-06	6.5324e-06	270.76	112.21	52.542	24.671	6.4994e-06	48.113	196.890	153.025	-58.083	-78.631	-34.001	9.987	-78.521	-74.692	-6.306	-4.352	-74.673	-70.701	-68.286	-64.728	-79.859	-65.862	-8191	255	
2120.808	1	1	0	0	0.065315	0.052101	0.20731	0.18157	0.2368	0.22832	0.25924	0.1057	0.18151	0.034598	0.1047	0.10193	0.046946	0.21584	0.24562	0.1339	0.010417	-1.1208	-0.73125	-0.45208	-1.3896	-0.41458	-1.0521	-0.97292	-0.19583	-1.0438	-0.675	-0.41458	-1.3083	-0.47083	-0.68333	-1.2479	97.882	153.783	24.872	243.760	234.874	210.708	127.121	227.347	139.127	158.442	-53.820	144.494	-81.673	227.629	259.288	113.828	6.1238e-05	0.0022015	0.00034498	630.27	8.5983e-06	2.2331e-06	934.49	166.15	3.7391e-06	6.2932e-06	345.96	145.22	64.359	31.202	1.0181e-05	63.179	0.00057655	0.00059265	0.00016669	495.88	6.3146e-06	6.4546e-06	721.36	135.2	6.3904e-06	6.4106e-06	270.11	112.37	52.655	24.773	6.5489e-06	48.457	176.293	127.088	22.758	-78.916	171.055	117.234	-77.713	-73.898	19.983	267.924	-75.067	-70.152	-68.658	-65.233	22.388	-65.891	-8191	255	
2120.905	1	1	0	0	0.2811	0.1006	0.11632	0.13328	0.11633	0.15592	0.13618	0.15031	0.095416	0.19429	0.11108	0.20505	0.10546	0.2119	0.11036	0.18217	0.15208	-1.0729	-0.77708	-0.4375	-1.0875	-0.48333	-0.78542	-1.2458	-0.24792	-0.80417	-0.88958	-0.24583	-1.2687	-0.52708	-0.64375	-1.2771	239.834	63.363	244.332	10.767	-13.941	163.513	205.272	238.641	244.784	-21.095	217.502	200.318	62.454	44.431	-91.945	144.517	0.0002318	0.00070597	0.00031349	635.96	2.4554e-06	3.2528e-07	940.38	166.65	1.0702e-05	1.7393e-05	350.24	147.62	63.925	31.693	1.4708e-05	63.47	0.00059919	0.00060525	0.00016628	498.84	6.5249e-06	6.5188e-06	724.82	135.49	6.5415e-06	6.6025e-06	272.46	113.31	52.598	25.159	6.6605e-06	48.792	-88.283	3.204	-79.242	-77.841	131.948	47.663	-78.605	-74.010	-31.629	41.036	-74.734	-70.381	-68.434	-64.907	122.338	-66.027	-8191	255	
#DATA ENDS
