BOXY.EXE: ISS Imagent and Oximeter Data Acquisition Program Version 0.80
Ascii Record File

#ACQ INFORMATION
2  Detector Channels 
16  External MUX Channels 
1  Auxiliary Channels 
5000  Waveform (CCF) Frequency (Hz)
1  Waveforms Skipped 
30  Waveforms Averaged 
1  Cycles Averaged 
16  Acquisitions per Waveform 
10.0806  Updata Rate (Hz) 

#FILE INFORMATION
TRUE -- External MUX Channel results are PARSED.
FALSE -- AC DC and Phase are NOT grouped.
TRUE -- Companion Program Settings File CREATED.
FALSE -- AC data not excluded
FALSE -- DC data not excluded
FALSE -- Phase data not excluded
FALSE -- Auxillary Chn. data not excluded
Tab delimiters

#CALIBRATION STATE
TRUE -- Waveform Calibration Values APPLIED.


#AUX CALIBRATION VALUES
Val Type	aux-1	

Term	1.0000e+00	
Factor	0.0000e+00	


#WF CALIBRATION VALUES
A = Detector Channel
Val Type	A-AC1	A-AC2	A-AC3	A-AC4	A-AC5	A-AC6	A-AC7	A-AC8	A-AC9	A-AC10	A-AC11	A-AC12	A-AC13	A-AC14	A-AC15	A-AC16	A-DC1	A-DC2	A-DC3	A-DC4	A-DC5	A-DC6	A-DC7	A-DC8	A-DC9	A-DC10	A-DC11	A-DC12	A-DC13	A-DC14	A-DC15	A-DC16	A-Ph1	A-Ph2	A-Ph3	A-Ph4	A-Ph5	A-Ph6	A-Ph7	A-Ph8	A-Ph9	A-Ph10	A-Ph11	A-Ph12	A-Ph13	A-Ph14	A-Ph15	A-Ph16	

Term	0.00000e+00	0.00000e+00	0.00000e+00	0.00000e+00	0.00000e+00	0.00000e+00	0.00000e+00	0.00000e+00	0.00000e+00	0.00000e+00	0.00000e+00	0.00000e+00	0.00000e+00	0.00000e+00	0.00000e+00	0.00000e+00	0.00000e+00	0.00000e+00	0.00000e+00	0.00000e+00	0.00000e+00	0.00000e+00	0.00000e+00	0.00000e+00	0.00000e+00	0.00000e+00	0.00000e+00	0.00000e+00	0.00000e+00	0.00000e+00	0.00000e+00	0.00000e+00	0.00000e+00	0.00000e+00	0.00000e+00	0.00000e+00	0.00000e+00	0.00000e+00	0.00000e+00	0.00000e+00	0.00000e+00	0.00000e+00	0.00000e+00	0.00000e+00	0.00000e+00	0.00000e+00	0.00000e+00	0.00000e+00	
Factor	1.00000e+00	1.00000e+00	1.00000e+00	1.00000e+00	1.00000e+00	1.00000e+00	1.00000e+00	1.00000e+00	1.00000e+00	1.00000e+00	1.00000e+00	1.00000e+00	1.00000e+00	1.00000e+00	1.00000e+00	1.00000e+00	1.00000e+00	1.00000e+00	1.00000e+00	1.00000e+00	1.00000e+00	1.00000e+00	1.00000e+00	1.00000e+00	1.00000e+00	1.00000e+00	1.00000e+00	1.00000e+00	1.00000e+00	1.00000e+00	1.00000e+00	1.00000e+00	X	X	X	X	X	X	X	X	X	X	X	X	X	X	X	X	

B = Detector Channel
Val Type	B-AC1	B-AC2	B-AC3	B-AC4	B-AC5	B-AC6	B-AC7	B-AC8	B-AC9	B-AC10	B-AC11	B-AC12	B-AC13	B-AC14	B-AC15	B-AC16	B-DC1	B-DC2	B-DC3	B-DC4	B-DC5	B-DC6	B-DC7	B-DC8	B-DC9	B-DC10	B-DC11	B-DC12	B-DC13	B-DC14	B-DC15	B-DC16	B-Ph1	B-Ph2	B-Ph3	B-Ph4	B-Ph5	B-Ph6	B-Ph7	B-Ph8	B-Ph9	B-Ph10	B-Ph11	B-Ph12	B-Ph13	B-Ph14	B-Ph15	B-Ph16	

Term	0.00000e+00	0.00000e+00	0.00000e+00	0.00000e+00	0.00000e+00	0.00000e+00	0.00000e+00	0.00000e+00	0.00000e+00	0.00000e+00	0.00000e+00	0.00000e+00	0.00000e+00	0.00000e+00	0.00000e+00	0.00000e+00	0.00000e+00	0.00000e+00	0.00000e+00	0.00000e+00	0.00000e+00	0.00000e+00	0.00000e+00	0.00000e+00	0.00000e+00	0.00000e+00	0.00000e+00	0.00000e+00	0.00000e+00	0.00000e+00	0.00000e+00	0.00000e+00	-1.31583e+02	-1.21578e+02	-1.40012e+02	-1.81298e+02	-8.87385e+01	-6.29981e+01	-1.57795e+02	-1.62015e+02	-6.94921e+01	-9.60310e+01	-1.75953e+02	-1.70521e+02	-1.80371e+02	-1.76072e+02	-6.81803e+01	-1.48893e+02	
Factor	1.93261e-05	1.42640e-04	3.75110e-05	1.68919e-01	1.12948e-06	1.23653e-06	1.80120e-01	7.03469e-02	1.11070e-06	1.40164e-06	1.16901e-01	3.27342e-02	2.64059e-02	1.04235e-02	1.14977e-06	1.44954e-02	1.13826e-06	1.18118e-06	3.28429e-07	8.21832e-02	1.29226e-08	1.29492e-08	8.20368e-02	3.39068e-02	1.29380e-08	1.29875e-08	5.34765e-02	1.52769e-02	1.27878e-02	5.00872e-03	1.30016e-08	6.72239e-03	X	X	X	X	X	X	X	X	X	X	X	X	X	X	X	X	



#DISTANCE SETTINGS
A = Detector Channel
A-1	A-2	A-3	A-4	A-5	A-6	A-7	A-8	A-9	A-10	A-11	A-12	A-13	A-14	A-15	A-16	

2.5000e+00	3.0000e+00	2.5000e+00	3.0000e+00	2.0000e+00	3.0000e+00	1.5000e+00	3.0000e+00	3.0000e+00	3.0000e+00	3.0000e+00	3.0000e+00	3.0000e+00	3.0000e+00	1.5000e+00	3.0000e+00	

B = Detector Channel
B-1	B-2	B-3	B-4	B-5	B-6	B-7	B-8	B-9	B-10	B-11	B-12	B-13	B-14	B-15	B-16	

1.0000e+01	1.0000e+01	1.0000e+01	1.4400e+00	1.0000e+01	1.0000e+01	1.5100e+00	1.9400e+00	1.0000e+01	1.0000e+01	1.9900e+00	2.4900e+00	2.4100e+00	2.9000e+00	1.0000e+01	2.9800e+00	




#DATA BEGINS
time	group	step	mark	flag	A-AC1	A-AC2	A-AC3	A-AC4	A-AC5	A-AC6	A-AC7	A-AC8	A-AC9	A-AC10	A-AC11	A-AC12	A-AC13	A-AC14	A-AC15	A-AC16	A-DC1	A-DC2	A-DC3	A-DC4	A-DC5	A-DC6	A-DC7	A-DC8	A-DC9	A-DC10	A-DC11	A-DC12	A-DC13	A-DC14	A-DC15	A-DC16	A-Ph1	A-Ph2	A-Ph3	A-Ph4	A-Ph5	A-Ph6	A-Ph7	A-Ph8	A-Ph9	A-Ph10	A-Ph11	A-Ph12	A-Ph13	A-Ph14	A-Ph15	A-Ph16	B-AC1	B-AC2	B-AC3	B-AC4	B-AC5	B-AC6	B-AC7	B-AC8	B-AC9	B-AC10	B-AC11	B-AC12	B-AC13	B-AC14	B-AC15	B-AC16	B-DC1	B-DC2	B-DC3	B-DC4	B-DC5	B-DC6	B-DC7	B-DC8	B-DC9	B-DC10	B-DC11	B-DC12	B-DC13	B-DC14	B-DC15	B-DC16	B-Ph1	B-Ph2	B-Ph3	B-Ph4	B-Ph5	B-Ph6	B-Ph7	B-Ph8	B-Ph9	B-Ph10	B-Ph11	B-Ph12	B-Ph13	B-Ph14	B-Ph15	B-Ph16	aux-1	digaux	

1872.052	1	1	0	256	0.12829	0.35237	0.16205	0.23089	0.1932	0.19125	0.069639	0.1924	0.15197	0.10837	0.16999	0.20995	0.13472	0.17473	0.23495	0.25433	-0.35833	-0.66875	-0.10208	-0.97708	-0.61458	-0.3125	-1.1875	-0.31875	-0.67708	-0.97917	-0.20417	-1.0354	-0.81042	-0.06875	-1.2646	-0.4375	168.768	309.239	116.207	24.236	342.433	298.620	321.017	27.699	308.638	308.635	25.509	18.958	159.737	30.195	96.081	282.918	7.9095e-05	0.00019438	0.0002488	550.15	1.1478e-06	5.8298e-06	1025.6	139.61	3.4859e-08	2.4019e-06	289.99	112.08	39.462	17.844	7.7947e-06	42.597	0.00019501	0.00018487	5.1585e-05	455.84	2.1143e-06	2.0637e-06	843.81	117.19	2.0347e-06	2.044e-06	235.17	92.062	33.661	14.919	2.0883e-06	34.954	142.663	293.250	15.915	16.696	94.610	187.502	15.936	20.487	105.573	360.256	18.257	23.335	23.567	29.439	157.019	27.612	-8191	255	
1872.171	1	1	0	0	0.17834	0.083019	0.20362	0.17537	0.14404	0.067066	0.15114	0.22405	0.078759	0.17942	0.12015	0.1434	0.080364	0.06499	0.31597	0.16694	-0.24792	-1.0083	-0.17292	-1.1104	-0.56042	-0.24375	-1.1812	-0.41458	-0.47083	-0.86667	-0.26458	-0.75417	-0.91667	-0.2625	-1.0688	-0.6125	310.802	194.118	297.139	185.244	24.479	244.388	356.112	212.076	283.203	171.312	355.489	241.789	348.950	142.409	246.153	221.084	0.00023699	0.00034482	0.00023114	545.2	5.0164e-06	4.374e-06	1017.7	140.1	1.0586e-06	1.5227e-06	290.56	110.26	39.421	17.598	3.2069e-07	41.94	0.00018805	0.00018224	5.1582e-05	455.59	2.0406e-06	2.0202e-06	841.62	117.86	2.0736e-06	2.0178e-06	235.47	90.789	33.393	14.722	2.0887e-06	34.287	143.254	148.099	88.072	16.958	39.555	328.062	16.229	20.284	21.826	224.556	18.723	23.158	23.527	29.195	299.307	27.448	-8191	255	
1872.243	1	1	0	0	0.093677	0.28009	0.11186	0.13699	0.0776	0.12034	0.24088	0.2609	0.11415	0.32383	0.25229	0.20307	0.19529	0.17196	0.27965	0.41767	-0.0375	-1.1187	-0.23958	-0.86667	-0.92083	-0.23958	-1.0688	-0.70625	-0.18333	-1.2229	-0.325	-0.83542	-0.89792	-0.35833	-1	-0.66458	161.824	224.071	91.150	333.929	58.568	166.148	284.283	287.605	271.872	199.976	180.210	281.217	37.030	285.312	283.118	320.458	0.00030884	0.00053959	6.7809e-05	551.6	2.8724e-06	4.4737e-06	1016.6	140.16	1.9355e-06	6.8932e-06	281.52	108.94	38.908	17.124	4.1238e-06	41.063	0.00018426	0.00018149	5.0469e-05	458.47	2.0251e-06	2.006e-06	836.03	117.37	2.0122e-06	1.9693e-06	229.98	89.409	32.988	14.437	1.9637e-06	33.582	142.066	143.316	97.796	16.282	213.243	105.503	15.804	21.228	111.493	88.595	18.625	23.290	23.619	28.595	178.362	27.486	-8191	255	
1872.341	1	1	0	0	0.18371	0.10862	0.045847	0.14762	0.31252	0.11239	0.11559	0.040786	0.20659	0.10282	0.031883	0.14172	0.21059	0.071125	0.054086	0.19466	0.17292	-1.0479	-0.25833	-0.63542	-1.0083	-0.28125	-0.95625	-0.50417	-0.17083	-1.0646	-0.40417	-0.72292	-0.95208	-0.054167	-0.91042	-0.86042	215.498	88.035	321.668	3.679	142.951	97.527	73.593	201.967	237.204	24.479	252.077	79.544	13.944	294.208	51.790	131.770	0.00022482	0.00061919	0.0001651	552.62	6.1322e-06	3.8858e-06	1022.9	141.6	1.8636e-06	5.2553e-06	284.79	108.52	39.263	17.368	3.9671e-06	41.956	0.0001845	0.00017961	5.0911e-05	457.81	2.003e-06	1.9692e-06	840.28	117.44	2.0413e-06	2.0297e-06	232.85	89.741	33.231	14.609	2.0486e-06	34.188	117.785	108.465	112.314	16.702	55.048	261.895	15.797	20.363	212.759	269.543	17.988	23.249	24.157	29.065	114.392	27.736	-8191	255	
1872.459	1	1	0	0	0.17838	0.16259	0.17366	0.11194	0.1923	0.17675	0.30139	0.16531	0.20174	0.11612	0.11298	0.0457	0.25435	0.41447	0.17936	0.086939	0.1625	-1.1771	-0.475	-0.52083	-1.0312	-0.3	-0.83333	-0.79792	-0.21667	-1.0688	-0.35	-0.47292	-1.1146	-0.26875	-0.92292	-0.95833	99.848	42.295	352.098	287.835	39.773	91.168	300.694	5.177	12.185	309.025	291.811	129.498	295.775	331.338	266.964	13.687	9.7415e-05	0.00016869	0.00021085	552.93	2.9769e-06	5.7005e-06	1026.9	141.04	3.2852e-06	2.6728e-06	286.49	109.59	38.978	17.317	5.021e-06	41.941	0.00018389	0.00018153	5.1047e-05	459.02	2.03e-06	2.0104e-06	842.04	118.03	2.0609e-06	2.0425e-06	233.45	90.283	33.132	14.616	2.0071e-06	34.512	125.034	35.617	105.544	16.967	26.222	150.298	16.595	21.037	67.651	183.856	18.755	23.186	23.848	29.051	119.265	28.004	-8191	255	
1872.556	1	1	0	0	0.17067	0.15608	0.0069061	0.16264	0.1263	0.10761	0.38989	0.096272	0.1338	0.092217	0.087226	0.19962	0.18552	0.090829	0.17004	0.444	0.033333	-0.91458	-0.52708	-0.56875	-0.95	-0.35208	-0.79792	-0.87708	-0.15	-0.87292	-0.75	-0.12917	-1.0417	-0.30625	-0.73125	-0.87708	239.264	66.058	259.165	20.451	48.935	207.802	322.273	349.822	161.788	116.705	153.252	352.601	356.374	32.456	240.044	244.886	0.00014851	0.00072006	0.00014427	553.19	5.8349e-06	3.5224e-06	1023.2	139.85	5.439e-06	7.4377e-06	283.02	109.38	38.846	17.276	9.4417e-06	41.347	0.0001869	0.00018567	5.1676e-05	458.22	2.0429e-06	2.0322e-06	842.71	117.44	2.0564e-06	2.0602e-06	232.35	90.034	33.085	14.612	2.0973e-06	33.985	137.776	132.495	112.782	16.789	105.084	62.918	15.894	21.439	42.844	82.381	18.333	23.124	24.844	28.641	171.614	27.929	-8191	255	
1872.652	1	1	0	0	0.13104	0.25097	0.12675	0.20297	0.19965	0.10826	0.17348	0.13489	0.36487	0.14685	0.050795	0.20028	0.23688	0.1055	0.05255	0.20123	0.14167	-1.1063	-0.45417	-0.28958	-0.98958	-0.3875	-0.61667	-1.1146	-0.27708	-0.93125	-0.8375	-0.50625	-1.0063	-0.53125	-0.48125	-1.0125	35.537	296.233	184.751	297.078	185.861	361.587	333.749	215.904	95.332	102.403	163.136	343.076	94.913	84.399	43.951	184.086	0.0001907	0.00027698	0.00017808	552.82	3.8149e-06	6.8861e-06	1018	141.5	1.6364e-06	5.1036e-06	285.65	110.07	39.084	17.346	4.2514e-06	41.68	0.00018693	0.0001878	5.1188e-05	458.72	2.0475e-06	2.0502e-06	840.39	117.98	2.0508e-06	2.1075e-06	234.06	90.176	33.27	14.681	2.0288e-06	34.218	124.641	187.125	106.884	16.613	148.139	124.789	15.786	20.633	236.993	265.741	17.977	22.957	24.138	28.893	89.650	27.358	-8191	255	
1872.748	1	1	0	0	0.17246	0.17033	0.097069	0.25375	0.31583	0.19504	0.28541	0.22958	0.35917	0.129	0.059853	0.030499	0.25646	0.1918	0.14668	0.42152	0.1375	-0.97083	-0.74375	-0.34375	-1.225	-0.33958	-0.57083	-1.1896	-0.31042	-0.70208	-0.8375	-0.33125	-1.0792	-0.64375	-0.29792	-1.1729	295.173	167.544	88.893	20.283	36.086	204.216	279.987	242.249	116.514	330.435	314.318	144.874	280.500	327.765	310.810	307.386	0.00013362	0.00035957	0.00016502	549.71	5.0568e-06	6.7784e-06	1017.1	140.22	3.9399e-06	4.8943e-06	285.72	109.35	39.592	17.448	2.6284e-06	41.992	0.00019031	0.00019021	5.0666e-05	456.03	2.0566e-06	2.0351e-06	840.32	117.45	2.0321e-06	2.0712e-06	233.3	89.97	33.268	14.631	2.0295e-06	34.375	114.265	190.375	129.835	16.602	291.914	245.132	15.813	20.485	124.045	161.952	18.649	22.947	23.980	28.520	192.103	27.361	-8191	255	
1872.844	1	1	0	0	0.18604	0.10293	0.2789	0.1749	0.19457	0.23881	0.17265	0.061021	0.2921	0.35365	0.17582	0.12193	0.25766	0.13474	0.25793	0.15835	0.091667	-0.65625	-1.0271	-0.1	-1.1646	-0.48542	-0.46875	-1.1979	-0.39583	-0.58542	-1.0458	-0.20833	-0.90625	-0.64167	-0.25833	-1.3042	278.580	216.062	115.081	343.867	213.126	129.150	291.307	318.121	109.502	218.181	324.276	326.990	302.402	58.237	167.248	320.604	0.00017417	0.00037756	0.00015384	550.05	1.0104e-06	3.7877e-06	1019.4	140.6	3.6652e-06	5.5627e-06	286.12	109.13	38.256	17.357	1.2008e-06	42.08	0.00018661	0.00018567	5.1025e-05	456.91	2.0171e-06	1.9947e-06	841.25	117.34	2e-06	2.0388e-06	232.64	89.726	32.841	14.551	2.0205e-06	34.206	146.330	128.307	171.278	16.236	112.440	81.512	15.952	20.291	219.538	318.324	18.053	22.742	24.377	29.512	192.882	27.418	-8191	255	
1872.940	1	1	0	0	0.11646	0.021283	0.13678	0.30298	0.1095	0.31661	0.22643	0.46716	0.13665	0.19191	0.25937	0.24324	0.16141	0.094951	0.18273	0.13019	0.0041667	-0.45417	-1.1125	-0.18542	-0.81042	-0.78333	-0.325	-1.0729	-0.58333	-0.67708	-1.0542	-0.40208	-1.0646	-0.86042	-0.26042	-1.125	197.859	319.739	41.463	207.537	297.872	175.284	310.222	340.310	234.259	309.068	333.280	5.345	51.037	50.350	316.790	35.213	0.00021082	0.00048473	0.00015293	550.88	5.008e-06	2.8457e-06	1020.9	140.03	2.5133e-06	3.8766e-06	282.31	107.88	37.907	17.192	3.0763e-06	40.916	0.0001816	0.00018681	5.0904e-05	455.86	1.9626e-06	1.9771e-06	839.9	116.63	1.9528e-06	2.0555e-06	230.36	88.533	32.514	14.384	1.9976e-06	33.56	140.745	83.829	91.244	16.369	117.254	165.261	15.397	20.716	43.433	84.533	17.555	22.920	23.584	28.878	206.913	26.951	-8191	255	
1873.061	1	1	0	0	0.067739	0.30314	0.10368	0.17206	0.24609	0.22262	0.32554	0.14176	0.1313	0.16256	0.17343	0.40772	0.085808	0.24902	0.042202	0.09102	-0.091667	-0.44167	-1.3229	-0.32917	-0.67708	-1.0917	-0.29375	-1.2583	-0.68125	-0.44167	-1.1958	-0.6625	-0.9	-0.99792	-0.31667	-0.98542	322.986	326.597	6.820	203.626	231.808	140.905	340.795	30.232	138.082	209.185	37.267	45.148	34.542	279.581	175.136	120.711	0.0001944	0.0004504	8.6704e-05	551.57	2.5325e-06	2.1889e-06	1009.3	139.25	2.0649e-06	5.0951e-06	282.15	107.12	38.256	17.008	9.6442e-06	41.132	0.00018568	0.0001801	4.9041e-05	457.72	1.9779e-06	1.9245e-06	833.51	116.76	2.0074e-06	1.9854e-06	229.29	88.245	32.529	14.293	1.9451e-06	33.681	139.792	114.418	206.539	16.411	150.405	157.313	15.437	20.467	60.055	126.521	18.253	23.053	23.999	28.573	125.642	27.531	-8191	255	
1873.155	1	1	0	0	0.09604	0.27121	0.12582	0.033907	0.21897	0.199	0.16959	0.10881	0.080131	0.14977	0.32544	0.16037	0.13278	0.094945	0.19825	0.2205	-0.30208	-0.17917	-1.225	-0.65417	-0.55208	-0.9375	-0.49375	-0.93542	-0.85833	-0.20833	-1.1354	-0.52708	-0.51042	-1.1	-0.10208	-0.92917	160.955	81.515	206.165	362.021	32.878	305.767	291.634	190.666	77.173	35.562	354.866	226.454	353.005	30.786	114.490	274.720	0.00012213	0.00053977	2.2729e-05	545.26	3.2555e-06	2.8191e-06	1018	141.37	3.391e-06	6.7381e-06	283.61	106.46	38.423	17.047	3.878e-06	40.958	0.00018237	0.00017797	5.0085e-05	454.81	1.9448e-06	1.9371e-06	836.01	117.28	1.9762e-06	2.0124e-06	229.83	88.311	32.548	14.39	1.9538e-06	33.769	117.725	151.274	155.984	16.561	162.962	159.653	15.451	20.450	146.774	40.682	18.313	22.869	24.804	29.002	145.697	27.238	-8191	255	
1873.251	1	1	0	0	0.2703	0.12134	0.21442	0.089187	0.096952	0.11041	0.04447	0.13899	0.05833	0.065575	0.26716	0.18372	0.20607	0.026113	0.21028	0.36699	-0.35417	-0.2375	-0.88333	-0.50833	-0.41458	-0.96875	-0.11458	-0.88542	-0.74792	-0.3	-0.87917	-0.69375	-0.50417	-1.0979	-0.26667	-0.66667	139.507	211.580	144.710	131.745	132.634	166.460	207.832	239.789	90.330	213.646	57.424	30.150	175.462	221.319	117.473	354.366	0.00014293	0.00017255	3.4153e-05	543.54	3.3905e-06	6.8222e-06	1012.8	140.52	2.9095e-06	1.3636e-06	281.76	108.19	38.789	17.211	2.7143e-06	41.455	0.00018165	0.000177	4.9792e-05	452.75	1.9899e-06	1.9534e-06	834.34	116.88	1.9955e-06	1.9317e-06	229.6	88.792	32.57	14.346	2.0086e-06	33.874	142.672	318.450	65.846	16.304	149.732	141.131	15.822	21.295	38.790	55.770	18.500	23.013	23.595	29.126	94.701	28.335	-8191	255	
1873.347	1	1	0	0	0.36723	0.24582	0.36502	0.088179	0.090877	0.14439	0.20017	0.094685	0.1178	0.19835	0.36212	0.1775	0.20439	0.1506	0.21345	0.044703	-0.50417	-0.15	-1.1042	-0.68125	-0.25417	-1.2563	-0.30625	-0.61458	-0.91667	-0.34375	-1.1229	-0.69583	-0.32708	-0.79792	-0.52083	-0.60625	19.349	241.926	343.466	327.735	170.507	54.845	342.550	32.420	5.862	35.545	330.657	331.117	22.695	236.640	119.428	12.518	0.00016415	0.00063648	0.00020539	548.43	4.7835e-06	5.5821e-06	1020.1	139.45	3.663e-06	2.4166e-06	286.05	107.78	38.491	17.01	2.0957e-06	40.785	0.00018129	0.00017694	5.0289e-05	454.12	2.0015e-06	1.9217e-06	835.57	116.87	1.9388e-06	1.96e-06	231.53	88.383	32.531	14.313	1.9752e-06	33.428	156.550	350.078	72.194	16.655	9.677	112.689	16.160	21.090	178.714	282.877	19.167	23.050	23.793	29.286	248.979	27.106	-8191	255	
1873.421	1	1	0	0	0.32924	0.014862	0.20786	0.30732	0.091296	0.26178	0.23983	0.070677	0.21202	0.19776	0.078463	0.16851	0.21293	0.12766	0.13303	0.057379	-0.62917	-0.089583	-1.0146	-0.8125	-0.2625	-0.94583	-0.52917	-0.55625	-0.97708	-0.19583	-0.89583	-1.05	-0.26875	-1.1625	-0.54792	-0.42917	210.248	314.246	106.102	292.943	231.146	248.124	264.771	271.340	30.716	296.164	55.109	314.116	321.168	345.280	255.811	355.576	0.00020086	0.00063918	0.00014296	547.46	2.8326e-06	4.8901e-06	1010.1	138.39	5.278e-06	2.2832e-06	280.43	106.04	37.902	17.216	5.1014e-06	41.254	0.00017685	0.00018123	5.0493e-05	454.21	1.984e-06	1.9398e-06	832.4	116.3	1.9378e-06	1.9473e-06	228.67	87.989	32.261	14.324	1.9424e-06	33.686	128.793	168.048	362.574	16.853	333.729	104.997	15.839	20.787	163.497	130.874	18.222	22.896	24.750	29.702	142.532	27.283	-8191	255	
1873.540	1	1	0	0	0.16238	0.077259	0.055012	0.46111	0.31668	0.11236	0.069482	0.058272	0.11721	0.0385	0.17905	0.31442	0.15548	0.16762	0.064903	0.22717	-0.80625	-0.41875	-0.61042	-1.0458	-0.13125	-1.0646	-0.81875	-0.43958	-1.0667	-0.32292	-0.80417	-1.0208	-0.12708	-1.0125	-0.62708	-0.52917	204.849	171.057	269.420	319.780	183.857	105.302	30.604	211.256	172.830	247.199	325.815	39.329	10.680	303.396	362.710	235.337	0.00013754	0.00027455	0.00015686	542.77	3.5579e-06	3.5661e-06	1012.3	139.34	4.4218e-06	4.0799e-06	285.3	107.76	38.332	17.055	5.66e-06	41.748	0.00017898	0.00018025	4.8815e-05	453.29	1.9683e-06	1.8788e-06	833.03	116.39	2.0111e-06	1.9676e-06	231.45	88.951	32.416	14.441	2.0142e-06	33.927	174.401	44.143	123.270	16.568	150.569	217.594	15.827	20.876	97.842	164.322	18.465	22.532	24.289	28.962	133.892	27.417	-8191	255	
1873.636	1	1	0	0	0.18579	0.14161	0.19787	0.21003	0.13908	0.22348	0.20027	0.18653	0.16298	0.38721	0.097878	0.21905	0.057711	0.051373	0.10616	0.10981	-0.91042	-0.37917	-0.51875	-0.975	-0.16875	-1.0229	-0.94792	-0.22292	-1.1187	-0.31667	-0.66667	-0.96458	-0.18333	-0.85	-0.8875	-0.21667	346.020	130.198	251.091	339.561	151.915	99.225	274.418	349.657	348.457	55.733	83.248	280.805	272.826	282.360	255.000	226.069	0.00021768	0.00039921	0.00025121	547.75	2.1097e-06	6.9652e-06	1008.1	140.67	4.2502e-06	7.2842e-06	284.83	108.3	38.253	17.294	1.7408e-06	41.919	0.00018349	0.00017571	5.0753e-05	452.52	1.9858e-06	1.9505e-06	834.42	116.86	1.976e-06	1.9731e-06	232.2	89.541	32.627	14.517	1.9648e-06	34.103	154.882	127.481	74.629	16.532	178.691	144.355	15.582	20.451	204.721	127.590	17.805	22.529	24.599	29.636	282.480	27.132	-8191	255	
1873.732	1	1	0	0	0.16527	0.33735	0.057179	0.048893	0.22541	0.16278	0.22515	0.031539	0.2579	0.31613	0.12164	0.23019	0.018298	0.02808	0.44306	0.1967	-0.6625	-0.40417	-0.4625	-1.2229	-0.12292	-0.82083	-1.0187	-0.0375	-0.95417	-0.51042	-0.47083	-1.1375	-0.17708	-0.69167	-0.96875	-0.3875	217.334	270.567	174.837	17.707	75.341	115.758	287.843	245.356	320.504	117.653	333.747	203.814	354.592	77.086	250.273	15.570	0.00017147	0.00029132	2.0223e-05	545.14	1.2694e-06	9.3595e-07	1016.9	138.37	4.7648e-06	3.1318e-06	286.69	108.03	37.859	17.216	5.4057e-06	41.255	0.00018341	0.00018292	4.994e-05	452.1	1.9922e-06	2.0183e-06	833.88	116.08	1.9871e-06	1.9807e-06	232.12	88.844	32.315	14.435	1.9802e-06	33.803	123.957	101.482	8.838	16.442	183.446	226.136	15.549	20.046	200.674	91.838	18.289	22.506	23.879	28.427	134.090	27.723	-8191	255	
1873.828	1	1	0	0	0.21935	0.23265	0.17221	0.19432	0.11303	0.064672	0.16053	0.1843	0.20017	0.14697	0.15543	0.27409	0.2474	0.15144	0.20633	0.18928	-0.64167	-0.6	-0.28125	-1.1938	-0.43125	-0.84167	-1.1542	-0.25833	-1.0229	-0.81667	-0.35208	-1.1104	-0.31042	-0.775	-1.0854	-0.33125	149.776	107.833	3.431	4.321	226.481	267.625	2.649	209.329	331.070	303.206	328.604	67.534	6.025	181.017	84.291	309.604	0.00025025	0.00058471	0.00021396	545.83	2.9462e-06	2.802e-06	1019.8	138.67	4.0756e-06	3.8484e-06	283.09	108.28	37.644	17.121	1.5878e-06	41.03	0.00018095	0.00017887	4.9855e-05	452.41	1.9612e-06	1.9666e-06	833.79	115.9	1.9485e-06	1.9791e-06	230.65	88.639	32.192	14.367	1.9629e-06	33.663	133.708	95.373	6.278	16.311	212.135	225.838	15.348	20.607	291.814	92.965	17.999	23.127	24.129	28.945	118.344	27.275	-8191	255	
1873.949	1	1	0	0	0.23607	0.33458	0.22791	0.22485	0.21574	0.19166	0.3311	0.20856	0.064822	0.1795	0.13544	0.18146	0.07221	0.24377	0.14109	0.25284	-0.48542	-0.76875	-0.18958	-1.2896	-0.22292	-0.67083	-1.2292	-0.23333	-0.94583	-1.0625	-0.46875	-1.125	-0.51458	-0.35625	-1.1417	-0.2875	354.227	275.262	72.411	232.869	50.094	120.845	298.522	326.939	231.148	292.732	267.126	314.939	338.595	202.213	219.825	277.381	0.00022807	0.0006426	0.00012383	546.9	6.0303e-06	9.3447e-06	1011.9	139.78	4.8824e-06	5.3547e-06	283.84	108.47	37.769	17.177	5.1444e-06	41.389	0.00018544	0.00018184	4.9673e-05	453.17	1.947e-06	1.9911e-06	831.37	116.21	1.953e-06	1.9335e-06	231.13	89.163	32.268	14.411	1.9288e-06	34.04	129.055	143.366	94.068	16.385	149.908	244.699	15.304	20.665	323.150	91.336	17.833	22.662	24.076	28.717	26.467	26.935	-8191	255	
1874.045	1	1	0	0	0.11223	0.094088	0.081661	0.21207	0.16229	0.020596	0.20518	0.14649	0.22362	0.35136	0.13143	0.27026	0.18199	0.14023	0.22188	0.078865	-0.40625	-0.84583	-0.35208	-1.0542	-0.475	-0.33333	-1.3708	-0.37083	-0.69792	-1.1583	-0.40625	-1.15	-0.7375	-0.35833	-1.1313	-0.47292	177.252	201.220	290.899	317.469	358.068	108.398	288.638	315.610	92.607	57.306	327.272	297.170	269.326	310.887	128.209	336.741	0.00020237	0.00069744	0.00014981	542.96	3.2645e-06	1.9615e-06	1014.8	137.18	3.7214e-06	2.0721e-06	283.76	108.77	38.16	17.172	3.0986e-06	41.898	0.00018207	0.00017755	5.0401e-05	451.33	1.9973e-06	2.0078e-06	833.44	115.82	2.0018e-06	2.0067e-06	232.28	89.325	32.279	14.427	1.9462e-06	34.259	120.612	68.025	263.720	16.390	100.855	170.153	15.825	20.178	319.754	225.589	18.376	22.825	24.058	29.031	154.892	27.221	-8191	255	
1874.141	1	1	0	0	0.15367	0.061358	0.3209	0.20504	0.062659	0.13039	0.083815	0.19287	0.2751	0.34117	0.026909	0.089158	0.12598	0.13542	0.077886	0.2974	-0.4	-1.1583	-0.23958	-0.9375	-0.73958	-0.46667	-1.1625	-0.21042	-0.58542	-0.94375	-0.325	-0.81458	-0.71875	-0.054167	-1.125	-0.40208	26.923	56.748	244.800	292.681	307.182	64.618	111.648	241.811	298.334	62.090	157.712	304.553	358.745	322.555	259.676	274.556	0.00012458	0.0005592	0.00010656	545.16	3.327e-06	4.743e-06	1011.1	138.15	4.9884e-06	4.425e-06	282.32	108.81	37.345	17.198	2.5139e-06	41.377	0.00018597	0.0001788	4.9231e-05	450.33	1.9543e-06	1.9981e-06	835.41	116.07	1.959e-06	1.9552e-06	231.25	89.636	32.221	14.455	2.0117e-06	33.999	129.978	187.470	15.455	16.700	69.035	156.141	15.750	20.341	110.597	146.500	18.670	23.095	23.598	29.567	149.623	26.861	-8191	255	
1874.236	1	1	0	0	0.14312	0.31301	0.22783	0.15101	0.2725	0.18805	0.055915	0.089499	0.065963	0.051	0.081383	0.094449	0.11077	0.16036	0.25126	0.24803	0.047917	-1.1042	-0.14375	-0.75833	-0.7125	-0.39792	-1.0792	-0.49167	-0.19583	-0.9375	-0.13125	-0.97917	-0.87917	0.052083	-1.1375	-0.5125	3.104	294.223	270.802	305.807	153.885	255.266	155.717	238.096	214.683	29.379	339.784	242.108	25.147	84.183	281.909	300.967	0.00017156	0.00071552	7.1108e-05	543.26	2.734e-06	2.9147e-06	1013.9	139.52	3.729e-06	3.8814e-06	282.3	107.83	37.902	17.094	2.9652e-06	41.802	0.00018874	0.00017972	4.9782e-05	449.52	2.0241e-06	2.0126e-06	832.42	116.12	2.0157e-06	1.9756e-06	230.22	89.034	32.194	14.335	2.0504e-06	34.249	130.662	196.021	41.460	16.141	209.228	288.081	15.547	20.202	92.538	68.321	18.012	22.647	23.501	29.133	154.253	26.832	-8191	255	
1874.332	1	1	0	0	0.23356	0.47961	0.078642	0.28291	0.24032	0.032905	0.18163	0.14211	0.11821	0.061585	0.12204	0.30739	0.25786	0.27365	0.063228	0.091888	0.077083	-1.0063	-0.23125	-0.675	-0.95833	-0.19167	-1.2812	-0.78542	-0.42708	-1.2188	-0.41667	-0.46875	-1.0771	-0.19167	-1.0792	-0.80625	240.118	302.435	286.863	286.704	350.400	276.950	6.910	106.477	174.373	32.348	94.814	49.107	93.104	236.127	215.701	127.323	0.00028499	0.00021315	0.00017204	542.36	2.0222e-06	4.9663e-06	1016.2	137.17	2.9796e-06	9.6621e-07	284.77	108.71	38.429	17.35	5.0549e-06	42.146	0.00019217	0.00017973	5.2087e-05	448.76	2.0666e-06	2.0015e-06	834.31	115.43	2.049e-06	2.0634e-06	232.78	90.269	32.562	14.545	2.0482e-06	34.617	131.165	130.526	82.995	16.320	139.900	107.554	15.215	20.021	41.301	147.585	17.668	22.282	23.252	28.614	209.376	27.101	-8191	255	
1874.430	1	1	0	0	0.25179	0.18258	0.21003	0.045969	0.12242	0.27544	0.35057	0.13958	0.15169	0.28547	0.22983	0.15748	0.059116	0.21059	0.17428	0.19806	0.20833	-1.0042	-0.41458	-0.56042	-1.1104	-0.23958	-0.95	-0.66042	-0.35625	-0.99583	-0.65417	-0.37917	-1.0812	-0.33125	-0.68958	-0.83125	109.032	116.796	267.405	202.136	311.799	246.214	263.703	333.789	42.509	331.591	317.907	301.487	311.678	315.972	117.486	196.501	0.00016511	0.00031643	0.00016933	533.68	4.3807e-06	3.8934e-06	1013.8	137.85	3.8179e-06	5.2249e-06	284.9	109.4	38.522	17.179	7.1054e-06	42.503	0.00019091	0.00018703	5.2624e-05	449.24	2.0525e-06	2.0551e-06	835.44	115.18	2.0198e-06	2.0392e-06	231.28	90.373	32.681	14.484	2.0601e-06	34.814	140.536	37.706	119.569	16.076	206.605	149.007	15.318	20.058	136.720	37.197	18.214	22.774	23.923	28.425	173.823	27.085	-8191	255	
1874.548	1	1	0	0	0.16042	0.13444	0.14513	0.12516	0.11913	0.13767	0.31045	0.23306	0.123	0.38643	0.10505	0.20785	0.075047	0.064585	0.22303	0.24247	0.31458	-1.075	-0.59375	-0.58958	-0.9	-0.38542	-0.80625	-0.9875	-0.16042	-0.94583	-0.81875	-0.53125	-1.2958	-0.30625	-0.91042	-1.0042	314.561	274.121	93.210	19.740	308.686	20.223	294.860	233.240	58.428	194.126	34.175	292.721	149.252	336.785	236.994	350.495	0.00010908	0.0007288	0.00025175	541.32	3.0204e-06	5.349e-06	1018.1	137.44	3.3586e-06	8.3219e-06	284.75	109.56	38.278	17.113	4.7756e-06	42.153	0.00019367	0.00018634	5.3097e-05	449.46	2.0733e-06	2.0333e-06	838.11	115.73	2.0805e-06	2.0508e-06	233	89.981	32.715	14.449	2.1178e-06	34.487	157.877	131.899	62.424	16.230	230.600	181.829	15.669	20.201	177.697	51.430	17.999	22.769	24.495	27.793	111.426	27.096	-8191	255	
1874.645	1	1	0	0	0.14144	0.10586	0.27692	0.32809	0.30954	0.13886	0.090886	0.15481	0.12741	0.16295	0.25574	0.1204	0.25072	0.11898	0.18712	0.17304	0.13333	-0.95208	-0.78958	-0.35	-1.025	-0.31042	-0.64167	-1.1292	-0.25625	-1.0208	-0.81042	-0.26458	-1.3042	-0.40625	-0.55208	-1.15	78.883	209.726	307.412	324.275	148.299	82.018	358.033	311.044	74.876	51.572	331.053	340.439	294.875	89.368	332.028	241.594	0.00016608	0.00051815	0.00020936	537.04	3.2398e-06	4.7091e-06	1008.6	138.01	4.814e-06	6.0922e-06	282.51	107.77	38.208	17.01	1.9898e-06	41.189	0.00018752	0.00018706	5.2866e-05	448.86	2.0503e-06	2.0047e-06	834.83	115.88	2.0373e-06	2.0836e-06	230.99	88.954	32.619	14.254	2.0503e-06	33.963	119.608	125.468	98.731	15.875	150.513	121.525	15.792	20.423	78.797	176.540	18.182	22.837	24.635	28.706	167.286	26.944	-8191	255	
1874.741	1	1	0	0	0.35868	0.19372	0.30165	0.32627	0.31471	0.26759	0.2945	0.29286	0.28662	0.068515	0.12238	0.27737	0.20605	0.30398	0.16114	0.23425	0.17708	-0.75208	-0.78542	-0.2	-1.2521	-0.49167	-0.53542	-1.1646	-0.32083	-0.86458	-1.2	-0.12708	-0.86458	-0.74792	-0.225	-1.2833	339.299	263.692	316.011	324.172	221.040	123.587	8.540	78.954	66.684	351.137	311.392	323.118	140.236	308.284	114.189	360.764	0.00016926	0.0004641	0.00010937	541.66	4.8478e-06	3.3798e-06	1011.8	136.96	1.2925e-06	6.0331e-06	285.16	107.62	38.211	16.873	2.7763e-06	41.273	0.00018892	0.00018848	5.2989e-05	448.89	2.0593e-06	2.0434e-06	833.32	115.42	2.0826e-06	2.1064e-06	232.68	89.258	32.505	14.253	2.0348e-06	34.04	131.406	160.541	293.730	16.188	167.232	176.773	15.879	20.791	358.430	191.972	17.691	22.778	23.917	28.471	144.353	27.240	-8191	255	
1874.837	1	1	0	0	0.15078	0.30407	0.1363	0.097307	0.2226	0.12187	0.26047	0.13439	0.035801	0.13285	0.44219	0.20787	0.16222	0.25832	0.26361	0.15631	0.054167	-0.68542	-1.0625	-0.17292	-1.0208	-0.65625	-0.50208	-1.2396	-0.25208	-0.63542	-1.0792	-0.4125	-1.0229	-0.87917	-0.27292	-1.2437	349.098	311.521	252.005	255.363	144.427	186.802	308.212	75.711	219.282	297.140	287.954	266.972	63.930	282.830	114.490	81.905	0.0001689	0.00038007	7.9894e-05	543.24	5.0564e-06	1.9966e-06	1016	139.21	3.7882e-06	2.5825e-06	284.1	107.06	37.392	16.535	2.0008e-06	40.71	0.00019046	0.00019341	5.2014e-05	451.2	2.1047e-06	2.0534e-06	836.06	116.37	2.0519e-06	2.0992e-06	230.39	88.823	32.238	13.987	2.0568e-06	33.511	139.889	100.968	17.375	16.446	100.062	29.431	15.345	20.243	359.112	220.076	18.369	22.623	23.552	29.753	262.174	27.551	-8191	255	
1874.933	1	1	0	0	0.094258	0.20457	0.2288	0.22114	0.048565	0.26515	0.096546	0.10105	0.18314	0.30376	0.17242	0.22139	0.067838	0.025125	0.10064	0.30682	0	-0.54375	-1.2354	-0.15	-0.87917	-0.5375	-0.21875	-0.98333	-0.37917	-0.34583	-1.1875	-0.35625	-0.95208	-0.63958	-0.22083	-1.1	291.186	277.002	230.017	300.987	217.932	84.622	66.389	69.629	40.865	118.790	329.687	292.002	230.107	268.114	130.433	332.101	0.00015999	0.00036739	0.00015225	546.27	5.4494e-06	2.1956e-06	1012.6	138.43	8.3624e-06	1.6707e-06	276.89	105.28	37.19	16.2	2.2475e-06	39.452	0.00018218	0.00017942	4.7731e-05	452.45	1.9202e-06	1.9568e-06	833.29	115.35	1.9222e-06	1.9391e-06	224.57	86.612	31.557	13.579	1.9398e-06	32.214	145.219	145.824	64.453	16.489	108.508	212.160	15.353	20.260	170.221	88.953	18.347	22.245	24.296	28.639	245.614	27.564	-8191	255	
1875.029	1	1	0	0	0.094102	0.19259	0.19819	0.11271	0.041643	0.24897	0.40362	0.2464	0.16601	0.14396	0.192	0.036035	0.061617	0.084026	0.23274	0.21911	-0.0875	-0.26458	-1.0417	-0.26458	-0.70417	-0.88125	-0.47083	-1.1437	-0.43333	-0.33333	-1.0792	-0.36667	-0.65208	-0.97083	-0.28125	-1.0312	19.437	300.533	302.568	33.728	71.784	24.009	289.572	191.022	264.390	323.668	357.222	62.847	182.404	48.027	292.375	323.970	0.00019053	0.00039512	9.2795e-05	550.12	4.6825e-06	6.1202e-06	1008.3	139.34	2.3893e-06	9.627e-07	276.52	104.43	36.441	16.112	2.4364e-06	39.443	0.00018191	0.00017325	4.724e-05	454.74	1.9134e-06	1.9394e-06	832.19	115.89	1.9155e-06	1.9659e-06	226.02	86.288	31.225	13.634	1.9659e-06	32.54	146.937	185.074	232.040	16.516	122.298	100.218	15.531	20.198	354.002	99.921	18.609	22.462	24.016	29.180	45.305	27.404	-8191	255	
1875.125	1	1	0	0	0.22571	0.1569	0.13428	0.20682	0.16573	0.08162	0.18411	0.24673	0.13476	0.04062	0.22976	0.070853	0.24717	0.24046	0.042901	0.020984	-0.19792	-0.3625	-0.96875	-0.27292	-0.34583	-1.0604	-0.28333	-0.99375	-0.56042	-0.27083	-1.4042	-0.38125	-0.49792	-1.0396	-0.047917	-0.88542	56.893	106.113	9.740	226.877	319.750	92.094	281.637	360.551	99.399	287.491	33.192	282.256	357.039	45.765	171.274	286.829	0.00021491	0.00012889	5.7842e-05	546.72	5.5204e-06	2.7853e-06	1012.9	137.61	5.3046e-06	4.9459e-06	279.67	105.06	36.91	16.526	9.4705e-06	39.934	0.00017735	0.00018	4.98e-05	452.86	1.9601e-06	1.934e-06	832.14	115.65	1.9684e-06	1.942e-06	227.8	87.267	31.613	13.86	1.9978e-06	32.767	132.203	144.123	247.896	16.150	176.876	5.195	15.196	20.178	271.446	64.880	17.896	22.264	24.747	28.673	169.803	27.581	-8191	255	
1875.244	1	1	0	0	0.13098	0.093147	0.23794	0.33045	0.11498	0.16084	0.2205	0.19205	0.070116	0.23805	0.2212	0.21873	0.09416	0.2739	0.084759	0.35234	-0.54167	-0.020833	-1.1167	-0.57083	-0.3875	-1.0854	-0.39792	-0.9125	-0.9	-0.27083	-1.0438	-0.76875	-0.23333	-1.2146	-0.24375	-0.73125	33.143	134.050	322.656	328.484	32.117	129.284	326.662	360.586	30.008	159.542	316.098	55.087	21.441	342.461	300.407	312.220	0.00021463	0.0007677	0.00010021	540.39	5.4225e-06	3.5887e-06	1009.2	139.93	6.5207e-06	9.8368e-06	281.94	107.33	37.306	16.498	4.9565e-06	40.047	0.00018241	0.00017514	4.8647e-05	449.2	1.9576e-06	1.9637e-06	830.04	117.3	1.9695e-06	1.9296e-06	228.6	88.104	31.858	13.952	1.9884e-06	33.094	140.305	29.124	114.411	16.612	176.618	147.563	15.840	20.765	112.156	175.780	18.577	22.388	23.879	28.540	74.535	27.595	-8191	255	
1875.340	1	1	0	0	0.41034	0.090346	0.10142	0.056865	0.28843	0.37368	0.10297	0.065078	0.28316	0.12622	0.18982	0.18617	0.21067	0.037349	0.1503	0.23465	-0.6375	-0.11042	-0.84792	-0.7	-0.097917	-1.1646	-0.3125	-0.5875	-0.95417	-0.033333	-0.99792	-0.64792	-0.097917	-1.1208	-0.26458	-0.66042	181.770	205.189	106.227	356.845	261.882	94.934	121.431	41.368	106.632	361.003	348.341	69.470	29.789	162.067	277.848	341.956	9.1911e-05	0.00078633	2.8307e-05	541.15	4.5345e-07	4.9014e-06	1010.3	138.59	3.5495e-06	4.2125e-06	285.24	108.64	38.468	17.122	2.8706e-06	41.248	0.00018264	0.00017936	5.0345e-05	452.13	1.9654e-06	1.9314e-06	831.26	117.26	2.0106e-06	2.0021e-06	232.11	89.331	32.468	14.375	2.0812e-06	33.895	150.172	78.581	28.086	15.708	78.091	235.614	15.384	20.895	270.519	65.762	17.466	22.597	23.634	28.688	10.787	27.764	-8191	255	
1875.412	1	1	0	0	0.13064	0.35924	0.15778	0.13684	0.18533	0.099306	0.12311	0.24073	0.19295	0.17461	0.37019	0.30574	0.38487	0.32349	0.17513	0.24423	-0.6	-0.1	-0.9625	-0.89167	-0.020833	-1.2292	-0.45	-0.5875	-1.0354	-0.14792	-1.1167	-0.88542	-0.23333	-0.92292	-0.45208	-0.43125	199.225	41.589	49.011	299.826	263.451	318.112	39.100	327.146	231.594	97.787	260.260	281.061	261.848	282.035	37.218	150.723	0.00020232	0.00052183	0.00014018	544.1	1.1325e-06	5.5304e-06	1013.4	138.98	6.4827e-06	3.3197e-06	291.16	108.46	38.569	17.556	5.0188e-06	42.246	0.00018598	0.00018867	5.3749e-05	449	2.1163e-06	2.1411e-06	832.19	116.53	2.1668e-06	2.1629e-06	236.85	90.085	33.153	14.726	2.2074e-06	34.595	146.516	14.685	32.789	16.178	154.417	144.459	15.063	20.367	166.412	281.376	17.322	22.402	23.260	27.957	330.578	26.618	-8191	255	
1875.510	1	1	0	0	0.17999	0.067081	0.26214	0.13171	0.19385	0.098172	0.19056	0.17928	0.27414	0.3152	0.37477	0.036575	0.033238	0.1993	0.072581	0.19066	-0.79375	-0.11875	-0.60625	-0.72917	-0.13542	-1.2208	-0.525	-0.24792	-1.0625	-0.21458	-0.85417	-1.1292	-0.2	-0.99167	-0.8125	-0.45625	346.895	79.449	292.443	205.870	108.723	205.774	296.345	54.878	313.684	166.835	275.660	45.457	25.518	323.340	160.272	5.407	0.00024257	0.00022846	0.00010961	536.85	2.6666e-06	4.8509e-06	1011.2	137.49	3.445e-06	4.718e-06	289.26	109.69	39.109	17.467	3.1103e-06	42.525	0.00019841	0.00020734	5.6334e-05	445.86	2.2322e-06	2.241e-06	831.48	116.33	2.2215e-06	2.2793e-06	236.95	90.79	33.356	14.748	2.1729e-06	34.833	137.121	323.157	77.531	16.379	146.506	145.586	15.012	19.989	13.786	124.386	17.750	22.378	24.664	28.490	105.189	26.840	-8191	255	
1875.629	1	1	0	0	0.27361	0.11992	0.11973	0.20104	0.16029	0.19077	0.21049	0.074369	0.31636	0.13701	0.12187	0.046964	0.078113	0.060799	0.041902	0.1926	-0.63125	-0.30625	-0.56458	-1.1083	-0.1	-0.97292	-0.77708	-0.31458	-1.0063	-0.33333	-0.44375	-1.0333	-0.095833	-0.95	-0.69792	-0.25833	30.068	335.179	345.248	39.282	27.722	322.240	252.935	13.613	47.867	99.606	75.970	34.258	154.814	228.519	290.224	309.865	0.00017168	0.00079355	0.00020991	541.02	1.3156e-06	1.6455e-06	1011.2	138.13	5.1171e-06	5.9037e-06	288.84	110.68	38.331	17.349	3.2539e-06	41.81	0.00020004	0.00020588	5.5895e-05	448.89	2.2069e-06	2.1949e-06	832.82	116.06	2.1305e-06	2.1387e-06	236.05	90.778	33.063	14.621	2.0975e-06	34.362	162.115	117.601	119.785	16.564	116.909	332.517	15.172	20.624	204.894	186.127	18.195	22.891	24.006	29.094	337.128	26.849	-8191	255	
1875.725	1	1	0	0	0.13754	0.22239	0.062606	0.22858	0.077264	0.088285	0.37919	0.17709	0.25883	0.25262	0.27116	0.288	0.15591	0.16382	0.60314	0.018094	-0.74583	-0.30417	-0.4375	-1.1083	-0.3625	-0.80833	-0.69375	-0.40625	-1.025	-0.4375	-0.55208	-1.1187	-0.2375	-0.8375	-1.0333	-0.1875	338.887	303.434	171.298	335.581	10.418	32.690	342.775	158.695	290.073	204.118	224.226	290.926	343.191	335.644	59.547	43.115	0.00012929	0.00055977	9.7317e-05	535.4	5.5598e-06	5.8558e-06	1011.2	138.64	3.2936e-06	8.9738e-06	286.12	108.86	38.436	17.037	4.0373e-06	40.859	0.00019564	0.00018843	5.2107e-05	446.58	2.0792e-06	2.0885e-06	831.95	116.7	2.0375e-06	2.0677e-06	232.53	89.434	32.464	14.257	2.0228e-06	33.542	176.763	104.263	111.957	16.544	102.776	211.167	15.306	19.997	212.475	177.442	18.323	22.612	23.782	28.035	283.725	27.382	-8191	255	
1875.821	1	1	0	0	0.20878	0.2891	0.10825	0.12888	0.11715	0.11248	0.17178	0.11349	0.20169	0.29	0.22501	0.14086	0.11456	0.30342	0.13441	0.087145	-0.78542	-0.45208	-0.1375	-1.1271	-0.24583	-0.69375	-1.225	-0.11042	-0.94167	-0.7125	-0.29583	-1.2021	-0.34375	-0.63333	-1.2437	-0.20625	105.253	122.817	255.918	344.142	3.041	251.778	163.034	10.959	15.884	243.082	250.202	278.849	157.063	350.059	68.145	345.599	0.00012695	0.00066772	0.00012458	549.93	5.6076e-06	7.7327e-06	1006.2	138.05	3.346e-06	4.7126e-06	279.97	104.87	36.809	16.323	5.5182e-06	39.083	0.0001849	0.00018481	5.0786e-05	452.52	2.0099e-06	1.9762e-06	828.31	115.71	2.0298e-06	1.9465e-06	226.77	86.534	31.306	13.769	1.9091e-06	32.219	128.799	18.137	85.369	16.537	246.381	152.108	15.394	20.550	118.890	14.287	17.796	22.569	23.470	28.296	192.640	27.107	-8191	255	
1875.942	1	1	0	0	0.20831	0.1389	0.27299	0.095496	0.13906	0.21169	0.35131	0.087492	0.17626	0.11942	0.18654	0.33805	0.19508	0.063393	0.2165	0.21551	-0.69375	-0.51667	-0.16667	-1.2938	-0.4125	-0.4125	-1.1646	-0.23125	-1.0125	-0.79167	-0.16667	-1.0771	-0.54792	-0.54375	-0.95625	-0.3125	156.338	133.458	151.321	256.130	68.046	115.559	326.491	307.639	239.786	60.683	93.178	344.607	20.914	137.817	295.248	267.643	0.00022678	0.00056326	2.4656e-05	546.02	2.4285e-06	5.7876e-06	1000.9	136	3.0328e-07	6.5701e-06	273.2	103.91	36.695	16.527	4.0158e-06	38.845	0.00018055	0.00017801	4.9405e-05	453.12	1.9998e-06	1.9469e-06	825.48	114.9	1.9168e-06	1.9598e-06	224.31	85.98	31.174	13.704	1.8909e-06	32.009	120.234	53.906	193.970	16.093	98.508	131.112	15.338	20.256	44.658	172.893	18.282	22.719	23.994	28.669	205.199	27.098	-8191	255	
1876.013	1	1	0	0	0.098267	0.25231	0.096668	0.08369	0.22721	0.10574	0.081861	0.26576	0.098118	0.12463	0.18252	0.15317	0.19171	0.14775	0.33846	0.16547	-0.46042	-0.93958	-0.10625	-1.1	-0.58542	-0.36458	-1.1354	-0.21042	-0.76458	-0.83333	-0.4375	-1.0958	-0.65	-0.25	-1.2083	-0.3375	212.810	242.751	344.480	233.141	52.685	158.654	165.932	24.753	248.062	105.490	200.125	84.593	297.210	289.217	341.760	173.610	0.00020351	0.00056848	4.3755e-05	548.76	2.8725e-06	5.1546e-06	997.46	137.53	1.815e-06	3.6223e-06	277.31	104.97	37.124	16.388	2.128e-06	39.607	0.00017705	0.00017772	4.8902e-05	454.9	2.0034e-06	1.9605e-06	825.46	115.91	1.9888e-06	1.9564e-06	225.16	86.779	31.526	13.733	1.9851e-06	32.375	110.492	128.456	57.789	16.067	13.365	229.581	15.716	20.927	286.186	40.031	18.448	23.010	23.785	28.292	350.612	27.285	-8191	255	
1876.110	1	1	0	0	0.10575	0.071366	0.25712	0.16967	0.35423	0.16588	0.33751	0.072921	0.22904	0.11903	0.052887	0.15292	0.011311	0.092116	0.071976	0.13683	-0.325	-0.7125	-0.28125	-1.0812	-0.48125	-0.275	-1.2875	-0.28333	-0.75208	-0.79792	-0.13125	-1.1583	-0.6375	0.058333	-1.0312	-0.4875	43.639	106.774	125.828	298.161	103.875	61.983	296.740	237.622	66.549	184.799	167.420	307.539	82.392	275.626	54.973	358.087	0.00017418	0.00015626	0.00012563	543.41	6.3872e-06	3.2152e-06	1012.9	138.38	6.9387e-06	4.3715e-06	279.49	106.82	37.074	16.492	3.248e-06	40.384	0.00018656	0.00017384	4.989e-05	451.73	1.9745e-06	1.9664e-06	830.62	115.48	1.9677e-06	1.9949e-06	227.85	87.879	31.578	13.882	1.9695e-06	32.801	154.424	9.076	70.020	16.518	128.241	170.816	15.499	20.229	185.886	169.515	18.026	22.680	23.797	28.796	48.525	27.580	-8191	255	
1876.230	1	1	0	0	0.26552	0.10308	0.10553	0.16087	0.098198	0.24568	0.20318	0.021887	0.30122	0.079749	0.29893	0.33222	0.27431	0.12934	0.087883	0.16932	-0.03125	-0.99375	-0.14583	-0.82292	-0.60833	-0.079167	-1.1437	-0.51458	-0.525	-1.1146	-0.20833	-0.95833	-0.95208	-0.04375	-1.1021	-0.78542	186.821	267.984	120.871	339.740	266.701	329.926	234.295	29.695	244.581	333.540	353.149	326.898	15.927	99.630	26.827	305.161	0.00018785	0.00038851	9.9725e-05	548.93	7.3354e-06	4.7049e-06	1013.4	138.36	9.9657e-07	9.3029e-06	278.22	105.17	37.347	16.18	4.5566e-06	39.188	0.00018405	0.00017725	4.9908e-05	453.36	1.9898e-06	2.0093e-06	830.63	116.01	1.9921e-06	1.965e-06	227.51	87.02	31.634	13.703	1.9999e-06	32.31	154.343	26.638	69.899	16.658	117.217	166.669	15.787	20.128	146.529	109.495	18.401	23.072	23.399	29.074	196.016	27.102	-8191	255	
1876.325	1	1	0	0	0.30988	0.11365	0.091014	0.27528	0.3402	0.26631	0.3031	0.1265	0.13387	0.23991	0.077598	0.21008	0.046478	0.19788	0.14844	0.22278	-0.025	-1.2375	-0.5	-0.81875	-1.0063	0.11042	-0.96667	-0.78542	-0.41667	-1.1083	-0.35833	-0.84792	-0.98542	-0.17708	-0.80625	-0.77083	321.872	210.504	76.830	278.288	333.897	103.392	286.511	276.914	209.922	88.893	316.341	271.862	302.180	40.511	201.953	143.195	0.00016399	0.00039414	8.5157e-05	539.65	6.4831e-06	3.3495e-06	1007.4	136.65	3.1087e-06	3.7216e-06	273.59	105.57	36.57	15.964	3.6721e-06	39.249	0.0001811	0.00017827	4.9927e-05	450.09	1.9565e-06	1.9435e-06	828.47	115.47	1.9291e-06	1.9413e-06	224.05	86.671	31.187	13.61	1.9912e-06	32.096	155.903	53.990	219.067	16.924	57.008	133.665	15.355	20.753	280.267	115.721	17.547	22.857	24.074	29.410	155.879	27.122	-8191	255	
1876.421	1	1	0	0	0.23819	0.10458	0.13944	0.093644	0.2323	0.16878	0.24089	0.32556	0.19031	0.19243	0.13109	0.095703	0.11103	0.10228	0.08702	0.18175	0.13125	-1.1604	-0.35417	-0.725	-0.99583	-0.13125	-0.85833	-0.75	-0.17292	-1.1042	-0.40833	-0.56042	-1.0771	-0.22083	-0.78125	-0.80625	294.045	177.054	324.228	337.564	153.819	236.924	322.181	93.638	3.687	108.282	312.202	200.650	215.995	299.473	289.889	340.709	0.00016084	0.00036206	0.0001177	547.46	4.8391e-06	3.8974e-06	1001.9	136.97	5.2539e-06	7.6197e-06	273.91	104.77	36.771	15.955	6.585e-07	39.236	0.00017932	0.00017677	4.7978e-05	452.59	1.9451e-06	1.9085e-06	826.69	115.11	1.9311e-06	1.9332e-06	224.21	86.188	31.279	13.574	1.9078e-06	31.922	117.674	190.431	87.919	16.685	79.280	168.541	15.511	20.858	72.792	117.509	18.111	22.889	23.350	28.427	205.014	27.185	-8191	255	
1876.541	1	1	0	0	0.22453	0.085063	0.1302	0.17571	0.21803	0.29033	0.27203	0.17788	0.12483	0.235	0.18214	0.093375	0.16618	0.042275	0.21062	0.20923	0.17292	-1.225	-0.53958	-0.35208	-1.15	-0.24792	-0.98958	-0.90208	-0.18333	-1.1021	-0.7375	-0.41042	-1.1938	-0.39583	-0.76875	-1.1104	191.423	333.812	152.702	4.313	318.104	316.618	285.852	52.678	259.045	111.894	305.310	191.780	78.214	290.372	242.932	251.599	0.00020743	0.00012826	5.2359e-05	546.7	5.4946e-06	2.5863e-06	1007.9	136.69	2.0036e-06	3.4874e-06	274.35	106.41	37.274	16.322	5.6919e-06	39.85	0.00017503	0.00017621	5.0633e-05	452.81	1.9123e-06	1.9572e-06	828.44	115.06	1.9483e-06	1.9838e-06	225.38	87.13	31.615	13.674	1.9586e-06	32.479	132.014	138.039	291.675	16.224	166.142	280.978	15.477	20.500	331.997	355.841	17.757	22.530	23.673	28.463	184.479	27.313	-8191	255	
1876.613	1	1	0	0	0.34816	0.24616	0.18579	0.1834	0.14895	0.050357	0.30366	0.10423	0.040428	0.1379	0.34888	0.052895	0.049273	0.029721	0.13453	0.32442	0.23125	-0.98542	-0.83125	-0.2375	-1.1292	-0.54375	-0.79792	-1.1875	-0.033333	-1.0042	-0.81667	-0.25625	-1.1604	-0.40208	-0.45208	-1.0021	187.204	173.725	85.114	292.747	328.663	187.821	289.783	213.147	284.666	180.403	277.837	358.949	202.130	177.593	60.281	350.514	0.00012	0.00024198	0.00016283	541.5	3.9187e-06	4.0943e-06	1009.5	138.6	3.4371e-06	6.4642e-07	275.29	105	36.966	16.092	4.3472e-06	38.899	0.0001791	0.00017706	4.9855e-05	451.63	1.9591e-06	1.9596e-06	830.73	115.69	2.0177e-06	1.9704e-06	224.81	86.318	31.404	13.566	1.9953e-06	31.848	151.457	89.216	102.237	16.808	49.146	174.761	15.775	20.832	20.506	222.946	18.570	22.828	23.947	28.535	215.093	27.141	-8191	255	
1876.709	1	1	0	0	0.09121	0.29366	0.30767	0.084774	0.064395	0.14296	0.39768	0.24567	0.068892	0.19462	0.24479	0.037985	0.11596	0.16489	0.22413	0.061042	0.23333	-0.81875	-0.91458	-0.26875	-1.1896	-0.47708	-0.49375	-0.93333	-0.125	-0.94792	-0.97708	-0.23958	-0.91042	-0.60833	-0.13125	-1.2042	344.810	244.962	116.096	285.665	257.781	103.463	5.798	168.876	241.713	247.617	360.265	290.946	239.070	133.670	133.819	181.241	0.00011383	0.00055689	0.00025862	546.48	1.8811e-06	1.8264e-06	1001.6	137.27	1.8037e-06	6.7159e-06	274.85	104.12	36.529	16.196	3.2813e-06	38.664	0.00018048	0.0001822	4.8948e-05	451.57	1.9521e-06	1.9603e-06	826.5	114.75	1.987e-06	2.0027e-06	224.01	86.121	31.039	13.596	1.9749e-06	31.811	149.654	126.683	78.642	15.924	228.638	295.602	15.537	20.555	352.173	197.158	18.435	22.441	23.029	28.513	110.185	27.155	-8191	255	
1876.805	1	1	0	0	0.081781	0.10369	0.070615	0.10998	0.11518	0.018033	0.32959	0.055828	0.22705	0.258	0.14433	0.11783	0.13384	0.25363	0.14254	0.056586	0.035417	-0.76458	-0.975	-0.25	-1.0625	-0.59375	-0.47083	-0.99583	-0.19167	-0.51667	-1.1958	-0.16042	-0.9375	-0.6375	-0.18958	-1.0333	100.201	357.187	315.315	216.091	183.716	192.583	19.567	34.121	173.504	123.522	201.084	339.065	58.152	226.696	148.636	298.157	0.00017627	0.00040457	0.00017499	542.29	9.1278e-06	6.0219e-06	1009.5	138.91	2.86e-06	1.0796e-05	275.92	104.26	36.498	16.234	1.738e-06	38.353	0.00018371	0.00018138	5.0391e-05	451.91	1.9828e-06	1.959e-06	828.12	114.78	1.987e-06	2.0327e-06	223.65	86.119	31.18	13.641	1.9777e-06	31.892	108.513	106.256	187.652	16.525	175.554	90.963	15.269	19.941	228.568	108.590	17.916	22.941	23.440	28.271	118.247	26.965	-8191	255	
1876.924	1	1	0	0	0.12328	0.21888	0.10211	0.28461	0.10309	0.083511	0.21531	0.1286	0.10164	0.099289	0.081885	0.063305	0.15318	0.091605	0.17475	0.40042	0.13333	-0.51667	-1.0021	-0.35417	-0.95	-0.85833	-0.23125	-1.0896	-0.40625	-0.53958	-1.1396	-0.29792	-1.0271	-0.88958	-0.2375	-1.0938	324.690	282.043	92.029	240.359	303.408	140.294	53.905	138.523	232.167	84.976	131.979	347.347	270.967	332.615	109.150	309.436	0.00017243	0.00032202	6.5178e-05	547.12	3.5952e-06	5.1714e-06	1005.5	135.72	5.9535e-06	2.547e-06	272.46	105.22	36.198	15.927	6.0605e-06	38.453	0.00018216	0.00017725	5.022e-05	454.31	1.9716e-06	1.9274e-06	827.4	114.07	1.9616e-06	1.9376e-06	221.72	86.486	30.975	13.393	1.9216e-06	31.544	113.688	129.661	56.130	16.263	76.351	85.052	15.312	19.882	92.901	71.529	18.181	22.966	23.823	28.999	33.928	27.391	-8191	255	
1877.020	1	1	0	0	0.088689	0.03603	0.13176	0.50236	0.23581	0.26441	0.034307	0.18024	0.16412	0.058259	0.17921	0.29817	0.11072	0.2788	0.265	0.077317	-0.32917	-0.26042	-1.2104	-0.40625	-0.71667	-0.76667	-0.26875	-1.0625	-0.54792	-0.36042	-1.0979	-0.2875	-0.72917	-1.1625	-0.18542	-0.9625	197.931	277.488	178.591	297.661	76.241	351.393	277.644	135.963	295.317	241.950	295.079	317.775	14.568	7.571	299.878	242.095	0.00016493	0.00092227	4.884e-05	548.38	5.0222e-06	4.4233e-06	1007.1	137.39	7.0242e-07	2.4714e-06	268.48	103.02	36.191	15.934	5.0112e-06	37.646	0.00017841	0.00017392	4.8521e-05	454.75	1.9652e-06	1.8937e-06	827.96	114.92	1.9329e-06	1.9201e-06	220.31	84.362	30.631	13.358	1.895e-06	30.952	168.633	158.811	93.675	15.488	61.071	87.960	15.302	19.992	216.769	196.057	18.006	22.579	23.409	28.557	86.666	27.314	-8191	255	
1877.117	1	1	0	0	0.14033	0.32061	0.14349	0.39724	0.10731	0.14839	0.10762	0.17011	0.20295	0.07201	0.057181	0.39425	0.22082	0.20986	0.15973	0.094475	-0.28958	-0.18958	-1.1083	-0.26458	-0.71667	-0.96042	-0.17292	-1.0167	-0.63542	-0.23125	-1.0021	-0.23333	-0.36042	-0.93125	-0.16042	-0.86667	51.516	308.049	347.796	279.503	321.623	253.449	183.844	256.307	204.053	114.022	125.644	120.288	42.486	288.495	65.166	256.377	0.0002283	0.00011947	9.1027e-05	546.07	2.3465e-06	2.3813e-06	1001.1	136.57	2.1768e-06	5.312e-06	267.6	101.12	36	15.827	5.0752e-06	37.472	0.00017837	0.00017319	4.6541e-05	453.98	1.8843e-06	1.888e-06	823.91	114.77	1.8884e-06	1.8744e-06	217.65	83.671	30.376	13.258	1.9072e-06	30.709	125.984	38.119	269.996	16.047	161.615	125.288	15.518	20.139	158.386	121.113	18.398	22.425	24.429	28.332	312.052	27.434	-8191	255	
1877.213	1	1	0	0	0.40619	0.14091	0.10808	0.2333	0.11558	0.23943	0.44923	0.15147	0.16582	0.014125	0.063542	0.068731	0.19132	0.070686	0.12166	0.12128	-0.37708	-0.30208	-1.1042	-0.58333	-0.52708	-1.0958	-0.52083	-0.97083	-0.83542	-0.16667	-1.0021	-0.52083	-0.35208	-1.2292	-0.27083	-1.0396	255.418	333.458	325.666	84.328	94.720	312.565	308.776	94.537	25.185	93.295	213.557	159.466	62.863	316.921	96.919	46.522	0.0001777	0.00074072	0.00014866	542.79	3.6284e-06	2.0653e-06	1002.2	136.75	3.1413e-06	1.8609e-06	266.83	101.43	35.861	15.695	5.9718e-07	37.227	0.00017033	0.00017031	4.7085e-05	451.91	1.9038e-06	1.8621e-06	825.05	114.41	1.884e-06	1.9023e-06	216.97	83.942	30.524	13.23	1.8736e-06	30.564	132.037	133.057	94.361	16.754	209.776	83.418	15.222	20.660	148.957	13.716	18.467	22.576	24.490	29.271	144.235	27.205	-8191	255	
1877.309	1	1	0	0	0.1087	0.15053	0.20712	0.17422	0.27621	0.38424	0.2406	0.39198	0.081988	0.042673	0.10324	0.21701	0.057059	0.12337	0.21407	0.023355	-0.62708	-0.09375	-1.075	-0.60833	-0.29167	-1.0729	-0.31458	-0.65208	-0.97292	-0.15	-1.1562	-0.69167	-0.15625	-0.97083	-0.19583	-0.7125	140.749	330.932	322.816	353.338	73.332	336.413	345.087	257.337	160.988	124.518	312.954	359.864	186.634	276.980	291.831	150.763	0.00024325	0.0002504	0.00019094	550.89	6.1227e-06	9.797e-07	1011.6	136.15	4.9933e-06	5.5779e-06	265.36	102.2	35.687	15.793	5.5604e-06	37.484	0.00017499	0.00017538	4.6532e-05	455.24	1.8766e-06	1.8246e-06	827.94	113.95	1.8768e-06	1.8457e-06	216.17	83.954	30.341	13.27	1.8895e-06	30.586	152.390	234.112	95.566	16.021	147.870	75.981	14.825	20.377	129.510	95.515	18.275	22.918	23.775	28.013	225.835	27.543	-8191	255	
1877.405	1	1	0	0	0.12047	0.28901	0.3136	0.13142	0.12536	0.19992	0.13583	0.29784	0.058884	0.26416	0.055675	0.25516	0.11242	0.23621	0.089143	0.42704	-0.82708	-0.060417	-0.88542	-0.86458	-0.18125	-1.2917	-0.40625	-0.4125	-0.9625	-0.28333	-0.9375	-0.91458	-0.14792	-1.0375	-0.26667	-0.42292	357.399	68.658	325.525	9.501	71.070	220.149	272.395	56.551	230.548	298.207	315.583	62.138	281.518	75.721	192.780	326.101	0.00019044	3.1587e-05	4.3952e-05	549.54	3.8766e-06	1.3196e-06	1006.3	136.25	1.477e-06	8.2124e-06	263.69	101.16	35.571	15.472	4.7598e-06	36.732	0.00017269	0.00016835	4.8296e-05	454.52	1.8595e-06	1.8847e-06	827.53	113.62	1.879e-06	1.8741e-06	215.15	83.36	29.963	13.152	1.8826e-06	30.218	134.780	291.737	245.185	15.738	215.234	253.739	15.338	20.383	181.991	112.101	18.371	22.760	23.466	29.088	10.177	27.346	-8191	255	
1877.501	1	1	0	0	0.2995	0.19805	0.086668	0.13175	0.15601	0.03965	0.24871	0.18338	0.18546	0.31843	0.39143	0.092414	0.084339	0.26512	0.20767	0.39213	-0.66667	-0.19167	-0.70625	-0.86875	-0.3125	-0.96458	-0.51875	-0.45417	-1.2021	-0.24792	-0.6625	-0.79167	0.010417	-1.0854	-0.53333	-0.29167	273.437	264.716	185.465	128.380	208.081	59.831	305.350	154.405	180.130	263.007	4.357	96.279	335.842	34.087	73.391	245.626	0.00020831	0.00026541	0.00025758	554.31	1.4135e-06	2.1062e-06	1003.5	136.85	2.2754e-06	8.3473e-06	262.66	99.352	34.815	15.528	3.4063e-06	36.486	0.00017238	0.00017247	4.7844e-05	457.67	1.8554e-06	1.8401e-06	822.96	113.99	1.8548e-06	1.8811e-06	213.15	82.099	29.577	13.114	1.8836e-06	29.932	103.648	72.006	26.740	16.284	256.676	166.677	15.287	20.694	48.892	100.616	18.323	22.738	24.571	28.911	112.675	27.745	-8191	255	
1877.622	1	1	0	0	0.07766	0.22436	0.10619	0.17663	0.066489	0.15417	0.17292	0.45531	0.19054	0.1898	0.22509	0.051547	0.16233	0.18657	0.20846	0.21194	-0.56667	-0.4125	-0.55417	-1.0708	-0.21042	-1.1708	-0.7625	-0.36667	-0.99583	-0.37708	-0.56042	-0.85208	-0.21042	-0.93333	-0.82708	-0.275	108.331	131.488	354.763	216.062	248.042	288.441	201.600	294.495	174.182	215.722	297.988	38.810	201.680	12.828	106.732	240.344	0.00023788	0.00084439	0.00013384	553.09	2.2191e-06	5.8598e-06	1004.2	135.57	1.4574e-06	6.9513e-06	262.03	101.32	35.334	15.7	2.0528e-06	36.643	0.00017129	0.00017216	4.6852e-05	456.39	1.8517e-06	1.8519e-06	825.15	113.8	1.8738e-06	1.868e-06	214.17	82.956	29.849	13.172	1.9199e-06	30.154	135.810	169.276	121.613	16.107	243.209	141.344	15.320	20.577	225.429	115.218	17.535	22.208	22.969	28.257	163.784	27.161	-8191	255	
1877.716	1	1	0	0	0.2602	0.21914	0.26016	0.13784	0.049416	0.20616	0.28607	0.16171	0.11852	0.067413	0.045427	0.14222	0.10577	0.11696	0.34089	0.20178	-0.71458	-0.49375	-0.47708	-1.0354	-0.12917	-0.93958	-1.025	-0.22292	-0.91042	-0.58333	-0.61875	-1.3375	-0.0875	-0.68958	-0.97708	-0.20833	112.752	204.324	96.241	233.387	157.613	295.590	321.918	134.674	61.978	160.664	50.602	9.203	196.971	207.572	224.028	179.211	0.00016533	0.0011058	0.00011421	551.32	5.9787e-06	1.5759e-06	1003.2	135.28	1.0034e-06	8.0983e-06	264.76	100.18	35.397	15.757	4.595e-06	37.088	0.00017599	0.00016908	4.711e-05	457.33	1.887e-06	1.8387e-06	824.73	114.07	1.8557e-06	1.9011e-06	214.86	82.909	29.945	13.147	1.8572e-06	30.409	156.352	175.271	129.895	15.613	182.121	47.389	15.106	19.831	339.323	110.756	17.682	22.617	23.921	28.455	240.273	27.224	-8191	255	
1877.812	1	1	0	0	0.30585	0.20311	0.10465	0.10467	0.16188	0.12049	0.15594	0.20353	0.19364	0.069418	0.018729	0.23755	0.097866	0.20994	0.10504	0.29933	-0.8	-0.50625	-0.25	-1.15	-0.34167	-0.69167	-0.97708	-0.30208	-0.88542	-0.66458	-0.34375	-1.1667	-0.32917	-0.63542	-0.98958	0.014583	333.093	146.868	83.065	342.700	287.034	199.516	330.559	65.792	359.294	128.479	179.774	14.754	48.018	320.167	143.057	6.740	0.00016375	0.00075427	3.0831e-05	551.65	2.9243e-06	1.1404e-06	996.09	135.77	3.1121e-06	5.2612e-06	263.99	98.977	34.961	15.591	2.3431e-07	36.418	0.00017177	0.00016474	4.6713e-05	457.11	1.8544e-06	1.8876e-06	823.54	113.35	1.8407e-06	1.8453e-06	215.28	82.217	29.78	13.113	1.8515e-06	29.908	139.089	142.148	171.549	16.099	189.962	147.121	15.377	19.837	270.726	13.799	17.994	22.814	23.905	28.694	37.876	27.158	-8191	255	
1877.908	1	1	0	0	0.12101	0.093111	0.053065	0.076127	0.045527	0.23321	0.27239	0.27056	0.094071	0.034638	0.23295	0.078103	0.05449	0.37534	0.25747	0.26514	-0.57917	-0.68542	-0.1875	-1.0187	-0.14792	-0.5625	-1.0354	-0.1125	-1.0458	-0.8875	-0.21042	-1.1229	-0.4	-0.49375	-1.1458	-0.2375	310.629	224.113	76.195	345.895	230.636	193.050	269.835	313.001	138.310	36.150	358.723	327.022	138.175	59.577	171.051	5.036	0.00015777	0.00026958	0.00010021	552.52	2.6283e-06	3.3356e-06	995.86	133.33	3.6252e-06	2.8525e-06	262.66	100.15	34.733	15.232	8.1729e-06	36.351	0.00017458	0.00016702	4.6824e-05	456.9	1.8833e-06	1.8351e-06	822.08	113.44	1.8893e-06	1.828e-06	212.81	82.289	29.485	12.957	1.8506e-06	29.843	143.400	305.767	262.982	16.075	85.789	104.050	15.483	20.033	191.627	61.777	18.339	22.968	24.108	29.490	191.227	27.319	-8191	255	
1878.005	1	1	0	0	0.09134	0.083965	0.17134	0.1293	0.25975	0.11419	0.19049	0.17663	0.12878	0.049113	0.068676	0.19661	0.3245	0.085841	0.1521	0.26826	-0.49583	-0.82292	-0.054167	-1.1396	-0.56875	-0.48542	-1.1938	-0.27083	-0.68542	-0.68333	-0.15	-0.94792	-0.46042	-0.30208	-1.1	-0.3375	189.809	11.393	317.860	172.378	204.634	156.605	245.700	212.897	101.257	193.803	42.678	16.292	293.007	165.718	95.938	64.638	0.00012029	0.0010195	7.5715e-05	552.48	5.7649e-06	4.3293e-06	999.01	135.61	1.3889e-06	1.4682e-06	260.87	99.864	34.917	15.505	4.8885e-06	37.08	0.00016991	0.00016852	4.6069e-05	457.67	1.8631e-06	1.8508e-06	820.68	113.51	1.8429e-06	1.8261e-06	212.65	82.38	29.628	12.997	1.8624e-06	30.03	116.946	20.409	112.463	16.795	76.380	15.943	15.291	21.192	146.391	321.492	17.696	23.005	23.938	28.908	199.487	27.287	-8191	255	
1878.101	1	1	0	0	0.11142	0.12019	0.23483	0.12288	0.21943	0.28067	0.26139	0.10135	0.24916	0.21492	0.18031	0.16082	0.13173	0.091963	0.13872	0.19402	-0.34375	-0.93542	0.035417	-1.0042	-0.53958	-0.19375	-1.3854	-0.40625	-0.72917	-0.90208	-0.079167	-0.96875	-0.51667	-0.10833	-0.98958	-0.48958	240.469	171.186	253.467	241.075	265.477	328.936	302.809	284.327	227.244	98.493	309.414	320.301	311.183	261.779	183.168	323.420	0.0002044	0.00020554	5.4501e-05	551.18	4.281e-06	6.8637e-06	1000.7	136.49	7.5592e-06	6.5824e-06	262.13	100.48	34.645	15.338	5.0751e-06	36.682	0.00017149	0.0001693	4.7738e-05	455.85	1.8558e-06	1.8351e-06	821.87	113.52	1.8137e-06	1.825e-06	212.45	82.787	29.616	13.024	1.8548e-06	30.055	146.601	110.932	114.512	16.687	161.665	215.729	15.591	20.714	150.532	117.395	18.560	23.318	23.492	28.875	156.643	26.837	-8191	255	
1878.221	1	1	0	0	0.17634	0.30392	0.15839	0.16598	0.095799	0.23646	0.25365	0.13082	0.077212	0.10843	0.1408	0.075059	0.31288	0.10308	0.031923	0.16755	-0.28542	-0.82708	-0.03125	-0.83333	-0.7125	-0.31875	-1.2542	-0.45625	-0.43125	-1.1667	-0.16667	-0.81667	-0.77917	-0.05625	-0.9375	-0.58125	75.200	176.728	329.518	37.652	47.566	118.667	343.198	14.968	129.207	98.521	245.518	36.777	305.080	74.137	147.479	278.310	0.00012186	0.00019559	7.0092e-05	549.94	7.6378e-07	5.9355e-06	1001.3	137.7	1.4576e-06	7.5415e-06	263.75	101.51	35.104	15.282	4.6556e-06	36.441	0.00016929	0.00016712	4.5357e-05	455.96	1.8441e-06	1.8014e-06	824.02	114.13	1.8378e-06	1.8305e-06	214.16	83.276	29.824	13.03	1.8196e-06	29.864	119.750	75.463	127.892	16.750	188.674	267.671	15.906	20.879	240.847	116.877	18.646	22.917	23.288	28.634	149.794	27.350	-8191	255	
1878.318	1	1	0	0	0.055483	0.18827	0.045943	0.1524	0.29537	0.13935	0.089686	0.17351	0.15201	0.10174	0.078547	0.2002	0.2693	0.1588	0.15296	0.15818	0.072917	-1.1313	-0.29167	-0.8875	-0.85208	-0.23333	-1.1646	-0.4625	-0.225	-1.1708	-0.29167	-0.64375	-0.97917	-0.31875	-0.88125	-0.57917	188.762	151.609	283.138	336.217	358.043	230.519	266.250	81.123	235.878	296.491	322.116	179.954	42.876	142.826	167.622	13.897	0.00020583	0.00047385	0.00013545	549.58	3.2262e-06	3.0727e-06	1009.7	136.13	1.2986e-06	8.4608e-06	260.16	98.857	34.83	15.435	5.7768e-06	36.363	0.00017292	0.00016794	4.6672e-05	455.79	1.8281e-06	1.8509e-06	825.78	113.26	1.896e-06	1.8007e-06	211.59	81.992	29.407	12.942	1.8605e-06	29.554	149.779	60.203	351.365	16.129	127.910	98.534	15.567	20.643	158.570	84.134	18.682	22.747	24.057	28.680	87.266	27.282	-8191	255	
1878.414	1	1	0	0	0.15525	0.31775	0.28117	0.25612	0.089535	0.23061	0.18211	0.1562	0.09713	0.14593	0.1051	0.26247	0.073931	0.27491	0.032878	0.20593	0.17083	-1.0917	-0.31042	-0.72708	-1.0021	0.0041667	-1.1812	-0.87083	-0.2	-1.175	-0.53333	-0.625	-1.125	-0.2625	-1.125	-0.93333	125.091	105.027	305.475	287.030	59.047	329.789	239.727	46.633	110.549	137.807	320.555	335.464	307.116	198.210	205.633	117.932	7.523e-05	0.00025232	9.1928e-05	547.37	2.9941e-06	4.1841e-06	1002.2	135.62	6.4508e-06	1.9032e-06	259.41	100.32	34.681	15.333	2.8017e-06	35.764	0.00016921	0.00016596	4.6475e-05	455.68	1.8598e-06	1.8319e-06	822.89	112.87	1.8693e-06	1.842e-06	212.71	82.381	29.599	12.89	1.8059e-06	29.517	140.204	294.797	355.957	16.919	238.941	195.539	15.649	19.970	66.077	30.313	17.878	22.737	24.575	28.680	205.976	27.185	-8191	255	
1878.510	1	1	0	0	0.1962	0.18506	0.064008	0.25318	0.15099	0.069396	0.48081	0.24994	0.20636	0.15646	0.26449	0.39092	0.054811	0.18851	0.1855	0.16797	0.18958	-1.1708	-0.65208	-0.42917	-1.1104	-0.31667	-0.75417	-0.87917	-0.3125	-1.025	-0.53125	-0.53542	-1.0646	-0.26875	-0.88958	-1.1646	339.248	127.594	30.784	48.840	71.971	283.049	332.451	47.152	334.100	4.496	256.286	40.707	74.457	15.447	173.453	285.361	0.00014809	0.00022597	0.00013507	550.21	5.5928e-06	1.5423e-06	997.76	135.1	3.7364e-06	8.4637e-06	262.28	100.39	34.79	15.685	2.0935e-06	36.397	0.00016711	0.00016304	4.6341e-05	455.64	1.82e-06	1.8441e-06	821.4	113.1	1.8352e-06	1.8664e-06	214.11	82.809	29.609	13.042	1.8301e-06	29.742	122.237	55.901	16.143	16.477	162.276	31.985	15.440	19.926	148.439	107.324	17.816	22.474	23.739	28.804	262.302	27.569	-8191	255	
1878.606	1	1	0	0	0.16454	0.085619	0.18297	0.18165	0.1113	0.041886	0.53625	0.18136	0.1671	0.099812	0.19578	0.26438	0.11962	0.12491	0.031498	0.1477	0.18542	-0.94792	-0.54583	-0.41875	-1.1604	-0.20208	-0.7	-1.0083	-0.18958	-1.2854	-0.5625	-0.38542	-1.1875	-0.23542	-0.59375	-0.95625	340.246	202.544	87.263	213.988	296.976	215.995	303.858	29.653	343.613	150.704	176.989	213.258	361.721	72.644	241.820	7.675	0.00018267	0.00068121	0.00020517	555.13	6.2674e-06	1.9927e-06	1001.9	135.1	5.8158e-06	6.2843e-06	259.65	101.15	34.714	15.513	4.049e-06	35.507	0.00017058	0.0001682	4.633e-05	455.69	1.8226e-06	1.82e-06	826.99	113.15	1.8526e-06	1.8697e-06	211.53	83.028	29.694	12.917	1.8268e-06	29.227	123.617	351.931	172.253	16.645	183.637	161.674	15.611	20.034	279.296	140.249	17.949	22.233	23.230	28.693	173.413	27.306	-8191	255	
1878.700	1	1	0	0	0.15666	0.10781	0.44532	0.13259	0.31211	0.0079746	0.12599	0.12722	0.22002	0.24696	0.086134	0.090209	0.14441	0.31225	0.038351	0.086393	-0.064583	-0.93958	-0.71458	-0.48958	-1.1604	-0.49167	-0.70833	-1.1958	-0.36875	-0.80833	-0.74167	-0.45417	-1.0896	-0.53125	-0.35417	-1.1708	113.594	152.052	343.125	158.989	266.640	242.470	279.836	52.639	312.841	76.421	209.545	310.071	328.471	269.343	356.816	283.062	0.00021811	0.00033367	4.8717e-05	554.69	3.1019e-06	5.1832e-06	1003.1	135.01	4.1239e-06	1.143e-06	256.5	98.695	34.093	15.464	5.507e-06	35.393	0.00017031	0.00016952	4.5902e-05	456.68	1.8251e-06	1.8174e-06	827.26	112.4	1.8235e-06	1.8268e-06	209.28	81.799	29.323	12.811	1.7983e-06	28.923	156.076	24.192	2.119	16.049	193.961	111.262	15.231	20.040	138.075	301.924	17.794	22.372	23.348	28.606	218.945	26.979	-8191	255	
1878.797	1	1	0	0	0.17273	0.23422	0.053465	0.13683	0.083198	0.11125	0.34522	0.09787	0.098684	0.15991	0.18781	0.24015	0.1048	0.19865	0.14097	0.21298	0.041667	-0.68958	-0.77708	-0.23542	-0.97708	-0.60833	-0.39583	-1.25	-0.24167	-0.625	-1.0792	-0.3	-1.075	-0.75417	-0.26667	-1.1708	111.272	288.298	16.564	53.410	168.208	246.409	320.953	219.948	191.054	254.801	122.582	341.028	122.221	49.551	189.021	176.056	0.00016839	0.00083721	0.00011226	550.16	1.5267e-06	1.1741e-06	1009.4	135.52	2.2519e-06	1.6479e-06	260.05	100.97	34.384	15.267	3.4853e-06	35.133	0.00016987	0.00016409	4.592e-05	454.87	1.8145e-06	1.8146e-06	827.52	112.89	1.8052e-06	1.8032e-06	210.56	82.655	29.284	12.913	1.8446e-06	29.155	108.271	70.415	261.198	15.831	280.156	124.591	15.140	20.314	132.489	109.909	17.648	22.403	23.452	27.466	105.471	26.979	-8191	255	
1878.893	1	1	0	0	0.19327	0.095716	0.12991	0.066433	0.1813	0.18259	0.17209	0.19042	0.17436	0.067281	0.22836	0.13938	0.065864	0.070208	0.10965	0.11258	0.085417	-0.66875	-1.125	-0.16042	-1.1208	-0.75	-0.4875	-1.0354	-0.24792	-0.53958	-1.1083	-0.40625	-0.88542	-0.79792	-0.23542	-1.1167	300.723	160.020	211.313	165.968	27.844	116.972	321.446	208.479	54.501	314.124	301.798	240.928	78.485	278.335	185.956	305.038	0.00015773	0.00095256	0.00013121	549.05	1.8693e-06	3.162e-06	1009.9	135.17	1.0462e-06	1.5557e-06	259.51	100.46	34.713	15.407	3.4452e-06	36.159	0.00017131	0.00016531	4.6234e-05	456.28	1.7918e-06	1.7835e-06	826.45	113.54	1.8318e-06	1.842e-06	210.78	82.882	29.504	12.955	1.8146e-06	29.521	137.735	129.039	163.293	15.944	244.143	214.418	14.862	19.961	146.831	80.184	17.806	22.260	23.909	28.359	227.959	27.864	-8191	255	
1879.013	1	1	0	0	0.1427	0.14592	0.27818	0.19566	0.31325	0.059681	0.1937	0.1741	0.13456	0.23901	0.076383	0.080056	0.10303	0.18343	0.025248	0.14064	-0.10833	-0.51875	-1.0938	-0.15208	-0.725	-0.81458	-0.39167	-1.2563	-0.63542	-0.45208	-1.2146	-0.3125	-0.75	-1.0542	-0.20833	-0.93958	102.706	319.427	238.157	249.697	342.248	245.327	233.843	203.549	201.745	167.992	152.775	167.789	11.148	113.490	28.761	49.865	0.00014246	0.00060092	0.00013747	554.61	3.3861e-06	2.5522e-06	1005.7	136.42	4.1736e-06	5.8415e-06	258.27	100.45	34.769	15.474	3.647e-06	36.112	0.00016862	0.00016538	4.5412e-05	457.12	1.8748e-06	1.7581e-06	826.6	113.9	1.8109e-06	1.8292e-06	211.11	82.892	29.537	12.988	1.8153e-06	29.581	121.916	217.657	87.535	15.954	161.944	176.659	15.603	19.978	50.207	170.231	18.155	23.026	24.704	29.226	230.006	27.485	-8191	255	
1879.109	1	1	0	0	0.10611	0.15595	0.21016	0.16318	0.14781	0.13181	0.36931	0.30986	0.17079	0.15436	0.079394	0.29817	0.1059	0.23745	0.20615	0.11855	-0.085417	-0.17292	-1.0812	-0.63333	-0.8125	-1.1063	-0.12292	-1.1063	-0.54583	-0.30833	-1.1583	-0.37708	-0.56458	-1.0625	-0.32292	-1.1583	224.042	247.730	254.494	269.724	314.648	50.189	326.006	337.559	255.707	73.659	229.225	114.843	232.557	337.183	325.046	288.307	0.00013244	0.00038414	8.2423e-05	550.92	1.7968e-06	8.1027e-06	1001.9	136.78	2.9026e-06	2.6086e-06	261.98	98.9	34.071	15.16	6.2971e-06	35.23	0.00016456	0.0001639	4.8072e-05	456.91	1.8471e-06	1.7888e-06	826.13	114.07	1.8293e-06	1.8264e-06	211.34	81.741	29.204	12.809	1.8229e-06	29.125	112.823	194.928	86.596	16.156	340.100	67.021	15.420	20.459	151.728	322.207	17.971	22.481	23.878	28.936	142.127	26.879	-8191	255	
1879.181	1	1	0	0	0.15413	0.19046	0.18124	0.30779	0.25946	0.13708	0.42787	0.30998	0.055868	0.15214	0.15186	0.13019	0.15397	0.15965	0.38964	0.21713	-0.34792	-0.225	-1.1938	-0.52708	-0.53125	-1.1104	-0.14583	-0.82917	-0.83333	-0.20417	-1.275	-0.5	-0.52292	-1.1854	-0.28958	-1.0208	63.172	107.443	193.358	109.684	234.002	31.240	293.774	358.274	79.831	301.844	343.372	254.308	98.008	23.373	145.956	329.744	0.00011582	0.00016128	0.00011434	554.13	1.1782e-06	3.5515e-06	1007.7	136.37	2.418e-06	8.1452e-06	258.9	98.517	35.026	15.324	3.7445e-06	35.443	0.00016756	0.00016106	4.5801e-05	460.08	1.8315e-06	1.8439e-06	826.04	113.48	1.7903e-06	1.8572e-06	211.05	81.468	29.22	12.832	1.8231e-06	29.136	182.774	126.357	67.138	16.080	210.326	146.997	15.646	20.128	166.868	191.193	18.546	21.691	23.929	28.310	110.846	27.453	-8191	255	
1879.302	1	1	0	0	0.19467	0.19148	0.15394	0.13286	0.24326	0.22496	0.19885	0.19451	0.25663	0.17754	0.19461	0.20173	0.22437	0.072405	0.17713	0.1168	-0.47292	-0.27917	-1.0979	-0.77292	-0.5	-1.0104	-0.4	-0.58542	-0.94375	-0.19792	-0.98958	-0.8125	-0.43542	-1.3542	-0.43333	-0.69583	207.150	240.596	79.980	263.328	32.453	33.998	86.246	130.215	172.842	66.663	65.340	10.559	240.192	26.157	336.002	11.570	0.00017339	0.00061272	1.4445e-05	554.27	4.6344e-06	4.4343e-06	998.21	136.4	1.8681e-06	4.6592e-06	259	99.921	34.408	15.325	5.5441e-06	35.826	0.00016716	0.00017	4.5869e-05	456.93	1.8365e-06	1.8465e-06	824.11	113.78	1.8116e-06	1.8557e-06	211.64	82.186	29.301	12.915	1.8822e-06	29.278	145.218	328.781	251.128	16.297	63.205	141.406	15.372	20.233	126.784	221.084	18.373	22.662	24.516	28.350	139.051	27.272	-8191	255	
1879.398	1	1	0	0	0.12754	0.25064	0.3151	0.060501	0.1103	0.40801	0.34317	0.29102	0.13801	0.12278	0.22024	0.33837	0.055502	0.071247	0.16382	0.1247	-0.53125	-0.22917	-0.96042	-0.76875	-0.27292	-1.0375	-0.49167	-0.4875	-0.90625	-0.15833	-1.0208	-0.78542	-0.48333	-1.0208	-0.2	-0.56875	207.993	44.339	144.435	235.515	18.334	228.495	210.890	266.399	288.343	221.863	346.621	335.601	66.678	51.200	239.792	108.225	0.0001608	0.00049008	0.00013061	554.05	2.4327e-06	5.7873e-06	997.11	136.45	5.459e-06	5.1427e-06	260.8	100.8	34.478	15.47	3.1841e-06	35.946	0.00017097	0.00016627	4.6177e-05	459.43	1.7948e-06	1.7985e-06	824.1	114.24	1.8899e-06	1.8416e-06	212.62	82.736	29.284	13.017	1.8222e-06	29.474	147.086	175.470	15.255	16.145	163.140	117.640	15.538	19.428	164.743	94.203	18.444	22.620	24.140	28.579	144.443	27.113	-8191	255	
1879.494	1	1	0	0	0.18566	0.27816	0.26871	0.11197	0.06733	0.2414	0.14697	0.27877	0.30958	0.063287	0.16077	0.1491	0.30098	0.19778	0.20282	0.18801	-0.79792	-0.24792	-0.9125	-0.88542	-0.25	-0.95	-0.60833	-0.45	-1.0333	-0.32292	-0.84792	-0.8875	-0.11875	-0.9875	-0.51458	-0.31875	16.705	209.696	25.592	127.781	269.904	13.781	93.928	281.357	230.212	239.605	4.484	115.086	47.095	36.747	183.769	310.300	0.00023821	0.00058366	6.0993e-05	553.97	4.2891e-06	4.3516e-06	1002.2	135.24	4.271e-06	2.7051e-06	254.87	99.945	34.211	15.163	5.355e-06	35.455	0.00017018	0.00017037	4.7005e-05	457.09	1.8456e-06	1.8452e-06	824.71	113.7	1.8321e-06	1.827e-06	210.02	82.27	29.299	12.845	1.8026e-06	29.176	111.688	113.491	61.588	16.522	252.985	92.277	15.372	20.810	137.006	128.004	18.463	22.503	23.748	28.668	173.245	26.889	-8191	255	
1879.615	1	1	0	0	0.07869	0.07602	0.25933	0.26562	0.15943	0.080033	0.22259	0.15	0.073853	0.35306	0.13176	0.24908	0.23543	0.039078	0.30538	0.041253	-0.85417	-0.23542	-0.74167	-0.975	-0.23125	-1.1354	-0.63125	-0.34167	-1.2687	-0.4375	-0.70625	-1.0792	-0.1125	-1.0312	-0.875	-0.23958	312.543	149.348	321.565	355.946	160.830	278.399	336.033	262.546	42.490	202.327	274.778	19.728	16.051	359.862	149.326	316.639	0.00018206	0.00040265	6.0283e-05	546.36	4.6081e-06	7.7508e-06	1005.4	135.91	1.2619e-05	3.8904e-06	257.86	99.781	33.911	15.387	3.5468e-06	35.733	0.00017021	0.00016585	4.7648e-05	456	1.8432e-06	1.8514e-06	823.73	113.26	1.8894e-06	1.8251e-06	211.13	82.102	29.141	12.935	1.8005e-06	29.343	111.466	270.866	268.293	15.639	72.678	152.599	15.257	19.795	154.548	91.963	18.635	22.245	24.041	28.711	154.675	27.477	-8191	255	
1879.711	1	1	0	0	0.33283	0.15671	0.16692	0.2049	0.12322	0.11853	0.10478	0.11709	0.11358	0.26417	0.041783	0.18788	0.14998	0.090758	0.13573	0.25321	-0.87708	-0.4375	-0.35833	-1.1417	-0.26458	-0.88542	-0.91875	-0.37083	-0.98333	-0.425	-0.40208	-1.2625	-0.22708	-0.85625	-0.96667	-0.29792	57.302	327.142	53.119	32.803	266.898	114.122	334.698	6.342	107.603	123.290	356.787	119.916	96.799	298.622	160.636	217.139	0.00024153	0.00055326	6.8868e-05	552.17	2.8074e-06	6.0217e-06	998.86	136.37	4.5108e-06	2.3004e-06	257.61	100.73	34.284	15.589	2.8311e-06	35.592	0.00017187	0.00016795	4.6453e-05	458.23	1.8417e-06	1.8812e-06	822.32	113.72	1.8525e-06	1.8425e-06	210.62	82.884	29.393	13	1.8772e-06	29.3	146.993	205.884	64.063	16.247	200.292	157.043	15.648	20.718	52.683	128.336	18.126	23.235	24.913	28.900	136.775	27.757	-8191	255	
1879.781	1	1	0	0	0.09724	0.032568	0.1666	0.059404	0.18357	0.40603	0.11064	0.097134	0.13601	0.12514	0.13959	0.051387	0.1457	0.057754	0.031855	0.26128	-0.7625	-0.52708	-0.34167	-1.1021	-0.20417	-0.89583	-0.93542	-0.34167	-0.96042	-0.45833	-0.4875	-1.0896	-0.29583	-0.675	-1.0917	-0.38542	221.368	148.095	249.457	308.910	97.944	192.311	112.764	19.741	63.275	271.769	15.614	140.635	54.344	161.637	125.723	283.927	0.00017488	0.00053853	0.00019277	553.35	7.0155e-07	7.9838e-08	1002.6	135.37	5.5147e-06	5.7553e-06	259.09	100.63	34.202	15.354	4.4719e-06	36.363	0.00016941	0.00016397	4.6261e-05	457.04	1.8471e-06	1.8623e-06	825.57	113.41	1.8037e-06	1.824e-06	211.19	83.066	29.283	12.927	1.8755e-06	29.565	128.160	139.372	27.695	16.708	78.614	307.488	15.554	21.142	164.935	228.040	18.682	23.302	23.803	29.154	155.362	27.704	-8191	255	
1879.901	1	1	0	0	0.15746	0.11346	0.19011	0.21472	0.21642	0.23105	0.27127	0.14759	0.15189	0.088107	0.14482	0.20635	0.096122	0.31241	0.12537	0.063379	-0.78125	-0.53542	-0.22083	-0.95208	-0.25625	-0.62292	-1.2229	-0.26875	-1.075	-0.66875	-0.44375	-1.1125	-0.48333	-0.41667	-0.975	-0.36458	253.790	11.311	238.113	301.044	256.456	244.430	179.479	52.670	328.379	47.116	20.508	90.018	216.190	77.412	194.847	325.305	0.00026585	0.00081559	0.00012762	554.96	5.2416e-06	3.746e-06	1004.6	137.35	1.1381e-06	5.9009e-06	260.05	100.53	34.267	15.457	5.6225e-06	35.599	0.00017511	0.00017159	4.6549e-05	457.22	1.8496e-06	1.8469e-06	827.65	114.03	1.8894e-06	1.8824e-06	212.44	82.821	29.278	12.954	1.85e-06	29.277	94.692	127.204	31.171	16.549	224.515	219.357	15.244	20.578	195.180	175.009	18.372	22.979	24.037	28.739	162.564	27.721	-8191	255	
1879.998	1	1	0	0	0.13307	0.24227	0.11589	0.06808	0.13116	0.13652	0.17268	0.074915	0.045277	0.092589	0.3165	0.21622	0.14838	0.24077	0.1288	0.15467	-0.53333	-0.77083	-0.18333	-1.2354	-0.42917	-0.40417	-1.0646	-0.25833	-0.78542	-0.89167	-0.21875	-1.0521	-0.62292	-0.40417	-1.0312	-0.35208	172.990	244.748	89.564	5.970	124.676	1.946	361.203	21.131	197.297	104.234	333.957	129.744	252.408	9.344	355.173	327.963	0.0001913	0.00068391	0.0001484	553.45	1.1884e-06	8.3705e-07	1005.3	134.64	6.7411e-06	2.4026e-06	260.62	100.06	34.552	15.218	6.9075e-06	35.858	0.00017481	0.00016803	4.5208e-05	456.4	1.8705e-06	1.8345e-06	828.27	113.37	1.8953e-06	1.8122e-06	212.78	82.881	29.439	12.911	1.8342e-06	29.403	142.662	102.202	27.929	16.646	31.920	42.386	15.401	19.638	101.852	163.866	18.151	22.735	24.232	28.960	21.945	27.085	-8191	255	
1880.094	1	1	0	0	0.093662	0.26572	0.094538	0.1606	0.098737	0.075631	0.050616	0.13102	0.21929	0.30636	0.026242	0.072517	0.30274	0.093083	0.18728	0.19798	-0.35208	-0.91458	0.04375	-0.97083	-0.3	-0.50208	-1.3188	-0.3625	-0.55833	-1.2417	-0.125	-1.0604	-0.80833	-0.46875	-1.0542	-0.47083	268.555	261.699	317.610	330.311	347.151	188.257	19.023	302.552	232.511	243.984	80.698	352.897	93.311	238.098	317.840	230.676	0.00013337	0.00035093	8.5074e-05	551.87	5.7773e-06	4.606e-06	1007.7	137.45	4.1477e-06	2.1828e-06	259.78	101.63	34.733	15.507	2.9219e-06	36.291	0.00017186	0.00017181	4.6637e-05	456.58	1.8551e-06	1.9074e-06	829.75	114.25	1.8435e-06	1.8092e-06	212.66	83.458	29.45	13.015	1.8698e-06	29.659	106.253	158.573	88.045	16.738	158.206	250.939	15.771	20.018	335.561	147.435	18.222	23.509	23.571	28.937	211.009	27.763	-8191	255	
1880.190	1	1	0	0	0.085041	0.053643	0.11263	0.14458	0.35754	0.22342	0.2558	0.11854	0.21917	0.18004	0.15301	0.12119	0.24616	0.066932	0.17335	0.082444	-0.17917	-1	-0.11042	-1.0562	-0.6625	-0.04375	-1.2354	-0.47292	-0.44792	-1.2188	-0.33125	-1.0458	-0.88542	-0.22292	-1.2	-0.57917	20.218	106.589	161.423	347.559	356.687	331.939	294.007	120.239	292.128	305.471	202.508	350.735	258.708	82.547	136.016	252.229	0.00023667	0.00093782	7.7496e-05	548.35	1.319e-06	3.2807e-06	1008	135.74	3.8901e-06	5.7133e-06	263.12	102.92	35.04	15.438	1.6078e-06	36.436	0.00017454	0.00017107	4.8523e-05	456.84	1.9114e-06	1.867e-06	831.15	114.29	1.8827e-06	1.8788e-06	213.91	84.074	29.573	12.958	1.8762e-06	29.958	130.996	107.023	120.812	16.548	87.580	162.329	15.614	20.747	200.573	137.860	18.093	23.153	24.562	29.502	270.671	27.879	-8191	255	
1880.310	1	1	0	0	0.39318	0.072419	0.1826	0.16007	0.090319	0.043231	0.1471	0.29021	0.29078	0.23409	0.13298	0.1419	0.12877	0.28429	0.13252	0.18639	-0.052083	-1.1333	-0.13958	-0.84375	-0.82708	-0.083333	-1.1375	-0.64792	-0.52292	-1.1125	-0.21458	-0.46667	-0.95833	-0.27292	-1	-0.66042	15.773	34.428	298.840	18.738	356.501	165.568	44.460	173.053	82.011	4.885	282.605	323.087	268.829	99.513	357.459	172.760	0.00011352	0.00077117	0.00015327	552.07	3.7543e-06	2.7622e-06	1012	137.28	2.2562e-06	2.9503e-06	264.04	102.88	34.661	15.418	4.823e-06	36.865	0.00017383	0.00017228	4.7304e-05	457.07	1.8862e-06	1.8437e-06	832.72	114.56	1.8853e-06	1.8531e-06	215.52	84.644	29.65	13.05	1.8861e-06	30.052	109.795	105.741	51.592	16.199	150.346	39.149	15.867	20.725	230.134	47.719	18.121	23.067	25.138	29.245	129.961	27.305	-8191	255	
1880.407	1	1	0	0	0.11199	0.14019	0.16909	0.18473	0.12665	0.098704	0.3235	0.17403	0.18545	0.15691	0.1468	0.1703	0.14843	0.17918	0.12033	0.12122	0.029167	-1.1688	-0.30625	-0.66667	-1.0833	-0.22292	-1.175	-0.72708	-0.26458	-1.0396	-0.50833	-0.59792	-1.1417	-0.3	-0.87708	-0.97708	210.890	234.474	219.937	251.843	360.499	255.017	307.001	165.412	208.875	73.871	270.721	179.696	323.432	322.885	362.394	268.767	0.00019193	0.00031588	0.00022272	555.75	2.2938e-06	3.3984e-06	1012.3	136.18	7.2466e-06	7.7466e-06	263.56	102.26	34.624	15.349	9.0894e-07	37.016	0.00017278	0.00017131	4.6703e-05	460.05	1.8542e-06	1.8589e-06	831.48	114.26	1.8823e-06	1.8712e-06	215.05	84.109	29.691	13.025	1.8733e-06	30.164	131.020	134.596	148.536	16.355	222.605	186.680	15.867	20.687	150.440	57.365	18.277	22.960	24.185	29.128	192.190	27.564	-8191	255	
1880.478	1	1	0	0	0.15701	0.057236	0.29765	0.18092	0.16121	0.072805	0.14908	0.15277	0.16707	0.19794	0.08968	0.14723	0.24938	0.025787	0.28903	0.13595	0.091667	-1.2021	-0.38333	-0.58125	-1.15	-0.28542	-1.1354	-0.84583	-0.21875	-1.1958	-0.53333	-0.35625	-1.2812	-0.14167	-0.76458	-1.1	80.487	185.473	3.002	303.863	312.151	210.300	251.450	198.754	211.421	200.888	45.632	14.397	128.413	258.675	14.799	296.735	0.0001418	0.00069084	5.7367e-05	553.28	5.3494e-06	3.4477e-06	1013.2	138.06	7.1741e-06	2.5083e-06	269.82	103.67	35.188	15.753	7.7143e-06	37.391	0.00017371	0.00016729	4.7461e-05	456.96	1.8653e-06	1.8658e-06	833.92	114.57	1.9035e-06	1.8822e-06	217.95	85.273	30.01	13.217	1.8383e-06	30.569	113.858	91.719	221.196	16.721	74.019	336.055	15.753	20.186	140.758	274.372	18.702	23.102	24.418	28.842	48.719	27.852	-8191	255	
1880.574	1	1	0	0	0.095297	0.30654	0.16792	0.25069	0.078676	0.077119	0.014948	0.15231	0.22698	0.073874	0.10506	0.14326	0.16897	0.22211	0.27333	0.28929	0.25417	-1.1187	-0.75417	-0.33958	-1.1437	-0.3625	-0.93958	-0.85417	-0.27292	-1.0812	-0.78958	-0.5375	-1.0604	-0.35625	-0.6	-0.95833	164.792	92.147	51.939	319.876	123.005	72.089	271.248	228.320	57.630	310.422	12.317	3.011	340.093	297.762	292.316	105.024	0.00019332	0.00041129	0.00015719	551.56	4.8017e-06	1.2083e-06	1016.2	136.45	6.4223e-06	3.554e-06	266.93	104.65	35.088	15.894	1.364e-06	37.493	0.00017373	0.00017437	4.6471e-05	457.43	1.8654e-06	1.8494e-06	836.12	114.79	1.8955e-06	1.8781e-06	216.88	85.619	29.839	13.33	1.9039e-06	30.729	136.294	68.461	212.084	17.030	270.313	357.318	16.211	20.856	172.987	140.126	18.730	23.416	24.541	29.706	113.375	26.990	-8191	255	
1880.693	1	1	0	0	0.04269	0.094437	0.12685	0.31953	0.036442	0.089128	0.25687	0.14395	0.065291	0.22309	0.23908	0.19291	0.1341	0.32405	0.055406	0.11165	0.18333	-1.1083	-0.70625	-0.43542	-1.0896	-0.35417	-0.45	-1.1667	-0.095833	-0.91042	-0.8125	-0.14375	-1.175	-0.36042	-0.49583	-1.1708	175.940	159.015	190.192	327.532	330.210	343.849	335.664	201.335	82.371	241.320	60.998	299.876	108.646	18.738	195.881	225.657	0.00015633	0.00046988	0.00014463	545.1	2.5639e-06	1.3845e-06	1013.7	135.79	1.7623e-06	5.2034e-06	267.03	102.84	34.669	15.619	3.3823e-06	37.114	0.00017269	0.00017191	4.7201e-05	455.78	1.8848e-06	1.9108e-06	833.88	114.4	1.89e-06	1.887e-06	216.69	85.031	29.668	13.204	1.8817e-06	30.331	148.174	308.208	324.665	16.585	191.088	120.167	15.241	20.819	122.376	122.842	18.008	22.904	23.789	28.426	175.526	27.388	-8191	255	
1880.789	1	1	0	0	0.27375	0.21314	0.27552	0.05432	0.084282	0.17626	0.20309	0.1411	0.18254	0.12806	0.13402	0.23125	0.025661	0.099726	0.25156	0.088829	0.18958	-0.72292	-0.99167	-0.31875	-1.1521	-0.47708	-0.65208	-1.2708	-0.28542	-0.88333	-0.97708	-0.25208	-1.0812	-0.64583	-0.24792	-1.175	7.139	81.167	200.502	32.490	277.377	318.118	306.120	250.030	25.397	113.659	259.873	81.160	128.522	174.919	50.136	264.106	5.7223e-05	0.00073085	0.00011322	551.59	1.2472e-06	2.1714e-06	1013.7	138.28	1.7726e-06	1.448e-06	263.95	101.55	33.797	15.678	4.8232e-06	36.821	0.00017086	0.00017197	4.6631e-05	456.23	1.8739e-06	1.8537e-06	832.77	114.58	1.8457e-06	1.9041e-06	214.84	84.156	29.422	13.103	1.9231e-06	30.245	133.941	173.513	46.196	15.901	318.607	173.851	15.618	20.264	320.397	174.828	18.233	22.911	24.481	29.056	121.714	27.598	-8191	255	
1880.886	1	1	0	0	0.12422	0.030088	0.16068	0.27974	0.17798	0.16645	0.20407	0.26333	0.17106	0.24046	0.23137	0.17844	0.12742	0.11331	0.045929	0.41512	0.091667	-0.55417	-0.99583	-0.25208	-1.0854	-0.66875	-0.28958	-1.1437	-0.26042	-0.65208	-1.0729	-0.29167	-0.89167	-0.65	-0.34583	-1.3521	304.036	12.473	336.154	70.599	313.342	193.918	294.500	21.092	298.817	144.505	61.684	34.718	270.719	118.371	169.623	327.698	0.00012864	0.00020835	6.1334e-05	553.86	1.7425e-06	8.9331e-07	1016.2	136.57	4.7197e-06	2.0772e-06	266.87	102.96	35.077	15.587	2.2485e-06	37.086	0.00016857	0.00016947	4.7489e-05	456.66	1.8426e-06	1.8185e-06	835.21	114.24	1.8775e-06	1.8132e-06	216.36	84.995	29.884	13.112	1.8992e-06	30.372	129.498	340.532	111.665	16.443	72.456	234.314	15.733	20.727	114.149	295.477	18.095	22.628	24.753	28.688	49.121	26.992	-8191	255	
1880.982	1	1	0	0	0.083308	0.17497	0.23963	0.23265	0.14971	0.089075	0.2451	0.14212	0.35586	0.1577	0.13964	0.13618	0.16348	0.039625	0.093247	0.021154	-0.070833	-0.55417	-0.9125	-0.22708	-0.7625	-0.82292	-0.18333	-1.0167	-0.35	-0.525	-1.1979	-0.17708	-0.90417	-0.93333	-0.1125	-0.84375	283.902	38.390	158.713	327.966	236.681	270.469	344.574	53.429	193.889	75.141	354.855	12.260	116.601	316.962	191.516	251.510	9.0521e-05	0.00032664	9.8307e-05	554.3	3.9347e-06	4.4917e-06	1001.1	137.79	1.7357e-06	3.344e-06	265.46	103.27	35.137	15.519	5.8107e-06	36.725	0.00017336	0.00016858	4.5391e-05	456.25	1.8368e-06	1.843e-06	831.3	114.71	1.8832e-06	1.8906e-06	216.83	85.431	29.862	13.148	1.909e-06	30.532	162.728	134.484	132.076	16.518	128.596	173.066	15.568	20.269	116.461	151.127	18.038	22.754	23.874	28.311	154.151	27.421	-8191	255	
1881.078	1	1	0	0	0.14145	0.051176	0.080802	0.22178	0.12969	0.065729	0.1001	0.37668	0.17304	0.40597	0.11264	0.059887	0.13892	0.15819	0.35419	0.09218	-0.30625	-0.3625	-1.0333	-0.39167	-0.67292	-1.0438	-0.34792	-0.99583	-0.65208	-0.43333	-1.2062	-0.33958	-0.54375	-0.96042	-0.34583	-1.1562	9.530	100.081	9.800	63.483	234.012	260.364	229.927	104.505	264.079	39.831	130.396	280.225	333.251	17.656	116.901	42.940	0.00013614	0.00055303	0.0001748	542.03	3.9786e-06	2.4903e-06	1020.8	137.94	2.9233e-06	2.9682e-06	264.01	103.77	35.45	15.748	2.7936e-06	36.777	0.00017263	0.00017089	4.7613e-05	453.06	1.8926e-06	1.8684e-06	838.14	114.7	1.884e-06	1.8425e-06	215.07	85.365	29.772	13.153	1.8875e-06	30.45	113.710	80.858	152.867	16.104	125.874	47.708	15.429	19.878	185.294	118.821	18.617	22.148	24.585	29.133	52.087	27.499	-8191	255	
1881.174	1	1	0	0	0.24164	0.24049	0.21637	0.20599	0.094938	0.27535	0.14151	0.17779	0.12917	0.11422	0.18469	0.26571	0.16305	0.159	0.1137	0.061838	-0.2375	-0.42708	-1.1021	-0.38125	-0.74375	-1.1583	-0.28333	-0.9125	-0.85417	-0.37708	-1.1333	-0.425	-0.51042	-1.1125	-0.14375	-0.79792	231.520	97.599	54.853	339.985	356.873	190.152	249.116	354.335	111.325	21.818	179.050	279.916	150.856	49.160	107.725	256.773	0.00015693	0.00077103	6.7657e-05	553.21	5.8165e-06	7.9771e-06	1011.2	137.14	3.8862e-06	4.2774e-06	265.33	102.85	34.574	15.31	2.2275e-06	36.715	0.00016807	0.00016834	4.6989e-05	457.42	1.8791e-06	1.8549e-06	833.04	114.43	1.8959e-06	1.8075e-06	215.28	84.901	29.489	12.982	1.8161e-06	30.241	124.861	127.363	52.838	16.345	61.699	128.762	14.937	19.880	237.169	176.154	17.596	22.513	24.282	28.573	120.424	27.358	-8191	255	
1881.295	1	1	0	0	0.14998	0.20406	0.076776	0.084822	0.2342	0.11567	0.14679	0.084844	0.26401	0.13777	0.16678	0.24438	0.33282	0.23518	0.1492	0.17712	-0.52708	-0.17292	-1.1125	-0.45625	-0.45208	-1.0604	-0.13333	-0.68542	-0.85625	-0.16875	-0.99167	-0.57292	-0.4375	-1.2083	-0.016667	-0.66667	16.702	106.474	203.240	347.948	294.528	152.012	344.886	50.157	42.463	200.099	85.796	310.335	3.785	319.883	236.388	348.192	9.1223e-05	0.00057399	0.00016876	547.65	3.1655e-06	8.7053e-06	1015.5	135.88	4.2149e-06	6.8533e-06	266.86	102.44	34.999	15.483	4.5352e-06	37.223	0.00017094	0.00017005	4.6573e-05	456.03	1.8365e-06	1.8567e-06	832.21	114.13	1.8475e-06	1.8527e-06	217.34	84.749	29.665	13.128	1.8564e-06	30.44	128.200	182.926	126.233	16.369	52.807	174.931	15.625	20.066	124.715	326.703	18.007	22.340	24.091	28.963	64.471	27.166	-8191	255	
1881.391	1	1	0	0	0.24656	0.37242	0.14336	0.16308	0.16984	0.13996	0.19366	0.058579	0.39709	0.098597	0.037871	0.098856	0.11105	0.22114	0.39578	0.15171	-0.63125	-0.20417	-1.0292	-0.75417	-0.23333	-1.1958	-0.27917	-0.5125	-0.88958	-0.16042	-0.88125	-0.875	-0.32083	-1.1938	-0.24792	-0.67917	111.276	245.924	357.298	4.946	200.154	94.275	322.134	358.470	28.525	38.910	214.430	115.499	359.112	51.159	113.206	241.289	0.00017214	0.00069536	0.00013355	546.01	5.1991e-06	1.2373e-06	1019.7	136.11	4.1744e-06	4.9226e-06	265.34	103.89	35.089	15.87	1.1575e-05	37.428	0.00016733	0.00016948	4.583e-05	453.63	1.8855e-06	1.8171e-06	835.77	114.39	1.8822e-06	1.8704e-06	216.07	85.552	29.963	13.197	1.9317e-06	30.593	150.902	35.819	12.279	15.582	147.068	118.338	15.202	19.543	90.546	150.221	17.996	22.461	24.113	28.640	101.963	27.448	-8191	255	
1881.487	1	1	0	0	0.27437	0.24308	0.086917	0.14648	0.2206	0.098099	0.43763	0.16765	0.18925	0.066754	0.2125	0.19237	0.17089	0.31807	0.060224	0.23329	-0.75	-0.1	-0.77083	-0.85	-0.045833	-1.0771	-0.74167	-0.48542	-0.98125	-0.18125	-0.88542	-0.82083	-0.1625	-0.88125	-0.24792	-0.46667	111.636	75.043	321.432	25.378	71.984	274.537	322.436	362.373	7.324	117.171	276.261	279.297	248.793	324.514	176.219	240.197	0.00025166	0.00055536	0.00012049	546.05	6.4163e-06	5.1898e-06	1014.2	137.05	3.9876e-06	1.5957e-06	268.15	104.65	34.72	15.785	4.7215e-06	37.124	0.00016831	0.00016852	4.7082e-05	455.16	1.825e-06	1.8241e-06	834.22	114.49	1.8836e-06	1.8663e-06	217.51	85.752	29.706	13.147	1.8694e-06	30.539	116.110	201.505	66.908	16.414	249.795	177.316	15.185	20.400	187.146	351.132	17.656	22.306	24.597	28.816	105.381	27.628	-8191	255	
1881.583	1	1	0	0	0.25689	0.12427	0.16037	0.057842	0.044054	0.079325	0.15301	0.044003	0.23985	0.071448	0.16783	0.24093	0.31512	0.16454	0.12152	0.1033	-0.7625	-0.35625	-0.80833	-0.97708	-0.32708	-1.0312	-0.78958	-0.33333	-1.1229	-0.40417	-0.86458	-0.99167	-0.08125	-0.90208	-0.4625	-0.34167	235.362	284.624	318.783	346.491	109.516	45.749	73.149	16.240	176.536	156.038	343.742	294.549	333.268	258.466	56.802	40.022	0.00018053	0.00021592	5.9205e-05	548.98	4.1171e-06	6.6488e-06	1013.1	136.52	3.2199e-06	1.8267e-06	262.81	102.62	34.936	15.339	1.8135e-06	36.511	0.00017056	0.00017179	4.739e-05	455.51	1.8797e-06	1.8723e-06	834.79	114.04	1.8514e-06	1.882e-06	214.99	84.593	29.544	12.875	1.8757e-06	30.052	113.306	95.499	335.178	16.462	107.961	86.266	15.581	19.782	20.079	139.898	18.237	22.130	23.882	29.267	356.667	27.095	-8191	255	
1881.702	1	1	0	0	0.091601	0.20094	0.21717	0.079269	0.048187	0.44159	0.23388	0.32392	0.21952	0.0475	0.13474	0.041766	0.19882	0.1905	0.19446	0.11477	-0.73333	-0.49792	-0.65833	-0.95417	-0.12292	-0.94792	-0.90208	-0.19375	-1.0292	-0.50417	-0.49375	-1.1562	-0.2875	-0.99167	-0.86042	-0.36458	4.722	32.622	107.700	286.858	195.995	153.171	352.262	227.069	63.088	23.303	23.517	168.659	174.308	324.960	196.816	276.095	0.00014039	0.00036149	0.00011606	554.66	5.6931e-06	1.8672e-06	1016.2	137.04	3.8898e-06	4.9651e-06	266.13	102.82	34.286	15.407	9.5802e-07	37.218	0.00017354	0.00016681	4.8072e-05	457.38	1.8576e-06	1.8391e-06	837.63	114.15	1.8587e-06	1.8933e-06	216.57	84.494	29.466	12.941	1.8587e-06	30.319	151.545	110.171	112.813	16.338	65.314	327.454	15.020	20.687	180.561	303.989	17.782	22.034	24.417	28.626	42.768	26.904	-8191	255	
1881.774	1	1	0	0	0.089586	0.021124	0.19858	0.15753	0.24465	0.17546	0.34866	0.29632	0.16643	0.19805	0.10209	0.24651	0.27198	0.15482	0.053913	0.10879	-0.58958	-0.45208	-0.38542	-1.2417	-0.24375	-0.9625	-1.05	-0.19792	-1.1125	-0.45625	-0.33333	-1.1583	-0.27917	-0.75833	-0.85	-0.27708	74.405	24.295	218.292	358.479	186.197	30.250	227.084	16.483	174.487	137.663	354.065	286.433	329.802	360.957	345.343	216.877	0.0001358	0.00053757	0.0001405	549.72	4.5722e-06	3.6493e-06	1014	137.34	3.8479e-06	5.4747e-06	263.94	104.29	35.172	15.656	5.0783e-06	37.538	0.00016935	0.00017308	4.7134e-05	455.18	1.8593e-06	1.9056e-06	835.23	114.35	1.8952e-06	1.8913e-06	217.44	85.992	29.834	13.181	1.8965e-06	30.772	152.333	67.638	251.613	16.290	129.046	152.046	15.341	19.835	109.003	176.894	18.261	22.858	24.193	28.871	161.545	27.463	-8191	255	
1881.870	1	1	0	0	0.26228	0.095475	0.22726	0.15873	0.19924	0.076484	0.096501	0.15798	0.038843	0.084696	0.13288	0.21525	0.08602	0.14918	0.1928	0.31068	-0.80417	-0.51042	-0.28125	-1.3458	-0.2	-0.6875	-1.0396	-0.29792	-1.1	-0.875	-0.44167	-1.1229	-0.35417	-0.71042	-1.1417	-0.33333	243.672	121.372	266.661	311.688	48.578	28.893	304.663	207.940	59.620	14.825	354.722	91.693	159.828	212.491	181.516	252.297	0.00027632	0.00017308	0.00011808	553.66	2.2151e-06	2.7197e-06	1017.4	137.79	4.5813e-06	1.7385e-06	266.93	104.24	35.522	15.814	3.6437e-06	37.472	0.00017473	0.0001707	4.7506e-05	458.27	1.8848e-06	1.8553e-06	837.44	114.51	1.8953e-06	1.8887e-06	217.04	86.279	30.026	13.249	1.8661e-06	30.819	147.587	222.640	112.628	16.482	290.704	101.798	15.368	20.143	70.746	156.779	18.658	22.711	24.826	29.002	173.895	27.607	-8191	255	
#DATA ENDS
