BOXY.EXE: ISS Imagent and Oximeter Data Acquisition Program Version 0.80
Ascii Record File

#ACQ INFORMATION
2  Detector Channels 
16  External MUX Channels 
1  Auxiliary Channels 
5000  Waveform (CCF) Frequency (Hz)
1  Waveforms Skipped 
30  Waveforms Averaged 
1  Cycles Averaged 
16  Acquisitions per Waveform 
10.0806  Updata Rate (Hz) 

#FILE INFORMATION
TRUE -- External MUX Channel results are PARSED.
FALSE -- AC DC and Phase are NOT grouped.
TRUE -- Companion Program Settings File CREATED.
FALSE -- AC data not excluded
FALSE -- DC data not excluded
FALSE -- Phase data not excluded
FALSE -- Auxillary Chn. data not excluded
Tab delimiters

#CALIBRATION STATE
TRUE -- Waveform Calibration Values APPLIED.


#AUX CALIBRATION VALUES
Val Type	aux-1	

Term	1.0000e+00	
Factor	0.0000e+00	


#WF CALIBRATION VALUES
A = Detector Channel
Val Type	A-AC1	A-AC2	A-AC3	A-AC4	A-AC5	A-AC6	A-AC7	A-AC8	A-AC9	A-AC10	A-AC11	A-AC12	A-AC13	A-AC14	A-AC15	A-AC16	A-DC1	A-DC2	A-DC3	A-DC4	A-DC5	A-DC6	A-DC7	A-DC8	A-DC9	A-DC10	A-DC11	A-DC12	A-DC13	A-DC14	A-DC15	A-DC16	A-Ph1	A-Ph2	A-Ph3	A-Ph4	A-Ph5	A-Ph6	A-Ph7	A-Ph8	A-Ph9	A-Ph10	A-Ph11	A-Ph12	A-Ph13	A-Ph14	A-Ph15	A-Ph16	

Term	0.00000e+00	0.00000e+00	0.00000e+00	0.00000e+00	0.00000e+00	0.00000e+00	0.00000e+00	0.00000e+00	0.00000e+00	0.00000e+00	0.00000e+00	0.00000e+00	0.00000e+00	0.00000e+00	0.00000e+00	0.00000e+00	0.00000e+00	0.00000e+00	0.00000e+00	0.00000e+00	0.00000e+00	0.00000e+00	0.00000e+00	0.00000e+00	0.00000e+00	0.00000e+00	0.00000e+00	0.00000e+00	0.00000e+00	0.00000e+00	0.00000e+00	0.00000e+00	0.00000e+00	0.00000e+00	0.00000e+00	0.00000e+00	0.00000e+00	0.00000e+00	0.00000e+00	0.00000e+00	0.00000e+00	0.00000e+00	0.00000e+00	0.00000e+00	0.00000e+00	0.00000e+00	0.00000e+00	0.00000e+00	
Factor	1.00000e+00	1.00000e+00	1.00000e+00	1.00000e+00	1.00000e+00	1.00000e+00	1.00000e+00	1.00000e+00	1.00000e+00	1.00000e+00	1.00000e+00	1.00000e+00	1.00000e+00	1.00000e+00	1.00000e+00	1.00000e+00	1.00000e+00	1.00000e+00	1.00000e+00	1.00000e+00	1.00000e+00	1.00000e+00	1.00000e+00	1.00000e+00	1.00000e+00	1.00000e+00	1.00000e+00	1.00000e+00	1.00000e+00	1.00000e+00	1.00000e+00	1.00000e+00	X	X	X	X	X	X	X	X	X	X	X	X	X	X	X	X	

B = Detector Channel
Val Type	B-AC1	B-AC2	B-AC3	B-AC4	B-AC5	B-AC6	B-AC7	B-AC8	B-AC9	B-AC10	B-AC11	B-AC12	B-AC13	B-AC14	B-AC15	B-AC16	B-DC1	B-DC2	B-DC3	B-DC4	B-DC5	B-DC6	B-DC7	B-DC8	B-DC9	B-DC10	B-DC11	B-DC12	B-DC13	B-DC14	B-DC15	B-DC16	B-Ph1	B-Ph2	B-Ph3	B-Ph4	B-Ph5	B-Ph6	B-Ph7	B-Ph8	B-Ph9	B-Ph10	B-Ph11	B-Ph12	B-Ph13	B-Ph14	B-Ph15	B-Ph16	

Term	0.00000e+00	0.00000e+00	0.00000e+00	0.00000e+00	0.00000e+00	0.00000e+00	0.00000e+00	0.00000e+00	0.00000e+00	0.00000e+00	0.00000e+00	0.00000e+00	0.00000e+00	0.00000e+00	0.00000e+00	0.00000e+00	0.00000e+00	0.00000e+00	0.00000e+00	0.00000e+00	0.00000e+00	0.00000e+00	0.00000e+00	0.00000e+00	0.00000e+00	0.00000e+00	0.00000e+00	0.00000e+00	0.00000e+00	0.00000e+00	0.00000e+00	0.00000e+00	-1.31583e+02	-1.21578e+02	-1.40012e+02	-1.81298e+02	-8.87385e+01	-6.29981e+01	-1.57795e+02	-1.62015e+02	-6.94921e+01	-9.60310e+01	-1.75953e+02	-1.70521e+02	-1.80371e+02	-1.76072e+02	-6.81803e+01	-1.48893e+02	
Factor	1.93261e-05	1.42640e-04	3.75110e-05	1.68919e-01	1.12948e-06	1.23653e-06	1.80120e-01	7.03469e-02	1.11070e-06	1.40164e-06	1.16901e-01	3.27342e-02	2.64059e-02	1.04235e-02	1.14977e-06	1.44954e-02	1.13826e-06	1.18118e-06	3.28429e-07	8.21832e-02	1.29226e-08	1.29492e-08	8.20368e-02	3.39068e-02	1.29380e-08	1.29875e-08	5.34765e-02	1.52769e-02	1.27878e-02	5.00872e-03	1.30016e-08	6.72239e-03	X	X	X	X	X	X	X	X	X	X	X	X	X	X	X	X	



#DISTANCE SETTINGS
A = Detector Channel
A-1	A-2	A-3	A-4	A-5	A-6	A-7	A-8	A-9	A-10	A-11	A-12	A-13	A-14	A-15	A-16	

2.5000e+00	3.0000e+00	2.5000e+00	3.0000e+00	2.0000e+00	3.0000e+00	1.5000e+00	3.0000e+00	3.0000e+00	3.0000e+00	3.0000e+00	3.0000e+00	3.0000e+00	3.0000e+00	1.5000e+00	3.0000e+00	

B = Detector Channel
B-1	B-2	B-3	B-4	B-5	B-6	B-7	B-8	B-9	B-10	B-11	B-12	B-13	B-14	B-15	B-16	

1.0000e+01	1.0000e+01	1.0000e+01	1.4400e+00	1.0000e+01	1.0000e+01	1.5100e+00	1.9400e+00	1.0000e+01	1.0000e+01	1.9900e+00	2.4900e+00	2.4100e+00	2.9000e+00	1.0000e+01	2.9800e+00	




#DATA BEGINS
time	group	step	mark	flag	A-AC1	A-AC2	A-AC3	A-AC4	A-AC5	A-AC6	A-AC7	A-AC8	A-AC9	A-AC10	A-AC11	A-AC12	A-AC13	A-AC14	A-AC15	A-AC16	A-DC1	A-DC2	A-DC3	A-DC4	A-DC5	A-DC6	A-DC7	A-DC8	A-DC9	A-DC10	A-DC11	A-DC12	A-DC13	A-DC14	A-DC15	A-DC16	A-Ph1	A-Ph2	A-Ph3	A-Ph4	A-Ph5	A-Ph6	A-Ph7	A-Ph8	A-Ph9	A-Ph10	A-Ph11	A-Ph12	A-Ph13	A-Ph14	A-Ph15	A-Ph16	B-AC1	B-AC2	B-AC3	B-AC4	B-AC5	B-AC6	B-AC7	B-AC8	B-AC9	B-AC10	B-AC11	B-AC12	B-AC13	B-AC14	B-AC15	B-AC16	B-DC1	B-DC2	B-DC3	B-DC4	B-DC5	B-DC6	B-DC7	B-DC8	B-DC9	B-DC10	B-DC11	B-DC12	B-DC13	B-DC14	B-DC15	B-DC16	B-Ph1	B-Ph2	B-Ph3	B-Ph4	B-Ph5	B-Ph6	B-Ph7	B-Ph8	B-Ph9	B-Ph10	B-Ph11	B-Ph12	B-Ph13	B-Ph14	B-Ph15	B-Ph16	aux-1	digaux	

1859.855	1	1	0	768	0.16776	0.11239	0.24031	0.14593	0.1709	0.25228	0.11258	0.12569	0.094378	0.11778	0.2537	0.21575	0.20465	0.13886	0.13624	0.26602	-0.59583	-0.78958	-0.35208	-1.0333	-0.51458	-0.25208	-1.1896	-0.24375	-0.71875	-1	-0.052083	-1.0458	-0.49792	-0.31875	-1.1104	-0.21875	230.348	89.391	90.370	57.043	10.781	17.435	356.816	361.263	162.940	338.558	23.409	327.764	194.632	343.926	35.271	341.038	0.00013459	0.00018957	0.00016964	535.09	2.2696e-06	3.8119e-06	1026.4	139.56	3.8328e-06	3.4726e-06	294.44	110.38	39.88	17.775	2.4397e-06	41.788	0.00018891	0.00018395	5.0979e-05	448.93	2.0156e-06	2.0375e-06	851.24	116.95	1.9611e-06	2.0418e-06	240.24	91.451	33.88	14.953	2.0665e-06	34.34	94.594	209.954	194.870	17.837	42.570	53.285	17.486	22.227	125.585	158.451	20.222	24.680	25.446	30.478	99.661	28.866	-8191	255	
1859.951	1	1	0	0	0.23664	0.25138	0.28499	0.12164	0.38159	0.15828	0.24037	0.16328	0.30629	0.21012	0.2406	0.080867	0.17083	0.20076	0.23726	0.21605	-0.29375	-0.95625	0.033333	-1.1	-0.675	-0.32083	-1.1437	-0.31667	-0.66875	-0.89583	-0.1	-0.975	-0.85208	-0.3125	-0.88542	-0.49792	307.013	75.735	237.478	316.188	37.772	307.105	26.218	39.555	119.125	172.088	178.772	136.782	305.933	219.885	62.860	137.143	0.00023354	0.0002381	9.5016e-05	542.1	6.0989e-06	9.2833e-06	1031.5	139.64	3.5627e-06	3.9731e-06	296.5	110.12	40.366	17.963	3.3558e-06	42.19	0.00019194	0.00018497	5.145e-05	451.67	2.0511e-06	2.0414e-06	852.23	117.28	2.046e-06	2.0083e-06	240.56	91.048	33.93	15.014	1.9867e-06	34.438	133.193	142.604	145.619	18.188	175.396	165.059	17.337	22.012	182.741	200.007	20.137	24.182	25.699	29.841	347.341	28.249	-8191	255	
1860.047	1	1	0	0	0.36169	0.16956	0.23533	0.12042	0.089142	0.19177	0.13872	0.023168	0.15303	0.1303	0.088384	0.20906	0.04829	0.096172	0.18096	0.044669	-0.1375	-1.0292	-0.0041667	-0.85208	-0.68958	-0.1875	-1.1562	-0.31458	-0.43542	-1.0167	-0.28958	-0.75625	-0.92083	-0.2875	-0.95	-0.48333	304.477	78.986	312.242	10.635	134.096	354.306	319.200	137.121	153.462	126.739	297.293	353.577	103.414	329.554	117.336	187.496	0.00011958	0.00051027	0.00025717	541.94	5.6758e-06	3.4314e-06	1035.1	139.5	4.9637e-06	3.3018e-06	294.15	110.65	39.773	17.765	2.3858e-06	41.95	0.00018622	0.00018894	5.1957e-05	450.55	2.0347e-06	2.0023e-06	852.96	117.2	2.0411e-06	1.982e-06	240.67	91.042	33.692	15.005	2.0744e-06	34.331	155.465	103.118	94.616	18.282	271.153	223.088	17.194	21.993	116.741	38.752	20.064	24.303	25.036	30.767	42.725	28.565	-8191	255	
1860.143	1	1	0	0	0.27017	0.064651	0.11734	0.048797	0.17653	0.34661	0.19798	0.1246	0.0087177	0.078257	0.047959	0.50576	0.078507	0.11582	0.28803	0.15141	0.17083	-1.0333	-0.17708	-0.72083	-0.98958	-0.14792	-1.0729	-0.47917	-0.33958	-1.2188	-0.31042	-0.90625	-0.89583	-0.12917	-0.95833	-0.69792	188.735	302.199	131.320	217.449	296.371	55.534	287.576	24.439	255.653	199.817	364.070	331.398	182.317	44.992	226.035	94.870	0.00016224	0.00041992	0.0001356	552.59	3.8875e-06	4.9281e-06	1034.5	139.41	5.936e-06	3.164e-06	295.04	112.02	39.409	17.965	3.5636e-06	42.19	0.00019021	0.00018287	5.0265e-05	454.31	2.0363e-06	2.0197e-06	853.55	117.08	2.0421e-06	2.0016e-06	239.39	91.87	33.622	15.082	2.03e-06	34.605	156.713	308.171	137.555	18.115	133.711	120.879	17.518	22.425	158.334	324.717	20.185	24.047	25.122	30.512	160.762	28.682	-8191	255	
1860.238	1	1	0	0	0.30198	0.16503	0.20297	0.21159	0.17321	0.27044	0.21765	0.25261	0.08307	0.051915	0.21232	0.066154	0.24543	0.15036	0.21948	0.061595	0.033333	-1.0104	-0.35	-0.52917	-0.88958	-0.34375	-0.91875	-0.83542	-0.14583	-1.1208	-0.39167	-0.45417	-0.90208	-0.10833	-0.95625	-0.83333	330.511	131.063	78.049	13.952	99.767	206.227	209.885	238.192	180.636	334.727	239.914	128.771	8.692	191.701	33.277	301.089	0.0002481	0.00022353	9.1387e-05	549.27	4.7065e-06	4.923e-06	1043.2	141.32	3.0976e-06	2.5707e-06	295.58	110.8	39.953	18.079	3.6193e-06	42.317	0.00018741	0.00018556	5.1862e-05	452.25	2.0087e-06	1.9872e-06	854.78	117.75	2.0196e-06	1.9785e-06	239.92	91.591	33.918	15.171	2.0816e-06	34.727	124.290	127.023	353.352	18.490	153.790	89.762	16.964	22.444	56.787	215.321	19.555	24.421	25.001	30.549	219.883	29.120	-8191	255	
1860.336	1	1	0	0	0.14793	0.10508	0.059372	0.21659	0.1258	0.13028	0.11969	0.14877	0.16923	0.17551	0.24984	0.010395	0.084062	0.22657	0.10384	0.11961	0.11667	-1.0187	-0.375	-0.45833	-0.98333	-0.04375	-0.93542	-0.99167	-0.097917	-0.91667	-0.59583	-0.58958	-1.0812	-0.19583	-0.61875	-0.93542	346.806	96.488	226.245	10.312	354.599	111.288	344.435	47.957	317.162	288.202	48.804	218.547	216.694	338.927	133.829	225.167	0.00014341	0.00099428	0.00011212	543.31	4.3333e-06	2.9865e-06	1030.9	140.43	4.4505e-06	7.0516e-06	298.47	112.35	39.477	18.273	2.437e-06	42.681	0.00018799	0.00018332	5.1558e-05	450.34	1.9819e-06	1.9957e-06	852.04	117.5	1.9749e-06	2.026e-06	241.53	92.013	33.762	15.23	2.0219e-06	34.863	129.009	47.847	32.922	18.491	302.388	44.888	17.433	21.950	37.006	148.005	20.132	24.536	25.587	30.247	57.243	29.392	-8191	255	
1860.455	1	1	0	0	0.39105	0.14457	0.12985	0.095667	0.31766	0.11334	0.15814	0.11871	0.049808	0.22229	0.071617	0.33224	0.14579	0.39314	0.11152	0.3536	0.20417	-1.1187	-0.66042	-0.20208	-1.1896	-0.16875	-0.83958	-0.84583	-0.21875	-0.96875	-0.43125	-0.25208	-1.1354	-0.31458	-0.61458	-1.0187	237.819	283.203	321.841	238.387	104.773	117.118	121.998	310.065	99.505	296.097	229.495	358.844	104.049	335.375	10.902	245.115	0.00016209	0.00050077	0.00022537	540.68	2.7225e-06	2.9702e-06	1036.9	140.49	2.5656e-06	7.8044e-06	295.08	110.66	39.677	17.981	4.2944e-06	42.011	0.00018906	0.00017935	4.9589e-05	451.45	1.9814e-06	2.0001e-06	853.17	117.24	2.0115e-06	2.0227e-06	240.86	91.155	33.719	15.118	2.0353e-06	34.324	137.658	154.695	67.665	17.959	143.936	108.807	17.548	22.680	130.054	293.492	19.339	24.509	25.499	30.587	14.814	28.406	-8191	255	
1860.551	1	1	0	0	0.10003	0.049341	0.10582	0.16607	0.2043	0.16165	0.26786	0.32253	0.12509	0.19472	0.30478	0.10515	0.074725	0.18376	0.082982	0.18238	0.10417	-0.97917	-0.67917	-0.26042	-1.1667	-0.35208	-0.60833	-1.0646	-0.3	-0.84167	-0.77083	-0.27292	-1	-0.57292	-0.20417	-1.1042	310.849	57.531	169.169	293.989	259.816	326.697	14.252	205.422	5.507	217.921	243.843	187.747	212.086	353.032	330.366	268.857	0.00013646	0.0013296	0.00015258	544.39	3.9468e-06	2.1264e-06	1031.4	139.98	2.0285e-06	4.94e-06	295.82	111.69	40.002	18.127	2.3254e-06	41.822	0.00018598	0.00018015	4.9936e-05	450.16	1.9778e-06	1.9893e-06	851.97	117.07	2.015e-06	1.982e-06	240.51	91.774	34.125	15.066	2.0286e-06	34.458	140.957	131.986	53.904	17.830	39.071	134.109	17.390	22.419	222.975	330.360	19.394	24.331	25.610	30.355	66.219	28.918	-8191	255	
1860.647	1	1	0	0	0.10965	0.14292	0.11488	0.18496	0.1304	0.30183	0.24712	0.066836	0.16754	0.23988	0.22543	0.28188	0.18198	0.1528	0.090462	0.22344	0.16667	-0.94792	-0.81875	-0.15	-1.1146	-0.72292	-0.46042	-1.0729	0	-0.80208	-0.925	-0.2125	-1.0354	-0.61458	-0.3875	-1.2646	114.334	9.109	239.278	338.934	71.277	246.323	310.890	147.302	306.072	49.625	165.855	231.750	191.790	313.999	339.148	227.483	0.00017164	0.00085402	8.161e-05	537.58	3.1431e-06	4.8779e-06	1031.3	140.54	7.2074e-06	3.4321e-06	298.58	111.47	39.636	17.812	7.13e-06	42.582	0.00018682	0.00018291	5.0688e-05	448.62	2.0054e-06	2.0037e-06	851.31	118.26	2.0231e-06	2.006e-06	241.53	91.426	33.821	15	1.9789e-06	34.718	142.515	160.196	19.031	18.087	165.801	140.598	17.072	22.117	146.096	131.263	19.645	24.004	25.933	29.806	52.139	28.617	-8191	255	
1860.743	1	1	0	0	0.24037	0.10557	0.13654	0.1207	0.10711	0.2289	0.15775	0.30539	0.1863	0.10604	0.19361	0.25188	0.20971	0.26557	0.10563	0.086375	0.18958	-0.52917	-0.99792	-0.30208	-1.0625	-0.70208	-0.24792	-1.15	-0.31875	-0.57708	-0.99375	-0.24583	-0.84792	-0.83125	-0.11667	-1.1625	276.274	358.000	242.457	201.930	270.224	9.075	281.200	270.181	218.163	32.600	353.902	347.747	43.837	336.245	142.701	235.926	8.8009e-05	0.00053371	0.00012373	541.04	4.7878e-06	4.4605e-06	1041.3	141.3	3.9665e-06	5.8391e-06	295.67	112.31	39.64	18.046	4.2063e-06	42.715	0.00018593	0.00018631	5.1034e-05	450	2.0462e-06	2.0304e-06	853.02	118.47	2.0109e-06	2.0596e-06	241.92	92.171	34.015	15.151	2.0311e-06	34.829	157.688	188.285	48.492	17.795	149.525	95.183	16.778	21.777	138.321	158.617	19.354	24.085	25.821	30.419	266.470	28.446	-8191	255	
1860.839	1	1	0	0	0.07662	0.089187	0.27256	0.046977	0.16513	0.11862	0.23093	0.11926	0.1862	0.069558	0.2427	0.029845	0.099638	0.13917	0.14361	0.062109	0.01875	-0.38542	-0.89792	-0.27083	-0.79583	-0.70208	-0.10417	-1.0646	-0.42083	-0.44792	-1.2146	-0.1875	-0.83542	-0.86667	-0.12917	-1.0083	22.041	64.986	5.303	277.505	256.652	224.796	316.764	326.077	129.510	203.018	28.464	302.131	236.116	289.562	63.870	267.508	0.0001737	0.0004209	0.00020207	543.29	5.5025e-06	3.6173e-06	1035.3	142.27	3.9554e-06	5.7409e-06	295.88	111.06	39.871	17.879	6.003e-06	42.074	0.0001873	0.00018732	5.1165e-05	450.55	2.0299e-06	1.9876e-06	851.5	118.28	1.9793e-06	1.9959e-06	241.37	91.072	33.998	15.01	1.9957e-06	34.245	115.664	142.019	139.482	17.937	26.162	189.413	16.835	21.352	109.913	83.852	20.145	23.821	25.495	30.220	152.625	28.245	-8191	255	
1860.935	1	1	0	0	0.095598	0.053155	0.29976	0.089938	0.32451	0.19975	0.24262	0.15514	0.1047	0.067704	0.30722	0.048732	0.057046	0.29135	0.08184	0.23998	-0.275	-0.33333	-1.1521	-0.21042	-0.925	-0.72083	-0.24583	-0.82292	-0.44583	-0.12083	-1.1521	-0.39583	-0.72083	-0.84167	-0.26667	-0.88542	125.421	173.532	287.432	231.876	181.082	345.742	10.106	263.372	303.818	293.365	322.745	328.008	182.102	147.833	291.671	287.760	0.0001563	0.00036567	0.00036967	544.9	4.9816e-06	6.1611e-06	1036.1	142.51	7.0522e-06	7.3062e-06	293.37	112.06	40.654	17.997	3.1831e-06	42.237	0.00018402	0.00018396	5.0044e-05	452.09	1.9733e-06	1.951e-06	851.23	118.66	2.046e-06	1.962e-06	241.82	91.883	34.184	15.137	2.0044e-06	34.551	137.651	115.573	120.654	18.023	298.714	259.876	17.426	22.451	187.369	164.254	20.115	24.594	25.961	29.717	129.132	29.291	-8191	255	
1861.056	1	1	0	0	0.29173	0.26133	0.096912	0.22584	0.16806	0.078548	0.42343	0.22651	0.22645	0.23744	0.19288	0.051534	0.19931	0.3489	0.20978	0.29312	-0.40208	-0.1875	-1.0896	-0.48958	-0.33542	-1.2479	-0.27292	-1.0396	-0.83958	-0.33542	-1.0938	-0.42292	-0.55833	-1.0729	-0.13958	-0.82083	221.361	68.137	268.528	326.226	154.006	34.886	265.862	236.370	247.194	278.324	313.704	70.042	46.336	284.475	76.603	324.265	0.00015008	0.00011431	0.00014922	545.22	7.3014e-06	6.6349e-06	1036.9	142.17	5.6135e-06	6.4514e-06	302.62	111.67	40.334	18.382	4.1879e-06	42.977	0.00018553	0.00018237	5.16e-05	450.74	2.0043e-06	2.0527e-06	852.26	119.07	2.0029e-06	2.0218e-06	243.92	91.914	34.343	15.305	1.971e-06	34.951	127.612	18.410	57.842	18.352	184.224	193.813	17.031	22.806	164.447	19.889	20.180	24.358	25.177	29.993	63.623	29.068	-8191	255	
1861.150	1	1	0	0	0.2326	0.49012	0.058779	0.18515	0.11769	0.23324	0.18849	0.17381	0.12109	0.17702	0.098193	0.15292	0.163	0.14198	0.1347	0.19698	-0.48333	-0.24167	-1.0438	-0.54583	-0.38958	-1.025	-0.25625	-0.84167	-0.8125	-0.11875	-0.99583	-0.65625	-0.38958	-1.0729	-0.23542	-0.65833	309.586	197.748	206.663	310.888	91.407	67.136	364.348	183.348	362.480	167.492	176.368	11.327	322.623	348.614	129.735	97.456	0.00017155	0.00064448	9.9026e-05	543.85	3.6173e-06	1.7583e-06	1033.5	142.69	2.8029e-06	2.52e-06	301.57	112.9	40.168	18.46	5.0379e-06	42.825	0.00018444	0.00018398	5.1825e-05	451.34	2.0636e-06	1.9845e-06	852.41	118.99	2.0048e-06	2.0057e-06	244.71	92.407	34.367	15.41	2.0446e-06	35.145	124.179	48.949	79.104	18.267	52.840	134.186	17.392	22.501	111.056	88.108	20.185	23.667	25.447	30.286	309.915	28.747	-8191	255	
1861.247	1	1	0	0	0.15744	0.15746	0.051036	0.16385	0.12694	0.27022	0.12291	0.016265	0.19067	0.10733	0.14537	0.077106	0.23732	0.027737	0.15259	0.14099	-0.6125	0.039583	-0.82708	-0.73958	-0.085417	-1.1688	-0.3125	-0.47708	-0.67708	-0.1375	-0.94583	-0.60625	-0.17708	-1.0271	-0.34375	-0.54792	305.894	214.436	184.632	349.829	49.517	347.993	29.469	151.924	28.891	353.777	360.705	208.918	278.549	272.789	18.022	282.761	0.00016493	0.00038993	0.00039832	545.25	2.723e-06	6.641e-06	1043	141.5	1.1398e-06	5.5878e-06	296.82	111.62	40.387	18.415	4.4208e-06	42.577	0.00018578	0.00018731	5.1114e-05	452.75	2.0446e-06	1.9797e-06	855.36	118.71	1.992e-06	2.0236e-06	242.3	91.94	34.223	15.305	2.029e-06	34.783	129.922	52.971	334.040	17.513	24.623	124.514	16.968	22.026	322.109	145.240	19.257	23.640	24.918	29.678	254.786	28.287	-8191	255	
1861.343	1	1	0	0	0.15239	0.12422	0.27241	0.20474	0.10885	0.20464	0.13115	0.10071	0.40657	0.17794	0.093647	0.15883	0.073687	0.2631	0.16521	0.071588	-0.62917	0.00625	-0.84792	-0.72292	0.075	-1.0625	-0.8375	-0.36667	-1.0521	-0.1625	-0.78125	-0.93542	-0.2125	-1.0417	-0.37917	-0.4375	334.048	65.042	59.633	30.560	208.324	363.337	293.508	279.343	130.892	344.392	34.103	346.738	148.747	40.981	10.695	235.669	0.00017212	0.00057712	0.00017753	544.87	3.5691e-06	1.9195e-06	1032.5	141.62	5.0386e-06	3.2318e-06	298.14	111.36	40.312	18.365	4.0721e-06	42.461	0.00019137	0.00018302	5.1835e-05	452.96	1.9969e-06	1.9652e-06	849.86	118.56	1.9772e-06	2.0374e-06	241.29	91.238	34.04	15.281	2.007e-06	34.696	134.615	80.669	154.789	17.457	194.147	86.656	17.178	22.243	79.228	118.795	19.685	23.801	25.236	29.488	140.758	28.478	-8191	255	
1861.439	1	1	0	0	0.086279	0.12286	0.51723	0.15771	0.099758	0.2407	0.10764	0.12661	0.1073	0.16551	0.098639	0.19804	0.19837	0.26329	0.36427	0.51015	-0.73333	-0.064583	-0.59167	-1.1646	-0.23125	-0.9875	-0.60833	-0.30208	-1.0312	-0.27083	-0.825	-0.925	0.047917	-1.0146	-0.55208	-0.36875	151.728	292.650	311.731	341.260	58.846	326.084	291.182	35.927	355.055	67.310	39.310	244.274	261.427	21.076	254.815	347.987	0.00027179	0.00099567	8.4101e-05	550.81	7.5904e-06	6.995e-07	1037.9	141.94	8.557e-06	4.7321e-06	297.37	112.26	40.42	17.872	2.8768e-06	42.346	0.00018417	0.00018331	5.1052e-05	452.69	1.9834e-06	1.9854e-06	851.43	118.92	2.0113e-06	2.0222e-06	242.11	92.172	34.376	15.176	2.0317e-06	34.665	140.612	109.977	164.322	17.675	120.168	252.554	16.833	22.139	141.241	161.120	19.509	23.686	25.366	29.985	158.659	28.298	-8191	255	
1861.535	1	1	0	0	0.13536	0.19261	0.20243	0.139	0.14372	0.092011	0.19426	0.070249	0.13753	0.19074	0.19069	0.28449	0.06356	0.18158	0.030031	0.20287	-0.55208	-0.3	-0.63958	-0.96042	-0.1625	-0.84583	-0.75833	-0.2625	-1.0375	-0.33958	-0.49583	-1.0729	-0.10208	-0.72708	-0.63125	-0.25	125.203	43.985	300.710	5.731	9.561	111.022	133.853	325.671	358.476	76.347	244.437	298.968	194.740	344.448	158.519	9.798	0.00029428	0.00063305	7.316e-05	543.92	1.7657e-06	1.6188e-06	1034.8	141.88	2.7355e-06	3.7991e-06	299.42	112.58	39.754	18.212	6.3415e-06	42.659	0.00018441	0.00018187	5.0144e-05	451.79	1.9792e-06	1.9974e-06	847.13	118.34	1.9983e-06	2.02e-06	242.78	92.163	34.098	15.18	2.0191e-06	34.673	121.722	60.346	91.883	18.064	279.862	179.691	16.734	22.577	127.618	161.135	20.321	24.090	25.802	30.456	71.257	28.934	-8191	255	
1861.631	1	1	0	0	0.32814	0.084023	0.25756	0.045745	0.27208	0.12631	0.26352	0.10442	0.10693	0.25427	0.32433	0.045671	0.11624	0.19729	0.29287	0.10629	-0.4375	-0.37708	-0.45625	-1.1625	-0.33542	-0.84375	-0.98125	-0.097917	-0.94583	-0.24167	-0.36875	-1.1729	-0.30625	-0.60625	-0.88125	-0.125	153.051	269.703	140.338	326.543	332.252	273.649	318.548	350.818	262.966	163.282	283.151	356.284	177.971	268.139	224.891	236.142	0.00020874	0.00016421	0.00010363	546.89	5.2861e-06	1.6417e-06	1034.2	143.16	4.0044e-06	2.3742e-06	297.17	110.5	40.071	17.777	3.7722e-06	41.041	0.00018782	0.00018178	5.0692e-05	452.6	2.035e-06	2.0078e-06	848.9	119.38	1.9425e-06	1.9552e-06	240.6	90.757	33.806	14.822	1.9639e-06	33.775	137.690	349.688	314.326	18.014	60.338	297.224	17.163	22.159	168.766	243.866	20.074	24.854	25.789	30.231	172.584	28.882	-8191	255	
1861.727	1	1	0	0	0.33604	0.067345	0.18077	0.18265	0.054019	0.22751	0.13516	0.042674	0.071759	0.24727	0.18081	0.16464	0.065213	0.058698	0.22471	0.25943	-0.55417	-0.31667	-0.2625	-1.1167	-0.30625	-0.68958	-0.97292	-0.1625	-0.96458	-0.67708	-0.3875	-0.83333	-0.44792	-0.64167	-1.1562	-0.33542	342.162	29.685	152.239	347.651	121.169	32.789	260.825	208.849	33.750	211.573	363.063	188.596	75.088	276.264	49.290	91.056	0.0002154	0.00073719	8.3186e-05	550.18	4.7731e-06	4.0544e-06	1038.1	141.91	5.2083e-06	2.1167e-06	290.65	109.32	39.374	17.208	2.6092e-06	41.074	0.00018379	0.00017997	4.927e-05	453.83	2.001e-06	1.9676e-06	847.72	118	1.8818e-06	1.9996e-06	237.43	89.548	33.426	14.665	1.9886e-06	33.653	135.917	66.419	283.476	18.411	71.217	223.777	17.454	22.043	207.523	78.247	19.749	24.206	25.004	30.358	218.957	28.832	-8191	255	
1861.823	1	1	0	0	0.15744	0.23552	0.17746	0.2783	0.17056	0.2666	0.26973	0.33908	0.14402	0.061097	0.061964	0.26676	0.32418	0.0646	0.13733	0.24101	-0.525	-0.74375	-0.27292	-1.0938	-0.42708	-0.59583	-1.2333	-0.31042	-0.78333	-0.87917	-0.041667	-0.92292	-0.30417	-0.41458	-1.1271	-0.20417	198.490	31.684	318.346	66.574	177.722	83.810	319.970	135.330	268.762	63.369	265.960	4.514	17.926	227.647	124.592	304.954	0.00017357	0.00072992	0.0001308	545.55	4.2499e-06	4.7034e-06	1031.3	141.63	1.5142e-06	1.9618e-06	292.31	111.21	39.157	17.935	5.6529e-06	42.052	0.00017952	0.00017842	4.8385e-05	453.15	1.9648e-06	1.96e-06	848.65	118.16	1.9346e-06	1.9984e-06	238.3	91.043	33.45	14.966	1.9615e-06	34.199	143.906	147.643	74.036	18.165	149.214	90.045	17.081	22.396	136.333	255.509	19.473	24.074	25.722	29.136	218.917	28.631	-8191	255	
1861.944	1	1	0	0	0.25281	0.14974	0.12047	0.14526	0.27562	0.068085	0.17751	0.23044	0.16278	0.1464	0.29318	0.15568	0.058471	0.069968	0.25507	0.1004	-0.39375	-0.78333	-0.041667	-1	-0.61458	-0.36458	-1.0729	-0.1	-0.71458	-1.0208	-0.05625	-1.0312	-0.33125	-0.25833	-1.0458	-0.20417	354.133	177.734	51.982	20.845	27.402	170.632	360.181	186.602	113.014	255.706	280.707	119.248	302.867	17.027	59.141	41.977	0.00020641	0.00092946	0.00015529	548.09	4.2382e-06	3.2104e-06	1033.9	142.71	2.3611e-06	2.8519e-06	290.51	109.47	39.92	17.794	5.9898e-06	41.629	0.00018377	0.00017484	5.0573e-05	454.56	1.9886e-06	1.979e-06	848.76	119.21	2.023e-06	1.9192e-06	238.81	90.431	33.833	14.9	1.9559e-06	34.117	111.279	107.676	9.988	17.295	46.504	226.911	16.737	20.965	41.474	190.619	19.303	24.134	25.661	29.468	197.865	28.025	-8191	255	
1862.016	1	1	0	0	0.23526	0.030189	0.10674	0.12848	0.26148	0.044672	0.16422	0.19162	0.096651	0.23396	0.20765	0.096459	0.24806	0.074413	0.26442	0.13231	-0.13125	-0.93333	0.0625	-0.89792	-0.41042	-0.085417	-1.1938	-0.10208	-0.71875	-1.0729	-0.13333	-0.80625	-0.61042	0.070833	-0.98333	-0.4625	157.446	352.478	356.767	150.381	356.889	113.568	134.436	232.192	264.543	288.245	268.939	322.015	165.119	326.035	303.050	273.725	0.00018707	0.0011144	0.00012277	550.25	4.5397e-06	2.9863e-06	1040.1	141.08	4.2361e-06	1.5072e-06	295.11	110.86	40.557	17.977	1.5486e-06	41.882	0.0001811	0.00017663	5.0308e-05	453.8	1.9652e-06	1.9392e-06	853.1	118.24	2.0115e-06	1.9594e-06	239.36	91.015	33.967	15.021	1.9857e-06	34.146	151.812	103.059	126.523	17.562	18.647	211.083	16.815	22.194	131.887	349.313	19.256	24.282	24.473	29.418	346.784	28.332	-8191	255	
1862.136	1	1	0	0	0.21525	0.1041	0.16469	0.39742	0.32971	0.24213	0.39441	0.27189	0.21964	0.30127	0.094104	0.47062	0.37092	0.34084	0.10177	0.11306	-0.052083	-1.0438	-0.0625	-0.95417	-0.95417	-0.36458	-1.2542	-0.49375	-0.37083	-1.1063	-0.27708	-0.75208	-0.77083	-0.091667	-1.1	-0.59792	135.293	208.435	100.304	323.028	156.383	27.797	281.321	68.836	45.846	119.185	143.328	5.846	353.509	255.990	188.715	45.392	0.00016987	0.00079056	0.00017921	549.44	3.6404e-06	7.1226e-06	1030.7	142.11	3.8616e-06	2.9428e-06	291.05	109.88	39.913	17.768	4.9918e-07	41.789	0.00018428	0.00017798	4.9082e-05	455.69	1.9454e-06	1.9233e-06	847.89	118.57	2.0443e-06	1.9796e-06	237.77	90.351	33.806	14.914	2.0261e-06	34.128	134.237	14.899	117.264	17.670	192.915	201.792	16.691	21.691	70.365	74.293	19.147	23.760	25.522	30.237	121.804	28.229	-8191	255	
1862.231	1	1	0	0	0.40335	0.058738	0.062692	0.078765	0.227	0.14549	0.095742	0.12528	0.14529	0.12714	0.20884	0.018873	0.04833	0.053327	0.14788	0.1824	0.20417	-1.1458	-0.13958	-0.5875	-0.85417	0.23333	-1.0292	-0.67292	-0.097917	-1.3146	-0.22292	-0.52708	-0.93958	-0.24583	-0.82083	-0.65208	99.869	25.237	215.121	32.651	350.364	348.231	87.353	331.653	338.262	70.605	160.532	190.495	255.476	173.577	107.422	258.212	0.00011565	0.00032194	0.00019966	547.41	4.0986e-06	1.9571e-06	1035.5	140.98	5.4188e-06	7.8288e-06	295.54	110.43	39.649	17.744	6.0709e-07	41.795	0.00018657	0.00018006	5.1935e-05	455.05	1.9627e-06	1.9673e-06	849.62	118.29	1.9915e-06	1.9582e-06	239.19	90.637	33.588	14.986	1.9877e-06	34.203	130.382	50.650	342.482	18.024	135.593	270.302	16.745	21.825	114.127	58.069	19.946	24.192	25.915	30.036	333.264	28.841	-8191	255	
1862.327	1	1	0	0	0.11591	0.29121	0.16874	0.22879	0.22655	0.079957	0.023219	0.12757	0.39071	0.16124	0.05562	0.10905	0.057317	0.064199	0.073504	0.22782	0.12083	-0.92083	-0.12917	-0.51667	-1	-0.18333	-0.96875	-0.675	-0.33958	-1.0792	-0.44375	-0.52917	-1.0417	-0.16042	-0.61042	-0.79792	297.913	70.953	286.829	284.598	153.496	336.406	31.945	298.000	220.749	299.571	342.347	90.613	33.564	306.371	295.707	122.479	0.00020139	0.00059128	0.00012793	548.39	6.5142e-06	4.2874e-06	1038.4	141.31	1.382e-06	7.0089e-06	294.97	111.08	40.484	17.981	9.0818e-06	42.371	0.0001867	0.00018459	5.0732e-05	455.46	2.0068e-06	2.0289e-06	853.92	118.19	2.0233e-06	1.9734e-06	240.57	91.3	34.119	15.121	2.0444e-06	34.665	115.594	112.767	184.495	18.023	109.432	190.253	16.781	22.637	123.458	87.361	19.775	24.280	24.516	30.221	159.289	28.170	-8191	255	
1862.423	1	1	0	0	0.21491	0.10958	0.079401	0.23527	0.045512	0.18235	0.25807	0.19904	0.31538	0.18488	0.2179	0.22442	0.20712	0.22298	0.29816	0.157	0.19375	-0.97083	-0.57708	-0.3125	-0.90208	-0.2	-0.82917	-0.68958	-0.24167	-0.92708	-0.28542	-0.22083	-0.97708	-0.19792	-0.57917	-1.2333	63.348	157.375	173.614	281.657	72.806	107.670	363.929	282.587	207.932	199.682	248.805	319.456	287.366	305.368	193.181	102.338	0.00013784	0.00064759	0.0002243	549.29	7.717e-06	3.1534e-06	1039.6	143.66	7.9889e-06	2.5065e-06	297.08	110.77	40.813	18.03	1.7182e-06	42.129	0.00018779	0.00018992	5.1838e-05	456.19	2.0597e-06	2.0429e-06	853.31	119.49	2.0287e-06	2.0763e-06	241.67	91.651	34.254	15.153	2.0698e-06	34.523	133.991	59.068	357.453	18.063	133.236	241.826	17.004	22.207	135.483	315.452	19.148	24.283	26.301	30.437	255.948	29.057	-8191	255	
1862.544	1	1	0	0	0.24571	0.029776	0.15915	0.082155	0.25237	0.25944	0.084437	0.29345	0.26173	0.199	0.18078	0.23209	0.13239	0.17619	0.05592	0.22249	0.22083	-0.89167	-0.47083	-0.33958	-1.05	-0.48333	-0.72708	-0.95625	-0.0875	-0.93125	-0.63542	-0.083333	-1.0896	-0.28125	-0.325	-0.98125	5.367	92.239	49.227	239.033	268.887	130.404	272.615	324.081	323.389	162.603	106.341	120.386	19.968	78.288	337.441	292.085	0.00019828	0.00060662	0.00015779	554.67	2.4801e-06	3.6643e-06	1039	143.6	6.9723e-06	7.7514e-06	293.95	112.22	40.522	17.789	4.9521e-06	42.052	0.00018772	0.00018801	5.3227e-05	457.77	2.0299e-06	2.0773e-06	853.21	119.57	2.0849e-06	2.0881e-06	240.14	91.625	34.331	14.987	2.1473e-06	34.48	127.435	86.008	190.331	18.198	222.170	119.256	16.606	21.773	311.650	189.169	19.124	24.094	25.116	30.337	194.414	28.202	-8191	255	
1862.640	1	1	0	0	0.1857	0.090367	0.033347	0.17834	0.21897	0.32568	0.24265	0.36804	0.1015	0.010346	0.33054	0.17548	0.30046	0.29206	0.22939	0.25273	0.22708	-0.67708	-0.72917	-0.175	-0.94792	-0.38542	-0.31458	-0.74792	-0.28542	-0.74792	-0.91875	-0.12708	-1.1208	-0.625	-0.42292	-1.1104	228.305	85.700	307.811	247.129	142.911	242.939	311.056	271.043	152.100	104.609	304.892	276.751	284.061	100.275	194.748	10.059	0.00019927	0.00046082	0.00019451	548.45	4.9406e-06	1.3824e-06	1033.6	140.87	7.9879e-06	1.4216e-05	292.85	110.3	40.453	17.779	2.4252e-06	41.948	0.00019424	0.00019688	5.35e-05	458.34	2.0577e-06	2.1441e-06	852.58	119.07	2.0898e-06	2.112e-06	239.11	90.865	34.169	14.965	2.11e-06	34.382	115.066	133.969	146.750	17.200	145.711	123.271	16.885	21.116	181.398	148.479	19.585	23.593	24.511	30.135	164.310	28.328	-8191	255	
1862.736	1	1	0	0	0.12223	0.16294	0.21067	0.2977	0.26366	0.073711	0.08369	0.021535	0.091463	0.076308	0.30898	0.11389	0.015328	0.1705	0.19794	0.18612	0.13333	-0.57917	-0.71667	-0.1875	-0.79792	-0.64167	-0.2625	-1.1021	-0.045833	-0.45208	-0.87708	0.0083333	-0.95417	-0.60417	-0.22083	-1.0104	104.956	283.390	193.900	355.414	256.836	168.212	278.256	270.290	69.322	185.815	260.232	295.199	125.422	337.755	119.794	72.029	0.00021609	0.00013519	0.00015564	552.93	4.0656e-06	1.7029e-06	1030.4	143.67	3.9577e-06	3.6751e-06	294.27	110.19	39.76	17.886	2.1403e-06	42.372	0.00019106	0.00019273	5.168e-05	458.19	2.0551e-06	2.0736e-06	851.12	119.88	2.1372e-06	2.0946e-06	239.35	90.992	34.105	14.952	2.1023e-06	34.509	129.389	49.044	255.548	16.973	80.205	144.043	16.273	21.403	56.098	50.905	19.295	23.652	24.501	29.496	121.340	28.120	-8191	255	
1862.832	1	1	0	0	0.06127	0.2674	0.13586	0.24643	0.14831	0.19631	0.21075	0.17621	0.074308	0.13527	0.11664	0.33155	0.33819	0.22463	0.21096	0.28152	-0.029167	-0.33333	-0.83333	-0.25833	-0.78958	-0.625	-0.23542	-0.97917	-0.33333	-0.21042	-1.0458	-0.089583	-0.76667	-0.825	-0.13125	-0.99375	288.496	273.500	97.468	324.177	255.355	134.590	340.033	358.818	60.350	308.906	227.028	192.933	11.227	27.004	246.105	319.641	0.000215	0.00049933	0.0001653	555.93	3.382e-06	8.1557e-06	1036.1	143.27	5.2584e-06	5.1596e-06	295.72	111.28	40.732	17.918	3.3409e-06	42.384	0.00019036	0.00018984	5.2636e-05	460.45	2.0973e-06	2.0269e-06	854.06	119.91	2.114e-06	2.1264e-06	239.44	91.65	34.215	14.981	2.1438e-06	34.515	145.839	68.872	34.302	17.087	103.435	177.444	16.774	21.989	182.267	124.971	18.878	23.599	24.762	29.597	107.534	27.991	-8191	255	
1862.928	1	1	0	0	0.23794	0.17503	0.28247	0.10995	0.21108	0.19595	0.44639	0.10216	0.11187	0.18102	0.34407	0.05643	0.024419	0.054941	0.032763	0.24584	-0.095833	-0.21667	-0.9875	-0.095833	-0.72083	-0.97708	-0.29167	-1.0021	-0.52708	-0.27708	-1.0792	-0.35417	-0.53542	-0.77292	-0.15625	-1.025	355.295	276.188	279.500	134.378	78.977	80.723	305.468	60.270	60.426	257.752	69.661	53.207	267.719	247.646	350.818	291.757	0.00018748	0.00028106	0.0002086	550.32	4.4702e-06	4.4796e-06	1034.2	142.02	2.9459e-06	9.0505e-06	290.96	108.06	39.889	17.436	6.0367e-06	41.083	0.00019235	0.00019081	5.2377e-05	457.88	2.0345e-06	2.0585e-06	851.52	119.15	2.0424e-06	2.0765e-06	237.03	89.235	33.677	14.718	2.0093e-06	33.674	129.149	59.609	118.743	17.445	135.841	171.959	16.560	20.731	167.941	114.467	19.564	23.308	25.570	28.871	135.349	27.609	-8191	255	
1863.024	1	1	0	0	0.088138	0.12763	0.2441	0.16103	0.051615	0.047731	0.33681	0.18471	0.10855	0.13517	0.21869	0.077647	0.05454	0.14451	0.1778	0.058994	-0.23958	-0.43958	-1.1208	-0.37083	-0.60417	-1.0167	-0.3125	-0.90625	-0.625	-0.19583	-0.91458	-0.34167	-0.47292	-0.83542	-0.20833	-0.88542	18.511	169.337	344.858	187.837	342.715	203.027	247.041	316.345	296.253	300.966	241.434	65.276	359.264	55.722	301.982	14.450	9.4192e-05	0.00043826	0.00014767	557.69	3.2448e-06	2.3739e-06	1037.6	143.23	6.4567e-06	6.2876e-06	289	109.69	39.927	17.619	6.6326e-06	41.482	0.0001908	0.00018768	5.0464e-05	459.28	2.0631e-06	2.0322e-06	850.61	119.45	2.0969e-06	2.0469e-06	235.57	89.815	33.666	14.791	2.069e-06	34.015	146.157	343.669	350.266	17.084	161.141	4.393	16.633	21.480	271.254	310.630	19.406	23.132	24.408	29.951	230.855	27.616	-8191	255	
1863.121	1	1	0	0	0.14199	0.089404	0.26153	0.18893	0.37802	0.069648	0.11414	0.12581	0.20712	0.24891	0.27952	0.33436	0.24751	0.32215	0.16722	0.30191	-0.45	-0.10625	-0.99792	-0.41667	-0.3	-1.1437	-0.089583	-0.80625	-0.84583	-0.16667	-1.0333	-0.35	-0.22083	-0.90625	-0.175	-0.6625	351.835	345.989	90.095	284.522	104.977	27.267	253.225	324.794	294.406	160.566	15.722	236.144	286.726	335.292	174.203	311.299	0.00017997	0.00041325	2.8246e-05	551.92	9.2032e-07	6.6746e-06	1034.7	143.45	4.9007e-06	3.7108e-06	287.25	108.75	40.472	17.531	2.1571e-06	41.361	0.00019308	0.00018934	5.1959e-05	458.97	2.0646e-06	2.0336e-06	849.65	119.57	2.0378e-06	2.032e-06	234.55	89.839	34.084	14.779	2.0742e-06	34.021	134.022	12.516	49.613	16.299	135.487	271.486	15.815	20.787	210.550	116.611	18.554	23.435	25.038	29.525	161.592	28.164	-8191	255	
1863.239	1	1	0	0	0.088818	0.21364	0.096585	0.11889	0.17223	0.024927	0.1518	0.17994	0.27931	0.3755	0.04504	0.061981	0.28052	0.39911	0.085293	0.1604	-0.51458	0.089583	-1.0458	-0.50417	-0.2125	-1.1313	-0.36875	-0.75417	-1.0458	-0.31458	-1.1667	-0.5	-0.17708	-1.0438	-0.27292	-0.69375	296.913	242.667	323.792	21.850	192.639	36.306	243.833	288.674	117.262	198.256	236.817	166.297	322.298	170.682	128.663	287.664	0.00019387	0.00016289	5.3405e-05	551.99	2.7649e-06	2.0367e-06	1034.9	141.5	2.7515e-06	1.1238e-06	288.18	109.72	39.632	17.548	1.6227e-06	41.586	0.00019371	0.00018511	5.1108e-05	459.61	2.0403e-06	1.9898e-06	851.17	119.26	2.0744e-06	2.0747e-06	235.78	90.219	33.639	14.806	2.0973e-06	34.027	144.332	117.616	24.648	16.869	169.479	101.393	16.717	21.761	325.726	209.056	19.247	24.052	24.483	29.388	218.188	28.383	-8191	255	
1863.311	1	1	0	0	0.10519	0.15328	0.20587	0.082483	0.10295	0.13411	0.53874	0.043631	0.28314	0.24285	0.083731	0.16979	0.17363	0.30286	0.29306	0.29423	-0.51042	-0.020833	-0.82917	-0.79792	-0.25833	-1.1417	-0.49583	-0.30208	-0.75417	0.0041667	-0.76042	-0.78125	-0.32083	-1.2333	-0.2875	-0.41042	294.505	14.613	302.105	348.872	121.231	323.768	320.551	123.460	149.206	49.850	252.285	72.451	124.780	64.705	77.158	315.634	0.00022024	6.8158e-05	0.00025061	552.53	4.4468e-06	5.8814e-06	1025.9	142.52	2.9907e-06	4.4517e-06	288.37	108.55	39.432	17.45	7.1052e-06	40.784	0.00018847	0.00018469	5.1842e-05	459.75	2.0544e-06	2.0531e-06	849.35	119.32	2.0613e-06	2.0575e-06	234.69	89.135	33.333	14.632	2.1326e-06	33.492	111.088	224.908	98.702	17.942	141.486	217.707	16.813	21.338	223.307	63.118	19.807	24.227	24.942	29.834	95.892	28.701	-8191	255	
1863.407	1	1	0	0	0.22046	0.18555	0.15913	0.21788	0.21117	0.098343	0.17685	0.20705	0.32998	0.14214	0.054607	0.15378	0.10223	0.19035	0.14844	0.14855	-0.68333	-0.29583	-0.70833	-0.83542	-0.08125	-1.0625	-0.64792	-0.20625	-1.1583	-0.28542	-0.72708	-0.88958	-0.17917	-0.82083	-0.63958	-0.3375	236.793	244.572	173.133	351.876	354.129	255.710	285.481	24.591	341.531	236.597	142.352	8.608	328.331	217.064	94.766	51.385	0.00015486	0.00066544	0.00010502	554.66	6.3041e-06	3.1719e-06	1029.7	141.73	1.4952e-06	3.6055e-06	288.39	107.85	39.267	17.354	7.0563e-06	40.952	0.00019	0.00018806	5.1782e-05	460.3	2.0244e-06	2.0442e-06	846.78	118.81	2.0289e-06	2.0656e-06	233.39	88.543	33.498	14.549	2.0485e-06	33.433	152.160	126.879	357.137	17.837	114.308	171.358	16.787	21.651	353.984	14.598	19.240	23.850	24.891	29.973	172.467	28.125	-8191	255	
1863.505	1	1	0	0	0.20581	0.056741	0.16933	0.21585	0.081402	0.11282	0.40171	0.35935	0.19952	0.16317	0.044179	0.2723	0.10416	0.4043	0.37825	0.27788	-0.78333	-0.24792	-0.69792	-1.0604	-0.045833	-0.79167	-0.75833	-0.26875	-1.0917	-0.28333	-0.63958	-1.0938	-0.016667	-0.95208	-0.54583	-0.27292	295.603	101.519	126.165	123.014	75.439	187.410	280.403	268.677	257.301	168.202	33.004	327.202	162.440	45.310	196.337	4.253	0.00015574	0.0009785	8.1192e-05	555.03	1.6848e-06	4.1833e-06	1029.2	142.86	6.372e-06	4.9242e-06	286.17	107.97	39.478	17.403	6.7227e-06	40.8	0.00018129	0.00018643	5.1199e-05	459.71	2.0004e-06	2.0411e-06	846.74	118.81	1.971e-06	2.02e-06	234.29	89.123	33.488	14.695	2.0593e-06	33.408	102.739	91.759	94.175	17.374	29.691	41.801	16.830	22.050	148.672	141.022	19.233	23.280	24.838	29.894	213.194	28.415	-8191	255	
1863.624	1	1	0	0	0.061966	0.10742	0.11744	0.083309	0.18985	0.29091	0.22202	0.19819	0.24048	0.17043	0.17464	0.10243	0.23155	0.1693	0.37397	0.073606	-0.64792	-0.32708	-0.37292	-1.1167	-0.15208	-0.79792	-0.78125	-0.25208	-0.89792	-0.325	-0.52292	-1.2188	-0.40833	-0.76875	-0.54583	-0.1	3.414	254.599	89.438	154.962	335.698	258.828	241.114	54.839	263.095	194.610	20.210	319.724	136.123	275.636	97.517	52.740	0.00013509	0.00027885	0.00021541	552.46	2.2236e-06	2.9655e-06	1031.7	142.08	2.7151e-07	6.1031e-06	287.96	107.99	39.501	17.216	5.6253e-06	40.503	0.00018811	0.00018103	4.992e-05	458.83	2.0284e-06	2.045e-06	849.31	118.43	2.0261e-06	2.0184e-06	234.31	88.944	33.445	14.531	2.0368e-06	33.254	142.767	19.091	32.640	17.437	168.385	144.272	16.340	21.368	214.009	122.230	19.303	24.094	25.320	30.109	136.188	28.547	-8191	255	
1863.720	1	1	0	0	0.064151	0.23919	0.12318	0.18929	0.069944	0.21037	0.076901	0.28676	0.10905	0.076026	0.24484	0.14333	0.30447	0.13572	0.15494	0.12527	-0.44167	-0.58958	-0.20417	-1.0396	-0.0625	-0.59375	-1.0708	-0.13958	-1.0229	-0.61042	-0.1875	-0.93958	-0.35625	-0.66042	-1.0271	-0.13958	299.006	306.602	189.109	289.903	154.628	37.591	48.540	261.932	58.071	163.673	275.267	337.580	285.351	203.288	315.772	104.090	0.00015274	0.00053772	7.6157e-05	556.67	4.5423e-06	2.5122e-06	1031.4	144.46	3.8211e-06	2.169e-06	287.74	106.27	39.538	17.345	1.2731e-06	39.829	0.00018767	0.00018578	5.0996e-05	460.98	2.0138e-06	2.0026e-06	847.62	119.51	2.0014e-06	2.0009e-06	232.28	88.157	33.444	14.468	2.0003e-06	32.772	138.397	127.489	103.861	17.521	3.756	95.855	16.440	21.507	139.733	112.430	18.983	23.643	25.128	30.121	69.194	28.406	-8191	255	
1863.816	1	1	0	0	0.10064	0.063772	0.12793	0.20034	0.14436	0.1743	0.22788	0.15687	0.26119	0.053391	0.10839	0.13005	0.15114	0.24443	0.11633	0.19408	-0.61458	-0.59375	-0.077083	-1.1208	-0.36667	-0.49792	-1.0812	-0.12917	-0.98958	-0.78958	-0.13958	-0.98958	-0.39167	-0.46875	-1.025	-0.15208	341.842	4.033	217.479	358.108	14.389	333.520	6.866	343.630	134.245	188.400	269.675	125.372	157.940	97.244	346.967	179.383	0.00013222	0.00066275	0.00017249	557.98	2.006e-06	4.6602e-06	1028.6	141.88	6.1424e-06	7.4449e-06	285.82	106.37	39.336	17.17	2.5014e-06	40.625	0.00018412	0.00018047	5.0331e-05	462.35	2.0076e-06	1.9888e-06	846.24	118.67	2.012e-06	1.9954e-06	232.05	88.17	33.381	14.558	2.0459e-06	33.128	141.533	134.162	133.536	16.975	235.963	244.252	16.401	21.764	167.471	178.300	19.519	23.944	24.323	29.939	127.743	28.564	-8191	255	
1863.913	1	1	0	0	0.035862	0.17573	0.14325	0.24991	0.14	0.15445	0.36285	0.015403	0.12999	0.013316	0.18387	0.057644	0.12734	0.11864	0.37817	0.27699	-0.44167	-0.83333	-0.097917	-0.90625	-0.35208	-0.2625	-1.2542	-0.28125	-0.55625	-0.84583	-0.20833	-1.2062	-0.54375	-0.3875	-0.89583	-0.37083	315.428	335.403	163.457	333.028	291.324	58.724	15.621	189.955	97.790	175.623	10.108	67.764	65.449	59.823	263.764	354.784	0.00015218	0.00038353	9.7234e-05	555.41	4.369e-06	1.7767e-06	1024.5	142.85	2.8284e-06	5.0226e-06	286.91	106.23	39.786	17.531	6.6304e-06	40.746	0.00018722	0.00018176	5.0332e-05	460.98	2.0042e-06	1.9634e-06	844.86	119.01	2.056e-06	1.9235e-06	232.43	87.922	33.589	14.67	2.0174e-06	33.215	122.646	89.670	160.764	17.512	101.256	168.579	16.308	21.582	37.589	124.927	19.047	23.511	24.201	29.985	154.993	27.979	-8191	255	
1864.009	1	1	0	0	0.11869	0.26392	0.22588	0.19682	0.089607	0.1578	0.4199	0.26512	0.2021	0.072562	0.13871	0.1512	0.31245	0.12229	0.19935	0.32717	-0.31042	-0.85833	-0.08125	-0.83958	-0.50625	-0.13125	-1.0396	-0.16667	-0.53542	-1.0042	-0.16458	-0.86667	-0.67917	-0.28125	-1.0417	-0.43125	332.418	215.862	256.183	14.269	239.763	84.514	334.321	248.599	315.902	295.792	37.911	199.608	293.827	261.698	89.296	322.820	0.00025374	0.00016386	0.00014834	560.55	2.4026e-06	5.2611e-06	1025	141.74	2.6789e-06	4.564e-06	285.73	107.98	39.506	17.233	1.3477e-06	40.698	0.00018874	0.00018134	5.1179e-05	463.22	2.0284e-06	1.9625e-06	847.22	119.46	2.023e-06	1.993e-06	232.54	88.986	33.518	14.585	2.0043e-06	33.454	114.608	329.585	31.994	17.131	139.425	262.774	16.294	21.876	82.085	41.743	18.713	23.745	24.597	29.510	209.473	28.378	-8191	255	
1864.105	1	1	0	0	0.098687	0.082612	0.33348	0.23188	0.049543	0.13512	0.063218	0.10739	0.15168	0.19	0.27228	0.0584	0.17943	0.21263	0.14004	0.19139	-0.21875	-1.0167	-0.05	-0.75625	-0.66667	-0.18958	-1.25	-0.31458	-0.42708	-1.0812	-0.24792	-0.82292	-0.91458	-0.0625	-1.1396	-0.66667	350.878	85.666	122.570	30.842	77.479	243.492	154.501	87.513	119.851	226.956	274.554	336.069	214.128	252.245	41.780	242.562	0.00021531	0.0010339	1.7882e-05	555.8	3.0492e-06	6.4926e-07	1023.7	143.15	2.6357e-06	2.547e-06	287.05	107.15	39.342	17.347	5.5189e-06	40.398	0.00018643	0.00018239	5.1405e-05	461.95	2.0247e-06	2.0249e-06	847.78	119.73	1.9649e-06	1.9336e-06	232.98	88.027	33.471	14.579	1.9984e-06	32.965	145.611	139.177	224.330	16.642	10.889	239.526	16.423	20.992	121.480	130.253	18.596	23.975	24.730	29.700	124.294	28.310	-8191	255	
1864.224	1	1	0	0	0.071439	0.24199	0.055265	0.19562	0.079667	0.088234	0.14741	0.036421	0.21571	0.31265	0.18604	0.29002	0.34936	0.25777	0.26192	0.23024	-0.072917	-1.125	-0.10208	-0.77708	-0.93333	-0.14792	-1.2021	-0.68333	-0.2625	-1.15	-0.21042	-0.54167	-0.88542	-0.20417	-0.98333	-0.66875	238.794	74.647	239.576	85.705	177.844	141.546	298.324	79.993	46.509	25.371	204.874	303.187	37.252	329.022	231.704	251.223	0.00018592	0.00079633	0.00021877	559.89	1.3702e-06	4.7275e-06	1026.7	142.9	4.4786e-06	4.3326e-06	284.55	107.9	38.918	17.398	6.0797e-06	39.931	0.00018284	0.00017967	5.0326e-05	463.71	1.9926e-06	1.9938e-06	846.39	119.37	1.9846e-06	1.9682e-06	231.13	88.123	33.167	14.539	1.991e-06	32.824	141.416	93.541	37.849	17.511	210.219	84.782	16.578	21.829	284.397	195.195	18.838	23.664	24.577	30.466	178.554	27.949	-8191	255	
1864.320	1	1	0	0	0.049676	0.1075	0.15903	0.303	0.20658	0.18235	0.31306	0.19937	0.14516	0.39881	0.31075	0.1251	0.36525	0.11668	0.11362	0.20534	0.12917	-0.925	-0.17708	-0.46458	-0.9	0.0875	-1.0938	-0.45	-0.125	-0.84583	-0.50833	-0.42083	-1.0542	-0.31042	-0.89792	-0.85625	136.727	141.967	70.706	363.428	236.132	26.066	360.813	264.297	131.656	160.929	267.732	256.815	61.989	146.199	253.545	270.334	0.00016015	0.00058067	0.00029969	556.2	3.3484e-06	6.6435e-06	1028.2	142.49	6.3934e-06	6.4474e-07	285.42	107.9	39.131	17.489	1.6455e-06	40.501	0.00018417	0.00018065	4.93e-05	461.02	1.9752e-06	1.9974e-06	848.26	118.89	2.0245e-06	1.9322e-06	231.63	88.443	33.303	14.507	2.0546e-06	33.096	119.104	62.932	78.014	17.610	140.347	106.204	17.061	21.770	80.025	325.294	19.452	23.489	24.193	30.094	244.393	28.423	-8191	255	
1864.416	1	1	0	0	0.17795	0.16418	0.13729	0.19547	0.2163	0.16789	0.26926	0.23078	0.27686	0.078735	0.20239	0.27425	0.20008	0.15072	0.13304	0.20158	0.039583	-0.95625	-0.42292	-0.59167	-1.0542	-0.11667	-0.9125	-0.86458	-0.16667	-1.0229	-0.46458	-0.37292	-1.0854	-0.26875	-0.71042	-0.80625	31.609	231.341	54.664	44.916	335.784	219.159	10.740	141.493	348.269	164.435	42.657	212.401	178.172	93.253	218.300	310.212	0.0001168	0.00032161	0.00012255	556.68	1.1153e-06	1.1045e-06	1035.7	143.56	3.6075e-06	3.6044e-06	281.4	107.18	38.728	17.343	5.5524e-06	40.753	0.00017903	0.00018098	4.9838e-05	461.93	1.9309e-06	1.9965e-06	850.01	119.02	2.0005e-06	1.9983e-06	232.15	88.618	33.157	14.651	2.0153e-06	33.316	118.041	114.927	112.577	17.839	55.051	257.337	16.516	22.203	44.173	112.579	19.073	23.685	25.204	29.970	69.511	27.768	-8191	255	
1864.537	1	1	0	0	0.17229	0.066025	0.24168	0.13882	0.19756	0.33435	0.17352	0.06585	0.29586	0.16337	0.21534	0.2766	0.18867	0.24295	0.17519	0.2363	0.18958	-0.76458	-0.36667	-0.29792	-1.0562	-0.19375	-0.625	-0.95833	-0.035417	-0.775	-0.58125	-0.17917	-0.90208	-0.29167	-0.48333	-0.73125	141.610	212.514	198.333	44.012	218.279	115.589	356.923	329.436	123.019	59.342	45.270	260.932	17.296	304.440	223.746	179.699	0.00018204	0.00085785	5.0614e-05	556.45	3.2056e-06	1.032e-06	1031.5	142.97	1.5987e-06	6.4242e-06	284.84	107.89	38.994	17.435	3.3513e-06	40.286	0.00018072	0.00017847	5.0768e-05	461.59	1.9583e-06	1.9606e-06	847.34	119.73	1.9597e-06	1.9577e-06	231.34	88.089	33.113	14.553	1.9832e-06	32.983	125.038	115.196	64.216	17.380	147.266	285.275	16.575	21.134	141.147	204.967	19.158	23.106	24.595	30.240	134.316	28.079	-8191	255	
1864.608	1	1	0	0	0.28131	0.14658	0.18915	0.18851	0.28825	0.17001	0.064675	0.27635	0.15958	0.19238	0.076673	0.11726	0.12197	0.18933	0.25059	0.3316	0.275	-0.86458	-0.6625	-0.29583	-0.90208	-0.21042	-0.78125	-1.1208	0.060417	-0.86042	-0.77292	-0.12083	-1.2	-0.5875	-0.2875	-0.92917	104.172	330.763	23.640	320.930	74.968	180.817	252.480	287.216	280.591	222.020	329.815	141.101	320.877	147.537	342.432	32.310	0.00020018	0.00070156	0.0001846	558.6	3.6613e-06	6.1433e-06	1027.4	142.68	7.1938e-06	4.1106e-06	283.03	105.91	39.142	17.28	7.5266e-07	40.189	0.00018053	0.00017559	4.9951e-05	462.37	1.962e-06	1.938e-06	846.17	118.95	1.9457e-06	1.9632e-06	230.73	87.379	33.184	14.487	1.9501e-06	32.766	109.161	108.742	174.200	17.512	93.269	119.582	16.491	21.064	80.543	300.204	19.080	23.642	24.587	29.457	15.070	28.314	-8191	255	
1864.704	1	1	0	0	0.11863	0.34086	0.21125	0.1742	0.17283	0.12799	0.20125	0.27515	0.095443	0.22184	0.16108	0.22532	0.083052	0.24507	0.21977	0.12347	0.125	-0.80208	-0.6875	-0.13125	-0.94583	-0.44375	-0.50625	-0.98125	-0.18542	-0.86667	-0.89167	-0.24583	-0.91875	-0.475	-0.27083	-0.97083	351.443	15.299	58.897	360.434	179.457	192.323	299.787	137.731	356.015	274.221	176.045	60.988	210.966	33.467	199.607	185.960	0.00016851	0.0011205	0.00015778	557.68	3.3706e-06	4.8502e-06	1027	142.25	6.5211e-06	5.6351e-06	283.62	106.74	39.029	17.48	3.5724e-06	40.132	0.00017785	0.00017867	4.7918e-05	461.53	1.9678e-06	1.9849e-06	844.09	118.94	1.9803e-06	1.9798e-06	230.26	87.694	33.297	14.584	1.9457e-06	32.976	161.242	49.802	346.926	16.837	227.409	125.905	16.096	21.238	112.694	100.568	19.302	23.132	24.743	28.740	129.052	27.999	-8191	255	
1864.801	1	1	0	0	0.13734	0.16861	0.2624	0.073177	0.29059	0.048838	0.033187	0.008078	0.14707	0.1067	0.22645	0.29418	0.20273	0.3025	0.31382	0.18963	0.19792	-0.56042	-0.83958	-0.1125	-0.6875	-0.65208	-0.16458	-1.1792	-0.4	-0.58542	-0.95208	-0.13958	-0.91667	-0.60625	-0.13958	-1.0604	68.156	128.971	47.984	165.308	30.827	180.507	319.814	26.213	122.921	340.117	319.627	346.607	154.768	350.144	284.910	261.968	0.00012819	0.00061691	6.1205e-05	559.54	2.6706e-06	4.7543e-06	1028.4	142.18	6.5262e-06	1.9869e-06	281.84	106.52	39.445	17.1	1.9508e-06	40.319	0.00018239	0.00017946	4.9502e-05	462.16	1.9681e-06	1.9857e-06	845.14	118.9	2.0082e-06	1.9703e-06	230.47	88.013	33.238	14.409	1.9256e-06	33.058	142.311	97.112	136.090	16.548	252.244	183.869	16.077	20.849	122.725	230.592	18.950	22.816	24.382	28.581	118.585	28.051	-8191	255	
1864.921	1	1	0	0	0.17549	0.053533	0.10743	0.084083	0.25497	0.029855	0.21189	0.30494	0.019983	0.27361	0.10813	0.20053	0.30743	0.22907	0.14488	0.24482	0.097917	-0.47917	-0.92917	-0.16667	-0.58333	-0.8125	-0.1375	-1.0521	-0.41667	-0.3375	-0.97708	-0.09375	-0.70208	-0.90417	-0.11458	-1.1542	244.397	358.218	158.528	301.153	54.059	39.042	235.501	275.324	81.787	50.841	192.526	350.011	289.582	24.112	61.311	317.241	0.00025748	0.00024428	9.5151e-05	559.89	1.8881e-06	7.6119e-06	1024.8	143.01	1.9888e-06	6.0221e-06	285.88	105.62	39.077	17.437	1.1849e-06	40.151	0.00018295	0.00017988	4.7747e-05	462.78	1.994e-06	1.9422e-06	843.29	119.49	1.9594e-06	1.9368e-06	232.34	87.492	33.148	14.469	1.9425e-06	32.787	134.491	199.639	6.266	16.680	65.526	91.929	16.235	20.543	217.555	46.013	18.330	23.123	24.042	29.089	105.007	28.201	-8191	255	
1865.017	1	1	0	0	0.068232	0.19132	0.22864	0.16734	0.24187	0.32425	0.18901	0.24369	0.32704	0.23445	0.19986	0.027605	0.15047	0.2813	0.031477	0.26848	0.0625	-0.08125	-1.1333	-0.064583	-0.60833	-0.75625	-0.05625	-0.87917	-0.54167	-0.125	-1.0896	-0.24167	-0.49583	-0.81042	-0.060417	-0.775	150.943	254.446	75.700	315.017	189.307	5.303	334.630	297.235	85.321	346.794	361.955	42.052	224.089	8.113	101.438	243.984	0.00019591	0.00032062	0.00017757	560.65	4.8044e-06	2.6326e-06	1025.4	141.94	6.1474e-06	3.5389e-06	285.26	107.1	39.016	17.14	5.858e-06	39.736	0.00018085	0.00017133	4.8312e-05	462.5	1.9268e-06	1.9132e-06	844.32	118.93	1.9511e-06	1.9299e-06	231.73	87.139	33.12	14.316	1.9466e-06	32.453	120.287	149.889	93.688	16.758	195.991	170.295	15.984	20.844	130.714	74.587	18.752	23.026	24.849	29.987	108.435	27.276	-8191	255	
1865.112	1	1	0	0	0.18166	0.2983	0.20306	0.18115	0.48704	0.31444	0.3343	0.15458	0.1384	0.084364	0.11684	0.17546	0.10015	0.052739	0.1165	0.19858	-0.3	-0.19375	-0.90417	-0.32917	-0.30625	-1.05	-0.095833	-0.65417	-0.67292	0.05	-1.05	-0.39583	-0.3375	-1.0604	-0.0875	-0.74583	303.025	198.163	268.583	315.009	135.310	263.474	308.817	196.070	37.992	265.870	360.425	261.572	118.684	232.373	101.071	99.478	0.00014494	0.00083632	0.00011502	557.87	4.2019e-06	2.9037e-06	1031	143.34	4.3245e-06	1.5777e-06	282.68	106.07	39.522	17.183	3.1407e-06	39.774	0.0001761	0.00018279	4.8315e-05	461.21	1.9397e-06	1.9077e-06	844.83	119.73	1.9457e-06	1.9329e-06	230.93	87.521	33.31	14.38	1.9684e-06	32.564	162.234	85.015	102.437	17.163	232.310	84.211	16.087	21.008	131.671	209.747	18.263	23.286	24.645	28.182	168.658	27.800	-8191	255	
1865.185	1	1	0	0	0.23149	0.18378	0.13847	0.20983	0.17024	0.21928	0.18938	0.368	0.15973	0.3257	0.3995	0.047048	0.3134	0.060016	0.13661	0.060892	-0.33333	-0.12292	-0.88125	-0.63333	-0.20417	-1.1333	-0.33958	-0.55	-0.74167	-0.054167	-0.96875	-0.54167	-0.23542	-1.0021	-0.18542	-0.68333	216.892	70.881	201.279	329.740	87.086	142.159	47.711	291.024	58.772	67.515	301.317	71.018	272.813	62.602	284.114	229.168	0.00024329	0.00037158	5.273e-05	558.11	5.7563e-06	7.2918e-06	1029.4	144.46	1.3146e-06	4.5321e-06	288.7	107.05	39.792	17.217	3.2359e-06	39.992	0.00018017	0.00017446	4.8348e-05	461.04	1.918e-06	1.9419e-06	845.87	120.35	1.9159e-06	1.9337e-06	234.34	87.97	33.515	14.347	1.9706e-06	32.793	144.276	115.176	234.785	17.043	179.764	194.973	15.976	20.890	112.611	343.101	19.033	22.947	24.081	29.147	117.935	27.657	-8191	255	
1865.304	1	1	0	0	0.14742	0.085055	0.10894	0.1016	0.23446	0.088085	0.3112	0.16793	0.25503	0.13657	0.18642	0.22346	0.17634	0.11184	0.28868	0.30872	-0.41875	-0.16875	-0.87083	-0.67917	-0.21458	-0.925	-0.38542	-0.52083	-0.9875	-0.072917	-0.81667	-0.51667	-0.14792	-0.825	-0.23333	-0.40625	271.075	54.298	161.805	191.607	61.335	57.435	341.471	353.790	115.369	289.595	59.328	240.328	26.360	248.841	220.968	343.226	0.00012753	0.00074043	9.6381e-05	555.9	1.9396e-06	2.8852e-06	1032.1	142.56	3.041e-06	5.3692e-06	287.76	106.76	39.223	17.167	4.2151e-06	40.029	0.00017479	0.00018205	4.9618e-05	462.03	1.9238e-06	1.9109e-06	847.81	120.19	1.9482e-06	1.9195e-06	234.01	88.195	33.511	14.436	1.9561e-06	32.711	155.489	31.576	73.288	16.876	42.691	204.311	16.169	21.701	83.557	354.366	18.381	23.244	23.807	29.069	35.758	28.211	-8191	255	
1865.400	1	1	0	0	0.14986	0.14311	0.14177	0.083197	0.16364	0.27533	0.251	0.15587	0.4941	0.37606	0.14774	0.32859	0.12541	0.35321	0.18983	0.19201	-0.575	-0.12917	-0.84167	-0.89583	-0.15208	-0.925	-0.60208	-0.25833	-1.0312	-0.19167	-0.5875	-0.9	-0.020833	-1.075	-0.54583	-0.35625	37.255	90.661	12.313	248.913	126.960	10.095	58.040	98.529	306.135	199.679	100.466	337.532	259.304	337.545	304.771	212.518	0.00011	0.00075505	0.0002227	560.95	3.9375e-06	1.8171e-06	1029.7	144.4	5.6244e-06	1.8405e-06	285.93	106.35	39.674	17.044	4.5796e-06	39.524	0.00017727	0.00017474	4.9198e-05	465.38	1.9671e-06	1.9442e-06	846.21	120.56	1.8897e-06	1.9781e-06	232.13	87.557	33.431	14.347	1.931e-06	32.516	142.844	190.915	93.668	16.946	185.360	111.343	15.756	21.249	170.470	228.545	18.278	22.995	24.270	29.235	362.441	27.559	-8191	255	
1865.496	1	1	0	0	0.21406	0.15467	0.25863	0.10734	0.21887	0.27323	0.091767	0.20459	0.2833	0.017594	0.18418	0.044141	0.17823	0.17394	0.030408	0.14107	-0.63542	-0.022917	-0.71875	-0.90625	-0.1875	-0.91667	-0.49583	-0.39583	-1.1583	-0.27083	-0.61667	-1.0354	-0.23542	-0.675	-0.61667	-0.15625	230.569	7.940	232.880	285.782	155.541	110.924	106.027	351.837	47.927	104.266	339.716	37.440	302.276	250.791	271.630	220.430	0.00020476	0.00050852	4.6471e-05	567.13	4.6438e-06	5.6843e-06	1034.4	143.95	4.3296e-06	1.5913e-06	283.72	107.15	39.683	16.978	3.6531e-06	39.948	0.00018028	0.00017577	4.8646e-05	467.84	1.9252e-06	1.962e-06	848.5	120.08	1.9571e-06	1.9187e-06	230.93	87.9	33.478	14.349	1.9584e-06	32.836	142.349	54.576	170.436	16.415	148.289	183.498	15.978	20.774	99.568	192.938	18.424	23.256	24.051	29.195	347.528	28.168	-8191	255	
1865.617	1	1	0	0	0.39197	0.14539	0.38171	0.14469	0.25574	0.19371	0.10446	0.13743	0.23819	0.085682	0.29973	0.20518	0.092463	0.094366	0.05044	0.2579	-0.79792	-0.26875	-0.625	-1.0271	-0.064583	-0.95	-0.8875	-0.17917	-0.86458	-0.30208	-0.68333	-0.84792	-0.1	-0.69792	-0.7875	-0.3625	94.900	126.617	174.700	290.126	273.946	28.988	111.739	187.792	22.753	216.944	258.339	245.123	19.999	22.355	266.240	228.831	0.00011615	0.00072101	0.00016849	567.3	3.6129e-06	4.2552e-06	1024.4	144.88	2.5496e-06	6.1525e-06	286.66	107.58	39.555	17.4	2.6784e-06	40.889	0.00018094	0.00018036	5.0314e-05	468.88	1.9782e-06	1.992e-06	848.67	120.89	1.9533e-06	1.9599e-06	233.44	88.831	33.735	14.681	1.9963e-06	33.247	137.501	65.067	133.860	17.145	217.910	185.315	16.257	20.833	293.469	164.770	18.433	23.064	23.816	29.126	28.709	27.933	-8191	255	
1865.713	1	1	0	0	0.092354	0.11057	0.038843	0.08673	0.040075	0.15708	0.051445	0.39137	0.13024	0.080697	0.089401	0.20316	0.12437	0.056387	0.068673	0.14635	-0.56458	-0.41667	-0.2375	-1.0042	-0.10208	-0.81042	-0.95833	-0.13333	-0.87083	-0.35833	-0.16667	-1.0417	-0.060417	-0.75833	-0.98542	-0.11458	185.960	43.169	81.130	322.960	146.876	211.142	297.726	281.750	322.156	328.026	285.379	306.359	252.087	218.801	109.042	156.808	0.00019902	0.00042584	0.00027797	565.63	2.6097e-06	5.9153e-06	1031.7	145.11	2.3828e-06	5.1989e-06	288.04	108.12	40.145	17.485	4.097e-06	40.411	0.00018054	0.00018209	4.9937e-05	468.08	1.97e-06	1.9709e-06	851.84	121.16	1.9183e-06	1.9951e-06	234.62	88.947	33.811	14.637	1.9712e-06	33.126	132.792	110.574	25.676	17.126	133.011	183.854	16.299	21.427	180.681	193.297	19.077	23.435	24.621	29.917	113.576	28.224	-8191	255	
1865.809	1	1	0	0	0.23643	0.12313	0.14704	0.29806	0.31773	0.19393	0.090243	0.074843	0.12812	0.22515	0.35482	0.21167	0.25258	0.18687	0.12172	0.36368	-0.44792	-0.5125	-0.20625	-1.1396	-0.1375	-0.60208	-1.1042	-0.15208	-0.79792	-0.65208	-0.17917	-1.1604	-0.34583	-0.36458	-0.93958	-0.14583	307.186	14.310	144.333	343.840	58.669	303.091	121.970	254.197	199.543	25.359	192.947	293.334	332.682	211.977	106.359	284.448	0.00015369	0.00046022	0.00019236	566.84	3.3766e-06	7.6687e-06	1033.5	144.4	7.2622e-06	1.1042e-05	287.01	107.59	40.281	17.459	4.6537e-06	40.202	0.00018257	0.00017691	4.9121e-05	468.7	1.9814e-06	1.9679e-06	850.97	120.91	1.9798e-06	1.9715e-06	234.52	88.366	33.848	14.665	1.96e-06	33.033	106.950	284.901	243.386	16.920	204.880	140.673	16.724	21.143	102.010	89.941	19.315	23.713	24.202	29.869	176.024	27.792	-8191	255	
1865.905	1	1	0	0	0.16419	0.17063	0.24459	0.26517	0.066056	0.23939	0.25178	0.18192	0.19597	0.22377	0.16352	0.38697	0.13374	0.17355	0.27012	0.19402	-0.45833	-0.55208	-0.11042	-1.0063	-0.32083	-0.42708	-1.15	-0.17917	-0.69792	-0.83125	-0.16458	-1.125	-0.64375	-0.3375	-1.0708	-0.30833	107.072	304.917	66.190	309.767	49.228	191.487	8.716	345.891	10.096	226.673	219.774	341.307	360.188	225.116	122.300	234.153	0.0002034	0.0006564	3.8545e-05	568.04	1.5836e-06	5.8304e-06	1033.5	144.12	5.1357e-06	4.9186e-06	289.15	107.25	39.99	17.347	5.0066e-06	40.306	0.0001836	0.0001785	4.939e-05	468.26	1.9488e-06	1.9534e-06	852.63	121.01	1.9891e-06	1.9403e-06	233.93	88.573	33.704	14.668	1.9768e-06	33.276	123.353	352.395	228.328	17.368	227.247	145.072	15.868	21.250	103.386	200.227	19.268	23.567	24.411	29.602	163.497	28.123	-8191	255	
1866.002	1	1	0	0	0.12402	0.063028	0.055778	0.2534	0.25585	0.097833	0.22153	0.13986	0.11519	0.16315	0.22996	0.22986	0.24174	0.20725	0.16011	0.28395	-0.25208	-0.875	-0.020833	-0.94792	-0.52292	-0.2	-1.1688	-0.21667	-0.40833	-0.89375	-0.010417	-0.94167	-0.67292	-0.3125	-1.0604	-0.42083	241.835	197.938	103.333	120.238	272.240	302.504	12.809	22.608	79.861	274.305	247.699	346.729	75.642	286.918	307.847	257.424	0.00020965	0.0004328	0.00010381	569.03	3.3892e-06	7.9723e-06	1036.1	145.12	4.8617e-06	3.4546e-06	288.1	107.62	39.72	17.465	3.086e-06	41.097	0.00018383	0.00017941	5.0736e-05	469.12	1.9573e-06	1.969e-06	852.46	120.39	1.9782e-06	1.9298e-06	234.04	89.071	33.863	14.792	1.9388e-06	33.558	151.078	168.152	55.985	17.381	154.431	91.175	16.351	21.325	203.030	204.856	19.227	23.953	25.145	29.575	118.419	28.815	-8191	255	
1866.098	1	1	0	0	0.017799	0.041456	0.14693	0.32691	0.10251	0.053712	0.036025	0.28349	0.27897	0.32982	0.12078	0.21777	0.12038	0.20465	0.067126	0.14625	-0.16667	-1.15	0.010417	-0.90625	-0.61458	0.091667	-1.2125	-0.34375	-0.575	-0.95208	-0.25417	-0.8375	-0.74792	-0.29375	-0.93958	-0.39792	15.926	100.173	343.374	327.588	172.832	295.511	274.242	133.175	264.372	333.797	298.268	262.623	307.631	30.548	340.937	301.438	0.0001782	1.9967e-05	0.00019782	568.31	4.3848e-06	1.9728e-06	1036.2	145.69	2.4177e-06	8.5599e-06	287.38	108.05	39.502	17.635	4.0913e-06	40.428	0.0001833	0.00017705	5.0231e-05	468.32	1.9168e-06	1.9327e-06	851.78	121.01	1.946e-06	1.9414e-06	233.86	89.219	33.582	14.726	1.9848e-06	33.25	120.661	71.938	49.383	17.675	159.574	227.055	16.885	21.673	49.344	111.349	19.656	23.690	25.069	30.536	188.637	28.637	-8191	255	
1866.217	1	1	0	0	0.43788	0.25687	0.21562	0.095802	0.034514	0.088075	0.20119	0.20283	0.12649	0.19843	0.13091	0.065709	0.046798	0.23213	0.21871	0.059066	0.035417	-1.0667	-0.0875	-0.58125	-0.7	0.0041667	-1.2771	-0.26458	-0.33958	-1.0438	-0.26458	-0.73542	-0.68542	-0.1	-0.8875	-0.49167	313.835	137.340	91.248	117.626	163.474	299.876	276.540	290.335	116.933	65.188	184.443	205.252	298.803	14.657	287.241	300.425	0.0002539	0.00048004	8.9524e-05	566.69	4.4888e-06	2.7667e-06	1033.5	144.77	2.3201e-06	7.744e-06	284.76	107.11	39.698	17.086	1.2887e-06	39.984	0.00018269	0.0001768	4.9195e-05	468.79	1.9583e-06	1.9292e-06	850.89	119.92	1.9158e-06	1.9175e-06	231.5	87.79	33.275	14.466	1.9449e-06	32.579	143.300	135.717	61.078	17.806	83.424	115.566	16.842	21.910	30.991	123.298	19.864	24.247	25.325	29.987	176.807	28.404	-8191	255	
1866.313	1	1	0	0	0.080627	0.098556	0.18309	0.23506	0.14222	0.11217	0.25735	0.12213	0.60252	0.44957	0.10403	0.16758	0.2337	0.11165	0.24	0.19622	0.29167	-0.98333	-0.175	-0.4375	-0.75417	0.09375	-1.1625	-0.74583	-0.375	-0.92917	-0.46458	-0.4375	-0.81667	0.05	-0.85417	-0.58958	292.105	156.190	18.819	277.429	340.133	301.111	326.813	248.382	57.785	110.898	18.288	338.865	335.244	223.378	31.850	246.289	9.8855e-05	0.00060885	0.00010428	566.35	3.0818e-06	5.2356e-06	1036.6	143.77	5.155e-06	3.2207e-06	283.23	106.81	39.224	17.268	6.6353e-06	39.902	0.00017639	0.00017207	4.8526e-05	469.63	1.9079e-06	1.9134e-06	849.93	119.94	1.9e-06	1.8635e-06	229.95	87.084	33.185	14.473	1.9207e-06	32.507	148.735	196.406	77.516	17.564	5.420	243.420	16.870	21.820	50.590	293.608	18.943	24.217	25.092	29.868	204.637	28.886	-8191	255	
1866.409	1	1	0	0	0.20248	0.12406	0.21657	0.17286	0.12954	0.18298	0.07105	0.21662	0.2332	0.19806	0.29875	0.16869	0.087237	0.086387	0.29997	0.27488	0.125	-1.0938	-0.45417	-0.475	-1.0458	-0.25625	-0.82083	-0.58333	-0.12708	-1.2417	-0.68542	-0.36042	-1.0458	-0.2125	-0.70625	-0.88333	358.315	149.691	61.328	305.163	16.383	190.495	87.350	281.399	229.433	358.954	16.269	359.960	37.575	240.466	25.213	193.733	0.00014577	0.00059087	0.00031004	563.43	5.8404e-06	6.8342e-06	1028.8	143.34	7.4402e-07	4.3971e-06	283.4	106.57	39.146	17.518	3.0383e-06	39.823	0.0001739	0.00017151	4.8794e-05	466.39	1.8989e-06	1.9095e-06	849.08	119.12	1.8379e-06	1.9565e-06	231.12	87.65	33.03	14.587	1.9425e-06	32.827	127.949	75.398	50.778	17.329	48.615	194.164	17.469	21.865	175.534	64.996	20.088	24.551	24.762	30.442	42.699	29.108	-8191	255	
1866.481	1	1	0	0	0.032495	0.22302	0.16306	0.36246	0.38702	0.058082	0.3976	0.14643	0.08756	0.13344	0.018124	0.17752	0.106	0.21155	0.047994	0.14888	0.33333	-0.7875	-0.54583	-0.39167	-1.0333	-0.23333	-0.82917	-0.85625	-0.31458	-1.3458	-0.55833	-0.091667	-1.0312	-0.21042	-0.72917	-0.93958	260.959	135.039	335.466	296.191	32.089	260.169	338.360	274.955	106.556	166.455	78.570	341.783	113.223	109.946	96.279	55.505	0.00013191	0.00080406	7.3426e-05	565.78	2.5965e-06	1.2189e-06	1029.9	143.48	2.4504e-06	5.7724e-06	285.08	106.18	39.284	17.237	3.973e-06	39.999	0.00017793	0.00017108	4.843e-05	467.96	1.8985e-06	1.8952e-06	848.8	119.88	1.9253e-06	1.9624e-06	230.74	87.394	33.261	14.443	1.9144e-06	32.74	106.242	116.804	9.772	17.949	230.803	135.151	17.135	22.066	85.269	202.677	19.596	24.133	25.267	30.286	166.395	28.657	-8191	255	
1866.577	1	1	0	0	0.039312	0.091837	0.21654	0.35044	0.038863	0.15115	0.13962	0.59458	0.37865	0.070609	0.12298	0.16806	0.21336	0.14041	0.092352	0.17363	0.26875	-0.8875	-0.41042	-0.24167	-1.15	-0.40625	-0.64583	-1.1396	-0.17708	-0.83333	-0.64792	-0.29167	-1.1896	-0.32917	-0.46875	-1.0312	270.652	352.152	65.513	31.663	280.315	32.770	248.180	308.707	301.543	42.568	122.159	343.248	5.055	134.413	266.061	41.570	0.00010664	0.00032194	9.3798e-05	561.65	5.2754e-06	5.6275e-06	1033.2	143.2	6.0305e-06	9.4166e-06	280.92	105.58	38.926	17.256	9.3239e-06	39.755	0.00017606	0.00017513	4.8417e-05	466.69	1.882e-06	1.9486e-06	848.6	119.25	1.8966e-06	1.9006e-06	228.44	86.523	33.04	14.38	1.8735e-06	32.437	155.835	111.403	27.546	17.815	168.346	155.357	17.193	21.493	217.191	128.016	19.542	23.930	25.565	30.878	198.164	28.261	-8191	255	
1866.697	1	1	0	0	0.28071	0.19628	0.060204	0.47465	0.11758	0.18433	0.23925	0.23369	0.10851	0.29197	0.40416	0.23201	0.21259	0.094633	0.23814	0.18512	0.10833	-0.83542	-0.8	-0.31042	-1.1042	-0.4375	-0.41458	-0.94167	-0.097917	-0.65417	-0.93542	-0.18958	-1.0396	-0.47917	-0.20833	-1.1021	154.429	162.915	292.760	285.877	189.029	248.447	271.744	288.875	211.202	106.914	332.137	22.033	353.762	86.285	289.621	260.790	0.00022304	0.00025239	7.4393e-05	569.04	4.6123e-06	3.4228e-06	1028.6	142.65	3.8929e-06	6.0816e-07	280.66	106.5	38.79	17.053	1.4721e-06	39.886	0.00017189	0.00017351	4.7499e-05	466.7	1.8419e-06	1.8711e-06	845.84	119.16	1.9024e-06	1.9444e-06	228.8	86.878	32.925	14.354	1.9198e-06	32.535	134.298	150.827	257.025	18.127	141.758	67.986	16.966	21.884	154.467	115.772	19.023	24.428	25.803	30.546	305.470	28.970	-8191	255	
1866.794	1	1	0	0	0.1742	0.09386	0.04297	0.27665	0.17528	0.080673	0.29597	0.049183	0.3004	0.037441	0.20135	0.073788	0.25837	0.12505	0.25402	0.17163	0.05625	-0.57917	-0.79583	-0.08125	-0.9625	-0.65625	-0.38958	-1.1979	-0.31875	-0.55417	-0.95208	-0.21458	-0.69792	-0.59375	-0.083333	-1.1271	200.860	313.527	108.028	344.808	81.028	36.965	308.393	288.808	30.176	150.493	199.693	8.336	18.146	276.612	77.663	4.182	9.1723e-05	0.0008549	0.00010496	561.94	5.879e-06	4.5117e-06	1032.1	143.73	3.4513e-06	5.5549e-06	284.11	106.22	38.895	17.152	3.3871e-06	39.709	0.00017963	0.00017278	4.8009e-05	464.46	1.9279e-06	1.8715e-06	848.2	118.99	1.8618e-06	1.9076e-06	229.6	87.474	32.927	14.443	1.9034e-06	32.812	82.923	323.181	97.223	17.766	173.717	180.916	17.354	22.160	126.403	49.930	19.791	24.468	24.984	30.309	161.446	28.414	-8191	255	
1866.890	1	1	0	0	0.20486	0.16233	0.10984	0.2555	0.20843	0.29423	0.20391	0.048846	0.17361	0.12674	0.051296	0.19171	0.18577	0.13582	0.29338	0.11919	-0.14167	-0.51458	-0.84792	-0.16875	-0.76667	-0.5875	-0.3125	-1.0521	-0.55208	-0.31458	-1.0063	-0.2125	-0.86458	-0.675	-0.11042	-0.875	67.571	62.459	233.634	303.244	10.973	88.208	299.762	357.733	87.970	282.890	62.353	96.547	172.122	50.631	141.379	323.302	0.00016238	0.00046876	7.5492e-05	560.09	1.5739e-06	1.946e-06	1032.9	144.1	2.1192e-06	7.2331e-06	281.78	106.19	39.383	17.252	3.271e-06	40.352	0.00017775	0.00017519	4.8341e-05	464.72	1.9384e-06	1.9032e-06	847.22	119.66	1.9156e-06	1.8661e-06	231.05	87.527	33.132	14.504	1.919e-06	32.955	120.909	114.540	185.070	17.855	46.393	167.357	17.179	21.527	302.875	137.296	20.023	23.727	25.842	30.247	137.821	29.010	-8191	255	
1867.010	1	1	0	0	0.30499	0.088284	0.10636	0.15953	0.27417	0.19067	0.25163	0.208	0.059814	0.15162	0.098577	0.14679	0.23606	0.17969	0.028726	0.082635	-0.25625	-0.32292	-1.2354	-0.32917	-0.7875	-0.88542	-0.29375	-0.90208	-0.59375	-0.41458	-1.1771	-0.41667	-0.62083	-0.96667	-0.05625	-1.0354	60.101	363.731	106.581	331.315	74.931	315.457	75.292	358.195	84.960	61.608	330.092	7.962	313.279	71.481	254.259	135.989	0.00016497	0.00025184	0.00011836	565.96	3.1376e-06	3.5973e-07	1029	142.28	1.8458e-06	5.2723e-06	280.95	106.45	38.792	17.248	1.4082e-06	39.93	0.00017716	0.00017484	4.8269e-05	465.17	1.9404e-06	1.92e-06	846.69	119.08	1.9202e-06	1.8907e-06	229.65	86.831	33.052	14.405	1.9156e-06	32.739	173.844	150.547	246.398	17.642	73.876	157.436	16.870	22.314	121.124	233.960	20.033	24.528	26.044	29.755	297.818	29.222	-8191	255	
1867.082	1	1	0	0	0.25834	0.12806	0.029697	0.23724	0.17415	0.29298	0.44826	0.17615	0.26061	0.19832	0.24927	0.12763	0.25876	0.075897	0.035897	0.12131	-0.31667	-0.089583	-1.0271	-0.20625	-0.5625	-1.0375	-0.26875	-0.77083	-0.47708	-0.095833	-1.1396	-0.22292	-0.39583	-1.0083	-0.13958	-0.84375	272.050	63.204	105.329	265.559	238.635	298.842	312.842	306.232	360.790	55.463	47.635	204.121	235.919	236.517	166.588	339.962	0.0001594	0.00017784	7.3617e-05	560.34	2.9921e-06	4.7084e-06	1028.2	142.83	6.9791e-06	6.0581e-06	282.9	106.66	39.242	17.462	8.5667e-07	40.24	0.00017568	0.00017519	4.6928e-05	463.48	1.9255e-06	1.9111e-06	845.13	119.25	1.922e-06	1.9338e-06	230.67	87.62	33.146	14.577	1.9149e-06	32.935	152.142	92.340	99.327	18.134	172.907	43.734	17.239	21.924	148.222	175.251	19.789	24.067	25.547	29.581	138.996	28.791	-8191	255	
1867.178	1	1	0	0	0.13939	0.10889	0.16051	0.40889	0.10825	0.23177	0.21788	0.065654	0.26276	0.1629	0.254	0.17682	0.066456	0.17162	0.22883	0.38363	-0.34167	-0.18125	-1.1083	-0.26458	-0.44167	-1.1917	-0.44792	-0.6625	-0.79792	-0.14167	-1.1354	-0.69792	-0.34792	-0.98542	-0.38542	-0.72083	48.290	14.430	294.703	284.997	243.810	239.626	244.405	290.486	282.944	303.559	270.369	351.175	53.594	139.975	114.718	284.354	0.00019216	0.00056637	0.00011126	561.2	6.0865e-06	1.1336e-06	1036.1	142.87	5.2997e-06	1.8915e-06	282.31	106.17	39.092	17.427	3.4181e-06	41.309	0.0001785	0.00017484	4.8193e-05	464.48	1.9027e-06	1.885e-06	847.34	119.17	1.9137e-06	1.9002e-06	230.95	87.682	33.15	14.559	1.9676e-06	33.507	125.479	24.229	174.709	17.813	101.489	119.282	16.964	21.979	172.974	151.586	19.811	23.986	25.697	30.375	13.491	29.093	-8191	255	
1867.299	1	1	0	0	0.24019	0.12465	0.069281	0.22521	0.18168	0.11143	0.2033	0.38619	0.2953	0.28446	0.16934	0.037299	0.16942	0.08889	0.23053	0.26523	-0.58125	-0.075	-1.0271	-0.87292	-0.40417	-1.0917	-0.49583	-0.54583	-1.1229	-0.070833	-1.15	-0.74583	-0.28542	-1.1375	-0.40625	-0.44167	171.392	307.153	350.159	30.271	136.386	294.845	339.490	330.089	8.560	215.310	303.186	53.214	318.287	66.312	362.856	324.336	0.00021083	0.00049384	0.00021424	560.99	5.4442e-07	9.9413e-07	1030.3	143.34	1.8685e-06	9.3223e-06	283.64	108.04	39.56	17.464	4.0102e-06	40.944	0.00018095	0.00017313	4.8686e-05	463.11	1.9366e-06	1.9144e-06	847.17	119.4	1.9485e-06	1.9308e-06	231.6	88.373	33.333	14.561	1.9838e-06	33.493	141.869	36.462	48.938	17.701	305.273	93.994	16.855	22.265	202.134	146.617	20.445	23.568	25.476	30.252	354.342	28.757	-8191	255	
1867.393	1	1	0	0	0.39477	0.29095	0.071488	0.10139	0.21591	0.089268	0.153	0.2808	0.15444	0.18194	0.27637	0.28266	0.10954	0.023707	0.15085	0.083919	-0.61875	-0.15417	-1.0104	-0.85417	-0.23125	-1.0521	-0.43958	-0.43333	-1.1812	-0.1125	-0.95417	-0.75833	-0.3375	-1	-0.46875	-0.55	70.461	177.641	221.959	224.375	155.906	288.583	303.210	227.301	325.488	157.972	141.181	342.949	249.854	174.678	18.658	103.832	0.00020961	0.0001432	9.4466e-05	556.24	4.3298e-06	1.7529e-06	1029.2	142.14	3.6695e-06	7.5206e-06	285.18	107.76	39.3	17.307	5.1964e-06	40.422	0.00018213	0.00017712	4.8314e-05	461.9	1.9029e-06	1.9679e-06	846.32	118.96	1.9458e-06	1.9354e-06	231.89	88.027	33.187	14.489	1.9512e-06	33.064	142.886	86.913	66.659	17.816	187.428	208.284	16.926	22.173	131.921	190.114	19.535	23.870	24.875	30.128	145.170	27.925	-8191	255	
1867.489	1	1	0	0	0.16699	0.26925	0.22721	0.1362	0.29716	0.15947	0.15724	0.13951	0.10191	0.1152	0.17805	0.026122	0.15273	0.11765	0.38748	0.055732	-0.68958	-0.21667	-0.59792	-1.0812	-0.325	-1.0708	-0.5875	-0.23958	-1.2083	-0.34375	-0.6125	-0.9	-0.17917	-0.95208	-0.76667	-0.31667	275.996	199.987	127.790	88.358	81.309	76.960	256.775	306.577	23.936	211.481	101.971	159.487	120.888	361.304	104.155	172.832	0.00028123	0.00011549	0.0001805	556.84	4.5158e-07	1.5568e-06	1035.1	142.02	4.0764e-06	8.592e-06	289.12	107.52	39.038	17.365	4.833e-06	40.951	0.00017691	0.00017636	4.9109e-05	462.57	1.9594e-06	1.9473e-06	850.19	118.86	1.9695e-06	1.9748e-06	233.05	88.377	33.191	14.604	1.9608e-06	33.445	150.161	362.601	341.692	18.009	150.653	267.508	16.210	21.411	173.075	169.387	18.974	23.938	26.142	30.395	156.472	28.205	-8191	255	
1867.585	1	1	0	0	0.25902	0.24248	0.085425	0.22238	0.11977	0.09412	0.10928	0.12916	0.1832	0.14889	0.17341	0.08619	0.38678	0.2264	0.057531	0.40682	-0.5375	-0.275	-0.54583	-1.0917	-0.21458	-0.97292	-0.88333	-0.31875	-1.0104	-0.37917	-0.53333	-1.0688	-0.13958	-0.88125	-0.62708	-0.24375	5.601	337.883	28.080	45.914	278.749	41.146	18.541	78.696	341.812	148.746	290.725	260.422	209.811	19.135	154.118	235.921	9.5405e-05	0.0003297	0.00010721	553.47	7.7205e-07	3.8578e-06	1034.9	144.78	3.1221e-06	1.059e-05	288	107.33	39.427	17.562	5.3399e-06	41.007	0.00018181	0.00017835	4.8826e-05	461.63	1.9637e-06	1.9461e-06	846.4	119.75	1.9374e-06	1.9867e-06	234.62	88.899	33.533	14.724	1.9604e-06	33.622	134.345	83.638	146.664	17.496	78.935	208.909	16.458	21.688	96.588	117.017	19.570	23.420	24.651	30.047	198.638	28.237	-8191	255	
1867.706	1	1	0	0	0.01032	0.2036	0.13066	0.21568	0.16443	0.23255	0.16608	0.18144	0.30904	0.1834	0.20178	0.16206	0.1234	0.20434	0.13359	0.063467	-0.76667	-0.51042	-0.49167	-1.1667	-0.0625	-0.79792	-0.80833	0.025	-1.1021	-0.64792	-0.45417	-1.2437	-0.30833	-0.86042	-1.0542	-0.15208	144.952	110.012	201.104	263.664	359.045	219.874	259.691	291.229	334.046	10.869	306.605	289.778	166.112	337.575	232.002	256.991	0.00011003	0.0004384	6.6735e-05	561.51	3.4758e-06	3.2783e-06	1031.6	146.67	4.3537e-06	1.0856e-05	292.01	109.48	39.705	17.519	3.9776e-06	41.005	0.000182	0.00017722	4.9113e-05	462.38	1.9438e-06	1.9736e-06	848.97	121.1	1.9638e-06	1.9401e-06	235.82	90.065	33.625	14.71	1.9347e-06	33.613	144.554	115.078	75.515	17.636	42.429	142.217	16.563	22.047	212.073	102.177	19.157	23.276	24.936	29.551	123.630	27.814	-8191	255	
1867.778	1	1	0	0	0.084652	0.10021	0.095469	0.1041	0.091838	0.10515	0.21009	0.095362	0.24967	0.24173	0.14134	0.28865	0.15694	0.1337	0.13027	0.06183	-0.80417	-0.70833	-0.34583	-1.1667	-0.53125	-0.7125	-1.0896	0.029167	-0.94583	-0.74167	-0.13958	-1.1833	-0.32083	-0.64375	-1.1104	-0.18333	83.947	181.962	64.641	289.118	241.868	75.550	204.628	71.211	344.460	357.178	63.105	55.829	41.534	291.509	7.064	138.422	0.00013	0.0006589	0.00027226	557.58	4.1619e-07	9.5338e-06	1031.5	145.52	2.5692e-06	2.9724e-06	288.63	108.83	39.622	17.306	1.4732e-06	40.891	0.00018083	0.00018023	4.8947e-05	462.59	1.9694e-06	1.961e-06	848.33	120.57	1.958e-06	1.921e-06	235.99	89.45	33.601	14.593	1.9587e-06	33.435	166.224	81.461	20.265	17.257	57.678	119.432	16.105	20.686	166.425	333.948	19.454	23.748	25.231	29.817	312.784	28.301	-8191	255	
1867.898	1	1	0	0	0.11764	0.14456	0.20004	0.36958	0.052829	0.24618	0.27263	0.051765	0.057515	0.19364	0.11415	0.33981	0.12091	0.090163	0.13238	0.12289	-0.57083	-0.80833	-0.22292	-0.9625	-0.26458	-0.27083	-1.0979	0.0083333	-0.74583	-0.74583	-0.058333	-1.0063	-0.48958	-0.42708	-0.99583	-0.27292	182.350	142.134	358.133	32.764	126.898	53.735	338.659	238.433	251.258	278.357	297.690	316.904	314.607	23.077	57.123	317.913	0.00022797	0.00098833	0.00025425	556.13	7.4784e-06	7.3897e-06	1034	143.22	2.2497e-06	5.0386e-06	287.47	109.68	39.668	17.898	3.2546e-06	41.213	0.00018431	0.00017905	4.8736e-05	463.29	2.0034e-06	1.9747e-06	849.31	120.16	1.9806e-06	1.9407e-06	236.35	90.024	33.629	14.902	1.9429e-06	33.802	113.707	108.501	36.152	16.943	103.044	180.871	16.310	20.474	207.253	67.163	18.645	23.023	25.033	29.474	269.811	28.000	-8191	255	
1867.995	1	1	0	0	0.20504	0.075824	0.066161	0.1527	0.091926	0.25823	0.32885	0.24636	0.10141	0.098541	0.14323	0.20915	0.17189	0.36094	0.23596	0.28199	-0.28542	-0.78125	0.054167	-1.0417	-0.36667	-0.3625	-1.0229	-0.23542	-0.59375	-0.72292	-0.18333	-1.0312	-0.68125	-0.34792	-0.99167	-0.26875	54.160	208.826	338.488	253.973	70.879	184.911	283.921	236.790	276.248	223.990	315.157	346.680	232.808	15.686	259.381	258.323	0.00026301	0.00041452	0.00024389	558.75	1.1147e-06	3.619e-06	1034.2	143.96	6.6587e-06	2.8373e-06	291.59	110.2	39.993	18.106	1.2478e-06	42.165	0.00018542	0.00018391	4.9065e-05	464.23	1.9773e-06	1.935e-06	851.24	120.69	1.94e-06	1.9469e-06	237.99	91.147	34.031	15.079	1.9792e-06	34.406	124.393	176.251	120.115	17.245	232.298	221.096	15.768	20.517	79.489	302.551	18.125	23.553	23.315	29.195	240.563	27.281	-8191	255	
1868.091	1	1	0	0	0.1171	0.21728	0.28229	0.19706	0.23119	0.059132	0.24126	0.25074	0.15083	0.17773	0.042982	0.12918	0.31624	0.18138	0.20113	0.079985	-0.40208	-0.89792	-0.0125	-1.0458	-0.76042	-0.16458	-1.2229	-0.35208	-0.5125	-0.96458	0	-0.76042	-0.62083	-0.21042	-0.93542	-0.22917	111.045	348.847	349.347	188.738	9.552	121.967	321.187	246.877	344.367	174.220	167.017	41.657	320.480	206.943	173.321	317.397	0.00013947	0.0007298	0.00010879	560.81	1.5537e-06	1.1457e-07	1032.7	142.42	4.0681e-06	3.1569e-06	291.52	111.78	40.04	17.938	1.3901e-06	42.856	0.00018485	0.00017786	4.8942e-05	463.24	1.9863e-06	1.9435e-06	852.63	120.58	1.9884e-06	1.9689e-06	238.82	91.931	34.007	15.093	1.9606e-06	34.746	137.426	108.519	227.440	16.863	81.141	221.209	16.150	21.168	95.355	28.206	18.504	23.226	24.857	29.410	46.377	27.617	-8191	255	
1868.185	1	1	0	0	0.20296	0.22818	0.25999	0.22624	0.111	0.16944	0.18149	0.07882	0.16667	0.056558	0.27067	0.21501	0.04516	0.23447	0.14525	0.20909	-0.05625	-0.92917	-0.12292	-0.95833	-0.68958	-0.16667	-1.1437	-0.5125	-0.17292	-1.2833	-0.3625	-0.925	-0.9875	-0.10833	-1.0688	-0.72708	22.385	245.411	71.288	175.479	139.540	228.341	203.408	142.816	273.643	105.517	289.267	280.461	147.318	199.602	158.132	30.758	0.00019563	0.00031935	0.00016038	559.35	4.5767e-06	1.6861e-06	1035	143.96	3.269e-06	8.5381e-06	289	109.75	39.78	17.856	7.8667e-06	41.359	0.00018005	0.00017801	5.0016e-05	463.01	1.9438e-06	1.9742e-06	852.69	120.73	1.9398e-06	1.9229e-06	236.36	89.887	33.707	14.925	1.9315e-06	33.791	155.806	346.720	35.673	17.117	138.445	117.980	16.223	21.778	189.017	129.802	18.840	23.443	25.014	29.596	202.830	28.025	-8191	255	
1868.281	1	1	0	0	0.16754	0.27445	0.13337	0.11688	0.11674	0.21881	0.17623	0.37474	0.25459	0.16655	0.13894	0.13842	0.10696	0.15933	0.19152	0.25464	0.12708	-1.0729	-0.15833	-0.77708	-0.76458	-0.28125	-0.98333	-0.58958	-0.21042	-1.3687	-0.37708	-0.5625	-0.91042	-0.060417	-0.94792	-0.7375	202.068	106.191	3.776	57.603	170.992	242.722	303.949	328.198	320.274	170.985	137.522	283.051	33.059	277.887	305.030	72.868	0.00023487	0.00074296	0.00013169	561.65	4.2258e-06	4.8898e-06	1030	143.52	6.3654e-06	4.4814e-06	293.21	109.33	39.664	17.835	1.4101e-06	41.33	0.00017671	0.00017576	4.9078e-05	462.86	1.8721e-06	1.8535e-06	845.86	119.81	1.906e-06	1.8851e-06	237.4	89.487	33.691	14.93	1.9234e-06	33.89	145.022	294.268	89.653	16.960	241.157	62.600	16.669	21.434	138.833	251.611	19.144	23.563	24.402	29.806	17.867	28.033	-8191	255	
1868.377	1	1	0	0	0.22421	0.24394	0.1561	0.075243	0.055039	0.23564	0.29889	0.11425	0.19729	0.28504	0.1235	0.31178	0.30875	0.10268	0.24684	0.16731	0.14375	-1.025	-0.26042	-0.44583	-0.98542	-0.21042	-0.90417	-0.625	-0.04375	-1.0542	-0.375	-0.475	-0.96042	-0.18333	-0.8	-0.90417	280.875	211.716	296.497	252.028	308.025	244.100	302.164	138.903	268.398	135.623	87.038	217.143	341.319	71.538	276.061	74.648	0.00013645	0.00065245	5.3526e-05	559.05	1.2484e-05	3.7181e-06	1031.7	144.05	5.6267e-06	3.3978e-06	292.4	108.78	39.689	17.852	7.4662e-06	41.506	0.00017973	0.00017245	4.7749e-05	461.67	1.8865e-06	1.9411e-06	847.9	120.68	1.9263e-06	1.9058e-06	236.84	89.896	33.552	14.962	1.9655e-06	33.961	147.751	77.291	213.064	17.092	164.371	267.063	16.069	21.060	4.659	111.700	18.780	22.884	24.383	28.847	193.340	27.618	-8191	255	
1868.474	1	1	0	0	0.17481	0.34936	0.089036	0.34566	0.19107	0.22685	0.34044	0.15333	0.033121	0.22572	0.17926	0.12661	0.15208	0.077908	0.15403	0.17701	0.32917	-0.71042	-0.33125	-0.3625	-1.0292	-0.085417	-0.80208	-1.0792	0.014583	-0.84167	-0.61667	-0.225	-1.1833	-0.31458	-0.50417	-1.0417	250.879	207.755	59.338	324.735	228.690	149.367	241.493	204.878	280.090	173.542	20.539	296.647	39.215	311.239	137.789	357.503	0.000168	0.00026861	0.00022815	552.57	5.692e-06	2.3855e-06	1032.1	144.11	4.3266e-06	6.6908e-06	288.63	107.97	38.682	17.917	5.5278e-06	40.802	0.00018039	0.00017616	4.7916e-05	459.13	1.9076e-06	1.8774e-06	848.4	119.75	1.8522e-06	1.8874e-06	235.15	88.914	33.16	14.797	1.8899e-06	33.431	129.541	151.892	18.462	16.687	153.982	80.766	16.181	20.523	100.231	10.589	18.604	23.113	24.228	29.534	132.215	27.945	-8191	255	
1868.570	1	1	0	0	0.076109	0.062433	0.20446	0.16966	0.12578	0.13443	0.15932	0.10294	0.058613	0.018998	0.13204	0.075328	0.26673	0.11887	0.058396	0.47323	0.40417	-0.94375	-0.60625	-0.027083	-1.1208	-0.26667	-0.95417	-1.1208	-0.1125	-1.0812	-0.72708	-0.33542	-1.1458	-0.3375	-0.46875	-1.1708	189.226	332.029	155.127	71.393	362.753	151.603	275.161	49.848	7.619	262.890	319.992	14.919	24.736	146.737	102.463	306.647	0.00019694	0.00024737	0.00026267	553.13	6.0712e-06	2.3156e-06	1027.9	143.31	3.6457e-06	3.6441e-06	284.52	105.01	38.688	17.029	2.1473e-06	39.277	0.00017188	0.00017036	4.7646e-05	459.56	1.881e-06	1.813e-06	845.29	118.08	1.854e-06	1.7446e-06	230.89	86.498	32.498	14.355	1.8087e-06	32.175	135.564	79.725	91.044	16.993	98.263	169.639	16.480	21.116	162.104	191.292	18.407	23.450	23.933	29.204	271.298	27.664	-8191	255	
1868.666	1	1	0	0	0.12824	0.28795	0.13482	0.028134	0.16437	0.095873	0.15477	0.10981	0.13956	0.46853	0.34073	0.27815	0.1192	0.45179	0.06386	0.18353	-0.0041667	-0.91667	-0.8125	-0.16667	-0.90625	-0.45625	-0.45208	-1.1125	-0.26042	-0.74583	-0.86667	-0.23542	-0.99375	-0.6	-0.2875	-1.1229	205.222	244.816	298.208	326.863	19.177	134.713	227.570	61.294	285.323	171.986	108.997	279.631	109.941	100.238	176.594	275.967	0.00017934	0.00077445	0.00020522	554.25	1.5929e-06	1.1012e-06	1030.2	142	8.3459e-06	3.8539e-06	283.34	107.53	39.194	17.478	5.0394e-06	40.055	0.00017218	0.00016438	4.5076e-05	457.29	1.8001e-06	1.8178e-06	844.75	118.07	1.8544e-06	1.832e-06	231.85	88.137	33.13	14.664	1.865e-06	32.906	152.538	12.566	138.164	17.437	142.563	25.708	15.943	20.819	134.036	117.990	18.207	23.424	25.011	29.250	117.352	28.523	-8191	255	
1868.786	1	1	0	0	0.15265	0.086809	0.10916	0.29268	0.20741	0.19381	0.064399	0.10287	0.14885	0.087809	0.17547	0.169	0.21658	0.37166	0.12454	0.07532	0.05625	-0.58958	-0.81458	-0.34792	-0.93958	-0.61875	-0.41458	-1.1562	-0.32917	-0.57708	-0.90208	-0.28125	-0.97292	-0.56667	-0.18125	-0.80208	153.700	205.041	154.569	336.676	158.159	292.804	293.189	219.435	33.226	317.557	314.062	256.116	230.077	320.324	208.558	283.228	0.00014539	0.00014271	0.00014602	546.58	4.6965e-06	5.4794e-06	1026.3	141.75	3.6888e-06	8.4102e-06	289.19	107.7	39.06	17.636	6.5156e-07	40.903	0.00017286	0.0001697	4.6962e-05	454.57	1.8501e-06	1.7931e-06	843.2	118.83	1.8999e-06	1.8255e-06	235.59	88.678	33.244	14.709	1.8975e-06	33.331	106.079	318.127	58.723	17.025	139.819	271.336	16.077	21.478	319.531	149.135	18.799	23.476	24.022	29.169	214.004	28.437	-8191	255	
1868.883	1	1	0	0	0.1303	0.20801	0.36983	0.17873	0.19795	0.01188	0.22106	0.41096	0.23789	0.12311	0.058087	0.15112	0.18855	0.18576	0.18667	0.13474	-0.010417	-0.42917	-0.93125	-0.12083	-0.76667	-0.51875	-0.19167	-0.95	-0.25833	-0.28125	-1.0833	-0.10417	-0.6	-0.9	-0.21667	-1.0688	167.792	184.086	108.929	333.836	165.261	275.582	292.027	273.198	70.769	39.549	78.621	228.539	361.349	29.230	90.194	256.089	0.00022767	0.00080973	0.00012833	552.59	2.994e-06	2.1886e-06	1029.9	143.98	6.358e-06	1.5765e-06	292.68	107.74	39.67	17.89	4.9869e-06	40.889	0.00017437	0.00016963	4.6952e-05	456.84	1.9021e-06	1.8766e-06	846.35	119.79	1.8523e-06	1.8917e-06	236.93	89.15	33.345	14.831	1.9016e-06	33.486	148.958	119.443	82.474	16.499	130.883	158.557	15.863	20.784	194.558	76.784	18.639	23.160	24.690	29.256	167.739	27.741	-8191	255	
1868.979	1	1	0	0	0.13342	0.27639	0.22549	0.24084	0.25545	0.21064	0.071266	0.10723	0.088842	0.24227	0.088917	0.16898	0.2377	0.15974	0.11584	0.28961	0.064583	-0.35417	-1.0938	-0.19167	-0.73542	-0.79583	-0.15	-1.1042	-0.38125	-0.46667	-0.97083	-0.31667	-0.56667	-0.69792	-0.14792	-0.88542	122.012	296.506	315.833	49.122	130.691	11.976	298.734	19.843	295.334	233.061	20.780	65.309	313.756	59.296	345.201	293.270	0.00026028	0.00096079	0.00012936	552.65	1.8887e-06	8.0074e-06	1026.6	144.59	7.7478e-06	5.6948e-06	291.02	107.02	39.352	17.354	7.6689e-06	40.223	0.00017466	0.0001738	4.6959e-05	458.03	1.877e-06	1.8699e-06	845.74	119.94	1.887e-06	1.8831e-06	235.85	88.083	33.131	14.599	1.8654e-06	32.829	119.923	133.756	330.433	17.300	183.448	89.377	16.147	21.099	136.783	91.987	17.969	23.439	24.133	28.814	135.325	27.318	-8191	255	
1869.075	1	1	0	0	0.080743	0.12753	0.23458	0.059888	0.04105	0.047786	0.20892	0.051542	0.22468	0.2932	0.16736	0.20038	0.1865	0.23148	0.13107	0.12403	-0.022917	-0.225	-1.1104	-0.29375	-0.61667	-0.90417	-0.18958	-1.0104	-0.51042	-0.225	-1.1958	-0.4125	-0.42083	-1.1208	-0.22292	-0.93333	148.408	178.927	272.882	6.929	357.261	142.358	356.793	87.543	234.395	128.757	305.725	315.418	275.316	230.492	202.432	233.414	0.00018878	0.0006529	0.00010916	553.71	2.8743e-06	3.0299e-06	1023.2	142.46	8.951e-06	1.2283e-06	290.74	106.78	39.84	17.397	4.2351e-06	40.062	0.00017078	0.00016953	4.5541e-05	457.92	1.8716e-06	1.8069e-06	841.68	118.58	1.8412e-06	1.8606e-06	234.48	87.991	33.193	14.505	1.8501e-06	32.743	119.280	95.449	25.911	17.039	45.574	64.512	16.077	20.887	120.780	131.918	18.747	23.109	23.537	30.033	143.653	27.997	-8191	255	
1869.171	1	1	0	0	0.060618	0.18498	0.11615	0.13156	0.096081	0.32833	0.37434	0.15291	0.17267	0.13144	0.3147	0.18239	0.24206	0.20031	0.13458	0.32103	-0.35208	-0.28333	-1.1063	-0.46667	-0.35625	-1.0354	-0.19792	-0.83333	-0.74583	-0.19583	-1.0938	-0.43333	-0.26458	-0.9125	-0.11042	-0.73125	360.823	240.594	236.718	42.522	127.743	361.576	13.807	95.025	96.296	97.429	19.997	82.976	42.868	186.233	181.297	300.013	0.00021408	6.6352e-05	4.7188e-05	544.92	6.0808e-06	5.8638e-06	1025.8	142.38	9.045e-06	2.288e-06	287.11	107.16	38.747	17.444	2.1475e-07	40.81	0.00017076	0.00017078	4.7523e-05	454.57	1.8965e-06	1.8248e-06	845.21	118.66	1.8315e-06	1.877e-06	234.35	88.241	32.893	14.556	1.925e-06	32.928	136.601	7.267	250.994	16.994	168.649	155.954	15.954	20.675	154.201	340.597	18.415	23.271	24.605	29.578	274.874	28.183	-8191	255	
1869.267	1	1	0	0	0.079621	0.28589	0.24282	0.094909	0.16786	0.22432	0.2764	0.28765	0.30291	0.072186	0.37822	0.074906	0.27857	0.19953	0.080844	0.25425	-0.4875	-0.11458	-0.94792	-0.46875	-0.50417	-1.1354	-0.30417	-0.4625	-0.89167	-0.15208	-0.92083	-0.62708	-0.25208	-1.0063	-0.052083	-0.52708	162.431	188.138	79.178	76.857	140.553	13.549	290.278	308.419	51.229	161.702	228.929	220.985	210.404	88.033	32.100	214.772	0.00021763	0.00054551	3.7353e-05	553.62	1.5782e-06	1.826e-06	1034.1	143.63	3.9041e-06	5.9395e-06	292.03	108.74	39.438	17.402	7.9566e-06	40.753	0.00017	0.00017193	4.7959e-05	456.4	1.908e-06	1.8498e-06	847.01	119.53	1.8881e-06	1.8962e-06	236.63	89.316	33.227	14.631	1.8778e-06	33.264	135.432	44.282	70.689	17.392	136.731	208.014	16.180	20.856	177.739	145.475	18.968	22.977	23.979	29.020	96.569	28.194	-8191	255	
1869.386	1	1	0	0	0.18262	0.13506	0.17965	0.19461	0.10147	0.30785	0.28483	0.17792	0.033098	0.11162	0.24955	0.076041	0.053486	0.31193	0.15135	0.154	-0.59583	-0.11667	-0.84583	-0.69583	-0.28333	-0.975	-0.40833	-0.29375	-1.025	-0.27708	-0.92708	-0.72917	-0.15208	-1.0521	-0.4625	-0.525	229.940	150.678	37.464	4.932	284.071	204.673	356.931	277.584	183.616	243.385	294.645	301.370	76.274	303.563	238.774	177.769	0.00020315	0.00053313	0.00020844	546.66	4.3594e-06	5.5411e-06	1030.8	142.91	3.6658e-06	4.5524e-06	286.89	108.3	38.83	17.057	5.2305e-06	40.482	0.00016859	0.00017024	4.7498e-05	455.45	1.8292e-06	1.9052e-06	848.99	119	1.8908e-06	1.846e-06	232.09	88.643	33.095	14.39	1.9197e-06	32.999	140.871	156.324	125.273	17.606	100.759	210.144	16.254	20.406	46.257	147.174	19.462	22.851	24.595	29.476	200.044	27.813	-8191	255	
1869.482	1	1	0	0	0.13044	0.2715	0.19013	0.26005	0.15449	0.18889	0.29799	0.17546	0.17757	0.059931	0.25088	0.072721	0.05108	0.14729	0.26423	0.10735	-0.50417	-0.20833	-0.75417	-0.96458	-0.32292	-1.1854	-0.45833	-0.46458	-1.0167	-0.14167	-0.72083	-0.90625	-0.19375	-1.0396	-0.38125	-0.25625	73.348	260.828	304.008	325.345	132.968	211.316	284.276	199.118	320.379	31.386	18.811	206.175	31.260	62.360	324.195	329.289	0.00019871	0.00070727	8.5002e-05	561.63	2.4466e-06	6.1939e-06	1031.9	140.88	1.6854e-06	6.5373e-06	277.99	106.77	39.021	17.039	5.882e-06	40.318	0.00017615	0.00017368	4.8263e-05	466.52	1.9109e-06	1.8408e-06	850.37	118.24	1.9569e-06	1.9504e-06	226.71	87.94	33.028	14.304	1.8806e-06	33.053	130.959	56.062	85.009	16.769	243.618	112.192	15.835	21.004	60.222	47.258	18.967	23.422	23.695	29.053	108.459	28.317	-8191	255	
1869.578	1	1	0	0	0.17654	0.11109	0.11332	0.17854	0.26169	0.24245	0.22801	0.20369	0.25088	0.096554	0.27622	0.10087	0.15535	0.18482	0.18506	0.31916	-0.63125	-0.20417	-0.56042	-0.94167	-0.0083333	-0.74375	-0.73125	-0.44792	-0.99375	-0.29792	-0.5625	-0.92708	-0.1625	-0.88333	-0.71458	-0.18333	141.395	280.448	183.626	307.343	95.647	49.458	311.516	43.204	18.026	181.078	277.638	362.113	208.331	257.046	82.826	305.506	0.00024018	0.00015953	5.433e-05	562.76	5.5922e-06	5.786e-06	1034.2	140.38	5.6823e-06	6.7142e-06	278.61	107.94	38.808	17.1	5.8645e-07	40.835	0.00018266	0.00017649	4.8989e-05	465.91	1.9191e-06	1.9097e-06	849.59	117.93	1.9325e-06	1.9279e-06	228.12	88.354	33.208	14.412	1.9353e-06	33.37	142.950	354.972	326.645	16.617	174.358	141.962	16.123	21.310	189.619	340.204	19.516	23.238	24.704	29.284	244.616	28.389	-8191	255	
1869.675	1	1	0	0	0.19778	0.096237	0.025209	0.27308	0.24006	0.33974	0.21158	0.085362	0.22621	0.13269	0.14461	0.26593	0.11037	0.3685	0.13287	0.26306	-0.71042	-0.57083	-0.46875	-1.0521	-0.089583	-0.95417	-0.86875	-0.20208	-1.075	-0.48958	-0.44583	-1.35	-0.15	-0.8	-0.93542	-0.33542	235.012	334.201	67.505	106.608	21.875	9.469	4.154	101.565	167.162	347.934	356.055	28.679	310.390	128.293	182.117	7.613	0.00016423	0.00042146	8.6661e-05	556.79	1.3175e-06	2.5043e-06	1031.2	142.2	4.6707e-06	7.9719e-06	285.68	110.45	40.004	17.617	1.0416e-05	41.747	0.00017982	0.00017641	4.9219e-05	462.74	1.9436e-06	1.9322e-06	846.39	118.97	1.9904e-06	1.9447e-06	232.54	90.638	33.617	14.832	1.971e-06	34.249	141.818	35.281	16.260	16.712	232.150	184.364	16.167	21.268	113.222	169.804	18.474	23.256	25.049	28.879	156.176	28.148	-8191	255	
#DATA ENDS
