BOXY.EXE: ISS Imagent and Oximeter Data Acquisition Program Version 0.80
Ascii Record File

#ACQ INFORMATION
2  Detector Channels 
16  External MUX Channels 
1  Auxiliary Channels 
5000  Waveform (CCF) Frequency (Hz)
1  Waveforms Skipped 
30  Waveforms Averaged 
1  Cycles Averaged 
16  Acquisitions per Waveform 
10.0806  Updata Rate (Hz) 

#FILE INFORMATION
TRUE -- External MUX Channel results are PARSED.
FALSE -- AC DC and Phase are NOT grouped.
TRUE -- Companion Program Settings File CREATED.
FALSE -- AC data not excluded
FALSE -- DC data not excluded
FALSE -- Phase data not excluded
FALSE -- Auxillary Chn. data not excluded
Tab delimiters

#CALIBRATION STATE
TRUE -- Waveform Calibration Values APPLIED.


#AUX CALIBRATION VALUES
Val Type	aux-1	

Term	1.0000e+00	
Factor	0.0000e+00	


#WF CALIBRATION VALUES
A = Detector Channel
Val Type	A-AC1	A-AC2	A-AC3	A-AC4	A-AC5	A-AC6	A-AC7	A-AC8	A-AC9	A-AC10	A-AC11	A-AC12	A-AC13	A-AC14	A-AC15	A-AC16	A-DC1	A-DC2	A-DC3	A-DC4	A-DC5	A-DC6	A-DC7	A-DC8	A-DC9	A-DC10	A-DC11	A-DC12	A-DC13	A-DC14	A-DC15	A-DC16	A-Ph1	A-Ph2	A-Ph3	A-Ph4	A-Ph5	A-Ph6	A-Ph7	A-Ph8	A-Ph9	A-Ph10	A-Ph11	A-Ph12	A-Ph13	A-Ph14	A-Ph15	A-Ph16	

Term	0.00000e+00	0.00000e+00	0.00000e+00	0.00000e+00	0.00000e+00	0.00000e+00	0.00000e+00	0.00000e+00	0.00000e+00	0.00000e+00	0.00000e+00	0.00000e+00	0.00000e+00	0.00000e+00	0.00000e+00	0.00000e+00	0.00000e+00	0.00000e+00	0.00000e+00	0.00000e+00	0.00000e+00	0.00000e+00	0.00000e+00	0.00000e+00	0.00000e+00	0.00000e+00	0.00000e+00	0.00000e+00	0.00000e+00	0.00000e+00	0.00000e+00	0.00000e+00	0.00000e+00	0.00000e+00	0.00000e+00	0.00000e+00	0.00000e+00	0.00000e+00	0.00000e+00	0.00000e+00	0.00000e+00	0.00000e+00	0.00000e+00	0.00000e+00	0.00000e+00	0.00000e+00	0.00000e+00	0.00000e+00	
Factor	1.00000e+00	1.00000e+00	1.00000e+00	1.00000e+00	1.00000e+00	1.00000e+00	1.00000e+00	1.00000e+00	1.00000e+00	1.00000e+00	1.00000e+00	1.00000e+00	1.00000e+00	1.00000e+00	1.00000e+00	1.00000e+00	1.00000e+00	1.00000e+00	1.00000e+00	1.00000e+00	1.00000e+00	1.00000e+00	1.00000e+00	1.00000e+00	1.00000e+00	1.00000e+00	1.00000e+00	1.00000e+00	1.00000e+00	1.00000e+00	1.00000e+00	1.00000e+00	X	X	X	X	X	X	X	X	X	X	X	X	X	X	X	X	

B = Detector Channel
Val Type	B-AC1	B-AC2	B-AC3	B-AC4	B-AC5	B-AC6	B-AC7	B-AC8	B-AC9	B-AC10	B-AC11	B-AC12	B-AC13	B-AC14	B-AC15	B-AC16	B-DC1	B-DC2	B-DC3	B-DC4	B-DC5	B-DC6	B-DC7	B-DC8	B-DC9	B-DC10	B-DC11	B-DC12	B-DC13	B-DC14	B-DC15	B-DC16	B-Ph1	B-Ph2	B-Ph3	B-Ph4	B-Ph5	B-Ph6	B-Ph7	B-Ph8	B-Ph9	B-Ph10	B-Ph11	B-Ph12	B-Ph13	B-Ph14	B-Ph15	B-Ph16	

Term	0.00000e+00	0.00000e+00	0.00000e+00	0.00000e+00	0.00000e+00	0.00000e+00	0.00000e+00	0.00000e+00	0.00000e+00	0.00000e+00	0.00000e+00	0.00000e+00	0.00000e+00	0.00000e+00	0.00000e+00	0.00000e+00	0.00000e+00	0.00000e+00	0.00000e+00	0.00000e+00	0.00000e+00	0.00000e+00	0.00000e+00	0.00000e+00	0.00000e+00	0.00000e+00	0.00000e+00	0.00000e+00	0.00000e+00	0.00000e+00	0.00000e+00	0.00000e+00	-1.31583e+02	-1.21578e+02	-1.40012e+02	-1.81298e+02	-8.87385e+01	-6.29981e+01	-1.57795e+02	-1.62015e+02	-6.94921e+01	-9.60310e+01	-1.75953e+02	-1.70521e+02	-1.80371e+02	-1.76072e+02	-6.81803e+01	-1.48893e+02	
Factor	1.93261e-05	1.42640e-04	3.75110e-05	1.68919e-01	1.12948e-06	1.23653e-06	1.80120e-01	7.03469e-02	1.11070e-06	1.40164e-06	1.16901e-01	3.27342e-02	2.64059e-02	1.04235e-02	1.14977e-06	1.44954e-02	1.13826e-06	1.18118e-06	3.28429e-07	8.21832e-02	1.29226e-08	1.29492e-08	8.20368e-02	3.39068e-02	1.29380e-08	1.29875e-08	5.34765e-02	1.52769e-02	1.27878e-02	5.00872e-03	1.30016e-08	6.72239e-03	X	X	X	X	X	X	X	X	X	X	X	X	X	X	X	X	



#DISTANCE SETTINGS
A = Detector Channel
A-1	A-2	A-3	A-4	A-5	A-6	A-7	A-8	A-9	A-10	A-11	A-12	A-13	A-14	A-15	A-16	

2.5000e+00	3.0000e+00	2.5000e+00	3.0000e+00	2.0000e+00	3.0000e+00	1.5000e+00	3.0000e+00	3.0000e+00	3.0000e+00	3.0000e+00	3.0000e+00	3.0000e+00	3.0000e+00	1.5000e+00	3.0000e+00	

B = Detector Channel
B-1	B-2	B-3	B-4	B-5	B-6	B-7	B-8	B-9	B-10	B-11	B-12	B-13	B-14	B-15	B-16	

1.0000e+01	1.0000e+01	1.0000e+01	1.4400e+00	1.0000e+01	1.0000e+01	1.5100e+00	1.9400e+00	1.0000e+01	1.0000e+01	1.9900e+00	2.4900e+00	2.4100e+00	2.9000e+00	1.0000e+01	2.9800e+00	




#DATA BEGINS
time	group	step	mark	flag	A-AC1	A-AC2	A-AC3	A-AC4	A-AC5	A-AC6	A-AC7	A-AC8	A-AC9	A-AC10	A-AC11	A-AC12	A-AC13	A-AC14	A-AC15	A-AC16	A-DC1	A-DC2	A-DC3	A-DC4	A-DC5	A-DC6	A-DC7	A-DC8	A-DC9	A-DC10	A-DC11	A-DC12	A-DC13	A-DC14	A-DC15	A-DC16	A-Ph1	A-Ph2	A-Ph3	A-Ph4	A-Ph5	A-Ph6	A-Ph7	A-Ph8	A-Ph9	A-Ph10	A-Ph11	A-Ph12	A-Ph13	A-Ph14	A-Ph15	A-Ph16	B-AC1	B-AC2	B-AC3	B-AC4	B-AC5	B-AC6	B-AC7	B-AC8	B-AC9	B-AC10	B-AC11	B-AC12	B-AC13	B-AC14	B-AC15	B-AC16	B-DC1	B-DC2	B-DC3	B-DC4	B-DC5	B-DC6	B-DC7	B-DC8	B-DC9	B-DC10	B-DC11	B-DC12	B-DC13	B-DC14	B-DC15	B-DC16	B-Ph1	B-Ph2	B-Ph3	B-Ph4	B-Ph5	B-Ph6	B-Ph7	B-Ph8	B-Ph9	B-Ph10	B-Ph11	B-Ph12	B-Ph13	B-Ph14	B-Ph15	B-Ph16	aux-1	digaux	

1622.490	1	1	0	768	0.094777	0.071998	0.088178	0.032945	0.077842	0.2062	0.30443	0.19551	0.075249	0.12975	0.053356	0.40288	0.088453	0.08235	0.30134	0.16914	-0.79583	-0.2375	-0.74583	-1.0375	-0.19167	-1.1208	-0.80417	-0.49792	-1.0938	-0.47083	-0.72292	-1.1479	-0.32083	-1.025	-0.61458	-0.44792	206.743	-19.307	66.886	37.383	97.182	221.377	233.961	196.425	83.675	255.666	234.900	208.849	264.472	-69.789	166.493	245.700	0.00021439	0.0024598	0.00014515	1148.3	1.6945e-05	8.2732e-06	1497.4	352.19	8.4893e-06	2.5073e-05	515	204.32	126.63	60.388	1.4779e-05	105.18	0.0026808	0.002772	0.00077708	1123.9	3.0197e-05	3.0403e-05	1413.6	363.18	3.0243e-05	3.0628e-05	532.06	199.98	131.6	60.49	3.0456e-05	100.22	247.936	-72.256	-70.766	-82.634	-47.137	-29.836	-82.782	-76.927	-10.005	-14.806	-78.117	-74.540	-72.243	-67.629	74.646	-70.360	-8191	255	
1622.586	1	1	0	0	0.080863	0.16223	0.15796	0.1882	0.13327	0.068473	0.15694	0.088776	0.10248	0.32985	0.32052	0.13955	0.24841	0.19726	0.18654	0.47895	-0.72917	-0.43333	-0.61875	-1.2417	-0.21667	-0.90625	-1.1729	-0.30833	-1.1292	-0.47292	-0.725	-1.2167	-0.34792	-0.82083	-1.0104	-0.40625	82.835	156.075	104.158	-65.690	84.787	221.999	241.064	-38.726	-35.711	-86.850	145.258	217.990	174.346	192.438	-75.707	214.143	0.00015802	0.00045787	0.00059583	1141.2	9.5393e-06	1.802e-05	1496.4	350.97	2.4407e-05	1.285e-05	509.91	204.53	125.63	61.061	1.078e-05	106.44	0.0026887	0.0027925	0.00077161	1119.8	3.0258e-05	3.0563e-05	1416.2	361.97	3.0401e-05	3.0686e-05	532.15	200.4	131.12	60.752	3.0689e-05	100.38	-61.778	199.499	118.071	-81.983	9.497	6.578	-82.941	-77.524	55.562	-26.652	-77.982	-73.876	-72.013	-67.579	15.564	-70.161	-8191	255	
1622.682	1	1	0	0	0.12146	0.027943	0.045513	0.328	0.13863	0.060479	0.17825	0.040883	0.23735	0.23822	0.13495	0.12987	0.12132	0.29944	0.16916	0.30939	-0.62708	-0.52292	-0.38542	-1.2437	-0.28542	-0.90208	-1.1917	-0.27708	-0.96458	-0.72708	-0.33958	-1.2896	-0.39375	-0.85417	-1.1229	-0.20625	-86.030	249.569	29.168	188.265	143.934	-28.436	-53.528	157.337	263.496	-72.804	-11.205	176.183	-58.181	250.404	172.055	157.269	0.00028183	0.0034415	0.00074508	1145.2	1.0264e-05	1.3983e-05	1490.8	352.78	1.861e-05	1.6177e-05	516.06	204.39	124.55	60.486	1.5499e-05	104.8	0.002682	0.0027908	0.00077494	1120.5	3.0298e-05	3.054e-05	1412.2	362.82	3.063e-05	3.0609e-05	532.29	199.69	131.15	60.477	3.04e-05	99.683	193.576	-27.814	251.560	-82.399	133.680	98.173	-82.890	-77.275	144.129	88.612	-78.526	-74.546	-72.399	-67.272	56.054	-70.514	-8191	255	
1622.778	1	1	0	0	0.29486	0.07597	0.25845	0.22369	0.1505	0.1972	0.28884	0.15758	0.3178	0.1477	0.12971	0.25572	0.38189	0.15316	0.2658	0.38513	-0.80208	-0.58542	-0.2375	-1.3896	-0.35417	-0.60417	-1.1812	-0.26875	-0.925	-0.80833	-0.3875	-1.3125	-0.48125	-0.73958	-1.1333	-0.62083	-25.961	147.204	68.243	195.855	146.517	36.879	95.101	84.837	84.524	-44.033	154.771	-82.773	181.248	243.838	-0.360	197.466	0.00032476	0.0016341	0.00041597	1143.4	2.071e-05	1.0554e-05	1490.2	350.28	2.8413e-05	9.634e-06	514.46	202.78	125.15	60.995	1.5568e-05	104.86	0.0026769	0.0027914	0.00076815	1116.6	3.0384e-05	3.0523e-05	1402.9	360.48	3.0432e-05	3.0465e-05	528.75	199.28	131.07	60.717	3.0265e-05	99.697	216.262	-64.055	51.311	-82.684	66.159	92.599	-82.576	-76.937	75.954	-38.945	-78.576	-74.486	-72.282	-67.834	154.892	-70.819	-8191	255	
1622.874	1	1	0	0	0.1023	0.053505	0.10357	0.20814	0.015993	0.066477	0.13993	0.10931	0.22621	0.05911	0.061237	0.34069	0.20794	0.26617	0.16634	0.085262	-0.47292	-0.93958	-0.38542	-1.3625	-0.48333	-0.63542	-1.4271	-0.26042	-0.80417	-0.98958	-0.28125	-1.0917	-0.66042	-0.37083	-1.3167	-0.48958	106.592	260.136	164.977	106.743	115.550	121.926	214.477	215.416	170.925	-51.352	252.278	230.461	-52.950	254.789	191.330	241.426	0.00019756	0.00072592	0.00048696	1137.7	1.0114e-05	1.8102e-05	1493	351.71	1.1262e-05	5.5303e-06	515.91	203.27	125.09	60.922	1.4655e-05	105.73	0.0027045	0.0027733	0.00077348	1112.8	3.0241e-05	3.0646e-05	1404.5	361.5	3.0493e-05	3.0428e-05	531.19	200.3	130.75	60.663	3.0257e-05	100.39	201.577	108.387	-10.629	-81.983	14.581	120.599	-82.857	-77.276	-3.593	225.839	-78.301	-74.185	-72.452	-68.043	36.514	-70.644	-8191	255	
1622.971	1	1	0	0	0.24107	0.17256	0.23819	0.19763	0.24894	0.26697	0.058405	0.14792	0.091751	0.092005	0.32458	0.14644	0.1572	0.15603	0.086201	0.15299	-0.46875	-0.9	-0.34375	-1.1979	-0.7125	-0.4875	-1.5229	-0.53542	-0.83125	-1.1021	-0.23333	-1.2396	-0.8125	-0.67917	-1.2333	-0.74583	113.413	190.039	-38.648	-43.544	213.977	211.177	179.661	-38.869	75.248	-26.833	-93.579	256.630	220.346	67.561	-61.759	188.913	0.00047	0.0025526	0.00016127	1128.6	2.326e-05	1.5828e-05	1488.9	351.19	1.6025e-05	1.7256e-05	518.79	206.34	125.45	61.153	2.8384e-05	107.37	0.0027019	0.0027523	0.00076763	1107.4	3.0373e-05	3.0375e-05	1402.2	360.91	3.0431e-05	3.0441e-05	532.82	202.26	131.24	60.904	3.0302e-05	101.36	181.212	41.558	171.673	-82.171	216.176	104.906	-83.062	-76.871	40.451	20.047	-78.360	-74.102	-72.251	-67.649	34.478	-70.590	-8191	255	
1623.091	1	1	0	0	0.22774	0.13255	0.10954	0.24884	0.20542	0.29802	0.31788	0.23767	0.090133	0.11032	0.076095	0.083918	0.074253	0.20764	0.15739	0.15828	-0.33333	-1.1	-0.19167	-1.2938	-0.8875	-0.37917	-1.2833	-0.60625	-0.65417	-1.0292	-0.37917	-1.0187	-1	-0.41042	-1.2417	-0.77292	47.094	125.935	216.751	171.461	123.385	233.685	-60.446	190.827	-90.353	-83.695	74.543	218.447	11.759	215.241	255.296	123.962	0.00036842	0.0026348	0.00046786	1121.8	1.4138e-05	1.5053e-05	1497.7	352.03	1.5148e-05	1.1948e-05	513	204.99	125.9	61.876	2.2229e-05	107.1	0.0027093	0.0027696	0.00077262	1106.7	3.037e-05	3.0326e-05	1408.5	362.45	3.0308e-05	3.0416e-05	532.34	202.23	131.8	61.17	3.0384e-05	101.68	-83.987	30.024	261.395	-82.182	13.892	-47.517	-82.574	-77.455	-0.781	8.027	-78.037	-73.938	-72.207	-67.742	-51.726	-70.744	-8191	255	
1623.187	1	1	0	0	0.22898	0.13793	0.16739	0.27303	0.026053	0.01904	0.2418	0.09736	0.29748	0.14029	0.13994	0.24815	0.29239	0.20063	0.13784	0.18933	0.072917	-1.0917	-0.31458	-1.15	-0.93958	-0.4625	-1.3687	-0.71667	-0.63542	-1.3563	-0.55833	-1.0146	-1.2958	-0.57708	-1.2167	-0.72292	-41.291	-85.167	95.132	209.137	-40.682	225.319	226.091	143.809	166.116	-47.345	194.215	262.593	-48.239	98.822	-49.883	249.530	0.00070869	0.0033133	0.00044944	1127.6	5.2999e-06	1.1604e-05	1487.5	350.93	9.5097e-06	1.7421e-05	519.5	205.4	127.13	61.667	4.5778e-06	106.84	0.0026924	0.0027624	0.00077203	1110.9	3.0313e-05	3.0324e-05	1405.4	362.2	3.0185e-05	3.0498e-05	534.82	201.92	132.21	61.101	3.0433e-05	101.15	177.335	99.925	47.470	-82.107	206.138	109.851	-82.401	-76.897	63.044	38.294	-77.731	-74.410	-72.327	-67.279	34.132	-70.576	-8191	255	
1623.283	1	1	0	0	0.15224	0.24964	0.10216	0.15587	0.042492	0.22437	0.43517	0.0041463	0.19304	0.29794	0.060568	0.20379	0.27599	0.11591	0.20639	0.13036	-0.0125	-1.1604	-0.42708	-0.81042	-1.2083	-0.12708	-1.4417	-0.88958	-0.4875	-1.3208	-0.57083	-0.875	-1.3396	-0.46875	-1.2208	-0.91667	-12.550	176.114	182.510	155.667	-87.603	172.022	165.503	-93.629	241.020	5.045	112.193	202.120	228.442	259.479	70.977	202.540	0.00042293	0.0036675	0.00072608	1137.9	1.0017e-05	8.7882e-06	1501.8	354.18	2.5434e-05	1.3101e-05	518.57	206.88	127.28	61.801	1.6475e-05	107.57	0.0026784	0.002764	0.00077303	1115.4	3.0354e-05	3.0434e-05	1412	363.81	3.043e-05	3.0735e-05	535.56	202.79	132.35	61.338	3.0804e-05	101.32	154.392	-32.487	83.882	-81.929	31.428	213.940	-82.347	-76.288	-45.422	80.438	-77.583	-73.512	-72.129	-67.284	194.535	-70.165	-8191	255	
1623.380	1	1	0	0	0.12247	0.2064	0.10355	0.09403	0.1414	0.19073	0.19271	0.41	0.24879	0.13858	0.17543	0.16984	0.1257	0.2186	0.35575	0.14298	-0.20833	-1.3375	-0.6875	-0.85417	-1.3521	-0.32917	-1.2125	-1.1833	-0.48542	-1.2667	-0.63958	-0.62708	-1.2646	-0.625	-1.0521	-0.97083	-61.105	-53.851	-50.789	-48.915	-78.381	79.398	186.526	181.542	-46.994	247.017	261.676	-67.828	264.040	-23.702	241.632	242.582	0.00011222	0.0035057	0.00067475	1147.6	1.6563e-05	1.5165e-05	1503.7	355.88	7.5253e-06	2.1788e-05	515.34	205.17	127.43	62.072	1.0544e-05	106.87	0.0026771	0.0027871	0.0007814	1123.5	3.0411e-05	3.0408e-05	1415.6	365.66	3.0506e-05	3.0767e-05	535.22	202.06	132.68	61.64	3.08e-05	101.31	92.209	-47.868	41.658	-81.255	126.281	58.987	-81.758	-76.098	106.389	-48.039	-77.725	-73.416	-71.460	-67.208	32.943	-70.182	-8191	255	
1623.474	1	1	0	0	0.40852	0.19366	0.21314	0.3122	0.12197	0.2434	0.40126	0.048809	0.13491	0.081553	0.23756	0.090553	0.14071	0.2312	0.26355	0.28327	0.079167	-1.1604	-0.53542	-0.51458	-1.25	-0.17083	-1.0458	-1.1021	-0.40625	-1.3438	-0.58125	-0.65208	-1.3771	-0.43958	-0.74167	-1.2437	164.275	25.643	252.494	245.977	82.642	196.604	196.841	53.447	-31.305	-24.834	231.917	182.921	177.610	-49.470	159.475	167.313	0.00059154	0.00078685	0.00074313	1149.2	5.2568e-06	1.275e-05	1509.5	358.11	2.7796e-05	1.6784e-05	515.1	205.47	127.82	62.296	1.2441e-05	106.34	0.0027031	0.0028187	0.00078121	1127.3	3.0393e-05	3.0686e-05	1423.9	366.15	3.0372e-05	3.0936e-05	535.5	201.81	133.13	61.546	3.0974e-05	100.78	185.724	233.966	54.856	-81.992	23.422	56.144	-81.150	-76.674	32.155	28.583	-77.756	-73.700	-71.829	-67.135	206.987	-70.401	-8191	255	
1623.570	1	1	0	0	0.3179	0.12757	0.27678	0.16839	0.14283	0.030075	0.42013	0.43201	0.21652	0.29184	0.10087	0.14124	0.24663	0.15102	0.14283	0.21756	0.0125	-1.1812	-0.76667	-0.50417	-1	-0.3875	-0.85417	-1.0625	-0.21875	-1.0646	-0.82917	-0.5625	-1.2583	-0.50417	-0.6625	-1.1771	188.319	188.959	-7.219	215.052	-94.001	47.194	238.160	214.562	248.091	76.526	202.174	234.288	-50.514	176.128	199.987	214.658	0.00033116	0.0020481	0.00015938	1149.2	3.5056e-06	1.6023e-05	1501.7	355.81	1.3973e-05	1.7506e-05	517.02	204.41	127.66	61.813	9.9724e-06	105.78	0.0026898	0.002797	0.00077973	1125.3	3.0493e-05	3.0781e-05	1417.8	364.97	3.0431e-05	3.0913e-05	532.21	200.5	132.81	61.141	3.0558e-05	100.2	198.687	-46.651	64.158	-81.972	-24.443	52.348	-82.765	-77.139	169.541	-23.193	-78.152	-73.807	-71.938	-67.635	-75.036	-70.402	-8191	255	
1623.668	1	1	0	0	0.086774	0.22413	0.22209	0.048393	0.25812	0.072776	0.25516	0.072864	0.13834	0.067872	0.14588	0.25414	0.18021	0.19777	0.018699	0.080454	-0.033333	-1.1958	-0.61458	-0.47917	-1.0792	-0.68958	-0.725	-1.2792	-0.50417	-0.96875	-1.0708	-0.45833	-1.4438	-0.69792	-0.55208	-1.4979	-65.019	-1.113	231.134	-89.454	221.615	114.708	209.535	127.062	61.047	50.294	167.176	198.477	-39.485	-47.189	-66.036	123.502	0.00071417	0.0014785	0.00030209	1145.3	2.3637e-05	2.4879e-05	1502.2	357.49	1.4398e-05	5.3656e-06	507.92	203.69	127.16	61.149	1.9775e-05	105.26	0.0027005	0.002801	0.0007755	1123.5	3.0271e-05	3.0645e-05	1413.7	364.8	3.0552e-05	3.0882e-05	529.42	199.59	132.66	61.03	3.0583e-05	100.08	170.431	-48.263	7.657	-82.029	194.111	120.831	-82.579	-76.926	167.121	39.864	-77.608	-73.733	-72.154	-67.205	-27.399	-70.858	-8191	255	
1623.787	1	1	0	0	0.14824	0.38733	0.14988	0.38031	0.24585	0.056695	0.2449	0.14271	0.1296	0.10159	0.12386	0.21279	0.29873	0.22881	0.30925	0.041852	0.020833	-0.775	-1.0625	-0.47292	-1.1833	-0.64583	-0.60208	-1.4354	-0.26667	-0.8125	-1.325	-0.55833	-1.1125	-0.93125	-0.625	-1.3271	-48.608	-36.101	129.617	199.308	118.797	-29.355	193.726	241.989	213.484	199.142	247.706	-8.368	236.600	241.643	-18.505	161.510	0.0002541	0.0025613	0.00034179	1152.6	1.5971e-05	5.6814e-06	1496.3	354.74	1.3109e-05	7.9938e-06	507.92	202.89	127.1	61.489	1.4051e-05	105.94	0.0027016	0.0027981	0.00076928	1124.5	3.0217e-05	3.0532e-05	1412.5	363.47	3.04e-05	3.0647e-05	528.54	199.63	132.51	61.193	3.0355e-05	100.23	152.119	128.530	-29.602	-82.180	65.318	28.272	-82.397	-76.885	238.069	31.498	-78.157	-74.024	-71.942	-67.437	179.699	-70.595	-8191	255	
1623.883	1	1	0	0	0.16833	0.16231	0.085623	0.41806	0.039063	0.10679	0.18348	0.16094	0.10471	0.16824	0.15305	0.27352	0.072067	0.24148	0.21181	0.2166	-0.022917	-0.75417	-1.1313	-0.50208	-1.0812	-0.70625	-0.62917	-1.2521	-0.41458	-0.63125	-1.1167	-0.46042	-0.875	-1.1604	-0.3	-1.2854	2.811	104.166	-64.153	-71.256	254.004	130.865	131.858	23.521	245.187	186.627	-15.902	143.546	159.210	-23.802	83.938	144.478	0.00048141	0.00093952	0.00010823	1148.2	1.9901e-06	2.2161e-05	1494.9	354.96	1.32e-05	1.6026e-05	513.85	204.36	127.4	61.529	1.2656e-05	106.11	0.0027	0.0027894	0.00076869	1123	3.0527e-05	3.0654e-05	1414.4	364.56	3.0397e-05	3.0455e-05	530.78	200.45	132.83	61.069	3.0252e-05	100.3	207.051	167.662	24.873	-81.980	141.635	152.163	-82.557	-76.913	128.401	44.244	-78.433	-74.244	-71.980	-67.401	96.740	-70.000	-8191	255	
1623.979	1	1	0	0	0.20409	0.11136	0.11699	0.2563	0.33837	0.21374	0.23561	0.31525	0.24132	0.18323	0.36827	0.33845	0.28533	0.25245	0.17933	0.097095	-0.29792	-0.41667	-1.1646	-0.575	-1.0979	-1.1229	-0.49167	-1.1479	-0.53542	-0.575	-1.2437	-0.56458	-0.88542	-1.0438	-0.37292	-1.2667	146.954	19.979	161.702	219.489	-81.026	189.500	210.647	216.847	-92.191	167.694	238.097	230.854	223.377	213.122	2.703	261.883	0.00031909	0.0018905	0.00029772	1142.5	1.9322e-05	8.7856e-06	1487.9	356.9	1.4933e-05	1.5787e-05	512.55	202	126.46	61.527	1.4378e-05	105.21	0.0026862	0.0027433	0.00076421	1118.9	3.0287e-05	2.9961e-05	1405.7	364.35	3.0217e-05	3.0035e-05	527.55	199.2	132.09	60.785	3.0038e-05	99.609	197.035	-44.178	245.048	-82.554	128.509	98.854	-82.648	-76.799	40.969	-51.197	-78.075	-74.438	-72.326	-67.711	158.055	-70.520	-8191	255	
1624.051	1	1	0	0	0.096123	0.060093	0.11305	0.20924	0.11708	0.32292	0.42393	0.13044	0.2516	0.12515	0.11701	0.040556	0.22841	0.01692	0.33021	0.12094	-0.275	-0.42708	-1.1	-0.4	-0.7875	-1.0271	-0.42083	-1.1708	-0.66875	-0.43958	-1.3	-0.57708	-0.86042	-1.3542	-0.43958	-1.1938	98.633	-56.250	222.613	259.069	228.188	218.888	252.877	44.631	95.746	64.607	215.310	146.768	215.013	206.017	60.775	-76.465	0.00037077	0.0029117	0.0001051	1142.7	8.196e-06	2.4975e-05	1482.6	354.55	1.6584e-05	1.5129e-05	511.46	202.36	126.65	61.566	1.5305e-05	105.26	0.0026693	0.0027422	0.00076115	1119.2	2.9797e-05	2.9786e-05	1400.5	363.11	2.9841e-05	3.0102e-05	528.33	198.87	131.83	60.755	2.9987e-05	99.649	189.652	-16.212	227.933	-81.960	50.853	51.341	-82.769	-76.311	64.009	-6.773	-77.902	-74.036	-71.942	-67.805	132.409	-70.049	-8191	255	
1624.172	1	1	0	0	0.22595	0.14403	0.24206	0.37141	0.14127	0.14941	0.42719	0.17407	0.30028	0.20805	0.24328	0.21204	0.099138	0.1289	0.17278	0.23128	-0.39167	-0.19583	-1.0646	-0.70417	-0.56458	-1.2188	-0.63333	-1.0833	-0.925	-0.32708	-1.4188	-0.62917	-0.55417	-1.3083	-0.15208	-1.1083	39.037	25.812	-65.558	-72.297	-75.954	-27.574	-81.422	141.255	235.036	-88.245	264.109	222.599	-6.761	199.382	93.616	229.995	0.00053004	0.0024921	0.00041959	1142.3	1.0222e-05	2.9117e-05	1492.4	355.3	1.2482e-05	1.1114e-05	509.09	203.95	128.15	61.96	6.1512e-06	105.61	0.0026442	0.0027209	0.00076025	1114.2	2.9836e-05	2.979e-05	1403.1	363	2.9689e-05	2.9713e-05	528.18	199.21	132.04	60.996	2.9711e-05	100.16	196.318	247.933	43.468	-82.031	80.324	47.290	-82.580	-76.769	-54.221	112.453	-78.317	-74.576	-72.145	-67.897	86.180	-70.880	-8191	255	
1624.268	1	1	0	0	0.34549	0.3272	0.07252	0.24614	0.1902	0.097026	0.18049	0.11311	0.20344	0.22796	0.038599	0.27181	0.081144	0.13551	0.095608	0.34336	-0.62083	-0.40208	-1.1104	-0.71875	-0.53542	-1.1479	-0.49583	-0.83542	-1.0812	-0.15417	-1.0375	-0.86042	-0.41458	-1.2229	-0.54375	-1.1167	59.883	22.650	52.081	254.909	149.743	15.855	-80.569	112.986	-85.784	-23.690	195.483	-69.196	187.149	234.811	211.404	207.855	0.00046471	0.00084878	0.00038947	1136.1	1.6978e-05	7.354e-06	1490.5	352.83	2.692e-05	1.2891e-05	511.57	202.64	127.66	62.074	1.5158e-05	106.47	0.0026247	0.0026978	0.00076016	1111.3	2.951e-05	2.9741e-05	1402	362.59	2.9414e-05	2.9787e-05	530.15	199.75	131.72	61.161	3.0023e-05	100.38	164.242	5.350	-41.534	-82.490	44.308	-14.927	-83.007	-77.069	10.606	-24.658	-78.243	-74.635	-72.313	-67.621	34.691	-70.714	-8191	255	
1624.364	1	1	0	0	0.068217	0.06054	0.11942	0.08246	0.17284	0.2106	0.45293	0.20592	0.080387	0.25975	0.22848	0.064878	0.034881	0.06659	0.27566	0.24114	-0.76875	-0.029167	-1.0125	-0.75	-0.25208	-1.2917	-0.57292	-0.78542	-1.0875	-0.20833	-1.1042	-0.84792	-0.28542	-1.3729	-0.54167	-0.84583	-21.447	68.717	263.802	-77.696	258.555	15.276	195.433	215.910	249.530	113.840	-54.228	100.755	-88.750	186.972	255.587	214.650	0.00042521	0.0012167	0.00045439	1137.4	3.8486e-06	1.7455e-05	1487.4	356.51	1.4264e-05	3.6632e-05	511.48	204.7	126.41	62.058	1.3551e-05	106.03	0.0026155	0.0027154	0.0007595	1111.3	2.9397e-05	2.9702e-05	1400.4	362.95	2.9522e-05	2.9729e-05	527.46	199.25	131.33	61.169	2.9884e-05	99.738	186.142	233.620	-1.138	-82.406	-86.477	107.049	-83.298	-77.079	25.019	176.372	-78.112	-74.191	-72.665	-67.754	40.166	-70.692	-8191	255	
1624.460	1	1	0	0	0.14565	0.11524	0.21495	0.18474	0.23606	0.056195	0.32334	0.18082	0.23181	0.17957	0.49471	0.18904	0.14282	0.10213	0.25936	0.28737	-0.7625	-0.25208	-0.77292	-1.0271	-0.32292	-1.0646	-0.83958	-0.73958	-1.1667	-0.28958	-0.95208	-1.0667	-0.30208	-1.2417	-0.63542	-0.73333	52.713	175.280	25.108	215.049	207.641	99.531	257.842	211.424	171.011	-71.366	263.583	-80.685	-75.638	204.866	-42.850	151.127	0.00012635	0.0019447	0.00066093	1134.4	8.3585e-06	1.8569e-05	1490.7	351.91	4.7006e-06	9.8733e-06	508.16	203.63	126.53	61.961	5.2959e-06	106.1	0.0026219	0.002701	0.00075909	1108.3	2.9546e-05	2.9793e-05	1398.7	360.96	2.9418e-05	2.9754e-05	526.81	198.53	130.97	61.128	2.9645e-05	99.996	125.672	-13.528	53.515	-82.571	191.356	46.347	-82.918	-76.879	247.913	-16.972	-77.968	-74.573	-72.125	-67.985	175.766	-70.670	-8191	255	
1624.579	1	1	0	0	0.093797	0.20513	0.27739	0.15296	0.1132	0.22128	0.46159	0.45977	0.1883	0.057402	0.096083	0.24779	0.20768	0.41138	0.11261	0.44798	-0.83958	-0.38125	-0.84167	-1.2271	-0.34792	-1.3062	-0.78333	-0.47708	-1.1479	-0.4375	-0.82708	-1.1688	-0.40417	-1.1	-0.80625	-0.4875	243.907	42.299	-43.380	-20.537	180.946	32.949	175.968	147.993	240.383	100.321	27.868	197.515	-0.283	251.633	167.615	161.614	0.00051138	0.00059595	0.00076188	1131.1	2.4277e-05	2.9343e-05	1480.6	353.82	4.6464e-06	1.0049e-05	513.71	202.93	126.8	61.622	1.0716e-05	106.13	0.0025986	0.0027042	0.00075376	1104.7	2.9346e-05	2.9715e-05	1394.3	361.32	2.9351e-05	2.9839e-05	527.2	198.93	130.94	61.064	2.9637e-05	100.17	251.480	36.424	28.121	-82.227	127.577	116.150	-82.647	-76.869	263.213	63.677	-78.376	-74.394	-72.407	-68.138	43.247	-70.578	-8191	255	
1624.652	1	1	0	0	0.15328	0.028456	0.049709	0.08347	0.24879	0.35921	0.33678	0.12901	0.06663	0.27513	0.16033	0.26948	0.022823	0.096137	0.23325	0.055736	-0.87083	-0.56458	-0.50417	-1.0646	-0.19583	-1.1688	-1.1917	-0.35208	-1.0625	-0.52708	-0.5625	-1.2625	-0.4875	-1.1313	-1.0875	-0.50625	88.081	14.041	-92.155	86.545	56.681	171.805	184.198	199.254	9.453	-23.071	181.142	249.817	199.432	260.422	232.014	261.653	0.00011174	0.00087647	0.00046511	1120	1.1722e-05	1.2115e-05	1490	352.76	3.1487e-06	2.671e-05	514.38	204.94	126.59	62.281	1.6752e-05	106.9	0.0026192	0.0027159	0.00075182	1097.9	2.9514e-05	2.9889e-05	1392.7	361.31	2.9583e-05	2.9766e-05	529.19	200.57	131.65	61.483	2.9505e-05	101.05	179.572	164.122	-3.401	-82.581	43.970	193.073	-83.296	-76.897	-70.737	240.454	-78.508	-74.797	-72.332	-67.811	143.438	-70.990	-8191	255	
1624.771	1	1	0	0	0.18944	0.066852	0.22252	0.20599	0.062365	0.1381	0.26192	0.12692	0.26255	0.04304	0.28764	0.27564	0.065591	0.23961	0.02784	0.38194	-0.82917	-0.48958	-0.59792	-1.3708	-0.34167	-0.87917	-1.0667	-0.31042	-1.2938	-0.53333	-0.5	-1.3271	-0.36042	-0.95	-1.0375	-0.41875	151.531	-54.078	-7.553	180.320	180.047	-41.812	85.947	229.343	16.082	131.190	-80.755	220.932	144.098	-90.404	-83.491	258.011	0.00032152	0.0029503	0.00083313	1125.4	6.1325e-06	3.0178e-05	1477.7	350.68	7.8168e-06	1.2795e-05	513.35	205.8	127.03	62.59	1.0385e-05	108.3	0.0026317	0.0027093	0.00075235	1097.9	2.9686e-05	2.9991e-05	1390.9	361.71	2.9813e-05	2.9867e-05	530.28	201.6	132.08	61.85	2.9818e-05	102.09	216.053	-13.384	70.642	-82.396	98.720	115.180	-83.277	-77.226	132.066	176.349	-78.296	-74.474	-72.559	-67.480	-82.550	-70.684	-8191	255	
1624.867	1	1	0	0	0.14007	0.10675	0.1011	0.2085	0.34825	0.091409	0.38225	0.033673	0.057808	0.24904	0.08112	0.31868	0.35251	0.31168	0.15125	0.45977	-0.78958	-0.79375	-0.25833	-1.2875	-0.40417	-0.63542	-1.4292	-0.42083	-1.1083	-0.82917	-0.57083	-1.3417	-0.41042	-0.82708	-0.93958	-0.50625	-12.678	145.714	231.642	214.370	-50.094	-23.513	204.664	-36.825	60.369	109.867	123.230	220.174	222.966	242.126	-9.135	241.449	0.00018633	0.0010994	0.00064698	1121.7	2.5363e-05	6.7316e-06	1473.1	354.27	3.5431e-06	1.688e-05	519.1	207.21	127.12	63.243	5.698e-06	109.15	0.0026532	0.0027417	0.0007598	1099	2.9968e-05	3.0331e-05	1390.3	363.49	3.0261e-05	3.0311e-05	533.24	202.98	132.97	62.439	3.0193e-05	102.72	211.377	-48.829	-17.784	-82.334	-5.427	1.666	-82.718	-77.241	45.238	55.096	-78.792	-74.285	-72.377	-67.508	12.087	-70.774	-8191	255	
1624.963	1	1	0	0	0.098404	0.14875	0.098192	0.30971	0.29784	0.169	0.063795	0.31793	0.14525	0.32206	0.1528	0.14746	0.34085	0.32762	0.27217	0.035557	-0.55	-0.83958	-0.38958	-1.2458	-0.63333	-0.44375	-1.3958	-0.35417	-1	-0.71458	-0.40208	-1.3333	-0.52917	-0.72917	-1.1187	-0.40833	111.851	-77.258	7.952	234.893	197.006	102.705	-61.208	121.819	100.433	243.538	-75.337	163.827	242.632	223.550	-70.945	226.727	0.00047028	0.0013397	6.7033e-05	1117.4	2.1642e-05	1.4633e-05	1483.6	351.62	1.8953e-05	7.3954e-06	519.17	210.11	127.97	63.8	8.3409e-06	109.19	0.0026936	0.0027421	0.00076064	1100.3	3.0139e-05	3.0236e-05	1399.2	363.58	3.0039e-05	3.0247e-05	534.16	205.08	133.39	62.48	2.9925e-05	103	211.700	21.875	-42.513	-82.547	180.229	62.518	-82.968	-77.102	138.427	85.809	-78.879	-74.328	-73.046	-67.710	-84.459	-70.779	-8191	255	
1625.060	1	1	0	0	0.022225	0.068554	0.11049	0.30403	0.47334	0.15068	0.28394	0.30001	0.19474	0.19811	0.42001	0.22276	0.020835	0.23779	0.056173	0.24431	-0.47292	-0.81458	-0.25625	-1.2313	-0.7375	-0.51667	-1.3354	-0.23542	-1.0208	-1.1458	-0.36667	-1.2687	-0.82083	-0.65208	-1.2229	-0.44792	241.639	131.410	69.201	204.844	80.784	97.853	154.708	255.976	217.912	-82.782	-65.801	-66.779	208.357	-70.950	181.788	76.774	0.00026943	0.0020958	0.00013901	1127.7	1.4864e-05	7.4683e-06	1486.1	359.75	2.4551e-06	2.1211e-05	516.48	209.24	128.43	63.868	8.9734e-06	110.09	0.0026642	0.002734	0.00075741	1104.9	2.9882e-05	3.0001e-05	1399.2	366.4	2.9931e-05	3.0013e-05	532.95	204.38	133.57	62.713	2.9939e-05	103.64	197.732	83.138	-71.640	-82.023	-23.013	247.097	-82.748	-76.916	190.041	89.021	-78.260	-73.743	-72.460	-67.637	101.713	-70.624	-8191	255	
1625.180	1	1	0	0	0.19348	0.21875	0.33987	0.058604	0.026473	0.11268	0.12188	0.11094	0.20283	0.25184	0.099065	0.21038	0.04845	0.28478	0.05333	0.11079	-0.55	-0.93958	-0.13542	-1.1917	-0.81667	-0.18333	-1.2354	-0.54792	-0.5625	-1.2521	-0.2625	-1.3021	-0.88125	-0.58125	-1.2521	-0.5875	-77.465	124.682	-73.224	-82.028	177.342	-44.408	143.420	262.887	189.851	-21.034	150.944	124.893	-37.591	248.707	90.443	11.385	0.00022199	0.00073442	0.00049872	1136.8	9.4016e-06	2.8882e-05	1496.6	359.1	6.1736e-06	1.1091e-05	524.86	208.51	130.28	63.744	6.6009e-06	108.82	0.0026678	0.0027195	0.00076026	1113.5	3.0022e-05	2.995e-05	1408	367	3.0043e-05	2.9915e-05	536.72	203.79	134.35	62.69	3.0016e-05	102.7	-43.149	-90.939	-10.343	-82.188	105.100	89.239	-83.142	-77.117	264.414	160.361	-77.772	-73.779	-72.201	-67.538	207.475	-70.566	-8191	255	
1625.276	1	1	0	0	0.25544	0.043849	0.21435	0.23411	0.15139	0.064982	0.31293	0.14479	0.095952	0.17098	0.16808	0.13494	0.12848	0.23398	0.17299	0.31731	-0.26875	-1.1646	-0.55833	-0.72292	-0.93333	-0.21042	-1.2958	-0.63125	-0.57292	-1.175	-0.35833	-1	-1.0375	-0.36875	-1.0104	-0.8	2.522	-49.077	102.012	137.075	145.316	185.528	236.229	210.552	54.415	-32.721	249.088	205.588	-91.898	70.673	75.596	197.687	0.00038387	0.0029836	0.00031397	1149.4	8.4945e-06	1.9014e-05	1497.5	362.02	1.8829e-05	2.0533e-05	520.53	208.91	130.61	64.3	1.1465e-05	108.47	0.002647	0.0027371	0.00076283	1119.4	2.9769e-05	2.996e-05	1409.5	367.84	2.9852e-05	2.9945e-05	534.22	203.24	134.42	62.794	3.0103e-05	102.49	147.512	107.220	100.058	-81.965	49.576	-84.791	-82.868	-77.300	23.176	-49.296	-77.942	-74.076	-72.364	-68.050	-21.122	-70.672	-8191	255	
1625.348	1	1	0	0	0.34968	0.15968	0.067878	0.12302	0.25427	0.27286	0.33468	0.22118	0.044587	0.28251	0.2277	0.10062	0.17068	0.12473	0.058229	0.11022	-0.014583	-1.1354	-0.27917	-1.0271	-1.0021	-0.28333	-1.2062	-0.59792	-0.45417	-1.0958	-0.53958	-0.88333	-1.1729	-0.40833	-0.98125	-0.69167	31.000	120.407	77.423	249.345	245.674	124.762	176.209	244.474	-70.814	-1.520	68.020	197.525	-32.177	-71.855	59.727	145.916	0.00015628	0.0011797	0.00033841	1149.4	1.7038e-05	2.0214e-05	1504.3	358.07	7.0613e-06	1.7255e-05	520.34	207.75	129.48	63.941	1.3989e-05	108.96	0.0026567	0.0027107	0.00076256	1122.5	2.987e-05	2.9942e-05	1413.9	368.28	2.9764e-05	2.9991e-05	535.73	203.05	134.51	62.773	3.0289e-05	102.41	91.727	67.744	-26.247	-82.374	11.216	132.629	-83.173	-77.478	107.461	2.881	-78.476	-74.216	-72.270	-67.957	117.754	-70.967	-8191	255	
1625.467	1	1	0	0	0.15958	0.11519	0.2465	0.29258	0.14908	0.15366	0.044829	0.2407	0.21393	0.099293	0.094509	0.1102	0.40355	0.32852	0.18705	0.47255	0.016667	-1.3708	-0.5375	-0.78333	-0.95625	-0.26042	-1.15	-0.69167	-0.30625	-1.1354	-0.44167	-0.53542	-1.0896	-0.46458	-0.90208	-1.0562	-83.739	33.012	110.649	247.816	116.265	242.674	14.013	230.594	96.850	-92.601	224.338	-7.773	258.986	-66.825	196.526	202.786	0.00082447	0.0034099	0.00054851	1143.7	1.09e-05	8.5151e-06	1509.6	361.57	9.6725e-06	7.1905e-06	520.99	206.42	130.46	63.72	2.0178e-05	109.37	0.0026415	0.0027098	0.00075922	1122.8	2.9902e-05	3.0053e-05	1416.1	368.52	3.0027e-05	3.0006e-05	536.24	203.4	134.7	62.975	3.0074e-05	102.87	192.046	233.545	1.559	-82.348	-76.899	-50.524	-82.742	-77.561	158.653	142.303	-78.559	-74.283	-72.265	-67.556	-65.504	-70.498	-8191	255	
1625.563	1	1	0	0	0.15668	0.026938	0.24147	0.27155	0.10682	0.057962	0.25587	0.044977	0.26514	0.33937	0.31257	0.14761	0.10827	0.058077	0.092089	0.11094	0.13542	-0.97083	-0.50833	-0.58333	-1.1771	-0.30417	-1.1	-0.7875	-0.21667	-1.1729	-0.81458	-0.80833	-1.4208	-0.53125	-0.84167	-1.2271	256.412	36.039	82.341	221.464	-58.822	179.406	126.638	168.567	23.500	76.925	186.855	211.581	167.876	26.140	149.821	188.540	0.00051369	0.0018618	0.00059811	1151.7	2.4935e-05	2.7714e-06	1516.2	361.86	5.7679e-06	7.0612e-06	520.77	208.67	131.05	64.397	1.3927e-05	108.57	0.0026407	0.0027384	0.00076891	1123.9	2.9889e-05	3.0047e-05	1417.5	368.43	2.9775e-05	3.0228e-05	534.99	203.94	135.17	63.012	3.001e-05	102.37	158.835	180.634	-2.912	-82.112	35.842	244.345	-82.730	-77.110	73.391	29.732	-78.565	-74.074	-72.449	-67.631	33.086	-70.376	-8191	255	
1625.659	1	1	0	0	0.18138	0.32723	0.11535	0.20588	0.055528	0.33553	0.26229	0.21116	0.15672	0.1414	0.24867	0.11845	0.14785	0.21197	0.12539	0.23176	0.05	-1.0063	-0.60833	-0.6125	-1.0854	-0.425	-0.9	-1.1833	-0.30417	-1.1125	-0.9	-0.35208	-1.1229	-0.81042	-0.85	-1.4021	125.064	-19.950	94.304	237.854	24.791	199.592	164.756	169.547	243.404	148.769	215.229	-14.952	237.287	-81.545	51.400	247.718	0.00016312	0.00082031	0.00058198	1151	2.7622e-05	1.1166e-05	1499.5	362	1.7633e-05	1.4777e-05	521.85	208.04	131.19	63.986	2.5284e-05	107.36	0.0026406	0.0027337	0.00076461	1124.7	2.9793e-05	3.0064e-05	1414.6	369.06	2.9636e-05	3.0057e-05	534.2	201.9	134.73	62.638	2.994e-05	101.51	94.546	-66.568	200.122	-82.154	11.103	35.688	-82.643	-76.920	28.530	103.222	-78.135	-74.052	-72.058	-67.424	77.368	-70.579	-8191	255	
1625.755	1	1	0	0	0.11144	0.41268	0.051696	0.37995	0.16511	0.19332	0.37956	0.34681	0.1377	0.16905	0.14393	0.30887	0.06831	0.53621	0.1322	0.18409	-0.054167	-1.0667	-0.99375	-0.45208	-1.3833	-0.59792	-0.88333	-1.3896	-0.2875	-0.97917	-0.9125	-0.37917	-1.2417	-0.65625	-0.4875	-1.4667	2.918	14.987	123.201	260.558	192.318	63.691	214.389	257.165	137.789	251.739	193.976	257.611	-91.010	191.992	264.894	239.241	0.00033938	0.0027641	0.00081163	1149.4	1.8965e-05	2.3343e-05	1503.5	359.13	3.0041e-06	9.7953e-06	517.7	207.85	130.55	63.255	3.6651e-05	108.07	0.0026261	0.002732	0.00075104	1125.9	2.9617e-05	2.989e-05	1410.7	368.08	2.9612e-05	2.994e-05	532.06	202.2	134.63	62.374	2.9742e-05	102.01	224.693	-60.400	58.298	-82.176	7.796	185.160	-82.624	-77.004	89.723	-16.575	-78.170	-74.121	-72.413	-68.078	155.183	-70.734	-8191	255	
1625.876	1	1	0	0	0.1805	0.25881	0.27019	0.3147	0.13682	0.27198	0.28336	0.2417	0.15913	0.16225	0.19359	0.080188	0.33709	0.59024	0.19351	0.3421	0.022917	-0.93542	-0.84792	-0.41458	-1.1771	-0.61667	-0.62292	-1.3438	-0.29792	-0.86667	-1.1063	-0.3875	-1.0979	-0.71042	-0.36667	-1.3521	-85.723	93.121	-79.880	-33.415	-7.144	147.157	158.088	194.521	103.340	226.488	214.648	-71.051	245.202	222.893	-7.370	209.278	0.00058476	0.0031095	0.00038893	1161.3	6.1915e-06	1.4579e-05	1506.6	359.43	2.1248e-05	1.222e-05	520.29	206.77	129.99	63.897	1.1582e-05	108.87	0.0026439	0.0027254	0.00075452	1124.9	2.9657e-05	2.986e-05	1413.4	367.82	2.9669e-05	2.9796e-05	532.43	201.92	134.2	62.692	2.9763e-05	102.3	228.238	-52.106	-51.605	-82.187	132.322	115.006	-82.604	-77.202	37.977	-27.753	-78.137	-74.057	-71.578	-67.402	21.994	-70.593	-8191	255	
1625.948	1	1	0	0	0.16654	0.11219	0.053991	0.27687	0.14437	0.32927	0.11277	0.3032	0.24361	0.19306	0.36488	0.14356	0.1197	0.12928	0.072779	0.26125	-0.0625	-0.81667	-1.1625	-0.45417	-1.2479	-0.84167	-0.65	-1.4312	-0.43958	-0.79792	-1.3729	-0.525	-1.1042	-0.99167	-0.15833	-1.3104	110.382	109.547	34.397	253.875	207.424	-37.676	263.926	173.673	100.807	65.579	177.864	-1.757	179.105	225.483	254.001	232.349	0.00065314	0.00084037	0.0005186	1154.4	4.1988e-06	1.3851e-05	1504.1	360.92	1.1387e-05	2.2005e-05	516.13	207.33	131.12	64.382	1.1048e-05	108.62	0.0026325	0.0027079	0.0007516	1122.7	2.9621e-05	2.9693e-05	1413.5	367.55	2.9648e-05	2.9991e-05	532.65	202.56	134.65	62.829	2.9763e-05	102.07	-82.078	106.966	-39.715	-82.434	-41.555	55.811	-82.813	-77.428	-19.307	57.561	-78.855	-74.629	-72.135	-67.949	46.572	-70.868	-8191	255	
1626.044	1	1	0	0	0.20226	0.12611	0.21246	0.081704	0.17555	0.10703	0.19106	0.29892	0.034702	0.18293	0.11433	0.15789	0.20723	0.25402	0.089361	0.41094	-0.10625	-0.55833	-1.1958	-0.35625	-1.0917	-0.94167	-0.56458	-1.2521	-0.525	-0.83958	-1.2729	-0.45833	-0.93542	-1.3167	-0.19792	-1.2708	-44.386	250.093	33.261	236.136	85.005	182.869	221.212	67.259	12.632	131.518	255.891	-8.639	-50.080	164.221	204.410	220.364	0.00042405	0.0013448	0.00067284	1142.8	2.1836e-05	2.5302e-05	1506.5	364.38	1.117e-05	2.8885e-06	520.94	206.22	131.49	63.88	1.7824e-05	108.52	0.0026251	0.0027137	0.00074899	1119.1	2.9472e-05	2.9509e-05	1410.6	368.1	2.9313e-05	2.9613e-05	532.22	201.8	135.16	62.574	2.9324e-05	102.09	183.984	-48.866	175.616	-82.567	44.315	57.329	-82.785	-77.316	-23.545	-72.314	-78.121	-74.415	-72.404	-68.210	4.630	-70.359	-8191	255	
1626.140	1	1	0	0	0.23422	0.070349	0.24633	0.26186	0.080064	0.051188	0.45842	0.18779	0.24698	0.22914	0.34467	0.22935	0.42729	0.35721	0.1514	0.35274	-0.25	-0.25	-1.2417	-0.29792	-0.82292	-1.0729	-0.3	-1.3583	-0.66667	-0.48125	-1.2938	-0.74375	-0.78542	-1.2771	-0.3375	-1.0562	-47.280	-62.985	37.234	-78.324	90.744	250.888	219.637	238.151	135.101	30.582	-81.103	246.486	108.280	260.904	60.393	247.298	0.00054725	0.003748	0.00056019	1153.8	8.7776e-06	1.5528e-05	1498.9	362.07	1.1733e-05	2.1655e-05	527.26	207.74	130.27	63.611	1.5554e-05	109.59	0.0026117	0.0026725	0.00074294	1119.8	2.9238e-05	2.9342e-05	1404.3	367.15	2.9327e-05	2.9214e-05	533.4	202.38	134.16	62.478	2.92e-05	102.52	177.365	32.795	21.412	-82.321	99.687	235.037	-82.805	-77.503	176.156	37.171	-78.467	-74.375	-72.109	-67.581	108.979	-70.701	-8191	255	
1626.261	1	1	0	0	0.22289	0.25086	0.087119	0.17122	0.13245	0.089527	0.17831	0.28034	0.32217	0.11158	0.091705	0.18217	0.072257	0.19586	0.2332	0.23171	-0.65208	-0.40625	-1.2188	-0.44792	-0.65417	-0.96458	-0.43542	-1.0583	-0.96042	-0.26458	-1.3104	-0.62083	-0.68333	-1.1458	-0.35	-1.1271	249.506	113.685	249.826	255.638	82.457	62.813	230.510	202.046	-72.551	36.436	216.423	72.203	-64.877	-19.184	80.893	214.379	0.0003889	0.00092701	0.00051142	1150.7	6.7426e-06	8.088e-06	1494.4	361.37	2.0753e-05	2.6839e-05	521.46	206.85	128.84	63.166	1.3549e-05	108	0.00259	0.0026545	0.00073612	1114.4	2.9222e-05	2.915e-05	1405.8	366.92	2.9126e-05	2.9366e-05	531.87	201.74	133.17	62.188	2.955e-05	101.77	216.430	50.447	-80.829	-82.522	205.223	108.481	-82.671	-76.453	71.744	-7.043	-78.187	-74.545	-72.335	-67.633	42.180	-70.414	-8191	255	
1626.357	1	1	0	0	0.19384	0.21861	0.17229	0.12284	0.24411	0.073447	0.24672	0.21404	0.24429	0.1084	0.27473	0.26577	0.1395	0.26665	0.14247	0.22383	-0.52708	-0.28333	-1.2062	-0.59792	-0.60208	-1.1542	-0.54167	-0.8875	-1.0938	-0.34583	-1.2417	-0.67083	-0.66875	-1.4354	-0.22292	-1.0979	204.460	0.442	210.103	197.645	178.361	-1.309	170.079	198.404	204.761	-44.015	-80.712	78.091	245.939	178.261	58.257	-86.695	0.00012621	0.0012711	0.00047112	1143.5	1.1654e-05	8.9892e-06	1493.7	361.3	9.5381e-06	5.2089e-06	513.18	203.8	128.09	63.798	1.6052e-05	107.58	0.0026051	0.0026778	0.00075171	1119.2	2.9377e-05	2.944e-05	1404.8	367.05	2.9465e-05	2.951e-05	530.2	200.13	132.92	62.424	2.9635e-05	101.59	-57.353	-45.537	15.746	-82.380	23.713	163.210	-82.607	-76.986	-42.016	100.813	-78.112	-73.940	-71.807	-67.809	107.808	-70.457	-8191	255	
1626.453	1	1	0	0	0.2188	0.14368	0.16151	0.30282	0.39841	0.132	0.37367	0.39462	0.2391	0.2078	0.24605	0.20552	0.34056	0.33908	0.087547	0.23548	-0.57292	-0.23542	-1.0104	-0.93125	-0.30625	-1.3438	-0.65208	-0.75833	-1.0438	-0.45208	-1.1271	-0.75417	-0.46875	-1.3188	-0.40833	-0.85208	-92.217	45.474	112.825	206.671	-9.896	56.427	221.592	-90.143	-70.120	124.422	224.279	58.371	214.962	-53.579	-44.384	241.321	0.0001439	0.0028428	0.00089794	1140	2.701e-05	1.2513e-05	1478.9	358.44	1.281e-05	2.5693e-05	515.45	205.32	130.59	63.005	2.1084e-05	108.69	0.0026121	0.0026985	0.00075245	1115	2.9258e-05	2.9468e-05	1398.8	366.28	2.943e-05	2.946e-05	530.76	200.42	133.58	62.129	2.9324e-05	101.71	237.814	61.490	-48.300	-81.891	2.926	52.918	-82.658	-76.451	125.456	38.899	-78.029	-73.868	-72.575	-67.608	65.283	-70.367	-8191	255	
1626.547	1	1	0	0	0.17477	0.17282	0.15304	0.15063	0.04283	0.088398	0.12685	0.16369	0.19509	0.076264	0.21921	0.26568	0.24608	0.066411	0.13932	0.14125	-0.70625	-0.10833	-0.96042	-1.0583	-0.26875	-1.0708	-0.775	-0.875	-1.4167	-0.33542	-1.2896	-0.88333	-0.4875	-1.1958	-0.65	-0.77917	105.065	131.929	66.211	-90.855	113.681	174.703	263.539	176.996	-36.125	176.258	145.097	179.648	-77.552	177.061	90.393	-85.504	0.00045874	0.0026836	0.00013091	1135.6	1.787e-05	7.4017e-06	1475.9	359.78	1.6872e-05	6.6958e-06	516.65	206.85	130.65	63.821	1.5718e-05	108.97	0.0025797	0.002653	0.00074733	1105.4	2.8893e-05	2.908e-05	1391.3	365.29	2.9034e-05	2.9365e-05	529.79	201.83	133.71	62.383	2.9171e-05	102.22	177.627	-66.103	227.159	-81.806	52.765	228.815	-82.455	-76.463	179.827	-33.621	-77.945	-73.685	-71.709	-67.309	-17.651	-70.222	-8191	255	
1626.643	1	1	0	0	0.17836	0.18342	0.15625	0.20012	0.24082	0.1704	0.27529	0.28089	0.098495	0.23459	0.20944	0.22679	0.17035	0.27031	0.25615	0.22279	-1.0583	-0.37292	-1.0063	-1.1771	-0.35	-1.2563	-0.8375	-0.57917	-1.1792	-0.37708	-0.98125	-1.0458	-0.46667	-1.2542	-0.68125	-0.32083	110.041	28.907	96.367	191.589	-77.850	200.056	205.854	217.183	172.758	252.282	-93.098	-58.534	-70.724	195.154	59.582	222.536	0.00056038	0.0021638	0.00040407	1138.4	7.9068e-06	5.1833e-06	1472.4	358.35	1.0166e-05	1.2296e-05	519.48	207.33	130.57	63.618	1.11e-05	110.53	0.0025907	0.0026691	0.00074985	1106.5	2.9119e-05	2.9603e-05	1391.1	364.28	2.9218e-05	2.9587e-05	532.69	202.47	133.54	62.528	2.9766e-05	102.84	195.714	-10.196	-44.132	-81.980	36.252	11.843	-82.552	-76.716	152.375	-69.764	-77.658	-73.687	-71.970	-67.237	119.338	-70.127	-8191	255	
1626.741	1	1	0	0	0.048799	0.16252	0.26004	0.16592	0.26896	0.22834	0.36404	0.2718	0.13337	0.19084	0.25664	0.078627	0.30896	0.24707	0.17923	0.27966	-1.1646	-0.47292	-0.63958	-1.1021	-0.21458	-1.0833	-0.89583	-0.49375	-1.1146	-0.4875	-0.7	-1.1792	-0.29167	-1.0312	-0.65417	-0.43958	-12.440	27.887	210.865	219.689	-63.048	240.361	138.608	-55.517	121.396	117.700	261.473	250.957	240.321	-14.871	154.938	206.018	0.0001952	0.0015346	0.00064021	1127.7	8.6448e-06	1.5511e-05	1486.1	356.66	1.1994e-05	5.1431e-06	521.16	208.06	128.73	63.598	2.8731e-06	110.18	0.0026077	0.0026859	0.00075183	1102.9	2.9373e-05	2.9682e-05	1395	364.95	2.9487e-05	2.9743e-05	534.53	202.55	133.26	62.63	2.9692e-05	103.32	194.331	-36.167	-31.370	-82.182	-2.839	18.372	-82.331	-76.075	43.767	7.444	-77.771	-73.810	-72.190	-66.826	33.956	-69.876	-8191	255	
1626.860	1	1	0	0	0.29747	0.096878	0.10406	0.15288	0.15853	0.12074	0.27452	0.2269	0.099001	0.075513	0.051362	0.11578	0.35853	0.37753	0.15533	0.26059	-0.86042	-0.4625	-0.62083	-1.3729	-0.24167	-0.99583	-1.1313	-0.1875	-1.0042	-0.69375	-0.67917	-1.2542	-0.16875	-1.225	-1	-0.29375	-3.823	70.779	1.521	132.868	18.969	105.088	186.557	228.354	36.661	-85.820	49.760	-32.110	-82.135	238.060	-62.345	206.631	4.4087e-05	0.0010282	0.00033121	1120.9	3.7003e-06	8.6329e-06	1476.3	360.17	8.9493e-06	3.0183e-06	525.87	210.74	129.76	63.57	9.9241e-06	109.98	0.002608	0.0027035	0.00075019	1097.3	2.9373e-05	2.9574e-05	1391.4	365.11	2.9209e-05	2.9625e-05	534.75	204.29	133.6	62.529	2.9597e-05	103.21	211.438	145.714	218.407	-81.395	94.391	199.307	-82.205	-76.315	-11.879	-89.694	-77.660	-73.821	-71.709	-66.974	-5.917	-70.111	-8191	255	
1626.956	1	1	0	0	0.14505	0.12798	0.20256	0.24572	0.099189	0.29484	0.38976	0.14398	0.057333	0.16583	0.25829	0.35321	0.077019	0.214	0.21298	0.14628	-0.86667	-0.45625	-0.50833	-1.3167	-0.4625	-0.75	-1.3188	-0.64375	-1.0375	-0.7625	-0.45625	-1.4167	-0.44375	-0.77917	-0.98542	-0.36042	112.085	250.507	66.107	201.771	0.880	-48.989	211.521	192.134	-21.999	128.305	142.784	-89.268	244.916	191.841	50.321	224.178	0.00013625	0.0012028	0.00063722	1131.8	6.7663e-06	8.9244e-06	1480.7	360.52	4.3903e-06	1.1754e-05	525.56	208.92	129.35	63.851	1.4516e-05	109.35	0.0026096	0.0026905	0.00074938	1098.2	2.9562e-05	2.9409e-05	1387.6	365.24	2.9529e-05	2.9661e-05	536.16	203.73	133.43	62.606	2.9646e-05	102.99	248.115	-28.005	244.182	-81.790	175.388	124.810	-82.304	-76.487	63.957	-48.956	-77.393	-74.168	-71.686	-67.116	81.965	-70.326	-8191	255	
1627.053	1	1	0	0	0.11413	0.38612	0.25925	0.39116	0.14767	0.22033	0.12776	0.22328	0.10249	0.20066	0.18765	0.12387	0.2653	0.42907	0.022624	0.24392	-0.53958	-0.8125	-0.064583	-1.3563	-0.45625	-0.47708	-1.1875	-0.65208	-0.8625	-0.81458	-0.26458	-1.1708	-0.38125	-0.5625	-1.1	-0.50208	245.779	90.694	-27.777	252.993	-15.801	225.326	235.918	212.280	254.891	-19.621	187.384	210.988	250.336	237.487	-84.969	256.963	0.00021546	0.0020701	0.001084	1124.1	2.4408e-05	6.5888e-06	1479	360.23	1.8038e-05	1.066e-05	522.73	209.89	130.86	64.479	2.3783e-05	110.72	0.0026275	0.0027061	0.00075031	1101.9	2.9666e-05	2.9812e-05	1393.7	365.96	2.9623e-05	2.9738e-05	536.53	204.39	134.35	63.007	2.9895e-05	103.82	211.805	213.212	-72.482	-81.492	36.665	-55.917	-81.835	-76.741	44.422	228.605	-78.221	-73.197	-71.817	-67.128	5.262	-69.874	-8191	255	
1627.173	1	1	0	0	0.052496	0.28645	0.069917	0.17664	0.17931	0.090218	0.1713	0.24253	0.032542	0.12929	0.09004	0.12689	0.052895	0.10221	0.43066	0.25814	-0.79375	-0.96458	-0.3125	-1.1521	-0.52292	-0.49583	-1.4521	-0.39375	-0.78125	-1.1	-0.43958	-1.3438	-0.74375	-0.51458	-1.1667	-0.66042	-67.146	-92.078	213.346	160.088	-1.746	124.217	98.933	96.077	169.758	111.137	144.236	179.914	-36.139	7.476	104.426	201.107	0.00024205	0.0014931	0.00080544	1131.9	1.2138e-05	2.0135e-05	1498.3	362.23	1.0287e-05	1.1145e-05	528.68	211.59	129.84	64.728	8.5536e-06	111.57	0.0026368	0.0027181	0.0007558	1109.4	2.9793e-05	2.9768e-05	1406.4	367.6	2.9843e-05	2.9957e-05	540.71	206.26	134.89	63.359	2.9931e-05	104.59	170.466	-73.328	11.243	-81.376	-27.392	56.637	-82.486	-76.414	187.734	-4.109	-77.396	-73.590	-71.995	-66.659	-15.321	-70.013	-8191	255	
1627.245	1	1	0	0	0.05723	0.093838	0.19403	0.51888	0.16275	0.093737	0.14692	0.23333	0.17075	0.12767	0.069679	0.24432	0.21855	0.50825	0.23863	0.055612	-0.38333	-1.1979	-0.41875	-1.1458	-0.7	-0.40833	-1.2687	-0.35625	-0.83542	-1.0438	-0.30417	-1.1208	-0.97083	-0.46042	-1.3042	-0.6	-32.827	51.757	47.095	187.970	264.371	143.952	129.004	255.422	-59.192	196.099	243.799	162.910	247.973	182.170	73.409	165.725	0.00059039	0.00067956	0.00049455	1140.8	7.7297e-06	3.1904e-05	1503.9	360.58	1.0688e-05	2.0137e-05	522.44	210.88	130.88	64.063	1.4012e-05	110.93	0.0026333	0.0027168	0.00076006	1115.2	2.9776e-05	2.992e-05	1411	370.47	2.9785e-05	2.9908e-05	539.85	205.96	135.3	63.13	2.9933e-05	104.17	194.707	227.499	97.753	-81.979	-53.947	50.502	-82.238	-76.529	116.253	6.690	-77.741	-73.717	-71.569	-66.841	174.290	-70.311	-8191	255	
1627.341	1	1	0	0	0.17836	0.18114	0.17155	0.51883	0.20495	0.26051	0.060961	0.1742	0.061329	0.046867	0.1193	0.14568	0.22317	0.17791	0.15584	0.20659	-0.26042	-1.0396	-0.40417	-1.2604	-0.88333	-0.25833	-1.2833	-0.69375	-0.34792	-1.2771	-0.4625	-1.0958	-1.0021	-0.39375	-1.0125	-0.50417	-70.617	164.260	-2.148	242.265	124.413	10.709	110.136	79.515	252.031	141.470	141.833	-90.686	197.910	174.139	66.714	171.758	8.7906e-05	0.0022013	0.0007991	1148.7	2.4879e-05	1.408e-05	1504.5	365.18	1.8334e-05	1.6295e-05	526.41	211.33	132.17	64.546	2.9612e-05	110.29	0.0026473	0.0027194	0.00075537	1121.2	2.9793e-05	2.9968e-05	1412.9	371.71	2.9778e-05	2.9745e-05	541.58	205.8	135.6	63.243	2.9965e-05	103.99	181.286	22.376	-77.447	-81.418	232.170	-9.455	-81.854	-76.344	-27.373	-76.706	-77.284	-73.481	-71.817	-66.735	39.176	-70.329	-8191	255	
1627.437	1	1	0	0	0.20082	0.23382	0.11114	0.11025	0.21692	0.064921	0.4106	0.49919	0.073341	0.079272	0.11718	0.31811	0.31361	0.10934	0.12204	0.11529	0	-1.2313	-0.41042	-0.91458	-1.1417	-0.34792	-1.4167	-0.54792	-0.57292	-1.2667	-0.44792	-1.0958	-1.1812	-0.2625	-1.1542	-0.95625	227.458	-68.550	52.517	248.848	154.019	143.161	244.925	197.801	84.554	224.016	130.509	222.020	163.098	43.258	223.395	-92.096	0.00047949	0.00096056	0.00048121	1151.3	1.4818e-05	2.9915e-05	1506.3	363.23	1.8196e-05	1.7212e-05	530.36	213.3	131.82	64.868	1.8895e-05	111.38	0.0026522	0.0027257	0.00075769	1120.3	2.9749e-05	3.0113e-05	1418.8	371.03	2.9866e-05	2.9971e-05	541.73	207.3	135.89	63.459	3.0111e-05	104.21	176.163	-78.906	-53.459	-81.591	109.219	-53.707	-81.726	-76.487	219.984	155.373	-77.530	-73.451	-71.696	-67.121	60.636	-69.931	-8191	255	
1627.556	1	1	0	0	0.089839	0.15991	0.054801	0.16075	0.12189	0.15899	0.15901	0.013386	0.13798	0.32724	0.27153	0.16094	0.25415	0.16038	0.094502	0.31666	-0.070833	-1.1854	-0.32083	-1.1396	-1.0875	-0.36875	-1.3208	-0.75417	-0.31875	-1.2188	-0.52708	-0.78958	-1.1833	-0.38333	-1.0417	-0.98542	234.734	60.254	-17.946	30.343	165.422	14.330	161.090	101.018	87.476	190.426	163.381	205.527	251.240	62.585	17.790	205.338	0.00039131	0.0012836	0.00056953	1145.1	5.3304e-06	1.4541e-05	1508.5	365.86	1.551e-05	6.4255e-06	527.73	213.53	131.91	64.407	6.5728e-06	111.63	0.0026478	0.0027172	0.00075883	1121.3	2.9933e-05	2.988e-05	1416.7	371.08	2.9819e-05	3.0129e-05	542.32	207.21	136.16	63.408	3.0035e-05	104.54	189.550	-61.378	-34.497	-81.285	225.706	104.104	-82.035	-76.873	-0.241	141.606	-78.055	-73.446	-71.111	-66.850	9.500	-70.194	-8191	255	
1627.652	1	1	0	0	0.18767	0.14411	0.32298	0.49261	0.13893	0.084894	0.28129	0.20597	0.30941	0.10509	0.11292	0.09102	0.27326	0.2368	0.11466	0.32425	0.13125	-1.1437	-0.59792	-0.69167	-1.1146	-0.3375	-1.1667	-1.0521	-0.28333	-1.0771	-0.68958	-0.83958	-1.1042	-0.45208	-0.8375	-1.1417	32.362	230.425	159.720	220.265	144.944	107.756	222.980	134.700	205.312	143.897	240.103	19.736	238.880	232.483	165.713	127.665	0.00071795	0.0020654	0.00020299	1151.9	1.4852e-05	1.9796e-05	1509.6	365.13	3.5108e-06	1.2558e-05	528.13	211.53	132.8	64.372	5.9112e-06	110.45	0.002642	0.0027396	0.00076524	1122.8	2.9784e-05	3.002e-05	1420.6	372.23	2.9807e-05	3.0222e-05	544.23	206.72	136.34	63.406	3.0288e-05	104.16	203.405	18.610	-28.678	-81.903	184.081	108.814	-82.238	-76.815	-11.988	215.432	-77.686	-73.524	-72.047	-67.683	128.280	-70.497	-8191	255	
1627.748	1	1	0	0	0.081857	0.16832	0.16195	0.41005	0.311	0.16262	0.31066	0.15998	0.29006	0.23809	0.14931	0.15763	0.15815	0.27903	0.22615	0.23168	0.10417	-1.05	-0.61667	-0.38958	-1.0896	-0.40625	-0.83958	-1.2188	-0.27083	-0.98542	-0.84375	-0.47292	-1.1896	-0.58125	-0.66458	-1.1958	-91.054	-57.393	180.996	-30.138	137.093	-28.612	192.705	262.574	51.707	75.112	172.021	204.356	40.397	226.267	20.100	216.608	0.00063271	0.00010571	9.9389e-05	1147.3	1.834e-05	1.2282e-05	1514.2	362.81	9.1829e-06	2.6676e-05	532.22	210.12	131.66	64.27	2.0458e-05	110.78	0.0026428	0.0027501	0.00076471	1121.4	2.9917e-05	2.9971e-05	1417.9	370.63	2.9963e-05	2.9989e-05	540.27	205.22	135.45	63.062	2.9946e-05	103.82	160.825	-37.151	42.208	-81.558	50.181	243.355	-82.158	-76.626	101.449	209.981	-77.807	-73.527	-72.083	-67.309	74.232	-70.087	-8191	255	
1627.822	1	1	0	0	0.073681	0.11404	0.11853	0.33403	0.18753	0.17072	0.27647	0.12975	0.25336	0.066052	0.20382	0.26222	0.093262	0.1647	0.22568	0.24247	0.25	-1.1437	-0.76042	-0.62708	-1.1562	-0.51042	-0.7375	-1.4292	-0.18333	-0.98333	-0.94167	-0.49167	-1.2979	-0.5875	-0.6	-1.3896	230.952	200.169	53.409	-19.415	147.512	214.191	-90.422	118.914	45.111	53.251	66.776	205.191	-27.607	139.631	-68.992	260.185	0.00058515	0.00082126	0.00038133	1140.5	2.334e-05	7.0678e-06	1494.5	366.19	6.9093e-06	2.9849e-05	530.24	210.85	131.72	64.175	1.3886e-05	110.14	0.0026297	0.0027494	0.00076125	1115.1	2.9516e-05	2.9914e-05	1409.9	369.87	2.9774e-05	3.0102e-05	539.56	205.33	135.58	63.127	2.9969e-05	103.41	192.636	97.214	126.971	-81.645	52.328	-30.392	-81.378	-76.069	148.763	57.140	-76.809	-72.969	-71.148	-67.132	114.116	-70.029	-8191	255	
1627.941	1	1	0	0	0.14131	0.16806	0.19731	0.12145	0.12318	0.22169	0.12473	0.15524	0.10658	0.27688	0.23227	0.2038	0.073646	0.069439	0.1642	0.3941	0.0083333	-0.80208	-0.93542	-0.35	-1.0938	-0.71042	-0.62292	-1.1229	-0.275	-0.91667	-1.2896	-0.53542	-1.2437	-0.81667	-0.19167	-1.5229	51.696	57.732	92.094	136.672	133.756	260.486	153.284	257.960	84.415	247.357	187.956	253.156	182.850	-17.885	262.704	205.803	0.00028468	0.0016754	8.4489e-05	1146.2	2.4519e-05	1.5237e-05	1490.8	361.31	3.7975e-05	1.729e-05	523.02	210.61	131.15	64.313	7.4917e-06	110.71	0.002635	0.0027412	0.00076194	1114.1	2.9672e-05	2.9962e-05	1407.8	369.41	2.9843e-05	3.0308e-05	537.97	204.81	135.38	63.007	3.0062e-05	103.45	202.499	163.517	176.129	-80.969	-87.422	124.645	-81.971	-76.704	44.257	-43.869	-76.418	-73.171	-70.943	-66.328	-35.529	-69.419	-8191	255	
1628.037	1	1	0	0	0.22969	0.10931	0.064401	0.31325	0.10127	0.085922	0.16069	0.083812	0.041728	0.13843	0.31679	0.24721	0.27699	0.092076	0.2356	0.20926	-0.022917	-0.75	-1.2104	-0.28333	-1.0458	-0.89375	-0.57917	-1.2646	-0.3875	-0.90833	-1.1333	-0.35833	-0.98333	-0.90208	-0.34792	-1.5375	69.271	149.390	15.513	202.226	38.727	224.183	118.968	262.826	85.171	-72.535	240.957	198.066	-81.712	-27.073	120.119	207.635	0.00026461	0.001973	0.00026227	1149.7	9.3121e-06	1.3694e-05	1487.5	362.62	1.402e-05	5.791e-06	523.78	210.71	132.46	63.872	8.4325e-06	110.49	0.002641	0.0027337	0.00075668	1117.3	2.9687e-05	3.0042e-05	1408.5	368.76	2.987e-05	2.9942e-05	538.53	205.27	135.44	62.885	2.9688e-05	103.61	228.855	15.700	-30.374	-80.922	-81.170	203.471	-82.032	-75.782	80.599	26.566	-77.050	-72.907	-70.512	-65.964	118.795	-68.995	-8191	255	
1628.133	1	1	0	0	0.16193	0.16013	0.11325	0.13157	0.10241	0.061117	0.38201	0.18388	0.19181	0.28733	0.020436	0.12487	0.24061	0.16828	0.16255	0.21063	-0.047917	-0.30208	-1.0458	-0.097917	-0.93542	-0.92083	-0.30208	-1.1479	-0.39375	-0.58125	-1.3875	-0.4625	-1.0083	-0.88125	-0.25	-1.3438	2.732	54.562	-32.974	-29.812	34.442	146.503	200.428	219.027	219.312	-11.229	0.556	162.061	-81.255	199.821	169.843	-44.304	0.00036697	0.0026485	0.0002554	1150.4	1.6548e-05	2.4342e-05	1492.1	362.95	1.7801e-05	2.0282e-05	523.7	209.61	130.6	64.017	1.9936e-05	110.01	0.0026411	0.0027148	0.00075654	1114.9	2.9586e-05	2.9843e-05	1403.5	367.81	2.9772e-05	2.9573e-05	536.42	203.91	135.02	62.852	2.9408e-05	103	176.814	-75.573	47.070	-80.973	157.168	88.334	-81.792	-75.188	51.249	132.847	-76.328	-73.129	-70.650	-66.512	-18.194	-69.156	-8191	255	
1628.254	1	1	0	0	0.20328	0.042977	0.1059	0.1038	0.16255	0.16194	0.32245	0.16665	0.073378	0.27133	0.29665	0.24083	0.13275	0.075203	0.081589	0.30261	-0.275	-0.45	-1.1812	-0.14375	-0.71667	-1.0042	-0.28542	-0.98125	-0.54167	-0.45208	-1.2792	-0.45625	-0.86667	-1.1562	-0.1125	-1.3167	224.946	192.218	195.514	-25.569	133.082	242.618	258.335	251.840	-71.483	-68.873	218.033	207.028	-74.275	155.410	-1.426	244.588	0.00052504	0.0024473	0.00038528	1145.2	4.4393e-06	1.6265e-05	1494.4	362.09	2.1983e-05	2.0672e-05	527.39	210.02	131.61	64.375	1.3399e-05	110.35	0.0026084	0.002692	0.0007455	1111.2	2.9567e-05	2.9338e-05	1403.2	367.98	2.9248e-05	2.9674e-05	535.83	204.48	134.83	62.796	2.9372e-05	103.42	176.981	-24.912	2.862	-80.902	37.690	5.679	-80.945	-75.290	77.717	189.493	-76.661	-72.282	-71.021	-66.630	77.517	-68.966	-8191	255	
1628.350	1	1	0	0	0.33937	0.069286	0.42274	0.099956	0.20691	0.23598	0.49975	0.21751	0.18242	0.11075	0.1316	0.31705	0.30524	0.16883	0.2182	0.28727	-0.41875	-0.41875	-1.0708	-0.46042	-0.68542	-1.1354	-0.48333	-1.0896	-0.58333	-0.25833	-1.35	-0.72917	-0.58958	-1.2771	-0.37917	-1.1667	173.198	245.387	-11.607	166.196	-58.552	243.017	183.550	130.463	167.395	38.032	262.903	236.140	201.061	164.488	-35.685	97.546	6.9773e-05	0.0018339	0.00036333	1139	1.4969e-05	1.5111e-05	1495.4	364.6	1.5215e-05	1.2647e-05	528.32	208.93	130.9	64.472	9.0377e-07	110.61	0.0026221	0.002671	0.00075151	1109	2.9345e-05	2.944e-05	1402.1	368.6	2.9343e-05	2.9512e-05	535.85	204.14	134.42	62.817	2.9299e-05	103.39	238.394	38.084	3.294	-80.545	177.533	-56.803	-81.228	-75.579	32.832	-43.304	-76.637	-72.874	-70.996	-66.474	4.956	-68.925	-8191	255	
1628.444	1	1	0	0	0.3987	0.21882	0.10237	0.1381	0.10089	0.27638	0.2761	0.15834	0.27339	0.076836	0.20215	0.23719	0.036041	0.16945	0.012787	0.26798	-0.60417	-0.11458	-1.1021	-0.69375	-0.45	-1.0938	-0.47708	-0.96875	-1.0479	-0.18333	-1.2958	-0.8125	-0.53958	-1.4875	-0.38958	-0.85417	115.926	81.744	220.180	43.636	96.279	-19.428	211.280	-67.528	-21.232	10.707	250.728	262.503	-58.054	-33.107	204.567	177.052	0.00041506	0.00094152	0.00038852	1135.4	6.4669e-06	1.1585e-05	1489.7	360.96	7.0286e-06	2.6763e-05	528.52	211.4	130.41	64.476	1.3935e-05	111.49	0.0026	0.0026721	0.00074111	1106.4	2.9359e-05	2.9181e-05	1398.7	367.19	2.9239e-05	2.9258e-05	536.96	204.8	134.51	62.957	2.9063e-05	103.95	182.109	138.377	220.799	-80.862	147.892	254.187	-81.207	-75.744	37.821	-28.793	-76.555	-73.138	-71.198	-66.881	224.086	-69.530	-8191	255	
1628.542	1	1	0	0	0.19445	0.19066	0.12805	0.089749	0.44963	0.15808	0.067744	0.1238	0.23031	0.33008	0.27749	0.16589	0.1659	0.24187	0.16147	0.25857	-0.74167	-0.21042	-1.0229	-0.69375	-0.4625	-1.3021	-0.54583	-0.69792	-1.0229	-0.24583	-1.2479	-0.96875	-0.5875	-1.2417	-0.525	-0.94167	99.371	237.409	-9.654	120.564	259.966	47.625	151.184	121.995	27.363	-70.004	241.983	-69.371	-10.504	250.938	165.666	100.884	0.00031433	0.00036106	0.00029471	1140.9	8.4357e-06	1.9383e-05	1488.8	361.34	2.8359e-05	2.4742e-05	526.86	210.86	130.6	64.007	3.2922e-06	109.98	0.002559	0.0026728	0.00073893	1107	2.907e-05	2.9154e-05	1397.7	367.6	2.8891e-05	2.9075e-05	535.76	204.17	133.99	62.446	2.8875e-05	103.22	77.783	244.439	87.663	-81.030	160.927	-0.804	-81.241	-75.729	-4.016	-52.131	-76.691	-73.074	-70.897	-66.298	10.937	-69.622	-8191	255	
1628.636	1	1	0	0	0.25992	0.17621	0.30717	0.1316	0.070842	0.21197	0.53639	0.13773	0.23938	0.20467	0.23353	0.11021	0.26743	0.30026	0.036537	0.11546	-0.64167	-0.30208	-0.875	-0.90625	-0.27083	-1.3062	-0.64792	-0.68542	-1.3833	-0.24375	-1.175	-1.0312	-0.37708	-1.2437	-0.50833	-0.74792	52.572	63.597	42.797	221.982	154.556	248.562	228.647	221.308	106.699	193.667	6.765	186.161	-69.039	246.800	185.907	-64.700	0.00046968	0.0016112	0.00060016	1136	1.0074e-05	2.5353e-05	1487.3	359.97	8.4301e-06	2.5751e-05	523.76	210.02	130.35	63.644	2.0242e-05	110.28	0.0025622	0.0026309	0.00073738	1102.3	2.8792e-05	2.925e-05	1395.3	365.57	2.873e-05	2.9049e-05	533.87	202.89	133.23	62.339	2.9099e-05	103.09	190.029	-5.830	154.805	-81.254	92.415	2.347	-81.845	-75.555	224.572	45.378	-77.445	-72.973	-71.377	-66.746	32.292	-69.583	-8191	255	
1628.733	1	1	0	0	0.057488	0.072689	0.11196	0.21977	0.18202	0.06675	0.27882	0.27795	0.094669	0.17541	0.23183	0.19992	0.12869	0.10224	0.12377	0.13732	-0.85417	-0.50208	-0.79167	-1.0271	-0.40833	-1.1104	-0.81042	-0.84583	-1.1875	-0.22917	-0.92292	-0.9125	-0.33542	-1.2958	-0.73542	-0.65208	-88.417	55.900	184.435	-71.989	-70.947	170.117	231.591	244.337	211.112	-53.354	-40.614	240.952	241.407	-40.032	146.148	187.297	0.00047554	0.0021123	0.00021611	1131.1	1.2102e-05	2.8538e-05	1488.6	362.65	8.5231e-06	1.9874e-05	528.53	211.6	129.93	64.042	1.876e-05	111.01	0.0025522	0.0026497	0.00073854	1100.6	2.8774e-05	2.8951e-05	1395.4	366.08	2.8696e-05	2.9077e-05	535.52	204.93	133.88	62.503	2.907e-05	103.79	164.681	-82.405	-79.536	-80.749	5.191	-43.804	-82.282	-76.117	-0.660	-52.024	-77.529	-73.420	-70.977	-67.299	192.217	-70.103	-8191	255	
1628.853	1	1	0	0	0.12457	0.23959	0.016182	0.31062	0.090984	0.18439	0.34768	0.099034	0.1352	0.18455	0.18033	0.33287	0.2207	0.076182	0.23388	0.21763	-0.76458	-0.36875	-0.66042	-1.2375	-0.32292	-1.0063	-0.96042	-0.60208	-1.3021	-0.5125	-0.93542	-1.0271	-0.47708	-0.98542	-0.66458	-0.51042	-34.120	20.282	159.041	194.705	243.106	106.507	224.150	190.388	147.920	179.918	224.696	184.352	209.313	121.296	139.496	-41.562	0.00012906	0.0011318	0.00053989	1120.1	1.3808e-05	1.6638e-05	1481.7	357.33	2.6399e-05	1.6423e-05	532.38	212.84	129.91	64.272	1.3097e-05	112.03	0.002556	0.0026503	0.00073836	1089	2.8884e-05	2.9033e-05	1387.5	363.79	2.881e-05	2.9181e-05	538.64	205.67	133.2	62.499	2.8926e-05	104.15	203.609	-72.640	253.610	-81.566	27.790	-39.640	-82.138	-76.188	85.947	212.731	-77.109	-73.973	-72.040	-67.084	7.136	-69.718	-8191	255	
1628.949	1	1	0	0	0.28843	0.13547	0.27671	0.39427	0.2508	0.21857	0.13042	0.2064	0.36321	0.25619	0.26715	0.11105	0.18623	0.10692	0.13427	0.13168	-0.7625	-0.3875	-0.29792	-1.1083	-0.11458	-0.90833	-1.0667	-0.33125	-1.25	-0.72708	-0.56875	-1.3125	-0.41458	-1.0812	-1.0104	-0.44583	149.315	29.471	-3.398	247.307	244.037	63.663	204.434	257.976	-62.900	255.781	192.803	-60.516	262.863	211.352	105.483	225.706	0.00035522	0.0019829	0.0006501	1118.2	2.1529e-05	1.127e-05	1481.4	360.08	9.4358e-07	1.9436e-05	528.21	213.02	130.73	64.171	3.0613e-06	112.19	0.0025453	0.0026601	0.00073643	1089.9	2.8891e-05	2.9122e-05	1388.8	365.34	2.8846e-05	2.9097e-05	538.39	205.49	134.02	62.795	2.9092e-05	104.36	251.287	30.865	-22.994	-81.179	77.317	230.703	-82.432	-76.441	-22.192	184.473	-77.263	-73.391	-71.549	-66.804	111.233	-69.684	-8191	255	
1629.045	1	1	0	0	0.16117	0.10193	0.23702	0.056901	0.20245	0.11329	0.2396	0.26048	0.12377	0.21519	0.10527	0.18808	0.091494	0.27918	0.15432	0.21631	-0.85208	-0.44375	-0.55	-1.35	-0.39583	-0.875	-1.1854	-0.29375	-1.2625	-0.63958	-0.575	-1.2333	-0.5	-0.8125	-1.0479	-0.21667	184.405	202.425	136.449	105.333	-66.166	23.490	196.100	231.065	7.322	46.237	259.993	141.904	188.253	204.150	-16.419	215.994	0.00026266	0.0022631	0.0001166	1125.8	1.1134e-05	1.4672e-05	1486.8	364.33	1.448e-06	1.8124e-05	533.71	213.3	131.19	64.604	2.8605e-05	112.5	0.0025657	0.0026605	0.00073727	1093.3	2.8922e-05	2.9101e-05	1392.5	367.04	2.9024e-05	2.9218e-05	537.91	206.08	134.18	63.048	2.9208e-05	104.51	151.782	49.020	32.399	-80.373	57.841	43.499	-80.891	-75.256	231.614	180.785	-76.658	-72.801	-70.803	-66.510	111.335	-69.256	-8191	255	
1629.117	1	1	0	0	0.097299	0.17176	0.17757	0.5007	0.17476	0.066859	0.43216	0.23762	0.37056	0.21152	0.24227	0.2211	0.17078	0.24866	0.077998	0.14137	-0.70833	-0.925	-0.39375	-1.3771	-0.36667	-0.66875	-1.075	-0.46458	-1.0542	-0.83125	-0.34792	-1.3271	-0.61875	-0.73958	-1.0396	-0.52917	193.267	217.191	-51.087	259.233	93.191	119.759	164.931	-28.577	132.189	-51.054	258.831	236.384	61.325	239.144	34.196	38.209	0.00039284	0.00060841	0.00092503	1127.4	2.0372e-05	1.7142e-05	1487.9	361.56	3.5619e-05	2.8027e-05	534	215.12	131.36	64.965	3.3711e-06	113.01	0.0025776	0.0026753	0.00073742	1095.1	2.8965e-05	2.927e-05	1395.9	367.79	2.907e-05	2.9132e-05	541.58	207.55	134.69	63.137	2.9084e-05	105.08	184.687	-53.608	-27.773	-80.751	-8.389	38.801	-81.709	-76.219	-60.840	24.041	-76.717	-72.700	-71.560	-66.653	176.581	-69.738	-8191	255	
1629.238	1	1	0	0	0.047943	0.10323	0.1671	0.10016	0.20207	0.19892	0.25213	0.29613	0.10993	0.033975	0.20562	0.028831	0.21004	0.17283	0.28755	0.16132	-0.57083	-1.0438	-0.475	-1.2875	-0.47917	-0.62708	-1.3708	-0.39167	-0.76458	-0.88333	-0.33542	-1.2458	-0.94167	-0.59583	-1.2646	-0.42917	234.851	147.132	-90.456	-21.597	40.288	225.755	148.252	205.921	164.219	85.694	249.827	109.447	177.416	213.091	256.479	234.201	0.00035577	0.0004485	0.00046277	1136.3	1.5449e-05	1.708e-05	1499.5	362.25	3.4003e-05	2.8868e-05	535.73	216.47	131.57	64.678	1.9422e-05	113.9	0.0025892	0.0026659	0.00073732	1101.1	2.9198e-05	2.9382e-05	1403	368.2	2.9436e-05	2.9351e-05	543.62	208.54	135.2	63.142	2.9224e-05	105.88	228.667	201.567	-58.066	-80.502	182.835	33.044	-81.344	-75.841	34.122	28.429	-77.304	-73.549	-71.337	-67.525	83.107	-70.579	-8191	255	
1629.334	1	1	0	0	0.082694	0.24273	0.065271	0.25721	0.11204	0.078716	0.27269	0.1668	0.30617	0.050876	0.39006	0.28674	0.057956	0.25469	0.17167	0.1448	-0.33958	-0.91458	-0.35417	-1.125	-0.67917	-0.24375	-1.2979	-0.64792	-0.69375	-0.95	-0.55417	-1.1063	-0.70833	-0.33542	-1.1458	-0.73333	110.180	-31.837	89.570	124.379	75.108	108.873	236.560	-0.076	137.003	126.807	242.269	197.853	191.566	-78.435	60.455	113.819	0.00041182	0.00081927	0.00032821	1135.6	2.4346e-05	2.3964e-05	1510	364.88	1.4716e-05	2.4443e-05	532.32	214.84	132.46	65.484	9.209e-06	114.05	0.0026147	0.0026746	0.00074379	1104.9	2.9636e-05	2.9428e-05	1407.3	370.08	2.9407e-05	2.9572e-05	544.05	209.23	136.36	63.683	2.9444e-05	105.96	176.928	211.494	253.772	-81.649	99.224	78.874	-82.116	-75.455	132.389	144.205	-77.785	-73.666	-71.706	-66.915	173.274	-70.266	-8191	255	
1629.430	1	1	0	0	0.13127	0.13075	0.08994	0.2951	0.20427	0.27777	0.19469	0.23701	0.054955	0.21894	0.10544	0.14921	0.10548	0.018964	0.13888	0.067932	-0.25	-0.81042	-0.20208	-1.1896	-0.8	-0.22292	-1.2292	-0.59583	-0.51458	-1.1	-0.11458	-1.1146	-0.83542	-0.175	-1.1833	-0.70417	40.855	44.150	110.828	224.176	-50.168	62.322	-94.451	214.764	259.124	66.342	236.757	230.348	219.310	256.036	16.614	54.370	0.00045472	0.0012955	0.00093659	1143.3	9.2781e-06	2.5674e-05	1499.3	367.63	9.1352e-06	1.2611e-05	543.7	215.89	132.6	65.561	1.5571e-05	112.46	0.0026107	0.0027045	0.00074753	1113.1	2.939e-05	2.9495e-05	1409.4	372.58	2.9551e-05	2.9425e-05	545.87	208.52	136.5	63.751	2.9644e-05	105.16	172.248	-2.984	-72.921	-81.903	174.894	-4.206	-82.941	-77.179	104.530	-33.619	-78.044	-73.813	-72.001	-67.134	-13.831	-70.313	-8191	255	
1629.526	1	1	0	0	0.20691	0.10443	0.12242	0.18032	0.11525	0.30894	0.23113	0.024977	0.11766	0.14682	0.16795	0.17118	0.16264	0.40187	0.046384	0.41305	-0.19167	-1.1562	-0.30833	-1.0812	-0.92917	-0.43958	-1.3708	-0.62708	-0.16875	-1.1583	-0.26875	-0.99375	-0.94167	-0.47917	-1.0604	-0.59375	211.157	65.159	-11.504	239.307	29.764	89.229	94.287	-55.400	109.446	234.591	191.671	193.471	161.980	-80.837	-30.022	175.334	0.00024776	0.0026341	0.0004718	1146.3	6.3208e-06	6.818e-06	1503.9	365.2	7.898e-06	1.3274e-05	535.29	215.01	131.35	64.767	1.3691e-05	112.87	0.0026156	0.0027023	0.00074982	1115.3	2.949e-05	2.9543e-05	1412.8	372	2.949e-05	2.9592e-05	543.45	208.5	135.84	63.399	2.9829e-05	105.58	135.988	17.266	217.504	-81.510	-7.662	4.089	-81.722	-76.028	131.725	-20.057	-77.257	-73.241	-71.481	-67.434	-69.084	-69.314	-8191	255	
1629.622	1	1	0	0	0.21678	0.2496	0.13719	0.137	0.15025	0.18502	0.30057	0.16058	0.1095	0.22272	0.070183	0.21409	0.20975	0.21527	0.17447	0.34064	0.14792	-1.1771	-0.44792	-1.0312	-1.0271	-0.325	-1.0917	-0.79583	-0.47708	-1.2021	-0.36667	-0.71042	-1.2833	-0.24583	-0.95208	-1.0896	120.102	30.446	105.167	125.744	-23.974	71.277	210.683	247.368	-42.576	43.592	-61.988	233.016	206.048	241.746	104.268	197.367	0.00026034	0.0011702	0.00034088	1144.3	1.5226e-05	2.4077e-05	1502.3	364.42	9.9727e-06	1.5484e-05	529.62	213.77	132.46	65.154	1.6909e-05	112.74	0.0026149	0.0027183	0.00075712	1115	2.954e-05	2.9488e-05	1411.5	370.22	2.9487e-05	2.9783e-05	542.85	207.48	135.64	63.478	3.0032e-05	105.33	200.352	54.556	245.763	-81.089	72.529	80.074	-81.330	-75.731	-43.927	264.799	-77.055	-73.072	-71.523	-66.609	77.457	-70.008	-8191	255	
1629.717	1	1	0	0	0.2372	0.33509	0.42589	0.29226	0.20876	0.2428	0.22498	0.22067	0.18586	0.14231	0.21177	0.26381	0.19126	0.28343	0.14952	0.26293	-0.033333	-1.1938	-0.60625	-0.68125	-0.96875	-0.37083	-1.0625	-1.1375	-0.25417	-1.0917	-0.65417	-0.76875	-1.2	-0.54167	-0.84792	-1.1854	200.920	-44.702	165.420	-81.878	235.391	-0.978	160.637	-24.170	135.210	-3.053	238.571	-87.451	-82.934	-29.197	-67.766	218.127	0.00035972	0.0021912	3.5927e-05	1145.1	8.0048e-06	1.6835e-05	1511.8	365.64	1.8505e-05	1.8317e-05	532.53	215.45	133.25	64.643	3.7143e-06	112.43	0.0026131	0.0027163	0.00075942	1117.4	2.9527e-05	2.976e-05	1417.3	372.83	2.9401e-05	2.9766e-05	545.02	207.93	136.59	63.673	2.9946e-05	105.14	161.365	71.669	-49.966	-81.511	257.606	91.100	-81.552	-75.489	25.419	-35.380	-76.786	-72.654	-71.277	-66.366	-22.513	-69.095	-8191	255	
1629.813	1	1	0	0	0.21687	0.38985	0.21599	0.26739	0.14784	0.083097	0.10107	0.12868	0.29024	0.27131	0.42778	0.23048	0.21162	0.56241	0.057396	0.1051	0.058333	-1.1583	-0.60417	-0.62292	-1.0938	-0.36458	-1	-1.1542	-0.19167	-1.0312	-0.94583	-0.62917	-1.2833	-0.3875	-0.64583	-1.3354	194.511	200.803	137.012	193.177	-26.686	84.459	261.466	156.469	95.758	-83.797	159.382	193.947	-58.797	250.785	-7.678	217.207	0.00046568	0.0011943	0.00015388	1146.3	2.7345e-06	1.8682e-05	1513	368.94	2.3744e-05	2.26e-05	527.09	211.19	133.47	64.691	1.5341e-05	111.88	0.0026186	0.0027148	0.0007546	1120.5	2.9343e-05	2.9823e-05	1419.1	372.25	2.9387e-05	3.0046e-05	539.81	206	136.08	63.319	2.979e-05	104.46	195.812	20.542	143.775	-80.859	171.624	74.800	-81.564	-75.940	109.446	249.574	-76.344	-72.723	-70.864	-66.512	-36.539	-69.312	-8191	255	
1629.934	1	1	0	0	0.26963	0.1218	0.058003	0.22904	0.33949	0.20345	0.079113	0.051022	0.064117	0.15032	0.096526	0.1521	0.12186	0.32206	0.095092	0.1255	0.11042	-1.1437	-0.64375	-0.35833	-1.075	-0.41458	-0.78958	-1.2854	-0.45208	-0.89792	-0.775	-0.525	-1.2417	-0.66875	-0.4875	-1.275	146.403	22.469	12.771	-66.560	167.080	-86.682	200.556	116.134	-48.787	238.314	-62.699	217.171	154.340	205.313	206.087	167.144	0.00037771	0.0024026	0.00067596	1151.9	2.3283e-05	1.1111e-05	1506.4	367.55	1.5832e-05	4.6464e-06	533.16	213.6	133.49	64.842	9.5221e-06	112.66	0.002611	0.0027223	0.00075276	1120.3	2.9461e-05	2.9827e-05	1413.7	371.13	2.9448e-05	2.9845e-05	541.36	207.19	136	63.412	2.9706e-05	105.26	160.152	-62.466	5.924	-80.356	198.496	35.118	-80.860	-75.486	173.258	263.592	-77.004	-73.004	-70.927	-66.458	108.382	-69.315	-8191	255	
1630.030	1	1	0	0	0.19455	0.28021	0.10705	0.10435	0.21118	0.16732	0.17877	0.30681	0.14445	0.16522	0.22024	0.276	0.19675	0.16998	0.01459	0.064403	-0.085417	-1.0146	-0.73333	-0.43333	-1.2687	-0.72708	-0.75	-1.3458	-0.20833	-0.86875	-1.1521	-0.38542	-1.2333	-0.95	-0.51875	-1.3979	108.415	226.442	198.522	164.714	-80.069	-74.023	-88.019	-86.871	-41.657	52.735	168.825	262.251	-92.840	1.459	224.699	160.027	8.5636e-05	0.00052488	0.00020002	1140.5	2.8152e-05	2.1169e-05	1495	367.04	2.0722e-05	7.2908e-06	528.71	213.83	132.97	65.046	2.3727e-05	113.37	0.0026148	0.0027056	0.00075206	1112.2	2.9424e-05	2.9686e-05	1408.3	369.93	2.9259e-05	2.9729e-05	541.76	207.56	136.03	63.425	2.9412e-05	105.42	223.101	247.127	38.293	-80.965	-23.360	111.945	-81.307	-75.728	7.271	205.255	-76.633	-73.107	-70.696	-66.680	79.641	-69.759	-8191	255	
1630.126	1	1	0	0	0.15534	0.13686	0.11196	0.25813	0.24522	0.11374	0.43503	0.16435	0.14717	0.096831	0.41993	0.13498	0.23877	0.23921	0.19505	0.36386	0.10208	-0.95833	-0.93333	-0.35833	-1.1938	-0.70417	-0.53333	-1.4438	-0.425	-0.82083	-1	-0.33542	-1.0875	-0.75833	-0.24583	-1.4417	60.578	201.316	180.234	-87.793	192.016	4.216	178.788	165.531	190.058	163.037	224.874	127.976	-89.617	-84.238	167.283	-86.962	0.00022244	0.0025164	0.00023757	1149.1	3.0784e-06	8.5618e-06	1496.4	369.09	2.7759e-05	5.068e-06	532.2	214.89	134.71	65.475	1.7974e-05	113.32	0.0026082	0.0026956	0.00074646	1112.9	2.9306e-05	2.9614e-05	1411	371.53	2.9265e-05	2.9527e-05	542.41	207.65	137.08	63.624	2.9475e-05	105.56	189.606	148.057	17.253	-81.292	-29.530	233.522	-81.528	-75.980	-2.878	95.321	-76.455	-73.260	-71.181	-66.491	-24.141	-69.205	-8191	255	
1630.222	1	1	0	0	0.22567	0.10319	0.26676	0.10944	0.20602	0.18069	0.3123	0.08368	0.043285	0.14526	0.12272	0.33125	0.051561	0.15736	0.19977	0.36564	-0.04375	-0.48958	-0.825	-0.45	-0.9375	-0.72292	-0.69167	-1.2062	-0.52917	-0.70833	-1.2667	-0.32917	-1.0187	-1.0208	-0.26875	-1.3396	41.282	53.098	196.487	-78.460	28.908	70.911	150.207	204.165	-15.383	-8.211	-8.508	171.484	130.654	254.760	29.634	216.352	0.0005715	0.0028109	0.00073268	1151.2	2.1321e-05	2.9378e-05	1509.4	366.95	1.2086e-05	1.1773e-06	531.36	213.43	133.7	64.98	1.1208e-05	112.42	0.0026079	0.0026677	0.00073747	1117.6	2.9422e-05	2.9272e-05	1412.3	371.59	2.9193e-05	2.9389e-05	539.32	206.92	136.72	63.457	2.9307e-05	105.12	190.420	-59.164	19.728	-81.089	-2.841	148.509	-81.615	-76.093	-4.818	175.137	-76.736	-73.060	-70.986	-66.769	132.698	-69.175	-8191	255	
1630.343	1	1	0	0	0.11903	0.020515	0.1742	0.46538	0.27985	0.25861	0.1837	0.23869	0.10172	0.11755	0.16475	0.56234	0.16904	0.18131	0.11272	0.19804	-0.12917	-0.46042	-1.1271	-0.35417	-0.73958	-0.83958	-0.53125	-0.93958	-0.5125	-0.41875	-1.0771	-0.47708	-0.85417	-1.0292	-0.12083	-1.1958	-28.833	118.636	155.276	200.717	82.636	24.394	95.159	-80.487	-78.241	176.593	165.649	190.604	150.485	208.275	167.283	227.206	0.00020135	0.0029673	0.00081666	1150.6	1.9313e-05	4.3387e-06	1503.3	366.3	6.8081e-06	1.149e-05	533.85	215.01	133.1	65.898	5.5581e-06	113.19	0.0026046	0.0026624	0.00073889	1116	2.9379e-05	2.9305e-05	1408.9	370.84	2.9285e-05	2.9388e-05	540.59	207.48	136.55	63.566	2.9205e-05	105.48	255.352	2.613	-14.536	-81.327	-90.339	87.778	-81.404	-76.257	63.655	259.085	-77.135	-73.191	-71.385	-66.781	127.616	-69.856	-8191	255	
1630.414	1	1	0	0	0.41979	0.169	0.27735	0.29558	0.17828	0.27089	0.3296	0.16429	0.18097	0.18591	0.26338	0.21877	0.17516	0.090208	0.16113	0.32461	-0.35	-0.38333	-1.1583	-0.48125	-0.80625	-1.1021	-0.34167	-1.2208	-0.69583	-0.18958	-1.1979	-0.42708	-0.65417	-0.98333	-0.26042	-1.2208	145.459	258.117	199.221	-93.479	-45.470	-14.129	235.655	224.698	248.096	128.022	227.501	77.069	-86.807	147.290	189.283	204.473	0.00052537	0.00025417	0.00045908	1144.9	1.392e-05	5.036e-06	1492	366.94	1.6049e-05	2.647e-05	532.48	212.34	131.84	64.597	3.3552e-05	113.31	0.0026062	0.0026504	0.0007408	1111.6	2.9348e-05	2.9236e-05	1406.3	370.68	2.921e-05	2.9225e-05	539.64	206.89	135.62	63.443	2.9203e-05	105.82	207.934	-75.599	148.014	-81.282	112.772	26.638	-82.036	-76.238	131.771	125.074	-76.881	-73.701	-71.281	-66.647	93.973	-69.554	-8191	255	
1630.535	1	1	0	0	0.13392	0.067031	0.29864	0.44451	0.21875	0.15709	0.23895	0.15003	0.17971	0.071916	0.10912	0.23424	0.087127	0.13215	0.13783	0.16218	-0.51667	-0.09375	-1.2354	-0.37292	-0.63125	-1.1729	-0.47083	-0.88333	-0.74583	-0.32083	-1.1187	-0.47917	-0.45208	-1.2375	-0.39583	-0.99375	123.217	-41.359	77.696	172.202	-42.409	41.365	182.880	199.994	-85.761	168.730	-69.448	-89.748	254.999	243.948	-9.809	-51.671	0.00032287	0.00073059	0.0001428	1127	6.8582e-07	1.1843e-05	1508.6	361.54	1.419e-05	1.4932e-05	531.78	214.9	132.44	64.788	7.9603e-06	113.15	0.0025971	0.0026651	0.00074555	1107.9	2.9251e-05	2.9114e-05	1406.5	368.41	2.9192e-05	2.9397e-05	541.04	207.68	135.68	63.371	2.9536e-05	106.02	169.009	109.570	-47.322	-81.307	123.875	214.680	-82.125	-76.225	100.348	155.593	-77.498	-73.591	-71.608	-67.535	-87.103	-70.270	-8191	255	
1630.629	1	1	0	0	0.11915	0.1933	0.14177	0.17281	0.29888	0.14757	0.13463	0.45192	0.056451	0.096589	0.10294	0.34206	0.46761	0.30375	0.15019	0.078845	-0.52083	-0.12292	-1.0229	-0.63542	-0.50417	-1.4229	-0.54375	-0.87708	-0.94583	-0.11458	-1.1708	-0.72917	-0.53333	-1.25	-0.6	-0.82292	-32.969	250.724	150.431	218.000	62.904	-70.261	244.184	158.064	-69.157	168.307	261.382	-57.543	215.957	252.419	-54.240	139.229	0.00026688	0.0029342	0.00034848	1142.4	1.1661e-05	2.6242e-05	1497	365.98	9.2084e-06	2.0124e-06	532.48	212.61	132.45	65.449	3.5653e-06	113.09	0.0025891	0.0026651	0.00074714	1110.3	2.9116e-05	2.9037e-05	1403.5	370.86	2.9101e-05	2.9336e-05	540.43	206.93	135.6	63.656	2.9399e-05	105.47	223.982	124.063	82.522	-82.080	64.554	3.500	-82.150	-76.730	-0.487	-87.151	-78.203	-74.351	-72.091	-67.854	140.180	-70.551	-8191	255	
1630.725	1	1	0	0	0.46858	0.12176	0.046815	0.11209	0.1293	0.087749	0.090011	0.084416	0.343	0.18855	0.34469	0.15517	0.14203	0.31321	0.073896	0.27604	-0.6625	-0.095833	-1.0375	-0.93333	-0.23125	-1.2687	-0.49167	-0.68125	-0.95625	-0.26875	-0.85625	-0.94375	-0.38333	-1.1333	-0.46042	-0.75208	78.513	205.462	187.325	-73.027	29.807	121.729	164.710	-91.403	-94.922	139.014	217.336	225.821	214.823	204.992	27.008	256.678	0.00033261	0.00099213	0.0004992	1151.5	1.6275e-05	5.0326e-06	1500	368.84	2.8728e-05	2.1207e-05	529.95	212.27	133.66	65.1	9.6649e-06	113.43	0.0025902	0.0026627	0.00074748	1115.6	2.894e-05	2.9269e-05	1409.6	372.18	2.8932e-05	2.943e-05	539.93	206.63	136.24	63.532	2.9379e-05	105.69	203.703	-15.116	97.737	-81.963	184.199	52.671	-82.539	-77.307	-61.734	55.381	-78.258	-74.187	-72.232	-68.008	-5.020	-70.797	-8191	255	
1630.822	1	1	0	0	0.26141	0.19479	0.064622	0.14909	0.11054	0.086372	0.17293	0.18843	0.18458	0.24228	0.38687	0.32323	0.14646	0.097712	0.15331	0.28733	-0.69583	-0.21875	-0.98333	-0.80833	-0.17292	-1.1688	-0.53958	-0.53542	-1	-0.16667	-0.68542	-0.81875	-0.40625	-1.2667	-0.61458	-0.45625	79.105	20.067	208.489	213.567	-46.126	-87.410	252.298	249.018	131.936	-46.453	220.626	251.576	239.650	177.910	97.595	211.510	0.00038774	0.0015042	0.00046357	1142.6	2.667e-05	2.5027e-05	1502.5	363.95	5.8171e-06	1.4283e-05	535.24	214.62	133.36	65.236	2.1876e-05	114.2	0.0025777	0.0026773	0.00074913	1114.4	2.9056e-05	2.9315e-05	1411.5	370.76	2.9085e-05	2.9572e-05	542.76	207.68	136.45	63.874	2.9293e-05	106.27	199.172	7.931	229.507	-82.427	71.681	22.541	-82.779	-77.124	-72.537	70.087	-78.408	-74.367	-71.992	-67.674	79.373	-70.641	-8191	255	
1630.918	1	1	0	0	0.19611	0.070453	0.0079524	0.12167	0.2525	0.12364	0.12399	0.16105	0.24693	0.22696	0.28121	0.28692	0.11671	0.11918	0.048025	0.078847	-0.84583	-0.32083	-0.65833	-1.0938	-0.20833	-1.2062	-0.85208	-0.44583	-1.1833	-0.43542	-0.94583	-1.2083	-0.27292	-1.1417	-0.59792	-0.49375	98.982	133.519	11.399	195.075	75.941	81.737	185.759	255.457	-93.262	-73.761	249.060	253.744	255.280	-54.328	251.569	183.746	0.00059003	0.0022937	0.00016281	1149.2	2.1973e-05	7.3756e-06	1515.2	365.19	9.761e-06	6.8773e-06	534.34	216.18	133.25	64.993	7.8149e-06	113.63	0.002569	0.0026828	0.00074693	1111.4	2.9087e-05	2.9387e-05	1413.2	370.62	2.906e-05	2.9466e-05	544.63	208.67	136.21	63.79	2.9462e-05	106.5	148.088	-18.145	65.276	-82.262	20.493	175.423	-82.663	-76.439	75.420	200.751	-78.300	-73.941	-72.809	-67.666	-63.877	-70.511	-8191	255	
1631.014	1	1	0	0	0.13732	0.13517	0.1558	0.53341	0.067514	0.16507	0.41166	0.18585	0.17456	0.11223	0.11804	0.12753	0.20895	0.23146	0.10246	0.098652	-0.87917	-0.46667	-0.55625	-1.1271	-0.29375	-0.91458	-1.0333	-0.38125	-1.0604	-0.4875	-0.90417	-1.2708	-0.55208	-1.0354	-0.71875	-0.50417	-4.990	-43.717	189.151	207.843	223.907	44.162	196.093	264.383	-29.370	132.809	-66.586	199.956	-42.050	235.864	132.733	179.884	0.00056467	0.0011176	0.00034717	1142.9	1.8521e-05	3.4698e-05	1504.8	365.22	7.4477e-06	1.6456e-05	529.92	215.78	133.86	65.52	1.8848e-05	113.5	0.0025923	0.0026866	0.00074616	1113.2	2.935e-05	2.9589e-05	1414.2	370.07	2.9244e-05	2.9566e-05	543.41	208.48	136.47	63.868	2.9565e-05	106.19	186.078	238.161	231.849	-82.508	71.895	257.697	-82.463	-77.062	228.078	233.380	-78.046	-74.305	-71.996	-67.805	40.211	-70.624	-8191	255	
1631.110	1	1	0	0	0.062598	0.23038	0.091118	0.22688	0.4555	0.12407	0.12991	0.039677	0.33538	0.076109	0.1976	0.25651	0.22795	0.43048	0.096145	0.19193	-0.60208	-0.51458	-0.36458	-1.3917	-0.32292	-1.0708	-1.1812	-0.49792	-1.1125	-0.69167	-0.66042	-1.2958	-0.35833	-0.94583	-1.125	-0.30625	66.441	49.485	225.538	172.444	204.916	-75.415	-84.352	-29.281	191.382	68.708	253.448	235.926	229.326	216.879	185.948	223.817	0.00036996	0.0010521	0.00014735	1146.2	8.5996e-06	7.2631e-06	1491.4	363.73	1.886e-05	2.9235e-05	532.59	215.71	132.67	65.302	1.948e-05	114.34	0.0026201	0.0027027	0.00074458	1113.5	2.9389e-05	2.9546e-05	1408.2	370.52	2.9409e-05	2.9579e-05	542.27	207.89	136.23	63.847	2.9245e-05	106.7	178.696	45.315	167.191	-82.416	96.623	-75.891	-82.856	-77.568	115.324	45.515	-77.978	-74.037	-72.544	-67.788	86.479	-70.673	-8191	255	
1631.206	1	1	0	0	0.04771	0.27264	0.11449	0.34371	0.088049	0.20545	0.36991	0.20823	0.18215	0.12443	0.30672	0.053904	0.2543	0.44464	0.10474	0.19285	-0.625	-0.75833	-0.27083	-1.2854	-0.18958	-0.63542	-1.4146	-0.25417	-1.1562	-0.88125	-0.45	-1.2958	-0.49375	-0.68958	-1.2521	-0.43542	-38.729	35.242	139.786	-86.904	132.765	52.251	229.550	-89.111	171.770	184.895	-70.231	-89.344	102.884	229.559	114.649	228.475	0.00040349	0.0042922	0.0010434	1138.6	2.5634e-05	4.7595e-06	1509.9	361.66	5.5931e-06	2.0017e-05	534.57	215.37	132.94	65.315	2.0583e-05	115.87	0.0026189	0.0027073	0.00074229	1111.2	2.9478e-05	2.9538e-05	1412.1	369.22	2.9378e-05	2.9429e-05	544.77	209.77	136.67	64.023	2.9366e-05	107.39	206.817	-43.927	119.947	-82.408	-31.264	263.341	-82.572	-76.922	181.471	5.093	-77.665	-74.522	-72.787	-67.736	109.280	-70.616	-8191	255	
1631.302	1	1	0	0	0.16071	0.21573	0.13918	0.29229	0.23817	0.21693	0.20793	0.097822	0.12963	0.12267	0.24012	0.12185	0.21281	0.24868	0.12515	0.17845	-0.70833	-0.68333	-0.37708	-1.2792	-0.42292	-0.64167	-1.2125	-0.35	-0.84792	-0.90833	-0.225	-1.2708	-0.57708	-0.65833	-1.2771	-0.46875	156.071	-14.831	192.624	175.981	215.084	-5.428	190.522	216.259	-91.081	110.559	193.672	-46.384	244.379	212.457	200.125	175.365	0.00029111	0.00093792	0.00048051	1142.7	1.6319e-05	6.3033e-06	1516.5	366.29	1.1859e-05	9.5339e-06	540.79	218.8	134.73	65.739	1.1003e-05	116	0.0026175	0.002679	0.0007442	1113.5	2.9429e-05	2.9579e-05	1413.2	372.49	2.9435e-05	2.9618e-05	547.88	211.48	137.62	64.364	2.9548e-05	108.35	148.482	-18.139	229.733	-82.326	65.711	129.030	-82.817	-77.413	12.683	252.962	-77.912	-74.580	-72.625	-67.880	198.537	-70.849	-8191	255	
1631.421	1	1	0	0	0.031613	0.031494	0.28238	0.10421	0.32256	0.25966	0.036406	0.43954	0.31025	0.16763	0.38414	0.18249	0.20743	0.19966	0.088979	0.10751	-0.46042	-1.0375	-0.20625	-1.4604	-0.73542	-0.56875	-1.4417	-0.49792	-0.85417	-1.0187	-0.35208	-1.4146	-0.83958	-0.45208	-1.1646	-0.50417	52.277	-17.650	210.479	246.872	-80.119	71.033	48.314	186.236	-43.559	-27.169	-60.229	196.487	239.138	217.376	185.545	189.507	0.00059516	0.0026726	0.00025318	1143.1	1.9157e-05	1.4611e-05	1505.9	366.6	6.2675e-06	2.7599e-05	539.8	218.97	133.51	66.146	4.6536e-05	115.36	0.0026269	0.0027154	0.0007505	1120	2.9582e-05	2.9611e-05	1419.3	373.15	2.9666e-05	2.9681e-05	549.08	211.94	137.16	64.369	2.9437e-05	108.13	193.851	-3.140	-68.637	-82.357	54.969	24.528	-82.833	-77.028	-1.916	31.946	-78.686	-74.439	-72.215	-68.103	182.227	-70.922	-8191	255	
1631.517	1	1	0	0	0.14594	0.13063	0.14312	0.14549	0.2515	0.067349	0.18864	0.086827	0.14064	0.23117	0.11166	0.35667	0.2624	0.21558	0.26595	0.084226	-0.40417	-0.95208	-0.20208	-1.225	-0.82917	-0.42708	-1.3208	-0.61458	-0.48958	-1.2396	-0.33958	-1.3062	-0.96042	-0.35208	-1.2417	-0.58125	261.984	155.297	19.257	241.231	246.305	37.896	118.412	199.047	-49.390	185.086	197.437	215.236	-89.509	236.121	193.921	236.822	0.00053785	0.00080095	0.00025135	1136	1.7064e-05	3.9706e-05	1502.9	366.58	3.4557e-05	1.5014e-05	537.4	218.61	133.49	65.585	8.6543e-06	115.34	0.0026279	0.0026852	0.00075176	1113.3	2.9584e-05	2.973e-05	1414	372.67	2.9701e-05	2.9574e-05	549.67	211.52	137.31	64.282	2.9741e-05	108.17	213.290	-15.881	46.879	-82.292	46.594	132.481	-83.237	-77.562	81.548	51.030	-78.246	-74.194	-72.765	-67.844	-94.819	-70.542	-8191	255	
1631.615	1	1	0	0	0.082753	0.052385	0.11324	0.14766	0.090578	0.14478	0.20601	0.054121	0.20402	0.19535	0.25922	0.18324	0.14134	0.066844	0.17303	0.22626	-0.125	-1.025	-0.26042	-1.0667	-1.0167	-0.24375	-1.2833	-0.575	-0.36875	-1.1271	-0.53958	-1.1917	-1.025	-0.39792	-1.0292	-0.86875	239.555	-67.303	44.840	215.963	99.290	-54.350	-89.468	232.993	-21.253	244.156	187.214	243.359	-81.972	187.279	-19.529	148.533	0.0002643	0.00045174	0.0004835	1148.8	1.3429e-05	1.4359e-05	1515.8	365.36	2.1616e-05	5.4418e-06	542.4	219.6	134.38	65.787	1.701e-05	116.13	0.0026091	0.0026714	0.00075383	1117.7	2.9538e-05	2.9554e-05	1424.9	373.26	2.9456e-05	2.9629e-05	550.45	212.17	137.7	64.455	3.0037e-05	108.48	54.714	-94.334	42.964	-82.523	124.102	-26.611	-82.905	-77.580	38.542	198.597	-78.582	-74.164	-72.425	-68.293	140.620	-70.944	-8191	255	
1631.710	1	1	0	0	0.25186	0.073025	0.19191	0.0045105	0.2151	0.13869	0.20969	0.06223	0.21805	0.18777	0.23207	0.17107	0.025719	0.18789	0.041017	0.30235	-0.010417	-1.1396	-0.34792	-0.90625	-0.95833	-0.25	-1.2062	-0.74792	-0.24792	-1.1875	-0.2875	-0.76667	-1.2083	-0.24792	-0.89167	-1.05	149.717	91.227	154.459	31.008	-60.772	-64.862	255.687	-66.974	174.836	60.442	255.725	212.548	125.077	255.832	0.060	262.397	0.00065273	0.00076273	0.00058371	1144.1	2.5435e-05	8.2626e-06	1499.5	367.2	2.1091e-05	1.9615e-05	539.51	219.35	133.35	65.989	1.2611e-05	116.27	0.0026325	0.0027267	0.00076055	1117.2	2.9571e-05	2.9702e-05	1420.2	373.35	2.9742e-05	2.9865e-05	550.34	212.29	137.26	64.396	2.993e-05	108.58	202.548	175.377	220.748	-82.560	-55.120	220.291	-82.526	-77.212	205.441	-87.464	-78.280	-74.162	-72.726	-68.254	-53.208	-70.817	-8191	255	
1631.806	1	1	0	0	0.065316	0.26004	0.11229	0.36317	0.26076	0.053831	0.10184	0.10641	0.16109	0.058848	0.1953	0.2997	0.30088	0.10111	0.26789	0.24771	0.17708	-1.1333	-0.32083	-0.81875	-1.0542	-0.28125	-1.0438	-0.9	-0.31667	-1.3125	-0.5625	-0.70417	-0.95208	-0.33333	-0.87917	-1.2021	-77.383	-14.184	243.687	215.239	51.273	154.050	-70.385	28.355	132.295	184.624	259.755	242.744	140.016	248.154	153.729	158.671	0.00017024	0.00085695	0.00033632	1151.5	8.4387e-06	2.079e-05	1523.4	369.5	7.9618e-06	9.8137e-06	534.65	217.8	133.99	66.081	1.9714e-05	116.54	0.0026148	0.0027176	0.00076052	1119.2	2.9587e-05	2.9955e-05	1427.5	373.77	2.9563e-05	2.992e-05	548.98	211.96	137.56	64.389	3.0062e-05	108.21	198.996	142.510	-23.906	-81.801	-62.886	-1.345	-82.609	-77.047	33.467	194.111	-78.253	-73.925	-72.411	-67.585	181.142	-70.898	-8191	255	
1631.902	1	1	0	0	0.1403	0.15814	0.1343	0.33272	0.019944	0.16446	0.32843	0.1888	0.2528	0.30739	0.12932	0.23758	0.27713	0.088151	0.20175	0.1476	-0.08125	-1.075	-0.41458	-0.64583	-1.1229	-0.32708	-0.90208	-0.87083	-0.15208	-1.2542	-0.80417	-0.51875	-1.2938	-0.39167	-0.73333	-1.3146	101.599	216.727	38.046	236.446	-94.861	228.657	203.576	232.362	251.528	-81.002	-62.132	229.995	188.270	238.784	2.590	162.867	0.0004505	0.0020667	0.00030404	1141.5	2.5776e-05	1.4973e-05	1506	366.91	7.3821e-06	2.2521e-05	534.79	218.46	133.27	65.265	1.7654e-05	114.3	0.0026323	0.0027382	0.00076006	1117.6	2.9723e-05	2.983e-05	1421.2	373.2	2.9535e-05	2.9864e-05	544.58	210.66	136.51	64.016	2.9824e-05	107.4	-58.685	-56.182	45.111	-82.232	-49.514	5.547	-82.989	-77.337	120.742	-16.945	-78.461	-74.260	-72.803	-68.158	8.124	-70.978	-8191	255	
1632.023	1	1	0	0	0.21483	0.26047	0.2077	0.099586	0.091754	0.10545	0.17748	0.037658	0.17649	0.19285	0.2637	0.15551	0.046082	0.15801	0.21064	0.29675	0.15417	-1.0896	-0.49375	-0.56042	-0.95417	-0.3125	-0.87083	-1.15	-0.22083	-1.2542	-1.0208	-0.525	-1.2687	-0.59583	-0.51875	-1.2938	123.535	-58.854	13.257	171.833	113.433	119.520	170.205	-18.246	240.987	-0.986	-68.978	199.888	244.354	-72.389	260.125	165.019	0.00060136	0.0043443	0.00030619	1145.8	1.2285e-05	2.72e-06	1513.2	363.33	1.0074e-05	1.8581e-05	536.16	217.68	132.76	65.274	1.2124e-05	114.78	0.0026316	0.0027126	0.00075837	1114.5	2.9625e-05	2.9845e-05	1418.7	370.29	2.9571e-05	2.9875e-05	546.92	210.44	136.32	63.841	2.9816e-05	107.44	180.375	-4.753	-20.482	-82.550	87.347	31.409	-83.019	-77.086	55.898	-49.159	-78.075	-74.403	-72.296	-68.255	130.268	-70.490	-8191	255	
1632.119	1	1	0	0	0.26734	0.23737	0.12825	0.19337	0.1522	0.23635	0.33413	0.05444	0.15303	0.17299	0.15264	0.28245	0.18669	0.091639	0.22111	0.30056	0.20417	-0.97917	-0.85	-0.39792	-1.2458	-0.29792	-0.75208	-1.0042	-0.18333	-0.87083	-1.2583	-0.24792	-1.2375	-0.65833	-0.49167	-1.3708	117.709	99.806	197.795	236.731	83.067	-15.466	208.418	240.698	-68.611	-67.701	206.823	201.338	257.339	139.105	-91.359	160.138	0.00042462	0.0044328	8.1784e-05	1142.4	2.5124e-05	1.6798e-05	1512.9	364.62	2.1669e-05	8.0137e-06	536.25	217.2	132.96	65.374	8.7339e-06	115.63	0.0026412	0.0027151	0.00075079	1114.4	2.9705e-05	2.9897e-05	1421.7	370.52	2.9626e-05	2.9885e-05	544.9	210.27	136.84	63.958	2.9842e-05	107.62	168.596	48.730	65.155	-82.087	-90.590	136.151	-82.930	-77.375	-53.813	251.092	-78.375	-74.370	-72.568	-68.664	-19.115	-70.737	-8191	255	
1632.215	1	1	0	0	0.29547	0.21281	0.064447	0.14615	0.19707	0.045302	0.16563	0.096312	0.2484	0.084782	0.24634	0.26071	0.14874	0.13751	0.075537	0.17788	0.014583	-0.88958	-0.99792	-0.38125	-1.0542	-0.61875	-0.68125	-1.3	-0.23333	-0.81458	-1.0312	-0.425	-1.2354	-0.81667	-0.24167	-1.1833	197.517	-72.794	-17.193	-70.509	50.995	139.161	194.678	32.298	128.576	-38.980	217.510	261.488	-71.128	197.641	82.946	159.055	0.00018441	0.0020966	0.0011144	1140	1.2226e-05	1.634e-05	1509.7	364.03	1.0421e-05	4.3911e-06	538.07	217.28	133.13	65.076	8.9119e-06	114.58	0.0026371	0.0027182	0.0007505	1114.4	2.9663e-05	2.9893e-05	1416.1	371.14	2.994e-05	2.9953e-05	545.13	210.56	136.68	63.727	2.9675e-05	107.5	175.275	254.739	-28.684	-82.455	248.740	154.190	-83.071	-77.351	226.592	13.133	-78.559	-74.318	-72.642	-68.085	-23.390	-70.813	-8191	255	
1632.311	1	1	0	0	0.13763	0.20491	0.19189	0.41075	0.30758	0.18295	0.33661	0.18239	0.26821	0.17328	0.002381	0.2089	0.21037	0.082355	0.23312	0.24324	0.10208	-0.67292	-0.95417	-0.36042	-0.82292	-0.87083	-0.40417	-1.3792	-0.46667	-0.75833	-1.2292	-0.325	-1.0042	-0.85208	-0.33958	-1.3146	155.981	1.632	150.272	37.428	117.791	184.341	178.788	212.303	7.583	238.923	92.242	239.563	-70.903	244.609	190.874	169.673	0.00037894	0.0011875	0.00059427	1138	1.5466e-05	7.3445e-06	1512.4	362.31	2.7128e-05	2.8474e-05	528.11	214.45	132.85	64.746	5.1627e-06	114.37	0.0026285	0.0027142	0.00075345	1113.3	2.959e-05	2.9652e-05	1415.4	370.2	2.9651e-05	2.981e-05	542.84	208.61	136.11	63.371	2.9637e-05	107.11	168.615	183.199	-42.021	-82.402	-51.736	179.647	-83.002	-77.438	93.239	11.180	-78.311	-74.723	-72.508	-68.005	132.683	-71.065	-8191	255	
#DATA ENDS
