BOXY.EXE: ISS Imagent and Oximeter Data Acquisition Program Version 0.80
Ascii Record File

#ACQ INFORMATION
2  Detector Channels 
16  External MUX Channels 
1  Auxiliary Channels 
5000  Waveform (CCF) Frequency (Hz)
1  Waveforms Skipped 
30  Waveforms Averaged 
1  Cycles Averaged 
16  Acquisitions per Waveform 
10.0806  Updata Rate (Hz) 

#FILE INFORMATION
TRUE -- External MUX Channel results are PARSED.
FALSE -- AC DC and Phase are NOT grouped.
TRUE -- Companion Program Settings File CREATED.
FALSE -- AC data not excluded
FALSE -- DC data not excluded
FALSE -- Phase data not excluded
FALSE -- Auxillary Chn. data not excluded
Tab delimiters

#CALIBRATION STATE
TRUE -- Waveform Calibration Values APPLIED.


#AUX CALIBRATION VALUES
Val Type	aux-1	

Term	1.0000e+00	
Factor	0.0000e+00	


#WF CALIBRATION VALUES
A = Detector Channel
Val Type	A-AC1	A-AC2	A-AC3	A-AC4	A-AC5	A-AC6	A-AC7	A-AC8	A-AC9	A-AC10	A-AC11	A-AC12	A-AC13	A-AC14	A-AC15	A-AC16	A-DC1	A-DC2	A-DC3	A-DC4	A-DC5	A-DC6	A-DC7	A-DC8	A-DC9	A-DC10	A-DC11	A-DC12	A-DC13	A-DC14	A-DC15	A-DC16	A-Ph1	A-Ph2	A-Ph3	A-Ph4	A-Ph5	A-Ph6	A-Ph7	A-Ph8	A-Ph9	A-Ph10	A-Ph11	A-Ph12	A-Ph13	A-Ph14	A-Ph15	A-Ph16	

Term	0.00000e+00	0.00000e+00	0.00000e+00	0.00000e+00	0.00000e+00	0.00000e+00	0.00000e+00	0.00000e+00	0.00000e+00	0.00000e+00	0.00000e+00	0.00000e+00	0.00000e+00	0.00000e+00	0.00000e+00	0.00000e+00	0.00000e+00	0.00000e+00	0.00000e+00	0.00000e+00	0.00000e+00	0.00000e+00	0.00000e+00	0.00000e+00	0.00000e+00	0.00000e+00	0.00000e+00	0.00000e+00	0.00000e+00	0.00000e+00	0.00000e+00	0.00000e+00	0.00000e+00	0.00000e+00	0.00000e+00	0.00000e+00	0.00000e+00	0.00000e+00	0.00000e+00	0.00000e+00	0.00000e+00	0.00000e+00	0.00000e+00	0.00000e+00	0.00000e+00	0.00000e+00	0.00000e+00	0.00000e+00	
Factor	1.00000e+00	1.00000e+00	1.00000e+00	1.00000e+00	1.00000e+00	1.00000e+00	1.00000e+00	1.00000e+00	1.00000e+00	1.00000e+00	1.00000e+00	1.00000e+00	1.00000e+00	1.00000e+00	1.00000e+00	1.00000e+00	1.00000e+00	1.00000e+00	1.00000e+00	1.00000e+00	1.00000e+00	1.00000e+00	1.00000e+00	1.00000e+00	1.00000e+00	1.00000e+00	1.00000e+00	1.00000e+00	1.00000e+00	1.00000e+00	1.00000e+00	1.00000e+00	X	X	X	X	X	X	X	X	X	X	X	X	X	X	X	X	

B = Detector Channel
Val Type	B-AC1	B-AC2	B-AC3	B-AC4	B-AC5	B-AC6	B-AC7	B-AC8	B-AC9	B-AC10	B-AC11	B-AC12	B-AC13	B-AC14	B-AC15	B-AC16	B-DC1	B-DC2	B-DC3	B-DC4	B-DC5	B-DC6	B-DC7	B-DC8	B-DC9	B-DC10	B-DC11	B-DC12	B-DC13	B-DC14	B-DC15	B-DC16	B-Ph1	B-Ph2	B-Ph3	B-Ph4	B-Ph5	B-Ph6	B-Ph7	B-Ph8	B-Ph9	B-Ph10	B-Ph11	B-Ph12	B-Ph13	B-Ph14	B-Ph15	B-Ph16	

Term	0.00000e+00	0.00000e+00	0.00000e+00	0.00000e+00	0.00000e+00	0.00000e+00	0.00000e+00	0.00000e+00	0.00000e+00	0.00000e+00	0.00000e+00	0.00000e+00	0.00000e+00	0.00000e+00	0.00000e+00	0.00000e+00	0.00000e+00	0.00000e+00	0.00000e+00	0.00000e+00	0.00000e+00	0.00000e+00	0.00000e+00	0.00000e+00	0.00000e+00	0.00000e+00	0.00000e+00	0.00000e+00	0.00000e+00	0.00000e+00	0.00000e+00	0.00000e+00	-1.31583e+02	-1.21578e+02	-1.40012e+02	-1.81298e+02	-8.87385e+01	-6.29981e+01	-1.57795e+02	-1.62015e+02	-6.94921e+01	-9.60310e+01	-1.75953e+02	-1.70521e+02	-1.80371e+02	-1.76072e+02	-6.81803e+01	-1.48893e+02	
Factor	1.93261e-05	1.42640e-04	3.75110e-05	1.68919e-01	1.12948e-06	1.23653e-06	1.80120e-01	7.03469e-02	1.11070e-06	1.40164e-06	1.16901e-01	3.27342e-02	2.64059e-02	1.04235e-02	1.14977e-06	1.44954e-02	1.13826e-06	1.18118e-06	3.28429e-07	8.21832e-02	1.29226e-08	1.29492e-08	8.20368e-02	3.39068e-02	1.29380e-08	1.29875e-08	5.34765e-02	1.52769e-02	1.27878e-02	5.00872e-03	1.30016e-08	6.72239e-03	X	X	X	X	X	X	X	X	X	X	X	X	X	X	X	X	



#DISTANCE SETTINGS
A = Detector Channel
A-1	A-2	A-3	A-4	A-5	A-6	A-7	A-8	A-9	A-10	A-11	A-12	A-13	A-14	A-15	A-16	

2.5000e+00	3.0000e+00	2.5000e+00	3.0000e+00	2.0000e+00	3.0000e+00	1.5000e+00	3.0000e+00	3.0000e+00	3.0000e+00	3.0000e+00	3.0000e+00	3.0000e+00	3.0000e+00	1.5000e+00	3.0000e+00	

B = Detector Channel
B-1	B-2	B-3	B-4	B-5	B-6	B-7	B-8	B-9	B-10	B-11	B-12	B-13	B-14	B-15	B-16	

1.0000e+01	1.0000e+01	1.0000e+01	1.4400e+00	1.0000e+01	1.0000e+01	1.5100e+00	1.9400e+00	1.0000e+01	1.0000e+01	1.9900e+00	2.4900e+00	2.4100e+00	2.9000e+00	1.0000e+01	2.9800e+00	




#DATA BEGINS
time	group	step	mark	flag	A-AC1	A-AC2	A-AC3	A-AC4	A-AC5	A-AC6	A-AC7	A-AC8	A-AC9	A-AC10	A-AC11	A-AC12	A-AC13	A-AC14	A-AC15	A-AC16	A-DC1	A-DC2	A-DC3	A-DC4	A-DC5	A-DC6	A-DC7	A-DC8	A-DC9	A-DC10	A-DC11	A-DC12	A-DC13	A-DC14	A-DC15	A-DC16	A-Ph1	A-Ph2	A-Ph3	A-Ph4	A-Ph5	A-Ph6	A-Ph7	A-Ph8	A-Ph9	A-Ph10	A-Ph11	A-Ph12	A-Ph13	A-Ph14	A-Ph15	A-Ph16	B-AC1	B-AC2	B-AC3	B-AC4	B-AC5	B-AC6	B-AC7	B-AC8	B-AC9	B-AC10	B-AC11	B-AC12	B-AC13	B-AC14	B-AC15	B-AC16	B-DC1	B-DC2	B-DC3	B-DC4	B-DC5	B-DC6	B-DC7	B-DC8	B-DC9	B-DC10	B-DC11	B-DC12	B-DC13	B-DC14	B-DC15	B-DC16	B-Ph1	B-Ph2	B-Ph3	B-Ph4	B-Ph5	B-Ph6	B-Ph7	B-Ph8	B-Ph9	B-Ph10	B-Ph11	B-Ph12	B-Ph13	B-Ph14	B-Ph15	B-Ph16	aux-1	digaux	

1504.807	1	1	0	768	0.097386	0.042067	0.11167	0.13278	0.27615	0.17376	0.20183	0.19202	0.1952	0.32078	0.14295	0.3595	0.23185	0.11623	0.20581	0.2316	-1.0063	-0.49167	-0.64167	-1.3708	-0.20417	-1.0271	-1.1854	-0.52708	-1.0979	-0.71458	-0.76875	-1.4042	-0.43958	-0.79167	-1.0688	-0.275	259.251	43.427	-1.881	-17.391	-49.157	33.462	-61.867	273.255	3.716	-11.543	107.638	267.674	-45.069	209.638	35.173	173.332	0.00039398	0.0013812	0.00062587	1045.3	2.0091e-05	1.516e-05	1407.8	388.54	1.1752e-05	2.4969e-05	599.18	220.92	140.04	53.412	5.6305e-06	96.451	0.0039033	0.0040618	0.0011328	1161.2	4.4947e-05	4.5317e-05	1477.7	442.33	4.5781e-05	4.5842e-05	678.8	240.84	163.22	62.115	4.6138e-05	103.73	-55.901	64.597	-11.389	-59.368	185.829	100.368	-60.865	-55.181	58.716	161.764	-56.835	-52.956	-51.256	-46.607	-46.917	-47.899	-8191	255	
1504.903	1	1	0	0	0.13534	0.11578	0.18242	0.11733	0.20641	0.23708	0.32232	0.21702	0.25531	0.22243	0.19706	0.23889	0.1533	0.13358	0.0814	0.16305	-0.77292	-0.73333	-0.52292	-1.5146	-0.4625	-0.85833	-1.3208	-0.3875	-0.95417	-0.69167	-0.6375	-1.4667	-0.70625	-0.6875	-1.3708	-0.56875	39.077	142.284	-73.030	233.720	-70.854	33.893	259.847	188.932	206.383	185.910	-40.689	244.809	45.395	276.311	266.713	246.104	0.00036254	0.0011155	0.00075491	1045.7	6.9389e-06	3.3081e-05	1404.5	387.73	1.0232e-05	1.0897e-05	598.75	223.27	141.26	53.213	1.779e-05	95.372	0.0040456	0.0041718	0.0011497	1169.3	4.4988e-05	4.5178e-05	1473.6	440.46	4.4501e-05	4.4193e-05	670.92	238.17	161.04	61.05	4.2693e-05	101.71	159.035	12.514	135.369	-59.948	-71.093	180.735	-60.576	-55.304	24.800	8.668	-56.295	-52.043	-51.173	-45.634	80.408	-47.862	-8191	255	
1504.999	1	1	0	0	0.29073	0.25011	0.1356	0.30248	0.24362	0.13639	0.24545	0.048498	0.31036	0.13546	0.1679	0.16035	0.073663	0.21883	0.075419	0.29127	-0.68958	-0.76042	-0.44375	-1.4458	-0.45833	-0.71458	-1.8146	-0.57708	-1.0958	-1.1292	-0.34792	-1.3125	-0.7625	-0.64375	-1.1688	-0.7375	12.839	7.467	274.114	262.130	131.395	190.988	163.857	45.513	133.221	-41.711	242.212	-28.504	36.201	188.788	28.693	246.117	0.00029452	0.0018057	8.7115e-05	1038	1.4602e-05	6.4942e-06	1412.8	389.75	1.6393e-05	1.6057e-05	600.46	225.49	142.95	53.718	2.9816e-05	96.902	0.003773	0.0038508	0.0010619	1142.1	4.1372e-05	4.112e-05	1447.6	431.28	4.0145e-05	3.99e-05	655.64	234.98	158.44	59.971	3.8383e-05	100.34	215.405	41.429	242.538	-60.101	189.890	-5.314	-61.016	-55.608	69.688	-45.427	-56.721	-52.539	-51.519	-46.153	-27.770	-47.994	-8191	255	
1505.096	1	1	0	0	0.093081	0.081266	0.18351	0.30461	0.17692	0.14962	0.076235	0.11044	0.0721	0.17237	0.11951	0.36188	0.14853	0.078607	0.19747	0.34978	-0.60833	-0.975	-0.25833	-1.4125	-0.7875	-0.54167	-1.3396	-0.525	-0.92292	-1.0667	-0.65625	-1.4792	-0.80208	-0.67083	-1.0229	-0.56667	132.032	135.477	17.701	177.544	-54.272	84.596	232.805	175.748	11.134	284.890	271.991	218.429	234.606	240.438	78.756	231.977	0.00027634	0.003549	9.9202e-05	1042.5	1.2963e-05	3.7951e-05	1415.2	392.49	6.3174e-06	3.1275e-06	602.85	226.98	143.69	54.5	3.9029e-06	97.273	0.0034039	0.0034745	0.00096317	1123.4	3.7821e-05	3.7955e-05	1438	427.54	3.8075e-05	3.799e-05	649.36	234.98	157.71	59.793	3.7894e-05	100.59	122.598	-26.781	270.567	-60.128	164.735	60.082	-60.985	-55.503	47.621	131.206	-56.892	-52.789	-51.490	-46.552	46.296	-47.915	-8191	255	
1505.192	1	1	0	0	0.30702	0.10244	0.093019	0.39091	0.03886	0.29653	0.32975	0.20948	0.14554	0.076824	0.31729	0.2699	0.23007	0.076538	0.10522	0.31779	-0.53958	-1.0021	-0.29792	-1.325	-0.88958	-0.26875	-1.4667	-0.43958	-0.68125	-1.1854	-0.425	-1.0771	-0.97708	-0.59375	-1.2458	-0.67292	94.539	279.364	189.957	271.148	151.746	178.327	215.792	210.250	153.709	283.986	222.606	229.052	235.468	-6.319	42.210	260.314	0.00046287	0.0012116	0.00024522	1042.2	8.5712e-06	1.6224e-05	1409.4	390.56	1.7178e-05	2.2038e-05	600.41	226.98	143.19	54.747	1.7938e-05	97.479	0.0033847	0.0034985	0.00098053	1127.5	3.8713e-05	3.8909e-05	1445.9	430.62	3.962e-05	3.9951e-05	659.72	238.17	160.24	61.111	4.1251e-05	102.51	235.100	262.756	252.750	-59.824	133.791	166.396	-60.982	-55.562	151.120	-5.575	-56.614	-52.635	-51.294	-46.524	145.507	-47.863	-8191	255	
1505.288	1	1	0	0	0.19868	0.13485	0.10521	0.23067	0.19275	0.21304	0.31365	0.36277	0.19973	0.109	0.013378	0.24339	0.2757	0.28506	0.059028	0.19957	-0.24583	-1.0854	-0.47708	-1.2646	-1.1271	-0.48333	-1.5688	-0.77292	-0.58958	-1.1583	-0.46667	-0.90208	-1.2146	-0.40625	-0.98125	-0.80833	-15.248	240.343	260.547	196.426	197.326	28.885	234.804	266.018	254.749	15.120	255.087	274.470	260.745	246.317	139.867	187.677	0.00033052	0.0023061	0.00019656	1041.3	1.1596e-05	1.5124e-05	1413.6	391.22	1.2643e-05	1.6803e-05	600.07	226.59	143.22	54.487	1.6452e-06	96.652	0.0036458	0.003753	0.0010469	1142.3	4.0937e-05	4.0761e-05	1455.2	434.88	4.144e-05	4.1527e-05	664.32	239.19	161.32	61.518	4.2575e-05	102.65	93.857	113.541	135.945	-60.070	213.334	153.458	-60.646	-55.460	30.830	65.400	-56.365	-52.501	-51.459	-46.091	-9.122	-47.883	-8191	255	
1505.408	1	1	0	0	0.12201	0.13255	0.17659	0.024219	0.087874	0.13987	0.26821	0.13474	0.19074	0.16568	0.13325	0.33365	0.12753	0.23841	0.42371	0.051254	-0.3375	-1.2625	-0.32708	-0.98333	-0.97083	-0.175	-1.3396	-0.7375	-0.48333	-1.2479	-0.47292	-0.88542	-1.1938	-0.45625	-0.975	-0.93333	78.368	-47.236	31.851	212.754	177.544	-42.351	267.382	214.802	51.990	14.664	223.463	231.950	249.411	237.008	5.000	-69.850	5.2008e-05	0.0019448	0.00034291	1040.9	1.1266e-05	1.593e-05	1404.4	391.28	4.0132e-06	1.2462e-05	601.46	224.62	144.06	54.406	2.0764e-06	97.298	0.0037175	0.0038285	0.0010634	1146.4	4.1181e-05	4.1323e-05	1451.9	434.52	4.0856e-05	4.1017e-05	660.82	237.68	161.08	61.218	4.1384e-05	102.26	169.814	268.426	65.472	-59.930	-21.802	189.502	-60.525	-55.155	243.004	243.865	-56.753	-52.684	-51.551	-46.000	158.701	-47.650	-8191	255	
1505.505	1	1	0	0	0.12984	0.066943	0.1509	0.31239	0.018203	0.10515	0.039596	0.28239	0.15276	0.35628	0.25415	0.092747	0.13823	0.22678	0.099941	0.10706	-0.047917	-1.1708	-0.56875	-0.74583	-1.1167	-0.30625	-1.2083	-1.0312	-0.25833	-1.3354	-0.60625	-0.83125	-1.3354	-0.37292	-0.89167	-1.2437	-60.290	183.867	254.818	-72.377	178.657	139.082	2.358	263.870	242.144	162.227	203.989	73.921	242.268	220.429	110.967	115.043	0.00058065	0.0011755	0.00044586	1047.4	1.3243e-05	6.4018e-06	1404.9	390.16	2.0748e-05	2.969e-05	600.63	225.92	144.88	54.543	1.4374e-05	97.865	0.0036367	0.003775	0.0010525	1148.4	4.1068e-05	4.1341e-05	1456.3	435.67	4.1433e-05	4.2117e-05	666	239.15	161.76	61.599	4.253e-05	102.82	134.734	72.946	20.207	-59.781	47.121	11.249	-60.746	-55.379	6.438	-44.438	-56.612	-52.508	-51.149	-45.771	248.392	-47.880	-8191	255	
1505.601	1	1	0	0	0.10147	0.35943	0.17535	0.20904	0.19781	0.24602	0.40998	0.19105	0.1641	0.17479	0.1518	0.048832	0.27034	0.11701	0.16997	0.2012	-0.21667	-1.3125	-0.6375	-0.83958	-1.3021	-0.42083	-0.96458	-1.0854	-0.3	-1.3667	-0.89583	-0.54792	-1.4562	-0.6	-0.89167	-1.2563	65.592	252.148	184.123	252.213	200.672	102.675	237.890	239.311	87.325	193.069	-65.286	-65.999	219.151	182.194	134.525	178.251	0.00027284	0.0027871	0.00034007	1054.8	1.3307e-05	1.6191e-05	1407.9	393.79	1.5892e-05	1.5837e-05	598.47	227.21	144.87	55.544	3.1685e-05	98.154	0.0037079	0.0038656	0.001076	1155.4	4.1781e-05	4.1797e-05	1458.3	436.63	4.1363e-05	4.1657e-05	664.98	239.05	161.73	61.883	4.1314e-05	102.69	131.181	114.485	127.501	-60.082	83.293	-24.300	-60.524	-55.540	160.313	40.663	-56.593	-52.713	-51.641	-46.281	125.546	-48.176	-8191	255	
1505.697	1	1	0	0	0.076029	0.15084	0.11576	0.065857	0.10418	0.1804	0.27511	0.26821	0.097559	0.1582	0.5123	0.62321	0.086435	0.267	0.15806	0.14777	0	-1.1542	-0.86458	-0.54167	-1.2479	-0.375	-0.84375	-1.2396	-0.28333	-1.1542	-0.92292	-0.42292	-1.375	-0.65	-0.83125	-1.35	163.152	46.861	180.797	241.465	180.886	-65.701	252.493	251.685	181.110	272.994	243.223	194.169	270.192	193.760	18.258	-24.368	0.00032696	0.0015049	0.00055187	1050.2	2.0486e-05	1.2309e-05	1417.5	389.32	1.1346e-05	6.5477e-06	598.77	227.47	143.79	55.165	2.0126e-06	98.167	0.0036318	0.0037898	0.0010508	1149.9	4.155e-05	4.1555e-05	1459.9	434.77	4.1768e-05	4.2374e-05	665.67	239.73	162.65	62.389	4.2846e-05	103.48	160.200	79.171	-52.753	-60.227	81.495	-30.914	-60.945	-55.485	114.436	-60.963	-56.194	-52.874	-51.591	-46.094	-37.170	-47.761	-8191	255	
1505.793	1	1	0	0	0.040212	0.043583	0.18119	0.043333	0.036475	0.2504	0.098721	0.19193	0.15652	0.29	0.08264	0.47121	0.13897	0.069434	0.15109	0.20433	-0.12917	-1.1125	-0.88333	-0.57292	-1.1917	-0.53542	-0.69167	-1.3062	-0.57292	-0.84792	-1.1437	-0.65417	-1.2125	-0.79167	-0.69167	-1.4438	-13.482	9.826	-72.783	-53.990	-14.416	57.281	234.421	103.904	107.639	179.774	-28.999	210.710	216.255	69.337	1.128	127.909	0.00023036	0.0014494	0.00056665	1053.2	1.9713e-05	3.1902e-05	1401.7	389.13	3.057e-05	8.4437e-06	595.84	226.43	144.96	55.033	2.3943e-05	98.131	0.0037697	0.003951	0.0010955	1155.9	4.3393e-05	4.3803e-05	1465.2	441.58	4.3965e-05	4.4592e-05	671.59	241.35	165.2	63.144	4.4273e-05	104.5	204.217	52.270	4.883	-60.171	164.098	-56.939	-60.852	-55.457	170.128	89.363	-56.801	-52.909	-51.249	-46.398	8.630	-47.852	-8191	255	
1505.887	1	1	0	0	0.15826	0.095878	0.1028	0.13513	0.27758	0.17751	0.26488	0.29464	0.33299	0.2086	0.017827	0.29979	0.2578	0.15419	0.017261	0.095305	0.075	-0.72292	-1.1125	-0.37083	-1.0021	-0.73958	-0.60208	-1.4479	-0.52083	-0.95	-1.4021	-0.52917	-1.3354	-0.7875	-0.54375	-1.4875	208.098	48.845	226.955	170.333	283.421	210.742	232.451	218.166	127.306	97.284	219.990	240.794	258.176	15.984	188.579	135.819	0.00026125	0.0036713	0.0011591	1046.3	2.0227e-05	1.2845e-05	1396.2	395.61	5.2056e-06	3.5901e-05	597.88	226.55	145.5	56.102	1.4025e-05	98.361	0.0039238	0.0040616	0.0011246	1158.1	4.4219e-05	4.4339e-05	1462.2	442.63	4.3835e-05	4.4225e-05	670.71	241.36	165.04	63.279	4.3722e-05	104.58	148.068	-0.877	9.202	-60.075	-40.645	26.431	-60.611	-55.488	-69.281	55.564	-56.540	-52.722	-51.331	-45.979	167.028	-47.734	-8191	255	
1506.008	1	1	0	0	0.16905	0.041849	0.061846	0.41761	0.18893	0.17756	0.15226	0.10198	0.27719	0.12688	0.10685	0.16003	0.35548	0.0458	0.34095	0.1568	-0.15625	-0.94583	-1.0604	-0.53958	-1.2083	-0.88958	-0.8125	-1.6083	-0.48958	-0.71458	-1.1313	-0.66875	-0.975	-0.86875	-0.28125	-1.3896	-41.627	78.961	254.875	235.667	267.741	244.665	-59.098	274.570	241.792	200.271	127.609	198.722	280.079	163.207	-62.954	209.516	0.00047287	0.0014555	0.00022866	1038.8	2.2246e-05	2.1676e-05	1401.7	391.06	1.6006e-05	7.1738e-06	604.09	229.08	145.5	56.061	2.3529e-05	100.11	0.003881	0.0039959	0.0011115	1151.9	4.3485e-05	4.399e-05	1464.2	442.03	4.3777e-05	4.3881e-05	672.97	242.7	165.31	63.138	4.3074e-05	105.08	201.223	57.425	45.118	-60.223	-40.869	269.150	-60.822	-55.593	9.640	-7.267	-56.171	-53.089	-51.649	-46.296	144.398	-47.925	-8191	255	
1506.104	1	1	0	0	0.30736	0.0523	0.11264	0.21414	0.18854	0.089957	0.17622	0.14037	0.086775	0.064055	0.098535	0.41437	0.12211	0.12673	0.17184	0.31855	-0.2625	-0.47917	-1.2208	-0.56667	-0.89375	-1.1854	-0.50208	-1.2854	-0.71042	-0.85	-1.425	-0.61875	-0.98333	-1.2062	-0.55	-1.4167	47.389	-43.066	-32.349	230.698	-16.088	21.727	145.022	189.882	144.798	272.071	187.588	211.040	-52.161	269.754	-50.033	109.649	0.00040353	0.0014319	0.00015422	1047.4	6.4511e-06	1.8379e-05	1403.4	393.94	1.2904e-06	1.854e-05	601.58	226.95	146.55	56.229	9.4831e-06	99.13	0.0038046	0.003918	0.0010927	1156.2	4.3883e-05	4.3714e-05	1466.7	443.92	4.3735e-05	4.3875e-05	673.11	242.2	165.46	63.259	4.2838e-05	104.69	154.712	-49.993	188.519	-60.383	158.624	84.927	-60.548	-55.405	34.491	-37.929	-56.444	-52.523	-51.196	-45.826	25.017	-48.291	-8191	255	
1506.200	1	1	0	0	0.08049	0.091964	0.12642	0.17203	0.27632	0.16662	0.31232	0.16024	0.23001	0.12421	0.21307	0.10909	0.22499	0.15584	0.25754	0.15184	-0.38333	-0.51875	-1.1479	-0.53125	-0.86667	-1.1313	-0.60833	-1.1333	-0.84167	-0.5875	-1.4146	-0.71458	-0.90208	-1.4854	-0.3625	-1.3312	193.428	234.981	201.776	261.886	45.310	13.041	269.048	247.171	62.189	212.848	224.045	76.498	258.332	-11.423	18.028	251.823	0.00043418	0.00079789	0.00048041	1040.2	1.7869e-05	1.1843e-05	1400.2	393.48	2.5255e-05	4.7911e-06	600.45	226.61	146.04	56.082	1.0566e-05	99.521	0.0037588	0.0038815	0.0010735	1149.1	4.2226e-05	4.2012e-05	1454.7	440.45	4.2675e-05	4.2699e-05	668.58	241.3	164.44	63.163	4.2359e-05	104.51	174.471	-22.436	9.531	-59.730	225.331	206.388	-60.565	-55.472	83.575	71.638	-56.683	-53.058	-51.397	-46.534	48.014	-47.926	-8191	255	
1506.297	1	1	0	0	0.2756	0.13528	0.15941	0.33387	0.047506	0.21703	0.14902	0.11069	0.10669	0.059314	0.11427	0.14922	0.038226	0.32792	0.097473	0.28122	-0.57292	-0.38125	-1.2333	-0.57083	-0.67708	-1.3208	-0.46042	-1.3125	-0.97708	-0.35	-1.2354	-0.82708	-0.66875	-1.2396	-0.44375	-1.2729	99.072	31.566	282.970	262.033	56.595	21.413	223.164	238.355	90.753	11.417	-7.692	153.727	1.147	162.725	-58.385	258.680	0.00022687	0.0014033	0.0010667	1043.7	1.2358e-05	1.8032e-05	1402.1	397.03	1.1165e-05	1.8843e-05	603.14	228.33	146.16	56.433	1.3929e-05	99.478	0.0037212	0.0038292	0.0010641	1148.5	4.1575e-05	4.1275e-05	1447.8	438.82	4.1255e-05	4.1688e-05	668.65	241.61	164.78	63.209	4.2513e-05	105.14	218.223	282.660	135.933	-60.014	33.858	47.401	-60.888	-55.317	60.699	6.948	-56.491	-52.873	-51.341	-46.166	70.207	-47.749	-8191	255	
1506.368	1	1	0	0	0.10002	0.27328	0.2054	0.18433	0.29212	0.24056	0.38138	0.16314	0.28156	0.09883	0.30662	0.18382	0.15969	0.11275	0.076369	0.37096	-0.64583	-0.40833	-1.3333	-0.73958	-0.57292	-1.2604	-0.54792	-1.1229	-1.3729	-0.36667	-1.4583	-0.85	-0.6375	-1.4167	-0.63958	-1.1375	122.044	13.338	178.562	286.226	243.689	140.229	239.265	189.354	88.075	2.305	-39.627	268.590	210.283	233.035	274.352	192.121	0.00038508	0.0019325	0.0010404	1045	2.2849e-05	1.1234e-05	1403.5	393.92	7.5294e-06	1.6681e-05	603.05	229.56	147.35	56.538	8.1128e-06	100.68	0.0037741	0.0039282	0.0011068	1157.8	4.3376e-05	4.3313e-05	1464.2	443.36	4.2784e-05	4.2959e-05	672.01	242.38	165.1	63.259	4.2448e-05	105.12	173.724	86.261	5.956	-59.890	-11.040	95.639	-60.796	-55.263	-19.886	85.108	-56.376	-52.578	-51.060	-45.901	155.689	-47.888	-8191	255	
1506.489	1	1	0	0	0.068956	0.39386	0.14199	0.1869	0.17953	0.18413	0.2979	0.23817	0.19762	0.21527	0.09742	0.54078	0.1598	0.38159	0.21194	0.38075	-0.65625	-0.47917	-1.3813	-1.0771	-0.37292	-1.175	-0.66875	-0.82292	-1.1479	-0.39792	-1.0104	-1.1437	-0.73333	-1.2646	-0.64792	-0.80625	89.352	-68.680	195.164	260.692	253.795	-5.529	238.663	195.808	193.273	232.910	179.731	278.983	-50.566	192.099	-8.174	237.807	0.00066424	0.0011636	0.00046679	1047.1	1.5896e-05	6.6357e-06	1405.9	394.89	1.3972e-05	1.2592e-05	602.88	224.84	146.71	55.914	9.9415e-06	98.323	0.003668	0.0038042	0.0010604	1144.1	4.1163e-05	4.1371e-05	1454.6	439.47	4.1316e-05	4.1803e-05	666.71	239.67	163.66	62.804	4.2193e-05	103.64	157.441	72.517	62.430	-60.417	146.357	-63.215	-60.669	-55.301	109.187	117.198	-56.508	-52.673	-51.075	-46.037	-59.531	-47.896	-8191	255	
1506.585	1	1	0	0	0.31501	0.18227	0.27485	0.21982	0.02599	0.25431	0.066673	0.33499	0.3847	0.22161	0.23347	0.2522	0.17522	0.27241	0.10264	0.37998	-0.81042	-0.3875	-1.1375	-1.1042	-0.475	-1.3	-0.88542	-0.86667	-1.4083	-0.51875	-1.275	-1.1396	-0.62917	-1.375	-0.74167	-0.85208	58.594	64.925	-18.302	172.527	262.609	-39.776	142.274	221.634	182.811	61.646	-7.431	-66.661	243.203	-28.288	260.517	236.319	0.00036611	0.0025123	0.00026559	1048.6	1.8688e-05	8.34e-06	1404.1	396.63	1.8369e-05	4.1656e-06	598.65	224.75	145.32	55.652	1.0904e-05	98.156	0.0037433	0.0039176	0.0011056	1160.8	4.3622e-05	4.4315e-05	1465.2	446.52	4.4051e-05	4.49e-05	675.99	241.41	166.25	63.612	4.4465e-05	104.24	193.505	39.994	86.491	-59.881	15.981	22.033	-60.993	-55.059	208.720	10.488	-56.430	-52.867	-51.537	-46.127	126.270	-47.898	-8191	255	
1506.681	1	1	0	0	0.21927	0.0072704	0.076863	0.1713	0.31824	0.40348	0.1407	0.038537	0.0032578	0.056428	0.082029	0.3345	0.035092	0.24799	0.27628	0.4102	-1.025	-0.50417	-0.76042	-1.2917	-0.17083	-1.1792	-1.1063	-0.5375	-1.2229	-0.48958	-0.93542	-1.3021	-0.51875	-1.3042	-0.73542	-0.64375	277.464	261.050	-20.008	285.134	-54.662	113.944	-27.070	273.698	1.102	250.315	281.686	263.505	-3.695	213.905	61.997	220.904	0.00038214	0.0017706	0.00025008	1054	1.6431e-05	3.1018e-05	1403.7	398.75	2.2779e-05	2.7834e-05	597.71	226.77	146.28	56.215	1.6668e-05	99.739	0.0038264	0.0039573	0.0010919	1153.9	4.1334e-05	4.1626e-05	1444.5	437.98	4.0618e-05	4.0986e-05	661.15	238.85	163.57	63.015	4.1568e-05	103.9	77.888	276.971	76.300	-60.101	-35.616	119.099	-60.858	-54.809	61.304	2.251	-56.455	-52.886	-51.783	-46.139	86.530	-47.677	-8191	255	
1506.777	1	1	0	0	0.16321	0.11353	0.14737	0.16075	0.13711	0.24313	0.29996	0.081712	0.11604	0.18013	0.12543	0.18465	0.11694	0.082257	0.15921	0.21299	-1.0417	-0.65625	-0.74167	-1.2354	-0.2875	-1.0292	-1.0771	-0.425	-1.2917	-0.54792	-0.77917	-1.475	-0.4375	-1.3292	-1.1292	-0.46875	132.985	143.975	204.740	-61.165	229.618	76.644	205.739	28.852	230.545	229.100	253.338	155.380	249.201	-69.863	155.209	222.437	0.00040066	0.0015004	0.00045662	1048.5	1.4709e-05	1.1305e-05	1406.9	395.07	1.12e-05	1.6351e-05	600.17	226.94	146.79	56.201	1.8332e-05	99.469	0.0036524	0.0038261	0.0010671	1151.3	4.1932e-05	4.2746e-05	1459.6	444.03	4.3142e-05	4.4461e-05	676.44	242.97	167.35	64.44	4.5459e-05	106.03	203.795	71.509	45.699	-59.775	226.361	-9.568	-60.845	-55.509	191.847	276.582	-56.436	-52.859	-50.909	-45.538	202.857	-47.678	-8191	255	
1506.896	1	1	0	0	0.067954	0.31145	0.20979	0.088535	0.17864	0.08467	0.32574	0.090242	0.10134	0.04769	0.11393	0.1484	0.41365	0.19482	0.09703	0.33947	-0.86042	-0.43125	-0.5875	-1.4062	-0.36875	-1.0479	-1.2625	-0.44167	-1.3375	-0.71667	-0.63958	-1.3375	-0.6	-1.0708	-1.25	-0.47708	261.759	46.144	253.265	51.192	206.164	253.823	155.977	139.100	188.991	70.080	176.377	-68.375	-68.947	276.556	244.435	235.909	0.00047392	0.0013254	0.00015039	1054.2	2.3763e-05	1.2547e-05	1405.6	394.05	9.0575e-06	1.0717e-05	597.82	227.33	146.74	56.383	1.4393e-05	98.901	0.0040712	0.0042698	0.0011919	1184.8	4.7493e-05	4.822e-05	1494.3	458.8	4.9261e-05	5.0173e-05	699.88	249.09	172.37	66.342	4.962e-05	107.84	132.811	-51.408	226.190	-59.738	-31.830	79.677	-60.859	-55.232	226.458	59.337	-55.538	-52.178	-51.034	-45.798	-37.678	-47.260	-8191	255	
1506.970	1	1	0	0	0.16707	0.17386	0.017767	0.10795	0.054191	0.2723	0.08081	0.16325	0.21918	0.16397	0.29925	0.12999	0.21865	0.076038	0.24169	0.019407	-0.75833	-0.81667	-0.49792	-1.4458	-0.28542	-0.95417	-1.3271	-0.31042	-1.125	-0.90208	-0.37708	-1.6	-0.63958	-0.8375	-1.3104	-0.50625	102.463	185.723	39.342	-58.571	-21.386	1.625	160.419	277.916	21.582	191.472	-46.596	-57.828	190.071	91.568	158.150	60.316	0.00018051	0.0028506	0.00037923	1052.1	2.5123e-05	1.338e-05	1402.3	396.4	1.1706e-05	1.2282e-05	595.86	225.67	146.98	56.578	2.0033e-05	98.644	0.0043768	0.004514	0.0012464	1197.1	4.9024e-05	4.9867e-05	1499.2	461.53	5.0405e-05	5.1107e-05	701.24	249.99	174.05	67.267	5.2796e-05	109.65	129.105	128.547	18.326	-59.268	116.006	-41.240	-59.923	-55.032	69.389	6.192	-54.964	-51.376	-49.941	-43.994	25.607	-46.054	-8191	255	
1507.088	1	1	0	0	0.29365	0.17416	0.073625	0.23071	0.24118	0.22208	0.13287	0.19602	0.16837	0.19576	0.17877	0.13976	0.20875	0.32036	0.24723	0.24411	-0.79583	-0.81042	-0.32292	-1.2563	-0.45	-0.78125	-1.3958	-0.64792	-0.99167	-0.79583	-0.48542	-1.3729	-0.70833	-0.72292	-1.3312	-0.53125	251.370	-30.782	251.044	284.097	18.789	188.539	-31.584	132.922	131.713	201.527	216.816	-10.357	269.956	178.564	94.659	219.407	3.3898e-05	0.0024554	0.0011349	1048.3	1.0334e-05	3.0938e-05	1391.2	392.56	2.7569e-05	2.4454e-05	592.63	225.65	147.35	56.722	9.7024e-06	98.648	0.0047391	0.0049394	0.0013674	1227	5.4622e-05	5.4796e-05	1521	473.42	5.4754e-05	5.481e-05	712.72	254.5	177.27	68.228	5.4394e-05	110.59	57.802	31.148	-32.956	-58.954	-40.279	36.976	-60.345	-54.980	64.775	160.182	-56.325	-52.383	-50.802	-45.904	139.098	-47.408	-8191	255	
1507.185	1	1	0	0	0.13568	0.14408	0.097089	0.38054	0.2963	0.28086	0.24373	0.14117	0.11843	0.18271	0.25259	0.25616	0.31898	0.15937	0.24156	0.22538	-0.57292	-1.0896	-0.18542	-1.5333	-0.54792	-0.56042	-1.5187	-0.67083	-0.87292	-1.1646	-0.34792	-1.125	-0.78542	-0.50208	-1.1708	-0.51875	147.884	153.488	-56.977	280.744	58.572	22.422	228.014	117.916	209.108	30.597	233.640	-56.898	-41.047	187.294	31.526	148.181	0.00052069	0.0012078	0.00025232	1042.4	1.9547e-05	2.1307e-05	1388.3	394.24	8.2697e-06	3.7731e-05	595.96	229.17	147.21	57.364	1.4204e-05	100.35	0.0048258	0.0049766	0.0013866	1228.4	5.468e-05	5.434e-05	1523.2	473.07	5.4999e-05	5.5144e-05	718.18	257.28	178.18	69.113	5.5195e-05	112.16	185.763	15.697	1.791	-59.796	8.039	-27.599	-60.633	-54.910	-11.882	40.781	-55.871	-52.563	-51.184	-45.724	201.980	-47.774	-8191	255	
1507.281	1	1	0	0	0.36092	0.26775	0.14915	0.13783	0.16634	0.16427	0.24369	0.050998	0.12168	0.28983	0.38898	0.43329	0.44471	0.11179	0.29985	0.12794	-0.37292	-1.1417	-0.46458	-0.95417	-0.76042	-0.41667	-1.4521	-0.8	-0.72708	-1.1771	-0.43958	-1.25	-1.1146	-0.43125	-1.2646	-0.84375	192.106	48.388	-70.451	-46.824	-44.616	57.630	29.894	189.698	281.624	71.140	-50.289	-68.397	273.932	204.924	-26.992	227.410	0.00036287	0.0025122	0.00015979	1046.2	8.8466e-06	1.3552e-06	1392.3	393.67	3.3003e-05	1.5481e-05	595.62	226.79	148.23	57.505	1.9693e-05	100.18	0.0048664	0.0050437	0.0014103	1235.9	5.5697e-05	5.5837e-05	1533.5	478.68	5.6387e-05	5.7044e-05	728.6	260.55	181.96	70.441	5.9222e-05	113.97	11.415	271.744	131.686	-59.797	78.721	-65.086	-60.537	-55.194	139.595	134.079	-56.217	-52.611	-50.718	-46.003	33.504	-47.168	-8191	255	
1507.377	1	1	0	0	0.14335	0.048922	0.19506	0.21891	0.12018	0.10794	0.054768	0.065706	0.22237	0.23356	0.095524	0.45332	0.23021	0.28984	0.14669	0.22033	-0.35833	-1.4167	-0.33542	-1.2875	-1.0479	-0.48958	-1.4667	-0.75417	-0.61042	-1.3479	-0.625	-1.2771	-1.2917	-0.69583	-1.3583	-1.0021	104.836	-0.112	195.095	171.283	197.030	190.606	147.509	286.618	146.628	228.488	232.618	265.876	-35.770	264.586	120.489	160.986	7.8365e-05	0.0015878	0.0010518	1043	1.3215e-05	4.329e-05	1383.7	390.97	1.4089e-05	5.6827e-05	590.62	227.65	147.28	57.413	6.5818e-06	100.1	0.0052544	0.005427	0.0015321	1265.2	6.0017e-05	6.0318e-05	1556.6	487.53	6.0602e-05	6.0964e-05	740.41	263.17	184.05	71.282	6.1573e-05	114.62	25.887	-27.138	-29.811	-57.759	24.681	98.181	-58.872	-54.081	79.601	26.827	-55.801	-51.135	-49.593	-44.417	95.370	-46.371	-8191	255	
1507.498	1	1	0	0	0.12596	0.064162	0.051359	0.2364	0.14265	0.18616	0.43362	0.31208	0.10875	0.12495	0.24056	0.12631	0.24541	0.38265	0.19372	0.1548	-0.1875	-1.2896	-0.57708	-0.90833	-1.2062	-0.27917	-1.4104	-0.99375	-0.64792	-1.2792	-0.62708	-0.84583	-1.2	-0.30417	-1.1562	-1.0583	52.758	46.785	-67.368	197.258	14.067	167.959	266.420	257.578	-8.728	222.324	231.643	158.786	220.476	278.254	-24.538	273.534	0.00058338	0.0026092	0.0014197	1040	1.585e-05	1.4144e-05	1379.4	392.49	4.7179e-06	2.2406e-05	598.32	225.9	147.26	57.058	9.0419e-06	99.905	0.0053325	0.005488	0.0015327	1257.2	5.9031e-05	5.8975e-05	1535	482.67	5.7934e-05	5.853e-05	727.49	258.24	180.27	69.794	5.828e-05	112.94	119.909	45.877	29.324	-58.773	275.654	188.198	-59.881	-54.865	144.355	26.568	-55.873	-52.339	-51.718	-46.126	253.639	-47.518	-8191	255	
1507.594	1	1	0	0	0.037945	0.20389	0.21726	0.35501	0.1458	0.18297	0.06241	0.16085	0.22082	0.18732	0.38132	0.42902	0.081577	0.12291	0.11297	0.30958	-0.25833	-1.2188	-0.42083	-0.91667	-1.1125	-0.39375	-1.1833	-1.0333	-0.44583	-1.2938	-0.78333	-0.89583	-1.3771	-0.36667	-0.98542	-1.2771	172.152	243.914	35.828	281.795	89.872	142.015	227.150	-2.655	-24.080	136.370	154.678	216.354	82.376	233.909	-51.399	208.031	0.00052127	0.0015214	0.00036698	1041.2	1.0581e-05	1.6009e-05	1367.3	393.57	2.1589e-05	1.1078e-05	593.26	227.2	149.07	57.893	7.2908e-06	101.08	0.0050743	0.0052662	0.0014685	1250.2	5.7322e-05	5.7709e-05	1527.8	480.93	5.8193e-05	5.8805e-05	731.41	260.4	182.94	71.093	5.9563e-05	114.89	-29.970	31.314	208.139	-59.641	36.710	3.718	-60.807	-55.340	270.630	109.063	-56.824	-52.639	-51.327	-45.934	128.080	-47.666	-8191	255	
1507.665	1	1	0	0	0.16033	0.1016	0.10308	0.12843	0.24378	0.24796	0.22377	0.26139	0.0022254	0.11862	0.21706	0.20794	0.26683	0.19231	0.033102	0.10993	-0.01875	-1.0646	-0.62083	-0.56667	-1.2792	-0.35833	-1.1417	-1.1896	-0.3875	-1.5458	-0.78958	-0.68542	-1.6229	-0.40833	-1.0604	-1.2333	56.995	254.976	-41.848	220.133	109.727	14.427	255.358	-69.395	180.000	274.235	-27.368	183.498	117.895	-47.449	252.444	54.665	0.00059399	0.0012519	0.00080339	1049.7	2.5916e-05	2.919e-05	1367.2	394.49	2.0587e-05	5.5184e-06	595.6	228.35	148.88	58.516	8.9232e-06	101.26	0.0052311	0.0054391	0.0015229	1262.3	5.9208e-05	5.9677e-05	1527.3	483.18	5.8373e-05	5.8835e-05	732.49	261.08	182.51	71.198	5.8146e-05	114.18	118.678	-34.426	-60.602	-59.768	280.004	99.564	-60.610	-55.017	84.298	75.562	-56.376	-52.701	-51.274	-45.670	-71.998	-47.433	-8191	255	
1507.786	1	1	0	0	0.18808	0.1932	0.11135	0.21074	0.19388	0.16847	0.18693	0.13885	0.2255	0.039815	0.18845	0.1893	0.19473	0.24567	0.26631	0.063031	0.15833	-1.3687	-0.77083	-0.70833	-1.4188	-0.63958	-0.98333	-1.4604	-0.30208	-1.1354	-1.05	-0.83333	-1.4396	-0.57708	-0.77292	-1.3937	18.311	260.316	162.230	240.462	68.545	-18.448	-47.388	224.625	140.361	44.653	-35.319	249.608	140.318	228.318	256.338	174.454	0.00065748	0.0021922	0.00088843	1049	2.2524e-05	2.1034e-05	1364.9	394.75	8.2746e-06	1.216e-05	591.02	226.97	148.48	58.267	1.8018e-05	101.19	0.0050389	0.005234	0.0014423	1240.1	5.5792e-05	5.6086e-05	1506.5	473.96	5.4777e-05	5.5064e-05	710	252.92	176.87	68.693	5.1947e-05	110.34	190.530	48.730	-20.715	-59.625	31.853	119.173	-60.060	-54.420	145.594	220.400	-55.282	-51.638	-50.417	-45.183	-0.846	-46.793	-8191	255	
1507.880	1	1	0	0	0.2311	0.19987	0.20644	0.12827	0.16286	0.11183	0.39029	0.38966	0.056353	0.065499	0.32658	0.05573	0.30792	0.094155	0.23021	0.090104	0.15	-1.1479	-0.98333	-0.46458	-1.2396	-0.58542	-0.94167	-1.2188	-0.5125	-1.0229	-1.0875	-0.79792	-1.3771	-0.69375	-0.64375	-1.4104	228.398	-49.847	224.672	226.795	28.535	120.272	234.088	-20.942	19.252	199.967	225.197	-32.197	285.801	74.668	222.511	35.464	0.00028872	0.0019217	0.0006706	1046.9	1.4138e-05	1.461e-05	1360.1	392.06	5.723e-06	7.2392e-06	587.21	223.87	148.05	57.276	1.1638e-05	99.551	0.0044653	0.0046513	0.0012807	1197.4	4.9357e-05	4.9292e-05	1459.6	455.43	4.7583e-05	4.7542e-05	676.88	243.59	170.06	65.746	4.6692e-05	106.97	269.006	41.074	17.914	-58.589	14.235	148.654	-59.686	-54.306	54.965	217.220	-55.545	-51.724	-50.528	-45.078	121.984	-46.987	-8191	255	
1507.977	1	1	0	0	0.0067779	0.30078	0.090357	0.0094748	0.13496	0.13901	0.070288	0.30266	0.060837	0.3662	0.018541	0.26129	0.23513	0.12518	0.23546	0.3209	-0.10417	-0.91042	-1.1146	-0.39375	-1.2646	-0.81667	-0.775	-1.4208	-0.50417	-0.84167	-1.1875	-0.44375	-1.2625	-1.0125	-0.45833	-1.3875	201.855	244.518	62.401	-25.612	80.166	245.111	-39.727	264.644	273.632	61.847	220.668	-36.728	270.070	-31.323	281.974	229.526	0.00061097	0.00055221	0.00039241	1043.5	2.3001e-05	1.8132e-05	1376.7	392.66	1.4295e-05	5.5806e-06	588.52	226.41	147.96	57.699	1.7264e-05	99.389	0.0041439	0.0043168	0.0011984	1182.4	4.744e-05	4.7871e-05	1458	452.65	4.7252e-05	4.7327e-05	675.79	243.97	169.66	65.566	4.5961e-05	106.46	175.142	45.764	49.363	-59.153	6.774	-46.787	-59.978	-54.216	167.966	179.458	-55.343	-51.914	-50.323	-45.288	178.053	-46.809	-8191	255	
1508.073	1	1	0	0	0.043358	0.2316	0.30948	0.082527	0.12668	0.17451	0.29362	0.16604	0.15683	0.090541	0.14315	0.14287	0.13187	0.21364	0.073305	0.37701	-0.16458	-0.7375	-1.2458	-0.41458	-1.1646	-0.8125	-0.675	-1.2917	-0.57917	-0.675	-1.3729	-0.42708	-1.075	-0.875	-0.32083	-1.4375	80.653	45.474	-31.481	25.224	155.101	242.036	280.025	168.363	105.421	96.009	39.481	281.765	-9.005	11.583	169.189	219.610	0.00053736	0.0011931	0.00070603	1052.3	2.3607e-05	4.9665e-06	1369	394.3	5.1475e-06	3.0919e-05	592.99	224.07	147.05	57.19	5.915e-06	99.453	0.0040359	0.0042075	0.0011659	1175.7	4.6101e-05	4.6014e-05	1450	450.51	4.5919e-05	4.6261e-05	675.37	243.14	169.36	65.299	4.5764e-05	106.07	216.615	255.155	-69.185	-58.906	66.442	266.801	-59.687	-54.200	-15.030	-20.574	-55.472	-51.455	-50.353	-45.192	13.697	-46.844	-8191	255	
1508.193	1	1	0	0	0.080944	0.1688	0.23112	0.055029	0.29776	0.27151	0.068027	0.12798	0.10266	0.014256	0.16459	0.29101	0.23732	0.20941	0.22939	0.13353	-0.41042	-0.48333	-1.3542	-0.18542	-1.0917	-1.0729	-0.71875	-1.4062	-0.6125	-0.78125	-1.3667	-0.63333	-1.025	-1.0917	-0.3375	-1.2083	106.863	-67.379	214.840	-52.665	132.209	285.367	-43.300	271.141	67.288	-41.489	279.219	270.998	-71.212	230.650	282.619	206.377	0.00028357	0.0041191	0.00043564	1046.2	2.5755e-05	1.4278e-05	1376.7	394.58	1.1184e-05	2.5499e-05	592.01	222.97	146.2	56.329	1.3843e-05	97.384	0.0040447	0.0041634	0.0011524	1175.2	4.5325e-05	4.517e-05	1453.8	448.6	4.5304e-05	4.5473e-05	672.83	241.32	168.45	64.595	4.54e-05	104.34	163.192	69.330	5.092	-59.153	167.991	105.275	-59.462	-53.927	86.456	68.985	-54.930	-50.858	-49.794	-44.709	15.945	-46.360	-8191	255	
1508.265	1	1	0	0	0.13553	0.15579	0.084922	0.40861	0.19943	0.16185	0.25215	0.25776	0.22982	0.097666	0.19579	0.074127	0.18089	0.23812	0.10563	0.24114	-0.48125	-0.5	-1.3646	-0.4625	-0.99792	-1.1604	-0.52292	-1.3417	-0.64792	-0.36042	-1.2771	-0.68542	-0.875	-1.2125	-0.32917	-1.3625	211.718	186.113	63.770	242.047	237.532	-28.709	204.124	237.610	14.463	-55.025	62.763	96.410	-54.163	141.045	52.111	236.025	0.00020318	0.0028917	0.00070296	1055.2	1.7721e-05	1.408e-06	1380.8	396.24	1.0041e-05	3.437e-05	584.99	222.03	147.6	56.403	1.3769e-05	96.971	0.0039981	0.004108	0.0011368	1172.3	4.5009e-05	4.4631e-05	1453.2	449.12	4.4793e-05	4.5122e-05	667.93	240.3	167.71	64.286	4.4878e-05	104.07	120.459	182.563	183.844	-59.407	-51.988	86.895	-60.315	-54.998	90.190	-8.887	-54.766	-51.338	-49.749	-44.496	-18.628	-46.865	-8191	255	
1508.361	1	1	0	0	0.30081	0.3091	0.25189	0.12649	0.18776	0.25582	0.14355	0.2086	0.037204	0.29199	0.45198	0.099202	0.24513	0.17989	0.15066	0.21738	-0.49167	-0.32083	-1.0146	-0.54792	-0.64375	-1.3417	-0.52083	-1.2208	-0.84792	-0.64167	-1.5542	-0.79792	-0.8125	-1.3937	-0.17292	-1.0542	-54.962	-35.861	15.788	-26.443	15.271	-46.226	262.073	247.647	8.388	133.132	157.521	254.108	230.539	227.201	192.920	228.559	0.00027561	0.0011343	0.00065367	1054.9	3.0553e-05	2.1777e-05	1380.5	400.67	4.6128e-05	1.6439e-05	594.43	223.73	146.06	56.551	1.414e-05	97.648	0.0039582	0.0040949	0.0011426	1172.2	4.4627e-05	4.4664e-05	1453.8	452.44	4.4765e-05	4.4785e-05	673.16	240.96	167.22	64.193	4.4499e-05	103.91	149.696	134.579	239.295	-58.577	169.167	154.093	-59.341	-53.779	38.966	8.669	-54.838	-51.092	-49.891	-45.005	179.573	-46.947	-8191	255	
1508.457	1	1	0	0	0.13043	0.11639	0.031358	0.28047	0.080755	0.21162	0.42418	0.35571	0.15009	0.2049	0.21459	0.10295	0.24077	0.17973	0.23209	0.32518	-0.57708	-0.35625	-1.2188	-0.64375	-0.77292	-1.2521	-0.58333	-1.2292	-1.0438	-0.18542	-1.2854	-0.94792	-0.68333	-1.4104	-0.31667	-0.99583	-48.773	191.273	133.985	226.648	3.720	148.762	237.797	199.867	139.277	203.036	248.748	-7.902	-62.260	282.199	-5.780	234.421	0.0004812	0.0026203	0.00056048	1052.3	2.2742e-05	4.8206e-05	1388.7	401.89	2.5789e-05	3.1101e-05	598.6	225.88	148.11	57.033	2.8187e-05	97.813	0.0039019	0.004039	0.0011194	1164	4.3715e-05	4.3965e-05	1451.6	451.58	4.3573e-05	4.3914e-05	673.12	241.4	166.88	64.054	4.3066e-05	103.62	207.366	64.504	244.970	-58.844	31.464	133.096	-59.557	-53.908	107.280	-49.914	-56.206	-52.492	-50.819	-46.011	92.157	-47.731	-8191	255	
1508.578	1	1	0	0	0.070017	0.070462	0.032861	0.098368	0.24454	0.12546	0.53702	0.26543	0.14832	0.2182	0.10943	0.3426	0.17825	0.18461	0.075794	0.32067	-0.73958	-0.2875	-1.1104	-1.0021	-0.5125	-1.0542	-0.52917	-0.9	-1.2333	-0.14167	-1.2938	-0.88333	-0.26458	-1.0729	-0.56667	-0.77917	261.629	38.687	250.814	135.664	-69.277	34.528	205.789	266.285	242.820	169.980	249.826	158.336	208.712	-56.914	181.423	207.086	0.00018492	0.0013504	0.0002154	1058.1	1.3796e-05	2.9154e-05	1392.1	409.25	1.0237e-05	1.3384e-05	607.19	226.34	147.92	57.224	8.0726e-06	98.201	0.0037673	0.0038819	0.0010821	1154.2	4.1742e-05	4.1762e-05	1442	451.68	4.1351e-05	4.1956e-05	672.64	240.11	166.05	63.883	4.2769e-05	103.62	166.539	51.331	33.461	-60.014	205.154	-43.631	-60.946	-55.071	-39.513	11.266	-55.928	-52.783	-51.165	-45.901	125.655	-48.090	-8191	255	
1508.674	1	1	0	0	0.16715	0.22853	0.097248	0.26943	0.070142	0.16486	0.096689	0.067579	0.20991	0.12888	0.19268	0.01944	0.18038	0.2051	0.18494	0.26843	-0.79583	-0.24792	-1.1833	-0.84792	-0.33542	-1.1688	-0.68125	-0.70208	-1.025	-0.30417	-1.1979	-1.1708	-0.46875	-1.1771	-0.56875	-0.68125	84.421	244.450	-13.627	200.060	193.234	-54.647	217.659	58.499	220.298	-47.763	-33.477	197.730	265.805	-28.728	57.568	242.098	0.0005638	0.002418	0.00038615	1042.2	9.1845e-06	1.0592e-05	1382.2	411.8	1.3233e-05	1.7249e-05	607.37	225.78	149.38	57.145	3.1682e-05	97.604	0.0037496	0.0039016	0.0010891	1147.5	4.2137e-05	4.2282e-05	1442.9	456.4	4.1866e-05	4.2267e-05	674.24	239.16	166.74	63.962	4.2856e-05	103.59	165.439	144.822	23.144	-60.424	-0.511	44.773	-60.931	-55.169	110.118	-60.141	-56.249	-52.887	-50.958	-46.335	49.610	-48.408	-8191	255	
1508.770	1	1	0	0	0.051459	0.19475	0.14661	0.2335	0.050501	0.30696	0.19152	0.38456	0.22809	0.089207	0.20558	0.23073	0.11231	0.34374	0.10854	0.26725	-1.0479	-0.26667	-0.81458	-1.0896	-0.32917	-1.175	-0.72708	-0.58958	-1.0479	-0.60833	-0.83333	-1.2729	-0.475	-1.1458	-0.73958	-0.66667	205.044	13.896	25.753	224.547	5.835	139.332	-30.112	-24.828	268.038	185.983	222.378	227.393	265.006	208.856	-16.806	268.897	8.2025e-05	0.0006764	0.00015456	1035.5	2.7654e-05	2.7027e-05	1376.6	418.97	8.506e-06	1.8376e-05	618.35	226.13	149.63	57.71	1.8163e-05	98.218	0.003796	0.0039682	0.0011161	1153.4	4.3879e-05	4.4691e-05	1453.3	466.38	4.4213e-05	4.4573e-05	688.81	241.97	168.86	64.99	4.4269e-05	104.7	-61.422	76.704	90.326	-60.445	48.936	38.988	-61.172	-55.301	212.322	-56.000	-56.438	-53.012	-51.823	-46.441	18.048	-48.111	-8191	255	
1508.866	1	1	0	0	0.034019	0.27028	0.1299	0.27082	0.10711	0.14374	0.22031	0.13612	0.19759	0.072116	0.34802	0.077276	0.20494	0.23543	0.1096	0.11024	-0.67917	-0.48958	-0.93542	-1.3333	-0.40417	-1.0958	-1.1021	-0.43542	-1.3479	-0.43333	-0.73333	-1.3083	-0.48542	-1.1396	-0.91042	-0.30833	101.434	70.169	284.724	265.755	-51.302	266.235	166.318	162.466	143.392	4.731	286.578	232.297	-5.820	223.424	113.188	221.080	0.00055325	0.00089205	0.00024774	1030.5	7.1136e-06	2.445e-05	1390.8	426.23	7.2699e-06	2.7398e-05	624.48	228.79	151.62	57.773	2.0312e-05	98.913	0.0038861	0.0040323	0.0011117	1147.5	4.3404e-05	4.3702e-05	1446.4	467.36	4.2578e-05	4.3135e-05	689.45	242.67	168.93	64.878	4.2707e-05	104.93	140.655	281.539	47.846	-60.249	6.783	96.270	-60.916	-55.335	181.373	-19.759	-56.739	-52.887	-51.321	-46.236	278.071	-48.446	-8191	255	
1508.961	1	1	0	0	0.24474	0.11816	0.10331	0.24331	0.03005	0.16745	0.13754	0.1186	0.26278	0.26929	0.10951	0.26888	0.20929	0.23335	0.1986	0.24644	-0.88125	-0.47708	-0.59583	-1.5583	-0.175	-1.1021	-0.94375	-0.40417	-1.3583	-0.58333	-0.69375	-1.2771	-0.3375	-1.0271	-1.0938	-0.45	-62.622	208.787	220.139	200.756	10.534	123.337	25.853	208.027	2.861	151.197	278.981	250.789	229.756	252.867	44.442	210.883	0.00019239	0.0015736	0.00019855	1027.6	2.4719e-05	9.2633e-06	1388.8	429.55	1.2133e-05	3.142e-05	635.56	231.2	152.83	58.894	2.2049e-05	100.05	0.0037589	0.0039308	0.0010888	1141.4	4.2756e-05	4.2749e-05	1445.4	470.22	4.1889e-05	4.2376e-05	695.2	243.59	169.38	65.464	4.2427e-05	105.44	160.079	-11.710	167.960	-60.037	31.972	104.609	-61.014	-55.514	-36.579	97.097	-56.773	-53.110	-51.876	-46.641	120.871	-48.480	-8191	255	
1509.059	1	1	0	0	0.10469	0.31359	0.12311	0.17334	0.044174	0.22574	0.19719	0.33168	0.12408	0.03381	0.17016	0.023899	0.3938	0.4086	0.24411	0.20554	-0.93542	-0.80625	-0.54583	-1.5521	-0.41667	-0.99375	-1.3792	-0.27292	-1.0854	-0.70833	-0.5	-1.5042	-0.43958	-0.72083	-1.0875	-0.4125	-1.457	71.465	174.981	6.444	203.169	209.771	258.573	223.777	198.355	163.360	-66.683	93.046	172.804	242.663	24.487	284.257	0.00030039	0.0025671	0.00020607	1025.9	3.7606e-05	1.6688e-05	1384.9	435.89	2.5238e-05	2.1324e-05	638.39	233.02	153.11	59.147	1.7908e-05	100.65	0.0037522	0.0039117	0.0010767	1137.8	4.2149e-05	4.2468e-05	1437.6	473.33	4.1301e-05	4.1633e-05	695.6	243.57	168.87	64.975	4.1109e-05	104.99	176.179	55.311	20.413	-60.470	237.268	121.774	-61.013	-55.676	133.421	95.613	-56.599	-52.939	-51.725	-46.793	-40.523	-48.419	-8191	255	
1509.178	1	1	0	0	0.25975	0.099348	0.11954	0.32739	0.036209	0.20904	0.21969	0.078969	0.070288	0.22147	0.4028	0.26019	0.074555	0.08565	0.12975	0.34227	-0.67917	-0.73125	-0.15625	-1.075	-0.39375	-0.59583	-1.3188	-0.43958	-0.88125	-0.90208	-0.38542	-1.2	-0.58333	-0.48333	-1.1146	-0.55417	50.223	219.631	95.224	259.450	146.870	212.724	167.525	217.411	253.063	100.450	270.809	259.383	58.188	-71.884	103.508	226.890	0.00031278	0.0030569	0.00034186	1023.6	1.7777e-05	2.0046e-05	1379.2	438.47	2.1294e-05	4.0337e-06	644.51	234.52	154.97	59.525	2.387e-05	101.65	0.0036412	0.0037487	0.0010401	1119.6	4.0591e-05	4.058e-05	1424.8	470.38	4.0018e-05	3.9838e-05	692.22	243.47	168.9	64.83	3.9358e-05	104.68	121.493	222.921	-38.191	-60.308	3.412	50.712	-61.179	-54.989	49.935	130.917	-56.578	-52.713	-51.814	-46.807	50.951	-48.654	-8191	255	
1509.274	1	1	0	0	0.21553	0.2097	0.032355	0.27963	0.38872	0.11607	0.20553	0.29389	0.11802	0.13417	0.1592	0.39188	0.13565	0.2377	0.20713	0.39815	-0.59167	-0.89792	-0.18125	-1.3417	-0.42083	-0.58125	-1.3042	-0.44375	-0.84792	-0.95	-0.425	-1.2625	-0.63333	-0.51458	-1.2042	-0.47083	-44.549	-41.824	34.214	210.726	27.769	55.999	211.076	207.968	172.581	156.701	241.123	270.486	-0.372	67.468	89.645	157.928	0.00026563	0.0025367	0.00059955	1019.9	1.3551e-05	3.8699e-06	1389.4	441.44	2.9399e-05	1.0915e-05	650.4	236.58	157.53	60.12	7.0117e-06	103.25	0.0034771	0.0035571	0.00097975	1111.1	3.8231e-05	3.8368e-05	1414.3	466.66	3.7847e-05	3.8045e-05	691.58	244.7	169.19	64.78	3.7952e-05	105.04	191.330	-3.360	-34.045	-60.000	90.208	71.075	-60.996	-55.376	-14.919	123.088	-56.779	-52.971	-51.607	-46.564	206.914	-48.374	-8191	255	
1509.370	1	1	0	0	0.13133	0.24756	0.26952	0.16925	0.053935	0.32523	0.17111	0.16927	0.12791	0.2304	0.21211	0.31491	0.16991	0.52303	0.089341	0.072362	-0.47083	-0.96667	-0.1875	-1.2375	-0.60833	-0.40833	-1.2625	-0.42917	-0.67917	-1.0396	-0.50208	-1.1562	-0.83542	-0.40208	-1.3583	-0.5125	8.285	228.813	140.874	174.680	111.493	-18.722	6.489	135.642	14.016	145.578	11.424	191.757	-64.691	243.273	-54.769	201.930	2.8946e-05	0.0025045	0.0011186	1030.2	1.1992e-05	1.841e-05	1386.2	443.26	1.1096e-05	4.5485e-05	651.9	240.09	159.49	60.542	4.7792e-06	104.29	0.0033658	0.0034472	0.00096055	1108.8	3.7941e-05	3.794e-05	1415.8	469.38	3.783e-05	3.7888e-05	693.86	246.81	170.68	65.129	3.8222e-05	106.58	202.615	100.943	3.649	-59.770	120.085	161.481	-60.883	-55.615	-4.570	273.039	-56.389	-52.765	-51.453	-46.333	55.297	-48.399	-8191	255	
1509.491	1	1	0	0	0.074538	0.13963	0.34743	0.10334	0.073346	0.17802	0.20071	0.061647	0.18803	0.15259	0.2331	0.29228	0.080149	0.048349	0.11594	0.44498	-0.26667	-1.1458	-0.34583	-1.0667	-1.0104	-0.42292	-1.3458	-0.78125	-0.4375	-1.0979	-0.38125	-1.0438	-1.1229	-0.475	-1.2146	-0.75417	-18.520	113.347	-45.327	146.238	161.100	55.165	208.708	181.000	13.872	102.057	-16.794	218.262	186.939	269.230	-1.192	248.342	0.0002355	0.00041108	0.00045907	1026.7	1.0683e-05	2.3808e-05	1394	444.4	1.2405e-05	2.5332e-05	655.67	242.08	159.75	61.063	2.3089e-05	104.5	0.0033871	0.0034893	0.00097401	1111.8	3.8231e-05	3.827e-05	1419.7	471.09	3.7554e-05	3.7249e-05	692.66	245.9	169.72	64.698	3.5858e-05	105.15	100.427	206.879	7.547	-60.122	21.910	99.774	-60.805	-55.389	-69.145	5.768	-56.901	-52.959	-51.551	-46.382	198.464	-48.498	-8191	255	
1509.562	1	1	0	0	0.080127	0.16676	0.073259	0.13166	0.27548	0.14866	0.22582	0.20375	0.20615	0.14737	0.17191	0.28879	0.16737	0.0091128	0.30003	0.20441	-0.10208	-1.1792	-0.47708	-1.0812	-0.92292	-0.4	-1.2375	-0.83333	-0.55833	-1.3458	-0.50833	-0.87917	-1.3396	-0.23958	-1.0667	-0.72292	230.575	44.729	50.573	249.710	78.839	86.094	251.001	-31.743	2.405	-65.175	189.498	-57.275	212.951	115.555	216.431	232.215	0.00027589	0.0026487	0.00053488	1024.4	1.0868e-05	1.664e-05	1389.1	447.11	1.4251e-05	2.3773e-06	660.01	240.28	160.83	61.702	1.1442e-05	105.55	0.003135	0.0032354	0.00090247	1093.5	3.5391e-05	3.5556e-05	1401.6	466.46	3.5888e-05	3.6101e-05	692.99	246.74	171.07	65.585	3.7427e-05	106.73	183.074	199.574	186.340	-59.920	153.035	192.349	-61.012	-55.528	-7.530	-57.040	-56.591	-53.173	-51.634	-46.670	113.375	-48.481	-8191	255	
1509.658	1	1	0	0	0.13754	0.15072	0.095195	0.39871	0.32598	0.16741	0.18958	0.20766	0.17321	0.045162	0.20749	0.30229	0.25993	0.36401	0.16493	0.25162	-0.064583	-1.175	-0.33542	-0.83542	-0.90833	-0.29167	-1.3417	-1.0708	-0.18958	-1.2833	-0.3625	-0.82917	-1.2563	-0.31458	-0.97292	-1.075	54.716	-26.512	275.303	-55.167	164.249	70.845	179.264	-35.751	263.276	272.027	282.691	241.802	252.710	241.933	83.306	266.757	0.00026369	0.00013134	0.00052891	1026.1	4.832e-06	4.1586e-06	1389.6	443.72	1.4881e-05	5.073e-06	660.56	245	161.7	61.716	1.0642e-05	105.47	0.0033023	0.0034383	0.0009684	1110.2	3.8334e-05	3.894e-05	1426	476.03	3.9248e-05	3.9634e-05	706.48	251.82	174.91	66.758	3.9716e-05	108.06	127.645	-28.739	-22.836	-60.080	47.288	20.217	-60.947	-55.342	96.529	7.834	-56.561	-52.713	-51.547	-46.958	163.694	-48.548	-8191	255	
1509.754	1	1	0	0	0.13701	0.37466	0.19512	0.30176	0.24174	0.093854	0.26418	0.14687	0.22771	0.31897	0.18729	0.24765	0.38645	0.081564	0.1784	0.34445	0.18542	-1.1479	-0.49167	-0.59792	-0.97917	-0.33958	-1.2479	-1.0292	-0.35417	-1.2542	-0.7625	-0.70625	-1.4208	-0.58125	-0.81875	-1.15	127.473	-72.919	-34.795	239.244	16.710	70.292	257.376	-32.698	-49.978	190.330	-64.985	250.602	196.493	55.533	278.186	256.797	0.00036686	0.002093	0.00085788	1024.5	1.3113e-05	1.2548e-05	1399.9	448	1.3495e-05	1.5216e-05	666.74	246.67	164.23	63.145	2.2304e-05	107.38	0.0034424	0.0035771	0.00099491	1114	3.8584e-05	3.8575e-05	1425.4	474.59	3.8016e-05	3.8182e-05	705.53	252.47	174.81	67.074	3.8334e-05	108.9	78.889	30.369	-53.461	-60.038	36.776	94.390	-60.887	-55.478	104.456	89.455	-56.199	-53.079	-51.711	-46.769	-71.778	-48.204	-8191	255	
1509.873	1	1	0	0	0.1269	0.07415	0.18445	0.37651	0.09184	0.212	0.20484	0.11647	0.12246	0.17241	0.13657	0.30713	0.17056	0.040029	0.041756	0.076803	-0.2	-1.1875	-0.55625	-0.49792	-1.1167	-0.48542	-0.92083	-1.0146	-0.41042	-1.0292	-0.78542	-0.45833	-1.2167	-0.54167	-0.86875	-1.2188	286.152	139.291	21.388	-73.274	81.268	216.954	263.906	286.522	270.895	164.408	246.819	-37.072	236.386	226.058	-31.074	19.422	9.5127e-05	0.0017704	0.00071489	1032.2	2.3616e-05	1.8595e-05	1408.3	450.65	1.395e-05	2.1959e-05	664	247.79	165.07	63.018	5.3812e-06	107.28	0.0033608	0.0035111	0.00098466	1115	3.8494e-05	3.9134e-05	1437.4	478.76	3.9134e-05	3.9435e-05	710.27	253.72	176.69	67.807	3.9659e-05	109.55	187.263	199.238	15.722	-59.903	88.321	270.737	-60.813	-55.455	160.386	152.230	-56.454	-52.764	-51.898	-46.864	209.548	-48.668	-8191	255	
1509.970	1	1	0	0	0.3414	0.059811	0.18977	0.032441	0.10401	0.084427	0.22842	0.073287	0.16373	0.23328	0.34263	0.3212	0.36356	0.38434	0.072153	0.42776	-0.0041667	-1.0271	-0.7125	-0.53333	-1.1458	-0.4875	-0.87708	-1.2729	-0.35625	-1.0229	-0.95	-0.425	-1.3292	-0.76458	-0.82708	-1.4312	153.694	275.268	-39.028	54.349	-29.323	241.760	82.790	-68.954	267.476	32.768	261.880	265.770	194.579	-58.321	256.988	249.349	0.00027215	0.002148	0.00045997	1033.8	1.4967e-05	1.415e-05	1389.2	444.82	1.6257e-05	1.2648e-05	662.4	247.28	163.65	63.05	1.3726e-05	106.62	0.0034724	0.0036624	0.0010148	1123.7	3.9836e-05	4.0394e-05	1434.6	480.81	4.0215e-05	4.0938e-05	713.79	255.07	177.55	68.322	4.1075e-05	110.15	184.147	156.412	82.297	-60.135	73.771	233.174	-60.808	-55.654	104.311	71.592	-56.653	-52.992	-51.348	-46.985	276.817	-48.657	-8191	255	
1510.066	1	1	0	0	0.057761	0.26762	0.038641	0.30088	0.18028	0.1817	0.21106	0.31925	0.13648	0.12168	0.20576	0.25601	0.10056	0.071618	0.095979	0.053938	0.18125	-1.0438	-0.90625	-0.50833	-1.1063	-0.63542	-0.72708	-1.1625	-0.35417	-0.95417	-1.1854	-0.66042	-1.1375	-0.85417	-0.51042	-1.3542	-14.308	-43.239	242.038	-67.056	43.905	106.158	268.090	281.535	284.359	75.502	-32.506	261.474	252.725	57.041	39.981	174.746	3.8462e-05	0.00099179	0.00030153	1026.2	1.3832e-05	3.5071e-05	1395.8	448.84	9.4245e-06	1.7178e-05	664.36	247.02	164.64	62.603	6.7341e-06	107.38	0.0036233	0.003766	0.0010486	1127.3	4.1425e-05	4.1629e-05	1443.5	484.69	4.1347e-05	4.1876e-05	716.1	255.61	179.05	68.492	4.112e-05	110.77	145.622	266.139	52.646	-60.452	92.266	64.756	-61.055	-55.380	-32.087	285.916	-56.496	-52.595	-51.509	-46.972	239.087	-48.460	-8191	255	
1510.139	1	1	0	0	0.10651	0.16849	0.073542	0.23661	0.22945	0.098513	0.16014	0.27388	0.18897	0.067543	0.027934	0.040701	0.24729	0.18864	0.21789	0.23543	0.095833	-0.81875	-0.94375	-0.44583	-1.0104	-0.77083	-0.50417	-1.3021	-0.45417	-0.67708	-1.2917	-0.375	-1.1896	-0.87292	-0.35625	-1.4438	268.008	175.977	257.252	-69.820	266.365	-16.554	275.711	251.551	211.754	236.272	60.324	211.739	180.762	223.811	-72.716	174.013	0.00026707	0.0013405	0.00020763	1029.8	1.5781e-05	7.7421e-06	1396	448.08	1.6785e-05	1.4297e-05	659.95	245.96	162.54	63.449	1.4304e-05	108.14	0.0036739	0.0038262	0.0010696	1137.9	4.2394e-05	4.2576e-05	1450.1	486.27	4.2364e-05	4.2707e-05	722.5	257.9	180.58	69.554	4.3323e-05	112.27	166.237	-0.861	173.319	-60.287	226.425	153.309	-61.206	-55.444	21.164	105.780	-56.507	-52.937	-51.574	-46.872	-55.036	-48.705	-8191	255	
1510.258	1	1	0	0	0.29358	0.25537	0.09371	0.23945	0.12982	0.19103	0.23928	0.25358	0.50888	0.14719	0.2812	0.35404	0.183	0.21629	0.1881	0.18508	-0.15	-0.60208	-1.2	-0.35833	-1.0292	-1.05	-0.44167	-1.5146	-0.26667	-0.69375	-1.3354	-0.45833	-1.0396	-1.1583	-0.1625	-1.3458	83.460	-41.023	233.114	239.009	-29.870	-35.844	211.043	209.546	11.367	-24.506	-47.589	244.849	199.792	-63.875	91.252	277.387	0.0005756	0.0017908	0.00067635	1032.8	1.4898e-05	2.7531e-05	1393.1	448.87	1.1945e-05	1.1334e-05	664.74	247.58	162.98	63.257	1.0158e-05	108.09	0.0038517	0.0039916	0.0011049	1149.9	4.3871e-05	4.3941e-05	1462.6	491.76	4.4042e-05	4.4436e-05	728.51	259.79	180.98	69.844	4.4147e-05	112.67	197.187	33.179	265.934	-60.592	148.299	142.247	-61.428	-55.235	113.996	69.841	-56.583	-52.668	-51.268	-46.931	143.433	-48.441	-8191	255	
1510.354	1	1	0	0	0.21411	0.044931	0.17289	0.12137	0.1195	0.23944	0.41321	0.26197	0.13574	0.19059	0.15944	0.027955	0.38932	0.15105	0.33928	0.20135	-0.27292	-0.45625	-1.275	-0.42083	-0.7625	-1.0729	-0.36667	-1.2958	-0.69583	-0.48333	-1.3708	-0.4	-1.1583	-1.3083	-0.30833	-1.2062	62.881	139.389	77.059	79.552	129.378	44.233	270.492	180.618	63.394	251.212	239.849	86.690	236.875	-1.565	-55.498	227.209	0.00042667	0.0016257	0.00067223	1037.2	1.3867e-05	1.3435e-05	1399.1	445.81	1.0557e-05	1.3219e-05	661.24	246.66	164.67	63.495	4.1308e-05	107.92	0.0038819	0.0039855	0.0011108	1155	4.3844e-05	4.3509e-05	1459.5	489.51	4.2896e-05	4.2823e-05	719.95	257.47	179.68	69.285	4.2222e-05	111.65	158.228	95.554	76.017	-60.430	-26.294	33.865	-61.161	-55.082	79.457	82.238	-56.755	-52.928	-51.665	-46.711	107.413	-48.455	-8191	255	
1510.450	1	1	0	0	0.23461	0.14602	0.07016	0.093676	0.17812	0.21875	0.43721	0.22091	0.14295	0.20444	0.14459	0.11832	0.028931	0.20749	0.22522	0.44422	-0.425	-0.39375	-1.0271	-0.59792	-0.76042	-1.0208	-0.58125	-1.2313	-0.84583	-0.62083	-1.3937	-0.4875	-0.82083	-1.3354	-0.35625	-1.3438	134.565	102.972	174.718	29.433	193.464	186.357	238.208	241.148	113.143	138.509	-72.926	-42.770	248.252	-50.338	124.980	214.768	0.00033836	0.0022659	0.00068161	1039.2	8.0857e-06	6.6645e-06	1400.3	450.92	9.9256e-06	1.8253e-05	662.66	246.98	165.76	64.098	1.8332e-05	108.45	0.0037049	0.0038061	0.001054	1141.9	4.1806e-05	4.1777e-05	1448	486.77	4.1972e-05	4.2006e-05	719.38	257.22	180.12	69.652	4.2546e-05	112.42	181.062	6.878	-34.971	-60.035	68.079	13.168	-60.572	-55.607	-65.662	40.116	-56.549	-53.112	-51.442	-46.797	-58.562	-48.576	-8191	255	
1510.571	1	1	0	0	0.19172	0.30778	0.11166	0.11202	0.086994	0.068093	0.27032	0.19831	0.266	0.17805	0.033474	0.21852	0.47849	0.24737	0.1182	0.079822	-0.5625	-0.39167	-1.3396	-0.6625	-0.56042	-1.2125	-0.53958	-1.0729	-0.86667	-0.37083	-1.2729	-0.88333	-0.46667	-1.2667	-0.2125	-1.2	269.748	130.090	204.988	242.759	260.686	68.607	184.367	224.422	39.929	213.074	80.385	223.503	-41.216	283.755	102.175	-2.707	0.00041873	0.0022187	0.00012673	1053.5	2.0326e-05	1.4914e-05	1410	452.88	1.7903e-05	1.3537e-05	666.62	249.72	164.93	64.763	2.0525e-05	109.45	0.0037181	0.0038562	0.0010715	1154	4.201e-05	4.2008e-05	1459.9	490.04	4.1588e-05	4.1908e-05	720.52	257.9	179.69	69.716	4.0386e-05	112.12	162.494	17.515	230.793	-60.516	240.502	-0.846	-61.515	-55.647	181.325	88.408	-56.320	-53.185	-51.343	-46.606	8.916	-48.455	-8191	255	
1510.667	1	1	0	0	0.23618	0.177	0.17948	0.094942	0.29873	0.16129	0.17767	0.29414	0.20972	0.27596	0.24042	0.28669	0.16018	0.22027	0.081298	0.1137	-0.74583	-0.36875	-1.1521	-0.68125	-0.44792	-1.0583	-0.5375	-0.95	-1.1542	-0.28333	-1.2917	-1.0271	-0.5	-1.3583	-0.40625	-0.97292	192.289	216.328	62.577	-58.780	189.452	13.657	-62.327	193.304	-18.994	-43.505	148.540	257.988	258.579	206.706	17.246	141.249	0.00025381	0.0008053	0.00023265	1063.4	2.2335e-05	7.6395e-06	1428.2	461.01	1.526e-05	1.2767e-05	674.15	252.04	169.08	66.159	1.6777e-05	111.37	0.0035028	0.0036209	0.0010005	1148.2	3.865e-05	3.8457e-05	1452.5	484.82	3.7598e-05	3.7579e-05	711.07	255.52	178.37	69.129	3.6523e-05	111.4	126.062	-37.341	-11.787	-60.283	77.801	159.937	-61.278	-55.380	134.833	118.600	-56.949	-52.932	-51.282	-46.750	210.731	-48.601	-8191	255	
1510.763	1	1	0	0	0.23928	0.29831	0.13447	0.19317	0.18281	0.16813	0.23562	0.24493	0.017799	0.13261	0.18986	0.37791	0.30986	0.26111	0.078646	0.21958	-0.75	-0.19792	-1.0729	-1.2125	-0.47292	-1.3083	-0.53542	-0.66458	-1.1521	-0.21667	-1.2104	-1.1625	-0.62083	-1.4083	-0.79167	-0.85208	-72.744	-10.545	-48.705	255.724	109.589	215.662	209.671	236.192	0.740	77.141	285.092	232.205	264.850	-61.218	158.333	249.610	0.00039202	0.00019316	0.00052001	1084.7	1.2312e-05	2.0246e-05	1440.6	467.46	3.374e-05	1.5851e-05	672.06	252.78	169.42	66.18	1.7188e-05	110.9	0.0031832	0.0033009	0.00091947	1141.6	3.5964e-05	3.6094e-05	1447.4	483.49	3.5947e-05	3.6197e-05	705.77	255.08	177.92	69.146	3.6316e-05	110.74	122.583	118.575	35.629	-60.479	39.613	265.906	-61.106	-55.646	25.425	262.553	-56.722	-52.568	-51.245	-46.755	104.548	-48.472	-8191	255	
1510.859	1	1	0	0	0.30117	0.094014	0.15105	0.27902	0.21258	0.23962	0.28323	0.23142	0.12586	0.21207	0.39011	0.13389	0.11908	0.21395	0.08572	0.41921	-0.86458	-0.27917	-0.89167	-1.1313	-0.23333	-1.1646	-0.65	-0.50417	-1.2667	-0.37292	-1.0104	-1.1	-0.58125	-1.3646	-0.88542	-0.66458	-24.088	72.218	111.383	-68.762	251.515	106.590	-21.148	-9.575	-49.671	276.832	242.043	227.079	-71.709	272.984	-8.109	206.986	0.00014064	0.0014748	0.0003489	1090.1	2.3587e-05	2.4719e-05	1461.5	464.36	2.1311e-05	1.7082e-05	681.77	252.71	169.84	66.422	2.0423e-05	109.8	0.0031735	0.0032961	0.00091567	1150.5	3.5593e-05	3.5957e-05	1458.1	483.74	3.5503e-05	3.5953e-05	707.15	254.06	177.59	69.136	3.6162e-05	110.45	180.790	105.354	19.717	-59.935	154.648	271.547	-61.078	-55.320	159.148	0.833	-56.550	-53.008	-51.087	-46.836	73.194	-48.304	-8191	255	
1510.954	1	1	0	0	0.15661	0.16308	0.23732	0.17193	0.14355	0.16759	0.16439	0.30036	0.25202	0.31862	0.2032	0.2088	0.24559	0.1217	0.30493	0.013517	-0.95208	-0.48125	-0.78958	-1.1854	-0.31667	-1.075	-0.99792	-0.55208	-0.97292	-0.54167	-0.88333	-1.2	-0.3625	-1.2188	-0.70417	-0.55833	-57.936	-54.798	62.657	239.278	178.675	126.423	265.095	234.767	61.646	85.003	174.806	227.193	-54.491	-61.897	121.435	134.057	0.00012765	0.0012716	0.00023382	1091.2	1.0958e-05	1.768e-05	1451.1	466.82	2.1529e-05	1.0161e-05	675.59	249.77	169.4	65.768	8.9744e-06	108.37	0.0032002	0.003342	0.00094025	1158.1	3.6606e-05	3.7364e-05	1465	486.69	3.6676e-05	3.6903e-05	708.86	253.42	177.68	68.649	3.6188e-05	108.72	202.356	77.932	137.949	-60.227	-11.979	118.353	-61.212	-55.178	35.710	-15.592	-56.495	-52.956	-51.247	-46.943	90.481	-48.171	-8191	255	
1511.050	1	1	0	0	0.18229	0.13478	0.22339	0.38043	0.068841	0.10132	0.51692	0.13885	0.098149	0.13484	0.21472	0.24406	0.34315	0.19525	0.11865	0.059416	-0.90208	-0.53958	-0.425	-1.3312	-0.11875	-0.94792	-1.1688	-0.61875	-1.125	-0.64375	-0.68958	-1.6417	-0.42292	-1.0396	-1.15	-0.4875	253.624	135.711	4.698	225.523	237.812	22.905	266.426	138.214	63.793	-25.052	284.418	270.773	265.878	196.932	-10.391	140.184	8.7413e-05	0.0013417	0.00021068	1094.7	7.8141e-06	2.8916e-05	1455.1	461.1	1.6908e-05	1.5802e-05	674.58	247.38	166.76	64.458	1.2603e-05	106.52	0.0031706	0.0033058	0.00091724	1154.1	3.598e-05	3.6457e-05	1462.2	480.98	3.5499e-05	3.5803e-05	696.35	249.91	174.85	67.383	3.507e-05	106.55	80.319	-70.398	-13.506	-60.232	182.476	-4.769	-60.885	-55.194	168.353	187.000	-56.943	-52.655	-51.372	-46.565	124.795	-48.243	-8191	255	
1511.171	1	1	0	0	0.3015	0.23408	0.12425	0.16097	0.14019	0.26559	0.25519	0.38644	0.16257	0.12553	0.41678	0.076156	0.27711	0.1028	0.19105	0.11191	-0.80208	-0.69375	-0.70833	-1.45	-0.41042	-0.88125	-1.2042	-0.20208	-1.0938	-0.8	-0.4875	-1.5104	-0.69375	-0.8625	-1.3062	-0.50625	118.689	261.322	14.627	253.319	89.123	47.166	216.881	271.254	174.981	258.909	242.309	260.179	-21.685	180.201	187.746	197.933	0.00019849	0.0017112	0.00015635	1100.6	5.0059e-06	7.8273e-06	1465.3	453.72	3.9861e-05	6.3038e-06	647.2	243.81	163.34	63.279	2.0589e-05	103.5	0.0030972	0.0032109	0.00089572	1147.8	3.4929e-05	3.5211e-05	1456.1	470.2	3.4528e-05	3.47e-05	673.65	244.56	170.72	65.89	3.3144e-05	102.84	121.876	13.554	-26.329	-59.891	16.869	125.299	-61.178	-55.180	176.318	216.460	-56.361	-52.359	-51.059	-46.717	171.656	-48.413	-8191	255	
1511.267	1	1	0	0	0.31822	0.23789	0.17741	0.033715	0.07708	0.22331	0.16124	0.1492	0.5068	0.049924	0.10083	0.22372	0.088593	0.28819	0.28063	0.38712	-0.68125	-0.6625	-0.37083	-1.2708	-0.5125	-0.75625	-1.4958	-0.60625	-0.87292	-0.76667	-0.55	-1.3208	-0.625	-0.73542	-1.0896	-0.42083	207.206	36.514	144.076	98.674	261.093	175.902	255.715	-8.324	134.556	67.770	143.889	209.990	-70.514	250.940	15.550	225.266	0.00044202	0.0014854	9.919e-05	1094.5	1.9768e-05	1.3024e-05	1449.7	441.89	7.4308e-06	1.5199e-05	637.46	240.71	161.91	62.542	2.5068e-05	101.74	0.0029021	0.0029662	0.00081713	1123.8	3.1749e-05	3.1703e-05	1424.6	449.47	3.0921e-05	3.0758e-05	647.4	236.97	165.3	63.642	2.9405e-05	99.236	134.157	-27.416	49.595	-59.612	38.424	127.293	-60.444	-55.044	103.817	5.219	-56.002	-52.340	-50.446	-45.877	20.221	-47.757	-8191	255	
1511.363	1	1	0	0	0.37439	0.24776	0.22374	0.40264	0.3116	0.14637	0.33292	0.35877	0.058614	0.038934	0.30077	0.24693	0.32216	0.078362	0.15738	0.13765	-0.725	-0.72292	-0.41667	-1.4542	-0.56667	-0.48542	-1.3188	-0.3125	-0.84167	-0.875	-0.42708	-1.1833	-0.50417	-0.62708	-1.2333	-0.46875	-15.804	-65.885	119.888	224.139	227.334	41.412	261.644	161.919	-65.854	84.739	-14.563	258.202	245.231	-37.028	-55.668	-4.256	0.00036381	0.0025446	0.00048897	1078.9	6.6507e-06	3.9969e-06	1429.2	431.14	4.6828e-06	3.0098e-05	622.09	237.98	160.35	61.426	3.0281e-06	99.497	0.0025891	0.0026298	0.00072981	1093.6	2.8689e-05	2.8819e-05	1394.4	435.2	2.859e-05	2.8609e-05	629.8	233.28	162.27	62.037	2.8474e-05	97.063	151.979	-4.164	102.337	-59.899	146.808	106.729	-60.865	-55.371	271.720	-21.492	-56.556	-52.642	-51.193	-46.553	285.758	-48.448	-8191	255	
1511.434	1	1	0	0	0.06203	0.090153	0.21514	0.11811	0.41433	0.051851	0.056927	0.12581	0.066455	0.27357	0.14921	0.23657	0.046359	0.36175	0.31557	0.21417	-0.56042	-0.98333	-0.22083	-1.3667	-0.63958	-0.41667	-1.5063	-0.54583	-0.79167	-1.1625	-0.47292	-1.1271	-0.85208	-0.51875	-1.2458	-0.68542	165.416	159.154	28.169	229.132	157.763	254.561	237.152	193.800	199.841	66.687	9.634	212.658	1.012	265.425	218.684	142.602	0.00030456	0.0036144	0.00021735	1072.8	1.9404e-05	7.0949e-06	1418.6	425.44	1.9916e-05	1.4529e-05	611.74	232.84	158.12	60.062	1.2305e-05	96.842	0.0025078	0.0025708	0.00071367	1078.8	2.7851e-05	2.7595e-05	1370.3	425.67	2.7102e-05	2.6966e-05	614.62	227.64	158.27	60.234	2.6283e-05	93.903	171.302	7.532	275.901	-59.985	131.196	143.316	-61.092	-55.425	156.968	53.889	-56.467	-52.328	-51.245	-46.495	37.116	-48.194	-8191	255	
1511.555	1	1	0	0	0.34167	0.2268	0.18678	0.14002	0.20179	0.11055	0.28982	0.33235	0.12107	0.30278	0.12609	0.090277	0.14037	0.22237	0.14967	0.30389	-0.35833	-1.0729	-0.16042	-1.2104	-0.81042	-0.325	-1.3354	-0.60833	-0.64167	-1.1375	-0.46458	-1.0875	-1.025	-0.54375	-0.99792	-0.58125	-51.125	-66.922	200.577	217.817	30.205	20.060	150.498	151.864	160.991	-35.582	28.620	136.728	-29.233	237.339	205.963	219.731	6.0668e-05	0.0027438	0.0002388	1062.8	1.4141e-05	1.0863e-05	1412.1	420.95	8.5134e-06	1.6156e-05	611.46	231.04	154.04	57.813	1.4785e-05	93.745	0.0022849	0.0023286	0.00064612	1054.9	2.5302e-05	2.5203e-05	1352.4	418.44	2.5183e-05	2.5424e-05	606.19	223.21	154.02	57.996	2.5707e-05	91.099	170.188	214.485	125.175	-59.694	71.619	83.188	-60.888	-55.024	129.966	75.246	-56.317	-52.380	-50.928	-46.152	272.495	-48.301	-8191	255	
1511.651	1	1	0	0	0.25881	0.10069	0.070144	0.15286	0.11317	0.11341	0.31136	0.29278	0.27853	0.13987	0.13816	0.31736	0.20795	0.15673	0.057593	0.11138	-0.14792	-1.2104	-0.40833	-1.1083	-0.88958	-0.17083	-1.2625	-0.67917	-0.45625	-1.1667	-0.40625	-1.0063	-1.2354	-0.34792	-1.3021	-0.87292	-42.183	108.452	-69.190	229.505	188.424	72.951	205.247	260.194	-72.588	-21.897	15.599	147.416	259.929	-11.530	277.351	67.761	0.00025172	0.0022417	0.0003574	1042.4	1.7383e-05	1.0613e-05	1388.4	414.38	1.8729e-05	1.5216e-05	590.26	224.37	151.43	56.482	6.8453e-06	91.675	0.0022506	0.0023249	0.00064932	1037.5	2.5089e-05	2.5129e-05	1336.8	410.9	2.4906e-05	2.4855e-05	591.54	217.87	150.97	56.617	2.4567e-05	88.576	209.420	235.338	101.230	-59.622	-4.898	282.521	-60.310	-54.729	200.073	-52.806	-55.876	-52.353	-50.561	-45.923	206.408	-47.986	-8191	255	
1511.747	1	1	0	0	0.32034	0.26996	0.082649	0.12643	0.12208	0.33763	0.30563	0.08409	0.13636	0.18646	0.24382	0.19539	0.1706	0.1755	0.12787	0.13751	-0.08125	-1.2	-0.40417	-0.97917	-1.0938	-0.45833	-1.2771	-0.8125	-0.42292	-1.1625	-0.84167	-0.91458	-1.1542	-0.525	-1.0271	-1.1417	206.418	-57.243	21.925	259.260	229.979	26.687	213.781	211.677	76.152	-43.043	23.161	250.671	254.619	253.657	-46.798	-65.027	0.0002806	0.00089301	0.00060225	1029.7	5.4719e-06	1.7915e-05	1361.4	401.21	6.5075e-06	1.5453e-05	583.12	221.98	149.85	55.099	9.4513e-06	90.069	0.0021721	0.0022248	0.00062395	1024.7	2.4479e-05	2.4499e-05	1311.2	400.78	2.4422e-05	2.4603e-05	580.59	214.96	149.15	55.179	2.4329e-05	87.057	199.116	19.212	0.468	-58.996	37.861	140.514	-60.636	-55.031	33.051	135.640	-56.324	-52.244	-50.510	-46.346	93.340	-48.391	-8191	255	
1511.844	1	1	0	0	0.17427	0.11002	0.10778	0.21254	0.18641	0.18528	0.40547	0.28504	0.3039	0.028002	0.085644	0.12605	0.33371	0.13618	0.024999	0.30151	-0.064583	-1.2583	-0.51042	-0.74375	-1.1625	-0.39583	-1.325	-1.1854	-0.425	-1.0521	-0.62708	-0.60833	-1.4417	-0.62292	-1.1521	-1.0771	-11.317	27.168	-21.376	-48.390	131.544	144.477	232.372	-68.436	199.324	88.272	103.967	273.663	271.918	-57.944	77.619	220.835	0.00036293	0.00054808	0.00038753	1024.5	4.7729e-06	6.2804e-06	1342.6	397.17	6.8272e-06	5.662e-06	577.06	218.38	147.18	53.75	1.1761e-05	88.509	0.0020991	0.002164	0.00059881	1011.8	2.3442e-05	2.3423e-05	1284.1	392.12	2.3443e-05	2.3719e-05	569.77	211.21	146.88	53.947	2.4217e-05	85.991	224.371	219.877	64.772	-59.582	-34.684	263.132	-59.850	-54.905	-37.489	13.380	-56.228	-52.574	-50.972	-46.417	88.469	-48.209	-8191	255	
1511.962	1	1	0	0	0.029162	0.1457	0.1558	0.3422	0.27107	0.11222	0.34393	0.12674	0.048166	0.066637	0.29811	0.15692	0.080288	0.13326	0.063217	0.081649	0.05	-1.375	-0.675	-0.52708	-1.1688	-0.2	-0.96458	-1.2042	-0.34792	-1.2229	-0.875	-0.62708	-1.3229	-0.55833	-0.68958	-1.2125	15.635	16.339	36.852	191.704	249.879	-72.362	222.526	54.800	51.438	2.602	206.410	261.754	127.474	280.702	-24.705	73.620	0.00032766	0.00058377	0.00034636	1007.1	4.708e-06	7.3631e-06	1327.4	386.22	1.5463e-05	9.3934e-06	564.04	218.15	145.48	52.146	1.3576e-05	87.098	0.0021493	0.0022218	0.00061931	1002.6	2.393e-05	2.3928e-05	1267.8	384.12	2.2944e-05	2.2958e-05	556.68	207.64	142.99	51.731	2.166e-05	83.181	206.466	68.432	-8.666	-59.624	67.208	44.632	-60.294	-54.822	-53.901	-33.877	-56.472	-52.597	-50.726	-46.146	-20.613	-47.769	-8191	255	
1512.034	1	1	0	0	0.18868	0.3826	0.23308	0.3012	0.24153	0.082354	0.27376	0.12975	0.15758	0.19476	0.024064	0.50434	0.2873	0.1684	0.013111	0.14599	-0.16667	-1.0375	-0.80625	-0.39167	-1.0958	-0.37292	-0.93958	-1.2229	-0.32917	-1.0938	-0.95833	-0.49583	-1.3875	-0.5875	-0.57708	-1.425	-53.352	98.373	54.352	279.399	185.102	150.268	263.042	245.900	-13.016	15.402	126.054	267.283	-17.240	-27.787	178.072	50.023	0.00022924	0.0032548	0.00059032	1000.7	7.4064e-06	2.1163e-05	1312	384.33	1.7414e-05	8.7902e-06	554.52	212.53	142.98	51.049	3.4293e-06	84.686	0.0019024	0.0019785	0.00055682	982.62	2.2358e-05	2.2805e-05	1255	379.19	2.3168e-05	2.3465e-05	551.68	205.7	142.38	51.409	2.3421e-05	82.482	152.641	19.049	-10.414	-59.515	-24.351	33.775	-60.582	-54.838	66.532	211.122	-55.866	-52.440	-50.830	-46.230	151.934	-48.179	-8191	255	
1512.132	1	1	0	0	0.18411	0.17063	0.078276	0.30123	0.29047	0.085139	0.3283	0.06152	0.17342	0.17903	0.39732	0.2293	0.27126	0.25711	0.05876	0.030294	-0.12708	-1.0146	-0.85833	-0.65417	-1.2708	-0.38958	-0.77917	-1.3083	-0.27917	-0.82292	-1.1229	-0.45833	-1.3292	-0.62292	-0.48958	-1.3792	140.902	-26.127	128.405	263.948	-33.428	231.359	284.453	219.315	99.512	176.551	-70.872	284.637	245.673	-64.272	-23.160	193.860	0.00021545	0.0020045	0.00037879	987.01	1.0202e-05	1.4652e-05	1292.3	378.3	2.3665e-05	1.7385e-06	548.69	211.63	140.76	50.64	1.5534e-05	84.803	0.0020687	0.00214	0.00059702	983.43	2.3489e-05	2.354e-05	1242.4	376.38	2.3292e-05	2.3515e-05	546.81	204.21	140.99	51.102	2.3368e-05	82.204	76.737	36.278	68.169	-59.970	152.130	140.873	-60.694	-54.918	86.951	135.426	-55.713	-52.877	-51.113	-46.536	179.921	-48.031	-8191	255	
1512.251	1	1	0	0	0.40897	0.094477	0.078028	0.30237	0.27427	0.099267	0.37929	0.32714	0.21978	0.068613	0.1852	0.31988	0.37455	0.052249	0.25622	0.36268	-0.27083	-0.78958	-0.98333	-0.45833	-1.1938	-0.65833	-0.44583	-1.4396	-0.25208	-0.5875	-1.1437	-0.39375	-1.0958	-0.88542	-0.3625	-1.1896	69.691	33.401	159.448	-54.529	197.675	282.834	212.766	195.218	234.964	210.812	214.406	-61.274	-70.903	90.647	276.487	236.639	0.00012457	0.0030339	0.00046785	986.61	1.8994e-05	7.7586e-06	1281.2	371.8	1.4452e-05	8.4705e-06	547.16	210.27	139.82	50.042	6.5331e-06	83.821	0.0020787	0.0021458	0.00059135	978.17	2.3194e-05	2.3209e-05	1230.4	371.68	2.279e-05	2.3043e-05	543.09	202.96	139.98	50.498	2.3584e-05	81.873	187.492	-7.004	-5.417	-59.600	56.782	162.873	-60.366	-54.772	114.423	61.773	-56.501	-52.295	-51.124	-46.427	51.528	-47.699	-8191	255	
1512.347	1	1	0	0	0.18437	0.13052	0.10938	0.21569	0.20546	0.1735	0.26734	0.24364	0.078698	0.26989	0.067107	0.15241	0.10368	0.28499	0.05859	0.22591	-0.35833	-0.59583	-1.1396	-0.45208	-1.1063	-0.89583	-0.7125	-1.3396	-0.375	-0.57292	-1.4396	-0.34583	-1.0063	-1.0271	-0.30417	-1.1812	56.130	104.399	-49.349	137.160	167.113	278.012	272.750	189.757	241.122	44.282	92.630	226.492	263.954	-65.911	-16.682	283.391	0.00026853	0.0017887	0.00020254	981.99	1.0002e-05	1.0286e-05	1267.4	370.25	1.0239e-05	1.1199e-05	540.99	208.63	138.22	49.593	3.1455e-06	82.448	0.0021176	0.002182	0.00060221	973.77	2.3968e-05	2.3705e-05	1222.4	371.29	2.3674e-05	2.3785e-05	541.74	202.41	139.1	50.214	2.3642e-05	80.715	82.681	96.097	147.368	-59.825	-57.791	-43.906	-60.302	-54.519	203.742	-1.688	-56.292	-52.240	-50.361	-45.911	196.050	-47.746	-8191	255	
1512.443	1	1	0	0	0.13429	0.069966	0.28663	0.10275	0.15419	0.083389	0.31868	0.19043	0.064026	0.2291	0.35597	0.19536	0.062416	0.24563	0.030836	0.15605	-0.15417	-0.42083	-1.2167	-0.2625	-0.925	-0.95417	-0.47917	-1.1854	-0.60833	-0.55625	-1.4083	-0.55625	-0.78542	-1.1063	-0.35208	-1.2896	111.488	68.458	44.965	178.094	208.406	64.980	219.207	221.492	76.239	21.634	272.436	224.289	219.129	273.483	279.625	19.243	0.00046633	0.0010467	0.00024549	972.82	9.7501e-06	1.2818e-05	1254.5	365.49	9.7468e-06	3.2954e-05	537.4	206.11	136.28	48.69	1.192e-05	82.074	0.0020966	0.0021612	0.00059238	964.56	2.3475e-05	2.336e-05	1210.9	367.22	2.3477e-05	2.354e-05	536.25	201.2	137.81	49.604	2.3721e-05	80.355	138.029	0.398	22.137	-59.538	19.636	82.663	-60.176	-54.855	20.515	-6.929	-55.921	-52.690	-50.926	-46.705	134.379	-47.750	-8191	255	
1512.539	1	1	0	0	0.11261	0.10553	0.24994	0.21854	0.15121	0.047428	0.25775	0.13591	0.17371	0.21571	0.51059	0.1398	0.064328	0.2277	0.10419	0.10588	-0.55625	-0.49375	-1.0854	-0.42917	-0.83958	-1.0333	-0.6	-1.15	-0.85417	-0.47292	-1.3979	-0.37292	-0.93958	-1.1625	-0.18542	-1.3229	163.470	102.305	152.885	-8.448	104.895	136.256	257.189	-57.699	271.344	3.339	235.753	82.122	62.860	204.902	211.598	-61.745	0.00024051	0.0036163	0.00030943	959.63	8.3667e-06	6.2377e-06	1239.4	359.09	1.6737e-05	5.929e-06	530.25	206.78	135.3	48.322	5.7167e-06	81.726	0.0021073	0.0021559	0.00060099	958.53	2.3733e-05	2.3801e-05	1198	364.47	2.3656e-05	2.3875e-05	533.86	199.86	136.99	49.373	2.3827e-05	79.788	205.476	280.433	8.368	-59.843	-25.096	-11.631	-60.308	-54.433	-18.699	36.376	-56.564	-52.516	-50.679	-46.246	151.048	-47.068	-8191	255	
1512.660	1	1	0	0	0.39373	0.13809	0.083222	0.039263	0.24639	0.4851	0.29844	0.34431	0.5483	0.24699	0.22725	0.16065	0.17301	0.10494	0.22844	0.13309	-0.57708	-0.34792	-1.0083	-0.46042	-0.49583	-1.2646	-0.64167	-1.0625	-0.96458	-0.21042	-1.2729	-0.775	-0.64167	-1.0625	-0.42292	-0.88958	155.301	122.418	96.285	51.527	247.798	101.997	233.861	278.504	52.068	165.920	271.517	252.295	201.790	217.704	280.853	257.405	0.00017444	0.0012839	0.00093137	953.28	1.7592e-05	1.5305e-05	1229.9	357.1	1.6187e-06	1.0829e-05	530.47	204.63	135.12	48.42	1.2053e-05	80.92	0.0020991	0.002156	0.00060186	951.58	2.3368e-05	2.3475e-05	1191.1	361.97	2.3887e-05	2.4245e-05	533.92	200.52	136.63	49.564	2.4706e-05	80.075	120.320	-60.304	24.870	-59.674	92.930	31.835	-60.301	-55.022	41.581	148.262	-56.543	-53.072	-51.039	-46.651	15.238	-47.979	-8191	255	
1512.732	1	1	0	0	0.51599	0.12577	0.1711	0.21769	0.10607	0.10072	0.24667	0.23748	0.32494	0.16868	0.38155	0.13388	0.060693	0.26987	0.23184	0.25389	-0.54167	-0.36042	-1.1688	-0.85208	-0.43125	-1.3687	-0.41458	-0.75208	-1.0083	-0.31458	-1.1042	-0.74583	-0.51042	-1.2313	-0.41458	-0.88125	-55.929	-3.464	-39.368	194.055	-15.910	103.906	203.740	238.170	231.255	116.250	261.118	206.085	286.793	231.650	51.964	-46.099	0.00041448	0.0013364	0.00067945	947.51	1.6561e-05	6.0242e-06	1221.9	350.4	1.4384e-05	2.1755e-05	524.99	203.47	132.78	48.044	1.1331e-05	81.101	0.0021964	0.0022636	0.00063717	954.4	2.5098e-05	2.5331e-05	1194.8	360.08	2.5001e-05	2.5443e-05	535.38	200.54	136.22	49.559	2.5034e-05	79.744	130.557	58.918	-18.246	-59.068	104.421	54.796	-60.426	-54.888	106.547	47.611	-55.514	-52.116	-51.016	-46.518	30.979	-48.152	-8191	255	
1512.852	1	1	0	0	0.06003	0.51599	0.20157	0.33621	0.044479	0.12114	0.14802	0.26093	0.25597	0.094624	0.22808	0.053746	0.11058	0.3401	0.36003	0.30324	-0.69375	-0.18958	-1.0646	-0.79583	-0.27708	-1.1958	-0.69375	-0.825	-1.0187	-0.42917	-1.1229	-0.8875	-0.62292	-1.2167	-0.39792	-0.71667	156.532	-38.552	207.854	-65.366	245.676	-13.410	193.414	160.684	125.414	79.996	280.522	172.733	250.891	245.357	286.910	230.729	0.00022442	0.0016056	0.00022722	933.81	5.0182e-06	2.0616e-05	1217.3	349.23	9.7009e-06	1.3091e-05	519.24	200.63	132.19	47.512	1.4622e-05	79.699	0.002182	0.002251	0.00062667	946.08	2.4322e-05	2.4257e-05	1184.7	354.54	2.363e-05	2.3934e-05	526.91	197.77	133.85	48.811	2.4194e-05	78.667	224.220	138.341	-54.500	-59.855	88.295	64.750	-60.406	-54.920	213.941	12.551	-56.250	-52.630	-51.567	-46.462	129.785	-48.291	-8191	255	
1512.947	1	1	0	0	0.12699	0.065112	0.059188	0.181	0.10569	0.24779	0.13216	0.056908	0.20134	0.032234	0.2711	0.19172	0.039633	0.21364	0.15664	0.15899	-0.725	-0.19583	-0.93542	-0.97708	-0.26458	-1.2083	-0.75833	-0.79375	-1.2833	-0.0875	-0.93958	-1.0604	-0.22917	-1.2542	-0.57917	-0.675	241.553	-40.134	89.896	223.636	-34.193	79.485	200.734	266.144	246.610	132.721	249.744	269.640	93.140	-70.367	-37.447	187.752	0.00041532	0.00091517	0.00042444	939.2	1.5199e-05	3.1547e-05	1213.2	350.04	1.9541e-05	6.301e-06	518.63	200.43	131.52	47.573	9.4481e-06	80.259	0.0021157	0.0022005	0.00061782	942.78	2.3955e-05	2.4581e-05	1180.7	355.33	2.447e-05	2.4895e-05	529.02	197.51	134.75	49.206	2.5593e-05	79.479	179.566	151.861	72.910	-59.889	-8.255	70.525	-60.899	-54.510	17.972	237.688	-56.142	-52.413	-51.292	-46.518	159.415	-48.219	-8191	255	
1513.043	1	1	0	0	0.10542	0.24913	0.28821	0.23979	0.15202	0.16744	0.18805	0.13749	0.037486	0.15481	0.05189	0.27211	0.25729	0.13584	0.081699	0.086005	-0.93958	-0.325	-0.93542	-1.2542	-0.3375	-1.0917	-0.825	-0.38125	-1.2271	-0.5125	-0.97083	-1.4104	-0.4	-1.1875	-0.81042	-0.5375	214.663	274.014	26.161	250.048	235.222	-50.455	210.843	70.451	261.510	132.687	146.078	69.547	283.157	-52.584	109.096	137.793	0.00031922	0.00083702	0.00023301	935.28	1.6681e-05	1.199e-05	1209	345.21	1.3735e-05	1.6333e-05	517.44	200.11	129.12	47.35	1.3088e-05	79.562	0.0022524	0.0023683	0.00065701	948.29	2.5802e-05	2.5941e-05	1185.8	354.95	2.5659e-05	2.5748e-05	533.87	198.32	134.33	49.43	2.5934e-05	79.583	178.624	161.371	5.261	-60.031	272.454	44.527	-61.034	-54.978	143.849	227.984	-56.697	-52.716	-51.221	-46.534	109.193	-48.315	-8191	255	
1513.139	1	1	0	0	0.22972	0.27215	0.13644	0.12519	0.024063	0.14954	0.13513	0.29863	0.019474	0.096528	0.33789	0.066783	0.11153	0.19049	0.10985	0.26884	-0.78958	-0.45833	-0.57708	-1.4021	-0.29792	-1.1583	-1.0312	-0.5	-1.4	-0.68958	-0.7	-1.3667	-0.2625	-1.0979	-0.9625	-0.38542	-60.875	18.371	12.281	9.692	14.572	173.339	91.899	184.493	165.537	82.843	69.575	247.762	201.414	199.878	211.071	-71.518	0.00028122	0.0017895	0.00029219	931.55	9.597e-06	1.7713e-05	1214.8	345.78	3.9678e-05	1.0659e-05	519.77	201.34	131.02	47.356	1.0009e-05	80.059	0.0022898	0.0023985	0.00066309	948.24	2.6067e-05	2.6287e-05	1184.7	354.86	2.5893e-05	2.6078e-05	532.2	198.63	134.61	49.344	2.5928e-05	79.905	121.660	-2.811	-39.678	-59.899	-32.161	90.341	-60.870	-54.940	44.657	137.474	-56.316	-52.865	-50.967	-46.420	104.272	-47.980	-8191	255	
1513.235	1	1	0	0	0.11322	0.16672	0.24953	0.089046	0.3093	0.26351	0.20519	0.058254	0.35391	0.10527	0.18021	0.15804	0.070491	0.35218	0.10247	0.43966	-0.73958	-0.48125	-0.60208	-1.5688	-0.44375	-0.82708	-1.0729	-0.27917	-1.15	-0.91667	-0.75	-1.4667	-0.5875	-0.95208	-1.0875	-0.575	108.657	247.048	214.272	194.743	208.173	19.836	11.815	35.840	187.120	173.963	266.182	-52.068	264.269	220.303	137.081	268.141	0.00028514	0.0011371	0.00032462	934.38	7.3112e-06	3.0604e-06	1210.6	345.18	2.2428e-05	1.6184e-05	520.13	200.93	130.88	47.108	1.0653e-05	79.719	0.002302	0.0023661	0.00065628	947.63	2.6198e-05	2.6326e-05	1189.2	356.39	2.6209e-05	2.6483e-05	534.51	199.77	134.94	49.47	2.6806e-05	80.031	147.250	9.970	11.530	-59.841	-8.148	15.708	-60.668	-54.713	192.935	234.030	-56.392	-52.778	-51.174	-46.196	51.654	-48.079	-8191	255	
1513.331	1	1	0	0	0.05752	0.20369	0.076356	0.2085	0.11572	0.18901	0.1961	0.18665	0.1817	0.21849	0.15864	0.11275	0.37824	0.14633	0.080635	0.11865	-0.83542	-0.63542	-0.62708	-1.25	-0.51458	-0.67292	-1.3458	-0.41667	-1.0104	-0.8875	-0.38542	-1.3354	-0.66875	-0.79167	-1.1708	-0.53542	75.010	-64.791	-17.082	-63.394	197.475	5.299	18.083	214.552	247.678	-27.149	253.392	216.100	259.775	186.459	92.350	246.184	0.00025892	0.0015306	0.00013921	925.4	1.1568e-05	2.8497e-05	1204	343.03	7.9621e-06	1.0278e-05	516.56	199.63	130.06	47.143	1.3653e-05	80.024	0.0023812	0.0024809	0.0006858	952.37	2.7089e-05	2.727e-05	1185.8	358.12	2.6785e-05	2.6883e-05	533.32	199.04	135.25	49.469	2.6673e-05	80.183	180.172	174.000	-27.755	-59.791	124.956	12.699	-61.153	-54.828	-40.892	-8.136	-56.728	-52.643	-51.102	-46.558	63.202	-48.157	-8191	255	
1513.427	1	1	0	0	0.16019	0.051327	0.16818	0.16444	0.012599	0.14417	0.25003	0.022888	0.069538	0.10938	0.33367	0.14321	0.11206	0.14915	0.1756	0.1226	-0.675	-0.86042	-0.33333	-1.3771	-0.63542	-0.76875	-1.2958	-0.54167	-1.0896	-0.975	-0.3625	-1.2208	-0.81042	-0.69792	-1.2021	-0.54792	197.162	160.305	-28.116	218.218	-5.252	274.451	162.352	-13.683	-28.002	178.250	246.826	160.175	212.832	239.860	-41.744	-49.447	0.0003263	0.0010694	0.00018079	926.38	5.9725e-06	2.6095e-05	1202.7	342.79	1.7234e-05	7.576e-06	513.17	200.15	130.34	47.21	1.3386e-05	79.955	0.0023859	0.002458	0.00068244	951.36	2.708e-05	2.7303e-05	1187.7	357.57	2.7326e-05	2.74e-05	534.5	199.55	135.47	49.496	2.7288e-05	80.299	86.566	104.785	30.810	-59.550	2.281	17.281	-60.640	-54.773	39.581	253.924	-55.805	-52.197	-50.951	-45.965	118.628	-48.202	-8191	255	
1513.524	1	1	0	0	0.20627	0.049585	0.17373	0.12864	0.14273	0.14121	0.19796	0.53067	0.1041	0.065288	0.27158	0.26908	0.19891	0.30651	0.050851	0.17786	-0.54583	-1.0521	-0.43125	-1.1958	-0.76042	-0.35625	-1.4771	-0.46458	-0.88958	-0.98542	-0.38333	-1.3146	-0.83125	-0.41042	-1.2208	-0.57917	69.137	105.050	58.140	33.835	233.856	220.823	166.428	187.630	-17.612	168.182	232.555	264.036	273.847	241.403	58.226	228.257	0.00036178	0.0017902	0.0003414	931.73	4.0271e-06	9.0861e-06	1215.9	345.37	1.3449e-05	5.2328e-06	520.01	201.72	130.43	47.329	2.1449e-05	79.651	0.0024062	0.0024386	0.00067642	950.73	2.66e-05	2.6424e-05	1189.1	355.98	2.6372e-05	2.6387e-05	533.26	200.07	135.03	49.432	2.663e-05	80.413	116.397	45.779	-39.456	-59.587	-31.532	-4.128	-60.960	-55.134	71.589	12.083	-56.067	-52.348	-51.046	-46.178	179.878	-47.962	-8191	255	
1513.620	1	1	0	0	0.15689	0.083616	0.058558	0.016937	0.22059	0.042955	0.19473	0.2726	0.10385	0.13841	0.040781	0.345	0.19381	0.15382	0.45861	0.047971	-0.23542	-1.0792	-0.36667	-1.275	-0.83958	-0.38333	-1.4396	-0.76667	-0.73125	-1.1187	-0.54792	-1.25	-0.92917	-0.36667	-1.2062	-0.78125	-47.929	43.303	240.947	275.466	-67.393	74.519	193.517	270.019	254.583	93.665	61.466	238.661	258.605	106.317	48.997	246.575	0.00037855	0.0012617	0.00040589	926.76	2.3082e-05	1.4258e-05	1214.4	343.45	6.6998e-06	1.9345e-05	514.97	201.98	130.3	47.024	4.6505e-06	80.978	0.0023674	0.0024244	0.00068019	951.58	2.6715e-05	2.6715e-05	1195.3	358.68	2.7123e-05	2.7258e-05	536.35	201.69	136.12	49.65	2.7655e-05	81.413	174.352	-40.963	-67.824	-59.755	122.446	139.391	-60.485	-55.149	86.351	148.467	-55.952	-52.543	-51.305	-46.070	223.059	-48.012	-8191	255	
1513.740	1	1	0	0	0.082117	0.17211	0.21178	0.39143	0.13042	0.095499	0.20548	0.057502	0.087241	0.32512	0.26562	0.1706	0.37868	0.086085	0.068657	0.06844	-0.175	-0.95	-0.21042	-0.95417	-1.0104	-0.30417	-1.3563	-0.71458	-0.45208	-1.2917	-0.55	-0.975	-1.0167	-0.30417	-1.1854	-0.92083	271.613	210.459	-31.691	248.440	139.684	-64.401	204.856	151.072	133.099	287.288	274.541	-29.818	185.716	-69.733	176.402	184.263	0.00018148	0.00042112	0.00069878	926.74	1.8935e-05	1.2878e-05	1210	344.86	2.4838e-05	8.3002e-06	517.26	201.89	130.04	47.028	1.3963e-05	79.844	0.0024446	0.0025286	0.00071108	956.51	2.7641e-05	2.7619e-05	1197.9	359.05	2.7497e-05	2.736e-05	537.2	201.14	135.4	49.396	2.6847e-05	80.412	145.714	104.605	120.345	-59.807	116.149	-63.923	-60.723	-54.493	231.635	60.283	-55.925	-52.235	-50.909	-46.132	47.004	-48.069	-8191	255	
1513.835	1	1	0	0	0.18595	0.036253	0.11927	0.17032	0.20533	0.10434	0.3092	0.15569	0.096845	0.17908	0.24919	0.39146	0.066146	0.2733	0.24853	0.14521	-0.0375	-1.1479	-0.31667	-0.8875	-1.0708	-0.45833	-1.4979	-0.87292	-0.3375	-1.2958	-0.5	-0.92708	-1.0938	-0.44583	-1.1021	-0.92292	-29.944	96.913	232.043	27.646	222.625	221.220	-71.788	183.798	45.928	19.897	221.043	192.409	-39.229	-64.034	185.824	209.439	0.0002833	0.0010635	9.1069e-05	926.69	7.6958e-06	1.9259e-05	1222.4	347.83	1.0777e-05	2.0934e-05	523.02	202.85	131.04	47.211	1.5703e-05	80.57	0.0023379	0.0024107	0.00067263	949.28	2.6174e-05	2.6463e-05	1197.2	359.17	2.6294e-05	2.6574e-05	537.39	200.94	135.84	49.552	2.7465e-05	81.256	-61.096	-70.334	185.856	-59.543	127.385	99.064	-60.533	-54.497	81.962	101.463	-56.301	-52.278	-51.094	-46.259	33.380	-48.079	-8191	255	
1513.933	1	1	0	0	0.11674	0.22964	0.02951	0.15175	0.094744	0.097584	0.3727	0.068759	0.067522	0.20894	0.045515	0.22395	0.21553	0.14239	0.25034	0.17423	-0.04375	-1.2188	-0.59583	-0.60625	-1.2333	-0.48333	-1.1625	-0.91042	-0.425	-1.1396	-0.84375	-0.675	-1.3604	-0.38542	-0.98125	-1.1375	-25.966	39.499	32.441	18.281	-51.597	-39.343	208.982	107.880	-28.876	83.059	263.761	216.728	-40.667	112.055	203.054	251.471	0.00023234	0.00038569	0.00054821	930.82	1.47e-05	1.1712e-05	1227.9	346.08	7.5325e-06	3.2731e-05	519.7	201.53	130.28	47.034	9.5664e-06	80.864	0.0024391	0.002549	0.00071958	964.1	2.8419e-05	2.8957e-05	1218.8	366.34	2.9645e-05	2.9985e-05	550.85	204.73	139.43	50.916	3.1074e-05	82.956	197.138	48.529	117.305	-59.330	140.174	-60.998	-60.673	-54.545	120.521	43.073	-56.311	-52.387	-50.949	-46.241	-17.564	-47.972	-8191	255	
1514.027	1	1	0	0	0.29632	0.10678	0.084882	0.063743	0.13028	0.10399	0.23995	0.15218	0.34782	0.043791	0.14529	0.0057582	0.026358	0.13147	0.28042	0.27738	0.1625	-1.0979	-0.7	-0.41875	-1.0521	-0.46042	-0.95	-1.05	-0.17917	-1.1938	-0.7	-0.58542	-1.3083	-0.58958	-0.76042	-1.1833	223.896	23.301	55.332	-12.038	230.287	212.221	251.072	81.514	23.106	223.496	241.352	280.340	199.489	151.644	40.804	199.180	7.7574e-05	0.0015795	0.00024017	932.69	1.3508e-05	1.6094e-05	1222.9	345.15	4.0383e-06	2.8763e-05	520.2	204.12	130.91	46.873	2.1258e-05	81.592	0.0027104	0.0028252	0.00078651	976.66	3.0583e-05	3.0737e-05	1222.8	368.67	3.0307e-05	3.0858e-05	553.24	206.18	139.74	50.971	3.0758e-05	83.415	27.414	282.167	90.875	-59.745	75.673	233.348	-60.514	-55.255	17.447	126.863	-56.220	-52.688	-51.440	-46.635	-50.261	-48.379	-8191	255	
1514.123	1	1	0	0	0.093339	0.19671	0.1907	0.27792	0.097952	0.17843	0.10009	0.08101	0.25792	0.042504	0.10961	0.30936	0.20883	0.036545	0.097117	0.39108	-0.1875	-1.0854	-0.66042	-0.43958	-1.3021	-0.48125	-0.74792	-1.1833	-0.37708	-1.1792	-0.92292	-0.7	-1.35	-0.47292	-0.55625	-1.2375	58.454	92.214	123.714	242.553	30.293	144.025	200.935	149.278	209.663	53.329	207.118	247.404	260.107	51.509	182.920	135.533	0.00024037	0.0016611	0.00038898	927.07	1.8098e-05	1.4948e-05	1222.5	349.35	7.1398e-06	2.1443e-06	521.9	202.78	131.59	47.672	1.802e-05	82.13	0.0026754	0.002787	0.00077222	973.31	3.0149e-05	3.0428e-05	1224.9	369.32	3.0094e-05	3.0573e-05	551.97	205.66	140.31	51.21	3.0949e-05	83.583	176.846	59.977	117.185	-59.347	64.311	95.435	-60.026	-54.824	-64.132	83.862	-56.331	-52.313	-51.217	-46.559	183.460	-48.116	-8191	255	
1514.219	1	1	0	0	0.17488	0.21649	0.060141	0.23664	0.13905	0.13076	0.24389	0.35892	0.059544	0.15567	0.27522	0.22878	0.21338	0.35354	0.16612	0.18897	-0.064583	-0.84167	-0.96875	-0.31875	-1.1792	-0.61667	-0.80833	-1.2896	-0.14583	-1.0104	-1.1083	-0.31458	-1.2396	-0.86042	-0.60417	-1.3438	111.055	70.263	203.141	-72.081	-9.693	61.068	223.839	275.422	21.954	21.250	242.648	182.767	144.380	-22.319	69.126	265.973	0.00013278	0.0008824	0.00099504	938.05	7.8308e-06	1.2968e-05	1222.6	349.46	9.4227e-06	2.3521e-05	519.09	203.07	132.11	47.32	6.4126e-06	81.76	0.0027186	0.0028454	0.00078754	982.58	3.0929e-05	3.124e-05	1231.5	372.27	3.1364e-05	3.1805e-05	557.55	207.41	141.48	51.722	3.19e-05	84.408	61.685	35.639	239.148	-59.750	65.750	91.978	-60.462	-55.223	80.205	14.689	-56.610	-52.582	-50.975	-46.199	143.174	-47.961	-8191	255	
1514.340	1	1	0	0	0.11316	0.29533	0.046988	0.21022	0.19777	0.16548	0.23845	0.045366	0.0982	0.14241	0.052051	0.28629	0.13273	0.096188	0.055801	0.25251	-0.18125	-0.94792	-0.9625	-0.34583	-1.1938	-0.72083	-0.70417	-1.3667	-0.44792	-0.73125	-1.3604	-0.37917	-1.1	-0.83542	-0.52708	-1.2083	77.800	-70.985	286.461	220.466	228.598	-51.858	211.766	276.172	-19.533	112.297	186.775	260.559	105.329	60.043	-10.165	216.644	0.00035506	0.0021104	0.0002455	934.43	1.335e-05	1.0345e-05	1226.5	349.54	6.098e-06	4.8712e-06	521.81	202.96	132.79	47.443	1.0625e-05	82.148	0.0028248	0.0029274	0.00080657	989.38	3.1963e-05	3.2029e-05	1242.1	375.94	3.2525e-05	3.2883e-05	563.77	209.31	143.98	52.504	3.3852e-05	86.004	144.225	23.436	64.028	-59.627	141.542	201.312	-60.390	-54.525	113.747	-4.385	-56.077	-52.379	-50.639	-46.012	203.363	-47.704	-8191	255	
1514.436	1	1	0	0	0.23951	0.075172	0.079601	0.090819	0.10338	0.23158	0.12909	0.30936	0.075477	0.13224	0.18389	0.36138	0.15112	0.14233	0.12839	0.16579	-0.17083	-0.65417	-1.0042	-0.41667	-1.1042	-0.79375	-0.63125	-1.2812	-0.58125	-0.92917	-1.2167	-0.47083	-1.0562	-0.98542	-0.34167	-1.3312	-35.170	262.654	250.382	2.600	-15.550	189.501	215.461	204.767	274.527	109.671	-66.759	221.253	273.756	240.970	52.453	142.823	0.00010067	0.0038335	0.00067134	939.25	1.0958e-05	2.8209e-05	1224.9	348.64	1.0459e-05	1.7192e-05	523.63	205.01	131.53	47.774	2.0019e-05	82.883	0.0030191	0.0031438	0.00087397	1007.5	3.4511e-05	3.4608e-05	1258.2	383.41	3.4789e-05	3.5165e-05	574.28	212.32	145.51	53.385	3.5447e-05	87.553	26.191	48.446	-36.018	-59.726	8.854	20.168	-60.302	-55.136	257.545	-46.004	-56.208	-52.919	-51.126	-45.818	7.777	-47.950	-8191	255	
1514.532	1	1	0	0	0.19431	0.33131	0.052238	0.050359	0.25882	0.13981	0.41164	0.28784	0.17834	0.12294	0.17838	0.18589	0.11388	0.037503	0.15129	0.2771	-0.11875	-0.6	-1.1646	-0.49792	-0.93542	-0.98333	-0.76875	-1.2333	-0.47083	-0.50208	-1.3542	-0.675	-1.0667	-1.1187	-0.26875	-1.4125	157.012	6.995	261.546	68.328	168.641	158.683	237.755	-62.492	93.165	171.894	153.241	194.163	-71.668	57.728	167.493	-71.136	0.00040044	0.0008329	0.0007494	935.14	7.8319e-06	4.7757e-06	1230.7	349.71	2.3453e-05	5.9028e-06	525.26	203.85	132.45	48.024	1.2227e-05	83.8	0.0031815	0.0032904	0.00091988	1021.4	3.6552e-05	3.6823e-05	1274	389.07	3.706e-05	3.7248e-05	586.22	215.51	148.37	54.637	3.7856e-05	89.313	194.762	28.376	77.729	-60.236	117.372	166.852	-60.370	-55.362	153.928	64.318	-56.435	-52.316	-51.518	-46.551	53.651	-48.139	-8191	255	
1514.628	1	1	0	0	0.031979	0.16024	0.12073	0.2154	0.05064	0.090874	0.26217	0.16115	0.17487	0.17492	0.19562	0.2084	0.31462	0.22593	0.027267	0.2145	-0.38542	-0.5125	-1.1833	-0.59792	-0.9125	-1.1396	-0.65625	-1.3604	-0.59375	-0.52083	-1.3312	-0.53958	-0.88958	-1.1437	-0.32083	-1.2396	156.116	267.669	127.165	-71.431	-24.702	200.296	267.510	281.470	85.413	-68.801	211.939	-66.785	279.749	-69.595	111.839	160.914	0.00035007	0.0043051	7.5981e-05	931.4	7.5501e-06	5.5274e-06	1230.2	346.62	5.6447e-06	6.3575e-06	523.48	204.74	131.25	48.171	9.837e-06	83.816	0.0033743	0.0034788	0.00097087	1031.4	3.8517e-05	3.8295e-05	1283.9	393.69	3.8614e-05	3.8578e-05	590.29	217.01	149.35	55.003	3.8991e-05	89.948	155.020	-0.414	-55.763	-60.138	-0.862	49.558	-60.949	-55.265	45.580	219.592	-56.518	-53.153	-51.511	-46.644	5.423	-47.921	-8191	255	
#DATA ENDS
