BOXY.EXE: ISS Imagent and Oximeter Data Acquisition Program Version 0.80
Ascii Record File

#ACQ INFORMATION
2  Detector Channels 
16  External MUX Channels 
1  Auxiliary Channels 
5000  Waveform (CCF) Frequency (Hz)
1  Waveforms Skipped 
30  Waveforms Averaged 
1  Cycles Averaged 
16  Acquisitions per Waveform 
10.0806  Updata Rate (Hz) 

#FILE INFORMATION
TRUE -- External MUX Channel results are PARSED.
FALSE -- AC DC and Phase are NOT grouped.
TRUE -- Companion Program Settings File CREATED.
FALSE -- AC data not excluded
FALSE -- DC data not excluded
FALSE -- Phase data not excluded
FALSE -- Auxillary Chn. data not excluded
Tab delimiters

#CALIBRATION STATE
TRUE -- Waveform Calibration Values APPLIED.


#AUX CALIBRATION VALUES
Val Type	aux-1	

Term	1.0000e+00	
Factor	0.0000e+00	


#WF CALIBRATION VALUES
A = Detector Channel
Val Type	A-AC1	A-AC2	A-AC3	A-AC4	A-AC5	A-AC6	A-AC7	A-AC8	A-AC9	A-AC10	A-AC11	A-AC12	A-AC13	A-AC14	A-AC15	A-AC16	A-DC1	A-DC2	A-DC3	A-DC4	A-DC5	A-DC6	A-DC7	A-DC8	A-DC9	A-DC10	A-DC11	A-DC12	A-DC13	A-DC14	A-DC15	A-DC16	A-Ph1	A-Ph2	A-Ph3	A-Ph4	A-Ph5	A-Ph6	A-Ph7	A-Ph8	A-Ph9	A-Ph10	A-Ph11	A-Ph12	A-Ph13	A-Ph14	A-Ph15	A-Ph16	

Term	0.00000e+00	0.00000e+00	0.00000e+00	0.00000e+00	0.00000e+00	0.00000e+00	0.00000e+00	0.00000e+00	0.00000e+00	0.00000e+00	0.00000e+00	0.00000e+00	0.00000e+00	0.00000e+00	0.00000e+00	0.00000e+00	0.00000e+00	0.00000e+00	0.00000e+00	0.00000e+00	0.00000e+00	0.00000e+00	0.00000e+00	0.00000e+00	0.00000e+00	0.00000e+00	0.00000e+00	0.00000e+00	0.00000e+00	0.00000e+00	0.00000e+00	0.00000e+00	0.00000e+00	0.00000e+00	0.00000e+00	0.00000e+00	0.00000e+00	0.00000e+00	0.00000e+00	0.00000e+00	0.00000e+00	0.00000e+00	0.00000e+00	0.00000e+00	0.00000e+00	0.00000e+00	0.00000e+00	0.00000e+00	
Factor	1.00000e+00	1.00000e+00	1.00000e+00	1.00000e+00	1.00000e+00	1.00000e+00	1.00000e+00	1.00000e+00	1.00000e+00	1.00000e+00	1.00000e+00	1.00000e+00	1.00000e+00	1.00000e+00	1.00000e+00	1.00000e+00	1.00000e+00	1.00000e+00	1.00000e+00	1.00000e+00	1.00000e+00	1.00000e+00	1.00000e+00	1.00000e+00	1.00000e+00	1.00000e+00	1.00000e+00	1.00000e+00	1.00000e+00	1.00000e+00	1.00000e+00	1.00000e+00	X	X	X	X	X	X	X	X	X	X	X	X	X	X	X	X	

B = Detector Channel
Val Type	B-AC1	B-AC2	B-AC3	B-AC4	B-AC5	B-AC6	B-AC7	B-AC8	B-AC9	B-AC10	B-AC11	B-AC12	B-AC13	B-AC14	B-AC15	B-AC16	B-DC1	B-DC2	B-DC3	B-DC4	B-DC5	B-DC6	B-DC7	B-DC8	B-DC9	B-DC10	B-DC11	B-DC12	B-DC13	B-DC14	B-DC15	B-DC16	B-Ph1	B-Ph2	B-Ph3	B-Ph4	B-Ph5	B-Ph6	B-Ph7	B-Ph8	B-Ph9	B-Ph10	B-Ph11	B-Ph12	B-Ph13	B-Ph14	B-Ph15	B-Ph16	

Term	0.00000e+00	0.00000e+00	0.00000e+00	0.00000e+00	0.00000e+00	0.00000e+00	0.00000e+00	0.00000e+00	0.00000e+00	0.00000e+00	0.00000e+00	0.00000e+00	0.00000e+00	0.00000e+00	0.00000e+00	0.00000e+00	0.00000e+00	0.00000e+00	0.00000e+00	0.00000e+00	0.00000e+00	0.00000e+00	0.00000e+00	0.00000e+00	0.00000e+00	0.00000e+00	0.00000e+00	0.00000e+00	0.00000e+00	0.00000e+00	0.00000e+00	0.00000e+00	-1.31583e+02	-1.21578e+02	-1.40012e+02	-1.81298e+02	-8.87385e+01	-6.29981e+01	-1.57795e+02	-1.62015e+02	-6.94921e+01	-9.60310e+01	-1.75953e+02	-1.70521e+02	-1.80371e+02	-1.76072e+02	-6.81803e+01	-1.48893e+02	
Factor	1.93261e-05	1.42640e-04	3.75110e-05	1.68919e-01	1.12948e-06	1.23653e-06	1.80120e-01	7.03469e-02	1.11070e-06	1.40164e-06	1.16901e-01	3.27342e-02	2.64059e-02	1.04235e-02	1.14977e-06	1.44954e-02	1.13826e-06	1.18118e-06	3.28429e-07	8.21832e-02	1.29226e-08	1.29492e-08	8.20368e-02	3.39068e-02	1.29380e-08	1.29875e-08	5.34765e-02	1.52769e-02	1.27878e-02	5.00872e-03	1.30016e-08	6.72239e-03	X	X	X	X	X	X	X	X	X	X	X	X	X	X	X	X	



#DISTANCE SETTINGS
A = Detector Channel
A-1	A-2	A-3	A-4	A-5	A-6	A-7	A-8	A-9	A-10	A-11	A-12	A-13	A-14	A-15	A-16	

2.5000e+00	3.0000e+00	2.5000e+00	3.0000e+00	2.0000e+00	3.0000e+00	1.5000e+00	3.0000e+00	3.0000e+00	3.0000e+00	3.0000e+00	3.0000e+00	3.0000e+00	3.0000e+00	1.5000e+00	3.0000e+00	

B = Detector Channel
B-1	B-2	B-3	B-4	B-5	B-6	B-7	B-8	B-9	B-10	B-11	B-12	B-13	B-14	B-15	B-16	

1.0000e+01	1.0000e+01	1.0000e+01	1.4400e+00	1.0000e+01	1.0000e+01	1.5100e+00	1.9400e+00	1.0000e+01	1.0000e+01	1.9900e+00	2.4900e+00	2.4100e+00	2.9000e+00	1.0000e+01	2.9800e+00	




#DATA BEGINS
time	group	step	mark	flag	A-AC1	A-AC2	A-AC3	A-AC4	A-AC5	A-AC6	A-AC7	A-AC8	A-AC9	A-AC10	A-AC11	A-AC12	A-AC13	A-AC14	A-AC15	A-AC16	A-DC1	A-DC2	A-DC3	A-DC4	A-DC5	A-DC6	A-DC7	A-DC8	A-DC9	A-DC10	A-DC11	A-DC12	A-DC13	A-DC14	A-DC15	A-DC16	A-Ph1	A-Ph2	A-Ph3	A-Ph4	A-Ph5	A-Ph6	A-Ph7	A-Ph8	A-Ph9	A-Ph10	A-Ph11	A-Ph12	A-Ph13	A-Ph14	A-Ph15	A-Ph16	B-AC1	B-AC2	B-AC3	B-AC4	B-AC5	B-AC6	B-AC7	B-AC8	B-AC9	B-AC10	B-AC11	B-AC12	B-AC13	B-AC14	B-AC15	B-AC16	B-DC1	B-DC2	B-DC3	B-DC4	B-DC5	B-DC6	B-DC7	B-DC8	B-DC9	B-DC10	B-DC11	B-DC12	B-DC13	B-DC14	B-DC15	B-DC16	B-Ph1	B-Ph2	B-Ph3	B-Ph4	B-Ph5	B-Ph6	B-Ph7	B-Ph8	B-Ph9	B-Ph10	B-Ph11	B-Ph12	B-Ph13	B-Ph14	B-Ph15	B-Ph16	aux-1	digaux	

1580.932	1	1	0	768	0.13889	0.13325	0.26611	0.2871	0.27694	0.07647	0.42513	0.06755	0.026669	0.062885	0.2337	0.23029	0.18098	0.10004	0.10871	0.22434	-0.85833	-0.575	-0.3	-1.3708	-0.39375	-0.6625	-1.3854	-0.59792	-1.0771	-0.69583	-0.2875	-1.2833	-0.63333	-0.59583	-1.0958	-0.45625	7.630	-15.803	-97.963	-126.441	152.616	-167.204	145.139	119.309	-121.640	160.525	-172.089	143.516	120.454	114.881	-22.172	88.370	0.00092067	0.0022883	0.00045292	1244.1	8.9296e-06	1.4992e-05	1596.1	406.76	9.5306e-06	2.1207e-05	626.56	220.56	131.37	58.878	7.8084e-06	108.08	0.0011653	0.0011747	0.00032286	1134.3	1.289e-05	1.2919e-05	1437	373.83	1.3027e-05	1.3127e-05	567.42	200.26	122.83	54.076	1.2991e-05	96.887	-161.436	-45.384	-55.639	-162.524	-35.513	98.396	-163.342	-158.558	-5.313	-78.229	-159.047	-155.093	-154.625	-148.620	-21.878	-150.988	-8191	255	
1581.028	1	1	0	0	0.34331	0.23888	0.12097	0.31126	0.19816	0.17461	0.092636	0.14868	0.16203	0.14054	0.21269	0.070164	0.23587	0.18783	0.32516	0.16871	-0.58333	-0.76042	-0.29792	-1.3479	-0.55208	-0.64792	-1.2125	-0.47292	-0.78542	-0.90833	-0.21042	-1.2979	-0.64167	-0.63333	-1.1792	-0.64375	-84.733	168.748	-26.822	-125.151	-163.359	112.530	112.385	97.939	139.352	15.815	-6.061	41.230	153.619	87.449	-75.699	-158.602	0.00086546	0.00041245	0.00048343	1243	6.128e-06	1.4755e-05	1585.3	406.17	4.5059e-06	7.7403e-06	620.79	220.21	132.16	58.686	1.1283e-05	107.92	0.001188	0.0011919	0.00033269	1135.9	1.311e-05	1.3184e-05	1430.1	373.5	1.2939e-05	1.3046e-05	565.45	200.14	122.71	53.977	1.2812e-05	96.82	-165.190	77.794	-126.971	-162.434	-89.585	-30.601	-163.013	-158.738	19.641	-69.000	-159.033	-155.440	-154.404	-148.460	39.410	-150.875	-8191	255	
1581.124	1	1	0	0	0.16607	0.090564	0.24563	0.37388	0.17314	0.14859	0.15931	0.11649	0.27746	0.35292	0.23546	0.23004	0.16506	0.096591	0.22215	0.13187	-0.675	-1.0042	-0.22083	-1.3563	-0.675	-0.36875	-1.4521	-0.46667	-0.60833	-0.9875	-0.43125	-1.1104	-0.58125	-0.31042	-1.2396	-0.44583	75.831	80.868	-68.099	177.513	-174.007	-120.789	-162.129	-103.635	-112.856	78.182	61.423	128.771	142.027	117.469	-128.647	133.930	0.0008911	0.0014051	0.00037688	1247.4	6.3319e-06	2.1739e-06	1596.1	407.06	5.1268e-06	1.1524e-05	622.03	220.49	131.54	58.816	1.3635e-05	108	0.0011704	0.0011611	0.00032016	1135.7	1.2755e-05	1.2664e-05	1431.4	372.21	1.2578e-05	1.2643e-05	563.09	199.9	122.49	53.673	1.2621e-05	96.539	-163.897	-131.796	-74.516	-162.576	154.539	97.221	-163.038	-158.732	-17.602	-146.570	-158.949	-155.061	-154.169	-148.724	-64.362	-151.264	-8191	255	
1581.219	1	1	0	0	0.1666	0.27764	0.19002	0.57542	0.11982	0.098782	0.20057	0.063307	0.31691	0.1596	0.14952	0.31276	0.23178	0.25461	0.2264	0.2908	-0.21667	-1.1625	-0.10208	-0.91458	-0.65	-0.47917	-1.4188	-0.575	-0.79167	-1.2979	-0.64375	-1.1833	-1.0562	-0.54583	-1.1063	-0.85625	129.015	-49.211	-172.802	172.175	-91.055	31.678	79.455	-39.301	-152.250	-88.216	-172.937	157.750	-172.905	181.785	-124.472	169.146	0.00090921	0.00091115	0.00050165	1252.1	9.9985e-06	7.5303e-06	1598.3	405.8	2.0883e-05	1.4713e-05	622.13	220.22	131.31	58.36	9.704e-06	107.3	0.0011322	0.0011389	0.00031581	1134.5	1.2556e-05	1.244e-05	1434.3	371.53	1.2593e-05	1.2381e-05	563.17	199.41	121.81	53.343	1.2365e-05	96	-166.660	-105.715	-93.674	-162.328	112.604	-123.068	-163.104	-158.690	-29.535	-44.564	-159.288	-155.148	-154.249	-148.517	7.081	-151.394	-8191	255	
1581.315	1	1	0	0	0.085819	0.24675	0.13053	0.042241	0.12561	0.1954	0.28256	0.4147	0.14654	0.13873	0.15751	0.18663	0.23395	0.23297	0.056511	0.10906	-0.22292	-1.0146	-0.3	-1.0792	-0.90833	-0.28542	-1.2083	-0.79583	-0.46667	-1.1104	-0.46042	-1.1063	-1.1167	-0.25417	-0.99167	-0.66042	90.000	53.877	119.258	141.194	-74.868	-62.464	-25.691	109.524	79.573	104.293	96.392	130.171	157.819	75.334	-86.073	67.857	0.00074489	0.0025148	0.00044465	1248.7	5.4802e-06	1.0011e-05	1595.3	406.74	6.1586e-06	1.3e-05	619.08	218.57	131.23	57.866	1.6926e-05	106.56	0.0011139	0.001109	0.00031288	1134.1	1.2403e-05	1.2367e-05	1433.2	371.71	1.2344e-05	1.2344e-05	560.81	197.83	121.8	53.034	1.247e-05	95.537	-172.441	-72.246	183.233	-162.109	-129.821	25.076	-163.133	-158.404	-67.842	-91.873	-159.406	-155.258	-154.423	-148.480	-28.756	-151.029	-8191	255	
1581.413	1	1	0	0	0.32249	0.073569	0.18912	0.31776	0.16462	0.1191	0.34809	0.26655	0.052795	0.16236	0.20453	0.07387	0.17782	0.14982	0.12018	0.15874	-0.01875	-1.1771	-0.21458	-0.84375	-1.0125	-0.37292	-1.2375	-0.78958	-0.375	-1.1812	-0.6625	-1.05	-1.1437	-0.25208	-0.89583	-0.78542	3.406	-24.662	-124.694	-132.595	-111.970	-169.855	122.753	133.807	79.489	-73.194	147.938	-61.900	-112.021	-156.312	-29.693	146.481	0.00082371	0.0011633	4.3792e-05	1243.4	1.2211e-05	1.0852e-05	1588.6	404.85	1.251e-05	5.5923e-06	618.27	217.12	131.29	57.946	3.2068e-06	106.84	0.0011201	0.0011247	0.00031698	1129.9	1.2375e-05	1.2347e-05	1430.2	370.7	1.2407e-05	1.2467e-05	558.24	197.33	121.76	53.011	1.2512e-05	95.385	-163.114	-166.335	-140.117	-162.130	-106.732	40.927	-163.254	-158.365	-69.978	146.396	-158.848	-155.343	-154.822	-148.552	-135.207	-151.093	-8191	255	
1581.532	1	1	0	0	0.25013	0.01784	0.018813	0.29661	0.1857	0.15516	0.26052	0.24356	0.11147	0.22491	0.10006	0.17976	0.17746	0.18286	0.051505	0.24786	-0.027083	-0.91875	-0.38958	-0.88333	-0.925	-0.45	-0.96875	-0.92708	-0.24583	-1.0417	-0.51458	-0.59583	-1.1458	-0.35625	-1.025	-1.1896	-95.217	-51.321	-134.341	97.189	67.482	-43.344	86.624	100.929	87.852	-10.007	173.641	-118.769	173.098	136.440	-65.410	146.160	0.00062624	0.001749	0.0003027	1243.3	7.9748e-06	4.9581e-06	1585.8	403.2	8.4181e-06	1.0878e-05	619.37	217.82	130.67	58.043	8.0043e-06	106.66	0.0011332	0.0011349	0.00031563	1129.7	1.2369e-05	1.2608e-05	1427.6	369.93	1.2442e-05	1.259e-05	560.95	197.77	121.48	53.33	1.2777e-05	95.58	-162.775	-1.989	161.317	-162.612	40.708	-59.094	-163.082	-158.341	-21.390	-2.231	-159.155	-155.639	-154.597	-148.751	-81.523	-151.287	-8191	255	
1581.628	1	1	0	0	0.10974	0.092428	0.24252	0.24248	0.11848	0.28492	0.19239	0.22593	0.041106	0.42764	0.22403	0.30422	0.17904	0.17186	0.00515	0.19211	0.17708	-1.1208	-0.49375	-0.75625	-1.2542	-0.37708	-0.89167	-1.1854	-0.18333	-1.1833	-0.72292	-0.61875	-1.2812	-0.33958	-0.77083	-1.1833	90.924	-37.342	-149.964	142.322	-9.422	-171.422	73.084	131.365	15.745	56.975	37.581	135.948	-165.435	148.268	83.972	135.478	0.00087223	0.0011254	0.00015548	1245.6	8.4125e-06	1.466e-05	1594.3	403.65	1.8734e-05	8.7725e-06	619.33	220.54	131.76	58.161	4.7235e-06	107.44	0.0011482	0.0011506	0.0003226	1131.3	1.2739e-05	1.2879e-05	1432.4	370.73	1.2793e-05	1.2827e-05	562.74	198.92	122.14	53.435	1.2997e-05	96.395	-163.098	171.457	19.669	-162.475	-106.305	-71.939	-163.288	-158.843	-21.915	158.408	-159.244	-155.702	-154.276	-149.109	93.390	-150.855	-8191	255	
1581.724	1	1	0	0	0.21291	0.10257	0.15406	0.20104	0.28406	0.20299	0.35364	0.16434	0.28169	0.36705	0.24512	0.30889	0.22307	0.092064	0.21127	0.22146	0.2375	-1.0292	-0.74583	-0.46458	-1.1354	-0.20833	-0.825	-1.0021	-0.26458	-0.94167	-0.87917	-0.46042	-1.2062	-0.47708	-0.75	-1.2146	112.069	22.162	-28.733	-151.827	5.977	161.832	145.453	146.271	39.780	144.880	150.640	156.464	134.811	-40.347	-97.964	-159.969	0.00080471	0.00036589	0.00029522	1244.5	1.6201e-05	1.4514e-05	1580.9	403.69	8.1751e-06	4.5165e-06	617.09	219.19	130.93	58.39	8.8341e-06	107.9	0.0011779	0.0011791	0.00033101	1129.2	1.2866e-05	1.3037e-05	1430.6	372.47	1.321e-05	1.3279e-05	565.68	199.29	122.73	53.866	1.3432e-05	97.041	-161.750	26.889	-127.877	-162.482	-10.424	-14.932	-162.717	-158.394	-47.272	172.121	-159.281	-155.447	-154.303	-149.033	-138.456	-151.528	-8191	255	
1581.820	1	1	0	0	0.16999	0.3473	0.2111	0.026074	0.079306	0.17817	0.25454	0.43347	0.27058	0.042828	0.14916	0.24419	0.067057	0.26683	0.30803	0.47486	0.14375	-0.91458	-0.69792	-0.25625	-1.2979	-0.44583	-0.85833	-1.3646	-0.1625	-1.0688	-1.075	-0.40833	-1.1229	-0.68958	-0.25417	-1.2979	-129.865	-153.784	75.824	-120.973	-104.131	34.145	73.472	152.764	-153.773	124.422	137.720	35.280	151.572	-171.690	-81.434	107.842	0.00088697	0.003021	0.00045632	1226.5	1.9469e-05	3.6216e-06	1580.9	403.3	1.5242e-05	5.415e-06	617.7	220.07	131.15	58.485	7.4491e-06	108.33	0.00121	0.0012241	0.00034123	1124.7	1.3406e-05	1.3475e-05	1430	370.88	1.3422e-05	1.3609e-05	564.19	199.95	123.3	54.078	1.3561e-05	97.504	-163.897	-86.507	-124.326	-162.319	-57.111	-114.228	-162.857	-158.676	-85.530	137.108	-159.132	-155.395	-154.491	-149.002	21.006	-151.250	-8191	255	
1581.916	1	1	0	0	0.077446	0.16218	0.13534	0.12339	0.26057	0.22586	0.079463	0.25051	0.12728	0.13479	0.11226	0.16801	0.20721	0.45612	0.33865	0.19029	0.16042	-0.6125	-0.90625	-0.40625	-1.3292	-0.60625	-0.64583	-1.2354	-0.32708	-0.51458	-1.1854	-0.33333	-1.2292	-0.83333	-0.30625	-1.3042	-46.520	-23.971	46.947	-151.175	-47.008	99.966	128.204	154.629	100.170	52.264	132.451	163.285	-135.338	149.554	-69.089	90.356	0.00092241	0.00066218	0.00030436	1226.1	1.1743e-05	1.0952e-05	1577.2	406.9	9.0764e-06	2.5027e-06	621.76	219.52	132	58.968	9.2921e-06	109.28	0.0012252	0.0012489	0.00034362	1123.4	1.3523e-05	1.3582e-05	1427.6	373.67	1.353e-05	1.3698e-05	567.14	200.68	123.37	54.551	1.3751e-05	98.218	-164.042	-80.975	-60.528	-162.397	-124.460	31.505	-163.279	-158.739	-14.176	102.121	-159.055	-155.818	-154.553	-148.749	12.420	-151.254	-8191	255	
1582.012	1	1	0	0	0.23969	0.029029	0.21611	0.44121	0.16662	0.037328	0.21233	0.36523	0.10446	0.13928	0.09231	0.38371	0.26782	0.19476	0.086282	0.30055	0.097917	-0.51875	-1.0625	-0.48958	-0.77917	-0.58333	-0.57708	-1.2792	-0.32292	-0.74167	-1.1229	-0.4	-0.98333	-0.91042	-0.26875	-1.1458	-117.367	122.900	-94.978	149.602	-119.061	25.981	123.542	122.933	61.706	18.108	89.234	145.639	120.767	134.625	169.591	-124.618	0.00075261	0.0017344	0.00010528	1229.4	1.1797e-05	7.6776e-06	1582.8	406.21	1.2166e-05	7.1888e-06	626.62	220.63	132.09	59.419	1.2526e-05	110.35	0.0012406	0.0012666	0.00034783	1126.3	1.3732e-05	1.3789e-05	1431.6	374.68	1.3872e-05	1.3893e-05	570.18	201.34	124.11	54.823	1.3843e-05	99.021	-169.369	-118.895	-48.232	-162.650	-25.352	-25.485	-163.046	-158.919	-28.664	-70.079	-159.045	-155.682	-154.286	-148.971	2.794	-151.100	-8191	255	
1582.133	1	1	0	0	0.16522	0.11072	0.27138	0.39473	0.098119	0.29651	0.2369	0.25846	0.030167	0.11437	0.33282	0.14361	0.36645	0.081555	0.35887	0.14838	-0.17083	-0.61667	-0.99375	-0.34167	-0.775	-0.96042	-0.425	-1.1292	-0.40833	-0.42083	-1.3792	-0.31875	-1.1021	-0.81042	-0.29583	-1.2458	94.382	-158.223	15.225	158.344	-93.410	143.687	46.463	90.664	-111.730	-141.807	128.388	98.387	154.795	160.432	8.361	103.305	0.0008381	0.0009441	0.00057632	1236.9	2.1004e-05	8.5798e-06	1576.5	408.69	1.1536e-05	8.5948e-06	623.79	222.15	131.78	59.441	1.4902e-05	110.49	0.0012569	0.0012674	0.00035018	1128.5	1.3952e-05	1.3967e-05	1431.1	376.16	1.3887e-05	1.3916e-05	568.75	201.86	124.43	54.898	1.381e-05	99.178	-171.434	-53.009	-118.964	-162.408	-77.677	-94.817	-163.197	-158.931	4.995	-109.263	-159.195	-155.367	-154.385	-148.641	-105.502	-151.309	-8191	255	
1582.227	1	1	0	0	0.1078	0.089364	0.091334	0.40312	0.083577	0.21641	0.34458	0.1879	0.032631	0.31202	0.27401	0.29899	0.050194	0.22487	0.23343	0.32017	-0.060417	-0.24792	-1.1833	-0.52917	-0.52292	-0.9625	-0.51875	-1.1875	-0.5375	-0.27292	-1.3167	-0.42708	-0.79375	-0.96458	-0.28125	-1.0854	94.946	148.406	-123.098	146.523	3.688	60.510	87.863	61.151	-84.687	36.296	117.803	100.592	133.962	73.529	-104.728	-160.581	0.0009146	0.0012925	0.00020913	1232.2	1.605e-05	1.4991e-05	1584.6	407.08	1.6911e-05	1.8463e-05	621.19	220.18	131.44	59.033	7.844e-06	109.49	0.0012599	0.0012482	0.00034863	1125.6	1.3688e-05	1.3608e-05	1429.9	375.7	1.3663e-05	1.3589e-05	565.71	200.62	123.46	54.34	1.3358e-05	97.757	-153.457	-36.102	83.680	-162.585	-55.909	-29.192	-163.009	-158.290	-35.449	-54.367	-159.152	-155.414	-154.701	-149.131	-8.486	-150.918	-8191	255	
1582.323	1	1	0	0	0.17061	0.053185	0.26136	0.19691	0.27325	0.32029	0.25454	0.1994	0.21408	0.2114	0.23726	0.29679	0.26273	0.11189	0.13876	0.26264	-0.20417	-0.17292	-1.1229	-0.575	-0.59792	-1.0083	-0.37083	-0.98333	-0.78958	-0.16042	-1.2687	-0.56875	-0.53542	-1.1229	-0.3	-0.8375	109.251	79.201	-148.341	102.070	-123.442	-90.654	110.633	-150.285	-130.266	-80.445	159.423	136.344	73.739	155.690	109.777	151.727	0.00084264	0.00070151	0.00030368	1235.8	3.8539e-06	9.0404e-06	1591	406.1	9.2838e-06	1.9017e-05	620.6	219.19	132.15	58.405	1.9336e-05	108.03	0.0012078	0.0012069	0.00033341	1128.4	1.3205e-05	1.3021e-05	1428.4	373.6	1.3064e-05	1.3126e-05	564.68	199.34	123.04	53.954	1.3124e-05	97.362	-158.160	-97.411	-60.091	-162.409	19.065	-25.185	-162.990	-158.641	-20.057	-103.692	-158.955	-155.014	-154.009	-148.193	-42.201	-150.851	-8191	255	
1582.420	1	1	0	0	0.24021	0.13802	0.047865	0.072016	0.36904	0.20001	0.23218	0.28071	0.21007	0.080048	0.17107	0.18493	0.29971	0.13277	0.07898	0.20073	-0.65208	-0.097917	-1.1542	-0.63333	-0.4625	-1.3042	-0.7125	-0.9625	-1.0438	-0.1875	-1.3729	-0.89792	-0.60625	-1.0667	-0.17708	-0.96458	-115.509	-20.432	-79.735	144.401	-121.493	-26.992	61.386	125.297	131.263	28.365	112.539	147.727	127.551	171.042	40.859	111.966	0.00095467	0.001204	0.00045212	1236.6	4.3192e-06	1.9575e-05	1591.7	404.02	1.2045e-05	1.6183e-05	621.01	219.85	130.01	58.595	1.195e-05	108.52	0.0011958	0.001192	0.00033414	1127	1.3055e-05	1.2926e-05	1429.5	372.79	1.3023e-05	1.2928e-05	566.62	199.03	122.24	53.783	1.3198e-05	97.309	-152.834	-36.431	162.380	-162.439	150.845	-13.884	-163.146	-158.639	-11.659	-44.018	-158.755	-155.339	-153.961	-148.458	-77.117	-150.939	-8191	255	
1582.493	1	1	0	0	0.29496	0.19214	0.14807	0.22043	0.15075	0.067064	0.22546	0.062063	0.051713	0.10825	0.1272	0.17192	0.26692	0.21021	0.17349	0.38067	-0.46875	-0.022917	-0.88125	-0.90625	-0.42917	-1.2083	-0.64375	-0.97083	-1.0167	-0.42083	-1.2	-0.80833	-0.38125	-1.4	-0.4	-0.775	37.058	131.319	166.383	140.356	26.827	88.530	79.418	150.336	4.736	51.475	-118.492	138.728	103.092	-164.438	-59.154	78.585	0.00095677	0.00089606	7.3763e-05	1240.4	7.7698e-06	1.7532e-05	1588.6	404.5	5.9905e-06	7.868e-06	623.27	219.08	132.17	58.429	2.2901e-05	108.19	0.0011811	0.0012036	0.00033386	1130.7	1.3031e-05	1.304e-05	1429.2	373.54	1.3074e-05	1.306e-05	565.02	199	122.85	53.821	1.3356e-05	96.958	-170.083	89.984	108.718	-162.572	-6.105	5.031	-163.165	-158.577	68.030	-145.408	-159.306	-155.649	-154.282	-148.648	-18.966	-150.884	-8191	255	
1582.612	1	1	0	0	0.27986	0.10651	0.39589	0.27784	0.038245	0.10327	0.34652	0.098871	0.13519	0.15011	0.29258	0.11844	0.24152	0.30497	0.15589	0.1505	-0.74167	-0.19167	-1.0354	-0.95208	-0.14583	-1.0542	-0.69583	-0.6625	-1.2687	-0.29375	-1.0125	-0.94167	-0.27292	-1.2479	-0.44583	-0.45	36.205	150.732	44.698	168.224	150.309	141.188	116.881	80.002	148.833	-166.770	159.417	164.287	125.263	59.083	2.136	51.645	0.00094578	0.0014154	0.00037144	1234.5	1.3315e-05	5.9266e-06	1578.9	405.01	3.2561e-06	8.4166e-06	618.16	218.97	131.05	58.178	8.1967e-06	106.63	0.0011948	0.0012059	0.00033351	1125.4	1.3066e-05	1.3194e-05	1423.3	371.59	1.3102e-05	1.3207e-05	563.17	198.19	122.19	53.562	1.3495e-05	96.111	-173.492	-34.588	-66.025	-162.673	12.053	-59.344	-163.362	-158.714	93.801	-100.543	-159.242	-155.940	-154.574	-148.835	75.588	-151.192	-8191	255	
1582.708	1	1	0	0	0.12516	0.093598	0.097697	0.28739	0.11637	0.10862	0.10153	0.28995	0.22246	0.14503	0.32482	0.1146	0.28304	0.33158	0.18932	0.28039	-0.71042	-0.4	-0.93542	-1.1042	-0.079167	-1.1625	-0.85208	-0.48125	-0.88958	-0.40208	-1.0729	-1.2167	-0.32292	-1.1625	-0.50208	-0.50625	-102.160	-158.761	-70.959	109.720	-108.863	-167.437	25.392	62.288	151.330	-118.967	-166.692	65.851	138.540	132.733	-154.251	97.476	0.00078061	0.0010453	4.92e-05	1222.2	7.391e-06	1.3125e-05	1568.8	402.96	1.0581e-05	2.3892e-05	616.61	218.69	129.82	57.717	7.0305e-06	106.63	0.0011867	0.0012106	0.00033903	1119.2	1.3121e-05	1.345e-05	1420.8	371.5	1.3274e-05	1.3437e-05	564.05	198.23	122.31	53.49	1.3508e-05	96.23	-161.457	-75.950	-21.267	-162.863	92.815	-70.774	-163.590	-158.792	-80.018	-65.852	-158.833	-155.821	-154.455	-148.638	29.722	-151.032	-8191	255	
1582.804	1	1	0	0	0.17034	0.1099	0.065418	0.11126	0.40938	0.278	0.18505	0.44606	0.1873	0.16649	0.084221	0.23429	0.26579	0.17649	0.29559	0.12373	-0.86875	-0.39167	-0.6125	-1.05	-0.33125	-1.05	-0.79792	-0.55833	-1.2375	-0.24792	-0.82917	-1.2188	-0.30833	-1.1979	-0.78333	-0.47708	-54.018	-138.098	127.617	38.622	-44.543	-146.562	63.669	150.516	-73.723	-163.272	170.911	-15.899	-155.091	171.783	172.038	96.899	0.0008639	0.0014188	0.00049881	1233.2	7.5322e-06	7.0555e-06	1578.1	399.48	6.649e-06	1.1415e-05	615.9	217.6	130.44	57.624	1.4998e-05	107.21	0.0012085	0.0012308	0.00033859	1126.3	1.3411e-05	1.3486e-05	1423.4	369.61	1.3352e-05	1.3435e-05	562.5	197.66	121.75	53.308	1.326e-05	95.955	-170.569	-22.071	166.688	-162.759	-34.670	-117.241	-163.240	-158.184	-85.360	-159.828	-159.192	-155.603	-154.868	-148.394	-35.526	-151.288	-8191	255	
1582.900	1	1	0	0	0.23177	0.26623	0.15195	0.2997	0.19983	0.13178	0.39974	0.15585	0.20396	0.16483	0.11375	0.30159	0.23593	0.31932	0.19251	0.55786	-0.72708	-0.45	-0.43958	-1.2854	-0.32083	-0.99375	-1.2333	-0.2875	-1.1812	-0.58542	-0.71667	-1.3375	-0.37083	-0.92708	-0.98958	-0.43542	9.549	136.074	73.897	145.038	115.809	19.585	138.493	100.011	-169.712	-60.163	-167.317	111.350	145.163	143.013	-161.700	106.884	0.00091765	0.00010931	0.00052105	1230.1	6.8075e-06	7.1237e-06	1582.4	400.3	3.7151e-06	3.8674e-06	615.59	217.41	129.67	57.695	8.1495e-06	106.45	0.0012008	0.0012104	0.00033581	1123	1.322e-05	1.329e-05	1423.4	369.38	1.3222e-05	1.327e-05	560.84	197.3	121.27	53.167	1.3252e-05	95.649	-158.580	-28.181	-114.879	-162.390	-116.904	-31.259	-163.485	-158.495	13.795	27.800	-159.237	-155.677	-154.365	-148.681	11.358	-151.067	-8191	255	
1583.021	1	1	0	0	0.075661	0.054118	0.12348	0.29497	0.14541	0.20256	0.16382	0.1379	0.19214	0.20448	0.24528	0.29401	0.18535	0.16595	0.11627	0.10711	-0.90833	-0.52083	-0.36875	-1.4604	-0.27708	-0.69375	-1.3042	-0.30625	-1.0354	-0.66042	-0.49167	-1.2792	-0.275	-0.91458	-1.2396	-0.5125	107.351	167.422	-2.578	-174.044	127.620	-43.936	120.414	-114.943	-68.711	139.229	150.210	124.807	-175.796	-114.073	-149.948	31.586	0.0009715	0.00076152	0.00017497	1229	2.6456e-07	7.5177e-06	1571.1	399.7	6.8168e-06	2.3434e-06	611.32	215.93	128.86	57.381	1.7829e-05	105.61	0.001194	0.0012124	0.00033425	1121.5	1.3238e-05	1.3415e-05	1417.9	367.94	1.3151e-05	1.3239e-05	557.24	196.27	120.76	52.926	1.3137e-05	94.887	-158.824	-48.985	69.253	-162.938	51.830	-21.938	-163.213	-158.614	-78.085	-176.329	-159.470	-155.936	-154.831	-148.843	-38.218	-151.364	-8191	255	
1583.093	1	1	0	0	0.13718	0.057233	0.1563	0.12045	0.26078	0.11658	0.24434	0.2246	0.21663	0.31352	0.028893	0.29124	0.11338	0.097963	0.16399	0.094737	-0.69583	-0.74583	-0.23125	-1.1063	-0.275	-0.62708	-1.2812	-0.43542	-1.0625	-0.9	-0.45417	-1.2354	-0.5875	-0.57292	-1.05	-0.5625	182.009	179.310	-42.090	129.888	-89.453	175.499	-168.383	-148.368	25.398	-108.460	22.052	144.494	93.558	-20.981	160.177	179.486	0.00079908	0.00087258	0.00037766	1224.9	7.7722e-06	8.5879e-06	1566.9	399.74	9.8486e-06	1.9708e-05	610.9	216.72	129.01	57.634	2.4209e-06	106.18	0.0011997	0.0012134	0.00033219	1115.7	1.3309e-05	1.3338e-05	1414.7	368.06	1.3282e-05	1.3331e-05	558	196.92	121.21	53.16	1.326e-05	95.68	-158.568	-22.739	-127.901	-162.630	27.389	126.653	-163.287	-158.636	-76.749	58.819	-159.332	-155.828	-154.554	-148.777	-7.487	-151.387	-8191	255	
1583.213	1	1	0	0	0.18906	0.18654	0.23126	0.18102	0.11197	0.20469	0.16802	0.22651	0.2124	0.12438	0.14769	0.30834	0.20811	0.28596	0.079618	0.2407	-0.58542	-0.76042	-0.23125	-1.1708	-0.53125	-0.44583	-1.3687	-0.32083	-0.91875	-0.9625	-0.17292	-1.25	-0.7	-0.44792	-1.0833	-0.52083	151.667	-48.669	42.020	-153.219	108.871	-85.426	147.222	69.477	-48.076	160.751	168.191	170.500	114.197	-173.013	-2.273	141.643	0.00081485	0.0018614	0.00032047	1224	1.2599e-05	2.453e-05	1565.4	401.38	6.1082e-06	1.1972e-05	617.39	217.83	130.02	57.837	9.547e-06	107.03	0.0012157	0.0012158	0.00033857	1118.2	1.3536e-05	1.3359e-05	1416	369.72	1.3462e-05	1.3533e-05	562.16	198.01	121.75	53.54	1.3405e-05	96.209	-152.076	118.868	129.121	-162.353	-101.632	66.624	-163.527	-158.904	38.818	128.740	-159.165	-155.406	-154.784	-148.964	-126.462	-151.182	-8191	255	
1583.308	1	1	0	0	0.21054	0.15108	0.3203	0.11605	0.15443	0.086142	0.25611	0.16356	0.20685	0.20221	0.20118	0.067745	0.31839	0.42024	0.21952	0.19495	-0.325	-1.0896	-0.066667	-1.1104	-0.52708	-0.42917	-1.5542	-0.35417	-0.60208	-1.1479	-0.1875	-1.2188	-0.76667	-0.36042	-1.0479	-0.6625	-161.994	127.787	147.469	-155.062	109.354	161.684	136.568	88.982	21.140	-48.083	136.746	-125.690	-106.116	173.947	-19.365	-150.391	0.0013849	0.001608	0.00039949	1222.5	6.6708e-06	9.7214e-06	1573.5	399.8	4.1236e-06	9.2497e-06	612.48	218.99	130.59	58.125	6.9259e-06	107.53	0.001233	0.0012321	0.00034356	1116.8	1.3555e-05	1.3603e-05	1418.8	369.52	1.3629e-05	1.3841e-05	562.65	199.15	122.37	53.921	1.3999e-05	97.223	-161.367	-57.484	154.648	-162.639	-48.161	150.928	-163.081	-158.815	76.763	77.288	-159.319	-156.052	-154.588	-148.522	37.138	-151.393	-8191	255	
1583.404	1	1	0	0	0.16942	0.33026	0.21466	0.40092	0.10368	0.12555	0.33414	0.059456	0.27517	0.18299	0.40097	0.039288	0.27854	0.1054	0.089185	0.16087	-0.23333	-1.0271	-0.13333	-1.2167	-0.95417	-0.22083	-1.3292	-0.64583	-0.58958	-1.1	-0.37708	-0.88958	-0.93333	-0.2125	-1.1146	-0.66042	163.360	33.283	-78.492	141.017	49.794	-121.983	75.745	30.539	127.748	68.464	-127.495	165.508	107.401	128.407	-78.852	135.505	0.000894	0.0023702	0.00045088	1216.2	1.1668e-05	5.6718e-06	1561.6	400.54	1.7086e-05	1.0784e-05	612.6	219.46	129.74	58.076	1.5597e-05	107.54	0.0012717	0.0012655	0.00035674	1118	1.4123e-05	1.4194e-05	1417.3	370.83	1.4307e-05	1.4336e-05	560.52	199.61	122.52	54.12	1.4527e-05	97.199	-159.656	-66.788	-78.905	-162.954	66.117	-174.407	-163.060	-158.661	-63.956	54.766	-159.256	-155.685	-154.783	-148.968	-60.215	-151.345	-8191	255	
1583.500	1	1	0	0	0.096384	0.11553	0.20535	0.057949	0.14469	0.15656	0.13324	0.066894	0.068419	0.18286	0.47641	0.044001	0.11704	0.2206	0.27118	0.12512	0.029167	-1.1292	-0.23125	-0.975	-0.975	-0.12292	-1.275	-0.80208	-0.36042	-1.1708	-0.3875	-0.81667	-1.1958	-0.47708	-1.2167	-0.97292	72.013	-44.118	-93.868	2.701	-171.104	-75.435	-13.859	-50.292	33.578	-131.481	126.743	-45.951	84.818	146.591	116.354	108.001	0.001044	0.0011635	0.00044783	1218.2	5.6901e-06	1.5204e-05	1558.8	399.53	1.5711e-05	1.4431e-05	609.97	218.3	129.95	58.724	6.0277e-06	108.02	0.0012991	0.0013148	0.00036905	1116.8	1.4336e-05	1.4338e-05	1413.9	370.61	1.4169e-05	1.437e-05	561.61	199.67	122.61	54.384	1.4412e-05	97.456	-160.371	-108.940	-43.168	-162.387	-149.777	60.817	-163.026	-158.760	-9.354	100.084	-159.560	-155.624	-154.880	-149.173	85.179	-151.077	-8191	255	
1583.621	1	1	0	0	0.28817	0.33518	0.085904	0.22218	0.28313	0.13109	0.081688	0.28186	0.10148	0.18775	0.39974	0.15721	0.1752	0.22571	0.03838	0.52227	-0.054167	-1.1479	-0.14583	-0.76667	-0.97292	-0.24167	-1.2208	-0.87292	-0.35	-1.1333	-0.63958	-0.79375	-0.91875	-0.2875	-1.0417	-1.0042	171.723	182.874	100.727	-133.078	18.349	-68.556	-81.458	126.154	27.820	-165.468	117.011	-33.414	167.482	-164.439	92.002	113.728	0.00098234	0.0016303	0.00073321	1216.1	4.7497e-06	1.2756e-05	1562.3	399.2	8.1635e-06	3.9417e-06	616.52	218.23	131.06	58.466	1.1238e-05	108.42	0.0012931	0.001318	0.00036706	1118.5	1.4234e-05	1.4391e-05	1415.1	371.66	1.4313e-05	1.4323e-05	565.71	200.78	123.39	54.568	1.4774e-05	98.061	-166.254	25.958	159.507	-162.651	160.288	47.343	-163.096	-158.671	-115.123	-115.835	-159.563	-155.843	-155.242	-148.758	157.051	-151.475	-8191	255	
1583.717	1	1	0	0	0.026694	0.11737	0.14716	0.31538	0.18904	0.18785	0.26377	0.49969	0.28357	0.052396	0.3181	0.12725	0.1777	0.15527	0.1819	0.1848	0.05625	-1.075	-0.35208	-0.74583	-1.0521	-0.41667	-0.91875	-1.1083	-0.17708	-1.0479	-0.80208	-0.5125	-1.1729	-0.26667	-0.82917	-1.0542	153.013	129.768	45.087	167.921	137.648	137.158	141.343	146.892	-21.726	134.171	129.853	-106.393	143.477	6.588	-112.944	-159.769	0.00096386	0.0021427	0.00014545	1207.3	1.6944e-05	2.3023e-05	1564.9	400.68	1.1342e-05	1.1235e-05	619.93	218.74	130.68	58.822	6.4143e-06	109.34	0.0013301	0.0013589	0.00038035	1114	1.4799e-05	1.4924e-05	1419.3	373.38	1.4869e-05	1.5014e-05	569.99	201.33	123.56	54.829	1.4845e-05	98.854	-165.855	-43.002	-26.813	-162.538	-80.191	-47.254	-163.168	-158.979	-81.502	14.110	-159.240	-155.752	-154.716	-148.997	-37.483	-151.479	-8191	255	
1583.813	1	1	0	0	0.30778	0.075799	0.17704	0.42048	0.08113	0.11102	0.24939	0.16975	0.089242	0.082698	0.22547	0.093503	0.088991	0.27787	0.21783	0.32873	0.35417	-1.1771	-0.62292	-0.72708	-1.0875	-0.22917	-0.87917	-1.2437	-0.33542	-1.0187	-0.81875	-0.51875	-1.1688	-0.525	-0.75	-1.1583	-88.567	100.295	-21.924	-163.478	-92.261	110.827	55.644	95.263	30.793	83.568	-153.694	-28.962	126.950	128.654	143.208	113.103	0.00086536	0.0018016	0.00075833	1212.5	1.3016e-05	1.4463e-05	1560.1	399.94	9.6115e-06	7.9879e-06	610.43	219.04	130.72	58.489	5.3394e-06	107.87	0.0013216	0.001329	0.00037061	1111.8	1.4515e-05	1.4552e-05	1417.5	370.45	1.4583e-05	1.4886e-05	564.73	200.55	123.46	54.572	1.4838e-05	97.804	-157.191	-55.821	-76.109	-162.510	-81.930	-41.331	-163.452	-158.723	-58.762	75.812	-159.460	-155.547	-154.856	-149.215	5.062	-151.654	-8191	255	
1583.909	1	1	0	0	0.22222	0.24754	0.16011	0.28593	0.06699	0.2226	0.32618	0.13544	0.05049	0.21065	0.26702	0.22657	0.16067	0.073513	0.064558	0.15763	0.23333	-1.0562	-0.8125	-0.36458	-1.0438	-0.4875	-0.93125	-1.2792	-0.14167	-0.94375	-1.0375	-0.28542	-1.225	-0.77292	-0.56875	-1.3	129.210	-37.270	97.030	116.620	-33.201	-77.322	101.264	124.355	11.486	70.992	39.703	-6.790	167.239	-47.497	-11.964	-156.147	0.0010617	0.0014327	0.00034698	1202.3	1.3199e-05	7.7973e-06	1551.9	398.13	4.6807e-06	1.1387e-05	614.07	218.07	129.24	58.302	1.4337e-06	107.22	0.0013288	0.0013638	0.00037287	1110.3	1.4734e-05	1.4944e-05	1412.7	370.25	1.4724e-05	1.4961e-05	564.87	199.61	122.65	54.232	1.4711e-05	97.132	181.122	-118.422	-101.886	-162.656	146.762	106.541	-162.825	-159.160	53.585	-109.649	-159.189	-155.411	-154.499	-149.180	-96.057	-151.553	-8191	255	
1584.005	1	1	0	0	0.2137	0.2291	0.2137	0.13888	0.2328	0.10439	0.3201	0.15115	0.18143	0.38631	0.23641	0.33336	0.22264	0.2675	0.22451	0.59481	0.2625	-0.8125	-0.77083	-0.56042	-1.1437	-0.47083	-0.71667	-1.2687	-0.31667	-1.0146	-1.2396	-0.5375	-1.1688	-0.57292	-0.3125	-1.4792	97.149	5.571	-152.327	-102.085	-101.798	-64.237	105.588	-73.894	125.918	168.749	174.337	-165.817	-173.054	158.134	82.366	114.774	0.00089314	0.00094313	0.00057651	1202.7	1.5811e-05	9.2862e-06	1560	397.52	2.0156e-05	2.8919e-06	610.86	217.63	130.15	58.264	1.4766e-05	106.82	0.0013271	0.0013349	0.00037109	1107.1	1.4558e-05	1.4573e-05	1412.1	370.03	1.4668e-05	1.4716e-05	562.98	199.62	122.79	54.27	1.4687e-05	97.021	-148.727	-70.892	-12.271	-162.609	-55.514	59.102	-163.075	-158.622	-129.295	82.274	-159.291	-155.757	-154.592	-149.079	-35.408	-151.233	-8191	255	
1584.101	1	1	0	0	0.1043	0.31034	0.059156	0.34496	0.025244	0.17186	0.22043	0.106	0.33348	0.19586	0.095093	0.11223	0.16793	0.30095	0.060686	0.433	0.027083	-0.81042	-0.76875	-0.34167	-1.1313	-0.77708	-0.49375	-1.3312	-0.27708	-0.65833	-1.0354	-0.38125	-1.1396	-1.0396	-0.35417	-1.0854	80.644	169.362	-26.594	-148.839	-54.043	94.291	101.660	-141.094	-44.377	-73.094	-151.622	-155.624	-6.891	147.491	-46.786	95.120	0.0010315	0.00058021	0.00038206	1192.8	5.1243e-06	4.8042e-06	1547.1	399.1	1.212e-05	2.1257e-05	616.03	218.99	129.87	58.575	1.044e-05	107.43	0.0013286	0.0013543	0.00037636	1105.4	1.489e-05	1.4985e-05	1406.3	371.6	1.5201e-05	1.5077e-05	566.22	200.78	123.35	54.621	1.4936e-05	97.62	-171.131	-161.008	-78.817	-162.647	-169.712	-41.105	-163.252	-158.486	-75.479	-5.329	-159.470	-155.614	-154.461	-149.077	6.400	-151.262	-8191	255	
1584.196	1	1	0	0	0.15432	0.16477	0.1078	0.27911	0.2052	0.048979	0.19887	0.16381	0.3017	0.1948	0.41036	0.096021	0.255	0.15579	0.10444	0.14261	-0.1125	-0.6	-1.0646	-0.475	-1.0104	-0.90625	-0.44375	-1.4021	-0.48333	-0.68542	-1.2979	-0.62917	-0.99792	-0.97292	-0.36042	-1.3542	82.792	-127.583	-11.033	173.551	-78.058	116.745	127.035	73.944	-160.348	139.890	149.824	104.019	-171.963	126.403	84.556	124.800	0.00099528	0.00061175	0.00014182	1200.1	1.5706e-05	1.3258e-05	1547.6	395.8	2.2356e-05	1.9864e-05	607.25	217.76	129.13	58.26	1.8454e-05	107.09	0.0013504	0.001355	0.00037512	1104.5	1.4813e-05	1.4844e-05	1406.4	370.12	1.4788e-05	1.478e-05	563.74	199.87	122.64	54.273	1.4548e-05	96.882	-171.710	19.143	-153.613	-162.151	-86.464	-78.911	-163.127	-158.749	-69.839	10.582	-159.549	-156.029	-154.344	-148.734	-62.546	-151.429	-8191	255	
1584.316	1	1	0	0	0.22218	0.2802	0.21204	0.21126	0.13082	0.2689	0.37944	0.031304	0.18888	0.10297	0.10534	0.21561	0.24425	0.25188	0.059709	0.22114	-0.19583	-0.57083	-1.3792	-0.31875	-0.91667	-0.98333	-0.29167	-1.1917	-0.68125	-0.45833	-1.4312	-0.45208	-0.88958	-1.1208	-0.27292	-1.1354	84.904	0.190	142.816	176.666	57.310	-65.875	98.155	-167.890	131.180	159.399	128.413	153.229	18.807	-107.520	-100.006	153.032	0.0010234	0.0015483	0.00031381	1196.3	3.5736e-06	8.0202e-06	1545.5	394.74	1.7245e-05	1.6287e-05	612.08	217.32	128.93	58.332	3.824e-06	107.08	0.001314	0.0013287	0.00036806	1100.1	1.4586e-05	1.4609e-05	1402.9	368.98	1.4508e-05	1.4548e-05	562.39	198.81	122.24	54.03	1.4393e-05	96.624	-147.825	-55.734	-61.621	-162.481	-124.873	63.755	-163.408	-158.655	-38.743	-122.437	-159.375	-155.749	-154.571	-149.073	-28.796	-151.371	-8191	255	
1584.388	1	1	0	0	0.16712	0.20837	0.18586	0.23654	0.096595	0.17134	0.31906	0.18316	0.23932	0.17668	0.20438	0.2283	0.27268	0.16646	0.21152	0.19502	-0.37083	-0.32708	-1.0896	-0.34167	-0.7625	-1.1458	-0.38333	-1.1771	-0.74583	-0.28333	-1.1917	-0.61042	-0.75417	-1.0438	-0.2375	-1.0729	-98.962	-93.125	-15.703	142.676	-18.698	-25.020	77.791	0.272	175.760	110.156	-136.126	150.745	-158.294	44.625	165.415	150.531	0.00079384	0.00058076	0.00028355	1187.4	1.0567e-05	6.3564e-06	1553.9	394.06	3.5051e-06	2.2203e-06	608.86	216.77	128.76	58.091	1.37e-05	107.36	0.0012906	0.0013029	0.00036184	1099.6	1.4199e-05	1.4137e-05	1403.2	367.74	1.4188e-05	1.4102e-05	560.27	198.65	121.85	53.821	1.3963e-05	96.796	-169.246	-94.632	27.994	-162.928	-159.318	-98.804	-163.294	-158.710	123.988	-37.839	-159.360	-156.004	-154.330	-149.150	-63.019	-151.591	-8191	255	
1584.484	1	1	0	0	0.16171	0.24998	0.25457	0.37974	0.14583	0.18411	0.24109	0.15862	0.07518	0.30259	0.32565	0.18136	0.035017	0.14275	0.14029	0.22793	-0.46875	-0.15417	-1.1229	-0.58542	-0.47917	-1.0667	-0.375	-1.0771	-0.8625	-0.28958	-1.5021	-0.81667	-0.47708	-1.2292	-0.13542	-0.95	47.055	43.383	-138.959	66.030	129.398	16.581	-71.131	-174.467	-172.919	21.714	-149.641	113.908	111.265	-15.293	121.072	123.190	0.0010444	0.0023129	0.00050906	1198.9	3.8299e-06	7.2008e-06	1543.2	396.24	8.1559e-06	7.7441e-06	611.06	218.12	128.91	58.024	2.7156e-06	108.05	0.0012691	0.0012711	0.00035875	1097.8	1.4116e-05	1.4156e-05	1403.2	369.02	1.4121e-05	1.4269e-05	562.83	199.33	122.4	54.281	1.4552e-05	97.491	-165.414	-117.785	-125.458	-162.814	92.283	114.393	-163.385	-158.717	-30.481	-135.501	-159.697	-155.894	-154.135	-148.832	-74.524	-151.494	-8191	255	
1584.582	1	1	0	0	0.098641	0.12588	0.10454	0.24595	0.15538	0.24444	0.51237	0.39674	0.17938	0.29924	0.090344	0.292	0.27066	0.22493	0.29325	0.16271	-0.54792	-0.18125	-1.0083	-0.74167	-0.27083	-1.2792	-0.47083	-0.87292	-1.1146	-0.29583	-1.075	-0.68958	-0.40625	-1.2896	-0.19583	-0.73333	-27.338	82.003	127.004	159.674	-118.940	-33.855	109.114	160.932	109.510	61.918	112.138	173.310	96.489	-95.925	45.160	90.082	0.00094768	0.00077784	0.0003044	1197.3	1.0438e-05	4.547e-06	1542.3	393.74	1.1834e-05	1.9336e-05	612.16	217.52	128.56	58.583	1.8338e-05	107.58	0.0012961	0.0013237	0.00037398	1102.5	1.4655e-05	1.475e-05	1404	369.38	1.4767e-05	1.4614e-05	562.77	199.7	122.41	54.498	1.477e-05	97.391	-147.865	-161.011	133.993	-162.625	15.690	66.196	-163.428	-158.791	4.643	-131.027	-159.208	-155.804	-154.708	-149.245	-28.240	-151.238	-8191	255	
1584.701	1	1	0	0	0.031266	0.22759	0.20717	0.054891	0.051026	0.14179	0.23533	0.075695	0.22087	0.23501	0.38077	0.10879	0.22612	0.2225	0.23366	0.16554	-0.79167	-0.19167	-0.95417	-0.85625	-0.3625	-1.1313	-0.67083	-0.62708	-1.1521	-0.23958	-0.98958	-0.99375	-0.31875	-1.2437	-0.45417	-0.62292	-115.104	54.204	87.974	78.421	156.529	-99.520	161.414	79.592	-54.252	92.724	132.261	31.673	182.415	121.034	57.529	151.223	0.00080571	0.0011245	0.00030194	1181.2	1.4956e-05	1.1921e-05	1538.3	395.53	1.4936e-05	1.0917e-05	603.23	215.76	128.44	58.335	9.9115e-06	107.26	0.0013324	0.0013603	0.00037988	1094.7	1.4923e-05	1.4945e-05	1396.6	369.18	1.4898e-05	1.5057e-05	560.8	198.84	122.18	54.668	1.5168e-05	97.512	-145.040	-134.610	-98.544	-162.645	-80.946	-5.530	-163.684	-158.684	-62.480	-71.823	-158.933	-155.655	-154.540	-149.214	-87.809	-151.183	-8191	255	
1584.797	1	1	0	0	0.14348	0.059462	0.3959	0.23638	0.39793	0.13444	0.22296	0.22032	0.06246	0.12547	0.00917	0.24571	0.11752	0.14574	0.25255	0.18269	-0.80417	-0.4625	-0.91875	-1.0729	-0.29375	-1.1958	-0.75417	-0.67083	-1.2208	-0.52708	-1.0604	-1.0792	-0.51458	-1.2729	-0.54375	-0.6875	-60.630	55.813	-139.917	133.257	88.006	28.763	118.543	129.586	30.028	-30.086	-152.770	180.259	181.568	-41.069	12.960	142.486	0.0009652	0.00084415	0.00047149	1186.8	1.6913e-05	9.8191e-06	1525.4	392.07	1.9078e-05	1.733e-05	607.87	217.47	129.55	59.032	6.1475e-06	107.99	0.00136	0.0013715	0.00038509	1097.2	1.5022e-05	1.5215e-05	1397.1	368.89	1.4968e-05	1.5228e-05	563.4	200.03	122.86	54.851	1.5338e-05	97.815	-151.625	-125.136	-63.859	-162.569	-26.131	85.602	-163.092	-158.825	-57.001	29.448	-159.166	-155.802	-154.490	-148.817	-124.028	-151.126	-8191	255	
1584.893	1	1	0	0	0.12149	0.13191	0.18392	0.09545	0.2337	0.18077	0.27726	0.18856	0.34544	0.23955	0.14224	0.40472	0.1601	0.1684	0.10195	0.24069	-0.85	-0.23542	-0.71667	-1.0187	-0.20417	-1.2083	-0.95	-0.43958	-1.1542	-0.575	-0.77917	-1.125	-0.33333	-1.0312	-0.67708	-0.41667	-148.943	102.790	-132.767	65.374	150.209	139.829	140.262	156.738	83.706	44.022	-126.761	146.358	134.011	135.111	65.193	106.141	0.00099425	0.00057376	0.00014996	1185	8.5326e-06	4.5178e-06	1537.6	395.11	1.0728e-05	5.8232e-06	608.69	217.35	129.62	58.528	1.0963e-05	108.62	0.0013729	0.0014043	0.00039085	1098.3	1.5381e-05	1.5351e-05	1398.2	370.36	1.5405e-05	1.5563e-05	564.31	199.97	123.15	55.083	1.552e-05	98.605	-156.320	168.250	180.994	-162.693	165.164	28.762	-163.336	-158.661	-93.287	-116.780	-159.675	-155.661	-154.652	-148.826	-33.016	-151.460	-8191	255	
1584.989	1	1	0	0	0.19363	0.20612	0.03373	0.21119	0.31929	0.16601	0.34444	0.33102	0.24692	0.15842	0.29787	0.17076	0.19832	0.31176	0.1334	0.034443	-0.78333	-0.3	-0.54792	-1.3375	-0.33333	-1.0688	-1.0667	-0.44167	-1.1833	-0.4625	-0.73333	-1.4562	-0.31667	-1.1083	-0.92083	-0.32708	-19.244	50.014	-85.559	-170.998	-9.731	-25.533	85.369	62.057	-128.133	120.405	-131.233	144.808	131.512	141.040	146.736	-40.926	0.001004	0.0023969	0.00014019	1191.3	1.1255e-05	1.0791e-05	1532.4	394.08	1.0678e-05	7.9617e-06	609.27	217.83	129.89	58.706	6.6108e-06	108.92	0.0014068	0.0014144	0.00039258	1101	1.5349e-05	1.5446e-05	1400.1	370.13	1.5359e-05	1.5484e-05	564.72	200.59	123.26	55.019	1.5432e-05	98.791	-168.370	7.756	-61.357	-162.371	-173.533	-28.776	-163.560	-158.759	-106.414	-77.041	-159.065	-155.275	-154.542	-148.458	177.479	-151.374	-8191	255	
1585.086	1	1	0	0	0.16317	0.19855	0.22728	0.22048	0.34224	0.12005	0.13082	0.3048	0.037872	0.052777	0.21842	0.070837	0.15533	0.24791	0.059511	0.16906	-0.81667	-0.63958	-0.40417	-1.3542	-0.20417	-0.79583	-1.0917	-0.40208	-1.0771	-0.61042	-0.8125	-1.3958	-0.59375	-0.87292	-1.0146	-0.43125	-34.877	148.951	-144.538	154.277	108.621	-29.242	111.934	129.480	-142.244	-164.314	-87.472	-149.658	105.834	69.461	138.371	118.536	0.0010131	0.0011153	0.00036551	1180	9.0203e-06	1.1331e-05	1549.4	395.03	1.016e-05	5.8198e-06	606.6	216.24	128.15	58.764	1.6678e-05	108.11	0.0013913	0.00141	0.00038708	1097.7	1.5242e-05	1.5365e-05	1399.1	369.36	1.5323e-05	1.5578e-05	561.85	199.62	122.95	55.02	1.5572e-05	97.991	-145.380	-98.894	-159.462	-162.298	-82.179	-89.280	-163.094	-158.417	33.767	-170.316	-158.893	-155.331	-154.398	-148.559	14.475	-150.829	-8191	255	
1585.182	1	1	0	0	0.2929	0.12072	0.10072	0.13814	0.077861	0.017657	0.20544	0.1402	0.10516	0.11418	0.29835	0.36392	0.40945	0.092501	0.14848	0.2317	-0.775	-0.47292	-0.30833	-1.4417	-0.23542	-0.75	-1.2375	-0.42917	-1.0625	-0.65833	-0.42083	-1.3396	-0.54792	-0.72708	-1.1042	-0.20833	-119.449	85.843	-108.054	-51.707	-169.377	-7.025	129.940	3.925	-114.482	-70.004	111.714	101.748	-151.534	-75.996	33.496	124.700	0.00093072	0.0023081	0.00044345	1189.1	2.0735e-05	1.4685e-05	1526	392.14	5.8973e-06	7.8924e-06	607.07	215.74	128.64	59.26	5.5065e-06	108.32	0.0013982	0.0014317	0.00039705	1100.7	1.5709e-05	1.577e-05	1395.5	368.95	1.5526e-05	1.5631e-05	563.51	199.54	123.25	55.166	1.545e-05	98.37	-165.923	-135.354	-96.763	-162.315	-47.025	-36.194	-163.034	-158.171	-9.445	-51.097	-159.229	-155.988	-154.936	-148.657	-94.119	-151.599	-8191	255	
1585.302	1	1	0	0	0.38811	0.07556	0.13803	0.049674	0.33828	0.24084	0.12515	0.22553	0.060315	0.11978	0.20788	0.13973	0.28291	0.13764	0.18018	0.36559	-0.59792	-0.58333	-0.17292	-1.15	-0.475	-0.58958	-1.3958	-0.4125	-0.99583	-0.79375	-0.32083	-1.4208	-0.7	-0.65625	-1.2667	-0.52292	-165.042	136.916	-21.391	-99.818	39.543	-171.337	177.559	111.567	96.617	48.951	139.010	139.017	139.413	-175.553	118.221	77.734	0.0008196	0.0028182	9.386e-05	1186.3	5.8193e-06	1.4942e-05	1536.5	393.17	5.553e-06	1.0891e-05	608.48	215.84	128.84	58.933	1.9599e-05	108.14	0.0013935	0.0014157	0.00039043	1101	1.5521e-05	1.5477e-05	1400.1	368.72	1.5628e-05	1.5636e-05	561.23	199.93	122.82	55.006	1.5528e-05	98.171	-159.242	-90.098	-95.125	-162.642	-164.323	-127.756	-163.303	-158.532	-62.997	-11.730	-158.992	-155.803	-154.463	-148.551	-65.154	-151.274	-8191	255	
1585.397	1	1	0	0	0.12567	0.026275	0.11354	0.147	0.11434	0.20487	0.28111	0.019081	0.079481	0.34293	0.32243	0.24155	0.097046	0.035696	0.35001	0.13523	-0.59167	-0.93333	-0.10208	-1.175	-0.66042	-0.66667	-1.1104	-0.475	-0.89167	-0.85833	-0.22083	-1.1375	-0.70625	-0.39375	-1.2521	-0.63333	112.314	-65.181	38.144	171.840	-0.392	-168.372	128.130	-67.036	-49.807	23.168	94.819	-166.132	144.183	178.935	30.062	147.632	0.0010794	0.00035202	0.00032617	1188.6	5.9582e-06	7.1102e-06	1535.6	393.93	1.0039e-05	5.1843e-06	602.96	218.06	127.89	58.073	8.8204e-06	107.1	0.0013969	0.001408	0.00038981	1099.4	1.5214e-05	1.5283e-05	1398	368.22	1.4982e-05	1.5138e-05	560.26	199.41	122.1	54.179	1.5035e-05	96.934	-160.146	-119.815	-62.379	-162.508	-30.214	132.205	-162.961	-158.572	78.170	-104.349	-159.084	-155.428	-154.669	-148.740	80.487	-151.229	-8191	255	
1585.493	1	1	0	0	0.15318	0.078132	0.22773	0.26462	0.15962	0.40063	0.16337	0.15416	0.21423	0.24343	0.095578	0.31365	0.29894	0.20147	0.14288	0.13744	-0.29375	-0.95625	-0.31875	-1.1938	-0.81458	-0.3125	-1.1625	-0.59792	-0.68958	-0.99792	-0.50208	-1.0646	-0.95417	-0.27292	-1.0833	-0.56667	-166.980	86.894	-128.631	118.882	43.898	106.282	134.096	94.274	150.057	150.865	-20.887	101.325	109.894	-153.481	178.751	-148.082	0.00081772	0.00076674	0.00011819	1189.3	7.5069e-06	2.6528e-06	1533.4	389.54	2.8891e-06	1.3194e-05	602.48	215.5	127.91	57.727	1.1525e-05	105.8	0.0013431	0.0013649	0.00037724	1097.1	1.4892e-05	1.4719e-05	1395.9	365.63	1.4839e-05	1.482e-05	555.32	196.86	121.05	53.784	1.4716e-05	95.762	-172.107	134.835	9.605	-161.940	-126.153	29.756	-162.927	-158.825	8.716	-4.621	-159.371	-155.524	-154.351	-148.732	-80.698	-151.269	-8191	255	
1585.614	1	1	0	0	0.13111	0.19889	0.091438	0.28221	0.23466	0.18933	0.096312	0.11368	0.18715	0.051365	0.17749	0.18724	0.02134	0.35083	0.41442	0.23418	-0.18125	-1.0292	-0.20417	-1.1833	-0.77708	-0.32083	-1.4229	-0.6375	-0.59167	-1.1292	-0.26875	-0.90208	-0.9	-0.20625	-1.0208	-0.66667	80.245	78.659	-86.316	77.124	43.563	-14.037	144.197	13.844	-74.957	116.183	90.463	118.260	86.276	-91.183	58.982	162.998	0.00076912	0.0011455	0.00018343	1190.1	3.8603e-06	8.961e-06	1533.8	391.83	9.7141e-06	1.7092e-05	600.73	213.45	127.16	57.638	1.2522e-05	105.55	0.0013193	0.0013383	0.00037439	1095.2	1.468e-05	1.4876e-05	1391.7	364.46	1.4606e-05	1.4629e-05	554.63	196.49	120.86	53.673	1.4781e-05	95.564	-171.658	-141.267	130.592	-162.355	-26.001	-67.798	-163.130	-159.006	-81.156	-45.515	-159.079	-155.610	-154.199	-148.507	-134.950	-151.560	-8191	255	
1585.685	1	1	0	0	0.036241	0.17679	0.17023	0.19891	0.036716	0.16787	0.11108	0.22696	0.16072	0.21998	0.25616	0.13654	0.15681	0.18412	0.31769	0.24498	-0.0125	-0.99375	-0.33125	-0.92292	-0.86042	-0.25208	-1.2479	-0.78542	-0.33542	-1.2604	-0.69583	-0.82083	-1.0708	-0.33333	-1.1396	-0.75	90.797	55.102	91.893	131.724	-23.521	-56.499	91.475	134.496	144.643	6.786	103.719	180.551	160.906	102.316	19.333	101.932	0.00072002	0.0011407	0.00023376	1189.6	9.7659e-06	9.3169e-06	1525.1	391.08	9.9539e-06	8.3962e-06	603.43	213.66	126.77	57.057	1.0027e-05	105.13	0.0013374	0.0013469	0.00038069	1097.7	1.4942e-05	1.4997e-05	1390.8	366.12	1.4983e-05	1.512e-05	558.15	197.05	121.07	53.726	1.5304e-05	95.691	-171.965	-88.852	-113.846	-162.446	-94.437	36.105	-163.077	-158.846	4.560	-44.407	-159.887	-155.914	-154.542	-148.684	-60.340	-151.524	-8191	255	
1585.781	1	1	0	0	0.073391	0.072139	0.16372	0.32923	0.2639	0.13391	0.021653	0.36041	0.17832	0.040374	0.2235	0.13937	0.25076	0.23209	0.33157	0.095277	0.0625	-1.0229	-0.32917	-0.84167	-0.79375	-0.25625	-1.15	-0.86667	-0.17292	-1.1271	-0.63333	-0.6375	-1.2062	-0.28125	-0.88958	-1.0083	177.037	8.866	172.872	140.317	107.613	-14.707	85.788	174.600	-172.510	-112.256	89.337	110.018	-171.310	-96.181	-33.550	117.702	0.000688	0.0011838	0.0002484	1187.1	9.4477e-06	7.1346e-06	1521.5	388.41	2.3525e-05	1.0293e-05	603.26	213.57	125.89	57.084	5.3392e-06	104.33	0.0013776	0.0014055	0.00039884	1097.5	1.5551e-05	1.5647e-05	1391.3	365.96	1.5733e-05	1.5749e-05	558.74	197.61	121.17	53.829	1.6217e-05	95.541	-169.750	-37.848	-53.449	-162.468	-79.242	42.836	-162.957	-158.580	-65.799	40.218	-159.400	-155.691	-154.032	-148.913	-71.502	-151.483	-8191	255	
1585.877	1	1	0	0	0.21698	0.086901	0.22436	0.19093	0.10993	0.024393	0.44272	0.20145	0.053943	0.08058	0.23408	0.14925	0.16103	0.22964	0.17784	0.17646	0.14792	-1.1562	-0.39792	-0.50625	-0.95417	-0.22083	-0.99375	-1.2083	-0.24583	-1.0458	-0.4625	-0.42708	-1.2333	-0.38333	-0.77708	-0.9875	-26.401	-42.985	63.720	-145.215	34.042	60.369	130.296	123.852	143.691	-116.086	160.423	55.560	84.256	182.725	-79.367	119.703	0.0010065	0.00085119	0.00046989	1171.1	1.0946e-05	4.8166e-06	1512.7	385.92	1.714e-05	1.6747e-05	597.05	212.15	125.5	56.81	1.0953e-05	103.18	0.0014522	0.0014914	0.00041376	1093.3	1.6135e-05	1.63e-05	1389.4	365.18	1.6255e-05	1.6341e-05	555.28	196.69	120.94	53.564	1.6241e-05	94.484	-161.336	-98.054	-113.446	-162.152	-34.623	-164.690	-163.253	-158.274	53.017	-78.157	-159.228	-155.735	-154.755	-148.985	2.053	-151.201	-8191	255	
1585.998	1	1	0	0	0.14519	0.26649	0.075734	0.40827	0.16098	0.056084	0.23988	0.25483	0.25716	0.23292	0.13477	0.57541	0.19674	0.16072	0.26354	0.12445	0.27083	-1	-0.6875	-0.36875	-1.25	-0.30833	-0.75625	-1	-0.25833	-1	-0.79375	-0.37292	-1.2437	-0.51875	-0.55625	-1.3917	168.359	-57.642	81.684	129.941	124.552	-127.772	-152.549	135.642	139.537	155.777	131.018	165.369	173.235	161.123	-17.106	-150.348	0.00093561	0.0010345	0.00031823	1171.8	4.2854e-06	1.021e-05	1512.3	385.39	1.4171e-05	9.946e-06	591.53	211.4	124.86	56.66	3.0341e-06	103.11	0.0014429	0.0014685	0.00040943	1090.2	1.601e-05	1.6065e-05	1384.6	363.68	1.615e-05	1.6418e-05	553.21	195.42	120.64	53.668	1.6442e-05	94.655	-164.024	24.004	-106.823	-162.453	-49.455	162.969	-163.250	-158.774	-114.700	-85.532	-159.630	-155.652	-154.426	-148.576	-147.322	-151.404	-8191	255	
1586.094	1	1	0	0	0.26647	0.12648	0.11906	0.27558	0.111	0.2092	0.28946	0.21358	0.22859	0.30476	0.28504	0.20941	0.10606	0.049995	0.1332	0.098367	0.22292	-0.80625	-0.92083	-0.53333	-1.2396	-0.32083	-0.60208	-1.3854	-0.24583	-0.95417	-0.94583	-0.40208	-1.1187	-0.35	-0.32708	-1.4188	15.767	120.881	140.331	128.651	73.837	38.558	99.504	114.004	125.469	31.792	142.708	139.838	182.871	-102.370	-100.319	-114.809	0.00094863	0.0013006	0.00054993	1162.3	1.4719e-05	1.3109e-05	1502.7	385.46	1.6748e-06	1.4444e-05	592.43	211.65	125.33	56.151	1.6595e-05	103.98	0.0014783	0.0015069	0.00042007	1089.9	1.6487e-05	1.6698e-05	1386.7	365.22	1.6447e-05	1.6805e-05	554.56	196.58	121.21	53.712	1.6768e-05	95.172	-153.313	100.339	-44.002	-162.391	-63.134	2.889	-163.116	-158.937	-163.973	-2.402	-159.128	-155.764	-154.248	-148.778	15.143	-150.999	-8191	255	
1586.189	1	1	0	0	0.29619	0.18265	0.1762	0.085	0.19914	0.22657	0.19744	0.28354	0.18651	0.26155	0.12033	0.12333	0.14608	0.14725	0.24937	0.21867	0	-1.0688	-0.9625	-0.52292	-1.2083	-0.64167	-0.67083	-1.375	-0.3625	-0.85	-1.1104	-0.34167	-1.25	-0.89375	-0.525	-1.5229	94.864	-144.453	142.539	-116.942	-10.369	108.673	59.787	69.730	-165.910	100.485	96.467	131.729	122.405	68.582	-126.800	116.810	0.00085864	0.0027376	0.00020545	1164.3	1.2411e-05	1.8536e-05	1500.7	385.13	2.1237e-05	9.3971e-06	592.96	211.64	125.27	56.89	3.1155e-06	104.47	0.0014958	0.0015276	0.00042392	1089.9	1.6799e-05	1.6925e-05	1385.8	365.49	1.6956e-05	1.7082e-05	557.06	197.34	121.67	54.28	1.7069e-05	96.031	-162.562	-53.045	-159.799	-162.085	0.959	-88.142	-163.037	-158.879	-47.231	-61.156	-159.126	-155.608	-154.575	-148.912	-76.428	-151.375	-8191	255	
1586.262	1	1	0	0	0.20183	0.44727	0.29547	0.23685	0.10938	0.15672	0.16303	0.39516	0.17174	0.088025	0.083836	0.29562	0.085552	0.21325	0.25818	0.25219	-0.0041667	-0.72917	-1.1625	-0.30208	-1.0438	-0.77292	-0.35417	-1.4021	-0.4625	-0.58333	-1.2437	-0.21458	-1.0625	-0.92083	-0.19792	-1.2146	-113.911	-135.393	89.771	-159.136	120.782	56.319	38.709	-142.651	-115.882	41.830	69.346	70.124	132.428	89.124	104.032	103.573	0.00077888	0.0012661	0.00024828	1163.8	6.6572e-06	4.5595e-06	1501.3	382.8	1.2369e-06	8.3717e-06	587.69	210.37	125.9	56.824	2.5325e-06	104.26	0.0015372	0.0015579	0.00043502	1089.8	1.7142e-05	1.7287e-05	1384.7	365.12	1.7095e-05	1.737e-05	554.87	197.08	122.11	54.219	1.7173e-05	95.761	-147.066	-145.406	-142.983	-162.275	-174.549	12.204	-162.855	-158.397	82.071	-71.995	-159.112	-155.819	-154.562	-149.085	102.416	-151.357	-8191	255	
1586.381	1	1	0	0	0.18539	0.14667	0.08366	0.11002	0.17341	0.082082	0.35496	0.088795	0.20214	0.27837	0.21565	0.15393	0.50016	0.19788	0.38451	0.092645	-0.22083	-0.52083	-1.1729	-0.43958	-1.0938	-0.81042	-0.3375	-1.0646	-0.59167	-0.5625	-1.1646	-0.34375	-1.0208	-1.0771	-0.15417	-1.2875	-123.319	-165.950	-155.250	-153.525	121.374	104.278	74.088	181.512	73.104	-110.984	-157.040	98.717	-123.508	153.042	-12.034	174.543	0.00064515	0.0016658	0.00017584	1161.1	1.5099e-05	1.2791e-06	1487	384.3	5.5337e-06	1.7366e-05	590.39	209.82	124.39	57.205	1.2422e-05	104.48	0.0015707	0.0015998	0.00044031	1087.8	1.7413e-05	1.7365e-05	1377.9	365.73	1.758e-05	1.7596e-05	555.79	196.83	121.93	54.484	1.7581e-05	96.107	-157.410	-159.902	-170.336	-162.510	-22.319	-165.240	-163.543	-158.918	-60.299	17.870	-159.395	-155.252	-154.331	-148.556	-99.679	-151.092	-8191	255	
1586.477	1	1	0	0	0.27192	0.046102	0.13366	0.10883	0.099425	0.059773	0.30438	0.039197	0.041252	0.27363	0.26416	0.2377	0.3251	0.44931	0.17851	0.25013	-0.01875	-0.24375	-1.1167	-0.36667	-0.65	-0.95417	-0.35833	-1.0063	-0.61875	-0.63333	-1.3854	-0.50833	-0.74583	-1.2583	-0.25	-1.0312	84.660	-106.870	153.589	-104.079	64.810	180.319	130.112	102.863	-159.470	79.039	-148.432	142.740	118.718	156.964	40.944	100.954	0.00069801	0.00019958	0.00027977	1158.3	2.4301e-05	2.478e-05	1494.9	383.29	1.6161e-05	1.4853e-05	585.22	210.74	124.7	57.392	1.5976e-05	104.3	0.0015707	0.0016128	0.00044671	1086.3	1.7586e-05	1.7673e-05	1379.3	366.06	1.7565e-05	1.7594e-05	556.11	197.69	122.53	54.841	1.7692e-05	96.591	-153.233	8.161	-67.786	-162.139	-24.468	-5.120	-163.080	-158.375	-14.182	-124.372	-159.094	-155.585	-154.214	-148.673	2.160	-151.569	-8191	255	
1586.573	1	1	0	0	0.18298	0.10463	0.14374	0.28336	0.22895	0.18698	0.1347	0.27735	0.21014	0.19378	0.07496	0.16251	0.15134	0.17209	0.13163	0.083805	-0.45	-0.2375	-1.1562	-0.35417	-0.64167	-1.1271	-0.40417	-1.0896	-0.68125	-0.40625	-1.3833	-0.60833	-0.57708	-1.1771	-0.35208	-1.1812	28.596	42.851	-141.298	138.218	-57.767	110.888	162.785	98.898	102.880	-7.460	177.570	124.049	131.762	131.216	-133.351	29.784	0.0010071	0.0010622	0.00042221	1157.4	1.3788e-05	3.8982e-06	1499.6	383.73	2.009e-05	2.7576e-05	587.21	212.01	125.88	57.821	1.2481e-05	106.39	0.001574	0.0016186	0.00044986	1088.3	1.7536e-05	1.7488e-05	1382.3	367	1.765e-05	1.7562e-05	557.46	198.19	122.83	55.035	1.7626e-05	97.765	-167.054	-115.411	-82.694	-162.435	-43.423	70.766	-163.019	-158.187	-104.415	-158.715	-159.239	-155.857	-154.328	-148.663	-109.974	-151.368	-8191	255	
1586.694	1	1	0	0	0.13373	0.1622	0.34835	0.32246	0.26524	0.094827	0.21311	0.22562	0.040285	0.16709	0.11856	0.2097	0.090675	0.28047	0.12894	0.29695	-0.56875	-0.22917	-1.1479	-0.58958	-0.65417	-1.2687	-0.40833	-1.0042	-0.8875	-0.3125	-1.1417	-0.71667	-0.41042	-1.3125	-0.19167	-0.91875	-75.406	36.020	133.540	141.861	-81.215	100.084	-173.609	131.375	1.460	-58.856	93.309	114.101	178.534	154.597	103.544	-169.332	0.00093321	0.0030934	0.00052941	1161.3	5.3283e-06	1.1752e-05	1491.2	383.48	1.2047e-05	1.3632e-05	589.06	212.44	125.81	57.673	3.377e-05	105.05	0.0015604	0.0016019	0.00044698	1090.3	1.7627e-05	1.7589e-05	1382.9	367.12	1.7688e-05	1.7697e-05	558.02	198.15	122.44	54.963	1.7701e-05	96.616	-157.618	-127.600	-79.065	-162.351	-51.715	-29.779	-163.044	-158.589	18.887	67.489	-158.592	-155.051	-154.254	-148.325	-29.542	-150.903	-8191	255	
1586.790	1	1	0	0	0.035455	0.15474	0.34899	0.092458	0.27879	0.23578	0.23736	0.17866	0.27369	0.095917	0.14947	0.13869	0.32253	0.21998	0.085245	0.27777	-0.80833	-0.14167	-0.90208	-0.59375	-0.3375	-1.2125	-0.44167	-0.65	-0.8875	-0.15208	-1.0521	-0.90417	-0.36042	-1.2854	-0.35833	-0.9	130.276	-59.660	-49.782	-85.908	126.000	20.180	77.990	152.893	-149.837	10.890	-159.137	58.788	115.847	157.258	128.926	108.653	0.00080079	0.0012955	0.00012297	1158.1	9.7231e-06	1.983e-05	1494.2	384.62	6.4515e-06	2.7735e-05	587.99	212	125.23	57.452	6.6621e-06	104.4	0.0015784	0.0015925	0.00044176	1088.5	1.7374e-05	1.7407e-05	1376.6	365.76	1.7284e-05	1.7307e-05	554.59	197.11	121.55	54.398	1.7123e-05	95.683	-160.153	-51.502	160.258	-162.287	5.172	9.829	-162.849	-158.488	-58.094	-85.570	-159.136	-155.361	-153.791	-148.126	40.396	-150.661	-8191	255	
1586.886	1	1	0	0	0.25883	0.086169	0.2393	0.051976	0.1997	0.045064	0.37755	0.025063	0.053463	0.19336	0.11573	0.20671	0.10357	0.43135	0.26949	0.21419	-0.64792	-0.25833	-0.9	-1.025	-0.34792	-1.1229	-0.63333	-0.50625	-1.0521	-0.11458	-0.93333	-1.0542	-0.32083	-1.3104	-0.5625	-0.53542	110.216	-111.812	-68.019	123.747	13.331	107.658	177.837	-135.136	-92.591	-163.603	-66.085	-88.645	-121.754	134.482	70.694	175.355	0.0007758	0.0016908	0.00023895	1154.7	1.7625e-05	6.3224e-06	1497.1	384.06	1.0108e-05	2.4806e-06	588.87	210.88	124.76	56.906	1.2461e-05	104.32	0.0015289	0.0015517	0.00043571	1085.9	1.694e-05	1.6983e-05	1376.7	364.71	1.6861e-05	1.6996e-05	553.99	197.17	121.3	54.358	1.732e-05	96.042	-151.331	-127.703	-123.011	-161.882	-46.391	-17.866	-162.756	-158.139	-110.461	-55.838	-159.099	-155.459	-154.232	-148.749	-57.727	-150.834	-8191	255	
1586.982	1	1	0	0	0.44671	0.14881	0.053652	0.22499	0.086608	0.031387	0.065816	0.12452	0.21919	0.26268	0.16075	0.3792	0.080464	0.077416	0.23862	0.37036	-0.7875	-0.18958	-0.86458	-1.1417	-0.18125	-1.1063	-0.84375	-0.34792	-1.1646	-0.275	-1.0063	-0.90625	-0.23333	-1.1521	-0.58333	-0.38125	162.533	159.084	-65.238	154.620	-87.333	110.693	171.871	118.025	83.093	-106.925	117.801	173.652	85.299	107.790	-117.822	82.251	0.00072907	0.00025177	0.00035231	1164.1	1.6752e-05	5.9264e-06	1499.4	384.3	7.659e-06	1.7399e-05	590.4	212.1	125.35	57.077	5.9473e-06	104.5	0.0015438	0.0015693	0.00043933	1088.8	1.7069e-05	1.7309e-05	1379.5	366.53	1.7194e-05	1.7259e-05	556.18	197.81	121.81	54.51	1.724e-05	96.123	-159.777	-71.019	-44.985	-162.541	-132.442	171.047	-163.327	-158.727	-25.518	-83.893	-159.552	-155.948	-154.948	-148.674	-113.441	-151.407	-8191	255	
1587.079	1	1	0	0	0.19392	0.25912	0.14082	0.25087	0.15091	0.11342	0.28952	0.21417	0.20953	0.19381	0.088321	0.24191	0.14932	0.30766	0.034152	0.099489	-0.98958	-0.36667	-0.925	-1.0854	-0.1125	-1.0083	-0.88958	-0.39167	-0.97708	-0.39792	-0.88958	-1.0333	-0.51667	-1.0875	-1.0208	-0.54792	131.833	105.103	-26.311	165.576	-30.292	131.916	83.683	173.391	-140.986	-11.351	-1.195	174.098	-94.432	107.800	14.963	103.821	0.00087227	0.00020488	0.00038811	1164.7	6.1843e-06	1.7882e-06	1495	382.48	2.2186e-06	1.5889e-05	587.7	211.28	124.24	56.632	2.5971e-06	103.9	0.0015346	0.0015715	0.00043835	1088.1	1.7152e-05	1.7344e-05	1381.1	364.6	1.7218e-05	1.7476e-05	554.97	197.19	121.73	54.251	1.7284e-05	95.462	171.383	102.978	-172.351	-162.500	-67.751	-156.554	-163.326	-158.439	-132.757	-96.463	-159.288	-155.779	-154.308	-148.357	47.089	-151.381	-8191	255	
1587.175	1	1	0	0	0.11036	0.15946	0.2192	0.13432	0.10766	0.30589	0.14926	0.13823	0.25246	0.37774	0.14588	0.37928	0.23747	0.22456	0.12883	0.28453	-0.8625	-0.44583	-0.425	-1.1479	-0.26875	-1.0208	-0.98125	-0.49792	-1.2271	-0.61458	-0.49792	-1.3104	-0.42083	-0.97708	-0.77292	-0.48542	-159.302	-46.467	-138.514	1.807	156.174	-63.639	161.773	110.570	-20.020	143.943	139.725	103.573	147.129	-151.292	132.043	151.486	0.00082994	0.0010254	0.00045005	1152.5	2.4477e-05	4.9035e-06	1483.5	385.87	1.26e-05	1.0025e-05	583.28	208.76	123.56	56.69	5.9248e-06	102.59	0.0015307	0.0015686	0.00043812	1083.8	1.7065e-05	1.7183e-05	1373.9	364.71	1.6949e-05	1.7153e-05	551.52	195.39	120.36	53.842	1.6862e-05	94.335	-163.283	-8.382	-81.806	-162.707	-174.107	153.323	-163.330	-158.309	89.858	-58.007	-159.069	-155.478	-154.393	-148.646	-147.547	-151.303	-8191	255	
1587.294	1	1	0	0	0.2296	0.30126	0.099502	0.036857	0.12697	0.18229	0.55332	0.25443	0.1851	0.19325	0.091455	0.39587	0.14884	0.23945	0.11426	0.048309	-0.97292	-0.7125	-0.3875	-1.1667	-0.15208	-0.8125	-1.1	-0.48333	-0.75208	-0.67292	-0.39167	-1.3937	-0.45625	-0.675	-1.0646	-0.085417	-166.429	116.034	85.644	166.499	-101.353	-28.148	131.507	91.898	-45.951	-21.940	149.769	178.940	155.935	143.990	-8.392	-135.294	0.00087776	0.0018221	0.00050824	1157	1.2017e-05	2.5914e-05	1489.1	380.9	4.3388e-06	2.1838e-05	584.33	210.09	125.12	56.543	1.4296e-05	103.27	0.0015256	0.0015444	0.0004264	1083.2	1.6844e-05	1.6934e-05	1371.9	362.22	1.681e-05	1.6824e-05	550.69	195.51	120.94	53.919	1.671e-05	94.659	-169.582	-59.670	77.440	-162.118	67.355	-52.774	-163.134	-158.445	-86.829	-61.536	-158.897	-155.562	-154.281	-148.589	-38.301	-151.218	-8191	255	
1587.390	1	1	0	0	0.33656	0.11903	0.21819	0.32311	0.031443	0.21754	0.10075	0.10248	0.25322	0.24121	0.24561	0.035734	0.30316	0.26868	0.038342	0.078097	-0.70833	-0.83542	-0.27083	-1.1979	-0.2875	-0.54375	-1.3792	-0.32292	-0.95	-0.75	-0.34792	-1.2479	-0.6125	-0.77083	-1.15	-0.34792	50.429	60.616	-70.012	177.938	-13.894	-93.145	97.017	119.079	180.741	116.105	94.107	130.650	100.099	174.102	98.764	140.694	0.00087364	0.0010306	0.0001473	1157.8	1.0853e-05	8.4756e-06	1492.4	383.51	1.5891e-05	1.6163e-05	587.91	210.36	124.09	56.944	7.7894e-06	102.6	0.0015112	0.0015324	0.00042546	1084.4	1.6763e-05	1.656e-05	1374	362.74	1.6526e-05	1.657e-05	550.38	195.73	120.14	53.785	1.6277e-05	94.231	-169.626	-84.170	-27.145	-162.144	-3.986	115.566	-163.396	-158.598	-25.681	-30.843	-159.105	-155.655	-154.389	-148.656	15.804	-151.332	-8191	255	
1587.486	1	1	0	0	0.31124	0.19682	0.22073	0.20157	0.22375	0.12511	0.2602	0.253	0.19965	0.25394	0.2545	0.38148	0.1934	0.29309	0.10859	0.45002	-0.49583	-0.87292	-0.3125	-1.4333	-0.46042	-0.3875	-1.2917	-0.38542	-0.88542	-0.92917	-0.31667	-1.0958	-0.55625	-0.43958	-1.1812	-0.17083	73.444	36.227	69.211	96.554	27.452	-96.382	110.479	69.168	116.141	-66.609	57.183	148.214	153.322	-161.771	10.230	127.525	0.00093779	0.0020975	0.00028388	1157.5	1.1321e-05	1.3405e-05	1497.5	381.6	1.1758e-05	8.9041e-06	585.68	209.85	124.02	56.77	7.9297e-06	101.55	0.0014776	0.0014953	0.00041301	1084.9	1.6437e-05	1.6262e-05	1374.4	361.74	1.6453e-05	1.6378e-05	549.71	194.85	120.11	53.426	1.6296e-05	93.564	-160.564	26.813	6.044	-162.391	66.550	-174.307	-163.188	-158.748	51.243	-8.881	-159.251	-155.056	-154.298	-148.351	-20.928	-151.293	-8191	255	
1587.558	1	1	0	0	0.11783	0.32058	0.24877	0.1818	0.065618	0.058484	0.37034	0.30622	0.14424	0.10489	0.2884	0.11275	0.14205	0.11398	0.26369	0.11941	-0.42292	-1	-0.041667	-1.2229	-0.52917	-0.37083	-1.25	-0.61875	-0.67083	-0.975	-0.49583	-1.1354	-0.9125	-0.35	-1.1104	-0.48125	-96.183	84.085	30.503	107.989	-113.130	138.967	107.738	104.143	15.883	76.914	137.113	134.069	-16.156	175.514	-37.294	-160.457	0.0010932	0.0010185	0.00040185	1162.3	9.4525e-06	1.5888e-05	1490.1	378.83	1.9035e-05	1.1929e-05	581.25	207.93	123.16	56.058	9.5057e-06	100.85	0.0014738	0.001483	0.00041144	1083.6	1.6349e-05	1.6335e-05	1367.8	360.81	1.6429e-05	1.6293e-05	546.32	193.77	119.38	53.038	1.6461e-05	93.205	-168.773	-138.702	141.698	-162.229	-32.411	8.291	-162.709	-158.506	-61.908	-111.888	-159.103	-155.401	-153.917	-148.383	148.739	-151.405	-8191	255	
1587.654	1	1	0	0	0.18814	0.33541	0.45241	0.086437	0.19685	0.088968	0.23856	0.16338	0.052133	0.13005	0.2959	0.11975	0.12024	0.11842	0.29386	0.2141	-0.23542	-1.0063	-0.19583	-1.15	-0.82708	-0.41042	-1.3125	-0.47917	-0.54375	-1.2396	-0.425	-0.86458	-1.0667	-0.41875	-1.0562	-0.675	133.843	-168.869	163.064	147.357	-117.091	-170.012	106.883	25.010	-168.134	-52.493	171.290	0.202	63.225	11.389	-100.897	114.608	0.0007819	0.00077354	0.00031267	1153	4.342e-06	3.2872e-06	1487.4	379.75	4.4912e-06	9.5366e-06	577.05	209.47	123.65	56.43	1.7371e-05	102.24	0.0015031	0.0015175	0.00042138	1082.5	1.6869e-05	1.6875e-05	1371.1	362.31	1.7047e-05	1.7051e-05	547.81	195.01	120.47	53.832	1.7458e-05	94.351	-169.481	-71.233	65.171	-162.176	-94.336	63.806	-162.697	-158.334	-35.500	169.035	-159.140	-155.592	-154.355	-148.796	-34.351	-151.220	-8191	255	
1587.774	1	1	0	0	0.078324	0.13689	0.22626	0.25167	0.14265	0.089944	0.20124	0.35833	0.016707	0.042324	0.14043	0.1708	0.080469	0.14667	0.095479	0.056524	-0.091667	-1.0063	-0.0625	-0.80208	-0.72917	-0.30625	-1.2563	-0.50417	-0.39375	-1.1396	-0.275	-0.80625	-1.1292	-0.375	-0.95833	-0.86042	-36.445	-45.051	167.943	124.345	-134.961	58.330	105.203	89.028	61.488	-41.502	87.872	162.281	57.364	-4.419	-94.815	-113.027	0.00072492	0.0013393	0.00047896	1150.7	6.6687e-06	6.6237e-06	1485.3	379.55	2.1048e-05	1.4643e-05	581.86	210.12	124.2	56.787	1.6254e-05	103.11	0.0015673	0.0015942	0.00044417	1085.7	1.7624e-05	1.7593e-05	1373.5	363.4	1.7717e-05	1.7619e-05	552.39	196.42	121.19	54.147	1.7939e-05	95.21	-148.340	-118.391	-115.086	-162.231	-92.938	153.611	-163.374	-158.627	-108.739	-71.818	-159.214	-155.696	-154.435	-148.604	-65.166	-151.123	-8191	255	
1587.870	1	1	0	0	0.17646	0.34019	0.34491	0.33216	0.24394	0.21066	0.16788	0.26645	0.086268	0.30299	0.24687	0.17531	0.49506	0.24563	0.097302	0.42841	-0.23125	-1.1271	-0.23333	-0.60833	-1.1333	-0.16667	-1.2396	-0.9875	-0.28958	-1.1625	-0.49375	-0.71042	-1.2687	-0.35417	-0.81042	-0.83542	-96.385	48.768	35.402	175.826	48.729	161.609	-169.440	125.185	-65.952	-117.345	99.957	67.748	136.478	-65.906	-115.604	159.462	0.0010165	0.0010473	0.0001917	1157.1	6.5171e-06	8.4666e-06	1490.2	379.34	1.0508e-05	7.5652e-06	582.04	209.77	124.53	57.296	8.233e-06	103.18	0.0015943	0.0016301	0.00045355	1086.7	1.7701e-05	1.7852e-05	1378.2	363.9	1.7582e-05	1.7563e-05	553.03	196.99	121.3	54.456	1.7772e-05	95.541	-165.725	-45.385	-35.714	-162.523	-104.758	165.202	-163.356	-158.345	-120.596	-64.254	-159.446	-155.999	-154.439	-148.310	-58.638	-151.362	-8191	255	
1587.967	1	1	0	0	0.17089	0.20698	0.09724	0.24945	0.10521	0.12059	0.25173	0.25671	0.18786	0.070235	0.28009	0.27875	0.16062	0.2536	0.20432	0.24199	-0.014583	-1.0729	-0.35208	-0.65	-1.0688	-0.2875	-1.1021	-1.2125	-0.0875	-1.0479	-0.50208	-0.54792	-1.1292	-0.38542	-0.73958	-0.86458	-153.206	-62.760	165.167	-176.442	-100.686	45.310	78.117	162.547	-138.201	-72.078	152.580	176.875	11.097	-149.972	-164.993	21.946	0.00079001	0.00092799	0.00033003	1148.9	4.4621e-06	6.0311e-06	1483.1	380.15	2.3854e-05	1.0016e-05	578.28	208.8	123.93	57.072	5.1737e-06	102.75	0.0015886	0.001619	0.00045243	1083.3	1.7683e-05	1.7824e-05	1372.1	363.3	1.7646e-05	1.7789e-05	551.05	196.39	121.58	54.595	1.8034e-05	94.967	-152.681	-111.387	-0.775	-162.157	94.877	-70.504	-162.877	-158.605	-17.569	-11.304	-159.292	-155.408	-154.289	-148.860	45.362	-151.292	-8191	255	
1588.085	1	1	0	0	0.18985	0.14138	0.33069	0.25444	0.18374	0.17962	0.2859	0.11439	0.1065	0.21037	0.29793	0.21333	0.32716	0.24648	0.18688	0.16099	0.13333	-0.93333	-0.625	-0.41458	-0.93958	-0.3375	-0.83958	-0.87292	-0.26458	-1.1979	-0.79167	-0.49167	-1.2521	-0.46458	-0.68125	-1.3458	-106.732	93.913	-109.337	117.298	114.767	99.588	138.122	-136.801	57.250	12.023	118.038	69.088	-159.359	156.263	11.246	172.445	0.00080629	0.001824	8.7078e-05	1153	1.1652e-06	1.3811e-05	1489.1	381.32	1.7892e-05	1.6026e-05	578.6	208.93	124.96	56.713	1.0355e-05	103.17	0.0016061	0.0016232	0.00045029	1085.5	1.7747e-05	1.791e-05	1375.6	364.58	1.7924e-05	1.8245e-05	552.25	196.98	122.3	54.681	1.8674e-05	95.771	-176.092	-107.822	159.044	-162.485	26.023	-48.445	-163.082	-158.678	-6.554	31.947	-159.366	-155.609	-154.065	-148.619	20.724	-151.226	-8191	255	
1588.159	1	1	0	0	0.12903	0.22824	0.18561	0.084397	0.094645	0.17826	0.095033	0.33833	0.26155	0.23365	0.08179	0.10183	0.16662	0.20334	0.32082	0.095443	-0.01875	-0.82708	-0.74583	-0.29583	-1.1	-0.25625	-0.82292	-1.0187	-0.075	-1.0104	-0.90208	-0.46042	-1.3396	-0.5875	-0.70208	-1.3917	61.688	124.042	-130.505	-131.791	-41.455	174.722	121.994	120.483	0.192	36.958	152.914	-121.002	-173.433	-146.732	153.042	93.145	0.0010778	0.0012845	0.00052668	1151.4	6.8458e-06	1.5373e-05	1477.5	377.86	7.429e-06	1.5419e-05	581.47	207.89	124.91	57.107	1.9489e-05	103.75	0.0016757	0.0017193	0.00047527	1090	1.8667e-05	1.8791e-05	1373.1	365.02	1.8843e-05	1.9017e-05	555.46	197.6	123	55.235	1.9197e-05	96.554	-157.963	-118.837	-120.240	-162.086	163.608	18.021	-162.966	-158.652	5.215	-42.508	-159.010	-155.345	-154.090	-148.821	-39.386	-151.264	-8191	255	
1588.255	1	1	0	0	0.082532	0.2139	0.12981	0.28633	0.047114	0.2168	0.34482	0.19557	0.014043	0.22848	0.25635	0.33992	0.14304	0.038681	0.12365	0.015889	0.11875	-0.84583	-0.80417	-0.51042	-1.1521	-0.54583	-0.6	-1.325	-0.35625	-0.9625	-1.1562	-0.525	-1.2917	-0.69167	-0.28542	-1.3521	91.196	-0.818	-171.257	150.217	108.777	101.879	80.898	91.429	-12.673	42.396	65.240	111.851	77.287	-60.392	103.398	158.451	0.00098461	0.0022442	0.00021439	1141.6	1.8721e-05	2.0132e-05	1477.4	381.67	3.3596e-06	1.7306e-05	584.41	209.85	126.29	57.926	3.8457e-06	105.6	0.0017014	0.0017599	0.00048737	1086.9	1.9246e-05	1.9459e-05	1377.3	367.8	1.9135e-05	1.9285e-05	558.99	199.27	123.86	55.614	1.9168e-05	97.511	-159.768	-48.909	-125.852	-162.084	-115.087	-31.300	-163.072	-158.658	2.250	90.880	-159.576	-155.635	-154.256	-148.883	111.024	-151.394	-8191	255	
1588.374	1	1	0	0	0.04261	0.32721	0.18255	0.32746	0.087061	0.4341	0.33088	0.092487	0.22223	0.14933	0.10111	0.31386	0.32451	0.30914	0.26126	0.4918	0.12917	-0.81458	-1.0083	-0.41667	-1.0875	-0.81458	-0.57292	-1.1313	-0.41042	-0.51667	-1.2896	-0.33542	-1	-0.86875	-0.4125	-1.225	-73.566	73.956	-28.084	137.997	117.439	-3.310	162.456	64.700	-23.979	101.985	7.787	88.378	166.287	170.853	-118.166	111.672	0.0010149	0.0015719	0.0003476	1143.3	1.0296e-05	4.1644e-06	1480.2	378.34	6.4781e-06	1.0128e-05	583.12	208.15	124.74	57.032	6.7147e-06	103.22	0.0016991	0.0017424	0.00047989	1087.3	1.8855e-05	1.9096e-05	1378.1	366.4	1.888e-05	1.8981e-05	555.29	197.26	123.01	54.943	1.8681e-05	95.626	-154.658	-82.280	148.151	-162.269	-77.816	73.062	-162.937	-158.415	-59.626	-113.263	-159.171	-155.570	-154.717	-148.760	-152.816	-151.374	-8191	255	
1588.470	1	1	0	0	0.33392	0.12187	0.11637	0.19894	0.068119	0.11889	0.17473	0.23044	0.13985	0.28573	0.073141	0.2386	0.17541	0.1244	0.048625	0.30146	-0.022917	-0.5625	-1.1146	-0.2875	-0.87292	-0.66875	-0.34375	-1.3104	-0.44583	-0.65625	-1.1271	-0.37292	-1.0063	-0.92292	-0.2875	-1.3396	-164.702	-43.113	132.069	182.893	-103.799	94.573	-169.082	-109.933	143.268	-174.364	71.672	111.137	155.695	-2.209	-25.732	123.624	0.00084897	0.0015142	0.00032283	1155.3	1.6328e-05	1.4345e-05	1477.3	379.32	1.3439e-05	3.3822e-06	577.69	207.76	123.48	56.917	1.5998e-05	102.14	0.0016826	0.0017261	0.00047001	1089.1	1.8542e-05	1.8707e-05	1372.3	365.82	1.8624e-05	1.8735e-05	551.2	195.91	121.78	54.672	1.8453e-05	95.001	-151.981	-72.061	159.342	-162.484	46.998	-105.213	-163.211	-158.671	27.465	34.198	-159.216	-155.660	-154.238	-148.623	23.985	-151.354	-8191	255	
1588.566	1	1	0	0	0.28366	0.33959	0.24318	0.10643	0.18759	0.076774	0.39395	0.22018	0.35473	0.12403	0.10606	0.21176	0.088527	0.15831	0.22619	0.16325	-0.03125	-0.25625	-1.0938	-0.3125	-0.88958	-0.94167	-0.48958	-1.1063	-0.68125	-0.35625	-1.3	-0.46042	-0.8875	-0.93958	-0.29583	-1.1333	-161.478	-96.898	52.642	-14.320	28.075	-48.860	124.151	78.120	28.358	-44.265	179.940	-156.118	90.633	110.797	-50.610	74.425	0.0009642	0.00047483	0.00049029	1153	1.3179e-05	1.2588e-05	1473.4	379.71	5.6408e-06	5.9658e-06	581.87	208.43	125.58	56.913	6.4444e-06	103.14	0.0016752	0.0016885	0.00046911	1089.9	1.865e-05	1.8545e-05	1368.1	365.38	1.8486e-05	1.8374e-05	553.15	196.6	122.52	54.537	1.8306e-05	95.707	-153.750	-100.783	-82.412	-162.316	-80.660	-121.949	-163.266	-158.625	-124.708	127.446	-159.009	-155.792	-154.097	-148.480	-71.525	-151.082	-8191	255	
1588.662	1	1	0	0	0.1804	0.19871	0.154	0.18674	0.18994	0.17563	0.24471	0.092935	0.27499	0.18296	0.28259	0.17023	0.26104	0.17981	0.13755	0.13629	-0.30625	-0.27292	-1.1396	-0.44375	-0.61458	-1.1729	-0.58542	-1.3896	-0.74375	-0.35417	-1.4104	-0.34583	-0.67917	-1.1313	-0.29583	-1.2125	-135.543	-87.503	168.476	-84.776	-104.143	62.592	114.040	97.948	-129.759	179.484	139.778	56.515	123.644	142.077	127.388	-153.674	0.0010472	0.0012804	0.00019108	1153.8	3.7036e-06	1.9608e-05	1477.6	381.68	2.05e-05	1.5655e-05	582.99	207.49	124.09	56.957	2.5706e-05	103.27	0.0016553	0.0016923	0.00046658	1089.8	1.8495e-05	1.8456e-05	1374.9	367.06	1.8554e-05	1.8562e-05	555.77	196.99	122.27	54.691	1.8346e-05	95.609	-158.647	-117.707	-33.174	-162.203	14.721	18.453	-162.971	-158.160	-28.187	-29.162	-158.986	-155.216	-153.817	-148.789	-48.664	-150.870	-8191	255	
1588.783	1	1	0	0	0.26523	0.17288	0.1202	0.26941	0.059014	0.21642	0.29857	0.16538	0.23122	0.1335	0.17737	0.36511	0.12746	0.059847	0.18839	0.12991	-0.47292	-0.31042	-1.0896	-0.59792	-0.57917	-1.2708	-0.68333	-0.89375	-0.76667	-0.15	-1.1104	-0.67917	-0.61042	-1.1792	-0.14167	-1.1313	11.611	-147.001	136.544	140.629	91.235	-1.561	131.692	132.569	1.146	-127.177	-139.866	132.121	133.347	14.730	148.136	168.971	0.00092054	0.0012219	0.00037421	1154.4	1.1887e-05	1.0098e-05	1478.6	380.48	1.1066e-05	1.274e-05	581.08	207.84	123.47	56.185	9.1507e-06	101.93	0.001635	0.0016574	0.00045499	1086.2	1.7787e-05	1.7805e-05	1368.4	364.32	1.7689e-05	1.7783e-05	550.5	195.44	121.41	53.958	1.7913e-05	94.185	-164.879	-8.827	16.878	-161.955	-50.967	129.365	-163.013	-157.647	9.274	1.257	-158.885	-155.341	-153.951	-148.284	-51.327	-150.807	-8191	255	
1588.855	1	1	0	0	0.1213	0.20824	0.19168	0.33077	0.096877	0.16701	0.20282	0.37243	0.1409	0.22324	0.079767	0.23131	0.15112	0.1775	0.087154	0.16305	-0.54792	-0.16458	-0.95833	-0.6375	-0.34583	-1.3458	-0.53542	-0.91875	-0.975	-0.21458	-1.3479	-0.77917	-0.32917	-1.2208	-0.42292	-0.82708	23.778	-118.305	89.629	148.772	115.475	-64.908	89.019	135.739	-49.457	35.268	141.120	109.480	-61.335	165.986	-14.838	144.686	0.00084674	0.00251	0.00043283	1152.3	4.8659e-06	1.5005e-05	1479.5	377.75	8.4406e-06	1.0418e-05	577.95	206.67	123.78	55.963	4.5219e-06	101.39	0.0016111	0.0016319	0.00045942	1087.4	1.7892e-05	1.8086e-05	1366.4	364.03	1.8147e-05	1.8072e-05	551.2	195.15	121.17	53.934	1.8606e-05	94.223	182.192	-41.121	-30.038	-162.396	39.943	-70.235	-162.958	-158.185	-63.293	-103.984	-159.157	-155.217	-153.913	-148.698	112.840	-151.058	-8191	255	
1588.975	1	1	0	0	0.10028	0.28835	0.061454	0.45139	0.081429	0.21616	0.19218	0.14109	0.15598	0.25288	0.10876	0.15394	0.23394	0.25984	0.29183	0.22313	-0.58333	-0.175	-0.97292	-0.8125	-0.25625	-1.3	-0.7875	-0.69375	-1.0354	-0.25833	-1.0042	-0.88542	-0.46042	-1.3229	-0.54792	-0.74583	-72.977	132.033	-28.549	132.806	168.862	-111.307	88.246	166.464	16.139	-0.606	93.239	33.276	175.120	-157.217	-140.325	177.322	0.00094273	0.00072419	0.00064903	1143.5	4.9384e-06	2.3197e-05	1478	379.58	1.2553e-05	6.1663e-06	578.33	207.37	124.13	56.611	1.5947e-05	102.47	0.0016517	0.0016905	0.00047715	1085.1	1.8417e-05	1.8592e-05	1368.6	366.04	1.8506e-05	1.8574e-05	552.97	195.62	121.61	54.417	1.8566e-05	94.428	-147.572	-24.369	21.427	-161.915	-115.335	-50.195	-163.076	-158.195	4.948	-98.261	-159.074	-155.815	-154.089	-148.911	-38.799	-151.139	-8191	255	
1589.071	1	1	0	0	0.10447	0.34774	0.16054	0.44819	0.16754	0.1605	0.091579	0.045049	0.019127	0.22409	0.22541	0.46181	0.31381	0.30522	0.12223	0.072473	-0.78125	-0.17292	-0.91875	-0.97917	-0.36042	-1.2792	-0.60208	-0.55	-1.3146	-0.31042	-1.0229	-1.1792	-0.052083	-1.15	-0.72292	-0.57083	135.406	-148.897	28.965	114.474	169.404	-11.888	-112.614	117.353	-64.697	-171.620	108.567	-163.779	151.686	141.730	97.568	66.473	0.00079776	0.0022294	5.6633e-05	1147.8	1.7818e-05	1.1773e-05	1472.6	379.74	8.6863e-06	8.1611e-06	580.95	208.55	124.22	56.819	5.464e-06	102.14	0.0016341	0.0016656	0.00046837	1085.5	1.8045e-05	1.8374e-05	1366	365.52	1.8205e-05	1.8245e-05	553.26	196.06	121.57	54.364	1.8051e-05	94.216	-152.920	83.749	-74.564	-162.362	-42.014	58.063	-163.029	-158.106	-12.860	-124.372	-158.818	-155.664	-154.194	-147.979	130.487	-150.593	-8191	255	
1589.166	1	1	0	0	0.29647	0.169	0.26022	0.090109	0.16461	0.11409	0.1825	0.32684	0.091062	0.17924	0.086035	0.13163	0.22019	0.3625	0.28468	0.28848	-0.75417	-0.4375	-0.68333	-1.1021	-0.11875	-0.86667	-0.825	-0.37292	-1.1354	-0.33125	-0.57917	-1.1896	-0.28958	-1.0021	-0.62292	-0.3125	-77.520	-108.040	-131.837	117.102	125.749	104.231	-102.146	95.528	147.090	23.261	99.260	-104.263	-149.518	178.196	51.567	92.369	0.0006978	0.00027608	0.00042331	1147	1.5859e-05	1.1279e-05	1478.4	381.35	8.0348e-06	1.349e-05	579.58	208.77	124.04	56.629	4.6644e-06	102.08	0.001583	0.0016131	0.00044775	1080.3	1.7475e-05	1.778e-05	1368.4	364.32	1.7594e-05	1.7909e-05	550.67	194.99	120.94	54.037	1.7831e-05	93.941	-162.774	-28.732	-62.236	-162.465	-6.549	-79.344	-162.893	-158.263	-26.316	12.360	-158.614	-155.368	-154.005	-148.172	43.588	-150.822	-8191	255	
1589.262	1	1	0	0	0.10103	0.16976	0.23237	0.12517	0.18562	0.18643	0.2813	0.14009	0.15874	0.23744	0.17677	0.21938	0.18739	0.1321	0.18953	0.14027	-0.78125	-0.43958	-0.67917	-1.1542	-0.32917	-0.88958	-1.1979	-0.54375	-1.1958	-0.60833	-0.66042	-1.2771	-0.42917	-1.1771	-0.98958	-0.32083	104.342	82.663	93.054	139.102	-131.063	82.137	138.425	119.800	-3.440	-95.123	183.928	80.058	119.494	-36.152	6.737	58.794	0.00080324	0.00054671	0.00038201	1147.9	2.0558e-05	2.0031e-05	1481.4	380.63	1.105e-05	7.0888e-06	576.53	207.48	123.93	56.93	2.1127e-05	101.91	0.001597	0.001634	0.00045145	1080.2	1.7867e-05	1.7796e-05	1365.5	364.27	1.7915e-05	1.7916e-05	548.81	195.11	121.3	54.273	1.7958e-05	94.067	-166.387	-9.346	-129.362	-162.106	-38.547	-42.237	-162.673	-157.848	-117.399	-137.004	-158.917	-155.347	-153.475	-148.477	-57.585	-151.255	-8191	255	
1589.383	1	1	0	0	0.024563	0.305	0.28278	0.12599	0.2531	0.21608	0.44018	0.17153	0.34555	0.2749	0.19411	0.25583	0.077603	0.39511	0.22198	0.32778	-0.69583	-0.49167	-0.67917	-1.1417	-0.29167	-1.0354	-1.0063	-0.2125	-1.3229	-0.62083	-0.61875	-1.175	-0.49583	-0.69375	-0.98333	-0.325	-21.258	111.927	161.022	107.670	-59.216	4.112	93.473	112.979	-165.257	137.675	57.418	139.432	-130.819	-135.121	170.402	72.762	0.0011532	0.0013015	0.00038515	1139.9	3.7875e-06	1.0055e-05	1478.9	381.02	1.7237e-05	9.2563e-06	583.53	208.53	124.53	56.997	1.2671e-05	102.7	0.0016076	0.0016544	0.00045469	1078.6	1.7968e-05	1.8138e-05	1364.9	363.8	1.8031e-05	1.8178e-05	551.61	195.88	121.95	54.587	1.8096e-05	94.651	-171.203	8.048	-30.177	-162.260	-109.824	-80.812	-162.507	-157.723	-47.372	51.796	-158.736	-155.259	-153.946	-148.270	-70.361	-150.921	-8191	255	
1589.454	1	1	0	0	0.24171	0.26816	0.13295	0.35001	0.079216	0.12331	0.20316	0.34909	0.14489	0.077396	0.016951	0.12412	0.14381	0.28918	0.14509	0.34888	-0.60417	-0.65	-0.425	-1.3979	-0.12917	-0.86042	-1.2958	-0.31042	-0.90625	-0.56667	-0.46875	-1.2896	-0.39792	-0.7125	-1.0875	-0.43125	-13.775	123.775	-54.863	72.293	-146.411	60.188	61.078	65.321	-92.101	49.949	-61.681	17.802	146.949	153.607	-3.123	35.357	0.000866	0.0010703	0.0004788	1145.9	7.4539e-06	2.2465e-05	1478.8	379.52	1.3769e-05	1.0096e-05	581.64	209.14	125.15	57.346	8.3719e-06	102.82	0.0016221	0.0016355	0.00045532	1080.9	1.7945e-05	1.7925e-05	1365.5	364.55	1.7941e-05	1.7808e-05	551.05	196.07	121.64	54.641	1.7727e-05	95.114	-169.077	-146.452	-116.137	-162.043	-146.550	35.089	-163.025	-158.025	28.028	-78.540	-159.165	-155.772	-154.287	-148.534	-137.352	-151.202	-8191	255	
1589.550	1	1	0	0	0.14123	0.086526	0.096964	0.13319	0.27014	0.034115	0.14107	0.29865	0.17762	0.16329	0.27213	0.23938	0.13106	0.21345	0.061501	0.1922	-0.47708	-0.86875	-0.21042	-1.3417	-0.41042	-0.5875	-1.3604	-0.31875	-0.85208	-0.68542	-0.5125	-1.1417	-0.56667	-0.49792	-1.125	-0.44167	88.684	130.614	113.342	171.986	-95.708	53.159	-176.273	149.506	-101.316	96.147	158.309	-166.110	-142.905	158.081	11.805	98.524	0.00078801	0.0012093	0.00043827	1148	1.8306e-05	2.4392e-06	1480	379.81	1.5954e-05	1.244e-05	579.61	208.56	124.54	57.175	1.1714e-05	102.24	0.0015913	0.0016098	0.00044871	1081.2	1.7635e-05	1.7754e-05	1367.1	363.82	1.7635e-05	1.7513e-05	550.25	196.15	121.82	54.536	1.736e-05	94.511	-174.572	88.387	-104.319	-162.077	58.018	182.729	-162.949	-158.291	-28.636	29.091	-158.860	-154.526	-154.179	-148.311	177.182	-151.373	-8191	255	
1589.647	1	1	0	0	0.16354	0.17754	0.25838	0.14741	0.14194	0.09385	0.36977	0.22609	0.22804	0.061514	0.13215	0.36056	0.27694	0.19993	0.12131	0.35952	-0.26875	-0.70833	-0.0875	-1.2354	-0.32083	-0.47917	-1.2812	-0.2625	-0.73125	-1.05	-0.21667	-1.1354	-0.61875	-0.43958	-1.2375	-0.52708	8.786	-6.709	181.042	6.912	109.354	0.635	151.435	-130.466	-122.348	155.592	70.860	138.311	2.199	-134.133	72.182	77.592	0.0010462	0.0014913	0.00033125	1145.4	7.6236e-06	7.9e-06	1479.7	379.06	8.8607e-06	1.1475e-05	583.14	207.97	124.42	57.127	1.2995e-05	101.67	0.0015594	0.0015864	0.00043948	1077.5	1.7329e-05	1.728e-05	1362.1	362.69	1.7281e-05	1.7064e-05	547.36	194.77	120.68	54.003	1.679e-05	93.472	-162.169	-2.685	162.116	-161.971	-34.680	63.367	-163.114	-158.395	-50.211	-107.733	-159.516	-155.319	-154.669	-148.559	-122.610	-151.219	-8191	255	
1589.743	1	1	0	0	0.10637	0.15209	0.21845	0.295	0.11912	0.14118	0.15724	0.093621	0.15099	0.089838	0.15923	0.14019	0.10671	0.14035	0.21705	0.23974	-0.14583	-0.88542	-0.16667	-1.0375	-0.93125	-0.34167	-1.3	-0.5	-0.73333	-1.0729	-0.54375	-1.0042	-0.95625	-0.46042	-0.99375	-0.75625	155.666	50.902	91.707	108.061	28.033	147.697	114.537	176.567	-101.405	37.374	-131.451	-24.650	33.222	-139.141	-96.690	180.494	0.0009527	0.0014375	0.000307	1152.9	2.9363e-05	6.6248e-06	1474.4	378.97	1.1577e-05	1.8568e-05	580.86	208.79	123.62	56.786	1.4182e-05	102.16	0.0015034	0.0015095	0.00041884	1077.5	1.6504e-05	1.6462e-05	1357.4	360.15	1.6445e-05	1.6478e-05	546.55	194.37	120.41	53.986	1.6722e-05	94.106	183.236	-11.109	-124.906	-162.546	-66.971	4.937	-162.950	-158.402	-132.270	-15.641	-159.476	-155.656	-154.534	-148.331	42.688	-151.103	-8191	255	
1589.863	1	1	0	0	0.18781	0.18453	0.12135	0.18988	0.23532	0.11072	0.36632	0.38741	0.085924	0.17508	0.37098	0.24593	0.20439	0.12201	0.22235	0.17432	-0.15833	-0.99167	-0.25	-1.1583	-0.87292	-0.25833	-1.2958	-0.55625	-0.4625	-1.0312	-0.425	-1.0938	-0.88333	-0.27083	-0.98333	-0.7125	-126.187	180.708	-20.317	107.264	109.054	-166.080	132.133	136.108	-79.640	35.219	170.024	156.173	96.664	2.235	146.394	62.637	0.00098681	0.00078406	0.00033483	1151	8.5795e-06	4.5468e-06	1481.4	382.64	1.312e-06	9.6345e-06	579.54	210.24	126.16	57.348	2.0012e-05	102.47	0.0015132	0.0015404	0.00043164	1082.5	1.6915e-05	1.6994e-05	1365	363.64	1.6884e-05	1.7044e-05	546.38	195.98	121.35	54.268	1.7085e-05	94.214	182.661	-4.662	120.444	-162.301	-114.599	-166.775	-163.293	-158.748	115.133	-41.856	-159.305	-155.666	-154.136	-148.562	-53.376	-151.022	-8191	255	
1589.960	1	1	0	0	0.11418	0.24808	0.054056	0.32152	0.26725	0.19399	0.2188	0.15342	0.099503	0.32405	0.46901	0.042672	0.079139	0.21839	0.28877	0.18081	-0.15208	-0.83542	-0.24375	-0.70833	-0.88958	-0.072917	-1.1854	-0.86042	-0.28125	-1.0708	-0.49583	-0.66667	-1.0812	-0.23333	-0.90417	-0.74375	-93.244	139.022	147.769	160.955	-98.039	53.801	101.445	146.676	172.851	146.853	132.949	-3.224	89.948	165.621	-88.412	119.543	0.00079706	0.0016291	0.00069931	1160.8	5.8893e-06	1.1941e-05	1488	381.06	9.8496e-06	5.5527e-06	579.98	209.85	125.23	56.95	3.7911e-06	101.94	0.0015138	0.001552	0.00043172	1086.4	1.6707e-05	1.6725e-05	1368.8	362.9	1.6709e-05	1.6712e-05	549.24	195.58	120.98	54.067	1.7005e-05	93.805	-152.364	6.834	-22.603	-162.252	-164.916	70.745	-162.895	-158.397	90.858	-124.137	-158.845	-155.428	-154.443	-148.461	107.008	-151.084	-8191	255	
1590.056	1	1	0	0	0.092881	0.17838	0.012811	0.23237	0.16445	0.081361	0.18729	0.16774	0.11944	0.29623	0.14252	0.27646	0.11301	0.19563	0.17677	0.1979	0.13125	-0.9125	-0.38125	-0.87917	-1.1708	-0.13125	-0.99792	-0.96458	-0.41042	-1.2437	-0.64375	-0.59583	-1.1833	-0.25833	-0.975	-1.0083	-22.154	149.506	-40.196	70.458	178.464	47.190	145.677	146.020	25.475	165.537	-34.756	167.430	-146.864	-158.196	-68.968	116.902	0.00095937	0.00046589	0.00037921	1156.4	8.1814e-06	1.3588e-05	1480	380.87	1.4594e-05	1.8654e-05	580.88	207.89	123.99	56.828	1.3399e-05	101.22	0.001512	0.0015505	0.0004339	1083	1.6853e-05	1.7137e-05	1366.5	362.87	1.714e-05	1.7289e-05	548.32	194.7	120.91	54.071	1.7522e-05	93.381	-151.076	136.386	-40.731	-162.462	-93.826	50.255	-162.998	-158.839	-108.411	-84.368	-159.243	-154.963	-153.954	-148.582	-119.961	-151.555	-8191	255	
1590.152	1	1	0	0	0.13142	0.093664	0.18713	0.47884	0.23879	0.111	0.48237	0.073347	0.13453	0.28041	0.026132	0.10464	0.10429	0.20611	0.16251	0.038516	-0.12292	-1.2271	-0.3375	-0.61458	-1.0771	-0.21875	-1.0187	-0.99792	-0.21667	-1.1146	-0.7	-0.38542	-1.2729	-0.17083	-0.725	-1.1104	11.291	4.003	173.643	159.776	-128.473	-120.965	114.947	7.087	66.645	86.841	-165.446	115.496	87.379	-146.319	110.234	142.343	0.00095877	0.00063033	0.00075268	1150.8	1.1416e-05	5.2671e-06	1477.6	381.14	1.0684e-05	2.36e-05	584.57	207.43	125.21	57.014	5.5624e-06	101.39	0.0015623	0.0015906	0.00044516	1081.3	1.7409e-05	1.7602e-05	1365.9	363.06	1.746e-05	1.7696e-05	551.13	195.11	121.88	54.527	1.7744e-05	93.927	-161.323	20.323	-163.234	-162.420	-136.273	13.908	-162.957	-158.171	-51.067	-64.458	-159.294	-155.263	-153.689	-148.383	-31.454	-150.933	-8191	255	
1590.248	1	1	0	0	0.058459	0.15238	0.44491	0.22276	0.1975	0.17555	0.23442	0.15558	0.16564	0.18882	0.068114	0.069162	0.16932	0.13108	0.095217	0.066964	0.15	-0.99375	-0.475	-0.41042	-1.1562	-0.23125	-0.89167	-1.1646	-0.22917	-1.0896	-0.825	-0.23333	-1.3625	-0.61875	-0.82917	-1.325	-111.712	0.885	-80.229	121.973	36.212	-136.807	63.075	-66.051	-118.820	-47.698	145.671	145.801	-172.887	144.214	-132.455	162.899	0.00063971	0.0027246	0.00049737	1152.6	4.3448e-06	7.6836e-06	1483.8	379.72	1.3466e-05	6.8413e-06	578.15	208.08	124.48	57.019	8.5015e-06	102.11	0.0015834	0.001632	0.00045561	1084.3	1.7658e-05	1.7945e-05	1370.4	364.47	1.785e-05	1.8144e-05	552.39	195.99	122.13	54.726	1.8116e-05	94.475	-164.025	-45.984	-37.990	-161.899	-86.997	134.406	-163.176	-158.319	-50.510	139.775	-159.149	-155.629	-154.325	-148.704	-109.560	-151.128	-8191	255	
1590.344	1	1	0	0	0.19327	0.13631	0.095026	0.44934	0.22402	0.13203	0.35394	0.3148	0.33819	0.30355	0.35069	0.27893	0.14816	0.20628	0.15897	0.10959	0.25417	-0.76458	-0.59167	-0.27708	-1.0021	-0.43333	-0.77708	-1.075	-0.26667	-0.83333	-0.89583	-0.29583	-1.0583	-0.62292	-0.44792	-1.1333	10.536	-46.879	73.003	165.005	13.078	-64.016	143.343	122.673	-120.632	35.101	117.986	-171.429	173.589	176.883	3.988	-143.446	0.00089304	0.0014266	0.00037799	1149.2	6.3021e-06	6.3463e-06	1479	379.38	9.7525e-06	6.1381e-06	575.72	208.19	124.09	56.927	8.3802e-06	101.47	0.0016278	0.0016566	0.00045759	1086.9	1.7973e-05	1.7981e-05	1373.3	364.9	1.7827e-05	1.811e-05	550.4	195.67	121.79	54.385	1.7921e-05	94.218	-168.998	84.296	-105.436	-162.442	-51.169	-32.144	-162.710	-158.059	81.778	113.515	-159.297	-155.222	-154.533	-148.486	15.975	-151.351	-8191	255	
1590.463	1	1	0	0	0.13615	0.082623	0.24392	0.43083	0.11888	0.070832	0.18656	0.046007	0.094281	0.075599	0.069736	0.29212	0.2302	0.22857	0.071579	0.31751	0.12917	-0.87083	-0.80208	-0.45417	-1.0208	-0.46458	-0.50833	-1.2313	-0.31667	-0.86458	-1.0187	-0.31042	-0.98125	-0.55417	-0.125	-1.2396	-67.933	-54.047	-165.745	134.632	-125.238	-165.630	116.745	-50.735	126.426	-96.303	69.980	157.435	127.445	-115.303	59.853	120.213	0.00072602	0.00084158	0.00040974	1147.9	7.1679e-06	1.1447e-05	1484.4	385.57	9.2058e-06	1.1814e-05	580.33	207.1	125.26	57.377	9.1088e-06	100.98	0.0015931	0.0016513	0.00045092	1083.7	1.7664e-05	1.7714e-05	1368.9	365.41	1.7381e-05	1.7518e-05	549.41	193.92	121.83	54.319	1.7215e-05	93.487	-163.078	-16.690	-74.365	-162.444	57.499	60.359	-162.978	-158.171	-94.629	63.765	-158.890	-155.233	-154.017	-148.324	-33.042	-151.295	-8191	255	
1590.559	1	1	0	0	0.24581	0.099952	0.35579	0.41745	0.12659	0.29981	0.18672	0.19495	0.19865	0.19117	0.23938	0.059511	0.18867	0.1655	0.077363	0.079763	-0.022917	-0.71458	-1.1521	-0.425	-1.0271	-0.70208	-0.66042	-1.1229	-0.2875	-0.6125	-1.1958	-0.23542	-1.125	-0.675	-0.20625	-1.2375	84.853	-88.093	-53.013	140.313	-101.116	-95.363	154.056	128.782	38.944	-169.074	182.467	133.663	122.938	98.189	-39.409	125.107	0.00076536	0.0031946	0.00047836	1156.3	5.7427e-06	1.1872e-05	1476.5	385.9	1.3049e-05	9.7615e-06	585.82	207.57	126.18	57.42	6.9249e-06	102.2	0.0015364	0.0015431	0.00042587	1079.8	1.6903e-05	1.6618e-05	1365.1	365.63	1.655e-05	1.6725e-05	549.75	193.56	121.65	54.2	1.6243e-05	93.675	181.945	-50.364	-13.756	-162.044	157.568	38.932	-162.835	-158.349	-113.370	-121.390	-159.036	-155.498	-153.883	-148.511	70.510	-151.182	-8191	255	
1590.655	1	1	0	0	0.15102	0.063298	0.10848	0.29631	0.22439	0.10955	0.33238	0.26025	0.20367	0.23126	0.19317	0.21093	0.42539	0.038555	0.29717	0.16935	-0.17917	-0.62292	-1.1208	-0.27083	-0.95	-0.90208	-0.425	-1.3125	-0.40417	-0.44375	-1.4062	-0.38125	-0.95833	-1.1729	-0.15625	-1.3583	146.919	33.754	10.710	142.699	-70.908	-74.722	72.434	-127.572	-116.546	-82.485	126.438	84.359	161.234	-86.167	-167.521	54.409	0.00079683	0.0013336	0.00024436	1168	1.256e-05	9.6181e-06	1498.5	390.17	9.8243e-06	1.7948e-05	590.91	209.53	127.77	57.292	8.6288e-06	102.71	0.0014425	0.0014688	0.00040163	1085.1	1.5935e-05	1.5619e-05	1372.4	366.66	1.548e-05	1.5389e-05	549.09	192.4	121.77	53.739	1.5234e-05	93.593	174.174	-99.981	-97.218	-162.047	-56.759	-91.971	-162.825	-157.997	-32.841	-7.209	-158.995	-155.513	-154.266	-148.316	-19.873	-150.860	-8191	255	
1590.751	1	1	0	0	0.18101	0.10499	0.30088	0.34952	0.071587	0.065408	0.072382	0.14801	0.30919	0.2093	0.10233	0.1831	0.21269	0.29693	0.17403	0.35639	-0.14583	-0.43958	-1.1375	-0.45	-0.68125	-0.92708	-0.3875	-1.2229	-0.55625	-0.26875	-1.1458	-0.59583	-0.81042	-1.0125	-0.085417	-1.1083	138.495	156.565	152.529	93.994	-116.546	170.748	-57.528	179.044	158.567	24.106	-143.545	157.840	113.936	174.356	161.755	136.418	0.0010255	0.0010779	0.00022177	1178.3	1.2331e-05	9.713e-06	1513.3	393.7	1.8324e-05	1.9436e-05	592.54	209	127.54	57.543	1.0557e-05	102.97	0.0013712	0.0013789	0.0003842	1091.2	1.5075e-05	1.5214e-05	1378.9	368.71	1.5073e-05	1.5122e-05	553.05	192.93	121.6	53.869	1.5249e-05	93.945	-150.807	-135.079	-88.903	-161.704	-102.057	-40.861	-163.293	-158.284	-42.624	60.669	-158.563	-154.859	-153.672	-148.487	-77.265	-150.831	-8191	255	
#DATA ENDS
