BOXY.EXE: ISS Imagent and Oximeter Data Acquisition Program Version 0.80
Ascii Record File

#ACQ INFORMATION
2  Detector Channels 
16  External MUX Channels 
1  Auxiliary Channels 
5000  Waveform (CCF) Frequency (Hz)
1  Waveforms Skipped 
30  Waveforms Averaged 
1  Cycles Averaged 
16  Acquisitions per Waveform 
10.0806  Updata Rate (Hz) 

#FILE INFORMATION
TRUE -- External MUX Channel results are PARSED.
FALSE -- AC DC and Phase are NOT grouped.
TRUE -- Companion Program Settings File CREATED.
FALSE -- AC data not excluded
FALSE -- DC data not excluded
FALSE -- Phase data not excluded
FALSE -- Auxillary Chn. data not excluded
Tab delimiters

#CALIBRATION STATE
TRUE -- Waveform Calibration Values APPLIED.


#AUX CALIBRATION VALUES
Val Type	aux-1	

Term	1.0000e+00	
Factor	0.0000e+00	


#WF CALIBRATION VALUES
A = Detector Channel
Val Type	A-AC1	A-AC2	A-AC3	A-AC4	A-AC5	A-AC6	A-AC7	A-AC8	A-AC9	A-AC10	A-AC11	A-AC12	A-AC13	A-AC14	A-AC15	A-AC16	A-DC1	A-DC2	A-DC3	A-DC4	A-DC5	A-DC6	A-DC7	A-DC8	A-DC9	A-DC10	A-DC11	A-DC12	A-DC13	A-DC14	A-DC15	A-DC16	A-Ph1	A-Ph2	A-Ph3	A-Ph4	A-Ph5	A-Ph6	A-Ph7	A-Ph8	A-Ph9	A-Ph10	A-Ph11	A-Ph12	A-Ph13	A-Ph14	A-Ph15	A-Ph16	

Term	0.00000e+00	0.00000e+00	0.00000e+00	0.00000e+00	0.00000e+00	0.00000e+00	0.00000e+00	0.00000e+00	0.00000e+00	0.00000e+00	0.00000e+00	0.00000e+00	0.00000e+00	0.00000e+00	0.00000e+00	0.00000e+00	0.00000e+00	0.00000e+00	0.00000e+00	0.00000e+00	0.00000e+00	0.00000e+00	0.00000e+00	0.00000e+00	0.00000e+00	0.00000e+00	0.00000e+00	0.00000e+00	0.00000e+00	0.00000e+00	0.00000e+00	0.00000e+00	0.00000e+00	0.00000e+00	0.00000e+00	0.00000e+00	0.00000e+00	0.00000e+00	0.00000e+00	0.00000e+00	0.00000e+00	0.00000e+00	0.00000e+00	0.00000e+00	0.00000e+00	0.00000e+00	0.00000e+00	0.00000e+00	
Factor	1.00000e+00	1.00000e+00	1.00000e+00	1.00000e+00	1.00000e+00	1.00000e+00	1.00000e+00	1.00000e+00	1.00000e+00	1.00000e+00	1.00000e+00	1.00000e+00	1.00000e+00	1.00000e+00	1.00000e+00	1.00000e+00	1.00000e+00	1.00000e+00	1.00000e+00	1.00000e+00	1.00000e+00	1.00000e+00	1.00000e+00	1.00000e+00	1.00000e+00	1.00000e+00	1.00000e+00	1.00000e+00	1.00000e+00	1.00000e+00	1.00000e+00	1.00000e+00	X	X	X	X	X	X	X	X	X	X	X	X	X	X	X	X	

B = Detector Channel
Val Type	B-AC1	B-AC2	B-AC3	B-AC4	B-AC5	B-AC6	B-AC7	B-AC8	B-AC9	B-AC10	B-AC11	B-AC12	B-AC13	B-AC14	B-AC15	B-AC16	B-DC1	B-DC2	B-DC3	B-DC4	B-DC5	B-DC6	B-DC7	B-DC8	B-DC9	B-DC10	B-DC11	B-DC12	B-DC13	B-DC14	B-DC15	B-DC16	B-Ph1	B-Ph2	B-Ph3	B-Ph4	B-Ph5	B-Ph6	B-Ph7	B-Ph8	B-Ph9	B-Ph10	B-Ph11	B-Ph12	B-Ph13	B-Ph14	B-Ph15	B-Ph16	

Term	0.00000e+00	0.00000e+00	0.00000e+00	0.00000e+00	0.00000e+00	0.00000e+00	0.00000e+00	0.00000e+00	0.00000e+00	0.00000e+00	0.00000e+00	0.00000e+00	0.00000e+00	0.00000e+00	0.00000e+00	0.00000e+00	0.00000e+00	0.00000e+00	0.00000e+00	0.00000e+00	0.00000e+00	0.00000e+00	0.00000e+00	0.00000e+00	0.00000e+00	0.00000e+00	0.00000e+00	0.00000e+00	0.00000e+00	0.00000e+00	0.00000e+00	0.00000e+00	-1.31583e+02	-1.21578e+02	-1.40012e+02	-1.81298e+02	-8.87385e+01	-6.29981e+01	-1.57795e+02	-1.62015e+02	-6.94921e+01	-9.60310e+01	-1.75953e+02	-1.70521e+02	-1.80371e+02	-1.76072e+02	-6.81803e+01	-1.48893e+02	
Factor	1.93261e-05	1.42640e-04	3.75110e-05	1.68919e-01	1.12948e-06	1.23653e-06	1.80120e-01	7.03469e-02	1.11070e-06	1.40164e-06	1.16901e-01	3.27342e-02	2.64059e-02	1.04235e-02	1.14977e-06	1.44954e-02	1.13826e-06	1.18118e-06	3.28429e-07	8.21832e-02	1.29226e-08	1.29492e-08	8.20368e-02	3.39068e-02	1.29380e-08	1.29875e-08	5.34765e-02	1.52769e-02	1.27878e-02	5.00872e-03	1.30016e-08	6.72239e-03	X	X	X	X	X	X	X	X	X	X	X	X	X	X	X	X	



#DISTANCE SETTINGS
A = Detector Channel
A-1	A-2	A-3	A-4	A-5	A-6	A-7	A-8	A-9	A-10	A-11	A-12	A-13	A-14	A-15	A-16	

2.5000e+00	3.0000e+00	2.5000e+00	3.0000e+00	2.0000e+00	3.0000e+00	1.5000e+00	3.0000e+00	3.0000e+00	3.0000e+00	3.0000e+00	3.0000e+00	3.0000e+00	3.0000e+00	1.5000e+00	3.0000e+00	

B = Detector Channel
B-1	B-2	B-3	B-4	B-5	B-6	B-7	B-8	B-9	B-10	B-11	B-12	B-13	B-14	B-15	B-16	

1.0000e+01	1.0000e+01	1.0000e+01	1.4400e+00	1.0000e+01	1.0000e+01	1.5100e+00	1.9400e+00	1.0000e+01	1.0000e+01	1.9900e+00	2.4900e+00	2.4100e+00	2.9000e+00	1.0000e+01	2.9800e+00	




#DATA BEGINS
time	group	step	mark	flag	A-AC1	A-AC2	A-AC3	A-AC4	A-AC5	A-AC6	A-AC7	A-AC8	A-AC9	A-AC10	A-AC11	A-AC12	A-AC13	A-AC14	A-AC15	A-AC16	A-DC1	A-DC2	A-DC3	A-DC4	A-DC5	A-DC6	A-DC7	A-DC8	A-DC9	A-DC10	A-DC11	A-DC12	A-DC13	A-DC14	A-DC15	A-DC16	A-Ph1	A-Ph2	A-Ph3	A-Ph4	A-Ph5	A-Ph6	A-Ph7	A-Ph8	A-Ph9	A-Ph10	A-Ph11	A-Ph12	A-Ph13	A-Ph14	A-Ph15	A-Ph16	B-AC1	B-AC2	B-AC3	B-AC4	B-AC5	B-AC6	B-AC7	B-AC8	B-AC9	B-AC10	B-AC11	B-AC12	B-AC13	B-AC14	B-AC15	B-AC16	B-DC1	B-DC2	B-DC3	B-DC4	B-DC5	B-DC6	B-DC7	B-DC8	B-DC9	B-DC10	B-DC11	B-DC12	B-DC13	B-DC14	B-DC15	B-DC16	B-Ph1	B-Ph2	B-Ph3	B-Ph4	B-Ph5	B-Ph6	B-Ph7	B-Ph8	B-Ph9	B-Ph10	B-Ph11	B-Ph12	B-Ph13	B-Ph14	B-Ph15	B-Ph16	aux-1	digaux	

1883.863	1	1	0	256	0.16573	0.12729	0.051586	0.47469	0.37723	0.18001	0.35078	0.12547	0.10019	0.11287	0.21396	0.25506	0.033099	0.11199	0.1045	0.083693	-0.44583	-0.51667	-0.175	-1.0625	-0.30417	-0.59792	-0.99375	-0.12708	-0.94792	-0.68125	-0.49375	-1.1625	-0.11875	-0.47292	-0.925	-0.2625	320.541	312.874	345.082	18.567	53.942	126.523	273.007	317.811	28.208	329.693	326.612	252.913	90.179	287.954	266.095	134.245	0.00018643	0.00055826	8.771e-05	554.71	1.2822e-06	2.5869e-06	1026.6	134.71	5.1624e-06	7.2331e-07	265.2	104.67	35.462	15.64	4.8279e-07	37.681	0.000174	0.00017224	4.6555e-05	457.56	1.8699e-06	1.8642e-06	840.3	113.24	1.8977e-06	1.92e-06	216.61	85.975	29.921	13.205	1.8539e-06	30.98	124.033	205.510	187.584	16.630	227.739	88.942	15.313	20.231	234.470	330.147	18.700	22.716	23.853	29.445	164.522	27.456	-8191	255	
1883.959	1	1	0	0	0.20421	0.19049	0.20559	0.20088	0.18662	0.135	0.087322	0.18021	0.24436	0.28865	0.21231	0.23804	0.045533	0.12057	0.17071	0.22309	-0.46875	-0.57917	-0.20833	-1.2521	-0.2875	-0.32083	-1.0542	-0.13958	-0.97292	-0.72708	-0.36667	-1.0521	-0.58125	-0.31667	-0.91042	-0.24375	275.110	175.972	263.647	35.242	31.247	9.867	256.763	270.967	289.324	170.764	134.046	356.983	321.826	101.998	236.073	108.742	0.00012827	0.00026577	0.0001426	551.72	9.2982e-06	3.7247e-06	1022.6	135.63	6.4128e-06	8.486e-06	266.32	103.56	34.659	15.707	3.1578e-06	37.822	0.00017189	0.00017017	4.615e-05	458.34	1.9386e-06	1.842e-06	842	113.12	1.8833e-06	1.8386e-06	216.51	85.761	29.605	13.181	1.8689e-06	30.908	126.011	133.805	354.115	16.157	203.362	341.377	15.288	20.269	204.138	150.831	18.577	22.898	24.188	29.288	94.746	27.270	-8191	255	
1884.055	1	1	0	0	0.12926	0.11174	0.050479	0.059067	0.22878	0.35597	0.1486	0.18207	0.1136	0.24529	0.077034	0.20119	0.2247	0.10463	0.13004	0.2041	-0.36667	-0.78333	-0.091667	-1.2167	-0.59792	-0.2625	-1.1625	-0.3625	-0.60417	-0.97917	-0.38125	-1.3167	-0.28958	-0.45625	-1.0917	-0.11875	187.597	205.812	357.167	34.200	312.828	336.826	293.775	212.701	281.341	242.329	226.279	308.105	355.287	241.677	216.951	320.312	0.00017945	0.00043382	8.0213e-05	556.07	2.3686e-06	4.2247e-06	1025.8	135.44	3.5382e-06	4.5692e-06	263.14	102.81	34.765	15.559	7.1789e-06	37.629	0.00017065	0.00016854	4.7166e-05	458.17	1.8591e-06	1.8543e-06	841.45	113.37	1.9171e-06	1.8857e-06	215.38	84.996	29.447	13.046	1.8643e-06	30.702	135.393	92.574	174.559	16.154	289.295	72.698	15.996	20.212	120.717	46.404	17.683	23.365	24.746	29.443	337.863	27.713	-8191	255	
1884.176	1	1	0	0	0.29801	0.29843	0.13658	0.26275	0.1072	0.090935	0.41253	0.15214	0.2344	0.0662	0.13382	0.22123	0.28947	0.18563	0.028806	0.15852	-0.21458	-0.91875	-0.2625	-1.0354	-0.65417	-0.425	-1.2625	-0.38125	-0.57083	-1.0667	-0.15208	-1.1458	-0.88333	-0.24792	-1	-0.46458	276.056	295.089	300.589	315.793	44.686	11.436	302.673	27.306	81.985	153.452	153.116	144.579	26.397	197.948	235.628	215.647	0.0002123	0.00063427	0.00023424	554.32	7.0956e-06	1.5565e-06	1016.4	136.1	1.8129e-06	7.329e-06	265.6	103.59	34.65	15.766	4.3865e-06	37.598	0.00017652	0.00016673	4.6582e-05	457.48	1.9055e-06	1.8771e-06	838.57	113.36	1.9171e-06	1.8738e-06	216.41	85.302	29.699	13.186	1.8807e-06	30.772	122.435	114.296	48.330	16.062	161.322	192.920	15.686	20.534	201.705	107.791	18.045	23.263	24.259	28.886	174.980	27.304	-8191	255	
1884.247	1	1	0	0	0.010116	0.18925	0.18263	0.098955	0.18733	0.13222	0.095343	0.11389	0.2056	0.061734	0.054088	0.14264	0.19318	0.19309	0.22214	0.14163	-0.17917	-1.1125	-0.36042	-0.8625	-0.97083	-0.1625	-1.0792	-0.47917	-0.32917	-1.0479	-0.29375	-0.88125	-0.8875	-0.30625	-0.93542	-0.56458	265.652	172.240	347.882	263.612	263.454	354.113	238.442	224.913	163.876	25.864	209.725	52.224	208.997	195.093	43.230	275.057	0.00015548	0.00072917	0.00022089	554.89	7.2883e-06	4.8e-06	1010.2	135.04	3.0596e-06	4.205e-06	266.53	103.51	34.614	15.555	5.5211e-06	37.687	0.00017866	0.00016798	4.6105e-05	457.88	1.9036e-06	1.8689e-06	838.16	113.17	1.895e-06	1.8455e-06	216.95	85.838	29.699	13.146	1.8442e-06	30.947	132.856	71.621	160.056	16.210	190.776	118.337	15.870	20.090	314.759	74.700	18.004	22.672	23.969	28.322	161.002	27.084	-8191	255	
1884.344	1	1	0	0	0.25035	0.3098	0.13745	0.063531	0.27418	0.19956	0.2486	0.30234	0.08843	0.03517	0.20944	0.088668	0.19261	0.31824	0.25763	0.019796	0.070833	-1.2021	-0.1875	-0.89167	-0.92083	-0.14167	-1.2375	-0.53125	-0.45208	-1.1479	-0.22917	-0.60417	-0.95833	-0.13542	-0.78333	-0.80417	57.441	110.239	318.960	97.315	168.190	87.226	288.315	284.571	320.772	338.122	224.841	278.038	103.167	275.460	190.310	154.936	0.0002155	0.00043633	8.6143e-05	551.71	4.4056e-06	3.1553e-06	1026	135.25	7.5264e-06	5.3617e-06	263.5	104.17	34.492	15.483	1.268e-06	37.609	0.00017672	0.0001681	4.894e-05	457.27	1.8967e-06	1.8816e-06	841.88	112.89	1.9008e-06	1.8408e-06	216.29	86.161	29.597	13.122	1.9025e-06	30.914	147.399	82.785	257.399	16.176	66.860	225.018	15.488	19.671	165.027	336.495	18.518	22.516	24.483	28.637	130.132	27.224	-8191	255	
1884.464	1	1	0	0	0.18247	0.096473	0.23008	0.10473	0.17775	0.23389	0.15024	0.31612	0.14215	0.19514	0.12315	0.29181	0.23132	0.1669	0.17803	0.23321	0.03125	-0.92083	-0.1875	-0.5125	-0.90625	-0.09375	-1.1562	-0.69792	-0.33333	-0.99583	-0.38958	-0.50833	-1.1437	-0.26875	-0.75417	-0.92917	232.689	119.728	167.552	191.565	325.598	36.041	325.199	27.152	249.568	87.991	292.009	319.267	335.744	309.457	111.852	336.846	0.00013841	0.00055007	9.377e-05	552.93	2.3657e-06	3.1797e-06	1015.3	136.81	2.1826e-06	5.1185e-06	264.03	103.65	34.344	15.599	7.92e-06	37.11	0.00017732	0.00017252	4.7743e-05	457.81	1.8259e-06	1.8544e-06	839.76	113.76	1.8603e-06	1.8304e-06	214.56	84.989	29.372	13.151	1.8574e-06	30.528	157.266	102.903	114.970	15.837	107.348	136.094	15.737	20.649	250.999	242.156	18.677	23.124	24.169	29.291	139.466	27.553	-8191	255	
1884.560	1	1	0	0	0.034966	0.41943	0.18695	0.13309	0.15233	0.062925	0.37548	0.046516	0.1919	0.16884	0.22319	0.078179	0.27673	0.15276	0.15636	0.26314	0.20208	-1.0187	-0.36458	-0.54167	-0.95833	-0.26458	-0.92292	-0.92083	-0.060417	-0.9875	-0.65417	-0.20833	-1.0938	-0.23333	-0.70208	-1.1063	68.001	359.168	52.959	309.587	63.595	76.947	281.487	25.399	80.510	260.486	269.176	315.330	327.674	59.092	215.951	13.836	0.00018159	0.00047029	0.00010683	547.36	2.6475e-06	5.531e-06	1015.5	134.67	2.7992e-06	5.4298e-06	264.8	104.5	34.636	15.584	1.459e-06	37.44	0.00017499	0.00016938	4.6998e-05	455.69	1.8066e-06	1.8886e-06	839.8	112.9	1.8615e-06	1.8452e-06	215.47	85.655	29.688	13.125	1.8906e-06	30.711	130.682	153.493	10.524	16.581	203.839	161.429	15.704	20.388	211.906	198.652	18.620	23.481	24.251	29.905	273.021	27.833	-8191	255	
1884.656	1	1	0	0	0.33532	0.15072	0.29592	0.18591	0.14801	0.039136	0.43427	0.22643	0.21191	0.13041	0.12922	0.20614	0.3593	0.17176	0.36943	0.075922	0.14167	-0.97292	-0.65625	-0.27292	-1.125	-0.46458	-0.72917	-1.0792	-0.26875	-0.90625	-0.77708	-0.26875	-1.0958	-0.30625	-0.59375	-0.9625	178.763	75.156	78.389	275.203	283.799	351.580	307.433	257.998	350.009	155.492	32.413	303.191	250.708	174.931	137.881	240.449	6.927e-05	0.00036556	0.00018228	549.42	2.2006e-06	5.3032e-06	1021.6	134.75	2.2709e-06	7.2705e-06	266.51	103.42	35.239	15.741	4.5389e-06	37.564	0.00017246	0.00017011	4.7686e-05	454.78	1.8044e-06	1.8822e-06	839.94	113.19	1.8324e-06	1.9053e-06	217.05	85.598	29.673	13.122	1.9443e-06	30.879	175.726	202.017	7.417	17.057	124.846	207.292	16.241	20.655	73.913	97.372	19.020	22.886	25.008	29.540	174.758	27.894	-8191	255	
1884.775	1	1	0	0	0.14294	0.14362	0.22442	0.20582	0.22916	0.078176	0.2526	0.21142	0.059776	0.14287	0.17655	0.11693	0.16124	0.15164	0.12653	0.088637	0.010417	-0.80833	-0.6	-0.21875	-1.0875	-0.66458	-0.48125	-1.0271	-0.4375	-0.82083	-0.8375	-0.33958	-1.125	-0.49167	-0.32917	-1.2167	88.019	348.716	94.348	333.026	228.160	3.656	16.837	331.854	198.783	362.385	299.145	288.193	136.859	200.672	183.185	257.035	0.00012694	0.00045342	0.00036881	548.22	5.7916e-06	7.1427e-06	1023.5	135.49	4.2723e-06	5.7172e-06	267.95	105.4	35.074	15.653	4.7152e-06	37.742	0.00017409	0.00017256	4.7751e-05	453.36	1.862e-06	1.8746e-06	841.24	113.37	1.8714e-06	1.8812e-06	217.88	86.834	29.841	13.209	1.9154e-06	31.1	132.395	146.510	51.044	16.669	93.831	94.336	16.142	20.958	185.175	188.708	19.253	24.205	25.336	29.763	129.877	28.662	-8191	255	
1884.872	1	1	0	0	0.16442	0.062184	0.063813	0.25514	0.13649	0.22393	0.35275	0.084159	0.21383	0.29635	0.15459	0.21984	0.13225	0.12006	0.29719	0.23683	0.12083	-0.81875	-0.86458	-0.14583	-1.0021	-0.58542	-0.55208	-1.0938	-0.2875	-0.7	-1.0875	-0.17917	-0.94792	-0.67708	-0.3125	-1.2271	280.078	358.788	283.496	359.746	70.602	240.597	295.538	58.558	241.394	333.104	297.438	346.712	22.218	129.141	191.128	185.564	0.00015185	0.0010067	0.00016064	546.62	5.1109e-06	3.3246e-06	1020.5	135.31	2.9599e-06	6.3414e-06	269.97	104.17	34.836	15.79	5.1e-06	37.566	0.00017417	0.00017315	4.8342e-05	454.56	1.8909e-06	1.8869e-06	840.25	113.7	1.8584e-06	1.8906e-06	218.36	85.658	29.606	13.157	1.8831e-06	30.684	112.951	146.734	114.895	16.133	209.318	194.665	15.575	20.181	40.855	38.150	18.353	23.022	24.566	28.824	99.582	27.622	-8191	255	
1884.943	1	1	0	0	0.064487	0.10028	0.15163	0.20507	0.27026	0.12386	0.34844	0.12219	0.14436	0.30513	0.12975	0.44825	0.066805	0.082357	0.14381	0.11707	0.09375	-0.48333	-0.99375	-0.079167	-0.81042	-0.725	-0.2875	-1.0646	-0.50625	-0.46458	-1.1542	-0.3625	-0.91042	-0.69583	-0.29792	-1.175	320.959	269.944	92.593	361.455	75.536	170.721	350.266	94.436	119.742	233.722	240.878	295.734	107.362	300.975	272.280	5.534	0.00011081	0.00028503	9.0175e-05	547.8	4.2633e-06	5.8806e-06	1011.8	135.51	3.4003e-06	5.628e-06	267.39	105.02	34.778	15.607	3.4169e-06	37.862	0.00017584	0.00017232	4.7706e-05	456.51	1.902e-06	1.8822e-06	838.18	113.36	1.848e-06	1.9291e-06	217.16	86.094	29.64	13.185	1.9322e-06	30.845	166.174	171.471	87.757	16.859	10.488	148.845	16.049	20.669	166.217	29.008	18.445	23.632	25.090	29.194	201.012	28.655	-8191	255	
1885.064	1	1	0	0	0.11519	0.10791	0.16541	0.23289	0.22152	0.12924	0.29865	0.3189	0.16857	0.21632	0.19765	0.054929	0.051572	0.18058	0.17443	0.38707	-0.17083	-0.29792	-1.0458	-0.16667	-0.67708	-0.95417	-0.3	-1.2188	-0.67083	-0.325	-1.0917	-0.21042	-0.70417	-0.84375	-0.15625	-0.96042	336.686	8.048	67.558	48.343	255.401	218.121	13.611	301.407	94.531	120.954	65.002	101.841	320.311	22.305	33.553	344.053	0.00019993	0.00053876	0.00011925	552.6	3.3541e-06	6.1058e-06	1029.9	138.02	2.1795e-06	2.6987e-06	270.31	105.61	34.81	15.802	1.3593e-06	38.002	0.0001732	0.00016953	4.7849e-05	456.52	1.8648e-06	1.8819e-06	843.26	114.28	1.8843e-06	1.9137e-06	218.65	86.664	29.802	13.309	1.8628e-06	31.183	146.205	77.277	209.990	17.954	249.803	121.795	16.361	21.686	202.783	303.835	18.746	23.183	24.034	29.182	344.832	27.064	-8191	255	
1885.160	1	1	0	0	0.21467	0.16315	0.2237	0.36431	0.087213	0.20368	0.094568	0.11089	0.27184	0.14237	0.10694	0.17938	0.17234	0.17387	0.13771	0.11381	-0.42083	-0.14792	-1.0688	-0.18958	-0.70625	-0.95417	-0.10833	-1.0167	-0.70417	-0.06875	-1.0208	-0.35417	-0.45833	-0.8	-0.15625	-0.88542	262.678	20.523	238.001	285.833	245.938	205.540	131.957	247.798	195.585	312.997	343.688	145.199	226.601	264.454	95.603	197.099	0.0001878	0.00075159	0.00012649	552.81	5.0248e-06	9.0189e-07	1028.8	137.55	5.938e-06	6.2987e-06	270.19	104.66	34.999	15.789	3.3032e-06	38.31	0.0001774	0.00017105	4.8435e-05	457.62	1.9126e-06	1.8505e-06	844.98	114.56	1.9262e-06	1.8777e-06	219.35	86.814	29.824	13.372	1.9087e-06	31.439	144.982	59.601	145.261	16.129	183.610	69.438	15.369	20.880	132.494	139.041	18.410	22.461	24.274	28.416	83.110	27.400	-8191	255	
1885.256	1	1	0	0	0.19567	0.10952	0.31005	0.025757	0.17801	0.052404	0.17508	0.35805	0.091253	0.13079	0.23262	0.20621	0.10432	0.040882	0.047734	0.15811	-0.29167	-0.29167	-0.99167	-0.31042	-0.42708	-0.93542	-0.11458	-0.99583	-0.91875	-0.15	-1.2729	-0.42083	-0.42917	-1.0375	-0.19167	-0.925	269.611	239.456	23.475	108.959	264.998	247.298	316.837	11.918	238.663	345.750	288.391	337.083	340.033	97.798	267.227	270.911	0.00010477	0.00059087	9.6089e-06	551.35	2.3141e-06	2.5669e-06	1023.3	136.83	2.1622e-06	4.9744e-06	266.18	104.63	35.042	15.836	3.9136e-07	37.771	0.00017847	0.00017064	4.7617e-05	455.84	1.8897e-06	1.8752e-06	843.39	114.5	1.8766e-06	1.863e-06	218.93	86.343	29.911	13.3	1.859e-06	31.148	139.841	85.958	346.813	15.863	264.966	246.718	15.517	20.455	142.060	64.217	18.184	22.400	23.953	28.127	333.817	26.968	-8191	255	
1885.352	1	1	0	0	0.23607	0.18369	0.063338	0.15605	0.28753	0.22701	0.16548	0.2331	0.1837	0.26653	0.22552	0.37913	0.19539	0.20872	0.25296	0.14706	-0.54167	-0.05625	-0.8875	-0.55	-0.34583	-1.1708	-0.39792	-0.69792	-0.94792	-0.097917	-1.0833	-0.60625	-0.27708	-1.2021	-0.35625	-0.51667	94.422	23.106	156.634	269.032	278.148	172.364	256.754	348.099	153.261	231.078	218.863	2.477	111.463	155.089	88.662	215.714	0.00022865	0.00046255	0.00010651	551.92	6.4239e-06	2.5875e-06	1015.2	139.15	2.3756e-06	3.773e-06	267.03	105.6	35.098	15.778	2.7998e-06	38.338	0.00017606	0.00017076	4.6812e-05	455.94	1.8694e-06	1.8779e-06	838.53	115.05	1.823e-06	1.9038e-06	218.56	86.83	30.039	13.264	1.9245e-06	31.339	143.291	332.555	87.906	15.500	119.314	177.658	15.149	19.925	60.043	109.587	17.925	22.545	23.927	28.261	137.019	27.295	-8191	255	
1885.473	1	1	0	0	0.20364	0.14239	0.06055	0.26578	0.15523	0.093767	0.29234	0.12142	0.31754	0.14998	0.12182	0.35042	0.10845	0.22968	0.27702	0.12471	-0.58125	-0.10208	-0.72917	-0.52708	-0.31875	-1.1854	-0.72917	-0.47292	-0.84583	-0.22708	-0.81042	-0.7	-0.23542	-0.90417	-0.33542	-0.53125	75.525	170.537	80.992	236.038	65.115	284.691	272.097	19.326	208.824	128.475	335.452	59.515	170.582	236.116	112.570	277.164	0.00017801	0.00057364	0.00014228	549.42	3.9523e-06	3.2497e-06	1021.4	137.42	3.539e-06	6.9566e-06	271.48	106.36	34.844	15.87	3.9645e-06	37.806	0.00017743	0.00017119	4.7074e-05	454.73	1.8345e-06	1.89e-06	839.66	114.33	1.8941e-06	1.9118e-06	221.02	87.042	29.895	13.357	1.9062e-06	31.17	110.808	106.931	90.462	16.245	88.364	160.494	15.706	20.352	146.468	83.372	18.502	23.559	24.706	29.094	304.028	27.642	-8191	255	
1885.545	1	1	0	0	0.030609	0.2368	0.08628	0.19108	0.13882	0.17066	0.16162	0.27835	0.096766	0.11478	0.074701	0.13169	0.13847	0.084401	0.15935	0.17777	-0.73542	-0.19792	-0.65417	-0.75	-0.22292	-1.0042	-0.68333	-0.46875	-1.0562	-0.26042	-0.7375	-0.99792	-0.11458	-1.2333	-0.46667	-0.35625	248.072	142.754	188.122	334.379	21.646	8.299	294.966	355.913	13.244	319.299	254.352	224.223	49.252	22.209	265.895	55.246	0.0001301	0.00070929	5.4643e-05	548.74	7.3479e-06	2.0197e-06	1027	137.1	9.028e-07	1.0273e-05	269.81	105.47	35.266	15.84	2.7733e-06	38.676	0.00017626	0.00017247	4.9089e-05	455.01	1.9035e-06	1.9035e-06	842.44	114.38	1.8356e-06	1.8783e-06	219.95	86.987	30.006	13.41	1.9332e-06	31.613	148.271	87.677	316.041	16.627	125.473	51.268	14.991	20.380	192.973	173.058	18.078	22.907	24.429	29.720	215.691	26.942	-8191	255	
1885.641	1	1	0	0	0.054622	0.37699	0.16257	0.080045	0.22956	0.21443	0.28915	0.17354	0.18371	0.12568	0.18169	0.056252	0.10099	0.21607	0.12688	0.12837	-0.86042	-0.39375	-0.63542	-0.97708	-0.22917	-0.93333	-0.68542	-0.28333	-1.1083	-0.18542	-0.65417	-1.1417	-0.225	-1.1229	-0.64583	-0.30417	73.938	86.682	95.404	284.213	301.076	41.740	334.009	294.499	320.662	123.847	328.395	299.305	264.352	307.617	287.836	298.342	0.00021133	0.00085432	0.00011803	554.91	5.337e-06	5.1105e-06	1023.2	137.79	4.2528e-06	7.2104e-06	268.18	104.03	34.424	15.602	2.4877e-06	37.779	0.00017425	0.00017371	4.8176e-05	456.94	1.9183e-06	1.9001e-06	841.44	114.38	1.8683e-06	1.8442e-06	218.21	86.074	29.589	13.233	1.8858e-06	30.906	136.591	181.809	67.938	16.418	175.186	141.805	15.040	19.750	141.312	105.734	18.400	22.336	24.361	28.933	60.897	27.308	-8191	255	
1885.737	1	1	0	0	0.084249	0.1145	0.094173	0.026898	0.26292	0.16484	0.29398	0.30475	0.27179	0.093317	0.087766	0.285	0.25807	0.09609	0.01105	0.019884	-0.66458	-0.25625	-0.26042	-1.1542	-0.16042	-0.95833	-0.91875	-0.13958	-1.0479	-0.57292	-0.29375	-1.2667	-0.097917	-0.8375	-0.775	-0.33333	52.592	166.793	230.035	160.509	6.066	89.395	333.444	228.588	198.139	222.311	258.766	326.242	94.615	319.567	311.438	47.674	0.0002266	0.00066223	4.8774e-05	547.48	8.411e-06	2.9497e-06	1022	136.36	3.0186e-06	7.319e-07	267.84	105.08	34.835	15.701	5.2385e-06	37.776	0.00016956	0.0001735	4.7355e-05	454.55	1.9271e-06	1.9031e-06	839.8	113.78	1.8174e-06	1.884e-06	218.22	85.822	29.556	13.225	1.943e-06	30.989	135.035	105.440	141.254	15.844	181.483	43.663	15.035	20.119	153.509	118.364	18.773	22.860	24.015	28.760	84.625	27.416	-8191	255	
1885.856	1	1	0	0	0.12884	0.28179	0.23785	0.21156	0.40123	0.17443	0.23842	0.066073	0.13116	0.064923	0.14972	0.15879	0.13052	0.072194	0.31138	0.15901	-0.78125	-0.41875	-0.31667	-1.075	-0.26875	-0.68333	-0.9125	0.047917	-0.9125	-0.34792	-0.36458	-1.1167	-0.1375	-0.34583	-0.8875	-0.20833	360.953	277.247	287.020	335.416	88.497	63.256	261.007	191.562	296.531	114.314	295.971	285.829	13.122	329.368	195.696	272.314	0.0001963	0.00072083	0.00011948	551.48	4.3932e-06	2.7975e-06	1025.1	134.89	3.6323e-06	7.4913e-06	269.62	105.22	35.222	15.786	3.2407e-06	38.487	0.00017729	0.00016796	4.7455e-05	456.36	1.8603e-06	1.8722e-06	840.43	113.06	1.9193e-06	1.9086e-06	219.19	86.742	29.897	13.349	1.8757e-06	31.379	128.583	104.507	105.414	16.096	130.621	181.338	15.138	20.184	308.203	185.481	18.315	22.353	23.706	29.335	143.239	27.044	-8191	255	
1885.952	1	1	0	0	0.15557	0.33677	0.060248	0.26938	0.21114	0.30823	0.22312	0.40347	0.17446	0.2644	0.16799	0.23916	0.17905	0.11668	0.24222	0.033357	-0.42292	-0.67083	-0.06875	-1.2042	-0.35208	-0.52708	-1.0396	-0.18125	-0.85417	-0.74792	-0.28542	-1.1562	-0.3125	-0.49375	-0.91667	-0.35208	39.941	252.210	303.185	277.546	245.562	196.147	276.876	253.626	173.375	199.155	353.606	360.543	39.952	285.332	337.589	179.684	0.00022095	0.00071409	2.4435e-05	544.64	3.3733e-06	3.6164e-06	1025.4	136.17	4.7546e-06	2.4052e-06	267.94	105.94	35.314	15.633	3.9987e-06	38.36	0.00017562	0.00017571	4.7865e-05	453.18	1.9e-06	1.8927e-06	843.42	114.08	1.8795e-06	1.9296e-06	219.93	87.05	29.952	13.27	1.9046e-06	31.517	130.160	86.552	75.746	15.850	179.770	96.009	15.300	20.454	9.645	134.238	17.625	22.385	24.220	28.186	221.468	27.227	-8191	255	
1886.048	1	1	0	0	0.11084	0.15429	0.25254	0.12752	0.19177	0.097149	0.076739	0.14695	0.23005	0.11902	0.10181	0.15346	0.25346	0.28102	0.25024	0.22076	-0.75625	-0.76042	-0.23125	-1.2354	-0.44792	-0.45833	-1.1292	-0.32917	-0.66042	-0.9375	0.0375	-1.0333	-0.43542	-0.34583	-1.0479	-0.15208	121.497	65.980	296.818	353.852	157.108	113.138	100.966	251.771	152.780	253.383	221.325	318.570	252.361	4.069	219.575	85.261	0.00019485	0.00069687	0.00011261	550.32	4.5346e-06	2.3247e-06	1020.7	137.05	1.3399e-06	6.617e-06	272.38	105.37	35.179	15.761	1.078e-06	37.869	0.00017783	0.00017179	4.7318e-05	453.3	1.8511e-06	1.9008e-06	844.12	114.13	1.9181e-06	1.8739e-06	220.03	87.014	29.859	13.279	1.917e-06	31.039	113.903	184.243	345.501	16.097	279.188	275.702	15.248	20.149	33.610	347.553	18.093	22.775	24.062	29.598	183.195	26.747	-8191	255	
1886.144	1	1	0	0	0.23853	0.31731	0.095481	0.27549	0.38412	0.16238	0.442	0.12055	0.19703	0.26858	0.050764	0.22597	0.23256	0.29368	0.22637	0.0023124	-0.27083	-0.77708	-0.12917	-0.96667	-0.62292	-0.27917	-1.4083	-0.072917	-0.69167	-1.0542	-0.26667	-0.90833	-0.50833	-0.2125	-0.95833	-0.35625	314.512	155.811	19.283	332.312	239.089	134.147	344.540	246.734	226.094	163.998	72.728	265.849	163.126	59.492	31.306	180.000	0.00022121	0.00043185	6.1384e-05	548.81	2.1255e-06	1.3736e-06	1030.2	136.13	6.7899e-07	3.8208e-06	267.33	105.18	34.978	15.731	4.5256e-06	38.197	0.00017242	0.00016715	4.7631e-05	455.28	1.9074e-06	1.795e-06	844.13	113.89	1.8754e-06	1.8591e-06	219.55	86.88	29.787	13.258	1.8649e-06	31.295	150.283	84.565	101.149	15.887	171.822	63.147	14.874	19.495	343.600	321.958	17.894	22.838	23.559	29.151	140.374	27.293	-8191	255	
1886.240	1	1	0	0	0.12861	0.071585	0.05935	0.25104	0.14166	0.15745	0.10132	0.3681	0.2243	0.22427	0.29589	0.21826	0.28532	0.15926	0.25277	0.28626	-0.30417	-1.1229	-0.20833	-0.99375	-0.68125	-0.16458	-1.2792	-0.43958	-0.26042	-1.0208	-0.26667	-0.88125	-0.94583	-0.2625	-0.8625	-0.58333	161.258	345.234	354.286	206.686	240.745	327.809	18.223	256.856	125.995	328.696	59.938	350.860	325.843	4.435	187.441	355.723	0.00014151	0.00059946	6.7171e-05	551.3	6.7321e-06	4.3192e-06	1024.4	136.23	4.1749e-06	3.5376e-06	269.9	106.11	35.118	15.965	6.8313e-06	38.242	0.00017316	0.00017244	4.731e-05	456.37	1.8749e-06	1.8761e-06	843.62	114.57	1.8706e-06	1.876e-06	221.25	87.535	29.935	13.431	1.8817e-06	31.463	146.403	123.909	330.932	16.575	117.081	70.838	15.093	19.384	5.847	326.066	17.614	22.550	23.964	27.871	210.284	26.802	-8191	255	
1886.336	1	1	0	0	0.19267	0.29875	0.24597	0.29364	0.23317	0.18649	0.20492	0.14127	0.19335	0.22759	0.1461	0.31935	0.14832	0.072328	0.12514	0.11437	0.225	-1.1812	-0.19375	-0.86667	-0.79167	-0.077083	-1.125	-0.53333	-0.38542	-1.2104	-0.37917	-0.82292	-0.95417	-0.2625	-1.0521	-0.71667	238.679	131.805	247.150	253.098	319.116	107.394	227.667	301.178	174.723	129.576	285.649	336.922	307.465	33.926	278.547	165.098	0.0002012	0.0007429	7.868e-05	551.41	3.4855e-06	7.7294e-06	1027.6	136.27	3.9213e-06	2.9703e-06	270.66	106.33	35.671	15.986	1.191e-06	39.275	0.0001757	0.00016962	4.8943e-05	455.68	1.893e-06	1.8581e-06	844.95	114.02	1.8707e-06	1.876e-06	220.56	87.573	30.157	13.442	1.9414e-06	31.892	127.781	32.391	64.458	15.686	181.625	162.355	14.958	19.734	297.788	190.030	18.003	22.569	23.972	28.983	207.513	26.747	-8191	255	
1886.457	1	1	0	0	0.066641	0.10921	0.098174	0.17332	0.12456	0.18269	0.25422	0.082041	0.11255	0.11024	0.05556	0.19958	0.10128	0.10446	0.32076	0.18077	0.17292	-1.1688	-0.53125	-0.74792	-0.87292	-0.25	-1.0021	-0.54792	-0.3	-1.15	-0.50625	-0.52083	-1.0646	-0.13958	-0.57083	-0.91667	136.506	314.298	29.702	332.279	245.431	178.800	332.690	24.506	86.359	153.858	60.060	107.829	1.960	192.492	195.600	46.424	0.00014187	0.00091292	0.00011341	551.42	1.2161e-06	6.2349e-06	1029	137.06	2.6279e-06	9.3384e-06	269.57	107.37	35.104	15.823	6.0394e-06	38.417	0.00017465	0.00017066	4.689e-05	457.32	1.8532e-06	1.9182e-06	845.76	114.23	1.839e-06	1.9036e-06	220.74	87.875	29.968	13.353	1.8934e-06	31.631	122.596	172.503	20.667	15.731	356.877	200.657	14.918	19.712	79.262	170.937	17.842	22.306	23.960	28.523	347.539	27.052	-8191	255	
1886.553	1	1	0	0	0.28353	0.10171	0.25601	0.26803	0.2945	0.29825	0.20913	0.41502	0.16222	0.36498	0.239	0.11118	0.29547	0.1809	0.1123	0.24703	-0.072917	-0.91458	-0.45625	-0.43125	-0.94792	-0.30833	-0.89167	-1	-0.08125	-1.0083	-0.55208	-0.46875	-1.0938	-0.43333	-0.65833	-1.0292	67.520	174.692	206.728	37.869	347.470	155.369	282.040	20.068	111.401	183.000	295.084	257.296	352.590	27.908	154.440	361.247	0.00023394	0.00028069	0.000172	557.04	4.7655e-06	5.801e-06	1031.2	136.43	2.5357e-06	2.7615e-06	266.19	105.38	34.99	15.873	2.0716e-06	38.156	0.00017476	0.00017134	4.8691e-05	458.67	1.8311e-06	1.8938e-06	847.35	113.95	1.8218e-06	1.8633e-06	219.83	86.651	29.836	13.239	1.8834e-06	31.294	129.499	39.503	174.175	15.948	36.657	87.338	15.489	20.088	168.112	303.478	17.869	22.632	24.295	27.750	137.108	27.082	-8191	255	
1886.648	1	1	0	0	0.05595	0.28311	0.090644	0.16398	0.20204	0.10042	0.21072	0.15245	0.317	0.11603	0.14846	0.12845	0.11605	0.11035	0.09706	0.17566	0.06875	-0.86458	-0.55625	-0.43125	-0.99792	-0.29167	-0.70833	-0.89375	-0.054167	-1.1063	-0.725	-0.25833	-1.1542	-0.44583	-0.74583	-0.99792	282.948	332.970	205.239	292.400	128.810	174.400	282.462	240.027	214.087	118.712	81.832	57.014	154.266	288.321	269.060	219.100	0.00026881	0.00033141	0.00010685	547.6	1.9346e-06	2.0879e-06	1027.4	135.97	4.7761e-06	2.2171e-06	267.6	105.52	34.982	15.833	7.1389e-06	38.695	0.00017456	0.00017105	4.7687e-05	456.06	1.8545e-06	1.8452e-06	843.84	113.61	1.8429e-06	1.9119e-06	219.59	86.918	29.765	13.355	1.9114e-06	31.54	110.007	11.106	52.849	15.937	317.197	160.220	15.573	20.039	169.281	82.383	17.972	22.773	24.226	28.352	182.199	27.471	-8191	255	
1886.746	1	1	0	0	0.34149	0.2087	0.24954	0.11686	0.14294	0.26734	0.27569	0.13427	0.15553	0.41662	0.11549	0.028875	0.22334	0.2116	0.097916	0.057114	0.070833	-0.8	-0.71667	-0.19375	-0.97708	-0.25833	-0.43125	-0.90625	-0.20417	-0.6	-0.73542	-0.13333	-1.1708	-0.39792	-0.45625	-1.0167	317.682	268.377	127.493	232.088	303.432	136.136	278.831	19.932	90.993	217.643	251.567	306.362	354.598	297.819	14.868	28.087	0.0001586	0.00076408	7.2307e-05	550.95	1.1415e-06	4.6196e-06	1030	136.55	1.9982e-06	4.4448e-06	267.37	106.76	35.264	16.014	5.0406e-06	38.629	0.00017304	0.00017641	4.7607e-05	456.85	1.8387e-06	1.9046e-06	845.37	114.3	1.9152e-06	1.9122e-06	220.27	87.743	30.092	13.446	1.8908e-06	31.674	115.034	43.691	255.295	16.257	165.421	67.299	15.372	19.967	43.327	136.113	17.425	22.455	23.482	28.679	189.265	27.375	-8191	255	
1886.840	1	1	0	0	0.078357	0.12494	0.0040659	0.075049	0.18032	0.34293	0.1846	0.078575	0.35586	0.071482	0.10071	0.24466	0.38556	0.13142	0.13122	0.070939	0.16458	-0.575	-0.94375	-0.2875	-0.96458	-0.62083	-0.48542	-1.1562	-0.31667	-0.425	-0.97083	-0.35208	-0.93958	-0.72917	-0.36667	-1.3458	280.628	220.075	146.248	256.566	275.440	271.378	297.637	226.512	252.019	39.911	135.253	231.379	361.789	176.423	94.830	336.209	0.00019944	0.00072097	5.154e-05	546.45	3.2e-06	7.3409e-06	1032.5	135.18	1.019e-06	3.9012e-06	268.8	105.4	34.944	15.742	5.7963e-06	37.982	0.00017404	0.00017351	4.8225e-05	452.82	1.9089e-06	1.9001e-06	845.11	113.71	1.9096e-06	1.8904e-06	219.84	87.026	29.9	13.275	1.867e-06	31.228	140.607	114.802	90.842	16.377	82.233	219.696	15.614	20.398	236.881	81.644	18.614	23.365	24.499	28.498	180.252	27.461	-8191	255	
1886.936	1	1	0	0	0.021021	0.16441	0.16442	0.08997	0.12113	0.26077	0.29727	0.23551	0.44084	0.11902	0.058619	0.06776	0.48007	0.21087	0.070456	0.10808	0.04375	-0.68542	-1.0125	-0.083333	-1.0354	-0.7	-0.060417	-1.1167	-0.31875	-0.52083	-1.0667	-0.28333	-1.0208	-0.80417	-0.035417	-1.1896	337.073	13.810	361.147	227.818	354.583	301.351	282.382	193.333	361.127	247.588	266.379	146.938	50.350	20.289	250.760	240.670	0.00020308	0.00071101	0.00014335	549.66	3.0629e-06	5.6583e-06	1025.1	135.48	7.3955e-06	2.5805e-06	268.56	104.4	34.714	15.493	3.8299e-06	37.984	0.00017272	0.00016861	4.4732e-05	454.69	1.8821e-06	1.8652e-06	844.38	113.11	1.9116e-06	1.8749e-06	217.68	85.985	29.64	13.195	1.8936e-06	31.238	135.168	152.347	123.186	16.409	157.178	103.779	15.554	19.869	167.876	223.630	18.750	22.700	25.031	28.747	202.897	27.996	-8191	255	
1887.032	1	1	0	0	0.15393	0.23088	0.20035	0.31361	0.11245	0.10851	0.19622	0.19865	0.22497	0.14767	0.079329	0.17076	0.13615	0.11668	0.10615	0.042292	0.070833	-0.30625	-1.1187	-0.020833	-0.82083	-0.89583	-0.14792	-1.1938	-0.41875	-0.35625	-1.1625	-0.24792	-0.62917	-0.89375	-0.25208	-1.1625	266.165	83.322	188.059	20.443	243.421	322.670	12.414	41.642	21.954	272.941	38.970	287.612	145.473	91.489	250.162	340.809	0.0002177	0.00064845	0.00013317	549.61	4.3867e-06	2.2567e-06	1031.7	134.92	3.1555e-06	4.8593e-06	267.77	105.97	34.538	15.565	6.5425e-07	38.142	0.00017449	0.00017398	4.6943e-05	453.82	1.9067e-06	1.8519e-06	843.61	113.7	1.867e-06	1.8093e-06	218.9	86.727	29.698	13.211	1.8587e-06	31.216	126.974	83.870	130.744	16.815	331.374	281.348	15.706	20.226	61.790	295.062	18.465	22.877	24.663	29.128	359.796	27.975	-8191	255	
1887.153	1	1	0	0	0.13137	0.30199	0.15446	0.085729	0.241	0.18122	0.20536	0.20896	0.091885	0.060746	0.15243	0.21457	0.13317	0.053428	0.08755	0.43484	-0.03125	-0.23958	-1.1896	-0.45625	-0.75833	-0.98125	-0.37917	-0.95417	-0.61667	-0.37292	-1.2208	-0.22292	-0.58333	-1.0833	-0.26667	-0.98958	177.924	268.177	239.194	159.006	250.132	290.279	326.002	315.506	144.577	102.511	217.424	295.735	73.856	29.568	330.733	314.303	0.00018209	0.00058878	1.1782e-05	543.49	7.9927e-07	3.6771e-06	1024.2	135.31	5.6433e-06	7.5826e-06	271.92	106.19	34.989	15.881	4.0663e-06	38.351	0.00017269	0.00016896	4.7284e-05	451.07	1.8564e-06	1.834e-06	842.1	113.66	1.8718e-06	1.8874e-06	221.18	86.973	29.762	13.243	1.8639e-06	31.425	162.266	271.142	362.270	16.472	304.083	335.303	15.758	20.468	226.205	201.874	18.056	23.129	24.218	28.665	130.959	27.554	-8191	255	
1887.249	1	1	0	0	0.074108	0.14473	0.081442	0.32015	0.066177	0.12571	0.24377	0.36412	0.32999	0.12193	0.18769	0.23767	0.27917	0.33686	0.077118	0.074138	-0.54792	-0.08125	-1.0979	-0.46667	-0.64792	-1.1458	-0.43542	-0.91458	-0.91042	-0.15208	-1.1708	-0.43542	-0.56875	-1.0417	-0.3375	-0.875	106.123	295.269	291.017	227.431	66.600	34.473	226.613	233.597	198.291	94.078	70.790	64.991	181.836	11.098	218.013	19.284	0.00021837	0.00079402	0.00016565	544.95	5.1626e-06	1.5811e-06	1021	135.49	6.1855e-07	8.3198e-06	272.41	106.58	35.025	16.029	1.6846e-06	38.494	0.00016978	0.00016833	4.6965e-05	451.45	1.8412e-06	1.8654e-06	843.14	113.51	1.8736e-06	1.8828e-06	220.9	87.582	29.763	13.339	1.8799e-06	31.364	120.393	39.874	90.106	16.406	237.816	95.306	15.363	20.151	182.280	191.850	18.181	22.860	24.897	29.332	82.114	27.788	-8191	255	
1887.345	1	1	0	0	0.096594	0.1	0.034986	0.13807	0.21784	0.24245	0.18367	0.10669	0.16065	0.20813	0.21167	0.033669	0.29449	0.18656	0.17741	0.43594	-0.56042	-0.15625	-1.0167	-0.575	-0.41042	-1.0271	-0.53542	-0.80417	-0.80833	-0.027083	-1.1083	-0.71458	-0.44583	-1.1271	-0.37917	-0.72917	329.031	247.835	191.960	144.321	184.970	341.194	352.691	307.110	164.154	231.143	9.034	87.065	42.531	8.862	102.998	293.914	0.00016333	0.00022944	0.00013428	549.45	7.1372e-07	1.5126e-06	1025.6	137.5	3.1202e-06	2.3302e-06	270.24	105.07	34.722	15.55	4.3223e-06	37.175	0.00017049	0.00016916	4.6536e-05	453.36	1.8569e-06	1.8106e-06	843.48	114.12	1.8513e-06	1.8511e-06	220.12	86.548	29.735	13.116	1.9199e-06	30.765	164.024	103.322	79.975	16.483	292.777	40.858	16.006	20.800	188.383	50.355	18.809	23.631	24.299	29.760	118.480	28.005	-8191	255	
1887.417	1	1	0	0	0.34843	0.17125	0.075831	0.098727	0.18233	0.39315	0.17385	0.25321	0.054893	0.19789	0.25343	0.19781	0.19733	0.20093	0.087902	0.23942	-0.66042	-0.091667	-1.0083	-0.78333	-0.4	-1.0542	-0.54167	-0.375	-1.1063	-0.28333	-1.0438	-0.83333	-0.29792	-1.0187	-0.24167	-0.39375	4.851	285.279	169.883	280.999	170.476	132.294	312.701	271.955	13.949	89.795	111.343	74.074	48.124	244.621	353.672	252.214	0.00021593	0.00050381	9.3098e-05	546.34	2.9185e-06	3.1861e-06	1029.5	135.75	2.0381e-06	3.8737e-06	270.75	106.65	34.935	15.629	1.0738e-06	37.955	0.00017257	0.00017154	4.6796e-05	451.84	1.888e-06	1.8086e-06	841.89	113.61	1.8418e-06	1.889e-06	219.87	87.186	29.778	13.263	1.8558e-06	31.2	132.782	197.415	9.837	16.618	45.933	13.216	15.594	20.182	336.744	223.993	18.134	22.657	24.099	28.877	224.697	27.840	-8191	255	
1887.537	1	1	0	0	0.11001	0.13266	0.10858	0.14767	0.20068	0.11941	0.42027	0.20715	0.23874	0.08678	0.07073	0.30009	0.17766	0.3213	0.21041	0.0081868	-0.67917	-0.064583	-0.92917	-0.88542	-0.066667	-1.1	-0.57083	-0.38333	-1.0729	-0.13958	-0.55625	-1.0167	-0.25208	-0.7875	-0.35	-0.42708	361.237	254.279	60.063	151.365	51.721	340.147	267.435	216.119	149.870	314.868	170.685	321.231	65.193	76.115	162.045	232.592	0.00026142	0.00057195	0.00014358	549.91	5.4046e-06	2.4011e-06	1021.3	136.3	8.4956e-07	4.669e-06	270.04	105.33	34.687	15.717	2.3684e-06	38.203	0.00016997	0.00017134	4.6854e-05	454.17	1.8528e-06	1.9174e-06	842.13	113.86	1.8487e-06	1.8668e-06	220.01	86.977	29.694	13.253	1.9054e-06	31.33	150.627	209.960	152.225	17.108	141.670	282.237	15.322	20.480	197.628	279.056	18.028	23.201	23.937	29.311	329.715	27.894	-8191	255	
1887.634	1	1	0	0	0.14387	0.21576	0.28191	0.041079	0.10381	0.057378	0.20287	0.15208	0.14663	0.034015	0.148	0.11021	0.14745	0.066237	0.16984	0.072726	-0.71667	0.066667	-0.64583	-1	-0.18542	-0.90625	-0.80833	-0.27292	-0.9625	-0.10625	-0.56875	-0.875	-0.029167	-0.86875	-0.5875	-0.30625	349.517	290.688	337.539	258.710	328.998	322.505	271.841	9.940	114.682	331.105	16.825	222.728	127.329	324.801	106.260	172.847	6.9658e-05	0.00018813	5.2795e-05	545.38	4.8728e-06	2.6775e-06	1025.9	135.81	1.928e-06	4.6221e-06	271.16	105.57	34.68	15.959	3.7351e-06	38.217	0.00017442	0.00016914	4.723e-05	452.21	1.8702e-06	1.895e-06	845.35	113.67	1.8536e-06	1.9008e-06	220.2	86.995	29.741	13.254	1.8675e-06	31.292	137.480	95.792	293.192	16.465	135.696	116.928	15.549	19.749	115.512	222.939	18.482	23.067	24.352	28.863	124.242	27.334	-8191	255	
1887.728	1	1	0	0	0.18784	0.056584	0.086135	0.31093	0.14204	0.13897	0.12854	0.13725	0.2531	0.095022	0.19615	0.38299	0.14457	0.093312	0.23371	0.16079	-0.59167	-0.23333	-0.46667	-1.1333	-0.20833	-0.84583	-0.86042	-0.20208	-1.0896	-0.45625	-0.47708	-1.0312	-0.1875	-0.86667	-0.93542	-0.18125	157.286	223.642	125.544	341.151	191.960	204.788	69.472	239.085	30.516	273.134	241.130	183.909	305.305	194.408	125.538	305.470	0.00017214	0.0004836	8.8377e-05	553.44	3.4227e-06	7.5448e-06	1020.2	134.7	2.6905e-06	5.2881e-06	266.96	104.21	34.587	15.602	3.694e-06	37.223	0.00017149	0.00016715	4.71e-05	454.59	1.8325e-06	1.8497e-06	839.88	112.98	1.8609e-06	1.858e-06	218.87	85.794	29.54	13.089	1.8594e-06	30.551	122.156	169.817	346.624	16.712	26.911	161.518	15.345	21.105	107.058	298.239	18.760	22.890	24.615	29.187	239.858	27.746	-8191	255	
1887.826	1	1	0	0	0.16223	0.082138	0.052484	0.088916	0.43826	0.21514	0.23224	0.27375	0.10196	0.10432	0.2471	0.3371	0.1476	0.17746	0.13312	0.37676	-0.71875	-0.4875	-0.27292	-1.1292	-0.085417	-0.86667	-0.96875	-0.16042	-1.075	-0.32917	-0.48333	-1.0896	-0.35	-0.83125	-0.97292	-0.225	238.396	326.248	144.180	157.307	313.760	223.323	335.607	356.782	67.766	348.237	44.774	168.174	30.431	197.389	268.920	272.249	0.00018802	0.00061473	0.00016927	550.39	3.4903e-07	3.9285e-06	1021.8	134.09	3.5259e-06	6.1273e-06	265.55	104.36	34.386	15.561	3.5221e-06	37.323	0.00017426	0.00016749	4.7675e-05	456.8	1.8637e-06	1.8068e-06	840.52	112.37	1.8662e-06	1.8426e-06	216.99	85.547	29.312	13.123	1.8528e-06	30.551	117.328	99.067	99.920	15.815	14.819	349.595	15.718	20.165	170.461	173.456	18.340	22.513	24.196	29.575	97.924	27.496	-8191	255	
1887.945	1	1	0	0	0.13363	0.16553	0.07703	0.13584	0.043785	0.11136	0.38662	0.029817	0.051363	0.13423	0.066174	0.22379	0.14729	0.095418	0.039903	0.15572	-0.66458	-0.50417	-0.21667	-1.0792	-0.36667	-0.5875	-1.0271	-0.35833	-0.97083	-0.73958	-0.26667	-1.2563	-0.35833	-0.5625	-0.925	-0.21667	224.368	22.010	72.483	80.815	88.040	13.812	283.614	83.884	104.355	127.282	56.968	51.279	149.735	301.204	314.916	44.874	9.0036e-05	0.00014427	9.5984e-05	548.44	2.3049e-06	3.8139e-06	1019.4	135.27	3.6658e-06	1.6096e-06	266	104.26	34.445	15.455	4.7222e-06	36.835	0.00016935	0.00016851	4.6704e-05	453.74	1.8564e-06	1.8562e-06	839.48	112.23	1.8476e-06	1.8672e-06	215.65	85.434	29.111	13.053	1.8344e-06	30.484	134.914	98.840	81.445	16.302	42.650	107.762	15.663	20.068	167.499	169.442	17.914	22.793	24.238	28.480	148.144	27.434	-8191	255	
1888.041	1	1	0	0	0.16533	0.3657	0.15591	0.19974	0.14451	0.12379	0.27311	0.12579	0.10836	0.042146	0.10433	0.40717	0.28752	0.14752	0.20651	0.16387	-0.5375	-0.7125	-0.0083333	-1.0604	-0.39167	-0.47083	-1.1562	-0.25208	-0.59583	-0.73333	-0.25208	-1.1167	-0.47917	-0.3875	-0.83542	-0.25625	166.395	238.917	180.150	340.082	87.856	25.437	298.993	283.815	131.912	17.178	231.349	266.196	357.836	241.094	85.114	341.337	0.00017021	0.00026562	0.00023572	549.74	1.456e-06	8.7505e-06	1017.4	132.96	1.8008e-06	6.088e-06	264.78	104.4	33.651	15.382	3.0505e-06	37.575	0.00017227	0.00016804	4.6486e-05	454.04	1.8532e-06	1.7927e-06	841.01	111.99	1.8476e-06	1.8382e-06	215.86	85.531	28.824	12.974	1.8504e-06	30.659	120.967	158.777	37.146	16.953	148.468	92.478	15.793	20.658	154.632	42.908	17.919	23.469	24.164	29.192	257.897	27.007	-8191	255	
1888.137	1	1	0	0	0.23441	0.11586	0.082125	0.24305	0.14676	0.18079	0.11616	0.1441	0.088157	0.10491	0.18116	0.24397	0.11307	0.17634	0.20342	0.31321	-0.19583	-0.75625	-0.014583	-1.0812	-0.62917	-0.35	-1.2062	-0.15833	-0.58333	-0.9625	-0.058333	-1.0375	-0.50625	-0.27292	-1	-0.25208	335.372	278.644	123.714	89.968	247.802	141.857	272.640	94.515	51.843	77.233	207.711	78.018	307.784	36.446	235.999	357.975	0.0002311	0.00033102	7.5673e-05	547.49	1.4928e-06	5.4327e-06	1033.5	132.92	8.2251e-07	1.5596e-06	264.83	103.28	33.577	15.331	4.0358e-07	36.735	0.00017179	0.0001649	4.7144e-05	454.4	1.8795e-06	1.8277e-06	843.3	111.37	1.894e-06	1.8406e-06	215	84.858	28.739	12.862	1.8528e-06	30.184	125.493	76.681	225.878	16.661	316.548	155.738	15.929	20.569	60.308	91.615	18.562	22.972	25.552	28.955	61.466	27.565	-8191	255	
1888.233	1	1	0	0	0.28532	0.076791	0.19783	0.18645	0.41059	0.090539	0.26662	0.11825	0.21879	0.37091	0.023659	0.15561	0.081936	0.1389	0.37817	0.033638	-0.21667	-1.0104	-0.26458	-0.97083	-0.6	-0.275	-1.2021	-0.23958	-0.41042	-0.98125	-0.11667	-0.85833	-0.6625	-0.0625	-1.1812	-0.47708	31.173	271.613	25.799	338.424	86.669	323.427	275.960	36.685	145.003	341.492	344.921	241.070	191.304	256.543	89.353	268.352	0.00011769	0.00018334	9.0043e-05	544.32	2.781e-06	1.9586e-06	1026.5	132.92	2.3829e-06	1.0272e-06	262.73	102.86	34.05	15.298	9.789e-06	36.685	0.00017254	0.00016874	4.5892e-05	452.75	1.8162e-06	1.7897e-06	840.67	111.97	1.7846e-06	1.8375e-06	213.52	84.46	28.77	12.904	1.8808e-06	30.189	95.522	137.237	91.408	16.072	141.566	53.738	15.759	20.246	318.987	232.361	18.447	23.030	24.439	30.011	104.282	27.472	-8191	255	
1888.329	1	1	0	0	0.20551	0.0044529	0.15501	0.32306	0.23162	0.060967	0.076477	0.12708	0.17085	0.11501	0.3079	0.2331	0.03372	0.095479	0.12813	0.070047	-0.1625	-1.0187	-0.041667	-0.8875	-0.77708	-0.25625	-1.1646	-0.43958	-0.49375	-1.2417	-0.30208	-0.83958	-0.88333	-0.047917	-0.92292	-0.50417	203.773	65.064	310.514	344.906	330.130	261.041	313.474	34.662	231.490	320.147	50.020	295.056	248.137	52.172	102.215	351.172	0.00014813	0.00065566	0.00020249	551.4	2.3642e-06	1.8037e-06	1019.5	132.03	3.7061e-06	3.5337e-06	261.56	103.1	34.071	15.308	5.5564e-06	36.51	0.00016935	0.00016693	4.7307e-05	452.82	1.834e-06	1.785e-06	838.64	110.87	1.826e-06	1.8053e-06	212.56	84.534	28.899	12.899	1.8719e-06	30.123	86.265	72.678	48.466	16.639	127.516	82.143	15.713	20.392	116.037	211.450	18.493	23.195	24.787	28.840	115.542	27.120	-8191	255	
1888.426	1	1	0	0	0.13476	0.077883	0.093963	0.22648	0.116	0.12068	0.10228	0.07215	0.16918	0.1608	0.079323	0.094028	0.081084	0.15339	0.12834	0.025357	0.064583	-1.2229	-0.22917	-0.64583	-0.83125	-0.05625	-1.0208	-0.72917	-0.55417	-1.0729	-0.29167	-0.65625	-1.1958	-0.29583	-0.9	-0.88958	274.114	227.950	95.487	280.189	292.572	111.106	268.462	112.678	201.920	234.945	153.604	286.937	269.676	157.315	292.800	268.754	0.00021975	0.0012141	9.9647e-05	550.76	1.3082e-06	7.4737e-06	1020.6	133.37	2.4987e-06	5.1413e-06	262.46	103.51	33.797	15.321	3.3795e-06	36.981	0.00017174	0.00016942	4.5728e-05	451.87	1.8e-06	1.8517e-06	839.43	111.46	1.7898e-06	1.8334e-06	213.19	85.02	28.651	12.955	1.8447e-06	30.368	151.338	90.426	144.019	16.766	201.187	185.829	15.980	20.437	189.202	145.370	18.503	22.968	24.817	28.479	143.679	27.540	-8191	255	
1888.546	1	1	0	0	0.13074	0.087379	0.23812	0.2406	0.079334	0.2442	0.2425	0.030024	0.12424	0.1285	0.15565	0.33406	0.36137	0.22516	0.14295	0.40978	0.13958	-1.1125	-0.40833	-0.51042	-1.0333	-0.16875	-0.85208	-0.95625	-0.19583	-0.96458	-0.44583	-0.475	-0.98333	-0.041667	-0.7375	-0.76875	194.168	341.980	210.336	207.285	136.170	286.064	242.506	263.436	113.090	72.258	201.432	279.040	302.431	216.116	151.066	221.463	0.00020482	0.00036697	0.0002442	545.04	2.8053e-06	1.3711e-06	1025.8	132.33	3.803e-06	5.0074e-06	261.13	102.68	32.944	15.059	8.8683e-06	36.711	0.00017246	0.00016807	4.6824e-05	453.54	1.7993e-06	1.8302e-06	840.57	110.87	1.8814e-06	1.8157e-06	212.1	84.28	28.581	12.786	1.8822e-06	30.06	132.561	143.166	69.004	16.716	51.099	257.763	16.037	19.812	190.794	137.702	17.778	22.808	23.277	29.141	119.931	27.314	-8191	255	
1888.641	1	1	0	0	0.14243	0.14077	0.049008	0.062338	0.16969	0.10531	0.17073	0.20811	0.17695	0.13278	0.050337	0.18091	0.34425	0.15233	0.055403	0.41888	0.25208	-0.8375	-0.45417	-0.37917	-1.175	-0.039583	-0.88125	-0.95833	-0.20208	-1.0625	-0.83125	-0.21458	-1.3167	-0.38542	-0.45833	-1.0625	238.733	148.798	212.887	66.671	306.366	313.314	47.672	103.102	216.149	255.569	138.538	213.978	99.298	38.405	197.692	36.243	0.00015414	0.00048814	0.00017219	550.9	1.6209e-06	6.3657e-06	1019.6	131.5	4.9286e-06	3.1833e-06	259.2	101.49	33.784	15.226	2.1107e-06	36.745	0.00017155	0.0001682	4.7182e-05	453.89	1.8598e-06	1.871e-06	840.26	110.28	1.8235e-06	1.9064e-06	211.65	83.892	28.636	12.838	1.8829e-06	30.163	168.498	131.025	342.112	16.381	109.403	166.157	15.602	20.120	220.286	72.173	18.480	23.019	23.748	29.420	118.298	27.743	-8191	255	
1888.714	1	1	0	0	0.056518	0.21439	0.1871	0.081963	0.26612	0.21614	0.21148	0.29518	0.13224	0.28944	0.10866	0.06368	0.10172	0.066134	0.25997	0.18612	0.22708	-0.80833	-0.4875	-0.22083	-1.1146	-0.24583	-0.52083	-0.76042	-0.425	-0.79167	-0.59792	-0.2625	-0.94792	-0.34375	-0.43125	-1.0542	141.466	134.176	59.976	242.538	43.506	359.586	272.169	254.866	98.262	192.818	320.350	52.593	3.278	161.739	347.518	187.853	0.00013519	0.00051174	6.0651e-05	547.78	4.4897e-06	9.9633e-06	1024.3	133.77	2.1684e-06	2.5063e-06	261.24	102.8	33.265	15.132	2.1177e-06	37.154	0.00017192	0.00016776	4.7075e-05	451.83	1.849e-06	1.8685e-06	841.53	111.1	1.8214e-06	1.8548e-06	212.26	84.327	28.642	12.797	1.8396e-06	30.338	145.529	31.031	184.811	16.634	144.643	196.847	15.657	20.625	205.183	126.321	17.674	22.804	24.034	28.949	74.785	27.755	-8191	255	
1888.833	1	1	0	0	0.097399	0.2203	0.16217	0.11277	0.071756	0.26183	0.35025	0.19533	0.31911	0.26165	0.2639	0.14265	0.14897	0.12384	0.18882	0.043428	0.14583	-0.79167	-0.66875	-0.27708	-0.84167	-0.44167	-0.5875	-0.97292	-0.21458	-0.71458	-0.9375	-0.3	-1.0271	-0.5125	-0.20208	-0.89167	39.882	278.115	173.887	339.738	259.518	78.538	337.014	31.931	347.402	280.181	284.847	132.589	42.448	11.019	91.851	103.335	0.00020109	0.00079075	0.00015389	543.31	5.0961e-06	1.8137e-06	1023.5	131.55	6.3946e-06	3.1438e-06	263.81	102.61	33.438	15.213	4.4957e-06	37.04	0.00017374	0.00016604	4.6438e-05	450.84	1.8402e-06	1.8378e-06	842.23	110.71	1.8097e-06	1.8603e-06	214.12	85.068	28.544	12.873	1.8324e-06	30.487	143.726	119.957	89.454	16.986	232.244	98.190	15.745	20.332	99.714	175.436	18.826	23.316	24.937	28.690	278.017	27.999	-8191	255	
1888.929	1	1	0	0	0.14016	0.12807	0.19616	0.17435	0.15378	0.31107	0.21611	0.088069	0.089712	0.067901	0.044508	0.22251	0.15671	0.16274	0.12935	0.046675	0.18958	-0.68958	-0.90417	-0.25625	-1.1292	-0.52917	-0.44375	-1.1021	-0.47292	-0.63125	-1.1354	-0.26458	-0.90208	-0.51042	-0.19167	-1.0792	310.066	17.399	362.043	307.853	339.447	80.804	249.221	54.299	97.238	202.548	139.176	178.972	328.518	59.649	279.069	201.025	0.0002003	0.0005596	4.0078e-05	547.99	6.5232e-06	5.9404e-06	1024.1	132.36	5.9142e-06	4.4624e-06	262	103.02	33.548	15.379	2.7214e-06	36.874	0.00017341	0.00016716	4.6688e-05	451.5	1.877e-06	1.8642e-06	843.04	110.82	1.8326e-06	1.8599e-06	214.62	84.9	28.676	12.891	1.8637e-06	30.302	142.608	171.818	133.111	16.501	100.884	214.823	15.505	20.358	255.480	42.694	18.031	23.681	24.374	29.374	300.598	28.095	-8191	255	
1889.025	1	1	0	0	0.25119	0.10335	0.027586	0.23479	0.14983	0.1371	0.29756	0.35039	0.059734	0.32056	0.12443	0.17622	0.3075	0.15249	0.16553	0.30402	-0.014583	-0.41875	-0.85417	-0.17083	-0.83333	-0.8	-0.30625	-1.075	-0.24375	-0.32083	-0.87708	-0.2	-0.70208	-0.8375	-0.26667	-1.0063	61.187	16.069	224.766	353.934	341.760	112.524	233.146	256.369	52.184	157.414	72.931	25.703	94.124	204.911	131.101	249.557	0.00013177	0.00049824	0.00016633	548.34	5.8191e-06	5.002e-06	1028.6	131.03	5.0714e-06	5.6043e-06	260.28	101.34	33.162	14.995	3.5258e-06	36.636	0.00016914	0.00016864	4.6089e-05	452.77	1.8549e-06	1.8332e-06	845.11	110.25	1.8524e-06	1.8245e-06	212.98	83.738	28.435	12.699	1.848e-06	29.963	155.508	83.765	350.032	16.670	61.710	142.580	16.204	20.786	283.270	149.887	18.629	23.276	24.773	29.149	115.317	27.710	-8191	255	
1889.121	1	1	0	0	0.14861	0.28856	0.0087507	0.35523	0.10742	0.19636	0.23274	0.37439	0.26768	0.15813	0.17143	0.086384	0.12901	0.10194	0.11813	0.33635	-0.13125	-0.4875	-0.86875	-0.36875	-0.53333	-0.79167	-0.25833	-0.9875	-0.58542	-0.17708	-1.0125	-0.21042	-0.55833	-0.825	0.0875	-1.0625	51.940	192.335	198.513	307.045	206.778	42.065	270.965	303.445	61.952	361.878	345.575	313.583	353.317	343.784	244.753	245.160	0.00013725	0.00068531	0.00017962	547.58	4.908e-06	2.9323e-06	1031	132.67	5.3195e-06	6.7454e-06	259.12	101.56	32.775	15.055	1.9002e-06	36.606	0.00016689	0.00017001	4.5655e-05	453.4	1.8462e-06	1.8413e-06	848.48	110.7	1.8366e-06	1.8314e-06	212.44	84.088	28.11	12.807	1.8844e-06	30.11	146.839	135.524	63.521	16.259	173.167	191.356	15.843	20.499	82.168	18.926	18.249	23.320	24.740	28.828	186.513	27.591	-8191	255	
1889.218	1	1	0	0	0.31025	0.09233	0.20602	0.08285	0.16103	0.14624	0.11264	0.075537	0.12089	0.2398	0.23596	0.28192	0.17465	0.31702	0.13179	0.2014	-0.19167	-0.22292	-1.1208	-0.43542	-0.63542	-1.1917	-0.045833	-0.77292	-0.66458	-0.16458	-1.175	-0.43542	-0.40208	-1.0792	-0.18542	-0.82708	229.130	8.635	68.128	251.244	52.257	152.160	220.544	69.727	154.684	71.661	333.160	6.377	350.800	17.747	157.365	135.255	0.00012339	0.00031378	7.9592e-05	548.5	5.1577e-06	3.2768e-06	1030.7	132.88	3.7618e-06	3.3012e-06	266.65	105.25	33.189	15.327	4.4516e-06	38.108	0.0001685	0.00016973	4.6293e-05	452.68	1.8908e-06	1.8597e-06	849.12	111.43	1.8447e-06	1.8821e-06	216.38	86.117	28.74	13.039	1.8931e-06	31.15	113.328	71.534	112.332	16.771	123.798	237.963	15.696	20.541	108.186	291.924	18.972	23.263	24.052	30.020	182.764	27.731	-8191	255	
1889.314	1	1	0	0	0.098649	0.34373	0.19703	0.08642	0.15938	0.18081	0.40517	0.18118	0.28292	0.25025	0.05688	0.061239	0.17076	0.2385	0.181	0.34594	-0.4	-0.064583	-1.0688	-0.32708	-0.32292	-0.94167	-0.20417	-0.575	-0.75208	-0.24375	-1.1083	-0.6	-0.28958	-1.0396	-0.16667	-0.85208	115.516	12.720	344.035	4.215	325.239	284.560	315.099	325.296	66.167	252.124	225.458	120.007	361.354	127.733	252.178	32.396	0.0001506	0.00021738	0.00015955	544.13	8.2227e-06	4.8204e-06	1035.9	133.04	5.7727e-06	6.8165e-06	267.71	104.58	34.087	15.248	2.5256e-06	37.656	0.00017882	0.00017273	4.7846e-05	452.34	1.9087e-06	1.9254e-06	852.28	112.28	1.9193e-06	1.9059e-06	216.9	86.391	29.011	13.011	1.978e-06	30.965	129.871	187.392	68.608	16.929	127.716	187.816	15.801	20.415	125.814	191.915	18.213	22.635	24.398	29.794	131.160	27.978	-8191	255	
1889.410	1	1	0	0	0.13196	0.08715	0.088284	0.24836	0.18214	0.015468	0.25581	0.036193	0.27066	0.082182	0.18159	0.14702	0.46991	0.093584	0.1536	0.057997	-0.58958	-0.20833	-0.8	-0.65208	-0.064583	-0.98542	-0.4625	-0.67708	-0.67292	-0.19792	-0.89583	-0.70625	-0.22708	-0.86667	-0.35208	-0.42083	354.764	86.528	314.916	248.777	260.625	285.319	268.175	342.135	279.985	204.140	102.933	194.521	251.656	237.226	358.340	274.201	0.00021054	0.00085229	0.00023816	555.94	4.0136e-06	1.5131e-06	1039.2	134	1.5518e-06	4.6298e-06	260.24	103.06	33.636	15.334	9.43e-07	37.367	0.00017988	0.00017484	4.8409e-05	457.91	1.8939e-06	1.9029e-06	856.46	111.75	1.8694e-06	1.8683e-06	212.8	85.045	28.894	12.874	1.9338e-06	30.696	136.698	14.824	51.161	16.524	168.371	173.960	15.617	20.372	271.384	193.276	18.614	23.117	24.425	28.796	252.635	27.977	-8191	255	
1889.506	1	1	0	0	0.12238	0.059759	0.10008	0.32828	0.066414	0.32529	0.26235	0.22575	0.22717	0.21962	0.2668	0.098168	0.12258	0.38525	0.2772	0.13799	-0.73125	-0.11875	-0.86875	-0.8	-0.14583	-1.1667	-0.4	-0.56458	-1.1187	-0.25417	-0.83333	-1	-0.070833	-1.0792	-0.4375	-0.3625	340.958	152.225	277.848	310.018	75.597	336.959	286.294	294.648	342.711	160.754	230.092	258.503	274.846	170.518	206.484	168.687	0.00013306	0.0011241	8.1846e-05	555.04	2.0252e-06	7.5554e-07	1036.2	131.75	3.7489e-06	7.4714e-07	255.62	104.51	33.273	15.34	4.5161e-06	37.29	0.00017374	0.00017502	4.8001e-05	458.94	1.9093e-06	1.891e-06	855.93	110.35	1.9225e-06	1.9448e-06	209.5	85.434	28.588	12.904	1.9035e-06	30.559	161.148	55.425	45.771	16.080	156.242	253.980	15.296	19.904	144.432	196.744	18.699	22.670	24.651	28.807	137.011	27.931	-8191	255	
1889.627	1	1	0	0	0.044961	0.045771	0.15116	0.068	0.24814	0.064887	0.096175	0.12161	0.16727	0.18045	0.057111	0.21838	0.023005	0.2193	0.13792	0.27151	-0.7375	-0.19375	-0.61667	-1.0354	-0.097917	-0.93333	-0.73125	-0.20833	-1.0479	-0.28333	-0.8125	-0.86875	-0.16667	-0.9625	-0.6875	-0.42917	262.146	246.897	228.470	283.355	159.208	296.719	332.192	342.553	320.139	322.166	83.100	235.829	258.249	350.003	297.686	84.169	0.00019894	0.00049068	0.00018646	553.1	5.2665e-06	6.632e-06	1043.6	130.68	6.6453e-06	6.6573e-06	254.85	104.14	33.723	15.167	3.8e-06	37.734	0.00017996	0.00017262	4.8305e-05	457.5	1.9219e-06	1.9355e-06	856.54	110.24	1.9571e-06	1.9225e-06	208.08	86.417	28.776	12.865	1.9344e-06	30.922	143.144	55.378	86.704	16.742	106.289	42.245	14.818	19.750	96.245	191.167	18.664	22.715	24.340	28.861	66.649	28.048	-8191	255	
1889.721	1	1	0	0	0.19814	0.034031	0.10521	0.17485	0.038052	0.27354	0.20423	0.090784	0.4797	0.2341	0.35809	0.31284	0.026562	0.14156	0.038935	0.057742	-0.6875	-0.3	-0.57917	-1.1646	-0.275	-1.0229	-0.8375	-0.13333	-1.0812	-0.30208	-0.58542	-1.1625	-0.27083	-1.0812	-0.7625	-0.32708	173.709	179.927	279.591	233.225	300.386	354.848	256.540	221.737	204.630	122.493	355.396	18.168	52.880	276.842	203.528	196.320	0.00020137	0.00010886	7.3236e-05	554.36	6.5055e-06	1.0645e-06	1038.9	131.75	1.6583e-06	4.3053e-06	255.57	104.9	33.781	15.03	9.6122e-07	38.062	0.00017188	0.00017889	4.869e-05	457.59	1.9134e-06	1.9213e-06	853.43	110.53	1.9229e-06	1.9441e-06	208.83	86.601	28.743	12.67	1.946e-06	30.996	130.590	228.550	277.992	16.474	227.252	80.539	15.506	20.675	92.893	55.130	18.481	23.130	24.487	29.651	26.722	28.006	-8191	255	
1889.819	1	1	0	0	0.22834	0.44492	0.061833	0.077948	0.011037	0.060121	0.23478	0.1481	0.19794	0.071559	0.1251	0.26007	0.21373	0.13013	0.18981	0.16038	-0.79792	-0.35208	-0.49792	-1.0042	-0.15625	-1.0521	-0.79167	-0.24167	-1.1146	-0.32708	-0.46667	-1.1125	-0.1625	-0.81875	-0.95625	-0.36875	304.300	179.504	104.065	147.900	66.026	145.061	328.629	190.846	245.289	67.296	40.230	192.363	49.268	225.621	227.420	356.617	0.00010109	0.00090796	5.3175e-05	556.47	4.1306e-06	6.2921e-06	1035.3	132.09	5.9236e-06	3.0421e-06	251.4	105.29	33.308	14.896	3.0547e-06	37.208	0.00017401	0.00017574	4.872e-05	459.36	1.9445e-06	1.9844e-06	855.33	110.37	1.9318e-06	1.9547e-06	205.5	86.632	28.556	12.549	1.9185e-06	30.785	143.253	140.511	5.917	16.608	184.930	33.636	15.646	20.265	69.903	106.286	18.381	23.217	23.792	29.962	31.486	28.155	-8191	255	
1889.938	1	1	0	0	0.11111	0.025573	0.060852	0.18609	0.26267	0.30381	0.3746	0.011399	0.1704	0.036284	0.14876	0.19823	0.21004	0.27034	0.16451	0.33711	-0.56667	-0.35417	-0.45625	-1.0667	-0.24583	-0.71042	-0.91042	0.0083333	-1.0208	-0.44167	-0.29375	-1.1896	-0.29583	-0.59792	-0.97292	-0.38542	146.412	140.555	263.733	313.773	9.245	337.246	288.351	173.974	266.200	15.194	219.343	180.586	318.851	21.180	53.605	326.746	0.00016678	0.00033509	5.1457e-05	558.09	7.706e-06	3.3889e-06	1044.8	131.85	6.7624e-06	4.0529e-06	247.86	105.86	33.502	14.921	8.2295e-06	37.558	0.0001798	0.00017832	5.0216e-05	461.49	1.9478e-06	1.9703e-06	853.49	110.24	1.962e-06	1.9606e-06	202.97	87.018	28.696	12.568	1.9512e-06	31.063	131.154	326.928	59.925	16.961	83.753	103.311	16.068	20.932	126.536	285.049	19.641	23.222	24.950	30.345	192.482	28.871	-8191	255	
1890.009	1	1	0	0	0.17806	0.11404	0.33887	0.076416	0.17815	0.051354	0.26916	0.14262	0.13679	0.17347	0.11934	0.20132	0.057684	0.26959	0.064654	0.27586	-0.56667	-0.67708	-0.24167	-1.1729	-0.25833	-0.52292	-1.1021	-0.022917	-0.97083	-0.59375	-0.32708	-1.0021	-0.45625	-0.44167	-1.275	-0.275	109.909	324.182	295.657	291.260	68.826	178.302	303.206	3.001	224.076	15.179	70.930	29.033	292.669	38.914	286.402	316.819	0.00017271	0.00041033	0.00015512	555.47	4.7105e-06	3.5066e-06	1036.1	131.67	1.9349e-06	1.3505e-06	246.8	105.49	33.897	14.525	2.5635e-06	37.908	0.00017872	0.0001748	4.8482e-05	458.74	1.942e-06	1.9033e-06	853.94	109.74	1.9307e-06	1.901e-06	202.72	87.036	28.562	12.394	1.9177e-06	31.009	160.259	102.092	147.405	17.395	163.463	206.591	16.292	20.957	203.178	87.009	19.303	23.957	25.780	30.507	146.566	27.941	-8191	255	
1890.106	1	1	0	0	0.13439	0.026916	0.27391	0.23072	0.17897	0.14829	0.24335	0.20711	0.2647	0.20004	0.19334	0.33138	0.25909	0.0079703	0.18576	0.071185	-0.53958	-0.96042	-0.2875	-1.0562	-0.5125	-0.43125	-1.4167	-0.2375	-0.76458	-1.0312	-0.095833	-1.0333	-0.70208	-0.3	-1.0146	-0.20208	349.707	45.741	128.172	44.576	340.208	89.545	264.635	311.440	337.738	331.608	250.904	334.109	361.987	240.470	58.990	348.488	0.00011616	0.0010045	9.6555e-05	558.22	4.0875e-06	5.2405e-06	1033.3	130.26	3.3127e-06	3.7406e-07	247.47	105.22	32.909	14.482	2.4428e-06	37.387	0.00017587	0.00017199	4.8572e-05	459.94	1.8774e-06	1.899e-06	850.48	109.23	1.9196e-06	1.8352e-06	202.35	86.877	28.144	12.319	1.8687e-06	30.827	131.263	146.701	139.303	17.115	159.992	139.280	16.490	21.230	62.459	93.197	20.139	23.866	25.922	30.538	162.879	28.780	-8191	255	
1890.226	1	1	0	0	0.20535	0.13796	0.27488	0.1339	0.3214	0.11241	0.30498	0.14651	0.11673	0.091381	0.12618	0.096848	0.27064	0.16627	0.11364	0.27781	-0.2625	-0.82292	-0.24375	-0.82292	-0.64375	-0.42708	-1.2	-0.26458	-0.55833	-1.0688	-0.15	-0.97708	-0.62083	-0.41667	-0.93542	-0.30208	308.096	266.890	135.693	362.057	26.327	91.362	332.330	65.848	319.841	252.678	74.172	39.037	119.980	219.092	216.101	245.107	0.00017046	0.00071771	0.00011385	558.88	4.7316e-06	1.4522e-06	1031.1	130.78	2.5753e-06	5.6139e-06	248.5	103.59	33.289	14.44	3.285e-06	37.082	0.00017514	0.00017001	4.7771e-05	457.44	1.8473e-06	1.847e-06	849.84	109.65	1.8596e-06	1.8861e-06	202.09	85.897	28.202	12.282	1.904e-06	30.468	118.404	101.739	10.264	17.551	192.602	104.322	16.819	21.521	229.376	44.660	19.099	24.589	25.406	30.516	329.743	28.828	-8191	255	
1890.322	1	1	0	0	0.16984	0.27301	0.17368	0.18284	0.10982	0.12333	0.31563	0.44077	0.12257	0.1686	0.089958	0.19813	0.12042	0.25513	0.28976	0.17528	-0.11458	-0.96458	-0.11458	-1.0271	-0.6875	-0.28125	-1.1625	-0.40208	-0.3625	-1.0417	-0.15	-0.68958	-0.9375	-0.23958	-1.0792	-0.4875	49.166	111.188	117.014	234.813	361.256	143.560	264.864	356.711	61.603	208.256	98.655	285.008	360.321	182.444	242.263	314.295	0.00014515	0.0003483	8.4423e-05	552.98	4.8813e-06	4.7773e-06	1033.5	130.35	3.3225e-06	8.232e-06	248.03	104.7	32.571	14.845	6.3298e-06	37.422	0.00017181	0.00017093	4.8703e-05	458.54	1.867e-06	1.8703e-06	849.46	109.62	1.9008e-06	1.8971e-06	203.15	86.398	28.204	12.48	1.874e-06	30.874	142.510	331.063	114.610	17.899	130.919	95.952	16.877	21.325	255.138	154.753	20.124	24.167	25.781	31.096	80.651	28.665	-8191	255	
1890.419	1	1	0	0	0.14936	0.20337	0.24736	0.41133	0.15523	0.11552	0.3123	0.10349	0.16476	0.18547	0.24798	0.16496	0.1716	0.22536	0.25816	0.14812	0.10625	-0.95	-0.24583	-0.68125	-0.94792	-0.24167	-1.1437	-0.55833	-0.20417	-0.98333	-0.15208	-0.62083	-0.94375	-0.40417	-1.0542	-0.83958	322.139	225.973	9.071	324.358	157.681	105.979	261.538	153.282	329.860	340.469	284.715	204.498	339.954	86.951	333.930	7.948	0.00015765	0.00038308	0.00013659	551.17	6.2189e-06	2.1282e-06	1035.3	130.89	1.7324e-06	2.4697e-06	248.23	105.63	33.573	14.936	4.1792e-06	38.009	0.00017648	0.00016764	4.8603e-05	456.71	1.9168e-06	1.9029e-06	850.94	110.16	1.9522e-06	1.9257e-06	202.81	87.206	28.486	12.554	1.9237e-06	31.066	124.402	109.347	94.834	17.879	216.822	164.331	16.839	21.534	229.663	66.561	19.680	24.210	26.119	30.680	149.145	28.836	-8191	255	
1890.515	1	1	0	0	0.020399	0.072596	0.28071	0.086586	0.099066	0.20386	0.18252	0.20663	0.13331	0.23285	0.2102	0.25891	0.1786	0.30164	0.076141	0.1339	0.16042	-1.1667	-0.08125	-0.66042	-0.89167	-0.19583	-1.1437	-0.60208	-0.31667	-0.96667	-0.45417	-0.49375	-0.92708	-0.18125	-0.8125	-0.81042	293.673	179.392	86.183	119.771	18.948	34.340	15.265	5.092	132.052	304.892	267.572	327.182	308.954	85.368	48.762	336.468	0.0001826	0.00012192	0.00014023	545.16	4.2204e-06	3.1432e-06	1036.5	131.84	2.9124e-06	1.7455e-06	247.75	107.2	33.798	14.906	2.5717e-06	38.408	0.00017922	0.00017281	4.8221e-05	453.6	1.9044e-06	1.9311e-06	850.91	109.94	1.929e-06	1.8957e-06	204.55	87.912	28.698	12.515	1.9242e-06	31.339	135.397	321.132	345.245	17.876	83.358	200.750	16.950	20.935	137.503	116.546	20.548	24.856	25.912	30.819	176.008	29.137	-8191	255	
1890.611	1	1	0	0	0.014655	0.1316	0.18302	0.25719	0.16572	0.10442	0.0993	0.27312	0.21675	0.1034	0.2308	0.41906	0.23158	0.16028	0.21781	0.14954	0.22292	-1.0688	-0.31667	-0.43333	-1.0208	-0.23958	-0.87292	-0.78333	-0.39167	-1.1042	-0.59583	-0.29792	-1.0125	-0.17292	-0.66667	-1.0083	234.102	361.009	250.763	86.421	106.060	75.392	322.686	291.591	272.479	69.746	322.068	337.989	354.206	258.397	53.518	23.547	0.00013473	0.00054366	0.00033706	550.41	2.3507e-06	2.3334e-06	1047.2	132.35	4.7561e-06	7.5292e-06	247.33	105.53	33.336	14.461	5.8807e-06	37.343	0.00017719	0.00017452	4.8022e-05	456.11	1.8854e-06	1.8913e-06	854.1	110.06	1.9138e-06	1.8432e-06	203.01	86.906	28.411	12.392	1.8922e-06	30.664	109.861	182.260	101.256	17.828	174.017	336.087	17.153	21.375	197.383	108.422	18.897	22.785	25.467	29.321	251.571	28.568	-8191	255	
1890.705	1	1	0	0	0.18343	0.1222	0.11326	0.18216	0.1689	0.16631	0.31078	0.2182	0.13313	0.12771	0.19204	0.21347	0.055908	0.3145	0.22967	0.1376	0.097917	-0.95	-0.5625	-0.23958	-1.0562	-0.22708	-0.725	-0.85625	-0.21875	-0.89583	-0.82917	-0.37708	-1.1229	-0.48333	-0.55	-1.0896	254.526	346.966	178.343	268.310	230.580	21.790	313.636	308.878	117.746	187.392	207.446	86.713	349.509	34.545	80.404	109.638	0.00018368	0.00060916	0.00020565	548.17	4.8402e-06	1.1531e-06	1043	132.14	4.4502e-06	1.0725e-05	249.66	104.42	32.93	14.608	3.4871e-06	38.138	0.00017735	0.00017225	4.8058e-05	454.99	1.8551e-06	1.8948e-06	852.37	110.1	1.8897e-06	1.8624e-06	205.01	86.497	28.279	12.403	1.9009e-06	30.944	101.938	331.499	126.418	16.768	67.471	116.289	16.019	21.067	276.312	159.652	19.926	24.216	25.273	29.335	228.978	28.609	-8191	255	
1890.801	1	1	0	0	0.14683	0.13953	0.14025	0.18882	0.056861	0.32791	0.13728	0.1658	0.25649	0.11929	0.25988	0.37034	0.036845	0.15286	0.16414	0.13517	0.41667	-0.83125	-0.66875	-0.060417	-1.0625	-0.37917	-0.63125	-1.1667	-0.11042	-0.73333	-0.88125	-0.26667	-1.2396	-0.63958	-0.45833	-1.1604	358.386	147.894	154.240	88.931	296.407	134.007	213.657	185.925	258.491	24.844	309.039	348.006	147.232	255.396	286.961	261.834	0.00013179	0.0005853	8.5655e-05	545.19	1.8809e-06	4.2561e-06	1040.7	131.1	2.5763e-06	2.5426e-06	252.42	106.15	33.869	14.93	5.0898e-06	37.864	0.00017371	0.00017147	4.8894e-05	454.91	1.916e-06	1.9079e-06	855.02	110.18	1.9494e-06	1.8957e-06	206.42	87.467	28.561	12.499	1.9399e-06	31.196	163.998	84.349	322.311	17.147	105.875	159.073	16.961	20.833	157.792	33.780	19.729	23.997	25.671	30.671	135.694	28.954	-8191	255	
1890.899	1	1	0	0	0.22546	0.29197	0.20187	0.19179	0.13861	0.31869	0.29708	0.29276	0.38008	0.39015	0.15567	0.22541	0.25733	0.19109	0.36957	0.13949	0.2375	-0.75625	-1.0042	-0.2375	-1.1083	-0.66042	-0.42708	-1.2208	-0.32917	-0.93125	-1.1625	-0.20208	-0.9125	-0.3875	-0.275	-1.2521	92.185	140.578	139.117	89.720	170.037	311.548	13.845	13.947	220.688	152.576	284.868	286.044	265.057	216.312	224.308	271.983	0.00023194	0.00042346	0.00015775	553.8	3.9594e-06	3.8386e-06	1037.1	130.55	6.5347e-06	1.0583e-05	250.66	107.33	33.583	14.87	8.0679e-06	38.462	0.00017126	0.00017443	4.6723e-05	457.54	1.8715e-06	1.8709e-06	852.21	109.96	1.9228e-06	1.9077e-06	205.58	88.213	28.636	12.567	1.9326e-06	31.527	127.443	161.787	88.968	16.633	159.676	103.561	15.942	21.171	143.092	136.820	20.528	24.611	25.676	30.687	213.400	28.446	-8191	255	
1891.018	1	1	0	0	0.38877	0.033681	0.030889	0.0049154	0.10693	0.053641	0.37027	0.092115	0.16323	0.11309	0.17164	0.025792	0.059622	0.091108	0.21623	0.14807	0.125	-0.56042	-0.91458	-0.41458	-0.87917	-0.69792	-0.36042	-1.1396	-0.41667	-0.72708	-0.83125	-0.30208	-0.90833	-0.7875	-0.17708	-0.96667	303.553	154.175	97.396	292.810	7.678	227.805	253.847	286.446	228.032	64.781	286.840	38.693	262.455	13.274	82.263	215.527	0.00022161	0.00039291	0.00010866	551.27	1.3653e-06	3.6045e-06	1044.3	132.32	3.2359e-06	3.5583e-06	251.24	106.14	33.622	14.665	1.9213e-06	37.794	0.00017495	0.00017403	4.8757e-05	456.11	1.8845e-06	1.9276e-06	855.37	110.71	1.907e-06	1.9163e-06	205.95	87.514	28.522	12.42	1.9105e-06	31.152	143.539	145.800	331.734	17.259	102.897	197.501	16.933	21.698	155.691	179.178	20.261	24.007	26.201	30.934	241.804	28.727	-8191	255	
1891.114	1	1	0	0	0.29147	0.16122	0.13303	0.35103	0.1574	0.1244	0.097005	0.077455	0.19423	0.10585	0.38013	0.32169	0.14955	0.18088	0.28232	0.26828	-0.13958	-0.61042	-1.1958	-0.44792	-0.83542	-0.725	-0.45625	-0.98333	-0.35208	-0.53542	-1.0646	-0.27708	-0.91042	-0.9125	-0.09375	-1.0354	344.421	223.279	102.731	341.651	360.219	71.476	258.918	259.065	71.030	350.146	281.181	4.888	65.956	216.705	346.355	212.879	0.00010534	0.00027287	0.0002903	548.65	3.3218e-06	3.5134e-06	1039.4	131	2.866e-06	5.5492e-06	249.38	104.45	32.777	14.334	3.3667e-06	37.838	0.00017382	0.00017166	4.8991e-05	456.5	1.8867e-06	1.8719e-06	852.56	110.25	1.9036e-06	1.9015e-06	203.73	86.545	28.147	12.227	1.9286e-06	31.036	132.205	84.173	60.051	18.390	203.334	142.106	17.650	21.696	162.205	114.063	19.860	24.627	25.876	30.519	81.034	29.912	-8191	255	
1891.210	1	1	0	0	0.079243	0.3047	0.075644	0.19141	0.23588	0.27387	0.2355	0.2464	0.21292	0.17464	0.11449	0.12345	0.13739	0.028305	0.26508	0.11222	-0.13958	-0.46667	-1.1354	-0.36667	-0.63333	-0.97083	-0.55	-0.94375	-0.80417	-0.44583	-1.0479	-0.44167	-0.51667	-1.0063	0.085417	-0.85833	337.201	12.823	291.611	208.905	80.490	353.467	11.718	13.902	56.458	149.208	240.548	224.447	47.637	67.650	206.411	321.698	0.00027961	0.00029641	0.00012936	546.85	2.484e-06	3.4005e-06	1042.2	131.07	3.5742e-06	3.2086e-06	248.95	105.52	33.304	14.4	3.5435e-06	37.758	0.00017629	0.0001755	4.8423e-05	454.7	1.9081e-06	1.8658e-06	853.13	109.68	1.9122e-06	1.8838e-06	203.6	86.506	28.2	12.182	1.885e-06	30.966	137.977	170.548	120.069	17.760	109.702	150.412	16.898	21.764	18.317	69.167	20.966	24.109	24.459	30.496	99.802	28.312	-8191	255	
1891.307	1	1	0	0	0.21945	0.18719	0.029293	0.27676	0.083137	0.27722	0.29957	0.096368	0.30976	0.29745	0.11043	0.097318	0.39003	0.17315	0.34315	0.24859	-0.26875	-0.30417	-1.0729	-0.51875	-0.4875	-1.1625	-0.3375	-0.8875	-0.7	-0.1625	-1.1396	-0.5	-0.56667	-0.95	-0.45208	-0.96458	6.868	50.144	247.958	55.001	100.478	193.475	265.703	302.335	84.881	66.846	130.847	301.264	17.001	260.750	361.284	196.511	0.00017572	0.00054163	0.0001226	549.95	6.5553e-06	5.6366e-06	1036.1	131.48	3.9021e-06	3.6961e-06	247.97	105.2	32.38	14.116	4.8522e-06	37.46	0.00017512	0.00016667	4.6597e-05	455.66	1.8771e-06	1.8357e-06	850.84	109.55	1.8293e-06	1.8827e-06	203.08	86.213	27.891	12.1	1.8782e-06	30.838	131.717	186.457	139.919	17.042	188.534	142.581	16.457	21.535	159.585	198.837	19.519	23.909	25.382	29.621	139.753	28.419	-8191	255	
1891.403	1	1	0	0	0.12187	0.073306	0.22708	0.26568	0.079407	0.36022	0.18248	0.17171	0.14901	0.056234	0.103	0.15435	0.064372	0.098275	0.36853	0.010878	-0.53958	-0.175	-0.99792	-0.49583	-0.49583	-1.3083	-0.16875	-0.79583	-0.8375	-0.225	-1.2667	-0.46667	-0.27708	-1.0063	-0.32708	-0.925	199.240	349.135	361.617	17.715	252.607	212.304	21.007	171.082	24.354	274.093	44.415	318.100	273.456	80.302	162.874	70.555	0.00020007	0.00057975	0.00012583	550.29	1.3864e-06	8.1913e-06	1029.9	131.24	4.2982e-06	4.254e-06	248.17	103.18	32.635	14.08	2.1027e-06	36.985	0.00017086	0.00016866	4.688e-05	453.96	1.8851e-06	1.8714e-06	847.78	110.03	1.8463e-06	1.8355e-06	202.66	85.224	27.757	11.972	1.8096e-06	30.218	154.540	172.436	233.182	17.053	302.204	165.893	16.399	21.446	271.238	164.732	19.232	23.273	25.917	29.684	179.587	28.471	-8191	255	
1891.499	1	1	0	0	0.2228	0.22598	0.10246	0.046732	0.28041	0.16827	0.050604	0.16513	0.10224	0.19142	0.23393	0.41565	0.1549	0.11998	0.30506	0.25219	-0.68542	-0.1875	-0.95833	-0.72917	-0.15208	-1.1583	-0.35208	-0.4875	-0.94167	-0.052083	-1.0479	-0.7125	-0.29792	-1.0958	-0.37083	-0.53333	297.874	121.847	294.020	331.124	84.254	222.411	311.124	354.124	121.201	248.977	286.654	308.313	111.704	174.704	59.714	320.501	4.7306e-05	0.00034723	9.9129e-05	552.15	4.9631e-06	6.8799e-06	1030.6	130.12	3.6638e-06	2.6224e-06	245.59	103.25	31.99	14.012	2.1382e-06	36.612	0.00016706	0.00016838	4.7537e-05	455.19	1.8517e-06	1.8171e-06	846.37	109.09	1.7864e-06	1.7796e-06	201.31	84.486	27.498	11.842	1.8143e-06	29.963	137.130	206.293	78.494	17.417	87.039	108.751	16.082	21.118	244.064	5.613	19.503	23.240	24.914	30.338	128.892	28.132	-8191	255	
1891.620	1	1	0	0	0.089939	0.093789	0.11358	0.12133	0.050746	0.1695	0.090459	0.12991	0.040516	0.05672	0.24801	0.1668	0.086714	0.25634	0.096573	0.30107	-0.59792	-0.31875	-0.82083	-0.87292	-0.025	-0.86667	-0.64375	-0.43333	-1.1875	-0.28125	-0.81875	-0.95417	-0.091667	-1.1625	-0.49375	-0.36458	340.553	233.782	148.655	108.552	121.809	310.148	252.879	147.433	117.177	195.073	353.247	280.667	61.378	20.108	76.640	32.240	0.00020448	0.00032257	0.00019271	548.59	3.2514e-06	3.7789e-06	1023.4	130.19	1.8992e-06	3.879e-06	246.89	102.89	31.95	14.176	2.5918e-06	36.229	0.00016856	0.00016351	4.7803e-05	450.55	1.7597e-06	1.7813e-06	840.36	108.26	1.8204e-06	1.7919e-06	201.57	84.32	27.368	11.899	1.8226e-06	29.804	127.615	128.022	80.314	17.422	316.844	214.336	16.272	20.726	40.426	64.829	18.915	23.688	26.010	30.202	240.419	29.143	-8191	255	
1891.716	1	1	0	0	0.27462	0.29322	0.11546	0.25861	0.2187	0.16342	0.10913	0.31889	0.077712	0.18653	0.21061	0.22209	0.11132	0.1905	0.26946	0.1608	-0.69375	-0.20833	-0.62083	-1.0896	-0.20833	-1.125	-0.7875	-0.33958	-1.2458	-0.34583	-0.63125	-1.2083	-0.17292	-0.97917	-0.86042	-0.35833	64.743	219.737	209.492	344.066	140.837	214.700	26.434	17.022	317.188	157.756	28.621	344.003	213.588	98.334	61.363	350.011	0.00010133	0.0001388	8.9849e-05	543.27	3.9049e-06	2.911e-06	1021.8	129.5	1.5426e-06	3.5767e-06	250.47	101.52	31.915	14.057	8.4853e-06	36.058	0.00016585	0.00016095	4.5864e-05	448.31	1.7917e-06	1.7332e-06	837.19	108.42	1.7401e-06	1.8313e-06	203.28	83.954	27.203	11.838	1.7421e-06	29.588	104.011	206.313	86.763	17.447	312.382	192.841	16.424	20.871	232.558	350.261	19.603	23.615	25.090	29.031	193.607	28.348	-8191	255	
1891.810	1	1	0	0	0.18805	0.2124	0.16469	0.22127	0.19707	0.095455	0.35574	0.22525	0.16871	0.20176	0.16326	0.22653	0.024525	0.070021	0.16971	0.16044	-0.69583	-0.33333	-0.64583	-1.0979	-0.24167	-0.82292	-0.83333	-0.32292	-1.0896	-0.49583	-0.49583	-1.1979	-0.091667	-0.92083	-0.75625	-0.15833	223.394	132.248	165.189	176.960	208.438	93.108	351.936	269.955	181.310	162.164	7.625	197.499	43.426	146.699	13.400	219.295	0.00021372	0.00012708	0.00013592	536.91	2.7433e-06	5.4175e-06	1016.9	128.99	2.0501e-06	1.6839e-06	250.89	102.73	31.194	13.926	2.6138e-06	34.913	0.00016391	0.00015835	4.4808e-05	442.72	1.7826e-06	1.7526e-06	836.83	108.13	1.7864e-06	1.772e-06	203.96	83.486	26.85	11.715	1.7371e-06	28.642	120.742	3.668	53.651	17.957	35.544	85.939	16.346	21.178	191.664	220.875	19.603	24.054	25.998	30.830	180.837	28.904	-8191	255	
1891.906	1	1	0	0	0.17888	0.19411	0.10957	0.17573	0.21806	0.16255	0.24749	0.23058	0.059792	0.12334	0.070503	0.23985	0.1436	0.074424	0.2635	0.024103	-0.68125	-0.36042	-0.48333	-1.1375	-0.1875	-0.65417	-0.89167	0.029167	-0.88958	-0.50417	-0.44167	-1.0583	-0.3	-0.825	-0.925	-0.40208	357.129	142.130	288.146	331.612	208.666	132.327	261.341	298.203	217.259	226.604	258.952	247.224	22.134	287.872	262.031	224.565	0.00019389	0.00014382	1.5313e-05	533.01	8.8052e-07	3.9539e-06	1012.8	129.57	6.8562e-06	2.1463e-06	250.16	99.733	31.213	13.752	4.2765e-06	34.242	0.00015829	0.00015557	4.3979e-05	441	1.7727e-06	1.7325e-06	832.61	107.84	1.686e-06	1.7799e-06	204.6	82.442	26.541	11.593	1.7188e-06	28.246	119.385	329.025	13.864	17.448	158.804	147.688	16.269	21.214	168.917	114.867	19.872	23.516	25.708	30.340	65.884	28.211	-8191	255	
1892.002	1	1	0	0	0.18684	0.26155	0.15872	0.19418	0.20019	0.040977	0.15854	0.073082	0.070055	0.35642	0.28265	0.33307	0.31486	0.043406	0.16305	0.17766	-0.51667	-0.59375	-0.28542	-1.225	-0.32083	-0.57708	-1.2563	-0.033333	-0.7875	-0.59375	-0.33958	-0.93542	-0.14167	-0.49375	-1.3458	-0.1625	257.822	346.105	10.064	292.818	185.670	137.756	287.652	214.322	349.999	333.638	277.350	292.168	142.079	24.436	90.390	282.916	0.00015153	0.00089048	0.0001663	525.11	2.5104e-06	2.9231e-06	1005.4	129.46	4.7014e-06	2.4653e-06	257.23	100.58	30.929	13.674	1.5349e-07	34.627	0.00016083	0.00015129	4.2816e-05	433.14	1.6584e-06	1.6884e-06	825.84	108.19	1.6837e-06	1.6897e-06	208.41	82.538	26.272	11.579	1.7075e-06	28.292	124.096	157.377	21.308	17.453	51.927	230.859	16.391	22.152	47.066	13.901	19.504	23.642	24.849	29.607	299.949	28.501	-8191	255	
1892.099	1	1	0	0	0.10309	0.11742	0.24254	0.12673	0.24848	0.14	0.43273	0.24901	0.14496	0.12667	0.26938	0.44397	0.35676	0.18215	0.31553	0.074914	-0.63125	-0.83125	-0.17292	-1.1688	-0.56667	-0.41875	-1.5896	-0.070833	-0.78333	-0.81042	-0.2	-1.2458	-0.39792	-0.26667	-0.96667	-0.32083	361.259	72.779	74.297	104.598	96.791	302.428	271.549	194.396	144.123	33.658	91.755	302.134	322.120	95.008	326.268	157.681	0.00014085	2.7292e-05	0.00010634	519.17	6.4684e-06	2.9818e-06	1004.9	130.12	1.5647e-06	5.574e-06	258.22	100.08	30.563	13.792	6.174e-06	34.29	0.00015448	0.00015514	4.3037e-05	429.91	1.7079e-06	1.7205e-06	825.44	108.58	1.7176e-06	1.6942e-06	209.01	82.293	26.074	11.61	1.6823e-06	28.064	152.080	102.169	116.173	17.769	122.196	260.981	16.551	20.736	127.289	128.872	18.714	23.087	24.762	29.240	177.570	27.221	-8191	255	
1892.195	1	1	0	0	0.14585	0.17182	0.11227	0.15314	0.14182	0.15217	0.21898	0.031832	0.12453	0.31042	0.19105	0.39562	0.027679	0.2745	0.16162	0.24218	-0.46667	-0.86042	-0.15	-1.0271	-0.67708	-0.25417	-1.1417	-0.42292	-0.51875	-1.1125	-0.14167	-0.9125	-0.76458	-0.27708	-0.9875	-0.46458	184.696	296.085	121.244	162.621	66.829	64.652	263.786	135.995	291.673	111.200	165.898	353.688	175.625	356.246	133.678	359.072	8.7387e-05	0.00037684	0.00020128	522.78	6.4163e-06	4.0003e-06	1007.6	130.33	1.0548e-06	6.1292e-06	257.03	99.725	30.583	13.561	1.7431e-06	33.401	0.00015842	0.00015498	4.2312e-05	428.98	1.7296e-06	1.7152e-06	828.99	107.64	1.7105e-06	1.6734e-06	209.6	82.115	25.869	11.591	1.7018e-06	27.482	97.838	196.128	58.120	16.992	253.514	151.857	16.024	20.928	164.945	66.789	18.998	23.107	24.954	29.631	235.619	27.774	-8191	255	
1892.315	1	1	0	0	0.25795	0.1579	0.22889	0.19168	0.16571	0.049855	0.28312	0.29653	0.094451	0.24959	0.16993	0.31507	0.12851	0.1792	0.1967	0.14553	-0.2	-0.97292	-0.24375	-0.86875	-0.73542	-0.30417	-1.2708	-0.57708	-0.45833	-1.0104	-0.18958	-0.84583	-0.71875	-0.40625	-1.0104	-0.62708	194.408	182.213	160.478	202.638	293.827	56.286	226.243	211.606	29.957	199.102	221.663	32.766	342.891	99.600	170.350	259.147	0.00014404	0.00060726	0.00014689	519.68	4.9087e-06	1.9258e-06	1011.2	127	2.3682e-06	1.9854e-06	256.85	99.28	29.916	13.856	7.2589e-06	33.603	0.0001592	0.00015623	4.3283e-05	429.9	1.7018e-06	1.6863e-06	829.08	106.64	1.7549e-06	1.7272e-06	208.18	81.321	25.696	11.643	1.7274e-06	27.633	134.429	68.782	106.458	17.518	180.413	347.075	16.111	20.906	85.151	289.559	18.580	23.278	24.928	29.880	204.782	28.174	-8191	255	
1892.411	1	1	0	0	0.18826	0.15866	0.080879	0.17639	0.2512	0.13033	0.29593	0.1813	0.14643	0.13102	0.2571	0.18746	0.27221	0.17544	0.20387	0.28402	-0.1875	-1.1458	-0.16667	-0.90417	-0.82708	-0.20833	-1.3542	-0.69375	-0.23333	-1.2458	-0.3125	-0.76042	-0.94375	-0.09375	-0.94167	-0.72917	313.651	39.656	239.388	310.919	152.440	341.830	29.766	254.680	108.006	20.599	354.405	127.725	315.935	36.071	26.165	322.724	0.00021307	0.00068334	0.00018257	523.45	1.176e-06	4.6454e-06	1017.8	127.49	3.2648e-06	4.1336e-06	255.31	99.359	30.451	14.012	6.6303e-07	34.213	0.00016434	0.00016134	4.4406e-05	433.62	1.7699e-06	1.7502e-06	836.17	107.26	1.728e-06	1.7838e-06	208.67	82.207	25.945	11.805	1.801e-06	28.174	147.946	62.993	344.737	17.234	104.516	190.172	16.165	21.373	191.349	246.901	18.590	23.317	24.408	29.651	34.558	27.568	-8191	255	
1892.483	1	1	0	0	0.14742	0.15589	0.20685	0.12089	0.084528	0.035693	0.26139	0.15067	0.3706	0.27158	0.31231	0.055461	0.24372	0.19558	0.10972	0.12949	0.26667	-1.0438	-0.21875	-0.62083	-0.99583	-0.15417	-1.0479	-0.65208	-0.22292	-1.25	-0.32708	-0.53333	-1.075	-0.18958	-0.9875	-0.73958	9.007	121.574	331.627	305.382	117.813	352.316	341.030	227.846	135.102	63.048	16.008	202.298	207.187	351.849	122.287	287.317	0.00015428	0.0005717	0.00014324	530.15	3.1878e-07	8.3076e-06	1022.2	129.19	2.8809e-06	8.3253e-06	256.85	101.68	30.969	14.298	1.3613e-06	35.284	0.00016543	0.00016146	4.5381e-05	439.23	1.7903e-06	1.8075e-06	842.77	108.33	1.8035e-06	1.7525e-06	208.63	83.883	26.351	11.981	1.8602e-06	29.071	145.794	69.443	140.462	17.173	152.239	167.336	15.721	21.434	90.492	202.249	18.808	23.628	25.231	29.135	181.824	28.229	-8191	255	
1892.579	1	1	0	0	0.25502	0.14159	0.1005	0.17146	0.2684	0.34783	0.13683	0.076269	0.3417	0.22718	0.010831	0.18997	0.058692	0.15129	0.099778	0.22911	0.19792	-0.99583	-0.41458	-0.40625	-1.0083	-0.047917	-0.87083	-0.72083	-0.10833	-1.0875	-0.40208	-0.35208	-1.0333	-0.29167	-0.825	-0.89375	59.613	139.066	343.852	333.173	174.098	15.715	245.343	74.837	224.511	126.081	173.108	277.428	337.948	319.284	334.254	341.237	0.00012066	0.00056193	0.00015707	541.25	1.1245e-06	3.5747e-06	1043.2	128.52	4.0443e-06	6.3689e-06	252.91	101.97	31.345	14.243	4.2992e-06	35.495	0.00016617	0.00016376	4.6913e-05	450.18	1.8418e-06	1.8567e-06	854.78	108.32	1.8929e-06	1.8494e-06	206.23	84.198	26.726	11.998	1.9063e-06	29.133	149.006	158.927	161.513	17.117	168.001	208.017	16.103	20.736	117.413	152.561	18.334	23.064	24.728	29.730	220.753	27.985	-8191	255	
1892.698	1	1	0	0	0.031116	0.35784	0.19747	0.026187	0.075361	0.12243	0.20944	0.28467	0.33525	0.11005	0.12627	0.42328	0.21661	0.096261	0.1585	0.030804	0.1875	-0.91042	-0.34167	-0.3625	-1.1521	-0.085417	-0.93125	-1.1354	-0.06875	-0.925	-0.59167	-0.30208	-1.1812	-0.38333	-0.79583	-0.89167	335.704	199.860	113.471	292.999	150.433	84.129	289.492	213.626	134.026	246.929	223.713	291.028	101.302	229.231	163.919	281.424	0.00017943	0.00036568	0.0002036	549.38	2.9178e-06	1.327e-06	1031.2	130.05	2.8813e-06	4.5106e-06	248.19	101.25	31.472	13.97	2.5684e-06	35.262	0.000173	0.00016671	4.7091e-05	455.22	1.7942e-06	1.8408e-06	848.58	108.33	1.8205e-06	1.858e-06	203.51	83.343	26.736	11.872	1.8587e-06	28.952	122.899	166.710	66.871	17.006	335.172	84.646	15.869	21.004	138.134	204.657	19.178	23.087	24.690	29.574	348.278	27.685	-8191	255	
1892.794	1	1	0	0	0.20209	0.37917	0.27516	0.045471	0.14471	0.097219	0.25154	0.1542	0.20935	0.24265	0.19448	0.09889	0.33597	0.01517	0.062233	0.030512	0.15833	-0.70417	-0.54167	-0.35833	-1.0312	-0.51458	-0.58958	-1.1396	-0.25833	-1.025	-0.74792	-0.37083	-1.25	-0.43542	-0.47708	-0.97292	40.263	264.579	339.720	53.317	39.039	127.201	51.838	357.838	64.158	26.008	274.328	261.608	356.461	345.103	63.949	237.507	0.00012978	0.00018254	0.00018785	547.91	2.3616e-06	5.2686e-06	1029	127.59	3.3851e-06	9.1563e-06	249.38	101.47	31.081	14.054	1.8477e-06	35.694	0.00017329	0.00017204	4.7394e-05	453.61	1.8765e-06	1.8348e-06	848	107.34	1.9087e-06	1.8812e-06	203.14	83.781	26.802	11.955	1.8424e-06	29.35	129.195	291.315	11.216	17.306	128.615	263.142	15.606	20.590	246.433	99.560	18.631	23.206	25.065	28.979	40.486	27.960	-8191	255	
1892.890	1	1	0	0	0.054785	0.24561	0.22914	0.11021	0.067188	0.26158	0.18952	0.23842	0.14057	0.16093	0.38332	0.3377	0.26631	0.28807	0.27021	0.14258	0.23542	-0.80833	-0.61042	-0.31875	-0.83125	-0.3875	-0.4125	-1.2021	-0.34583	-0.75208	-1.0208	-0.27917	-1.0708	-0.37917	-0.24583	-1.2062	222.416	330.795	263.368	315.227	160.847	142.730	64.741	134.197	61.333	255.292	61.322	311.971	286.722	345.790	341.860	222.815	0.00014623	0.00052966	8.0899e-05	547.21	2.7981e-06	2.3369e-06	1034.4	127.61	3.5311e-07	5.6389e-06	250.02	102.47	31.441	13.952	3.1709e-06	36.058	0.00016861	0.00016323	4.7984e-05	453.16	1.8149e-06	1.8506e-06	850.2	107.63	1.8523e-06	1.8709e-06	203.73	84.173	26.904	11.896	1.8708e-06	29.562	151.959	331.035	151.586	16.978	340.429	166.409	16.100	21.133	92.947	135.050	19.191	23.212	24.868	29.419	160.937	28.369	-8191	255	
1892.987	1	1	0	0	0.082747	0.063757	0.24734	0.053789	0.072386	0.13653	0.2758	0.20531	0.26073	0.14506	0.13237	0.10728	0.18296	0.045248	0.041814	0.21832	-0.014583	-0.775	-0.9375	-0.19792	-1.0167	-0.82917	-0.5	-1.1771	-0.1875	-0.75	-1.1292	-0.34583	-1.0187	-0.6375	-0.11042	-1.4167	78.840	191.027	58.612	97.593	282.442	269.043	331.167	240.015	240.186	212.724	85.392	340.780	175.705	92.702	33.811	69.821	0.00016787	0.00038924	0.00010676	549.43	4.9182e-06	4.2221e-06	1031.5	128.67	3.4161e-06	8.4585e-06	248.07	102.7	31.348	14.097	3.717e-06	35.668	0.0001735	0.00017146	4.5465e-05	453.28	1.8576e-06	1.8666e-06	848.78	107.67	1.8641e-06	1.8764e-06	203.27	83.964	26.779	11.954	1.9119e-06	29.317	110.617	231.068	143.717	16.609	124.476	84.863	15.887	20.735	212.571	119.517	19.008	23.313	24.451	28.705	316.820	27.482	-8191	255	
1893.107	1	1	0	0	0.27476	0.060969	0.38538	0.2703	0.051114	0.15292	0.22039	0.16268	0.14788	0.20075	0.28225	0.27627	0.28946	0.1583	0.16946	0.092102	-0.17292	-0.59792	-1.1187	-0.31042	-0.89792	-1.0146	-0.58125	-1.2042	-0.4125	-0.5875	-1.3292	-0.19792	-0.91042	-0.79792	-0.16667	-1.1063	256.114	362.112	243.421	18.199	200.157	38.590	319.607	225.173	147.116	76.066	320.944	216.817	254.613	217.066	290.564	54.432	0.00019326	0.0013222	0.00012995	544.16	5.565e-06	3.9304e-06	1032.5	127.48	8.1881e-07	2.1874e-06	249.9	100.15	31.046	14.084	3.7311e-06	35.845	0.0001721	0.00016991	4.6787e-05	452.36	1.8589e-06	1.8357e-06	848.77	107.44	1.8535e-06	1.9017e-06	202.77	82.614	26.508	11.847	1.8289e-06	29.142	133.969	115.102	19.632	16.231	95.266	163.856	15.964	20.524	165.149	218.362	18.828	22.934	25.345	29.285	164.229	27.733	-8191	255	
1893.179	1	1	0	0	0.20713	0.30009	0.15247	0.071884	0.21266	0.15448	0.40697	0.14431	0.091449	0.20956	0.22974	0.10828	0.17265	0.097393	0.23751	0.10252	0.03125	-0.43125	-1.0792	-0.31667	-0.75833	-0.975	-0.22917	-1.1208	-0.62083	-0.33333	-1.2854	-0.34167	-0.68333	-1.0667	-0.26875	-1.2708	351.595	257.167	131.249	148.472	312.640	297.618	317.823	299.660	170.451	235.468	324.055	45.190	262.972	188.165	44.897	125.786	0.00015979	0.00046442	0.00023675	546.03	3.2708e-06	3.3698e-06	1028.1	128.76	3.3003e-06	3.8904e-06	248.17	101.11	31.035	13.795	2.0104e-06	35.351	0.00017242	0.00017281	4.6963e-05	453.12	1.8649e-06	1.8814e-06	846.98	107.17	1.8922e-06	1.8688e-06	201.83	83.203	26.639	11.844	1.8614e-06	29.281	122.191	348.607	22.891	17.090	276.417	199.070	15.832	20.252	154.848	154.780	18.588	22.910	24.683	29.541	86.835	27.576	-8191	255	
1893.300	1	1	0	0	0.074932	0.078759	0.28414	0.34842	0.064227	0.23452	0.14171	0.15627	0.13948	0.049467	0.24405	0.51109	0.1276	0.081542	0.18025	0.10702	-0.18958	-0.31458	-1.1604	-0.40625	-0.73542	-1.0542	-0.25417	-1.0625	-0.875	-0.37083	-1.2437	-0.44583	-0.54375	-1.0792	-0.05	-0.9375	78.644	103.339	189.131	56.403	219.453	39.593	214.086	34.821	230.541	244.499	40.233	346.275	259.905	52.588	40.436	90.227	0.00016514	0.00020738	9.0487e-05	542.68	5.8865e-06	3.9949e-06	1024.1	127.63	6.3478e-07	1.7511e-06	248.24	101.8	30.974	14.105	4.2577e-06	36.038	0.00017359	0.00016925	4.7749e-05	450.47	1.9033e-06	1.8286e-06	842.83	107.01	1.8732e-06	1.8893e-06	202.19	83.781	26.546	11.961	1.8814e-06	29.465	149.875	303.013	87.148	16.852	190.286	210.047	15.678	20.898	287.759	286.111	18.509	23.045	24.755	28.852	123.105	28.350	-8191	255	
1893.396	1	1	0	0	0.096355	0.14703	0.17191	0.12235	0.2085	0.094371	0.22042	0.24185	0.1637	0.25923	0.042828	0.28112	0.27488	0.17185	0.21001	0.3119	-0.36875	-0.38125	-1.0167	-0.44792	-0.4	-1.1208	-0.32083	-0.81042	-0.71875	-0.22083	-0.95625	-0.64792	-0.54375	-1.1437	-0.3625	-0.96042	276.532	202.037	267.889	172.673	114.768	179.002	215.087	340.328	351.767	87.768	298.275	312.802	56.121	56.654	208.786	221.405	0.00017967	0.00064351	0.00012186	540.3	8.1846e-06	4.8176e-06	1033.7	128.16	2.776e-06	6.5747e-06	244.29	101.51	31.408	13.852	3.013e-06	35.892	0.00017526	0.00017181	4.7668e-05	448.65	1.8712e-06	1.8241e-06	846.37	107.35	1.8898e-06	1.8791e-06	201.06	83.707	26.834	11.836	1.882e-06	29.399	149.238	3.181	127.966	17.022	147.745	83.297	15.617	20.260	166.107	49.311	18.538	22.769	24.506	29.530	224.230	28.067	-8191	255	
1893.492	1	1	0	0	0.12375	0.10446	0.097127	0.14361	0.13381	0.11226	0.11346	0.23328	0.23854	0.11933	0.056521	0.22233	0.15835	0.31824	0.16698	0.20096	-0.58333	-0.14792	-0.89583	-0.66458	-0.19167	-1.2188	-0.58125	-0.79375	-0.925	-0.033333	-1	-0.74375	-0.31667	-1.1417	-0.30208	-0.51458	40.372	282.622	87.705	95.629	63.979	3.660	106.285	252.641	262.096	129.953	124.453	354.410	323.421	299.469	8.933	348.570	9.6721e-05	0.00055828	8.2141e-05	543.52	1.8617e-06	4.1873e-06	1025	127.76	1.7063e-06	2.6369e-06	243	100.93	30.451	13.822	2.9421e-06	34.93	0.00017204	0.00017351	4.8811e-05	451.05	1.8808e-06	1.8328e-06	844.18	106.78	1.8694e-06	1.885e-06	198.83	83.064	26.231	11.774	1.9346e-06	28.891	122.567	129.381	228.528	16.422	100.100	79.794	15.566	20.880	162.326	123.305	18.670	22.995	23.541	29.929	131.360	27.708	-8191	255	
1893.588	1	1	0	0	0.21573	0.2166	0.11253	0.34261	0.086346	0.11637	0.15326	0.20467	0.079384	0.13966	0.039491	0.2807	0.20864	0.13209	0.14123	0.0518	-0.60833	-0.1875	-0.95417	-0.76458	-0.19583	-1.0896	-0.37083	-0.45208	-1.1375	-0.26875	-0.86458	-0.78542	-0.14583	-0.875	-0.39167	-0.61042	348.149	154.506	169.396	32.680	14.178	176.173	122.839	203.446	253.900	45.357	308.659	131.878	342.692	16.062	4.469	159.024	0.00025746	0.00083459	0.00010139	540.62	9.2058e-06	7.0692e-06	1032.9	126.69	1.8474e-06	1.4367e-06	242.19	102.43	31.054	13.935	5.9799e-06	35.419	0.00016916	0.00017551	4.8319e-05	449.58	1.9072e-06	1.8824e-06	847.33	106.28	1.8804e-06	1.88e-06	200.3	83.774	26.53	11.887	1.9038e-06	29.218	153.857	85.135	42.467	16.756	91.406	125.251	15.288	20.302	278.665	144.552	19.160	22.611	24.426	29.757	181.745	27.586	-8191	255	
1893.707	1	1	0	0	0.3133	0.33546	0.15552	0.29409	0.38516	0.1559	0.11238	0.20132	0.1618	0.0654	0.21785	0.25356	0.23226	0.16971	0.17128	0.11992	-0.78958	-0.15625	-0.69375	-0.99375	-0.14583	-1.1542	-0.58125	-0.46875	-0.94583	-0.18958	-0.8	-0.93542	0.0020833	-0.84167	-0.78125	-0.31042	71.616	253.742	75.186	270.751	276.301	294.000	89.818	217.419	21.910	108.371	75.317	26.660	91.376	216.386	58.163	342.218	0.00022746	0.00076534	0.00011041	544.41	5.132e-06	4.1123e-06	1030.9	127.09	5.049e-06	6.2348e-06	243.98	101.47	31.579	13.812	4.2325e-06	35.877	0.00017424	0.00017623	4.8524e-05	452.27	1.9068e-06	1.912e-06	847.41	106.25	1.8716e-06	1.9276e-06	199.87	84.202	26.737	11.861	1.9339e-06	29.425	119.266	162.833	7.170	16.992	65.760	224.160	15.382	20.483	207.008	158.815	18.481	22.567	24.664	30.013	135.083	28.461	-8191	255	
#DATA ENDS
