BOXY.EXE: ISS Imagent and Oximeter Data Acquisition Program Version 0.80
Ascii Record File

#ACQ INFORMATION
2  Detector Channels 
16  External MUX Channels 
1  Auxiliary Channels 
5000  Waveform (CCF) Frequency (Hz)
1  Waveforms Skipped 
30  Waveforms Averaged 
1  Cycles Averaged 
16  Acquisitions per Waveform 
10.0806  Updata Rate (Hz) 

#FILE INFORMATION
TRUE -- External MUX Channel results are PARSED.
FALSE -- AC DC and Phase are NOT grouped.
TRUE -- Companion Program Settings File CREATED.
FALSE -- AC data not excluded
FALSE -- DC data not excluded
FALSE -- Phase data not excluded
FALSE -- Auxillary Chn. data not excluded
Tab delimiters

#CALIBRATION STATE
TRUE -- Waveform Calibration Values APPLIED.


#AUX CALIBRATION VALUES
Val Type	aux-1	

Term	1.0000e+00	
Factor	0.0000e+00	


#WF CALIBRATION VALUES
A = Detector Channel
Val Type	A-AC1	A-AC2	A-AC3	A-AC4	A-AC5	A-AC6	A-AC7	A-AC8	A-AC9	A-AC10	A-AC11	A-AC12	A-AC13	A-AC14	A-AC15	A-AC16	A-DC1	A-DC2	A-DC3	A-DC4	A-DC5	A-DC6	A-DC7	A-DC8	A-DC9	A-DC10	A-DC11	A-DC12	A-DC13	A-DC14	A-DC15	A-DC16	A-Ph1	A-Ph2	A-Ph3	A-Ph4	A-Ph5	A-Ph6	A-Ph7	A-Ph8	A-Ph9	A-Ph10	A-Ph11	A-Ph12	A-Ph13	A-Ph14	A-Ph15	A-Ph16	

Term	0.00000e+00	0.00000e+00	0.00000e+00	0.00000e+00	0.00000e+00	0.00000e+00	0.00000e+00	0.00000e+00	0.00000e+00	0.00000e+00	0.00000e+00	0.00000e+00	0.00000e+00	0.00000e+00	0.00000e+00	0.00000e+00	0.00000e+00	0.00000e+00	0.00000e+00	0.00000e+00	0.00000e+00	0.00000e+00	0.00000e+00	0.00000e+00	0.00000e+00	0.00000e+00	0.00000e+00	0.00000e+00	0.00000e+00	0.00000e+00	0.00000e+00	0.00000e+00	0.00000e+00	0.00000e+00	0.00000e+00	0.00000e+00	0.00000e+00	0.00000e+00	0.00000e+00	0.00000e+00	0.00000e+00	0.00000e+00	0.00000e+00	0.00000e+00	0.00000e+00	0.00000e+00	0.00000e+00	0.00000e+00	
Factor	1.00000e+00	1.00000e+00	1.00000e+00	1.00000e+00	1.00000e+00	1.00000e+00	1.00000e+00	1.00000e+00	1.00000e+00	1.00000e+00	1.00000e+00	1.00000e+00	1.00000e+00	1.00000e+00	1.00000e+00	1.00000e+00	1.00000e+00	1.00000e+00	1.00000e+00	1.00000e+00	1.00000e+00	1.00000e+00	1.00000e+00	1.00000e+00	1.00000e+00	1.00000e+00	1.00000e+00	1.00000e+00	1.00000e+00	1.00000e+00	1.00000e+00	1.00000e+00	X	X	X	X	X	X	X	X	X	X	X	X	X	X	X	X	

B = Detector Channel
Val Type	B-AC1	B-AC2	B-AC3	B-AC4	B-AC5	B-AC6	B-AC7	B-AC8	B-AC9	B-AC10	B-AC11	B-AC12	B-AC13	B-AC14	B-AC15	B-AC16	B-DC1	B-DC2	B-DC3	B-DC4	B-DC5	B-DC6	B-DC7	B-DC8	B-DC9	B-DC10	B-DC11	B-DC12	B-DC13	B-DC14	B-DC15	B-DC16	B-Ph1	B-Ph2	B-Ph3	B-Ph4	B-Ph5	B-Ph6	B-Ph7	B-Ph8	B-Ph9	B-Ph10	B-Ph11	B-Ph12	B-Ph13	B-Ph14	B-Ph15	B-Ph16	

Term	0.00000e+00	0.00000e+00	0.00000e+00	0.00000e+00	0.00000e+00	0.00000e+00	0.00000e+00	0.00000e+00	0.00000e+00	0.00000e+00	0.00000e+00	0.00000e+00	0.00000e+00	0.00000e+00	0.00000e+00	0.00000e+00	0.00000e+00	0.00000e+00	0.00000e+00	0.00000e+00	0.00000e+00	0.00000e+00	0.00000e+00	0.00000e+00	0.00000e+00	0.00000e+00	0.00000e+00	0.00000e+00	0.00000e+00	0.00000e+00	0.00000e+00	0.00000e+00	-1.31583e+02	-1.21578e+02	-1.40012e+02	-1.81298e+02	-8.87385e+01	-6.29981e+01	-1.57795e+02	-1.62015e+02	-6.94921e+01	-9.60310e+01	-1.75953e+02	-1.70521e+02	-1.80371e+02	-1.76072e+02	-6.81803e+01	-1.48893e+02	
Factor	1.93261e-05	1.42640e-04	3.75110e-05	1.68919e-01	1.12948e-06	1.23653e-06	1.80120e-01	7.03469e-02	1.11070e-06	1.40164e-06	1.16901e-01	3.27342e-02	2.64059e-02	1.04235e-02	1.14977e-06	1.44954e-02	1.13826e-06	1.18118e-06	3.28429e-07	8.21832e-02	1.29226e-08	1.29492e-08	8.20368e-02	3.39068e-02	1.29380e-08	1.29875e-08	5.34765e-02	1.52769e-02	1.27878e-02	5.00872e-03	1.30016e-08	6.72239e-03	X	X	X	X	X	X	X	X	X	X	X	X	X	X	X	X	



#DISTANCE SETTINGS
A = Detector Channel
A-1	A-2	A-3	A-4	A-5	A-6	A-7	A-8	A-9	A-10	A-11	A-12	A-13	A-14	A-15	A-16	

2.5000e+00	3.0000e+00	2.5000e+00	3.0000e+00	2.0000e+00	3.0000e+00	1.5000e+00	3.0000e+00	3.0000e+00	3.0000e+00	3.0000e+00	3.0000e+00	3.0000e+00	3.0000e+00	1.5000e+00	3.0000e+00	

B = Detector Channel
B-1	B-2	B-3	B-4	B-5	B-6	B-7	B-8	B-9	B-10	B-11	B-12	B-13	B-14	B-15	B-16	

1.0000e+01	1.0000e+01	1.0000e+01	1.4400e+00	1.0000e+01	1.0000e+01	1.5100e+00	1.9400e+00	1.0000e+01	1.0000e+01	1.9900e+00	2.4900e+00	2.4100e+00	2.9000e+00	1.0000e+01	2.9800e+00	




#DATA BEGINS
time	group	step	mark	flag	A-AC1	A-AC2	A-AC3	A-AC4	A-AC5	A-AC6	A-AC7	A-AC8	A-AC9	A-AC10	A-AC11	A-AC12	A-AC13	A-AC14	A-AC15	A-AC16	A-DC1	A-DC2	A-DC3	A-DC4	A-DC5	A-DC6	A-DC7	A-DC8	A-DC9	A-DC10	A-DC11	A-DC12	A-DC13	A-DC14	A-DC15	A-DC16	A-Ph1	A-Ph2	A-Ph3	A-Ph4	A-Ph5	A-Ph6	A-Ph7	A-Ph8	A-Ph9	A-Ph10	A-Ph11	A-Ph12	A-Ph13	A-Ph14	A-Ph15	A-Ph16	B-AC1	B-AC2	B-AC3	B-AC4	B-AC5	B-AC6	B-AC7	B-AC8	B-AC9	B-AC10	B-AC11	B-AC12	B-AC13	B-AC14	B-AC15	B-AC16	B-DC1	B-DC2	B-DC3	B-DC4	B-DC5	B-DC6	B-DC7	B-DC8	B-DC9	B-DC10	B-DC11	B-DC12	B-DC13	B-DC14	B-DC15	B-DC16	B-Ph1	B-Ph2	B-Ph3	B-Ph4	B-Ph5	B-Ph6	B-Ph7	B-Ph8	B-Ph9	B-Ph10	B-Ph11	B-Ph12	B-Ph13	B-Ph14	B-Ph15	B-Ph16	aux-1	digaux	

1076.816	1	1	0	768	0.10717	0.029792	0.12153	0.16473	0.29216	0.27934	0.01512	0.21669	0.082798	0.32826	0.070244	0.18962	0.24125	0.11486	0.24582	0.1838	-1.2	-0.65	-1.2479	-1.6313	-0.71042	-1.2583	-1.4562	-0.93333	-1.6854	-0.84375	-1.1458	-1.6854	-0.6625	-1.6562	-1.35	-0.725	219.748	-47.803	-44.744	204.585	168.782	-50.129	56.383	199.417	20.714	79.099	190.204	-57.205	143.527	218.345	51.149	166.245	0.00027889	6.1284e-05	8.8977e-05	1316.3	1.4572e-06	3.2276e-06	1310.3	349.95	3.1616e-06	3.3653e-06	403.19	136.15	117.99	40.245	2.2326e-06	50.402	0.00033282	0.00032551	9.1504e-05	1309.1	3.6174e-06	3.5533e-06	1310.4	349.3	3.6293e-06	3.5889e-06	397.62	136.63	118.18	40.336	3.6558e-06	50.308	203.975	-68.383	-56.965	-123.717	-98.363	-14.691	-123.866	-119.095	-2.400	9.648	-119.420	-115.479	-115.058	-109.843	-39.326	-110.375	-8191	255	
1076.912	1	1	0	0	0.090256	0.17142	0.18674	0.29863	0.1859	0.053992	0.17004	0.18658	0.31055	0.28009	0.10963	0.31926	0.30171	0.081263	0.23935	0.18712	-1.3729	-0.95417	-0.83542	-1.825	-0.73542	-1.2396	-1.5729	-0.92708	-1.5458	-0.775	-0.875	-1.5417	-0.75625	-1.2563	-1.3604	-0.83958	124.406	191.207	-20.212	161.332	41.668	190.273	111.034	212.629	216.114	111.749	-0.595	184.531	-120.174	-48.949	206.256	-128.117	0.00029355	0.0002134	4.396e-05	1315	8.5285e-07	4.1887e-06	1309.1	349.59	4.7452e-06	3.7067e-06	402.3	136.52	118.36	40.39	3.45e-06	50.021	0.00033256	0.00032844	9.2387e-05	1310.6	3.6162e-06	3.6072e-06	1312.1	349.25	3.6029e-06	3.5957e-06	397.53	136.88	118.16	40.363	3.6569e-06	50.287	200.968	40.637	-4.864	-123.494	55.274	46.420	-123.925	-119.175	94.278	49.985	-119.484	-115.444	-115.229	-109.800	63.881	-110.631	-8191	255	
1077.008	1	1	0	0	0.041901	0.27011	0.086866	0.14243	0.22353	0.17031	0.01863	0.22994	0.070276	0.15964	0.25486	0.10183	0.33163	0.37411	0.096161	0.18499	-1.1208	-0.89167	-0.80417	-1.8687	-0.88542	-1.2875	-1.5646	-0.71667	-1.5146	-1.2583	-1.0021	-1.5625	-0.9125	-1.2042	-1.4479	-0.775	-5.775	131.465	119.008	123.864	-85.692	206.142	64.372	100.232	15.723	94.292	134.793	-80.008	161.464	119.021	106.784	213.374	0.00033681	0.00053875	0.00010776	1315	2.0968e-06	3.9126e-06	1310	350.09	5.2685e-06	4.5668e-06	401.73	136.34	118.27	40.488	4.8595e-06	50.412	0.00033618	0.00033015	9.3718e-05	1312.2	3.6823e-06	3.654e-06	1312.1	349.16	3.6523e-06	3.6696e-06	397.41	136.7	118.41	40.463	3.7314e-06	50.376	204.587	-133.272	-48.805	-123.872	-89.999	80.676	-124.053	-119.277	-48.683	-18.133	-119.233	-115.882	-115.024	-109.908	58.951	-110.692	-8191	255	
1077.105	1	1	0	0	0.22542	0.29186	0.1497	0.10166	0.071723	0.097727	0.12709	0.29942	0.21264	0.28241	0.23109	0.1676	0.055862	0.27911	0.21672	0.056159	-1.0229	-1.2104	-0.75417	-1.6021	-0.88542	-1.025	-1.6125	-0.88958	-1.5604	-1.3062	-0.86458	-1.6583	-1.1562	-1.0938	-1.6708	-0.98958	-99.811	65.109	188.928	212.524	37.317	178.253	139.076	-132.297	217.587	152.204	193.549	112.481	-123.717	196.777	104.026	-105.326	0.00036061	0.00076249	0.0001067	1319.8	3.3877e-06	6.4219e-06	1311.3	351.12	8.6455e-06	5.3616e-06	401.68	136.05	118.99	40.69	2.4451e-06	50.453	0.0003384	0.00033355	9.3617e-05	1315.1	3.7048e-06	3.7045e-06	1315.6	349.62	3.6876e-06	3.7131e-06	398	136.92	118.83	40.555	3.7868e-06	50.508	204.561	-6.653	-55.040	-123.881	-34.275	58.820	-123.829	-119.421	-39.561	-45.424	-119.583	-115.633	-115.044	-109.961	52.618	-110.486	-8191	255	
1077.201	1	1	0	0	0.23301	0.12305	0.23924	0.53781	0.15225	0.10943	0.16096	0.18397	0.10448	0.34611	0.12934	0.28688	0.11431	0.12502	0.2792	0.082295	-0.82917	-1.2958	-0.70833	-1.7125	-0.80417	-0.79167	-1.8896	-0.75	-1.2417	-1.4875	-0.91667	-1.725	-1.2708	-1.1	-1.8708	-1.0646	99.331	-54.594	105.826	219.607	-80.266	6.112	89.232	138.338	-2.166	124.862	120.834	-106.563	203.850	-109.659	-128.641	215.621	0.00029676	0.00028735	0.00016407	1322.1	5.7179e-06	5.9224e-06	1319.1	350.17	2.3709e-06	2.2385e-06	401.01	136.78	118.61	40.685	3.9439e-06	50.099	0.00034239	0.00034189	9.543e-05	1316.6	3.7131e-06	3.764e-06	1318.7	349.95	3.7627e-06	3.8127e-06	398.09	137.03	118.71	40.544	3.8286e-06	50.314	212.548	-29.758	-56.519	-123.761	-58.369	-3.794	-123.946	-119.273	28.848	-7.621	-119.756	-115.936	-115.026	-109.897	9.705	-110.837	-8191	255	
1077.297	1	1	0	0	0.12527	0.26402	0.1321	0.1077	0.046896	0.1776	0.13977	0.35555	0.11885	0.12523	0.24056	0.37417	0.24737	0.24018	0.074232	0.38127	-1.0104	-1.3729	-0.93333	-1.7583	-1.1625	-0.86667	-1.6938	-1.1042	-1.1625	-1.5104	-0.84792	-1.7458	-1.5312	-1.0021	-1.6437	-0.89792	214.637	-10.029	198.767	-20.094	22.038	-55.166	151.254	196.915	187.311	-22.633	206.437	99.709	179.977	179.117	-62.817	191.982	0.00033046	0.00057593	0.00012595	1322.5	3.0378e-06	3.5502e-06	1308.8	350.67	4.1173e-06	3.098e-06	402.89	137.22	118.12	40.498	3.7566e-06	50.073	0.00034761	0.00034973	9.7359e-05	1318.4	3.8162e-06	3.8471e-06	1316.1	350.18	3.8336e-06	3.8434e-06	398.82	137.19	118.51	40.506	3.8897e-06	50.46	189.374	-28.006	-55.273	-123.633	-2.517	111.041	-123.843	-119.277	0.649	-17.589	-119.438	-115.481	-115.150	-110.002	-21.152	-110.539	-8191	255	
1077.418	1	1	0	0	0.11983	0.060374	0.24356	0.28224	0.34425	0.25054	0.17628	0.078983	0.038087	0.287	0.0953	0.17776	0.17395	0.14176	0.089899	0.049503	-0.62292	-1.4333	-0.71667	-1.4792	-1.2833	-0.77917	-1.8604	-0.86875	-1.0812	-1.6417	-0.74792	-1.4208	-1.5396	-0.97292	-1.5729	-1.1125	187.531	156.320	103.958	201.005	-120.678	-107.674	184.358	79.964	198.825	87.007	130.712	-110.121	202.782	-8.280	96.029	171.207	0.00034298	0.00020246	0.000211	1318.4	2.0522e-06	3.5739e-06	1318.9	351.87	2.8158e-06	3.0922e-06	401.8	136.59	117.94	40.421	4.1493e-06	50.22	0.00035672	0.000353	9.7941e-05	1316.7	3.8958e-06	3.8739e-06	1317.5	350.58	3.9246e-06	3.943e-06	398.47	137.08	118.45	40.516	3.9053e-06	50.454	204.655	10.427	-55.965	-123.574	-37.858	-33.793	-123.942	-119.214	-77.607	10.324	-119.284	-115.656	-114.821	-110.089	48.175	-110.857	-8191	255	
1077.512	1	1	0	0	0.088538	0.06477	0.27417	0.17627	0.13036	0.16351	0.68861	0.22168	0.33211	0.16157	0.10559	0.43151	0.29196	0.093651	0.25743	0.18165	-0.42708	-1.4917	-0.725	-1.4396	-1.4438	-0.625	-1.5604	-1.2062	-0.86042	-1.8792	-0.93333	-1.2313	-1.6729	-0.84375	-1.3375	-1.3	177.355	-4.476	-117.707	208.187	145.637	-21.377	210.801	79.736	201.060	114.688	159.052	197.802	181.399	20.485	109.572	200.481	0.00030829	0.00081264	8.4681e-05	1322.1	2.4548e-06	1.4531e-06	1315.3	350.22	2.2452e-06	4.9496e-06	404.09	135.87	118.26	40.414	4.4617e-06	50.249	0.00036209	0.00035851	9.912e-05	1317.5	3.979e-06	3.9402e-06	1316.9	349.9	3.9938e-06	3.9539e-06	398.83	136.84	118.79	40.473	3.8769e-06	50.36	206.637	-38.823	-55.326	-123.528	-67.282	136.448	-123.886	-119.284	-53.890	-47.222	-119.625	-115.525	-115.155	-110.146	-105.971	-110.944	-8191	255	
1077.608	1	1	0	0	0.11365	0.086506	0.15313	0.16976	0.1747	0.075842	0.39853	0.19563	0.16092	0.12238	0.20128	0.25128	0.069869	0.14587	0.26564	0.029489	-0.25417	-1.5646	-0.90417	-1.4854	-1.5792	-0.6875	-1.5875	-1.3042	-0.79375	-1.7104	-1.1146	-1.1604	-1.6354	-0.5875	-1.2812	-1.4708	167.064	187.952	-116.984	189.885	166.506	144.677	128.910	-124.269	-26.051	-130.201	217.561	-137.043	135.202	103.285	-67.647	158.193	0.00029821	0.00015638	0.00014638	1319.7	1.5437e-06	4.1686e-06	1315.7	350.46	3.8079e-06	4.5542e-06	401.99	135.86	117.82	40.484	1.4608e-06	50.323	0.00036451	0.00035477	9.8015e-05	1316.5	3.892e-06	3.8868e-06	1316.5	350.05	3.935e-06	3.8472e-06	397.7	136.93	118.55	40.499	3.8519e-06	50.455	196.491	-23.264	-74.047	-123.653	-44.752	31.642	-123.891	-119.542	-21.432	43.080	-119.414	-115.643	-115.147	-110.109	26.523	-110.555	-8191	255	
1077.704	1	1	0	0	0.024564	0.034989	0.21582	0.12919	0.084932	0.12442	0.21967	0.38938	0.2499	0.10524	0.092336	0.1213	0.24347	0.07621	0.26219	0.27703	-0.37708	-1.5646	-1.0854	-1.1479	-1.7021	-0.70208	-1.7021	-1.5375	-0.67292	-1.575	-1.0979	-0.89375	-1.8792	-0.77917	-0.99167	-1.6646	-135.418	14.327	-11.735	141.989	-123.358	5.844	158.226	115.349	99.839	71.645	104.631	78.975	176.510	-0.459	93.814	215.995	0.00028726	0.00066565	4.8332e-05	1323.5	4.975e-06	4.3863e-06	1318	350.64	4.8075e-06	4.44e-07	404.54	137.05	118.41	40.321	3.8874e-06	50.275	0.00035606	0.00034937	9.7567e-05	1316.3	3.8588e-06	3.8322e-06	1316.3	350.41	3.8575e-06	3.8263e-06	398.74	137.11	118.71	40.429	3.7709e-06	50.455	199.117	-45.576	-97.413	-123.696	-17.967	22.843	-123.754	-119.245	-45.887	0.561	-119.636	-115.398	-115.038	-110.282	-22.405	-110.485	-8191	255	
1077.800	1	1	0	0	0.072384	0.26833	0.16211	0.15761	0.24793	0.14828	0.11513	0.28524	0.10951	0.03194	0.2241	0.18974	0.035281	0.07555	0.12124	0.25736	-0.36042	-1.5292	-1.0583	-0.98125	-1.5104	-0.55208	-1.3021	-1.7375	-0.63542	-1.475	-1.3937	-0.93958	-1.8687	-1.0812	-0.94792	-1.9479	198.443	-2.960	-23.256	139.800	-32.894	-75.594	136.568	191.511	215.529	92.397	152.378	141.163	-59.067	218.216	120.072	132.135	0.00035601	0.00025955	0.00014132	1315.2	3.5713e-06	5.4772e-06	1309.5	349.87	2.271e-06	7.7986e-06	400.13	136.77	118.46	40.403	3.5799e-06	50.415	0.00034933	0.00034447	9.5262e-05	1312.7	3.7856e-06	3.7401e-06	1313.8	349.35	3.8154e-06	3.7719e-06	397.6	137.1	118.54	40.359	3.7762e-06	50.467	201.331	-6.288	-59.262	-123.654	-74.596	-17.889	-123.797	-119.127	-48.553	45.523	-119.340	-115.312	-114.871	-109.879	17.514	-110.613	-8191	255	
1077.897	1	1	0	0	0.41208	0.30962	0.29027	0.016186	0.18439	0.19861	0.39194	0.2925	0.20837	0.31537	0.12406	0.21819	0.42135	0.24821	0.091914	0.10984	-0.41667	-1.4354	-1.3479	-0.9375	-1.5958	-1.0208	-1.0979	-1.9312	-0.8	-1.3167	-1.5208	-0.80208	-1.8229	-1.0333	-0.90208	-1.9312	208.523	-27.081	26.147	62.174	69.939	168.345	144.416	163.116	56.263	105.335	-109.448	205.691	-130.828	153.401	-84.571	129.994	0.00035507	0.00048511	0.0001844	1317	4.8988e-06	2.768e-06	1316.4	349.72	1.6705e-06	5.2764e-06	403.5	137.08	117.9	40.398	4.3787e-06	50.461	0.00034449	0.00033858	9.4113e-05	1315.3	3.6795e-06	3.6253e-06	1314.4	349.31	3.6776e-06	3.6586e-06	398.21	136.98	118.22	40.39	3.7075e-06	50.547	198.536	-50.583	-27.317	-123.694	-39.915	0.708	-123.761	-119.226	-49.389	-46.364	-119.398	-115.560	-115.156	-110.075	-13.647	-110.573	-8191	255	
1078.017	1	1	0	0	0.059558	0.12977	0.3328	0.25933	0.22089	0.061981	0.16184	0.25285	0.26003	0.11683	0.11547	0.10717	0.38067	0.12761	0.20445	0.17364	-0.19167	-1.2083	-1.4667	-0.93333	-1.4708	-1.1729	-0.99792	-1.6833	-0.82083	-1.3229	-1.6854	-0.8	-1.5146	-1.2771	-0.74375	-1.8125	-102.628	149.889	76.150	155.395	142.518	-97.818	198.202	-116.521	-69.872	-52.490	107.849	-121.378	215.086	-60.065	199.246	-9.626	0.00027538	0.00039476	0.00021068	1322.3	3.536e-06	1.7083e-06	1309.6	349.96	5.0811e-06	3.2191e-06	401.71	135.76	117.79	40.412	5.1478e-06	50.459	0.00033785	0.00033641	9.363e-05	1315.1	3.6749e-06	3.6485e-06	1311.6	349.4	3.6347e-06	3.629e-06	398	136.75	118.28	40.377	3.6585e-06	50.475	194.682	-76.361	-51.682	-123.678	-80.899	54.682	-123.696	-119.296	31.231	13.775	-119.561	-115.308	-115.123	-110.124	-24.979	-110.495	-8191	255	
1078.113	1	1	0	0	0.11463	0.033972	0.30942	0.1725	0.40657	0.054669	0.33637	0.22504	0.38604	0.17602	0.099495	0.15302	0.27108	0.4077	0.04554	0.11173	-0.54167	-0.99792	-1.5625	-0.69375	-1.4729	-1.3354	-0.7875	-1.5833	-0.83125	-1.0438	-1.8833	-0.8	-1.4042	-1.6083	-0.55625	-1.65	138.489	-44.844	194.947	197.968	-40.208	-93.107	-108.106	160.931	168.892	30.596	116.952	184.977	216.012	202.161	169.087	134.438	0.00041033	0.00070687	2.443e-05	1324.1	1.3881e-06	2.7587e-06	1319.2	350.9	5.1981e-06	1.8869e-06	402.52	136.48	118.44	40.517	2.6941e-06	50.452	0.0003312	0.00032836	9.2273e-05	1314.5	3.5779e-06	3.5924e-06	1316.5	349.19	3.5869e-06	3.593e-06	397.33	136.83	118.46	40.4	3.5952e-06	50.34	193.581	-48.469	6.608	-123.571	106.842	-128.103	-123.826	-119.268	-34.088	-11.267	-119.516	-115.685	-114.834	-109.894	0.893	-110.363	-8191	255	
1078.210	1	1	0	0	0.061006	0.16131	0.11071	0.14352	0.13284	0.15958	0.10593	0.20267	0.28071	0.19063	0.14505	0.13502	0.31254	0.14852	0.12686	0.35043	-0.50833	-0.72917	-1.4292	-0.9	-1.2333	-1.3062	-0.80208	-1.7583	-1.0521	-0.60625	-1.8292	-0.90833	-1.3333	-1.5417	-0.81875	-1.5979	59.303	218.650	11.268	155.472	-131.759	60.746	200.332	158.598	55.391	-66.384	-105.901	-68.011	-130.926	56.133	204.261	174.367	0.00031713	0.0004743	0.00021513	1316.3	3.2989e-06	4.2291e-06	1311.2	350.63	1.2222e-06	4.087e-06	402.78	135.85	118.26	40.356	2.4075e-06	50.564	0.00032456	0.00032546	9.0522e-05	1311.7	3.5221e-06	3.5279e-06	1311.5	349.56	3.5704e-06	3.527e-06	397.24	136.29	118.35	40.389	3.5878e-06	50.318	203.007	-26.297	-100.439	-123.688	-60.288	64.497	-123.706	-119.299	-24.005	-36.988	-119.699	-115.512	-114.822	-110.004	-61.147	-110.723	-8191	255	
1078.306	1	1	0	0	0.1492	0.22236	0.32634	0.32192	0.064897	0.13657	0.2175	0.29522	0.3328	0.11846	0.36191	0.26314	0.2571	0.11184	0.19505	0.31415	-0.80833	-0.74375	-1.5729	-1.1417	-1.0958	-1.5333	-0.74375	-1.5125	-1.1562	-0.86667	-1.7125	-0.99583	-1.0667	-1.5583	-0.68542	-1.5417	-74.876	-97.011	7.875	185.062	-81.271	157.059	156.107	159.070	108.200	59.224	-65.676	175.285	151.292	135.466	97.932	-132.573	0.00030399	0.00064372	0.00012719	1318.3	1.863e-06	1.159e-06	1310.7	349.62	4.1899e-06	1.294e-06	401.91	136.7	118.2	40.432	1.4961e-06	50.209	0.00032637	0.00032739	8.9893e-05	1310.7	3.5292e-06	3.5302e-06	1309.7	348.55	3.5145e-06	3.5399e-06	397.45	136.77	118.36	40.383	3.5977e-06	50.278	194.931	-35.220	-18.837	-123.821	-48.708	43.647	-123.692	-119.148	31.550	-9.902	-119.500	-115.488	-114.924	-110.237	41.572	-110.422	-8191	255	
1078.402	1	1	0	0	0.34177	0.32631	0.14255	0.22654	0.049763	0.14889	0.29285	0.11687	0.20102	0.06095	0.2367	0.21627	0.18483	0.1777	0.13551	0.21376	-0.92292	-0.87083	-1.8833	-0.98333	-1.0625	-1.6271	-1.1021	-1.5958	-1.4417	-0.475	-1.8354	-1.0187	-0.83125	-1.6187	-0.67708	-1.3646	169.683	124.417	200.188	165.496	100.983	186.742	143.789	52.964	-11.200	76.832	-118.360	187.652	189.001	-112.349	-18.597	181.182	0.00030782	0.00011566	0.00011651	1320.3	2.6924e-06	5.7857e-06	1313.2	351.12	4.7582e-06	1.7022e-06	401.95	135.62	117.4	40.546	2.1841e-06	50.09	0.00032934	0.00032888	8.9642e-05	1312	3.6279e-06	3.634e-06	1310	348.94	3.6043e-06	3.63e-06	396.87	136.13	118.05	40.366	3.5874e-06	50.261	203.251	-17.986	-60.985	-123.535	-65.602	7.155	-123.640	-119.117	-4.669	112.972	-119.314	-115.680	-115.234	-109.816	28.004	-110.604	-8191	255	
1078.496	1	1	0	0	0.072041	0.11387	0.14284	0.52962	0.22287	0.18946	0.31742	0.26799	0.1274	0.11314	0.051038	0.11291	0.2002	0.069945	0.21947	0.085413	-1.1771	-0.65208	-1.5104	-1.2812	-0.79792	-1.5938	-0.96875	-1.2542	-1.3813	-0.73333	-1.6167	-1.0396	-0.8875	-1.6354	-0.91667	-1.2292	137.135	193.046	18.881	196.931	54.432	8.618	219.791	155.064	-106.556	176.582	-101.134	-132.477	-125.131	55.186	150.616	179.219	0.00035314	0.00053098	4.7843e-05	1318	4.1874e-06	4.6883e-06	1315.1	348.73	1.4318e-06	3.6956e-06	401.12	135.53	117.77	40.436	4.3371e-06	50.371	0.00033174	0.00032918	9.0323e-05	1308.9	3.6076e-06	3.5675e-06	1309.3	347.8	3.5751e-06	3.5584e-06	396.81	136.11	118.03	40.245	3.5373e-06	50.307	189.458	-50.894	-70.872	-123.624	31.723	73.804	-123.767	-119.107	91.144	-69.068	-119.378	-115.523	-114.939	-109.867	-11.635	-110.496	-8191	255	
1078.592	1	1	0	0	0.029887	0.13772	0.21848	0.12279	0.19112	0.10677	0.17219	0.14311	0.22415	0.14842	0.1891	0.19745	0.30369	0.07999	0.065605	0.141	-1.2896	-0.875	-1.4375	-1.5167	-0.75	-1.4667	-1.0187	-1.1396	-1.5896	-0.65417	-1.5729	-1.425	-0.74167	-1.5271	-1.0125	-0.97917	-115.577	-132.420	57.605	-124.937	-28.340	-115.243	106.850	-107.910	47.580	88.841	193.129	-117.635	188.753	84.077	-100.602	23.337	0.00027118	0.00038079	8.9239e-05	1315.8	2.4419e-06	3.9299e-06	1312.8	349.28	5.9607e-06	1.6172e-06	402.26	135.68	117.73	40.433	6.7889e-07	50.142	0.00032655	0.000321	8.8039e-05	1308.3	3.5472e-06	3.4678e-06	1308.6	348.1	3.5253e-06	3.4741e-06	396.59	135.97	117.82	40.244	3.4738e-06	50.231	195.585	19.507	-93.664	-123.781	-72.886	-10.235	-123.882	-119.239	-4.452	11.218	-119.708	-115.656	-115.035	-110.123	-112.859	-110.299	-8191	255	
1078.689	1	1	0	0	0.12432	0.11084	0.37456	0.22309	0.32043	0.3976	0.096037	0.12972	0.24593	0.23295	0.052592	0.14095	0.25507	0.37646	0.13881	0.19083	-1.3542	-0.67917	-1.4042	-1.7521	-0.77292	-1.7396	-1.2812	-0.95833	-1.7229	-0.76458	-1.3771	-1.5875	-0.71458	-1.7313	-1.1562	-0.92292	218.770	-66.619	77.472	177.550	-120.271	62.965	155.195	217.030	-40.785	127.531	194.493	162.640	164.789	-77.230	116.897	131.101	0.00031155	0.00067787	0.00014159	1318.2	1.811e-06	4.8152e-06	1308.9	350.49	5.7321e-06	5.0467e-06	402.7	136.68	118.76	40.557	5.3636e-06	50.335	0.00032052	0.00031551	8.6355e-05	1310.1	3.4376e-06	3.3396e-06	1306.7	348.55	3.3289e-06	3.2843e-06	396.34	136.67	118.09	40.434	3.2935e-06	50.323	197.034	-28.171	-74.798	-123.663	-55.706	39.167	-124.013	-119.163	-71.038	-69.857	-119.317	-115.703	-115.124	-109.918	-9.874	-110.396	-8191	255	
1078.785	1	1	0	0	0.15884	0.19434	0.26948	0.31017	0.11108	0.096576	0.29181	0.27267	0.16141	0.16464	0.1881	0.059629	0.36693	0.18987	0.33366	0.16376	-1.4312	-0.675	-1.1708	-1.6708	-0.77292	-1.6354	-1.5729	-0.97292	-1.6833	-0.74792	-1.3042	-1.6979	-0.7875	-1.4813	-1.2812	-0.84792	146.698	-133.878	-36.143	-128.500	171.212	-86.640	149.371	141.397	-55.285	48.485	182.895	160.894	211.899	216.776	195.957	101.745	0.00028781	0.00023461	8.2362e-05	1320.4	1.7544e-06	1.5934e-06	1308.8	351	2.1136e-06	4.4908e-06	400.61	136.53	118.04	40.496	3.3498e-06	50.71	0.00030432	0.00029433	8.2864e-05	1310.3	3.3344e-06	3.2764e-06	1308.5	348.47	3.367e-06	3.3035e-06	396.18	136.54	118.15	40.369	3.3425e-06	50.354	199.477	-27.723	-97.753	-123.521	-94.598	30.699	-124.015	-119.042	2.214	6.775	-119.724	-115.671	-114.755	-110.004	14.150	-110.569	-8191	255	
1078.905	1	1	0	0	0.047818	0.13688	0.084799	0.29701	0.17719	0.20526	0.42438	0.23808	0.12037	0.055691	0.095657	0.062784	0.32005	0.012726	0.085667	0.05396	-1.2812	-0.95625	-0.81042	-1.8521	-0.72708	-1.3813	-1.4708	-0.875	-1.5479	-1.0979	-1.0583	-1.7042	-0.77292	-1.3792	-1.4604	-0.72083	-72.409	53.494	67.396	197.015	155.573	26.019	100.311	8.797	151.278	74.228	-68.135	152.318	188.679	138.333	43.685	105.071	0.00031753	0.00029814	9.7797e-05	1319.5	4.7609e-06	1.2749e-06	1314.3	350.79	3.9829e-06	6.767e-06	405.03	136.56	117.97	40.636	3.5502e-06	50.673	0.00030476	0.00029959	8.3924e-05	1311	3.2942e-06	3.2835e-06	1311.7	348.44	3.355e-06	3.3325e-06	397.41	136.9	118.31	40.419	3.3462e-06	50.429	196.563	92.707	-23.780	-123.520	-74.863	0.354	-123.824	-119.097	-17.824	-91.323	-119.096	-115.638	-114.986	-109.738	6.190	-110.538	-8191	255	
1078.977	1	1	0	0	0.14232	0.27172	0.16808	0.34227	0.072922	0.058621	0.2369	0.13853	0.40627	0.11695	0.14387	0.24292	0.20643	0.10409	0.11766	0.19047	-1.2958	-1.1896	-0.80625	-1.8479	-0.72917	-1.3833	-1.8125	-0.78542	-1.5063	-1.2313	-0.84167	-1.6167	-0.94583	-0.99375	-1.475	-0.72917	-0.443	73.792	37.376	150.038	58.735	193.765	180.139	131.674	168.007	16.675	140.198	103.316	-132.126	159.810	-124.438	75.652	0.00032296	7.2715e-05	8.7187e-05	1324.1	6.1251e-06	2.7352e-06	1313.7	350.99	1.9171e-06	5.863e-06	401.49	136.55	118.29	40.487	3.3785e-06	50.281	0.0003044	0.00029954	8.4161e-05	1313.5	3.2929e-06	3.268e-06	1311.5	348.91	3.3177e-06	3.299e-06	396.34	136.69	118.33	40.349	3.3539e-06	50.339	200.739	201.863	-89.656	-123.537	-39.349	-64.770	-123.765	-119.141	-35.865	14.115	-119.261	-115.217	-115.142	-109.792	-29.816	-110.538	-8191	255	
1079.098	1	1	0	0	0.28215	0.086863	0.28597	0.16272	0.067507	0.056617	0.10167	0.16348	0.14757	0.2306	0.14231	0.21936	0.10825	0.09642	0.086937	0.19391	-1.0708	-1.0625	-0.69583	-1.7938	-0.78333	-1.0187	-1.6354	-0.85833	-1.4104	-1.275	-0.76458	-1.6833	-0.95417	-1	-1.4583	-0.71875	-34.165	41.014	-25.041	133.256	67.234	117.671	169.468	-117.080	42.280	5.604	92.459	178.917	-115.297	-74.924	-106.903	-113.938	0.0002994	0.00056164	0.00021577	1319.2	9.8944e-07	7.4674e-06	1311.5	351.85	1.2935e-06	3.1627e-06	401.18	136.59	118.5	40.466	3.6592e-06	50.664	0.00030593	0.00029927	8.3775e-05	1311.1	3.2586e-06	3.2752e-06	1311.2	348.49	3.2673e-06	3.2463e-06	395.61	136.61	118.16	40.375	3.2932e-06	50.362	197.111	37.693	-43.801	-123.401	47.457	12.899	-123.837	-119.166	43.202	-39.530	-119.280	-115.294	-114.846	-110.062	-5.746	-110.642	-8191	255	
1079.194	1	1	0	0	0.075881	0.24178	0.097667	0.28117	0.15301	0.040071	0.20141	0.20123	0.12539	0.16129	0.24653	0.21019	0.38672	0.11846	0.25053	0.025725	-0.85	-1.3417	-0.56875	-1.8333	-1.0208	-0.85625	-1.9833	-0.8375	-1.2708	-1.4312	-0.68958	-1.7563	-1.2563	-0.85	-1.5708	-0.90625	-29.536	-75.839	98.520	213.360	-76.900	-108.270	114.380	209.463	42.581	-110.084	81.082	198.428	174.338	147.875	144.577	-60.464	0.00033523	0.00054862	0.00023336	1324.2	1.2777e-06	3.2766e-06	1313.7	349.42	3.9334e-06	3.2706e-06	398.55	136.02	118.48	40.441	1.4947e-06	50.724	0.00029979	0.00029648	8.4121e-05	1312.7	3.2733e-06	3.31e-06	1309.1	348.08	3.3028e-06	3.272e-06	395.4	136.27	118.04	40.279	3.2844e-06	50.199	202.621	-38.145	-71.193	-123.536	-64.779	-5.121	-123.701	-119.242	22.462	-32.942	-119.562	-115.470	-114.904	-109.471	203.780	-110.591	-8191	255	
1079.290	1	1	0	0	0.073187	0.18349	0.18046	0.22824	0.29288	0.15265	0.25586	0.15074	0.10032	0.18028	0.033361	0.3499	0.33245	0.17003	0.22294	0.37924	-0.95833	-1.4125	-0.60833	-1.6292	-1.2313	-0.69375	-1.7479	-0.76042	-1.0812	-1.5854	-0.73542	-1.7729	-1.3563	-0.82917	-1.5083	-0.95417	55.460	210.268	134.954	201.351	141.159	-54.882	-136.786	169.317	-111.433	156.656	213.851	-122.966	152.926	166.560	120.879	197.411	0.00036515	0.00026009	8.7234e-05	1319.5	4.0154e-06	1.2025e-06	1314.9	349.19	2.9443e-06	4.5493e-06	399.95	137.31	118.52	40.603	4.2643e-06	50.401	0.00030287	0.00029856	8.3116e-05	1308.3	3.2482e-06	3.243e-06	1310.4	347.45	3.2476e-06	3.2336e-06	395.75	136.77	118.29	40.381	3.2661e-06	50.237	204.209	-22.506	-70.320	-123.603	-12.842	4.925	-123.712	-119.280	-18.133	-23.630	-119.498	-115.469	-114.971	-110.021	15.714	-110.794	-8191	255	
1079.386	1	1	0	0	0.24529	0.022009	0.08943	0.22778	0.16687	0.17908	0.083616	0.059209	0.098745	0.1593	0.23878	0.1561	0.12353	0.18906	0.19768	0.27417	-0.71042	-1.4625	-0.62083	-1.5542	-1.1063	-0.76667	-1.7792	-1.1896	-1.0229	-1.7625	-0.7375	-1.2854	-1.6812	-0.91458	-1.5875	-1.1479	53.446	-132.650	117.924	158.944	81.861	49.045	172.154	-125.870	-54.784	91.799	87.159	166.707	109.035	220.064	-134.566	133.576	0.00026318	0.00034713	8.5818e-05	1321.8	2.093e-07	3.7726e-06	1317.5	350.66	5.3897e-06	5.6899e-06	403.91	136.49	118.38	40.442	3.4486e-06	50.571	0.00029753	0.00029606	8.0689e-05	1311.8	3.2042e-06	3.2109e-06	1313	348.28	3.2148e-06	3.1939e-06	395.68	136.68	118.11	40.327	3.1982e-06	50.279	202.766	14.555	-112.023	-123.447	-53.192	6.377	-123.563	-119.334	-68.600	-32.272	-119.388	-115.289	-114.822	-109.951	-25.609	-110.468	-8191	255	
1079.505	1	1	0	0	0.20834	0.11089	0.10107	0.27026	0.15045	0.22776	0.37943	0.080088	0.16337	0.092304	0.18241	0.23386	0.23374	0.10631	0.19734	0.087419	-0.48333	-1.6458	-0.71042	-1.5271	-1.5063	-0.69583	-1.5729	-1.2458	-0.87083	-1.7667	-0.87292	-1.2208	-1.6063	-0.75625	-1.6042	-1.3146	-4.606	52.644	209.249	206.687	63.506	-95.108	151.257	160.641	72.720	-7.810	56.568	180.857	128.874	-130.860	143.051	205.116	0.00030553	0.00050142	0.00012675	1322.8	1.6182e-06	4.571e-06	1313.1	350.96	2.1445e-06	3.1076e-06	401.92	136.83	118.71	40.684	8.5623e-06	50.651	0.00029764	0.00029353	8.0803e-05	1311	3.2328e-06	3.2122e-06	1312.4	348.34	3.2521e-06	3.1727e-06	395.23	136.59	118.44	40.451	3.1574e-06	50.387	196.944	-33.833	-45.061	-123.445	16.929	36.973	-123.728	-119.198	-31.360	4.083	-119.273	-115.203	-114.925	-109.529	-6.761	-110.245	-8191	255	
1079.601	1	1	0	0	0.41725	0.11581	0.29561	0.044899	0.1538	0.19226	0.19884	0.38829	0.14168	0.22763	0.25499	0.24129	0.4123	0.12886	0.073227	0.093543	-0.35	-1.5042	-0.68958	-1.1667	-1.6792	-0.5875	-1.6958	-1.3792	-0.67083	-1.5	-0.9125	-1.0875	-1.7042	-0.85417	-1.2333	-1.3667	23.150	159.093	138.648	56.455	96.502	202.436	185.988	162.311	-136.195	161.648	167.910	143.881	204.291	-3.414	-80.038	-39.721	0.00033742	0.00039667	9.9198e-05	1325	1.6425e-06	2.4349e-06	1319.2	352.51	4.4449e-06	6.7434e-06	403.9	137.09	119.38	40.531	3.0482e-06	50.413	0.00029462	0.00028479	7.8773e-05	1315.8	3.1412e-06	3.0999e-06	1314.5	349.37	3.1122e-06	3.0499e-06	396.26	137.06	118.67	40.468	3.1285e-06	50.268	198.128	31.687	-28.699	-123.439	-45.939	-43.980	-123.524	-119.045	-27.853	19.386	-119.108	-115.370	-114.708	-110.020	-95.979	-110.581	-8191	255	
1079.673	1	1	0	0	0.12465	0.18112	0.11736	0.33112	0.30258	0.059455	0.29336	0.2725	0.16693	0.22294	0.087461	0.24685	0.21996	0.30176	0.22568	0.13693	-0.4625	-1.6792	-0.92917	-1.0042	-1.6	-0.75	-1.575	-1.3271	-0.73125	-1.6437	-1.1396	-1.1313	-1.8333	-0.87083	-0.97083	-1.6104	-134.147	136.170	-93.410	191.474	80.612	31.194	207.085	82.318	10.360	107.864	205.320	200.319	-123.819	-90.043	-39.383	83.465	0.00031422	0.00058112	0.00010472	1323.3	1.4021e-06	2.2789e-06	1316.9	351.01	4.0536e-06	3.6346e-06	402.48	137.36	118.79	40.559	1.3473e-06	50.54	0.00029498	0.00028353	8.0267e-05	1313.8	3.1767e-06	3.1063e-06	1312.8	348.6	3.2167e-06	3.1434e-06	396.17	136.77	118.38	40.304	3.1618e-06	50.258	206.268	-19.394	-90.415	-123.512	-37.463	32.687	-123.775	-118.961	-19.896	-72.048	-119.509	-115.294	-114.875	-109.832	220.351	-110.339	-8191	255	
1079.793	1	1	0	0	0.096757	0.21512	0.074239	0.14385	0.269	0.16029	0.13764	0.47477	0.027377	0.060814	0.11014	0.049206	0.23956	0.090074	0.1898	0.23196	-0.22917	-1.5021	-1.2667	-1.2667	-1.5604	-0.89792	-1.3792	-1.6833	-0.59792	-1.5458	-1.0854	-0.9	-1.6479	-1.0125	-0.9625	-1.6667	66.336	184.601	180.752	-127.235	85.077	-33.345	-21.769	134.695	41.001	-67.838	89.639	135.654	221.303	168.889	21.228	33.588	0.00031379	0.00061624	0.0001022	1323.4	1.2641e-06	4.3877e-06	1312.8	351.19	3.0894e-06	3.8034e-06	402.26	137.29	118.72	40.547	5.2866e-06	50.632	0.00029549	0.00028179	7.9391e-05	1312.6	3.159e-06	3.1168e-06	1310.9	348.5	3.1528e-06	3.1637e-06	395.12	136.74	118.1	40.322	3.1973e-06	50.218	203.350	-86.950	-26.324	-123.618	-90.604	33.636	-123.687	-119.005	-35.303	-82.669	-119.250	-115.242	-114.622	-109.537	9.038	-110.094	-8191	255	
1079.890	1	1	0	0	0.18968	0.19461	0.25454	0.36907	0.23864	0.19805	0.32645	0.26959	0.10076	0.2373	0.088563	0.1668	0.15102	0.12953	0.23803	0.17746	-0.25625	-1.4562	-1.4125	-0.9375	-1.6229	-1.0021	-1.2417	-1.9646	-0.75833	-1.2125	-1.5625	-0.8	-1.4625	-1.2479	-0.9875	-1.5396	147.973	92.434	195.935	171.321	141.533	-74.086	-131.406	53.197	19.361	-5.792	-20.503	203.458	179.721	-74.128	-73.706	212.587	0.00033852	0.00017024	3.8e-05	1320.5	3.4292e-06	4.8056e-06	1316.8	349.81	2.213e-06	3.6493e-06	401.6	135.99	118.08	40.523	4.9953e-06	50.214	0.00029378	0.00028635	8.076e-05	1311.6	3.1827e-06	3.1648e-06	1310.8	347.83	3.197e-06	3.2295e-06	396.06	136.26	117.99	40.266	3.2878e-06	50.122	211.030	-54.845	-109.713	-123.310	-84.948	66.522	-123.395	-118.930	-24.455	-12.970	-119.420	-115.338	-114.612	-109.621	-5.757	-110.471	-8191	255	
1079.986	1	1	0	0	0.089299	0.28745	0.23135	0.33219	0.092142	0.084592	0.094215	0.16246	0.19779	0.23744	0.21547	0.26203	0.31787	0.081178	0.14796	0.1795	-0.45417	-1.2875	-1.4167	-0.9	-1.6854	-1.2333	-1.0854	-1.8333	-0.83542	-1.3729	-1.6083	-0.80833	-1.5708	-1.375	-0.84792	-1.8208	-124.003	-111.947	70.746	-122.445	-70.594	65.069	144.077	197.037	-21.246	114.905	14.607	165.632	181.622	177.303	-57.749	71.697	0.00034013	0.00031984	6.3754e-05	1316.6	3.37e-06	1.6165e-06	1312.5	349.16	4.2256e-07	3.9563e-06	400.56	136.11	118.38	40.455	2.5885e-06	50.551	0.00030076	0.00029154	8.2042e-05	1309.4	3.2206e-06	3.1988e-06	1309.9	347.52	3.2194e-06	3.2077e-06	395.21	136.36	118.08	40.211	3.2778e-06	50.275	192.613	-79.822	79.873	-123.347	18.689	-3.440	-123.516	-118.758	-127.658	-23.651	-119.080	-115.392	-114.747	-109.920	17.735	-110.038	-8191	255	
1080.082	1	1	0	0	0.17464	0.28884	0.23865	0.42969	0.1959	0.25157	0.17944	0.25208	0.18879	0.1988	0.11842	0.16321	0.077533	0.07496	0.12936	0.39348	-0.59167	-1.2437	-1.4854	-0.66042	-1.3604	-1.0896	-0.92917	-1.6208	-0.94167	-1.1542	-1.7646	-0.76042	-1.5333	-1.4625	-0.83333	-1.7229	145.500	55.519	-31.620	187.531	-103.538	-109.216	-77.217	-110.813	85.166	10.284	-130.374	198.594	-14.415	58.746	-25.499	122.467	0.0002944	0.00041887	0.00014203	1319.1	3.3081e-06	6.9995e-06	1309.8	350.28	3.471e-06	2.489e-06	401.88	136.76	118.4	40.349	2.2783e-06	50.338	0.00030041	0.00029306	8.1749e-05	1308.6	3.2292e-06	3.2312e-06	1307.7	348.23	3.2479e-06	3.2711e-06	395.33	136.5	118.06	40.248	3.2874e-06	50.153	198.428	-61.879	-80.709	-123.169	-20.156	14.834	-123.330	-118.646	2.832	219.781	-119.336	-114.799	-114.623	-109.539	105.615	-109.964	-8191	255	
1080.202	1	1	0	0	0.16916	0.12253	0.23665	0.084254	0.12201	0.18658	0.18306	0.10498	0.054318	0.3348	0.21512	0.13905	0.32724	0.16043	0.099925	0.19248	-0.76875	-1.0229	-1.4875	-0.90417	-1.4062	-1.425	-0.825	-1.7479	-1.1333	-0.89375	-1.7812	-0.63958	-1.2354	-1.5021	-0.73542	-1.6187	-4.844	27.373	112.949	93.404	208.793	-68.430	146.762	203.504	-19.542	86.637	138.424	-94.611	185.023	24.838	-4.034	-128.005	0.00030743	0.00068933	0.00016539	1315.9	7.0437e-07	6.3204e-06	1309	350.27	4.9425e-06	5.3713e-06	403.2	136.49	118.1	40.392	4.4213e-06	50.13	0.00030228	0.00030191	8.3032e-05	1307.8	3.2905e-06	3.2795e-06	1308.2	347.99	3.2732e-06	3.3207e-06	396.07	136.33	117.99	40.275	3.3253e-06	50.076	200.888	-49.058	-109.036	-123.138	-125.685	35.711	-123.567	-118.791	-49.382	-17.295	-119.227	-115.053	-114.777	-109.604	0.524	-110.228	-8191	255	
1080.274	1	1	0	0	0.13189	0.074722	0.022905	0.39947	0.0826	0.26365	0.17191	0.16078	0.47634	0.33445	0.30645	0.19445	0.14648	0.28586	0.25957	0.33986	-0.70833	-0.8125	-1.6437	-1.0208	-1.1375	-1.5063	-0.74583	-1.6229	-1.1292	-0.975	-1.8021	-0.83333	-1.3042	-1.7146	-0.52292	-1.4937	-83.120	35.401	103.646	166.584	158.171	-116.009	131.264	-58.510	44.766	157.471	153.644	202.504	-85.735	198.171	-15.696	180.922	0.00033298	0.00036369	9.9222e-05	1321	2.8372e-06	3.1669e-06	1309.8	349.77	1.166e-06	4.4952e-06	400.84	136.71	118	40.13	6.2914e-06	50.539	0.00030253	0.00029946	8.3621e-05	1309.3	3.2927e-06	3.3034e-06	1306.7	347.99	3.2964e-06	3.2854e-06	395.35	136.34	117.99	40.185	3.2768e-06	50.204	193.109	-62.441	-90.030	-123.180	166.183	19.606	-123.373	-118.651	-90.708	-42.498	-119.209	-115.262	-114.426	-109.821	-1.350	-110.129	-8191	255	
1080.370	1	1	0	0	0.085435	0.027796	0.17439	0.31269	0.19255	0.05796	0.23852	0.29908	0.4057	0.13462	0.080825	0.098809	0.46164	0.28537	0.15181	0.12468	-0.94167	-0.92292	-1.6604	-1.0625	-1.0958	-1.7188	-0.94583	-1.4188	-1.3479	-0.76042	-1.5104	-0.98958	-0.92292	-1.6187	-0.64583	-1.0854	57.958	47.705	159.522	-118.526	180.685	163.296	101.435	192.206	204.273	73.374	119.779	185.083	187.113	204.677	118.412	169.286	0.00029192	0.00045073	7.5385e-05	1313.6	4.688e-06	2.677e-06	1311	350.12	5.7845e-06	3.6447e-06	401.44	136.14	117.96	40.615	5.1547e-06	50.293	0.000301	0.0002973	8.1322e-05	1306.5	3.2453e-06	3.2286e-06	1307.4	347.85	3.2178e-06	3.2075e-06	394.81	136.17	118.04	40.291	3.1778e-06	50.103	197.128	-58.057	14.700	-123.395	-21.035	-38.864	-123.603	-118.621	-3.783	-69.849	-119.028	-115.147	-114.528	-109.377	-48.798	-110.014	-8191	255	
1080.466	1	1	0	0	0.22842	0.26278	0.16738	0.030279	0.11689	0.24714	0.15181	0.24532	0.082863	0.17717	0.041228	0.035166	0.10241	0.14133	0.1234	0.15662	-1.0396	-0.71667	-1.3917	-1.3375	-0.86458	-1.5729	-0.93125	-1.4	-1.5312	-0.64167	-1.5229	-1.2125	-0.8	-1.7917	-0.69167	-1.2271	-78.503	14.923	120.350	182.370	50.592	89.906	-124.058	164.799	-131.824	-56.261	177.917	-79.947	194.718	190.354	19.686	56.578	0.00035138	0.00070397	0.00013108	1316.3	8.0433e-07	8.9116e-07	1311.6	350.82	3.8609e-06	2.9241e-06	401.23	136.41	118.23	40.498	3.8443e-06	50.403	0.00029781	0.00029082	8.0328e-05	1306.2	3.2044e-06	3.1519e-06	1307.1	347.64	3.204e-06	3.1824e-06	394.83	136.3	117.92	40.233	3.1999e-06	50.146	198.533	-12.713	-120.273	-123.292	209.392	118.410	-123.551	-119.016	13.304	-9.515	-119.022	-115.346	-114.551	-109.695	-43.589	-110.335	-8191	255	
1080.585	1	1	0	0	0.11502	0.19021	0.23574	0.35361	0.30063	0.30116	0.5007	0.15729	0.33433	0.17731	0.044263	0.13625	0.15723	0.17206	0.15554	0.32458	-1.0646	-0.75417	-1.4188	-1.3083	-0.55	-1.6187	-0.96042	-1.0312	-1.6187	-0.67083	-1.6021	-1.4042	-0.72708	-1.7771	-0.74375	-1.1375	-123.137	11.260	-115.633	207.765	-85.934	-32.651	24.847	219.847	206.371	-127.934	19.497	126.419	-91.643	184.163	31.019	207.635	0.00036643	0.00064378	0.00010156	1312.1	8.8366e-06	3.2843e-06	1308.9	349.13	4.8253e-06	6.6922e-06	402.18	136.06	118.54	40.645	2.7372e-06	50.425	0.00029586	0.00029025	8.0095e-05	1306.6	3.2418e-06	3.1692e-06	1308	347.98	3.2106e-06	3.1868e-06	394.89	136.22	118.08	40.286	3.2127e-06	50.154	198.081	-60.593	-80.146	-123.256	29.738	-45.623	-123.553	-118.736	-9.436	-76.788	-119.008	-115.117	-114.640	-109.636	-35.941	-109.950	-8191	255	
1080.681	1	1	0	0	0.051847	0.2682	0.18873	0.14164	0.20247	0.14413	0.27584	0.10778	0.15552	0.13321	0.19867	0.26252	0.12582	0.031821	0.12937	0.2581	-1.4292	-0.61667	-1.3292	-1.5438	-0.57917	-1.5146	-1.1229	-0.9875	-1.8167	-0.86667	-1.35	-1.5396	-0.70417	-1.6625	-1.1208	-0.93125	-115.706	100.967	8.862	112.644	170.880	-80.431	201.940	219.896	140.072	57.734	-124.432	218.866	-117.581	-119.688	-49.120	-118.260	0.00034113	0.0005971	0.00020373	1314.1	3.5233e-06	1.9954e-06	1309.5	349.6	2.4243e-06	6.8311e-06	401.28	136.13	117.7	40.664	4.3196e-06	50.469	0.00029865	0.00029139	8.0733e-05	1307.7	3.2364e-06	3.1816e-06	1307.4	347.69	3.2316e-06	3.1856e-06	395.6	135.98	117.91	40.213	3.2301e-06	50.172	197.248	-94.720	-28.204	-123.061	-115.838	-72.751	-123.358	-118.670	-30.725	-28.007	-119.195	-115.249	-114.391	-109.291	62.554	-110.127	-8191	255	
1080.778	1	1	0	0	0.080378	0.11435	0.042294	0.2754	0.22503	0.11256	0.29403	0.087484	0.098536	0.27107	0.14912	0.25773	0.058411	0.02705	0.20655	0.18423	-1.2687	-0.58542	-1.1042	-1.6708	-0.8125	-1.5104	-1.3563	-0.85625	-1.475	-0.84583	-1.2062	-1.5542	-0.74583	-1.6271	-1.1833	-0.75	164.836	-133.593	79.261	177.593	129.387	8.445	156.872	163.656	-115.017	-119.310	104.481	128.956	87.781	-55.228	112.384	104.661	0.00025139	0.00041316	0.00014321	1315.9	4.5509e-06	3.7293e-06	1312.9	350.69	3.1791e-06	6.8969e-06	402.93	136.54	118.17	40.484	4.037e-06	50.335	0.00029894	0.00028791	8.0813e-05	1307.5	3.2128e-06	3.1338e-06	1308.7	347.82	3.1855e-06	3.1558e-06	395.26	136.31	117.8	40.171	3.1833e-06	50.107	210.954	-29.990	-126.991	-123.187	-37.097	3.902	-123.264	-118.506	18.506	-4.929	-118.841	-114.873	-114.568	-109.459	-14.431	-110.084	-8191	255	
1080.874	1	1	0	0	0.19453	0.12992	0.17598	0.23604	0.13675	0.12802	0.41797	0.10536	0.1114	0.19764	0.25264	0.25348	0.25858	0.21147	0.22041	0.55879	-1.2563	-0.76042	-1.0708	-1.6125	-0.56875	-1.2208	-1.3375	-0.9375	-1.6562	-1.0063	-1.0312	-1.7896	-0.80625	-1.5688	-1.4125	-0.85625	-53.157	167.693	-94.042	155.314	204.653	86.625	134.678	210.150	128.165	167.470	118.967	191.025	-77.344	-109.567	166.026	164.019	0.00033193	0.00036392	0.00016664	1316.6	2.6458e-06	2.868e-06	1306.9	349.33	4.4386e-06	3.1807e-06	402.28	136.03	118.29	40.564	4.7005e-07	50.29	0.00029303	0.00028837	8.0415e-05	1308	3.1869e-06	3.1288e-06	1306.5	347.91	3.1943e-06	3.1669e-06	395.34	136.13	117.89	40.229	3.2337e-06	50.13	206.476	-67.987	-17.793	-123.019	-81.165	38.704	-123.284	-118.634	-12.402	-35.377	-119.005	-115.041	-114.605	-109.398	66.666	-109.956	-8191	255	
1080.970	1	1	0	0	0.33206	0.32236	0.19411	0.10956	0.16994	0.2344	0.31404	0.24937	0.2054	0.034427	0.0097856	0.17916	0.084357	0.025286	0.24899	0.24545	-1.1396	-1.1167	-0.86458	-1.8896	-0.89583	-1.1354	-1.6729	-1.0458	-1.4729	-1.1313	-1.1396	-1.8813	-0.96458	-1.4833	-1.6833	-1.0063	158.411	19.637	198.584	27.113	50.835	-41.841	165.363	171.946	75.706	-24.080	207.380	-123.871	30.646	219.063	113.075	191.701	0.00033274	0.00057728	6.6023e-05	1320.3	1.2561e-06	3.8597e-06	1311.7	350.49	2.8721e-06	5.8477e-06	400.63	136.52	118.76	40.348	4.1945e-06	50.507	0.00029983	0.00029071	8.2341e-05	1310.6	3.2183e-06	3.1853e-06	1309	348.12	3.2025e-06	3.1871e-06	395.22	136.35	117.99	40.186	3.2636e-06	50.23	199.071	-55.765	-136.568	-122.988	-28.974	21.489	-123.283	-118.625	-10.217	-64.296	-118.963	-114.821	-114.563	-109.255	-33.351	-110.115	-8191	255	
1081.066	1	1	0	0	0.10507	0.14264	0.080172	0.032857	0.10394	0.2469	0.42977	0.15736	0.37953	0.034106	0.11663	0.1269	0.19646	0.026346	0.20238	0.096203	-1.1708	-1.2292	-0.45417	-1.7646	-0.78958	-1.0375	-1.9042	-0.84792	-1.5625	-1.2188	-1.0271	-1.7625	-1.0375	-1.0104	-1.5896	-0.85625	50.428	-41.266	-30.642	-123.355	-68.680	47.774	151.170	110.763	-93.346	61.580	212.149	-67.666	185.660	87.864	201.730	63.729	0.00030914	0.00033832	0.00016384	1316	5.4271e-06	3.4758e-06	1318.1	350.06	8.1774e-07	5.4293e-06	402.81	136.69	118.82	40.499	3.1137e-06	50.699	0.00029703	0.00029175	8.1967e-05	1309	3.1592e-06	3.1953e-06	1312.4	347.59	3.1989e-06	3.1932e-06	395.75	136.4	118.13	40.29	3.2187e-06	50.296	200.019	214.058	-73.054	-123.141	-12.187	12.310	-123.476	-118.823	-94.345	-8.215	-118.814	-114.971	-114.593	-109.346	-12.931	-110.113	-8191	255	
1081.187	1	1	0	0	0.23287	0.3828	0.25402	0.050964	0.09446	0.070899	0.25414	0.43528	0.21822	0.18613	0.058126	0.10101	0.34981	0.18927	0.29175	0.099164	-0.96667	-1.325	-0.91042	-1.7062	-0.79792	-0.66667	-1.5875	-0.69792	-1.0604	-1.4667	-0.65417	-1.4688	-1.0708	-0.86458	-1.65	-0.93958	64.008	56.864	73.008	178.381	-14.890	174.710	169.188	-131.927	-75.757	-135.021	-48.902	-45.566	-59.982	193.162	-80.933	211.221	0.00036126	0.00059201	0.00011714	1319.9	3.9071e-06	5.7656e-06	1312.3	351.12	1.2244e-06	5.1568e-06	403.57	136.59	118.06	40.367	3.5658e-06	50.412	0.00029392	0.00029108	8.2228e-05	1311.2	3.2216e-06	3.2184e-06	1311.9	348.27	3.2381e-06	3.2567e-06	396.2	136.43	118.16	40.275	3.278e-06	50.115	194.091	-27.159	-20.499	-122.989	-14.967	26.312	-123.128	-118.664	-48.005	3.493	-118.956	-115.109	-114.059	-109.174	-15.382	-109.716	-8191	255	
1081.283	1	1	0	0	0.31576	0.091758	0.042555	0.33469	0.23461	0.10897	0.18658	0.12024	0.19253	0.13925	0.077281	0.33011	0.20756	0.21206	0.33222	0.21253	-0.92708	-1.4333	-0.5375	-1.6708	-1.0146	-0.86458	-1.8021	-0.8875	-1.0521	-1.6896	-0.82292	-1.6875	-1.2104	-0.77708	-1.6187	-0.95	-22.111	69.181	132.290	152.673	-116.140	167.734	104.605	111.466	79.086	93.844	188.474	218.410	-11.213	210.622	-104.164	16.170	0.000319	0.00053183	0.00021325	1317.1	4.0743e-06	2.7205e-06	1312.3	349.31	4.5661e-06	4.1443e-06	403.07	136.82	118.31	40.503	3.0122e-06	50.492	0.00030505	0.00030539	8.3862e-05	1309.5	3.3326e-06	3.3573e-06	1309.6	347.75	3.3269e-06	3.3288e-06	395.72	136.49	118.08	40.297	3.3254e-06	50.178	197.722	-11.405	-74.938	-122.864	-70.243	-16.532	-123.214	-118.652	-33.226	-13.187	-119.153	-114.769	-114.495	-109.545	20.673	-110.130	-8191	255	
1081.379	1	1	0	0	0.06994	0.14036	0.15147	0.23752	0.14542	0.25592	0.14418	0.30388	0.073904	0.093023	0.039391	0.1635	0.18063	0.15529	0.31595	0.40933	-0.73542	-1.5896	-0.65	-1.6125	-1.225	-0.62292	-1.7854	-0.91458	-1.0646	-1.5458	-0.825	-1.4396	-1.4333	-0.725	-1.5458	-1.1875	140.450	160.898	26.540	92.830	126.644	132.209	223.154	110.922	-119.240	-69.179	200.959	-128.399	187.270	-86.023	40.952	7.829	0.00036381	0.00031227	0.00012763	1322.3	4.0246e-06	2.5194e-06	1313.9	350.78	5.393e-06	6.352e-06	400.64	136.01	118.42	40.376	1.9411e-06	50.303	0.00030776	0.00030047	8.4585e-05	1310.8	3.3012e-06	3.3068e-06	1311.4	347.92	3.337e-06	3.285e-06	395.26	136.27	118.03	40.249	3.2967e-06	50.179	197.363	-89.479	-80.073	-122.947	-7.906	32.955	-123.169	-118.489	-61.770	22.893	-119.144	-114.938	-114.579	-109.206	11.838	-109.940	-8191	255	
1081.498	1	1	0	0	0.11434	0.17166	0.044253	0.29788	0.20552	0.12732	0.2694	0.20312	0.20658	0.087478	0.18988	0.071809	0.10636	0.25084	0.18303	0.1472	-0.63542	-1.7271	-0.57083	-1.4125	-1.3292	-0.53542	-1.7875	-1.1187	-0.65	-1.4979	-0.6875	-1.0729	-1.45	-0.72292	-1.5979	-1.2104	120.369	2.917	59.759	101.078	216.720	-45.691	146.785	214.166	66.521	-123.057	-112.027	-95.509	-60.591	-7.013	101.263	-38.073	0.0003654	0.00082624	0.0002104	1317	2.2753e-06	3.8658e-06	1313.4	348.97	3.5844e-06	1.3105e-06	402.41	136.14	118.1	40.619	4.1819e-06	50.323	0.00030919	0.00030261	8.3717e-05	1309.2	3.3482e-06	3.3516e-06	1310	348.08	3.3646e-06	3.3748e-06	395.6	136.5	117.91	40.325	3.3492e-06	50.229	197.244	-38.083	-64.178	-123.024	-28.670	-2.353	-123.082	-118.366	-61.815	28.797	-118.548	-114.684	-114.277	-109.336	13.532	-109.750	-8191	255	
1081.570	1	1	0	0	0.034613	0.16656	0.10896	0.33227	0.19434	0.12676	0.33946	0.17219	0.19113	0.068895	0.1227	0.14254	0.12307	0.083514	0.14075	0.20567	-0.34375	-1.6292	-0.71042	-1.1688	-1.5333	-0.44167	-1.5125	-1.2083	-0.675	-1.5562	-0.6875	-1.1583	-1.5271	-0.73958	-1.4229	-1.35	178.661	190.852	14.524	210.886	205.371	-71.952	165.819	-94.576	77.502	208.093	198.682	-69.774	-125.834	-122.121	38.112	-30.862	0.00033916	0.00033933	8.5443e-05	1317.4	5.9897e-06	1.8753e-06	1317.7	350.8	3.2769e-06	2.5608e-06	401.5	135.93	118.31	40.415	2.9192e-06	50.488	0.00031398	0.00030458	8.4354e-05	1309.1	3.4031e-06	3.3639e-06	1309.3	348.64	3.4367e-06	3.3505e-06	395.39	136.33	118.08	40.301	3.3818e-06	50.275	211.624	-9.531	-43.992	-122.802	-26.051	16.649	-123.009	-118.732	-2.287	-110.915	-118.746	-114.764	-114.255	-109.278	31.886	-109.907	-8191	255	
1081.666	1	1	0	0	0.19889	0.092965	0.12664	0.12263	0.057064	0.066656	0.40444	0.25	0.0868	0.12345	0.23823	0.21622	0.058351	0.079175	0.30415	0.25723	-0.27708	-1.4688	-0.825	-1.0354	-1.5917	-0.60208	-1.4438	-1.2104	-0.67083	-1.4833	-1.0729	-0.90625	-1.7104	-0.89167	-1.2125	-1.6667	-56.042	-124.674	138.260	184.921	25.391	169.674	174.621	208.625	-108.376	109.240	-122.979	142.816	222.771	-128.357	49.846	-76.843	0.00031335	0.00017076	0.00014683	1319.7	1.831e-06	1.2592e-06	1313.4	348.71	1.0318e-06	2.8021e-06	399.75	135.47	118.63	40.483	3.4063e-06	50.251	0.00031824	0.00030966	8.5636e-05	1309	3.4523e-06	3.4129e-06	1308.8	347.6	3.4865e-06	3.4234e-06	394.92	136.07	118.08	40.211	3.4287e-06	50.181	206.570	54.726	-55.450	-122.789	-30.982	-17.400	-123.060	-118.458	32.498	-63.076	-118.864	-114.829	-114.096	-108.980	0.063	-109.787	-8191	255	
1081.762	1	1	0	0	0.34358	0.072215	0.088394	0.3226	0.24814	0.040897	0.1893	0.21165	0.24478	0.17862	0.1023	0.2144	0.23461	0.346	0.2274	0.23618	-0.30208	-1.4458	-1.0479	-0.99792	-1.7938	-0.73333	-1.3188	-1.7188	-0.70417	-1.4688	-1.1583	-0.91667	-1.7458	-0.86042	-1.0167	-1.8021	-42.346	69.685	12.958	168.699	119.819	100.215	160.477	-115.779	44.275	-33.096	-127.429	64.473	176.972	-117.448	115.269	-119.103	0.00032406	0.00067957	0.0002152	1320.4	1.7724e-06	2.2136e-06	1313	349.43	7.135e-06	4.6484e-06	402.29	136.34	118.08	40.28	3.4547e-06	50.218	0.00031758	0.00030744	8.6531e-05	1310	3.4296e-06	3.4452e-06	1309.3	347.97	3.4509e-06	3.396e-06	395.9	136.29	118.08	40.186	3.4602e-06	50.189	207.323	-64.486	-31.733	-122.831	-113.512	22.515	-122.957	-118.338	-7.287	-14.657	-118.473	-114.489	-114.088	-109.065	-9.395	-109.757	-8191	255	
1081.882	1	1	0	0	0.14716	0.14344	0.32162	0.089361	0.24788	0.32151	0.092545	0.092065	0.057498	0.25131	0.16922	0.14765	0.20582	0.37015	0.24489	0.17938	-0.3875	-1.0146	-1.1729	-0.62708	-1.575	-0.82917	-1.2292	-1.6042	-0.48125	-1.2479	-1.5521	-0.91458	-1.7604	-1.1313	-1.0104	-1.7062	-7.317	-114.025	115.418	203.748	-19.119	-127.102	106.833	-60.890	96.069	196.772	-114.541	168.423	49.040	174.560	163.858	73.261	0.00029069	0.00024013	0.00010453	1317.3	1.6122e-06	4.5729e-06	1314.1	349.71	8.1079e-07	1.1992e-06	402.12	136.52	118.3	40.412	2.6222e-06	50.41	0.000315	0.00031126	8.62e-05	1309	3.431e-06	3.3758e-06	1309.6	347.56	3.4457e-06	3.419e-06	395.48	136.46	117.97	40.226	3.4771e-06	50.2	200.903	-86.747	-13.252	-122.612	11.127	-7.814	-122.841	-118.299	33.417	215.741	-118.621	-114.636	-114.121	-109.298	55.452	-109.910	-8191	255	
1081.979	1	1	0	0	0.15785	0.10242	0.21137	0.1884	0.26606	0.12086	0.16982	0.11477	0.30472	0.078696	0.12026	0.47366	0.29911	0.042617	0.072891	0.58132	-0.21875	-1.1083	-1.3521	-1.0167	-1.5708	-0.94167	-1.1354	-1.6875	-0.75	-1.5646	-1.4354	-0.83125	-1.6229	-1.3	-0.78958	-1.675	-14.288	48.941	-35.072	-33.175	-39.995	-107.369	104.372	-67.422	-106.200	203.218	-99.412	164.647	173.842	-5.878	146.249	138.753	0.00033082	0.00057189	7.6863e-05	1315.2	4.0905e-06	4.1031e-06	1310.7	349.63	1.2988e-06	2.2559e-06	400.42	136.11	117.99	40.295	2.4528e-06	50.61	0.00031628	0.00031354	8.6864e-05	1309	3.4234e-06	3.4118e-06	1309.2	347.84	3.468e-06	3.4707e-06	395.62	136.3	118.02	40.169	3.5371e-06	50.221	200.945	-39.671	-63.226	-122.739	-90.658	33.574	-122.853	-118.364	101.277	34.362	-118.546	-114.648	-114.049	-109.178	-24.407	-109.522	-8191	255	
1082.075	1	1	0	0	0.18864	0.29611	0.089729	0.069103	0.11015	0.13786	0.13255	0.35384	0.02911	0.26275	0.06863	0.064671	0.28449	0.17148	0.13782	0.2042	-0.62083	-1.1313	-1.5	-1.0562	-1.3354	-1.2354	-1.0063	-1.6333	-0.87083	-0.92292	-1.625	-0.78333	-1.5229	-1.4396	-0.6375	-1.625	7.134	105.764	-91.139	1.608	184.768	40.640	161.371	187.097	-68.924	-11.553	-45.610	-53.398	176.568	218.696	-119.649	59.495	0.00027808	0.00076933	3.7466e-05	1313.6	1.349e-06	3.0849e-06	1312.3	349.53	3.3716e-06	5.9506e-06	401.2	136.49	118.6	40.467	1.6331e-06	50.128	0.00032004	0.00031755	8.826e-05	1308.7	3.468e-06	3.4815e-06	1308.5	348.18	3.467e-06	3.5216e-06	395.99	136.45	118.11	40.313	3.5027e-06	50.192	201.104	-47.600	-62.770	-122.518	160.267	100.775	-122.913	-118.239	-13.013	23.872	-118.532	-114.586	-114.155	-108.750	-1.777	-109.644	-8191	255	
1082.146	1	1	0	0	0.17188	0.17047	0.14272	0.39961	0.14696	0.22405	0.30779	0.25164	0.14962	0.20188	0.14259	0.26375	0.038173	0.30423	0.27268	0.188	-0.59792	-0.92292	-1.6938	-0.79583	-1.375	-1.4667	-1.0542	-1.7979	-0.825	-0.83333	-1.6938	-0.71458	-1.4354	-1.55	-0.64792	-1.5812	158.173	-34.654	-65.690	201.593	-103.132	-45.520	165.094	66.654	-124.936	51.644	170.515	73.977	-58.805	217.119	152.524	93.067	0.00033597	4.7819e-05	0.00016289	1319.3	3.5569e-06	2.3768e-06	1309.3	350.6	3.5554e-06	3.2705e-06	401.19	135.81	117.92	40.365	3.4333e-06	50.653	0.00031935	0.00031795	8.8146e-05	1309	3.4751e-06	3.4929e-06	1307.5	348.44	3.4919e-06	3.539e-06	396.24	135.95	118.06	40.198	3.5469e-06	50.27	209.969	-98.396	-85.984	-122.733	-85.204	-12.512	-122.624	-118.048	-68.919	20.188	-118.547	-114.468	-113.976	-108.857	-4.975	-109.371	-8191	255	
1082.267	1	1	0	0	0.22061	0.040454	0.071428	0.20399	0.29021	0.089481	0.17951	0.12189	0.13701	0.058313	0.16868	0.29587	0.27317	0.2048	0.11681	0.081374	-0.71875	-0.80417	-1.5542	-1.0167	-1.2875	-1.6229	-0.79167	-1.4875	-1.1146	-0.69583	-1.6437	-0.92708	-1.2229	-1.6	-0.57292	-1.5375	155.431	53.352	158.652	139.140	-127.667	-99.924	169.930	-123.115	46.097	165.792	-87.355	121.391	174.808	-133.651	-26.578	115.994	0.0002651	0.00051408	0.00016665	1315.5	2.4584e-06	5.6882e-06	1307	349.68	3.5101e-06	8.7362e-06	400.89	135.91	118.09	40.245	1.841e-06	50.08	0.00032586	0.00032678	8.9372e-05	1308.7	3.546e-06	3.5643e-06	1309	347.95	3.5238e-06	3.5713e-06	395.67	136.04	117.81	40.199	3.5591e-06	50.114	193.449	-68.653	-91.537	-121.897	6.221	1.594	-122.614	-117.705	-23.558	-2.731	-118.321	-114.024	-113.482	-109.195	84.113	-109.543	-8191	255	
1082.363	1	1	0	0	0.11559	0.18376	0.20208	0.24696	0.052516	0.20186	0.32264	0.1786	0.12326	0.22527	0.17957	0.12308	0.1329	0.18499	0.14816	0.11371	-1	-0.625	-1.5354	-0.93125	-0.90417	-1.4188	-0.79375	-1.4646	-1.2958	-0.72292	-1.6375	-1.1875	-1.0458	-1.6938	-0.76875	-1.3312	126.743	61.036	55.416	187.810	-104.683	-115.402	74.790	17.711	90.041	126.955	174.043	17.896	25.469	-63.488	117.767	134.159	0.00031272	0.00040634	0.00011013	1319	1.0972e-06	4.8635e-07	1313.2	350.4	2.9541e-06	3.4946e-06	401.22	136.54	117.61	40.422	2.6365e-06	50.407	0.00032456	0.0003242	8.8928e-05	1308.2	3.5317e-06	3.5501e-06	1309.2	348.03	3.5372e-06	3.58e-06	396.19	136.36	117.9	40.252	3.5276e-06	50.196	211.722	-28.042	-49.461	-122.712	67.244	-30.020	-122.847	-118.391	18.977	4.149	-118.222	-114.149	-113.744	-109.157	-59.695	-109.689	-8191	255	
1082.459	1	1	0	0	0.19157	0.13363	0.241	0.13416	0.023757	0.19093	0.41229	0.16684	0.21813	0.2196	0.21032	0.27151	0.11535	0.29195	0.11774	0.20201	-1.1708	-0.67917	-1.5354	-1.1146	-0.76667	-1.6021	-0.775	-1.3521	-1.4146	-0.8	-1.5312	-1.2271	-0.76042	-1.8354	-0.71667	-1.075	64.458	-32.568	3.437	223.882	71.710	75.970	189.877	157.276	106.953	151.178	151.557	-25.522	-4.126	120.745	61.768	139.253	0.00033163	0.00058386	0.00019512	1318.3	2.1499e-06	5.9738e-06	1311.9	350.59	1.1291e-06	7.1047e-06	402.38	135.61	118.48	40.355	2.5966e-06	50.173	0.00032666	0.00032615	8.9663e-05	1308.9	3.5592e-06	3.5225e-06	1309	348.6	3.5393e-06	3.5379e-06	395.98	136.2	118.19	40.279	3.5325e-06	50.161	199.852	-20.158	-14.346	-122.861	-61.186	5.853	-122.768	-117.675	-5.425	-12.670	-117.962	-115.038	-114.223	-108.927	21.702	-109.417	-8191	255	
1082.578	1	1	0	0	0.27	0.26	0.28409	0.37632	0.18892	0.12391	0.15345	0.12262	0.16563	0.029188	0.036774	0.12444	0.26225	0.22923	0.13002	0.15709	-0.9875	-0.60417	-1.4583	-1.5104	-0.75625	-1.5875	-0.86042	-1.1021	-1.45	-0.56667	-1.5667	-1.5042	-0.63125	-1.7021	-0.95208	-1.1146	156.584	-106.921	184.712	166.613	-125.902	164.421	218.227	89.776	81.544	212.468	-96.917	40.365	-119.604	139.791	-65.404	-111.570	0.00033169	0.0006147	0.00011562	1314.9	2.3529e-06	3.1255e-06	1308.4	348.77	4.2578e-06	4.3002e-06	400.46	135.81	117.77	40.335	2.805e-06	50.275	0.00032545	0.00032068	8.8486e-05	1309.5	3.5769e-06	3.5214e-06	1308.9	348.3	3.5688e-06	3.5471e-06	395.76	136.18	118.1	40.194	3.551e-06	50.24	201.818	-30.432	-79.102	-123.153	80.887	65.268	-123.571	-118.506	-8.595	-10.326	-118.759	-114.755	-114.400	-109.120	3.948	-109.717	-8191	255	
1082.674	1	1	0	0	0.19616	0.21437	0.12198	0.14754	0.22406	0.26294	0.2737	0.14462	0.21489	0.11055	0.048011	0.227	0.26461	0.11859	0.047393	0.26026	-1.2563	-0.5625	-1.3583	-1.5208	-0.57292	-1.8708	-1.3687	-1.125	-1.5104	-0.71042	-1.4208	-1.3458	-0.9	-1.6104	-1.0792	-0.97083	-34.555	206.853	116.388	184.955	199.144	127.156	181.699	209.335	151.294	80.876	13.495	-117.788	187.515	-61.522	103.219	142.257	0.00030558	0.00040288	3.9069e-05	1315.5	2.8581e-06	2.0269e-06	1312.5	349.13	5.0314e-06	2.1688e-06	401.1	135.75	118.2	40.265	3.2418e-06	50.369	0.00033104	0.00032278	8.9965e-05	1309	3.6224e-06	3.5238e-06	1308.1	347.93	3.6167e-06	3.524e-06	395.84	136.21	118.02	40.195	3.572e-06	50.223	202.944	-41.782	-120.599	-122.966	-12.849	-4.230	-122.527	-117.683	-30.885	112.406	-118.676	-114.589	-113.587	-108.733	-8.773	-109.267	-8191	255	
1082.771	1	1	0	0	0.21175	0.2222	0.14204	0.22362	0.11107	0.064733	0.24567	0.22576	0.22226	0.23645	0.17973	0.21148	0.30174	0.016197	0.24409	0.19986	-1.2792	-0.55625	-1.175	-1.7604	-0.60833	-1.4646	-1.2896	-0.97708	-1.3875	-0.675	-1.2229	-1.8	-0.67292	-1.6333	-1.1479	-0.76875	-109.091	201.766	175.650	203.245	149.942	-133.642	206.561	-127.530	-116.132	34.126	-26.959	158.908	-133.472	12.131	187.169	188.571	0.00032212	0.00085519	3.5428e-05	1314.3	4.4938e-06	3.7614e-06	1310.4	350.62	4.8112e-06	5.6407e-06	400.71	136.07	118.13	40.297	4.4422e-06	50.276	0.00032806	0.00032345	9.0269e-05	1307.8	3.6041e-06	3.5035e-06	1309.4	348.25	3.5758e-06	3.569e-06	396.21	136.55	117.91	40.218	3.6169e-06	50.139	205.385	-4.464	-10.126	-122.917	7.863	45.740	-122.566	-117.829	32.702	-38.963	-118.638	-114.204	-114.203	-109.475	25.943	-110.028	-8191	255	
1082.867	1	1	0	0	0.13479	0.23349	0.23937	0.42538	0.037072	0.17607	0.092914	0.12127	0.09431	0.2526	0.13398	0.10163	0.077615	0.10478	0.1717	0.16743	-1.2812	-0.75208	-0.94375	-1.6063	-0.55417	-1.3458	-1.4333	-0.75417	-1.6604	-0.86458	-1.0208	-1.6521	-0.7125	-1.6833	-1.3208	-0.84792	209.951	146.309	174.207	188.413	-101.841	159.480	115.750	154.644	190.200	153.700	184.553	-83.784	-63.541	214.124	109.733	44.727	0.00028756	0.0010499	0.00011328	1314.8	3.3359e-06	4.2539e-07	1311.4	347.96	4.0716e-06	2.8202e-06	399.48	135.98	118.13	40.606	8.0881e-07	50.289	0.0003318	0.00032482	9.1617e-05	1308	3.566e-06	3.5299e-06	1308.6	347.51	3.5989e-06	3.5673e-06	395.45	136.14	117.87	40.275	3.6288e-06	50.189	195.811	-73.260	-104.437	-123.005	35.431	49.393	-123.185	-118.577	-10.311	57.929	-118.688	-114.721	-113.821	-108.366	9.459	-110.111	-8191	255	
1082.963	1	1	0	0	0.14476	0.10469	0.21216	0.41426	0.113	0.060382	0.27065	0.30986	0.11817	0.069569	0.20924	0.23094	0.10868	0.22262	0.10164	0.20074	-1.3104	-0.93958	-0.80833	-1.8062	-0.725	-1.1688	-1.6729	-0.75208	-1.5646	-1.0021	-0.96875	-1.5521	-0.70833	-1.0521	-1.5	-0.6375	-61.448	-85.679	29.087	173.138	4.445	219.862	130.956	110.610	-83.142	-21.271	-73.091	126.664	208.316	-110.610	64.870	218.972	0.00035284	0.00057061	5.9925e-05	1309.4	1.9471e-06	3.0742e-06	1311.3	349.81	2.9481e-06	4.4793e-06	401.09	135.77	117.75	40.39	2.4944e-06	49.951	0.00032917	0.00032566	9.1006e-05	1307.9	3.5957e-06	3.5942e-06	1308.6	347.84	3.6132e-06	3.568e-06	396.05	136.25	117.77	40.2	3.6285e-06	50.058	201.293	-11.858	-97.505	-122.792	0.714	-13.879	-122.660	-117.816	-17.197	-93.987	-118.972	-115.097	-114.358	-109.212	71.358	-109.379	-8191	255	
1083.059	1	1	0	0	0.16805	0.095975	0.22443	0.20735	0.37653	0.036036	0.32566	0.37838	0.17249	0.25629	0.1951	0.22624	0.1701	0.19067	0.12739	0.2048	-1.1271	-0.90208	-0.75	-1.7208	-0.67708	-1	-1.5396	-0.7375	-1.5312	-1.1583	-0.74167	-1.7062	-1.0875	-1.0104	-1.6396	-0.71875	29.491	-92.833	37.091	187.509	92.689	12.444	141.900	152.540	81.929	162.337	215.722	-113.190	126.531	-19.176	-131.645	204.263	0.0003427	0.00049118	0.00015849	1317.1	2.465e-06	7.425e-06	1309	348.89	4.1121e-06	7.3297e-06	401.13	135.98	117.78	40.204	4.5524e-06	50.285	0.00032786	0.00032582	9.209e-05	1308.4	3.5686e-06	3.5583e-06	1307.4	347.46	3.5487e-06	3.5693e-06	396.04	136.2	117.78	40.181	3.6126e-06	50.221	185.181	-21.661	-49.077	-122.043	18.270	14.533	-123.510	-118.869	-20.916	-41.440	-118.891	-115.179	-114.705	-109.566	-14.249	-110.190	-8191	255	
1083.180	1	1	0	0	0.13172	0.21288	0.17925	0.034685	0.2228	0.30172	0.17574	0.41283	0.20812	0.2432	0.46224	0.059356	0.16509	0.18779	0.17023	0.071265	-0.94792	-1.2354	-0.69583	-1.725	-0.825	-0.98542	-1.85	-0.64375	-1.2542	-1.3375	-0.83333	-1.5604	-1.1208	-0.925	-1.525	-0.86458	59.984	-74.700	26.148	-106.162	76.652	206.034	183.449	142.095	195.361	-110.883	176.234	-53.103	-8.448	119.581	205.491	16.861	0.00032175	0.00045009	0.00016819	1314.2	7.9769e-07	2.489e-06	1311	348.95	1.5599e-06	3.5043e-06	400.5	135.94	117.88	40.561	1.8913e-06	50.296	0.00032698	0.00032609	9.1259e-05	1308.2	3.533e-06	3.5183e-06	1309.7	347.58	3.5121e-06	3.5161e-06	395.79	136.34	117.89	40.256	3.5381e-06	50.178	200.851	-84.333	-114.122	-123.108	217.019	-6.215	-123.302	-118.775	-28.046	-92.782	-118.947	-114.979	-114.422	-109.540	26.708	-109.771	-8191	255	
1083.276	1	1	0	0	0.13793	0.019695	0.21852	0.064744	0.10888	0.015071	0.10123	0.34732	0.23246	0.24597	0.13954	0.23381	0.11229	0.20471	0.17371	0.24742	-0.7	-1.3417	-0.5875	-1.575	-1.2479	-0.71667	-1.7417	-0.80417	-0.82292	-1.4333	-0.78958	-1.7958	-1.2417	-0.75833	-1.5271	-0.95625	90.203	63.200	137.634	67.920	111.778	-130.585	109.762	176.602	172.432	218.120	104.227	187.943	-107.293	4.251	-99.638	86.148	0.00032467	0.00018473	0.00014653	1319.9	5.6566e-06	5.7987e-06	1314.1	348.33	1.6449e-06	4.1059e-06	400.62	135.8	118.11	40.432	3.7648e-06	50.254	0.0003216	0.0003193	8.9695e-05	1309.5	3.497e-06	3.5288e-06	1309.6	347.66	3.5491e-06	3.5326e-06	396.34	136.31	118.05	40.265	3.5152e-06	50.168	199.867	-96.298	-66.769	-123.031	-37.490	66.377	-123.331	-118.852	-113.885	5.208	-119.210	-114.844	-114.422	-109.391	-10.740	-110.417	-8191	255	
1083.370	1	1	0	0	0.083128	0.12432	0.20439	0.2001	0.12182	0.40411	0.36489	0.094975	0.15731	0.11833	0.10712	0.11541	0.10366	0.20612	0.1539	0.08456	-0.53958	-1.5458	-0.32292	-1.5021	-1.2437	-0.7375	-1.6542	-0.98125	-0.725	-1.6333	-0.99375	-1.4375	-1.3875	-0.69583	-1.4312	-0.85208	-135.345	151.155	-98.542	91.613	186.831	-121.028	192.458	0.787	43.892	-82.312	-113.157	-135.849	202.833	-128.494	-132.729	30.134	0.00033552	0.00026653	0.0001673	1314.4	6.6196e-07	5.7015e-06	1310.4	349.92	3.197e-06	2.896e-06	402.49	136.4	117.7	40.3	2.6588e-06	50.479	0.00032307	0.00031797	8.7918e-05	1307.8	3.4874e-06	3.4823e-06	1308.4	347.77	3.5074e-06	3.5131e-06	396.18	136.45	117.89	40.227	3.4803e-06	50.242	201.228	-56.616	-49.854	-123.180	-74.564	-0.231	-123.331	-118.980	-76.821	-34.999	-119.000	-115.103	-114.630	-109.539	7.049	-110.087	-8191	255	
1083.444	1	1	0	0	0.098269	0.033082	0.33974	0.40482	0.14951	0.18072	0.25519	0.31211	0.21072	0.10918	0.18412	0.27267	0.27822	0.25629	0.20597	0.28998	-0.33125	-1.6146	-0.63125	-1.4292	-1.3646	-0.5	-1.6688	-1.1063	-0.96875	-1.6854	-0.67083	-1.2958	-1.5333	-0.75208	-1.4729	-1.1688	-123.908	-120.884	92.205	203.480	2.629	221.266	175.949	151.311	201.718	180.653	-119.169	-42.165	198.671	185.305	-90.354	83.678	0.00032485	0.0004635	0.00012133	1314.8	1.0347e-06	4.0415e-06	1308.4	348.69	2.1386e-06	3.2716e-06	400.09	136.24	117.92	40.234	2.8746e-06	50.609	0.00031911	0.0003192	8.6478e-05	1308.7	3.4341e-06	3.4617e-06	1307.4	347.32	3.4524e-06	3.4546e-06	395.16	136.2	117.99	40.192	3.4552e-06	50.354	204.849	-26.683	-111.514	-123.217	-45.178	33.631	-123.390	-118.894	58.658	-16.255	-119.274	-115.033	-114.634	-109.499	-26.299	-110.082	-8191	255	
1083.562	1	1	0	0	0.093135	0.14336	0.19456	0.31302	0.063504	0.18415	0.19699	0.2286	0.051322	0.10063	0.22072	0.26095	0.17813	0.13752	0.41322	0.11913	-0.475	-1.5604	-0.69167	-1.0875	-1.4375	-0.67292	-1.5	-1.2854	-0.6625	-1.3583	-0.65625	-0.94792	-1.7062	-0.69375	-1.2417	-1.5479	8.084	-35.777	-44.147	217.446	210.699	208.918	125.310	-97.315	-76.975	-60.305	-99.809	202.591	104.114	-84.395	152.612	172.301	0.00035797	0.00031805	0.00015399	1317	3.5633e-06	3.6089e-06	1314	349.17	4.3457e-06	4.5851e-07	400.97	136.52	118.5	40.583	8.9734e-07	50.421	0.00031816	0.00031563	8.6679e-05	1309.2	3.4791e-06	3.4335e-06	1311.2	347.75	3.4297e-06	3.4179e-06	395.49	136.58	118.2	40.35	3.3824e-06	50.279	206.124	-12.729	-36.953	-122.965	-112.030	66.863	-123.325	-118.729	-35.321	-31.034	-119.198	-115.268	-114.421	-109.709	9.381	-109.969	-8191	255	
1083.659	1	1	0	0	0.13998	0.0091405	0.064545	0.27155	0.17213	0.30243	0.35054	0.056196	0.20378	0.19336	0.10256	0.23914	0.085594	0.22566	0.093891	0.20011	-0.39792	-1.6125	-0.71458	-1.0104	-1.5688	-0.74375	-1.3188	-1.6667	-0.4875	-1.5854	-1.2042	-0.9125	-1.7	-0.69792	-1.2875	-1.3937	-48.813	-41.923	-48.335	-87.962	166.012	140.314	152.284	103.376	26.701	-46.298	93.440	216.622	135.448	199.391	168.036	178.972	0.00032826	0.00033398	7.7609e-05	1315.4	3.3862e-06	4.362e-06	1315	349.43	2.6418e-06	1.4306e-06	401.8	137.02	118.83	40.661	6.0194e-06	50.666	0.00031374	0.00030248	8.3427e-05	1310.7	3.3196e-06	3.2717e-06	1308.9	348.18	3.3111e-06	3.2534e-06	395.85	136.99	118.33	40.429	3.263e-06	50.477	202.183	-11.756	-76.832	-123.297	11.609	21.856	-123.115	-118.511	-29.383	180.481	-118.707	-115.079	-114.501	-109.701	23.908	-110.163	-8191	255	
1083.755	1	1	0	0	0.2869	0.11325	0.12312	0.31568	0.13119	0.34991	0.10233	0.20128	0.085185	0.15354	0.059306	0.31916	0.068135	0.15444	0.26804	0.19922	-0.39583	-1.3979	-1.0417	-0.85	-1.5312	-0.69167	-1.3646	-1.5458	-0.48958	-1.3104	-1.325	-0.84792	-1.7021	-0.76875	-1.1167	-1.4937	-3.560	118.829	217.255	-102.333	191.710	184.754	25.715	161.137	170.910	147.172	-29.008	193.788	153.302	171.844	-135.712	119.067	0.00033057	0.00031432	0.00020528	1322.7	6.2032e-06	5.2882e-06	1317.1	351.63	4.1381e-06	1.7443e-06	404.76	137.72	119.95	41.048	1.3628e-06	51.126	0.00030007	0.00028452	7.9285e-05	1312	3.0757e-06	3.0601e-06	1313.2	349.29	3.0615e-06	3.0125e-06	396.77	137.69	119.43	40.729	3.1166e-06	50.725	202.673	-28.114	-50.670	-123.021	-32.987	47.223	-123.411	-118.763	-13.884	-16.163	-118.939	-114.991	-114.379	-109.636	33.780	-110.062	-8191	255	
1083.851	1	1	0	0	0.31024	0.10142	0.31996	0.18607	0.10112	0.015466	0.038145	0.0901	0.032444	0.21414	0.099969	0.34914	0.14063	0.28523	0.13246	0.094647	-0.18542	-1.4062	-1.2167	-0.76042	-1.5021	-0.93958	-1.1896	-1.5521	-0.59167	-1.3208	-1.4479	-0.60833	-1.6542	-1.0896	-0.775	-1.7917	31.493	35.851	134.608	166.813	-121.160	218.162	96.558	172.954	19.860	-87.343	195.153	-135.111	105.895	170.037	-83.705	189.402	0.00028552	0.00034616	5.1293e-05	1319.1	4.4695e-06	5.2737e-06	1308.5	348.66	5.2104e-06	5.9799e-06	401.62	135.97	118.04	40.125	4.5849e-06	50.377	0.0002908	0.00028552	8.039e-05	1310.1	3.2628e-06	3.2432e-06	1309.8	348.23	3.4333e-06	3.4136e-06	396.27	136.49	118.3	40.236	3.6657e-06	50.306	202.895	-48.719	-67.762	-123.002	-42.119	15.901	-123.054	-118.721	-35.930	-6.096	-118.991	-114.869	-114.464	-109.525	-32.606	-109.834	-8191	255	
1083.947	1	1	0	0	0.23817	0.083996	0.30978	0.14719	0.047267	0.15518	0.21664	0.11077	0.17187	0.17634	0.11209	0.15579	0.03145	0.16611	0.23421	0.33316	-0.0625	-1.2062	-1.4458	-0.82292	-1.4062	-1.0312	-0.99375	-1.6958	-0.77292	-1.1208	-1.6854	-0.87083	-1.5521	-1.1958	-0.68542	-1.7542	220.406	-31.724	-86.729	190.392	99.801	202.853	204.635	-96.834	36.345	-115.197	192.902	146.397	163.615	222.883	45.615	177.240	0.00027389	0.0010571	8.6726e-05	1316.1	1.9154e-06	1.8826e-06	1310.3	349.54	3.9982e-06	3.5519e-06	399.58	136.56	118.1	40.421	2.5775e-06	50.574	0.00033115	0.00032336	9.1346e-05	1309.5	3.5204e-06	3.5248e-06	1309.8	348.43	3.5058e-06	3.486e-06	396.06	136.53	118.16	40.272	3.4312e-06	50.316	207.615	-55.898	-67.179	-123.042	-58.070	222.894	-122.946	-118.372	-61.440	21.542	-118.572	-114.904	-114.214	-109.324	-25.185	-109.949	-8191	255	
1084.043	1	1	0	0	0.16122	0.13765	0.15837	0.16307	0.19501	0.30843	0.32612	0.48505	0.088687	0.048555	0.23809	0.28661	0.12477	0.18763	0.1673	0.28508	-0.41458	-0.9375	-1.4292	-0.84375	-1.3188	-1.0083	-0.98542	-1.55	-0.63542	-0.99375	-1.6396	-0.83958	-1.3687	-1.3667	-0.4875	-1.6479	-65.516	187.177	60.492	121.967	-6.524	26.185	167.003	149.913	-18.404	125.305	201.704	161.014	138.294	116.588	93.919	154.219	0.00039549	0.00018295	2.4957e-05	1314.7	1.5192e-06	2.1823e-06	1312.9	351.27	7.0065e-06	5.4125e-06	402.15	136.54	118.33	40.376	4.2919e-06	50.388	0.00030654	0.000302	8.3407e-05	1307.7	3.2258e-06	3.2442e-06	1307.3	347.92	3.1724e-06	3.1702e-06	395.14	136.39	117.88	40.185	3.2156e-06	50.104	199.856	-110.987	-84.727	-123.041	196.030	21.837	-123.387	-118.793	-17.760	-23.008	-119.112	-115.298	-114.468	-109.411	-36.320	-109.997	-8191	255	
1084.139	1	1	0	0	0.15445	0.19426	0.15269	0.18429	0.020082	0.23923	0.18146	0.27028	0.18536	0.12982	0.15272	0.30823	0.18741	0.025331	0.22825	0.14417	-0.60208	-0.775	-1.5333	-0.72083	-1.2375	-1.2604	-0.68542	-1.7125	-0.77083	-0.76042	-1.8417	-0.76042	-1.3854	-1.5354	-0.78125	-1.6229	71.410	222.345	-125.865	-82.361	68.634	92.166	140.058	134.493	8.851	-66.321	110.212	134.592	-135.236	-31.996	-117.332	97.790	0.0003099	0.00021252	0.00017991	1316	1.293e-06	8.856e-07	1313.8	351.27	4.3937e-06	4.9228e-06	403.21	136.31	117.84	40.371	1.8794e-06	50.312	0.00029347	0.00028809	8.0711e-05	1305.5	3.1402e-06	3.1444e-06	1307.3	347.92	3.1798e-06	3.1905e-06	395.59	136.12	117.67	40.067	3.228e-06	50.013	203.301	-55.646	-79.015	-123.235	-92.762	31.298	-123.480	-118.739	-22.679	-23.974	-118.876	-114.894	-114.370	-109.467	92.666	-109.975	-8191	255	
1084.260	1	1	0	0	0.091195	0.065653	0.18138	0.15597	0.31912	0.27989	0.18555	0.20134	0.097585	0.17355	0.40739	0.1648	0.1446	0.27628	0.30616	0.11471	-0.66667	-0.67292	-1.5667	-0.8	-1.1792	-1.4667	-0.76667	-1.7333	-1.1833	-0.67083	-1.6104	-0.79792	-0.98333	-1.4625	-0.65833	-1.4333	-61.423	98.262	11.419	176.190	-35.391	211.728	197.069	194.123	82.058	49.075	192.703	174.694	173.447	-27.723	-0.599	174.533	0.00024139	0.00072338	8.2012e-05	1316.1	1.314e-06	2.4163e-06	1314	350.61	2.7173e-06	2.8591e-06	403.57	136.85	118.81	40.494	3.6589e-06	50.52	0.00029203	0.00029086	7.9433e-05	1306.9	3.1063e-06	3.1115e-06	1309.4	348.31	3.0457e-06	3.0996e-06	394.83	136.32	118.14	40.177	2.9852e-06	50.17	193.348	-22.167	-117.536	-123.041	-38.916	-8.538	-123.401	-118.696	25.291	-34.703	-118.897	-115.156	-114.605	-109.476	-71.038	-110.252	-8191	255	
1084.356	1	1	0	0	0.1667	0.12554	0.42902	0.32874	0.097047	0.18313	0.23145	0.21595	0.27213	0.17013	0.053431	0.20797	0.23898	0.037626	0.14064	0.22775	-0.92917	-0.66875	-1.3792	-0.89375	-0.93125	-1.6083	-0.76875	-1.3	-1.3937	-0.70625	-1.6625	-0.98333	-0.7625	-1.7875	-0.625	-1.3667	165.071	41.696	90.094	187.467	-8.741	133.447	192.964	146.329	133.400	-15.740	-16.057	183.578	220.452	163.219	55.261	-11.545	0.00030874	0.0005755	0.00013902	1318.4	4.4562e-06	3.8732e-06	1322.2	353.1	3.2823e-06	4.4593e-06	402.34	136.98	119.33	40.604	2.7969e-06	50.711	0.00027422	0.00027122	7.4074e-05	1308.6	2.9354e-06	2.9023e-06	1313.4	348.93	2.9199e-06	2.9038e-06	395.08	136.2	118.26	40.257	2.8843e-06	50.242	193.352	-61.788	-36.711	-123.170	-68.975	59.277	-123.348	-118.594	5.282	14.933	-118.753	-115.155	-114.542	-109.666	15.260	-109.868	-8191	255	
1084.451	1	1	0	0	0.12505	0.017724	0.12378	0.17138	0.10351	0.18684	0.36647	0.03532	0.10278	0.14042	0.082041	0.16846	0.19369	0.13017	0.13331	0.062262	-1.0063	-0.72083	-1.5708	-1.2104	-0.94375	-1.5708	-0.89167	-1.3125	-1.2208	-0.48958	-1.4896	-1.0167	-0.91042	-1.8021	-0.53125	-1.2583	121.191	-102.157	-56.379	186.421	-26.600	205.902	100.456	-89.846	28.921	173.289	-15.536	141.348	136.219	168.021	-77.274	-0.623	0.00036991	0.00077975	0.00011902	1321.9	5.6489e-07	4.864e-06	1320.6	351.11	3.9828e-06	4.0392e-06	401.9	136.17	118.56	40.538	1.5845e-06	50.314	0.00027347	0.00026816	7.3212e-05	1310.4	2.9382e-06	2.9219e-06	1313.3	348.01	2.9518e-06	2.9697e-06	394.65	136.17	117.8	40.137	3.0739e-06	49.922	204.997	-13.179	-70.781	-123.154	126.915	23.823	-123.307	-118.662	-10.012	104.823	-119.093	-115.156	-114.673	-109.535	114.057	-110.285	-8191	255	
1084.548	1	1	0	0	0.35468	0.11206	0.16893	0.35707	0.17619	0.21201	0.18232	0.14412	0.11957	0.28247	0.15808	0.23307	0.18693	0.19911	0.086467	0.14795	-1.0688	-0.65208	-1.3	-1.2417	-0.50417	-1.4438	-0.76042	-0.96667	-1.6458	-0.5375	-1.4312	-1.4312	-0.78958	-1.5667	-0.70833	-1.025	203.350	98.450	-41.642	181.678	138.682	54.940	125.794	213.191	103.025	127.610	-76.560	188.587	193.778	-124.042	215.088	91.890	0.00031804	0.00045456	0.00019137	1318.1	3.4041e-06	5.6728e-06	1317.1	349.65	4.6789e-06	3.0715e-06	401.62	136.17	117.97	40.416	3.1864e-07	50.503	0.00029148	0.00028612	7.9516e-05	1308.6	3.1966e-06	3.1211e-06	1310.3	347.38	3.1604e-06	3.1288e-06	395.08	136.05	117.77	40.164	3.0488e-06	50.249	201.574	21.372	-57.076	-123.183	11.834	48.074	-123.577	-118.609	-26.835	156.768	-118.886	-115.179	-114.426	-109.552	117.519	-110.237	-8191	255	
1084.667	1	1	0	0	0.088955	0.030725	0.12803	0.32665	0.088045	0.24882	0.19373	0.10572	0.098915	0.2046	0.31755	0.2427	0.14633	0.048136	0.23787	0.087891	-1.25	-0.52083	-1.1792	-1.4979	-0.62083	-1.4062	-1	-0.99583	-1.4	-0.68125	-1.3625	-1.6562	-0.81042	-1.7917	-1.0354	-1.1125	168.801	-41.671	195.130	196.488	-38.796	-27.109	-124.747	199.909	37.499	186.346	-134.999	97.207	36.856	-84.472	-68.577	2.614	0.00028886	0.00034812	0.00013231	1324.7	4.2126e-06	5.9576e-06	1321.5	352.22	1.2574e-06	1.5727e-06	402.09	137.19	118.94	40.8	2.5031e-06	50.735	0.00028132	0.00027283	7.4997e-05	1313.3	3.0142e-06	2.8938e-06	1316.8	349.12	2.9649e-06	2.8859e-06	395.98	137.13	118.53	40.477	2.9249e-06	50.373	201.890	75.218	-56.754	-123.490	-12.621	8.537	-123.464	-118.800	-23.989	35.155	-119.014	-115.313	-114.773	-109.634	5.465	-110.124	-8191	255	
1084.739	1	1	0	0	0.17305	0.097501	0.062293	0.28456	0.010354	0.27772	0.070408	0.25727	0.29169	0.32564	0.38472	0.43628	0.39303	0.085378	0.1313	0.03417	-1.0354	-0.8125	-1.0187	-1.7771	-0.49375	-1.3896	-1.2729	-0.7	-1.5458	-0.625	-1.1729	-1.4792	-0.75833	-1.4937	-1.1688	-0.64375	-133.817	22.524	-80.247	163.436	123.984	101.255	121.190	216.302	207.780	104.342	-108.031	202.332	-127.442	221.457	157.295	100.629	0.00036242	0.00024244	0.00012872	1326.8	2.3534e-06	6.6975e-06	1322.9	351.39	5.8733e-07	9.548e-07	404.47	138.97	120.32	41.418	6.6044e-06	51.418	0.00026819	0.00025826	7.3101e-05	1311.7	2.8505e-06	2.7684e-06	1314.3	348.63	2.7316e-06	2.6796e-06	396.17	138.16	119.48	40.952	2.6263e-06	50.91	187.976	-58.619	-30.589	-123.374	41.449	49.324	-123.186	-118.841	62.768	-47.839	-119.105	-115.361	-114.533	-109.746	-11.609	-110.275	-8191	255	
1084.860	1	1	0	0	0.14683	0.099321	0.096026	0.29394	0.10232	0.075783	0.1598	0.13828	0.2344	0.018471	0.15928	0.12924	0.20348	0.13505	0.1541	0.12547	-1.1479	-0.79167	-1	-1.8792	-0.64583	-1.5292	-1.4583	-0.85625	-1.4958	-0.93542	-0.98542	-1.6938	-0.78958	-1.4104	-1.2167	-0.81875	160.148	-56.844	-38.429	126.216	87.613	-44.570	70.393	-131.348	-114.463	8.468	221.804	5.389	216.567	211.783	-94.754	-131.167	0.00032265	0.00051841	7.8175e-05	1327	4.5647e-06	3.9954e-06	1317.1	355.1	4.0718e-06	3.0866e-06	406.04	138.93	120.23	41.236	4.0027e-06	51.434	0.00024581	0.0002349	6.5717e-05	1314.5	2.6464e-06	2.5882e-06	1315.3	349.69	2.5884e-06	2.6025e-06	396.33	138.19	119.41	40.867	2.6898e-06	50.835	197.649	-57.647	-12.826	-123.139	-4.118	32.089	-123.408	-118.546	-34.880	-43.270	-118.890	-115.106	-114.717	-109.486	-26.332	-110.187	-8191	255	
1084.956	1	1	0	0	0.20443	0.16474	0.10787	0.21342	0.25047	0.075334	0.2453	0.18452	0.064695	0.085946	0.13678	0.25073	0.11627	0.12096	0.13621	0.34356	-1.2167	-0.93542	-0.80625	-1.7646	-0.64792	-1.2875	-1.5396	-0.55833	-1.5104	-0.975	-0.875	-1.7625	-0.71042	-1.3333	-1.3104	-0.68125	32.657	165.548	84.340	185.562	75.163	107.675	190.205	142.102	63.038	-53.510	122.234	-123.156	-13.923	-4.424	124.902	159.489	0.00038066	0.00067742	0.00012816	1326.9	2.377e-06	2.6293e-06	1319	350.42	3.0701e-06	2.2213e-06	402.79	137.37	118.77	40.591	3.2295e-06	50.479	0.00024957	0.00024214	6.8388e-05	1311.8	2.7133e-06	2.7353e-06	1311.6	347.9	2.8048e-06	2.8687e-06	394.93	136.68	118.12	40.252	3.0125e-06	50.072	199.053	-53.824	-121.879	-123.065	-69.054	38.340	-123.388	-118.669	-1.325	-107.236	-119.095	-115.186	-114.711	-109.501	115.306	-110.245	-8191	255	
1085.052	1	1	0	0	0.11815	0.23445	0.28688	0.28097	0.083356	0.21567	0.070421	0.09246	0.17409	0.077209	0.1217	0.14583	0.11629	0.11118	0.10315	0.22654	-1.0792	-1.2188	-0.68958	-1.7938	-0.74583	-1.0271	-1.6208	-0.78958	-1.2812	-1.1437	-0.83125	-1.8583	-0.75	-1.1042	-1.5958	-0.75625	48.330	4.275	186.080	151.416	203.332	-22.138	174.961	-50.338	157.902	-105.294	129.441	-133.844	-68.672	155.637	189.788	-91.519	0.00029336	0.00020656	7.2008e-05	1319.7	3.5476e-06	5.1063e-06	1314.9	350.38	1.3038e-06	2.0031e-06	403.81	137.34	118.88	40.787	5.1133e-06	50.77	0.00027745	0.00027017	7.7263e-05	1306.5	2.9651e-06	2.9475e-06	1309.5	347.08	2.9234e-06	2.8878e-06	395.28	136.62	118.21	40.454	2.8467e-06	50.443	196.988	-80.385	-5.531	-122.973	5.296	3.190	-123.366	-118.594	43.470	-19.068	-118.734	-114.990	-114.628	-109.310	39.313	-109.940	-8191	255	
1085.148	1	1	0	0	0.17714	0.24663	0.12746	0.17818	0.16527	0.1868	0.12731	0.25506	0.29234	0.14667	0.21263	0.35086	0.21348	0.37751	0.063527	0.37818	-1.0187	-1.1542	-0.54792	-1.6271	-1.0458	-0.84792	-1.6979	-0.71875	-1.1708	-1.1979	-0.8625	-1.6625	-1.1938	-0.85833	-1.6146	-0.8875	169.018	-71.448	180.746	-77.768	208.557	112.265	120.586	161.731	-43.667	205.488	216.565	173.169	37.152	217.948	-50.454	207.167	0.000339	0.00025297	8.104e-05	1327.6	6.7376e-06	1.2595e-06	1320.4	353.25	5.7593e-07	8.1466e-06	403.81	139.52	120.64	41.456	3.006e-06	51.529	0.00025629	0.00025078	6.8476e-05	1311.9	2.6084e-06	2.6045e-06	1314.2	348.76	2.5453e-06	2.5388e-06	395.52	138.23	119.3	40.846	2.5448e-06	50.878	190.169	-82.900	-39.242	-123.242	-43.707	123.486	-123.189	-118.933	-71.129	-3.763	-118.756	-115.262	-114.710	-109.635	-2.142	-110.202	-8191	255	
1085.244	1	1	0	0	0.26844	0.043966	0.0023389	0.016266	0.2339	0.11634	0.3484	0.33602	0.12814	0.091012	0.13153	0.20502	0.15266	0.33723	0.23331	0.28169	-0.68542	-1.5167	-0.78958	-1.6729	-1.2167	-0.84375	-1.9396	-0.85208	-1.0583	-1.4521	-0.86667	-1.725	-1.3146	-0.85417	-1.4021	-0.95833	181.602	-109.575	-101.110	-85.859	192.915	16.797	99.829	149.071	-111.785	119.286	-71.283	-58.475	146.368	198.879	-92.344	179.807	0.00031193	0.00047028	8.7168e-05	1330.8	5.3269e-06	5.6339e-06	1322.1	351.83	3.5091e-06	3.616e-06	403.41	138.66	119.39	40.841	3.5067e-06	50.738	0.00023482	0.0002309	6.5059e-05	1315.7	2.5519e-06	2.5971e-06	1316.5	348.72	2.6642e-06	2.6693e-06	395.29	137.39	118.44	40.455	2.7793e-06	50.296	201.256	-116.165	-42.110	-123.120	-18.729	31.501	-123.280	-118.949	-38.554	-50.924	-119.404	-114.868	-114.583	-109.342	12.013	-110.081	-8191	255	
1085.340	1	1	0	0	0.16949	0.18595	0.10005	0.2066	0.18905	0.19183	0.2802	0.085528	0.21262	0.176	0.22165	0.12446	0.26344	0.19972	0.26969	0.1463	-0.64375	-1.5542	-0.59167	-1.5583	-1.2938	-0.64583	-1.8687	-0.92708	-1.0125	-1.7021	-0.54583	-1.5417	-1.5312	-0.775	-1.625	-0.975	204.037	169.944	-37.389	-80.043	151.779	79.449	118.244	-124.400	208.217	120.993	24.888	148.701	182.533	168.188	-107.458	115.558	0.00035879	0.00048049	0.00020106	1328.5	1.5514e-06	4.4033e-06	1320.4	351.21	2.0445e-06	4.2402e-06	404.69	137.16	119.41	40.826	3.449e-06	50.694	0.00026346	0.00025769	7.2591e-05	1313	2.8655e-06	2.8696e-06	1314.6	347.5	2.8543e-06	2.8168e-06	395.21	136.75	118.41	40.409	2.7662e-06	50.388	209.018	-23.753	-88.817	-122.951	1.427	14.540	-123.128	-118.622	64.633	-61.286	-118.973	-114.710	-114.236	-109.194	-67.768	-110.172	-8191	255	
1085.437	1	1	0	0	0.26276	0.24633	0.16683	0.22707	0.18765	0.1901	0.18328	0.075204	0.25456	0.17261	0.33369	0.14867	0.20135	0.19093	0.024323	0.15499	-0.63958	-1.6646	-0.7125	-1.3521	-1.4	-0.68125	-1.8	-1.0167	-0.85833	-1.35	-1.0167	-1.375	-1.6771	-0.53125	-1.3896	-1.2833	85.136	-58.309	217.428	204.884	146.605	-98.661	123.463	173.494	-121.815	-130.220	188.971	131.889	167.882	122.084	34.996	205.975	0.00030759	0.00080643	0.00018118	1331.1	3.0522e-06	3.8991e-06	1328.8	352.19	1.5908e-06	4.6184e-06	403.31	137.96	119.59	40.74	4.9465e-06	51.035	0.00026073	0.00025148	6.9768e-05	1316.3	2.7758e-06	2.7417e-06	1319.6	348.5	2.7902e-06	2.7787e-06	395.45	136.98	118.46	40.423	2.7991e-06	50.36	203.921	-77.290	-40.795	-123.027	-62.743	54.408	-123.012	-118.628	-26.038	-6.630	-118.642	-114.683	-114.345	-109.526	22.306	-109.811	-8191	255	
1085.533	1	1	0	0	0.26424	0.23909	0.15598	0.15525	0.28773	0.18092	0.35682	0.12587	0.083767	0.27441	0.06963	0.071883	0.28793	0.24513	0.027138	0.10694	-0.3875	-1.5063	-0.68333	-1.2	-1.5146	-0.64167	-1.8729	-1.5375	-0.72083	-1.5833	-1.1604	-1.0792	-1.6083	-0.82708	-1.3833	-1.4688	-49.707	58.826	215.653	204.314	105.886	21.398	185.044	179.297	-95.757	218.910	69.050	148.623	197.157	193.158	16.084	99.686	0.00029159	0.00033347	0.0001462	1332.8	3.7021e-06	5.4752e-06	1322.3	352.51	3.8954e-06	3.6308e-06	401.67	136.82	118.69	40.711	2.0105e-06	50.734	0.00026181	0.0002538	7.0282e-05	1319.6	2.8362e-06	2.8066e-06	1317.2	348.02	2.8334e-06	2.8079e-06	394.66	136.6	118.11	40.239	2.802e-06	50.255	209.304	-63.366	-85.138	-123.217	-40.048	49.326	-123.361	-118.592	-23.489	-54.498	-119.064	-114.923	-114.616	-109.533	-39.231	-109.938	-8191	255	
1085.629	1	1	0	0	0.12266	0.062888	0.3351	0.56141	0.075487	0.075346	0.16055	0.1185	0.11584	0.23113	0.21073	0.075945	0.056729	0.27774	0.22653	0.17638	-0.3125	-1.6021	-0.89583	-1.0083	-1.7062	-0.65625	-1.4083	-1.6104	-0.70833	-1.5208	-1.0729	-1.0167	-1.5833	-1.0146	-1.3438	-1.6146	-106.184	-85.922	214.591	165.402	-98.253	116.507	127.606	117.314	-77.396	140.945	158.637	-76.752	-123.254	141.696	-113.126	120.323	0.00028982	8.2769e-05	0.00011671	1330.9	3.2393e-06	4.1994e-06	1325.3	351.28	2.2292e-06	4.0737e-06	404.56	136.96	119.04	40.514	3.1275e-06	50.336	0.00026195	0.00025207	7.0826e-05	1317.4	2.857e-06	2.8168e-06	1317.7	347.73	2.8683e-06	2.8117e-06	395.07	136.28	117.85	40.07	2.8881e-06	50.019	205.999	29.287	-67.647	-123.265	10.549	11.002	-123.197	-118.679	159.314	-30.300	-118.908	-114.879	-114.397	-109.526	51.780	-110.219	-8191	255	
1085.748	1	1	0	0	0.071598	0.085646	0.1593	0.21396	0.11762	0.073345	0.22754	0.018103	0.1852	0.16435	0.10374	0.14795	0.21193	0.16418	0.36504	0.14434	-0.40417	-1.4729	-1.0604	-1.0792	-1.6292	-0.73333	-1.4583	-1.45	-0.6375	-1.6167	-1.2333	-0.89167	-1.6542	-1.0646	-1.0979	-1.7917	205.391	-91.711	124.621	-129.245	119.697	216.722	207.007	-30.535	47.336	-26.018	134.973	-71.009	64.091	-74.431	-131.422	185.205	0.00035073	0.00050134	0.00024683	1331.6	2.9592e-06	3.5193e-06	1325.2	349.5	3.1338e-06	5.8146e-06	401.48	136.6	118.97	40.267	4.0925e-06	50.338	0.00027164	0.00026074	7.2466e-05	1318	2.8982e-06	2.852e-06	1317.1	347.26	2.908e-06	2.8385e-06	394.69	136.07	117.95	39.965	2.8539e-06	49.95	211.148	-23.983	-64.970	-123.006	-8.031	64.835	-123.178	-118.707	-70.809	-74.243	-118.822	-114.695	-114.299	-109.514	27.066	-110.119	-8191	255	
1085.844	1	1	0	0	0.33478	0.064943	0.036084	0.51158	0.11321	0.11663	0.33816	0.24384	0.24532	0.40954	0.065725	0.20883	0.2464	0.14974	0.14073	0.28296	-0.36875	-1.3979	-1.0375	-0.9125	-1.6667	-0.9875	-1.0792	-2.0042	-0.94167	-1.3229	-1.4271	-0.63958	-1.6292	-1.1542	-0.87292	-1.6792	179.618	127.630	29.530	197.559	-118.328	112.935	155.528	210.379	99.386	54.850	-15.636	146.191	-112.433	114.983	196.771	165.369	0.0003188	0.00032936	5.6188e-05	1331.7	2.1822e-06	4.143e-06	1333.5	350.88	4.1902e-06	4.3287e-06	401.46	136.63	118.79	40.648	4.188e-06	50.102	0.00027145	0.00025818	7.2505e-05	1319	2.9035e-06	2.8709e-06	1321.8	347.79	2.873e-06	2.8762e-06	394.23	136.14	117.85	40.167	2.9443e-06	49.947	203.122	-127.704	-86.832	-122.900	111.037	26.779	-123.377	-118.837	-28.130	43.997	-118.938	-115.071	-114.322	-109.376	169.207	-109.824	-8191	255	
1085.940	1	1	0	0	0.036262	0.08826	0.083948	0.11494	0.065791	0.07798	0.37577	0.26012	0.23018	0.24123	0.011062	0.16488	0.15662	0.17396	0.38601	0.19678	-0.40417	-1.3854	-1.4396	-0.925	-1.5958	-1.2708	-0.93958	-1.7812	-0.65417	-1.0771	-1.4708	-0.61042	-1.7687	-1.0938	-0.7625	-1.7521	-101.176	81.401	-132.018	-107.013	-29.510	24.213	191.391	184.496	-31.052	-131.485	-124.748	174.937	157.043	170.071	-110.345	24.988	0.00032472	0.00046349	0.00011247	1329.6	2.6624e-06	3.2064e-06	1322	350.17	4.2732e-06	2.3795e-06	402.67	136.97	118.86	40.605	3.1213e-06	50.531	0.00027009	0.00026549	7.4437e-05	1318.2	2.9352e-06	2.889e-06	1318	347.82	2.9042e-06	2.9221e-06	394.78	136.25	118.04	40.137	2.9389e-06	50.092	202.375	-46.947	-70.684	-122.966	-62.860	36.197	-123.077	-118.607	-49.217	-14.582	-118.846	-114.665	-114.245	-109.262	57.545	-109.801	-8191	255	
1086.036	1	1	0	0	0.26304	0.15031	0.2274	0.33904	0.14001	0.16883	0.10636	0.21642	0.046895	0.19858	0.10626	0.16024	0.25263	0.37676	0.1298	0.063901	-0.52708	-0.87708	-1.35	-0.79583	-1.4604	-1.2083	-0.83125	-1.5812	-0.72708	-0.91667	-1.6896	-0.6375	-1.4875	-1.1833	-0.67708	-1.7542	-25.902	-117.497	20.633	213.988	-72.921	92.340	175.286	84.454	183.793	110.976	-109.320	92.752	24.572	134.249	-79.478	151.415	0.0003344	0.00030194	0.00014139	1332.2	4.1321e-06	2.8917e-06	1323.1	352.43	4.8885e-06	5.2932e-06	403.15	136.28	118.85	40.269	2.8873e-06	50.512	0.00026839	0.00026248	7.3384e-05	1318.1	2.8896e-06	2.8765e-06	1318.6	348.62	2.8954e-06	2.9397e-06	394.99	136.09	117.96	40.019	2.9592e-06	50.054	205.727	3.337	-67.987	-122.978	-57.887	22.505	-122.877	-118.530	-16.196	-16.275	-118.698	-114.984	-114.264	-109.045	-22.100	-109.672	-8191	255	
1086.132	1	1	0	0	0.17662	0.18922	0.087375	0.22315	0.14312	0.029433	0.27766	0.20146	0.10096	0.15914	0.15755	0.12088	0.2325	0.27866	0.16161	0.12781	-0.55417	-1.0542	-1.6604	-0.66458	-1	-1.3021	-0.83958	-1.675	-0.93958	-0.86042	-1.7188	-0.81458	-1.2667	-1.4708	-0.72292	-1.5354	-33.662	117.846	26.957	213.371	-83.891	222.436	179.961	142.409	176.625	50.917	-35.271	170.037	-66.752	201.715	-103.889	149.339	0.00033581	0.00040338	8.8228e-05	1332	3.1936e-06	3.0992e-06	1326	351.07	3.8295e-06	1.6974e-06	402.57	137	118.71	40.368	4.8485e-06	50.422	0.00027184	0.00026536	7.4538e-05	1318.7	2.9185e-06	2.9155e-06	1319	348.19	2.9383e-06	2.9179e-06	395.19	136.05	117.98	40.056	2.9465e-06	50.004	195.419	-53.958	11.916	-122.918	91.676	44.981	-123.121	-118.430	38.198	-86.874	-118.646	-114.770	-113.893	-109.204	22.157	-109.662	-8191	255	
1086.228	1	1	0	0	0.20012	0.16374	0.12385	0.18852	0.050726	0.10316	0.21055	0.16288	0.11378	0.1404	0.24735	0.10794	0.32448	0.18852	0.085299	0.10403	-0.52292	-0.79792	-1.7229	-0.88125	-0.95	-1.4688	-0.70417	-1.3417	-1.1021	-0.77292	-1.6792	-0.77708	-1.0646	-1.5354	-0.55625	-1.4354	31.907	-91.221	75.465	49.184	126.304	176.448	162.438	164.064	-66.668	182.398	223.386	-67.371	172.998	150.328	25.312	-70.524	0.00033008	0.00042414	0.00018459	1325.9	1.2151e-06	2.0679e-06	1324.9	351.91	2.6707e-06	6.3665e-06	403.01	137.28	118.89	40.386	1.8528e-06	50.462	0.00027272	0.00026961	7.4013e-05	1317.7	2.8993e-06	2.8963e-06	1319.2	348.31	2.9041e-06	2.9247e-06	395.04	136.41	118.03	40.088	2.9655e-06	50.097	203.891	-27.861	-120.831	-122.888	10.967	-11.953	-123.045	-118.432	-64.794	27.150	-118.553	-114.851	-113.872	-109.272	-24.569	-109.452	-8191	255	
1086.349	1	1	0	0	0.044021	0.10181	0.13374	0.30748	0.1971	0.10253	0.18387	0.13868	0.20559	0.10751	0.10701	0.11344	0.12795	0.29526	0.029735	0.18152	-0.77292	-0.66667	-1.5187	-1.0292	-0.9	-1.5438	-0.93333	-1.3646	-1.2667	-0.69375	-1.6917	-0.8875	-0.84792	-1.6854	-0.59792	-1.3563	192.389	118.606	-125.008	214.961	136.819	141.076	110.879	35.252	39.215	-118.716	177.233	205.791	51.620	187.771	172.442	209.946	0.00024393	0.00015181	8.6712e-05	1332	5.7018e-06	3.1751e-06	1322	350.9	2.9293e-06	6.7403e-07	404.77	136.55	118.44	40.255	4.084e-06	50.315	0.00027527	0.00026833	7.4105e-05	1318.9	2.9714e-06	2.9454e-06	1317.6	348.27	2.9321e-06	2.98e-06	396.22	136.11	117.87	40.082	2.9724e-06	50.029	193.166	-25.878	-119.976	-122.883	-50.255	34.855	-123.120	-118.546	-65.380	-111.256	-118.682	-114.933	-114.136	-109.446	14.459	-109.515	-8191	255	
1086.443	1	1	0	0	0.11331	0.27083	0.30209	0.38346	0.080593	0.15168	0.10279	0.14974	0.39464	0.24787	0.20456	0.1036	0.073264	0.37118	0.21462	0.18052	-1.0896	-0.50833	-1.5667	-1.225	-0.69375	-1.4146	-0.75625	-1.1938	-1.2521	-0.78125	-1.5271	-1.1021	-0.8625	-1.5375	-0.86458	-1.1313	-57.836	63.043	-126.838	195.927	168.300	141.993	192.599	185.900	-29.251	220.194	222.928	107.409	-91.435	203.688	15.269	114.671	0.0003248	0.00015474	8.1525e-05	1329.3	3.8408e-06	3.0679e-06	1327.3	351.78	3.5532e-06	4.1239e-06	402.32	137	118.24	40.443	1.1741e-06	50.35	0.00027605	0.00026971	7.4582e-05	1317.9	2.983e-06	2.9372e-06	1319.8	348.35	2.9754e-06	3.0022e-06	394.44	136.34	117.89	40.011	2.9599e-06	50.028	201.181	43.390	22.514	-123.026	-8.709	14.422	-123.044	-118.471	-77.095	-28.173	-118.620	-114.744	-114.228	-109.136	-22.906	-109.791	-8191	255	
1086.540	1	1	0	0	0.10525	0.13837	0.18306	0.24519	0.20243	0.16356	0.1103	0.39	0.034237	0.29335	0.20216	0.074608	0.093324	0.19278	0.17894	0.10381	-1.1583	-0.43542	-1.425	-1.15	-0.42292	-1.3292	-1.1187	-1.0625	-1.4042	-0.69375	-1.4021	-1.3354	-0.89583	-1.6979	-0.84167	-0.95833	109.983	-38.843	98.307	190.506	-31.731	82.974	166.958	170.948	49.864	83.229	200.162	-125.326	163.252	201.527	86.722	206.254	0.00040419	0.0004681	0.00014158	1330.6	3.5114e-06	3.5564e-06	1320.2	349.63	1.3169e-06	3.6009e-06	403.14	136.2	118.38	40.433	3.0694e-06	50.49	0.00027844	0.00027219	7.4208e-05	1319.3	2.976e-06	2.9252e-06	1319.7	347.72	2.9744e-06	2.9598e-06	395.08	136.07	118	40.056	2.9356e-06	50.089	198.571	-38.648	-76.907	-122.995	-85.580	24.170	-123.207	-118.627	53.475	-6.872	-119.066	-115.197	-114.448	-109.170	11.384	-109.692	-8191	255	
1086.636	1	1	0	0	0.13806	0.067249	0.20602	0.33862	0.24178	0.055482	0.06744	0.093509	0.3222	0.099717	0.16612	0.28401	0.049082	0.15653	0.051172	0.04309	-1.1625	-0.525	-1.2146	-1.5583	-0.59583	-1.6375	-1.0479	-0.95208	-1.4917	-0.59375	-1.375	-1.3937	-0.7875	-1.4979	-0.8875	-0.7375	88.487	213.937	195.715	176.955	183.551	-77.568	146.702	81.718	21.604	-98.572	-101.576	191.639	82.056	179.305	121.018	-119.688	0.00026411	0.00019161	0.00012588	1330.3	1.8206e-06	2.4599e-06	1324	350.37	2.8175e-06	5.6269e-06	402.62	136.55	118.36	40.278	2.3977e-06	50.354	0.00027554	0.00026517	7.4291e-05	1319.3	2.9895e-06	2.9378e-06	1320.1	347.55	2.9991e-06	2.9768e-06	395.41	136.13	117.88	40.029	3.0364e-06	50.03	192.794	25.353	31.348	-123.077	34.315	62.702	-123.357	-118.602	-17.087	13.260	-118.725	-114.824	-114.343	-109.245	-16.133	-109.609	-8191	255	
#DATA ENDS
