BOXY.EXE: ISS Imagent and Oximeter Data Acquisition Program Version 0.80
Ascii Record File

#ACQ INFORMATION
2  Detector Channels 
16  External MUX Channels 
1  Auxiliary Channels 
5000  Waveform (CCF) Frequency (Hz)
1  Waveforms Skipped 
30  Waveforms Averaged 
1  Cycles Averaged 
16  Acquisitions per Waveform 
10.0806  Updata Rate (Hz) 

#FILE INFORMATION
TRUE -- External MUX Channel results are PARSED.
FALSE -- AC DC and Phase are NOT grouped.
TRUE -- Companion Program Settings File CREATED.
FALSE -- AC data not excluded
FALSE -- DC data not excluded
FALSE -- Phase data not excluded
FALSE -- Auxillary Chn. data not excluded
Tab delimiters

#CALIBRATION STATE
TRUE -- Waveform Calibration Values APPLIED.


#AUX CALIBRATION VALUES
Val Type	aux-1	

Term	1.0000e+00	
Factor	0.0000e+00	


#WF CALIBRATION VALUES
A = Detector Channel
Val Type	A-AC1	A-AC2	A-AC3	A-AC4	A-AC5	A-AC6	A-AC7	A-AC8	A-AC9	A-AC10	A-AC11	A-AC12	A-AC13	A-AC14	A-AC15	A-AC16	A-DC1	A-DC2	A-DC3	A-DC4	A-DC5	A-DC6	A-DC7	A-DC8	A-DC9	A-DC10	A-DC11	A-DC12	A-DC13	A-DC14	A-DC15	A-DC16	A-Ph1	A-Ph2	A-Ph3	A-Ph4	A-Ph5	A-Ph6	A-Ph7	A-Ph8	A-Ph9	A-Ph10	A-Ph11	A-Ph12	A-Ph13	A-Ph14	A-Ph15	A-Ph16	

Term	0.00000e+00	0.00000e+00	0.00000e+00	0.00000e+00	0.00000e+00	0.00000e+00	0.00000e+00	0.00000e+00	0.00000e+00	0.00000e+00	0.00000e+00	0.00000e+00	0.00000e+00	0.00000e+00	0.00000e+00	0.00000e+00	0.00000e+00	0.00000e+00	0.00000e+00	0.00000e+00	0.00000e+00	0.00000e+00	0.00000e+00	0.00000e+00	0.00000e+00	0.00000e+00	0.00000e+00	0.00000e+00	0.00000e+00	0.00000e+00	0.00000e+00	0.00000e+00	0.00000e+00	0.00000e+00	0.00000e+00	0.00000e+00	0.00000e+00	0.00000e+00	0.00000e+00	0.00000e+00	0.00000e+00	0.00000e+00	0.00000e+00	0.00000e+00	0.00000e+00	0.00000e+00	0.00000e+00	0.00000e+00	
Factor	1.00000e+00	1.00000e+00	1.00000e+00	1.00000e+00	1.00000e+00	1.00000e+00	1.00000e+00	1.00000e+00	1.00000e+00	1.00000e+00	1.00000e+00	1.00000e+00	1.00000e+00	1.00000e+00	1.00000e+00	1.00000e+00	1.00000e+00	1.00000e+00	1.00000e+00	1.00000e+00	1.00000e+00	1.00000e+00	1.00000e+00	1.00000e+00	1.00000e+00	1.00000e+00	1.00000e+00	1.00000e+00	1.00000e+00	1.00000e+00	1.00000e+00	1.00000e+00	X	X	X	X	X	X	X	X	X	X	X	X	X	X	X	X	

B = Detector Channel
Val Type	B-AC1	B-AC2	B-AC3	B-AC4	B-AC5	B-AC6	B-AC7	B-AC8	B-AC9	B-AC10	B-AC11	B-AC12	B-AC13	B-AC14	B-AC15	B-AC16	B-DC1	B-DC2	B-DC3	B-DC4	B-DC5	B-DC6	B-DC7	B-DC8	B-DC9	B-DC10	B-DC11	B-DC12	B-DC13	B-DC14	B-DC15	B-DC16	B-Ph1	B-Ph2	B-Ph3	B-Ph4	B-Ph5	B-Ph6	B-Ph7	B-Ph8	B-Ph9	B-Ph10	B-Ph11	B-Ph12	B-Ph13	B-Ph14	B-Ph15	B-Ph16	

Term	0.00000e+00	0.00000e+00	0.00000e+00	0.00000e+00	0.00000e+00	0.00000e+00	0.00000e+00	0.00000e+00	0.00000e+00	0.00000e+00	0.00000e+00	0.00000e+00	0.00000e+00	0.00000e+00	0.00000e+00	0.00000e+00	0.00000e+00	0.00000e+00	0.00000e+00	0.00000e+00	0.00000e+00	0.00000e+00	0.00000e+00	0.00000e+00	0.00000e+00	0.00000e+00	0.00000e+00	0.00000e+00	0.00000e+00	0.00000e+00	0.00000e+00	0.00000e+00	-1.31583e+02	-1.21578e+02	-1.40012e+02	-1.81298e+02	-8.87385e+01	-6.29981e+01	-1.57795e+02	-1.62015e+02	-6.94921e+01	-9.60310e+01	-1.75953e+02	-1.70521e+02	-1.80371e+02	-1.76072e+02	-6.81803e+01	-1.48893e+02	
Factor	1.93261e-05	1.42640e-04	3.75110e-05	1.68919e-01	1.12948e-06	1.23653e-06	1.80120e-01	7.03469e-02	1.11070e-06	1.40164e-06	1.16901e-01	3.27342e-02	2.64059e-02	1.04235e-02	1.14977e-06	1.44954e-02	1.13826e-06	1.18118e-06	3.28429e-07	8.21832e-02	1.29226e-08	1.29492e-08	8.20368e-02	3.39068e-02	1.29380e-08	1.29875e-08	5.34765e-02	1.52769e-02	1.27878e-02	5.00872e-03	1.30016e-08	6.72239e-03	X	X	X	X	X	X	X	X	X	X	X	X	X	X	X	X	



#DISTANCE SETTINGS
A = Detector Channel
A-1	A-2	A-3	A-4	A-5	A-6	A-7	A-8	A-9	A-10	A-11	A-12	A-13	A-14	A-15	A-16	

2.5000e+00	3.0000e+00	2.5000e+00	3.0000e+00	2.0000e+00	3.0000e+00	1.5000e+00	3.0000e+00	3.0000e+00	3.0000e+00	3.0000e+00	3.0000e+00	3.0000e+00	3.0000e+00	1.5000e+00	3.0000e+00	

B = Detector Channel
B-1	B-2	B-3	B-4	B-5	B-6	B-7	B-8	B-9	B-10	B-11	B-12	B-13	B-14	B-15	B-16	

1.0000e+01	1.0000e+01	1.0000e+01	1.4400e+00	1.0000e+01	1.0000e+01	1.5100e+00	1.9400e+00	1.0000e+01	1.0000e+01	1.9900e+00	2.4900e+00	2.4100e+00	2.9000e+00	1.0000e+01	2.9800e+00	




#DATA BEGINS
time	group	step	mark	flag	A-AC1	A-AC2	A-AC3	A-AC4	A-AC5	A-AC6	A-AC7	A-AC8	A-AC9	A-AC10	A-AC11	A-AC12	A-AC13	A-AC14	A-AC15	A-AC16	A-DC1	A-DC2	A-DC3	A-DC4	A-DC5	A-DC6	A-DC7	A-DC8	A-DC9	A-DC10	A-DC11	A-DC12	A-DC13	A-DC14	A-DC15	A-DC16	A-Ph1	A-Ph2	A-Ph3	A-Ph4	A-Ph5	A-Ph6	A-Ph7	A-Ph8	A-Ph9	A-Ph10	A-Ph11	A-Ph12	A-Ph13	A-Ph14	A-Ph15	A-Ph16	B-AC1	B-AC2	B-AC3	B-AC4	B-AC5	B-AC6	B-AC7	B-AC8	B-AC9	B-AC10	B-AC11	B-AC12	B-AC13	B-AC14	B-AC15	B-AC16	B-DC1	B-DC2	B-DC3	B-DC4	B-DC5	B-DC6	B-DC7	B-DC8	B-DC9	B-DC10	B-DC11	B-DC12	B-DC13	B-DC14	B-DC15	B-DC16	B-Ph1	B-Ph2	B-Ph3	B-Ph4	B-Ph5	B-Ph6	B-Ph7	B-Ph8	B-Ph9	B-Ph10	B-Ph11	B-Ph12	B-Ph13	B-Ph14	B-Ph15	B-Ph16	aux-1	digaux	

1553.873	1	1	0	256	0.27152	0.10969	0.1544	0.19956	0.10018	0.19658	0.1462	0.15304	0.13111	0.21095	0.30708	0.35241	0.09852	0.35193	0.14891	0.3262	0.1125	-1.0312	-0.46458	-0.44375	-1.2146	-0.26042	-0.91458	-1.1646	-0.14375	-1.1271	-0.90833	-0.37083	-1.1604	-0.65625	-0.63333	-1.2521	253.825	-10.697	3.716	208.938	-11.208	118.988	196.129	189.750	234.961	162.208	158.643	237.519	254.112	207.151	168.987	172.311	0.00036853	0.0013059	0.00042874	1232.8	2.3318e-05	4.4923e-06	1639.7	440.78	2.5747e-06	2.8308e-06	647.1	221.76	139.19	62.393	9.8225e-06	108.96	0.0017104	0.0017696	0.0004923	1161.3	1.9317e-05	1.9582e-05	1505.8	417.34	1.9487e-05	1.9593e-05	608.16	208.75	135.67	59.514	1.9698e-05	100.44	160.402	31.384	96.180	-82.548	9.867	118.271	-83.257	-78.552	154.367	218.687	-79.426	-75.277	-74.032	-69.395	-30.524	-71.908	-8191	255	
1553.994	1	1	0	0	0.2672	0.24125	0.14139	0.18472	0.059053	0.16614	0.086535	0.28163	0.20485	0.10112	0.22681	0.372	0.044378	0.073965	0.24996	0.27363	0.24583	-0.81458	-0.88542	-0.2625	-0.93958	-0.65208	-0.53125	-1.1604	-0.26042	-0.81875	-0.675	-0.175	-1.1875	-0.625	-0.56667	-1.2208	169.519	31.770	-82.912	260.504	-83.800	11.650	223.531	196.697	93.780	-6.046	207.430	255.946	121.256	247.047	105.305	156.935	0.0003852	0.0013673	0.00028402	1232.5	3.6179e-06	1.8241e-05	1632.5	439.17	1.1997e-05	1.511e-05	636.36	221.62	138.82	62.378	1.3841e-05	109.46	0.0017499	0.0018234	0.00050396	1161.3	1.9918e-05	1.9936e-05	1504.4	417.27	1.9883e-05	2.0108e-05	606.63	209.56	135.92	59.644	1.9934e-05	101.06	164.303	-18.579	52.623	-82.109	223.728	-24.608	-83.511	-78.664	86.213	-70.239	-78.983	-75.445	-74.044	-68.796	113.889	-70.736	-8191	255	
1554.090	1	1	0	0	0.24733	0.22878	0.078332	0.21276	0.25314	0.06831	0.2651	0.16899	0.17004	0.034917	0.15654	0.15209	0.23404	0.12712	0.20474	0.25967	0.26875	-0.91458	-0.88333	-0.55833	-0.93125	-0.43542	-0.50208	-1.25	-0.4375	-0.63958	-1.2292	-0.2	-1.1437	-0.825	-0.27708	-1.2708	192.130	215.901	136.437	258.549	171.626	-52.125	226.686	231.934	21.050	129.823	241.079	12.353	-15.349	147.546	83.162	-92.905	0.00040162	0.002558	0.00017715	1229.3	1.1403e-05	8.6595e-06	1619.2	433.9	1.6316e-05	1.5357e-05	636.79	221.4	138.45	62.542	1.5518e-05	109.2	0.0017564	0.0018149	0.00050621	1160.2	2.0098e-05	2.0016e-05	1497.3	415.28	2.0175e-05	2.0228e-05	606.84	209.31	135.5	59.739	2.0209e-05	100.84	176.191	-34.053	77.664	-82.684	74.709	13.872	-83.133	-78.505	3.118	35.492	-79.421	-75.184	-74.302	-68.599	199.377	-71.170	-8191	255	
1554.185	1	1	0	0	0.18825	0.024904	0.28554	0.10876	0.23678	0.09522	0.53074	0.20174	0.23772	0.15596	0.13553	0.010578	0.47928	0.29023	0.20293	0.2	-0.054167	-0.48542	-0.94375	-0.39375	-0.88542	-0.72917	-0.4875	-1.3271	-0.40208	-0.49375	-1.2875	-0.45417	-0.85833	-0.9875	-0.29167	-1.35	-96.069	71.406	92.325	-78.238	139.884	-19.773	228.526	191.425	95.761	-68.455	-43.132	139.774	222.269	190.771	213.605	223.461	0.00053553	0.001028	0.00038118	1225.4	9.0164e-06	1.9025e-05	1620.2	434.14	6.4912e-06	3.8764e-06	636.07	221.2	137.35	62.243	1.4239e-05	108.71	0.0017854	0.0018591	0.0005128	1154.8	2.0183e-05	2.0052e-05	1494.8	415.13	2.02e-05	2.0149e-05	603.35	208.57	135.19	59.642	2.0076e-05	100.84	201.656	-0.567	-31.576	-82.053	32.914	83.601	-83.065	-78.304	93.202	141.513	-79.908	-76.246	-74.406	-69.481	-24.950	-71.480	-8191	255	
1554.283	1	1	0	0	0.058943	0.18824	0.36178	0.26006	0.17482	0.069382	0.33138	0.19003	0.15078	0.19059	0.11043	0.27441	0.21611	0.17457	0.32244	0.24	-0.1625	-0.53125	-1.0833	-0.45417	-0.88542	-0.75	-0.43542	-1.1958	-0.44792	-0.39167	-1.2188	-0.4875	-0.87292	-1.1458	-0.077083	-1.2125	164.054	-89.551	-8.800	220.119	-19.604	171.520	197.086	197.965	107.293	66.702	-92.254	205.588	248.596	-89.507	-42.537	167.227	0.00051674	0.0033501	0.00050743	1221.2	4.676e-06	5.6479e-06	1615.3	434.86	5.7613e-06	1.9984e-05	636.77	220.8	139.11	62.694	4.5433e-06	109.47	0.0018016	0.001832	0.00051142	1153.1	2.0077e-05	2.0182e-05	1492.9	414.79	2.0011e-05	2.0256e-05	605.18	208.85	135.88	59.942	2.0205e-05	101.45	227.097	-0.465	-52.369	-82.643	46.092	177.475	-83.572	-78.957	64.891	192.872	-79.598	-76.006	-74.398	-69.254	-15.682	-71.081	-8191	255	
1554.401	1	1	0	0	0.032009	0.12401	0.39601	0.085868	0.14226	0.053378	0.28167	0.29474	0.21797	0.15157	0.1912	0.26935	0.41677	0.0498	0.15453	0.077659	-0.23125	-0.33542	-0.96042	-0.33542	-0.40625	-0.90208	-0.31875	-1.0688	-0.55	-0.45833	-1.1667	-0.425	-0.76667	-1.2958	0.15833	-1.1583	256.648	-64.173	255.515	250.378	181.009	185.678	227.236	209.473	259.641	88.671	214.497	158.345	213.691	-71.109	-72.092	241.381	0.00022632	0.0010152	0.00020437	1219.7	7.6905e-06	1.6629e-05	1612.4	436.82	6.5117e-06	1.701e-05	636.54	220.81	137.92	62.533	2.1571e-05	109.96	0.0018	0.0018461	0.00051459	1152.6	2.0036e-05	2.0205e-05	1495.8	415.28	2.0194e-05	2.0331e-05	606.62	209.53	135.55	59.796	2.0351e-05	101.77	169.732	-21.241	44.082	-82.667	154.292	71.138	-83.614	-78.693	136.128	23.830	-79.846	-75.899	-74.456	-68.998	60.001	-71.045	-8191	255	
1554.473	1	1	0	0	0.34492	0.19818	0.056066	0.20067	0.057594	0.19082	0.33759	0.14311	0.12852	0.1938	0.086017	0.271	0.22322	0.14215	0.21164	0.34395	-0.32917	-0.22292	-1.0417	-0.49792	-0.61667	-1.0187	-0.29583	-1.1042	-0.71875	-0.30417	-1.2437	-0.55	-0.58125	-1.0917	-0.3375	-1.1208	60.327	83.351	200.600	181.076	84.811	195.349	151.444	189.610	151.727	87.541	-37.854	191.718	249.157	41.940	215.497	223.526	0.00060095	0.0017364	0.00034878	1223.1	1.985e-05	1.2604e-05	1611.8	435.55	1.4179e-05	1.1845e-05	641.67	220.69	137.15	62.336	8.8715e-06	109.27	0.0017942	0.0018456	0.00051329	1152.5	2.0177e-05	2.014e-05	1492.1	415.2	2.0276e-05	2.0402e-05	606.38	209.7	135.09	59.832	2.0551e-05	101.42	167.958	44.352	84.522	-83.207	-22.293	49.038	-83.206	-78.754	82.719	-27.363	-79.284	-75.975	-74.825	-69.231	-2.508	-71.383	-8191	255	
1554.569	1	1	0	0	0.10938	0.061713	0.091353	0.10551	0.29962	0.23212	0.17883	0.21492	0.11797	0.24752	0.47777	0.10246	0.26724	0.27957	0.13203	0.09832	-0.57917	-0.21458	-1.0146	-0.80833	-0.18125	-1.2396	-0.60208	-0.88333	-1.0875	-0.14375	-1.3417	-0.76458	-0.4625	-1.2687	-0.41042	-0.88542	24.057	243.416	-19.888	-89.147	149.055	-51.258	154.729	191.170	-52.707	5.494	257.366	207.909	-54.289	206.012	196.615	254.545	0.00026467	0.0014739	0.00028241	1209	6.6321e-06	5.885e-06	1599.3	430.95	1.2212e-05	1.5651e-05	635.85	219.68	136.98	61.807	5.0588e-06	108.33	0.0018328	0.0018823	0.00052317	1147.5	2.0802e-05	2.0891e-05	1489.4	414.76	2.0875e-05	2.1027e-05	606.51	208.87	135.46	59.832	2.1383e-05	100.88	212.480	-36.475	-95.716	-82.917	10.842	35.014	-83.659	-78.666	214.502	23.445	-79.773	-75.933	-74.427	-68.911	44.529	-71.384	-8191	255	
1554.665	1	1	0	0	0.23114	0.39502	0.12909	0.25871	0.035146	0.090675	0.41692	0.23796	0.077282	0.18241	0.25357	0.16145	0.078907	0.26074	0.12483	0.24369	-0.82292	-0.10625	-1.0833	-0.92292	-0.23958	-1.0771	-0.41458	-0.69583	-1.1208	-0.11042	-1.1375	-0.92083	-0.48333	-1.2542	-0.43125	-0.69583	176.375	124.808	170.026	-74.502	-79.869	119.878	239.432	239.441	140.247	-73.101	-85.474	117.221	-12.670	251.894	93.597	-90.137	0.00046803	0.0027456	0.00060066	1202.9	1.2037e-05	9.3441e-06	1594.7	426.56	2.95e-06	1.1973e-05	631.9	217.05	136.15	62.222	8.6284e-06	108.86	0.0018847	0.0019547	0.00054582	1148.9	2.1322e-05	2.134e-05	1486.4	413.6	2.1277e-05	2.1387e-05	605.94	208.64	135.09	59.832	2.144e-05	100.97	217.175	2.726	-72.513	-82.630	-3.090	19.313	-83.407	-78.832	41.618	143.615	-79.537	-75.424	-74.209	-69.085	97.614	-71.167	-8191	255	
1554.786	1	1	0	0	0.18958	0.22626	0.15455	0.17232	0.22833	0.2783	0.54837	0.196	0.15272	0.2183	0.32422	0.064462	0.15467	0.22342	0.29047	0.18166	-0.85417	-0.27917	-0.925	-0.99167	-0.32292	-1.1854	-0.76458	-0.65625	-1.2229	-0.14375	-1.0521	-0.97292	-0.38125	-1.2833	-0.49375	-0.62083	253.228	-3.962	190.363	-54.419	6.005	-18.973	213.038	235.933	-46.903	170.899	247.675	-91.621	-76.423	-74.768	41.386	253.400	0.00048634	0.002003	0.00028842	1197.9	1.7027e-05	2.0461e-05	1596.5	429.14	6.6087e-06	8.5456e-06	632.6	219.22	136.36	61.986	6.5394e-06	109.3	0.0018961	0.0019598	0.00054998	1145	2.1432e-05	2.1359e-05	1488.6	415.13	2.1403e-05	2.1555e-05	607.69	209.21	135.31	60.004	2.1694e-05	101.8	233.350	15.661	-95.886	-82.096	-87.506	125.499	-83.481	-78.576	155.449	-9.326	-79.235	-75.895	-74.545	-69.009	172.758	-70.796	-8191	255	
1554.882	1	1	0	0	0.29067	0.14659	0.38893	0.22876	0.15256	0.20549	0.48871	0.03975	0.33409	0.23292	0.091363	0.18669	0.035632	0.1408	0.27135	0.22991	-0.76667	-0.175	-0.79167	-1.0562	-0.27708	-1.1104	-0.825	-0.58958	-1.1187	-0.20208	-0.74167	-1.4083	-0.27708	-1.2646	-0.51042	-0.55625	32.833	138.320	-47.081	181.212	16.936	-7.129	207.625	4.800	135.306	212.728	258.079	232.979	-58.129	-46.694	49.776	177.575	0.00055072	0.0018286	0.0002212	1203.7	7.1095e-06	1.6846e-05	1604.5	430.41	1.1454e-05	1.3801e-05	630.04	220.25	136.41	62.379	4.8906e-06	108.31	0.0019216	0.0019787	0.00054759	1146.9	2.1371e-05	2.15e-05	1489.5	414.87	2.1217e-05	2.1515e-05	607.13	209.57	135.39	60.027	2.1632e-05	101.28	218.448	37.037	166.889	-82.395	81.403	227.133	-83.161	-77.978	-95.410	-80.234	-78.861	-75.296	-73.865	-68.682	257.238	-71.036	-8191	255	
1554.978	1	1	0	0	0.17139	0.067215	0.12841	0.15418	0.13944	0.23887	0.17957	0.22869	0.25384	0.2098	0.10209	0.21316	0.11477	0.25281	0.25488	0.29021	-0.79375	-0.39167	-0.59375	-1.1229	-0.28542	-1.0063	-1.0438	-0.2	-1.1104	-0.33542	-0.69583	-1.2646	-0.28333	-0.80625	-0.8125	-0.29583	152.964	41.214	-4.022	263.691	122.746	247.793	174.290	178.803	53.226	192.432	203.508	204.990	231.494	194.376	18.926	180.631	0.00041931	0.002904	0.00034321	1199.1	1.9581e-05	3.3015e-06	1584.8	431.4	2.2112e-05	5.0117e-06	627.2	218.81	135.88	61.983	8.6729e-06	108.24	0.0018932	0.0019621	0.0005455	1146.1	2.1223e-05	2.1351e-05	1480.4	413.17	2.1031e-05	2.1052e-05	603.3	208.38	134.81	59.821	2.1296e-05	100.91	214.654	-48.252	-87.132	-81.995	-0.869	-31.850	-82.862	-78.051	-11.787	-36.498	-79.384	-75.377	-74.207	-68.881	2.730	-70.836	-8191	255	
1555.074	1	1	0	0	0.19136	0.22893	0.054896	0.22794	0.22577	0.19414	0.43201	0.28419	0.31616	0.084232	0.058293	0.17324	0.15699	0.44389	0.16233	0.22464	-0.6625	-0.53333	-0.56042	-1.2875	-0.26875	-0.96458	-1.2542	-0.31042	-1.1	-0.52292	-0.44167	-1.1313	-0.35833	-0.88958	-0.96875	-0.50625	128.477	16.882	251.884	-95.315	164.728	-72.438	193.260	234.741	-30.272	14.041	149.028	251.482	200.254	-90.676	47.763	232.771	0.0004109	0.0010181	0.00047969	1195.6	7.9422e-06	1.5455e-05	1600	427.76	1.6195e-05	2.1518e-05	630.18	220.53	135.56	61.564	8.76e-06	108.43	0.0018979	0.0019574	0.00054427	1145.4	2.1267e-05	2.1563e-05	1486.4	412.53	2.137e-05	2.1611e-05	604.39	209.09	135.2	59.972	2.1734e-05	101.28	177.210	-34.405	76.098	-82.575	-60.817	109.396	-83.279	-78.411	63.493	20.789	-79.077	-75.252	-74.188	-68.954	87.376	-71.273	-8191	255	
1555.171	1	1	0	0	0.21388	0.058708	0.21668	0.35957	0.10545	0.32135	0.095901	0.28401	0.19899	0.29533	0.13447	0.22017	0.10006	0.24504	0.14264	0.15279	-0.6	-0.49583	-0.17708	-1.3896	-0.2875	-0.74167	-1.25	-0.28125	-1.1	-0.925	-0.37917	-1.2396	-0.19792	-0.84167	-1.0417	-0.29792	46.001	210.916	-26.235	239.846	241.379	-68.582	229.697	181.007	56.400	59.075	134.356	226.882	160.473	153.511	74.674	165.431	6.5528e-05	0.00075669	0.0006912	1204.2	1.0889e-05	1.5298e-05	1587	424.76	7.7801e-06	2.7407e-05	628.24	220.23	137.41	62.55	5.5809e-06	109.45	0.0019231	0.0019716	0.00054763	1146	2.1392e-05	2.1685e-05	1486.8	412.26	2.1437e-05	2.1802e-05	604.29	209.75	135.37	60.152	2.1553e-05	101.74	172.775	1.060	-31.465	-83.146	74.776	38.071	-83.188	-78.817	4.373	231.866	-78.914	-75.425	-73.912	-68.654	-71.834	-70.826	-8191	255	
1555.265	1	1	0	0	0.081063	0.12094	0.16219	0.13226	0.060493	0.32452	0.40672	0.21299	0.10093	0.11059	0.45868	0.11953	0.045651	0.25223	0.059321	0.18371	-0.55625	-0.75417	-0.125	-1.4458	-0.38958	-0.6	-1.3792	-0.3375	-0.85833	-0.86667	-0.54167	-1.3146	-0.48125	-0.6875	-1.1479	-0.58542	71.642	46.210	215.672	-46.183	181.169	222.320	223.414	-56.869	4.372	180.434	204.257	218.792	213.532	-86.420	248.234	50.639	0.00025842	0.0010775	0.0005935	1212.5	1.4741e-05	1.9972e-05	1602	428.73	1.5431e-05	1.5862e-05	632.62	220.94	136.78	61.867	1.0998e-05	108.42	0.0018983	0.0019522	0.00054017	1147	2.1045e-05	2.1225e-05	1487.5	412.5	2.1049e-05	2.1094e-05	605.06	209.85	134.98	59.833	2.1142e-05	101.16	120.843	-27.430	124.654	-82.130	-7.960	62.220	-83.353	-78.644	48.754	-4.104	-79.162	-75.449	-73.563	-68.764	-14.195	-70.707	-8191	255	
1555.363	1	1	0	0	0.077562	0.15572	0.1659	0.27351	0.19475	0.17021	0.14955	0.17044	0.29884	0.1584	0.29103	0.056985	0.12192	0.2701	0.17998	0.23057	-0.39167	-0.82708	-0.25833	-1.3438	-0.625	-0.39792	-1.2792	-0.37292	-0.825	-0.78958	-0.40208	-1.15	-0.60833	-0.4125	-1.0646	-0.54583	162.801	262.081	-79.328	227.844	233.846	181.156	172.645	-74.616	-62.084	112.744	188.778	-19.130	262.397	238.461	-91.443	208.602	0.00020298	0.0015807	0.0002146	1201.6	2.787e-06	4.0637e-06	1596.9	427.76	1.4319e-05	1.1874e-05	632.96	219.33	136.99	61.746	4.0776e-06	107.89	0.0018836	0.0019179	0.00053416	1142.8	2.114e-05	2.108e-05	1484.3	412.76	2.1147e-05	2.1256e-05	603.28	208.45	134.74	59.699	2.1301e-05	100.67	216.111	-61.389	-13.516	-82.901	-48.342	-87.414	-83.697	-78.733	-32.373	26.694	-79.348	-75.635	-73.847	-68.493	139.906	-70.774	-8191	255	
1555.482	1	1	0	0	0.12887	0.23801	0.39583	0.22549	0.04858	0.069018	0.42525	0.35849	0.048314	0.054214	0.30544	0.0998	0.22708	0.15393	0.19437	0.077666	-0.26667	-1.0646	-0.19583	-1.4	-0.66042	-0.20625	-1.3729	-0.48333	-0.46667	-1.1333	-0.30625	-1.2687	-1.0417	-0.44792	-1.2625	-0.7625	188.697	60.393	87.114	263.006	154.031	182.018	206.517	244.383	-54.226	127.932	258.776	-41.379	-81.518	-81.821	126.528	69.646	0.00044888	0.0018151	0.00045249	1195.9	4.7905e-06	7.7306e-06	1589	425.22	3.2956e-06	1.8351e-05	628.42	218.95	135.45	61.684	1.2715e-05	108.31	0.0018993	0.0019395	0.00054135	1141.4	2.143e-05	2.1572e-05	1479.9	411.8	2.1384e-05	2.1217e-05	602.9	208.81	134.55	59.509	2.1099e-05	100.81	150.540	257.154	85.723	-82.174	-3.841	158.737	-83.480	-78.598	263.176	118.773	-79.515	-75.570	-73.941	-68.747	80.892	-70.863	-8191	255	
1555.578	1	1	0	0	0.19239	0.30153	0.25348	0.25215	0.039611	0.12725	0.22319	0.17037	0.11879	0.32091	0.31768	0.20967	0.2311	0.31868	0.23511	0.048058	-0.24375	-1.2625	-0.28333	-1.1229	-0.90833	-0.39792	-1.2333	-0.5875	-0.61042	-1.2646	-0.4	-0.91458	-0.99792	-0.575	-1.2667	-0.69375	79.744	38.793	41.885	-85.564	-13.767	1.219	155.343	243.801	-61.396	47.648	205.985	248.264	162.507	247.453	121.645	26.321	0.00019309	0.0017124	0.0002046	1197.8	1.8091e-05	3.2117e-05	1597.6	426.46	2.253e-05	1.8341e-05	630.03	219.06	135.43	61.878	5.9523e-06	108.09	0.0018812	0.0019143	0.00053629	1141.6	2.1077e-05	2.1039e-05	1485.2	411.13	2.1017e-05	2.0972e-05	603.55	209.05	134.52	59.444	2.0804e-05	100.56	226.155	5.644	-91.397	-81.892	86.350	0.538	-83.397	-78.422	46.913	-50.957	-79.289	-75.159	-74.836	-68.951	1.200	-71.263	-8191	255	
1555.674	1	1	0	0	0.19719	0.2729	0.28227	0.28994	0.057496	0.17034	0.25564	0.30869	0.26885	0.18993	0.1891	0.16471	0.084994	0.20764	0.076893	0.24872	0.05	-1.2333	-0.3	-0.93542	-0.9	-0.41875	-1.2062	-0.8375	-0.54792	-1.2417	-0.59167	-0.88542	-1.2188	-0.46667	-0.93542	-0.94167	134.771	48.817	-48.816	-82.480	199.071	215.112	219.275	187.082	107.475	223.221	108.981	170.304	133.584	259.039	14.578	215.880	0.00036907	0.00038131	0.0010697	1207.9	5.3893e-06	4.2288e-06	1616.3	429.94	2.7193e-06	2.1569e-06	630.84	220.21	134.61	61.539	1.3029e-05	108.38	0.0018339	0.0019047	0.00053028	1145	2.0703e-05	2.0858e-05	1490	412.43	2.0649e-05	2.0816e-05	603.49	208.7	133.66	59.208	2.0864e-05	100.36	196.353	155.137	5.813	-81.978	170.286	66.495	-82.918	-78.270	-77.726	184.726	-78.937	-75.013	-73.704	-69.195	83.649	-71.250	-8191	255	
1555.770	1	1	0	0	0.24892	0.21333	0.10285	0.39782	0.20564	0.072417	0.16568	0.1472	0.37821	0.087096	0.082054	0.039869	0.27645	0.11364	0.1958	0.11167	0.14375	-1.0542	-0.26458	-0.70833	-1.0792	0.0041667	-1.2062	-0.99375	-0.39583	-1.2437	-0.40417	-0.63958	-1.2396	-0.41667	-0.90833	-1.1667	-59.470	94.604	231.102	-74.491	204.800	166.271	220.217	-15.971	250.884	252.766	217.602	93.963	236.665	230.226	218.492	208.154	0.00032346	0.0014185	0.00031046	1201.4	8.5591e-06	3.2647e-06	1591.4	427.19	6.6098e-06	7.9085e-06	632.92	218.36	134.15	61.393	1.4054e-05	107.61	0.001844	0.001903	0.00053177	1141.4	2.0724e-05	2.0687e-05	1480.2	410.25	2.075e-05	2.0941e-05	603.19	207.93	133.43	59.13	2.1426e-05	99.91	208.599	39.422	58.374	-81.807	61.454	180.112	-83.938	-79.349	220.288	203.917	-79.939	-75.772	-74.381	-69.512	-82.386	-71.345	-8191	255	
1555.866	1	1	0	0	0.24763	0.10837	0.33924	0.31233	0.11001	0.2726	0.36698	0.069128	0.24809	0.051305	0.18303	0.13004	0.24817	0.1083	0.18174	0.12086	0.18125	-1.1187	-0.57083	-0.68958	-1.0417	-0.275	-1.0771	-0.9625	-0.23333	-1.0354	-0.63542	-0.77083	-1.2604	-0.40625	-0.92917	-1.0562	141.947	245.970	121.084	257.572	250.689	205.647	223.449	168.778	67.673	203.486	39.828	-71.243	205.040	212.967	189.235	137.821	0.00034001	0.0012331	0.0005545	1195.9	1.1828e-05	1.3664e-05	1587.9	421.83	1.9685e-05	1.4193e-05	627.3	217.22	133.27	61.005	1.2367e-05	107.48	0.001872	0.001946	0.00054489	1138.1	2.1216e-05	2.1382e-05	1478.4	409.7	2.1499e-05	2.1656e-05	602.73	208	133.27	59.334	2.1728e-05	100.19	178.143	4.277	84.253	-82.549	197.667	23.806	-83.473	-78.984	1.883	124.811	-79.680	-75.462	-74.437	-68.945	-47.186	-71.392	-8191	255	
1555.963	1	1	0	0	0.22539	0.20491	0.25901	0.1254	0.25994	0.28446	0.13077	0.19768	0.25515	0.052724	0.21938	0.32537	0.26378	0.0265	0.14145	0.19609	0.10625	-1.1854	-0.61875	-0.54167	-1.0938	-0.29583	-0.89792	-1.1125	-0.2625	-1.0979	-0.73958	-0.36458	-1.1333	-0.40833	-0.71667	-1.2729	227.820	-85.251	148.658	-83.110	244.548	171.514	147.460	219.842	-50.465	226.623	240.405	-46.548	-79.521	164.379	-68.776	152.606	4.7595e-05	0.00096227	0.00033731	1186.8	4.2041e-06	4.678e-06	1585.7	422.12	8.4831e-06	4.0774e-06	624.14	217.7	133.86	61.376	6.362e-06	106.67	0.001908	0.0019746	0.00055135	1135.1	2.1554e-05	2.1704e-05	1478.2	409.08	2.1515e-05	2.1869e-05	600.87	207.87	133.78	59.302	2.1846e-05	100.36	242.934	114.716	224.555	-82.442	46.565	154.680	-83.124	-78.689	16.418	85.072	-79.999	-76.124	-74.693	-69.311	247.534	-71.189	-8191	255	
1556.083	1	1	0	0	0.093643	0.17019	0.23648	0.17104	0.28672	0.23291	0.19396	0.1212	0.24011	0.083312	0.041979	0.10242	0.037737	0.14973	0.066359	0.30137	0.21042	-0.9	-0.79583	-0.38958	-0.98958	-0.53125	-0.80625	-1.125	-0.22292	-0.87917	-1.0042	-0.39375	-1.4167	-0.65833	-0.5375	-1.3125	101.336	106.890	85.267	256.573	0.650	139.237	168.267	11.786	-61.236	-84.234	146.944	123.067	176.528	150.501	19.124	238.535	0.00058338	0.0018195	0.00013314	1184.1	7.1159e-06	2.7516e-06	1584.7	422.48	1.6193e-05	2.3836e-05	629.38	218.99	133.94	61.241	5.5078e-06	107.64	0.0019293	0.0019941	0.00055263	1133.6	2.1785e-05	2.2065e-05	1479.7	409.07	2.1649e-05	2.1794e-05	604.3	208.97	133.93	59.437	2.1803e-05	100.56	191.001	254.952	90.992	-82.493	-23.478	162.193	-83.518	-78.504	-19.605	50.997	-79.419	-75.119	-74.017	-68.815	-58.008	-70.703	-8191	255	
1556.178	1	1	0	0	0.31062	0.10686	0.26667	0.17882	0.061605	0.12579	0.26719	0.17334	0.25247	0.23164	0.33781	0.24401	0.27171	0.13109	0.13721	0.060607	0.083333	-0.80417	-1.0375	-0.28542	-1.1771	-0.51667	-0.79167	-1.3062	-0.31875	-0.86667	-1.0854	-0.47708	-1.025	-0.66458	-0.36875	-1.3563	105.092	86.421	220.842	139.824	121.860	-20.967	235.826	156.613	-48.431	140.271	236.740	-53.018	-86.780	160.131	50.050	-77.400	0.00044195	0.0015754	0.00048985	1178.4	1.1732e-05	1.8097e-05	1575.9	421.25	2.3707e-05	1.4428e-05	618.17	217.01	134.26	61.087	1.2645e-05	107.45	0.0019248	0.0020004	0.00054814	1129.9	2.1699e-05	2.1779e-05	1471.2	407.12	2.1652e-05	2.1789e-05	598.32	207.57	133.6	59.407	2.1626e-05	100.25	196.498	112.094	-86.332	-82.604	197.356	29.083	-83.062	-78.875	93.153	30.088	-79.417	-75.541	-74.653	-69.544	-27.912	-70.927	-8191	255	
1556.274	1	1	0	0	0.017822	0.31744	0.1595	0.13788	0.17908	0.17525	0.38592	0.25265	0.10698	0.28595	0.35287	0.22516	0.25183	0.12765	0.19415	0.45423	0.00625	-0.66667	-0.92708	-0.43125	-0.97708	-0.89167	-0.43333	-1.2729	-0.37083	-0.67917	-1.0333	-0.57708	-1.0333	-1.1521	-0.097917	-1.4292	159.709	157.565	187.603	245.413	-43.337	240.652	167.700	221.874	69.172	-4.015	253.069	254.078	249.191	-90.651	165.829	211.863	0.00023726	0.0019937	3.8503e-05	1180.1	2.4821e-05	8.9805e-06	1571.6	418.37	1.503e-05	6.5825e-06	623.34	215.93	133.02	61.392	1.2962e-05	107.41	0.0019376	0.0019849	0.00054754	1127.6	2.1654e-05	2.1728e-05	1469.1	405.8	2.162e-05	2.1973e-05	598.6	207	133.57	59.5	2.1728e-05	100.51	237.805	123.601	54.891	-82.875	195.629	-92.523	-83.051	-78.910	198.187	123.716	-79.578	-76.081	-74.322	-69.114	111.476	-71.529	-8191	255	
1556.345	1	1	0	0	0.071776	0.07293	0.17415	0.46741	0.30181	0.34886	0.27275	0.18021	0.20025	0.31216	0.13338	0.20714	0.35271	0.17499	0.24693	0.31999	-0.14167	-0.40417	-1.0063	-0.39792	-0.97917	-0.85833	-0.32083	-1.0146	-0.35208	-0.59583	-1.4125	-0.175	-0.93125	-0.90208	-0.025	-1.3333	93.541	150.930	2.626	228.222	185.060	223.745	234.664	204.247	163.386	-9.162	-76.193	189.947	208.319	-49.952	-44.113	178.294	0.00033949	0.0014877	0.00059796	1176.3	4.5724e-06	3.4885e-06	1564.6	420.69	1.158e-05	1.4999e-05	622.25	218.26	134.31	61.472	1.1545e-05	108.24	0.0019363	0.0019984	0.00054747	1125.1	2.1539e-05	2.1607e-05	1463.2	406.44	2.1698e-05	2.1685e-05	597.08	207.88	133.42	59.518	2.1511e-05	100.64	154.985	-86.966	61.825	-82.589	28.830	17.667	-83.551	-78.637	67.668	177.227	-79.998	-75.922	-74.574	-69.343	110.282	-71.782	-8191	255	
1556.466	1	1	0	0	0.21978	0.32975	0.13388	0.11711	0.17601	0.16256	0.1983	0.22677	0.2006	0.19315	0.027963	0.32037	0.12041	0.44838	0.023839	0.21298	-0.17292	-0.55208	-0.93125	-0.38958	-0.78333	-0.80208	-0.325	-1.2646	-0.50417	-0.4	-1.2021	-0.48125	-0.675	-1.1667	-0.14167	-1.2812	1.849	-78.798	94.439	-45.027	69.284	-17.283	254.196	223.714	154.951	243.249	251.469	155.493	-62.689	-83.181	196.048	212.726	0.00018713	0.0013258	0.00027337	1176.2	1.0444e-05	1.7813e-05	1583.2	419.86	8.7547e-06	4.3268e-06	625.79	218.51	134.66	61.617	3.8362e-06	108.75	0.0018888	0.0019141	0.0005329	1123.5	2.0925e-05	2.0834e-05	1469.6	406.61	2.0689e-05	2.0605e-05	600.26	208.41	133.47	59.354	2.0275e-05	101.12	184.500	6.757	259.963	-82.876	-5.282	67.042	-83.679	-78.998	22.026	212.389	-80.062	-76.075	-74.385	-69.520	155.233	-71.532	-8191	255	
1556.562	1	1	0	0	0.20072	0.15906	0.16589	0.38515	0.19432	0.13915	0.31884	0.21029	0.05671	0.23025	0.10623	0.31548	0.19199	0.57219	0.25836	0.061183	-0.41458	-0.39792	-0.9375	-0.53125	-0.65417	-0.95625	-0.6125	-1.15	-0.75208	-0.30208	-1.2354	-0.67708	-0.75	-1.1812	-0.11875	-1.2292	32.998	168.845	186.157	209.921	172.722	9.641	251.862	203.087	125.382	4.272	116.305	-73.230	220.175	215.230	98.753	94.393	0.00059675	0.00011602	0.00013272	1185.5	7.955e-06	8.805e-06	1596.8	426.29	8.331e-06	1.7803e-05	630.08	219.52	134.26	61.592	7.8971e-06	107.61	0.0017975	0.0018239	0.00050825	1123.4	2.0023e-05	1.9979e-05	1468.7	407.67	1.9996e-05	2.023e-05	598.82	207.71	132.85	58.953	2.0296e-05	99.944	178.263	175.661	-17.785	-83.042	61.218	146.652	-83.587	-79.177	241.737	153.571	-79.574	-75.930	-74.563	-69.375	-5.401	-71.574	-8191	255	
1556.658	1	1	0	0	0.26647	0.19724	0.24176	0.23762	0.081694	0.21138	0.33978	0.29141	0.11136	0.27804	0.17284	0.37677	0.13028	0.14925	0.17944	0.027859	-0.46042	-0.20833	-1.0354	-0.74792	-0.475	-1.1875	-0.50417	-1.0083	-0.7875	-0.225	-1.2979	-0.8375	-0.65833	-1.4208	-0.45625	-1.0438	131.296	196.466	198.745	254.285	129.082	114.567	173.547	188.280	117.251	187.419	12.322	242.726	171.264	240.108	70.073	20.573	0.00031159	0.00090514	0.0002115	1181.3	7.4641e-06	1.3743e-05	1569.5	421.04	6.5306e-06	6.7948e-06	627.15	217.77	133.78	60.916	1.3019e-05	106.74	0.0018059	0.0018506	0.00051591	1121.8	2.0415e-05	2.0491e-05	1461	406.04	2.0383e-05	2.041e-05	598.88	206.57	132.52	58.709	2.0891e-05	99.438	186.573	-17.581	-29.594	-82.906	156.553	32.325	-83.557	-78.750	115.959	20.092	-79.695	-76.272	-74.547	-69.445	9.345	-71.777	-8191	255	
1556.754	1	1	0	0	0.24684	0.12882	0.16189	0.11791	0.17126	0.094177	0.25856	0.3577	0.21114	0.23556	0.39887	0.13384	0.2086	0.10607	0.27387	0.24094	-0.7	0.091667	-0.91042	-0.76667	-0.49167	-1.1688	-0.49167	-0.70625	-0.84375	-0.14583	-1.2583	-0.8875	-0.22708	-1.2271	-0.32292	-0.80417	220.090	87.516	61.574	222.174	14.322	130.166	195.643	245.517	153.322	7.937	231.210	-8.316	-83.092	-31.391	219.275	236.720	0.00029786	0.0030802	0.00012553	1166.9	1.3919e-05	6.949e-06	1558.5	421.95	9.1365e-06	1.4747e-05	620.23	216.31	132.76	61.106	3.2563e-06	107.61	0.0018424	0.0019071	0.00053019	1119	2.0823e-05	2.072e-05	1456.5	406.02	2.0806e-05	2.1019e-05	598.55	206.44	132.86	59.058	2.1525e-05	100.13	177.040	-67.059	-50.242	-83.235	58.648	-30.592	-83.797	-79.050	128.763	-84.162	-79.834	-75.947	-74.929	-69.483	-93.734	-71.699	-8191	255	
1556.875	1	1	0	0	0.31639	0.18332	0.21759	0.3701	0.2558	0.21842	0.34184	0.3446	0.24485	0.33073	0.090898	0.3378	0.27666	0.32444	0.18869	0.15294	-0.69583	-0.2375	-0.99792	-1.0667	-0.22083	-1.2229	-0.70208	-0.54792	-1.0708	-0.09375	-0.95208	-0.92292	-0.50625	-1.3167	-0.4	-0.68125	94.959	69.853	77.808	206.113	-28.689	112.630	233.608	218.126	-19.634	243.263	-58.988	236.946	243.788	-67.691	-76.058	212.950	0.00038912	0.0032327	0.00039217	1164.7	1.1322e-05	1.5062e-05	1557.8	418.95	3.1628e-06	2.1914e-05	619.92	217.51	132.28	61.044	1.3579e-05	107.21	0.0018854	0.0019643	0.00054801	1118.5	2.127e-05	2.1557e-05	1461.7	405.41	2.1409e-05	2.1575e-05	598.39	206.98	132.45	59.119	2.1512e-05	100.32	197.830	204.408	-11.018	-82.953	44.485	35.745	-83.916	-78.953	225.404	52.644	-79.510	-76.115	-74.276	-69.356	254.295	-71.835	-8191	255	
1556.947	1	1	0	0	0.22382	0.2639	0.15631	0.16561	0.068791	0.05479	0.063723	0.27179	0.03908	0.25855	0.26755	0.30379	0.21364	0.29673	0.095754	0.051957	-0.70208	-0.17083	-0.99583	-0.89583	-0.225	-1.0938	-0.56042	-0.44792	-1.3021	-0.33125	-0.86042	-0.86458	-0.26667	-0.95417	-0.58958	-0.5	117.723	178.632	121.946	252.571	47.590	104.712	71.855	116.904	171.297	243.562	-38.370	241.695	229.248	229.832	64.036	-82.196	0.00051712	0.0012723	0.00030489	1162.5	1.8896e-05	1.1267e-05	1563.9	419.29	1.9042e-05	2.7753e-05	616.28	215.92	132.29	61.016	1.4962e-05	106.84	0.001877	0.0019542	0.00054548	1114.8	2.1093e-05	2.1468e-05	1460.7	404.1	2.1172e-05	2.1414e-05	596.46	206.11	131.98	59.026	2.134e-05	99.846	185.133	1.452	-22.841	-82.927	15.713	54.965	-84.108	-79.176	26.098	28.401	-79.943	-76.301	-74.556	-69.460	73.874	-71.700	-8191	255	
1557.043	1	1	0	0	0.1057	0.089231	0.20563	0.1807	0.085035	0.10444	0.087953	0.13927	0.31282	0.27563	0.023188	0.13065	0.070205	0.32609	0.22297	0.079315	-0.68958	-0.30833	-0.55	-1.1063	-0.03125	-0.81042	-0.8125	-0.22708	-1.1	-0.46667	-0.55417	-1.3125	-0.29792	-0.99792	-0.78958	-0.55833	150.746	14.745	255.141	53.590	124.462	40.310	-53.399	140.685	-13.370	29.068	19.182	-75.970	119.115	201.217	104.040	-10.189	0.00044891	0.0021	0.00059677	1165.1	1.3389e-05	1.2201e-05	1565.9	416.27	1.4082e-05	1.5974e-05	618.9	215.08	132.99	61.653	1.197e-05	107.22	0.0018714	0.0019275	0.00053684	1114.6	2.0735e-05	2.0948e-05	1454.5	402.03	2.0778e-05	2.0812e-05	594.64	205.31	132.06	59.091	2.0824e-05	99.981	189.695	42.720	-21.445	-83.377	-76.639	63.428	-84.149	-79.135	-34.810	-77.370	-79.686	-76.299	-74.833	-69.715	-10.524	-71.786	-8191	255	
1557.164	1	1	0	0	0.35709	0.17569	0.063109	0.53633	0.21501	0.13587	0.29142	0.14482	0.14498	0.059217	0.17915	0.17654	0.12037	0.3202	0.23989	0.25772	-0.83125	-0.21458	-0.81875	-1.1167	-0.047917	-1.1542	-1.0604	-0.4375	-1.0958	-0.52083	-0.71042	-1.2563	-0.41458	-1.0729	-0.84167	-0.49583	192.096	68.559	233.319	162.473	255.337	-17.759	213.103	226.723	191.944	109.348	212.571	203.403	204.127	258.915	-89.098	236.635	0.00030281	0.0027561	0.00044674	1169.3	1.4466e-05	6.6717e-06	1555.6	415.51	6.504e-06	1.7832e-05	617.23	216.96	133.77	61.274	4.6916e-06	107.44	0.0018427	0.0019147	0.00052954	1113.6	2.0878e-05	2.1162e-05	1454.2	402.47	2.0767e-05	2.0971e-05	594.91	206.16	132	59.162	2.1026e-05	100.23	187.220	-79.163	-59.020	-82.990	-44.384	103.563	-83.714	-79.143	-0.282	-7.180	-79.630	-75.690	-74.152	-69.366	-84.438	-71.773	-8191	255	
1557.258	1	1	0	0	0.31854	0.091563	0.39046	0.2634	0.055769	0.22171	0.17599	0.18722	0.084264	0.13454	0.28199	0.35644	0.27296	0.048968	0.23801	0.25823	-0.7125	-0.39167	-0.21458	-1.4	-0.15417	-0.87708	-1.0292	-0.28958	-1.1979	-0.63958	-0.57292	-1.4	-0.30208	-1.0604	-1.1938	-0.39792	11.073	130.681	260.087	236.315	70.500	-79.359	156.436	226.985	107.178	66.206	215.501	247.866	205.153	94.869	178.449	244.770	0.00031677	0.001464	0.00030818	1163.6	7.8581e-06	9.761e-06	1562.5	421.05	1.4178e-05	2.2714e-05	624.01	217.84	134.25	61.532	1.4387e-05	109.1	0.0018588	0.0019146	0.00052963	1113.4	2.0718e-05	2.0908e-05	1455.3	403.63	2.0611e-05	2.074e-05	597.01	206.9	132.32	59.214	2.0215e-05	100.62	179.721	-3.016	44.228	-82.864	-72.246	13.102	-83.885	-79.233	164.202	3.281	-79.738	-76.232	-74.733	-69.158	204.922	-71.684	-8191	255	
1557.354	1	1	0	0	0.29218	0.043532	0.19764	0.36835	0.1034	0.041469	0.26183	0.27551	0.09978	0.18741	0.23829	0.27249	0.18053	0.062377	0.063403	0.15687	-0.79583	-0.62917	-0.46458	-1.3062	-0.28125	-0.73333	-1.1437	-0.31667	-1.0083	-0.65625	-0.41042	-1.2958	-0.39583	-0.65	-1.2479	-0.34583	39.926	200.804	-68.795	232.733	158.509	-57.459	175.990	204.546	109.204	202.359	-86.624	226.274	223.592	92.529	121.913	-62.300	0.00028006	0.00087049	0.00044507	1170.7	2.9964e-06	1.3447e-05	1575.3	421.16	9.7217e-06	2.0427e-05	627.18	218.98	133.96	61.624	1.9272e-06	107.89	0.0018043	0.0018486	0.00051051	1114.2	2.0132e-05	2.0186e-05	1459.6	404.51	2.0276e-05	2.0324e-05	595.96	206.94	132.06	59.055	2.0157e-05	100.03	172.402	250.007	-59.587	-82.811	-51.040	96.039	-83.717	-79.280	-67.521	49.329	-79.733	-75.971	-74.628	-69.551	192.158	-72.022	-8191	255	
1557.475	1	1	0	0	0.13841	0.20026	0.10218	0.42887	0.1157	0.15523	0.30806	0.21288	0.16493	0.15047	0.25423	0.33789	0.10312	0.069413	0.19154	0.22206	-0.45625	-0.74375	-0.33125	-1.1542	-0.49792	-0.41667	-1.2875	-0.525	-1.0396	-0.84583	-0.26875	-1.2208	-0.65208	-0.44583	-1.1396	-0.58958	111.636	32.855	140.624	211.893	242.093	260.855	179.589	245.544	244.595	96.100	240.303	241.273	-89.647	213.477	173.179	136.628	0.00030278	0.0014214	0.00018522	1171.1	4.9585e-06	1.4808e-05	1563.7	420.25	1.0487e-05	6.2655e-06	620.59	217.23	134.56	61.099	2.21e-05	107.31	0.0018046	0.0018599	0.00050934	1115.5	2.016e-05	2.0109e-05	1451.8	402.94	1.9947e-05	1.9952e-05	591.8	206.23	131.62	58.536	1.9596e-05	99.378	236.247	-66.616	18.619	-82.843	61.981	111.371	-83.725	-79.230	-17.663	75.771	-80.159	-75.986	-74.660	-69.273	90.008	-71.901	-8191	255	
1557.571	1	1	0	0	0.18298	0.21709	0.063662	0.15883	0.22905	0.12119	0.23659	0.046145	0.24318	0.06631	0.48637	0.093552	0.26559	0.30254	0.16569	0.34093	-0.39167	-0.73125	-0.03125	-1.1583	-0.67917	-0.27708	-1.3188	-0.43125	-0.93125	-0.91458	-0.50833	-1.1292	-0.83333	-0.3625	-1.1313	-0.57292	161.946	238.883	173.137	210.000	205.547	-9.962	215.871	91.735	-95.717	-50.169	-67.244	248.666	203.227	197.775	149.551	173.660	0.00032772	0.003187	0.00040045	1173.5	8.9737e-06	3.1811e-06	1575.7	421.71	1.323e-05	2.2446e-05	628.59	217.87	133.59	60.884	6.6303e-06	106.55	0.0017452	0.0017779	0.00049571	1114.9	1.9474e-05	1.92e-05	1456.4	402.98	1.9357e-05	1.9277e-05	595	205.87	131.29	58.215	1.9277e-05	98.587	212.739	-16.681	-64.549	-83.071	0.297	177.976	-83.808	-78.933	19.889	-9.031	-80.139	-76.005	-74.270	-69.447	72.295	-71.746	-8191	255	
1557.643	1	1	0	0	0.18063	0.13731	0.071766	0.42911	0.059268	0.22909	0.30902	0.1847	0.14624	0.29108	0.22147	0.16806	0.41797	0.055739	0.17122	0.2033	-0.2125	-1.1792	-0.2375	-1.1562	-0.67708	-0.22083	-1.2313	-0.47708	-0.5875	-1.05	-0.425	-1.0167	-0.80208	-0.38958	-1.1771	-0.68333	52.499	-27.900	93.573	208.442	234.735	158.639	213.703	227.003	-68.608	248.914	186.510	-80.739	-66.287	-79.461	121.744	172.309	0.0003824	0.0028617	0.00026381	1178.1	1.6059e-05	2.1166e-05	1580.8	423.41	1.0359e-05	2.5534e-05	628.17	219.31	134.23	61.506	8.7287e-06	107.48	0.0017124	0.0017579	0.00049003	1114.5	1.9118e-05	1.9148e-05	1456.9	402.43	1.9059e-05	1.9056e-05	594.36	206.39	130.92	58.353	1.9294e-05	98.88	198.912	49.207	-76.636	-82.885	30.856	171.956	-83.797	-79.285	121.563	52.510	-80.039	-76.129	-74.871	-69.476	56.709	-71.671	-8191	255	
1557.763	1	1	0	0	0.11129	0.29705	0.11968	0.25839	0.10109	0.030254	0.30626	0.50263	0.1037	0.13012	0.085115	0.27234	0.24591	0.32424	0.13237	0.1325	-0.12917	-1.2354	-0.2375	-1.0354	-0.90208	-0.47917	-1.4292	-0.56458	-0.475	-1.0729	-0.45	-0.87917	-1.0542	-0.39167	-0.97083	-0.65625	-39.845	221.691	-85.027	250.934	115.571	118.456	185.706	169.258	64.796	-76.704	216.671	208.537	-68.612	234.942	180.930	149.842	0.00031824	0.0011811	0.00016131	1181.3	6.0574e-06	5.0582e-06	1582.8	421.74	8.3592e-06	1.5691e-05	627.94	217.67	132.36	60.801	9.0746e-06	106.87	0.0017003	0.0017456	0.00048866	1113.1	1.8983e-05	1.9128e-05	1458.5	402.32	1.9199e-05	1.9381e-05	594.94	206.34	130.64	58.115	1.9709e-05	98.848	230.967	24.927	-73.734	-82.890	168.573	218.518	-83.887	-79.579	-1.253	23.446	-79.808	-76.357	-75.013	-69.570	3.920	-72.027	-8191	255	
1557.859	1	1	0	0	0.25735	0.37622	0.43708	0.10829	0.28581	0.14279	0.25879	0.37193	0.24003	0.13768	0.33773	0.085558	0.17639	0.37452	0.18525	0.34298	-0.00625	-0.94375	-0.17292	-1.0063	-1.0521	-0.33542	-1.2042	-0.79167	-0.24583	-1.1083	-0.44792	-0.76667	-1.2979	-0.27917	-0.85833	-0.7875	-88.378	93.850	113.476	-41.607	148.489	129.315	210.546	203.702	162.335	-35.492	260.613	207.073	50.657	-77.584	-9.455	207.858	0.00040237	0.00048429	0.00056315	1169.2	1.3786e-05	1.009e-05	1559.4	416.11	7.3376e-06	1.5504e-05	621.05	217.57	132.78	60.162	2.1798e-05	106.45	0.001742	0.0017965	0.00050557	1112.3	1.9714e-05	1.9818e-05	1451.7	400.97	1.9833e-05	1.9843e-05	593.4	205.6	130.94	58.184	2.0127e-05	98.811	171.790	26.987	-19.694	-82.872	258.519	43.892	-83.906	-79.226	210.568	31.682	-80.211	-76.244	-74.644	-69.415	106.955	-71.387	-8191	255	
1557.955	1	1	0	0	0.077336	0.13134	0.18989	0.18443	0.19846	0.16235	0.10629	0.20268	0.37025	0.17228	0.036368	0.22868	0.089387	0.03906	0.16815	0.21052	0.12292	-1.1292	-0.49792	-0.54375	-1.1187	-0.10833	-1.0396	-0.92708	-0.20417	-1.1854	-0.53125	-0.69167	-1.2729	-0.30833	-0.76458	-0.84375	-89.960	177.247	-69.176	-89.397	40.393	138.636	254.514	206.607	139.123	38.317	145.228	195.315	118.755	62.681	139.828	176.388	0.00043528	0.0024088	0.00050978	1168.9	1.5777e-05	1.1104e-05	1564.5	418.22	8.0885e-06	1.268e-05	622.6	217.83	132.59	60.681	1.0967e-05	107.23	0.0017755	0.0018243	0.00051271	1111.9	1.9935e-05	2.0167e-05	1452.6	401.3	1.9956e-05	2.0279e-05	593.64	205.9	130.74	58.448	2.0177e-05	99.401	197.546	-31.920	215.959	-83.060	175.523	-82.634	-83.968	-79.546	130.682	100.437	-80.043	-76.113	-74.865	-69.326	52.054	-71.809	-8191	255	
1558.052	1	1	0	0	0.067143	0.18104	0.15997	0.17856	0.036744	0.082048	0.27215	0.14886	0.15455	0.16949	0.35843	0.14083	0.28576	0.097219	0.27468	0.18392	0.26042	-0.9	-0.51875	-0.57292	-1	-0.34583	-1.0042	-1.0042	-0.28333	-1.0542	-0.52083	-0.41042	-1.1729	-0.49583	-0.64167	-1.1583	-18.445	86.483	84.080	239.684	-51.218	-17.330	209.216	223.843	-7.064	210.664	145.338	159.157	-42.885	141.457	259.692	-67.054	0.00046258	0.0022995	0.0005802	1169.6	1.2083e-05	1.2779e-05	1572.6	419.92	2.2484e-05	1.5564e-05	625.07	216.78	132.51	61.444	8.6362e-06	107.79	0.0017744	0.0018189	0.00050489	1109.9	1.9754e-05	1.9885e-05	1456.5	400.96	1.9777e-05	2.0048e-05	592.15	205.91	131.12	58.674	1.9903e-05	99.764	188.632	-19.858	73.290	-83.152	3.932	75.887	-83.601	-79.241	-96.087	53.629	-80.373	-75.956	-74.603	-70.026	97.557	-71.985	-8191	255	
1558.170	1	1	0	0	0.044965	0.2256	0.12139	0.27948	0.17604	0.19476	0.11133	0.20197	0.064712	0.10059	0.37184	0.38706	0.21689	0.18191	0.19303	0.25858	0.029167	-1.0187	-0.6625	-0.5	-1.1271	-0.39792	-0.90208	-1.1917	-0.375	-0.8625	-1.0042	-0.60208	-1.1958	-0.55417	-0.58542	-1.0792	234.840	110.363	243.208	213.272	141.632	0.086	97.904	222.842	210.360	-81.037	225.287	237.415	257.098	223.022	242.019	133.164	0.00023932	0.0015596	0.00054424	1170.5	9.7377e-06	9.8995e-06	1577.4	420.96	6.7554e-06	8.28e-06	626.27	220.06	133.59	61.41	1.5825e-05	108.3	0.0017549	0.0018115	0.00049889	1108.3	1.9444e-05	1.9424e-05	1457.2	401.44	1.9213e-05	1.9343e-05	593.46	206.66	131.19	58.736	1.9293e-05	100.06	197.674	253.808	41.382	-82.977	-27.528	138.942	-83.577	-79.210	161.248	-71.685	-80.349	-75.847	-74.648	-69.747	19.956	-71.914	-8191	255	
1558.242	1	1	0	0	0.21003	0.14337	0.13574	0.15446	0.22897	0.22787	0.16549	0.062749	0.261	0.2634	0.048351	0.071405	0.19306	0.29039	0.26629	0.36409	0.083333	-0.85417	-0.82708	-0.37083	-1.3312	-0.38333	-0.73542	-1.2042	-0.2125	-0.92917	-1.2167	-0.4375	-1.1083	-0.66042	-0.53333	-1.2583	-96.966	26.321	-21.322	-94.167	187.137	11.812	-94.723	169.578	-93.521	122.870	131.541	20.373	202.144	174.886	160.980	218.643	0.00037771	0.0015886	0.0003443	1172.2	5.0397e-06	2.6158e-06	1569.4	421.61	1.373e-05	2.0856e-05	630.1	220.05	134.53	61.46	6.126e-06	109.19	0.0016865	0.0017581	0.00047705	1106.5	1.8844e-05	1.8794e-05	1449.8	400.78	1.8307e-05	1.8488e-05	591.49	205.28	130.72	58.269	1.8144e-05	99.743	186.321	169.930	75.333	-82.950	-95.034	7.640	-83.828	-79.391	231.467	-37.108	-80.184	-76.027	-75.068	-69.633	246.072	-71.453	-8191	255	
1558.338	1	1	0	0	0.34293	0.081025	0.17193	0.11593	0.11063	0.24683	0.33626	0.33624	0.04535	0.22478	0.052457	0.16327	0.35945	0.30922	0.041967	0.20449	0.0625	-0.78333	-0.94375	-0.41042	-1.3125	-0.7	-0.5375	-1.1958	-0.3375	-0.77083	-1.2417	-0.48333	-1.0167	-0.53333	-0.275	-1.2333	67.823	146.410	22.389	178.097	46.725	78.958	241.291	230.337	63.088	32.959	-67.582	-25.169	-77.359	-64.434	109.476	248.502	0.00031058	0.0020573	0.00031133	1180.3	1.0484e-05	1.4781e-05	1586.7	423.22	6.6364e-06	1.6915e-05	632.92	220.71	134.34	62.275	1.1696e-05	109.24	0.0015958	0.0016423	0.00045648	1107.9	1.79e-05	1.8151e-05	1452.6	401.37	1.8137e-05	1.8075e-05	591.99	205.18	130.32	58.438	1.7785e-05	99.864	132.192	40.467	-59.451	-82.763	253.939	224.797	-83.937	-78.796	247.490	-87.397	-80.021	-76.040	-75.060	-69.573	70.890	-71.928	-8191	255	
1558.434	1	1	0	0	0.074994	0.12141	0.13664	0.22372	0.23964	0.13381	0.16048	0.19544	0.30905	0.54933	0.20561	0.34661	0.24716	0.38652	0.13507	0.24169	0.09375	-0.62292	-0.88125	-0.27708	-0.91875	-0.66875	-0.36458	-1.3146	-0.225	-0.65833	-1.0896	-0.29583	-1.1229	-1.0625	-0.40833	-1.2771	123.658	-42.606	81.435	113.974	-53.286	-76.933	247.632	-63.871	259.232	47.893	225.842	180.397	177.771	247.419	8.160	215.183	0.00034438	0.0024999	0.00039656	1178.8	1.0214e-05	1.4284e-05	1590.3	426.53	1.1074e-05	5.3442e-06	637.13	219.97	134.46	61.788	7.5927e-06	109.63	0.0015737	0.0016231	0.00044465	1105.9	1.774e-05	1.7682e-05	1454.9	402.65	1.7643e-05	1.7583e-05	593.65	206.05	130.86	58.291	1.7612e-05	100.28	172.290	-21.544	207.622	-82.884	31.443	-15.580	-83.651	-79.269	-0.810	-44.262	-79.772	-76.204	-74.632	-69.589	23.050	-71.963	-8191	255	
1558.555	1	1	0	0	0.06078	0.04565	0.19063	0.11021	0.091611	0.051929	0.30742	0.38794	0.049359	0.28838	0.15633	0.26648	0.16529	0.24054	0.18077	0.25494	-0.09375	-0.36875	-1.1146	-0.38958	-0.88542	-0.98333	-0.29792	-1.2437	-0.64583	-0.54167	-1.3979	-0.49167	-0.94583	-1.1375	-0.08125	-1.2979	208.312	-18.737	-12.607	187.371	144.505	61.192	232.014	230.270	-58.579	-72.873	251.934	224.789	129.811	191.207	100.196	204.216	0.00026133	0.0007858	0.00039969	1182.6	4.2738e-06	1.353e-05	1589.3	427.6	1.0091e-05	6.0573e-06	632.2	222.27	134.35	61.629	1.1831e-05	109.75	0.0015573	0.0015981	0.00044162	1105.8	1.7388e-05	1.7362e-05	1454.5	402.68	1.7372e-05	1.7435e-05	593.54	206.27	130.69	58.135	1.7413e-05	100.15	172.351	182.168	-51.428	-82.856	-53.790	12.128	-83.910	-79.445	79.634	17.807	-79.900	-76.309	-74.494	-69.383	93.628	-71.634	-8191	255	
1558.651	1	1	0	0	0.18242	0.22336	0.17261	0.21953	0.037941	0.080623	0.12237	0.072861	0.099315	0.15656	0.057766	0.21746	0.18099	0.20654	0.18566	0.032983	-0.29167	-0.3125	-1.1313	-0.33333	-0.5875	-0.97917	-0.4	-1.2188	-0.65417	-0.40833	-1.2563	-0.50417	-0.85625	-1.0875	-0.33125	-1.1646	140.781	136.271	154.979	-62.194	45.797	-87.725	-79.451	115.181	66.837	-6.207	229.482	-89.562	157.882	153.530	24.470	-74.764	0.00025871	0.0012433	0.00050507	1176.3	1.1321e-05	1.2257e-05	1584.5	425.63	4.845e-06	8.388e-06	638.89	220.78	135.28	61.894	1.8192e-05	109.33	0.0015536	0.0015799	0.00044166	1101.9	1.7324e-05	1.7311e-05	1449.9	401.07	1.7124e-05	1.7025e-05	592.14	205.19	130.21	57.893	1.7034e-05	99.314	187.824	111.869	208.847	-82.925	225.596	124.277	-83.844	-79.347	149.973	97.055	-79.994	-76.446	-74.663	-69.492	53.919	-71.933	-8191	255	
1558.747	1	1	0	0	0.11459	0.23668	0.16773	0.16337	0.35828	0.17965	0.34497	0.16349	0.018124	0.1882	0.21306	0.30254	0.12012	0.17773	0.22461	0.053977	-0.49792	-0.070833	-1.0958	-0.62708	-0.55	-1.0396	-0.39583	-1.0271	-0.75625	-0.36875	-1.175	-0.68333	-0.44167	-1.1833	-0.15625	-0.9375	163.827	106.938	252.337	243.793	-76.232	-65.063	208.165	-77.875	77.821	16.198	129.910	121.952	246.660	186.145	213.073	227.721	0.00046187	0.0019309	0.00035932	1185.1	1.0418e-05	1.2611e-05	1593.6	430.8	6.3024e-06	2.1295e-05	641.68	221.73	135.93	61.721	1.8053e-05	108.82	0.0014904	0.0015278	0.00042292	1104.2	1.6715e-05	1.6754e-05	1451.9	402.22	1.65e-05	1.6571e-05	595.32	205.05	130.23	57.576	1.6209e-05	98.965	201.079	80.924	259.357	-83.146	14.295	-21.245	-83.989	-79.352	-59.090	43.133	-79.927	-76.401	-74.762	-69.906	-44.398	-71.951	-8191	255	
1558.844	1	1	0	0	0.39034	0.15609	0.11769	0.21125	0.034093	0.23294	0.29411	0.33043	0.12681	0.18347	0.20245	0.10152	0.2963	0.29532	0.043723	0.23352	-0.7	-0.2125	-1.0667	-0.61875	-0.29792	-1.2437	-0.54167	-0.83125	-0.65833	-0.41875	-1.1083	-0.68542	-0.62083	-1.3146	-0.21667	-0.84167	-3.837	-44.378	-92.683	219.997	136.211	-32.070	176.998	241.576	252.791	35.163	168.798	163.683	-63.408	-65.394	-6.783	180.311	0.00033135	0.002478	0.00044213	1186.4	1.6422e-05	4.5255e-06	1600.6	431.85	5.7907e-06	1.05e-05	638.81	220.24	136.21	62.156	1.5994e-05	109.59	0.0014278	0.0014683	0.00041289	1103.8	1.6237e-05	1.6201e-05	1454	402.98	1.638e-05	1.6591e-05	594.14	204.52	130.6	57.997	1.6471e-05	99.632	211.155	-11.349	-9.433	-83.125	17.135	204.458	-84.179	-79.321	182.562	133.986	-80.279	-76.379	-74.583	-69.889	-22.299	-72.077	-8191	255	
1558.940	1	1	0	0	0.12934	0.14025	0.24204	0.20211	0.18577	0.13901	0.26507	0.25959	0.24594	0.19129	0.18689	0.14369	0.17311	0.12454	0.15288	0.16072	-0.59167	-0.12917	-1.0479	-0.44792	-0.20208	-1.1	-0.62917	-0.71042	-0.99583	-0.275	-1.1938	-0.92292	-0.43958	-1.1771	-0.2875	-0.70417	187.865	205.924	223.065	188.838	126.052	72.384	214.098	200.982	69.908	218.206	-71.611	34.330	-69.381	246.677	79.050	35.411	0.00036448	0.0011262	8.66e-05	1194.1	5.1497e-06	1.7558e-05	1610.2	432.15	5.0581e-06	1.676e-05	643.63	223.35	136.85	62.06	1.3539e-06	110.05	0.0014547	0.0014804	0.00041578	1109.4	1.6052e-05	1.6134e-05	1458.8	402.97	1.6086e-05	1.6062e-05	595.49	205.29	130.69	57.965	1.6336e-05	99.961	172.655	44.610	150.786	-83.276	23.428	72.311	-83.987	-79.480	44.186	8.706	-79.861	-75.881	-74.392	-69.371	96.787	-71.815	-8191	255	
1559.036	1	1	0	0	0.23812	0.20803	0.17396	0.1857	0.1726	0.20676	0.21007	0.11301	0.16892	0.14508	0.13756	0.19564	0.29725	0.21412	0.14377	0.16387	-0.77083	-0.22708	-0.94792	-0.88125	-0.35833	-1.2437	-0.65208	-0.49167	-1.1333	-0.36458	-1.0187	-1.0042	-0.30625	-1.3563	-0.76875	-0.70625	-45.791	133.384	-74.347	203.066	-73.513	116.916	238.880	-1.879	189.455	74.828	203.651	226.381	240.672	-43.571	47.089	236.539	0.00027959	0.00021618	0.00066343	1199.3	5.4896e-06	2.1367e-05	1606.6	431.74	9.2407e-06	8.6078e-06	642.38	222.53	136.2	61.74	1.1033e-05	109.79	0.0014389	0.0014755	0.00041036	1109	1.5833e-05	1.6011e-05	1457.8	401.56	1.5677e-05	1.5921e-05	592.66	204.25	129.76	57.524	1.579e-05	99.11	219.929	195.823	-21.424	-83.106	-23.698	98.565	-83.924	-79.201	248.702	102.125	-79.732	-76.177	-74.923	-69.464	120.151	-71.543	-8191	255	
1559.156	1	1	0	0	0.34826	0.33192	0.19426	0.27665	0.10858	0.11628	0.27571	0.29255	0.1134	0.13975	0.096886	0.23811	0.093072	0.2588	0.01563	0.16719	-0.87917	-0.19375	-0.7	-0.97708	-0.44792	-1.1146	-0.76042	-0.33125	-1.1979	-0.28542	-0.97292	-1.1646	-0.33125	-1.2313	-0.63125	-0.55208	-95.847	147.343	69.992	220.091	86.360	-28.751	218.309	-76.970	86.112	241.958	245.300	233.159	-40.436	224.547	209.858	249.641	0.00049797	0.0009805	0.00074043	1199.1	1.9747e-06	2.0113e-05	1612.3	432.92	1.0733e-05	1.4679e-05	647.44	221.23	137.23	61.812	1.4713e-05	109.7	0.0013994	0.0014322	0.00039919	1106.4	1.5617e-05	1.5653e-05	1458.6	402.51	1.5525e-05	1.5761e-05	593.87	203.81	130.08	57.44	1.5626e-05	99.083	190.633	-75.360	-75.461	-82.728	-36.080	67.784	-84.031	-79.363	-67.853	79.166	-79.799	-76.192	-75.050	-69.758	127.735	-71.369	-8191	255	
1559.253	1	1	0	0	0.21268	0.16283	0.31586	0.13922	0.040515	0.13726	0.35856	0.16201	0.1366	0.166	0.29216	0.25845	0.26327	0.23953	0.21816	0.28256	-0.68333	-0.33958	-0.63542	-1.1917	-0.21667	-0.96875	-0.81458	-0.36875	-1.3292	-0.39167	-0.84583	-1.2542	-0.33542	-1.1271	-0.81042	-0.23125	121.292	99.581	222.185	261.459	196.222	-55.123	233.256	192.989	120.502	-29.203	255.156	207.292	219.383	-14.174	81.548	151.578	0.00022589	0.001456	8.2253e-05	1201.5	1.0172e-05	1.4861e-05	1604.2	433.88	1.1062e-05	1.3903e-05	647.35	221.88	137.06	62.16	5.269e-06	109.79	0.0013826	0.0014307	0.00039499	1109.1	1.5575e-05	1.557e-05	1457.7	402.7	1.5457e-05	1.5631e-05	594.3	204.34	129.79	57.453	1.5541e-05	99.266	198.501	-17.964	20.062	-82.675	28.672	48.741	-83.744	-78.856	30.241	6.786	-80.346	-76.062	-74.896	-69.726	180.300	-71.889	-8191	255	
1559.347	1	1	0	0	0.041283	0.027391	0.23559	0.15657	0.22963	0.15232	0.10496	0.14593	0.043093	0.20908	0.23033	0.15493	0.25993	0.23748	0.15013	0.2344	-0.76667	-0.46042	-0.375	-1.4417	-0.18542	-0.88958	-0.8375	-0.40833	-1.1812	-0.63958	-0.49792	-1.3979	-0.55417	-1.0521	-0.98125	-0.39167	244.738	103.364	77.611	261.229	35.129	-28.395	110.419	219.896	7.916	-49.297	154.402	166.410	240.155	211.602	88.180	154.894	0.00045168	0.0011637	0.00035226	1199.4	3.5906e-06	6.5635e-06	1614.4	434.25	3.3985e-06	1.3016e-05	649.86	223.48	137.67	61.949	2.8253e-06	110.86	0.0013766	0.0014231	0.00039396	1106.7	1.5314e-05	1.5471e-05	1459.4	402.35	1.5409e-05	1.5478e-05	596.62	205.79	130.08	57.522	1.5245e-05	99.582	184.966	-27.683	-92.150	-83.084	129.645	-91.200	-83.981	-79.246	152.406	37.334	-80.156	-75.877	-74.245	-69.044	136.518	-71.453	-8191	255	
1559.443	1	1	0	0	0.15719	0.11309	0.28663	0.19701	0.14781	0.13614	0.49686	0.040679	0.085549	0.16817	0.10807	0.42433	0.11384	0.21006	0.095786	0.25515	-0.54792	-0.42292	-0.48333	-0.94792	-0.3375	-0.84583	-1.4583	-0.36875	-0.98125	-0.52292	-0.58958	-1.1146	-0.43958	-0.62292	-0.95833	-0.30208	256.172	135.123	24.384	-63.290	74.698	120.391	218.758	52.835	123.307	204.263	-60.832	233.656	39.491	252.127	151.557	191.599	0.00048562	0.0012187	0.00033088	1198.1	6.7314e-06	3.4161e-06	1611.6	434.27	1.8675e-05	3.7348e-06	648.28	222.16	136.23	61.753	6.7289e-06	108.44	0.0013591	0.0014114	0.00038671	1106.4	1.519e-05	1.5221e-05	1457.9	401.39	1.518e-05	1.5266e-05	592.77	204.27	128.96	57.083	1.4981e-05	97.997	195.750	-27.115	24.095	-82.567	13.955	16.496	-83.083	-79.156	66.616	55.029	-79.556	-75.841	-74.281	-68.798	175.712	-71.596	-8191	255	
1559.539	1	1	0	0	0.15026	0.18587	0.25946	0.25087	0.26507	0.078378	0.32097	0.14102	0.11805	0.14762	0.29614	0.22177	0.23099	0.16137	0.2475	0.25551	-0.70208	-0.76458	-0.38958	-1.1271	-0.53958	-0.58542	-1.2958	-0.13333	-0.93333	-0.89583	-0.3375	-1.2958	-0.6875	-0.50417	-1.1167	-0.45833	71.342	20.265	65.073	145.405	127.026	-93.439	157.640	-5.906	67.638	219.360	191.119	229.692	214.190	251.975	119.408	-90.294	0.00055321	0.0002624	0.00021519	1198.6	3.8605e-06	7.1995e-06	1606.8	435.24	1.9961e-05	1.3848e-05	642.15	220.51	136.02	61.535	1.5213e-05	108.16	0.0013484	0.0013649	0.00037679	1105.3	1.4961e-05	1.5054e-05	1453.6	400.02	1.5081e-05	1.5133e-05	589.47	203.29	128.37	56.869	1.4956e-05	97.836	184.641	195.800	-0.152	-83.183	21.426	62.389	-83.889	-79.085	13.410	5.632	-79.936	-75.981	-74.789	-69.156	-4.688	-71.685	-8191	255	
1559.635	1	1	0	0	0.23429	0.27658	0.24365	0.36195	0.13952	0.24131	0.093994	0.24214	0.22248	0.29113	0.25038	0.10282	0.18408	0.2736	0.27064	0.18375	-0.62708	-0.83958	0.05625	-1.3625	-0.53125	-0.26667	-1.3208	-0.42917	-0.69375	-0.96042	-0.48542	-1.2875	-0.81458	-0.45417	-1.1708	-0.39583	70.216	251.148	-74.844	174.160	-27.208	-34.816	149.834	-63.151	121.160	-10.343	115.138	-43.757	262.113	-62.788	119.376	262.013	0.00021924	0.00080487	0.00047104	1200	1.054e-06	6.5545e-06	1599.2	427.28	9.5191e-06	6.6401e-06	640.85	222.27	135.1	61.412	2.4617e-05	108.74	0.0013428	0.001385	0.00038166	1104	1.5018e-05	1.4984e-05	1450.4	398.28	1.4963e-05	1.4931e-05	587.88	203.37	128.15	56.737	1.4881e-05	98.166	143.338	68.014	-78.566	-82.680	31.056	85.781	-84.071	-79.485	-37.677	-31.520	-79.962	-76.175	-74.822	-69.419	22.790	-71.702	-8191	255	
1559.732	1	1	0	0	0.16481	0.039207	0.22116	0.19444	0.041355	0.21243	0.45684	0.30972	0.25311	0.020283	0.22711	0.17042	0.19426	0.1761	0.27133	0.23632	-0.3375	-0.80833	-0.18333	-1.0604	-0.85208	-0.37083	-1.3687	-0.43958	-0.52292	-1.0938	-0.325	-1.2042	-0.91458	-0.46042	-1.3271	-0.56042	-76.672	155.932	175.627	236.942	258.728	178.508	235.160	169.963	7.251	159.379	111.569	175.365	176.257	-85.539	-76.221	227.232	0.00049578	0.00031186	0.00022817	1208	6.8173e-06	8.6484e-06	1599.4	428.89	4.0405e-06	1.3332e-05	644.2	222.22	136.52	61.385	8.5127e-06	110.15	0.0013245	0.0013367	0.00037517	1107.3	1.4902e-05	1.477e-05	1450.4	398.38	1.4934e-05	1.5061e-05	590.26	203.93	128.83	56.959	1.5308e-05	98.992	187.311	-61.383	-34.734	-83.073	3.778	26.838	-83.736	-79.233	98.471	67.505	-80.018	-76.286	-74.442	-69.419	-3.973	-72.007	-8191	255	
1559.852	1	1	0	0	0.13317	0.23284	0.19304	0.23306	0.068094	0.093949	0.15151	0.28128	0.096926	0.15713	0.11142	0.21999	0.37344	0.25689	0.043972	0.28324	-0.22708	-0.79167	-0.26458	-1.0521	-0.525	-0.12708	-1.4062	-0.68958	-0.36458	-1.1792	-0.25	-1.0125	-1.025	-0.15833	-1.1104	-0.68958	-9.066	52.700	65.032	261.660	208.375	125.761	188.474	197.101	127.242	181.312	235.792	250.169	232.945	224.900	163.431	173.834	0.00022165	0.0019322	0.0001482	1200.7	2.4323e-05	1.2045e-05	1601.6	428.11	1.3769e-05	1.4136e-05	638.47	220.91	134.75	61.678	1.4919e-05	109.4	0.0013585	0.0013972	0.00038875	1102.3	1.5351e-05	1.5414e-05	1451.2	398	1.5406e-05	1.5467e-05	588.8	203.12	128.22	57.22	1.565e-05	98.82	195.039	0.224	18.646	-82.709	89.537	105.468	-83.369	-78.726	104.131	-18.450	-79.835	-76.434	-74.829	-68.839	108.263	-71.344	-8191	255	
1559.948	1	1	0	0	0.2501	0.078394	0.094795	0.40337	0.12515	0.056991	0.060855	0.18842	0.12684	0.066025	0.13602	0.097619	0.16232	0.23791	0.14139	0.15122	-0.010417	-1.05	-0.275	-0.80417	-0.81667	-0.42917	-1.2875	-0.56458	-0.3625	-1.1375	-0.59375	-0.82083	-1.0917	-0.32083	-1.1417	-0.98125	25.103	82.535	122.462	216.736	242.647	180.241	96.742	212.461	-36.963	38.228	-30.283	227.580	182.519	100.391	46.167	205.717	0.00024247	0.0012473	0.00055885	1194.2	6.0736e-06	9.4789e-06	1590.6	426.62	1.2242e-05	1.3666e-05	642.02	220.48	135.06	61.716	9.9718e-06	110.12	0.0013806	0.0014112	0.00039341	1099.5	1.5509e-05	1.5475e-05	1445.4	396.45	1.5424e-05	1.56e-05	588.86	203.21	128.61	57.313	1.5668e-05	99.326	227.655	175.999	-17.981	-82.288	93.069	-37.727	-83.059	-78.871	224.137	-1.287	-79.543	-75.261	-73.967	-68.528	28.514	-71.092	-8191	255	
1560.043	1	1	0	0	0.17236	0.225	0.30621	0.31423	0.20929	0.137	0.28959	0.23947	0.19746	0.10085	0.084566	0.25631	0.34062	0.074446	0.18026	0.15302	0.0020833	-0.95417	-0.42708	-0.7625	-0.99375	-0.40625	-1.2771	-0.91667	-0.066667	-1.1521	-0.67083	-0.77292	-1.1604	-0.38125	-1.0417	-1.0396	82.603	62.425	34.657	220.810	13.527	176.143	153.647	-88.717	188.781	125.999	190.910	219.840	-70.952	61.012	-2.347	118.143	0.00016298	0.00069737	0.00035646	1184.4	1.0839e-05	1.073e-05	1592.9	430.42	7.8684e-06	2.3223e-05	641.46	222.36	135.73	62.052	1.62e-05	110.73	0.001393	0.0014373	0.00039861	1099.2	1.5614e-05	1.577e-05	1446.2	397.94	1.57e-05	1.5765e-05	590.39	204.46	128.84	57.565	1.5905e-05	99.958	182.650	-5.559	-14.578	-82.111	114.155	-66.506	-83.005	-78.686	61.675	46.469	-79.312	-74.997	-73.983	-68.855	240.656	-70.772	-8191	255	
1560.116	1	1	0	0	0.096494	0.12013	0.097141	0.24597	0.34036	0.25505	0.25272	0.25106	0.22934	0.076248	0.16107	0.2874	0.33903	0.24641	0.088014	0.26885	0.060417	-1.0021	-0.4875	-0.7	-1.025	-0.23542	-1.0667	-0.89792	-0.25417	-1.0417	-0.64792	-0.575	-1.3188	-0.4125	-0.975	-1.1896	151.546	113.425	235.327	254.952	202.742	-42.878	205.776	197.964	185.820	135.145	245.693	227.822	-73.534	249.201	238.959	210.365	0.00040992	0.0016007	0.00041165	1187.8	5.4485e-06	1.726e-05	1601.3	429.78	3.3443e-06	4.1573e-06	638.1	222.26	135.8	62.505	5.1619e-06	111.21	0.0013964	0.0014552	0.0004004	1099.4	1.5743e-05	1.5872e-05	1451.7	398	1.5781e-05	1.5807e-05	590.03	205.22	129.05	57.924	1.5857e-05	100.39	197.972	237.850	-88.588	-82.033	36.492	76.955	-83.308	-78.928	-5.521	140.698	-79.601	-75.362	-74.418	-69.207	205.765	-71.338	-8191	255	
1560.235	1	1	0	0	0.17692	0.33261	0.088485	0.39463	0.045904	0.018369	0.071275	0.14491	0.081212	0.13136	0.37783	0.39745	0.069796	0.11025	0.083584	0.23195	0.28333	-1.1562	-0.51875	-0.58333	-1.1417	-0.24375	-0.8625	-1.275	-0.25417	-1.0812	-0.94792	-0.52917	-1.125	-0.4125	-0.5375	-1.15	134.493	59.265	228.347	-86.741	-90.422	229.403	104.305	104.615	32.883	-95.167	142.979	182.029	175.336	170.522	49.114	160.011	0.00021559	0.0011492	0.00020241	1188	1.1326e-05	2.2001e-06	1602.2	425.74	1.223e-05	3.6926e-06	642.31	222.24	135.39	62.121	4.253e-06	110.45	0.0014	0.0014372	0.00039765	1096.5	1.5491e-05	1.5657e-05	1450.5	397.06	1.5431e-05	1.5512e-05	589.91	204.33	128.7	57.439	1.5422e-05	99.461	186.938	-39.847	-58.808	-82.228	159.008	143.247	-83.078	-78.912	57.173	-48.853	-78.776	-74.857	-73.611	-68.740	79.547	-71.542	-8191	255	
1560.331	1	1	0	0	0.17606	0.12605	0.1765	0.03732	0.17565	0.095092	0.19922	0.18253	0.12772	0.24645	0.37549	0.36906	0.17069	0.26134	0.32086	0.3062	0.25625	-0.89583	-0.66667	-0.48333	-1.275	-0.39375	-0.83333	-1.275	-0.21667	-0.84583	-0.98125	-0.32708	-1.3458	-0.66042	-0.58125	-1.1396	178.884	105.381	204.697	124.355	182.990	-34.340	216.870	130.545	103.601	74.197	-4.351	195.841	-79.818	230.416	-68.724	179.894	0.00034888	0.0018846	0.00038827	1192	1.1648e-06	1.4263e-05	1596.9	426.96	1.0524e-05	1.6492e-05	636	222	135.35	61.568	3.3402e-06	109.93	0.0013619	0.0014036	0.00038988	1096.7	1.5231e-05	1.5292e-05	1445.3	396.6	1.5244e-05	1.5434e-05	586.13	203.72	128.63	57.248	1.5358e-05	99.053	191.903	121.944	15.083	-81.973	58.818	142.879	-82.698	-78.206	117.227	144.839	-80.106	-75.944	-74.946	-69.381	213.621	-70.781	-8191	255	
1560.427	1	1	0	0	0.29876	0.068523	0.092174	0.19699	0.21533	0.06887	0.11035	0.26587	0.24711	0.22069	0.26916	0.3681	0.28622	0.33802	0.17071	0.36438	0.0875	-0.71667	-0.8375	-0.50208	-1.0021	-0.48125	-0.72083	-1.3687	-0.25208	-0.82708	-0.98333	-0.275	-1.0771	-0.74583	-0.66667	-1.1875	151.861	21.145	-41.770	114.984	5.492	-6.498	-38.077	250.427	259.878	136.783	249.715	197.151	245.899	187.374	-68.814	149.525	0.00012685	0.0012536	0.00056308	1190.8	9.9927e-06	4.6615e-06	1591.2	425.57	1.1771e-05	8.9133e-06	639.65	222.76	134.89	61.722	9.9803e-06	110.23	0.0013715	0.001405	0.00038833	1093.9	1.5205e-05	1.5402e-05	1442.7	394.71	1.5221e-05	1.5443e-05	587.7	203.81	128.23	57.129	1.5405e-05	99.064	229.940	16.999	-25.117	-81.883	28.991	58.567	-83.530	-78.508	-43.764	32.040	-79.363	-75.246	-74.364	-69.238	-95.097	-71.088	-8191	255	
1560.524	1	1	0	0	0.092964	0.10219	0.26264	0.26132	0.19341	0.052816	0.5929	0.16018	0.16114	0.073275	0.10293	0.26913	0.050178	0.089633	0.12401	0.051567	0.18958	-0.72917	-0.87292	-0.40625	-1.0125	-0.95625	-0.49375	-1.1979	-0.39792	-0.79792	-1.1958	-0.46667	-1.175	-0.91875	-0.05625	-1.375	209.417	75.770	128.943	258.321	-54.438	48.708	195.768	159.352	113.638	114.113	235.233	171.758	245.872	128.823	-45.641	-70.875	0.00041477	0.00032859	0.00032606	1186.4	5.9597e-06	4.3945e-06	1597.7	427.84	2.6317e-06	1.6659e-05	644.57	221.96	135.47	61.643	6.9488e-06	110.36	0.0013582	0.0013795	0.00038439	1092.9	1.5082e-05	1.5211e-05	1443.5	396.06	1.5057e-05	1.5227e-05	588	204.32	128.17	57.11	1.5247e-05	99.296	154.890	126.716	-48.083	-82.745	-22.304	77.952	-83.115	-78.977	98.363	19.450	-79.034	-74.937	-73.316	-68.473	219.693	-70.969	-8191	255	
1560.644	1	1	0	0	0.1025	0.095346	0.10838	0.30222	0.22342	0.11509	0.12668	0.2366	0.14403	0.11527	0.34377	0.10807	0.491	0.15095	0.12803	0.2742	-0.22917	-0.55625	-0.9	-0.475	-1.0042	-0.93542	-0.5625	-1.2896	-0.3875	-0.39167	-1.1417	-0.45833	-1.075	-0.89167	-0.4125	-1.1875	-77.041	235.147	234.196	-92.108	-92.672	164.249	125.319	262.136	201.616	165.891	215.195	216.968	262.133	194.804	113.272	189.286	0.00042613	0.0018008	0.00036056	1186.1	4.005e-06	1.0852e-05	1588.6	427.31	3.1007e-06	2.7061e-05	635.03	220.82	134.03	61.402	1.2274e-05	109.26	0.0013793	0.0014066	0.00039137	1093.6	1.5414e-05	1.5551e-05	1443	396.21	1.565e-05	1.5674e-05	587	203.65	127.74	57.052	1.5744e-05	98.929	190.427	-87.466	-47.850	-82.099	134.729	125.380	-83.012	-78.631	4.351	-6.170	-79.928	-75.993	-74.668	-69.721	-78.953	-71.532	-8191	255	
1560.740	1	1	0	0	0.17111	0.39316	0.27497	0.35379	0.1827	0.19273	0.22472	0.25855	0.38265	0.22533	0.19644	0.15205	0.14174	0.077958	0.38291	0.091391	-0.079167	-0.25417	-1.1083	-0.325	-0.79375	-1.0021	-0.46458	-1.2375	-0.73333	-0.17708	-1.2271	-0.55	-0.61042	-0.95	-0.18333	-1.1854	220.117	23.974	-89.425	193.557	92.205	82.057	138.641	-92.727	72.432	252.214	185.008	189.367	186.451	210.700	-94.908	127.717	0.00033163	0.00065372	0.00022405	1172.4	1.9116e-05	3.8547e-06	1575	423.39	9.6266e-06	2.0969e-05	632.39	218.24	132.77	61.188	8.8589e-06	108.72	0.0014123	0.0014445	0.00040253	1088.5	1.595e-05	1.6064e-05	1434.3	395.42	1.6173e-05	1.6195e-05	584.11	202.58	127.31	56.989	1.6356e-05	98.504	209.957	-88.414	-52.732	-83.080	31.670	-22.887	-83.588	-79.143	155.063	45.446	-79.741	-75.791	-74.750	-69.364	47.928	-71.516	-8191	255	
1560.836	1	1	0	0	0.14881	0.23398	0.31649	0.21561	0.046235	0.08077	0.47277	0.34946	0.21376	0.41067	0.24841	0.26455	0.52605	0.26262	0.10625	0.13531	-0.29167	-0.13958	-1.0271	-0.73542	-0.62292	-0.94375	-0.45417	-0.93333	-0.90625	-0.22917	-1.2333	-0.475	-0.51458	-1.25	-0.2375	-1.0063	219.677	205.636	112.133	239.883	181.977	106.298	223.179	160.850	200.729	-49.782	184.573	173.502	205.408	227.016	124.300	118.236	0.00053617	0.00089536	0.0004709	1168.7	1.5012e-05	1.0116e-05	1571.2	420.35	5.8467e-06	9.0093e-06	629.44	219.39	131.71	61.303	1.2672e-05	109.3	0.001444	0.0014826	0.00041333	1086.5	1.6321e-05	1.6308e-05	1432.4	394.06	1.6459e-05	1.6497e-05	585.92	203.2	127.87	57.453	1.6671e-05	99.143	177.018	30.943	55.110	-82.966	84.344	41.243	-83.876	-79.034	84.915	-0.588	-79.698	-76.155	-74.265	-69.604	-55.893	-71.698	-8191	255	
1560.933	1	1	0	0	0.29787	0.24137	0.12446	0.26997	0.04921	0.04076	0.052229	0.16377	0.076851	0.14419	0.037541	0.21665	0.25489	0.16588	0.12445	0.50606	-0.49375	-0.2	-1.0229	-0.62917	-0.52917	-1.0708	-0.52083	-1.0667	-0.97292	-0.32083	-1.1417	-0.42708	-0.46667	-1.225	-0.33333	-1.075	-59.808	67.671	155.467	233.563	-67.450	126.272	132.693	178.998	-77.738	-5.291	117.695	256.801	168.523	228.248	129.520	191.162	0.00037174	0.0012458	0.00015411	1168.1	5.9232e-06	1.5298e-05	1578.4	424.03	1.5947e-05	1.3064e-06	631.27	218.72	134.57	61.511	1.3211e-05	110.49	0.0014668	0.001506	0.00041925	1088	1.6455e-05	1.6428e-05	1436.7	394.97	1.6469e-05	1.6473e-05	586.26	203.54	128.45	57.677	1.6496e-05	99.885	188.000	29.363	-64.740	-83.093	-43.574	-83.448	-83.860	-79.440	32.301	-39.376	-79.776	-76.356	-74.721	-69.364	-44.354	-71.811	-8191	255	
1561.029	1	1	0	0	0.12557	0.20062	0.37273	0.20169	0.20366	0.097159	0.31465	0.092025	0.31365	0.18354	0.25135	0.11523	0.18808	0.040385	0.11213	0.14164	-0.58958	-0.21875	-0.95625	-0.8625	-0.31875	-0.88333	-0.67917	-0.72083	-0.8875	-0.16667	-0.95833	-0.79167	-0.33958	-1.3104	-0.34375	-0.875	153.149	165.055	201.311	-78.335	178.257	230.994	230.526	106.753	-68.194	172.627	213.335	125.015	243.272	112.106	195.260	140.154	0.00025291	0.0014701	0.0001444	1169.2	7.4595e-06	4.1992e-06	1575.4	424.25	1.3635e-05	9.2501e-06	634.4	220.42	133.67	61.303	6.7247e-06	110.41	0.0014684	0.0014928	0.00041372	1089.1	1.6257e-05	1.6144e-05	1436.5	395.48	1.5994e-05	1.609e-05	585.35	203.31	127.84	57.418	1.602e-05	99.544	235.409	28.909	-10.552	-83.269	-75.992	159.824	-83.935	-79.139	83.694	-5.900	-80.035	-76.406	-74.605	-69.552	125.705	-71.962	-8191	255	
1561.125	1	1	0	0	0.12228	0.237	0.19806	0.077206	0.049767	0.064653	0.063408	0.48806	0.26397	0.20882	0.22759	0.42328	0.20961	0.095215	0.15043	0.081382	-0.79583	-0.1375	-0.77292	-0.81458	-0.14375	-1.0167	-0.55	-0.78333	-1.0021	-0.35625	-0.9875	-1.0021	-0.50208	-1.2167	-0.175	-0.75833	34.139	134.334	-77.568	56.407	133.988	80.639	148.324	187.041	202.555	158.430	215.273	140.900	76.780	160.777	210.793	145.291	0.00034324	0.0028252	0.00015921	1174	4.7138e-06	9.8853e-06	1575.7	427.54	4.6645e-06	5.9262e-06	631.25	219.93	134.17	61.339	7.7389e-06	109.48	0.0014067	0.0014383	0.00040369	1091.1	1.5738e-05	1.5575e-05	1434.2	395.5	1.5518e-05	1.5637e-05	583.7	202.61	127.35	56.993	1.5365e-05	98.705	208.400	1.548	-30.318	-83.238	225.579	13.957	-84.202	-79.098	123.439	261.400	-79.806	-76.575	-75.054	-69.482	44.086	-71.640	-8191	255	
1561.244	1	1	0	0	0.15314	0.3705	0.31563	0.31021	0.051857	0.087415	0.1913	0.20474	0.15733	0.15933	0.083217	0.15226	0.34624	0.082175	0.11953	0.056962	-0.83333	-0.041667	-1.0521	-0.95417	-0.20625	-1.0312	-0.72083	-0.46042	-1.1208	-0.25208	-0.875	-1.1938	-0.22292	-1.3458	-0.41667	-0.50833	206.015	235.715	33.735	207.680	-58.692	-71.993	151.441	162.853	196.191	-12.276	-20.482	155.769	-88.943	243.993	217.918	-15.878	0.00019951	0.0017374	0.00056587	1177.2	4.1636e-06	9.0205e-06	1582.3	424.74	1.3122e-05	4.0228e-06	634.81	220.05	132.83	61.219	8.2449e-06	108.96	0.0013582	0.0013906	0.00038794	1089.4	1.5103e-05	1.513e-05	1434.7	394.56	1.507e-05	1.5183e-05	583.59	202.54	126.53	56.851	1.5278e-05	98.587	152.860	86.188	-21.059	-83.152	139.846	13.143	-83.964	-79.210	46.329	72.153	-80.170	-75.953	-74.751	-69.542	15.418	-71.655	-8191	255	
1561.340	1	1	0	0	0.10848	0.25771	0.061886	0.19566	0.05403	0.19535	0.14136	0.31265	0.201	0.2107	0.027097	0.20837	0.15684	0.27523	0.055888	0.3014	-0.73542	-0.27708	-0.52917	-1.0646	-0.1375	-1.0312	-0.87083	-0.26042	-1.0792	-0.16042	-0.7875	-0.98125	-0.25208	-1.0458	-0.68542	-0.50417	174.963	-53.380	-62.600	181.477	-42.260	169.019	163.574	190.573	227.710	17.726	254.113	207.548	252.620	-69.324	40.273	-12.799	0.00033384	0.001209	0.00026411	1179.4	9.7994e-06	7.0176e-06	1581.8	424.47	1.0691e-05	4.5992e-06	636.57	219.97	133.86	61.015	1.5966e-05	109.37	0.0013424	0.0013771	0.00038687	1085.9	1.4994e-05	1.511e-05	1433.6	394.15	1.4995e-05	1.5373e-05	585.15	202.43	127.07	56.742	1.5075e-05	98.594	197.298	-44.476	258.985	-83.374	108.013	141.754	-84.193	-79.483	103.852	41.230	-79.648	-76.194	-75.003	-69.433	8.103	-71.768	-8191	255	
1561.412	1	1	0	0	0.042422	0.24486	0.15574	0.33354	0.081945	0.16444	0.14526	0.12391	0.084211	0.13015	0.039915	0.28882	0.2137	0.47349	0.15807	0.152	-0.90417	-0.30833	-0.32292	-1.25	-0.16042	-0.90208	-1	-0.33125	-1.125	-0.39792	-0.65625	-1.2042	-0.3	-0.86667	-0.85208	-0.49167	-87.876	-24.169	197.054	213.686	195.793	187.096	143.660	186.501	-61.278	260.274	252.623	-47.618	130.197	-90.431	117.042	179.470	0.00023497	0.0011278	0.00051487	1179.1	1.2656e-05	1.6809e-05	1587.6	427.23	1.381e-05	1.0829e-05	637.48	220.42	133.26	61.004	9.5769e-06	109.64	0.0013549	0.0013898	0.00038473	1089	1.5141e-05	1.5295e-05	1435.5	394.49	1.5062e-05	1.5163e-05	585.03	202.86	126.79	56.923	1.5235e-05	98.598	203.679	20.386	-71.237	-83.197	138.037	82.319	-84.227	-79.713	61.360	36.852	-79.914	-76.278	-75.018	-69.795	-8.740	-71.911	-8191	255	
1561.508	1	1	0	0	0.25366	0.13663	0.18769	0.31774	0.25785	0.15694	0.14444	0.064607	0.25555	0.26394	0.26064	0.45591	0.19187	0.12996	0.17736	0.039566	-0.56667	-0.4	-0.56667	-1.2792	-0.039583	-0.94167	-1.2354	-0.23542	-1.0187	-0.67708	-0.5875	-1.3125	-0.44583	-0.7375	-0.92083	-0.34792	135.685	105.854	256.333	220.914	-29.206	165.983	199.992	229.608	213.308	-78.550	241.086	197.863	-9.287	241.424	98.329	210.073	0.00040939	0.00048297	5.2078e-05	1187.7	6.3974e-06	7.1259e-06	1578.8	422.32	8.7162e-06	1.4397e-05	629.22	219.58	132.8	61.103	3.2476e-06	108.64	0.0013506	0.0013821	0.00038003	1090.7	1.4951e-05	1.519e-05	1432.3	392.31	1.5028e-05	1.5143e-05	580.27	201.47	126.01	56.424	1.5077e-05	97.358	174.769	174.743	36.630	-83.467	97.867	-25.910	-84.200	-79.190	65.678	3.583	-79.990	-76.344	-75.390	-69.324	176.962	-71.803	-8191	255	
1561.628	1	1	0	0	0.11607	0.31801	0.09662	0.18096	0.068585	0.22715	0.28022	0.24557	0.04056	0.2168	0.055152	0.1499	0.10319	0.25783	0.16428	0.36456	-0.5375	-0.51667	-0.23542	-1.3417	-0.39583	-0.6125	-1.2313	-0.27708	-0.99792	-0.7125	-0.37917	-1.3604	-0.3875	-0.70833	-1.3292	-0.35625	131.885	-26.816	-12.677	-94.199	228.162	-72.778	240.156	219.216	195.950	116.194	36.281	-11.700	214.940	235.044	-5.283	177.653	0.0004069	0.0019594	0.00014001	1179.1	1.1633e-05	1.4589e-05	1578.5	424.21	8.5229e-06	8.8194e-06	629.34	218.77	132.29	60.913	4.0636e-06	108.44	0.0013533	0.0013803	0.000384	1085.4	1.4991e-05	1.5443e-05	1431.1	392.42	1.5451e-05	1.5607e-05	581.03	201.34	126.42	56.673	1.5526e-05	97.82	201.705	-49.539	-20.506	-83.267	139.039	73.988	-83.933	-79.244	200.746	57.559	-79.788	-76.201	-75.039	-69.555	-62.536	-72.006	-8191	255	
1561.725	1	1	0	0	0.16421	0.073377	0.13329	0.18783	0.23123	0.25773	0.22462	0.17427	0.40407	0.23518	0.063359	0.24306	0.22215	0.11076	0.25145	0.22167	-0.35	-0.75833	-0.30208	-1.1625	-0.47292	-0.525	-1.2854	-0.30417	-0.75625	-0.78333	-0.21667	-1.2458	-0.68958	-0.425	-1.1021	-0.57083	50.887	29.523	158.022	204.646	29.503	196.116	202.380	162.392	255.461	74.497	8.627	260.920	233.069	184.095	111.595	181.047	0.00041115	0.001394	0.00048853	1174.3	8.9089e-06	2.2019e-05	1566.3	423.81	1.1573e-05	1.0805e-05	628.69	218.28	132.94	61.092	1.2836e-05	109.59	0.0014051	0.0014353	0.00039444	1085.4	1.5724e-05	1.5702e-05	1429.5	393.45	1.5914e-05	1.5933e-05	581.49	201.97	127.15	57.043	1.5845e-05	99.023	176.900	54.229	7.429	-83.317	81.260	49.138	-83.766	-79.178	140.045	65.212	-80.266	-76.403	-75.008	-69.661	41.957	-72.127	-8191	255	
1561.821	1	1	0	0	0.16849	0.15976	0.17338	0.39877	0.40247	0.092566	0.29787	0.28441	0.15872	0.19522	0.02891	0.16385	0.15859	0.25819	0.2822	0.0691	-0.26042	-1.0063	-0.40833	-1.1125	-0.47083	-0.4125	-1.4229	-0.42708	-0.63542	-1.0542	-0.325	-1.0604	-0.67917	-0.39792	-1.1396	-0.54375	-47.937	112.693	135.283	177.721	139.742	21.965	220.405	222.108	196.761	89.504	94.129	-49.182	225.969	-90.479	223.919	230.731	0.00043706	0.0013662	0.00014815	1177.3	1.5526e-05	1.3299e-05	1570.4	419.03	1.6093e-05	3.4048e-06	632.9	220.93	132.79	61.162	1.1464e-05	109.13	0.0014293	0.0014487	0.00040693	1089.1	1.6018e-05	1.5971e-05	1432.6	391.46	1.5866e-05	1.582e-05	583.52	203.13	126.83	57.008	1.5747e-05	99.067	182.665	18.739	143.114	-83.483	17.775	69.440	-84.046	-79.213	42.705	194.959	-80.131	-76.228	-75.184	-69.823	70.614	-71.985	-8191	255	
1561.917	1	1	0	0	0.11143	0.02845	0.17318	0.20329	0.065543	0.20033	0.035287	0.11095	0.22592	0.12006	0.24295	0.060045	0.11097	0.24749	0.14139	0.20736	-0.25208	-1.0625	-0.32917	-1.1896	-0.77292	-0.27292	-1.0708	-0.50208	-0.33333	-1.0771	-0.27292	-1.075	-1.0625	-0.083333	-1.2625	-0.5125	30.095	-33.505	260.561	230.995	122.704	171.646	206.655	260.422	72.916	113.795	219.022	236.134	141.439	236.298	195.234	157.617	0.00046065	0.0015987	0.00014526	1168.4	3.2943e-06	1.8021e-05	1572.4	422.39	1.7099e-05	6.8059e-06	630.71	218.65	133.79	60.92	6.6967e-06	109.35	0.0014044	0.0014367	0.0004035	1085.4	1.5756e-05	1.5745e-05	1433.1	392.19	1.5768e-05	1.5751e-05	581.78	202.14	126.83	56.828	1.5724e-05	98.734	144.877	63.675	176.166	-83.376	8.906	-64.160	-84.126	-79.499	15.020	-58.495	-80.124	-76.008	-75.103	-69.584	219.594	-71.754	-8191	255	
1562.013	1	1	0	0	0.18241	0.14846	0.17911	0.076976	0.40362	0.19697	0.35791	0.39739	0.059551	0.12598	0.32015	0.26573	0.32639	0.11976	0.18495	0.22279	-0.0125	-0.98958	-0.1	-0.9875	-0.90208	-0.11667	-1.3917	-0.60208	-0.44583	-1.1938	-0.36458	-0.82292	-0.90417	-0.29792	-0.96458	-0.74792	52.611	-60.708	-83.048	116.647	79.670	47.346	181.765	202.308	62.350	12.653	215.029	249.995	226.825	242.690	72.131	185.373	0.00032053	0.00099078	5.5437e-05	1172.8	9.9875e-06	1.0535e-05	1575.9	419.89	9.5053e-06	9.7662e-06	628.28	218.86	132.11	61.007	1.9691e-05	109.01	0.0013842	0.0014165	0.00039335	1085	1.5388e-05	1.5403e-05	1430.1	391.06	1.5243e-05	1.5293e-05	579.9	201.63	126.36	56.666	1.533e-05	98.528	162.925	6.932	94.816	-83.087	51.190	-36.514	-83.922	-79.745	-76.882	3.168	-80.596	-76.147	-74.642	-69.505	27.748	-71.841	-8191	255	
1562.109	1	1	0	0	0.14963	0.2129	0.38513	0.088499	0.1952	0.14171	0.19811	0.27676	0.14147	0.31034	0.050661	0.32665	0.13194	0.278	0.22415	0.2873	-0.16667	-0.98125	-0.26667	-0.89375	-1.1021	-0.26042	-1.2417	-0.75833	-0.42917	-1.1479	-0.35208	-0.60833	-1.075	-0.3875	-0.75417	-1.1812	114.431	22.393	148.478	191.223	11.413	-26.187	241.947	216.208	129.190	-77.914	97.253	249.402	-46.458	224.126	-80.631	234.047	0.00043568	0.0025343	0.00030669	1179.2	4.7393e-06	1.551e-05	1575.6	422.95	8.8072e-06	9.105e-06	633.14	220.32	132.98	61.318	8.0775e-06	109.93	0.0013535	0.0013912	0.00038363	1086.2	1.4999e-05	1.512e-05	1430.8	392.28	1.4888e-05	1.4907e-05	580.6	202.22	125.95	56.628	1.5091e-05	98.567	220.532	21.518	164.377	-82.997	64.966	174.374	-83.798	-79.326	-65.540	-83.971	-80.312	-76.114	-75.093	-69.560	222.388	-72.040	-8191	255	
1562.205	1	1	0	0	0.14783	0.10501	0.097936	0.072139	0.04481	0.075966	0.27859	0.28083	0.050648	0.23854	0.1319	0.55692	0.098371	0.22503	0.39084	0.14501	0.089583	-1.3521	-0.32292	-0.81667	-0.92708	-0.29583	-0.93542	-0.82708	-0.23542	-0.96458	-0.40625	-0.73125	-1.1437	-0.38958	-0.85833	-1.1	119.035	164.142	-47.443	-80.690	-57.315	-89.918	253.863	204.516	-35.412	77.983	253.070	221.567	115.808	202.449	9.469	-72.870	0.00029842	0.0013451	0.00038477	1182.5	9.6004e-06	1.703e-05	1578.3	420.78	1.3969e-05	2.1306e-05	629.44	220.27	132.98	60.941	1.2696e-05	109.29	0.0013299	0.0013684	0.00037958	1087.4	1.4904e-05	1.4907e-05	1436.9	391.65	1.4789e-05	1.4965e-05	582.03	202.29	126.29	56.411	1.5007e-05	98.355	212.005	152.106	74.688	-83.134	70.788	120.657	-83.857	-79.474	61.084	73.199	-80.231	-76.246	-74.997	-69.829	21.643	-71.852	-8191	255	
1562.324	1	1	0	0	0.28835	0.23334	0.034028	0.33721	0.054731	0.18824	0.13709	0.10245	0.089594	0.19518	0.093643	0.21931	0.091994	0.23998	0.15632	0.10188	0.24583	-1.2	-0.62708	-0.64792	-1.1604	-0.5	-0.99167	-1.075	-0.18958	-1.2875	-0.82292	-0.50833	-1.0729	-0.21667	-0.72292	-1.1042	-49.212	24.940	-60.995	242.567	206.336	-22.829	203.295	204.457	145.850	222.449	198.925	196.207	108.366	207.399	-75.440	80.002	0.00038725	0.0015053	0.00038896	1179.7	6.6759e-06	8.4714e-06	1585.4	423.33	1.5852e-05	8.2572e-06	631.15	218.62	131.86	60.824	1.1488e-05	108.21	0.001318	0.0013531	0.00037764	1084.2	1.4573e-05	1.4696e-05	1435.6	391.2	1.4713e-05	1.4945e-05	579.34	201.02	125.46	56.154	1.4923e-05	97.474	157.432	13.006	-74.948	-83.194	-90.022	61.600	-84.251	-79.428	-72.426	109.212	-80.247	-76.051	-74.637	-69.288	-21.990	-71.780	-8191	255	
1562.420	1	1	0	0	0.25271	0.18148	0.17408	0.28385	0.31797	0.1006	0.2314	0.33726	0.12774	0.13565	0.16603	0.12825	0.10718	0.22008	0.089743	0.11648	0.15833	-1.0667	-0.66667	-0.54792	-1.0708	-0.31667	-0.69167	-1.0875	-0.20208	-1.0167	-0.94167	-0.46458	-1.0708	-0.22917	-0.55208	-1.3479	86.656	124.299	118.632	198.878	178.208	-51.133	166.431	214.259	259.452	148.405	204.841	214.048	-26.606	245.010	-75.416	162.088	0.00020452	0.00057143	0.00034627	1171.2	4.4248e-06	1.5313e-05	1568.5	420.95	2.7787e-06	6.584e-06	632.33	219.3	132.86	60.304	2.0101e-05	107.67	0.0013097	0.0013507	0.00037428	1079.4	1.4706e-05	1.4692e-05	1424.9	389.54	1.4512e-05	1.4663e-05	578.18	200.42	125.13	55.715	1.4725e-05	96.908	188.092	15.633	60.406	-83.041	-56.792	135.149	-83.676	-79.293	140.509	74.044	-80.218	-75.936	-74.827	-69.402	62.244	-71.785	-8191	255	
1562.516	1	1	0	0	0.22509	0.19245	0.081143	0.24123	0.062505	0.17819	0.48705	0.11575	0.0067777	0.10425	0.25174	0.075966	0.12827	0.1776	0.26978	0.26824	0.26875	-0.93542	-0.71875	-0.36875	-1.1167	-0.5625	-0.71458	-1.1042	-0.11875	-0.9625	-0.96042	-0.33333	-1.2833	-0.56875	-0.2125	-1.2354	187.350	13.380	62.682	-76.809	-78.766	179.713	139.738	-23.478	86.185	-31.577	260.325	233.108	-56.732	-55.408	-89.205	208.383	0.00038221	0.00056566	0.00015336	1170.9	1.1175e-05	4.4717e-06	1578.9	419.66	5.7087e-06	7.3096e-06	631.08	218.59	131.72	60.088	1.4296e-05	107.37	0.0012942	0.0013385	0.00037171	1078.4	1.4568e-05	1.4813e-05	1428.2	388.69	1.4641e-05	1.4842e-05	577.5	200.51	125.07	55.822	1.4843e-05	97.25	178.901	61.231	95.940	-83.146	74.560	103.510	-83.668	-79.081	209.986	59.707	-80.118	-76.130	-74.987	-69.521	38.010	-71.691	-8191	255	
1562.637	1	1	0	0	0.21195	0.26719	0.096896	0.15343	0.27223	0.081017	0.20365	0.1758	0.072382	0.25221	0.12204	0.17483	0.12505	0.23412	0.27112	0.20076	0.027083	-0.73125	-0.88958	-0.32083	-1.1979	-0.67292	-0.31042	-1.175	-0.35208	-0.81667	-1.2229	-0.35	-1.2417	-0.75	-0.16875	-1.3021	29.741	219.113	238.554	-82.750	-14.878	-35.738	180.317	216.419	9.267	-80.359	-53.551	201.731	-24.114	216.538	112.020	150.292	0.00039084	0.0022194	0.00024065	1173.2	1.1375e-05	6.1639e-06	1570.6	421.63	1.2561e-05	1.8437e-05	632.87	217.35	131.89	60.611	7.7363e-06	108.34	0.0013187	0.0013631	0.00037347	1080.2	1.49e-05	1.4935e-05	1426	389.67	1.4879e-05	1.4912e-05	578.95	200.24	125.17	56.057	1.4874e-05	97.753	228.045	-36.393	104.506	-83.010	-47.631	17.515	-83.824	-79.194	23.627	-38.605	-80.266	-75.985	-74.578	-69.800	-24.473	-71.821	-8191	255	
1562.709	1	1	0	0	0.063606	0.085604	0.1572	0.12459	0.43116	0.29478	0.28685	0.12704	0.15264	0.16192	0.19688	0.28479	0.20011	0.071418	0.14376	0.16464	-0.05625	-0.43125	-0.93958	-0.49583	-0.9	-0.975	-0.32292	-1.2875	-0.51667	-0.63333	-1.1146	-0.2375	-1.0812	-0.97292	-0.39167	-1.3937	126.539	168.828	23.076	84.976	155.433	214.430	254.542	-96.259	63.817	200.568	138.175	-88.802	183.326	219.601	-50.355	188.589	0.00043839	0.00052518	0.00050351	1169.9	4.2004e-06	8.4207e-06	1576.4	422.65	1.1723e-05	8.0844e-06	629.03	217.22	132.16	60.199	5.7445e-06	108.21	0.0013143	0.0013408	0.0003736	1079.5	1.489e-05	1.4803e-05	1427.3	389.18	1.4881e-05	1.4915e-05	577.63	200.17	125.17	55.964	1.4857e-05	97.561	181.260	152.345	2.788	-83.090	144.966	96.763	-83.919	-79.269	20.914	46.989	-80.300	-76.042	-74.952	-69.178	80.724	-71.646	-8191	255	
1562.805	1	1	0	0	0.07756	0.25999	0.076184	0.14663	0.060919	0.19626	0.26881	0.24878	0.18588	0.38368	0.16918	0.15695	0.22763	0.23674	0.14699	0.32541	-0.19583	-0.57292	-1.2271	-0.29583	-0.87917	-0.80625	-0.33958	-1.2062	-0.68333	-0.33333	-1.2958	-0.35625	-0.8625	-0.96875	-0.03125	-1.25	-82.519	10.791	125.145	130.984	-17.822	160.802	176.494	-8.399	40.286	80.407	-54.723	242.415	239.998	-75.395	5.575	172.902	0.00038097	0.00073554	0.00029948	1175.9	3.3968e-06	1.1095e-05	1571.4	418.34	1.8743e-05	1.0208e-05	626.61	217.03	131.48	60.427	9.0158e-06	108.25	0.0013429	0.0013605	0.00038002	1080.9	1.494e-05	1.4885e-05	1424.5	388.82	1.4927e-05	1.4988e-05	575.27	199.89	124.97	56.022	1.5056e-05	97.618	205.263	4.852	41.184	-83.278	106.135	33.242	-83.816	-79.090	42.185	-2.422	-79.717	-76.130	-74.559	-69.738	-57.605	-71.525	-8191	255	
1562.926	1	1	0	0	0.082178	0.052378	0.12659	0.27689	0.11315	0.13895	0.34396	0.38858	0.16285	0.16111	0.024795	0.21147	0.15658	0.17949	0.15807	0.16894	-0.20417	-0.26875	-1.0979	-0.45833	-0.85625	-0.88125	-0.40625	-0.99583	-0.65625	-0.24792	-1.1104	-0.45208	-0.54583	-1.0958	-0.15	-1.0438	22.131	-85.315	62.904	183.702	-83.061	-60.150	193.222	211.475	183.010	-56.602	220.381	193.605	-89.043	-72.936	-6.297	217.443	0.00032121	0.0016952	0.0005387	1168.9	2.4041e-05	8.3302e-06	1571.6	418.83	1.2726e-05	1.2436e-05	632.04	216.85	132.11	60.807	8.2125e-06	108.44	0.0013504	0.0013717	0.00038155	1079.3	1.5015e-05	1.5001e-05	1425.3	389	1.4955e-05	1.499e-05	577.27	199.79	125.16	56.079	1.4777e-05	97.753	185.177	-34.440	-19.626	-83.221	31.205	7.462	-83.547	-79.442	108.283	-27.329	-79.780	-76.041	-74.773	-69.377	160.806	-71.697	-8191	255	
1563.020	1	1	0	0	0.28404	0.087406	0.12577	0.58104	0.16199	0.052871	0.49223	0.22905	0.11098	0.21835	0.16829	0.22654	0.24501	0.27541	0.19485	0.010683	-0.39792	-0.2625	-1	-0.72708	-0.67708	-1.1917	-0.38958	-0.98125	-0.97708	-0.13542	-1.3375	-0.61458	-0.75417	-1.2375	-0.40833	-0.9625	52.598	165.846	131.066	222.620	35.074	-86.407	180.775	166.903	161.538	-36.212	246.019	128.846	166.550	248.152	4.952	-12.199	0.00034211	0.0013351	0.00046948	1167.4	7.8073e-06	1.6723e-05	1582.5	420.19	1.1669e-05	1.2707e-05	628.92	218.31	131.58	60.579	9.7686e-06	109.03	0.0013256	0.0013407	0.00037862	1077.5	1.4979e-05	1.4737e-05	1429	388.91	1.4776e-05	1.4803e-05	578.73	200.44	124.98	55.917	1.4694e-05	97.82	156.089	-29.515	237.529	-83.119	-1.674	72.480	-83.387	-79.258	17.948	91.820	-79.907	-75.885	-74.589	-69.200	29.877	-71.153	-8191	255	
1563.116	1	1	0	0	0.037051	0.23296	0.13377	0.30449	0.16763	0.33374	0.11454	0.19853	0.16865	0.15443	0.0095716	0.20737	0.061629	0.092942	0.18536	0.1814	-0.73333	-0.10208	-1.075	-0.71042	-0.4625	-1.1125	-0.35625	-0.8625	-0.95	-0.20417	-1.0896	-0.65625	-0.48542	-1.0562	-0.33333	-0.80208	-11.112	252.212	138.184	174.692	-83.000	111.269	135.044	188.064	45.840	187.819	34.787	247.583	75.848	-96.197	49.553	170.765	0.00042524	0.00084676	0.00023938	1179.8	1.7193e-05	5.6413e-06	1580.1	421.97	8.2513e-06	3.8695e-06	627.13	217.28	131.07	59.953	9.2247e-06	108.04	0.0013039	0.0013269	0.00036572	1080.7	1.4448e-05	1.4502e-05	1426.4	389.04	1.4391e-05	1.4322e-05	575.14	199.55	123.92	55.3	1.4419e-05	96.946	193.347	-20.187	162.674	-82.992	18.375	93.853	-83.381	-78.943	-13.674	25.094	-79.782	-76.004	-74.574	-69.083	16.829	-71.253	-8191	255	
1563.212	1	1	0	0	0.078252	0.29172	0.31767	0.20643	0.18829	0.3004	0.26409	0.045987	0.028884	0.43497	0.35404	0.22232	0.3276	0.35513	0.17897	0.3533	-0.5625	-0.23333	-0.98958	-0.80833	-0.37708	-1.05	-0.61458	-0.64792	-1.0938	-0.32292	-1.1625	-0.96042	-0.53542	-1.3062	-0.39375	-0.53542	253.194	190.508	48.318	258.536	-43.209	25.994	191.173	256.831	126.501	158.482	250.276	226.797	150.030	191.240	19.211	168.447	0.00024713	0.0024573	0.0005161	1178.4	6.0526e-06	1.6635e-05	1575	413.56	5.1204e-06	9.7601e-06	629.97	215.21	130.34	59.466	5.0729e-06	106.34	0.0012782	0.0013069	0.0003673	1079.3	1.4223e-05	1.4298e-05	1420.3	384.76	1.4086e-05	1.4263e-05	571.92	197.27	123.22	54.999	1.4199e-05	95.81	230.133	78.675	-54.809	-82.770	86.348	39.533	-83.487	-79.081	22.973	102.293	-79.554	-75.578	-74.728	-69.499	64.750	-71.152	-8191	255	
1563.308	1	1	0	0	0.1304	0.29886	0.19025	0.20469	0.056696	0.16466	0.28079	0.1111	0.22458	0.14712	0.31449	0.38009	0.073792	0.13387	0.15434	0.43425	-0.76458	-0.27708	-0.82083	-1.1625	-0.20208	-1.1292	-0.71875	-0.66875	-1.0292	-0.40833	-0.85417	-0.9875	-0.32917	-1.1333	-0.55208	-0.57292	184.823	169.736	-89.123	208.452	193.524	46.778	202.766	173.970	242.661	-16.615	175.675	174.369	209.502	-63.303	63.081	224.309	0.00049574	0.00074279	0.00042297	1170.6	8.0318e-06	8.2462e-06	1571.3	415.15	1.7742e-05	8.8319e-06	625.47	215.6	130.47	59.497	1.3969e-05	107.28	0.001257	0.0012939	0.00036752	1077	1.4078e-05	1.4102e-05	1417.9	384.58	1.4189e-05	1.4288e-05	571.82	197.48	123.56	55.048	1.4458e-05	96.163	188.877	64.322	-16.509	-82.840	33.716	15.288	-83.313	-78.981	61.779	26.178	-80.173	-76.018	-74.670	-69.215	89.900	-71.515	-8191	255	
1563.405	1	1	0	0	0.16414	0.25832	0.11206	0.071014	0.29603	0.18478	0.6106	0.19381	0.12552	0.36824	0.10141	0.43828	0.21174	0.10396	0.17011	0.15501	-0.7625	-0.31875	-0.86042	-1.1833	-0.32083	-0.98958	-0.72917	-0.53125	-1.1979	-0.35625	-0.81875	-1.2833	-0.47917	-1.2396	-0.68125	-0.49792	-72.322	-42.979	-32.185	189.488	218.983	246.025	201.098	-72.475	152.532	-97.162	-89.252	190.080	142.246	-78.302	15.898	-80.302	0.0001938	0.00085767	0.00023241	1174.3	1.4411e-05	1.4132e-05	1561.7	417.39	1.4546e-05	4.2813e-06	625.91	216.21	130.71	60.513	6.4825e-06	107.93	0.0012678	0.0013164	0.00036404	1077.6	1.4459e-05	1.4524e-05	1418.5	385.8	1.459e-05	1.4732e-05	576.66	199.02	124.34	55.83	1.503e-05	97.428	207.643	-93.551	255.518	-83.122	-55.386	-14.182	-83.640	-79.426	44.388	-46.463	-79.917	-76.327	-74.889	-69.700	109.461	-71.853	-8191	255	
1563.501	1	1	0	0	0.11502	0.16755	0.25265	0.3976	0.25156	0.16931	0.05148	0.091527	0.30963	0.28571	0.18599	0.46506	0.43496	0.19104	0.22473	0.22832	-0.75417	-0.20625	-0.5125	-1.025	-0.1	-0.925	-0.97917	-0.24375	-1.0625	-0.39583	-0.66875	-1.2271	-0.14375	-1.0354	-0.89167	-0.34167	130.994	76.156	110.719	188.986	72.382	-72.710	182.852	6.095	220.562	-41.038	-80.289	202.392	-88.346	240.946	210.231	249.189	0.00046839	0.0014252	0.00053943	1166	5.2501e-06	1.3654e-05	1567.5	418.4	8.8485e-06	7.2806e-06	629.12	217.7	130.76	60.456	8.0747e-06	108.73	0.0013337	0.0013604	0.0003821	1076	1.4745e-05	1.5008e-05	1422.7	387.2	1.4921e-05	1.5103e-05	577.46	200.47	124.5	56.198	1.5319e-05	98.025	168.096	-95.407	-39.326	-82.872	21.184	70.738	-83.641	-79.075	110.427	49.590	-79.823	-75.780	-74.603	-69.290	181.018	-71.533	-8191	255	
1563.597	1	1	0	0	0.14412	0.011504	0.2075	0.12049	0.41298	0.17711	0.082511	0.25367	0.095953	0.12272	0.49243	0.15062	0.30459	0.2669	0.16051	0.11532	-0.73333	-0.32917	-0.42917	-1.1833	-0.32708	-0.76875	-1.1583	-0.16042	-1.0146	-0.53958	-0.60833	-1.2396	-0.30833	-0.85	-0.91042	-0.26875	154.794	239.804	40.813	-19.061	59.210	65.561	204.578	219.556	116.760	190.657	239.727	-71.326	246.167	-45.802	6.875	243.502	0.00058431	0.0018818	0.00031906	1161	2.2471e-05	2.9696e-05	1561.7	417.57	5.3432e-06	1.2532e-05	625.75	216.31	130.83	60.643	4.0184e-06	108.77	0.0013684	0.0014047	0.00038774	1072.6	1.5239e-05	1.5421e-05	1416.7	386.46	1.5453e-05	1.5553e-05	575.24	199.86	124.7	56.407	1.5514e-05	98.016	200.244	-35.253	-20.657	-82.873	27.340	56.141	-83.824	-78.910	21.380	16.700	-79.651	-75.771	-74.808	-68.948	-31.109	-71.382	-8191	255	
1563.717	1	1	0	0	0.197	0.13215	0.16381	0.11156	0.057784	0.12844	0.048945	0.27201	0.13267	0.17312	0.20088	0.40198	0.28909	0.15592	0.12349	0.38716	-0.55625	-0.45833	-0.2625	-1.4104	-0.44167	-0.67917	-1.1229	-0.40417	-0.94375	-0.5625	-0.34167	-1.2542	-0.3625	-0.67292	-0.98958	-0.37917	11.624	68.117	-44.907	125.996	-10.462	189.219	216.296	217.504	14.935	-4.065	167.811	-71.730	175.978	104.783	226.722	242.037	0.00050595	0.001108	0.00038692	1152.1	7.233e-06	1.3203e-05	1560.2	416	1.1696e-05	2.0375e-05	625.13	216.38	130.54	60.902	5.5527e-06	108.94	0.0013963	0.0014199	0.00039677	1068.1	1.575e-05	1.5976e-05	1416.4	386.43	1.5854e-05	1.5854e-05	578.09	200.55	125.06	56.672	1.5822e-05	98.654	209.767	25.897	-72.029	-82.634	239.766	10.484	-83.517	-79.161	106.228	61.675	-79.704	-76.004	-74.587	-69.144	-46.352	-71.537	-8191	255	
#DATA ENDS
