BOXY.EXE: ISS Imagent and Oximeter Data Acquisition Program Version 0.80
Ascii Record File

#ACQ INFORMATION
2  Detector Channels 
16  External MUX Channels 
1  Auxiliary Channels 
5000  Waveform (CCF) Frequency (Hz)
1  Waveforms Skipped 
30  Waveforms Averaged 
1  Cycles Averaged 
16  Acquisitions per Waveform 
10.0806  Updata Rate (Hz) 

#FILE INFORMATION
TRUE -- External MUX Channel results are PARSED.
FALSE -- AC DC and Phase are NOT grouped.
TRUE -- Companion Program Settings File CREATED.
FALSE -- AC data not excluded
FALSE -- DC data not excluded
FALSE -- Phase data not excluded
FALSE -- Auxillary Chn. data not excluded
Tab delimiters

#CALIBRATION STATE
TRUE -- Waveform Calibration Values APPLIED.


#AUX CALIBRATION VALUES
Val Type	aux-1	

Term	1.0000e+00	
Factor	0.0000e+00	


#WF CALIBRATION VALUES
A = Detector Channel
Val Type	A-AC1	A-AC2	A-AC3	A-AC4	A-AC5	A-AC6	A-AC7	A-AC8	A-AC9	A-AC10	A-AC11	A-AC12	A-AC13	A-AC14	A-AC15	A-AC16	A-DC1	A-DC2	A-DC3	A-DC4	A-DC5	A-DC6	A-DC7	A-DC8	A-DC9	A-DC10	A-DC11	A-DC12	A-DC13	A-DC14	A-DC15	A-DC16	A-Ph1	A-Ph2	A-Ph3	A-Ph4	A-Ph5	A-Ph6	A-Ph7	A-Ph8	A-Ph9	A-Ph10	A-Ph11	A-Ph12	A-Ph13	A-Ph14	A-Ph15	A-Ph16	

Term	0.00000e+00	0.00000e+00	0.00000e+00	0.00000e+00	0.00000e+00	0.00000e+00	0.00000e+00	0.00000e+00	0.00000e+00	0.00000e+00	0.00000e+00	0.00000e+00	0.00000e+00	0.00000e+00	0.00000e+00	0.00000e+00	0.00000e+00	0.00000e+00	0.00000e+00	0.00000e+00	0.00000e+00	0.00000e+00	0.00000e+00	0.00000e+00	0.00000e+00	0.00000e+00	0.00000e+00	0.00000e+00	0.00000e+00	0.00000e+00	0.00000e+00	0.00000e+00	0.00000e+00	0.00000e+00	0.00000e+00	0.00000e+00	0.00000e+00	0.00000e+00	0.00000e+00	0.00000e+00	0.00000e+00	0.00000e+00	0.00000e+00	0.00000e+00	0.00000e+00	0.00000e+00	0.00000e+00	0.00000e+00	
Factor	1.00000e+00	1.00000e+00	1.00000e+00	1.00000e+00	1.00000e+00	1.00000e+00	1.00000e+00	1.00000e+00	1.00000e+00	1.00000e+00	1.00000e+00	1.00000e+00	1.00000e+00	1.00000e+00	1.00000e+00	1.00000e+00	1.00000e+00	1.00000e+00	1.00000e+00	1.00000e+00	1.00000e+00	1.00000e+00	1.00000e+00	1.00000e+00	1.00000e+00	1.00000e+00	1.00000e+00	1.00000e+00	1.00000e+00	1.00000e+00	1.00000e+00	1.00000e+00	X	X	X	X	X	X	X	X	X	X	X	X	X	X	X	X	

B = Detector Channel
Val Type	B-AC1	B-AC2	B-AC3	B-AC4	B-AC5	B-AC6	B-AC7	B-AC8	B-AC9	B-AC10	B-AC11	B-AC12	B-AC13	B-AC14	B-AC15	B-AC16	B-DC1	B-DC2	B-DC3	B-DC4	B-DC5	B-DC6	B-DC7	B-DC8	B-DC9	B-DC10	B-DC11	B-DC12	B-DC13	B-DC14	B-DC15	B-DC16	B-Ph1	B-Ph2	B-Ph3	B-Ph4	B-Ph5	B-Ph6	B-Ph7	B-Ph8	B-Ph9	B-Ph10	B-Ph11	B-Ph12	B-Ph13	B-Ph14	B-Ph15	B-Ph16	

Term	0.00000e+00	0.00000e+00	0.00000e+00	0.00000e+00	0.00000e+00	0.00000e+00	0.00000e+00	0.00000e+00	0.00000e+00	0.00000e+00	0.00000e+00	0.00000e+00	0.00000e+00	0.00000e+00	0.00000e+00	0.00000e+00	0.00000e+00	0.00000e+00	0.00000e+00	0.00000e+00	0.00000e+00	0.00000e+00	0.00000e+00	0.00000e+00	0.00000e+00	0.00000e+00	0.00000e+00	0.00000e+00	0.00000e+00	0.00000e+00	0.00000e+00	0.00000e+00	-1.07200e+00	-1.36101e+02	-1.26972e+02	-1.81145e+02	-5.74851e+01	-6.50972e+01	-1.58196e+02	-1.62015e+02	-4.24239e+01	-6.52151e+01	-1.70310e+02	-1.70117e+02	-1.81676e+02	-1.76501e+02	-5.94616e+01	-1.49355e+02	
Factor	3.59234e-05	1.59826e-04	4.90676e-05	1.61587e-01	1.97099e-06	1.44992e-06	1.72205e-01	5.96698e-02	2.11306e-06	1.83272e-06	9.39561e-02	3.22471e-02	2.84731e-02	9.54445e-03	1.94426e-06	1.34256e-02	6.52020e-06	7.84418e-06	2.17318e-06	8.29810e-02	8.31184e-08	8.62690e-08	8.30464e-02	3.06820e-02	8.29478e-08	8.64596e-08	4.68418e-02	1.60686e-02	1.47170e-02	4.95140e-03	8.44639e-08	6.74576e-03	X	X	X	X	X	X	X	X	X	X	X	X	X	X	X	X	



#DISTANCE SETTINGS
A = Detector Channel
A-1	A-2	A-3	A-4	A-5	A-6	A-7	A-8	A-9	A-10	A-11	A-12	A-13	A-14	A-15	A-16	

2.5000e+00	3.0000e+00	2.5000e+00	3.0000e+00	2.0000e+00	3.0000e+00	1.5000e+00	3.0000e+00	3.0000e+00	3.0000e+00	3.0000e+00	3.0000e+00	3.0000e+00	3.0000e+00	1.5000e+00	3.0000e+00	

B = Detector Channel
B-1	B-2	B-3	B-4	B-5	B-6	B-7	B-8	B-9	B-10	B-11	B-12	B-13	B-14	B-15	B-16	

1.0000e+01	1.0000e+01	1.0000e+01	1.4400e+00	1.0000e+01	1.0000e+01	1.5100e+00	1.9400e+00	1.0000e+01	1.0000e+01	1.9900e+00	2.4900e+00	2.4100e+00	2.9000e+00	1.0000e+01	2.9800e+00	




#DATA BEGINS
time	group	step	mark	flag	A-AC1	A-AC2	A-AC3	A-AC4	A-AC5	A-AC6	A-AC7	A-AC8	A-AC9	A-AC10	A-AC11	A-AC12	A-AC13	A-AC14	A-AC15	A-AC16	A-DC1	A-DC2	A-DC3	A-DC4	A-DC5	A-DC6	A-DC7	A-DC8	A-DC9	A-DC10	A-DC11	A-DC12	A-DC13	A-DC14	A-DC15	A-DC16	A-Ph1	A-Ph2	A-Ph3	A-Ph4	A-Ph5	A-Ph6	A-Ph7	A-Ph8	A-Ph9	A-Ph10	A-Ph11	A-Ph12	A-Ph13	A-Ph14	A-Ph15	A-Ph16	B-AC1	B-AC2	B-AC3	B-AC4	B-AC5	B-AC6	B-AC7	B-AC8	B-AC9	B-AC10	B-AC11	B-AC12	B-AC13	B-AC14	B-AC15	B-AC16	B-DC1	B-DC2	B-DC3	B-DC4	B-DC5	B-DC6	B-DC7	B-DC8	B-DC9	B-DC10	B-DC11	B-DC12	B-DC13	B-DC14	B-DC15	B-DC16	B-Ph1	B-Ph2	B-Ph3	B-Ph4	B-Ph5	B-Ph6	B-Ph7	B-Ph8	B-Ph9	B-Ph10	B-Ph11	B-Ph12	B-Ph13	B-Ph14	B-Ph15	B-Ph16	aux-1	digaux	

20972.801	1	1	0	256	0.25322	0.11399	0.19959	0.21275	0.24892	0.10893	0.12883	0.39046	0.16464	0.18857	0.20174	0.21887	0.21797	0.040432	0.28559	0.062963	-3.0042	-2.5833	-3.2167	-3.2	-2.5208	-3.3708	-2.9271	-3.1854	-3.0375	-2.4938	-3.4021	-3.1625	-2.4437	-3.5333	-2.6917	-2.9333	112.005	-23.990	-110.820	105.685	7.196	-25.422	71.513	144.733	-35.164	193.811	134.294	178.150	-111.734	47.588	-142.232	154.189	0.00092211	0.00065231	0.000173	1539.5	7.5997e-06	5.2016e-06	1531.9	408.99	1.1507e-05	5.212e-06	472.4	154.7	134.83	45.688	7.6435e-06	55.935	0.00057216	0.0005461	0.00014789	1565.5	5.9454e-06	5.661e-06	1551.5	417.47	5.7097e-06	5.727e-06	480.94	157.87	138.11	46.955	5.711e-06	57.792	-29.266	-83.454	-75.895	-148.233	-27.320	-21.004	-148.331	-143.646	-12.577	-14.598	-144.124	-139.837	-139.238	-134.697	-9.208	-135.538	-8191	255	
20972.896	1	1	0	0	0.19847	0.21074	0.10463	0.45025	0.057112	0.055047	0.20707	0.36066	0.12765	0.27446	0.13432	0.12686	0.1357	0.10179	0.24191	0.28718	-2.7479	-2.7083	-3.1729	-3.2646	-2.5187	-3.3042	-2.8271	-2.9229	-3.5146	-2.4729	-3.2729	-3.3063	-2.4333	-3.4083	-2.775	-2.85	-119.894	-39.397	-51.219	143.841	-110.736	-9.654	159.589	-148.040	-72.719	104.456	17.848	130.786	43.701	71.659	-25.515	155.277	0.00087711	0.00060353	0.00015467	1537.9	5.3021e-06	3.1022e-06	1522.5	409.52	6.6991e-06	4.1551e-06	470.61	154.36	134.91	45.779	6.6142e-06	56.138	0.00054607	0.00053226	0.00014472	1560.9	5.7908e-06	5.8005e-06	1547.9	416.89	5.7794e-06	5.7865e-06	481.2	157.42	137.99	46.984	5.8438e-06	57.81	-31.454	-63.487	-83.564	-148.012	-28.188	-41.851	-148.225	-143.492	-25.325	-18.168	-143.948	-139.710	-139.163	-134.493	-19.685	-135.259	-8191	255	
20972.969	1	1	0	0	0.15839	0.074546	0.11308	0.022846	0.17942	0.25739	0.1607	0.022472	0.22134	0.084468	0.060258	0.21985	0.2053	0.13099	0.22585	0.071411	-3.0875	-2.6771	-2.9521	-3.4271	-2.525	-3.2896	-2.8937	-2.8958	-3.5792	-2.6896	-3.2417	-3.4271	-2.5833	-3.3958	-2.9938	-2.6396	105.172	-3.680	160.834	39.489	18.349	-97.040	115.377	-12.969	8.069	-2.160	146.693	-160.959	158.408	64.121	186.611	16.459	0.00097313	0.00068386	0.00012393	1531.3	8.4381e-06	4.3391e-06	1519.8	408.14	7.7897e-06	3.7884e-06	472.01	154.39	134.86	45.754	6.8769e-06	56.15	0.00055278	0.0005262	0.00014186	1559	5.7674e-06	5.6909e-06	1545.5	416.61	5.671e-06	5.6444e-06	480.92	157.62	138.07	47.033	5.7458e-06	57.798	-32.059	-97.171	-101.086	-147.834	-16.560	-1.959	-148.241	-143.489	2.428	-32.547	-143.881	-139.664	-139.467	-134.583	-26.133	-135.094	-8191	255	
20973.088	1	1	0	0	0.162	0.2268	0.15533	0.26562	0.050021	0.14711	0.32799	0.33451	0.15932	0.21631	0.25385	0.18511	0.18564	0.17204	0.18163	0.064297	-2.7812	-2.7792	-2.9542	-3.5375	-2.5167	-3.3125	-3.375	-2.8937	-3.3167	-2.7104	-2.8937	-3.625	-2.6021	-3.5625	-3.1896	-2.6271	-150.757	58.079	-95.353	-152.756	-48.304	-0.098	158.023	142.031	71.251	-15.222	181.641	147.914	-13.460	184.604	144.374	65.730	0.00091395	0.00063505	0.00012493	1537.4	6.5831e-06	5.4443e-06	1519	407.94	7.4801e-06	6.4485e-06	471.94	154.21	134.75	45.671	5.9944e-06	56.126	0.00055775	0.00051987	0.00013878	1558.3	5.5856e-06	5.5313e-06	1543.7	416.44	5.5015e-06	5.4846e-06	479.74	157.59	137.73	46.945	5.4268e-06	57.652	-32.111	-75.308	-68.096	-147.865	-32.897	-13.246	-148.267	-143.280	-5.155	12.146	-143.923	-139.630	-138.990	-133.842	-3.868	-135.404	-8191	255	
20973.184	1	1	0	0	0.047419	0.25102	0.11412	0.060598	0.18538	0.13302	0.29935	0.27679	0.20956	0.087314	0.18703	0.1549	0.051844	0.097829	0.2448	0.3246	-3.1208	-2.8396	-2.775	-3.6021	-2.3187	-3.2167	-3.5167	-2.7625	-3.3625	-2.7562	-2.7333	-3.4479	-2.6271	-3.1604	-3.2604	-2.6625	16.626	-146.436	-29.090	-132.840	41.169	182.258	85.919	172.399	-131.467	66.961	164.753	156.474	38.974	-38.409	102.382	191.376	0.00080185	0.00062897	0.00017514	1530.9	5.166e-06	7.5856e-06	1516.8	408.64	9.585e-06	5.3219e-06	470.8	154.22	135.17	45.645	5.9092e-06	55.738	0.00053311	0.00050445	0.00013968	1554	5.6155e-06	5.5103e-06	1540.8	415.64	5.4723e-06	5.5102e-06	479.14	157.28	137.53	46.885	5.4773e-06	57.584	-28.793	-78.826	-72.198	-147.826	-6.936	0.868	-147.980	-143.312	-24.791	-9.336	-143.851	-139.521	-139.373	-134.057	1.425	-135.017	-8191	255	
20973.279	1	1	0	0	0.097741	0.013314	0.071426	0.40885	0.17721	0.34561	0.34241	0.25427	0.46429	0.039479	0.19138	0.23621	0.19951	0.27077	0.14337	0.084003	-3.0042	-2.9458	-2.7229	-3.5667	-2.65	-2.9667	-3.4938	-3.0667	-3.2271	-2.9771	-2.6729	-3.5979	-2.7354	-3.0125	-3.2687	-2.6813	160.106	-4.980	8.001	184.392	116.635	36.872	193.314	179.368	-78.888	-73.245	-153.408	89.622	-116.594	183.048	-7.349	103.638	0.00093298	0.00068091	0.00016016	1524.2	4.9472e-06	5.3543e-06	1517.9	407.42	8.2871e-06	3.9751e-06	468.41	153.87	134.76	45.634	6.4615e-06	56.11	0.00052647	0.00050191	0.00013648	1549.9	5.4065e-06	5.2532e-06	1537.6	415.1	5.459e-06	5.4614e-06	478.91	156.93	137.63	46.921	5.447e-06	57.625	-32.950	-86.432	-58.182	-147.799	-42.988	-18.047	-148.045	-143.287	11.078	-13.764	-143.853	-139.455	-138.957	-134.391	-28.182	-135.115	-8191	255	
20973.377	1	1	0	0	0.2276	0.10314	0.10094	0.20679	0.088655	0.12487	0.22388	0.30805	0.21847	0.19041	0.062795	0.2557	0.38341	0.1742	0.21249	0.34587	-2.8292	-2.9146	-2.4479	-3.4458	-2.6562	-2.7875	-3.5	-2.6208	-3.2479	-3.075	-2.6646	-3.4083	-2.8208	-2.8208	-3.3563	-2.7562	113.378	184.986	-54.018	151.280	75.365	149.481	143.097	152.945	151.572	-139.341	85.928	149.656	-123.213	136.422	142.608	106.511	0.0008377	0.00059174	0.00022295	1527.3	4.0928e-06	5.0346e-06	1518.5	408.01	9.2265e-06	4.5307e-06	469.12	154.06	134.98	45.677	6.7048e-06	56.002	0.00053286	0.00049529	0.00013997	1552.7	5.5016e-06	5.4567e-06	1540.8	415.78	5.4697e-06	5.4646e-06	479.45	157.3	137.46	46.901	5.2873e-06	57.571	-30.057	-66.999	-60.599	-147.951	54.390	-11.876	-147.911	-143.465	-30.438	-5.097	-143.686	-139.433	-139.170	-134.142	-18.632	-135.201	-8191	255	
20973.496	1	1	0	0	0.33301	0.070849	0.18432	0.40665	0.33221	0.10327	0.23567	0.28381	0.14038	0.21295	0.3419	0.22452	0.27931	0.10375	0.23208	0.29949	-2.7875	-3.0208	-2.4313	-3.375	-2.7417	-2.6292	-3.6854	-2.6125	-3.1125	-3.3042	-2.5854	-3.3896	-3.0104	-2.55	-3.4083	-2.75	8.611	-72.105	-113.393	173.025	102.313	-114.918	92.506	177.427	-74.796	95.502	169.305	171.919	-136.419	167.530	68.161	-160.531	0.00089778	0.00057038	0.00022083	1524.2	7.3758e-06	4.117e-06	1512.6	405.86	9.7873e-06	5.623e-06	466.61	154.08	134.06	45.527	4.4732e-06	55.902	0.00052691	0.00047369	0.00013355	1549.6	5.2529e-06	5.1456e-06	1536.1	413.97	5.1626e-06	5.1325e-06	477.36	156.63	137.1	46.771	5.1101e-06	57.44	-28.540	-60.272	-64.693	-147.854	-30.576	-17.846	-148.035	-143.659	-24.251	-2.915	-143.912	-139.333	-139.320	-134.410	-56.450	-135.183	-8191	255	
20973.594	1	1	0	0	0.26739	0.088594	0.34704	0.1998	0.12265	0.16112	0.26094	0.16458	0.22915	0.061109	0.2768	0.076518	0.12716	0.10404	0.32716	0.2656	-2.5417	-3.3521	-2.4208	-3.4667	-2.9417	-2.4062	-3.5292	-2.7979	-2.7833	-3.3958	-2.6146	-3.3271	-3.2938	-2.7125	-3.5146	-2.7771	-49.830	143.934	117.085	167.798	129.511	-95.934	137.481	156.750	179.519	117.253	124.411	138.566	-26.332	176.389	-133.911	180.488	0.00092106	0.00059741	0.00013076	1525.7	5.7795e-06	4.3835e-06	1511	405.85	8.2918e-06	5.2012e-06	467.99	153.56	134.55	45.625	4.54e-06	55.828	0.00051885	0.00046745	0.00013184	1547.3	5.2207e-06	5.245e-06	1534.3	413.6	5.2551e-06	5.0224e-06	477.76	156.74	137.25	46.784	5.0875e-06	57.483	-28.323	-78.260	-74.357	-147.786	-26.372	-4.805	-147.996	-143.358	-13.226	-2.012	-143.755	-139.511	-138.978	-134.127	-4.180	-135.058	-8191	255	
20973.689	1	1	0	0	0.14718	0.10702	0.10104	0.20203	0.1262	0.065704	0.11052	0.082584	0.165	0.057744	0.22236	0.077863	0.1771	0.21464	0.24911	0.33876	-2.3563	-3.2854	-2.4604	-3.3688	-3.2687	-2.5729	-3.5292	-2.9313	-2.6646	-3.225	-2.6312	-3.1917	-3.2792	-2.4875	-3.2125	-2.8979	-154.858	-11.438	-120.639	157.849	-27.509	-22.528	40.896	115.626	124.210	-75.075	87.927	193.863	-160.677	173.616	48.651	96.448	0.00091454	0.00046215	8.0368e-05	1524.4	7.2539e-06	4.7227e-06	1513.3	405.71	7.3763e-06	4.9004e-06	468.87	153.64	134.52	45.41	8.8643e-06	55.692	0.00051453	0.00047019	0.00012947	1547.6	5.1059e-06	5.1016e-06	1533.8	413.44	5.1063e-06	5.0489e-06	477.04	156.68	137.1	46.775	5.1681e-06	57.313	-31.091	-96.770	-119.843	-147.672	-22.848	2.068	-147.869	-143.149	-16.118	28.267	-143.884	-139.579	-138.891	-134.364	-24.090	-135.288	-8191	255	
20973.785	1	1	0	0	0.19813	0.12154	0.26418	0.1364	0.34882	0.16515	0.41714	0.2547	0.031714	0.19705	0.1333	0.11907	0.17222	0.11919	0.10343	0.14064	-2.2438	-3.4	-2.5667	-3.2604	-3.1333	-2.6021	-3.4875	-3.1146	-2.6	-3.3542	-2.8479	-2.8625	-3.0896	-2.5458	-3.2708	-3.3354	70.009	-115.067	166.022	195.337	-8.008	68.453	109.714	-115.783	-8.773	-122.187	197.162	-139.470	-157.247	182.336	110.967	87.926	0.00083544	0.00063032	0.00014856	1521	6.4968e-06	4.836e-06	1504.7	404.6	7.998e-06	5.1862e-06	465.22	153.25	134.08	45.212	6.3934e-06	56.059	0.00051234	0.00045805	0.0001287	1543.2	5.1206e-06	4.9971e-06	1528.5	412.62	5.0012e-06	4.8644e-06	474.9	156.15	136.63	46.566	5.0557e-06	57.365	-34.659	-75.986	-41.166	-147.757	-53.037	5.761	-147.610	-143.077	4.470	20.099	-143.482	-139.481	-138.904	-134.076	-25.938	-135.278	-8191	255	
20973.881	1	1	0	0	0.18347	0.018509	0.2881	0.14503	0.14564	0.0096932	0.05349	0.27571	0.0095402	0.11952	0.23258	0.12778	0.098658	0.13999	0.1269	0.17998	-2.1896	-3.3083	-2.7854	-2.9083	-3.3563	-2.6083	-3.3812	-3.3417	-2.5	-3.3042	-2.9146	-2.7479	-3.3583	-2.6021	-3.1	-3.1625	-49.584	-80.207	87.241	194.811	-130.396	194.966	-108.387	165.397	29.297	-100.793	179.563	-89.065	51.702	186.614	-49.266	-148.592	0.00089621	0.00053124	0.00016787	1515.8	5.927e-06	5.5335e-06	1505	403.99	6.649e-06	7.0026e-06	465.16	153.32	133.88	45.463	7.8878e-06	55.489	0.00050715	0.000453	0.00012567	1540.1	5.0735e-06	5.0379e-06	1527.1	412.11	4.9978e-06	4.9857e-06	474.43	156.27	136.75	46.662	5.0001e-06	57.252	-28.378	-87.849	-60.918	-147.841	-27.188	-14.725	-147.880	-143.326	-12.201	-11.831	-143.845	-139.469	-138.779	-134.223	-10.353	-135.450	-8191	255	
20973.979	1	1	0	0	0.091184	0.08318	0.14195	0.34831	0.12788	0.050873	0.14448	0.19187	0.15089	0.2994	0.26585	0.082354	0.2107	0.22742	0.13103	0.1109	-2.1208	-3.3229	-2.7542	-2.775	-3.4188	-2.5146	-3.2542	-3.4688	-2.5792	-3.3083	-2.9375	-2.6292	-3.4437	-2.5375	-3.0042	-3.2479	-51.748	-123.331	-120.204	166.255	-123.169	31.619	183.461	-145.233	-108.374	31.802	167.948	47.214	-139.101	-83.003	-96.105	-88.508	0.00088019	0.00036538	0.00011848	1518.9	7.201e-06	4.9678e-06	1509.6	404.91	8.1236e-06	3.9124e-06	467.88	154.07	133.93	45.445	6.7322e-06	55.886	0.00050701	0.00046006	0.00012834	1542.3	5.1675e-06	5.16e-06	1529.7	412.99	5.1407e-06	5.1521e-06	476.56	156.41	136.86	46.669	5.1637e-06	57.434	-29.638	-80.187	-70.247	-147.549	-18.346	4.372	-147.966	-143.384	-21.187	7.270	-143.942	-139.756	-139.125	-134.446	-26.173	-135.298	-8191	255	
20974.098	1	1	0	0	0.38982	0.068773	0.22225	0.25908	0.034711	0.15878	0.25639	0.12409	0.16648	0.16644	0.20695	0.12513	0.11875	0.089648	0.08797	0.095878	-1.9937	-3.0375	-2.9458	-2.6625	-3.3167	-2.525	-3.0521	-3.475	-2.4604	-3.3521	-3.1208	-2.6562	-3.4021	-2.8563	-2.8271	-3.4021	-97.973	88.748	138.422	-158.571	90.006	72.201	154.114	-111.648	60.839	120.469	173.980	130.849	174.577	182.522	-93.313	51.036	0.00084232	0.00031279	0.00014913	1518.2	7.8927e-06	3.6802e-06	1506.4	404.55	7.2873e-06	3.3962e-06	467.11	153.67	133.87	45.382	5.6417e-06	55.795	0.00051002	0.00046903	0.00012926	1542.9	5.0988e-06	5.0298e-06	1529.2	412.82	5.1231e-06	4.9505e-06	475.74	156.23	136.7	46.57	4.7847e-06	57.34	-32.150	-92.682	-61.705	-147.789	-24.890	-15.334	-148.051	-143.600	-0.424	-13.833	-143.837	-139.731	-139.305	-134.320	-13.435	-135.263	-8191	255	
20974.193	1	1	0	0	0.087567	0.13734	0.18527	0.29528	0.13584	0.064135	0.40306	0.094395	0.25267	0.21249	0.33651	0.1915	0.083405	0.090476	0.067014	0.27552	-2.1437	-3.1521	-3.0771	-2.6958	-3.2604	-2.7771	-2.9708	-3.5958	-2.4396	-2.95	-3.1562	-2.4771	-3.3021	-2.675	-2.6833	-3.3604	85.585	-137.751	116.739	161.404	17.551	-10.581	99.750	142.827	142.590	106.788	-152.568	182.200	-54.512	98.703	49.978	181.614	0.00090042	0.00068973	0.00014739	1511.2	7.2042e-06	4.0196e-06	1502.1	404.41	7.4377e-06	7.2629e-06	466.16	153.06	133.36	45.256	6.476e-06	55.581	0.00048531	0.00043467	0.00011857	1533.6	4.8363e-06	4.7854e-06	1522.7	411.44	4.9043e-06	4.6978e-06	474.38	156	136.39	46.475	4.7768e-06	57.194	-25.831	-57.577	-75.481	-147.784	-13.494	-21.605	-147.840	-143.307	-32.713	-8.825	-143.841	-139.517	-139.135	-134.189	-12.533	-135.126	-8191	255	
20974.266	1	1	0	0	0.09468	0.071963	0.16363	0.28742	0.23166	0.33075	0.18547	0.23322	0.3014	0.12118	0.25745	0.1311	0.10423	0.18185	0.2668	0.09127	-2.1271	-2.975	-3.0333	-2.5875	-3.1854	-2.7875	-2.775	-3.6688	-2.4562	-2.9562	-3.4896	-2.7188	-3.3833	-3.1271	-2.4729	-3.4333	-53.986	30.762	-62.946	-152.018	-6.146	-125.136	160.661	-49.721	152.482	189.325	84.335	175.699	-160.654	183.454	-58.478	140.884	0.0008571	0.00049749	0.00013471	1506.2	4.0671e-06	4.3372e-06	1493.7	402.97	1.016e-05	4.5419e-06	463.86	152.27	133.42	45.292	7.2154e-06	55.473	0.00048191	0.00042627	0.00011688	1527.2	4.6325e-06	4.4563e-06	1512.9	410.24	4.6525e-06	4.5798e-06	472.59	155.37	135.87	46.352	4.6248e-06	57.01	-33.854	-61.541	-72.757	-147.829	-27.083	-8.677	-147.889	-143.244	1.518	7.814	-143.576	-139.088	-138.820	-134.353	-15.149	-135.057	-8191	255	
20974.385	1	1	0	0	0.055625	0.296	0.2143	0.15363	0.16254	0.019112	0.15969	0.30064	0.078185	0.072172	0.14628	0.24588	0.15035	0.37438	0.18385	0.37449	-2.4604	-2.7833	-3.4354	-2.7354	-3.225	-3.0396	-2.8125	-3.475	-2.875	-2.8583	-3.4604	-2.7167	-3.2021	-3.1792	-2.4854	-3.4021	-126.937	14.562	-79.593	125.247	93.624	-12.275	155.762	141.409	0.895	-37.324	-90.063	196.449	123.862	167.436	-106.178	99.933	0.00091887	0.00064416	0.00018921	1499	6.986e-06	5.0384e-06	1486.4	402.67	9.4462e-06	9.4203e-06	463.77	152.66	133.45	45.308	7.9756e-06	55.38	0.00046867	0.00041257	0.00011271	1520.2	4.5973e-06	4.458e-06	1510.2	409.38	4.5879e-06	4.6694e-06	472.43	155.32	135.92	46.399	4.8825e-06	57.116	-29.907	-54.219	-47.505	-147.778	-45.954	14.444	-147.760	-143.416	-9.695	-28.431	-143.889	-139.407	-138.765	-134.231	-2.129	-135.167	-8191	255	
20974.480	1	1	0	0	0.082049	0.11213	0.17835	0.067959	0.23442	0.13066	0.13092	0.31236	0.32186	0.29323	0.076283	0.1556	0.1543	0.1743	0.24773	0.14379	-2.4042	-2.7167	-3.2062	-2.5833	-2.9708	-3.2979	-2.8063	-3.5687	-2.8833	-2.6562	-3.5354	-2.5583	-3.1229	-3.2896	-2.5208	-3.4188	-147.124	98.602	-107.440	-151.735	35.680	-122.199	161.325	161.052	91.163	-112.477	182.497	148.230	175.857	163.422	78.384	61.828	0.0008909	0.0004222	0.00018959	1507	4.2803e-06	3.1644e-06	1491	401.26	7.8032e-06	5.8097e-06	463.96	152.37	133.31	45.169	5.3999e-06	55.608	0.00050321	0.00045903	0.00012553	1526.7	5.2008e-06	4.8826e-06	1514	409.91	5.0797e-06	4.993e-06	473.14	155.53	135.91	46.431	5.0075e-06	57.18	-25.997	-82.333	-83.854	-147.558	-11.312	16.111	-147.810	-143.286	-12.519	-13.334	-143.834	-139.811	-139.009	-134.242	-13.452	-135.269	-8191	255	
20974.578	1	1	0	0	0.096192	0.037273	0.32155	0.34425	0.25298	0.16404	0.23473	0.1702	0.037986	0.21245	0.36114	0.13961	0.23968	0.12386	0.14696	0.15548	-2.4854	-2.5792	-3.3958	-2.8563	-2.9542	-3.3083	-2.5438	-3.2646	-2.9583	-2.4667	-3.4104	-2.7562	-2.7687	-3.3604	-2.5271	-3.2979	-154.346	-106.194	45.501	193.817	9.672	-123.499	152.599	119.679	11.364	-132.728	152.077	-143.488	197.448	-66.154	-84.481	13.924	0.00089851	0.00067478	8.0726e-05	1499.6	7.4015e-06	4.5254e-06	1490.3	402.72	8.5952e-06	5.4165e-06	464.74	152.13	133.19	44.962	4.9813e-06	55.637	0.00050419	0.00045973	0.00012522	1525.1	5.192e-06	4.9973e-06	1515.9	409.91	4.9838e-06	5.0671e-06	472.85	155.29	135.84	46.353	5.1113e-06	57.178	-28.194	-66.324	-95.670	-147.678	-39.818	-25.157	-147.777	-142.994	-9.588	-43.260	-144.029	-139.510	-138.825	-134.063	-11.027	-134.998	-8191	255	
20974.674	1	1	0	0	0.16791	0.35921	0.15189	0.099897	0.13048	0.1612	0.17202	0.253	0.20735	0.088274	0.095929	0.053536	0.29989	0.31823	0.23671	0.31427	-2.6979	-2.3875	-3.3708	-2.925	-2.7104	-3.3021	-2.6792	-3.1729	-3.0563	-2.4167	-3.4104	-2.6917	-2.6917	-3.6667	-2.5979	-2.9562	111.814	146.950	-81.042	-101.818	-1.326	-79.400	147.349	110.330	186.185	148.320	46.584	153.594	-118.823	153.801	159.856	172.179	0.00093497	0.00044193	0.00015022	1503.5	7.1705e-06	4.3213e-06	1491.1	403.15	1.1579e-05	2.3586e-06	466.01	152.39	133.65	45.095	8.1343e-06	55.58	0.00051113	0.00047229	0.00013037	1525.2	5.2976e-06	4.9202e-06	1515.7	410.75	5.0577e-06	5.1595e-06	474.29	155.24	136.03	46.439	5.1787e-06	57.19	-28.518	-88.599	-58.284	-147.637	-9.493	6.184	-147.889	-143.221	4.966	38.274	-143.737	-139.385	-138.790	-134.286	-11.873	-135.101	-8191	255	
20974.793	1	1	0	0	0.097826	0.24987	0.12345	0.20862	0.13113	0.18663	0.17917	0.18536	0.14546	0.27783	0.2112	0.18887	0.2542	0.16801	0.1469	0.21251	-2.9021	-2.3833	-3.35	-3.0604	-2.5771	-3.5938	-2.7438	-3.0708	-3.4	-2.5667	-3.2896	-3.2042	-2.6833	-3.5125	-2.7521	-3.0229	-26.992	10.267	39.658	-156.493	-28.126	-5.116	147.200	139.053	-9.714	9.937	156.666	149.641	-158.644	25.379	-115.137	-128.059	0.00087357	0.00047314	8.1541e-05	1503.7	6.3885e-06	4.991e-06	1493.7	403.8	1.1708e-05	7.1338e-06	464.88	152.71	133.4	45.181	4.8838e-06	55.49	0.00050705	0.00047846	0.00012968	1525.9	5.2349e-06	5.0764e-06	1514.3	411.06	5.2038e-06	5.0683e-06	473.39	155.74	135.91	46.408	5.1548e-06	57.123	-26.564	-91.758	-64.166	-147.801	-18.969	-23.897	-147.873	-143.227	-15.850	-27.720	-143.749	-139.515	-139.160	-134.084	-9.550	-135.058	-8191	255	
20974.889	1	1	0	0	0.1501	0.11541	0.10597	0.19555	0.32359	0.14132	0.35227	0.23612	0.2179	0.11945	0.14967	0.076057	0.19683	0.14132	0.21379	0.13889	-3.0375	-2.4688	-3.2375	-3.275	-2.5542	-3.4354	-2.9104	-2.9292	-3.3229	-2.6562	-3.1813	-3.1729	-2.6521	-3.3917	-2.7625	-2.7896	13.551	118.143	197.228	145.169	43.150	-32.400	97.342	-158.372	-82.014	-136.574	-17.388	169.661	-45.042	-140.630	-0.808	22.551	0.0009158	0.00058597	0.00019852	1501.9	6.324e-06	4.4347e-06	1494.2	403.04	8.7687e-06	2.9107e-06	464.4	152.97	132.94	45.119	4.9668e-06	55.459	0.00050018	0.00047385	0.00012705	1525.1	5.0837e-06	5.0261e-06	1514.8	409.57	5.0978e-06	5.0781e-06	473.3	155.84	135.84	46.349	5.1393e-06	57.087	-31.756	-60.902	-77.029	-147.764	-34.384	1.740	-147.899	-143.110	-4.165	-24.156	-143.592	-139.197	-138.835	-134.031	-22.094	-134.991	-8191	255	
20974.963	1	1	0	0	0.092506	0.097888	0.10046	0.20657	0.11984	0.16303	0.44482	0.16866	0.36699	0.18561	0.19605	0.32994	0.15141	0.1678	0.23796	0.17159	-2.8917	-2.3875	-3.1792	-3.4875	-2.3563	-3.3604	-3.0625	-2.6937	-3.1875	-2.5396	-3.1063	-3.2896	-2.6	-3.3125	-2.8729	-2.7896	197.234	181.776	146.453	143.259	83.323	-122.417	144.325	-152.695	-0.312	135.501	152.048	184.942	131.729	-148.995	31.590	6.402	0.00090393	0.00059326	0.0001488	1501.4	7.1327e-06	3.3628e-06	1490.7	402.21	7.1446e-06	6.2417e-06	464.74	152.38	133.6	45.151	4.4256e-06	55.762	0.00050959	0.00047003	0.00012974	1524.3	5.286e-06	5.1077e-06	1513.5	409.98	5.0071e-06	5.1861e-06	473.14	155.58	135.87	46.413	5.0518e-06	57.194	-30.532	-91.231	-74.830	-147.836	-26.617	-18.017	-148.016	-143.107	-7.484	8.875	-143.590	-139.382	-138.764	-133.941	-21.371	-135.077	-8191	255	
20975.059	1	1	0	0	0.23233	0.17783	0.089937	0.13568	0.28062	0.12073	0.3272	0.085518	0.29264	0.23313	0.20469	0.15729	0.096215	0.37936	0.18488	0.036662	-3.05	-2.5083	-2.8146	-3.5833	-2.5146	-3.3167	-3.2687	-2.8021	-3.3458	-2.7562	-2.9792	-3.5042	-2.6271	-3.2771	-3.1917	-2.7229	-92.225	-32.378	-97.107	186.607	91.406	-119.331	125.146	98.020	7.190	52.069	141.579	-135.444	105.352	-148.122	-122.145	58.103	0.00090647	0.00048284	0.00014389	1504	5.3866e-06	4.4377e-06	1495.7	403.46	8.6045e-06	6.5307e-06	464.42	152.67	133.63	45.267	5.5758e-06	55.46	0.00050739	0.00047269	0.00012651	1525.4	5.114e-06	4.9425e-06	1517	410.14	4.9907e-06	4.9075e-06	473.47	155.38	136	46.476	4.9441e-06	57.134	-29.818	-70.862	-81.019	-147.558	-0.751	-23.838	-148.146	-143.001	-17.658	-11.526	-143.477	-139.123	-138.500	-133.730	13.435	-134.659	-8191	255	
20975.178	1	1	0	0	0.069452	0.066134	0.13099	0.23486	0.12555	0.10431	0.21736	0.22802	0.18611	0.15931	0.22816	0.18781	0.29363	0.13192	0.21147	0.10272	-3.0021	-2.8083	-2.7208	-3.7083	-2.5917	-3.1813	-3.4125	-2.8167	-3.5542	-2.7583	-2.8604	-3.2083	-2.7521	-3.1125	-3.2271	-2.5458	-142.037	-97.568	84.665	148.121	-95.598	-14.167	149.607	137.123	-99.548	139.919	97.828	190.449	146.647	195.903	-7.385	173.942	0.00087662	0.0002932	0.00025013	1502.7	5.7435e-06	4.2811e-06	1486.8	402.99	5.9821e-06	6.5055e-06	464.68	152.12	133.57	45.304	5.7964e-06	55.742	0.000492	0.00046493	0.00012836	1525.8	5.1388e-06	4.9396e-06	1512.1	409.98	4.9703e-06	4.9837e-06	473.48	155.17	136.04	46.455	4.9915e-06	57.093	-29.389	-78.199	-58.388	-147.323	-40.467	-57.684	-147.700	-142.971	-21.953	-16.414	-143.614	-139.340	-138.414	-133.627	-4.908	-135.064	-8191	255	
20975.273	1	1	0	0	0.1819	0.13268	0.16174	0.13141	0.054588	0.16538	0.26611	0.12707	0.13272	0.038149	0.20909	0.047791	0.18802	0.13905	0.07115	0.18167	-2.9896	-2.9208	-2.6583	-3.6771	-2.4958	-3.0312	-3.5187	-2.5312	-3.2062	-3.0062	-2.7438	-3.2792	-2.7104	-3.0062	-3.3354	-2.4125	-94.170	-17.906	178.242	184.977	192.300	61.297	188.069	152.089	-94.700	-29.903	131.907	152.836	-157.454	137.604	31.198	189.057	0.00092402	0.00063428	0.00013944	1504.4	5.7e-06	4.6339e-06	1491.5	402.61	7.3166e-06	4.966e-06	462.91	152.46	132.53	44.986	3.4169e-06	55.463	0.00050326	0.00045508	0.00012701	1524.5	5.1135e-06	4.8697e-06	1512.5	409.61	4.9414e-06	4.9963e-06	472.63	155.45	135.56	46.35	4.9392e-06	57.093	-26.769	-77.846	-39.927	-147.476	-17.524	1.114	-147.460	-143.361	-35.205	-5.949	-143.814	-139.502	-139.020	-134.172	-48.006	-134.972	-8191	255	
20975.369	1	1	0	0	0.078842	0.32526	0.21454	0.40416	0.18378	0.16389	0.16165	0.12889	0.056621	0.12405	0.12932	0.1274	0.18561	0.12756	0.18476	0.23624	-2.925	-3.1042	-2.4854	-3.5979	-2.6083	-2.8542	-3.6	-2.5083	-3.1458	-3.0812	-2.5771	-3.4583	-2.8583	-2.7687	-3.5979	-2.6479	75.118	161.292	156.945	178.346	-132.836	-140.833	188.812	143.054	85.871	-40.455	-138.274	86.247	-155.251	85.240	-91.401	-114.637	0.00089978	0.00040204	0.00019342	1501.1	4.9625e-06	4.5003e-06	1487.6	401.34	5.3166e-06	6.57e-06	463.26	152.54	132.8	45.198	5.647e-06	55.456	0.00049923	0.0004514	0.00012721	1521.9	5.0832e-06	5.0112e-06	1510.3	409.38	5.0781e-06	4.8729e-06	472.59	155.5	135.44	46.395	4.9306e-06	57.07	-31.821	-75.217	-74.169	-147.887	-41.773	-19.690	-147.932	-143.142	-18.358	3.157	-143.556	-139.386	-138.923	-133.809	-25.207	-134.809	-8191	255	
20975.490	1	1	0	0	0.08604	0.056667	0.083633	0.028265	0.056301	0.18998	0.32124	0.19173	0.21909	0.2734	0.18032	0.10703	0.1657	0.3565	0.22891	0.23383	-2.7604	-3.0542	-2.3625	-3.4708	-2.925	-2.8479	-3.6396	-2.7854	-3.0229	-3.2062	-2.5979	-3.3208	-2.9771	-2.6167	-3.2771	-2.6042	165.426	-5.628	-55.869	71.121	68.008	-125.446	115.817	76.375	-85.813	105.223	60.822	29.873	113.069	193.047	122.841	143.117	0.00091745	0.00048533	0.0001972	1499.9	5.5194e-06	3.1577e-06	1486.5	401.15	1.1085e-05	8.6929e-06	464.77	151.89	132.51	44.93	4.5959e-06	55.689	0.00050106	0.00044622	0.00012662	1523.7	4.9887e-06	4.9793e-06	1509.2	409.03	4.9867e-06	4.91e-06	472.98	154.99	135.52	46.328	4.8366e-06	57.109	-27.054	-68.645	-62.729	-147.456	-4.734	-5.545	-147.778	-143.150	-9.944	-21.883	-143.559	-139.656	-139.310	-134.455	-22.688	-135.473	-8191	255	
20975.562	1	1	0	0	0.11767	0.29115	0.30623	0.40224	0.14858	0.15398	0.25726	0.16919	0.13801	0.1712	0.26308	0.072611	0.15312	0.16622	0.27827	0.4192	-2.6792	-3.2583	-2.5521	-3.3708	-3.0563	-2.5521	-3.6083	-2.6604	-2.6521	-3.2875	-2.6021	-3.2792	-3.2958	-2.5229	-3.4208	-2.8021	-145.455	-80.012	-127.351	158.559	155.975	-95.169	178.565	58.008	-118.397	173.335	179.110	81.136	-141.514	-159.312	-157.732	-138.148	0.00083944	0.00055565	0.00021075	1495.3	7.3802e-06	4.3123e-06	1491.5	402.69	7.3498e-06	1.0024e-05	463.24	152.18	133.02	45.194	6.0492e-06	55.355	0.00049598	0.00044341	0.00012384	1520.5	5.0418e-06	4.9784e-06	1512.4	409.45	4.9997e-06	4.8693e-06	472.56	155.36	135.6	46.396	4.9536e-06	57.044	-27.059	-80.792	-83.441	-148.046	-7.111	3.668	-148.285	-143.546	-10.552	-1.031	-143.978	-139.627	-139.235	-134.642	-3.420	-135.618	-8191	255	
20975.658	1	1	0	0	0.12263	0.1442	0.1583	0.20782	0.14981	0.33015	0.33963	0.27819	0.33359	0.15861	0.061592	0.065349	0.13533	0.34737	0.067092	0.22875	-2.3104	-3.2854	-2.4729	-3.4062	-3.1396	-2.5542	-3.4521	-2.9958	-2.6521	-3.35	-2.6562	-3.1125	-3.1229	-2.4542	-3.2979	-2.9604	-108.770	-90.838	-24.392	-142.343	136.631	-128.643	136.857	155.861	-33.599	181.945	53.582	-141.660	-161.250	-159.571	82.004	83.961	0.00093395	0.00067082	0.00017593	1496.8	7.7581e-06	5.998e-06	1486.3	400.62	7.5693e-06	6.9609e-06	463.78	152.02	132.21	44.914	7.5223e-06	55.3	0.00050523	0.00044692	0.00012756	1522.8	5.0553e-06	4.9747e-06	1509.3	408.85	5.0431e-06	4.8882e-06	472.39	155.09	135.28	46.274	4.9832e-06	56.959	-28.772	-101.755	-68.358	-147.863	-11.473	3.751	-148.326	-143.610	-22.609	-14.861	-143.929	-139.710	-139.093	-134.390	-34.581	-135.481	-8191	255	
20975.779	1	1	0	0	0.12972	0.17503	0.14565	0.12027	0.10319	0.23713	0.2532	0.030359	0.20469	0.16967	0.076776	0.0491	0.044073	0.33694	0.21487	0.30654	-2.2583	-3.4521	-2.4833	-3.0396	-3.125	-2.3042	-3.4521	-3.0021	-2.5104	-3.2229	-2.7667	-2.9208	-3.3688	-2.6521	-3.2229	-3.025	85.616	84.033	-68.722	-159.170	-69.992	2.746	111.211	-154.081	-36.263	-58.511	-70.487	163.828	91.627	-153.427	140.032	112.925	0.00088328	0.00049053	0.0001812	1502.8	2.96e-06	4.096e-06	1489.7	402.61	5.5118e-06	7.1661e-06	463.44	152.24	132.31	45.266	5.6206e-06	55.351	0.00049149	0.00044261	0.00012617	1521.1	4.8352e-06	5.0106e-06	1511.3	409.36	4.9922e-06	4.9278e-06	472.95	155.25	135.26	46.411	4.9257e-06	56.956	-26.631	-78.032	-95.323	-147.943	15.704	-35.357	-148.086	-143.429	-12.629	-21.619	-143.904	-139.529	-139.153	-134.446	-19.318	-135.413	-8191	255	
20975.873	1	1	0	0	0.13706	0.2881	0.11713	0.31111	0.16656	0.29331	0.20343	0.39881	0.077892	0.13094	0.21781	0.15751	0.3389	0.057024	0.15766	0.18416	-2.2146	-3.0792	-2.5104	-2.9688	-3.3667	-2.5625	-3.4146	-3.1625	-2.4042	-3.3917	-2.7958	-2.8771	-3.4667	-2.5458	-3.1437	-3.1208	-128.129	-141.372	104.308	175.868	-62.005	164.105	-159.633	163.338	82.066	0.635	136.994	-47.651	122.236	17.823	180.155	163.619	0.00091127	0.00049648	0.00013126	1493.9	6.6579e-06	4.1572e-06	1488.9	401.17	5.9942e-06	5.2326e-06	463.6	152.14	132.88	45.195	4.1118e-06	55.172	0.00049924	0.00044784	0.00012628	1519.9	4.909e-06	4.9619e-06	1510.9	408.72	5.0441e-06	5.0055e-06	473.46	155.27	135.58	46.39	5.0214e-06	56.948	-29.727	-69.202	-57.719	-147.987	-10.043	-3.267	-148.226	-143.471	-2.618	1.466	-143.832	-139.557	-138.928	-134.250	19.350	-135.195	-8191	255	
20975.969	1	1	0	0	0.12736	0.19286	0.21151	0.15274	0.26921	0.10233	0.20891	0.1372	0.11296	0.27778	0.018543	0.20607	0.22413	0.22242	0.039046	0.24471	-2.1188	-3.425	-2.9146	-2.8458	-3.3604	-2.5375	-3.2583	-3.3875	-2.5646	-3.3104	-2.8167	-2.7313	-3.5042	-2.6562	-3.0979	-3.3646	-31.862	-143.898	70.797	135.437	159.518	58.787	156.181	-158.089	16.421	60.732	197.477	-12.692	178.028	157.882	-14.479	-156.381	0.00085968	0.000605	0.00013154	1498	3.4114e-06	4.1039e-06	1488.7	402.96	6.2774e-06	3.7741e-06	464.99	152.75	133.17	45.309	8.0785e-06	55.465	0.00050867	0.00046384	0.00012803	1522	5.0628e-06	5.1434e-06	1511.8	409.86	5.0678e-06	4.9358e-06	473.59	155.38	135.78	46.483	4.999e-06	57.159	-29.253	-74.212	-36.014	-147.983	-37.008	-12.648	-148.114	-143.672	-18.497	-25.798	-144.057	-139.695	-139.229	-134.453	-25.510	-135.137	-8191	255	
20976.090	1	1	0	0	0.21324	0.13225	0.11121	0.040438	0.050658	0.24021	0.079032	0.13041	0.19196	0.19818	0.47903	0.32716	0.25501	0.18795	0.07907	0.11644	-2.15	-3.1625	-3.0083	-2.9375	-3.3604	-2.5062	-3.0812	-3.3646	-2.3	-3.1688	-2.8958	-2.5438	-3.4625	-2.6208	-2.925	-3.4354	31.190	144.000	64.067	15.094	101.235	-105.689	154.319	104.837	-9.335	-155.253	108.413	-155.677	-159.857	194.215	-120.338	-122.531	0.00097416	0.00062764	0.00017888	1499.7	5.6084e-06	2.3063e-06	1489.1	403.1	6.8915e-06	7.9795e-06	462.46	152.48	133.68	45.14	7.242e-06	55.475	0.00049621	0.0004462	0.00012514	1523.8	5.0347e-06	5.1619e-06	1512.7	409.77	5.1395e-06	4.968e-06	473.1	155.36	135.77	46.422	5.0846e-06	57.025	-32.272	-95.087	-66.903	-147.926	-30.308	-20.754	-147.939	-143.597	-47.173	-5.734	-143.926	-139.611	-139.165	-134.607	-13.767	-135.523	-8191	255	
20976.160	1	1	0	0	0.052583	0.089935	0.1643	0.16925	0.17505	0.18937	0.26917	0.216	0.098314	0.040667	0.21136	0.15839	0.17722	0.29597	0.12971	0.11736	-2.1937	-3.1458	-2.9938	-2.8812	-3.4208	-2.5812	-2.9792	-3.5271	-2.5958	-3.1896	-3.125	-2.4646	-3.5125	-2.9375	-2.7167	-3.4813	119.425	-37.148	112.569	-148.360	127.322	2.809	180.252	106.629	-1.306	136.393	91.140	173.251	12.352	1.547	124.702	-15.739	0.00091923	0.00024665	0.00011027	1502.9	6.8384e-06	5.0223e-06	1493.7	401.98	8.1427e-06	4.6684e-06	462.07	152.31	133.38	45.075	6.3339e-06	55.498	0.00050055	0.00046889	0.00012768	1523.4	5.0131e-06	5.0584e-06	1512.8	409.3	5.0942e-06	5.1301e-06	472.67	155.27	135.85	46.367	5.0233e-06	57.044	-34.227	-78.973	-83.355	-147.984	-1.617	2.441	-148.145	-143.415	-0.611	-18.412	-144.019	-139.670	-138.646	-134.191	6.260	-135.183	-8191	255	
20976.258	1	1	0	0	0.17747	0.1646	0.17881	0.24812	0.16499	0.16759	0.16729	0.31915	0.069316	0.050374	0.34953	0.069763	0.20697	0.1975	0.20504	0.20207	-1.9667	-3.0333	-3.1875	-2.6188	-3.3479	-2.8	-2.8458	-3.4896	-2.7521	-2.9458	-3.45	-2.5229	-3.4167	-2.9958	-2.6417	-3.4542	8.218	102.267	-128.238	131.073	-90.119	0.500	145.287	106.990	66.309	98.779	97.833	-51.155	-159.306	172.900	72.930	168.247	0.00089296	0.00044491	0.00019496	1502	6.1743e-06	3.9148e-06	1488.6	400.63	9.6968e-06	6.0899e-06	464.21	152.43	133.25	45.126	6.6125e-06	55.546	0.00050196	0.00045848	0.00012582	1523.1	4.9689e-06	4.9143e-06	1511.1	409.18	5.0394e-06	5.006e-06	473.04	155.3	135.75	46.386	5.1347e-06	57.105	-26.835	-67.961	-69.967	-147.973	-10.457	-9.948	-148.121	-143.420	-8.119	3.201	-143.794	-139.462	-138.999	-134.340	-48.506	-135.407	-8191	255	
20976.354	1	1	0	0	0.053738	0.24917	0.17312	0.050261	0.10599	0.13005	0.16927	0.13951	0.11787	0.11249	0.20271	0.38919	0.2917	0.12704	0.058132	0.28143	-2.1667	-2.8542	-3.225	-2.7188	-3.2208	-2.9833	-2.7	-3.35	-2.6083	-2.6375	-3.5458	-2.6562	-3.3104	-3.05	-2.6625	-3.5354	-11.536	-12.142	-63.574	106.655	117.444	-75.809	-138.231	86.848	43.482	-18.415	178.828	-126.250	115.758	-153.185	-53.296	157.723	0.00094939	0.00064253	0.00017795	1501	4.4505e-06	6.1808e-06	1492.6	402.5	7.895e-06	5.3629e-06	464.36	152.84	133.27	45.25	3.4822e-06	55.593	0.00050901	0.00046572	0.00012815	1523.3	5.1244e-06	4.9723e-06	1513	409.52	5.0978e-06	5.0651e-06	472.65	155.46	135.9	46.432	5.078e-06	57.184	-28.812	-63.897	-59.795	-147.882	-43.248	-13.791	-147.795	-143.375	-25.405	-8.089	-143.826	-139.551	-138.922	-134.239	9.803	-135.045	-8191	255	
20976.475	1	1	0	0	0.045593	0.096352	0.075831	0.21579	0.1855	0.13411	0.21598	0.38836	0.11793	0.30108	0.22649	0.23127	0.1593	0.17138	0.22384	0.031867	-2.3875	-2.7042	-3.2229	-2.6646	-3.1333	-3.0708	-2.8146	-3.3917	-2.8812	-2.6375	-3.5375	-2.5896	-3.1188	-3.1104	-2.4333	-3.3792	-51.453	-72.257	-92.949	155.060	-58.025	24.102	130.960	113.570	-5.169	178.196	143.759	188.500	-153.347	185.396	163.270	28.472	0.00084763	0.0007175	0.00016473	1503.8	5.2741e-06	2.4528e-06	1489.5	402.04	1.0496e-05	4.905e-06	464.9	152.19	133.11	44.974	6.1107e-06	55.732	0.00050743	0.00047041	0.00012786	1524.3	5.0886e-06	4.9863e-06	1510.4	409.46	5.0251e-06	5.1299e-06	472.54	155.2	135.68	46.355	5.0613e-06	57.152	-26.009	-83.504	-88.560	-147.765	-46.464	-25.038	-148.026	-143.309	-22.118	-10.747	-143.808	-139.371	-139.246	-134.404	-7.809	-135.405	-8191	255	
20976.570	1	1	0	0	0.31794	0.17568	0.23335	0.19957	0.14611	0.021884	0.17859	0.24218	0.34116	0.22163	0.34055	0.1445	0.30457	0.1002	0.18421	0.14352	-2.3854	-2.3583	-3.3208	-2.7583	-2.7167	-3.2167	-2.6583	-3.3063	-3.0417	-2.4896	-3.4417	-2.925	-2.9562	-3.3063	-2.4437	-3.3292	-153.108	102.831	127.254	-147.301	-58.409	184.911	172.727	115.264	-131.983	-130.487	136.393	134.872	-131.438	-124.993	171.404	126.384	0.00090896	0.00040197	0.00015174	1498.3	6.6803e-06	3.6824e-06	1489.9	401.44	9.9722e-06	5.0918e-06	463.82	152.45	133.32	45.298	7.5978e-06	55.352	0.00050557	0.00046565	0.00012597	1522.8	5.1916e-06	5.1379e-06	1512.9	409.39	5.1854e-06	5.1373e-06	472.87	155.25	136.04	46.494	5.1519e-06	57.165	-29.015	-95.632	-68.613	-148.101	-37.027	-16.769	-148.131	-143.548	-23.555	1.102	-144.028	-139.753	-139.077	-134.463	-25.148	-134.896	-8191	255	
20976.668	1	1	0	0	0.15804	0.18611	0.049438	0.2205	0.26796	0.073834	0.14974	0.13998	0.18141	0.097676	0.11198	0.099152	0.3938	0.20852	0.16025	0.14745	-2.6104	-2.4396	-3.3958	-2.7938	-2.8688	-3.2646	-2.7604	-3.1229	-2.8729	-2.6063	-3.5375	-2.9458	-2.6604	-3.4896	-2.5292	-3.1854	-150.218	65.671	-16.233	169.510	-17.832	-8.135	53.297	155.685	3.969	12.273	-74.409	92.314	-115.149	194.363	140.382	-105.610	0.00087179	0.00050404	0.00016865	1502.3	3.4206e-06	3.9687e-06	1490.6	402.86	8.1399e-06	4.8606e-06	464.4	151.9	133.41	45.168	6.1991e-06	55.634	0.00051421	0.00046361	0.00012944	1524.1	5.1675e-06	5.0246e-06	1513.7	409.94	5.0975e-06	5.1809e-06	474.05	154.99	135.77	46.456	5.0165e-06	57.166	-30.153	-103.673	-87.070	-148.091	-55.481	-5.668	-148.143	-143.477	4.407	-15.605	-144.218	-139.778	-138.993	-134.256	-16.701	-135.528	-8191	255	
20976.764	1	1	0	0	0.11008	0.22703	0.17917	0.17569	0.1469	0.13544	0.26696	0.086874	0.030926	0.2216	0.026417	0.19236	0.1031	0.16714	0.12275	0.10369	-2.8729	-2.3792	-3.2646	-2.975	-2.6958	-3.4083	-2.9292	-3.075	-3.3604	-2.6958	-3.4813	-3.0104	-2.525	-3.4583	-2.5375	-2.8063	-156.625	-113.170	-58.005	196.488	41.206	-26.124	108.703	18.358	130.245	149.809	-141.867	176.840	119.424	-51.365	-138.824	62.735	0.00084806	0.0006519	0.00018777	1498.7	7.1319e-06	4.2421e-06	1494.9	402.48	7.5537e-06	5.2229e-06	463.46	151.32	133.06	45.31	3.7984e-06	55.661	0.00049287	0.00045192	0.00012217	1523	5.0051e-06	4.8427e-06	1513.6	409.84	4.8029e-06	4.7879e-06	472.95	154.89	135.63	46.484	5.0024e-06	57.18	-28.182	-83.725	-67.064	-148.006	-6.796	1.729	-148.094	-143.491	-3.811	-17.850	-144.041	-139.983	-139.137	-134.412	-18.239	-135.351	-8191	255	
20976.857	1	1	0	0	0.15527	0.2767	0.10223	0.31987	0.29991	0.056245	0.12797	0.31195	0.2153	0.18258	0.18453	0.3421	0.34462	0.22257	0.14253	0.1253	-2.8625	-2.3917	-3.0917	-3.0292	-2.5583	-3.375	-2.8	-2.8375	-3.3042	-2.5042	-3.225	-3.2083	-2.625	-3.5438	-2.5979	-2.8854	5.885	-13.640	119.353	175.007	-57.517	167.121	175.272	170.102	-59.639	22.869	48.922	189.638	131.452	-52.493	31.849	-65.309	0.00089311	0.00035021	8.5005e-05	1497.6	6.7878e-06	6.3083e-06	1494.4	402.73	6.3505e-06	7.5948e-06	462.93	152.49	132.9	45.228	8.2112e-06	55.565	0.00049153	0.00046436	0.00012479	1522.1	5.1094e-06	4.9443e-06	1514.4	410.04	5.0871e-06	5.0979e-06	473.09	155.31	135.93	46.476	5.2795e-06	57.224	-27.239	-74.496	-65.500	-148.195	6.074	-30.751	-148.314	-143.471	-5.892	-2.515	-143.962	-139.594	-139.250	-134.453	-38.402	-135.222	-8191	255	
20976.953	1	1	0	0	0.15915	0.12106	0.19692	0.32343	0.11784	0.28976	0.38205	0.1757	0.31925	0.10441	0.21725	0.18443	0.067823	0.15047	0.28437	0.072414	-2.8417	-2.4792	-3.0604	-3.2479	-2.5687	-3.1813	-3.0083	-2.8125	-3.3021	-2.5625	-3.1833	-3.2583	-2.7687	-3.3229	-2.9042	-2.8167	21.265	-87.719	-133.450	180.758	120.750	151.548	154.977	22.624	-146.484	-4.205	-136.828	67.031	-91.162	142.920	-59.586	5.485	0.00088969	0.00030668	0.00021351	1500.1	7.032e-06	5.2735e-06	1490.2	402.55	8.1245e-06	8.1753e-06	463.81	152.14	133.1	45.181	6.6505e-06	55.502	0.00052024	0.0004724	0.0001301	1524.4	5.2787e-06	5.0954e-06	1512.4	409.63	5.1734e-06	5.2537e-06	473.24	155.46	135.81	46.493	5.1336e-06	57.152	-26.376	-77.805	-70.684	-148.096	-28.448	8.387	-148.268	-143.448	-16.951	-38.069	-143.909	-139.721	-139.210	-134.578	-10.943	-135.369	-8191	255	
20977.051	1	1	0	0	0.11535	0.13953	0.08457	0.0939	0.1423	0.13004	0.20491	0.42785	0.13327	0.087538	0.078475	0.058552	0.23422	0.041962	0.27502	0.16967	-3.225	-2.6229	-2.9437	-3.5708	-2.3667	-3.4562	-3.1167	-2.7979	-3.3917	-2.4875	-3.0417	-3.2833	-2.4917	-3.2479	-3.0792	-2.5792	169.846	-90.672	-50.552	33.253	-70.057	43.054	178.870	175.247	76.861	173.065	166.990	167.329	196.377	-111.347	12.920	171.917	0.00083918	0.00058216	0.0001313	1501.8	6.2178e-06	5.1681e-06	1499.8	403.35	8.1419e-06	7.4446e-06	466.1	153.74	133.41	45.483	4.4074e-06	55.861	0.0005286	0.00048992	0.00013757	1525.7	5.5083e-06	5.4921e-06	1519.7	411.04	5.657e-06	5.8083e-06	475.47	156.14	136.47	46.706	5.9056e-06	57.473	-30.424	-106.503	-73.198	-148.176	-10.639	-21.721	-148.214	-143.564	-6.608	-19.719	-144.218	-139.830	-139.353	-134.420	-26.076	-135.163	-8191	255	
20977.170	1	1	0	0	0.36563	0.12177	0.053037	0.41632	0.12309	0.21151	0.20565	0.080244	0.34504	0.21987	0.065378	0.18173	0.10569	0.2037	0.25657	0.24175	-3.1479	-2.5208	-2.6708	-3.5208	-2.5563	-3.1562	-3.2958	-2.6625	-3.2667	-2.7604	-2.8542	-3.4021	-2.6437	-3.3104	-2.9958	-2.7625	-141.301	-158.034	-57.266	132.167	117.163	184.869	-153.993	97.497	-72.723	-82.489	59.170	50.251	189.197	-154.913	141.392	191.250	0.00085864	0.00044004	0.0001248	1514	7.4543e-06	4.974e-06	1507.9	404.67	1.0342e-05	6.6609e-06	467.04	152.78	133.85	45.453	6.9332e-06	55.468	0.00056616	0.00053656	0.00015196	1537.3	5.9861e-06	6.0097e-06	1528.2	412.23	6.0331e-06	6.0515e-06	476.72	156.45	136.76	46.787	6.0654e-06	57.361	-32.130	-81.943	-61.606	-147.978	-33.006	-11.742	-148.326	-143.785	-10.199	-19.883	-144.029	-139.756	-139.126	-134.349	-14.468	-135.320	-8191	255	
20977.266	1	1	0	0	0.19749	0.059522	0.1286	0.21971	0.10671	0.16172	0.32916	0.016082	0.17554	0.15024	0.29813	0.093776	0.29444	0.029308	0.18776	0.19269	-2.9833	-2.6479	-2.6792	-3.6354	-2.625	-3.0896	-3.3083	-2.5708	-3.3521	-2.8042	-2.7854	-3.4542	-2.7687	-3.0542	-3.2375	-2.6042	-49.008	-156.560	-118.612	165.265	-116.309	80.589	127.945	-11.456	156.864	86.539	145.069	149.400	-146.985	111.545	68.827	65.299	0.00086879	0.00055659	0.00021094	1520.1	7.1011e-06	4.9496e-06	1507.8	405.06	9.4618e-06	6.014e-06	469.2	153.75	134.75	45.566	5.2064e-06	55.743	0.00057277	0.00054908	0.00015076	1540.5	5.9549e-06	5.8478e-06	1530	412.98	5.9176e-06	5.9913e-06	477.35	156.74	137.13	46.755	5.9181e-06	57.498	-32.021	-89.226	-76.111	-148.054	-32.530	-35.615	-148.330	-143.709	-19.653	-1.646	-143.917	-139.726	-139.280	-134.388	-20.774	-135.216	-8191	255	
20977.361	1	1	0	0	0.11873	0.079938	0.20847	0.27189	0.19392	0.18198	0.38848	0.29274	0.26131	0.074351	0.36952	0.11494	0.30655	0.031828	0.29403	0.075739	-2.9	-3.0521	-2.3438	-3.5542	-2.7229	-2.9708	-3.5187	-2.5854	-3.1542	-3.1437	-2.5375	-3.3812	-2.9979	-2.775	-3.3208	-2.525	62.250	-46.558	-122.184	170.128	109.962	-29.869	171.172	117.186	-124.895	46.938	172.804	159.267	148.296	166.459	-117.565	-81.249	0.00093672	0.00049312	0.00016533	1513.7	3.083e-06	4.6339e-06	1503.4	406.14	8.4945e-06	4.5194e-06	464.67	153.79	133.96	45.399	8.4821e-06	55.897	0.00058546	0.00055293	0.00015239	1538.6	6.14e-06	5.9889e-06	1528.2	413.08	5.8508e-06	5.8668e-06	476.34	156.94	136.87	46.734	5.8206e-06	57.638	-31.607	-76.677	-73.361	-148.087	-1.361	-14.078	-148.087	-143.236	-50.977	-3.061	-143.843	-139.511	-138.883	-134.397	-30.629	-135.361	-8191	255	
20977.459	1	1	0	0	0.247	0.14414	0.31204	0.40216	0.095906	0.2092	0.46644	0.25577	0.25326	0.14236	0.14234	0.081526	0.29299	0.24466	0.19408	0.16679	-2.9188	-3.1604	-2.5062	-3.5708	-2.7313	-2.6937	-3.4896	-2.6479	-3.05	-3.0229	-2.6562	-3.2625	-2.9167	-2.6083	-3.3521	-2.6604	74.715	-21.083	163.545	178.869	111.767	175.613	94.351	105.580	51.389	-16.604	69.997	129.525	163.262	-154.919	-144.719	132.868	0.00090972	0.00030697	0.00015459	1520.3	5.5568e-06	3.17e-06	1508.2	404.87	5.977e-06	6.2736e-06	467.66	153	133.55	45.602	5.6158e-06	55.787	0.00057409	0.00054952	0.00014838	1542.3	5.9173e-06	5.9637e-06	1530	412.85	5.8888e-06	5.8852e-06	477.05	156.33	136.87	46.816	5.9227e-06	57.5	-25.900	-93.978	-70.733	-147.882	3.429	1.107	-148.041	-143.401	-31.831	-4.685	-143.703	-139.516	-139.174	-134.289	-18.103	-135.007	-8191	255	
20977.555	1	1	0	0	0.21047	0.20083	0.19592	0.22138	0.26486	0.27803	0.28623	0.14976	0.1924	0.16315	0.22315	0.20088	0.070306	0.20023	0.21396	0.14199	-2.6083	-3.2562	-2.3667	-3.325	-2.6667	-2.5167	-3.4458	-2.9042	-2.9167	-3.1021	-2.6292	-3.5187	-3.0062	-2.6771	-3.4167	-2.7417	-142.536	83.677	187.241	167.847	-94.108	149.815	115.616	-94.870	64.145	-121.411	-152.927	-68.178	-88.290	55.755	86.478	99.088	0.00092492	0.00061304	0.00023923	1514.7	9.0485e-06	3.6186e-06	1507.4	404.46	1.0285e-05	4.5639e-06	467.45	153.32	133.57	45.444	5.3755e-06	55.863	0.00057946	0.00054102	0.00015333	1540.7	6.0351e-06	6.1237e-06	1529.4	412.8	6.0832e-06	5.9862e-06	476.48	156.66	136.83	46.775	6.1259e-06	57.52	-31.002	-99.841	-80.882	-147.849	-29.797	-60.391	-147.841	-143.220	-10.680	8.245	-143.674	-139.369	-138.696	-134.099	-28.002	-135.138	-8191	255	
20977.650	1	1	0	0	0.091087	0.1704	0.098479	0.25895	0.093643	0.14897	0.16517	0.17584	0.20997	0.22269	0.23043	0.21691	0.12984	0.18223	0.015429	0.17597	-2.5542	-3.1667	-2.4354	-3.3458	-3.1146	-2.525	-3.5667	-2.9396	-2.6833	-3.3458	-2.6625	-3.1813	-3.2375	-2.6604	-3.2083	-2.8875	-16.405	-148.604	-148.517	165.227	79.551	-35.240	79.222	-109.584	196.052	-63.066	134.061	138.140	-111.199	-120.317	101.979	33.469	0.00081604	0.00058451	0.00019614	1513.9	4.7278e-06	4.4384e-06	1507	404.87	5.8024e-06	5.5679e-06	468	153.34	133.88	45.497	9.1729e-06	55.997	0.00058263	0.00055972	0.00015539	1542	6.1575e-06	6.1679e-06	1529.6	412.7	6.1616e-06	6.0693e-06	476.85	156.61	136.92	46.78	6.0314e-06	57.613	-31.610	-89.836	-53.404	-147.576	-52.248	-12.831	-147.938	-143.131	-30.482	11.311	-144.246	-139.856	-139.401	-134.538	-13.285	-135.638	-8191	255	
20977.771	1	1	0	0	0.16154	0.11392	0.122	0.05572	0.33156	0.18847	0.29137	0.099979	0.14641	0.10612	0.15598	0.20971	0.1498	0.20057	0.032329	0.11257	-2.1604	-3.3625	-2.4458	-3.3083	-3.1729	-2.6708	-3.675	-3.125	-2.7083	-3.3583	-2.6813	-2.9854	-3.3146	-2.5854	-3.3021	-2.9833	-9.323	6.718	37.822	91.187	119.684	56.731	183.545	149.692	177.359	53.397	172.664	-157.740	-151.127	192.717	-82.042	39.655	0.00097678	0.00047079	0.00013555	1515.5	4.5743e-06	2.0627e-06	1512.8	405.41	6.1414e-06	4.9178e-06	469.05	153.42	133.76	45.406	6.0461e-06	55.741	0.00058956	0.00054779	0.00015479	1542.9	6.0065e-06	6.1208e-06	1533	413.23	6.0808e-06	6.027e-06	477.36	156.61	136.89	46.777	5.9376e-06	57.585	-29.971	-79.658	-72.657	-148.168	-13.541	-38.837	-148.332	-143.929	-29.350	10.872	-144.016	-139.430	-139.185	-134.376	-26.744	-135.713	-8191	255	
20977.867	1	1	0	0	0.17386	0.16532	0.18167	0.09825	0.10758	0.12708	0.20956	0.16699	0.27991	0.084694	0.019356	0.11894	0.069543	0.39314	0.11114	0.2532	-2.1667	-3.4875	-2.6437	-2.9437	-3.2938	-2.6083	-3.5187	-3.1312	-2.4833	-3.3083	-2.7188	-2.9917	-3.4	-2.6292	-3.2417	-3.1646	59.957	194.369	-84.911	-160.309	-6.993	-99.704	56.205	133.281	126.790	-53.684	119.460	129.677	-29.578	103.500	185.973	95.611	0.00090038	0.00054907	0.00025898	1516.7	5.3823e-06	2.9647e-06	1502.1	404.24	1.0656e-05	6.724e-06	469	153.11	133.88	45.411	7.4857e-06	55.951	0.00058614	0.0005422	0.00015569	1542.2	6.0185e-06	6.0415e-06	1528.1	412.78	6.0692e-06	5.9212e-06	476.6	156.84	136.89	46.721	6.1015e-06	57.596	-26.605	-88.107	-63.020	-148.223	-14.358	-19.402	-148.363	-143.854	-12.416	7.437	-144.111	-139.839	-139.547	-134.448	-31.185	-135.614	-8191	255	
20977.963	1	1	0	0	0.16594	0.13523	0.42463	0.047012	0.21634	0.066967	0.042184	0.24098	0.14548	0.11889	0.016603	0.18993	0.16591	0.11364	0.31702	0.26833	-1.9854	-3.2188	-2.7021	-3.0042	-3.4	-2.5708	-3.2792	-3.2958	-2.3771	-3.3771	-3.0062	-2.5917	-3.4333	-2.6792	-2.9375	-3.3729	-34.373	-2.440	190.684	131.394	175.050	174.673	177.422	153.895	-113.163	-31.284	-29.948	-155.370	-120.185	197.676	150.222	151.908	0.00092807	0.00029927	7.7969e-05	1520.9	8.1102e-06	6.0882e-06	1501.9	404.74	8.5212e-06	5.8205e-06	466.56	153.51	133.42	45.463	2.6218e-06	55.771	0.00057294	0.00054055	0.00014944	1542.5	5.824e-06	5.856e-06	1527.7	412.92	5.783e-06	5.7905e-06	476.1	156.49	136.57	46.785	5.8871e-06	57.604	-31.923	-93.304	-87.761	-148.254	-26.268	-1.468	-148.420	-143.870	-32.388	-18.003	-144.323	-140.039	-139.379	-134.708	8.438	-135.594	-8191	255	
20978.059	1	1	0	0	0.19527	0.1238	0.17281	0.13846	0.28288	0.11393	0.23158	0.15502	0.23602	0.088376	0.29268	0.145	0.06228	0.11007	0.16398	0.043059	-2.2	-3.2	-2.7979	-2.8771	-3.3229	-2.6292	-3.2604	-3.2833	-2.3958	-3.2479	-2.9854	-2.6896	-3.4229	-2.6521	-2.9521	-3.4292	21.204	-30.521	-67.065	171.802	81.624	106.001	166.107	127.492	137.467	4.998	146.602	32.077	92.709	106.270	198.050	128.751	0.00089345	0.00045956	0.00018896	1512.3	3.7216e-06	6.6418e-06	1504.5	405.25	3.436e-06	5.1047e-06	465.67	153.17	133.64	45.453	6.5542e-06	55.818	0.00056699	0.0005228	0.00014527	1539	5.8673e-06	5.8532e-06	1527.3	412.96	5.6831e-06	5.7886e-06	475.79	156.46	136.53	46.75	5.7073e-06	57.478	-32.585	-67.561	-70.392	-148.224	18.747	3.646	-148.415	-143.755	-16.804	21.130	-144.416	-139.889	-139.623	-134.659	0.018	-135.509	-8191	255	
20978.133	1	1	0	0	0.13821	0.2505	0.22733	0.42434	0.074871	0.085625	0.089699	0.084401	0.25491	0.11926	0.038838	0.14558	0.094287	0.19365	0.14527	0.14003	-2.1125	-2.9104	-2.9771	-2.7313	-3.3208	-2.6	-3.0812	-3.3646	-2.4333	-3.175	-3.2896	-2.425	-3.425	-2.9062	-2.6813	-3.4396	180.204	-144.853	-156.162	149.740	-89.127	130.112	85.890	140.458	116.882	159.080	156.967	0.622	65.893	55.437	-104.458	-155.338	0.00093314	0.00067013	0.00024317	1512.7	4.7943e-06	5.1915e-06	1504.3	404.4	6.2431e-06	4.2366e-06	465.67	153.49	134.09	45.352	5.1016e-06	55.783	0.00057091	0.00053059	0.0001471	1536.7	5.8034e-06	5.778e-06	1528.8	412.83	5.7917e-06	5.6921e-06	475.8	156.44	137.05	46.713	5.8192e-06	57.466	-32.745	-78.877	-64.570	-148.199	-6.132	0.265	-148.285	-143.951	1.976	-7.659	-144.331	-139.894	-139.551	-134.741	6.241	-135.812	-8191	255	
20978.252	1	1	0	0	0.17649	0.088033	0.16763	0.10071	0.14967	0.09685	0.041518	0.23697	0.088227	0.032482	0.22165	0.029	0.11856	0.076797	0.15727	0.24518	-2.3625	-3.0083	-3.0438	-2.6583	-3.2083	-2.9375	-2.8937	-3.5333	-2.5333	-3.0833	-3.3104	-2.6063	-3.3104	-2.9938	-2.5146	-3.5229	-112.876	-36.142	33.801	186.531	55.503	-154.432	22.282	131.214	94.989	137.985	83.625	-4.170	181.892	90.776	-104.876	191.426	0.00088309	0.00050991	0.00019344	1512.3	4.6685e-06	3.7444e-06	1504.8	405.19	1.0083e-05	7.3324e-06	465.77	153.15	134.45	45.48	6.9079e-06	55.666	0.00057098	0.0005303	0.00014587	1537.3	5.7369e-06	5.7536e-06	1528.7	412.72	5.9016e-06	5.7532e-06	476.36	156.55	136.89	46.764	5.8681e-06	57.346	-32.838	-90.919	-62.498	-148.214	-22.282	-23.959	-148.306	-143.895	-31.526	-13.361	-144.252	-140.020	-139.144	-134.547	-9.043	-135.371	-8191	255	
20978.348	1	1	0	0	0.089264	0.056047	0.18836	0.32502	0.23227	0.1638	0.30356	0.30665	0.16888	0.10348	0.22926	0.10842	0.35042	0.051185	0.33726	0.23652	-2.2417	-2.8417	-3.1271	-2.7271	-3.2896	-2.8583	-2.5917	-3.3292	-2.6583	-2.95	-3.3146	-2.5604	-3.1583	-3.1083	-2.5875	-3.5	-62.663	-10.826	-47.916	141.318	1.910	-90.513	-153.467	146.906	51.085	-4.437	-102.696	151.471	-154.437	146.055	160.526	140.202	0.00093369	0.00056218	0.00016703	1517.9	5.6278e-06	4.6566e-06	1508.1	404.35	6.5158e-06	8.0403e-06	465.87	152.84	133.84	45.38	5.2699e-06	55.796	0.00056704	0.00054288	0.0001469	1541	5.9471e-06	5.8938e-06	1529.6	412.4	5.8793e-06	6.0351e-06	476.02	156.64	136.85	46.719	5.8189e-06	57.514	-35.269	-125.146	-70.924	-148.136	-34.305	-11.343	-148.346	-143.807	-7.109	-26.023	-144.157	-140.136	-139.431	-134.527	11.032	-135.649	-8191	255	
20978.443	1	1	0	0	0.26274	0.10357	0.081554	0.18227	0.25786	0.15164	0.21884	0.31736	0.17548	0.18529	0.087701	0.14049	0.14629	0.16267	0.1128	0.14805	-2.3104	-2.5083	-3.2521	-2.5833	-2.9521	-3.0271	-2.6729	-3.5542	-2.9271	-2.7792	-3.35	-2.7812	-2.9688	-3.2417	-2.3812	-3.4813	-94.441	-2.163	-35.948	98.648	-80.194	52.600	123.339	118.296	140.781	53.662	192.500	-138.334	133.988	52.417	126.113	182.143	0.00092837	0.00071123	0.00017491	1513.1	5.6074e-06	4.5907e-06	1502.4	405.93	9.4904e-06	3.7874e-06	467.22	152.86	134.11	45.356	5.0357e-06	55.886	0.00057173	0.0005376	0.00014469	1539.7	6.0479e-06	5.8431e-06	1528.4	413.11	5.8921e-06	5.8259e-06	477	156.39	136.86	46.671	5.7617e-06	57.501	-27.977	-75.114	-70.199	-148.116	-43.989	16.601	-148.317	-143.779	-16.971	-20.755	-144.300	-140.013	-139.398	-134.425	15.880	-135.331	-8191	255	
20978.539	1	1	0	0	0.41768	0.11364	0.030574	0.26478	0.10555	0.026795	0.25341	0.1583	0.13979	0.30298	0.077817	0.13449	0.20135	0.085416	0.13759	0.13529	-2.3896	-2.675	-3.2646	-2.6854	-2.9479	-3.3042	-2.6708	-3.1833	-2.7313	-2.7396	-3.4208	-2.7854	-3.0604	-3.4437	-2.4896	-3.2521	-129.457	8.284	-100.338	114.647	-8.897	-34.184	175.359	193.747	-101.885	69.449	-117.254	13.422	-146.881	-135.451	155.076	-102.177	0.00083616	0.00024282	0.00019905	1520.6	6.6241e-06	3.5635e-06	1500.4	404.66	7.8154e-06	6.3108e-06	466.9	153.05	133.76	45.384	7.7134e-06	55.442	0.00056904	0.00053471	0.00014492	1540.2	5.8025e-06	5.7621e-06	1527.5	412.73	5.7274e-06	5.7633e-06	475.94	156.31	136.64	46.759	5.8363e-06	57.383	-28.587	-79.819	-74.794	-148.095	-16.649	12.799	-148.269	-143.674	-12.080	-0.268	-144.022	-139.947	-139.404	-134.649	-13.927	-135.679	-8191	255	
20978.660	1	1	0	0	0.15666	0.38129	0.022911	0.25429	0.10901	0.01113	0.43437	0.089933	0.24171	0.073866	0.1756	0.36281	0.23307	0.084989	0.30204	0.058175	-2.6083	-2.5229	-3.4062	-2.8583	-2.8229	-3.3792	-2.7625	-3.3083	-2.9854	-2.4771	-3.3771	-3.0333	-2.8771	-3.2583	-2.525	-3.1479	93.603	190.788	175.148	191.433	39.082	-148.183	144.171	-77.420	53.317	-24.178	-150.909	140.257	173.988	115.963	102.118	140.553	0.00090276	0.00052703	0.00015032	1515.8	4.8837e-06	5.273e-06	1503.1	405.22	6.3775e-06	8.1667e-06	467.8	153.23	133.63	45.404	5.7349e-06	55.923	0.00056647	0.00053337	0.00014641	1540	5.9364e-06	5.7624e-06	1528.3	412.53	5.8139e-06	5.8623e-06	477.07	156.56	136.52	46.694	5.8407e-06	57.556	-30.037	-67.703	-52.741	-148.079	-21.913	-17.591	-148.571	-143.491	-29.986	-37.543	-144.541	-140.356	-139.621	-135.149	-34.709	-135.842	-8191	255	
20978.730	1	1	0	0	0.15796	0.25532	0.058973	0.30301	0.1253	0.22839	0.23393	0.025637	0.32358	0.19576	0.1929	0.43147	0.20638	0.15125	0.023578	0.33076	-2.6708	-2.4917	-3.3312	-2.9479	-2.5979	-3.4333	-2.6375	-3.0312	-3.2604	-2.3812	-3.3688	-2.9813	-2.6854	-3.4771	-2.6208	-3.0479	147.025	34.168	148.438	177.385	-94.811	-61.108	119.066	50.543	-129.008	168.673	133.764	179.005	-137.877	178.279	-138.093	152.447	0.00085492	0.00065037	0.00014002	1516.1	3.152e-06	4.1327e-06	1498.3	403.88	6.5774e-06	8.7384e-06	466.27	152.68	134.01	45.278	7.1955e-06	55.59	0.00056829	0.0005344	0.00014569	1538.4	5.846e-06	5.6657e-06	1525.7	412.2	5.6538e-06	5.8274e-06	476.43	156.26	136.83	46.705	5.7786e-06	57.42	-31.963	-76.309	-62.060	-148.625	-7.473	-35.224	-148.800	-144.188	-12.727	-26.044	-144.511	-140.166	-139.791	-135.093	-26.784	-135.945	-8191	255	
20978.852	1	1	0	0	0.15526	0.36658	0.05935	0.34133	0.20495	0.092415	0.19921	0.15147	0.078953	0.053916	0.23075	0.14999	0.10767	0.083715	0.24409	0.15833	-2.85	-2.5021	-3.1292	-3.1646	-2.5375	-3.4417	-2.9417	-2.925	-3.0438	-2.5542	-3.3417	-2.9771	-2.6458	-3.2958	-2.6729	-2.8396	156.740	152.885	5.637	-148.527	126.082	-145.593	87.313	-111.329	-122.687	-11.957	162.753	144.792	-41.205	183.338	-161.310	175.682	0.0008939	0.00049651	0.00012808	1507.4	8.4462e-06	5.2843e-06	1502.7	404.84	8.9638e-06	6.3518e-06	467.08	153.01	133.66	45.44	6.2879e-06	55.837	0.00055615	0.00053036	0.00014724	1536.2	5.8957e-06	5.6779e-06	1527.7	413.04	5.7752e-06	5.6995e-06	476.66	156.34	136.64	46.762	5.7233e-06	57.468	-31.723	-103.853	-63.007	-148.682	-31.047	-11.662	-148.812	-144.092	-15.568	-34.038	-144.638	-140.360	-139.839	-134.956	-8.029	-135.915	-8191	255	
20978.947	1	1	0	0	0.22702	0.20406	0.065002	0.27124	0.30405	0.16684	0.27565	0.34174	0.12486	0.15246	0.1843	0.081926	0.12081	0.10477	0.18228	0.13304	-2.9354	-2.3708	-3.075	-3.275	-2.35	-3.2938	-2.9083	-2.8042	-3.3125	-2.6437	-3.2583	-3.3063	-2.5854	-3.4271	-2.7729	-2.7833	-104.407	162.180	-135.758	175.840	25.724	-102.296	131.452	178.650	167.605	-127.277	120.346	-104.448	-97.662	135.991	-8.986	142.274	0.00087103	0.00069978	0.00020007	1511.1	5.6783e-06	2.0954e-06	1496.7	405.82	6.6849e-06	3.794e-06	466.82	153.16	133.41	45.441	8.5065e-06	55.786	0.00055377	0.00053553	0.00014468	1538.5	5.9021e-06	5.6046e-06	1524.3	413.22	5.7758e-06	5.8061e-06	476.26	156.58	136.49	46.787	5.6563e-06	57.458	-31.107	-65.029	-67.495	-148.698	-16.370	-12.280	-148.732	-144.049	-25.012	-60.915	-144.602	-140.437	-139.899	-134.996	-15.202	-136.210	-8191	255	
20979.043	1	1	0	0	0.24668	0.20502	0.13419	0.16146	0.19676	0.080094	0.16741	0.28824	0.21196	0.013759	0.15299	0.24167	0.034886	0.32223	0.2283	0.14815	-3.0354	-2.475	-2.8854	-3.3563	-2.4188	-3.2771	-3.0667	-2.5896	-3.2792	-2.5854	-2.9188	-3.1542	-2.3521	-3.225	-2.9979	-2.6521	167.042	5.743	163.263	165.258	-152.923	166.918	94.781	142.339	-87.738	156.323	-152.555	-155.468	-23.493	127.068	39.079	125.162	0.00095684	0.00057148	0.00022591	1518	6.132e-06	5.4974e-06	1501.8	405	7.6204e-06	4.5391e-06	466.81	153.42	134.03	45.557	6.9254e-06	55.915	0.00055275	0.00051739	0.00014313	1538.5	5.8391e-06	5.6776e-06	1526.2	412.32	5.6389e-06	5.608e-06	476.29	156.37	136.65	46.752	5.6207e-06	57.41	-25.959	-108.859	-84.044	-148.465	-27.141	12.607	-148.792	-144.192	-12.791	27.468	-144.479	-140.376	-139.913	-134.716	-20.373	-135.862	-8191	255	
20979.139	1	1	0	0	0.073445	0.096309	0.12865	0.30283	0.15854	0.17564	0.24122	0.10304	0.10696	0.26497	0.18859	0.13624	0.23428	0.18769	0.17384	0.22674	-2.8958	-2.6542	-2.7292	-3.3625	-2.45	-3.2292	-3.2979	-2.5771	-3.2	-2.6208	-2.8083	-3.3167	-2.6104	-3.0354	-3.1208	-2.6521	142.438	96.128	66.093	139.265	-142.728	-152.696	141.264	175.795	130.467	73.602	112.820	105.181	131.905	122.989	-153.143	154.577	0.00095456	0.00057088	0.00018122	1509.8	7.2226e-06	6.955e-06	1506.5	404.03	1.0911e-05	6.5236e-06	466.8	153.72	134.08	45.593	8.4031e-06	55.411	0.00056239	0.00052943	0.00014549	1537.8	5.7192e-06	5.695e-06	1528.7	412.23	5.703e-06	5.7344e-06	476.07	156.52	136.98	46.803	5.7182e-06	57.361	-33.519	-86.605	-80.443	-148.665	-46.421	-16.197	-149.006	-144.066	-25.186	-18.085	-144.599	-140.311	-139.935	-134.868	-15.566	-135.831	-8191	255	
20979.260	1	1	0	0	0.061022	0.18814	0.24239	0.24917	0.065601	0.14722	0.20639	0.27465	0.12651	0.11394	0.16992	0.187	0.21726	0.12006	0.28718	0.13066	-3.0125	-2.5292	-2.5917	-3.5146	-2.5229	-3.0958	-3.25	-2.5771	-3.3146	-2.9729	-2.7104	-3.3667	-2.5854	-3.0771	-3.3771	-2.7521	-140.100	-66.001	-28.132	93.316	33.874	142.230	164.507	175.690	90.991	171.021	109.351	-40.928	-141.881	186.312	-21.048	159.313	0.00095353	0.00012306	0.00014935	1512.6	4.5613e-06	5.0769e-06	1501.2	404.17	6.7367e-06	6.4647e-06	466.33	153.58	133.6	45.334	6.4351e-06	55.788	0.00055704	0.00052636	0.00014678	1538.8	5.7449e-06	5.6055e-06	1526.7	412.49	5.6289e-06	5.5678e-06	475.89	156.47	136.7	46.695	5.5922e-06	57.466	-31.986	-94.546	-49.753	-148.535	-11.281	21.719	-148.975	-144.151	-18.364	-18.339	-144.618	-140.361	-139.678	-134.838	-8.986	-136.161	-8191	255	
20979.330	1	1	0	0	0.14109	0.096376	0.25542	0.2747	0.093396	0.17465	0.35783	0.077092	0.066987	0.21787	0.18983	0.09632	0.17339	0.2148	0.12265	0.15241	-2.7646	-2.8604	-2.4208	-3.3812	-2.6625	-2.7854	-3.5208	-2.5167	-3.2646	-3.0062	-2.6833	-3.3438	-2.6667	-2.7229	-3.2812	-2.6271	4.844	28.623	24.548	164.430	-124.997	-42.148	154.744	62.664	-46.064	151.066	182.433	127.325	196.246	-12.803	-60.844	-121.058	0.00092408	0.00021467	0.00020236	1514.5	4.3419e-06	6.6927e-06	1505.7	404.19	9.1654e-06	7.8243e-06	466.27	153.08	133.62	45.525	5.9694e-06	55.784	0.0005596	0.00052094	0.00014702	1537.2	5.7158e-06	5.5911e-06	1527.6	412.46	5.6918e-06	5.6249e-06	475.7	156.13	136.45	46.732	5.5672e-06	57.52	-29.084	-68.868	-48.335	-148.531	-21.173	-14.954	-148.970	-144.276	-33.106	13.955	-144.708	-140.356	-139.791	-134.824	-12.479	-135.865	-8191	255	
20979.451	1	1	0	0	0.26459	0.27642	0.20071	0.20439	0.16157	0.16712	0.13779	0.073887	0.12447	0.021512	0.16244	0.09266	0.20057	0.11896	0.10494	0.10902	-2.6625	-2.9792	-2.3875	-3.35	-2.4354	-2.7229	-3.3521	-2.4417	-3.0646	-2.9875	-2.6604	-3.2438	-2.8708	-2.8187	-3.3563	-2.7354	135.861	151.512	-43.656	132.468	-64.444	115.549	-16.777	124.070	108.181	-19.732	158.470	150.907	-149.720	-84.221	-90.699	122.655	0.00086254	0.00044326	0.00022383	1513	8.5541e-06	5.339e-06	1499.5	404.59	7.7263e-06	6.9809e-06	465.85	153.3	134	45.4	1.0355e-05	55.865	0.00054819	0.0005128	0.00014171	1536.4	5.7237e-06	5.6681e-06	1526.7	412.53	5.6023e-06	5.6469e-06	475.93	156.29	136.79	46.682	5.5588e-06	57.407	-30.514	-69.547	-78.242	-148.536	-24.642	-30.560	-148.822	-144.004	12.159	-17.335	-144.652	-140.370	-139.778	-135.181	1.008	-135.959	-8191	255	
20979.549	1	1	0	0	0.1833	0.24098	0.17718	0.19471	0.17096	0.30755	0.29841	0.15386	0.099983	0.12134	0.31334	0.20484	0.11896	0.13928	0.030745	0.74712	-2.5333	-3.0312	-2.4562	-3.3688	-2.8	-2.6688	-3.5354	-2.6958	-2.9167	-3.225	-2.4667	-3.1354	-2.9667	-2.6542	-3.0854	-2.6312	16.326	-13.037	137.774	178.713	128.583	166.157	162.767	110.896	-35.998	-49.976	157.253	130.607	125.040	1.329	156.902	145.901	0.00090252	0.00044421	0.00018602	1513.4	5.7557e-06	4.5659e-06	1500.5	404.42	6.168e-06	5.6407e-06	468.15	152.86	133.61	45.332	2.6313e-06	55.619	0.00055889	0.00052486	0.00014517	1536.6	5.6917e-06	5.5467e-06	1524.5	412.07	5.6078e-06	5.5203e-06	476.24	156.31	136.47	46.739	5.6941e-06	57.396	-29.486	-79.288	-53.732	-148.651	-16.150	-57.519	-148.675	-144.166	12.508	-39.819	-144.510	-140.391	-139.824	-135.038	-45.855	-135.871	-8191	255	
20979.645	1	1	0	0	0.12048	0.1737	0.1513	0.11673	0.23112	0.080595	0.22452	0.3898	0.048145	0.19472	0.39508	0.21126	0.13156	0.38211	0.16608	0.051177	-2.5417	-3.1271	-2.2417	-3.4229	-2.8667	-2.6083	-3.3854	-2.6063	-2.7812	-3.2292	-2.525	-3.125	-3.1021	-2.6417	-3.1896	-2.7875	153.383	176.631	75.231	121.364	20.194	-116.644	76.503	151.257	22.025	129.292	106.196	138.134	131.274	-152.252	182.792	-63.456	0.00084893	0.00031956	0.00015467	1509.7	6.1563e-06	5.9391e-06	1496.6	403.33	7.2636e-06	3.5361e-06	465.58	152.52	134.05	45.337	3.1793e-06	55.721	0.00055323	0.00051084	0.00014495	1536.8	5.6733e-06	5.6637e-06	1524.6	411.73	5.6417e-06	5.6433e-06	475.61	156.17	136.62	46.681	5.6719e-06	57.378	-33.962	-74.391	-66.224	-148.556	-15.995	13.873	-148.705	-144.304	-9.172	2.945	-144.502	-140.268	-139.628	-135.032	-2.806	-136.016	-8191	255	
20979.740	1	1	0	0	0.14257	0.096381	0.28155	0.26157	0.28738	0.26051	0.07512	0.08019	0.079325	0.10841	0.070884	0.19183	0.10209	0.19967	0.1472	0.053997	-2.2333	-3.2	-2.2708	-3.1104	-3.0104	-2.275	-3.4188	-2.8417	-2.4375	-3.2792	-2.5104	-3.1354	-3.1521	-2.525	-3.2	-2.875	-75.276	-13.950	-111.125	143.556	-126.809	184.156	189.406	80.638	153.194	-119.160	-113.697	-77.457	30.069	95.077	54.520	90.424	0.00086757	0.00038509	0.00014627	1508.9	5.7935e-06	4.459e-06	1501.8	404.51	6.0951e-06	5.8158e-06	467.15	152.6	133.44	45.261	7.8664e-06	55.594	0.00055253	0.00052468	0.00014372	1536.2	5.7371e-06	5.6154e-06	1525.9	412.16	5.7329e-06	5.5323e-06	475.82	156.37	136.34	46.732	5.5704e-06	57.349	-26.251	-64.576	-64.499	-148.598	-47.372	-32.615	-148.704	-144.145	-8.950	-23.876	-144.657	-140.398	-140.005	-135.246	-46.266	-135.774	-8191	255	
20979.836	1	1	0	0	0.021498	0.21785	0.17385	0.098506	0.085087	0.23498	0.14909	0.014908	0.28087	0.11363	0.055512	0.096547	0.1687	0.38187	0.19593	0.34182	-2.1667	-3.2729	-2.5104	-3.0938	-3.0167	-2.45	-3.3417	-3.0563	-2.5167	-3.4375	-2.7313	-2.925	-3.1917	-2.3875	-3.0583	-3.15	-60.791	119.370	135.040	197.756	108.112	7.609	-30.102	19.528	-110.664	73.217	57.377	-48.363	170.768	-146.132	149.967	100.061	0.00089053	0.00053585	0.00011269	1508.3	9.8325e-06	6.5904e-06	1505.2	404.27	8.9118e-06	3.5153e-06	465.57	152.97	134.17	45.384	7.1317e-06	55.805	0.00055176	0.00051973	0.00014646	1535.8	5.7163e-06	5.7376e-06	1526.6	412.3	5.7006e-06	5.5757e-06	475.38	156.24	136.8	46.671	5.6556e-06	57.414	-29.383	-102.927	-66.493	-148.560	-18.122	-12.372	-148.821	-144.154	-6.548	-9.871	-144.640	-140.456	-139.880	-135.091	-20.078	-135.862	-8191	255	
20979.955	1	1	0	0	0.15543	0.11779	0.39647	0.27335	0.21356	0.10611	0.10826	0.1614	0.057536	0.18244	0.25975	0.063939	0.13605	0.037022	0.15275	0.10569	-1.9333	-3.325	-2.5146	-2.9146	-3.325	-2.4771	-3.1813	-3.2438	-2.6	-3.2167	-2.7812	-2.7938	-3.3625	-2.6146	-3.0917	-3.1479	80.872	127.051	132.795	83.285	-18.672	129.521	-0.191	70.800	42.502	-74.535	123.903	192.646	185.636	-61.266	-54.205	82.449	0.00092539	0.00065891	0.00020233	1510.5	6.9617e-06	3.4203e-06	1499.3	404.37	6.7356e-06	3.7528e-06	466.46	153.12	134.04	45.512	5.4931e-06	55.505	0.00055011	0.00051757	0.00014559	1535.9	5.5681e-06	5.6499e-06	1524.4	412.14	5.7272e-06	5.6734e-06	475.56	156.36	136.54	46.671	5.6573e-06	57.377	-27.639	-70.955	-79.385	-148.655	-39.193	-13.969	-148.665	-144.173	-28.545	-32.149	-144.815	-140.291	-139.817	-134.947	-49.113	-136.096	-8191	255	
20980.027	1	1	0	0	0.11113	0.067261	0.15114	0.30207	0.2474	0.28389	0.37787	0.30765	0.18499	0.12487	0.19144	0.219	0.43871	0.093336	0.094711	0.29625	-2.0354	-3.1417	-2.8771	-2.8146	-3.15	-2.4229	-3.1	-3.1833	-2.3063	-3.0833	-3	-2.5917	-3.2833	-2.7333	-2.8312	-3.3229	16.753	91.878	101.220	177.399	-96.341	117.244	132.014	165.846	38.085	104.557	169.162	165.987	108.658	139.624	149.696	196.641	0.00092381	0.00044923	0.00013313	1511	7.7896e-06	3.9115e-06	1496.7	401.39	9.505e-06	6.151e-06	466.07	152.98	133.44	45.312	5.0362e-06	55.818	0.00055738	0.00051755	0.00014108	1535.3	5.5885e-06	5.5811e-06	1524	411.73	5.7512e-06	5.6056e-06	475.66	156.33	136.47	46.623	5.5758e-06	57.407	-31.798	-82.588	-103.996	-148.667	-5.583	-19.749	-148.637	-144.201	-2.301	-0.810	-144.572	-140.269	-139.800	-134.925	-34.488	-135.936	-8191	255	
20980.123	1	1	0	0	0.1041	0.16815	0.1469	0.31776	0.18255	0.29211	0.31512	0.14079	0.24451	0.24747	0.037396	0.075396	0.1519	0.10036	0.292	0.24026	-2.1875	-3.1875	-2.9437	-2.7083	-3.3708	-2.5104	-2.9396	-3.3042	-2.5292	-3.0396	-3.1271	-2.6167	-3.4062	-2.9167	-2.7188	-3.3812	-95.358	103.534	-65.146	150.112	-49.717	22.807	153.254	178.869	133.853	-136.960	163.881	121.125	-12.366	63.317	137.533	159.114	0.00094967	0.00085627	0.00015896	1507.6	4.8845e-06	5.8893e-06	1497.8	402.59	8.6117e-06	4.4905e-06	466.56	152.67	133.29	45.181	5.152e-06	55.704	0.00054939	0.00050525	0.0001407	1534.6	5.6695e-06	5.4439e-06	1524.1	411.6	5.576e-06	5.5518e-06	475.15	156.03	136.26	46.586	5.589e-06	57.347	-31.863	-56.027	-85.179	-148.631	-21.968	-25.710	-148.685	-144.097	-31.868	-4.343	-144.685	-140.237	-139.829	-135.117	-18.213	-135.860	-8191	255	
20980.219	1	1	0	0	0.24852	0.2499	0.1132	0.32959	0.17678	0.20997	0.29446	0.092975	0.15991	0.14068	0.13753	0.035505	0.18211	0.12646	0.1255	0.18029	-2.2792	-2.9958	-2.9562	-2.7125	-3.2792	-2.7021	-2.9104	-3.3875	-2.4021	-3.0208	-3.1292	-2.5958	-3.4229	-3.1271	-2.5458	-3.4437	81.097	37.932	-123.744	176.190	30.371	-69.750	152.619	-141.254	130.463	159.267	161.381	-144.717	188.869	-147.328	34.649	160.717	0.00091209	0.00069386	9.7483e-05	1508.5	7.5961e-06	3.8365e-06	1499.4	403.3	9.2354e-06	4.2987e-06	463.36	152.83	134.12	45.15	7.717e-06	55.841	0.00054016	0.00051131	0.0001397	1533.5	5.496e-06	5.4612e-06	1524.7	411.21	5.4979e-06	5.4729e-06	474.66	155.81	136.69	46.574	5.6121e-06	57.338	-31.784	-82.131	-83.367	-148.592	-18.171	1.820	-148.679	-144.241	-9.986	-7.596	-144.801	-140.400	-139.708	-135.092	-6.147	-135.852	-8191	255	
20980.340	1	1	0	0	0.12778	0.048434	0.14884	0.32095	0.24521	0.17096	0.38458	0.19364	0.20692	0.042652	0.29697	0.23299	0.103	0.2702	0.30155	0.28052	-2.2458	-2.7167	-3.2562	-2.575	-3.1667	-2.8792	-2.9896	-3.4729	-2.6771	-2.7687	-3.3104	-2.5417	-3.2146	-3.0729	-2.4229	-3.3667	-58.063	-109.411	-33.123	-155.226	139.123	177.554	126.749	105.429	157.751	-84.642	77.630	171.730	191.507	152.177	0.806	31.171	0.00094199	0.00060674	0.0002188	1509.5	7.9477e-06	4.8292e-06	1497	402.78	7.3427e-06	5.5367e-06	466.11	152.26	133.13	45.462	5.7669e-06	56.03	0.00054698	0.00050618	0.00013937	1533.6	5.6108e-06	5.5681e-06	1523.5	411.42	5.6099e-06	5.5732e-06	474.8	155.93	136.24	46.673	5.5641e-06	57.442	-29.815	-88.651	-66.297	-148.599	2.948	-8.849	-148.763	-143.971	-22.851	8.246	-144.506	-140.153	-139.909	-134.842	-17.597	-135.870	-8191	255	
20980.436	1	1	0	0	0.30609	0.16382	0.13455	0.3528	0.1645	0.10417	0.22353	0.2778	0.10775	0.17259	0.21387	0.15316	0.3947	0.12939	0.13512	0.16068	-2.3125	-2.6542	-3.2687	-2.5729	-3.0979	-3.0125	-2.7375	-3.4542	-2.5646	-2.6854	-3.4146	-2.4229	-3.1146	-2.9208	-2.3521	-3.2396	-122.062	-1.971	102.453	185.956	-109.518	169.805	-151.397	188.987	-39.729	-78.066	135.144	164.647	-115.343	26.239	88.337	138.234	0.00083447	0.00045621	0.000119	1507.5	4.7061e-06	7.2711e-06	1501.3	403.69	5.4901e-06	6.0782e-06	464.74	152.64	133.7	45.531	6.1803e-06	55.477	0.00054336	0.00050414	0.00013902	1534.7	5.5305e-06	5.4889e-06	1524.2	411.72	5.5877e-06	5.4637e-06	474.33	155.94	136.62	46.692	5.4465e-06	57.33	-26.640	-74.959	-71.540	-148.595	-21.575	9.318	-148.793	-143.943	-24.185	-17.685	-144.728	-140.499	-139.804	-134.928	-28.283	-136.149	-8191	255	
20980.531	1	1	0	0	0.12624	0.093329	0.23495	0.17616	0.36499	0.093845	0.12396	0.11422	0.26604	0.051439	0.075673	0.0087656	0.14952	0.18628	0.10694	0.23324	-2.3646	-2.5792	-3.3833	-2.8229	-2.9708	-3.0062	-2.7021	-3.1583	-2.6396	-2.6479	-3.3083	-2.7271	-2.9958	-3.3521	-2.2521	-3.1937	4.265	-76.590	128.130	107.744	-44.491	-155.066	106.014	160.808	124.149	90.050	143.713	189.336	189.898	157.505	72.621	146.967	0.00087748	0.00036976	0.00019153	1511.4	6.7805e-06	2.5172e-06	1498.4	403.55	4.8552e-06	5.9413e-06	464.72	152.95	133.42	45.288	3.56e-06	55.557	0.0005397	0.00050173	0.00013663	1533.4	5.6146e-06	5.4137e-06	1523.6	411.46	5.4889e-06	5.588e-06	475.61	156	136.55	46.629	5.4937e-06	57.405	-31.299	-57.427	-74.296	-148.759	-23.984	-30.473	-148.761	-144.143	2.031	-26.444	-144.742	-140.438	-139.583	-134.914	-19.329	-136.083	-8191	255	
20980.629	1	1	0	0	0.1276	0.2433	0.23885	0.42182	0.18691	0.16061	0.27842	0.2826	0.30848	0.10521	0.25012	0.19227	0.083075	0.20191	0.19181	0.21765	-2.4833	-2.5833	-3.3875	-2.7	-2.7062	-3.1937	-2.5625	-3.1125	-2.8937	-2.3104	-3.3125	-2.7583	-2.8083	-3.3167	-2.4521	-3.0854	-132.054	-49.525	40.919	135.860	41.316	156.281	159.042	115.118	111.409	-135.790	181.934	-73.953	168.421	109.340	144.937	140.888	0.00087033	0.00054458	0.00016645	1509	5.7917e-06	3.8632e-06	1497	404.8	9.3608e-06	3.3315e-06	465.79	152.76	133.98	45.355	5.5295e-06	55.725	0.00054619	0.00050976	0.00013848	1532.7	5.6446e-06	5.3356e-06	1521.7	411.81	5.4229e-06	5.5365e-06	474.98	156.12	136.4	46.636	5.4872e-06	57.472	-31.794	-98.477	-56.294	-148.622	-18.342	7.542	-148.723	-144.285	-14.380	-14.526	-144.789	-140.353	-139.776	-134.992	-33.711	-136.096	-8191	255	
20980.725	1	1	0	0	0.15422	0.15243	0.1001	0.19412	0.050913	0.11575	0.26785	0.14502	0.18746	0.063084	0.2098	0.20776	0.10732	0.082778	0.022404	0.29927	-2.875	-2.4333	-3.1792	-3.1146	-2.6292	-3.2521	-2.5833	-3.0938	-3.0708	-2.4958	-3.3604	-2.8208	-2.8292	-3.3187	-2.5292	-3.0563	189.876	-158.067	-51.459	169.954	-145.303	-159.632	161.197	133.255	79.429	140.454	110.627	-94.833	192.712	124.849	-107.170	96.711	0.00092668	0.00038049	0.00021714	1506.6	5.8e-06	4.2557e-06	1496.9	402.56	5.5894e-06	6.3245e-06	464.82	152.58	133.08	45.449	4.0844e-06	55.767	0.0005364	0.0004994	0.00013864	1530.9	5.5883e-06	5.3668e-06	1520.5	410.95	5.5114e-06	5.4016e-06	474.98	155.58	136.24	46.577	5.4411e-06	57.387	-31.346	-83.810	-82.094	-148.677	-29.563	5.717	-148.921	-144.115	-43.319	5.962	-144.573	-140.400	-139.891	-135.220	-47.177	-135.924	-8191	255	
20980.820	1	1	0	0	0.45054	0.2221	0.20582	0.45513	0.064877	0.24614	0.26083	0.052565	0.18011	0.12309	0.18613	0.054778	0.1129	0.20548	0.16138	0.2607	-2.6917	-2.5792	-3.2646	-3.0917	-2.4771	-3.4667	-2.8208	-2.875	-3.1833	-2.4875	-3.1813	-3.1562	-2.4917	-3.2562	-2.6229	-2.8854	187.747	45.210	69.358	127.902	-132.212	82.704	79.501	102.847	101.241	2.848	126.423	-69.959	164.387	143.429	-26.703	153.538	0.00085093	0.00061483	0.00022012	1503.7	5.7797e-06	4.7621e-06	1495.7	403.83	1.0974e-05	5.5534e-06	463.98	152.22	133.39	45.278	9.0738e-06	55.736	0.00053307	0.00050157	0.00013652	1530.1	5.5506e-06	5.4193e-06	1519.5	411.42	5.3837e-06	5.4313e-06	474.16	155.73	136.27	46.623	5.4861e-06	57.394	-26.518	-91.113	-89.268	-148.774	-37.301	-30.313	-148.795	-143.975	-15.596	-1.272	-144.906	-140.247	-139.735	-135.235	-39.311	-135.994	-8191	255	
20980.941	1	1	0	0	0.33806	0.16158	0.27213	0.17135	0.1799	0.0751	0.23859	0.16729	0.055938	0.20104	0.13534	0.20685	0.11569	0.35256	0.16267	0.072219	-2.8688	-2.5292	-2.9979	-3.2833	-2.4938	-3.2333	-2.9938	-2.8729	-3.4062	-2.4562	-3.2021	-3.1771	-2.5104	-3.3583	-2.9	-2.7333	19.284	32.253	-26.076	-74.938	100.339	-73.077	108.558	81.971	81.446	106.146	-42.229	116.310	95.224	188.604	43.692	80.166	0.00087644	0.00037894	0.00011583	1509.2	4.8273e-06	3.3956e-06	1498.1	403.17	8.8681e-06	8.6795e-06	466.21	153.11	133.21	45.404	4.7356e-06	55.813	0.00053375	0.0004909	0.00013629	1532.2	5.5487e-06	5.4008e-06	1520.3	410.82	5.4994e-06	5.49e-06	475.05	155.97	136.28	46.617	5.5262e-06	57.417	-26.056	-63.541	-67.179	-148.749	7.101	-32.817	-148.921	-144.143	0.163	-21.494	-144.544	-140.387	-139.828	-134.999	-16.162	-136.025	-8191	255	
20981.035	1	1	0	0	0.17344	0.14347	0.32337	0.38872	0.073578	0.36528	0.34947	0.14335	0.24086	0.046983	0.16665	0.17974	0.14652	0.1024	0.129	0.23172	-2.9083	-2.4521	-2.8937	-3.3312	-2.3229	-3.2208	-2.7708	-2.7396	-3.2	-2.4792	-3.0271	-3.2729	-2.5354	-3.2479	-3.1125	-2.4458	23.165	167.434	99.636	158.592	57.942	-71.312	158.272	154.571	49.152	-141.677	193.128	157.327	14.372	111.776	59.676	46.424	0.00086497	0.00042838	9.448e-05	1504	3.2961e-06	4.0514e-06	1495.9	403.85	7.5482e-06	7.7195e-06	465.72	152.61	132.86	45.458	2.3537e-06	55.76	0.00052247	0.00049956	0.00013624	1528.6	5.4479e-06	5.4094e-06	1519.1	411.02	5.4602e-06	5.5015e-06	474.33	155.63	136.16	46.666	5.2874e-06	57.331	-28.617	-61.655	-68.236	-148.700	-20.467	-27.026	-148.912	-144.245	-11.029	-2.135	-144.623	-140.467	-140.187	-134.912	-20.070	-136.002	-8191	255	
20981.133	1	1	0	0	0.10882	0.15185	0.15919	0.16144	0.082061	0.3831	0.3449	0.10196	0.2308	0.041404	0.3182	0.14751	0.28652	0.24498	0.10015	0.26288	-3.0792	-2.4479	-2.8958	-3.4125	-2.5104	-3.2917	-3.2438	-2.5375	-3.1833	-2.7083	-2.9479	-3.05	-2.6167	-3.0271	-3.0479	-2.475	-130.723	-156.913	-2.048	-153.802	24.616	116.410	169.583	155.707	-140.566	67.763	151.995	168.017	65.605	107.036	-59.592	110.268	0.00093828	0.00029212	0.00014788	1506.4	7.1371e-06	5.4661e-06	1494.6	402.28	5.7259e-06	3.17e-06	463.79	152.54	133.39	45.417	8.6577e-06	55.647	0.00052814	0.00049332	0.00013573	1531.9	5.4924e-06	5.2761e-06	1519.2	410.64	5.4253e-06	5.3457e-06	474.29	155.72	136.28	46.636	5.4641e-06	57.361	-30.377	-85.542	-83.941	-148.753	-17.335	-4.655	-148.850	-144.212	-2.948	0.532	-144.586	-140.544	-139.786	-135.036	-7.220	-136.126	-8191	255	
20981.252	1	1	0	0	0.16485	0.22736	0.18407	0.16681	0.24472	0.24886	0.31941	0.22853	0.21393	0.29121	0.1301	0.054422	0.034282	0.26206	0.06864	0.22099	-3.0625	-2.5667	-2.6	-3.3875	-2.3	-3.1188	-3.0979	-2.5583	-3.1729	-2.825	-2.6396	-3.35	-2.4562	-2.9417	-3.0563	-2.3958	39.440	63.644	-62.625	182.895	177.064	45.332	184.324	185.961	-85.914	27.610	152.327	43.803	196.511	-140.484	-77.788	85.911	0.00086573	0.00050798	0.00015739	1507.5	7.6242e-06	5.4518e-06	1494.2	402.8	6.9525e-06	3.8038e-06	464.99	152.22	134	45.442	6.8467e-06	55.505	0.00053194	0.00049899	0.00013566	1532	5.5573e-06	5.4315e-06	1519.2	411.29	5.2993e-06	5.2877e-06	474.5	155.58	136.51	46.611	5.4708e-06	57.282	-29.253	-85.098	-92.746	-148.792	-25.692	-30.098	-148.783	-144.142	-33.841	-20.172	-144.629	-140.236	-139.923	-134.946	-22.840	-135.964	-8191	255	
20981.324	1	1	0	0	0.17865	0.34133	0.087682	0.33403	0.29648	0.16926	0.19941	0.05126	0.099842	0.22239	0.009118	0.13901	0.11359	0.23524	0.29603	0.30584	-2.8083	-2.7667	-2.5458	-3.45	-2.4708	-2.7896	-3.3021	-2.5542	-3.3354	-2.8292	-2.6208	-3.3771	-2.5938	-3.0271	-3.3354	-2.4875	-67.437	-3.103	-98.195	119.221	154.996	-64.854	181.598	106.167	12.304	46.440	25.800	-155.125	116.794	-145.817	102.800	91.699	0.00086698	0.00039769	0.00018524	1507.7	6.0757e-06	7.3947e-06	1495.7	403	8.8168e-06	7.7902e-06	464.39	152.53	133.23	45.208	9.3389e-06	55.627	0.00052532	0.00049046	0.00013691	1532.6	5.4486e-06	5.3663e-06	1519.3	410.9	5.3605e-06	5.3205e-06	474.36	155.81	136.19	46.573	5.4059e-06	57.309	-27.276	-77.945	-86.990	-148.605	-19.850	-17.598	-148.813	-144.252	-13.750	-20.423	-144.583	-140.224	-139.769	-135.162	-26.301	-136.039	-8191	255	
20981.420	1	1	0	0	0.1171	0.1548	0.22225	0.28961	0.20671	0.26019	0.20506	0.19778	0.14496	0.22861	0.063106	0.12654	0.057435	0.2759	0.10645	0.36348	-2.7729	-2.9042	-2.4396	-3.3417	-2.6312	-2.6813	-3.5729	-2.4938	-3.1167	-3.2188	-2.5396	-3.4625	-2.6688	-2.7188	-3.2854	-2.5187	-13.721	-150.335	167.870	104.551	-90.495	59.393	169.323	181.213	27.915	105.088	88.070	-76.339	173.944	19.453	138.478	129.728	0.00088901	0.00048432	0.00014845	1504.1	6.9545e-06	6.4906e-06	1498.2	401.96	8.4829e-06	5.6498e-06	464.07	152.62	133.3	45.426	6.8757e-06	55.672	0.00051582	0.00048421	0.00013838	1529.4	5.4642e-06	5.3846e-06	1520.5	410.36	5.407e-06	5.314e-06	473.92	155.86	136.03	46.678	5.323e-06	57.25	-29.186	-91.203	-80.218	-148.662	-31.562	-8.512	-148.938	-144.214	-16.995	-39.792	-144.538	-140.560	-139.769	-134.942	-22.763	-135.781	-8191	255	
20981.516	1	1	0	0	0.13497	0.18588	0.24649	0.35646	0.22574	0.041641	0.17201	0.23522	0.062834	0.12344	0.35918	0.15593	0.035683	0.29361	0.10218	0.085681	-2.7938	-3.1021	-2.5354	-3.3375	-2.6521	-2.5271	-3.4708	-2.5458	-2.9938	-3.1708	-2.3979	-3.2521	-2.8333	-2.7604	-3.3312	-2.6646	71.386	193.675	135.740	194.440	114.425	-61.137	148.510	134.705	-82.016	67.530	116.364	133.661	-148.213	151.167	131.545	52.249	0.00092329	0.00055349	0.00016938	1507	6.5704e-06	4.6968e-06	1494.9	402.81	8.6915e-06	4.0972e-06	464.34	152.38	132.99	45.417	4.2441e-06	55.539	0.00053406	0.0004842	0.0001364	1531.5	5.3592e-06	5.3309e-06	1517.9	411.08	5.3899e-06	5.3565e-06	473.87	155.74	136.1	46.604	5.2262e-06	57.297	-29.004	-82.787	-71.987	-148.470	-9.716	-2.558	-148.882	-144.281	-20.355	-12.446	-144.890	-140.196	-140.077	-135.298	-23.735	-136.039	-8191	255	
20981.637	1	1	0	0	0.044623	0.067282	0.18476	0.16147	0.27444	0.050753	0.10864	0.1749	0.10835	0.13162	0.034478	0.26757	0.10853	0.18296	0.17148	0.16505	-2.6333	-3.1104	-2.2938	-3.4521	-2.75	-2.4833	-3.5208	-2.8208	-2.7687	-3.3208	-2.6458	-3.3229	-3.1333	-2.6521	-3.275	-2.8771	-78.866	-83.111	52.761	19.981	126.966	90.615	129.327	-161.870	-89.781	105.929	-104.591	-17.566	87.195	-133.060	11.722	111.568	0.00088394	0.00042065	0.00017333	1503.6	7.6306e-06	2.8835e-06	1495	402.07	9.0804e-06	4.6969e-06	465.42	152.77	133.32	45.305	8.1713e-06	55.348	0.00052738	0.00048614	0.00013401	1528.2	5.4917e-06	5.378e-06	1518.9	410.5	5.3334e-06	5.1824e-06	474.34	155.66	136.2	46.661	5.2885e-06	57.18	-33.643	-88.313	-84.776	-148.500	-21.538	19.961	-148.895	-144.332	-11.897	-50.218	-144.703	-140.469	-139.738	-135.050	-45.129	-135.801	-8191	255	
20981.732	1	1	0	0	0.17074	0.18093	0.012503	0.40161	0.26045	0.18354	0.083485	0.32257	0.068169	0.13574	0.24225	0.1607	0.16945	0.32711	0.22842	0.16113	-2.2333	-3.2938	-2.5271	-3.2438	-3.0146	-2.6	-3.5625	-2.9979	-2.5563	-3.325	-2.7271	-3.1688	-3.2271	-2.3854	-3.15	-2.8958	-32.204	-149.184	191.630	156.501	22.473	-43.608	124.744	132.243	97.601	-76.084	58.930	-154.832	-160.251	121.149	-97.171	-77.033	0.00089111	0.00055657	0.00018842	1506	6.4911e-06	3.4942e-06	1497.8	401.36	6.5438e-06	6.4626e-06	463.35	152.92	133.13	45.289	5.6157e-06	55.654	0.00052713	0.00048023	0.0001341	1528.4	5.3177e-06	5.2664e-06	1519.3	410.37	5.3951e-06	5.2304e-06	473.77	155.86	136.06	46.504	5.3775e-06	57.205	-28.815	-112.739	-83.246	-148.702	-46.641	4.661	-148.711	-144.252	-5.055	-7.261	-144.641	-140.304	-139.980	-135.093	-30.792	-136.121	-8191	255	
20981.826	1	1	0	0	0.060605	0.11336	0.35142	0.30918	0.12908	0.14172	0.084196	0.15921	0.28129	0.18345	0.20586	0.076521	0.10232	0.38816	0.027421	0.10435	-2.1	-3.2562	-2.3521	-3.3146	-3.0979	-2.575	-3.4229	-3.0896	-2.4271	-3.3583	-2.6708	-2.9083	-3.3708	-2.4333	-3.1188	-2.9104	-84.341	195.291	147.733	152.308	-134.240	80.942	-141.582	83.518	9.244	15.743	90.055	17.846	-85.341	181.014	-20.834	58.066	0.00089717	0.00063356	0.00024815	1506.9	7.6444e-06	5.3088e-06	1490.5	402.6	9.7061e-06	4.1631e-06	464.34	153.23	132.96	45.48	9.276e-06	55.579	0.00053823	0.00046894	0.0001344	1531.2	5.4266e-06	5.2378e-06	1518.2	410.18	5.338e-06	5.2222e-06	473.87	155.89	135.96	46.636	5.3921e-06	57.226	-29.540	-78.494	-83.250	-148.573	-24.262	-39.674	-148.767	-144.381	-8.826	-33.489	-144.684	-140.300	-139.704	-134.897	-19.332	-136.087	-8191	255	
20981.900	1	1	0	0	0.029559	0.027161	0.06808	0.37974	0.10495	0.26171	0.19163	0.33016	0.17262	0.27489	0.2188	0.21076	0.19632	0.49284	0.29977	0.15441	-2.0292	-3.3708	-2.5667	-3.0458	-3.2208	-2.5187	-3.2646	-3.1333	-2.5521	-3.3104	-2.6583	-2.7417	-3.3646	-2.4729	-2.8625	-3.0104	137.791	-79.869	194.961	160.508	104.207	-89.771	133.826	115.186	-92.227	-135.665	-159.471	155.948	144.890	126.070	-2.782	-32.356	0.00090919	0.00045165	0.00015594	1507.6	8.4731e-06	3.3876e-06	1497.8	403.36	7.9155e-06	4.501e-06	463.17	153.22	133.34	45.411	7.6343e-06	55.515	0.00052479	0.00047962	0.00013429	1531.6	5.3307e-06	5.1896e-06	1518.3	410.29	5.3494e-06	5.2292e-06	473.24	155.86	136.21	46.617	5.2285e-06	57.209	-26.145	-71.184	-58.402	-148.528	-48.498	-13.841	-148.793	-144.301	1.255	-21.861	-144.657	-140.377	-139.737	-135.154	-27.366	-135.926	-8191	255	
20982.021	1	1	0	0	0.1764	0.11934	0.041576	0.076814	0.1057	0.16371	0.16967	0.201	0.1414	0.19121	0.32394	0.09589	0.23195	0.17358	0.18483	0.18545	-2.1771	-3.1875	-2.6188	-2.8063	-3.2292	-2.5875	-3.3125	-3.2354	-2.4208	-3.2104	-2.7604	-2.5917	-3.3917	-2.6396	-2.8167	-3.2979	20.226	-138.992	-105.365	61.668	-22.559	-50.277	125.136	180.210	180.222	158.236	159.182	91.031	167.336	148.141	-42.914	128.409	0.00091475	0.0004853	0.00016377	1499.2	4.8535e-06	4.9231e-06	1495	403.18	8.8022e-06	4.311e-06	464.12	152.16	133.18	45.098	7.6818e-06	55.454	0.0005214	0.00047729	0.00013301	1527.5	5.2522e-06	5.2633e-06	1519.8	410.94	5.3588e-06	5.3092e-06	473.93	155.71	136.21	46.549	5.283e-06	57.214	-27.003	-99.794	-59.414	-148.640	-23.148	-17.446	-148.617	-144.258	-2.537	-7.543	-144.732	-140.410	-139.759	-135.220	-27.648	-135.914	-8191	255	
20982.115	1	1	0	0	0.15688	0.16044	0.20272	0.23317	0.15693	0.10644	0.17398	0.2521	0.28368	0.14386	0.069826	0.16446	0.27018	0.15142	0.0023518	0.26482	-2.1104	-3.1	-2.8771	-2.5333	-3.4021	-2.5208	-2.9333	-3.1896	-2.35	-3.2333	-3.0542	-2.4562	-3.4333	-2.7604	-2.6417	-3.3812	-114.887	138.208	171.131	103.932	-41.415	9.348	181.878	159.866	-21.414	98.651	180.937	63.552	130.228	-115.335	-27.369	181.539	0.00090222	0.00044476	0.00022061	1504.9	5.7576e-06	4.0961e-06	1494.2	402.51	9.5446e-06	7.0669e-06	464.07	152.85	132.76	45.285	3.5984e-06	55.601	0.00052155	0.00048652	0.00013451	1528.9	5.2626e-06	5.2103e-06	1517.5	410.74	5.2691e-06	5.1863e-06	473.48	155.81	135.97	46.564	5.4055e-06	57.267	-29.966	-87.738	-70.209	-148.544	-45.631	-43.861	-148.711	-144.042	-23.863	13.168	-144.697	-139.924	-139.757	-135.102	-17.992	-136.146	-8191	255	
20982.213	1	1	0	0	0.27744	0.18138	0.2611	0.11543	0.023314	0.14794	0.25122	0.29747	0.21242	0.19916	0.012871	0.082634	0.2106	0.21846	0.30486	0.15129	-1.9604	-2.9417	-3	-2.6937	-3.1937	-2.6625	-2.8771	-3.3875	-2.4313	-2.9333	-3.1417	-2.5271	-3.2167	-2.7938	-2.4646	-3.3625	-139.762	-122.536	-129.579	166.020	81.085	-115.689	-159.720	114.183	192.390	-107.321	-150.983	-25.161	137.082	-157.080	81.303	190.638	0.00095792	0.00062699	0.00013423	1505.1	5.7795e-06	3.1963e-06	1495.3	402.37	9.0771e-06	5.5306e-06	464.71	152.07	133.28	45.236	7.1261e-06	55.647	0.00052701	0.00048544	0.0001347	1530.9	5.3218e-06	5.3012e-06	1517.5	410.27	5.4053e-06	5.2899e-06	473.29	155.56	136.19	46.51	5.2195e-06	57.319	-31.691	-77.247	-49.897	-148.634	-5.845	-36.520	-148.610	-144.096	-26.204	4.077	-144.507	-140.645	-139.776	-134.997	-18.098	-136.066	-8191	255	
20982.332	1	1	0	0	0.087041	0.15612	0.10421	0.32436	0.12942	0.049653	0.18017	0.064509	0.27276	0.28207	0.21436	0.45361	0.090132	0.20017	0.12622	0.14155	-1.9937	-2.8854	-3.0438	-2.6542	-3.1437	-2.9542	-2.8792	-3.4833	-2.5417	-3.0271	-3.1083	-2.4542	-3.0667	-3.0187	-2.5563	-3.3146	155.428	-127.380	-131.304	159.187	174.011	93.406	-153.010	-149.056	-99.245	-23.869	94.579	129.318	154.597	172.216	55.335	-65.367	0.00082694	0.00052815	0.00015957	1501.8	4.6066e-06	4.2404e-06	1494.4	402.65	8.0429e-06	9.0745e-06	464.36	151.91	133.3	45.352	3.6515e-06	55.819	0.00051959	0.00048624	0.00013499	1528.3	5.3577e-06	5.3077e-06	1517.5	410.38	5.3382e-06	5.3337e-06	473.54	155.47	136.1	46.553	5.2306e-06	57.309	-27.192	-84.700	-82.497	-148.478	-23.571	-45.051	-148.802	-144.267	-0.686	-14.448	-144.617	-140.232	-139.723	-135.139	-29.222	-135.944	-8191	255	
20982.430	1	1	0	0	0.20933	0.12646	0.039771	0.4501	0.21978	0.13472	0.066276	0.058181	0.15998	0.080609	0.061246	0.36666	0.15236	0.34137	0.025912	0.15618	-2.1958	-2.6396	-3.0812	-2.4313	-3.1208	-2.9583	-2.7729	-3.4104	-2.6583	-2.8542	-3.5708	-2.4979	-3.0104	-3.3333	-2.3917	-3.2708	68.499	138.790	177.197	193.344	160.618	26.904	122.956	153.394	101.601	58.995	168.591	129.712	193.761	78.655	-83.727	155.293	0.00092889	0.00057932	0.000154	1504.9	6.2935e-06	4.2381e-06	1494.2	402.7	9.8132e-06	7.9619e-06	466.11	152.91	133.29	45.336	5.2153e-06	55.478	0.00052892	0.00047809	0.0001321	1527.7	5.1675e-06	5.1833e-06	1517.5	410.31	5.2603e-06	5.2703e-06	474.28	155.78	136	46.555	5.3026e-06	57.268	-30.854	-91.653	-38.383	-148.620	-18.871	-5.293	-148.814	-144.104	-21.562	-30.163	-144.682	-140.334	-139.794	-135.120	-0.181	-135.953	-8191	255	
20982.500	1	1	0	0	0.18158	0.17682	0.2964	0.37702	0.1362	0.11171	0.20446	0.21665	0.22284	0.12234	0.20822	0.38722	0.25706	0.020452	0.11826	0.21859	-2.3187	-2.6146	-3.3417	-2.7417	-2.8854	-3.0312	-2.7542	-3.3896	-2.9125	-2.675	-3.3563	-2.5917	-2.9521	-3.3063	-2.3542	-3.1792	65.962	83.968	92.885	145.094	-57.818	88.230	174.415	169.482	-161.460	-61.046	161.785	183.211	142.511	43.109	100.365	156.822	0.00088334	0.00054069	0.00013942	1503	7.2768e-06	5.4124e-06	1492.2	401.73	7.1769e-06	3.1267e-06	464.16	152.5	133.55	45.519	7.9359e-06	55.737	0.0005271	0.00047681	0.00012978	1527.8	5.2569e-06	5.2338e-06	1517.4	410.56	5.3068e-06	5.3086e-06	473.55	155.38	136.02	46.629	5.3397e-06	57.228	-29.809	-80.785	-79.171	-148.553	7.512	-18.285	-148.609	-143.894	-8.106	-7.500	-144.493	-140.579	-139.699	-135.201	-14.825	-135.844	-8191	255	
20982.621	1	1	0	0	0.098226	0.082402	0.31383	0.30058	0.086964	0.1792	0.37514	0.52396	0.081591	0.061407	0.31422	0.20469	0.13048	0.34936	0.19739	0.35634	-2.3875	-2.5479	-3.25	-2.7479	-2.8187	-3.1833	-2.5771	-3.1333	-2.9125	-2.5083	-3.2708	-2.7917	-2.95	-3.3187	-2.3688	-3.1708	20.865	55.503	-12.938	176.623	-123.074	-0.417	138.284	141.825	-86.613	-8.566	57.515	71.518	10.246	161.172	187.246	197.629	0.00089747	0.00026369	0.00014467	1507.9	3.0336e-06	2.8078e-06	1491.8	403.4	9.6688e-06	4.5185e-06	464.01	152.25	133.71	45.273	6.9944e-06	55.717	0.00052387	0.00048212	0.00013001	1528.5	5.3076e-06	5.2207e-06	1514.4	410.18	5.2496e-06	5.2524e-06	472.94	155.58	136.18	46.556	5.2361e-06	57.321	-30.814	-125.512	-81.896	-148.585	0.313	-18.050	-148.780	-143.967	-10.738	-28.509	-144.650	-140.386	-139.594	-135.181	3.181	-135.560	-8191	255	
#DATA ENDS
