BOXY.EXE: ISS Imagent and Oximeter Data Acquisition Program Version 0.80
Ascii Record File

#ACQ INFORMATION
2  Detector Channels 
16  External MUX Channels 
1  Auxiliary Channels 
5000  Waveform (CCF) Frequency (Hz)
1  Waveforms Skipped 
30  Waveforms Averaged 
1  Cycles Averaged 
16  Acquisitions per Waveform 
10.0806  Updata Rate (Hz) 

#FILE INFORMATION
TRUE -- External MUX Channel results are PARSED.
FALSE -- AC DC and Phase are NOT grouped.
TRUE -- Companion Program Settings File CREATED.
FALSE -- AC data not excluded
FALSE -- DC data not excluded
FALSE -- Phase data not excluded
FALSE -- Auxillary Chn. data not excluded
Tab delimiters

#CALIBRATION STATE
TRUE -- Waveform Calibration Values APPLIED.


#AUX CALIBRATION VALUES
Val Type	aux-1	

Term	1.0000e+00	
Factor	0.0000e+00	


#WF CALIBRATION VALUES
A = Detector Channel
Val Type	A-AC1	A-AC2	A-AC3	A-AC4	A-AC5	A-AC6	A-AC7	A-AC8	A-AC9	A-AC10	A-AC11	A-AC12	A-AC13	A-AC14	A-AC15	A-AC16	A-DC1	A-DC2	A-DC3	A-DC4	A-DC5	A-DC6	A-DC7	A-DC8	A-DC9	A-DC10	A-DC11	A-DC12	A-DC13	A-DC14	A-DC15	A-DC16	A-Ph1	A-Ph2	A-Ph3	A-Ph4	A-Ph5	A-Ph6	A-Ph7	A-Ph8	A-Ph9	A-Ph10	A-Ph11	A-Ph12	A-Ph13	A-Ph14	A-Ph15	A-Ph16	

Term	0.00000e+00	0.00000e+00	0.00000e+00	0.00000e+00	0.00000e+00	0.00000e+00	0.00000e+00	0.00000e+00	0.00000e+00	0.00000e+00	0.00000e+00	0.00000e+00	0.00000e+00	0.00000e+00	0.00000e+00	0.00000e+00	0.00000e+00	0.00000e+00	0.00000e+00	0.00000e+00	0.00000e+00	0.00000e+00	0.00000e+00	0.00000e+00	0.00000e+00	0.00000e+00	0.00000e+00	0.00000e+00	0.00000e+00	0.00000e+00	0.00000e+00	0.00000e+00	0.00000e+00	0.00000e+00	0.00000e+00	0.00000e+00	0.00000e+00	0.00000e+00	0.00000e+00	0.00000e+00	0.00000e+00	0.00000e+00	0.00000e+00	0.00000e+00	0.00000e+00	0.00000e+00	0.00000e+00	0.00000e+00	
Factor	1.00000e+00	1.00000e+00	1.00000e+00	1.00000e+00	1.00000e+00	1.00000e+00	1.00000e+00	1.00000e+00	1.00000e+00	1.00000e+00	1.00000e+00	1.00000e+00	1.00000e+00	1.00000e+00	1.00000e+00	1.00000e+00	1.00000e+00	1.00000e+00	1.00000e+00	1.00000e+00	1.00000e+00	1.00000e+00	1.00000e+00	1.00000e+00	1.00000e+00	1.00000e+00	1.00000e+00	1.00000e+00	1.00000e+00	1.00000e+00	1.00000e+00	1.00000e+00	X	X	X	X	X	X	X	X	X	X	X	X	X	X	X	X	

B = Detector Channel
Val Type	B-AC1	B-AC2	B-AC3	B-AC4	B-AC5	B-AC6	B-AC7	B-AC8	B-AC9	B-AC10	B-AC11	B-AC12	B-AC13	B-AC14	B-AC15	B-AC16	B-DC1	B-DC2	B-DC3	B-DC4	B-DC5	B-DC6	B-DC7	B-DC8	B-DC9	B-DC10	B-DC11	B-DC12	B-DC13	B-DC14	B-DC15	B-DC16	B-Ph1	B-Ph2	B-Ph3	B-Ph4	B-Ph5	B-Ph6	B-Ph7	B-Ph8	B-Ph9	B-Ph10	B-Ph11	B-Ph12	B-Ph13	B-Ph14	B-Ph15	B-Ph16	

Term	0.00000e+00	0.00000e+00	0.00000e+00	0.00000e+00	0.00000e+00	0.00000e+00	0.00000e+00	0.00000e+00	0.00000e+00	0.00000e+00	0.00000e+00	0.00000e+00	0.00000e+00	0.00000e+00	0.00000e+00	0.00000e+00	0.00000e+00	0.00000e+00	0.00000e+00	0.00000e+00	0.00000e+00	0.00000e+00	0.00000e+00	0.00000e+00	0.00000e+00	0.00000e+00	0.00000e+00	0.00000e+00	0.00000e+00	0.00000e+00	0.00000e+00	0.00000e+00	-1.07200e+00	-1.36101e+02	-1.26972e+02	-1.81145e+02	-5.74851e+01	-6.50972e+01	-1.58196e+02	-1.62015e+02	-4.24239e+01	-6.52151e+01	-1.70310e+02	-1.70117e+02	-1.81676e+02	-1.76501e+02	-5.94616e+01	-1.49355e+02	
Factor	3.59234e-05	1.59826e-04	4.90676e-05	1.61587e-01	1.97099e-06	1.44992e-06	1.72205e-01	5.96698e-02	2.11306e-06	1.83272e-06	9.39561e-02	3.22471e-02	2.84731e-02	9.54445e-03	1.94426e-06	1.34256e-02	6.52020e-06	7.84418e-06	2.17318e-06	8.29810e-02	8.31184e-08	8.62690e-08	8.30464e-02	3.06820e-02	8.29478e-08	8.64596e-08	4.68418e-02	1.60686e-02	1.47170e-02	4.95140e-03	8.44639e-08	6.74576e-03	X	X	X	X	X	X	X	X	X	X	X	X	X	X	X	X	



#DISTANCE SETTINGS
A = Detector Channel
A-1	A-2	A-3	A-4	A-5	A-6	A-7	A-8	A-9	A-10	A-11	A-12	A-13	A-14	A-15	A-16	

2.5000e+00	3.0000e+00	2.5000e+00	3.0000e+00	2.0000e+00	3.0000e+00	1.5000e+00	3.0000e+00	3.0000e+00	3.0000e+00	3.0000e+00	3.0000e+00	3.0000e+00	3.0000e+00	1.5000e+00	3.0000e+00	

B = Detector Channel
B-1	B-2	B-3	B-4	B-5	B-6	B-7	B-8	B-9	B-10	B-11	B-12	B-13	B-14	B-15	B-16	

1.0000e+01	1.0000e+01	1.0000e+01	1.4400e+00	1.0000e+01	1.0000e+01	1.5100e+00	1.9400e+00	1.0000e+01	1.0000e+01	1.9900e+00	2.4900e+00	2.4100e+00	2.9000e+00	1.0000e+01	2.9800e+00	




#DATA BEGINS
time	group	step	mark	flag	A-AC1	A-AC2	A-AC3	A-AC4	A-AC5	A-AC6	A-AC7	A-AC8	A-AC9	A-AC10	A-AC11	A-AC12	A-AC13	A-AC14	A-AC15	A-AC16	A-DC1	A-DC2	A-DC3	A-DC4	A-DC5	A-DC6	A-DC7	A-DC8	A-DC9	A-DC10	A-DC11	A-DC12	A-DC13	A-DC14	A-DC15	A-DC16	A-Ph1	A-Ph2	A-Ph3	A-Ph4	A-Ph5	A-Ph6	A-Ph7	A-Ph8	A-Ph9	A-Ph10	A-Ph11	A-Ph12	A-Ph13	A-Ph14	A-Ph15	A-Ph16	B-AC1	B-AC2	B-AC3	B-AC4	B-AC5	B-AC6	B-AC7	B-AC8	B-AC9	B-AC10	B-AC11	B-AC12	B-AC13	B-AC14	B-AC15	B-AC16	B-DC1	B-DC2	B-DC3	B-DC4	B-DC5	B-DC6	B-DC7	B-DC8	B-DC9	B-DC10	B-DC11	B-DC12	B-DC13	B-DC14	B-DC15	B-DC16	B-Ph1	B-Ph2	B-Ph3	B-Ph4	B-Ph5	B-Ph6	B-Ph7	B-Ph8	B-Ph9	B-Ph10	B-Ph11	B-Ph12	B-Ph13	B-Ph14	B-Ph15	B-Ph16	aux-1	digaux	

23596.156	1	1	0	768	0.16393	0.42075	0.4367	0.2555	0.1276	0.183	0.24896	0.14929	0.02657	0.14385	0.22594	0.25114	0.09623	0.096825	0.050845	0.18192	-2.6354	-2.5771	-2.4333	-3.2229	-2.4125	-2.7833	-3.1625	-2.2521	-3.0354	-2.7625	-2.3958	-3.2646	-2.4562	-2.7479	-3.1083	-2.2479	433.507	126.538	378.295	413.254	353.989	242.113	395.209	137.123	248.963	301.920	392.982	93.941	301.989	396.842	109.843	398.842	0.001845	0.00068235	0.00014816	999.35	7.3646e-06	5.6898e-06	1012.6	355.15	1.0737e-05	6.1647e-06	462.49	205.6	145.41	65.112	9.4522e-06	100.54	0.00069053	0.00053156	0.00014755	972.26	5.7409e-06	5.8066e-06	979.22	345.89	5.7179e-06	5.7213e-06	449.3	199.59	141.46	64.181	5.7367e-06	98.623	298.996	189.914	164.195	94.687	226.324	242.017	94.834	100.037	268.002	254.234	98.551	102.828	104.219	108.062	229.706	105.423	-8191	255	
23596.252	1	1	0	0	0.28515	0.093561	0.32641	0.25551	0.24875	0.23839	0.31008	0.10838	0.064772	0.20697	0.095462	0.1423	0.077708	0.67963	0.26738	0.24955	-2.5021	-2.7667	-2.1937	-3.1229	-2.4	-2.5771	-3.2646	-2.2812	-3.0292	-2.8667	-2.2042	-3.2062	-2.4625	-2.525	-2.9437	-2.3667	416.694	134.339	306.801	118.404	343.674	156.726	81.911	336.065	411.397	296.419	123.595	401.186	427.642	404.015	320.502	384.428	0.0017884	0.00050657	0.00030572	1001	8.6308e-06	4.2365e-06	1011.6	354.8	7.9433e-06	6.5159e-06	465.12	205.89	146.19	65.324	1.048e-05	100.3	0.00067443	0.0005196	0.00014697	973.24	5.8001e-06	5.7612e-06	977.88	345.96	5.7027e-06	5.5685e-06	449.34	199.85	141.72	64.367	5.7233e-06	98.505	297.312	174.218	172.128	95.007	233.276	196.145	94.325	99.818	252.292	247.932	98.318	102.798	104.066	107.874	242.300	105.307	-8191	255	
23596.346	1	1	0	0	0.17109	0.0071175	0.13894	0.24539	0.10156	0.13315	0.2791	0.29014	0.38735	0.15094	0.17058	0.053841	0.318	0.41326	0.16886	0.27802	-2.6	-2.8312	-2.0646	-3.1458	-2.5833	-2.5104	-3.1208	-2.5208	-2.7083	-2.6333	-2.4313	-3.1667	-2.7979	-2.3917	-3.0438	-2.3604	329.953	406.498	197.237	361.507	283.889	430.185	294.877	87.030	383.934	406.155	367.020	127.168	435.906	410.018	218.380	341.915	0.0017596	0.00081126	0.00013748	1001.9	7.8223e-06	4.9971e-06	1009	354.85	8.8738e-06	8.3175e-06	460.12	205.39	146.24	65.75	8.8416e-06	101.04	0.00066547	0.00052301	0.00014464	971.09	5.5944e-06	5.6037e-06	973.76	345.22	5.6292e-06	5.5343e-06	447.73	199.26	142.06	64.683	5.5818e-06	98.836	295.820	161.728	155.364	94.367	245.357	226.479	93.699	99.246	265.066	202.635	97.614	102.551	103.518	107.340	243.487	105.032	-8191	255	
23596.443	1	1	0	0	0.30693	0.087725	0.091213	0.27491	0.16946	0.1648	0.17759	0.29673	0.021649	0.17639	0.10735	0.043958	0.37524	0.11461	0.18464	0.060739	-2.275	-2.8083	-2.1333	-3.0458	-2.4771	-2.3063	-3.2	-2.3042	-2.5104	-3.0438	-2.3896	-2.9708	-2.7833	-2.3375	-3.0792	-2.5417	242.297	207.838	257.615	401.617	322.135	383.123	299.278	427.205	131.312	234.425	345.958	221.882	102.934	86.031	169.878	420.512	0.0016672	0.00084484	0.00022472	998.62	8.652e-06	8.3194e-06	1011.8	356.4	1.0674e-05	6.3633e-06	465.05	206.79	146.78	66.326	8.6186e-06	101.49	0.00066427	0.00051177	0.00013984	970.6	5.6216e-06	5.4961e-06	976.27	346.79	5.4887e-06	5.524e-06	450.58	201.23	142.86	65.029	5.5746e-06	99.469	293.549	162.912	186.241	94.468	248.143	233.402	94.347	99.683	262.673	253.804	98.281	102.784	103.527	107.695	232.760	105.640	-8191	255	
23596.539	1	1	0	0	0.18961	0.11422	0.10516	0.16766	0.16851	0.20789	0.1042	0.15052	0.18953	0.069031	0.17	0.20788	0.27479	0.19437	0.30654	0.030024	-2.2771	-2.8312	-2.2854	-3.1437	-2.675	-2.3354	-3.2042	-2.4396	-2.4479	-3.0021	-2.2104	-2.9604	-2.9	-2.2375	-3.0354	-2.625	308.612	431.930	115.448	243.277	93.160	425.284	347.347	396.922	340.106	229.990	88.373	363.331	397.091	108.889	135.840	370.330	0.0017986	0.00044644	0.00017073	1002.2	9.1136e-06	7.5707e-06	1017.5	360.61	1.1681e-05	9.1605e-06	467.96	209.82	148.62	66.658	1.0603e-05	102.38	0.00066401	0.0005002	0.00014333	973.58	5.5556e-06	5.5085e-06	980.95	349.74	5.6408e-06	5.392e-06	455.5	203.37	144.42	65.403	5.4609e-06	100.27	298.503	159.006	173.429	94.718	233.931	209.482	94.469	99.817	262.402	224.311	98.314	102.914	103.988	107.840	238.527	105.420	-8191	255	
23596.635	1	1	0	0	0.27625	0.21555	0.33355	0.17915	0.15513	0.15225	0.30161	0.24105	0.23963	0.069334	0.23939	0.19778	0.13899	0.30108	0.26755	0.10294	-2.1417	-2.9062	-2.2542	-2.9104	-2.9667	-2.2667	-3.2167	-2.7771	-2.3771	-3.0667	-2.4417	-2.8042	-2.9292	-2.2625	-2.8333	-2.6875	170.440	297.263	269.604	392.515	277.471	409.084	348.724	430.879	388.237	239.370	408.505	391.471	103.721	429.979	395.133	91.441	0.0017203	0.00095194	0.00019428	1005.4	9.2116e-06	6.2738e-06	1018.7	360.81	1.3945e-05	5.8183e-06	471.07	210.95	149.1	66.874	1.1314e-05	102.8	0.00066054	0.00049415	0.00013694	974.8	5.468e-06	5.4454e-06	982.79	350.06	5.4008e-06	5.4086e-06	457.18	204.47	144.86	65.575	5.6448e-06	100.48	298.432	132.031	162.058	94.920	229.480	239.294	94.627	99.623	257.436	241.535	98.130	102.332	103.346	107.160	220.745	104.933	-8191	255	
23596.756	1	1	0	0	0.043769	0.19358	0.39492	0.045132	0.15775	0.24849	0.043564	0.093644	0.12886	0.075745	0.26217	0.22676	0.13758	0.20224	0.2676	0.24974	-1.9479	-2.9	-2.2979	-2.5563	-3.0354	-2.125	-3.0563	-2.8021	-2.1604	-3.0687	-2.4479	-2.6521	-3.1688	-2.225	-2.825	-2.9375	195.133	194.122	155.325	96.567	431.512	159.654	94.035	421.160	293.494	425.983	294.961	365.872	329.937	104.009	396.873	383.695	0.0018456	0.0009254	0.00022867	999.24	1.1478e-05	5.6938e-06	1015.2	358.8	8.4433e-06	7.6887e-06	470.5	208.9	149.64	66.657	7.5994e-06	102.5	0.00065667	0.00049301	0.00013725	971.38	5.5182e-06	5.4657e-06	979.44	349.74	5.3838e-06	5.3987e-06	456.56	203.96	145.18	65.524	5.4463e-06	100.38	296.418	155.204	193.709	94.892	243.608	216.949	94.740	99.822	248.058	220.434	98.054	102.743	103.708	107.598	240.611	105.653	-8191	255	
23596.852	1	1	0	0	0.20946	0.16601	0.13607	0.18741	0.36886	0.13178	0.24475	0.20313	0.094527	0.20523	0.14786	0.16326	0.14053	0.3955	0.23084	0.20462	-1.8813	-3.1333	-2.5208	-2.475	-3.1271	-2.2021	-3.0208	-2.8521	-2.1021	-3.1208	-2.7167	-2.4979	-3.2458	-2.3812	-2.7604	-2.9354	345.969	176.818	333.549	243.024	382.664	135.452	371.070	426.347	335.445	234.830	427.521	354.919	428.540	410.094	191.094	402.573	0.0017853	0.0004253	0.00022544	997.45	1.2836e-05	4.8998e-06	1016.6	361.37	1.1109e-05	7.2408e-06	471.6	211.99	149.9	67.137	7.4337e-06	103.17	0.00065055	0.00049103	0.00013704	971.06	5.4572e-06	5.493e-06	983.06	351.56	5.4244e-06	5.3562e-06	458.29	205.75	145.92	65.973	5.4877e-06	101.28	298.565	146.970	179.478	94.869	246.581	234.973	93.808	99.173	252.954	241.924	97.572	102.221	103.467	106.919	221.480	104.754	-8191	255	
23596.947	1	1	0	0	0.13818	0.17625	0.023122	0.3558	0.23549	0.014557	0.10421	0.19777	0.25273	0.20665	0.23626	0.036834	0.48551	0.21648	0.05077	0.27076	-1.6667	-2.9729	-2.5062	-2.4813	-3.0563	-2.2729	-2.8229	-2.8646	-2.3729	-3.1042	-2.7396	-2.4188	-3.0292	-2.5625	-2.6042	-3.0812	255.691	314.612	95.204	348.232	131.302	318.868	404.527	412.032	306.454	181.080	83.364	396.189	387.215	229.780	290.858	385.187	0.0018257	0.00094996	0.00017206	1002.3	1.2354e-05	5.4154e-06	1011.1	362.53	8.4896e-06	3.7352e-06	473.31	213.99	150.97	67.41	8.9031e-06	104.23	0.00065952	0.00048508	0.0001336	975.15	5.1925e-06	5.3915e-06	982.64	352.43	5.4013e-06	5.4986e-06	461.06	207.31	146.94	66.37	5.4301e-06	101.9	295.687	154.592	164.100	94.409	244.910	202.181	93.928	99.086	280.323	221.324	97.421	102.009	103.372	107.021	243.763	104.599	-8191	255	
23597.045	1	1	0	0	0.074237	0.065341	0.11601	0.22577	0.22223	0.094826	0.14436	0.21298	0.34405	0.084217	0.16773	0.27019	0.30634	0.18723	0.10428	0.11441	-1.7229	-2.9271	-2.7604	-2.3875	-3.0042	-2.5542	-2.4688	-3.2458	-2.2417	-2.8438	-2.8875	-2.4333	-3.1604	-2.5312	-2.3292	-3.3708	82.128	304.977	243.390	299.860	185.218	331.522	422.820	411.229	313.043	190.787	334.591	427.462	399.289	97.138	151.665	436.592	0.0019164	0.00070693	0.00015606	1003.7	9.5993e-06	8.7834e-06	1020.2	364.24	1.2937e-05	8.0392e-06	475.29	213.6	150.64	67.851	1.2757e-05	103.89	0.00065956	0.00050343	0.00013849	974.82	5.3246e-06	5.3997e-06	985.59	354.05	5.4865e-06	5.3868e-06	461.39	207.2	146.74	66.629	5.5378e-06	101.72	296.203	154.585	165.271	94.144	259.456	239.285	93.948	99.211	268.821	241.652	97.854	102.035	102.953	106.830	244.083	104.811	-8191	255	
23597.141	1	1	0	0	0.060346	0.24227	0.13532	0.25431	0.34643	0.13378	0.10213	0.092997	0.22986	0.27609	0.27432	0.15766	0.20456	0.20598	0.27435	0.28787	-2.0333	-2.8187	-2.7979	-2.3354	-3.0583	-2.3479	-2.5167	-3.1333	-2.1688	-2.8083	-3.1875	-2.3812	-3.1542	-2.575	-2.3604	-3.4437	92.295	148.939	211.064	93.268	103.390	100.919	409.489	383.579	93.276	385.168	341.528	100.074	406.475	425.486	270.935	394.987	0.0017893	0.00074896	0.00014279	1001.1	8.3616e-06	4.8876e-06	1010.3	361.95	1.3335e-05	1.0099e-05	471.62	212.61	151.26	67.777	8.7517e-06	103.51	0.0006673	0.00050396	0.00014176	972.06	5.4669e-06	5.4892e-06	979.56	352.95	5.6246e-06	5.5464e-06	458.08	205.98	147.27	66.651	5.5586e-06	101.25	295.288	162.670	180.370	94.332	246.124	244.763	93.772	99.048	265.191	259.390	97.694	101.949	103.170	106.696	232.296	104.880	-8191	255	
23597.236	1	1	0	0	0.02134	0.099499	0.1048	0.27083	0.2451	0.18747	0.25595	0.12223	0.1356	0.38682	0.10049	0.11146	0.11546	0.14995	0.12617	0.19631	-2.0146	-2.6188	-2.7979	-2.3438	-2.9313	-2.6396	-2.3729	-3.1729	-2.3875	-2.4979	-3.0167	-2.3208	-2.9583	-2.8292	-2.1708	-3.2146	223.509	149.033	386.203	369.025	365.386	111.265	396.307	414.073	115.244	221.884	232.541	157.902	407.855	354.942	102.344	418.567	0.0018339	0.00078155	0.00033834	1007.2	1.0319e-05	6.5372e-06	1015.3	364.03	1.0003e-05	7.7159e-06	473.39	214.09	152.2	67.994	8.3387e-06	104.15	0.0006623	0.00051288	0.00013891	975.45	5.322e-06	5.5604e-06	982.49	354.94	5.4998e-06	5.5105e-06	461.63	207.68	148.11	66.75	5.5722e-06	101.94	296.425	168.577	180.342	94.184	248.762	238.022	93.990	99.188	265.351	223.614	97.628	101.942	103.063	106.841	249.307	104.831	-8191	255	
23597.355	1	1	0	0	0.069654	0.17072	0.18159	0.15602	0.079979	0.12553	0.091819	0.086127	0.37852	0.10578	0.1933	0.41077	0.051482	0.23989	0.25318	0.042489	-2.0458	-2.6375	-2.9542	-2.3688	-2.8583	-2.7313	-2.3125	-3.1958	-2.4229	-2.4729	-3.0646	-2.425	-2.9542	-2.7417	-2.0146	-3.1958	380.846	131.126	124.623	335.445	137.025	332.172	391.185	397.085	375.813	416.095	412.960	423.758	145.789	90.898	241.700	365.790	0.0018063	0.0010098	9.6236e-05	1007.5	1.1899e-05	2.9616e-06	1010.8	363.4	1.1326e-05	1.2063e-05	478.52	214.53	152.4	68.137	9.9616e-06	104.92	0.00066623	0.0005032	0.00013737	976.39	5.5102e-06	5.5185e-06	982.12	354.46	5.6133e-06	5.523e-06	464.03	208.6	147.65	66.853	5.56e-06	102.66	295.731	168.990	166.460	93.874	252.035	203.535	93.615	99.037	259.809	215.662	97.575	101.947	102.845	106.865	246.106	104.907	-8191	255	
23597.451	1	1	0	0	0.118	0.22717	0.17813	0.34484	0.099335	0.056957	0.10361	0.2964	0.1084	0.17145	0.17938	0.38804	0.10447	0.33212	0.15092	0.14134	-2.0667	-2.3979	-3.0021	-2.475	-2.6875	-2.8479	-2.3271	-3.2271	-2.55	-2.2146	-3.0708	-2.2438	-2.6604	-2.8812	-2.0667	-3.0333	273.660	123.342	345.513	109.317	274.737	429.742	386.945	406.518	144.631	411.969	367.097	397.735	372.596	403.307	357.333	394.026	0.0018707	0.00087573	0.00023824	1000.2	1.1938e-05	5.9075e-06	1013.8	363.14	1.0522e-05	8.6246e-06	478.69	215.27	152.13	67.933	1.0832e-05	104.83	0.00067548	0.0005074	0.0001349	970.53	5.3849e-06	5.4491e-06	983.2	353.69	5.4312e-06	5.5729e-06	465.89	209.12	147.78	66.603	5.657e-06	102.31	296.728	155.194	171.080	94.160	227.126	270.085	93.621	99.235	252.740	222.520	97.696	101.990	103.166	106.745	227.708	104.667	-8191	255	
23597.547	1	1	0	0	0.22568	0.10688	0.14001	0.32846	0.037329	0.24587	0.27448	0.17312	0.18033	0.07076	0.13652	0.25236	0.251	0.096347	0.043234	0.18244	-2.0833	-2.3833	-2.9688	-2.4562	-2.7375	-2.9479	-2.1	-3.0396	-2.7062	-2.3771	-3.4062	-2.4437	-2.5854	-2.9104	-2.2146	-3.0083	197.407	289.865	412.276	415.921	292.186	99.236	109.125	422.164	403.917	171.837	123.355	409.393	402.393	90.301	167.429	415.788	0.0017771	0.00071043	0.00025854	993.21	6.2444e-06	6.3231e-06	1010.7	361.37	7.9453e-06	7.386e-06	474.21	215.43	152.46	68.196	1.103e-05	104.72	0.00066729	0.00050515	0.00013907	968.19	5.4605e-06	5.5466e-06	979.87	353.29	5.4398e-06	5.5208e-06	463.16	209.17	148.16	66.882	5.5459e-06	102.53	293.973	150.766	164.935	94.064	279.854	233.467	93.860	99.325	244.658	226.096	97.341	101.770	103.022	106.750	246.176	104.913	-8191	255	
23597.643	1	1	0	0	0.11646	0.14829	0.024532	0.16888	0.15583	0.089719	0.21695	0.029179	0.079577	0.20731	0.16426	0.45136	0.0252	0.041249	0.026749	0.23483	-2.5062	-2.2917	-3.175	-2.7313	-2.4833	-3.1979	-2.6083	-3.0625	-2.9958	-2.4146	-3.1146	-2.5458	-2.6021	-3.05	-2.4375	-3.0875	194.855	104.761	85.324	417.385	434.468	93.726	82.035	150.028	348.636	146.153	330.364	396.864	229.177	388.060	268.016	364.628	0.0018076	0.0005353	0.00025767	995.55	8.8149e-06	6.0533e-06	1022.1	364.92	1.4956e-05	8.3345e-06	481.48	215.97	153.48	68.073	8.6578e-06	105.21	0.00065376	0.00051013	0.00013758	968.93	5.4983e-06	5.4722e-06	983.91	355.36	5.4654e-06	5.4567e-06	466.57	210.46	149.26	67.028	5.5866e-06	103.11	300.789	132.726	172.787	94.277	260.989	199.276	93.624	99.174	274.191	217.437	97.650	101.897	103.111	106.797	238.386	104.572	-8191	255	
23597.740	1	1	0	0	0.2758	0.15024	0.013484	0.15676	0.21253	0.19256	0.20562	0.23473	0.14173	0.1743	0.21674	0.26697	0.19909	0.20063	0.051425	0.061263	-2.65	-1.9979	-3.1708	-2.6521	-2.3958	-3.1104	-2.4125	-2.8958	-2.7042	-2.1792	-3.0875	-2.7	-2.4542	-3.1312	-2.1354	-2.8125	187.410	263.304	297.169	129.220	405.421	240.216	409.741	395.472	232.913	105.093	315.972	217.820	405.288	103.593	289.505	98.786	0.0018336	0.00038319	0.00017161	1001.8	9.1679e-06	8.6598e-06	1016.8	366.67	9.9828e-06	7.384e-06	480.13	218.88	154.07	68.544	9.9362e-06	105.81	0.00066611	0.0004984	0.00013437	970.74	5.3092e-06	5.2691e-06	984.95	356.39	5.4108e-06	5.5141e-06	468.11	212.14	149.63	67.372	5.5607e-06	103.54	297.040	145.265	196.825	93.908	239.473	249.777	93.860	98.978	262.226	241.895	97.698	102.025	103.016	106.890	223.808	104.613	-8191	255	
23597.836	1	1	0	0	0.24582	0.093324	0.069947	0.046047	0.24082	0.24926	0.23884	0.19896	0.052647	0.14423	0.097874	0.16824	0.16463	0.20432	0.033099	0.27266	-2.4792	-2.0729	-2.8229	-2.8708	-2.2792	-3.0667	-2.5438	-2.4375	-2.8771	-2.2958	-2.85	-2.9188	-2.2271	-3.1188	-2.3333	-2.7313	429.736	213.984	106.013	188.071	359.343	255.113	358.481	408.798	278.641	359.680	88.749	391.250	163.584	383.858	85.230	347.978	0.0018518	0.00091561	0.00015685	1002.4	3.556e-06	9.0424e-06	1021.6	367.08	1.06e-05	4.9247e-06	482.71	218.62	154.02	68.402	9.629e-06	105.16	0.00066778	0.0005074	0.00013613	971.07	5.5397e-06	5.4529e-06	987.95	356.94	5.4498e-06	5.5756e-06	470.01	212.41	149.75	67.288	5.6726e-06	103.29	297.494	163.032	167.025	94.005	270.248	208.441	93.709	99.350	276.583	221.008	97.688	102.107	103.106	106.909	235.383	104.936	-8191	255	
23597.932	1	1	0	0	0.13498	0.058255	0.081192	0.27656	0.096733	0.25762	0.034994	0.11959	0.20127	0.1178	0.11429	0.38836	0.20751	0.29033	0.25124	0.24223	-2.7271	-2.2146	-2.7583	-2.9813	-2.0958	-2.9313	-2.5438	-2.5354	-2.9313	-2.3583	-2.8688	-2.8125	-2.1375	-3.1312	-2.5979	-2.5896	174.817	440.798	111.271	93.683	326.635	101.723	250.409	319.812	336.692	212.848	376.633	378.118	369.714	418.587	239.789	115.635	0.0019188	0.0006901	0.00024234	998.01	1.0826e-05	6.6381e-06	1020.9	366.47	9.7801e-06	4.8418e-06	484.58	218.11	154.77	68.58	8.1405e-06	104.76	0.00066943	0.00051325	0.00013859	969.87	5.6155e-06	5.3947e-06	984.65	356.56	5.4559e-06	5.4648e-06	468.86	211.75	150.19	67.267	5.6698e-06	102.79	296.936	163.727	175.381	94.036	232.233	226.762	93.701	99.191	244.833	240.426	97.615	101.798	103.293	106.889	243.460	104.963	-8191	255	
23598.027	1	1	0	0	0.1381	0.058474	0.18961	0.23273	0.15703	0.29482	0.077582	0.12079	0.1489	0.033621	0.066418	0.26251	0.12636	0.066075	0.092121	0.27993	-2.5833	-2.2292	-2.4792	-3.0146	-2.0938	-2.9875	-2.7521	-2.2458	-3.0667	-2.4167	-2.7208	-2.8604	-2.2229	-3.1979	-2.5563	-2.6458	360.678	407.165	354.919	112.383	101.533	295.514	93.168	431.441	381.730	306.248	387.012	82.617	180.464	124.797	289.482	373.670	0.0017995	0.00056107	0.0002702	1002.7	1.1936e-05	2.9734e-06	1021.7	366.53	1.1531e-05	9.4297e-06	482	218.58	154.12	68.316	1.2585e-05	105.22	0.00066384	0.00050217	0.00014114	973.25	5.5071e-06	5.2328e-06	984.65	356.49	5.4744e-06	5.6599e-06	469.05	212.28	149.74	67.312	5.566e-06	103.03	296.904	177.512	158.435	94.074	251.095	255.945	93.678	99.202	253.579	238.442	97.913	101.639	103.170	107.242	238.687	104.888	-8191	255	
23598.123	1	1	0	0	0.084662	0.23603	0.19017	0.47621	0.091841	0.13345	0.18572	0.059229	0.088818	0.093006	0.08164	0.27301	0.10717	0.16203	0.26933	0.22079	-2.7292	-2.4	-2.425	-2.9875	-2.0854	-2.9604	-2.7167	-2.3646	-3.0542	-2.3187	-2.5187	-3.2271	-2.2583	-2.9146	-2.6937	-2.5125	207.688	232.552	204.513	436.528	146.529	168.268	394.993	435.864	296.060	222.778	347.071	100.723	418.105	108.874	316.656	402.547	0.0018417	0.00070115	0.00020142	1001.5	1.0356e-05	2.1198e-06	1016.5	367.36	1.2686e-05	1.2271e-05	485.31	219.8	156.02	68.755	9.5598e-06	106.25	0.00067085	0.00050495	0.00014195	972.42	5.6164e-06	5.5187e-06	986.92	357.88	5.4794e-06	5.6521e-06	471.62	213.77	151.36	67.796	5.4611e-06	103.7	294.869	163.683	177.229	94.275	248.084	198.515	93.949	99.177	249.124	252.467	97.660	101.987	102.961	106.978	233.309	104.828	-8191	255	
23598.242	1	1	0	0	0.129	0.092264	0.23848	0.23084	0.24917	0.025961	0.17613	0.15361	0.08901	0.057877	0.23617	0.25119	0.12373	0.35363	0.053998	0.26848	-2.4562	-2.3	-2.2583	-2.9958	-2.0708	-2.4479	-2.9833	-2.2104	-2.9833	-2.5292	-2.4938	-2.9729	-2.2458	-2.9021	-2.8896	-2.3271	124.447	229.460	306.199	127.213	263.646	194.739	368.916	102.203	158.134	435.479	103.830	397.490	377.414	383.262	330.904	395.951	0.0018589	0.0009145	0.00019639	1001.9	1.1334e-05	6.1997e-06	1027.6	368.94	9.962e-06	2.9841e-06	486.93	220.18	156.09	68.999	9.6895e-06	105.69	0.00066487	0.0004993	0.00013868	973.25	5.4607e-06	5.4238e-06	991.77	359.71	5.3913e-06	5.2958e-06	474	214.23	151.47	67.751	5.4337e-06	103.69	295.508	179.929	170.937	94.007	240.916	223.132	94.002	99.304	247.497	245.453	97.822	102.186	103.231	107.160	246.417	104.855	-8191	255	
23598.316	1	1	0	0	0.11385	0.23974	0.11753	0.28651	0.23976	0.17028	0.042423	0.20226	0.156	0.065107	0.18384	0.34048	0.14415	0.10003	0.099457	0.29897	-2.4437	-2.5438	-2.3	-3.2417	-2.2604	-2.6146	-2.9729	-2.1875	-2.9208	-2.6188	-2.4667	-3.0958	-2.4583	-2.7396	-2.9792	-2.3729	102.355	110.382	133.177	399.621	308.146	411.526	133.121	355.964	435.354	192.422	399.841	414.445	428.829	126.982	176.284	322.090	0.0018325	0.0009098	0.00023798	1009	9.2588e-06	4.443e-06	1025.2	370.03	9.5949e-06	4.4908e-06	483.62	219.86	155.74	68.93	1.2476e-05	105.27	0.00065676	0.00048848	0.00013408	975.64	5.2754e-06	5.2928e-06	989.64	359.69	5.2316e-06	5.2937e-06	471.63	213.31	151.3	67.713	5.3647e-06	103.19	297.095	167.112	157.325	94.295	254.401	239.924	93.853	99.290	226.825	247.087	97.587	102.080	103.185	107.175	246.223	104.783	-8191	255	
23598.436	1	1	0	0	0.097107	0.23529	0.34495	0.21051	0.070772	0.27136	0.18945	0.04947	0.043189	0.3201	0.31531	0.28411	0.14691	0.16294	0.19643	0.24309	-2.6729	-2.7167	-1.975	-3.1333	-2.35	-2.5167	-3.0958	-2.2396	-2.8208	-2.85	-2.1917	-3.2792	-2.6333	-2.5292	-3.1958	-2.3417	128.528	333.600	381.909	418.444	202.675	375.753	408.423	371.392	272.940	125.857	256.903	364.483	142.667	86.121	121.115	372.375	0.0018223	0.00070509	0.00024231	1004.5	1.3835e-05	5.8669e-06	1020.4	369.62	1.0587e-05	7.7821e-06	485.51	219.5	156.37	68.74	8.1581e-06	105.56	0.0006377	0.000474	0.00013487	975.87	5.2439e-06	5.2957e-06	989.33	359.83	5.3187e-06	5.3254e-06	472.83	213.67	151.95	67.776	5.3851e-06	103.6	297.216	156.925	169.801	94.307	236.783	244.823	93.877	99.225	263.743	214.621	97.957	102.055	103.066	107.280	247.632	104.762	-8191	255	
23598.531	1	1	0	0	0.082749	0.24438	0.15239	0.34522	0.1391	0.15123	0.075067	0.313	0.14369	0.33785	0.18572	0.21154	0.1552	0.3211	0.15475	0.045617	-2.4146	-2.775	-2.2771	-3.3125	-2.5208	-2.2521	-3.2188	-2.3187	-2.6104	-2.9188	-2.2646	-3.0062	-2.5208	-2.2729	-2.9292	-2.4708	236.379	130.966	135.758	404.125	260.437	290.027	123.166	103.827	280.481	355.733	404.986	396.581	106.547	413.080	371.989	306.561	0.0018113	0.00097708	0.00028248	1005	1.2379e-05	6.9415e-06	1021.8	370.18	9.3945e-06	6.3226e-06	488.41	221.32	157.14	69.032	8.1172e-06	106.67	0.00064318	0.00048044	0.00013328	976.96	5.175e-06	5.2588e-06	990.54	360.69	5.2629e-06	5.2139e-06	474.72	214.81	152.37	68.016	5.2829e-06	104.19	296.807	165.878	174.272	94.474	222.672	219.782	93.814	99.187	240.048	236.091	97.925	102.046	103.023	106.935	243.783	104.812	-8191	255	
23598.629	1	1	0	0	0.14686	0.052713	0.036461	0.11	0.25287	0.35574	0.094053	0.11006	0.17432	0.26755	0.19255	0.16503	0.29653	0.10692	0.071694	0.36614	-2.4896	-2.9208	-2.0229	-3.0187	-2.5646	-2.2646	-3.0875	-2.4417	-2.3458	-2.8917	-2.2125	-3.0333	-2.875	-2.4354	-3.0062	-2.5375	281.749	410.842	381.722	217.275	420.681	293.503	362.794	393.849	185.462	95.102	359.679	392.607	394.641	293.013	398.818	389.960	0.0017396	0.00062991	0.00019047	1003.6	1.1055e-05	5.2767e-06	1025.2	371.49	9.9226e-06	5.7847e-06	488.11	222.04	157.5	69.397	1.0942e-05	106.32	0.00064547	0.0004755	0.00013559	975.89	5.3684e-06	5.3972e-06	992.35	361.02	5.3723e-06	5.325e-06	476.27	215.8	152.86	68.23	5.3742e-06	104.21	298.935	143.874	156.216	94.362	232.129	243.207	93.894	99.093	272.366	226.726	97.842	102.125	103.156	107.110	214.637	104.987	-8191	255	
23598.725	1	1	0	0	0.207	0.24802	0.11189	0.31646	0.21815	0.1026	0.0052215	0.24005	0.077723	0.07976	0.0043527	0.17033	0.090524	0.1865	0.12372	0.055236	-2.2729	-2.9417	-2.2125	-2.9417	-2.7542	-2.0646	-3.2729	-2.5625	-2.3854	-3.075	-2.3563	-3.0667	-2.9062	-2.1646	-3.0062	-2.7271	347.873	289.363	290.069	89.592	214.441	145.216	398.758	407.981	222.639	128.558	222.341	88.732	112.578	382.326	308.333	341.542	0.0018176	0.00087169	0.00020935	1005	9.1514e-06	7e-06	1025	371.24	1.1426e-05	5.4061e-06	486.09	220.53	156.3	69.074	1.0973e-05	106.19	0.00066521	0.00049098	0.00013871	976.66	5.3234e-06	5.3345e-06	992.12	361.01	5.2924e-06	5.2132e-06	472.98	214.06	151.85	67.933	5.4416e-06	103.76	297.548	153.658	160.245	94.345	250.507	241.353	94.066	98.985	243.695	201.335	97.859	102.116	103.028	107.205	237.146	105.177	-8191	255	
23598.844	1	1	0	0	0.27456	0.21728	0.16747	0.1808	0.16569	0.16356	0.55859	0.32134	0.20409	0.11286	0.092545	0.2034	0.13241	0.37274	0.078559	0.22309	-1.9813	-2.9833	-2.15	-2.7875	-2.7479	-2.0583	-3.0312	-2.8167	-2.2667	-3.0146	-2.4479	-2.7542	-3.2146	-2.1458	-2.9542	-2.8604	317.069	363.617	168.587	415.554	328.088	268.259	364.360	391.129	338.557	331.973	336.139	109.234	259.795	420.903	362.621	403.098	0.0017683	0.00080819	0.00015971	998	1.3728e-05	5.0255e-06	1018.9	370.31	1.0909e-05	7.7859e-06	486.23	220.62	157.48	69.435	9.082e-06	105.42	0.00064422	0.00047464	0.00013419	973.06	5.2422e-06	5.3354e-06	986.47	360.06	5.2451e-06	5.2086e-06	471.76	214.25	152.39	68.225	5.2714e-06	103.65	297.784	158.414	173.459	94.079	243.599	222.721	93.975	98.984	261.656	241.668	97.807	101.918	103.320	106.952	246.104	104.813	-8191	255	
23598.941	1	1	0	0	0.049445	0.17526	0.17017	0.2102	0.29604	0.022399	0.33193	0.077101	0.27245	0.19833	0.16486	0.18489	0.22226	0.16504	0.069413	0.28386	-1.9708	-2.9083	-2.4104	-2.6521	-3.0667	-2.25	-3.0479	-2.7625	-2.4125	-3.0271	-2.5958	-2.5792	-3.1042	-2.2125	-2.7833	-3.0062	388.500	435.898	161.223	395.606	335.022	356.509	409.832	286.583	422.211	286.418	424.211	427.117	435.275	136.844	370.827	408.884	0.0018314	0.00068913	0.00024803	1004.4	9.1708e-06	6.7174e-06	1026.9	370.79	1.1323e-05	8.9706e-06	486.83	221.52	156.84	69.53	1.0566e-05	106.61	0.00064868	0.00048605	0.00013297	973.83	5.2197e-06	5.078e-06	991.97	360.51	5.2328e-06	5.1625e-06	473.18	214.85	152.42	68.126	5.4338e-06	104.16	295.453	169.773	159.185	94.469	250.215	224.396	94.041	99.093	265.158	242.023	97.580	101.989	103.253	106.949	233.681	104.982	-8191	255	
23599.012	1	1	0	0	0.18558	0.048416	0.30754	0.24069	0.064477	0.13483	0.29085	0.29006	0.1487	0.14897	0.30167	0.15369	0.14746	0.099172	0.11632	0.18139	-1.7375	-3.0104	-2.5229	-2.5208	-3.125	-2.125	-2.9938	-3.0292	-2.1083	-3.1208	-2.6521	-2.4313	-3.0104	-2.45	-2.7625	-3.15	126.054	170.797	169.260	377.316	96.103	245.786	391.915	412.489	119.965	105.691	394.183	156.905	84.968	379.334	221.502	101.432	0.0018777	0.00059658	0.00019374	1006.3	8.58e-06	5.2263e-06	1026.9	371.38	1.0874e-05	7.9252e-06	488.84	221.55	158.04	69.554	9.7923e-06	106.43	0.00065112	0.00047008	0.00013089	974.55	5.0555e-06	5.1208e-06	992.92	361.53	5.2352e-06	5.1026e-06	475.49	215.36	152.88	68.388	5.305e-06	104.23	296.548	146.104	145.144	94.458	246.102	224.784	94.375	99.275	257.535	234.905	97.948	102.346	102.997	107.124	247.928	104.953	-8191	255	
23599.133	1	1	0	0	0.31337	0.26394	0.12269	0.10954	0.085563	0.15856	0.33559	0.33544	0.2024	0.12194	0.22623	0.047543	0.22172	0.064779	0.13142	0.29608	-1.825	-3.1063	-2.4208	-2.3854	-2.8479	-2.175	-2.6708	-2.8729	-2.0146	-2.9271	-2.6521	-2.3312	-3.1354	-2.4875	-2.3708	-3.1104	372.063	423.896	437.218	81.638	152.119	152.309	337.514	376.626	106.880	393.240	406.371	358.227	356.058	203.425	121.653	368.117	0.0018625	0.00060565	0.00021016	1006	1.0629e-05	4.0568e-06	1026.6	370.51	1.2582e-05	7.7263e-06	486.65	220.38	158.54	69.234	1.0128e-05	105.89	0.00064337	0.00047851	0.00012874	977.1	5.1739e-06	5.1684e-06	990.65	361.13	5.2741e-06	5.1361e-06	471.94	214.12	153.02	68.005	5.1891e-06	103.54	297.120	147.005	161.419	94.413	232.788	214.571	94.184	99.086	249.299	263.340	97.869	102.032	103.431	107.132	247.630	104.763	-8191	255	
23599.229	1	1	0	0	0.12881	0.24331	0.17436	0.24893	0.20503	0.22633	0.16918	0.44638	0.1344	0.1352	0.10125	0.24505	0.063306	0.087477	0.20419	0.23617	-1.8104	-2.9521	-2.9104	-2.2938	-3.1729	-2.2771	-2.5354	-3.2208	-2.0792	-3.0021	-2.9729	-2.2208	-3.2	-2.5958	-2.4229	-3.1771	237.132	258.066	359.259	426.236	123.975	184.551	437.726	410.298	340.671	328.951	187.930	273.327	173.591	219.828	332.159	386.882	0.0018311	0.00089719	0.00023511	1004.8	1.1448e-05	5.3015e-06	1020.4	371.36	1.1008e-05	6.8354e-06	488.01	220	157.57	69.267	8.8706e-06	106.02	0.00063667	0.00047716	0.00012961	974.39	5.1391e-06	5.1167e-06	988.55	361.47	5.1825e-06	5.2483e-06	473.67	214.38	153.16	68.103	5.257e-06	103.79	295.613	159.590	159.766	94.518	239.102	226.064	94.004	99.322	260.641	259.182	97.944	101.996	102.982	106.881	218.015	105.027	-8191	255	
23599.322	1	1	0	0	0.16461	0.2039	0.11283	0.16238	0.10065	0.20792	0.18902	0.22078	0.27693	0.070977	0.17355	0.39044	0.16883	0.36783	0.15522	0.21682	-1.7229	-2.7979	-2.75	-2.2583	-2.9896	-2.5812	-2.3875	-3.1271	-2.0938	-2.6333	-3	-2.4604	-3.1958	-2.6562	-2.3	-3.3354	203.693	359.315	232.168	432.965	340.300	190.474	356.786	437.982	404.050	203.923	312.376	378.677	268.155	401.800	353.460	363.741	0.001913	0.0009269	0.00019101	1005.1	8.0468e-06	4.5758e-06	1028.2	372.55	1.4745e-05	4.0137e-06	488.02	221.52	158.95	69.702	1.0944e-05	106.7	0.00065072	0.00046709	0.0001293	974.85	4.9241e-06	5.0723e-06	991.95	362.55	5.1937e-06	5.0319e-06	475.96	215.49	153.56	68.366	5.2635e-06	104.44	299.393	148.875	160.265	94.477	251.530	238.384	94.191	99.370	261.766	228.616	97.723	102.090	103.120	107.122	242.705	105.188	-8191	255	
23599.420	1	1	0	0	0.068513	0.10291	0.11839	0.19398	0.16326	0.04743	0.19082	0.078005	0.21992	0.042268	0.44876	0.11208	0.28487	0.40627	0.14828	0.2236	-1.9375	-2.5292	-2.7833	-2.1583	-2.7	-2.7667	-2.3667	-3.1083	-2.325	-2.6146	-2.9208	-2.2062	-2.8917	-2.8875	-2.3646	-3.2125	106.153	438.262	401.162	81.670	254.947	263.266	385.162	347.083	99.225	182.775	359.460	122.524	396.102	425.959	143.967	277.581	0.0018072	0.00070784	0.00025267	1004.2	1.0038e-05	4.0391e-06	1026.7	372.56	6.4025e-06	8.0149e-06	491.19	222.22	158.34	69.659	1.0673e-05	106.67	0.00064721	0.00047428	0.0001295	977.26	5.108e-06	5.1016e-06	995.25	362.71	5.2558e-06	5.1173e-06	477.41	216.42	153.63	68.58	5.323e-06	104.58	296.357	177.002	182.795	94.551	221.846	255.577	93.945	99.550	254.506	229.251	97.897	102.312	103.473	107.207	244.846	105.155	-8191	255	
23599.539	1	1	0	0	0.14973	0.17849	0.17911	0.18926	0.10068	0.085039	0.33831	0.18531	0.10664	0.13861	0.20918	0.26585	0.080766	0.19399	0.1651	0.22771	-1.9813	-2.5271	-2.8667	-2.1479	-2.8937	-2.8667	-2.1875	-3.0604	-2.35	-2.3271	-3.1188	-2.2771	-2.8229	-2.9083	-2.325	-3.1771	258.978	195.446	332.186	419.146	141.016	242.751	372.373	86.640	435.550	182.506	405.111	398.973	100.677	82.673	376.583	432.559	0.0019404	0.00071072	0.00020173	1007.8	1.1762e-05	6.0603e-06	1024.7	372.5	1.2541e-05	5.0721e-06	487.21	221.35	157.41	69.471	1.3106e-05	106.13	0.00064593	0.00047119	0.00012916	974.88	5.1218e-06	5.0415e-06	992.14	362.43	5.257e-06	5.124e-06	474.3	215.25	153.12	68.261	5.2751e-06	103.94	296.756	167.799	158.482	94.295	249.924	233.699	94.337	99.555	276.191	213.276	97.732	102.276	103.437	107.233	230.668	105.419	-8191	255	
23599.611	1	1	0	0	0.14244	0.22996	0.2179	0.31005	0.10411	0.1913	0.20907	0.2115	0.24937	0.16301	0.17175	0.23682	0.16724	0.088351	0.10182	0.2109	-2.2354	-2.1292	-2.9375	-2.3792	-2.7208	-2.9604	-2.1937	-3.1604	-2.5979	-2.3563	-3.1042	-2.2667	-2.6875	-3.0333	-2.0021	-2.95	293.965	89.541	103.129	81.915	188.009	85.897	294.346	397.859	184.851	262.291	212.334	119.211	423.900	89.390	268.788	380.713	0.0018369	0.00068477	0.00021525	1005	1.0438e-05	4.6734e-06	1027	372.54	1.0068e-05	5.1737e-06	487.37	220.79	157.35	69.656	9.575e-06	106.63	0.00063966	0.00047521	0.00012915	974.65	5.0588e-06	5.1468e-06	988.48	361.31	5.1478e-06	5.1561e-06	473.59	214.61	153.06	68.286	5.2244e-06	104.33	296.597	168.318	185.238	94.243	248.068	231.316	94.106	99.528	268.978	229.938	97.749	102.182	103.366	107.153	274.746	105.219	-8191	255	
23599.707	1	1	0	0	0.1048	0.13244	0.10863	0.42237	0.18714	0.14834	0.1276	0.30439	0.079037	0.13622	0.35885	0.29664	0.20617	0.18085	0.1734	0.066454	-2.3625	-2.2896	-2.9771	-2.4146	-2.4938	-3.0604	-2.2604	-2.9	-2.7833	-2.2708	-3.1042	-2.625	-2.5812	-3.1792	-2.2313	-3.025	333.789	93.484	275.637	430.705	433.496	244.698	380.971	380.458	212.856	326.854	394.790	397.575	376.831	409.867	254.318	293.021	0.0018574	0.00074489	0.00019614	1002.6	1.2059e-05	5.8449e-06	1025.1	373.61	1.3956e-05	8.7876e-06	488.88	222.15	158.37	69.777	1.0135e-05	106.89	0.00064638	0.00048449	0.00013076	974.07	5.0394e-06	5.0316e-06	991.2	361.85	5.2193e-06	5.0541e-06	475.83	215.58	153.48	68.58	5.3508e-06	104.57	296.867	161.865	162.719	94.570	248.719	234.083	94.169	99.675	250.227	255.288	98.189	102.296	103.396	107.493	240.363	105.224	-8191	255	
23599.805	1	1	0	0	0.10556	0.20121	0.17721	0.24641	0.22735	0.305	0.24656	0.27416	0.24237	0.21496	0.33317	0.13421	0.2917	0.10605	0.18848	0.056412	-2.275	-2.0979	-2.8354	-2.5438	-2.3042	-2.9583	-2.5021	-2.8875	-2.8083	-2.2854	-3.2021	-2.6042	-2.6458	-3.2146	-2.3438	-2.95	115.172	111.433	440.242	83.147	379.666	302.059	369.501	402.221	342.535	323.417	401.372	371.572	215.036	412.382	112.168	96.313	0.0018901	0.00076024	0.00022529	1007	1.4068e-05	6.8428e-06	1024.3	372.55	1.1026e-05	8.1714e-06	493.01	223.71	158	70.077	8.8998e-06	106.91	0.00064501	0.00047714	0.00013077	975.53	5.0645e-06	4.9819e-06	993.56	363.18	5.0598e-06	5.2117e-06	479.01	217.09	153.74	68.821	5.3117e-06	105.01	294.564	149.710	184.241	94.620	244.893	225.906	94.327	99.446	247.361	249.006	97.879	102.367	103.415	107.447	250.930	105.428	-8191	255	
23599.926	1	1	0	0	0.060705	0.25506	0.14551	0.18521	0.015751	0.11585	0.11056	0.41687	0.044555	0.14261	0.19102	0.087498	0.078443	0.24565	0.089208	0.21108	-2.5354	-2.1333	-2.9271	-2.6312	-2.2	-3.1229	-2.3187	-2.6813	-2.7833	-2.4083	-2.9875	-2.6583	-2.2	-3.1771	-2.425	-2.7104	247.257	178.105	101.639	327.007	141.362	435.295	176.039	361.774	404.808	434.565	97.003	384.931	394.522	387.068	176.335	375.341	0.0018133	0.00068844	0.00012871	1005.9	9.7115e-06	3.2982e-06	1025.4	373.06	1.3846e-05	8.796e-06	488.4	222.01	157.96	69.57	1.189e-05	106.44	0.00064728	0.00046862	0.00012893	976.28	5.1151e-06	5.0228e-06	994.08	363.07	5.1381e-06	5.189e-06	475.96	215.26	153.3	68.475	5.2331e-06	104.09	295.340	159.628	167.774	94.462	240.444	246.201	94.401	99.827	249.967	240.505	98.233	102.469	103.591	107.420	227.240	105.623	-8191	255	
23600.021	1	1	0	0	0.22249	0.2421	0.047304	0.089726	0.058264	0.19394	0.018913	0.051118	0.16331	0.21665	0.1893	0.1037	0.23463	0.26382	0.19256	0.37803	-2.5521	-2.0083	-2.7875	-2.9458	-2.2438	-2.9979	-2.6125	-2.5604	-2.9625	-2.1833	-3.0146	-2.8396	-2.2583	-3.0812	-2.3604	-2.55	251.223	328.126	367.959	98.658	297.848	386.358	239.669	351.019	171.692	224.470	311.316	273.850	122.861	362.404	433.793	390.847	0.0017783	0.00070258	0.00017995	1005.6	9.1112e-06	5.5506e-06	1024.6	372.55	1.3846e-05	7.915e-06	489.01	221.37	158.11	69.823	9.595e-06	106.54	0.0006294	0.00047304	0.00013069	975.44	5.1218e-06	5.1095e-06	990.8	363.03	4.9715e-06	5.2016e-06	475.25	215.28	153.7	68.592	5.0902e-06	104.24	295.479	165.395	176.000	94.637	232.765	224.729	94.543	99.734	269.074	237.797	98.178	102.502	103.930	107.582	251.199	105.491	-8191	255	
23600.117	1	1	0	0	0.043112	0.1585	0.11209	0.21983	0.17773	0.092194	0.24062	0.18648	0.2886	0.28729	0.24047	0.15827	0.16594	0.23319	0.14658	0.33758	-2.8146	-2.2958	-2.7833	-2.9938	-2.2083	-3.1604	-2.6646	-2.5604	-3.0167	-2.3063	-2.8354	-2.8688	-2.4938	-3.0104	-2.7812	-2.4542	380.153	183.601	409.746	88.117	345.089	386.186	100.457	364.786	162.969	281.861	375.556	358.859	388.139	107.143	193.958	437.398	0.0017069	0.00065082	0.0002124	1003.7	1.0089e-05	7.5168e-06	1029.6	373.72	1.2849e-05	7.917e-06	490.84	222.94	159.32	69.545	1.0094e-05	106.51	0.00062677	0.00047328	0.00013054	977.05	5.1248e-06	5.05e-06	993.55	362.77	5.0026e-06	5.1058e-06	476.99	216.21	154.03	68.574	5.2083e-06	104.59	299.361	175.040	191.607	94.486	247.015	221.981	94.482	99.693	255.255	226.920	98.481	102.297	103.675	107.615	245.346	105.501	-8191	255	
23600.213	1	1	0	0	0.15417	0.27081	0.18665	0.063783	0.18443	0.10063	0.094144	0.33585	0.10151	0.20187	0.22965	0.25929	0.11773	0.21276	0.13276	0.11677	-2.7354	-2.2479	-2.5708	-3.1	-2.1417	-2.9729	-2.8229	-2.3792	-2.9375	-2.4458	-2.5229	-3.1063	-2.4333	-2.8521	-2.7146	-2.3667	169.945	225.967	211.058	342.450	354.387	269.529	133.539	395.523	407.070	353.821	416.331	322.133	97.437	401.753	83.559	421.472	0.0017355	0.0009961	0.00025093	1005.9	6.2199e-06	7.5031e-06	1031.8	374.52	1.1802e-05	5.988e-06	493.39	222.82	158.81	70.098	6.992e-06	107.35	0.00062427	0.00045784	0.0001313	977.74	5.2299e-06	5.036e-06	996.55	363.99	4.9665e-06	5.051e-06	479.64	216.8	154.23	68.841	5.2999e-06	104.94	297.350	160.531	200.332	94.999	279.329	228.953	94.301	99.914	250.034	262.543	98.357	102.580	103.518	107.656	239.453	105.463	-8191	255	
23600.309	1	1	0	0	0.10964	0.11646	0.16276	0.14706	0.13298	0.058704	0.36917	0.093585	0.047866	0.072671	0.19458	0.20379	0.48938	0.11679	0.089474	0.33408	-2.7188	-2.3208	-2.4854	-3.2062	-2.2104	-2.8458	-2.8792	-2.2208	-3.0896	-2.3917	-2.5062	-3.3042	-2.3292	-2.9125	-2.7875	-2.4167	355.283	161.616	224.917	146.271	222.510	261.759	428.033	405.209	389.890	418.524	333.412	381.868	341.658	388.791	309.414	399.586	0.0018833	0.00058235	0.00024223	1007.5	1.0979e-05	6.0983e-06	1032.4	376.41	1.0496e-05	1.1384e-05	489.99	222.3	158.33	69.661	1.0867e-05	106.14	0.00064733	0.0004733	0.00013025	978.11	5.0784e-06	5.0933e-06	996.4	364.94	5.0617e-06	5.1679e-06	477.51	216.07	153.9	68.421	5.2051e-06	104.01	296.291	178.539	165.461	94.644	255.934	238.532	94.501	99.802	259.886	222.065	98.566	102.812	103.902	107.675	230.473	105.602	-8191	255	
23600.406	1	1	0	0	0.072642	0.16945	0.046732	0.1323	0.11836	0.16593	0.098379	0.15853	0.28031	0.059588	0.26588	0.22387	0.14331	0.10354	0.1418	0.16036	-2.7146	-2.4125	-2.225	-3.1437	-2.2458	-2.6125	-3.0979	-2.2	-2.9542	-2.4229	-2.2146	-3.1063	-2.2417	-2.6979	-2.6896	-2.1229	116.985	104.830	280.210	343.758	304.217	383.658	377.980	344.547	316.462	171.575	384.634	140.460	433.696	414.702	116.140	143.174	0.0018784	0.00081741	0.00022377	1010.2	7.1763e-06	5.8897e-06	1027.3	374.22	7.6978e-06	1.1148e-05	492.9	221.03	158.32	69.839	1.1151e-05	105.85	0.00063763	0.00047281	0.00012948	976.07	5.1284e-06	5.046e-06	990.82	363.46	5.1702e-06	5.1461e-06	477.01	215.35	153.76	68.418	5.1861e-06	103.9	296.789	171.166	184.981	94.915	243.043	225.063	94.433	99.850	261.556	231.236	98.298	102.711	104.003	107.725	239.847	105.688	-8191	255	
23600.523	1	1	0	0	0.20963	0.14509	0.11961	0.28501	0.070387	0.36277	0.39384	0.22644	0.15489	0.28407	0.13246	0.27111	0.24519	0.26409	0.17919	0.23363	-2.5771	-2.5271	-2.0083	-3.1188	-2.1813	-2.3417	-3.0042	-2.1437	-2.8833	-2.7625	-2.3021	-3.1208	-2.3521	-2.5646	-2.9583	-2.2146	321.567	290.075	209.575	357.072	91.517	207.306	403.123	404.491	253.337	413.300	402.757	395.559	136.681	396.899	403.860	440.330	0.0017359	0.00073829	0.00019433	1005.1	8.1562e-06	4.6492e-06	1027.7	374.99	9.8302e-06	9.9206e-06	491.96	222.44	158.28	70.116	9.1592e-06	106.35	0.00062067	0.00046483	0.00012939	975.6	5.0953e-06	5.0999e-06	994.68	363.54	5.0868e-06	5.1271e-06	479.09	216.46	153.85	68.553	5.1702e-06	104.33	296.806	167.700	167.079	95.097	270.564	225.918	94.751	99.887	268.318	224.616	98.763	102.739	103.962	107.796	237.169	105.499	-8191	255	
23600.621	1	1	0	0	0.10175	0.2174	0.16037	0.084423	0.0406	0.16024	0.15947	0.2564	0.14864	0.11722	0.33672	0.33732	0.21157	0.2583	0.13605	0.31289	-2.3771	-2.6813	-2.2	-3.1333	-2.4688	-2.3917	-3.0333	-2.3625	-2.7646	-2.7979	-2.2458	-3.2062	-2.5021	-2.4875	-3.0021	-2.2938	278.303	185.034	93.437	352.978	407.555	280.762	137.325	436.220	259.359	182.012	386.994	382.501	412.304	386.998	397.671	365.689	0.0017758	0.0006512	0.0001665	1009.8	1.0725e-05	8.8346e-06	1033.7	375.78	1.2883e-05	8.2175e-06	494.97	225.33	159.52	69.758	1.2021e-05	106.91	0.00063272	0.00045949	0.00013025	978.2	5.0288e-06	5.0951e-06	997.61	364.9	5.0747e-06	5.0327e-06	480.77	217.97	154.75	68.599	5.0904e-06	104.86	298.064	162.372	167.753	94.956	243.015	218.954	94.585	100.223	263.228	229.044	98.627	102.809	103.935	107.811	230.047	105.764	-8191	255	
23600.717	1	1	0	0	0.1577	0.13169	0.15158	0.22756	0.13968	0.2621	0.34277	0.12951	0.19929	0.18972	0.13616	0.13887	0.17223	0.1326	0.29194	0.13468	-2.2333	-2.8333	-1.925	-3.1104	-2.3187	-2.1875	-3.525	-2.2646	-2.5312	-2.8438	-2.4396	-3.0417	-2.8521	-2.4042	-3.0854	-2.3917	249.583	139.449	431.916	374.234	249.596	243.982	369.697	145.429	140.609	194.990	388.250	84.965	409.746	395.420	248.727	305.234	0.0018638	0.00091663	0.00013395	1012.5	1.2241e-05	5.0543e-06	1028.1	376.14	1.0873e-05	7.9776e-06	497.35	224.33	158.52	69.64	9.0927e-06	106.89	0.0006443	0.00046107	0.00012697	981.13	4.8754e-06	5.0712e-06	997.98	365.52	5.0244e-06	4.9388e-06	481.45	217.57	154.61	68.474	5.1579e-06	104.46	297.262	149.017	141.039	95.116	227.986	213.604	94.800	99.992	264.003	236.580	98.486	102.764	103.919	107.815	248.000	105.751	-8191	255	
23600.838	1	1	0	0	0.20513	0.040223	0.17158	0.25517	0.11041	0.18595	0.084318	0.19825	0.085682	0.06991	0.16917	0.13785	0.37516	0.43283	0.10133	0.36717	-2.1562	-2.9167	-2.0604	-2.7979	-2.6688	-2.2771	-3.1354	-2.575	-2.3583	-3.1458	-2.2125	-2.8917	-2.8458	-2.1958	-3.0625	-2.6104	111.956	433.622	344.657	91.006	170.794	226.467	313.908	409.093	350.615	319.060	408.856	403.315	116.965	389.056	206.342	361.543	0.0018696	0.00074467	0.00035427	1004.4	8.2447e-06	7.7026e-06	1028.5	375.61	7.7092e-06	8.7168e-06	492.78	223.27	159.04	69.728	8.4737e-06	106.56	0.00063295	0.00045982	0.0001292	977.34	4.9826e-06	5.0874e-06	996.88	365.39	5.0624e-06	4.9797e-06	479.31	216.92	154.49	68.468	5.056e-06	104.19	295.810	147.619	169.589	95.120	257.654	222.325	94.691	99.816	249.581	240.221	98.561	102.827	104.326	108.072	247.881	105.876	-8191	255	
23600.908	1	1	0	0	0.34824	0.3177	0.10965	0.27413	0.2666	0.13756	0.31993	0.054652	0.1493	0.089405	0.20604	0.064678	0.097339	0.20043	0.40877	0.075864	-2.0083	-2.8333	-2.2938	-2.7313	-2.8833	-2.1417	-3.1542	-2.5708	-2.2771	-3.0604	-2.425	-3.0625	-2.9375	-2.15	-2.85	-2.7646	247.604	153.907	216.569	116.610	149.305	92.881	382.680	362.633	202.771	410.806	404.524	110.899	440.271	115.280	385.907	394.934	0.0019126	0.00076916	0.00021284	1014.3	1.1315e-05	5.2005e-06	1033.9	376.49	1.1873e-05	1.1744e-05	494.84	225.58	159.59	69.936	1.1658e-05	106.87	0.00063584	0.00047124	0.0001272	980.75	4.9854e-06	5.0674e-06	998.21	365.99	5.0591e-06	5.0271e-06	480.9	218.17	154.79	68.595	5.0761e-06	104.64	297.205	147.972	156.126	95.282	248.557	253.318	94.788	100.010	257.655	230.658	98.375	103.164	104.022	108.083	249.463	105.704	-8191	255	
23601.006	1	1	0	0	0.12468	0.28655	0.27103	0.12056	0.21848	0.17286	0.12518	0.28167	0.18792	0.24043	0.34789	0.22291	0.12145	0.15938	0.27778	0.44487	-1.8792	-2.8812	-2.1792	-2.7646	-2.8708	-2.2604	-3.0625	-2.8583	-2.275	-3.1958	-2.4021	-2.5563	-3	-2.2979	-2.8375	-2.7708	167.855	274.862	181.948	435.812	151.179	270.426	381.015	86.372	391.754	163.708	425.392	121.383	401.817	189.501	342.372	360.627	0.0019166	0.00074312	0.00023044	1014.1	1.041e-05	7.5022e-06	1037.5	376.83	1.3764e-05	7.5615e-06	495.66	225.23	160.28	70.268	1.2933e-05	107.21	0.00064955	0.00046487	0.00012799	981.68	5.0591e-06	5.137e-06	1002.9	366.9	5.125e-06	5.1139e-06	481.86	218.51	155.64	68.817	5.1525e-06	104.96	293.482	157.551	192.277	95.198	233.167	251.976	94.783	100.130	262.299	237.899	98.556	102.973	103.822	107.807	235.888	105.840	-8191	255	
23601.102	1	1	0	0	0.29197	0.082071	0.18326	0.17244	0.17099	0.1268	0.34887	0.268	0.093876	0.13486	0.21707	0.18007	0.23149	0.35979	0.11688	0.080064	-1.8563	-2.9708	-2.3458	-2.5729	-2.9896	-2.0917	-2.9083	-2.8583	-2.3354	-3.0312	-2.6292	-2.6188	-3.0396	-2.3354	-2.7042	-3.2646	317.724	372.768	167.183	417.107	302.158	436.777	382.168	426.553	189.491	104.469	387.022	417.937	389.304	430.720	211.747	137.705	0.001861	0.00051207	0.0002239	1009.6	1.1332e-05	6.4321e-06	1040.4	378.14	9.639e-06	8.1207e-06	498.19	225.12	161.15	70.09	1.2516e-05	106.38	0.0006489	0.00045754	0.00013196	983.28	4.9402e-06	5.0119e-06	1004.1	367.31	5.1886e-06	4.9902e-06	483.17	218.5	155.64	68.714	5.2941e-06	104.32	295.869	173.043	151.513	95.350	234.966	240.751	94.735	99.917	251.546	222.932	98.678	102.893	104.039	107.713	252.450	105.574	-8191	255	
23601.221	1	1	0	0	0.21049	0.20501	0.20993	0.15768	0.22809	0.17498	0.11834	0.22127	0.26596	0.28202	0.19227	0.15895	0.29686	0.45573	0.15658	0.095325	-1.8083	-3.1688	-2.4104	-2.4792	-3.2375	-2.2333	-2.9396	-2.9104	-2.0917	-3.0771	-2.7729	-2.4542	-3.1063	-2.5604	-2.7042	-3.225	220.341	112.702	293.296	154.210	172.841	88.995	126.424	140.246	116.592	417.907	350.998	103.082	394.332	408.380	317.195	301.666	0.0019813	0.00085249	0.00026737	1013.6	7.8053e-06	9.4176e-06	1031.5	376.63	7.2638e-06	8.6484e-06	494.18	225.42	160.01	69.894	1.1314e-05	106.36	0.00064727	0.00046168	0.00013095	982.33	5.0013e-06	5.216e-06	999.58	366.74	5.1298e-06	5.093e-06	480.87	217.77	155.52	68.528	5.2257e-06	104.21	296.216	157.875	170.945	94.852	239.695	237.906	94.847	99.767	247.737	204.052	98.620	103.148	104.160	108.552	229.050	105.859	-8191	255	
23601.316	1	1	0	0	0.060851	0.027991	0.099155	0.23575	0.16683	0.13955	0.26606	0.16816	0.29001	0.054412	0.17943	0.11317	0.04379	0.26182	0.18174	0.3868	-1.7354	-2.9792	-2.7542	-2.4021	-3.0104	-2.3312	-2.9667	-3.0292	-2.1396	-2.8438	-2.7729	-2.4083	-3.2021	-2.5938	-2.55	-3.0708	290.529	354.628	194.050	329.184	123.119	203.793	182.368	425.489	287.375	410.041	414.962	148.295	86.460	414.621	403.725	415.719	0.0018255	0.00098857	0.00021001	1016.1	1.1224e-05	6.0729e-06	1036.9	377.84	1.4732e-05	5.9077e-06	498.08	225.57	160.82	70.111	1.0653e-05	106.9	0.00063723	0.00046823	0.00012875	982.56	4.9918e-06	5.0385e-06	1002.3	367.82	5.2364e-06	5.1445e-06	482.92	218.72	156.09	68.802	5.313e-06	104.65	295.837	142.969	181.816	95.277	246.112	215.204	94.995	100.074	256.658	238.118	98.518	103.119	103.904	107.881	214.862	106.072	-8191	255	
23601.412	1	1	0	0	0.24156	0.25356	0.10777	0.22455	0.31127	0.061471	0.28998	0.12403	0.10752	0.15407	0.041051	0.23858	0.10206	0.23142	0.24665	0.20643	-1.8375	-2.9583	-2.8438	-2.2125	-2.9729	-2.4479	-2.3167	-3.2333	-2.25	-2.7229	-2.9521	-2.1437	-3.1917	-2.5146	-2.4229	-3.3542	166.971	168.156	246.553	385.522	174.089	97.509	331.398	435.006	119.402	337.686	102.941	407.543	417.253	364.775	344.359	348.355	0.001873	0.00067847	0.00027936	1011.5	7.8963e-06	5.8956e-06	1034.7	380.01	1.4549e-05	7.8455e-06	500.35	226.22	161.86	70.207	1.2057e-05	107.37	0.00064452	0.00047846	0.00013043	982.44	5.033e-06	5.1675e-06	1002.8	368.85	5.1588e-06	5.0937e-06	485.96	219.62	156.54	68.942	5.1845e-06	105.11	300.483	166.205	164.907	95.579	255.299	211.290	95.025	100.449	264.921	250.319	98.406	103.120	104.101	107.733	236.021	105.900	-8191	255	
23601.486	1	1	0	0	0.04449	0.2989	0.062387	0.27402	0.1462	0.075628	0.16261	0.32037	0.3655	0.070043	0.14843	0.28279	0.20774	0.10521	0.16277	0.20923	-2.0042	-2.65	-2.8583	-2.2625	-2.9396	-2.6646	-2.375	-3.0417	-2.3083	-2.6646	-2.9354	-2.3167	-3.0125	-2.7917	-2.1396	-3.2854	112.055	174.863	222.989	102.006	325.580	269.189	429.671	373.397	354.411	404.327	408.174	377.429	274.901	375.205	245.202	404.488	0.0018489	0.00076798	0.00028193	1017.5	1.0114e-05	9.1455e-06	1040.7	380.4	1.0424e-05	7.9276e-06	501.4	226.45	161.44	70.175	1.408e-05	107	0.00064479	0.00047179	0.00013108	985.87	5.2079e-06	5.1476e-06	1006	369.48	4.9973e-06	5.0858e-06	486.74	219.8	156.53	68.892	5.1358e-06	104.85	295.755	173.295	154.656	95.329	231.020	219.256	95.258	100.514	265.507	220.126	98.977	103.143	104.206	107.865	237.683	105.857	-8191	255	
23601.605	1	1	0	0	0.071537	0.23967	0.042206	0.30779	0.17937	0.074332	0.12735	0.55044	0.25767	0.10714	0.16593	0.32266	0.21763	0.34792	0.26747	0.27157	-1.8937	-2.65	-2.8042	-2.4562	-2.8083	-2.675	-2.2208	-3.1833	-2.3708	-2.3875	-3.1312	-2.2958	-2.9146	-2.7938	-2.2521	-3.2062	194.567	362.820	328.435	423.770	338.601	151.834	93.053	440.213	140.416	347.473	386.332	438.795	412.630	398.848	359.895	385.035	0.0019014	0.00055991	0.00020657	1015.6	1.2092e-05	5.0234e-06	1040.2	379.89	1.0518e-05	7.6556e-06	495.4	225.62	160.28	69.687	8.2096e-06	107.09	0.00064221	0.00046911	0.00012819	983.06	5.1307e-06	5.197e-06	1001.8	369.05	5.1858e-06	5.0509e-06	483.2	218.9	156.12	68.707	5.1581e-06	104.64	296.824	165.235	180.501	95.067	239.055	220.577	95.135	100.152	272.482	228.289	98.574	102.737	103.961	107.854	241.236	105.858	-8191	255	
23601.701	1	1	0	0	0.080566	0.19166	0.11425	0.071441	0.028215	0.15339	0.17551	0.2014	0.050337	0.18753	0.30592	0.19425	0.22876	0.33166	0.21154	0.22581	-2.0667	-2.4833	-3.0042	-2.4688	-2.8563	-2.5896	-2.3479	-3.1875	-2.4479	-2.4667	-3.2896	-2.4146	-2.9562	-3.0667	-2.2292	-3.2354	135.541	165.581	358.562	126.145	280.383	128.766	403.816	417.421	360.548	281.635	368.011	381.739	379.279	388.123	88.808	396.022	0.0018259	0.00085492	0.00027855	1019.2	8.1522e-06	4.4507e-06	1035.8	380.01	1.1212e-05	9.9576e-06	496.87	226.01	161.28	70.016	5.411e-06	106.98	0.00064106	0.00047049	0.00013215	984.97	5.1016e-06	5.0255e-06	1003.4	369.29	5.1291e-06	5.3219e-06	484.89	219.55	156.75	68.888	5.1873e-06	104.98	298.280	151.906	173.046	95.252	235.893	225.578	95.000	100.383	260.745	239.664	98.909	103.225	104.231	108.072	248.530	106.300	-8191	255	
23601.797	1	1	0	0	0.25976	0.090021	0.1834	0.35072	0.1391	0.19672	0.14533	0.54487	0.027346	0.033127	0.15191	0.30102	0.20832	0.26328	0.17672	0.21375	-2.3083	-2.05	-2.9688	-2.2229	-2.5646	-2.9938	-2.3646	-3.0917	-2.6813	-2.2833	-3.1167	-2.3937	-2.7104	-3.0208	-2.0375	-3.1542	267.082	289.964	395.876	389.817	193.099	434.127	116.649	352.932	308.978	309.344	259.695	411.309	99.983	433.802	337.711	402.147	0.00184	0.00078618	0.00013068	1014.3	7.4261e-06	7.5589e-06	1043.1	380.5	1.1358e-05	7.6528e-06	503.01	227.61	161.71	70.106	1.1426e-05	107.84	0.00064195	0.00047395	0.00013005	985.66	5.0571e-06	5.0593e-06	1008	370.23	5.1543e-06	5.0791e-06	488.88	220.42	157.25	69.074	5.3902e-06	105.69	296.182	182.671	137.740	95.182	205.754	236.837	95.509	100.322	251.028	237.692	98.856	102.951	104.031	107.924	235.908	105.856	-8191	255	
23601.918	1	1	0	0	0.15704	0.12015	0.26053	0.18506	0.11197	0.2366	0.15987	0.089822	0.26704	0.12653	0.26327	0.11028	0.1266	0.30451	0.13237	0.14026	-2.2417	-2.2083	-2.9042	-2.4917	-2.4792	-3.0583	-2.2604	-3.0771	-2.7375	-2.1458	-3.1521	-2.7562	-2.4208	-3.1542	-2.1583	-3.0187	349.325	301.934	150.291	257.018	284.407	153.879	334.285	292.758	231.045	114.040	327.837	363.706	144.701	401.023	366.555	312.618	0.0018392	0.00065395	0.00022205	1014.5	1.2465e-05	6.8141e-06	1041.6	382.96	1.2117e-05	8.9141e-06	503.21	227.41	162.81	70.118	8.9255e-06	107.48	0.00064577	0.00048354	0.00013127	985.01	5.1334e-06	5.1921e-06	1008.9	371.48	5.1704e-06	5.2494e-06	488.99	220.77	157.62	69.099	5.311e-06	105.23	296.769	162.213	150.358	95.089	241.343	253.902	95.052	100.237	270.643	217.030	98.317	102.600	103.529	107.578	232.378	105.562	-8191	255	
23602.014	1	1	0	0	0.36632	0.07815	0.1184	0.27155	0.24204	0.16381	0.40551	0.19493	0.10031	0.17405	0.27616	0.1708	0.048051	0.17164	0.28652	0.21086	-2.2771	-2.1104	-2.7687	-2.8438	-2.6813	-3.1708	-2.3229	-2.9458	-2.8208	-2.0771	-3.0479	-2.5917	-2.3688	-3.0958	-2.3333	-2.6063	188.455	250.389	253.488	340.968	206.962	390.457	392.155	404.625	355.658	230.518	372.963	438.566	407.910	106.391	147.670	376.936	0.0018731	0.00070257	0.00021994	1018.7	8.0243e-06	6.0864e-06	1037.5	379.52	9.4166e-06	7.7603e-06	498.4	225.39	161.64	69.864	6.5088e-06	106.73	0.00065183	0.0004814	0.00013236	984.92	5.1932e-06	5.1476e-06	1001.8	369.57	5.1257e-06	5.1072e-06	484.16	218.73	156.79	68.791	5.2725e-06	104.4	298.528	170.389	170.419	94.834	231.420	242.519	94.485	99.888	244.356	239.888	98.346	102.429	103.814	107.440	271.842	105.646	-8191	255	
23602.109	1	1	0	0	0.11191	0.13011	0.1492	0.31458	0.18086	0.21919	0.13486	0.15517	0.25813	0.047384	0.065707	0.18684	0.24903	0.094687	0.18822	0.035181	-2.3896	-2.1021	-2.9667	-2.7333	-2.2583	-3.0312	-2.3729	-2.725	-2.9688	-2.2083	-2.9146	-2.7292	-2.3625	-3.0396	-2.3688	-2.6083	290.602	157.743	348.200	102.452	226.825	356.983	415.466	433.283	82.511	206.082	311.640	271.238	410.408	389.121	304.099	86.987	0.0018374	0.00068855	0.00024915	1012.1	8.2636e-06	7.7057e-06	1039.4	381.69	1.0883e-05	5.1339e-06	500.09	226.91	161.29	70.101	9.5702e-06	106.76	0.00063542	0.00048606	0.00013205	984.64	5.2145e-06	5.1993e-06	1003.2	370.5	5.177e-06	5.3059e-06	486.23	219.56	156.88	68.9	5.3328e-06	104.91	298.193	179.461	168.855	94.857	237.514	245.380	94.338	99.790	256.457	236.711	98.359	102.455	103.846	107.429	241.456	105.456	-8191	255	
23602.205	1	1	0	0	0.16973	0.10346	0.19788	0.22757	0.23669	0.098402	0.26499	0.18038	0.088481	0.302	0.2495	0.16517	0.23267	0.2587	0.028307	0.22474	-2.5396	-2.2562	-2.8646	-2.9521	-2.2667	-3.05	-2.4979	-2.4562	-2.9625	-2.1688	-2.7958	-2.8229	-2.1792	-3.1042	-2.5271	-2.6021	387.935	409.382	89.410	438.934	366.931	83.549	417.963	425.849	244.795	133.621	108.339	102.989	131.394	436.067	389.956	380.627	0.0019476	0.00077823	0.00016254	1015.2	1.0657e-05	7.9038e-06	1040.4	382.66	1.3088e-05	8.0964e-06	504.33	228.51	162.57	70.326	1.2038e-05	107.68	0.00064312	0.00048274	0.00013226	986.37	5.1596e-06	5.1573e-06	1007.5	371.33	5.0809e-06	5.2322e-06	489.6	220.95	157.44	69.052	5.2929e-06	105.31	296.383	163.910	162.897	94.566	236.032	234.288	94.544	100.073	256.716	235.925	98.562	102.539	103.673	107.494	244.751	105.821	-8191	255	
23602.301	1	1	0	0	0.24731	0.13307	0.10373	0.13817	0.42483	0.17706	0.32405	0.15756	0.068442	0.071445	0.19794	0.33336	0.23888	0.33504	0.032058	0.27361	-2.6146	-2.2938	-2.6521	-2.9771	-2.1188	-3.0729	-2.7333	-2.5687	-3.1229	-2.2438	-2.6542	-3.0167	-2.0604	-3.0708	-2.6021	-2.4167	185.270	89.326	260.379	389.139	140.300	403.978	116.557	375.699	245.602	184.560	91.788	342.668	89.009	388.222	302.848	337.444	0.0018669	0.00081378	0.00018816	1016.2	1.3254e-05	5.3329e-06	1045.8	381.81	9.7142e-06	7.9956e-06	506.05	228.39	162.04	70.412	1.0115e-05	107.3	0.00064001	0.00048848	0.0001327	986.88	5.2494e-06	5.0778e-06	1009.5	371.84	5.2202e-06	5.3072e-06	491.19	221.5	157.67	69.015	5.2721e-06	104.99	294.512	126.211	178.620	94.921	245.819	238.469	94.953	100.357	242.769	222.908	98.684	102.840	103.905	107.929	253.246	106.187	-8191	255	
23602.396	1	1	0	0	0.048857	0.403	0.052179	0.075707	0.043238	0.17573	0.27249	0.17542	0.11683	0.040947	0.077641	0.15649	0.1781	0.21866	0.066764	0.21849	-2.7438	-2.2729	-2.5542	-3.1875	-2.3396	-2.9333	-2.9313	-2.1958	-3.0333	-2.2271	-2.6104	-3.0479	-2.3354	-2.9188	-2.6729	-2.4521	364.610	361.664	91.051	241.718	419.687	91.920	426.485	337.774	127.548	396.207	386.238	395.372	433.266	390.843	157.868	92.711	0.0018629	0.0010234	0.00027155	1016.9	1.1633e-05	7.93e-06	1039.7	382.58	1.5048e-05	5.9676e-06	498.37	225.31	161.54	70.272	1.0515e-05	106.22	0.0006521	0.00047961	0.00013227	986.31	5.1526e-06	5.0077e-06	1004.3	371.39	5.1331e-06	5.2834e-06	485.11	219.1	157.01	68.865	5.2068e-06	104.11	295.978	151.227	195.051	95.012	241.013	210.470	94.933	100.314	268.283	213.492	98.607	102.576	103.778	107.777	232.582	105.599	-8191	255	
23602.518	1	1	0	0	0.22618	0.065322	0.27565	0.24044	0.14965	0.11202	0.10137	0.11779	0.1582	0.095155	0.16854	0.089411	0.27028	0.090318	0.15255	0.21821	-2.6604	-2.3708	-2.3646	-3.0729	-2.2229	-2.7396	-2.9792	-2.2354	-3.1458	-2.6354	-2.5083	-3.1771	-2.3729	-2.9583	-2.9833	-2.5167	152.072	175.604	379.511	427.182	368.104	376.055	379.232	387.686	351.030	202.347	418.598	276.530	427.676	430.012	215.353	430.375	0.0018364	0.00084862	0.0002523	1020.5	9.5127e-06	6.556e-06	1042.6	382.4	1.4511e-05	4.1797e-06	501.73	225.97	162.23	69.747	8.4983e-06	105.99	0.0006403	0.00049549	0.00013546	986.32	5.216e-06	5.2549e-06	1005.7	370.82	5.2611e-06	5.2665e-06	486.26	219.23	157.08	68.68	5.3179e-06	104.03	296.092	157.400	172.398	95.052	237.123	205.538	94.849	100.145	236.715	244.121	98.781	103.094	104.244	108.110	235.982	106.118	-8191	255	
23602.613	1	1	0	0	0.19835	0.086927	0.080299	0.242	0.42116	0.22888	0.26327	0.16697	0.063106	0.18059	0.32885	0.18882	0.17292	0.44129	0.13549	0.19479	-2.6146	-2.5146	-2.3375	-3.1771	-2.2583	-2.6375	-3.1312	-2.4771	-2.9	-2.5312	-2.4875	-3.2583	-2.5771	-2.7042	-2.8	-2.5167	422.272	292.140	220.898	432.958	341.414	88.507	359.442	412.051	118.465	410.542	378.057	151.501	299.200	400.708	438.013	362.879	0.0018254	0.0011237	0.00026752	1021.3	9.3055e-06	6.5529e-06	1037.8	382.89	1.201e-05	7.3679e-06	502.16	226.47	161.23	70.167	6.2821e-06	106.24	0.00063315	0.00049368	0.00013736	987.73	5.2784e-06	5.2716e-06	1004.9	371.88	5.1557e-06	5.2911e-06	486.91	219.7	156.99	68.754	5.1326e-06	104.09	295.648	161.074	149.553	95.153	219.313	234.900	95.006	99.953	275.187	245.599	98.444	102.907	103.934	108.103	258.050	105.884	-8191	255	
23602.711	1	1	0	0	0.35804	0.045658	0.063094	0.32583	0.19216	0.14296	0.14657	0.21308	0.26143	0.077902	0.040705	0.16444	0.074204	0.48828	0.12319	0.13465	-2.6125	-2.7333	-2.2167	-3.1792	-2.3521	-2.6583	-3.1979	-2.2333	-2.8271	-2.6375	-2.1917	-3.0958	-2.4104	-2.6458	-3.0646	-2.4083	276.162	326.759	360.126	87.926	319.774	337.574	437.946	380.628	255.139	193.196	368.408	426.223	351.652	406.802	146.511	406.745	0.0018479	0.0011208	0.00016671	1018.5	1.0147e-05	4.7905e-06	1042.7	383.11	1.1156e-05	7.0452e-06	502.66	227.02	162.82	69.947	1.0491e-05	106.14	0.00064513	0.00048546	0.00013448	987.37	5.3462e-06	5.1341e-06	1006.7	372.41	5.2978e-06	5.2771e-06	488.31	220.18	158.02	68.812	5.2283e-06	104.05	296.837	160.511	181.304	95.383	226.177	246.441	94.684	99.778	247.737	244.100	98.386	102.533	103.644	107.651	230.352	105.639	-8191	255	
23602.781	1	1	0	0	0.17535	0.12061	0.13188	0.10494	0.24318	0.083661	0.29693	0.2507	0.20602	0.27342	0.10554	0.27597	0.13399	0.1306	0.035039	0.20531	-2.2792	-2.6312	-2.1583	-3.1208	-2.3333	-2.3	-3.2021	-2.3208	-2.6437	-2.8646	-2.2938	-3.2	-2.7646	-2.3708	-3.05	-2.3042	291.389	254.242	361.240	436.580	318.100	361.682	383.790	403.179	139.737	281.081	409.611	383.578	175.969	127.882	111.115	354.662	0.0018816	0.00091672	0.00024186	1015.4	9.1648e-06	5.0544e-06	1037.3	379.67	1.0028e-05	8.2893e-06	494.37	224.79	162.65	69.469	9.9354e-06	105.26	0.00064998	0.00047467	0.00013656	986.47	5.2299e-06	5.1826e-06	1002	370.41	5.2357e-06	5.1824e-06	482.57	217.84	157.44	68.475	5.3226e-06	102.97	295.827	178.931	161.269	94.723	241.187	249.642	94.598	99.982	243.648	251.495	98.289	102.588	103.352	107.462	230.936	105.464	-8191	255	
23602.902	1	1	0	0	0.077466	0.23249	0.36457	0.2768	0.073872	0.11779	0.33577	0.14964	0.22948	0.028737	0.30641	0.18608	0.10977	0.19737	0.031431	0.17483	-2.4062	-3.0771	-2.0438	-3.1042	-2.675	-2.3021	-3.2208	-2.5021	-2.5167	-3.1208	-2.1562	-3.0208	-2.6833	-2.3229	-2.9813	-2.4979	332.337	218.495	230.751	421.922	338.887	397.454	386.639	429.862	321.068	317.200	94.044	361.951	128.361	433.125	261.493	364.501	0.001828	0.00064597	0.00029266	1017	1.4186e-05	6.8895e-06	1036.7	381.28	8.3344e-06	1.1638e-05	498.01	224.63	161.44	69.605	1.1367e-05	105.09	0.0006494	0.00046572	0.00013227	984.87	5.1776e-06	5.053e-06	1001.5	370.97	5.1901e-06	5.0959e-06	483.24	217.89	157.13	68.394	5.3304e-06	103.09	296.980	168.935	166.046	94.856	239.107	232.716	94.589	99.583	259.524	224.130	98.124	102.368	103.637	107.625	249.072	105.510	-8191	255	
23602.998	1	1	0	0	0.091437	0.10574	0.28151	0.12608	0.17012	0.12889	0.26783	0.33539	0.2438	0.19101	0.33357	0.075959	0.22454	0.10062	0.061945	0.19039	-2.0917	-2.9708	-1.9375	-2.7083	-2.8792	-2.0687	-3.1875	-2.4104	-2.4104	-2.9104	-2.1833	-2.8708	-2.9521	-2.1729	-2.9562	-2.6688	271.263	218.274	189.014	385.751	350.695	261.579	406.381	400.931	313.032	283.012	337.378	360.629	93.707	390.897	423.788	394.963	0.0017318	0.00091043	0.00025402	1018.6	1.1073e-05	4.8873e-06	1038.7	382.64	1.2414e-05	9.3329e-06	501.78	226.37	163.39	70.066	6.0229e-06	105.84	0.00063268	0.00045761	0.00013413	988.45	5.0335e-06	5.1138e-06	1004.8	372.69	5.2148e-06	5.0181e-06	486.72	219.35	157.72	68.655	5.1827e-06	103.52	294.465	149.744	162.741	94.984	235.687	262.523	94.562	99.889	247.123	236.163	98.427	102.911	103.936	108.042	233.548	105.828	-8191	255	
23603.094	1	1	0	0	0.084477	0.085403	0.19909	0.42832	0.12634	0.21836	0.23929	0.084894	0.083935	0.13586	0.051372	0.16203	0.1578	0.28554	0.045276	0.36671	-2.0979	-3.1646	-2.1667	-3.0146	-2.9188	-2.1792	-3.3042	-2.7687	-2.3479	-3.0333	-2.3333	-2.8083	-2.9229	-2.3979	-2.9813	-2.8354	381.083	125.934	168.170	419.476	106.687	328.130	108.015	321.867	191.235	383.084	328.724	373.445	149.359	359.915	213.675	401.085	0.0018629	0.0010355	0.00025168	1021.3	1.1134e-05	7.4794e-06	1047.8	383.56	1.208e-05	1.0771e-05	501.74	227.07	163.34	69.667	1.1732e-05	105.93	0.00064152	0.00047838	0.00013343	990.11	5.0765e-06	5.2976e-06	1010.1	372.79	5.1594e-06	5.2207e-06	487.99	219.95	158.05	68.698	5.3154e-06	103.62	297.971	166.389	170.161	95.406	253.778	241.703	95.138	100.233	269.994	237.950	98.332	102.696	103.866	108.163	234.029	105.959	-8191	255	
23603.189	1	1	0	0	0.24887	0.03394	0.12203	0.3392	0.020323	0.17315	0.19749	0.18543	0.20506	0.16647	0.1811	0.33609	0.15675	0.13315	0.076072	0.28887	-1.8333	-2.9792	-2.3729	-2.6479	-3.05	-2.2021	-3.0667	-2.8688	-2.15	-3.0312	-2.4958	-2.6375	-2.9938	-2.3479	-2.8458	-3.0083	244.079	126.646	83.558	421.115	410.238	286.552	262.731	404.600	361.847	112.612	228.179	402.904	425.557	83.207	427.546	389.260	0.0018125	0.00087066	0.00025977	1021.5	9.9906e-06	8.423e-06	1040.8	382.03	1.1961e-05	1.0318e-05	498.92	225.06	161.81	69.253	8.4693e-06	104.5	0.00064257	0.00047671	0.00013642	989.86	5.1294e-06	5.2789e-06	1004.5	371.95	5.3266e-06	5.1995e-06	483.59	218.03	156.99	68.192	5.3842e-06	102.17	296.334	159.922	146.091	95.441	254.467	243.615	94.711	100.054	273.952	241.706	98.440	102.612	103.619	107.661	242.699	105.651	-8191	255	
23603.287	1	1	0	0	0.099221	0.035583	0.088196	0.11546	0.054428	0.11822	0.29156	0.023529	0.084231	0.097048	0.50329	0.061077	0.231	0.30684	0.14623	0.050264	-1.7667	-2.9917	-2.3771	-2.5563	-3.0417	-2.2333	-2.8146	-3.0292	-1.9312	-3.0646	-2.4729	-2.3937	-3.1437	-2.4042	-2.7229	-3.0417	261.393	309.249	129.145	392.511	260.991	185.961	355.872	315.330	282.519	266.566	398.067	346.701	145.534	89.543	100.886	370.618	0.0017528	0.00077481	0.00019721	1024.9	8.5892e-06	4.5267e-06	1037.1	380.32	7.9471e-06	8.4096e-06	497.55	224.06	161.17	69.354	1.1459e-05	104.76	0.00065059	0.00048685	0.00013351	987.43	5.259e-06	5.1303e-06	1002.2	370.86	5.2468e-06	5.2099e-06	482.76	217.21	156.72	68.11	5.3925e-06	102.58	296.285	142.604	166.842	95.263	241.324	258.378	94.740	99.939	243.310	221.402	98.549	102.970	103.941	107.982	257.055	105.945	-8191	255	
23603.381	1	1	0	0	0.32855	0.16932	0.10851	0.2067	0.20808	0.025771	0.26825	0.21865	0.1091	0.22798	0.20176	0.14155	0.067122	0.21649	0.20449	0.25898	-1.6146	-3.0646	-2.6188	-2.4125	-3.0167	-2.2562	-2.8208	-3.0333	-2.1646	-2.9146	-2.6562	-2.5917	-3.0167	-2.4188	-2.475	-3.1562	307.794	174.791	177.569	394.587	234.142	333.913	433.571	368.513	372.120	305.600	403.176	353.960	401.674	351.945	212.612	361.782	0.0017825	0.00063101	0.00013936	1020.8	9.5198e-06	8.186e-06	1043	383.61	9.8608e-06	1.0448e-05	501.11	224.02	162.36	69.48	1.1148e-05	105.21	0.00065108	0.00047975	0.00013334	989.49	5.2675e-06	5.484e-06	1007.9	372.32	5.4229e-06	5.3306e-06	485.27	217.88	157.67	68.221	5.5495e-06	103.09	296.865	157.338	165.217	95.176	242.838	242.086	94.787	100.284	240.747	208.581	98.515	102.937	103.689	107.581	229.809	105.738	-8191	255	
23603.479	1	1	0	0	0.14627	0.18999	0.22058	0.09976	0.11061	0.053433	0.14863	0.18842	0.083197	0.064844	0.1738	0.14359	0.16021	0.26933	0.1453	0.31112	-1.775	-2.8146	-2.75	-2.3229	-3.0354	-2.3729	-2.6083	-3.1542	-2.2375	-2.9292	-2.9083	-2.3312	-3.25	-2.5187	-2.4854	-3.3792	290.301	303.629	295.712	398.822	183.348	124.210	274.501	361.410	203.936	82.304	129.735	88.112	328.480	103.470	122.988	398.425	0.00187	0.00063167	0.00024084	1019.4	1.0392e-05	5.7969e-06	1048.6	383.04	7.2066e-06	7.2647e-06	502.14	226.02	162.74	69.75	1.3261e-05	105.81	0.00066873	0.00049693	0.00013736	992.16	5.5639e-06	5.344e-06	1010.3	373.05	5.5036e-06	5.4886e-06	488.76	219.27	157.99	68.489	5.576e-06	103.31	295.953	163.215	175.998	95.382	234.029	226.925	94.988	100.237	249.784	233.863	98.686	102.946	104.444	108.318	241.634	105.845	-8191	255	
23603.598	1	1	0	0	0.0099856	0.21283	0.12758	0.19331	0.14467	0.11132	0.39781	0.060874	0.093381	0.039577	0.087504	0.16454	0.19273	0.32879	0.13277	0.26795	-1.7833	-2.6521	-2.8063	-2.2854	-3.1146	-2.5875	-2.6979	-3.125	-2.2417	-2.5687	-3.0292	-2.3646	-2.9646	-2.6417	-2.1667	-3.2542	384.786	347.828	182.233	394.551	181.300	139.369	407.911	401.519	428.452	187.750	384.916	426.681	168.701	393.953	381.138	353.671	0.0018037	0.0004716	0.00018914	1020.4	1.1532e-05	6.0461e-06	1038.9	383.22	8.9782e-06	1.1121e-05	499.13	224.29	162.37	69.214	8.773e-06	104.15	0.00065961	0.00050526	0.00014029	989.74	5.4262e-06	5.4438e-06	1007.5	372.19	5.6773e-06	5.6044e-06	484.81	217.66	157.38	68.102	5.7852e-06	102.32	298.707	177.045	171.060	95.450	229.105	254.469	95.003	100.005	250.120	236.956	97.912	102.388	103.654	107.659	215.795	105.603	-8191	255	
23603.693	1	1	0	0	0.1843	0.32501	0.10216	0.11656	0.24277	0.20192	0.077804	0.13739	0.18896	0.14708	0.34441	0.19409	0.071668	0.13978	0.12672	0.13095	-1.8021	-2.5354	-2.5583	-2.2771	-2.8708	-2.7687	-2.2729	-3.0958	-2.4729	-2.4917	-2.8167	-2.1792	-3.0021	-2.8875	-2.1312	-3.0729	348.543	300.688	337.362	373.727	161.470	217.710	382.457	283.634	104.607	189.095	399.911	438.521	426.024	357.384	187.064	356.461	0.0017764	0.00085881	0.00033473	1016.3	8.1181e-06	7.374e-06	1034.7	381.06	9.0834e-06	9.4377e-06	497.44	224.34	161.9	69.375	9.461e-06	104.79	0.00066207	0.00050041	0.00014033	988.56	5.4256e-06	5.5214e-06	1004.1	370.96	5.5067e-06	5.5502e-06	484.32	217.78	157.32	68.055	5.5755e-06	102.72	296.661	153.286	148.980	94.892	264.616	224.889	94.841	99.941	253.922	234.193	98.291	102.798	104.175	107.797	250.803	105.457	-8191	255	
23603.789	1	1	0	0	0.24197	0.077996	0.11126	0.11211	0.37815	0.25541	0.23195	0.31052	0.16752	0.3914	0.12006	0.22287	0.082279	0.32058	0.1278	0.22516	-1.8271	-2.2771	-2.975	-2.175	-2.8479	-2.6063	-2.3	-3.0729	-2.275	-2.4104	-3.2479	-2.2292	-2.7375	-2.875	-2.025	-3.2625	371.735	93.952	301.793	354.526	260.163	90.615	405.120	390.058	86.216	237.673	116.581	83.250	198.166	393.001	438.353	397.040	0.0018007	0.00078799	0.00021649	1019	7.9413e-06	5.304e-06	1044.4	383.38	1.4164e-05	1.0699e-05	502.55	224.85	162.74	69.354	1.0114e-05	105.16	0.00065934	0.00051935	0.00013786	988.63	5.4849e-06	5.5942e-06	1008.4	373.09	5.5867e-06	5.597e-06	488.26	218.96	158.02	68.232	5.5706e-06	103.26	295.813	164.963	198.258	95.070	220.733	243.194	94.245	99.464	249.059	234.171	97.914	102.216	103.303	107.239	242.173	105.164	-8191	255	
23603.887	1	1	0	0	0.26049	0.21792	0.22693	0.27973	0.094316	0.077378	0.092606	0.26256	0.11548	0.090674	0.1167	0.070928	0.35316	0.084793	0.10433	0.11877	-1.8708	-2.1813	-2.9042	-2.3042	-2.5979	-2.5938	-2.2875	-2.9021	-2.6042	-2.3604	-3.0292	-2.4896	-2.6542	-3.0312	-2.025	-3.025	437.993	299.124	135.700	93.820	263.573	345.782	294.678	377.013	260.305	94.416	332.639	411.757	391.842	165.926	368.352	395.762	0.001925	0.00081161	0.00023442	1021.3	9.4117e-06	7.576e-06	1046.8	385.01	1.1449e-05	9.3553e-06	505.29	226.78	163.58	69.553	7.3016e-06	106.12	0.00068644	0.00052487	0.00014025	991.05	5.4635e-06	5.5041e-06	1013.4	375.04	5.5096e-06	5.7159e-06	491.8	220.45	158.37	68.479	5.8546e-06	103.99	296.394	162.954	172.845	94.584	238.743	252.207	94.373	99.780	255.021	225.252	97.674	102.058	103.166	107.430	239.691	105.151	-8191	255	
23604.008	1	1	0	0	0.21471	0.098907	0.12319	0.27143	0.054069	0.05928	0.13044	0.14578	0.30854	0.15469	0.101	0.20864	0.11494	0.27324	0.18811	0.23531	-2.2417	-2.2833	-2.9062	-2.3812	-2.45	-2.9604	-2.1646	-2.9854	-2.6854	-2.2875	-3.1521	-2.5125	-2.6875	-3.0771	-2.1417	-3.0667	338.661	368.360	241.558	383.256	265.876	116.994	101.539	317.583	138.195	182.955	120.341	420.585	414.319	430.248	351.799	395.259	0.0018238	0.00083376	0.00017547	1021.2	1.0221e-05	6.6219e-06	1045.2	384.3	1.1895e-05	6.546e-06	500.78	225.84	162.79	69.34	1.1535e-05	105.09	0.00068243	0.00052497	0.00014295	992.74	5.6171e-06	5.4925e-06	1012.8	374.29	5.6638e-06	5.7559e-06	488.35	219.13	157.63	68.198	5.7691e-06	102.84	295.616	170.104	163.996	94.533	256.110	236.243	94.272	99.498	280.241	225.850	98.111	102.342	103.458	107.576	242.323	105.507	-8191	255	
23604.078	1	1	0	0	0.013456	0.30041	0.056917	0.2139	0.0043585	0.31498	0.11747	0.47429	0.093159	0.15386	0.25621	0.12742	0.083157	0.12882	0.3075	0.28094	-2.3021	-2.0958	-2.9146	-2.3979	-2.3208	-3.1479	-2.2938	-2.8604	-2.7521	-2.075	-3.1625	-2.6813	-2.4583	-3.1396	-2.15	-3.0438	243.973	326.777	102.896	92.203	328.355	279.441	116.152	396.155	226.971	367.823	435.734	367.024	86.767	99.271	350.102	428.664	0.0019256	0.00077506	0.0003021	1020.2	8.1287e-06	5.2106e-06	1046	382.39	8.2495e-06	6.9608e-06	501.1	224.95	161.71	69.14	1.1363e-05	105.28	0.00068557	0.00052865	0.00014153	989.89	5.5388e-06	5.6499e-06	1009.5	372.69	5.6811e-06	5.7107e-06	487.4	218.77	157.55	68.079	5.8182e-06	102.96	296.815	176.766	189.325	94.554	269.330	230.316	94.312	99.604	250.408	212.481	98.244	102.281	103.187	107.522	255.794	105.609	-8191	255	
23604.176	1	1	0	0	0.32167	0.10432	0.14738	0.15325	0.032614	0.14785	0.30395	0.23975	0.27182	0.26394	0.11921	0.32792	0.18948	0.22209	0.20292	0.27703	-2.4646	-2.3833	-3.0167	-2.6979	-2.2104	-3.15	-2.3854	-2.7667	-3.0229	-2.0521	-3.1375	-2.7771	-2.3063	-3.1708	-2.1063	-2.6917	415.650	400.009	264.036	101.836	319.081	173.931	414.362	96.735	312.002	97.253	160.623	84.994	88.237	103.421	82.923	368.640	0.0018456	0.0010691	0.00015885	1018.1	7.2978e-06	8.1503e-06	1045.7	384.12	1.2972e-05	9.1295e-06	503.77	226.22	162.42	69.361	1.0838e-05	105.54	0.00068955	0.00053108	0.00014649	989.61	5.7286e-06	5.6846e-06	1010.6	373.98	5.7519e-06	5.8776e-06	490.91	219.56	157.98	68.218	5.9915e-06	103.37	297.276	175.832	170.229	94.386	234.548	230.336	94.175	99.678	256.802	224.230	98.043	102.304	103.264	107.519	242.957	105.287	-8191	255	
23604.293	1	1	0	0	0.203	0.042285	0.15024	0.057003	0.028554	0.27795	0.18043	0.081162	0.14929	0.17803	0.14715	0.17142	0.084026	0.061311	0.099096	0.34306	-2.5438	-2.0792	-2.9396	-2.7125	-2.1271	-2.975	-2.3875	-2.9062	-3.0187	-2.2146	-3.0583	-2.7708	-2.3104	-3.1021	-2.4083	-2.625	381.493	305.273	255.585	395.101	418.793	145.341	422.253	420.252	137.810	206.511	343.819	132.511	398.148	399.089	360.147	368.542	0.001816	0.00063661	0.00025538	1025	7.8997e-06	4.3705e-06	1047.7	385.65	1.1988e-05	8.2736e-06	506.89	227.19	163.12	69.807	9.6789e-06	106.26	0.00069067	0.00053957	0.00015139	991.77	5.7161e-06	5.7329e-06	1014.1	375.24	5.8145e-06	5.9084e-06	493	220.48	158.61	68.58	5.9834e-06	103.88	297.935	180.528	161.906	94.496	239.806	214.295	94.418	99.593	255.129	223.258	98.006	102.210	103.523	107.159	248.047	105.239	-8191	255	
23604.391	1	1	0	0	0.12069	0.1928	0.47007	0.098981	0.11461	0.021802	0.28524	0.40873	0.0551	0.1409	0.061281	0.19376	0.21247	0.10323	0.10662	0.27555	-2.7458	-2.0229	-2.8646	-3.0125	-2.0292	-3.0812	-2.5875	-2.5292	-2.9646	-2.2708	-2.7875	-2.9521	-2.15	-2.8438	-2.4271	-2.3979	409.881	87.113	227.030	91.545	89.726	264.465	309.726	414.746	195.022	364.756	441.084	372.449	99.061	437.179	172.333	365.026	0.001822	0.00094728	0.00023861	1018.3	1.1416e-05	4.8735e-06	1047.9	385.87	1.1765e-05	5.0551e-06	504.58	226.89	163.12	69.141	1.162e-05	104.71	0.00069576	0.0005468	0.00014907	990.54	5.9402e-06	5.8463e-06	1014.5	375.92	5.8214e-06	5.978e-06	490.95	220.06	158.43	68.283	5.9973e-06	102.83	296.708	166.065	172.734	94.529	245.425	246.907	94.184	99.663	235.004	229.312	98.110	102.385	103.523	107.601	242.790	105.466	-8191	255	
23604.486	1	1	0	0	0.039283	0.19195	0.15811	0.14734	0.13157	0.16421	0.14889	0.26041	0.14229	0.19346	0.22531	0.22984	0.44275	0.12284	0.14022	0.15572	-2.6292	-2.4333	-2.7542	-2.7979	-2.1562	-2.9146	-2.6562	-2.4021	-2.9979	-2.3021	-2.6188	-3.0833	-2.2083	-3.0979	-2.7	-2.3104	423.480	252.572	358.883	381.902	269.561	229.782	383.997	407.451	435.295	103.071	358.647	417.803	427.280	428.318	237.148	420.292	0.0018062	0.00079415	0.00019353	1018.8	8.2993e-06	8.804e-06	1037.7	384.89	1.3054e-05	8.8218e-06	500.45	224.59	163.44	69.329	1.1643e-05	104.97	0.00068662	0.0005538	0.00015114	989.51	5.9151e-06	5.9224e-06	1007	374.26	6.0175e-06	5.9164e-06	488.92	218.67	158.57	68.295	6.0545e-06	102.85	295.246	160.203	183.423	94.432	268.266	229.326	94.067	99.738	252.387	234.702	98.030	102.333	103.435	107.484	236.506	105.462	-8191	255	
23604.605	1	1	0	0	0.17365	0.067396	0.093626	0.091582	0.25705	0.11002	0.27498	0.12833	0.2485	0.16541	0.30134	0.16147	0.1348	0.12332	0.066402	0.0882	-2.5875	-2.2521	-2.5271	-2.9	-2.1354	-2.8958	-2.9417	-2.2854	-3.075	-2.4292	-2.6583	-3.35	-2.3833	-2.9458	-2.7771	-2.5167	247.544	83.620	219.351	393.792	159.671	111.770	96.932	324.213	161.140	408.548	380.288	394.386	84.857	351.364	315.073	363.901	0.0018661	0.0008352	0.00022739	1016.5	1.1907e-05	6.7935e-06	1049.2	385.7	1.6697e-05	7.8535e-06	505.45	226.32	163.49	69.167	1.2154e-05	105.55	0.00068856	0.00054976	0.00015208	989.45	5.9187e-06	5.9583e-06	1011.7	375.42	6.0272e-06	5.927e-06	491.71	219.76	158.56	68.321	6.102e-06	103.33	295.479	139.477	180.435	94.994	245.019	250.990	94.441	99.522	243.120	246.701	97.667	102.128	103.441	107.483	226.535	105.375	-8191	255	
23604.678	1	1	0	0	0.054096	0.083756	0.17939	0.29313	0.155	0.042326	0.19517	0.22998	0.19771	0.097099	0.061566	0.31429	0.25532	0.36037	0.19313	0.27503	-2.6458	-2.7438	-2.4771	-3.2729	-2.2083	-2.6958	-2.9208	-2.2208	-3.1	-2.525	-2.4667	-3.2354	-2.3646	-2.7771	-2.8646	-2.2167	440.967	104.966	308.911	374.742	428.782	91.363	279.157	339.983	111.756	171.822	87.791	402.964	400.220	382.170	355.487	370.843	0.0018288	0.0010112	0.00028577	1018.2	1.017e-05	4.4854e-06	1051.5	387.11	8.0635e-06	1.0265e-05	509.23	227.41	163.6	69.692	6.6442e-06	105.86	0.00069211	0.00056138	0.00015487	992.38	6.1695e-06	5.9296e-06	1016.7	376.64	6.0737e-06	6.0163e-06	494.63	221.09	159.14	68.579	6.257e-06	103.74	294.824	170.061	161.705	94.674	245.031	243.288	94.303	99.564	246.001	248.586	98.213	102.310	103.673	107.608	256.699	105.407	-8191	255	
23604.773	1	1	0	0	0.084326	0.282	0.15202	0.15155	0.20127	0.15113	0.34743	0.20428	0.15953	0.17616	0.25898	0.30437	0.26957	0.39435	0.046136	0.1105	-2.5375	-2.5	-2.1667	-3.2729	-2.2375	-2.7604	-3.0521	-2.3	-2.8646	-2.7396	-2.2771	-3.2646	-2.5625	-2.5438	-2.9646	-2.2562	130.876	183.871	228.684	439.824	174.152	372.452	84.323	309.339	288.105	265.878	363.509	338.916	90.099	414.950	315.491	427.278	0.0018628	0.00061238	0.00019781	1025.7	8.8281e-06	5.3985e-06	1052.9	385.41	1.4459e-05	8.5254e-06	507.69	226.83	163.46	69.429	9.5662e-06	104.38	0.00071887	0.00055411	0.00015468	994.14	6.1755e-06	6.0852e-06	1018.7	376.08	6.0911e-06	6.0415e-06	492.79	220.32	158.79	68.405	6.1238e-06	102.77	294.176	149.112	172.141	94.691	223.927	249.574	94.369	99.695	255.247	232.772	97.968	102.258	103.557	107.475	216.744	105.335	-8191	255	
23604.869	1	1	0	0	0.15401	0.24281	0.28925	0.10531	0.0473	0.11656	0.18402	0.20394	0.20542	0.13642	0.50233	0.15624	0.27908	0.35799	0.13323	0.22271	-2.5583	-2.7458	-2.2271	-3.2167	-2.5333	-2.5938	-3.2438	-2.35	-2.8771	-2.6854	-2.3146	-3.2229	-2.3667	-2.5146	-3.1688	-2.3271	143.376	103.000	431.910	139.279	84.120	421.794	385.137	369.748	317.539	405.739	390.786	378.735	390.680	429.463	189.441	372.343	0.0017125	0.00028257	0.00028714	1021.4	1.0071e-05	7.3222e-06	1045.2	384.52	1.4111e-05	4.3573e-06	500.35	225.56	163.14	69.539	1.289e-05	104.6	0.00070199	0.00056298	0.000155	992.36	6.1128e-06	6.1779e-06	1009.2	375.13	5.9833e-06	6.037e-06	487.44	218.78	158.56	68.409	5.9834e-06	102.59	294.423	140.206	182.393	94.565	240.017	232.872	94.328	99.712	256.332	262.214	98.276	102.347	103.449	107.605	259.410	105.508	-8191	255	
23604.967	1	1	0	0	0.28897	0.29049	0.18849	0.29956	0.15361	0.1211	0.07397	0.20288	0.12487	0.083786	0.22045	0.33328	0.22554	0.19913	0.056671	0.51123	-2.4479	-2.6562	-2.0438	-3.1833	-2.5667	-2.3042	-3.2562	-2.2771	-2.575	-3.1188	-2.1396	-2.9437	-2.6542	-2.5	-3.1896	-2.5958	391.864	184.193	320.784	376.855	102.574	217.490	272.160	374.991	437.541	410.995	368.059	439.552	95.163	428.799	295.689	353.974	0.0018489	0.00051248	0.00020638	1019.8	1.0163e-05	5.6637e-06	1045.8	385.89	1.3795e-05	9.1237e-06	503.41	226.81	164.05	69.327	1.4461e-05	104.9	0.00070538	0.00054182	0.0001552	990.58	5.983e-06	6.0225e-06	1012.9	375.28	5.9885e-06	5.8812e-06	490.15	220.23	158.93	68.423	6.0547e-06	102.82	296.424	149.770	163.839	94.795	228.429	230.773	94.526	99.648	270.898	227.850	98.029	102.394	103.361	107.249	228.335	105.309	-8191	255	
23605.088	1	1	0	0	0.23156	0.29646	0.065275	0.087479	0.16067	0.13263	0.074738	0.19813	0.29855	0.26797	0.26552	0.076523	0.33196	0.20624	0.097816	0.25501	-2.1604	-2.8333	-2.1729	-3.0521	-2.7125	-2.2333	-3.3104	-2.5812	-2.6083	-3.1146	-2.5062	-3.1188	-2.9271	-2.5187	-3.2208	-2.5687	195.173	371.764	412.856	407.724	400.848	128.401	204.715	362.977	215.742	398.962	380.486	297.491	430.395	437.263	216.198	386.666	0.0018252	0.00062094	0.00028757	1022.3	1.0708e-05	7.9899e-06	1049.5	387.19	1.2533e-05	9.5725e-06	509.04	227.43	164.32	69.463	6.2782e-06	105.38	0.00070583	0.00054551	0.00015282	992.26	5.7314e-06	6.0742e-06	1015.3	376.57	5.8015e-06	5.7386e-06	494.63	220.81	159.51	68.545	5.9315e-06	103.3	299.653	158.431	162.944	94.833	231.507	228.338	94.123	99.658	273.540	243.211	98.012	102.142	103.497	107.329	235.505	105.147	-8191	255	
23605.184	1	1	0	0	0.15206	0.20466	0.13383	0.11369	0.16674	0.074735	0.16875	0.080199	0.046782	0.27314	0.23921	0.19428	0.079835	0.22847	0.16616	0.22853	-2.1312	-2.975	-2.0375	-2.9146	-2.7917	-2.1604	-3.2417	-2.6125	-2.3083	-3.1312	-2.225	-2.8979	-3.05	-2.375	-3.0896	-2.5604	99.591	371.795	232.082	381.232	171.982	377.810	374.391	341.955	159.069	224.413	335.718	323.334	386.789	404.283	335.219	352.567	0.001852	0.00087487	0.00018746	1026	1.0314e-05	5.3968e-06	1049.2	386.48	1.3413e-05	7.7943e-06	504.05	227.34	163.86	69.597	1.2679e-05	104.78	0.00069128	0.00052353	0.00015079	995.91	5.7715e-06	6.0277e-06	1017.8	376.87	5.8255e-06	5.9284e-06	492.52	220.76	159.19	68.412	6.0006e-06	102.62	298.596	174.716	137.830	94.818	222.817	229.285	94.348	99.628	261.210	227.598	98.003	102.158	103.510	107.470	237.068	105.389	-8191	255	
23605.279	1	1	0	0	0.24561	0.34366	0.10006	0.17126	0.18902	0.077656	0.084197	0.16408	0.19989	0.15021	0.070599	0.10917	0.14254	0.31708	0.1375	0.1457	-2.05	-2.9979	-2.0542	-2.6562	-3.0208	-2.2146	-3.0667	-2.7458	-2.3563	-3.225	-2.5896	-2.7938	-3.0104	-2.3937	-3.025	-2.8792	223.980	106.208	243.624	389.185	172.738	351.861	418.714	92.752	276.675	375.362	363.741	439.535	384.267	388.486	206.331	105.582	0.0018263	0.00076081	0.00022179	1022	1.2613e-05	5.6159e-06	1047.2	385.3	8.4521e-06	4.6241e-06	502.83	224.96	163.27	69.478	9.8621e-06	104.31	0.00070277	0.00053832	0.0001519	991.85	5.8342e-06	6.043e-06	1009.6	374.8	6.0507e-06	5.8618e-06	487.95	218.97	158.42	68.26	6.1052e-06	102.31	295.646	170.965	163.171	94.698	250.188	247.000	94.276	99.849	263.702	241.095	98.109	102.691	103.633	107.596	241.316	105.424	-8191	255	
23605.373	1	1	0	0	0.056968	0.11707	0.12888	0.15199	0.20017	0.0055779	0.14205	0.38129	0.1164	0.10932	0.22075	0.36673	0.074606	0.20986	0.1367	0.089677	-1.9375	-3.0687	-2.1542	-2.5229	-2.9917	-2.3396	-2.9083	-2.95	-2.2771	-3.1208	-2.4229	-2.5854	-3.0458	-2.2854	-2.7938	-3.1104	426.356	162.678	120.454	139.814	353.832	275.723	406.524	398.741	162.888	164.883	402.893	368.826	373.338	91.634	338.259	328.611	0.0017405	0.00084899	0.00013939	1024.1	8.0612e-06	6.187e-06	1048.1	385.85	1.1517e-05	8.8444e-06	505.1	226.02	163.89	69.489	1.2824e-05	105.04	0.000701	0.00053188	0.00015516	991.99	5.9071e-06	5.9813e-06	1014.6	375.67	6.049e-06	6.0165e-06	491.71	219.78	158.99	68.428	5.976e-06	102.81	294.656	154.567	173.049	94.898	233.238	237.420	94.679	99.909	263.178	225.328	98.168	102.833	103.813	107.662	244.329	105.417	-8191	255	
23605.471	1	1	0	0	0.16707	0.23764	0.2467	0.090058	0.16258	0.05807	0.37991	0.16983	0.31335	0.12182	0.27397	0.089577	0.22221	0.1109	0.15558	0.31341	-1.7729	-3.0833	-2.5	-2.5271	-3.0958	-2.1771	-2.8521	-2.9437	-2.1354	-3.1208	-2.5812	-2.5	-3.1667	-2.3083	-2.8229	-3.1354	309.141	285.185	98.533	404.020	245.914	210.065	405.789	362.332	102.540	87.431	404.461	321.885	415.275	111.562	377.425	414.649	0.0017713	0.00044944	0.00016548	1021.6	8.4861e-06	4.5904e-06	1051.4	386.05	1.0194e-05	7.0649e-06	509.03	228.02	164.39	69.839	1.2846e-05	105.49	0.00070621	0.00056578	0.00015485	992.94	6.0112e-06	6.1077e-06	1016.1	376.61	6.0291e-06	6.0896e-06	493.64	221.04	159.65	68.684	6.1333e-06	103.38	294.610	156.610	174.754	95.348	224.295	184.407	95.193	99.841	238.885	258.267	98.077	102.319	103.609	107.574	222.671	105.368	-8191	255	
23605.568	1	1	0	0	0.18496	0.05694	0.17743	0.19235	0.21921	0.15615	0.30999	0.070126	0.13417	0.095576	0.31489	0.21716	0.19622	0.061916	0.31848	0.22997	-1.65	-2.75	-2.5563	-2.4292	-3.0812	-2.4292	-2.7875	-3.0125	-2.1417	-3.1021	-2.6312	-2.475	-3.1729	-2.6083	-2.3583	-3.2375	281.146	180.932	400.925	188.845	91.361	345.952	349.617	384.153	116.630	429.866	439.902	408.571	416.262	415.078	88.680	344.478	0.0017354	0.00094098	0.00014326	1020	1.0508e-05	6.4889e-06	1054.8	388.41	8.4859e-06	7.9881e-06	506.11	228.54	163.87	69.737	1.3401e-05	105.37	0.00070565	0.00057509	0.00015602	994.96	6.1876e-06	6.3591e-06	1019.2	378.12	6.1172e-06	6.2328e-06	493.5	221.55	159.73	68.619	6.3397e-06	103.13	297.670	141.701	186.217	94.818	221.436	260.887	94.429	99.654	266.649	244.871	97.945	102.504	103.461	107.393	236.569	105.603	-8191	255	
23605.688	1	1	0	0	0.16594	0.093223	0.262	0.23451	0.06918	0.065667	0.14523	0.30192	0.21236	0.057563	0.24489	0.10593	0.087274	0.20422	0.18636	0.25229	-1.8146	-2.9979	-2.7792	-2.4729	-3.2042	-2.6417	-2.775	-3.1875	-2.0563	-2.8125	-2.8917	-2.2875	-3.1937	-2.6271	-2.4917	-3.1625	174.332	82.017	343.936	423.447	156.917	341.546	416.889	375.281	301.751	243.705	291.849	82.585	418.312	263.813	181.991	394.415	0.0018709	0.0012424	0.00022119	1023.5	9.4053e-06	6.2008e-06	1050.4	386.49	1.1096e-05	4.5662e-06	505.35	226.75	164.99	69.437	8.5366e-06	104.6	0.00072022	0.00056112	0.00015616	993.1	6.1745e-06	6.1562e-06	1013.1	376.43	6.1342e-06	6.1693e-06	490.57	220.03	159.61	68.377	6.2297e-06	102.52	297.804	177.127	180.761	94.478	250.063	229.358	94.761	99.850	250.822	219.080	98.206	102.714	103.404	107.557	257.699	105.518	-8191	255	
23605.783	1	1	0	0	0.21765	0.26059	0.23221	0.34241	0.12842	0.2173	0.33317	0.21106	0.17963	0.12841	0.065688	0.071068	0.21769	0.15652	0.053698	0.34202	-2.0542	-2.6896	-2.9396	-2.4792	-3.0479	-2.575	-2.4354	-3.2104	-2.2917	-2.8042	-3.3708	-2.4062	-3.0854	-2.6708	-2.3417	-3.2354	333.965	256.758	427.656	389.473	195.008	337.698	365.987	439.754	332.493	189.126	166.643	371.418	359.305	380.544	199.562	124.469	0.001836	0.00060623	0.00020256	1021.1	9.7523e-06	5.3508e-06	1050.3	387.43	1.0584e-05	9.0599e-06	508.7	226.6	165.29	69.853	1.2629e-05	105.84	0.0007171	0.0005555	0.00015513	993.06	6.1314e-06	6.1143e-06	1015	377.48	6.1489e-06	6.1298e-06	494.45	220.74	160.41	68.658	6.2028e-06	103.33	296.121	179.671	179.911	94.680	237.988	218.285	94.714	99.555	228.904	237.642	98.074	102.410	103.354	107.464	258.573	105.369	-8191	255	
23605.879	1	1	0	0	0.27854	0.11486	0.26915	0.25819	0.16618	0.27	0.2951	0.18683	0.21438	0.20513	0.13035	0.17123	0.337	0.11495	0.18531	0.1571	-1.9479	-2.5312	-2.8958	-2.3937	-2.7938	-2.8333	-2.3521	-3.1375	-2.2354	-2.6125	-3.0833	-2.3042	-2.9625	-2.9083	-2.2542	-3.1604	385.642	434.258	250.246	331.748	421.782	88.374	414.119	112.079	203.684	340.823	362.228	94.213	425.678	390.661	440.859	317.903	0.0018842	0.00077732	0.00022434	1024.1	1.2011e-05	7.6523e-06	1055.1	389.73	8.0764e-06	9.2154e-06	513.81	229	165.72	70.011	1.1905e-05	105.98	0.00072086	0.00055751	0.00015423	995.43	5.954e-06	6.0762e-06	1021.2	378.83	6.0989e-06	6.1424e-06	498.33	222.31	161.11	68.985	6.3184e-06	103.88	297.542	157.255	157.177	94.839	239.652	217.422	94.367	99.756	271.029	236.840	98.053	102.440	103.559	107.480	248.036	105.489	-8191	255	
23605.975	1	1	0	0	0.28412	0.095334	0.017259	0.32808	0.11475	0.15755	0.15046	0.2746	0.12089	0.042028	0.1659	0.26183	0.14958	0.13177	0.23927	0.17067	-2.0187	-2.2667	-3.0979	-2.3563	-2.875	-2.7604	-2.4	-3.2667	-2.4896	-2.4792	-3.15	-2.4625	-2.9042	-3.0021	-2.2146	-3.0604	395.354	323.653	255.044	128.486	301.980	210.439	265.516	409.498	254.878	239.644	374.626	406.069	436.143	422.705	354.476	346.126	0.0018943	0.00084888	0.00022766	1021.2	1.0131e-05	6.4421e-06	1059.9	390.84	1.6649e-05	1.0397e-05	512.27	228.91	165.85	70.166	1.0767e-05	105.59	0.00072548	0.00056424	0.00015383	996.57	6.0152e-06	6.0942e-06	1023.6	380.39	6.1098e-06	6.3247e-06	499.62	222.35	161.24	69.061	6.3619e-06	103.49	296.999	161.492	184.602	94.877	263.173	265.168	94.810	99.993	267.525	227.957	98.127	102.484	103.501	107.403	248.043	105.496	-8191	255	
#DATA ENDS
