BOXY.EXE: ISS Imagent and Oximeter Data Acquisition Program Version 0.80
Ascii Record File

#ACQ INFORMATION
2  Detector Channels 
16  External MUX Channels 
1  Auxiliary Channels 
5000  Waveform (CCF) Frequency (Hz)
1  Waveforms Skipped 
30  Waveforms Averaged 
1  Cycles Averaged 
16  Acquisitions per Waveform 
10.0806  Updata Rate (Hz) 

#FILE INFORMATION
TRUE -- External MUX Channel results are PARSED.
FALSE -- AC DC and Phase are NOT grouped.
TRUE -- Companion Program Settings File CREATED.
FALSE -- AC data not excluded
FALSE -- DC data not excluded
FALSE -- Phase data not excluded
FALSE -- Auxillary Chn. data not excluded
Tab delimiters

#CALIBRATION STATE
TRUE -- Waveform Calibration Values APPLIED.


#AUX CALIBRATION VALUES
Val Type	aux-1	

Term	1.0000e+00	
Factor	0.0000e+00	


#WF CALIBRATION VALUES
A = Detector Channel
Val Type	A-AC1	A-AC2	A-AC3	A-AC4	A-AC5	A-AC6	A-AC7	A-AC8	A-AC9	A-AC10	A-AC11	A-AC12	A-AC13	A-AC14	A-AC15	A-AC16	A-DC1	A-DC2	A-DC3	A-DC4	A-DC5	A-DC6	A-DC7	A-DC8	A-DC9	A-DC10	A-DC11	A-DC12	A-DC13	A-DC14	A-DC15	A-DC16	A-Ph1	A-Ph2	A-Ph3	A-Ph4	A-Ph5	A-Ph6	A-Ph7	A-Ph8	A-Ph9	A-Ph10	A-Ph11	A-Ph12	A-Ph13	A-Ph14	A-Ph15	A-Ph16	

Term	0.00000e+00	0.00000e+00	0.00000e+00	0.00000e+00	0.00000e+00	0.00000e+00	0.00000e+00	0.00000e+00	0.00000e+00	0.00000e+00	0.00000e+00	0.00000e+00	0.00000e+00	0.00000e+00	0.00000e+00	0.00000e+00	0.00000e+00	0.00000e+00	0.00000e+00	0.00000e+00	0.00000e+00	0.00000e+00	0.00000e+00	0.00000e+00	0.00000e+00	0.00000e+00	0.00000e+00	0.00000e+00	0.00000e+00	0.00000e+00	0.00000e+00	0.00000e+00	0.00000e+00	0.00000e+00	0.00000e+00	0.00000e+00	0.00000e+00	0.00000e+00	0.00000e+00	0.00000e+00	0.00000e+00	0.00000e+00	0.00000e+00	0.00000e+00	0.00000e+00	0.00000e+00	0.00000e+00	0.00000e+00	
Factor	1.00000e+00	1.00000e+00	1.00000e+00	1.00000e+00	1.00000e+00	1.00000e+00	1.00000e+00	1.00000e+00	1.00000e+00	1.00000e+00	1.00000e+00	1.00000e+00	1.00000e+00	1.00000e+00	1.00000e+00	1.00000e+00	1.00000e+00	1.00000e+00	1.00000e+00	1.00000e+00	1.00000e+00	1.00000e+00	1.00000e+00	1.00000e+00	1.00000e+00	1.00000e+00	1.00000e+00	1.00000e+00	1.00000e+00	1.00000e+00	1.00000e+00	1.00000e+00	X	X	X	X	X	X	X	X	X	X	X	X	X	X	X	X	

B = Detector Channel
Val Type	B-AC1	B-AC2	B-AC3	B-AC4	B-AC5	B-AC6	B-AC7	B-AC8	B-AC9	B-AC10	B-AC11	B-AC12	B-AC13	B-AC14	B-AC15	B-AC16	B-DC1	B-DC2	B-DC3	B-DC4	B-DC5	B-DC6	B-DC7	B-DC8	B-DC9	B-DC10	B-DC11	B-DC12	B-DC13	B-DC14	B-DC15	B-DC16	B-Ph1	B-Ph2	B-Ph3	B-Ph4	B-Ph5	B-Ph6	B-Ph7	B-Ph8	B-Ph9	B-Ph10	B-Ph11	B-Ph12	B-Ph13	B-Ph14	B-Ph15	B-Ph16	

Term	0.00000e+00	0.00000e+00	0.00000e+00	0.00000e+00	0.00000e+00	0.00000e+00	0.00000e+00	0.00000e+00	0.00000e+00	0.00000e+00	0.00000e+00	0.00000e+00	0.00000e+00	0.00000e+00	0.00000e+00	0.00000e+00	0.00000e+00	0.00000e+00	0.00000e+00	0.00000e+00	0.00000e+00	0.00000e+00	0.00000e+00	0.00000e+00	0.00000e+00	0.00000e+00	0.00000e+00	0.00000e+00	0.00000e+00	0.00000e+00	0.00000e+00	0.00000e+00	-1.07200e+00	-1.36101e+02	-1.26972e+02	-1.81145e+02	-5.74851e+01	-6.50972e+01	-1.58196e+02	-1.62015e+02	-4.24239e+01	-6.52151e+01	-1.70310e+02	-1.70117e+02	-1.81676e+02	-1.76501e+02	-5.94616e+01	-1.49355e+02	
Factor	3.59234e-05	1.59826e-04	4.90676e-05	1.61587e-01	1.97099e-06	1.44992e-06	1.72205e-01	5.96698e-02	2.11306e-06	1.83272e-06	9.39561e-02	3.22471e-02	2.84731e-02	9.54445e-03	1.94426e-06	1.34256e-02	6.52020e-06	7.84418e-06	2.17318e-06	8.29810e-02	8.31184e-08	8.62690e-08	8.30464e-02	3.06820e-02	8.29478e-08	8.64596e-08	4.68418e-02	1.60686e-02	1.47170e-02	4.95140e-03	8.44639e-08	6.74576e-03	X	X	X	X	X	X	X	X	X	X	X	X	X	X	X	X	



#DISTANCE SETTINGS
A = Detector Channel
A-1	A-2	A-3	A-4	A-5	A-6	A-7	A-8	A-9	A-10	A-11	A-12	A-13	A-14	A-15	A-16	

2.5000e+00	3.0000e+00	2.5000e+00	3.0000e+00	2.0000e+00	3.0000e+00	1.5000e+00	3.0000e+00	3.0000e+00	3.0000e+00	3.0000e+00	3.0000e+00	3.0000e+00	3.0000e+00	1.5000e+00	3.0000e+00	

B = Detector Channel
B-1	B-2	B-3	B-4	B-5	B-6	B-7	B-8	B-9	B-10	B-11	B-12	B-13	B-14	B-15	B-16	

1.0000e+01	1.0000e+01	1.0000e+01	1.4400e+00	1.0000e+01	1.0000e+01	1.5100e+00	1.9400e+00	1.0000e+01	1.0000e+01	1.9900e+00	2.4900e+00	2.4100e+00	2.9000e+00	1.0000e+01	2.9800e+00	




#DATA BEGINS
time	group	step	mark	flag	A-AC1	A-AC2	A-AC3	A-AC4	A-AC5	A-AC6	A-AC7	A-AC8	A-AC9	A-AC10	A-AC11	A-AC12	A-AC13	A-AC14	A-AC15	A-AC16	A-DC1	A-DC2	A-DC3	A-DC4	A-DC5	A-DC6	A-DC7	A-DC8	A-DC9	A-DC10	A-DC11	A-DC12	A-DC13	A-DC14	A-DC15	A-DC16	A-Ph1	A-Ph2	A-Ph3	A-Ph4	A-Ph5	A-Ph6	A-Ph7	A-Ph8	A-Ph9	A-Ph10	A-Ph11	A-Ph12	A-Ph13	A-Ph14	A-Ph15	A-Ph16	B-AC1	B-AC2	B-AC3	B-AC4	B-AC5	B-AC6	B-AC7	B-AC8	B-AC9	B-AC10	B-AC11	B-AC12	B-AC13	B-AC14	B-AC15	B-AC16	B-DC1	B-DC2	B-DC3	B-DC4	B-DC5	B-DC6	B-DC7	B-DC8	B-DC9	B-DC10	B-DC11	B-DC12	B-DC13	B-DC14	B-DC15	B-DC16	B-Ph1	B-Ph2	B-Ph3	B-Ph4	B-Ph5	B-Ph6	B-Ph7	B-Ph8	B-Ph9	B-Ph10	B-Ph11	B-Ph12	B-Ph13	B-Ph14	B-Ph15	B-Ph16	aux-1	digaux	

21006.438	1	1	0	256	0.10727	0.16418	0.15037	0.25577	0.22837	0.32567	0.25519	0.082655	0.16099	0.092283	0.15748	0.30514	0.14486	0.26714	0.067307	0.22835	-1.925	-3.2771	-2.5563	-2.8625	-3.4562	-2.5375	-3.1937	-3.2271	-2.4333	-3.3563	-2.8729	-2.5812	-3.4875	-2.55	-2.9188	-3.1729	118.005	97.803	169.409	140.910	92.172	99.407	143.119	-90.263	-37.060	-135.104	123.439	142.646	172.536	-91.230	134.551	127.573	0.00091219	0.00066382	0.00015283	1497.1	9.9664e-06	3.706e-06	1496.6	398.79	7.9071e-06	7.6237e-06	459.61	150.45	131.05	44.328	6.5625e-06	54.583	0.00074549	0.00075762	0.00020898	1525.6	8.1245e-06	8.2962e-06	1523.2	407.01	8.2979e-06	8.4532e-06	471.19	154.49	134.8	45.67	8.4239e-06	56.372	-30.724	-98.470	-70.271	-148.616	-7.110	-39.571	-148.633	-144.347	-12.923	-22.288	-144.836	-140.327	-139.953	-135.125	0.476	-135.704	-8191	255	
21006.533	1	1	0	0	0.11006	0.058366	0.37673	0.19475	0.053693	0.41111	0.29383	0.19338	0.16738	0.11835	0.24338	0.11516	0.26534	0.073223	0.084349	0.16911	-1.9917	-3.1896	-2.6937	-2.7896	-3.125	-2.6625	-3.0854	-3.3104	-2.6188	-3.3021	-3.0354	-2.7375	-3.4	-2.7354	-2.8042	-3.35	-90.269	13.257	15.239	110.526	163.279	-117.836	151.297	172.799	-136.520	169.105	141.242	167.066	152.970	141.532	-146.662	-73.768	0.00085694	0.00063419	0.00016243	1499.7	7.7079e-06	6.1327e-06	1498.3	398.69	7.7649e-06	4.5899e-06	462.34	151.87	131.18	44.301	6.0027e-06	54.674	0.00077543	0.00075902	0.00021417	1527.3	8.4556e-06	8.6309e-06	1523.4	407.82	8.485e-06	8.5539e-06	471.95	154.86	134.98	45.728	8.3744e-06	56.456	-28.107	-70.644	-67.616	-148.562	-36.815	-6.267	-148.847	-144.121	-3.589	-31.514	-144.642	-140.183	-139.709	-135.281	-22.580	-136.161	-8191	255	
21006.631	1	1	0	0	0.17768	0.095039	0.20659	0.33466	0.13207	0.055068	0.35291	0.21808	0.18315	0.01125	0.22881	0.06435	0.12754	0.10304	0.048824	0.094708	-2.0938	-2.9958	-2.8521	-2.7396	-3.2771	-2.6229	-2.9667	-3.4271	-2.2917	-3.2125	-3.1979	-2.5771	-3.4208	-2.8937	-2.7438	-3.375	93.352	48.941	191.567	140.515	79.492	5.739	131.143	153.262	54.422	-71.632	135.050	188.382	192.980	78.417	-110.624	-137.923	0.00094767	0.00066153	0.00018182	1501.3	6.136e-06	6.1602e-06	1501.4	397.21	9.0248e-06	3.9599e-06	461.19	150.61	131.96	44.346	5.3065e-06	54.784	0.00077192	0.00078739	0.00021514	1529.4	8.4384e-06	8.5257e-06	1526.2	407.32	8.4396e-06	8.4936e-06	471.99	154.47	135.22	45.738	8.4033e-06	56.514	-28.571	-50.766	-56.219	-148.661	-45.209	-56.776	-148.730	-144.037	-46.109	-23.654	-144.743	-140.068	-139.729	-134.930	-35.578	-135.843	-8191	255	
21006.725	1	1	0	0	0.10098	0.19538	0.04289	0.29761	0.15623	0.11896	0.37874	0.29412	0.14027	0.22767	0.27066	0.0083238	0.14036	0.14961	0.21621	0.19697	-2.0104	-2.9667	-2.9854	-2.6542	-3.1479	-2.9958	-2.7687	-3.2229	-2.325	-2.925	-3.1437	-2.5896	-3.5458	-2.8875	-2.5354	-3.3604	110.877	-113.348	136.175	-125.564	36.027	-30.205	149.636	89.933	-40.032	133.866	136.393	-89.588	134.285	-150.493	-152.890	184.989	0.0010002	0.00076384	0.00024409	1506	6.2506e-06	6.3196e-06	1495.6	397.7	9.1522e-06	8.0775e-06	461.79	150.7	131.73	44.349	5.5801e-06	54.246	0.00078017	0.00077074	0.00021446	1531.4	8.3392e-06	8.5394e-06	1523.8	407.37	8.5986e-06	8.5265e-06	472.88	154.59	135.09	45.747	8.5977e-06	56.424	-27.030	-71.641	-62.948	-148.589	-46.062	-8.811	-148.528	-144.452	-3.437	-40.835	-144.635	-140.373	-139.909	-135.150	0.767	-135.978	-8191	255	
21006.820	1	1	0	0	0.20518	0.23912	0.18514	0.2315	0.23349	0.14793	0.41459	0.21532	0.16717	0.17245	0.21384	0.10249	0.20048	0.13332	0.067332	0.063231	-2.1396	-2.8917	-3.1625	-2.5771	-3.1125	-2.9688	-2.6125	-3.4583	-2.6208	-2.7646	-3.2958	-2.5458	-3.2188	-3.2229	-2.1542	-3.2604	28.752	146.032	-13.035	186.848	-133.418	-93.565	109.790	126.536	124.680	3.094	164.439	107.458	192.676	-9.892	49.269	-94.546	0.00093812	0.00061515	0.00012609	1504.7	2.8989e-06	4.3683e-06	1501.4	398.53	1.3591e-05	4.8708e-06	462.38	151.1	131.73	44.441	7.6646e-06	54.552	0.00078693	0.0007878	0.00021969	1533.3	8.5818e-06	8.7365e-06	1527.5	407.94	8.5668e-06	8.6022e-06	472.83	154.74	135.19	45.848	8.3984e-06	56.491	-30.773	-99.992	-91.270	-148.416	-11.206	-7.228	-148.975	-144.273	-6.164	5.845	-144.599	-140.207	-139.754	-135.351	-13.069	-135.733	-8191	255	
21006.941	1	1	0	0	0.086363	0.15117	0.082152	0.31014	0.088309	0.20963	0.3565	0.12788	0.24098	0.018399	0.30556	0.10077	0.12194	0.16214	0.25456	0.24551	-2.3	-2.7208	-3.1333	-2.5687	-3.1042	-3.2542	-2.5229	-3.6042	-2.7021	-2.5771	-3.4104	-2.4396	-3.2021	-3.1396	-2.4229	-3.3187	144.701	154.837	39.821	-137.123	-51.194	-68.368	109.999	-77.901	62.153	-35.647	99.557	-81.386	-158.476	183.283	-89.917	32.725	0.0008577	0.00077467	0.00015108	1499.7	4.4132e-06	5.3794e-06	1499	399.17	8.2809e-06	5.3104e-06	459.74	151.14	131.81	44.215	1.9924e-06	54.515	0.00075767	0.00078063	0.00021831	1531.1	8.4542e-06	8.4186e-06	1524.6	408.28	8.5006e-06	8.4599e-06	471.66	154.65	134.97	45.647	8.4983e-06	56.423	-32.028	-71.853	-65.876	-148.511	-31.322	-6.427	-148.879	-144.053	-34.494	-30.489	-144.728	-140.396	-139.707	-134.811	-53.660	-136.216	-8191	255	
21007.035	1	1	0	0	0.075258	0.06397	0.086061	0.28042	0.1048	0.16767	0.18136	0.3067	0.15942	0.04629	0.11874	0.27199	0.16511	0.13836	0.15637	0.029032	-2.5667	-2.4729	-3.2792	-2.7333	-2.8667	-3.1125	-2.6396	-3.4292	-2.7021	-2.4771	-3.2229	-2.7958	-2.9792	-3.4021	-2.4167	-3.2792	-156.507	-145.339	-124.468	112.291	32.009	-77.802	60.119	-160.884	-151.158	-81.547	-59.893	176.573	169.030	129.371	114.142	102.649	0.00090353	0.00047142	0.00022248	1504.5	7.7838e-06	5.6381e-06	1496.9	398.88	1.0952e-05	5.3127e-06	461.87	150.88	131.67	44.388	8.0171e-06	54.568	0.00076437	0.00079422	0.0002165	1532.6	8.4878e-06	8.4179e-06	1524.9	407.96	8.366e-06	8.5031e-06	472.33	154.5	134.97	45.784	8.4633e-06	56.438	-29.823	-106.586	-46.152	-148.726	-39.657	-38.401	-148.787	-144.033	-18.800	1.828	-144.552	-140.236	-139.439	-135.088	-22.903	-136.074	-8191	255	
21007.133	1	1	0	0	0.099521	0.20938	0.15992	0.14379	0.080198	0.28976	0.17018	0.14052	0.12275	0.21992	0.23554	0.075444	0.23066	0.16807	0.065774	0.18015	-2.6083	-2.3937	-3.1146	-2.6917	-2.8396	-3.3208	-2.8625	-3.2208	-2.9688	-2.6646	-3.4583	-2.8417	-2.8604	-3.3042	-2.5729	-3.1771	-56.623	158.161	1.743	94.359	74.030	21.149	107.531	100.917	111.887	-103.255	36.882	5.876	-95.611	141.270	153.946	129.214	0.00093753	0.00066611	0.00021791	1505.2	6.884e-06	3.2321e-06	1499.5	398.16	6.9233e-06	2.2143e-06	458.73	150.88	131.74	44.381	2.7595e-06	54.57	0.00077006	0.00079419	0.00021734	1531.9	8.4642e-06	8.5521e-06	1525.9	408.32	8.4325e-06	8.5791e-06	471.9	154.8	135.23	45.786	8.5536e-06	56.523	-25.797	-82.394	-70.971	-148.643	-39.607	13.467	-148.721	-144.117	-17.777	34.170	-144.523	-140.143	-139.652	-135.216	-24.831	-135.730	-8191	255	
21007.229	1	1	0	0	0.14751	0.13336	0.055625	0.022812	0.20254	0.11273	0.49717	0.29131	0.090366	0.2521	0.13398	0.18843	0.13598	0.16077	0.2327	0.029037	-2.7604	-2.4938	-3.3125	-2.9042	-2.5604	-3.3167	-2.4625	-3.1312	-3.2146	-2.4646	-3.4125	-2.9792	-2.7229	-3.5646	-2.6021	-2.9062	-153.857	-161.510	128.824	133.081	-119.206	44.197	100.630	184.464	-110.988	176.557	-138.762	-85.945	169.649	174.969	-132.216	94.936	0.00088933	0.00076215	0.00018651	1504.9	5.2545e-06	1.6314e-06	1501.9	399.1	7.8155e-06	5.0103e-06	461.81	150.83	131.14	44.226	6.0639e-06	54.544	0.0007636	0.00078421	0.00021333	1532	8.4324e-06	8.4258e-06	1526.1	408.54	8.4107e-06	8.4923e-06	472.59	154.58	134.93	45.678	8.5616e-06	56.36	-27.815	-100.462	-96.432	-148.595	-14.281	-4.753	-148.845	-144.212	-4.397	-11.542	-144.562	-140.464	-139.866	-135.236	-22.524	-135.855	-8191	255	
21007.324	1	1	0	0	0.21999	0.13337	0.098874	0.15236	0.089628	0.098512	0.16666	0.13344	0.22289	0.12832	0.12995	0.18655	0.22575	0.17964	0.03638	0.086766	-2.8625	-2.4333	-3.2354	-3.1375	-2.5833	-3.4437	-2.7167	-3.1375	-3.1667	-2.2729	-3.2125	-2.8646	-2.5375	-3.6063	-2.5542	-2.8854	89.147	-124.531	-157.911	143.838	-157.177	110.096	-78.172	135.859	195.291	-125.999	123.874	-157.403	-110.196	109.401	-30.478	97.720	0.00087333	0.00096853	0.00015843	1503.5	4.3119e-06	6.9762e-06	1492	399.17	5.7648e-06	6.7305e-06	461.79	150.33	131.2	44.515	7.947e-06	54.468	0.00075619	0.00076978	0.0002152	1529.8	8.4367e-06	8.3156e-06	1521.2	407.81	8.1899e-06	8.2677e-06	472.16	154.43	134.98	45.788	8.4371e-06	56.444	-28.526	-98.130	-54.703	-148.716	-26.475	-14.348	-148.894	-143.913	-11.440	-8.323	-144.457	-140.087	-139.534	-135.024	-17.184	-135.837	-8191	255	
21007.422	1	1	0	0	0.30318	0.23732	0.091764	0.35721	0.22908	0.32351	0.28707	0.12618	0.20526	0.13299	0.059166	0.142	0.17043	0.064481	0.21725	0.19085	-2.6917	-2.4854	-3.0667	-3.0812	-2.6479	-3.3917	-2.9167	-2.7438	-3.3542	-2.3667	-3.0146	-3.0938	-2.4146	-3.3208	-2.8646	-2.8417	15.499	-81.719	-96.236	136.006	155.993	166.867	188.524	-111.732	65.206	-119.206	166.193	142.567	-153.006	-93.820	-115.566	75.211	0.00090835	0.0009083	0.00020766	1504.1	7.3243e-06	1.9845e-06	1490	399.41	6.4299e-06	7.163e-06	460.96	150.02	131.69	44.104	8.4021e-06	54.405	0.00075967	0.00076332	0.00021356	1528.5	8.2923e-06	8.1454e-06	1519.1	407.61	7.9996e-06	8.2405e-06	471.5	154.03	134.71	45.701	7.9699e-06	56.259	-26.736	-70.229	-75.754	-148.609	2.915	27.097	-148.917	-144.163	13.352	-2.015	-144.461	-140.467	-139.670	-134.889	-40.834	-135.742	-8191	255	
21007.518	1	1	0	0	0.14424	0.17384	0.1504	0.11054	0.29549	0.25935	0.19294	0.2025	0.099583	0.12151	0.077697	0.10885	0.032162	0.13049	0.10184	0.048265	-3.0396	-2.6562	-3.0354	-3.3688	-2.5208	-3.3521	-3.0979	-2.7792	-3.3333	-2.5292	-2.9062	-3.1396	-2.6396	-3.3042	-2.9437	-2.8833	93.067	120.442	-149.374	103.258	-50.065	-161.793	135.482	-129.516	191.491	12.718	-59.875	144.469	-49.358	148.824	32.107	-29.973	0.00095464	0.00040787	0.00017479	1495.3	5.6755e-06	8.5227e-07	1489.8	396.93	9.3419e-06	4.4962e-06	458.75	150.75	131.19	44.12	6.6646e-06	54.625	0.0007321	0.00073276	0.00019898	1524.3	8.0334e-06	8.0987e-06	1517.5	406.49	8.0777e-06	8.055e-06	470.96	154.21	134.42	45.576	7.9371e-06	56.313	-30.795	-73.735	-84.750	-148.527	-34.634	85.243	-148.882	-144.070	3.570	-38.593	-144.380	-140.383	-139.751	-135.096	-45.783	-135.748	-8191	255	
21007.613	1	1	0	0	0.2505	0.16087	0.108	0.22429	0.21774	0.057784	0.29861	0.1344	0.3003	0.088683	0.27981	0.13721	0.050594	0.25042	0.12619	0.13843	-3.0708	-2.7438	-2.9437	-3.3937	-2.5958	-3.15	-3.175	-2.6813	-3.1917	-2.6708	-2.9938	-3.2188	-2.5	-3.3083	-2.8958	-2.6813	47.489	13.151	-103.572	143.871	189.616	3.017	134.468	168.057	167.827	-132.197	137.804	110.995	117.130	-103.345	-155.721	165.614	0.00091927	0.00050964	0.00013275	1499.9	8.906e-06	4.3307e-06	1490.2	398.36	7.6792e-06	5.0662e-06	459.59	150.64	131.35	44.122	5.571e-06	54.412	0.00072196	0.00073459	0.00020419	1524.9	8.1297e-06	8.0388e-06	1516.5	406.65	7.7617e-06	8.0085e-06	469.85	153.91	134.54	45.565	7.77e-06	56.198	-25.084	-95.152	-99.781	-148.551	3.022	43.884	-148.741	-144.220	6.606	-16.124	-144.726	-140.231	-139.811	-134.936	31.426	-135.658	-8191	255	
21007.734	1	1	0	0	0.09917	0.11939	0.13207	0.11287	0.22838	0.16719	0.3639	0.077294	0.23946	0.055472	0.11834	0.23024	0.24877	0.12894	0.095016	0.13646	-3.0729	-2.6333	-2.6667	-3.7146	-2.4292	-3.0354	-3.2812	-2.5875	-3.3792	-2.7146	-2.8979	-3.5104	-2.5792	-3.075	-3.2146	-2.8583	-76.286	-112.374	-157.702	154.210	128.074	55.085	134.907	91.905	179.075	-84.739	-137.239	67.032	117.271	90.945	-69.960	115.770	0.00084839	0.00077399	0.00017977	1495.6	6.3925e-06	1.0118e-06	1487.6	396.79	1.2934e-05	5.2155e-06	459.61	150.64	131.18	44.167	3.3578e-06	54.175	0.00070899	0.00071962	0.00019699	1523.3	8.0059e-06	7.9109e-06	1513.7	405.97	7.9749e-06	7.9865e-06	470.14	153.86	134.33	45.586	7.9993e-06	56.224	-27.187	-70.070	-80.640	-148.519	-24.242	-68.404	-148.920	-144.111	-23.544	-25.042	-144.819	-140.334	-139.955	-134.741	-2.905	-135.909	-8191	255	
21007.828	1	1	0	0	0.17739	0.21203	0.18463	0.32634	0.088679	0.074313	0.2719	0.23055	0.070046	0.23898	0.23876	0.26027	0.10538	0.096703	0.36838	0.15258	-2.9479	-2.8417	-2.5104	-3.6771	-2.6063	-3.0104	-3.3958	-2.6896	-3.1833	-2.8187	-2.8	-3.5917	-2.5979	-2.9604	-3.3708	-2.8187	130.587	50.961	153.915	151.517	-27.688	-17.166	155.966	97.622	123.744	-135.037	99.682	133.459	-82.736	163.322	169.600	94.179	0.00088613	0.00028847	0.00017459	1499.3	5.8658e-06	4.2595e-06	1490	398.94	7.3226e-06	7.9187e-06	460.12	150.58	131.37	44.336	4.3542e-06	54.104	0.00072986	0.00074933	0.00020651	1525.8	8.2147e-06	8.2915e-06	1518.3	406.95	8.2481e-06	8.3678e-06	470.94	154.28	134.59	45.776	8.1471e-06	56.238	-28.990	-96.634	-54.341	-148.609	-47.480	-20.010	-148.752	-144.359	-14.937	-19.150	-144.699	-140.299	-139.846	-135.074	-9.999	-136.055	-8191	255	
21007.900	1	1	0	0	0.019801	0.069873	0.2384	0.17753	0.24847	0.1504	0.17412	0.15279	0.067641	0.1234	0.13246	0.24193	0.094947	0.17229	0.16387	0.12954	-2.9417	-2.9188	-2.4562	-3.4521	-2.8771	-3.0438	-3.4	-2.5958	-3.0625	-3.0375	-2.6375	-3.3292	-2.8146	-2.8	-3.3042	-2.6437	68.443	-77.002	-72.069	185.720	59.728	67.854	113.981	132.834	-50.788	178.959	197.666	166.317	90.331	171.851	191.803	102.877	0.00087898	0.00043537	0.0001366	1501	6.9389e-06	4.8886e-06	1496.2	397.68	7.9282e-06	6.264e-06	462.77	150.66	131.4	44.131	4.9361e-06	54.568	0.00074344	0.00074075	0.00020439	1528.2	8.1363e-06	8.2831e-06	1521.9	406.85	8.1382e-06	8.1261e-06	472.27	154.2	134.58	45.602	7.9734e-06	56.325	-26.318	-54.449	-62.010	-148.513	-21.393	-28.219	-148.857	-144.143	3.857	-15.810	-144.526	-140.175	-139.829	-134.758	-31.713	-135.878	-8191	255	
21008.021	1	1	0	0	0.15339	0.11999	0.21114	0.28126	0.20776	0.12921	0.096252	0.11106	0.16277	0.21441	0.16783	0.26068	0.26837	0.16922	0.27406	0.075243	-2.7687	-3.1479	-2.4375	-3.3958	-2.8729	-2.8083	-3.7313	-2.9062	-3.0875	-3.2854	-2.7917	-3.3812	-2.8333	-2.6333	-3.2875	-2.4583	34.330	36.793	-21.555	161.512	17.961	-111.845	157.607	156.616	84.080	23.093	-147.733	195.137	-133.621	190.708	-149.921	-109.514	0.00082457	0.00067958	0.00018416	1500	4.9555e-06	2.6317e-06	1496.6	396.67	8.2366e-06	6.9764e-06	459.61	150.73	131.31	44.222	7.9827e-06	54.561	0.00074712	0.00072743	0.00020612	1528.3	8.1825e-06	8.1438e-06	1522.1	406.92	8.0119e-06	8.1883e-06	471.37	154.28	134.86	45.65	7.9171e-06	56.459	-34.717	-69.467	-42.897	-148.560	-18.484	-8.556	-148.640	-144.154	-28.937	-15.397	-144.430	-140.259	-139.872	-134.903	-22.098	-135.876	-8191	255	
21008.117	1	1	0	0	0.19781	0.027872	0.29878	0.034574	0.20522	0.16152	0.3334	0.18084	0.14249	0.14251	0.15111	0.080487	0.074418	0.27702	0.21692	0.13269	-2.6312	-3.2812	-2.4208	-3.3771	-3.0646	-2.4604	-3.4708	-2.6833	-2.8792	-3.2375	-2.7438	-3.2812	-3.0583	-2.6	-3.3375	-2.6542	91.335	121.269	156.666	-125.348	-93.595	125.912	167.775	163.351	33.053	-122.037	168.866	153.109	-133.737	-92.441	-32.613	128.678	0.00093248	0.00046633	0.00027056	1501.2	9.1999e-06	2.3024e-06	1493.7	397.03	7.2613e-06	6.5026e-06	459.98	150.81	131.27	44.465	5.9954e-06	54.607	0.00073068	0.00073405	0.00020432	1528.2	7.9925e-06	7.9783e-06	1521.2	406.37	8.0427e-06	8.0546e-06	470.93	154.53	134.63	45.743	7.934e-06	56.364	-27.113	-45.220	-85.920	-148.722	-17.025	40.576	-148.994	-144.389	-14.650	-23.022	-144.586	-140.347	-139.983	-135.144	28.340	-135.901	-8191	255	
21008.213	1	1	0	0	0.12993	0.074617	0.2333	0.27456	0.22238	0.043903	0.16995	0.45597	0.29553	0.051938	0.19007	0.10733	0.24545	0.3193	0.064815	0.058743	-2.3125	-3.3292	-2.525	-3.3479	-3.2375	-2.6125	-3.4021	-2.8854	-2.7646	-3.2625	-2.6167	-3.1875	-3.2313	-2.5208	-3.35	-2.7625	160.036	142.238	136.388	181.703	71.697	-136.092	78.960	168.486	39.290	29.945	-0.371	154.941	190.679	135.083	-126.034	-66.604	0.00088796	0.00073152	0.00024002	1496.7	4.757e-06	3.8593e-06	1489.6	396.98	9.1943e-06	5.5734e-06	460.26	150.47	130.93	44.029	4.5796e-06	54.449	0.00072359	0.00070745	0.00019746	1526.5	7.8479e-06	7.7434e-06	1519.9	405.96	7.7231e-06	7.7387e-06	470.64	154.03	134.49	45.635	7.7325e-06	56.271	-26.602	-69.739	-84.401	-148.696	58.989	-14.364	-148.964	-144.256	-24.071	-4.432	-144.549	-140.226	-139.990	-135.100	-40.635	-136.027	-8191	255	
21008.332	1	1	0	0	0.29313	0.10188	0.12683	0.17887	0.10747	0.018864	0.28155	0.33725	0.148	0.22329	0.46716	0.072345	0.13247	0.13598	0.077909	0.2388	-2.3083	-3.2167	-2.5354	-3.3167	-3.2354	-2.3979	-3.5521	-3.0458	-2.5208	-3.5333	-2.6208	-2.9	-3.2896	-2.5271	-3.2833	-2.9667	171.451	123.561	149.745	-147.155	-134.362	-88.162	112.917	170.806	3.328	-149.707	172.733	121.349	-45.858	-53.418	194.075	174.347	0.00097735	0.00026779	0.00025571	1497.9	1.0914e-05	3.7107e-06	1496.4	398.9	4.6962e-06	6.5519e-06	459.12	150.63	131.6	44.272	7.6432e-06	54.507	0.00072491	0.00070797	0.00019613	1526.5	7.8547e-06	7.8158e-06	1520.1	406.74	7.7639e-06	7.8458e-06	471.11	154.33	134.61	45.717	7.733e-06	56.335	-33.357	-77.610	-76.852	-148.484	-4.305	-38.912	-148.655	-144.116	-4.827	17.779	-144.784	-140.133	-139.721	-134.874	-13.714	-135.997	-8191	255	
21008.430	1	1	0	0	0.2204	0.040069	0.22253	0.15579	0.23647	0.037593	0.03677	0.25618	0.11793	0.077988	0.40119	0.16063	0.12296	0.24768	0.44141	0.20097	-2.2083	-3.35	-2.6312	-3.1063	-3.3479	-2.4542	-3.3604	-3.1979	-2.475	-3.4062	-2.8229	-2.8417	-3.3583	-2.5083	-2.9979	-3.1042	55.710	-86.837	-24.952	111.891	-139.956	-49.338	177.834	113.508	-78.531	-139.673	167.646	159.757	-155.602	75.788	87.959	177.916	0.000923	0.00056525	0.00018329	1494.4	6.5296e-06	3.3248e-06	1496.6	398.5	5.7717e-06	4.5266e-06	459.07	150.25	131.69	44.034	4.0689e-06	54.573	0.00071425	0.000692	0.00019766	1524.6	7.5936e-06	7.6968e-06	1520.2	406.92	7.715e-06	7.6697e-06	470.25	154.15	134.72	45.618	7.5159e-06	56.401	-29.552	-64.405	-61.487	-148.446	-64.176	-13.758	-149.063	-144.298	-39.422	-9.829	-144.729	-140.203	-139.978	-134.854	-38.248	-135.996	-8191	255	
21008.525	1	1	0	0	0.070635	0.15099	0.22839	0.19628	0.079604	0.16203	0.0063809	0.35713	0.14467	0.1695	0.10768	0.1233	0.083956	0.017129	0.090012	0.3727	-1.9125	-3.1042	-2.7479	-2.9333	-3.225	-2.5667	-3.2292	-3.4437	-2.3708	-3.4021	-2.9958	-2.8875	-3.2792	-2.6583	-3	-3.1583	36.816	104.212	86.564	129.133	-109.214	103.294	-68.845	97.489	11.078	-52.069	133.664	-127.649	-11.580	-105.776	92.234	137.792	0.00087818	0.00048314	0.00020096	1498	7.3147e-06	5.1599e-06	1494.3	397.36	6.4248e-06	8.4088e-06	459.43	151.27	131.25	44.398	7.4678e-06	54.469	0.00069331	0.00069245	0.00019391	1526.1	7.5078e-06	7.7308e-06	1520.3	406.28	7.6315e-06	7.6787e-06	471.15	154.44	134.64	45.757	7.6677e-06	56.413	-31.736	-44.916	-63.811	-148.707	-14.422	-32.564	-148.807	-144.262	0.454	-19.475	-144.570	-140.139	-139.647	-135.307	-15.780	-135.923	-8191	255	
21008.621	1	1	0	0	0.082765	0.096306	0.33142	0.44053	0.3256	0.32738	0.24425	0.17161	0.077725	0.090429	0.27116	0.25743	0.17899	0.21696	0.23739	0.05525	-2.1167	-3.1729	-2.9667	-2.7938	-3.3229	-2.6167	-3.0917	-3.3479	-2.5104	-3.1479	-3.1333	-2.65	-3.2396	-2.8438	-2.6813	-3.3688	-132.111	130.290	185.114	165.949	81.272	-105.832	125.741	163.571	-124.939	4.469	166.709	115.429	97.725	114.257	33.425	93.683	0.00087093	0.0004381	0.00012357	1501	5.9749e-06	6.955e-06	1499.2	397.48	1.0323e-05	8.4449e-06	461.34	151.37	131.97	44.371	7.1145e-06	54.636	0.00069325	0.00069241	0.00019158	1525.8	7.6197e-06	7.6488e-06	1522.5	407.06	7.7039e-06	7.6592e-06	471.41	154.76	134.92	45.834	7.811e-06	56.487	-27.467	-72.325	-50.418	-148.608	-27.091	-9.061	-148.737	-144.268	-35.147	-2.404	-144.755	-140.079	-139.966	-135.077	-19.301	-136.044	-8191	255	
21008.719	1	1	0	0	0.17007	0.26923	0.014346	0.42577	0.25002	0.11312	0.26142	0.067605	0.091907	0.11343	0.20872	0.11779	0.22481	0.14674	0.23204	0.097049	-2.1667	-3.1	-3.0354	-2.8208	-3.3479	-2.6208	-2.9188	-3.5792	-2.4437	-3.1979	-3.1479	-2.6896	-3.4062	-2.9792	-2.6792	-3.4792	181.970	175.564	112.633	165.776	87.454	66.005	80.397	0.994	46.271	-45.907	174.324	-134.460	10.832	135.128	8.605	167.537	0.00089379	0.00062161	0.00023484	1502.5	5.8336e-06	3.6833e-06	1496.2	399.03	7.3708e-06	4.3985e-06	462.84	150.86	131.98	44.444	4.5986e-06	54.581	0.00072052	0.00070245	0.00019678	1530.4	7.6374e-06	7.9226e-06	1523.5	407.49	7.9581e-06	7.7817e-06	472.27	154.76	135.13	45.838	8.0188e-06	56.488	-31.344	-86.973	-89.504	-148.509	8.167	14.904	-148.744	-144.228	-32.892	-59.256	-144.685	-140.343	-139.706	-134.981	-10.945	-136.055	-8191	255	
21008.814	1	1	0	0	0.25527	0.21814	0.091941	0.31687	0.20533	0.028572	0.26913	0.19433	0.20609	0.22617	0.19706	0.19586	0.098129	0.15977	0.18096	0.036633	-2.0687	-3.0625	-3.1583	-2.7562	-3.1771	-2.8896	-2.9104	-3.4688	-2.5521	-2.9729	-3.3063	-2.6458	-3.4229	-2.9708	-2.5125	-3.3563	-137.255	-101.220	191.485	110.275	100.150	-103.517	91.759	158.006	-72.273	5.761	-151.810	-43.513	-118.083	45.007	-28.248	21.309	0.00085406	0.00059905	0.00017041	1499.5	3.8671e-06	3.9984e-06	1500.7	399.86	5.6522e-06	7.4437e-06	461.17	151.9	131.81	44.33	7.7129e-06	54.744	0.00072759	0.00072957	0.00019891	1530.5	8.0069e-06	8.0254e-06	1527.2	408.47	7.9948e-06	8.0438e-06	473.6	155	135.41	45.842	8.1052e-06	56.671	-30.779	-91.508	-77.303	-148.715	-24.240	-31.062	-148.810	-144.341	-38.594	-20.283	-144.744	-140.538	-139.672	-134.970	-25.119	-135.712	-8191	255	
21008.910	1	1	0	0	0.21368	0.19852	0.062752	0.39714	0.27042	0.1345	0.21828	0.21303	0.32389	0.20307	0.25494	0.17086	0.36328	0.063304	0.15549	0.15588	-2.2438	-2.8	-3.5042	-2.7979	-3.1312	-3.1771	-2.7792	-3.5833	-2.725	-2.7979	-3.3958	-2.6312	-3.2104	-3.2125	-2.375	-3.4104	126.164	83.064	180.094	185.713	61.600	123.136	168.827	153.407	62.813	32.439	146.704	-132.901	-135.593	-106.280	-83.372	191.061	0.00080776	0.00053008	0.0001801	1514.4	4.9272e-06	5.5793e-06	1505.3	400.45	2.2996e-06	5.11e-06	464.06	151.63	132.38	44.521	6.2465e-06	54.812	0.00074789	0.00074095	0.0002114	1537.6	8.3406e-06	8.5013e-06	1533.4	409.18	8.3729e-06	8.5545e-06	475.01	155.32	135.75	45.976	8.4033e-06	56.732	-30.010	-110.325	-70.023	-148.580	20.971	-22.443	-148.731	-144.255	5.234	-12.911	-144.534	-140.030	-139.776	-135.133	-39.268	-135.785	-8191	255	
21009.029	1	1	0	0	0.029454	0.14784	0.26543	0.18034	0.16686	0.039265	0.38262	0.10667	0.15515	0.14079	0.14088	0.2395	0.24029	0.10047	0.25076	0.16481	-2.2833	-2.6792	-3.2583	-2.7125	-3.2396	-3.1875	-2.8	-3.5062	-2.7354	-2.7188	-3.4646	-2.6	-2.9958	-3.4188	-2.4375	-3.4854	166.652	-55.610	107.725	155.598	-149.352	60.518	108.914	138.541	139.344	5.128	41.056	174.894	53.175	-26.310	91.872	149.215	0.00089773	0.00041746	0.00020234	1512.9	3.4364e-06	4.4267e-06	1507.1	401.12	8.5996e-06	7.168e-06	462.69	152.02	132.37	44.486	4.8403e-06	54.934	0.00075318	0.00075535	0.00020935	1539.9	8.2971e-06	8.2202e-06	1532.1	409.54	8.4076e-06	8.3547e-06	473.96	155.48	135.82	46.028	8.5224e-06	56.814	-31.215	-53.198	-80.863	-148.767	21.342	-13.751	-148.749	-144.137	5.294	-7.308	-144.561	-140.383	-139.682	-135.151	9.102	-135.526	-8191	255	
21009.125	1	1	0	0	0.12427	0.14434	0.17619	0.27597	0.034148	0.1864	0.28443	0.050375	0.23905	0.060418	0.1137	0.10149	0.15241	0.17379	0.080461	0.1127	-2.4625	-2.6292	-3.4458	-2.7292	-3.0458	-3.1979	-2.7729	-3.3833	-3.0375	-2.4813	-3.5396	-2.5125	-3.0271	-3.3375	-2.4854	-3.4229	-90.568	-32.985	69.941	162.857	-73.141	44.623	110.466	-0.541	158.226	-75.079	94.547	157.946	93.817	132.148	189.150	146.679	0.00087006	0.00028834	0.00019552	1516.7	8.3868e-06	8.2767e-06	1505.5	400.33	5.2396e-06	3.5578e-06	464.32	151.48	131.86	44.667	6.2697e-06	54.98	0.00077745	0.00078056	0.00021757	1540.5	8.414e-06	8.5286e-06	1534.4	409.76	8.3259e-06	8.5532e-06	475.25	155.41	135.77	45.988	8.4267e-06	56.715	-32.709	-40.430	-52.575	-148.621	-23.000	-10.298	-148.625	-144.018	14.630	26.156	-144.589	-140.326	-139.566	-134.993	-23.635	-135.839	-8191	255	
21009.197	1	1	0	0	0.092489	0.17473	0.27277	0.40279	0.15373	0.026447	0.14579	0.25289	0.15614	0.10033	0.17882	0.099044	0.1523	0.30531	0.14314	0.11232	-2.6771	-2.5	-3.3333	-2.9813	-2.7417	-3.4604	-2.6229	-3.3458	-3.1583	-2.4104	-3.4229	-2.9792	-2.8333	-3.375	-2.5854	-3.3458	92.510	185.444	166.914	124.888	49.344	76.056	-153.905	147.792	169.052	-136.095	150.845	-135.359	142.258	161.954	-50.782	108.373	0.00079421	0.00054171	0.00017109	1511.6	1.4019e-06	7.1224e-06	1506.9	400.69	7.377e-06	4.4256e-06	462.14	152.22	132.68	44.539	6.0512e-06	54.714	0.00075041	0.00075606	0.00020661	1540.9	8.1439e-06	8.0755e-06	1534.6	409.36	8.1413e-06	8.2214e-06	474.36	155.48	135.91	46.061	8.3251e-06	56.718	-29.624	-85.553	-61.095	-148.650	-128.572	0.738	-148.563	-144.082	-15.352	4.251	-144.704	-140.227	-139.758	-134.845	-56.189	-135.870	-8191	255	
21009.293	1	1	0	0	0.1565	0.40247	0.038345	0.15925	0.11349	0.13007	0.62123	0.29682	0.19917	0.030824	0.21742	0.070756	0.020864	0.19219	0.1486	0.065253	-2.9604	-2.2438	-3.2438	-3.1813	-2.775	-3.3396	-2.9729	-3.0687	-3.1125	-2.4625	-3.3354	-3.0208	-2.7875	-3.3896	-2.6125	-3.0062	193.572	-18.780	-150.486	137.820	189.499	-75.041	134.839	165.279	-65.271	-96.211	134.075	111.712	-28.596	76.467	62.283	155.442	0.00090028	0.00061002	0.0001661	1516.8	4.7175e-06	1.701e-06	1508.5	401.46	7.1456e-06	4.3527e-06	465.44	151.78	132.47	44.734	7.3074e-06	55.155	0.0007533	0.00077219	0.0002154	1542.3	8.366e-06	8.4887e-06	1535.8	410.57	8.479e-06	8.5817e-06	475.75	155.55	136.07	46.151	8.7285e-06	56.936	-27.584	-89.708	-77.182	-148.477	-15.403	-15.989	-148.619	-144.063	-34.901	-6.757	-144.563	-140.298	-139.658	-135.051	-4.688	-136.080	-8191	255	
21009.414	1	1	0	0	0.10166	0.30638	0.21709	0.23713	0.16862	0.12439	0.33836	0.043161	0.26095	0.045933	0.26532	0.19629	0.14246	0.15023	0.1541	0.19506	-2.7396	-2.7667	-3.2062	-3.3479	-2.3979	-3.5375	-2.8563	-3.1771	-3.2333	-2.4583	-3.3187	-3.1292	-2.5062	-3.3688	-2.7229	-2.8083	35.775	-127.192	127.133	94.438	30.286	-149.333	125.159	-17.203	177.298	171.054	-147.780	34.997	-123.989	-115.068	148.043	158.581	0.00085526	0.00062086	0.00014487	1515.7	7.4557e-06	4.7093e-06	1515.3	401	5.625e-06	4.9087e-06	464.84	151.82	132.51	44.629	6.5605e-06	54.844	0.00077657	0.00081078	0.00022213	1544.2	8.703e-06	8.8861e-06	1539.4	410.76	8.5711e-06	8.8025e-06	475.96	155.63	136	46.14	8.6546e-06	56.782	-31.258	-65.223	-80.450	-148.515	-8.585	-20.079	-148.639	-143.941	-4.040	-1.402	-144.360	-140.003	-139.557	-134.948	-23.198	-135.881	-8191	255	
21009.510	1	1	0	0	0.17511	0.28699	0.14448	0.20847	0.090323	0.17186	0.066929	0.08686	0.12681	0.32326	0.25317	0.18641	0.20391	0.2502	0.22192	0.31809	-2.9125	-2.5167	-3.0229	-3.2583	-2.6042	-3.3438	-2.8583	-2.6792	-3.2708	-2.5375	-3.1646	-3.1688	-2.4313	-3.3875	-2.8458	-2.8312	183.896	-64.232	-138.019	93.073	48.432	102.245	66.628	179.689	-98.975	94.394	-153.079	136.055	116.258	137.438	178.180	52.583	0.00093871	0.00050258	0.00015752	1514.9	4.4595e-06	3.5215e-06	1510.5	401.06	2.223e-06	5.6458e-06	464.29	152.01	132.84	44.834	5.6822e-06	54.926	0.00077383	0.0007997	0.0002183	1542.8	8.5998e-06	8.4873e-06	1535.8	409.69	8.4021e-06	8.7355e-06	475.16	155.66	135.99	46.237	8.8472e-06	56.793	-30.059	-68.213	-77.428	-148.615	-32.883	-12.753	-148.730	-144.062	19.328	-37.219	-144.442	-140.201	-139.582	-134.819	-35.702	-135.583	-8191	255	
21009.605	1	1	0	0	0.22257	0.28152	0.32436	0.21165	0.31268	0.13413	0.12212	0.056322	0.20228	0.23572	0.18106	0.24384	0.15934	0.1331	0.24634	0.15827	-2.9292	-2.5521	-3.0167	-3.5375	-2.4646	-3.2625	-3.3042	-2.6896	-3.4729	-2.6437	-3.2667	-3.3292	-2.5	-3.2458	-3.1625	-2.7667	114.293	47.540	-49.180	186.890	147.059	166.231	140.685	-104.033	-17.473	-99.215	192.466	150.867	188.019	-132.186	63.837	130.230	0.00094485	0.00071012	0.00016002	1517.9	6.2029e-06	2.3892e-06	1514	398.89	7.4393e-06	3.0169e-06	462.68	151.54	132.52	44.538	2.3591e-06	54.821	0.00078111	0.00081638	0.00022668	1545.1	8.837e-06	8.7502e-06	1537.9	409.54	8.6392e-06	8.6735e-06	474.95	155.45	135.9	46.098	8.6651e-06	56.891	-27.529	-113.268	-88.573	-148.392	-23.964	12.712	-148.782	-143.862	-28.278	-63.708	-144.568	-140.049	-139.566	-134.743	10.192	-135.738	-8191	255	
21009.701	1	1	0	0	0.10099	0.052068	0.1794	0.066068	0.25694	0.072034	0.29213	0.27724	0.065379	0.060995	0.30368	0.28565	0.21026	0.21878	0.11142	0.23782	-2.8792	-2.525	-2.8833	-3.5375	-2.4042	-3.3042	-3.2917	-2.7229	-3.4771	-2.7292	-2.8896	-3.3063	-2.7396	-3.2583	-2.9938	-2.6875	-4.572	112.386	187.002	84.430	68.450	-129.871	145.267	161.166	-83.079	102.315	157.581	163.447	129.615	133.527	196.384	169.565	0.00088767	0.00097377	0.00020261	1520.8	6.3385e-06	4.6659e-06	1513.1	401.63	7.8793e-06	4.5034e-06	464.56	152.04	132.56	44.935	8.7559e-06	55.063	0.00078734	0.00081359	0.00022294	1546.3	8.9117e-06	8.8924e-06	1538.7	410.7	8.6288e-06	8.8713e-06	476.24	155.62	135.97	46.222	8.8851e-06	56.892	-28.882	-75.192	-94.465	-148.486	-22.546	-18.005	-148.709	-143.906	-49.798	9.015	-144.482	-140.075	-139.638	-134.648	-24.093	-135.542	-8191	255	
21009.822	1	1	0	0	0.037901	0.19503	0.18097	0.26398	0.12952	0.1128	0.46705	0.39858	0.15315	0.085331	0.24303	0.31777	0.084095	0.166	0.20877	0.18973	-3.2375	-2.8375	-2.5604	-3.6021	-2.4771	-3.0479	-3.2625	-2.4833	-3.2792	-2.8271	-2.9292	-3.4083	-2.7146	-2.9458	-3.2458	-2.3979	-46.933	-137.857	2.192	140.604	-142.448	51.625	172.587	168.320	187.139	-50.669	-151.754	170.305	173.925	157.132	40.494	73.352	0.00085322	0.00061832	0.00012832	1514.5	4.7515e-06	6.4051e-06	1508.2	400.85	9.622e-06	6.1638e-06	465.71	151.91	131.88	44.632	4.8679e-06	54.935	0.00079792	0.00082934	0.00022774	1545.5	8.9676e-06	9.0521e-06	1538	410.69	8.6601e-06	8.8468e-06	476.13	155.4	135.66	46.051	8.5852e-06	56.773	-27.212	-74.640	-102.032	-148.328	-34.859	10.870	-148.578	-143.864	-40.397	-10.633	-144.555	-140.168	-139.547	-134.708	-20.468	-135.775	-8191	255	
21009.895	1	1	0	0	0.23265	0.087992	0.14645	0.43693	0.059554	0.093867	0.30279	0.18679	0.21294	0.11166	0.23613	0.11363	0.26779	0.19316	0.075973	0.036422	-2.9396	-2.8563	-2.725	-3.5104	-2.4562	-3.0563	-3.4271	-2.6646	-3.2708	-3.2062	-2.5875	-3.4146	-2.7375	-2.8521	-3.1854	-2.7271	-156.206	169.773	-60.192	145.038	-160.192	-153.387	128.240	-148.302	-153.754	-70.159	156.568	37.283	81.531	168.389	187.124	188.078	0.00091189	0.00052728	0.00013531	1515	2.3036e-06	5.7964e-06	1508.3	399.4	9.911e-06	1.1e-05	464.07	151.95	132.52	44.527	9.7849e-06	54.732	0.00077654	0.00077332	0.00021309	1540.3	8.538e-06	8.5227e-06	1532.8	408.62	8.4821e-06	8.3976e-06	474.7	155.49	135.63	45.981	8.4423e-06	56.721	-28.816	-72.763	-46.509	-148.349	-24.735	23.940	-148.621	-144.052	-36.351	-25.759	-144.273	-139.928	-139.541	-134.631	-41.785	-135.728	-8191	255	
21010.014	1	1	0	0	0.091153	0.14348	0.25762	0.12467	0.11728	0.2177	0.031699	0.16097	0.13013	0.20948	0.071808	0.35056	0.22966	0.14423	0.065801	0.24148	-2.8604	-3.0812	-2.5312	-3.6542	-2.7208	-2.7479	-3.4292	-2.6104	-3.2188	-3.0458	-2.7729	-3.2208	-2.9604	-2.6	-3.5187	-2.7021	179.477	-38.359	42.486	125.617	5.577	43.425	-33.488	134.642	-67.077	73.867	-138.653	166.430	118.488	45.987	71.728	2.243	0.00092923	0.00082119	0.00017506	1511.4	3.6969e-06	5.1888e-06	1505.5	400.76	6.1432e-06	6.7534e-06	462.66	151.74	131.71	44.59	5.7356e-06	54.726	0.00078226	0.00078613	0.00021857	1542	8.5035e-06	8.5077e-06	1531.8	409.46	8.381e-06	8.517e-06	474.48	155.49	135.53	46.06	8.2722e-06	56.682	-29.566	-82.767	-79.389	-148.393	-68.372	-30.394	-148.456	-143.864	-32.979	9.445	-144.269	-140.023	-139.641	-134.813	-24.755	-135.442	-8191	255	
21010.109	1	1	0	0	0.38205	0.077815	0.18715	0.24136	0.19527	0.11385	0.1655	0.17663	0.12657	0.22167	0.23252	0.067373	0.053247	0.38008	0.072483	0.085657	-2.8229	-3.2062	-2.5208	-3.525	-2.825	-2.7208	-3.6375	-2.7833	-2.9313	-3.15	-2.525	-3.5042	-2.9938	-2.6604	-3.4083	-2.7958	51.798	95.183	-3.458	-156.321	-37.784	-72.249	118.619	180.979	-7.515	49.666	75.703	-50.353	-60.702	185.798	35.125	48.130	0.00087763	0.00054531	0.00024349	1508.5	4.8822e-06	1.9528e-06	1508.4	399.51	5.7211e-06	6.6116e-06	460.74	151.83	131.54	44.444	8.327e-06	54.617	0.00075088	0.00075285	0.00021086	1537.8	8.0779e-06	7.9876e-06	1528.3	407.38	7.8529e-06	7.8242e-06	472.4	154.9	134.82	45.882	7.6406e-06	56.506	-27.514	-109.164	-86.382	-148.199	-35.163	-40.819	-148.531	-143.891	-3.487	-8.459	-144.307	-139.910	-139.410	-134.453	-21.287	-135.322	-8191	255	
21010.205	1	1	0	0	0.13101	0.19188	0.053045	0.25491	0.12116	0.044944	0.10201	0.32702	0.12245	0.13357	0.46947	0.20867	0.11086	0.25351	0.28293	0.19083	-2.6958	-3.1958	-2.4813	-3.4292	-2.9917	-2.5312	-3.525	-2.7292	-3.0708	-3.2	-2.7292	-3.2958	-3.0604	-2.6083	-3.3229	-2.875	-79.482	167.504	-13.940	-135.340	178.766	-91.708	142.328	160.937	-19.884	12.069	184.956	114.798	-15.964	181.022	144.415	185.524	0.00094359	0.00047388	0.00013527	1505.2	4.7674e-06	1.1953e-06	1496.7	399.96	6.7461e-06	6.7661e-06	462.43	151.01	132	44.504	4.5701e-06	54.894	0.00072024	0.00071511	0.00019733	1533.5	7.8743e-06	7.8997e-06	1523.3	407.24	7.9492e-06	7.788e-06	472.57	154.62	135.05	45.848	8.0227e-06	56.612	-30.067	-70.360	-74.990	-148.127	-24.672	-44.202	-148.175	-143.823	-35.569	-12.570	-144.228	-139.867	-139.419	-134.913	3.464	-135.736	-8191	255	
21010.303	1	1	0	0	0.03997	0.23653	0.14991	0.23753	0.18979	0.43923	0.27596	0.16451	0.075561	0.13155	0.28623	0.10419	0.51926	0.12165	0.27576	0.048162	-2.3667	-3.3146	-2.425	-3.3063	-3.2729	-2.4333	-3.4396	-2.8688	-2.8187	-3.3521	-2.6667	-3.1542	-3.2458	-2.5167	-3.2896	-2.7021	19.250	-22.348	179.819	178.243	194.644	-17.444	152.032	192.840	-91.038	-141.482	-148.227	77.294	-159.947	-71.557	-90.324	-36.268	0.00081683	0.00048932	0.00021617	1503.6	8.6004e-06	2.8268e-06	1502.1	399.55	5.1681e-06	5.6351e-06	460.75	150.8	131.44	44.529	6.0696e-06	54.51	0.00072657	0.00074644	0.00020545	1532.8	8.0653e-06	8.1497e-06	1528.4	407.87	8.0482e-06	7.9923e-06	471.99	154.9	134.94	45.919	8.058e-06	56.498	-27.240	-63.875	-64.884	-148.301	-23.128	22.184	-148.298	-143.878	5.891	4.461	-144.195	-139.791	-139.237	-134.677	-34.072	-135.615	-8191	255	
21010.422	1	1	0	0	0.22016	0.12521	0.048338	0.22991	0.25211	0.07327	0.23745	0.19684	0.26242	0.22986	0.27358	0.060199	0.30667	0.22407	0.1939	0.21684	-2.4333	-3.2812	-2.5729	-3.25	-3.4042	-2.6104	-3.4396	-3.0958	-2.7125	-3.4542	-2.825	-3.125	-3.3542	-2.5104	-3.3604	-3.15	16.684	-159.528	-67.458	94.369	177.833	-21.301	133.114	165.305	-96.474	-32.227	158.969	-130.320	142.321	161.325	125.466	-153.888	0.00083666	0.00059854	0.00018761	1509.9	3.6374e-06	4.7378e-06	1495.3	398.25	9.6505e-06	4.9826e-06	461.05	151.55	131.74	44.503	6.4818e-06	54.801	0.00073788	0.00072606	0.00020538	1533.7	8.1337e-06	7.9224e-06	1524.6	407.6	7.7935e-06	7.9725e-06	472.02	154.91	135	45.852	7.9593e-06	56.566	-29.577	-87.250	-58.332	-148.341	-43.901	22.459	-148.454	-143.909	1.419	-11.575	-144.400	-139.995	-139.453	-134.538	-24.629	-135.400	-8191	255	
21010.494	1	1	0	0	0.19062	0.12775	0.20539	0.085744	0.27939	0.24203	0.2662	0.11153	0.038274	0.13329	0.13082	0.22333	0.29965	0.30433	0.22617	0.16195	-2.2562	-3.3792	-2.6937	-3.0729	-3.3042	-2.5729	-3.5958	-3.4188	-2.4354	-3.3979	-2.9062	-2.7958	-3.4979	-2.7083	-3.025	-3.3812	130.352	142.304	72.275	137.366	194.153	154.624	177.010	150.087	-54.349	168.239	145.561	-137.251	-117.550	178.349	69.978	19.086	0.00090976	0.00055691	0.00019433	1501.9	8.6396e-06	4.0828e-06	1500.3	400.2	7.8562e-06	6.4894e-06	463.28	150.57	131.62	44.494	6.3936e-06	54.635	0.00072597	0.00072544	0.00020224	1530.9	7.9295e-06	8.1199e-06	1525.5	407.59	7.996e-06	8.1231e-06	473.12	154.68	135.13	45.833	8.0797e-06	56.544	-31.051	-78.474	-68.539	-148.057	-38.705	-37.104	-148.397	-143.944	17.641	-4.675	-144.313	-139.777	-139.442	-134.373	17.586	-135.464	-8191	255	
21010.590	1	1	0	0	0.25008	0.13931	0.21566	0.1544	0.10698	0.30611	0.26676	0.20108	0.14054	0.11124	0.33136	0.10388	0.18662	0.035754	0.18712	0.23512	-2.0792	-3.2229	-2.8063	-2.8833	-3.2271	-2.5458	-3.1292	-3.3667	-2.4667	-3.4229	-3.0125	-2.65	-3.3854	-2.7938	-2.975	-3.5208	8.026	121.668	137.661	196.546	-2.076	6.862	75.367	168.676	178.861	-38.307	82.152	-128.160	-127.518	-160.073	-59.190	51.070	0.00091506	0.00085292	0.00015186	1510.7	5.184e-06	2.7521e-06	1500	399.41	7.1658e-06	8.2624e-06	460.84	151.2	131.73	44.444	6.233e-06	54.69	0.00074559	0.00074801	0.00020609	1534.3	8.1614e-06	8.3809e-06	1527.5	408.16	8.194e-06	8.1648e-06	472.37	154.96	135.17	45.899	8.2025e-06	56.471	-30.404	-64.664	-75.230	-148.102	-15.367	-17.335	-148.129	-143.826	-20.808	-25.098	-144.324	-139.757	-139.306	-134.506	-2.542	-135.392	-8191	255	
21010.711	1	1	0	0	0.25198	0.15184	0.4636	0.21121	0.11022	0.29806	0.23753	0.019833	0.11953	0.22525	0.12067	0.28399	0.1652	0.12426	0.1301	0.085795	-2.0812	-3.1271	-2.8896	-2.8167	-3.3104	-2.6396	-3.0875	-3.3146	-2.5021	-2.9729	-3.0958	-2.5708	-3.4437	-2.8771	-2.7333	-3.5417	-98.636	49.397	104.942	-150.854	195.062	69.701	170.669	-156.815	-160.713	163.417	176.298	98.965	18.788	148.758	-51.680	187.983	0.00087832	0.00051094	0.00017148	1508.4	7.0404e-06	5.6e-06	1501.3	398	8.5928e-06	1.0622e-05	461.02	151.07	132.2	44.391	4.1962e-06	54.71	0.00074499	0.00073387	0.00020528	1533.6	8.0322e-06	8.0839e-06	1527.8	407.84	8.188e-06	8.1492e-06	472.1	154.6	135.38	45.836	8.0348e-06	56.518	-25.629	-72.957	-62.041	-148.162	-24.430	-12.789	-148.372	-143.860	-24.686	0.367	-144.382	-139.832	-139.484	-134.740	3.907	-135.677	-8191	255	
21010.807	1	1	0	0	0.21699	0.087885	0.11761	0.2045	0.10914	0.085398	0.27032	0.16312	0.079031	0.15484	0.11977	0.10859	0.20632	0.1894	0.036678	0.13676	-2.1146	-3.0292	-3.075	-2.9188	-3.3208	-2.6792	-3.0687	-3.4313	-2.5167	-3.0563	-3.3042	-2.4813	-3.4104	-3.1042	-2.7417	-3.525	18.409	-9.620	29.573	183.732	152.836	-123.348	124.201	-148.841	-115.740	23.251	11.244	197.268	142.143	185.389	173.607	113.014	0.00086731	0.00045123	0.00018547	1503.6	8.0469e-06	5.7348e-06	1495.6	398.83	6.637e-06	5.7448e-06	461.35	151.18	132.11	44.28	9.2234e-06	54.618	0.00073612	0.00072505	0.00020078	1532.2	8.1286e-06	8.0086e-06	1525.1	407.88	7.9652e-06	8.1324e-06	472.6	154.94	135.26	45.822	8.2614e-06	56.536	-30.388	-86.198	-61.970	-148.297	-20.784	-21.162	-148.241	-143.554	-20.904	54.808	-144.170	-139.819	-139.342	-134.485	-8.735	-135.242	-8191	255	
21010.900	1	1	0	0	0.15511	0.082698	0.22745	0.1151	0.05315	0.098733	0.29159	0.34948	0.13358	0.12396	0.15738	0.19619	0.2275	0.14994	0.063058	0.067741	-2.1979	-2.8396	-3.1312	-2.6167	-3.3458	-2.9292	-2.6771	-3.3125	-2.5104	-2.9896	-3.2667	-2.6312	-3.4417	-2.825	-2.6271	-3.75	91.917	-10.237	39.982	144.327	-65.039	143.266	-161.166	186.761	9.196	48.259	-133.815	-82.977	191.024	-24.252	132.202	-33.614	0.0009062	0.00018574	0.00018552	1509.4	6.1522e-06	3.4559e-06	1502.5	398.78	8.6896e-06	2.5252e-06	461.39	151.25	131.91	44.579	8.1128e-06	54.525	0.00073719	0.00074677	0.00020584	1533	8.1032e-06	8.1639e-06	1526.6	407.75	8.0231e-06	8.0715e-06	472.81	154.65	135.11	45.864	7.9998e-06	56.44	-28.421	-84.292	-101.576	-147.964	-35.474	-21.616	-148.194	-143.735	-13.141	9.928	-144.333	-139.723	-139.210	-134.723	-28.855	-135.292	-8191	255	
21010.998	1	1	0	0	0.20611	0.1359	0.076525	0.20915	0.26391	0.016657	0.2718	0.17759	0.22999	0.14746	0.036797	0.1122	0.069832	0.14523	0.26085	0.16606	-2.3583	-2.8125	-3.2104	-2.8521	-3.1458	-2.8854	-2.5458	-3.4062	-2.6917	-2.6646	-3.3312	-2.4021	-3.2375	-3.2333	-2.3229	-3.4208	73.090	-101.575	-146.807	184.044	181.200	29.918	121.508	141.959	-55.767	61.364	-1.375	175.780	-79.554	166.776	4.691	93.998	0.0008751	0.0005223	0.00017217	1506.2	4.8444e-06	4.9017e-06	1495.4	397.58	9.4719e-06	4.8695e-06	460.75	150.73	132.39	44.251	7.6667e-06	54.577	0.00072253	0.00072936	0.00020318	1530.7	7.9664e-06	7.9276e-06	1524.3	407.56	8.0477e-06	8.229e-06	472.2	154.64	135.08	45.712	8.105e-06	56.469	-28.699	-85.329	-54.800	-148.046	-5.077	2.632	-148.167	-143.794	5.335	21.922	-144.214	-139.812	-139.132	-134.569	-55.404	-135.615	-8191	255	
21011.094	1	1	0	0	0.14295	0.046594	0.082845	0.39898	0.12397	0.20232	0.31101	0.26762	0.28465	0.16432	0.31732	0.13544	0.10764	0.11791	0.15962	0.083837	-2.4146	-2.4813	-3.2125	-2.7313	-3.0438	-3.0479	-2.7938	-3.3063	-2.7729	-2.7188	-3.5312	-2.6083	-3.2208	-3.3438	-2.5125	-3.5521	141.803	-47.651	99.383	120.042	34.159	-24.831	125.951	163.993	154.994	178.765	130.069	194.702	-19.764	162.373	-140.532	1.140	0.00084876	0.0006607	0.00012926	1503.2	8.4642e-06	3.3625e-06	1496.2	399.25	8.9055e-06	2.3205e-06	460.75	151.66	132.11	44.394	9.5102e-06	54.926	0.00073222	0.00074209	0.00020142	1530.5	8.1813e-06	8.0063e-06	1524.3	408.48	8.1539e-06	8.205e-06	472.44	155.02	135.33	45.862	8.3987e-06	56.573	-31.966	-58.195	-87.214	-148.128	-24.163	8.186	-148.368	-143.767	-7.136	3.682	-144.094	-140.039	-139.374	-134.649	1.957	-135.311	-8191	255	
21011.189	1	1	0	0	0.13765	0.19971	0.041765	0.47397	0.11735	0.19322	0.16971	0.27015	0.10386	0.081326	0.29096	0.3495	0.37064	0.29758	0.27346	0.23163	-2.375	-2.5604	-3.4	-2.8917	-2.9813	-3.1937	-2.9542	-3.2542	-2.9896	-2.5875	-3.3771	-2.7354	-2.9417	-3.4333	-2.5458	-3.3125	49.599	62.183	17.534	181.828	-77.637	35.021	105.623	138.030	-142.010	170.396	160.656	-149.470	140.492	166.271	191.523	151.109	0.00092149	0.00050272	0.00022807	1506.1	7.7875e-06	5.3495e-06	1502.2	400.19	1.0197e-05	6.6409e-06	464.49	150.96	131.77	44.481	7.7544e-06	54.731	0.00074734	0.00076273	0.0002077	1533.6	8.3461e-06	8.3456e-06	1528.3	408.61	8.2172e-06	8.3983e-06	473.4	154.75	135.27	45.882	8.2097e-06	56.655	-26.715	-59.180	-62.921	-147.996	-18.146	-5.973	-148.419	-143.624	-22.797	-29.228	-144.455	-139.968	-139.651	-134.915	-19.452	-135.674	-8191	255	
21011.285	1	1	0	0	0.24535	0.10446	0.10853	0.3103	0.079869	0.11154	0.30964	0.065104	0.21077	0.26882	0.29687	0.30885	0.057403	0.10027	0.20995	0.043337	-2.5604	-2.375	-3.3229	-3.075	-2.7438	-3.4437	-2.8042	-3.0583	-3.0417	-2.3104	-3.4542	-3.025	-2.7687	-3.6042	-2.5021	-3.05	96.400	116.658	61.911	132.970	47.893	-148.009	172.476	-106.865	169.672	153.797	180.689	184.373	24.578	171.988	166.270	-116.577	0.00091464	0.00059396	0.00024076	1505.9	5.8526e-06	1.721e-06	1500	397.8	1.076e-05	6.7288e-06	462.26	150.53	131.86	44.325	4.2722e-06	54.723	0.00074694	0.0007558	0.00020427	1532.9	8.2947e-06	8.3525e-06	1526.4	407.31	8.2172e-06	8.363e-06	472.71	154.56	135.3	45.858	8.2453e-06	56.668	-31.454	-72.233	-83.943	-148.479	-12.860	74.469	-148.703	-144.186	-32.876	6.921	-144.397	-140.179	-139.694	-134.653	-60.339	-135.920	-8191	255	
21011.383	1	1	0	0	0.1196	0.24195	0.15798	0.31498	0.27656	0.081488	0.17824	0.10546	0.25579	0.078109	0.25748	0.30966	0.40901	0.12498	0.079025	0.2372	-2.7979	-2.3875	-3.3333	-3.1271	-2.7917	-3.3479	-2.8375	-3.0938	-3.175	-2.5521	-3.4646	-2.9979	-2.6813	-3.3729	-2.5396	-2.8333	118.163	-103.816	-122.795	162.237	23.239	186.392	134.871	40.276	15.376	176.039	179.415	-152.061	143.556	54.940	122.428	163.171	0.00088052	0.0007318	0.00017357	1505	4.856e-06	1.8668e-06	1497.9	400.39	7.5505e-06	7.9061e-06	461.04	150.86	132.14	44.488	5.6429e-06	54.683	0.00073859	0.00076515	0.00021236	1533.1	8.1406e-06	8.3665e-06	1528.3	408.98	8.118e-06	8.3048e-06	472.88	154.82	135.29	45.909	8.3494e-06	56.638	-30.861	-68.482	-49.567	-148.493	-17.374	22.480	-148.596	-144.102	-5.946	-26.765	-144.645	-140.462	-139.506	-134.804	-19.691	-135.656	-8191	255	
21011.504	1	1	0	0	0.066666	0.22937	0.30731	0.25889	0.34044	0.022623	0.39299	0.17474	0.18468	0.076048	0.32465	0.096096	0.079128	0.17513	0.12616	0.40447	-2.75	-2.3812	-3.0563	-3.0333	-2.4042	-3.3208	-2.8208	-3.0958	-3.2729	-2.6229	-3.3896	-3.1896	-2.5708	-3.4875	-2.725	-2.7729	-137.409	-28.239	187.425	-159.677	-49.942	140.508	148.004	-86.890	55.681	-43.017	-124.994	147.138	-94.205	147.183	1.886	19.445	0.00089377	0.0007634	0.0001711	1509.9	8.4145e-06	5.3821e-06	1502.6	398.53	7.8153e-06	2.5996e-06	462.27	151.16	131.45	44.421	6.6374e-06	54.649	0.00075394	0.00078747	0.00020902	1536.7	8.4254e-06	8.2827e-06	1527.8	408.53	8.1087e-06	8.3837e-06	473.51	154.89	135.23	45.875	8.1168e-06	56.555	-28.216	-101.551	-79.659	-148.461	-34.699	-24.587	-148.668	-144.027	-11.735	46.234	-144.541	-140.209	-139.488	-134.562	15.269	-135.495	-8191	255	
21011.600	1	1	0	0	0.10206	0.18981	0.0092806	0.33875	0.23768	0.028896	0.39794	0.16962	0.26763	0.5057	0.18023	0.27298	0.05244	0.099658	0.22642	0.27763	-3.1417	-2.2958	-3.0333	-3.3167	-2.4708	-3.2542	-2.8563	-2.8146	-3.3937	-2.5687	-3.1417	-3.3042	-2.6396	-3.4708	-2.7854	-2.6958	-52.147	161.310	14.715	-144.622	3.089	-115.723	144.677	132.965	-91.250	137.436	29.976	115.044	-29.688	35.900	-107.301	-139.304	0.00088276	0.00044714	0.00017664	1504.9	4.2789e-06	1.779e-06	1501.4	399.97	5.8086e-06	5.0122e-06	463.12	150.49	132.31	44.271	5.9628e-06	54.776	0.00075126	0.0007663	0.00020678	1532.9	8.1969e-06	8.2231e-06	1524.8	408.37	8.1014e-06	8.3048e-06	472.83	154.87	135.31	45.85	8.2076e-06	56.489	-25.482	-64.554	-67.264	-148.376	-35.346	3.057	-148.721	-144.074	-31.188	-36.726	-144.249	-140.098	-139.664	-134.656	-6.405	-135.417	-8191	255	
21011.695	1	1	0	0	0.26994	0.075825	0.14711	0.40392	0.18648	0.019667	0.28985	0.12841	0.25085	0.23025	0.16662	0.25767	0.28136	0.20915	0.096235	0.37222	-2.7812	-2.6	-3.1813	-3.3604	-2.5521	-3.4	-3.0292	-2.7958	-3.3771	-2.7208	-3.1042	-3.3104	-2.6958	-3.2292	-3.0375	-2.6604	-24.689	-78.669	184.039	161.695	-61.727	117.594	160.489	-159.521	5.092	6.869	161.733	180.738	173.433	-151.285	153.583	106.637	0.00090315	0.00055131	7.7613e-05	1506	5.0153e-06	3.7488e-06	1499.8	399.61	1.0793e-05	9.0156e-06	462.19	151.43	132.19	44.377	5.4528e-06	54.399	0.00075966	0.00077051	0.00021365	1535.5	8.3369e-06	8.2687e-06	1528.5	408.83	8.0959e-06	8.2854e-06	473.1	155.04	135.27	45.939	8.1965e-06	56.47	-26.273	-105.928	-80.242	-148.426	-43.787	-44.508	-148.714	-143.869	5.969	-21.990	-144.372	-140.282	-139.427	-134.725	-22.034	-135.629	-8191	255	
21011.791	1	1	0	0	0.040066	0.073195	0.16575	0.30569	0.20078	0.14345	0.16998	0.21832	0.16113	0.19307	0.020152	0.031736	0.32729	0.27198	0.20403	0.19298	-3.0104	-2.5417	-2.8021	-3.5979	-2.5917	-3.2229	-3.2479	-2.6771	-3.2792	-2.6583	-2.9958	-3.4354	-2.7729	-3.2562	-3.1437	-2.5938	152.638	-17.097	93.480	134.745	156.578	2.008	180.659	161.292	-150.553	120.949	-111.491	96.513	149.153	116.915	-104.339	157.888	0.00087661	0.00069008	9.322e-05	1506.3	6.1809e-06	2.2729e-06	1501	399.11	5.7691e-06	3.6541e-06	461.81	151.25	131.82	44.693	4.6131e-06	54.941	0.00073199	0.0007542	0.00020666	1533.8	8.1063e-06	8.2274e-06	1527.2	408.02	8.1479e-06	8.1877e-06	473.66	155	135.47	45.974	8.298e-06	56.67	-30.592	-60.201	-55.347	-148.491	-23.875	15.572	-148.631	-143.888	-8.686	-3.696	-144.345	-140.138	-139.402	-134.820	-1.866	-135.786	-8191	255	
21011.887	1	1	0	0	0.13907	0.14176	0.21505	0.23026	0.2266	0.080237	0.3427	0.14885	0.019793	0.1425	0.26344	0.24051	0.21337	0.42957	0.15994	0.14319	-3.0792	-2.7875	-2.6875	-3.65	-2.65	-3.0708	-3.2979	-2.5625	-3.2875	-2.8646	-2.8104	-3.5687	-2.5896	-3.2292	-3.1229	-2.6937	-150.910	-35.259	174.071	128.482	122.878	31.636	169.754	84.145	-99.401	-58.448	99.621	61.669	-94.631	-126.270	-142.335	162.587	0.00083278	0.00070525	0.000112	1509.9	6.4132e-06	5.0874e-06	1498.1	398.71	3.3188e-06	7.2056e-06	462.2	150.96	132.48	44.59	7.6978e-06	54.675	0.00075204	0.00075956	0.00021319	1536.3	8.2724e-06	8.0505e-06	1526.6	408.27	8.2051e-06	8.3869e-06	473.44	154.73	135.31	45.95	8.1939e-06	56.518	-31.312	-91.756	-64.134	-148.386	-25.619	-5.757	-148.616	-143.987	-11.777	-15.977	-144.240	-140.066	-139.462	-134.771	-35.191	-135.915	-8191	255	
21011.982	1	1	0	0	0.21156	0.17579	0.139	0.15218	0.15518	0.36628	0.23357	0.099027	0.18682	0.057284	0.20225	0.1499	0.32894	0.1146	0.066149	0.34982	-3.0083	-2.9521	-2.5417	-3.5271	-2.6271	-2.8896	-3.525	-2.6083	-3.3187	-2.9542	-2.8063	-3.4688	-2.8271	-2.9458	-3.2417	-2.4479	-147.809	108.843	187.688	121.184	-71.067	-150.176	144.929	153.175	-41.493	-49.388	188.511	106.840	153.482	43.564	-153.881	80.817	0.00086632	0.0006648	0.00018489	1505	7.9524e-06	3.0496e-06	1500.9	400.7	1.023e-05	4.8721e-06	464.37	151.35	132.41	44.44	3.3934e-06	54.54	0.00074382	0.00074804	0.00021065	1533.6	8.2514e-06	8.2256e-06	1527.8	408.36	8.3276e-06	8.4176e-06	474.15	154.94	135.35	45.848	8.3105e-06	56.517	-32.835	-57.723	-53.132	-148.425	-47.441	-69.069	-148.597	-143.987	-5.168	-12.659	-144.323	-140.399	-139.380	-134.902	1.183	-135.745	-8191	255	
21012.102	1	1	0	0	0.2025	0.059061	0.14471	0.36414	0.12333	0.11713	0.36463	0.22477	0.23609	0.35942	0.24321	0.10083	0.13829	0.27909	0.41498	0.057814	-2.8958	-3.0375	-2.5896	-3.6063	-2.9208	-2.8229	-3.4542	-2.6604	-3.1562	-2.9208	-2.6417	-3.4917	-2.9979	-2.8333	-3.4188	-2.6521	-105.829	-59.666	-104.074	139.455	24.827	10.870	164.047	103.778	97.162	18.913	98.740	173.538	140.959	-27.628	137.338	160.094	0.00082942	0.00054537	3.3324e-05	1504.5	6.8796e-06	7.1151e-06	1504.6	399.81	8.2085e-06	5.627e-06	461.29	151.58	131.98	44.6	5.9635e-06	54.539	0.00075033	0.00075749	0.00021304	1534.5	8.5053e-06	8.3686e-06	1528.6	408.65	8.2561e-06	8.2472e-06	473.41	155.04	135.51	45.961	8.2301e-06	56.569	-28.423	-87.469	-81.961	-148.471	-46.713	-14.226	-148.578	-143.816	-18.585	-50.874	-144.288	-140.098	-139.552	-134.867	-7.333	-135.685	-8191	255	
21012.199	1	1	0	0	0.066349	0.12763	0.14136	0.31931	0.016949	0.25222	0.36729	0.23645	0.20597	0.047979	0.46052	0.10716	0.25959	0.4387	0.18066	0.20327	-2.525	-3.1104	-2.3458	-3.5104	-2.8021	-2.5479	-3.5604	-2.6646	-2.9083	-3.3021	-2.6479	-3.1729	-2.9542	-2.7438	-3.2292	-2.7354	-109.030	119.015	170.250	94.541	135.531	-152.745	101.481	158.820	-72.012	104.787	105.663	92.814	156.882	69.414	-149.153	-124.889	0.00090505	0.00060459	5.7032e-05	1508.4	6.0101e-06	6.3559e-06	1497.8	398.21	1.0849e-05	5.8213e-06	462.49	151.1	132.16	44.772	8.9614e-06	54.973	0.00075075	0.00076031	0.00021175	1534.7	8.1901e-06	8.2678e-06	1527.8	408.72	8.1873e-06	8.2396e-06	473.55	155.07	135.19	46.038	8.3172e-06	56.732	-28.091	-94.860	-133.981	-148.296	-83.388	1.083	-148.593	-143.930	-25.989	7.443	-144.637	-140.165	-139.594	-134.636	-17.498	-135.780	-8191	255	
21012.295	1	1	0	0	0.29206	0.043491	0.17351	0.15274	0.029147	0.10564	0.34677	0.22759	0.070481	0.11042	0.15768	0.28202	0.051017	0.27151	0.13958	0.11592	-2.5417	-3.2292	-2.5125	-3.3396	-2.8896	-2.5667	-3.5104	-2.8	-2.8333	-3.475	-2.4792	-3.1583	-3.2125	-2.5812	-3.4479	-2.9896	-91.846	161.573	123.348	172.852	-55.696	157.927	130.755	181.162	110.863	57.412	-108.877	112.063	79.499	192.356	115.042	123.914	0.00083346	0.00069476	0.00013235	1511.1	7.048e-06	6.1272e-06	1500.7	398.85	1.0721e-05	7.5676e-06	464.18	151.62	131.52	44.681	2.8877e-06	54.762	0.00074902	0.00076587	0.00021272	1537.2	8.2966e-06	8.3374e-06	1528.9	408.47	8.263e-06	8.3423e-06	473.79	155.3	135.37	45.986	8.3241e-06	56.632	-29.968	-91.364	-82.111	-148.221	13.987	-18.963	-148.449	-143.709	-3.723	16.336	-144.325	-139.805	-139.399	-134.737	-22.663	-135.511	-8191	255	
21012.365	1	1	0	0	0.12	0.087169	0.081711	0.25207	0.23826	0.21437	0.16649	0.24122	0.056313	0.15566	0.11741	0.23956	0.14348	0.29165	0.21321	0.24947	-2.525	-3.275	-2.5042	-3.4667	-3.1792	-2.5354	-3.6188	-2.8729	-2.5187	-3.35	-2.7667	-3.1854	-3.4604	-2.4625	-3.25	-3.0271	-119.603	142.408	-114.710	135.863	125.942	-106.776	161.251	185.477	112.007	-97.229	148.585	161.176	-83.990	-157.932	-131.652	154.403	0.00088564	0.00072828	0.00014553	1508.6	1.1209e-06	4.1006e-06	1498.5	399.28	1.0024e-05	6.775e-06	461.55	150.4	132.65	44.505	9.6062e-06	54.52	0.00075031	0.00074951	0.00021106	1536.5	8.218e-06	8.321e-06	1528.2	408	8.1031e-06	8.1521e-06	472.2	154.98	135.26	45.87	8.0862e-06	56.465	-22.277	-67.561	-62.219	-148.296	27.991	-21.535	-148.348	-143.625	1.704	-23.933	-144.162	-139.703	-139.358	-134.671	-7.616	-135.733	-8191	255	
21012.486	1	1	0	0	0.28376	0.13205	0.23296	0.19831	0.12838	0.064849	0.21705	0.04454	0.20336	0.039887	0.26336	0.26064	0.41721	0.086121	0.15743	0.080962	-2.1979	-3.3688	-2.3875	-3.3104	-3.2104	-2.5042	-3.575	-2.9938	-2.5146	-3.4125	-2.725	-3.0125	-3.3354	-2.5708	-3.1125	-2.9208	-143.028	3.573	100.381	106.282	165.057	68.362	197.498	17.143	175.911	4.462	90.943	128.271	173.735	-105.072	192.294	197.568	0.00087019	0.00043835	0.00016385	1506.4	4.8808e-06	3.2726e-06	1497.7	399.62	6.9866e-06	6.1728e-06	461.57	151.45	131.57	44.367	4.7498e-06	54.6	0.00075436	0.00075121	0.0002059	1532.3	8.022e-06	8.2906e-06	1526.4	407.85	8.1258e-06	8.2807e-06	473.39	154.85	135.08	45.841	8.2856e-06	56.555	-30.536	-74.464	-34.014	-148.352	-52.998	-11.814	-148.334	-143.817	-36.375	8.452	-144.272	-139.737	-139.694	-134.642	-11.962	-135.506	-8191	255	
21012.582	1	1	0	0	0.14819	0.24897	0.070498	0.28899	0.030831	0.11295	0.38813	0.098889	0.041446	0.10121	0.25798	0.42835	0.12469	0.23288	0.13721	0.068559	-2.1354	-3.2604	-2.6542	-3.0312	-3.3354	-2.4313	-3.3958	-3.2417	-2.3417	-3.3375	-2.9313	-2.8375	-3.5125	-2.6792	-3.0438	-3.1125	-29.530	-115.877	127.681	170.340	-15.284	-33.934	186.238	25.258	109.398	197.203	83.187	191.372	184.368	-58.543	32.369	130.599	0.00081147	0.00062596	0.00030837	1503.4	1.8172e-06	4.1364e-06	1502.1	400.73	7.7482e-06	2.6333e-06	460.53	151.05	131.94	44.3	4.5864e-06	54.892	0.00075363	0.00076113	0.00021148	1534.6	8.3075e-06	8.4024e-06	1528.9	408.15	8.185e-06	8.0627e-06	472.55	154.91	135.21	45.773	8.0286e-06	56.493	-28.581	-64.024	-68.863	-148.237	11.546	-15.694	-148.357	-143.706	-18.965	35.136	-144.276	-139.696	-139.404	-134.649	14.217	-135.565	-8191	255	
21012.680	1	1	0	0	0.053206	0.07716	0.25146	0.40407	0.2885	0.16681	0.50212	0.15947	0.098325	0.074465	0.10023	0.23939	0.25253	0.021529	0.19153	0.29051	-2.0833	-3.2042	-2.875	-2.8833	-3.5458	-2.8458	-3.1583	-3.4729	-2.5833	-3.3792	-2.95	-2.7833	-3.3396	-2.625	-2.9896	-3.5042	-132.865	92.746	45.083	161.550	-40.574	104.837	120.195	193.708	195.524	57.253	-148.113	84.995	-51.282	137.526	-130.253	102.351	0.00091784	0.00060344	0.00021535	1510.1	7.6992e-06	5.4011e-06	1497.4	399.42	8.624e-06	8.0191e-06	462.12	151.28	131.81	44.423	5.1242e-06	54.557	0.00074213	0.0007401	0.0002063	1534	8.2086e-06	8.3717e-06	1527.5	408.2	8.334e-06	8.388e-06	472.99	154.73	135.13	45.837	8.124e-06	56.493	-32.705	-94.532	-69.295	-148.164	-29.872	-7.840	-148.289	-143.972	-10.155	-7.645	-144.233	-139.833	-139.488	-134.733	5.403	-135.431	-8191	255	
21012.775	1	1	0	0	0.12642	0.12487	0.19983	0.24703	0.052243	0.086288	0.082413	0.23013	0.23459	0.2857	0.10599	0.14467	0.065364	0.21651	0.27124	0.19026	-1.9312	-3.2771	-2.8208	-2.7	-3.5542	-2.6937	-2.9146	-3.4771	-2.3625	-3.1917	-3.1104	-2.7042	-3.35	-2.6562	-2.8208	-3.4062	74.064	-90.828	171.300	-132.639	35.879	79.312	-32.352	167.721	196.754	89.087	76.929	104.540	-79.011	139.980	120.486	176.793	0.00087811	0.00059126	9.2813e-05	1502.4	6.2797e-06	8.6803e-06	1498.4	399.18	5.3851e-06	7.2993e-06	461.67	151.06	131.99	44.443	5.5558e-06	54.7	0.00074899	0.00074262	0.00020198	1530.1	8.0448e-06	8.0315e-06	1525.4	407.66	8.0814e-06	7.9172e-06	472.62	154.57	134.99	45.816	7.9931e-06	56.483	-29.319	-98.788	-74.983	-148.140	14.403	-36.617	-148.246	-143.634	-22.857	-24.541	-144.151	-139.804	-139.445	-134.568	-27.008	-135.521	-8191	255	
21012.895	1	1	0	0	0.25442	0.21114	0.18787	0.12155	0.3618	0.20248	0.31201	0.14046	0.38196	0.096818	0.23378	0.15481	0.14563	0.1132	0.21132	0.14181	-2.1521	-3.0563	-3.1	-2.8312	-3.2938	-2.8917	-2.8104	-3.4458	-2.4896	-2.9667	-3.3125	-2.6333	-3.3708	-3.0396	-2.6917	-3.4083	27.453	157.373	-118.903	135.076	70.622	140.288	166.617	134.028	-127.950	-72.924	143.452	185.662	185.518	-156.688	59.509	-67.808	0.00090111	0.00049411	0.00022179	1502	6.0828e-06	5.47e-06	1500.3	399	9.1838e-06	5.3103e-06	463.92	151.47	132.4	44.465	9.642e-06	54.421	0.00074242	0.00072801	0.00020395	1530.8	8.103e-06	8.1442e-06	1527	407.75	8.1318e-06	8.1393e-06	473.54	154.97	135.37	45.802	8.1325e-06	56.418	-28.108	-93.685	-84.763	-148.010	-21.942	10.839	-148.266	-143.900	-27.578	-26.050	-144.250	-139.711	-139.157	-134.513	-19.011	-135.306	-8191	255	
21012.990	1	1	0	0	0.14789	0.18061	0.086729	0.49025	0.29882	0.085133	0.028194	0.20622	0.19286	0.16197	0.38643	0.07128	0.20545	0.031479	0.12435	0.14156	-2.2479	-2.8292	-3.1562	-2.5167	-3.2229	-3	-2.8438	-3.5646	-2.5479	-3.0938	-3.4083	-2.6271	-3.375	-3.0646	-2.6667	-3.4854	147.433	-31.407	78.938	135.419	196.552	-54.726	-35.368	168.306	156.699	63.158	41.469	134.720	-143.515	-30.533	-61.805	18.271	0.00094436	0.00064247	0.00020045	1511.8	6.7249e-06	4.7445e-06	1499.6	399.08	8.1804e-06	8.3366e-06	461.89	151.45	131.93	44.345	6.0768e-06	54.704	0.00074848	0.00075525	0.00020965	1533.6	8.2523e-06	8.2869e-06	1526.6	407.68	8.3088e-06	8.3606e-06	472.36	154.64	135.26	45.855	8.2484e-06	56.559	-26.457	-50.092	-50.449	-148.221	-61.956	-34.058	-148.433	-143.843	-31.568	11.942	-144.198	-139.798	-139.097	-134.737	-28.731	-135.433	-8191	255	
21013.064	1	1	0	0	0.18999	0.16313	0.06019	0.35047	0.28096	0.35278	0.30247	0.10496	0.10277	0.11633	0.16112	0.23382	0.2752	0.03304	0.26316	0.16439	-2.3583	-2.8792	-3.2438	-2.6333	-3.325	-3.1	-2.8125	-3.575	-2.9479	-2.8937	-3.6042	-2.6292	-3.2229	-3.3021	-2.5563	-3.375	132.753	-63.563	-102.715	179.320	-135.649	137.274	114.849	134.686	153.783	-71.497	43.460	-153.248	127.311	158.000	41.014	174.432	0.00090198	0.00059042	0.00015452	1509.6	1.467e-06	3.3885e-06	1499.5	399.41	5.3214e-06	7.3187e-06	459.95	151.15	131.87	44.386	8.3753e-06	54.664	0.00074678	0.00075035	0.00020524	1532.8	8.223e-06	8.302e-06	1527.1	407.96	8.0309e-06	8.0622e-06	471.59	154.86	135.1	45.798	7.9989e-06	56.502	-27.400	-107.428	-45.733	-148.213	-72.468	-32.862	-148.298	-143.579	-18.063	-12.329	-144.147	-140.102	-139.146	-134.731	-8.796	-135.193	-8191	255	
21013.184	1	1	0	0	0.06577	0.48559	0.20985	0.27571	0.040966	0.11782	0.31498	0.13507	0.14351	0.11461	0.15902	0.20925	0.076347	0.19899	0.16345	0.18015	-2.5563	-2.7333	-3.3729	-2.6958	-3.1625	-3.2458	-2.8646	-3.4792	-2.8583	-2.7	-3.55	-2.5917	-3.0896	-3.3646	-2.6229	-3.2521	-126.851	-153.812	133.057	159.082	-49.164	66.772	76.619	180.761	131.234	-30.319	33.588	84.235	78.451	150.783	162.406	69.095	0.0008833	0.0002789	0.00022739	1504.5	6.7191e-06	5.3695e-06	1496.4	400.1	7.6414e-06	4.8904e-06	462.91	150.91	131.45	44.692	5.7964e-06	54.51	0.00074299	0.00075878	0.00020727	1533.2	8.28e-06	8.3253e-06	1526.5	408.58	8.4515e-06	8.5463e-06	473.84	154.7	135.12	45.931	8.3827e-06	56.553	-28.328	-79.501	-56.352	-148.203	3.924	-22.680	-148.255	-143.696	-14.123	5.348	-143.854	-140.061	-139.103	-134.634	-15.457	-135.444	-8191	255	
21013.279	1	1	0	0	0.10302	0.11246	0.055833	0.36454	0.066445	0.013979	0.15537	0.05535	0.042022	0.38046	0.13016	0.53973	0.25397	0.18989	0.21067	0.31933	-2.6042	-2.4979	-3.4042	-2.8396	-2.8125	-3.2792	-2.7479	-3.2062	-2.8729	-2.6437	-3.5458	-2.7354	-2.9396	-3.4229	-2.5125	-3.3125	48.651	-141.941	70.404	155.265	120.584	100.137	149.929	-144.504	-66.707	-100.500	-110.436	149.414	151.008	-60.466	-0.371	-155.474	0.00088001	0.00051728	0.0002332	1505.5	5.7702e-06	4.3762e-06	1498.7	401.39	6.6566e-06	8.1087e-06	462.71	151.47	132.14	44.391	8.4994e-06	54.616	0.00076093	0.00076582	0.00020985	1533.7	8.2472e-06	8.319e-06	1527.2	409.09	8.2571e-06	8.3405e-06	473.56	154.94	135.36	45.839	8.0387e-06	56.554	-27.883	-39.569	-99.835	-148.135	-26.220	-23.103	-148.519	-143.856	-27.476	-0.771	-144.428	-139.872	-139.540	-134.457	2.721	-135.240	-8191	255	
21013.375	1	1	0	0	0.2279	0.10475	0.14121	0.37526	0.10884	0.16812	0.23324	0.19219	0.053131	0.26197	0.27118	0.15669	0.15684	0.037227	0.17419	0.15438	-2.7583	-2.3771	-3.4396	-2.9542	-2.85	-3.3937	-2.7458	-3.2146	-3.0271	-2.4813	-3.4	-2.8229	-2.8833	-3.5396	-2.5833	-3.1458	-8.685	183.378	-153.802	155.543	-8.382	134.712	191.583	184.918	-130.889	-45.133	-123.342	117.920	186.414	-109.900	143.533	96.844	0.00089496	0.00083245	0.00016176	1507.1	4.3502e-06	5.8761e-06	1505	400.38	5.6464e-06	6.3703e-06	462.77	151.73	132.5	44.595	9.591e-06	54.777	0.00075481	0.00076754	0.00021104	1535.4	8.4027e-06	8.3974e-06	1528.8	408.91	8.5227e-06	8.8423e-06	474.41	155.33	135.71	46.02	8.771e-06	56.731	-27.717	-99.211	-65.006	-148.143	-9.063	-30.684	-148.120	-143.497	-5.680	-32.126	-144.032	-139.670	-139.206	-134.522	-13.394	-135.393	-8191	255	
21013.496	1	1	0	0	0.0837	0.29673	0.20367	0.21789	0.077051	0.16689	0.10388	0.046552	0.1208	0.1038	0.10654	0.18208	0.22571	0.19718	0.094169	0.18612	-2.7313	-2.4917	-3.2521	-3.1292	-2.7292	-3.3312	-2.8563	-3.2542	-3.1542	-2.3875	-3.4125	-3.0208	-2.7646	-3.3583	-2.7333	-3.0479	178.054	158.807	-151.019	143.676	-118.014	26.460	113.328	-0.045	122.996	-96.024	139.362	-130.418	-102.670	154.416	-71.874	121.912	0.0008977	0.00027852	0.00010837	1513.5	7.6578e-06	4.0819e-06	1509.3	399.82	5.7657e-06	4.7934e-06	463.66	151.22	132.17	44.463	8.8635e-06	54.958	0.00078736	0.00079414	0.00021949	1538.4	8.578e-06	8.4982e-06	1531.9	409.16	8.3765e-06	8.5559e-06	474.3	155.19	135.57	45.885	8.468e-06	56.661	-26.453	-69.235	-111.843	-148.161	8.148	-11.251	-148.175	-143.641	3.881	4.427	-143.741	-139.635	-139.058	-134.306	-15.428	-135.267	-8191	255	
21013.592	1	1	0	0	0.11658	0.10535	0.21002	0.5081	0.01472	0.14808	0.2098	0.11744	0.12645	0.11911	0.1501	0.18735	0.11265	0.19105	0.1008	0.16717	-2.8417	-2.5625	-3.2854	-3.1542	-2.4771	-3.3417	-2.7792	-2.9437	-3.3354	-2.5208	-3.3187	-3.1542	-2.5229	-3.575	-2.9125	-2.9146	-71.880	26.029	-101.356	169.514	113.262	7.733	145.906	172.246	-159.636	110.133	-150.235	82.287	120.298	-3.161	145.146	-152.521	0.00075607	0.00080073	0.00015566	1508.2	5.8172e-06	5.6136e-06	1505.4	399.63	8.5824e-06	8.0297e-06	463.12	150.79	131.87	44.466	6.9456e-06	54.72	0.00074406	0.00078238	0.00020781	1535.1	8.2306e-06	8.408e-06	1528.8	408.61	8.2058e-06	8.366e-06	473.22	154.85	135.39	45.841	8.1699e-06	56.53	-31.289	-65.374	-62.102	-148.367	-35.225	5.915	-148.417	-143.765	-19.377	-19.400	-144.232	-139.783	-139.246	-134.533	-32.665	-135.303	-8191	255	
21013.664	1	1	0	0	0.16321	0.27348	0.16598	0.1606	0.29629	0.23871	0.043974	0.023397	0.29399	0.0089852	0.2987	0.26061	0.048637	0.20089	0.22667	0.11235	-3.1562	-2.5938	-3.1208	-3.275	-2.5354	-3.5167	-3.1188	-2.8375	-3.4167	-2.7438	-3.1917	-3.4271	-2.7562	-3.3521	-3.0292	-2.6312	78.707	-84.924	6.976	-161.009	-64.315	136.237	45.245	-54.555	1.216	86.389	130.541	134.995	-156.568	157.732	67.320	19.802	0.00086237	0.00061381	0.0001602	1514.5	9.0544e-06	4.4581e-06	1499.2	399.89	8.5215e-06	8.5163e-06	462.75	151.74	132.52	44.552	6.0754e-06	54.543	0.00074281	0.00076192	0.00021063	1537.2	8.3139e-06	8.2831e-06	1526.8	409.03	8.1199e-06	8.3428e-06	474.13	155.13	135.5	45.933	8.2975e-06	56.506	-29.875	-68.567	-38.720	-148.239	-33.305	10.083	-148.548	-143.791	-14.774	-26.167	-144.361	-140.370	-139.609	-134.553	8.126	-135.692	-8191	255	
21013.783	1	1	0	0	0.0811	0.16965	0.13413	0.37965	0.13099	0.22581	0.10244	0.34032	0.28593	0.15184	0.12927	0.074993	0.11691	0.28175	0.25273	0.16374	-2.9833	-2.4354	-2.9208	-3.4229	-2.6042	-3.3229	-3.0312	-2.6875	-3.2604	-2.7562	-2.85	-3.5021	-2.7354	-3.2875	-2.95	-2.5563	-128.203	58.097	-36.729	167.859	-30.947	-67.088	181.964	123.317	-150.201	36.294	-150.929	20.883	-96.356	183.672	27.219	180.556	0.00093288	0.00062836	0.00020162	1508.5	5.1337e-06	5.8299e-06	1497.8	400.08	5.2852e-06	9.1487e-06	465.13	150.78	132.56	44.541	7.3108e-06	54.378	0.0007511	0.00077314	0.00021118	1534.6	8.4601e-06	8.4488e-06	1525.5	408.3	8.1994e-06	8.3783e-06	474.05	155.01	135.51	45.906	8.2743e-06	56.544	-26.821	-81.596	-66.001	-148.548	-31.091	-63.779	-148.776	-144.087	-9.956	-16.955	-144.437	-140.183	-139.910	-134.709	-21.028	-135.587	-8191	255	
21013.879	1	1	0	0	0.36485	0.17283	0.10422	0.12377	0.17292	0.21525	0.31793	0.14551	0.018586	0.18639	0.17972	0.11697	0.22291	0.068115	0.2172	0.27073	-3.1333	-2.6896	-2.8354	-3.5062	-2.6771	-3.2708	-3.2104	-2.6875	-3.3521	-2.6458	-2.8021	-3.525	-2.6521	-3.4167	-3.1813	-2.6437	-69.483	126.283	-62.307	183.365	-62.671	196.289	177.338	159.614	38.898	133.515	126.903	-143.998	-125.211	74.079	-128.125	-126.936	0.00089829	0.00031733	0.00016536	1508.3	7.0602e-06	5.0721e-06	1499.8	401.16	1.047e-05	4.6898e-06	462.58	151.42	131.76	44.481	3.2394e-06	54.791	0.00075174	0.00075507	0.00021314	1535.4	8.4036e-06	8.3852e-06	1527.1	409.14	8.2334e-06	8.3624e-06	473.87	154.98	135.39	45.902	8.2122e-06	56.556	-29.286	-40.449	-52.750	-148.693	-17.139	-7.650	-148.831	-143.891	-14.661	12.205	-144.485	-140.145	-139.926	-134.937	24.482	-135.862	-8191	255	
21013.975	1	1	0	0	0.16275	0.3311	0.052273	0.29333	0.30506	0.23548	0.3177	0.30939	0.24139	0.19814	0.16853	0.09804	0.16864	0.28661	0.22996	0.069569	-3.1188	-2.9	-2.6562	-3.6937	-2.5917	-3.2708	-3.5563	-2.7542	-3.3375	-2.8812	-2.6458	-3.4646	-2.7604	-2.9604	-3.2938	-2.675	136.558	117.943	4.325	81.468	131.069	96.503	149.550	-146.791	-123.390	141.255	180.781	-15.942	-135.771	153.005	138.661	58.143	0.00090334	0.00046862	0.00019071	1502.1	3.9788e-06	2.2906e-06	1496.7	398.75	7.7522e-06	3.3332e-06	461.92	151.45	131.76	44.481	8.3809e-06	54.431	0.00075172	0.0007426	0.00020572	1530.8	8.0876e-06	8.0945e-06	1521.9	407.9	7.9044e-06	8.0742e-06	472.1	154.67	134.96	45.801	7.9574e-06	56.395	-27.710	-69.847	-107.093	-148.573	-29.465	-50.131	-148.794	-144.088	8.514	-24.502	-144.453	-140.064	-139.748	-134.883	-37.948	-135.639	-8191	255	
21014.070	1	1	0	0	0.12433	0.05885	0.1772	0.081213	0.13362	0.17115	0.41873	0.024	0.24848	0.12541	0.14376	0.26303	0.34903	0.2101	0.19579	0.058467	-2.8354	-3.0021	-2.5542	-3.6646	-2.5875	-3.0062	-3.6479	-2.6083	-3.1708	-3.1208	-2.7479	-3.5917	-2.8917	-2.8917	-3.4708	-2.4979	153.328	-46.629	-78.662	-130.370	-48.073	183.424	165.179	11.658	68.399	171.838	100.988	-95.869	92.014	196.792	157.041	-16.163	0.00087755	0.00083111	0.00022583	1500	1.0068e-05	4.9726e-06	1496.3	397.89	6.7057e-06	6.6489e-06	461.85	150.84	131.86	44.346	2.8527e-06	54.532	0.00073096	0.00073431	0.00020532	1529.8	8.0412e-06	8.0868e-06	1520.8	407.06	7.7592e-06	8.0986e-06	472.73	154.58	135.09	45.82	7.8696e-06	56.407	-29.131	-98.705	-61.789	-148.507	-26.197	6.986	-148.725	-144.096	-25.188	-20.175	-144.462	-140.255	-139.660	-134.730	-4.425	-136.079	-8191	255	
21014.191	1	1	0	0	0.033278	0.19793	0.16764	0.37865	0.20935	0.28971	0.1761	0.17834	0.035011	0.18261	0.06953	0.19211	0.088257	0.19393	0.18628	0.46226	-2.8771	-2.9896	-2.5417	-3.4896	-2.6875	-2.7917	-3.5125	-2.5729	-3.1354	-3.1688	-2.6063	-3.3479	-2.9229	-2.8042	-3.4229	-2.5667	-44.890	-140.649	-93.650	160.624	158.095	-100.912	180.762	180.985	-112.059	45.301	-159.320	97.875	103.785	173.195	-128.255	138.687	0.00089601	0.00064181	0.00018512	1506.1	2.8785e-06	4.8465e-06	1493.4	396.24	7.3162e-06	8.8408e-07	460.72	150.88	131.54	44.396	4.5972e-06	54.614	0.00073267	0.00073456	0.00020425	1531.7	7.9241e-06	8.0516e-06	1521.4	407.17	8.0221e-06	8.0206e-06	472.08	154.52	135.05	45.762	7.8367e-06	56.379	-27.019	-82.204	-59.904	-148.540	22.842	-13.150	-148.649	-144.267	-2.904	154.429	-144.448	-140.092	-139.388	-134.892	-13.719	-135.694	-8191	255	
21014.264	1	1	0	0	0.32571	0.23633	0.025199	0.16185	0.21067	0.45646	0.37746	0.090919	0.14621	0.15648	0.19265	0.11879	0.37851	0.08767	0.23061	0.31231	-2.525	-3.1896	-2.4146	-3.5458	-2.7604	-2.6937	-3.6854	-2.775	-3.1625	-3.4417	-2.6521	-3.3146	-3.3312	-2.6437	-3.3458	-2.7667	-14.301	144.620	141.803	118.426	-156.135	153.822	118.595	56.458	121.566	138.279	188.653	35.189	157.779	-13.485	-161.077	146.552	0.00088633	0.00057246	0.00022504	1499.6	6.2489e-06	5.5546e-06	1492.4	397.01	8.4136e-06	4.9734e-06	463.32	150.65	131.46	44.437	9.6204e-06	54.46	0.00072232	0.00073521	0.00020229	1529.8	7.9319e-06	7.9926e-06	1521.2	407.16	7.93e-06	8.0454e-06	471.99	154.45	134.78	45.754	7.8518e-06	56.366	-25.503	-98.305	-77.430	-148.509	-9.679	4.715	-148.689	-144.010	-10.290	-37.978	-144.541	-139.969	-139.419	-134.938	-20.266	-135.533	-8191	255	
21014.359	1	1	0	0	0.22164	0.24142	0.23297	0.27803	0.25013	0.23209	0.13222	0.35327	0.056627	0.080867	0.16198	0.18881	0.20776	0.33766	0.15065	0.2025	-2.5521	-3.3125	-2.4396	-3.3708	-3.1333	-2.6208	-3.5833	-2.9313	-2.8042	-3.3125	-2.4521	-3.1208	-3.2375	-2.4771	-3.3771	-2.7771	-63.471	-142.476	-34.856	114.365	95.669	-120.595	160.585	142.839	-5.514	-99.662	130.914	66.207	159.816	94.345	94.719	-133.110	0.00085145	0.00034165	5.3987e-05	1502	7.2006e-06	4.7257e-06	1491	397.72	6.5141e-06	6.9324e-06	460.08	151.2	131.49	44.245	3.8742e-06	54.575	0.00072672	0.0007352	0.00020269	1529.5	7.9118e-06	8.1154e-06	1518.7	407.18	7.7824e-06	7.9141e-06	471.62	154.56	134.73	45.743	7.9971e-06	56.325	-29.017	-47.627	-1.145	-148.316	-3.112	12.073	-148.515	-143.872	-22.828	-6.576	-144.395	-139.998	-139.670	-134.855	-22.693	-135.862	-8191	255	
21014.455	1	1	0	0	0.30664	0.075937	0.39743	0.21898	0.24235	0.17775	0.089604	0.11766	0.080598	0.18606	0.17932	0.29987	0.27832	0.27268	0.10521	0.054817	-2.2625	-3.3104	-2.4604	-3.2667	-3.125	-2.5771	-3.5792	-2.8646	-2.8458	-3.6229	-2.8167	-3.0062	-3.3729	-2.5417	-3.3792	-2.975	139.985	90.377	-118.551	114.553	-127.864	124.155	-120.604	169.187	164.890	-53.379	98.521	82.117	-145.101	136.971	65.426	100.203	0.0008838	0.00053558	0.00020834	1499.6	4.7677e-06	3.5312e-06	1493.1	397.79	8.07e-06	2.2666e-06	460.46	150.36	132.09	44.229	5.4856e-06	54.805	0.00073316	0.00072667	0.00020496	1527.3	7.9468e-06	8.0388e-06	1521.3	407.48	8.1104e-06	7.9791e-06	471.67	154.54	135.01	45.781	8.1296e-06	56.479	-27.765	-94.252	-71.820	-148.594	-23.972	-28.564	-148.476	-143.836	-25.310	-37.401	-144.365	-140.029	-139.436	-134.689	2.134	-135.681	-8191	255	
21014.576	1	1	0	0	0.055611	0.071932	0.21287	0.18854	0.1208	0.20498	0.032249	0.19777	0.1726	0.18475	0.32518	0.18557	0.11334	0.35542	0.31215	0.319	-2.2438	-3.3937	-2.5563	-3.1833	-3.3125	-2.5667	-3.4375	-2.925	-2.6854	-3.4375	-2.6083	-3.0854	-3.4479	-2.5438	-3.1437	-3.0563	60.331	53.422	161.315	-144.935	-12.229	54.710	59.418	131.324	178.178	-11.765	65.707	73.541	193.513	187.749	129.102	43.349	0.00088691	0.00048093	0.00017503	1499.4	8.0577e-06	6.9028e-06	1497.3	399.36	1.0022e-05	7.9253e-06	462.18	150.41	131.97	44.389	1.004e-05	54.45	0.00073527	0.00073843	0.00021039	1529.3	8.0479e-06	8.0924e-06	1523.5	407.67	8.0649e-06	8.1755e-06	471.9	154.44	135.14	45.813	8.092e-06	56.398	-33.757	-102.105	-90.348	-148.333	4.816	9.308	-148.603	-144.017	-15.101	-9.994	-144.471	-140.069	-139.461	-134.676	11.172	-135.580	-8191	255	
21014.672	1	1	0	0	0.1825	0.16799	0.075107	0.20721	0.16405	0.060784	0.24637	0.090461	0.11662	0.043808	0.29648	0.17293	0.15124	0.13949	0.28002	0.16721	-2.1292	-3.2771	-2.625	-3.0833	-3.3833	-2.6854	-3.2833	-3.3958	-2.6	-3.3271	-2.9333	-2.8063	-3.3979	-2.6937	-3.0521	-3.3083	65.867	176.277	45.304	181.562	162.238	144.650	130.373	161.200	-152.382	-136.280	165.913	177.123	126.266	195.592	17.415	-133.096	0.00086228	0.00015828	0.000134	1503	1.1374e-05	4.9919e-06	1500.9	397.86	5.8525e-06	5.2762e-06	461.74	150.89	132.15	44.391	9.6747e-06	54.498	0.00073719	0.00074113	0.00020718	1530.7	8.0639e-06	8.133e-06	1524	407.27	8.0359e-06	7.9941e-06	472.15	154.82	135.06	45.787	8.0213e-06	56.397	-27.268	-31.507	-85.334	-148.461	-12.824	-17.134	-148.837	-144.188	-2.339	-0.981	-144.542	-140.084	-139.725	-134.984	-19.310	-135.766	-8191	255	
21014.768	1	1	0	0	0.18768	0.23051	0.086435	0.17292	0.053531	0.047801	0.085265	0.18253	0.063103	0.32715	0.19222	0.27468	0.079077	0.21112	0.060108	0.27075	-1.9958	-3.3438	-2.9562	-3	-3.5125	-2.6875	-3.4	-3.3104	-2.5021	-3.3833	-3.1104	-2.7646	-3.475	-2.6792	-2.8104	-3.4208	164.924	62.764	-125.829	187.255	59.169	-18.452	70.109	113.412	40.731	182.503	-134.219	87.626	116.778	32.750	-27.678	167.166	0.00084621	0.00048736	0.00015988	1505.7	7.5005e-06	5.6258e-06	1499.5	399.88	5.8468e-06	6.8683e-06	461.47	151.13	131.84	44.39	6.9052e-06	54.663	0.00075034	0.00073905	0.00020723	1530.6	8.1077e-06	8.3043e-06	1524.4	407.79	8.1676e-06	8.2459e-06	472.45	154.73	134.98	45.762	8.2998e-06	56.446	-29.286	-113.740	-59.313	-148.431	-22.224	1.829	-148.681	-144.107	4.656	16.242	-144.570	-139.983	-139.710	-134.984	-17.189	-135.643	-8191	255	
21014.865	1	1	0	0	0.040481	0.055913	0.10046	0.43638	0.11976	0.19433	0.1144	0.17078	0.18129	0.048623	0.18752	0.24198	0.14694	0.17058	0.22475	0.13154	-2.1896	-3.2375	-2.8417	-2.8667	-3.2729	-2.6583	-3.0958	-3.575	-2.3792	-3.1458	-3.4729	-2.8063	-3.5021	-2.8292	-2.6625	-3.3417	51.896	-0.227	-29.633	141.943	159.985	-143.251	151.867	9.448	41.309	161.715	177.468	94.505	140.639	118.852	-20.886	30.293	0.00080289	0.00066375	0.00014623	1507.4	2.9097e-06	5.0266e-06	1497.9	400.45	7.9602e-06	6.4431e-06	462.52	150.19	131.93	44.491	2.1599e-06	54.682	0.00074599	0.00075639	0.0002096	1533.3	8.3008e-06	8.4393e-06	1523.6	407.71	8.1472e-06	8.2909e-06	472.52	154.42	135.04	45.8	8.3667e-06	56.442	-28.569	-98.818	-29.111	-148.417	-22.253	-15.899	-148.535	-143.944	-23.071	-16.754	-144.384	-140.132	-139.239	-135.011	-31.401	-135.790	-8191	255	
21014.961	1	1	0	0	0.13679	0.14346	0.07448	0.4249	0.20818	0.046271	0.19364	0.24027	0.18176	0.10967	0.39067	0.30671	0.18314	0.14444	0.28225	0.17538	-2.2354	-2.9875	-3.0854	-2.8271	-3.375	-2.7062	-3.0354	-3.2875	-2.6312	-3.1354	-3.3187	-2.6813	-3.4646	-2.95	-2.7125	-3.5396	-90.791	122.704	95.588	158.097	-13.233	153.892	88.826	133.453	115.952	-157.688	170.452	117.590	168.484	162.991	124.061	177.664	0.00083976	0.00062221	0.00017115	1506.2	5.8965e-06	3.7992e-06	1494.1	398.57	1.1416e-05	7.4953e-06	461.75	151.17	132.48	44.312	9.6617e-06	54.61	0.00075446	0.00075791	0.00020768	1532.9	8.4195e-06	8.3445e-06	1522.7	407.92	8.2955e-06	8.352e-06	472.48	154.68	135.41	45.805	8.2704e-06	56.55	-30.797	-97.131	-74.650	-148.399	-11.616	-19.379	-148.579	-144.035	-1.824	3.353	-144.475	-140.110	-139.505	-134.755	-6.169	-135.600	-8191	255	
21015.057	1	1	0	0	0.083548	0.040024	0.32414	0.5435	0.1979	0.061679	0.37928	0.27425	0.08913	0.19138	0.17299	0.14585	0.15964	0.16463	0.16275	0.13393	-2.1562	-2.9396	-3.3375	-2.7229	-3.3958	-2.9479	-2.825	-3.6437	-2.5625	-2.7938	-3.475	-2.575	-3.3667	-3.125	-2.5583	-3.6396	91.130	-69.198	191.189	137.477	174.537	70.308	165.116	-158.002	189.605	91.633	178.343	-7.956	-154.777	-114.638	-11.437	41.086	0.00093658	0.00067449	0.00026363	1506.8	7.1185e-06	4.2502e-06	1500.9	399.24	9.4519e-06	5.8345e-06	461.74	150.5	131.41	44.337	5.7227e-06	54.449	0.00076262	0.00076231	0.00021102	1532.8	8.1664e-06	8.2818e-06	1524.8	408.07	8.1821e-06	8.1681e-06	472.61	154.53	135.04	45.768	8.1942e-06	56.495	-33.819	-94.846	-107.533	-148.180	-26.333	19.177	-148.276	-143.918	-34.387	-11.796	-144.352	-139.941	-139.741	-134.888	-31.686	-135.797	-8191	255	
21015.176	1	1	0	0	0.18139	0.12218	0.34468	0.36723	0.19994	0.1184	0.29277	0.34896	0.12225	0.25588	0.03321	0.14003	0.12151	0.20112	0.1534	0.15334	-2.3042	-2.7271	-3.3312	-2.7542	-3.1188	-3.0812	-2.9375	-3.5187	-2.7458	-2.7812	-3.4792	-2.5625	-3.1437	-3.1396	-2.375	-3.3896	74.420	-0.783	-12.881	177.951	56.604	-55.250	173.356	-154.401	141.654	94.680	126.814	-84.484	186.868	165.273	-70.287	-141.639	0.00085289	0.0004034	0.00014422	1505.2	4.0054e-06	5.4861e-06	1497	399.31	1.0853e-05	5.8043e-06	462.21	151.22	132.45	44.509	7.9058e-06	54.453	0.00075547	0.00076661	0.00020993	1532.7	8.2732e-06	8.2939e-06	1526.1	407.94	8.3248e-06	8.4721e-06	472.98	154.78	135.35	45.867	8.342e-06	56.412	-32.150	-86.250	-73.748	-148.672	-61.949	-3.920	-148.486	-144.088	-10.524	-11.119	-144.380	-140.018	-139.484	-134.533	-6.345	-135.572	-8191	255	
21015.271	1	1	0	0	0.19221	0.10109	0.11347	0.28647	0.24758	0.12278	0.22575	0.084075	0.085787	0.11769	0.11831	0.13575	0.39258	0.14023	0.22564	0.17061	-2.5958	-2.7708	-3.4125	-2.7854	-3.0208	-3.2146	-2.7062	-3.3875	-2.8542	-2.7	-3.4562	-2.5333	-3.0938	-3.2979	-2.475	-3.5125	37.741	161.983	158.657	180.941	50.132	88.030	184.376	128.751	122.384	174.313	154.670	137.562	196.508	195.952	195.975	-22.508	0.00088255	0.00047118	0.00011579	1501.9	5.7574e-06	1.7991e-06	1499.7	399.73	7.9116e-06	7.8345e-06	460.93	150.99	132.09	44.401	5.9377e-06	54.442	0.00074787	0.00076339	0.00020638	1532.3	8.1859e-06	8.1274e-06	1525.5	408.29	8.2085e-06	8.3158e-06	472.31	154.8	135.2	45.813	8.2887e-06	56.388	-29.709	-63.107	-41.921	-148.436	-14.900	3.494	-148.496	-143.950	-3.956	18.858	-144.274	-140.043	-139.430	-134.817	-29.444	-135.586	-8191	255	
21015.367	1	1	0	0	0.17075	0.022134	0.39529	0.22036	0.1214	0.1378	0.46535	0.29568	0.14909	0.21602	0.1421	0.062133	0.35086	0.18245	0.17359	0.14347	-2.5875	-2.6063	-3.3396	-2.7188	-3.0438	-3.3063	-2.8375	-3.3708	-2.9729	-2.7	-3.3875	-2.8937	-3.05	-3.325	-2.4292	-3.4646	87.109	-120.403	116.482	180.521	11.213	-147.724	158.934	160.782	-32.279	26.080	190.399	85.405	-93.001	-152.548	146.267	-80.490	0.00077827	0.00043685	0.00011852	1502	9.1273e-06	2.5485e-06	1500.4	399.02	9.0401e-06	3.2567e-06	462.73	150.61	132.09	44.339	3.0126e-06	54.603	0.00075327	0.0007574	0.00020838	1530.6	8.2964e-06	8.1442e-06	1525	408.37	8.1177e-06	8.3556e-06	472.85	154.68	135.32	45.835	8.2324e-06	56.564	-33.753	-84.611	-103.050	-148.183	-20.120	16.935	-148.470	-143.826	-18.415	-4.205	-144.229	-140.020	-139.400	-134.568	-22.075	-135.543	-8191	255	
21015.465	1	1	0	0	0.080226	0.06951	0.13486	0.37771	0.25088	0.087097	0.12972	0.17091	0.14543	0.04725	0.059847	0.15505	0.17984	0.29319	0.25004	0.14707	-2.5833	-2.6312	-3.1437	-2.9917	-2.6708	-3.3937	-2.8104	-3.3792	-3.225	-2.3771	-3.4042	-2.9854	-2.75	-3.3167	-2.5771	-3.0854	-42.378	156.692	-37.353	154.279	-154.897	166.180	162.834	-156.731	110.668	-103.287	125.949	109.633	-109.432	139.967	141.737	95.252	0.000918	0.00059452	0.0002337	1507.7	4.4451e-06	4.7317e-06	1501.1	400.13	6.4343e-06	5.9786e-06	461.95	151.01	131.95	44.234	2.247e-06	54.709	0.00075137	0.00076809	0.00020835	1532.1	8.3021e-06	8.3228e-06	1525.9	408.48	8.2939e-06	8.401e-06	473.43	154.69	135.39	45.692	8.1981e-06	56.509	-26.857	-93.351	-78.071	-148.337	-14.725	8.839	-148.671	-144.073	-32.599	-20.833	-144.225	-139.929	-139.665	-134.713	-12.724	-135.728	-8191	255	
21015.561	1	1	0	0	0.084395	0.12801	0.13527	0.33443	0.24909	0.14104	0.16981	0.080956	0.12217	0.048377	0.098129	0.12974	0.14905	0.054722	0.064858	0.058062	-2.9021	-2.6312	-3.3583	-3.0667	-2.5917	-3.25	-2.6771	-3.0062	-3.0479	-2.6333	-3.3875	-3.0354	-2.7271	-3.5604	-2.7313	-3.0375	-68.136	115.004	143.457	163.632	39.086	5.609	133.698	-97.756	119.940	117.927	-135.347	150.021	142.594	176.081	49.120	124.697	0.00087169	0.0004315	0.00020091	1504.3	5.2337e-06	8.3489e-06	1495.7	399.95	4.8886e-06	6.5966e-06	462.33	150.43	132.37	44.37	5.1959e-06	54.632	0.0007535	0.00076324	0.00021175	1531.5	8.2921e-06	8.236e-06	1524.7	408.62	8.005e-06	8.2846e-06	472.92	154.38	135.28	45.911	8.1944e-06	56.508	-32.333	-95.613	-56.059	-148.350	-51.259	-15.147	-148.726	-143.940	6.450	-26.162	-144.437	-140.121	-139.375	-135.022	-31.595	-135.575	-8191	255	
21015.656	1	1	0	0	0.16648	0.14873	0.25103	0.16168	0.2539	0.051717	0.24513	0.15252	0.13203	0.11298	0.18801	0.021669	0.28049	0.053416	0.2198	0.11498	-2.8125	-2.525	-3.2521	-3.1875	-2.5812	-3.1729	-2.8521	-3.0417	-3.5104	-2.6729	-3.3708	-3.1437	-2.4917	-3.4125	-2.675	-2.7208	-45.824	27.633	-45.105	-137.995	191.494	-132.272	117.289	-124.575	39.818	46.410	177.247	-112.930	-60.363	61.904	-109.075	-155.405	0.00086546	0.0008717	0.00023615	1499.3	4.2128e-06	4.3498e-06	1498.2	399.59	4.4602e-06	7.082e-06	461.86	151.2	132.13	44.539	9.2984e-06	54.738	0.00074151	0.00075821	0.00020721	1529.3	8.1681e-06	8.1682e-06	1524.3	408.06	8.1431e-06	8.3412e-06	473.18	154.67	135.1	45.835	8.2973e-06	56.483	-30.790	-94.407	-50.197	-148.299	-24.670	-10.944	-148.535	-143.692	-11.246	-43.338	-144.312	-140.108	-139.701	-134.731	-33.694	-135.672	-8191	255	
21015.754	1	1	0	0	0.081577	0.10991	0.044757	0.071573	0.081371	0.2002	0.40516	0.092984	0.042261	0.17327	0.067662	0.12442	0.057146	0.31811	0.022697	0.037046	-3.1458	-2.4979	-3.1271	-3.2792	-2.3375	-3.3604	-3.1979	-2.6375	-3.3229	-2.5542	-3.0542	-3.4813	-2.6604	-3.2833	-2.9417	-2.8354	42.221	122.818	192.299	100.007	56.868	139.197	120.730	11.900	131.885	72.703	183.521	163.968	69.214	117.594	3.959	37.192	0.0008649	0.00056024	0.00011522	1507.4	4.2444e-06	4.5474e-06	1493.5	398.63	1.0732e-05	6.6737e-06	462.44	151.57	131.57	44.317	6.5038e-06	54.547	0.00074112	0.00074453	0.0002071	1533.3	8.2289e-06	8.3537e-06	1522.7	408.07	8.1885e-06	8.3684e-06	473.46	154.77	135.03	45.837	8.1003e-06	56.51	-29.768	-77.281	-10.017	-148.299	10.636	-21.798	-148.626	-143.904	-11.431	-1.073	-144.191	-140.121	-139.407	-134.653	-13.984	-135.634	-8191	255	
21015.873	1	1	0	0	0.026742	0.12698	0.059383	0.38669	0.21336	0.21427	0.061338	0.085785	0.11463	0.18822	0.24556	0.15811	0.14671	0.15024	0.19259	0.032394	-2.8521	-2.4146	-2.9792	-3.3333	-2.4917	-3.2958	-3.1937	-2.7042	-3.4708	-2.6833	-3.1792	-3.3667	-2.5292	-3.2229	-2.925	-2.5021	-19.821	-96.369	38.454	148.245	-100.914	-25.246	162.625	158.599	-154.943	6.555	101.184	142.506	44.942	176.478	-136.047	-82.197	0.00098064	0.00065487	8.0229e-05	1504.1	3.1331e-06	4.1424e-06	1499.8	399.09	1.1738e-05	3.3625e-06	462.44	150.61	132.1	44.491	7.352e-06	54.305	0.00074347	0.00074551	0.00020676	1531.3	8.1352e-06	8.1077e-06	1524.3	407.67	8.0736e-06	8.1184e-06	472.61	154.63	135.15	45.817	8.3452e-06	56.409	-30.021	-79.072	-73.255	-148.408	-27.835	-40.932	-148.730	-144.041	-33.555	-16.043	-144.401	-140.161	-139.620	-134.626	-21.501	-135.722	-8191	255	
21015.969	1	1	0	0	0.058358	0.18586	0.27297	0.2373	0.1048	0.070158	0.3244	0.21858	0.1244	0.11316	0.31409	0.10852	0.27419	0.28254	0.12881	0.099039	-3.1208	-2.75	-2.6417	-3.4938	-2.35	-3.1229	-3.4125	-2.6521	-3.3396	-2.8625	-2.8521	-3.475	-2.425	-3.2667	-3.2	-2.4958	-68.269	13.176	26.930	-142.843	183.016	-13.699	158.519	-156.447	-10.184	-58.727	-155.061	163.285	132.622	194.108	-125.744	6.793	0.00088705	0.00030913	0.00020106	1502.4	3.5536e-06	6.2784e-06	1495	398.9	1.0224e-05	4.5987e-06	461.67	150.79	131.99	44.346	5.9246e-06	54.741	0.00074034	0.00075486	0.00020373	1531.3	8.1906e-06	8.2781e-06	1523.2	407.83	8.147e-06	8.1701e-06	472.56	154.65	135	45.842	8.0945e-06	56.528	-31.466	-78.609	-43.948	-148.436	-30.678	-39.874	-148.545	-144.092	-7.326	-2.917	-144.180	-139.981	-139.743	-134.798	-9.818	-135.855	-8191	255	
21016.064	1	1	0	0	0.083746	0.14296	0.10997	0.21481	0.055298	0.03579	0.17213	0.22764	0.096571	0.095238	0.17592	0.1634	0.17816	0.14982	0.21729	0.28566	-3.0375	-2.7875	-2.6125	-3.6167	-2.5917	-2.9458	-3.1646	-2.4729	-3.2438	-2.9604	-2.7396	-3.4771	-2.5896	-3.0938	-3.1042	-2.525	-17.185	164.591	135.819	192.640	-19.666	138.932	161.332	142.551	113.224	127.820	172.860	-93.953	-126.899	51.858	-54.104	87.512	0.00089248	0.00048047	0.00012187	1502.4	1.175e-05	4.8029e-06	1500.8	398.28	5.9626e-06	4.8862e-06	460.79	151.64	131.26	44.436	8.5979e-06	54.433	0.00075202	0.00074582	0.00020874	1529.9	8.3046e-06	8.1001e-06	1525	407.46	8.1807e-06	8.1611e-06	473.11	154.68	134.99	45.827	8.2204e-06	56.433	-34.616	-81.401	-113.281	-148.584	-24.449	-20.600	-148.722	-144.025	8.059	-5.020	-144.427	-139.909	-139.655	-134.787	-9.418	-135.745	-8191	255	
21016.160	1	1	0	0	0.16312	0.13271	0.23211	0.063961	0.16755	0.24367	0.18442	0.23444	0.16039	0.17849	0.10457	0.10124	0.076568	0.16853	0.11043	0.21645	-2.7354	-2.9208	-2.5854	-3.4521	-2.6771	-2.8708	-3.55	-2.8167	-3.1813	-3.1937	-2.6125	-3.4125	-2.7604	-3.0417	-3.3417	-2.5687	-0.949	-115.793	-118.639	122.935	107.027	-75.481	-157.840	73.877	94.037	36.637	153.877	196.811	104.650	-75.686	-124.142	121.900	0.00087391	0.00038986	0.00010381	1499.2	5.9313e-06	4.7488e-06	1489.8	397.86	9.6774e-06	6.2443e-06	459.97	151.15	132.1	44.627	4.4851e-06	54.595	0.00074156	0.00074714	0.0002071	1529.8	8.3039e-06	8.0507e-06	1522.5	408.01	8.1251e-06	8.0272e-06	472.85	154.79	135.17	45.917	8.0082e-06	56.478	-24.305	-102.240	-29.269	-148.588	-44.563	2.139	-148.657	-144.121	-24.683	-14.204	-144.708	-139.987	-139.680	-134.885	29.094	-135.815	-8191	255	
21016.256	1	1	0	0	0.085464	0.16197	0.10659	0.23699	0.11358	0.08773	0.28906	0.18249	0.11309	0.12045	0.2734	0.18057	0.21419	0.04543	0.20492	0.053647	-2.7875	-3.1375	-2.3833	-3.5667	-2.7521	-2.6292	-3.6458	-2.6729	-3.0583	-3.2271	-2.5396	-3.3604	-3.0104	-2.75	-3.4417	-2.5771	110.641	164.419	51.975	188.204	-53.901	-49.350	120.719	156.408	112.374	153.362	165.165	-129.451	155.081	47.715	-116.771	-80.617	0.00084656	0.00037838	0.00015877	1503.5	4.63e-06	2.672e-06	1497.7	399.31	6.0552e-06	3.0048e-06	461.1	150.69	131.96	44.512	3.0852e-06	54.484	0.00074061	0.0007314	0.00020393	1531.2	8.0583e-06	8.0532e-06	1521.9	407.92	7.9899e-06	7.9298e-06	472.48	154.46	134.98	45.911	8.1191e-06	56.458	-32.912	-72.437	-74.474	-148.583	-0.808	42.938	-148.710	-144.149	-16.149	19.301	-144.346	-140.305	-139.780	-134.893	-16.000	-135.777	-8191	255	
#DATA ENDS
