BOXY.EXE: ISS Imagent and Oximeter Data Acquisition Program Version 0.80
Ascii Record File

#ACQ INFORMATION
2  Detector Channels 
16  External MUX Channels 
1  Auxiliary Channels 
5000  Waveform (CCF) Frequency (Hz)
1  Waveforms Skipped 
30  Waveforms Averaged 
1  Cycles Averaged 
16  Acquisitions per Waveform 
10.0806  Updata Rate (Hz) 

#FILE INFORMATION
TRUE -- External MUX Channel results are PARSED.
FALSE -- AC DC and Phase are NOT grouped.
TRUE -- Companion Program Settings File CREATED.
FALSE -- AC data not excluded
FALSE -- DC data not excluded
FALSE -- Phase data not excluded
FALSE -- Auxillary Chn. data not excluded
Tab delimiters

#CALIBRATION STATE
TRUE -- Waveform Calibration Values APPLIED.


#AUX CALIBRATION VALUES
Val Type	aux-1	

Term	1.0000e+00	
Factor	0.0000e+00	


#WF CALIBRATION VALUES
A = Detector Channel
Val Type	A-AC1	A-AC2	A-AC3	A-AC4	A-AC5	A-AC6	A-AC7	A-AC8	A-AC9	A-AC10	A-AC11	A-AC12	A-AC13	A-AC14	A-AC15	A-AC16	A-DC1	A-DC2	A-DC3	A-DC4	A-DC5	A-DC6	A-DC7	A-DC8	A-DC9	A-DC10	A-DC11	A-DC12	A-DC13	A-DC14	A-DC15	A-DC16	A-Ph1	A-Ph2	A-Ph3	A-Ph4	A-Ph5	A-Ph6	A-Ph7	A-Ph8	A-Ph9	A-Ph10	A-Ph11	A-Ph12	A-Ph13	A-Ph14	A-Ph15	A-Ph16	

Term	0.00000e+00	0.00000e+00	0.00000e+00	0.00000e+00	0.00000e+00	0.00000e+00	0.00000e+00	0.00000e+00	0.00000e+00	0.00000e+00	0.00000e+00	0.00000e+00	0.00000e+00	0.00000e+00	0.00000e+00	0.00000e+00	0.00000e+00	0.00000e+00	0.00000e+00	0.00000e+00	0.00000e+00	0.00000e+00	0.00000e+00	0.00000e+00	0.00000e+00	0.00000e+00	0.00000e+00	0.00000e+00	0.00000e+00	0.00000e+00	0.00000e+00	0.00000e+00	0.00000e+00	0.00000e+00	0.00000e+00	0.00000e+00	0.00000e+00	0.00000e+00	0.00000e+00	0.00000e+00	0.00000e+00	0.00000e+00	0.00000e+00	0.00000e+00	0.00000e+00	0.00000e+00	0.00000e+00	0.00000e+00	
Factor	1.00000e+00	1.00000e+00	1.00000e+00	1.00000e+00	1.00000e+00	1.00000e+00	1.00000e+00	1.00000e+00	1.00000e+00	1.00000e+00	1.00000e+00	1.00000e+00	1.00000e+00	1.00000e+00	1.00000e+00	1.00000e+00	1.00000e+00	1.00000e+00	1.00000e+00	1.00000e+00	1.00000e+00	1.00000e+00	1.00000e+00	1.00000e+00	1.00000e+00	1.00000e+00	1.00000e+00	1.00000e+00	1.00000e+00	1.00000e+00	1.00000e+00	1.00000e+00	X	X	X	X	X	X	X	X	X	X	X	X	X	X	X	X	

B = Detector Channel
Val Type	B-AC1	B-AC2	B-AC3	B-AC4	B-AC5	B-AC6	B-AC7	B-AC8	B-AC9	B-AC10	B-AC11	B-AC12	B-AC13	B-AC14	B-AC15	B-AC16	B-DC1	B-DC2	B-DC3	B-DC4	B-DC5	B-DC6	B-DC7	B-DC8	B-DC9	B-DC10	B-DC11	B-DC12	B-DC13	B-DC14	B-DC15	B-DC16	B-Ph1	B-Ph2	B-Ph3	B-Ph4	B-Ph5	B-Ph6	B-Ph7	B-Ph8	B-Ph9	B-Ph10	B-Ph11	B-Ph12	B-Ph13	B-Ph14	B-Ph15	B-Ph16	

Term	0.00000e+00	0.00000e+00	0.00000e+00	0.00000e+00	0.00000e+00	0.00000e+00	0.00000e+00	0.00000e+00	0.00000e+00	0.00000e+00	0.00000e+00	0.00000e+00	0.00000e+00	0.00000e+00	0.00000e+00	0.00000e+00	0.00000e+00	0.00000e+00	0.00000e+00	0.00000e+00	0.00000e+00	0.00000e+00	0.00000e+00	0.00000e+00	0.00000e+00	0.00000e+00	0.00000e+00	0.00000e+00	0.00000e+00	0.00000e+00	0.00000e+00	0.00000e+00	-1.07200e+00	-1.36101e+02	-1.26972e+02	-1.81145e+02	-5.74851e+01	-6.50972e+01	-1.58196e+02	-1.62015e+02	-4.24239e+01	-6.52151e+01	-1.70310e+02	-1.70117e+02	-1.81676e+02	-1.76501e+02	-5.94616e+01	-1.49355e+02	
Factor	3.59234e-05	1.59826e-04	4.90676e-05	1.61587e-01	1.97099e-06	1.44992e-06	1.72205e-01	5.96698e-02	2.11306e-06	1.83272e-06	9.39561e-02	3.22471e-02	2.84731e-02	9.54445e-03	1.94426e-06	1.34256e-02	6.52020e-06	7.84418e-06	2.17318e-06	8.29810e-02	8.31184e-08	8.62690e-08	8.30464e-02	3.06820e-02	8.29478e-08	8.64596e-08	4.68418e-02	1.60686e-02	1.47170e-02	4.95140e-03	8.44639e-08	6.74576e-03	X	X	X	X	X	X	X	X	X	X	X	X	X	X	X	X	



#DISTANCE SETTINGS
A = Detector Channel
A-1	A-2	A-3	A-4	A-5	A-6	A-7	A-8	A-9	A-10	A-11	A-12	A-13	A-14	A-15	A-16	

2.5000e+00	3.0000e+00	2.5000e+00	3.0000e+00	2.0000e+00	3.0000e+00	1.5000e+00	3.0000e+00	3.0000e+00	3.0000e+00	3.0000e+00	3.0000e+00	3.0000e+00	3.0000e+00	1.5000e+00	3.0000e+00	

B = Detector Channel
B-1	B-2	B-3	B-4	B-5	B-6	B-7	B-8	B-9	B-10	B-11	B-12	B-13	B-14	B-15	B-16	

1.0000e+01	1.0000e+01	1.0000e+01	1.4400e+00	1.0000e+01	1.0000e+01	1.5100e+00	1.9400e+00	1.0000e+01	1.0000e+01	1.9900e+00	2.4900e+00	2.4100e+00	2.9000e+00	1.0000e+01	2.9800e+00	




#DATA BEGINS
time	group	step	mark	flag	A-AC1	A-AC2	A-AC3	A-AC4	A-AC5	A-AC6	A-AC7	A-AC8	A-AC9	A-AC10	A-AC11	A-AC12	A-AC13	A-AC14	A-AC15	A-AC16	A-DC1	A-DC2	A-DC3	A-DC4	A-DC5	A-DC6	A-DC7	A-DC8	A-DC9	A-DC10	A-DC11	A-DC12	A-DC13	A-DC14	A-DC15	A-DC16	A-Ph1	A-Ph2	A-Ph3	A-Ph4	A-Ph5	A-Ph6	A-Ph7	A-Ph8	A-Ph9	A-Ph10	A-Ph11	A-Ph12	A-Ph13	A-Ph14	A-Ph15	A-Ph16	B-AC1	B-AC2	B-AC3	B-AC4	B-AC5	B-AC6	B-AC7	B-AC8	B-AC9	B-AC10	B-AC11	B-AC12	B-AC13	B-AC14	B-AC15	B-AC16	B-DC1	B-DC2	B-DC3	B-DC4	B-DC5	B-DC6	B-DC7	B-DC8	B-DC9	B-DC10	B-DC11	B-DC12	B-DC13	B-DC14	B-DC15	B-DC16	B-Ph1	B-Ph2	B-Ph3	B-Ph4	B-Ph5	B-Ph6	B-Ph7	B-Ph8	B-Ph9	B-Ph10	B-Ph11	B-Ph12	B-Ph13	B-Ph14	B-Ph15	B-Ph16	aux-1	digaux	

23715.572	1	1	0	256	0.059798	0.17829	0.2684	0.27826	0.14874	0.37407	0.033816	0.2846	0.23453	0.19929	0.23181	0.094634	0.14869	0.20882	0.18958	0.12077	-2.1375	-2.2104	-2.8187	-2.3792	-2.6604	-2.9771	-2.1937	-2.9208	-2.4146	-2.4146	-3.1937	-2.2167	-2.8625	-3.0646	-2.2062	-3.0146	257.329	138.244	290.042	261.337	233.361	64.501	147.474	-24.702	171.444	242.180	-6.188	-6.193	140.087	241.670	15.422	14.630	0.00033243	0.00030691	0.00013181	1060	6.5932e-06	2.4892e-06	863.29	374.06	9.0631e-06	4.2605e-06	344.39	128.12	142.04	58.419	5.3316e-06	64.067	0.0012571	0.0013923	0.0003888	1068.7	1.4808e-05	1.5237e-05	869.15	378.83	1.4973e-05	1.5386e-05	350.81	130.94	144.6	59.509	1.5335e-05	65.386	264.955	-17.086	54.496	-36.866	132.340	119.127	-37.389	-31.511	120.412	76.512	-33.140	-28.038	-26.405	-22.373	103.352	-25.204	-8191	255	
23715.670	1	1	0	0	0.16815	0.27305	0.134	0.049929	0.25501	0.17716	0.11962	0.25651	0.095399	0.12574	0.14627	0.12234	0.13342	0.43401	0.10507	0.17329	-2.2396	-2.1417	-3.0646	-2.4146	-2.5375	-2.9604	-2.2125	-2.9208	-2.4417	-2.1604	-2.9646	-2.2417	-2.4979	-3.0687	-2.1375	-2.9333	62.548	155.048	308.071	-25.353	5.557	205.913	309.921	212.934	275.209	237.671	177.765	287.630	-47.492	260.673	-39.588	199.488	0.00037684	0.00049982	0.00036977	1057.9	6.4906e-06	5.2294e-06	860.01	373.01	8.4244e-06	8.4867e-06	343.75	128.31	141.71	58.505	4.5869e-06	64.142	0.0012525	0.001412	0.00038986	1067.8	1.5078e-05	1.561e-05	866.65	378.22	1.5202e-05	1.5839e-05	350.46	131.09	144.47	59.734	1.614e-05	65.465	270.812	-28.746	60.152	-36.574	120.671	95.045	-37.158	-31.054	124.891	93.385	-33.357	-27.808	-26.437	-22.441	67.661	-25.134	-8191	255	
23715.766	1	1	0	0	0.095196	0.081157	0.16787	0.13633	0.26525	0.19374	0.20688	0.31052	0.13522	0.17887	0.16121	0.22073	0.18596	0.052289	0.11585	0.078816	-2.2021	-2.0687	-2.9562	-2.3771	-2.3688	-3.0146	-2.25	-2.8292	-2.7917	-2.1354	-3.0729	-2.5333	-2.3708	-3.0438	-2.0354	-2.8229	55.519	129.065	128.393	176.453	91.405	144.713	-3.768	278.893	-13.757	163.162	99.193	80.133	251.753	262.290	25.895	237.509	0.00041644	0.00096058	0.00020979	1060.6	2.6632e-06	4.3868e-06	867.69	374.66	7.4782e-06	9.1335e-06	344.81	127.95	142.03	58.302	5.9491e-06	63.871	0.0012786	0.0014537	0.00040214	1068.8	1.5661e-05	1.5987e-05	870.36	379.35	1.5726e-05	1.6387e-05	351.39	131.12	144.7	59.634	1.641e-05	65.34	268.968	25.930	49.538	-36.578	152.352	123.218	-37.047	-30.919	94.048	124.570	-32.802	-28.132	-26.347	-22.194	110.479	-24.756	-8191	255	
23715.885	1	1	0	0	0.057974	0.23984	0.16017	0.11652	0.26774	0.29546	0.18561	0.28834	0.30521	0.14192	0.398	0.22551	0.12435	0.17721	0.18628	0.30379	-2.5646	-2.1146	-2.95	-2.6958	-2.2938	-3.0062	-2.2604	-2.6771	-2.9417	-2.0604	-3.0604	-2.6896	-2.3458	-3.0667	-2.1604	-2.6458	133.228	258.105	-39.630	286.444	126.133	271.998	269.929	300.133	100.246	-11.989	-45.029	247.945	149.051	292.900	308.727	272.322	0.00037511	0.00097065	8.8461e-05	1058.5	2.1123e-06	6.5352e-06	854.53	372.6	6.407e-06	8.8549e-06	339.5	126.32	140.2	58.059	2.2841e-06	63.023	0.0013324	0.0015152	0.00041685	1067.6	1.6143e-05	1.6621e-05	862.65	377.38	1.6167e-05	1.6953e-05	347.62	129.61	143.65	59.354	1.7113e-05	64.692	278.028	29.332	283.538	-36.194	-44.365	104.214	-36.653	-30.803	113.097	82.291	-33.887	-28.338	-26.789	-22.604	155.526	-25.313	-8191	255	
23715.957	1	1	0	0	0.22648	0.04901	0.14337	0.13637	0.039638	0.29002	0.25242	0.24353	0.12562	0.30914	0.032715	0.15686	0.17766	0.080037	0.12206	0.24331	-2.6979	-2.075	-2.7438	-2.9813	-2	-2.9104	-2.3438	-2.4042	-2.7854	-1.9208	-2.9375	-2.6708	-2.2833	-2.9667	-2.2771	-2.2646	8.414	-6.403	213.538	-41.772	42.969	-10.176	282.033	229.883	-26.468	235.700	-16.884	261.995	307.579	71.599	147.876	-38.698	0.00047017	0.00070116	0.00015631	1053.7	6.2948e-06	5.3626e-06	850.02	372.26	3.2953e-06	9.0765e-06	339.09	125.84	140.62	57.967	4.3286e-06	63	0.0013934	0.0015821	0.00044003	1063.1	1.7023e-05	1.749e-05	859.07	376.82	1.691e-05	1.7776e-05	346.13	129.15	143.5	59.328	1.7491e-05	64.609	286.877	13.468	111.349	-36.488	130.176	180.599	-37.328	-31.081	96.498	126.072	-33.219	-27.899	-26.204	-22.096	11.851	-24.576	-8191	255	
23716.053	1	1	0	0	0.0973	0.0867	0.14714	0.31714	0.15767	0.086995	0.11813	0.15628	0.066192	0.13318	0.15045	0.28593	0.20681	0.21067	0.11157	0.11723	-2.65	-2.175	-2.7333	-2.9292	-1.9562	-3.0958	-2.5583	-2.3292	-2.9229	-2.0583	-2.8396	-2.9854	-2.1479	-3.0396	-2.4562	-2.425	173.981	226.210	281.581	298.897	300.196	189.526	101.822	297.439	-28.624	191.084	112.689	256.072	258.090	270.556	51.007	212.727	0.00041862	0.00094773	0.00019394	1051.9	3.8844e-06	1.6739e-06	851.31	370.29	7.6908e-06	1.1613e-05	339.4	125.91	140.67	57.895	1.1473e-05	63.413	0.00141	0.0015947	0.00043985	1061.4	1.7069e-05	1.7497e-05	858.86	376.15	1.7181e-05	1.7629e-05	346.32	129.33	143.55	59.296	1.7615e-05	64.847	272.040	75.362	60.518	-36.660	112.680	3.140	-36.951	-30.723	70.794	117.148	-32.972	-27.816	-26.142	-22.206	98.215	-24.838	-8191	255	
23716.148	1	1	0	0	0.17362	0.30119	0.18596	0.17837	0.12915	0.18945	0.21611	0.15907	0.21233	0.18133	0.13497	0.07402	0.26494	0.24453	0.16607	0.11133	-2.3979	-1.9396	-2.5958	-2.9375	-2.1792	-3.0167	-2.7062	-2.5438	-2.9833	-2.2896	-2.5208	-3.0771	-2.2625	-3.0396	-2.4458	-2.4542	-9.930	38.375	130.321	303.699	290.046	49.612	284.013	242.270	53.198	66.222	83.376	-31.985	303.002	261.629	217.226	-42.681	0.00028827	0.00033225	0.00032222	1054.4	1.0637e-05	5.8913e-06	848.1	368.88	6.2297e-07	6.3024e-06	338.95	125.9	140.59	57.91	8.6305e-07	63.029	0.0014492	0.0016181	0.00045238	1062.9	1.7128e-05	1.7715e-05	857.36	375.62	1.7397e-05	1.7863e-05	346.7	129.34	143.61	59.327	1.7921e-05	64.761	285.469	100.033	55.248	-36.738	172.333	69.324	-37.207	-31.234	-47.704	100.777	-33.054	-28.223	-26.296	-22.281	200.653	-25.048	-8191	255	
23716.268	1	1	0	0	0.18512	0.11491	0.13129	0.48845	0.10012	0.10297	0.090423	0.064275	0.1127	0.18367	0.07889	0.10229	0.06603	0.38197	0.20466	0.056913	-2.5792	-2.4333	-2.4125	-2.9333	-2.1542	-2.8187	-2.7083	-2.3438	-2.9917	-2.2708	-2.4688	-3.0375	-2.1646	-2.8187	-2.7458	-2.0417	63.254	103.231	94.162	284.306	304.414	66.223	130.433	309.808	168.331	234.828	10.183	140.560	191.332	-37.593	-48.369	304.508	0.00028075	0.00088481	0.00022495	1048.1	8.1036e-06	5.7363e-06	843.85	368.2	3.035e-06	3.319e-06	335.25	124.09	138.97	57.556	8.2903e-06	62.734	0.0014871	0.0016791	0.00046022	1060.5	1.7632e-05	1.8012e-05	852.56	374.29	1.741e-05	1.8272e-05	342.91	127.69	142.32	58.965	1.779e-05	64.097	288.242	31.169	85.373	-36.330	122.348	98.175	-36.925	-30.859	58.382	94.904	-33.026	-28.157	-26.549	-22.293	83.184	-25.107	-8191	255	
23716.363	1	1	0	0	0.21712	0.23246	0.090921	0.15799	0.28801	0.027668	0.048126	0.43253	0.19197	0.21424	0.32654	0.061868	0.1529	0.14491	0.23852	0.22735	-2.4458	-2.2833	-2.1833	-3.0104	-1.9375	-2.5771	-2.8417	-2.3208	-2.8917	-2.425	-2.4125	-2.9396	-2.1958	-2.8271	-2.9854	-2.1	107.077	164.385	66.655	-7.214	296.601	-34.387	-22.267	192.803	306.665	3.445	211.542	-22.235	-9.856	255.832	278.171	246.198	0.00038941	0.00062683	0.00018337	1038.4	5.9055e-06	5.517e-06	833.82	365.86	2.303e-06	6.4891e-06	333.5	124.06	138.97	57.348	5.346e-06	62.73	0.0014554	0.0016541	0.00045594	1051.7	1.7472e-05	1.803e-05	845.76	371.87	1.7349e-05	1.8102e-05	340.94	127.33	142.17	58.689	1.7986e-05	64.001	261.888	65.954	12.555	-36.545	149.402	197.647	-36.949	-31.015	62.276	139.818	-32.676	-27.518	-26.276	-21.978	143.026	-25.330	-8191	255	
23716.459	1	1	0	0	0.14012	0.38026	0.17177	0.12718	0.36201	0.054918	0.07417	0.26702	0.12176	0.20771	0.13663	0.060952	0.45325	0.16594	0.12705	0.15776	-2.4604	-2.3542	-2.1083	-2.9333	-1.9625	-2.5396	-2.8937	-2.2021	-2.7208	-2.5	-2.3375	-3.1604	-2.3312	-2.5062	-2.8937	-2.1417	128.379	186.508	43.205	294.281	57.859	287.630	250.704	308.718	254.548	198.221	206.450	265.469	299.276	217.293	-21.483	283.103	0.00031936	0.00050079	0.00015851	1039.2	9.7433e-06	6.4284e-06	835.51	366.78	5.201e-06	8.2676e-06	333.84	123.81	138.6	57.374	3.4438e-06	62.379	0.0014703	0.0016692	0.00045564	1050.4	1.7726e-05	1.8055e-05	845.77	371.51	1.7471e-05	1.7938e-05	340.56	127.27	142.15	58.711	1.7719e-05	63.816	272.441	15.849	44.118	-36.775	132.357	132.171	-37.209	-31.259	119.299	77.778	-33.369	-28.052	-26.683	-22.390	102.773	-25.244	-8191	255	
23716.557	1	1	0	0	0.11311	0.080946	0.31896	0.1037	0.22266	0.063988	0.084434	0.28595	0.3053	0.095089	0.095672	0.11554	0.24216	0.09931	0.062042	0.055088	-2.3271	-2.7188	-2.1229	-3.0021	-2.475	-2.2542	-2.9354	-2.2188	-2.6521	-2.8021	-2.1458	-2.9417	-2.5833	-2.4542	-3.05	-2.4271	239.260	-12.571	18.001	224.935	245.248	27.633	281.044	232.666	193.416	119.704	83.588	175.723	163.872	280.169	64.490	214.384	0.0003065	0.00068288	0.00017933	1040.5	9.8067e-06	8.4771e-06	835.86	364.41	6.2684e-06	9.9103e-06	332.57	124.14	138.5	57.026	6.8468e-06	62.428	0.001447	0.0016219	0.00044243	1049	1.7244e-05	1.7459e-05	843.03	369.31	1.7227e-05	1.7792e-05	339.73	127.48	141.59	58.427	1.7658e-05	63.946	285.553	5.467	57.245	-36.691	138.373	97.012	-37.286	-31.191	137.230	96.369	-33.050	-27.771	-26.301	-21.948	100.478	-24.985	-8191	255	
23716.650	1	1	0	0	0.092332	0.013018	0.084942	0.2149	0.21207	0.16012	0.18793	0.13445	0.12162	0.18529	0.23803	0.17774	0.15004	0.097979	0.41253	0.16474	-2.1	-2.9167	-1.975	-2.9688	-2.3583	-2.1521	-3.0458	-2.2792	-2.5896	-2.7604	-2.0979	-2.8896	-2.6312	-2.1146	-3.0062	-2.2333	247.908	259.737	196.268	195.654	115.053	278.013	114.090	243.797	-34.982	86.922	1.724	232.988	264.088	-28.383	-29.619	218.200	0.00029751	0.0004872	0.00020134	1034.6	1.0152e-05	6.6906e-06	832.37	359.91	9.6238e-06	1.2022e-05	327.68	123.06	136.87	56.777	5.9996e-06	61.744	0.0014487	0.0016333	0.00045405	1045.1	1.7332e-05	1.8001e-05	839.54	366.42	1.7142e-05	1.7425e-05	336	125.99	140.02	58.109	1.6731e-05	63.238	284.538	1.208	73.645	-36.158	119.071	118.751	-37.034	-30.900	135.075	93.509	-32.734	-27.686	-26.022	-21.991	142.721	-24.774	-8191	255	
23716.746	1	1	0	0	0.21335	0.29476	0.095473	0.30551	0.27153	0.12867	0.19445	0.34692	0.20663	0.17222	0.15169	0.12425	0.12277	0.064014	0.15447	0.18038	-2.0875	-3.0375	-2.075	-2.9521	-2.6229	-2.3208	-3.0458	-2.5083	-2.4167	-3.0333	-2.0583	-3.0125	-2.7396	-2.2271	-2.9229	-2.3292	271.823	200.527	157.076	268.660	181.094	168.836	172.835	-46.617	265.281	167.405	-18.925	309.272	-37.113	171.199	9.093	154.608	0.0001872	0.00011593	0.0001281	1032.8	4.4545e-06	5.8546e-06	824.82	362.38	8.6294e-06	8.867e-06	330.38	124.86	139.01	57.706	4.1566e-06	62.593	0.0013511	0.0014917	0.00041368	1040.1	1.5525e-05	1.5654e-05	830.7	366.65	1.483e-05	1.5124e-05	336.16	126.99	141.52	58.86	1.4488e-05	64.077	273.741	30.750	53.261	-36.035	148.102	75.330	-36.805	-30.792	102.900	122.026	-32.753	-28.037	-25.888	-22.229	164.726	-24.940	-8191	255	
23716.844	1	1	0	0	0.22082	0.15719	0.19586	0.30279	0.29812	0.095621	0.17204	0.17448	0.10426	0.1941	0.1295	0.26187	0.14067	0.47401	0.068848	0.044299	-1.9583	-2.8729	-1.8	-2.8479	-2.6208	-2.0958	-3.0667	-2.5687	-2.4	-2.8812	-2.1896	-2.9062	-2.9437	-2.25	-3.1708	-2.5312	156.201	258.652	244.854	297.872	226.998	177.071	265.805	221.301	133.990	30.678	290.821	-47.370	254.464	-17.949	60.616	140.644	0.00040639	0.00059475	0.00018968	1033.8	5.7372e-06	6.5961e-06	830.7	365.57	4.2405e-06	3.1195e-06	334.98	125.24	140.78	58.331	7.3253e-06	63.87	0.0011897	0.0013057	0.00036185	1045.4	1.3626e-05	1.3961e-05	837.11	369.91	1.3328e-05	1.3631e-05	339.85	127.95	142.8	59.507	1.3064e-05	64.973	271.885	43.530	76.256	-36.101	112.095	81.908	-36.908	-31.042	143.100	123.370	-32.859	-27.454	-26.206	-22.357	103.674	-25.031	-8191	255	
23716.965	1	1	0	0	0.02935	0.23258	0.19378	0.2919	0.47144	0.19744	0.12462	0.23544	0.08105	0.38356	0.14068	0.2052	0.17386	0.2059	0.18151	0.23196	-1.7333	-2.8625	-2.1813	-2.8917	-2.8854	-2.0563	-3.0833	-2.8104	-2.3208	-2.8708	-2.3042	-2.5812	-2.9646	-2.1146	-2.8812	-2.7542	17.096	263.404	212.494	301.929	161.743	196.536	77.593	263.999	275.923	275.380	162.565	236.015	288.427	303.744	20.221	274.808	0.00041136	0.0008427	0.00021745	1043.4	7.1485e-06	4.8774e-06	837.26	367.62	7.8033e-06	5.5873e-06	335.94	127.3	141.87	59.03	6.1546e-06	64.741	0.0010686	0.0011481	0.00032456	1049.7	1.2057e-05	1.2166e-05	840.39	370.84	1.1486e-05	1.1747e-05	340.63	129.2	143.78	60.104	1.1162e-05	65.768	280.180	35.410	4.684	-36.101	103.156	136.457	-36.773	-30.975	115.817	111.596	-32.863	-27.734	-26.208	-22.119	135.913	-24.983	-8191	255	
23717.061	1	1	0	0	0.090683	0.011468	0.099187	0.35091	0.22292	0.056399	0.1661	0.12179	0.1002	0.089387	0.13964	0.15223	0.1389	0.16984	0.14191	0.031927	-1.7458	-2.8167	-2.2875	-2.575	-2.8438	-2.1229	-2.8146	-2.7354	-1.9854	-3.0646	-2.3187	-2.5875	-2.9583	-2.2354	-2.7125	-2.875	92.806	54.004	196.087	244.178	110.021	279.372	309.750	-41.195	304.519	-3.923	288.899	233.104	-0.726	252.700	230.909	78.844	0.0003054	0.00076891	0.00014861	1043.2	5.6239e-06	1.3265e-06	834.18	367.96	3.8081e-06	5.5597e-06	333.31	126.82	140.9	58.964	1.0821e-05	64.295	0.00093122	0.00097873	0.00027303	1045.9	1.0323e-05	1.0588e-05	838.9	370.34	1.0111e-05	1.051e-05	338.2	128.96	142.79	60.017	1.0296e-05	65.382	262.271	25.242	23.916	-36.035	119.517	153.944	-36.667	-30.886	90.803	99.548	-33.043	-28.056	-26.278	-22.344	119.007	-24.898	-8191	255	
23717.156	1	1	0	0	0.12224	0.099414	0.20057	0.096529	0.33488	0.20075	0.098678	0.27155	0.06172	0.22677	0.11888	0.15947	0.10746	0.26286	0.014229	0.098555	-1.6562	-2.8292	-2.2396	-2.5479	-2.9229	-2.1188	-2.7625	-2.9896	-2.0771	-2.9333	-2.625	-2.4521	-3.2021	-2.2021	-2.7125	-2.7667	252.217	279.774	-35.589	-25.486	13.245	12.700	197.021	271.849	-20.440	21.209	248.128	297.835	-26.553	299.005	228.464	261.102	0.0004164	0.00043733	0.00011104	1037.9	1.0443e-05	5.7636e-06	826.26	365.51	5.0894e-06	4.0786e-06	330.85	125.95	141.44	59.129	5.2798e-06	64.24	0.00086668	0.00092176	0.00025812	1039.3	9.6561e-06	9.9792e-06	829.38	367.02	9.7422e-06	1.0045e-05	334.52	127.74	142.6	59.953	9.9322e-06	65.267	290.856	20.518	1.419	-36.181	135.165	52.427	-36.701	-30.947	143.025	81.765	-32.962	-27.810	-26.118	-21.951	89.251	-24.557	-8191	255	
23717.254	1	1	0	0	0.19433	0.15123	0.12358	0.36005	0.28623	0.17092	0.14008	0.10063	0.1077	0.23483	0.018391	0.24411	0.41731	0.17491	0.17404	0.22464	-1.7167	-2.8542	-2.3563	-2.2917	-2.9667	-2.1854	-2.5917	-2.9833	-2.2521	-2.7938	-2.7625	-2.3708	-3.0917	-2.5563	-2.3083	-2.9875	125.732	48.340	46.480	295.665	-44.336	190.465	298.057	145.678	254.118	210.085	177.382	287.017	301.893	-43.741	7.106	187.549	0.00040227	0.00065561	0.00010761	1030.1	4.9423e-06	4.834e-06	828.48	361.49	6.5647e-06	1.0001e-05	331.05	125.54	139.96	58.279	3.8696e-06	64.284	0.00087134	0.00092908	0.00025416	1036.6	9.8487e-06	1.0178e-05	827.78	364.81	9.9211e-06	1.031e-05	334.17	127.45	141.38	59.358	1.0191e-05	64.98	279.279	87.374	17.123	-36.013	143.748	106.717	-36.778	-30.696	152.393	125.131	-32.627	-27.371	-26.020	-21.937	124.611	-24.737	-8191	255	
23717.350	1	1	0	0	0.1446	0.080063	0.18808	0.232	0.058739	0.17907	0.2226	0.14995	0.12998	0.18319	0.25659	0.12675	0.20658	0.31662	0.095858	0.40323	-1.7875	-2.5958	-2.5625	-2.1271	-3.0167	-2.2917	-2.5438	-3.1854	-2.1396	-2.8438	-2.6479	-2.1792	-3.0979	-2.5312	-2.2313	-3.1792	231.638	-26.615	47.222	209.220	182.121	233.037	271.952	215.256	50.363	63.598	191.528	33.956	281.824	245.754	287.479	299.431	0.00032841	0.0008622	0.00018088	1031.5	3.6267e-06	3.5645e-06	826.84	362.27	4.49e-06	8.5348e-06	330.82	125.76	139.26	58.025	3.3916e-06	64.018	0.00086327	0.0009279	0.00025902	1035.4	1.0041e-05	1.0325e-05	828.92	364.45	1.0276e-05	1.0435e-05	333.33	127.51	141.02	59.011	1.059e-05	64.854	282.624	23.671	26.358	-36.467	128.947	99.382	-37.004	-31.069	9.233	109.863	-32.976	-27.951	-26.333	-22.576	164.356	-25.221	-8191	255	
23717.443	1	1	0	0	0.11742	0.099979	0.17128	0.28639	0.10115	0.19703	0.26793	0.066766	0.20737	0.19282	0.33386	0.078792	0.054929	0.19367	0.17847	0.21081	-1.5896	-2.6063	-2.6437	-2.25	-2.9229	-2.3187	-2.3708	-3.1021	-1.9271	-2.5646	-2.8333	-2.2375	-2.9292	-2.5229	-2.1917	-3.0625	-30.649	-0.965	65.019	268.763	268.296	190.430	308.022	245.505	181.455	205.782	278.212	15.678	202.001	189.907	143.277	233.497	0.00038562	0.00039802	0.0002445	1030.6	5.8358e-06	6.9783e-06	824.2	358.81	5.5571e-06	6.6702e-06	327.16	124.6	138.61	57.637	3.9587e-06	62.539	0.00089847	0.00097212	0.00026736	1034.3	1.0603e-05	1.0841e-05	826.64	362.26	1.087e-05	1.0934e-05	331.8	126.46	140.42	58.624	1.1276e-05	63.62	284.704	35.372	47.182	-36.636	25.321	83.535	-37.327	-31.104	116.120	127.609	-33.340	-28.356	-26.830	-22.792	90.566	-25.480	-8191	255	
23717.564	1	1	0	0	0.28375	0.19247	0.066023	0.39284	0.12977	0.27664	0.19262	0.23368	0.069425	0.060716	0.17641	0.16887	0.29603	0.24529	0.08314	0.26528	-1.8438	-2.4729	-2.8812	-2.2625	-2.8104	-2.4813	-2.3563	-3.1375	-2.2229	-2.4646	-2.9688	-2.2417	-2.7708	-2.8333	-2.1917	-2.9688	165.523	128.554	65.065	300.971	264.863	87.807	-24.266	239.446	75.166	154.836	34.032	29.759	264.960	202.783	82.202	216.999	0.00032921	0.00066916	0.00017821	1031.8	9.0827e-06	4.3634e-06	815.45	357.96	3.8639e-06	4.5211e-06	325.57	122.63	137.47	57.339	7.9766e-06	62.625	0.00098257	0.0010664	0.00029932	1037.6	1.1793e-05	1.2e-05	821.98	362.01	1.2008e-05	1.2288e-05	330.09	125.04	139.63	58.366	1.2213e-05	63.663	283.008	13.876	37.494	-36.856	129.681	101.002	-37.319	-31.269	59.804	101.627	-33.359	-27.859	-26.379	-22.443	37.208	-24.967	-8191	255	
23717.660	1	1	0	0	0.15212	0.080055	0.22592	0.19892	0.1224	0.10795	0.54788	0.12522	0.043804	0.11517	0.30154	0.127	0.11851	0.25898	0.07631	0.18813	-1.7854	-2.3958	-3.0146	-2.2354	-2.8854	-2.8458	-2.0521	-2.9854	-2.4333	-2.4062	-3.0375	-2.1208	-2.9271	-2.9313	-1.9083	-3.0229	260.415	-47.920	-23.921	211.669	214.417	264.102	236.530	253.938	97.341	175.490	254.983	67.686	210.302	-48.553	143.283	121.577	0.00035695	0.00079976	0.00020449	1033.4	3.0259e-06	3.4153e-06	821.34	358.47	3.1756e-06	5.0753e-06	326.16	123.19	138.53	57.209	4.3238e-06	62.648	0.0010118	0.0011111	0.00030875	1036.9	1.1847e-05	1.2187e-05	824.21	362.47	1.2114e-05	1.2317e-05	330.24	125.21	140.09	58.474	1.247e-05	63.736	271.263	7.134	7.453	-36.437	79.377	64.804	-36.855	-30.708	59.746	126.494	-33.212	-27.807	-26.122	-22.180	119.808	-24.833	-8191	255	
23717.756	1	1	0	0	0.050594	0.1945	0.42499	0.23188	0.19491	0.13524	0.30535	0.30163	0.10673	0.10779	0.10627	0.1423	0.13424	0.058815	0.083134	0.27157	-2.1354	-2.1312	-2.8333	-2.2875	-2.4875	-2.9396	-2.2438	-3.1937	-2.4062	-2.1083	-3.075	-2.175	-2.5604	-3.1021	-2.0375	-2.9125	223.680	240.585	118.837	279.468	292.960	186.876	302.682	178.291	191.932	274.560	-14.847	106.978	261.236	107.943	24.154	291.451	0.00031183	0.00056941	7.3683e-05	1032.2	1.2914e-05	6.3737e-06	820.78	361.59	1.137e-05	9.3348e-06	326.15	123.16	138.08	57.451	6.3299e-06	62.916	0.0010523	0.0011673	0.00032222	1041.4	1.2524e-05	1.2774e-05	827.04	364.21	1.26e-05	1.2865e-05	331.13	125.47	140.4	58.676	1.2996e-05	63.945	273.679	41.534	96.524	-36.502	104.534	108.135	-37.191	-31.186	111.040	58.226	-33.428	-27.998	-26.250	-22.349	110.093	-24.879	-8191	255	
23717.852	1	1	0	0	0.12463	0.27936	0.096358	0.46887	0.16728	0.12357	0.33714	0.29831	0.15245	0.19498	0.12327	0.35742	0.31797	0.12184	0.19782	0.18048	-2.1083	-2.1521	-2.9021	-2.3583	-2.2687	-2.9146	-2.1063	-2.9729	-2.7521	-2.2021	-3.05	-2.3354	-2.3396	-3.1833	-2.1104	-3.05	46.795	203.943	284.626	-43.661	205.391	80.335	203.036	293.018	0.038	-5.838	176.664	-38.707	146.483	-42.770	289.088	265.895	0.00036589	0.00039744	6.7296e-05	1037.4	1.8695e-06	5.5725e-06	823.46	361.48	7.7611e-06	7.6939e-06	326.04	123.62	138.1	57.657	6.9818e-06	62.664	0.0010691	0.0011832	0.000329	1044.1	1.2481e-05	1.277e-05	828.42	364.98	1.2426e-05	1.2713e-05	331.86	125.47	140.38	58.733	1.2412e-05	63.856	286.332	-28.996	-27.295	-36.632	82.007	92.564	-36.944	-30.840	136.718	105.708	-32.725	-28.000	-26.143	-22.041	60.000	-24.559	-8191	255	
23717.947	1	1	0	0	0.39677	0.12467	0.14903	0.26923	0.25363	0.099105	0.065478	0.29241	0.21182	0.23669	0.32301	0.26541	0.23913	0.16904	0.072482	0.13519	-2.3167	-1.7938	-2.9313	-2.5125	-2.2271	-2.9208	-2.2625	-2.8208	-2.8104	-2.1667	-3.0833	-2.6521	-2.4125	-3.0396	-2.1146	-2.7479	-27.605	270.547	163.341	201.127	309.308	104.018	255.557	248.340	127.815	-26.010	257.408	226.370	285.732	288.321	282.919	176.617	0.00043237	0.00060161	0.00016274	1035.8	2.1149e-06	1.9296e-06	820.61	359.68	9.8447e-06	5.1558e-06	325.38	123.03	138.47	57.893	9.0338e-06	62.954	0.0010256	0.0011183	0.00031455	1040.1	1.2045e-05	1.2192e-05	824.15	363.9	1.1917e-05	1.2362e-05	330.3	125.2	140.37	58.787	1.2191e-05	64.015	270.770	-6.077	73.785	-36.207	243.949	147.584	-36.935	-30.724	133.931	119.501	-32.776	-27.941	-25.995	-21.981	129.447	-24.595	-8191	255	
23718.045	1	1	0	0	0.27189	0.026437	0.010333	0.12842	0.28731	0.20793	0.1996	0.1827	0.12823	0.028374	0.13515	0.29871	0.20773	0.22536	0.072453	0.32162	-2.5375	-2.0312	-2.9938	-2.7687	-2.1667	-2.9167	-2.3688	-2.6708	-2.8625	-2.2625	-2.9604	-2.7	-2.2396	-2.9229	-2.3	-2.6979	31.710	-13.788	153.236	225.381	-23.170	203.303	4.657	294.571	287.313	5.283	218.600	12.072	-18.637	230.266	209.121	-40.170	0.00041645	0.00039005	0.00022567	1032.3	6.7144e-06	8.8099e-06	818.1	361.34	9.2378e-06	7.9394e-06	326.81	123.41	138.35	57.95	7.3728e-06	63.372	0.0010119	0.0011035	0.00030623	1038.2	1.192e-05	1.2029e-05	824.16	364.92	1.1747e-05	1.2175e-05	332.03	125.59	140.8	58.98	1.2086e-05	64.316	271.998	37.219	-9.524	-36.143	110.200	120.815	-36.945	-30.632	167.280	78.569	-32.660	-27.653	-26.019	-21.795	105.118	-24.832	-8191	255	
23718.141	1	1	0	0	0.25604	0.43038	0.094032	0.098558	0.073835	0.26479	0.13	0.038183	0.30258	0.10455	0.12976	0.14492	0.23209	0.4027	0.19982	0.14603	-2.5917	-1.9542	-2.9042	-2.7188	-2.2125	-2.9	-2.3333	-2.5479	-2.8729	-2.2583	-2.8812	-2.7458	-2.1458	-3.0396	-2.4979	-2.4771	293.604	296.513	62.428	300.237	-22.654	308.895	-4.018	223.902	25.268	208.906	40.791	170.824	-44.901	301.575	80.203	-30.044	0.00038997	0.00062561	0.0001625	1031.4	5.6308e-06	4.1773e-06	824.08	363.34	3.1731e-06	5.0659e-06	328.37	124	138.85	58.039	9.0643e-06	63.4	0.0010012	0.0011014	0.00030507	1039.1	1.1937e-05	1.2061e-05	828.61	366.22	1.1658e-05	1.2171e-05	333.29	126.57	141.34	59.104	1.1925e-05	64.495	289.193	64.160	32.251	-35.869	134.605	135.571	-36.430	-30.456	125.812	91.587	-32.621	-27.432	-25.665	-21.733	83.396	-24.191	-8191	255	
23718.236	1	1	0	0	0.17616	0.14918	0.046534	0.27624	0.089698	0.17718	0.23831	0.14133	0.11218	0.082991	0.17644	0.07647	0.26796	0.31203	0.11747	0.075154	-2.5563	-2.025	-2.7562	-2.8833	-2.0771	-2.8	-2.4583	-2.3854	-3.0896	-2.1167	-2.5896	-2.8458	-2.0854	-2.9688	-2.4104	-2.2958	296.096	83.147	63.176	305.158	173.382	36.593	168.715	289.430	184.077	-40.225	-42.430	198.693	296.373	-29.424	-0.898	224.095	0.00031763	0.00061118	0.00023583	1039.2	4.1687e-06	8.1271e-06	828.2	364.32	4.1862e-06	2.7624e-06	329.62	124.69	139.09	57.747	2.2731e-06	63.222	0.0010095	0.0011108	0.00030697	1044.7	1.1865e-05	1.2196e-05	831.69	367.14	1.1859e-05	1.218e-05	334.37	126.65	141.18	58.918	1.206e-05	64.311	274.507	8.021	50.940	-35.935	103.695	102.180	-36.372	-30.475	166.075	114.123	-32.406	-27.458	-25.970	-22.105	49.250	-24.546	-8191	255	
23718.357	1	1	0	0	0.14322	0.015744	0.15706	0.25398	0.086287	0.11456	0.15585	0.23168	0.30308	0.10436	0.20558	0.27359	0.10842	0.18659	0.1928	0.13222	-2.5854	-2.025	-2.5125	-3.0167	-2.1	-2.8708	-2.7271	-2.3271	-2.9875	-2.3146	-2.575	-2.85	-2.2896	-3.0312	-2.6021	-2.2167	233.863	-17.954	90.847	188.311	-31.118	273.631	241.109	254.377	296.979	231.720	-8.677	280.578	76.936	291.060	99.048	309.860	0.00036724	0.00026505	0.0001589	1034	5.1761e-06	1.5077e-06	822.27	362.32	4.7519e-06	7.0841e-06	328.5	124.04	139.13	57.682	4.9126e-06	63.053	0.0010182	0.0011098	0.00031026	1040.1	1.185e-05	1.2084e-05	826.74	365.89	1.1929e-05	1.2415e-05	332.73	126.01	141.3	58.715	1.2268e-05	63.937	268.434	45.249	48.875	-36.027	126.239	296.455	-36.509	-30.362	93.104	99.098	-32.535	-27.435	-25.666	-21.679	89.447	-25.086	-8191	255	
23718.451	1	1	0	0	0.2551	0.14971	0.17574	0.036579	0.036624	0.12308	0.30812	0.061348	0.14442	0.1375	0.18978	0.32976	0.061117	0.26611	0.24579	0.11755	-2.6125	-2.2771	-2.4396	-3.0062	-2.175	-2.8667	-2.6229	-2.2083	-2.9437	-2.2062	-2.3958	-2.9667	-2.1937	-2.8208	-2.5875	-2.2042	-22.398	146.918	128.002	116.001	61.114	172.827	-26.600	212.883	240.147	95.570	41.566	210.661	18.785	294.926	267.645	215.648	0.00042018	0.00082281	0.00016058	1034.7	8.3828e-06	5.8498e-06	822.36	363.74	5.0764e-06	5.7123e-06	327.43	124	138.95	57.609	5.2022e-06	62.829	0.0010416	0.001162	0.00031762	1040.4	1.2284e-05	1.2439e-05	825.7	366.5	1.2457e-05	1.2582e-05	333.27	126.52	141.33	58.777	1.2403e-05	64.002	269.370	28.678	37.901	-35.993	119.745	85.816	-36.726	-30.667	73.693	97.946	-32.679	-27.506	-25.922	-22.057	113.044	-24.700	-8191	255	
23718.525	1	1	0	0	0.29559	0.20057	0.10544	0.1941	0.28888	0.14593	0.26687	0.35407	0.29056	0.26476	0.28757	0.058318	0.089818	0.39224	0.16352	0.14581	-2.4167	-2.2854	-2.0792	-3.0563	-2.1833	-2.925	-3.0604	-2.2625	-2.9292	-2.6333	-2.3104	-2.9896	-2.2646	-2.6854	-2.9521	-2.1042	92.292	13.594	132.548	288.330	264.029	114.235	220.119	255.058	122.203	74.057	161.604	56.934	105.568	-34.874	182.283	278.534	0.00026319	0.00050868	0.00028627	1037.4	3.7519e-06	4.0685e-06	822.1	363.4	1.0539e-05	3.2903e-06	330.52	124.4	139.61	57.743	7.0219e-06	63.279	0.0010446	0.0011507	0.00032016	1043.2	1.2414e-05	1.2935e-05	829.85	367.33	1.2528e-05	1.27e-05	335.1	126.92	141.79	58.857	1.2806e-05	64.239	270.370	32.081	33.343	-36.235	144.438	183.080	-36.658	-30.432	121.410	120.014	-32.338	-27.303	-25.814	-21.676	135.638	-24.408	-8191	255	
23718.645	1	1	0	0	0.1839	0.086985	0.15622	0.14228	0.40472	0.2562	0.17164	0.315	0.26155	0.22536	0.081981	0.27531	0.14834	0.12277	0.078804	0.15461	-2.4208	-2.5979	-2.0646	-3.1375	-2.2792	-2.3229	-3.0708	-2.4646	-2.8229	-2.4146	-2.4667	-3.0229	-2.2771	-2.6917	-3.1021	-2.2875	285.453	114.050	272.316	243.189	200.295	86.777	200.640	219.630	46.981	21.288	200.637	-11.128	33.935	288.106	11.386	248.657	0.00042401	0.00051953	0.00012876	1038.9	9.127e-06	2.7283e-06	830.21	364.5	5.9649e-06	4.566e-06	331.72	124.67	140.07	57.554	8.0374e-06	62.817	0.0010733	0.0011783	0.00032946	1045.2	1.2604e-05	1.2967e-05	834.48	368.32	1.2707e-05	1.2844e-05	335.69	127.12	141.99	58.803	1.2897e-05	64	277.481	-8.045	64.035	-35.924	98.754	91.983	-36.639	-30.352	137.059	61.179	-32.301	-27.382	-25.663	-21.353	110.997	-24.484	-8191	255	
23718.740	1	1	0	0	0.25845	0.13744	0.16787	0.24069	0.26777	0.24201	0.28238	0.2323	0.32775	0.022792	0.28145	0.1212	0.21212	0.31198	0.15518	0.47298	-2.4646	-2.6458	-2.0687	-3.0167	-2.3333	-2.4458	-3.075	-2.1729	-2.5917	-2.7833	-2.1167	-3.0229	-2.5083	-2.3438	-2.9167	-2.0729	141.378	276.282	196.336	260.083	-3.981	272.582	263.779	249.095	54.668	93.874	219.379	300.597	190.542	-39.877	212.117	310.740	0.00035337	0.00097984	0.00020997	1038.9	2.8897e-06	3.2146e-06	826.13	362.21	6.4814e-06	5.0252e-06	327.72	124.25	139.68	57.54	8.0795e-06	62.923	0.0010819	0.0011713	0.00033615	1045.1	1.2896e-05	1.3079e-05	829.09	366.73	1.2763e-05	1.3026e-05	333.64	126.36	141.7	58.672	1.3133e-05	63.85	269.961	30.822	35.387	-35.785	115.637	110.430	-36.171	-30.555	118.056	82.163	-32.925	-27.435	-26.189	-22.177	154.945	-24.728	-8191	255	
23718.836	1	1	0	0	0.23115	0.12544	0.12323	0.23466	0.24652	0.13553	0.19549	0.15762	0.063364	0.37125	0.14581	0.087188	0.15417	0.18439	0.14283	0.37238	-2.3187	-2.6396	-1.8312	-2.9146	-2.525	-2.0354	-2.9896	-2.3146	-2.5354	-2.8792	-2.0792	-3.0208	-2.6854	-2.2896	-2.8479	-2.3125	149.358	144.653	41.969	218.780	30.891	139.985	148.931	196.155	248.622	180.384	297.287	190.618	226.467	274.576	83.999	198.572	0.00035961	0.00046387	0.00014182	1037.7	1.7365e-06	4.3366e-06	823.84	363.13	6.52e-06	9.3658e-06	327.48	124.5	140.3	57.77	6.2632e-06	62.731	0.0011023	0.0011989	0.00033991	1044.7	1.2899e-05	1.3306e-05	830.84	367.3	1.2978e-05	1.3233e-05	333.72	126.73	142.11	58.898	1.3319e-05	64.093	273.562	43.166	79.231	-35.976	133.027	102.773	-36.735	-30.641	191.230	131.213	-32.405	-27.397	-25.911	-21.611	134.832	-24.357	-8191	255	
23718.957	1	1	0	0	0.07584	0.11504	0.28419	0.12318	0.093969	0.03302	0.10737	0.11873	0.23458	0.11453	0.56376	0.17671	0.016476	0.15732	0.036535	0.12117	-2.0438	-2.9396	-1.9375	-2.85	-2.5729	-2.1792	-3.0229	-2.325	-2.4708	-2.9625	-2.175	-2.85	-2.7104	-2.1792	-2.7438	-2.55	151.164	1.364	164.042	-25.453	283.518	80.323	198.347	29.747	38.342	267.191	-6.272	264.428	-2.565	253.519	40.996	52.379	0.00048708	0.00065315	0.00026753	1041.4	6.291e-06	3.9121e-06	827.59	363.46	5.1591e-06	7.3973e-06	330.64	125.25	140.19	57.864	2.2866e-06	63.296	0.0011022	0.0012045	0.00033476	1048.3	1.3018e-05	1.3257e-05	832.55	367.75	1.2893e-05	1.3355e-05	335.46	127.38	142.21	59.068	1.306e-05	64.452	279.716	60.128	39.664	-36.561	120.156	73.596	-36.975	-31.048	124.421	105.875	-32.992	-28.170	-26.400	-22.444	69.577	-25.118	-8191	255	
23719.053	1	1	0	0	0.25469	0.093497	0.13591	0.36596	0.20929	0.23843	0.21408	0.17855	0.1296	0.088275	0.10071	0.076951	0.085465	0.10982	0.087672	0.18063	-1.8708	-2.9083	-1.9583	-2.8042	-2.7687	-2.0229	-3.0812	-2.5208	-2.1771	-3.0042	-2.2042	-2.4854	-2.9583	-2.2188	-2.9208	-2.45	57.653	132.452	51.293	269.388	151.852	232.632	281.487	42.354	37.645	84.071	76.976	285.205	168.307	-33.767	139.843	246.887	0.00037469	0.00056953	0.00022661	1046.7	1.1501e-05	4.8434e-06	827.91	363.99	4.7039e-06	6.275e-06	331.27	126.51	140.08	58.037	3.7239e-06	63.402	0.0010858	0.0011913	0.0003322	1049.4	1.2902e-05	1.3251e-05	835.84	368.85	1.2845e-05	1.316e-05	336.87	128.2	142.48	59.078	1.3007e-05	64.426	273.725	8.019	12.236	-36.394	123.735	86.668	-37.029	-31.072	150.348	122.554	-33.167	-27.729	-26.476	-22.145	65.770	-25.254	-8191	255	
23719.125	1	1	0	0	0.12654	0.068243	0.11827	0.2877	0.14681	0.094491	0.2397	0.081206	0.18553	0.08166	0.044307	0.37684	0.059508	0.20267	0.041951	0.10156	-1.6875	-3.1083	-2.125	-2.6396	-2.6583	-2.0458	-2.9271	-2.5854	-1.9833	-2.9875	-2.3854	-2.575	-3.0104	-2.2562	-2.9688	-2.7271	211.294	226.727	44.483	181.987	54.258	85.422	-4.802	294.080	103.258	305.413	297.645	289.721	220.496	271.207	47.947	-34.290	0.00031055	0.00062789	0.00022359	1042.3	9.3227e-06	8.8814e-06	826.25	363.6	7.0459e-06	4.4386e-06	328.99	124.18	139.89	58.062	6.8112e-06	62.959	0.0010812	0.0011861	0.0003334	1047.7	1.2653e-05	1.2951e-05	830.87	367.81	1.2613e-05	1.2937e-05	333.62	126.77	141.95	59.098	1.2755e-05	64.32	283.836	17.337	50.046	-36.212	147.243	71.636	-36.810	-31.193	76.438	84.902	-32.885	-27.776	-26.249	-22.027	106.727	-25.013	-8191	255	
23719.244	1	1	0	0	0.21105	0.049057	0.23357	0.20828	0.0041839	0.19703	0.25628	0.23737	0.168	0.12234	0.16585	0.23033	0.12464	0.10209	0.22196	0.073469	-1.7979	-2.9729	-2.2812	-2.5438	-2.7771	-2.1396	-2.7542	-2.7604	-2.1625	-3.0292	-2.2417	-2.3458	-2.9667	-2.3042	-2.6729	-2.8854	173.544	32.691	-3.514	310.635	124.365	185.073	-35.408	138.150	83.297	-42.038	80.972	304.440	-42.145	91.788	85.257	176.354	0.00040757	0.00032348	0.00021654	1043.4	6.6952e-06	3.4638e-06	827.21	361.5	4.6903e-06	8.4715e-07	329.74	124.74	139.11	58.012	4.0141e-06	63.246	0.0010587	0.0011639	0.00032701	1045.5	1.2413e-05	1.3045e-05	831.52	366.94	1.251e-05	1.2971e-05	334.56	126.89	141.83	58.935	1.2692e-05	64.373	274.600	8.678	51.989	-36.411	104.253	78.592	-36.755	-30.979	78.375	36.163	-33.196	-27.524	-26.313	-21.967	101.322	-24.909	-8191	255	
23719.340	1	1	0	0	0.36612	0.11862	0.067554	0.096305	0.30156	0.12108	0.43413	0.11767	0.11495	0.23015	0.32176	0.18692	0.26865	0.23951	0.1603	0.296	-1.7083	-2.875	-2.4229	-2.2271	-2.8646	-2.1813	-2.7562	-2.8604	-2.2479	-2.9229	-2.6771	-2.2333	-2.9146	-2.4375	-2.5604	-3.0062	227.313	284.028	263.100	260.889	152.868	250.823	302.846	228.855	140.967	20.702	207.371	179.966	283.306	-36.796	257.437	302.060	0.00035822	0.00078393	0.00016224	1039.7	5.5024e-06	6.0686e-06	828.92	362.26	6.884e-06	4.4699e-06	330.27	125.67	140.39	58.341	6.7412e-06	63.716	0.001062	0.0011508	0.00031915	1044.6	1.2108e-05	1.254e-05	833	366.89	1.2206e-05	1.2521e-05	335.52	127.89	142.44	59.34	1.2552e-05	64.886	273.602	32.508	33.121	-36.191	116.335	94.882	-36.529	-30.681	96.597	101.185	-32.548	-27.568	-25.672	-21.901	150.524	-24.843	-8191	255	
23719.436	1	1	0	0	0.11575	0.043554	0.11009	0.21304	0.23022	0.13985	0.089411	0.21515	0.26987	0.22161	0.17836	0.032261	0.31312	0.16319	0.087335	0.19856	-1.6812	-2.8271	-2.5354	-2.4583	-3.025	-2.3771	-2.6333	-2.975	-2.15	-2.8271	-2.6625	-2.3354	-3.0417	-2.5854	-2.2854	-2.9833	205.601	276.340	217.712	259.337	44.455	196.718	215.932	296.633	178.960	244.150	303.537	255.484	-38.452	-32.556	225.216	92.965	0.0003516	0.00016881	0.00018059	1041.7	3.241e-06	6.5054e-06	831.82	364.2	5.9628e-06	6.1731e-06	333.43	125.87	140.73	57.905	4.0101e-06	63.634	0.0010516	0.0011574	0.0003201	1045.8	1.2272e-05	1.2528e-05	835.46	368.64	1.2275e-05	1.251e-05	337.28	128.16	142.44	59.073	1.2366e-05	64.732	271.468	265.219	36.500	-36.057	88.696	95.189	-36.418	-30.641	130.641	103.558	-32.501	-27.515	-25.752	-21.730	97.375	-24.650	-8191	255	
23719.531	1	1	0	0	0.3328	0.13065	0.20307	0.18881	0.16205	0.047525	0.11523	0.30652	0.13979	0.23424	0.16491	0.14542	0.1459	0.33302	0.12492	0.08863	-1.8479	-2.5812	-2.6771	-2.2146	-2.9062	-2.275	-2.3125	-3.15	-2.1042	-2.6875	-2.75	-2.0021	-2.9146	-2.5875	-2.2333	-3.1729	-13.269	-35.658	100.770	242.292	233.956	222.684	-37.270	304.880	51.800	266.332	308.863	191.595	161.957	305.520	1.664	-42.168	0.00043993	0.00031214	0.00016662	1039.5	6.2637e-06	5.4835e-06	828.15	362.36	7.0985e-06	9.743e-06	328.98	125.01	138.99	57.954	2.346e-06	63.124	0.0010547	0.0011284	0.00031014	1044.8	1.2049e-05	1.226e-05	832.06	366.47	1.208e-05	1.2324e-05	334.12	127.15	141.5	58.994	1.2087e-05	64.305	278.983	9.742	-6.190	-35.854	92.014	96.986	-36.390	-30.506	166.910	95.119	-32.225	-27.733	-26.005	-21.950	138.508	-24.512	-8191	255	
23719.629	1	1	0	0	0.025563	0.23009	0.13196	0.21801	0.1595	0.24985	0.06264	0.16311	0.16307	0.070684	0.028896	0.079173	0.47189	0.17405	0.24782	0.015594	-1.8375	-2.5958	-2.725	-2.2562	-2.7396	-2.6292	-2.0583	-3.0479	-2.1833	-2.5021	-2.7208	-2.175	-2.7438	-2.8208	-2.1437	-3.0333	-6.525	197.584	189.481	302.488	75.942	173.282	25.542	265.088	108.859	57.489	73.305	103.912	255.186	278.058	262.021	105.095	0.00045513	0.00065451	0.0001539	1042.9	1.0577e-05	3.4192e-06	826.21	363.14	4.2899e-06	6.6042e-06	329.05	124.51	140.04	58.155	5.4814e-06	63.814	0.0010271	0.0011255	0.00030905	1043.9	1.1903e-05	1.2073e-05	831.66	366.65	1.1845e-05	1.2075e-05	334.07	127.44	141.84	59.171	1.1659e-05	64.66	267.318	20.364	58.326	-35.499	121.072	151.572	-36.058	-29.832	147.261	103.699	-32.870	-27.607	-26.074	-22.083	122.447	-24.887	-8191	255	
23719.748	1	1	0	0	0.065967	0.22373	0.092067	0.32917	0.017506	0.061869	0.074908	0.11485	0.14055	0.28606	0.0847	0.135	0.14835	0.27045	0.16137	0.22135	-1.6875	-2.6021	-2.6833	-2.1396	-2.8479	-2.7521	-2.2104	-3.1312	-2.2292	-2.5125	-3.025	-2.2208	-2.8958	-2.6604	-2.0625	-3.025	3.651	36.448	119.987	291.473	89.497	187.092	98.160	284.646	292.697	282.417	242.050	-32.748	-11.889	300.962	172.530	303.379	0.00032778	0.00047501	0.0002022	1040.3	1.7601e-06	6.631e-06	828.77	361.67	7.9546e-06	4.5194e-06	329.56	125.96	140.28	58.453	4.7094e-06	64.614	0.00099119	0.0010706	0.00029501	1046.6	1.1404e-05	1.1672e-05	833.47	366.62	1.1305e-05	1.1637e-05	334.83	127.94	142.5	59.48	1.1275e-05	65.291	289.343	-9.823	32.392	-36.270	84.532	86.059	-36.793	-30.638	153.435	126.414	-33.176	-27.893	-26.385	-22.218	106.455	-24.801	-8191	255	
23719.820	1	1	0	0	0.25654	0.14356	0.17997	0.2071	0.31451	0.29315	0.27144	0.18226	0.17446	0.18666	0.18848	0.1655	0.098511	0.16602	0.055364	0.085028	-1.925	-2.3167	-3.0625	-2.3979	-2.6917	-2.8187	-2.0312	-3.0687	-2.4625	-2.2104	-3.2083	-2.2	-2.7	-3.0208	-1.9521	-2.9396	-37.788	-43.051	309.275	221.841	97.293	-13.739	264.117	263.499	161.511	174.071	271.656	71.725	174.058	302.367	248.081	246.236	0.00026891	0.0003921	0.00020506	1045.8	7.2165e-06	1.961e-06	833.15	366.94	6.1644e-06	4.3731e-06	332.87	126.92	140.99	58.919	2.7658e-06	65.067	0.00094956	0.0010421	0.00027995	1050	1.0955e-05	1.0877e-05	838.38	368.84	1.0728e-05	1.084e-05	337.22	129.13	143.34	60.016	1.0422e-05	65.833	277.521	8.402	60.452	-36.200	81.190	85.286	-37.205	-30.816	91.961	33.277	-33.027	-27.713	-26.163	-22.101	87.568	-24.584	-8191	255	
23719.918	1	1	0	0	0.12139	0.2874	0.059016	0.21118	0.12909	0.2212	0.20585	0.19594	0.17407	0.18579	0.31493	0.21782	0.23156	0.2208	0.17319	0.23319	-1.9604	-2.2458	-3.0458	-2.2083	-2.4813	-2.9292	-1.9646	-2.8833	-2.3958	-2.1437	-3.0875	-1.9875	-2.4875	-2.9792	-2.2271	-2.9417	273.898	134.084	214.629	222.437	224.958	215.951	234.837	257.865	22.379	159.421	289.142	31.843	307.559	-28.845	170.319	241.182	0.00032519	0.00056531	0.00023815	1042.9	5.5401e-06	5.9007e-06	830.64	364.02	8.0352e-06	5.5969e-06	333.85	126.12	140.76	59.066	4.7335e-06	64.685	0.00089149	0.0009529	0.0002628	1048.2	1.0102e-05	1.0445e-05	833.16	366.87	9.9959e-06	1.0198e-05	334.7	127.95	142.44	59.95	1.0212e-05	65.617	279.509	50.093	10.071	-36.214	126.744	112.605	-36.537	-30.743	181.729	72.142	-32.627	-27.561	-25.692	-22.114	97.030	-24.547	-8191	255	
23720.037	1	1	0	0	0.049107	0.23979	0.1262	0.034266	0.043347	0.19618	0.25985	0.24891	0.093476	0.31643	0.27447	0.16206	0.016877	0.29515	0.1075	0.2044	-2.1188	-1.9771	-2.7875	-2.4354	-2.5375	-2.8833	-2.1646	-2.9229	-2.6188	-2.1771	-2.9917	-2.3958	-2.5083	-3.1021	-2.0771	-2.8958	74.149	10.394	33.394	-30.763	151.057	281.447	-47.613	302.397	207.409	304.677	233.774	224.253	-32.467	240.770	60.924	267.068	0.00035741	0.00049775	0.0002356	1043.3	5.5303e-06	5.0957e-06	832.65	363.04	7.6311e-06	6.9693e-06	330.94	126.28	140.47	58.958	9.5113e-06	65.426	0.000878	0.00093209	0.00025601	1045.9	9.9704e-06	1.0104e-05	831.14	365.78	1.0097e-05	1.0221e-05	333.42	127.87	142.41	60.024	1.0071e-05	65.994	274.115	24.072	36.909	-35.416	190.053	113.034	-36.071	-30.245	129.146	112.153	-32.457	-27.233	-25.507	-21.693	93.972	-24.072	-8191	255	
23720.135	1	1	0	0	0.16862	0.12368	0.071841	0.1384	0.10548	0.056309	0.32192	0.21556	0.10597	0.32393	0.10562	0.2722	0.22785	0.2348	0.11294	0.23687	-2.4125	-1.9208	-3.0333	-2.4604	-2.4	-3.0146	-2.1083	-2.65	-2.6708	-1.9604	-2.9458	-2.4354	-2.4562	-3.125	-2.2146	-2.6437	66.367	240.717	18.259	233.105	144.922	-15.801	291.363	272.051	75.794	221.849	243.503	288.848	54.442	286.797	262.781	208.654	0.00042612	0.00068671	0.0002478	1042.2	6.8774e-06	5.0503e-06	828.27	362.6	5.0833e-06	7.8272e-06	331.26	126.41	140.94	59.286	5.2684e-06	65.082	0.00084848	0.00091944	0.00025257	1043.8	9.777e-06	9.9199e-06	830.58	365.98	1.0028e-05	1.022e-05	334.72	128.57	142.4	60.124	1.0178e-05	66.206	272.756	30.288	46.484	-35.491	128.208	129.247	-35.877	-29.848	166.051	108.175	-32.316	-27.422	-25.663	-22.072	109.642	-24.211	-8191	255	
23720.230	1	1	0	0	0.08159	0.11407	0.23069	0.30194	0.16067	0.11582	0.2107	0.18765	0.17063	0.24165	0.26499	0.14952	0.39357	0.33847	0.069703	0.22965	-2.4125	-2.0021	-2.85	-2.6292	-2.225	-3.0854	-2.5375	-2.6979	-2.8521	-2.2062	-2.7125	-2.6417	-2.2021	-2.9896	-2.3521	-2.5062	171.542	28.323	129.227	174.829	254.303	272.558	-30.897	310.510	8.091	266.032	298.087	-17.532	286.722	303.561	104.197	302.765	0.00040424	0.00051	0.00023577	1042.6	4.9771e-06	4.2776e-06	828.79	362.9	9.3206e-06	6.0976e-06	333.13	127.73	141.13	59.541	6.6562e-06	65.544	0.00085875	0.00093764	0.00025754	1043.1	9.9953e-06	1.0088e-05	830.32	365.6	9.9565e-06	9.9938e-06	335.67	129.28	142.64	60.367	9.8689e-06	66.542	280.518	-20.111	18.902	-35.696	131.111	108.691	-36.251	-30.106	92.277	-2.384	-32.723	-27.409	-25.667	-21.653	57.996	-24.334	-8191	255	
23720.326	1	1	0	0	0.23311	0.055062	0.28033	0.10578	0.20519	0.052504	0.3939	0.077813	0.22131	0.19862	0.32022	0.20965	0.2043	0.32157	0.11567	0.14275	-2.5646	-1.9708	-2.725	-2.6708	-2.1333	-2.9958	-2.425	-2.5	-2.9062	-2.2417	-2.8042	-2.6583	-2.1813	-3.0417	-2.2729	-2.3875	108.436	292.061	177.143	260.291	111.120	156.112	257.816	252.299	71.729	153.216	292.220	195.689	292.745	-33.039	0.543	-15.350	0.00044132	0.00068117	0.00023869	1027.5	7.1329e-06	4.4289e-06	820.92	360.47	5.184e-06	4.2332e-06	329.06	126.47	139.63	58.841	6.1858e-06	65.166	0.00083666	0.0009097	0.00025199	1033.3	9.6497e-06	9.9276e-06	823.7	363.35	9.567e-06	9.8659e-06	332.46	127.88	141.53	59.914	9.5346e-06	66.067	270.129	15.011	49.426	-35.903	91.553	104.415	-36.810	-30.464	151.324	82.853	-32.415	-27.642	-25.873	-22.312	137.728	-24.924	-8191	255	
23720.422	1	1	0	0	0.21605	0.18355	0.1401	0.28686	0.045339	0.056061	0.39023	0.41511	0.1538	0.26979	0.24427	0.1701	0.22559	0.2026	0.33295	0.11773	-2.5604	-2.1125	-2.6375	-2.8292	-1.9729	-2.9562	-2.3667	-2.375	-3.0604	-2.1562	-2.5917	-2.8146	-1.9813	-2.8229	-2.4625	-2.1833	-16.398	15.191	28.634	227.358	283.914	199.885	284.909	265.127	181.325	72.770	-45.653	298.371	237.603	300.714	304.300	255.682	0.00042798	0.00057953	0.0002444	1026	2.0623e-06	6.8898e-06	821.52	358.72	5.1949e-06	2.7535e-06	328.12	126.77	139.58	59.043	7.1653e-06	65.702	0.0008313	0.00090216	0.00024309	1030.3	9.2272e-06	9.4835e-06	821.31	362.17	9.3724e-06	9.369e-06	331.58	128.22	141.28	60.072	9.086e-06	66.627	285.439	21.839	12.674	-36.673	67.028	76.064	-37.026	-30.923	124.741	117.459	-33.098	-28.071	-26.420	-22.293	152.053	-25.027	-8191	255	
23720.516	1	1	0	0	0.29407	0.13891	0.29033	0.088348	0.15138	0.063627	0.20607	0.16478	0.23842	0.024498	0.1406	0.1417	0.064569	0.17091	0.16066	0.33775	-2.5083	-2.3438	-2.6042	-3.0833	-2.0542	-2.875	-2.6708	-2.1646	-2.9542	-2.3104	-2.6688	-2.9729	-2.3917	-2.7667	-2.8625	-2.3021	252.309	52.446	-47.145	281.748	28.640	190.593	163.434	244.567	154.956	309.778	259.225	279.328	73.750	272.651	66.472	281.647	0.00036199	0.00079553	0.00024523	1029.8	8.2601e-06	6.1005e-06	819.53	359.53	1.5333e-06	4.3476e-06	330.48	128.03	140.45	59.712	6.8698e-06	66.645	0.00078674	0.00084225	0.00022688	1029.7	8.7513e-06	9.0525e-06	822.24	362.09	8.6807e-06	8.8524e-06	333.8	129.68	141.99	60.517	8.8768e-06	67.397	274.852	37.716	58.782	-36.692	110.132	91.866	-37.142	-30.748	75.786	94.742	-32.687	-28.045	-26.515	-22.344	142.511	-24.924	-8191	255	
23720.637	1	1	0	0	0.10244	0.14887	0.19452	0.20785	0.15524	0.28187	0.021718	0.21723	0.067561	0.17616	0.14857	0.29368	0.13598	0.20881	0.16385	0.15856	-2.5104	-2.2396	-2.2458	-2.8187	-1.9125	-2.7375	-2.8542	-2.0062	-2.7062	-2.1875	-2.5271	-2.975	-2.2042	-2.7	-2.8542	-2.0479	-17.163	21.255	101.043	-43.458	94.603	187.801	200.172	287.306	193.548	67.696	89.642	244.603	278.447	229.906	-10.455	186.613	0.00036662	0.00055517	0.00018994	1036.2	4.9829e-06	6.756e-06	834.23	364.08	8.0257e-06	7.5905e-06	335.81	129.68	141.82	59.779	7.8572e-06	67.037	0.00076917	0.00081413	0.00023057	1040.8	8.9454e-06	9.0514e-06	835.9	367.68	9.1051e-06	9.2391e-06	338.16	130.94	143.69	60.884	9.1636e-06	67.744	277.922	9.705	27.161	-36.586	129.691	91.820	-37.108	-31.137	148.566	100.624	-32.968	-27.824	-26.293	-22.261	128.619	-24.992	-8191	255	
23720.732	1	1	0	0	0.29042	0.30759	0.13233	0.098019	0.21602	0.16566	0.29581	0.1138	0.21038	0.11879	0.079633	0.21475	0.056873	0.3163	0.14117	0.15996	-2.4917	-2.2521	-2.0417	-3.075	-2.2625	-2.3187	-3.0542	-2.0604	-2.875	-2.5083	-2.2062	-2.8854	-2.0354	-2.5396	-2.8771	-2.1604	-22.997	5.912	301.728	249.962	196.407	8.923	267.827	238.413	190.354	134.135	227.644	236.722	-23.770	241.455	69.295	261.011	0.00035751	0.00082212	0.00014606	1044.1	7.1511e-06	6.7634e-06	823.68	359.8	2.7393e-06	3.5128e-06	329.2	126.72	137.85	58.478	2.513e-06	65.879	0.00078731	0.00081928	0.00022714	1044.6	8.6093e-06	8.6397e-06	828.34	362.56	8.4773e-06	8.4003e-06	332.48	128.59	139.54	59.481	8.2252e-06	66.681	267.488	-0.215	43.643	-36.597	131.129	87.522	-37.153	-31.008	109.212	113.977	-33.085	-27.862	-26.365	-22.267	164.257	-24.943	-8191	255	
23720.828	1	1	0	0	0.084917	0.073084	0.15764	0.086547	0.22234	0.12896	0.39957	0.16231	0.22114	0.13744	0.10833	0.18327	0.14203	0.317	0.25134	0.060591	-2.425	-2.3937	-1.9729	-3.1354	-2.2396	-2.4375	-2.8604	-2.1979	-2.7792	-2.5417	-2.2333	-3.0375	-2.4458	-2.4583	-2.9479	-2.1333	257.917	93.141	-16.753	128.561	302.722	174.136	259.955	296.435	29.513	46.009	-35.641	243.548	247.143	288.285	186.420	256.979	0.00038056	0.00042251	0.00021348	1031.2	3.958e-06	4.1065e-06	813.48	354.93	4.6136e-06	8.2013e-06	327.96	126.72	137.02	58.204	3.687e-06	65.787	0.00073162	0.00075589	0.00021221	1031.4	8.0149e-06	8.0289e-06	817.05	357.38	7.8823e-06	8.0024e-06	330.72	128.31	138.28	59.113	7.8926e-06	66.668	284.728	47.301	39.396	-36.439	136.534	107.669	-37.079	-30.884	174.549	100.236	-33.000	-27.731	-26.209	-22.127	-5.420	-24.921	-8191	255	
23720.926	1	1	0	0	0.21868	0.24099	0.13536	0.33248	0.08999	0.093653	0.2718	0.17986	0.069839	0.10652	0.11688	0.32646	0.066289	0.40737	0.26252	0.12504	-2.2042	-2.5854	-1.9708	-3	-2.1896	-2.2604	-3.0833	-2.4604	-2.6688	-2.7687	-2.2417	-3.0396	-2.4062	-2.4688	-2.9625	-2.2708	77.841	37.196	73.987	-35.326	78.897	282.510	288.487	16.055	110.698	84.022	268.676	223.362	259.122	285.197	277.943	271.884	0.00034951	0.00043897	0.00019968	1043.4	8.5032e-06	5.2708e-06	831.71	365.08	4.5939e-06	5.0676e-06	335.68	128.57	140.83	59.792	7.2015e-06	67.145	0.00068678	0.00071516	0.00019838	1044.5	7.7245e-06	7.7435e-06	832.08	367.3	7.7359e-06	7.9433e-06	337.69	129.95	141.78	60.654	7.8736e-06	68.047	285.998	25.985	63.092	-36.211	84.873	113.545	-37.070	-31.206	118.879	163.260	-32.912	-27.736	-26.188	-22.393	97.384	-24.863	-8191	255	
23721.047	1	1	0	0	0.099153	0.12034	0.088492	0.34882	0.11459	0.22136	0.12751	0.079228	0.087678	0.039318	0.12789	0.19413	0.30074	0.32288	0.05389	0.16127	-2.0271	-2.725	-2.0833	-2.9208	-2.4	-2.1333	-3.1021	-2.3479	-2.4229	-2.9813	-2.0792	-2.925	-2.7375	-2.2125	-2.9146	-2.3271	237.016	155.955	146.352	234.807	193.428	122.124	193.420	39.181	278.218	264.698	228.301	216.211	255.111	255.653	234.462	218.981	0.00037861	0.00053882	6.6651e-05	1080.6	7.3912e-06	3.9687e-06	851.52	375.1	4.188e-06	3.3151e-06	341.38	130.84	141.77	60.43	5.9024e-06	68.016	0.00070578	0.00072086	0.00020397	1080.6	7.7451e-06	8.0221e-06	851.93	376.98	7.6431e-06	7.8682e-06	342.7	131.78	143.29	61.311	7.7821e-06	68.864	282.148	3.193	27.076	-36.394	108.287	74.415	-37.027	-31.119	118.062	77.992	-32.962	-27.738	-26.406	-22.176	136.294	-24.827	-8191	255	
23721.117	1	1	0	0	0.3621	0.038704	0.18571	0.43138	0.06764	0.13733	0.2513	0.17138	0.32314	0.22029	0.086616	0.18198	0.053249	0.2489	0.21235	0.04326	-2.0521	-2.9396	-1.9854	-2.9062	-2.5208	-2.1667	-3.1083	-2.4938	-2.325	-2.8063	-1.9958	-2.7042	-2.7083	-2.3	-2.8896	-2.275	125.189	-28.103	17.799	254.046	52.525	56.118	259.379	298.871	146.401	-38.065	221.609	283.381	119.602	298.421	268.805	282.291	0.00042774	0.00072239	0.00023157	1077.5	3.8076e-06	5.7722e-06	849.6	374.99	9.3645e-06	3.4064e-06	340.76	129.99	140.7	60.102	7.4352e-06	67.897	0.00068652	0.00069298	0.00019655	1079.2	7.5452e-06	7.5962e-06	850.67	377.07	7.5718e-06	7.4897e-06	342.73	131.43	142.16	61.092	7.4795e-06	68.632	260.591	77.411	21.035	-36.382	137.183	115.135	-36.983	-31.304	131.917	136.437	-33.169	-27.953	-26.549	-22.207	107.298	-24.998	-8191	255	
23721.215	1	1	0	0	0.15454	0.21832	0.1826	0.30458	0.057557	0.15895	0.24707	0.15654	0.2059	0.058081	0.090095	0.027066	0.10378	0.1183	0.33893	0.2522	-1.8146	-2.7062	-2.15	-2.7313	-2.6688	-2.1188	-2.9042	-2.5521	-2.2042	-3.0375	-2.2521	-2.8958	-2.9813	-2.1875	-2.9479	-2.8063	146.392	216.065	-36.137	256.429	164.804	88.558	283.045	297.692	266.037	272.023	184.591	-12.996	35.851	50.686	26.578	231.930	0.00039589	0.00072965	0.00022641	1073.6	7.0817e-06	3.3965e-06	843.06	373.32	3.3007e-06	4.3304e-06	340.12	128.41	140.59	60.007	5.1331e-06	67.641	0.0006663	0.00067525	0.00019296	1072.3	7.3222e-06	7.4914e-06	846.64	375.22	7.5709e-06	7.5326e-06	341.32	129.99	141.64	60.913	7.6403e-06	68.376	277.308	-4.774	34.842	-36.729	130.300	90.094	-37.223	-31.383	111.059	115.854	-33.012	-27.603	-26.326	-22.253	137.668	-25.011	-8191	255	
23721.311	1	1	0	0	0.084424	0.28571	0.37911	0.13057	0.1959	0.096494	0.12306	0.051997	0.16614	0.17102	0.14857	0.22169	0.19958	0.078503	0.17341	0.24717	-1.6979	-2.9146	-2.0958	-2.5104	-2.8646	-1.8646	-2.9854	-2.7375	-2.0792	-3.025	-2.2646	-2.6354	-3.1875	-2.2792	-3.0979	-2.8	217.887	206.738	94.760	231.643	190.200	172.713	-7.026	221.037	222.735	26.439	42.617	254.085	208.211	246.181	-36.898	169.579	0.00037504	0.00073516	0.00016941	1077	3.3632e-06	6.1093e-06	853.72	375.18	2.3419e-06	7.0803e-06	337.75	128.79	141.34	60.737	7.6404e-06	68.077	0.00069037	0.00072469	0.00019645	1078.5	7.8057e-06	8.0821e-06	853.21	377.2	7.9044e-06	7.9818e-06	342.56	130.75	142.61	61.617	8.3596e-06	69.002	271.084	23.786	50.512	-36.294	124.911	91.220	-37.020	-31.344	2.368	92.963	-33.105	-27.825	-26.391	-22.182	120.165	-24.929	-8191	255	
23721.430	1	1	0	0	0.24581	0.14532	0.17962	0.2406	0.066221	0.03919	0.33093	0.13385	0.20452	0.28261	0.28475	0.32278	0.1794	0.062057	0.02588	0.3639	-1.8458	-2.8479	-2.2854	-2.7104	-2.8667	-2.0687	-3.0625	-2.8063	-2.0729	-2.8458	-2.4083	-2.3104	-3.0312	-2.2917	-2.6792	-2.7917	298.775	192.894	88.090	267.958	217.585	210.360	282.287	281.778	175.179	227.237	256.690	225.476	262.821	224.772	35.920	306.068	0.00042735	0.00044309	0.00014253	1087.7	1.0072e-05	6.623e-06	856.15	376.86	5.6721e-06	7.9778e-06	342.5	130.48	143.08	61.605	5.7877e-06	68.817	0.00072552	0.00074889	0.0002132	1087.9	8.4864e-06	8.6368e-06	857.91	380.02	8.6083e-06	8.8063e-06	344.57	131.91	144.74	62.454	9.1436e-06	69.683	275.523	42.338	47.654	-36.488	115.175	64.771	-37.454	-31.053	132.101	105.872	-33.118	-28.239	-26.419	-22.196	88.432	-25.057	-8191	255	
23721.525	1	1	0	0	0.20191	0.13262	0.15385	0.14858	0.20414	0.17923	0.23287	0.37265	0.22534	0.24832	0.10553	0.029843	0.10221	0.26275	0.16601	0.055525	-1.7854	-2.9125	-2.575	-2.4479	-3.05	-2.3688	-2.8729	-3.0479	-2.1729	-2.8354	-2.4375	-2.025	-3.1042	-2.1104	-2.4167	-2.8458	239.972	135.630	228.672	206.357	205.216	123.827	156.081	-20.801	199.115	-27.937	97.339	265.041	200.970	253.410	-0.095	146.280	0.00048239	0.00043451	9.682e-05	1101.2	5.5061e-06	3.3727e-06	859.49	380.79	9.1721e-06	6.197e-06	340.45	129.72	143.32	62.09	8.9829e-06	68.726	0.00080652	0.00084428	0.00023097	1103.2	9.09e-06	9.3499e-06	862.1	383.3	9.379e-06	9.5323e-06	343.42	131.6	145.33	62.939	9.4707e-06	69.604	279.910	10.226	-1.323	-36.665	93.611	76.217	-37.148	-31.244	113.647	90.868	-33.119	-27.941	-26.329	-22.538	131.139	-25.247	-8191	255	
23721.621	1	1	0	0	0.16073	0.13746	0.16125	0.20876	0.2071	0.037214	0.28421	0.16198	0.25424	0.12205	0.19035	0.18744	0.25165	0.046123	0.12333	0.084249	-1.6292	-2.8063	-2.5271	-2.3229	-2.9771	-2.3563	-2.7188	-2.8812	-2.0354	-3.0396	-2.7021	-1.9917	-3.1354	-2.5396	-2.3063	-3.0354	89.846	69.497	283.399	261.996	16.948	142.444	208.266	12.471	86.600	-21.020	187.977	210.288	-48.557	-35.689	115.165	171.126	0.00047571	0.00045272	0.00019906	1091.2	6.8103e-06	3.4138e-06	853.6	379.15	7.2344e-06	5.8213e-06	339.05	130.15	144.29	62.441	8.4517e-06	69.043	0.00079771	0.00084944	0.00023094	1094.9	8.9202e-06	8.9332e-06	855.54	381.77	8.8246e-06	9.0673e-06	342.77	131.78	145.78	63.358	9.2879e-06	70.069	279.807	30.723	28.828	-36.476	85.867	120.459	-36.991	-31.270	177.554	100.479	-33.071	-27.923	-26.283	-22.495	113.125	-24.879	-8191	255	
23721.717	1	1	0	0	0.10533	0.28761	0.24366	0.13937	0.17449	0.21994	0.081838	0.27334	0.14908	0.17104	0.30219	0.17065	0.1207	0.13067	0.085701	0.40256	-1.625	-2.7687	-2.8104	-2.4333	-2.6604	-2.2229	-2.3792	-3.1292	-2.1688	-2.6688	-2.7875	-2.1604	-3.0312	-2.475	-2.2229	-2.8688	142.754	215.001	-14.311	-44.040	281.849	129.513	186.912	236.078	76.555	166.080	243.346	-11.936	-25.854	200.331	-46.079	188.409	0.00037867	0.00072317	0.00015547	1094.9	4.7935e-06	9.7829e-06	857.58	379.29	7.0579e-06	9.1651e-06	342.6	131.17	144.12	62.761	5.1561e-06	70.153	0.00079386	0.00083529	0.00023075	1097.6	9.097e-06	9.3598e-06	858.62	382.35	9.0859e-06	9.1204e-06	344.49	132.62	146.1	63.742	9.1964e-06	70.775	270.653	45.809	30.303	-36.593	92.407	88.149	-37.041	-31.104	124.832	128.812	-33.001	-27.984	-26.394	-22.484	161.660	-24.772	-8191	255	
23721.814	1	1	0	0	0.30623	0.095517	0.17951	0.17314	0.041095	0.16919	0.1749	0.12375	0.18081	0.18523	0.20688	0.1365	0.43204	0.23076	0.26759	0.30992	-1.7479	-2.5729	-2.8042	-2.2479	-2.9646	-2.4708	-2.3479	-3.1437	-2.2583	-2.3625	-2.9729	-2.2146	-2.9813	-2.8146	-2.3354	-3.1333	182.661	309.861	6.307	215.535	111.217	235.111	82.465	20.226	56.251	-25.954	302.471	-14.771	-39.713	309.425	192.077	280.542	0.00043898	0.00040615	0.00021986	1098.9	4.475e-06	7.6497e-06	859.91	379.8	4.5521e-06	3.4534e-06	343.15	131.48	144.6	62.856	4.5911e-06	70.638	0.00077907	0.00082828	0.0002273	1099.2	8.8985e-06	9.0191e-06	860.51	382.34	8.5922e-06	8.8803e-06	346.54	133.3	145.98	63.883	8.4745e-06	71.4	288.316	20.382	53.250	-36.390	152.836	89.966	-37.117	-31.396	136.210	157.226	-33.361	-27.654	-26.144	-22.010	175.984	-24.852	-8191	255	
23721.910	1	1	0	0	0.062606	0.12991	0.34914	0.10662	0.18244	0.13652	0.25723	0.21738	0.1986	0.22301	0.025021	0.22559	0.12981	0.22107	0.064438	0.18902	-1.8292	-2.4354	-2.7896	-2.2458	-2.7833	-2.5708	-2.275	-3.1042	-2.4271	-2.425	-3.0542	-2.1146	-2.9646	-2.9	-2.2917	-2.9854	302.962	135.544	164.947	269.780	-40.797	-4.710	281.389	182.266	288.854	154.990	21.850	1.773	-36.692	-28.545	237.720	260.684	0.00047856	0.00048568	0.00018512	1091.2	6.1149e-06	5.9245e-06	862.26	382.11	6.1045e-06	3.9496e-06	344.19	131.55	144.69	62.667	7.8512e-06	70.558	0.00076561	0.00079109	0.00021844	1093.6	8.499e-06	8.5002e-06	861.36	383.16	8.5122e-06	8.453e-06	346.97	133.18	145.96	63.739	8.2834e-06	71.277	262.094	32.947	11.205	-36.191	119.767	89.344	-37.139	-31.203	151.989	135.499	-32.785	-27.756	-26.124	-22.474	122.928	-25.358	-8191	255	
23722.006	1	1	0	0	0.30644	0.14777	0.12931	0.25914	0.12262	0.10417	0.21313	0.13742	0.1818	0.15032	0.31112	0.065428	0.19312	0.13941	0.099963	0.10794	-1.9417	-2.3979	-2.9542	-2.1583	-2.5646	-3.0167	-2.2333	-3	-2.2646	-2.2542	-3.0354	-2.0687	-2.8583	-3.0479	-2.1271	-2.9938	257.216	-8.784	41.203	300.582	262.229	295.234	238.490	158.928	130.524	54.624	205.051	253.615	278.754	246.351	229.500	277.183	0.00035798	0.00068092	0.00017124	1084.5	7.3271e-06	7.143e-06	851.23	378.61	2.7787e-06	4.4491e-06	343.85	133.05	144.65	63.267	1.074e-06	71.41	0.00073384	0.0007633	0.00020593	1082.6	7.9759e-06	8.0685e-06	852.17	381.15	7.8685e-06	8.1198e-06	346.66	133.86	146.08	64.282	7.941e-06	72.053	273.291	48.870	49.335	-36.680	135.327	105.030	-37.230	-31.143	101.202	52.944	-33.157	-28.041	-26.440	-22.338	86.811	-25.004	-8191	255	
23722.127	1	1	0	0	0.23409	0.17085	0.27467	0.20402	0.20328	0.068014	0.13973	0.13135	0.091817	0.17944	0.17183	0.3509	0.11352	0.14294	0.20701	0.39487	-2.0687	-2.2083	-2.9771	-2.4	-2.6917	-2.9375	-2.1854	-2.8354	-2.5292	-2.1792	-2.9896	-2.4479	-2.6229	-3.1083	-2.0167	-3.0208	287.652	-40.895	162.044	273.925	-21.838	260.710	21.960	-31.425	13.454	197.004	307.874	294.135	240.285	268.665	20.522	257.325	0.00042732	0.00056793	0.00014275	1079.9	1.2907e-06	7.4688e-06	851.94	379.71	3.6862e-06	6.974e-06	346.69	134.11	145.91	63.951	5.6555e-06	72.149	0.00070842	0.00074376	0.00020409	1079.1	7.9298e-06	8.0216e-06	855.47	382.01	8.1094e-06	8.2137e-06	348.8	135.07	147.2	64.73	8.2921e-06	72.692	278.224	3.433	42.465	-36.772	14.297	111.292	-37.236	-31.377	132.685	105.569	-32.915	-28.219	-26.385	-22.680	119.484	-24.935	-8191	255	
23722.223	1	1	0	0	0.19584	0.16432	0.25746	0.17975	0.21231	0.31294	0.15696	0.19546	0.2062	0.098179	0.063889	0.067562	0.55721	0.22862	0.33186	0.054931	-2.35	-2.0646	-2.9333	-2.4313	-2.575	-2.8333	-2.3271	-2.5979	-2.5438	-2.1458	-3.0542	-2.5312	-2.425	-2.9646	-2.2188	-2.7	26.247	178.785	15.454	180.146	302.518	20.822	253.896	241.402	169.452	86.724	164.172	286.316	296.383	181.305	15.248	265.372	0.00053644	0.0004389	0.00028106	1080.3	5.7998e-06	4.9218e-06	862.69	380.49	6.104e-06	5.7695e-06	347.93	134.59	146.64	64.487	8.0188e-06	72.747	0.00071353	0.00076115	0.00020823	1083.2	8.3307e-06	8.374e-06	862.13	383.14	8.1451e-06	8.4476e-06	351.06	136.12	148.24	65.388	8.3079e-06	73.54	286.932	22.204	40.530	-36.660	103.491	62.666	-37.449	-31.263	126.707	122.606	-33.166	-28.375	-26.407	-22.573	106.511	-25.296	-8191	255	
23722.318	1	1	0	0	0.07154	0.11134	0.13191	0.37487	0.11081	0.22437	0.16116	0.25304	0.23015	0.082756	0.21696	0.1346	0.30668	0.07568	0.1477	0.24232	-2.4688	-2.0708	-2.875	-2.4604	-2.2146	-2.8458	-2.2917	-2.8479	-2.7104	-2.0062	-2.8979	-2.3708	-2.3208	-2.9979	-2.2729	-2.5958	110.576	164.163	82.853	273.902	23.322	3.335	9.702	195.603	160.433	132.769	202.586	271.000	274.091	56.092	281.688	256.799	0.00043343	0.00045794	0.0001381	1087.2	8.0337e-06	8.9766e-06	867.71	383.96	6.4128e-06	7.0178e-06	349.02	134.83	146.8	64.827	5.4512e-06	72.853	0.00073925	0.0007559	0.00021207	1089.5	8.1472e-06	8.2687e-06	867.02	385.2	8.1073e-06	8.3814e-06	351.85	136.61	148.78	65.825	8.3413e-06	73.581	277.937	16.629	36.309	-36.695	109.665	100.280	-37.193	-31.135	160.345	94.716	-33.051	-28.299	-26.706	-22.711	125.845	-25.195	-8191	255	
23722.412	1	1	0	0	0.17981	0.15287	0.16861	0.22721	0.036738	0.13792	0.11504	0.36059	0.1468	0.20558	0.073251	0.11603	0.28194	0.12251	0.063466	0.095567	-2.5083	-1.9271	-2.8417	-2.825	-2.0729	-3.0104	-2.3667	-2.6146	-2.7021	-2.0333	-2.8229	-2.6167	-2.2333	-3.1833	-2.2333	-2.4521	68.181	134.188	221.607	261.817	178.597	81.773	293.693	269.810	175.489	278.434	299.074	279.905	271.585	-9.999	255.389	245.385	0.00041154	0.0011926	0.00023606	1085.8	4.8132e-06	4.7603e-06	864.19	383.8	7.522e-06	5.9594e-06	348.49	134.81	147.71	65.062	7.5028e-06	72.868	0.00073337	0.00075914	0.00020844	1088.8	8.2178e-06	8.1618e-06	863.7	384.82	8.0788e-06	8.3163e-06	350.44	136.27	148.99	65.912	8.3153e-06	73.562	287.637	34.479	31.119	-36.755	123.433	109.288	-37.383	-31.327	100.035	106.533	-33.616	-28.020	-26.470	-22.473	126.209	-25.432	-8191	255	
23722.510	1	1	0	0	0.1207	0.33617	0.3159	0.33716	0.074041	0.12135	0.30548	0.12722	0.12374	0.080248	0.13406	0.29994	0.19405	0.18489	0.26368	0.16606	-2.6792	-2.0583	-2.775	-2.9313	-1.9979	-3.0229	-2.4313	-2.2375	-2.7188	-2.1167	-2.6708	-2.8104	-2.1667	-3.0458	-2.3542	-2.4792	209.247	75.441	-46.393	-34.745	64.038	226.367	182.976	305.039	49.875	-48.189	34.506	297.322	269.101	-25.628	-19.226	-1.522	0.00041868	0.00064388	0.00017357	1090.7	5.9555e-06	4.8804e-06	865.47	382.63	4.9117e-06	4.6334e-06	347.62	135.54	147.21	64.927	8.3607e-06	72.691	0.00073719	0.00077249	0.00021011	1090.9	8.2731e-06	8.3115e-06	863.97	384.86	8.2421e-06	8.2488e-06	350.74	136.79	148.98	65.866	8.6605e-06	73.665	278.671	24.443	48.222	-36.766	107.849	106.194	-37.547	-31.197	175.043	120.923	-33.141	-28.192	-26.389	-22.541	115.270	-25.257	-8191	255	
23722.605	1	1	0	0	0.17896	0.32038	0.23357	0.29027	0.20797	0.20042	0.18645	0.20135	0.13852	0.067734	0.090414	0.20326	0.095225	0.30039	0.065556	0.15165	-2.8021	-2.3083	-2.5917	-2.8125	-2.0312	-2.7938	-2.7021	-2.3958	-2.9562	-2.35	-2.55	-2.9437	-2.1854	-2.9708	-2.5021	-2.3083	141.655	183.727	135.742	252.579	93.077	39.832	292.684	280.458	138.120	68.281	189.225	197.483	43.196	283.599	8.954	223.854	0.0004627	0.00066801	0.00019097	1091.5	7.2356e-06	4.4073e-06	865.15	382.49	2.242e-06	7.2736e-06	348.08	136.19	147.77	65.019	9.9727e-06	72.873	0.00074738	0.00079734	0.00021504	1092.3	8.3435e-06	8.5953e-06	867.36	385.12	8.4004e-06	8.7802e-06	351.5	137.42	149.4	66.009	8.6155e-06	73.868	273.519	48.503	5.785	-36.639	118.622	87.196	-37.378	-31.363	95.867	123.267	-33.199	-27.852	-26.504	-22.504	96.463	-25.180	-8191	255	
23722.727	1	1	0	0	0.17519	0.10281	0.2582	0.11101	0.11751	0.21713	0.25163	0.43381	0.28159	0.16112	0.089545	0.13854	0.3223	0.23511	0.20399	0.32616	-2.4271	-2.1396	-2.3979	-2.925	-2.0187	-2.9167	-2.8229	-1.9896	-2.8958	-2.225	-2.5896	-2.875	-2.3688	-2.8417	-2.8458	-2.1188	106.698	185.916	47.453	206.824	272.898	258.713	264.383	245.389	142.362	249.245	250.722	-35.408	247.656	184.745	66.951	199.201	0.00048485	0.00073284	0.0002577	1095.6	6.4672e-06	5.3898e-06	868.02	383.76	6.6931e-06	4.9214e-06	351.69	135.6	148.06	65.113	6.3108e-06	72.902	0.00076199	0.00077746	0.00021678	1095.6	8.5669e-06	8.8059e-06	869.65	386.2	8.5637e-06	8.7038e-06	352.74	137.11	149.35	65.908	8.6607e-06	73.641	263.901	23.358	36.159	-36.342	113.325	91.684	-37.219	-31.070	147.208	70.041	-33.041	-27.973	-26.391	-22.542	144.764	-25.091	-8191	255	
23722.822	1	1	0	0	0.086309	0.22707	0.071553	0.077555	0.10163	0.23629	0.070776	0.1558	0.09142	0.26157	0.17725	0.40027	0.12301	0.14457	0.27944	0.087223	-2.6521	-2.3833	-2.2708	-3.0167	-2.1937	-2.7667	-2.8312	-2.2292	-2.9833	-2.2917	-2.3542	-3.0521	-2.2083	-2.7625	-2.7208	-2.2812	-21.162	109.106	78.151	180.249	-12.384	-18.761	191.495	192.391	167.403	225.852	266.172	28.527	310.491	-47.588	222.885	242.904	0.00036746	0.00086746	0.00015306	1087.4	6.7056e-06	7.0525e-06	862.27	380.66	2.8604e-06	9.4302e-06	346.3	134.85	146.91	64.684	3.1216e-06	72.702	0.00076184	0.00079231	0.00021949	1091.6	8.7354e-06	8.7863e-06	862.58	383.61	8.6126e-06	8.7875e-06	349.26	136.16	148.68	65.599	8.7505e-06	73.397	281.039	8.768	42.879	-36.434	134.065	131.335	-36.738	-30.972	146.200	105.004	-33.288	-28.049	-26.405	-22.178	123.545	-24.742	-8191	255	
23722.918	1	1	0	0	0.20727	0.18213	0.039636	0.22342	0.081057	0.19308	0.21925	0.11651	0.050898	0.27186	0.11089	0.23469	0.089668	0.097388	0.099949	0.17103	-2.4958	-2.2958	-2.2979	-3.2354	-2.2333	-2.6688	-2.8708	-2.0792	-2.9333	-2.5167	-2.2687	-3.1354	-2.3979	-2.5625	-3.0104	-2.1833	11.777	219.531	213.066	301.647	249.079	72.132	243.782	306.684	166.799	150.407	188.592	247.040	235.436	299.363	22.243	180.317	0.00037407	9.9295e-05	0.00014732	1088.9	7.5442e-06	2.1505e-06	865.91	381.22	3.5408e-06	5.6136e-06	348.45	134.75	147.07	64.787	2.0813e-06	72.533	0.0007546	0.00079354	0.00022194	1090.6	8.6956e-06	8.775e-06	863.5	384.09	8.6971e-06	8.6746e-06	350.12	136.34	148.68	65.66	8.7971e-06	73.334	268.213	60.571	45.881	-36.320	69.155	84.436	-36.967	-30.978	118.937	95.714	-32.634	-27.536	-26.044	-21.934	102.866	-24.585	-8191	255	
23722.990	1	1	0	0	0.22114	0.11344	0.12546	0.19642	0.12561	0.087733	0.37824	0.37947	0.18395	0.5219	0.31493	0.22693	0.085935	0.11956	0.17159	0.32285	-2.5646	-2.6375	-2.3771	-2.9688	-2.3563	-2.5458	-3.0646	-2.2458	-2.7021	-2.6021	-2.2333	-2.9542	-2.4188	-2.3937	-3.1125	-2.2667	234.243	156.113	217.748	289.214	122.613	257.895	230.107	238.264	84.480	21.853	275.482	294.986	291.632	0.655	145.321	278.454	0.00035424	0.00063457	0.00022884	1090.1	2.9637e-06	3.4923e-06	864.64	382.13	6.1833e-06	4.6466e-06	350.66	135.15	147.83	64.822	7.6626e-06	72.518	0.00077057	0.00081524	0.00022537	1093	8.7155e-06	8.773e-06	865.3	384.13	8.6822e-06	8.8942e-06	351.6	136.95	149.05	65.743	8.6968e-06	73.517	269.858	36.296	76.944	-36.126	97.881	121.617	-36.712	-30.920	110.970	118.722	-32.284	-27.210	-25.723	-21.787	122.383	-24.687	-8191	255	
23723.111	1	1	0	0	0.14782	0.27242	0.065477	0.15041	0.12987	0.084293	0.1667	0.16458	0.071258	0.16468	0.22494	0.21381	0.21534	0.22008	0.11715	0.19665	-2.3875	-2.6958	-2.0812	-3.1792	-2.5292	-2.3771	-3.2562	-2.3833	-2.6813	-2.7979	-2.2875	-3.0104	-2.8271	-2.4562	-3.1354	-2.4604	154.943	107.743	-42.291	268.133	57.575	121.201	238.838	271.891	65.778	297.861	178.706	213.331	94.554	262.350	277.203	136.021	0.00047392	0.00073143	0.00021714	1098.7	7.835e-06	4.1225e-06	869.05	383.37	8.6566e-06	6.5666e-06	348.5	135.73	147.54	64.446	6.9818e-06	72.085	0.00077858	0.00080117	0.0002273	1096.3	8.6755e-06	8.9889e-06	867.78	385.12	8.873e-06	8.9785e-06	350.68	136.59	148.94	65.542	8.8708e-06	73.1	277.042	22.833	52.708	-35.697	95.392	107.989	-36.197	-30.198	95.193	126.886	-32.546	-27.258	-25.793	-21.410	109.349	-24.135	-8191	255	
23723.207	1	1	0	0	0.34629	0.28301	0.18239	0.024255	0.13922	0.10726	0.1039	0.076693	0.23807	0.12708	0.27664	0.2412	0.13941	0.23847	0.12561	0.12652	-2.1	-2.8542	-2.0563	-2.9792	-2.4417	-2.1958	-3.3708	-2.4208	-2.5125	-2.9813	-2.2313	-2.9333	-2.775	-2.3417	-2.9104	-2.6	-25.458	109.619	206.440	178.980	133.902	66.406	258.865	-46.383	236.086	213.443	-2.399	222.710	233.552	239.625	217.873	181.169	0.000412	0.00090484	0.00011782	1088.2	4.2754e-06	5.9781e-06	865.1	380.55	5.2838e-06	4.9691e-06	342.13	133.49	146.25	64.35	5.3317e-06	71.55	0.00079412	0.00080692	0.00022928	1091	8.9482e-06	9.0665e-06	862.41	382.06	8.9648e-06	9.0507e-06	347.25	134.85	147.94	65.289	9.155e-06	72.355	276.448	54.057	57.720	-35.804	165.966	110.510	-36.325	-30.194	154.540	109.398	-32.806	-27.679	-26.286	-22.150	160.147	-24.988	-8191	255	
23723.303	1	1	0	0	0.04347	0.26183	0.27957	0.41818	0.19272	0.15578	0.1335	0.12241	0.27461	0.21374	0.24189	0.052801	0.18111	0.17494	0.091491	0.12625	-1.9583	-2.8875	-1.9729	-2.95	-2.5583	-2.35	-3.2208	-2.4792	-2.4	-3.0917	-2.2667	-2.9396	-2.8479	-2.1729	-2.9188	-2.5917	298.250	83.594	-34.524	301.734	155.108	309.452	281.287	-20.763	136.405	213.102	257.009	303.683	299.004	218.400	118.924	18.283	0.00047301	0.00042221	0.00023804	1093.8	4.3915e-06	6.6759e-06	857.67	378.77	6.7003e-06	4.8178e-06	343.99	132.71	145.88	64.399	6.6129e-06	71.817	0.00080363	0.00085716	0.00023522	1093	9.2878e-06	9.294e-06	860.97	381.76	9.2421e-06	9.3544e-06	346.63	135.01	147.99	65.283	9.2243e-06	72.736	276.456	9.375	47.174	-36.431	106.651	124.025	-37.293	-31.223	114.006	120.771	-33.053	-28.033	-26.768	-22.553	126.021	-25.042	-8191	255	
23723.398	1	1	0	0	0.29539	0.11413	0.055407	0.44084	0.27877	0.24952	0.11624	0.19738	0.049247	0.11439	0.23329	0.33371	0.27624	0.37912	0.13138	0.10318	-2.0521	-3.0292	-2.0292	-2.8042	-2.7042	-2.0812	-2.9313	-2.775	-2.1083	-2.8979	-2.2646	-2.6979	-2.8063	-2.1562	-2.9104	-2.6875	181.964	1.957	261.008	283.891	294.783	256.929	272.705	246.714	140.368	46.625	-46.624	276.102	267.717	289.953	-33.450	144.976	0.00048089	0.00031396	0.00018091	1086	7.2881e-06	4.3392e-06	861.78	378.99	9.3619e-06	6.4993e-06	344.5	133.37	146.53	64.437	4.8571e-06	71.829	0.00080442	0.00084431	0.00023691	1086.7	9.2812e-06	9.3801e-06	862.46	381.83	9.337e-06	9.3998e-06	347.66	135.43	148.35	65.424	9.5275e-06	72.815	277.942	6.765	28.224	-36.554	80.599	60.402	-36.968	-31.419	161.202	103.839	-33.451	-28.169	-26.732	-22.471	118.631	-25.088	-8191	255	
23723.518	1	1	0	0	0.16776	0.043682	0.4034	0.22004	0.23468	0.080692	0.29	0.24285	0.12034	0.27155	0.1134	0.028052	0.30251	0.30233	0.16188	0.19771	-1.8771	-2.9229	-2.2062	-2.7562	-2.8854	-2.1833	-3.0125	-2.6354	-2.1063	-3.2292	-2.2625	-2.6667	-2.9625	-2.3063	-2.9521	-2.6667	-8.887	78.707	225.292	4.314	-46.244	285.499	299.578	252.560	104.965	-13.183	269.684	117.745	211.609	-46.439	220.649	115.344	0.00039525	0.00071684	0.00023573	1088.4	8.2405e-06	3.1855e-06	859.42	380.05	7.7355e-06	4.1543e-06	344.97	134.29	146.19	64.39	3.7584e-06	71.87	0.00083623	0.0008658	0.00024263	1090.9	9.338e-06	9.5701e-06	862.51	382.56	9.4014e-06	9.4086e-06	347.8	135.87	148.21	65.358	9.3355e-06	72.654	272.432	33.481	26.015	-36.444	105.759	47.149	-37.163	-31.421	145.453	103.658	-32.826	-27.802	-26.307	-22.429	82.835	-25.313	-8191	255	
23723.590	1	1	0	0	0.1112	0.22134	0.16351	0.064479	0.18549	0.15965	0.28294	0.14818	0.19534	0.17063	0.13736	0.071398	0.323	0.40301	0.29998	0.28806	-1.8188	-3.0875	-2.2021	-2.5146	-2.9896	-2.3604	-2.9417	-2.7938	-2.0771	-3.1271	-2.4375	-2.3854	-3.05	-2.2208	-2.6813	-2.9917	270.510	243.731	96.141	-46.392	59.276	183.862	156.133	-40.635	100.284	140.830	0.229	297.689	251.702	-35.593	180.731	-12.320	0.00042689	0.00068583	0.00021955	1087.6	6.8033e-06	4.5469e-06	856.71	377.67	6.678e-06	8.2576e-06	342.12	132.3	145.36	64.083	6.401e-06	71.375	0.00081478	0.00085422	0.00023845	1090.7	9.4829e-06	9.6424e-06	858.85	380.95	9.3878e-06	9.5718e-06	344.98	134.21	147.54	65.042	9.5676e-06	72.013	293.862	51.881	46.141	-36.287	120.221	101.305	-37.007	-31.193	115.196	99.776	-33.349	-27.811	-26.430	-22.480	105.983	-24.951	-8191	255	
23723.688	1	1	0	0	0.23103	0.075212	0.16595	0.04054	0.09664	0.27382	0.12749	0.17456	0.19	0.13135	0.1186	0.086141	0.073382	0.25237	0.12604	0.22937	-1.825	-2.9104	-2.3563	-2.3812	-2.9958	-2.1583	-2.7562	-2.9813	-2.0333	-2.8583	-2.65	-2.4396	-3.1021	-2.4479	-2.6396	-3.0771	235.602	4.702	147.457	93.978	86.799	93.501	-42.874	181.160	47.959	161.812	122.193	-25.616	80.996	-42.883	11.437	248.181	0.00040059	0.00081491	0.00013677	1089.3	9.3755e-06	4.9667e-06	856.3	378.27	8.1268e-06	2.5022e-06	342.31	132.51	146.2	64.236	7.666e-06	71.447	0.00083505	0.00087701	0.00023927	1090.6	9.3558e-06	9.5663e-06	857.76	380.75	9.488e-06	9.4742e-06	345.29	134.61	147.84	65.256	9.788e-06	72.423	273.956	60.144	34.785	-36.310	110.686	94.129	-36.894	-31.265	129.555	61.053	-33.182	-27.896	-26.378	-22.540	93.802	-24.912	-8191	255	
23723.807	1	1	0	0	0.084008	0.26657	0.12985	0.37852	0.072945	0.18226	0.34449	0.14407	0.13756	0.34961	0.25734	0.1425	0.065277	0.36821	0.15714	0.10793	-1.7104	-2.9729	-2.4729	-2.425	-2.8292	-2.4125	-2.6813	-3.2062	-2.1854	-2.9521	-2.7521	-2.2354	-3.0958	-2.6083	-2.5312	-3.0979	-48.598	-2.829	7.676	241.287	302.370	303.546	287.112	301.224	81.952	133.597	161.975	269.207	7.820	247.270	270.949	-47.635	0.00041709	0.00058158	7.7097e-05	1090.9	9.2415e-06	2.9423e-06	864.03	377.81	8.5276e-06	5.9704e-06	343.22	133.28	146.54	64.371	6.4103e-06	71.569	0.00085397	0.00089308	0.0002435	1091.3	9.6575e-06	9.9421e-06	862.65	381.34	9.807e-06	1.0102e-05	346.51	134.86	148.22	65.259	1.0223e-05	72.581	274.528	28.362	43.865	-36.302	90.642	77.953	-36.781	-31.169	180.658	92.314	-32.869	-27.593	-26.179	-22.136	122.456	-24.872	-8191	255	
23723.902	1	1	0	0	0.34003	0.20915	0.11565	0.15177	0.15676	0.28546	0.14574	0.2197	0.14686	0.2658	0.18033	0.16855	0.19217	0.32472	0.18027	0.1369	-1.8854	-2.7896	-2.6396	-2.2854	-2.8771	-2.3979	-2.3625	-3.1354	-2.1104	-2.7562	-2.9667	-2.0792	-3.2271	-2.4208	-2.325	-3.3042	247.898	142.973	149.284	162.149	236.037	114.763	266.770	216.501	82.972	105.551	242.452	253.121	302.211	-5.731	275.380	62.217	0.00043539	0.00038786	0.00024547	1092.9	8.826e-06	5.184e-06	865.59	380.91	4.5536e-06	2.8448e-06	344.81	133.35	146.53	64.147	6.9725e-06	71.741	0.00086822	0.00091341	0.00025529	1094.4	9.932e-06	1.0191e-05	864.51	383.04	1.0039e-05	1.0426e-05	348.36	135.29	148.4	65.222	1.0379e-05	72.722	283.691	65.840	38.902	-36.317	133.711	98.735	-36.864	-31.138	136.150	141.823	-33.015	-28.120	-26.267	-22.226	158.981	-24.855	-8191	255	
23723.998	1	1	0	0	0.088278	0.14783	0.093492	0.1517	0.20502	0.19734	0.27684	0.35481	0.15645	0.013256	0.2754	0.12786	0.098168	0.12602	0.28883	0.25763	-2.0563	-2.7729	-2.8729	-2.2958	-3.1396	-2.3604	-2.4771	-3.1667	-2.2333	-2.6083	-3.0875	-2.175	-3.0917	-2.775	-2.1833	-3.075	220.654	150.737	136.247	-5.392	257.446	248.070	302.961	227.594	256.661	160.076	287.111	233.418	-0.877	209.638	77.399	198.975	0.00041786	0.00031211	0.00012003	1092.9	8.753e-06	4.6688e-06	862.12	379.2	3.7935e-06	4.2814e-06	344.94	132.52	146.11	64.008	7.9053e-06	71.28	0.00088373	0.00093339	0.00025843	1094.7	1.007e-05	1.029e-05	862.89	381.96	1.0071e-05	1.0387e-05	346.4	134.55	147.87	65.023	1.0202e-05	72.15	278.672	23.801	70.704	-36.309	130.437	71.826	-37.003	-31.171	102.394	98.745	-32.754	-27.814	-26.582	-22.509	90.494	-25.063	-8191	255	
23724.119	1	1	0	0	0.15566	0.12678	0.16807	0.096868	0.079887	0.19972	0.10465	0.19795	0.13625	0.031312	0.076001	0.36187	0.20236	0.23072	0.24917	0.061382	-1.7563	-2.2479	-2.8563	-2.3104	-2.7271	-2.6937	-2.2167	-3.0479	-2.2562	-2.5708	-3.0583	-2.3	-2.8083	-2.9583	-2.0438	-3.0417	52.291	195.118	261.476	91.577	159.675	281.084	199.372	242.934	173.488	159.186	142.879	241.558	256.613	173.434	241.042	29.621	0.00047585	0.0005641	0.00017069	1086.9	8.3936e-06	2.7986e-06	859	379.06	8.6926e-06	5.5418e-06	343.44	132.89	146.4	63.938	5.118e-06	71.045	0.00089328	0.00094833	0.00025792	1092.3	1.0225e-05	1.0402e-05	862.24	381.6	1.0058e-05	1.0392e-05	346.73	134.81	148.16	65.045	1.0432e-05	72.178	275.777	33.126	18.268	-36.666	102.518	34.331	-37.365	-31.371	155.620	123.255	-33.040	-28.096	-26.246	-22.591	101.911	-24.985	-8191	255	
23724.217	1	1	0	0	0.4117	0.10374	0.027445	0.21103	0.16353	0.1836	0.1114	0.46573	0.20998	0.27965	0.23573	0.19827	0.24986	0.17786	0.1839	0.25074	-2.1708	-2.1333	-2.9729	-2.2562	-2.6979	-2.7458	-2.2021	-3.0958	-2.4021	-2.4188	-3.0375	-2.2354	-2.8958	-2.9292	-2.1021	-3.0542	86.665	140.960	214.876	241.841	234.853	197.658	294.647	271.052	60.098	34.718	228.194	287.283	234.113	-31.921	-14.742	276.114	0.0004492	0.00020461	0.00014365	1090.2	6.4239e-06	1.634e-06	863.06	379.9	6.5591e-06	2.8163e-06	343.51	133.64	145.77	64.03	1.9947e-06	71.768	0.00089939	0.00096072	0.00026485	1094.8	1.0252e-05	1.0513e-05	865.34	382.75	1.0408e-05	1.072e-05	348.01	135.26	148.11	65.096	1.0558e-05	72.66	276.075	25.107	30.761	-36.321	141.401	113.972	-37.083	-31.213	180.684	107.910	-32.967	-28.193	-26.317	-22.363	190.108	-25.048	-8191	255	
23724.287	1	1	0	0	0.12483	0.27685	0.11725	0.39272	0.37796	0.11558	0.14197	0.25376	0.41008	0.17184	0.20557	0.085752	0.0814	0.14541	0.10005	0.21437	-2.2313	-2.1021	-3.0042	-2.4062	-2.5563	-3.0271	-2.175	-2.9813	-2.4458	-2.2542	-2.9813	-2.35	-2.5833	-2.8729	-2.0563	-2.8375	258.897	168.086	286.818	231.853	31.160	265.353	266.070	292.620	121.411	128.908	182.542	44.477	233.655	-18.069	91.088	240.919	0.00041378	0.00028447	0.00015864	1094.8	3.5761e-06	5.3569e-06	864.21	380.67	9.6814e-06	8.2653e-06	345.7	134.15	146.69	63.932	6.9631e-06	71.954	0.00090066	0.00097974	0.00026904	1097.3	1.0633e-05	1.0645e-05	868.5	383.82	1.0583e-05	1.0764e-05	350.13	135.79	148.79	65.187	1.084e-05	72.844	272.106	74.692	30.864	-36.535	116.651	128.530	-36.859	-31.109	153.962	117.827	-32.664	-27.717	-26.273	-22.092	133.009	-24.700	-8191	255	
23724.408	1	1	0	0	0.088272	0.097278	0.12735	0.22889	0.16336	0.10851	0.15177	0.21703	0.097308	0.19644	0.16517	0.081701	0.14459	0.026081	0.25685	0.10505	-2.15	-1.9813	-2.9708	-2.4125	-2.4729	-2.8187	-2.25	-2.8458	-2.7396	-2.2604	-3.1354	-2.4729	-2.4458	-3.1312	-2.0729	-2.7812	62.799	14.188	267.936	221.240	115.459	146.470	197.636	307.420	-40.901	0.002	151.264	-24.319	286.583	98.085	9.004	289.887	0.0003583	0.00057964	0.00026254	1094.9	4.5141e-06	7.5339e-06	868.49	380.93	4.8388e-06	5.7342e-06	343.08	132.92	146.91	63.971	8.4195e-06	71.176	0.0009101	0.00098686	0.0002755	1100.4	1.0832e-05	1.076e-05	869.25	384.2	1.065e-05	1.0895e-05	347.21	134.72	148.34	65.043	1.089e-05	72.08	286.415	57.567	49.478	-36.486	81.594	121.959	-36.943	-31.151	123.767	116.269	-33.040	-28.270	-26.120	-22.481	110.172	-24.841	-8191	255	
23724.502	1	1	0	0	0.11067	0.25007	0.17768	0.34001	0.29711	0.03627	0.1161	0.2036	0.080996	0.042932	0.1557	0.11927	0.080418	0.2034	0.19135	0.3247	-2.6083	-2.0729	-2.9229	-2.5396	-2.375	-3.0479	-2.2479	-2.6646	-2.8625	-2.1979	-3.0938	-2.6125	-2.3542	-3.0021	-2.2333	-2.7938	222.077	42.814	87.987	253.080	196.469	52.553	264.089	250.529	257.052	119.713	251.200	19.739	-3.384	189.149	36.981	243.142	0.00036418	0.0008309	0.0001961	1095.5	8.2904e-06	1.9203e-06	860.03	379.38	6.424e-06	5.3215e-06	343.93	132.23	145.84	64.11	2.3386e-06	71.057	0.00093731	0.00098931	0.00027619	1099.2	1.0803e-05	1.0836e-05	863.83	382.93	1.0891e-05	1.1047e-05	347.41	134.62	147.9	65.053	1.1024e-05	72.169	285.215	28.875	39.965	-36.315	105.338	131.066	-36.853	-31.035	148.552	64.808	-33.506	-27.994	-26.405	-22.127	143.997	-24.664	-8191	255	
23724.598	1	1	0	0	0.3867	0.20098	0.14905	0.093261	0.3952	0.14639	0.17748	0.1679	0.13238	0.082109	0.30435	0.30858	0.20042	0.23692	0.035183	0.16091	-2.5167	-2.0167	-2.8292	-2.5167	-2.1604	-2.9375	-2.2875	-2.5062	-2.7896	-2.0646	-3.0687	-2.6937	-2.2687	-2.9417	-2.4604	-2.5792	112.089	-9.647	76.409	-36.393	-41.726	229.698	49.995	308.316	10.736	168.766	215.955	304.541	294.887	306.981	104.430	43.734	0.00033523	0.00061715	0.00030144	1093	8.3982e-06	1.6004e-06	866.95	381.08	4.4667e-06	5.6318e-06	344.39	133.05	146.98	64.279	8.3007e-06	71.643	0.00091325	0.0010054	0.00027627	1098.6	1.0852e-05	1.0799e-05	867.08	383.47	1.0703e-05	1.1017e-05	348.33	135.21	148.3	65.234	1.1151e-05	72.584	286.739	64.245	31.307	-36.045	77.884	145.143	-36.554	-30.459	113.748	63.985	-31.815	-27.517	-26.019	-21.962	154.003	-24.291	-8191	255	
23724.695	1	1	0	0	0.071753	0.24859	0.12566	0.1531	0.18551	0.17144	0.17791	0.33976	0.12294	0.14682	0.0478	0.32956	0.052724	0.20433	0.081373	0.087805	-2.7208	-1.8792	-2.7458	-2.7333	-2.2438	-2.9521	-2.5104	-2.3333	-3.0396	-2.1229	-2.7417	-2.7917	-1.9021	-3.1	-2.3083	-2.275	-33.927	134.463	240.063	274.155	196.166	-7.661	212.125	257.030	46.521	86.082	-7.979	-36.377	247.211	202.760	283.670	256.101	0.00038849	0.00044439	0.00019903	1100.5	1.0601e-05	7.0033e-06	872.69	382.39	4.4136e-06	3.6163e-06	344.85	132.93	147.82	64.27	6.2639e-06	71.575	0.00093371	0.0010169	0.00028286	1102.4	1.0831e-05	1.1159e-05	872.74	385.17	1.1046e-05	1.1349e-05	350.16	135.43	149.22	65.36	1.1342e-05	72.594	276.200	60.595	1.500	-35.637	123.278	112.589	-36.793	-30.814	151.464	121.166	-32.464	-27.628	-25.721	-21.716	214.601	-24.444	-8191	255	
23724.814	1	1	0	0	0.19936	0.34414	0.12371	0.11395	0.048987	0.1823	0.19389	0.08956	0.068285	0.17889	0.1645	0.11882	0.12229	0.26731	0.1073	0.088549	-2.5104	-1.8875	-2.5542	-2.9917	-2.0396	-3.2188	-2.6146	-2.3479	-3.075	-2.1562	-2.6208	-3.0458	-2.2062	-2.9771	-2.5833	-2.5563	48.939	303.316	191.491	-45.156	143.935	75.343	281.327	84.306	92.809	253.774	274.003	-47.391	43.595	300.295	105.624	294.229	0.00043883	0.00062952	0.00023135	1104.6	1.0856e-05	4.7538e-06	869.02	381.35	7.1052e-06	4.9825e-06	342.42	132.07	145.84	63.995	5.5656e-06	70.682	0.00096532	0.0010278	0.00028526	1107.8	1.1082e-05	1.138e-05	872.04	385.15	1.0973e-05	1.1335e-05	347.4	134.08	148.1	65.036	1.1321e-05	71.793	273.327	28.051	30.574	-35.759	132.000	89.421	-36.441	-30.660	152.033	117.756	-32.227	-27.596	-26.052	-21.966	188.495	-24.311	-8191	255	
23724.887	1	1	0	0	0.14905	0.12738	0.12096	0.073299	0.12475	0.18793	0.26297	0.26694	0.15765	0.43327	0.18216	0.10402	0.2942	0.038743	0.20599	0.10624	-2.4854	-2.2292	-2.3833	-3.0438	-2.2271	-2.9292	-2.675	-2.1813	-2.9042	-2.3708	-2.6625	-2.9229	-2.2021	-2.8	-2.6333	-2.2292	37.757	166.173	242.736	-41.614	129.131	167.643	239.362	-44.530	156.395	-12.169	-38.767	-47.455	201.269	237.755	36.361	262.973	0.00048266	0.00050652	0.00019095	1101	4.3914e-06	5.666e-06	864.2	382.34	9.8941e-06	8.7266e-06	340.76	131.33	146.1	63.711	9.6139e-06	70.632	0.00094872	0.0010385	0.00028336	1104.3	1.1106e-05	1.1254e-05	867.76	384.67	1.1117e-05	1.1273e-05	345.84	133.64	147.94	64.846	1.12e-05	71.664	288.124	13.469	64.781	-35.784	86.627	99.260	-36.362	-30.397	130.450	74.486	-32.262	-27.267	-25.603	-21.699	131.637	-24.269	-8191	255	
23724.982	1	1	0	0	0.093155	0.15502	0.2706	0.18282	0.15396	0.16547	0.51462	0.33724	0.037863	0.2252	0.09692	0.21697	0.17883	0.118	0.015313	0.16034	-2.3729	-2.35	-2.3208	-3.0333	-2.0563	-2.9083	-2.8479	-2.3063	-2.8667	-2.4375	-2.2396	-2.9813	-2.2542	-2.8208	-2.95	-2.1688	87.318	-7.106	80.172	242.659	14.024	35.541	265.646	-43.113	69.290	117.166	302.664	293.912	202.254	-13.234	217.771	-10.506	0.00038629	0.00061915	0.00028505	1099.2	7.4835e-06	4.5075e-06	867.23	381.6	6.8518e-06	9.4611e-06	343.19	131.76	145.61	63.851	1.1528e-05	70.826	0.00095752	0.0010318	0.00028854	1102.6	1.1177e-05	1.1334e-05	869.34	383.66	1.1088e-05	1.133e-05	347.05	133.83	147.48	64.717	1.1294e-05	71.736	274.992	9.693	34.450	-35.884	113.648	95.169	-36.612	-30.609	105.248	88.896	-32.275	-27.318	-25.906	-21.522	78.982	-24.410	-8191	255	
23725.078	1	1	0	0	0.22288	0.086325	0.24005	0.23525	0.1245	0.30088	0.11798	0.11925	0.12987	0.10722	0.32426	0.20369	0.24547	0.13313	0.093557	0.073023	-2.4417	-2.4375	-2.2938	-2.975	-2.1937	-2.6333	-2.9292	-2.2479	-3.0354	-2.6896	-2.2083	-2.9646	-2.2125	-2.7458	-3.1188	-2.1	158.076	256.170	111.388	-32.438	110.673	-32.147	236.594	219.991	175.765	219.331	209.338	219.553	-14.030	253.575	29.418	233.496	0.00040938	0.00058099	0.00013508	1107.5	7.1105e-06	2.6729e-06	869.4	380.93	9.6519e-06	8.284e-06	345.39	132.03	145.11	63.081	2.9376e-06	70.242	0.000964	0.0010513	0.00029047	1106.8	1.132e-05	1.1438e-05	870.78	384.01	1.1336e-05	1.1646e-05	348.28	134.02	147.01	64.278	1.1557e-05	71.281	269.988	15.054	39.080	-36.044	133.061	130.609	-36.695	-30.636	105.392	88.889	-32.213	-27.573	-25.901	-21.908	108.441	-24.211	-8191	255	
23725.199	1	1	0	0	0.039107	0.14801	0.049316	0.16035	0.19237	0.21918	0.092501	0.11874	0.16172	0.12218	0.032792	0.17337	0.44031	0.32512	0.14642	0.28181	-2.5521	-2.6917	-2.1042	-3.0771	-2.1208	-2.3854	-3.1896	-2.2646	-2.8917	-2.7542	-2.2021	-3.1354	-2.3646	-2.6146	-3.0083	-2.2021	99.937	247.112	-1.787	204.284	132.288	159.634	81.445	198.878	156.534	4.327	280.675	164.045	-25.325	297.875	186.802	178.648	0.0004886	0.00052989	0.00016588	1105	4.6273e-06	7.7526e-06	863.77	377.14	3.86e-06	7.9242e-06	340.12	129.36	142.53	61.943	3.0587e-06	68.719	0.00098868	0.0010507	0.00029654	1106.1	1.1389e-05	1.164e-05	867.52	381.93	1.1468e-05	1.1839e-05	345.18	131.6	144.9	62.95	1.1632e-05	69.742	270.202	27.762	31.950	-36.004	99.588	129.099	-37.287	-30.911	142.408	60.940	-32.942	-27.502	-25.994	-22.038	137.500	-24.783	-8191	255	
23725.297	1	1	0	0	0.31173	0.26157	0.17183	0.099285	0.092481	0.018519	0.28024	0.14172	0.12423	0.15023	0.20022	0.21594	0.33668	0.19904	0.13681	0.011894	-2.5	-2.7687	-2.0958	-3.1292	-2.3958	-2.4437	-3.0958	-2.3688	-2.6937	-2.7896	-2.2083	-2.9437	-2.7042	-2.3021	-2.8896	-2.3021	52.189	91.790	18.472	-12.644	155.745	290.184	-16.827	-6.753	137.685	-31.738	288.604	212.902	202.892	230.277	212.732	233.890	0.00045753	0.00050446	0.00018162	1096.1	5.878e-06	2.8613e-06	860.76	378.18	7.6334e-06	4.9034e-06	339.32	128.77	141.89	61.062	8.0476e-06	68.279	0.00099156	0.0010779	0.000302	1101.5	1.1918e-05	1.2078e-05	864.5	381.15	1.1956e-05	1.1968e-05	344.51	131.09	144.05	62.297	1.2029e-05	69.409	279.153	-1.783	67.895	-36.280	145.133	107.032	-36.903	-30.988	77.393	119.910	-32.814	-27.669	-26.275	-21.807	112.614	-24.696	-8191	255	
23725.391	1	1	0	0	0.13709	0.21405	0.1942	0.12668	0.1403	0.078963	0.15753	0.2227	0.32052	0.20596	0.13926	0.024705	0.20651	0.30348	0.16022	0.11136	-2.3271	-2.8354	-1.9625	-2.9729	-2.3875	-2.2958	-3.0375	-2.4479	-2.5729	-2.8417	-2.1875	-2.8833	-2.8542	-2.3937	-2.975	-2.4229	199.714	-39.524	23.643	305.469	132.592	107.088	252.494	283.784	6.497	5.336	6.209	22.240	261.193	290.761	48.856	93.388	0.00031119	0.00066241	5.7795e-05	1100.1	1.1285e-05	6.7451e-06	866.15	379.52	7.4385e-06	9.058e-06	343.43	129.26	142.91	61.507	4.1242e-06	68.781	0.0010424	0.0011031	0.00031396	1105.1	1.1885e-05	1.2468e-05	868.43	382.67	1.1957e-05	1.2352e-05	347.2	131.7	145.04	62.66	1.2275e-05	69.769	287.860	44.464	22.245	-36.443	100.379	90.930	-36.654	-31.235	134.319	103.756	-32.803	-27.595	-26.236	-21.893	131.659	-24.788	-8191	255	
#DATA ENDS
