BOXY.EXE: ISS Imagent and Oximeter Data Acquisition Program Version 0.80
Ascii Record File

#ACQ INFORMATION
2  Detector Channels 
16  External MUX Channels 
1  Auxiliary Channels 
5000  Waveform (CCF) Frequency (Hz)
1  Waveforms Skipped 
30  Waveforms Averaged 
1  Cycles Averaged 
16  Acquisitions per Waveform 
10.0806  Updata Rate (Hz) 

#FILE INFORMATION
TRUE -- External MUX Channel results are PARSED.
FALSE -- AC DC and Phase are NOT grouped.
TRUE -- Companion Program Settings File CREATED.
FALSE -- AC data not excluded
FALSE -- DC data not excluded
FALSE -- Phase data not excluded
FALSE -- Auxillary Chn. data not excluded
Tab delimiters

#CALIBRATION STATE
TRUE -- Waveform Calibration Values APPLIED.


#AUX CALIBRATION VALUES
Val Type	aux-1	

Term	1.0000e+00	
Factor	0.0000e+00	


#WF CALIBRATION VALUES
A = Detector Channel
Val Type	A-AC1	A-AC2	A-AC3	A-AC4	A-AC5	A-AC6	A-AC7	A-AC8	A-AC9	A-AC10	A-AC11	A-AC12	A-AC13	A-AC14	A-AC15	A-AC16	A-DC1	A-DC2	A-DC3	A-DC4	A-DC5	A-DC6	A-DC7	A-DC8	A-DC9	A-DC10	A-DC11	A-DC12	A-DC13	A-DC14	A-DC15	A-DC16	A-Ph1	A-Ph2	A-Ph3	A-Ph4	A-Ph5	A-Ph6	A-Ph7	A-Ph8	A-Ph9	A-Ph10	A-Ph11	A-Ph12	A-Ph13	A-Ph14	A-Ph15	A-Ph16	

Term	0.00000e+00	0.00000e+00	0.00000e+00	0.00000e+00	0.00000e+00	0.00000e+00	0.00000e+00	0.00000e+00	0.00000e+00	0.00000e+00	0.00000e+00	0.00000e+00	0.00000e+00	0.00000e+00	0.00000e+00	0.00000e+00	0.00000e+00	0.00000e+00	0.00000e+00	0.00000e+00	0.00000e+00	0.00000e+00	0.00000e+00	0.00000e+00	0.00000e+00	0.00000e+00	0.00000e+00	0.00000e+00	0.00000e+00	0.00000e+00	0.00000e+00	0.00000e+00	0.00000e+00	0.00000e+00	0.00000e+00	0.00000e+00	0.00000e+00	0.00000e+00	0.00000e+00	0.00000e+00	0.00000e+00	0.00000e+00	0.00000e+00	0.00000e+00	0.00000e+00	0.00000e+00	0.00000e+00	0.00000e+00	
Factor	1.00000e+00	1.00000e+00	1.00000e+00	1.00000e+00	1.00000e+00	1.00000e+00	1.00000e+00	1.00000e+00	1.00000e+00	1.00000e+00	1.00000e+00	1.00000e+00	1.00000e+00	1.00000e+00	1.00000e+00	1.00000e+00	1.00000e+00	1.00000e+00	1.00000e+00	1.00000e+00	1.00000e+00	1.00000e+00	1.00000e+00	1.00000e+00	1.00000e+00	1.00000e+00	1.00000e+00	1.00000e+00	1.00000e+00	1.00000e+00	1.00000e+00	1.00000e+00	X	X	X	X	X	X	X	X	X	X	X	X	X	X	X	X	

B = Detector Channel
Val Type	B-AC1	B-AC2	B-AC3	B-AC4	B-AC5	B-AC6	B-AC7	B-AC8	B-AC9	B-AC10	B-AC11	B-AC12	B-AC13	B-AC14	B-AC15	B-AC16	B-DC1	B-DC2	B-DC3	B-DC4	B-DC5	B-DC6	B-DC7	B-DC8	B-DC9	B-DC10	B-DC11	B-DC12	B-DC13	B-DC14	B-DC15	B-DC16	B-Ph1	B-Ph2	B-Ph3	B-Ph4	B-Ph5	B-Ph6	B-Ph7	B-Ph8	B-Ph9	B-Ph10	B-Ph11	B-Ph12	B-Ph13	B-Ph14	B-Ph15	B-Ph16	

Term	0.00000e+00	0.00000e+00	0.00000e+00	0.00000e+00	0.00000e+00	0.00000e+00	0.00000e+00	0.00000e+00	0.00000e+00	0.00000e+00	0.00000e+00	0.00000e+00	0.00000e+00	0.00000e+00	0.00000e+00	0.00000e+00	0.00000e+00	0.00000e+00	0.00000e+00	0.00000e+00	0.00000e+00	0.00000e+00	0.00000e+00	0.00000e+00	0.00000e+00	0.00000e+00	0.00000e+00	0.00000e+00	0.00000e+00	0.00000e+00	0.00000e+00	0.00000e+00	-1.07200e+00	-1.36101e+02	-1.26972e+02	-1.81145e+02	-5.74851e+01	-6.50972e+01	-1.58196e+02	-1.62015e+02	-4.24239e+01	-6.52151e+01	-1.70310e+02	-1.70117e+02	-1.81676e+02	-1.76501e+02	-5.94616e+01	-1.49355e+02	
Factor	3.59234e-05	1.59826e-04	4.90676e-05	1.61587e-01	1.97099e-06	1.44992e-06	1.72205e-01	5.96698e-02	2.11306e-06	1.83272e-06	9.39561e-02	3.22471e-02	2.84731e-02	9.54445e-03	1.94426e-06	1.34256e-02	6.52020e-06	7.84418e-06	2.17318e-06	8.29810e-02	8.31184e-08	8.62690e-08	8.30464e-02	3.06820e-02	8.29478e-08	8.64596e-08	4.68418e-02	1.60686e-02	1.47170e-02	4.95140e-03	8.44639e-08	6.74576e-03	X	X	X	X	X	X	X	X	X	X	X	X	X	X	X	X	



#DISTANCE SETTINGS
A = Detector Channel
A-1	A-2	A-3	A-4	A-5	A-6	A-7	A-8	A-9	A-10	A-11	A-12	A-13	A-14	A-15	A-16	

2.5000e+00	3.0000e+00	2.5000e+00	3.0000e+00	2.0000e+00	3.0000e+00	1.5000e+00	3.0000e+00	3.0000e+00	3.0000e+00	3.0000e+00	3.0000e+00	3.0000e+00	3.0000e+00	1.5000e+00	3.0000e+00	

B = Detector Channel
B-1	B-2	B-3	B-4	B-5	B-6	B-7	B-8	B-9	B-10	B-11	B-12	B-13	B-14	B-15	B-16	

1.0000e+01	1.0000e+01	1.0000e+01	1.4400e+00	1.0000e+01	1.0000e+01	1.5100e+00	1.9400e+00	1.0000e+01	1.0000e+01	1.9900e+00	2.4900e+00	2.4100e+00	2.9000e+00	1.0000e+01	2.9800e+00	




#DATA BEGINS
time	group	step	mark	flag	A-AC1	A-AC2	A-AC3	A-AC4	A-AC5	A-AC6	A-AC7	A-AC8	A-AC9	A-AC10	A-AC11	A-AC12	A-AC13	A-AC14	A-AC15	A-AC16	A-DC1	A-DC2	A-DC3	A-DC4	A-DC5	A-DC6	A-DC7	A-DC8	A-DC9	A-DC10	A-DC11	A-DC12	A-DC13	A-DC14	A-DC15	A-DC16	A-Ph1	A-Ph2	A-Ph3	A-Ph4	A-Ph5	A-Ph6	A-Ph7	A-Ph8	A-Ph9	A-Ph10	A-Ph11	A-Ph12	A-Ph13	A-Ph14	A-Ph15	A-Ph16	B-AC1	B-AC2	B-AC3	B-AC4	B-AC5	B-AC6	B-AC7	B-AC8	B-AC9	B-AC10	B-AC11	B-AC12	B-AC13	B-AC14	B-AC15	B-AC16	B-DC1	B-DC2	B-DC3	B-DC4	B-DC5	B-DC6	B-DC7	B-DC8	B-DC9	B-DC10	B-DC11	B-DC12	B-DC13	B-DC14	B-DC15	B-DC16	B-Ph1	B-Ph2	B-Ph3	B-Ph4	B-Ph5	B-Ph6	B-Ph7	B-Ph8	B-Ph9	B-Ph10	B-Ph11	B-Ph12	B-Ph13	B-Ph14	B-Ph15	B-Ph16	aux-1	digaux	

23631.256	1	1	0	768	0.15121	0.089613	0.13048	0.052151	0.28769	0.032739	0.1614	0.20933	0.24933	0.25454	0.12478	0.252	0.1175	0.13935	0.21089	0.15609	-1.9729	-2.8937	-2.2687	-2.7917	-2.7542	-2.1083	-3.1396	-2.7104	-2.4667	-3.0146	-2.1917	-2.7	-3.0354	-2.2625	-2.9167	-2.7375	43.057	-81.562	176.388	159.040	153.810	-81.207	180.536	145.264	-14.893	-115.650	127.898	217.329	159.769	192.217	137.952	-124.761	0.0017034	0.0010026	0.00014404	1062.5	6.2295e-06	5.8225e-06	983.54	418.07	8.2153e-06	4.4459e-06	459.79	219.88	182.25	98.923	1.4442e-05	130.33	0.0013524	0.0013176	0.00036927	1034.2	1.4126e-05	1.467e-05	957.06	408.54	1.3961e-05	1.4454e-05	449.8	214.88	178.58	97.184	1.4591e-05	127.8	-30.860	-90.756	-64.174	-125.144	-4.943	30.458	-125.546	-120.959	6.016	3.082	-122.205	-118.140	-116.958	-113.744	-10.128	-116.188	-8191	255	
23631.352	1	1	0	0	0.11376	0.10714	0.10912	0.33852	0.047484	0.20657	0.31815	0.36755	0.14728	0.05998	0.1803	0.49584	0.048181	0.16588	0.06221	0.15452	-2.0458	-2.8292	-2.1937	-2.6604	-2.9729	-2.1521	-2.9292	-2.6917	-2.2625	-3.2646	-2.375	-2.5438	-3.0812	-2.2875	-2.7479	-3.0208	208.273	136.714	29.959	-136.791	122.288	166.380	104.358	157.927	-103.625	133.594	181.228	187.067	107.143	194.955	-138.064	99.523	0.0017054	0.000986	0.00039022	1064.3	8.2483e-06	7.9474e-06	975.56	416.51	7.8489e-06	1.5123e-05	456.49	217.66	182.1	98.681	1.3435e-05	129.44	0.0013296	0.0013163	0.00036397	1033.7	1.3961e-05	1.4584e-05	952.65	407.78	1.4335e-05	1.4371e-05	446	212.62	177.97	96.836	1.4664e-05	126.98	-29.394	-61.057	-57.767	-125.106	35.326	2.390	-125.637	-120.637	16.410	-9.628	-122.268	-118.700	-117.238	-114.123	7.337	-116.019	-8191	255	
23631.447	1	1	0	0	0.15613	0.10336	0.2306	0.20438	0.21861	0.32288	0.17363	0.078023	0.14934	0.12509	0.16807	0.23654	0.1472	0.17195	0.13842	0.28588	-1.9896	-2.8937	-2.3792	-2.4521	-2.9083	-2.0875	-2.7687	-2.8917	-2.1458	-3	-2.6021	-2.4729	-3.1167	-2.4042	-2.6562	-3.0646	124.857	103.535	32.429	195.612	-45.534	17.604	56.290	-51.726	20.795	-16.068	-87.137	83.166	186.636	184.684	-23.076	165.029	0.0016845	0.00094076	0.0003047	1058.4	1.5223e-05	9.0672e-06	969.95	417.43	1.1894e-05	9.0037e-06	456.95	217.8	181.96	99.017	6.9298e-06	129.93	0.0013483	0.0013373	0.00036732	1032.2	1.3935e-05	1.4434e-05	950.37	407.81	1.4025e-05	1.4408e-05	447.52	213.1	178.03	96.986	1.4263e-05	127.28	-28.748	-34.281	-60.031	-125.311	25.776	6.855	-125.661	-120.849	20.232	2.588	-122.456	-118.219	-116.770	-113.634	25.941	-116.389	-8191	255	
23631.545	1	1	0	0	0.1811	0.18023	0.26449	0.27526	0.11258	0.2009	0.26039	0.056143	0.11047	0.13159	0.20487	0.092918	0.29646	0.13712	0.19898	0.1971	-1.6833	-2.8271	-2.3896	-2.4833	-3.0375	-2.3271	-2.8021	-3.0312	-2.2042	-2.9958	-2.4604	-2.3979	-3.125	-2.4813	-2.4125	-3.1	141.011	-129.211	-52.688	201.459	200.346	77.175	174.647	61.363	167.624	-54.900	129.662	202.112	193.933	-81.468	144.104	166.206	0.0016805	0.0010174	0.00035197	1065	4.335e-06	7.5308e-06	981.54	420.8	1.0847e-05	1.0963e-05	461.5	222.04	183.79	99.025	1.3453e-05	131.2	0.0013498	0.0013117	0.00036649	1035.1	1.4052e-05	1.4282e-05	956.59	409.73	1.4019e-05	1.4328e-05	451.6	216.12	179.53	97.301	1.4025e-05	128.47	-30.638	-32.047	-57.198	-125.237	-5.895	48.153	-125.674	-120.600	45.202	46.130	-122.457	-118.477	-117.133	-113.716	-2.955	-115.990	-8191	255	
23631.641	1	1	0	0	0.22417	0.10181	0.068246	0.34911	0.14746	0.061704	0.30392	0.24238	0.19916	0.22515	0.27659	0.10441	0.24694	0.24645	0.071006	0.20244	-1.7188	-2.8542	-2.6042	-2.3604	-2.7708	-2.2604	-2.5812	-3	-2.0792	-2.7625	-2.7896	-2.3583	-3.2583	-2.4437	-2.4667	-3.1312	43.314	123.060	-21.163	199.544	-22.087	-12.979	148.884	182.860	-2.438	-131.458	-104.466	211.588	-117.692	-117.252	204.212	195.827	0.0017028	0.0015371	0.00026299	1066.9	4.6852e-06	7.2951e-06	993.98	419.86	1.3081e-05	1.2118e-05	462.89	222.01	183.41	99.301	1.3524e-05	131.11	0.0013033	0.0012829	0.00035129	1037.9	1.3904e-05	1.388e-05	965.46	410.35	1.3811e-05	1.4173e-05	454	217.19	179.66	97.405	1.4114e-05	128.29	-32.121	-65.492	-68.704	-124.947	-11.993	-30.430	-125.669	-120.555	42.584	16.051	-122.933	-118.446	-117.262	-113.736	0.910	-116.014	-8191	255	
23631.736	1	1	0	0	0.34754	0.30884	0.17648	0.058445	0.054558	0.074233	0.18869	0.13586	0.12068	0.15463	0.17259	0.19246	0.14505	0.49323	0.092509	0.072393	-1.6125	-2.6583	-2.5708	-2.3146	-2.9542	-2.4062	-2.5542	-3.1583	-2.2458	-2.5146	-2.8396	-2.4021	-2.9625	-2.7833	-2.25	-3.2792	-58.038	-110.591	138.336	7.139	-115.499	132.638	-12.407	216.497	132.146	201.815	31.175	186.337	-117.213	184.088	119.152	155.859	0.0016492	0.00092522	0.00025522	1063.9	1.2363e-05	1.8451e-06	981.66	418.78	1.0153e-05	9.1754e-06	459.97	219.08	182.33	98.78	1.9003e-05	129.76	0.0013271	0.0013095	0.00035577	1035.3	1.3682e-05	1.4132e-05	957.54	409	1.3979e-05	1.4111e-05	450.21	214.5	178.88	96.855	1.3916e-05	127.19	-28.960	-39.072	-96.466	-125.494	29.598	26.727	-125.406	-120.426	14.940	2.389	-122.129	-118.125	-116.791	-113.520	-8.387	-115.883	-8191	255	
23631.857	1	1	0	0	0.19784	0.15768	0.13963	0.13469	0.34576	0.16641	0.11177	0.39551	0.17073	0.23981	0.29571	0.23673	0.22173	0.2067	0.090521	0.24847	-1.8458	-2.5396	-2.8333	-2.0583	-2.9125	-2.5479	-2.4833	-3.0229	-2.2917	-2.4458	-2.9833	-2.2938	-2.8333	-2.8125	-2.125	-3.2229	-51.837	77.886	86.314	-113.629	84.643	16.523	-65.108	170.204	-24.432	3.454	149.034	146.314	138.394	176.683	219.655	210.403	0.0015939	0.00080551	0.00023804	1062.1	8.3114e-06	8.9051e-06	985.79	418.82	1.3593e-05	8.9243e-06	462.37	219.87	184.34	98.991	7.2306e-06	130.16	0.0012956	0.0012814	0.00035488	1034.2	1.3734e-05	1.3914e-05	956.99	409.45	1.3728e-05	1.3962e-05	451.55	215.26	179.9	97.112	1.3785e-05	127.61	-29.188	-21.340	-46.971	-124.983	23.119	2.854	-125.342	-120.551	64.304	-9.674	-122.445	-118.359	-117.025	-113.762	-20.876	-115.919	-8191	255	
23631.953	1	1	0	0	0.16039	0.26357	0.10198	0.058295	0.18595	0.064549	0.25583	0.31774	0.26702	0.21798	0.27869	0.26647	0.30666	0.08381	0.24714	0.12222	-1.8708	-2.3208	-2.7979	-2.2708	-2.7333	-2.4625	-2.3854	-3.1292	-2.4875	-2.3042	-3.0417	-2.3688	-3.1208	-3.1	-2.1771	-3.1542	171.018	113.912	199.389	-37.718	3.268	134.770	179.586	154.293	219.937	-79.500	151.118	219.489	218.452	-90.246	161.405	113.778	0.001738	0.00091738	0.00036009	1065.2	3.5687e-06	7.2008e-06	991.03	421.64	9.7824e-06	1.44e-05	465.68	222.69	184.65	99.406	1.1095e-05	131.26	0.0013088	0.0012828	0.00035929	1036.4	1.3547e-05	1.3912e-05	963.13	411.6	1.3614e-05	1.4037e-05	455.64	217.1	180.44	97.479	1.3812e-05	128.48	-28.428	-58.809	-55.717	-125.388	-55.505	3.441	-125.613	-120.394	12.539	-1.449	-122.496	-118.268	-116.456	-113.339	14.306	-115.668	-8191	255	
23632.049	1	1	0	0	0.17367	0.079877	0.026694	0.39909	0.28149	0.074893	0.28594	0.26098	0.23607	0.036931	0.25175	0.22563	0.04702	0.3223	0.033487	0.28829	-2.2146	-2.4042	-3.0646	-2.2188	-2.7208	-2.7792	-2.1333	-3.2521	-2.3354	-2.3875	-3.1271	-2.2979	-2.9146	-3.2021	-2.05	-3.0833	-107.467	-74.240	111.577	158.954	-28.419	-87.121	147.917	152.212	-56.949	128.896	-137.064	142.155	203.155	172.145	188.520	204.382	0.0016546	0.001417	0.00036339	1067.5	3.1321e-06	3.8623e-06	995.69	422.63	1.1757e-05	7.8356e-06	469.06	223.63	184.69	99.37	3.891e-06	131.19	0.0012962	0.0012859	0.00035356	1041	1.3738e-05	1.4095e-05	969.29	412.99	1.3476e-05	1.4125e-05	457.84	218.26	180.51	97.372	1.4096e-05	128.37	-34.131	-46.270	-65.534	-124.965	-36.314	46.009	-125.670	-120.239	-6.511	-12.107	-122.064	-118.191	-116.704	-113.259	-9.927	-115.477	-8191	255	
23632.146	1	1	0	0	0.24732	0.043503	0.13498	0.12022	0.061553	0.10343	0.28615	0.18198	0.27311	0.088427	0.10645	0.10855	0.3587	0.32804	0.26678	0.31577	-2.1583	-2.1875	-3.0125	-2.4708	-2.5771	-2.9146	-2.1542	-3.0417	-2.7458	-2.2729	-3.1312	-2.4562	-2.4062	-3.0458	-1.9708	-2.8312	79.188	178.109	-44.920	195.310	-20.417	45.542	151.047	-127.393	92.246	205.225	89.282	-47.688	191.747	-126.553	5.201	-138.074	0.0015831	0.0010812	0.00018443	1066.6	9.0047e-06	5.3082e-06	987.97	421.07	1.8077e-05	8.5315e-06	463.25	220.82	183.75	99.169	1.0616e-05	129.85	0.0013089	0.0012962	0.00035466	1038.7	1.3986e-05	1.4306e-05	962.28	410.58	1.3898e-05	1.4296e-05	453.7	215.1	179.69	97.054	1.4145e-05	127.07	-30.317	-84.502	-12.393	-124.832	4.317	17.594	-125.296	-120.279	3.049	1.722	-121.865	-117.902	-116.592	-113.343	4.243	-115.607	-8191	255	
23632.240	1	1	0	0	0.050789	0.19479	0.17469	0.039506	0.15535	0.083915	0.10294	0.27608	0.083638	0.25176	0.30183	0.1473	0.12436	0.27852	0.12879	0.28603	-2.2875	-2.0625	-2.8104	-2.3187	-2.4667	-2.8604	-2.3875	-2.7042	-2.6667	-2.1104	-2.9479	-2.5938	-2.3708	-3.1417	-2.325	-2.9542	214.951	64.444	120.385	-102.132	43.000	-4.545	131.739	183.055	136.777	-110.079	177.836	179.849	206.829	-138.180	-121.055	190.700	0.0016624	0.0011029	0.00023781	1064	9.6879e-06	7.4203e-06	989.46	420.79	1.0879e-05	1.0833e-05	463.01	220.64	184.36	98.811	1.3318e-05	129.47	0.001319	0.0013128	0.00035619	1037.8	1.3744e-05	1.4018e-05	960.77	410.84	1.3846e-05	1.4354e-05	453.48	215.76	179.84	96.986	1.3886e-05	127.08	-29.551	-56.831	-53.802	-125.001	-0.833	4.414	-125.369	-120.302	4.004	20.822	-122.103	-118.092	-117.049	-113.564	-25.435	-115.621	-8191	255	
23632.336	1	1	0	0	0.097576	0.13382	0.16286	0.14597	0.042139	0.054488	0.13619	0.1069	0.051864	0.073246	0.080379	0.24216	0.18752	0.47993	0.38321	0.27541	-2.4458	-1.8625	-2.8229	-2.6833	-1.9688	-2.9625	-2.2667	-2.6646	-2.825	-2.0958	-3.0187	-2.5042	-2.3187	-3.1833	-2.2208	-2.7208	142.025	81.880	69.166	1.291	-112.275	135.057	59.308	-128.656	156.004	-138.416	51.081	173.566	-136.666	200.516	96.895	148.827	0.001607	0.0010309	7.8318e-05	1068.8	1.0198e-05	8.3772e-06	990.86	421.66	1.0819e-05	1.1867e-05	469.39	223.57	184.48	99.167	6.0175e-06	130.27	0.0013064	0.0012655	0.00035275	1037.5	1.3508e-05	1.3696e-05	964.5	411.45	1.3565e-05	1.3773e-05	456.51	217.41	180.27	97.156	1.3759e-05	127.79	-32.810	-76.734	-56.214	-125.030	-8.571	33.381	-126.128	-121.094	-9.162	21.420	-122.642	-118.772	-117.378	-113.989	22.254	-116.137	-8191	255	
23632.457	1	1	0	0	0.095512	0.11713	0.092577	0.2902	0.16498	0.10432	0.18372	0.13973	0.26976	0.2255	0.33729	0.2575	0.20386	0.23845	0.1948	0.15019	-2.5271	-2.0125	-2.8708	-2.5583	-2.1833	-2.8979	-2.4208	-2.5708	-2.7583	-2.1063	-2.9229	-2.7333	-2.2833	-3.2021	-2.3896	-2.7021	175.821	-118.173	-97.406	140.511	-96.251	-108.345	-103.858	-120.723	132.286	172.590	172.275	133.262	-65.822	185.969	-4.581	172.131	0.0017109	0.00083217	0.00023756	1066.6	1.2808e-05	5.6125e-06	998.27	422.64	1.076e-05	1.3123e-05	466.61	224.63	184.83	99.198	7.464e-06	130.44	0.0012789	0.0012661	0.00034755	1038.5	1.3575e-05	1.3763e-05	970.45	412.39	1.3555e-05	1.3778e-05	458	218.65	180.75	97.359	1.3918e-05	127.95	-29.864	-60.056	-56.276	-125.711	37.930	30.301	-126.172	-120.741	20.060	44.554	-122.279	-118.760	-117.487	-113.987	-11.369	-116.271	-8191	255	
23632.553	1	1	0	0	0.26459	0.34736	0.10261	0.14204	0.18707	0.2116	0.18444	0.35211	0.32309	0.065178	0.098032	0.044854	0.27367	0.25184	0.040649	0.21269	-2.4542	-2.0875	-2.6146	-2.7958	-2.0708	-2.9375	-2.5646	-2.5	-2.9021	-2.0771	-2.6667	-2.8146	-2.1562	-2.9979	-2.3583	-2.3063	-66.399	130.670	175.969	-32.999	-64.556	-126.491	74.067	198.512	61.180	89.422	151.694	169.345	121.611	-108.296	43.831	112.729	0.0016346	0.00076675	0.00030445	1065.3	2.3273e-06	7.9128e-06	991.17	419.97	1.2406e-05	1.1505e-05	467.03	222.29	183.9	98.605	1.278e-05	128.92	0.0012867	0.0012645	0.00034237	1037.5	1.3489e-05	1.3643e-05	963.92	410.42	1.3164e-05	1.3918e-05	454.63	216.61	179.71	96.633	1.3809e-05	126.62	-28.782	-86.977	-68.735	-125.666	-137.693	9.347	-126.250	-120.876	21.101	36.634	-122.778	-118.995	-117.121	-113.945	-10.891	-116.363	-8191	255	
23632.648	1	1	0	0	0.048409	0.14597	0.13354	0.14232	0.26587	0.18353	0.38393	0.23876	0.071526	0.37781	0.26296	0.27703	0.21822	0.21755	0.2958	0.21081	-2.4313	-1.9062	-2.4771	-2.7208	-1.8458	-2.8271	-2.6771	-2.3146	-2.8708	-2.1333	-2.5042	-2.8083	-2.1604	-2.8271	-2.4313	-2.2438	-5.111	97.495	-36.752	208.977	127.361	136.441	201.911	-127.699	-42.906	158.974	206.052	192.128	200.838	173.223	-2.937	143.444	0.0016641	0.00084357	0.00013491	1063.9	9.4573e-06	8.6892e-06	986.13	421.52	1.3073e-05	1.5107e-05	464.07	221.32	183.7	98.542	6.6259e-06	129.62	0.0012643	0.0012623	0.00034654	1035.9	1.3155e-05	1.384e-05	960.9	410.39	1.3358e-05	1.3881e-05	454.46	216.26	179.87	96.854	1.3607e-05	127	-30.527	-77.243	-48.057	-125.668	21.219	-6.265	-126.071	-120.775	-5.144	13.092	-122.596	-118.864	-117.386	-113.822	18.265	-116.175	-8191	255	
23632.744	1	1	0	0	0.26261	0.20233	0.09593	0.474	0.14052	0.21147	0.34726	0.30895	0.17794	0.057665	0.11195	0.14547	0.321	0.44748	0.32418	0.27291	-2.4208	-2.3063	-2.1292	-3.1208	-2.0938	-2.65	-2.7375	-2.2812	-2.7708	-2.2896	-2.3917	-3.0021	-2.0812	-2.7812	-2.5375	-2.2854	-102.157	14.242	30.469	208.893	173.782	83.813	192.240	73.633	155.358	115.199	176.437	-90.704	194.518	189.882	52.885	136.871	0.0017067	0.0011328	0.00033748	1066.5	1.2038e-05	7.5154e-06	989.75	420.47	1.6787e-05	1.0686e-05	467.16	221.99	183.81	98.941	1.0943e-05	130.55	0.0012816	0.0012446	0.00035339	1037.6	1.3418e-05	1.3721e-05	963.28	410.71	1.3452e-05	1.3751e-05	455.48	216.9	179.97	97.083	1.3716e-05	127.67	-27.729	-71.273	-45.940	-125.433	-40.592	-23.719	-126.209	-120.850	6.756	11.563	-122.437	-118.546	-117.324	-113.893	-6.273	-116.305	-8191	255	
23632.816	1	1	0	0	0.10943	0.084551	0.10311	0.17476	0.11493	0.27201	0.10195	0.17624	0.23455	0.075127	0.042756	0.06099	0.19182	0.1551	0.11383	0.21886	-2.5542	-2.2667	-2.3	-3.0208	-2.1354	-2.3625	-2.7812	-2.2188	-2.8146	-2.3771	-2.1792	-3.075	-2.1604	-2.7125	-2.7458	-2.0812	-60.522	-4.859	152.711	186.326	72.635	-117.913	128.580	158.075	2.284	21.814	-24.408	-99.442	198.160	219.121	3.816	129.253	0.001624	0.00089365	0.00021524	1066.7	8.328e-06	5.5219e-06	993.04	422.53	9.6679e-06	9.8162e-06	469.48	223.24	184.83	99.564	1.2983e-05	130.64	0.0013053	0.0012616	0.00034907	1039.1	1.3474e-05	1.3602e-05	968.91	412.05	1.3541e-05	1.3662e-05	458.82	218.52	180.62	97.555	1.3699e-05	128.07	-32.661	-51.184	-55.650	-125.596	-4.187	2.799	-126.362	-121.052	5.441	-16.518	-122.496	-118.677	-117.333	-113.905	-26.311	-115.977	-8191	255	
23632.938	1	1	0	0	0.18391	0.082131	0.18145	0.073634	0.048892	0.10815	0.1678	0.3214	0.067113	0.15931	0.24287	0.071233	0.24958	0.23707	0.17864	0.17071	-2.4229	-2.3333	-2.1	-2.9458	-2.0583	-2.5	-3.0104	-2.2792	-2.7292	-2.7354	-2.0729	-3.1813	-2.4792	-2.625	-2.7354	-2.3063	107.812	83.298	13.152	76.522	-24.990	-16.202	175.903	191.908	71.461	207.033	-94.709	28.892	-106.046	140.552	82.744	149.072	0.0016196	0.00047169	0.00016693	1066.1	5.5163e-06	5.0213e-06	988.68	420.91	1.4949e-05	6.9456e-06	465.58	221.66	184.26	99.078	1.2747e-05	128.9	0.0012771	0.0012359	0.00034279	1038.4	1.326e-05	1.3657e-05	964.11	411.39	1.3295e-05	1.3478e-05	455.24	217.14	180.1	97.036	1.3562e-05	126.54	-30.207	-63.803	-44.253	-125.645	-21.702	43.616	-126.304	-120.984	6.567	31.387	-122.528	-118.763	-117.230	-113.807	0.705	-116.150	-8191	255	
23633.033	1	1	0	0	0.052264	0.063945	0.18944	0.24321	0.27006	0.047658	0.17008	0.11315	0.11749	0.09487	0.12628	0.1689	0.099336	0.15071	0.18073	0.15404	-2.425	-2.6167	-2.0604	-3.1521	-2.2646	-2.2667	-3.0333	-2.3042	-2.7562	-2.6125	-2.225	-2.8542	-2.5	-2.4396	-2.8271	-2.0333	15.844	-60.451	193.091	149.700	-36.559	-6.005	164.507	169.017	180.656	106.840	164.814	164.823	19.342	205.283	113.854	142.151	0.0017483	0.0007208	0.00051915	1067.1	6.1797e-06	6.1096e-06	989.72	421.14	7.1213e-06	9.0128e-06	464.02	222.89	184.4	99.082	9.6712e-06	129.92	0.0012763	0.0012498	0.00035057	1037.7	1.3299e-05	1.3423e-05	960.88	410.52	1.3069e-05	1.3641e-05	454.76	216.99	180.09	97.208	1.3524e-05	127	-32.050	-95.103	-43.752	-125.572	30.126	-4.166	-125.908	-120.999	18.422	44.691	-122.613	-118.594	-117.117	-113.699	-35.676	-115.884	-8191	255	
23633.131	1	1	0	0	0.0070369	0.14248	0.17343	0.27989	0.15425	0.24454	0.37521	0.29203	0.11509	0.064711	0.20906	0.24448	0.12895	0.42615	0.12605	0.39857	-2.1854	-2.5917	-1.8687	-3.0583	-2.4208	-1.9	-3.0917	-2.3521	-2.6125	-2.8479	-2.1333	-2.95	-2.4375	-2.2042	-2.9104	-2.4833	108.996	-13.475	108.152	206.187	-66.289	143.690	171.076	-131.904	171.267	-14.560	162.089	187.092	211.228	-114.553	192.361	93.488	0.0017443	0.0011522	0.00018527	1066.4	1.1618e-05	5.6987e-06	987.96	420.04	9.6548e-06	1.2306e-05	467.39	222.75	184.67	99.357	1.2526e-05	130.16	0.0012709	0.0012294	0.00034562	1036.6	1.3185e-05	1.3673e-05	963.44	410.89	1.327e-05	1.3834e-05	455.93	217.59	180.5	97.402	1.3685e-05	127.74	-29.799	-58.779	-58.923	-125.480	-5.371	-11.143	-125.865	-121.048	3.295	32.092	-122.494	-118.604	-117.326	-113.831	16.057	-116.394	-8191	255	
23633.227	1	1	0	0	0.066764	0.01164	0.08165	0.23995	0.091293	0.11111	0.20395	0.14215	0.087253	0.21765	0.17147	0.14394	0.15017	0.37161	0.033799	0.3325	-1.7833	-2.8208	-1.9021	-2.7812	-2.3833	-2.0938	-2.8833	-2.3104	-2.2521	-2.8646	-2.05	-2.6792	-2.8375	-2.2208	-2.7792	-2.5583	149.978	-110.701	26.631	215.822	-58.544	-125.241	-122.470	-108.243	162.752	-43.572	148.485	219.797	214.326	194.811	-51.368	191.159	0.0017148	0.0010207	0.00036169	1073	8.4611e-06	8.6094e-06	993.5	422.24	8.2766e-06	7.5122e-06	469.94	223.79	184.95	99.72	4.6485e-06	130.83	0.0012909	0.0012395	0.00034756	1041.1	1.3494e-05	1.376e-05	970.61	412.26	1.3377e-05	1.3633e-05	458.96	219.01	180.69	97.721	1.3712e-05	128.42	-29.635	-83.288	-41.740	-125.352	-3.089	0.539	-126.002	-120.767	-14.598	9.315	-122.483	-118.536	-117.395	-113.791	-4.369	-116.089	-8191	255	
23633.346	1	1	0	0	0.29198	0.2438	0.006666	0.12922	0.3858	0.33067	0.18221	0.1337	0.0099127	0.12409	0.23769	0.19356	0.082415	0.019772	0.10968	0.16892	-1.9042	-2.7812	-2.0354	-2.7854	-2.6729	-2.0438	-3.1521	-2.5229	-2.1292	-2.7854	-2.2146	-2.7521	-2.8021	-2.3187	-2.8	-2.6562	219.411	105.234	-136.647	-111.027	83.220	-133.305	149.490	211.287	100.001	174.267	-113.447	170.456	-78.724	147.782	-27.211	94.856	0.0017218	0.00075834	0.00027579	1067.1	6.2848e-06	7.3095e-06	989.92	420.68	4.3247e-06	1.0037e-05	466.96	222.23	183.88	99.033	1.2001e-05	129.68	0.0012669	0.0012544	0.00034922	1039.2	1.3364e-05	1.3677e-05	967.84	411.02	1.3277e-05	1.3505e-05	456.32	217.13	180.06	97.211	1.3734e-05	126.95	-28.422	-72.370	-47.464	-125.418	-22.326	38.933	-125.939	-120.832	-35.277	19.841	-122.641	-118.447	-117.219	-113.910	4.799	-115.884	-8191	255	
23633.418	1	1	0	0	0.061989	0.12951	0.11898	0.22718	0.078694	0.060607	0.33457	0.43141	0.17604	0.10384	0.14605	0.36885	0.21276	0.10212	0.10251	0.24939	-1.7479	-2.7938	-2.075	-2.5417	-2.9729	-2.1875	-2.9	-2.5375	-2.1271	-2.8542	-2.2792	-2.5146	-3.0292	-2.2667	-2.7042	-2.7271	-44.420	72.979	-22.940	209.510	-77.613	-133.445	201.357	209.044	-52.317	15.602	23.246	177.971	-99.822	121.748	170.203	152.774	0.0017141	0.00087893	0.00036058	1063.6	5.2123e-06	7.5094e-06	989.31	420.85	9.4497e-06	5.5635e-06	464.27	222.23	184	98.801	6.661e-06	129.12	0.0012623	0.0012419	0.00034701	1035.9	1.3163e-05	1.3919e-05	963.93	410.1	1.3325e-05	1.3699e-05	454.18	216.57	180.08	97.05	1.3741e-05	126.72	-25.991	-70.595	-62.822	-125.384	17.775	8.956	-126.078	-120.883	42.874	37.750	-122.485	-118.534	-117.110	-113.661	37.532	-116.165	-8191	255	
23633.537	1	1	0	0	0.13917	0.067674	0.1013	0.3749	0.17656	0.23352	0.12497	0.30298	0.072012	0.25811	0.21823	0.097939	0.2093	0.19083	0.12181	0.099446	-1.6896	-2.8542	-2.0687	-2.4583	-2.8896	-2.0042	-2.8937	-2.7583	-1.9167	-2.85	-2.3417	-2.4562	-3.1333	-2.1688	-2.5687	-2.8167	81.479	-9.864	57.915	170.847	-91.832	49.872	-71.013	185.256	-33.950	-12.401	145.540	-9.591	175.684	201.463	192.300	184.734	0.001612	0.00080548	0.00018661	1069.2	1.1912e-05	6.1025e-06	989.62	419.65	1.0923e-05	9.6352e-06	467	222.93	184.27	98.532	7.6973e-06	129.86	0.0012987	0.0012493	0.00035021	1040.2	1.3266e-05	1.3667e-05	965.04	410.5	1.3346e-05	1.3748e-05	456.49	217.5	180.07	97.057	1.3698e-05	127.25	-31.209	-59.822	-49.124	-125.559	-3.981	32.595	-126.053	-120.689	20.843	-5.893	-122.588	-118.537	-117.261	-113.735	10.814	-116.056	-8191	255	
23633.633	1	1	0	0	0.077613	0.23584	0.41006	0.1424	0.13535	0.118	0.28934	0.25367	0.093815	0.33167	0.12071	0.5089	0.16503	0.37627	0.092073	0.22565	-1.575	-2.7708	-2.6146	-2.3958	-2.9604	-2.2438	-2.7146	-2.9667	-1.8708	-2.7417	-2.5125	-2.4917	-3.0062	-2.375	-2.4729	-2.9646	-11.775	120.878	184.155	201.032	52.746	215.489	187.654	187.505	55.359	-120.998	169.937	-136.987	197.006	191.694	-124.789	122.682	0.001631	0.00099325	0.00021706	1073.4	1.1534e-05	5.5556e-06	995.36	422.3	1.1641e-05	1.3723e-05	468.96	224.22	185.07	99.338	1.2395e-05	130.77	0.0012907	0.0012454	0.00034649	1041.9	1.3363e-05	1.3737e-05	971.41	411.91	1.3491e-05	1.3886e-05	458.52	218.89	180.99	97.533	1.3747e-05	128.47	-32.160	-51.209	-20.099	-125.306	11.828	60.962	-125.660	-120.736	-15.624	-16.744	-122.376	-118.417	-117.193	-113.836	4.078	-115.911	-8191	255	
23633.729	1	1	0	0	0.20114	0.14521	0.077263	0.23174	0.22731	0.2274	0.40134	0.20044	0.14153	0.11609	0.14249	0.38443	0.22109	0.17061	0.11616	0.21111	-1.7021	-2.7104	-2.5271	-2.45	-2.8104	-2.0687	-2.4229	-3.0167	-2.0521	-2.75	-2.85	-2.2833	-3.2208	-2.5062	-2.35	-3.0708	-67.774	-134.787	30.141	-123.915	-122.458	91.607	149.905	218.973	-2.121	-86.877	-121.332	196.067	185.827	135.542	207.125	150.543	0.0017811	0.00072994	0.00021512	1068.6	1.0215e-05	1.0443e-05	1002.2	422.62	1.4198e-05	1.0053e-05	468.35	223.67	183.55	98.717	7.9213e-06	129.49	0.0012895	0.0012637	0.00035104	1041.9	1.3611e-05	1.3971e-05	972.4	412.51	1.3566e-05	1.3909e-05	457.51	218	180.22	97.036	1.3555e-05	127.28	-31.594	-52.060	-42.643	-125.303	-26.849	27.066	-125.849	-120.569	21.670	10.126	-122.472	-118.362	-117.013	-113.723	-22.538	-116.185	-8191	255	
23633.826	1	1	0	0	0.3119	0.0095795	0.25658	0.18813	0.16558	0.14618	0.17917	0.23958	0.20057	0.18022	0.2484	0.30698	0.38089	0.14488	0.20208	0.20357	-1.6042	-2.5979	-2.6104	-2.2396	-2.8208	-2.3271	-2.3229	-3.0167	-1.9792	-2.5938	-2.7771	-2.3104	-3.0687	-2.7896	-2.2542	-3.0979	149.893	168.112	79.362	126.443	-62.821	-41.483	178.941	101.837	12.103	210.864	163.753	209.525	178.079	-73.645	-93.384	126.987	0.0017058	0.00092781	0.0002222	1066.4	1.101e-05	7.7087e-06	989.29	420.05	1.2725e-05	7.3459e-06	467.63	221.21	183.86	98.867	1.0635e-05	129.71	0.0012863	0.0012709	0.00034596	1039.8	1.3357e-05	1.3849e-05	965.68	410.73	1.3648e-05	1.3834e-05	456.65	216.37	180	97.053	1.3606e-05	127.04	-32.971	-44.787	-49.289	-125.361	-6.843	31.810	-125.973	-120.780	7.192	21.172	-122.576	-118.668	-117.030	-113.855	-7.332	-116.082	-8191	255	
23633.945	1	1	0	0	0.15566	0.12966	0.2191	0.29887	0.22627	0.04794	0.25436	0.34847	0.25491	0.17009	0.13046	0.10402	0.19338	0.43166	0.21863	0.49112	-1.7125	-2.5312	-2.6437	-2.1167	-2.8146	-2.575	-2.2146	-3.1688	-2.2812	-2.6188	-2.9	-2.0708	-2.9562	-2.8063	-2.1417	-3.1792	-8.643	96.688	-55.121	-123.927	56.487	214.085	172.674	209.683	-31.323	-88.264	220.020	155.064	219.488	190.711	-18.430	163.182	0.0016676	0.0010617	0.00037286	1071.3	4.7112e-06	6.7478e-06	993.84	421.36	6.2917e-06	7.7056e-06	465.62	222.83	183.56	99.139	6.5569e-06	129.76	0.0012921	0.0012544	0.0003464	1040.6	1.3467e-05	1.3938e-05	968.48	411.51	1.3652e-05	1.4015e-05	456.92	217.16	180.08	97.102	1.3853e-05	127.48	-34.900	-33.820	-25.861	-125.120	28.101	-1.403	-125.932	-121.004	14.350	20.291	-122.546	-118.318	-117.108	-113.635	0.484	-116.090	-8191	255	
23634.043	1	1	0	0	0.23602	0.10291	0.092325	0.12069	0.28954	0.17821	0.11387	0.12124	0.25656	0.28395	0.15732	0.20119	0.17697	0.23894	0.32483	0.27165	-1.9042	-2.2042	-2.7479	-2.0833	-2.75	-2.5417	-2.3583	-3.0833	-2.3438	-2.2917	-2.9646	-2.3187	-2.8646	-2.9354	-2.0687	-3.0604	81.336	61.667	138.143	-121.211	11.001	-124.587	207.091	-38.434	188.140	-61.308	167.838	136.963	32.477	169.536	103.389	89.256	0.0015619	0.00085418	0.00031342	1065.1	1.2182e-05	1.0788e-05	1001.7	422.84	1.134e-05	6.7971e-06	468.58	223.24	184.03	99.351	1.0503e-05	130.99	0.0013089	0.0012733	0.00034519	1040.3	1.3642e-05	1.3774e-05	972.32	411.75	1.3685e-05	1.3916e-05	459.41	217.93	180.08	97.489	1.4003e-05	128.38	-32.311	-80.622	-55.340	-125.476	11.484	4.203	-125.988	-120.768	14.338	-32.944	-122.606	-118.381	-117.002	-113.839	6.812	-115.976	-8191	255	
23634.139	1	1	0	0	0.11616	0.17539	0.1165	0.20578	0.063563	0.21432	0.2301	0.19506	0.17871	0.026258	0.043298	0.2377	0.36079	0.29922	0.17594	0.32545	-1.8771	-2.2604	-2.9375	-2.3271	-2.5187	-2.7042	-1.9875	-3.0875	-2.4458	-2.0625	-3.0521	-2.1937	-2.8521	-2.8688	-1.9771	-2.9354	145.292	-71.772	-22.732	190.338	-138.358	205.940	186.605	168.357	122.533	-9.040	-80.582	214.777	212.845	197.885	22.385	134.300	0.0016573	0.0009381	0.00031794	1067.8	1.0024e-05	4.9806e-06	992.92	421.38	1.4927e-05	5.8864e-06	469.36	223.51	183.74	99.213	8.6047e-06	130.14	0.0013104	0.0012867	0.00035183	1041.3	1.3639e-05	1.4006e-05	971.71	412.05	1.3611e-05	1.4224e-05	458.37	217.96	180.14	97.146	1.3856e-05	127.42	-30.202	-57.063	-67.712	-125.281	13.346	-14.252	-125.831	-120.637	24.095	10.460	-122.606	-118.420	-117.186	-113.780	54.610	-115.733	-8191	255	
23634.232	1	1	0	0	0.25902	0.29389	0.29254	0.063188	0.17776	0.11536	0.10698	0.3471	0.17274	0.19798	0.11647	0.072201	0.33993	0.13545	0.27455	0.095494	-2.175	-2.1229	-2.9979	-2.3563	-2.4292	-2.8917	-2.1146	-2.9667	-2.6729	-2.15	-2.9938	-2.2021	-2.5979	-3.1354	-2.0146	-2.9792	46.639	35.960	-88.853	145.724	125.368	103.243	166.960	202.208	168.767	171.531	158.316	156.721	159.822	184.501	-55.141	-119.203	0.0017305	0.00085739	0.00010356	1064.9	2.2516e-07	8.0478e-06	987.59	420.97	9.4294e-06	1.2159e-05	465.19	220.96	183.53	98.933	1.2399e-05	129.55	0.0013093	0.0012789	0.00035671	1037	1.3638e-05	1.4151e-05	963.72	410.53	1.3513e-05	1.426e-05	455.2	216.12	179.33	96.768	1.4163e-05	127.06	-31.283	-58.303	-34.539	-125.237	-69.156	15.790	-125.864	-120.698	33.735	28.923	-122.327	-118.523	-116.938	-113.737	-18.333	-115.869	-8191	255	
23634.328	1	1	0	0	0.12226	0.23954	0.13956	0.19131	0.075019	0.078384	0.4549	0.051842	0.13737	0.44467	0.33655	0.12781	0.10356	0.35226	0.34037	0.33894	-2.1875	-2.1292	-2.7292	-2.4271	-2.2812	-2.9542	-2.2104	-2.6354	-2.6813	-2.0604	-3.0854	-2.525	-2.5354	-3.2167	-2.0646	-2.9375	59.018	8.919	-123.367	152.505	154.878	122.722	144.987	-29.026	96.799	156.486	180.312	-136.569	-15.327	217.486	-119.669	196.874	0.001726	0.00080219	0.00013814	1063	9.921e-06	1.1425e-05	992.17	419.76	5.6698e-06	8.8399e-06	468.73	221.12	184.45	99.056	6.7974e-06	130.59	0.0012994	0.0012879	0.00035069	1036.7	1.3466e-05	1.3833e-05	966.43	410.67	1.3601e-05	1.4048e-05	456.79	216.65	179.88	97.018	1.4128e-05	127.7	-33.356	-41.325	-12.936	-125.165	14.704	3.482	-125.752	-120.736	-6.320	-13.387	-121.919	-118.508	-116.911	-113.702	-12.996	-115.889	-8191	255	
23634.426	1	1	0	0	0.25897	0.19282	0.12303	0.28727	0.25543	0.086183	0.15123	0.26696	0.14225	0.16765	0.12944	0.25109	0.29611	0.17007	0.15574	0.31741	-2.4979	-1.9979	-2.7313	-2.4333	-2.25	-2.8937	-2.3583	-2.7188	-3.025	-1.9729	-3.1042	-2.6437	-2.3104	-3.1562	-2.0312	-2.7313	136.719	-116.967	83.985	-107.419	-45.066	72.579	92.541	153.075	136.240	-89.964	-131.404	187.339	214.149	181.057	70.248	213.564	0.0016689	0.00081581	0.00016093	1066.2	6.5607e-06	4.9745e-06	999.56	421.09	5.4554e-06	8.4616e-06	471.15	223.24	184.5	99.221	9.1301e-06	131.33	0.0013002	0.0012911	0.00035038	1039.6	1.3833e-05	1.4034e-05	970.02	412.19	1.3593e-05	1.4133e-05	459.23	217.9	180.34	97.376	1.4116e-05	128.35	-25.773	-96.904	-9.580	-125.395	-21.560	14.766	-125.892	-120.593	-24.476	-2.853	-122.176	-118.230	-116.776	-113.466	37.977	-115.954	-8191	255	
23634.547	1	1	0	0	0.048389	0.049022	0.15401	0.18583	0.17937	0.15718	0.24163	0.23201	0.04899	0.23232	0.13474	0.22829	0.28731	0.3446	0.12199	0.14061	-2.4562	-2.1229	-2.8729	-2.7979	-1.9604	-3.0458	-2.5	-2.6292	-2.975	-1.9333	-3.0146	-2.6271	-2.3937	-3.0771	-2.325	-2.7354	79.639	120.666	184.629	215.533	-120.041	46.495	127.197	-125.903	-25.679	71.463	151.570	170.830	214.450	-137.950	-31.114	187.673	0.001693	0.0012322	0.00025597	1070.2	9.8892e-06	1.0781e-05	998.29	420.47	9.5191e-06	1.1299e-05	469.5	223.22	184.79	99.328	1.118e-05	129.97	0.0013147	0.0012916	0.00035793	1042	1.3826e-05	1.4117e-05	972.53	412.16	1.3797e-05	1.4289e-05	457.83	217.82	180.23	97.252	1.4032e-05	127.45	-29.885	-21.386	-74.864	-125.417	76.696	43.346	-125.688	-120.634	16.511	0.227	-122.391	-118.536	-116.978	-113.543	-22.011	-116.079	-8191	255	
23634.643	1	1	0	0	0.1016	0.07733	0.090746	0.16635	0.05706	0.072303	0.13699	0.21304	0.20342	0.11194	0.26287	0.080693	0.49613	0.075451	0.05719	0.12293	-2.5438	-1.9875	-2.6208	-2.8792	-2.0687	-2.9292	-2.6542	-2.3458	-2.8521	-2.1875	-2.6792	-2.7896	-2.1771	-3.1312	-2.3167	-2.5646	167.103	171.032	50.426	-127.593	107.413	137.785	-88.094	187.589	-34.584	-22.338	103.879	182.813	199.411	209.972	-121.750	167.481	0.0016793	0.0011351	0.00031048	1064.6	1.0677e-05	1.3855e-05	988.12	419.77	1.075e-05	7.0969e-06	465.52	221.64	183.72	98.863	7.0572e-06	129.46	0.001318	0.001307	0.00036145	1037	1.3876e-05	1.4017e-05	964.08	410.3	1.3754e-05	1.3972e-05	454.53	215.89	179.91	96.862	1.3853e-05	126.92	-33.376	-70.799	-49.874	-125.306	36.304	20.378	-126.134	-120.646	3.568	4.353	-122.232	-118.639	-116.924	-113.629	13.019	-115.974	-8191	255	
23634.715	1	1	0	0	0.1859	0.14256	0.060612	0.17175	0.15846	0.052039	0.11991	0.078702	0.17473	0.33052	0.054918	0.10659	0.19502	0.25281	0.19866	0.11671	-2.6896	-2.1208	-2.5396	-2.8521	-1.975	-3.0646	-2.6146	-2.2625	-2.8771	-2.1729	-2.4938	-2.8312	-2.25	-3.0625	-2.4625	-2.3521	104.566	-20.193	215.419	204.292	-52.844	2.774	75.082	-108.272	195.462	158.382	-131.419	87.527	2.251	160.419	74.358	156.288	0.0017286	0.00087181	0.00014027	1070.6	7.7189e-06	8.6264e-06	990.07	421.43	1.5874e-05	5.8449e-06	468.64	221.53	184.67	99.217	9.4973e-06	130.04	0.0012986	0.0012872	0.00035096	1038.8	1.3859e-05	1.393e-05	966.03	411.24	1.3713e-05	1.4217e-05	457.77	217.02	180.33	97.186	1.3912e-05	127.65	-32.073	-61.762	18.560	-125.307	0.868	11.597	-125.645	-120.499	15.328	32.168	-122.316	-118.489	-116.790	-113.535	-53.338	-115.832	-8191	255	
23634.811	1	1	0	0	0.14483	0.08448	0.058027	0.24596	0.10535	0.14263	0.026667	0.34645	0.36667	0.21284	0.17196	0.38936	0.20183	0.06611	0.27567	0.36863	-2.6813	-2.3312	-2.3167	-3.0438	-2.1937	-2.7854	-2.8312	-2.4167	-2.8229	-2.4208	-2.5208	-2.925	-2.2167	-3.0042	-2.6688	-2.2896	86.012	213.155	197.781	185.028	121.756	152.334	101.859	101.967	43.428	-83.383	-106.622	195.130	199.527	45.615	75.056	178.471	0.0016961	0.00082952	0.0003421	1066.5	7.6661e-06	8.8517e-06	996.28	423.08	6.7213e-06	1.4586e-05	472.08	224.15	184.86	99.425	1.9182e-05	131.48	0.0012845	0.0012572	0.00035631	1040.9	1.3714e-05	1.3941e-05	970.46	413.11	1.3585e-05	1.4088e-05	459.77	219.03	181.08	97.475	1.378e-05	128.57	-31.120	-63.077	-41.121	-125.242	-13.065	10.015	-125.760	-120.571	7.861	13.014	-122.219	-118.308	-117.130	-113.610	12.732	-116.086	-8191	255	
23634.906	1	1	0	0	0.080899	0.15963	0.24442	0.20799	0.20272	0.27444	0.18296	0.36387	0.19561	0.14803	0.16111	0.21395	0.25722	0.13868	0.048817	0.27815	-2.6646	-2.3479	-2.3563	-3.1688	-2.05	-2.5854	-2.8208	-2.075	-2.8292	-2.3042	-2.3083	-3.1604	-2.1521	-2.9396	-2.7958	-2.2833	-2.720	-9.477	64.933	-120.381	171.017	214.879	192.472	217.562	-78.170	77.932	166.691	199.894	-130.977	195.735	-71.760	139.361	0.0017393	0.00099914	0.00032776	1070.6	6.4442e-06	4.8352e-06	1001.7	423.53	3.756e-06	7.9355e-06	473.33	224.36	185.65	99.365	5.8931e-06	130.07	0.0013112	0.0012643	0.0003497	1042	1.3577e-05	1.3897e-05	977.2	413.78	1.3724e-05	1.3964e-05	461.77	219.17	181.41	97.372	1.3902e-05	127.64	-31.407	-35.451	-78.106	-125.719	-2.616	12.085	-125.904	-120.883	6.102	-3.819	-122.313	-118.463	-117.023	-113.498	-16.411	-115.877	-8191	255	
23635.027	1	1	0	0	0.086449	0.19693	0.086489	0.25397	0.24133	0.12521	0.065585	0.26057	0.12633	0.055306	0.13003	0.042474	0.21692	0.36068	0.091931	0.1764	-2.4313	-2.4104	-2.0896	-3.0563	-2.0771	-2.4208	-2.7812	-2.2917	-2.8104	-2.575	-2.2125	-3.0062	-2.4437	-2.5687	-2.9167	-2.1583	-25.697	68.588	31.285	167.871	58.213	169.159	-126.492	188.440	66.324	72.987	164.361	145.158	170.802	203.441	70.323	-138.090	0.0017292	0.0011859	0.00029681	1071.7	1.0165e-05	6.9022e-06	992.65	421.29	1.0068e-05	1.3144e-05	468.25	222.66	184.32	99.173	7.6588e-06	128.97	0.001294	0.0012755	0.00035504	1041.1	1.3746e-05	1.3907e-05	968.63	412.24	1.3688e-05	1.3614e-05	456.87	217.39	180.3	97.09	1.3714e-05	126.74	-24.363	-76.587	-65.991	-125.389	10.013	14.368	-125.616	-120.833	37.072	-9.586	-122.365	-118.455	-116.974	-113.367	-16.356	-115.985	-8191	255	
23635.121	1	1	0	0	0.12687	0.21344	0.19923	0.064094	0.24708	0.2658	0.3509	0.19396	0.090352	0.18768	0.25633	0.25013	0.18048	0.18599	0.42448	0.20319	-2.4729	-2.6354	-2.0479	-2.8917	-2.3646	-2.2271	-3.0979	-2.1771	-2.7792	-2.6896	-1.9625	-3.1875	-2.5021	-2.4062	-2.9396	-2.4667	-76.055	-133.024	214.773	-106.920	86.518	104.516	129.002	125.799	220.242	-66.540	195.578	151.116	-92.269	160.062	-104.271	165.252	0.001653	0.001061	0.0004375	1069.7	1.0283e-05	5.2097e-06	998.46	422.88	1.0871e-05	9.4175e-06	470.58	223.86	184.98	98.945	2.8321e-06	130.02	0.0012909	0.0012495	0.00034756	1040.7	1.3269e-05	1.3684e-05	971.5	412.2	1.3601e-05	1.375e-05	460.42	218.82	181.2	97.074	1.3592e-05	127.49	-30.094	-64.385	-40.992	-125.107	10.113	1.192	-125.714	-120.434	10.153	54.039	-122.018	-118.397	-116.805	-113.506	-28.257	-115.995	-8191	255	
23635.219	1	1	0	0	0.15349	0.12574	0.15607	0.11244	0.35175	0.2055	0.37198	0.151	0.27936	0.21213	0.29273	0.21634	0.3303	0.38178	0.17376	0.3088	-2.1458	-2.7729	-2.0062	-3.1292	-2.5792	-2.2062	-3.1083	-2.3125	-2.4333	-2.9062	-2.1688	-2.8292	-2.5583	-2.3688	-2.9229	-2.2667	-41.436	-102.856	41.422	-123.331	57.827	-135.489	136.342	-122.447	19.183	-55.324	161.752	204.396	174.740	202.278	-81.128	-127.501	0.0016404	0.00099542	0.000223	1070.4	6.2948e-06	9.6357e-06	1004.3	425.4	1.501e-05	9.8831e-06	474.06	227.56	187.42	99.636	9.0048e-06	130.73	0.00125	0.0012456	0.00034803	1044.3	1.3437e-05	1.3663e-05	976.91	415.03	1.3386e-05	1.3631e-05	463.83	221.23	182.53	97.764	1.3723e-05	128.3	-33.627	-48.146	-56.648	-125.402	25.159	10.337	-125.757	-120.545	35.513	32.896	-122.364	-118.309	-117.014	-113.546	3.619	-115.863	-8191	255	
23635.312	1	1	0	0	0.13116	0.2367	0.089372	0.059354	0.16313	0.060261	0.20988	0.23586	0.034888	0.22347	0.18027	0.19647	0.12016	0.37859	0.17105	0.33812	-1.8292	-2.7625	-2.0708	-2.8812	-2.4292	-2.0104	-3.0458	-2.5	-2.4083	-2.9354	-2.2062	-2.6937	-2.8521	-2.3625	-2.8208	-2.5396	124.881	-113.144	65.957	150.447	-78.011	-124.405	136.113	162.592	10.120	56.512	216.214	210.895	-17.078	164.170	201.770	191.753	0.0016398	0.00024828	0.0001763	1077.8	4.7698e-06	6.5826e-06	1008.6	425.75	1.5314e-05	7.663e-06	478.05	227.19	187.53	99.786	1.2052e-05	130.88	0.0012828	0.0012475	0.00034779	1049.4	1.3059e-05	1.3787e-05	981.72	416.67	1.3355e-05	1.3576e-05	467.13	222.17	183.24	97.883	1.3662e-05	128.2	-28.340	-24.503	-70.986	-125.029	22.531	22.153	-125.936	-120.684	13.397	-28.714	-122.324	-118.176	-117.069	-113.407	-21.268	-116.036	-8191	255	
23635.408	1	1	0	0	0.22306	0.040953	0.14608	0.19612	0.43118	0.17978	0.036334	0.23255	0.26954	0.37225	0.23665	0.16905	0.030745	0.20892	0.15677	0.2651	-1.9208	-3.0208	-1.9792	-2.6354	-2.5979	-2.1896	-2.9625	-2.5438	-2.1167	-2.7687	-2.4562	-2.7583	-2.9479	-2.2854	-2.8771	-2.6167	214.103	30.474	48.927	-121.695	152.998	-121.345	158.565	175.304	210.760	-85.801	220.639	140.500	78.043	190.974	-95.910	158.474	0.0016629	0.00071626	0.00036533	1076	7.6065e-06	5.937e-06	1002.3	423.92	8.3897e-06	7.2003e-06	471.22	226.35	186.84	99.722	1.2301e-05	130.07	0.001285	0.0012515	0.00034882	1047.3	1.3442e-05	1.3639e-05	974.32	415.46	1.3388e-05	1.3418e-05	461.87	220.51	182.84	97.665	1.3725e-05	127.23	-28.741	-38.514	-40.133	-125.042	57.489	15.090	-125.651	-120.677	29.956	5.824	-122.064	-118.241	-116.973	-113.513	-5.166	-115.772	-8191	255	
23635.506	1	1	0	0	0.03354	0.26222	0.050904	0.25383	0.054883	0.040009	0.38842	0.34064	0.35129	0.12957	0.03988	0.15911	0.13033	0.21023	0.12138	0.24118	-1.775	-2.8604	-2.3542	-2.6729	-2.8896	-2.1229	-2.9708	-2.85	-2.1917	-2.8854	-2.3167	-2.5604	-3.0042	-2.3792	-2.7917	-2.7625	143.830	-56.271	-110.105	176.252	-22.378	-4.513	158.513	124.084	-20.420	105.249	-124.796	202.549	207.961	175.578	91.577	160.348	0.0016373	0.00073029	0.0002794	1070.2	6.7858e-06	3.9757e-06	1002.8	424.76	1.1725e-05	1.3286e-05	475.84	226.39	187.8	100.02	7.1291e-06	130.83	0.0012744	0.0012425	0.00034027	1044.6	1.3164e-05	1.3834e-05	975.58	415.65	1.3302e-05	1.37e-05	463.04	220.88	183.11	97.995	1.3568e-05	128.04	-28.700	-73.458	-23.567	-125.138	9.327	-63.112	-125.819	-120.587	-12.032	13.111	-122.146	-118.153	-116.939	-113.533	-5.065	-115.675	-8191	255	
23635.627	1	1	0	0	0.099935	0.21682	0.13485	0.23294	0.13142	0.1095	0.20187	0.53694	0.17121	0.078669	0.028864	0.07831	0.34699	0.29868	0.066355	0.32326	-1.5979	-2.9771	-2.2229	-2.5604	-2.9896	-2.0479	-2.8771	-2.85	-1.9	-2.9479	-2.5312	-2.3896	-2.9938	-2.175	-2.5021	-2.8667	60.802	9.164	215.820	164.423	28.305	-31.284	202.866	172.638	147.273	87.015	-129.711	184.616	-121.182	191.913	-22.247	191.178	0.0016775	0.0014501	0.00026769	1076.2	1.1307e-05	7.3293e-06	1003.7	428.03	1.1502e-05	9.8299e-06	476.34	227.81	187.93	100.15	1.1491e-05	131.23	0.0013009	0.001228	0.00034968	1047.2	1.3227e-05	1.3618e-05	979.44	416.62	1.3462e-05	1.3784e-05	464.92	221.92	183.72	98.131	1.3746e-05	128.64	-27.985	-40.533	-43.845	-124.982	27.226	-8.626	-125.463	-120.344	32.226	28.033	-122.174	-118.205	-116.800	-113.370	-12.386	-116.066	-8191	255	
23635.723	1	1	0	0	0.11152	0.092639	0.14663	0.13873	0.076965	0.10639	0.033016	0.18675	0.07636	0.21225	0.1779	0.25771	0.15369	0.20018	0.13655	0.1752	-1.5562	-2.7396	-2.3625	-2.2188	-2.8854	-2.1833	-2.6104	-2.9354	-2.0417	-2.9771	-2.6042	-2.4167	-2.8792	-2.5917	-2.4062	-3.0708	101.202	46.048	68.475	141.463	-39.935	35.221	-134.853	163.745	177.362	216.522	118.219	212.842	-83.744	-134.223	-113.971	163.702	0.001613	0.00047258	0.00015837	1080	7.7997e-06	5.4556e-06	1008.3	426.21	9.7601e-06	1.1731e-05	476	227.63	187.79	100.02	9.1547e-06	130.49	0.0013136	0.0012611	0.00035361	1051.3	1.363e-05	1.3856e-05	982.41	416.67	1.3575e-05	1.4006e-05	465.59	222.43	183.36	98.086	1.3803e-05	128.12	-29.268	-47.569	-21.193	-125.320	-23.106	-11.553	-126.060	-120.722	5.739	10.882	-122.262	-118.629	-117.173	-113.762	12.438	-115.933	-8191	255	
23635.818	1	1	0	0	0.13002	0.17294	0.19418	0.13174	0.060011	0.02855	0.071	0.39692	0.26915	0.058918	0.12241	0.18331	0.11158	0.28659	0.27321	0.42697	-1.7854	-2.8292	-2.5208	-2.1896	-2.9083	-2.3333	-2.4688	-2.9854	-2.1396	-2.7438	-2.6083	-2.2708	-2.9208	-2.3417	-2.175	-3.1604	-36.848	118.217	87.235	-127.173	29.511	86.979	96.289	179.620	-13.992	89.463	-129.081	144.324	97.907	-134.688	-71.538	163.931	0.0014756	0.00049783	0.00032997	1075.9	1.6484e-05	7.6207e-06	1002.9	425.99	1.3422e-05	9.8524e-06	471.37	225.05	186.94	99.294	8.0811e-06	129.31	0.0013015	0.0012607	0.00035637	1046.8	1.3472e-05	1.3844e-05	975.54	415.57	1.3677e-05	1.3823e-05	461	219.59	182.57	97.538	1.3955e-05	126.99	-29.758	-68.424	-26.343	-125.396	9.408	-6.046	-125.715	-120.935	14.532	13.980	-122.527	-118.469	-116.929	-113.715	7.515	-116.101	-8191	255	
23635.939	1	1	0	0	0.39397	0.056695	0.053636	0.24946	0.29651	0.25643	0.28518	0.22292	0.083804	0.086094	0.23887	0.098029	0.18708	0.18165	0.11267	0.16912	-1.6083	-2.5521	-2.5938	-2.1042	-2.7062	-2.3937	-2.325	-3.0979	-1.9667	-2.8104	-2.8604	-2.225	-2.9792	-2.7125	-2.3271	-3.1979	38.412	67.215	-98.827	-131.064	122.009	79.488	137.700	127.469	-109.866	178.885	111.303	202.884	-64.959	133.961	174.869	163.102	0.0016028	0.00086912	0.00045395	1074.5	1.0341e-05	6.4193e-06	1002	424.67	1.1982e-05	1.1273e-05	471.98	224.82	186.55	99.401	1.1417e-05	130.23	0.0013034	0.0012907	0.00035686	1045.1	1.3687e-05	1.3968e-05	975.34	414.74	1.3856e-05	1.415e-05	461.66	219.68	182.81	97.621	1.3902e-05	127.52	-28.352	-23.762	-66.910	-125.279	44.383	0.918	-125.653	-120.990	4.337	13.185	-122.344	-118.614	-117.278	-113.600	-23.057	-115.942	-8191	255	
23636.012	1	1	0	0	0.080051	0.19474	0.060575	0.24495	0.18007	0.17492	0.039038	0.12936	0.05839	0.081723	0.15228	0.29201	0.096709	0.33176	0.16208	0.079227	-1.7062	-2.5146	-2.7812	-2.0729	-2.6625	-2.3812	-2.5167	-3.0104	-2.1792	-2.4875	-2.9188	-2.35	-2.9188	-2.7375	-2.1437	-3.1771	2.957	199.286	10.662	174.815	-35.769	-108.355	112.015	135.997	167.791	43.852	-138.518	208.744	157.939	156.393	-76.478	157.617	0.0016736	0.00071344	0.00014089	1075.7	9.7164e-06	3.6509e-06	1008.2	426.05	1.5412e-05	4.6481e-06	473.59	225.88	187.58	99.982	8.0513e-06	130.69	0.0013069	0.0012667	0.00035569	1047.6	1.3394e-05	1.3775e-05	980.02	415.74	1.372e-05	1.4316e-05	462.57	220.72	183.37	97.864	1.4093e-05	128.04	-30.572	-60.827	-85.519	-125.209	14.775	61.178	-125.808	-120.634	10.460	11.496	-122.393	-118.360	-116.750	-113.618	14.908	-115.927	-8191	255	
23636.107	1	1	0	0	0.14774	0.13918	0.02446	0.061563	0.15283	0.17187	0.46829	0.090267	0.38673	0.18324	0.12881	0.24261	0.40712	0.27804	0.13692	0.24433	-1.8708	-2.2271	-2.7354	-2.2167	-2.7417	-2.7229	-2.2042	-3.0771	-2.2812	-2.4333	-3.1	-2.1688	-2.8708	-2.7583	-2.0062	-3.1229	14.938	-67.843	43.355	197.661	0.397	198.993	184.641	-17.209	-19.039	21.304	118.144	157.577	-137.811	211.387	188.666	180.064	0.0015195	0.00088171	0.00048654	1077.5	9.3324e-06	6.9693e-06	1008.9	426.33	8.792e-06	5.112e-06	475.82	227.1	186.97	99.851	1.0761e-05	130.33	0.0013066	0.0012848	0.00035086	1046.3	1.3871e-05	1.3904e-05	979.94	416.6	1.3844e-05	1.4166e-05	464.47	221.37	182.88	97.894	1.3958e-05	127.67	-28.441	-75.143	-49.611	-125.144	10.606	-0.827	-125.979	-120.700	1.446	-15.091	-122.338	-118.503	-117.048	-113.639	37.708	-115.980	-8191	255	
23636.203	1	1	0	0	0.096003	0.18475	0.19012	0.10205	0.12604	0.19411	0.093259	0.11475	0.22636	0.17792	0.35722	0.39811	0.062743	0.35579	0.23097	0.043384	-1.8104	-2.1688	-2.7896	-2.4437	-2.6271	-2.4771	-2.1167	-2.8479	-2.3833	-2.1604	-3.0208	-2.2917	-2.5979	-3.0604	-2.025	-3.1688	70.222	-59.023	-79.577	166.665	-125.624	112.206	123.620	176.795	85.842	-73.716	-107.338	156.415	143.633	179.160	-45.447	165.549	0.001609	0.00046149	0.00020555	1075.7	5.0336e-06	6.7905e-06	997.61	424.27	1.9292e-06	1.1007e-05	470.96	223.24	185.22	98.675	9.3109e-06	128.09	0.001301	0.0013024	0.00035292	1047.8	1.3752e-05	1.412e-05	974.39	414.44	1.385e-05	1.4257e-05	460.53	217.97	181.57	96.8	1.4363e-05	125.69	-35.659	-57.496	-75.567	-125.313	1.529	48.959	-125.781	-120.521	38.059	3.806	-122.344	-118.576	-116.964	-113.660	-37.033	-115.909	-8191	255	
23636.322	1	1	0	0	0.071779	0.18668	0.1935	0.37767	0.13051	0.066789	0.52507	0.28111	0.30396	0.16211	0.26351	0.14368	0.23195	0.19932	0.16365	0.17386	-2.0521	-2.2125	-2.7417	-2.3563	-2.5896	-2.7625	-2.1125	-2.8667	-2.5896	-2.2479	-2.9604	-2.3417	-2.5812	-3.1167	-2.0479	-2.9792	204.073	148.710	148.691	-123.988	-112.099	192.359	171.996	-123.253	30.637	206.533	167.042	145.172	187.388	189.011	57.926	135.169	0.0015814	0.0010995	0.00028507	1073.1	1.0315e-05	6.7548e-06	998.81	422.6	1.4023e-05	1.0125e-05	467.64	222.62	185.17	98.233	1.0954e-05	128.34	0.0013141	0.0013133	0.00035958	1044.1	1.3929e-05	1.4124e-05	973.51	413.31	1.418e-05	1.4318e-05	459.15	217.5	181.08	96.479	1.4055e-05	126	-28.419	-40.474	-19.465	-125.208	-6.724	13.957	-125.732	-120.415	-6.522	-18.471	-122.382	-118.482	-116.749	-113.635	-1.172	-115.996	-8191	255	
23636.418	1	1	0	0	0.24349	0.30438	0.17797	0.26929	0.049062	0.042869	0.10161	0.21248	0.11835	0.06996	0.35429	0.2582	0.25082	0.12978	0.21778	0.20425	-2.1521	-2.175	-2.7812	-2.5042	-2.3125	-2.8042	-2.3229	-2.75	-2.7771	-1.9771	-3.0042	-2.5354	-2.3729	-3.1688	-2.1437	-2.6562	73.802	50.532	-126.108	188.952	-44.229	-1.659	81.261	77.764	215.089	175.897	194.482	129.665	198.512	202.230	194.207	-116.219	0.0016532	0.0015229	0.0003041	1075	5.6239e-06	7.7296e-06	998.4	425.34	1.2727e-05	1.0881e-05	473.18	224.11	185.16	98.401	6.0635e-06	129.44	0.0013313	0.0013113	0.00036026	1044.7	1.3851e-05	1.4264e-05	973.07	415.2	1.3921e-05	1.406e-05	461.5	219.23	181.59	96.688	1.4038e-05	126.76	-28.180	-51.684	-44.891	-125.436	4.402	17.238	-125.651	-120.702	3.288	28.336	-122.270	-118.568	-116.685	-113.627	5.561	-115.885	-8191	255	
23636.514	1	1	0	0	0.32739	0.21993	0.18014	0.18289	0.27902	0.1417	0.20995	0.15734	0.30064	0.08879	0.095263	0.24314	0.16101	0.26339	0.2035	0.32547	-2.325	-1.9813	-2.7542	-2.6229	-2.3812	-2.725	-2.2292	-2.7729	-2.8563	-2.2021	-3.0125	-2.6188	-2.4229	-3.1688	-2.3104	-2.6833	188.866	-95.844	85.481	108.294	19.444	68.831	138.383	-132.185	-0.112	181.545	190.469	158.626	201.775	157.574	128.948	137.403	0.0016673	0.00066895	0.00021017	1076.9	2.4221e-06	7.2933e-06	1007.5	425.15	1.3458e-05	7.0703e-06	471.51	226.11	185.7	98.419	7.0981e-06	128.83	0.0013214	0.0013185	0.00036403	1047.4	1.3749e-05	1.4224e-05	979.81	415.02	1.4008e-05	1.4274e-05	463.36	220.31	181.66	96.498	1.4322e-05	126.54	-33.940	-62.319	-40.390	-125.326	30.974	12.787	-125.507	-120.343	-40.337	60.826	-122.260	-118.247	-116.865	-113.499	-19.856	-115.710	-8191	255	
23636.588	1	1	0	0	0.12949	0.18455	0.24197	0.34236	0.15971	0.11455	0.1361	0.20832	0.064119	0.11279	0.2934	0.076987	0.25584	0.25604	0.069239	0.33331	-2.5125	-1.9833	-2.6708	-2.6792	-2.0833	-2.8187	-2.4479	-2.475	-2.9521	-2.025	-2.8021	-2.725	-2.2208	-3.1917	-2.3458	-2.4938	42.656	3.852	-44.817	180.772	101.740	23.984	134.002	52.240	59.805	162.306	-125.145	-72.105	-27.271	181.349	164.349	187.648	0.001522	0.00072415	0.00014627	1077.7	1.1397e-05	9.257e-06	997.87	422.76	1.7213e-05	6.6732e-06	469.65	223.61	184.81	98.061	9.7356e-06	128.45	0.001315	0.0013203	0.00036692	1047.8	1.3879e-05	1.4193e-05	974.34	413.71	1.4084e-05	1.4461e-05	460.41	218.2	180.88	96.153	1.4179e-05	125.6	-29.136	-55.634	-69.907	-125.317	13.470	33.235	-125.791	-120.246	-12.093	54.226	-122.172	-118.004	-116.892	-113.364	-19.369	-115.731	-8191	255	
23636.707	1	1	0	0	0.20272	0.13619	0.10002	0.078172	0.19126	0.26978	0.085757	0.12199	0.18317	0.1837	0.13624	0.19462	0.23597	0.11744	0.25041	0.41527	-2.4313	-1.8917	-2.6479	-2.7417	-1.8813	-2.9021	-2.6896	-2.3458	-2.7333	-2.1021	-2.8021	-2.8271	-2.2562	-3.0812	-2.4062	-2.3458	27.871	-102.297	-19.475	-65.151	-30.312	-108.295	-130.083	37.842	48.663	-110.115	127.087	202.968	221.276	162.362	163.584	158.954	0.0016939	0.00052835	0.00030449	1076.9	5.3464e-06	8.3978e-06	998.9	421.91	3.7377e-06	7.0974e-06	468.69	222.89	184.49	97.878	1.3682e-05	127.93	0.0013067	0.0013071	0.00036169	1043.8	1.3914e-05	1.413e-05	973.02	412.44	1.3818e-05	1.4279e-05	459.61	218.24	180.86	96.066	1.4324e-05	125.68	-33.288	-56.544	-60.775	-125.204	41.812	-4.490	-125.728	-120.290	74.207	-10.781	-122.145	-118.359	-116.947	-113.505	5.137	-115.831	-8191	255	
23636.803	1	1	0	0	0.071039	0.2163	0.13361	0.34118	0.0027376	0.095721	0.10945	0.25641	0.13946	0.14978	0.10858	0.20077	0.075479	0.28919	0.2844	0.15961	-2.5958	-2.1354	-2.5042	-2.8125	-2.0062	-2.7938	-2.7208	-2.325	-2.9958	-2.3208	-2.7479	-3.0854	-2.1917	-2.975	-2.7896	-2.4062	184.417	135.679	-95.378	203.350	-91.705	202.602	97.636	156.580	120.017	25.563	52.363	117.004	195.279	191.697	15.531	150.509	0.0015579	0.00088686	0.00028045	1074.9	5.3257e-06	1.3475e-05	1002	422.06	8.4201e-06	8.8196e-06	474.29	224.57	185.16	98.021	1.0126e-05	128.65	0.0013114	0.0013024	0.0003598	1044.7	1.3834e-05	1.411e-05	975.09	413.73	1.3767e-05	1.4358e-05	463.22	219.6	181.33	96.108	1.4198e-05	126.23	-30.600	-56.802	-16.866	-125.182	-8.329	9.309	-125.707	-120.659	52.332	23.137	-122.350	-118.202	-116.905	-113.519	7.019	-115.845	-8191	255	
23636.898	1	1	0	0	0.15744	0.078774	0.20302	0.14558	0.068517	0.098132	0.044928	0.3489	0.1422	0.11598	0.21984	0.22273	0.24824	0.15756	0.14228	0.26539	-2.6813	-2.3292	-2.4771	-2.9208	-2.1229	-2.7667	-2.7396	-2.1292	-2.9396	-2.3854	-2.4562	-3.0687	-2.2354	-2.9458	-2.725	-2.4292	35.183	75.136	72.570	-127.103	52.825	192.638	163.317	208.332	168.531	-7.076	138.768	102.012	117.444	-98.810	-44.387	99.304	0.0015634	0.00094126	0.0003436	1079.8	6.3999e-06	5.5271e-06	1009.5	424.1	1.1488e-05	1.9344e-05	476.73	226.05	185.92	98.535	7.9992e-06	129.17	0.0013434	0.0013172	0.00035699	1048.2	1.3971e-05	1.4409e-05	980.72	414.7	1.3746e-05	1.4341e-05	465.75	221.1	181.96	96.589	1.4248e-05	126.97	-30.379	-38.397	-44.507	-125.005	25.827	14.973	-125.723	-120.557	10.265	10.915	-122.013	-117.970	-117.075	-113.508	7.155	-115.822	-8191	255	
23637.020	1	1	0	0	0.25795	0.065041	0.13279	0.34171	0.12077	0.094574	0.32669	0.11922	0.12287	0.16081	0.17162	0.13497	0.31981	0.27882	0.11283	0.19159	-2.5542	-2.425	-2.25	-3.0375	-2.0708	-2.7854	-2.8333	-2.1854	-2.925	-2.3208	-2.4	-3.1854	-2.4125	-2.5833	-2.7083	-2.3229	205.626	-80.825	-18.456	203.718	185.020	140.734	165.411	-53.360	-85.502	34.224	101.731	143.068	179.230	-117.240	-107.628	110.423	0.0016623	0.0014234	0.0002594	1077.6	9.7097e-06	7.0885e-06	1004.6	424.39	8.0197e-06	1.0204e-05	473.14	224.66	184.58	98.51	1.1852e-05	128.29	0.0013249	0.0013129	0.00035852	1048.8	1.4206e-05	1.4145e-05	978.93	414.8	1.4033e-05	1.425e-05	463.03	219.44	181.04	96.361	1.4261e-05	125.75	-31.408	-54.001	-49.991	-124.982	17.827	11.724	-125.480	-120.419	47.805	-16.136	-121.778	-118.380	-116.826	-113.180	19.324	-115.491	-8191	255	
23637.115	1	1	0	0	0.22675	0.14138	0.25801	0.20282	0.35497	0.12096	0.0094525	0.14328	0.032563	0.084741	0.22293	0.084589	0.10652	0.067711	0.11105	0.13845	-2.5917	-2.2896	-2.1604	-3.1667	-2.3292	-2.5521	-3.0167	-2.2979	-3.0604	-2.5604	-2.2896	-3.1854	-2.4375	-2.7125	-3.0458	-2.2896	-76.641	68.510	21.848	129.535	79.017	-57.894	81.578	184.675	92.032	70.971	182.510	-81.115	177.136	186.498	70.146	191.855	0.001718	0.0010933	0.00018342	1073	7.4286e-06	4.8965e-06	1002.7	424.34	8.6735e-06	3.7239e-06	470.61	224.68	185.17	97.935	9.8827e-06	128.31	0.0013095	0.001308	0.00036092	1045.1	1.408e-05	1.4202e-05	977.19	414.08	1.3929e-05	1.4231e-05	461.12	219.3	181.27	96.111	1.428e-05	125.92	-27.085	-61.215	-63.240	-124.969	9.313	13.894	-125.554	-120.115	43.001	-4.311	-121.677	-117.846	-116.240	-112.983	-0.733	-115.592	-8191	255	
23637.211	1	1	0	0	0.18412	0.1705	0.21308	0.10556	0.2593	0.095096	0.41104	0.35144	0.38588	0.19422	0.22205	0.062936	0.20419	0.38095	0.091923	0.33416	-2.5333	-2.5729	-2.0625	-3.2542	-2.375	-2.4333	-3.1458	-2.2979	-2.7292	-2.7458	-2.2438	-3.0375	-2.5583	-2.4875	-2.9542	-2.3208	64.357	-18.597	-4.280	165.085	150.927	-82.991	175.941	212.962	-113.027	28.971	159.617	130.876	187.803	199.615	114.128	154.734	0.0015338	0.00091904	0.00027592	1073	1.3138e-05	9.0301e-06	1006.3	424.16	1.3234e-05	7.1946e-06	474.39	226.17	186.41	98.417	1.2407e-05	129.18	0.001329	0.0013145	0.00036358	1048.4	1.3856e-05	1.444e-05	980	414.23	1.4169e-05	1.4304e-05	465.03	220.68	181.68	96.554	1.3895e-05	126.78	-28.042	-67.214	-17.470	-124.816	40.932	6.523	-125.336	-120.242	1.404	1.702	-121.890	-117.988	-116.933	-113.107	-12.493	-115.360	-8191	255	
23637.309	1	1	0	0	0.19287	0.37102	0.23749	0.26957	0.10493	0.29662	0.12385	0.13714	0.030681	0.304	0.12834	0.33425	0.25319	0.36173	0.27104	0.24939	-2.2771	-2.7979	-2.125	-2.9375	-2.4396	-2.2146	-3.1917	-2.4729	-2.6167	-2.8688	-2.0854	-3.0771	-2.65	-2.4146	-2.9625	-2.4083	-117.086	-24.156	-42.614	189.860	174.954	-104.278	162.915	167.239	18.946	-33.701	-120.944	-132.437	-99.766	215.146	15.308	198.082	0.0015744	0.00037254	0.00039129	1077.5	1.0236e-05	7.1709e-06	1010.9	425.52	1.6254e-05	1.3685e-05	477.52	227.31	185.73	99.059	1.2499e-05	130.2	0.0013431	0.0013166	0.00036035	1051.3	1.4192e-05	1.4499e-05	983.47	415.86	1.3946e-05	1.4316e-05	467.53	222.11	182.18	96.897	1.4313e-05	127.62	-28.666	-113.234	-76.743	-125.156	12.331	-16.897	-125.742	-120.569	-19.223	45.980	-121.805	-117.845	-116.701	-113.173	3.455	-115.927	-8191	255	
23637.402	1	1	0	0	0.14647	0.22851	0.27811	0.27837	0.10882	0.055998	0.2027	0.16923	0.2695	0.12877	0.31548	0.10564	0.01885	0.11108	0.12079	0.22566	-2.1708	-2.7458	-1.9625	-2.9646	-2.5042	-1.8896	-2.9833	-2.15	-2.2979	-2.8104	-2.1354	-2.925	-2.7125	-2.2542	-2.9729	-2.4646	8.168	70.822	15.533	168.826	-56.794	115.047	178.785	159.827	66.148	182.585	-82.098	-126.847	2.282	159.590	50.703	182.082	0.0016692	0.00098595	0.00021479	1079.8	3.7552e-06	6.1376e-06	1007.7	426.01	1.4434e-05	1.4622e-05	476.21	226.61	185.56	98.102	7.8349e-06	128.27	0.0013402	0.0013173	0.00036653	1051.7	1.402e-05	1.4666e-05	984.79	416.36	1.4253e-05	1.42e-05	465.93	221.2	181.65	96.272	1.4292e-05	126.12	-29.543	-88.640	-44.911	-125.017	-25.263	33.035	-125.751	-120.459	44.838	23.396	-121.865	-118.125	-116.996	-113.329	-28.917	-115.548	-8191	255	
23637.498	1	1	0	0	0.022445	0.14586	0.071764	0.2431	0.053471	0.30463	0.40683	0.046218	0.24954	0.24186	0.15613	0.10348	0.066755	0.16547	0.057391	0.32605	-1.9604	-2.9458	-2.0625	-2.8042	-2.7333	-2.225	-2.9229	-2.6417	-2.3	-3.0417	-2.2938	-2.7333	-2.9167	-2.1792	-2.8771	-2.6854	84.066	186.159	157.903	-106.672	106.502	-55.857	103.293	142.044	1.920	184.210	121.471	117.227	-122.785	127.384	2.307	176.933	0.0016561	0.00096703	0.00030827	1077.1	9.5703e-06	8.1722e-06	1008.1	424.47	1.0189e-05	1.076e-05	475.66	225.7	185.96	98.033	7.841e-06	128.69	0.001334	0.0013065	0.00036347	1048.8	1.3835e-05	1.4187e-05	982.77	414.98	1.3908e-05	1.4076e-05	465.4	220.41	181.8	96.338	1.4009e-05	126.15	-29.150	-49.264	-56.781	-124.495	22.009	22.502	-124.936	-120.266	12.207	-1.640	-122.099	-118.102	-116.505	-113.070	-33.591	-115.144	-8191	255	
23637.619	1	1	0	0	0.16928	0.022104	0.092859	0.061103	0.33866	0.06726	0.20444	0.34454	0.069453	0.082142	0.34924	0.21553	0.20468	0.093176	0.19424	0.4468	-1.8208	-2.8187	-2.1625	-2.7188	-2.7917	-2.1146	-2.9313	-2.5208	-2.1958	-2.9229	-2.475	-2.5271	-2.9083	-2.1417	-2.8646	-2.7875	175.249	-58.034	180.552	-73.023	151.975	-77.822	-119.312	143.801	98.663	116.126	112.495	138.516	177.307	219.872	68.397	174.955	0.0016642	0.001144	0.00023289	1079.3	8.3191e-06	6.489e-06	1011.8	425.85	1.3774e-05	7.0568e-06	476.32	227.46	186.96	98.797	7.3338e-06	128.96	0.0013298	0.0012873	0.00036369	1048.9	1.3793e-05	1.411e-05	984.97	415.91	1.3867e-05	1.4111e-05	467.36	221.58	182.85	96.678	1.4025e-05	126.69	-30.088	-37.796	-48.603	-124.656	34.297	14.484	-125.342	-120.189	20.624	34.899	-121.591	-117.557	-116.414	-113.108	-2.157	-115.445	-8191	255	
23637.715	1	1	0	0	0.13323	0.25338	0.13442	0.30545	0.36738	0.10167	0.19231	0.22848	0.073577	0.12857	0.023289	0.11969	0.11459	0.29751	0.2687	0.31196	-1.7125	-2.8167	-2.3625	-2.5708	-3.0458	-2.3146	-3.0354	-2.8125	-2.15	-2.8438	-2.525	-2.525	-3.2604	-2.2375	-2.8042	-2.9146	3.099	-98.814	-80.185	-137.267	-72.862	-58.698	-22.449	150.387	111.201	67.726	77.960	112.740	148.450	168.548	-88.539	130.513	0.0015416	0.00064313	0.00033472	1082.2	1.0961e-05	8.4673e-06	1013.9	427.92	9.2831e-06	1.57e-05	482.68	228.47	188.06	98.77	1.4621e-05	130.39	0.0013198	0.0013186	0.0003614	1052.8	1.3923e-05	1.4247e-05	989.28	417.18	1.3666e-05	1.4267e-05	470.27	223.22	183.27	96.794	1.419e-05	127.66	-29.036	-113.346	-47.071	-124.620	-7.702	16.508	-124.950	-120.120	57.469	-11.830	-121.874	-117.554	-116.595	-112.930	5.282	-115.355	-8191	255	
23637.811	1	1	0	0	0.19663	0.092685	0.082756	0.027185	0.21655	0.13191	0.21137	0.2394	0.23069	0.19517	0.28894	0.16209	0.11206	0.17675	0.15544	0.057779	-1.6812	-2.7958	-2.3937	-2.5583	-2.9688	-2.2146	-2.8312	-3.0333	-2.0312	-2.9	-2.6271	-2.4521	-2.9813	-2.425	-2.4	-2.9042	211.633	21.593	95.026	-117.071	-110.885	-107.249	123.434	-61.417	185.764	160.138	190.151	65.487	123.817	-121.189	83.494	-72.443	0.0016123	0.00067469	0.00021074	1084.1	7.8336e-06	5.5925e-06	1017.5	426.4	1.6913e-05	9.8226e-06	480.42	227.95	186.49	98.381	1.0746e-05	128.89	0.0013066	0.0013048	0.00035463	1054.4	1.3753e-05	1.417e-05	990.75	417.89	1.3925e-05	1.4135e-05	468.17	222.52	182.66	96.485	1.4153e-05	126.38	-31.523	-90.376	-31.455	-124.476	29.659	16.787	-125.875	-120.717	15.656	-2.919	-122.168	-118.417	-117.046	-113.674	32.729	-116.299	-8191	255	
23637.883	1	1	0	0	0.2709	0.066026	0.11139	0.17028	0.19428	0.20098	0.12175	0.10977	0.13094	0.064751	0.21021	0.17925	0.18875	0.39902	0.10302	0.35489	-1.8167	-2.7604	-2.4188	-2.15	-2.8292	-2.0438	-2.6208	-2.9604	-2.0563	-2.625	-2.8896	-2.1979	-2.9208	-2.4771	-2.3917	-3.0896	87.819	156.901	206.871	219.900	109.257	182.536	56.760	116.571	127.533	109.678	144.744	-82.000	186.212	203.079	-110.821	183.777	0.0016619	0.00093586	0.00023464	1076.3	1.0925e-05	7.5854e-06	1009	425.37	1.0188e-05	8.2197e-06	478.18	225.82	186.29	97.837	7.8922e-06	128.47	0.0012974	0.0012782	0.00035705	1050.4	1.3877e-05	1.4146e-05	983.45	415.86	1.3822e-05	1.4252e-05	466.14	220.98	182.28	96.126	1.4337e-05	126.04	-31.107	-45.964	-58.650	-125.398	23.590	19.665	-125.885	-120.944	17.904	26.967	-122.439	-118.665	-117.211	-113.809	5.584	-115.977	-8191	255	
23638.004	1	1	0	0	0.22418	0.066233	0.059965	0.13219	0.12773	0.20687	0.11686	0.22929	0.087751	0.060211	0.29864	0.19565	0.27611	0.27034	0.084771	0.23359	-1.6625	-2.7896	-2.6646	-2.0396	-2.8438	-2.2771	-2.5625	-2.9375	-2.0771	-2.7708	-2.6042	-2.1125	-2.9542	-2.5542	-2.1896	-3.0708	-110.767	174.508	116.379	213.898	151.820	105.396	66.106	143.235	-65.042	146.589	216.930	118.159	-121.441	219.871	-28.083	144.927	0.0017838	0.00058272	0.00029489	1076.7	1.0182e-05	8.2521e-06	1012.9	428.4	1.1231e-05	1.3073e-05	477.37	227.84	186.95	98.258	8.016e-06	128.72	0.0013187	0.0012871	0.00035509	1049	1.3825e-05	1.3857e-05	987.87	416.95	1.3671e-05	1.4081e-05	468.03	222.33	182.92	96.536	1.3906e-05	126.55	-30.411	-79.892	-59.641	-125.064	34.224	-7.353	-125.879	-120.821	-2.936	-9.108	-122.522	-118.478	-117.018	-113.857	23.893	-115.956	-8191	255	
23638.100	1	1	0	0	0.029951	0.15522	0.055174	0.30183	0.064681	0.20997	0.39792	0.21764	0.18765	0.14587	0.27494	0.4578	0.37458	0.32167	0.20005	0.31295	-1.7479	-2.6	-2.7792	-2.2729	-2.8021	-2.4417	-2.4188	-2.9896	-2.4	-2.3854	-2.9083	-2.2979	-2.9146	-2.7729	-2.2313	-3.1708	-11.797	55.847	39.496	211.361	-107.842	58.201	116.937	-85.501	213.980	-83.664	200.895	-44.557	205.180	178.837	143.355	210.482	0.0016061	0.00080326	0.00026199	1079	5.9048e-06	7.6829e-06	1015.4	427.71	1.5862e-05	7.7745e-06	480.96	228.77	187.79	98.637	5.0215e-06	129.74	0.0013121	0.001294	0.00035258	1051.5	1.3741e-05	1.4167e-05	989.51	418.05	1.3879e-05	1.4119e-05	470.45	223.55	183.87	96.74	1.3823e-05	127.27	-30.549	-51.287	-62.399	-125.351	0.760	24.269	-125.986	-120.861	-15.932	8.951	-122.238	-118.546	-117.093	-113.763	-10.014	-115.879	-8191	255	
23638.195	1	1	0	0	0.079664	0.17402	0.2068	0.2612	0.11412	0.22922	0.10888	0.062296	0.27123	0.12071	0.2225	0.2441	0.13112	0.31871	0.091539	0.20371	-1.8438	-2.2875	-2.8792	-2.2583	-2.7938	-2.5563	-2.225	-2.8583	-2.4208	-2.2562	-2.8354	-2.2146	-2.8542	-2.8958	-2.1813	-3.0896	-45.365	-131.875	52.584	-108.773	23.408	51.343	36.755	201.395	-69.199	-131.214	187.538	164.391	-127.945	204.398	24.743	135.494	0.0017016	0.00081072	0.00035752	1081	1.5212e-05	5.4556e-06	1019.6	429.56	1.0136e-05	1.1157e-05	482.51	227.93	187.13	98.379	1.1819e-05	129	0.0013108	0.0012948	0.00035562	1054.3	1.3691e-05	1.4066e-05	992.52	419.61	1.366e-05	1.4209e-05	470.57	222.82	183.03	96.688	1.4109e-05	126.58	-32.279	-24.508	-53.841	-125.242	23.247	19.310	-126.048	-120.454	13.376	22.188	-122.672	-118.401	-116.978	-113.745	6.065	-115.765	-8191	255	
23638.289	1	1	0	0	0.16801	0.4297	0.055286	0.2827	0.031198	0.32395	0.30894	0.36392	0.1202	0.080207	0.10721	0.18915	0.14549	0.11512	0.18917	0.11053	-1.7833	-2.2438	-2.9688	-2.1583	-2.5771	-2.6083	-2.2104	-2.9583	-2.2708	-2.2958	-3.0208	-2.4437	-2.5854	-3.1146	-1.9813	-2.9062	25.928	-132.370	76.644	111.845	161.238	-7.542	192.733	183.887	53.858	-74.720	169.310	193.566	152.026	-95.827	-121.517	-85.518	0.0015924	0.00064294	0.00018031	1078	7.9032e-06	9.0334e-06	1008.3	426.82	9.369e-06	8.4707e-06	476.92	226.9	186.04	98.311	1.3107e-05	128.5	0.0013074	0.0013015	0.00035662	1049.8	1.3594e-05	1.404e-05	982.22	416.97	1.3821e-05	1.4158e-05	466.88	221.41	182.49	96.455	1.4107e-05	126.29	-30.810	-70.465	-60.989	-125.281	6.441	21.879	-125.813	-120.591	4.451	5.418	-122.259	-118.566	-116.896	-113.821	-27.799	-115.504	-8191	255	
23638.410	1	1	0	0	0.1531	0.20652	0.16024	0.23555	0.10866	0.030053	0.11205	0.081329	0.26121	0.13275	0.13695	0.18681	0.13442	0.07831	0.10298	0.20502	-1.9458	-2.1458	-2.9979	-2.2375	-2.4833	-2.8604	-1.9688	-2.8708	-2.6458	-2.1875	-3.0375	-2.5042	-2.3563	-3.1063	-1.9875	-3.0333	101.289	169.356	-127.189	198.742	-77.638	84.603	49.671	20.927	145.080	-46.021	149.818	-104.333	204.030	88.248	117.715	150.621	0.0017369	0.00033136	0.00028732	1078.8	5.9199e-06	8.4557e-06	1013.4	427.25	9.8172e-06	9.9745e-06	481.39	228.51	186.66	98.409	1.3675e-05	129.58	0.0013154	0.0012951	0.00035728	1049.5	1.3677e-05	1.404e-05	985.56	417.1	1.384e-05	1.42e-05	468.32	222.61	182.51	96.665	1.4095e-05	127.07	-28.167	-56.495	-45.718	-125.360	64.347	1.566	-125.747	-120.737	35.615	6.841	-122.429	-118.397	-116.849	-113.521	-31.744	-115.791	-8191	255	
23638.482	1	1	0	0	0.22759	0.1194	0.25081	0.17158	0.15837	0.30805	0.17076	0.24351	0.062124	0.18335	0.22486	0.41329	0.25848	0.26837	0.4093	0.16404	-2.1875	-1.9729	-2.6937	-2.375	-2.4083	-2.8896	-2.3021	-2.9188	-2.6167	-1.7563	-3.0167	-2.5146	-2.4375	-3.1729	-2.0854	-2.8042	-96.483	-44.798	-50.071	219.094	174.749	193.473	128.116	151.658	220.282	189.685	217.756	212.425	-104.384	209.271	-25.516	168.129	0.0016404	0.00091215	0.00024091	1083.5	1.1492e-05	9.4833e-06	1013.6	426.71	8.1034e-06	9.1389e-06	480.34	228.49	186.96	98.8	7.4289e-06	130.45	0.0012994	0.0013139	0.00035703	1054.5	1.3868e-05	1.4118e-05	989.64	417.03	1.3983e-05	1.4203e-05	470.31	223.16	183.25	96.816	1.4358e-05	127.78	-32.671	-47.341	-24.650	-125.443	30.543	-3.236	-126.071	-120.735	20.395	0.048	-122.064	-118.415	-116.913	-113.768	-25.656	-115.714	-8191	255	
23638.578	1	1	0	0	0.036777	0.18527	0.29161	0.024313	0.13368	0.16398	0.13385	0.059437	0.10009	0.19487	0.30702	0.17854	0.093654	0.1781	0.11115	0.25154	-2.3354	-1.9188	-2.9354	-2.3563	-2.2062	-2.9958	-2.3063	-2.7458	-2.65	-2.0729	-2.9125	-2.4896	-2.325	-3.0583	-2.1083	-2.8937	74.828	161.680	47.189	195.013	28.199	-26.612	161.236	144.252	203.207	204.228	198.145	198.631	-109.413	204.610	-102.016	170.720	0.0016391	0.00050737	0.00022116	1084.4	5.8564e-06	9.6928e-06	1015.4	427.13	5.6009e-06	7.5325e-06	480.12	228.51	186.52	98.608	1.5741e-05	129.23	0.0013266	0.0012978	0.00035729	1054.5	1.4003e-05	1.3987e-05	990.81	418.24	1.3802e-05	1.4071e-05	468.97	223.08	182.7	96.683	1.4122e-05	126.82	-33.071	-64.418	-90.901	-125.393	17.078	12.796	-125.771	-120.884	-39.111	27.819	-122.352	-118.594	-117.285	-114.145	-3.910	-115.933	-8191	255	
23638.699	1	1	0	0	0.17565	0.28391	0.15176	0.19768	0.15459	0.028273	0.12374	0.17382	0.17474	0.11099	0.16731	0.070103	0.35425	0.12914	0.078376	0.172	-2.3583	-1.9521	-2.7167	-2.8208	-2.075	-2.9062	-2.3646	-2.625	-2.8937	-2.0646	-3.0479	-2.8438	-2.3854	-3.0458	-2.2479	-2.6083	203.090	126.605	0.861	180.279	215.052	-111.963	65.526	66.077	-61.045	170.590	220.581	95.368	170.019	191.481	78.117	193.667	0.0017185	0.00098745	0.00023815	1077	8.3293e-06	5.8358e-06	1010.2	427.23	8.6866e-06	6.8609e-06	478.6	226.18	186.75	97.93	8.5302e-06	128.55	0.001304	0.0012827	0.00036314	1049.5	1.3743e-05	1.4012e-05	982.12	416.49	1.3829e-05	1.423e-05	466.3	220.71	182.39	96.176	1.3918e-05	125.91	-32.096	-42.971	-55.880	-125.715	23.373	21.834	-126.162	-120.863	44.297	29.030	-122.775	-119.063	-117.224	-114.121	-2.424	-116.063	-8191	255	
23638.797	1	1	0	0	0.017384	0.18648	0.058682	0.36563	0.083185	0.13132	0.22721	0.3055	0.058756	0.20494	0.23648	0.17369	0.31435	0.32001	0.33954	0.17716	-2.4437	-2.0396	-2.6188	-2.6917	-2.2875	-2.6437	-2.4479	-2.1917	-2.9562	-2.0292	-2.9521	-2.7479	-2.0792	-3.0979	-2.2354	-2.4417	6.726	205.563	114.825	159.380	89.329	113.812	87.872	147.028	138.241	43.235	81.900	211.622	203.286	210.923	18.402	110.902	0.0016173	0.00058751	0.00028367	1077.5	6.7879e-06	3.6857e-06	1007.8	424.93	1.1293e-05	7.9883e-06	480.37	227.03	186.13	98.49	8.4046e-06	129.57	0.0012801	0.0012451	0.00035617	1047.9	1.3193e-05	1.3893e-05	984.12	416.28	1.341e-05	1.401e-05	468.36	221.88	182.33	96.526	1.3912e-05	126.8	-27.876	-83.502	-59.107	-126.029	6.795	9.541	-126.191	-121.116	4.920	7.864	-122.712	-118.976	-117.333	-113.901	-38.276	-116.259	-8191	255	
23638.893	1	1	0	0	0.36475	0.11542	0.082231	0.28655	0.084046	0.095618	0.31707	0.39288	0.1466	0.088811	0.11537	0.033622	0.40027	0.029576	0.27383	0.26577	-2.6458	-2.0375	-2.3792	-3.0292	-2.0625	-2.8375	-2.5687	-2.2625	-2.9083	-2.1667	-2.7042	-2.9854	-2.0729	-3.0542	-2.5187	-2.4333	-37.810	-106.775	134.314	211.986	22.504	123.954	178.326	127.616	-35.635	-24.865	214.797	-88.633	133.628	-45.093	8.294	177.787	0.0016729	0.0012392	0.00038639	1075.8	6.2115e-06	6.4076e-06	1016.2	427.12	1.538e-05	1.1683e-05	481.12	228.35	186.32	98.791	8.5413e-06	129.82	0.0013027	0.0012656	0.00034905	1049.7	1.3722e-05	1.3781e-05	985.96	417	1.355e-05	1.4127e-05	470.24	222.95	182.73	96.851	1.3881e-05	127.39	-32.906	-43.656	-62.459	-125.653	-2.344	22.448	-126.562	-121.193	17.294	12.864	-122.556	-118.849	-117.385	-114.020	-15.149	-116.055	-8191	255	
23638.988	1	1	0	0	0.23511	0.16058	0.20114	0.37771	0.2047	0.2417	0.20532	0.20718	0.080445	0.16643	0.35857	0.21981	0.14602	0.41021	0.17925	0.32709	-2.5083	-2.3583	-2.2125	-2.8208	-2.0854	-2.625	-2.625	-2.3083	-2.8479	-2.1646	-2.5938	-3.0667	-2.0958	-2.8812	-2.6	-2.2667	-81.389	-62.668	-18.984	163.294	-124.135	2.286	190.402	-89.322	-136.267	65.039	206.621	209.547	195.521	194.455	-115.156	140.928	0.0016276	0.0010511	0.00041091	1078.5	6.2878e-06	7.5992e-06	1017.3	429.49	1.5809e-05	1.233e-05	482.62	228.23	186.76	98.377	3.3018e-06	129.41	0.0012988	0.0012855	0.00035805	1051.6	1.3648e-05	1.4024e-05	990.22	418.32	1.3814e-05	1.3984e-05	470.91	222.9	182.64	96.511	1.3776e-05	126.93	-29.703	-71.053	-58.147	-125.636	13.508	2.457	-126.380	-121.106	15.257	28.080	-122.723	-118.884	-117.580	-113.954	18.337	-116.237	-8191	255	
23639.109	1	1	0	0	0.25853	0.19148	0.12454	0.09951	0.20872	0.14608	0.28198	0.25617	0.039159	0.077704	0.19261	0.29837	0.15474	0.34643	0.20456	0.28879	-2.5833	-2.2708	-2.2167	-3.1521	-2.1021	-2.6104	-2.7562	-2.1833	-2.9208	-2.4771	-2.1813	-3.1458	-2.1771	-2.6917	-2.625	-2.2604	-74.802	23.770	-98.614	106.346	-123.958	114.020	201.236	175.923	-46.749	8.876	213.299	142.003	190.368	168.776	219.176	146.670	0.0015553	0.00031423	0.00028102	1078.3	1.3879e-05	6.9239e-06	1006.3	425.43	4.4423e-06	9.6325e-06	479.6	225.39	185.11	98.107	1.1381e-05	127.89	0.001305	0.0012607	0.00035212	1049.4	1.3579e-05	1.3962e-05	981.25	415.41	1.3555e-05	1.3847e-05	466	220.28	181.26	96.018	1.3816e-05	125.58	-25.972	-14.501	-47.192	-125.665	10.733	48.815	-126.216	-121.124	-36.006	23.494	-122.809	-118.674	-117.498	-113.920	-15.728	-116.297	-8191	255	
23639.180	1	1	0	0	0.38168	0.11883	0.10624	0.10933	0.10296	0.20337	0.019919	0.076231	0.083418	0.18579	0.24379	0.35185	0.43	0.11624	0.20782	0.17503	-2.5917	-2.3854	-1.9167	-3.0146	-2.1437	-2.4625	-2.9583	-2.1042	-2.7875	-2.3812	-2.275	-2.9417	-2.3354	-2.5062	-2.6917	-2.1646	-106.374	39.619	-106.583	-115.936	-130.057	-113.303	-20.212	-133.579	-77.748	-109.362	209.933	172.857	159.788	114.102	127.058	218.567	0.0015739	0.0016228	0.00018929	1071	1.2911e-05	4.3363e-06	1013.1	424.22	1.3843e-05	1.049e-05	477.52	225.59	184.21	97.676	1.0028e-05	128.32	0.0012702	0.0012673	0.00035083	1046.9	1.3552e-05	1.3896e-05	982.94	414.76	1.3441e-05	1.3629e-05	466.73	220.68	180.98	95.925	1.3742e-05	125.94	-33.035	-50.890	-86.655	-125.737	13.321	33.609	-126.313	-121.156	-1.430	25.532	-122.644	-118.704	-117.462	-113.890	-8.660	-116.468	-8191	255	
23639.275	1	1	0	0	0.069459	0.18723	0.14782	0.44003	0.19977	0.037455	0.20872	0.13677	0.081665	0.12344	0.18489	0.18203	0.25086	0.34747	0.19332	0.30233	-2.3625	-2.4542	-2.0042	-2.9875	-2.3667	-2.2875	-3.0187	-1.9188	-2.6917	-2.4917	-1.9646	-3.0396	-2.4562	-2.4479	-2.9667	-2.1521	-129.103	67.617	-83.986	189.190	82.326	-34.763	86.109	-107.970	166.308	-56.966	211.831	143.448	114.934	194.290	129.595	105.734	0.0016875	0.00076684	0.00024874	1077.3	8.1927e-06	5.0037e-06	1014.3	423.47	1.0076e-05	6.1681e-06	476.39	226.79	185.43	98.192	4.2719e-06	129.45	0.0013019	0.0012649	0.00035208	1048.7	1.3597e-05	1.4004e-05	986.76	415.08	1.3551e-05	1.3891e-05	467.46	222.11	181.63	96.248	1.383e-05	126.95	-35.241	-37.464	-44.325	-125.679	15.195	3.829	-126.214	-121.315	10.052	12.501	-122.653	-118.989	-117.618	-113.891	-61.049	-116.225	-8191	255	
23639.395	1	1	0	0	0.22658	0.036354	0.061618	0.10195	0.17343	0.22489	0.12766	0.17921	0.10501	0.040616	0.15593	0.20136	0.29134	0.30119	0.13514	0.36136	-2.2458	-2.5229	-1.9292	-2.9604	-2.3125	-2.1208	-2.8854	-2.1562	-2.4625	-2.8708	-2.2479	-2.9437	-2.6188	-2.3375	-3.0417	-2.4667	43.703	30.017	67.557	-44.836	5.774	49.583	159.695	-136.271	-55.229	57.869	189.375	85.507	107.160	196.195	101.519	161.574	0.0016266	0.00076314	0.00035506	1082	1.1671e-05	8.9396e-06	1014.8	429.05	1.1086e-05	1.0463e-05	481.14	228.48	185.49	98.16	1.2576e-05	129.13	0.0012984	0.0012687	0.000354	1051.1	1.3603e-05	1.3813e-05	988.56	417.25	1.3487e-05	1.3665e-05	469.6	222.26	181.6	96.204	1.3753e-05	126.56	-24.636	-56.642	-51.867	-125.906	-1.223	4.864	-126.423	-121.296	-11.195	22.317	-122.568	-118.783	-117.511	-113.725	-0.995	-116.362	-8191	255	
23639.490	1	1	0	0	0.22786	0.28316	0.2431	0.11731	0.17017	0.25522	0.16274	0.37321	0.15422	0.11112	0.099355	0.15648	0.07659	0.338	0.12249	0.33087	-1.9937	-2.8187	-2	-2.9104	-2.4562	-2.1979	-3.0104	-2.3771	-2.4188	-2.8771	-2.2229	-2.6562	-2.7208	-2.3021	-2.7896	-2.4167	-94.945	-106.409	97.765	207.088	79.209	-64.924	130.517	152.884	192.929	122.044	181.904	214.164	88.787	203.918	-112.438	124.312	0.001662	0.0012169	0.00019722	1077.8	5.3512e-06	8.8582e-06	1009.1	425.15	8.995e-06	4.6453e-06	474.87	224.36	184.67	97.271	1.1239e-05	127.79	0.0012854	0.001258	0.00035365	1050.5	1.3622e-05	1.3898e-05	982.56	415.36	1.3669e-05	1.395e-05	464.01	219.4	180.72	95.441	1.3692e-05	125.21	-31.223	-67.546	-34.069	-125.820	2.209	-22.257	-126.332	-121.316	46.019	53.422	-122.897	-118.871	-117.364	-113.966	8.304	-116.225	-8191	255	
23639.588	1	1	0	0	0.38202	0.19433	0.076687	0.15827	0.0046635	0.15221	0.30114	0.19322	0.29618	0.13812	0.24801	0.13021	0.16273	0.089145	0.10833	0.24635	-1.7771	-2.9354	-2.0687	-2.9437	-2.5542	-1.8667	-3.0438	-2.4917	-2.2979	-3.1104	-2.0333	-2.7542	-2.8333	-2.1312	-2.8917	-2.5604	-46.654	46.825	-90.388	-116.299	204.925	68.745	165.544	212.361	183.818	105.385	199.776	197.422	73.073	-132.802	-86.194	142.047	0.0016111	0.00088853	0.00019317	1074.1	9.074e-06	4.5297e-06	1003.1	424.47	9.7094e-06	6.449e-06	473.81	224.61	184.87	97.63	1.1113e-05	128.13	0.0012837	0.0012543	0.00035366	1048.4	1.3369e-05	1.3742e-05	980.11	414.3	1.3588e-05	1.3742e-05	464.29	219.93	180.96	95.547	1.3796e-05	125.7	-29.193	-67.508	-60.716	-125.837	44.908	13.156	-126.321	-121.116	2.796	22.845	-122.754	-118.699	-117.516	-113.890	24.445	-116.289	-8191	255	
23639.684	1	1	0	0	0.10711	0.10334	0.17024	0.29516	0.10133	0.21834	0.053604	0.18353	0.041229	0.26199	0.10489	0.37311	0.1097	0.33733	0.036658	0.3318	-1.7917	-2.9188	-2.1667	-2.5292	-2.7271	-1.9833	-2.9208	-2.6063	-2.1375	-2.9875	-2.3042	-2.5479	-3.025	-2.2208	-2.8271	-2.6437	217.915	56.385	40.940	216.158	90.588	-119.142	51.573	148.946	173.213	-125.304	182.693	152.214	76.152	175.499	-3.529	137.441	0.0015928	0.00095396	0.00022881	1078.1	1.133e-05	7.2814e-06	1014	427.59	8.1041e-06	8.4537e-06	477.84	226.5	185.67	97.743	8.0162e-06	129.12	0.0012981	0.0012548	0.00035058	1049.8	1.3213e-05	1.3959e-05	987.55	415.97	1.3444e-05	1.3807e-05	467.63	221.44	181.67	95.814	1.3755e-05	126.39	-28.838	-58.729	-24.278	-125.988	14.651	-7.164	-126.020	-121.140	39.215	-10.879	-123.117	-118.689	-117.540	-113.797	19.860	-116.432	-8191	255	
23639.779	1	1	0	0	0.27547	0.16359	0.18607	0.2292	0.19487	0.28098	0.17751	0.42355	0.12061	0.19707	0.096375	0.25621	0.35834	0.14783	0.14251	0.20213	-1.6458	-2.7875	-2.1646	-2.2146	-2.9229	-2.0271	-2.8521	-2.875	-2.0375	-2.8854	-2.2125	-2.4979	-3.0667	-2.2792	-2.55	-2.9146	-54.091	46.454	-104.210	-111.448	101.391	85.587	168.972	165.774	-29.361	175.000	171.004	-136.267	206.397	198.073	142.086	193.304	0.0016827	0.00093563	0.00037001	1081.2	4.3383e-06	6.731e-06	1018.5	425.93	1.5304e-05	8.7143e-06	479.98	227.49	185.77	97.313	8.9218e-06	129.23	0.0012907	0.0012671	0.00034783	1052	1.336e-05	1.3794e-05	992.5	416.53	1.3612e-05	1.3754e-05	469.38	222.04	181.42	95.629	1.3857e-05	126.61	-29.433	-64.031	-42.217	-125.655	157.135	41.014	-126.102	-121.378	-33.901	-42.611	-122.915	-118.740	-117.405	-113.986	-6.912	-116.253	-8191	255	
23639.877	1	1	0	0	0.25325	0.041075	0.098901	0.14665	0.029698	0.10391	0.11313	0.2798	0.076332	0.077711	0.14641	0.20769	0.20116	0.24572	0.068987	0.20644	-1.6437	-2.7812	-2.0896	-2.2771	-2.7792	-2.05	-2.6458	-2.8646	-2.0625	-2.7458	-2.35	-2.3667	-3.0729	-2.2854	-2.5729	-3.0687	42.932	21.901	-1.595	196.581	69.633	30.033	-90.317	98.942	-132.763	6.993	143.350	95.528	91.494	176.063	-59.200	203.694	0.0016372	0.00060269	0.00018574	1077.1	1.5003e-05	8.298e-06	1009.9	424.91	1.5221e-05	4.6618e-06	473.01	223.76	183.23	96.812	1.2284e-05	127.11	0.0012941	0.0013049	0.00035672	1050.5	1.3755e-05	1.4093e-05	984.71	414.54	1.3679e-05	1.4076e-05	463.88	218.9	179.76	94.951	1.3721e-05	124.77	-29.462	-24.777	-47.702	-125.872	23.859	-12.202	-126.349	-121.182	17.731	7.350	-122.823	-118.866	-117.418	-113.943	-10.404	-116.355	-8191	255	
23639.973	1	1	0	0	0.093853	0.21113	0.081547	0.017701	0.27553	0.16086	0.22833	0.27698	0.0080923	0.24967	0.10954	0.068781	0.050181	0.42984	0.33641	0.15637	-1.6187	-2.8	-2.3563	-2.375	-2.9542	-2.2625	-2.5687	-2.9271	-1.8937	-2.7375	-2.6479	-2.35	-3.2167	-2.4833	-2.3688	-3.0167	126.904	-53.539	183.093	6.022	214.212	129.850	-99.866	182.280	74.266	-1.762	-26.534	-12.867	58.028	182.864	76.216	-130.070	0.001501	0.00054592	0.00043966	1072.8	1.1946e-05	6.8177e-06	1011.1	422.31	2.552e-06	6.6132e-06	472.96	223.9	184.15	96.937	1.1147e-05	127.78	0.0012934	0.0012886	0.0003592	1047	1.3578e-05	1.3995e-05	983.35	413.72	1.3632e-05	1.3956e-05	463.3	219.14	180.42	95.141	1.4199e-05	125.5	-27.955	-65.062	-68.293	-125.788	-34.832	14.356	-126.104	-121.015	-6.037	-10.656	-122.880	-118.668	-117.462	-113.902	-3.788	-116.359	-8191	255	
23640.068	1	1	0	0	0.078144	0.13114	0.34559	0.10867	0.11065	0.21143	0.30109	0.045594	0.081189	0.11722	0.23912	0.2451	0.39041	0.39783	0.084398	0.22478	-1.6812	-2.5687	-2.5792	-2.2125	-2.7354	-2.2562	-2.3271	-3.1271	-2.2021	-2.7667	-2.7271	-2.3042	-3.0812	-2.5208	-2.1604	-3.2313	82.686	160.092	194.867	170.816	-72.403	-32.030	150.982	71.905	134.211	211.256	172.859	182.861	190.692	188.133	39.309	165.020	0.0017266	0.00081705	0.00024971	1077.7	3.7075e-06	3.8825e-06	1011.5	424.4	1.1803e-05	1.2553e-05	478.91	224.69	184.81	97.111	1.1965e-05	128.45	0.00132	0.0012838	0.00035134	1048.8	1.3688e-05	1.4302e-05	985.91	414.63	1.388e-05	1.416e-05	466.9	220	180.39	95.335	1.4344e-05	126.1	-32.347	-71.080	-46.609	-125.836	73.333	-3.997	-126.057	-121.223	25.203	23.414	-122.664	-118.870	-117.539	-114.002	-10.623	-116.146	-8191	255	
23640.188	1	1	0	0	0.2159	0.14436	0.015973	0.046621	0.19682	0.1972	0.14497	0.2288	0.13182	0.15379	0.18926	0.095027	0.23631	0.25033	0.11511	0.2312	-1.6063	-2.6333	-2.6729	-2.1521	-2.9792	-2.45	-2.3042	-3.15	-2.2687	-2.4354	-2.9437	-2.1646	-2.6958	-2.5812	-2.2396	-3.0208	183.868	121.519	-90.659	0.012	79.426	114.253	197.185	207.123	126.552	64.879	218.534	178.524	-120.080	216.857	-47.438	114.160	0.0016066	0.0006887	0.00025277	1077.1	1.0846e-05	8.1446e-06	1017.8	424.96	8.2111e-06	1.125e-05	475.93	226.51	185.05	96.937	7.9773e-06	128.53	0.001338	0.0013012	0.00036879	1051.1	1.4253e-05	1.4246e-05	989.5	415.86	1.4266e-05	1.426e-05	466.98	220.93	180.82	95.208	1.4541e-05	126.05	-32.998	-60.003	-43.355	-125.914	7.369	6.572	-125.981	-121.122	11.639	12.358	-122.744	-118.951	-117.370	-113.799	2.236	-116.273	-8191	255	
23640.283	1	1	0	0	0.37546	0.26441	0.073299	0.13919	0.2126	0.31323	0.16363	0.14996	0.15848	0.23608	0.18507	0.080492	0.27953	0.10658	0.078195	0.46161	-1.6979	-2.4979	-2.9167	-2.1833	-2.7604	-2.6229	-2.1854	-3.1729	-2.1708	-2.3417	-2.7313	-2.1958	-2.8063	-2.9125	-2.0479	-2.9938	143.225	105.265	134.505	178.718	34.834	-84.200	59.785	211.626	37.624	-98.315	-43.666	97.600	-138.415	-119.566	142.957	94.057	0.0016448	0.00088317	0.0002137	1080.5	1.3883e-05	7.9586e-06	1010.4	423.59	1.3532e-05	7.5272e-06	474.73	224.32	183.94	96.562	1.0703e-05	126.61	0.0013266	0.00133	0.00036876	1050.5	1.4251e-05	1.4592e-05	985.88	414.07	1.4317e-05	1.4621e-05	464	218.73	179.85	94.716	1.4547e-05	124.53	-28.682	-45.369	-51.383	-125.641	19.126	10.858	-126.136	-121.232	26.778	-19.587	-122.663	-118.744	-117.257	-113.892	6.884	-116.137	-8191	255	
23640.381	1	1	0	0	0.16318	0.022366	0.068771	0.33952	0.14409	0.13154	0.091393	0.039518	0.041428	0.43114	0.17093	0.22665	0.27443	0.14125	0.20975	0.12618	-1.9354	-2.1375	-2.7708	-2.1646	-2.6896	-2.6021	-2.2354	-2.9562	-2.1583	-2.1708	-3.1437	-2.1417	-2.8375	-3.0021	-1.9312	-3.0417	108.843	-20.112	45.854	182.192	-131.442	-101.242	157.133	-91.496	176.457	-114.659	163.159	-137.344	-137.076	134.856	122.341	197.926	0.0014942	0.0009807	0.00034011	1070.5	5.5635e-06	7.1303e-06	1009	424.27	9.0723e-06	9.7669e-06	470.71	223.35	183.73	96.702	9.347e-06	127.07	0.0013329	0.0013395	0.00036536	1046.2	1.4265e-05	1.4755e-05	981.14	413.78	1.4233e-05	1.4846e-05	461.79	217.84	179.62	94.812	1.4604e-05	124.89	-27.244	-56.220	-57.047	-125.655	75.859	19.111	-126.228	-120.970	-5.191	25.337	-122.591	-118.686	-117.178	-113.738	-11.236	-116.324	-8191	255	
23640.477	1	1	0	0	0.037377	0.22603	0.10916	0.16565	0.12089	0.2901	0.30402	0.1568	0.070626	0.25717	0.094633	0.14348	0.26825	0.29755	0.17334	0.4802	-2.1292	-2.2146	-2.8458	-2.2396	-2.5625	-2.8875	-2.025	-2.9521	-2.4646	-2.1542	-2.9854	-2.2896	-2.5854	-2.9042	-1.9708	-3.0417	179.702	-86.764	215.015	203.219	107.047	125.973	159.368	176.952	103.251	150.564	120.487	54.554	-101.891	-136.056	-45.601	159.237	0.00166	0.00079331	0.0003256	1078	1.0002e-05	3.5792e-06	1011.1	422.2	7.4532e-06	6.6028e-06	476.53	223.4	182.26	96.646	8.8219e-06	127.79	0.0013599	0.0013389	0.00037227	1048.2	1.4092e-05	1.4818e-05	982.28	413.44	1.4351e-05	1.4723e-05	464.54	218.81	179.18	94.778	1.4551e-05	125.43	-35.165	-46.267	-42.140	-125.716	17.102	26.938	-126.219	-121.024	12.669	29.901	-122.641	-118.641	-117.408	-113.876	-14.620	-116.027	-8191	255	
23640.572	1	1	0	0	0.077398	0.053818	0.24161	0.29169	0.067617	0.11942	0.16215	0.10935	0.23679	0.19569	0.16932	0.22709	0.15622	0.31349	0.23707	0.30913	-2.1542	-2	-2.9542	-2.4375	-2.3021	-3.0021	-2.15	-2.8667	-2.5938	-1.9958	-2.9354	-2.1458	-2.2292	-2.9979	-1.9729	-2.7021	51.195	199.578	149.054	193.125	-135.248	176.856	-133.434	181.938	10.645	-45.131	-106.647	180.819	174.341	174.789	-7.182	-127.048	0.0016525	0.0010301	0.00030781	1077.9	9.596e-06	6.6092e-06	1014.8	423.15	1.5886e-05	1.1706e-05	474.66	225.38	183.13	97.056	6.268e-06	128.42	0.0013675	0.0013539	0.00036932	1049.8	1.4146e-05	1.4701e-05	987.03	414.31	1.4228e-05	1.5024e-05	465.99	220.36	180.06	95.044	1.4847e-05	125.99	-27.735	-73.182	-47.054	-126.048	12.335	44.381	-126.160	-120.928	4.009	-9.615	-122.743	-118.697	-117.379	-114.117	11.707	-116.193	-8191	255	
23640.668	1	1	0	0	0.08345	0.15121	0.12311	0.2766	0.27792	0.11034	0.16155	0.10995	0.12399	0.020123	0.3603	0.031775	0.12558	0.25124	0.1083	0.359	-2.325	-2.075	-2.8104	-2.5542	-2.1312	-2.9333	-2.0896	-2.7104	-2.5563	-1.9979	-2.8688	-2.6125	-2.4833	-3.0271	-1.9979	-2.7208	183.915	-5.026	124.900	153.713	-12.897	149.114	-71.182	133.214	2.892	108.397	195.348	-10.770	-36.230	180.410	101.742	170.132	0.0015948	0.00088864	0.00032083	1073.7	9.9442e-06	9.2008e-06	1007.1	423.5	4.7441e-06	6.2232e-06	471.47	222.62	182.39	96.151	1.4641e-05	126.1	0.001358	0.0013433	0.000373	1047.5	1.4354e-05	1.4808e-05	981.79	413.63	1.4314e-05	1.4874e-05	462.6	217.78	178.64	94.361	1.4796e-05	124.09	-32.915	-68.995	-51.306	-125.935	24.660	20.543	-125.956	-121.217	-30.221	40.421	-122.440	-118.986	-117.342	-114.059	13.112	-116.071	-8191	255	
23640.789	1	1	0	0	0.13217	0.21868	0.45622	0.18839	0.15742	0.098795	0.12962	0.10217	0.20536	0.10228	0.27906	0.27188	0.36728	0.3542	0.19174	0.20742	-2.3167	-1.8438	-2.6917	-2.5229	-2.2417	-2.8187	-2.3583	-2.5917	-2.8	-2.0833	-2.8479	-2.6417	-2.2729	-3.0417	-2.1125	-2.5333	-95.619	79.961	163.839	-130.964	143.882	2.195	193.603	151.065	182.926	179.337	-133.774	195.420	208.637	191.658	121.379	217.087	0.0016534	0.00052338	0.00018801	1070.2	1.1571e-05	3.5608e-06	1000.5	420.36	6.6849e-06	1.1282e-05	473.3	222.23	181.82	96.153	7.4852e-06	126.65	0.0013514	0.0013482	0.00037849	1044.5	1.4424e-05	1.4768e-05	976.77	411.83	1.4352e-05	1.4685e-05	461.94	217.17	178.61	94.268	1.4444e-05	124.12	-27.830	-40.125	-31.860	-125.768	30.429	-0.611	-126.005	-120.813	3.165	31.652	-122.731	-118.297	-117.248	-113.629	29.310	-115.883	-8191	255	
23640.885	1	1	0	0	0.16124	0.14806	0.33318	0.49641	0.14868	0.063153	0.29484	0.2049	0.032314	0.11153	0.19546	0.24116	0.21349	0.30305	0.14793	0.16673	-2.3563	-1.9833	-2.6479	-2.6979	-1.9813	-2.8563	-2.5312	-2.3917	-2.9062	-1.8958	-2.5771	-2.8937	-2.1	-3.1562	-2.275	-2.3333	-15.863	-102.452	-40.025	207.554	-78.481	-118.881	154.478	-130.029	-44.069	56.843	125.005	-60.286	177.227	186.036	102.892	182.501	0.0015739	0.00089357	0.00028831	1071.8	1.4304e-05	7.4281e-06	1003.9	423.23	1.1211e-05	1.401e-05	473.66	223.18	183.2	95.85	1.4002e-05	127.81	0.001351	0.001339	0.00038004	1045.6	1.4496e-05	1.4895e-05	979.62	412.91	1.4414e-05	1.4737e-05	463.27	218.31	179.06	94.238	1.4738e-05	125.09	-27.394	-70.688	-46.892	-125.636	15.839	-18.888	-125.968	-120.871	27.372	22.550	-122.545	-118.679	-117.045	-113.620	-5.317	-115.899	-8191	255	
23640.980	1	1	0	0	0.076875	0.037643	0.041554	0.2064	0.14426	0.098801	0.2695	0.29535	0.086298	0.12009	0.027042	0.15726	0.33488	0.38304	0.018739	0.33363	-2.5458	-2.0833	-2.4062	-2.9188	-1.8875	-2.8125	-2.4	-2.3354	-2.8896	-2.1396	-2.5604	-2.8667	-2.1312	-2.9875	-2.4271	-2.5125	148.973	63.029	156.541	196.265	-134.156	17.593	180.798	196.394	159.083	84.691	96.236	-57.908	-95.745	210.494	57.828	148.317	0.0016194	0.0011201	0.00014181	1075.7	5.9355e-06	6.5548e-06	1011.7	420.66	1.3564e-05	1.166e-05	476	225.32	183.35	96.246	7.958e-06	128.2	0.0013569	0.0013427	0.00037271	1046.9	1.4375e-05	1.4579e-05	985.6	412.66	1.4459e-05	1.4734e-05	466.61	219.84	179.38	94.646	1.476e-05	125.64	-30.587	-46.976	-45.996	-125.493	11.710	36.121	-126.305	-120.712	1.967	-16.681	-122.276	-118.395	-117.320	-113.855	-33.836	-116.080	-8191	255	
23641.076	1	1	0	0	0.18875	0.090052	0.17459	0.1103	0.14297	0.32466	0.065546	0.23498	0.092656	0.097832	0.28721	0.22454	0.63055	0.062316	0.31329	0.32311	-2.55	-2.1813	-2.4354	-2.925	-1.9417	-2.8042	-2.7771	-2.1708	-2.675	-2.2333	-2.3604	-3.1521	-2.0854	-2.9188	-2.5646	-2.1625	-22.181	194.659	-110.725	215.354	51.638	8.168	141.434	191.869	165.595	-101.689	182.506	-9.521	174.365	153.643	-128.424	178.738	0.00172	0.00098439	0.00033033	1071.1	5.2332e-06	4.0906e-06	1008.4	421.48	1.3144e-05	1.1019e-05	474.4	222.6	182.91	95.96	6.6827e-06	125.9	0.0013524	0.0013396	0.00037567	1046.1	1.4629e-05	1.4668e-05	984.17	412.58	1.4419e-05	1.4628e-05	463.27	217.74	178.75	94.062	1.46e-05	123.62	-32.385	-64.083	-25.025	-125.816	-13.523	3.508	-126.109	-120.852	-10.812	-3.283	-122.257	-118.611	-117.295	-113.870	-6.191	-115.924	-8191	255	
#DATA ENDS
