BOXY.EXE: ISS Imagent and Oximeter Data Acquisition Program Version 0.80
Ascii Record File

#ACQ INFORMATION
2  Detector Channels 
16  External MUX Channels 
1  Auxiliary Channels 
5000  Waveform (CCF) Frequency (Hz)
1  Waveforms Skipped 
30  Waveforms Averaged 
1  Cycles Averaged 
16  Acquisitions per Waveform 
10.0806  Updata Rate (Hz) 

#FILE INFORMATION
TRUE -- External MUX Channel results are PARSED.
FALSE -- AC DC and Phase are NOT grouped.
TRUE -- Companion Program Settings File CREATED.
FALSE -- AC data not excluded
FALSE -- DC data not excluded
FALSE -- Phase data not excluded
FALSE -- Auxillary Chn. data not excluded
Tab delimiters

#CALIBRATION STATE
TRUE -- Waveform Calibration Values APPLIED.


#AUX CALIBRATION VALUES
Val Type	aux-1	

Term	1.0000e+00	
Factor	0.0000e+00	


#WF CALIBRATION VALUES
A = Detector Channel
Val Type	A-AC1	A-AC2	A-AC3	A-AC4	A-AC5	A-AC6	A-AC7	A-AC8	A-AC9	A-AC10	A-AC11	A-AC12	A-AC13	A-AC14	A-AC15	A-AC16	A-DC1	A-DC2	A-DC3	A-DC4	A-DC5	A-DC6	A-DC7	A-DC8	A-DC9	A-DC10	A-DC11	A-DC12	A-DC13	A-DC14	A-DC15	A-DC16	A-Ph1	A-Ph2	A-Ph3	A-Ph4	A-Ph5	A-Ph6	A-Ph7	A-Ph8	A-Ph9	A-Ph10	A-Ph11	A-Ph12	A-Ph13	A-Ph14	A-Ph15	A-Ph16	

Term	0.00000e+00	0.00000e+00	0.00000e+00	0.00000e+00	0.00000e+00	0.00000e+00	0.00000e+00	0.00000e+00	0.00000e+00	0.00000e+00	0.00000e+00	0.00000e+00	0.00000e+00	0.00000e+00	0.00000e+00	0.00000e+00	0.00000e+00	0.00000e+00	0.00000e+00	0.00000e+00	0.00000e+00	0.00000e+00	0.00000e+00	0.00000e+00	0.00000e+00	0.00000e+00	0.00000e+00	0.00000e+00	0.00000e+00	0.00000e+00	0.00000e+00	0.00000e+00	0.00000e+00	0.00000e+00	0.00000e+00	0.00000e+00	0.00000e+00	0.00000e+00	0.00000e+00	0.00000e+00	0.00000e+00	0.00000e+00	0.00000e+00	0.00000e+00	0.00000e+00	0.00000e+00	0.00000e+00	0.00000e+00	
Factor	1.00000e+00	1.00000e+00	1.00000e+00	1.00000e+00	1.00000e+00	1.00000e+00	1.00000e+00	1.00000e+00	1.00000e+00	1.00000e+00	1.00000e+00	1.00000e+00	1.00000e+00	1.00000e+00	1.00000e+00	1.00000e+00	1.00000e+00	1.00000e+00	1.00000e+00	1.00000e+00	1.00000e+00	1.00000e+00	1.00000e+00	1.00000e+00	1.00000e+00	1.00000e+00	1.00000e+00	1.00000e+00	1.00000e+00	1.00000e+00	1.00000e+00	1.00000e+00	X	X	X	X	X	X	X	X	X	X	X	X	X	X	X	X	

B = Detector Channel
Val Type	B-AC1	B-AC2	B-AC3	B-AC4	B-AC5	B-AC6	B-AC7	B-AC8	B-AC9	B-AC10	B-AC11	B-AC12	B-AC13	B-AC14	B-AC15	B-AC16	B-DC1	B-DC2	B-DC3	B-DC4	B-DC5	B-DC6	B-DC7	B-DC8	B-DC9	B-DC10	B-DC11	B-DC12	B-DC13	B-DC14	B-DC15	B-DC16	B-Ph1	B-Ph2	B-Ph3	B-Ph4	B-Ph5	B-Ph6	B-Ph7	B-Ph8	B-Ph9	B-Ph10	B-Ph11	B-Ph12	B-Ph13	B-Ph14	B-Ph15	B-Ph16	

Term	0.00000e+00	0.00000e+00	0.00000e+00	0.00000e+00	0.00000e+00	0.00000e+00	0.00000e+00	0.00000e+00	0.00000e+00	0.00000e+00	0.00000e+00	0.00000e+00	0.00000e+00	0.00000e+00	0.00000e+00	0.00000e+00	0.00000e+00	0.00000e+00	0.00000e+00	0.00000e+00	0.00000e+00	0.00000e+00	0.00000e+00	0.00000e+00	0.00000e+00	0.00000e+00	0.00000e+00	0.00000e+00	0.00000e+00	0.00000e+00	0.00000e+00	0.00000e+00	-1.07200e+00	-1.36101e+02	-1.26972e+02	-1.81145e+02	-5.74851e+01	-6.50972e+01	-1.58196e+02	-1.62015e+02	-4.24239e+01	-6.52151e+01	-1.70310e+02	-1.70117e+02	-1.81676e+02	-1.76501e+02	-5.94616e+01	-1.49355e+02	
Factor	3.59234e-05	1.59826e-04	4.90676e-05	1.61587e-01	1.97099e-06	1.44992e-06	1.72205e-01	5.96698e-02	2.11306e-06	1.83272e-06	9.39561e-02	3.22471e-02	2.84731e-02	9.54445e-03	1.94426e-06	1.34256e-02	6.52020e-06	7.84418e-06	2.17318e-06	8.29810e-02	8.31184e-08	8.62690e-08	8.30464e-02	3.06820e-02	8.29478e-08	8.64596e-08	4.68418e-02	1.60686e-02	1.47170e-02	4.95140e-03	8.44639e-08	6.74576e-03	X	X	X	X	X	X	X	X	X	X	X	X	X	X	X	X	



#DISTANCE SETTINGS
A = Detector Channel
A-1	A-2	A-3	A-4	A-5	A-6	A-7	A-8	A-9	A-10	A-11	A-12	A-13	A-14	A-15	A-16	

2.5000e+00	3.0000e+00	2.5000e+00	3.0000e+00	2.0000e+00	3.0000e+00	1.5000e+00	3.0000e+00	3.0000e+00	3.0000e+00	3.0000e+00	3.0000e+00	3.0000e+00	3.0000e+00	1.5000e+00	3.0000e+00	

B = Detector Channel
B-1	B-2	B-3	B-4	B-5	B-6	B-7	B-8	B-9	B-10	B-11	B-12	B-13	B-14	B-15	B-16	

1.0000e+01	1.0000e+01	1.0000e+01	1.4400e+00	1.0000e+01	1.0000e+01	1.5100e+00	1.9400e+00	1.0000e+01	1.0000e+01	1.9900e+00	2.4900e+00	2.4100e+00	2.9000e+00	1.0000e+01	2.9800e+00	




#DATA BEGINS
time	group	step	mark	flag	A-AC1	A-AC2	A-AC3	A-AC4	A-AC5	A-AC6	A-AC7	A-AC8	A-AC9	A-AC10	A-AC11	A-AC12	A-AC13	A-AC14	A-AC15	A-AC16	A-DC1	A-DC2	A-DC3	A-DC4	A-DC5	A-DC6	A-DC7	A-DC8	A-DC9	A-DC10	A-DC11	A-DC12	A-DC13	A-DC14	A-DC15	A-DC16	A-Ph1	A-Ph2	A-Ph3	A-Ph4	A-Ph5	A-Ph6	A-Ph7	A-Ph8	A-Ph9	A-Ph10	A-Ph11	A-Ph12	A-Ph13	A-Ph14	A-Ph15	A-Ph16	B-AC1	B-AC2	B-AC3	B-AC4	B-AC5	B-AC6	B-AC7	B-AC8	B-AC9	B-AC10	B-AC11	B-AC12	B-AC13	B-AC14	B-AC15	B-AC16	B-DC1	B-DC2	B-DC3	B-DC4	B-DC5	B-DC6	B-DC7	B-DC8	B-DC9	B-DC10	B-DC11	B-DC12	B-DC13	B-DC14	B-DC15	B-DC16	B-Ph1	B-Ph2	B-Ph3	B-Ph4	B-Ph5	B-Ph6	B-Ph7	B-Ph8	B-Ph9	B-Ph10	B-Ph11	B-Ph12	B-Ph13	B-Ph14	B-Ph15	B-Ph16	aux-1	digaux	

23672.432	1	1	0	256	0.041648	0.32098	0.27297	0.31118	0.2458	0.036592	0.22242	0.39832	0.10774	0.039222	0.23877	0.21614	0.10055	0.21901	0.1446	0.28849	-1.5938	-2.8229	-2.3229	-2.5854	-3.0271	-2.2354	-2.8708	-2.7104	-2.0563	-2.9021	-2.4583	-2.4938	-2.9083	-2.2604	-2.6271	-3.0458	55.978	5.223	213.094	157.821	117.738	112.456	189.899	-130.861	-105.951	105.282	160.693	181.086	170.849	180.077	0.992	143.497	0.0015294	0.00095623	0.00038904	1046.8	1.1683e-05	6.6649e-06	1008	404.41	7.4423e-06	4.4372e-06	468.12	215.96	171.32	89.235	1.1676e-05	121.48	0.0012733	0.0012529	0.00034511	1019.4	1.3198e-05	1.381e-05	979.58	395.34	1.3519e-05	1.3942e-05	458.02	211.48	167.8	87.484	1.3789e-05	118.89	-26.549	-76.617	-33.520	-125.349	10.753	38.484	-125.966	-120.784	0.654	-16.079	-122.376	-118.379	-116.807	-113.383	27.333	-115.895	-8191	255	
23672.527	1	1	0	0	0.18375	0.11878	0.21959	0.20483	0.097128	0.21859	0.25767	0.26301	0.20387	0.19784	0.1406	0.21066	0.12085	0.36277	0.19202	0.61113	-1.6812	-2.8563	-2.4833	-2.4521	-3.0312	-2.1354	-2.8	-2.8708	-2.0042	-2.8604	-2.5875	-2.4813	-3.2146	-2.3521	-2.5271	-2.9604	-23.182	126.455	-61.949	209.837	7.860	129.429	191.196	205.563	1.494	9.824	192.152	215.539	-104.754	219.682	-87.563	127.695	0.0015467	0.0013487	0.00038088	1051.3	3.8132e-06	8.0508e-06	1007	404.15	1.3887e-05	9.7799e-06	469.2	217.71	171.32	89.334	1.164e-05	121.8	0.001262	0.0012634	0.00035099	1020.1	1.3303e-05	1.3839e-05	980.49	395.41	1.3278e-05	1.3791e-05	459.67	212.53	167.68	87.722	1.3894e-05	119.39	-28.839	-73.490	-28.610	-125.599	-33.650	-8.996	-125.888	-120.834	27.746	47.562	-122.434	-118.461	-116.849	-113.331	18.021	-115.512	-8191	255	
23672.623	1	1	0	0	0.29804	0.019507	0.091035	0.30721	0.024221	0.081775	0.085273	0.096698	0.17384	0.19942	0.27108	0.068083	0.21505	0.13977	0.28672	0.45055	-1.8667	-2.7354	-2.3333	-2.2604	-2.8792	-2.1833	-2.5604	-2.9583	-1.7833	-2.8	-2.6354	-2.2542	-3.0792	-2.5396	-2.3583	-3.0812	24.883	-55.047	12.644	156.455	130.734	-100.280	216.487	139.098	-1.487	158.075	-131.723	111.470	-69.681	111.550	181.348	178.029	0.0016036	0.00055469	0.00027843	1048.8	7.7655e-06	7.7715e-06	1012.4	405.01	1.9996e-06	2.8805e-06	471.87	219.63	172.22	89.639	5.8476e-06	122.52	0.0012715	0.0012662	0.00034809	1020.1	1.3477e-05	1.3661e-05	985.5	396.81	1.3453e-05	1.3999e-05	462.53	214.39	168.45	88.063	1.3738e-05	120.21	-28.119	-61.778	-46.440	-125.376	5.461	63.446	-125.960	-120.955	-58.152	27.105	-122.561	-118.265	-116.776	-113.446	37.903	-115.836	-8191	255	
23672.744	1	1	0	0	0.25561	0.074844	0.13332	0.33251	0.19775	0.12494	0.33469	0.16888	0.33725	0.09123	0.40714	0.18554	0.091149	0.2735	0.1531	0.21044	-1.65	-2.65	-2.5479	-2.0479	-2.8917	-2.3604	-2.4437	-2.925	-1.9771	-2.5271	-2.8125	-2.3417	-3.0229	-2.7083	-2.2438	-3.1104	18.497	73.298	163.663	59.476	-32.379	56.323	197.668	147.004	-88.750	192.250	92.627	-79.266	73.397	202.932	-37.956	166.524	0.0015549	0.00042998	0.00016886	1048.3	9.074e-06	7.0219e-06	1020	405.65	1.04e-05	7.1475e-06	474.09	219.04	171.36	89.218	1.0757e-05	121.34	0.0012759	0.0012627	0.00034372	1024.5	1.3429e-05	1.3825e-05	990.5	397.29	1.345e-05	1.3744e-05	462.62	213.65	168.45	87.592	1.3646e-05	118.97	-30.917	-64.213	-53.141	-125.381	37.695	-2.667	-126.072	-120.882	-6.285	49.788	-122.222	-118.149	-117.001	-113.471	2.798	-115.678	-8191	255	
23672.814	1	1	0	0	0.13787	0.07071	0.053962	0.20578	0.091632	0.05081	0.13584	0.13152	0.088077	0.17616	0.2129	0.20212	0.15264	0.33092	0.12778	0.15826	-1.6063	-2.4833	-2.7208	-2.275	-2.7479	-2.3208	-2.1646	-3.1479	-1.9167	-2.4896	-2.7104	-2.2729	-2.8521	-2.7792	-2.1083	-3.0292	-3.941	-118.428	-90.160	177.095	72.368	-89.604	-124.917	-93.341	70.201	199.741	217.313	-129.151	113.516	165.699	63.481	213.237	0.0015229	0.00072334	0.00026199	1043.8	6.133e-06	8.8618e-06	1005.2	407.54	1.4071e-05	9.8568e-06	469.32	216.53	171.2	88.938	1.2089e-05	121.1	0.0012595	0.0012628	0.00034843	1019.7	1.3063e-05	1.3834e-05	981.98	396.39	1.3603e-05	1.3887e-05	459	211.78	167.92	87.415	1.3789e-05	118.71	-30.503	-45.056	-49.569	-125.573	29.689	17.870	-126.018	-120.644	52.951	0.550	-122.428	-118.478	-117.054	-113.279	-3.677	-115.556	-8191	255	
23672.912	1	1	0	0	0.091551	0.11332	0.2584	0.45752	0.14311	0.19703	0.28456	0.19985	0.054849	0.050682	0.12301	0.31203	0.09158	0.098561	0.24482	0.26358	-1.7792	-2.3667	-2.7667	-2.2792	-2.775	-2.5208	-2.2229	-2.8354	-2.1083	-2.475	-3.1167	-2.4	-2.75	-2.6562	-1.9646	-3.2188	132.440	132.751	135.326	187.666	60.766	-86.444	-132.692	31.277	168.421	-12.117	-84.362	151.993	38.567	-122.670	-134.642	175.883	0.0014809	0.0012034	0.0003303	1045.1	1.0023e-05	5.1755e-06	1010.3	405.93	6.034e-06	6.5184e-06	470	216.63	172.05	88.913	9.4292e-06	122.03	0.0012907	0.0012669	0.00034767	1019.9	1.3527e-05	1.3836e-05	982.18	395.97	1.3614e-05	1.3869e-05	459.92	212.36	168.43	87.57	1.3921e-05	119.41	-30.993	-60.812	-65.236	-125.492	15.729	19.984	-125.946	-120.954	18.773	18.084	-122.306	-118.667	-116.751	-113.315	11.230	-115.540	-8191	255	
23673.031	1	1	0	0	0.10868	0.030705	0.26047	0.090109	0.072818	0.13921	0.098622	0.091327	0.091072	0.32955	0.16995	0.32954	0.19728	0.20448	0.32518	0.20674	-1.7583	-2.2917	-2.9021	-2.1937	-2.6708	-2.4979	-2.1375	-2.9167	-2.3937	-2.0917	-2.9521	-2.2354	-2.7667	-2.9521	-2.1271	-3.2979	-134.363	-66.928	158.615	-128.897	-90.991	-128.524	200.428	-128.096	-92.497	-128.980	83.112	152.329	166.420	177.517	-86.008	190.413	0.0014096	0.00082958	0.00028284	1050.9	6.0464e-06	4.693e-06	1012.4	407.32	4.8284e-06	3.2505e-06	469.69	218.87	171.56	89.67	8.5479e-06	122.8	0.0012956	0.0012933	0.00035136	1023	1.3659e-05	1.3927e-05	986.13	397.56	1.3668e-05	1.4013e-05	461.45	213.75	168.65	88.069	1.4019e-05	120.42	-25.881	-55.202	-77.767	-125.574	13.096	-6.225	-125.873	-120.892	1.273	17.511	-122.616	-118.219	-117.005	-113.357	-19.018	-115.737	-8191	255	
23673.129	1	1	0	0	0.17405	0.092829	0.22638	0.35436	0.10409	0.095291	0.21831	0.11129	0.39942	0.27202	0.14806	0.14318	0.067495	0.15068	0.039292	0.20526	-2	-2.1917	-2.9875	-2.2667	-2.3917	-2.7167	-2.1708	-3.0396	-2.6667	-2.1063	-3.0708	-2.3667	-2.45	-3.0771	-2.025	-2.8729	109.315	-94.325	97.017	193.792	-60.700	9.118	149.913	-7.736	-48.804	-75.898	214.812	187.400	207.459	170.919	76.456	-101.644	0.0016273	0.00095738	0.00018077	1054.8	1.1982e-05	4.1492e-06	1020.9	409.01	9.4052e-06	8.4907e-06	473.76	218.38	172.36	89.422	6.6079e-06	121.53	0.0013126	0.0012946	0.00035647	1026.8	1.4034e-05	1.401e-05	991.19	398.73	1.4115e-05	1.4457e-05	462.9	213.46	168.78	87.804	1.4388e-05	119.32	-28.630	-75.692	11.184	-125.477	43.606	5.366	-126.036	-120.631	12.342	9.026	-122.174	-118.302	-117.066	-113.492	-6.100	-115.611	-8191	255	
23673.225	1	1	0	0	0.1519	0.11726	0.31136	0.20817	0.21919	0.16105	0.37986	0.12183	0.24779	0.30446	0.068873	0.17374	0.24403	0.13618	0.1247	0.30247	-2.2292	-2.1854	-2.9833	-2.4917	-2.4104	-2.9958	-2.3604	-2.6833	-2.6417	-2.1417	-2.9917	-2.3521	-2.3896	-3.1417	-1.8833	-2.9104	-43.934	-90.653	5.772	182.587	-27.594	119.249	201.810	196.346	26.487	-14.696	-117.169	168.245	178.215	-125.344	151.409	189.895	0.0014637	0.0010085	0.00014602	1044.1	1.0386e-05	4.0376e-06	1006.7	405.53	1.0149e-05	3.5141e-06	467.85	216.42	171.51	88.807	9.2274e-06	120.08	0.0013088	0.0013383	0.0003633	1020.8	1.4306e-05	1.4455e-05	983.02	396.69	1.4079e-05	1.4538e-05	459.02	211.27	168.14	87.229	1.4339e-05	118.06	-31.652	-48.120	-58.247	-125.540	18.978	39.069	-125.885	-120.966	5.260	-84.564	-122.423	-118.255	-117.072	-113.415	38.180	-115.736	-8191	255	
23673.344	1	1	0	0	0.073045	0.36369	0.11975	0.1622	0.26687	0.27856	0.34808	0.39413	0.26501	0.13079	0.023751	0.17991	0.26742	0.26734	0.082683	0.17003	-2.4188	-1.8542	-2.6875	-2.375	-2.2438	-2.9646	-2.4792	-2.5771	-2.8875	-2.0563	-3.1146	-2.5021	-2.2667	-3.1458	-2.1771	-2.7542	-123.792	-83.554	180.753	-88.390	79.498	-128.631	123.246	166.972	95.864	49.359	-75.743	-100.054	198.813	170.487	16.936	211.101	0.001531	0.00073928	0.00025489	1050.4	1.6511e-05	1.1934e-05	1011.4	406.42	3.9069e-06	1.4511e-06	470.93	216.58	171.85	88.776	7.559e-06	121.21	0.001328	0.0013337	0.00037329	1024	1.417e-05	1.4733e-05	984.14	397.43	1.4382e-05	1.4808e-05	459.66	211.78	168.19	87.248	1.4844e-05	118.77	-30.698	-82.821	-48.344	-125.569	5.497	-28.545	-125.874	-120.771	58.947	133.169	-122.373	-118.558	-117.091	-113.654	-34.353	-115.801	-8191	255	
23673.414	1	1	0	0	0.072648	0.13708	0.10845	0.051036	0.054071	0.15236	0.26739	0.458	0.062564	0.18241	0.21946	0.24135	0.16646	0.13862	0.068593	0.3164	-2.4042	-2.175	-2.6896	-2.6917	-2.0563	-2.9958	-2.3312	-2.6417	-2.7667	-2.1	-2.9021	-2.7333	-2.2792	-3.3438	-2.2479	-2.6125	-42.830	-88.018	-55.144	141.178	-60.090	135.720	-16.348	182.000	-49.701	-7.512	-116.360	164.745	211.551	172.835	63.852	168.105	0.0014464	0.00035355	0.00027687	1052	5.7429e-06	5.4249e-06	1011.9	407.48	7.1241e-06	1.4764e-05	472.87	217.06	171.51	89.174	6.6691e-06	121.58	0.0013506	0.0013545	0.00037354	1026.1	1.459e-05	1.4938e-05	986.37	398.71	1.4541e-05	1.5082e-05	462.42	212.93	168.69	87.681	1.4713e-05	119.47	-30.025	-80.321	-77.931	-125.743	-5.237	-39.385	-126.113	-120.780	10.459	22.409	-122.478	-118.419	-116.770	-113.314	-12.260	-115.626	-8191	255	
23673.514	1	1	0	0	0.21912	0.10754	0.10091	0.10434	0.063414	0.17194	0.15538	0.26232	0.13005	0.17715	0.30166	0.15895	0.27147	0.39508	0.15477	0.39523	-2.4458	-1.9813	-2.6833	-2.6562	-2.225	-2.8729	-2.4771	-2.5187	-2.9417	-2.0792	-3.0792	-2.725	-2.2792	-3.0375	-2.2333	-2.4437	93.911	-60.177	-11.089	143.898	-68.305	19.683	194.666	173.815	25.952	-74.833	-135.472	210.825	214.665	214.197	-123.778	98.328	0.0014927	0.00027514	0.0003033	1054.2	9.6005e-06	1.117e-05	1020.5	408.7	1.2799e-05	8.5283e-06	469.89	216.46	171.22	89.043	9.2101e-06	120.81	0.0013595	0.001386	0.00037805	1027.9	1.4651e-05	1.5046e-05	991.65	399.19	1.4587e-05	1.5114e-05	462.04	212.31	168.34	87.493	1.5015e-05	118.65	-33.299	-51.959	-72.951	-125.655	17.034	23.564	-126.331	-120.945	15.123	-13.576	-122.556	-118.496	-116.993	-113.644	24.987	-115.686	-8191	255	
23673.633	1	1	0	0	0.2025	0.43949	0.13879	0.083275	0.14651	0.04896	0.20757	0.52937	0.14718	0.061448	0.10242	0.1837	0.11846	0.3445	0.072303	0.28849	-2.6063	-2.05	-2.4021	-2.9417	-2.1417	-2.8854	-2.5458	-2.4437	-2.8646	-2.0604	-2.525	-2.9667	-2.2771	-3.1708	-2.3958	-2.3792	79.974	-59.063	206.500	164.673	46.591	22.906	89.541	163.950	-18.268	193.185	134.520	198.645	26.585	202.223	65.747	145.958	0.0015857	0.0013389	6.4531e-05	1047.4	9.6089e-06	5.429e-06	1004.9	406.23	1.4801e-05	1.1614e-05	464.7	214.35	170.5	88.73	6.712e-06	120.17	0.0013508	0.0014044	0.0003842	1024	1.4577e-05	1.5222e-05	982.39	397.21	1.473e-05	1.5141e-05	456.84	210.19	167.58	87.097	1.5137e-05	118.04	-33.585	-64.701	47.665	-125.559	-11.591	-9.190	-126.230	-120.842	1.079	-9.050	-122.485	-118.571	-117.025	-113.382	8.966	-115.832	-8191	255	
23673.729	1	1	0	0	0.092333	0.20935	0.18979	0.17547	0.13771	0.047099	0.31656	0.16232	0.16588	0.1817	0.20427	0.13181	0.1433	0.22821	0.1812	0.38103	-2.7833	-2.1771	-2.6833	-2.8688	-2.1479	-2.9062	-2.6271	-2.2188	-3	-2.2104	-2.5271	-3.0875	-2.0292	-3.0083	-2.6917	-2.3104	117.157	-128.386	-90.029	-100.263	-70.746	-54.508	57.205	180.380	37.318	-84.932	-42.324	-47.724	-108.922	176.361	181.276	136.740	0.0015601	0.0010813	0.00040427	1051	9.9969e-06	6.4715e-06	1010.3	405.06	1.0211e-05	7.5999e-06	468.71	215.02	171.11	88.813	9.5983e-06	120.03	0.0013578	0.0013827	0.00038233	1025.4	1.4722e-05	1.5092e-05	982.91	396.67	1.4683e-05	1.522e-05	457.71	210.58	167.94	87.196	1.502e-05	118.26	-31.520	-86.417	-39.742	-125.687	1.245	38.200	-126.261	-120.811	7.660	33.607	-122.415	-118.478	-117.101	-113.244	-22.600	-115.532	-8191	255	
23673.824	1	1	0	0	0.13261	0.26033	0.052968	0.24075	0.116	0.085065	0.21461	0.31042	0.33334	0.22937	0.22613	0.055219	0.23557	0.27425	0.10875	0.22934	-2.5146	-2.0521	-2.2354	-3.0583	-2.0563	-2.725	-2.9688	-2.1771	-2.9479	-2.2875	-2.3812	-2.9062	-1.9708	-2.9646	-2.5583	-2.0812	207.778	22.875	-122.102	-124.593	-53.698	189.112	192.923	107.443	134.298	-134.435	102.288	-59.599	63.006	206.061	-19.685	144.629	0.0016191	0.00083857	0.00018183	1053	8.9609e-06	9.7249e-06	1010.8	405.77	1.2915e-05	9.179e-06	470.33	216.43	170.99	89.012	4.4158e-06	121.7	0.0013697	0.0013683	0.00038256	1024.2	1.464e-05	1.5179e-05	985.52	397.23	1.4686e-05	1.5048e-05	459.55	211.52	167.8	87.555	1.509e-05	119.26	-28.667	-67.402	-80.674	-125.743	-4.771	21.433	-126.188	-121.088	13.249	-4.584	-122.306	-118.306	-117.048	-113.139	9.539	-115.730	-8191	255	
23673.945	1	1	0	0	0.11391	0.21734	0.21465	0.17896	0.13699	0.12303	0.31984	0.23839	0.16485	0.33242	0.14423	0.098914	0.061496	0.27158	0.24871	0.33346	-2.5479	-2.2646	-2.3	-3.2229	-2.2354	-2.6021	-2.9042	-2.2271	-2.8396	-2.4375	-2.2667	-3.0479	-2.2771	-2.4042	-2.8187	-2.2146	85.908	6.152	171.899	134.331	182.370	151.524	182.699	82.367	65.990	-129.693	135.762	129.641	68.406	126.640	-45.019	159.494	0.0015401	0.00070527	0.0003544	1057	9.1408e-06	8.9249e-06	1017.6	407.85	7.574e-06	1.0694e-05	472.2	216.35	171.47	89.465	5.4385e-06	120.68	0.0013935	0.0013859	0.0003835	1029.1	1.4696e-05	1.531e-05	990.02	399.09	1.4863e-05	1.5187e-05	462.31	212.04	168.33	87.635	1.4806e-05	118.69	-28.821	-80.337	-42.434	-125.498	-5.637	-11.032	-126.097	-120.862	47.419	-14.648	-122.435	-118.723	-117.100	-113.248	-9.029	-115.931	-8191	255	
23674.041	1	1	0	0	0.031529	0.12321	0.20302	0.24687	0.23356	0.14734	0.29571	0.036645	0.18963	0.049063	0.26254	0.28624	0.28107	0.22731	0.081517	0.44711	-2.4188	-2.4021	-1.925	-3.0167	-2.3479	-2.5854	-3.1125	-2.2896	-2.7104	-2.7729	-2.3688	-3.0438	-2.3542	-2.6042	-2.9938	-2.4333	63.443	109.334	-85.733	214.321	-108.900	-1.146	211.773	-92.305	-42.320	85.077	173.122	131.995	-127.564	159.176	61.099	158.670	0.0015195	0.00055989	0.00014377	1050.6	1.3229e-05	7.3247e-06	1006.6	404.91	1.177e-05	1.0788e-05	465.19	214.88	170.97	88.657	1.0518e-05	119.6	0.0013696	0.0013786	0.00038457	1024.5	1.4879e-05	1.5105e-05	981.27	397.1	1.4804e-05	1.5034e-05	456.24	210.17	167.75	87.046	1.4843e-05	117.49	-32.377	-47.552	-7.283	-125.588	7.376	25.022	-126.039	-120.766	3.478	4.358	-122.281	-118.176	-117.128	-113.184	-13.755	-115.573	-8191	255	
23674.113	1	1	0	0	0.056654	0.16929	0.33016	0.11112	0.29991	0.06044	0.036013	0.10748	0.32623	0.14136	0.086553	0.3167	0.16019	0.33554	0.18386	0.14762	-2.2229	-2.5271	-1.9854	-3.1208	-2.3167	-2.3563	-3.1188	-2.1854	-2.7687	-2.8729	-2.1208	-3.1229	-2.4625	-2.4833	-2.9625	-2.3146	219.091	-52.355	95.143	211.852	177.317	-96.955	-115.583	190.077	185.525	-104.934	83.390	154.692	84.646	187.133	-129.558	183.697	0.0014477	0.00044589	0.00035039	1053.6	4.4316e-06	5.7176e-06	1007.1	406.06	1.6455e-05	7.0962e-06	466.05	215.8	170.54	88.463	6.9049e-06	120.27	0.0013816	0.0013934	0.00038193	1025.4	1.4441e-05	1.5152e-05	983.33	397.07	1.4789e-05	1.5094e-05	457.81	210.63	167.33	87.035	1.4755e-05	117.93	-28.651	-66.370	-51.637	-125.665	-27.984	-10.516	-126.081	-120.901	11.098	18.519	-122.581	-118.234	-117.050	-113.291	13.892	-115.529	-8191	255	
23674.209	1	1	0	0	0.19147	0.10913	0.054373	0.32733	0.16971	0.1231	0.35305	0.30332	0.11142	0.15473	0.30753	0.2863	0.17323	0.10408	0.072273	0.078381	-2.1688	-2.7646	-1.9188	-2.9938	-2.4	-2.2833	-3.0396	-2.3583	-2.4771	-3.0542	-2.2833	-2.8688	-2.6875	-2.3479	-2.9188	-2.4896	61.206	153.145	117.626	92.113	44.289	-61.882	134.943	193.046	50.877	15.584	184.972	148.650	-125.678	32.230	208.784	128.737	0.0014812	0.0011056	0.00025624	1052.7	7.5063e-06	6.8856e-06	1009	405.92	7.398e-06	1.1045e-05	468.05	216.72	172.02	89.129	8.347e-06	120.95	0.0013561	0.0013612	0.00037927	1025.7	1.4452e-05	1.5073e-05	984.64	397.09	1.4549e-05	1.4994e-05	459.62	211.54	168	87.433	1.4854e-05	118.78	-29.692	-37.990	-56.457	-125.389	-11.668	14.988	-125.993	-121.118	12.225	19.408	-122.438	-118.548	-117.139	-113.211	-7.974	-115.797	-8191	255	
23674.305	1	1	0	0	0.2377	0.21523	0.13329	0.067249	0.18192	0.053681	0.13251	0.1414	0.13386	0.11058	0.26689	0.034431	0.12577	0.17803	0.24475	0.071215	-2.0542	-2.8396	-2.1104	-2.8521	-2.6625	-2.2021	-3.1604	-2.4729	-2.2583	-2.9833	-2.3812	-2.9292	-2.7375	-2.3875	-2.8646	-2.5375	-65.781	-94.608	196.676	153.494	151.160	104.226	127.430	181.885	147.247	121.331	194.490	186.974	165.342	202.844	-99.572	42.932	0.0014515	0.0011833	0.00034883	1057.1	7.7824e-06	7.6773e-06	1016.3	407.74	2.1967e-06	1.1109e-05	470.66	216.82	171.9	89.273	1.0352e-05	120.5	0.0013601	0.001378	0.00037783	1029	1.4439e-05	1.5136e-05	989.09	398.88	1.4592e-05	1.4759e-05	460.09	212.51	168.33	87.485	1.4755e-05	118.54	-27.292	-68.173	-62.494	-125.646	-26.860	28.814	-125.890	-121.164	94.258	25.035	-122.339	-118.309	-117.093	-113.292	34.295	-116.071	-8191	255	
23674.424	1	1	0	0	0.23586	0.096023	0.29492	0.10406	0.1937	0.098249	0.05361	0.34604	0.20328	0.2279	0.26139	0.14432	0.2079	0.24891	0.082952	0.14258	-1.9458	-2.9521	-2.1688	-2.8729	-2.7083	-2.1271	-3.2354	-2.7646	-2.2896	-2.9604	-2.325	-2.7438	-3.0375	-1.9708	-2.9437	-2.7562	-106.903	125.398	-94.739	190.390	-63.431	191.683	88.334	166.564	99.879	174.751	151.210	172.530	174.389	190.675	-138.312	119.926	0.0016017	0.0010569	0.00016766	1048.9	1.1357e-05	8.4746e-06	1010.4	406.63	9.6978e-06	7.5102e-06	465.98	214.61	170.89	88.423	1.1138e-05	118.86	0.0013513	0.0013572	0.00038166	1024	1.4522e-05	1.4866e-05	983.36	396.95	1.4475e-05	1.4997e-05	456.52	209.91	167.63	86.904	1.4882e-05	117.05	-32.214	-104.230	-25.438	-125.693	13.581	-28.833	-126.254	-120.947	-15.341	42.433	-122.531	-118.494	-117.187	-113.354	22.782	-115.843	-8191	255	
23674.520	1	1	0	0	0.14525	0.12295	0.31354	0.07775	0.11194	0.16017	0.2191	0.402	0.18067	0.1643	0.080084	0.25987	0.25895	0.15912	0.12558	0.17574	-1.7479	-3	-2.2792	-2.525	-2.8229	-1.9979	-3.0104	-2.6854	-2.1437	-2.9917	-2.4833	-2.6729	-3.1083	-2.1958	-2.7458	-2.8271	140.680	166.379	142.801	-115.394	208.696	80.768	148.790	162.833	62.756	36.730	44.966	-89.567	-90.158	172.151	-32.976	160.938	0.0015841	0.00044013	0.00036851	1049.7	7.1056e-06	1.3945e-05	1005.3	404.96	8.4364e-06	7.3473e-06	467.21	214.1	171.07	88.587	6.5035e-06	120.1	0.0013552	0.0013758	0.00037957	1023.5	1.4534e-05	1.4891e-05	981.21	395.89	1.4418e-05	1.491e-05	456.05	209.8	167.48	87.097	1.4807e-05	117.61	-25.658	-67.648	-37.338	-125.451	26.538	17.431	-126.129	-120.772	27.273	-23.233	-122.485	-118.268	-117.089	-113.311	33.967	-115.773	-8191	255	
23674.615	1	1	0	0	0.13571	0.13723	0.15465	0.05311	0.27745	0.25241	0.13876	0.24129	0.15839	0.23497	0.2762	0.22089	0.17076	0.22249	0.034352	0.054063	-1.7333	-2.8771	-2.4375	-2.4396	-2.8771	-2.1583	-2.9062	-2.9333	-2.0812	-3.0396	-2.5187	-2.2938	-3.0229	-2.2188	-2.6458	-3.0667	-1.445	170.953	57.619	-71.245	201.485	-114.927	95.780	205.166	-24.276	-60.365	131.095	157.172	132.009	-111.212	71.913	173.727	0.0014656	0.0009323	0.00021589	1052	7.9879e-06	8.8936e-06	1011.3	406.35	6.6699e-06	1.1819e-05	468.98	215.89	171.13	89.001	1.5143e-05	120.33	0.0013638	0.0013503	0.00037526	1024.3	1.4428e-05	1.4908e-05	983.63	397.11	1.4444e-05	1.4735e-05	458.25	211.17	167.64	87.361	1.4683e-05	118.32	-29.021	-43.882	-2.861	-125.679	30.500	5.513	-126.074	-120.814	38.370	41.003	-122.162	-118.233	-116.868	-113.361	-21.816	-115.776	-8191	255	
23674.713	1	1	0	0	0.27333	0.070014	0.11284	0.2189	0.041733	0.20377	0.15926	0.016315	0.13254	0.29001	0.23785	0.1519	0.14675	0.17634	0.10441	0.080059	-1.675	-2.7958	-2.4896	-2.3208	-2.9125	-2.3521	-2.7958	-3.0375	-2.1542	-2.9167	-2.6667	-2.1958	-3.0354	-2.225	-2.5271	-3.0187	-15.949	166.842	33.790	-135.042	-87.042	149.332	138.767	-135.493	-106.303	7.961	146.475	86.913	164.689	209.377	-106.194	-133.772	0.0014599	0.0010075	0.0001686	1051.9	1.0851e-05	8.9709e-06	1012.1	407.1	9.3819e-06	1.5317e-05	470.74	216.18	171.91	89.367	3.9903e-06	120.5	0.0013441	0.0013427	0.00037374	1025.5	1.4139e-05	1.4947e-05	985.33	397.32	1.4714e-05	1.5083e-05	459.77	211.6	168.53	87.631	1.4715e-05	118.3	-24.704	-54.150	-62.811	-125.659	17.882	-32.649	-125.797	-120.832	8.145	-7.076	-122.462	-118.235	-116.840	-113.451	-11.986	-115.773	-8191	255	
23674.809	1	1	0	0	0.18355	0.072319	0.064134	0.074227	0.084821	0.1306	0.10693	0.14128	0.12873	0.10088	0.3783	0.067195	0.17942	0.11013	0.16109	0.16009	-1.5729	-2.7938	-2.3937	-2.3479	-3.0563	-2.2479	-2.4354	-3.0958	-1.9604	-2.9292	-2.7812	-2.3021	-3.0667	-2.65	-2.5938	-3.2542	197.254	197.029	-83.177	155.133	-112.161	-90.321	42.010	25.487	124.301	-136.769	127.817	166.017	184.855	100.973	138.736	200.260	0.0016113	0.00071541	0.00027744	1049	8.5557e-06	7.8757e-06	1005.1	405.5	1.2567e-05	1.0703e-05	463.16	213.12	170.01	89.065	1.1029e-05	118.98	0.0013535	0.0013495	0.00037226	1021.8	1.4441e-05	1.4769e-05	979.37	395.97	1.4487e-05	1.4802e-05	454.34	209.13	166.94	87.047	1.4649e-05	116.92	-31.018	-45.473	-69.570	-125.564	24.657	-8.948	-125.988	-120.781	13.725	1.928	-122.473	-118.441	-116.873	-113.401	13.826	-115.682	-8191	255	
23674.904	1	1	0	0	0.12049	0.15034	0.33641	0.23943	0.058285	0.24774	0.23928	0.26781	0.16203	0.14286	0.13727	0.16332	0.11185	0.26225	0.23252	0.42505	-1.7271	-2.7313	-2.4813	-2.2354	-2.9479	-2.55	-2.3563	-2.8458	-2.1562	-2.8146	-3.0708	-2.4562	-3.0812	-2.6958	-2.125	-3.3667	31.666	67.485	64.308	-136.698	-42.389	119.212	132.619	178.581	183.703	-88.338	174.178	150.618	213.408	163.311	83.904	162.892	0.00155	0.00071148	0.00023391	1040.5	1.0593e-05	7.3517e-06	1000.3	404.09	1.6167e-05	1.0112e-05	463.93	214.84	170.33	88.467	9.1536e-06	119.6	0.0013441	0.0013313	0.00036917	1017.6	1.4192e-05	1.4714e-05	975.44	395.64	1.4388e-05	1.4678e-05	453.95	209.34	167.14	86.964	1.4535e-05	117.29	-31.626	-72.684	-45.529	-125.745	42.727	-1.456	-125.940	-120.885	10.120	23.884	-122.315	-118.474	-116.868	-113.420	-53.987	-115.748	-8191	255	
23675.025	1	1	0	0	0.29685	0.23058	0.15688	0.21196	0.097955	0.091362	0.25095	0.12168	0.18213	0.29139	0.2712	0.21744	0.25483	0.22716	0.20019	0.019491	-1.8937	-2.4167	-2.6854	-2.1417	-2.8479	-2.3937	-2.2375	-2.9042	-2.2562	-2.6688	-3.0625	-2.375	-2.9583	-2.6583	-2.1437	-3.3021	-67.315	-117.556	17.310	-137.469	5.672	196.958	149.974	149.476	215.010	165.977	206.925	-127.953	-132.562	183.468	71.460	-41.135	0.0014136	0.0012101	0.000207	1047.5	9.0847e-06	8.2367e-06	1003.3	404.98	1.4335e-05	5.4394e-06	466.62	215.16	170.67	89.101	1.0611e-05	120.52	0.0013405	0.0013407	0.00037371	1021	1.4362e-05	1.4671e-05	977.99	395.76	1.4276e-05	1.4803e-05	457.34	210.05	167.67	87.297	1.4708e-05	118.05	-27.502	-66.742	-46.694	-125.502	-18.003	-8.511	-125.592	-120.751	-1.009	47.932	-122.299	-118.370	-116.916	-113.230	75.456	-115.736	-8191	255	
23675.121	1	1	0	0	0.092555	0.27846	0.038593	0.24193	0.055116	0.2245	0.092964	0.12725	0.2901	0.24774	0.22634	0.27685	0.15789	0.18358	0.11966	0.31608	-1.7833	-2.4979	-2.7354	-2.2458	-2.8583	-2.8146	-2.35	-3.0687	-2.2729	-2.3688	-3.1063	-2.2083	-2.8896	-2.8979	-1.8708	-3.0229	216.818	208.922	45.993	164.909	-52.528	172.689	-81.985	-40.592	-9.864	-17.475	141.044	192.660	39.814	25.254	-50.606	170.921	0.0014912	0.00045355	0.00039914	1044.2	7.6258e-06	7.991e-06	1008	405.99	9.2126e-06	1.0776e-05	469.51	215.84	171.42	89.086	1.0016e-05	120.22	0.0013479	0.0013281	0.00037309	1021.2	1.4409e-05	1.4723e-05	984.08	396.59	1.4432e-05	1.4804e-05	459	211.24	167.82	87.443	1.4559e-05	118.1	-35.362	-47.029	-73.262	-125.615	26.579	15.903	-125.748	-120.797	-5.591	28.129	-122.617	-118.130	-116.753	-113.405	-5.146	-115.759	-8191	255	
23675.217	1	1	0	0	0.2034	0.13022	0.029725	0.29017	0.064469	0.0404	0.13248	0.20137	0.25117	0.35913	0.21017	0.32987	0.22552	0.27629	0.25977	0.13391	-1.8458	-2.2146	-2.8688	-1.975	-2.7271	-2.8271	-2.2146	-3.0438	-2.3479	-2.2021	-2.9917	-2.2438	-2.8208	-2.8146	-1.9896	-3.2958	178.956	-14.322	-47.080	203.793	75.336	-14.557	-101.644	-132.260	-88.468	2.961	160.187	185.140	-80.188	-79.703	-98.948	193.283	0.0016406	0.0012587	0.00013838	1050.7	1.2903e-05	5.3043e-06	1005.9	403.8	6.467e-06	8.6599e-06	463.13	212.64	169.38	88.289	1.2912e-05	118.41	0.0013549	0.0013518	0.00037329	1023	1.4369e-05	1.4831e-05	977.08	394.66	1.4377e-05	1.4826e-05	454.66	208.36	166.79	86.693	1.4736e-05	116.25	-29.636	-56.411	-38.278	-125.372	26.951	26.447	-125.815	-120.728	12.993	50.648	-122.141	-118.149	-116.887	-113.193	-30.909	-115.404	-8191	255	
23675.314	1	1	0	0	0.17864	0.23386	0.11176	0.29834	0.076554	0.21684	0.25711	0.25758	0.2226	0.069783	0.24812	0.36259	0.1748	0.33623	0.34948	0.16137	-2.2438	-2.2687	-2.8146	-2.3979	-2.6833	-2.7854	-2.1896	-3.2396	-2.4521	-2.2313	-2.9875	-2.3063	-2.5417	-3.0396	-2.1875	-3.0625	-57.227	176.450	187.481	171.616	-55.030	200.730	190.171	192.432	140.671	-123.710	111.570	153.894	191.964	-137.747	180.606	137.593	0.0015833	0.0010836	0.00034103	1042	1.4145e-05	4.8626e-06	998.78	403.06	6.368e-06	1.1154e-05	460.88	211.43	169.34	87.952	1.0085e-05	118.75	0.0013381	0.001376	0.0003742	1017	1.443e-05	1.4902e-05	973.99	394.22	1.4596e-05	1.5092e-05	452.51	207.46	166.4	86.528	1.4918e-05	116.61	-30.560	-54.337	-45.426	-125.504	40.052	23.814	-125.865	-120.817	29.384	47.512	-122.272	-118.396	-116.712	-113.112	13.690	-115.736	-8191	255	
23675.408	1	1	0	0	0.26655	0.23585	0.043028	0.2779	0.20896	0.036853	0.12128	0.23587	0.16012	0.14067	0.18554	0.12818	0.46213	0.28591	0.15334	0.098776	-2.2083	-2.0521	-2.7771	-2.2354	-2.4917	-3.05	-2.1396	-2.8937	-2.3896	-2.05	-2.9646	-2.2562	-2.3063	-3.1979	-2.1625	-2.7562	189.775	76.437	156.957	170.351	38.034	183.223	190.373	165.207	142.741	153.295	170.628	150.745	207.055	184.786	-73.579	144.128	0.0015578	0.00041814	0.00029587	1044.1	1.3126e-05	8.2599e-06	999.89	405.08	9.9559e-06	1.2794e-05	462.75	213.07	169.68	88.165	1.2081e-05	119.28	0.0013524	0.0013567	0.00037889	1018.5	1.454e-05	1.4792e-05	977.54	395.26	1.4472e-05	1.5023e-05	453.96	208.73	166.64	86.682	1.4782e-05	117.04	-31.211	-35.385	-53.464	-125.515	-9.396	-8.988	-125.968	-120.916	13.991	3.319	-122.285	-118.200	-117.033	-113.198	-33.156	-115.514	-8191	255	
23675.504	1	1	0	0	0.20909	0.17331	0.059402	0.14754	0.15086	0.062242	0.19777	0.19465	0.035835	0.18505	0.07093	0.30716	0.029038	0.16734	0.26652	0.23225	-2.2833	-2.1021	-2.7667	-2.5896	-2.2062	-3.0125	-2.1688	-2.6896	-2.7125	-1.9854	-3.0042	-2.7062	-2.1562	-3.1063	-2.2708	-2.7875	-130.036	-105.212	25.352	176.219	-53.307	88.817	139.431	142.526	-3.045	199.627	76.906	166.540	137.484	-87.473	47.317	88.888	0.0015852	0.0014428	9.7775e-05	1046.1	5.0795e-06	3.9614e-06	1008.1	405.07	1.1175e-05	8.1117e-06	464.62	214.28	170.68	88.378	2.4848e-06	119.84	0.0013539	0.0013641	0.0003774	1019.6	1.4595e-05	1.4849e-05	981.47	396.16	1.4733e-05	1.5259e-05	455.99	209.72	167.32	87.063	1.4667e-05	117.91	-28.620	-36.196	-1.576	-125.611	34.768	60.220	-125.790	-120.778	35.318	-29.193	-122.264	-118.091	-116.510	-113.309	-61.352	-115.434	-8191	255	
23675.600	1	1	0	0	0.042265	0.09422	0.14251	0.076865	0.19877	0.13994	0.072584	0.21931	0.5029	0.12447	0.45843	0.25924	0.22525	0.062757	0.37052	0.14298	-2.5354	-1.9167	-2.7104	-2.6813	-1.9896	-2.9625	-2.2812	-2.5958	-2.7583	-2.0479	-2.9125	-2.825	-2.0875	-3.0792	-2.0479	-2.4896	164.677	-109.745	77.870	-124.029	-88.530	31.257	138.816	138.453	220.025	-110.505	213.826	185.014	153.439	-21.310	-128.832	154.233	0.001577	0.00081529	0.00039299	1046.4	6.9855e-06	1.0336e-05	996.72	403.17	1.1535e-05	3.4577e-06	463.42	212.26	168.82	88.186	8.9605e-06	118.04	0.0013561	0.0013735	0.00038479	1019.7	1.4737e-05	1.4898e-05	976.05	394.79	1.4567e-05	1.5086e-05	454.09	207.75	165.69	86.454	1.4768e-05	116.05	-35.099	-60.195	-50.622	-125.476	6.349	-7.629	-125.688	-120.496	15.119	-30.080	-122.039	-118.171	-116.615	-113.059	9.894	-115.356	-8191	255	
23675.721	1	1	0	0	0.23954	0.11528	0.084405	0.30701	0.047439	0.094031	0.057275	0.3309	0.14546	0.14446	0.17573	0.19991	0.24553	0.21621	0.12161	0.37343	-2.575	-2.1896	-2.6188	-2.7208	-2.0729	-2.8896	-2.5083	-2.3438	-2.8333	-2.0563	-2.6396	-2.8917	-2.1375	-3.1583	-2.4813	-2.4875	-7.186	201.504	-43.623	188.209	198.333	49.760	73.433	147.900	-69.860	31.823	-130.478	99.165	163.930	146.469	50.893	179.536	0.0015635	0.0010307	0.00023555	1044.3	1.1221e-05	4.5446e-06	998.75	402.08	8.3616e-06	9.611e-06	464.35	211.95	168.35	87.55	9.5278e-06	118.74	0.0013305	0.0013509	0.00037559	1015.4	1.4485e-05	1.4902e-05	972.76	393.19	1.4503e-05	1.4992e-05	452.85	207.45	165.61	86.233	1.479e-05	116.46	-35.534	-70.634	-51.855	-125.524	37.801	34.772	-125.735	-120.629	7.345	-6.427	-122.052	-118.287	-116.897	-113.009	1.339	-115.642	-8191	255	
23675.816	1	1	0	0	0.055362	0.35764	0.1538	0.21864	0.084243	0.14068	0.36315	0.49031	0.10736	0.15262	0.45306	0.18106	0.10855	0.34324	0.067059	0.29505	-2.5583	-2.0979	-2.6417	-2.8917	-2.1729	-2.9562	-2.6562	-2.2458	-2.8521	-2.2833	-2.7562	-2.9958	-2.2125	-3.1229	-2.5729	-2.6083	103.294	198.954	-118.182	-136.254	-88.383	135.632	180.770	195.596	-77.061	121.699	214.642	12.009	174.989	179.568	-63.543	207.518	0.0014725	0.00030458	0.00031897	1039.9	6.3071e-06	4.1827e-06	1001.1	402.98	1.57e-05	6.4381e-06	464.02	212.59	169.11	88.127	8.9586e-06	119.15	0.0013445	0.0013844	0.00037508	1016.2	1.4476e-05	1.5035e-05	976.28	394.57	1.456e-05	1.53e-05	454.17	208.1	166.06	86.584	1.484e-05	117.03	-30.143	206.418	-51.597	-125.489	-29.534	19.590	-125.851	-120.492	13.500	-0.366	-122.083	-118.181	-116.923	-113.127	-20.509	-115.353	-8191	255	
23675.912	1	1	0	0	0.089815	0.10471	0.11781	0.14389	0.22756	0.23842	0.11564	0.27334	0.08171	0.13937	0.062983	0.084138	0.27135	0.32931	0.14953	0.22324	-2.5771	-2.1729	-2.4771	-2.95	-2.1646	-2.7896	-2.5229	-2.2854	-3.0208	-2.3521	-2.4958	-3.0438	-2.1271	-3.0187	-2.6542	-2.3104	47.088	199.686	-86.262	-95.984	55.413	199.535	193.763	-135.193	153.920	60.997	40.190	18.037	-109.588	188.161	52.327	168.214	0.0015029	0.00024026	0.00024294	1045.5	1.498e-05	7.5933e-06	1005.4	403.78	1.4836e-05	1.1159e-05	465.43	214.59	170.22	88.382	9.0908e-06	119.87	0.0013488	0.0013637	0.00037385	1020.4	1.4733e-05	1.4971e-05	979.51	394.95	1.4584e-05	1.5103e-05	456.15	209.95	166.74	86.811	1.4642e-05	117.86	-32.537	-71.443	-47.762	-125.661	8.426	45.380	-126.031	-120.632	8.611	11.925	-122.120	-117.987	-116.836	-112.987	2.133	-115.229	-8191	255	
23675.984	1	1	0	0	0.16306	0.2913	0.13624	0.23002	0.21304	0.20362	0.12744	0.20082	0.11262	0.14292	0.24428	0.34557	0.37323	0.26472	0.39713	0.14019	-2.4917	-2.3146	-2.2958	-3.0187	-2.0708	-2.5187	-2.8896	-2.1125	-2.8917	-2.4708	-2.3438	-3.0208	-2.2917	-2.8104	-2.7021	-2.2958	42.498	204.482	-74.826	125.663	9.757	-87.427	-123.657	179.149	-67.440	142.089	217.174	193.398	-106.039	201.689	-32.113	123.310	0.0014383	0.00096336	0.00018882	1048.8	7.5063e-06	4.2713e-06	1004.3	403.49	1.7866e-05	1.3632e-05	464.79	213.12	170.12	88.189	7.2882e-06	118.93	0.0013724	0.0013809	0.00038213	1021.4	1.4815e-05	1.5004e-05	978.67	394.6	1.4651e-05	1.513e-05	453.87	208.35	166.21	86.625	1.4992e-05	116.48	-32.214	-76.155	-98.831	-125.276	18.938	-10.533	-125.715	-120.567	63.413	28.941	-122.084	-117.963	-116.663	-112.975	-36.100	-115.425	-8191	255	
23676.105	1	1	0	0	0.15228	0.041274	0.064541	0.22933	0.029287	0.25744	0.17557	0.085607	0.27759	0.31187	0.16311	0.2447	0.079236	0.10268	0.057344	0.25686	-2.4583	-2.3583	-2.1208	-3.1583	-2.2229	-2.5542	-3.0458	-2.2542	-2.75	-2.5292	-2.3125	-2.8812	-2.5062	-2.7354	-2.8104	-2.0542	-130.056	-24.906	-15.437	169.754	-72.262	-31.660	163.230	149.782	3.453	47.808	-108.663	189.940	-90.774	148.305	88.581	101.621	0.0014694	0.0006215	0.00026313	1040.9	7.1082e-06	6.7549e-06	997.62	403.05	7.1899e-06	6.1464e-06	462	212.3	169.18	87.873	1.8167e-06	118.69	0.001362	0.0013627	0.00037963	1016.9	1.4636e-05	1.4909e-05	974.02	393.54	1.4644e-05	1.505e-05	452.71	207.82	165.9	86.469	1.4662e-05	116.53	-33.239	-64.849	-25.882	-125.452	3.065	20.421	-125.513	-120.651	17.498	50.682	-121.801	-117.798	-116.748	-112.944	-12.474	-115.565	-8191	255	
23676.201	1	1	0	0	0.34283	0.11654	0.14046	0.13858	0.16965	0.048817	0.10721	0.35614	0.13262	0.19488	0.060923	0.17201	0.27201	0.40832	0.16952	0.12343	-2.6042	-2.4167	-1.9729	-3.1646	-2.2083	-2.3208	-2.9854	-2.2042	-2.5292	-2.4938	-2.3458	-3.2708	-2.4333	-2.3229	-2.7438	-2.4208	135.388	58.402	162.124	153.383	36.345	27.002	-4.274	178.926	102.471	7.366	145.696	221.068	189.459	-112.461	118.376	96.967	0.0015652	0.00075328	0.00026049	1045.9	1.381e-05	8.545e-06	998.6	403.27	8.478e-06	6.0105e-06	463.23	213.42	170.17	88.212	5.4152e-06	119.89	0.0013638	0.0013639	0.0003794	1019	1.4506e-05	1.4786e-05	975.8	394.21	1.4671e-05	1.5116e-05	455.06	209.1	166.38	86.807	1.5038e-05	117.38	-27.662	-88.632	-44.048	-125.089	-1.792	5.022	-125.348	-120.459	-17.574	6.966	-121.689	-117.641	-116.363	-112.934	18.848	-115.475	-8191	255	
23676.299	1	1	0	0	0.13694	0.095954	0.024242	0.21125	0.096683	0.16014	0.19377	0.34072	0.2553	0.13343	0.093291	0.22998	0.23614	0.27967	0.11188	0.34378	-2.3375	-2.7021	-1.8542	-2.9854	-2.3875	-2.3667	-2.9917	-2.3	-2.675	-2.8583	-2.1063	-2.9813	-2.5958	-2.4833	-3.0312	-2.4771	-53.892	195.951	-90.346	202.661	-36.878	41.578	150.868	186.251	203.648	-98.195	-31.524	170.905	198.641	198.505	112.967	184.308	0.0015401	0.00061684	0.00031938	1043	9.6895e-06	8.6339e-06	1005.2	404.79	1.297e-05	1.0666e-05	464.16	213.95	170.16	88.943	4.5088e-06	120.39	0.0013599	0.0013651	0.00037729	1020	1.4855e-05	1.4993e-05	978.97	395.22	1.4823e-05	1.5144e-05	456.06	209.8	166.67	87.312	1.5094e-05	118.37	-32.951	-123.984	-52.754	-124.721	-7.076	25.382	-124.715	-119.601	23.512	17.202	-121.483	-117.834	-116.589	-112.809	-0.945	-115.091	-8191	255	
23676.395	1	1	0	0	0.18805	0.27792	0.10062	0.2389	0.21014	0.15403	0.049531	0.46933	0.24365	0.23045	0.27894	0.13124	0.27678	0.14022	0.18565	0.18473	-2.1146	-2.6125	-2.0438	-3.0271	-2.4417	-2.2938	-2.9917	-2.3979	-2.4292	-3.1333	-2.2917	-2.925	-2.9292	-2.4938	-2.9375	-2.675	33.271	143.104	172.723	-117.633	81.289	178.802	55.036	178.145	-119.925	191.094	125.860	191.062	137.922	199.376	211.152	175.070	0.0013791	0.00097172	0.00030976	1046.1	1.2724e-05	1.1236e-05	1003.2	403.52	1.2226e-05	3.7312e-06	466.62	213.35	170.36	88.407	1.0835e-05	118.86	0.0013756	0.0013638	0.00038335	1020.6	1.4498e-05	1.5169e-05	980.69	394.65	1.4832e-05	1.5228e-05	455.46	208.65	166.39	86.838	1.4906e-05	116.79	-30.883	-64.126	-64.281	-124.358	-0.422	7.975	-125.524	-120.124	-9.299	-29.650	-121.841	-117.727	-116.104	-112.391	-2.874	-114.482	-8191	255	
23676.514	1	1	0	0	0.025005	0.02939	0.063671	0.30615	0.39208	0.25785	0.35465	0.20951	0.10307	0.19842	0.24187	0.29666	0.15394	0.32156	0.13615	0.056862	-2.1813	-2.9771	-2.0375	-2.8333	-2.575	-2.1667	-3.2708	-2.4917	-2.2479	-2.9271	-2.3312	-3.0396	-2.8333	-2.3104	-3.0229	-2.4771	122.574	207.723	-119.778	201.494	219.706	-96.747	172.760	188.030	101.971	18.028	-72.696	221.237	203.651	197.800	126.140	15.367	0.001521	0.00094062	0.00023381	1044.4	1.0343e-05	5.4753e-06	998.63	401.48	3.5452e-06	1.0195e-05	462.3	211.53	168.27	88.106	9.8916e-06	118.7	0.0013799	0.0013959	0.00039194	1017.2	1.478e-05	1.518e-05	974.43	392.76	1.4776e-05	1.5234e-05	452.52	207.32	165.49	86.441	1.5125e-05	116.64	-26.828	-74.312	-80.900	-124.265	28.084	11.253	-125.256	-119.796	76.207	32.431	-121.263	-117.259	-115.701	-112.216	4.742	-114.437	-8191	255	
23676.586	1	1	0	0	0.11398	0.059573	0.10709	0.09608	0.12486	0.10376	0.20582	0.20533	0.12802	0.29662	0.30897	0.11677	0.13152	0.1835	0.031132	0.27224	-1.9896	-2.9604	-2.1437	-2.7021	-2.9625	-2.1437	-3.15	-2.5979	-2.2333	-3.0354	-2.5125	-2.7167	-3.0583	-2.2646	-2.9104	-2.7646	-54.416	-34.770	22.909	186.596	174.556	216.127	209.701	218.201	-129.934	65.744	185.702	104.091	203.063	190.561	-30.323	206.988	0.0015346	0.00036759	0.00032102	1045.9	9.5477e-06	5.4593e-06	999.54	402.89	7.4586e-06	5.4623e-06	466.83	212.91	169.06	88.37	8.2044e-06	119.43	0.0013767	0.0013964	0.00039235	1017.6	1.491e-05	1.54e-05	975.94	393.86	1.503e-05	1.5112e-05	454.04	208.31	165.81	86.773	1.5371e-05	117.28	-31.699	-71.109	-53.852	-124.571	6.851	50.141	-124.872	-119.798	6.747	37.788	-121.441	-117.448	-115.951	-112.422	-25.422	-114.554	-8191	255	
23676.705	1	1	0	0	0.23231	0.089664	0.13003	0.27859	0.12171	0.064096	0.25431	0.11466	0.17667	0.05433	0.3372	0.32478	0.33357	0.060159	0.26691	0.24932	-1.9396	-3.1042	-2.1979	-2.6729	-2.8146	-2.0687	-3.0479	-2.7438	-2.1917	-2.8729	-2.3792	-2.4604	-2.9458	-2.3354	-2.7167	-3.0792	-126.654	145.111	194.908	181.229	-14.807	173.163	209.326	200.647	160.494	75.412	-125.536	220.069	117.104	165.958	180.943	144.068	0.001557	0.00031159	0.00020388	1047.1	8.2984e-06	9.1251e-06	1004.6	403.26	1.0849e-05	1.5605e-05	464.55	214.21	169.93	88.907	7.7892e-06	120.68	0.0013785	0.0014043	0.00039047	1020.1	1.5107e-05	1.5417e-05	980.07	394.39	1.4806e-05	1.5477e-05	454.89	209.37	166.38	87.096	1.5322e-05	118.27	-32.655	-88.272	-19.996	-124.368	30.396	25.583	-124.686	-119.303	26.160	30.115	-121.704	-117.181	-115.885	-112.063	12.796	-114.801	-8191	255	
23676.801	1	1	0	0	0.13867	0.12858	0.19271	0.056791	0.25161	0.24127	0.17586	0.22353	0.17101	0.17681	0.22604	0.068051	0.27092	0.51045	0.023711	0.22486	-1.5438	-2.9292	-2.3	-2.5	-3.0312	-2.1854	-2.8312	-2.9562	-2.0521	-2.8937	-2.4688	-2.4083	-2.9938	-2.4042	-2.6917	-2.9	205.090	188.095	-22.577	138.584	104.272	93.025	86.148	146.260	124.173	-80.111	143.834	140.514	115.251	197.794	-47.602	186.989	0.0015272	0.0010639	0.00024485	1041.6	1.1033e-05	6.1e-06	1001.5	402.23	9.678e-06	1.0296e-05	464.72	212.94	168.73	88.069	9.071e-06	118.83	0.0014127	0.001417	0.00039536	1018.1	1.51e-05	1.5701e-05	981.34	394.24	1.5278e-05	1.5771e-05	454.7	208.49	165.95	86.662	1.5834e-05	116.87	-24.615	-57.235	-18.492	-125.613	5.120	-0.010	-126.325	-121.080	15.274	18.937	-122.646	-118.403	-117.160	-113.329	-25.065	-115.913	-8191	255	
23676.896	1	1	0	0	0.10233	0.11262	0.14759	0.27919	0.15156	0.17027	0.081324	0.12641	0.21335	0.18513	0.21839	0.13608	0.091624	0.2329	0.097416	0.26716	-1.7062	-2.8417	-2.3833	-2.1562	-3.0625	-2.275	-2.5979	-2.9958	-1.9979	-2.8042	-2.6542	-2.3104	-2.9333	-2.3979	-2.4396	-3.1042	116.584	212.590	-50.239	185.672	-94.394	-100.865	196.551	186.541	-63.682	-66.342	96.213	155.999	220.638	-115.527	-72.126	189.343	0.0016441	0.0011176	0.000207	1044.3	1.4123e-05	7.4894e-06	989.97	400.87	6.8419e-06	8.1264e-06	460.27	211.5	168.37	88.056	6.1047e-06	118.75	0.0014113	0.0014499	0.00040746	1017.3	1.5788e-05	1.6334e-05	973.11	393.05	1.5865e-05	1.6271e-05	451.2	206.81	165.65	86.61	1.6324e-05	116.66	-30.721	-73.214	-71.418	-125.667	19.849	25.633	-126.171	-121.008	13.865	-1.938	-122.461	-118.348	-117.123	-113.554	-20.606	-115.738	-8191	255	
23676.994	1	1	0	0	0.24997	0.099433	0.11833	0.38197	0.24193	0.15965	0.24219	0.14478	0.18068	0.17047	0.19555	0.3287	0.26848	0.21963	0.15177	0.233	-1.7417	-2.8104	-2.5771	-2.275	-2.8667	-2.2083	-2.5458	-3.1042	-2.2021	-2.7625	-2.8979	-2.2333	-3.0604	-2.5375	-2.2562	-3.1479	134.387	213.710	194.429	181.671	130.583	121.242	119.080	-95.084	-36.729	32.075	-103.967	144.681	-52.527	219.683	-116.488	-105.582	0.0015944	0.00027068	0.00024394	1039.4	6.1564e-06	1.146e-05	998.91	401.4	1.2425e-05	5.1147e-06	462.27	211.5	169.14	88.489	5.3242e-06	119.1	0.0014841	0.0015006	0.00041982	1017.6	1.6027e-05	1.6389e-05	976.05	393.57	1.5919e-05	1.644e-05	452.98	207.23	166.14	86.924	1.6393e-05	117.08	-25.108	-85.241	-0.230	-125.690	68.027	32.823	-126.125	-121.224	11.177	54.796	-122.384	-118.458	-116.927	-113.632	-38.018	-115.928	-8191	255	
23677.113	1	1	0	0	0.039112	0.0759	0.16877	0.28366	0.17247	0.21787	0.19926	0.10336	0.043795	0.080581	0.13316	0.34068	0.1217	0.21873	0.28977	0.23453	-1.8292	-2.5271	-2.7354	-2.0625	-2.825	-2.4354	-2.525	-3.1083	-2.2396	-2.4125	-2.8937	-2.1917	-3.0979	-2.7896	-2.1708	-3.15	-98.364	-91.741	-34.865	179.596	207.792	-18.123	-120.859	199.559	49.720	-51.843	131.125	182.340	200.127	168.734	-34.534	105.429	0.0015442	0.00073167	0.00022548	1045.6	2.9823e-06	4.1876e-06	1002.7	403.36	8.4991e-06	5.831e-06	462.97	213.38	169.07	88.44	5.2726e-06	120.05	0.0014784	0.0015014	0.00041421	1017.5	1.6116e-05	1.6581e-05	979.26	394.49	1.6441e-05	1.6769e-05	454.86	208.97	166.71	87.047	1.6511e-05	118	-29.860	-69.347	-44.647	-125.502	-100.017	42.024	-126.120	-120.996	17.966	35.676	-122.255	-118.300	-116.828	-113.346	68.292	-115.722	-8191	255	
23677.209	1	1	0	0	0.41019	0.37313	0.030593	0.13992	0.13394	0.1986	0.39753	0.34565	0.26199	0.0241	0.30309	0.12627	0.30636	0.24757	0.17552	0.10403	-1.7396	-2.4875	-2.7604	-2.0812	-2.9521	-2.5	-2.2479	-3.175	-2.2625	-2.5104	-2.8875	-2.2188	-2.8937	-2.6792	-2.1979	-3.0979	199.007	-58.291	-47.072	-78.343	174.244	161.237	119.572	178.735	159.821	26.566	138.374	203.919	102.417	151.928	-84.386	149.224	0.0015367	0.00099616	0.00016168	1047.6	8.6195e-06	6.9809e-06	1003.9	402.28	1.2952e-05	9.0759e-06	464.38	212.93	169.16	88.397	9.9467e-06	119.32	0.0014908	0.0015383	0.00042319	1022	1.6374e-05	1.6716e-05	981.38	395.12	1.6339e-05	1.6874e-05	455.66	208.5	166.62	87.005	1.6728e-05	117.34	-33.332	-70.097	-99.371	-125.420	10.435	-25.209	-125.835	-121.058	17.577	-9.531	-122.328	-118.410	-116.798	-113.351	35.338	-115.568	-8191	255	
23677.281	1	1	0	0	0.1986	0.099886	0.25108	0.21038	0.20668	0.073134	0.15271	0.13838	0.1621	0.41195	0.26581	0.30281	0.36711	0.24814	0.21825	0.28317	-1.9417	-2.3771	-2.9437	-2.0708	-2.7104	-2.4708	-2.2354	-3.1063	-2.2833	-2.2583	-2.9458	-2.2646	-2.45	-2.6771	-2.05	-3.1458	55.063	52.488	173.337	121.197	38.526	77.819	112.827	-125.984	50.045	0.448	143.386	170.859	-69.012	209.495	106.811	147.092	0.001413	0.0013538	0.00024085	1043.2	5.766e-06	3.6793e-06	995.06	402.89	1.1587e-05	8.3141e-06	457.72	210.59	168.33	88.312	5.5264e-06	118.38	0.0015113	0.001556	0.00042605	1016.8	1.6507e-05	1.7156e-05	972.98	393.6	1.6682e-05	1.7435e-05	450.85	206.87	165.56	86.656	1.7201e-05	116.51	-30.886	-37.592	-81.853	-125.340	-6.694	-59.439	-126.096	-120.563	25.675	-26.574	-122.706	-118.210	-117.070	-113.247	88.327	-115.536	-8191	255	
23677.400	1	1	0	0	0.068147	0.18742	0.19968	0.4959	0.21846	0.35731	0.35383	0.18253	0.37801	0.1838	0.11982	0.19194	0.17617	0.17185	0.09906	0.3429	-1.9188	-1.9729	-3.0458	-2.0875	-2.4208	-2.4646	-2.1542	-2.8292	-2.3375	-2.1979	-3.0771	-2.2938	-2.6583	-2.9292	-1.9958	-3.0542	-29.917	192.676	-1.662	-137.171	57.288	0.948	111.779	205.446	113.972	180.897	213.882	-131.514	166.270	8.005	119.411	151.316	0.0014564	0.00098622	0.00030522	1042.9	9.4211e-06	6.8599e-06	994.28	400.83	1.5986e-05	4.77e-06	459.6	210.35	168.18	88.042	1.1485e-05	118.52	0.0015392	0.0015885	0.00043876	1019.3	1.6855e-05	1.7125e-05	973.32	393.52	1.712e-05	1.7518e-05	451.54	207.18	165.7	86.583	1.7677e-05	117	-32.960	-68.673	-79.657	-125.255	46.890	-8.380	-126.097	-120.718	34.811	-75.474	-122.322	-118.196	-116.764	-113.090	52.652	-115.637	-8191	255	
23677.496	1	1	0	0	0.16837	0.20726	0.10532	0.24952	0.077243	0.33552	0.017965	0.23104	0.38224	0.25285	0.020245	0.40491	0.17495	0.24191	0.067175	0.14274	-2.1083	-2.3042	-2.85	-2.2729	-2.5083	-2.9021	-2.0979	-2.9917	-2.7417	-2.0167	-2.9813	-2.2479	-2.4229	-3.1083	-2.1604	-2.8375	211.587	-4.828	7.055	162.083	-30.175	56.456	160.043	134.935	-103.366	-102.372	168.675	216.798	186.690	203.827	-50.204	142.609	0.001551	0.0010312	0.00027803	1038.5	6.1823e-06	5.3193e-06	1001.7	401.78	1.491e-05	6.1785e-06	461.58	211.07	168.83	88.031	9.7986e-06	119.2	0.0015617	0.0016602	0.00045767	1017.1	1.7743e-05	1.8026e-05	978.35	394.09	1.7955e-05	1.8642e-05	454.36	207.56	166.16	86.832	1.8699e-05	117.53	-32.287	-59.135	-46.872	-125.120	-26.031	22.104	-125.876	-120.902	13.920	-40.692	-122.312	-118.383	-116.848	-113.453	23.904	-115.733	-8191	255	
23677.594	1	1	0	0	0.2664	0.098826	0.17128	0.28428	0.14248	0.26221	0.22581	0.27952	0.25848	0.048053	0.14656	0.28234	0.15449	0.14603	0.2995	0.31622	-2.2958	-2.0354	-2.7146	-2.4729	-2.375	-2.8917	-2.2375	-2.8396	-2.5979	-2.0479	-2.9625	-2.4583	-2.275	-3.3229	-2.1604	-2.9667	55.689	-110.021	108.901	173.046	-51.288	-126.959	147.510	192.054	170.409	-114.290	199.584	210.371	163.991	202.380	94.405	147.616	0.0015929	0.00086704	0.00028912	1045.1	1.2484e-05	6.2442e-06	1000.6	401.79	1.19e-05	7.3564e-06	460.7	212.07	168.59	87.958	1.5759e-05	118.44	0.0016572	0.001718	0.00047556	1020.8	1.8429e-05	1.9097e-05	980.47	394.83	1.8491e-05	1.9431e-05	454.55	207.84	165.86	86.783	1.963e-05	116.92	-33.391	-48.270	-58.509	-125.719	5.081	39.394	-126.009	-120.655	63.219	6.193	-122.613	-118.272	-116.943	-113.330	-2.444	-115.509	-8191	255	
23677.689	1	1	0	0	0.1346	0.22469	0.1512	0.2158	0.075066	0.1103	0.062282	0.14887	0.15501	0.11878	0.10477	0.29506	0.16067	0.16024	0.065922	0.1144	-2.3438	-1.9792	-2.9188	-2.5917	-2.1	-3.0438	-2.3417	-2.6833	-2.7271	-2.2208	-2.9021	-2.7396	-2.2313	-3.1458	-2.1229	-2.6583	106.914	29.790	-106.487	159.916	-56.002	158.139	172.141	141.761	49.982	-10.276	-134.692	190.403	199.884	144.128	180.264	168.744	0.0016035	0.0012679	0.00016254	1035.7	1.2972e-05	3.8724e-06	991.46	399.84	5.1277e-06	1.0113e-05	453.5	207.26	166.9	87.53	1.6779e-05	117.94	0.0016979	0.0017888	0.00049558	1016.9	1.9179e-05	1.9699e-05	972.05	392.83	1.9238e-05	1.9514e-05	449.53	204.3	164.7	86.362	1.9967e-05	115.98	-28.641	-47.367	-26.530	-125.445	38.782	62.014	-126.229	-120.780	56.045	45.150	-122.142	-118.148	-116.797	-113.399	41.620	-115.456	-8191	255	
23677.811	1	1	0	0	0.17865	0.041506	0.082221	0.17242	0.21226	0.13645	0.1685	0.25436	0.17635	0.17524	0.33433	0.05687	0.20485	0.29626	0.2526	0.27968	-2.3583	-1.9188	-2.65	-2.6292	-1.9479	-2.8083	-2.4792	-2.5375	-2.7646	-1.9604	-2.8354	-2.7562	-2.0604	-3.2042	-2.4104	-2.3583	159.373	-83.820	124.363	98.132	83.161	201.717	-80.502	-116.965	-6.073	-39.458	196.470	208.093	185.353	204.631	-85.981	159.558	0.0015349	0.000778	0.00018529	1038.5	6.5456e-06	9.8688e-06	986.97	397.72	8.6722e-06	4.0078e-06	457.02	208.14	166.53	87.784	9.6462e-06	117.83	0.0017476	0.0018348	0.0005161	1017.2	1.9479e-05	2.0303e-05	970.02	392.32	1.949e-05	2.0551e-05	448.89	204.36	164.34	86.474	2.0108e-05	116.01	-32.284	-19.714	-40.547	-125.767	64.985	7.300	-125.880	-120.976	96.265	-60.181	-122.498	-118.278	-116.715	-113.449	26.732	-115.679	-8191	255	
23677.883	1	1	0	0	0.13264	0.040925	0.095278	0.25284	0.16407	0.079839	0.11309	0.24047	0.055928	0.052834	0.054157	0.19955	0.31701	0.27159	0.13091	0.13309	-2.5375	-2.1542	-2.7104	-2.8604	-2.2229	-2.9562	-2.5438	-2.4229	-2.8563	-2.0771	-2.6167	-3.0354	-2.1375	-3.0583	-2.2562	-2.3354	70.459	-109.552	95.096	-129.913	116.896	-47.501	-118.416	186.979	-109.930	124.951	79.444	136.453	181.432	167.449	83.408	105.294	0.001462	0.0011599	0.00026961	1039.2	1.0556e-05	6.7581e-06	994.64	397.78	3.214e-06	9.5785e-06	453.88	206.94	166.34	87.783	1.3203e-05	118.18	0.001763	0.0018818	0.00052874	1015.4	2.0224e-05	2.0874e-05	973.15	391.78	2.0346e-05	2.1627e-05	449.53	203.98	164.18	86.624	2.1241e-05	116.5	-29.563	-42.780	-80.026	-125.430	-11.629	77.348	-125.935	-120.689	-25.647	-9.044	-122.186	-118.137	-116.951	-113.109	-3.737	-115.466	-8191	255	
23677.979	1	1	0	0	0.11407	0.077843	0.24676	0.21932	0.16606	0.27871	0.3339	0.084462	0.029573	0.19018	0.018547	0.16965	0.13964	0.26466	0.16798	0.2848	-2.6562	-2.1896	-2.625	-3.0292	-2.0708	-2.75	-2.7562	-2.3	-2.8979	-2.2146	-2.6917	-3.0333	-2.1354	-3.0708	-2.6375	-1.9708	37.313	46.041	24.193	-137.158	-2.369	-43.988	206.449	-103.252	191.138	61.371	45.789	-111.755	156.494	195.941	121.146	196.823	0.0015778	0.00070173	0.00023648	1037.7	9.123e-06	5.4475e-06	994.92	396.53	1.1739e-05	6.7785e-06	450.76	206.65	165.46	87.582	4.0583e-06	117.3	0.0018499	0.0019952	0.00055341	1019.6	2.1463e-05	2.2186e-05	974.9	391.89	2.1513e-05	2.2109e-05	447.39	203.64	163.64	86.373	2.1889e-05	115.82	-32.327	-26.762	-58.601	-125.345	15.909	16.921	-125.984	-120.878	-35.989	15.522	-122.667	-118.179	-116.781	-113.099	-3.521	-115.697	-8191	255	
23678.074	1	1	0	0	0.13971	0.44537	0.11352	0.2562	0.20176	0.022164	0.16816	0.37896	0.12251	0.080595	0.28888	0.18677	0.13556	0.27179	0.17293	0.41942	-2.6625	-2.3312	-2.2687	-2.8583	-2.0417	-2.7438	-2.7229	-2.1708	-2.9917	-2.3896	-2.4021	-3.1125	-2.25	-2.9708	-2.7042	-2.2313	100.423	188.616	-101.425	135.768	216.280	-134.984	205.724	185.259	-134.356	122.401	-122.589	-68.561	211.830	194.066	-137.669	156.595	0.0014272	0.00098382	0.00020306	1033.7	1.1214e-05	2.1568e-06	983.83	397.44	4.8387e-06	6.9705e-06	447.35	203.15	163.7	86.607	6.461e-06	116.17	0.0019057	0.0020515	0.00056301	1017.8	2.1865e-05	2.211e-05	967.48	390.49	2.1751e-05	2.2489e-05	443.36	200.79	162.17	85.587	2.1827e-05	114.64	-29.971	-22.002	-44.180	-125.316	-13.352	53.176	-126.040	-120.705	29.737	-23.012	-122.434	-118.402	-116.663	-113.024	22.306	-115.600	-8191	255	
23678.195	1	1	0	0	0.10462	0.11579	0.2561	0.20217	0.30821	0.079145	0.2069	0.14709	0.11244	0.19629	0.14547	0.18951	0.27635	0.20633	0.073077	0.40854	-2.5271	-2.0875	-2.1813	-3.0375	-2.0625	-2.6604	-2.8	-2.2708	-2.9417	-2.3729	-2.4479	-3.2188	-2.2458	-2.8833	-2.7562	-2.2521	34.426	78.733	-107.666	-109.569	45.163	178.981	105.159	-116.314	-23.544	150.810	151.466	213.997	187.244	190.467	-109.785	169.106	0.0014098	0.00046769	0.00021774	1034.7	8.4213e-06	8.3131e-06	980.97	396.88	1.2983e-06	6.4145e-06	446.56	202.78	162.9	86.551	8.7353e-06	116.13	0.0019284	0.0020704	0.00056792	1015.6	2.2121e-05	2.2838e-05	963.78	389.54	2.198e-05	2.2855e-05	442.03	199.98	161.56	85.538	2.2701e-05	114.6	-31.943	-15.884	-36.122	-125.459	36.530	16.910	-126.087	-120.585	24.513	29.448	-122.358	-118.046	-117.064	-112.964	30.450	-115.408	-8191	255	
23678.289	1	1	0	0	0.20915	0.11411	0.14146	0.41749	0.12659	0.26983	0.1251	0.34756	0.14941	0.41983	0.087249	0.20521	0.12733	0.10661	0.13322	0.065554	-2.5417	-2.3667	-2.0812	-3.075	-2.1271	-2.4688	-3.2104	-2.3479	-2.9396	-2.5646	-2.1521	-3.1354	-2.2062	-2.6958	-2.8771	-2.3583	-45.059	-24.227	-101.202	169.118	-98.965	209.708	-20.286	130.065	171.701	105.020	-120.798	111.042	212.222	215.396	119.623	219.369	0.001577	0.00062388	0.00020275	1032.3	6.1361e-06	6.5092e-06	984.62	392.76	1.4649e-05	8.7574e-06	445.87	202.97	161.95	86.717	1.4787e-05	116.82	0.0019913	0.002135	0.00058551	1014.3	2.2518e-05	2.3421e-05	966.68	388.7	2.264e-05	2.3171e-05	441.52	199.73	160.99	85.611	2.293e-05	115.25	-30.146	-49.883	-101.108	-125.256	30.877	-0.865	-125.933	-120.791	-12.698	51.125	-122.224	-118.302	-116.649	-113.062	11.044	-115.490	-8191	255	
23678.387	1	1	0	0	0.21938	0.0328	0.09769	0.28287	0.14534	0.13622	0.26778	0.30877	0.088851	0.0047394	0.15436	0.31175	0.1304	0.16479	0.07736	0.42608	-2.375	-2.5438	-1.8521	-2.8792	-2.3479	-2.4521	-2.9354	-2.2333	-2.7208	-2.6542	-2.0208	-3.0167	-2.4542	-2.3333	-2.8583	-2.3208	-28.079	208.464	16.165	121.120	-118.034	220.275	102.815	-119.558	214.099	-2.067	135.749	135.133	140.602	86.111	-6.813	165.101	0.001495	0.0010166	0.00018606	1032.3	1.3002e-05	4.8523e-06	978.49	392.91	1.8452e-05	9.2968e-06	446.25	201.87	162.14	86.652	7.7504e-06	116.21	0.0020015	0.0021554	0.00059602	1017	2.2735e-05	2.3622e-05	965.85	388.3	2.2846e-05	2.3488e-05	442.54	199.08	160.68	85.588	2.3062e-05	115.05	-30.767	-75.771	-65.044	-125.578	38.842	-19.618	-125.863	-120.813	-18.296	-5.706	-122.061	-118.236	-116.734	-113.163	24.730	-115.625	-8191	255	
23678.506	1	1	0	0	0.12012	0.10146	0.16433	0.20012	0.12425	0.22678	0.15544	0.047472	0.083956	0.16664	0.097644	0.244	0.12655	0.27586	0.02721	0.03404	-2.0958	-2.7479	-2.0062	-2.9	-2.4417	-2.1833	-3.1188	-2.35	-2.6854	-2.7083	-2.1042	-2.9938	-2.5833	-2.3063	-2.8542	-2.5312	-136.869	-46.472	1.603	153.591	-36.587	-109.697	215.168	148.043	-94.333	-66.717	119.994	124.636	49.359	210.331	210.811	-133.169	0.0014403	0.0013726	7.9081e-05	1031.3	7.0857e-06	6.6511e-06	975.58	391.36	9.1007e-06	8.7678e-06	443.6	198.76	159.8	85.765	1.3471e-05	115.02	0.0019722	0.0021266	0.0006001	1012.6	2.2802e-05	2.3004e-05	960.6	386.2	2.2552e-05	2.3156e-05	437.22	196.64	159.04	84.844	2.2897e-05	113.56	-30.483	-31.021	-96.813	-125.439	-58.980	31.370	-125.915	-120.449	48.565	23.407	-122.266	-118.123	-116.668	-112.801	58.739	-115.692	-8191	255	
23678.576	1	1	0	0	0.035244	0.068556	0.23402	0.13328	0.10735	0.36717	0.15627	0.47127	0.20451	0.021864	0.38846	0.067412	0.15738	0.48832	0.19789	0.20408	-2.0854	-2.9125	-2.0458	-2.8479	-2.5563	-1.8917	-2.8563	-2.225	-2.3354	-2.9396	-2.15	-2.8646	-2.6375	-2.5354	-2.9792	-2.4375	-9.472	163.318	124.937	-29.673	30.072	190.133	51.144	172.077	146.846	54.967	200.458	155.943	210.836	197.074	-113.764	180.580	0.0014887	0.00058063	0.00011794	1028.8	1.2756e-05	1.1197e-05	971.27	389.05	1.8414e-06	7.799e-06	438.95	199.41	160.63	85.534	7.0347e-06	115.24	0.0019563	0.0020771	0.00057963	1010.2	2.2402e-05	2.3031e-05	956.14	384.02	2.2158e-05	2.3077e-05	435.3	196.7	159.01	84.635	2.2675e-05	113.76	-31.988	-66.989	-92.288	-125.353	53.526	35.339	-126.000	-120.635	-112.324	64.535	-122.635	-118.158	-116.693	-113.009	5.310	-115.649	-8191	255	
23678.674	1	1	0	0	0.21351	0.12973	0.19361	0.29098	0.11313	0.17064	0.30274	0.33808	0.28013	0.078148	0.18493	0.15216	0.17646	0.33001	0.078746	0.15611	-2.0208	-2.8542	-2.0167	-2.6896	-2.7812	-1.9521	-2.9979	-2.4292	-2.2	-2.9583	-2.3583	-2.675	-2.9146	-2.2333	-2.8979	-2.7542	127.077	16.582	116.139	199.969	109.807	-105.813	192.804	126.048	-88.752	152.605	30.103	-133.181	190.912	204.937	-136.252	145.421	0.0015427	0.0010433	0.00035082	1026.9	1.0983e-05	6.1562e-06	974.01	390.43	1.7254e-05	8.2379e-06	441.1	199.83	159.95	85.393	1.498e-05	115.89	0.0019601	0.0021323	0.0005862	1009.8	2.2245e-05	2.3151e-05	956.43	384.37	2.2384e-05	2.2798e-05	435.74	197.04	158.74	84.551	2.2549e-05	114.37	-27.234	-55.518	-45.293	-125.454	-16.239	60.362	-125.614	-120.714	10.011	24.936	-122.453	-117.987	-116.692	-113.099	9.438	-115.536	-8191	255	
23678.795	1	1	0	0	0.24231	0.18766	0.10508	0.21207	0.038931	0.26413	0.30485	0.40401	0.14154	0.26451	0.21396	0.12328	0.33726	0.42596	0.31854	0.24377	-2.0396	-2.8875	-2.1208	-2.6271	-2.8396	-2.1167	-2.9104	-2.6292	-2.0729	-3.1437	-2.1292	-2.6063	-2.7229	-2.2479	-2.825	-2.7458	174.480	106.966	-64.777	166.059	160.228	128.501	164.001	180.264	71.655	137.664	167.330	85.125	210.036	-79.956	38.909	126.981	0.0014302	0.00041855	0.00041992	1023.4	1.1381e-05	4.385e-06	972.75	389.8	1.564e-05	1.5826e-05	441.59	200.17	160.45	85.377	7.024e-06	115.48	0.001946	0.002102	0.00058878	1007.5	2.2441e-05	2.3196e-05	956.85	384.11	2.2518e-05	2.3529e-05	437.06	197.38	158.94	84.507	2.3087e-05	114.33	-32.093	-49.923	-32.557	-125.326	7.879	24.742	-125.875	-120.837	-23.797	13.670	-122.132	-118.145	-116.723	-113.029	-21.883	-115.402	-8191	255	
23678.891	1	1	0	0	0.20439	0.20961	0.12092	0.22657	0.089801	0.1474	0.079563	0.29218	0.27939	0.29916	0.086937	0.12934	0.18374	0.21895	0.15072	0.31782	-1.8917	-2.7938	-2.2979	-2.3833	-2.9688	-2.1271	-2.8604	-2.7542	-2.0771	-2.8333	-2.4292	-2.5667	-3.1229	-2.1146	-2.7562	-2.8896	108.725	128.708	-93.419	-126.506	83.075	193.799	3.899	131.199	92.894	99.635	169.628	102.860	119.322	140.075	-98.806	170.099	0.0015782	0.00037393	0.00024734	1024.1	9.0333e-06	2.7044e-06	970.09	388.62	1.9016e-05	4.5836e-06	438.08	197.99	159.62	85.361	1.0679e-05	114.01	0.0020004	0.0021306	0.00059525	1007.7	2.2541e-05	2.3779e-05	956.92	383.29	2.2944e-05	2.3792e-05	435.02	195.69	158.09	84.1	2.358e-05	113.21	-33.442	-70.299	-66.648	-125.265	6.080	86.075	-125.977	-120.922	32.070	42.650	-122.194	-117.989	-116.773	-112.927	-21.745	-115.588	-8191	255	
23678.986	1	1	0	0	0.17417	0.15303	0.035658	0.19907	0.021848	0.22976	0.2369	0.35425	0.13375	0.20169	0.097542	0.22053	0.058321	0.16029	0.047443	0.25583	-1.5875	-2.7354	-2.3167	-2.3958	-2.9292	-2.0438	-2.4917	-2.8354	-2.1604	-2.8104	-2.4875	-2.2417	-3.075	-2.3292	-2.4896	-2.9167	-44.398	27.670	107.356	193.896	-120.691	-8.327	141.704	208.726	-111.254	221.173	95.964	213.247	119.577	172.944	128.863	204.781	0.0015337	0.00096629	0.00030319	1021.1	7.9663e-06	9.6944e-06	968.6	388.51	8.8686e-06	6.3863e-06	437.57	197.61	159.22	84.836	1.1945e-05	114.72	0.0020415	0.0021814	0.00060363	1005.7	2.3381e-05	2.4231e-05	954.38	383.28	2.3686e-05	2.4319e-05	433.98	195.27	158.07	83.975	2.4233e-05	113.44	-33.463	-46.680	-55.365	-125.306	-4.944	-4.866	-125.966	-120.743	53.634	-7.132	-122.347	-117.832	-116.693	-112.946	-40.228	-115.358	-8191	255	
23679.107	1	1	0	0	0.20223	0.24585	0.086392	0.24762	0.24292	0.10915	0.24578	0.070631	0.077273	0.14644	0.28937	0.28098	0.30593	0.096006	0.24999	0.074223	-1.7	-2.7125	-2.4437	-2.3438	-2.9542	-2.1667	-2.7542	-3.1729	-1.9937	-2.8375	-2.4771	-2.1979	-3.1083	-2.4729	-2.5958	-3.0208	-4.298	98.154	-51.513	152.277	-79.382	194.233	-44.752	60.665	76.432	-64.386	-128.641	118.531	219.929	208.311	148.464	207.706	0.0015138	0.00050673	0.00018677	1023.5	1.192e-05	8.3324e-06	975.05	387.57	9.0826e-06	8.9548e-06	437.4	197.33	159.43	85.231	1.0427e-05	114.91	0.0020767	0.0022595	0.0006207	1007.6	2.3676e-05	2.495e-05	957.38	383.22	2.4137e-05	2.487e-05	435.03	195.75	158.14	84.112	2.4652e-05	113.83	-31.411	-57.495	-69.374	-125.240	-2.625	-23.872	-125.686	-120.283	33.431	-46.164	-122.355	-117.965	-116.772	-112.946	37.908	-115.431	-8191	255	
23679.180	1	1	0	0	0.0737	0.12452	0.069867	0.095004	0.23694	0.11963	0.096959	0.44455	0.22478	0.10591	0.11599	0.20483	0.1357	0.30842	0.13826	0.25329	-1.8125	-2.8417	-2.525	-2.1333	-2.8729	-2.2958	-2.5563	-3.1375	-2.1771	-2.6958	-2.6688	-2.1979	-2.8292	-2.4917	-2.2229	-3.1854	47.171	138.387	216.209	177.745	-113.832	-22.715	116.067	144.888	110.853	198.581	-94.725	113.961	169.381	-128.965	-6.366	136.409	0.0014566	0.00046593	0.0002756	1024.3	1.0289e-05	9.4055e-06	978.07	389.1	8.3302e-06	1.0446e-05	440.14	197.96	159.17	84.98	2.8728e-06	115.2	0.0021223	0.0022889	0.00063783	1006.4	2.4303e-05	2.5421e-05	960.4	383.86	2.4301e-05	2.5261e-05	436.95	195.95	158.11	84.07	2.5136e-05	114.05	-34.929	-28.251	-77.388	-125.397	74.896	-27.662	-125.840	-120.497	4.074	-17.890	-122.222	-118.206	-116.407	-112.963	-138.353	-115.211	-8191	255	
23679.275	1	1	0	0	0.14209	0.02355	0.20922	0.13188	0.041413	0.14363	0.23894	0.25936	0.19641	0.11251	0.10538	0.1916	0.087621	0.26313	0.11675	0.26987	-1.8229	-2.475	-2.8583	-2.1542	-2.9333	-2.5792	-2.3083	-3.1021	-2.1312	-2.5104	-2.8083	-2.3417	-2.9521	-2.7708	-2.0312	-3.1688	26.709	-60.999	129.786	200.093	43.367	179.685	211.101	-115.338	-58.601	-77.206	-103.593	-117.545	-15.993	148.978	139.235	194.938	0.0014417	0.00027753	0.00019898	1022.4	9.9632e-06	8.3677e-06	968.45	386.3	1.5881e-05	1.1138e-05	436.4	196.03	158.12	84.254	9.6648e-06	113.72	0.0021392	0.0023378	0.00064284	1006.6	2.4773e-05	2.5488e-05	956.75	382.26	2.4578e-05	2.5641e-05	433.83	193.79	157.14	83.419	2.5199e-05	112.56	-30.299	-96.496	-62.646	-125.159	22.684	36.982	-125.689	-120.442	63.855	10.514	-122.271	-117.798	-116.364	-112.944	18.271	-115.565	-8191	255	
23679.369	1	1	0	0	0.14447	0.23003	0.2434	0.09246	0.056909	0.15578	0.32196	0.10574	0.16756	0.25553	0.20971	0.3309	0.13448	0.35163	0.30512	0.15976	-1.7938	-2.3208	-2.6333	-2.1063	-2.9417	-2.5125	-2.1604	-3.1854	-2.3333	-2.2604	-2.9188	-2.3833	-2.8812	-2.875	-1.9813	-2.925	53.487	161.255	107.018	136.830	-98.734	-16.214	161.965	202.546	64.754	77.008	147.930	198.720	178.560	161.966	183.092	157.405	0.0014631	0.00034305	0.00019913	1023.8	1.2715e-05	5.8021e-06	967.01	385.26	2.4262e-06	1.0475e-05	435.55	195.83	156.91	84.058	1.1011e-05	113.95	0.0021417	0.0023494	0.00064303	1006.6	2.5197e-05	2.5869e-05	955.78	382.06	2.4963e-05	2.5751e-05	433.71	193.93	156.79	83.298	2.5471e-05	112.54	-25.517	11.363	-30.882	-125.455	24.689	-26.802	-125.895	-120.685	24.094	10.222	-122.125	-117.719	-116.473	-112.738	13.713	-115.141	-8191	255	
23679.467	1	1	0	0	0.093257	0.21697	0.10505	0.26052	0.093118	0.048206	0.22914	0.13421	0.1629	0.17378	0.27847	0.23055	0.31931	0.23234	0.19251	0.21049	-1.8729	-2.3312	-2.8167	-2.0812	-2.7167	-2.7083	-2.1583	-3.1312	-2.1312	-2.0958	-2.9167	-2.0708	-2.5833	-2.8458	-1.8917	-3.0167	156.682	61.981	-3.201	-138.224	145.817	24.912	209.971	202.085	28.126	-8.283	169.362	218.052	204.839	164.373	-7.339	212.266	0.0016059	0.0010107	0.00025025	1022.3	1.2359e-06	7.7716e-06	969.39	386.26	7.7538e-06	1.1641e-05	437.48	196.28	158.64	84.504	7.3214e-06	113.8	0.0021886	0.00237	0.0006583	1007.2	2.5334e-05	2.5709e-05	957.34	382.41	2.53e-05	2.6215e-05	434.71	194.35	157.48	83.497	2.5614e-05	112.9	-28.910	-46.683	-88.337	-125.407	12.507	28.096	-125.862	-120.398	-7.761	25.110	-122.255	-117.994	-116.695	-113.154	-15.803	-115.397	-8191	255	
23679.586	1	1	0	0	0.038314	0.21388	0.21994	0.33085	0.10781	0.077481	0.085764	0.10767	0.12638	0.091436	0.24882	0.11683	0.19964	0.28549	0.10462	0.18982	-1.9854	-2.1292	-3.0667	-2.0083	-2.6667	-2.9458	-2.2167	-2.7417	-2.4208	-2.2333	-3.1542	-2.4104	-2.6375	-3.1208	-2.1208	-2.8771	67.190	25.795	201.498	103.768	96.909	153.200	167.853	115.160	118.643	108.635	142.059	178.489	197.376	209.663	107.139	-102.335	0.0014827	0.0013895	0.00043973	1020.6	8.662e-06	9.2547e-06	973.54	387.33	1.153e-05	4.6577e-06	436.05	196.18	157.8	84.508	9.404e-06	114.55	0.0021854	0.0024021	0.00066826	1007.8	2.5319e-05	2.6461e-05	960.32	383.11	2.5485e-05	2.6335e-05	435.9	194.8	157.48	83.644	2.595e-05	113.37	-34.550	-53.888	-58.781	-125.210	-66.093	-1.491	-125.794	-120.611	34.953	-56.384	-122.355	-118.002	-116.390	-113.150	7.894	-115.509	-8191	255	
23679.682	1	1	0	0	0.032128	0.064904	0.18742	0.32806	0.26918	0.21956	0.25438	0.12893	0.059029	0.1428	0.24657	0.12473	0.15717	0.29723	0.020391	0.44655	-2.1875	-2.3396	-2.8083	-2.2792	-2.3625	-2.7604	-2.1375	-2.7979	-2.6917	-2.1854	-3.1146	-2.2396	-2.4146	-2.9542	-1.9125	-2.8625	139.132	87.974	179.761	-131.214	-9.566	207.355	157.865	-71.649	151.857	-135.050	180.979	-94.724	190.543	136.133	191.601	202.951	0.0013229	0.00070839	0.00014297	1019	2.1185e-06	5.5272e-06	969.14	386.65	6.5579e-06	1.86e-05	436.26	195.67	158.57	84.393	6.7928e-07	113.22	0.0022093	0.0024039	0.00066913	1006.4	2.5537e-05	2.6248e-05	959.71	383.25	2.5557e-05	2.6326e-05	434.89	193.78	157.49	83.438	2.5988e-05	112.22	-30.517	-101.628	-119.984	-125.423	-6.486	-28.142	-125.898	-120.841	-7.420	-12.512	-121.952	-118.264	-116.684	-113.002	111.906	-115.427	-8191	255	
23679.754	1	1	0	0	0.10966	0.16541	0.14442	0.38402	0.25729	0.15127	0.052045	0.12447	0.19188	0.23389	0.19415	0.15072	0.19127	0.34205	0.14727	0.42601	-2.3667	-2.0812	-3	-2.6437	-2.3458	-2.9792	-2.1937	-2.8583	-2.8083	-2.025	-3.1063	-2.5625	-2.5292	-2.9938	-2.1958	-2.5792	216.685	38.155	184.518	162.889	99.189	111.359	-12.481	162.673	120.778	46.666	-47.105	198.700	65.770	219.614	81.803	139.774	0.0014719	0.00079331	0.00012448	1021.7	1.6738e-05	5.8629e-06	965.82	386.81	5.5814e-06	1.2526e-05	435.15	195.34	158.31	84.09	1.6245e-05	113.33	0.0021648	0.0024183	0.00067083	1006.8	2.5624e-05	2.6773e-05	954.1	383	2.5725e-05	2.6922e-05	433.56	193.17	157.25	83.336	2.6443e-05	112.04	-29.197	-26.347	-102.067	-125.511	-10.042	12.500	-125.808	-120.669	61.962	59.866	-122.199	-117.842	-116.600	-113.068	-1.683	-115.485	-8191	255	
23679.875	1	1	0	0	0.13356	0.24826	0.04697	0.12688	0.087864	0.27587	0.12716	0.25737	0.11696	0.1811	0.18059	0.1864	0.49582	0.18327	0.19831	0.25697	-2.2646	-1.9062	-2.7521	-2.6813	-2.1354	-2.8187	-2.2208	-2.7583	-2.9	-1.9625	-3.0604	-2.6604	-2.175	-3.0271	-2.0875	-2.6271	78.747	181.730	52.008	219.182	205.514	139.720	180.103	193.761	-49.024	172.193	114.458	-113.987	173.949	188.002	109.923	186.027	0.0015289	0.00080464	0.00033683	1019.8	6.6257e-06	1.5179e-06	966.02	387.68	1.1167e-05	6.2161e-06	433.21	195.23	157.54	84.339	8.0243e-06	113.4	0.0022166	0.002469	0.00068165	1006.5	2.6003e-05	2.7057e-05	955.41	382.91	2.592e-05	2.7003e-05	433.34	193.69	156.94	83.418	2.6701e-05	112.33	-30.932	-53.563	-36.552	-125.390	-105.037	46.180	-125.796	-120.810	-61.187	-11.688	-121.916	-117.918	-116.103	-112.827	57.713	-115.206	-8191	255	
23679.971	1	1	0	0	0.27516	0.25067	0.058964	0.21363	0.22635	0.32947	0.26026	0.34713	0.18748	0.129	0.10737	0.18074	0.33998	0.18593	0.10113	0.48092	-2.4333	-2.0833	-2.7771	-2.7062	-2.1646	-2.95	-2.4771	-2.2979	-2.7729	-1.8271	-2.7188	-2.8396	-2.0563	-3.0438	-2.4	-2.3729	106.109	-39.860	-138.142	155.368	24.051	116.336	138.075	189.829	123.959	1.721	-123.538	-135.892	167.945	171.244	27.329	173.570	0.0013262	0.0008375	0.00023399	1023.1	1.7876e-05	4.9419e-06	969.26	387.79	6.2717e-06	1.6773e-05	436.52	196.43	157.97	84.489	1.0506e-05	113.89	0.002251	0.0024718	0.0006774	1008	2.6225e-05	2.7262e-05	957.1	383.76	2.6009e-05	2.7344e-05	435.07	194.34	157.52	83.658	2.7023e-05	112.94	-26.736	-119.698	-36.994	-125.134	34.974	3.215	-125.647	-120.826	49.762	15.232	-121.909	-117.892	-116.355	-112.696	44.736	-115.210	-8191	255	
23680.066	1	1	0	0	0.034123	0.10402	0.13409	0.041694	0.25731	0.070302	0.24265	0.15182	0.3165	0.078003	0.10463	0.090436	0.060883	0.27743	0.20521	0.19912	-2.5396	-1.9562	-2.575	-2.9292	-1.9354	-2.95	-2.3521	-2.325	-2.9917	-2.0521	-2.7562	-2.95	-2.1083	-3.0167	-2.4208	-2.5042	-30.132	-34.576	5.239	87.469	53.480	-89.882	184.976	5.970	-96.743	17.649	203.149	-100.560	142.860	185.688	-5.047	161.952	0.0015566	0.00088256	0.00035548	1027.3	5.8843e-06	7.825e-06	967.31	388.35	7.215e-06	1.1667e-05	433.17	194.64	157.95	84.129	8.9936e-06	112.78	0.0022586	0.0025	0.0006849	1008.7	2.6344e-05	2.7107e-05	955.02	383.8	2.6108e-05	2.7189e-05	432.47	193.37	157.24	83.483	2.6762e-05	111.82	-30.757	-88.259	-84.592	-125.529	-27.047	36.258	-125.780	-120.629	-13.822	31.860	-122.020	-117.776	-116.401	-112.704	30.261	-115.345	-8191	255	
23680.188	1	1	0	0	0.13172	0.13776	0.10953	0.19861	0.14693	0.16606	0.32856	0.4032	0.2869	0.15416	0.055351	0.29919	0.278	0.1992	0.12833	0.39791	-2.5292	-2.0917	-2.3646	-3.1312	-2.1792	-2.8125	-2.6917	-2.0062	-3.0312	-2.3	-2.7521	-3.0833	-2.2354	-3.0833	-2.575	-2.225	101.676	104.885	137.976	162.013	-68.145	139.456	195.600	165.483	-2.107	112.320	204.663	187.209	151.961	170.846	110.461	79.008	0.0014845	0.00059071	0.00040015	1024.8	8.6103e-06	5.1966e-07	961.67	385.96	3.2262e-06	6.3145e-06	433.15	194.44	157.42	84.185	7.7056e-06	112.38	0.0022657	0.0024636	0.00069163	1008.2	2.6089e-05	2.6919e-05	952.27	381.8	2.6043e-05	2.6965e-05	431.84	192.79	156.7	83.172	2.6452e-05	111.46	-39.840	-137.733	-40.938	-125.299	6.277	-71.506	-125.825	-120.492	-20.754	26.009	-122.068	-117.786	-116.471	-112.686	21.431	-115.388	-8191	255	
23680.281	1	1	0	0	0.34941	0.14784	0.080087	0.0571	0.3204	0.071206	0.14443	0.23682	0.18663	0.17627	0.23606	0.26873	0.19367	0.3082	0.11667	0.1649	-2.5896	-2.125	-2.2771	-3.0396	-2.0979	-2.6813	-2.5563	-2.2479	-2.8458	-2.3042	-2.3042	-3.1604	-2.2	-2.8521	-2.6542	-2.2812	83.004	19.155	168.181	-120.067	56.592	-12.074	-67.887	134.251	-8.090	192.381	144.655	-97.449	110.712	196.325	150.280	-133.256	0.0013607	0.0010476	0.0002938	1020.7	9.8597e-06	1.0413e-05	964.06	386.12	1.3532e-05	1.0645e-05	435.75	194.13	157.9	84.16	1.1184e-05	113.17	0.0022363	0.0024481	0.00068567	1005.3	2.6108e-05	2.6664e-05	954.26	382.31	2.5814e-05	2.6748e-05	432.62	192.49	157.07	83.275	2.6317e-05	112.07	-33.594	-20.359	-60.441	-125.344	45.275	47.185	-125.429	-120.585	-1.389	-0.070	-122.295	-117.975	-116.456	-112.741	4.955	-115.082	-8191	255	
23680.379	1	1	0	0	0.2199	0.17317	0.13869	0.2664	0.080844	0.18638	0.39227	0.28806	0.2211	0.26583	0.070538	0.2522	0.17836	0.22538	0.08055	0.066411	-2.3604	-2.2542	-2.2083	-3.0938	-2.1479	-2.5	-3.1292	-2.0875	-2.7979	-2.5354	-2.3937	-3.0104	-2.1729	-2.6188	-2.8021	-2.2646	-84.682	190.602	174.736	-100.879	41.985	-10.386	119.684	198.914	-80.123	127.758	2.508	8.213	94.192	154.053	32.812	118.677	0.0014256	0.001404	0.00032946	1018.1	1.0332e-05	5.6001e-06	969.05	386.23	1.6711e-05	7.7006e-06	434.46	195.6	157.66	84.022	4.8377e-06	113.55	0.0022402	0.0024367	0.00068216	1005.7	2.6113e-05	2.6943e-05	954.5	382.37	2.5869e-05	2.7005e-05	432.5	193.61	156.93	83.538	2.6194e-05	112.67	-25.412	-30.682	-26.955	-124.898	1.077	42.063	-125.923	-120.938	-24.894	-38.074	-122.385	-117.780	-116.436	-112.779	-67.483	-115.450	-8191	255	
23680.475	1	1	0	0	0.12876	0.29652	0.094293	0.18815	0.40953	0.187	0.085927	0.10306	0.33337	0.11898	0.1716	0.093308	0.11999	0.09513	0.18197	0.14052	-2.4521	-2.5187	-2.1875	-2.7958	-2.1875	-2.5125	-3.1396	-2.1146	-2.7625	-2.7271	-2.2854	-3.1312	-2.3854	-2.4521	-2.7896	-2.1479	206.506	153.787	-75.631	-96.028	-87.193	140.875	188.640	14.354	-137.700	15.741	203.094	147.373	-54.545	132.959	-30.073	207.820	0.0013121	0.0013997	6.7131e-05	1019.8	8.0702e-06	1.1263e-05	965.18	386.15	1.4818e-05	6.0133e-06	432.57	195.01	157.28	83.889	8.0228e-06	112.95	0.0022414	0.0024082	0.00067702	1008	2.578e-05	2.6747e-05	956.03	382.07	2.5683e-05	2.6843e-05	432.01	192.83	156.41	83.392	2.6204e-05	111.83	-31.266	-60.340	-31.876	-125.166	-11.558	-23.729	-125.702	-120.475	26.333	118.908	-122.061	-117.659	-116.559	-112.636	68.123	-115.234	-8191	255	
23680.570	1	1	0	0	0.18891	0.14268	0.32226	0.037892	0.044189	0.062837	0.21145	0.19157	0.11741	0.095566	0.17746	0.20098	0.27992	0.3824	0.10157	0.39307	-2.3854	-2.3979	-1.9479	-3.0312	-2.2438	-2.2604	-2.9417	-2.3417	-2.5167	-2.675	-1.9625	-3.0375	-2.4958	-2.35	-2.9771	-2.3646	-104.397	-38.285	160.076	-91.511	73.940	-108.454	131.659	216.743	-74.456	25.487	-120.925	142.064	182.518	189.960	-45.543	185.508	0.0015097	0.0004036	0.00024649	1014.4	4.9091e-06	1.1251e-05	961.53	387.31	1.1891e-05	1.0201e-05	432.86	193.37	156.7	83.903	1.1616e-05	112.65	0.00221	0.0023943	0.00066725	1003.9	2.5658e-05	2.6065e-05	950.65	381.58	2.573e-05	2.6182e-05	430.22	191.96	156.1	83.159	2.5676e-05	111.59	-26.776	-13.528	-38.487	-125.109	79.441	24.595	-125.743	-120.438	-9.256	36.426	-121.988	-117.843	-116.419	-112.645	14.102	-115.204	-8191	255	
23680.666	1	1	0	0	0.11188	0.38772	0.20434	0.25933	0.19907	0.13717	0.13654	0.23278	0.13287	0.055009	0.35365	0.22552	0.19723	0.19306	0.070357	0.1568	-2.1958	-2.7625	-1.9813	-3.0625	-2.4354	-2.3167	-2.9521	-2.2396	-2.4854	-2.9229	-2.0917	-2.7542	-2.5208	-2.0667	-2.8312	-2.4125	-133.215	-13.488	-78.688	208.281	132.903	-92.920	-32.068	207.767	153.757	71.791	149.501	-129.943	218.389	175.418	135.769	91.198	0.0013919	0.000509	0.00024186	1019.2	1.1964e-05	9.9635e-06	961.33	385.9	1.3468e-05	1.1568e-05	432.98	194.02	156.79	84.008	1.2936e-05	113.03	0.0021787	0.0023398	0.00065667	1003.9	2.519e-05	2.6106e-05	950.52	381.05	2.5323e-05	2.5618e-05	430.88	192.37	156.38	83.259	2.5256e-05	112.13	-28.461	-71.414	-93.499	-124.858	34.013	13.745	-125.556	-120.491	41.183	-30.435	-121.881	-117.754	-116.327	-112.620	-7.801	-115.010	-8191	255	
23680.764	1	1	0	0	0.075934	0.1282	0.33854	0.19704	0.25138	0.099562	0.17759	0.49566	0.24247	0.04477	0.3488	0.074544	0.14868	0.45838	0.10894	0.2745	-1.9708	-2.7812	-1.9583	-2.9146	-2.6375	-2.1354	-3.0917	-2.3646	-2.2833	-2.8292	-2.3312	-2.7104	-2.725	-2.0938	-2.9479	-2.4583	103.602	190.690	179.486	201.727	-43.096	150.444	13.829	198.757	28.453	-13.756	191.079	-130.653	80.216	201.265	196.236	-129.086	0.0014475	0.001292	0.00019071	1017.9	7.1158e-06	5.1562e-06	966.08	386.31	6.2624e-06	2.575e-06	435.4	195.48	158.05	84.477	3.6156e-06	114.24	0.0021814	0.0023339	0.00065224	1004	2.4946e-05	2.5634e-05	952.52	381.28	2.4916e-05	2.564e-05	433.04	193.46	156.86	83.698	2.5206e-05	112.84	-37.604	-49.141	-57.062	-124.846	-34.828	38.814	-125.548	-120.770	43.842	38.455	-121.911	-117.625	-116.287	-112.460	53.332	-115.102	-8191	255	
23680.883	1	1	0	0	0.19526	0.051331	0.25247	0.21133	0.13957	0.090606	0.2217	0.20748	0.11389	0.095766	0.16845	0.3253	0.20738	0.18603	0.12021	0.39395	-1.8312	-2.9271	-2.0083	-2.7333	-2.6813	-1.9771	-2.9854	-2.5	-2.1312	-2.9396	-2.3	-2.65	-2.9062	-2.2062	-2.8875	-2.7896	170.832	25.290	102.511	-123.901	-8.645	195.114	-123.714	201.264	179.918	-26.313	135.632	145.438	194.797	-23.419	63.366	178.397	0.0014195	0.00081756	0.00022597	1020.4	8.4645e-06	1.0503e-05	963.85	385.39	9.5701e-06	1.2436e-05	434.12	195.57	157.75	84.28	9.5879e-06	113.21	0.0021633	0.0022993	0.00064636	1004.5	2.4516e-05	2.5438e-05	952.13	381.64	2.4657e-05	2.5585e-05	431.61	193	156.64	83.575	2.505e-05	112.04	-21.108	-28.903	-65.266	-124.763	39.825	-10.254	-125.577	-120.605	68.997	-22.600	-121.991	-117.784	-116.288	-112.525	-0.460	-115.423	-8191	255	
23680.979	1	1	0	0	0.24241	0.086751	0.08657	0.29624	0.14023	0.22952	0.094329	0.036824	0.04282	0.012381	0.17272	0.20556	0.37409	0.29971	0.18168	0.37435	-1.7979	-3.0771	-1.9188	-2.5875	-2.7458	-2.0187	-2.9771	-2.6375	-1.9375	-2.9479	-2.2271	-2.4875	-2.8667	-2.2792	-2.8688	-2.8542	-100.021	-122.314	89.712	162.867	173.301	-93.866	142.648	-100.267	138.426	-55.917	-107.031	-108.664	-127.139	-77.380	157.853	161.127	0.0015322	0.00079285	0.00023977	1014.9	4.2047e-06	2.2438e-06	963.17	384.58	6.2834e-06	5.2058e-06	430.35	192.59	156.67	84.197	8.925e-06	112.38	0.0021195	0.00231	0.00063326	1001.8	2.4259e-05	2.5274e-05	949.99	380.79	2.4517e-05	2.5467e-05	429.18	191.49	155.85	83.352	2.5088e-05	111.66	-32.249	-50.717	-46.281	-125.240	-28.947	-79.816	-125.311	-120.504	66.203	-36.039	-121.948	-117.540	-116.065	-112.470	44.358	-115.079	-8191	255	
23681.051	1	1	0	0	0.15317	0.18286	0.29434	0.18219	0.087478	0.24689	0.2359	0.11303	0.063887	0.022354	0.20434	0.09484	0.12673	0.29046	0.02524	0.17396	-1.8625	-2.7812	-2.3333	-2.5271	-2.8958	-2.0604	-2.775	-2.7604	-2.0854	-2.8375	-2.3833	-2.4688	-2.9062	-2.1979	-2.7604	-2.775	156.889	172.793	64.046	167.879	-133.323	-84.735	123.323	188.274	199.237	-83.238	-116.335	147.522	-124.707	-106.371	32.723	195.494	0.0014739	0.00074709	0.00023822	1015.8	1.3483e-05	9.8441e-06	967.93	385.86	1.1812e-05	4.974e-06	432.3	193.9	157.08	84.353	8.4629e-06	113.8	0.0021465	0.0023305	0.00064692	1002.2	2.4663e-05	2.5549e-05	949.62	380.99	2.4508e-05	2.5713e-05	430.16	191.84	156.12	83.396	2.5662e-05	112.28	-32.909	-66.780	-99.492	-124.794	22.956	-6.405	-125.169	-120.073	-26.117	42.597	-121.645	-116.927	-115.931	-112.305	-24.135	-114.880	-8191	255	
23681.146	1	1	0	0	0.23113	0.15795	0.089958	0.14784	0.083886	0.067184	0.19387	0.22856	0.36837	0.10766	0.13978	0.23527	0.21976	0.36457	0.15775	0.18422	-1.6396	-3.1188	-2.2708	-2.1875	-2.85	-2.1937	-2.7042	-2.9167	-1.925	-2.8646	-2.6312	-2.4542	-3.175	-2.225	-2.7	-2.9542	202.674	13.317	58.909	210.959	-28.404	-47.980	168.084	147.364	159.165	187.873	214.209	-104.376	193.366	196.713	213.720	189.638	0.0015122	0.0015294	0.00024749	1019.8	1.0154e-05	2.5754e-06	959.63	385.06	1.1392e-05	1.2114e-05	429.8	193.25	155.95	83.973	1.0161e-05	113.38	0.0021451	0.0023836	0.00064655	1003	2.5183e-05	2.5953e-05	948.74	381.13	2.5346e-05	2.6297e-05	428.5	191.29	155.31	83.27	2.5725e-05	112.49	-28.738	-48.610	-55.584	-124.813	-48.301	12.430	-124.934	-120.281	0.977	41.453	-121.629	-117.116	-116.167	-112.761	67.304	-115.337	-8191	255	
23681.266	1	1	0	0	0.31345	0.21166	0.19956	0.18617	0.10959	0.16268	0.28091	0.10018	0.093955	0.10206	0.23108	0.43628	0.059323	0.33144	0.081707	0.08968	-1.7542	-2.6333	-2.5	-2.1625	-2.925	-2.2562	-2.5687	-2.9542	-2.0146	-3.0729	-2.5708	-2.2062	-3.0042	-2.3208	-2.2083	-3.0333	36.671	42.560	38.529	182.904	109.781	158.813	148.235	91.633	-30.205	92.074	179.490	210.596	-71.808	160.142	52.247	94.633	0.0014219	0.0012562	9.5436e-05	1019.2	1.2074e-05	5.8666e-06	958.63	382.37	1.9498e-05	1.3889e-05	428.83	192.26	155.16	83.503	1.2146e-05	112.53	0.0021804	0.0024024	0.00066191	1002.7	2.5253e-05	2.6526e-05	948.16	379.44	2.5431e-05	2.6377e-05	427.37	190.28	154.58	82.869	2.5668e-05	111.37	-31.785	-67.016	-116.881	-125.281	-6.655	63.827	-125.774	-120.595	32.174	26.235	-122.303	-118.017	-116.530	-112.741	3.781	-115.199	-8191	255	
23681.361	1	1	0	0	0.16122	0.12092	0.032078	0.27758	0.092567	0.039389	0.11571	0.3084	0.13492	0.14173	0.17708	0.27705	0.26173	0.14362	0.14943	0.28643	-1.6958	-2.7021	-2.65	-2.2042	-2.9396	-2.4146	-2.5521	-3.0646	-2.0146	-2.7458	-2.9313	-2.1188	-2.8958	-2.5042	-2.2438	-3.1833	182.404	15.432	124.234	205.712	5.702	-113.236	143.807	139.971	-74.213	6.386	-42.182	-99.146	-98.670	200.957	-99.815	192.773	0.0014429	0.00093154	0.00018715	1015.3	7.366e-06	7.0663e-06	954.68	381.35	9.8703e-06	1.2604e-05	422.02	188.96	154.02	82.596	7.3467e-06	111.28	0.002164	0.0023823	0.00066023	997.98	2.5236e-05	2.6236e-05	941.2	376.26	2.5469e-05	2.6065e-05	422.2	186.94	152.97	81.692	2.5613e-05	110.21	-28.085	-43.642	-26.706	-124.990	3.653	-10.817	-125.611	-120.528	-4.706	-5.916	-122.048	-117.765	-116.439	-112.556	-8.128	-115.386	-8191	255	
23681.457	1	1	0	0	0.099158	0.047058	0.17987	0.39696	0.14672	0.16757	0.38508	0.26759	0.088495	0.041061	0.40767	0.28792	0.2922	0.11375	0.089782	0.29345	-1.7521	-2.6521	-2.9292	-2.1688	-3.025	-2.3958	-2.2271	-2.9833	-2.1312	-2.6	-2.9208	-2.1896	-2.9479	-2.5646	-2.2104	-3.0896	-80.044	149.645	118.083	204.094	-55.603	208.691	140.811	160.163	-53.819	-74.991	168.986	-113.683	-96.237	195.841	217.716	169.046	0.0013851	0.0011421	0.00019322	1003.5	1.6756e-05	1.2033e-05	952.99	379.51	3.9354e-06	2.113e-06	426.69	188.04	153.59	82.354	8.5404e-06	110.99	0.0021585	0.0023387	0.00064353	993.17	2.4929e-05	2.6082e-05	940.33	375.48	2.4924e-05	2.5447e-05	422.58	186.88	152.39	81.435	2.553e-05	110.06	-22.827	-75.227	-38.002	-124.972	26.132	-0.696	-125.199	-119.866	-40.137	135.472	-121.290	-116.855	-115.715	-112.267	-23.153	-115.155	-8191	255	
23681.557	1	1	0	0	0.14605	0.11484	0.18189	0.11352	0.31664	0.096854	0.19417	0.085508	0.16807	0.31116	0.10824	0.143	0.15031	0.24648	0.26039	0.20687	-1.8646	-2.3063	-2.8229	-1.9375	-2.6583	-2.7188	-2.1813	-3.0354	-2.2646	-2.275	-3.0417	-2.3229	-2.6604	-2.6604	-2.0896	-3.0479	189.407	-110.310	111.646	205.729	-24.355	41.686	129.334	221.729	-111.092	-100.278	110.075	192.996	-117.543	172.228	67.350	113.589	0.0014055	0.0008068	0.0001087	1011.6	9.5817e-06	5.2634e-06	955.8	379.63	1.9682e-05	8.3801e-06	424.33	188.49	152.98	82.174	1.2121e-05	111.72	0.0021607	0.0023681	0.00064332	994.93	2.4957e-05	2.5623e-05	942.35	375.92	2.4967e-05	2.5575e-05	421.72	186.71	152.25	81.252	2.5419e-05	110.54	-32.196	-31.705	-109.731	-124.949	5.238	-27.325	-124.923	-119.702	-0.232	-5.656	-121.598	-117.234	-115.529	-112.044	-18.288	-114.268	-8191	255	
23681.676	1	1	0	0	0.10033	0.035131	0.19386	0.12353	0.099344	0.17844	0.14895	0.12331	0.108	0.18536	0.21859	0.23001	0.29263	0.29814	0.17826	0.11786	-1.8438	-2.3729	-2.9188	-2.1354	-2.6937	-2.675	-2.0667	-2.9604	-2.3104	-2.0417	-3.0375	-2.2583	-2.7646	-2.9562	-2.0583	-3.1667	173.729	-109.115	8.645	163.108	186.115	-114.606	171.716	-33.716	123.093	-50.632	74.520	192.234	-103.168	-96.707	205.492	211.816	0.0014449	0.00062649	0.00034566	1013	1.1136e-05	4.9428e-06	954.97	379.12	7.7746e-06	5.8321e-06	424.01	188.87	152.5	81.944	6.1951e-06	110.96	0.002143	0.0023602	0.00065482	995.09	2.4861e-05	2.571e-05	939.75	374.97	2.5174e-05	2.5785e-05	422.3	186.95	152.17	81.22	2.5406e-05	110	-33.100	-118.491	-23.044	-124.344	22.388	9.679	-125.214	-119.695	-22.934	105.006	-121.540	-116.688	-115.572	-111.877	34.077	-114.289	-8191	255	
23681.746	1	1	0	0	0.13882	0.069829	0.10864	0.2461	0.45106	0.12699	0.12855	0.27523	0.17662	0.10644	0.15775	0.19166	0.062728	0.29699	0.037848	0.092293	-2.1333	-2.175	-2.6021	-2.2292	-2.4729	-2.9729	-2.375	-3.0542	-2.2812	-2.0938	-2.9313	-2.5042	-2.6354	-2.775	-2.1354	-2.8312	101.503	113.040	-132.801	143.674	105.579	146.939	142.145	155.298	128.722	206.899	-77.481	216.479	-91.904	-98.384	-6.494	151.443	0.0012632	0.0012017	0.0003997	1005.5	4.324e-06	8.9706e-07	949.43	377.45	1.0144e-05	9.0456e-06	421.48	187.76	152	81.594	3.8227e-06	110.02	0.0021205	0.0023189	0.00063686	990.95	2.4747e-05	2.5258e-05	936.08	373.73	2.4646e-05	2.5498e-05	419.88	185.82	151.48	80.894	2.4828e-05	109.21	-30.896	-9.938	-20.530	-123.980	-112.448	7.496	-125.545	-120.279	39.074	-2.863	-122.147	-117.545	-116.014	-112.544	-132.489	-115.013	-8191	255	
23681.867	1	1	0	0	0.043191	0.19039	0.092921	0.040996	0.18441	0.13524	0.075873	0.34754	0.29373	0.16074	0.18463	0.11324	0.18601	0.40061	0.22618	0.059034	-2.0708	-1.8604	-2.7583	-2.3479	-2.3333	-2.8646	-2.2313	-2.6562	-2.5875	-2.075	-2.9292	-2.5021	-2.6437	-3.0604	-2.1021	-2.6083	-48.491	37.081	-57.429	152.073	-109.382	118.797	148.503	163.272	45.959	-117.292	211.455	210.092	180.736	-47.595	-81.339	-118.414	0.0013884	0.0004366	0.00014817	1001.5	7.5042e-06	5.9673e-06	946.31	379.53	8.4622e-06	1.0886e-05	423.53	188.55	152.38	81.986	5.9005e-06	111.4	0.0021191	0.0023047	0.00064491	988.28	2.4641e-05	2.5083e-05	933.74	374.49	2.4491e-05	2.5763e-05	419.94	186.31	151.74	81.275	2.4704e-05	110.27	-35.960	-75.560	-27.526	-125.118	-26.905	9.421	-125.404	-120.350	8.832	-29.836	-121.783	-117.818	-115.771	-112.351	53.014	-114.979	-8191	255	
23681.965	1	1	0	0	0.10581	0.27867	0.22122	0.34904	0.17591	0.13579	0.17854	0.23321	0.058421	0.30644	0.089492	0.26978	0.19877	0.24908	0.29136	0.30724	-2.2583	-1.95	-2.8167	-2.5979	-2.0646	-3.0708	-2.1229	-2.8083	-2.8	-1.8396	-3.0187	-2.4854	-2.0875	-3.1667	-2.05	-2.7208	124.673	88.372	115.797	-134.874	14.466	-45.931	143.051	183.179	-108.645	137.580	-126.158	158.257	-116.788	183.991	155.186	138.324	0.0014089	0.0010795	8.8179e-05	1007.6	1.7259e-05	7.9242e-06	949.89	380.26	1.1012e-05	1.6895e-05	425.47	189.93	153.05	82.324	7.1423e-06	112.48	0.0021119	0.0022681	0.00063308	990.19	2.4432e-05	2.4726e-05	934.9	374.96	2.4108e-05	2.4873e-05	422.18	187.51	152.39	81.576	2.4554e-05	111.15	-33.059	-37.304	-44.888	-125.008	32.102	-15.144	-125.211	-119.776	38.154	-17.450	-121.619	-117.218	-115.682	-111.986	10.898	-114.865	-8191	255	
23682.061	1	1	0	0	0.22896	0.24741	0.046963	0.082004	0.26482	0.09155	0.16399	0.18738	0.089324	0.066207	0.13866	0.30828	0.26684	0.20045	0.23359	0.16297	-2.3667	-2.0229	-2.9938	-2.825	-1.9896	-3	-2.4417	-2.6104	-2.8417	-2.1396	-2.7812	-2.7438	-2.3	-3.0771	-2.1542	-2.5208	-83.046	98.931	-95.247	165.705	-27.476	203.938	-130.057	-137.430	133.342	43.068	-129.129	207.118	170.074	171.574	-3.459	135.137	0.0012632	0.00069074	0.000102	1007.7	4.2227e-06	4.2982e-06	955.07	379.58	1.2476e-05	9.7524e-06	426.34	191.03	153.95	82.605	1.4475e-05	112.86	0.0020755	0.0022574	0.00062546	991.85	2.3639e-05	2.4891e-05	939.54	375.6	2.3931e-05	2.45e-05	424.22	188.66	152.94	81.894	2.3994e-05	111.47	-26.625	-55.076	-7.768	-124.856	-16.854	36.034	-124.780	-119.782	24.862	12.879	-121.362	-117.149	-115.856	-112.018	-32.764	-114.545	-8191	255	
23682.156	1	1	0	0	0.33984	0.20064	0.11927	0.19874	0.34952	0.19345	0.2198	0.14083	0.10628	0.12828	0.29627	0.096189	0.17435	0.22173	0.32453	0.13551	-2.4604	-2.0854	-2.7313	-3.0187	-1.95	-2.9021	-2.4604	-2.4688	-2.8688	-2.1833	-2.6771	-2.6354	-2.3792	-2.9833	-2.5062	-2.3208	103.771	83.457	113.286	-114.987	121.187	170.276	168.312	105.196	-8.955	154.028	159.265	64.685	209.853	190.429	-7.083	-107.134	0.0014632	0.00085027	0.00040787	1002.3	1.2093e-05	5.2037e-06	952.67	380.32	9.3543e-06	4.5896e-06	425.48	190.49	153.67	82.127	4.8816e-06	111.22	0.0020495	0.0022474	0.00062103	988.82	2.374e-05	2.406e-05	937.37	375.75	2.3216e-05	2.4351e-05	422.3	187.69	152.39	81.405	2.3599e-05	110.08	-28.477	-46.572	-12.848	-124.476	9.085	37.770	-125.133	-119.998	6.190	-55.328	-121.446	-117.202	-115.499	-111.660	-38.906	-114.542	-8191	255	
23682.277	1	1	0	0	0.20902	0.23996	0.18353	0.17312	0.020186	0.093586	0.15363	0.17148	0.16365	0.24129	0.44356	0.44914	0.11224	0.12768	0.22417	0.38361	-2.7583	-2.025	-2.4479	-2.9854	-2.2917	-2.9021	-2.8125	-2.3271	-3.0312	-2.1937	-2.5792	-3.0104	-2.3229	-3.0333	-2.6562	-2.4313	175.211	-98.506	115.260	188.406	-9.192	217.242	147.503	134.523	75.331	110.433	132.516	-122.814	69.665	157.917	83.516	127.151	0.0013442	0.00069934	8.1188e-05	1005	9.6216e-06	6.2829e-06	957.36	380.95	1.3327e-05	1.9742e-06	428.51	190.38	153.54	82.317	1.1654e-05	111.62	0.0020295	0.0022258	0.00060854	989.89	2.3579e-05	2.4439e-05	938.7	375.54	2.3551e-05	2.4592e-05	423.33	187.66	152.65	81.582	2.4208e-05	110.43	-33.658	-52.636	-32.191	-124.656	-18.860	53.640	-125.165	-119.562	27.981	48.430	-120.988	-116.704	-115.753	-112.739	-12.132	-115.533	-8191	255	
#DATA ENDS
