BOXY.EXE: ISS Imagent and Oximeter Data Acquisition Program Version 0.80
Ascii Record File

#ACQ INFORMATION
2  Detector Channels 
16  External MUX Channels 
1  Auxiliary Channels 
5000  Waveform (CCF) Frequency (Hz)
1  Waveforms Skipped 
30  Waveforms Averaged 
1  Cycles Averaged 
16  Acquisitions per Waveform 
10.0806  Updata Rate (Hz) 

#FILE INFORMATION
TRUE -- External MUX Channel results are PARSED.
FALSE -- AC DC and Phase are NOT grouped.
TRUE -- Companion Program Settings File CREATED.
FALSE -- AC data not excluded
FALSE -- DC data not excluded
FALSE -- Phase data not excluded
FALSE -- Auxillary Chn. data not excluded
Tab delimiters

#CALIBRATION STATE
TRUE -- Waveform Calibration Values APPLIED.


#AUX CALIBRATION VALUES
Val Type	aux-1	

Term	1.0000e+00	
Factor	0.0000e+00	


#WF CALIBRATION VALUES
A = Detector Channel
Val Type	A-AC1	A-AC2	A-AC3	A-AC4	A-AC5	A-AC6	A-AC7	A-AC8	A-AC9	A-AC10	A-AC11	A-AC12	A-AC13	A-AC14	A-AC15	A-AC16	A-DC1	A-DC2	A-DC3	A-DC4	A-DC5	A-DC6	A-DC7	A-DC8	A-DC9	A-DC10	A-DC11	A-DC12	A-DC13	A-DC14	A-DC15	A-DC16	A-Ph1	A-Ph2	A-Ph3	A-Ph4	A-Ph5	A-Ph6	A-Ph7	A-Ph8	A-Ph9	A-Ph10	A-Ph11	A-Ph12	A-Ph13	A-Ph14	A-Ph15	A-Ph16	

Term	0.00000e+00	0.00000e+00	0.00000e+00	0.00000e+00	0.00000e+00	0.00000e+00	0.00000e+00	0.00000e+00	0.00000e+00	0.00000e+00	0.00000e+00	0.00000e+00	0.00000e+00	0.00000e+00	0.00000e+00	0.00000e+00	0.00000e+00	0.00000e+00	0.00000e+00	0.00000e+00	0.00000e+00	0.00000e+00	0.00000e+00	0.00000e+00	0.00000e+00	0.00000e+00	0.00000e+00	0.00000e+00	0.00000e+00	0.00000e+00	0.00000e+00	0.00000e+00	0.00000e+00	0.00000e+00	0.00000e+00	0.00000e+00	0.00000e+00	0.00000e+00	0.00000e+00	0.00000e+00	0.00000e+00	0.00000e+00	0.00000e+00	0.00000e+00	0.00000e+00	0.00000e+00	0.00000e+00	0.00000e+00	
Factor	1.00000e+00	1.00000e+00	1.00000e+00	1.00000e+00	1.00000e+00	1.00000e+00	1.00000e+00	1.00000e+00	1.00000e+00	1.00000e+00	1.00000e+00	1.00000e+00	1.00000e+00	1.00000e+00	1.00000e+00	1.00000e+00	1.00000e+00	1.00000e+00	1.00000e+00	1.00000e+00	1.00000e+00	1.00000e+00	1.00000e+00	1.00000e+00	1.00000e+00	1.00000e+00	1.00000e+00	1.00000e+00	1.00000e+00	1.00000e+00	1.00000e+00	1.00000e+00	X	X	X	X	X	X	X	X	X	X	X	X	X	X	X	X	

B = Detector Channel
Val Type	B-AC1	B-AC2	B-AC3	B-AC4	B-AC5	B-AC6	B-AC7	B-AC8	B-AC9	B-AC10	B-AC11	B-AC12	B-AC13	B-AC14	B-AC15	B-AC16	B-DC1	B-DC2	B-DC3	B-DC4	B-DC5	B-DC6	B-DC7	B-DC8	B-DC9	B-DC10	B-DC11	B-DC12	B-DC13	B-DC14	B-DC15	B-DC16	B-Ph1	B-Ph2	B-Ph3	B-Ph4	B-Ph5	B-Ph6	B-Ph7	B-Ph8	B-Ph9	B-Ph10	B-Ph11	B-Ph12	B-Ph13	B-Ph14	B-Ph15	B-Ph16	

Term	0.00000e+00	0.00000e+00	0.00000e+00	0.00000e+00	0.00000e+00	0.00000e+00	0.00000e+00	0.00000e+00	0.00000e+00	0.00000e+00	0.00000e+00	0.00000e+00	0.00000e+00	0.00000e+00	0.00000e+00	0.00000e+00	0.00000e+00	0.00000e+00	0.00000e+00	0.00000e+00	0.00000e+00	0.00000e+00	0.00000e+00	0.00000e+00	0.00000e+00	0.00000e+00	0.00000e+00	0.00000e+00	0.00000e+00	0.00000e+00	0.00000e+00	0.00000e+00	-1.07200e+00	-1.36101e+02	-1.26972e+02	-1.81145e+02	-5.74851e+01	-6.50972e+01	-1.58196e+02	-1.62015e+02	-4.24239e+01	-6.52151e+01	-1.70310e+02	-1.70117e+02	-1.81676e+02	-1.76501e+02	-5.94616e+01	-1.49355e+02	
Factor	3.59234e-05	1.59826e-04	4.90676e-05	1.61587e-01	1.97099e-06	1.44992e-06	1.72205e-01	5.96698e-02	2.11306e-06	1.83272e-06	9.39561e-02	3.22471e-02	2.84731e-02	9.54445e-03	1.94426e-06	1.34256e-02	6.52020e-06	7.84418e-06	2.17318e-06	8.29810e-02	8.31184e-08	8.62690e-08	8.30464e-02	3.06820e-02	8.29478e-08	8.64596e-08	4.68418e-02	1.60686e-02	1.47170e-02	4.95140e-03	8.44639e-08	6.74576e-03	X	X	X	X	X	X	X	X	X	X	X	X	X	X	X	X	



#DISTANCE SETTINGS
A = Detector Channel
A-1	A-2	A-3	A-4	A-5	A-6	A-7	A-8	A-9	A-10	A-11	A-12	A-13	A-14	A-15	A-16	

2.5000e+00	3.0000e+00	2.5000e+00	3.0000e+00	2.0000e+00	3.0000e+00	1.5000e+00	3.0000e+00	3.0000e+00	3.0000e+00	3.0000e+00	3.0000e+00	3.0000e+00	3.0000e+00	1.5000e+00	3.0000e+00	

B = Detector Channel
B-1	B-2	B-3	B-4	B-5	B-6	B-7	B-8	B-9	B-10	B-11	B-12	B-13	B-14	B-15	B-16	

1.0000e+01	1.0000e+01	1.0000e+01	1.4400e+00	1.0000e+01	1.0000e+01	1.5100e+00	1.9400e+00	1.0000e+01	1.0000e+01	1.9900e+00	2.4900e+00	2.4100e+00	2.9000e+00	1.0000e+01	2.9800e+00	




#DATA BEGINS
time	group	step	mark	flag	A-AC1	A-AC2	A-AC3	A-AC4	A-AC5	A-AC6	A-AC7	A-AC8	A-AC9	A-AC10	A-AC11	A-AC12	A-AC13	A-AC14	A-AC15	A-AC16	A-DC1	A-DC2	A-DC3	A-DC4	A-DC5	A-DC6	A-DC7	A-DC8	A-DC9	A-DC10	A-DC11	A-DC12	A-DC13	A-DC14	A-DC15	A-DC16	A-Ph1	A-Ph2	A-Ph3	A-Ph4	A-Ph5	A-Ph6	A-Ph7	A-Ph8	A-Ph9	A-Ph10	A-Ph11	A-Ph12	A-Ph13	A-Ph14	A-Ph15	A-Ph16	B-AC1	B-AC2	B-AC3	B-AC4	B-AC5	B-AC6	B-AC7	B-AC8	B-AC9	B-AC10	B-AC11	B-AC12	B-AC13	B-AC14	B-AC15	B-AC16	B-DC1	B-DC2	B-DC3	B-DC4	B-DC5	B-DC6	B-DC7	B-DC8	B-DC9	B-DC10	B-DC11	B-DC12	B-DC13	B-DC14	B-DC15	B-DC16	B-Ph1	B-Ph2	B-Ph3	B-Ph4	B-Ph5	B-Ph6	B-Ph7	B-Ph8	B-Ph9	B-Ph10	B-Ph11	B-Ph12	B-Ph13	B-Ph14	B-Ph15	B-Ph16	aux-1	digaux	

23653.969	1	1	0	256	0.15217	0.17037	0.065883	0.19133	0.033368	0.37839	0.15034	0.12204	0.092628	0.19871	0.094043	0.24333	0.32698	0.20977	0.078993	0.24125	-2.475	-1.9792	-2.5958	-2.825	-2.1604	-2.9042	-2.5792	-2.1354	-3.0438	-2.3875	-2.6208	-2.9125	-2.0833	-2.9417	-2.35	-2.3583	92.449	36.255	45.862	197.453	-124.627	191.301	151.654	-26.422	216.011	201.915	8.146	182.028	169.206	-99.221	-62.340	119.408	0.0015792	0.00084962	0.00013486	1064.1	8.6556e-06	7.0554e-06	987.08	418.33	1.3613e-05	1.0187e-05	459.85	214.27	179.34	93.977	1.2303e-05	121.69	0.0014783	0.0015375	0.00042142	1034.5	1.6071e-05	1.6432e-05	964.42	410.02	1.6063e-05	1.6549e-05	451.61	210.65	176.09	92.22	1.6468e-05	119.55	-31.473	-52.137	-93.363	-125.249	-4.751	-31.883	-125.512	-120.515	4.312	-1.903	-122.208	-118.204	-116.828	-113.002	-8.042	-115.548	-8191	255	
23654.064	1	1	0	0	0.15593	0.20212	0.26474	0.35342	0.16589	0.17412	0.1666	0.056981	0.071814	0.16336	0.26148	0.23372	0.19596	0.48302	0.20191	0.40039	-2.6896	-2.0854	-2.3521	-3.0667	-1.9375	-2.8417	-2.7479	-2.2333	-2.8333	-2.1375	-2.5083	-3.0333	-2.0438	-3.0292	-2.6021	-2.3812	167.442	181.367	24.896	116.711	110.238	64.805	105.383	17.434	24.441	-87.769	147.546	199.612	118.732	209.781	66.047	134.620	0.0014877	0.0010716	0.00023333	1062.1	1.3504e-05	1.4283e-05	983.42	419.15	9.2947e-06	1.0597e-05	456.15	214.05	178.88	93.565	1.2367e-05	120.87	0.0014666	0.001523	0.00042269	1036.1	1.6202e-05	1.647e-05	961.31	409.27	1.6055e-05	1.6278e-05	448.25	209.01	175.2	91.649	1.6227e-05	118.53	-27.104	-52.145	-49.870	-124.981	34.968	24.673	-125.621	-120.699	5.851	23.582	-121.890	-118.405	-116.840	-113.264	-4.278	-115.734	-8191	255	
23654.186	1	1	0	0	0.38877	0.0045209	0.18504	0.33708	0.03851	0.21261	0.21246	0.1976	0.26961	0.2398	0.39608	0.20271	0.11781	0.11255	0.14723	0.33462	-2.5229	-2.3354	-2.2875	-2.9188	-1.9062	-2.5604	-2.7146	-2.1042	-2.7354	-2.3896	-2.2833	-3.1104	-2.2271	-2.95	-2.7729	-2.2896	-123.900	-86.126	75.590	195.914	-66.990	-119.509	173.629	168.535	6.874	176.455	-132.187	113.198	195.371	143.700	17.130	149.529	0.0016067	0.00098197	0.00020016	1061.7	1.2585e-05	8.8629e-06	982.97	416.33	1.4034e-05	5.9695e-06	457.85	213.43	179.3	93.254	8.9144e-06	120.94	0.0014712	0.001534	0.00042122	1034.4	1.617e-05	1.6251e-05	959.55	408.31	1.5893e-05	1.6638e-05	448.81	208.97	175.48	91.708	1.6415e-05	119.1	-25.973	-53.837	-47.562	-125.163	17.368	8.309	-125.691	-120.526	14.614	-9.914	-121.905	-118.201	-116.749	-113.312	5.626	-115.537	-8191	255	
23654.281	1	1	0	0	0.1578	0.088523	0.21478	0.040918	0.085602	0.17946	0.11361	0.38767	0.16058	0.32332	0.1833	0.36109	0.51884	0.17658	0.065105	0.20633	-2.6542	-2.375	-2.1104	-2.9896	-2.1854	-2.4979	-2.8896	-2.1958	-2.7229	-2.6292	-2.2313	-3.1042	-2.2833	-2.9	-2.7542	-2.0687	-71.315	187.494	-45.416	132.789	-111.857	81.762	175.051	191.700	37.480	15.530	205.060	202.864	-71.408	-110.126	198.582	186.791	0.0015376	0.00059123	0.00047196	1062.8	1.1252e-05	5.6764e-06	985.68	420.29	9.3288e-06	5.1725e-06	459.62	214.81	180.27	94.411	8.0639e-06	122.65	0.0014716	0.0015094	0.00042124	1036.3	1.6136e-05	1.6639e-05	961.75	410.01	1.609e-05	1.6541e-05	450.64	210.23	176.26	92.537	1.6297e-05	120.11	-32.990	10.316	-47.988	-125.004	38.461	34.568	-125.716	-120.193	40.354	-24.109	-122.073	-118.100	-116.635	-113.265	54.149	-115.547	-8191	255	
23654.377	1	1	0	0	0.22454	0.15663	0.106	0.11007	0.059731	0.11977	0.36068	0.023248	0.1197	0.15776	0.20201	0.28954	0.13168	0.095424	0.17079	0.28104	-2.3521	-2.4229	-2.3083	-2.8854	-2.3063	-2.3	-3.1604	-2.0646	-2.7354	-2.4562	-2.2021	-3.0458	-2.2083	-2.6271	-2.7521	-2.2792	-92.131	117.832	39.521	192.902	-114.703	-43.582	197.790	71.492	205.493	209.626	154.381	141.965	-73.582	177.183	189.336	153.769	0.0015494	0.0011099	0.00025184	1064.6	1.0186e-05	6.1894e-06	987.45	418.85	1.9197e-05	9.6655e-06	461.39	215.64	180.14	94.78	1.3086e-05	123.02	0.0014692	0.0014998	0.00041986	1036.8	1.6046e-05	1.6668e-05	965.26	410.26	1.6357e-05	1.6582e-05	452.63	211.52	176.65	92.936	1.6411e-05	120.55	-33.009	-69.752	-83.574	-124.754	-2.820	-24.620	-125.616	-120.615	10.618	0.563	-121.889	-118.009	-116.597	-113.214	5.616	-115.812	-8191	255	
23654.473	1	1	0	0	0.28813	0.15829	0.17073	0.18575	0.12517	0.15524	0.083691	0.39858	0.099582	0.1126	0.16651	0.085363	0.25054	0.14352	0.12292	0.28303	-2.2708	-2.6458	-2.0854	-2.95	-2.2771	-2.1958	-2.9333	-2.2521	-2.6125	-2.6437	-2.0833	-3.1042	-2.4292	-2.4833	-3.0083	-2.425	-109.937	19.821	138.137	-77.594	-99.395	-105.835	-22.888	124.807	48.987	169.488	217.015	141.595	184.243	-104.128	-39.092	120.617	0.0015609	0.00043533	0.00027301	1064.9	8.0841e-06	2.96e-06	981.15	417.87	1.138e-05	5.6634e-06	458.54	214.57	180.24	94.314	5.3044e-06	121.41	0.0014787	0.0014995	0.00042475	1037.2	1.6297e-05	1.6494e-05	959.7	409.41	1.6149e-05	1.6553e-05	449.66	209.7	176.63	92.63	1.637e-05	119.38	-30.923	-44.868	-68.403	-125.300	-62.898	28.303	-125.791	-120.754	41.321	10.321	-122.251	-118.453	-117.071	-113.739	-21.376	-115.836	-8191	255	
23654.570	1	1	0	0	0.14696	0.23254	0.39719	0.13066	0.070451	0.24689	0.11922	0.097821	0.10032	0.28869	0.082716	0.13756	0.27375	0.19026	0.11283	0.087667	-2.2125	-2.9188	-1.9	-2.8083	-2.5021	-2.175	-2.975	-2.3292	-2.4104	-2.7687	-2.2875	-2.8625	-2.5146	-2.5104	-2.875	-2.4625	-39.509	-68.948	-108.764	171.813	167.787	-115.842	207.123	177.683	-66.739	-91.682	192.665	203.500	192.300	135.187	162.643	107.575	0.0015011	0.0012002	0.00019323	1061.3	9.0959e-06	7.1648e-06	976.79	416.91	1.393e-05	1.2108e-05	456.2	213.84	180.19	94.581	5.5625e-06	121.96	0.0014525	0.0015144	0.00041845	1036	1.5859e-05	1.6667e-05	955.34	409.21	1.6221e-05	1.6326e-05	447.8	209.77	176.82	92.895	1.6395e-05	119.82	-28.549	-57.421	-25.357	-125.136	-2.338	-9.422	-125.987	-120.941	11.707	8.663	-122.527	-118.349	-117.229	-113.620	-55.779	-115.950	-8191	255	
23654.666	1	1	0	0	0.1472	0.063257	0.36909	0.023998	0.086022	0.19018	0.19569	0.20571	0.084294	0.082611	0.062502	0.045053	0.17802	0.30533	0.15997	0.17442	-2.1292	-2.7979	-1.9083	-2.8063	-2.6958	-2.0042	-3.2542	-2.2875	-2.1958	-2.8667	-2.2687	-2.7062	-2.6188	-2.4625	-2.9354	-2.6396	156.517	17.675	-9.047	57.199	16.671	193.182	82.663	147.607	-41.744	167.076	-127.823	125.350	170.181	165.617	0.512	212.484	0.0015974	0.0011338	0.00039088	1061.1	1.0359e-05	7.878e-06	986.9	419.43	7.2218e-06	8.5706e-06	458.38	215.02	180.58	95.111	7.4046e-06	122.34	0.0014701	0.0014956	0.00042092	1035.4	1.612e-05	1.6787e-05	959.56	410.26	1.616e-05	1.6881e-05	449.16	210.69	176.8	93.14	1.6625e-05	120.38	-31.946	-38.402	-75.089	-125.222	12.564	13.705	-125.756	-120.805	-1.218	-9.337	-122.426	-118.404	-116.970	-113.718	38.346	-115.931	-8191	255	
23654.785	1	1	0	0	0.098069	0.30062	0.17781	0.17508	0.058747	0.12487	0.19614	0.21167	0.20932	0.049556	0.26635	0.22005	0.24291	0.099236	0.12262	0.36771	-1.8583	-3.0687	-2.0917	-2.8083	-2.7292	-2.0667	-3.0687	-2.6375	-2.175	-3.0229	-2.1542	-2.7646	-3.0521	-2.1562	-2.8792	-2.7062	-55.225	67.167	107.984	216.666	35.708	122.055	141.298	160.567	-126.345	64.959	161.017	195.166	180.227	-120.616	98.001	133.611	0.0014939	0.00080782	0.00029811	1067.8	1.425e-05	7.7007e-06	981.34	419.09	1.1768e-05	8.4019e-06	458.91	215.61	180.23	94.876	6.7421e-06	122.79	0.0014862	0.0015226	0.000425	1037.8	1.6209e-05	1.6796e-05	960.19	409.96	1.652e-05	1.6838e-05	451.1	211.28	176.78	93.294	1.6695e-05	120.63	-29.054	-65.710	-81.946	-125.499	-14.829	33.821	-125.710	-120.645	-1.679	-12.178	-122.292	-118.047	-116.999	-113.377	25.711	-116.205	-8191	255	
23654.881	1	1	0	0	0.092243	0.1304	0.36741	0.069043	0.17648	0.23279	0.090152	0.20625	0.10637	0.19312	0.21653	0.21539	0.070761	0.14375	0.065642	0.35296	-1.8521	-2.925	-2.1667	-2.6875	-2.7583	-2.1312	-2.9042	-2.7812	-2.1042	-2.9125	-2.3479	-2.5125	-2.8583	-2.1792	-2.9042	-2.7313	146.627	89.815	-52.789	190.424	67.115	-113.726	168.787	176.632	-43.260	116.461	189.026	-121.771	-123.507	212.831	-71.955	172.474	0.0015719	0.00076776	0.000232	1065.2	7.3864e-06	5.7255e-06	983.67	418.87	1.1942e-05	5.3897e-06	457.1	214.05	179.54	94.332	1.4109e-06	121.51	0.0015095	0.0015388	0.00043517	1037.4	1.638e-05	1.6794e-05	959.12	409.62	1.6594e-05	1.692e-05	448.03	208.99	176.18	92.57	1.6715e-05	119.21	-28.632	-67.416	-42.313	-125.238	60.860	-48.000	-125.935	-120.950	-2.054	-11.856	-122.389	-118.391	-117.043	-113.663	185.428	-115.912	-8191	255	
23654.977	1	1	0	0	0.1087	0.11877	0.097424	0.35941	0.28572	0.085098	0.20469	0.10109	0.10265	0.26168	0.15745	0.19352	0.16078	0.14219	0.16626	0.16337	-1.6479	-2.7125	-2.1188	-2.525	-2.7896	-2.0521	-2.7687	-2.9292	-2.0458	-2.9021	-2.425	-2.4771	-3.0125	-2.4042	-2.8271	-2.9125	-38.157	13.652	75.983	192.603	2.485	-94.082	155.754	186.470	18.604	-133.445	32.498	163.152	149.701	182.478	17.775	189.194	0.0014351	0.0017589	0.00040555	1062.1	1.161e-05	6.3188e-06	973.14	415.2	7.2005e-06	3.9648e-07	453.54	212.92	179.28	93.602	5.3382e-06	120.93	0.001496	0.001535	0.00043516	1033.9	1.65e-05	1.7048e-05	952.81	407.1	1.6931e-05	1.7199e-05	445.46	208.34	175.52	92.167	1.7107e-05	118.87	-28.204	-60.558	-51.044	-125.110	-20.950	47.767	-125.815	-120.579	54.757	-87.478	-122.404	-118.279	-116.773	-113.687	-5.363	-115.906	-8191	255	
23655.049	1	1	0	0	0.12249	0.19086	0.056155	0.19759	0.23411	0.14129	0.22869	0.014013	0.26858	0.16115	0.29417	0.10155	0.11813	0.19746	0.11965	0.32394	-1.7354	-2.9042	-2.3479	-2.3625	-2.9354	-2.2479	-2.6021	-2.8708	-2.2042	-2.9875	-2.3896	-2.3937	-2.8875	-2.375	-2.475	-2.9229	176.989	21.499	187.749	-119.554	-110.302	124.336	188.959	172.454	99.586	121.783	168.030	170.012	83.017	-105.620	157.889	169.447	0.0015547	0.00083509	6.8064e-05	1059.6	7.5922e-06	9.3374e-06	980.49	416.28	7.4317e-06	8.448e-06	456.59	213.95	178.15	93.905	6.5631e-06	121.46	0.0015334	0.0015719	0.00043689	1031.1	1.6512e-05	1.6926e-05	956.17	407.37	1.6644e-05	1.7373e-05	447.49	209.57	175.56	92.323	1.7137e-05	119.67	-28.904	-57.170	-41.057	-125.227	22.539	26.215	-125.909	-120.577	-22.815	17.862	-122.562	-118.298	-116.924	-113.345	8.465	-115.901	-8191	255	
23655.170	1	1	0	0	0.066574	0.20411	0.11055	0.098718	0.13694	0.081782	0.20171	0.29632	0.1257	0.1899	0.25851	0.31986	0.15675	0.14597	0.27762	0.1773	-1.6417	-2.7521	-2.5521	-2.2708	-3.0771	-2.1146	-2.7708	-2.9146	-2.1937	-2.6354	-2.4979	-2.1854	-3.0208	-2.6271	-2.3917	-3.1354	149.946	43.230	-33.906	-23.171	161.895	158.515	-127.165	189.895	190.365	-55.572	169.914	176.628	37.304	151.972	-124.611	-9.363	0.0016871	0.00066515	0.00041	1062.4	1.0854e-05	8.9036e-06	976.65	415.1	7.8773e-06	8.5641e-06	458.86	215.79	179.33	94.095	8.6574e-06	122.23	0.0015396	0.0015722	0.00043422	1034.5	1.7064e-05	1.7478e-05	956.57	407.44	1.6927e-05	1.7478e-05	450.03	211.08	176.14	92.513	1.739e-05	120.3	-32.212	-78.155	-55.163	-125.082	21.734	15.493	-125.528	-120.549	-3.823	26.118	-122.252	-117.966	-116.866	-113.403	-4.292	-115.671	-8191	255	
23655.266	1	1	0	0	0.24295	0.19754	0.19871	0.12407	0.044069	0.11484	0.27967	0.28914	0.16021	0.18278	0.19044	0.2397	0.29478	0.091565	0.14952	0.30648	-1.6292	-2.8375	-2.5917	-2.1521	-2.9688	-2.4813	-2.3937	-3.1271	-2.0083	-2.7708	-2.9292	-2.2438	-3.0292	-2.5979	-2.2687	-3.25	3.153	81.230	6.533	-79.875	71.730	-19.048	217.534	127.757	103.738	-81.686	-32.290	-41.567	199.268	-98.840	124.399	168.861	0.0016067	0.0010453	0.00013555	1060.3	1.0318e-05	1.0636e-05	984.57	416.3	1.8002e-05	4.5471e-06	455.14	213.58	177.85	93.541	8.3996e-06	121.13	0.0015428	0.0016107	0.00043618	1032.4	1.7062e-05	1.7477e-05	958.53	406.95	1.6902e-05	1.7279e-05	446.91	209.37	175.26	92.035	1.6833e-05	118.97	-28.902	-60.854	-42.039	-124.987	3.089	30.164	-125.745	-120.571	22.236	37.697	-122.270	-118.161	-116.592	-113.503	23.221	-115.669	-8191	255	
23655.361	1	1	0	0	0.28343	0.039045	0.11062	0.37241	0.13012	0.053076	0.063105	0.25213	0.082095	0.039527	0.079434	0.24319	0.27672	0.35059	0.32158	0.18834	-1.7667	-2.5292	-2.65	-1.9917	-2.9125	-2.3688	-2.2896	-3.1583	-1.9771	-2.5667	-2.9229	-2.2854	-2.8458	-2.6708	-2.25	-3.0979	97.670	-41.381	199.203	221.251	69.314	56.182	187.087	147.301	-131.939	21.043	153.632	136.262	-137.524	-120.542	192.408	200.307	0.0015529	0.00089058	0.00010461	1057.2	8.9362e-06	1.1976e-05	977.1	414.46	5.0045e-06	1.2559e-05	454.1	213.07	179.47	93.996	7.42e-06	121.64	0.0015168	0.0015536	0.0004303	1029.6	1.6252e-05	1.6693e-05	952.14	405.96	1.6273e-05	1.6451e-05	447.07	209.15	175.79	92.173	1.6189e-05	119.51	-32.573	-49.150	-21.436	-125.122	26.829	17.793	-125.536	-120.648	-2.101	10.028	-122.164	-118.115	-116.808	-113.451	-70.457	-115.723	-8191	255	
23655.457	1	1	0	0	0.081861	0.14975	0.17548	0.051204	0.21547	0.27863	0.33268	0.30184	0.38731	0.14134	0.2677	0.033339	0.27425	0.35211	0.20624	0.18984	-1.5812	-2.4958	-2.8771	-2.1375	-2.7771	-2.5938	-2.3187	-2.9375	-2.1688	-2.3542	-3.0167	-2.1208	-2.7417	-2.7667	-1.9833	-3.1917	79.628	197.889	-111.881	24.455	15.046	-117.634	202.612	195.466	169.023	-22.780	198.201	-108.585	187.505	187.123	155.494	205.889	0.0015388	0.001153	0.00025134	1051.9	1.2279e-05	7.3184e-06	982	417.03	1.3884e-05	7.3471e-06	460.61	215.98	180.33	94.687	1.2498e-05	122.91	0.0014813	0.0014833	0.00040985	1028	1.5598e-05	1.6154e-05	956.98	408.07	1.5642e-05	1.6128e-05	450.7	211.25	176.51	93.145	1.575e-05	120.68	-36.115	-75.514	-7.527	-125.076	-4.490	21.155	-125.710	-120.435	-0.256	19.133	-122.055	-118.137	-116.745	-113.315	-38.382	-115.810	-8191	255	
23655.576	1	1	0	0	0.19271	0.22444	0.2364	0.2152	0.026002	0.073444	0.093093	0.080357	0.056906	0.081841	0.2169	0.2596	0.23688	0.20152	0.2492	0.13193	-1.9833	-2.2792	-2.8688	-2.2896	-2.5375	-2.6188	-2.2042	-3.0375	-2.3646	-2.3271	-3.0104	-2.2583	-2.8438	-2.7771	-2.1625	-3.0771	-124.040	-122.825	-57.196	101.808	-136.101	129.947	112.338	-93.603	-86.331	102.508	151.144	-98.532	-108.103	184.794	-137.665	186.329	0.001521	0.0011795	0.00027298	1059.3	7.6275e-06	2.8685e-06	990.83	419.14	5.0283e-06	1.2526e-05	463.49	218.98	181.67	95.707	1.1933e-05	124.24	0.0014178	0.0014516	0.000397	1032.3	1.5376e-05	1.5639e-05	964.85	410.26	1.5231e-05	1.5579e-05	454.47	213.75	178.03	93.779	1.5728e-05	122	-26.019	-46.549	-34.339	-124.940	-34.686	6.656	-125.440	-120.409	-7.699	-1.438	-121.954	-118.057	-116.758	-113.289	-10.407	-115.660	-8191	255	
23655.650	1	1	0	0	0.33131	0.08913	0.37263	0.42112	0.12572	0.22434	0.076909	0.076018	0.13242	0.12778	0.27563	0.26526	0.38807	0.092379	0.043782	0.28113	-1.8563	-2.1188	-3.0729	-2.3042	-2.5646	-2.7167	-2.2188	-2.9938	-2.425	-2.2	-2.8896	-2.3125	-2.575	-3.0354	-2.1271	-3.0875	-4.750	-42.794	52.091	205.819	-0.356	-60.404	-115.521	-129.092	-1.463	154.921	99.550	155.734	166.564	215.015	12.294	129.266	0.0017231	0.00066093	0.00021513	1059.2	6.6379e-06	8.1084e-06	986.29	420.31	9.5836e-06	8.4444e-06	461.55	216.1	180.22	94.733	3.0738e-06	122.62	0.001413	0.001401	0.00039168	1033.9	1.4953e-05	1.5411e-05	962.96	410.14	1.4929e-05	1.5424e-05	451.94	211.57	176.85	93.088	1.5183e-05	120.18	-30.499	-79.514	-41.997	-124.984	9.324	39.676	-125.497	-120.467	7.719	17.225	-122.182	-118.184	-116.812	-113.350	-31.429	-115.650	-8191	255	
23655.746	1	1	0	0	0.095766	0.28169	0.062499	0.17245	0.29392	0.16817	0.057845	0.082523	0.14602	0.38197	0.078711	0.14341	0.065189	0.43599	0.1066	0.092716	-2.1813	-1.9708	-2.9188	-2.2062	-2.3396	-2.9604	-2.1542	-2.7896	-2.4271	-2.1667	-2.9688	-2.4521	-2.4375	-3.0875	-2.0292	-2.8771	-109.077	-110.561	-124.641	-111.433	215.748	93.016	146.734	213.989	55.548	-120.631	-80.016	168.078	-41.209	197.451	-2.937	-135.472	0.001618	0.00066249	0.00035313	1056.5	1.3776e-05	7.1823e-06	976.56	418.92	6.1701e-06	1.2089e-05	459.74	215.5	180.74	94.74	4.8779e-06	122.54	0.0013784	0.0013792	0.00038047	1029.1	1.4871e-05	1.5262e-05	954.85	408.25	1.4797e-05	1.5123e-05	449.88	210.32	176.99	92.926	1.5349e-05	120.23	-29.875	-77.808	-46.115	-125.202	37.203	-9.403	-125.678	-120.305	41.909	28.620	-122.325	-118.308	-116.871	-113.426	31.240	-115.624	-8191	255	
23655.867	1	1	0	0	0.14917	0.11127	0.21294	0.17165	0.17808	0.10073	0.10191	0.21877	0.10414	0.15827	0.20875	0.39335	0.32146	0.23095	0.24123	0.38625	-2.1063	-1.9188	-2.6917	-2.3146	-2.1708	-2.8708	-2.1958	-2.8917	-2.5938	-2.0417	-3.0125	-2.5583	-2.2917	-3.1667	-2.2687	-2.8438	-83.441	-93.697	-71.354	194.525	210.641	-24.437	162.161	85.937	149.454	43.300	176.119	169.444	116.448	155.049	110.664	148.396	0.0015367	0.0012889	0.00028055	1058.7	1.2927e-05	9.3445e-06	982.21	417.74	9.896e-06	8.6814e-06	461.36	216.38	181.9	94.849	4.6657e-06	123.12	0.0013697	0.0013766	0.0003835	1030.9	1.4804e-05	1.507e-05	958.3	408.77	1.4928e-05	1.5536e-05	451.64	211.81	177.38	92.99	1.5269e-05	120.9	-27.064	-62.421	-91.187	-124.989	-7.770	9.227	-125.520	-120.471	-27.428	24.446	-122.193	-118.259	-116.735	-113.212	95.654	-115.616	-8191	255	
23655.961	1	1	0	0	0.15608	0.24902	0.026701	0.23543	0.21408	0.13373	0.053988	0.38034	0.33178	0.17383	0.080815	0.039622	0.25414	0.3344	0.07104	0.3661	-2.3063	-1.8125	-2.7854	-2.4396	-1.9979	-3.0021	-2.3542	-2.6521	-2.8375	-1.8563	-2.9646	-2.675	-2.3229	-3.0417	-2.2083	-2.7167	183.324	-32.182	61.977	158.277	-43.750	136.753	55.811	169.592	131.433	187.637	-74.428	-35.546	160.260	216.223	0.395	94.753	0.0014518	0.00074843	0.00023919	1058.1	9.8928e-06	1.2251e-05	993.11	420.07	1.1428e-05	1.1973e-05	462.16	218.05	180.74	94.848	7.5782e-06	123.79	0.0013652	0.0014051	0.00038636	1031.5	1.4841e-05	1.5255e-05	964.62	410.05	1.492e-05	1.5551e-05	453.82	212.95	177.11	93.072	1.5472e-05	121.35	-29.152	-52.586	-40.578	-125.067	4.155	29.554	-125.279	-120.380	21.914	17.964	-122.319	-118.206	-116.759	-113.364	29.178	-115.611	-8191	255	
23656.057	1	1	0	0	0.2571	0.20222	0.11567	0.38341	0.27053	0.1986	0.27017	0.15523	0.16825	0.33438	0.20144	0.36688	0.12949	0.2523	0.020582	0.12322	-2.4667	-1.8604	-2.6979	-2.8063	-1.8292	-2.9062	-2.5083	-2.4125	-2.8208	-1.9208	-2.7021	-2.7417	-1.9646	-3.0125	-2.2042	-2.4938	117.244	169.356	83.453	214.796	197.600	195.915	207.113	-115.209	170.708	-38.181	76.586	183.459	93.684	208.898	159.230	173.892	0.001577	0.0011385	0.00033169	1069.1	1.2182e-05	6.9908e-06	988.9	416.18	7.7183e-06	5.8343e-06	461.78	216.08	180.25	94.366	6.9585e-06	122.35	0.0013979	0.0014282	0.00039115	1035.2	1.4779e-05	1.5465e-05	964.28	407.99	1.4994e-05	1.5658e-05	451.92	211.29	176.13	92.42	1.5528e-05	119.8	-29.231	-63.732	-41.160	-125.027	-5.597	0.685	-125.855	-120.303	-26.351	-25.832	-122.116	-118.094	-116.422	-113.269	-27.864	-115.576	-8191	255	
23656.178	1	1	0	0	0.46075	0.085625	0.074163	0.11949	0.24051	0.11845	0.39387	0.15938	0.12436	0.26305	0.10501	0.052509	0.35268	0.30058	0.31535	0.19424	-2.4437	-2.275	-2.5104	-2.6917	-2.0292	-2.8354	-2.6437	-2.1854	-3.0458	-2.0667	-2.7208	-2.7979	-2.0667	-3.0187	-2.4125	-2.3458	80.048	-96.572	178.059	180.627	-50.503	-20.397	184.653	143.594	164.763	36.465	-107.891	215.987	157.505	-111.856	-55.548	201.501	0.0015313	0.0012692	0.00036378	1059.9	1.0152e-05	7.1767e-06	979.2	417.66	6.8025e-06	4.9677e-06	456.12	215	178.77	93.781	1.0342e-05	121.5	0.0014107	0.0014314	0.00039405	1031.1	1.5369e-05	1.5711e-05	956.08	407.26	1.5386e-05	1.5794e-05	448.01	209.84	175.56	92.044	1.5921e-05	119.37	-29.025	-66.524	-59.125	-124.984	35.430	52.942	-125.528	-120.294	40.902	15.364	-122.158	-117.822	-116.594	-113.326	-48.941	-115.860	-8191	255	
23656.273	1	1	0	0	0.070171	0.35864	0.10973	0.17408	0.23415	0.017103	0.09034	0.31283	0.16821	0.19933	0.26358	0.12975	0.10305	0.09656	0.13548	0.33746	-2.6396	-2.025	-2.5312	-3.0479	-2.0958	-2.9146	-2.7375	-2.2438	-2.9229	-2.0229	-2.5229	-2.7396	-2.2292	-2.8812	-2.5146	-2.2687	41.573	56.920	32.921	-118.455	5.385	-38.470	67.068	91.154	85.645	213.891	156.391	178.346	190.418	160.347	16.371	216.834	0.001556	0.00052274	0.00030915	1053.6	9.6051e-06	9.632e-06	983.81	417.3	1.063e-05	9.2717e-06	460.12	214.36	178.37	94.671	1.2092e-05	122.7	0.0014308	0.0014343	0.00039941	1028.3	1.5246e-05	1.5515e-05	957.84	407.88	1.5282e-05	1.557e-05	450.43	210.39	175.49	92.539	1.5736e-05	120.26	-32.708	-72.279	-25.313	-125.100	5.005	7.038	-125.352	-120.177	25.786	13.629	-121.524	-117.739	-116.497	-113.063	-13.297	-115.248	-8191	255	
23656.346	1	1	0	0	0.12882	0.074793	0.10787	0.2814	0.049383	0.11981	0.14392	0.48167	0.19275	0.15984	0.11903	0.28223	0.15704	0.25264	0.18568	0.2324	-2.4708	-2.1125	-2.2438	-2.8312	-2.0583	-2.7521	-2.6125	-2.2208	-2.9458	-2.4229	-2.3563	-3.0667	-2.1458	-3.0854	-2.7396	-2.2292	-130.780	116.212	12.240	189.908	-99.605	202.372	165.653	220.195	-87.354	-26.123	161.585	164.145	-90.253	-134.559	158.730	170.790	0.0015483	0.00081756	0.0002207	1062.8	8.9466e-06	8.2505e-06	986.84	419.16	8.3612e-06	1.0091e-05	460.46	216.71	179.74	94.253	1.0731e-05	123.11	0.001412	0.0014469	0.00040272	1033.1	1.5481e-05	1.5779e-05	962.48	409.06	1.5539e-05	1.5744e-05	451.9	212.13	176.31	92.556	1.5741e-05	120.83	-28.526	-48.730	-40.142	-125.116	49.765	51.077	-125.153	-120.324	69.973	-6.727	-121.875	-117.969	-116.468	-113.195	-10.534	-115.706	-8191	255	
23656.467	1	1	0	0	0.30439	0.047316	0.1707	0.019131	0.17954	0.11944	0.17128	0.088308	0.20638	0.16371	0.19475	0.5641	0.39447	0.24725	0.15212	0.35949	-2.6312	-2.2125	-2.2812	-3.0833	-2.1542	-2.8417	-2.9062	-2.1917	-2.8958	-2.4271	-2.3438	-2.9396	-2.425	-2.5771	-2.7667	-2.2958	-53.028	73.072	101.367	191.667	119.299	127.261	67.211	189.342	-90.419	101.065	-92.622	166.364	187.581	-106.468	-47.191	119.004	0.0016002	0.00056849	0.00023516	1062.5	1.0235e-05	4.623e-06	989.37	417.67	7.5754e-06	9.6583e-06	461.08	216.25	179.78	94.025	7.4306e-06	121.97	0.0014365	0.0014681	0.00040322	1035.6	1.5569e-05	1.6002e-05	962.99	408.85	1.5603e-05	1.5979e-05	452.03	211.42	175.94	92.276	1.5821e-05	119.91	-27.473	-81.117	-68.556	-124.943	16.928	-0.925	-125.341	-120.391	49.121	33.502	-121.956	-118.058	-116.761	-112.947	-50.943	-115.590	-8191	255	
23656.562	1	1	0	0	0.17323	0.20639	0.16982	0.2096	0.032754	0.13624	0.17873	0.121	0.09901	0.13491	0.14017	0.35514	0.19522	0.41366	0.11828	0.15047	-2.4813	-2.4938	-2.0521	-3.1875	-2.2729	-2.3708	-3.0687	-2.3083	-2.8	-2.6104	-2.2687	-3.1021	-2.4021	-2.5146	-2.8417	-2.2812	-44.853	117.170	79.231	154.662	-7.347	-25.436	116.216	31.263	-132.994	-114.596	-117.014	175.460	182.402	204.050	-120.105	53.717	0.0014224	0.0011472	0.00030973	1055.2	6.8827e-06	7.8283e-06	979.9	416	1.0897e-05	7.772e-06	458.72	213.8	179.99	93.68	7.7615e-06	121.67	0.0014315	0.0014524	0.00040097	1029.3	1.5596e-05	1.5888e-05	956.35	407.03	1.5492e-05	1.5831e-05	449.63	209.81	175.47	92.01	1.6028e-05	119.73	-31.681	-55.355	-40.224	-124.840	39.412	20.729	-125.254	-120.089	8.876	-15.697	-121.823	-117.808	-116.336	-112.908	23.285	-115.476	-8191	255	
23656.658	1	1	0	0	0.28947	0.22823	0.20706	0.17208	0.15169	0.12354	0.039118	0.32486	0.097773	0.17633	0.2091	0.14216	0.27561	0.15305	0.083843	0.36489	-2.4458	-2.5792	-1.8937	-3.0146	-2.3438	-2.3875	-3.0312	-2.2979	-2.5667	-2.7417	-2.2854	-2.95	-2.6375	-2.4208	-3.0458	-2.4542	-6.601	78.293	84.444	-133.704	200.284	141.924	21.060	126.869	56.420	162.074	200.474	193.978	183.167	160.210	147.597	100.512	0.0015418	0.00047935	0.00035268	1054	8.4971e-06	8.9339e-06	979.91	415.99	1.0918e-05	9.0859e-06	461.98	215.15	178.91	94.087	6.2596e-06	122.67	0.0014507	0.0014533	0.00040575	1028.9	1.5562e-05	1.582e-05	959.28	406.69	1.5535e-05	1.5829e-05	451.29	210.95	175.35	92.232	1.5849e-05	120.33	-30.481	-88.463	-65.551	-124.668	7.588	68.118	-125.690	-120.627	40.587	-16.852	-121.805	-118.278	-116.949	-113.579	-10.013	-115.821	-8191	255	
23656.754	1	1	0	0	0.066598	0.15645	0.14954	0.21096	0.11008	0.20579	0.067056	0.14036	0.11977	0.16916	0.15283	0.31563	0.31519	0.24803	0.19368	0.32225	-2.4021	-2.6979	-1.9917	-2.9604	-2.5521	-2.2646	-2.9458	-2.2479	-2.3729	-2.775	-1.8917	-2.9667	-2.6146	-2.1917	-2.9375	-2.3458	-23.794	-9.956	-72.775	204.371	27.016	195.528	107.350	199.740	152.644	-46.442	-116.217	146.012	187.276	194.110	76.590	75.615	0.0016204	0.00074843	0.00029104	1057.3	1.144e-05	7.6531e-06	986.87	416.54	9.9071e-06	6.9285e-06	462.74	216.5	179.33	93.889	8.4558e-06	123.25	0.0014548	0.0014532	0.00040367	1031.4	1.5648e-05	1.6003e-05	963.26	408.17	1.5442e-05	1.5935e-05	453.24	212.06	175.82	92.391	1.5886e-05	120.91	-32.512	-84.606	-54.519	-125.100	7.528	17.989	-125.769	-120.705	39.615	38.727	-121.997	-118.108	-117.002	-113.391	-5.499	-115.471	-8191	255	
23656.873	1	1	0	0	0.10446	0.09808	0.26368	0.053753	0.11168	0.12976	0.19433	0.37662	0.25026	0.14766	0.14882	0.25211	0.23046	0.092274	0.17287	0.23866	-2.2583	-2.8479	-2.05	-2.8958	-2.5208	-2.2625	-3.075	-2.3771	-2.2833	-2.9604	-1.9417	-2.8396	-2.7083	-2.425	-3.0167	-2.3917	40.211	-87.883	-24.072	201.477	182.799	26.971	191.622	140.265	-12.853	-79.134	216.302	-118.615	215.061	25.310	-18.093	186.932	0.0015924	0.00079724	0.00024852	1059	9.451e-06	5.3344e-06	992.25	417	5.9985e-06	1.1336e-05	459.75	216.78	179.8	93.8	8.0014e-06	122.09	0.0014507	0.0014627	0.00040879	1033.8	1.5771e-05	1.6115e-05	966.07	408.49	1.5716e-05	1.582e-05	451.85	211.72	175.54	92.192	1.6233e-05	119.98	-28.247	-78.244	-65.925	-124.936	73.220	-24.332	-125.491	-120.427	6.168	12.140	-122.242	-118.199	-116.684	-113.209	-26.174	-115.594	-8191	255	
23656.945	1	1	0	0	0.37974	0.086129	0.0614	0.39939	0.22942	0.15515	0.031125	0.28038	0.012415	0.18701	0.14985	0.11015	0.16036	0.28858	0.13034	0.28857	-2.0125	-2.8771	-2.0938	-2.6854	-2.7625	-1.8438	-3.025	-2.2771	-2.0625	-3.0458	-2.3396	-2.7292	-2.8667	-2.3708	-2.8104	-2.4958	157.350	30.573	-4.178	221.190	-12.902	71.612	99.873	168.290	45.102	158.987	-131.978	-20.283	-83.241	149.425	175.216	169.190	0.0016255	0.0011137	0.0003036	1054	3.2555e-06	6.2899e-06	984.6	415.62	4.0412e-06	5.3215e-06	457.56	214.86	178.25	93.721	7.3227e-06	121.47	0.0014384	0.0014599	0.00040713	1030.6	1.5576e-05	1.5985e-05	959.37	406.46	1.5621e-05	1.6174e-05	449.22	209.68	175.07	91.875	1.6098e-05	119.48	-31.690	-63.476	-17.122	-125.079	-107.468	19.668	-125.569	-120.603	-26.744	13.780	-122.235	-118.490	-116.854	-113.519	-4.665	-115.884	-8191	255	
23657.043	1	1	0	0	0.14328	0.052585	0.032892	0.33548	0.1909	0.10841	0.22137	0.31021	0.20291	0.14823	0.28724	0.038151	0.15987	0.33228	0.047306	0.14499	-1.8229	-3.1417	-2.1125	-2.5187	-3.025	-2.1771	-2.9792	-2.5396	-2.2958	-2.9167	-2.3896	-2.5604	-2.9417	-2.1729	-2.95	-2.6042	99.366	185.568	63.989	168.738	-34.756	129.984	192.652	156.152	103.783	-23.861	-112.086	187.873	-112.299	152.023	149.903	140.840	0.0015479	0.00061479	0.00031564	1058.3	1.3336e-05	8.4688e-06	983.97	416.43	8.7136e-06	8.5723e-06	460.73	215.28	178.45	94.131	1.1428e-05	122.53	0.0014629	0.001466	0.00040887	1030	1.5646e-05	1.615e-05	959.95	406.8	1.564e-05	1.6067e-05	450.32	210.84	175.49	92.265	1.5945e-05	120.28	-28.684	-60.865	-23.663	-125.088	6.979	5.151	-125.884	-120.677	-0.905	28.624	-122.320	-118.182	-116.960	-113.413	17.323	-115.918	-8191	255	
23657.139	1	1	0	0	0.27196	0.22368	0.094682	0.32682	0.20492	0.083242	0.19732	0.31173	0.18238	0.19308	0.15619	0.14832	0.38732	0.27188	0.13198	0.35707	-1.9167	-2.9667	-2.4396	-2.65	-2.6542	-2.1417	-2.8646	-2.8146	-2.1854	-3.0792	-2.5917	-2.6125	-2.9625	-2.2812	-2.6771	-2.9146	58.323	101.905	-4.065	190.706	-74.769	106.091	177.084	27.038	114.805	32.428	83.782	-27.767	158.253	144.431	53.578	154.647	0.0015366	0.0010953	0.00016311	1060.3	7.3426e-06	8.9153e-06	987.54	415.71	8.4371e-06	1.0968e-05	462.05	217.93	179.68	94.201	9.5131e-06	123.02	0.0014507	0.001473	0.00041082	1033.6	1.5524e-05	1.6325e-05	963.09	407.24	1.5501e-05	1.629e-05	452.64	212.52	175.79	92.293	1.6079e-05	120.83	-30.143	-49.001	-88.055	-124.948	47.223	-0.661	-125.878	-120.442	-22.532	13.458	-122.309	-117.974	-116.884	-113.270	-2.626	-115.278	-8191	255	
23657.258	1	1	0	0	0.16945	0.026258	0.19486	0.092502	0.074263	0.29359	0.16892	0.2447	0.24672	0.054595	0.33711	0.32212	0.24633	0.24433	0.15587	0.20389	-1.5667	-2.8312	-2.4167	-2.4229	-2.6875	-2.1542	-2.7354	-2.8854	-2.2042	-2.9354	-2.6479	-2.3583	-3.0896	-2.1479	-2.4646	-3.0146	99.975	71.419	200.537	213.054	-3.262	212.481	215.714	218.410	210.943	-125.167	-134.542	174.957	161.652	-111.814	-25.785	135.047	0.0015987	0.00055918	0.00032948	1061.8	1.0081e-05	6.0969e-06	988.95	417.34	6.1902e-06	1.0086e-05	463.3	216.19	179.33	93.59	7.5037e-06	122.44	0.0014656	0.0014866	0.00040906	1034.6	1.5718e-05	1.6337e-05	966.5	407.93	1.6015e-05	1.6228e-05	453.34	211.77	175.39	92.115	1.6292e-05	120.14	-28.895	-49.333	-28.162	-125.194	53.847	3.041	-125.804	-120.798	26.996	43.417	-122.330	-118.224	-117.113	-113.521	-44.992	-115.973	-8191	255	
23657.354	1	1	0	0	0.085481	0.21021	0.31818	0.25089	0.13607	0.40837	0.17556	0.40539	0.11945	0.077273	0.20962	0.14827	0.066254	0.17574	0.17938	0.32165	-1.7396	-2.9854	-2.4792	-2.3	-2.925	-2.2	-2.7521	-2.9104	-2.0854	-2.9458	-2.7354	-2.3958	-3.1458	-2.6417	-2.3958	-3.0354	94.640	-23.130	90.617	212.265	-60.066	-109.161	75.660	201.652	-4.309	-67.018	175.905	186.218	56.214	155.530	90.325	144.791	0.0016139	0.00081428	0.00029227	1054	1.2185e-05	3.9407e-06	983.71	415.78	1.3552e-05	1.0814e-05	457.31	214.58	178.5	93.086	3.9471e-06	121.35	0.0014743	0.0014776	0.00041429	1030.8	1.5815e-05	1.6213e-05	959.32	406.33	1.5897e-05	1.6516e-05	449.01	210.09	175.02	91.472	1.6158e-05	119.43	-30.811	-89.148	-77.496	-125.320	-7.457	34.145	-125.867	-121.121	6.804	-15.612	-122.657	-118.456	-117.041	-113.723	8.346	-115.975	-8191	255	
23657.451	1	1	0	0	0.10486	0.1663	0.14619	0.21473	0.14096	0.042219	0.17556	0.19995	0.057901	0.092392	0.25978	0.16423	0.3274	0.3273	0.27395	0.11278	-1.6771	-2.7229	-2.6458	-2.3521	-2.9625	-2.3792	-2.3979	-3.0146	-2.15	-2.8271	-2.9375	-2.2229	-2.9792	-2.6146	-2.1271	-3.1479	-0.230	-83.676	93.019	92.542	210.225	39.367	32.247	122.676	156.472	187.943	151.450	-39.230	143.975	166.962	-95.721	123.120	0.0014779	0.0012655	0.00011193	1052.5	1.3382e-05	8.7688e-06	984.46	416.09	8.884e-06	7.0402e-06	457.47	215.26	178.77	93.283	8.3247e-06	122.4	0.0014731	0.0014865	0.00041274	1028.1	1.6026e-05	1.6382e-05	960.31	406.78	1.6094e-05	1.6368e-05	449.25	210.6	175	91.798	1.5999e-05	119.86	-28.851	-48.022	-60.994	-125.545	2.150	5.811	-125.707	-120.882	-7.399	-8.292	-122.570	-118.231	-117.149	-113.781	9.332	-115.836	-8191	255	
23657.547	1	1	0	0	0.041252	0.10242	0.034163	0.2744	0.16238	0.12034	0.12938	0.32588	0.18679	0.030229	0.25975	0.1214	0.20349	0.21547	0.1741	0.11287	-1.7396	-2.7875	-2.5542	-2.1333	-2.8708	-2.5479	-2.4354	-3.2125	-2.2021	-2.7708	-2.8729	-2.2271	-3.0875	-2.7062	-2.2479	-3.2188	-125.059	-20.402	217.417	190.258	6.834	-63.170	214.879	166.391	217.621	-95.585	190.212	-87.687	141.640	175.772	99.241	187.364	0.0014801	0.0010365	0.00030307	1052.3	1.5302e-05	3.8325e-06	988.35	417.14	7.7553e-06	8.2413e-06	460.74	215.29	178.85	93.769	9.3616e-07	122.8	0.0014834	0.0014924	0.00041142	1030.3	1.5959e-05	1.6274e-05	963.76	407.56	1.5804e-05	1.6497e-05	452.19	211.59	175.37	92.006	1.656e-05	120.71	-27.813	-47.611	-51.205	-125.337	20.670	41.282	-125.850	-120.847	-12.782	5.901	-122.239	-118.341	-117.001	-113.654	47.581	-115.842	-8191	255	
23657.643	1	1	0	0	0.19158	0.06439	0.29224	0.069433	0.21331	0.32026	0.29278	0.23971	0.088272	0.18867	0.090807	0.1699	0.31241	0.15061	0.27704	0.18376	-1.7625	-2.675	-2.7146	-2.3375	-2.7708	-2.7333	-2.3583	-3.0417	-2.25	-2.6167	-3.0792	-2.2771	-2.8104	-3.0458	-2.0812	-3.2188	27.751	31.382	-60.356	166.017	34.430	79.028	108.229	91.621	111.766	203.964	167.247	205.143	127.464	-76.782	-136.351	145.480	0.0015924	0.001384	0.00029857	1055.4	3.4143e-06	1.0404e-05	990.38	415.41	6.3731e-06	1.0038e-05	463.66	216.71	178.05	93.163	4.8095e-06	122.07	0.0014819	0.0015246	0.00041097	1032.2	1.624e-05	1.6417e-05	968.4	407.4	1.6136e-05	1.6572e-05	453.86	211.79	175.06	91.46	1.6472e-05	120.01	-30.750	-60.707	-26.333	-125.337	47.365	24.668	-125.710	-120.932	-15.717	18.352	-122.357	-118.395	-117.078	-113.609	4.984	-115.857	-8191	255	
23657.738	1	1	0	0	0.14677	0.16914	0.13464	0.18512	0.11688	0.061612	0.24851	0.24244	0.17299	0.014491	0.19079	0.21412	0.091555	0.13087	0.175	0.33595	-2.0333	-2.2604	-2.8479	-2.1646	-2.8833	-2.8063	-2.1875	-3.2583	-2.2167	-2.4	-2.9313	-2.2042	-2.9417	-2.7854	-1.7563	-3.1813	16.640	-5.005	150.841	96.826	-89.455	-27.340	215.317	161.967	-115.496	151.274	141.697	-122.632	197.725	214.261	99.900	140.458	0.0014924	0.00078332	0.00041136	1059.6	1.421e-05	6.4789e-06	986.16	414.37	1.0619e-05	1.106e-05	458.42	214.02	177.76	92.796	1.6432e-06	121.11	0.0014913	0.0015342	0.00041354	1033.2	1.6064e-05	1.6407e-05	962.65	406.04	1.6541e-05	1.6758e-05	449.18	209.76	174.57	91.063	1.6738e-05	119.19	-26.241	-53.421	-25.432	-125.244	4.745	0.900	-125.709	-120.652	11.741	17.716	-122.216	-118.623	-117.052	-113.535	111.978	-115.812	-8191	255	
23657.857	1	1	0	0	0.29753	0.12307	0.088724	0.06031	0.05757	0.1433	0.17151	0.20473	0.11193	0.10837	0.26208	0.27951	0.29021	0.12088	0.13428	0.19804	-2.0896	-2.2542	-3.0375	-2.3125	-2.5375	-2.8375	-2.2333	-2.8812	-2.4667	-2.2229	-3.0563	-2.4125	-2.5729	-3.0896	-2.0167	-3.25	122.621	-115.129	-113.211	131.607	196.908	-34.560	-36.466	135.788	45.083	-67.957	125.541	205.831	172.031	179.450	-61.262	171.295	0.0016367	0.0017062	0.00029239	1061.3	6.8444e-06	5.2253e-06	980.41	415.34	1.2587e-05	1.29e-05	457.55	214.69	176.98	93.045	1.0261e-05	122.42	0.0014927	0.0015341	0.00042521	1031.7	1.619e-05	1.674e-05	961.16	406.31	1.6255e-05	1.6727e-05	450	210.27	174.72	91.406	1.6516e-05	119.93	-28.198	-63.672	-52.647	-125.525	24.355	-16.625	-125.761	-120.706	20.317	7.170	-122.048	-118.362	-116.949	-113.558	17.043	-115.675	-8191	255	
23657.953	1	1	0	0	0.14138	0.12004	0.078159	0.26073	0.19249	0.084163	0.1568	0.12149	0.079954	0.052933	0.075927	0.1018	0.03228	0.32335	0.21258	0.20383	-2.2875	-2.2333	-2.9479	-2.3438	-2.5146	-2.9188	-2.1771	-2.7771	-2.5021	-2.2104	-3.2021	-2.4604	-2.5292	-3.0479	-2.0854	-2.9646	150.020	172.307	172.164	191.694	-70.850	-26.778	130.024	162.404	163.728	55.818	-12.522	-122.905	-86.603	194.832	75.760	97.537	0.0015826	0.00035528	0.0001306	1055.1	1.2938e-05	5.0576e-06	988.61	416.08	6.4692e-06	3.6699e-06	463.96	215.38	178.82	93.429	1.1045e-05	122.77	0.0014934	0.0015359	0.00042629	1030.8	1.6413e-05	1.6754e-05	964.55	407.23	1.6429e-05	1.6708e-05	453.74	211.45	175.36	91.658	1.6615e-05	120.72	-34.408	-58.496	-36.516	-125.513	-4.899	24.233	-125.818	-120.596	38.832	-18.801	-122.187	-118.394	-117.132	-113.487	4.841	-115.785	-8191	255	
23658.051	1	1	0	0	0.3425	0.22232	0.1273	0.34479	0.24913	0.12457	0.14216	0.12276	0.069981	0.20777	0.26889	0.13891	0.21312	0.24928	0.11864	0.37777	-2.1333	-2.0687	-2.7104	-2.3479	-2.2833	-3.1229	-2.2521	-2.7917	-2.7646	-1.9708	-2.9333	-2.5938	-2.3563	-3.1542	-2.1583	-2.7729	144.314	-97.272	27.180	158.048	88.357	-84.784	32.428	-131.341	-125.886	-30.586	205.588	171.119	100.866	171.797	-124.099	150.245	0.0015304	0.00079018	0.00024998	1062.3	1.1088e-05	4.0592e-06	995.7	418.12	1.1544e-05	6.9074e-06	460.76	217.08	178.98	93.351	8.3149e-06	122.65	0.001494	0.0015433	0.00042024	1034.7	1.6536e-05	1.6806e-05	969.74	409.1	1.6222e-05	1.6619e-05	453.77	212.31	175.29	91.616	1.6788e-05	120.43	-31.140	-96.539	-95.291	-125.366	-27.764	35.254	-125.806	-120.628	15.845	63.868	-122.011	-118.358	-116.649	-113.676	-1.731	-115.838	-8191	255	
23658.146	1	1	0	0	0.030256	0.36941	0.2428	0.18949	0.31549	0.10523	0.17414	0.31956	0.065086	0.022052	0.10761	0.027488	0.17992	0.25838	0.16513	0.36457	-2.3854	-2.2938	-2.7812	-2.7271	-2.1479	-3.0583	-2.4792	-2.6479	-2.7667	-2.0229	-2.95	-2.8229	-2.1708	-3.0271	-2.3021	-2.725	-36.788	-116.967	188.458	94.142	-99.814	170.557	97.660	147.103	18.250	169.937	116.110	11.774	171.147	168.911	64.489	145.796	0.0015697	0.00080699	0.00020674	1059.8	1.1979e-05	9.77e-06	985.19	415.61	1.3556e-05	2.3222e-06	457.27	214.25	177.67	92.544	1.4302e-05	121.73	0.0014779	0.0015483	0.00041938	1032	1.6265e-05	1.6584e-05	961.93	406.79	1.6382e-05	1.6646e-05	450.16	209.57	174.46	90.993	1.6345e-05	119.36	-26.213	-64.863	-32.585	-125.427	-14.470	-35.806	-125.970	-120.617	-24.051	3.741	-121.991	-118.365	-116.865	-113.357	14.297	-115.438	-8191	255	
23658.242	1	1	0	0	0.050773	0.14508	0.096514	0.015137	0.2291	0.092082	0.12566	0.28307	0.078702	0.22932	0.17432	0.14149	0.33252	0.20491	0.19729	0.13588	-2.3312	-2.1083	-2.7333	-2.7604	-2.2042	-2.9479	-2.2771	-2.5417	-2.7729	-1.9396	-2.8042	-2.7396	-2.1396	-3.1625	-2.3708	-2.5646	27.055	148.459	-82.638	93.559	-101.403	108.156	181.823	182.270	60.932	59.309	-60.497	181.954	209.327	160.416	120.270	137.005	0.0014994	0.00087501	0.00022364	1050.3	8.9143e-06	5.0693e-06	982.88	416.7	9.6158e-06	1.3386e-05	458.05	215.34	177.99	92.985	1.0973e-05	122.55	0.001484	0.0015164	0.00042105	1029.2	1.5987e-05	1.6664e-05	961.43	407.44	1.636e-05	1.6636e-05	451.2	210.35	174.35	91.164	1.6268e-05	120.16	-34.127	-72.667	-28.493	-125.068	29.190	-7.672	-125.725	-120.496	46.650	20.364	-122.036	-118.331	-116.738	-113.268	-20.856	-115.390	-8191	255	
23658.340	1	1	0	0	0.083396	0.25813	0.10682	0.069745	0.10575	0.13969	0.14556	0.24392	0.3281	0.13928	0.10479	0.067413	0.10637	0.27535	0.17745	0.16232	-2.6437	-2.0708	-2.6729	-2.8563	-2.1188	-3.0833	-2.4417	-2.3979	-2.9188	-2.1	-2.5146	-2.8833	-2.3042	-3.0479	-2.4062	-2.3854	176.753	98.589	85.561	149.554	-16.310	148.665	87.309	177.717	-72.201	135.446	-90.708	121.989	184.478	189.691	-41.192	219.035	0.0015993	0.00072279	0.0003217	1059.1	4.5227e-06	8.2108e-06	989.91	418.15	7.834e-07	1.5079e-05	462.69	215.59	178.58	93.425	6.8954e-06	122.85	0.001468	0.0015067	0.00041689	1033.2	1.5974e-05	1.6461e-05	966.6	407.89	1.5718e-05	1.6466e-05	453.04	211.63	174.85	91.588	1.6172e-05	120.73	-27.077	-22.561	-40.284	-125.178	20.366	0.659	-125.562	-120.597	19.910	8.612	-122.005	-118.051	-116.628	-113.354	15.698	-115.616	-8191	255	
23658.436	1	1	0	0	0.25283	0.19044	0.19083	0.17125	0.29359	0.14096	0.062461	0.31612	0.10014	0.14349	0.09205	0.16673	0.17561	0.34249	0.27698	0.26667	-2.4167	-2.1937	-2.7292	-2.9083	-1.8208	-2.8917	-2.5333	-2.3771	-2.8688	-2.2958	-2.6083	-2.9792	-2.3375	-2.875	-2.6125	-2.5021	-26.300	115.321	5.731	212.873	-114.503	70.924	29.217	127.179	9.890	-39.250	146.553	212.833	216.389	185.996	44.824	104.270	0.0016536	0.0010304	0.00030954	1066.2	1.0251e-05	7.1961e-06	996.51	417.21	1.3787e-05	1.059e-05	468.07	218.03	178.34	93.339	1.2846e-05	122.7	0.0014706	0.0014906	0.0004099	1034.9	1.5694e-05	1.632e-05	970.45	408.29	1.5764e-05	1.6337e-05	456	212.72	175	91.628	1.605e-05	120.79	-29.579	-91.609	-36.203	-124.942	-2.851	-32.092	-125.809	-120.908	-6.881	13.356	-122.162	-118.377	-116.805	-113.285	-11.947	-115.493	-8191	255	
23658.531	1	1	0	0	0.21797	0.098433	0.20664	0.22153	0.13598	0.12732	0.12509	0.31942	0.20833	0.22959	0.051707	0.21422	0.028283	0.26621	0.27466	0.28942	-2.6042	-2.1937	-2.325	-3.0771	-1.7938	-2.5042	-2.6479	-2.3333	-2.8417	-2.3979	-2.5312	-3.1646	-2.35	-2.9417	-2.7833	-2.1521	12.914	149.687	-8.682	209.891	205.811	195.546	170.335	-112.560	185.869	53.001	184.079	193.580	-119.644	-131.759	141.129	194.120	0.0016042	0.0010906	0.00029108	1055	6.2054e-06	5.6569e-06	990.15	416.84	1.0853e-05	8.7827e-06	459.8	213.95	177.91	92.953	9.2528e-06	121.52	0.0014471	0.0014609	0.00040851	1031.2	1.5709e-05	1.6121e-05	965.34	407.68	1.5469e-05	1.6241e-05	450.35	209.87	174.01	91.234	1.575e-05	119.34	-24.102	-60.818	-46.174	-124.994	-6.383	14.431	-125.529	-120.241	14.807	-5.865	-122.020	-118.101	-116.717	-113.105	-0.288	-115.724	-8191	255	
23658.650	1	1	0	0	0.13985	0.141	0.1066	0.11775	0.10373	0.19014	0.22598	0.28064	0.12135	0.17441	0.37133	0.2527	0.26097	0.25711	0.14278	0.40962	-2.5354	-2.5104	-2.1417	-2.9688	-2.2438	-2.6458	-2.7979	-2.0854	-2.8167	-2.5104	-2.4417	-3.2542	-2.3167	-2.6417	-2.8292	-2.3187	56.342	-114.077	42.626	-53.063	211.634	-102.565	85.333	183.575	-19.574	186.497	215.752	194.296	198.475	208.342	95.721	119.478	0.0017075	0.0011555	0.00021339	1059.8	7.65e-06	7.5967e-06	984.97	417.11	1.7489e-05	5.8561e-06	460.36	215.03	178.07	93.081	1.8272e-05	122.3	0.0014365	0.0014574	0.00039965	1032	1.5637e-05	1.5693e-05	963.73	406.92	1.5562e-05	1.5704e-05	451.02	210.33	174.25	91.273	1.546e-05	120.12	-31.634	-63.566	-36.607	-125.127	-29.183	-11.652	-125.561	-120.377	21.775	-6.957	-122.020	-117.896	-116.559	-113.252	-19.565	-115.429	-8191	255	
23658.746	1	1	0	0	0.091161	0.10709	0.19737	0.17888	0.067488	0.24901	0.10915	0.21644	0.085842	0.21892	0.22899	0.27398	0.3241	0.25241	0.2229	0.26384	-2.5938	-2.6479	-2.1271	-3.1146	-2.3708	-2.4292	-2.9271	-2.0229	-2.85	-2.5375	-2.325	-3.05	-2.3979	-2.4813	-2.8479	-2.1667	125.950	-55.912	55.618	164.524	201.480	-48.506	59.473	-111.856	86.506	176.842	217.910	177.422	207.207	181.004	71.805	114.815	0.0015287	0.00089972	0.00031433	1061.9	8.8587e-06	9.2988e-06	985.89	415.66	7.657e-06	7.7488e-06	464.24	216.2	177.9	93.212	6.7767e-06	122.77	0.0014071	0.0014162	0.00039059	1033	1.5067e-05	1.5697e-05	964.6	406.25	1.4981e-05	1.5299e-05	453.95	211.43	174.27	91.557	1.5103e-05	120.69	-30.915	-30.842	-62.408	-124.902	33.842	3.909	-125.411	-120.431	34.183	-24.035	-121.938	-117.947	-116.583	-113.003	-52.764	-115.306	-8191	255	
23658.818	1	1	0	0	0.033091	0.13634	0.26101	0.28215	0.065855	0.17322	0.29282	0.18524	0.1287	0.23825	0.34959	0.3672	0.21048	0.29407	0.28415	0.41177	-2.5438	-2.6271	-2.1375	-3.0167	-2.4896	-2.4229	-3.1083	-2.1896	-2.8312	-2.875	-2.2708	-2.9875	-2.3458	-2.3167	-2.9854	-2.3417	-94.038	51.392	-38.524	128.471	-83.948	-98.447	131.604	3.788	195.155	92.687	-100.223	180.665	179.197	210.336	65.067	139.398	0.0015325	0.0008782	0.00026103	1057.4	8.7131e-06	9.7787e-06	987.92	415.22	1.2766e-05	8.9265e-06	464.25	216.76	178.15	93.606	6.705e-06	122.8	0.0013977	0.0013969	0.00039101	1033.3	1.4958e-05	1.5248e-05	967.79	407.16	1.4893e-05	1.5073e-05	454.16	212.17	174.39	91.689	1.525e-05	120.59	-26.844	-33.483	-34.141	-125.081	43.229	29.256	-125.329	-120.312	-0.843	4.918	-121.943	-117.826	-116.815	-113.066	0.748	-115.432	-8191	255	
23658.938	1	1	0	0	0.12379	0.28444	0.081688	0.30727	0.18068	0.16426	0.5381	0.10399	0.22	0.10154	0.26116	0.16686	0.31182	0.080383	0.17495	0.15038	-2.275	-2.7562	-2.0292	-3.0042	-2.3917	-2.35	-3.075	-2.2146	-2.6979	-2.7521	-2.2542	-3.0646	-2.6125	-2.5167	-2.9042	-2.4792	206.612	156.515	-31.472	180.744	171.522	186.270	183.955	33.953	130.330	30.129	174.188	189.456	214.769	203.049	-131.001	-118.034	0.0016171	0.00087223	0.00024458	1058.5	1.2029e-05	9.7213e-06	985.75	415.57	5.4966e-06	9.323e-06	457.29	215.09	177.01	92.522	1.494e-05	120.71	0.0013879	0.0013861	0.00039017	1030.6	1.4943e-05	1.5342e-05	963.59	405.86	1.4719e-05	1.5084e-05	449.21	209.38	173.42	90.74	1.4988e-05	119.06	-31.477	-57.883	-61.808	-124.816	6.922	13.290	-125.511	-120.535	28.580	23.777	-122.120	-117.991	-116.795	-113.021	31.585	-115.546	-8191	255	
23659.033	1	1	0	0	0.036399	0.070182	0.088101	0.18569	0.16208	0.27642	0.22206	0.17127	0.13874	0.15122	0.044518	0.18975	0.11437	0.30728	0.3848	0.068373	-2.325	-3.0917	-2.1708	-3.0646	-2.5542	-2.2104	-3.0125	-2.4917	-2.5146	-3.0125	-2.2979	-2.9271	-2.8375	-2.3187	-2.7792	-2.6667	-45.737	-91.652	103.080	219.317	200.776	201.605	206.779	146.741	-78.042	119.156	216.430	171.935	-137.726	203.418	-52.581	-33.028	0.0015397	0.00082998	0.00032925	1058.9	4.8348e-06	6.4986e-06	984.6	413.12	9.3884e-06	1.0141e-05	457.95	214.76	175.58	91.963	3.1816e-06	122.04	0.0013615	0.0013714	0.00037896	1029.3	1.4415e-05	1.479e-05	961.22	404.12	1.4442e-05	1.4899e-05	449.92	209.59	172.31	90.441	1.4866e-05	119.51	-32.091	-73.727	-40.261	-124.953	-10.112	12.866	-125.490	-120.490	10.835	62.022	-122.307	-118.078	-116.932	-113.358	-9.451	-115.692	-8191	255	
23659.131	1	1	0	0	0.14541	0.083242	0.29726	0.085947	0.064285	0.19306	0.17016	0.18816	0.23572	0.078891	0.17403	0.16938	0.21945	0.23347	0.16127	0.27525	-1.9646	-2.975	-2.0271	-2.9229	-2.7292	-2.2479	-2.9896	-2.5583	-2.3417	-3.0521	-2.3375	-2.8563	-2.9479	-2.3417	-2.9854	-2.5563	209.726	5.436	135.438	38.837	208.288	76.056	172.779	32.068	-76.060	-72.674	-98.268	125.364	-112.338	136.450	-15.318	152.346	0.0015397	0.00091427	0.00032615	1056	2.2742e-06	8.2365e-06	991.25	414.63	1.1086e-05	8.4018e-06	461.25	214.78	176.32	92.535	6.7085e-06	122.26	0.0013583	0.001356	0.00037509	1030.7	1.4562e-05	1.4914e-05	963.86	404.79	1.4664e-05	1.4912e-05	450.6	210.06	172.95	90.776	1.4994e-05	119.92	-28.304	-36.740	-45.103	-125.086	-41.597	30.349	-125.741	-120.634	15.867	-41.148	-121.869	-117.985	-116.633	-113.238	47.610	-115.564	-8191	255	
23659.227	1	1	0	0	0.039731	0.35043	0.12478	0.15199	0.15891	0.20426	0.25013	0.53488	0.026879	0.24708	0.43638	0.2082	0.1911	0.34089	0.12806	0.27622	-1.7396	-3.0271	-2.1375	-2.6792	-2.9562	-2.225	-3.0354	-2.6667	-2.0646	-3.0333	-2.2771	-2.6354	-3.0375	-2.1937	-2.7542	-2.7958	64.864	177.613	-73.675	69.784	75.392	49.815	136.111	162.857	-45.673	53.990	126.895	-10.107	46.999	210.354	-8.454	176.086	0.001545	0.00092235	0.0001437	1057.8	8.8246e-06	8.4726e-06	994.69	415.85	1.0426e-05	5.5589e-06	462.68	216.42	176.9	92.742	3.38e-06	123.11	0.0013655	0.0013783	0.00038578	1031	1.4759e-05	1.5182e-05	968.41	405.82	1.4952e-05	1.5239e-05	452.04	210.85	173.34	90.927	1.5037e-05	120.66	-33.890	-48.481	-61.705	-124.924	15.322	47.422	-125.498	-120.432	5.738	10.438	-122.006	-117.790	-116.530	-113.071	20.127	-115.538	-8191	255	
23659.348	1	1	0	0	0.10255	0.15228	0.072591	0.36656	0.11649	0.20476	0.061526	0.21486	0.13491	0.17357	0.11016	0.15035	0.12531	0.29867	0.050431	0.35068	-1.7521	-2.8187	-2.1937	-2.4979	-2.8979	-2.0333	-2.8312	-2.7083	-2.1	-3	-2.3958	-2.375	-2.9896	-2.3438	-2.6479	-3.0833	-32.457	172.044	-34.184	215.793	-13.091	-16.250	209.760	-48.161	-119.988	-54.677	145.617	217.260	-97.230	196.137	124.321	204.626	0.0015339	0.001001	0.00028433	1060.7	6.561e-06	3.4186e-06	988.42	416.44	1.0891e-05	9.9564e-06	458.99	213.58	176.68	92.68	4.3434e-06	121.81	0.0013822	0.0013902	0.00038918	1032.6	1.4951e-05	1.538e-05	965.15	406.04	1.4891e-05	1.5478e-05	448.78	208.91	172.88	90.759	1.562e-05	119.26	-27.134	-32.691	-15.219	-124.982	27.775	70.546	-125.408	-120.278	17.864	-27.851	-121.809	-117.663	-116.523	-113.189	-17.374	-115.344	-8191	255	
23659.443	1	1	0	0	0.014238	0.095491	0.1029	0.26856	0.08986	0.152	0.12479	0.090816	0.11958	0.17381	0.15074	0.16245	0.14932	0.147	0.20488	0.15705	-1.6792	-2.8875	-2.3146	-2.4917	-2.9437	-2.2354	-3.1458	-2.9083	-2.1417	-2.9479	-2.4792	-2.3292	-3.1562	-2.3688	-2.4917	-3.125	86.922	-8.517	-92.985	222.089	-129.887	9.619	141.963	126.034	169.971	-26.526	-67.290	107.128	111.659	163.561	-29.682	116.823	0.0014662	0.0011087	0.00018894	1058.5	1.4385e-05	9.7663e-06	988.38	413.28	1.439e-05	6.5155e-06	459.2	213.48	176.24	92.474	1.1303e-05	121.66	0.0014162	0.0014221	0.00038948	1029.3	1.5315e-05	1.5804e-05	963.59	404.44	1.5354e-05	1.5819e-05	449.43	209.26	172.92	90.739	1.567e-05	119.63	-30.752	-44.065	0.439	-124.840	-5.100	5.399	-124.816	-119.857	13.725	-20.609	-121.766	-117.462	-116.215	-112.394	-20.848	-114.830	-8191	255	
23659.539	1	1	0	0	0.16212	0.078982	0.3048	0.20939	0.1842	0.20722	0.22337	0.21694	0.060347	0.26855	0.10048	0.12779	0.18169	0.47067	0.075636	0.3565	-1.7	-2.9333	-2.2375	-2.1979	-3.0417	-2.0438	-2.6271	-2.9375	-2.1188	-3.0042	-2.7125	-2.3708	-3.1688	-2.6646	-2.3833	-3.0771	76.102	-40.597	-26.882	-121.152	-31.558	220.221	203.909	165.975	201.612	-83.964	-78.698	100.062	91.788	143.387	-31.242	191.072	0.0015703	0.00040598	0.00016796	1055.8	9.6132e-06	9.6771e-06	991.19	415.97	7.8053e-06	1.6015e-05	462.13	214.35	176.43	92.736	1.0894e-05	122.96	0.0014211	0.0014264	0.00039243	1030.6	1.5162e-05	1.579e-05	965.07	405.67	1.5089e-05	1.5556e-05	451.76	210.27	173.09	90.984	1.5541e-05	120.55	-28.252	-46.363	-23.911	-124.344	4.878	19.668	-124.941	-120.450	-6.715	18.219	-122.183	-117.706	-116.471	-112.869	-18.752	-115.409	-8191	255	
23659.637	1	1	0	0	0.19156	0.12997	0.21219	0.095912	0.22669	0.14019	0.090097	0.084303	0.10263	0.17794	0.20981	0.11314	0.25439	0.22952	0.14108	0.082803	-1.7938	-2.775	-2.6896	-2.4562	-2.7083	-2.4583	-2.45	-3.0208	-2.1833	-2.7812	-2.7646	-2.3208	-2.9625	-2.7333	-2.2729	-3.1208	153.738	-133.358	206.231	62.754	168.483	135.412	208.104	-120.863	221.306	69.294	159.025	174.703	153.333	133.603	41.789	216.193	0.0015923	0.00095474	0.00040472	1057.4	1.3e-05	9.8638e-06	988.75	414.58	6.9639e-06	1.0068e-05	464.44	215.74	177.5	92.772	9.0054e-06	123.69	0.0014155	0.0013983	0.00038986	1032.5	1.5085e-05	1.5478e-05	966.77	406.05	1.5212e-05	1.5706e-05	453.84	211.57	174.02	91.171	1.5321e-05	121.26	-29.759	-53.705	-41.523	-124.773	37.819	32.841	-125.372	-120.337	30.583	-62.934	-122.225	-118.087	-116.677	-113.204	-11.378	-115.641	-8191	255	
23659.730	1	1	0	0	0.29191	0.11699	0.20494	0.19537	0.17143	0.081518	0.16985	0.042246	0.091754	0.30894	0.13762	0.072644	0.19063	0.51114	0.30866	0.44651	-1.6458	-2.6688	-2.6583	-2.2687	-2.8521	-2.4833	-2.3167	-3.0396	-2.2708	-2.5729	-2.9188	-2.2354	-2.9354	-2.6104	-2.3083	-3.2021	167.754	-122.663	37.693	153.493	30.463	-96.156	147.491	82.328	199.281	0.029	-17.543	-63.990	218.978	214.428	38.208	124.907	0.0015156	0.00090931	0.00022833	1056	9.616e-06	6.5039e-06	994.1	415.39	5.9911e-06	4.9019e-06	462.59	215.42	176.97	92.469	1.0118e-05	121.97	0.0014108	0.0014255	0.0003862	1030.9	1.5075e-05	1.5523e-05	968	406.43	1.5241e-05	1.5474e-05	452.25	210.52	173.33	90.934	1.5277e-05	119.99	-31.614	-57.425	-62.875	-124.623	2.817	23.721	-125.050	-120.131	39.316	47.735	-121.607	-117.851	-116.976	-113.630	-20.904	-115.964	-8191	255	
23659.826	1	1	0	0	0.078661	0.23132	0.058216	0.23394	0.3508	0.21538	0.30094	0.072253	0.13453	0.22398	0.23187	0.19695	0.13649	0.4179	0.17485	0.35028	-1.8271	-2.4042	-2.8833	-2.2938	-2.925	-2.4562	-2.325	-3.1479	-2.2979	-2.4479	-2.9458	-2.1458	-2.8063	-2.6708	-2.0521	-3.2708	210.340	-88.639	9.063	-126.087	-56.164	67.114	122.054	113.343	196.653	193.357	144.292	216.029	151.488	204.072	-61.315	166.005	0.001647	0.0012039	0.00026723	1053.7	1.1005e-05	5.2362e-06	986.39	412.64	1.2596e-05	7.0388e-06	462.29	215.89	177.09	92.297	1.0878e-05	122.34	0.0013948	0.0014008	0.0003912	1028.4	1.4745e-05	1.5382e-05	962.77	405.63	1.4896e-05	1.5454e-05	451.46	210.4	173.37	90.782	1.5459e-05	120.16	-28.484	-46.328	-20.099	-125.224	8.036	16.809	-125.914	-120.748	30.347	0.900	-122.149	-118.196	-116.850	-113.423	-0.454	-115.465	-8191	255	
23659.947	1	1	0	0	0.15045	0.16757	0.20063	0.191	0.21594	0.19527	0.22353	0.12529	0.14923	0.22811	0.15196	0.30252	0.22431	0.39982	0.11946	0.33427	-1.8229	-2.3625	-2.8271	-2.0812	-2.8167	-2.6583	-2.2896	-3.1917	-2.2812	-2.3521	-3.0062	-2.4583	-2.8271	-2.9271	-2.1521	-3.1875	186.522	206.298	104.031	123.046	-8.964	-29.624	120.445	219.250	-15.491	213.307	-127.575	182.731	180.334	215.961	-86.226	-135.006	0.0017209	0.001137	0.00025732	1059.6	1.1049e-05	7.8031e-06	993.11	415.03	9.5969e-06	9.3383e-06	462.69	216.01	176.99	92.604	9.3343e-06	123.21	0.0013827	0.001394	0.00037969	1030.9	1.4663e-05	1.5101e-05	967.76	406.25	1.4693e-05	1.5154e-05	453.4	211.33	173.69	90.903	1.4885e-05	120.94	-27.326	-63.046	-72.657	-124.926	-0.859	-19.735	-125.285	-120.195	42.683	8.337	-121.691	-117.766	-116.446	-112.760	7.650	-114.945	-8191	255	
23660.043	1	1	0	0	0.11077	0.10377	0.20155	0.2868	0.086959	0.24373	0.21276	0.15385	0.22778	0.17632	0.092259	0.081376	0.20587	0.24202	0.22097	0.26916	-2.0062	-2.1646	-3.1063	-2.2521	-2.6479	-3.0292	-2.2354	-3.1042	-2.5854	-2.4042	-3.0667	-2.3167	-2.6437	-3.0917	-2.2917	-2.9979	-76.392	-90.806	179.972	210.844	83.989	54.317	87.448	-115.827	-31.666	-121.426	173.366	111.825	207.548	199.499	2.657	156.928	0.0015722	0.00058507	0.00052285	1060.2	5.8372e-06	5.7464e-06	999.53	417.84	8.3215e-06	8.4906e-06	467.85	218.97	178.36	92.956	9.58e-06	124.53	0.0013444	0.0013662	0.00037596	1032.2	1.4621e-05	1.4926e-05	973.1	407.85	1.4454e-05	1.4859e-05	457.71	213.44	174.58	91.294	1.4974e-05	121.97	-29.924	-82.672	-57.883	-124.957	45.746	20.169	-125.682	-120.420	0.900	29.611	-122.231	-118.088	-116.798	-113.247	0.755	-115.243	-8191	255	
23660.115	1	1	0	0	0.11037	0.25256	0.22117	0.10482	0.17612	0.027433	0.24608	0.17551	0.33233	0.14297	0.18119	0.34759	0.30039	0.20411	0.1492	0.40619	-2.1854	-2.2062	-2.8896	-2.2854	-2.5833	-2.8542	-2.2292	-3.1437	-2.6479	-2.0187	-2.9771	-2.4562	-2.4875	-3	-2.1833	-2.925	102.498	-31.971	-135.612	156.187	113.912	125.728	129.330	198.348	111.113	-13.754	142.957	129.080	-123.320	186.038	-42.726	170.853	0.0014399	0.00095814	0.00026435	1060	7.4485e-06	6.6932e-06	1001.6	415.7	5.2181e-06	7.9006e-06	465.48	216.69	177.24	92.751	7.8544e-06	122.85	0.0013667	0.001386	0.00037924	1033.4	1.4705e-05	1.4909e-05	974.14	407.56	1.4697e-05	1.5166e-05	454.81	212.13	173.86	91.054	1.5029e-05	120.47	-30.663	-93.293	-29.034	-124.810	24.356	3.520	-125.322	-120.322	-5.347	-27.935	-121.956	-118.008	-116.747	-113.184	15.440	-115.588	-8191	255	
23660.211	1	1	0	0	0.21904	0.14536	0.19592	0.1541	0.16773	0.072632	0.27382	0.22535	0.30093	0.26562	0.13092	0.29482	0.41486	0.032479	0.20371	0.31803	-2.3292	-2.0542	-2.9375	-2.4854	-2.3667	-2.9813	-2.3479	-2.8479	-2.8042	-2.1354	-3.05	-2.6125	-2.5229	-3.1896	-2.3167	-2.7938	-85.197	-50.575	211.424	-105.582	156.897	103.361	204.811	127.102	-37.449	-13.978	143.474	179.082	-95.712	23.437	157.917	187.020	0.0015071	0.00079312	0.00027772	1056.2	8.4367e-06	1.7704e-06	991.11	415.03	1.0708e-05	1.4479e-05	466.09	215.93	177.41	93.12	8.2531e-06	123.36	0.0013498	0.0013607	0.00038243	1029.5	1.4551e-05	1.4896e-05	965.89	406.97	1.4475e-05	1.4966e-05	454.72	211.68	174.2	91.238	1.4775e-05	121.03	-31.676	-25.906	-58.179	-125.844	6.995	-103.497	-126.087	-120.924	33.022	19.126	-122.692	-118.602	-117.265	-113.848	16.127	-116.184	-8191	255	
23660.332	1	1	0	0	0.046066	0.14644	0.19186	0.21055	0.17629	0.16335	0.054178	0.16136	0.058164	0.030032	0.10111	0.016528	0.086824	0.15162	0.1579	0.43329	-2.5771	-2.0896	-2.9396	-2.5479	-2.1813	-3.1833	-2.3125	-2.6104	-2.8583	-2.1458	-2.8875	-2.9021	-2.325	-3.1188	-2.175	-2.55	113.359	22.396	77.956	-107.646	-53.699	90.440	-51.361	192.970	-65.886	105.149	206.945	-125.498	39.330	141.273	-105.683	145.364	0.0015699	0.00077576	0.00018622	1058.7	8.7146e-06	8.1883e-06	998.54	415.4	1.4849e-05	1.363e-05	468.87	217.99	178.14	93.492	1.1636e-05	124.2	0.0013512	0.0013571	0.0003745	1030.7	1.4355e-05	1.4675e-05	970.93	407.26	1.4385e-05	1.4851e-05	456.74	213.62	174.93	91.769	1.4443e-05	121.91	-32.774	-29.475	-65.969	-125.513	36.752	41.477	-126.518	-120.976	45.495	11.562	-122.581	-118.629	-117.366	-113.815	6.203	-116.389	-8191	255	
23660.428	1	1	0	0	0.18553	0.09156	0.22625	0.08568	0.11137	0.079341	0.27336	0.31764	0.082619	0.17023	0.1502	0.20405	0.19294	0.18661	0.14394	0.14262	-2.4104	-2.0125	-2.7417	-2.8375	-2.0104	-2.9271	-2.5812	-2.7083	-2.8625	-2.1646	-2.8458	-2.8417	-2.1396	-3.2854	-2.4542	-2.5708	7.906	90.738	164.899	-45.263	107.167	-6.192	-131.665	140.505	-138.555	159.474	163.927	175.941	23.901	164.046	41.528	160.173	0.0014536	0.00095503	0.00028406	1061.2	1.4477e-05	5.532e-06	1005.8	418.07	9.6482e-06	1.1349e-05	469.88	220.27	179.02	93.978	8.0838e-06	125.36	0.0013444	0.0013422	0.00036619	1034	1.4272e-05	1.4503e-05	976.02	409.19	1.4237e-05	1.4579e-05	459.43	215.11	175.95	92.18	1.4631e-05	122.99	-31.529	-57.870	-25.042	-125.574	9.835	7.092	-125.954	-121.074	22.268	20.855	-122.609	-118.680	-117.465	-113.781	-3.613	-115.786	-8191	255	
23660.523	1	1	0	0	0.29866	0.16919	0.24887	0.24712	0.50073	0.067833	0.26556	0.34034	0.16821	0.091811	0.21592	0.060019	0.085197	0.33422	0.24214	0.13526	-2.7812	-2.2375	-2.6188	-2.8854	-1.9562	-2.9146	-2.7083	-2.3896	-2.9271	-2.2417	-3.0146	-3.0125	-2.2604	-3.0687	-2.5271	-2.5042	174.011	198.898	-33.882	160.730	88.379	-38.474	127.251	108.429	105.992	194.961	-12.434	-108.739	-133.796	196.994	152.473	133.471	0.0017184	0.00097414	0.0003171	1065	7.4908e-06	6.3391e-06	995.93	418.34	6.9268e-06	1.2301e-05	468.9	218.79	178.53	93.77	4.9646e-06	123.98	0.00134	0.0013531	0.00036846	1036.1	1.435e-05	1.4651e-05	974.3	409.31	1.4184e-05	1.4546e-05	458.38	213.73	175.25	91.874	1.4567e-05	121.61	-29.347	-84.312	-65.276	-125.557	18.515	10.460	-126.039	-121.063	-17.785	6.165	-122.698	-118.645	-117.238	-113.807	8.356	-115.917	-8191	255	
23660.619	1	1	0	0	0.30424	0.22126	0.22769	0.23762	0.19166	0.23346	0.33742	0.14903	0.064096	0.44541	0.17251	0.22438	0.14675	0.42019	0.388	0.099517	-2.7542	-2.2333	-2.6125	-3.1021	-2.1562	-2.8396	-2.6	-2.3438	-3.0604	-2.0208	-2.6021	-2.9479	-2.1188	-2.9417	-2.6292	-2.5062	89.013	-88.980	-30.566	129.963	159.397	-88.426	129.264	213.280	145.303	42.810	145.844	-127.962	150.017	183.556	182.948	145.804	0.0016021	0.00045069	0.00045452	1059.6	5.5361e-06	4.7097e-06	993.07	418.14	1.5505e-05	8.9853e-06	463.94	217.6	178.53	93.387	3.9884e-06	123.49	0.0013442	0.001348	0.00037446	1033	1.425e-05	1.4669e-05	969.67	407.89	1.4472e-05	1.4767e-05	455.8	212.78	174.63	91.651	1.4705e-05	121.37	-29.169	-81.372	-30.526	-125.303	-3.196	-1.492	-126.007	-120.750	18.385	37.092	-122.603	-118.604	-117.220	-113.831	17.155	-116.014	-8191	255	
23660.717	1	1	0	0	0.097761	0.19286	0.23818	0.21752	0.16388	0.057642	0.19278	0.18918	0.27216	0.18148	0.14463	0.081283	0.20649	0.39858	0.13936	0.37734	-2.4729	-2.3708	-2.45	-2.9479	-2.2083	-2.7979	-2.7396	-2.4437	-3.0125	-2.4437	-2.6021	-3.225	-2.3688	-2.8917	-2.8104	-2.4813	143.891	34.384	93.906	174.849	34.436	46.555	42.427	126.308	-10.940	202.328	73.536	203.298	-82.344	177.320	-89.451	141.792	0.0015542	0.0010072	0.00031018	1057.5	8.4539e-06	8.402e-06	996.45	419.02	1.3133e-05	1.039e-05	468.42	218.58	179.04	93.703	2.147e-06	124.25	0.00135	0.0013302	0.00037174	1032.8	1.4498e-05	1.4771e-05	972.67	408.8	1.421e-05	1.4988e-05	458.48	213.89	175.17	91.905	1.4503e-05	122.02	-29.824	-55.263	-39.640	-125.658	-17.654	22.917	-126.231	-121.029	9.007	8.553	-122.313	-118.507	-117.290	-113.774	7.553	-115.834	-8191	255	
23660.812	1	1	0	0	0.094186	0.083279	0.25576	0.16924	0.2462	0.18795	0.25133	0.36533	0.13822	0.072308	0.1868	0.20146	0.3301	0.17404	0.10779	0.21599	-2.7292	-2.4771	-2.1708	-3.1083	-2.2083	-2.6979	-2.9938	-2.1896	-3.0792	-2.6396	-2.4833	-3.2521	-2.25	-2.7333	-2.7271	-2.3646	-73.664	-13.892	216.065	169.172	-27.818	-38.449	163.222	147.725	141.306	-80.980	201.279	199.806	149.638	177.155	155.902	171.172	0.0015613	0.0014259	0.00022261	1063.6	9.1771e-06	4.8727e-06	1000.1	420.2	9.901e-06	9.9386e-06	471.99	220.23	179.55	94.174	6.5426e-06	125.57	0.0013363	0.0013483	0.00037514	1036	1.4598e-05	1.4969e-05	977.76	410.15	1.442e-05	1.4751e-05	461.58	215.72	176.08	92.385	1.496e-05	123.02	-33.703	-57.743	-42.436	-125.390	19.370	33.930	-125.964	-120.809	8.623	-11.842	-122.131	-118.364	-117.140	-113.696	38.387	-115.836	-8191	255	
23660.908	1	1	0	0	0.27929	0.10044	0.14751	0.19795	0.02103	0.26238	0.28734	0.13299	0.24085	0.235	0.26506	0.24911	0.23798	0.38273	0.029224	0.38144	-2.5333	-2.3812	-2.1958	-3.1667	-2.2396	-2.6437	-2.9354	-2.3833	-2.8187	-2.5208	-2.2646	-3.0458	-2.1833	-2.5771	-2.9271	-2.2062	-97.709	21.558	-83.863	140.987	45.547	1.334	152.826	142.997	200.127	-112.005	184.767	151.383	-91.676	-91.354	-102.370	158.848	0.0016446	0.0010103	0.00026808	1062.9	4.1226e-06	1.1838e-05	1010.5	418.74	8.822e-06	9.8007e-06	468.78	219.94	179.66	93.562	1.2171e-05	124.21	0.0013886	0.0013608	0.00037927	1037.7	1.4595e-05	1.4887e-05	982.14	410.1	1.4629e-05	1.4927e-05	459.87	215.04	175.65	91.908	1.4756e-05	121.73	-32.749	-65.398	-32.582	-125.559	59.588	1.791	-126.079	-121.031	-1.026	-7.605	-122.556	-118.566	-117.413	-113.845	5.614	-115.952	-8191	255	
23661.027	1	1	0	0	0.16463	0.21021	0.24494	0.12527	0.19646	0.21039	0.089876	0.19671	0.14795	0.23554	0.20567	0.22569	0.13412	0.27568	0.38035	0.16324	-2.4979	-2.6354	-2.0312	-2.9938	-2.4354	-2.6604	-3.0396	-2.125	-2.775	-2.7146	-2.1792	-3.0812	-2.6229	-2.4979	-3.0021	-2.2542	-125.763	105.593	169.670	140.112	117.823	97.667	154.339	-124.253	138.481	167.291	174.545	133.172	198.089	189.114	56.887	172.724	0.0015936	0.00048761	0.00016469	1062.6	6.2257e-06	6.4638e-06	1000.3	417.81	7.4315e-06	1.5131e-05	465.82	218.15	178.24	93.118	9.4989e-06	123.58	0.0013566	0.0013583	0.00037327	1034.3	1.4421e-05	1.4894e-05	974.6	408.72	1.4558e-05	1.4657e-05	457.22	213.32	174.45	91.452	1.47e-05	121.34	-29.451	-100.266	-37.263	-125.550	-8.732	23.749	-125.996	-120.888	-48.200	6.771	-122.406	-118.506	-117.294	-113.770	6.033	-115.899	-8191	255	
23661.123	1	1	0	0	0.091877	0.1909	0.20555	0.20097	0.30102	0.12763	0.17944	0.11565	0.24381	0.033933	0.0702	0.16649	0.31034	0.16702	0.22756	0.20016	-2.3146	-2.7438	-2.0979	-3.2104	-2.3833	-2.5521	-3.1146	-2.2896	-2.775	-2.7542	-2.3104	-3.175	-2.8354	-2.4708	-2.9896	-2.3542	150.841	-113.910	188.497	204.989	-125.612	51.827	-78.933	157.323	154.066	135.250	-20.635	176.060	11.021	176.147	185.677	170.924	0.0015654	0.0013104	0.0003075	1062.2	5.8309e-06	1.2301e-05	1002	418.62	1.7345e-05	1.2677e-05	467.44	219.66	179.13	93.643	1.0963e-05	124.56	0.0013751	0.0013648	0.00038665	1035.4	1.4529e-05	1.5147e-05	974.83	409.88	1.4676e-05	1.5102e-05	458.38	214.55	175.26	91.879	1.5116e-05	122.03	-31.024	-62.889	-34.972	-125.486	-12.017	11.842	-126.100	-121.149	56.056	-8.789	-122.520	-118.628	-117.174	-113.480	13.075	-115.879	-8191	255	
23661.221	1	1	0	0	0.057992	0.14142	0.33781	0.1275	0.26932	0.1033	0.34221	0.2439	0.035019	0.10558	0.2231	0.36915	0.20977	0.087736	0.14989	0.26408	-2.0604	-2.9958	-1.9708	-3.0625	-2.5438	-2.1417	-3.1188	-2.4396	-2.4271	-2.8667	-2.3479	-3.1104	-2.7396	-2.2812	-3.1104	-2.4958	176.730	-119.186	-64.993	-59.153	203.882	86.184	212.141	181.270	167.091	215.066	155.106	196.768	220.403	114.885	216.870	191.897	0.001537	0.00095639	0.00016092	1063	9.4217e-06	4.3089e-06	1004.9	418.45	7.0966e-06	1.337e-05	470.8	220.49	178.98	94.16	8.8683e-06	125.5	0.0013858	0.0013714	0.0003923	1037.5	1.4803e-05	1.5377e-05	979.35	409.91	1.5098e-05	1.5336e-05	461.14	215.82	175.71	92.344	1.524e-05	123.15	-31.343	-53.219	-76.511	-125.011	15.488	24.405	-125.878	-120.670	24.525	7.059	-122.102	-118.447	-116.998	-113.347	3.443	-115.509	-8191	255	
23661.340	1	1	0	0	0.10891	0.21967	0.20311	0.20604	0.1662	0.22645	0.25923	0.32444	0.13506	0.1559	0.1694	0.038446	0.26251	0.38357	0.24286	0.45146	-1.8333	-2.9208	-2.125	-2.8167	-2.7625	-2.25	-2.9188	-2.525	-2.1917	-3.1437	-2.3833	-3	-2.9437	-2.3312	-2.8187	-2.6292	198.571	167.919	-84.385	-43.692	-47.805	87.742	158.104	171.500	5.137	187.006	216.044	211.949	179.886	-108.340	-5.110	164.884	0.0016197	0.0012508	0.00030334	1069.9	9.7259e-06	8.8e-06	1002.1	420.32	4.0734e-06	1.2063e-05	470.53	219.21	178.85	93.535	1.0551e-05	124.47	0.0014146	0.0014064	0.0003957	1040.9	1.5016e-05	1.5591e-05	979.98	410.56	1.4943e-05	1.5627e-05	460.62	214.65	175.77	92.065	1.5467e-05	122.05	-28.419	-60.971	-64.323	-125.013	-38.231	0.903	-125.634	-120.481	9.082	17.940	-121.913	-117.764	-116.724	-113.200	-23.312	-115.326	-8191	255	
23661.412	1	1	0	0	0.25712	0.15198	0.12759	0.22239	0.43098	0.10063	0.14725	0.27046	0.19063	0.041206	0.14914	0.091059	0.042997	0.3007	0.30053	0.20328	-1.875	-3.0167	-2.2583	-2.7604	-2.8333	-2.1375	-2.9583	-2.7313	-2.2562	-2.9042	-2.3146	-2.4646	-2.9583	-2.0979	-2.7875	-2.7917	201.869	160.794	-77.374	152.931	88.209	-83.273	116.903	-134.433	180.368	109.191	-130.432	-91.897	152.252	172.395	-22.132	205.138	0.0014923	0.00059216	0.0004215	1065.3	5.0157e-06	6.655e-06	996.5	417.68	1.3126e-05	9.0118e-06	464.65	217.77	178.75	93.81	3.0972e-06	123.55	0.0014207	0.0013985	0.00039339	1035.7	1.4967e-05	1.5578e-05	973.71	408.61	1.5115e-05	1.5386e-05	456.39	213.33	174.73	92.022	1.5208e-05	121.6	-27.845	-65.132	-44.154	-125.371	-29.778	20.365	-125.444	-120.567	12.526	34.322	-121.969	-117.817	-116.504	-113.098	41.689	-115.893	-8191	255	
23661.508	1	1	0	0	0.057786	0.072888	0.1509	0.090116	0.067979	0.23437	0.264	0.27017	0.27141	0.25457	0.15208	0.045596	0.13593	0.24122	0.16871	0.17969	-1.6854	-2.975	-2.2604	-2.5917	-2.9083	-2.2042	-2.9833	-2.9604	-2.2396	-3.0187	-2.4188	-2.4896	-3.0604	-2.5375	-2.5792	-2.9375	-63.249	69.515	-60.378	40.627	215.317	-118.437	-138.676	201.650	170.137	16.800	206.078	63.337	2.235	-134.088	45.834	154.033	0.0013678	0.00083682	0.00030551	1060.9	4.4806e-06	8.0924e-06	1003	417.7	1.4681e-05	1.0835e-05	470.12	219.56	179.79	94.216	9.7936e-06	125.03	0.0014122	0.0014186	0.00039173	1034.3	1.4831e-05	1.5338e-05	974.53	409.11	1.4837e-05	1.5181e-05	458.95	214.44	175.76	92.379	1.5181e-05	122.61	-31.804	-52.795	-39.404	-125.339	25.574	-23.389	-125.671	-120.882	31.618	38.441	-122.176	-118.355	-117.048	-113.507	-11.980	-115.483	-8191	255	
23661.629	1	1	0	0	0.117	0.2322	0.10875	0.27044	0.094944	0.14626	0.1223	0.32168	0.2116	0.32342	0.34447	0.10524	0.16152	0.34223	0.14483	0.087476	-1.8667	-2.8229	-2.2604	-2.5729	-2.8646	-2.2333	-2.7333	-2.8458	-2.1562	-2.9437	-2.7625	-2.325	-3.2583	-2.4604	-2.5854	-3.1583	0.801	-80.923	184.207	181.431	73.007	51.993	195.891	164.268	30.872	-67.693	212.006	89.722	173.807	210.448	-93.829	-121.400	0.0016068	0.00054288	0.00020049	1062.8	8.4769e-06	8.6219e-06	1008.7	419.74	1.0588e-05	8.9563e-06	473.37	220.89	180.9	94.944	1.037e-05	126.61	0.0013723	0.0013935	0.00037752	1036.2	1.4327e-05	1.5124e-05	980.66	410.7	1.4697e-05	1.485e-05	462.35	216.62	176.88	92.971	1.4714e-05	124.15	-32.637	-9.734	-91.808	-125.101	36.473	46.652	-125.297	-120.557	-9.803	32.621	-121.670	-117.438	-116.816	-113.184	35.874	-115.398	-8191	255	
23661.723	1	1	0	0	0.31854	0.11351	0.2143	0.34639	0.072017	0.33698	0.32512	0.12917	0.091836	0.22712	0.1861	0.29093	0.11506	0.16401	0.34955	0.263	-1.7333	-2.9562	-2.55	-2.3667	-2.9437	-2.1479	-2.5875	-3.1333	-1.9937	-2.775	-2.5458	-2.4042	-3.1354	-2.5167	-2.6896	-3.1271	69.687	47.411	96.169	186.292	218.937	157.588	119.416	170.443	-68.938	113.102	136.587	-108.453	-122.027	-137.180	127.070	146.942	0.0015566	0.0008151	0.00021194	1066.7	1.3748e-05	6.0958e-06	1008.1	420.76	1.0563e-05	7.8558e-06	473.82	221.77	180.61	94.767	1.7407e-05	126.2	0.001357	0.0013159	0.00037319	1040.3	1.4035e-05	1.469e-05	984.63	411.54	1.413e-05	1.435e-05	463.34	217.06	176.84	92.989	1.4207e-05	123.6	-30.318	-92.277	-37.626	-124.393	21.278	-1.317	-125.024	-119.934	-14.121	-8.090	-121.983	-117.643	-116.702	-113.639	8.869	-116.050	-8191	255	
23661.818	1	1	0	0	0.12679	0.2886	0.016315	0.21584	0.088252	0.075571	0.05114	0.050634	0.15951	0.34114	0.30928	0.33577	0.19941	0.27504	0.13002	0.3401	-1.7708	-2.7687	-2.6729	-2.2021	-3.0583	-2.5083	-2.5271	-2.8854	-2.0854	-2.8146	-2.7	-2.3187	-3.2458	-2.5104	-2.3958	-3.3396	201.141	189.870	105.923	192.658	171.536	139.380	-73.573	216.679	184.457	67.607	192.109	111.873	213.936	186.917	99.029	179.787	0.0016538	0.00070279	0.00046755	1064.2	8.3683e-06	7.7641e-06	1004.3	421.03	1.4256e-05	9.8083e-06	472.58	221.37	180.25	94.14	1.4745e-05	125.39	0.0013232	0.001299	0.00036092	1034.8	1.3663e-05	1.4119e-05	978.18	410.34	1.3829e-05	1.4173e-05	461.26	215.45	176.03	92.509	1.4054e-05	123.1	-30.447	-82.834	-43.451	-125.462	25.940	17.669	-125.924	-120.925	19.208	20.418	-122.289	-118.397	-116.933	-113.799	-7.817	-116.091	-8191	255	
23661.914	1	1	0	0	0.21623	0.044036	0.066448	0.32018	0.061442	0.057315	0.28137	0.27106	0.30622	0.14416	0.22485	0.089022	0.048549	0.20564	0.27013	0.25891	-1.7313	-2.5938	-2.7917	-2.2208	-2.8354	-2.4708	-2.4437	-3.15	-2.2625	-2.6917	-2.8792	-2.3271	-3.1396	-2.6833	-2.3125	-3.3375	193.739	102.734	57.246	141.408	32.411	-9.542	186.643	-119.481	-0.072	89.044	143.051	-23.962	90.546	193.417	-88.498	154.864	0.0017114	0.00081546	0.00015718	1064.6	9.2199e-06	4.2473e-06	1007	421.14	4.4137e-06	8.5668e-06	471.02	221.46	180.55	94.773	5.0048e-06	125.84	0.0012908	0.0012853	0.00036333	1035.1	1.3658e-05	1.3938e-05	981.37	410.89	1.3716e-05	1.4037e-05	461.95	216.8	176.98	92.848	1.4023e-05	123.7	-31.481	-29.291	217.948	-125.319	22.864	-46.683	-126.010	-121.057	-23.463	32.893	-122.485	-118.413	-117.431	-113.916	-27.845	-116.071	-8191	255	
23662.012	1	1	0	0	0.13746	0.33466	0.19901	0.3517	0.1679	0.23437	0.12849	0.18994	0.23696	0.08818	0.065806	0.48884	0.18648	0.22338	0.16742	0.20004	-1.8292	-2.6125	-2.9208	-2.2958	-2.8583	-2.4	-2.3479	-3.175	-2.3708	-2.6667	-2.975	-2.2958	-2.9104	-2.8792	-2.2646	-3.2479	-61.273	36.053	-89.443	169.427	-16.802	-62.765	159.128	179.640	86.588	47.596	120.942	155.855	-123.318	-118.847	-62.821	-69.416	0.0016108	0.00097775	0.000154	1069.9	1.6193e-06	2.8913e-06	1012.6	422.75	7.2319e-06	1.2098e-05	476.42	222.93	181.55	95.119	7.1574e-06	127.28	0.0013103	0.0012991	0.00035559	1039.3	1.3898e-05	1.4146e-05	986.34	412.67	1.3809e-05	1.438e-05	465.73	217.98	177.45	93.215	1.406e-05	124.64	-29.897	-58.139	-79.317	-125.494	98.801	1.717	-125.994	-120.959	39.501	8.264	-122.424	-118.297	-117.301	-113.765	-20.127	-115.927	-8191	255	
23662.107	1	1	0	0	0.26644	0.12106	0.12907	0.30392	0.028051	0.13421	0.14434	0.095694	0.12567	0.2061	0.11154	0.13264	0.32318	0.15925	0.34626	0.12527	-1.9688	-2.4271	-2.8396	-2.3917	-2.8604	-2.9229	-2.3438	-3.0792	-2.3792	-2.2854	-2.975	-2.2062	-2.8417	-2.825	-2.0271	-3.1646	196.020	-26.491	-10.909	207.015	10.742	-121.288	106.967	99.786	168.835	-96.569	159.097	-127.992	196.647	-129.349	-1.181	206.440	0.0016049	0.00085725	0.00026872	1073.8	1.3967e-05	6.6749e-06	1015.9	422.37	7.1499e-06	7.8518e-06	476.2	222.93	180.51	94.681	1.2778e-05	126.05	0.0013054	0.0013002	0.00036173	1041.5	1.3894e-05	1.4275e-05	990.76	412.93	1.3844e-05	1.4371e-05	466.35	218.14	177.25	92.879	1.4187e-05	123.97	-29.957	-57.533	-42.294	-125.464	2.065	10.872	-126.114	-121.055	4.321	36.456	-122.616	-118.403	-117.194	-113.707	-9.037	-116.119	-8191	255	
23662.203	1	1	0	0	0.020358	0.14334	0.16736	0.16401	0.056682	0.089662	0.16682	0.23612	0.12809	0.034656	0.40078	0.16927	0.1367	0.13923	0.1211	0.33598	-2.0396	-2.325	-2.9146	-2.3583	-2.7229	-2.9479	-2.4083	-2.9813	-2.6854	-2.3208	-3.1583	-2.6604	-2.7625	-3.1021	-2.1229	-3.1854	176.653	-31.482	-92.842	183.378	5.330	-55.187	-126.426	76.103	91.367	69.001	160.951	115.041	163.258	178.789	103.564	138.349	0.0015045	0.00097627	7.926e-05	1064.5	5.5348e-06	9.2674e-06	1006.9	420.99	9.2803e-06	7.3055e-06	468.7	220.24	179.66	94.373	6.3045e-06	125.92	0.0013219	0.0013088	0.00035435	1038	1.3958e-05	1.4343e-05	981.1	411.39	1.3755e-05	1.42e-05	460.62	215.52	175.79	92.413	1.4221e-05	123.44	-27.016	-37.275	-74.981	-125.425	32.581	-11.670	-125.851	-120.787	0.998	29.452	-122.486	-118.287	-117.115	-113.575	39.608	-115.840	-8191	255	
23662.301	1	1	0	0	0.25896	0.13999	0.26927	0.2541	0.34146	0.028274	0.25905	0.25002	0.20184	0.30024	0.26718	0.12391	0.20737	0.41733	0.095233	0.48826	-2.1292	-2.2083	-2.9313	-2.4479	-2.6562	-3.0229	-2.3104	-2.8667	-2.75	-2.2042	-3.2146	-2.3042	-2.4542	-3.0875	-2.2188	-2.9875	-58.599	119.629	-127.765	183.404	-59.778	-2.072	191.051	165.201	-87.161	30.118	147.161	156.240	26.344	199.170	25.092	199.326	0.0016768	0.00058619	0.00038769	1063	4.1211e-06	1.0229e-05	1007.9	418.62	1.1903e-05	1.3065e-05	475.62	220.83	179.68	94.438	8.5868e-06	125.98	0.0013227	0.0013038	0.00036164	1035.1	1.3909e-05	1.4276e-05	981.01	409.83	1.3715e-05	1.418e-05	462.51	216.13	175.85	92.568	1.4345e-05	123.52	-29.852	-80.485	-39.765	-125.560	1.802	-5.768	-126.077	-120.755	41.045	-27.275	-122.457	-118.284	-116.890	-113.659	-8.595	-115.902	-8191	255	
23662.422	1	1	0	0	0.063024	0.026909	0.16619	0.074239	0.10075	0.073191	0.23336	0.13608	0.35389	0.27477	0.1996	0.29414	0.206	0.26327	0.11497	0.32276	-2.3896	-1.9083	-3.0083	-2.4167	-2.4938	-3.0167	-2.2896	-3.0062	-2.6854	-1.9792	-3.2	-2.6667	-2.4	-3.1813	-2.1646	-2.9792	39.951	92.788	-85.630	147.708	8.423	-9.050	204.872	202.118	-24.599	-77.615	121.115	194.046	195.905	212.615	77.274	146.797	0.0016612	0.001023	0.00023562	1064	6.3263e-06	6.1291e-06	1013	420.23	8.3607e-06	1.9311e-06	474.43	221.87	179.58	94.294	4.3443e-06	126.69	0.0013411	0.0013196	0.00036382	1035.9	1.4192e-05	1.4608e-05	983.59	411.29	1.4195e-05	1.4715e-05	464.17	216.81	176.29	92.744	1.4795e-05	124.44	-26.886	-79.772	-43.543	-125.405	25.907	13.756	-125.888	-120.661	25.825	85.432	-122.487	-118.308	-116.947	-113.471	-5.049	-116.051	-8191	255	
23662.518	1	1	0	0	0.11651	0.11236	0.20922	0.041453	0.25687	0.26007	0.17852	0.14881	0.20618	0.067478	0.12228	0.15741	0.10471	0.13063	0.28413	0.12055	-2.3458	-2.0687	-2.7938	-2.6396	-2.325	-2.9437	-2.4458	-2.7333	-2.8812	-2.2958	-3.05	-2.45	-2.5042	-3.2562	-2.1333	-2.8333	-67.513	63.813	-26.460	214.186	67.026	111.794	-99.321	-73.521	-80.137	-88.082	145.001	219.553	141.177	-46.555	199.819	176.040	0.0015822	0.00076332	0.00020519	1067.9	1.0554e-05	1.0356e-05	1010.1	423.05	1.6621e-05	1.0981e-05	476.25	221.95	179.55	94.548	1.2258e-05	126.74	0.0013512	0.0013592	0.00036885	1038.7	1.4355e-05	1.4504e-05	986.92	411.48	1.4373e-05	1.4904e-05	465.58	217.4	176.46	92.919	1.4871e-05	124.36	-27.948	-54.368	-77.428	-125.146	2.956	27.411	-125.704	-120.696	-5.463	14.947	-122.037	-117.855	-116.773	-113.289	11.863	-115.764	-8191	255	
23662.613	1	1	0	0	0.1524	0.10008	0.20249	0.27981	0.16769	0.10051	0.2124	0.16277	0.096937	0.08955	0.16449	0.52196	0.30516	0.21454	0.085662	0.12698	-2.6562	-2.1667	-2.8688	-2.675	-2.0292	-2.8	-2.3479	-2.5667	-3.0563	-2.2542	-2.85	-2.8333	-2.2313	-3.3229	-2.4313	-2.5896	65.483	31.483	17.399	107.184	135.215	98.056	-36.310	157.322	190.946	38.643	121.525	210.735	200.178	146.411	118.139	-138.235	0.0015916	0.001122	0.00028969	1067.4	6.2561e-06	9.6684e-06	1008.1	419.42	1.2829e-05	1.1654e-05	468.85	220.42	179.72	94.181	7.3846e-06	125.52	0.0013671	0.0013491	0.00037115	1037.5	1.4717e-05	1.4755e-05	981.47	410.44	1.4537e-05	1.4989e-05	460.46	215.01	175.4	92.334	1.4711e-05	123	-27.374	-70.995	-67.677	-124.865	-9.314	22.306	-125.842	-120.350	12.078	-26.461	-121.768	-117.999	-116.507	-112.905	12.627	-115.392	-8191	255	
23662.709	1	1	0	0	0.074714	0.16451	0.033108	0.14486	0.17222	0.12728	0.17647	0.27617	0.26449	0.036381	0.025526	0.077696	0.14057	0.24224	0.11007	0.137	-2.6854	-2.0854	-2.8167	-2.9146	-2.0542	-2.925	-2.5458	-2.4854	-2.9021	-2.2687	-2.6958	-3.0208	-2.2083	-3.05	-2.6292	-2.5104	116.821	198.023	176.733	176.385	190.689	-91.210	15.759	128.451	201.817	-65.450	107.658	-133.752	141.219	-109.083	-100.783	121.117	0.0016229	0.0010222	0.00012396	1061.5	8.8713e-06	6.5995e-06	1006.6	420.21	7.4561e-06	8.6927e-06	471.85	220.86	180.06	94.766	1.0158e-05	126.3	0.0013508	0.0013696	0.00037415	1034.4	1.4526e-05	1.4774e-05	981.21	410.32	1.416e-05	1.4796e-05	461.29	215.26	176.04	92.662	1.466e-05	123.68	-28.428	-64.758	30.813	-124.587	27.128	14.721	-125.607	-120.111	-0.665	-3.137	-121.362	-117.999	-116.558	-112.882	-6.732	-114.807	-8191	255	
23662.805	1	1	0	0	0.20765	0.14759	0.14128	0.21393	0.075956	0.12133	0.24892	0.28521	0.13988	0.13241	0.060896	0.12516	0.092728	0.33918	0.337	0.2481	-2.4208	-2.2333	-2.5938	-3.0146	-2.1042	-2.8792	-2.7125	-2.2854	-2.9021	-2.3479	-2.5312	-2.9542	-2.3375	-2.975	-2.425	-2.5083	-110.483	-99.825	-26.185	218.941	-0.582	-3.627	184.073	171.900	142.362	48.593	-57.256	180.517	154.001	199.408	102.199	190.348	0.0016509	0.00083391	0.00015961	1070	9.4458e-06	5.1825e-06	1012.2	422.74	1.0045e-05	8.4216e-06	473.5	221.97	180.69	94.678	6.6894e-06	127.04	0.001348	0.0013524	0.00037742	1039.5	1.4396e-05	1.4687e-05	985.33	411.76	1.4343e-05	1.4809e-05	464.74	216.91	176.53	92.909	1.4686e-05	124.63	-28.919	-58.277	-47.318	-124.470	2.498	30.110	-124.625	-119.659	7.495	6.608	-121.517	-118.060	-116.904	-113.556	2.276	-115.837	-8191	255	
23662.900	1	1	0	0	0.13072	0.15215	0.17908	0.031989	0.20802	0.26377	0.27253	0.14509	0.079811	0.16921	0.33064	0.26077	0.1408	0.25688	0.13671	0.46396	-2.6979	-2.1729	-2.3917	-2.9562	-2.025	-2.7729	-2.8604	-2.1208	-3.0917	-2.4104	-2.5563	-3.0708	-2.1854	-2.8542	-2.7521	-2.1896	-23.715	93.251	120.633	175.972	-103.686	205.549	120.324	185.544	-135.907	65.478	143.455	192.231	167.396	212.142	130.949	175.810	0.0015758	0.0010693	0.00035479	1068.6	1.0272e-05	6.513e-06	1014.6	421.85	9.7331e-06	9.0402e-06	479.66	221.46	181.01	94.964	8.5803e-06	126.7	0.0013572	0.0013587	0.00037115	1040	1.4489e-05	1.4909e-05	988.35	411.99	1.4446e-05	1.4689e-05	467.64	217.56	176.91	93.153	1.4652e-05	124.43	-31.406	-65.065	-53.083	-125.488	23.217	10.733	-125.650	-120.720	8.588	18.447	-122.382	-118.398	-117.058	-113.492	34.545	-115.994	-8191	255	
23663.020	1	1	0	0	0.17555	0.14433	0.14093	0.14361	0.3026	0.10221	0.30476	0.15691	0.20726	0.18761	0.036295	0.082824	0.13206	0.28882	0.19165	0.44869	-2.5417	-2.3146	-2.2917	-3.1292	-2.0958	-2.4396	-2.9104	-2.1417	-2.8854	-2.5146	-2.4646	-3.1333	-2.3771	-2.6063	-2.8875	-2.4042	-79.403	113.437	103.023	-133.940	215.577	-86.674	171.183	170.761	215.640	-80.415	52.766	-72.275	-128.857	150.940	193.954	151.953	0.0016299	0.0009457	0.00034462	1066.4	2.2305e-06	9.183e-06	1005.9	422.91	1.2444e-05	4.1126e-06	472.99	220.42	180.2	94.648	5.2607e-06	125.58	0.0013438	0.0013493	0.00037505	1038.2	1.4329e-05	1.4755e-05	983.29	411.95	1.4426e-05	1.4922e-05	462.42	215.98	176.27	92.664	1.443e-05	123.24	-26.441	-44.172	-58.618	-125.513	-9.831	45.547	-125.928	-120.543	8.000	5.560	-122.561	-118.305	-117.076	-113.532	-11.530	-115.890	-8191	255	
23663.115	1	1	0	0	0.24949	0.25569	0.087031	0.13742	0.30561	0.041108	0.19873	0.29854	0.1895	0.054668	0.073027	0.29083	0.14637	0.3635	0.035696	0.046482	-2.55	-2.5479	-2.1813	-2.9062	-2.2062	-2.3312	-3.1521	-2.1417	-2.7771	-2.7271	-2.2833	-3.2396	-2.4688	-2.725	-2.8729	-2.1771	-17.395	108.788	20.977	83.350	171.249	-34.550	131.926	-111.044	154.241	210.974	53.506	186.536	202.969	154.925	-39.177	186.577	0.0016928	0.00079797	0.00021592	1064.2	7.1083e-06	8.2602e-06	1010	419.91	1.4309e-05	1.0652e-05	475.05	221.54	179.89	94.586	1.3406e-05	126.03	0.0013293	0.0013211	0.00037001	1037.2	1.4277e-05	1.4549e-05	981.46	410.54	1.4173e-05	1.4561e-05	463.07	216.45	176.26	92.674	1.4168e-05	123.61	-31.904	-61.941	-69.711	-125.247	36.439	-4.186	-125.902	-120.499	4.997	12.166	-122.578	-118.439	-116.865	-113.363	-3.004	-116.019	-8191	255	
23663.213	1	1	0	0	0.078269	0.14229	0.21358	0.28706	0.271	0.22694	0.089248	0.18116	0.010776	0.35304	0.25575	0.081874	0.27762	0.37454	0.26976	0.056554	-2.3729	-2.5646	-2.0062	-3.1917	-2.4333	-2.4646	-3.175	-2.2917	-2.9583	-2.8479	-2.2417	-3.1167	-2.6063	-2.4604	-2.9729	-2.5	-69.475	54.123	-105.434	-128.113	218.663	-69.957	146.182	128.827	-31.775	109.765	160.427	170.553	139.697	148.356	-60.866	125.008	0.0017068	0.00064919	0.00022428	1065.1	1.7329e-05	1.1561e-05	1009.4	421.59	4.778e-06	1.6422e-05	475.27	222.68	181.87	95.036	9.0162e-06	126.82	0.0013367	0.0013402	0.00036873	1038.1	1.4083e-05	1.4501e-05	985.9	412.08	1.4249e-05	1.453e-05	465.49	217.58	177.26	93.276	1.4504e-05	124.64	-28.915	-49.850	-38.199	-125.351	33.501	14.910	-125.606	-120.762	50.214	-1.171	-122.444	-118.450	-116.995	-113.363	17.400	-115.550	-8191	255	
23663.309	1	1	0	0	0.24517	0.12149	0.19581	0.22004	0.085983	0.11682	0.3006	0.20871	0.046886	0.10782	0.28164	0.12773	0.027945	0.2237	0.36635	0.26287	-2.3708	-2.7604	-2.0938	-3.1125	-2.3854	-2.0917	-3.3	-2.3	-2.5833	-2.9938	-2.2687	-3.0646	-2.7958	-2.4354	-2.9917	-2.475	160.050	58.393	187.781	136.651	-56.735	92.917	220.276	164.341	-110.714	37.401	187.043	153.317	136.167	-107.382	-30.209	112.345	0.001658	0.0010738	0.00033603	1068.7	6.7911e-06	1.2066e-05	1015.9	422.72	8.9201e-06	1.2371e-05	477.7	224.6	180.83	95.072	9.3178e-06	127.17	0.0013406	0.0013288	0.00036569	1040.2	1.4181e-05	1.4374e-05	991.66	412.62	1.4444e-05	1.4724e-05	468.33	218.89	177.36	93.275	1.4707e-05	124.8	-29.112	-57.958	-67.284	-125.146	51.402	1.123	-125.631	-120.828	4.856	-1.777	-122.128	-118.186	-117.082	-113.403	-1.436	-115.659	-8191	255	
23663.404	1	1	0	0	0.27615	0.18281	0.17911	0.19778	0.16911	0.15414	0.22239	0.12254	0.074417	0.13321	0.11347	0.39755	0.19308	0.22648	0.13224	0.39109	-2.1312	-2.8396	-2.0458	-2.9542	-2.6542	-2.3417	-3.1146	-2.4313	-2.5646	-2.8688	-2.2771	-2.8333	-2.8896	-2.5229	-2.9354	-2.4938	33.386	135.881	30.739	-102.554	135.859	-126.130	113.555	91.831	82.245	193.030	-124.660	173.414	158.672	192.596	45.670	170.760	0.0016365	0.0008523	0.00024547	1063.8	9.8807e-06	1.3908e-05	1012.1	421.73	8.1967e-06	1.7844e-05	475.95	221.46	180.01	94.652	8.0936e-06	125.58	0.001357	0.0013356	0.00036962	1039.6	1.4146e-05	1.466e-05	987.4	411.94	1.4119e-05	1.4578e-05	463.93	216.87	176.56	92.775	1.4289e-05	123.23	-30.673	-82.191	-95.088	-125.091	-6.273	5.668	-125.926	-120.658	23.478	0.351	-122.180	-118.193	-116.962	-113.361	5.048	-115.745	-8191	255	
23663.502	1	1	0	0	0.40174	0.14141	0.25161	0.15906	0.044113	0.044472	0.020247	0.30448	0.19938	0.19539	0.095617	0.10802	0.24236	0.069649	0.12035	0.34235	-1.9854	-2.9125	-2.0396	-2.9	-2.6521	-2.1917	-3.2292	-2.5167	-2.4146	-3.1708	-2.1667	-2.8396	-3.0021	-2.1354	-2.8646	-2.7562	-89.841	-117.611	90.154	174.698	65.114	-77.318	207.125	119.592	75.644	129.734	194.844	190.907	146.984	-131.775	98.929	108.530	0.0016457	0.00089534	9.7254e-05	1064.7	6.753e-06	6.1606e-06	1012.8	421.04	7.1835e-06	6.1831e-06	474.06	221.08	180.19	94.655	5.3047e-06	126.85	0.001342	0.0013055	0.00037101	1037	1.4187e-05	1.4763e-05	983.6	410.85	1.4221e-05	1.4334e-05	463.22	216.81	176.31	92.893	1.4258e-05	123.95	-30.837	-69.166	3.612	-124.910	44.380	3.954	-125.501	-120.580	-8.702	-9.071	-122.179	-118.047	-117.087	-113.459	49.537	-115.878	-8191	255	
23663.598	1	1	0	0	0.44245	0.1908	0.19565	0.18897	0.13521	0.086945	0.2042	0.2533	0.31844	0.068728	0.29689	0.025292	0.20233	0.17539	0.17422	0.38118	-1.8625	-3.0083	-2.1333	-2.6437	-2.8021	-2.1479	-2.9458	-2.6104	-2.3187	-2.9771	-2.2896	-2.9583	-2.9813	-2.2104	-2.7479	-2.7979	110.741	-43.941	-55.718	181.847	10.159	207.006	-122.815	130.914	-17.663	-7.764	220.116	159.065	-18.441	191.821	202.879	136.449	0.001603	0.0010073	0.00031273	1063.6	7.0111e-06	7.9545e-06	1015.5	420.77	8.783e-06	6.8155e-06	478.2	223.44	180.79	94.97	1.3579e-05	127.13	0.001341	0.0012994	0.00036925	1037	1.3952e-05	1.4437e-05	987.05	411.79	1.4129e-05	1.4557e-05	466.15	218.19	177	93.138	1.4256e-05	124.44	-28.664	-49.499	-44.705	-125.251	9.640	12.986	-125.447	-120.303	19.101	-9.269	-122.144	-118.240	-116.862	-113.283	7.461	-115.684	-8191	255	
23663.719	1	1	0	0	0.18286	0.051442	0.23849	0.23696	0.22582	0.025444	0.20543	0.29528	0.20626	0.2273	0.15176	0.37481	0.18826	0.16158	0.053571	0.25118	-1.6833	-3.0583	-2.2833	-2.5958	-3.1688	-1.8896	-3.025	-2.9458	-2.1271	-3.0146	-2.5146	-2.4917	-3.1604	-2.3542	-2.8375	-3.0438	0.270	219.384	186.425	215.560	142.489	81.736	45.964	124.487	177.478	-0.273	186.548	156.933	147.974	190.404	25.357	129.954	0.0015799	0.00075327	0.00019332	1069.6	9.625e-06	1.175e-05	1014.2	421.63	1.2858e-05	9.7556e-06	478.95	224.6	181.71	94.988	8.58e-06	127.82	0.0013176	0.0013061	0.00036338	1041.7	1.4211e-05	1.4309e-05	989.55	413.23	1.3947e-05	1.4513e-05	468.45	219.39	177.84	93.359	1.4263e-05	125.15	-28.612	-57.225	-27.962	-125.248	14.335	32.802	-126.028	-120.797	-3.514	-36.125	-122.256	-118.163	-116.717	-113.290	3.882	-115.786	-8191	255	
23663.812	1	1	0	0	0.2884	0.061155	0.30484	0.24668	0.12687	0.1728	0.075605	0.18022	0.05619	0.15621	0.13719	0.22052	0.35814	0.28298	0.023796	0.28462	-1.5958	-3.075	-2.3208	-2.5667	-3.0375	-2.2146	-2.8937	-2.9188	-1.8896	-3.1292	-2.5812	-2.4479	-3.2313	-2.3667	-2.6708	-3.025	-129.382	22.325	121.537	130.350	167.885	-28.388	120.161	-102.362	173.318	-27.518	159.281	200.554	210.950	212.341	160.164	113.905	0.0016799	0.00061654	0.00034098	1066.6	9.1971e-06	7.5655e-06	1012.9	422.93	1.6236e-05	4.3434e-06	473.47	222.18	180.14	94.605	1.11e-05	125.54	0.00132	0.0013007	0.00036572	1039.6	1.3931e-05	1.4348e-05	987.58	412.01	1.4062e-05	1.4099e-05	463.15	216.53	176.44	92.893	1.4109e-05	123.22	-33.728	-80.266	-45.450	-124.952	25.249	38.767	-125.602	-120.426	12.103	-19.032	-121.847	-117.890	-116.420	-113.062	14.106	-115.684	-8191	255	
#DATA ENDS
