BOXY.EXE: ISS Imagent and Oximeter Data Acquisition Program Version 0.80
Ascii Record File

#ACQ INFORMATION
2  Detector Channels 
16  External MUX Channels 
1  Auxiliary Channels 
5000  Waveform (CCF) Frequency (Hz)
1  Waveforms Skipped 
30  Waveforms Averaged 
1  Cycles Averaged 
16  Acquisitions per Waveform 
10.0806  Updata Rate (Hz) 

#FILE INFORMATION
TRUE -- External MUX Channel results are PARSED.
FALSE -- AC DC and Phase are NOT grouped.
TRUE -- Companion Program Settings File CREATED.
FALSE -- AC data not excluded
FALSE -- DC data not excluded
FALSE -- Phase data not excluded
FALSE -- Auxillary Chn. data not excluded
Tab delimiters

#CALIBRATION STATE
TRUE -- Waveform Calibration Values APPLIED.


#AUX CALIBRATION VALUES
Val Type	aux-1	

Term	1.0000e+00	
Factor	0.0000e+00	


#WF CALIBRATION VALUES
A = Detector Channel
Val Type	A-AC1	A-AC2	A-AC3	A-AC4	A-AC5	A-AC6	A-AC7	A-AC8	A-AC9	A-AC10	A-AC11	A-AC12	A-AC13	A-AC14	A-AC15	A-AC16	A-DC1	A-DC2	A-DC3	A-DC4	A-DC5	A-DC6	A-DC7	A-DC8	A-DC9	A-DC10	A-DC11	A-DC12	A-DC13	A-DC14	A-DC15	A-DC16	A-Ph1	A-Ph2	A-Ph3	A-Ph4	A-Ph5	A-Ph6	A-Ph7	A-Ph8	A-Ph9	A-Ph10	A-Ph11	A-Ph12	A-Ph13	A-Ph14	A-Ph15	A-Ph16	

Term	0.00000e+00	0.00000e+00	0.00000e+00	0.00000e+00	0.00000e+00	0.00000e+00	0.00000e+00	0.00000e+00	0.00000e+00	0.00000e+00	0.00000e+00	0.00000e+00	0.00000e+00	0.00000e+00	0.00000e+00	0.00000e+00	0.00000e+00	0.00000e+00	0.00000e+00	0.00000e+00	0.00000e+00	0.00000e+00	0.00000e+00	0.00000e+00	0.00000e+00	0.00000e+00	0.00000e+00	0.00000e+00	0.00000e+00	0.00000e+00	0.00000e+00	0.00000e+00	0.00000e+00	0.00000e+00	0.00000e+00	0.00000e+00	0.00000e+00	0.00000e+00	0.00000e+00	0.00000e+00	0.00000e+00	0.00000e+00	0.00000e+00	0.00000e+00	0.00000e+00	0.00000e+00	0.00000e+00	0.00000e+00	
Factor	1.00000e+00	1.00000e+00	1.00000e+00	1.00000e+00	1.00000e+00	1.00000e+00	1.00000e+00	1.00000e+00	1.00000e+00	1.00000e+00	1.00000e+00	1.00000e+00	1.00000e+00	1.00000e+00	1.00000e+00	1.00000e+00	1.00000e+00	1.00000e+00	1.00000e+00	1.00000e+00	1.00000e+00	1.00000e+00	1.00000e+00	1.00000e+00	1.00000e+00	1.00000e+00	1.00000e+00	1.00000e+00	1.00000e+00	1.00000e+00	1.00000e+00	1.00000e+00	X	X	X	X	X	X	X	X	X	X	X	X	X	X	X	X	

B = Detector Channel
Val Type	B-AC1	B-AC2	B-AC3	B-AC4	B-AC5	B-AC6	B-AC7	B-AC8	B-AC9	B-AC10	B-AC11	B-AC12	B-AC13	B-AC14	B-AC15	B-AC16	B-DC1	B-DC2	B-DC3	B-DC4	B-DC5	B-DC6	B-DC7	B-DC8	B-DC9	B-DC10	B-DC11	B-DC12	B-DC13	B-DC14	B-DC15	B-DC16	B-Ph1	B-Ph2	B-Ph3	B-Ph4	B-Ph5	B-Ph6	B-Ph7	B-Ph8	B-Ph9	B-Ph10	B-Ph11	B-Ph12	B-Ph13	B-Ph14	B-Ph15	B-Ph16	

Term	0.00000e+00	0.00000e+00	0.00000e+00	0.00000e+00	0.00000e+00	0.00000e+00	0.00000e+00	0.00000e+00	0.00000e+00	0.00000e+00	0.00000e+00	0.00000e+00	0.00000e+00	0.00000e+00	0.00000e+00	0.00000e+00	0.00000e+00	0.00000e+00	0.00000e+00	0.00000e+00	0.00000e+00	0.00000e+00	0.00000e+00	0.00000e+00	0.00000e+00	0.00000e+00	0.00000e+00	0.00000e+00	0.00000e+00	0.00000e+00	0.00000e+00	0.00000e+00	-1.07200e+00	-1.36101e+02	-1.26972e+02	-1.81145e+02	-5.74851e+01	-6.50972e+01	-1.58196e+02	-1.62015e+02	-4.24239e+01	-6.52151e+01	-1.70310e+02	-1.70117e+02	-1.81676e+02	-1.76501e+02	-5.94616e+01	-1.49355e+02	
Factor	3.59234e-05	1.59826e-04	4.90676e-05	1.61587e-01	1.97099e-06	1.44992e-06	1.72205e-01	5.96698e-02	2.11306e-06	1.83272e-06	9.39561e-02	3.22471e-02	2.84731e-02	9.54445e-03	1.94426e-06	1.34256e-02	6.52020e-06	7.84418e-06	2.17318e-06	8.29810e-02	8.31184e-08	8.62690e-08	8.30464e-02	3.06820e-02	8.29478e-08	8.64596e-08	4.68418e-02	1.60686e-02	1.47170e-02	4.95140e-03	8.44639e-08	6.74576e-03	X	X	X	X	X	X	X	X	X	X	X	X	X	X	X	X	



#DISTANCE SETTINGS
A = Detector Channel
A-1	A-2	A-3	A-4	A-5	A-6	A-7	A-8	A-9	A-10	A-11	A-12	A-13	A-14	A-15	A-16	

2.5000e+00	3.0000e+00	2.5000e+00	3.0000e+00	2.0000e+00	3.0000e+00	1.5000e+00	3.0000e+00	3.0000e+00	3.0000e+00	3.0000e+00	3.0000e+00	3.0000e+00	3.0000e+00	1.5000e+00	3.0000e+00	

B = Detector Channel
B-1	B-2	B-3	B-4	B-5	B-6	B-7	B-8	B-9	B-10	B-11	B-12	B-13	B-14	B-15	B-16	

1.0000e+01	1.0000e+01	1.0000e+01	1.4400e+00	1.0000e+01	1.0000e+01	1.5100e+00	1.9400e+00	1.0000e+01	1.0000e+01	1.9900e+00	2.4900e+00	2.4100e+00	2.9000e+00	1.0000e+01	2.9800e+00	




#DATA BEGINS
time	group	step	mark	flag	A-AC1	A-AC2	A-AC3	A-AC4	A-AC5	A-AC6	A-AC7	A-AC8	A-AC9	A-AC10	A-AC11	A-AC12	A-AC13	A-AC14	A-AC15	A-AC16	A-DC1	A-DC2	A-DC3	A-DC4	A-DC5	A-DC6	A-DC7	A-DC8	A-DC9	A-DC10	A-DC11	A-DC12	A-DC13	A-DC14	A-DC15	A-DC16	A-Ph1	A-Ph2	A-Ph3	A-Ph4	A-Ph5	A-Ph6	A-Ph7	A-Ph8	A-Ph9	A-Ph10	A-Ph11	A-Ph12	A-Ph13	A-Ph14	A-Ph15	A-Ph16	B-AC1	B-AC2	B-AC3	B-AC4	B-AC5	B-AC6	B-AC7	B-AC8	B-AC9	B-AC10	B-AC11	B-AC12	B-AC13	B-AC14	B-AC15	B-AC16	B-DC1	B-DC2	B-DC3	B-DC4	B-DC5	B-DC6	B-DC7	B-DC8	B-DC9	B-DC10	B-DC11	B-DC12	B-DC13	B-DC14	B-DC15	B-DC16	B-Ph1	B-Ph2	B-Ph3	B-Ph4	B-Ph5	B-Ph6	B-Ph7	B-Ph8	B-Ph9	B-Ph10	B-Ph11	B-Ph12	B-Ph13	B-Ph14	B-Ph15	B-Ph16	aux-1	digaux	

23732.234	1	1	0	256	0.17227	0.23494	0.097811	0.067989	0.13175	0.051745	0.28075	0.19931	0.078294	0.075467	0.11323	0.10772	0.062193	0.10627	0.26683	0.21992	-1.75	-2.9792	-2.2313	-2.7625	-2.8146	-2.0833	-2.9333	-2.4646	-2.2687	-3.0021	-2.4021	-2.5083	-3.05	-2.0312	-2.5771	-2.8667	302.782	199.145	105.106	-12.451	-11.220	294.036	-22.718	125.667	93.420	63.426	38.788	5.706	271.238	20.809	159.231	221.939	0.00049647	0.0010203	9.2213e-05	865.82	6.8946e-06	1.0721e-06	823.64	268.9	1.7675e-05	6.4423e-06	307.86	120.04	103.57	49.021	1.3927e-05	63.735	0.0080514	0.0092816	0.0024719	948.41	7.8911e-05	7.8248e-05	889.61	295.45	6.9752e-05	6.8553e-05	343.22	132.58	115.99	53.697	7.45e-05	70.207	245.354	54.723	145.156	-36.005	160.109	237.322	-36.492	-30.124	94.057	206.774	-31.852	-25.954	-24.559	-19.583	199.727	-22.429	-8191	255	
23732.330	1	1	0	0	0.07251	0.12372	0.18054	0.17059	0.13316	0.015528	0.44556	0.11358	0.16732	0.33607	0.075001	0.26742	0.069076	0.11915	0.15767	0.26939	-1.8583	-3.0708	-2.1458	-2.6562	-2.9313	-2.3417	-2.7333	-2.7854	-2.0771	-2.9708	-2.4708	-2.3375	-2.9167	-2.2604	-2.7833	-3.0083	289.429	-33.256	57.043	-35.008	256.565	136.956	197.632	255.328	-16.016	217.946	-6.548	211.761	7.667	268.095	58.083	241.345	0.00020338	0.00064309	0.00020692	1006.8	6.4391e-06	4.1811e-06	932.88	321.96	5.2656e-06	5.8778e-06	338.91	132.2	118.57	56.09	2.2075e-05	69.255	0.0059548	0.0073708	0.002131	1087.7	8.9044e-05	9.73e-05	1023.6	361.14	0.00011233	0.00012414	409.12	157.55	141.94	64.541	0.00013266	80.485	271.551	289.912	134.460	-36.322	43.998	279.702	-36.818	-30.745	115.119	27.644	-32.406	-26.440	-25.430	-20.493	59.870	-23.191	-8191	255	
23732.451	1	1	0	0	0.19666	0.22052	0.12106	0.23096	0.29639	0.10818	0.041509	0.11877	0.13819	0.1395	0.22563	0.067316	0.20497	0.27666	0.097051	0.12438	-1.6792	-2.6896	-2.6208	-2.3042	-2.9604	-2.1562	-2.5687	-3.0521	-2.1167	-2.8417	-2.6937	-2.3292	-3.1625	-2.4542	-2.4875	-2.9729	205.847	65.394	-20.073	-12.063	212.224	1.551	224.595	143.460	214.572	228.933	271.244	199.992	300.468	-23.694	40.397	149.364	0.00036081	0.00083857	0.00051342	1074.6	1.9255e-05	9.0529e-06	971.79	344.25	9.3638e-06	7.6693e-06	349.79	134.79	122.27	57.484	1.658e-05	69.84	0.010422	0.012295	0.0033552	1196.3	0.00012413	0.00012659	1083.8	389.02	0.00011667	0.00011937	412.35	156.5	141.25	64.173	0.0001068	78.746	293.386	16.147	76.094	-36.260	129.645	135.261	-36.915	-31.066	170.490	33.823	-32.602	-26.810	-25.696	-21.003	123.403	-23.339	-8191	255	
23732.523	1	1	0	0	0.11827	0.13508	0.22886	0.17126	0.040025	0.14236	0.17362	0.25302	0.039071	0.025962	0.34856	0.26759	0.20963	0.088869	0.050929	0.14809	-1.6562	-2.7146	-2.5917	-2.4125	-3.0187	-2.4083	-2.4938	-3.1	-2.1625	-2.9458	-2.625	-2.2021	-3.15	-2.4813	-2.3	-2.9938	251.933	266.046	4.958	259.052	77.454	38.472	284.840	-35.626	206.057	-39.974	195.332	239.515	8.403	295.345	261.143	161.231	0.00047149	0.00027123	0.0002716	1061.8	1.0215e-05	7.3845e-06	950.71	344.34	6.7524e-06	6.4319e-06	349.29	135.48	122.94	57.258	1.1493e-05	69.519	0.0082766	0.0098355	0.0026959	1157.1	0.00010235	0.00010628	1046.5	380.06	0.00010018	0.00010331	401.03	152.79	138.05	62.383	7.5953e-05	76.193	275.696	261.303	75.106	-36.532	196.556	91.817	-36.896	-30.968	196.748	138.801	-32.614	-26.975	-25.417	-21.028	42.705	-23.105	-8191	255	
23732.643	1	1	0	0	0.094079	0.18838	0.11127	0.17001	0.28939	0.11672	0.33791	0.23638	0.17912	0.024806	0.10066	0.22624	0.22022	0.12681	0.35838	0.41089	-1.8312	-2.7521	-2.75	-2.4604	-2.8292	-2.4208	-2.2979	-3.1937	-2.0396	-2.6583	-2.9208	-2.125	-3.2396	-2.6521	-2.2833	-3.05	18.337	301.735	203.120	-13.513	46.981	195.107	284.230	272.455	141.945	45.450	-21.023	117.969	195.668	218.131	186.227	217.679	0.00039491	0.0011063	0.00029947	1062.7	1.3392e-05	1.0685e-05	947.45	349.24	8.0755e-06	1.2599e-05	354.81	138.53	124.99	58.254	5.7101e-06	72.692	0.0057803	0.0065699	0.0017552	1125.6	6.4128e-05	6.4899e-05	1001.7	370.56	5.725e-05	5.798e-05	382.95	148.91	134.85	61.834	5.1269e-05	76.822	261.360	39.874	112.537	-36.353	158.661	115.379	-36.772	-30.782	134.485	108.426	-32.428	-26.869	-25.430	-20.844	130.498	-23.129	-8191	255	
23732.738	1	1	0	0	0.080668	0.012921	0.28847	0.2077	0.074827	0.091209	0.050215	0.16389	0.077606	0.04513	0.24393	0.20454	0.14874	0.10039	0.081637	0.081608	-1.8563	-2.6083	-2.7938	-2.2458	-2.8896	-2.5792	-2.2708	-3.1562	-2.0938	-2.5521	-3.0708	-2.425	-3.1146	-2.8083	-2.1854	-3.3042	225.463	46.190	265.085	283.049	256.754	133.852	268.992	293.954	270.693	35.230	71.489	256.503	296.435	297.907	92.914	169.261	0.00045	0.0015981	0.00035846	1074.6	1.0571e-05	6.9562e-06	955.49	358.82	4.3826e-06	1.0296e-05	370.41	145.9	131.46	62.012	4.154e-06	77.855	0.0038173	0.0041925	0.0010984	1104.2	3.6515e-05	3.5228e-05	980.42	370.19	2.734e-05	2.7439e-05	382.61	151.24	136.13	63.65	2.2011e-05	79.771	271.865	82.246	66.841	-36.144	155.051	79.119	-37.147	-30.722	88.756	120.936	-32.547	-27.062	-25.509	-20.963	149.283	-23.274	-8191	255	
23732.834	1	1	0	0	0.19333	0.19914	0.48219	0.13895	0.11141	0.076358	0.2427	0.16376	0.12189	0.096646	0.095957	0.34766	0.036991	0.18948	0.071201	0.097047	-1.9792	-2.4396	-2.8833	-2.3292	-2.925	-2.5917	-2.375	-2.9667	-2.3521	-2.175	-3.1479	-2.2229	-2.9188	-2.8396	-2.05	-3.2104	180.544	243.454	97.062	163.001	180.820	0.867	251.592	-44.676	285.996	269.024	170.189	-34.035	78.940	267.719	310.679	-23.171	0.00046509	0.00081478	0.00017499	1090.8	1.5391e-06	2.1292e-06	975.81	376.26	5.2786e-06	5.718e-06	380.89	150.62	137.05	63.488	5.7834e-06	79.536	0.0016948	0.001885	0.00051416	1103	1.9122e-05	1.8976e-05	985.75	382.01	1.7222e-05	1.7154e-05	387.51	153.68	139.44	64.98	1.47e-05	80.858	271.447	13.137	-10.930	-36.145	134.304	177.858	-36.731	-31.119	123.766	137.561	-32.703	-27.019	-25.746	-21.303	97.091	-23.705	-8191	255	
23732.930	1	1	0	0	0.040682	0.15065	0.17907	0.12521	0.1033	0.01657	0.13983	0.19885	0.22651	0.17039	0.10836	0.32725	0.12735	0.37065	0.17508	0.05229	-2.3063	-2.1625	-3.1437	-2.3104	-2.6979	-2.7562	-2.325	-3.1333	-2.4188	-2.325	-3.2	-2.3979	-2.6125	-2.9917	-2.1146	-3.0958	44.336	50.928	287.195	150.298	296.964	188.951	239.085	209.345	209.117	302.359	-36.416	-0.512	266.254	294.539	94.647	297.548	0.00046162	0.00060367	0.00021116	1097.2	8.9625e-06	4.6933e-06	975.34	381.7	6.6382e-06	2.6983e-06	384.93	150.72	136.13	63.178	8.9851e-06	79.467	0.0012013	0.0012821	0.000349	1106.8	1.2218e-05	1.1895e-05	977.63	385.38	1.0308e-05	1.0326e-05	388.51	152.87	137.62	64.253	9.3361e-06	80.402	279.271	28.076	23.429	-36.297	115.546	125.139	-37.002	-31.068	117.250	123.553	-32.805	-26.949	-25.768	-21.314	120.923	-23.382	-8191	255	
23733.051	1	1	0	0	0.054611	0.2572	0.065074	0.22215	0.033476	0.10965	0.21971	0.25038	0.21395	0.13794	0.15159	0.14112	0.40927	0.18379	0.16812	0.19787	-2.1104	-2.1063	-2.7792	-2.4958	-2.6813	-3.0083	-2.4833	-2.9458	-2.625	-2.175	-3.1958	-2.2875	-2.4917	-3.0354	-2.2	-2.9437	295.658	125.267	177.339	223.558	-14.036	-7.029	228.446	234.713	-32.867	220.580	-30.471	228.557	229.019	310.238	189.408	163.917	0.00050276	0.00086651	0.00021344	1079.6	5.6588e-06	4.8376e-06	958.36	377.54	2.2018e-06	7.2659e-06	381.7	149.93	135.6	63.323	5.8291e-06	79.656	0.00080099	0.00084274	0.00022803	1081.2	8.9487e-06	9.0164e-06	962.23	379.07	8.8759e-06	9.1096e-06	385.33	152.39	137.32	64.437	9.1627e-06	80.719	282.935	35.501	49.512	-36.094	138.449	116.258	-36.581	-30.756	158.828	92.005	-32.432	-27.125	-25.554	-21.087	161.806	-23.380	-8191	255	
23733.123	1	1	0	0	0.072212	0.21922	0.013731	0.087716	0.27565	0.099234	0.12123	0.23122	0.221	0.15996	0.17638	0.22135	0.30934	0.3397	0.12684	0.13275	-2.5687	-2.1333	-3.1833	-2.5583	-2.5854	-3.0667	-2.3563	-2.8333	-2.7583	-2.2083	-3.2229	-2.6917	-2.2313	-3.0708	-2.2104	-2.8833	184.736	146.472	282.876	276.227	134.415	252.087	98.172	-37.311	200.329	106.527	161.076	-47.067	264.748	269.773	275.370	126.382	0.00059121	0.00093983	0.00015407	1077.9	3.6931e-06	2.471e-06	957.99	374.75	7.4503e-06	7.3888e-06	376.88	149.19	135.53	63.47	5.905e-06	78.316	0.00080614	0.00087348	0.00024671	1080.3	9.791e-06	1.0464e-05	961.49	378.17	1.1401e-05	1.2484e-05	382.33	151.89	137.87	64.731	1.4867e-05	79.802	273.291	14.176	34.159	-36.112	122.397	119.902	-36.622	-31.096	124.001	75.137	-32.573	-27.110	-25.766	-21.112	107.729	-23.385	-8191	255	
23733.219	1	1	0	0	0.049752	0.13488	0.091491	0.10123	0.19328	0.049761	0.24089	0.40508	0.20697	0.18415	0.046572	0.097047	0.27385	0.091836	0.38036	0.11304	-2.3417	-2.0854	-2.9	-2.7958	-2.2833	-3.1729	-2.1937	-2.7417	-2.9208	-2.2146	-2.9833	-2.5396	-2.3521	-3.1	-2.2958	-2.6542	177.280	309.167	-3.457	285.699	17.901	144.914	222.909	246.964	159.333	140.827	226.718	31.301	293.210	273.819	106.704	-45.857	0.00047504	0.0003952	0.00038773	1080.3	3.4243e-06	6.7007e-06	962.86	373.16	1.1192e-05	4.9903e-06	372.79	146.72	135.23	62.877	3.5457e-06	76.865	0.0013269	0.0015103	0.00043159	1093.3	1.7643e-05	1.854e-05	973.21	379.99	1.9707e-05	2.1228e-05	383.03	151.08	139.07	64.686	2.5123e-05	79.324	283.217	65.614	14.886	-36.177	165.751	129.584	-36.612	-30.850	121.537	81.173	-32.627	-27.169	-25.600	-21.400	139.777	-23.493	-8191	255	
23733.314	1	1	0	0	0.084518	0.098841	0.14208	0.17347	0.20218	0.078591	0.18796	0.13171	0.14322	0.21109	0.083725	0.060778	0.24671	0.24922	0.15526	0.35589	-2.7208	-2.2792	-3	-2.6583	-2.0917	-3.0396	-2.5125	-2.5479	-2.8563	-2.0771	-3.0187	-2.7792	-2.1521	-3.1229	-2.3812	-2.5042	96.229	152.789	215.119	253.666	28.843	-31.885	216.608	182.586	282.926	7.878	164.784	55.260	101.996	291.094	110.263	239.541	0.00050434	0.0011879	0.00029174	1100.2	6.6332e-06	6.9e-06	965.14	370.42	1.4218e-05	5.0618e-06	366.51	141.73	132.74	61.809	6.8741e-06	73.899	0.0021417	0.0025827	0.0007488	1122.5	3.1573e-05	3.4289e-05	994.6	384.42	3.7911e-05	4.1037e-05	386.61	150.52	140.47	64.98	4.6546e-05	78.061	280.078	13.766	35.349	-36.246	183.959	142.875	-36.700	-30.970	141.607	245.145	-32.477	-27.032	-25.859	-21.225	174.044	-23.756	-8191	255	
23733.434	1	1	0	0	0.31409	0.1697	0.17514	0.18863	0.19064	0.031976	0.353	0.08416	0.020185	0.15143	0.18312	0.18344	0.35814	0.40607	0.15666	0.44266	-2.6917	-2.1667	-2.6958	-3.05	-2.1792	-2.9229	-2.5312	-2.5563	-3.0021	-2.2729	-2.9229	-2.8521	-2.2188	-3.0229	-2.7	-2.4542	288.467	190.804	176.636	252.451	195.319	303.298	294.284	-32.886	-21.982	23.199	-23.287	93.659	-21.838	227.508	85.414	288.622	0.00031582	0.00090471	0.00013066	1115.8	5.5624e-06	8.2828e-06	970.56	373.65	1.3127e-05	1.2329e-05	364.08	138.97	131.54	61.494	8.5456e-06	72.579	0.0038889	0.0047234	0.0013444	1160.6	5.3833e-05	5.6981e-05	1021.3	393.02	5.8535e-05	6.266e-05	396.34	151.53	143.03	65.989	6.814e-05	78.675	266.123	19.813	27.620	-36.226	120.939	110.969	-36.771	-30.938	152.770	120.486	-32.745	-27.322	-25.858	-21.011	156.187	-23.779	-8191	255	
23733.529	1	1	0	0	0.34494	0.058988	0.22172	0.11469	0.15467	0.19867	0.050154	0.14402	0.26634	0.12193	0.10731	0.15317	0.22869	0.042308	0.21675	0.11032	-2.5583	-2.3563	-2.6229	-2.9396	-2.2167	-3.0938	-2.8542	-2.4708	-3.0896	-2.3708	-2.7896	-3.0187	-2.2812	-3.1625	-2.6146	-2.3479	-15.226	44.190	284.122	166.921	-43.512	98.492	59.498	-46.629	59.125	152.096	254.744	28.145	6.089	278.516	185.410	247.041	0.000441	0.0007844	5.2113e-05	1133.1	1.6681e-05	2.2042e-06	988.63	378.44	1.0043e-05	7.9315e-06	366.07	140.11	132.82	61.982	7.4434e-06	72.484	0.0056966	0.0069224	0.0019378	1203.5	7.576e-05	7.8561e-05	1059.9	405.27	7.6648e-05	8.0617e-05	409.79	155.69	147.73	67.525	8.4863e-05	79.591	259.637	16.166	134.602	-36.574	165.480	94.954	-37.345	-31.234	70.410	91.122	-32.832	-27.136	-25.680	-20.988	121.963	-23.471	-8191	255	
23733.627	1	1	0	0	0.19387	0.078612	0.18227	0.17353	0.29684	0.22588	0.11902	0.14893	0.24288	0.17514	0.056032	0.14532	0.46233	0.074392	0.051532	0.12906	-2.7271	-2.1813	-2.3958	-2.9333	-1.9375	-2.8667	-2.7646	-2.2562	-3.0312	-2.5563	-2.6292	-3.0979	-2.2604	-3.1	-3.0583	-2.3229	160.762	227.300	245.145	278.559	142.409	58.057	181.942	232.259	162.530	-26.097	110.730	241.658	308.861	-41.709	269.060	27.188	0.00047665	0.0015866	0.00021187	1147.8	1.2726e-05	3.9511e-06	1006.8	382.14	3.3526e-06	5.8614e-06	372.69	142.56	137.52	62.743	6.8435e-06	72.095	0.0067422	0.0080308	0.0022512	1226.8	8.9149e-05	9.4119e-05	1090.8	416.85	9.5534e-05	0.00010187	427.75	162.22	156.25	69.4	0.00010681	81.444	288.533	43.791	42.854	-36.498	88.986	44.161	-37.064	-30.976	232.342	105.575	-32.679	-27.224	-26.153	-21.512	117.438	-23.680	-8191	255	
23733.723	1	1	0	0	0.11259	0.12061	0.13359	0.24622	0.17522	0.26789	0.083763	0.23825	0.17949	0.02896	0.17179	0.083597	0.10923	0.11185	0.1342	0.099188	-2.6562	-2.5896	-2.3271	-3.1396	-2.1625	-2.8833	-3.0229	-2.3958	-3.0542	-2.5083	-2.4	-3.2667	-2.4354	-2.7188	-2.8833	-2.3292	198.965	102.741	14.959	281.406	83.368	-37.036	241.459	256.764	2.863	80.049	-29.117	-36.246	254.946	255.455	56.786	68.861	0.00051957	0.00030906	0.00016585	1195.5	2.1731e-06	1.0544e-05	1039.1	395.72	4.0737e-06	1.4811e-05	378.57	142.35	138.76	62.149	1.6049e-05	70.338	0.0087132	0.010585	0.0029869	1307.8	0.0001219	0.00013015	1166.8	444	0.0001343	0.0001423	456.3	170.1	164.78	71.568	0.00014847	82.937	263.640	294.327	188.062	-36.535	297.078	105.850	-37.301	-31.542	147.046	229.880	-33.068	-27.245	-25.893	-21.494	106.080	-23.888	-8191	255	
23733.818	1	1	0	0	0.39711	0.0409	0.18549	0.14978	0.067937	0.21908	0.087449	0.1263	0.11133	0.12722	0.1877	0.15768	0.072259	0.072122	0.27512	0.31851	-2.4208	-2.5167	-2.2062	-3.2021	-2.4167	-2.575	-2.9521	-2.3937	-2.8854	-2.6375	-2.1729	-2.9729	-2.4625	-2.6562	-3.2188	-2.1667	244.667	5.047	-10.329	276.540	106.653	5.339	214.776	220.725	275.627	-41.055	75.869	62.551	-18.634	214.620	70.911	299.654	0.00055899	0.00095285	0.00021734	1192.6	2.7122e-05	7.9601e-06	1025.9	390.87	6.914e-06	6.5749e-06	377.69	144.58	142.23	62.631	8.3921e-06	70.638	0.011957	0.014489	0.0040513	1346.5	0.00015542	0.0001601	1175.5	448.01	0.00015271	0.0001594	464.12	175.47	171.08	72.878	0.00017175	85.368	281.029	124.812	153.054	-36.677	83.487	149.059	-37.274	-31.489	146.173	295.311	-33.115	-27.827	-26.357	-21.804	140.422	-23.835	-8191	255	
23733.914	1	1	0	0	0.082061	0.18535	0.10067	0.53066	0.039422	0.11731	0.15231	0.29413	0.093839	0.15227	0.18678	0.27607	0.15909	0.28898	0.23109	0.13439	-2.5812	-2.8187	-2.0604	-3.0958	-2.4125	-2.4625	-3.1396	-2.3854	-2.8833	-2.7167	-2.3542	-3.1542	-2.4625	-2.4813	-2.9854	-2.4021	43.295	-29.174	253.011	297.695	51.140	301.945	270.000	252.308	303.252	195.576	240.288	257.362	291.273	293.501	10.907	78.040	0.00059527	0.00045743	0.001204	1227.8	2.1822e-05	9.0014e-06	1062.3	412.83	2.4534e-05	9.1565e-06	393.21	146.57	147.49	65.226	2.3223e-05	72.98	0.014199	0.017589	0.0050671	1430.5	0.0002048	0.00020363	1260.3	487.62	0.00020113	0.00022849	527.47	196.46	194.47	82.69	0.00030769	99.55	284.321	76.470	-26.828	-36.831	-25.615	172.294	-37.379	-31.694	-30.306	20.619	-33.614	-27.999	-26.650	-21.921	85.021	-24.477	-8191	255	
23734.033	1	1	0	0	0.027252	0.069122	0.093901	0.22914	0.028372	0.15162	0.18888	0.34025	0.057976	0.12812	0.24895	0.17115	0.23175	0.30694	0.22943	0.24193	-2.3292	-2.8542	-2.1104	-3.0438	-2.3812	-2.3812	-3.225	-2.4562	-2.8833	-3.1312	-2.4729	-3.1771	-2.7792	-2.4813	-3.15	-2.5375	10.931	-4.609	98.287	270.758	15.321	137.502	268.691	258.022	87.705	286.612	196.141	208.017	253.796	-50.403	210.206	242.453	0.00046486	0.00055945	0.00047512	1348	4.6142e-06	2.6222e-05	1175.7	460.44	3.801e-05	1.8371e-05	449.46	165.89	169.79	69.116	3.0728e-05	74.411	0.026057	0.031625	0.0088729	1691.4	0.00034204	0.00035801	1517.6	591.52	0.0003451	0.0003605	648.02	233.83	232.92	90.495	0.00034844	102.73	289.909	4.642	131.252	-37.135	125.855	127.795	-37.898	-32.561	77.989	80.549	-34.427	-29.527	-27.888	-22.511	93.279	-24.780	-8191	255	
23734.131	1	1	0	0	0.23492	0.24559	0.19033	0.23465	0.21314	0.11717	0.10941	0.153	0.21213	0.34811	0.11721	0.10768	0.31799	0.4005	0.077249	0.33729	-2.3167	-2.9208	-2.2313	-3.0458	-2.625	-2.1354	-2.9625	-2.5563	-2.5104	-3.1333	-2.5771	-3.0187	-2.7687	-2.2188	-2.9417	-2.5646	-43.229	98.796	11.081	219.222	-1.047	111.001	269.201	245.126	275.853	70.825	290.837	-49.361	299.065	290.441	190.787	232.967	0.00087407	0.0013686	0.00082238	1395.5	1.1252e-05	1.1312e-05	1191	472.06	5.1449e-06	1.6857e-05	426.51	156.25	159.43	65.963	3.4164e-06	70.975	0.026424	0.031383	0.0086399	1726.1	0.00032367	0.00033559	1510.6	591.48	0.00031505	0.00032276	594.72	213.81	213.19	84.57	0.00030075	95.35	263.994	113.718	-35.529	-37.232	-24.853	303.736	-37.765	-32.829	34.046	-21.443	-33.831	-28.593	-27.401	-22.020	273.773	-24.334	-8191	255	
23734.227	1	1	0	0	0.35897	0.10422	0.18093	0.1204	0.12934	0.24235	0.065931	0.14884	0.080792	0.17838	0.19784	0.32958	0.36254	0.28784	0.19912	0.063605	-2.0417	-3.1083	-2.2021	-3.1292	-2.9896	-2.2729	-3.1562	-2.4813	-2.3646	-3.0292	-2.4604	-2.7917	-3.0042	-2.3104	-2.9604	-2.775	46.706	309.736	151.561	282.079	-16.627	208.907	28.979	189.053	139.486	304.329	256.887	257.096	268.250	252.028	39.181	104.350	0.0005807	0.0021706	0.00070161	1308.8	1.613e-05	4.9701e-06	1084.8	409.14	1.5958e-05	1.8994e-05	362.59	132.65	130.18	56.065	1.5516e-05	59.908	0.023536	0.028446	0.0079605	1615.2	0.00030234	0.0003109	1379.4	519.16	0.00029184	0.00030226	525.47	189.33	181.64	73.508	0.0002821	83.095	247.143	209.697	41.627	-37.038	115.694	6.076	-37.726	-32.175	288.330	61.651	-33.449	-27.256	-26.221	-21.212	43.032	-23.929	-8191	255	
23734.322	1	1	0	0	0.17962	0.099315	0.16375	0.2916	0.097068	0.09995	0.2931	0.159	0.15559	0.1103	0.088365	0.38939	0.24275	0.34386	0.084968	0.26482	-1.7729	-3.0271	-2.1375	-2.9125	-2.9792	-2.1104	-3.0958	-2.3875	-2.3396	-3.0417	-2.325	-2.7979	-2.9938	-2.4479	-2.9479	-2.7583	195.601	58.065	290.196	253.493	92.428	90.970	236.799	262.110	198.878	240.568	77.069	295.505	-37.788	290.167	303.361	219.999	0.00041915	0.00051969	0.00019823	1076.9	9.6428e-07	9.9341e-06	897.43	316.07	3.4779e-05	2.1931e-05	295.88	112.39	106.33	46.211	1.0577e-05	53.326	0.021404	0.025435	0.0070081	1340.2	0.00025751	0.00026357	1143.9	408.34	0.00024241	0.00024834	424.76	155.8	145.67	59.617	0.00020292	69.202	238.447	183.679	211.444	-36.720	257.722	129.106	-37.329	-31.167	107.758	246.159	-32.747	-26.464	-25.166	-20.516	80.818	-22.648	-8191	255	
23734.418	1	1	0	0	0.22664	0.12654	0.16188	0.22566	0.13328	0.17655	0.12525	0.12498	0.14587	0.040918	0.099084	0.064293	0.49623	0.17688	0.20335	0.19405	-2.1333	-2.9708	-2.1396	-2.6708	-3.0792	-2.0979	-3.0187	-2.9229	-2.2521	-2.9854	-2.4813	-2.4646	-3.175	-2.1688	-2.7333	-2.8229	-43.726	203.188	120.542	220.354	203.178	258.981	263.183	210.371	118.917	139.698	1.302	250.648	281.625	235.779	235.823	289.199	0.00048214	0.0019681	0.00022948	1048.3	1.6152e-05	9.7237e-06	884.7	301.75	1.1325e-05	1.325e-05	295.01	110.16	102.1	43.803	1.176e-05	52.628	0.014267	0.016561	0.0044329	1208.4	0.00015421	0.00014747	1018.5	352.45	0.00013587	0.0001386	369.29	136.2	124.88	51.252	0.00011535	61.722	288.201	11.941	53.876	-36.330	220.442	137.667	-37.080	-30.655	132.989	40.212	-31.967	-26.351	-24.786	-20.241	74.805	-22.313	-8191	255	
23734.514	1	1	0	0	0.16027	0.1306	0.21487	0.31619	0.13426	0.27535	0.16358	0.12236	0.32389	0.12175	0.098283	0.35694	0.032642	0.10891	0.094416	0.1116	-1.9479	-2.8396	-2.3812	-2.5604	-3.0062	-2.0479	-2.8771	-2.9854	-2.1792	-2.95	-2.525	-2.4167	-3.1333	-2.0875	-2.7708	-2.975	77.285	149.665	54.316	181.131	-18.742	28.027	237.105	-31.315	84.364	52.704	308.166	265.505	169.094	212.827	107.738	-22.790	0.00059822	0.0016992	0.00038754	1053	1.063e-05	8.6931e-06	897.14	308.81	9.1398e-06	1.4119e-05	301.47	111.06	102.95	44.524	1.1952e-05	53.646	0.0087312	0.010423	0.0029053	1157.3	0.00011281	0.00012009	1011.8	352.63	0.00012522	0.00013476	374.28	137.83	127.73	53.059	0.00014338	65.568	294.586	42.207	87.403	-36.534	157.658	156.329	-36.729	-30.624	243.813	74.724	-32.300	-25.995	-24.908	-20.042	11.475	-22.371	-8191	255	
23734.635	1	1	0	0	0.283	0.086449	0.091851	0.19332	0.086958	0.1796	0.025323	0.02346	0.097588	0.2024	0.16972	0.034699	0.40323	0.34194	0.1087	0.11231	-1.85	-2.9562	-2.5104	-2.4708	-3.0292	-2.2438	-2.7958	-2.8979	-2.1896	-2.9562	-2.6583	-2.0833	-3.0833	-2.3208	-2.4625	-3.0104	57.626	-34.812	238.891	280.004	210.726	169.491	202.877	257.819	154.189	18.519	288.517	245.935	310.910	-31.668	282.882	181.516	0.00068399	0.0011889	0.0005123	1059.1	1.9376e-05	3.2347e-06	892.97	318.05	1.457e-05	1.499e-05	306.23	114.32	107.38	47.179	1.4546e-05	56.521	0.011482	0.013899	0.0038786	1203.6	0.00014957	0.0001558	1041.7	374.37	0.00015469	0.00016262	394.15	145.61	136.19	57.134	0.00016293	70.085	264.938	44.988	57.577	-36.386	180.263	67.063	-36.885	-30.632	161.375	47.167	-32.846	-26.216	-25.288	-20.273	11.492	-22.888	-8191	255	
23734.730	1	1	0	0	0.27159	0.22067	0.1848	0.077367	0.20492	0.15654	0.36493	0.089079	0.28089	0.10242	0.074402	0.068098	0.1635	0.20452	0.23904	0.30731	-1.6542	-2.8417	-2.425	-2.35	-3.1	-2.4313	-2.5563	-3.0917	-2.0312	-2.8021	-2.7854	-2.1063	-3.1104	-2.2604	-2.3875	-3.1937	35.052	152.399	84.307	3.200	22.933	-40.008	236.109	270.482	180.895	276.785	226.998	105.299	5.091	145.814	-36.229	171.557	0.00032607	0.001276	0.00056645	1053.4	1.5834e-05	6.1765e-06	892.11	318.22	3.3055e-06	7.0633e-06	305.9	115.72	106.31	47.335	1.534e-05	57.49	0.012783	0.015389	0.0042721	1218.1	0.00016579	0.00017168	1050.7	378.85	0.0001619	0.00016786	395.06	146.46	134.95	56.853	0.0001513	69.529	249.945	257.560	-20.194	-36.364	57.380	243.032	-36.864	-30.785	48.947	99.125	-32.607	-26.079	-24.987	-20.647	144.155	-22.529	-8191	255	
23734.824	1	1	0	0	0.30655	0.34894	0.14431	0.351	0.11672	0.16652	0.33383	0.1522	0.17744	0.12837	0.10747	0.23052	0.1102	0.20028	0.14623	0.17257	-1.7437	-2.8333	-2.6854	-2.3063	-3.1396	-2.4833	-2.6479	-3.1958	-2.1833	-2.7917	-2.9583	-2.2646	-2.9625	-2.75	-2.2042	-3.0354	70.113	27.069	70.068	234.500	42.568	-0.027	285.267	294.244	-27.586	289.702	183.855	274.762	-5.187	-41.112	85.655	205.954	0.00057084	0.0012915	0.00067348	1050.4	1.2926e-05	1.4174e-05	887.31	319.25	1.6757e-06	8.0703e-06	311.77	117.37	107.78	47.441	1.1298e-05	58.836	0.011367	0.013434	0.0036921	1186.3	0.00013667	0.00013967	1017.7	366.98	0.00012623	0.0001282	378.65	141.07	128.99	54.835	0.00011521	68.197	279.414	-11.177	56.274	-36.014	-26.810	126.893	-37.029	-30.702	223.734	56.276	-32.067	-26.171	-25.011	-20.425	254.712	-22.602	-8191	255	
23734.922	1	1	0	0	0.1582	0.068496	0.37248	0.1142	0.10747	0.13656	0.066487	0.022832	0.10944	0.13813	0.20627	0.28135	0.17221	0.21227	0.14478	0.099656	-1.7646	-2.5833	-2.9688	-2.3667	-3.0708	-2.6292	-2.4604	-3.2687	-2.2938	-2.5938	-3.0042	-2.1937	-3.0312	-2.9354	-2.1104	-3.1771	224.398	51.259	270.812	204.908	-31.482	-32.426	134.886	32.471	168.461	117.376	-17.424	-23.166	263.309	89.061	2.851	233.884	0.00038726	0.0011245	0.00010403	1053.3	2.9369e-05	1.2227e-05	894.69	319.81	7.5241e-06	1.7716e-05	314.74	118.8	107.48	47.437	1.5464e-05	58.345	0.0088079	0.010405	0.0028529	1155.4	0.00010706	0.00010955	996.44	358.14	0.00010198	0.00010591	370.4	138.54	125.81	53.839	0.0001032	66.932	278.658	45.085	-6.564	-36.012	118.057	135.717	-36.923	-30.406	113.816	274.105	-31.944	-26.390	-24.921	-20.275	139.349	-22.605	-8191	255	
23734.994	1	1	0	0	0.28487	0.22771	0.27174	0.062726	0.21736	0.1761	0.066571	0.091309	0.16514	0.22372	0.023231	0.080493	0.20361	0.16315	0.20883	0.36801	-2.1167	-2.4542	-2.8833	-2.3271	-2.8563	-2.7812	-2.2292	-3.0396	-2.4771	-2.4021	-3.2687	-2.3229	-2.9667	-2.8354	-2.2604	-3.0812	306.983	81.896	208.332	237.209	285.514	55.688	-24.847	200.225	270.325	301.586	-35.918	-8.351	296.791	13.076	84.212	302.818	0.00090698	0.00068002	0.00017549	1044.7	8.3696e-06	1.0066e-05	887.58	315.11	8.8319e-06	7.0596e-06	308.64	116.56	106.88	47.014	3.572e-06	57.704	0.0080325	0.0095738	0.0026572	1138.1	0.00010275	0.00010687	984.33	352.76	0.00010242	0.00010697	366.8	137.19	125.11	53.601	0.0001072	66.836	298.971	3.225	207.505	-36.206	152.588	206.998	-36.650	-30.405	173.391	157.045	-31.899	-26.086	-24.575	-20.229	106.505	-22.697	-8191	255	
23735.113	1	1	0	0	0.24213	0.041938	0.1535	0.33955	0.17274	0.14625	0.19116	0.27014	0.18525	0.015219	0.22373	0.087764	0.37348	0.27538	0.07991	0.15823	-2.0083	-2.25	-3.0812	-2.4313	-2.6771	-2.8833	-2.2333	-2.8854	-2.5229	-2.4625	-3.2396	-2.2604	-2.6896	-2.9729	-2.2708	-3.0875	87.403	132.290	217.485	266.990	34.710	41.543	203.087	221.554	217.674	189.539	247.304	222.174	-12.044	14.077	-20.361	-5.825	0.00055627	0.00049842	0.00019668	1025	1.4775e-05	3.9983e-06	879.22	310.86	1.0603e-05	1.0905e-05	307.81	117.02	105.64	46.66	2.1009e-05	57.795	0.0085545	0.010355	0.0029111	1133.2	0.00011315	0.00011882	987.12	354.91	0.00011645	0.00012179	373.26	140.04	127.5	54.305	0.00012223	67.835	268.049	304.524	71.566	-36.123	169.357	199.113	-36.508	-30.351	243.807	135.113	-31.909	-26.493	-24.616	-20.142	124.479	-22.490	-8191	255	
23735.211	1	1	0	0	0.084411	0.14794	0.1026	0.27746	0.18666	0.12331	0.2395	0.077418	0.050794	0.034476	0.21444	0.25691	0.084182	0.076085	0.17472	0.12227	-2.2875	-2.2333	-3.0479	-2.4479	-2.4708	-2.9437	-2.1958	-3.2125	-2.8104	-2.1458	-3.0375	-2.3708	-2.6167	-3.1312	-1.9104	-2.8604	19.053	-22.274	192.061	300.169	231.154	-12.751	283.123	180.028	151.487	297.252	185.848	16.690	-33.937	123.299	18.038	247.847	0.000659	0.0017117	0.00029437	1023.2	8.4156e-06	2.2319e-06	874.26	312.26	8.6472e-06	9.9513e-06	308.86	117.6	105.77	46.917	1.6152e-05	58.069	0.0094249	0.011201	0.0031136	1134.7	0.00011716	0.00012081	987.33	355.05	0.00011579	0.00011974	372.23	139.7	126.32	54.119	0.00011512	67.725	248.780	-23.790	292.665	-36.198	-4.006	-43.912	-36.951	-30.629	-6.497	233.620	-32.020	-25.902	-24.690	-20.470	46.483	-22.409	-8191	255	
23735.307	1	1	0	0	0.28688	0.28331	0.19875	0.085367	0.095273	0.14992	0.13528	0.17487	0.132	0.097009	0.19057	0.09729	0.18388	0.34507	0.12003	0.20856	-2.4125	-2.3792	-2.9313	-2.6646	-2.3458	-2.8896	-2.2479	-3.1083	-2.8125	-2.3583	-3.1271	-2.5583	-2.5521	-3.1625	-2.1979	-2.7729	278.449	152.024	232.636	20.534	41.002	208.877	188.410	281.337	39.571	25.595	266.000	-38.232	23.651	290.144	19.058	246.870	0.00026221	0.00049663	0.00010841	1022.8	1.7053e-05	3.8636e-06	881.06	312.98	1.8413e-05	3.834e-06	308.53	116.81	105.36	46.667	1.1462e-05	57.757	0.0089776	0.010697	0.0029714	1130.9	0.00011229	0.00011609	985.1	353.93	0.00011077	0.00011601	371.34	138.71	125.72	53.859	0.00011254	66.971	258.787	82.902	64.481	-36.144	34.722	98.305	-36.771	-30.237	16.790	132.805	-32.017	-26.305	-24.877	-20.310	137.399	-22.396	-8191	255	
23735.402	1	1	0	0	0.17365	0.12151	0.092699	0.14298	0.22464	0.028577	0.18731	0.1906	0.32279	0.11691	0.20029	0.12112	0.20103	0.16611	0.20527	0.049724	-2.2646	-2.0687	-2.8854	-2.8167	-2.2167	-2.9688	-2.425	-2.7708	-2.9729	-2.3125	-3.0292	-2.6104	-2.3438	-3.1208	-2.2792	-2.5438	287.097	-6.109	184.118	215.948	244.363	-18.327	8.554	304.144	172.337	-31.602	202.675	256.666	28.744	25.558	256.817	103.876	0.00022617	0.00088523	0.0001925	1014.6	1.0676e-05	3.5284e-06	868.67	306.83	1.3678e-05	1.4896e-06	303.25	114.47	104.32	46.342	7.3029e-06	56.517	0.0087421	0.010466	0.0029192	1123.2	0.000113	0.00011997	978.44	351.37	0.00011895	0.00012583	370.95	138.48	126.32	54.155	0.00012572	67.298	263.009	13.852	297.358	-36.380	68.450	-18.704	-36.612	-30.144	151.627	47.886	-32.030	-26.421	-24.836	-20.295	81.035	-22.372	-8191	255	
23735.523	1	1	0	0	0.18161	0.22288	0.010164	0.18557	0.26345	0.082783	0.27134	0.42971	0.085998	0.095651	0.24518	0.18449	0.27509	0.2677	0.10045	0.05373	-2.575	-2.2854	-2.7667	-2.7562	-2.3583	-3.1354	-2.4625	-2.6937	-3.025	-2.2854	-3.0687	-2.9875	-2.1896	-3.0938	-2.4375	-2.6354	-16.754	266.216	147.985	-13.421	16.716	36.915	271.671	-18.872	179.102	40.014	263.371	277.342	170.651	27.946	-15.936	43.663	0.00049215	0.00052153	0.00038461	1000.5	1.6597e-05	1.1611e-05	863.34	306.5	9.9367e-06	1.1936e-05	303.96	114.86	104.16	46.53	8.4171e-06	57.093	0.0098778	0.011858	0.0032795	1121.9	0.00012334	0.00012709	977.55	351.98	0.00012117	0.00012769	372.07	139.34	126.8	54.354	0.0001263	67.566	273.146	63.952	124.584	-36.085	269.646	160.904	-37.056	-30.489	34.261	86.220	-31.840	-26.539	-24.828	-20.453	-26.526	-22.588	-8191	255	
23735.619	1	1	0	0	0.23412	0.22013	0.052189	0.074618	0.068065	0.077189	0.27475	0.04083	0.060176	0.11271	0.18114	0.095776	0.19829	0.093348	0.26025	0.095436	-2.5583	-2.1854	-2.8854	-2.9042	-2.1021	-3.0229	-2.6083	-2.3937	-3.0792	-2.1104	-2.7979	-3.1104	-2.2562	-3.0521	-2.5458	-2.5083	203.539	-3.432	-42.801	241.061	-45.959	86.773	231.053	286.699	173.294	4.477	243.455	123.269	258.315	257.504	-31.856	0.065	0.00023816	0.00091327	0.00060586	1003.6	9.0833e-06	4.8506e-06	861.2	307.64	9.1362e-06	1.6504e-05	305.33	115.44	105.03	46.538	2.4813e-05	57.856	0.0097075	0.011581	0.003173	1119.4	0.00011875	0.00012269	975.52	350.41	0.00011675	0.00012128	369.53	138.5	125.71	53.892	0.0001169	67.361	207.269	309.687	12.341	-36.232	69.245	134.726	-36.837	-30.314	271.452	85.022	-31.764	-26.686	-25.104	-20.145	99.584	-22.504	-8191	255	
23735.715	1	1	0	0	0.30325	0.12453	0.28101	0.062794	0.1427	0.089582	0.3942	0.1047	0.1431	0.11481	0.089084	0.067596	0.05918	0.27355	0.18955	0.1225	-2.7583	-2.0771	-2.5604	-3.1396	-2.2646	-2.8625	-2.6104	-2.5021	-3.0667	-2.2	-2.6437	-2.8896	-1.9688	-3.1833	-2.6667	-2.1813	281.186	113.208	131.120	-10.707	263.849	30.405	152.410	-10.658	112.526	97.244	211.192	252.938	63.121	304.402	109.527	231.823	0.00052781	0.0012017	0.00052267	1005.6	4.5829e-06	2.9932e-06	864.13	306.86	1.5088e-05	4.8757e-06	306.87	116.26	104.14	46.236	1.3444e-05	57.182	0.0090893	0.010884	0.003017	1115.2	0.00011478	0.00011963	975.77	349.47	0.00011459	0.00011968	369.97	138.32	125.01	53.512	0.00011374	66.687	302.688	-33.229	-43.412	-36.147	174.777	124.998	-36.955	-30.237	195.429	9.348	-31.893	-26.259	-25.095	-20.124	98.002	-22.716	-8191	255	
23735.811	1	1	0	0	0.13677	0.23296	0.1885	0.16743	0.20629	0.085694	0.13968	0.2345	0.063116	0.053003	0.10982	0.21951	0.25204	0.038012	0.011331	0.18886	-2.5833	-2.4062	-2.4854	-3.0521	-2.0396	-2.9771	-2.8333	-2.1875	-2.9583	-2.3604	-2.5208	-3.1	-2.3396	-2.7167	-2.8292	-2.1396	139.169	2.244	200.531	284.837	169.583	245.330	309.287	267.064	71.137	31.482	234.657	288.534	215.891	236.778	277.292	-12.817	0.00052662	0.00067262	0.00027433	999.14	1.2055e-05	7.0246e-06	863.74	303.23	9.9789e-06	4.509e-06	299.46	114.34	103.32	46.426	9.9155e-06	56.765	0.0086864	0.010276	0.0028321	1102.7	0.00010663	0.00011127	962.04	343.18	0.00010766	0.00011362	361.46	136.22	123.99	53.34	0.00011634	66.567	273.305	310.141	23.701	-36.359	227.345	171.053	-36.872	-30.392	-13.342	94.247	-31.970	-26.342	-24.855	-20.282	88.699	-22.783	-8191	255	
23735.906	1	1	0	0	0.3578	0.050274	0.23006	0.063592	0.25043	0.089037	0.33393	0.071271	0.20927	0.041946	0.13474	0.23503	0.14566	0.052865	0.21554	0.34318	-2.6396	-2.4417	-2.1917	-3.0479	-2.1021	-2.5833	-2.8958	-2.1542	-2.9479	-2.4083	-2.2188	-3.0187	-2.2625	-2.7083	-2.8521	-2.2833	151.389	79.960	56.892	236.394	153.503	146.740	263.001	225.915	309.857	229.598	137.237	285.312	243.585	26.309	104.297	226.678	0.0003256	0.00059814	0.00028987	996.99	9.8905e-06	1.4406e-05	858.61	302.66	5.2321e-06	2.8282e-06	302.05	115.08	104.21	46.053	1.0729e-05	56.764	0.0093357	0.011227	0.0031121	1111.5	0.00012225	0.00012786	974.46	348.67	0.00012347	0.00012822	370.9	138.76	125.93	53.571	0.00011874	66.536	269.094	-31.202	36.260	-36.454	7.408	22.611	-36.845	-30.172	245.564	277.284	-32.035	-26.446	-25.122	-20.203	123.446	-22.761	-8191	255	
23736.004	1	1	0	0	0.27082	0.0528	0.13414	0.15224	0.34395	0.21162	0.059083	0.093933	0.18104	0.23484	0.21151	0.023873	0.16279	0.19016	0.14829	0.082102	-2.7083	-2.5438	-2.2542	-3.0875	-2.2875	-2.75	-3.025	-2.1542	-2.8458	-2.7854	-2.3854	-2.9896	-2.3688	-2.6521	-2.8625	-2.1646	4.266	48.223	26.449	296.992	195.188	268.811	33.252	194.714	6.763	290.490	242.340	310.366	304.731	265.331	154.156	-19.041	0.00046767	0.0021062	0.00019977	995.87	4.786e-06	8.3223e-06	860.81	302.43	3.3602e-06	1.3268e-05	302.86	115.15	103.72	45.83	1.3734e-05	56.96	0.0089701	0.010525	0.0028702	1098.6	0.00010791	0.00011071	962.32	341.31	0.00010734	0.00011193	363.29	136.94	123.13	52.627	0.00010971	66.072	270.092	290.066	-6.966	-36.604	133.356	200.127	-36.877	-30.372	193.109	112.968	-31.842	-26.522	-24.689	-20.236	225.070	-22.623	-8191	255	
23736.121	1	1	0	0	0.15335	0.14859	0.30247	0.34565	0.059626	0.071182	0.22097	0.039846	0.064559	0.057787	0.39899	0.05676	0.26023	0.058801	0.25404	0.20599	-2.5	-2.5292	-2.0604	-3.2167	-2.2792	-2.5729	-3.1312	-2.2896	-2.8042	-2.9104	-2.2271	-3.1396	-2.4667	-2.5333	-2.9354	-2.1292	19.509	160.695	166.266	-40.278	25.358	271.280	223.499	119.699	151.174	164.899	280.275	260.614	-12.306	174.732	219.206	260.267	0.00032039	0.00062983	0.00048082	989.36	6.9958e-06	2.8749e-06	864.91	300.32	2.8124e-05	5.8018e-06	306.36	116.6	103.43	45.16	1.286e-05	56.973	0.0084458	0.009985	0.0027463	1088.3	0.00010303	0.00010554	959.35	337.53	9.8275e-05	0.00010172	361.05	135.84	120.28	51.181	9.6645e-05	64.864	-24.548	15.390	66.799	-36.068	141.488	49.544	-36.600	-30.399	203.014	118.248	-31.880	-25.943	-24.827	-20.075	113.793	-22.701	-8191	255	
23736.219	1	1	0	0	0.16869	0.12091	0.099236	0.28268	0.27263	0.13007	0.23663	0.10581	0.19069	0.061286	0.21059	0.11864	0.19125	0.14051	0.081017	0.1663	-2.3417	-2.7396	-2.1042	-3.1333	-2.4083	-2.3625	-3.0771	-2.3479	-2.7021	-2.8979	-2.2604	-3.225	-2.8	-2.4625	-3.1333	-2.3958	-25.996	-8.765	153.594	297.241	122.551	261.713	224.935	275.234	120.639	127.130	284.807	25.082	237.917	-45.101	309.921	130.040	0.00021951	0.0013261	0.00037238	981.2	1.5143e-05	7.0185e-06	852.49	296.06	1.6581e-05	4.7825e-06	301.54	115.54	100.19	43.976	1.7822e-05	55.543	0.0075704	0.008975	0.0025014	1068	9.5199e-05	9.9384e-05	944.73	331.73	9.8801e-05	0.0001045	359.29	135.73	119.27	50.627	0.00010685	64.468	254.121	-10.530	48.734	-36.229	117.898	132.515	-36.658	-30.271	52.280	-26.814	-31.710	-25.925	-24.969	-19.907	194.317	-22.522	-8191	255	
23736.289	1	1	0	0	0.17936	0.071731	0.18775	0.099089	0.09348	0.2116	0.26501	0.28692	0.18063	0.024783	0.019813	0.10268	0.24561	0.25541	0.17032	0.27662	-2.3	-2.8979	-2.0604	-3.0563	-2.5771	-2.1167	-3.075	-2.3917	-2.4333	-2.9729	-2.1104	-2.8604	-2.7458	-2.375	-3.0333	-2.3688	165.404	163.263	272.562	279.277	25.197	280.172	272.378	-46.756	126.200	46.972	42.577	225.610	209.320	302.211	11.615	245.364	8.3194e-05	0.0010798	0.00029319	966.46	1.2606e-05	4.9051e-06	842.64	290.13	4.4837e-06	9.6501e-06	302.01	115.52	97.895	42.379	9.5302e-06	54.862	0.0083819	0.009896	0.002729	1064.1	9.7027e-05	0.00010007	935.94	325.5	9.3882e-05	9.6483e-05	352.33	132.74	113.79	47.765	8.4342e-05	61.788	32.248	40.255	90.541	-35.938	69.635	118.763	-36.596	-30.346	102.459	1.583	-31.902	-26.263	-25.019	-19.807	176.372	-22.638	-8191	255	
23736.410	1	1	0	0	0.23283	0.30135	0.33424	0.040219	0.27381	0.25281	0.15024	0.10183	0.16174	0.0315	0.17676	0.043812	0.092334	0.14114	0.04496	0.27518	-2.0187	-3.0125	-2.3125	-3.0229	-2.7417	-2.4083	-3.3688	-2.5854	-2.4125	-3.1146	-2.3	-2.7521	-2.8854	-2.2854	-2.8	-2.5375	287.432	177.617	-39.541	98.216	239.690	56.690	224.452	297.653	228.718	60.255	108.588	149.265	66.230	256.997	47.610	266.331	0.00029632	0.00056417	6.945e-05	921.86	2.2552e-05	1.7809e-05	812.92	272.11	1.2054e-05	3.7612e-06	309.67	115.66	94.046	39.236	1.5217e-05	50.303	0.0064721	0.0078542	0.002254	1007.9	9.3854e-05	0.00010025	904.25	308.26	9.0518e-05	7.9099e-05	344.71	128.03	104.71	42.932	5.6925e-05	54.879	-33.830	114.186	129.982	-35.807	78.194	48.821	-36.531	-30.090	106.831	26.624	-31.537	-25.971	-24.756	-19.676	157.661	-22.399	-8191	255	
23736.508	1	1	0	0	0.14869	0.084228	0.17532	0.17507	0.18165	0.1229	0.28421	0.13998	0.2273	0.048875	0.26017	0.3814	0.13513	0.16458	0.10343	0.24761	-1.9896	-3.125	-2.1958	-2.8354	-2.8646	-2.1229	-3.0646	-2.6083	-2.2771	-3.2062	-2.2708	-2.6646	-2.8937	-2.1188	-2.775	-2.6312	92.190	236.718	123.642	-44.014	235.997	153.272	276.060	262.724	-24.433	272.236	227.176	-45.305	141.650	237.048	-13.812	199.503	0.00035039	0.00038113	0.00022061	1005.1	7.1572e-06	4.0699e-06	869.17	287.17	7.1245e-06	4.375e-06	306.55	105.02	84.894	34.582	7.4867e-06	46.404	0.0038977	0.0044052	0.0011846	1042.4	4.1507e-05	4.2074e-05	903.52	300.77	3.9167e-05	3.9909e-05	325.88	112.28	91.457	36.765	3.343e-05	49.472	304.821	9.313	8.646	-35.994	161.120	91.285	-36.671	-30.407	273.257	131.773	-31.842	-25.791	-24.546	-19.333	175.222	-21.752	-8191	255	
23736.604	1	1	0	0	0.38345	0.14623	0.13477	0.22748	0.24082	0.045351	0.13	0.26584	0.13399	0.075927	0.049377	0.10196	0.23525	0.12235	0.22268	0.20638	-1.9583	-2.95	-2.3542	-2.7042	-2.8875	-2.1646	-3.1	-2.7479	-2.2188	-3.2229	-2.475	-2.6229	-3.075	-2.2958	-2.6417	-2.9229	44.687	16.338	82.685	-41.231	254.539	245.374	304.930	176.045	2.774	155.384	-35.290	274.904	-18.753	101.993	69.105	296.856	0.0003386	0.00061206	0.00012691	969.69	2.9044e-06	2.9443e-06	856.28	277.28	5.2711e-06	8.4684e-06	298.25	102.81	83.251	34.269	1.5182e-05	45.221	0.0027495	0.0033865	0.00098774	1004	4.2612e-05	5.0174e-05	902.49	299.39	6.855e-05	8.0913e-05	346.93	122.07	103.39	42.117	0.00014269	58.148	276.217	31.821	307.372	-35.832	20.915	153.744	-36.419	-30.404	81.316	96.719	-31.691	-25.247	-24.595	-19.366	160.309	-22.055	-8191	255	
23736.699	1	1	0	0	0.084001	0.11511	0.28607	0.39764	0.092966	0.13155	0.20048	0.037746	0.2518	0.2654	0.070574	0.25181	0.10685	0.2775	0.098711	0.025213	-1.6708	-3.0167	-2.5479	-2.5271	-3.1188	-2.225	-3.0312	-2.7438	-2.1479	-2.9833	-2.6104	-2.5396	-3.2729	-2.2438	-2.5021	-3.0833	262.144	226.266	99.277	267.364	53.009	-38.769	89.515	59.240	188.932	292.360	64.541	220.058	98.582	-36.316	-23.149	275.040	0.00035169	0.0018998	0.00061455	947.65	2.0408e-05	1.4317e-05	828.37	267.62	3.6127e-05	1.7517e-05	284.06	103.11	84.976	34.998	6.3849e-06	46.354	0.013309	0.017792	0.0055386	1184.1	0.00026039	0.00029194	1129	387.21	0.00034598	0.00038177	499	178.31	154.1	58.3	0.00037872	75.67	301.071	-10.846	-27.143	-36.041	149.120	292.768	-36.766	-30.463	65.811	235.538	-31.660	-25.546	-24.602	-19.384	265.215	-21.637	-8191	255	
23736.818	1	1	0	0	0.077121	0.15754	0.11624	0.27517	0.2164	0.22171	0.1816	0.10603	0.17621	0.16731	0.03272	0.33656	0.17396	0.24727	0.1917	0.12254	-1.8813	-3.0563	-2.5229	-2.3896	-2.7458	-2.1917	-2.4917	-2.7917	-2.0979	-2.9437	-2.7333	-2.3187	-3.0729	-2.4208	-2.2583	-3.0438	-25.824	233.166	48.529	309.174	32.645	280.513	32.404	-36.596	-14.885	70.882	6.661	206.245	308.307	0.864	-2.131	235.840	0.00068561	0.0019486	0.00015048	964.76	1.3137e-05	1.5548e-06	871.17	278.69	1.2126e-05	7.1966e-06	309.54	109.52	88.601	36.261	2.6575e-06	48.581	0.026742	0.030022	0.0076367	1229.5	0.00023782	0.00022313	1059.1	342.28	0.00015774	0.00015171	385.22	134.85	110.87	43.756	0.00011817	58.506	236.795	222.835	-27.866	-36.261	221.633	222.989	-36.859	-30.063	20.360	111.691	-31.614	-25.861	-24.451	-19.403	40.267	-21.907	-8191	255	
23736.914	1	1	0	0	0.082274	0.18241	0.16124	0.33676	0.10471	0.050746	0.19657	0.023073	0.051123	0.0323	0.44675	0.36901	0.1237	0.17681	0.17443	0.28425	-1.6917	-2.7771	-2.7521	-2.2938	-2.9917	-2.4354	-2.6708	-2.9313	-1.9688	-2.9188	-2.7833	-2.4042	-3.0646	-2.5146	-2.3667	-3.1854	-31.210	12.630	275.033	203.554	52.836	51.071	268.937	178.757	67.259	80.041	214.486	271.200	197.644	71.539	220.121	279.754	0.00028742	0.0017019	0.00010666	991.74	7.8547e-06	5.2286e-06	902.3	288.12	1.2291e-05	3.7861e-06	330.4	118.14	96.202	41.725	7.011e-06	57.727	0.0094416	0.011633	0.0033178	1118.8	0.00012656	0.00012577	1012.2	327.38	9.8378e-05	9.4523e-05	376.14	134.57	110.74	47.121	9.1037e-05	66.019	303.241	9.176	175.594	-35.979	8.777	96.519	-36.811	-30.076	13.353	-5.016	-32.096	-25.921	-24.737	-19.801	111.034	-22.050	-8191	255	
23736.988	1	1	0	0	0.12437	0.1475	0.15365	0.22579	0.15822	0.091947	0.22893	0.23494	0.16761	0.12052	0.087089	0.21837	0.17171	0.16488	0.17469	0.30047	-1.7938	-2.6375	-2.7938	-2.3583	-3.0833	-2.5375	-2.3854	-3.2854	-2.0812	-2.7354	-3.0438	-2.1333	-3.0458	-2.4875	-2.4771	-2.8958	183.817	199.997	178.213	243.824	277.867	203.323	227.155	-27.398	130.691	-3.164	211.718	23.244	306.748	224.309	-20.593	264.999	0.00025305	0.00081472	0.00042864	1022.7	2.5325e-05	1.3925e-05	879.65	317.09	2.898e-05	2.3305e-05	315.75	119.02	106.31	48.302	3.2627e-06	59.909	0.0090642	0.012904	0.0043651	1221.3	0.00023728	0.00027768	1140.7	418.07	0.00028388	0.00029598	472.31	172.37	153.12	63.814	0.0002429	78.548	267.590	-44.557	16.468	-36.170	102.092	79.430	-36.729	-30.798	213.124	293.750	-32.335	-26.205	-25.187	-20.791	306.089	-22.964	-8191	255	
23737.084	1	1	0	0	0.17149	0.0124	0.16555	0.075308	0.20603	0.10148	0.31888	0.16374	0.26818	0.26944	0.091907	0.1067	0.15603	0.18653	0.12158	0.083524	-1.95	-2.6125	-2.8063	-2.3292	-3.0125	-2.6771	-2.4917	-3.2562	-2.3292	-2.5125	-2.8042	-2.0479	-2.7958	-2.7812	-2.1375	-3.1396	182.585	233.073	-31.099	300.969	-24.372	259.782	-19.788	-29.177	131.630	259.428	218.989	65.809	-31.040	279.134	139.836	282.762	0.00052983	0.00034155	0.00025137	1063.1	2.0932e-05	6.0636e-06	944.3	329.72	6.1662e-06	8.4742e-06	329.4	123.21	112.05	51.002	1.635e-05	62.563	0.016549	0.018345	0.0047017	1224.4	0.00015592	0.00015011	1070.7	376.58	0.00011721	0.00011433	388.14	143.47	129.55	56.76	8.6591e-05	69.389	-25.434	43.791	300.628	-36.330	169.312	66.076	-36.971	-30.776	265.883	87.245	-32.631	-26.396	-25.416	-20.672	78.123	-23.074	-8191	255	
23737.203	1	1	0	0	0.28323	0.25727	0.13005	0.33768	0.14249	0.23807	0.41559	0.17871	0.19434	0.11629	0.04214	0.58979	0.13552	0.12383	0.16186	0.016273	-1.9354	-2.5229	-3.1042	-2.3104	-2.7938	-2.775	-2.4625	-2.9833	-2.4042	-2.5062	-3.1979	-2.1125	-2.8104	-2.9396	-2.1562	-3.1	-36.449	119.385	200.610	249.102	105.897	213.896	306.824	-13.055	220.169	252.954	145.673	233.052	254.927	198.492	46.896	16.444	0.00021659	0.0016533	1.0354e-05	1082	3.7436e-06	9.2989e-06	944.96	331.04	1.5121e-05	2.8348e-06	335.61	126.84	113.08	52.203	2.8025e-06	65.739	0.006227	0.0070543	0.0018688	1143.7	6.5046e-05	6.4279e-05	997.05	349.63	5.0147e-05	4.7196e-05	356.01	134.54	119.21	54.406	3.0339e-05	68.396	-32.144	24.781	3.349	-36.429	257.147	82.134	-36.991	-30.845	123.413	99.207	-32.251	-26.274	-25.495	-20.595	81.181	-23.026	-8191	255	
23737.299	1	1	0	0	0.084426	0.1585	0.279	0.21416	0.1545	0.09681	0.27324	0.092397	0.081967	0.13749	0.23231	0.37698	0.12302	0.36148	0.32769	0.07534	-2.0896	-2.2896	-2.9146	-2.1604	-2.7229	-2.9292	-2.1792	-3.1437	-2.4521	-2.1729	-3.1813	-2.2875	-2.7125	-2.9875	-2.1271	-3.0042	126.195	124.228	-15.856	272.491	43.669	293.627	228.910	265.331	151.967	50.909	269.566	258.984	28.012	292.265	10.885	296.649	0.00036419	0.00070166	0.0001467	1043.9	3.4961e-06	8.6023e-06	929.46	328.31	8.185e-06	6.178e-06	343.89	132.43	114.35	53.85	6.5913e-06	68.957	0.0021984	0.0024388	0.00065522	1063.1	2.3922e-05	2.36e-05	943.07	335.13	2.0137e-05	1.9959e-05	352.3	136.36	117.86	55.271	1.7997e-05	70.746	280.416	24.503	101.766	-36.146	124.406	111.161	-36.263	-30.493	133.382	80.744	-32.214	-26.443	-25.174	-20.574	110.715	-23.094	-8191	255	
23737.395	1	1	0	0	0.2363	0.13912	0.17887	0.41512	0.077438	0.057353	0.30231	0.21671	0.10534	0.16627	0.12556	0.32089	0.27693	0.14621	0.10676	0.15435	-2.2271	-2.3	-2.975	-2.5458	-2.3667	-3.0646	-2.3187	-3.0104	-2.5354	-1.8958	-3.0958	-2.5771	-2.4854	-2.9104	-2.2229	-2.8396	129.833	249.197	83.376	290.977	-38.208	79.139	-32.742	307.533	257.475	294.715	283.339	-30.621	42.232	-6.041	174.537	244.101	0.00047793	0.00071838	0.00024387	1015.2	7.7266e-06	7.4757e-06	909.96	325.92	1.2934e-05	8.437e-06	340.66	132.06	114.13	53.659	7.6143e-07	68.565	0.00145	0.0016409	0.00044774	1023.1	1.6931e-05	1.7399e-05	921.08	331.49	1.7292e-05	1.7856e-05	348.42	135.46	117.14	55.225	1.8426e-05	70.183	296.367	67.911	30.595	-35.881	121.207	92.132	-36.821	-30.567	171.978	128.343	-32.115	-26.808	-25.241	-20.785	-5.410	-23.030	-8191	255	
23737.516	1	1	0	0	0.076204	0.035704	0.15223	0.17802	0.08529	0.23168	0.11185	0.25839	0.039972	0.21765	0.17028	0.36437	0.3268	0.053285	0.22316	0.26417	-2.4	-2.15	-2.875	-2.4958	-2.3646	-3.0729	-2.1854	-2.9875	-2.5583	-2.1396	-2.9104	-2.3646	-2.4792	-3.0854	-2.1688	-2.875	294.298	13.667	246.667	29.459	120.639	221.891	278.098	294.984	23.934	160.436	58.550	306.198	-16.101	-23.534	209.962	282.725	0.00034751	0.00014416	8.4468e-05	1005.8	2.505e-06	6.1653e-06	901.62	323.71	8.5335e-06	8.4332e-06	336.67	131.43	113.01	53.524	7.8544e-06	69.398	0.001501	0.0017046	0.00047694	1019.9	1.8881e-05	1.9441e-05	911.59	330.21	2.0189e-05	2.1514e-05	347.52	135.85	117.09	55.505	2.416e-05	71.567	267.923	39.807	24.582	-35.981	146.776	118.448	-36.793	-30.508	103.575	147.629	-31.980	-26.762	-25.133	-20.702	124.428	-23.054	-8191	255	
23737.588	1	1	0	0	0.44947	0.21076	0.19124	0.20814	0.2025	0.065436	0.30027	0.098586	0.17629	0.19012	0.097086	0.34059	0.097612	0.15178	0.21746	0.35731	-2.4104	-2.0354	-2.8312	-2.5167	-2.4333	-2.9979	-2.3708	-2.6667	-3.0083	-2.0146	-2.875	-2.6292	-2.2146	-3.1083	-2.05	-2.6458	258.642	271.932	289.251	-46.677	99.986	54.826	283.023	-20.276	171.127	63.388	151.787	179.683	296.453	242.360	140.432	252.833	0.00043096	0.00050228	0.00031906	971.07	7.1328e-06	6.7887e-06	879.04	316.46	2.5472e-06	5.7259e-06	338.65	135.14	112.9	54.876	9.2969e-06	72.293	0.0019847	0.0023591	0.00065277	991.93	2.4918e-05	2.5734e-05	898.62	324.88	2.4817e-05	2.5902e-05	351	140.1	117.77	56.861	2.4633e-05	74.63	288.198	68.586	67.259	-35.927	70.343	145.081	-36.804	-30.331	197.876	164.506	-31.917	-26.616	-24.813	-20.443	6.769	-22.949	-8191	255	
23737.684	1	1	0	0	0.14067	0.19392	0.30735	0.084927	0.24495	0.26127	0.10173	0.17619	0.18721	0.015816	0.16758	0.2954	0.17215	0.1489	0.10848	0.1018	-2.5021	-2.0542	-2.7687	-2.6104	-1.9833	-3.125	-2.3708	-2.3917	-2.9604	-2.1625	-2.9146	-2.6458	-2.2583	-3.0646	-2.3958	-2.6167	108.570	51.638	120.658	10.905	248.363	92.644	100.741	286.809	-10.400	279.877	247.218	215.843	106.410	-25.074	121.881	192.783	0.00041033	3.91e-05	4.3208e-05	955.05	5.7099e-06	3.933e-06	872.18	316.07	9.78e-06	6.1568e-06	342.03	138.39	115.49	56.091	7.6404e-06	73.917	0.0019282	0.0021852	0.00058524	971.85	2.2271e-05	2.2543e-05	887.39	323.89	2.0687e-05	2.0936e-05	352.51	142.3	119.43	57.852	1.9942e-05	75.712	275.570	241.747	1.782	-35.783	133.223	167.364	-36.378	-30.233	138.032	100.630	-31.807	-26.602	-24.981	-20.483	80.478	-23.149	-8191	255	
23737.805	1	1	0	0	0.25292	0.13958	0.076737	0.21732	0.067302	0.14336	0.13906	0.20235	0.25709	0.21485	0.13847	0.26612	0.2824	0.22757	0.28459	0.18204	-2.6437	-2.2521	-2.9458	-2.8333	-2.0333	-2.8854	-2.6021	-2.3208	-3.0563	-2.1583	-2.5396	-2.8583	-2.1333	-3.0417	-2.3958	-2.4021	95.220	231.080	49.828	289.106	8.989	176.377	226.487	183.552	2.958	233.056	-41.351	230.500	-7.781	268.913	-1.109	126.878	0.00032613	0.0011484	0.0002385	957.24	7.4822e-07	2.8962e-06	862.85	316.69	3.1187e-06	1.1767e-05	335.5	134.98	114.4	55.74	9.0186e-06	71.699	0.0016066	0.0017928	0.00049013	967.59	1.8991e-05	1.993e-05	875.01	322.75	1.9633e-05	2.0754e-05	345.14	139.21	118.3	57.316	2.0699e-05	73.595	281.989	27.080	8.245	-35.850	140.947	103.333	-36.578	-30.204	222.036	110.281	-32.002	-26.325	-24.839	-20.659	111.277	-23.450	-8191	255	
23737.898	1	1	0	0	0.20288	0.39484	0.27393	0.044566	0.16078	0.1828	0.26208	0.19134	0.13592	0.1118	0.10094	0.25605	0.33181	0.25282	0.074592	0.12727	-2.6417	-2.1875	-2.5396	-2.9813	-2.0812	-2.8375	-2.7333	-2.4188	-3.1312	-2.2208	-2.6708	-2.8125	-2.1875	-2.8833	-2.75	-2.3833	100.178	211.666	169.141	186.842	75.701	233.479	163.365	11.410	198.121	285.831	-40.219	-9.547	-32.782	-4.387	224.518	80.960	0.00045439	0.00061106	0.00025755	953.44	5.2953e-06	3.4087e-06	855.14	320.58	1.4015e-05	8.2941e-06	336.31	136.63	118.7	57.655	8.8871e-06	72.921	0.0016833	0.0019053	0.00052196	966.81	2.0181e-05	2.071e-05	872.18	327.15	2.1037e-05	2.2325e-05	347.64	140.9	122.83	59.626	2.5753e-05	75.365	273.298	61.637	16.142	-35.866	192.229	50.376	-36.233	-30.444	44.880	82.090	-32.209	-26.879	-25.233	-20.884	134.871	-23.199	-8191	255	
23737.994	1	1	0	0	0.081526	0.25587	0.11746	0.3195	0.040959	0.1384	0.096296	0.16025	0.32804	0.076445	0.24453	0.078081	0.40406	0.2961	0.1142	0.29114	-2.6542	-2.0167	-2.3396	-2.9854	-2.1354	-2.9292	-2.9375	-2.2125	-2.9562	-2.4188	-2.6604	-3.1292	-2.2896	-2.9271	-2.8063	-2.35	89.217	78.722	130.550	243.602	123.252	-28.457	278.033	269.102	271.038	173.974	-39.515	94.642	191.173	-48.350	101.837	248.937	0.00040372	0.00049345	0.00040676	1016.9	2.5262e-07	1.126e-05	915.06	338.13	9.9342e-06	1.556e-05	337.78	134.81	121.78	58.427	1.7903e-05	70.291	0.0023067	0.002868	0.0008576	1049	3.9847e-05	4.6261e-05	955.96	357.7	6.0649e-05	7.3851e-05	384.93	153.37	140.17	65.486	0.00012318	81.164	265.245	-7.522	59.096	-35.963	97.900	127.425	-36.867	-30.894	183.183	110.143	-32.300	-27.031	-25.997	-21.045	35.329	-23.252	-8191	255	
23738.115	1	1	0	0	0.24797	0.12123	0.16225	0.072185	0.044004	0.26597	0.14088	0.34198	0.32204	0.053433	0.2809	0.19476	0.10908	0.077392	0.062071	0.27723	-2.6188	-2.4979	-2.225	-3.0792	-2.2979	-2.65	-3.125	-2.1333	-2.875	-2.3812	-2.3667	-3.0625	-2.35	-2.8625	-2.9417	-2.3917	-8.392	309.725	291.652	12.153	224.092	175.453	208.262	269.457	49.551	127.531	308.264	121.027	-44.816	259.574	59.907	16.507	0.00043681	0.0008845	0.00031297	1102.6	7.4167e-06	1.362e-05	960.14	347.47	1.4306e-05	2.4979e-06	346.53	136.74	122.27	58.139	3.6922e-06	70.897	0.010878	0.013579	0.0038786	1245.9	0.00014842	0.00014989	1095.1	395.42	0.00012079	0.00011851	405.28	156.19	140.29	64.119	9.1289e-05	78.217	259.251	132.520	253.284	-36.204	166.137	188.797	-37.124	-30.638	129.201	52.066	-32.545	-27.089	-25.682	-21.078	211.264	-23.146	-8191	255	
23738.188	1	1	0	0	0.084682	0.074236	0.075692	0.13981	0.45104	0.17102	0.19694	0.45817	0.36026	0.11823	0.13771	0.092168	0.037856	0.10859	0.063046	0.10429	-2.4813	-2.6167	-2.1792	-3.0729	-2.1542	-2.6333	-3.0458	-2.1937	-2.8042	-2.6562	-2.2	-3.1229	-2.3688	-2.3354	-3.0396	-2.3917	103.727	208.543	222.753	-29.289	144.793	168.778	254.394	231.719	-43.376	56.244	265.600	232.257	237.767	-35.955	94.183	-32.040	0.00048341	0.00052389	0.000296	1065.2	4.7319e-06	1.2458e-05	938.55	339.85	6.4879e-06	1.6202e-05	341.67	134.34	119.31	56.947	9.4378e-06	69.037	0.0066017	0.007511	0.0019912	1137.4	7.3339e-05	7.4747e-05	1001.5	367.2	7.3042e-05	7.6497e-05	382	149.05	133.71	61.967	8.1557e-05	75.957	283.796	-9.694	65.457	-36.156	175.993	75.202	-36.738	-30.506	54.900	62.659	-32.360	-26.531	-25.313	-21.039	24.343	-23.209	-8191	255	
23738.283	1	1	0	0	0.209	0.17201	0.23259	0.21583	0.21479	0.18234	0.31787	0.07359	0.06057	0.42292	0.019721	0.071607	0.030506	0.1035	0.2056	0.15887	-2.4708	-2.6167	-2.275	-3.1396	-2.3896	-2.3187	-3.1542	-2.2146	-2.8667	-2.7167	-2.3875	-3.0417	-2.5271	-2.525	-3.1021	-2.3458	-21.557	41.595	27.229	234.215	87.747	166.023	302.301	177.822	73.835	185.898	118.663	60.446	201.081	243.306	-17.755	291.991	0.00056237	0.00083432	0.00024699	1052	1.3564e-05	1.0407e-05	914.2	332.03	2.624e-05	9.7431e-06	334.47	132.82	117.79	56.189	6.3787e-06	69.393	0.0064835	0.0076322	0.0020728	1122	7.7633e-05	8.0298e-05	984.96	360.4	7.6205e-05	7.8992e-05	375.57	147.17	130.52	60.704	6.6234e-05	74.864	290.507	303.771	-46.110	-35.981	209.367	72.916	-36.839	-30.560	92.553	111.102	-32.326	-26.748	-25.455	-20.774	18.436	-23.350	-8191	255	
23738.379	1	1	0	0	0.21568	0.26537	0.18684	0.16237	0.19946	0.093599	0.033196	0.13092	0.067247	0.10247	0.19411	0.14409	0.24373	0.056131	0.073955	0.25154	-2.3542	-2.8042	-2.1292	-3.1104	-2.6333	-2.2167	-3.1208	-2.2875	-2.6083	-2.9458	-2.0792	-2.9479	-2.6021	-2.2833	-2.9813	-2.3	165.348	125.339	76.480	234.613	167.403	247.196	71.011	239.942	232.677	24.560	176.901	216.602	-11.502	48.869	-2.799	241.865	0.00031548	0.00077745	0.00025211	1000.6	1.2758e-05	8.3432e-06	879.21	321.26	8.3954e-06	3.6629e-06	333.18	134.43	115.5	55.931	3.0891e-06	70.962	0.0047632	0.0054105	0.0014421	1046.7	5.1024e-05	5.0222e-05	920.2	337.06	4.0479e-05	4.0046e-05	353.05	141.54	121.6	58.199	3.2392e-05	73.907	-31.951	17.935	21.823	-36.029	55.844	89.917	-36.481	-30.350	158.437	33.848	-31.803	-26.519	-25.060	-20.741	160.606	-22.898	-8191	255	
23738.500	1	1	0	0	0.29436	0.20551	0.07264	0.21088	0.077962	0.35684	0.24812	0.34167	0.20173	0.20454	0.078897	0.20012	0.23513	0.31686	0.16047	0.10429	-2.1417	-2.7354	-2.0771	-2.9646	-2.5312	-2.2292	-3.1375	-2.3771	-2.4083	-2.8271	-2.4271	-2.8	-2.7729	-2.2792	-2.7521	-2.6333	177.274	211.183	262.834	268.959	172.304	215.706	128.740	273.746	297.763	269.853	201.508	278.297	198.438	265.455	225.181	266.603	0.00032799	0.00066679	0.00031569	935.52	6.3506e-06	3.1389e-06	850.92	308.18	3.2013e-06	4.5625e-06	331.47	135.01	112.51	54.158	1.4584e-05	71.079	0.002493	0.0028495	0.00077738	962.07	2.9373e-05	3.0428e-05	873.6	319.36	2.8933e-05	2.9832e-05	346.13	140.45	117.59	56.351	2.7829e-05	73.584	263.641	50.547	35.868	-35.951	132.727	33.240	-36.413	-30.131	69.917	108.809	-31.889	-26.113	-25.108	-20.463	93.334	-23.062	-8191	255	
23738.596	1	1	0	0	0.14125	0.23021	0.25464	0.2052	0.2258	0.21298	0.12334	0.20934	0.246	0.096329	0.11124	0.094929	0.1052	0.18208	0.078194	0.16403	-2.2229	-2.9771	-2.0854	-3.1146	-2.6417	-2.2958	-3.1833	-2.5271	-2.4021	-2.9583	-2.4188	-2.8979	-2.9458	-2.1917	-2.8708	-2.6521	89.558	288.473	-9.923	247.457	54.474	70.392	273.315	277.492	273.844	142.840	-26.759	195.605	147.392	-46.091	203.770	-47.814	0.00043419	0.00045567	0.00025262	901.59	3.0141e-06	5.1722e-06	833.77	298.71	6.4728e-06	6.1334e-06	327.56	132.85	108.9	52.558	1.5493e-06	69.561	0.002234	0.0026137	0.00070075	922.3	2.632e-05	2.7186e-05	853.07	308.02	2.5329e-05	2.5837e-05	340.49	138.02	113.13	54.216	2.1712e-05	71.66	270.847	44.811	111.044	-35.752	207.585	165.296	-36.082	-30.049	212.656	125.029	-31.971	-26.380	-24.864	-20.377	221.986	-22.989	-8191	255	
23738.691	1	1	0	0	0.24872	0.13532	0.073207	0.44679	0.0068741	0.25092	0.22373	0.26512	0.096485	0.22763	0.14069	0.19538	0.11792	0.096337	0.15798	0.14629	-1.9521	-2.975	-2.1188	-2.7146	-3.0042	-2.1917	-2.8625	-2.6896	-2.3146	-3.0771	-2.3229	-2.5375	-2.9708	-2.1542	-2.8271	-2.5812	-19.826	95.769	99.504	263.813	-20.664	-1.573	148.667	-27.115	46.243	254.985	-40.840	192.447	20.160	294.304	2.432	-11.864	0.00031366	0.0010431	0.000221	881.72	1.0822e-05	4.3467e-06	821.9	290.94	7.4768e-06	8.5904e-06	324.01	130.23	104.28	49.39	6.9964e-06	65.578	0.0017142	0.0018901	0.00051552	896.84	2.0019e-05	2.0435e-05	838.04	298.13	2.0615e-05	2.1472e-05	334.95	134.53	108.31	51.238	2.3208e-05	67.756	270.155	78.165	71.643	-35.686	107.156	89.815	-36.245	-29.904	95.345	104.632	-31.828	-25.961	-24.247	-20.277	54.805	-22.429	-8191	255	
23738.787	1	1	0	0	0.21514	0.26774	0.12712	0.39569	0.17612	0.26287	0.17664	0.26318	0.13136	0.17717	0.13958	0.2023	0.30418	0.28908	0.092566	0.39869	-1.8958	-3.0292	-2.2562	-2.5979	-2.9583	-2.3312	-2.9333	-2.7917	-2.0542	-3.0563	-2.4729	-2.5042	-2.9583	-2.2104	-2.7979	-2.6188	210.392	81.532	77.463	-29.928	223.130	135.827	285.164	64.748	183.961	140.071	283.039	-7.333	229.603	300.539	274.008	234.733	0.00044089	0.0004126	0.00017008	877.8	7.4401e-06	1.1097e-06	828.74	285.08	6.0337e-06	6.5944e-06	327.44	131.56	104.08	49.908	1.4972e-06	68.468	0.0019289	0.0022499	0.00062026	896.68	2.3383e-05	2.3872e-05	845.92	293.3	2.2041e-05	2.261e-05	337.67	135.95	107.79	51.706	2.1879e-05	70.694	262.077	71.750	35.654	-35.750	125.069	103.399	-36.353	-30.240	64.064	99.459	-31.777	-25.934	-24.603	-19.967	105.610	-22.572	-8191	255	
23738.885	1	1	0	0	0.1094	0.030257	0.12703	0.27933	0.31705	0.15059	0.055544	0.1713	0.004864	0.12641	0.28173	0.091953	0.0073068	0.29341	0.20691	0.28993	-1.7563	-3.05	-2.5083	-2.4875	-2.9667	-2.0438	-2.9542	-2.7188	-2.1458	-3.0167	-2.4938	-2.2958	-3.0667	-2.2625	-2.7354	-3.0229	79.381	186.789	289.428	269.773	58.842	227.489	278.477	306.387	7.009	26.700	290.022	68.882	63.670	200.578	311.094	240.105	0.00042095	0.00070866	0.00020749	862.88	6.4242e-06	6.5593e-06	813.73	287.74	1.1975e-05	6.1397e-06	327.05	134.36	106.55	51.856	4.3009e-06	69.698	0.001774	0.0020436	0.00056722	881.93	2.1499e-05	2.2621e-05	829.14	294.99	2.1722e-05	2.2818e-05	337.96	138.51	110.87	53.595	2.2925e-05	72.087	277.577	48.347	17.233	-35.719	141.458	119.355	-36.295	-30.130	112.993	102.829	-31.602	-26.260	-25.037	-20.429	160.226	-22.686	-8191	255	
23738.979	1	1	0	0	0.21968	0.019138	0.065311	0.27611	0.18615	0.16486	0.07209	0.30857	0.10912	0.13151	0.25611	0.22665	0.060737	0.21348	0.1086	0.13954	-1.7792	-2.7438	-2.5479	-2.5104	-3.0542	-2.4062	-2.7542	-3.0729	-2.2146	-2.9125	-2.775	-2.4583	-3	-2.4542	-2.55	-3.0854	-44.924	25.137	98.561	243.635	164.581	165.628	301.187	282.180	256.209	-46.754	165.910	220.302	31.015	126.004	63.558	-8.763	0.00034836	0.0012829	0.00022709	875.76	4.1732e-06	6.5006e-06	820.34	292.49	9.1653e-06	8.0624e-06	326.56	133.36	107.82	52.123	6.3885e-06	68.798	0.0018897	0.0021622	0.00060747	893.78	2.3764e-05	2.4913e-05	837.28	302.02	2.4705e-05	2.567e-05	339.46	138.16	112.89	54.113	2.6254e-05	71.26	249.820	50.045	48.380	-35.544	154.862	137.616	-36.237	-29.746	150.704	115.302	-31.704	-26.128	-24.811	-20.543	141.940	-22.728	-8191	255	
23739.076	1	1	0	0	0.18475	0.16527	0.094218	0.25083	0.15339	0.19822	0.11337	0.15949	0.2049	0.26695	0.25691	0.16378	0.2927	0.11278	0.25388	0.19817	-1.8229	-2.7625	-2.575	-2.3167	-2.9	-2.4271	-2.5438	-3.1	-2.2792	-2.7687	-2.8771	-2.4146	-2.9354	-2.6667	-2.1375	-2.9875	91.834	283.735	66.593	276.220	273.161	235.779	192.383	266.718	-38.007	246.106	283.928	261.123	98.429	262.707	95.746	204.230	0.00044547	0.00034774	9.8048e-05	876.03	7.1994e-06	5.0612e-06	805.97	294.23	2.8572e-06	1.0096e-05	321.62	130.82	108.32	52.195	8.3067e-06	68.281	0.0021491	0.0025148	0.00069926	900.48	2.7154e-05	2.8217e-05	828.93	304.66	2.8251e-05	2.992e-05	336.41	136.74	113.96	54.481	3.1218e-05	70.964	280.738	269.060	47.170	-35.783	1.257	102.545	-36.072	-29.890	232.218	121.677	-31.748	-26.227	-24.682	-20.566	114.211	-23.196	-8191	255	
23739.195	1	1	0	0	0.11874	0.15208	0.089191	0.25927	0.24958	0.1374	0.26125	0.15527	0.022444	0.030795	0.090757	0.1435	0.27573	0.21285	0.14196	0.16184	-1.8604	-2.6729	-2.7375	-2.2458	-2.8729	-2.5979	-2.3563	-3.0542	-2.0625	-2.8208	-2.8917	-2.2896	-3.1271	-2.6646	-2.3937	-3.0583	-29.558	159.161	2.069	236.135	86.254	129.484	186.094	279.557	-23.251	-35.079	172.517	-38.259	245.865	199.782	16.362	194.612	0.00039663	0.00067453	0.00018879	890.37	6.7592e-06	5.2031e-06	813.48	301.1	8.0269e-06	9.9296e-06	321.67	131.19	109.76	52.985	3.6171e-06	68.923	0.002561	0.0029951	0.0008315	917.75	3.2657e-05	3.3904e-05	842.97	312.63	3.3933e-05	3.5474e-05	340.45	138.19	116.1	55.395	3.5652e-05	71.982	284.506	-13.730	-8.360	-36.041	134.711	51.272	-36.192	-30.111	169.093	22.304	-31.796	-26.365	-24.860	-20.434	307.993	-22.827	-8191	255	
23739.293	1	1	0	0	0.097688	0.055835	0.11227	0.13868	0.053973	0.13098	0.23878	0.14555	0.22118	0.10077	0.18287	0.073654	0.24361	0.076928	0.042838	0.36581	-1.9083	-2.5396	-2.8417	-2.2229	-2.9437	-2.7292	-2.45	-3.1792	-2.4125	-2.475	-3.1271	-2.1229	-2.9792	-2.7604	-2.2292	-2.9917	73.208	194.130	208.679	-11.460	101.571	148.959	-46.158	302.364	37.475	240.578	87.598	194.238	244.855	311.730	76.638	220.592	0.0005569	0.0012032	0.00013069	903.66	6.2477e-06	7.9308e-06	819.55	301.56	6.0143e-06	8.9126e-06	321.46	131.21	109.97	52.892	1.2978e-05	68.439	0.0028807	0.0033697	0.00093392	930.02	3.6318e-05	3.7525e-05	851.49	314.57	3.7547e-05	3.9087e-05	342.17	138.73	117.05	55.755	4.0901e-05	72.344	275.670	32.852	98.220	-36.047	112.297	61.787	-36.463	-30.220	114.628	93.582	-31.861	-26.555	-25.077	-20.464	63.266	-22.916	-8191	255	
23739.389	1	1	0	0	0.25569	0.1358	0.016706	0.28265	0.17077	0.068214	0.19134	0.44455	0.33752	0.11587	0.31122	0.18939	0.12962	0.25229	0.11699	0.25222	-1.9979	-2.4521	-2.9813	-2.3563	-2.8229	-2.7333	-2.3042	-3.1396	-2.45	-2.4542	-3.1083	-2.4333	-2.7521	-2.9229	-2.0021	-3.1083	1.183	93.240	-23.359	239.318	-7.560	177.041	272.201	240.141	5.582	297.355	233.099	6.081	-13.681	253.025	230.805	238.746	0.0003585	0.00073115	0.00033188	898.5	6.4324e-06	8.1388e-06	818.98	300.12	1.4341e-05	5.8204e-06	320.21	129.19	108.72	52.264	1.1458e-05	67.269	0.0033221	0.003902	0.0010916	936.2	4.3197e-05	4.4447e-05	857.08	316.1	4.4303e-05	4.7044e-05	344.34	138.72	117.12	55.423	4.8336e-05	71.509	264.099	-24.410	79.694	-35.746	72.946	78.233	-35.986	-29.984	90.912	236.584	-31.787	-26.219	-24.806	-20.531	160.514	-23.182	-8191	255	
23739.484	1	1	0	0	0.17561	0.40559	0.24407	0.15741	0.23871	0.14952	0.14734	0.141	0.17322	0.12034	0.11643	0.18703	0.21256	0.352	0.095489	0.2267	-2.0958	-2.05	-2.9854	-2.1771	-2.6979	-3.0042	-2.3167	-3.0979	-2.5042	-2.1292	-3.225	-2.2021	-2.6937	-3.0687	-2.1271	-3.0438	300.817	-11.063	205.245	271.302	75.037	298.598	227.172	203.731	162.556	56.479	76.321	235.626	269.131	199.252	105.396	268.076	0.00040164	0.00041079	0.00011287	894.39	8.0484e-06	8.2621e-06	805.98	295.05	7.8093e-06	3.9625e-06	311.13	126.31	107.03	51.686	1.0636e-05	66.095	0.0039232	0.0046298	0.0013022	938.73	5.0683e-05	5.2726e-05	854.04	314.78	5.2983e-05	5.6215e-05	342.65	137.67	117.59	55.438	5.8588e-05	70.922	259.343	61.246	99.616	-35.962	108.069	164.037	-36.456	-30.402	150.832	73.141	-31.651	-26.450	-25.149	-20.544	122.999	-22.922	-8191	255	
23739.580	1	1	0	0	0.12775	0.081387	0.28832	0.096566	0.25496	0.24065	0.2626	0.099783	0.23379	0.20874	0.13793	0.29941	0.065529	0.17084	0.024793	0.091375	-1.9937	-2.1854	-2.9875	-2.4646	-2.6542	-2.9479	-2.2313	-2.9417	-2.5646	-2.3104	-3.1458	-2.475	-2.4875	-3.0229	-2.0875	-2.9188	260.306	169.401	215.148	305.691	98.636	230.734	262.936	25.435	-2.299	197.701	266.775	297.910	60.307	98.022	310.865	25.075	0.00028374	0.00072402	9.8542e-05	895.35	9.6188e-06	6.87e-06	802.48	295.15	1.5213e-05	1.4414e-05	313.31	127.09	107.63	51.829	8.9034e-06	66.375	0.0045812	0.0054388	0.0015025	947.54	5.7296e-05	5.9082e-05	854.99	316.73	5.6762e-05	5.8587e-05	343.27	138.1	117.93	55.504	5.7191e-05	71.34	293.283	43.828	29.244	-36.029	199.310	143.135	-36.629	-30.190	154.971	90.355	-31.887	-26.066	-25.072	-20.442	190.682	-22.790	-8191	255	
23739.678	1	1	0	0	0.16415	0.087302	0.034444	0.24869	0.050466	0.13717	0.047188	0.060172	0.13275	0.15329	0.14785	0.1991	0.37334	0.031327	0.22724	0.10016	-2.4583	-2.1813	-2.9896	-2.5854	-2.5208	-3.1354	-2.3854	-2.9688	-2.8917	-2.1917	-3.1063	-2.4688	-2.4188	-3.2875	-2.2521	-2.8729	6.421	284.901	68.003	154.149	221.153	259.914	284.794	280.355	187.573	142.747	33.320	209.840	-37.040	306.820	265.057	32.430	0.00039802	0.00068799	0.0001645	893.5	1.2429e-05	3.3883e-06	810.47	295.12	8.3413e-06	1.21e-05	314.2	127.59	107.51	51.917	5.4285e-06	66.648	0.0044933	0.0053441	0.001482	947.11	5.6489e-05	5.8171e-05	859.86	315.95	5.5396e-05	5.7698e-05	343.89	138.74	118.18	55.714	5.8287e-05	71.81	295.857	218.569	215.580	-36.042	115.823	-29.559	-36.471	-29.850	182.950	159.998	-31.841	-26.295	-24.738	-20.492	175.606	-22.970	-8191	255	
23739.797	1	1	0	0	0.14995	0.085492	0.3503	0.23283	0.12357	0.080183	0.42479	0.15223	0.18997	0.20777	0.14712	0.21849	0.21228	0.24665	0.23467	0.054585	-2.2687	-2.1188	-3.0125	-2.7646	-2.3917	-3.1958	-2.2646	-2.7208	-2.925	-2.1458	-2.9771	-2.6937	-2.4417	-3.0333	-2.3083	-2.7167	-33.472	44.836	165.467	218.290	225.412	220.604	275.851	-41.516	208.998	166.844	230.826	31.238	-11.566	-33.487	260.209	265.347	0.00037824	0.00078606	0.00031772	894.04	6.2821e-06	5.3671e-06	806.82	294.36	6.4616e-06	3.053e-06	312.6	126.38	106.74	51.49	4.6529e-06	65.671	0.0045978	0.0054989	0.0015439	950.76	5.9837e-05	6.2328e-05	864.59	317.17	6.1221e-05	6.4079e-05	346.42	139.24	118.77	55.84	6.4806e-05	71.177	271.842	62.012	53.969	-35.873	48.201	9.724	-36.460	-30.281	300.458	36.842	-31.796	-26.363	-24.802	-20.471	-22.259	-22.880	-8191	255	
23739.893	1	1	0	0	0.021795	0.15096	0.14514	0.21713	0.12222	0.10278	0.19391	0.2982	0.018717	0.16681	0.17085	0.27875	0.23419	0.21518	0.1055	0.097701	-2.6208	-2.0708	-2.9354	-2.9146	-2.3	-2.9979	-2.425	-2.3563	-3.125	-2.1646	-2.9917	-2.7333	-2.0979	-3.1688	-2.3333	-2.6083	270.129	110.417	135.481	305.607	250.328	9.034	15.432	248.711	240.076	291.229	76.801	218.549	293.832	282.202	302.285	275.944	0.00027711	0.00062935	0.00033628	889.28	4.6221e-06	4.7269e-06	797.87	291.4	1.2763e-06	6.0607e-06	304.74	124.84	106.45	51.407	1.0158e-05	64.522	0.0050876	0.0060456	0.0016876	949.15	6.4351e-05	6.7452e-05	858.41	314.86	6.5192e-05	6.8984e-05	342.32	138.14	118.67	55.589	6.8607e-05	70.419	278.126	113.008	59.987	-36.065	-44.614	222.057	-36.636	-29.857	269.871	93.367	-31.829	-26.224	-25.000	-20.538	117.252	-23.073	-8191	255	
23739.988	1	1	0	0	0.1523	0.19852	0.075543	0.048898	0.24603	0.26524	0.21078	0.060521	0.22224	0.22234	0.22553	0.14301	0.043544	0.35674	0.10287	0.26495	-2.8104	-2.0687	-2.7667	-3.0104	-2.1729	-3.0292	-2.4771	-2.5354	-3.0979	-2.3708	-2.8854	-2.9208	-2.2188	-3.0438	-2.5021	-2.4875	38.536	280.672	-36.057	33.384	214.685	186.002	242.929	306.735	85.745	-32.463	232.798	-47.285	235.647	-3.325	271.108	256.654	0.00037911	0.00045734	0.00042447	892.04	5.762e-06	3.4256e-07	797.31	290.48	1.7479e-05	9.3713e-06	305.69	124.58	106.37	50.878	1.8131e-05	64.443	0.0053851	0.0063764	0.0017518	953.38	6.7627e-05	6.9764e-05	859.52	315.15	6.6859e-05	7.0105e-05	343.32	137.99	118.83	55.498	6.7789e-05	70.469	286.988	281.929	249.502	-35.955	272.846	163.674	-36.627	-30.216	66.712	98.993	-31.989	-26.722	-24.996	-20.537	97.657	-23.167	-8191	255	
23740.084	1	1	0	0	0.31361	0.21702	0.19402	0.37026	0.29196	0.11362	0.25961	0.13031	0.16598	0.084782	0.26492	0.13946	0.15959	0.12364	0.2258	0.26733	-2.5896	-2.2083	-2.5646	-2.9646	-2.0687	-2.8688	-2.6229	-2.275	-3.0458	-2.35	-2.675	-2.9688	-2.2708	-3.0167	-2.7458	-2.3354	66.018	204.579	50.499	265.551	227.825	208.044	193.472	5.724	-28.330	283.885	177.022	143.143	306.535	175.074	195.326	296.329	0.00035277	0.0012026	0.00038158	885.21	6.6087e-06	1.1569e-05	795.88	290.45	8.0429e-06	9.5353e-06	307.44	125.37	106.85	51.464	1.4633e-05	65.721	0.0053162	0.0063686	0.0017596	950.34	6.8278e-05	7.1191e-05	860.03	315.56	6.779e-05	6.9731e-05	343.41	138.07	118.08	55.436	5.9982e-05	70.556	260.095	5.071	144.283	-35.958	79.550	51.076	-36.901	-30.158	169.509	59.088	-31.850	-26.175	-24.810	-20.292	118.065	-22.868	-8191	255	
23740.156	1	1	0	0	0.17975	0.068178	0.22579	0.027797	0.14591	0.084191	0.055519	0.17625	0.010942	0.28972	0.13185	0.21032	0.18967	0.27867	0.14141	0.069517	-2.6458	-2.5771	-2.3271	-3.1979	-2.0479	-2.6937	-2.9521	-2.3312	-2.8646	-2.3688	-2.3479	-2.9938	-2.5812	-2.8917	-2.9479	-2.2021	112.183	29.769	-25.898	31.676	90.267	22.191	36.416	284.928	301.832	-44.892	267.717	241.767	309.286	268.136	245.800	231.702	0.00031099	0.00059017	0.00026768	886.9	5.7215e-06	1.0778e-05	807.34	291.8	1.0888e-05	1.2354e-05	313.6	128.68	108.78	52.066	7.6113e-06	66.464	0.004513	0.0051948	0.0014166	933.97	5.2504e-05	5.3324e-05	851.16	310.38	4.8997e-05	4.9894e-05	338.4	137.74	116.86	55.238	4.5235e-05	70.4	283.971	19.625	-8.044	-35.931	184.636	88.813	-36.381	-30.040	97.853	119.409	-31.836	-26.344	-25.242	-20.582	5.605	-23.077	-8191	255	
23740.275	1	1	0	0	0.14859	0.11533	0.19749	0.18305	0.11524	0.079608	0.14913	0.30624	0.28453	0.47733	0.083538	0.17704	0.13296	0.13931	0.084481	0.18574	-2.9083	-2.3917	-2.3354	-3.0271	-2.2687	-2.6625	-3.0458	-2.2687	-2.9479	-2.5229	-2.4333	-3.1542	-2.2958	-2.5687	-2.8438	-2.3417	91.270	221.300	154.072	232.060	36.928	202.147	280.418	284.990	-10.536	82.256	162.958	83.182	-21.435	-35.071	66.863	162.928	0.00041977	0.0002423	0.00036709	882.91	1.8795e-05	5.2426e-06	801.01	290.82	6.9064e-06	2.5677e-06	312.36	128.48	108.25	52.287	1.7676e-06	66.968	0.0035447	0.0040877	0.0011182	920.72	4.1179e-05	4.1716e-05	834.17	304.99	3.8332e-05	3.9365e-05	332.01	136.08	115.53	55.081	3.909e-05	70.26	269.135	176.977	29.035	-36.012	115.703	33.881	-36.409	-30.052	126.548	20.570	-32.063	-26.661	-25.054	-20.682	303.402	-22.997	-8191	255	
23740.371	1	1	0	0	0.040177	0.22221	0.14167	0.2859	0.1116	0.096259	0.29839	0.25621	0.1166	0.094278	0.25224	0.12403	0.099704	0.18699	0.18772	0.10048	-2.6625	-2.4729	-2.2042	-3.1375	-2.3958	-2.5104	-2.8792	-2.1375	-2.9125	-2.675	-2.2333	-3.0354	-2.3333	-2.6896	-2.8979	-2.1979	214.290	209.634	190.303	-42.350	-25.842	-20.142	248.887	271.540	106.865	58.550	-46.929	-0.801	280.550	-25.141	27.684	235.815	0.00035914	0.00024616	0.00013729	881.76	2.6585e-06	8.9213e-06	802	291.94	5.9353e-06	1.2153e-05	312.32	129.99	109.46	52.897	1.3367e-05	67.633	0.0031568	0.0036532	0.0010122	915.12	3.8274e-05	3.9148e-05	833.17	305.88	3.7336e-05	3.8568e-05	332.67	137.31	116.24	55.429	3.6026e-05	70.602	250.891	84.825	-4.650	-35.634	111.978	16.023	-36.257	-30.304	117.147	61.388	-31.460	-26.282	-25.164	-20.523	204.207	-23.251	-8191	255	
23740.469	1	1	0	0	0.34672	0.36492	0.2528	0.2995	0.225	0.18843	0.16513	0.19854	0.092949	0.22116	0.083039	0.16396	0.20949	0.22602	0.097566	0.047946	-2.4792	-2.6917	-2.0812	-3.225	-2.4333	-2.3312	-3.15	-2.2917	-2.8812	-2.6104	-2.1083	-3.1792	-2.5167	-2.3479	-2.9688	-2.2771	40.087	6.756	93.641	234.971	-1.750	-15.285	184.993	259.529	-17.447	291.195	120.324	27.310	40.373	229.566	283.700	140.867	0.00042146	0.00064108	0.0001509	890.11	8.6e-06	1.7088e-06	809.72	296.24	4.1905e-06	1.0464e-05	316.08	131.7	110.61	53.069	4.2213e-06	67.797	0.0028195	0.0032365	0.00089395	917.41	3.3479e-05	3.4496e-05	836.79	308.54	3.2817e-05	3.3998e-05	333.04	138.17	116.67	55.53	3.4333e-05	71.032	284.498	13.283	36.088	-35.821	145.613	54.181	-36.231	-30.100	-35.384	54.798	-31.757	-26.367	-25.051	-20.485	154.288	-22.942	-8191	255	
23740.564	1	1	0	0	0.13671	0.10444	0.22662	0.19729	0.37263	0.15091	0.22356	0.33115	0.23731	0.21136	0.20346	0.31655	0.12856	0.097877	0.28202	0.14514	-2.275	-2.825	-2.2229	-3.1875	-2.5521	-2.4375	-3.1917	-2.2771	-2.5646	-2.9729	-2.0083	-3.1562	-2.7521	-2.325	-3.0667	-2.3896	264.174	143.172	189.859	282.709	133.190	122.861	239.385	295.139	281.952	92.384	229.380	139.242	221.836	196.062	248.544	269.730	0.00046462	0.00074838	0.00021545	885.81	5.692e-06	6.8741e-06	808.03	296.43	8.6673e-06	9.6933e-06	314.98	129.94	108.75	52.435	1.1047e-05	66.112	0.0027894	0.0032341	0.00090828	916.89	3.4866e-05	3.6813e-05	838.1	307.95	3.6668e-05	3.906e-05	334.16	137.74	116.62	55.23	4.2727e-05	70.07	273.939	40.376	92.574	-35.677	129.299	105.269	-36.341	-30.065	160.808	202.135	-31.747	-26.189	-25.183	-20.653	115.152	-23.220	-8191	255	
23740.686	1	1	0	0	0.28589	0.090591	0.1101	0.080267	0.18582	0.19422	0.2093	0.38388	0.067339	0.026914	0.14889	0.034202	0.073022	0.14083	0.082565	0.30087	-2.2812	-2.8333	-2.1479	-2.9125	-2.7438	-2.3875	-3.2396	-2.4958	-2.4521	-3.0354	-2.3083	-2.8854	-2.7396	-2.2875	-3.0042	-2.5146	260.404	190.129	87.762	9.655	297.862	240.674	226.266	173.085	125.434	68.576	182.165	100.471	1.304	268.458	41.248	197.003	0.00042134	0.0005985	0.00027129	871.25	5.373e-06	4.493e-06	787.52	285.55	6.5005e-06	2.2842e-06	301.74	124.78	105.21	50.252	1.2998e-05	63.343	0.0035614	0.0042175	0.0011901	913.59	4.7194e-05	4.9849e-05	829.97	303.47	5.1898e-05	5.5274e-05	330.98	135.5	115.77	54.158	5.9673e-05	68.416	271.537	44.733	-6.953	-35.852	51.442	54.571	-36.043	-30.216	14.466	218.545	-31.876	-26.423	-24.885	-20.252	172.670	-22.986	-8191	255	
23740.758	1	1	0	0	0.15439	0.16825	0.14309	0.086048	0.023131	0.35613	0.10919	0.099115	0.10499	0.2029	0.17908	0.13455	0.14316	0.14619	0.099727	0.41585	-1.9667	-2.925	-2.0792	-2.8396	-2.7542	-2.2875	-3.1479	-2.5771	-2.3729	-3.0375	-2.2979	-2.9271	-2.9583	-2.1396	-2.9958	-2.5708	29.607	-43.551	246.568	40.262	297.899	271.152	16.733	257.968	73.709	203.298	277.003	265.650	235.420	185.598	198.495	-30.013	0.00046757	0.00054137	0.00030234	849.06	1.6462e-06	8.4958e-06	771.83	281.11	7.0397e-06	8.9274e-06	299.79	123.89	105.48	50.141	3.627e-06	63.783	0.0047891	0.0057239	0.0015842	905.63	6.0807e-05	6.3108e-05	828.3	304.13	6.0427e-05	6.3566e-05	332.86	136.08	116.68	54.298	6.242e-05	69.028	271.918	42.818	-15.024	-36.070	148.001	116.996	-36.583	-30.149	131.037	273.510	-32.146	-26.302	-25.310	-20.648	263.646	-23.311	-8191	255	
23740.879	1	1	0	0	0.096112	0.25822	0.079116	0.3187	0.074801	0.18972	0.16593	0.071913	0.10902	0.10176	0.33125	0.11102	0.13797	0.26405	0.20488	0.22632	-1.8354	-2.8354	-2.1729	-2.7167	-2.9667	-2.3729	-3.0604	-2.7792	-2.3208	-3.0083	-2.4562	-2.6896	-2.9667	-2.1937	-2.8396	-2.6312	168.480	166.200	-28.882	226.871	258.659	260.539	228.474	125.249	-6.934	90.902	255.967	243.843	284.599	-36.272	69.817	268.478	0.00038535	0.0006454	0.00028868	861.24	1.0727e-05	7.983e-06	785.41	283.98	1.9603e-05	1.0047e-05	300.4	124.7	105.94	50.602	4.4392e-06	63.812	0.0049307	0.0058639	0.0016372	920.32	6.2649e-05	6.5912e-05	842.28	308.23	6.4448e-05	6.7221e-05	337.86	137.89	118.37	55.126	6.862e-05	69.829	300.536	27.627	-33.667	-36.128	-33.273	205.567	-36.588	-29.912	161.660	171.060	-32.141	-26.738	-25.084	-20.847	281.923	-23.263	-8191	255	
23740.975	1	1	0	0	0.17875	0.060618	0.18484	0.17923	0.0049396	0.09808	0.097076	0.04806	0.20151	0.13969	0.068063	0.17507	0.056409	0.084255	0.087141	0.10456	-1.9354	-3.1229	-2.3688	-2.5729	-2.8812	-2.175	-3.0042	-2.7042	-2.1104	-2.9604	-2.5583	-2.4604	-3.0438	-2.5583	-2.7	-2.7313	29.702	210.358	-14.006	244.094	181.062	127.590	-18.429	36.804	109.962	81.545	110.066	298.551	135.988	12.173	-1.227	260.882	0.00036122	0.00092799	0.00023843	878.22	1.9643e-05	7.7786e-06	791.74	287.07	7.7086e-06	9.1477e-06	300.21	122.96	105.58	49.519	1.3488e-05	62.712	0.0056263	0.0068272	0.0019677	950	8.0242e-05	8.7106e-05	874.08	319.93	9.3982e-05	0.00010095	355.07	143	123.82	56.432	0.00010456	71.409	267.168	309.331	-7.507	-35.603	115.264	228.489	-36.703	-30.336	210.680	92.932	-32.185	-26.331	-25.046	-20.611	157.186	-22.960	-8191	255	
23741.068	1	1	0	0	0.20485	0.11158	0.055733	0.2511	0.10127	0.2309	0.29704	0.27521	0.06498	0.22636	0.13593	0.4973	0.043828	0.056	0.11423	0.076196	-1.6812	-2.9521	-2.1813	-2.3896	-3.0729	-2.0667	-2.6479	-2.9146	-2.3604	-3.0167	-2.475	-2.45	-3.0563	-2.2354	-2.5542	-2.95	190.834	15.375	198.545	304.805	-20.904	289.560	277.865	216.389	217.860	307.680	250.594	268.922	-22.395	15.597	97.946	156.977	0.00020741	0.00081943	0.00025041	880.14	9.2921e-06	1.0908e-05	790.93	285.81	1.3685e-05	1.1407e-05	297.63	121.95	105.2	49.532	7.2783e-06	61.776	0.0082495	0.0098618	0.0027328	977.99	0.00010426	0.00010853	885.98	324.32	0.00010496	0.00011034	356.24	142.98	124.52	56.518	0.00011063	70.908	304.019	99.809	-10.382	-35.897	66.001	169.825	-36.440	-29.997	146.371	150.574	-32.083	-26.310	-25.267	-20.685	69.234	-23.076	-8191	255	
23741.164	1	1	0	0	0.17794	0.053046	0.065328	0.16776	0.17229	0.17367	0.19712	0.14887	0.089051	0.17697	0.14009	0.2083	0.28825	0.19749	0.21748	0.20458	-1.7729	-2.85	-2.6854	-2.3625	-3.0438	-2.2333	-2.6625	-2.9208	-1.9354	-2.775	-2.6792	-2.1708	-3.0438	-2.3563	-2.4313	-3.0938	30.695	176.803	128.496	254.780	209.909	274.662	-43.801	207.670	-45.863	130.821	242.841	283.327	64.341	298.708	4.622	268.837	0.00030271	0.00099343	0.00028269	877.52	1.898e-05	4.7334e-06	785.7	285.89	8.6909e-06	1.7359e-05	298.46	121.72	105.83	49.994	5.8298e-06	61.953	0.0086311	0.010286	0.0028295	981.35	0.00010749	0.00011159	887.11	326.11	0.00010771	0.00011316	359.32	143.46	125.51	56.937	0.00011207	71.485	285.084	42.892	208.771	-35.820	85.642	92.838	-36.422	-30.185	-27.403	102.986	-31.764	-26.712	-25.029	-20.545	131.906	-22.900	-8191	255	
23741.285	1	1	0	0	0.20004	0.046508	0.43717	0.30641	0.32684	0.30996	0.25941	0.30259	0.26923	0.10036	0.12435	0.31672	0.28543	0.055716	0.39912	0.13308	-1.8771	-2.7729	-2.6042	-2.2708	-3.1146	-2.3708	-2.6146	-3.1958	-2.2687	-2.8604	-2.7458	-2.1937	-2.8479	-2.6396	-2.375	-3.1312	-41.427	105.942	177.748	232.188	-35.155	186.499	262.796	266.688	243.425	121.949	91.784	-29.923	302.166	170.800	264.581	104.495	0.00030865	0.0019372	0.0001492	882.61	1.0847e-05	1.9286e-06	783.38	286.76	4.7722e-06	2.1751e-05	295.84	121.62	105.83	49.966	6.0431e-06	62.182	0.008908	0.010735	0.0029956	990.91	0.00011732	0.00012314	898.22	331.18	0.00012218	0.00012761	366.48	146.14	128.38	57.905	0.00013025	72.941	282.563	19.009	74.160	-35.876	180.822	-7.105	-36.588	-30.057	298.635	-23.347	-31.661	-26.302	-24.798	-20.200	70.127	-22.746	-8191	255	
23741.357	1	1	0	0	0.10879	0.18798	0.030968	0.24654	0.26111	0.25197	0.20126	0.081634	0.19729	0.15948	0.10521	0.3942	0.19411	0.13838	0.082131	0.19607	-1.7938	-2.425	-2.875	-2.0479	-2.8792	-2.3688	-2.4042	-2.9833	-2.4	-2.7729	-2.9771	-2.2979	-2.8917	-2.7292	-2.2354	-3.0104	298.707	222.992	297.651	296.337	202.643	87.583	212.033	-23.242	153.454	295.887	285.085	-43.513	-34.509	142.267	268.744	237.580	0.00045284	0.00053894	0.00010477	883.95	2.651e-05	1.2135e-05	785.05	285.4	1.048e-05	3.3912e-06	295.74	121.24	105.42	49.421	1.5649e-05	61.529	0.01049	0.012723	0.0035683	1019.4	0.00014086	0.00014889	925.13	341.33	0.00015028	0.00015942	382.03	151.81	133.77	59.538	0.00016496	75.408	279.831	17.391	75.213	-35.867	141.418	139.308	-36.422	-30.391	287.850	246.528	-31.933	-26.682	-25.026	-20.434	163.526	-22.882	-8191	255	
23741.453	1	1	0	0	0.24904	0.022461	0.22838	0.20632	0.19486	0.079309	0.12595	0.17669	0.11532	0.16232	0.24492	0.10498	0.27663	0.016173	0.011589	0.26554	-2.0417	-2.425	-2.8646	-2.2625	-2.875	-2.6271	-2.3667	-3.0229	-2.2292	-2.5312	-3.0104	-2.3708	-2.9562	-2.7729	-2.2812	-3.1021	91.461	48.309	141.489	-15.198	6.531	36.350	293.986	-43.021	205.396	235.597	-34.441	80.661	60.186	112.706	274.459	253.870	0.00029279	0.0014021	0.00053383	881.57	1.2723e-05	2.4056e-06	779.21	283.32	1.1454e-05	2.6542e-06	289.87	117.57	104.31	48.789	2.14e-05	59.397	0.013327	0.016215	0.004561	1052.3	0.00017897	0.00018743	956.42	352.79	0.00018957	0.00019977	399.52	157.02	140.07	61.486	0.0002079	76.802	263.121	55.332	86.779	-36.299	95.470	39.018	-36.502	-30.165	159.970	283.228	-31.869	-26.221	-24.799	-20.686	73.203	-22.837	-8191	255	
23741.572	1	1	0	0	0.13682	0.23463	0.29752	0.27067	0.20505	0.1624	0.17081	0.15886	0.12018	0.061541	0.32792	0.022647	0.19838	0.030957	0.04081	0.20409	-2.0792	-2.3917	-2.9104	-2.2188	-2.8208	-2.9396	-2.2125	-2.9958	-2.5729	-2.4979	-3.1979	-2.2917	-2.75	-2.8833	-2.1333	-3.2	-21.943	306.783	53.664	277.618	24.438	149.231	5.439	232.678	79.333	-13.487	216.467	273.015	245.689	297.571	9.021	303.600	0.00023985	0.0015012	0.00038246	876.11	1.7315e-05	1.3277e-05	767.17	280.9	3.1094e-05	6.1256e-06	287.5	117.5	103.35	48.448	5.1934e-06	59.716	0.01628	0.019633	0.0054757	1082.5	0.00021417	0.00022592	985.79	365.39	0.00022353	0.00023427	416.07	162.07	144.34	62.539	0.00022591	78.262	266.096	120.587	-7.315	-35.932	254.326	269.459	-36.443	-30.271	9.070	87.684	-31.971	-26.385	-24.954	-20.783	153.008	-23.061	-8191	255	
23741.670	1	1	0	0	0.030285	0.28368	0.21355	0.17123	0.14799	0.097739	0.10718	0.15711	0.16332	0.099082	0.089841	0.13282	0.015202	0.28663	0.40634	0.28631	-2.1396	-2.1667	-2.8833	-2.5083	-2.7	-2.7708	-2.3104	-3.0458	-2.3792	-2.3625	-2.975	-2.2104	-2.5792	-3.1771	-2.1354	-2.9417	-10.033	68.648	-32.801	191.514	243.701	19.157	-11.881	170.216	230.337	246.742	160.025	100.942	58.812	306.371	212.727	291.536	0.00035411	0.00022947	0.00028444	874.43	1.8938e-05	9.3658e-06	773.57	281.81	1.6379e-05	1.1344e-05	288.82	118.34	104.03	48.746	1.7368e-05	59.887	0.017434	0.020898	0.0057867	1093.3	0.00022056	0.00022652	986.61	363.82	0.00021583	0.00022482	411.79	160.31	142.8	62.129	0.00021681	77.831	238.821	-20.617	129.648	-36.441	123.232	189.417	-37.181	-30.611	278.503	218.387	-32.171	-26.805	-25.189	-20.751	171.007	-23.182	-8191	255	
23741.766	1	1	0	0	0.064161	0.24252	0.15292	0.40164	0.06895	0.079546	0.10458	0.2567	0.13032	0.2403	0.18893	0.1151	0.20451	0.053975	0.075694	0.35558	-2.425	-2.2271	-3.1542	-2.4958	-2.5208	-3.0729	-2.4313	-2.9875	-2.9313	-2.3396	-3.1625	-2.3063	-2.6021	-3.2583	-2.3312	-2.8958	14.174	209.408	252.189	269.821	287.899	269.055	300.083	273.043	281.433	238.589	48.184	-23.034	210.371	-45.038	215.570	-40.061	0.00035304	0.0014743	0.00056246	876.99	1.4308e-05	8.8142e-06	775.01	284.81	1.8531e-05	6.7024e-06	291.03	119.68	104.33	49.274	2.4415e-05	60.438	0.016704	0.019892	0.0054792	1083.1	0.00020704	0.00021274	976.58	360.03	0.00020047	0.00020816	403.67	158.13	139.81	61.247	0.00019914	76.775	296.633	99.366	-0.223	-36.106	177.245	235.093	-36.482	-29.671	134.521	134.920	-31.782	-26.344	-24.431	-20.325	216.646	-22.762	-8191	255	
23741.861	1	1	0	0	0.22689	0.17852	0.12292	0.12801	0.12568	0.20458	0.10319	0.17151	0.22961	0.12732	0.20994	0.14904	0.16486	0.35906	0.097638	0.18069	-2.4875	-2.3271	-3.0104	-2.775	-2.4813	-3.0333	-2.3187	-2.8667	-2.9292	-2.1729	-2.9813	-2.5229	-2.3708	-3.0417	-2.1104	-2.8312	287.824	9.264	239.932	186.754	38.115	301.043	272.453	145.351	57.759	141.506	148.770	-6.196	250.568	235.798	-44.131	198.388	0.00012957	0.0011887	0.0004755	875.78	1.1184e-05	3.7778e-06	769.31	281.59	2.9664e-05	2.7891e-05	291.01	117.99	103.83	48.728	9.0166e-06	59.86	0.015362	0.018391	0.0051012	1067.4	0.00019013	0.00019538	956.53	350.69	0.00017944	0.00018485	389.65	152.6	134.63	59.461	0.00017093	73.911	8.037	92.297	308.240	-35.839	98.876	63.953	-36.413	-30.020	71.618	46.097	-31.707	-26.117	-24.960	-20.328	93.619	-22.955	-8191	255	
23741.980	1	1	0	0	0.098029	0.2671	0.062488	0.046639	0.077671	0.2138	0.23079	0.27158	0.067727	0.20845	0.16344	0.15498	0.10986	0.22948	0.14198	0.17512	-2.6521	-2.2854	-2.9646	-2.7729	-2.1875	-3.1	-2.5438	-2.7458	-3.0417	-2.1771	-3.1229	-2.8208	-2.2667	-3.2271	-2.4042	-2.4646	72.518	179.381	-21.370	-12.519	170.404	242.022	-7.887	281.560	196.103	199.556	106.678	284.016	-23.987	267.170	233.531	272.361	0.00076265	0.0012371	0.00018495	866.73	7.7315e-06	1.0525e-05	771.96	281.35	5.4303e-06	1.4471e-05	289.51	119.58	103.63	48.906	1.4074e-05	60.595	0.013004	0.015546	0.0042862	1027	0.00016092	0.00016557	923.92	339.17	0.00015219	0.00015741	375.11	148.42	130.39	57.956	0.00014663	72.373	249.033	123.650	17.459	-35.896	235.885	86.697	-36.498	-30.113	257.836	86.725	-31.810	-26.317	-24.736	-20.581	123.075	-22.772	-8191	255	
23742.053	1	1	0	0	0.15973	0.1335	0.11213	0.40885	0.080718	0.094709	0.10791	0.097558	0.12772	0.19879	0.1865	0.091605	0.11036	0.050748	0.12601	0.16401	-2.5333	-1.9917	-2.6833	-2.5646	-2.0938	-3.0354	-2.5292	-2.4062	-2.8854	-2.1521	-2.8	-2.7188	-2.2417	-3.0333	-2.3604	-2.3542	-7.871	59.841	273.060	275.656	230.231	272.538	179.190	252.227	65.641	38.033	150.691	257.897	-2.651	284.781	247.954	275.171	0.0002745	0.00039479	0.00055999	865.72	1.5847e-05	4.1593e-06	773.47	281.26	2.1385e-05	1.4735e-05	293.36	120.31	104.27	49.009	2.4256e-05	61.029	0.011159	0.013296	0.0036537	999.31	0.00013695	0.00014237	905.01	332.03	0.00013369	0.00013863	368.51	146.17	127.72	57.195	0.00012891	71.589	278.739	116.083	31.972	-36.004	182.374	114.823	-36.635	-29.687	221.395	202.225	-31.844	-26.269	-25.366	-20.358	149.954	-22.880	-8191	255	
#DATA ENDS
