BOXY.EXE: ISS Imagent and Oximeter Data Acquisition Program Version 0.80
Ascii Record File

#ACQ INFORMATION
2  Detector Channels 
16  External MUX Channels 
1  Auxiliary Channels 
5000  Waveform (CCF) Frequency (Hz)
1  Waveforms Skipped 
30  Waveforms Averaged 
1  Cycles Averaged 
16  Acquisitions per Waveform 
10.0806  Updata Rate (Hz) 

#FILE INFORMATION
TRUE -- External MUX Channel results are PARSED.
FALSE -- AC DC and Phase are NOT grouped.
TRUE -- Companion Program Settings File CREATED.
FALSE -- AC data not excluded
FALSE -- DC data not excluded
FALSE -- Phase data not excluded
FALSE -- Auxillary Chn. data not excluded
Tab delimiters

#CALIBRATION STATE
TRUE -- Waveform Calibration Values APPLIED.


#AUX CALIBRATION VALUES
Val Type	aux-1	

Term	1.0000e+00	
Factor	0.0000e+00	


#WF CALIBRATION VALUES
A = Detector Channel
Val Type	A-AC1	A-AC2	A-AC3	A-AC4	A-AC5	A-AC6	A-AC7	A-AC8	A-AC9	A-AC10	A-AC11	A-AC12	A-AC13	A-AC14	A-AC15	A-AC16	A-DC1	A-DC2	A-DC3	A-DC4	A-DC5	A-DC6	A-DC7	A-DC8	A-DC9	A-DC10	A-DC11	A-DC12	A-DC13	A-DC14	A-DC15	A-DC16	A-Ph1	A-Ph2	A-Ph3	A-Ph4	A-Ph5	A-Ph6	A-Ph7	A-Ph8	A-Ph9	A-Ph10	A-Ph11	A-Ph12	A-Ph13	A-Ph14	A-Ph15	A-Ph16	

Term	0.00000e+00	0.00000e+00	0.00000e+00	0.00000e+00	0.00000e+00	0.00000e+00	0.00000e+00	0.00000e+00	0.00000e+00	0.00000e+00	0.00000e+00	0.00000e+00	0.00000e+00	0.00000e+00	0.00000e+00	0.00000e+00	0.00000e+00	0.00000e+00	0.00000e+00	0.00000e+00	0.00000e+00	0.00000e+00	0.00000e+00	0.00000e+00	0.00000e+00	0.00000e+00	0.00000e+00	0.00000e+00	0.00000e+00	0.00000e+00	0.00000e+00	0.00000e+00	0.00000e+00	0.00000e+00	0.00000e+00	0.00000e+00	0.00000e+00	0.00000e+00	0.00000e+00	0.00000e+00	0.00000e+00	0.00000e+00	0.00000e+00	0.00000e+00	0.00000e+00	0.00000e+00	0.00000e+00	0.00000e+00	
Factor	1.00000e+00	1.00000e+00	1.00000e+00	1.00000e+00	1.00000e+00	1.00000e+00	1.00000e+00	1.00000e+00	1.00000e+00	1.00000e+00	1.00000e+00	1.00000e+00	1.00000e+00	1.00000e+00	1.00000e+00	1.00000e+00	1.00000e+00	1.00000e+00	1.00000e+00	1.00000e+00	1.00000e+00	1.00000e+00	1.00000e+00	1.00000e+00	1.00000e+00	1.00000e+00	1.00000e+00	1.00000e+00	1.00000e+00	1.00000e+00	1.00000e+00	1.00000e+00	X	X	X	X	X	X	X	X	X	X	X	X	X	X	X	X	

B = Detector Channel
Val Type	B-AC1	B-AC2	B-AC3	B-AC4	B-AC5	B-AC6	B-AC7	B-AC8	B-AC9	B-AC10	B-AC11	B-AC12	B-AC13	B-AC14	B-AC15	B-AC16	B-DC1	B-DC2	B-DC3	B-DC4	B-DC5	B-DC6	B-DC7	B-DC8	B-DC9	B-DC10	B-DC11	B-DC12	B-DC13	B-DC14	B-DC15	B-DC16	B-Ph1	B-Ph2	B-Ph3	B-Ph4	B-Ph5	B-Ph6	B-Ph7	B-Ph8	B-Ph9	B-Ph10	B-Ph11	B-Ph12	B-Ph13	B-Ph14	B-Ph15	B-Ph16	

Term	0.00000e+00	0.00000e+00	0.00000e+00	0.00000e+00	0.00000e+00	0.00000e+00	0.00000e+00	0.00000e+00	0.00000e+00	0.00000e+00	0.00000e+00	0.00000e+00	0.00000e+00	0.00000e+00	0.00000e+00	0.00000e+00	0.00000e+00	0.00000e+00	0.00000e+00	0.00000e+00	0.00000e+00	0.00000e+00	0.00000e+00	0.00000e+00	0.00000e+00	0.00000e+00	0.00000e+00	0.00000e+00	0.00000e+00	0.00000e+00	0.00000e+00	0.00000e+00	-1.07200e+00	-1.36101e+02	-1.26972e+02	-1.81145e+02	-5.74851e+01	-6.50972e+01	-1.58196e+02	-1.62015e+02	-4.24239e+01	-6.52151e+01	-1.70310e+02	-1.70117e+02	-1.81676e+02	-1.76501e+02	-5.94616e+01	-1.49355e+02	
Factor	3.59234e-05	1.59826e-04	4.90676e-05	1.61587e-01	1.97099e-06	1.44992e-06	1.72205e-01	5.96698e-02	2.11306e-06	1.83272e-06	9.39561e-02	3.22471e-02	2.84731e-02	9.54445e-03	1.94426e-06	1.34256e-02	6.52020e-06	7.84418e-06	2.17318e-06	8.29810e-02	8.31184e-08	8.62690e-08	8.30464e-02	3.06820e-02	8.29478e-08	8.64596e-08	4.68418e-02	1.60686e-02	1.47170e-02	4.95140e-03	8.44639e-08	6.74576e-03	X	X	X	X	X	X	X	X	X	X	X	X	X	X	X	X	



#DISTANCE SETTINGS
A = Detector Channel
A-1	A-2	A-3	A-4	A-5	A-6	A-7	A-8	A-9	A-10	A-11	A-12	A-13	A-14	A-15	A-16	

2.5000e+00	3.0000e+00	2.5000e+00	3.0000e+00	2.0000e+00	3.0000e+00	1.5000e+00	3.0000e+00	3.0000e+00	3.0000e+00	3.0000e+00	3.0000e+00	3.0000e+00	3.0000e+00	1.5000e+00	3.0000e+00	

B = Detector Channel
B-1	B-2	B-3	B-4	B-5	B-6	B-7	B-8	B-9	B-10	B-11	B-12	B-13	B-14	B-15	B-16	

1.0000e+01	1.0000e+01	1.0000e+01	1.4400e+00	1.0000e+01	1.0000e+01	1.5100e+00	1.9400e+00	1.0000e+01	1.0000e+01	1.9900e+00	2.4900e+00	2.4100e+00	2.9000e+00	1.0000e+01	2.9800e+00	




#DATA BEGINS
time	group	step	mark	flag	A-AC1	A-AC2	A-AC3	A-AC4	A-AC5	A-AC6	A-AC7	A-AC8	A-AC9	A-AC10	A-AC11	A-AC12	A-AC13	A-AC14	A-AC15	A-AC16	A-DC1	A-DC2	A-DC3	A-DC4	A-DC5	A-DC6	A-DC7	A-DC8	A-DC9	A-DC10	A-DC11	A-DC12	A-DC13	A-DC14	A-DC15	A-DC16	A-Ph1	A-Ph2	A-Ph3	A-Ph4	A-Ph5	A-Ph6	A-Ph7	A-Ph8	A-Ph9	A-Ph10	A-Ph11	A-Ph12	A-Ph13	A-Ph14	A-Ph15	A-Ph16	B-AC1	B-AC2	B-AC3	B-AC4	B-AC5	B-AC6	B-AC7	B-AC8	B-AC9	B-AC10	B-AC11	B-AC12	B-AC13	B-AC14	B-AC15	B-AC16	B-DC1	B-DC2	B-DC3	B-DC4	B-DC5	B-DC6	B-DC7	B-DC8	B-DC9	B-DC10	B-DC11	B-DC12	B-DC13	B-DC14	B-DC15	B-DC16	B-Ph1	B-Ph2	B-Ph3	B-Ph4	B-Ph5	B-Ph6	B-Ph7	B-Ph8	B-Ph9	B-Ph10	B-Ph11	B-Ph12	B-Ph13	B-Ph14	B-Ph15	B-Ph16	aux-1	digaux	

20937.172	1	1	0	768	0.281	0.082891	0.039682	0.2847	0.15202	0.040595	0.272	0.29634	0.23039	0.035642	0.088369	0.10463	0.05923	0.19169	0.14579	0.30354	-2.625	-3.4104	-2.55	-3.3979	-3.2979	-2.6917	-3.6542	-3.0042	-2.8521	-3.3229	-2.5771	-3.325	-3.2042	-2.6229	-3.4396	-2.675	105.849	155.100	151.249	132.890	32.031	144.789	173.116	126.182	118.945	-121.466	155.179	95.544	-158.050	101.104	-23.714	129.395	0.00081097	0.00065453	0.00028901	1351.1	4.6319e-06	3.9421e-06	1348.1	365.28	6.6619e-06	5.8048e-06	416.73	139.89	121.18	41.464	3.12e-06	51.404	0.00054302	0.00050028	0.00014429	1371.5	5.5565e-06	5.6431e-06	1368.8	372.05	5.6202e-06	5.4972e-06	425.13	142.83	124.04	42.764	5.5326e-06	52.994	-31.741	-78.553	-72.890	-147.981	-55.047	-9.242	-148.398	-143.511	-13.514	13.831	-144.075	-139.649	-139.417	-134.422	-32.343	-135.510	-8191	255	
20937.268	1	1	0	0	0.22554	0.20838	0.15727	0.098555	0.21417	0.20789	0.25353	0.022612	0.058102	0.24173	0.15309	0.16069	0.23252	0.066763	0.1531	0.21764	-2.4417	-3.4229	-2.5917	-3.4333	-3.2542	-2.625	-3.4562	-3.1958	-2.725	-3.3875	-2.8771	-3.3063	-3.3167	-2.5729	-3.3854	-2.9	8.103	176.294	156.862	-4.905	157.734	164.719	119.340	177.583	-57.662	113.413	94.938	160.168	152.203	172.589	-155.276	24.626	0.00082444	0.00021144	0.00021059	1345.2	6.7294e-06	2.9095e-06	1346.5	365.97	4.6211e-06	7.7972e-06	416.21	140.48	121.04	41.604	3.4059e-06	51.324	0.00054594	0.00050865	0.00014434	1369.4	5.6827e-06	5.6413e-06	1370.9	372.28	5.576e-06	5.6444e-06	424.86	142.86	123.96	42.876	5.5672e-06	52.934	-33.953	-28.196	-47.403	-148.043	-6.757	-34.617	-148.617	-143.683	11.907	1.461	-144.033	-139.762	-139.416	-134.457	-22.824	-135.694	-8191	255	
20937.363	1	1	0	0	0.17083	0.11572	0.093988	0.17175	0.090195	0.095933	0.23014	0.25917	0.20333	0.17289	0.22432	0.12986	0.19376	0.14658	0.39605	0.16853	-2.4167	-3.3083	-2.8167	-3.1583	-3.1562	-2.5958	-3.4521	-3.1646	-2.5542	-3.3854	-2.6646	-2.9292	-3.4229	-2.5604	-3.2167	-3.1625	114.440	139.517	195.546	20.290	103.109	145.840	144.413	100.525	-7.333	57.124	-135.754	-42.001	184.787	177.184	190.396	182.511	0.00081981	0.00047649	0.00016181	1351.8	1.5119e-06	3.868e-06	1346.8	364.64	8.4116e-06	4.7572e-06	416.85	139.16	121.15	41.633	4.1323e-06	51.245	0.00054513	0.00051579	0.00014791	1371.1	5.5142e-06	5.7099e-06	1371.1	372.3	5.7151e-06	5.7103e-06	425.36	142.86	123.9	42.87	5.6531e-06	52.954	-29.574	-72.109	-81.393	-148.115	17.581	-30.843	-148.446	-143.890	-14.782	-6.799	-144.143	-139.804	-139.358	-134.609	19.980	-135.482	-8191	255	
20937.461	1	1	0	0	0.051899	0.15798	0.03333	0.20399	0.12934	0.23909	0.30435	0.10765	0.10888	0.19174	0.23582	0.30808	0.082465	0.16686	0.14627	0.23903	-2.0479	-3.2771	-2.6604	-3.2458	-3.3229	-2.5938	-3.3	-3.2188	-2.4708	-3.3896	-2.9313	-2.9437	-3.3875	-2.5563	-3.1188	-3.3333	-101.708	82.340	-9.429	155.834	-49.814	141.144	92.846	161.359	-154.662	-132.627	160.970	-123.134	136.407	191.468	102.213	114.656	0.00087068	0.00025628	0.00018586	1349.3	3.8845e-06	4.6336e-06	1349.2	366.09	6.3829e-06	5.1347e-06	414.95	139.83	121.26	41.747	6.8066e-06	51.389	0.00053788	0.00052844	0.00014333	1370.5	5.6538e-06	5.6767e-06	1370.9	372.56	5.7607e-06	5.7152e-06	424.78	142.88	124.12	42.89	5.6744e-06	53.001	-31.922	-82.393	-75.395	-148.172	-8.339	-16.601	-148.428	-143.808	-40.125	-16.871	-144.250	-139.881	-139.332	-134.614	14.847	-135.609	-8191	255	
20937.557	1	1	0	0	0.14199	0.05979	0.059233	0.12461	0.15783	0.41957	0.29456	0.22529	0.086074	0.20545	0.25173	0.098558	0.19895	0.098244	0.054713	0.10609	-2.1813	-3.2708	-2.8229	-2.7938	-3.1375	-2.475	-3.2792	-3.2396	-2.4146	-3.475	-2.8021	-2.6896	-3.4917	-2.7	-2.9583	-3.3563	186.501	-56.997	157.481	122.130	12.023	149.070	136.839	173.947	189.826	-138.377	162.034	-60.759	183.104	-16.479	-22.923	33.792	0.00080159	0.00042173	0.00016831	1350.7	3.226e-06	4.6824e-06	1344.4	364.68	6.3962e-06	3.8929e-06	417.09	140.37	121.06	41.652	4.6048e-06	51.326	0.00054331	0.0005295	0.0001442	1370.8	5.6702e-06	5.8224e-06	1370.8	372.56	5.6788e-06	5.7058e-06	425.66	143	123.95	42.839	5.6809e-06	53.04	-32.681	-77.911	-77.344	-148.281	-7.797	-22.297	-148.588	-143.822	-31.544	0.648	-144.415	-139.632	-139.276	-134.695	-12.601	-135.639	-8191	255	
20937.652	1	1	0	0	0.12716	0.079943	0.1057	0.050389	0.10126	0.041513	0.22353	0.094698	0.10799	0.24131	0.30577	0.10197	0.19948	0.2762	0.016271	0.22802	-2.075	-3.0104	-3	-2.6958	-3.3208	-2.6458	-3.1396	-3.3063	-2.4979	-3.0729	-3.2458	-2.825	-3.5479	-2.6437	-2.8729	-3.5333	187.514	172.916	109.820	-159.641	74.854	54.297	140.754	101.530	-19.781	-46.882	175.741	161.347	124.933	195.181	-22.549	128.060	0.00079321	0.00051277	0.00010223	1347	4.1778e-06	3.8743e-06	1348.7	363.87	6.9874e-06	6.3235e-06	417.2	139.71	121.9	41.467	5.6099e-06	51.396	0.00055092	0.00052141	0.00014798	1371.6	5.6798e-06	5.6603e-06	1371.8	372.24	5.7531e-06	5.7406e-06	425.71	142.63	124.48	42.805	5.6814e-06	52.954	-27.274	-83.676	-86.930	-148.148	-58.286	-18.238	-148.474	-143.623	-10.241	5.741	-144.124	-139.905	-139.481	-134.625	-14.269	-135.738	-8191	255	
20937.773	1	1	0	0	0.25012	0.17416	0.079747	0.3015	0.077393	0.098942	0.20443	0.076396	0.31324	0.077861	0.19916	0.18981	0.20618	0.15778	0.16774	0.18634	-2.2854	-3.1729	-2.9938	-2.7333	-3.2438	-2.8	-2.9229	-3.45	-2.5167	-3.0312	-3.2896	-2.4854	-3.3854	-3.0687	-3.0021	-3.4646	-5.967	-117.340	-64.604	138.329	23.047	-92.838	116.961	177.828	-71.714	-25.883	79.889	184.316	-157.666	-127.346	130.736	110.760	0.00076535	0.0005487	0.00017084	1348.1	4.705e-06	1.9167e-06	1348	365.46	6.8581e-06	4.5865e-06	415.42	140.26	121.1	41.647	3.3584e-06	51.326	0.00054781	0.00052023	0.00014303	1371.1	5.7466e-06	5.8424e-06	1371.7	373.01	5.7023e-06	5.6835e-06	424.95	142.91	124.04	42.813	5.6702e-06	52.888	-29.466	-84.922	-82.691	-148.224	-29.619	18.106	-148.435	-143.697	-29.759	-0.569	-144.350	-139.698	-139.312	-134.578	-48.816	-135.644	-8191	255	
20937.867	1	1	0	0	0.076574	0.16028	0.14939	0.17377	0.30542	0.14854	0.25732	0.31102	0.1801	0.1175	0.16872	0.32427	0.16287	0.18582	0.22702	0.10039	-2.1854	-2.9479	-3.2188	-2.7875	-3.2354	-2.9313	-2.8563	-3.5354	-2.4854	-2.9833	-3.2792	-2.4375	-3.2833	-2.9708	-2.5083	-3.3271	140.043	77.282	80.920	173.049	78.426	70.159	135.276	161.638	-8.453	106.863	107.029	77.317	112.624	97.752	-24.576	125.834	0.00081636	0.00076785	9.1377e-05	1349.6	4.6208e-06	4.823e-06	1349.1	364.94	6.9989e-06	4.4238e-06	416.43	139.58	120.9	41.566	7.6787e-06	51.231	0.00054126	0.00051643	0.00014147	1370.1	5.638e-06	5.7347e-06	1370.5	372.78	5.7542e-06	5.7177e-06	425.17	142.74	124.04	42.787	5.7003e-06	53.005	-28.775	-115.654	-113.174	-148.094	-5.007	0.112	-148.341	-143.699	1.304	1.830	-144.179	-139.926	-139.483	-134.559	-12.034	-135.576	-8191	255	
20937.965	1	1	0	0	0.22053	0.23778	0.16862	0.25983	0.19052	0.048092	0.3443	0.13809	0.048162	0.34576	0.26542	0.19233	0.2815	0.13103	0.040418	0.12336	-2.3667	-2.8042	-3.3271	-2.6875	-3.3229	-2.9646	-2.7771	-3.6063	-2.7604	-2.8021	-3.5125	-2.6729	-3.3354	-3.2313	-2.4583	-3.4854	-98.201	-16.217	-5.675	-157.435	60.186	152.278	149.657	-140.713	-135.892	-96.054	150.600	66.500	183.860	188.233	-117.226	171.659	0.00082413	0.00043605	0.00011588	1346.8	8.4075e-06	2.8903e-06	1345.6	365.36	7.1744e-06	4.5395e-06	415.89	140.26	121.57	41.703	4.9556e-06	51.695	0.00054501	0.00052381	0.00014234	1370.5	5.6354e-06	5.5879e-06	1368.8	372.9	5.6634e-06	5.7202e-06	425.49	142.91	124.27	42.848	5.6739e-06	53.029	-33.371	-82.264	-78.094	-148.135	-31.086	3.874	-148.243	-143.645	-39.649	12.800	-144.265	-139.899	-139.239	-134.497	-4.105	-135.750	-8191	255	
20938.061	1	1	0	0	0.13633	0.2445	0.097108	0.049015	0.14943	0.11766	0.066705	0.032916	0.25077	0.2256	0.17071	0.032859	0.1501	0.092204	0.28381	0.12179	-2.4646	-2.6896	-3.2875	-2.8063	-3.0438	-3.2958	-2.6771	-3.3896	-2.8583	-2.7188	-3.5354	-2.7875	-3.0229	-3.3854	-2.2271	-3.2396	-156.882	-133.812	197.789	-94.092	138.148	109.545	-146.012	5.168	24.021	-61.214	101.659	-79.565	-84.022	-126.072	-22.508	107.127	0.00083846	0.00059954	0.00018537	1348.3	5.2995e-06	4.5359e-06	1346.6	365.27	6.4231e-06	5.8054e-06	416.14	139.22	121.43	41.41	6.1431e-06	51.628	0.000544	0.00051997	0.00013892	1370.7	5.6839e-06	5.5978e-06	1370.7	372.72	5.5566e-06	5.7072e-06	425.67	142.83	124.07	42.68	5.6897e-06	53.044	-28.387	-83.659	-97.622	-148.235	-1.006	-47.697	-148.200	-143.571	-8.591	-5.297	-143.973	-139.698	-139.099	-134.699	-17.172	-135.695	-8191	255	
20938.156	1	1	0	0	0.2539	0.32071	0.069567	0.45802	0.12091	0.1413	0.24898	0.23551	0.11788	0.15392	0.20416	0.21841	0.23743	0.15943	0.19911	0.20283	-2.6	-2.5979	-3.4229	-2.9833	-2.8604	-3.4313	-2.6896	-3.3583	-2.9708	-2.5604	-3.4917	-2.7604	-2.8937	-3.1937	-2.3771	-3.2729	111.109	-32.964	133.424	153.704	-130.464	147.521	-158.218	161.770	14.552	71.664	25.587	91.002	164.802	57.951	155.757	-142.685	0.00082041	0.0005998	0.00020794	1346.3	7.7823e-06	4.1872e-06	1345.5	364.68	9.4999e-06	8.581e-06	415.38	139.55	121.43	41.622	5.5776e-06	51.459	0.00054258	0.0005242	0.00014141	1370.2	5.6791e-06	5.5545e-06	1369.2	372.16	5.6014e-06	5.6935e-06	424.72	142.77	124.03	42.834	5.7787e-06	52.976	-28.234	-72.073	-96.425	-148.262	-19.757	-8.016	-148.331	-143.440	3.457	-9.937	-143.930	-139.892	-139.094	-134.495	-26.185	-135.449	-8191	255	
20938.252	1	1	0	0	0.26744	0.11316	0.18766	0.28615	0.092085	0.13775	0.40511	0.25963	0.21122	0.059875	0.22966	0.14002	0.039645	0.12975	0.049146	0.1294	-2.7042	-2.5417	-3.325	-2.9021	-2.85	-3.3083	-2.7646	-3.2562	-3.1333	-2.4938	-3.4	-2.9062	-2.825	-3.3479	-2.4542	-3.1667	128.937	185.180	-132.950	135.881	-35.906	-123.278	124.062	170.745	-56.864	36.984	101.657	190.531	22.411	-161.281	121.457	193.427	0.0008337	0.00082094	0.00022405	1345.6	4.0583e-06	5.5715e-06	1347.5	366.38	7.4915e-06	2.4255e-06	417.13	139.6	121.61	41.615	5.4323e-06	51.5	0.00053161	0.00052577	0.00014137	1369.9	5.6443e-06	5.6271e-06	1370.6	372.53	5.5477e-06	5.5219e-06	425.39	142.6	124.18	42.837	5.6269e-06	53.064	-30.353	-93.026	-68.366	-148.059	-26.189	-21.796	-148.136	-143.667	-29.851	-83.752	-143.824	-139.594	-139.010	-134.576	-30.712	-135.461	-8191	255	
20938.348	1	1	0	0	0.14397	0.31594	0.19482	0.33054	0.10736	0.1003	0.27216	0.14458	0.18847	0.19946	0.029094	0.24211	0.068226	0.069962	0.33658	0.11226	-2.8083	-2.4104	-3.1604	-2.9896	-2.6063	-3.4188	-2.8875	-2.9813	-3.4958	-2.4979	-3.3312	-3.0167	-2.7604	-3.4396	-2.6104	-3.1146	-142.712	185.718	142.230	162.274	-14.987	108.524	95.832	80.665	114.738	89.731	117.941	-119.984	-82.492	-8.737	-15.834	161.369	0.00082389	0.00020813	0.00017464	1344.2	5.9022e-06	1.2218e-06	1345.1	364.23	1.0553e-05	4.9139e-06	416.88	139.15	121.13	41.524	6.9165e-06	51.449	0.00053717	0.00051848	0.00014302	1369.8	5.6992e-06	5.5363e-06	1370.1	372.28	5.599e-06	5.6863e-06	425.68	142.56	124.05	42.78	5.6878e-06	52.949	-27.621	-37.944	-68.282	-148.127	-13.966	-26.201	-148.253	-143.589	-5.208	-27.131	-143.978	-139.842	-139.197	-134.590	-13.845	-135.435	-8191	255	
20938.469	1	1	0	0	0.18881	0.19387	0.068021	0.40598	0.1664	0.23205	0.2146	0.16569	0.034774	0.17965	0.19405	0.26587	0.16305	0.1678	0.063929	0.17309	-2.9958	-2.3875	-3.1479	-3.1979	-2.4938	-3.4375	-2.7646	-3.0583	-3.3563	-2.525	-3.2	-3.2417	-2.6437	-3.5771	-2.7562	-2.8667	-121.200	-32.370	-142.619	164.546	-68.894	-9.195	158.007	188.085	126.965	94.626	-159.898	138.183	-104.805	146.791	103.888	-147.895	0.00074939	0.00044915	0.00019394	1343.8	8.3542e-06	5.7231e-06	1346.7	364.2	5.1643e-06	6.6715e-06	419.85	140.09	121.55	41.531	5.0719e-06	51.496	0.00053366	0.00051198	0.00014379	1369.6	5.6822e-06	5.5762e-06	1369.7	371.97	5.5915e-06	5.6757e-06	426.4	142.82	124.27	42.807	5.7224e-06	53.022	-25.357	-56.245	-73.903	-148.164	-66.290	9.070	-148.298	-143.376	-38.050	-2.971	-143.824	-139.500	-139.175	-134.500	-22.755	-135.324	-8191	255	
20938.564	1	1	0	0	0.22882	0.13046	0.13935	0.11515	0.086068	0.26093	0.11372	0.1185	0.13884	0.29438	0.13834	0.30624	0.12684	0.15399	0.1918	0.12901	-2.9604	-2.5083	-3.2292	-3.4208	-2.3958	-3.2542	-2.95	-2.8438	-3.475	-2.6125	-3.0146	-3.3	-2.5667	-3.4146	-2.8937	-2.7792	9.778	8.886	-20.526	-110.076	-13.787	-110.546	89.215	125.055	11.847	120.890	-147.169	140.464	141.266	-87.112	194.854	-118.035	0.00089482	0.00039579	0.00013526	1346.6	5.0344e-06	3.0156e-06	1351	366.73	4.9023e-06	6.1098e-06	416.48	140.28	121.61	41.524	3.455e-06	51.621	0.00053428	0.00051927	0.00014616	1370.7	5.6721e-06	5.5967e-06	1372	373.28	5.6949e-06	5.651e-06	425.48	142.91	124.47	42.852	5.7147e-06	53.052	-29.297	-101.223	-72.277	-147.947	-2.588	26.704	-148.638	-143.691	-10.387	8.707	-144.317	-139.990	-139.323	-134.590	-61.931	-135.590	-8191	255	
20938.660	1	1	0	0	0.28136	0.076839	0.087937	0.1006	0.33852	0.21476	0.27141	0.20007	0.071044	0.1818	0.08683	0.33713	0.10417	0.12736	0.37106	0.060164	-3.0417	-2.3792	-2.8125	-3.4021	-2.4271	-3.1396	-3.3021	-2.9708	-3.525	-2.5229	-3.0396	-3.5271	-2.4771	-3.2479	-3.1354	-2.8479	83.187	70.003	-0.759	-122.386	-70.950	-74.263	154.523	-130.287	0.312	93.922	-125.436	121.413	-148.458	182.041	145.258	-65.416	0.00081644	0.00047477	0.00014838	1348.8	5.5296e-06	4.5095e-06	1347.8	364.96	7.1188e-06	4.1403e-06	416.4	140.4	121.42	41.59	5.6644e-06	51.498	0.00054713	0.00052832	0.00014143	1369.7	5.7559e-06	5.6366e-06	1371	372.39	5.7061e-06	5.6935e-06	425.68	142.83	124.17	42.845	5.7265e-06	53.054	-29.565	-66.887	-51.115	-148.237	-22.069	-23.897	-148.386	-143.604	-1.814	25.834	-144.150	-139.908	-139.166	-134.703	-18.294	-135.274	-8191	255	
20938.732	1	1	0	0	0.12491	0.13728	0.011614	0.075282	0.2288	0.11436	0.21341	0.043899	0.15022	0.075141	0.21051	0.29695	0.18442	0.21354	0.20044	0.070505	-2.9083	-2.7167	-3.0104	-3.6146	-2.5958	-3.2917	-3.4542	-2.7604	-3.3167	-2.6854	-2.8979	-3.6208	-2.6271	-3.1437	-3.3083	-2.4125	88.545	140.911	-23.087	-75.842	100.531	-23.841	145.526	112.554	141.204	157.801	183.568	-129.951	47.810	183.760	-9.987	-84.668	0.00085105	0.00048289	0.00020234	1348.2	5.7082e-06	2.7682e-06	1348.7	364.87	7.899e-06	7.2651e-06	415.99	139.67	121.81	41.717	2.0233e-06	51.377	0.00053502	0.00052213	0.00014565	1370.9	5.7023e-06	5.5748e-06	1369.4	372.64	5.6906e-06	5.6647e-06	425.53	142.73	124.22	42.865	5.629e-06	53.023	-33.383	-105.926	-67.259	-148.248	-20.497	-22.067	-148.645	-143.442	-4.480	-12.614	-144.242	-139.846	-139.436	-134.441	-61.222	-135.641	-8191	255	
20938.852	1	1	0	0	0.12975	0.082654	0.19528	0.40244	0.12338	0.072231	0.24	0.24086	0.2399	0.26743	0.18108	0.088289	0.3887	0.22079	0.24148	0.24031	-3.0646	-2.6646	-2.7	-3.5229	-2.6521	-3.025	-3.2792	-2.5958	-3.3312	-2.8875	-2.8417	-3.5375	-2.6271	-2.7562	-3.2354	-2.4813	32.612	-115.245	-121.556	161.443	95.599	-122.174	174.039	148.728	-68.983	-24.563	184.575	149.019	176.101	132.730	-161.617	-154.012	0.00081741	0.00039125	0.00018994	1346.6	6.0067e-06	5.9939e-06	1346.8	364.76	8.8419e-06	6.2459e-06	414.84	140.06	121.24	41.537	5.8213e-06	51.467	0.00054396	0.00051721	0.00014548	1369.6	5.7196e-06	5.7015e-06	1369	372.81	5.7113e-06	5.5012e-06	425.79	142.89	124.03	42.837	5.6454e-06	52.968	-30.689	-66.104	-70.460	-148.312	-20.894	-11.653	-148.360	-143.789	-54.295	-42.447	-143.927	-139.693	-139.493	-134.385	-41.499	-135.372	-8191	255	
20938.947	1	1	0	0	0.40991	0.17164	0.15966	0.23095	0.23735	0.079549	0.24506	0.27131	0.1396	0.073901	0.34603	0.061344	0.17052	0.30806	0.15675	0.23967	-2.7208	-2.9521	-2.6792	-3.5458	-2.6521	-2.7792	-3.6333	-2.7375	-3.1854	-2.925	-2.6125	-3.4625	-2.7646	-2.8167	-3.2604	-2.6875	-57.522	128.064	49.965	-155.517	-66.512	-117.387	161.389	196.650	53.006	-128.093	131.801	-117.108	145.659	-160.643	196.840	174.856	0.00079679	0.00025883	8.1543e-05	1346.6	8.358e-06	3.9423e-06	1345.9	365.61	6.7452e-06	6.4096e-06	416.6	139.42	121.22	41.657	7.729e-06	51.462	0.00053955	0.00052219	0.00014526	1371.2	5.6966e-06	5.6086e-06	1369.6	372.37	5.6627e-06	5.5914e-06	425.31	142.77	124.08	42.892	5.5118e-06	53.027	-27.775	-69.929	-76.481	-148.144	-10.898	0.757	-148.308	-143.463	-21.270	7.068	-144.124	-139.750	-139.075	-134.568	-13.318	-135.332	-8191	255	
20939.047	1	1	0	0	0.10817	0.1057	0.2118	0.20731	0.061894	0.12438	0.15094	0.087597	0.040754	0.036677	0.11509	0.24363	0.088361	0.12889	0.16334	0.20753	-2.7229	-3.025	-2.4833	-3.4875	-2.8021	-2.7458	-3.5708	-2.7625	-2.9813	-3.0938	-2.5979	-3.4479	-3.0229	-2.7583	-3.3104	-2.8708	11.853	-66.366	-84.386	178.298	-155.325	24.416	132.843	115.272	-52.756	1.362	-160.888	154.167	57.817	184.323	161.589	-145.542	0.0008073	0.00053409	0.0001386	1342.3	6.4427e-06	3.7937e-06	1345	365.63	9.5389e-06	6.3811e-06	417.38	139.69	121.3	41.31	4.8083e-06	51.593	0.00054059	0.00050389	0.0001405	1369.7	5.6541e-06	5.6743e-06	1369.3	372.48	5.628e-06	5.5847e-06	425.3	142.91	124.01	42.78	5.6626e-06	53.015	-29.991	-59.547	-48.311	-147.929	-34.652	-9.503	-148.273	-143.508	-22.860	18.669	-143.865	-139.671	-139.313	-134.429	-20.708	-135.319	-8191	255	
20939.164	1	1	0	0	0.17323	0.20815	0.24163	0.23221	0.20561	0.094719	0.10905	0.16318	0.15399	0.28684	0.13601	0.15204	0.29563	0.3238	0.18811	0.19506	-2.7438	-3.2438	-2.4437	-3.4875	-3.0292	-2.5438	-3.6208	-2.6604	-2.8979	-3.3917	-2.4562	-3.125	-2.9625	-2.7375	-3.3542	-2.7208	-140.600	131.623	6.896	170.329	62.468	48.619	-71.575	161.420	-131.888	154.378	-53.403	78.434	190.287	174.778	94.525	-130.578	0.00090946	0.00050237	0.0001751	1346.4	3.1225e-06	5.0301e-06	1349.3	365.28	7.2219e-06	5.8368e-06	417.09	140.06	121.35	41.503	4.0384e-06	51.384	0.0005412	0.00050731	0.00014397	1370.3	5.5669e-06	5.6902e-06	1370	372.11	5.7232e-06	5.4803e-06	425.74	142.74	123.93	42.759	5.5857e-06	52.934	-34.397	-26.649	-67.206	-147.952	-47.711	-9.957	-148.196	-143.606	-17.418	-23.497	-144.080	-139.916	-139.276	-134.451	-4.816	-135.472	-8191	255	
20939.262	1	1	0	0	0.11613	0.19694	0.13299	0.34004	0.11601	0.11138	0.32019	0.33728	0.26231	0.16716	0.26901	0.10464	0.29264	0.10158	0.22839	0.091573	-2.5646	-3.3646	-2.5333	-3.4479	-3.15	-2.6125	-3.6292	-2.9437	-2.6562	-3.3563	-2.6875	-3.2583	-3.1854	-2.5979	-3.2938	-3.0167	86.846	-64.687	-155.143	-141.741	-136.662	12.207	70.313	145.289	-151.395	83.790	151.477	42.960	193.804	123.910	101.352	117.314	0.00081412	0.00049639	0.00019094	1348.2	5.6128e-06	3.2792e-06	1348.7	364.52	8.5727e-06	5.2541e-06	416.64	139.73	121.55	41.692	4.3638e-06	51.597	0.00053217	0.00049395	0.0001418	1371	5.6313e-06	5.6274e-06	1370.7	371.85	5.6361e-06	5.5311e-06	424.96	142.6	124.34	42.857	5.5067e-06	53.026	-31.896	-97.541	-84.270	-148.208	-12.437	-25.918	-148.512	-143.600	-4.537	-43.390	-144.145	-139.781	-139.253	-134.754	15.908	-135.786	-8191	255	
20939.332	1	1	0	0	0.30332	0.15474	0.13586	0.1787	0.053836	0.039548	0.053969	0.11795	0.098337	0.06722	0.1015	0.20565	0.087283	0.26448	0.36192	0.30092	-2.3396	-3.3354	-2.5542	-3.15	-3.2542	-2.4292	-3.5375	-2.9333	-2.5917	-3.3417	-2.6188	-3.1562	-3.2521	-2.4479	-3.3146	-3.1396	94.873	-103.845	182.221	136.435	-97.834	61.513	101.573	78.892	104.763	28.602	62.911	176.082	-60.944	186.769	110.760	182.646	0.00084362	0.00039006	9.2252e-05	1347.8	7.8721e-06	3.2907e-06	1344	364.5	8.9651e-06	3.321e-06	415.78	139.92	121.4	41.415	5.8079e-06	51.477	0.00054372	0.00051662	0.00013786	1370.8	5.5487e-06	5.6298e-06	1368.6	371.98	5.6106e-06	5.6388e-06	424.98	142.87	124.02	42.733	5.6098e-06	53.036	-25.947	-107.726	-126.281	-148.072	-29.946	-20.518	-148.433	-143.750	-9.808	-12.708	-144.149	-140.050	-139.526	-134.689	12.100	-135.419	-8191	255	
20939.453	1	1	0	0	0.19718	0.20266	0.20565	0.1415	0.066703	0.26922	0.18006	0.21138	0.080824	0.12306	0.11291	0.27518	0.085321	0.29184	0.071006	0.20607	-2.2812	-3.3979	-2.4729	-2.8708	-3.3146	-2.5417	-3.475	-3.1542	-2.525	-3.4958	-2.8208	-2.9062	-3.3792	-2.5271	-3.1063	-3.2792	-74.501	6.632	85.951	194.979	-53.678	-39.416	133.941	51.069	23.770	-43.851	183.831	152.822	169.480	106.466	9.449	137.264	0.00081875	0.00033245	0.00011537	1347.6	5.7187e-06	3.3011e-06	1348.5	365.2	6.3679e-06	5.0599e-06	415.25	140.02	121.89	41.498	6.5553e-06	51.26	0.00054656	0.00051536	0.00014174	1369.2	5.642e-06	5.6858e-06	1370.2	371.9	5.6358e-06	5.6381e-06	424.93	142.69	124.12	42.756	5.4949e-06	52.948	-34.344	-77.030	-55.547	-148.252	30.634	3.594	-148.410	-143.754	-13.591	-19.890	-144.022	-139.890	-139.368	-134.469	-23.439	-135.482	-8191	255	
20939.549	1	1	0	0	0.13059	0.025248	0.11357	0.38704	0.15084	0.17648	0.17547	0.080216	0.065414	0.082152	0.19092	0.51669	0.18707	0.14287	0.038545	0.25776	-2.1625	-3.3146	-2.5354	-3.0312	-3.3917	-2.5958	-3.2917	-3.3375	-2.5042	-3.4125	-3	-2.7562	-3.5458	-2.825	-3.1813	-3.4375	-54.784	-53.495	-122.035	156.538	159.175	-129.035	50.488	61.905	82.692	-74.667	67.641	171.838	166.423	-103.945	150.319	110.252	0.00085345	0.00071185	0.00022167	1352.1	6.2529e-06	3.1582e-06	1348.7	364.63	9.0101e-06	4.8707e-06	416.72	139.96	121.49	41.713	4.8599e-06	51.317	0.00053832	0.00050816	0.0001394	1370.6	5.5064e-06	5.5379e-06	1368.3	371.92	5.4723e-06	5.5974e-06	425.08	142.93	124.19	42.843	5.5326e-06	52.924	-25.808	-80.495	-51.474	-147.950	-22.805	22.418	-148.244	-143.822	-46.656	-11.221	-143.950	-139.726	-139.121	-134.845	18.953	-135.456	-8191	255	
20939.645	1	1	0	0	0.16093	0.10163	0.042595	0.24414	0.044485	0.21477	0.20326	0.16429	0.17541	0.16216	0.19651	0.035623	0.19369	0.18631	0.073811	0.095033	-2.1729	-3.2917	-2.9083	-2.8187	-3.2562	-2.6792	-3.1104	-3.3625	-2.3063	-3.2562	-3.0208	-2.5833	-3.4542	-2.8854	-2.8708	-3.3521	-115.974	-7.307	-71.626	169.025	-112.423	27.687	-140.729	142.183	112.722	14.565	122.415	17.442	-148.762	-115.882	-26.099	0.469	0.00082304	0.00057158	0.00015114	1348.6	5.8266e-06	3.5646e-06	1350.2	364.8	6.7438e-06	7.4148e-06	416.15	139.78	121.8	41.711	4.2492e-06	51.475	0.00053562	0.00050541	0.00014132	1370.4	5.5059e-06	5.4869e-06	1369.6	371.82	5.5819e-06	5.6532e-06	425.22	142.78	124.21	42.781	5.5521e-06	52.983	-31.121	-73.561	-52.417	-147.996	16.733	-32.212	-148.213	-143.516	-27.030	-4.850	-144.206	-139.637	-139.259	-134.378	10.416	-135.562	-8191	255	
20939.766	1	1	0	0	0.072643	0.18263	0.12344	0.30958	0.27081	0.12247	0.51554	0.080455	0.087417	0.19673	0.13073	0.039478	0.13603	0.28701	0.15357	0.12407	-2.1083	-3.2167	-2.7229	-2.7188	-3.3229	-2.9	-2.9083	-3.3438	-2.7062	-3.275	-3.0854	-2.4938	-3.5396	-2.6813	-2.5417	-3.6188	-60.966	-90.802	-98.912	-151.490	114.587	-5.418	143.277	183.416	64.495	196.338	-46.967	194.140	-121.460	-119.040	90.566	-17.757	0.00082041	0.00057736	0.00013611	1346.2	3.9082e-06	2.3456e-06	1348	364.73	5.1655e-06	7.1119e-06	418.1	139.8	121.82	41.772	6.1053e-06	51.467	0.00053661	0.00050966	0.000143	1369.4	5.5653e-06	5.5534e-06	1370.1	371.84	5.628e-06	5.5644e-06	425.32	142.69	123.96	42.783	5.6425e-06	52.968	-29.315	-78.589	-79.888	-148.048	-9.722	2.277	-148.250	-143.733	-3.515	-24.871	-144.076	-139.838	-139.012	-134.657	-15.155	-135.503	-8191	255	
20939.861	1	1	0	0	0.2485	0.073239	0.2234	0.31682	0.057572	0.076456	0.19218	0.27656	0.19667	0.12306	0.29042	0.28688	0.10668	0.12385	0.18473	0.090853	-2.2188	-2.7708	-3.2438	-2.7917	-3.2917	-2.7062	-2.8146	-3.4979	-2.4271	-2.9	-3.35	-2.7021	-3.3208	-3.0104	-2.7583	-3.5812	48.485	113.168	-44.861	177.349	10.910	151.412	81.530	140.142	-148.884	53.115	145.565	-132.075	149.225	48.787	50.789	159.913	0.00087869	0.00037273	0.00015336	1344	4.8306e-06	3.4031e-06	1348.6	364.22	6.1906e-06	3.6179e-06	416.92	139.39	120.88	41.655	6.8344e-06	51.414	0.00053866	0.00050097	0.00013921	1367.6	5.5397e-06	5.5219e-06	1369.8	371.98	5.6406e-06	5.5359e-06	424.84	142.55	123.86	42.812	5.5783e-06	52.987	-30.752	-82.216	-86.689	-148.235	11.907	-20.260	-148.302	-143.803	-6.084	-14.551	-144.088	-139.602	-139.141	-134.381	-24.975	-135.656	-8191	255	
20939.955	1	1	0	0	0.24422	0.10075	0.13066	0.18249	0.33243	0.075316	0.29704	0.25818	0.23145	0.20711	0.16537	0.15967	0.20113	0.11342	0.039267	0.24574	-2.3354	-2.9042	-3.3708	-2.6354	-3.2875	-3.0375	-2.7583	-3.5146	-2.6792	-2.7958	-3.4292	-2.5354	-3.2292	-3.0646	-2.3521	-3.3708	-17.425	-65.130	-114.396	171.504	153.849	-117.570	-118.872	139.999	-122.433	89.370	188.513	149.405	-145.598	-131.180	52.551	130.151	0.00088606	0.00059715	0.0001231	1347.3	5.2232e-06	6.4844e-06	1349.8	362.95	6.7872e-06	7.3057e-06	415.05	139.66	121.84	41.589	5.3069e-06	51.107	0.00053035	0.00051309	0.00013883	1369.5	5.4358e-06	5.4639e-06	1368.1	371.43	5.4504e-06	5.437e-06	424.55	142.65	124.1	42.75	5.5238e-06	52.876	-29.066	-104.174	-79.666	-148.128	-22.549	-26.955	-148.218	-143.548	-14.985	-23.565	-144.032	-139.927	-139.026	-134.624	-19.939	-135.424	-8191	255	
20940.027	1	1	0	0	0.15286	0.28573	0.11785	0.1364	0.17372	0.12847	0.1731	0.19545	0.24393	0.059953	0.20167	0.37305	0.15708	0.12831	0.20223	0.1229	-2.4667	-2.8583	-3.3187	-2.5896	-3.2667	-3.2083	-2.6833	-3.3917	-2.8042	-2.6542	-3.4313	-2.6958	-3.0458	-3.1646	-2.2542	-3.3667	120.447	-121.599	-137.475	158.718	125.947	134.646	123.772	181.596	128.914	65.795	-136.047	180.860	-122.544	171.722	142.975	121.269	0.00084244	0.00057268	0.0001595	1343.8	7.0309e-06	5.387e-06	1344.9	363.14	7.6933e-06	5.48e-06	416.58	139.32	121.35	41.616	4.8655e-06	51.51	0.00053149	0.00049842	0.00013682	1366.3	5.563e-06	5.417e-06	1368.8	371.59	5.5008e-06	5.4985e-06	425.05	142.55	124.12	42.79	5.4887e-06	52.95	-33.133	-98.517	-63.380	-148.260	-20.269	-23.772	-148.444	-143.621	-5.779	15.278	-144.408	-139.768	-139.347	-134.644	-49.240	-135.474	-8191	255	
20940.148	1	1	0	0	0.15518	0.13096	0.068629	0.20434	0.24802	0.1003	0.13765	0.14685	0.13	0.078371	0.173	0.20845	0.19954	0.24342	0.19833	0.1215	-2.4604	-2.675	-3.2542	-2.6	-2.9625	-3.1417	-2.85	-3.2896	-2.7979	-2.4979	-3.4062	-2.7458	-3.0958	-3.4208	-2.3979	-3.4813	-72.222	42.634	157.843	-157.870	162.822	169.463	107.425	134.827	70.978	118.666	74.367	-153.406	-120.091	-143.348	4.376	26.758	0.00077186	0.00041726	0.00015014	1346.6	4.6575e-06	5.4e-06	1345.9	364.24	5.5476e-06	3.4449e-06	419.23	139.83	121.53	41.562	6.5523e-06	51.453	0.00052652	0.0004983	0.00013639	1368.5	5.5258e-06	5.3756e-06	1367.6	371.61	5.3989e-06	5.4169e-06	425.46	142.73	124.06	42.718	5.5009e-06	52.953	-33.601	-70.833	-86.852	-148.103	7.216	-15.645	-148.271	-143.296	-16.181	4.158	-144.125	-140.179	-139.524	-134.661	-11.458	-135.342	-8191	255	
20940.244	1	1	0	0	0.15311	0.18866	0.094126	0.22404	0.11558	0.012961	0.19377	0.10068	0.21146	0.11714	0.34	0.12369	0.050347	0.3175	0.22815	0.13613	-2.5229	-2.4521	-3.4771	-2.8	-2.6937	-3.4104	-2.8937	-3.2062	-3.1333	-2.7271	-3.5292	-2.9792	-2.925	-3.3937	-2.3979	-3.2208	76.042	-48.521	26.903	127.481	68.622	51.191	66.757	152.948	-145.156	-66.674	-158.537	131.397	1.374	154.094	70.550	-132.663	0.00075506	0.00063921	0.00012586	1347.5	5.6258e-06	3.118e-06	1344.3	364.36	8.2376e-06	6.1257e-06	417.9	140.16	121.38	41.693	7.8147e-06	51.394	0.00051909	0.00050021	0.0001333	1367.1	5.455e-06	5.2707e-06	1365.5	372.14	5.308e-06	5.4502e-06	424.94	142.73	124.01	42.821	5.5304e-06	53.02	-33.320	-63.377	-85.675	-148.261	0.705	4.207	-148.397	-143.595	-36.821	11.567	-144.010	-139.635	-139.525	-134.620	-1.477	-135.359	-8191	255	
20940.342	1	1	0	0	0.13568	0.156	0.069828	0.22012	0.040511	0.20955	0.30408	0.10284	0.13457	0.19342	0.14101	0.23234	0.095654	0.21326	0.14192	0.20274	-2.8521	-2.3792	-3.2917	-2.9458	-2.6437	-3.3146	-2.6771	-3.2083	-3.1771	-2.4167	-3.275	-2.8229	-2.8063	-3.4583	-2.5896	-3.0875	-155.848	144.574	115.320	185.000	-0.714	110.431	162.886	-129.815	195.548	121.266	-49.354	183.510	-14.578	188.683	182.301	130.841	0.00086034	0.0005447	0.00021941	1343.9	8.1854e-06	3.5978e-06	1348.4	365.76	8.6991e-06	6.2063e-06	414.97	139.54	121.46	41.557	6.1186e-06	51.245	0.00053031	0.00050528	0.00013645	1366.7	5.5095e-06	5.3215e-06	1366.7	372.92	5.4122e-06	5.418e-06	424.48	142.81	123.99	42.75	5.4272e-06	52.83	-30.280	-113.450	-94.782	-148.221	-39.282	-8.751	-148.330	-143.852	-24.100	-17.346	-144.097	-139.948	-138.972	-134.291	-0.317	-135.435	-8191	255	
20940.438	1	1	0	0	0.0083293	0.080656	0.091472	0.31505	0.18725	0.29379	0.25755	0.05338	0.17207	0.15526	0.22698	0.21996	0.069893	0.16989	0.19393	0.066053	-2.8479	-2.3688	-3.0458	-3.1146	-2.4229	-3.4646	-2.9042	-3.0062	-3.2354	-2.5271	-3.25	-3.0312	-2.4875	-3.2938	-2.6958	-2.8021	5.517	-16.336	-52.022	156.851	52.150	131.613	174.789	189.269	-145.142	86.457	116.471	154.146	18.462	146.914	-102.441	128.745	0.00086509	0.00037674	0.0001568	1342.4	5.8377e-06	3.8347e-06	1340.8	364.87	7.1803e-06	4.3921e-06	416.29	139.68	121.2	41.595	6.8495e-06	51.381	0.00052024	0.00048542	0.00013418	1366.3	5.3859e-06	5.2621e-06	1365	371.72	5.4021e-06	5.2998e-06	425.1	142.56	123.84	42.789	5.3605e-06	52.998	-28.063	-58.606	-82.447	-148.058	-4.783	-0.016	-148.367	-143.468	-6.258	30.738	-143.963	-139.735	-138.992	-134.521	-21.071	-135.347	-8191	255	
20940.559	1	1	0	0	0.28836	0.17016	0.030941	0.11608	0.18125	0.072512	0.30928	0.13338	0.11561	0.17782	0.27398	0.26816	0.15149	0.073481	0.17997	0.19686	-2.8875	-2.4833	-3.0146	-3.1375	-2.6125	-3.3854	-2.9771	-2.7125	-3.3708	-2.5896	-3.1188	-3.3417	-2.5563	-3.3875	-2.7396	-2.7583	-37.510	176.987	-10.738	-140.430	155.438	187.444	181.914	194.806	82.416	122.840	97.612	-151.187	34.158	-133.640	81.653	138.678	0.00084492	0.000654	0.00019441	1343	5.9149e-06	3.8948e-06	1341.4	364.83	4.8947e-06	2.7976e-06	417.08	139.77	121.65	41.509	5.21e-06	51.357	0.00051723	0.00048619	0.00013399	1365.7	5.2801e-06	5.2301e-06	1363.7	371.29	5.2582e-06	5.3378e-06	425.09	142.53	123.75	42.744	5.2327e-06	53.012	-30.875	-82.632	-51.984	-148.035	-48.584	-14.348	-148.217	-143.531	-24.701	0.133	-143.838	-140.006	-138.903	-134.399	-16.324	-135.535	-8191	255	
20940.631	1	1	0	0	0.29318	0.074042	0.0501	0.12281	0.24593	0.072527	0.11379	0.016814	0.18607	0.15946	0.093955	0.15158	0.11122	0.049252	0.049858	0.1621	-3.0062	-2.5542	-2.9437	-3.3292	-2.6021	-3.1708	-3.1604	-2.7125	-3.3958	-2.5938	-3.1625	-3.4708	-2.7438	-3.3229	-3	-2.8167	-76.962	59.461	47.701	91.798	-47.703	58.180	147.065	-112.690	159.078	67.242	-154.319	117.917	-105.938	-140.003	-103.421	-82.968	0.00086364	0.0004111	0.00022994	1344.3	5.4744e-06	3.7406e-06	1344.1	365.06	6.3697e-06	3.4701e-06	416.17	139.15	121.38	41.819	6.2691e-06	51.201	0.00050742	0.00048322	0.00013394	1366.1	5.383e-06	5.2381e-06	1365.2	371.51	5.3268e-06	5.3187e-06	423.84	142.41	123.93	42.786	5.3994e-06	52.859	-32.986	-122.445	-75.043	-147.946	-22.887	-23.847	-148.372	-143.469	-26.104	-17.277	-143.771	-139.998	-139.264	-134.307	-9.899	-135.229	-8191	255	
20940.727	1	1	0	0	0.20652	0.16576	0.27418	0.36727	0.27872	0.18849	0.13495	0.14167	0.045349	0.10727	0.15519	0.16493	0.20546	0.51695	0.10894	0.1145	-3.0708	-2.6312	-2.9	-3.4833	-2.5438	-3.2438	-3.2729	-2.8042	-3.4188	-2.775	-3.0271	-3.4292	-2.6271	-3.2542	-3.2	-2.6479	-112.879	-115.462	-121.229	171.754	-61.736	-10.873	190.590	163.679	-102.231	-20.154	-92.728	-45.170	122.206	134.315	16.979	159.572	0.00076388	0.00040118	9.7704e-05	1343.1	5.3202e-06	5.3128e-06	1337.9	364.12	7.6159e-06	3.1537e-06	415.74	139.69	121.26	41.615	5.2067e-06	51.4	0.00050567	0.00049199	0.00013416	1365.1	5.2934e-06	5.2505e-06	1364.4	371.43	5.2815e-06	5.3841e-06	424.38	142.45	123.84	42.79	5.2943e-06	52.906	-29.813	-44.885	-64.070	-148.002	-14.791	2.057	-148.179	-143.581	-15.366	18.741	-143.918	-139.659	-138.838	-134.149	-7.021	-135.251	-8191	255	
20940.846	1	1	0	0	0.10093	0.042768	0.12725	0.24416	0.38609	0.18997	0.23453	0.27167	0.2797	0.14938	0.29827	0.12085	0.063492	0.23744	0.21101	0.089978	-3.0062	-2.8042	-2.7562	-3.5729	-2.5625	-3.0771	-3.5146	-2.6771	-3.2708	-2.9708	-2.6542	-3.4792	-2.6437	-3.3042	-3.2167	-2.6771	6.790	42.357	106.582	151.944	-93.673	177.072	107.741	148.545	180.602	23.317	169.229	0.782	142.834	149.163	67.795	110.043	0.0008388	0.0006851	0.00013304	1346.1	8.2561e-06	5.3435e-06	1343.2	364.59	7.5273e-06	8.0734e-06	416.61	139.75	121.23	41.543	4.6301e-06	51.209	0.00051731	0.00048899	0.00013331	1367.4	5.4323e-06	5.3724e-06	1366	371.55	5.392e-06	5.376e-06	424.58	142.56	123.87	42.735	5.3592e-06	52.957	-32.576	-68.177	-81.996	-148.056	-35.558	4.940	-148.317	-143.729	28.868	-10.763	-144.013	-139.394	-139.190	-134.159	-19.040	-135.171	-8191	255	
20940.941	1	1	0	0	0.10254	0.039023	0.17665	0.34016	0.071442	0.23416	0.30029	0.33015	0.31431	0.13289	0.36334	0.15859	0.18975	0.12382	0.11124	0.17049	-2.9583	-2.8333	-2.5854	-3.5625	-2.5292	-3.0563	-3.5542	-2.4625	-3.05	-3.3021	-2.8063	-3.5417	-2.6875	-3.1937	-3.3708	-2.7354	112.062	57.020	-54.105	-133.133	17.219	-50.068	129.800	135.463	180.143	-129.830	148.195	-127.543	-154.737	-161.312	195.869	76.764	0.00084437	0.00050787	0.00015052	1344.9	3.5678e-06	2.2221e-06	1344.4	364.94	7.7838e-06	5.4476e-06	415.6	139.94	121.32	41.705	6.8757e-06	51.735	0.00052297	0.00050664	0.00013576	1368.1	5.4905e-06	5.4955e-06	1366.5	371.83	5.385e-06	5.3882e-06	424.68	142.75	124.01	42.867	5.6761e-06	53.011	-32.661	-93.784	-52.745	-148.102	-31.052	20.383	-148.002	-143.367	-23.721	8.059	-143.832	-139.621	-139.350	-134.291	-1.785	-135.358	-8191	255	
20941.037	1	1	0	0	0.051261	0.13368	0.10247	0.25258	0.035463	0.067764	0.1491	0.16764	0.026097	0.31756	0.18693	0.23053	0.20658	0.19621	0.11142	0.12397	-2.8479	-3.0812	-2.4521	-3.4708	-2.6521	-2.9458	-3.5271	-2.7188	-3.1125	-3.2833	-2.8146	-3.6063	-3.0167	-3.0708	-3.35	-2.8542	54.101	177.122	-156.990	147.690	54.090	125.247	106.679	171.978	69.883	-109.178	80.680	-150.723	184.956	188.093	180.563	94.195	0.00087313	0.00065808	0.00023525	1348.4	7.2874e-06	3.0258e-06	1343	363.92	4.7267e-06	5.8367e-06	413.96	139.52	121.15	41.594	6.6671e-06	51.449	0.00054524	0.00051368	0.0001411	1367.9	5.4919e-06	5.5023e-06	1365.5	371.44	5.3778e-06	5.3171e-06	423.62	142.55	123.76	42.79	5.3302e-06	53.036	-28.686	-71.700	-76.923	-148.004	-22.724	-58.183	-148.292	-143.701	-11.370	-32.878	-144.076	-139.597	-139.045	-134.202	-10.810	-135.213	-8191	255	
20941.133	1	1	0	0	0.06569	0.11784	0.17925	0.055538	0.19505	0.19626	0.40257	0.16246	0.1029	0.16643	0.13129	0.12728	0.21233	0.31829	0.014467	0.16815	-2.7583	-3.3187	-2.5479	-3.5187	-3.0458	-2.7917	-3.4854	-2.6333	-3.0646	-3.3958	-2.4167	-3.4646	-3.0687	-2.8375	-3.3854	-2.9042	2.356	99.617	114.815	170.971	-148.495	-66.336	-148.415	140.237	-103.386	-96.326	93.812	-61.462	190.768	-153.094	133.231	-110.186	0.00078194	0.00066802	0.00013847	1348.7	5.9589e-06	3.9299e-06	1347	364.84	5.7035e-06	4.4163e-06	414.87	139.97	121.84	41.607	4.7914e-06	51.679	0.0005172	0.00048765	0.00013577	1367.4	5.3476e-06	5.344e-06	1367.7	371.89	5.4467e-06	5.4277e-06	424.47	142.83	124.09	42.796	5.4986e-06	53.096	-32.125	-71.785	-70.078	-147.883	-15.228	-40.382	-148.019	-143.167	-24.442	-23.215	-143.751	-139.486	-139.048	-134.236	-36.038	-135.178	-8191	255	
20941.229	1	1	0	0	0.27599	0.23913	0.23718	0.28808	0.14569	0.25701	0.11693	0.31353	0.22792	0.12466	0.054303	0.28909	0.17787	0.24334	0.07554	0.096217	-2.5563	-3.3771	-2.3833	-3.5292	-3.0583	-2.6083	-3.6792	-2.8458	-2.9604	-3.3937	-2.7333	-3.225	-3.3271	-2.6167	-3.4146	-2.9604	-81.214	133.984	92.877	-159.390	79.935	-66.393	95.211	124.849	108.783	-155.384	175.121	-114.641	123.791	186.988	-122.015	44.315	0.00084791	0.00059579	0.00011279	1349.9	5.1052e-06	4.324e-06	1346.5	364.23	8.6846e-06	5.6825e-06	418.34	140.44	121.76	41.74	5.3711e-06	51.468	0.00053634	0.00050847	0.0001428	1371.7	5.6569e-06	5.5811e-06	1370.7	372.15	5.609e-06	5.7301e-06	426.17	143.11	124.21	42.915	5.7159e-06	53.228	-32.690	-93.254	-40.171	-148.015	-34.107	-14.089	-148.209	-143.673	-18.691	-11.509	-144.016	-139.782	-139.335	-134.322	-16.959	-135.359	-8191	255	
20941.324	1	1	0	0	0.1206	0.069248	0.24913	0.43289	0.13088	0.12037	0.39116	0.21322	0.11446	0.051987	0.24665	0.1396	0.22545	0.17396	0.16216	0.10788	-2.4021	-3.3417	-2.6396	-3.3208	-3.0792	-2.6292	-3.6042	-2.9437	-2.8521	-3.5062	-2.5875	-3.2521	-3.2604	-2.5542	-3.4104	-2.9479	23.767	88.310	-32.083	186.117	185.768	64.303	161.483	172.257	183.865	-85.039	-111.129	193.693	-128.741	-34.474	-40.871	186.444	0.0008177	0.00063427	0.00016941	1352	6.1509e-06	3.2182e-06	1349.8	365.42	8.4187e-06	1.2729e-06	417.49	140.29	121.61	41.729	3.251e-06	51.467	0.00056991	0.00053488	0.00014795	1375.1	5.7371e-06	5.8192e-06	1373.5	372.86	5.711e-06	5.548e-06	426.36	143.29	124.33	42.952	5.5998e-06	53.164	-25.159	-84.471	-41.568	-148.159	-24.724	-13.482	-148.228	-143.508	0.500	-7.691	-143.867	-139.684	-138.974	-134.156	-28.330	-135.366	-8191	255	
20941.445	1	1	0	0	0.33906	0.037199	0.32881	0.16065	0.24827	0.21983	0.2145	0.25222	0.16348	0.15385	0.19108	0.018714	0.029691	0.27528	0.18023	0.21931	-2.1583	-3.4562	-2.5	-3.2021	-3.1562	-2.5625	-3.4958	-3.0354	-2.75	-3.4979	-2.8375	-3.0125	-3.4729	-2.7396	-3.3854	-3.2458	-99.705	-110.907	-132.359	-122.959	28.911	132.728	90.361	123.341	-10.859	2.452	117.804	124.111	153.186	175.463	-108.847	181.026	0.00077724	0.00047579	0.00016469	1353.4	5.7972e-06	3.3616e-06	1348	365.34	6.5599e-06	9.9802e-06	417.04	139.99	122.15	41.896	7.7705e-06	51.568	0.00053496	0.00051234	0.00014142	1375.7	5.5495e-06	5.5395e-06	1373.4	373.07	5.3652e-06	5.3394e-06	425.78	143.33	124.43	42.968	5.3401e-06	53.154	-27.668	-69.118	-77.665	-147.957	-10.403	-18.917	-148.264	-143.672	-27.373	-12.348	-144.102	-139.747	-139.062	-134.434	-17.129	-135.477	-8191	255	
20941.543	1	1	0	0	0.20956	0.214	0.12304	0.26056	0.11203	0.15016	0.17703	0.33179	0.12819	0.19981	0.17836	0.13238	0.088474	0.081932	0.08834	0.070766	-2.2167	-3.3333	-2.7208	-2.9708	-3.3646	-2.5312	-3.3312	-3.2042	-2.6479	-3.3937	-2.8708	-2.9604	-3.4792	-2.5	-3.1188	-3.2313	-78.317	-117.054	-100.230	157.472	149.844	40.579	121.918	141.705	170.158	89.507	171.702	115.467	-56.412	-46.154	166.063	188.630	0.00083852	0.00054877	0.00018211	1350.3	7.2398e-06	5.2381e-06	1350.9	366.46	8.1791e-06	3.7399e-06	416.88	140.48	122.1	41.929	3.9026e-06	51.565	0.00052936	0.00049529	0.00013616	1373.3	5.4366e-06	5.3967e-06	1374.6	373.17	5.4429e-06	5.4597e-06	426.15	143.45	124.68	43.019	5.5245e-06	53.107	-30.121	-99.665	-72.166	-147.988	-7.373	-6.150	-148.213	-143.529	-27.119	7.517	-143.698	-139.524	-138.944	-134.400	-18.552	-135.482	-8191	255	
20941.639	1	1	0	0	0.24793	0.28662	0.19148	0.16264	0.061686	0.20977	0.28102	0.20561	0.094591	0.22339	0.19218	0.26191	0.17406	0.27794	0.23338	0.10671	-2.1937	-3.4021	-2.9	-2.8146	-3.4208	-2.6542	-3.325	-3.2	-2.6875	-3.2729	-2.9188	-2.8021	-3.475	-2.8917	-3.0229	-3.5208	113.027	66.316	-66.974	-139.592	192.492	-98.987	142.575	89.280	55.153	-1.550	-120.305	81.237	120.102	-57.781	191.783	114.958	0.00085211	0.0005505	0.00014922	1351.6	3.2924e-06	4.0318e-06	1354.5	365.16	9.7725e-06	7.3922e-06	418.67	139.99	122.05	41.804	6.5731e-06	51.482	0.00053376	0.0005067	0.00014348	1375.7	5.7397e-06	5.6772e-06	1377.8	373.65	5.7493e-06	5.671e-06	427.07	143.58	124.87	43.049	5.6438e-06	53.245	-26.279	-103.272	-88.516	-147.915	-22.625	0.437	-147.994	-143.333	3.339	-37.685	-143.957	-139.450	-139.236	-134.294	8.070	-135.183	-8191	255	
20941.734	1	1	0	0	0.078818	0.11302	0.20396	0.29484	0.13569	0.27954	0.18896	0.24312	0.023518	0.18807	0.22842	0.077294	0.113	0.36766	0.14578	0.36983	-2.1979	-3.2896	-2.8708	-3.0312	-3.4104	-2.8333	-3.1063	-3.3937	-2.5854	-3.2917	-2.9854	-2.8417	-3.5333	-2.8333	-2.9583	-3.4042	-46.280	60.477	191.530	-135.112	10.832	31.828	0.465	-89.708	-17.772	-109.364	114.321	-87.583	150.584	153.012	39.656	136.655	0.00092136	0.00058737	0.00013101	1354.9	7.5818e-06	5.2482e-06	1359	366.85	8.2718e-06	7.3578e-06	418.63	140.16	122.03	41.9	5.8837e-06	51.769	0.00055889	0.00051406	0.00014315	1379.2	5.6429e-06	5.6972e-06	1379.8	373.8	5.61e-06	5.5048e-06	427.37	143.52	124.81	43.158	5.6183e-06	53.407	-30.462	-83.965	-53.982	-147.856	-38.206	-8.053	-147.867	-143.280	-30.949	-12.884	-143.773	-139.436	-138.885	-134.395	-56.202	-135.393	-8191	255	
20941.854	1	1	0	0	0.16722	0.32878	0.14669	0.16955	0.23208	0.13588	0.15464	0.28428	0.069926	0.20098	0.18266	0.19006	0.12904	0.33574	0.035889	0.35636	-2.1125	-3.1229	-3.1688	-2.8	-3.3167	-2.8833	-2.9229	-3.6125	-2.6521	-3.0833	-3.2854	-2.6729	-3.5312	-2.9313	-2.6813	-3.6875	-72.798	-102.128	77.841	156.880	192.217	-91.209	169.098	102.183	52.245	-71.719	-158.356	152.006	-116.186	121.984	-23.638	57.946	0.00079687	0.00032295	0.00018267	1355.2	8.3888e-06	5.5378e-06	1354.3	365.49	8.6861e-06	4.3465e-06	415.92	140.5	121.77	41.754	5.7498e-06	51.72	0.00053327	0.00051216	0.00014005	1377.7	5.2901e-06	5.2473e-06	1376.1	373.25	5.3118e-06	5.2859e-06	426.43	143.58	124.93	43.056	5.5859e-06	53.284	-30.082	-64.937	-74.819	-147.681	-20.288	-7.323	-148.097	-143.278	3.161	-15.156	-144.102	-139.392	-139.086	-134.466	-19.537	-135.486	-8191	255	
20941.926	1	1	0	0	0.22116	0.34246	0.040872	0.23112	0.094514	0.3153	0.23361	0.17619	0.09278	0.3774	0.03664	0.13402	0.096881	0.04029	0.15534	0.20611	-2.3021	-2.925	-3.1875	-2.5896	-3.3854	-2.9167	-2.9979	-3.6854	-2.6292	-2.9146	-3.525	-2.45	-3.4188	-3.0125	-2.7542	-3.7292	154.309	-128.127	36.888	-131.390	182.259	-76.536	173.335	167.258	-87.469	155.113	-49.359	174.367	144.935	150.828	4.408	-90.195	0.0008772	0.00023167	0.0001929	1351.9	3.889e-06	4.0437e-06	1350.6	364.86	7.2663e-06	2.2557e-06	416.95	140.29	121.85	41.791	6.5163e-06	51.561	0.0005401	0.00051089	0.00013837	1374.4	5.291e-06	5.236e-06	1371.6	372.39	5.1994e-06	5.0991e-06	425.34	143.17	124.68	42.991	5.2966e-06	53.158	-29.817	-74.499	-62.308	-147.785	2.530	-34.999	-148.057	-143.479	-5.251	9.296	-143.858	-139.453	-138.666	-134.198	-64.312	-135.662	-8191	255	
20942.021	1	1	0	0	0.18806	0.070394	0.44224	0.33472	0.16741	0.073528	0.14578	0.25902	0.14219	0.14259	0.12885	0.29948	0.17083	0.031936	0.18764	0.13775	-2.3396	-2.8729	-3.4	-2.8417	-3.2625	-3.2292	-2.7167	-3.6021	-2.9271	-2.9125	-3.4688	-2.675	-3.4208	-3.1708	-2.5146	-3.4646	-126.091	-45.657	163.360	183.797	163.817	46.328	103.435	91.326	-40.692	-97.848	-125.051	120.914	117.207	183.107	-77.945	-155.602	0.00084138	0.00051398	0.00018046	1356.5	3.6443e-06	4.3443e-06	1358	367.82	5.7375e-06	4.8119e-06	419.9	141.44	122.27	41.951	8.0567e-06	51.803	0.00051694	0.00049494	0.00013577	1377.5	5.4037e-06	5.5723e-06	1379.5	374.05	5.7467e-06	5.787e-06	428.07	143.99	125.1	43.128	5.7205e-06	53.304	-33.334	-74.324	-63.899	-147.940	-16.231	11.722	-148.009	-143.253	2.751	5.983	-143.946	-139.764	-138.808	-134.272	-3.319	-135.014	-8191	255	
20942.117	1	1	0	0	0.1775	0.2317	0.13548	0.023054	0.30447	0.062477	0.36907	0.11185	0.11682	0.070338	0.047879	0.15275	0.23419	0.16106	0.14777	0.101	-2.5375	-2.7396	-3.3354	-2.9667	-3.2333	-3.1937	-2.6375	-3.5917	-2.8542	-2.7958	-3.5958	-2.6979	-3.1667	-3.2438	-2.5729	-3.4188	160.514	-70.699	-1.249	-84.836	-65.327	122.417	121.531	162.234	99.510	-111.654	-83.099	133.890	-153.057	162.873	-120.595	161.876	0.00082571	0.00040383	0.00013868	1354.2	2.3579e-06	4.8104e-06	1354.2	367.33	3.1417e-06	5.0472e-06	419.59	141.08	122.99	41.983	4.6433e-06	51.865	0.00054378	0.00051285	0.00013594	1378.4	5.5106e-06	5.5331e-06	1378.9	374.87	5.5184e-06	5.5694e-06	427.57	143.83	125.26	43.11	5.3464e-06	53.405	-26.650	-87.432	-79.405	-147.888	-40.136	-0.496	-148.180	-143.327	-17.291	-15.037	-143.974	-139.620	-139.098	-134.332	-27.514	-135.370	-8191	255	
20942.238	1	1	0	0	0.29961	0.18078	0.047024	0.051216	0.087148	0.061074	0.20313	0.043826	0.14926	0.066824	0.13232	0.14194	0.29105	0.17409	0.091906	0.23741	-2.5958	-2.7396	-3.3104	-2.8042	-2.9292	-3.4792	-2.7667	-3.4896	-3.025	-2.6917	-3.4271	-2.8021	-2.8187	-3.3583	-2.5104	-3.4021	156.872	54.647	155.419	-73.234	-50.627	176.099	115.056	-156.664	-32.158	-83.874	-59.577	121.238	144.649	-118.187	155.476	159.272	0.00078394	0.00042887	0.00017744	1358.8	7.9843e-06	3.888e-06	1353.8	368.26	1.6557e-06	4.7115e-06	417.62	140.14	122.56	41.965	7.0168e-06	51.701	0.00052542	0.00050034	0.00013498	1380.1	5.4938e-06	5.3801e-06	1379.5	374.59	5.479e-06	5.3848e-06	427.29	143.86	125.16	43.175	5.3233e-06	53.43	-29.580	-92.512	-84.213	-148.007	-19.797	-17.685	-148.121	-143.401	32.959	-9.097	-143.919	-139.663	-138.962	-134.369	-30.124	-135.231	-8191	255	
20942.334	1	1	0	0	0.28347	0.10694	0.076001	0.16943	0.16975	0.1045	0.19172	0.21358	0.25273	0.11213	0.098605	0.25667	0.20847	0.032726	0.2535	0.28571	-2.8187	-2.4167	-3.3667	-2.975	-2.8396	-3.4688	-2.6583	-3.3458	-2.9979	-2.6458	-3.4	-2.9938	-2.6646	-3.4792	-2.6958	-3.3	14.849	151.804	-54.877	-115.931	146.000	135.572	59.483	-32.808	17.779	-94.368	179.028	190.476	127.384	-143.931	-34.608	119.324	0.00082265	0.00035241	7.9779e-05	1361.5	7.0028e-06	5.7924e-06	1362.5	367.78	7.7684e-06	6.4604e-06	419.45	141.03	122.98	42.106	6.5288e-06	51.985	0.00051458	0.00050227	0.0001342	1382.7	5.3144e-06	5.2505e-06	1382.3	374.32	5.221e-06	5.2038e-06	427.79	144.08	125.4	43.259	5.1081e-06	53.542	-30.263	-108.443	-89.649	-148.128	-3.762	-22.596	-147.995	-143.331	-15.632	9.647	-143.929	-139.608	-138.709	-134.421	-22.995	-135.082	-8191	255	
20942.430	1	1	0	0	0.163	0.31828	0.23678	0.40828	0.19512	0.27384	0.3684	0.25197	0.38669	0.20037	0.18323	0.12694	0.27195	0.18544	0.10356	0.20064	-2.9188	-2.4833	-3.4271	-3.0354	-2.7146	-3.4271	-2.7562	-3.0917	-3.3792	-2.4271	-3.475	-2.8833	-2.7167	-3.4542	-2.6312	-3.1167	44.069	-24.694	-32.793	150.766	74.767	134.041	180.085	153.142	-55.011	-122.417	-131.898	-142.004	169.511	49.466	100.495	-123.043	0.00080846	0.0004645	0.00015146	1355.6	6.7954e-06	4.6004e-06	1358.7	367.9	7.3266e-06	6.7971e-06	417.36	141.55	122.37	42.04	7.1055e-06	51.936	0.00049438	0.00046831	0.00012824	1378.4	5.2302e-06	4.9977e-06	1379.4	374.19	4.9326e-06	5.0046e-06	426.8	143.92	125.03	43.301	5.1322e-06	53.594	-32.402	-83.904	-71.256	-147.715	-0.723	4.715	-147.940	-143.290	-32.048	-4.929	-143.650	-139.384	-139.144	-134.236	-9.697	-135.216	-8191	255	
20942.525	1	1	0	0	0.25866	0.12822	0.16819	0.11368	0.14242	0.11216	0.11231	0.30407	0.21037	0.21793	0.059262	0.15409	0.27368	0.13862	0.084694	0.2102	-2.7542	-2.5646	-3.3354	-3.2292	-2.7042	-3.4917	-2.9521	-3.0458	-3.1646	-2.5062	-3.2646	-3.1271	-2.6437	-3.4938	-2.7458	-2.8292	194.572	150.941	-142.462	132.880	-135.684	174.131	176.366	77.268	119.995	110.691	-152.294	192.367	-148.320	69.089	80.831	-78.955	0.00087037	0.0005695	0.00015921	1354	5.6229e-06	3.8158e-06	1358.5	367.39	7.9183e-06	4.369e-06	417.38	140.9	122.54	42.094	5.1931e-06	51.843	0.00051135	0.00047872	0.00013148	1379.2	5.1913e-06	5.142e-06	1378.8	374.12	5.2095e-06	5.2805e-06	427.38	144.14	125.36	43.235	5.3844e-06	53.524	-30.473	-76.183	-94.261	-148.055	-37.350	7.871	-148.342	-143.347	-10.719	-21.399	-144.068	-139.507	-139.057	-134.512	-52.553	-135.299	-8191	255	
20942.621	1	1	0	0	0.19078	0.12828	0.14769	0.18289	0.050983	0.2864	0.13609	0.23496	0.12764	0.173	0.11927	0.34225	0.28657	0.35205	0.25791	0.2143	-3.0062	-2.4229	-3	-3.3375	-2.5792	-3.3229	-3.0708	-2.9354	-3.3333	-2.6458	-3.2146	-3.3417	-2.6271	-3.4083	-2.9979	-2.8083	190.749	-41.059	-6.718	60.224	76.298	94.243	99.581	92.033	-122.864	39.928	-88.393	157.910	195.383	165.707	97.345	125.787	0.0008007	0.00066459	0.00015862	1361.8	8.189e-06	4.085e-06	1356.4	364.69	5.3432e-06	6.0678e-06	418.15	141.47	123.19	42.081	7.5182e-06	51.865	0.00051026	0.00049188	0.00013228	1379.2	5.272e-06	5.0365e-06	1376.8	373.21	4.9409e-06	4.8931e-06	426.77	144.26	125.55	43.289	5.0703e-06	53.514	-31.488	-90.697	-68.843	-148.012	-45.057	13.341	-148.089	-143.346	-32.959	5.109	-143.966	-139.546	-139.171	-134.514	-8.166	-135.274	-8191	255	
20942.719	1	1	0	0	0.22487	0.1492	0.038711	0.10637	0.2188	0.18836	0.5536	0.25248	0.016632	0.11919	0.19636	0.079303	0.12877	0.25962	0.030362	0.27886	-3.0479	-2.6	-2.9	-3.3854	-2.3979	-3.2875	-3.1917	-2.7083	-3.3854	-2.6063	-2.9708	-3.2875	-2.4083	-3.4354	-2.9188	-2.8521	-135.677	172.710	120.747	104.144	-7.000	-4.354	169.240	159.601	163.309	-40.067	123.250	69.291	84.833	-115.718	-150.509	29.372	0.0008627	0.00053022	0.00010662	1352	5.1694e-06	4.1112e-06	1353.8	365.33	9.716e-06	5.9379e-06	418.65	141.28	122.46	41.928	6.2317e-06	51.977	0.00049833	0.00046668	0.00012679	1376.7	5.1175e-06	4.9959e-06	1374.1	372.96	5.0456e-06	5.0802e-06	427.21	143.97	125.21	43.171	5.1831e-06	53.506	-29.321	-72.679	-60.276	-148.235	-20.723	-30.148	-148.273	-143.372	-24.234	1.087	-144.109	-139.887	-139.327	-134.281	-16.073	-135.347	-8191	255	
20942.814	1	1	0	0	0.24652	0.075482	0.25277	0.15423	0.19755	0.094532	0.12706	0.24673	0.16379	0.077648	0.011936	0.054859	0.11509	0.24617	0.18231	0.01603	-3.0646	-2.7479	-2.85	-3.4021	-2.5042	-3.2062	-3.2917	-2.6896	-3.3625	-2.7458	-2.8375	-3.4958	-2.5333	-3.1167	-3.1021	-2.5667	4.373	-142.827	-128.967	185.147	176.700	-139.752	148.022	121.281	52.109	22.821	37.239	53.301	156.213	50.635	-75.220	103.655	0.00084458	0.00046334	0.00022603	1355.9	7.7298e-06	3.5735e-06	1355.1	365.8	7.9289e-06	5.6582e-06	416.85	141.36	122.61	41.989	5.7529e-06	51.834	0.00049285	0.00047147	0.00013069	1376.8	5.2129e-06	5.2595e-06	1378.7	373.72	5.1329e-06	5.2985e-06	426.93	144.29	125.22	43.211	5.0084e-06	53.539	-30.504	-103.216	-100.899	-148.003	-13.238	-18.231	-148.325	-143.409	-4.049	-23.153	-144.042	-139.588	-139.375	-134.386	-12.110	-135.213	-8191	255	
20942.934	1	1	0	0	0.14877	0.025788	0.072958	0.26855	0.19059	0.21166	0.23401	0.24035	0.17229	0.20209	0.073001	0.17597	0.2186	0.082381	0.16895	0.28375	-3.0167	-2.9083	-2.5938	-3.4333	-2.5292	-2.9771	-3.3979	-2.6937	-3.3937	-2.9146	-2.6813	-3.4542	-2.625	-3.1979	-3.3063	-2.5375	185.738	-44.974	-113.472	-156.597	-125.696	176.078	142.579	188.514	-29.480	114.288	108.757	75.183	153.254	140.960	-32.585	198.271	0.00080905	0.00051799	0.00010553	1353.1	4.1205e-06	3.7663e-06	1351.6	366.14	1.076e-05	7.7034e-06	418.74	140.88	122.41	42.291	9.1684e-06	52.021	0.0005025	0.00046531	0.00012604	1375.6	5.1407e-06	5.142e-06	1375.5	373.6	5.3005e-06	5.332e-06	427.4	144.12	125.23	43.341	5.3645e-06	53.467	-31.765	-78.758	-97.788	-148.086	-27.023	-18.107	-148.187	-143.461	-15.192	-4.050	-144.049	-139.671	-139.163	-134.211	-28.876	-135.375	-8191	255	
20943.029	1	1	0	0	0.2021	0.11131	0.025385	0.27846	0.14744	0.25634	0.11705	0.090982	0.052289	0.060449	0.16923	0.21668	0.27985	0.14175	0.30677	0.39205	-2.9188	-2.9667	-2.4479	-3.6437	-2.7313	-2.7375	-3.4938	-2.4875	-3.2792	-3.2479	-2.6312	-3.5	-2.6583	-2.8396	-3.2729	-2.5021	-101.641	-49.096	-96.036	183.538	12.089	151.453	-154.662	53.789	58.051	-129.476	130.931	102.712	161.165	131.628	19.171	108.638	0.00087392	0.00073461	0.00012331	1357.6	4.1117e-06	3.9523e-06	1358.1	365.42	7.0373e-06	5.2248e-06	419.49	141.22	122.79	42.102	6.9152e-06	52.055	0.00052369	0.00049626	0.00014008	1380	5.614e-06	5.4558e-06	1379.2	373.47	5.3589e-06	5.3414e-06	428.32	144.29	125.36	43.297	5.4335e-06	53.662	-29.943	-85.348	-79.755	-148.110	-23.265	-15.811	-148.101	-143.519	-30.504	-19.825	-143.796	-139.699	-139.130	-134.262	-21.437	-135.388	-8191	255	
20943.127	1	1	0	0	0.20247	0.24573	0.10062	0.13334	0.23784	0.087832	0.18272	0.13154	0.33342	0.2589	0.062534	0.11845	0.22339	0.014764	0.12513	0.059318	-2.6813	-3.1208	-2.4625	-3.375	-2.8083	-2.7521	-3.5625	-2.6542	-3.1063	-3.1646	-2.5958	-3.5104	-2.7917	-2.7292	-3.3896	-2.8542	-122.174	33.968	-74.607	129.496	99.823	-77.126	-160.228	158.260	-25.010	104.325	123.721	-36.683	96.622	-160.234	-105.434	-96.741	0.00086493	0.00048203	0.00019986	1360	4.9007e-06	3.6714e-06	1357.6	367.31	6.4536e-06	4.9691e-06	418.69	141.69	123.07	42.186	6.4456e-06	51.981	0.0005126	0.00049162	0.00013623	1381.5	5.3942e-06	5.3057e-06	1381.2	374.05	5.4113e-06	5.363e-06	428.08	144.44	125.44	43.317	5.2341e-06	53.439	-30.248	-106.401	-56.101	-147.848	-23.229	14.670	-148.211	-143.644	-25.287	-25.396	-143.860	-139.614	-139.164	-134.152	-19.181	-135.399	-8191	255	
20943.223	1	1	0	0	0.045732	0.25782	0.2019	0.25774	0.10144	0.13862	0.32569	0.1156	0.14873	0.064471	0.1456	0.21241	0.11338	0.077085	0.050104	0.041488	-2.7062	-3.1958	-2.4667	-3.4	-3.1771	-2.7542	-3.65	-2.9083	-2.925	-3.2438	-2.7229	-3.3646	-3.1625	-2.75	-3.525	-2.7958	-68.237	23.791	-8.793	137.714	-104.501	-37.961	190.954	112.157	-30.444	-114.836	139.354	-132.355	-115.474	-150.539	62.421	-18.148	0.00087412	0.00055665	0.00013787	1356	4.5541e-06	4.5043e-06	1354.5	367.07	8.1945e-06	5.3465e-06	418.2	141.21	122.59	41.951	5.0732e-06	51.947	0.0005197	0.00047416	0.0001334	1378.3	5.513e-06	5.3701e-06	1377.1	374.23	5.4132e-06	5.3169e-06	427.58	144.62	125.3	43.314	5.1646e-06	53.574	-29.981	-61.645	-83.685	-148.067	-26.970	20.742	-148.256	-143.600	-14.752	-29.097	-143.904	-139.449	-139.166	-134.408	-27.498	-135.186	-8191	255	
20943.318	1	1	0	0	0.084226	0.1614	0.1064	0.31449	0.15446	0.14153	0.19298	0.20904	0.14868	0.12425	0.3289	0.17441	0.11263	0.14494	0.13467	0.18331	-2.5812	-3.2417	-2.5312	-3.3917	-3.0271	-2.6833	-3.3688	-2.9417	-2.8208	-3.4208	-2.5917	-3.3167	-3.1625	-2.4188	-3.4625	-2.8854	182.457	198.254	56.742	129.078	88.192	-113.583	108.479	133.718	56.289	10.822	-108.772	-123.220	145.574	-43.792	91.588	-112.215	0.00083915	0.00042791	0.00013851	1358.5	4.5521e-06	4.0747e-06	1355.2	366.06	6.6247e-06	1.8644e-06	418.22	140.72	122.65	41.953	6.7429e-06	52.03	0.00050295	0.00046019	0.00013288	1379.2	5.1902e-06	5.2115e-06	1376.8	373.42	5.1694e-06	4.8796e-06	426.75	143.96	125.03	43.226	4.8407e-06	53.416	-26.789	-87.771	-69.432	-148.025	-44.376	-28.158	-148.057	-143.192	-20.475	-59.477	-144.040	-139.607	-139.475	-134.277	-12.498	-135.574	-8191	255	
20943.414	1	1	0	0	0.09894	0.11382	0.22488	0.32589	0.13	0.047414	0.24124	0.27798	0.14587	0.11697	0.28507	0.11994	0.23943	0.064601	0.14384	0.15285	-2.2687	-3.2271	-2.4938	-3.2208	-3.1771	-2.4104	-3.475	-2.9917	-2.6771	-3.3667	-2.7917	-3.0438	-3.2812	-2.5729	-3.25	-2.9875	-61.361	-61.995	-130.942	-159.389	57.247	54.076	156.821	128.783	71.928	70.370	52.999	161.955	177.951	-94.109	-155.961	116.430	0.00080175	0.00046598	0.00012694	1348.8	6.0556e-06	5.2311e-06	1350.4	364.92	6.9267e-06	5.9197e-06	417.89	141	122.84	41.836	6.4691e-06	51.592	0.00048198	0.00043025	0.00012137	1371.4	4.6958e-06	4.7479e-06	1371.7	371.96	4.6935e-06	4.5294e-06	425.8	143.83	125.02	43.124	4.4727e-06	53.272	-25.598	-63.850	-88.296	-147.905	-25.403	-11.511	-147.937	-143.398	-19.055	-20.068	-144.107	-139.399	-139.087	-134.208	-2.645	-135.122	-8191	255	
20943.535	1	1	0	0	0.21577	0.16772	0.15649	0.19177	0.20515	0.21354	0.29718	0.18784	0.16659	0.14223	0.14211	0.028597	0.095893	0.16219	0.15278	0.20647	-2.5062	-3.4542	-2.5292	-3.0583	-3.2146	-2.5271	-3.3896	-3.0896	-2.5792	-3.4813	-2.8458	-2.9333	-3.4938	-2.7438	-3.2458	-3.2354	-11.274	-43.153	52.806	182.192	-47.815	-113.505	126.074	44.876	25.018	136.481	174.361	-140.719	-97.996	-128.884	79.776	149.465	0.00078881	0.00029713	0.00011393	1349.2	5.0649e-06	3.7384e-06	1345.4	364.91	9.3379e-06	2.6551e-06	417.97	141.12	122.78	42.034	6.5056e-06	51.749	0.00045533	0.00040935	0.0001134	1368.7	4.4851e-06	4.5367e-06	1368	371.86	4.6617e-06	4.5876e-06	425.7	143.69	125.1	43.196	4.7229e-06	53.326	-29.441	-88.861	-46.603	-147.711	-32.740	-8.624	-148.039	-143.349	-5.145	8.090	-143.738	-139.326	-138.866	-134.000	-17.161	-135.088	-8191	255	
20943.631	1	1	0	0	0.16898	0.062773	0.090816	0.21709	0.13438	0.053478	0.32586	0.20856	0.082746	0.16205	0.043526	0.12031	0.058672	0.05122	0.13107	0.19929	-2.0458	-3.2896	-2.6875	-2.7917	-3.3604	-2.5438	-3.1083	-3.2438	-2.7396	-3.5312	-3.1146	-2.8187	-3.5042	-2.7208	-3.0479	-3.2646	192.846	-149.232	-88.817	-134.375	-121.878	179.769	177.233	128.525	46.224	50.426	130.151	44.125	135.377	141.443	61.624	184.726	0.00085565	0.00046228	0.00011039	1352	8.3439e-06	4.4349e-06	1348.4	364.06	7.3345e-06	3.9231e-06	416.75	141.01	122.79	42	3.0309e-06	51.768	0.00047494	0.00042011	0.00012035	1370.3	4.71e-06	4.7121e-06	1370	371.38	4.6544e-06	4.6072e-06	425.47	143.79	124.89	43.203	4.4081e-06	53.433	-27.143	-86.170	-73.068	-147.712	-36.877	16.918	-148.146	-143.208	-5.988	-11.544	-143.694	-139.321	-138.666	-134.156	-42.572	-135.419	-8191	255	
20943.727	1	1	0	0	0.25346	0.18463	0.116	0.19446	0.14725	0.21365	0.12155	0.356	0.2301	0.22527	0.15179	0.18494	0.14808	0.20295	0.11834	0.19286	-2.25	-3.3396	-2.8792	-3.0208	-3.5104	-2.6437	-3.3417	-3.5833	-2.5104	-3.3896	-3.0062	-2.8229	-3.4021	-2.7792	-2.9375	-3.4688	-7.670	103.475	-33.884	198.152	-78.873	179.064	-142.609	145.495	-12.501	-55.780	-51.639	-111.806	126.419	168.572	-132.251	128.251	0.00079686	0.00048977	0.00010543	1347	8.3118e-06	2.09e-06	1342.7	363.72	5.6474e-06	6.1745e-06	418.15	141.18	122.6	42.122	5.768e-06	51.93	0.00045309	0.00039085	0.00011063	1365	4.4086e-06	4.4087e-06	1364.6	370.88	4.4804e-06	4.441e-06	425.24	143.73	124.72	43.157	4.6318e-06	53.454	-29.410	-80.128	-46.627	-147.689	-52.994	-13.367	-147.696	-143.132	-19.335	-27.881	-143.568	-139.304	-139.026	-134.104	-5.395	-134.993	-8191	255	
20943.799	1	1	0	0	0.21464	0.10579	0.16341	0.21719	0.03678	0.14548	0.059997	0.33364	0.34688	0.10752	0.1395	0.17727	0.21467	0.15087	0.11524	0.17634	-2.2125	-3.2083	-3.075	-2.9188	-3.3729	-2.7687	-2.9458	-3.4313	-2.5104	-3.3354	-3.2521	-2.6708	-3.6354	-2.9083	-2.8167	-3.4083	39.691	-44.692	110.705	99.592	26.479	31.768	97.858	-153.679	-100.970	24.867	-139.526	87.255	133.843	-121.175	-103.435	152.237	0.0007865	0.00049976	0.00015098	1346.2	4.5651e-06	2.58e-06	1343.8	362.45	7.4589e-06	5.9012e-06	418.67	140.53	122.74	42.019	6.2151e-06	51.737	0.00046792	0.00042324	0.00011972	1368.8	4.7734e-06	4.7498e-06	1367.1	371.06	4.6935e-06	4.6906e-06	425.67	143.84	125.12	43.208	4.7511e-06	53.449	-31.260	-118.904	-53.239	-147.744	-71.161	-53.508	-147.996	-143.262	-6.599	17.425	-143.642	-139.417	-138.840	-134.183	-1.224	-135.120	-8191	255	
20943.918	1	1	0	0	0.14694	0.17567	0.098239	0.14311	0.10829	0.10771	0.17797	0.40675	0.11772	0.32908	0.21512	0.24747	0.14188	0.10827	0.0074012	0.081667	-2.2083	-3.2042	-3.2521	-2.8083	-3.3063	-2.8146	-2.8146	-3.4771	-2.6729	-3.0625	-3.2583	-2.6667	-3.3604	-2.8417	-2.4979	-3.5396	-109.412	-25.800	122.785	-133.397	-70.396	-158.028	139.435	165.979	9.341	-45.516	148.698	-158.503	-118.904	163.351	-32.040	91.516	0.00080268	0.00056559	0.0001776	1349.2	5.2167e-06	2.1554e-06	1347.2	365.39	3.728e-06	4.2851e-06	416.99	140.98	122.54	41.887	5.4054e-06	52.067	0.0004691	0.00042819	0.00011721	1369.5	4.6797e-06	4.5227e-06	1370.2	371.86	4.6264e-06	4.4577e-06	425.6	143.58	124.93	43.146	4.657e-06	53.407	-30.896	-63.471	-53.251	-147.528	-9.522	4.598	-147.722	-143.260	-15.649	-18.394	-143.829	-139.626	-138.944	-134.217	-33.969	-135.148	-8191	255	
20944.014	1	1	0	0	0.20987	0.031685	0.17927	0.083743	0.13723	0.1795	0.124	0.11471	0.066771	0.12625	0.1281	0.13867	0.047117	0.055072	0.29175	0.31264	-2.1208	-2.975	-3.1312	-2.7729	-3.3583	-3.0042	-2.8521	-3.5542	-2.6271	-2.9417	-3.5062	-2.6708	-3.4125	-3.1354	-2.6417	-3.625	-112.907	-82.088	-160.473	162.791	-146.387	194.145	187.410	104.948	-129.608	-1.858	-57.962	75.712	80.198	184.155	112.506	135.678	0.00084295	0.00062304	0.00012721	1350.1	7.8409e-06	4.6107e-06	1352.5	364.26	8.4982e-06	4.1568e-06	417.36	141.26	122.69	42.174	7.5948e-06	52.293	0.00045944	0.00041806	0.00011424	1368.5	4.5913e-06	4.6109e-06	1370.6	371.33	4.5554e-06	4.4541e-06	425.71	144.01	125.25	43.401	4.3335e-06	53.636	-28.943	-69.476	-96.058	-147.896	-8.416	2.262	-147.862	-143.209	-32.726	17.455	-143.802	-139.270	-138.813	-134.375	-25.877	-135.023	-8191	255	
20944.109	1	1	0	0	0.2392	0.27625	0.028904	0.26289	0.29738	0.10843	0.31813	0.14889	0.17349	0.16037	0.083166	0.14955	0.36194	0.32291	0.12693	0.096193	-2.3583	-2.7562	-3.2479	-2.6479	-3.1458	-3.2188	-2.8063	-3.5021	-2.9271	-2.7896	-3.5729	-2.7229	-3.2625	-3.4208	-2.5312	-3.5875	120.704	-96.804	-95.233	129.586	-100.274	-33.503	96.566	100.401	-36.899	175.869	-0.590	73.228	-148.966	64.876	119.476	36.353	0.00084118	0.00052587	0.00013115	1349.9	5.4998e-06	3.3021e-06	1350.8	363.76	6.2359e-06	2.6201e-06	421.45	142.44	124.19	42.704	4.607e-06	52.613	0.00043586	0.00038906	0.00010178	1369.1	4.1081e-06	3.9558e-06	1372.1	371.65	4.0416e-06	3.9292e-06	428.94	145.27	126.3	43.801	4.1169e-06	54.072	-30.566	-88.879	-83.876	-147.947	-26.156	-9.847	-148.079	-143.345	-13.667	5.061	-143.740	-139.460	-138.863	-134.141	14.316	-135.153	-8191	255	
20944.205	1	1	0	0	0.23435	0.30679	0.20264	0.50079	0.040718	0.075465	0.15864	0.023305	0.16235	0.056191	0.17647	0.21554	0.068669	0.17724	0.23237	0.11369	-2.4646	-2.5083	-3.2729	-2.9625	-3.0708	-3.0708	-2.7313	-3.4354	-3.0187	-2.65	-3.6479	-2.7479	-2.9333	-3.4958	-2.3542	-3.5167	178.214	-46.693	-98.976	-155.149	-13.951	28.158	122.351	198.911	100.886	-29.245	61.876	-88.217	-131.229	82.478	-154.494	43.476	0.00085993	0.00054836	0.0001199	1351.8	4.5535e-06	6.2907e-06	1356	366.34	9.7367e-06	4.6595e-06	421.88	142.51	123.73	42.56	5.6075e-06	52.602	0.00041899	0.00036611	0.00010032	1372.7	4.02e-06	3.9633e-06	1376	372.68	4.0271e-06	3.9926e-06	430.5	145.24	126.3	43.759	4.0529e-06	54.06	-28.084	-85.001	-66.564	-147.845	-21.233	-15.405	-147.954	-142.969	-10.225	-12.917	-143.648	-139.332	-138.836	-133.937	-3.796	-135.032	-8191	255	
20944.326	1	1	0	0	0.12975	0.12641	0.3479	0.27436	0.050519	0.042305	0.22228	0.12868	0.19624	0.13276	0.082081	0.34003	0.26295	0.3119	0.22265	0.17586	-2.6833	-2.4562	-3.4042	-2.9521	-2.8917	-3.3083	-2.8208	-3.1521	-2.9875	-2.5625	-3.4271	-2.9688	-2.8417	-3.4854	-2.5958	-3.2896	-23.804	104.190	-45.978	108.955	-152.125	-157.064	100.092	176.757	178.430	88.432	-154.246	182.072	-149.382	-132.344	-159.097	150.575	0.00087505	0.00047176	0.00015796	1346.8	6.9167e-06	5.5032e-06	1352.6	364.3	7.8386e-06	2.9737e-06	422.42	142.58	123.93	42.619	6.4559e-06	52.793	0.00042248	0.00037876	0.00010086	1371.6	4.159e-06	4.1059e-06	1373.7	370.45	4.3933e-06	4.3367e-06	430.13	145.26	126.17	43.703	4.1741e-06	54.012	-30.643	-66.012	-80.631	-147.934	-27.589	-5.555	-148.008	-143.251	-11.202	-19.204	-143.783	-139.444	-138.711	-134.107	-15.973	-134.769	-8191	255	
20944.398	1	1	0	0	0.098492	0.21179	0.10534	0.20382	0.059986	0.17225	0.1565	0.098264	0.17382	0.23175	0.12072	0.16277	0.26128	0.23476	0.097891	0.27691	-2.7333	-2.5563	-3.3583	-2.975	-2.7458	-3.4104	-2.7354	-3.2167	-3.2479	-2.4896	-3.5583	-3.1146	-2.9167	-3.4083	-2.5479	-3.3563	182.641	-133.705	-34.854	172.821	-56.592	19.689	104.272	151.863	41.832	-39.543	183.011	134.891	-154.328	164.519	92.111	104.015	0.00085608	0.0004502	0.00016822	1353.2	7.0519e-06	2.0494e-06	1360.2	365.62	6.3933e-06	6.9035e-06	423.86	142.07	123.78	42.356	7.5957e-06	52.417	0.00043755	0.00039951	0.00010751	1373.8	4.4946e-06	4.3807e-06	1375.1	370.96	4.6584e-06	4.6877e-06	430.46	145.07	126.05	43.608	4.8283e-06	53.948	-28.773	-65.008	-88.938	-147.657	-6.691	-28.177	-147.651	-142.678	-0.438	-39.492	-143.377	-139.207	-138.921	-133.897	-9.526	-134.742	-8191	255	
20944.494	1	1	0	0	0.067841	0.21244	0.1891	0.077074	0.075228	0.053252	0.26696	0.13798	0.24549	0.13958	0.45006	0.11212	0.13879	0.11833	0.2433	0.25896	-2.9688	-2.5792	-3.2917	-3.0625	-2.5646	-3.4271	-2.9021	-3.1604	-3.2917	-2.5438	-3.3563	-2.8958	-2.6729	-3.4417	-2.7354	-2.9854	31.845	8.832	163.853	184.652	-154.411	61.533	159.607	-151.600	175.612	53.975	176.940	-147.375	180.055	130.153	114.896	-100.199	0.0008242	0.00048417	0.00021158	1355.1	6.4023e-06	4.6312e-06	1353.4	361.76	6.2769e-06	3.9817e-06	422.21	142.8	123.11	42.172	5.1891e-06	52.222	0.00047638	0.0004448	0.00012036	1376.4	4.9185e-06	4.7969e-06	1375.1	369.8	4.9191e-06	4.9071e-06	430.26	145.01	125.95	43.473	5.0409e-06	53.843	-32.160	-82.929	-88.258	-147.816	-27.681	-22.221	-148.133	-142.905	-21.804	12.712	-143.864	-139.491	-138.845	-134.196	-15.599	-135.168	-8191	255	
20944.615	1	1	0	0	0.044806	0.19182	0.036104	0.23169	0.26772	0.059152	0.35242	0.34544	0.08453	0.25421	0.042969	0.1552	0.07448	0.16571	0.15791	0.076475	-2.9146	-2.5438	-3.2021	-3.2333	-2.4833	-3.4021	-2.8646	-2.9646	-3.3229	-2.5854	-3.4417	-3.5062	-2.6083	-3.475	-2.7354	-2.7938	42.686	-137.864	15.106	117.118	-96.877	150.111	83.943	143.825	-103.392	107.993	61.641	-134.822	58.890	146.553	82.983	-121.520	0.00085204	0.00052135	0.00014274	1350.9	7.4637e-06	3.3873e-06	1347.2	362.35	6.5085e-06	1.9638e-06	420.35	141.74	123.39	42.181	5.1845e-06	52.214	0.0004921	0.0004555	0.0001255	1373.6	4.9731e-06	4.7646e-06	1371.8	369.8	4.8212e-06	4.9538e-06	429.56	144.7	125.89	43.395	4.9879e-06	53.68	-28.675	-89.450	-74.437	-147.852	-27.623	35.749	-148.150	-143.224	-2.957	28.199	-143.819	-139.535	-138.801	-134.046	20.138	-135.273	-8191	255	
20944.713	1	1	0	0	0.039761	0.2824	0.15097	0.13199	0.11304	0.23181	0.07253	0.40431	0.27886	0.09501	0.025255	0.049987	0.044875	0.30476	0.14085	0.19164	-3.0563	-2.7333	-3.1292	-3.3812	-2.45	-3.3729	-3.2062	-2.9396	-3.3792	-2.7708	-3.125	-3.3646	-2.5146	-3.2042	-2.9521	-2.6292	-106.241	-31.961	21.393	164.197	-8.935	195.736	-129.904	129.762	57.172	-10.920	32.248	151.939	-72.286	142.341	-116.990	125.953	0.00084592	0.00039847	0.00011628	1351.6	5.9704e-06	3.5594e-06	1351.9	362.83	7.3414e-06	4.7646e-06	422.44	141.66	123.43	42.252	2.4809e-06	52.349	0.00048433	0.00044882	0.00012557	1371.7	4.9274e-06	4.5771e-06	1372.7	370.04	4.573e-06	4.5575e-06	429.38	144.54	125.69	43.392	4.6976e-06	53.659	-30.319	-92.968	-80.896	-148.103	-34.746	-11.282	-148.202	-143.343	-5.009	1.102	-143.798	-139.409	-138.945	-134.107	-68.600	-135.019	-8191	255	
20944.809	1	1	0	0	0.35686	0.18948	0.12089	0.19509	0.2373	0.073535	0.068047	0.20093	0.14285	0.1802	0.14429	0.24581	0.10991	0.1025	0.21685	0.14158	-3.0292	-2.5771	-2.8438	-3.5042	-2.4854	-3.2708	-3.2438	-2.8688	-3.3667	-2.8458	-3.0708	-3.3563	-2.4667	-3.2375	-3.0687	-2.5375	-126.909	-76.866	43.930	157.137	95.524	27.376	70.752	90.772	77.639	127.843	123.593	192.168	183.596	-148.891	196.332	136.294	0.00082044	0.00052672	0.00020116	1351.7	4.4707e-06	5.7842e-06	1350.8	363.18	7.1949e-06	5.9032e-06	420.76	140.84	123	42.207	4.5603e-06	52.262	0.00047187	0.00042373	0.00012053	1371.8	4.7977e-06	4.5915e-06	1373.6	369.69	4.764e-06	4.6279e-06	429.33	144.36	125.61	43.309	4.8391e-06	53.712	-28.843	-83.998	-61.561	-147.563	-19.106	-35.504	-147.905	-143.226	-18.473	-12.466	-143.665	-139.304	-138.611	-133.826	-22.219	-134.841	-8191	255	
20944.928	1	1	0	0	0.22795	0.19006	0.14872	0.26032	0.069384	0.074347	0.21337	0.28678	0.088922	0.26193	0.50226	0.27113	0.15834	0.20701	0.23136	0.16863	-3.0833	-2.825	-2.9083	-3.7062	-2.5667	-3.05	-3.4313	-2.7062	-3.3521	-2.7167	-2.7375	-3.5021	-2.8	-3.2146	-3.225	-2.5354	184.183	174.895	-10.580	180.819	75.916	137.542	64.218	189.152	-125.898	-106.507	154.361	-155.372	-82.856	-39.883	-120.572	102.047	0.0008133	0.00044129	0.00016214	1352.5	4.6805e-06	3.602e-06	1355.2	363.47	5.6299e-06	4.7896e-06	421.08	141.74	123.33	42.344	4.8452e-06	52.398	0.00046348	0.00043148	0.00011619	1373.2	4.6089e-06	4.4089e-06	1373.1	370.12	4.3535e-06	4.2898e-06	429.16	144.62	125.87	43.426	4.0632e-06	53.834	-25.375	-103.657	-93.519	-147.834	-9.182	15.120	-147.961	-143.028	-9.161	-29.252	-143.339	-139.031	-138.718	-133.766	-10.406	-134.945	-8191	255	
20945.023	1	1	0	0	0.068336	0.12245	0.10204	0.22295	0.16725	0.058435	0.16395	0.14949	0.078866	0.11153	0.16188	0.13188	0.12599	0.29727	0.10359	0.22684	-2.9125	-2.9354	-2.5417	-3.6083	-2.5708	-3.0625	-3.4208	-2.7562	-3.3271	-2.9604	-2.8021	-3.5396	-2.7042	-3.0708	-3.2062	-2.7188	-140.279	23.473	185.924	-119.274	167.972	-141.897	132.294	162.112	20.722	159.112	18.860	-66.827	173.728	154.342	-147.394	71.934	0.00085258	0.00037002	0.00014033	1349	3.8199e-06	3.5714e-06	1350.2	362.89	6.4183e-06	5.5619e-06	422.3	142.07	123.27	42.497	7.7894e-06	52.505	0.00042023	0.00036036	0.00010207	1369.7	4.046e-06	4.0349e-06	1371.3	369.33	4.2108e-06	4.1295e-06	429.96	145.08	125.98	43.578	4.4574e-06	53.894	-28.914	-99.554	-85.830	-147.659	-64.147	3.415	-147.897	-143.174	4.141	-13.742	-143.645	-139.538	-138.988	-134.151	-36.692	-134.945	-8191	255	
20945.094	1	1	0	0	0.058498	0.16913	0.061229	0.11408	0.30615	0.12018	0.07871	0.36607	0.054517	0.24078	0.083394	0.19327	0.27884	0.086546	0.24288	0.26884	-2.8125	-3.1875	-2.4583	-3.3917	-2.6625	-2.9125	-3.6583	-2.5042	-3.3146	-3.1229	-2.5917	-3.5979	-2.8458	-2.9062	-3.4542	-2.5958	198.787	102.483	197.309	-35.747	-105.100	118.767	83.915	129.636	-33.422	-57.261	-157.332	164.215	172.757	150.718	-135.396	178.966	0.0008349	0.00064771	0.00016561	1355.3	8.9509e-06	8.251e-07	1356.4	363.26	6.5863e-06	6.8435e-06	422.93	142.13	123.49	42.258	7.5074e-06	52.38	0.00045454	0.00041731	0.00011798	1375.4	4.6628e-06	4.6504e-06	1376.3	369.77	4.7194e-06	4.6694e-06	430.24	144.66	125.78	43.464	4.3455e-06	53.794	-30.747	-92.664	-67.535	-147.741	-37.684	-6.795	-147.765	-143.099	-14.082	-11.901	-143.433	-139.249	-138.774	-134.167	-32.948	-135.585	-8191	255	
20945.215	1	1	0	0	0.19381	0.1564	0.070287	0.032336	0.11954	0.26796	0.22809	0.23553	0.048683	0.070182	0.19947	0.14125	0.21712	0.16587	0.22841	0.04579	-2.7958	-3.1708	-2.4	-3.475	-2.8979	-2.7854	-3.55	-2.7542	-3.1021	-3.1896	-2.7375	-3.4208	-3.15	-2.8187	-3.3854	-2.7438	-57.679	148.587	98.044	-110.782	89.772	61.216	149.346	176.100	-142.035	-160.335	188.023	136.232	-90.476	-156.505	6.221	156.553	0.00086742	0.00047864	0.0001525	1348.6	5.178e-06	3.9857e-06	1353.8	362.79	7.3467e-06	4.3206e-06	422.46	142.22	123.43	42.465	6.3525e-06	52.209	0.00044612	0.00038842	0.00010721	1369.2	4.3005e-06	4.2831e-06	1373.4	369.02	4.511e-06	4.4478e-06	429.54	144.66	125.81	43.507	4.6629e-06	53.787	-28.537	-71.095	-77.422	-147.705	-55.557	-39.045	-147.952	-143.304	-4.336	-30.192	-143.561	-139.332	-138.926	-134.105	-25.069	-135.101	-8191	255	
20945.311	1	1	0	0	0.16361	0.16657	0.2728	0.093809	0.25326	0.38412	0.11765	0.35992	0.20056	0.19766	0.16424	0.026807	0.2224	0.27791	0.089021	0.14625	-2.6562	-3.1875	-2.3958	-3.5875	-3.0583	-2.8229	-3.5771	-2.9875	-2.8937	-3.4417	-2.6813	-3.5208	-3.2812	-2.7292	-3.5729	-2.9688	129.923	-125.089	-49.461	-80.241	-36.928	172.276	136.290	165.479	-147.787	90.802	104.386	44.466	116.528	185.835	-2.837	79.482	0.00083689	0.00055359	0.00015471	1351.5	7.0928e-06	3.3004e-06	1356.2	361.58	5.2326e-06	6.1609e-06	423.05	142.52	123.71	42.54	6.8763e-06	52.301	0.00046959	0.00043816	0.00012005	1377	4.7573e-06	4.8888e-06	1376.1	369.48	4.8756e-06	4.8127e-06	430.12	144.94	126.03	43.5	4.695e-06	53.776	-28.549	-66.534	-87.865	-147.531	-29.976	7.530	-147.834	-143.113	26.089	-34.314	-143.772	-139.114	-138.602	-134.083	-38.175	-135.004	-8191	255	
20945.406	1	1	0	0	0.11024	0.21513	0.23163	0.25988	0.26324	0.19557	0.11648	0.088011	0.13091	0.187	0.14387	0.32152	0.12441	0.4414	0.10415	0.072134	-2.3583	-3.5438	-2.6229	-3.5292	-3.2167	-2.6667	-3.6708	-3.0354	-2.8396	-3.5417	-2.7208	-3.4042	-3.3042	-2.7458	-3.3667	-2.8479	-10.310	164.050	-79.745	170.978	3.783	100.227	-102.448	-25.533	-123.962	-66.067	161.907	158.982	195.074	190.027	40.973	-149.885	0.00085412	0.00051591	0.00020052	1354.1	4.4333e-06	5.2687e-06	1354.5	363.37	7.1593e-06	3.7372e-06	420.85	142.22	123.43	42.309	2.3941e-06	52.249	0.00047172	0.00042491	0.00012182	1373.4	4.7597e-06	4.6636e-06	1374.6	369.32	4.8094e-06	4.6629e-06	429.92	145.07	126.22	43.522	4.6995e-06	53.772	-30.424	-82.922	-56.442	-147.638	-16.391	-18.452	-148.057	-143.321	0.456	-18.796	-143.618	-139.420	-138.646	-134.016	-30.388	-135.048	-8191	255	
20945.504	1	1	0	0	0.13942	0.12347	0.21728	0.27623	0.3709	0.071214	0.1907	0.34144	0.16603	0.24239	0.34324	0.18721	0.21479	0.33953	0.21493	0.13318	-2.3875	-3.3979	-2.5417	-3.4667	-3.3792	-2.5604	-3.4917	-3.2375	-2.9313	-3.5104	-2.8375	-3.1562	-3.4188	-2.7354	-3.5021	-3.1542	-29.858	-122.841	-30.386	170.414	107.481	23.674	130.133	138.933	96.200	-75.592	123.036	171.861	113.811	185.617	-48.510	-132.472	0.00080781	0.00049382	0.00019441	1357	5.3298e-06	5.6438e-06	1359.3	364.15	7.2258e-06	6.0646e-06	421.38	142.17	123.2	42.286	5.5334e-06	52.388	0.00048292	0.00043189	0.00012135	1378.6	4.9433e-06	4.8841e-06	1378.7	370.36	5.0882e-06	5.0145e-06	429.86	145.1	126	43.443	5.1634e-06	53.691	-31.384	-70.177	-60.830	-147.513	-24.523	-9.950	-147.841	-143.246	-29.211	-5.067	-143.666	-139.039	-138.917	-134.042	-3.967	-134.805	-8191	255	
20945.600	1	1	0	0	0.19817	0.15277	0.078274	0.44066	0.18015	0.062912	0.15141	0.24026	0.12066	0.30338	0.10164	0.1297	0.12275	0.29272	0.098286	0.14662	-2.1813	-3.4188	-2.7604	-3.2625	-3.4313	-2.7042	-3.375	-3.225	-2.7479	-3.4542	-2.9583	-3.1708	-3.6667	-2.7875	-3.2208	-3.2417	-153.639	155.544	182.126	174.155	-130.962	-20.564	39.525	-121.418	187.198	154.031	97.921	181.255	22.780	-132.323	-26.191	188.260	0.00086111	0.00042453	0.00012952	1344.9	6.8772e-06	6.2713e-06	1355.8	361.92	8.9664e-06	6.557e-06	419.29	142.74	123.52	42.331	5.4592e-06	52.222	0.00050715	0.0004562	0.0001276	1370.9	5.0103e-06	4.965e-06	1374.4	368.81	4.8253e-06	4.756e-06	428.87	145.01	126	43.458	4.7909e-06	53.743	-32.231	-60.315	-80.086	-147.399	-25.174	13.549	-147.895	-143.022	-11.175	-21.173	-143.669	-139.423	-139.216	-134.013	-17.385	-135.062	-8191	255	
20945.695	1	1	0	0	0.11862	0.25063	0.29135	0.24087	0.14627	0.25159	0.23814	0.043442	0.20955	0.030626	0.2798	0.11879	0.195	0.15662	0.16778	0.10605	-2.325	-3.3312	-2.8771	-2.9646	-3.5542	-2.6208	-3.4021	-3.3812	-2.4792	-3.45	-3.1521	-2.9708	-3.4979	-2.8208	-3.1333	-3.5312	136.664	155.280	142.035	-144.757	159.773	46.872	123.548	25.575	-2.054	-133.956	144.895	179.896	167.738	116.909	90.705	176.949	0.00076758	0.00065497	0.00011679	1355.2	4.5131e-06	4.1413e-06	1352.1	362.85	5.8156e-06	4.5596e-06	421.1	141.74	122.74	42.058	6.9444e-06	52.124	0.00047949	0.00043043	0.00012012	1374.8	4.6086e-06	4.6916e-06	1375.5	369.67	4.7852e-06	4.6967e-06	429.82	144.66	125.6	43.359	4.8565e-06	53.74	-32.296	-66.598	-37.301	-147.882	12.174	-8.419	-148.047	-143.283	-17.224	37.972	-143.800	-139.367	-138.988	-134.139	-36.234	-134.985	-8191	255	
20945.793	1	1	0	0	0.1313	0.14168	0.059972	0.07776	0.095532	0.083794	0.14423	0.21789	0.13043	0.11884	0.16896	0.11819	0.24913	0.17322	0.089943	0.23666	-2.1979	-3.2521	-3.0042	-2.8438	-3.4896	-2.85	-3.0521	-3.5771	-2.6208	-3.0542	-3.1833	-2.7313	-3.7042	-2.8688	-2.9104	-3.4625	36.258	170.328	47.714	-26.383	60.098	59.925	112.458	67.089	20.111	196.811	-42.267	-110.078	-150.466	108.210	29.743	124.435	0.00089863	0.00032525	0.00012959	1358.1	4.7113e-06	5.0165e-06	1352.9	362.77	8.1028e-06	6.7205e-06	420.03	141.58	123.76	42.347	8.0161e-06	52.251	0.00048652	0.00043864	0.00012221	1378.2	4.7668e-06	4.6181e-06	1377.7	369.66	4.615e-06	4.5292e-06	429.84	144.86	126.04	43.516	4.6244e-06	53.844	-30.072	-87.733	-61.353	-147.821	1.591	-17.451	-147.928	-143.283	-18.439	-15.047	-143.799	-139.513	-139.081	-134.169	-16.328	-135.124	-8191	255	
20945.889	1	1	0	0	0.31291	0.091972	0.078003	0.19745	0.20754	0.041087	0.16672	0.23716	0.17068	0.074301	0.25714	0.20088	0.32457	0.046991	0.056744	0.13002	-2.1208	-3.3333	-3.1896	-2.8333	-3.3292	-2.9896	-2.9437	-3.5979	-2.7	-3.3625	-3.3229	-2.6188	-3.3375	-3.0062	-2.775	-3.4938	137.192	-60.392	106.178	116.482	61.325	185.139	65.824	93.612	-145.120	135.620	31.129	165.637	177.792	62.361	-159.376	-156.436	0.0008307	0.00060547	0.00015848	1355.4	6.7874e-06	4.8998e-06	1358.5	362.69	6.3883e-06	2.798e-06	421.75	141.71	123.92	42.419	6.8434e-06	52.186	0.00047649	0.00041566	0.00011358	1377.8	4.5261e-06	4.4119e-06	1377.4	369.64	4.3617e-06	4.1176e-06	429.67	144.84	126.17	43.586	4.0838e-06	53.856	-30.883	-81.656	-63.603	-147.702	8.750	-10.823	-147.909	-142.918	-7.414	-42.244	-143.815	-139.520	-138.719	-134.227	-22.684	-134.997	-8191	255	
20946.008	1	1	0	0	0.088108	0.11262	0.17753	0.058353	0.25306	0.041244	0.52856	0.12703	0.17666	0.17141	0.15115	0.3111	0.17175	0.070023	0.15609	0.22193	-2.4708	-3.35	-3.3104	-2.7583	-3.6208	-2.7896	-2.9354	-3.5167	-2.6917	-3.1917	-3.3521	-2.7396	-3.575	-3.2271	-2.6063	-3.5042	124.200	-44.104	112.236	-44.215	-136.727	79.448	169.789	-129.376	-115.445	173.421	171.311	144.061	36.822	125.677	-115.503	143.897	0.00086003	0.00062527	0.00015002	1355.9	6.1398e-06	4.0192e-06	1357	362.22	7.2328e-06	6.0126e-06	423.71	143.18	124.41	42.673	7.8453e-06	52.882	0.00042269	0.00037639	0.00010223	1373.7	4.0169e-06	3.8408e-06	1377.1	370.54	4.0091e-06	3.7504e-06	431.59	145.97	126.67	43.876	3.7659e-06	54.235	-31.167	-79.387	-85.480	-147.752	-38.394	-8.473	-148.110	-143.451	-37.326	-20.402	-144.114	-139.816	-139.198	-134.835	-39.007	-135.475	-8191	255	
20946.104	1	1	0	0	0.16173	0.18329	0.1726	0.15522	0.27802	0.14248	0.046834	0.068625	0.1686	0.12806	0.22492	0.13123	0.060436	0.2674	0.21962	0.20266	-2.3479	-2.9521	-3.4688	-2.6417	-3.3271	-3.2146	-2.8792	-3.4583	-2.725	-2.8979	-3.4542	-2.6021	-3.425	-3.5083	-2.4333	-3.5812	102.164	12.070	15.787	114.190	-51.197	-92.146	-73.295	-143.223	186.521	-13.369	166.463	184.098	-9.594	180.625	-73.325	162.701	0.00084119	0.0005054	0.00012665	1354.9	6.6443e-06	4.1726e-06	1357.6	364.4	7.3077e-06	5.9161e-06	425.39	143.41	124.48	42.692	6.7152e-06	52.726	0.00039802	0.00035528	9.5262e-05	1374.4	3.8766e-06	3.9488e-06	1379.5	370.58	4.2248e-06	4.165e-06	433.61	145.88	126.96	43.912	4.3407e-06	54.135	-30.240	-88.053	-70.713	-148.003	-22.628	12.620	-148.100	-143.459	-5.879	-17.393	-144.126	-139.737	-139.201	-134.587	0.425	-135.369	-8191	255	
20946.199	1	1	0	0	0.12703	0.17928	0.11057	0.17217	0.44317	0.22354	0.18757	0.17976	0.071853	0.33219	0.073651	0.17854	0.141	0.11415	0.20256	0.20125	-2.5271	-2.7458	-3.4521	-2.9854	-3.1813	-3.2708	-2.8812	-3.4583	-2.9604	-2.8854	-3.6396	-2.5583	-3.2542	-3.4562	-2.5417	-3.5146	170.933	-133.240	115.473	-146.743	-47.191	97.084	157.972	149.401	-35.344	-36.058	-92.776	162.536	-119.845	-64.941	86.388	152.694	0.00088972	0.00062889	0.0001342	1360.1	7.7311e-06	4.1779e-06	1361.5	364.94	5.7152e-06	5.2012e-06	424.49	143.09	124.62	42.728	9.07e-06	52.578	0.00043884	0.00038505	0.00010629	1379.3	4.3073e-06	4.3097e-06	1382	370.88	4.4876e-06	4.542e-06	433.14	145.89	126.94	43.812	4.5869e-06	54.124	-29.690	-77.275	-53.128	-147.873	-17.987	28.133	-147.999	-143.427	-16.501	-16.471	-144.018	-139.570	-138.858	-134.347	-17.722	-135.245	-8191	255	
20946.295	1	1	0	0	0.27659	0.1907	0.31419	0.15414	0.23565	0.079478	0.22905	0.17931	0.1276	0.36028	0.22664	0.050376	0.24269	0.26723	0.21419	0.047986	-2.5646	-2.6125	-3.4542	-2.7354	-3.0542	-3.4729	-2.6417	-3.4146	-2.9458	-2.6125	-3.6125	-2.7062	-2.9979	-3.2896	-2.3458	-3.375	102.833	139.721	168.511	156.252	-144.285	-3.407	123.101	174.612	170.491	181.133	-126.368	-18.638	175.286	-27.766	9.470	178.072	0.00085885	0.00051775	0.00017485	1357.3	6.3149e-06	5.1801e-06	1361.1	364.03	5.8583e-06	4.8472e-06	423.75	142.25	123.85	42.478	5.699e-06	52.551	0.00046231	0.00041651	0.00011168	1380.4	4.4735e-06	4.3704e-06	1380.6	370.12	4.4749e-06	4.4197e-06	432.49	145.42	126.6	43.628	4.4741e-06	53.945	-29.805	-105.159	-90.095	-147.922	-25.187	-14.201	-148.106	-143.044	-15.526	-17.986	-143.846	-139.431	-138.829	-134.242	-17.619	-135.016	-8191	255	
20946.393	1	1	0	0	0.11246	0.13719	0.11884	0.22836	0.04848	0.092141	0.36747	0.094544	0.22336	0.26529	0.15845	0.0857	0.30293	0.21324	0.22795	0.13495	-2.7729	-2.6104	-3.3312	-3.0333	-2.9792	-3.3875	-2.8646	-3.2583	-3.1354	-2.6708	-3.4271	-2.9958	-2.8104	-3.6208	-2.6521	-3.2625	94.184	30.088	-130.272	188.868	62.093	-64.549	162.901	174.004	121.989	-134.925	162.488	-113.559	187.809	151.020	101.150	144.774	0.0008816	0.00054037	0.00016549	1356.9	4.3979e-06	4.8557e-06	1357.8	362.82	8.6117e-06	5.2603e-06	423.89	141.94	124.53	42.536	6.3183e-06	52.854	0.00045201	0.00041759	0.0001128	1376.2	4.5568e-06	4.3722e-06	1378.3	369.41	4.5467e-06	4.4444e-06	432.71	145.09	126.54	43.642	4.4798e-06	54.008	-27.345	-72.211	-75.170	-147.636	-12.525	-10.333	-147.592	-142.896	-19.346	12.193	-143.409	-139.243	-138.874	-134.483	-24.792	-135.006	-8191	255	
20946.488	1	1	0	0	0.094347	0.016111	0.053593	0.035701	0.18537	0.10911	0.19506	0.14234	0.2465	0.12583	0.15124	0.06274	0.24846	0.17869	0.23778	0.15395	-2.8604	-2.5917	-3.1562	-3.1646	-2.8208	-3.5021	-2.85	-3.225	-3.3292	-2.6917	-3.6292	-3.2542	-2.7583	-3.6354	-2.6813	-3.1271	54.470	-146.070	-56.453	127.474	22.993	77.001	-156.491	170.504	0.422	-137.262	-148.003	190.709	179.233	108.431	8.549	178.986	0.00089922	0.00045066	0.00021117	1353.1	5.7097e-06	5.1714e-06	1357.7	363.24	8.99e-06	5.6759e-06	425.21	142.61	124.55	42.478	5.1736e-06	52.536	0.000444	0.0003953	0.00010884	1376	4.3073e-06	4.2401e-06	1377.1	369.69	4.3447e-06	4.4383e-06	433.25	145.41	126.7	43.717	4.3891e-06	54.001	-29.198	-76.305	-91.425	-147.699	-15.829	-23.261	-147.822	-142.830	-14.384	-23.372	-143.559	-139.253	-138.677	-134.351	-27.370	-135.005	-8191	255	
20946.607	1	1	0	0	0.060955	0.1568	0.076839	0.37437	0.26121	0.088	0.36135	0.02971	0.2441	0.17096	0.05275	0.25325	0.05861	0.027216	0.096352	0.10867	-3.0312	-2.55	-3.3521	-3.1792	-2.7792	-3.3937	-3.0083	-3.0687	-3.4458	-2.5958	-3.3125	-3.1042	-2.775	-3.6562	-2.8979	-2.9708	71.041	-72.521	-106.313	147.368	-81.789	-24.003	128.231	91.059	-144.780	-80.744	109.049	-82.843	-52.009	107.427	-112.751	-108.518	0.00088007	0.00042763	9.776e-05	1351.4	5.2938e-06	3.4532e-06	1356	362.63	7.9397e-06	4.4632e-06	424.04	142.52	123.83	42.518	6.6277e-06	52.636	0.00043336	0.00039239	0.00010775	1373.1	4.2785e-06	4.0812e-06	1375.9	368.95	4.1612e-06	4.1955e-06	431.76	145.35	126.33	43.673	4.1685e-06	54.031	-28.054	-91.659	-66.039	-148.180	-18.149	10.510	-148.357	-143.799	-30.598	-14.535	-144.181	-139.968	-139.263	-134.203	2.215	-135.390	-8191	255	
20946.703	1	1	0	0	0.32448	0.18867	0.16737	0.3397	0.23635	0.12561	0.020597	0.15761	0.23838	0.21104	0.14671	0.25278	0.13026	0.20582	0.19553	0.18177	-3.0646	-2.4458	-3.325	-3.4083	-2.6125	-3.4562	-3.0292	-2.9229	-3.4646	-2.7708	-3.1833	-3.3896	-2.7854	-3.4667	-2.8167	-3.0104	9.352	-120.348	171.239	190.089	87.373	-113.596	31.621	106.614	152.824	46.837	144.685	76.461	-57.542	-153.487	-23.827	-127.670	0.00084557	0.00050849	0.00010427	1356.5	6.0886e-06	4.0213e-06	1356.5	362.89	6.9783e-06	4.776e-06	422.79	142.43	124.06	42.529	3.2621e-06	52.436	0.00043478	0.00038268	0.00010508	1373.9	4.3086e-06	4.1548e-06	1374.5	369.46	4.1757e-06	4.3024e-06	431.82	145.14	126.09	43.639	4.2765e-06	53.942	-29.585	-79.948	-110.964	-147.883	2.290	-26.769	-148.373	-143.485	-3.442	20.597	-143.964	-139.719	-139.144	-134.218	-1.142	-135.243	-8191	255	
20946.799	1	1	0	0	0.1403	0.075059	0.07916	0.257	0.10046	0.1152	0.25492	0.16122	0.20695	0.17936	0.24837	0.086846	0.24181	0.26252	0.036193	0.038555	-3.1125	-2.6729	-3.0312	-3.35	-2.5542	-3.2208	-3.225	-2.6854	-3.6437	-2.6937	-3.1104	-3.4333	-2.7604	-3.3583	-3.0563	-2.6292	-145.374	73.837	0.429	183.866	-107.511	-126.828	60.792	62.525	109.635	104.164	187.265	156.731	122.410	-27.246	103.531	42.740	0.00083234	0.00047294	0.00015632	1357.1	5.6149e-06	5.1503e-06	1354.5	363.58	5.4993e-06	3.3804e-06	423.23	142.96	124.09	42.641	4.2447e-06	52.345	0.00042889	0.00038564	0.00010435	1375.6	4.1419e-06	4.053e-06	1376.6	369.5	4.0805e-06	4.0796e-06	431.79	145.35	126.24	43.684	4.1973e-06	53.925	-28.361	-79.577	-86.379	-148.091	-34.049	-12.156	-148.318	-143.424	-17.272	6.829	-144.194	-139.926	-139.338	-134.298	-39.488	-135.035	-8191	255	
20946.895	1	1	0	0	0.18478	0.1904	0.040112	0.26807	0.14253	0.10099	0.20323	0.11694	0.10677	0.02172	0.1701	0.026187	0.15397	0.25835	0.15784	0.094528	-3.0625	-2.7458	-2.9646	-3.4688	-2.5771	-3.2917	-3.2958	-2.6854	-3.3125	-2.9021	-3.0229	-3.4875	-2.6604	-3.2	-3.0396	-2.6229	140.409	-156.884	148.137	126.553	47.275	17.187	144.597	29.041	2.669	-72.533	189.837	7.807	171.755	-148.209	-67.673	-113.207	0.00082104	0.00040154	7.1264e-05	1354	7.0944e-06	4.1517e-06	1352.8	363.65	7.3141e-06	8.6242e-06	427.12	142.92	123.67	42.498	4.8118e-06	52.466	0.00043044	0.00037379	0.00010244	1372.5	4.15e-06	4.0489e-06	1372.6	369.08	4.056e-06	4.0789e-06	432.56	145.26	126.21	43.62	4.0896e-06	54.01	-31.982	-85.900	-86.719	-147.865	-33.448	-0.307	-148.338	-143.292	-8.042	13.748	-144.146	-139.697	-139.292	-134.459	-26.529	-135.364	-8191	255	
20946.990	1	1	0	0	0.35872	0.20088	0.055944	0.28705	0.1442	0.092799	0.15762	0.087536	0.16341	0.21282	0.15509	0.13015	0.19687	0.36728	0.15836	0.060859	-3.0438	-2.8229	-2.7042	-3.675	-2.4771	-3.1125	-3.4396	-2.6396	-3.4313	-2.9208	-2.7875	-3.4708	-2.6146	-3.2146	-3.3812	-2.5187	31.849	-42.837	44.258	132.295	-81.925	-111.439	105.726	-66.418	-121.246	27.189	80.325	17.838	127.185	-152.982	35.823	-147.057	0.0008183	0.00038283	0.00014131	1353	9.1112e-06	4.3552e-06	1357	362.14	8.0153e-06	4.9644e-06	423.88	142.62	123.2	42.343	3.7987e-06	52.388	0.00043063	0.00037745	0.00010469	1373	4.1999e-06	4.1233e-06	1374.7	368.53	4.1875e-06	4.1275e-06	431.86	145.39	125.99	43.536	4.1695e-06	53.862	-28.266	-95.392	-84.533	-147.898	-59.100	-24.762	-148.211	-143.361	-18.951	-3.540	-143.922	-139.522	-139.072	-134.109	-8.919	-135.397	-8191	255	
#DATA ENDS
