BOXY.EXE: ISS Imagent and Oximeter Data Acquisition Program Version 0.80
Ascii Record File

#ACQ INFORMATION
2  Detector Channels 
16  External MUX Channels 
1  Auxiliary Channels 
5000  Waveform (CCF) Frequency (Hz)
1  Waveforms Skipped 
30  Waveforms Averaged 
1  Cycles Averaged 
16  Acquisitions per Waveform 
10.0806  Updata Rate (Hz) 

#FILE INFORMATION
TRUE -- External MUX Channel results are PARSED.
FALSE -- AC DC and Phase are NOT grouped.
TRUE -- Companion Program Settings File CREATED.
FALSE -- AC data not excluded
FALSE -- DC data not excluded
FALSE -- Phase data not excluded
FALSE -- Auxillary Chn. data not excluded
Tab delimiters

#CALIBRATION STATE
TRUE -- Waveform Calibration Values APPLIED.


#AUX CALIBRATION VALUES
Val Type	aux-1	

Term	1.0000e+00	
Factor	0.0000e+00	


#WF CALIBRATION VALUES
A = Detector Channel
Val Type	A-AC1	A-AC2	A-AC3	A-AC4	A-AC5	A-AC6	A-AC7	A-AC8	A-AC9	A-AC10	A-AC11	A-AC12	A-AC13	A-AC14	A-AC15	A-AC16	A-DC1	A-DC2	A-DC3	A-DC4	A-DC5	A-DC6	A-DC7	A-DC8	A-DC9	A-DC10	A-DC11	A-DC12	A-DC13	A-DC14	A-DC15	A-DC16	A-Ph1	A-Ph2	A-Ph3	A-Ph4	A-Ph5	A-Ph6	A-Ph7	A-Ph8	A-Ph9	A-Ph10	A-Ph11	A-Ph12	A-Ph13	A-Ph14	A-Ph15	A-Ph16	

Term	0.00000e+00	0.00000e+00	0.00000e+00	0.00000e+00	0.00000e+00	0.00000e+00	0.00000e+00	0.00000e+00	0.00000e+00	0.00000e+00	0.00000e+00	0.00000e+00	0.00000e+00	0.00000e+00	0.00000e+00	0.00000e+00	0.00000e+00	0.00000e+00	0.00000e+00	0.00000e+00	0.00000e+00	0.00000e+00	0.00000e+00	0.00000e+00	0.00000e+00	0.00000e+00	0.00000e+00	0.00000e+00	0.00000e+00	0.00000e+00	0.00000e+00	0.00000e+00	0.00000e+00	0.00000e+00	0.00000e+00	0.00000e+00	0.00000e+00	0.00000e+00	0.00000e+00	0.00000e+00	0.00000e+00	0.00000e+00	0.00000e+00	0.00000e+00	0.00000e+00	0.00000e+00	0.00000e+00	0.00000e+00	
Factor	1.00000e+00	1.00000e+00	1.00000e+00	1.00000e+00	1.00000e+00	1.00000e+00	1.00000e+00	1.00000e+00	1.00000e+00	1.00000e+00	1.00000e+00	1.00000e+00	1.00000e+00	1.00000e+00	1.00000e+00	1.00000e+00	1.00000e+00	1.00000e+00	1.00000e+00	1.00000e+00	1.00000e+00	1.00000e+00	1.00000e+00	1.00000e+00	1.00000e+00	1.00000e+00	1.00000e+00	1.00000e+00	1.00000e+00	1.00000e+00	1.00000e+00	1.00000e+00	X	X	X	X	X	X	X	X	X	X	X	X	X	X	X	X	

B = Detector Channel
Val Type	B-AC1	B-AC2	B-AC3	B-AC4	B-AC5	B-AC6	B-AC7	B-AC8	B-AC9	B-AC10	B-AC11	B-AC12	B-AC13	B-AC14	B-AC15	B-AC16	B-DC1	B-DC2	B-DC3	B-DC4	B-DC5	B-DC6	B-DC7	B-DC8	B-DC9	B-DC10	B-DC11	B-DC12	B-DC13	B-DC14	B-DC15	B-DC16	B-Ph1	B-Ph2	B-Ph3	B-Ph4	B-Ph5	B-Ph6	B-Ph7	B-Ph8	B-Ph9	B-Ph10	B-Ph11	B-Ph12	B-Ph13	B-Ph14	B-Ph15	B-Ph16	

Term	0.00000e+00	0.00000e+00	0.00000e+00	0.00000e+00	0.00000e+00	0.00000e+00	0.00000e+00	0.00000e+00	0.00000e+00	0.00000e+00	0.00000e+00	0.00000e+00	0.00000e+00	0.00000e+00	0.00000e+00	0.00000e+00	0.00000e+00	0.00000e+00	0.00000e+00	0.00000e+00	0.00000e+00	0.00000e+00	0.00000e+00	0.00000e+00	0.00000e+00	0.00000e+00	0.00000e+00	0.00000e+00	0.00000e+00	0.00000e+00	0.00000e+00	0.00000e+00	-1.07200e+00	-1.36101e+02	-1.26972e+02	-1.81145e+02	-5.74851e+01	-6.50972e+01	-1.58196e+02	-1.62015e+02	-4.24239e+01	-6.52151e+01	-1.70310e+02	-1.70117e+02	-1.81676e+02	-1.76501e+02	-5.94616e+01	-1.49355e+02	
Factor	3.59234e-05	1.59826e-04	4.90676e-05	1.61587e-01	1.97099e-06	1.44992e-06	1.72205e-01	5.96698e-02	2.11306e-06	1.83272e-06	9.39561e-02	3.22471e-02	2.84731e-02	9.54445e-03	1.94426e-06	1.34256e-02	6.52020e-06	7.84418e-06	2.17318e-06	8.29810e-02	8.31184e-08	8.62690e-08	8.30464e-02	3.06820e-02	8.29478e-08	8.64596e-08	4.68418e-02	1.60686e-02	1.47170e-02	4.95140e-03	8.44639e-08	6.74576e-03	X	X	X	X	X	X	X	X	X	X	X	X	X	X	X	X	



#DISTANCE SETTINGS
A = Detector Channel
A-1	A-2	A-3	A-4	A-5	A-6	A-7	A-8	A-9	A-10	A-11	A-12	A-13	A-14	A-15	A-16	

2.5000e+00	3.0000e+00	2.5000e+00	3.0000e+00	2.0000e+00	3.0000e+00	1.5000e+00	3.0000e+00	3.0000e+00	3.0000e+00	3.0000e+00	3.0000e+00	3.0000e+00	3.0000e+00	1.5000e+00	3.0000e+00	

B = Detector Channel
B-1	B-2	B-3	B-4	B-5	B-6	B-7	B-8	B-9	B-10	B-11	B-12	B-13	B-14	B-15	B-16	

1.0000e+01	1.0000e+01	1.0000e+01	1.4400e+00	1.0000e+01	1.0000e+01	1.5100e+00	1.9400e+00	1.0000e+01	1.0000e+01	1.9900e+00	2.4900e+00	2.4100e+00	2.9000e+00	1.0000e+01	2.9800e+00	




#DATA BEGINS
time	group	step	mark	flag	A-AC1	A-AC2	A-AC3	A-AC4	A-AC5	A-AC6	A-AC7	A-AC8	A-AC9	A-AC10	A-AC11	A-AC12	A-AC13	A-AC14	A-AC15	A-AC16	A-DC1	A-DC2	A-DC3	A-DC4	A-DC5	A-DC6	A-DC7	A-DC8	A-DC9	A-DC10	A-DC11	A-DC12	A-DC13	A-DC14	A-DC15	A-DC16	A-Ph1	A-Ph2	A-Ph3	A-Ph4	A-Ph5	A-Ph6	A-Ph7	A-Ph8	A-Ph9	A-Ph10	A-Ph11	A-Ph12	A-Ph13	A-Ph14	A-Ph15	A-Ph16	B-AC1	B-AC2	B-AC3	B-AC4	B-AC5	B-AC6	B-AC7	B-AC8	B-AC9	B-AC10	B-AC11	B-AC12	B-AC13	B-AC14	B-AC15	B-AC16	B-DC1	B-DC2	B-DC3	B-DC4	B-DC5	B-DC6	B-DC7	B-DC8	B-DC9	B-DC10	B-DC11	B-DC12	B-DC13	B-DC14	B-DC15	B-DC16	B-Ph1	B-Ph2	B-Ph3	B-Ph4	B-Ph5	B-Ph6	B-Ph7	B-Ph8	B-Ph9	B-Ph10	B-Ph11	B-Ph12	B-Ph13	B-Ph14	B-Ph15	B-Ph16	aux-1	digaux	

21023.604	1	1	0	256	0.073988	0.10536	0.20079	0.34252	0.10688	0.14431	0.28538	0.20267	0.2671	0.16122	0.10227	0.37102	0.16303	0.090567	0.28378	0.18264	-2.3333	-2.6667	-3.5479	-2.8583	-2.8438	-3.2354	-2.6771	-3.2292	-2.9375	-2.6021	-3.4958	-2.6688	-2.9833	-3.2771	-2.575	-3.2396	-49.196	-135.758	127.604	177.633	-100.307	-9.984	115.438	-85.558	-3.470	192.433	172.069	118.007	195.392	115.705	-35.165	81.366	0.00038786	0.00015053	8.5185e-05	1207.3	5.5402e-06	3.1159e-06	1312.8	247.51	4.8062e-06	6.4564e-06	318.59	87.235	69.424	20.248	5.0737e-06	27.746	0.0010269	0.001177	0.00032801	1202.9	1.2652e-05	1.3102e-05	1306.8	249.04	1.2655e-05	1.3106e-05	321.09	89.841	71.348	20.979	1.2698e-05	29.038	-12.907	-22.095	-34.623	-145.897	184.741	-9.346	-146.031	-138.525	-70.887	-18.568	-138.847	-132.303	-131.637	-124.280	-29.127	-124.860	-8191	255	
21023.699	1	1	0	0	0.086182	0.11664	0.17106	0.37187	0.30852	0.15374	0.094554	0.15415	0.1388	0.087163	0.23966	0.25148	0.070526	0.12672	0.062607	0.14289	-2.4729	-2.5729	-3.3292	-2.9042	-2.7021	-3.2687	-2.7958	-3.1104	-2.8125	-2.575	-3.3458	-2.8521	-2.7562	-3.3521	-2.6021	-3.1458	153.512	88.260	25.249	96.959	203.166	-113.143	117.844	-81.596	68.930	2.004	10.266	131.202	136.725	-122.610	-4.322	-140.554	0.00035106	0.00018095	2.639e-05	1214.1	3.5475e-06	4.3287e-06	1314.7	247.03	2.7141e-06	3.7764e-06	316	87.702	69.758	20.235	2.6557e-06	27.863	0.0010443	0.0011577	0.00032576	1207.6	1.2528e-05	1.2644e-05	1307	248.98	1.2385e-05	1.2944e-05	320.81	90.078	71.465	21.066	1.247e-05	29.205	-21.142	-25.591	68.065	-145.940	-24.303	29.427	-146.102	-138.580	-5.049	-9.346	-139.324	-132.289	-131.882	-124.333	19.447	-125.308	-8191	255	
21023.797	1	1	0	0	0.081541	0.1363	0.019888	0.39402	0.19677	0.39343	0.27123	0.1863	0.15745	0.16588	0.21504	0.36126	0.1401	0.14958	0.24343	0.16142	-2.6375	-2.5687	-3.3	-2.8312	-2.5792	-3.3583	-2.5875	-3.1583	-3.2354	-2.5625	-3.4	-3.025	-2.6688	-3.4583	-2.4583	-3.05	40.982	-76.774	95.943	144.043	35.990	-4.583	171.753	-126.419	-10.729	23.072	184.902	188.515	154.313	81.168	158.371	90.949	0.00039248	0.0004048	5.6906e-05	1218.4	4.28e-06	2.4294e-06	1326.2	247.36	9.3061e-06	7.6956e-06	318.16	88.267	69.41	20.458	4.2822e-06	27.967	0.0010465	0.001208	0.00033678	1214.1	1.3176e-05	1.3779e-05	1317.1	250.23	1.3417e-05	1.3832e-05	322.83	90.324	71.62	21.245	1.3625e-05	29.263	-30.759	-96.399	4.674	-146.204	35.490	-5.684	-146.085	-138.862	-42.928	17.550	-139.062	-132.516	-132.169	-124.458	14.912	-124.782	-8191	255	
21023.893	1	1	0	0	0.13768	0.12716	0.21935	0.10627	0.12251	0.19378	0.23514	0.093178	0.099815	0.13263	0.24665	0.3552	0.22023	0.15063	0.087995	0.065826	-2.9333	-2.4042	-3.2229	-3.0708	-2.6354	-3.2458	-2.7292	-2.9792	-3.4458	-2.3208	-3.2292	-3.1625	-2.4625	-3.3896	-2.7313	-3.0208	-55.493	73.266	-53.616	107.443	76.556	91.546	83.752	169.877	-145.176	82.518	113.516	163.468	-150.362	-107.921	-30.935	-152.060	0.0004123	0.00020513	0.000175	1222.8	2.8762e-06	3.6255e-06	1323.5	247.66	6.5243e-06	6.2482e-06	318.77	87.833	69.728	20.247	8.4497e-06	28.084	0.0010771	0.0012278	0.00033419	1217.5	1.2686e-05	1.2739e-05	1316.9	249.97	1.2038e-05	1.2552e-05	322.12	90.199	71.471	21.086	1.1862e-05	29.203	-22.505	105.238	-28.053	-146.052	-30.280	-3.562	-146.053	-138.757	23.042	51.285	-138.908	-132.121	-131.907	-124.575	30.305	-125.402	-8191	255	
21023.988	1	1	0	0	0.14531	0.27321	0.1022	0.16932	0.12316	0.19449	0.27237	0.19545	0.10246	0.31689	0.088735	0.33224	0.11745	0.1824	0.10776	0.24768	-2.9167	-2.5792	-3.1771	-3.2833	-2.6312	-3.3354	-3.0792	-2.9333	-3.45	-2.5875	-3.1583	-3.125	-2.5792	-3.2521	-2.9042	-2.6562	97.425	17.806	61.112	147.176	-53.327	126.425	168.772	146.367	113.178	92.322	198.800	-4.770	-47.244	-134.599	103.453	-49.964	0.00044675	0.00031133	4.1495e-05	1215.8	3.7538e-06	2.4733e-06	1317.2	247.92	5.9952e-06	3.4422e-06	317.15	88.421	69.917	20.383	1.6364e-06	28.094	0.00096848	0.0010926	0.00030291	1212.5	1.1662e-05	1.1967e-05	1313.3	249.68	1.1704e-05	1.2246e-05	321.95	90.236	71.514	21.136	1.1999e-05	29.231	-20.988	-96.850	-154.040	-145.905	-30.290	-116.187	-146.090	-138.591	-0.610	39.620	-138.827	-131.987	-132.238	-124.444	-46.376	-125.195	-8191	255	
21024.107	1	1	0	0	0.14811	0.25187	0.14927	0.084755	0.14187	0.17747	0.18265	0.20074	0.06099	0.23429	0.16354	0.15672	0.32572	0.14264	0.18537	0.20355	-3.1125	-2.4417	-3.075	-3.4229	-2.5667	-3.3917	-3.1	-2.5563	-3.1792	-2.6208	-3.1271	-3.3646	-2.4813	-3.2667	-2.9792	-2.6417	-52.995	-99.880	-141.761	56.653	169.902	69.949	104.389	160.994	141.004	-76.433	-25.288	196.857	192.463	-94.090	151.695	-88.865	0.00049386	0.00081322	2.6184e-05	1225.8	7.5513e-06	4.7111e-06	1325.3	249.8	3.0668e-06	4.9668e-06	319.36	88.416	69.668	20.257	3.5545e-06	27.986	0.00098264	0.0011225	0.0003149	1214.9	1.2387e-05	1.2601e-05	1315.4	250.47	1.2588e-05	1.3158e-05	322.96	90.562	71.63	21.132	1.2742e-05	29.259	-15.057	-106.120	-31.133	-145.949	-59.957	9.016	-146.272	-138.817	-0.800	31.355	-138.943	-132.588	-131.929	-124.543	-46.884	-125.436	-8191	255	
21024.203	1	1	0	0	0.19474	0.029074	0.079676	0.2038	0.21376	0.2751	0.24937	0.24953	0.11306	0.21203	0.15555	0.28899	0.20134	0.030544	0.29584	0.14835	-3.0104	-2.6937	-3.0438	-3.5354	-2.4875	-3.2271	-3.2833	-2.6229	-3.5396	-2.8021	-2.8979	-3.4271	-2.4688	-3.2375	-3.0938	-2.5229	49.777	23.244	194.856	137.839	153.775	129.929	117.569	-77.361	166.420	9.061	190.297	178.539	-126.260	92.727	123.090	56.928	0.00044241	0.00050288	0.00016037	1220.8	4.096e-06	5.3654e-06	1322.1	248.39	6.8557e-06	1.259e-06	318.25	88.665	70.272	20.345	4.0353e-06	28.017	0.0010233	0.0011559	0.00031773	1215.2	1.2263e-05	1.2578e-05	1316	250.33	1.2192e-05	1.2517e-05	322.33	90.656	71.731	21.136	1.2325e-05	29.233	-20.842	-100.052	-73.533	-145.990	-102.710	-45.766	-146.074	-138.582	-29.729	33.538	-138.516	-132.085	-131.724	-124.511	-1.221	-125.215	-8191	255	
21024.299	1	1	0	0	0.10285	0.11626	0.045374	0.18229	0.13624	0.055018	0.22182	0.12256	0.12161	0.12588	0.088432	0.085867	0.12344	0.15021	0.16369	0.052028	-2.9667	-2.7958	-2.6979	-3.5979	-2.4458	-3.125	-3.5125	-2.6479	-3.25	-2.8833	-2.7729	-3.525	-2.6396	-3.2687	-3.4813	-2.5917	41.358	54.230	102.854	-139.430	-17.651	-61.457	77.139	-138.339	75.230	-121.242	190.332	-152.645	143.790	102.600	-87.251	-128.709	0.00028176	0.00031063	0.00013407	1224.6	2.6452e-06	2.9843e-06	1320.5	247.48	4.7805e-06	6.0196e-06	319.61	88.781	69.796	20.26	5.2025e-06	28.029	0.001019	0.0011481	0.00031891	1218.4	1.2456e-05	1.2464e-05	1315.9	249.91	1.2076e-05	1.2454e-05	322.79	90.654	71.56	21.172	1.2032e-05	29.173	-29.975	-102.549	-1.190	-145.547	192.329	-34.655	-145.894	-138.551	-3.218	7.159	-138.566	-132.183	-131.643	-123.888	43.101	-124.915	-8191	255	
21024.418	1	1	0	0	0.12847	0.091713	0.21359	0.26672	0.11188	0.16235	0.18156	0.23185	0.1059	0.036079	0.11595	0.067221	0.11977	0.19871	0.20264	0.35122	-2.9333	-2.9	-2.6771	-3.6479	-2.6146	-2.9979	-3.4021	-2.6688	-3.1417	-2.9625	-2.7854	-3.4958	-2.775	-3.0104	-3.3604	-2.7438	-65.101	-75.340	-116.479	194.585	-128.410	39.652	132.849	131.137	66.446	51.024	139.823	131.916	-143.482	93.565	199.331	73.392	0.00039168	0.00015019	0.00012873	1223	5.7171e-06	3.794e-06	1321.4	249.05	4.773e-06	5.0512e-06	318.37	88.646	69.622	20.469	3.4312e-06	27.941	0.00097291	0.0010965	0.00030711	1217	1.1886e-05	1.1918e-05	1317.1	250.13	1.1725e-05	1.1974e-05	322.29	90.579	71.468	21.131	1.175e-05	29.164	-29.756	-33.956	35.137	-145.556	-41.949	7.682	-145.601	-138.477	-152.018	-20.639	-138.543	-132.163	-131.244	-123.910	-6.840	-125.135	-8191	255	
21024.490	1	1	0	0	0.18617	0.10931	0.18442	0.20135	0.13461	0.070361	0.28381	0.062766	0.17785	0.10979	0.066175	0.060603	0.074497	0.10507	0.089289	0.039909	-2.9208	-3.0417	-2.6312	-3.7792	-2.7313	-2.8563	-3.4604	-2.5167	-3.3771	-3.1375	-2.5792	-3.5542	-2.6667	-2.7708	-3.4	-2.6063	154.736	203.194	203.340	182.971	58.574	-99.097	112.134	4.973	-46.802	-44.265	-113.136	103.165	173.663	-144.878	-20.485	134.719	0.00040153	0.00012087	0.00012367	1224.8	7.3226e-06	4.5771e-06	1325	248.53	4.991e-06	5.2678e-06	319.19	88.721	69.963	20.428	3.0297e-06	27.975	0.00096096	0.0010884	0.00030624	1215.7	1.1996e-05	1.2185e-05	1317.5	249.88	1.1799e-05	1.2147e-05	321.81	90.599	71.535	21.139	1.1574e-05	29.185	-40.768	11.514	-60.748	-145.451	-62.149	-17.428	-145.569	-138.276	51.447	-28.701	-138.607	-131.452	-131.025	-123.694	24.508	-124.152	-8191	255	
21024.586	1	1	0	0	0.25741	0.11945	0.29178	0.06276	0.12551	0.20523	0.22893	0.19794	0.13064	0.089477	0.24354	0.11889	0.2899	0.1811	0.35862	0.15979	-2.8333	-3.2646	-2.5812	-3.4979	-2.9167	-2.7771	-3.5479	-2.7458	-3.1771	-3.2125	-2.5917	-3.4188	-2.8438	-2.7292	-3.5312	-2.7083	31.188	-69.959	56.290	75.850	125.363	-118.609	141.994	-15.102	2.252	-118.470	130.461	157.933	99.904	200.034	110.206	110.443	0.00044183	0.0004102	0.00010559	1223.4	6.2361e-06	8.5171e-07	1322.8	246.07	6.4739e-06	3.6529e-07	319.64	88.946	69.979	20.349	4.6921e-06	27.923	0.00095131	0.0010836	0.00030442	1216.2	1.1528e-05	1.1724e-05	1316.7	249.47	1.1694e-05	1.1945e-05	322.53	90.609	71.521	21.191	1.2022e-05	29.17	-34.712	-137.423	-57.787	-145.193	17.370	158.591	-144.720	-137.248	11.498	134.450	-138.235	-131.542	-131.108	-123.150	-6.648	-124.325	-8191	255	
21024.682	1	1	0	0	0.14166	0.13347	0.16998	0.13029	0.082943	0.10982	0.16965	0.024188	0.14018	0.13153	0.18662	0.33111	0.21899	0.17827	0.18374	0.08566	-2.6271	-3.3292	-2.7146	-3.3021	-3.1333	-2.7438	-3.5708	-2.6979	-2.8104	-3.3833	-2.6333	-3.2125	-3.1	-2.7271	-3.4521	-2.8563	23.142	-43.736	-89.159	154.759	-89.619	160.442	194.903	153.040	164.637	196.437	125.052	184.991	-113.511	164.887	30.929	182.294	0.00038268	0.00067837	0.00017424	1229.6	2.1425e-06	3.972e-06	1325.6	248.13	6.8622e-06	7.2888e-06	319.09	87.952	69.515	20.37	8.0655e-06	28.001	0.0010119	0.0011138	0.00031712	1218.1	1.2329e-05	1.2742e-05	1317.8	250.42	1.2363e-05	1.2536e-05	322.36	90.587	71.645	21.134	1.2136e-05	29.26	-21.898	-67.711	-151.523	-145.340	-11.399	-4.413	-145.303	-138.249	-23.714	102.777	-138.406	-131.740	-131.660	-123.917	-1.996	-124.962	-8191	255	
21024.803	1	1	0	0	0.16225	0.13073	0.36737	0.13924	0.11546	0.21857	0.30807	0.28492	0.11082	0.039498	0.16273	0.10496	0.075655	0.090359	0.15727	0.056947	-2.5271	-3.2979	-2.4854	-3.3708	-3.0458	-2.6396	-3.5604	-2.7938	-2.7896	-3.5146	-2.6125	-3.0625	-3.1208	-2.6896	-3.2062	-2.9625	-123.047	20.336	-99.931	-132.937	148.837	107.993	118.476	73.606	-152.584	201.015	112.636	-141.426	-15.753	-63.126	-110.397	7.044	0.00034478	0.00061111	7.6707e-05	1222.1	3.5674e-06	2.8509e-06	1328.9	248.98	7.0242e-06	5.3516e-06	318.93	88.856	69.974	20.289	8.335e-07	28.008	0.00098659	0.0010943	0.00030174	1216.4	1.1644e-05	1.1922e-05	1315.7	250.55	1.1583e-05	1.171e-05	321.74	90.627	71.639	21.11	1.1759e-05	29.117	-31.553	-88.526	149.513	-145.600	-116.668	-37.504	-145.747	-138.256	-56.791	-85.108	-138.553	-132.023	-131.546	-124.295	183.902	-124.816	-8191	255	
21024.898	1	1	0	0	0.36791	0.043956	0.24543	0.09411	0.014586	0.19333	0.18284	0.16008	0.066778	0.33366	0.21822	0.32002	0.21992	0.19682	0.12695	0.092124	-2.3812	-3.3083	-2.5771	-3.3208	-3.0479	-2.575	-3.3854	-3.0104	-2.7104	-3.5854	-2.8208	-2.8458	-3.325	-2.5146	-3.4	-3.1042	184.892	-115.173	56.475	158.611	50.575	104.506	191.847	109.976	107.387	-148.021	-145.905	1.089	171.928	-149.134	158.538	-92.947	0.00048207	0.00029086	0.00015892	1223	7.9267e-06	3.6335e-06	1323.9	247.62	5.1098e-06	6.3182e-06	318.11	88.021	70.041	20.338	7.3387e-06	27.939	0.00096233	0.0010819	0.00030522	1214.4	1.1809e-05	1.204e-05	1315.5	249.09	1.1647e-05	1.1879e-05	321.55	90.271	71.46	21.066	1.1774e-05	29.098	-36.537	4.757	-79.360	-145.704	-82.976	4.816	-145.920	-138.774	23.641	48.469	-138.952	-132.021	-131.620	-124.197	-40.717	-125.249	-8191	255	
21024.994	1	1	0	0	0.041339	0.034991	0.25781	0.22704	0.12283	0.19714	0.12755	0.34903	0.18097	0.027415	0.061991	0.19918	0.17225	0.064929	0.17934	0.20954	-2.3167	-3.4583	-2.7125	-3.0521	-3.3833	-2.6896	-3.4313	-3.1583	-2.5333	-3.3604	-2.8667	-2.8937	-3.2604	-2.6771	-3.3542	-3.1479	97.296	-92.616	-35.537	161.231	-146.600	18.227	-138.963	-116.678	85.049	-135.891	-6.234	162.887	180.026	-107.902	156.247	133.092	0.00038679	0.00028207	0.00014124	1222.7	4.5379e-06	4.9646e-06	1326.8	248.32	7.9355e-06	2.9808e-07	318.53	88.766	69.741	20.352	5.0153e-06	27.888	0.00096502	0.0010878	0.00030218	1213.9	1.1686e-05	1.1744e-05	1315.9	249.56	1.1461e-05	1.1824e-05	321.79	90.443	71.538	21.044	1.0847e-05	29.092	-27.859	-91.605	-74.480	-145.765	-23.660	35.581	-145.745	-138.255	-37.191	4.886	-138.541	-132.032	-131.285	-124.152	50.143	-125.569	-8191	255	
21025.066	1	1	0	0	0.049845	0.057812	0.1183	0.1661	0.22235	0.23499	0.23877	0.21177	0.084723	0.0706	0.07208	0.21608	0.088913	0.20499	0.16196	0.085162	-2.2438	-3.2917	-2.7604	-3.1125	-3.3438	-2.5979	-3.3	-3.3104	-2.5958	-3.5271	-2.9167	-2.7	-3.4229	-2.8667	-3.0708	-3.5104	58.332	42.131	-62.058	134.669	-146.852	36.496	154.698	165.123	-121.781	-19.087	-100.812	40.124	-71.562	202.924	137.124	89.675	0.00034389	0.00037514	7.1427e-05	1218.6	5.5956e-06	4.227e-06	1317.6	246.75	6.916e-06	4.7996e-06	315.6	88.718	69.91	20.09	4.3538e-06	27.847	0.00087284	0.00096699	0.00026592	1207.3	9.9598e-06	9.8521e-06	1306	247.85	9.4225e-06	9.2366e-06	317.66	89.504	70.927	20.804	9.4753e-06	28.794	-38.142	-107.865	-76.458	-146.028	-6.329	37.039	-145.948	-138.624	16.712	-123.054	-138.785	-131.947	-131.358	-124.030	-20.225	-125.040	-8191	255	
21025.188	1	1	0	0	0.1524	0.134	0.079877	0.30716	0.090124	0.12244	0.25241	0.05791	0.133	0.11741	0.2289	0.17535	0.11889	0.1102	0.086987	0.10492	-2.2687	-3.3229	-2.9271	-2.8	-3.2812	-2.7208	-3.3021	-3.2208	-2.5917	-3.4583	-3.0563	-2.7104	-3.4708	-2.6437	-2.95	-3.2958	117.672	36.715	-69.357	172.606	29.921	-41.161	170.642	-35.615	165.135	157.423	-25.416	127.869	-144.070	143.422	73.106	-93.268	0.00033885	0.00036353	0.00020785	1212.2	3.2661e-06	4.3184e-06	1311.2	246.44	4.5623e-06	6.9386e-06	317.57	88.081	69.61	20.217	6.6635e-06	27.78	0.00081285	0.00092038	0.00025433	1202.4	1.0229e-05	1.0462e-05	1303	247.93	1.0509e-05	1.0981e-05	319.43	89.691	70.849	20.925	1.0637e-05	28.875	-25.196	-41.284	-89.829	-145.614	-63.628	-31.562	-145.801	-138.146	26.165	8.701	-138.531	-131.785	-131.484	-124.325	-63.619	-124.839	-8191	255	
21025.283	1	1	0	0	0.11517	0.12984	0.22806	0.020298	0.26908	0.06773	0.25381	0.089432	0.21019	0.29582	0.18195	0.16613	0.089521	0.12717	0.088087	0.21236	-2.1271	-3.2125	-3.0354	-2.6396	-3.45	-2.7521	-2.9813	-3.4208	-2.4458	-3.1646	-3.1979	-2.6542	-3.1979	-2.8417	-2.7208	-3.4042	-2.431	-113.607	-85.732	31.394	203.369	-18.332	90.748	136.816	105.586	179.869	174.403	153.332	142.827	201.379	97.355	200.218	0.00043011	0.00022089	0.00022572	1212.3	2.3298e-06	4.5706e-06	1313.9	246.27	4.9373e-06	2.0335e-06	317.69	87.661	69.425	20.153	5.9534e-06	27.836	0.00085584	0.00095089	0.00026336	1204.3	9.9654e-06	1.0088e-05	1304.1	247.52	9.9212e-06	1.0122e-05	319.85	89.303	70.96	20.892	1.0129e-05	28.979	-35.595	69.730	-81.362	-145.927	-90.647	28.027	-145.738	-137.981	34.632	-2.977	-138.579	-131.791	-131.416	-124.133	-12.603	-124.741	-8191	255	
21025.381	1	1	0	0	0.10985	0.11864	0.10137	0.065023	0.032664	0.0127	0.29916	0.32693	0.12273	0.13979	0.32636	0.30488	0.27362	0.10538	0.26409	0.086255	-2.1229	-2.9104	-3.1646	-2.6729	-3.3312	-3.1208	-2.9125	-3.4125	-2.7854	-3.0896	-3.3604	-2.4896	-3.1979	-2.8792	-2.6083	-3.3625	7.590	-28.889	-70.514	168.520	24.282	99.402	97.189	157.768	186.679	-57.599	150.552	176.969	183.578	104.277	-2.857	-128.655	0.00049775	0.00068423	2.3586e-05	1209.9	1.4691e-06	4.0549e-06	1310.3	246.43	4.9644e-06	7.1685e-06	316.54	88.042	69.4	20.028	9.7196e-06	27.916	0.00085455	0.00095709	0.00026251	1201.6	1.0376e-05	1.0564e-05	1302.4	247.6	1.0467e-05	1.0719e-05	318.58	89.564	70.669	20.768	9.7364e-06	28.915	-26.972	-83.430	-42.676	-145.273	-126.229	-5.384	-145.206	-138.145	-17.293	33.366	-138.270	-131.749	-130.937	-123.888	28.033	-124.818	-8191	255	
21025.498	1	1	0	0	0.051009	0.15603	0.33347	0.30127	0.11338	0.14185	0.13407	0.10237	0.15553	0.26065	0.19098	0.3218	0.22567	0.3028	0.15382	0.16901	-2.2417	-2.8542	-3.3187	-2.6583	-3.3354	-3.0354	-2.7625	-3.5625	-2.5854	-2.7604	-3.4479	-2.5958	-3.2708	-3.0896	-2.5146	-3.4625	153.816	91.921	123.176	171.288	-111.754	54.578	177.591	153.755	-133.836	84.113	73.754	123.571	114.214	-74.222	171.498	131.832	0.00040673	0.00039184	6.9574e-05	1209.7	1.4964e-06	2.8567e-06	1313.1	245.4	2.9832e-06	5.1792e-07	315.05	87.835	69.423	20.213	2.5706e-06	27.711	0.00079666	0.0008778	0.00024575	1198.6	9.6173e-06	9.9948e-06	1301.1	247	1.0362e-05	1.0736e-05	318.44	89.589	70.957	20.909	1.1233e-05	28.947	-16.524	-78.562	104.529	-145.582	-11.465	-0.534	-145.491	-138.412	-61.553	-73.962	-138.629	-132.008	-131.595	-123.668	-7.108	-124.799	-8191	255	
21025.596	1	1	0	0	0.11359	0.12162	0.12335	0.29465	0.14787	0.059843	0.15484	0.12216	0.15928	0.14819	0.43922	0.19199	0.32589	0.1371	0.29384	0.11229	-2.3833	-2.5875	-3.4458	-2.7583	-3.0938	-3.1667	-2.7396	-3.4813	-2.7812	-2.8083	-3.625	-2.4833	-3.0438	-3.3292	-2.5604	-3.3479	-77.274	95.475	81.451	161.818	92.259	173.518	86.389	-59.020	9.630	126.849	171.690	51.993	-16.390	84.305	184.448	-91.553	0.0003945	0.00063504	4.3625e-05	1208.7	6.8133e-06	5.5597e-07	1313.2	247.6	5.4433e-06	2.4259e-06	316.07	87.702	69.18	20.2	5.3122e-06	27.684	0.00093235	0.0010438	0.0002899	1201.5	1.1249e-05	1.146e-05	1305.3	248.25	1.1061e-05	1.138e-05	319.4	89.636	70.867	20.915	1.1117e-05	28.911	-21.501	-50.038	-5.170	-145.836	-54.854	33.750	-145.414	-138.275	0.203	26.768	-138.399	-132.395	-131.490	-124.433	-34.085	-124.878	-8191	255	
21025.691	1	1	0	0	0.3831	0.035876	0.21354	0.082379	0.11721	0.17123	0.42445	0.29918	0.082807	0.066062	0.14727	0.044919	0.20764	0.3588	0.14795	0.21556	-2.4958	-2.7958	-3.2562	-2.9583	-2.9979	-3.2	-2.675	-3.5146	-2.9708	-2.7958	-3.4625	-2.7062	-3.0208	-3.4167	-2.5833	-3.3771	119.048	197.245	-46.469	160.099	11.660	168.868	178.956	-31.359	143.217	-25.583	142.032	120.199	200.764	58.992	115.757	22.364	0.00040941	0.00063802	9.2003e-05	1210	5.1333e-06	2.0397e-06	1312.1	247.2	2.4963e-06	6.2409e-06	315.25	87.662	69.329	20.204	5.4302e-06	27.938	0.00089361	0.0010098	0.00027974	1202.2	1.0984e-05	1.1048e-05	1302.3	247.74	1.0766e-05	1.0995e-05	318.59	89.48	70.776	20.892	1.0588e-05	28.865	-29.162	-62.114	-1.904	-145.567	-39.592	83.764	-145.765	-138.424	1.360	34.946	-138.814	-131.652	-131.665	-123.977	32.106	-125.109	-8191	255	
21025.787	1	1	0	0	0.24517	0.17312	0.14986	0.31928	0.10719	0.1988	0.098767	0.16178	0.087326	0.27579	0.25341	0.1842	0.35647	0.1578	0.54435	0.30686	-2.6937	-2.5083	-3.3854	-2.9688	-2.85	-3.5792	-2.7188	-3.3333	-3.0583	-2.4958	-3.5812	-2.7917	-2.7333	-3.4875	-2.65	-3.2729	-132.834	168.557	-61.979	171.112	40.106	-4.838	130.245	105.701	-127.634	115.870	191.377	157.039	120.616	156.361	-30.080	-147.160	0.00044373	0.00025325	0.00015924	1211.2	9.4829e-06	3.064e-06	1309.8	247.17	6.4636e-06	4.0021e-06	315.84	87.795	69.238	20.175	4.7188e-06	27.788	0.00087288	0.00098155	0.00026426	1201.2	1.0402e-05	1.0479e-05	1300	247.75	1.0051e-05	1.0332e-05	318.37	89.348	70.74	20.851	1.0196e-05	28.813	-32.387	-119.192	-81.778	-145.457	10.529	-23.983	-145.556	-138.297	-55.875	-31.043	-138.154	-131.916	-131.191	-123.643	50.925	-124.983	-8191	255	
21025.883	1	1	0	0	0.17904	0.32989	0.19339	0.33199	0.086146	0.062172	0.38192	0.30957	0.12614	0.15054	0.11175	0.28876	0.29349	0.05534	0.10567	0.39708	-2.7188	-2.5646	-3.4646	-3.0396	-2.8125	-3.3917	-2.7354	-3.1896	-3.2687	-2.5229	-3.6583	-2.9583	-2.5875	-3.4979	-2.7708	-3.0792	-153.052	23.333	-147.254	172.446	-113.158	-144.327	126.561	92.806	-139.217	137.996	-73.057	-23.567	-120.557	-105.570	-155.340	101.336	0.00044375	0.00036785	3.6028e-05	1207.6	6.0705e-06	9.4967e-07	1305.7	245.69	1.4499e-06	5.016e-06	317.26	87.636	69.367	20.132	1.7519e-06	28.01	0.00084495	0.00094686	0.00026463	1198.6	1.0243e-05	1.0513e-05	1298.6	247.59	1.0167e-05	1.0417e-05	319.27	89.287	70.768	20.842	1.0302e-05	28.893	-18.998	-45.696	-36.864	-145.686	21.268	108.444	-145.381	-137.504	-2.680	55.886	-138.041	-131.436	-131.158	-123.408	198.751	-123.819	-8191	255	
21025.979	1	1	0	0	0.062872	0.14497	0.12745	0.24634	0.0049871	0.2311	0.48396	0.14031	0.070656	0.046242	0.040798	0.19741	0.2477	0.040557	0.02092	0.20368	-3.0021	-2.6875	-3.3292	-3.1604	-2.6188	-3.3667	-2.9396	-3.0792	-3.3125	-2.6042	-3.2354	-2.9271	-2.5229	-3.5521	-2.8042	-2.7021	-27.452	168.881	7.456	198.391	-11.319	-21.663	175.095	-155.317	-58.515	85.782	86.390	118.239	28.882	31.212	95.533	-143.909	0.00037731	0.0002119	0.00022847	1207.1	7.8036e-06	2.0886e-06	1312.3	246.67	5.5731e-06	9.0267e-06	315.16	87.78	69.212	20.119	3.923e-06	27.832	0.00084771	0.00094826	0.00026356	1197.9	1.033e-05	1.0425e-05	1298.9	247.36	1.0099e-05	1.0343e-05	317.87	89.389	70.554	20.808	1.0237e-05	28.797	-37.234	-99.163	-94.825	-145.218	40.604	-51.937	-144.912	-137.659	-95.374	5.070	-138.064	-131.830	-131.718	-123.629	-76.824	-124.504	-8191	255	
21026.076	1	1	0	0	0.15147	0.18945	0.059123	0.23415	0.14671	0.20782	0.20404	0.12188	0.1113	0.25848	0.062384	0.24023	0.37081	0.039072	0.17308	0.14509	-3.2125	-2.4979	-3.3	-3.2625	-2.6771	-3.4708	-3.0542	-2.8812	-3.3438	-2.5417	-3.3625	-3.3083	-2.5917	-3.4646	-2.8646	-2.7667	-26.336	70.643	170.506	-139.885	-26.502	-150.816	144.801	192.684	110.379	-91.033	18.337	151.122	179.731	141.324	85.887	-123.934	0.00041913	0.00061972	0.00015523	1205.6	3.9319e-06	2.0236e-06	1313.5	246.68	5.2162e-06	4.8216e-06	316.1	87.507	69.459	20.012	6.8533e-06	27.798	0.00083657	0.00093568	0.00026157	1198.1	1.0391e-05	1.0138e-05	1298.8	247.34	1.0061e-05	1.0143e-05	318.03	89.256	70.791	20.755	1.0037e-05	28.844	-24.611	-74.142	-101.391	-145.655	2.812	70.556	-145.645	-138.342	23.319	-0.693	-138.394	-131.745	-131.329	-124.132	-7.447	-124.494	-8191	255	
21026.195	1	1	0	0	0.074379	0.30288	0.14305	0.16577	0.11919	0.056686	0.043761	0.23095	0.12669	0.09651	0.15504	0.1192	0.12643	0.097154	0.31995	0.06369	-3.0021	-2.5771	-3.0312	-3.2938	-2.55	-3.4833	-3.1271	-2.8167	-3.5354	-2.7479	-3.2646	-3.3167	-2.7271	-3.3937	-3.1271	-2.7604	92.694	50.485	-147.263	149.196	-62.032	50.720	-114.063	26.069	67.621	119.026	-101.726	63.358	-19.316	123.300	64.821	117.119	0.00041451	0.00053822	8.2825e-05	1203.6	4.0799e-06	4.907e-06	1303.9	247.1	8.7661e-07	5.8114e-06	316.06	87.869	69.84	20.225	5.2869e-07	27.81	0.0008296	0.00093759	0.00025857	1196.5	1.0331e-05	1.0156e-05	1297.5	247.26	1.0016e-05	1.0115e-05	317.97	89.395	70.854	20.866	1.0076e-05	28.797	-30.474	78.699	-34.433	-145.619	-11.836	-5.928	-145.851	-138.173	0.083	3.565	-138.044	-131.746	-131.009	-123.755	90.014	-124.767	-8191	255	
21026.291	1	1	0	0	0.13131	0.23438	0.12704	0.30976	0.11277	0.15768	0.05033	0.21051	0.15054	0.10985	0.066517	0.048133	0.41219	0.064033	0.30324	0.23913	-3.1146	-2.7625	-2.8375	-3.4792	-2.5792	-3.2271	-3.1875	-2.6229	-3.3167	-2.7896	-3.2271	-3.4375	-2.7042	-3.2292	-3.2833	-2.7188	74.601	137.061	0.128	197.635	138.113	-37.068	-98.389	185.639	49.508	-15.020	82.921	182.745	137.865	135.265	-31.544	181.660	0.00043918	0.00036607	0.00014523	1207.3	4.2219e-06	2.6481e-06	1304.6	245.85	7.3265e-06	1.6988e-06	317.17	87.617	68.939	20.152	4.6204e-06	27.655	0.00082114	0.00092025	0.00025571	1195.7	9.77e-06	9.9434e-06	1294.6	247.06	9.6226e-06	9.8562e-06	318.37	89.078	70.42	20.727	9.631e-06	28.69	-16.096	-70.895	-70.255	-145.388	-75.683	3.196	-145.478	-137.643	11.789	-5.828	-138.404	-131.530	-131.507	-123.782	-86.576	-124.568	-8191	255	
21026.363	1	1	0	0	0.058946	0.18939	0.14898	0.36243	0.15934	0.13756	0.35701	0.18211	0.183	0.20722	0.15967	0.09827	0.13697	0.18534	0.078906	0.067868	-3.0417	-2.7333	-2.975	-3.4708	-2.4167	-3.0687	-3.3958	-2.7667	-3.3688	-2.8167	-2.7687	-3.5833	-2.6792	-3.0208	-3.3979	-2.5375	112.938	-140.181	-93.812	185.460	103.075	-62.096	145.592	138.480	-95.861	112.796	36.508	160.497	86.978	-131.535	25.140	11.103	0.00042103	0.00018772	8.7611e-05	1204.7	6.5077e-06	5.4947e-06	1306.1	245.37	1.2322e-05	2.6777e-07	314.85	87.551	69.259	20.111	5.0655e-06	27.586	0.00080166	0.00090672	0.00024889	1193.2	9.889e-06	1.0061e-05	1294.8	246.34	9.8418e-06	1.0135e-05	318.25	89.137	70.528	20.8	1.0152e-05	28.759	-29.921	-143.394	-73.578	-145.227	-8.437	56.637	-146.104	-138.721	-35.975	-58.886	-139.099	-132.301	-131.536	-124.078	8.860	-124.872	-8191	255	
21026.461	1	1	0	0	0.13925	0.16601	0.25507	0.22215	0.26394	0.13795	0.32967	0.19207	0.19379	0.1657	0.12482	0.14535	0.45293	0.072674	0.15075	0.16499	-2.9729	-2.8271	-2.625	-3.6125	-2.6833	-2.9437	-3.3396	-2.5625	-3.4229	-2.8688	-2.8563	-3.4021	-2.7896	-2.9667	-3.3604	-2.6542	130.769	117.423	-137.699	160.729	-75.671	-93.187	165.289	181.475	104.089	152.358	-86.456	113.752	141.301	-129.095	132.751	-56.438	0.00038432	0.00045257	0.00016179	1206.1	8.8773e-06	1.7577e-06	1307	245.81	1.4034e-06	3.7489e-06	316.29	87.748	69.115	20.061	7.4075e-06	27.801	0.0008395	0.00093838	0.00026569	1195.9	1.0187e-05	1.0404e-05	1295.3	246.87	1.0006e-05	1.0225e-05	318.31	89.286	70.578	20.787	9.9805e-06	28.763	-25.308	-91.252	-57.677	-145.889	-37.270	-33.064	-146.107	-138.768	28.814	56.940	-138.964	-132.385	-132.078	-124.392	-14.504	-125.498	-8191	255	
21026.578	1	1	0	0	0.099785	0.072383	0.23459	0.137	0.2314	0.2152	0.19469	0.21269	0.184	0.26737	0.28675	0.17742	0.20142	0.29554	0.21336	0.084713	-2.8875	-3.1937	-2.5771	-3.575	-2.7188	-2.75	-3.525	-2.7583	-3.2375	-3.125	-2.8271	-3.275	-2.8417	-2.8625	-3.5667	-2.5333	-132.713	158.555	53.778	163.801	150.860	-141.070	123.840	-120.530	16.460	11.944	151.536	-14.675	-118.639	-154.666	171.294	-153.849	0.00040614	4.1983e-05	0.00011717	1204.8	6.3654e-06	2.8791e-06	1305.4	246.13	8.6384e-06	1.2506e-07	314.48	86.855	69.47	20.092	1.9485e-06	27.519	0.00083301	0.00092471	0.00025692	1196.1	1.0175e-05	1.0246e-05	1294.6	246.96	1.0125e-05	1.0185e-05	317.9	88.862	70.631	20.757	9.922e-06	28.759	-27.361	-123.238	-85.976	-145.973	-83.678	45.034	-145.869	-138.571	41.620	93.527	-138.945	-131.950	-131.689	-124.052	-99.783	-124.468	-8191	255	
21026.676	1	1	0	0	0.18252	0.07559	0.079623	0.25773	0.13726	0.037082	0.22064	0.1267	0.35653	0.17102	0.12716	0.018357	0.073565	0.17351	0.15909	0.22134	-2.875	-3.2146	-2.5917	-3.3917	-2.7292	-2.6792	-3.5312	-2.6708	-3.0521	-3.3542	-2.4875	-3.3979	-2.9104	-2.4604	-3.2354	-2.5479	96.891	167.947	-116.003	106.062	52.959	-2.001	-109.841	-102.392	-154.893	23.798	155.344	-79.514	127.116	63.176	72.377	91.789	0.000434	0.00025036	7.3226e-05	1205.9	5.3742e-06	3.4151e-06	1309.9	245.82	8.6066e-07	6.6242e-06	314.99	87.46	68.935	20.123	4.3274e-06	27.735	0.00082671	0.00092269	0.00025914	1196.7	9.8722e-06	1.0234e-05	1294.9	246.51	9.9441e-06	1.0327e-05	317.8	89.138	70.521	20.76	1.0357e-05	28.791	-30.344	-134.421	-115.952	-145.702	-31.789	40.053	-145.774	-138.688	-61.875	28.349	-138.868	-131.874	-131.842	-124.079	39.851	-124.781	-8191	255	
21026.771	1	1	0	0	0.095876	0.14221	0.16012	0.31597	0.22509	0.19963	0.29145	0.15542	0.080845	0.074078	0.072162	0.30152	0.22226	0.23546	0.12327	0.1309	-2.5687	-3.0875	-2.5146	-3.5938	-3.0521	-2.6271	-3.4917	-2.7583	-2.975	-3.6521	-2.5583	-3.3771	-3.2021	-2.7521	-3.4375	-3.0146	166.405	5.231	-100.079	-150.452	-41.659	-60.175	83.908	158.991	132.683	-0.620	156.207	115.025	115.926	120.102	20.950	-100.863	0.00043202	0.00029508	0.00029966	1206.3	3.9841e-06	2.9797e-06	1309.7	246.13	6.5371e-06	4.6319e-06	315.23	87.951	68.778	20.074	5.42e-06	27.683	0.00085735	0.00096186	0.0002678	1196.3	1.0302e-05	1.0553e-05	1296.9	246.92	1.0104e-05	1.0263e-05	318.25	89.498	70.433	20.815	1.0106e-05	28.732	-24.524	-115.637	-69.958	-145.830	-18.532	-1.992	-145.866	-138.506	56.611	31.431	-138.668	-131.992	-131.794	-124.120	14.880	-124.870	-8191	255	
21026.867	1	1	0	0	0.13215	0.12788	0.11682	0.20536	0.083932	0.025734	0.059509	0.14962	0.05432	0.1205	0.070991	0.13988	0.21668	0.0695	0.082397	0.28321	-2.2146	-3.4167	-2.4417	-3.4521	-3.2042	-2.4083	-3.6167	-2.8563	-3.0229	-3.4583	-2.6729	-3.275	-3.2583	-2.7771	-3.3	-2.7917	181.773	-115.209	-104.099	143.313	-128.376	96.184	125.206	103.576	-151.916	-47.373	-83.673	121.918	-142.371	-142.654	-99.004	166.671	0.00037785	0.00030662	0.00020409	1203.4	4.3676e-06	3.1501e-06	1306.4	244.84	8.3904e-06	4.1953e-06	314.2	87.543	68.955	20.098	3.2343e-06	27.64	0.00084054	0.00092836	0.00025735	1195.7	1.0078e-05	1.0161e-05	1296.3	246.43	1.0226e-05	1.0325e-05	317.78	89.325	70.472	20.852	1.0617e-05	28.802	-36.834	-36.180	-52.887	-145.809	-86.683	-39.124	-145.913	-138.861	24.354	8.073	-139.325	-132.396	-131.898	-124.630	136.521	-125.434	-8191	255	
21026.965	1	1	0	0	0.23843	0.095926	0.061449	0.11919	0.13193	0.025747	0.26362	0.58204	0.14246	0.094139	0.28558	0.22369	0.20356	0.15535	0.39281	0.2045	-2.4292	-3.4167	-2.6437	-3.0979	-3.0396	-2.3917	-3.4875	-2.9562	-2.6917	-3.4771	-2.8063	-2.9958	-3.3625	-2.6646	-3.2562	-3.2792	39.362	132.968	-29.216	-19.806	-74.532	5.664	89.912	176.385	-13.972	-11.657	177.327	136.430	24.223	88.904	-145.165	-139.485	0.00039584	0.00018737	9.3556e-05	1203.8	3.8857e-06	2.8926e-06	1302	245.31	8.9153e-06	5.4184e-06	316.71	88.125	68.83	20.161	5.9539e-06	27.968	0.00087118	0.00099224	0.00027805	1195.9	1.0322e-05	1.083e-05	1296.1	246.66	1.0496e-05	1.0676e-05	318.54	89.537	70.5	20.85	1.0694e-05	28.847	-28.318	-94.491	-47.767	-145.801	-31.704	11.803	-145.777	-138.907	-88.339	-33.484	-138.906	-132.141	-131.843	-124.539	-15.848	-125.556	-8191	255	
21027.061	1	1	0	0	0.23607	0.16132	0.18984	0.076831	0.32576	0.12996	0.071822	0.16684	0.1969	0.15863	0.21122	0.075723	0.24145	0.16193	0.10226	0.24865	-2.2646	-3.3646	-2.6771	-3.075	-3.25	-2.6542	-3.4021	-3.225	-2.6729	-3.4417	-3.0083	-2.9583	-3.4021	-2.6771	-3.3312	-3.1729	123.269	-128.254	149.331	177.540	14.279	173.369	93.816	171.272	-117.763	199.943	83.448	192.205	175.401	-11.818	-130.880	94.195	0.00035949	9.5384e-05	9.3571e-05	1207.2	2.8911e-06	3.8735e-06	1303.8	245.61	5.9588e-06	6.8713e-06	314.32	87.555	69.281	20.219	7.32e-06	27.797	0.00088102	0.00098941	0.00027822	1198.5	1.0713e-05	1.0988e-05	1296.9	247.22	1.0776e-05	1.0984e-05	317.59	89.425	70.588	20.879	1.0852e-05	28.886	-37.944	141.328	-91.202	-146.006	20.287	84.216	-146.119	-138.506	66.425	-4.442	-139.001	-132.003	-132.081	-124.694	-18.231	-124.997	-8191	255	
21027.180	1	1	0	0	0.20818	0.25998	0.32584	0.14166	0.097151	0.26818	0.22782	0.072242	0.049903	0.1115	0.115	0.15192	0.045752	0.13524	0.20914	0.097885	-2.175	-3.3937	-2.8417	-3.1479	-3.4833	-2.7208	-3.4104	-3.3354	-2.5812	-3.3958	-2.9917	-2.6375	-3.55	-2.7021	-3.0896	-3.3333	59.163	94.399	79.485	185.363	-109.236	193.462	154.429	158.756	-99.718	183.647	122.255	37.872	67.141	-100.377	164.414	-0.479	0.00050945	0.00023173	0.00010224	1203.7	3.752e-06	1.409e-06	1303.9	245.61	2.2183e-06	5.0845e-06	314.43	88.082	68.932	20.126	6.1492e-06	27.628	0.00089256	0.00099925	0.00027623	1197.4	1.0782e-05	1.0919e-05	1298.4	247.41	1.0828e-05	1.136e-05	318.46	89.712	70.617	20.851	1.092e-05	28.823	-20.678	-32.490	-81.496	-146.196	-44.030	-24.576	-146.013	-138.769	78.874	-12.275	-138.840	-132.182	-131.755	-124.575	-5.531	-125.394	-8191	255	
21027.277	1	1	0	0	0.26634	0.23581	0.11666	0.1693	0.10547	0.27041	0.22811	0.32771	0.10793	0.038846	0.20224	0.22364	0.22455	0.084729	0.15491	0.057181	-2.2708	-3.1562	-2.6354	-2.8625	-3.525	-2.7771	-3.0542	-3.3604	-2.5229	-3.3792	-3.0187	-2.7542	-3.4896	-2.6417	-2.8438	-3.4833	102.723	123.283	151.971	187.813	-47.707	-78.167	124.154	141.730	135.790	-49.574	-73.165	-58.493	185.561	-20.011	-62.723	78.935	0.00040537	9.8935e-05	9.3849e-05	1202.3	7.0787e-06	2.2337e-06	1303.9	245.05	4.17e-06	4.8271e-06	314.24	87.908	69.047	20.105	5.1405e-06	27.769	0.00089916	0.00099708	0.00027578	1198.3	1.0812e-05	1.0976e-05	1297.2	246.56	1.0624e-05	1.0824e-05	318.4	89.34	70.677	20.86	1.0732e-05	28.896	-32.784	109.202	30.794	-146.193	7.941	179.737	-146.117	-139.138	-23.697	-17.294	-138.976	-132.519	-131.967	-124.450	27.462	-125.324	-8191	255	
21027.373	1	1	0	0	0.090431	0.26939	0.21449	0.27849	0.037288	0.088495	0.091057	0.15413	0.092947	0.13729	0.12372	0.20456	0.082923	0.15882	0.038222	0.39033	-2.2146	-3.1521	-3.2104	-2.6854	-3.4125	-2.8542	-3	-3.4292	-2.45	-3.1125	-3.1937	-2.6229	-3.4521	-2.9542	-2.8604	-3.4208	200.239	-139.418	18.585	-74.295	-52.063	-140.051	-78.073	-111.454	-90.278	135.822	126.937	-145.688	93.292	75.178	-91.094	173.972	0.00048362	0.00041922	3.4408e-05	1205.6	4.5219e-06	2.8432e-06	1306.1	246	1.9215e-06	7.6459e-06	317.31	88.194	69.6	20.272	4.9e-06	27.707	0.00088305	0.0010007	0.00027466	1198.4	1.0776e-05	1.0955e-05	1298.8	247.48	1.0645e-05	1.1056e-05	318.75	89.66	70.743	20.887	1.078e-05	28.842	-34.436	-76.106	190.354	-146.046	-29.879	0.612	-145.998	-138.843	-63.912	-9.420	-138.991	-132.680	-131.711	-124.094	8.600	-125.160	-8191	255	
21027.469	1	1	0	0	0.38933	0.035452	0.14911	0.10954	0.17662	0.21344	0.26071	0.10883	0.13367	0.072516	0.05658	0.30356	0.11526	0.20655	0.056874	0.17398	-2.1729	-3.1688	-3.0896	-2.6896	-3.475	-3.0771	-3.0729	-3.5167	-2.7396	-3.2354	-3.2917	-2.5687	-3.2667	-3.0521	-2.6167	-3.4667	72.944	-108.006	192.791	139.358	121.869	-104.877	92.679	-125.398	76.683	-100.317	-118.337	93.313	145.405	165.872	-39.909	186.082	0.00043059	0.00042262	5.7835e-05	1206.7	4.6763e-06	3.8246e-06	1300.4	244.84	7.5506e-06	5.3043e-07	315.31	87.892	69.333	20.216	6.9327e-06	27.816	0.00089134	0.0010063	0.0002771	1198.6	1.0845e-05	1.1079e-05	1297.5	246.76	1.0721e-05	1.0939e-05	318.13	89.451	70.779	20.854	1.0824e-05	28.827	-26.928	-31.905	70.616	-146.083	-40.068	22.537	-146.151	-138.949	-6.710	-51.859	-138.996	-132.413	-131.803	-124.335	-4.789	-125.158	-8191	255	
21027.588	1	1	0	0	0.12057	0.18572	0.14663	0.096095	0.1158	0.33529	0.27432	0.12146	0.19038	0.043033	0.14616	0.069647	0.11825	0.10692	0.23477	0.15647	-2.0667	-2.9021	-3.1271	-2.7646	-3.2188	-3.1271	-2.7604	-3.475	-2.7604	-2.8229	-3.4396	-2.5875	-3.2188	-3.2667	-2.6854	-3.3229	106.832	-0.986	44.932	-61.677	-140.707	-35.043	136.409	-86.582	185.803	14.166	-147.391	78.195	-83.618	148.818	-33.420	-52.238	0.00041564	0.00031006	0.00019073	1204.2	4.829e-06	9.6334e-07	1309.6	245.5	6.4297e-06	3.277e-06	316.35	87.434	69.254	20.164	8.6677e-07	27.763	0.00088542	0.00098503	0.00027362	1196.9	1.0658e-05	1.0934e-05	1298.4	246.99	1.0525e-05	1.0832e-05	318.34	89.392	70.714	20.823	1.061e-05	28.782	-25.952	-72.954	-44.321	-146.042	-39.443	-65.184	-145.992	-138.596	45.003	-4.385	-138.777	-132.155	-131.827	-124.369	-45.903	-125.425	-8191	255	
21027.658	1	1	0	0	0.10921	0.051252	0.069131	0.16083	0.18374	0.23079	0.19704	0.1197	0.069316	0.12756	0.1192	0.14955	0.075377	0.21302	0.16645	0.079672	-2.3771	-2.8708	-3.5333	-2.6521	-3.1729	-3.3458	-2.7458	-3.425	-2.7229	-2.8604	-3.4688	-2.6958	-3.1771	-3.2729	-2.4771	-3.3542	109.415	-40.447	121.865	192.955	180.870	-77.251	91.595	101.334	-46.305	39.474	38.842	67.335	-93.547	-67.217	58.844	1.777	0.00037548	0.00041694	0.00013952	1203	4.8428e-06	4.381e-06	1309.1	245.99	5.9742e-06	6.1254e-06	315.59	87.995	69.217	20.022	3.7789e-06	27.752	0.0008598	0.00097855	0.00026711	1197.7	1.049e-05	1.0538e-05	1299.5	247.21	1.0428e-05	1.0778e-05	318.3	89.538	70.72	20.806	1.0567e-05	28.823	-17.582	-96.968	-100.173	-146.038	-24.380	12.276	-146.208	-138.845	-2.991	-26.854	-139.054	-132.196	-131.982	-124.332	30.561	-125.317	-8191	255	
21027.756	1	1	0	0	0.16298	0.18766	0.21258	0.044045	0.12009	0.18157	0.32224	0.25665	0.13267	0.081143	0.19581	0.13753	0.038004	0.20816	0.064139	0.27461	-2.4792	-2.6104	-3.2229	-2.7583	-3.1	-3.2062	-2.6437	-3.4604	-2.8833	-2.5521	-3.4813	-2.7667	-2.9479	-3.2438	-2.5687	-3.3271	179.059	149.831	20.641	203.009	138.082	-119.537	147.172	185.400	30.062	96.078	80.693	7.891	-58.756	39.092	-79.250	165.250	0.00040761	0.00020984	0.00012909	1204.9	5.2961e-06	4.1847e-06	1311.9	245.14	8.1824e-06	3.3095e-06	315.37	87.424	68.848	20.172	3.3163e-06	27.873	0.0008716	0.0009952	0.00026917	1197.7	1.0518e-05	1.0449e-05	1296.6	247.02	1.0144e-05	1.0284e-05	318.06	89.246	70.534	20.815	1.0154e-05	28.827	-32.180	-139.341	-96.766	-146.283	-61.541	-4.934	-145.966	-138.870	5.025	-28.724	-138.990	-131.944	-132.286	-124.508	38.709	-125.179	-8191	255	
21027.877	1	1	0	0	0.23879	0.32184	0.17995	0.22625	0.15066	0.031237	0.29671	0.12706	0.0098381	0.097338	0.031986	0.10575	0.19518	0.33325	0.1067	0.20878	-2.7438	-2.4917	-3.5812	-2.8937	-2.7479	-3.3604	-2.9479	-3.2583	-3.0375	-2.7812	-3.5604	-2.9208	-2.8729	-3.3958	-2.5938	-3.2896	58.477	94.545	198.399	128.461	34.159	-61.533	180.900	143.443	36.973	-149.159	82.034	17.687	-149.476	-122.102	45.033	80.698	0.00040247	3.4401e-05	0.00017678	1196.5	5.8091e-06	2.1684e-06	1304.2	245.55	1.6839e-06	3.0765e-06	315.82	87.905	69.446	20.04	1.3537e-05	27.681	0.0008226	0.00093022	0.00026173	1194.3	1.019e-05	1.0251e-05	1295.4	246.88	1.0041e-05	1.0611e-05	318.07	89.408	70.759	20.799	1.0704e-05	28.785	-37.860	-142.647	-78.338	-145.998	-33.444	2.321	-146.083	-138.679	-54.819	-28.017	-139.144	-132.335	-132.054	-124.575	4.163	-125.327	-8191	255	
21027.973	1	1	0	0	0.17839	0.091575	0.21376	0.030661	0.10764	0.05111	0.13512	0.17522	0.094048	0.14317	0.063509	0.10791	0.088895	0.13353	0.10707	0.23876	-2.8792	-2.5062	-3.3438	-2.9708	-2.9271	-3.475	-2.8479	-3.1292	-3.1312	-2.4646	-3.6104	-2.9667	-2.7396	-3.5438	-2.7146	-3.2083	-28.460	184.652	92.421	-149.370	146.112	-150.790	136.058	82.922	-103.449	-111.363	61.861	55.529	-24.855	154.240	123.531	-12.214	0.00042812	0.00055929	0.00017313	1204.4	4.1721e-06	5.8867e-06	1302.6	246.68	4.416e-06	4.1116e-06	316.81	87.942	68.897	20.075	1.5156e-06	27.767	0.00086405	0.00098186	0.00027409	1197.9	1.0788e-05	1.1069e-05	1295.9	247.65	1.0919e-05	1.1153e-05	319.7	89.42	70.754	20.844	1.0614e-05	28.878	-27.370	-43.521	-6.090	-146.020	-3.055	-37.079	-146.197	-138.730	16.191	31.266	-138.706	-132.503	-131.833	-124.274	-109.192	-125.000	-8191	255	
21028.068	1	1	0	0	0.15105	0.057175	0.15699	0.10473	0.23125	0.1135	0.25163	0.14925	0.033252	0.28145	0.16873	0.10032	0.19051	0.25418	0.26484	0.21774	-3.0458	-2.5771	-3.175	-3.1125	-2.7812	-3.3417	-2.925	-3.2208	-3.3312	-2.4729	-3.4271	-3.0312	-2.6333	-3.4	-2.7583	-2.9	26.105	-4.457	153.090	118.741	77.647	106.671	99.516	111.632	-143.666	-67.570	-96.095	108.656	133.033	176.329	-116.438	192.516	0.00040616	0.00060939	0.00011461	1202.9	6.213e-06	6.0428e-06	1305.5	246.11	1.0426e-05	7.1646e-06	314.81	87.317	69.024	20.192	7.0649e-06	27.729	0.00088542	0.00099517	0.00027929	1195	1.075e-05	1.1016e-05	1296.4	247.3	1.0677e-05	1.1227e-05	318.21	89.118	70.679	20.846	1.0653e-05	28.809	-32.301	-56.123	-107.470	-146.081	-5.181	-18.750	-146.119	-138.463	-33.594	-22.770	-138.952	-132.117	-132.010	-124.290	-12.315	-124.876	-8191	255	
21028.164	1	1	0	0	0.20309	0.22621	0.089587	0.21966	0.086745	0.19463	0.24353	0.10594	0.21916	0.27737	0.21877	0.030108	0.24265	0.07673	0.13996	0.043996	-3.0417	-2.3125	-3.0958	-3.2229	-2.4437	-3.4521	-2.9792	-2.8688	-3.6	-2.5729	-3.3292	-3.2792	-2.4083	-3.575	-2.9708	-2.6813	-91.123	139.658	193.205	179.807	34.974	-111.069	180.392	165.546	89.486	121.140	132.070	187.309	-100.231	161.748	-120.664	11.825	0.00042915	0.00043541	0.00018076	1204.1	2.6765e-06	4.948e-06	1304.4	246.74	1.208e-06	1.961e-06	315.11	87.958	69.096	20.135	7.2173e-06	27.746	0.00085856	0.00098678	0.00026509	1197.1	1.0306e-05	1.0379e-05	1296.9	247.64	9.9746e-06	1.0309e-05	317.97	89.416	70.361	20.767	9.9674e-06	28.775	-25.381	-52.790	-82.751	-146.233	-28.829	5.181	-145.825	-138.443	-69.393	-125.040	-138.574	-132.119	-131.406	-124.120	6.678	-124.645	-8191	255	
21028.262	1	1	0	0	0.031598	0.17961	0.21613	0.31575	0.22363	0.16096	0.23115	0.15154	0.15706	0.18137	0.20577	0.29987	0.19764	0.078906	0.22454	0.097801	-3.0604	-2.575	-3.25	-3.3563	-2.4646	-3.2562	-3.1625	-2.8	-3.5312	-2.7062	-3.1042	-3.1896	-2.5938	-3.4042	-3.0042	-2.5687	77.856	66.989	186.299	149.670	-5.470	96.791	116.092	105.198	47.770	10.168	101.390	121.853	-98.391	199.039	72.887	68.262	0.0003103	0.00062178	0.00015127	1206.9	3.227e-06	3.3785e-06	1304	246.57	4.8358e-06	2.5311e-06	317.59	87.632	69.162	20.11	5.1345e-06	27.766	0.00080779	0.00092615	0.00024996	1195.3	9.7526e-06	9.8377e-06	1293.7	246.89	9.3831e-06	9.6775e-06	317.56	88.984	70.393	20.744	9.3848e-06	28.704	-27.904	-148.501	-58.151	-145.992	-46.821	-23.305	-145.966	-138.393	7.476	48.054	-138.780	-131.860	-131.480	-124.312	-33.840	-125.120	-8191	255	
21028.357	1	1	0	0	0.16165	0.055031	0.1132	0.20146	0.30589	0.079854	0.37858	0.23912	0.11141	0.071741	0.028103	0.31251	0.091491	0.022328	0.11059	0.21516	-3.1625	-2.7188	-3.0583	-3.5583	-2.5646	-3.2625	-3.2729	-2.5646	-3.5146	-2.8604	-2.9083	-3.475	-2.5604	-3.2958	-3.1437	-2.7062	-115.234	-82.473	161.655	150.121	-89.767	164.689	112.506	-126.153	-127.979	-10.289	-92.501	-110.566	35.115	-21.478	145.554	158.393	0.00037423	0.0001535	0.00012106	1202.8	3.7656e-06	5.0825e-06	1301	245.77	6.6905e-07	5.9856e-06	313.81	87.473	69.008	20.04	4.0928e-06	27.664	0.0007664	0.00088273	0.00024061	1192.6	9.4658e-06	9.849e-06	1291.6	246.4	9.4113e-06	9.8879e-06	317.61	89.035	70.297	20.73	9.6287e-06	28.688	-25.124	-79.584	-114.865	-145.897	5.055	-24.562	-145.704	-138.308	106.881	26.283	-138.594	-132.073	-131.532	-124.324	-149.962	-124.461	-8191	255	
21028.453	1	1	0	0	0.11448	0.25391	0.20623	0.21753	0.18021	0.12375	0.15481	0.10889	0.22683	0.043347	0.40378	0.16905	0.30988	0.12034	0.065494	0.41564	-3.1042	-2.7396	-2.8604	-3.5042	-2.6625	-2.9917	-3.4146	-2.4854	-3.4146	-2.85	-2.9	-3.4521	-2.5896	-3.1542	-3.1292	-2.5312	117.415	-130.665	0.116	-58.677	14.708	-26.785	131.456	101.797	90.463	114.563	93.827	199.023	127.071	-100.440	130.420	145.923	0.000417	0.00038611	8.4103e-05	1204.8	3.5282e-06	4.0196e-06	1304	245.34	7.3114e-06	4.9707e-06	315.92	87.25	69.042	19.954	3.6291e-06	27.696	0.00078155	0.00088746	0.00024582	1191.6	9.6449e-06	9.6298e-06	1290.9	246.16	9.6423e-06	9.5876e-06	317.99	88.81	70.458	20.702	9.7287e-06	28.692	-26.540	-99.192	-91.046	-145.771	35.704	4.317	-145.733	-138.210	13.656	-23.628	-138.423	-131.762	-131.392	-123.996	35.211	-124.578	-8191	255	
21028.549	1	1	0	0	0.24905	0.10399	0.12796	0.12099	0.071236	0.17785	0.32037	0.11441	0.11509	0.18474	0.29256	0.17005	0.04335	0.18874	0.0091134	0.22577	-2.9542	-2.8229	-2.5708	-3.4208	-2.6	-2.9354	-3.4417	-2.6021	-3.2104	-2.8042	-2.6917	-3.3875	-2.6375	-2.8271	-3.2313	-2.5521	-133.390	156.849	-84.252	-127.678	-15.159	176.774	132.987	52.431	118.990	136.664	-120.133	-126.425	-131.976	128.794	26.241	191.976	0.00041904	0.00042168	0.00015763	1200	5.9685e-06	3.8114e-06	1298.2	245.36	2.3041e-06	5.9471e-06	315.12	87.487	69.087	20.229	2.8673e-06	27.78	0.00080491	0.0009147	0.00024768	1189.7	9.6642e-06	9.9526e-06	1290.9	246.65	9.9245e-06	1.0089e-05	318.31	89.087	70.534	20.785	9.7163e-06	28.773	-21.573	-87.078	-44.430	-145.962	-25.982	25.102	-146.159	-138.890	-75.462	18.043	-138.657	-132.509	-131.796	-124.481	-43.472	-124.964	-8191	255	
21028.668	1	1	0	0	0.16186	0.14247	0.031747	0.24303	0.17732	0.087959	0.11243	0.27886	0.23044	0.045994	0.27878	0.095088	0.15439	0.1719	0.09566	0.38394	-2.8375	-3.1604	-2.4083	-3.6188	-2.7958	-2.925	-3.4813	-2.6583	-3.2313	-3.0604	-2.7438	-3.4229	-2.6375	-2.8104	-3.3896	-2.6979	19.513	45.355	-26.647	189.860	-131.313	113.825	198.388	161.943	-128.338	118.706	186.503	-30.562	119.247	58.982	166.913	19.040	0.00041509	0.00016129	0.00014549	1200.9	6.745e-06	5.652e-06	1300	246.2	1.2497e-05	8.3533e-06	314.54	87.718	68.709	19.96	2.3627e-06	27.74	0.00080802	0.00090265	0.00024849	1193.2	9.6743e-06	9.9366e-06	1291.9	246.66	9.7329e-06	9.9628e-06	316.77	89.185	70.466	20.76	1.0741e-05	28.874	-42.160	195.205	-70.763	-145.643	-30.355	-45.904	-145.811	-138.485	-15.300	-23.215	-138.935	-132.543	-131.961	-124.323	195.486	-124.655	-8191	255	
21028.764	1	1	0	0	0.29146	0.18972	0.17752	0.24192	0.19639	0.12587	0.24995	0.1777	0.076105	0.20659	0.34269	0.031109	0.229	0.22566	0.22582	0.23298	-2.8563	-3.0521	-2.4646	-3.5833	-2.9479	-2.6646	-3.5896	-2.6792	-3.0667	-3.2708	-2.6021	-3.3833	-2.8667	-2.5563	-3.4083	-2.5875	-110.236	15.976	154.585	116.832	168.216	148.432	171.018	49.718	188.439	99.267	72.052	160.768	118.155	-106.572	6.379	179.455	0.00031758	0.00016201	7.6746e-05	1208.2	6.0815e-06	7.2958e-06	1306.6	245.14	6.0239e-06	3.6642e-06	316.08	87.819	69.067	20.149	2.1317e-06	27.8	0.00092852	0.001051	0.00029377	1198.2	1.1434e-05	1.1582e-05	1297.2	246.82	1.1177e-05	1.1412e-05	318.59	89.516	70.773	20.88	1.0924e-05	28.87	-10.972	-14.478	-72.022	-145.972	-121.954	11.059	-146.045	-138.597	8.945	-10.190	-138.774	-132.127	-131.860	-124.472	-114.262	-125.157	-8191	255	
21028.861	1	1	0	0	0.10317	0.10215	0.045107	0.20789	0.12735	0.36082	0.19803	0.11942	0.10113	0.24235	0.17552	0.093881	0.1851	0.28339	0.027864	0.22312	-2.6	-3.3167	-2.325	-3.4083	-2.8521	-2.5458	-3.3688	-2.6917	-2.9208	-3.2917	-2.6437	-3.2083	-2.8729	-2.4979	-3.1333	-2.6937	-32.375	-85.933	-73.591	-129.574	-103.531	-7.978	192.418	130.753	57.877	72.426	168.788	58.688	96.644	-25.281	47.294	112.571	0.00040958	0.00029946	0.00011883	1207.8	7.9775e-06	1.5515e-06	1306.6	246.05	6.2191e-06	2.1176e-06	316.08	87.458	69.046	20.26	3.6007e-06	27.779	0.00085085	0.00095929	0.00027066	1199.4	1.0518e-05	1.0595e-05	1299.5	247.22	1.0479e-05	1.0734e-05	318.9	89.473	70.58	20.896	1.1159e-05	28.895	-19.562	-52.295	-17.735	-145.897	11.423	9.235	-146.119	-138.696	-40.222	-60.941	-139.036	-132.372	-132.010	-123.759	-0.570	-125.360	-8191	255	
21028.957	1	1	0	0	0.16482	0.072456	0.14462	0.12314	0.2049	0.030453	0.17495	0.11024	0.061345	0.10966	0.25703	0.22396	0.15542	0.36322	0.14574	0.14129	-2.4417	-3.2562	-2.3333	-3.2646	-3.1146	-2.5292	-3.4542	-2.8167	-2.7417	-3.3125	-2.4979	-3.075	-3.1979	-2.4542	-3.3042	-2.8104	-112.828	42.133	-56.011	-86.944	148.695	12.697	160.310	101.736	-111.587	138.184	113.035	172.716	181.599	152.289	-93.926	-8.758	0.00043297	9.908e-05	0.00015449	1206.5	3.2853e-06	2.9868e-06	1313.9	245.15	3.7481e-06	4.3345e-06	314.23	88.425	69.743	20.22	4.4724e-06	27.874	0.00089589	0.0010233	0.00028673	1199.7	1.1177e-05	1.1393e-05	1302.1	247.27	1.1478e-05	1.1944e-05	318.61	89.956	71.026	20.966	1.182e-05	28.935	-22.925	-146.253	-51.846	-145.927	-42.994	-69.466	-145.906	-138.771	11.503	-49.153	-138.706	-132.217	-131.949	-124.338	-36.867	-125.116	-8191	255	
21029.053	1	1	0	0	0.1452	0.13753	0.28846	0.16858	0.21063	0.085653	0.23815	0.17927	0.22317	0.15948	0.12794	0.1094	0.13268	0.36066	0.25909	0.35249	-2.325	-3.2896	-2.425	-3.1333	-3.2979	-2.5	-3.4792	-2.9646	-2.6312	-3.3333	-2.6479	-2.9646	-3.25	-2.4646	-3.1896	-2.9625	123.725	94.950	68.017	-154.528	-68.191	-76.250	166.417	194.079	-131.922	-143.691	32.690	163.884	145.253	149.030	-143.697	106.523	0.00046094	0.00022461	8.6919e-05	1212.9	6.0149e-06	4.5774e-06	1308.3	245.75	5.7273e-06	3.7032e-06	314.38	87.621	69.387	20.161	4.6453e-06	27.775	0.00094957	0.001089	0.00030059	1202.3	1.1515e-05	1.1698e-05	1303.4	247.59	1.1378e-05	1.1628e-05	318.43	89.866	70.946	20.912	1.1331e-05	28.938	-31.381	-104.532	-93.663	-145.870	-17.421	12.473	-145.973	-138.271	-21.806	-8.781	-139.057	-132.260	-132.076	-124.364	-50.621	-125.522	-8191	255	
21029.148	1	1	0	0	0.22204	0.195	0.15861	0.046771	0.1139	0.046287	0.084137	0.05237	0.09492	0.10236	0.068639	0.15148	0.056443	0.031753	0.25198	0.087921	-2.1813	-3.2396	-2.7104	-3.0563	-3.2979	-2.5604	-3.3354	-3.1875	-2.45	-3.4833	-2.8521	-2.8021	-3.2292	-2.5021	-2.9708	-3.0354	152.504	9.051	-32.158	-94.035	7.373	183.000	61.328	-106.952	-90.201	1.233	190.125	186.399	121.944	-146.744	0.989	-116.629	0.00034799	0.00039719	0.0001882	1212.3	9.1033e-06	4.1308e-06	1309.9	245.8	8.6165e-06	5.1716e-06	315.72	87.764	69.798	20.072	7.401e-07	27.956	0.00093591	0.0010595	0.00028996	1201.3	1.1152e-05	1.1279e-05	1300.1	247.44	1.0837e-05	1.1014e-05	319.56	89.579	70.888	20.88	1.0838e-05	28.909	-25.171	-89.943	-134.930	-146.022	26.921	-58.434	-146.054	-138.857	-23.228	31.281	-139.530	-132.230	-131.694	-124.334	-145.789	-125.425	-8191	255	
21029.270	1	1	0	0	0.29729	0.16666	0.080595	0.24694	0.30776	0.15068	0.31175	0.22156	0.24158	0.1064	0.090003	0.13136	0.30951	0.15722	0.10966	0.1462	-2.2375	-3.0208	-2.7354	-2.8646	-3.3333	-2.4521	-3.2062	-3.1354	-2.4354	-3.4646	-2.9167	-2.8292	-3.2792	-2.4917	-3.0583	-3.1437	-5.629	32.827	83.732	194.492	123.455	-109.835	145.706	78.606	0.833	-38.932	-142.711	70.633	154.923	-134.933	62.553	100.228	0.00032078	0.00014913	0.00016277	1210.4	2.1038e-06	3.0859e-06	1311.2	245.91	5.7671e-06	6.1462e-06	316.43	88.164	69.738	20.108	5.5881e-06	27.576	0.00089388	0.0010203	0.00027982	1202.2	1.1073e-05	1.1344e-05	1301.5	247.49	1.1386e-05	1.1764e-05	320.09	89.96	71.08	20.85	1.134e-05	28.867	-10.585	-86.113	-10.938	-145.926	69.781	8.921	-145.960	-138.606	14.016	29.792	-138.601	-131.994	-131.914	-124.322	0.001	-125.231	-8191	255	
21029.363	1	1	0	0	0.083633	0.18108	0.13856	0.25847	0.11874	0.3061	0.31197	0.13842	0.23865	0.20109	0.44019	0.054481	0.14971	0.21997	0.19423	0.077653	-2.0271	-3.2667	-2.8979	-2.7271	-3.2125	-2.5854	-2.9813	-3.2812	-2.5438	-2.9917	-3	-2.5187	-3.3833	-2.7375	-2.8812	-3.4542	-43.734	-144.786	-135.840	156.306	183.373	81.746	168.298	174.705	115.855	171.312	163.008	-147.943	-109.858	147.947	129.485	154.446	0.00043556	0.0004273	0.00016649	1208.6	7.5505e-06	3.0835e-06	1308.5	246.27	1.3931e-06	4.3146e-06	314.92	88.039	68.773	20.091	7.6542e-06	27.9	0.00092431	0.0010681	0.00029386	1200.8	1.1194e-05	1.1439e-05	1303.9	247.88	1.1221e-05	1.1662e-05	319.66	89.814	70.778	20.9	1.1333e-05	28.903	-23.788	-83.322	-71.694	-145.934	-12.831	-68.055	-145.830	-138.910	-36.879	-4.288	-139.282	-131.965	-131.809	-124.618	-109.272	-125.168	-8191	255	
21029.461	1	1	0	0	0.3767	0.32618	0.094925	0.1457	0.080294	0.032684	0.45424	0.16406	0.14505	0.17622	0.29368	0.046839	0.19461	0.1571	0.072637	0.12334	-2.0083	-3.1562	-2.8333	-2.6542	-3.3354	-2.6583	-2.9625	-3.4333	-2.4792	-3.0438	-3.0958	-2.7708	-3.2708	-2.7729	-2.6937	-3.5271	-110.664	-31.452	182.375	167.132	174.497	22.620	154.415	-136.288	62.938	38.600	-139.363	-37.191	126.080	-134.475	133.335	23.574	0.00045984	0.0003827	0.00013807	1214.1	6.7373e-06	3.6595e-06	1309	246.94	6.0901e-06	3.4848e-06	316.86	88.225	69.89	20.193	6.0767e-06	27.767	0.00090859	0.0010255	0.00028456	1203.3	1.112e-05	1.1503e-05	1302.1	248.18	1.1043e-05	1.1226e-05	319.75	89.823	71.064	20.928	1.1254e-05	28.96	-28.973	-84.905	-30.507	-145.970	-9.222	-19.367	-145.960	-138.725	72.518	43.986	-138.963	-132.128	-131.922	-124.528	25.820	-125.208	-8191	255	
21029.557	1	1	0	0	0.15339	0.15402	0.22596	0.2533	0.19788	0.096662	0.29426	0.10888	0.23329	0.18711	0.062734	0.034456	0.14869	0.24625	0.10339	0.069299	-2.1208	-3.175	-3.1042	-2.5812	-3.2687	-2.7542	-2.7438	-3.2	-2.75	-2.9479	-3.2458	-2.6896	-3.4292	-2.9021	-2.6354	-3.4229	151.355	168.827	-56.383	134.014	118.293	-107.441	132.819	182.731	92.071	-155.898	-110.478	-6.712	179.350	131.221	-51.213	-104.218	0.00037995	0.00045949	0.00013969	1210.8	5.8807e-06	2.2245e-06	1312.8	246.85	5.2659e-07	2.772e-06	317.02	88.131	70.101	20.193	3.2694e-06	27.646	0.00094228	0.0010422	0.0002834	1204	1.1205e-05	1.1239e-05	1302.4	248.15	1.0864e-05	1.1122e-05	319.54	89.875	71.236	20.9	1.1042e-05	28.948	-31.725	-77.599	-140.169	-145.732	-58.160	-14.093	-145.792	-138.796	-81.235	129.261	-138.826	-132.596	-131.687	-124.583	185.708	-124.945	-8191	255	
21029.652	1	1	0	0	0.089698	0.22464	0.023711	0.086231	0.063038	0.022452	0.31004	0.11876	0.19952	0.12825	0.29296	0.081923	0.31414	0.092532	0.15393	0.16589	-2.1833	-2.8375	-3.2771	-2.6958	-3.2188	-2.9979	-2.8646	-3.5938	-2.6063	-2.7479	-3.4625	-2.7354	-3.2375	-3.3292	-2.4604	-3.5354	107.350	-137.946	37.828	129.416	-56.685	165.892	138.853	-134.470	-75.837	192.314	-118.107	140.795	-137.550	132.792	-150.994	67.461	0.00030702	0.00012602	5.4892e-05	1210.5	5.2069e-06	3.0202e-06	1317.8	247.4	4.7004e-06	6.8966e-06	318.06	87.835	69.586	20.185	1.3431e-06	27.775	0.00093243	0.001034	0.00028921	1203.7	1.119e-05	1.1692e-05	1304.5	248.51	1.1433e-05	1.1733e-05	319.37	89.762	70.993	20.926	1.1496e-05	28.937	-13.124	134.043	-46.816	-146.091	43.426	-29.820	-145.975	-138.630	-47.710	13.665	-139.139	-132.413	-131.732	-124.738	97.736	-124.798	-8191	255	
21029.748	1	1	0	0	0.076192	0.093767	0.3291	0.26727	0.045181	0.16534	0.21024	0.14414	0.11029	0.059865	0.27079	0.45108	0.16622	0.11267	0.19693	0.080359	-2.4729	-2.6604	-3.2667	-2.6792	-2.9854	-2.9625	-2.7292	-3.4396	-2.725	-2.8125	-3.3958	-2.6396	-3.2313	-3.125	-2.3792	-3.275	26.014	119.425	-63.373	187.500	83.657	-101.254	151.450	29.057	90.168	-74.352	145.323	104.972	118.623	157.702	-30.805	111.634	0.00043401	0.00067237	3.2445e-05	1209.7	1.5654e-06	1.7148e-06	1309.1	247.78	4.7338e-06	4.8039e-06	315.37	88.114	69.586	20.167	2.9915e-06	27.904	0.00092959	0.0010661	0.00029148	1202.7	1.1414e-05	1.1663e-05	1302	248.47	1.1528e-05	1.1865e-05	319.67	89.885	71.183	21.045	1.1975e-05	29.044	-25.777	-127.756	-72.378	-146.014	199.890	-106.690	-146.036	-139.071	22.645	-67.230	-139.141	-132.545	-131.924	-124.634	58.076	-125.295	-8191	255	
21029.846	1	1	0	0	0.061886	0.069409	0.082379	0.27004	0.23007	0.099615	0.21558	0.23498	0.12964	0.09273	0.29188	0.12915	0.083318	0.18508	0.079968	0.14929	-2.2875	-2.5646	-3.3875	-2.7771	-2.9771	-3.1688	-2.5542	-3.3187	-2.6688	-2.5062	-3.3187	-2.6813	-3.0771	-3.2708	-2.3708	-3.1375	33.196	111.744	-96.035	184.253	30.625	-20.602	193.954	123.087	-115.777	-129.231	160.870	-146.745	-130.404	89.949	-16.204	-50.287	0.00035308	0.00031028	0.00023306	1209.5	7.764e-06	1.9255e-06	1312.9	247.34	3.8974e-06	2.6299e-06	315.78	88.512	69.27	20.183	4.5696e-06	28.018	0.00096013	0.001103	0.00030451	1205.6	1.185e-05	1.1976e-05	1305.5	249.23	1.1694e-05	1.209e-05	321	90.121	71.095	21.018	1.2161e-05	29.105	-38.460	-59.959	-86.945	-146.032	11.999	49.247	-145.994	-138.659	32.538	30.714	-138.901	-132.544	-131.270	-124.572	4.463	-125.092	-8191	255	
21029.941	1	1	0	0	0.10275	0.18687	0.33189	0.12065	0.12152	0.14264	0.21894	0.21772	0.21877	0.2764	0.25403	0.033195	0.14979	0.15846	0.32472	0.2475	-2.6354	-2.5125	-3.3875	-2.7917	-2.7625	-3.3812	-2.7687	-3.3521	-3.1396	-2.5938	-3.2729	-2.8271	-2.8646	-3.325	-2.3688	-3.2021	143.033	-121.047	-23.860	129.106	172.609	-30.474	193.936	106.132	-110.198	187.031	7.446	146.715	-117.675	-16.001	-73.659	-153.952	0.00044844	0.0005329	0.00030366	1211.8	9.6184e-06	2.0558e-06	1317	247.3	5.0701e-06	2.3749e-06	319.1	87.642	69.724	20.373	5.5154e-06	27.834	0.00098352	0.001132	0.00031486	1206.6	1.2252e-05	1.2422e-05	1307.7	249.11	1.2104e-05	1.2597e-05	321.62	90.108	71.52	21.104	1.2481e-05	29.077	-17.973	-64.753	-83.537	-146.002	-17.416	-84.285	-146.126	-138.592	15.637	20.085	-138.771	-132.122	-131.497	-124.467	-46.862	-125.119	-8191	255	
21030.062	1	1	0	0	0.098084	0.2662	0.15677	0.40085	0.10444	0.2032	0.11901	0.18718	0.1343	0.14939	0.27334	0.084786	0.13283	0.1634	0.13599	0.18579	-2.8021	-2.3354	-3.0917	-2.7542	-2.5771	-3.3063	-2.7125	-3.0333	-3.0375	-2.3729	-3.35	-2.7292	-2.5479	-3.4188	-2.4167	-3.0312	-42.652	-1.787	-97.229	175.855	-142.597	15.775	165.108	98.159	-34.854	-90.413	-149.425	181.001	-77.719	-116.512	25.529	185.368	0.00050378	0.00043187	0.0001567	1220.3	5.5689e-06	2.9324e-06	1316.3	248.45	4.7559e-06	1.5707e-06	315.61	88.313	69.684	20.237	5.2825e-06	27.817	0.0010207	0.0011746	0.00032212	1211.6	1.2487e-05	1.262e-05	1311.4	249.75	1.2148e-05	1.2672e-05	321.02	90.273	71.424	21.059	1.2488e-05	29.075	-31.268	-84.417	-24.898	-145.875	-41.624	-28.369	-145.825	-138.315	30.917	43.983	-138.799	-132.064	-131.262	-124.286	-43.895	-125.002	-8191	255	
21030.133	1	1	0	0	0.23849	0.29329	0.21691	0.14219	0.19504	0.18404	0.17753	0.1219	0.055489	0.11444	0.19466	0.10418	0.14292	0.35526	0.23376	0.2506	-2.9896	-2.4562	-3.1229	-3.0604	-2.6833	-3.3375	-2.7208	-2.9	-3.2729	-2.3792	-3.2646	-3.0375	-2.575	-3.4938	-2.6104	-2.8479	-145.572	6.336	154.557	-58.714	-66.585	-125.195	177.519	188.882	-144.964	7.586	153.298	176.143	-140.190	-78.640	15.074	75.041	0.00048667	0.00026769	8.1345e-05	1218.5	7.1239e-06	2.7439e-06	1318.4	247.39	8.659e-06	5.1217e-06	315.76	88.011	70.041	20.052	4.0819e-06	27.806	0.0010016	0.0011473	0.00031723	1210.6	1.2284e-05	1.2524e-05	1311.2	249.94	1.2078e-05	1.2666e-05	321.27	90.332	71.585	21.04	1.2402e-05	29.095	-34.943	-121.270	5.802	-145.886	-47.575	-47.769	-145.625	-138.633	39.636	-60.189	-138.808	-131.892	-131.758	-124.347	93.754	-125.447	-8191	255	
21030.229	1	1	0	0	0.12035	0.34055	0.097328	0.25767	0.22817	0.058347	0.1586	0.13589	0.079645	0.12907	0.22378	0.032722	0.1554	0.2487	0.10714	0.091264	-2.8333	-2.3667	-3.1083	-3.2646	-2.5375	-3.225	-2.7854	-2.7583	-3.3396	-2.4875	-3.2875	-3.1646	-2.4313	-3.4292	-2.8521	-2.5021	70.924	1.499	168.380	170.602	170.944	19.472	157.463	-126.039	-84.226	95.012	-107.966	51.669	4.180	115.611	32.846	70.986	0.0003989	0.00031599	7.1083e-05	1216.8	3.5903e-06	1.9433e-06	1317.2	249.64	8.3754e-06	7.9477e-06	316	88.339	70.134	20.161	1.9603e-06	27.754	0.00099413	0.001152	0.00031262	1210.8	1.2313e-05	1.2316e-05	1310	249.97	1.1808e-05	1.2267e-05	321.23	90.132	71.494	21.008	1.2373e-05	29.079	-28.920	-55.772	-50.335	-145.952	-24.908	-33.666	-145.942	-138.628	-14.427	-56.502	-138.725	-132.299	-131.549	-124.235	-47.879	-124.643	-8191	255	
21030.350	1	1	0	0	0.14792	0.097322	0.06397	0.51877	0.15215	0.051599	0.12175	0.1748	0.16725	0.22606	0.33208	0.16044	0.20698	0.069991	0.10065	0.21291	-3.0333	-2.5563	-3.0146	-3.1792	-2.4521	-3.3208	-3.0021	-2.75	-3.3208	-2.4938	-2.95	-3.3271	-2.4729	-3.2062	-3.1354	-2.6562	92.842	-27.967	15.135	201.783	-92.546	125.565	-131.120	110.661	-109.919	90.674	191.220	118.326	-28.225	14.486	-145.651	114.968	0.00037726	0.00068559	7.2513e-05	1215.3	5.2416e-06	1.639e-06	1319.9	248.13	8.8633e-06	2.5154e-06	317.5	88.47	70.188	20.291	6.4407e-06	27.762	0.00099208	0.0011127	0.00031351	1210.8	1.198e-05	1.2118e-05	1311.6	249.83	1.1642e-05	1.2235e-05	321.03	90.233	71.561	21.093	1.1718e-05	29.039	-12.195	-8.404	187.673	-145.910	-24.668	-28.647	-145.907	-138.683	12.229	-11.029	-138.866	-132.135	-131.924	-124.068	9.764	-124.911	-8191	255	
21030.443	1	1	0	0	0.2219	0.10182	0.15179	0.094157	0.010959	0.20163	0.20115	0.10578	0.28244	0.12471	0.083452	0.20398	0.10997	0.14424	0.070739	0.11069	-3.0187	-2.5375	-2.7729	-3.2583	-2.4708	-3.2667	-3.1417	-2.5583	-3.3812	-2.7771	-2.9708	-3.4104	-2.6292	-3.2354	-2.9542	-2.6792	-155.042	144.851	-128.213	-108.762	92.736	-35.088	155.325	-153.865	-142.431	201.802	-11.287	-138.194	109.932	178.501	-14.634	83.162	0.00033751	0.00036045	0.00013458	1213.7	4.4655e-06	2.2641e-06	1318.1	247.44	6.0109e-06	7.2838e-06	319.56	88.518	70.002	20.192	5.4634e-06	28.111	0.00097098	0.0011038	0.0003083	1207.2	1.1691e-05	1.1898e-05	1308.5	249.38	1.1593e-05	1.1992e-05	321.21	90.238	71.408	21.034	1.1332e-05	29.065	-37.341	-143.859	-67.775	-145.903	-73.340	-41.342	-146.027	-138.304	-64.741	20.718	-139.198	-132.466	-131.390	-124.159	12.275	-124.466	-8191	255	
21030.543	1	1	0	0	0.14711	0.086847	0.059156	0.34654	0.08734	0.13708	0.24986	0.11741	0.16362	0.029983	0.10125	0.26687	0.34	0.28626	0.22028	0.097735	-3.0812	-2.5917	-2.8542	-3.5104	-2.3354	-3.2021	-3.3167	-2.65	-3.2417	-2.825	-2.7792	-3.4729	-2.5062	-2.925	-3.0875	-2.5458	-20.254	-148.074	175.209	-146.176	92.893	-56.337	157.777	195.224	2.652	65.143	192.460	161.117	-59.106	-95.114	145.162	80.447	0.00042627	0.00054332	8.0275e-05	1216.1	9.4108e-07	6.8162e-06	1315	248.37	1.6527e-06	5.1933e-06	318.06	88.551	69.485	20.144	4.875e-06	27.762	0.00092966	0.0010589	0.00029225	1207.1	1.1315e-05	1.1457e-05	1308.5	249.47	1.1203e-05	1.1599e-05	321.39	90.018	71.173	20.965	1.1637e-05	29.038	-11.038	-122.341	9.657	-146.191	-71.700	-4.451	-146.281	-139.024	70.481	25.759	-138.872	-132.110	-131.790	-124.494	-46.248	-125.122	-8191	255	
21030.660	1	1	0	0	0.16135	0.25664	0.11748	0.094185	0.15708	0.25467	0.19708	0.21254	0.19606	0.17906	0.094128	0.11815	0.088234	0.19182	0.16683	0.13585	-2.8896	-2.7396	-2.6625	-3.4979	-2.4042	-2.8479	-3.4979	-2.4667	-3.2333	-2.9562	-2.4167	-3.4062	-2.5667	-2.8417	-3.0812	-2.4229	172.057	105.305	127.622	168.621	-73.097	85.671	125.809	72.294	-107.323	-6.793	30.458	110.876	108.325	189.068	-23.161	-33.120	0.00041188	0.00071511	0.00011363	1216.9	6.0861e-06	1.9787e-06	1315.3	247.24	3.1561e-06	3.1769e-06	317.52	88.445	69.644	20.221	2.9063e-06	27.833	0.00094013	0.0010774	0.00030029	1208.6	1.1392e-05	1.1631e-05	1308.9	248.99	1.1471e-05	1.1743e-05	320.72	90.075	71.303	20.951	1.1542e-05	29.061	-25.481	-61.445	20.560	-145.830	-35.587	-97.956	-145.906	-138.674	39.809	-60.245	-138.585	-132.265	-131.949	-123.748	6.428	-124.936	-8191	255	
21030.758	1	1	0	0	0.09685	0.22642	0.16088	0.16592	0.028042	0.18338	0.18818	0.15098	0.10342	0.13094	0.028845	0.23069	0.32531	0.28196	0.14698	0.25439	-2.8812	-2.9083	-2.6	-3.4167	-2.7562	-2.8229	-3.4688	-2.6312	-3.1	-2.9521	-2.4	-3.2125	-2.7083	-2.7583	-3.25	-2.4042	16.769	-104.596	70.426	191.577	-38.824	-113.046	130.297	146.479	53.614	116.698	166.262	-144.852	163.889	191.029	-28.358	-79.285	0.00039147	0.00081084	7.1404e-05	1214.5	7.9849e-06	5.8833e-06	1315.8	247.66	3.1044e-06	2.6418e-06	317.29	87.984	69.203	20.061	9.1437e-06	27.867	0.00095668	0.0010889	0.00029784	1208.9	1.1633e-05	1.1959e-05	1306.7	249.41	1.1559e-05	1.1899e-05	320.73	89.987	71.091	20.996	1.1616e-05	29.031	-32.674	-51.493	33.958	-145.545	11.561	-8.734	-146.186	-139.260	1.312	-91.895	-139.159	-132.754	-132.113	-124.610	67.961	-125.297	-8191	255	
21030.828	1	1	0	0	0.098988	0.16246	0.1839	0.15365	0.16691	0.23948	0.37543	0.13962	0.10213	0.31348	0.2443	0.024877	0.17135	0.37536	0.28318	0.18709	-2.8438	-3.0042	-2.3833	-3.45	-2.7792	-2.7687	-3.5479	-2.6042	-3.2458	-3.2979	-2.6375	-3.4646	-2.9188	-2.7208	-3.3	-2.5563	-44.320	-102.381	-118.955	172.243	165.125	136.337	147.342	172.414	130.646	-89.135	97.187	-139.015	171.474	160.251	10.574	159.158	0.00038024	0.00059863	7.6452e-05	1215.4	2.74e-06	3.1199e-06	1312.8	247.13	7.3037e-06	3.69e-06	317.47	87.955	69.855	20.127	5.0053e-06	27.872	0.00093913	0.0010649	0.00029727	1208.8	1.1559e-05	1.1934e-05	1307.2	248.87	1.1449e-05	1.1805e-05	320.76	90.104	71.316	20.988	1.1772e-05	29.076	-34.390	-117.797	-26.752	-146.107	-102.648	-1.001	-146.324	-139.028	-3.832	-71.202	-139.157	-132.411	-131.899	-124.292	-51.882	-125.463	-8191	255	
21030.949	1	1	0	0	0.30219	0.14588	0.13098	0.14754	0.086418	0.013974	0.23852	0.075394	0.11216	0.11639	0.085892	0.19865	0.36345	0.17825	0.13665	0.26241	-2.5771	-3.2125	-2.4521	-3.4521	-2.9854	-2.5875	-3.5271	-3.0292	-2.8563	-3.3146	-2.5979	-3.2687	-3.0375	-2.4896	-3.4292	-2.7229	100.919	-92.874	-120.564	183.194	17.691	42.594	136.056	-128.959	-148.397	-59.211	51.628	-153.701	93.216	61.727	130.234	166.199	0.00042503	0.00044914	0.00018152	1215.3	6.284e-06	1.8649e-06	1317	247.93	2.4608e-06	2.6502e-06	317.02	88.293	69.268	20.331	7.7194e-06	27.722	0.00097158	0.0010974	0.00030705	1208.7	1.1926e-05	1.2004e-05	1308.2	249.17	1.1803e-05	1.225e-05	320.99	90.108	71.268	21.054	1.1946e-05	29.028	-29.133	-2.626	-61.499	-146.154	-80.779	61.286	-146.141	-139.097	-37.683	24.924	-139.357	-132.491	-131.990	-124.671	-27.126	-125.694	-8191	255	
21031.047	1	1	0	0	0.13487	0.044446	0.27984	0.33509	0.12655	0.10931	0.10673	0.20575	0.044377	0.1274	0.085537	0.11197	0.09528	0.15383	0.031246	0.2574	-2.3896	-3.1417	-2.525	-3.3146	-3.0979	-2.475	-3.4938	-3.0083	-2.6917	-3.5187	-2.5625	-3.0521	-3.1375	-2.5771	-3.1167	-2.8688	106.685	-23.256	-100.821	112.866	-115.274	136.727	102.465	121.103	-27.654	-120.674	200.829	-124.103	25.646	144.631	-54.869	74.504	0.00048252	0.00018664	9.0528e-05	1221	8.0512e-06	2.3388e-06	1320.4	248.23	5.9119e-06	2.8214e-06	316.83	87.932	69.896	20.289	8.5416e-06	27.918	0.00099983	0.0011027	0.00031039	1210.3	1.1933e-05	1.2053e-05	1310.6	249.78	1.1828e-05	1.21e-05	321.5	89.975	71.285	20.994	1.2186e-05	29.18	-27.615	-130.687	-141.586	-146.146	-42.622	66.230	-146.161	-138.968	-33.331	-0.894	-138.840	-132.480	-132.253	-124.426	33.816	-125.207	-8191	255	
21031.143	1	1	0	0	0.068026	0.18327	0.32188	0.36867	0.25046	0.1962	0.15436	0.3235	0.03859	0.046047	0.093064	0.17297	0.20876	0.23356	0.13046	0.29796	-2.375	-3.2708	-2.6292	-3.1208	-3.1125	-2.5229	-3.5042	-2.9792	-2.6021	-3.5396	-2.7208	-2.9813	-3.3167	-2.4458	-3.2625	-3.0417	162.541	39.858	166.571	170.782	-36.113	-141.495	133.576	144.869	75.426	199.331	-103.294	134.594	-32.347	-129.734	-53.907	48.191	0.00046573	0.00010686	7.9926e-05	1218.1	2.9544e-06	5.9543e-06	1319	247.45	2.6282e-06	6.6544e-06	318.51	88.152	69.254	20.244	3.0956e-06	27.833	0.00099168	0.0011151	0.00031097	1210.2	1.2115e-05	1.2325e-05	1311.6	249.58	1.2079e-05	1.2399e-05	321.78	90.314	71.34	21.032	1.2011e-05	29.061	-28.775	163.913	-108.538	-145.952	-140.233	13.952	-146.116	-138.832	-102.633	115.607	-138.966	-132.188	-131.435	-124.067	41.570	-125.066	-8191	255	
21031.264	1	1	0	0	0.22598	0.084456	0.18482	0.20371	0.21015	0.10965	0.27727	0.16148	0.066502	0.25997	0.052441	0.16782	0.15151	0.02869	0.07797	0.20134	-2.2792	-3.3146	-2.5729	-3.0729	-3.3917	-2.525	-3.2438	-2.9188	-2.4813	-3.4292	-2.6688	-2.8438	-3.1958	-2.5812	-3.0771	-3.0396	-126.231	126.040	-65.132	184.246	-155.287	-52.785	126.638	142.799	-4.653	-50.413	-63.540	168.831	14.880	-95.632	-36.219	-45.959	0.00044759	0.00060787	7.2013e-05	1214.8	6.8076e-06	3.8702e-06	1316.4	247.62	6.0619e-06	7.9793e-06	317.96	88.136	69.667	20.17	7.5217e-06	28.039	0.00097905	0.0011101	0.0003099	1210.4	1.2073e-05	1.2474e-05	1311.1	249.05	1.2118e-05	1.2399e-05	321.79	90.205	71.278	21.057	1.193e-05	29.012	-41.412	-37.841	-16.211	-145.798	-1.515	-5.137	-145.819	-138.572	-35.079	28.894	-138.729	-132.068	-131.812	-124.064	-14.789	-125.001	-8191	255	
21031.357	1	1	0	0	0.091671	0.17894	0.012455	0.26491	0.15444	0.19286	0.11791	0.09675	0.20297	0.083683	0.1724	0.027632	0.20112	0.40626	0.088109	0.050651	-2.1479	-3.3563	-2.6521	-2.9625	-3.2604	-2.5563	-3.3229	-3.2292	-2.4167	-3.1937	-2.9854	-2.7417	-3.4354	-2.5167	-2.9729	-3.2083	127.523	-31.486	69.212	-156.393	-64.620	64.149	161.236	-39.033	-115.011	-25.477	28.375	48.897	129.795	93.901	-154.787	-13.840	0.00040992	0.00034134	0.00014314	1215.8	3.47e-06	3.4128e-06	1320.9	246.58	1.0663e-05	6.181e-06	317.38	88.37	69.668	20.176	2.2184e-06	27.761	0.0009776	0.0011002	0.00030749	1208.2	1.2131e-05	1.203e-05	1311.5	249.04	1.173e-05	1.2117e-05	320.92	90.186	71.298	21.021	1.2042e-05	29.023	-18.036	-94.285	-131.156	-145.608	-47.395	-153.268	-145.722	-138.684	-10.179	-44.687	-138.614	-132.054	-131.129	-124.554	123.621	-125.209	-8191	255	
21031.430	1	1	0	0	0.086367	0.20458	0.17668	0.26027	0.16571	0.33533	0.27237	0.25726	0.11819	0.15493	0.2759	0.17055	0.17033	0.23066	0.18454	0.11973	-2.1771	-3.2313	-2.8542	-2.7792	-3.3354	-2.5729	-3.1729	-3.0729	-2.3479	-3.1083	-3.0958	-2.5646	-3.4333	-2.6771	-2.9104	-3.3521	97.042	-76.322	-83.588	-87.540	13.918	28.254	132.092	131.160	55.665	67.216	144.883	147.706	-140.229	-11.405	-89.137	-132.514	0.0003789	0.00032069	0.00017522	1219	4.7671e-06	2.1291e-06	1321.3	246.59	2.6234e-06	5.1817e-06	318.94	88.857	69.549	20.03	4.3315e-06	27.984	0.00098788	0.001104	0.00030995	1212.5	1.2064e-05	1.2466e-05	1311.9	249.32	1.2105e-05	1.2328e-05	321.72	90.367	71.361	21.033	1.2331e-05	29.135	-26.164	191.867	-50.256	-145.966	-2.116	-7.212	-145.816	-139.139	80.106	-15.002	-139.029	-132.193	-131.844	-124.198	-12.532	-124.937	-8191	255	
21031.525	1	1	0	0	0.26842	0.092797	0.20435	0.16945	0.23	0.11914	0.31781	0.039646	0.25156	0.22189	0.2447	0.34137	0.075642	0.276	0.22891	0.092107	-1.9917	-2.9688	-2.9375	-2.5917	-3.2792	-2.7646	-2.9354	-3.2979	-2.3792	-3.0604	-3.2292	-2.5646	-3.3396	-2.7542	-2.7104	-3.4271	-104.103	45.783	-64.321	163.698	126.678	57.295	133.284	38.629	-81.003	196.851	105.510	61.988	-132.866	-120.898	153.320	115.098	0.00047742	0.00038397	4.6308e-05	1218.1	4.4574e-06	2.5828e-06	1317.6	248.28	5.8777e-06	4.9137e-06	316.17	88.56	69.547	20.288	4.9932e-06	27.981	0.0010069	0.001105	0.00031218	1210.4	1.1935e-05	1.2381e-05	1309.6	249.99	1.1985e-05	1.2536e-05	320.97	90.372	71.494	21.016	1.2012e-05	29.126	-24.424	13.964	-54.852	-145.703	-73.976	47.608	-145.748	-138.451	-80.093	-40.023	-138.787	-132.399	-131.411	-124.170	-124.983	-124.847	-8191	255	
21031.623	1	1	0	0	0.046305	0.33082	0.053443	0.30102	0.082458	0.13011	0.3605	0.2226	0.25881	0.12841	0.13149	0.1103	0.015786	0.077924	0.13354	0.24731	-2.175	-3.0771	-3.1688	-2.6063	-3.2729	-2.8271	-2.7771	-3.4313	-2.3854	-3.0604	-3.3042	-2.4771	-3.3229	-2.9271	-2.5771	-3.4333	165.669	127.847	-5.745	153.160	130.402	65.199	115.828	-10.951	1.480	36.590	68.646	40.837	-77.362	-14.990	-4.654	96.345	0.00038311	0.00056522	0.00014223	1218.1	3.7586e-06	1.7067e-06	1320.9	247.08	2.3254e-06	5.3549e-06	318.68	87.598	69.406	20.258	3.277e-06	27.862	0.00099792	0.001124	0.00030929	1210.4	1.1812e-05	1.2397e-05	1312	249.32	1.1981e-05	1.2354e-05	321.92	90.186	71.308	21.078	1.2027e-05	29.129	-30.537	-6.440	-93.035	-145.877	15.113	30.830	-145.839	-138.676	-101.797	-66.969	-138.855	-131.816	-131.630	-124.325	-58.671	-124.847	-8191	255	
21031.742	1	1	0	0	0.3016	0.14043	0.16812	0.37489	0.11502	0.28421	0.083377	0.081182	0.13585	0.27935	0.44805	0.217	0.070895	0.089704	0.3095	0.076106	-2.3812	-2.8917	-3.2646	-2.5958	-3.1125	-2.8083	-2.7875	-3.2771	-2.7208	-2.8146	-3.2854	-2.5417	-3.2604	-3.1208	-2.4188	-3.2687	121.594	-59.304	139.027	193.077	145.247	92.500	-148.297	-120.817	35.599	85.882	104.819	149.342	182.345	115.103	0.834	-15.718	0.0003636	0.00038108	6.9781e-05	1218.1	5.058e-06	3.827e-06	1321	248.67	3.4565e-06	8.4187e-07	317.81	87.916	69.982	20.257	9.1358e-06	27.889	0.00099851	0.0011225	0.00030631	1211.4	1.2059e-05	1.232e-05	1309.9	249.4	1.1958e-05	1.2476e-05	321.25	90.204	71.418	21.091	1.2185e-05	29.096	-37.034	-39.915	-91.103	-145.932	33.998	-6.955	-145.937	-138.640	21.030	6.315	-139.042	-132.041	-131.567	-124.017	-33.499	-124.871	-8191	255	
21031.838	1	1	0	0	0.17244	0.10475	0.17257	0.23867	0.056948	0.14816	0.59633	0.064172	0.1404	0.27795	0.25839	0.22393	0.24761	0.16113	0.02669	0.30717	-2.0917	-2.8021	-3.3208	-2.6604	-3.1729	-3.0583	-2.5083	-3.3812	-2.8646	-2.775	-3.3979	-2.5812	-3.1479	-3.0833	-2.4625	-3.4	71.830	-117.084	-83.685	161.912	181.386	57.312	170.749	-14.971	72.583	-78.661	-131.721	-21.184	166.783	22.200	41.043	127.874	0.00038207	0.00019479	6.0364e-05	1221.1	3.9746e-06	1.5146e-06	1319.5	248	9.844e-06	5.403e-06	317.21	88.177	69.875	20.254	6.2769e-06	27.768	0.00098201	0.001117	0.0003059	1210.1	1.1867e-05	1.2133e-05	1311.7	249.28	1.2031e-05	1.2363e-05	321.56	90.316	71.536	21.035	1.2148e-05	29.121	-37.957	-132.850	151.423	-145.697	2.970	42.572	-145.772	-138.433	-45.553	-20.249	-138.944	-131.893	-131.569	-124.331	26.111	-125.124	-8191	255	
21031.934	1	1	0	0	0.21388	0.15922	0.11962	0.22588	0.24662	0.10936	0.19585	0.2722	0.075086	0.24569	0.2358	0.14966	0.26701	0.21782	0.29761	0.17409	-2.5667	-2.5438	-3.2167	-2.6562	-2.9771	-3.0833	-2.9042	-3.3167	-2.75	-2.6354	-3.4021	-2.4667	-2.925	-3.2313	-2.3979	-3.1958	17.364	68.660	7.889	-116.059	105.357	32.242	15.901	146.564	-102.289	-110.643	177.471	-19.649	156.173	-130.852	-6.358	-106.931	0.00046427	0.00063913	8.8904e-05	1217.8	9.1289e-06	6.1153e-06	1320.3	248.35	6.7041e-06	5.0861e-06	320.02	88.321	69.528	20.262	6.5978e-07	27.713	0.00098557	0.0011257	0.00030866	1211.6	1.2063e-05	1.2139e-05	1312.6	249.53	1.1845e-05	1.2156e-05	321.69	90.211	71.458	21.045	1.1857e-05	28.996	-24.716	-66.528	56.835	-145.582	-53.901	18.927	-145.577	-138.320	-20.403	-2.656	-138.394	-131.780	-131.271	-124.216	55.364	-124.890	-8191	255	
21032.029	1	1	0	0	0.16382	0.16639	0.18244	0.37388	0.015616	0.39632	0.21762	0.3409	0.11515	0.21397	0.15727	0.1034	0.39565	0.13627	0.35367	0.23336	-2.5604	-2.4396	-3.1958	-2.5	-2.7396	-3.2833	-2.6375	-3.3104	-2.9958	-2.6312	-3.5833	-2.6292	-2.7083	-3.2979	-2.4813	-3.2792	-128.572	135.378	-10.820	107.208	91.383	-79.837	160.763	203.098	163.555	-30.741	2.840	-90.037	-117.087	99.632	82.001	-105.808	0.00040796	0.00086259	7.8484e-05	1216.2	3.071e-06	4.9538e-07	1314.9	247.47	9.1226e-06	9.4584e-06	318.39	88.575	70.417	20.257	7.6367e-06	27.6	0.00098014	0.001105	0.00030459	1209.9	1.2029e-05	1.2153e-05	1310.2	249.71	1.1961e-05	1.2387e-05	320.85	90.38	71.491	21.019	1.2024e-05	29.016	-22.800	-55.777	-121.643	-145.936	-55.238	29.697	-145.741	-138.577	-57.181	32.169	-138.831	-132.045	-131.625	-124.211	15.225	-124.699	-8191	255	
21032.127	1	1	0	0	0.12548	0.1279	0.1381	0.24633	0.06874	0.18922	0.24717	0.19673	0.28049	0.1849	0.13555	0.054034	0.21998	0.090154	0.12976	0.15277	-2.7354	-2.4083	-3.2938	-2.9167	-2.5625	-3.375	-2.8479	-3.1833	-3.2562	-2.425	-3.4083	-2.7938	-2.6917	-3.3896	-2.4979	-3.1604	21.632	-112.910	176.709	193.411	-25.265	159.435	90.736	189.188	92.937	53.811	118.517	-34.862	-129.674	114.005	126.267	77.387	0.00033776	0.00067439	0.0001438	1215.1	2.7733e-06	9.3271e-07	1317.1	248.91	4.1351e-06	4.7768e-06	316.32	88.513	69.226	20.363	4.2725e-06	28.04	0.00096905	0.0010965	0.00030726	1210.4	1.2113e-05	1.1997e-05	1310.1	249.96	1.1916e-05	1.2469e-05	321.21	90.447	71.36	21.073	1.2377e-05	29.175	-21.350	12.583	-30.904	-145.902	-106.947	96.339	-146.039	-138.605	-16.980	-1.646	-138.895	-132.135	-131.655	-124.571	-10.870	-125.171	-8191	255	
21032.223	1	1	0	0	0.28125	0.28189	0.17419	0.28729	0.40522	0.22817	0.1885	0.17904	0.043923	0.2386	0.095067	0.18027	0.24904	0.045341	0.27284	0.099309	-2.8937	-2.3937	-3.2625	-3.0208	-2.6333	-3.325	-2.9375	-3.0812	-3.2375	-2.5958	-3.2667	-2.8208	-2.5354	-3.4562	-2.6083	-2.9938	106.812	5.556	58.400	143.286	-18.407	-24.989	118.478	143.477	44.317	-141.059	156.776	136.710	-135.632	-124.268	-36.089	127.354	0.0003669	0.00066999	0.00012217	1217.8	3.1691e-06	6.4083e-06	1312.6	247.59	6.3198e-06	2.8818e-06	317.7	87.801	69.842	20.338	5.5483e-06	28.132	0.00098833	0.0011347	0.00030943	1211.7	1.201e-05	1.2337e-05	1309.6	249.53	1.1785e-05	1.2283e-05	321.49	90.194	71.49	21.065	1.2022e-05	29.184	-44.003	-61.621	-62.696	-145.899	-6.884	-15.053	-145.799	-138.565	-30.439	91.568	-138.803	-132.338	-131.776	-124.210	54.768	-124.728	-8191	255	
21032.344	1	1	0	0	0.25797	0.27643	0.077349	0.27835	0.19495	0.31274	0.19128	0.11179	0.24471	0.065675	0.25515	0.216	0.2948	0.066221	0.12635	0.22469	-2.8396	-2.2292	-3.275	-3.0979	-2.5729	-3.2083	-2.8875	-2.8354	-3.4	-2.4521	-3.2854	-3.1458	-2.4917	-3.4167	-2.675	-2.8458	72.198	-69.750	-83.666	170.415	-44.989	104.613	143.805	24.282	-15.666	165.406	176.995	156.413	147.526	185.776	109.523	-29.475	0.00040397	0.00012599	0.00015311	1216.4	4.7718e-06	3.8373e-06	1317.4	247.95	1.1278e-06	3.4002e-06	318.04	88.15	69.881	20.245	7.656e-06	28.065	0.00099061	0.0011361	0.00031696	1211.1	1.2312e-05	1.2428e-05	1311.6	249.97	1.204e-05	1.2347e-05	321.5	90.441	71.473	21.046	1.2116e-05	29.151	-39.972	-130.774	-87.829	-146.142	-43.212	-44.708	-145.922	-138.337	142.062	-113.870	-138.552	-131.844	-131.603	-123.844	-21.124	-125.131	-8191	255	
21032.438	1	1	0	0	0.19237	0.094716	0.026411	0.009772	0.15026	0.079875	0.19399	0.12098	0.31153	0.21734	0.16992	0.37633	0.28829	0.052546	0.10968	0.20446	-3.0667	-2.7146	-3.0521	-3.4167	-2.5958	-3.3354	-3.0625	-2.6	-3.4896	-2.7333	-3.0458	-3.1437	-2.5812	-3.2833	-3.0167	-2.625	23.082	-4.224	41.320	93.075	162.003	5.437	148.780	-84.716	-49.597	3.154	-3.877	162.330	136.776	14.021	102.422	144.717	0.00042591	0.00096535	7.7953e-05	1220.9	5.5121e-06	7.2283e-06	1317	247.79	6.669e-06	5.6243e-06	317.9	87.972	69.862	20.191	1.9322e-06	27.838	0.00097376	0.0011299	0.00031005	1212.4	1.2102e-05	1.2525e-05	1311.5	249.49	1.2148e-05	1.2556e-05	321.32	90.09	71.487	21.053	1.2309e-05	29.078	-40.392	-57.444	-109.474	-145.635	-87.720	26.895	-146.159	-138.565	-12.644	-6.129	-138.673	-131.859	-131.878	-124.390	-21.107	-125.325	-8191	255	
21032.533	1	1	0	0	0.31259	0.043499	0.037689	0.10009	0.11912	0.18578	0.24832	0.16657	0.13008	0.14101	0.09996	0.26741	0.18514	0.14951	0.10238	0.22516	-3.0771	-2.6063	-2.975	-3.4417	-2.6208	-3.3104	-3.1792	-2.7167	-3.4583	-2.7354	-3.0125	-3.5229	-2.6417	-3.2146	-3.1562	-2.6521	-19.177	-5.099	63.811	-115.255	63.597	-77.991	135.876	22.644	-63.119	187.470	19.817	180.678	-152.746	136.406	150.226	128.382	0.00041525	0.00018238	0.00013102	1222.1	8.8012e-06	2.6917e-06	1317.1	247.38	1.9507e-06	4.5825e-06	318.4	88.184	69.559	20.263	6.2789e-06	27.904	0.00099989	0.0011387	0.00031157	1211.9	1.2093e-05	1.2256e-05	1311.4	249.53	1.195e-05	1.2517e-05	322.15	90.168	71.4	21.095	1.2106e-05	29.108	-17.966	-72.260	-51.569	-146.374	-37.603	9.525	-146.154	-138.675	51.288	-39.705	-138.830	-132.366	-131.652	-124.286	-31.433	-125.367	-8191	255	
21032.631	1	1	0	0	0.16849	0.076848	0.26206	0.10895	0.061742	0.17406	0.1363	0.22156	0.14201	0.23191	0.090067	0.13787	0.31219	0.17588	0.093012	0.29993	-2.9833	-2.7958	-2.4958	-3.6604	-2.7	-3.0792	-3.2583	-2.7687	-3.5646	-2.7875	-2.8583	-3.3479	-2.5771	-3.1146	-3.2938	-2.5604	95.744	1.410	-11.685	162.409	-129.522	81.889	135.039	134.557	-106.340	82.616	35.653	-118.306	166.771	-105.603	-101.874	192.517	0.00034776	0.000468	0.00012685	1221.9	1.2257e-06	2.207e-06	1315.6	247.86	4.8755e-06	2.805e-07	317.07	88.368	69.75	20.169	3.6437e-06	28.094	0.0010062	0.0011484	0.00031349	1212.4	1.2299e-05	1.2327e-05	1309.1	249.26	1.1895e-05	1.2445e-05	320.89	90.234	71.574	21.044	1.2026e-05	29.117	-35.688	-110.242	-17.299	-145.651	113.090	6.041	-145.828	-138.499	-18.206	-40.638	-139.040	-132.385	-131.606	-124.695	23.399	-124.914	-8191	255	
21032.727	1	1	0	0	0.11989	0.16325	0.10084	0.29627	0.25845	0.14125	0.21071	0.11331	0.15582	0.058869	0.17501	0.15834	0.086734	0.046931	0.38152	0.13525	-2.9646	-2.9521	-2.6312	-3.4708	-2.6917	-3.1188	-3.3729	-2.6771	-3.2604	-2.8229	-2.6063	-3.5208	-2.6896	-2.9083	-3.2625	-2.3646	85.936	33.020	-56.626	165.771	-90.871	-135.094	95.697	78.291	-9.668	-17.400	180.244	170.802	119.009	-133.157	82.312	154.607	0.00043288	0.00022205	0.0001765	1217.5	1.7754e-06	3.758e-06	1317.7	245.89	2.5674e-06	8.2545e-06	317.08	88.293	69.368	20.324	4.7831e-06	27.733	0.00097064	0.0011057	0.00030608	1210	1.1983e-05	1.2247e-05	1311.5	249.08	1.1985e-05	1.2297e-05	321.19	90.306	71.214	21.086	1.2104e-05	29.053	-41.937	147.603	-125.325	-145.951	88.837	44.908	-145.769	-138.515	61.203	0.871	-138.705	-131.819	-131.527	-124.257	-43.642	-124.752	-8191	255	
21032.822	1	1	0	0	0.14753	0.2537	0.19166	0.10316	0.17722	0.17832	0.22178	0.33872	0.086565	0.17042	0.15654	0.12053	0.12579	0.21771	0.22894	0.13683	-2.9771	-3.0875	-2.65	-3.4313	-2.6604	-3.0625	-3.525	-2.6042	-3.0104	-3.0792	-2.6188	-3.3792	-2.8146	-2.6729	-3.2375	-2.3979	-22.666	184.540	38.240	152.489	131.263	102.755	181.523	148.002	-126.272	-112.365	-52.456	160.489	131.723	-51.452	142.944	56.988	0.00042671	0.00027171	0.00010215	1221.7	9.3799e-06	3.6775e-06	1323.6	247.08	6.0014e-06	1.9947e-06	316.88	88.419	69.815	20.211	3.4682e-06	27.898	0.000996	0.0011203	0.00030845	1211.4	1.1921e-05	1.2095e-05	1310.4	249.2	1.1849e-05	1.2148e-05	320.87	90.243	71.312	21.032	1.1777e-05	29.032	-36.869	-43.794	-35.143	-145.619	14.633	25.320	-145.642	-138.636	-10.535	32.702	-138.884	-132.471	-132.077	-124.674	33.333	-125.517	-8191	255	
21032.918	1	1	0	0	0.046059	0.102	0.3353	0.22535	0.1629	0.33811	0.15698	0.052419	0.31529	0.23089	0.10115	0.19085	0.34545	0.30397	0.24721	0.22567	-2.6583	-3.0479	-2.4542	-3.4208	-2.9042	-2.6875	-3.7104	-2.6833	-3.025	-3.0146	-2.4771	-3.3021	-2.8146	-2.5021	-3.2167	-2.55	107.511	-94.672	-15.838	156.778	-12.389	52.940	193.663	-39.983	-90.575	53.725	56.653	79.728	10.022	-85.020	86.189	127.819	0.00038443	0.00070638	0.00021089	1216.2	3.5014e-06	3.2832e-06	1318.2	248.42	4.1356e-06	6.091e-06	317.02	88.07	68.886	20.287	1.2488e-07	28.078	0.00099088	0.0010928	0.00030377	1210.8	1.1655e-05	1.1948e-05	1310.3	249.37	1.1555e-05	1.1836e-05	321.31	90.127	71.054	21.036	1.1456e-05	29.075	-17.571	-66.545	-71.949	-146.216	17.356	53.110	-146.128	-139.083	-44.144	-35.862	-139.236	-132.263	-132.209	-124.624	-97.448	-125.480	-8191	255	
21033.039	1	1	0	0	0.27155	0.2555	0.13385	0.30524	0.18227	0.17393	0.17889	0.1947	0.19519	0.12348	0.15337	0.042583	0.1706	0.11821	0.14042	0.094576	-2.6667	-3.0021	-2.4271	-3.4521	-2.9208	-2.5646	-3.5708	-2.7687	-2.8833	-3.3458	-2.6458	-3.1625	-3.0333	-2.5542	-3.3917	-2.525	136.469	6.321	-47.353	157.088	187.918	185.535	140.840	-148.733	20.761	-145.390	-112.821	51.558	134.703	1.056	165.638	192.130	0.00046926	0.00041976	8.2174e-05	1215.7	4.3145e-06	2.949e-06	1316.9	246.77	2.6016e-06	4.3542e-06	317.06	88.228	69.625	20.292	4.7651e-06	27.847	0.00094813	0.0010687	0.00030062	1210	1.1708e-05	1.1776e-05	1310.1	249.73	1.1663e-05	1.2041e-05	320.78	90.195	71.138	21.05	1.1813e-05	29.031	-28.116	-23.338	-57.074	-146.259	-60.868	68.115	-146.305	-139.204	-16.304	-57.809	-139.308	-132.188	-132.352	-124.882	-62.378	-125.484	-8191	255	
21033.135	1	1	0	0	0.084553	0.19251	0.079264	0.29435	0.11348	0.16739	0.32766	0.18851	0.17278	0.10784	0.32693	0.054581	0.08054	0.16823	0.10311	0.038389	-2.3729	-3.2896	-2.5187	-3.3563	-2.9833	-2.4208	-3.4	-2.6771	-2.5896	-3.3125	-2.3396	-3.1813	-3.2021	-2.5062	-3.3583	-2.8021	202.089	36.145	60.105	186.280	23.307	128.480	148.260	143.295	-60.788	-18.814	-133.411	-141.428	139.121	64.067	-153.894	-114.934	0.00048569	0.00057535	0.00024766	1216.6	4.9942e-06	3.479e-06	1317.3	247.62	7.4732e-06	4.7397e-07	318.24	88.282	69.504	20.275	4.4423e-06	27.87	0.00096108	0.0010828	0.00030357	1210.8	1.1649e-05	1.1865e-05	1310.5	249.63	1.1426e-05	1.1838e-05	321.15	90.248	71.238	21.028	1.1791e-05	29.042	-23.059	-43.482	-87.839	-146.094	-77.944	-14.527	-146.636	-139.295	-44.807	-100.983	-139.310	-132.644	-132.444	-125.029	2.732	-125.351	-8191	255	
21033.230	1	1	0	0	0.39029	0.1702	0.067849	0.16104	0.20656	0.055822	0.27967	0.15089	0.23757	0.078017	0.17398	0.18298	0.16908	0.25221	0.14576	0.35622	-2.2958	-3.3375	-2.3625	-3.1813	-3.1271	-2.5146	-3.3583	-3.0833	-2.65	-3.2521	-2.5542	-2.8833	-3.1917	-2.5542	-3.1125	-2.9646	-2.693	-43.633	93.379	135.376	115.103	78.872	118.238	143.599	-51.419	-85.430	-135.729	-95.116	-34.778	-148.165	182.094	151.268	0.00041418	0.00047049	0.00016331	1217.6	3.4921e-06	2.8052e-06	1316.7	246.59	4.0473e-06	5.4348e-06	317.72	88.46	69.621	20.19	5.2474e-06	27.853	0.00095961	0.0010828	0.00030258	1210.6	1.1779e-05	1.2165e-05	1309.3	249	1.1793e-05	1.1871e-05	321.02	90.251	71.293	21.023	1.1542e-05	29.003	-23.280	-24.120	-102.171	-146.474	-13.204	26.022	-146.359	-139.254	-86.632	17.142	-139.699	-132.958	-132.469	-124.643	-26.375	-125.487	-8191	255	
21033.303	1	1	0	0	0.30877	0.1119	0.10666	0.28732	0.40542	0.18774	0.37011	0.15319	0.23907	0.15341	0.13142	0.078047	0.073125	0.14152	0.41729	0.034786	-2.1188	-3.2604	-2.5292	-3.1271	-3.2417	-2.5792	-3.3896	-3.1792	-2.4833	-3.2854	-2.6146	-2.9375	-3.4604	-2.3417	-3.0375	-3.0146	87.922	74.332	119.821	190.714	-131.004	-65.232	143.571	116.087	1.112	-86.259	59.293	-117.366	-69.504	169.780	-120.702	45.714	0.00039793	0.00032855	0.00013478	1214.7	9.0132e-06	2.7526e-06	1318.7	247.63	1.5347e-06	4.2233e-06	316.35	88.088	69.659	20.241	2.0845e-06	27.764	0.00094872	0.0010626	0.00029785	1208.9	1.158e-05	1.1904e-05	1311.1	248.88	1.1658e-05	1.2033e-05	320.89	90.077	71.316	21.008	1.173e-05	29.012	-29.941	-85.790	-74.870	-146.618	11.816	5.449	-146.479	-139.404	-34.505	8.756	-139.535	-132.781	-132.212	-125.089	-109.417	-125.809	-8191	255	
21033.424	1	1	0	0	0.092061	0.037048	0.036142	0.11342	0.097627	0.22489	0.27713	0.23295	0.28102	0.17164	0.048475	0.18249	0.12116	0.22416	0.099121	0.19191	-2.0792	-3.1875	-2.625	-2.8417	-3.3708	-2.5083	-3.3063	-3.1667	-2.5292	-3.3438	-3	-2.9521	-3.3396	-2.5438	-2.9313	-3.1292	-126.676	-28.903	-46.374	153.753	21.892	-36.570	174.550	-130.077	-137.582	82.372	150.549	125.999	164.740	-131.224	-99.129	120.932	0.00043334	0.00057612	5.3273e-05	1215	3.89e-06	5.6998e-06	1316.2	248.66	6.2216e-06	3.9021e-06	318.03	87.8	69.893	20.184	9.5346e-06	27.898	0.00096892	0.0010933	0.00030304	1208.7	1.1702e-05	1.2148e-05	1310.6	249.4	1.172e-05	1.208e-05	321.15	90.048	71.331	21.017	1.1834e-05	29.057	-19.737	-70.520	-19.899	-146.387	-118.924	9.420	-146.472	-139.298	-27.822	63.254	-139.374	-132.881	-132.237	-124.939	-18.290	-125.658	-8191	255	
#DATA ENDS
