BOXY.EXE: ISS Imagent and Oximeter Data Acquisition Program Version 0.80
Ascii Record File

#ACQ INFORMATION
2  Detector Channels 
16  External MUX Channels 
1  Auxiliary Channels 
5000  Waveform (CCF) Frequency (Hz)
1  Waveforms Skipped 
30  Waveforms Averaged 
1  Cycles Averaged 
16  Acquisitions per Waveform 
10.0806  Updata Rate (Hz) 

#FILE INFORMATION
TRUE -- External MUX Channel results are PARSED.
FALSE -- AC DC and Phase are NOT grouped.
TRUE -- Companion Program Settings File CREATED.
FALSE -- AC data not excluded
FALSE -- DC data not excluded
FALSE -- Phase data not excluded
FALSE -- Auxillary Chn. data not excluded
Tab delimiters

#CALIBRATION STATE
TRUE -- Waveform Calibration Values APPLIED.


#AUX CALIBRATION VALUES
Val Type	aux-1	

Term	1.0000e+00	
Factor	0.0000e+00	


#WF CALIBRATION VALUES
A = Detector Channel
Val Type	A-AC1	A-AC2	A-AC3	A-AC4	A-AC5	A-AC6	A-AC7	A-AC8	A-AC9	A-AC10	A-AC11	A-AC12	A-AC13	A-AC14	A-AC15	A-AC16	A-DC1	A-DC2	A-DC3	A-DC4	A-DC5	A-DC6	A-DC7	A-DC8	A-DC9	A-DC10	A-DC11	A-DC12	A-DC13	A-DC14	A-DC15	A-DC16	A-Ph1	A-Ph2	A-Ph3	A-Ph4	A-Ph5	A-Ph6	A-Ph7	A-Ph8	A-Ph9	A-Ph10	A-Ph11	A-Ph12	A-Ph13	A-Ph14	A-Ph15	A-Ph16	

Term	0.00000e+00	0.00000e+00	0.00000e+00	0.00000e+00	0.00000e+00	0.00000e+00	0.00000e+00	0.00000e+00	0.00000e+00	0.00000e+00	0.00000e+00	0.00000e+00	0.00000e+00	0.00000e+00	0.00000e+00	0.00000e+00	0.00000e+00	0.00000e+00	0.00000e+00	0.00000e+00	0.00000e+00	0.00000e+00	0.00000e+00	0.00000e+00	0.00000e+00	0.00000e+00	0.00000e+00	0.00000e+00	0.00000e+00	0.00000e+00	0.00000e+00	0.00000e+00	0.00000e+00	0.00000e+00	0.00000e+00	0.00000e+00	0.00000e+00	0.00000e+00	0.00000e+00	0.00000e+00	0.00000e+00	0.00000e+00	0.00000e+00	0.00000e+00	0.00000e+00	0.00000e+00	0.00000e+00	0.00000e+00	
Factor	1.00000e+00	1.00000e+00	1.00000e+00	1.00000e+00	1.00000e+00	1.00000e+00	1.00000e+00	1.00000e+00	1.00000e+00	1.00000e+00	1.00000e+00	1.00000e+00	1.00000e+00	1.00000e+00	1.00000e+00	1.00000e+00	1.00000e+00	1.00000e+00	1.00000e+00	1.00000e+00	1.00000e+00	1.00000e+00	1.00000e+00	1.00000e+00	1.00000e+00	1.00000e+00	1.00000e+00	1.00000e+00	1.00000e+00	1.00000e+00	1.00000e+00	1.00000e+00	X	X	X	X	X	X	X	X	X	X	X	X	X	X	X	X	

B = Detector Channel
Val Type	B-AC1	B-AC2	B-AC3	B-AC4	B-AC5	B-AC6	B-AC7	B-AC8	B-AC9	B-AC10	B-AC11	B-AC12	B-AC13	B-AC14	B-AC15	B-AC16	B-DC1	B-DC2	B-DC3	B-DC4	B-DC5	B-DC6	B-DC7	B-DC8	B-DC9	B-DC10	B-DC11	B-DC12	B-DC13	B-DC14	B-DC15	B-DC16	B-Ph1	B-Ph2	B-Ph3	B-Ph4	B-Ph5	B-Ph6	B-Ph7	B-Ph8	B-Ph9	B-Ph10	B-Ph11	B-Ph12	B-Ph13	B-Ph14	B-Ph15	B-Ph16	

Term	0.00000e+00	0.00000e+00	0.00000e+00	0.00000e+00	0.00000e+00	0.00000e+00	0.00000e+00	0.00000e+00	0.00000e+00	0.00000e+00	0.00000e+00	0.00000e+00	0.00000e+00	0.00000e+00	0.00000e+00	0.00000e+00	0.00000e+00	0.00000e+00	0.00000e+00	0.00000e+00	0.00000e+00	0.00000e+00	0.00000e+00	0.00000e+00	0.00000e+00	0.00000e+00	0.00000e+00	0.00000e+00	0.00000e+00	0.00000e+00	0.00000e+00	0.00000e+00	-1.07200e+00	-1.36101e+02	-1.26972e+02	-1.81145e+02	-5.74851e+01	-6.50972e+01	-1.58196e+02	-1.62015e+02	-4.24239e+01	-6.52151e+01	-1.70310e+02	-1.70117e+02	-1.81676e+02	-1.76501e+02	-5.94616e+01	-1.49355e+02	
Factor	3.59234e-05	1.59826e-04	4.90676e-05	1.61587e-01	1.97099e-06	1.44992e-06	1.72205e-01	5.96698e-02	2.11306e-06	1.83272e-06	9.39561e-02	3.22471e-02	2.84731e-02	9.54445e-03	1.94426e-06	1.34256e-02	6.52020e-06	7.84418e-06	2.17318e-06	8.29810e-02	8.31184e-08	8.62690e-08	8.30464e-02	3.06820e-02	8.29478e-08	8.64596e-08	4.68418e-02	1.60686e-02	1.47170e-02	4.95140e-03	8.44639e-08	6.74576e-03	X	X	X	X	X	X	X	X	X	X	X	X	X	X	X	X	



#DISTANCE SETTINGS
A = Detector Channel
A-1	A-2	A-3	A-4	A-5	A-6	A-7	A-8	A-9	A-10	A-11	A-12	A-13	A-14	A-15	A-16	

2.5000e+00	3.0000e+00	2.5000e+00	3.0000e+00	2.0000e+00	3.0000e+00	1.5000e+00	3.0000e+00	3.0000e+00	3.0000e+00	3.0000e+00	3.0000e+00	3.0000e+00	3.0000e+00	1.5000e+00	3.0000e+00	

B = Detector Channel
B-1	B-2	B-3	B-4	B-5	B-6	B-7	B-8	B-9	B-10	B-11	B-12	B-13	B-14	B-15	B-16	

1.0000e+01	1.0000e+01	1.0000e+01	1.4400e+00	1.0000e+01	1.0000e+01	1.5100e+00	1.9400e+00	1.0000e+01	1.0000e+01	1.9900e+00	2.4900e+00	2.4100e+00	2.9000e+00	1.0000e+01	2.9800e+00	




#DATA BEGINS
time	group	step	mark	flag	A-AC1	A-AC2	A-AC3	A-AC4	A-AC5	A-AC6	A-AC7	A-AC8	A-AC9	A-AC10	A-AC11	A-AC12	A-AC13	A-AC14	A-AC15	A-AC16	A-DC1	A-DC2	A-DC3	A-DC4	A-DC5	A-DC6	A-DC7	A-DC8	A-DC9	A-DC10	A-DC11	A-DC12	A-DC13	A-DC14	A-DC15	A-DC16	A-Ph1	A-Ph2	A-Ph3	A-Ph4	A-Ph5	A-Ph6	A-Ph7	A-Ph8	A-Ph9	A-Ph10	A-Ph11	A-Ph12	A-Ph13	A-Ph14	A-Ph15	A-Ph16	B-AC1	B-AC2	B-AC3	B-AC4	B-AC5	B-AC6	B-AC7	B-AC8	B-AC9	B-AC10	B-AC11	B-AC12	B-AC13	B-AC14	B-AC15	B-AC16	B-DC1	B-DC2	B-DC3	B-DC4	B-DC5	B-DC6	B-DC7	B-DC8	B-DC9	B-DC10	B-DC11	B-DC12	B-DC13	B-DC14	B-DC15	B-DC16	B-Ph1	B-Ph2	B-Ph3	B-Ph4	B-Ph5	B-Ph6	B-Ph7	B-Ph8	B-Ph9	B-Ph10	B-Ph11	B-Ph12	B-Ph13	B-Ph14	B-Ph15	B-Ph16	aux-1	digaux	

20989.271	1	1	0	256	0.13054	0.18837	0.11286	0.1993	0.15809	0.1021	0.19941	0.14139	0.13976	0.064876	0.35709	0.13355	0.050124	0.16435	0.18065	0.095879	-3.1292	-2.8792	-3.0521	-3.4083	-2.6813	-3.3354	-3.4271	-2.9042	-3.2375	-2.8083	-2.9813	-3.5875	-2.7604	-3.175	-3.3396	-2.6875	122.164	-138.122	46.916	37.898	181.125	116.112	147.041	108.014	-3.203	67.175	31.842	149.072	66.950	-126.565	97.855	-14.383	0.0004134	0.00025889	0.00015492	1058.8	5.5312e-06	2.5151e-06	1168.3	216.41	3.4204e-06	4.0157e-06	280.48	78.562	60.982	17.916	2.7225e-06	25.128	0.00058435	0.00062698	0.00017744	1047.6	7.1061e-06	7.1718e-06	1155.7	217.43	7.0241e-06	7.0805e-06	281.91	79.701	62.01	18.377	6.9079e-06	25.922	-32.771	13.866	-52.340	-145.683	9.861	-66.879	-146.191	-138.306	-24.621	45.352	-138.483	-131.707	-131.359	-124.433	-68.402	-124.615	-8191	255	
20989.365	1	1	0	0	0.31236	0.23132	0.33774	0.13646	0.084407	0.14891	0.08484	0.098315	0.081099	0.097958	0.19738	0.07295	0.059981	0.11486	0.065347	0.0050118	-3.0958	-3.0438	-2.7354	-3.6792	-2.6833	-3.3438	-3.5958	-2.9062	-3.4417	-2.9229	-2.8604	-3.4854	-2.8688	-2.8958	-3.4667	-2.6979	20.265	154.178	-126.538	146.549	49.303	157.430	157.063	-92.489	-71.847	-108.513	164.662	12.047	-90.792	110.178	51.727	-24.232	0.00040626	0.00047087	9.0343e-05	1059.8	1.108e-06	1.7025e-06	1171.6	218.32	2.8653e-06	3.7281e-06	281.35	79.239	61.011	17.847	6.13e-06	25.089	0.00057204	0.00063258	0.00017127	1050.8	6.7322e-06	6.7522e-06	1158.7	218.38	6.5335e-06	6.766e-06	282.14	79.91	61.964	18.337	6.6151e-06	25.892	-29.913	-86.349	-69.961	-145.674	-87.031	22.233	-145.873	-138.274	-7.461	-13.301	-138.276	-131.776	-131.429	-123.539	-41.689	-124.343	-8191	255	
20989.463	1	1	0	0	0.33401	0.039231	0.17149	0.32084	0.083093	0.20555	0.10465	0.16505	0.14792	0.047339	0.12615	0.28107	0.20857	0.096534	0.10735	0.1552	-2.9771	-3.15	-2.8125	-3.6	-2.8104	-2.7854	-3.5854	-2.7062	-3.3042	-3.2687	-2.6813	-3.3896	-2.8979	-2.7604	-3.5187	-2.8625	189.846	49.278	34.179	142.422	-71.754	200.402	169.176	193.860	20.687	192.228	-43.622	21.884	79.422	-36.272	18.132	90.011	0.00029675	0.00026882	7.2795e-05	1059	3.8243e-06	4.669e-06	1167	217.79	5.422e-06	4.9193e-06	281.08	78.654	61.271	17.904	7.3869e-06	25.139	0.00056248	0.00061181	0.0001749	1047.6	6.7229e-06	6.8534e-06	1156	217.92	6.6085e-06	6.884e-06	281.92	79.693	61.962	18.312	6.3707e-06	25.877	-29.864	-63.585	-94.657	-145.917	94.882	-11.965	-145.804	-138.276	-29.598	7.532	-138.587	-131.740	-131.255	-123.822	-16.418	-124.675	-8191	255	
20989.559	1	1	0	0	0.11409	0.11018	0.2728	0.30153	0.085497	0.067571	0.28063	0.30032	0.10931	0.18697	0.21863	0.18199	0.31836	0.066765	0.20723	0.19325	-2.9875	-3.4062	-2.7479	-3.5958	-2.8333	-2.85	-3.6917	-2.7896	-3.1833	-3.4125	-2.7271	-3.5104	-3.0542	-2.7021	-3.5438	-2.8146	138.426	124.797	20.420	157.979	144.859	-66.693	74.577	101.428	-129.292	127.215	-102.354	-105.900	-154.517	113.943	176.572	-5.018	0.00033503	0.00025511	0.00019515	1057.7	5.5922e-06	3.4698e-06	1163.4	217.32	5.2586e-06	4.5081e-06	280.57	79.495	61.511	17.853	5.0963e-06	25.359	0.00053406	0.00057336	0.00016098	1047.4	6.2829e-06	6.2119e-06	1154.9	217.55	6.058e-06	5.9284e-06	281.96	79.859	62.035	18.357	5.9026e-06	25.895	-22.806	-37.633	-29.478	-145.706	-17.681	45.717	-145.668	-138.234	-12.644	54.268	-138.325	-131.806	-130.859	-123.647	11.403	-124.122	-8191	255	
20989.654	1	1	0	0	0.093957	0.12333	0.22145	0.074823	0.13022	0.16515	0.12625	0.43049	0.20674	0.071856	0.31564	0.34933	0.27161	0.088236	0.073564	0.17189	-2.7583	-3.325	-2.6937	-3.4104	-3.0604	-2.8354	-3.6437	-3.0417	-3.15	-3.55	-2.6	-3.4396	-3.0625	-2.6792	-3.4188	-2.9104	-120.464	182.759	-63.265	-136.692	52.226	148.342	143.636	170.542	97.701	124.475	43.046	-138.186	141.625	177.309	-153.278	150.318	0.00038734	0.00037842	0.00010162	1060	4.2875e-06	4.3181e-06	1161.6	217.75	1.2199e-06	2.3272e-06	282.27	78.666	61.176	17.944	1.8286e-06	25.183	0.00050909	0.00054836	0.00015183	1048.3	6.107e-06	6.1068e-06	1154.6	217.74	6.1974e-06	6.447e-06	282.4	79.74	62.064	18.39	6.2498e-06	25.842	-25.495	-53.752	-85.384	-145.332	-41.499	-1.764	-145.665	-138.007	55.459	30.057	-138.428	-131.594	-131.069	-124.117	-20.311	-124.583	-8191	255	
20989.775	1	1	0	0	0.18864	0.24985	0.18559	0.13639	0.24697	0.32348	0.17466	0.19298	0.019504	0.042554	0.2338	0.23905	0.050275	0.27971	0.25696	0.1611	-2.5604	-3.375	-2.6833	-3.4125	-3.2771	-2.6813	-3.7188	-2.9146	-2.875	-3.4188	-2.8167	-3.3042	-3.2313	-2.5771	-3.2479	-2.9667	-9.736	153.233	172.125	-153.288	-90.766	132.964	7.342	128.303	96.760	-22.686	179.313	-106.114	99.719	-102.512	175.271	195.284	0.00042551	0.0003686	3.7334e-05	1058.5	3.9245e-06	2.6285e-06	1169	218.37	3.487e-06	4.3606e-06	281.1	78.958	61.147	17.917	3.3136e-06	25.35	0.00053481	0.00056905	0.00015709	1049.4	6.1438e-06	6.1037e-06	1156.3	217.8	6.0915e-06	6.1844e-06	282.32	79.834	61.897	18.335	6.0946e-06	25.933	-17.209	-115.628	52.258	-145.623	36.274	0.091	-145.617	-138.578	-22.014	-30.450	-138.639	-131.434	-131.347	-123.850	-51.536	-124.428	-8191	255	
20989.871	1	1	0	0	0.295	0.21817	0.030008	0.10922	0.17201	0.20202	0.32754	0.20684	0.0168	0.21169	0.026957	0.17467	0.097225	0.045986	0.10129	0.13151	-2.6021	-3.4229	-2.5646	-3.1896	-3.4271	-2.5896	-3.5875	-2.8563	-2.6958	-3.5125	-2.8375	-3.2396	-3.3167	-2.7562	-3.2708	-3.0792	82.362	-29.787	199.753	186.098	-111.916	108.795	186.978	96.173	103.504	114.642	16.800	159.578	137.889	-56.932	21.344	97.083	0.00038851	0.00028034	0.00018372	1062.5	3.3682e-06	4.3249e-06	1168.4	217.2	2.4734e-06	3.6446e-06	281.08	79.174	61.667	17.853	2.8669e-06	25.303	0.00051982	0.00056339	0.00015796	1052.1	6.0443e-06	6.0978e-06	1158.5	217.74	6.1003e-06	6.0005e-06	282.34	79.897	62.046	18.312	5.9888e-06	25.924	-35.901	-98.544	-48.473	-145.621	35.091	-44.469	-145.687	-138.522	70.892	16.974	-138.286	-131.903	-131.430	-123.932	-40.035	-124.663	-8191	255	
20989.967	1	1	0	0	0.15157	0.24564	0.22199	0.14998	0.028501	0.14499	0.38808	0.12283	0.22499	0.12263	0.14887	0.040971	0.16485	0.32065	0.20035	0.08102	-2.5	-3.3333	-2.7875	-3.125	-3.5083	-2.6646	-3.3917	-3.1937	-2.6	-3.3708	-2.8292	-2.9708	-3.2771	-2.5438	-3.2333	-3.0479	-67.725	28.539	187.533	-154.621	190.052	-150.565	94.857	19.097	57.172	102.126	68.818	-71.187	39.454	168.610	-24.231	157.998	0.00040051	0.00015547	7.1524e-05	1059.9	3.0403e-06	4.2502e-06	1167.1	217.05	1.9635e-06	6.3451e-06	280.49	79.177	61.401	17.699	5.6965e-07	25.169	0.00052235	0.00055261	0.00015469	1049.7	5.9727e-06	6.059e-06	1156.5	217.53	5.8086e-06	5.9293e-06	281.36	79.79	61.995	18.266	5.5757e-06	25.824	-32.255	12.616	-33.358	-145.420	-116.865	-3.233	-145.481	-137.969	-63.669	17.279	-138.916	-132.029	-131.644	-123.519	11.575	-124.376	-8191	255	
20990.062	1	1	0	0	0.24057	0.1066	0.11991	0.12001	0.13986	0.27815	0.097112	0.02105	0.15281	0.085312	0.20314	0.13749	0.10639	0.095198	0.017021	0.1279	-2.3604	-3.2521	-2.7979	-3.0417	-3.5125	-2.7167	-3.2917	-3.3896	-2.7313	-3.3667	-2.9271	-2.8771	-3.5146	-2.7167	-3.1188	-3.3479	-71.017	-111.416	73.388	188.833	166.683	61.403	25.812	31.262	-46.990	128.861	87.944	140.355	22.825	-23.039	142.537	161.995	0.00036046	0.0003378	6.7642e-05	1057.9	1.3321e-06	4.2331e-06	1167.7	216.93	4.0369e-06	6.1612e-06	279.74	79.014	60.99	17.787	3.4263e-07	25.261	0.00048619	0.00052205	0.00014512	1048.2	5.6825e-06	5.7863e-06	1153.5	217.01	5.591e-06	5.5073e-06	280.11	79.754	61.696	18.225	5.1776e-06	25.848	-34.730	-61.227	28.916	-145.509	4.548	-44.600	-145.601	-138.191	-9.495	-15.643	-138.562	-131.623	-131.168	-123.685	144.458	-124.370	-8191	255	
20990.135	1	1	0	0	0.16591	0.23756	0.1902	0.096147	0.05153	0.22607	0.13301	0.20332	0.12569	0.12871	0.12757	0.20372	0.1183	0.049668	0.12323	0.11895	-2.4688	-3.2979	-2.9708	-2.7896	-3.5333	-2.9042	-3.0563	-3.3708	-2.5563	-3.4313	-3.3271	-2.6583	-3.5458	-2.7604	-3.0292	-3.4188	33.903	62.050	162.150	128.335	74.293	5.933	9.694	-116.348	-101.180	-47.629	-33.278	168.448	46.106	122.238	-127.079	-150.654	0.00039812	0.00011085	0.00011186	1054.5	6.4426e-06	8.7888e-07	1162	216.17	3.327e-06	2.8017e-06	280.01	78.905	60.961	17.701	4.3586e-06	25.055	0.0004453	0.00047251	0.00012946	1040.9	5.07e-06	5.1219e-06	1146.6	216.12	5.0982e-06	5.2043e-06	279.96	79.38	61.651	18.156	5.1989e-06	25.686	-26.492	184.870	-55.156	-145.485	9.719	73.078	-145.528	-138.331	2.577	-68.295	-138.178	-131.721	-131.184	-123.731	25.165	-125.221	-8191	255	
20990.256	1	1	0	0	0.07089	0.21232	0.12067	0.20189	0.2608	0.083765	0.1556	0.13136	0.11533	0.13322	0.21263	0.12238	0.15681	0.20674	0.044786	0.20801	-2.3438	-3.4104	-3.1604	-2.75	-3.3417	-2.7833	-3.0292	-3.6188	-2.7125	-3.2812	-3.3792	-2.5896	-3.5771	-3.0729	-2.8729	-3.6188	160.046	26.731	-84.783	184.974	139.008	93.619	178.747	-112.729	140.590	104.204	113.504	72.148	-149.938	-155.614	98.242	127.868	0.00039973	0.00037928	4.6782e-05	1049.9	4.2759e-06	3.0763e-06	1157.4	215.29	3.7625e-07	4.8075e-06	278.41	78.205	60.828	17.89	4.1116e-06	25.05	0.00044998	0.00048052	0.0001328	1038.1	5.2309e-06	5.0555e-06	1144.3	215.71	5.1621e-06	5.2839e-06	279.43	79.152	61.543	18.2	5.2866e-06	25.695	-36.093	-84.180	-100.531	-145.856	-56.221	20.697	-145.899	-138.473	-72.764	18.157	-138.800	-132.163	-131.495	-123.994	11.015	-124.814	-8191	255	
20990.352	1	1	0	0	0.19122	0.31129	0.023834	0.29367	0.12102	0.19622	0.04752	0.089911	0.13262	0.27086	0.15923	0.19817	0.26624	0.021089	0.25924	0.13642	-2.2188	-3.2896	-3.3	-2.7188	-3.3917	-3.1146	-2.8646	-3.4875	-2.6688	-3.0875	-3.3875	-2.625	-3.4771	-3.0979	-2.6562	-3.3792	-62.553	31.619	189.662	159.667	115.449	-3.379	-136.226	162.624	-19.965	-34.692	118.974	193.330	-106.907	7.691	-15.465	116.254	0.00034117	0.00044907	7.9948e-05	1044.2	5.9673e-06	1.8757e-06	1151.7	216.28	2.2518e-06	2.9149e-06	279.2	78.806	61.312	17.875	4.356e-06	24.96	0.00045707	0.00048812	0.00013451	1035.7	5.2939e-06	5.2428e-06	1142.5	215.69	5.1514e-06	5.2569e-06	279.41	79.179	61.7	18.221	5.1606e-06	25.7	-34.030	-54.515	-38.355	-145.666	-33.857	-8.462	-145.296	-137.977	-64.488	-16.259	-138.444	-131.826	-131.357	-124.097	13.659	-124.746	-8191	255	
20990.445	1	1	0	0	0.15299	0.11782	0.098442	0.19739	0.26115	0.42754	0.21218	0.1049	0.21248	0.089366	0.22906	0.16934	0.14347	0.10672	0.14557	0.17752	-2.3521	-3.0812	-3.3937	-2.7417	-3.1604	-3.1688	-2.9646	-3.3396	-2.7958	-3.1813	-3.3417	-2.6479	-3.3021	-3.2	-2.6562	-3.5604	184.021	-76.898	6.638	202.496	62.002	-50.997	124.500	-38.592	-29.720	80.669	-140.555	132.355	134.269	34.196	-46.560	88.604	0.00041305	8.8093e-05	0.00015175	1045.8	3.9842e-06	2.2403e-06	1151	217.62	8.7594e-06	1.4655e-06	278.77	78.943	61.297	17.808	5.5578e-06	24.996	0.00045167	0.00047771	0.00012925	1036.2	5.0101e-06	5.1769e-06	1141.3	215.96	5.1459e-06	5.2665e-06	278.75	79.247	61.585	18.188	5.1539e-06	25.631	-23.227	137.078	-67.580	-145.473	-81.221	27.399	-145.561	-138.110	-34.108	164.367	-138.147	-131.851	-130.996	-123.381	21.332	-124.764	-8191	255	
20990.545	1	1	0	0	0.090765	0.097596	0.20068	0.38336	0.18355	0.17812	0.19531	0.09937	0.24422	0.28067	0.11058	0.29216	0.14633	0.21334	0.29437	0.26968	-2.5021	-2.7896	-3.3	-2.8979	-3.3708	-3.2042	-2.7562	-3.5167	-2.9167	-2.8042	-3.5896	-2.6333	-3.2417	-3.2521	-2.6562	-3.3563	-100.688	136.388	79.275	136.991	149.956	-40.817	101.508	-26.167	49.438	-32.616	174.084	92.963	-39.801	150.618	159.953	112.667	0.0003823	0.00026131	9.9282e-05	1049.2	4.4832e-06	3.3448e-06	1152.6	215.32	2.7934e-06	6.0378e-06	278.21	78.698	60.861	17.749	5.6188e-06	25.082	0.00044029	0.00047178	0.00012885	1035.8	5.1272e-06	5.0435e-06	1142.6	215.42	5.2378e-06	5.2059e-06	279.22	79.125	61.51	18.221	5.2598e-06	25.658	-23.044	-51.611	-58.695	-145.803	-5.701	-14.925	-146.004	-138.289	-5.618	17.918	-138.623	-132.080	-131.850	-123.993	-59.272	-124.886	-8191	255	
20990.662	1	1	0	0	0.060962	0.19161	0.0192	0.21468	0.167	0.28992	0.15107	0.3073	0.19489	0.20782	0.25701	0.21887	0.075136	0.33639	0.11857	0.08624	-2.725	-2.7313	-3.2854	-2.7875	-3.2062	-3.425	-2.6708	-3.2958	-3.1208	-2.925	-3.55	-2.8208	-3.0687	-3.2271	-2.7062	-3.4229	183.567	-138.831	202.064	65.510	-153.977	-116.406	176.716	-145.940	179.368	-111.896	179.304	177.184	200.558	175.014	35.089	-22.418	0.00036156	0.00019226	0.0001021	1045.9	3.2804e-06	1.3324e-06	1151.9	215.4	4.464e-06	2.8942e-06	281.25	78.423	61.573	17.863	1.8569e-06	25.015	0.00046401	0.00048729	0.00013026	1034.9	5.3374e-06	5.2367e-06	1141.6	215.94	5.1621e-06	5.32e-06	279.73	79.178	61.652	18.152	5.1349e-06	25.641	-23.372	-13.039	-96.118	-145.795	-27.268	150.457	-145.882	-138.603	-55.319	8.203	-138.599	-131.958	-131.597	-123.927	-137.792	-124.470	-8191	255	
20990.760	1	1	0	0	0.07889	0.16812	0.43136	0.034319	0.17551	0.11229	0.21548	0.2555	0.12246	0.20218	0.26281	0.089794	0.20975	0.18099	0.18733	0.031562	-2.8542	-2.6833	-3.5417	-3.1479	-2.925	-3.4188	-2.8271	-3.3646	-3.3417	-2.6354	-3.5354	-2.9188	-2.8771	-3.4396	-2.7687	-3.3104	91.879	52.844	176.824	-56.257	-116.866	-98.325	169.468	181.622	61.851	-96.880	-62.790	198.129	113.689	-90.198	-73.759	113.982	0.00036942	0.00029259	0.00010287	1042.1	5.4596e-06	2.636e-06	1156.8	216.66	4.6882e-06	2.3259e-06	279.12	78.315	60.915	17.827	4.6569e-06	24.915	0.00044265	0.00047222	0.00013281	1032.5	5.2489e-06	5.1947e-06	1141.1	215.6	5.2677e-06	5.4115e-06	279.25	79.179	61.622	18.185	5.333e-06	25.645	-25.849	-102.892	-67.379	-145.856	-16.353	-50.981	-145.613	-138.355	-35.471	-61.824	-138.487	-131.682	-131.153	-123.817	21.834	-124.987	-8191	255	
20990.855	1	1	0	0	0.29636	0.042227	0.23372	0.39449	0.058912	0.18372	0.21013	0.19194	0.14406	0.099583	0.15232	0.12383	0.27935	0.25617	0.061483	0.11253	-2.7938	-2.5708	-3.3896	-3.0146	-2.7313	-3.55	-2.8187	-3.1667	-3.3563	-2.5312	-3.4938	-3.0708	-2.7396	-3.3833	-2.7854	-3.1667	104.933	-134.751	194.946	165.082	-12.725	82.107	-0.810	-132.330	-108.508	-39.604	-127.572	62.862	-126.250	-152.251	58.306	194.761	0.00034716	0.00034465	0.00017675	1043.8	5.7671e-06	3.831e-06	1155	215.88	5.0155e-06	3.5351e-06	279.12	78.752	60.731	17.567	2.2872e-06	24.969	0.00046198	0.00050809	0.0001369	1034.6	5.5168e-06	5.3868e-06	1140.4	215.95	5.1319e-06	5.401e-06	280.4	79.049	61.316	18.086	5.4192e-06	25.719	-22.853	-110.948	-55.174	-145.646	8.578	2.014	-145.653	-138.311	15.206	-10.739	-138.618	-132.012	-131.279	-123.749	42.507	-124.569	-8191	255	
20990.951	1	1	0	0	0.055168	0.21601	0.11508	0.0071842	0.052624	0.16235	0.28305	0.058421	0.1903	0.29443	0.098925	0.16736	0.091448	0.19015	0.15006	0.076252	-3.0167	-2.6188	-3.3917	-3.25	-2.5875	-3.4875	-3.0312	-3.1292	-3.5521	-2.5521	-3.325	-3.2417	-2.6167	-3.6188	-2.9646	-3.0938	45.022	133.503	168.721	118.190	-128.025	-21.296	145.007	26.731	121.700	-79.679	67.908	51.676	-31.055	-49.870	48.974	182.184	0.00034575	0.00012297	0.00010916	1044.7	2.3204e-06	2.6679e-06	1152.2	215.35	3.1478e-06	9.2182e-07	278.54	78.39	61.243	17.643	5.5369e-06	25.003	0.00045396	0.00048835	0.00013251	1035.2	5.2728e-06	5.3165e-06	1140.4	215.68	5.3399e-06	5.2953e-06	279.07	78.972	61.575	18.127	5.1556e-06	25.637	-23.671	184.711	-136.214	-145.663	-43.402	-25.025	-145.757	-138.103	15.178	-39.647	-138.499	-132.012	-131.515	-124.257	-30.840	-124.365	-8191	255	
20991.047	1	1	0	0	0.34135	0.15975	0.20452	0.27792	0.23769	0.20902	0.11282	0.15902	0.11792	0.21527	0.050077	0.17913	0.42021	0.058578	0.17942	0.072447	-3.1354	-2.7417	-3.3896	-3.425	-2.7417	-3.6396	-3.0812	-2.9458	-3.7271	-2.7875	-3.4021	-3.5625	-2.7396	-3.4521	-3.0396	-2.8229	105.517	113.433	191.036	-142.993	29.825	-95.523	106.320	81.369	1.108	135.697	-89.775	125.532	106.345	-100.677	-113.939	150.731	0.00037031	8.892e-05	8.9563e-05	1044.6	2.2141e-06	3.4654e-06	1157.9	216.39	5.0773e-06	1.3082e-06	278.82	78.305	61.012	17.68	9.6826e-07	25.301	0.00044981	0.00047796	0.00013232	1033.8	5.2072e-06	5.1569e-06	1142.5	215.68	5.2166e-06	5.3097e-06	279.32	79.049	61.521	18.168	5.2878e-06	25.688	-24.933	-138.586	-91.667	-145.659	-46.317	-25.699	-145.509	-138.501	-2.232	49.552	-138.268	-131.587	-131.443	-124.160	-50.767	-124.471	-8191	255	
20991.143	1	1	0	0	0.1899	0.26892	0.15406	0.16399	0.1492	0.061127	0.1072	0.25114	0.16589	0.10306	0.059988	0.059101	0.24339	0.10516	0.061542	0.11371	-3.2875	-2.5229	-3.1813	-3.45	-2.6896	-3.5938	-3.2083	-2.7313	-3.4458	-2.8375	-3.0146	-3.5104	-2.6792	-3.4146	-3.0375	-2.8417	-119.106	81.946	-112.753	145.788	-49.767	-45.189	48.766	74.023	89.037	-75.810	201.611	140.025	200.565	-78.471	194.571	133.823	0.00033344	0.00035641	8.1068e-05	1045.1	1.6576e-06	2.0711e-06	1150	214.89	6.7088e-06	1.8523e-06	277.48	78.658	61.115	17.713	4.5833e-06	24.972	0.00046276	0.00048712	0.00013878	1034.4	5.4669e-06	5.355e-06	1138	215.08	5.2207e-06	5.34e-06	279.21	79.138	61.387	18.15	5.2998e-06	25.616	-22.408	-83.674	-45.066	-145.918	-16.217	2.146	-145.823	-138.525	2.264	42.531	-138.432	-132.086	-131.487	-123.902	6.030	-124.718	-8191	255	
20991.264	1	1	0	0	0.21623	0.21465	0.039681	0.011534	0.33071	0.10048	0.24231	0.13593	0.27704	0.26265	0.14226	0.19252	0.0544	0.1022	0.13328	0.12692	-3.2917	-2.8667	-2.9521	-3.6625	-2.6625	-3.3417	-3.4229	-2.7021	-3.5396	-2.8292	-3.0729	-3.5167	-2.7729	-3.325	-3.4437	-2.7896	-59.155	-105.914	-54.987	146.876	-45.668	-88.626	119.475	-121.138	73.677	136.743	96.827	164.962	169.590	69.627	156.482	-151.564	0.00037713	0.00047	0.00015425	1043.4	7.1363e-06	7.616e-07	1150.4	215.46	4.2154e-06	3.0708e-06	279.42	77.975	60.899	17.809	1.2465e-06	25.14	0.00045768	0.00049154	0.00013533	1033.9	5.4271e-06	5.3079e-06	1138.4	215.67	5.4943e-06	5.4453e-06	279.5	79.006	61.357	18.167	5.3592e-06	25.675	-32.302	-70.618	-48.253	-145.823	-26.143	-72.298	-145.818	-138.513	-23.358	5.834	-138.302	-131.949	-131.628	-123.957	39.606	-124.907	-8191	255	
20991.357	1	1	0	0	0.37034	0.088136	0.2872	0.27782	0.20809	0.029211	0.15338	0.031172	0.12121	0.11659	0.34204	0.19277	0.21086	0.10957	0.16578	0.07643	-3.25	-2.7208	-2.8708	-3.6813	-2.6875	-3.1042	-3.5375	-2.7021	-3.3875	-3.0687	-3.025	-3.6958	-2.6667	-3.0938	-3.5104	-2.5646	9.094	-102.195	-83.461	113.367	87.459	-77.563	69.827	-105.220	36.130	86.600	167.203	177.790	164.255	186.568	186.937	182.851	0.00031354	0.00012168	0.00011439	1044.4	4.5534e-06	3.6425e-06	1149.3	215.38	5.9544e-06	4.7839e-06	278.68	78.02	60.734	17.7	5.9172e-06	25.073	0.00046235	0.00048596	0.00013661	1032.8	5.4801e-06	5.4786e-06	1139.4	215.74	5.1433e-06	5.4127e-06	279.1	78.932	61.333	18.172	5.2572e-06	25.653	-32.862	-142.399	-24.180	-145.521	10.340	5.141	-145.870	-138.363	-0.381	-14.159	-138.375	-132.019	-131.367	-123.760	14.609	-124.912	-8191	255	
20991.432	1	1	0	0	0.35564	0.070105	0.15847	0.2825	0.10419	0.058479	0.049067	0.35213	0.30033	0.13618	0.15525	0.11942	0.058125	0.20549	0.17974	0.031004	-3.0417	-3.1479	-2.9792	-3.7583	-2.7792	-3.1396	-3.6104	-2.8167	-3.3937	-3.2938	-2.8792	-3.6562	-2.8417	-3.1	-3.6437	-2.7958	203.237	54.979	-115.046	-110.527	200.058	61.030	182.576	13.011	-133.520	-47.017	-120.129	-41.228	-37.754	163.342	-56.429	-123.130	0.00040421	0.00069837	0.00011188	1045.9	4.3494e-06	3.5454e-06	1153.5	214.97	3.4681e-06	3.5658e-06	278.09	78.558	60.893	17.75	2.4214e-06	25.059	0.00046614	0.00049708	0.00013679	1035.4	5.4105e-06	5.3241e-06	1139.7	215.18	5.3633e-06	5.4107e-06	278.64	79.058	61.377	18.178	5.2996e-06	25.597	-28.361	-73.219	-99.716	-145.725	26.801	0.480	-145.847	-138.406	-25.509	-12.643	-138.932	-131.991	-131.102	-123.840	-149.594	-124.368	-8191	255	
20991.551	1	1	0	0	0.29324	0.39092	0.092905	0.20404	0.33772	0.036589	0.038498	0.25974	0.15018	0.18736	0.16345	0.31844	0.1172	0.086977	0.11665	0.17039	-3.0021	-3.1354	-2.75	-3.7687	-2.8042	-3.0708	-3.7188	-2.9604	-3.3708	-3.3583	-2.8521	-3.6021	-2.9167	-2.8	-3.5812	-2.9458	-50.772	-17.492	177.603	-130.565	58.667	-54.901	130.299	-1.506	187.954	-59.638	158.980	163.501	101.789	76.667	32.520	-136.788	0.00037391	0.00016504	8.8419e-05	1044	2.5699e-06	1.9193e-06	1147.4	215.27	1.6311e-06	2.6111e-06	280.32	77.873	60.675	17.852	3.1492e-07	24.912	0.00045125	0.00047544	0.00013691	1032.6	5.4062e-06	5.332e-06	1138.5	215.08	5.3292e-06	5.4111e-06	279.76	78.997	61.497	18.17	5.235e-06	25.615	-28.066	-111.408	-62.734	-145.602	-1.254	21.484	-145.798	-138.096	112.501	-1.820	-138.573	-131.853	-131.337	-123.613	-120.693	-124.494	-8191	255	
20991.646	1	1	0	0	0.16125	0.11885	0.032639	0.23619	0.181	0.22146	0.30725	0.12778	0.051471	0.10494	0.19161	0.25633	0.10258	0.19869	0.043814	0.096197	-2.9896	-3.3708	-2.7979	-3.75	-2.9771	-3.0021	-3.6896	-2.725	-3.0354	-3.4979	-2.6875	-3.4833	-3.3312	-2.7896	-3.7271	-3.0104	10.543	-25.437	95.813	-76.188	26.340	-46.707	127.290	42.640	157.090	-29.567	150.511	56.720	-49.499	96.296	130.033	144.404	0.00038695	0.00016118	9.1883e-06	1046.5	3.1595e-06	4.2373e-06	1153	215.5	3.7417e-06	3.6209e-06	278.52	78.201	60.258	17.838	2.4435e-06	25.048	0.00046499	0.00049435	0.00013462	1034	5.3049e-06	5.3577e-06	1138.6	215.22	5.2679e-06	5.3101e-06	278.52	79.108	61.127	18.176	5.2815e-06	25.662	-27.757	-33.303	80.325	-145.455	7.796	-29.985	-145.544	-138.095	10.775	13.049	-138.270	-131.477	-131.053	-123.420	21.779	-124.505	-8191	255	
20991.742	1	1	0	0	0.13226	0.32656	0.15513	0.072256	0.12275	0.16176	0.064386	0.24482	0.07523	0.030224	0.16963	0.35547	0.14088	0.24025	0.13172	0.030919	-2.7021	-3.6396	-2.8667	-3.4125	-3.375	-2.6188	-3.7271	-2.7875	-2.8542	-3.6583	-2.7438	-3.5292	-3.1937	-2.7271	-3.5792	-3.0146	184.642	60.695	13.787	110.667	-8.440	-3.600	-74.824	-44.868	12.277	158.944	75.532	126.085	90.627	-71.042	147.790	-101.359	0.00040183	0.00012397	5.4431e-05	1046.4	3.4889e-06	1.8544e-06	1151.4	214.9	7.8305e-06	2.3337e-06	279.15	77.51	60.496	17.674	2.7398e-06	25.047	0.00046064	0.0004839	0.00013468	1033.7	5.2796e-06	5.3444e-06	1138.6	214.93	5.3859e-06	5.2879e-06	278.73	78.676	61.196	18.125	5.185e-06	25.549	-30.765	-140.473	-63.914	-145.391	17.885	52.459	-145.659	-138.183	7.042	11.528	-138.241	-131.275	-131.550	-123.920	47.396	-124.962	-8191	255	
20991.863	1	1	0	0	0.16121	0.19209	0.10593	0.20897	0.22252	0.11747	0.11279	0.20729	0.11726	0.39073	0.25635	0.10294	0.18664	0.19026	0.14313	0.020388	-2.675	-3.4396	-2.7479	-3.4458	-3.2104	-2.7354	-3.725	-3.0854	-2.8937	-3.525	-2.9479	-3.4417	-3.5146	-2.9125	-3.5208	-3.025	-19.533	182.111	144.277	140.247	138.462	-63.619	145.357	141.869	-5.423	63.027	164.910	99.623	195.979	-154.605	54.871	50.443	0.0003834	0.00033216	6.4734e-05	1040.5	3.0175e-06	2.9483e-06	1152.1	216.52	7.5484e-06	2.0229e-06	279.35	78.158	60.489	17.906	1.3099e-06	25.035	0.00047054	0.00048273	0.00013363	1031.2	5.2209e-06	5.5e-06	1139.4	215.31	5.4811e-06	5.3574e-06	279.22	78.934	61.358	18.176	5.507e-06	25.579	-27.073	-70.390	-93.336	-145.411	36.056	69.879	-145.590	-138.512	6.818	-58.805	-138.563	-131.769	-131.331	-123.619	-12.350	-124.594	-8191	255	
20991.961	1	1	0	0	0.12429	0.21246	0.22035	0.28845	0.10194	0.18719	0.30865	0.076764	0.060674	0.13062	0.094515	0.27174	0.19585	0.30164	0.17383	0.31346	-2.4125	-3.6375	-2.8042	-3.275	-3.5458	-2.8458	-3.6833	-3.1708	-2.6813	-3.5854	-2.9625	-3.0792	-3.4354	-2.7104	-3.4854	-3.15	-146.593	-88.725	79.231	-18.449	-10.655	58.766	198.765	30.321	44.800	114.978	-143.942	-99.866	55.173	14.633	155.995	152.980	0.00034253	0.00031029	3.199e-05	1042.1	5.8258e-06	3.07e-06	1148.5	214.59	8.1602e-06	2.2548e-06	278.38	77.645	60.43	17.775	3.6748e-06	25.041	0.0004772	0.00050136	0.00014212	1031.9	5.469e-06	5.4939e-06	1138.4	215.52	5.3363e-06	5.3839e-06	278.75	78.874	61.238	18.127	5.4499e-06	25.612	-29.564	-59.030	-8.022	-145.368	-39.359	-17.031	-145.661	-138.355	-25.069	12.046	-138.902	-132.110	-131.400	-123.847	-9.514	-124.571	-8191	255	
20992.031	1	1	0	0	0.071902	0.14518	0.11435	0.16506	0.164	0.18703	0.08643	0.11688	0.092074	0.3868	0.29966	0.19381	0.1482	0.093417	0.12354	0.21604	-2.3771	-3.3771	-2.7771	-3.0563	-3.5458	-2.825	-3.4875	-3.3937	-2.6521	-3.4208	-3.0729	-2.9104	-3.6625	-2.6937	-3.5	-3.4604	32.283	90.186	-57.989	162.851	5.172	-129.942	129.462	143.445	11.924	-0.562	-85.475	0.389	156.664	60.043	97.882	-20.045	0.0003285	0.0005174	6.2502e-05	1039.8	3.8637e-06	3.2592e-06	1144.9	215.86	1.5927e-06	6.3922e-06	278.77	78.494	60.528	17.764	7.3841e-06	25.135	0.00046869	0.00050312	0.0001396	1032.1	5.2938e-06	5.4051e-06	1137.1	215.63	5.2266e-06	5.3324e-06	278.23	79.068	61.266	18.164	5.3874e-06	25.63	-26.354	-57.712	18.475	-145.781	-19.141	5.199	-145.839	-138.575	-59.444	27.181	-138.570	-131.747	-131.487	-123.806	-14.583	-124.788	-8191	255	
20992.129	1	1	0	0	0.069987	0.067093	0.28465	0.043677	0.066933	0.13413	0.083771	0.20602	0.19546	0.093975	0.25958	0.12327	0.18148	0.078792	0.13543	0.10943	-2.3792	-3.6458	-3.0833	-3.1979	-3.625	-2.7833	-3.6021	-3.4646	-2.8479	-3.5271	-3.3312	-2.7146	-3.4313	-2.6646	-3	-3.5396	192.978	-131.230	-78.742	186.785	45.029	155.266	135.728	53.778	189.969	-124.337	126.913	109.167	144.501	12.377	8.594	194.541	0.00031764	0.00029797	7.9482e-05	1041.2	2.598e-06	3.1981e-06	1146.6	216.44	4.0233e-06	1.3384e-06	278.45	78.355	61.053	17.706	5.8746e-06	24.98	0.00045174	0.00048139	0.00013597	1032.4	5.2875e-06	5.3126e-06	1137.5	215.36	5.3626e-06	5.3401e-06	278.74	78.951	61.423	18.148	5.2385e-06	25.604	-32.157	-109.316	-31.595	-145.769	-31.652	-6.458	-145.887	-138.211	20.070	-24.156	-138.825	-131.710	-131.419	-124.249	-2.035	-125.230	-8191	255	
20992.225	1	1	0	0	0.072313	0.13593	0.069547	0.46278	0.084878	0.065052	0.12664	0.1497	0.33775	0.28459	0.098752	0.13038	0.24107	0.076234	0.25472	0.14272	-2.2	-3.3937	-3.1042	-2.8708	-3.4188	-2.8937	-3.3	-3.4938	-2.6667	-3.5167	-3.1604	-2.7292	-3.5646	-2.9771	-3.0729	-3.5812	-113.062	10.386	24.021	137.396	203.344	-77.796	6.802	190.531	7.283	-77.562	168.459	-90.248	182.364	115.124	114.714	177.274	0.00038641	0.00042696	9.9696e-05	1044.3	3.7133e-06	4.1256e-06	1151.2	217.32	5.0858e-06	2.6554e-06	278.79	78.313	60.569	17.72	3.5084e-06	25.232	0.00045962	0.0004876	0.00013561	1031.9	5.3409e-06	5.2784e-06	1139	215.72	5.187e-06	5.3924e-06	279.5	78.968	61.329	18.122	5.2844e-06	25.719	-20.071	-77.823	-99.080	-145.521	-35.200	1.746	-145.833	-138.483	-31.741	-9.026	-138.431	-131.889	-131.375	-124.062	7.351	-124.915	-8191	255	
20992.344	1	1	0	0	0.10096	0.040684	0.25015	0.29552	0.032254	0.14879	0.094301	0.24839	0.091187	0.07962	0.1201	0.091561	0.14739	0.13591	0.090733	0.13776	-2.3083	-3.1771	-3.4167	-2.9021	-3.6021	-2.9729	-2.9604	-3.6188	-2.7458	-3.1271	-3.3521	-2.5375	-3.5542	-3.0792	-2.8792	-3.4792	35.471	-98.278	-30.966	143.929	98.828	86.229	56.076	190.855	91.082	-155.282	128.470	23.778	31.026	-96.375	170.249	191.316	0.00036213	0.00012409	0.00011683	1040.2	5.3084e-06	3.2859e-06	1151.3	214.9	3.5303e-06	5.7898e-07	277.34	77.71	60.547	17.785	5.8118e-06	25.114	0.00045969	0.00048575	0.00013512	1031.9	5.3617e-06	5.3756e-06	1136.7	215	5.3494e-06	5.4158e-06	278.07	78.801	61.284	18.113	5.2846e-06	25.632	-29.345	-23.211	-76.578	-145.606	-43.145	-40.614	-145.550	-138.035	51.249	-15.205	-138.716	-131.913	-131.619	-124.062	-25.544	-124.901	-8191	255	
20992.439	1	1	0	0	0.28375	0.058849	0.1225	0.19963	0.14928	0.2323	0.34771	0.3588	0.14984	0.032006	0.2185	0.10861	0.15515	0.22332	0.13664	0.081686	-2.4229	-3.1354	-3.5479	-2.8	-3.4354	-3.025	-2.9042	-3.5958	-2.9354	-3.0042	-3.5021	-2.8146	-3.475	-3.1958	-2.7021	-3.5729	-72.913	9.304	107.244	-113.963	-29.651	63.156	150.901	110.260	151.515	110.861	93.898	-151.679	136.839	126.986	198.684	-155.658	0.00034765	0.00048313	0.00013521	1038.1	1.9018e-06	2.8161e-06	1150.6	215.64	3.5669e-06	3.5651e-06	276.83	78.118	60.797	17.674	3.7229e-06	24.933	0.00045614	0.00049008	0.0001332	1029.6	5.3293e-06	5.3183e-06	1138.7	215.58	5.4018e-06	5.3978e-06	278.06	78.733	61.286	18.087	5.4741e-06	25.628	-26.693	-89.796	-93.958	-145.586	22.708	-43.282	-145.512	-138.525	48.642	-21.186	-138.227	-131.936	-131.356	-123.975	5.392	-124.927	-8191	255	
20992.537	1	1	0	0	0.14493	0.17278	0.15413	0.062386	0.20716	0.21259	0.2113	0.037566	0.19087	0.23787	0.053358	0.095141	0.25613	0.072001	0.20879	0.19924	-2.6354	-2.8688	-3.5375	-2.9542	-3.4313	-3.5062	-2.8063	-3.7354	-2.9042	-2.9396	-3.5771	-2.8292	-3.3875	-3.4396	-2.7188	-3.5	-18.045	191.240	-89.389	203.412	-45.326	-24.730	139.405	-131.526	123.892	-27.399	-3.324	-90.685	71.189	-48.058	-7.422	-107.253	0.00033388	5.651e-05	9.4808e-05	1042.6	6.6604e-06	1.9152e-06	1147.4	216.05	7.0108e-06	3.1589e-06	278.08	78.228	60.532	17.826	4.9475e-06	24.865	0.00047088	0.00049956	0.00013747	1032.4	5.4242e-06	5.2912e-06	1137.5	215.73	5.3415e-06	5.6202e-06	278.65	78.907	61.278	18.138	5.4887e-06	25.65	-8.344	-132.649	-89.087	-145.617	-78.106	-36.198	-145.985	-138.473	25.050	-59.518	-138.660	-131.723	-131.425	-123.913	-58.330	-124.885	-8191	255	
20992.656	1	1	0	0	0.14192	0.19723	0.10248	0.22443	0.147	0.12373	0.25038	0.28435	0.023159	0.14166	0.15906	0.30989	0.13672	0.1829	0.26831	0.11493	-2.5896	-2.9292	-3.6562	-3.0896	-3.1521	-3.4667	-2.95	-3.7188	-3.1833	-2.8563	-3.7104	-2.8125	-3.2042	-3.4688	-2.7875	-3.5354	-127.433	105.592	80.825	-148.978	185.477	-39.295	108.812	130.215	-0.402	-123.139	-102.382	137.773	-20.157	133.337	-11.988	71.738	0.00037523	0.00030223	3.7209e-05	1038.4	2.988e-06	5.3471e-06	1150.7	214.93	6.6872e-06	4.2023e-06	277.99	77.804	60.88	17.755	2.5181e-06	24.877	0.0004741	0.00051711	0.00014036	1030.5	5.681e-06	5.6846e-06	1138.4	215	5.618e-06	5.742e-06	278.64	78.714	61.441	18.142	5.655e-06	25.582	-21.606	-79.841	-55.822	-145.707	-38.720	23.187	-145.695	-138.129	-3.105	8.982	-138.688	-132.063	-131.264	-123.997	-16.524	-125.057	-8191	255	
20992.727	1	1	0	0	0.22545	0.10256	0.10846	0.049591	0.023801	0.097635	0.27569	0.24818	0.2138	0.15622	0.1561	0.12807	0.23441	0.17251	0.16957	0.10315	-2.9792	-2.8937	-3.6708	-2.9583	-3.1917	-3.5938	-2.8563	-3.6396	-3.3354	-2.875	-3.7146	-2.9229	-2.9625	-3.4917	-2.5354	-3.4875	174.086	138.718	21.881	92.995	31.979	146.394	197.754	176.678	-96.279	-86.230	93.026	144.393	-9.575	-97.369	-92.491	53.772	0.00036946	0.00018877	5.1771e-05	1040	5.278e-06	1.9084e-06	1150.7	215.49	3.9215e-06	1.8242e-06	277.58	78.31	60.837	17.766	3.9746e-06	24.964	0.00048039	0.00050007	0.000139	1031	5.429e-06	5.3199e-06	1138.9	215.44	5.2796e-06	5.492e-06	278.63	78.962	61.499	18.173	5.4532e-06	25.657	-28.593	-109.248	-42.465	-145.680	-62.251	13.695	-145.690	-138.216	-16.843	-35.798	-138.799	-132.256	-131.389	-123.998	17.414	-124.611	-8191	255	
20992.822	1	1	0	0	0.04901	0.17933	0.15984	0.076982	0.11429	0.16801	0.14384	0.14438	0.15902	0.16199	0.31585	0.042833	0.2683	0.14425	0.15459	0.23511	-2.9979	-2.6229	-3.4396	-3.1625	-3.1021	-3.5021	-2.9854	-3.3667	-3.2229	-2.8542	-3.6125	-3.0812	-2.9646	-3.6437	-2.8771	-3.4042	70.780	15.914	37.356	-115.532	-124.735	-34.045	-122.866	118.830	-9.825	15.369	66.389	185.403	-35.368	-72.798	96.323	200.042	0.00037691	0.00013	8.4182e-05	1041.6	5.0697e-06	6.7067e-06	1152	213.95	3.8433e-06	4.9859e-06	277.03	78.269	60.56	17.822	2.5939e-06	24.764	0.00046791	0.00049863	0.00013724	1032.8	5.5159e-06	5.5074e-06	1140.3	215.03	5.4028e-06	5.6201e-06	278.71	79.016	61.482	18.224	5.4486e-06	25.541	-28.875	-84.712	-85.646	-145.875	-31.216	25.426	-145.661	-138.496	56.925	25.657	-138.693	-132.250	-132.224	-124.097	25.946	-124.966	-8191	255	
20992.943	1	1	0	0	0.16712	0.29479	0.066586	0.16566	0.10145	0.17571	0.27244	0.084493	0.24382	0.093629	0.12958	0.49981	0.071493	0.16245	0.3066	0.17758	-3.2271	-2.5812	-3.5812	-3.1375	-2.8771	-3.6562	-2.9896	-3.2604	-3.5333	-2.6813	-3.5833	-3.2938	-2.7979	-3.7104	-2.8	-3.0167	10.067	108.059	87.513	188.626	-0.289	-28.731	167.740	83.994	62.378	-121.233	118.973	-136.227	-71.217	163.575	146.743	-127.749	0.00041541	0.00010473	0.00017196	1044	3.3648e-06	2.4298e-06	1147.7	215.9	4.7489e-06	1.8426e-06	279.95	77.962	60.522	17.832	4.8134e-06	24.891	0.00046918	0.00050605	0.00014308	1033.3	5.704e-06	5.7655e-06	1137.3	215.32	5.5202e-06	5.8632e-06	279.64	78.862	61.303	18.187	5.8973e-06	25.58	-14.546	188.803	-71.205	-145.621	-22.473	-40.756	-145.889	-138.452	18.869	-6.675	-138.521	-132.382	-131.540	-124.492	-40.505	-124.769	-8191	255	
20993.039	1	1	0	0	0.10141	0.23631	0.038208	0.26231	0.22369	0.23914	0.19385	0.12582	0.070265	0.18031	0.028013	0.056107	0.21398	0.095104	0.15349	0.082721	-3.2021	-2.8292	-3.4062	-3.3	-2.6937	-3.6917	-3.0417	-3.1042	-3.5062	-2.6708	-3.4292	-3.3146	-2.8833	-3.6229	-3.0708	-3.175	67.444	-2.530	81.067	142.340	181.918	81.766	163.199	-55.370	102.581	103.865	-3.298	104.844	-25.422	75.561	63.403	-18.140	0.00036741	0.00040269	0.00012037	1039	5.3921e-06	4.0663e-06	1153.6	214.37	3.8083e-06	4.4841e-06	277.52	78.169	60.498	17.811	1.4851e-06	24.922	0.00049407	0.00054939	0.00015113	1032.1	5.9104e-06	5.8503e-06	1140.2	215.18	5.8124e-06	6.1512e-06	279.18	79.176	61.394	18.234	6.0061e-06	25.712	-27.303	-67.123	-79.973	-146.162	-58.488	-18.151	-146.072	-138.683	-29.656	22.140	-138.745	-132.300	-131.555	-124.256	35.382	-124.902	-8191	255	
20993.137	1	1	0	0	0.10746	0.16394	0.4277	0.27151	0.13836	0.1758	0.097705	0.24166	0.17563	0.1226	0.2294	0.18787	0.24272	0.052127	0.44307	0.11972	-3.2333	-2.7729	-3.3083	-3.5417	-2.6958	-3.5583	-3.2625	-3.0458	-3.6646	-2.7188	-3.3625	-3.425	-2.6771	-3.5375	-3.1875	-2.9792	-111.317	-140.066	-141.414	158.783	50.493	130.349	165.509	198.826	194.513	160.818	151.019	195.338	165.260	49.645	-152.596	37.447	0.00035178	0.00010614	0.00012462	1044.3	6.3444e-06	1.1747e-06	1154.2	216.03	4.4795e-06	5.0162e-06	278.83	78.282	60.611	17.717	2.8283e-06	25.153	0.00052899	0.00057138	0.00015879	1035.6	6.3873e-06	6.474e-06	1144.6	215.85	6.5133e-06	6.7076e-06	279.68	79.307	61.633	18.263	6.6672e-06	25.847	-23.376	-75.635	-78.218	-146.055	-60.919	36.854	-146.323	-138.442	20.126	-20.313	-138.896	-132.328	-131.766	-124.816	-43.364	-124.839	-8191	255	
20993.258	1	1	0	0	0.27408	0.16135	0.23982	0.18662	0.11239	0.21185	0.19559	0.071918	0.1316	0.14477	0.032119	0.10604	0.064215	0.34404	0.25383	0.15325	-3.2333	-2.8438	-3.0479	-3.6375	-2.8229	-3.4708	-3.3438	-2.8375	-3.6146	-2.9146	-3.1917	-3.525	-2.7313	-3.3812	-3.2708	-2.725	136.763	75.342	54.093	117.359	-102.146	172.154	137.310	142.886	-125.995	-102.112	-81.418	197.252	164.078	-86.185	126.762	166.960	0.00044995	0.00021441	0.00013799	1047.4	1.8824e-06	4.6903e-06	1163	215.87	3.1796e-06	2.9738e-06	279.88	78.913	60.914	17.828	8.1338e-06	25.157	0.00057893	0.00064177	0.00018145	1040.6	7.1018e-06	7.0424e-06	1150.7	217.01	7.2171e-06	7.2642e-06	281.02	79.614	61.931	18.328	7.2996e-06	25.911	-25.791	-88.378	-0.451	-145.990	18.945	7.925	-146.077	-138.640	-41.140	6.399	-139.304	-132.518	-132.058	-124.473	-13.115	-124.662	-8191	255	
20993.328	1	1	0	0	0.18423	0.32247	0.041656	0.29401	0.13131	0.098505	0.2979	0.060721	0.1063	0.34254	0.024754	0.097767	0.18976	0.13491	0.27397	0.096615	-3.2188	-2.9875	-2.9792	-3.5896	-2.6063	-3.4021	-3.3708	-2.8271	-3.6146	-3.0604	-3.0438	-3.6729	-2.75	-3.2875	-3.4208	-2.725	-34.394	-9.678	-124.183	182.999	8.280	39.707	171.162	-6.936	-62.585	33.537	116.570	-112.081	169.988	-83.522	36.680	-114.259	0.00038956	0.00014753	6.1259e-05	1055.3	5.0512e-06	3.1814e-06	1162.8	218.53	3.7822e-06	6.9319e-06	280.21	78.646	61.796	17.857	5.4299e-06	25.214	0.00062862	0.00069102	0.00019435	1046.3	7.672e-06	7.8203e-06	1154.6	218.33	7.4795e-06	7.7931e-06	282.62	80.004	62.502	18.438	7.8974e-06	26.05	-27.105	-45.444	-5.947	-146.125	30.826	25.398	-146.271	-138.387	-54.208	-3.883	-138.943	-132.236	-132.159	-124.271	-3.904	-125.078	-8191	255	
20993.426	1	1	0	0	0.07493	0.055589	0.07245	0.20249	0.040228	0.19687	0.12096	0.27069	0.14438	0.076356	0.1031	0.1608	0.23505	0.063764	0.29346	0.20455	-3.3	-3.0979	-2.9375	-3.6854	-2.7229	-3.2771	-3.5438	-2.7583	-3.4542	-3.2	-2.8833	-3.7271	-2.8438	-3.2792	-3.4813	-2.8875	5.875	34.348	-21.583	-147.615	-65.926	-135.028	159.572	150.906	3.450	193.938	93.779	192.919	-129.128	-123.570	110.003	-144.362	0.0003697	0.00038288	0.00021014	1061.2	2.2585e-06	1.7122e-06	1172.8	219.17	7.281e-06	2.3026e-06	280.09	79.34	61.331	17.86	6.3887e-06	25.251	0.00064934	0.00073292	0.00020149	1053.3	7.9409e-06	7.9626e-06	1160.4	219.3	7.6633e-06	7.8244e-06	282.9	80.172	62.498	18.451	7.4606e-06	26.062	-10.715	-14.336	-25.093	-146.121	40.416	-42.099	-146.100	-138.729	-0.273	35.574	-138.643	-132.341	-131.631	-124.082	13.140	-125.123	-8191	255	
20993.520	1	1	0	0	0.06634	0.11967	0.20006	0.29706	0.1428	0.12665	0.25121	0.23523	0.19839	0.11088	0.15268	0.16288	0.17321	0.043137	0.25692	0.16008	-3.0917	-3.0938	-2.7271	-3.8417	-2.8563	-2.9562	-3.5208	-2.8812	-3.4896	-3.3	-2.7354	-3.6125	-2.9375	-2.9479	-3.5333	-2.7875	103.561	-82.844	-23.907	142.346	-6.080	172.936	156.675	166.827	52.191	153.595	116.513	-107.324	-127.092	187.132	171.607	138.201	0.00044864	0.00044202	0.00021768	1063.8	2.3418e-06	6.093e-06	1172.7	218.85	1.5076e-06	4.9151e-06	282.02	79.326	61.839	18.03	5.1197e-06	25.402	0.00061665	0.00068841	0.00019295	1055.2	7.5846e-06	7.734e-06	1162.5	219.2	7.8897e-06	7.9806e-06	283.47	80.419	62.59	18.579	7.8155e-06	26.17	-34.710	-44.427	-79.242	-145.817	55.786	-13.584	-145.997	-138.626	-13.799	-5.473	-139.018	-132.168	-131.825	-124.202	64.536	-125.235	-8191	255	
20993.641	1	1	0	0	0.15689	0.15136	0.02116	0.1552	0.12091	0.22049	0.43591	0.27017	0.073506	0.1359	0.22193	0.11995	0.14239	0.050077	0.046087	0.17249	-2.9979	-3.3667	-2.7146	-3.625	-3.175	-2.9458	-3.6479	-2.9021	-3.4792	-3.3292	-2.7792	-3.4396	-3.2313	-3.0771	-3.4104	-2.9042	-118.971	24.686	105.916	161.896	145.204	95.473	133.292	137.410	87.311	-6.111	127.516	103.898	165.851	-56.729	-36.102	60.721	0.00047253	0.00069823	5.4038e-05	1064.7	2.4549e-06	2.3465e-06	1175.1	219.92	4.3731e-06	8.372e-06	282.17	79.068	61.527	17.952	3.022e-06	25.417	0.00064952	0.00071817	0.00019821	1056.1	7.5721e-06	7.615e-06	1165	219.53	7.1947e-06	7.2064e-06	283.56	80.31	62.391	18.512	6.8189e-06	26.085	-26.674	-78.793	-49.963	-146.106	36.756	-38.805	-146.116	-138.650	40.283	-50.689	-138.748	-131.582	-131.322	-124.316	-12.848	-125.220	-8191	255	
20993.736	1	1	0	0	0.12863	0.099126	0.27861	0.044068	0.096084	0.18881	0.19214	0.14533	0.11494	0.18392	0.13306	0.217	0.26254	0.20437	0.12926	0.23946	-2.8458	-3.45	-2.8479	-3.5625	-3.2	-2.8833	-3.7354	-2.7521	-3.0417	-3.475	-2.8	-3.5479	-3.3771	-2.9479	-3.5938	-3.0333	3.286	-63.513	121.821	-80.615	172.023	119.088	111.825	126.137	76.430	-106.624	172.883	-112.958	160.617	-143.085	-15.556	181.117	0.00042437	0.00062329	0.00014035	1065.9	7.1683e-06	8.8694e-07	1169.7	219.67	8.0068e-06	4.111e-06	282.1	79.53	61.815	18.004	1.664e-06	25.22	0.00059695	0.00063909	0.00017936	1056.2	6.8851e-06	7.2683e-06	1162.4	219.65	7.2816e-06	7.2527e-06	283.45	80.618	62.558	18.542	7.3897e-06	26.029	-35.497	-44.793	-46.969	-145.932	-62.425	84.783	-145.917	-138.681	-71.548	9.816	-138.892	-131.798	-131.850	-123.982	-148.200	-125.250	-8191	255	
20993.832	1	1	0	0	0.11186	0.2255	0.26404	0.13236	0.24644	0.21486	0.41129	0.043888	0.25948	0.1014	0.12497	0.1262	0.17331	0.093871	0.20664	0.21317	-2.6854	-3.4958	-2.5354	-3.45	-3.2292	-2.7271	-3.6875	-3.1479	-3.0521	-3.5083	-2.9833	-3.4083	-3.3833	-2.7333	-3.6125	-3.1083	-42.467	84.912	-34.284	159.585	70.158	-141.998	140.519	4.587	192.669	176.884	-151.091	177.309	-129.200	-149.639	-66.421	193.544	0.00041382	0.00042732	4.1278e-05	1068.3	3.4855e-06	2.7243e-06	1170.5	218.61	1.8505e-06	3.8612e-06	282.3	79.464	62.135	18.098	6.0969e-06	25.292	0.00061635	0.00067556	0.00018702	1057.2	7.2685e-06	7.5983e-06	1163.7	219.42	7.2467e-06	7.2226e-06	283.76	80.438	62.848	18.506	7.2044e-06	26.151	-16.749	-91.837	-114.224	-145.847	-31.043	34.300	-145.880	-138.430	1.851	-19.337	-138.889	-131.793	-131.269	-124.233	46.787	-125.078	-8191	255	
20993.928	1	1	0	0	0.16039	0.12263	0.11979	0.013247	0.15242	0.049038	0.26187	0.087224	0.074507	0.0532	0.28508	0.082209	0.20669	0.18682	0.15524	0.11015	-2.5458	-3.4417	-2.8271	-3.4813	-3.5833	-2.7542	-3.7854	-3.2188	-2.8083	-3.6271	-3.0438	-3.1063	-3.5396	-2.7042	-3.6375	-3.2167	-69.525	-81.998	-81.075	-68.967	159.074	-49.215	157.754	27.544	98.874	154.577	129.409	84.321	90.637	-87.731	-31.828	-13.047	0.0002806	0.00020272	7.8404e-05	1066.5	2.6433e-06	4.2461e-06	1179.3	219.03	4.1716e-06	3.1162e-06	281.31	79.336	61.639	18.203	7.2568e-06	25.145	0.0006071	0.00065752	0.00018107	1059.5	7.1319e-06	7.2849e-06	1167.2	219.56	7.1657e-06	6.9814e-06	284.19	80.547	62.543	18.581	6.956e-06	26.118	-41.682	-73.254	-111.433	-145.827	27.949	51.438	-146.018	-138.891	-14.686	100.483	-138.695	-132.176	-132.005	-124.279	-15.707	-124.597	-8191	255	
20994.023	1	1	0	0	0.28452	0.14483	0.25389	0.22211	0.16533	0.13246	0.071583	0.2873	0.079145	0.16929	0.22901	0.28208	0.08776	0.038663	0.30263	0.10324	-2.4833	-3.7125	-2.8604	-3.0104	-3.4771	-2.5583	-3.575	-3.275	-2.7354	-3.6354	-3.025	-3.1688	-3.5521	-2.7938	-3.6542	-3.4396	-29.276	71.239	170.232	191.475	111.839	102.995	-37.397	175.437	200.453	168.959	132.149	-61.748	180.398	1.468	137.037	93.470	0.00038057	0.00022422	7.8497e-05	1069.3	3.1028e-06	3.1245e-06	1179	219.51	3.9568e-06	7.5896e-07	282.94	79.163	62.016	18.034	1.8647e-06	25.553	0.00060183	0.00064378	0.00018535	1058.6	7.0779e-06	7.0874e-06	1166.7	219.57	6.9379e-06	7.0103e-06	284.23	80.539	62.766	18.591	7.013e-06	26.171	-23.145	-92.517	20.837	-145.947	17.351	-10.979	-146.010	-138.569	-29.674	-41.582	-138.578	-131.927	-131.782	-123.750	80.063	-124.847	-8191	255	
20994.121	1	1	0	0	0.1884	0.21259	0.20175	0.080185	0.14711	0.28319	0.090827	0.15367	0.1672	0.075886	0.048248	0.17073	0.12796	0.053226	0.089775	0.19619	-2.45	-3.5854	-3.0729	-3.1271	-3.8333	-2.8208	-3.4875	-3.4542	-2.6708	-3.4	-3.1562	-3.1542	-3.6312	-2.8729	-3.2958	-3.5354	148.509	184.770	-31.071	174.020	89.678	46.529	76.066	9.322	-86.536	76.546	90.786	158.206	-38.438	1.702	82.543	-74.205	0.00038091	0.00034875	0.00012458	1075.2	5.5125e-06	4.6291e-06	1178.5	218.86	3.2489e-06	4.9681e-06	282.63	79.676	62.025	18.112	4.963e-06	25.346	0.00059698	0.00064589	0.00018222	1062.1	6.9494e-06	7.1053e-06	1167.7	219.77	7.0051e-06	7.0672e-06	284.42	80.772	62.72	18.617	6.8507e-06	26.225	-21.826	-106.615	-53.251	-145.933	-43.010	-21.093	-145.603	-138.576	10.567	-12.276	-138.863	-131.905	-131.445	-123.684	78.564	-124.518	-8191	255	
20994.217	1	1	0	0	0.056831	0.018929	0.099641	0.35703	0.30259	0.21234	0.2933	0.14915	0.17163	0.077583	0.045339	0.090411	0.11835	0.14781	0.052351	0.099955	-2.3729	-3.5271	-3.1708	-2.9792	-3.5667	-2.8604	-3.1646	-3.3812	-2.7583	-3.4396	-3.2313	-2.9854	-3.8417	-2.9021	-3.3	-3.6833	190.751	-54.675	199.249	192.600	107.296	129.604	121.831	122.246	47.173	77.984	107.098	114.082	183.141	14.688	140.499	183.047	0.00038629	0.00029742	0.00011028	1067.6	5.6052e-06	1.0111e-06	1181.1	219.3	5.3331e-06	3.6637e-06	283.42	79.751	62.352	18.102	1.3633e-06	25.417	0.00058535	0.00064533	0.00018293	1061.2	7.0093e-06	7.2355e-06	1169.3	219.75	7.1501e-06	7.2086e-06	284.46	80.61	62.986	18.563	7.1198e-06	26.181	-21.979	-92.898	9.758	-145.987	-8.125	73.191	-145.964	-138.301	-5.172	-48.102	-138.624	-132.055	-131.358	-124.348	30.314	-125.153	-8191	255	
20994.338	1	1	0	0	0.14077	0.077408	0.11944	0.25818	0.12428	0.13396	0.15382	0.17413	0.14302	0.15743	0.080235	0.058915	0.13458	0.1178	0.13323	0.27856	-2.6	-3.4229	-3.2438	-2.5854	-3.3083	-2.7396	-3.3063	-3.5021	-2.6375	-3.2562	-3.1521	-2.6813	-3.5354	-2.8688	-2.6792	-3.6479	-21.674	59.452	19.734	-144.130	-62.128	94.616	130.229	169.775	3.489	21.052	-127.312	-75.402	28.760	109.151	187.836	18.114	0.00032291	0.00039184	6.1294e-05	1067.1	5.9455e-06	4.6526e-07	1183	219.64	7.5284e-06	1.0285e-06	284.06	79.478	61.572	18.141	3.1077e-06	25.485	0.00060054	0.00066345	0.00018306	1060.5	7.2834e-06	7.3541e-06	1171.2	220.25	7.1404e-06	7.3246e-06	285.43	80.853	62.813	18.582	7.2861e-06	26.204	-23.990	-69.744	-53.243	-145.836	39.378	-106.085	-145.777	-138.112	-22.411	85.839	-138.657	-132.327	-131.762	-124.073	-48.379	-125.346	-8191	255	
20994.432	1	1	0	0	0.15275	0.1601	0.26626	0.039099	0.15404	0.27753	0.067506	0.29352	0.16248	0.099091	0.097831	0.067455	0.14433	0.25544	0.14725	0.23016	-2.1604	-3.1417	-3.2229	-2.6813	-3.2167	-3.0312	-2.85	-3.5396	-2.5938	-3.0917	-3.3354	-2.5792	-3.525	-2.9813	-2.6354	-3.4333	72.021	-4.615	149.644	164.518	-116.434	131.562	113.926	76.521	121.211	-46.320	-125.082	-139.718	162.576	193.371	-97.534	198.676	0.00036636	0.00026201	0.00010878	1071.8	3.2753e-07	1.6672e-06	1181.8	218.6	1.7153e-06	1.9641e-06	283.73	79.999	61.835	18.125	6.1557e-06	25.713	0.00060104	0.00067045	0.00018473	1065.1	7.1619e-06	7.2698e-06	1171.3	220.03	7.2099e-06	7.2689e-06	284.72	80.837	62.969	18.617	7.2169e-06	26.32	-30.131	-133.381	-72.432	-145.829	-19.528	-59.569	-145.826	-138.347	1.608	29.754	-138.866	-131.770	-131.277	-124.020	-3.739	-124.914	-8191	255	
20994.527	1	1	0	0	0.19273	0.12665	0.16923	0.36328	0.17348	0.16708	0.36811	0.15821	0.1606	0.085544	0.1449	0.14295	0.098877	0.15584	0.21498	0.11081	-2.4729	-2.9813	-3.3396	-2.7167	-3.2375	-3.0312	-2.7438	-3.7042	-2.65	-2.9104	-3.4917	-2.6354	-3.2854	-3.1146	-2.75	-3.4854	7.642	-60.734	-88.764	130.549	-149.105	93.006	155.952	-93.151	18.984	-3.281	126.781	88.494	-19.686	-12.087	147.215	104.433	0.00049108	0.00029896	9.0414e-05	1070.9	5.6053e-07	6.1915e-06	1184.9	220.8	5.2924e-06	3.0005e-06	281.85	79.714	62.329	18.178	6.1531e-06	25.547	0.00060862	0.00065855	0.00018473	1062.5	7.1548e-06	7.1778e-06	1172	220.89	7.1593e-06	7.1398e-06	284.85	80.975	63.114	18.606	7.2808e-06	26.298	-20.005	-110.203	-120.366	-145.790	117.451	18.174	-146.147	-138.233	23.281	-55.508	-138.538	-131.940	-131.735	-124.178	-2.175	-124.678	-8191	255	
20994.623	1	1	0	0	0.17602	0.14226	0.21172	0.07992	0.097505	0.1181	0.29405	0.36243	0.07208	0.11748	0.099714	0.10327	0.14817	0.14863	0.19469	0.039447	-2.625	-2.9667	-3.3354	-2.7	-3.2062	-3.2104	-2.8646	-3.475	-2.9604	-2.8021	-3.5708	-2.5875	-3.1583	-3.3333	-2.5187	-3.3688	135.441	-62.550	7.621	-106.568	18.752	152.117	177.198	198.180	47.095	-82.262	176.772	-58.165	174.843	201.605	136.216	-43.801	0.00042533	0.00047279	0.00010965	1072.4	6.7972e-06	1.622e-06	1179.2	220.12	6.9777e-06	4.3295e-06	283.72	79.446	62.387	17.939	4.2015e-06	25.328	0.00060585	0.00065079	0.00017912	1064.2	7.1679e-06	7.078e-06	1170.8	220.39	7.111e-06	7.2622e-06	284.8	80.7	63.05	18.55	7.1115e-06	26.236	-29.058	-141.611	-36.522	-146.128	-30.528	67.925	-145.870	-138.640	-53.868	18.334	-138.986	-132.317	-131.462	-124.678	-20.098	-124.975	-8191	255	
20994.721	1	1	0	0	0.18778	0.34167	0.18523	0.17532	0.25139	0.077841	0.079595	0.071761	0.081291	0.26577	0.11069	0.063493	0.1217	0.084682	0.09145	0.10196	-2.5708	-2.8792	-3.4688	-2.8417	-3.0333	-3.3271	-2.6771	-3.2917	-3	-2.5875	-3.4229	-2.6312	-2.875	-3.3396	-2.45	-3.2417	-133.305	134.058	43.816	93.071	-128.267	100.071	126.657	114.594	-53.663	193.072	131.099	-145.939	31.125	185.193	71.410	119.397	0.00044673	0.00036576	6.3338e-05	1074.1	6.7953e-06	7.828e-07	1179.1	219.99	4.8215e-06	2.3697e-06	282.76	79.717	62.185	17.959	9.4024e-07	25.504	0.00059896	0.00067163	0.00018337	1064	6.9896e-06	7.13e-06	1169.5	220.29	7.0141e-06	7.2107e-06	284.54	80.942	63.113	18.584	7.0621e-06	26.209	-24.272	-72.990	-22.534	-146.177	30.180	-49.091	-146.085	-138.852	-109.732	37.511	-138.793	-132.088	-131.741	-124.443	-51.163	-125.320	-8191	255	
20994.816	1	1	0	0	0.077459	0.10597	0.26825	0.30891	0.17071	0.074783	0.097479	0.29471	0.096048	0.23475	0.14762	0.20435	0.18431	0.21146	0.17632	0.45758	-2.8229	-2.7354	-3.4938	-2.9479	-2.8479	-3.3688	-2.6917	-3.3521	-3.0979	-2.4958	-3.4271	-2.9771	-3.0062	-3.3708	-2.4875	-3.1292	-142.361	83.234	-36.601	122.276	-95.823	-140.069	129.325	-156.397	107.253	17.471	-138.719	-127.661	-28.774	115.837	-16.378	-89.216	0.00040123	0.00022135	9.3577e-05	1070	1.3349e-06	3.2856e-06	1179.7	219.73	4.5097e-06	5.5678e-06	281.85	79.693	61.988	18.242	1.3971e-06	25.379	0.00059271	0.00065907	0.00018314	1062.8	7.0725e-06	7.186e-06	1170.4	220.23	7.151e-06	7.3035e-06	284.7	80.728	63.046	18.666	7.3445e-06	26.205	-23.906	-146.878	-151.957	-146.236	65.631	-40.854	-146.274	-138.641	2.324	34.750	-138.911	-132.107	-132.155	-124.173	-86.134	-125.033	-8191	255	
20994.938	1	1	0	0	0.14355	0.11525	0.15469	0.1427	0.17891	0.077463	0.18382	0.40769	0.26567	0.095442	0.15535	0.12514	0.17678	0.11801	0.064087	0.45591	-2.8812	-2.4833	-3.2625	-2.8583	-2.7208	-3.3896	-2.875	-3.0333	-3.1875	-2.4958	-3.2812	-3.1875	-2.6917	-3.4625	-2.4917	-3.0062	-16.247	-85.451	71.516	155.401	170.866	-68.294	164.510	73.827	144.190	-1.574	93.209	93.652	-37.840	-107.232	86.482	40.894	0.00034641	0.00027983	0.00019589	1068.4	3.1313e-06	2.092e-06	1182	220.25	3.0795e-06	3.4198e-06	283.29	79.99	62.344	18.152	3.2426e-06	25.405	0.00061227	0.00068454	0.00018572	1062.6	7.2258e-06	7.5719e-06	1170.7	220.39	7.2486e-06	7.5618e-06	284.66	81.13	63.024	18.655	7.3638e-06	26.268	-23.917	-92.931	-77.109	-146.144	-17.997	14.897	-146.097	-138.616	-39.748	18.801	-138.920	-132.262	-132.333	-124.395	-21.445	-125.080	-8191	255	
20995.033	1	1	0	0	0.10443	0.10559	0.21368	0.13207	0.19063	0.18453	0.40394	0.14108	0.2417	0.054768	0.051738	0.030251	0.16303	0.20874	0.36574	0.17669	-2.9771	-2.6125	-3.3333	-3.0771	-2.4896	-3.3708	-2.8271	-2.8792	-3.3729	-2.4479	-3.3438	-3.0312	-2.7042	-3.4688	-2.7875	-2.9271	188.629	-10.276	147.721	164.036	-39.000	-67.579	147.773	184.661	108.228	151.193	-55.581	-136.291	-12.237	86.151	104.520	101.719	0.0003774	0.0005338	0.0001308	1075.6	2.1334e-06	6.9295e-06	1183.4	219.77	6.2139e-06	3.0635e-06	282.97	80.11	62.085	17.96	4.6222e-06	25.628	0.00060825	0.00067525	0.00018602	1064.7	7.3884e-06	7.4907e-06	1173.2	220.55	7.476e-06	7.7985e-06	285.23	81.139	63.154	18.605	7.9433e-06	26.336	-25.479	-56.144	-86.179	-146.118	-93.157	-4.881	-146.239	-138.520	25.978	37.277	-138.906	-132.039	-131.540	-124.348	-38.683	-124.990	-8191	255	
20995.129	1	1	0	0	0.24482	0.12429	0.24755	0.16689	0.22954	0.085818	0.28299	0.14235	0.19261	0.24644	0.1911	0.15469	0.16466	0.0945	0.1861	0.052506	-3.1208	-2.5146	-3.25	-3.1354	-2.5062	-3.3688	-2.8896	-2.8104	-3.5146	-2.5646	-3.3063	-3.2021	-2.5646	-3.3333	-2.975	-2.7104	171.491	-106.568	-23.806	169.366	125.091	26.405	157.535	-118.273	195.373	126.543	16.964	-129.734	-63.116	186.521	90.982	-31.446	0.00040289	0.00022981	0.00018855	1076.8	4.64e-06	1.7348e-06	1183.8	220.92	4.6768e-06	8.2507e-07	283.41	80.211	62.419	18.186	5.2523e-06	25.515	0.00065728	0.00071867	0.0001961	1066.3	7.7278e-06	7.7818e-06	1174.7	221.37	7.3967e-06	7.7648e-06	285.82	80.95	63.224	18.682	7.6904e-06	26.325	-28.495	-82.192	-85.798	-146.085	21.918	56.328	-146.196	-138.514	-40.419	120.245	-138.851	-132.147	-131.913	-123.725	14.174	-125.031	-8191	255	
20995.201	1	1	0	0	0.21476	0.18324	0.10148	0.27115	0.12318	0.083425	0.1774	0.20507	0.17317	0.3227	0.13979	0.1738	0.10054	0.083912	0.098344	0.3253	-3.0542	-2.6354	-3.0896	-3.3563	-2.4688	-3.2625	-3.0104	-2.7083	-3.3042	-2.6833	-2.9292	-3.4354	-2.5875	-3.3583	-2.95	-2.6792	191.619	-122.869	93.732	6.838	201.604	141.024	110.380	139.634	-109.082	159.593	-76.189	102.145	-44.990	-143.275	161.895	199.340	0.00043111	0.00056108	0.00010828	1070.3	5.8552e-06	2.1262e-06	1189.2	220.46	2.3487e-06	5.6159e-06	284.61	79.596	62.197	18.252	7.1581e-06	25.413	0.00064273	0.00071344	0.00019987	1065.6	7.855e-06	7.8244e-06	1177.5	221.42	7.7862e-06	7.9845e-06	286.47	81.071	63.243	18.762	7.8634e-06	26.283	-17.569	-77.820	-44.529	-146.084	13.425	-70.950	-146.071	-138.369	-66.116	34.461	-138.682	-132.174	-131.811	-123.960	-34.402	-125.242	-8191	255	
20995.322	1	1	0	0	0.21392	0.15804	0.17373	0.33753	0.20119	0.12362	0.17415	0.19179	0.21344	0.20102	0.083041	0.14609	0.13507	0.14408	0.18411	0.1269	-3.1042	-2.6708	-2.8271	-3.3854	-2.6042	-3.1354	-3.3042	-2.4521	-3.4333	-2.8458	-2.7917	-3.4458	-2.5271	-3.2604	-3.2167	-2.6813	195.287	3.500	185.868	173.848	-49.255	162.119	13.827	106.998	63.496	183.961	23.338	22.869	183.774	105.647	171.480	-144.203	0.0003709	0.00071706	0.00010771	1079	8.7473e-07	1.9305e-06	1193.2	220.77	3.9107e-06	3.8273e-06	285	80.464	62.244	18.204	5.9691e-06	25.526	0.0006562	0.00072304	0.00020082	1068.6	7.9544e-06	7.9252e-06	1179.9	221.6	7.6568e-06	8.0497e-06	286.73	81.351	63.3	18.772	7.9597e-06	26.368	-22.323	-32.881	-77.984	-146.249	199.089	-50.349	-146.080	-138.860	-70.359	-16.957	-139.056	-132.071	-132.023	-124.352	-25.017	-125.235	-8191	255	
20995.416	1	1	0	0	0.20551	0.037437	0.2048	0.19444	0.12977	0.18432	0.091152	0.15172	0.32768	0.087214	0.22156	0.2111	0.043717	0.15897	0.068245	0.15977	-3.0812	-2.8	-2.5375	-3.4479	-2.3812	-3.0833	-3.2021	-2.5854	-3.3375	-2.7646	-2.7375	-3.4792	-2.7812	-3.0354	-3.2188	-2.7	165.128	-107.755	-29.205	110.032	34.100	93.321	134.119	76.398	102.243	202.770	119.220	-21.981	-87.342	126.115	-44.957	-134.865	0.00037963	0.00033055	7.945e-05	1079.9	4.2558e-06	2.2169e-06	1190.9	221.69	4.8273e-06	2.5872e-06	285.84	80.284	62.556	18.094	2.7261e-06	25.612	0.00067576	0.00076267	0.00021196	1073.7	8.4526e-06	8.4283e-06	1181	222.29	8.4218e-06	8.6375e-06	287.87	81.619	63.669	18.755	8.6083e-06	26.48	-26.192	-95.434	-21.531	-146.005	20.901	-30.900	-146.171	-138.289	31.379	-66.436	-138.969	-132.170	-131.306	-124.443	-18.646	-124.999	-8191	255	
20995.512	1	1	0	0	0.43164	0.077395	0.16655	0.12453	0.14475	0.20874	0.035638	0.20412	0.086882	0.070759	0.26658	0.25237	0.16234	0.072349	0.41308	0.1855	-3.0167	-2.8292	-2.5583	-3.6542	-2.575	-3.0833	-3.4917	-2.6771	-3.1208	-2.8771	-2.7229	-3.5521	-2.7313	-3.0271	-3.1958	-2.4604	88.890	28.074	-144.439	91.078	146.641	154.572	197.332	97.418	-90.614	-120.320	-122.546	197.254	158.513	-45.467	60.195	-154.753	0.00032374	0.00022383	0.00015183	1089.3	3.9831e-06	3.2681e-06	1192	221.28	2.0167e-06	5.4903e-06	286.6	79.866	62.537	18.195	5.5302e-06	25.685	0.00069365	0.00077994	0.00021598	1078.3	8.2369e-06	8.6738e-06	1183.4	222.39	8.3138e-06	8.3556e-06	287.9	81.393	63.537	18.781	8.2358e-06	26.511	-29.797	-99.211	-50.682	-145.934	-54.771	-42.131	-146.054	-138.633	-12.809	-20.705	-138.761	-132.235	-131.806	-124.498	35.128	-124.926	-8191	255	
20995.607	1	1	0	0	0.1906	0.074353	0.18728	0.17199	0.25572	0.052745	0.23574	0.14941	0.35438	0.027076	0.20812	0.06905	0.03772	0.2598	0.12769	0.088108	-2.8271	-2.9458	-2.4979	-3.4833	-2.8187	-2.8833	-3.5458	-2.7375	-3.1229	-3.1396	-2.6	-3.4396	-2.775	-2.8333	-3.4208	-2.5292	126.505	112.801	123.577	166.210	107.014	-85.581	130.150	142.467	22.667	139.909	126.076	-71.560	-156.305	-146.490	-141.652	193.404	0.00032155	0.00014233	0.00011506	1088.1	2.202e-06	3.4721e-06	1196	222.33	5.0959e-06	3.411e-06	286.59	81.057	62.745	18.215	6.7068e-06	25.636	0.00067272	0.00076143	0.00020982	1077.5	8.0201e-06	8.3088e-06	1185.8	223.02	7.9953e-06	8.047e-06	288.36	81.848	63.626	18.809	7.7944e-06	26.427	-36.249	-93.064	-59.158	-146.087	-10.722	-16.436	-145.981	-138.693	2.964	2.216	-138.784	-131.916	-131.520	-124.143	22.365	-125.337	-8191	255	
20995.729	1	1	0	0	0.25071	0.071348	0.21513	0.31052	0.14993	0.026118	0.2503	0.08393	0.21771	0.16915	0.12985	0.34895	0.19418	0.14888	0.10539	0.12419	-2.9042	-3.15	-2.6104	-3.5896	-2.7875	-2.9062	-3.5667	-2.8771	-3.0583	-3.375	-2.6479	-3.2708	-2.8604	-2.8187	-3.3146	-2.775	-79.065	12.647	-110.115	77.130	111.021	-30.196	96.596	64.308	-36.709	191.305	106.795	184.239	-51.042	-1.686	-37.549	70.178	0.00040835	0.00026669	9.4368e-05	1082	7.1612e-06	5.8019e-06	1198.8	221.63	4.7439e-06	8.4933e-07	286.12	80.299	62.88	18.181	3.9581e-06	25.423	0.00066425	0.00074016	0.00020173	1077	7.882e-06	8.0679e-06	1187.2	222.08	7.9281e-06	8.0856e-06	287.55	81.593	63.734	18.777	8.0316e-06	26.385	-32.133	-156.519	-40.167	-146.025	4.126	-9.077	-145.820	-138.637	-35.494	-45.381	-138.806	-132.073	-131.959	-124.167	-23.820	-125.080	-8191	255	
20995.824	1	1	0	0	0.22149	0.1307	0.11515	0.2239	0.10768	0.11232	0.39822	0.24373	0.10392	0.19812	0.11843	0.2029	0.067417	0.19944	0.12026	0.13464	-2.8375	-3.2667	-2.5458	-3.3792	-3.3	-2.7583	-3.4625	-2.7667	-2.8854	-3.3271	-2.6771	-3.3667	-3.1104	-2.6646	-3.2646	-2.8792	19.285	85.812	145.147	88.689	-39.636	115.512	131.190	60.735	47.567	-93.004	-126.375	6.388	89.109	-92.077	-40.553	-145.078	0.00037132	0.00069927	5.1533e-05	1084.8	3.7494e-06	1.3647e-06	1194.2	223.2	2.4481e-06	2.5153e-06	284.95	80.745	62.692	18.399	1.8978e-06	25.718	0.00065116	0.00072642	0.00020162	1078.7	7.9861e-06	7.9515e-06	1185.5	222.83	7.7618e-06	7.8154e-06	288	81.64	63.681	18.847	7.7853e-06	26.458	-35.477	-56.392	-129.297	-145.845	-28.937	-79.563	-146.030	-138.608	-24.826	-33.531	-138.883	-131.767	-131.617	-124.566	-41.081	-124.921	-8191	255	
20995.896	1	1	0	0	0.026497	0.031838	0.15551	0.051697	0.054505	0.21161	0.23768	0.092623	0.18563	0.1521	0.29548	0.138	0.12981	0.060146	0.21299	0.30394	-2.5042	-3.6604	-2.5563	-3.3729	-3.1792	-2.625	-3.6146	-2.9646	-2.8854	-3.5042	-2.7667	-3.2146	-3.25	-2.5208	-3.3208	-2.8771	-21.253	-7.843	167.584	153.130	-111.084	48.993	149.357	-69.708	-143.606	58.282	-121.028	-154.360	165.689	88.387	-61.740	106.119	0.00040367	0.00038777	0.00013513	1086	2.6075e-06	7.7031e-07	1192.7	223.08	5.9537e-06	5.2322e-06	284.54	80.237	62.791	18.162	5.7974e-06	25.465	0.00066249	0.0007106	0.00019825	1077.1	7.8162e-06	7.9819e-06	1184.2	222.93	7.6172e-06	7.8628e-06	287.76	81.617	63.57	18.739	7.7534e-06	26.415	-25.835	-95.552	5.472	-145.679	88.762	-4.015	-146.008	-138.647	-13.758	34.576	-138.817	-131.792	-131.685	-124.139	17.277	-124.979	-8191	255	
20996.018	1	1	0	0	0.1061	0.089663	0.286	0.12021	0.2031	0.15256	0.17764	0.1678	0.22747	0.061269	0.11813	0.014972	0.15619	0.19592	0.19026	0.019999	-2.25	-3.325	-2.6167	-3.0417	-3.4521	-2.5062	-3.3125	-3.0687	-2.5771	-3.5271	-2.6604	-2.9771	-3.4292	-2.5708	-3.275	-3.0938	-122.034	10.973	-81.474	147.636	22.511	-11.700	177.915	16.153	56.581	-113.022	95.705	187.245	5.307	127.321	100.126	95.337	0.0002951	0.00023032	7.0458e-05	1089.9	3.5637e-06	1.802e-06	1190.7	222.69	3.7384e-06	4.9741e-06	286.1	80.254	62.546	18.303	3.5161e-06	25.542	0.0006452	0.00072467	0.0001948	1078	7.6879e-06	7.9188e-06	1183.4	222.25	7.6692e-06	7.8313e-06	288.14	81.453	63.476	18.792	7.6721e-06	26.442	-24.045	-8.688	-124.581	-145.942	-9.232	-156.226	-145.856	-138.624	10.210	46.450	-138.556	-131.980	-131.719	-124.099	37.637	-124.667	-8191	255	
20996.113	1	1	0	0	0.22042	0.099141	0.19488	0.33165	0.20544	0.1481	0.27588	0.23249	0.25036	0.19959	0.19276	0.1915	0.10749	0.079222	0.15067	0.22706	-2.1	-3.3854	-2.7625	-2.9875	-3.3354	-2.6063	-3.425	-3.1813	-2.5958	-3.3042	-2.9354	-2.8312	-3.3271	-2.9396	-3.0917	-3.3875	-45.487	133.087	53.056	162.214	-56.189	34.905	116.739	88.983	-60.869	93.646	7.685	146.087	58.196	-54.686	139.461	167.383	0.00039843	0.00019233	7.407e-05	1084.1	4.9493e-06	5.1786e-06	1197.4	222.08	7.4456e-06	3.1142e-06	284.53	81.031	62.796	18.167	2.9308e-06	25.579	0.00064564	0.00069385	0.00019926	1077	7.5704e-06	7.8368e-06	1186.5	222.48	7.7349e-06	7.796e-06	287.51	81.927	63.705	18.776	7.5826e-06	26.405	-39.660	-105.755	-16.823	-145.775	-7.964	8.238	-145.543	-138.359	-34.199	-39.202	-138.539	-131.936	-131.696	-124.159	28.967	-124.909	-8191	255	
20996.211	1	1	0	0	0.14952	0.24704	0.18161	0.12685	0.15171	0.16292	0.0064036	0.071189	0.40713	0.1925	0.087306	0.25854	0.16483	0.13049	0.19247	0.26311	-2.1771	-3.3208	-2.8958	-2.8771	-3.4792	-2.6917	-3.2354	-3.25	-2.5896	-3.3646	-3.1792	-2.8646	-3.4813	-2.6646	-2.9813	-3.2833	109.172	-15.264	199.926	-99.622	-137.667	79.149	-114.934	156.345	164.158	93.157	-60.616	171.177	134.833	-136.090	150.308	61.929	0.00035351	0.00040732	0.00011669	1084.2	3.8781e-06	4.5584e-06	1195.7	222.58	5.6462e-06	3.0879e-06	285.74	80.673	62.552	18.224	4.2213e-06	25.811	0.00064182	0.00071219	0.00019763	1076.5	7.7873e-06	7.8613e-06	1187.5	223.16	7.8895e-06	7.9494e-06	287.85	81.718	63.677	18.773	7.7012e-06	26.472	-21.001	-61.802	-151.199	-145.678	6.235	-12.490	-145.631	-138.360	-9.623	-53.680	-138.573	-131.635	-131.416	-123.633	-10.779	-124.238	-8191	255	
20996.307	1	1	0	0	0.36296	0.067874	0.2344	0.24095	0.21614	0.11108	0.25086	0.10378	0.17515	0.0099042	0.20293	0.15537	0.17588	0.14972	0.18629	0.12136	-2.2938	-3.2833	-3.1479	-2.8583	-3.5042	-2.7687	-3.2271	-3.3354	-2.5208	-3.3458	-3.3271	-2.6583	-3.3937	-2.8688	-2.8208	-3.3917	-25.135	31.492	-105.014	-144.323	-116.779	-55.072	103.018	-56.157	-82.743	67.334	194.690	167.876	-87.717	151.338	-153.735	115.061	0.00035476	0.00031142	8.1322e-05	1090.2	3.062e-06	9.9194e-07	1192.6	223.08	5.3346e-06	4.6379e-06	285.48	80.219	62.727	18.272	4.2797e-06	25.517	0.00064986	0.00070715	0.00019543	1078.8	7.5205e-06	7.8417e-06	1183.8	222.76	7.5189e-06	7.6614e-06	287.07	81.496	63.608	18.768	7.5407e-06	26.41	-19.188	-135.088	-84.811	-145.258	-78.698	-50.664	-145.169	-138.215	-98.066	-49.429	-138.087	-131.168	-131.233	-123.708	10.853	-124.279	-8191	255	
20996.426	1	1	0	0	0.2296	0.062327	0.098863	0.29655	0.17801	0.10026	0.17582	0.21892	0.35467	0.30719	0.53902	0.095573	0.26621	0.033527	0.072312	0.30598	-2.2438	-3.0917	-3.2208	-2.7083	-3.4833	-2.8271	-2.975	-3.325	-2.5646	-3.2292	-3.2646	-2.7188	-3.3896	-2.9208	-2.8146	-3.475	-123.652	-18.175	-122.076	108.083	20.440	75.296	201.208	-13.820	92.292	179.460	78.279	-93.724	-68.928	32.734	-145.636	156.855	0.00042525	0.00011789	9.9693e-05	1088	8.9717e-06	1.8825e-06	1192.2	223.2	7.0423e-07	6.9165e-06	284.75	80.186	62.622	18.318	1.7869e-06	25.634	0.00063784	0.00068246	0.00019081	1077	7.4826e-06	7.5915e-06	1184.1	222.65	7.5583e-06	7.5717e-06	287.37	81.415	63.531	18.795	7.6551e-06	26.478	-20.425	-106.187	-52.290	-144.987	50.159	66.837	-145.468	-138.190	-6.972	-11.768	-138.391	-131.430	-131.314	-123.545	-77.747	-124.234	-8191	255	
20996.496	1	1	0	0	0.1194	0.23205	0.1666	0.3511	0.17004	0.11788	0.16303	0.10382	0.1004	0.11407	0.0095219	0.099578	0.052561	0.17856	0.10459	0.12334	-2.2104	-3.1063	-3.5229	-2.7417	-3.3729	-2.8792	-2.975	-3.4958	-2.6562	-3.1083	-3.5458	-2.5938	-3.3125	-2.9417	-2.7979	-3.475	-70.894	182.379	109.744	140.762	15.460	-49.721	134.700	42.214	186.654	-12.417	190.510	203.959	-23.667	-121.560	197.135	142.590	0.00032595	0.0002791	0.00015749	1086.4	1.8429e-06	3.3089e-06	1198.4	222.44	4.8377e-06	2.8479e-06	283.75	80.797	62.755	18.121	4.2055e-06	25.624	0.0006322	0.00070232	0.00019297	1076.6	7.6381e-06	7.7854e-06	1186.3	222.28	7.5362e-06	7.7531e-06	286.99	81.779	63.534	18.722	7.7059e-06	26.444	-17.928	-47.417	-39.746	-145.507	55.363	43.782	-145.089	-137.627	2.446	-38.412	-138.492	-131.437	-130.751	-123.328	29.183	-124.119	-8191	255	
20996.617	1	1	0	0	0.21602	0.24798	0.05065	0.17583	0.12556	0.15192	0.29158	0.13762	0.19687	0.20976	0.22042	0.14014	0.12854	0.13742	0.20886	0.08089	-2.2625	-2.9979	-3.4562	-2.7021	-3.2958	-3.0542	-2.7958	-3.3646	-2.8396	-2.875	-3.5083	-2.7583	-3.2938	-3.2208	-2.6542	-3.4813	-1.520	93.443	96.773	138.290	-86.970	103.407	174.626	187.186	161.066	-65.078	98.877	146.094	54.574	5.375	-83.084	98.263	0.00037533	0.0004948	0.00017231	1086.9	4.0761e-06	2.8344e-06	1200	224.77	2.4844e-06	4.7379e-06	285.81	80.351	63.25	18.133	3.1661e-06	25.69	0.00064725	0.00070572	0.00019938	1077.7	7.8043e-06	7.7838e-06	1186.6	223.29	7.6901e-06	7.8068e-06	287.92	81.47	63.704	18.765	7.6561e-06	26.485	-10.464	-136.992	-65.992	-144.985	-60.926	-24.696	-144.883	-137.454	6.446	23.036	-137.261	-130.458	-130.183	-124.049	3.019	-124.743	-8191	255	
20996.713	1	1	0	0	0.077793	0.035038	0.12173	0.33478	0.085983	0.35485	0.24209	0.11568	0.30647	0.053096	0.1473	0.17584	0.20007	0.24112	0.12908	0.12928	-2.5292	-2.7708	-3.475	-2.6542	-3.0854	-3.275	-2.7438	-3.45	-2.8125	-2.9208	-3.5125	-2.7229	-3.3229	-3.1479	-2.5479	-3.4313	-147.969	-82.055	90.837	-127.380	69.864	56.493	177.471	-91.097	-117.849	43.545	86.301	65.953	-155.789	-148.897	8.372	64.244	0.00031493	0.00015779	0.000139	1083.4	5.3319e-06	1.6983e-06	1191.3	223.19	4.2289e-06	2.6691e-06	286.45	79.507	62.612	18.312	3.1346e-06	25.787	0.00063493	0.0006965	0.00019365	1077	7.6872e-06	7.5893e-06	1184.5	222.84	7.4166e-06	7.6967e-06	287.64	81.329	63.608	18.846	7.6193e-06	26.54	-27.420	139.505	-39.980	-145.538	4.329	-24.699	-145.871	-138.620	3.977	13.970	-138.301	-131.863	-130.764	-123.934	7.762	-124.511	-8191	255	
20996.809	1	1	0	0	0.15788	0.2828	0.031102	0.026294	0.070811	0.050615	0.20182	0.16578	0.17479	0.078512	0.11348	0.25167	0.24957	0.2319	0.095846	0.19241	-2.7062	-2.775	-3.3417	-2.9958	-2.675	-3.25	-2.7979	-3.3688	-2.9021	-2.5708	-3.5167	-2.8125	-3.0792	-3.375	-2.575	-3.2771	-97.250	-77.736	-49.522	-125.233	-154.259	-56.312	164.981	-41.300	39.204	-138.964	131.953	194.606	123.594	-0.037	21.655	-134.382	0.00030561	0.00037674	9.6002e-06	1088.7	1.7979e-06	4.4572e-06	1197.8	222.67	4.5089e-06	6.5322e-07	285.54	80.613	62.516	18.293	3.8079e-06	25.501	0.00064079	0.00069841	0.00019508	1076.9	7.7487e-06	7.7453e-06	1186.1	222.63	7.6336e-06	7.9372e-06	288.16	81.527	63.651	18.816	7.7295e-06	26.407	-25.815	-113.445	-106.288	-145.445	-51.678	28.446	-145.164	-137.502	12.371	-9.185	-138.206	-131.243	-130.728	-123.801	-21.213	-124.642	-8191	255	
20996.904	1	1	0	0	0.053949	0.16817	0.17947	0.16863	0.24837	0.30099	0.29508	0.17558	0.15109	0.16144	0.063533	0.25701	0.05934	0.10567	0.11052	0.37175	-2.8187	-2.5896	-3.3812	-2.9104	-2.8875	-3.4875	-2.8	-3.25	-3.0479	-2.4917	-3.4667	-2.8812	-2.8104	-3.5208	-2.6167	-3.0875	-75.349	55.094	-81.873	170.367	191.105	141.523	121.843	154.096	46.916	-8.010	-137.689	-128.575	101.477	-140.562	154.919	-41.232	0.00037794	0.00024821	4.2918e-05	1091.3	4.6946e-06	3.2223e-06	1198.2	222.82	6.1613e-06	2.394e-06	288.43	80.457	62.8	18.141	2.3691e-06	25.78	0.00063285	0.00071557	0.00019742	1078.5	7.7333e-06	7.6666e-06	1183.9	222.71	7.5954e-06	7.7778e-06	288.52	81.613	63.551	18.749	7.5727e-06	26.502	-32.346	174.941	-104.616	-145.298	-22.004	11.001	-145.364	-138.110	14.350	160.401	-137.918	-131.563	-131.015	-123.382	-111.187	-124.170	-8191	255	
20997.025	1	1	0	0	0.11529	0.105	0.28894	0.41157	0.22882	0.19489	0.22776	0.051571	0.096403	0.053212	0.28699	0.070907	0.061524	0.11444	0.16312	0.2694	-3.0875	-2.5875	-3.4	-3.1542	-2.7979	-3.4813	-2.8146	-3.2125	-3.425	-2.5812	-3.4396	-3.0125	-2.75	-3.4271	-2.7792	-3.1521	78.549	-78.577	12.069	120.599	101.747	180.068	149.778	1.205	-36.004	-124.662	-138.678	-110.754	-46.153	-103.715	188.529	43.700	0.00036367	0.00021935	0.00013952	1088.4	5.9681e-06	2.3193e-06	1192.4	222.83	5.9432e-06	3.7289e-06	286.35	80.28	62.229	18.223	5.9157e-06	25.572	0.00063313	0.00068331	0.00018864	1075	7.5158e-06	7.5913e-06	1182.8	222.45	7.4109e-06	7.6645e-06	287.98	81.495	63.471	18.744	7.5095e-06	26.456	-32.741	-142.320	2.695	-145.254	-11.446	-24.313	-145.368	-138.494	10.779	13.549	-138.640	-131.865	-131.396	-123.907	-1.180	-124.785	-8191	255	
20997.121	1	1	0	0	0.23264	0.10168	0.26116	0.15194	0.33023	0.16277	0.32695	0.10413	0.15804	0.21803	0.19372	0.13429	0.14542	0.21441	0.073577	0.18098	-2.9729	-2.5771	-3.4396	-3.2458	-2.6729	-3.4604	-2.9688	-2.7458	-3.4979	-2.85	-3.4021	-3.2021	-2.7313	-3.6208	-2.8333	-2.7271	175.406	26.500	185.269	127.427	-31.278	112.710	146.877	44.879	138.781	191.960	-155.387	196.072	-36.577	-13.609	125.716	22.279	0.00039058	0.00037189	9.0552e-05	1082.6	2.8763e-06	3.0083e-06	1188.4	222.68	7.7702e-06	3.4595e-06	286.29	81.059	62.648	18.289	1.9602e-06	25.728	0.00063116	0.00068981	0.00019376	1074.2	7.5378e-06	7.6995e-06	1182.7	223.01	7.457e-06	7.6947e-06	287.94	81.766	63.664	18.777	7.5761e-06	26.452	-28.027	-72.029	-14.192	-145.767	-101.887	65.949	-145.981	-138.347	-44.730	10.638	-138.643	-132.093	-131.173	-123.884	-11.835	-124.713	-8191	255	
20997.193	1	1	0	0	0.13601	0.20567	0.14345	0.1492	0.13425	0.14198	0.25183	0.13492	0.13795	0.20449	0.078813	0.067543	0.14833	0.11672	0.078352	0.34458	-3.025	-2.3979	-3.1292	-3.2188	-2.6917	-3.4042	-3.1229	-2.9625	-3.3958	-2.5812	-3.1479	-3.1937	-2.4375	-3.3792	-2.9354	-2.7458	64.993	-6.007	-60.543	-95.963	113.684	30.788	70.169	-131.990	-96.633	-87.196	71.748	72.097	-3.640	189.470	141.961	-145.458	0.00044818	0.0009252	7.7929e-05	1081.9	5.1737e-06	1.5052e-06	1197.6	221.29	3.5229e-06	1.8586e-06	283.15	80.357	62.443	18.115	4.8375e-06	25.509	0.00063061	0.00071142	0.0001937	1074.9	7.6272e-06	7.75e-06	1183.2	222.38	7.7245e-06	7.8244e-06	287.08	81.623	63.546	18.761	7.4409e-06	26.398	-18.264	-100.248	-17.360	-145.672	-71.424	-17.851	-145.886	-138.448	19.829	-110.595	-138.513	-131.992	-131.429	-124.338	30.343	-124.447	-8191	255	
20997.289	1	1	0	0	0.075443	0.14653	0.21396	0.052898	0.019567	0.18989	0.23306	0.078061	0.26152	0.1716	0.26176	0.21167	0.21125	0.16718	0.24093	0.18479	-2.9542	-2.6167	-3.1458	-3.3354	-2.5708	-3.3063	-3.2917	-2.8	-3.3333	-2.7208	-2.8688	-3.4375	-2.6354	-3.3083	-3.0958	-2.7479	-23.916	-34.453	19.235	-92.348	-140.359	13.081	39.214	-60.406	-68.183	124.362	172.883	140.230	167.525	94.788	122.296	185.051	0.00035513	0.00040462	0.00010803	1085.3	4.6026e-06	3.0727e-06	1192.3	221.65	5.4734e-06	3.7499e-06	286.76	81.122	63.192	18.196	3.2218e-06	25.659	0.00062468	0.00069898	0.00019192	1074.6	7.4798e-06	7.3686e-06	1182.8	222.36	7.4364e-06	7.4146e-06	287.88	81.697	63.63	18.742	7.5532e-06	26.37	-21.142	-72.468	-49.199	-145.816	40.740	14.310	-145.833	-138.286	-6.062	-0.020	-138.700	-132.082	-131.438	-124.145	-38.821	-125.143	-8191	255	
20997.410	1	1	0	0	0.10999	0.085126	0.071705	0.2668	0.060222	0.066779	0.26938	0.12642	0.27233	0.37479	0.13433	0.15003	0.16103	0.15474	0.15732	0.11375	-3.1562	-2.8125	-2.9188	-3.55	-2.6979	-3.2583	-3.1833	-2.4167	-3.3854	-2.7708	-2.85	-3.4562	-2.7687	-3.2146	-3.3187	-2.6042	91.549	175.014	62.775	-116.987	171.839	-155.076	104.984	193.004	-149.973	-138.345	-138.968	148.627	-147.117	-151.607	-2.106	-119.343	0.00035018	0.00048333	0.00010889	1083.9	4.4762e-06	4.4811e-06	1199.2	222.21	7.1281e-06	3.7964e-06	285.15	80.187	62.814	18.209	4.2315e-06	25.644	0.00062864	0.00069483	0.0001894	1076.3	7.6555e-06	7.5852e-06	1184	222.32	7.461e-06	7.6636e-06	287.5	81.445	63.52	18.75	7.4928e-06	26.447	-31.070	-110.242	19.158	-145.906	-91.005	32.088	-145.983	-138.335	-6.629	-10.648	-138.597	-131.753	-131.581	-124.262	-26.942	-124.682	-8191	255	
20997.506	1	1	0	0	0.23798	0.15338	0.19754	0.22084	0.1408	0.15639	0.24251	0.16201	0.13835	0.063941	0.039577	0.16871	0.045654	0.090992	0.11036	0.22077	-3.0021	-2.8917	-2.7313	-3.5146	-2.5542	-3.1833	-3.375	-2.5104	-3.4292	-2.9458	-2.9708	-3.5896	-2.6937	-3.0292	-3.3563	-2.4854	202.612	82.443	-131.474	101.435	101.389	24.364	146.876	-116.640	151.274	18.048	-43.159	-38.265	21.306	-49.401	7.746	-91.840	0.00033848	0.00029112	4.0763e-05	1088.2	5.3678e-06	2.8273e-06	1192.8	222.3	3.2155e-06	7.8598e-06	285.52	80.295	62.347	18.354	3.7519e-06	25.616	0.00063234	0.00070549	0.00019327	1077.7	7.4507e-06	7.6531e-06	1185.1	222.27	7.3497e-06	7.5151e-06	287.07	81.511	63.354	18.781	7.1902e-06	26.408	-16.584	2.849	-87.603	-145.800	-61.133	-50.481	-145.659	-138.401	-132.672	-17.444	-138.674	-132.182	-131.813	-123.472	-7.054	-125.260	-8191	255	
20997.602	1	1	0	0	0.15168	0.20982	0.10725	0.22615	0.42102	0.1094	0.26498	0.053943	0.076723	0.10127	0.08132	0.24415	0.22696	0.18957	0.22536	0.22872	-3.0396	-2.9958	-2.5167	-3.6021	-2.6479	-2.7792	-3.5021	-2.6813	-3.375	-2.9667	-2.8354	-3.4688	-2.8458	-2.8688	-3.4125	-2.5354	109.782	163.662	197.185	202.618	-83.751	-138.576	174.876	129.342	0.412	-92.859	-42.154	152.751	-23.325	133.823	151.036	163.221	0.00038156	0.00061257	8.7581e-05	1084.1	5.0801e-06	2.637e-06	1197.7	222.09	2.8601e-06	3.9144e-06	285.57	80.852	62.751	18.209	4.2815e-06	25.455	0.00060764	0.00066481	0.00018801	1075.1	7.3729e-06	7.4414e-06	1185	222.46	7.2989e-06	7.4645e-06	287.13	81.633	63.517	18.72	7.2583e-06	26.372	-29.429	-45.990	-29.218	-145.847	-1.124	55.069	-145.644	-138.446	-74.716	25.188	-138.386	-131.852	-131.579	-123.986	14.706	-124.903	-8191	255	
20997.697	1	1	0	0	0.111	0.23175	0.17419	0.29041	0.14276	0.19569	0.064493	0.2377	0.066159	0.098345	0.11345	0.19376	0.17983	0.093635	0.13571	0.19566	-2.8667	-3.1688	-2.5229	-3.6125	-2.7938	-2.6292	-3.2979	-2.6854	-3.0687	-3.2417	-2.5375	-3.4104	-2.7979	-2.7958	-3.3854	-2.7667	37.569	-106.356	83.965	200.937	116.490	-34.760	157.091	148.546	-89.761	187.085	-83.982	-103.486	-46.903	157.440	202.562	-125.809	0.00048492	0.00024454	0.0002147	1087.2	6.6343e-06	1.8273e-06	1192.1	222.4	5.9551e-06	3.2752e-06	286.27	80.625	62.567	18.052	6.9627e-06	25.395	0.00061526	0.0006778	0.00019364	1075.4	7.3255e-06	7.4788e-06	1182.5	222.44	7.3906e-06	7.306e-06	287.84	81.626	63.367	18.763	7.3609e-06	26.394	-32.768	-120.586	-95.487	-145.729	-29.692	6.530	-145.900	-138.467	3.832	-25.802	-138.442	-131.958	-131.153	-123.577	3.820	-125.042	-8191	255	
20997.793	1	1	0	0	0.20682	0.027311	0.072339	0.30745	0.097958	0.14247	0.34245	0.12511	0.078567	0.11207	0.13756	0.1256	0.10423	0.056668	0.013444	0.30253	-2.7958	-3.3063	-2.6437	-3.3833	-2.9646	-2.8583	-3.5917	-2.8521	-3.0542	-3.3208	-2.4896	-3.4271	-3.1458	-2.6667	-3.6	-2.9062	-63.388	143.608	24.956	162.298	192.798	-12.139	111.765	-73.486	166.651	-134.414	95.275	193.060	-8.364	144.570	3.951	-148.099	0.00047277	0.0004555	1.5714e-05	1082.5	6.3965e-06	1.8929e-06	1196	221.06	1.3022e-06	4.835e-06	285.21	80.427	62.612	18.233	5.9812e-06	25.694	0.00061579	0.00068233	0.00018899	1075.7	7.2152e-06	7.2058e-06	1183.5	221.89	6.9996e-06	7.3581e-06	287.66	81.479	63.421	18.767	7.1794e-06	26.346	-19.280	-29.816	-51.354	-145.597	-47.762	5.324	-145.939	-138.567	165.858	-27.964	-138.446	-132.103	-131.689	-124.051	-38.766	-124.634	-8191	255	
20997.891	1	1	0	0	0.20324	0.064738	0.30292	0.12627	0.23331	0.10377	0.090243	0.25574	0.08566	0.12517	0.10086	0.17356	0.31852	0.12881	0.19592	0.14096	-2.7021	-3.3417	-2.5271	-3.4688	-2.9792	-2.7229	-3.6604	-2.9729	-2.9104	-3.5292	-2.7521	-3.3542	-3.1646	-2.7458	-3.3958	-2.9646	-22.565	110.082	27.313	102.384	123.416	-71.721	89.990	99.454	50.185	83.744	141.086	-121.842	-142.957	177.938	101.081	-152.087	0.00036308	0.00035296	3.9774e-05	1087.4	1.1113e-06	2.4118e-06	1192.7	222.08	4.6279e-06	5.2688e-06	284.77	80.744	62.443	18.215	3.9896e-06	25.471	0.00061176	0.0006652	0.00018394	1075.9	7.1409e-06	7.3126e-06	1182.3	222.14	7.1511e-06	7.3181e-06	286.36	81.673	63.423	18.734	7.2083e-06	26.393	-24.342	-55.072	-2.946	-145.570	125.692	-129.519	-145.824	-138.683	-5.794	-2.060	-138.458	-131.980	-131.371	-123.935	24.863	-125.107	-8191	255	
20997.986	1	1	0	0	0.21529	0.040454	0.20781	0.16262	0.054151	0.1344	0.16444	0.18633	0.29126	0.2555	0.070343	0.1367	0.10951	0.0269	0.16712	0.086624	-2.5417	-3.5	-2.5417	-3.2875	-3.2417	-2.6104	-3.4042	-2.9562	-2.8187	-3.625	-2.8583	-3.2792	-3.2188	-2.675	-3.3958	-3.175	143.210	-120.993	161.150	-54.652	134.872	96.592	85.055	136.300	15.716	171.451	-45.468	155.821	36.478	78.280	-95.556	-87.627	0.00035135	0.00039734	9.7739e-05	1083.2	3.8805e-06	2.4721e-06	1185.7	222.07	4.8857e-06	1.2928e-06	285	80.139	62.147	18.255	6.0809e-06	25.77	0.00059874	0.0006536	0.00018663	1074.3	7.1586e-06	7.3032e-06	1181.1	221.85	7.237e-06	7.2756e-06	287.05	81.469	63.266	18.723	7.1523e-06	26.414	-20.054	-115.953	-54.902	-145.650	13.068	80.803	-145.642	-138.356	-47.995	-58.049	-138.648	-131.495	-131.642	-124.012	-54.184	-125.164	-8191	255	
20998.105	1	1	0	0	0.11324	0.15191	0.092683	0.15559	0.2243	0.035841	0.3065	0.20938	0.090021	0.033204	0.10337	0.1303	0.12132	0.08974	0.19485	0.15056	-2.3896	-3.3375	-2.7375	-3.0479	-3.3021	-2.5729	-3.35	-3.2333	-2.7313	-3.5771	-2.8479	-3.1042	-3.5708	-2.4604	-3.275	-3.2083	-42.937	168.721	-20.976	101.801	-112.612	62.530	108.314	171.526	5.166	200.455	152.537	108.518	-31.346	-74.319	-126.656	102.346	0.00032351	0.00027888	5.687e-05	1080.7	4.3057e-06	3.533e-06	1192.2	221.32	2.0833e-06	2.8438e-06	284.76	80.296	62.178	18.225	3.8232e-06	25.54	0.00060581	0.00066292	0.00018384	1072.9	6.9567e-06	7.289e-06	1181.4	222.19	7.2284e-06	7.2403e-06	286.71	81.437	63.438	18.759	7.0438e-06	26.352	-15.189	-116.804	-151.902	-145.439	-91.498	-4.755	-145.666	-138.112	47.472	-45.090	-138.858	-131.752	-131.670	-123.746	-14.799	-125.008	-8191	255	
20998.203	1	1	0	0	0.080975	0.14659	0.20216	0.14645	0.14482	0.29326	0.35306	0.18687	0.056755	0.1431	0.070148	0.26492	0.14473	0.13151	0.23301	0.0069094	-2.2646	-3.4625	-2.8604	-2.7562	-3.475	-2.7021	-3.3521	-3.1542	-2.5875	-3.4313	-3.0292	-2.7979	-3.725	-2.6729	-3.1229	-3.2292	-66.606	-0.733	-143.284	177.983	-54.952	93.880	127.523	113.912	-147.544	-139.771	112.525	137.644	42.077	82.657	-118.012	129.859	0.00046535	0.00045735	3.7186e-05	1084.3	9.5963e-07	3.1156e-06	1188.7	221.55	1.5411e-06	4.9042e-06	285.27	80.074	62.395	18.266	1.9712e-06	25.601	0.00060101	0.00066728	0.00018639	1073.7	7.1241e-06	7.278e-06	1180.5	221.64	7.1333e-06	7.2934e-06	286.9	81.503	63.497	18.726	7.3137e-06	26.308	-28.201	-103.048	-108.330	-145.520	-114.399	-70.083	-145.708	-138.385	32.365	-7.279	-138.942	-131.554	-131.374	-123.666	19.579	-124.545	-8191	255	
20998.299	1	1	0	0	0.30928	0.14284	0.15784	0.078639	0.23314	0.11631	0.068403	0.16114	0.15307	0.10836	0.41297	0.053178	0.26893	0.12411	0.25312	0.27518	-2	-3.125	-2.8187	-2.7604	-3.475	-2.775	-3.1604	-3.4458	-2.7771	-3.3958	-2.9917	-2.7458	-3.3688	-2.6271	-2.8667	-3.4	102.020	44.487	-44.603	-146.487	139.911	130.499	-113.117	123.777	191.378	189.725	148.716	-154.458	-132.924	152.125	45.228	160.343	0.00033271	0.00038194	2.7086e-05	1085.8	2.0073e-06	1.4898e-06	1196	222.08	3.9042e-06	7.0605e-06	285.83	80.426	63.017	18.109	6.8102e-06	25.74	0.00062428	0.0006656	0.00018402	1074.1	7.2635e-06	7.4015e-06	1183.3	222.01	7.2693e-06	7.3384e-06	287.01	81.495	63.508	18.682	7.2421e-06	26.451	-24.539	-96.632	-90.089	-145.689	-51.496	51.131	-145.472	-138.120	-1.613	-46.279	-138.696	-131.639	-131.134	-123.775	-10.838	-124.490	-8191	255	
20998.395	1	1	0	0	0.16817	0.1823	0.086095	0.2734	0.15778	0.13557	0.33922	0.10027	0.23908	0.051694	0.33604	0.25286	0.36282	0.11305	0.16282	0.17534	-2.2583	-3.2313	-3.0938	-2.65	-3.5	-2.7271	-3.0146	-3.4062	-2.5896	-3.3187	-3.0667	-2.7896	-3.4021	-2.8	-2.75	-3.4667	166.129	79.322	51.725	-125.499	152.813	32.552	157.773	-61.806	181.175	-79.730	146.439	34.881	-115.154	-149.617	185.224	-144.691	0.00033705	0.00017741	0.00013672	1077.2	6.3226e-06	3.5976e-06	1191.1	220.89	6.0457e-06	6.2216e-06	286.4	79.833	62.467	18.271	2.193e-06	25.663	0.00060514	0.00064911	0.00018228	1071.4	7.1768e-06	7.2364e-06	1181.8	221.34	7.0637e-06	7.246e-06	286.82	81.354	63.436	18.707	7.1791e-06	26.369	-33.528	-13.865	-65.116	-145.660	5.170	56.563	-145.460	-138.053	-23.032	-30.312	-138.502	-131.643	-131.102	-123.536	23.878	-124.703	-8191	255	
20998.488	1	1	0	0	0.13878	0.42928	0.071671	0.2812	0.23197	0.25384	0.31135	0.28121	0.17846	0.11432	0.076216	0.042676	0.11526	0.2046	0.15386	0.11227	-2.1	-3.0792	-3.1604	-2.5771	-3.2	-2.9542	-2.8917	-3.4375	-2.4333	-3.0833	-3.2479	-2.6792	-3.2271	-2.8833	-2.5167	-3.4333	75.591	-134.963	-102.185	174.240	96.127	185.476	157.156	108.858	155.728	30.232	-49.514	-153.563	175.081	96.438	-121.100	62.485	0.00042979	0.00039964	7.9432e-05	1082.1	5.9085e-06	4.2358e-07	1188.9	221.35	3.8791e-06	2.4056e-06	285.06	80.091	62.83	18.204	1.9198e-06	25.563	0.00060675	0.00064378	0.00018226	1071.7	7.0909e-06	7.1654e-06	1181.4	221.66	7.1888e-06	7.2938e-06	287.29	81.363	63.489	18.685	7.1097e-06	26.317	-36.885	-68.120	199.845	-145.539	-79.431	199.185	-145.666	-138.150	-7.458	-52.684	-138.463	-131.460	-131.080	-123.801	157.607	-124.621	-8191	255	
20998.586	1	1	0	0	0.29812	0.23339	0.22523	0.42229	0.24663	0.12371	0.20663	0.20323	0.27978	0.12273	0.18789	0.16582	0.18198	0.29855	0.19612	0.16728	-2.2417	-2.8708	-3.2104	-2.6854	-3.1021	-3.0292	-2.7854	-3.5667	-2.6604	-2.9854	-3.3542	-2.4813	-3.3042	-3.0917	-2.6646	-3.4792	150.901	99.961	132.812	158.107	80.127	40.043	20.089	189.429	85.922	-110.949	-112.657	-132.232	79.179	140.264	-63.984	95.257	0.00035242	0.00040533	0.00016525	1081.8	3.5929e-06	3.4691e-06	1188.7	223.65	7.0464e-06	3.7431e-06	286.18	80.401	62.704	18.017	4.689e-06	25.479	0.00060109	0.00063732	0.00018003	1070.9	6.9596e-06	7.1274e-06	1179.7	222.43	6.8688e-06	7.089e-06	286.93	81.386	63.33	18.669	6.9568e-06	26.352	-14.844	-117.803	-67.273	-145.385	21.055	53.714	-145.387	-137.927	-22.443	15.288	-138.084	-131.460	-131.285	-124.288	35.274	-124.984	-8191	255	
20998.682	1	1	0	0	0.12694	0.10856	0.13204	0.33381	0.097985	0.1013	0.093596	0.17473	0.10382	0.11595	0.22182	0.10698	0.11396	0.22319	0.35363	0.1577	-2.4354	-2.8333	-3.2562	-2.7	-3.0687	-3.2521	-2.7083	-3.4125	-2.6979	-2.5083	-3.3271	-2.3625	-2.9917	-3.1604	-2.4313	-3.3729	41.100	-97.788	-58.718	154.291	137.880	97.961	180.310	86.778	-61.585	-113.464	119.904	-131.012	168.361	-130.790	7.040	123.744	0.00037589	0.00046568	0.00012013	1081.8	4.2737e-06	3.6871e-06	1185	221.48	2.1213e-06	3.163e-06	285.09	80.067	62.145	18.098	2.0179e-06	25.612	0.00059183	0.00065689	0.00017234	1071.7	6.9144e-06	6.9146e-06	1176.9	221.6	6.7837e-06	6.8689e-06	285.8	81.191	63.162	18.623	6.7502e-06	26.313	-18.374	-99.587	-53.579	-145.724	91.270	16.579	-145.847	-138.319	-50.543	21.645	-138.657	-132.417	-131.550	-124.357	34.112	-124.922	-8191	255	
20998.803	1	1	0	0	0.17545	0.060525	0.057645	0.20106	0.015427	0.071281	0.17912	0.30586	0.14869	0.10606	0.14448	0.21449	0.37566	0.097606	0.26224	0.14943	-2.4417	-2.6229	-3.3	-2.7521	-3.1083	-3.3063	-2.4667	-3.225	-2.8542	-2.5125	-3.4062	-2.5167	-3.0271	-3.2625	-2.4417	-3.1896	135.588	14.128	26.604	171.193	-100.000	158.811	160.120	163.221	124.346	-81.068	32.627	-143.600	150.202	170.706	67.494	-141.298	0.00036895	0.00041244	7.2774e-05	1077.4	2.7051e-06	1.223e-06	1188.9	220.82	3.4337e-06	4.9987e-06	283.74	79.91	62.175	18.198	5.8736e-06	25.345	0.00056897	0.0006336	0.00017525	1068.2	6.8148e-06	6.864e-06	1176.2	221.08	6.82e-06	6.9809e-06	286.06	81.1	63.27	18.705	6.966e-06	26.259	-32.783	-78.788	-37.782	-145.766	-81.358	-17.290	-145.901	-138.515	-40.437	55.021	-138.730	-132.000	-131.382	-124.102	94.232	-124.830	-8191	255	
20998.898	1	1	0	0	0.22537	0.093494	0.076837	0.22889	0.10831	0.1278	0.22396	0.12169	0.29797	0.38125	0.17851	0.099675	0.042911	0.23878	0.2003	0.12743	-2.5271	-2.6271	-3.3187	-2.6667	-2.7958	-3.3021	-2.7167	-3.1583	-3.0146	-2.5646	-3.4583	-2.7625	-2.9167	-3.2542	-2.3875	-3.2667	-91.197	-134.285	56.634	102.520	19.279	121.863	-151.035	120.924	-91.017	29.240	192.525	140.828	52.633	64.312	-145.137	-91.424	0.00035066	0.00062615	0.00011111	1077.5	6.4311e-06	2.358e-06	1185.8	221.77	4.4455e-06	2.9672e-06	286.24	80.065	62.355	18.187	2.458e-06	25.574	0.00056485	0.00064069	0.00017261	1067.8	6.7908e-06	6.8037e-06	1176.2	221.44	6.6702e-06	6.7968e-06	286.26	80.956	63.141	18.653	6.6447e-06	26.323	-30.873	-77.315	-36.169	-145.920	-25.088	7.284	-145.946	-138.135	-28.042	-5.420	-138.565	-132.081	-131.716	-124.170	-25.477	-124.928	-8191	255	
20998.994	1	1	0	0	0.056144	0.019094	0.13384	0.40741	0.15578	0.036442	0.19683	0.03082	0.10088	0.4074	0.19097	0.12236	0.093001	0.03785	0.15993	0.057961	-2.6667	-2.5125	-3.2375	-2.9062	-2.725	-3.4333	-2.6771	-3.1771	-3.1271	-2.5042	-3.4292	-2.8563	-2.5812	-3.175	-2.4042	-3.0729	58.235	31.250	188.148	138.973	-140.378	134.696	159.372	-37.972	142.401	142.840	151.486	-68.933	190.651	113.952	181.936	71.621	0.00038744	0.00038887	5.7977e-05	1075.2	4.1022e-06	1.8009e-06	1180.9	220.94	1.2448e-06	2.1291e-06	283.29	79.764	62.805	18.055	2.9689e-06	25.438	0.00055718	0.00062351	0.00017081	1066.7	6.669e-06	6.5904e-06	1173.9	220.8	6.3498e-06	6.7779e-06	285.35	80.875	63.183	18.603	6.7156e-06	26.189	-31.057	-48.550	-61.620	-145.838	-51.610	51.672	-145.672	-138.363	140.752	-78.122	-138.747	-132.002	-131.544	-123.939	-27.423	-124.825	-8191	255	
20999.066	1	1	0	0	0.17695	0.19766	0.064384	0.17101	0.17983	0.15512	0.28453	0.069934	0.28444	0.050087	0.23459	0.052983	0.32576	0.047325	0.062328	0.21725	-2.8375	-2.3854	-3.1667	-3.0167	-2.6604	-3.3771	-2.6833	-3.2125	-3.3937	-2.4167	-3.3292	-2.8479	-2.5229	-3.275	-2.5792	-2.8896	43.014	-118.455	-7.944	130.003	-114.600	-113.788	123.992	32.755	153.340	61.165	178.328	-57.535	-82.895	-37.288	74.050	-60.963	0.00042337	0.00051568	0.00011745	1074.4	4.8609e-06	2.0902e-06	1185.9	220.87	4.8637e-06	1.5711e-06	285.22	80.466	62.077	18.083	6.8723e-06	25.662	0.00055643	0.00062642	0.00017313	1064.3	6.7037e-06	6.6733e-06	1173.7	221.1	6.5653e-06	6.5304e-06	286.25	81.069	62.982	18.623	6.603e-06	26.288	-23.071	-97.122	-87.200	-145.963	23.845	16.624	-145.858	-138.494	25.280	87.824	-139.022	-131.906	-131.462	-123.809	-35.080	-124.564	-8191	255	
#DATA ENDS
