BOXY.EXE: ISS Imagent and Oximeter Data Acquisition Program Version 0.80
Ascii Record File

#ACQ INFORMATION
2  Detector Channels 
16  External MUX Channels 
1  Auxiliary Channels 
5000  Waveform (CCF) Frequency (Hz)
1  Waveforms Skipped 
30  Waveforms Averaged 
1  Cycles Averaged 
16  Acquisitions per Waveform 
10.0806  Updata Rate (Hz) 

#FILE INFORMATION
TRUE -- External MUX Channel results are PARSED.
FALSE -- AC DC and Phase are NOT grouped.
TRUE -- Companion Program Settings File CREATED.
FALSE -- AC data not excluded
FALSE -- DC data not excluded
FALSE -- Phase data not excluded
FALSE -- Auxillary Chn. data not excluded
Tab delimiters

#CALIBRATION STATE
TRUE -- Waveform Calibration Values APPLIED.


#AUX CALIBRATION VALUES
Val Type	aux-1	

Term	1.0000e+00	
Factor	0.0000e+00	


#WF CALIBRATION VALUES
A = Detector Channel
Val Type	A-AC1	A-AC2	A-AC3	A-AC4	A-AC5	A-AC6	A-AC7	A-AC8	A-AC9	A-AC10	A-AC11	A-AC12	A-AC13	A-AC14	A-AC15	A-AC16	A-DC1	A-DC2	A-DC3	A-DC4	A-DC5	A-DC6	A-DC7	A-DC8	A-DC9	A-DC10	A-DC11	A-DC12	A-DC13	A-DC14	A-DC15	A-DC16	A-Ph1	A-Ph2	A-Ph3	A-Ph4	A-Ph5	A-Ph6	A-Ph7	A-Ph8	A-Ph9	A-Ph10	A-Ph11	A-Ph12	A-Ph13	A-Ph14	A-Ph15	A-Ph16	

Term	0.00000e+00	0.00000e+00	0.00000e+00	0.00000e+00	0.00000e+00	0.00000e+00	0.00000e+00	0.00000e+00	0.00000e+00	0.00000e+00	0.00000e+00	0.00000e+00	0.00000e+00	0.00000e+00	0.00000e+00	0.00000e+00	0.00000e+00	0.00000e+00	0.00000e+00	0.00000e+00	0.00000e+00	0.00000e+00	0.00000e+00	0.00000e+00	0.00000e+00	0.00000e+00	0.00000e+00	0.00000e+00	0.00000e+00	0.00000e+00	0.00000e+00	0.00000e+00	0.00000e+00	0.00000e+00	0.00000e+00	0.00000e+00	0.00000e+00	0.00000e+00	0.00000e+00	0.00000e+00	0.00000e+00	0.00000e+00	0.00000e+00	0.00000e+00	0.00000e+00	0.00000e+00	0.00000e+00	0.00000e+00	
Factor	1.00000e+00	1.00000e+00	1.00000e+00	1.00000e+00	1.00000e+00	1.00000e+00	1.00000e+00	1.00000e+00	1.00000e+00	1.00000e+00	1.00000e+00	1.00000e+00	1.00000e+00	1.00000e+00	1.00000e+00	1.00000e+00	1.00000e+00	1.00000e+00	1.00000e+00	1.00000e+00	1.00000e+00	1.00000e+00	1.00000e+00	1.00000e+00	1.00000e+00	1.00000e+00	1.00000e+00	1.00000e+00	1.00000e+00	1.00000e+00	1.00000e+00	1.00000e+00	X	X	X	X	X	X	X	X	X	X	X	X	X	X	X	X	

B = Detector Channel
Val Type	B-AC1	B-AC2	B-AC3	B-AC4	B-AC5	B-AC6	B-AC7	B-AC8	B-AC9	B-AC10	B-AC11	B-AC12	B-AC13	B-AC14	B-AC15	B-AC16	B-DC1	B-DC2	B-DC3	B-DC4	B-DC5	B-DC6	B-DC7	B-DC8	B-DC9	B-DC10	B-DC11	B-DC12	B-DC13	B-DC14	B-DC15	B-DC16	B-Ph1	B-Ph2	B-Ph3	B-Ph4	B-Ph5	B-Ph6	B-Ph7	B-Ph8	B-Ph9	B-Ph10	B-Ph11	B-Ph12	B-Ph13	B-Ph14	B-Ph15	B-Ph16	

Term	0.00000e+00	0.00000e+00	0.00000e+00	0.00000e+00	0.00000e+00	0.00000e+00	0.00000e+00	0.00000e+00	0.00000e+00	0.00000e+00	0.00000e+00	0.00000e+00	0.00000e+00	0.00000e+00	0.00000e+00	0.00000e+00	0.00000e+00	0.00000e+00	0.00000e+00	0.00000e+00	0.00000e+00	0.00000e+00	0.00000e+00	0.00000e+00	0.00000e+00	0.00000e+00	0.00000e+00	0.00000e+00	0.00000e+00	0.00000e+00	0.00000e+00	0.00000e+00	-1.07200e+00	-1.36101e+02	-1.26972e+02	-1.81145e+02	-5.74851e+01	-6.50972e+01	-1.58196e+02	-1.62015e+02	-4.24239e+01	-6.52151e+01	-1.70310e+02	-1.70117e+02	-1.81676e+02	-1.76501e+02	-5.94616e+01	-1.49355e+02	
Factor	3.59234e-05	1.59826e-04	4.90676e-05	1.61587e-01	1.97099e-06	1.44992e-06	1.72205e-01	5.96698e-02	2.11306e-06	1.83272e-06	9.39561e-02	3.22471e-02	2.84731e-02	9.54445e-03	1.94426e-06	1.34256e-02	6.52020e-06	7.84418e-06	2.17318e-06	8.29810e-02	8.31184e-08	8.62690e-08	8.30464e-02	3.06820e-02	8.29478e-08	8.64596e-08	4.68418e-02	1.60686e-02	1.47170e-02	4.95140e-03	8.44639e-08	6.74576e-03	X	X	X	X	X	X	X	X	X	X	X	X	X	X	X	X	



#DISTANCE SETTINGS
A = Detector Channel
A-1	A-2	A-3	A-4	A-5	A-6	A-7	A-8	A-9	A-10	A-11	A-12	A-13	A-14	A-15	A-16	

2.5000e+00	3.0000e+00	2.5000e+00	3.0000e+00	2.0000e+00	3.0000e+00	1.5000e+00	3.0000e+00	3.0000e+00	3.0000e+00	3.0000e+00	3.0000e+00	3.0000e+00	3.0000e+00	1.5000e+00	3.0000e+00	

B = Detector Channel
B-1	B-2	B-3	B-4	B-5	B-6	B-7	B-8	B-9	B-10	B-11	B-12	B-13	B-14	B-15	B-16	

1.0000e+01	1.0000e+01	1.0000e+01	1.4400e+00	1.0000e+01	1.0000e+01	1.5100e+00	1.9400e+00	1.0000e+01	1.0000e+01	1.9900e+00	2.4900e+00	2.4100e+00	2.9000e+00	1.0000e+01	2.9800e+00	




#DATA BEGINS
time	group	step	mark	flag	A-AC1	A-AC2	A-AC3	A-AC4	A-AC5	A-AC6	A-AC7	A-AC8	A-AC9	A-AC10	A-AC11	A-AC12	A-AC13	A-AC14	A-AC15	A-AC16	A-DC1	A-DC2	A-DC3	A-DC4	A-DC5	A-DC6	A-DC7	A-DC8	A-DC9	A-DC10	A-DC11	A-DC12	A-DC13	A-DC14	A-DC15	A-DC16	A-Ph1	A-Ph2	A-Ph3	A-Ph4	A-Ph5	A-Ph6	A-Ph7	A-Ph8	A-Ph9	A-Ph10	A-Ph11	A-Ph12	A-Ph13	A-Ph14	A-Ph15	A-Ph16	B-AC1	B-AC2	B-AC3	B-AC4	B-AC5	B-AC6	B-AC7	B-AC8	B-AC9	B-AC10	B-AC11	B-AC12	B-AC13	B-AC14	B-AC15	B-AC16	B-DC1	B-DC2	B-DC3	B-DC4	B-DC5	B-DC6	B-DC7	B-DC8	B-DC9	B-DC10	B-DC11	B-DC12	B-DC13	B-DC14	B-DC15	B-DC16	B-Ph1	B-Ph2	B-Ph3	B-Ph4	B-Ph5	B-Ph6	B-Ph7	B-Ph8	B-Ph9	B-Ph10	B-Ph11	B-Ph12	B-Ph13	B-Ph14	B-Ph15	B-Ph16	aux-1	digaux	

23756.664	1	1	0	768	0.07573	0.27644	0.14473	0.15269	0.082964	0.20799	0.13101	0.35283	0.11345	0.070023	0.049646	0.16879	0.29594	0.11901	0.28489	0.05289	-2.7	-2.1896	-2.6937	-2.9667	-2.2521	-2.975	-2.5042	-2.4729	-3.2042	-2.4021	-2.7354	-3.0833	-2.1708	-3.0208	-2.4604	-2.4667	355.682	190.055	347.393	411.567	423.629	289.410	238.404	403.162	326.129	416.902	367.827	373.665	384.453	396.564	334.802	264.097	0.0012164	0.00035583	0.00012234	800.38	6.3598e-06	2.6369e-06	780.98	321.84	7.9195e-06	7.8766e-06	355.58	144.54	128.33	54.139	7.0113e-06	65.297	0.0023379	0.0026747	0.00072792	829.23	2.8026e-05	2.8858e-05	805.53	334.01	2.8312e-05	2.9556e-05	373.18	150.56	133.86	56.744	3.0196e-05	68.24	295.017	424.107	179.052	99.478	206.906	235.521	98.592	104.993	253.975	178.809	102.840	107.566	109.356	113.543	264.530	110.692	-8191	255	
23756.762	1	1	0	0	0.1864	0.29761	0.054608	0.18981	0.16864	0.041417	0.025716	0.27658	0.26394	0.085711	0.20467	0.11405	0.014757	0.23236	0.042604	0.11753	-2.8604	-2.2583	-2.6354	-3.0667	-2.1063	-3.0083	-2.7938	-2.3312	-3.2542	-2.5	-2.4521	-3.1792	-2.1583	-3.0417	-2.9313	-2.2333	351.324	323.941	365.554	379.402	295.375	278.504	331.565	418.808	138.390	218.480	418.524	346.654	139.772	444.744	350.200	336.153	0.0011306	0.00047717	0.00011314	805.39	1.1244e-05	2.3529e-06	781.35	322.39	1.2935e-05	2.9965e-06	357.9	145.06	127.96	53.799	4.5988e-06	64.633	0.0025028	0.00286	0.00078488	836.26	3.0897e-05	3.223e-05	810.75	335.61	3.1493e-05	3.2761e-05	376.67	151.02	133.67	56.558	3.2508e-05	67.794	302.967	239.001	239.360	99.463	218.406	360.072	98.778	104.793	210.963	272.742	103.040	107.711	109.443	113.669	238.344	110.563	-8191	255	
23756.857	1	1	0	0	0.21175	0.10451	0.10885	0.26565	0.25051	0.12843	0.048557	0.22994	0.076141	0.039866	0.2089	0.12023	0.13738	0.33528	0.13011	0.225	-2.8187	-2.4292	-2.5292	-3.1417	-2.275	-2.9437	-2.9896	-2.1708	-3.0042	-2.5417	-2.5438	-3.0312	-2.4667	-2.8479	-3.0396	-2.3125	143.113	436.761	398.020	386.215	292.136	224.036	409.742	334.299	289.230	133.453	302.898	118.646	143.278	91.176	122.727	376.208	0.0012688	0.00047223	8.2797e-06	805.14	8.7464e-06	3.7069e-06	784.08	322.57	1.4478e-05	7.8682e-06	357.22	144.77	127.54	53.324	6.5513e-06	63.818	0.0026806	0.0030395	0.00084379	839.84	3.2293e-05	3.3221e-05	814.08	336.23	3.2029e-05	3.2993e-05	376.66	150.55	133.59	56.124	3.2136e-05	67.194	298.372	151.976	175.129	99.571	206.839	246.090	98.799	104.833	268.226	231.528	102.692	107.581	109.467	113.840	267.691	110.720	-8191	255	
23756.953	1	1	0	0	0.12606	0.30093	0.16239	0.1022	0.20459	0.11805	0.1671	0.24541	0.19286	0.31319	0.1476	0.17448	0.36052	0.28692	0.25538	0.30496	-2.6646	-2.5604	-2.3563	-3.2562	-2.3563	-2.8563	-3.1375	-2.375	-2.9437	-2.4729	-2.325	-3.2396	-2.3917	-2.6479	-2.9313	-2.2333	353.722	223.254	208.504	119.414	155.444	416.871	357.778	307.859	306.011	139.040	302.989	411.416	423.966	424.079	320.507	434.138	0.0010543	0.00049333	5.8371e-05	804.65	1.0768e-05	1.0115e-06	777.1	320.41	7.8211e-06	1.0794e-05	354.72	144.39	127.15	53.592	1.3165e-05	64.225	0.0026184	0.0029603	0.00082322	835.47	3.1213e-05	3.2073e-05	804.81	333.72	3.049e-05	3.1352e-05	373.37	149.48	132.4	55.906	2.8803e-05	67.199	298.698	108.328	228.789	99.372	198.416	303.807	98.471	104.929	256.045	209.212	102.825	107.585	109.342	113.678	199.274	110.808	-8191	255	
23757.051	1	1	0	0	0.10101	0.16599	0.28348	0.13293	0.31148	0.18347	0.24108	0.22121	0.064897	0.25319	0.14763	0.21888	0.091854	0.29113	0.098042	0.31921	-2.5438	-2.7958	-2.2625	-2.9562	-2.4	-2.3875	-3.1	-2.35	-2.825	-2.8542	-2.2833	-3.0896	-2.6354	-2.3375	-2.9667	-2.4792	248.857	328.005	237.348	127.882	304.391	250.341	350.820	361.414	334.345	430.365	422.704	367.500	201.332	437.527	185.015	430.633	0.0011518	0.00050175	0.00026366	800.96	4.5776e-06	8.8169e-06	778.37	321.14	9.3614e-06	5.9714e-06	357.76	144.93	127.68	53.555	1.1363e-05	64.098	0.0023393	0.002611	0.00073156	827.56	2.7377e-05	2.8403e-05	803.59	333.09	2.7801e-05	2.9122e-05	374.59	150.39	133.14	55.945	2.8523e-05	67.162	295.469	177.979	169.596	99.444	256.580	261.106	98.704	104.953	200.873	210.724	102.790	107.627	109.455	113.611	261.043	110.501	-8191	255	
23757.146	1	1	0	0	0.056751	0.23963	0.1339	0.12734	0.26686	0.18714	0.1865	0.32786	0.091424	0.26386	0.093514	0.18231	0.28084	0.26253	0.17392	0.24534	-2.4729	-2.9	-2.0854	-3.1104	-2.5271	-2.3667	-3.1688	-2.3979	-2.6396	-3.0333	-2.3146	-3.1396	-2.7104	-2.4458	-3.2042	-2.3833	213.520	262.794	220.212	140.329	222.413	309.951	393.841	432.777	307.608	353.716	329.155	433.325	125.049	415.352	289.933	331.811	0.0012091	0.00084538	8.7136e-05	803.98	5.9684e-06	7.7039e-06	781.86	324.98	1.02e-05	5.084e-06	357.8	145.36	129.05	53.907	1.6931e-05	64.481	0.002337	0.0026179	0.00073193	835.17	2.7473e-05	2.8727e-05	809.04	335.26	2.7696e-05	2.8533e-05	374.08	150.25	133.42	56.221	2.7871e-05	67.356	296.681	142.456	394.392	99.515	270.288	248.155	98.682	104.868	240.928	168.716	102.794	108.068	109.416	113.577	219.579	110.641	-8191	255	
23757.266	1	1	0	0	0.17982	0.25465	0.22374	0.063072	0.1824	0.49948	0.13103	0.21947	0.032515	0.26446	0.063239	0.14581	0.14112	0.15547	0.12881	0.32003	-2.2083	-2.8729	-2.2646	-2.9646	-2.55	-2.3875	-3.1917	-2.3333	-2.4896	-2.9896	-2.2812	-3.0479	-2.7396	-2.3063	-3.0812	-2.5917	363.019	404.169	202.263	342.324	386.876	252.865	429.357	131.509	165.819	110.552	391.711	242.042	390.049	396.667	322.023	371.142	0.0011503	0.0003205	0.00019185	807.47	5.3604e-06	4.6214e-06	787.25	323.43	2.1596e-06	5.8902e-06	357.93	145.4	128.62	53.952	1.0131e-05	64.197	0.0023003	0.002592	0.00071132	836.21	2.6972e-05	2.7948e-05	810.77	334.45	2.6478e-05	2.766e-05	373.59	150.37	133.32	56.12	2.7035e-05	66.996	300.078	191.999	149.299	99.644	221.128	260.941	99.044	104.855	380.422	189.377	102.629	107.897	109.326	113.710	239.347	110.666	-8191	255	
23757.361	1	1	0	0	0.097023	0.23367	0.11974	0.2252	0.17588	0.16992	0.44955	0.24639	0.19708	0.021454	0.11705	0.19761	0.073563	0.2069	0.3701	0.19084	-2.1333	-3.0438	-2.2875	-2.9125	-2.6875	-2.2854	-3.2979	-2.5438	-2.4104	-3.0104	-2.3312	-2.9375	-2.9229	-2.325	-2.9104	-2.5271	279.202	299.291	232.026	384.922	280.095	126.777	345.572	383.633	310.515	163.508	423.748	357.383	205.741	372.562	183.281	223.620	0.0010902	0.00084243	0.00012618	804.63	1.3375e-05	4.5875e-06	778.85	321.09	4.2931e-06	8.0397e-06	353.1	143.87	128.63	53.682	8.165e-06	64.194	0.0022184	0.0024693	0.00069357	832.79	2.6027e-05	2.7134e-05	801.71	332.42	2.6022e-05	2.7023e-05	369.84	148.86	133.16	56.034	2.6705e-05	66.741	303.981	168.356	180.130	99.698	237.166	237.781	98.808	104.895	260.892	229.303	102.642	107.986	109.679	113.669	239.217	110.800	-8191	255	
23757.457	1	1	0	0	0.096258	0.13168	0.13755	0.22671	0.11932	0.12538	0.10257	0.12246	0.22457	0.27313	0.25788	0.18856	0.28248	0.37997	0.22322	0.33557	-2.0271	-3.1375	-2.1729	-2.8458	-2.8646	-2.1583	-2.9979	-2.7833	-2.45	-3.0792	-2.4938	-2.8583	-2.8812	-2.3187	-3.0146	-2.7479	426.074	203.730	398.774	439.348	334.577	135.289	340.929	322.372	314.443	209.619	349.945	412.771	409.800	392.270	140.061	416.613	0.0013599	0.00085147	6.8845e-05	806.33	5.8769e-06	4.0351e-06	777.25	321.85	2.442e-05	4.7842e-06	355.59	143.86	127.9	54.018	8.675e-06	64.32	0.0022317	0.0024811	0.00069097	836.6	2.6243e-05	2.7004e-05	803.64	332.86	2.5978e-05	2.6813e-05	370.15	148.66	133.16	56.352	2.6132e-05	67.131	291.844	173.296	287.064	99.829	260.789	233.137	98.487	104.956	266.384	191.079	102.919	108.053	109.562	114.052	262.399	110.797	-8191	255	
23757.553	1	1	0	0	0.13013	0.14877	0.19329	0.20626	0.083792	0.092023	0.14375	0.44545	0.12621	0.14219	0.080675	0.21513	0.21669	0.023772	0.32779	0.23961	-1.925	-3.0208	-2.4271	-2.6771	-2.9917	-2.1729	-2.9854	-2.9313	-2.1792	-3.1583	-2.6188	-2.4313	-3.1021	-2.3792	-2.875	-3.0104	406.920	200.752	383.741	349.825	362.040	163.989	430.009	427.947	125.078	366.337	384.897	348.146	124.681	262.575	175.090	444.849	0.0012878	0.00028425	0.0001137	810.44	3.9464e-06	3.6637e-06	784.83	322	7.8396e-06	5.3549e-06	355.05	144.79	129.03	54.196	1.3366e-05	64.449	0.0021633	0.002418	0.00066966	834.7	2.5278e-05	2.6725e-05	805.12	333.06	2.5468e-05	2.6432e-05	371	149.52	133.42	56.425	2.5653e-05	67.246	293.683	168.206	243.108	99.623	238.089	349.773	98.909	104.926	242.912	236.411	102.910	108.238	109.600	113.838	218.581	110.955	-8191	255	
23757.650	1	1	0	0	0.12684	0.16675	0.19679	0.36468	0.1179	0.13431	0.35948	0.34181	0.19153	0.1888	0.068849	0.24028	0.22287	0.14019	0.066871	0.27577	-1.7854	-3.025	-2.3396	-2.45	-3.0812	-2.2333	-2.8438	-3.0604	-2.3917	-3.0646	-2.4313	-2.6417	-3.2146	-2.4313	-2.7917	-3.0146	210.986	176.515	408.928	420.464	205.849	197.207	393.722	445.089	414.064	439.409	356.769	413.205	142.359	365.527	261.688	417.721	0.0013619	0.00057762	7.8179e-05	813.52	5.0107e-06	3.4659e-06	788.98	323.4	8.7991e-06	5.1299e-06	356.39	145.7	128.82	54.315	9.8336e-06	64.597	0.0021337	0.0023816	0.00066097	836.94	2.5084e-05	2.6505e-05	809.21	333.59	2.5341e-05	2.6098e-05	372.54	150.05	133.78	56.523	2.5464e-05	67.325	301.485	174.239	225.480	99.661	350.037	226.740	98.943	105.047	339.192	274.222	103.160	107.935	109.590	113.846	217.105	110.913	-8191	255	
23757.746	1	1	0	0	0.14967	0.068023	0.19697	0.26971	0.13727	0.14894	0.24646	0.10751	0.11551	0.096409	0.14712	0.20702	0.12088	0.18941	0.42945	0.14053	-1.775	-2.9396	-2.6396	-2.5208	-2.975	-2.2833	-2.6521	-3.0292	-2.1104	-2.8896	-2.7667	-2.4833	-3.1167	-2.5542	-2.6417	-2.9604	139.768	189.092	396.193	120.059	95.246	155.911	357.117	127.579	317.736	362.076	416.210	446.922	103.145	421.900	274.174	440.441	0.0013341	4.1268e-05	0.00024076	807.67	1.5151e-05	9.0247e-06	778.31	321.67	5.4993e-06	9.3584e-06	353.68	144.12	128.66	54.036	8.6153e-06	64.363	0.0021341	0.0023724	0.00065674	833.08	2.5049e-05	2.5887e-05	802.08	332.39	2.5149e-05	2.6151e-05	369.85	149.04	133.24	56.285	2.5417e-05	67.013	301.914	106.897	236.248	99.558	181.115	228.266	98.942	105.035	323.685	220.697	103.030	108.045	109.467	113.865	253.274	110.738	-8191	255	
23757.865	1	1	0	0	0.024977	0.28171	0.22421	0.26221	0.20472	0.24547	0.13947	0.29965	0.12461	0.30697	0.26833	0.13259	0.032039	0.18426	0.12844	0.038679	-1.9188	-2.8104	-2.6396	-2.3979	-3.1312	-2.2104	-2.6458	-2.9083	-2.0604	-3.0375	-3.0021	-2.25	-3.075	-2.6813	-2.3958	-3.225	380.553	297.749	272.392	443.361	288.629	366.493	401.160	437.338	274.633	148.911	426.001	338.542	154.153	335.822	323.493	100.454	0.0010768	0.0002809	0.00016396	804.34	7.3625e-06	8.3334e-06	776.69	323.14	8.466e-06	5.8419e-06	357.52	144.59	128.72	54.239	9.405e-06	64.736	0.0021094	0.002348	0.0006471	831.15	2.4956e-05	2.5865e-05	800.52	333.13	2.5236e-05	2.6136e-05	372.29	149.65	133.68	56.505	2.5509e-05	67.372	300.815	152.826	135.501	99.758	242.026	254.867	98.849	105.074	257.932	231.915	102.969	108.296	109.815	113.697	271.327	110.953	-8191	255	
23757.961	1	1	0	0	0.054323	0.105	0.065105	0.083176	0.074772	0.12865	0.15147	0.30971	0.26732	0.093587	0.14326	0.099006	0.1308	0.25001	0.24987	0.30694	-1.6812	-2.5396	-2.6958	-2.2917	-3.0583	-2.6104	-2.4542	-3.2104	-2.2979	-2.7042	-3.0875	-2.0833	-3.15	-2.6917	-2.3917	-3.0625	397.186	205.142	373.235	181.823	404.626	409.893	160.093	428.538	248.550	120.905	209.680	172.183	118.299	405.292	189.936	392.610	0.0011958	0.00081514	0.00017612	807.59	1.9065e-06	3.1825e-06	781.37	322.97	1.3035e-05	7.6801e-06	359.15	145.22	129.9	54.429	4.1374e-06	64.943	0.0021372	0.0023802	0.00065757	832.78	2.5488e-05	2.5846e-05	805.26	334.58	2.5518e-05	2.6067e-05	374.16	150.19	134.23	56.632	2.5801e-05	67.642	302.531	145.791	115.251	99.662	276.042	146.793	98.573	105.169	242.418	242.836	103.025	108.082	109.551	113.622	257.142	110.416	-8191	255	
23758.057	1	1	0	0	0.10534	0.1005	0.04149	0.11761	0.10592	0.065882	0.15418	0.17789	0.34261	0.21006	0.14579	0.12235	0.1135	0.21553	0.13534	0.19397	-1.8979	-2.5812	-3.0458	-2.325	-3.1521	-2.6083	-2.525	-3.1083	-2.5	-2.7292	-3.0104	-2.2125	-3.1417	-2.8083	-2.3146	-3.35	223.976	340.468	341.001	357.144	308.166	220.980	211.741	105.256	142.063	284.788	407.220	380.083	250.746	390.338	193.883	95.154	0.0011429	0.0002661	6.3404e-05	809.5	1.0669e-05	3.9255e-06	786.41	323.39	5.4102e-07	2.3959e-06	360.52	145.92	129.48	54.349	1.066e-05	64.946	0.0021278	0.0024128	0.00066078	836.5	2.5509e-05	2.6339e-05	809.9	334.73	2.5596e-05	2.6447e-05	375.8	150.77	134.28	56.525	2.6047e-05	67.631	298.254	122.181	150.761	99.590	249.697	232.360	98.619	105.104	341.874	288.248	103.015	108.114	109.576	113.645	221.517	110.765	-8191	255	
23758.152	1	1	0	0	0.05266	0.15989	0.16649	0.14081	0.18312	0.25388	0.16341	0.35687	0.12305	0.02557	0.33061	0.026259	0.32636	0.26779	0.093132	0.029533	-2.2083	-2.55	-3.0479	-2.5042	-2.9958	-2.7458	-2.3937	-3.0521	-2.225	-2.4958	-3.2313	-2.35	-2.9208	-2.7938	-1.8875	-3.0667	159.458	335.216	430.315	272.316	350.925	93.438	396.388	374.772	225.418	175.611	384.665	352.695	146.657	109.985	160.511	308.404	0.0011526	0.00051122	4.7088e-05	809.77	1.3256e-05	3.4514e-06	780.37	323.26	5.4424e-06	2.2424e-06	356.27	144.09	129	53.935	5.2168e-06	64.578	0.0021484	0.0024072	0.00066044	834.72	2.571e-05	2.6623e-05	802.43	334.41	2.5872e-05	2.6482e-05	371.68	149.31	133.73	56.294	2.6224e-05	67.159	297.851	145.671	254.158	99.542	254.122	200.422	98.971	105.234	253.892	384.385	102.701	107.901	109.574	113.672	260.498	111.026	-8191	255	
23758.227	1	1	0	0	0.24238	0.2408	0.16489	0.15735	0.33253	0.038268	0.17193	0.16956	0.30254	0.098849	0.24297	0.52894	0.18417	0.16839	0.21838	0.15689	-2.1	-2.2708	-2.9208	-2.3292	-2.6583	-2.8333	-2.3438	-2.9979	-2.3375	-2.3771	-3.2875	-2.325	-2.7458	-3.1083	-2.3167	-3.1104	291.990	376.092	407.189	383.668	357.116	283.489	104.944	325.415	265.837	118.126	429.263	94.833	174.032	107.144	326.142	116.909	0.0011459	0.0007782	0.00013596	806.12	3.5487e-06	3.4634e-06	775.63	321.74	6.824e-06	3.7222e-06	358.36	145.29	129.19	54.084	7.6803e-06	64.722	0.0021552	0.0024056	0.0006635	830.76	2.5481e-05	2.6237e-05	801.12	333.16	2.5401e-05	2.6487e-05	373.34	150.12	133.64	56.509	2.6025e-05	67.531	298.732	204.771	263.297	99.680	187.933	347.723	98.560	105.290	199.313	313.447	103.079	107.727	109.724	113.624	236.857	110.581	-8191	255	
23758.346	1	1	0	0	0.33375	0.1689	0.057301	0.11145	0.15209	0.05311	0.025996	0.19906	0.085082	0.23698	0.11848	0.14321	0.16764	0.21125	0.12442	0.32715	-2.0958	-2.2146	-2.9813	-2.3667	-2.6792	-2.9688	-2.3375	-3.0292	-2.5625	-2.1063	-2.9646	-2.2729	-2.6063	-3.1708	-2.1542	-2.9729	334.006	316.291	199.206	426.299	339.987	133.237	231.460	332.934	177.971	405.903	130.182	341.873	187.770	340.939	441.997	410.539	0.0013567	0.00077854	0.0001735	802.7	1.1357e-05	9.8527e-06	781.96	323.32	7.9368e-06	1.2623e-06	359.62	146.02	129.49	54.248	9.0469e-06	65.329	0.0021612	0.0024025	0.00066977	829.39	2.5747e-05	2.6586e-05	804.06	334.12	2.5361e-05	2.6593e-05	374.69	151.12	133.96	56.609	2.6276e-05	68.084	300.287	117.628	191.166	99.360	240.965	249.047	99.097	105.110	303.381	439.228	103.045	108.081	109.738	114.079	218.149	111.331	-8191	255	
23758.441	1	1	0	0	0.17806	0.032299	0.11366	0.052557	0.17901	0.36564	0.34285	0.11302	0.2215	0.091427	0.28432	0.20662	0.057266	0.19474	0.14688	0.41398	-2.5438	-2.2188	-2.9521	-2.6417	-2.3729	-3.1271	-2.2	-2.9208	-2.6208	-2.1875	-3.1917	-2.4646	-2.5229	-3.1896	-2.2667	-2.9688	97.042	418.149	395.373	249.433	383.769	119.943	436.505	427.996	367.772	107.171	429.211	434.673	382.823	416.450	329.197	376.541	0.0011889	0.00048622	0.00019691	802.86	8.3463e-06	1.3386e-06	785.15	323.76	6.5541e-06	6.7671e-06	362.01	146.16	129.25	54.449	1.574e-05	65.217	0.0021605	0.0024379	0.00067734	829	2.5971e-05	2.6632e-05	807.69	334.44	2.5767e-05	2.6869e-05	377.18	151.57	134.45	56.688	2.6269e-05	68.023	304.982	158.539	184.750	99.634	199.823	314.354	99.221	105.142	366.065	210.295	103.316	108.047	109.730	113.849	244.040	111.195	-8191	255	
23758.537	1	1	0	0	0.087094	0.2066	0.13049	0.20558	0.18645	0.26753	0.1527	0.19656	0.026185	0.09094	0.090746	0.26332	0.28467	0.079328	0.066008	0.33901	-2.5229	-2.1479	-3.0708	-2.5875	-2.3688	-3.1167	-2.4083	-2.9042	-2.8854	-2.2375	-3.1167	-2.5542	-2.5646	-3.2354	-2.2771	-2.6208	213.593	320.186	189.736	223.768	262.762	238.088	417.251	361.598	145.496	317.706	199.038	389.451	442.866	401.147	418.796	308.814	0.0013704	0.00042782	0.00028824	801.23	5.3473e-06	7.5055e-06	780.49	323.48	1.3157e-05	7.1614e-06	359.7	145.68	129.26	53.986	9.653e-06	64.999	0.0021716	0.0024097	0.00067064	826.43	2.5435e-05	2.6515e-05	801.92	334.04	2.5528e-05	2.6586e-05	374.84	150.6	133.88	56.418	2.6157e-05	67.48	296.199	177.485	169.982	99.783	213.393	228.592	98.944	105.145	243.798	186.999	103.156	107.986	109.630	114.162	207.270	111.104	-8191	255	
23758.658	1	1	0	0	0.13242	0.15953	0.10033	0.074277	0.075175	0.036003	0.35992	0.2433	0.053474	0.22038	0.20683	0.23355	0.17799	0.10721	0.24601	0.22226	-2.5417	-2.2375	-2.8021	-2.5187	-2.1875	-3.075	-2.5646	-2.4625	-3.0771	-2.1521	-2.8438	-2.8083	-2.3146	-2.9667	-2.4333	-2.5	426.436	359.009	328.562	347.678	261.276	146.983	340.212	367.870	404.087	158.580	105.955	405.042	440.005	113.750	173.300	357.996	0.0014033	0.00052724	0.00016514	799.97	1.0344e-05	2.3908e-06	779.15	322.65	6.8805e-06	3.9038e-06	360.11	145.39	129.26	54.104	1.1542e-05	65.153	0.0021497	0.0024013	0.00067106	825.94	2.5512e-05	2.6273e-05	802.69	333.93	2.5608e-05	2.6685e-05	374.84	150.66	133.89	56.513	2.6183e-05	67.755	299.340	164.300	196.031	99.877	304.871	143.337	99.164	105.215	214.634	249.146	103.484	108.111	109.537	113.973	241.967	111.293	-8191	255	
23758.754	1	1	0	0	0.20742	0.38539	0.1242	0.27534	0.21092	0.10345	0.30345	0.084503	0.13118	0.2133	0.15232	0.2088	0.2194	0.015909	0.25362	0.35774	-2.7687	-2.175	-2.6583	-2.9958	-2.1292	-3.05	-2.5812	-2.5417	-3.0292	-2.5042	-2.9583	-3.0563	-2.3312	-3.1188	-2.6979	-2.2917	364.063	435.742	109.167	128.895	401.002	175.261	373.565	416.426	322.334	434.954	265.688	123.989	381.445	365.053	391.991	111.515	0.0013752	0.0003255	0.00012642	798.44	9.306e-06	4.2618e-06	781.38	324.16	5.36e-06	5.2086e-06	363.58	146.51	130.18	54.395	9.3207e-06	65.023	0.0021614	0.0023958	0.00066712	825.83	2.5758e-05	2.6646e-05	803.66	335.28	2.5595e-05	2.6707e-05	377.55	151.4	134.53	56.736	2.5844e-05	67.82	299.842	179.450	120.571	99.792	258.385	216.221	99.020	105.424	299.626	264.921	103.013	108.042	109.849	114.020	243.784	111.075	-8191	255	
23758.826	1	1	0	0	0.10903	0.22916	0.26747	0.38284	0.048321	0.17068	0.22539	0.32766	0.28247	0.13416	0.13063	0.11271	0.18587	0.18224	0.095451	0.21806	-2.6604	-2.3021	-2.5187	-3.0667	-2.0687	-2.8833	-2.8125	-2.4375	-3.0646	-2.3771	-2.6354	-3.0271	-2.1437	-2.9708	-2.6583	-2.4333	115.328	226.048	368.286	422.109	220.664	331.351	354.380	412.685	277.446	122.868	109.083	92.051	340.592	432.510	256.430	428.692	0.0011822	0.00093272	0.0002122	801.83	3.1201e-06	8.3262e-06	788.32	324.97	1.0551e-05	9.6092e-06	361.26	146.28	129.92	54.346	1.025e-05	65.398	0.0021673	0.0023929	0.00066549	829.77	2.5478e-05	2.6364e-05	809.99	335.46	2.5689e-05	2.6673e-05	377.49	151.63	134.61	56.694	2.6102e-05	68.079	296.378	149.429	129.063	99.845	239.366	234.399	98.980	105.403	277.348	217.006	103.403	108.197	109.723	113.878	199.773	111.160	-8191	255	
23758.947	1	1	0	0	0.24914	0.1276	0.15545	0.32055	0.045439	0.038495	0.23965	0.13124	0.084151	0.28087	0.36376	0.098905	0.43703	0.12965	0.22035	0.089656	-2.6937	-2.3979	-2.3292	-2.9313	-2.0458	-2.8396	-2.8229	-2.2333	-2.9	-2.3646	-2.5	-3.1437	-2.2229	-2.9354	-2.6792	-2.3271	157.614	373.657	378.629	372.714	339.933	423.755	199.872	316.232	123.674	169.542	331.094	151.603	433.250	322.414	262.968	340.681	0.0012164	0.0005772	0.00010164	803	6.0145e-06	6.5078e-06	783.64	324.99	6.6506e-06	1.1515e-05	358.32	144.98	129.75	54.161	4.9626e-06	64.671	0.0021754	0.0024248	0.00067677	829.42	2.5671e-05	2.6776e-05	805.86	335.22	2.5583e-05	2.6783e-05	375.02	150.5	134.27	56.407	2.5956e-05	67.254	293.313	183.774	152.371	99.996	252.564	240.615	98.921	105.327	210.358	206.740	103.504	108.110	109.690	114.026	232.192	111.048	-8191	255	
23759.043	1	1	0	0	0.16891	0.093425	0.024793	0.13176	0.19146	0.18008	0.35598	0.31805	0.25838	0.2937	0.21826	0.25308	0.3388	0.14194	0.15374	0.16815	-2.8125	-2.3563	-2.3458	-3.0875	-2.2146	-2.95	-2.8979	-2.175	-2.9938	-2.5604	-2.4583	-3.1646	-2.3667	-2.7125	-2.8812	-2.2667	347.873	393.931	135.653	358.344	308.626	331.080	394.280	377.190	283.315	93.705	142.924	96.254	376.522	431.439	137.967	364.379	0.0013124	0.00055762	0.00019021	804.14	1.4231e-05	2.7072e-06	780.59	322.22	1.861e-05	3.1947e-06	359.22	145.6	129.62	54.249	7.7907e-06	64.763	0.0021674	0.0024155	0.00067408	830.58	2.5567e-05	2.6423e-05	802.97	333.77	2.552e-05	2.659e-05	373.8	150.39	134.11	56.5	2.6269e-05	67.429	298.808	164.381	164.090	100.061	203.167	305.931	98.923	105.191	257.947	277.531	103.506	108.082	110.102	114.213	255.720	111.231	-8191	255	
23759.137	1	1	0	0	0.24886	0.10631	0.14843	0.098995	0.2612	0.061617	0.19552	0.070645	0.059796	0.071607	0.04434	0.091821	0.2505	0.44703	0.10998	0.081513	-2.45	-2.3438	-2.2833	-3.0958	-2.2646	-2.5583	-2.9313	-2.1833	-2.7125	-2.7917	-2.4167	-3.0687	-2.4875	-2.6292	-2.9875	-2.3854	425.871	392.306	375.628	133.382	298.515	217.999	379.387	364.755	138.033	173.638	281.062	394.470	409.588	341.762	144.092	313.526	0.0010953	0.00015247	9.9778e-05	806.11	4.1892e-06	2.842e-06	786.22	324.47	1.2334e-05	1.5972e-06	360.62	145.84	129.68	54.247	1.1346e-06	64.755	0.0021919	0.0024433	0.00067791	833.43	2.6313e-05	2.7242e-05	806.65	335.17	2.6751e-05	2.7245e-05	375.9	151.06	134.56	56.522	2.6573e-05	67.577	299.166	215.919	194.660	100.040	177.064	185.672	99.247	105.178	203.323	356.555	103.147	108.031	109.928	114.193	346.812	110.917	-8191	255	
23759.258	1	1	0	0	0.042594	0.19404	0.11717	0.12477	0.032667	0.098918	0.082215	0.20796	0.23057	0.21659	0.044836	0.11282	0.18284	0.1852	0.12458	0.2984	-2.65	-2.5792	-2.1708	-3.0438	-2.2896	-2.4437	-2.9562	-2.1688	-2.7604	-2.7521	-2.0792	-3.0292	-2.4	-2.5229	-3.0167	-2.3667	426.804	156.095	204.364	377.808	440.398	293.422	386.709	101.719	408.161	208.557	399.417	267.183	221.476	253.451	264.113	410.904	0.0011548	0.0003724	0.00010136	807.18	1.3385e-05	6.9466e-06	785.12	324.59	1.4434e-05	6.8097e-06	362.49	146.53	129.43	54.214	1.2666e-05	64.684	0.002223	0.0024753	0.00068716	833.1	2.6327e-05	2.714e-05	808.62	335.28	2.6604e-05	2.7391e-05	377.5	151.58	134.53	56.715	2.7307e-05	67.697	303.072	153.375	131.251	100.075	236.750	216.347	98.921	105.351	306.512	228.357	103.368	108.180	110.047	114.091	190.086	111.206	-8191	255	
23759.354	1	1	0	0	0.24779	0.14314	0.13476	0.24232	0.14279	0.1054	0.036766	0.18379	0.37189	0.18636	0.1961	0.027179	0.24952	0.1667	0.31678	0.17131	-2.3563	-2.5667	-2.1604	-3.0792	-2.2104	-2.3625	-3.2375	-2.2167	-2.75	-3.0042	-2.2313	-2.9229	-2.6354	-2.4688	-2.8812	-2.3	210.485	315.143	238.924	388.211	273.156	329.288	180.799	287.855	361.059	432.294	387.222	434.452	152.161	431.628	186.482	376.419	0.0013313	0.00096739	0.00025243	806.45	2.9416e-06	9.1299e-06	781.59	322.66	1.8955e-05	5.6911e-06	360.49	145.46	129.2	53.898	7.6026e-06	64.584	0.002251	0.0024987	0.00069828	833.65	2.6563e-05	2.7739e-05	805.63	334.74	2.6833e-05	2.7427e-05	374.91	150.56	134.17	56.321	2.7148e-05	67.211	303.285	167.558	242.077	99.850	253.648	179.938	99.148	105.237	251.218	283.014	103.287	108.145	109.860	114.409	262.435	111.275	-8191	255	
23759.449	1	1	0	0	0.10876	0.084786	0.13542	0.37347	0.024339	0.10114	0.093071	0.13044	0.078725	0.26578	0.094646	0.023712	0.19897	0.22427	0.18646	0.20001	-2.1854	-2.8833	-2.2417	-2.9562	-2.5812	-2.2479	-3.2	-2.6583	-2.5458	-3.1125	-2.3833	-3.0167	-2.9417	-2.1458	-3.0812	-2.4437	439.377	342.791	287.750	413.613	169.960	156.240	439.339	433.277	110.490	404.017	191.008	312.004	90.566	98.619	425.846	395.506	0.0011669	0.00096746	0.00022247	801.55	3.0412e-06	8.6156e-06	781.22	324.08	1.1517e-05	3.3776e-06	358.48	145.59	128.97	54.214	4.5686e-06	64.578	0.0022483	0.0025285	0.00069473	829.71	2.6572e-05	2.7958e-05	803.4	334.76	2.6789e-05	2.7774e-05	374.62	150.75	134	56.473	2.7368e-05	67.368	294.283	204.374	182.298	100.215	265.565	288.292	99.124	105.508	276.488	177.318	103.538	108.213	109.838	113.875	313.830	111.149	-8191	255	
23759.521	1	1	0	0	0.21786	0.23769	0.21767	0.18125	0.21683	0.064144	0.20217	0.21906	0.23502	0.31729	0.49032	0.10971	0.18468	0.29909	0.01785	0.28497	-1.9458	-2.9875	-2.1208	-3.0687	-2.7917	-2.1875	-3.0396	-2.475	-2.4125	-2.8229	-2.2896	-2.9604	-2.9104	-2.2729	-2.725	-2.7313	103.469	301.030	446.418	383.319	186.462	103.768	333.159	432.621	140.339	125.199	436.959	441.471	360.170	380.359	175.038	335.090	0.0011144	0.0010371	0.00017207	801.13	2.0832e-06	4.492e-06	785.01	323.79	1.1606e-05	1.105e-05	361.58	145.8	129.26	53.991	9.065e-06	64.657	0.0022519	0.002501	0.00070349	828.98	2.6706e-05	2.7618e-05	806.46	334.53	2.6894e-05	2.7713e-05	376	150.77	134.04	56.286	2.7478e-05	67.358	295.607	157.109	115.991	100.179	359.952	211.397	98.895	105.215	265.166	272.593	103.607	108.282	109.842	114.169	237.754	111.168	-8191	255	
23759.643	1	1	0	0	0.085255	0.085847	0.11286	0.17293	0.20696	0.24376	0.22596	0.12127	0.0042602	0.35281	0.17624	0.086103	0.1447	0.23714	0.38344	0.23494	-1.9333	-2.9604	-2.275	-2.6542	-2.9771	-2.2313	-2.9938	-2.6146	-2.2875	-3.0833	-2.375	-2.6458	-2.7562	-2.1917	-2.8563	-2.7854	428.166	297.841	276.916	392.928	217.274	269.250	348.826	320.149	315.621	335.442	440.952	109.596	347.778	403.172	246.577	397.690	0.0011817	0.00076703	0.0001886	801.03	6.7481e-06	6.2203e-06	783.03	323.36	9.0351e-06	9.9537e-06	362.49	146.54	129.36	54.333	5.225e-06	65.093	0.0022411	0.0025224	0.00070744	829.73	2.6782e-05	2.7894e-05	807.55	334.5	2.6784e-05	2.7705e-05	377.67	151.62	134.16	56.547	2.7252e-05	67.736	303.717	148.883	224.849	100.289	184.012	263.091	99.247	105.502	268.476	205.428	103.687	108.371	110.079	114.385	291.406	111.447	-8191	255	
23759.738	1	1	0	0	0.25891	0.13139	0.1699	0.22791	0.17149	0.31885	0.31011	0.081241	0.056927	0.20658	0.10152	0.29484	0.061684	0.33168	0.11641	0.10318	-1.8583	-3.025	-2.3604	-2.6208	-2.9396	-2.1854	-2.9271	-2.7333	-2.2833	-3.0021	-2.4875	-2.4562	-3.1	-2.1667	-2.7458	-2.9375	126.056	244.968	132.131	112.013	301.242	415.715	385.226	131.052	393.685	106.992	216.400	385.228	191.438	371.601	183.093	328.885	0.0011385	0.0007853	0.00017019	800.12	1.0038e-05	9.6177e-06	781.08	322.78	2.2893e-05	5.4404e-06	357.99	145.27	129.27	53.784	5.5836e-06	64.179	0.0022404	0.0025103	0.00070425	828.93	2.6792e-05	2.7983e-05	805.46	333.8	2.6641e-05	2.7868e-05	374.46	150.6	133.85	56.211	2.7716e-05	67.137	299.302	183.587	178.247	100.500	281.306	260.865	99.373	105.423	267.250	299.158	103.632	108.544	110.489	114.343	267.000	111.414	-8191	255	
23759.836	1	1	0	0	0.45162	0.21538	0.028789	0.2977	0.35011	0.052243	0.25523	0.17778	0.11431	0.16651	0.13006	0.16262	0.12365	0.099578	0.19201	0.20687	-1.6396	-3.0583	-2.3958	-2.5229	-2.9958	-2.275	-2.8958	-3.0229	-2.2271	-2.9938	-2.6042	-2.5062	-3.2229	-2.2542	-2.7354	-3.0854	138.687	305.297	273.137	424.889	101.155	403.508	411.402	414.257	112.118	103.441	145.138	392.053	399.625	153.700	231.797	330.500	0.0012178	0.00044632	0.00012432	798.1	4.918e-06	5.3662e-06	779.39	322.29	1.1748e-05	7.8261e-06	358.05	144.67	128.74	53.705	6.0198e-06	64.326	0.0022793	0.0025855	0.00070785	826.27	2.727e-05	2.856e-05	802.15	333.49	2.7209e-05	2.8546e-05	374.68	150.18	133.87	56.138	2.7895e-05	67.161	304.517	225.241	175.878	100.235	233.086	246.666	99.393	105.303	217.335	209.178	103.303	108.125	110.276	114.219	255.933	111.441	-8191	255	
23759.932	1	1	0	0	0.15948	0.17661	0.22174	0.36181	0.041521	0.23512	0.097792	0.14885	0.12425	0.23217	0.11523	0.055917	0.25009	0.28874	0.13176	0.17193	-1.8958	-2.9417	-2.4667	-2.3229	-3.0375	-2.1542	-2.7521	-2.9542	-2.0812	-2.8771	-2.6333	-2.2021	-3.0875	-2.5667	-2.6063	-2.9542	135.784	428.553	124.345	435.862	233.425	435.971	414.009	445.588	208.124	423.280	101.746	300.935	119.052	94.766	106.645	302.364	0.0010482	0.00077739	0.00041999	797.3	8.754e-06	6.838e-06	782.21	321.46	7.7834e-06	3.8655e-06	359.49	145.97	128.76	53.899	9.5834e-06	64.76	0.0023014	0.0025867	0.00070707	826.25	2.7494e-05	2.8629e-05	806.94	333.63	2.7378e-05	2.8438e-05	377.06	150.95	134.08	56.266	2.8359e-05	67.424	298.519	184.395	165.974	100.703	275.913	226.489	99.354	105.589	234.766	265.487	103.625	108.577	110.200	114.474	250.057	111.805	-8191	255	
23760.051	1	1	0	0	0.082431	0.097954	0.08755	0.37889	0.16849	0.13	0.25803	0.14561	0.12994	0.24665	0.10696	0.056607	0.12104	0.054514	0.049047	0.10398	-1.7167	-2.8708	-2.5333	-2.3187	-2.9271	-2.4688	-2.4854	-3.0458	-2.0521	-2.8458	-2.8146	-2.3063	-3.1042	-2.5438	-2.3479	-3.0229	265.276	306.632	317.374	414.594	118.057	283.099	353.158	373.866	370.271	341.939	211.021	436.732	319.222	318.524	206.167	321.128	0.0012323	0.00070525	0.00026108	798.48	5.1875e-06	5.9021e-06	783	323.5	1.0706e-05	1.0015e-05	362.57	146.09	129	53.908	1.238e-05	64.829	0.0023399	0.0026102	0.00072098	828.88	2.795e-05	2.9007e-05	807.85	334.56	2.8013e-05	2.9029e-05	378.07	151.63	134.34	56.341	2.8625e-05	67.578	294.650	248.854	130.110	100.506	227.264	186.836	99.788	105.864	269.254	216.475	103.852	108.618	110.618	114.519	249.758	111.601	-8191	255	
23760.123	1	1	0	0	0.234	0.07719	0.12099	0.25807	0.10788	0.12733	0.10539	0.22593	0.20641	0.28722	0.35372	0.13362	0.14166	0.23513	0.081814	0.29474	-1.5104	-2.7104	-2.7229	-2.1562	-3.1083	-2.4167	-2.4125	-3.025	-2.1917	-2.775	-2.7667	-1.9167	-3.0417	-2.625	-2.3479	-3.0604	104.609	90.841	146.175	396.783	400.025	226.253	91.890	359.462	348.601	261.291	420.668	206.729	413.275	404.964	205.691	377.876	0.0011591	0.0012059	0.00024299	798.75	7.5637e-06	5.8565e-06	784.04	322.14	1.4309e-05	1.0532e-05	361.03	145.12	128.39	53.584	8.4359e-06	64.236	0.0023695	0.002649	0.00073084	829.03	2.8208e-05	2.9059e-05	809.23	334.66	2.7995e-05	2.8991e-05	377.67	150.49	133.93	56.025	2.8673e-05	67.005	300.753	180.401	164.552	100.639	245.827	217.675	99.807	105.593	227.385	241.981	103.604	108.636	110.536	114.398	263.793	111.762	-8191	255	
23760.219	1	1	0	0	0.22351	0.1562	0.15821	0.20147	0.066582	0.15757	0.23339	0.19934	0.27766	0.015415	0.43638	0.086118	0.27117	0.052352	0.30529	0.077337	-1.8208	-2.5396	-2.9375	-2.1792	-2.875	-2.6688	-2.3208	-3.1333	-2.4146	-2.6021	-3.0104	-2.0979	-2.9771	-2.8458	-2.2354	-3.25	91.410	120.643	142.260	155.771	93.909	170.820	96.536	379.773	434.622	105.770	119.146	163.654	408.319	106.647	320.302	112.112	0.0011985	0.00065652	0.0001274	799.93	7.2462e-06	4.4158e-06	778.47	321.9	9.5429e-06	4.3955e-06	359.57	145	129.17	53.529	6.4112e-06	64.437	0.0023625	0.002648	0.00073459	826.79	2.8016e-05	2.9102e-05	804.96	333.45	2.7858e-05	2.9389e-05	376.07	150.57	133.89	55.936	2.8661e-05	67.021	301.577	196.689	149.400	100.463	223.561	210.093	99.240	105.769	270.118	211.200	103.431	108.324	110.199	114.231	271.259	111.304	-8191	255	
23760.338	1	1	0	0	0.22429	0.044597	0.088879	0.13333	0.19324	0.082757	0.36698	0.2506	0.40357	0.14096	0.1006	0.42359	0.034231	0.24143	0.12712	0.17204	-1.9292	-2.3875	-2.9146	-2.2146	-2.5208	-2.7646	-2.5104	-3.0042	-2.3563	-2.5	-3.3375	-2.3375	-2.7792	-2.9979	-2.2375	-3.2958	283.654	124.533	371.464	372.637	230.544	253.833	347.172	376.909	142.940	309.370	411.258	429.165	446.297	422.862	367.929	409.308	0.0012717	0.00084817	0.00028326	800.34	1.0792e-05	6.9105e-06	782.1	321.9	2.3494e-06	9.3302e-06	360.58	145.37	128.82	53.828	9.1561e-06	64.759	0.002374	0.002638	0.00073714	828.56	2.8317e-05	2.9128e-05	807.66	333.83	2.8215e-05	2.9145e-05	376.95	150.94	134.04	56.116	2.8629e-05	67.41	302.651	196.953	200.379	100.416	215.100	282.263	99.531	105.629	322.257	245.182	103.228	108.536	109.997	114.246	235.802	111.470	-8191	255	
23760.434	1	1	0	0	0.24386	0.24601	0.14955	0.19429	0.26903	0.12405	0.19873	0.33025	0.15321	0.18413	0.011057	0.10668	0.26222	0.36447	0.082929	0.15899	-2.1042	-2.3667	-3.1146	-2.1583	-2.6854	-2.8333	-2.1188	-3.1771	-2.5979	-2.3833	-3.1875	-2.0917	-2.7708	-3.0146	-2.175	-2.9792	446.159	160.248	99.201	419.462	423.216	97.031	312.343	359.850	368.583	210.781	308.825	433.496	400.406	363.674	193.903	130.450	0.0012799	0.00078583	0.00023709	797.32	1.4735e-05	4.3234e-06	782.19	323.91	1.0104e-05	1.2509e-05	361.22	146.37	129.45	53.876	4.6495e-06	64.802	0.0023663	0.0026671	0.00073639	827.19	2.827e-05	2.9004e-05	808.36	334.27	2.8216e-05	2.9101e-05	378.51	151.44	134.26	56.251	2.8882e-05	67.584	291.807	166.195	217.070	100.591	245.751	271.216	99.705	105.579	240.390	243.777	103.644	108.674	110.415	114.295	286.780	111.647	-8191	255	
23760.531	1	1	0	0	0.13612	0.1484	0.3279	0.2245	0.26441	0.14133	0.20219	0.30821	0.24935	0.1488	0.077057	0.2119	0.30145	0.43157	0.23266	0.095185	-2.1688	-2.0271	-2.9104	-2.5792	-2.6125	-3.0667	-2.2375	-3.0354	-2.7229	-2.2062	-3.1792	-2.6333	-2.5604	-3.0583	-2.1479	-2.8979	293.678	395.003	374.554	136.874	324.551	217.346	333.823	332.860	200.483	294.710	147.930	438.233	389.830	374.181	246.396	358.583	0.0012011	0.0010265	0.00020217	798.43	1.0766e-05	3.8708e-06	786.13	323.49	1.0163e-05	2.4726e-06	363.07	144.85	128.76	53.71	7.8957e-06	64.395	0.0023538	0.0026606	0.00073463	828.74	2.813e-05	2.9175e-05	809.41	334.82	2.828e-05	2.9252e-05	378.14	150.69	134.06	56.115	2.8838e-05	67.106	295.103	163.587	159.466	100.523	236.477	253.561	99.496	105.766	264.513	260.223	103.797	108.719	110.185	114.514	253.603	111.650	-8191	255	
23760.627	1	1	0	0	0.23567	0.16537	0.082279	0.018653	0.11292	0.24853	0.11733	0.083071	0.11075	0.097822	0.36259	0.17787	0.14658	0.31099	0.29985	0.0083086	-2.325	-2.1292	-3.1083	-2.4437	-2.3937	-2.9708	-2.1021	-2.85	-2.6667	-2.2104	-3.0396	-2.5312	-2.4188	-3.0667	-2.3208	-2.8083	207.866	336.942	440.648	244.861	345.986	432.093	115.795	353.732	292.686	420.857	419.320	373.327	446.126	426.084	290.845	415.044	0.0013054	0.0005812	0.00019841	796.48	1.4545e-05	2.1168e-06	776.94	321.55	1.4798e-05	5.2036e-06	360.62	145.85	128.93	53.688	9.5505e-06	64.223	0.0023453	0.0026579	0.00073978	826.78	2.8179e-05	2.8955e-05	804.74	333.41	2.7881e-05	2.9079e-05	376.59	150.72	134.05	56.03	2.8816e-05	67.099	301.629	164.574	218.158	100.462	233.906	208.223	99.506	105.951	280.660	238.737	103.388	108.495	110.283	114.569	244.828	111.701	-8191	255	
23760.723	1	1	0	0	0.25072	0.34035	0.067202	0.19891	0.12358	0.27077	0.29491	0.12606	0.14668	0.2268	0.1991	0.12002	0.19662	0.31459	0.18301	0.27447	-2.5458	-2.0583	-2.9333	-2.5687	-2.1	-3.0854	-2.2687	-2.7625	-3.1917	-2.1625	-3	-2.725	-2.2062	-3.1937	-2.1833	-2.7646	146.056	310.522	293.734	413.897	97.293	393.417	121.265	425.553	246.906	318.654	215.350	418.265	124.880	374.895	118.938	318.746	0.001079	0.00066597	0.00015631	795.97	8.9605e-06	3.8185e-06	778.94	322.35	8.3899e-06	3.8111e-06	362.04	145.35	128.86	53.726	4.3312e-06	64.615	0.0023595	0.0026449	0.00073116	825.18	2.8239e-05	2.9267e-05	805.1	334.24	2.8258e-05	2.8818e-05	378.17	150.92	134.15	56.148	2.8683e-05	67.433	298.453	151.537	222.526	100.464	221.718	187.636	99.655	105.891	177.264	313.917	103.908	108.266	110.393	114.281	445.330	111.715	-8191	255	
23760.818	1	1	0	0	0.093605	0.22456	0.2283	0.34829	0.33667	0.019985	0.23235	0.18907	0.24784	0.1441	0.28494	0.33054	0.30437	0.12769	0.029145	0.21555	-2.7125	-2.2271	-2.7542	-2.7104	-2.25	-2.9542	-2.4458	-2.6375	-2.9208	-2.2896	-2.9396	-2.7646	-2.2708	-3.0833	-2.3521	-2.6042	225.969	93.604	445.430	424.357	254.369	89.650	368.482	289.287	323.118	440.270	383.772	370.711	108.608	296.828	280.021	405.523	0.0013459	8.605e-05	0.00023974	797.72	4.78e-06	5.6093e-06	783.16	323.38	8.3465e-06	9.9258e-06	363.1	146.96	129.32	53.995	4.7038e-06	64.987	0.0023434	0.0026426	0.00073303	825.86	2.8027e-05	2.8878e-05	807.39	334.85	2.7678e-05	2.9207e-05	379.55	151.71	134.54	56.327	2.8664e-05	67.813	293.296	144.816	189.174	100.431	240.926	217.581	99.461	105.975	259.626	237.971	103.471	108.570	110.138	114.434	255.984	111.337	-8191	255	
23760.939	1	1	0	0	0.2608	0.19578	0.088513	0.39179	0.28869	0.18552	0.27132	0.32368	0.16084	0.1839	0.19324	0.26808	0.32993	0.30876	0.048823	0.25719	-2.6042	-2.1333	-2.7896	-2.8063	-2.1521	-3.0333	-2.4813	-2.4042	-2.8688	-2.0271	-2.7812	-3.0479	-2.1833	-3.1479	-2.4292	-2.3854	326.893	237.263	91.492	389.117	122.481	145.387	332.330	334.108	432.445	122.914	328.395	370.318	300.531	367.409	401.551	105.252	0.0013067	0.00036562	0.00016777	799.83	6.7113e-06	6.8978e-06	786.45	323.85	9.603e-06	8.2556e-06	361.36	146.1	129.61	53.629	8.3926e-06	64.151	0.0023468	0.0026556	0.00073206	827.03	2.7933e-05	2.919e-05	810.3	335.11	2.8018e-05	2.919e-05	378.22	151.58	134.5	56.122	2.8405e-05	67.192	300.919	127.814	163.398	100.469	268.472	255.548	99.470	105.593	289.622	303.636	103.426	108.561	110.116	114.291	244.133	111.539	-8191	255	
23761.035	1	1	0	0	0.088172	0.19101	0.091748	0.24317	0.25679	0.1419	0.44703	0.25037	0.33412	0.17225	0.057958	0.32471	0.30195	0.072586	0.076032	0.18518	-2.6271	-2.1833	-2.4521	-2.9271	-2.0771	-2.8625	-2.6375	-2.1896	-3.075	-2.2438	-2.7792	-3.0896	-2.3646	-3.0167	-2.85	-2.4542	255.025	445.121	171.479	408.656	327.159	320.475	406.867	423.176	432.865	211.297	211.214	427.841	441.011	414.009	344.476	377.501	0.0011754	0.00030003	0.00019347	794.53	8.6741e-06	6.8717e-06	782.03	322.23	1.3135e-05	8.0948e-06	361.67	145.71	128.18	53.646	3.5484e-06	64.449	0.0023453	0.0026545	0.0007295	821.6	2.7813e-05	2.9028e-05	804.1	333.37	2.7843e-05	2.898e-05	377.15	150.95	133.91	56.12	2.8182e-05	67.237	296.679	185.295	135.936	100.329	240.094	234.803	99.155	105.985	247.995	269.180	103.748	108.389	110.084	114.299	223.446	111.628	-8191	255	
23761.131	1	1	0	0	0.13582	0.25067	0.073498	0.096003	0.16144	0.11958	0.26445	0.3218	0.11173	0.11182	0.14984	0.2469	0.21777	0.33365	0.21927	0.21231	-2.6146	-2.2979	-2.1562	-2.8708	-2.1125	-2.7333	-2.7146	-2.2625	-2.9271	-2.5667	-2.5208	-3.0854	-2.1937	-2.825	-2.7583	-2.1083	436.723	163.908	112.189	110.759	351.763	275.806	386.515	382.196	373.267	246.935	144.614	100.481	419.470	378.097	225.799	364.819	0.0012373	0.00046257	0.00018914	792.41	1.1967e-05	5.7416e-06	777.05	322.54	1.6697e-05	1.6079e-06	361.24	146.01	129.01	53.905	1.4715e-05	64.971	0.0023461	0.0026399	0.00072105	824.17	2.8061e-05	2.8811e-05	804.14	334.02	2.7883e-05	2.9163e-05	377.39	151.43	134.22	56.282	2.8729e-05	67.53	296.149	156.246	202.129	100.159	232.083	317.485	99.402	105.313	263.629	310.084	103.124	107.883	109.673	113.833	265.215	111.048	-8191	255	
23761.227	1	1	0	0	0.077665	0.16099	0.23539	0.27471	0.20848	0.13721	0.16575	0.18478	0.057637	0.25722	0.062728	0.10978	0.26694	0.12551	0.16389	0.045215	-2.525	-2.3896	-2.3771	-2.9875	-2.0979	-2.7021	-2.8833	-2.3937	-2.9292	-2.5271	-2.3688	-3.0271	-2.1417	-2.6833	-2.8146	-2.1792	421.628	334.910	303.459	116.282	127.562	428.210	420.377	427.047	165.350	193.538	90.199	366.525	306.178	406.281	123.126	181.880	0.0012688	0.00041402	0.00025828	796.62	8.8094e-06	9.0105e-06	782.55	324.71	9.8957e-06	4.8514e-06	362.71	146.39	129.23	53.872	8.718e-06	64.385	0.0023607	0.002624	0.0007334	825.52	2.8295e-05	2.9128e-05	809.36	334.99	2.8141e-05	2.8862e-05	379.27	151.8	134.46	56.301	2.8308e-05	67.629	304.388	288.646	223.820	99.671	234.673	264.247	99.129	105.274	252.076	111.168	103.021	108.376	109.683	114.107	189.354	111.161	-8191	255	
23761.348	1	1	0	0	0.13904	0.17602	0.13289	0.10429	0.079078	0.16469	0.099716	0.096601	0.12898	0.12368	0.40581	0.26947	0.16694	0.26789	0.18191	0.073789	-2.5	-2.4896	-2.1917	-3.0896	-2.3625	-2.5042	-2.925	-2.1896	-2.9625	-2.7354	-2.2125	-3.1688	-2.35	-2.5292	-3.0479	-2.4042	285.457	346.450	149.634	302.746	341.127	170.180	440.242	354.943	145.549	389.338	360.046	340.331	372.251	385.269	363.058	381.600	0.001167	0.00070162	0.00015871	796.96	5.0501e-06	5.2341e-06	784.8	323.75	7.4662e-06	1.0678e-06	361.3	146.17	128.81	53.706	1.6619e-05	64.437	0.0023712	0.0026239	0.00073458	826.49	2.8081e-05	2.9206e-05	810.09	334.87	2.7843e-05	2.8923e-05	378.67	151.75	134.02	56.063	2.8611e-05	67.325	305.133	215.297	259.376	99.996	196.516	339.891	98.798	105.188	283.396	231.647	103.302	108.128	109.915	114.054	255.300	111.102	-8191	255	
23761.420	1	1	0	0	0.25013	0.010921	0.38467	0.37186	0.090633	0.18672	0.11589	0.030556	0.13015	0.18115	0.045855	0.28457	0.060045	0.039387	0.051729	0.23533	-2.4083	-2.7042	-2.2625	-3.0917	-2.3021	-2.3292	-3.2146	-2.5104	-2.85	-2.8187	-2.1958	-3.1542	-2.4313	-2.4813	-2.8688	-2.2625	135.414	155.621	232.008	402.495	303.770	407.969	107.178	355.441	268.490	388.146	148.866	367.728	136.978	412.046	219.605	395.499	0.0011209	0.00038056	0.00047767	788.49	8.8651e-06	4.6256e-06	777.44	322.34	1.41e-05	3.4974e-06	362.26	145.57	128.84	53.734	1.2915e-05	64.098	0.0023622	0.0026375	0.00073488	821.11	2.8398e-05	2.882e-05	802.28	333.71	2.7774e-05	2.9052e-05	377.36	151.02	133.95	56.024	2.8668e-05	66.877	298.144	112.774	173.328	99.878	264.670	363.224	98.953	105.101	275.743	207.179	103.361	107.953	109.605	113.829	247.179	111.214	-8191	255	
23761.516	1	1	0	0	0.076099	0.28697	0.094689	0.32782	0.17115	0.15346	0.28267	0.12708	0.18461	0.094365	0.35089	0.11064	0.15453	0.10256	0.21075	0.19514	-2.25	-2.6437	-2.2708	-3.025	-2.4417	-2.3708	-3.3729	-2.4083	-2.7271	-3.0938	-2.2125	-2.8771	-2.7917	-2.3688	-2.9688	-2.4604	312.375	239.332	439.616	386.874	239.924	292.687	371.420	427.484	117.517	331.335	94.095	363.453	380.057	153.857	433.667	423.824	0.001276	0.00084553	0.0001951	794.86	1.2267e-05	4.8087e-06	782.13	323.43	8.7016e-06	3.4489e-06	362.27	145.89	129	53.677	1.2027e-05	64.259	0.0023571	0.0026392	0.00073463	823.93	2.8051e-05	2.8986e-05	806.22	333.94	2.7983e-05	2.8845e-05	378.64	150.92	134.04	56.037	2.8289e-05	67.108	296.740	161.033	181.034	99.753	260.093	230.100	99.017	105.141	253.325	141.677	103.429	107.954	109.438	114.042	225.119	111.142	-8191	255	
23761.611	1	1	0	0	0.13411	0.17049	0.16865	0.14894	0.37793	0.14687	0.05644	0.18804	0.19232	0.16276	0.20576	0.22497	0.10169	0.10781	0.1507	0.07644	-2.2896	-2.9396	-2.0771	-2.925	-2.5563	-2.1813	-3.225	-2.4042	-2.5271	-3	-2.2917	-2.7083	-2.9458	-2.1667	-2.7875	-2.4167	408.570	125.898	222.305	402.662	247.865	366.571	143.747	91.094	182.959	368.123	96.090	131.829	181.177	319.053	422.557	307.158	0.0011978	0.00033197	0.00022303	796.69	7.3205e-06	1.5852e-06	780.52	322.55	1.1329e-06	2.4569e-06	362.12	145.4	128.8	53.62	8.8537e-06	64.524	0.0023383	0.0026544	0.00072962	825.88	2.7713e-05	2.8923e-05	807.17	334.31	2.7804e-05	2.8959e-05	379.15	151.42	134.2	56.086	2.8486e-05	67.322	297.240	184.403	184.903	99.685	261.014	160.067	98.851	104.968	231.211	183.427	103.048	108.001	109.298	113.518	191.227	110.734	-8191	255	
23761.707	1	1	0	0	0.17279	0.23206	0.10312	0.27312	0.2643	0.21261	0.16468	0.16701	0.037299	0.18866	0.13179	0.083211	0.14246	0.088456	0.18246	0.10413	-2.0583	-2.9625	-2.1312	-2.7875	-2.6479	-2.0646	-3.0021	-2.675	-2.4313	-3.1312	-2.2812	-2.7354	-3.0062	-2.0938	-2.825	-2.5083	94.595	317.948	255.218	398.129	422.481	265.823	436.841	445.009	441.290	121.865	111.374	384.019	108.279	248.466	259.423	304.611	0.0012538	0.0010751	0.0001604	795.32	8.9282e-06	1.0512e-05	784.54	322.83	1.5188e-05	6.6956e-06	363.27	145.97	128.88	53.713	1.1359e-05	64.227	0.0023459	0.0026215	0.00073339	825.19	2.7561e-05	2.854e-05	811.82	335.04	2.7896e-05	2.8812e-05	379.22	151.52	134.18	56.14	2.8264e-05	67.015	295.171	210.067	200.374	99.849	298.490	284.834	98.940	105.468	265.752	216.371	102.914	107.912	109.718	113.850	207.732	110.697	-8191	255	
23761.828	1	1	0	0	0.084859	0.043483	0.11609	0.095482	0.28758	0.29842	0.15551	0.18155	0.14933	0.17639	0.22842	0.1038	0.15273	0.19447	0.23301	0.085666	-1.7646	-2.9437	-2.1875	-2.6375	-2.7875	-1.9854	-2.9792	-2.5479	-2.1271	-2.9562	-2.1729	-2.7146	-2.7729	-2.0896	-2.9521	-2.6646	146.824	105.757	240.665	392.748	297.066	444.191	389.094	411.096	397.655	230.086	345.199	102.517	341.115	101.710	258.923	130.244	0.0011728	0.00066053	0.00031163	794.1	7.8419e-06	5.4097e-06	779.57	321.57	1.0521e-05	1.7816e-06	360.22	145.11	128.91	53.441	9.4597e-06	63.739	0.0023178	0.0026126	0.00072059	823.39	2.7829e-05	2.8291e-05	804.37	333.07	2.7599e-05	2.835e-05	376.51	150.5	133.65	55.92	2.8018e-05	66.842	301.374	115.379	153.891	100.052	227.200	274.932	99.131	105.355	235.828	427.109	103.084	108.173	109.645	113.877	244.761	110.972	-8191	255	
23761.924	1	1	0	0	0.31942	0.23639	0.20226	0.056125	0.10592	0.082257	0.2854	0.039824	0.11893	0.169	0.21689	0.18045	0.09464	0.33445	0.1318	0.22726	-1.6708	-2.9229	-2.0938	-2.3292	-2.8417	-1.9937	-2.8417	-2.75	-2.1729	-2.9813	-2.3125	-2.4938	-2.9417	-2.1792	-2.7146	-2.7833	442.517	414.803	364.121	194.821	326.347	373.885	427.255	195.578	383.500	293.053	322.920	385.957	414.254	257.483	305.403	429.104	0.001235	0.00038313	0.00019709	796.07	6.1678e-06	6.2862e-06	776.75	322.37	1.6752e-05	3.6041e-06	360.59	145.95	129.22	53.61	1.5901e-05	64.223	0.0023166	0.0025955	0.0007254	823.32	2.738e-05	2.8665e-05	803.59	333.54	2.7609e-05	2.8747e-05	377.06	151.2	134.22	55.992	2.7975e-05	67.126	305.825	228.907	243.057	100.291	238.853	255.928	98.965	105.195	270.077	278.405	103.091	108.259	109.859	113.867	246.826	110.760	-8191	255	
23762.020	1	1	0	0	0.21313	0.38873	0.17438	0.2827	0.23802	0.18575	0.11314	0.17032	0.12011	0.12473	0.31871	0.18825	0.062614	0.35044	0.15233	0.070503	-1.6875	-2.9313	-2.4604	-2.3688	-2.9229	-2.0687	-2.6708	-3.0146	-2.05	-3.0021	-2.4437	-2.2417	-3.1333	-2.2458	-2.5542	-2.7	193.753	315.082	98.019	403.213	266.566	312.442	238.884	364.425	429.821	335.302	426.149	438.307	399.285	94.277	272.350	358.388	0.0012392	0.001102	0.00022668	794.61	1.1114e-05	1.1869e-05	784.5	323.51	1.004e-05	1.1644e-05	363.4	146.66	128.36	53.595	4.4892e-06	64.368	0.0022999	0.0025985	0.00071467	822.23	2.7279e-05	2.8458e-05	807.65	334.32	2.7411e-05	2.8169e-05	378.84	151.86	133.98	56.001	2.7856e-05	67.318	296.381	180.342	201.779	100.132	263.441	228.342	99.153	105.298	287.219	206.014	103.013	107.993	109.852	113.889	306.816	110.967	-8191	255	
23762.115	1	1	0	0	0.19114	0.11463	0.086745	0.27374	0.10353	0.3288	0.21233	0.14069	0.12241	0.012096	0.43032	0.070283	0.34495	0.24396	0.046318	0.23059	-1.5479	-2.8417	-2.4979	-2.2833	-2.9896	-2.2833	-2.5708	-2.9729	-2.0229	-2.8354	-2.7938	-2.2562	-2.9458	-2.375	-2.4417	-3.0938	338.350	254.593	393.907	152.930	161.959	201.602	110.939	408.759	420.175	196.359	363.954	110.925	369.381	400.395	185.748	341.534	0.0013287	0.00061473	0.00020995	794.66	1.1488e-05	4.747e-06	782.52	323.27	1.2568e-05	3.1292e-06	365.98	146.71	129.59	53.52	6.3969e-06	64.448	0.0023149	0.0025792	0.00070828	823.33	2.7335e-05	2.81e-05	808.54	334.68	2.7176e-05	2.8089e-05	380.29	151.94	134.24	55.883	2.7586e-05	67.221	294.687	174.987	141.817	100.070	245.743	191.727	99.251	105.513	259.179	213.629	103.351	108.341	110.003	114.016	248.350	111.033	-8191	255	
23762.211	1	1	0	0	0.12915	0.20058	0.1854	0.30054	0.060561	0.16736	0.042902	0.10604	0.12608	0.18925	0.21244	0.074093	0.23993	0.13279	0.10903	0.048854	-1.7208	-2.7938	-2.7958	-2.3542	-2.9792	-2.5583	-2.4667	-3.2542	-2.2375	-2.8167	-2.8167	-2.4104	-3.1146	-2.5125	-2.3833	-3.0958	313.649	260.321	115.025	439.203	198.578	208.469	233.383	402.303	136.661	178.542	136.160	136.181	346.999	438.303	185.981	117.834	0.0012662	0.0013257	0.00014212	788.35	8.0805e-06	3.5492e-06	779.55	322.68	9.2323e-06	8.3187e-06	360.86	145.66	129.12	53.533	6.8513e-06	64.107	0.0023046	0.0025367	0.00070357	819.08	2.7047e-05	2.8453e-05	802.16	333.35	2.732e-05	2.814e-05	376.45	150.8	133.78	55.829	2.7487e-05	66.871	302.750	191.732	226.759	100.127	241.863	91.529	99.457	105.386	280.779	153.902	103.303	108.048	110.117	114.119	272.406	111.210	-8191	255	
23762.309	1	1	0	0	0.15832	0.15527	0.10825	0.33135	0.068359	0.26288	0.16892	0.14629	0.19352	0.023528	0.24761	0.13076	0.19877	0.2161	0.13182	0.063914	-1.6958	-2.5854	-2.8271	-2.2375	-2.8167	-2.3146	-2.4604	-3.1271	-2.2896	-2.5354	-3.0625	-2.0563	-2.8917	-2.5417	-2.0667	-3.1667	444.371	340.243	171.212	438.912	409.014	128.748	435.437	364.863	147.444	289.444	379.460	288.095	447.399	165.295	276.271	103.841	0.0011847	0.00026281	0.00018135	789.6	6.9729e-06	4.9087e-07	776.41	322.92	1.1958e-05	1.1262e-05	361.66	146.63	128.62	53.584	1.2604e-05	64.399	0.002272	0.0025439	0.00070806	817.58	2.7087e-05	2.8079e-05	801.98	334.06	2.6854e-05	2.7754e-05	377.11	151.17	133.71	55.936	2.7016e-05	67.186	304.292	285.024	160.349	99.794	304.863	197.461	99.060	105.412	250.391	221.611	103.096	108.302	109.872	113.982	260.781	111.360	-8191	255	
23762.428	1	1	0	0	0.40105	0.084357	0.12208	0.10435	0.034427	0.1604	0.070842	0.2116	0.30799	0.19159	0.092688	0.21598	0.12812	0.092152	0.14898	0.15741	-1.9958	-2.4625	-2.8625	-2.425	-2.8208	-2.6688	-2.2021	-3.2854	-2.3104	-2.5687	-3.0812	-2.1958	-2.9646	-2.8625	-2.1562	-3.175	367.603	399.601	208.070	430.489	202.018	166.072	444.613	130.302	194.286	105.871	445.369	399.169	327.598	315.468	437.546	404.574	0.0012592	0.00060831	0.00026036	789.45	6.1353e-06	9.9338e-06	779.82	322.45	8.8336e-06	1.2995e-06	362.76	145.84	129.54	53.721	1.8916e-06	64.901	0.0022486	0.0025163	0.00069258	818.41	2.6492e-05	2.7025e-05	804.51	333.95	2.6136e-05	2.6734e-05	379.1	151.57	134	56.045	2.5905e-05	67.492	300.960	112.598	194.811	99.907	239.040	223.448	99.138	105.346	259.556	177.570	103.175	108.306	109.760	114.223	349.008	111.139	-8191	255	
23762.523	1	1	0	0	0.12644	0.17357	0.070918	0.20182	0.20866	0.059758	0.20498	0.29326	0.24483	0.13394	0.2272	0.23828	0.24482	0.27552	0.12567	0.33618	-1.9771	-2.4229	-2.9	-2.2667	-2.6646	-2.7875	-2.1479	-3.1646	-2.5271	-2.4521	-3.1625	-2.1688	-2.9646	-2.9813	-2.2125	-3.1208	188.161	388.989	358.057	444.564	229.356	433.270	400.332	103.671	393.804	271.753	308.504	401.578	278.584	423.384	399.340	330.295	0.0012009	0.00090975	0.00026339	790.96	7.8591e-06	7.3771e-06	783	323.08	1.1092e-05	9.1108e-06	365.89	147.12	130.38	53.773	6.8389e-06	64.817	0.0021377	0.0023583	0.00065433	816.43	2.4692e-05	2.5345e-05	806.69	333.58	2.4345e-05	2.5263e-05	379.3	151.99	134.23	56.007	2.4578e-05	67.549	298.517	157.427	182.375	100.171	301.423	214.002	99.359	105.453	297.083	245.245	103.419	108.200	110.300	113.983	252.168	111.099	-8191	255	
23762.619	1	1	0	0	0.087828	0.013323	0.21807	0.3982	0.088009	0.10402	0.29282	0.20189	0.35398	0.13663	0.24188	0.08019	0.079238	0.22064	0.16521	0.23457	-2.2729	-2.2271	-3.0958	-2.1688	-2.6771	-2.9437	-2.0812	-3.0917	-2.5625	-2.2	-3.0479	-2.3208	-2.6437	-2.85	-2.15	-2.8917	238.964	221.197	384.242	89.662	89.502	336.911	420.392	357.472	242.215	158.044	442.627	128.669	123.906	94.303	361.218	330.615	0.0013546	0.00032081	0.00032348	789.86	3.6664e-06	5.1717e-06	781.31	323.12	7.3802e-06	8.6249e-06	362.99	146.21	129.07	53.767	6.8474e-06	64.462	0.0020295	0.0022386	0.00062437	813.58	2.3919e-05	2.4536e-05	802.19	332.65	2.384e-05	2.4934e-05	376.93	150.67	133.33	55.925	2.4318e-05	67.076	299.592	205.480	205.950	100.082	376.273	209.766	99.125	105.412	313.545	250.067	103.351	108.196	109.976	113.970	252.258	111.198	-8191	255	
23762.717	1	1	0	0	0.13064	0.40622	0.13458	0.15456	0.097881	0.2775	0.25353	0.29076	0.14025	0.1541	0.075282	0.29179	0.091593	0.2163	0.042888	0.11788	-2.3854	-2.2375	-2.9313	-2.4958	-2.5375	-2.9458	-2.15	-3.0375	-2.6708	-2.1104	-3.0229	-2.3979	-2.4333	-2.9333	-2.1813	-2.8958	431.604	185.902	183.551	173.602	101.485	295.639	350.667	380.421	418.664	373.365	424.898	413.919	109.918	407.683	118.893	354.480	0.0012597	0.00046362	0.00017472	784.94	5.9027e-06	1.0954e-05	782.01	320.83	4.7698e-06	1.0082e-06	365.05	146.74	129.31	53.731	4.1154e-06	64.816	0.0020317	0.0022638	0.00062975	811.02	2.3941e-05	2.4882e-05	800.9	332.42	2.3976e-05	2.5025e-05	378.2	151.53	133.68	55.906	2.4807e-05	67.497	292.006	191.616	158.636	100.114	244.164	269.771	99.142	105.294	223.115	123.205	103.187	107.988	110.013	113.779	221.890	111.032	-8191	255	
23762.812	1	1	0	0	0.26082	0.056308	0.13106	0.10842	0.32591	0.11027	0.18675	0.20742	0.39594	0.17379	0.22315	0.16851	0.086786	0.29529	0.076709	0.15394	-2.5271	-2.0062	-2.9437	-2.4083	-2.2875	-3.0146	-2.3396	-2.7208	-2.9667	-2.1937	-2.9542	-2.6896	-2.4688	-3.0708	-2.2104	-2.7396	373.792	324.305	159.391	214.457	211.351	89.948	420.358	414.829	93.224	175.537	436.860	232.687	425.387	390.835	205.996	388.891	0.001235	0.00055416	0.0001977	787.96	2.9134e-06	4.1972e-06	782.28	323.93	7.0299e-06	4.2333e-06	365.18	147.45	129.45	53.824	1.6714e-05	65.002	0.0020596	0.0022767	0.00063183	813.68	2.4451e-05	2.5085e-05	804.54	334.05	2.4173e-05	2.5379e-05	379.2	152.19	133.89	56.103	2.5041e-05	67.68	300.807	116.173	202.456	99.901	273.263	329.604	99.050	105.520	291.553	266.795	103.153	108.167	109.790	113.867	212.188	111.466	-8191	255	
23762.908	1	1	0	0	0.036408	0.14784	0.078261	0.28797	0.11708	0.050338	0.31163	0.32697	0.12937	0.30662	0.1282	0.18976	0.37329	0.16151	0.16474	0.22381	-2.5292	-2.1604	-3.0354	-2.5938	-2.1396	-2.9125	-2.325	-2.7833	-3.0104	-2.3708	-3.1354	-2.8312	-2.3417	-3.1521	-2.2229	-2.5833	126.034	192.747	106.433	380.188	134.974	250.567	352.710	106.301	167.938	167.064	248.705	417.244	99.014	114.514	272.863	446.443	0.0012514	0.00067232	0.00018903	790.75	7.4162e-06	6.1247e-06	787.56	324.2	8.3023e-06	4.9478e-06	366.61	148.12	129.07	53.783	3.6427e-06	64.987	0.0020672	0.0022855	0.00064195	814.58	2.4575e-05	2.5501e-05	808.47	334.47	2.4394e-05	2.5538e-05	381.5	152.5	133.96	56.103	2.5024e-05	67.684	298.235	166.372	199.619	100.249	283.819	216.765	99.311	105.584	251.768	258.570	103.566	108.191	110.142	113.959	268.512	111.469	-8191	255	
23763.004	1	1	0	0	0.09449	0.16279	0.106	0.071823	0.2517	0.023244	0.30581	0.098599	0.11483	0.10126	0.1062	0.50989	0.16137	0.12883	0.073797	0.16554	-2.8792	-2.1208	-2.7771	-2.9229	-2.2188	-3.0854	-2.5792	-2.5521	-3.1312	-2.3458	-2.875	-2.9417	-2.25	-3.1437	-2.4979	-2.5667	116.659	283.442	261.421	425.843	215.875	305.861	378.931	416.439	372.936	152.936	338.025	413.648	108.026	398.573	172.111	319.842	0.0011899	0.00086069	0.00030283	789.58	6.7508e-06	7.6171e-06	781.31	321.2	1.8251e-05	7.1267e-06	364.5	146.43	129.05	53.886	9.0058e-06	64.657	0.0020746	0.0023133	0.00064142	812.85	2.4667e-05	2.5595e-05	804.01	332.43	2.477e-05	2.5746e-05	378.24	151.21	133.55	55.968	2.498e-05	67.218	295.504	197.782	130.255	100.298	237.866	224.841	99.187	105.706	268.300	241.268	103.657	108.306	110.218	114.207	236.120	111.342	-8191	255	
23763.123	1	1	0	0	0.10286	0.12593	0.041967	0.18667	0.20523	0.15208	0.18981	0.15613	0.091053	0.11553	0.21521	0.38843	0.10307	0.197	0.16964	0.042963	-2.6562	-2.2438	-2.7396	-3.0729	-2.1458	-3.0979	-2.5125	-2.1542	-3.1937	-2.3521	-2.7854	-2.925	-2.4917	-3.175	-2.5417	-2.4646	411.589	98.326	131.568	390.430	173.800	229.949	335.510	102.726	188.187	388.349	424.559	428.305	200.083	432.488	415.566	358.184	0.0012029	0.00080184	0.00015422	783.19	1.2111e-05	5.0714e-06	779.71	323.89	8.7878e-06	8.3423e-06	365.54	147.78	128.78	53.932	8.1833e-06	64.88	0.0020786	0.0023282	0.00064214	810.21	2.4839e-05	2.5522e-05	802.59	333.32	2.4646e-05	2.5932e-05	379.7	151.95	133.51	56.01	2.5227e-05	67.386	296.792	159.904	250.860	100.424	269.805	440.617	99.593	105.802	231.379	231.348	103.894	108.151	110.006	114.417	254.363	111.467	-8191	255	
23763.219	1	1	0	0	0.20852	0.37724	0.027885	0.18782	0.28844	0.25839	0.05228	0.32763	0.080789	0.16098	0.18734	0.10706	0.27859	0.16709	0.0044288	0.080583	-2.5563	-2.3354	-2.6188	-3.1125	-2.3	-2.8458	-2.8729	-2.25	-3.1188	-2.1792	-2.4521	-3.2604	-2.2417	-3	-2.7521	-2.2833	194.481	138.648	366.272	338.304	212.856	355.166	89.400	438.953	128.219	173.430	436.833	379.679	421.117	155.491	373.274	251.027	0.0012733	0.00042896	0.00023154	787.58	8.1399e-06	5.7642e-06	779.3	324.06	6.6436e-06	5.3764e-06	366.27	147.57	129.08	53.604	1.2822e-05	64.972	0.0021027	0.0023319	0.00064417	812.03	2.5107e-05	2.575e-05	804.84	333.93	2.4799e-05	2.5775e-05	380.82	152.2	133.97	55.976	2.5598e-05	67.566	301.472	234.808	158.091	100.578	189.899	213.186	99.625	105.430	245.429	136.070	103.827	108.374	110.105	114.139	269.128	111.463	-8191	255	
23763.291	1	1	0	0	0.087061	0.17426	0.11272	0.2611	0.043038	0.1714	0.081912	0.26374	0.083204	0.09514	0.25489	0.12958	0.2648	0.097765	0.13455	0.3346	-2.6333	-2.4	-2.275	-3.1688	-2.1	-2.875	-2.7875	-2.1958	-2.9771	-2.5104	-2.4167	-3.1396	-2.2208	-2.7042	-2.8187	-2.2229	334.318	105.420	220.690	417.631	353.735	399.196	354.381	301.771	190.428	293.762	424.819	422.191	127.678	125.576	88.503	385.715	0.0011389	0.00016931	0.00037646	787.05	6.1002e-06	1.5142e-06	787.6	324.62	9.0951e-06	4.7827e-06	366.42	148.36	129.1	53.808	1.7108e-05	65.083	0.0021322	0.002362	0.00065363	814.03	2.5241e-05	2.6219e-05	810.04	334.83	2.5141e-05	2.5728e-05	382.46	152.87	134.08	56.046	2.5414e-05	67.652	298.037	120.242	190.073	100.028	234.949	309.867	99.378	105.665	266.502	290.869	103.671	108.205	110.120	114.146	209.421	111.362	-8191	255	
23763.389	1	1	0	0	0.24666	0.12835	0.19833	0.22993	0.066583	0.075037	0.205	0.16861	0.31014	0.11854	0.035897	0.27655	0.034542	0.10697	0.23598	0.33725	-2.5479	-2.6	-1.9937	-3.2958	-2.2771	-2.6042	-2.9896	-2.2771	-2.7771	-2.8312	-2.4437	-3.1917	-2.4354	-2.8458	-2.7583	-2.35	418.727	279.390	118.878	419.463	294.470	351.760	434.238	402.271	321.837	210.296	196.954	133.759	230.195	191.922	435.423	348.881	0.0012829	0.00061341	0.00023192	788.5	5.1774e-06	1.6956e-06	780.32	322.33	8.387e-06	1.7101e-06	366.96	147.34	128.6	53.528	1.0089e-05	64.58	0.0021375	0.0023773	0.00066043	814.32	2.5278e-05	2.6003e-05	804.66	333.12	2.5287e-05	2.6225e-05	379.85	151.88	133.41	55.749	2.5508e-05	67.125	295.265	114.317	179.743	100.272	241.443	242.321	99.450	105.527	258.263	276.975	103.580	108.284	109.824	114.049	253.188	111.164	-8191	255	
23763.508	1	1	0	0	0.084552	0.13718	0.29822	0.16512	0.13683	0.043352	0.13869	0.44736	0.1858	0.10432	0.18802	0.22174	0.16624	0.15248	0.15965	0.19352	-2.6896	-2.5771	-2.1437	-3.0833	-2.4042	-2.6875	-3.1958	-2.2771	-2.7771	-2.7188	-2.2812	-3.1167	-2.4542	-2.4	-3.1625	-2.2333	379.246	347.892	253.604	98.653	445.174	100.158	335.338	91.719	183.078	162.897	169.311	109.769	125.875	408.094	106.079	361.323	0.0011114	0.00065859	0.00036543	783.32	1.2617e-05	8.3633e-06	782.45	322.7	9.4076e-06	1.1325e-05	364.15	146.83	129.01	53.427	2.0838e-06	64.688	0.0021482	0.0023939	0.00066613	810.07	2.5518e-05	2.6326e-05	804.93	333.35	2.5469e-05	2.6341e-05	379.95	151.92	133.66	55.814	2.5864e-05	67.325	299.984	183.824	177.822	100.184	214.603	255.031	99.292	105.488	273.835	215.219	103.424	108.299	109.834	114.170	338.041	111.247	-8191	255	
23763.604	1	1	0	0	0.092126	0.21961	0.049185	0.10684	0.088644	0.26555	0.14387	0.080001	0.13099	0.067268	0.1331	0.18607	0.57414	0.26916	0.19579	0.12446	-2.4083	-2.7917	-2.0729	-2.9958	-2.4021	-2.2229	-3.2292	-2.2417	-2.6688	-2.8479	-2.25	-3.0021	-2.6833	-2.3458	-3.1479	-2.2667	311.673	271.451	345.678	131.862	383.375	347.062	230.915	322.670	409.021	302.289	90.270	209.705	429.035	378.597	106.212	416.549	0.0012668	0.0006543	0.00010809	786.47	1.0943e-05	6.8238e-06	784.9	323.51	1.0571e-05	5.6602e-06	365.9	147.45	129.84	53.507	1.1321e-05	64.966	0.0021501	0.0024159	0.00067427	813.12	2.5623e-05	2.6701e-05	809.15	333.97	2.5779e-05	2.6542e-05	381.28	152.49	134.08	55.883	2.6543e-05	67.456	300.089	184.042	120.152	99.906	357.949	251.513	99.293	105.566	268.890	218.089	103.527	108.484	110.240	114.302	273.904	111.560	-8191	255	
23763.699	1	1	0	0	0.10261	0.28246	0.36035	0.046591	0.095002	0.3101	0.080985	0.098916	0.26641	0.13081	0.12035	0.16154	0.43506	0.1766	0.18481	0.24523	-2.1542	-2.8167	-2.0167	-2.9271	-2.6708	-2.2188	-3.2167	-2.3896	-2.475	-3.025	-2.1417	-2.9979	-2.7	-2.4208	-3.0146	-2.5271	396.738	180.882	93.591	374.824	146.769	433.750	251.384	302.839	366.508	97.729	438.220	384.361	114.039	429.053	384.470	403.176	0.0011226	0.0006362	0.00039951	789.15	4.1824e-06	2.142e-07	785.28	322.22	9.8527e-06	5.424e-06	368.02	147.67	129.92	53.571	4.2573e-06	64.468	0.0022007	0.0024544	0.00068231	815.82	2.5977e-05	2.7069e-05	810.19	333.86	2.606e-05	2.6878e-05	382.26	152.65	134.34	55.893	2.649e-05	67.438	299.015	176.995	158.748	100.601	245.032	174.860	99.516	105.582	224.290	278.759	103.353	108.499	110.170	114.227	192.050	111.185	-8191	255	
23763.820	1	1	0	0	0.17955	0.16598	0.12854	0.38617	0.17664	0.071217	0.4683	0.084003	0.16377	0.13103	0.22233	0.24817	0.16638	0.12719	0.18868	0.39458	-1.9979	-2.8104	-2.0875	-2.7146	-2.5958	-2.1188	-3.1979	-2.4938	-2.4042	-2.9104	-2.225	-2.8229	-2.8208	-2.1667	-2.8104	-2.4521	255.895	311.875	251.096	426.935	395.463	405.065	336.213	382.043	189.951	286.844	373.300	422.612	103.244	435.667	300.718	326.212	0.0012217	0.00067534	0.0001069	788.17	1.1618e-05	1.6966e-06	785.22	323.42	5.3909e-06	7.6123e-06	363.81	146.2	128.65	53.339	8.265e-06	63.893	0.0022068	0.0024432	0.00068509	816.03	2.6048e-05	2.6998e-05	808.94	333.86	2.5995e-05	2.7446e-05	379.13	151.64	133.51	55.565	2.6907e-05	66.682	304.296	142.558	221.451	100.202	221.303	235.772	99.189	105.393	296.622	136.625	103.176	108.038	109.833	113.903	264.246	110.712	-8191	255	
23763.893	1	1	0	0	0.11711	0.15063	0.11764	0.26432	0.069515	0.083052	0.20877	0.31332	0.24382	0.087656	0.31211	0.12169	0.1346	0.2092	0.13778	0.18185	-1.9	-2.8604	-2.1604	-2.6896	-2.8208	-2.1646	-3.0604	-2.7208	-2.0312	-3.125	-2.3917	-2.6792	-2.8229	-2.3896	-2.9896	-2.4833	97.534	97.960	410.648	350.371	386.949	145.395	342.498	377.526	208.173	360.713	90.903	297.964	411.391	148.987	228.796	379.841	0.0012315	0.0005386	0.00031056	785.37	7.7494e-06	6.5013e-06	786.55	321.11	1.2341e-05	4.6558e-06	365.84	146.1	128.38	53.324	1.5856e-05	64.258	0.0022029	0.0024772	0.00069058	813.24	2.6109e-05	2.7245e-05	805.95	332.71	2.6272e-05	2.7006e-05	380.52	151.54	133.3	55.559	2.6702e-05	66.91	297.918	140.326	175.640	99.896	228.154	239.369	99.204	104.995	253.889	219.390	103.330	107.956	109.810	113.884	240.511	110.978	-8191	255	
23763.988	1	1	0	0	0.19966	0.070734	0.22185	0.20091	0.045033	0.31488	0.21889	0.2162	0.26531	0.12451	0.46392	0.088919	0.24309	0.25516	0.22009	0.15221	-1.9021	-2.9583	-2.3583	-2.7292	-2.8208	-2.1583	-3	-2.8667	-2.2042	-3.0167	-2.6125	-2.5312	-3.1708	-2.0375	-2.7062	-2.75	228.964	234.062	222.792	425.898	431.067	188.542	316.967	93.363	217.022	303.811	92.763	328.544	369.191	320.846	282.414	441.985	0.0012989	0.00031282	0.00012595	784.98	1.0275e-05	4.683e-06	785.24	322.45	9.4678e-06	6.5731e-06	364.99	146.28	129.52	53.406	1.3674e-05	64.258	0.0021987	0.0024612	0.00068868	813.84	2.6499e-05	2.7157e-05	807.74	334.11	2.6183e-05	2.7254e-05	380.54	151.84	133.97	55.774	2.694e-05	67.161	297.562	242.428	192.460	100.055	274.795	196.809	99.170	105.217	214.217	199.119	103.392	108.211	109.978	113.920	208.710	111.114	-8191	255	
23764.109	1	1	0	0	0.22435	0.06394	0.21054	0.1673	0.14265	0.020841	0.35972	0.14739	0.12705	0.2007	0.10002	0.18024	0.057286	0.40204	0.34215	0.16473	-1.9021	-3.0042	-2.3229	-2.4458	-3.0021	-2.1	-2.7646	-2.8667	-2.0958	-2.9271	-2.5354	-2.3917	-3.1896	-2.3083	-2.6875	-2.9854	309.778	423.732	312.680	401.800	90.940	308.558	122.624	385.744	386.784	292.490	168.342	417.097	219.162	410.959	137.066	431.673	0.0010307	0.00038279	0.00018515	789.66	7.3723e-06	2.3686e-06	785.3	322.47	9.6779e-06	2.3819e-06	364.89	147.43	129.03	53.764	1.2909e-05	64.61	0.0022111	0.0024846	0.00069844	817	2.6666e-05	2.7829e-05	808.71	334.23	2.667e-05	2.7715e-05	381.32	152.67	134.29	55.875	2.7417e-05	67.403	298.292	375.973	179.484	99.997	295.719	248.147	99.088	105.116	328.548	191.893	103.089	108.073	109.838	114.050	254.542	111.021	-8191	255	
23764.203	1	1	0	0	0.1884	0.20337	0.18915	0.20362	0.29664	0.24312	0.11986	0.20621	0.12753	0.18074	0.23778	0.10345	0.03104	0.27921	0.16277	0.14494	-1.6875	-2.9062	-2.3542	-2.2667	-3.0604	-2.3229	-2.7042	-3.1542	-2.2125	-2.9021	-2.6667	-2.3688	-3.0687	-2.225	-2.5479	-2.9729	439.065	325.807	395.666	314.088	293.567	389.587	144.016	417.069	333.789	363.530	379.123	242.114	282.862	424.151	323.694	407.997	0.0012465	0.00059056	0.00031918	791.21	1.4191e-05	6.668e-06	782.42	322.79	1.5061e-05	5.2125e-06	365.81	146.76	128.7	53.3	8.8174e-06	64.264	0.0022575	0.0025472	0.00069964	818.27	2.6794e-05	2.7858e-05	807.65	333.48	2.6749e-05	2.7508e-05	380.13	151.85	133.48	55.527	2.7299e-05	66.72	297.682	121.874	163.430	100.115	251.111	223.152	99.572	105.346	275.559	255.921	103.123	108.157	110.041	114.062	217.055	111.254	-8191	255	
23764.301	1	1	0	0	0.21238	0.26595	0.1455	0.068073	0.066432	0.17516	0.1096	0.25018	0.16544	0.24876	0.13176	0.08552	0.25202	0.14793	0.070472	0.16982	-1.7104	-2.9521	-2.5583	-2.3937	-2.8354	-2.3792	-2.5542	-3.2521	-2.2188	-2.9	-2.8958	-2.2417	-3.0646	-2.5083	-2.2458	-3.1188	255.128	328.160	329.788	355.800	332.319	389.468	272.844	416.968	178.707	199.971	413.421	236.099	96.628	149.267	326.673	322.097	0.0012743	0.00072954	0.00023341	785.59	7.4201e-06	1.0057e-05	785.01	321.63	7.2919e-06	3.9421e-06	362.48	146.39	128.79	53.071	9.2513e-06	64.278	0.0022398	0.0025247	0.00069707	814.2	2.6919e-05	2.7686e-05	805.21	332.85	2.6698e-05	2.7646e-05	378.46	151.56	133.57	55.508	2.7027e-05	66.969	296.886	440.637	187.699	100.063	225.758	286.993	99.349	105.308	268.079	429.595	103.276	108.273	110.314	114.106	251.024	111.504	-8191	255	
23764.420	1	1	0	0	0.18724	0.10699	0.10629	0.16535	0.12819	0.046638	0.16397	0.15545	0.21504	0.22741	0.11315	0.20265	0.16809	0.20653	0.23232	0.13033	-1.7125	-2.625	-2.6813	-2.3292	-2.975	-2.5687	-2.5896	-3.0521	-2.125	-2.65	-2.8729	-2.2375	-2.9646	-2.6875	-2.3583	-3.1854	266.104	431.492	421.069	412.005	418.190	198.223	404.084	357.790	118.069	442.678	356.241	415.080	434.015	102.417	284.841	310.105	0.0012852	0.00031674	0.00025816	787.35	8.2532e-07	7.9059e-06	781.28	322.72	3.7357e-06	4.9494e-06	364.87	146.99	129.07	53.451	1.772e-05	64.12	0.0022466	0.002536	0.00069508	813.9	2.6637e-05	2.7436e-05	805.91	333.7	2.6751e-05	2.739e-05	380.05	152.11	134.17	55.769	2.7244e-05	67.031	300.231	179.850	215.019	99.998	290.322	226.478	99.026	105.276	250.221	233.573	103.078	108.037	109.846	113.645	229.873	110.982	-8191	255	
23764.516	1	1	0	0	0.052238	0.089396	0.10172	0.10304	0.12963	0.28183	0.059926	0.36423	0.17961	0.18254	0.19149	0.35487	0.086268	0.071694	0.0865	0.36604	-1.8292	-2.5458	-2.8292	-2.1229	-2.9708	-2.4292	-2.4333	-3.0938	-2.2208	-2.7458	-3.0083	-2.1729	-2.9104	-2.7604	-2.1646	-3.1396	420.532	257.568	360.561	351.478	299.132	190.807	184.963	370.058	348.724	177.120	116.645	369.240	231.309	102.048	235.163	402.767	0.0011847	0.00099706	0.00027339	786.44	1.4962e-05	1.4174e-06	783.31	321.15	1.2175e-05	2.3979e-06	365.11	147.75	129.46	53.653	1.697e-05	64.764	0.002258	0.0025288	0.00070315	816.07	2.7067e-05	2.7906e-05	808.06	334.1	2.7019e-05	2.7712e-05	381.24	152.53	134.36	55.927	2.7458e-05	67.455	294.948	143.382	172.102	99.839	248.713	409.647	99.070	105.218	224.850	173.935	102.923	108.071	109.742	114.018	236.624	110.945	-8191	255	
23764.588	1	1	0	0	0.29782	0.11626	0.11323	0.10836	0.15806	0.28409	0.14404	0.11893	0.11631	0.1139	0.16241	0.092413	0.25512	0.33077	0.13203	0.21839	-1.8604	-2.4062	-2.9396	-2.3458	-2.8937	-2.6646	-2.1229	-3.3542	-2.375	-2.7208	-3.2125	-2.3521	-2.9146	-2.9188	-2.2958	-3.2146	383.227	146.569	95.280	441.086	197.879	331.858	114.727	88.647	344.437	250.233	394.756	425.735	113.874	388.783	293.314	414.754	0.0012132	0.00036765	0.00027898	791.02	8.4104e-06	7.217e-06	784.38	321.04	1.6935e-05	5.2432e-06	364.95	145.77	128.48	53.333	8.8622e-06	63.778	0.0022798	0.0025591	0.00070379	818.14	2.7346e-05	2.7998e-05	807.74	333.28	2.7054e-05	2.81e-05	379.76	151.43	133.75	55.615	2.8186e-05	66.759	294.915	105.103	174.440	100.069	214.167	183.628	99.293	105.104	246.243	203.097	103.176	108.343	109.887	114.031	239.975	111.051	-8191	255	
23764.709	1	1	0	0	0.225	0.044719	0.17342	0.12459	0.16495	0.033786	0.19845	0.15056	0.19182	0.092037	0.19864	0.2838	0.17099	0.35821	0.062699	0.20914	-2.0708	-2.2625	-3.0938	-2.3396	-2.6354	-2.7958	-2.25	-3.0354	-2.5021	-2.5563	-3.0917	-2.3729	-2.8396	-3.0667	-2.3271	-3.0687	370.631	224.894	304.363	438.013	148.790	372.161	439.904	376.293	327.814	277.261	159.537	207.555	331.900	95.107	119.424	383.700	0.0010464	0.00049001	0.00025742	785.67	7.5221e-06	5.3102e-06	778.55	322.09	5.7755e-06	1.0099e-05	362.54	145.43	128.83	53.111	1.2726e-05	63.944	0.0022901	0.0025568	0.00071744	814.17	2.7395e-05	2.808e-05	802.48	332.9	2.7438e-05	2.8173e-05	379.26	151.24	133.79	55.512	2.8159e-05	66.754	304.926	194.163	187.755	99.857	268.561	295.642	99.326	105.299	188.737	267.749	103.154	108.060	109.943	114.027	255.806	110.999	-8191	255	
23764.805	1	1	0	0	0.053282	0.10574	0.34444	0.1431	0.15537	0.10361	0.28196	0.16237	0.088007	0.15599	0.18453	0.21905	0.17263	0.34284	0.31168	0.13552	-2.1854	-2.2292	-2.9042	-2.3396	-2.5646	-2.8771	-2.3	-2.9188	-2.6625	-2.3063	-3.0875	-2.5104	-2.5104	-2.8958	-2.125	-2.975	416.788	306.761	267.764	290.274	231.128	158.143	120.747	441.391	218.256	395.227	282.761	331.580	408.439	432.035	276.664	126.212	0.0012143	0.00059959	5.6983e-05	789.96	9.8009e-06	4.6378e-06	778.17	322.4	1.0227e-05	4.188e-06	365.81	146.22	128.77	53.141	8.9837e-06	63.997	0.002286	0.0025878	0.00070823	815.89	2.7375e-05	2.7999e-05	804.87	333.67	2.7312e-05	2.8449e-05	380.94	151.85	133.88	55.61	2.8168e-05	67.017	293.062	142.849	173.771	99.610	150.995	291.792	98.714	105.138	272.359	198.582	102.696	107.660	109.587	113.588	234.029	111.057	-8191	255	
23764.900	1	1	0	0	0.21609	0.23396	0.13637	0.34411	0.22038	0.11656	0.20181	0.17846	0.15709	0.04913	0.15225	0.30632	0.16413	0.13889	0.16228	0.073637	-2.2417	-2.2	-2.9708	-2.475	-2.4042	-3.0417	-2.25	-2.9396	-2.7729	-2.1813	-3.1542	-2.4417	-2.5208	-3.0792	-2.2375	-2.7542	422.721	211.122	395.410	385.626	227.276	260.934	369.966	341.037	353.199	115.066	362.299	399.518	394.911	140.391	276.166	155.333	0.0012491	0.00090906	0.00027465	785.85	1.3763e-05	6.0974e-06	783.12	322.26	2.3136e-06	8.2785e-06	365.28	147.63	129.88	53.485	7.6537e-06	64.928	0.0022937	0.0025887	0.00071769	814.84	2.7344e-05	2.8234e-05	808.47	333.99	2.7067e-05	2.8269e-05	381.56	152.67	134.45	55.965	2.8061e-05	67.73	299.680	159.024	229.137	99.829	207.604	95.436	98.843	105.151	415.945	257.710	102.828	107.794	109.576	113.516	221.128	110.975	-8191	255	
23764.996	1	1	0	0	0.070855	0.12179	0.18367	0.18088	0.15319	0.12382	0.17406	0.14864	0.22277	0.20039	0.18188	0.22219	0.17891	0.079551	0.15636	0.22313	-2.6458	-2.1479	-2.9833	-2.7438	-2.2958	-3.1521	-2.3937	-2.7458	-2.9521	-2.0521	-3.0833	-2.8063	-2.2458	-3.1375	-2.1521	-2.5958	368.338	384.424	288.186	389.745	296.841	332.820	422.178	412.072	230.942	315.113	397.717	436.769	417.911	365.098	225.691	344.030	0.0012803	0.00055879	0.00020832	785.56	9.3561e-06	9.5177e-06	786.67	322.57	1.3775e-05	5.8745e-06	366.96	147.02	129.13	53.335	1.0426e-05	64.635	0.0022913	0.0025968	0.0007231	812.72	2.7367e-05	2.8539e-05	808.31	334.24	2.7515e-05	2.8565e-05	381.68	152.44	134.26	55.816	2.7973e-05	67.322	296.843	162.934	169.066	99.951	217.422	275.296	99.051	105.362	250.228	158.448	103.451	107.989	109.878	113.944	240.757	111.159	-8191	255	
23765.094	1	1	0	0	0.10913	0.083667	0.067308	0.29772	0.18639	0.11974	0.36121	0.22266	0.1451	0.10781	0.20032	0.11807	0.27013	0.40986	0.13817	0.17851	-2.675	-2.0729	-2.7208	-2.4479	-2.2771	-3.0583	-2.525	-2.6188	-2.9708	-2.2208	-3.0187	-2.8729	-2.1667	-3.0563	-2.2958	-2.575	218.869	341.204	238.657	442.028	357.910	394.292	409.378	377.747	250.023	100.343	378.223	380.632	443.364	389.143	371.715	283.970	0.0012145	0.00074947	0.00022891	777.63	7.7054e-06	3.822e-06	776.06	321.03	1.6645e-05	5.5311e-06	365.26	146.62	129.25	53.555	8.8782e-06	64.611	0.0023002	0.0026061	0.00071946	806.98	2.7396e-05	2.8747e-05	802.44	333.23	2.7028e-05	2.8238e-05	380.72	151.86	134.1	55.981	2.7427e-05	67.322	298.451	196.109	223.943	100.045	211.714	198.597	98.890	105.405	277.482	252.550	103.533	108.286	110.209	113.876	212.922	111.211	-8191	255	
23765.188	1	1	0	0	0.20886	0.059172	0.23336	0.24691	0.25553	0.3747	0.19192	0.26184	0.22173	0.045176	0.074074	0.073357	0.27099	0.1786	0.096129	0.25996	-2.5583	-2.1667	-2.6292	-2.9375	-2.0292	-2.8667	-2.5167	-2.4521	-2.8458	-2.1458	-2.6292	-2.8333	-2.0542	-2.9833	-2.4854	-2.3417	377.896	292.005	338.413	357.230	257.980	294.803	365.406	390.842	376.449	291.271	356.898	201.645	415.311	388.610	418.399	316.078	0.0012608	0.0005231	0.00025281	782.43	5.4745e-06	7.7912e-06	778.78	320.26	1.1255e-05	3.7732e-06	362.32	147.74	129.27	53.843	4.5534e-06	64.816	0.0022873	0.0025448	0.00070589	810.46	2.7161e-05	2.8023e-05	804.04	332.27	2.6861e-05	2.8461e-05	380.4	152.46	134.33	56.094	2.7451e-05	67.636	301.402	147.382	142.229	99.503	232.617	230.652	98.573	104.844	259.551	230.391	102.817	107.512	109.492	113.354	280.494	110.648	-8191	255	
23765.283	1	1	0	0	0.14176	0.12021	0.035283	0.058556	0.16666	0.085813	0.037087	0.21737	0.16679	0.12269	0.1235	0.17692	0.24077	0.29195	0.15632	0.22911	-2.7583	-2.2687	-2.6979	-2.9479	-2.2771	-2.8646	-2.5687	-2.275	-2.8896	-2.325	-2.6354	-2.9062	-2.125	-3.0312	-2.4542	-2.3187	204.411	128.753	103.313	160.157	213.494	441.085	176.350	446.156	395.984	187.222	266.609	378.336	388.064	120.899	346.578	364.313	0.001143	0.00087375	0.0001347	783.81	9.3087e-06	5.9025e-06	779.69	321.98	1.227e-05	1.1521e-05	366.14	147.83	130.07	53.846	5.7378e-07	64.958	0.0022791	0.0025516	0.00070916	809.71	2.7325e-05	2.8144e-05	807.35	333.05	2.7104e-05	2.8119e-05	383.12	153.24	134.46	56.165	2.7339e-05	67.9	298.440	118.239	163.424	99.792	227.231	270.575	98.631	105.199	258.534	213.713	102.592	107.550	109.573	113.543	206.804	110.819	-8191	255	
23765.383	1	1	0	0	0.13516	0.13001	0.23767	0.11312	0.12845	0.20613	0.1884	0.29182	0.13193	0.2496	0.18436	0.3435	0.2983	0.095874	0.089043	0.311	-2.5521	-2.1604	-2.2896	-2.8187	-1.8854	-2.8604	-2.8583	-2.3042	-2.9375	-2.3896	-2.3771	-3.0104	-2.1375	-2.8625	-2.8667	-2.275	123.737	178.577	221.717	208.335	356.858	282.561	442.339	433.080	443.337	109.743	135.866	394.733	397.379	131.144	260.871	403.540	0.0012166	0.00085368	0.00017071	785.11	1.4171e-05	6.4865e-06	784.6	322.15	7.1615e-06	3.5549e-06	366.19	148.22	129.73	53.843	9.074e-06	64.552	0.0022907	0.0025557	0.00070711	813.03	2.7039e-05	2.8071e-05	811.67	333.52	2.6945e-05	2.8138e-05	382.55	153.12	134.23	56.101	2.7064e-05	67.421	300.276	182.234	166.656	99.572	214.044	228.392	98.704	104.936	231.648	410.500	102.880	107.907	109.351	113.579	223.418	110.695	-8191	255	
23765.502	1	1	0	0	0.093631	0.25907	0.18705	0.096123	0.23537	0.1386	0.24995	0.091853	0.17006	0.13281	0.104	0.18134	0.094282	0.23634	0.039329	0.40625	-2.6188	-2.3833	-2.3646	-3.0125	-2.2188	-2.7167	-2.7604	-2.1625	-3.0312	-2.625	-2.35	-3.0479	-2.225	-2.6604	-2.8125	-2.4083	114.432	148.459	155.150	351.860	216.563	154.008	392.762	237.029	194.227	99.165	409.571	196.286	396.159	437.585	257.161	374.628	0.0012191	0.00089551	5.4451e-05	782.86	5.5271e-06	8.7741e-06	777.21	320.57	6.0176e-06	7.046e-06	365.94	146.79	129.31	53.755	1.141e-05	64.466	0.0022783	0.0025287	0.0007007	811.61	2.6876e-05	2.786e-05	803.4	332.59	2.681e-05	2.7825e-05	381.15	152.13	134.02	56.02	2.7564e-05	67.349	302.798	166.784	423.946	99.718	267.169	260.054	98.590	104.868	202.088	151.436	103.025	107.803	109.285	113.553	264.064	110.723	-8191	255	
23765.598	1	1	0	0	0.15879	0.16603	0.18614	0.24936	0.26417	0.10373	0.46169	0.14455	0.19216	0.14193	0.20304	0.19296	0.08468	0.18109	0.15962	0.13983	-2.6417	-2.575	-2.1083	-3.1063	-2.3479	-2.3979	-2.9437	-2.2458	-3.025	-2.7292	-2.2104	-2.9958	-2.4896	-2.3625	-3.0021	-2.0312	96.259	365.480	290.374	428.024	312.793	161.869	412.841	426.215	104.379	208.996	174.391	408.510	414.522	442.206	307.053	284.188	0.0011809	0.0010978	3.8229e-05	777.82	1.0012e-05	8.0238e-06	785.05	321.35	9.4712e-06	1.1553e-05	367.03	147.52	129.45	53.86	7.0663e-06	64.868	0.0023046	0.0025624	0.00070618	809.06	2.7299e-05	2.8083e-05	806.87	332.85	2.7294e-05	2.8074e-05	381.96	153.12	134.33	56.194	2.7597e-05	67.792	299.655	189.029	320.426	99.510	277.827	257.492	98.681	104.857	250.605	224.566	102.810	107.665	109.484	113.588	227.855	110.979	-8191	255	
23765.693	1	1	0	0	0.23671	0.32274	0.26767	0.091332	0.097165	0.22761	0.11359	0.21903	0.049983	0.17815	0.091135	0.28679	0.059191	0.13911	0.085011	0.14957	-2.1937	-2.4167	-2.0104	-2.9833	-2.0375	-2.4292	-2.9354	-2.1458	-2.5229	-2.7188	-2.0708	-2.9583	-2.4875	-2.2667	-2.9313	-2.2104	110.255	366.079	127.395	435.613	403.336	97.714	102.207	336.185	364.272	317.333	316.042	362.729	322.116	400.625	227.889	105.625	0.0011557	0.00058361	0.00024992	783.92	3.9992e-06	8.0605e-06	782.8	321.86	1.002e-05	1.2052e-05	365.28	148.15	129.4	53.794	1.1572e-05	64.96	0.002319	0.0025696	0.00071566	811.59	2.7676e-05	2.8333e-05	806.55	334.29	2.7529e-05	2.8194e-05	382.62	153.51	134.25	56.237	2.771e-05	68.022	298.309	177.577	291.105	99.665	228.790	246.872	98.805	105.252	209.850	225.602	103.338	108.161	109.921	113.809	235.157	111.069	-8191	255	
23765.789	1	1	0	0	0.25939	0.18004	0.1704	0.30605	0.20634	0.1769	0.046581	0.23089	0.21976	0.20346	0.31793	0.12849	0.19452	0.5213	0.031576	0.25358	-2.3438	-2.6667	-1.8417	-2.825	-2.3708	-2.3792	-3.1896	-2.3354	-2.6583	-2.7958	-2.3396	-2.8958	-2.4729	-2.2208	-2.9917	-2.2167	152.446	391.921	176.068	385.472	420.182	282.981	360.496	104.530	91.611	238.957	411.579	99.733	135.507	438.743	291.936	431.512	0.0011793	0.00083193	0.00025959	784.2	1.3322e-05	2.184e-06	783.74	323.32	4.5619e-06	9.3987e-06	366	147.06	129.51	53.604	1.3092e-05	63.854	0.0022988	0.0025622	0.00071638	813.1	2.7422e-05	2.8442e-05	809.5	334.86	2.7429e-05	2.8368e-05	381.79	152.58	134.27	55.867	2.7908e-05	66.745	301.510	131.706	197.303	100.170	265.007	209.727	98.792	105.018	357.561	179.286	102.971	108.120	109.802	113.868	257.721	111.056	-8191	255	
23765.885	1	1	0	0	0.16109	0.22525	0.044634	0.1097	0.10892	0.18181	0.11345	0.15932	0.26718	0.049019	0.11223	0.25422	0.14936	0.14384	0.16918	0.2006	-2.1042	-2.6667	-2.1604	-3.2062	-2.7875	-2.3333	-3.175	-2.4958	-2.5563	-3.0417	-2.3771	-2.9833	-2.7	-2.3	-3.0896	-2.3542	150.970	180.461	344.443	343.950	203.203	108.538	350.542	429.161	206.121	96.528	187.960	405.594	90.472	430.937	96.074	395.699	0.0011435	0.0006795	0.00015383	786.5	1.0386e-05	8.241e-06	777.11	321	1.53e-05	9.7203e-06	361.51	145.7	128.3	53.152	7.9648e-06	63.77	0.0022848	0.0025918	0.0007187	815.49	2.7307e-05	2.8023e-05	801.52	332.69	2.6994e-05	2.7919e-05	376.89	150.78	133.44	55.505	2.753e-05	66.476	299.945	164.766	114.115	100.333	268.232	211.077	99.024	105.363	266.623	291.552	103.386	108.037	109.756	114.039	286.599	111.004	-8191	255	
23765.980	1	1	0	0	0.33259	0.14086	0.098776	0.21554	0.069018	0.1434	0.15663	0.098602	0.13686	0.069697	0.035688	0.17839	0.14842	0.26539	0.19229	0.26559	-2.1542	-2.8854	-2.1646	-2.9333	-2.8146	-2.0042	-2.9979	-2.4917	-2.2896	-3.0083	-2.3688	-2.75	-2.9479	-2.2042	-3.0417	-2.6208	170.876	375.802	394.811	105.789	158.657	140.548	121.654	429.255	416.792	372.711	257.684	203.308	185.016	365.274	313.227	358.896	0.0012241	0.00098929	0.00020365	788.55	8.67e-06	6.7514e-06	778.89	321.42	1.4138e-05	6.5503e-06	364.11	146.28	128.92	53.372	4.8368e-06	64.332	0.002242	0.0025225	0.00070452	814.05	2.6602e-05	2.7665e-05	802.7	332.22	2.6609e-05	2.8102e-05	379.74	151.74	133.82	55.733	2.7825e-05	67.127	299.111	172.193	110.019	100.084	224.628	279.642	99.059	105.147	244.810	239.062	102.902	108.133	109.373	113.651	263.987	111.105	-8191	255	
23766.102	1	1	0	0	0.17895	0.30775	0.30196	0.38	0.093017	0.11746	0.30823	0.064663	0.20331	0.081563	0.30736	0.18565	0.11499	0.43817	0.19502	0.15148	-2.0083	-2.8771	-2.1521	-2.7604	-2.9417	-2.2104	-3.0292	-2.7479	-2.3896	-3.1708	-2.3979	-2.7771	-2.9813	-2.5271	-2.9938	-2.825	410.197	194.220	183.160	379.854	231.662	124.551	405.200	95.548	403.190	324.389	330.382	339.787	163.113	428.883	369.787	169.481	0.001106	0.00049675	9.8084e-05	782.73	1.3765e-05	4.0276e-06	778.87	320.32	1.3808e-05	7.5658e-06	366.04	146.98	129.11	53.845	6.5309e-06	64.809	0.0023174	0.0025919	0.0007225	812.54	2.7508e-05	2.8533e-05	805.41	332.77	2.738e-05	2.8675e-05	381.95	152.83	134.19	56.123	2.7828e-05	67.718	302.962	172.350	256.091	100.307	258.944	291.962	98.859	105.159	251.394	234.960	103.213	108.266	109.739	113.916	233.895	111.011	-8191	255	
23766.197	1	1	0	0	0.15079	0.1907	0.10889	0.10162	0.26093	0.17746	0.10622	0.17609	0.09662	0.25121	0.14632	0.050672	0.086593	0.18244	0.24716	0.17834	-1.925	-2.9708	-2.2854	-2.425	-2.9396	-2.0896	-3.0271	-2.8792	-2.2208	-2.8646	-2.4958	-2.6042	-3.1083	-2.4	-2.8792	-3.0354	345.082	314.064	340.039	166.245	356.086	120.754	282.262	443.807	270.426	114.279	272.574	185.668	374.645	414.966	88.187	445.550	0.0010924	0.0012682	0.00025264	784.4	3.9497e-06	2.2863e-06	784	322	9.4151e-06	1.4746e-05	365.62	148.69	129.83	54.059	5.153e-06	65.538	0.0022633	0.0025334	0.00070418	810.68	2.6437e-05	2.7929e-05	807.87	334.05	2.635e-05	2.7477e-05	382.4	153.54	134.28	56.272	2.6652e-05	68.122	298.929	191.869	192.805	100.013	271.777	319.646	99.095	105.177	312.913	215.057	103.021	107.645	109.553	113.686	229.193	110.880	-8191	255	
23766.293	1	1	0	0	0.27343	0.30438	0.28245	0.29346	0.048483	0.1372	0.14231	0.061917	0.21701	0.08175	0.068672	0.40516	0.087339	0.446	0.13274	0.30802	-1.85	-3.0062	-2.5271	-2.6437	-3.1188	-2.1688	-2.9354	-3.0062	-2.2854	-3.0333	-2.5604	-2.5167	-3.1271	-2.3875	-2.8229	-2.9479	318.597	146.157	127.719	299.706	349.892	171.008	323.959	387.551	139.686	292.518	156.492	379.937	355.681	419.695	173.378	379.995	0.0012484	0.00027011	0.00027574	777.12	1.2679e-05	2.0379e-06	779.73	322.3	8.6107e-06	1.4679e-05	364.12	147.31	129	53.64	1.067e-05	64.615	0.0022145	0.0024498	0.00068113	802.35	2.5869e-05	2.6946e-05	801.63	332.55	2.6014e-05	2.7139e-05	380.33	152.34	133.53	55.953	2.639e-05	67.362	296.564	180.328	172.389	99.693	230.218	251.109	98.953	104.682	302.072	260.193	102.878	107.819	109.588	113.628	241.846	110.886	-8191	255	
23766.389	1	1	0	0	0.24121	0.097593	0.23097	0.2469	0.20778	0.23525	0.15032	0.12462	0.3847	0.26131	0.19494	0.15681	0.1581	0.079803	0.048026	0.10882	-1.9042	-3.1167	-2.5	-2.4208	-2.9854	-2.2271	-2.5854	-3.0521	-2.2146	-2.95	-3.0021	-2.45	-3.3187	-2.15	-2.5563	-3.2375	102.880	426.001	313.955	339.530	361.708	365.398	370.958	393.903	152.931	358.753	441.469	322.795	154.250	95.894	382.244	376.460	0.0012398	0.00067576	0.00026215	774.47	3.5426e-06	6.849e-06	776.02	322.88	5.4305e-06	1.0865e-05	364.68	147.03	128.95	53.315	3.3461e-06	64.649	0.002206	0.0024617	0.00067659	804.45	2.6094e-05	2.7163e-05	802.92	333.23	2.6281e-05	2.7247e-05	380.67	152.41	133.82	55.859	2.6918e-05	67.544	301.767	134.236	201.099	99.697	211.125	216.345	98.754	105.021	290.973	224.909	102.680	107.808	109.538	113.814	238.071	110.779	-8191	255	
23766.484	1	1	0	0	0.23727	0.076997	0.15581	0.092367	0.079983	0.13218	0.10394	0.17149	0.045108	0.079901	0.046834	0.19502	0.058962	0.3439	0.14947	0.13322	-1.6792	-2.7375	-2.6437	-2.1437	-3.1	-2.4979	-2.55	-3.0375	-2.1375	-2.8833	-2.975	-2.2896	-3	-2.4792	-2.4333	-3.1417	124.548	187.344	269.015	326.380	267.487	421.964	346.986	419.565	362.947	425.055	381.131	423.397	338.487	424.248	258.944	316.198	0.0012379	0.00069057	0.00013771	780.35	8.1437e-06	3.6801e-06	778.89	320.57	1.0863e-05	8.6093e-06	366.85	146.61	129.36	53.705	1.0318e-06	65.238	0.0022595	0.0025076	0.0006921	807.79	2.667e-05	2.7411e-05	803.98	332.94	2.6494e-05	2.7516e-05	381.36	152.58	133.97	56.094	2.6971e-05	67.886	300.003	199.817	159.048	100.062	286.555	259.951	98.866	105.229	276.351	234.815	103.177	107.856	109.424	113.507	411.471	110.918	-8191	255	
#DATA ENDS
