BOXY.EXE: ISS Imagent and Oximeter Data Acquisition Program Version 0.80
Ascii Record File

#ACQ INFORMATION
2  Detector Channels 
16  External MUX Channels 
1  Auxiliary Channels 
5000  Waveform (CCF) Frequency (Hz)
1  Waveforms Skipped 
30  Waveforms Averaged 
1  Cycles Averaged 
16  Acquisitions per Waveform 
10.0806  Updata Rate (Hz) 

#FILE INFORMATION
TRUE -- External MUX Channel results are PARSED.
FALSE -- AC DC and Phase are NOT grouped.
TRUE -- Companion Program Settings File CREATED.
FALSE -- AC data not excluded
FALSE -- DC data not excluded
FALSE -- Phase data not excluded
FALSE -- Auxillary Chn. data not excluded
Tab delimiters

#CALIBRATION STATE
TRUE -- Waveform Calibration Values APPLIED.


#AUX CALIBRATION VALUES
Val Type	aux-1	

Term	1.0000e+00	
Factor	0.0000e+00	


#WF CALIBRATION VALUES
A = Detector Channel
Val Type	A-AC1	A-AC2	A-AC3	A-AC4	A-AC5	A-AC6	A-AC7	A-AC8	A-AC9	A-AC10	A-AC11	A-AC12	A-AC13	A-AC14	A-AC15	A-AC16	A-DC1	A-DC2	A-DC3	A-DC4	A-DC5	A-DC6	A-DC7	A-DC8	A-DC9	A-DC10	A-DC11	A-DC12	A-DC13	A-DC14	A-DC15	A-DC16	A-Ph1	A-Ph2	A-Ph3	A-Ph4	A-Ph5	A-Ph6	A-Ph7	A-Ph8	A-Ph9	A-Ph10	A-Ph11	A-Ph12	A-Ph13	A-Ph14	A-Ph15	A-Ph16	

Term	0.00000e+00	0.00000e+00	0.00000e+00	0.00000e+00	0.00000e+00	0.00000e+00	0.00000e+00	0.00000e+00	0.00000e+00	0.00000e+00	0.00000e+00	0.00000e+00	0.00000e+00	0.00000e+00	0.00000e+00	0.00000e+00	0.00000e+00	0.00000e+00	0.00000e+00	0.00000e+00	0.00000e+00	0.00000e+00	0.00000e+00	0.00000e+00	0.00000e+00	0.00000e+00	0.00000e+00	0.00000e+00	0.00000e+00	0.00000e+00	0.00000e+00	0.00000e+00	0.00000e+00	0.00000e+00	0.00000e+00	0.00000e+00	0.00000e+00	0.00000e+00	0.00000e+00	0.00000e+00	0.00000e+00	0.00000e+00	0.00000e+00	0.00000e+00	0.00000e+00	0.00000e+00	0.00000e+00	0.00000e+00	
Factor	1.00000e+00	1.00000e+00	1.00000e+00	1.00000e+00	1.00000e+00	1.00000e+00	1.00000e+00	1.00000e+00	1.00000e+00	1.00000e+00	1.00000e+00	1.00000e+00	1.00000e+00	1.00000e+00	1.00000e+00	1.00000e+00	1.00000e+00	1.00000e+00	1.00000e+00	1.00000e+00	1.00000e+00	1.00000e+00	1.00000e+00	1.00000e+00	1.00000e+00	1.00000e+00	1.00000e+00	1.00000e+00	1.00000e+00	1.00000e+00	1.00000e+00	1.00000e+00	X	X	X	X	X	X	X	X	X	X	X	X	X	X	X	X	

B = Detector Channel
Val Type	B-AC1	B-AC2	B-AC3	B-AC4	B-AC5	B-AC6	B-AC7	B-AC8	B-AC9	B-AC10	B-AC11	B-AC12	B-AC13	B-AC14	B-AC15	B-AC16	B-DC1	B-DC2	B-DC3	B-DC4	B-DC5	B-DC6	B-DC7	B-DC8	B-DC9	B-DC10	B-DC11	B-DC12	B-DC13	B-DC14	B-DC15	B-DC16	B-Ph1	B-Ph2	B-Ph3	B-Ph4	B-Ph5	B-Ph6	B-Ph7	B-Ph8	B-Ph9	B-Ph10	B-Ph11	B-Ph12	B-Ph13	B-Ph14	B-Ph15	B-Ph16	

Term	0.00000e+00	0.00000e+00	0.00000e+00	0.00000e+00	0.00000e+00	0.00000e+00	0.00000e+00	0.00000e+00	0.00000e+00	0.00000e+00	0.00000e+00	0.00000e+00	0.00000e+00	0.00000e+00	0.00000e+00	0.00000e+00	0.00000e+00	0.00000e+00	0.00000e+00	0.00000e+00	0.00000e+00	0.00000e+00	0.00000e+00	0.00000e+00	0.00000e+00	0.00000e+00	0.00000e+00	0.00000e+00	0.00000e+00	0.00000e+00	0.00000e+00	0.00000e+00	-3.63263e+01	-1.44616e+02	-1.36455e+02	-1.83436e+02	-6.47196e+01	-8.14628e+01	-1.60695e+02	-1.62015e+02	-4.27404e+01	-5.87643e+01	-1.72707e+02	-1.72386e+02	-1.83401e+02	-1.78286e+02	-6.56670e+01	-1.51169e+02	
Factor	2.16242e-05	1.40199e-04	3.24853e-05	1.48686e-01	1.47159e-06	1.31807e-06	1.62454e-01	5.10240e-02	1.11014e-06	1.35182e-06	7.91605e-02	2.65441e-02	2.35584e-02	8.15133e-03	1.44641e-06	1.17866e-02	2.30442e-06	2.49268e-06	6.93736e-07	7.79555e-02	2.69482e-08	2.73278e-08	7.97935e-02	2.67642e-02	2.70149e-08	2.74240e-08	4.00788e-02	1.34491e-02	1.24290e-02	4.29815e-03	2.72636e-08	5.99323e-03	X	X	X	X	X	X	X	X	X	X	X	X	X	X	X	X	



#DISTANCE SETTINGS
A = Detector Channel
A-1	A-2	A-3	A-4	A-5	A-6	A-7	A-8	A-9	A-10	A-11	A-12	A-13	A-14	A-15	A-16	

2.5000e+00	3.0000e+00	2.5000e+00	3.0000e+00	2.0000e+00	3.0000e+00	1.5000e+00	3.0000e+00	3.0000e+00	3.0000e+00	3.0000e+00	3.0000e+00	3.0000e+00	3.0000e+00	1.5000e+00	3.0000e+00	

B = Detector Channel
B-1	B-2	B-3	B-4	B-5	B-6	B-7	B-8	B-9	B-10	B-11	B-12	B-13	B-14	B-15	B-16	

1.0000e+01	1.0000e+01	1.0000e+01	1.4400e+00	1.0000e+01	1.0000e+01	1.5100e+00	1.9400e+00	1.0000e+01	1.0000e+01	1.9900e+00	2.4900e+00	2.4100e+00	2.9000e+00	1.0000e+01	2.9800e+00	




#DATA BEGINS
time	group	step	mark	flag	A-AC1	A-AC2	A-AC3	A-AC4	A-AC5	A-AC6	A-AC7	A-AC8	A-AC9	A-AC10	A-AC11	A-AC12	A-AC13	A-AC14	A-AC15	A-AC16	A-DC1	A-DC2	A-DC3	A-DC4	A-DC5	A-DC6	A-DC7	A-DC8	A-DC9	A-DC10	A-DC11	A-DC12	A-DC13	A-DC14	A-DC15	A-DC16	A-Ph1	A-Ph2	A-Ph3	A-Ph4	A-Ph5	A-Ph6	A-Ph7	A-Ph8	A-Ph9	A-Ph10	A-Ph11	A-Ph12	A-Ph13	A-Ph14	A-Ph15	A-Ph16	B-AC1	B-AC2	B-AC3	B-AC4	B-AC5	B-AC6	B-AC7	B-AC8	B-AC9	B-AC10	B-AC11	B-AC12	B-AC13	B-AC14	B-AC15	B-AC16	B-DC1	B-DC2	B-DC3	B-DC4	B-DC5	B-DC6	B-DC7	B-DC8	B-DC9	B-DC10	B-DC11	B-DC12	B-DC13	B-DC14	B-DC15	B-DC16	B-Ph1	B-Ph2	B-Ph3	B-Ph4	B-Ph5	B-Ph6	B-Ph7	B-Ph8	B-Ph9	B-Ph10	B-Ph11	B-Ph12	B-Ph13	B-Ph14	B-Ph15	B-Ph16	aux-1	digaux	

2059.437	1	1	0	256	0.082458	0.15841	0.25596	0.39495	0.1732	0.2238	0.20679	0.12498	0.022043	0.092441	0.14621	0.056097	0.21638	0.16446	0.053009	0.15683	-2.0458	-2.1708	-2.2479	-2.6125	-2.1458	-2.4521	-2.5312	-2.0792	-2.4437	-2.1333	-2.425	-2.5687	-2.1667	-2.5479	-2.3833	-2.2458	120.968	31.620	305.206	270.262	303.619	300.405	256.692	307.643	107.122	13.832	293.499	312.958	76.417	289.421	20.649	55.199	0.00029393	0.00022435	7.2443e-05	693.2	2.9345e-06	4.6599e-06	1074.1	190.03	5.7806e-06	2.3553e-07	410.4	135.78	40.326	15.688	4.948e-06	69.395	0.00021834	0.00018799	5.4149e-05	622.35	2.1617e-06	2.1412e-06	959.55	170.06	2.0734e-06	2.0814e-06	366.01	122.53	36.916	14.331	2.0743e-06	62.111	228.283	291.238	83.579	-11.189	130.533	115.579	-10.682	-6.116	144.105	141.680	-7.500	-1.845	-1.533	3.105	106.711	1.031	-8191	255	
2059.533	1	1	0	0	0.15252	0.17145	0.058726	0.09683	0.10395	0.29873	0.28401	0.13027	0.09399	0.24815	0.043494	0.36987	0.14641	0.05571	0.32145	0.35247	-2.2458	-2.2083	-2.2812	-2.4333	-2.0187	-2.4771	-2.6188	-2.3792	-2.5187	-2.2917	-2.5104	-2.6917	-2.1875	-2.3333	-2.6042	-2.1104	159.155	223.043	129.905	331.641	-18.899	85.520	327.558	212.583	283.050	234.672	16.206	279.919	311.128	321.183	95.763	-17.397	0.00026852	0.00054434	0.00013757	690.62	2.561e-06	4.8845e-06	1070	189.39	4.7583e-06	3.9359e-06	411.46	136.14	40.482	15.464	3.9003e-06	68.654	0.00021565	0.00018439	5.4033e-05	620.37	2.1084e-06	2.1301e-06	955.07	169.45	2.1259e-06	2.149e-06	365.3	122.48	36.878	14.141	2.0962e-06	61.431	226.480	74.321	34.825	-10.720	184.207	142.951	-10.474	-6.560	130.997	143.227	-6.836	-2.030	-1.685	2.977	112.179	1.201	-8191	255	
2059.629	1	1	0	0	0.1316	0.11276	0.088467	0.20066	0.096538	0.10676	0.28047	0.56758	0.083881	0.25895	0.1388	0.22388	0.26424	0.13538	0.20476	0.2303	-2.1708	-2.2875	-2.2792	-2.6188	-2.2	-2.4938	-2.7396	-2.1167	-2.5292	-2.4313	-2.1875	-2.8563	-2.2062	-2.4458	-2.575	-2.1188	116.154	266.245	35.762	205.606	265.014	325.155	155.345	293.754	307.413	106.582	-20.621	261.957	-13.929	334.784	77.000	259.998	0.00028823	0.00031758	0.00016592	686.28	6.3175e-06	1.2909e-06	1058.2	186.35	7.8612e-06	3.1723e-06	406.41	134.79	40.174	15.402	5.2117e-06	68.744	0.00021118	0.00019426	5.5048e-05	613.92	2.1033e-06	2.1866e-06	944.61	167.48	2.1422e-06	2.1719e-06	362.23	121.17	36.587	14.056	2.1804e-06	61.508	232.325	28.030	52.082	-10.502	151.037	102.083	-10.487	-6.185	171.459	212.305	-6.958	-2.247	-1.703	2.777	141.071	1.292	-8191	255	
2059.725	1	1	0	0	0.16374	0.041758	0.27546	0.14874	0.15827	0.19633	0.24018	0.25926	0.049081	0.10254	0.1763	0.22506	0.2088	0.073935	0.27045	0.40835	-2.2125	-2.3521	-2.0479	-2.8021	-2.2417	-2.325	-2.5771	-2.0333	-2.4437	-2.5563	-2.3187	-2.8021	-2.2771	-2.3729	-2.525	-2.3937	-0.273	-8.429	193.771	197.352	327.114	0.351	234.168	251.482	322.007	65.538	8.703	261.365	113.493	186.150	124.614	222.454	0.00030177	0.00047406	0.00011244	687.58	3.2008e-06	5.4375e-06	1059.1	186.75	3.6312e-06	6.6148e-06	403.44	134.4	40.058	15.435	7.5458e-06	68.216	0.00022107	0.00020111	5.4911e-05	614.67	2.1222e-06	2.1888e-06	947.03	167.46	2.1906e-06	2.2056e-06	361.24	121.13	36.468	14.007	2.2643e-06	61.109	225.549	43.157	32.978	-11.004	158.541	64.783	-10.332	-6.022	219.891	141.114	-7.205	-1.925	-1.377	2.789	154.354	1.310	-8191	255	
2059.821	1	1	0	0	0.076433	0.1581	0.01676	0.24404	0.14671	0.12056	0.24043	0.15495	0.29908	0.24146	0.33191	0.37411	0.19619	0.0981	0.1329	0.27676	-2.0542	-2.45	-1.9813	-2.7521	-2.4437	-2.4083	-2.7625	-2.3646	-2.5333	-2.6667	-2.4417	-2.6458	-2.2521	-2.2042	-2.6479	-2.4104	189.713	127.497	280.279	270.433	197.717	317.308	212.395	250.408	254.241	132.707	278.390	291.809	-12.272	64.222	239.910	-7.556	0.0002326	0.00032379	0.00012733	685.3	3.9444e-06	1.8492e-06	1061.8	186.6	4.757e-06	4.3139e-06	409.08	134.71	39.98	15.214	5.454e-06	68.32	0.00022675	0.00020262	5.5928e-05	613.05	2.2399e-06	2.1883e-06	948.2	167.82	2.3254e-06	2.2203e-06	364.07	121.13	36.47	13.973	2.2529e-06	61.278	229.968	36.522	54.758	-11.009	115.144	335.321	-10.381	-6.402	187.401	168.819	-7.219	-1.942	-2.322	2.799	129.838	1.173	-8191	255	
2059.917	1	1	0	0	0.20485	0.132	0.080408	0.36282	0.21529	0.46934	0.20612	0.2459	0.29719	0.27739	0.21607	0.18904	0.23879	0.20206	0.13492	0.056606	-2.0583	-2.45	-1.975	-2.6125	-2.4542	-2.2042	-2.8167	-2.1562	-2.3854	-2.5083	-2.2562	-2.7333	-2.3917	-2.2687	-2.5563	-2.4125	94.690	17.691	311.286	251.770	65.653	220.253	220.276	279.677	44.340	270.815	250.888	179.405	-24.648	-11.314	147.005	255.599	0.00025794	0.00066052	0.00014075	681.22	4.6866e-06	3.6016e-06	1049.2	186.14	4.3882e-06	3.5067e-06	404.3	134.03	40.079	15.109	9.0801e-06	68.323	0.00023064	0.00020829	5.8978e-05	610.97	2.3098e-06	2.3035e-06	940.4	167.02	2.3045e-06	2.2047e-06	361.83	120.76	36.579	13.943	2.217e-06	61.178	233.176	58.169	50.395	-10.827	155.474	104.651	-10.522	-6.948	149.961	130.706	-7.181	-2.296	-1.616	2.878	180.972	1.503	-8191	255	
2060.038	1	1	0	0	0.025907	0.18153	0.10375	0.2594	0.15811	0.19464	0.17834	0.11717	0.074386	0.17781	0.21031	0.08097	0.1483	0.17454	0.24132	0.36136	-1.9271	-2.5208	-2.0917	-2.4083	-2.4	-2.2646	-2.8354	-2.3896	-2.2625	-2.6063	-2.0812	-2.5896	-2.3375	-2.1979	-2.5667	-2.4167	221.984	250.891	297.769	287.773	227.133	255.958	270.703	319.615	157.921	239.208	265.025	1.322	-1.214	313.057	325.195	308.780	0.00023265	0.00049213	8.5657e-05	684.2	7.7265e-06	5.2804e-06	1054.5	186.12	3.3452e-06	1.1058e-06	403.69	133.97	40.133	15.144	3.8206e-06	68.185	0.00022695	0.00020647	5.6852e-05	610.22	2.2958e-06	2.2453e-06	942.41	167.09	2.3255e-06	2.263e-06	360.61	120.77	36.426	13.911	2.2971e-06	61.163	235.966	39.955	73.902	-10.897	154.866	108.136	-10.499	-6.393	150.090	217.928	-6.548	-2.018	-1.825	2.675	62.824	1.351	-8191	255	
2060.134	1	1	0	0	0.22648	0.19676	0.084796	0.24384	0.071741	0.1182	0.32027	0.27568	0.11315	0.15178	0.29832	0.05322	0.11126	0.24577	0.24914	0.23331	-1.5604	-2.475	-1.9375	-2.5854	-2.5354	-2.0354	-2.7583	-2.3833	-2.3083	-2.6375	-2.3042	-2.5542	-2.4833	-2.2375	-2.6021	-2.5687	308.914	315.809	95.882	272.956	301.312	286.113	274.770	329.609	284.771	287.131	155.996	111.032	175.456	295.486	-14.063	275.201	0.00028406	0.00069246	9.4178e-05	678.25	2.201e-06	8.8903e-06	1050.7	186.36	3.1826e-06	3.5337e-06	408.27	134.47	39.913	15.294	6.422e-06	68.211	0.00023236	0.00021002	5.6911e-05	609.34	2.2685e-06	2.2582e-06	940.38	166.82	2.3844e-06	2.3066e-06	362.44	121.01	36.351	13.946	2.371e-06	61.16	226.132	88.616	73.534	-11.001	178.043	125.325	-10.524	-6.189	174.507	194.767	-7.523	-1.849	-1.965	3.129	111.494	1.438	-8191	255	
2060.229	1	1	0	0	0.11438	0.21405	0.083062	0.18592	0.16906	0.041046	0.17962	0.31893	0.097081	0.23461	0.11505	0.12537	0.15323	0.20413	0.21915	0.12959	-1.7646	-2.5917	-2.1208	-2.4062	-2.55	-2.0854	-2.5896	-2.45	-2.1417	-2.5146	-2.3688	-2.3917	-2.5375	-2.125	-2.3958	-2.5708	57.601	147.940	162.647	-10.377	22.883	328.845	319.545	293.124	166.495	72.555	234.884	22.452	233.889	79.131	282.185	-8.300	0.00030757	0.00063981	0.00016032	675.42	4.9159e-06	4.3065e-06	1055.8	186.81	5.2007e-06	6.8931e-06	403.91	133.91	39.926	15.121	7.5298e-06	68.103	0.00023314	0.00021192	5.8131e-05	607.3	2.3408e-06	2.2369e-06	939.46	167.17	2.2569e-06	2.3132e-06	360.69	120.32	36.377	13.879	2.2976e-06	61.03	227.134	14.852	30.264	-10.282	156.754	110.235	-10.285	-6.513	166.294	139.650	-7.453	-1.936	-1.581	2.877	93.901	1.268	-8191	255	
2060.326	1	1	0	0	0.09902	0.18563	0.1451	0.29291	0.1104	0.16135	0.18798	0.17431	0.056217	0.17384	0.28775	0.17722	0.1572	0.18424	0.22975	0.25048	-1.7333	-2.6063	-2.2896	-2.4625	-2.6229	-2.2521	-2.7229	-2.6479	-2.15	-2.7083	-2.4521	-2.3167	-2.3021	-2.0167	-2.3958	-2.5354	159.904	44.714	169.319	211.746	-19.629	306.809	191.787	66.493	272.029	264.231	-18.177	198.306	232.343	307.300	32.658	270.420	0.00035032	0.00013059	3.854e-05	678.45	5.0647e-06	4.5072e-06	1051.9	186.29	2.6176e-06	8.3325e-06	405.11	134.5	40.168	15.444	1.3451e-06	68.352	0.00023022	0.00020943	5.8544e-05	606.88	2.2432e-06	2.19e-06	940.62	167.1	2.1983e-06	2.2506e-06	361.09	121.03	36.605	14.091	2.1852e-06	61.528	212.527	79.194	42.074	-11.015	216.741	143.968	-10.462	-6.559	207.625	143.935	-7.183	-2.427	-2.069	2.696	128.496	1.194	-8191	255	
2060.421	1	1	0	0	0.16646	0.086645	0.16617	0.1407	0.20182	0.26435	0.17303	0.4176	0.18772	0.14011	0.14846	0.24485	0.064449	0.19314	0.24294	0.11034	-1.6042	-2.6104	-2.2625	-2.2917	-2.45	-2.1396	-2.3979	-2.6375	-2.275	-2.5125	-2.5833	-2.3542	-2.4938	-2.1708	-2.3104	-2.7708	279.438	333.226	252.679	-14.701	-17.612	314.752	279.326	271.599	206.702	253.186	247.325	328.526	142.095	245.696	248.900	0.962	0.00030411	0.0003456	0.0001029	684.5	4.5735e-06	2.6057e-06	1058.6	185.8	7.0342e-06	5.0572e-06	403.9	135.36	40.084	15.457	5.6188e-06	68.589	0.00021518	0.00019469	5.3983e-05	611.26	2.2134e-06	2.1192e-06	945.08	167.54	2.1678e-06	2.2588e-06	361.37	121.58	36.583	14.054	2.2572e-06	61.545	224.735	28.323	60.119	-11.095	170.132	85.070	-10.775	-6.600	142.552	166.793	-7.066	-1.956	-1.829	3.083	138.456	1.350	-8191	255	
2060.517	1	1	0	0	0.20633	0.093958	0.15496	0.19962	0.15758	0.16722	0.23726	0.090202	0.040106	0.21145	0.30862	0.33411	0.2358	0.10474	0.07558	0.050086	-1.4792	-2.5167	-2.4792	-2.2167	-2.6375	-2.0812	-2.3542	-2.6792	-2.0604	-2.7229	-2.5625	-2.3187	-2.4979	-2.0917	-2.2229	-2.775	177.388	222.709	96.221	248.638	-18.903	174.613	298.265	67.952	58.031	139.479	6.166	240.523	86.033	217.003	224.796	322.731	0.00025219	0.00018997	7.0684e-05	675.21	5.4833e-06	1.9501e-06	1051.4	185.39	2.4204e-06	6.4182e-06	406.48	135.95	40.093	15.517	4.849e-06	68.684	0.00022077	0.00021021	5.754e-05	606.52	2.2563e-06	2.2051e-06	938.84	166.31	2.2169e-06	2.2913e-06	362.8	121.82	36.769	14.136	2.3195e-06	61.741	223.082	-11.607	59.695	-10.851	90.421	31.918	-10.128	-6.504	172.814	129.373	-7.502	-1.764	-2.852	2.855	140.059	1.169	-8191	255	
2060.638	1	1	0	0	0.1613	0.031044	0.075966	0.21181	0.14	0.30838	0.21248	0.090861	0.045042	0.17065	0.20975	0.27704	0.22945	0.077146	0.054607	0.13799	-1.7146	-2.4521	-2.4625	-2.0708	-2.6021	-2.2417	-2.4125	-2.6312	-2.1688	-2.4979	-2.4958	-2.15	-2.5042	-2.2438	-2.1937	-2.7542	315.732	288.123	27.044	301.194	253.387	59.188	272.400	164.020	267.552	324.175	283.683	-2.921	220.822	101.063	202.997	253.335	0.0003179	0.00034244	0.00014204	674.38	6.5728e-06	3.8412e-06	1044.1	184.78	5.9158e-06	3.0907e-06	401	134.1	39.658	15.277	7.7741e-06	67.891	0.00022683	0.00021123	5.905e-05	604.5	2.3434e-06	2.2202e-06	932.45	165.76	2.2659e-06	2.3954e-06	358.86	120.38	36.266	13.936	2.2468e-06	61.157	217.801	78.082	56.244	-10.641	199.929	92.284	-10.441	-6.563	205.946	143.633	-7.133	-2.109	-2.043	2.799	167.159	0.922	-8191	255	
2060.732	1	1	0	0	0.1202	0.18786	0.22936	0.047112	0.049365	0.080724	0.23778	0.26106	0.058614	0.26712	0.089812	0.32073	0.11142	0.079902	0.16917	0.27157	-1.8354	-2.4167	-2.5812	-2.2292	-2.5771	-2.4396	-2.4229	-2.6083	-2.0938	-2.3458	-2.625	-2.2021	-2.5479	-2.4208	-2.2292	-2.6146	315.145	177.888	43.569	299.667	334.238	169.028	279.131	302.230	139.668	69.097	200.829	267.157	328.382	182.246	-5.382	276.833	0.00029181	0.00036807	7.9046e-05	674.81	6.2473e-06	5.3773e-06	1047.7	184.94	1.4267e-06	7.2281e-06	405.21	135.63	40.286	15.444	4.4437e-06	69.598	0.00022352	0.00021497	5.7615e-05	603.21	2.2904e-06	2.2073e-06	936.15	166.46	2.1778e-06	2.2545e-06	362.06	121.76	36.827	14.141	2.1782e-06	62.271	234.836	20.743	100.158	-10.973	136.775	131.980	-10.542	-5.954	158.827	86.904	-7.264	-2.006	-1.719	1.729	109.287	1.453	-8191	255	
2060.828	1	1	0	0	0.228	0.10634	0.40594	0.04851	0.072504	0.16234	0.34772	0.2577	0.16633	0.23447	0.03305	0.15583	0.025583	0.12618	0.0092127	0.23321	-1.8125	-2.1708	-2.4292	-2.1396	-2.3833	-2.4917	-2.2458	-2.6188	-2.2375	-2.3146	-2.875	-2.2104	-2.5125	-2.3333	-2.1521	-2.7438	75.933	105.738	217.757	223.489	134.389	144.678	318.971	6.955	316.526	158.917	224.648	289.446	241.007	3.463	328.223	198.225	0.00028452	0.00037111	8.7905e-05	678.76	4.8611e-06	3.42e-06	1053.4	185.94	2.6273e-06	5.1844e-06	409.66	136.04	40.825	15.808	5.4029e-06	69.684	0.00022012	0.0002096	5.4973e-05	607.79	2.237e-06	2.1257e-06	942.54	167.83	2.2165e-06	2.2709e-06	362.69	122.03	36.926	14.352	2.1941e-06	62.772	234.574	32.199	92.250	-11.110	188.609	122.028	-10.518	-6.560	129.771	197.312	-7.349	-2.353	-2.132	2.504	165.048	1.218	-8191	255	
2060.924	1	1	0	0	0.20951	0.15458	0.15948	0.16854	0.11001	0.35485	0.27984	0.18829	0.16816	0.21847	0.11796	0.26451	0.25708	0.15178	0.24289	0.087854	-1.7875	-2.1854	-2.5521	-2.1479	-2.375	-2.4208	-2.3292	-2.7292	-2.3167	-2.0646	-2.6437	-2.3583	-2.6375	-2.4958	-2.325	-2.6354	108.127	122.619	16.795	279.045	75.906	271.075	226.641	242.136	220.873	65.215	172.767	226.663	162.625	-10.436	295.584	13.541	0.00024803	0.00063618	8.1423e-05	681.58	5.0625e-06	3.2297e-06	1056.2	186.25	4.2272e-06	4.7943e-06	402.47	136.03	40.623	15.631	8.3485e-06	70.228	0.0002138	0.00019656	5.3951e-05	612.44	2.1727e-06	2.1538e-06	948.55	167.15	2.1017e-06	2.1637e-06	360.46	122.44	36.988	14.271	2.1138e-06	62.665	236.103	78.778	-15.815	-10.784	96.532	97.698	-10.426	-6.553	176.797	113.199	-6.976	-2.019	-1.637	2.581	109.254	1.250	-8191	255	
2061.020	1	1	0	0	0.16409	0.16366	0.020065	0.16311	0.32579	0.10521	0.38945	0.20415	0.12462	0.097905	0.21829	0.26661	0.3364	0.07106	0.14535	0.18612	-1.9479	-2.1688	-2.6042	-2.1146	-2.3229	-2.6771	-2.2208	-2.3063	-2.2104	-2.1271	-2.6583	-2.3708	-2.4271	-2.5646	-2.2188	-2.6375	85.094	237.775	23.939	63.062	50.515	290.579	292.771	50.176	196.794	3.340	277.985	297.687	289.174	-2.587	226.246	67.069	0.00033621	0.00025028	0.00010008	679.18	5.6315e-06	1.4462e-06	1053	182.92	4.0827e-06	3.0976e-06	401.63	135.65	40.589	15.705	2.7792e-06	70.139	0.00022182	0.00019803	5.4885e-05	608.23	2.175e-06	2.1463e-06	938.3	165.61	2.147e-06	2.1443e-06	359.31	122.07	36.998	14.293	2.1696e-06	62.584	222.579	25.898	69.403	-10.815	118.554	107.095	-10.440	-6.423	138.707	143.474	-7.156	-2.133	-1.887	2.200	106.302	0.976	-8191	255	
2061.117	1	1	0	0	0.19987	0.094494	0.26632	0.10597	0.097861	0.068795	0.35351	0.21347	0.048337	0.20277	0.30065	0.13697	0.26397	0.11083	0.27633	0.30304	-1.9229	-2.0146	-2.5042	-2.4125	-2.3729	-2.6854	-2.1646	-2.6458	-2.4833	-2.1188	-2.8083	-2.5479	-2.325	-2.5563	-2.4146	-2.4854	32.553	5.593	75.687	-0.244	39.604	286.475	259.671	232.262	182.475	295.520	288.102	301.372	292.397	28.997	114.686	-14.307	0.00032579	0.00028209	0.00013698	682.18	5.0683e-06	3.4204e-06	1052.8	183.77	5.7689e-06	4.0282e-06	403.97	136.83	39.92	15.753	7.9517e-07	69.931	0.00022533	0.00019888	5.599e-05	608.81	2.2013e-06	2.1597e-06	942.48	165.87	2.2096e-06	2.2411e-06	361.72	122.58	36.82	14.396	2.1673e-06	62.769	222.715	123.426	35.590	-11.254	73.846	96.721	-10.410	-6.862	200.912	131.475	-7.166	-1.973	-1.671	2.630	60.484	1.333	-8191	255	
2061.213	1	1	0	0	0.075893	0.19947	0.060183	0.28163	0.044136	0.017424	0.29655	0.35738	0.25089	0.15418	0.14862	0.1112	0.22421	0.092719	0.1893	0.18296	-1.9521	-1.9854	-2.4354	-2.5042	-2.4271	-2.6708	-2.3792	-2.4437	-2.4875	-2.0042	-2.7562	-2.4688	-2.275	-2.6042	-2.1667	-2.3771	34.356	196.511	99.751	270.666	37.724	65.577	259.479	313.368	67.453	93.438	284.000	180.156	1.710	66.341	252.118	100.546	0.00037039	0.00061799	0.00012773	678.58	6.2578e-06	6.6538e-06	1050.2	185.32	7.8115e-07	3.4673e-06	403.65	135.71	39.766	15.749	6.4179e-06	69.444	0.00021877	0.00020228	5.6177e-05	608.2	2.2191e-06	2.2396e-06	939.27	165.97	2.2398e-06	2.2431e-06	360.91	122.29	36.52	14.329	2.2828e-06	62.456	230.672	58.903	40.600	-10.854	138.872	100.612	-10.366	-6.410	80.971	205.051	-7.270	-1.760	-1.862	2.467	143.411	1.382	-8191	255	
2061.309	1	1	0	0	0.11645	0.094956	0.15482	0.035906	0.14049	0.14891	0.13861	0.040585	0.044218	0.094921	0.15675	0.225	0.18953	0.16808	0.11931	0.21155	-2.1854	-2.025	-2.5021	-2.4917	-2.2271	-2.7062	-2.3479	-2.4667	-2.5146	-2.2625	-2.7438	-2.4521	-2.1896	-2.5812	-2.2771	-2.3542	237.393	239.396	199.100	168.989	306.650	135.895	329.166	-7.052	297.555	300.888	314.878	207.560	328.072	12.268	64.402	249.245	0.00033664	0.00020837	0.00012813	672.98	4.9976e-06	3.435e-06	1046.9	184.03	3.855e-06	4.6118e-06	400.44	135.05	40.092	15.684	3.3061e-06	69.342	0.00022529	0.00019577	5.6388e-05	602.74	2.1925e-06	2.1461e-06	935.24	165.55	2.1612e-06	2.161e-06	358.34	121.97	36.77	14.335	2.1359e-06	62.272	227.665	31.566	18.347	-11.144	125.620	71.508	-10.808	-6.465	171.788	98.244	-7.307	-2.200	-1.803	2.940	95.208	1.266	-8191	255	
2061.430	1	1	0	0	0.15762	0.30035	0.10096	0.20953	0.21143	0.12351	0.18002	0.11551	0.13005	0.15852	0.39769	0.12446	0.27539	0.12095	0.13661	0.089085	-2.0771	-2.1896	-2.4979	-2.5125	-2.1625	-2.6833	-2.6083	-2.2979	-2.6292	-2.2	-2.5146	-2.4333	-2.0958	-2.5667	-2.3708	-2.2958	117.117	270.609	181.334	228.932	100.795	-19.957	294.400	290.430	111.575	95.586	316.162	-13.994	250.339	72.700	287.774	287.043	0.00034359	0.00035121	0.00011773	682.11	3.5992e-06	2.7622e-06	1046.9	184.32	2.5699e-06	3.071e-06	405.15	135.9	40.313	15.769	3.6456e-06	70.197	0.00021911	0.00019807	5.6031e-05	607.81	2.1227e-06	2.1605e-06	935.01	165.5	2.1242e-06	2.1357e-06	359.89	122.27	36.785	14.378	2.2028e-06	62.85	228.031	118.219	108.966	-11.117	116.751	85.351	-10.245	-6.238	123.814	132.106	-6.943	-2.030	-1.672	2.706	141.701	1.217	-8191	255	
2061.524	1	1	0	0	0.13943	0.075506	0.2158	0.063757	0.082062	0.34161	0.30049	0.18369	0.072362	0.10082	0.17074	0.11406	0.23643	0.17743	0.084317	0.16991	-2.2833	-2.1521	-2.575	-2.5812	-2.1104	-2.525	-2.375	-2.1917	-2.4667	-2.2271	-2.4458	-2.6146	-1.9792	-2.5146	-2.4813	-2.2729	119.626	77.920	139.285	280.860	319.485	231.704	280.589	194.547	82.501	246.087	204.179	303.579	-21.355	15.791	217.565	230.402	0.0003178	0.00039476	3.1493e-05	679.01	7.2406e-06	2.8827e-06	1050.5	183.44	1.9883e-06	4.2749e-06	400.71	135.39	40.287	15.912	7.1336e-06	70.059	0.00022244	0.00019323	5.7213e-05	605.31	2.0671e-06	2.1793e-06	938.32	164.75	2.2351e-06	2.1632e-06	359.41	122.42	36.708	14.418	2.1743e-06	62.71	230.002	328.887	131.402	-10.734	160.601	34.850	-10.587	-6.300	172.832	71.943	-7.213	-2.389	-1.802	2.640	110.083	1.375	-8191	255	
2061.597	1	1	0	0	0.12345	0.25289	0.072874	0.11407	0.08478	0.066326	0.034601	0.1287	0.24497	0.21404	0.17723	0.28227	0.14031	0.11477	0.1907	0.18857	-2.1125	-2.2521	-2.125	-2.55	-2.1562	-2.4667	-2.5187	-2.2958	-2.5729	-2.2229	-2.4333	-2.7188	-2.1375	-2.5563	-2.3792	-2.3979	96.692	244.741	172.483	69.256	116.325	324.833	280.862	215.357	58.903	290.196	329.232	326.549	182.110	210.772	230.943	174.663	0.00024568	0.00050485	6.5745e-05	676.08	2.4096e-06	6.2524e-06	1048.6	183.18	2.3251e-06	3.6593e-06	400.56	134.98	39.775	15.434	7.8231e-06	69.499	0.0002298	0.00020475	5.7449e-05	605.16	2.224e-06	2.2767e-06	935.25	164.55	2.2423e-06	2.1705e-06	357.09	121.3	36.276	14.139	2.2442e-06	62.05	232.170	64.803	36.136	-11.142	125.155	141.815	-10.602	-6.443	155.421	93.544	-7.182	-1.774	-1.930	2.662	90.763	1.099	-8191	255	
2061.718	1	1	0	0	0.14436	0.079167	0.037986	0.31851	0.1284	0.015762	0.23905	0.23835	0.14023	0.074769	0.17161	0.089331	0.15167	0.23195	0.25176	0.16954	-2.1375	-2.0333	-2.2625	-2.6542	-2.2188	-2.3333	-2.6937	-2.1021	-2.4688	-2.4188	-2.2687	-2.8	-2.2229	-2.3375	-2.5104	-2.1021	16.546	28.717	322.402	284.736	81.017	188.025	19.246	222.455	34.604	272.373	-15.418	5.263	124.233	312.953	-5.472	246.301	0.00029418	0.00064101	0.00010419	662.97	7.0077e-06	3.8247e-06	1034.6	183.09	1.841e-06	1.48e-06	400.39	136.14	39.874	15.75	2.5035e-06	69.154	0.00022225	0.00019881	5.6292e-05	598.48	2.1229e-06	2.1873e-06	925.49	163.3	2.2636e-06	2.1731e-06	357.26	121.49	36.43	14.255	2.1465e-06	62.106	229.453	23.072	24.690	-11.361	186.521	91.679	-10.487	-5.950	222.658	119.906	-6.911	-2.029	-1.843	2.826	107.154	1.221	-8191	255	
2061.812	1	1	0	0	0.14002	0.016994	0.12573	0.25776	0.039429	0.045743	0.1668	0.1555	0.013528	0.1086	0.25505	0.1277	0.016736	0.41659	0.25291	0.13218	-2.0292	-2.2479	-2.0625	-2.6792	-2.3063	-2.4854	-2.7854	-2.3438	-2.4979	-2.4354	-2.1271	-2.7313	-2.3563	-2.3729	-2.6583	-2.1979	40.866	114.725	316.033	272.531	87.946	-13.425	190.014	224.130	211.432	144.477	228.960	37.850	-2.864	-6.208	46.500	216.801	0.00023237	0.00036008	0.0001135	674.61	2.8133e-06	8.3813e-07	1036.6	183.08	3.2096e-06	6.7022e-06	400.88	135.58	39.492	15.549	6.1231e-06	69.577	0.0002186	0.00020008	5.5265e-05	602.76	2.1192e-06	2.233e-06	930.16	164.32	2.2193e-06	2.2066e-06	357.1	121.53	36.418	14.271	2.2007e-06	62.351	241.060	29.110	28.430	-10.908	205.488	162.201	-10.473	-6.271	243.598	133.645	-7.586	-2.035	-1.851	2.872	51.444	1.059	-8191	255	
2061.909	1	1	0	0	0.068897	0.059948	0.21258	0.19499	0.097248	0.21234	0.26129	0.08121	0.13074	0.1989	0.21203	0.19175	0.11345	0.10681	0.053726	0.13158	-2.0771	-2.4083	-2.1729	-2.65	-2.1625	-2.2938	-2.8	-2.1542	-2.5417	-2.4813	-2.1792	-2.6167	-2.1604	-2.1729	-2.6604	-2.2812	239.128	297.270	176.751	278.147	65.337	-9.110	-14.977	94.424	256.320	189.354	166.174	254.092	44.468	301.347	288.468	9.277	0.0003171	0.00046216	0.0001713	668.9	2.839e-06	3.179e-06	1046.2	182.77	1.4768e-06	6.3874e-06	403.07	136.28	40.253	15.69	5.6036e-06	69.47	0.00022536	0.00019702	5.337e-05	600.91	2.084e-06	2.1486e-06	933.7	164.27	2.187e-06	2.0864e-06	359.53	122.5	36.612	14.304	2.1426e-06	62.357	244.940	47.319	62.301	-10.912	116.194	211.477	-10.395	-6.360	149.162	141.632	-7.133	-2.419	-2.455	2.517	148.893	1.262	-8191	255	
2062.005	1	1	0	0	0.08262	0.13204	0.098324	0.028375	0.11645	0.17255	0.082746	0.32822	0.22343	0.076571	0.24853	0.33878	0.25614	0.12645	0.018979	0.21003	-1.9833	-2.3646	-2.0292	-2.4875	-2.3646	-2.0979	-2.85	-2.4375	-2.2208	-2.6042	-2.2458	-2.4792	-2.2604	-2.1208	-2.65	-2.35	163.515	246.573	5.008	253.742	135.716	174.472	46.830	181.824	56.034	246.252	270.456	258.908	309.078	292.410	192.477	223.794	0.00035124	0.00039423	7.342e-05	670.49	1.8653e-06	4.8087e-06	1046.7	181.86	2.5312e-06	4.8297e-06	399.2	134.81	40.245	15.609	7.1e-06	69.21	0.00022185	0.00019676	5.1375e-05	600.77	2.0737e-06	2.1164e-06	930.45	162.78	2.2072e-06	2.1266e-06	356.37	121.21	36.498	14.269	2.1902e-06	62.115	219.232	16.193	104.276	-11.231	26.139	90.317	-10.414	-6.449	76.073	129.310	-6.952	-2.227	-1.366	2.738	163.767	1.062	-8191	255	
2062.125	1	1	0	0	0.13324	0.21712	0.41304	0.25827	0.15972	0.30999	0.29547	0.32055	0.19036	0.2256	0.22255	0.15395	0.08981	0.067341	0.27487	0.098178	-1.8708	-2.7313	-2.1854	-2.6292	-2.4437	-2.2729	-2.9521	-2.3604	-2.3167	-2.6646	-2.3896	-2.4688	-2.4771	-2.0792	-2.7687	-2.6646	141.051	224.073	133.214	318.124	22.363	76.546	265.960	191.480	175.569	86.190	148.857	247.146	153.523	274.035	209.601	45.920	0.0003401	0.00046222	2.6548e-05	674.49	6.9793e-06	3.1796e-06	1045.9	181.15	3.2886e-06	3.34e-06	397.93	135.06	40.093	15.763	2.4797e-06	70.186	0.00022291	0.0001905	5.4295e-05	602.81	2.035e-06	2.1151e-06	931.86	163.47	2.1461e-06	2.1267e-06	356.98	121.92	36.609	14.343	2.101e-06	62.661	214.564	35.615	313.216	-10.972	88.875	114.772	-10.636	-6.559	106.218	157.210	-7.153	-1.650	-2.053	2.466	127.813	1.116	-8191	255	
2062.221	1	1	0	0	0.38729	0.079242	0.091896	0.25204	0.20134	0.20851	0.26291	0.11423	0.15445	0.089489	0.078526	0.29469	0.064211	0.11301	0.32025	0.26313	-1.7646	-2.7604	-2.1562	-2.4104	-2.5875	-1.9958	-2.7625	-2.3625	-2.4125	-2.7	-2.2833	-2.5687	-2.6542	-2.1646	-2.4479	-2.45	200.238	199.950	64.975	274.886	64.121	268.363	-10.059	294.389	97.744	209.334	41.281	321.997	287.015	114.974	33.188	298.983	0.00030064	0.00044164	8.9858e-05	672.49	5.4719e-06	5.4909e-06	1040.2	183.48	2.303e-06	1.087e-06	402.7	135.78	40.428	15.634	8.635e-07	70.186	0.00022549	0.00019774	5.3834e-05	601.36	2.151e-06	2.0945e-06	929.61	164.45	2.1646e-06	2.1289e-06	358.55	122.42	36.792	14.339	2.1543e-06	63.004	217.016	85.292	52.470	-10.698	120.398	106.435	-10.479	-6.304	170.147	147.982	-7.317	-2.081	-2.044	2.405	211.397	0.976	-8191	255	
2062.318	1	1	0	0	0.09887	0.045781	0.12883	0.18314	0.17904	0.10458	0.093107	0.060521	0.098823	0.042861	0.10314	0.11723	0.099155	0.084649	0.22929	0.35262	-1.6646	-2.4938	-2.2667	-2.5687	-2.5771	-2.1271	-2.5417	-2.6063	-2.2062	-2.7542	-2.5958	-2.5271	-2.6437	-2.3063	-2.4562	-2.4354	234.725	203.745	254.540	58.341	111.217	-11.822	242.809	63.778	212.101	294.551	73.049	201.841	22.428	261.539	46.313	264.278	0.00033981	0.00052086	6.5688e-05	673.57	1.3702e-06	3.4474e-06	1048.8	182.72	3.5819e-06	2.9523e-06	398.01	135.15	40.036	15.729	4.3229e-06	69.36	0.00021765	0.00019891	5.2079e-05	603.41	2.0719e-06	2.0422e-06	936.95	163.78	2.1622e-06	2.1135e-06	356.07	121.77	36.529	14.279	2.1511e-06	62.103	236.362	98.880	102.811	-10.608	298.116	48.382	-10.243	-6.646	126.816	121.774	-6.844	-2.066	-2.112	2.489	167.022	1.248	-8191	255	
2062.414	1	1	0	0	0.17514	0.33368	0.14329	0.23058	0.11017	0.17732	0.16757	0.1605	0.10255	0.17547	0.24322	0.20882	0.05944	0.23438	0.26373	0.12445	-1.7479	-2.7479	-2.2583	-2.4458	-2.5667	-2.15	-2.675	-2.7125	-2.3354	-2.7979	-2.5354	-2.3646	-2.6125	-2.2479	-2.525	-2.4479	203.878	297.237	42.819	231.993	-0.416	75.456	235.222	-14.367	222.433	94.879	290.778	247.784	33.861	152.652	69.864	297.189	0.00032971	0.0010427	5.0138e-05	669.86	5.4067e-06	2.7669e-06	1027.7	180.51	4.0841e-06	6.1916e-06	396.35	134.33	39.721	15.727	8.4331e-06	69.458	0.00021489	0.00019218	5.119e-05	599.83	2.1075e-06	2.1198e-06	924.31	162.13	2.202e-06	2.2544e-06	354.69	121.17	36.25	14.32	2.2615e-06	62.315	223.937	61.362	4.849	-10.844	244.568	15.888	-10.291	-5.969	145.314	142.399	-7.140	-2.117	-1.896	2.507	152.989	1.063	-8191	255	
2062.510	1	1	0	0	0.10939	0.20788	0.27895	0.032018	0.24787	0.10799	0.35484	0.18074	0.41505	0.30363	0.27635	0.23041	0.26132	0.36113	0.064929	0.068516	-1.8542	-2.6521	-2.2938	-2.3021	-2.6583	-2.3271	-2.6083	-2.525	-2.1354	-2.5958	-2.5229	-2.3271	-2.6979	-2.4229	-2.4271	-2.7083	232.521	329.378	116.475	304.399	159.762	183.173	248.230	311.908	24.312	98.335	277.925	254.333	251.402	206.572	72.465	282.843	0.00029248	0.00029289	0.00016228	671.35	7.6931e-06	2.1864e-06	1039.8	180.22	1.8778e-06	3.3197e-06	397.5	135.56	39.574	15.758	9.2089e-07	69.898	0.00021865	0.0002034	5.4815e-05	599.87	2.2111e-06	2.1353e-06	930.01	162.04	2.1968e-06	2.2281e-06	355.37	121.28	36.131	14.297	2.2782e-06	62.441	238.446	72.382	101.798	-11.341	89.553	124.826	-10.227	-6.437	162.901	285.606	-7.515	-1.999	-1.794	2.189	295.430	1.087	-8191	255	
2062.606	1	1	0	0	0.29039	0.22103	0.22635	0.17825	0.31931	0.28577	0.25961	0.25315	0.15228	0.16875	0.055994	0.17068	0.12996	0.21634	0.036245	0.25262	-1.7542	-2.3604	-2.2313	-2.2521	-2.6	-2.1104	-2.4167	-2.5875	-2.2083	-2.6021	-2.5312	-2.2438	-2.5312	-2.2667	-2.4813	-2.7979	75.334	94.715	246.060	327.336	117.532	179.847	246.756	275.716	285.018	228.607	200.542	48.436	245.691	294.344	317.014	269.949	0.00031426	0.00052576	0.00026538	666.06	4.1875e-06	5.2073e-06	1040.5	181.08	4.7994e-06	2.9614e-06	399.11	134.83	39.446	15.54	6.3124e-06	69.007	0.00021767	0.00020394	5.5625e-05	599.04	2.1902e-06	2.2067e-06	931.88	162.47	2.2516e-06	2.2097e-06	355.86	121.02	36.059	14.183	2.2663e-06	61.792	224.191	102.914	54.721	-11.007	115.376	114.294	-10.606	-6.491	171.166	91.022	-7.213	-2.368	-1.830	2.928	135.759	0.916	-8191	255	
2062.725	1	1	0	0	0.24627	0.10216	0.059557	0.066201	0.086301	0.1031	0.14908	0.20293	0.19524	0.081167	0.23218	0.21321	0.12092	0.13015	0.13945	0.12969	-1.6333	-2.3292	-2.3042	-2.3292	-2.6604	-2.3333	-2.3	-2.7083	-2.1063	-2.3688	-2.4146	-2.2354	-2.5521	-2.2396	-2.3833	-2.7604	-6.427	189.912	108.006	315.170	296.268	62.248	302.405	264.883	252.865	-10.947	305.535	1.334	233.838	329.975	228.247	256.213	0.00029754	0.00024452	0.00011394	665.68	5.0195e-06	1.4032e-06	1033.5	179.46	2.4875e-06	6.0543e-06	393.78	132.76	38.93	15.31	5.8019e-06	68.36	0.0002203	0.00021393	5.6217e-05	594.79	2.2935e-06	2.293e-06	920.73	160.79	2.2906e-06	2.3292e-06	352.4	119.59	35.779	14.037	2.3238e-06	61.361	222.634	99.375	41.945	-10.643	152.214	225.141	-10.421	-6.256	130.743	103.574	-7.181	-2.062	-1.574	3.355	151.034	1.084	-8191	255	
2062.821	1	1	0	0	0.22804	0.079749	0.048709	0.13288	0.10648	0.057077	0.21441	0.15708	0.077024	0.25274	0.15315	0.24128	0.089098	0.20908	0.25986	0.17511	-1.8521	-2.2875	-2.6312	-2.1354	-2.5438	-2.3375	-2.2562	-2.6813	-2.2354	-2.3854	-2.7938	-2.1437	-2.5396	-2.5062	-2.1188	-2.9333	164.065	177.496	36.101	281.603	130.232	111.011	68.348	321.037	327.815	82.550	3.498	319.586	325.352	73.377	228.785	210.141	0.00033085	0.00053382	0.00012243	661.53	5.6268e-06	2.5597e-06	1031.6	179.84	4.7465e-06	4.7146e-06	397.8	134.33	39.765	15.362	5.628e-06	68.912	0.00022413	0.00021121	5.7151e-05	594.35	2.315e-06	2.2819e-06	921.42	161.49	2.2552e-06	2.345e-06	355.41	120.97	36.22	14.16	2.3011e-06	62.001	229.278	47.755	61.488	-10.775	115.472	69.389	-10.385	-6.404	146.649	185.894	-6.875	-2.381	-1.942	2.674	132.473	1.405	-8191	255	
2062.893	1	1	0	0	0.11347	0.17568	0.18432	0.079965	0.33878	0.37201	0.362	0.12573	0.13337	0.13945	0.068318	0.25513	0.28	0.16589	0.21951	0.20167	-1.7479	-2.5083	-2.6	-2.2042	-2.4042	-2.4333	-2.3083	-2.6646	-2.4042	-2.4437	-2.7375	-2.3542	-2.5187	-2.4521	-2.2646	-2.6521	206.539	167.286	316.614	303.836	-9.438	146.948	188.771	262.817	170.803	326.717	0.646	252.302	84.919	117.131	311.922	-12.446	0.00030522	0.00043395	5.0679e-05	664.61	9.856e-07	3.68e-06	1034.8	181.1	5.6354e-06	5.4811e-06	395.75	133.82	39.459	15.409	3.2694e-06	69.429	0.00022308	0.00021011	5.7803e-05	596.44	2.2716e-06	2.2316e-06	924.4	162.02	2.2287e-06	2.2602e-06	354.03	120.47	36.117	14.161	2.2453e-06	62.104	235.722	44.288	-17.362	-11.200	157.033	86.774	-10.187	-6.737	152.708	123.352	-7.428	-2.141	-2.101	2.785	127.383	1.518	-8191	255	
2062.989	1	1	0	0	0.053255	0.28519	0.14866	0.32469	0.13228	0.18523	0.3689	0.20416	0.14469	0.11545	0.27121	0.15967	0.19196	0.15173	0.19966	0.20881	-1.9562	-2.1604	-2.6167	-2.3083	-2.3979	-2.4521	-2.475	-2.7354	-2.2625	-2.375	-2.7333	-2.2167	-2.3708	-2.6604	-2.2375	-2.475	196.146	98.330	190.988	320.565	333.134	253.793	271.289	333.413	198.414	29.951	286.716	283.885	35.274	15.698	176.880	303.905	0.00029037	0.00069695	5.8823e-05	662.88	6.039e-06	5.5106e-06	1042.6	180.09	4.3813e-06	9.5078e-06	394.06	134.13	39.308	15.397	5.9228e-06	68.511	0.00022845	0.00020937	5.501e-05	595.67	2.2665e-06	2.2019e-06	927.65	161.82	2.1718e-06	2.1458e-06	353.52	120.52	35.994	14.129	2.1311e-06	61.553	226.645	52.478	3.790	-10.919	174.958	89.668	-10.747	-6.208	189.231	190.487	-7.192	-2.177	-1.688	2.545	147.015	1.497	-8191	255	
2063.110	1	1	0	0	0.25645	0.20544	0.22027	0.30725	0.18589	0.023396	0.28269	0.21897	0.13171	0.14558	0.069735	0.23609	0.14409	0.25612	0.22577	0.25275	-2.0021	-2.1583	-2.5125	-2.2708	-2.3375	-2.5021	-2.3354	-2.6813	-2.4604	-2.2125	-2.7583	-2.2771	-2.3896	-2.4062	-2.3896	-2.5604	299.665	92.050	99.926	48.054	96.663	282.419	266.541	159.606	155.627	50.577	5.406	312.627	295.183	151.940	170.267	252.146	0.00034124	0.00049991	0.00010224	661.88	7.736e-06	1.6837e-06	1035.8	180.1	5.5721e-06	5.007e-06	394.06	134.15	39.531	15.786	6.3734e-06	69.18	0.0002208	0.00020034	5.7168e-05	594.45	2.2264e-06	2.2524e-06	921.78	161.23	2.2452e-06	2.2216e-06	353.02	120.82	36.254	14.245	2.1451e-06	62.032	229.422	65.317	59.362	-10.485	118.375	17.721	-10.682	-6.516	111.599	91.421	-7.480	-1.963	-1.738	2.512	144.238	1.178	-8191	255	
2063.206	1	1	0	0	0.32358	0.078596	0.098712	0.021824	0.018335	0.043525	0.27714	0.16972	0.11535	0.032968	0.16717	0.48973	0.11867	0.11829	0.1509	0.30063	-2.025	-2.0667	-2.5667	-2.3208	-2.2562	-2.5896	-2.2917	-2.4417	-2.4833	-2.0625	-2.7687	-2.4	-2.2333	-2.7583	-2.3646	-2.4813	104.912	287.158	-5.478	7.740	257.174	274.596	267.054	325.006	62.647	-8.814	305.254	316.247	326.439	282.840	315.197	20.573	0.00029187	0.00040856	4.5564e-05	663.37	5.9369e-06	8.1342e-06	1030.8	179.78	3.9471e-06	4.9454e-06	398.42	134.38	39.561	15.63	2.2052e-06	69.555	0.00021705	0.00019951	5.7939e-05	594.74	2.2615e-06	2.238e-06	921.57	161.79	2.193e-06	2.1454e-06	355.69	120.97	36.341	14.23	2.1353e-06	62.305	216.272	23.282	48.766	-11.070	170.151	150.674	-10.501	-6.233	163.845	174.289	-6.883	-2.184	-1.474	2.621	152.505	1.247	-8191	255	
2063.302	1	1	0	0	0.35198	0.24748	0.24188	0.14232	0.32673	0.05104	0.40648	0.11416	0.080233	0.11873	0.12568	0.093902	0.24797	0.27168	0.078295	0.12739	-2.1896	-2.1312	-2.6	-2.4521	-2.2396	-2.4313	-2.1	-2.3708	-2.4896	-2.0667	-2.8083	-2.5167	-2.0771	-2.6792	-2.3583	-2.6104	52.807	284.832	241.864	24.693	242.921	264.683	204.343	233.210	202.676	316.931	211.105	123.911	31.047	249.911	98.908	278.747	0.00035693	0.00051644	0.00019944	661.49	1.2772e-05	5.6849e-06	1030	178.75	1.5741e-06	4.5607e-06	398.35	135.3	39.487	15.675	8.4136e-06	68.992	0.00022316	0.00019834	5.7554e-05	593.1	2.2928e-06	2.1777e-06	921.15	161.57	2.2443e-06	2.2343e-06	354.77	121.14	36.261	14.238	2.2814e-06	61.873	229.311	69.745	42.134	-10.757	127.771	146.609	-10.655	-6.030	237.263	110.822	-7.352	-1.799	-1.294	2.194	131.446	1.148	-8191	255	
2063.398	1	1	0	0	0.20987	0.13984	0.18288	0.25648	0.1157	0.034109	0.32825	0.23844	0.34192	0.18554	0.17646	0.20955	0.13355	0.14653	0.13538	0.20174	-2.2021	-2.0687	-2.3812	-2.6396	-2.0896	-2.7562	-2.3875	-2.4646	-2.3563	-2.1813	-2.5125	-2.5021	-2.1479	-2.7667	-2.3521	-2.3937	152.633	19.701	37.387	138.523	245.936	219.068	262.819	303.831	35.380	91.602	77.424	84.436	67.159	137.699	244.004	254.635	0.00029949	0.00020848	0.0001637	657.45	5.8056e-06	5.697e-06	1032.6	179.49	3.0742e-06	2.206e-06	396.75	134.36	39.897	15.447	5.473e-06	68.743	0.00023126	0.00020187	5.8288e-05	590.4	2.2448e-06	2.2643e-06	919.31	160.86	2.2596e-06	2.1712e-06	353.01	120.77	36.263	14.181	2.1743e-06	61.608	240.105	275.348	57.312	-11.091	180.917	148.909	-10.762	-6.529	187.668	276.417	-7.545	-2.223	-1.593	3.118	108.361	1.085	-8191	255	
2063.519	1	1	0	0	0.020457	0.21938	0.08126	0.5089	0.2114	0.27008	0.21295	0.33434	0.2547	0.045602	0.38249	0.22689	0.17407	0.21197	0.080195	0.31484	-2.0812	-2.2354	-2.4771	-2.6667	-2.2583	-2.7604	-2.3333	-2.2021	-2.5479	-2.2188	-2.5312	-2.5833	-2.1188	-2.5187	-2.475	-2.4792	166.578	230.913	92.831	283.917	169.519	39.297	236.344	216.875	112.223	163.427	301.784	262.299	70.041	-24.105	152.246	312.884	0.00027266	0.00094674	0.0002067	660.02	4.5065e-06	5.6572e-06	1027.6	179.05	4.276e-06	8.2795e-06	397.56	134.89	39.218	15.523	3.2747e-06	69.48	0.00022139	0.00020796	5.7433e-05	591.15	2.2678e-06	2.3103e-06	917.36	160.97	2.3371e-06	2.2886e-06	354.44	121.13	36.242	14.207	2.2252e-06	62.215	251.661	56.117	47.374	-11.053	138.397	134.301	-10.438	-6.276	130.176	158.700	-7.229	-2.484	-2.081	2.721	123.329	1.331	-8191	255	
2063.590	1	1	0	0	0.10735	0.30067	0.074988	0.3968	0.24071	0.18058	0.13008	0.15698	0.12868	0.057422	0.34733	0.26486	0.046914	0.18602	0.23075	0.21595	-2.1375	-2.2125	-2.3937	-2.7896	-2.0812	-2.725	-2.4292	-2.2771	-2.5896	-2.4167	-2.5604	-2.8458	-2.0542	-2.4667	-2.5625	-2.2333	99.043	146.236	16.734	318.176	315.171	0.238	20.656	209.531	185.213	86.880	219.323	296.598	206.274	3.905	97.883	291.151	0.00036819	0.00084603	6.4701e-05	661.67	4.071e-06	5.1403e-06	1031.3	179.86	1.61e-06	4.047e-06	398.28	134.3	39.839	15.676	2.3408e-06	69.763	0.00023158	0.00020528	5.8031e-05	594.1	2.213e-06	2.3159e-06	920.86	161.53	2.2395e-06	2.1893e-06	354.88	121.05	36.152	14.264	2.2153e-06	62.495	231.992	-1.333	4.574	-11.165	134.681	137.050	-10.763	-6.087	145.948	125.106	-7.140	-2.054	-2.235	2.876	170.977	1.300	-8191	255	
2063.686	1	1	0	0	0.15054	0.19621	0.084401	0.32993	0.13936	0.21376	0.084548	0.12898	0.23995	0.28237	0.017566	0.20634	0.064969	0.17986	0.29484	0.23309	-2.0979	-2.4167	-2.5021	-2.4917	-2.1479	-2.6146	-2.8333	-2.45	-2.5812	-2.3333	-2.4354	-2.8729	-2.3688	-2.4188	-2.5208	-2.4292	200.405	183.182	155.378	317.710	200.522	224.412	299.116	297.961	228.570	245.840	23.123	-4.000	326.111	167.397	84.377	301.755	0.00030036	0.00032102	0.00013014	667.78	4.9293e-06	9.0983e-07	1030.8	179.76	4.4735e-06	6.8524e-06	397.27	134.75	39.847	15.397	2.5042e-06	69.171	0.00022611	0.00020036	5.5888e-05	593.5	2.2147e-06	2.269e-06	919.78	161.52	2.2431e-06	2.2634e-06	354	121.08	36.248	14.178	2.2194e-06	62.067	232.839	5.024	-21.525	-10.834	98.487	82.581	-10.418	-6.177	155.438	161.564	-6.947	-1.984	-1.641	2.536	118.366	0.959	-8191	255	
2063.805	1	1	0	0	0.17092	0.16078	0.070667	0.29582	0.2095	0.24048	0.3276	0.23716	0.088107	0.14452	0.40572	0.18061	0.21249	0.12943	0.10611	0.066154	-2.1979	-2.4458	-2.1354	-2.7667	-2.0958	-2.3708	-2.6979	-2.1146	-2.5042	-2.4938	-2.2583	-2.625	-2.2771	-2.3354	-2.6021	-2.3583	189.264	115.366	330.394	242.110	145.505	58.529	288.360	3.796	108.924	241.031	308.077	291.870	8.421	170.965	163.408	207.559	0.00027925	0.00022725	0.00013587	658.9	5.0042e-06	6.2394e-06	1032.6	180.47	2.6104e-06	6.2385e-06	392.51	134.78	39.927	15.664	7.788e-06	69.708	0.00022377	0.00020349	5.5127e-05	590.54	2.1802e-06	2.263e-06	921.18	161.51	2.2137e-06	2.1551e-06	353.14	121.26	36.422	14.295	2.1947e-06	62.517	225.567	39.062	88.479	-10.779	141.415	130.203	-10.279	-6.371	185.418	129.070	-6.999	-1.910	-2.395	3.012	92.357	1.333	-8191	255	
2063.901	1	1	0	0	0.12432	0.16489	0.15323	0.12616	0.13332	0.15	0.28421	0.19494	0.11019	0.082442	0.16563	0.31928	0.16606	0.17052	0.19696	0.32683	-2.1125	-2.3979	-1.9979	-2.7354	-2.2833	-2.3542	-2.6437	-2.1521	-2.5458	-2.325	-2.2354	-2.5771	-2.2604	-2.1688	-2.625	-2.4	179.366	287.762	330.254	52.569	180.647	243.646	266.393	267.104	9.871	111.222	203.840	246.201	256.084	294.670	47.438	245.947	0.00030585	6.0374e-05	9.1207e-05	662	3.5578e-06	4.8608e-06	1030.9	179.52	3.9656e-06	3.6112e-06	396.44	135.56	39.654	15.798	6.724e-06	70.436	0.00022474	0.00019733	5.5743e-05	594.83	2.1695e-06	2.1636e-06	922.61	161.43	2.3029e-06	2.1829e-06	354.01	122.04	36.379	14.397	2.2236e-06	63.087	233.474	-0.764	91.188	-10.952	149.244	263.969	-10.467	-6.349	170.246	83.517	-6.938	-2.157	-2.025	2.948	149.274	1.121	-8191	255	
2063.998	1	1	0	0	0.17676	0.016668	0.24513	0.17226	0.33105	0.11362	0.34152	0.091197	0.042829	0.13538	0.15589	0.21968	0.063605	0.088983	0.0561	0.2709	-2.0854	-2.5646	-2.0563	-2.6625	-2.1	-2.3271	-2.6729	-2.2604	-2.3438	-2.4458	-2.2729	-2.6771	-2.2292	-2.2979	-2.4958	-2.2583	326.095	146.328	271.845	-16.345	52.509	144.910	323.010	281.239	246.530	158.407	257.229	34.403	29.555	45.353	303.562	297.244	0.0003572	0.00059939	0.00012398	667.4	3.1908e-06	4.1837e-06	1041.1	180.74	4.9718e-06	6.4732e-06	395.59	136.78	40.067	15.82	6.7647e-06	70.049	0.0002233	0.00019721	5.525e-05	597.6	2.1654e-06	2.2436e-06	930.4	161.66	2.2982e-06	2.2543e-06	355.31	122.5	36.565	14.468	2.1907e-06	62.735	246.485	72.029	63.367	-10.973	89.793	127.661	-10.520	-6.329	158.112	98.532	-7.301	-1.858	-1.304	2.424	136.047	1.210	-8191	255	
2064.118	1	1	0	0	0.22095	0.13574	0.26933	0.031878	0.13501	0.18504	0.026459	0.23163	0.044207	0.08006	0.11724	0.052917	0.14023	0.10358	0.17872	0.40844	-1.9333	-2.5812	-1.9104	-2.6354	-2.425	-2.1625	-2.675	-2.2896	-2.2833	-2.4542	-2.1958	-2.7604	-2.3667	-2.1271	-2.6271	-2.4083	218.044	136.350	311.834	99.116	329.327	244.869	221.564	265.074	14.900	326.491	324.771	-19.405	96.163	-16.835	239.611	305.515	0.0003316	0.00045392	0.00010096	664.21	2.3132e-06	3.1424e-06	1031.3	178.37	3.9654e-06	4.8767e-06	393.55	134.4	39.32	15.712	9.2191e-06	69.988	0.00022187	0.00018804	5.2858e-05	595.85	2.1293e-06	2.0756e-06	920.54	160.25	2.1598e-06	2.0736e-06	351.97	121.24	36.094	14.343	2.1338e-06	62.615	227.405	32.118	59.109	-10.887	116.933	92.672	-10.638	-6.433	120.119	133.352	-7.041	-1.946	-1.899	2.475	126.119	0.921	-8191	255	
2064.190	1	1	0	0	0.1962	0.20276	0.074883	0.079182	0.14852	0.11125	0.21951	0.19369	0.022649	0.14917	0.17745	0.14615	0.023915	0.20129	0.32061	0.16139	-1.8271	-2.5	-1.9729	-2.5667	-2.4354	-2.2271	-2.6917	-2.1625	-2.1229	-2.7208	-2.3312	-2.6271	-2.6771	-2.1063	-2.6833	-2.5146	36.361	74.600	31.119	174.107	282.533	158.694	198.333	9.714	267.298	75.205	244.601	303.964	134.742	220.774	330.329	309.939	0.00030265	0.00051533	0.00010391	666.07	2.2837e-06	4.6135e-06	1040.6	178.49	6.0303e-06	5.1298e-06	397.25	135.96	39.949	15.983	4.9197e-06	70.105	0.00021477	0.00019335	5.3658e-05	595.19	2.0714e-06	2.1587e-06	925.05	160.44	2.1526e-06	2.1427e-06	353.81	121.97	36.197	14.395	2.1889e-06	62.862	224.214	28.366	84.799	-11.057	158.137	117.316	-10.703	-6.504	188.790	185.092	-7.192	-2.219	-1.929	2.944	126.285	1.167	-8191	255	
2064.286	1	1	0	0	0.12017	0.18571	0.13041	0.27725	0.20828	0.14326	0.059892	0.12463	0.14589	0.23638	0.1818	0.25701	0.068942	0.11674	0.12036	0.037198	-1.7771	-2.6	-2.0125	-2.4375	-2.4521	-2.2917	-2.6042	-2.2958	-2.2833	-2.5271	-2.1708	-2.6021	-2.475	-2.1354	-2.5479	-2.3833	227.304	21.272	322.677	-16.836	286.482	129.877	307.394	185.311	177.287	192.903	291.095	274.761	124.548	300.169	68.562	-23.018	0.0003151	0.00045145	5.5444e-05	664.38	7.5431e-06	3.9483e-06	1040.9	177.97	2.1666e-06	3.7663e-06	397.75	135.94	39.718	15.801	2.936e-06	70.017	0.00021736	0.00019015	5.3327e-05	596.12	2.1133e-06	2.0484e-06	929.25	160.4	2.1321e-06	2.1157e-06	354.42	122.19	36.279	14.385	2.143e-06	62.925	235.176	56.798	132.150	-11.073	156.255	116.761	-10.606	-6.352	90.384	137.009	-6.951	-1.985	-2.155	2.930	141.306	0.924	-8191	255	
2064.407	1	1	0	0	0.15416	0.24523	0.20786	0.13651	0.13314	0.28155	0.060352	0.31307	0.13735	0.073798	0.074986	0.22581	0.062839	0.10507	0.12933	0.073935	-1.9521	-2.4208	-2.0625	-2.4146	-2.4958	-2.0729	-2.8312	-2.5417	-2.0458	-2.6167	-2.6208	-2.3854	-2.5687	-2.1562	-2.325	-2.6375	255.229	77.522	246.753	308.554	245.265	76.706	54.022	263.129	138.956	226.357	-6.469	247.910	139.327	246.929	-15.512	103.667	0.00031424	0.00041673	6.6995e-05	667.72	4.6708e-06	2.4602e-06	1031.1	180.6	1.7388e-06	4.6486e-06	395.8	136.02	39.929	15.736	2.8333e-06	69.97	0.00021598	0.00019461	5.1477e-05	598.07	2.0848e-06	2.0369e-06	923.92	160.93	2.0897e-06	2.1342e-06	352.78	121.72	36.344	14.328	2.2345e-06	62.637	222.732	40.250	100.460	-10.930	217.099	100.172	-10.877	-6.535	111.631	89.871	-7.217	-1.674	-2.512	2.155	108.596	1.100	-8191	255	
2064.503	1	1	0	0	0.21504	0.29437	0.038759	0.23336	0.14416	0.11864	0.33286	0.13734	0.10088	0.27053	0.073164	0.24841	0.11321	0.05873	0.23367	0.17511	-1.7313	-2.5229	-2.0563	-2.3417	-2.675	-2.2313	-2.4458	-2.4458	-2.1875	-2.4521	-2.3354	-2.2667	-2.6604	-2.1125	-2.5229	-2.5333	128.572	33.911	192.047	249.579	213.195	50.243	293.153	120.833	321.024	268.175	318.890	314.949	42.106	319.836	85.544	29.466	0.00026037	0.00018553	5.7539e-05	659.08	3.0302e-06	3.7015e-06	1024.1	177.27	5.2881e-06	3.1688e-06	392.63	134.73	39.791	15.772	7.1487e-06	70.703	0.00021665	0.00019442	5.4416e-05	589.61	2.1131e-06	2.0569e-06	915.73	159.08	2.125e-06	2.0919e-06	351.01	121.4	36.099	14.374	2.1524e-06	62.989	224.795	34.908	331.920	-10.958	175.803	83.205	-10.136	-6.347	164.688	153.302	-7.252	-2.206	-1.695	2.285	133.851	1.215	-8191	255	
2064.597	1	1	0	0	0.2537	0.36505	0.20322	0.10677	0.16744	0.19673	0.13255	0.13267	0.19058	0.083017	0.19483	0.11086	0.12177	0.16087	0.36443	0.17752	-1.6208	-2.4375	-2.2896	-2.1292	-2.5542	-2.2333	-2.5125	-2.6979	-2.1125	-2.4979	-2.3667	-2.1333	-2.5458	-2.3333	-2.2062	-2.6604	271.850	118.995	84.417	147.178	334.391	190.570	259.278	190.529	220.436	178.909	252.408	268.421	22.964	24.521	208.538	302.408	0.00025304	0.00088904	9.7203e-05	661.84	4.4938e-06	6.6075e-06	1037.6	178.2	3.0159e-06	5.8992e-06	394.66	135.83	39.838	15.739	5.3345e-06	70.164	0.00020551	0.00019083	5.3713e-05	592.81	2.0391e-06	2.0134e-06	926.09	160.36	2.0079e-06	2.1031e-06	352.12	122.02	36.36	14.373	2.0535e-06	62.959	232.974	45.523	59.311	-11.063	83.071	102.831	-10.336	-6.494	150.034	147.806	-7.113	-1.965	-1.867	2.658	134.240	1.023	-8191	255	
2064.693	1	1	0	0	0.22805	0.15984	0.29176	0.11092	0.085978	0.098468	0.10937	0.16434	0.067024	0.129	0.12955	0.13844	0.1296	0.20606	0.21618	0.048522	-1.6083	-2.4021	-2.5521	-2.2896	-2.6917	-2.3833	-2.3979	-2.55	-2.0854	-2.4062	-2.4417	-2.2562	-2.7354	-2.4333	-2.4479	-2.8458	115.646	217.345	173.711	331.963	42.906	37.262	300.100	208.957	203.480	16.223	325.756	-13.224	312.654	-10.248	109.978	267.034	0.00027152	0.000403	5.8783e-05	661.88	1.74e-06	4.3526e-06	1035.4	179.38	4.4433e-06	1.8458e-06	398.39	136.4	40.07	15.862	7.7036e-06	70.15	0.00020162	0.00019429	5.3954e-05	592.17	2.0568e-06	2.013e-06	928.15	160.88	2.0078e-06	2.0199e-06	354.16	122.43	36.496	14.373	1.996e-06	62.953	236.987	30.677	103.826	-11.200	160.271	73.499	-10.304	-6.316	164.894	332.671	-7.329	-2.174	-1.864	3.013	143.679	0.940	-8191	255	
2064.767	1	1	0	0	0.032765	0.31455	0.085764	0.14145	0.12433	0.1052	0.082923	0.055858	0.27227	0.13322	0.18764	0.27003	0.15384	0.11177	0.1827	0.15226	-1.6167	-2.4354	-2.4979	-2.1896	-2.5938	-2.3667	-2.2667	-2.5979	-2.35	-2.4062	-2.6604	-2.1458	-2.3896	-2.2208	-2.2354	-2.8042	308.053	282.949	136.240	-11.917	212.309	-6.742	259.702	34.446	183.636	59.813	11.182	212.942	162.415	20.127	294.969	335.162	0.00033107	0.00073545	2.2661e-05	660.66	7.7381e-06	2.046e-06	1034.1	178.83	2.346e-06	2.5833e-06	398.24	135.73	39.459	15.856	7.9296e-06	69.972	0.00020282	0.00018325	4.883e-05	593.16	1.9312e-06	1.9183e-06	920.76	159.42	1.8515e-06	1.966e-06	352.72	121.56	36.067	14.372	1.8385e-06	62.99	227.165	77.168	307.427	-10.889	120.516	76.974	-10.479	-6.032	203.523	122.201	-6.971	-2.113	-2.096	2.475	123.230	1.412	-8191	255	
2064.886	1	1	0	0	0.085315	0.1326	0.12464	0.24822	0.044056	0.28203	0.23579	0.2376	0.028165	0.03213	0.087539	0.55127	0.10245	0.24226	0.19455	0.030027	-1.6604	-2.3042	-2.4583	-2.1542	-2.6583	-2.3354	-2.3208	-2.6875	-2.1125	-2.6896	-2.8667	-2.1604	-2.4542	-2.4542	-2.1958	-2.5812	67.012	205.074	240.795	297.691	234.551	103.010	300.051	243.188	44.097	123.832	267.198	260.327	288.081	247.836	77.963	266.723	0.0003013	0.00030506	5.6945e-05	664.32	4.3816e-06	2.6972e-06	1043	178.51	4.3911e-06	6.4142e-06	396.51	134.97	39.284	15.823	7.7556e-06	70.557	0.0001877	0.00017487	4.7645e-05	594.2	1.9464e-06	1.8258e-06	924.34	159.68	1.8627e-06	1.9704e-06	352.89	121.76	35.974	14.421	1.8361e-06	63.215	253.417	60.177	79.693	-11.034	145.150	41.251	-10.426	-6.572	171.850	128.564	-7.099	-2.335	-1.948	2.489	94.860	1.119	-8191	255	
2064.982	1	1	0	0	0.097864	0.23751	0.38334	0.2622	0.15247	0.045273	0.12518	0.25436	0.1432	0.15885	0.26734	0.16321	0.079579	0.099542	0.095247	0.1809	-1.8458	-2.3438	-2.5854	-2.2229	-2.3458	-2.3271	-2.3542	-2.6188	-2.2375	-2.2875	-2.7188	-2.4167	-2.4125	-2.5125	-2.1021	-2.6542	13.085	205.562	-24.054	294.615	239.194	47.536	241.627	267.206	199.520	46.440	320.260	-2.783	140.970	327.904	248.313	323.939	0.00031755	0.00052925	0.00012192	659.67	6.563e-06	3.0936e-06	1032.9	177.31	4.4608e-06	4.3796e-06	396.97	135.68	39.954	15.766	3.406e-06	70.397	0.00019348	0.00016539	4.7362e-05	591.21	1.7956e-06	1.7632e-06	923.27	159.74	1.8227e-06	1.8381e-06	353.86	121.91	36.226	14.346	1.7848e-06	62.896	226.743	63.487	33.906	-11.192	170.569	197.017	-10.560	-6.463	108.996	132.578	-7.224	-2.077	-1.166	2.576	83.472	0.825	-8191	255	
2065.078	1	1	0	0	0.20981	0.19357	0.034069	0.46621	0.30905	0.067177	0.2472	0.18971	0.24617	0.17095	0.37871	0.19744	0.025572	0.13768	0.23081	0.27779	-2.0042	-2.1083	-2.65	-2.0771	-2.2125	-2.5271	-2.2687	-2.5854	-2.3958	-1.9854	-2.8125	-2.1667	-2.2667	-2.6729	-2.0104	-2.6063	196.111	-2.609	213.637	304.812	209.408	217.663	315.155	315.008	135.202	212.523	309.814	289.201	244.661	194.510	331.607	227.338	0.0003528	0.00032887	4.404e-05	658.04	2.6947e-06	4.9813e-06	1025	178.62	3.7158e-06	5.3636e-06	393.88	136.18	39.712	15.609	7.1028e-06	69.714	0.00019491	0.00016576	4.6615e-05	589.61	1.8412e-06	1.7712e-06	917.47	159.8	1.8227e-06	1.8194e-06	351.33	121.65	35.988	14.263	1.7697e-06	62.727	236.378	-8.067	68.466	-10.948	79.407	123.317	-10.839	-6.625	145.057	150.941	-7.115	-1.672	-1.854	2.692	100.047	1.187	-8191	255	
2065.199	1	1	0	0	0.26038	0.19142	0.02843	0.19989	0.065462	0.14892	0.24182	0.16917	0.14901	0.20988	0.18421	0.031465	0.041495	0.20159	0.14554	0.047709	-1.9646	-2.1479	-2.6333	-2.275	-2.2812	-2.4625	-2.1854	-2.3667	-2.4229	-2.1854	-2.65	-2.525	-2.4271	-2.5958	-2.2292	-2.5458	0.776	122.667	-17.640	206.929	84.338	294.276	291.724	285.632	62.575	103.457	318.681	203.545	28.229	34.179	258.048	23.270	0.00027381	0.00036357	7.0199e-05	658.58	6.0909e-06	2.8178e-06	1031.2	177	2.9916e-06	4.9181e-06	395.5	135.74	39.645	15.801	5.6238e-06	69.949	0.00018397	0.00016862	4.4463e-05	588.86	1.8273e-06	1.7522e-06	918.23	159.41	1.8071e-06	1.8074e-06	353.09	121.35	36.053	14.235	1.6934e-06	62.709	228.201	62.314	135.602	-10.905	169.312	118.039	-10.593	-6.631	93.663	93.613	-7.145	-2.208	-1.176	2.517	99.137	1.224	-8191	255	
2065.295	1	1	0	0	0.11177	0.1578	0.040102	0.35668	0.029259	0.12038	0.25935	0.20452	0.094261	0.17643	0.049979	0.099014	0.1803	0.26859	0.26204	0.058625	-2.1271	-2.1625	-2.5479	-2.4042	-2.2604	-2.6646	-2.1771	-2.6188	-2.5708	-2.2104	-2.7896	-2.3854	-2.2729	-2.6667	-2.2479	-2.5229	41.655	159.417	267.923	308.935	140.452	121.746	324.014	332.431	189.672	246.723	35.153	27.336	-14.356	300.103	135.796	225.019	0.00033433	0.00043968	8.9193e-05	660.17	7.3407e-06	2.0748e-06	1027.8	178.61	3.9005e-06	3.8654e-06	396.15	135.76	39.61	15.733	3.661e-06	69.938	0.00018865	0.00015904	4.5076e-05	589.93	1.8206e-06	1.8531e-06	917.07	159.6	1.8088e-06	1.7367e-06	353.4	121.76	36.187	14.278	1.7805e-06	62.82	226.973	63.000	49.270	-11.205	122.940	193.718	-10.453	-5.989	171.219	169.219	-7.148	-1.944	-1.322	3.101	114.382	1.149	-8191	255	
2065.391	1	1	0	0	0.19893	0.117	0.10522	0.20603	0.26151	0.18834	0.17383	0.12241	0.15543	0.086994	0.10642	0.25571	0.015786	0.29154	0.15281	0.12131	-2.15	-1.9375	-2.5771	-2.4479	-2.2479	-2.6688	-2.4125	-2.2417	-2.5271	-2.2229	-2.4938	-2.55	-2.0771	-2.7125	-2.0604	-2.55	209.191	50.337	93.942	316.741	177.321	63.889	266.142	286.414	100.909	182.373	7.791	247.539	267.891	-16.579	127.110	-18.751	0.00027563	0.0009249	7.6542e-05	654.93	2.7602e-06	5.5919e-06	1020.8	177.22	4.0305e-06	2.5133e-06	393.99	134.43	39.487	15.618	3.7388e-06	69.457	0.00019068	0.00016251	4.6493e-05	586.88	1.869e-06	1.8129e-06	912.98	158.91	1.8275e-06	1.7494e-06	352.04	121.31	35.962	14.147	1.8911e-06	62.148	229.978	42.766	44.119	-10.945	141.825	129.556	-10.573	-6.177	142.136	59.028	-7.486	-2.316	-1.674	2.582	145.809	1.331	-8191	255	
2065.487	1	1	0	0	0.09188	0.10855	0.3386	0.27844	0.19196	0.20089	0.12885	0.42248	0.046079	0.1221	0.12555	0.14412	0.43994	0.14402	0.25331	0.51792	-2.0479	-1.9396	-2.3646	-2.4354	-2.1813	-2.7188	-2.3875	-2.425	-2.5979	-2.1729	-2.8229	-2.6063	-2.1208	-2.7021	-2.3521	-2.4688	198.050	305.107	-4.767	-12.801	101.897	276.800	301.551	181.744	150.657	57.314	-10.555	14.806	55.440	275.529	239.222	271.636	0.00029042	0.0006039	9.1167e-05	653.19	2.3729e-06	7.9944e-06	1018.1	174.99	3.7091e-06	5.7125e-06	390.64	133.52	39.375	15.212	6.7192e-06	68.78	0.00020026	0.00016967	4.8705e-05	582.34	1.8963e-06	1.8766e-06	905.22	157.45	1.911e-06	1.8605e-06	347.37	119.74	35.788	13.934	1.8635e-06	61.483	221.397	116.790	91.243	-10.826	164.187	118.940	-10.626	-6.113	158.778	123.798	-7.188	-2.328	-2.230	2.357	134.010	1.211	-8191	255	
2065.583	1	1	0	0	0.14258	0.086567	0.25697	0.38664	0.035049	0.13466	0.13889	0.3482	0.11032	0.30719	0.10177	0.29394	0.13891	0.15099	0.21943	0.035307	-2.3187	-2.1521	-2.1833	-2.5896	-2.0104	-2.7646	-2.475	-2.1854	-2.5479	-2.2125	-2.5438	-2.75	-1.9021	-2.55	-2.4229	-2.3625	63.500	47.243	19.669	231.754	26.300	304.088	302.583	215.298	246.781	293.528	38.658	333.446	162.595	307.153	189.646	141.115	0.00032424	0.00046247	0.00012823	649.12	5.4714e-06	1.641e-06	1014.4	175.07	5.3502e-06	1.681e-06	391.6	133.41	39.41	15.297	3.7239e-06	68.673	0.00019982	0.00017598	5.0082e-05	579.77	1.8917e-06	1.9737e-06	904.98	157.23	1.9138e-06	1.9482e-06	348.41	119.56	35.515	13.855	1.8753e-06	61.337	232.345	332.813	63.846	-11.097	139.074	106.325	-10.854	-6.513	166.553	121.129	-6.858	-2.244	-1.683	3.111	157.304	1.215	-8191	255	
2065.679	1	1	0	0	0.14751	0.22502	0.26249	0.15725	0.1758	0.060377	0.26796	0.26766	0.26886	0.13963	0.12213	0.16094	0.1223	0.15941	0.016221	0.22209	-2.0208	-2.2396	-2.2188	-2.575	-2.2604	-2.3229	-2.6813	-2.3979	-2.525	-2.3875	-2.3	-2.6146	-2.3	-2.5979	-2.5563	-2.2583	177.190	136.522	45.667	-9.809	287.612	207.388	234.852	165.838	300.741	-8.971	18.287	303.820	35.243	-17.325	129.408	226.020	0.0003253	0.0006374	6.9464e-05	646.03	3.2751e-06	6.4535e-06	1014.8	174.26	4.6701e-06	3.8073e-06	390.04	134.75	39.043	15.213	1.8144e-06	69.409	0.0002029	0.00017612	5.0803e-05	578.41	1.8837e-06	1.9643e-06	904.6	156.97	1.9747e-06	1.8715e-06	349.24	120.32	35.45	13.967	1.926e-06	62.013	227.415	36.660	83.994	-10.892	106.851	158.129	-10.511	-6.021	139.682	109.536	-7.167	-2.489	-1.939	2.533	129.356	1.174	-8191	255	
2065.798	1	1	0	0	0.37956	0.051034	0.13428	0.21048	0.051245	0.17171	0.1249	0.1961	0.10365	0.29924	0.20022	0.23326	0.096501	0.041899	0.15373	0.20745	-2.0729	-2.2854	-2.3146	-2.4458	-1.9	-2.3792	-2.6188	-2.2146	-2.5917	-2.4479	-2.3333	-2.625	-2.275	-2.6104	-2.4792	-2.0958	94.161	27.068	32.792	162.071	191.374	5.286	204.689	248.421	311.494	47.812	-23.558	320.488	4.144	166.685	170.135	170.592	0.00033159	0.00085439	0.00017548	650.93	5.3143e-06	1.5707e-06	1017.3	175.67	4.9482e-06	5.0599e-06	388.65	132.45	38.852	15.257	4.5752e-06	68.141	0.0001944	0.00017575	4.9147e-05	582.66	1.9088e-06	2.0314e-06	910.3	157.39	1.9793e-06	1.9133e-06	347.07	118.98	35.179	13.855	1.933e-06	61.278	235.174	76.490	58.186	-10.588	114.083	121.909	-10.486	-6.441	169.946	147.481	-7.044	-2.348	-2.427	2.715	127.189	1.214	-8191	255	
2065.894	1	1	0	0	0.1527	0.27168	0.32138	0.2189	0.076165	0.15588	0.30422	0.1709	0.11908	0.1151	0.17462	0.11202	0.080999	0.29665	0.1845	0.26243	-2.0833	-2.3312	-2.1021	-2.6729	-2.0563	-2.575	-2.5563	-2.2479	-2.4021	-2.4229	-2.3479	-2.85	-2.3375	-2.4292	-2.5438	-2.4646	276.399	81.113	298.671	325.891	38.458	63.870	239.561	61.135	210.074	66.815	248.368	224.072	-2.545	269.944	172.281	265.679	0.00029818	0.00070083	0.00015826	651.45	6.3891e-06	6.1282e-06	1008.4	175.1	2.7667e-06	4.8209e-06	388.08	132.72	39.042	15.294	3.1528e-06	68.763	0.0002009	0.00017084	5.0118e-05	581.83	1.9187e-06	1.9688e-06	904.05	157.14	2.015e-06	1.8946e-06	347.88	118.94	35.261	13.912	2.0155e-06	61.532	230.572	52.702	35.767	-10.605	154.761	99.790	-10.369	-6.698	191.637	163.161	-7.445	-2.052	-1.128	2.069	145.950	0.845	-8191	255	
2065.991	1	1	0	0	0.077412	0.20875	0.032157	0.24185	0.14715	0.10225	0.12282	0.054485	0.16135	0.080458	0.30539	0.27266	0.19371	0.18885	0.09746	0.21802	-1.9396	-2.2833	-2.0583	-2.9042	-2.2833	-2.325	-2.6771	-2.1667	-2.425	-2.3875	-2.3729	-2.5771	-2.1937	-2.4188	-2.6396	-2.4521	154.962	106.543	314.687	-19.312	236.052	283.142	259.326	234.219	121.825	155.388	286.469	317.466	-10.828	197.454	140.527	164.383	0.00032682	0.00071463	0.00011257	645.48	4.9411e-06	6.7961e-06	1014	175.05	4.0357e-06	5.8836e-06	386.98	131.87	38.314	15.094	3.6645e-06	68.201	0.00020625	0.00018418	5.0179e-05	578.62	1.9767e-06	2.0257e-06	903.22	156.97	2.0332e-06	2.0056e-06	346.44	118.66	35.131	13.78	2.0485e-06	60.939	224.590	57.113	49.304	-11.307	189.337	60.020	-10.575	-6.330	185.214	150.551	-7.166	-2.121	-0.908	2.932	130.161	1.399	-8191	255	
2066.062	1	1	0	0	0.17428	0.064681	0.11934	0.19209	0.089294	0.065096	0.10872	0.146	0.13673	0.37696	0.19121	0.51843	0.13441	0.13418	0.14026	0.20652	-1.8875	-2.3479	-2.1042	-2.5229	-2.35	-2.2333	-2.5687	-1.9854	-2.4167	-2.525	-2.3021	-2.6667	-2.4125	-2.0938	-2.5708	-2.1583	178.624	298.417	245.222	-3.760	193.356	225.053	276.146	-23.298	16.991	232.971	262.198	309.962	304.777	173.977	57.292	-9.808	0.0002615	0.000292	0.00012618	637.93	5.8147e-06	3.9762e-06	1008.2	174.52	5.6159e-06	1.2486e-06	389.73	132.82	38.846	15.269	3.0475e-06	68.202	0.00021461	0.00017884	5.0737e-05	574	1.9853e-06	2.009e-06	900.03	156.75	2.0043e-06	1.9788e-06	347.6	119.22	35.22	13.808	1.9161e-06	61.067	235.559	4.029	55.450	-10.795	124.034	85.325	-10.518	-6.180	173.137	123.810	-6.790	-2.284	-1.950	2.633	75.320	1.258	-8191	255	
2066.183	1	1	0	0	0.28828	0.1315	0.085249	0.18212	0.10159	0.15698	0.18524	0.061014	0.063358	0.21045	0.13575	0.13253	0.18218	0.1347	0.19072	0.18894	-1.8833	-2.475	-1.9833	-2.5771	-2.4417	-2.2458	-2.7625	-2.2167	-2.2271	-2.4271	-2.2062	-2.475	-2.3979	-1.9146	-2.6125	-2.4458	233.482	324.489	5.181	220.555	153.921	-22.150	277.396	66.255	66.136	106.913	165.420	-8.987	14.624	126.159	205.586	183.185	0.00026558	0.00065376	2.6984e-05	639.09	5.864e-06	5.0494e-06	1006.1	173.33	2.9169e-06	5.1891e-06	388.4	132.37	38.612	15.104	1.7907e-06	67.857	0.00019857	0.00016685	4.7032e-05	574.35	1.8567e-06	1.87e-06	897.58	155.8	1.9194e-06	1.9464e-06	346.08	118.73	35.265	13.694	1.8844e-06	60.9	228.266	47.993	90.672	-11.123	108.478	91.765	-10.470	-6.415	75.481	159.129	-7.449	-2.105	-1.621	2.350	250.259	0.956	-8191	255	
2066.279	1	1	0	0	0.18965	0.26189	0.32095	0.082324	0.10493	0.089692	0.24192	0.23922	0.15493	0.28644	0.021062	0.19661	0.10006	0.19901	0.21054	0.2325	-1.8583	-2.4333	-1.9333	-2.3896	-2.275	-2.1708	-2.6	-2.2229	-2.3208	-2.6708	-2.1125	-2.4354	-2.4521	-2.2062	-2.525	-2.4042	101.243	-4.955	123.521	28.404	211.636	278.537	303.612	214.439	263.373	308.237	331.456	223.275	49.741	248.907	286.622	267.409	0.0002987	0.00059078	5.6364e-05	643.73	3.3798e-06	3.8858e-06	1018	174.95	8.5362e-07	2.1585e-06	392.54	132.85	38.746	15.363	6.4287e-06	68.858	0.00020402	0.00017801	4.7573e-05	575.99	1.8692e-06	1.8453e-06	907.5	157.01	1.9524e-06	1.9063e-06	349.48	119.54	35.534	14.001	1.9147e-06	61.595	235.331	73.441	128.091	-11.016	173.978	130.318	-10.453	-6.539	252.559	108.589	-7.257	-1.787	-1.848	2.509	158.508	0.904	-8191	255	
2066.375	1	1	0	0	0.24833	0.11767	0.31413	0.14945	0.28781	0.11616	0.23674	0.20106	0.042689	0.078856	0.026528	0.35452	0.42803	0.089023	0.060256	0.25892	-1.7	-2.5146	-2.1958	-2.6271	-2.4854	-1.9458	-2.6188	-2.4479	-2.1937	-2.7354	-2.4021	-2.4896	-2.4542	-1.9937	-2.6208	-2.3375	99.426	279.590	-21.749	166.501	89.889	266.284	278.255	-21.942	47.177	104.817	3.255	276.058	309.493	247.782	320.679	303.953	0.00030935	0.00055847	7.907e-05	646.42	9.7802e-07	4.3281e-06	1011.8	176.65	2.9266e-06	4.2898e-06	390.7	133.45	38.629	15.233	3.5419e-06	69.161	0.00019783	0.00017838	4.7155e-05	578.11	1.8656e-06	1.9078e-06	904.19	157.9	2.0285e-06	1.9313e-06	349.53	119.75	35.399	13.895	1.9708e-06	61.912	232.827	72.077	70.746	-10.932	64.548	168.672	-10.685	-6.489	153.430	89.529	-7.139	-2.038	-1.762	2.951	97.575	1.206	-8191	255	
2066.471	1	1	0	0	0.083722	0.12645	0.21806	0.059414	0.16988	0.1693	0.21603	0.23708	0.1745	0.095604	0.1035	0.14775	0.185	0.10476	0.20614	0.23412	-1.6729	-2.6458	-2.3583	-2.3854	-2.4083	-2.0042	-2.5563	-2.3271	-2.0875	-2.6813	-2.2625	-2.4688	-2.625	-2.1937	-2.4729	-2.4625	136.549	-13.515	212.623	269.128	207.141	33.970	194.427	289.160	218.820	324.895	94.459	171.309	29.202	118.362	299.141	271.590	0.00029027	0.00039954	8.224e-05	648.67	4.878e-06	3.8211e-06	1014.2	176.13	3.3003e-06	7.0808e-06	392.51	133.45	38.927	15.309	3.5703e-06	68.732	0.00020234	0.00017366	4.8825e-05	581.03	1.9004e-06	1.8559e-06	906.43	158.1	1.9226e-06	2.003e-06	349.31	119.91	35.499	13.955	2.0106e-06	61.807	225.584	58.880	73.153	-10.990	174.274	120.396	-10.310	-6.400	115.073	145.383	-7.267	-1.951	-1.910	3.200	123.827	1.172	-8191	255	
2066.590	1	1	0	0	0.20776	0.2595	0.32851	0.13217	0.19606	0.2128	0.27592	0.21472	0.16828	0.04426	0.32609	0.26488	0.22451	0.09393	0.13061	0.15197	-1.7146	-2.6604	-2.325	-2.3979	-2.7313	-2.2271	-2.5104	-2.4375	-2.1625	-2.625	-2.2167	-2.4646	-2.5438	-2.2687	-2.4771	-2.5812	20.811	-14.647	21.384	286.013	-6.371	270.845	235.869	225.574	130.921	177.575	298.371	300.767	320.984	207.960	130.046	222.517	0.00032975	0.00022998	5.5782e-05	654.79	3.7912e-06	5.548e-06	1013.7	175.31	3.2748e-06	3.1828e-06	390.12	133.58	38.798	15.341	4.6314e-06	69.323	0.00020163	0.00017888	4.7051e-05	581.95	1.883e-06	1.8452e-06	906.29	157.59	1.8604e-06	1.8782e-06	349.1	119.84	35.426	14.042	1.9581e-06	62.084	229.624	41.905	54.960	-11.202	108.136	84.174	-10.383	-6.602	215.192	189.936	-7.274	-2.126	-1.735	2.506	121.433	1.018	-8191	255	
2066.686	1	1	0	0	0.33119	0.19957	0.22256	0.43239	0.10707	0.12897	0.13712	0.28019	0.26454	0.28234	0.1925	0.24964	0.24655	0.27869	0.22681	0.39411	-1.5271	-2.4458	-2.3479	-2.2604	-2.575	-2.1167	-2.2938	-2.5354	-2.3104	-2.5062	-2.5146	-2.2646	-2.4792	-2.3354	-2.4521	-2.7208	5.686	310.730	272.913	324.450	91.335	268.097	113.173	260.354	128.229	175.912	299.804	9.383	133.642	289.067	39.447	283.000	0.00029897	0.0007187	5.065e-05	652.01	7.7065e-06	1.9631e-06	1019.9	176.38	4.6057e-06	7.2956e-06	391.09	132.96	39.045	15.516	4.3643e-06	69.348	0.00019734	0.00017612	4.7762e-05	584.08	1.8726e-06	1.8737e-06	912.52	158.45	1.923e-06	1.9793e-06	349.31	119.65	35.513	14.067	1.9248e-06	62.17	251.838	11.004	50.945	-10.871	119.412	139.577	-10.554	-6.779	203.251	141.463	-7.158	-2.094	-1.573	2.849	119.162	0.846	-8191	255	
2066.760	1	1	0	0	0.22562	0.40394	0.17373	0.17161	0.099135	0.12981	0.11063	0.18489	0.098354	0.12026	0.099264	0.18615	0.080274	0.11317	0.19074	0.31198	-1.9188	-2.3688	-2.3812	-2.2729	-2.5583	-2.2271	-2.475	-2.6813	-1.9271	-2.4604	-2.65	-2.2479	-2.6063	-2.3146	-2.0854	-2.7792	312.691	51.412	8.566	323.411	126.113	51.270	321.416	313.916	84.788	138.430	267.107	326.891	-8.581	331.234	221.124	213.821	0.00027104	0.00039389	7.9328e-05	651.81	2.0654e-06	2.7322e-06	1026.2	177.28	5.63e-06	1.5636e-06	388.87	134.07	38.801	15.336	3.7758e-06	69.49	0.00019913	0.00018308	4.8729e-05	583.9	1.9641e-06	1.8915e-06	915.45	158.69	1.8901e-06	1.942e-06	348.51	120.06	35.487	13.977	1.9491e-06	62.179	231.440	7.248	110.630	-11.163	131.359	170.040	-10.320	-6.078	134.472	170.729	-7.339	-1.702	-1.656	2.415	187.129	1.184	-8191	255	
2066.879	1	1	0	0	0.18216	0.2177	0.065821	0.15043	0.12047	0.12178	0.17083	0.31218	0.14916	0.12697	0.48232	0.086197	0.14566	0.10975	0.18441	0.20476	-1.8375	-2.325	-2.2958	-2.0771	-2.4458	-2.3354	-2.1813	-2.5979	-2.1396	-2.2562	-2.6646	-2.2646	-2.6292	-2.3771	-2.2417	-2.7	188.356	39.781	332.314	-19.090	232.402	255.023	57.155	282.900	91.686	3.506	228.436	183.224	99.546	333.700	221.554	311.354	0.0002788	0.00057544	9.9555e-05	654.18	2.01e-06	4.549e-06	1026.7	177.65	1.186e-06	3.7928e-06	391.64	134.77	39.049	15.452	6.1889e-06	69.104	0.00019737	0.00017157	4.6826e-05	582.99	1.8418e-06	1.846e-06	914.33	158.12	1.7685e-06	1.7771e-06	348.78	120.58	35.437	14.066	1.8044e-06	62.039	225.955	49.038	37.561	-11.046	127.322	139.430	-10.134	-6.549	171.466	143.933	-7.359	-2.104	-1.870	2.858	150.430	1.336	-8191	255	
2066.975	1	1	0	0	0.31359	0.265	0.14017	0.1405	0.10619	0.1605	0.32676	0.18155	0.15201	0.029488	0.33593	0.28478	0.096394	0.144	0.29887	0.18363	-1.7521	-2.3479	-2.5438	-2.15	-2.3	-2.2792	-2.1021	-2.5812	-2.1854	-2.2771	-2.5125	-2.2313	-2.5479	-2.3271	-2.1625	-2.475	256.526	162.667	221.147	80.061	61.330	111.549	-17.707	279.282	27.282	9.943	324.399	329.508	-13.445	263.691	12.989	289.197	0.00034424	0.00034253	1.3198e-05	647.31	3.4791e-06	2.7262e-06	1020.3	175.99	2.642e-06	4.8268e-06	387.99	134.46	39.068	15.434	3.241e-06	69.301	0.0001895	0.00016081	4.5791e-05	580.53	1.8332e-06	1.7189e-06	910.95	157.41	1.8596e-06	1.88e-06	347.48	120.08	35.562	14.065	1.9078e-06	61.968	227.243	69.188	119.343	-10.993	179.072	120.737	-10.403	-7.023	196.265	142.497	-7.396	-2.162	-2.089	2.908	81.820	1.131	-8191	255	
2067.071	1	1	0	0	0.093559	0.10054	0.10932	0.10749	0.06394	0.099276	0.052361	0.1671	0.055325	0.2119	0.21883	0.1892	0.11599	0.18232	0.26445	0.30876	-1.7396	-2.3458	-2.3125	-2.1729	-2.425	-2.525	-2.15	-2.6292	-2.4104	-2.1562	-2.525	-2.2917	-2.2062	-2.6188	-1.9937	-2.6417	172.359	70.517	333.908	62.731	273.086	102.214	-0.567	135.175	260.056	211.772	289.466	323.949	324.388	0.920	197.539	285.298	0.00031002	0.00079332	3.9539e-05	649.31	5.3934e-06	2.6501e-07	1022.1	175.37	2.1261e-06	2.2978e-06	392.59	134.31	38.801	15.593	1.8524e-06	70.147	0.00019414	0.00017404	4.7547e-05	581.29	1.8632e-06	1.8356e-06	912.53	157.56	1.8345e-06	1.8785e-06	350.32	120.19	35.503	14.152	1.8831e-06	62.819	232.339	49.462	0.714	-10.988	189.493	127.802	-10.489	-6.520	183.502	196.991	-7.186	-2.248	-1.402	2.077	56.692	1.185	-8191	255	
2067.167	1	1	0	0	0.32354	0.14473	0.058482	0.016344	0.12343	0.096838	0.30731	0.16767	0.21736	0.21975	0.29008	0.062348	0.19134	0.13549	0.15748	0.12551	-1.8146	-2.1604	-2.4688	-2.3458	-2.5042	-2.5375	-2.2313	-2.4958	-2.2708	-2.3417	-2.7	-2.2062	-2.3063	-2.6208	-2.2542	-2.7833	205.559	305.837	232.495	219.972	-6.249	5.023	-17.442	254.801	247.663	251.199	278.560	235.428	-17.941	272.234	209.978	314.960	0.00030542	0.00063079	0.00011545	653.42	3.4488e-06	5.6176e-07	1027.6	176.02	1.7203e-06	4.4371e-06	389.75	133.85	38.789	15.259	4.18e-06	68.808	0.0001964	0.00017518	4.8949e-05	586.3	1.8884e-06	1.8114e-06	916.82	158.18	1.909e-06	1.8445e-06	349.25	120	35.237	13.866	1.8995e-06	61.487	231.021	75.855	49.549	-11.062	82.643	46.618	-10.517	-6.303	129.138	126.799	-7.093	-2.144	-1.831	2.739	94.390	1.247	-8191	255	
2067.288	1	1	0	0	0.012115	0.19133	0.051565	0.09722	0.25575	0.12101	0.47008	0.12797	0.11628	0.24972	0.18819	0.15378	0.12536	0.22526	0.063794	0.1872	-1.9604	-2.0833	-2.5354	-2.3688	-2.2729	-2.5208	-2.2583	-2.4333	-2.5667	-2.2229	-2.6854	-2.2333	-2.5208	-2.575	-2.0833	-2.6083	188.811	-1.200	199.142	240.102	33.063	156.839	299.398	13.296	112.999	163.301	263.261	287.624	289.709	267.100	67.943	88.090	0.00023483	0.00034701	0.00012062	646.58	6.0273e-06	3.9338e-06	1020.8	176.84	3.5279e-06	3.6769e-06	393.7	133.28	38.972	15.38	5.0486e-06	69.233	0.00019268	0.0001718	4.6305e-05	579.3	1.9164e-06	1.8813e-06	910.64	158	1.8558e-06	1.9075e-06	350.24	119.66	35.436	14.05	1.8423e-06	61.88	231.819	76.592	65.008	-10.875	133.786	99.840	-10.558	-6.708	232.249	140.263	-7.039	-1.741	-2.054	2.739	74.230	0.967	-8191	255	
2067.359	1	1	0	0	0.12871	0.17004	0.26027	0.12915	0.18728	0.1655	0.36671	0.15785	0.089851	0.072353	0.32105	0.25911	0.16092	0.18798	0.17838	0.19088	-1.8854	-1.9417	-2.5021	-2.3479	-2.2438	-2.5208	-2.3063	-2.6937	-2.3958	-2.0625	-2.4396	-2.5146	-2.0625	-2.7229	-2.1146	-2.5854	190.853	266.789	302.316	218.545	230.266	74.959	-21.363	308.570	301.609	10.710	307.516	-13.119	311.356	331.647	230.555	170.614	0.00035563	0.00020004	0.00018577	651.97	1.0169e-05	1.3038e-06	1023	176.89	4.7029e-06	3.7999e-06	391.58	132.72	39.416	15.274	5.1908e-06	68.736	0.00019561	0.00017346	4.8043e-05	581.69	1.9643e-06	1.9165e-06	911.97	158.8	1.8841e-06	1.8433e-06	348.69	119.64	35.468	13.919	1.935e-06	61.917	234.427	40.487	129.434	-10.998	133.498	170.710	-10.719	-6.303	213.931	108.577	-7.119	-1.913	-2.675	2.426	133.506	1.108	-8191	255	
2067.480	1	1	0	0	0.31667	0.24888	0.14201	0.31529	0.079763	0.14148	0.15124	0.12039	0.054488	0.10788	0.24423	0.024339	0.03635	0.13679	0.15615	0.17003	-1.8875	-2.0167	-2.2938	-2.4521	-1.9562	-2.8917	-2.3854	-2.3854	-2.5938	-1.9917	-2.5146	-2.4729	-2.1063	-2.5854	-2.1146	-2.5938	258.543	5.037	157.417	293.544	24.639	124.548	-0.165	264.703	246.673	225.850	309.179	119.564	123.385	255.530	43.737	265.025	0.00034734	0.00021196	3.4453e-05	652.33	7.0147e-06	5.9233e-06	1028.3	175.98	2.0616e-06	3.9506e-07	394.05	134.11	38.826	15.558	2.4642e-06	68.795	0.00020026	0.00017356	4.9552e-05	583.85	1.8974e-06	1.947e-06	916.42	158.22	1.9302e-06	1.8961e-06	351.55	120.44	35.595	14.071	1.9542e-06	61.768	228.970	58.613	123.686	-10.878	113.261	127.576	-10.481	-6.628	180.463	180.219	-7.204	-2.295	-2.163	2.390	130.300	1.106	-8191	255	
2067.576	1	1	0	0	0.12764	0.30821	0.080736	0.072425	0.051233	0.035458	0.19401	0.13634	0.15512	0.1634	0.16351	0.20596	0.33971	0.22855	0.13916	0.1794	-2.0646	-2.0229	-2.4583	-2.6021	-2.2146	-2.8125	-2.4688	-2.3	-2.5563	-2.4562	-2.5479	-2.5354	-2.1125	-2.4292	-2.2417	-2.2958	87.802	139.996	61.448	234.128	116.534	215.645	280.180	214.738	109.299	238.345	201.424	281.152	16.847	309.008	263.275	42.125	0.00030629	0.00045018	0.00017533	643.68	7.2276e-06	3.318e-06	1017	176	2.2308e-06	1.5112e-06	388.53	132.72	38.666	15.231	6.6407e-06	68.097	0.00019663	0.00017315	4.9651e-05	577.74	1.9518e-06	1.996e-06	907.36	157.96	1.9546e-06	1.9471e-06	347.61	119.39	35.487	13.824	1.9822e-06	61.157	232.033	37.012	62.674	-11.221	171.331	139.338	-10.775	-6.522	84.386	141.918	-6.925	-2.085	-1.339	2.722	98.627	1.139	-8191	255	
2067.671	1	1	0	0	0.060437	0.12459	0.085664	0.1366	0.24279	0.22017	0.24789	0.057956	0.20433	0.1098	0.17883	0.27859	0.33692	0.25366	0.31466	0.13781	-2.2812	-2.1771	-2.475	-2.5958	-1.9542	-2.5667	-2.5729	-2.3208	-2.7	-2.2979	-2.6	-2.5667	-2.0812	-2.7458	-2.1375	-2.1312	303.911	82.463	91.922	70.035	310.958	-18.244	289.545	293.945	205.372	221.554	248.208	291.691	26.872	192.383	80.874	249.480	0.00032315	0.00062546	0.00013158	646.52	6.9175e-06	3.2609e-06	1000	173.82	2.7302e-06	5.4041e-06	387.25	131.6	38.524	15.038	4.7661e-06	67.789	0.00021145	0.00018438	5.2345e-05	576.32	2.0829e-06	2.1061e-06	901.07	156.43	2.2185e-06	2.1323e-06	345.96	118.37	35.33	13.719	2.2439e-06	60.858	221.250	55.359	88.479	-10.905	98.183	180.934	-10.293	-6.838	145.359	155.047	-7.398	-2.506	-1.702	2.971	139.232	1.164	-8191	255	
2067.767	1	1	0	0	0.2295	0.09429	0.25879	0.035969	0.26817	0.048935	0.12677	0.34118	0.10902	0.050439	0.074288	0.043292	0.1735	0.13459	0.090712	0.26393	-2.0896	-2.1229	-2.1625	-2.7208	-2.0292	-2.3896	-2.5958	-2.0875	-2.5062	-2.1146	-2.2812	-2.5563	-1.8333	-2.4625	-2.375	-2.4396	111.039	165.500	27.040	69.193	171.589	73.716	309.135	290.991	196.501	46.480	283.063	201.170	33.378	192.900	3.785	282.474	0.00032598	0.00083669	0.0001344	633.93	5.9949e-06	6.7793e-06	998.24	171.44	2.9219e-06	5.2269e-06	387.07	130.7	38.338	14.864	5.7495e-06	67.041	0.00023514	0.00020476	5.8686e-05	569.72	2.2584e-06	2.3234e-06	890.55	155.41	2.2748e-06	2.2318e-06	344.11	117.91	35.189	13.587	2.2951e-06	60.276	226.960	47.600	67.633	-11.140	108.167	111.345	-10.439	-6.505	168.411	146.874	-7.391	-2.266	-2.189	2.552	101.595	1.279	-8191	255	
2067.887	1	1	0	0	0.12775	0.071862	0.086641	0.32029	0.051925	0.24538	0.18174	0.26197	0.071703	0.19862	0.3184	0.40625	0.33399	0.13652	0.29196	0.22871	-2.1583	-2.2062	-2.3083	-2.5292	-2.2687	-2.5438	-2.5167	-2.2479	-2.6083	-2.0812	-2.4292	-2.7604	-2.1875	-2.2812	-2.5292	-2.1625	233.610	-23.454	157.283	-15.127	99.991	-22.210	155.018	311.132	324.043	280.130	321.278	280.672	85.587	32.153	103.969	301.498	0.0003002	0.00062784	6.7238e-05	635.47	2.5359e-06	5.238e-06	989.7	171.82	6.5454e-06	2.8032e-06	380.84	130.4	38.272	14.55	4.0423e-06	66.133	0.00022939	0.00021115	5.914e-05	568.5	2.231e-06	2.2717e-06	887.15	155.05	2.3757e-06	2.2697e-06	341.25	116.65	34.827	13.35	2.2781e-06	59.324	232.805	65.997	16.806	-11.294	160.319	84.736	-10.249	-6.677	138.623	141.622	-6.932	-2.050	-1.181	3.333	137.958	1.230	-8191	255	
2067.959	1	1	0	0	0.17618	0.17346	0.21932	0.097047	0.15918	0.17991	0.15221	0.25641	0.16608	0.077144	0.25	0.045475	0.082032	0.086987	0.2751	0.40991	-2.025	-2.3083	-2.2062	-2.6625	-2.1063	-2.3167	-2.5938	-2.0396	-2.5542	-2.3333	-2.3771	-2.8896	-2.2104	-2.4208	-2.6146	-2.3583	42.229	18.688	9.119	249.082	133.972	219.958	269.240	281.799	117.549	40.740	284.586	335.168	275.242	257.544	96.376	252.197	0.0002248	0.00029178	7.8995e-05	631.56	8.7335e-06	1.2576e-06	986.12	170.16	1.9102e-06	3.4755e-06	385.29	129.88	37.675	14.705	3.0318e-06	66.301	0.00023975	0.00020569	5.8465e-05	566.41	2.261e-06	2.2808e-06	882.64	153.87	2.3221e-06	2.1983e-06	342.44	116.29	34.655	13.339	2.2243e-06	59.457	240.040	2.585	90.147	-11.315	141.062	120.539	-10.405	-6.731	165.118	84.154	-7.154	-2.199	-1.955	2.433	167.069	1.188	-8191	255	
2068.055	1	1	0	0	0.10685	0.23275	0.11905	0.2766	0.037342	0.26442	0.10061	0.26343	0.1164	0.059494	0.068987	0.2159	0.14474	0.089514	0.22516	0.28615	-2.0958	-2.4521	-2.1583	-2.7729	-2.2479	-2.375	-2.6937	-2.3208	-2.3208	-2.4437	-2.2375	-2.6125	-2.3375	-2.3521	-2.7167	-2.2667	30.671	38.091	331.973	261.955	245.261	103.382	268.992	313.464	-23.810	314.499	155.128	288.187	109.440	222.491	193.593	285.509	0.0003389	0.00050078	6.8252e-05	637.98	6.1931e-06	3.3271e-06	1002.2	173.74	4.0397e-06	4.2935e-06	390.88	129.88	38.475	14.797	1.2071e-06	67.044	0.00022505	0.00019717	5.4781e-05	570.82	2.1147e-06	2.1334e-06	895.15	156.11	2.1976e-06	2.1487e-06	348.27	117.27	34.825	13.474	2.1325e-06	60.128	233.739	72.223	35.846	-11.055	107.956	55.470	-10.479	-6.334	140.926	170.243	-7.210	-1.898	-2.243	2.796	69.984	1.037	-8191	255	
2068.151	1	1	0	0	0.075773	0.20267	0.17624	0.17277	0.40547	0.29347	0.16348	0.36058	0.17511	0.11777	0.044366	0.14601	0.17537	0.093424	0.24703	0.19475	-1.8583	-2.5396	-2.0438	-2.4854	-2.2562	-2.2792	-2.7583	-2.2938	-2.3688	-2.5792	-1.9688	-2.45	-2.1292	-2.1396	-2.5583	-2.1417	32.101	331.065	276.291	270.240	309.914	254.591	230.942	-19.758	108.934	304.452	296.877	-5.941	333.134	208.643	172.246	322.237	0.00027372	0.0001959	3.1046e-05	641.95	2.6507e-06	7.5959e-06	1002.2	174.09	2.4572e-06	4.9139e-06	386.65	130.12	38.306	14.411	2.9715e-06	66.178	0.00021528	0.000193	5.437e-05	573.34	2.0998e-06	2.1596e-06	895.18	156.47	2.1668e-06	2.167e-06	345.44	116.61	34.787	13.212	2.198e-06	59.14	226.214	25.896	1.968	-11.110	50.115	120.127	-10.340	-6.319	110.906	105.520	-7.144	-1.766	-2.077	3.092	127.641	1.144	-8191	255	
2068.272	1	1	0	0	0.12777	0.16358	0.020932	0.27908	0.1599	0.17045	0.10072	0.17397	0.18709	0.20895	0.31337	0.16945	0.26521	0.13437	0.20608	0.2052	-1.8021	-2.425	-1.9625	-2.5208	-2.3604	-2.1375	-2.8688	-2.3229	-2.4562	-2.5812	-2.2313	-2.5875	-2.3708	-2.1854	-2.4896	-2.5521	230.974	111.169	45.582	315.979	116.976	285.179	266.544	306.699	147.587	115.908	267.070	127.324	307.357	311.169	152.217	276.779	0.0003018	0.00071566	5.4128e-05	645.58	7.1503e-06	6.2431e-06	1020.7	176.74	7.8204e-06	1.436e-06	392.26	131.53	38.274	14.714	1.1452e-06	67.237	0.0002191	0.00019821	5.2149e-05	576.75	2.0813e-06	2.1048e-06	911.27	159.01	1.9955e-06	2.0729e-06	349.67	117.73	34.936	13.492	2.0775e-06	59.78	221.947	35.535	104.712	-10.756	163.745	158.842	-10.368	-6.804	182.289	69.050	-7.050	-2.061	-1.925	2.363	78.250	0.997	-8191	255	
2068.368	1	1	0	0	0.217	0.18806	0.16856	0.051819	0.23307	0.097304	0.12508	0.11594	0.16383	0.16192	0.20567	0.077913	0.25153	0.030091	0.18786	0.18311	-1.6979	-2.5979	-2.1021	-2.45	-2.5729	-2.2375	-2.8563	-2.3583	-2.2479	-2.7854	-2.15	-2.3917	-2.4167	-2.1396	-2.7979	-2.6063	-23.390	216.308	253.219	307.034	255.369	214.035	320.593	321.425	59.127	253.121	300.964	195.248	-7.854	130.993	275.535	286.479	0.00034695	0.00065056	0.00015393	638.91	3.1675e-06	1.6649e-06	1010.2	175.1	6.6951e-07	2.3625e-06	390.02	130.24	38.052	14.652	3.3504e-06	66.004	0.00022233	0.00019623	5.6732e-05	573.41	2.2685e-06	2.2803e-06	900.65	157.52	2.2985e-06	2.2945e-06	347.52	117.18	34.965	13.4	2.3532e-06	59.104	241.590	46.252	91.528	-10.687	137.613	112.156	-10.528	-6.538	204.921	188.138	-7.195	-2.007	-1.947	2.488	133.860	1.225	-8191	255	
2068.464	1	1	0	0	0.34868	0.088239	0.25684	0.09041	0.1037	0.020319	0.15819	0.20785	0.22051	0.14807	0.20077	0.10017	0.085022	0.31845	0.28948	0.40956	-1.8729	-2.5792	-2.075	-2.4521	-2.4813	-2.1292	-2.8	-2.3375	-2.3625	-2.6437	-2.2271	-2.3021	-2.4875	-2.0687	-2.5958	-2.5563	260.562	96.713	48.263	-3.016	277.709	138.975	276.354	305.317	100.966	310.197	319.931	259.515	118.205	30.716	195.706	249.406	0.00028235	0.00048212	0.00013578	628.69	8.1614e-06	6.8383e-06	992.83	173.87	4.7346e-06	3.0025e-06	388.75	130.39	38.447	14.71	5.8001e-06	66.926	0.00023736	0.00022392	6.229e-05	564.43	2.4335e-06	2.4563e-06	887.64	156.67	2.5452e-06	2.4915e-06	347.62	117.24	35.022	13.45	2.4948e-06	60.067	234.595	53.500	69.916	-11.061	133.232	137.568	-10.084	-6.581	163.383	228.303	-6.942	-2.150	-1.818	2.419	124.258	1.270	-8191	255	
2068.560	1	1	0	0	0.1584	0.079077	0.21626	0.034753	0.065653	0.27775	0.21825	0.093992	0.1492	0.072528	0.39487	0.1823	0.12718	0.32958	0.082302	0.06786	-1.6292	-2.7687	-2.2521	-2.4875	-2.4688	-2.0812	-2.675	-2.3312	-2.1979	-2.7729	-2.3708	-2.5167	-2.4396	-2.25	-2.35	-2.5333	326.720	181.663	272.040	254.082	250.373	309.367	306.276	89.116	334.542	8.392	273.698	313.008	60.610	69.845	81.785	133.968	0.00026738	0.0001711	0.00011772	638.22	5.4646e-06	4.7035e-06	1004.1	174.41	1.019e-06	4.6815e-06	386.02	127.61	37.303	14.197	5.884e-06	64.004	0.00023168	0.00022236	5.9904e-05	572.1	2.387e-06	2.3302e-06	899.52	157.05	2.5238e-06	2.6058e-06	344.51	115.15	34.314	12.985	2.7002e-06	57.404	226.260	21.260	35.103	-11.128	129.024	130.932	-10.108	-6.418	123.422	150.237	-6.708	-2.134	-1.973	2.745	163.623	0.748	-8191	255	
2068.657	1	1	0	0	0.24387	0.1245	0.12293	0.062257	0.26234	0.24335	0.29264	0.29143	0.20319	0.074779	0.23202	0.2389	0.10288	0.04393	0.22557	0.2333	-1.3958	-2.6271	-2.4479	-2.2542	-2.6021	-2.2083	-2.6583	-2.6063	-2.1625	-2.5646	-2.4854	-2.2562	-2.6312	-2.2521	-2.225	-2.6667	176.114	282.599	176.557	306.801	190.718	278.252	278.262	283.845	114.319	159.925	235.385	266.892	-12.636	202.622	-2.084	286.770	0.00026409	7.6715e-05	6.6667e-05	614.14	3.2907e-06	3.7891e-06	963.15	168.48	3.6463e-06	6.5376e-06	373.36	123.79	36.754	13.836	7.4473e-06	64.223	0.00024403	0.00023375	6.3645e-05	552.67	2.5022e-06	2.4918e-06	858.1	151.42	2.5704e-06	2.8515e-06	334.81	111.76	33.839	12.763	2.6006e-06	57.648	249.074	58.215	82.101	-10.675	199.472	48.263	-9.939	-6.159	121.789	151.741	-7.359	-1.764	-1.721	3.018	126.285	1.052	-8191	255	
2068.753	1	1	0	0	0.11486	0.13313	0.21497	0.17801	0.17539	0.2537	0.24118	0.13418	0.034235	0.32158	0.028995	0.22864	0.16932	0.2931	0.14298	0.22963	-1.6771	-2.6229	-2.3625	-2.1437	-2.6083	-2.2562	-2.2938	-2.6354	-2.2271	-2.5875	-2.4417	-2.3021	-2.6042	-2.125	-2.2604	-2.6229	187.796	120.311	166.473	69.789	239.866	135.765	266.045	316.403	92.615	110.047	208.736	276.358	88.707	-9.926	297.889	1.214	0.00030318	0.00053017	4.3191e-05	627.28	6.4119e-06	5.0029e-06	981.25	170.96	3.7957e-06	6.9267e-06	375.27	123	36.571	13.392	1.094e-05	61.277	0.00023919	0.00022469	5.9965e-05	564.75	2.5016e-06	2.3723e-06	877.52	153.71	2.5784e-06	2.6348e-06	335.78	111.26	33.603	12.396	2.8663e-06	55.174	219.448	36.567	145.905	-10.863	110.191	48.702	-10.450	-6.673	136.932	125.654	-7.045	-2.191	-1.571	2.352	163.631	0.969	-8191	255	
2068.849	1	1	0	0	0.31032	0.06299	0.15622	0.30633	0.25404	0.14359	0.09744	0.23598	0.44102	0.062037	0.19009	0.28126	0.22387	0.088446	0.12463	0.21903	-1.5292	-2.3979	-2.2562	-2.1229	-2.7271	-2.1375	-2.4583	-2.4938	-2.1521	-2.4667	-2.6396	-2.1917	-2.8771	-2.3667	-2.1729	-2.9125	296.877	225.460	276.642	281.795	146.643	32.763	267.865	207.377	-5.982	43.031	239.896	210.515	102.500	323.917	243.841	162.056	0.00031038	0.00049783	0.00012476	603.2	6.2026e-06	1.8301e-06	929.05	163.95	1.5352e-06	2.5278e-06	362.3	121.06	36.058	12.842	3.0567e-06	59.885	0.00026045	0.0002538	6.8018e-05	541.45	2.8163e-06	2.6806e-06	832.49	147.72	2.562e-06	2.6098e-06	323.43	109.05	33.349	11.911	2.6709e-06	53.821	232.241	22.032	79.231	-10.881	151.240	74.738	-10.415	-6.307	213.522	35.759	-6.605	-2.112	-2.021	3.129	109.530	1.087	-8191	255	
2068.968	1	1	0	0	0.1491	0.14313	0.18572	0.14181	0.11825	0.29285	0.050243	0.21838	0.14306	0.14338	0.23752	0.37481	0.1253	0.11709	0.10633	0.29383	-1.725	-2.375	-2.3708	-2.0896	-2.5271	-2.2458	-2.2208	-2.6021	-2.1167	-2.375	-2.5542	-2.2792	-2.4479	-2.325	-2.3125	-2.7271	239.457	292.274	30.370	245.595	125.888	148.908	43.986	265.102	-12.289	33.071	29.911	286.437	315.064	121.653	247.350	240.960	0.00026987	0.00051022	0.00016221	603.51	6.0649e-06	5.5861e-06	920.29	161.5	2.3792e-06	2.7046e-06	358.88	120.01	36.572	12.773	4.881e-06	59.102	0.00024867	0.00024582	6.4691e-05	538.47	2.5519e-06	2.541e-06	824.88	146	2.5329e-06	2.6019e-06	320.61	108.14	33.276	11.765	2.6312e-06	53.244	235.021	93.287	56.512	-10.714	141.096	75.084	-10.357	-6.354	112.968	182.434	-6.923	-1.801	-1.695	2.627	189.360	0.893	-8191	255	
2069.064	1	1	0	0	0.022249	0.1635	0.19738	0.15356	0.16701	0.11409	0.23684	0.42123	0.24391	0.063693	0.17697	0.11652	0.18536	0.039956	0.30321	0.080146	-1.6667	-2.1854	-2.5917	-2.2542	-2.5083	-2.3979	-2.4521	-2.5312	-2.2896	-2.2979	-2.6292	-2.0542	-2.4562	-2.4833	-2.2042	-2.7854	7.261	226.563	43.828	122.166	112.045	118.347	227.352	324.501	272.026	63.001	325.149	259.824	-16.336	23.390	238.924	335.317	0.00019005	0.00040439	9.9279e-05	593.34	5.6037e-06	1.8964e-06	925.99	163.81	2.2186e-06	6.2621e-06	369.01	124.28	36.737	13.567	2.057e-06	62.28	0.00024949	0.00023172	6.4273e-05	533.78	2.5325e-06	2.5214e-06	829.73	147.44	2.3437e-06	2.4115e-06	329.28	111.6	33.762	12.367	2.2076e-06	56.036	229.651	99.792	105.663	-10.653	107.307	118.299	-10.253	-6.514	168.354	137.317	-6.988	-2.002	-2.049	2.405	103.616	1.252	-8191	255	
2069.160	1	1	0	0	0.14785	0.25906	0.25259	0.17225	0.22599	0.10099	0.24887	0.39904	0.13242	0.053889	0.24264	0.27336	0.12604	0.099201	0.24141	0.11316	-1.7958	-2.0958	-2.6188	-2.3125	-2.4188	-2.3646	-2.1437	-2.5458	-2.2354	-2.3292	-2.8438	-2.1708	-2.4104	-2.4917	-2.0979	-2.6958	32.822	229.030	242.771	152.492	223.852	36.414	14.914	243.673	98.046	0.311	284.256	243.969	321.378	163.073	322.356	217.559	0.00026803	0.00032507	0.00011103	613.66	1.5421e-06	8.8731e-06	965.04	167.98	3.4771e-06	6.336e-06	371.98	124.17	36.499	13.463	9.1848e-07	62.546	0.0002187	0.00020582	5.6513e-05	551.22	2.313e-06	2.2215e-06	858.58	150.66	2.264e-06	2.3344e-06	331.64	111.75	33.598	12.4	2.262e-06	56.251	236.268	-0.176	12.808	-10.950	149.705	111.752	-10.571	-5.957	210.885	138.247	-7.408	-2.091	-2.266	3.083	177.811	1.057	-8191	255	
2069.256	1	1	0	0	0.17877	0.20264	0.19255	0.10244	0.14471	0.23037	0.18483	0.0089295	0.089673	0.14622	0.21117	0.29788	0.086087	0.11943	0.088234	0.14585	-1.8167	-2.1333	-2.5604	-2.225	-2.3833	-2.6083	-2.2375	-2.625	-2.5104	-2.1583	-2.6083	-2.4229	-2.4396	-2.6958	-2.2292	-2.5229	140.252	9.566	-9.626	225.967	253.944	253.602	160.142	327.074	189.146	39.857	263.962	68.482	58.649	263.361	315.648	27.482	0.00023576	0.00079173	0.00016763	618.23	2.809e-06	6.8892e-06	963.95	168.97	1.1315e-06	5.6967e-06	374.12	124.64	36.73	13.778	7.6351e-06	63.693	0.00022073	0.00020743	5.6833e-05	555.25	2.3068e-06	2.2106e-06	865.68	152.03	2.1558e-06	2.2569e-06	333.58	112.2	33.662	12.654	2.1681e-06	56.759	217.664	52.798	120.556	-10.891	96.799	107.434	-10.657	-6.162	161.597	145.093	-7.179	-2.092	-1.428	3.180	116.118	1.248	-8191	255	
#DATA ENDS
