BOXY.EXE: ISS Imagent and Oximeter Data Acquisition Program Version 0.80
Ascii Record File

#ACQ INFORMATION
2  Detector Channels 
16  External MUX Channels 
1  Auxiliary Channels 
5000  Waveform (CCF) Frequency (Hz)
1  Waveforms Skipped 
30  Waveforms Averaged 
1  Cycles Averaged 
16  Acquisitions per Waveform 
10.0806  Updata Rate (Hz) 

#FILE INFORMATION
TRUE -- External MUX Channel results are PARSED.
FALSE -- AC DC and Phase are NOT grouped.
TRUE -- Companion Program Settings File CREATED.
FALSE -- AC data not excluded
FALSE -- DC data not excluded
FALSE -- Phase data not excluded
FALSE -- Auxillary Chn. data not excluded
Tab delimiters

#CALIBRATION STATE
TRUE -- Waveform Calibration Values APPLIED.


#AUX CALIBRATION VALUES
Val Type	aux-1	

Term	1.0000e+00	
Factor	0.0000e+00	


#WF CALIBRATION VALUES
A = Detector Channel
Val Type	A-AC1	A-AC2	A-AC3	A-AC4	A-AC5	A-AC6	A-AC7	A-AC8	A-AC9	A-AC10	A-AC11	A-AC12	A-AC13	A-AC14	A-AC15	A-AC16	A-DC1	A-DC2	A-DC3	A-DC4	A-DC5	A-DC6	A-DC7	A-DC8	A-DC9	A-DC10	A-DC11	A-DC12	A-DC13	A-DC14	A-DC15	A-DC16	A-Ph1	A-Ph2	A-Ph3	A-Ph4	A-Ph5	A-Ph6	A-Ph7	A-Ph8	A-Ph9	A-Ph10	A-Ph11	A-Ph12	A-Ph13	A-Ph14	A-Ph15	A-Ph16	

Term	0.00000e+00	0.00000e+00	0.00000e+00	0.00000e+00	0.00000e+00	0.00000e+00	0.00000e+00	0.00000e+00	0.00000e+00	0.00000e+00	0.00000e+00	0.00000e+00	0.00000e+00	0.00000e+00	0.00000e+00	0.00000e+00	0.00000e+00	0.00000e+00	0.00000e+00	0.00000e+00	0.00000e+00	0.00000e+00	0.00000e+00	0.00000e+00	0.00000e+00	0.00000e+00	0.00000e+00	0.00000e+00	0.00000e+00	0.00000e+00	0.00000e+00	0.00000e+00	0.00000e+00	0.00000e+00	0.00000e+00	0.00000e+00	0.00000e+00	0.00000e+00	0.00000e+00	0.00000e+00	0.00000e+00	0.00000e+00	0.00000e+00	0.00000e+00	0.00000e+00	0.00000e+00	0.00000e+00	0.00000e+00	
Factor	1.00000e+00	1.00000e+00	1.00000e+00	1.00000e+00	1.00000e+00	1.00000e+00	1.00000e+00	1.00000e+00	1.00000e+00	1.00000e+00	1.00000e+00	1.00000e+00	1.00000e+00	1.00000e+00	1.00000e+00	1.00000e+00	1.00000e+00	1.00000e+00	1.00000e+00	1.00000e+00	1.00000e+00	1.00000e+00	1.00000e+00	1.00000e+00	1.00000e+00	1.00000e+00	1.00000e+00	1.00000e+00	1.00000e+00	1.00000e+00	1.00000e+00	1.00000e+00	X	X	X	X	X	X	X	X	X	X	X	X	X	X	X	X	

B = Detector Channel
Val Type	B-AC1	B-AC2	B-AC3	B-AC4	B-AC5	B-AC6	B-AC7	B-AC8	B-AC9	B-AC10	B-AC11	B-AC12	B-AC13	B-AC14	B-AC15	B-AC16	B-DC1	B-DC2	B-DC3	B-DC4	B-DC5	B-DC6	B-DC7	B-DC8	B-DC9	B-DC10	B-DC11	B-DC12	B-DC13	B-DC14	B-DC15	B-DC16	B-Ph1	B-Ph2	B-Ph3	B-Ph4	B-Ph5	B-Ph6	B-Ph7	B-Ph8	B-Ph9	B-Ph10	B-Ph11	B-Ph12	B-Ph13	B-Ph14	B-Ph15	B-Ph16	

Term	0.00000e+00	0.00000e+00	0.00000e+00	0.00000e+00	0.00000e+00	0.00000e+00	0.00000e+00	0.00000e+00	0.00000e+00	0.00000e+00	0.00000e+00	0.00000e+00	0.00000e+00	0.00000e+00	0.00000e+00	0.00000e+00	0.00000e+00	0.00000e+00	0.00000e+00	0.00000e+00	0.00000e+00	0.00000e+00	0.00000e+00	0.00000e+00	0.00000e+00	0.00000e+00	0.00000e+00	0.00000e+00	0.00000e+00	0.00000e+00	0.00000e+00	0.00000e+00	-3.63263e+01	-1.44616e+02	-1.36455e+02	-1.83436e+02	-6.47196e+01	-8.14628e+01	-1.60695e+02	-1.62015e+02	-4.27404e+01	-5.87643e+01	-1.72707e+02	-1.72386e+02	-1.83401e+02	-1.78286e+02	-6.56670e+01	-1.51169e+02	
Factor	2.16242e-05	1.40199e-04	3.24853e-05	1.48686e-01	1.47159e-06	1.31807e-06	1.62454e-01	5.10240e-02	1.11014e-06	1.35182e-06	7.91605e-02	2.65441e-02	2.35584e-02	8.15133e-03	1.44641e-06	1.17866e-02	2.30442e-06	2.49268e-06	6.93736e-07	7.79555e-02	2.69482e-08	2.73278e-08	7.97935e-02	2.67642e-02	2.70149e-08	2.74240e-08	4.00788e-02	1.34491e-02	1.24290e-02	4.29815e-03	2.72636e-08	5.99323e-03	X	X	X	X	X	X	X	X	X	X	X	X	X	X	X	X	



#DISTANCE SETTINGS
A = Detector Channel
A-1	A-2	A-3	A-4	A-5	A-6	A-7	A-8	A-9	A-10	A-11	A-12	A-13	A-14	A-15	A-16	

2.5000e+00	3.0000e+00	2.5000e+00	3.0000e+00	2.0000e+00	3.0000e+00	1.5000e+00	3.0000e+00	3.0000e+00	3.0000e+00	3.0000e+00	3.0000e+00	3.0000e+00	3.0000e+00	1.5000e+00	3.0000e+00	

B = Detector Channel
B-1	B-2	B-3	B-4	B-5	B-6	B-7	B-8	B-9	B-10	B-11	B-12	B-13	B-14	B-15	B-16	

1.0000e+01	1.0000e+01	1.0000e+01	1.4400e+00	1.0000e+01	1.0000e+01	1.5100e+00	1.9400e+00	1.0000e+01	1.0000e+01	1.9900e+00	2.4900e+00	2.4100e+00	2.9000e+00	1.0000e+01	2.9800e+00	




#DATA BEGINS
time	group	step	mark	flag	A-AC1	A-AC2	A-AC3	A-AC4	A-AC5	A-AC6	A-AC7	A-AC8	A-AC9	A-AC10	A-AC11	A-AC12	A-AC13	A-AC14	A-AC15	A-AC16	A-DC1	A-DC2	A-DC3	A-DC4	A-DC5	A-DC6	A-DC7	A-DC8	A-DC9	A-DC10	A-DC11	A-DC12	A-DC13	A-DC14	A-DC15	A-DC16	A-Ph1	A-Ph2	A-Ph3	A-Ph4	A-Ph5	A-Ph6	A-Ph7	A-Ph8	A-Ph9	A-Ph10	A-Ph11	A-Ph12	A-Ph13	A-Ph14	A-Ph15	A-Ph16	B-AC1	B-AC2	B-AC3	B-AC4	B-AC5	B-AC6	B-AC7	B-AC8	B-AC9	B-AC10	B-AC11	B-AC12	B-AC13	B-AC14	B-AC15	B-AC16	B-DC1	B-DC2	B-DC3	B-DC4	B-DC5	B-DC6	B-DC7	B-DC8	B-DC9	B-DC10	B-DC11	B-DC12	B-DC13	B-DC14	B-DC15	B-DC16	B-Ph1	B-Ph2	B-Ph3	B-Ph4	B-Ph5	B-Ph6	B-Ph7	B-Ph8	B-Ph9	B-Ph10	B-Ph11	B-Ph12	B-Ph13	B-Ph14	B-Ph15	B-Ph16	aux-1	digaux	

2156.045	1	1	0	768	0.32529	0.10328	0.36183	0.1066	0.12099	0.20872	0.13345	0.22141	0.089444	0.38228	0.16335	0.23132	0.036728	0.1141	0.18631	0.079863	-2.2146	-2.4354	-2.5563	-2.6104	-2.3187	-2.725	-2.6833	-2.3688	-2.7458	-2.5667	-2.4062	-2.8083	-2.2562	-2.75	-2.8187	-2.3979	-2.953	144.228	31.980	117.479	77.123	122.723	-41.338	68.586	168.137	-95.615	0.609	224.767	46.517	-12.315	-80.961	115.118	0.00015625	0.00056411	0.00016107	503.69	1.375e-05	5.4454e-06	704.47	109.1	5.5986e-06	8.2484e-06	235.47	78.265	25.848	7.3666	6.013e-06	34.636	0.0010828	0.0011662	0.00033724	481.59	1.3786e-05	1.4497e-05	667.03	111.89	1.4861e-05	1.5263e-05	231.4	77.496	30.047	9.1579	1.5718e-05	34.257	-30.475	196.721	-43.823	-85.907	172.974	63.650	-85.492	-82.335	23.943	172.880	-82.538	-77.221	-77.444	-71.426	231.299	-72.558	-8191	255	
2156.141	1	1	0	0	0.093387	0.14683	0.11659	0.15472	0.17158	0.078962	0.17358	0.087256	0.0053117	0.17618	0.025613	0.20831	0.034501	0.11481	0.10886	0.1687	-2.3208	-2.45	-2.3417	-2.8875	-2.4292	-2.5812	-2.9125	-2.5563	-2.9167	-2.6	-2.5104	-2.8583	-2.5479	-2.6125	-2.4854	-2.4437	260.087	-38.408	225.883	-64.741	257.503	114.758	140.356	-80.015	69.611	-89.081	56.759	231.883	-43.111	211.091	-86.378	158.789	0.00011689	0.00096019	0.00040559	498.81	5.46e-06	7.3343e-06	703.27	109.74	1.1617e-05	1.3512e-05	235.57	77.831	25.784	7.3377	2.1943e-06	34.082	0.0013756	0.0014551	0.00041708	487.99	1.6189e-05	1.6958e-05	671.36	113.45	1.6773e-05	1.71e-05	232.59	77.561	30.292	9.2728	1.6765e-05	34.086	-79.693	-89.986	-57.715	-85.094	258.003	238.826	-85.351	-81.844	227.580	257.221	-82.147	-76.899	-77.910	-71.599	51.382	-72.713	-8191	255	
2156.237	1	1	0	0	0.045387	0.19625	0.091451	0.15058	0.19573	0.18286	0.1191	0.14893	0.11862	0.2135	0.28145	0.24077	0.068993	0.11038	0.038515	0.32518	-2.2812	-2.3125	-2.3792	-2.9146	-2.1917	-2.6	-2.7958	-2.2062	-2.5854	-2.4688	-2.4104	-2.975	-2.3167	-2.5563	-2.6104	-2.4646	-46.845	83.178	-8.612	153.373	-96.187	143.413	113.305	-96.691	-35.661	103.340	-28.246	239.006	259.367	203.412	145.783	229.193	8.3398e-05	0.00060412	0.00013577	495.45	7.2146e-06	4.4186e-06	698.52	109.22	1.1873e-05	5.0541e-06	234.15	76.404	25.207	7.2691	1.5678e-05	34.458	0.0014236	0.0015287	0.00042407	486.49	1.6239e-05	1.6906e-05	668.42	112.53	1.6185e-05	1.6137e-05	229.81	75.912	29.225	8.9082	1.4903e-05	33.713	-84.569	84.228	64.598	-85.401	145.581	-56.994	-85.408	-81.581	60.416	67.822	-81.989	-77.100	-77.506	-71.731	29.765	-72.250	-8191	255	
2156.333	1	1	0	0	0.22872	0.19586	0.13591	0.21011	0.063155	0.24637	0.35553	0.24789	0.17931	0.20966	0.33879	0.15409	0.10077	0.055491	0.22119	0.14897	-2.1667	-2.4417	-2.3438	-2.8083	-2.5812	-2.45	-2.6896	-2.2	-2.5896	-2.5729	-2.2646	-2.7562	-2.2917	-2.3146	-2.8396	-2.2875	64.511	-44.288	-48.565	254.809	147.071	12.479	163.431	-80.980	26.776	172.852	80.024	-5.546	-98.097	-64.758	27.769	212.493	0.00034765	0.0013455	0.00014855	496.24	1.4219e-06	2.2105e-06	699.09	109.1	1.6008e-06	8.9798e-06	235.28	77.545	25.085	7.493	1.8639e-06	34.552	0.0012569	0.0013306	0.0003712	480.72	1.449e-05	1.4998e-05	663.59	110.82	1.5346e-05	1.5383e-05	230.22	76.748	29.31	9.0116	1.4989e-05	33.832	-83.558	-7.053	55.005	-85.646	24.946	16.581	-85.208	-81.858	38.719	82.981	-81.991	-77.192	-78.201	-71.971	-94.709	-72.867	-8191	255	
2156.429	1	1	0	0	0.20386	0.28289	0.27896	0.1168	0.13461	0.15439	0.088787	0.17054	0.15282	0.13405	0.24019	0.14115	0.089213	0.030751	0.17181	0.10447	-2.1292	-2.625	-2.25	-2.7604	-2.4271	-2.4104	-2.7021	-2.3042	-2.4958	-2.5375	-2.4521	-2.7292	-2.6021	-2.35	-2.7979	-2.2938	164.515	242.733	151.023	127.023	172.092	219.428	97.376	212.745	184.690	150.637	16.851	-81.566	37.041	-83.756	211.180	85.672	5.4991e-05	0.00056242	0.00029509	492.89	5.4958e-06	6.1554e-06	705.85	110.88	1.0745e-05	1.0784e-05	236.31	78.508	25.553	7.5257	7.6059e-06	35.208	0.0012711	0.0013493	0.00036809	477.22	1.3954e-05	1.4167e-05	665.67	111.32	1.4325e-05	1.4472e-05	230.59	77.635	29.442	9.0324	1.5052e-05	34.297	-97.629	176.955	17.111	-85.280	206.024	242.163	-85.009	-81.929	-2.019	118.696	-82.606	-76.947	-77.884	-72.401	95.937	-72.814	-8191	255	
2156.526	1	1	0	0	0.047296	0.17121	0.092059	0.20236	0.27081	0.26909	0.027487	0.19271	0.17286	0.0032684	0.037248	0.3669	0.35018	0.18029	0.14052	0.09683	-2.075	-2.6208	-2.2375	-2.7292	-2.55	-2.3604	-2.9208	-2.3542	-2.4375	-2.6521	-2.2458	-2.8021	-2.4	-2.3167	-2.8354	-2.3667	203.432	52.014	14.995	5.902	-85.918	192.782	197.557	155.088	10.874	243.270	-98.705	205.616	-58.414	170.610	168.659	107.568	0.00020342	0.00085116	0.00023162	499.53	6.3033e-06	8.361e-06	704.24	110.83	3.3097e-06	1.0748e-05	237.94	78.236	25.111	7.4644	5.2706e-06	34.627	0.0012942	0.0013776	0.00037872	484.72	1.4948e-05	1.5068e-05	670.61	112.17	1.5338e-05	1.5048e-05	230.93	76.838	29.463	8.9572	1.4417e-05	34.073	-57.555	-77.559	249.704	-85.698	-18.522	45.737	-85.212	-81.529	23.107	245.537	-82.281	-76.905	-77.701	-70.986	230.585	-72.619	-8191	255	
2156.646	1	1	0	0	0.24727	0.11947	0.23553	0.31599	0.082373	0.34189	0.054989	0.056575	0.10305	0.41574	0.081753	0.090963	0.25001	0.12499	0.18778	0.24146	-1.9708	-2.6396	-2.3104	-2.5542	-2.7229	-2.2812	-2.7583	-2.4083	-2.3729	-2.7146	-2.2104	-2.5854	-2.4979	-2.2292	-2.7938	-2.4125	97.546	189.843	187.499	235.442	67.099	198.234	-35.643	112.664	-15.225	127.278	61.704	43.663	101.553	-24.114	106.353	156.474	8.3341e-05	0.00085636	9.6268e-05	500.41	1.3501e-05	1.2204e-05	712.8	110.29	7.6294e-06	8.197e-06	238.46	79.055	25.644	7.5812	1.7779e-06	34.933	0.0012057	0.001249	0.0003404	481.82	1.3192e-05	1.3347e-05	672.54	111.3	1.3285e-05	1.3434e-05	230.33	76.803	28.971	8.7936	1.3233e-05	34.046	84.876	17.807	-97.832	-85.455	78.045	-39.462	-84.907	-81.605	-88.774	234.647	-82.239	-77.442	-78.557	-71.545	135.265	-72.504	-8191	255	
2156.741	1	1	0	0	0.10238	0.16198	0.15248	0.19343	0.11369	0.051469	0.082366	0.23928	0.12151	0.11653	0.17162	0.08538	0.32681	0.18215	0.2088	0.19294	-1.8771	-2.7979	-2.2438	-2.5729	-2.575	-2.1208	-2.8042	-2.5938	-2.4021	-2.7708	-2.5771	-2.5146	-2.7687	-2.2188	-2.5646	-2.6375	239.468	212.538	161.680	-48.156	172.459	-96.556	142.099	237.218	-8.240	132.023	170.212	239.312	72.180	62.703	191.954	196.611	0.00018914	0.0010797	0.00020261	502.61	1.1147e-06	2.8348e-06	713.71	112.31	1.2703e-06	8.0732e-06	244.45	80.325	25.844	7.5823	1.5588e-05	35.53	0.0011162	0.0011594	0.000311	479.58	1.2111e-05	1.1984e-05	671.1	111.3	1.1728e-05	1.1853e-05	232.41	77.911	28.764	8.6923	1.2419e-05	34.216	-85.148	26.734	22.541	-85.269	-31.067	180.477	-85.152	-81.666	8.557	11.803	-82.440	-76.503	-77.781	-71.410	18.409	-72.778	-8191	255	
2156.837	1	1	0	0	0.33548	0.12304	0.2045	0.15498	0.15906	0.15897	0.0045076	0.21462	0.12838	0.14659	0.063537	0.2278	0.13695	0.15485	0.064611	0.21983	-1.9062	-2.7729	-2.1937	-2.5292	-2.7958	-2.4667	-2.7417	-2.5979	-2.2604	-2.8646	-2.5187	-2.5563	-2.7396	-2.2896	-2.625	-2.5896	177.288	127.158	113.286	154.450	-5.328	63.500	72.491	-54.082	243.677	-66.089	241.525	227.925	-26.366	-72.340	192.175	163.144	0.00017535	0.00078154	3.24e-05	505.23	1.1494e-05	4.4855e-06	716.72	113.83	5.634e-06	1.1131e-05	246.64	82.655	26.813	7.8303	1.0252e-05	36.594	0.0010312	0.0010991	0.00029564	481.71	1.1304e-05	1.1217e-05	671.51	111.2	1.0827e-05	1.0978e-05	232.97	79.06	28.829	8.6984	1.0824e-05	34.786	-76.577	39.844	-61.646	-85.418	77.810	-71.486	-85.151	-81.866	27.773	48.599	-81.873	-76.981	-77.476	-71.916	12.617	-72.809	-8191	255	
2156.933	1	1	0	0	0.22302	0.16229	0.074431	0.12882	0.37965	0.19317	0.3485	0.22715	0.098939	0.14594	0.15603	0.26487	0.16277	0.28119	0.12038	0.21499	-1.7375	-2.7583	-2.3417	-2.45	-2.8708	-2.4604	-2.7917	-2.5917	-2.2833	-2.7479	-2.4625	-2.5458	-2.6542	-2.375	-2.6063	-2.6021	-13.202	215.736	155.840	225.456	21.651	174.485	232.070	-32.101	71.590	58.424	218.902	201.254	-86.805	-68.483	120.513	193.820	0.00022673	0.00067337	0.000252	508.27	1.248e-05	6.246e-06	717.12	112.12	1.1188e-05	7.8576e-06	248.25	83.49	27.121	8.1438	5.3766e-06	37.64	0.00091814	0.00097214	0.00027202	479.26	1.0639e-05	1.0704e-05	668.7	110.09	1.0511e-05	1.0529e-05	233.38	79.719	28.713	8.6731	9.908e-06	35.474	-53.587	34.781	14.229	-85.534	11.174	110.250	-85.172	-81.306	78.962	87.311	-82.067	-76.610	-77.489	-71.066	-26.278	-72.855	-8191	255	
2157.029	1	1	0	0	0.19758	0.15817	0.064939	0.2676	0.28217	0.19406	0.37802	0.0489	0.27724	0.029259	0.22937	0.17686	0.20951	0.20017	0.26766	0.31315	-1.9479	-2.7771	-2.3917	-2.275	-2.6458	-2.1625	-2.6208	-2.5375	-2.2812	-2.6021	-2.6708	-2.3167	-2.7958	-2.4125	-2.5021	-2.7979	-68.532	21.599	63.056	168.776	156.559	142.000	211.051	148.972	-77.479	220.891	253.330	223.549	95.048	-23.379	240.368	224.663	0.00035621	0.00027873	8.2377e-05	504.85	8.3154e-06	1.0108e-05	722.32	112.19	6.2253e-06	5.1536e-06	246.14	82.539	26.384	7.8629	5.5561e-06	36.884	0.00084277	0.00090154	0.00024655	476.44	1e-05	1.031e-05	668.29	109.74	1.0241e-05	1.0803e-05	231.91	78.565	28.487	8.6614	1.0179e-05	34.969	-53.508	7.064	30.416	-85.581	-18.461	120.378	-84.848	-80.969	17.236	72.808	-81.956	-76.701	-78.224	-71.795	-24.406	-73.157	-8191	255	
2157.125	1	1	0	0	0.29817	0.18203	0.082623	0.21885	0.21585	0.080277	0.18815	0.16879	0.16999	0.19125	0.15394	0.2332	0.046828	0.16967	0.13565	0.26614	-1.75	-2.6708	-2.4708	-2.4104	-2.8146	-2.5833	-2.7271	-2.5812	-2.4125	-2.4167	-2.6792	-2.3625	-2.5958	-2.2729	-2.2208	-2.7479	-31.254	259.884	126.433	148.270	-53.442	228.036	216.295	117.092	156.370	-81.367	102.550	257.310	74.981	-70.211	-34.960	161.577	2.6194e-05	0.0010131	0.00013471	504.58	6.1097e-07	4.2074e-06	725.11	114.01	4.2074e-06	6.1253e-06	246.56	82.84	26.761	7.8531	7.7925e-06	36.805	0.00085496	0.00091321	0.000246	475.05	9.4809e-06	9.6189e-06	669.45	109.99	9.5673e-06	1.0039e-05	231.87	78.793	28.519	8.6382	1.0261e-05	34.812	-54.503	212.546	218.886	-85.472	229.049	-0.099	-85.223	-81.494	10.679	154.339	-82.279	-77.028	-77.708	-71.790	-5.289	-72.676	-8191	255	
2157.246	1	1	0	0	0.15014	0.13045	0.19395	0.22806	0.069309	0.17002	0.19938	0.34571	0.20488	0.19788	0.20085	0.207	0.087791	0.058383	0.16106	0.12608	-1.9875	-2.625	-2.6271	-2.4292	-2.7375	-2.575	-2.6396	-2.775	-2.2521	-2.5187	-2.7438	-2.3	-2.8125	-2.4062	-2.3646	-2.8229	-1.358	59.384	107.308	220.650	189.752	-62.780	199.197	191.944	93.220	-40.918	140.944	132.400	61.777	252.497	89.206	55.681	0.00019256	0.00047715	8.0312e-05	501.58	8.2968e-06	4.6794e-07	713.5	112.88	1.5581e-06	2.3639e-06	245.33	84.287	26.675	7.8822	4.0434e-06	36.805	0.00087354	0.00094939	0.00026105	474.56	1.0006e-05	1.0002e-05	664.02	109.12	9.4635e-06	9.859e-06	231.49	78.874	28.159	8.5124	9.7174e-06	34.623	-64.936	-59.017	-68.150	-85.411	1.730	172.748	-84.934	-81.629	-12.747	68.278	-81.865	-76.843	-77.675	-71.782	-86.774	-72.756	-8191	255	
2157.342	1	1	0	0	0.096359	0.081134	0.18615	0.066129	0.32729	0.12835	0.19045	0.16919	0.099592	0.18554	0.12718	0.3312	0.13723	0.20271	0.1395	0.27462	-1.9688	-2.3708	-2.6958	-2.2104	-2.5438	-2.65	-2.4146	-2.7438	-2.4479	-2.4958	-2.7583	-2.1896	-2.7687	-2.3771	-2.0667	-2.6625	164.404	91.328	82.648	3.408	70.412	25.304	136.295	246.786	85.292	-63.585	202.041	223.455	119.239	-65.655	232.338	222.469	0.00015387	0.00038079	0.00018222	500.8	8.7652e-06	1.0669e-05	722.16	112.76	5.8828e-06	6.7216e-06	249.47	83.909	26.639	7.8458	5.0555e-06	36.883	0.00084252	0.00091643	0.00025791	471.04	9.8029e-06	9.6965e-06	665.74	108.65	9.121e-06	9.2091e-06	231.62	78.769	27.878	8.4504	8.7263e-06	34.914	253.980	191.499	52.507	-85.549	65.209	15.849	-85.284	-81.637	73.700	10.298	-82.056	-77.207	-77.388	-71.531	176.149	-72.483	-8191	255	
2157.438	1	1	0	0	0.074874	0.15316	0.12428	0.227	0.1892	0.29894	0.24398	0.23824	0.13129	0.29586	0.10798	0.19072	0.023914	0.098993	0.1089	0.42393	-1.8062	-2.4417	-2.5396	-2.2271	-2.6208	-2.4813	-2.1479	-2.525	-2.4458	-2.4417	-2.8688	-2.1479	-2.5042	-2.6	-2.3583	-2.5854	-39.495	189.895	240.020	-43.311	216.093	239.172	-44.197	194.482	90.830	17.072	85.031	-25.763	-30.036	9.634	54.176	-89.472	0.00012676	0.0013888	7.9906e-05	503.7	5.9788e-06	4.5966e-06	725.89	113.91	4.205e-06	4.845e-06	251.38	84.021	27.435	8.0297	9.9818e-06	37.773	0.00077808	0.00083216	0.00022853	471.49	8.8507e-06	8.9541e-06	668.7	109.05	8.5671e-06	8.6532e-06	233.19	79.47	28.093	8.5204	8.483e-06	35.382	37.491	22.323	-95.036	-85.373	164.857	137.264	-85.302	-81.620	-22.774	-13.534	-82.280	-76.967	-77.210	-72.148	51.558	-72.062	-8191	255	
2157.533	1	1	0	0	0.10853	0.062588	0.13973	0.30032	0.03821	0.16522	0.37607	0.27443	0.28859	0.015233	0.14914	0.18941	0.058278	0.20396	0.31984	0.16588	-2.0542	-2.0833	-2.775	-2.2708	-2.5292	-2.6375	-2.2	-2.625	-2.5104	-2.2771	-2.7208	-2.2833	-2.5417	-2.6875	-2.1562	-2.8021	194.153	224.126	152.833	-83.788	165.017	251.123	-98.147	232.578	133.610	-18.116	225.584	-35.121	-49.070	173.733	160.897	-70.646	0.00021223	0.00033765	0.00030668	512.98	3.9935e-06	7.2801e-06	731.27	114.09	8.9532e-06	7.752e-06	249.04	84.423	26.791	7.9414	9.0159e-06	37.728	0.00074092	0.00079196	0.00022465	479.16	8.9892e-06	8.913e-06	673.45	110.35	8.9488e-06	9.1242e-06	234.22	79.684	28.327	8.5686	9.1497e-06	35.423	-64.685	62.208	-4.786	-85.694	170.370	197.112	-85.117	-81.597	184.495	2.041	-82.155	-76.958	-77.521	-71.234	112.868	-72.453	-8191	255	
2157.630	1	1	0	0	0.2905	0.10634	0.12442	0.038768	0.057346	0.31943	0.11118	0.24857	0.16434	0.18962	0.14917	0.11404	0.2606	0.13492	0.31446	0.29068	-1.9125	-2.3125	-2.6688	-2.4542	-2.2417	-2.6646	-2.3563	-2.6667	-2.4854	-2.3104	-2.575	-2.4083	-2.575	-2.6937	-2.2021	-2.6521	91.874	-87.709	94.270	79.476	195.668	196.986	-50.701	156.998	-65.756	-80.322	-28.515	67.600	227.810	92.428	239.365	184.131	0.00025257	0.00052151	0.00013126	513.43	6.1267e-06	3.1779e-06	729.84	114.66	6.9341e-06	3.774e-06	255.46	85.037	27.423	8.1288	8.2673e-06	38.005	0.0008043	0.00083463	0.00023367	477.74	8.9408e-06	9.0847e-06	675.62	110.63	8.9024e-06	8.8722e-06	236.25	80.461	28.645	8.6683	8.9755e-06	35.843	255.690	-55.552	22.987	-85.330	235.272	88.717	-85.170	-81.811	7.148	-36.880	-82.207	-77.313	-77.528	-71.584	58.726	-72.814	-8191	255	
2157.725	1	1	0	0	0.32142	0.11377	0.2839	0.062728	0.13958	0.27705	0.21183	0.21292	0.23154	0.076035	0.089436	0.072245	0.18304	0.21662	0.068362	0.36958	-2.2375	-2.25	-2.5458	-2.4208	-2.3542	-2.7729	-2.4125	-2.5646	-2.6104	-2.2604	-2.7875	-2.5812	-2.3667	-2.7667	-2.3125	-2.5271	122.554	-56.135	78.686	177.012	231.283	147.863	221.003	-10.823	143.661	119.608	-11.951	90.064	-69.762	158.436	217.973	208.338	0.00016813	0.0011598	0.00014583	512.57	1.1879e-05	4.8723e-06	733.69	117.03	2.9901e-06	5.6082e-06	252.22	86.087	27.695	8.1886	6.9619e-06	37.157	0.00079468	0.00083653	0.00023798	481.3	9.4662e-06	9.7428e-06	679.9	112.69	9.828e-06	9.751e-06	237.54	81.103	29.303	8.8133	9.8809e-06	35.45	-99.216	223.473	12.872	-85.620	84.716	129.526	-85.294	-81.605	111.796	33.165	-82.294	-77.320	-77.730	-70.717	206.058	-72.608	-8191	255	
2157.821	1	1	0	0	0.13645	0.026536	0.087203	0.21481	0.30471	0.23895	0.31333	0.16511	0.31441	0.11934	0.24898	0.20334	0.30703	0.092969	0.17152	0.086197	-2.2625	-2.2687	-2.8479	-2.5687	-2.2583	-2.6479	-2.5417	-2.4708	-2.5771	-2.2625	-2.7479	-2.5625	-2.1479	-2.7167	-2.2042	-2.5896	206.410	142.841	-93.541	148.085	28.148	-15.348	-71.495	37.425	58.209	-9.778	68.785	258.495	-9.521	79.754	103.627	122.865	0.00022028	0.00038042	0.0002673	515.53	1.9168e-05	4.1807e-06	736.35	114.97	3.5272e-06	1.0497e-05	252.81	85.851	27.871	8.1477	4.1526e-06	37.454	0.00085215	0.0008977	0.00024899	482.15	9.3805e-06	9.3013e-06	678.39	111	8.842e-06	8.6766e-06	236.88	80.552	28.413	8.6704	8.6323e-06	35.496	-53.677	38.323	-39.910	-85.494	-10.745	22.590	-85.044	-81.670	90.863	13.157	-82.128	-77.013	-77.743	-71.141	-97.612	-72.409	-8191	255	
2157.917	1	1	0	0	0.090862	0.33593	0.075939	0.083218	0.084122	0.1938	0.40126	0.14086	0.12468	0.12825	0.33393	0.041362	0.2409	0.14112	0.10562	0.24784	-2.1146	-2.3917	-2.5708	-2.7958	-2.175	-2.6125	-2.3125	-2.5021	-2.5312	-2.3688	-2.55	-2.4271	-2.2562	-2.5542	-2.5979	-2.4688	111.818	140.771	-55.594	-39.387	249.545	41.478	206.320	91.777	258.843	29.235	148.706	-61.825	59.236	245.817	154.334	220.715	0.0002492	0.00055437	0.00012881	517.1	5.0726e-07	8.9343e-06	739.24	115.3	1.7461e-06	5.5049e-06	249.02	83.087	26.853	8.0912	8.6617e-06	37.422	0.00076098	0.00080083	0.00023114	481.8	8.7896e-06	9.1328e-06	677.22	110.17	8.7728e-06	8.7099e-06	234.16	78.625	27.762	8.5125	8.5292e-06	35.268	-30.333	-44.542	-35.924	-85.619	216.179	69.811	-84.871	-81.546	59.131	34.476	-81.853	-77.242	-77.632	-70.546	-36.859	-72.493	-8191	255	
2158.013	1	1	0	0	0.21025	0.18266	0.18694	0.24472	0.12677	0.17107	0.16713	0.2584	0.25	0.18088	0.20526	0.39162	0.007195	0.13131	0.099868	0.26009	-2.3083	-2.1292	-2.6	-2.6083	-2.1708	-2.6292	-2.725	-2.4062	-2.5792	-2.3104	-2.5083	-2.6229	-2.1167	-2.6146	-2.5042	-2.3063	-77.197	185.623	-23.031	224.552	140.750	108.695	192.605	220.478	96.920	-15.380	200.996	111.189	251.483	133.451	124.691	-40.987	0.00012073	0.00059463	9.3508e-05	515.75	4.3351e-06	7.9069e-06	742.71	115.82	4.9425e-06	1.0747e-05	254.22	84.309	27.142	8.0424	9.5199e-06	38.116	0.00073298	0.00075876	0.00021492	477.87	8.1224e-06	8.347e-06	681.05	110.53	8.2671e-06	8.3701e-06	235.8	79.332	27.968	8.5358	8.3093e-06	35.512	-97.489	-81.517	197.934	-84.999	131.542	12.425	-84.890	-81.590	113.336	65.166	-81.987	-76.674	-77.539	-72.331	34.632	-72.430	-8191	255	
2158.134	1	1	0	0	0.089233	0.04531	0.11715	0.096574	0.22609	0.12312	0.1463	0.07451	0.14337	0.13287	0.081093	0.054745	0.20302	0.14369	0.27972	0.046613	-2.2479	-2.1792	-2.425	-2.8542	-2.0333	-2.7229	-2.6625	-2.3083	-2.8167	-2.4833	-2.6	-2.7542	-2.4188	-2.6354	-2.5292	-2.4521	-51.245	109.977	70.994	194.166	-72.217	12.270	187.881	252.584	-68.445	-9.167	134.143	52.777	-20.248	48.003	121.585	240.090	0.00024481	0.0013014	8.7087e-05	517.13	1.473e-05	1.6612e-07	742.11	115.61	1.0504e-06	1.3005e-05	256.88	85.487	27.228	8.005	8.7822e-06	37.338	0.00072677	0.00076325	0.0002154	480.2	8.4644e-06	8.6404e-06	681.86	110.66	8.4985e-06	8.3793e-06	238.15	80.145	28.168	8.5276	8.4551e-06	35.409	-64.399	-47.688	-99.295	-85.367	48.348	11.860	-85.262	-81.360	-84.297	150.108	-82.040	-77.094	-78.173	-71.719	-41.408	-72.853	-8191	255	
2158.206	1	1	0	0	0.077282	0.17317	0.14077	0.16484	0.0046353	0.17102	0.075114	0.092842	0.2567	0.19218	0.14839	0.23459	0.2172	0.12045	0.12804	0.17548	-2.2917	-2.3438	-2.3021	-2.7729	-2.2042	-2.5687	-2.5167	-2.2292	-2.7438	-2.5812	-2.3187	-2.7396	-2.2083	-2.4208	-2.7188	-2.25	169.243	98.445	-58.604	170.021	43.498	-84.989	205.654	-68.884	180.063	-89.705	-34.981	142.332	224.700	-68.508	-30.527	180.441	0.00021155	6.621e-05	7.5808e-05	514.61	5.7099e-06	5.6564e-06	744.6	117.03	2.5225e-06	5.492e-06	257.27	84.704	27.017	8.0045	1.2285e-06	38.202	0.00072875	0.00076398	0.00021668	481.91	8.0252e-06	8.2962e-06	683.43	111.27	8.21e-06	8.1606e-06	238.38	79.733	27.965	8.5249	8.2929e-06	35.495	-33.868	244.904	43.581	-85.233	127.441	15.488	-85.303	-81.732	-9.161	-29.714	-81.980	-77.702	-78.205	-72.361	93.540	-72.730	-8191	255	
2158.326	1	1	0	0	0.089604	0.15249	0.18911	0.10382	0.014142	0.15884	0.12916	0.15329	0.13016	0.36794	0.24066	0.13505	0.076326	0.25883	0.16535	0.11631	-2.4208	-2.4229	-2.2438	-2.7708	-2.3292	-2.3854	-2.8292	-2.2625	-2.6021	-2.6417	-2.3229	-2.6646	-2.425	-2.5229	-2.7729	-2.2479	150.418	88.979	176.124	233.454	54.028	26.216	146.871	249.213	45.236	-5.510	228.850	-61.351	80.191	-7.129	111.075	-64.290	0.00020316	0.0010145	4.5532e-05	514.27	2.0915e-06	2.4647e-06	742.62	115.96	2.701e-06	3.7906e-06	254.57	84.237	26.84	8.0155	8.2665e-06	37.897	0.00072749	0.00073956	0.0002113	479.86	8.1438e-06	8.2643e-06	685.02	110.45	8.2514e-06	8.1792e-06	236.88	78.896	27.512	8.4338	8.1732e-06	35.39	-87.949	-2.418	210.425	-85.403	-46.315	-36.603	-85.240	-81.908	4.232	8.329	-82.096	-76.950	-77.767	-71.292	257.145	-72.605	-8191	255	
2158.422	1	1	0	0	0.038733	0.158	0.19644	0.11375	0.13468	0.14019	0.078418	0.16788	0.19149	0.179	0.029725	0.14945	0.17921	0.07556	0.16427	0.32001	-2.0312	-2.5729	-2.2167	-2.7542	-2.5125	-2.4	-2.6479	-2.4354	-2.4583	-2.7646	-2.3542	-2.9313	-2.2729	-2.3854	-2.8875	-2.3	-21.395	192.401	24.344	29.744	63.887	128.034	-70.347	172.715	14.602	-97.815	1.333	189.747	-24.874	13.450	-22.818	165.170	0.00019875	0.0013744	0.00017499	517.72	5.4499e-06	5.2065e-06	743.4	113.7	1.5957e-06	5.2511e-06	253.99	84.091	26.657	8.0055	9.5302e-06	37.252	0.00073945	0.00073856	0.00020717	482.16	7.8306e-06	7.9122e-06	682.13	109.07	7.6846e-06	7.8283e-06	236.67	78.913	27.343	8.3867	8.1048e-06	35.067	-94.780	208.705	18.683	-85.452	31.135	259.793	-85.213	-81.639	247.133	129.937	-82.142	-77.126	-77.989	-71.366	-38.494	-72.482	-8191	255	
2158.519	1	1	0	0	0.42363	0.18362	0.09183	0.27374	0.020025	0.19074	0.14038	0.23369	0.056559	0.19578	0.087771	0.2501	0.30228	0.13155	0.17066	0.21111	-2.0583	-2.5625	-2.2146	-2.4771	-2.45	-2.175	-2.8292	-2.1771	-2.4208	-2.5146	-2.2479	-2.6958	-2.2208	-2.2042	-2.7542	-2.3875	131.924	-2.894	18.417	198.680	230.571	170.928	55.244	240.502	-69.983	137.308	135.811	205.059	201.620	89.975	-45.710	176.404	0.00013408	0.00079759	0.00016143	514.69	5.1605e-06	4.1876e-06	745.17	114.21	3.4103e-06	6.1886e-06	255.63	85.58	26.879	8.1344	5.8407e-06	38.066	0.00073394	0.00076342	0.00021224	480.97	8.2779e-06	8.1478e-06	682.15	109.45	7.8751e-06	7.7649e-06	236.34	79.455	27.493	8.422	7.8365e-06	35.447	253.389	58.397	29.309	-85.164	-67.399	-25.193	-84.970	-81.959	75.971	246.358	-82.484	-76.987	-77.526	-71.391	75.899	-72.686	-8191	255	
2158.615	1	1	0	0	0.1346	0.19743	0.14129	0.1112	0.13201	0.42578	0.070179	0.19904	0.085555	0.22273	0.092753	0.1339	0.18278	0.30225	0.20677	0.181	-1.8438	-2.6667	-2.3354	-2.6896	-2.4021	-2.2021	-2.8438	-2.3417	-2.5687	-2.7396	-2.3833	-2.6354	-2.4708	-2.1604	-2.7333	-2.4021	10.151	37.912	53.722	-80.606	-1.730	73.343	75.461	92.353	203.511	169.100	60.999	119.928	130.799	124.223	24.186	206.364	0.00021447	0.00036061	0.00014515	519.51	1.0915e-05	1.1168e-05	739.79	115.6	9.6791e-06	7.8602e-06	254.44	83.989	26.952	7.9134	5.3941e-06	37.723	0.00070411	0.00074613	0.00020438	483.11	8.1013e-06	8.3938e-06	681.28	110.28	8.5304e-06	8.5879e-06	236.56	78.672	27.725	8.3388	8.2766e-06	35.309	-94.337	-51.424	61.060	-85.742	96.635	10.832	-85.315	-82.020	42.786	196.592	-82.230	-77.320	-77.700	-71.090	-74.260	-72.755	-8191	255	
2158.734	1	1	0	0	0.11424	0.15397	0.15986	0.39678	0.094835	0.13135	0.12009	0.13519	0.20335	0.18781	0.22683	0.18039	0.37982	0.058457	0.33063	0.14361	-2.0104	-2.7188	-2.0875	-2.5542	-2.4479	-2.1896	-2.725	-2.4271	-2.3208	-2.5438	-2.2771	-2.5	-2.7	-2.2562	-2.6458	-2.5563	11.596	116.530	194.956	212.989	206.547	108.311	128.484	57.008	-49.222	64.666	214.534	219.156	-47.850	107.548	22.089	162.502	0.00020485	0.00033822	0.00013194	518.45	3.6969e-06	9.8556e-06	737.74	115.46	6.5635e-06	6.1726e-06	252.05	82.467	26.678	7.8418	7.8844e-06	37.075	0.00071376	0.00075137	0.00020578	482.8	8.2223e-06	8.2507e-06	684.29	110.59	8.2292e-06	8.2452e-06	235.27	77.766	27.408	8.3361	8.08e-06	34.941	247.933	-84.869	-79.805	-85.538	172.948	-32.110	-84.858	-81.797	105.593	79.738	-82.065	-76.709	-77.724	-71.602	-25.683	-72.637	-8191	255	
2158.830	1	1	0	0	0.067718	0.13983	0.15404	0.082078	0.16014	0.36227	0.21668	0.12117	0.025382	0.25279	0.11014	0.051582	0.058066	0.25747	0.10443	0.10532	-1.8146	-2.7021	-2.3333	-2.5958	-2.6437	-2.1021	-2.7583	-2.425	-2.1917	-2.7125	-2.35	-2.4562	-2.3896	-2.3167	-2.6292	-2.6479	118.238	-47.104	39.259	-76.504	155.996	240.047	-22.974	138.371	75.538	49.681	-41.677	187.592	-96.502	139.175	-9.354	-15.055	0.0002192	0.0005884	0.00012137	519.68	1.0783e-05	9.9147e-06	742.48	114.65	3.1866e-06	3.2456e-06	253.62	83.995	26.588	7.9757	1.3766e-06	36.946	0.00071561	0.00074419	0.00020417	483.38	8.0529e-06	8.1708e-06	684.23	110.19	8.2872e-06	8.3836e-06	235.52	78.469	27.483	8.3657	8.484e-06	34.905	-89.181	78.001	-94.111	-84.907	100.497	96.629	-85.290	-81.612	53.157	19.945	-82.250	-76.755	-77.826	-70.930	-88.368	-72.634	-8191	255	
2158.901	1	1	0	0	0.15244	0.11945	0.12283	0.29681	0.078728	0.16773	0.059296	0.1933	0.23045	0.13732	0.10877	0.084374	0.15149	0.29813	0.050946	0.22128	-1.8292	-2.7646	-2.2188	-2.3083	-2.7104	-2.4146	-2.6646	-2.4146	-2.2854	-2.7146	-2.5354	-2.3917	-2.5417	-2.2271	-2.5833	-2.6833	183.166	-8.329	98.695	223.239	128.744	157.750	228.609	251.344	-59.825	166.365	184.031	-1.949	26.778	-92.176	38.904	22.751	0.00021498	0.00028946	4.6785e-05	522.89	8.4447e-06	7.6654e-06	746.9	116.38	4.4952e-06	6.7596e-06	257.24	84.321	27.282	8.0842	8.2744e-06	38.055	0.00072866	0.00078648	0.0002137	486.03	8.3867e-06	8.3464e-06	685.62	111.31	8.3999e-06	8.4434e-06	237.71	79.351	28.065	8.4753	8.4855e-06	35.418	254.439	91.117	37.168	-85.410	-28.538	109.922	-84.960	-81.610	42.504	74.778	-82.319	-76.709	-78.035	-72.085	152.031	-72.292	-8191	255	
2159.022	1	1	0	0	0.212	0.074103	0.082197	0.2385	0.28843	0.097386	0.1599	0.097737	0.26861	0.18146	0.25145	0.11241	0.10303	0.21209	0.23977	0.10929	-1.5958	-2.6583	-2.4313	-2.475	-2.5458	-2.3667	-2.6208	-2.6021	-2.3292	-2.8208	-2.5354	-2.4042	-2.7313	-2.1708	-2.5667	-2.6792	248.479	234.482	233.511	247.581	-32.812	61.769	-84.104	169.083	-97.683	78.325	-88.437	-1.587	26.372	122.483	116.815	68.512	0.00014463	0.00074038	0.00013696	523.4	1.1004e-06	8.6239e-06	747.87	115.23	8.5423e-06	4.2392e-06	255.19	84.944	27.517	8.0873	2.8685e-06	38.006	0.00071835	0.00077332	0.00021366	486.66	8.3924e-06	8.5973e-06	688.96	111.54	8.5024e-06	8.8213e-06	237.84	79.764	28.233	8.5076	8.7411e-06	35.673	253.489	232.176	-88.287	-85.443	-35.551	60.637	-85.090	-81.886	66.099	-93.488	-82.165	-77.115	-77.223	-72.086	24.095	-72.640	-8191	255	
2159.118	1	1	0	0	0.15731	0.17127	0.26259	0.077861	0.34426	0.077711	0.20124	0.045158	0.0098885	0.13951	0.14909	0.088051	0.17197	0.059812	0.23585	0.24165	-1.6437	-2.5229	-2.2979	-2.1813	-2.95	-2.3771	-2.5875	-2.7313	-2.4813	-2.7125	-2.7896	-2.3187	-2.6104	-2.3104	-2.2792	-2.8125	45.720	223.495	235.257	-58.205	-31.215	243.900	185.391	133.550	153.140	-62.667	34.345	-71.985	-95.303	119.197	126.107	203.453	8.6937e-05	0.0007568	0.00025658	525.98	3.7153e-06	1.1385e-05	754.12	119.33	2.1737e-06	1.1171e-05	258.31	85.625	27.471	8.1466	4.7366e-06	37.957	0.00072907	0.0007795	0.00021283	487.91	8.3165e-06	8.3429e-06	692.65	112.87	8.265e-06	8.573e-06	240.11	80.075	28.386	8.5842	8.7421e-06	35.619	-41.748	121.873	-70.442	-85.406	-32.981	41.235	-85.217	-81.703	128.070	54.018	-82.274	-77.272	-77.933	-70.614	30.093	-72.666	-8191	255	
2159.214	1	1	0	0	0.11242	0.044511	0.25991	0.32498	0.018221	0.33717	0.28771	0.15427	0.19633	0.12411	0.11793	0.16821	0.061822	0.11781	0.17294	0.30146	-1.7437	-2.35	-2.5375	-2.2625	-2.7646	-2.5333	-2.5229	-2.4979	-2.2854	-2.5062	-2.7562	-2.2562	-2.7104	-2.3979	-2.3833	-2.7354	-46.457	-34.116	13.064	-98.706	-48.671	179.160	247.572	222.393	133.197	213.294	225.767	109.854	-36.551	149.506	-60.570	-88.549	0.00023379	0.00041745	4.4229e-05	528.58	2.6556e-06	6.0656e-06	751.51	118.25	8.4457e-06	2.0938e-06	259.99	86.964	27.712	8.3023	5.7997e-06	38.363	0.0007363	0.00078872	0.00021856	488.54	8.5193e-06	8.3442e-06	691.62	113.15	8.2052e-06	8.579e-06	241.22	81.036	28.656	8.6477	8.4312e-06	35.882	236.508	191.742	-67.449	-85.665	205.648	-18.329	-85.224	-81.911	144.704	206.015	-82.900	-77.211	-77.651	-71.697	219.053	-72.526	-8191	255	
2159.311	1	1	0	0	0.098579	0.23136	0.1185	0.098039	0.15696	0.13411	0.37828	0.3042	0.29878	0.29725	0.12201	0.36496	0.14114	0.12248	0.14796	0.20199	-1.7896	-2.5125	-2.6437	-2.1354	-2.675	-2.3	-2.2104	-2.7167	-2.3729	-2.3187	-2.5104	-2.2979	-2.5	-2.4042	-2.4167	-2.7042	117.923	220.660	24.546	137.428	225.910	63.007	253.070	-40.608	72.503	-39.790	192.321	148.320	239.129	7.921	4.744	-44.727	0.00027772	0.00063119	6.0775e-05	526.42	7.1984e-06	1.1191e-05	754.35	119.4	6.1908e-06	7.3383e-07	260.1	87.73	28.096	8.355	5.1055e-06	38.473	0.0007281	0.00077557	0.00021838	491.31	8.4178e-06	8.4162e-06	693.46	113.25	8.2406e-06	8.4483e-06	241.37	81.389	28.816	8.7151	8.372e-06	36.078	-63.180	-27.761	122.273	-85.389	196.236	69.407	-84.906	-81.683	29.951	-32.856	-82.507	-76.929	-77.687	-71.502	-46.825	-72.087	-8191	255	
2159.429	1	1	0	0	0.20139	0.082693	0.20323	0.18305	0.069856	0.21653	0.24767	0.13579	0.05886	0.10549	0.099253	0.094301	0.17074	0.13169	0.12581	0.32724	-1.7875	-2.4292	-2.5896	-2.3396	-2.5604	-2.3833	-2.225	-2.6937	-2.3937	-2.6542	-2.5146	-2.3958	-2.6354	-2.7521	-2.4604	-2.7271	142.794	-98.070	242.692	228.270	231.231	257.993	234.047	110.331	8.406	-69.358	209.670	170.871	168.737	211.226	255.608	226.952	6.0961e-05	9.5409e-05	0.00011147	528.08	2.8726e-06	3.4583e-06	759.64	120.73	2.3427e-06	4.6628e-06	260.87	87.083	27.618	8.1627	3.0854e-06	38.18	0.00071494	0.00076893	0.00021161	491.8	8.2025e-06	8.1234e-06	697.42	113.78	7.8719e-06	8.1362e-06	242.66	81.398	28.499	8.5875	8.0007e-06	35.919	-11.936	24.394	-65.935	-85.571	-25.672	61.421	-85.170	-81.738	50.864	-35.136	-82.643	-77.157	-77.274	-71.203	-62.006	-72.604	-8191	255	
2159.503	1	1	0	0	0.18204	0.053985	0.11651	0.067859	0.16142	0.37935	0.46114	0.2063	0.20632	0.20905	0.20151	0.26852	0.14937	0.095885	0.32445	0.18702	-1.8521	-2.3333	-2.675	-2.3771	-2.6167	-2.6688	-2.2979	-2.6229	-2.4521	-2.4042	-2.8	-2.4333	-2.5146	-2.7854	-2.2812	-2.8458	27.046	259.169	215.418	-76.498	-52.394	-42.087	182.881	250.763	78.693	66.263	232.424	179.889	-27.888	217.669	94.886	-77.679	0.00026836	0.00030669	0.00013043	528.32	1.2001e-05	6.2306e-06	761.78	120.23	5.7361e-06	4.2156e-06	263.75	86.414	27.923	8.3345	1.2548e-06	38.539	0.00069091	0.00072608	0.00020394	489.46	7.7484e-06	7.8916e-06	696.5	113.35	7.5385e-06	7.9306e-06	242.23	80.801	28.332	8.6013	7.6562e-06	35.947	-62.538	135.643	51.788	-85.746	14.863	203.051	-85.082	-81.431	-55.938	-54.879	-82.220	-77.359	-77.812	-70.897	190.677	-72.739	-8191	255	
2159.599	1	1	0	0	0.23743	0.21891	0.075346	0.074062	0.34236	0.15489	0.19527	0.22777	0.15418	0.19532	0.16613	0.13989	0.096469	0.16777	0.1656	0.22341	-2.1208	-2.3354	-2.7917	-2.5271	-2.4458	-2.7417	-2.4	-2.8083	-2.5896	-2.2021	-2.7833	-2.2438	-2.4458	-2.6188	-2.3792	-2.8292	159.257	-12.950	75.379	248.143	186.766	228.821	230.519	188.241	89.709	-34.474	104.639	-26.866	45.634	125.241	-58.752	251.059	0.00026954	8.7203e-05	0.00012097	530.76	7.7115e-06	3.839e-06	755.67	119.35	5.2301e-06	4.0172e-06	261.12	87.829	28.097	8.3741	9.907e-06	39.011	0.00067552	0.00070952	0.00019802	491.7	7.8845e-06	7.8659e-06	695.65	113.53	7.7111e-06	7.7738e-06	242.56	82.013	28.613	8.6611	7.4605e-06	36.426	-94.089	225.619	76.932	-85.084	145.128	-72.937	-85.072	-81.798	-1.889	79.904	-82.244	-76.826	-78.438	-71.491	26.315	-72.720	-8191	255	
2159.695	1	1	0	0	0.22482	0.17269	0.056029	0.2756	0.059504	0.20076	0.044535	0.12444	0.29382	0.16213	0.14751	0.2129	0.058728	0.3182	0.12738	0.050938	-2.1167	-2.3063	-2.7125	-2.2146	-2.3896	-2.6458	-2.2042	-2.4396	-2.4354	-2.2375	-2.7438	-2.4542	-2.3625	-2.6583	-2.3042	-2.6729	76.926	237.785	-17.839	229.854	248.927	208.428	120.228	245.963	-26.282	57.504	12.146	207.396	-30.675	9.789	252.822	119.457	0.00013223	0.00081026	0.00017075	534.04	1.3241e-05	1.0986e-05	765.13	120.1	2.0391e-07	1.6988e-06	260.44	88.542	28.547	8.3782	4.4635e-06	39.342	0.00067194	0.00069819	0.00019311	493.39	7.6657e-06	7.5857e-06	698.9	113.49	7.4768e-06	7.682e-06	243.11	82.504	28.746	8.6949	7.6281e-06	36.581	-59.692	-82.158	-6.478	-85.374	113.367	111.967	-84.797	-81.514	-58.472	-4.360	-82.005	-77.207	-77.985	-71.132	255.181	-72.235	-8191	255	
2159.814	1	1	0	0	0.1395	0.11464	0.14331	0.10037	0.21117	0.22005	0.099974	0.07552	0.022528	0.078111	0.13173	0.14842	0.23744	0.27129	0.18505	0.3001	-2.2313	-2.2208	-2.8021	-2.4208	-2.4062	-2.9	-2.4833	-2.5563	-2.7938	-2.1583	-2.6833	-2.5292	-2.4354	-2.6854	-2.3375	-2.5896	92.286	-33.424	17.163	239.731	87.841	-72.404	-61.761	30.860	101.435	-69.892	134.742	188.830	-98.067	-88.410	39.051	149.671	0.00013446	0.00077343	0.00021465	533.28	1.1159e-05	2.9161e-06	763	120.81	2.8005e-06	9.1009e-07	262.45	87.723	28.414	8.3332	8.8715e-06	39.122	0.00067175	0.0006952	0.0001971	493.03	7.5546e-06	7.5366e-06	699.18	114.44	7.5228e-06	7.4161e-06	243.93	81.829	28.548	8.6114	7.5757e-06	36.544	-46.615	-79.373	-79.597	-85.480	159.739	1.864	-85.267	-82.080	70.403	176.898	-81.732	-77.202	-77.447	-70.599	143.420	-72.459	-8191	255	
2159.910	1	1	0	0	0.26093	0.20681	0.29203	0.078957	0.13844	0.1163	0.09412	0.17478	0.27358	0.086417	0.17205	0.034665	0.2293	0.12245	0.1944	0.17413	-2.2292	-2.1417	-2.7417	-2.5646	-2.3937	-2.7604	-2.4271	-2.4062	-2.4521	-2.2812	-2.7292	-2.5646	-2.4729	-2.6833	-2.3812	-2.4146	-33.940	238.242	144.985	34.582	-29.504	-44.278	-82.607	164.014	224.500	-94.671	126.970	157.121	211.491	89.587	43.989	189.759	0.00017976	0.0011362	0.00012751	536.04	4.0613e-06	5.0201e-06	765.1	121.52	5.5654e-06	8.4388e-06	264.87	87.873	28.323	8.4462	1.5716e-05	39.332	0.00066469	0.00068247	0.00019377	493.4	7.4404e-06	7.5873e-06	700.06	114.43	7.4475e-06	7.5189e-06	244.49	82.213	28.651	8.6527	7.2973e-06	36.516	-60.498	-58.903	77.497	-85.915	-96.725	-2.197	-85.218	-81.680	-43.892	-28.105	-82.166	-76.845	-77.540	-71.248	7.450	-72.448	-8191	255	
2160.006	1	1	0	0	0.1822	0.28672	0.20164	0.095507	0.31104	0.18633	0.0064296	0.1166	0.033621	0.32596	0.059112	0.11955	0.22355	0.12003	0.123	0.19378	-2.2375	-2.1583	-2.7708	-2.6271	-2.0521	-2.8812	-2.5625	-2.4167	-2.8042	-2.4792	-2.5667	-2.7333	-2.3854	-2.4958	-2.4938	-2.3021	162.197	128.249	33.415	24.667	37.893	24.801	-67.193	-54.525	-71.762	17.341	205.732	227.351	-4.782	-86.220	38.658	212.384	0.00027589	0.00033965	0.00014879	535.96	9.1802e-06	7.4667e-06	770.33	121.64	5.9958e-06	3.8913e-06	268.43	88.827	28.473	8.4792	2.0368e-06	39.415	0.00065144	0.00066516	0.00018784	494.63	7.434e-06	7.5654e-06	701.14	114.19	7.3878e-06	7.4325e-06	245.8	82.797	28.72	8.7221	7.3209e-06	36.817	-92.012	164.860	195.139	-85.545	74.726	-29.958	-85.374	-81.716	56.761	173.959	-81.674	-77.114	-77.312	-71.740	-6.576	-72.627	-8191	255	
2160.102	1	1	0	0	0.18279	0.19713	0.10083	0.054556	0.1173	0.085012	0.13842	0.23826	0.13269	0.24804	0.25569	0.19411	0.25995	0.15189	0.15156	0.20023	-2.2792	-2.3	-2.3542	-2.7833	-2.2375	-2.6917	-2.6708	-2.4229	-2.8208	-2.5458	-2.65	-2.6354	-2.2333	-2.8646	-2.5521	-2.3021	-14.682	49.832	171.198	-14.909	-72.420	210.866	166.534	81.427	61.018	-25.958	196.823	47.874	-1.262	55.530	250.981	73.371	0.00018197	0.00046957	7.9773e-05	534.4	6.7222e-06	3.8875e-06	772.96	121.05	7.9388e-06	1.0814e-05	266.36	89.279	28.707	8.3845	1.186e-05	39.308	0.00063592	0.00066046	0.00018839	494.61	7.0654e-06	7.3461e-06	702.54	114.71	7.4898e-06	7.6289e-06	245.46	82.942	28.898	8.7068	7.6119e-06	36.586	-70.236	5.557	-64.496	-85.651	-34.366	27.083	-85.341	-81.673	12.476	-23.490	-82.251	-76.770	-77.907	-71.337	107.930	-72.983	-8191	255	
2160.199	1	1	0	0	0.29305	0.10748	0.10899	0.036507	0.24261	0.10739	0.0917	0.014617	0.19834	0.14245	0.06205	0.2971	0.097932	0.052396	0.13486	0.17881	-2.4042	-2.4125	-2.5771	-2.7146	-2.2646	-2.6458	-2.7625	-2.35	-2.6042	-2.4333	-2.4104	-2.775	-2.3958	-2.5354	-2.5771	-2.1854	141.588	-57.593	95.484	-5.350	149.133	71.017	148.671	247.052	10.481	57.613	136.716	235.706	203.201	-26.715	21.146	166.871	0.00018712	0.00054724	1.5537e-05	535.8	4.4752e-06	2.063e-06	773.46	122.25	6.5713e-06	2.0839e-06	263.72	89.141	28.754	8.4583	9.3062e-06	38.928	0.00066526	0.00068693	0.00019368	495.22	7.2654e-06	7.3997e-06	703.28	114.87	7.4774e-06	7.5861e-06	244.87	83.151	28.863	8.7203	7.633e-06	36.51	-39.886	-71.682	10.957	-85.297	123.118	3.749	-84.657	-81.716	92.545	-25.111	-81.821	-77.365	-77.890	-71.482	68.267	-72.861	-8191	255	
2160.295	1	1	0	0	0.17278	0.066539	0.028443	0.14731	0.11323	0.26015	0.11215	0.1066	0.11627	0.19901	0.3456	0.053007	0.097379	0.087378	0.21657	0.26199	-2.2833	-2.3	-2.3812	-2.7271	-2.3104	-2.4771	-2.6958	-2.4083	-2.6229	-2.4813	-2.375	-2.5708	-2.1708	-2.55	-2.5625	-2.3125	79.281	98.557	120.977	188.088	225.508	-83.716	10.790	-64.069	132.580	141.479	213.868	4.208	192.560	39.189	-29.815	-40.439	0.00026596	0.001189	0.00010475	540.55	1.6586e-06	7.7067e-06	767.42	121.84	5.9076e-06	3.2125e-06	267.26	88.811	28.836	8.5457	5.6096e-06	39.433	0.00067445	0.00069736	0.00019331	496.68	7.4577e-06	7.5038e-06	702.32	115.22	7.63e-06	7.4828e-06	245.66	83.022	28.926	8.8022	7.6e-06	36.691	-75.425	-12.010	65.914	-85.584	210.391	87.756	-85.371	-81.548	94.069	32.988	-82.103	-76.728	-78.055	-71.101	-72.607	-72.233	-8191	255	
2160.415	1	1	0	0	0.37566	0.14452	0.090858	0.1605	0.11993	0.065077	0.28011	0.1846	0.24818	0.36237	0.13706	0.16019	0.21299	0.26613	0.19404	0.15718	-2.3208	-2.5479	-2.3771	-2.5563	-2.2833	-2.4333	-2.85	-2.2708	-2.6917	-2.4146	-2.5083	-2.8208	-2.3667	-2.3563	-2.5479	-2.2417	188.946	-90.621	127.723	185.753	-25.447	42.361	160.359	0.296	217.059	105.206	237.702	-58.155	-52.352	258.089	251.036	188.914	0.00012052	0.00011934	0.00010129	532.54	3.4888e-06	5.1155e-06	767.85	121.51	3.4017e-06	1.6151e-07	265.69	89.177	28.8	8.5885	8.4692e-06	39.467	0.00067546	0.00071116	0.00019681	494.92	7.3766e-06	7.6219e-06	700.5	114.9	7.4182e-06	7.3432e-06	246.25	83.234	28.951	8.7665	7.4614e-06	36.802	-64.148	123.773	34.457	-85.441	152.847	118.180	-85.424	-81.593	212.809	16.402	-82.152	-77.101	-78.436	-71.318	194.597	-72.940	-8191	255	
2160.512	1	1	0	0	0.15124	0.15674	0.24477	0.060124	0.070472	0.26731	0.28134	0.1725	0.15364	0.093733	0.34207	0.41474	0.14047	0.30788	0.082166	0.17866	-2.0438	-2.5083	-2.1583	-2.7271	-2.3771	-2.4062	-2.7188	-2.2375	-2.4146	-2.5896	-2.125	-2.5583	-2.4583	-2.2604	-2.55	-2.2562	140.724	-78.539	9.114	-90.594	7.775	170.241	196.011	156.826	202.798	184.870	189.679	153.509	196.757	-71.816	172.483	-11.763	0.00025062	0.0010988	0.0002815	543.5	1.0193e-05	3.2109e-06	762.5	122.3	1.7068e-06	6.6166e-06	265.03	89.166	28.696	8.5676	9.4293e-06	39.867	0.00066411	0.00069348	0.0001941	497.71	7.5031e-06	7.7183e-06	702.04	115.62	7.4683e-06	7.5396e-06	246.2	83.117	29.144	8.8223	7.6553e-06	36.865	-59.986	21.995	-49.890	-85.908	115.304	54.290	-85.084	-82.097	-58.389	105.256	-82.470	-76.996	-77.895	-71.152	87.394	-72.517	-8191	255	
2160.606	1	1	0	0	0.11243	0.067349	0.18676	0.11809	0.26302	0.07915	0.23243	0.17431	0.14319	0.19834	0.18128	0.16814	0.13017	0.090092	0.19581	0.089711	-2.425	-2.5146	-2.0771	-2.7292	-2.4479	-2.3167	-2.8875	-2.3104	-2.4313	-2.6312	-2.3521	-2.6542	-2.5792	-2.175	-2.7562	-2.2271	7.318	121.046	-36.733	-76.519	194.334	11.003	256.830	237.133	-83.570	244.343	27.141	173.873	105.856	30.441	-6.833	236.115	7.3433e-05	0.00050667	1.8672e-05	539.14	1.0028e-05	2.4618e-07	767.72	120.48	1.1027e-06	2.0058e-06	266.67	88.686	28.697	8.4368	4.6983e-06	39.474	0.00067476	0.00070517	0.00019403	499.25	7.6021e-06	7.8635e-06	701.87	114.89	7.7555e-06	7.7855e-06	245.11	83.069	28.984	8.7037	7.6951e-06	36.713	-73.744	-9.998	153.347	-85.677	61.815	-43.153	-85.250	-81.500	8.769	-36.723	-82.133	-77.230	-77.753	-71.376	39.599	-72.497	-8191	255	
2160.727	1	1	0	0	0.13116	0.17251	0.080306	0.12235	0.12121	0.20031	0.18327	0.33481	0.29568	0.07877	0.064031	0.13454	0.26365	0.19621	0.096504	0.12194	-2.0771	-2.7562	-2.2729	-2.6167	-2.5208	-2.225	-2.8083	-2.3229	-2.3042	-2.75	-2.3896	-2.7167	-2.4604	-2.1937	-2.7375	-2.3583	26.627	-25.712	95.015	-34.134	-18.473	124.730	155.043	206.836	-15.214	78.658	111.398	84.142	-58.979	-99.008	258.575	214.316	0.00014849	0.00063602	5.3602e-05	535.4	2.2741e-06	3.0468e-06	758.63	120.3	8.2595e-06	4.3244e-06	262.08	88.048	28.575	8.6121	5.0959e-06	39.581	0.00068721	0.00071309	0.00019567	495.5	7.6683e-06	7.5971e-06	697.89	114.01	7.7113e-06	7.6303e-06	243.55	82.555	28.821	8.7217	7.4527e-06	36.87	-73.865	107.964	-70.369	-85.338	-51.270	158.236	-85.348	-81.887	56.363	27.988	-82.083	-77.280	-77.494	-71.542	72.552	-72.480	-8191	255	
2160.798	1	1	0	0	0.15322	0.24499	0.23146	0.20432	0.10528	0.14664	0.18726	0.028663	0.057814	0.15812	0.22285	0.079631	0.26946	0.27309	0.10774	0.15962	-1.7354	-2.6688	-2.2146	-2.4833	-2.7271	-2.1063	-2.8583	-2.5958	-2.3792	-2.8063	-2.3063	-2.5917	-2.5542	-2.1625	-2.7812	-2.4292	-21.537	250.244	136.900	-35.099	200.810	199.809	180.774	-91.046	109.482	76.186	157.657	222.450	-27.418	-34.013	106.098	184.608	0.0001433	0.00050573	0.00013995	537.2	2.2097e-06	2.2345e-06	764.98	122.27	4.63e-06	3.2115e-06	265.99	89.014	29.041	8.3372	1.0923e-05	39.345	0.0006509	0.00068731	0.00018589	494.25	7.3278e-06	7.3899e-06	698.47	114.76	7.3791e-06	7.4371e-06	245.73	83.039	28.943	8.667	7.7103e-06	36.567	-70.467	225.440	-80.522	-85.518	112.076	-6.674	-85.042	-81.604	151.789	182.764	-81.808	-76.938	-77.587	-71.623	134.411	-72.941	-8191	255	
2160.894	1	1	0	0	0.26732	0.16506	0.073998	0.10615	0.072789	0.3589	0.2411	0.20653	0.25286	0.2002	0.28022	0.26127	0.17628	0.33952	0.18869	0.238	-2.0312	-2.65	-2.35	-2.5708	-2.7479	-2.2542	-2.7375	-2.5854	-2.5917	-2.7396	-2.3521	-2.4042	-2.6562	-2.1667	-2.5958	-2.5396	198.051	24.009	82.631	61.683	0.524	-77.165	35.519	223.417	233.691	99.819	66.429	169.679	33.533	177.777	-10.049	159.914	0.00016587	0.0003308	0.00012589	530.56	7.3265e-06	6.1188e-06	769.21	121.16	2.0362e-06	2.4707e-06	266.29	89.987	28.527	8.4461	1.463e-06	39.608	0.00065161	0.00069011	0.00018788	491.77	7.4935e-06	7.3118e-06	701.86	114.11	7.3504e-06	7.5865e-06	245.44	83.338	28.797	8.6978	7.4109e-06	36.769	242.187	-97.316	102.449	-85.465	170.303	89.627	-85.171	-82.013	41.952	-24.176	-82.241	-77.377	-77.971	-70.739	-75.080	-72.742	-8191	255	
2160.991	1	1	0	0	0.18289	0.13867	0.17307	0.18712	0.066115	0.2305	0.04238	0.28492	0.084112	0.082832	0.098199	0.24285	0.09729	0.028162	0.16415	0.052944	-1.6271	-2.6813	-2.2	-2.2313	-2.6875	-2.3125	-2.6167	-2.4708	-2.1979	-2.6792	-2.4667	-2.6521	-2.8104	-2.3458	-2.5062	-2.7021	-69.194	187.093	-95.396	198.162	29.686	159.161	177.453	254.585	18.624	222.439	-87.587	145.408	225.008	107.738	-72.404	-7.054	0.00019825	0.00017577	0.00018112	530.05	5.8993e-06	9.6518e-06	761.11	120.67	1.0019e-05	6.5133e-06	264.68	90.075	28.536	8.5067	6.4761e-06	39.943	0.00064952	0.00067218	0.00018346	492.34	7.1329e-06	7.1471e-06	697.71	114.16	7.0656e-06	7.3248e-06	245.33	83.5	28.87	8.7309	7.4811e-06	37.106	-54.856	140.517	43.262	-85.694	-6.080	85.294	-85.138	-81.344	-22.644	-2.382	-82.478	-77.223	-77.522	-72.078	136.790	-72.414	-8191	255	
2161.111	1	1	0	0	0.33583	0.20986	0.061584	0.14572	0.12611	0.13723	0.068421	0.20397	0.20928	0.13783	0.043172	0.059441	0.049509	0.27956	0.09461	0.24422	-1.6125	-2.5542	-2.5042	-2.3604	-2.6375	-2.4646	-2.7583	-2.5375	-2.1562	-2.5604	-2.6667	-2.4458	-2.6625	-2.2229	-2.5354	-2.6375	84.235	148.718	256.047	-27.243	-14.857	177.714	-48.480	162.217	52.642	236.480	-85.098	121.857	66.741	0.884	69.682	238.985	0.00013062	0.00075673	8.5697e-05	530.98	4.5116e-06	3.6432e-06	763.92	120.71	4.2231e-06	4.7269e-06	263.99	89.609	28.402	8.5107	8.3636e-06	39.597	0.00065519	0.000684	0.00019293	492.6	7.6397e-06	7.6401e-06	698.37	114.03	7.4026e-06	7.7549e-06	245	83.545	29.032	8.8142	7.9683e-06	37.046	-72.873	-89.349	143.302	-85.585	202.951	102.065	-85.350	-81.345	79.757	17.864	-81.996	-76.753	-76.527	-71.213	35.178	-72.368	-8191	255	
2161.207	1	1	0	0	0.17549	0.10787	0.1443	0.13472	0.098409	0.1761	0.14507	0.13774	0.24585	0.29328	0.065943	0.08208	0.18403	0.26447	0.11851	0.3017	-1.7542	-2.7042	-2.2646	-2.2771	-2.725	-2.4	-2.4042	-2.7333	-2.2	-2.7562	-2.4958	-2.375	-2.6104	-2.2812	-2.3417	-2.6458	34.735	-60.724	214.149	57.967	15.427	66.951	-85.048	212.442	130.046	-17.469	-54.422	16.051	122.295	58.997	70.146	216.937	0.00024627	0.00041826	0.00023505	532.09	3.3508e-06	8.9093e-06	765.83	120.74	3.2471e-07	5.1311e-06	264.71	88.141	28.159	8.2761	6.4524e-06	38.397	0.00068488	0.00072361	0.00019571	494.79	7.673e-06	7.7273e-06	702.04	114.31	7.6658e-06	8.041e-06	244.22	82.179	28.665	8.6291	7.9411e-06	36.187	-53.635	10.420	-46.106	-85.376	37.978	23.995	-85.085	-81.453	177.119	71.116	-82.485	-76.798	-77.657	-71.779	81.169	-72.508	-8191	255	
2161.303	1	1	0	0	0.15284	0.08491	0.14196	0.15264	0.19667	0.066803	0.16223	0.12407	0.14255	0.21125	0.075146	0.14552	0.11002	0.068581	0.24873	0.2077	-1.8687	-2.5125	-2.4208	-2.1833	-2.6833	-2.4583	-2.4833	-2.7542	-2.0333	-2.4271	-2.6417	-2.1813	-2.6667	-2.3	-2.2042	-2.8375	-2.504	204.125	71.607	234.252	235.149	174.620	90.546	245.917	152.228	90.124	-93.644	251.266	132.126	186.520	-23.211	182.593	0.00020495	0.00023019	8.8117e-05	531.85	4.3384e-06	5.6714e-06	763.58	120.35	2.4294e-06	6.5393e-06	264.85	87.024	28.281	8.4625	3.8695e-06	38.789	0.00068885	0.00073593	0.00020277	494.28	8.0006e-06	8.0635e-06	697.83	113.69	7.7236e-06	7.7473e-06	243.99	81.747	28.536	8.6317	7.7587e-06	36.346	-78.842	-84.352	-21.417	-85.436	174.967	239.386	-85.274	-81.797	87.591	100.805	-82.091	-77.143	-76.823	-71.701	108.220	-72.933	-8191	255	
2161.375	1	1	0	0	0.20642	0.2996	0.18197	0.17967	0.034341	0.18256	0.16823	0.10212	0.18598	0.13768	0.15002	0.12028	0.18974	0.17422	0.25918	0.14088	-1.7	-2.3688	-2.5792	-2.1354	-2.4833	-2.3896	-2.3083	-2.6792	-2.325	-2.4437	-2.7271	-2.3229	-2.4833	-2.3896	-2.1937	-2.9667	-72.833	-64.799	247.877	250.814	258.994	133.634	159.526	185.116	-17.625	219.738	-33.475	158.696	-17.247	79.902	-79.499	-96.875	0.00016573	0.00056355	8.26e-05	532.35	6.0445e-06	9.5966e-06	763.3	119.33	9.1394e-07	3.8412e-06	264.29	87.07	28.516	8.3236	1.2257e-05	38.998	0.00067155	0.00073289	0.00019979	493.27	7.9135e-06	7.8427e-06	698.74	113.77	7.8052e-06	8.0051e-06	244.12	81.662	28.619	8.5834	7.8303e-06	36.296	-50.474	52.208	16.907	-85.403	95.148	34.012	-85.088	-81.416	-70.937	142.603	-82.432	-77.395	-78.132	-72.233	68.365	-72.403	-8191	255	
2161.496	1	1	0	0	0.22465	0.23946	0.29979	0.13643	0.098973	0.1296	0.13562	0.1077	0.1311	0.20754	0.15375	0.19641	0.22331	0.093069	0.20214	0.22904	-1.9708	-2.4292	-2.6417	-2.0521	-2.5896	-2.575	-2.375	-2.8	-2.3854	-2.4375	-2.7396	-2.3542	-2.725	-2.5604	-2.1854	-2.7188	139.932	254.357	108.768	74.182	137.362	226.500	255.264	-94.117	213.940	166.891	170.542	46.220	215.761	195.899	78.094	-30.664	0.00019731	0.00030835	0.00018376	532.96	3.2171e-06	6.5819e-06	764.6	120.33	3.2402e-06	6.1678e-06	261.66	86.723	28.072	8.2414	3.7626e-06	38.984	0.00068979	0.00073671	0.00020526	494.5	7.9375e-06	7.9071e-06	701.99	113.8	7.7682e-06	7.8995e-06	243.24	80.958	28.326	8.5639	7.6783e-06	36.269	258.490	172.491	-17.552	-85.612	253.680	28.735	-85.144	-81.353	127.577	-8.995	-81.994	-77.199	-77.277	-71.521	35.579	-72.803	-8191	255	
2161.592	1	1	0	0	0.14312	0.23856	0.15595	0.13221	0.091211	0.25438	0.14719	0.18371	0.11565	0.20303	0.24913	0.099529	0.20526	0.18715	0.083853	0.038957	-1.8979	-2.5333	-2.7146	-2.2479	-2.6312	-2.8292	-2.2646	-2.6146	-2.5167	-2.5062	-2.5812	-2.4396	-2.525	-2.5042	-2.2271	-2.6979	-6.589	-33.096	246.896	69.378	156.936	185.711	88.768	191.405	90.421	-97.352	120.023	243.624	5.253	256.749	-45.974	154.809	9.7735e-05	0.00032645	0.00020382	534.81	1.0616e-05	1.1112e-06	765.69	120.62	1.1321e-05	3.698e-06	260.91	86.284	27.558	8.2869	8.5286e-06	38.639	0.000671	0.00070472	0.00019418	495.26	7.7992e-06	7.7361e-06	699.7	114.14	8.0194e-06	8.0081e-06	242.32	80.533	28.324	8.5538	7.7811e-06	36.04	239.401	8.921	-7.136	-85.558	64.422	230.054	-84.910	-81.750	136.767	86.475	-82.002	-77.076	-77.444	-71.188	-87.028	-72.564	-8191	255	
2161.688	1	1	0	0	0.1134	0.17302	0.27432	0.2339	0.2865	0.19112	0.23991	0.2426	0.14476	0.073622	0.15169	0.22489	0.16362	0.13622	0.11605	0.13794	-1.9438	-2.2729	-2.7083	-2.2562	-2.4354	-2.7729	-2.0563	-2.5646	-2.4979	-2.2771	-2.7667	-2.2625	-2.6583	-2.7167	-2.2542	-2.6542	234.734	160.870	67.579	163.013	192.318	115.747	187.464	136.273	167.510	31.683	178.972	87.311	3.736	149.455	7.887	203.180	0.00028415	0.00076583	0.00013026	534.23	4.7644e-06	5.9311e-06	761.52	120.69	5.862e-06	1.4917e-06	263.9	86.157	28.25	8.249	5.5831e-06	38.712	0.00068802	0.00072237	0.00020487	495.46	7.8544e-06	7.9701e-06	700.28	114.41	7.8941e-06	7.9116e-06	243.09	80.535	28.519	8.5887	7.7595e-06	36.07	-70.855	-42.397	-10.821	-85.536	64.091	123.712	-85.011	-81.127	63.489	57.627	-82.172	-77.347	-77.295	-71.557	-27.633	-72.528	-8191	255	
2161.807	1	1	0	0	0.076407	0.21698	0.19595	0.24838	0.19405	0.070935	0.26607	0.21446	0.13416	0.15429	0.12605	0.11085	0.10255	0.32757	0.135	0.34689	-1.9396	-2.3167	-2.5896	-2.2229	-2.5521	-2.6646	-2.3333	-2.4667	-2.4125	-2.4313	-2.7562	-2.3958	-2.3708	-2.8	-2.15	-2.6021	97.482	-55.425	19.330	182.566	171.634	-49.138	239.062	103.245	217.800	101.794	37.567	55.931	93.554	117.090	-29.266	170.061	0.00017775	0.00023652	7.3747e-05	535.6	3.7997e-06	4.0954e-06	763.5	121.36	4.036e-06	1.047e-06	261.32	85.983	28.49	8.204	9.2704e-06	38.792	0.00066591	0.00069533	0.00019559	497.49	7.6109e-06	7.8441e-06	701.83	114.55	7.9083e-06	7.9297e-06	242.38	80.562	28.651	8.5387	7.8352e-06	36.141	-66.906	208.088	170.146	-85.396	140.193	-69.436	-84.937	-81.760	244.621	55.842	-82.157	-77.006	-78.146	-71.238	75.797	-72.324	-8191	255	
2161.903	1	1	0	0	0.19494	0.023029	0.1845	0.19497	0.27299	0.31759	0.073127	0.33046	0.23681	0.14761	0.15547	0.25406	0.21372	0.061754	0.051392	0.1098	-2.1063	-2.0896	-2.575	-2.425	-2.2333	-2.6896	-2.4458	-2.5542	-2.4271	-2.2708	-2.6312	-2.3958	-2.2625	-2.6479	-2.2854	-2.5146	112.964	57.651	171.209	-66.677	-26.789	238.227	164.475	171.840	164.690	58.128	-15.011	137.817	231.179	-48.546	203.128	204.627	0.00021056	0.00035614	0.00013971	530.5	3.1715e-06	9.3168e-06	770.58	120.82	5.0211e-06	3.586e-06	265.29	86.977	28.236	8.1354	2.7317e-06	38.587	0.00068669	0.00069977	0.00019609	494.14	7.5834e-06	7.5083e-06	703.47	114.41	7.4498e-06	7.4739e-06	244.17	81.115	28.476	8.521	7.5876e-06	35.991	-57.328	39.006	-0.951	-85.341	135.421	200.161	-85.320	-81.182	126.763	-7.842	-81.780	-77.274	-77.938	-71.530	87.333	-72.290	-8191	255	
2161.999	1	1	0	0	0.095824	0.26993	0.18328	0.13573	0.21857	0.20261	0.10022	0.090709	0.14288	0.098663	0.18008	0.23739	0.22856	0.13688	0.33895	0.11647	-1.9896	-2.0187	-2.4958	-2.4146	-2.1688	-2.7625	-2.4167	-2.3458	-2.5292	-2.1667	-2.6708	-2.6042	-2.0479	-2.775	-2.3333	-2.5104	-52.387	31.986	146.326	-32.115	217.840	211.632	84.555	30.765	81.985	-49.459	112.989	170.265	231.835	183.540	99.091	75.612	0.00016416	0.00041201	0.00012059	539.02	2.852e-06	5.296e-06	765.2	120.67	8.5169e-06	7.9236e-06	264.37	86.767	28.234	8.3601	6.2102e-06	38.93	0.00064475	0.00068881	0.00019764	497.12	7.5209e-06	7.6468e-06	701.17	114.55	7.5252e-06	7.4591e-06	244.33	81.217	28.534	8.6248	7.5452e-06	36.227	-26.753	-74.522	-45.677	-85.163	-96.209	-49.482	-85.348	-81.381	154.300	150.919	-82.127	-77.424	-78.029	-72.059	90.450	-72.517	-8191	255	
2162.095	1	1	0	0	0.09225	0.40109	0.1851	0.030545	0.22672	0.26502	0.15977	0.4097	0.12309	0.047093	0.19201	0.20474	0.18951	0.094254	0.16905	0.12862	-2.1854	-2.1708	-2.5062	-2.3396	-2.1625	-2.6292	-2.5375	-2.275	-2.7458	-2.1792	-2.4437	-2.65	-2.2333	-2.4208	-2.4417	-2.3458	182.160	-10.643	140.195	163.203	-51.786	237.744	172.246	-39.295	114.223	189.071	225.908	204.261	-36.118	223.931	-36.922	170.040	0.00016089	0.0006584	0.00011748	535.86	6.533e-06	8.2833e-06	772.9	120.83	7.107e-06	4.7376e-06	268.63	87.845	28.952	8.3363	8.8777e-06	39.35	0.00067248	0.00069359	0.0001991	496.87	7.5222e-06	7.6538e-06	704.5	114.71	7.4523e-06	7.3119e-06	246.29	81.944	28.712	8.6144	7.3792e-06	36.674	-48.458	-33.241	70.603	-85.672	87.362	135.727	-85.269	-81.370	167.512	255.871	-82.360	-77.355	-77.736	-71.459	80.950	-72.363	-8191	255	
2162.192	1	1	0	0	0.035319	0.21333	0.14232	0.21181	0.19931	0.089216	0.056265	0.1787	0.17458	0.39738	0.1848	0.17681	0.26086	0.17593	0.19106	0.15704	-2.0479	-2.0625	-2.5104	-2.7396	-2.1646	-2.5854	-2.4229	-2.1542	-2.5354	-2.3854	-2.4479	-2.5979	-2.1833	-2.4417	-2.4042	-2.3229	149.298	67.487	101.588	171.160	-69.347	-88.156	195.962	-72.269	211.430	178.670	98.224	-48.948	125.178	219.639	-66.070	167.050	0.0003062	0.00041503	4.6591e-05	544.08	8.8637e-06	3.1036e-06	773.04	122.47	3.4987e-06	7.1164e-06	266.73	88.537	28.352	8.4003	6.1293e-06	39.336	0.00065348	0.00068247	0.00019502	502.02	7.5313e-06	7.7943e-06	706.82	116.01	7.8293e-06	7.8408e-06	246.37	82.59	29.01	8.7315	7.8085e-06	36.665	-95.850	167.414	235.624	-85.718	4.439	-39.622	-84.873	-81.493	-18.135	55.701	-82.161	-77.161	-77.148	-71.490	1.633	-72.650	-8191	255	
2162.288	1	1	0	0	0.056249	0.23162	0.082486	0.19824	0.15313	0.15563	0.30154	0.13315	0.28507	0.23001	0.20932	0.18315	0.1852	0.038278	0.13679	0.32203	-2.0583	-2.2354	-2.4771	-2.5854	-2.2771	-2.6063	-2.575	-2.3333	-2.8042	-2.5292	-2.4188	-2.6646	-2.3063	-2.5563	-2.5333	-2.2375	224.698	256.357	173.664	246.885	133.368	-19.657	14.568	174.032	187.412	118.036	210.185	-66.855	183.964	244.432	27.897	214.579	0.00024291	0.00053408	8.7658e-05	538.7	6.8882e-06	2.9317e-06	771.11	121.05	8.5281e-06	1.0017e-05	266.92	88.512	28.866	8.4875	5.7316e-06	39.101	0.00069467	0.00071589	0.00020402	501.57	7.8989e-06	8.1867e-06	706.03	115.24	8.2277e-06	8.1096e-06	246.26	82.821	29.263	8.8467	8.2079e-06	36.546	-89.794	-39.922	-91.953	-85.293	33.344	-44.915	-85.041	-81.718	-98.136	27.473	-82.388	-76.942	-77.989	-71.651	12.694	-72.532	-8191	255	
2162.408	1	1	0	0	0.067238	0.43191	0.23014	0.1104	0.073309	0.33771	0.16855	0.10566	0.1722	0.23935	0.13778	0.23532	0.14335	0.024016	0.096588	0.30698	-2.4479	-2.2562	-2.4125	-2.7479	-2.0563	-2.7167	-2.8146	-2.3229	-2.7833	-2.575	-2.3438	-2.9854	-2.3042	-2.7229	-2.8646	-2.3979	107.749	-61.133	165.377	219.551	189.144	155.211	-99.704	120.259	248.417	128.573	-9.521	184.192	225.517	-57.586	252.813	151.005	0.00022112	0.00055074	8.5452e-05	542.78	4.3179e-06	8.5779e-06	766.07	121.15	3.3601e-06	4.7178e-06	265.4	88.274	28.16	8.2766	6.7899e-06	38.909	0.00071308	0.00074659	0.00020669	501.07	7.948e-06	8.2409e-06	702.62	115.47	8.2398e-06	8.2975e-06	246.04	82.367	28.913	8.7658	8.2181e-06	36.593	-56.430	-32.831	-71.345	-85.418	22.228	169.360	-85.007	-81.953	-39.647	48.756	-82.029	-76.605	-77.596	-72.209	175.042	-72.425	-8191	255	
2162.503	1	1	0	0	0.28644	0.097206	0.13549	0.091815	0.23733	0.13372	0.05043	0.19178	0.10712	0.048739	0.1773	0.087968	0.059863	0.1883	0.10992	0.27156	-2.3292	-2.35	-2.2271	-2.7208	-2.4313	-2.3417	-2.725	-2.1833	-2.6729	-2.6146	-2.3646	-2.8812	-2.3	-2.5812	-2.7042	-2.4271	-98.864	-71.926	185.103	-38.293	-30.387	-17.042	236.496	31.995	135.672	14.811	200.703	121.511	225.006	85.614	-59.819	-63.386	0.00013864	0.00067904	0.0002217	538.66	4.1453e-06	6.9206e-07	766.52	120.47	4.8502e-06	7.0626e-06	266.72	90.057	29.065	8.4904	2.7798e-06	40.011	0.00069933	0.00072296	0.00019932	494.78	7.5479e-06	7.678e-06	700.02	114.67	7.4641e-06	7.4451e-06	245.85	83.747	28.872	8.7915	7.5318e-06	37.234	-80.422	-18.013	106.911	-85.883	31.446	67.558	-84.932	-82.136	-43.886	78.067	-82.066	-76.956	-77.623	-72.173	-91.301	-72.466	-8191	255	
2162.599	1	1	0	0	0.15117	0.2638	0.17902	0.14555	0.10569	0.097539	0.10553	0.089063	0.13846	0.32323	0.27199	0.27585	0.11543	0.080744	0.026055	0.13066	-2.2875	-2.5146	-2.2687	-2.6792	-2.4188	-2.5479	-2.8479	-2.2687	-2.5312	-2.5104	-2.3438	-2.7729	-2.4062	-2.3375	-2.9562	-2.2375	252.602	251.460	43.733	-63.213	100.264	182.703	196.202	174.320	51.312	75.491	155.511	234.531	44.809	199.165	-97.094	-46.064	9.4575e-05	0.00028969	0.00025444	528.16	1.0983e-05	1.0013e-05	750.48	119.16	3.7935e-06	2.0957e-06	261.39	86.723	28.639	8.3428	3.6931e-06	39.205	0.00070709	0.00074571	0.00020565	492.3	8.2955e-06	8.5452e-06	691.85	113.76	8.3638e-06	8.2651e-06	242.26	81.672	28.979	8.6873	8.1668e-06	36.43	-61.988	67.853	55.367	-85.483	20.664	51.164	-84.957	-81.353	-37.460	120.678	-82.389	-77.383	-77.444	-71.857	9.674	-72.608	-8191	255	
2162.672	1	1	0	0	0.2452	0.08726	0.14444	0.05406	0.33006	0.32158	0.26023	0.14737	0.09336	0.1353	0.076575	0.28344	0.23938	0.22374	0.098491	0.1383	-1.8604	-2.6646	-2.2542	-2.7562	-2.6375	-2.4646	-2.7167	-2.1625	-2.4604	-2.7229	-2.2562	-2.7479	-2.3354	-2.2562	-2.7375	-2.2771	10.015	112.374	37.751	-42.599	70.341	135.524	225.924	38.828	116.941	215.726	-99.045	-76.054	-97.922	257.262	197.224	235.432	0.00022295	0.0013931	0.0001085	528.34	1.3019e-05	8.8072e-06	750.62	118.74	4.8572e-06	1.4692e-06	258.53	85.009	27.726	8.1793	1.9382e-06	38.427	0.00071174	0.00073815	0.00019865	493.61	8.02e-06	8.1918e-06	692.75	113.84	8.4448e-06	8.6955e-06	241.29	79.901	28.692	8.6768	8.5704e-06	36.018	-80.911	-20.464	135.303	-85.255	-70.133	-32.522	-85.105	-81.724	208.030	160.952	-82.148	-77.136	-77.633	-70.787	176.196	-72.855	-8191	255	
2162.791	1	1	0	0	0.21049	0.19708	0.19635	0.083162	0.28109	0.1972	0.082058	0.1819	0.12693	0.13125	0.31599	0.22369	0.16487	0.12956	0.18752	0.1514	-2.0354	-2.4875	-2.325	-2.5417	-2.5542	-2.2917	-2.7521	-2.325	-2.4313	-2.7667	-2.4	-2.6458	-2.4958	-2.2104	-2.5604	-2.3146	-82.898	-0.427	130.617	-98.578	35.281	18.839	-39.030	96.624	-5.016	30.384	-77.816	139.048	144.846	-32.550	-44.540	224.269	0.00018286	0.00039199	0.0001542	541.47	4.6163e-06	1.2468e-05	764.65	121.13	5.2289e-06	4.9568e-06	256.75	83.816	28.099	8.072	7.1824e-06	37.891	0.00078232	0.00082946	0.00022639	503.42	9.3975e-06	9.5169e-06	702.88	116.63	1.0257e-05	1.0594e-05	242.58	80.18	29.776	8.9643	1.0856e-05	36.122	-53.432	104.395	253.799	-85.811	-5.343	7.202	-85.432	-82.104	94.622	52.996	-81.841	-77.080	-77.738	-71.743	67.655	-72.611	-8191	255	
2162.887	1	1	0	0	0.26877	0.18983	0.25125	0.30739	0.25436	0.13703	0.1296	0.095357	0.31467	0.22562	0.11469	0.22999	0.1624	0.20084	0.0969	0.2018	-1.8292	-2.6417	-2.275	-2.6667	-2.6312	-2.3417	-2.7917	-2.5604	-2.4458	-2.8187	-2.4062	-2.4938	-2.5521	-2.3146	-2.7292	-2.7062	217.115	6.671	113.418	214.354	-0.513	177.692	194.969	-66.721	64.462	178.071	183.210	201.840	220.681	207.777	150.331	174.371	0.00011962	0.000663	0.00010022	538.98	3.4827e-06	4.8543e-06	762.57	121.35	4.7641e-06	5.7971e-06	265.11	88.266	28.599	8.2928	1.0854e-05	37.937	0.00092524	0.0009703	0.00026277	505.6	9.9429e-06	9.8929e-06	704.65	117.24	9.9424e-06	1.0028e-05	247.9	83.391	30.455	9.0968	1.1743e-05	36.453	-58.826	-33.324	141.754	-85.448	-3.261	15.429	-85.096	-81.725	168.196	244.415	-82.168	-76.990	-77.615	-70.795	-28.030	-72.209	-8191	255	
2162.983	1	1	0	0	0.18356	0.22809	0.057465	0.0764	0.22781	0.18263	0.2833	0.17271	0.18292	0.075211	0.46775	0.1972	0.13185	0.014661	0.17993	0.2278	-1.775	-2.5667	-2.3	-2.4813	-2.7208	-2.3083	-2.8542	-2.7604	-2.4104	-2.7	-2.3875	-2.5938	-2.7708	-2.2542	-2.5542	-2.6729	-8.035	39.366	254.880	116.076	-94.803	235.841	198.642	-70.613	194.532	-21.260	-84.971	253.028	110.859	199.398	127.973	167.255	0.0001076	8.83e-05	9.2858e-05	533.12	7.9074e-06	5.6225e-06	748.85	119.78	6.1692e-06	8.8197e-06	259.6	87.769	28.202	8.3486	1.4766e-05	38.956	0.0010429	0.0011119	0.00030697	505.65	1.1822e-05	1.1538e-05	696.47	116.82	1.0763e-05	1.0818e-05	244.63	83.282	29.939	9.0768	9.8933e-06	36.901	202.400	-54.381	220.992	-85.242	89.121	-5.396	-84.939	-81.622	54.923	142.341	-82.142	-77.067	-77.900	-70.901	66.979	-72.638	-8191	255	
2163.080	1	1	0	0	0.14609	0.19986	0.071233	0.10265	0.034195	0.15475	0.18343	0.22003	0.16845	0.40912	0.14806	0.14981	0.14735	0.19119	0.27297	0.089644	-1.85	-2.9188	-2.5687	-2.7146	-2.925	-2.5042	-2.8604	-2.6437	-2.4062	-2.9	-2.3458	-2.5208	-2.8375	-2.2812	-2.7667	-2.8417	113.720	-3.114	-81.735	-70.991	34.777	155.169	254.207	108.698	244.650	26.332	158.848	56.584	99.692	190.955	189.369	132.183	0.00011943	0.00079447	0.00021862	534.62	8.1841e-06	4.8975e-06	758.03	119.13	8.0941e-06	8.1205e-06	260.45	87.906	28.439	8.2708	1.1015e-05	39.485	0.00083479	0.00089909	0.0002463	497.63	9.6816e-06	9.5886e-06	696.7	115.19	9.2497e-06	9.3603e-06	243.98	82.425	29.314	8.7777	8.5662e-06	36.921	-9.660	-15.652	7.575	-85.142	-2.752	252.927	-85.254	-81.536	167.384	-1.074	-82.321	-76.967	-77.334	-71.113	40.539	-72.411	-8191	255	
2163.176	1	1	0	0	0.20368	0.13356	0.12477	0.24107	0.081005	0.17823	0.092052	0.19433	0.27904	0.15819	0.15147	0.16529	0.2258	0.12811	0.048813	0.25502	-1.8146	-2.9188	-2.5708	-2.4771	-2.9417	-2.5062	-2.775	-2.8229	-2.1979	-2.9313	-2.4875	-2.3292	-2.8229	-2.3625	-2.6542	-2.8187	217.891	-44.223	-28.346	-98.467	40.004	183.161	-43.691	-26.156	94.815	73.898	148.012	248.745	143.466	-68.747	209.268	210.778	0.00024549	0.00034939	0.00010089	531.99	1.4107e-05	4.5051e-06	760.82	117.92	4.9055e-06	6.5662e-06	259.99	86.417	27.959	8.3662	5.8828e-06	39.009	0.00073745	0.0007753	0.000216	495.92	8.5945e-06	8.5325e-06	698.39	113.79	8.5965e-06	8.8448e-06	242.19	81.041	28.703	8.7546	8.4928e-06	36.632	-50.219	83.918	9.473	-84.948	73.656	-24.874	-84.931	-81.658	60.177	106.057	-81.992	-76.782	-77.710	-71.570	62.466	-72.603	-8191	255	
2163.272	1	1	0	0	0.23818	0.10779	0.20716	0.26312	0.15335	0.16163	0.17522	0.053075	0.20381	0.15608	0.16279	0.15572	0.13874	0.16964	0.031987	0.099615	-1.9667	-2.5646	-2.55	-2.2646	-2.8229	-2.6625	-2.7604	-2.5729	-2.3396	-2.6604	-2.5438	-2.2938	-2.8042	-2.5208	-2.3729	-2.8792	57.717	258.852	142.770	91.532	248.449	-25.454	183.449	-58.885	103.925	-64.996	258.369	-2.230	-52.696	-45.320	-10.279	122.930	0.00013121	0.00044587	0.00018581	533.1	3.3454e-06	3.6824e-06	763.93	120.64	8.568e-07	1.1094e-05	259.27	85.684	27.661	8.1458	5.5063e-06	38.661	0.00070191	0.00075626	0.00021007	494.1	8.2807e-06	8.356e-06	700.33	114.63	8.4593e-06	8.8859e-06	242.24	80.635	28.733	8.6815	9.1305e-06	36.133	-99.616	241.232	7.524	-85.834	16.673	-25.294	-85.164	-81.803	115.257	167.738	-81.955	-77.769	-77.770	-71.643	48.111	-72.105	-8191	255	
2163.368	1	1	0	0	0.13491	0.22762	0.18022	0.19097	0.17607	0.19809	0.10142	0.13284	0.3899	0.034826	0.16942	0.16876	0.19524	0.18218	0.29413	0.054714	-1.7792	-2.6333	-2.55	-2.375	-2.7438	-2.3875	-2.4938	-2.8146	-2.2958	-2.5375	-2.7125	-2.5146	-2.8	-2.7146	-2.3667	-2.9938	-9.283	161.939	14.439	199.337	120.387	208.878	185.246	253.729	-11.473	50.800	235.430	-14.585	214.086	62.449	0.517	-88.547	0.00013729	0.00046395	0.00014765	531.41	1.2432e-05	7.5696e-06	764.82	120.48	6.1592e-06	6.2593e-06	262.75	87.329	28.238	8.4065	8.1402e-06	38.896	0.00076886	0.00082613	0.00022288	495.92	8.6184e-06	8.597e-06	701.41	115.2	8.3349e-06	8.6564e-06	244.69	81.537	29.13	8.7936	8.6569e-06	36.434	-80.885	12.094	253.859	-85.466	129.247	-3.711	-84.946	-81.443	66.600	9.835	-82.167	-77.369	-77.821	-72.058	-59.957	-73.037	-8191	255	
2163.489	1	1	0	0	0.15442	0.31439	0.11961	0.28256	0.083463	0.11504	0.21557	0.11335	0.26834	0.020349	0.16603	0.053974	0.29557	0.16444	0.082617	0.17686	-2.0021	-2.6437	-2.6208	-2.4229	-2.9167	-2.3896	-2.525	-2.8625	-2.3167	-2.4229	-2.8375	-2.2313	-2.6896	-2.3	-2.2375	-2.8396	-2.316	48.925	55.510	242.161	22.215	-2.013	225.069	127.815	-74.831	179.684	-18.155	124.918	-1.308	-55.115	-97.809	43.584	5.1566e-05	0.00051584	0.00018256	535.53	5.5074e-06	8.1115e-06	766.94	120.78	3.0103e-06	6.3673e-06	265.08	89.566	29.013	8.6574	4.4067e-06	39.21	0.00073891	0.00079418	0.00021788	496.95	8.3976e-06	8.3805e-06	704.19	115.64	8.2937e-06	8.568e-06	247.48	83.387	29.526	8.8906	8.3412e-06	36.872	-89.331	-53.484	45.734	-85.551	136.865	24.437	-85.080	-81.349	68.125	199.675	-82.342	-76.994	-77.181	-70.863	129.171	-72.417	-8191	255	
2163.585	1	1	0	0	0.075484	0.11572	0.03146	0.019946	0.1716	0.05302	0.13917	0.26528	0.10706	0.26495	0.39453	0.1536	0.024461	0.19249	0.16072	0.088674	-1.8125	-2.5604	-2.7167	-2.3063	-2.6188	-2.45	-2.3667	-2.8208	-2.4396	-2.4313	-2.85	-2.3271	-2.5958	-2.5729	-2.3771	-2.9146	2.382	-73.593	244.103	-80.319	-31.093	41.382	200.181	257.342	-32.093	11.511	198.947	-74.849	-46.560	222.054	142.678	-0.864	9.8336e-05	0.00051838	0.00022177	540.54	4.7499e-06	4.999e-06	776.08	123.12	7.1984e-06	2.8869e-06	269.3	91.326	29.893	8.6239	1.081e-05	40.688	0.00072499	0.00077131	0.00020919	502.82	8.3248e-06	8.2151e-06	710.37	117.09	8.0257e-06	8.2297e-06	250	85.394	30.063	9.0345	7.7946e-06	37.878	-90.755	-63.255	-7.222	-85.323	-3.655	-6.381	-85.195	-81.857	145.907	220.058	-82.194	-77.177	-77.719	-71.643	71.105	-72.933	-8191	255	
2163.679	1	1	0	0	0.42608	0.17108	0.22611	0.13455	0.28649	0.12812	0.10335	0.16022	0.15268	0.091318	0.14195	0.18023	0.14697	0.18989	0.043148	0.17882	-2.2229	-2.3146	-2.8458	-2.2771	-2.4604	-2.6958	-2.2604	-2.6229	-2.5458	-2.3729	-2.8812	-2.4	-2.6771	-2.7062	-2.3521	-2.9771	212.205	127.319	32.416	153.880	-87.532	250.525	-49.950	35.506	194.842	-46.178	235.139	-77.363	255.975	125.826	157.189	-77.015	0.00010936	0.00019886	0.00024439	548.42	4.1383e-06	4.194e-06	782.46	123.29	1.1392e-06	1.3008e-05	270.08	91.391	29.488	8.7863	8.497e-06	40.914	0.00067483	0.00070448	0.00019119	505.67	7.4641e-06	7.3043e-06	713.46	117	7.4171e-06	7.5318e-06	249.56	84.661	29.737	8.9778	7.0179e-06	38.017	-83.317	3.961	87.189	-85.125	-70.736	-19.611	-84.608	-81.979	185.373	55.481	-82.166	-77.023	-77.711	-71.768	-4.237	-72.857	-8191	255	
2163.777	1	1	0	0	0.31955	0.22429	0.22146	0.30171	0.11629	0.10925	0.24989	0.15882	0.10046	0.22248	0.067518	0.090613	0.31383	0.34809	0.10487	0.25668	-2.225	-2.3688	-2.825	-2.3271	-2.7542	-2.8479	-2.4646	-2.7938	-2.7854	-2.4292	-2.8583	-2.5125	-2.6854	-2.8479	-2.3875	-2.7583	69.024	192.865	38.093	246.500	95.628	113.176	127.672	149.869	63.501	-26.238	-6.628	-18.388	48.367	210.570	-12.794	179.461	0.00010785	0.00021694	0.0002383	543.25	7.1643e-06	1.2948e-06	791.53	126.49	4.6625e-07	3.6065e-06	276.06	92.893	29.893	9.0266	7.2993e-06	41.506	0.00062045	0.00064197	0.00017824	501.92	7.0396e-06	6.8279e-06	719.21	118.56	6.6142e-06	6.683e-06	252.84	85.975	29.759	9.0297	6.5232e-06	38.371	-51.860	102.630	26.540	-85.679	111.157	134.139	-84.839	-81.656	221.203	47.907	-82.157	-77.195	-77.451	-71.419	52.184	-72.980	-8191	255	
2163.896	1	1	0	0	0.23863	0.055978	0.17873	0.05901	0.10674	0.27899	0.15545	0.1465	0.23714	0.30327	0.24529	0.258	0.13515	0.091897	0.090336	0.40887	-2.1167	-2.275	-2.925	-2.6271	-2.65	-2.7687	-2.4792	-2.6625	-2.7542	-2.3333	-2.8937	-2.6333	-2.5396	-2.6917	-2.3208	-2.6083	-64.918	69.688	136.861	215.486	-9.157	13.173	194.180	-95.999	169.245	-18.079	153.405	52.775	142.751	-14.813	-97.068	175.287	0.00010505	0.00032896	5.1386e-05	551.34	4.2016e-06	5.4249e-06	794.5	126.78	1.3873e-06	1.6907e-06	277.06	93.484	29.843	9.1611	1.3351e-05	42.527	0.00057168	0.00059931	0.00016971	506.12	6.6995e-06	6.6166e-06	721.05	118.69	6.3475e-06	6.3946e-06	254.34	86.648	29.663	9.111	5.953e-06	38.934	-83.071	-49.718	125.507	-85.470	109.150	16.952	-85.436	-81.622	179.685	34.491	-82.075	-77.490	-77.155	-71.375	69.032	-72.696	-8191	255	
2163.968	1	1	0	0	0.15111	0.18715	0.22825	0.27135	0.179	0.076777	0.20277	0.11942	0.29467	0.015448	0.27915	0.21975	0.14354	0.093748	0.13419	0.14632	-2.1667	-2.2854	-2.8187	-2.6146	-2.2604	-2.8479	-2.5812	-2.7938	-2.7104	-2.4792	-2.7896	-2.55	-2.3375	-2.6875	-2.5354	-2.7375	253.555	-40.589	34.047	33.342	82.229	211.255	231.111	97.599	54.163	244.492	128.073	248.606	72.338	146.505	122.854	194.408	0.00020462	0.00022289	0.00025791	551.7	3.0646e-06	3.1323e-06	792.41	128.03	7.161e-06	5.3571e-06	281.93	94.707	30.617	9.1288	4.4667e-06	42.694	0.00054336	0.00054662	0.00015666	505.01	6.2534e-06	6.3328e-06	720.77	118.66	5.9594e-06	5.769e-06	256.26	87.231	29.805	9.0515	5.573e-06	39.21	258.788	223.370	-40.488	-86.014	46.939	57.676	-84.886	-81.304	30.162	-68.713	-82.146	-77.540	-77.435	-71.960	120.956	-72.639	-8191	255	
2164.088	1	1	0	0	0.13205	0.1689	0.11667	0.17842	0.19508	0.12491	0.14752	0.11136	0.19458	0.19332	0.059083	0.098778	0.089951	0.25541	0.23619	0.09952	-2.1854	-2.2354	-2.8042	-2.5021	-2.3583	-2.6271	-2.55	-2.4708	-2.7708	-2.1521	-2.8187	-2.6542	-2.2208	-2.7125	-2.45	-2.725	-78.179	80.759	-79.676	-52.246	63.097	66.807	209.518	185.883	118.571	209.806	184.582	34.338	70.987	-23.304	240.802	111.939	0.0002871	0.00040372	0.00029787	548.48	2.3924e-06	2.2177e-06	798.18	126.3	6.8188e-06	2.4687e-06	279.91	95.209	30.277	9.264	6.4719e-06	42.754	0.00049741	0.00049215	0.0001424	502.62	5.5134e-06	5.4842e-06	721.43	117.96	5.4189e-06	5.3889e-06	256.03	87.404	29.539	9.0781	5.42e-06	39.27	-47.559	-10.216	-8.189	-85.747	83.937	183.646	-84.786	-82.166	183.078	-5.782	-82.228	-77.130	-77.874	-72.080	172.353	-72.606	-8191	255	
2164.184	1	1	0	0	0.2315	0.12477	0.15093	0.15119	0.20986	0.070425	0.49448	0.1363	0.24882	0.052313	0.17228	0.083227	0.077707	0.14969	0.087146	0.13662	-2.2375	-2.2229	-2.6125	-2.75	-2.1979	-3.0417	-2.4104	-2.3625	-2.7917	-2.3979	-2.6937	-2.4792	-2.1104	-2.65	-2.5354	-2.2833	-72.805	108.762	164.447	-49.686	221.347	62.215	188.187	9.516	168.915	-44.551	200.291	191.006	98.804	7.015	96.652	157.573	0.00012139	0.00076785	6.9749e-05	553.98	6.2216e-06	2.7553e-06	800.4	127.98	7.2569e-06	5.273e-06	281.45	95.552	30.238	9.1304	5.9261e-06	42.925	0.00047835	0.00047571	0.00013775	505.13	5.0703e-06	5.1909e-06	726.91	118.71	5.2149e-06	5.0929e-06	257.57	87.364	29.453	9.023	5.5017e-06	39.304	-78.588	121.045	109.206	-85.338	17.197	33.628	-85.061	-81.498	129.267	-13.139	-82.148	-77.174	-78.066	-71.354	108.052	-72.358	-8191	255	
2164.281	1	1	0	0	0.13926	0.1422	0.26021	0.26656	0.15374	0.21324	0.40389	0.27119	0.17577	0.31209	0.14344	0.15606	0.032074	0.048518	0.085245	0.10127	-2.3937	-2.0417	-2.6562	-2.7042	-2.3812	-2.6875	-2.6813	-2.4042	-2.8917	-2.5208	-2.7146	-2.85	-2.2896	-2.7917	-2.8	-2.3937	171.636	146.936	-30.416	145.253	118.749	156.342	154.071	-83.551	-21.742	217.311	121.896	195.191	-48.932	178.979	64.382	-33.627	0.00017886	0.00031637	0.00023389	556.73	3.9781e-06	1.571e-06	809.63	127.7	1.1119e-06	3.5937e-06	283.72	96.268	30.818	9.3483	1.1552e-05	43.557	0.00050024	0.00051237	0.00014216	507.71	5.4932e-06	5.5592e-06	729.6	119.5	5.325e-06	5.3872e-06	259.11	88.236	29.795	9.1613	5.2232e-06	39.851	255.356	145.984	-66.477	-85.503	67.664	55.168	-85.512	-81.701	146.189	77.156	-82.335	-77.306	-77.152	-72.221	-34.014	-73.011	-8191	255	
2164.377	1	1	0	0	0.23206	0.13012	0.029951	0.28846	0.14852	0.1229	0.24536	0.17578	0.26344	0.26956	0.12299	0.1738	0.12223	0.17335	0.077108	0.021502	-2.5583	-2.5271	-2.4708	-2.7833	-2.4062	-2.7313	-2.5583	-2.325	-2.8042	-2.4875	-2.4875	-2.7875	-2.3896	-2.5896	-2.5125	-2.4875	-36.714	-95.457	165.474	-63.189	210.377	-84.683	229.866	167.732	110.155	103.195	120.676	252.711	71.314	-50.446	87.774	252.507	0.00017644	0.00075212	9.0301e-05	558.78	7.3082e-06	8.2015e-06	812	129.28	4.0567e-06	3.9886e-06	286.75	95.923	30.625	9.3526	4.7678e-06	43.366	0.00047586	0.00048661	0.00013799	510.12	5.2743e-06	5.4073e-06	733.96	119.91	5.3904e-06	5.3762e-06	261.2	88.068	29.749	9.1492	5.3098e-06	39.768	-82.375	219.279	15.843	-85.412	-13.243	-4.602	-84.897	-82.105	-34.803	57.461	-82.066	-77.255	-77.177	-71.323	64.331	-72.590	-8191	255	
2164.497	1	1	0	0	0.20529	0.088734	0.25807	0.14523	0.228	0.16073	0.14588	0.24934	0.18709	0.081133	0.097986	0.13116	0.33126	0.13453	0.16696	0.15567	-2.3875	-2.4792	-2.3771	-2.9313	-2.4667	-2.6813	-2.9708	-2.4896	-2.7375	-2.5146	-2.4146	-2.8354	-2.3167	-2.5687	-2.7438	-2.3833	223.367	-60.239	-20.385	-49.960	31.274	150.346	-42.246	176.868	72.492	-88.113	232.167	257.062	142.413	205.898	-1.613	105.114	0.00016704	0.00057696	0.0001359	559.06	3.7246e-06	3.9299e-06	813.15	131.1	6.7738e-06	6.238e-07	291.8	96.311	30.609	9.3968	4.3776e-06	43.936	0.00047202	0.00049154	0.00013587	512.45	5.1865e-06	5.3934e-06	733.94	120.55	5.1993e-06	5.2479e-06	263.06	88.229	29.622	9.1116	5.0906e-06	39.997	-41.873	-9.530	253.594	-85.423	110.904	21.749	-85.268	-81.531	149.627	84.665	-81.888	-77.320	-77.582	-71.619	197.515	-72.557	-8191	255	
2164.569	1	1	0	0	0.14136	0.098694	0.11966	0.32753	0.063049	0.017017	0.40469	0.057085	0.17905	0.074902	0.092266	0.07557	0.13774	0.10892	0.055657	0.1722	-2.1708	-2.4167	-2.2208	-2.8146	-2.2646	-2.5812	-2.8979	-2.3667	-2.7958	-2.6417	-2.375	-2.8229	-2.3167	-2.4313	-2.7292	-2.5083	18.625	143.576	91.727	-94.996	-15.045	105.017	176.950	44.068	28.784	5.001	204.206	235.936	111.760	136.585	214.204	176.148	0.00021287	0.00069767	0.00011702	558.57	4.98e-06	6.4134e-06	814.89	129.55	4.0474e-06	5.1256e-06	287.73	96.009	30.558	9.3905	4.4246e-06	44.208	0.00045604	0.00046281	0.00012838	510.05	4.9286e-06	5.1249e-06	734.55	119.53	4.9451e-06	4.7789e-06	260.72	88.142	29.278	9.0443	4.6104e-06	40.243	-72.225	0.264	16.189	-86.046	157.461	120.190	-85.057	-81.860	-6.156	38.345	-81.789	-77.017	-76.924	-71.577	-0.004	-72.841	-8191	255	
2164.665	1	1	0	0	0.24924	0.15292	0.2377	0.26257	0.041019	0.13125	0.36355	0.161	0.23006	0.34753	0.096755	0.12453	0.24403	0.16352	0.28077	0.23618	-2.1375	-2.525	-2.2104	-2.6958	-2.3979	-2.3875	-2.8688	-2.1667	-2.6688	-2.5812	-2.3542	-2.8937	-2.525	-2.5062	-2.6833	-2.3021	112.811	99.657	173.711	140.131	34.533	27.446	156.498	-63.806	-65.045	234.699	53.542	-64.150	-43.475	211.850	-67.745	243.386	0.00010796	0.00033584	0.00012202	562.45	2.06e-06	4.8828e-06	810.43	130.33	7.2899e-07	2.0469e-06	289.91	96.882	30.242	9.4306	2.3347e-06	44.151	0.00041022	0.00041352	0.00011411	511.19	4.4005e-06	4.4709e-06	734.62	119.25	4.3958e-06	4.2969e-06	261.67	88.106	29.039	9.0491	4.2204e-06	40.186	-64.970	-49.974	-31.801	-85.718	-2.886	156.298	-85.405	-81.689	161.748	95.023	-82.284	-76.573	-78.020	-71.844	-49.476	-72.652	-8191	255	
2164.760	1	1	0	0	0.14866	0.20925	0.20875	0.1413	0.12965	0.21763	0.26821	0.33145	0.069579	0.15053	0.20622	0.20761	0.080879	0.18291	0.092045	0.15579	-2.3063	-2.5625	-2.2438	-2.8187	-2.4521	-2.2562	-2.9729	-2.3438	-2.5062	-2.7208	-2.2917	-2.8292	-2.5646	-2.3333	-3.0417	-2.6854	78.259	248.260	180.271	-61.571	139.042	-94.734	216.412	117.187	205.387	79.681	153.464	-65.494	163.936	209.872	0.633	160.098	0.00014394	0.00070362	0.00021564	569.14	2.6908e-06	1.8528e-06	816.13	129.6	3.4216e-06	2.7265e-06	289.95	97.5	30.889	9.415	6.5092e-06	44.853	0.00037634	0.00037276	0.00010278	512.54	4.0223e-06	4.1334e-06	736.07	118.77	4.0883e-06	4.06e-06	261.32	88.846	29.303	9.0949	4.1787e-06	40.739	-95.943	201.525	-46.939	-85.611	-38.540	55.456	-85.081	-81.909	172.912	77.827	-82.063	-77.170	-77.296	-71.581	42.040	-72.830	-8191	255	
2164.857	1	1	0	0	0.1632	0.22791	0.024811	0.05693	0.17168	0.085459	0.13287	0.26047	0.071994	0.1563	0.20917	0.028954	0.07627	0.17411	0.16448	0.27817	-2.0583	-2.7521	-2.175	-2.6729	-2.5875	-2.3563	-2.9229	-2.3812	-2.4083	-2.7229	-2.4271	-2.6708	-2.5042	-2.2271	-2.85	-2.8021	17.205	151.466	171.235	-87.506	-26.778	4.770	252.863	152.992	103.077	3.371	247.225	165.258	-63.103	-24.111	123.988	-67.380	0.00013752	0.00061601	8.6987e-05	571.28	2.969e-06	5.9608e-06	824.24	131.41	1.7132e-06	9.0258e-06	295.01	99.087	31.29	9.7264	1.5048e-06	45.695	0.00037651	0.00036651	0.00010409	515.05	4.0103e-06	4.1217e-06	742.02	120.31	4.0373e-06	3.8969e-06	264.63	89.999	29.536	9.2268	3.8932e-06	41.423	-77.224	-48.655	-34.703	-85.546	29.870	24.660	-85.127	-81.808	92.003	119.370	-81.982	-76.956	-77.082	-71.918	160.729	-72.749	-8191	255	
2164.976	1	1	0	0	0.14322	0.12292	0.076281	0.15577	0.077484	0.12162	0.24464	0.1213	0.27488	0.239	0.22325	0.21586	0.15862	0.096875	0.2983	0.18104	-2.0938	-2.7229	-2.3958	-2.625	-2.5625	-2.1146	-2.825	-2.5312	-2.5438	-2.825	-2.3479	-2.8396	-2.5333	-2.1792	-2.6604	-2.6375	253.553	-30.810	-77.530	214.911	-40.493	-6.983	245.336	171.458	50.601	-61.686	104.490	231.941	-76.414	149.996	246.300	245.875	0.00013372	0.00072699	0.00016314	574.54	6.9453e-06	3.2775e-06	834.7	133.66	7.1624e-06	4.6128e-06	295.62	100.1	31.578	9.641	1.1303e-06	45.722	0.00035404	0.00035774	9.7532e-05	520.37	3.8735e-06	3.8339e-06	748.75	121.32	3.8986e-06	3.9004e-06	265.96	90.894	29.772	9.2847	3.936e-06	41.458	-85.546	3.402	56.173	-85.877	89.984	47.841	-85.219	-81.417	94.963	39.879	-82.285	-77.116	-77.260	-71.293	104.096	-72.840	-8191	255	
2165.073	1	1	0	0	0.16725	0.13196	0.22699	0.21213	0.19173	0.057952	0.10872	0.098765	0.18169	0.057131	0.29107	0.2125	0.29696	0.079538	0.12322	0.22116	-1.9521	-2.8354	-2.375	-2.5479	-2.7875	-2.3375	-2.7313	-2.4875	-2.4854	-2.6437	-2.3292	-2.5042	-2.6229	-2.3083	-2.8354	-2.5667	55.317	-63.747	189.329	210.038	141.944	138.617	-81.326	68.405	16.656	167.892	181.619	236.625	181.638	160.541	219.908	-65.078	0.000221	0.00049631	0.00010953	572.35	1.0907e-06	2.2198e-06	827.96	133.32	3.9585e-06	4.6893e-06	296.11	100.1	31.599	9.8858	3.5349e-06	45.462	0.00034677	0.00034925	9.401e-05	518.93	3.6191e-06	3.7088e-06	747.93	121.6	3.7041e-06	3.7689e-06	266.88	91.017	29.843	9.3431	3.8558e-06	41.301	-79.400	-96.882	149.135	-85.577	-85.875	-89.944	-85.276	-81.821	97.549	76.220	-82.068	-77.511	-77.577	-71.342	218.810	-72.797	-8191	255	
2165.169	1	1	0	0	0.15523	0.10345	0.12344	0.18601	0.16696	0.17703	0.12321	0.07304	0.12224	0.23752	0.18209	0.11349	0.30437	0.054643	0.2178	0.34286	-1.8125	-2.7083	-2.6021	-2.6292	-2.55	-2.4062	-2.7313	-2.8063	-2.5333	-2.7042	-2.3979	-2.5062	-2.7313	-2.3625	-2.7521	-2.6729	-81.959	159.271	91.863	215.434	102.513	19.429	197.726	-52.009	211.337	69.027	187.087	-66.103	-94.268	202.522	229.185	139.814	0.0001646	0.00084158	9.2622e-05	578.32	4.2146e-06	4.0131e-06	833.13	133.53	2.4158e-06	3.6554e-06	296.52	100.65	31.79	9.9557	1.0306e-05	45.91	0.00033906	0.00034277	9.3523e-05	522.02	3.6644e-06	3.6138e-06	751.29	121.94	3.5888e-06	3.7959e-06	267.99	91.227	30.135	9.347	3.7552e-06	41.532	-40.406	-38.157	-27.319	-85.598	118.329	-24.826	-84.972	-81.611	111.881	240.732	-82.056	-76.957	-76.879	-70.669	69.889	-72.956	-8191	255	
2165.265	1	1	0	0	0.080973	0.1547	0.19646	0.23242	0.30655	0.1829	0.099287	0.077181	0.07006	0.080883	0.31339	0.30326	0.33652	0.16808	0.35708	0.17467	-1.8042	-2.9188	-2.5938	-2.5021	-2.8167	-2.475	-2.7021	-2.7479	-2.2188	-2.7	-2.5021	-2.3104	-2.7083	-2.4167	-2.6104	-2.7896	-7.604	65.498	15.042	236.678	51.206	78.558	214.703	-51.962	76.175	179.790	202.554	178.801	-97.592	133.560	-31.269	192.634	0.00017358	0.00015412	0.00017057	578.97	4.3096e-06	1.0586e-05	837.62	131.94	1.7176e-06	4.0654e-06	294.2	98.348	31.274	9.5897	7.2043e-06	45.166	0.00034294	0.00035301	9.6305e-05	521.74	3.9467e-06	3.9175e-06	747.34	120.68	3.8268e-06	3.9854e-06	264.84	89.787	29.699	9.2269	4.2609e-06	41.158	-76.483	253.279	68.619	-85.344	84.616	24.793	-85.266	-81.673	65.366	196.558	-82.472	-77.073	-77.450	-71.857	33.921	-72.698	-8191	255	
2165.361	1	1	0	0	0.21703	0.098718	0.070471	0.07549	0.22484	0.06145	0.28396	0.26898	0.086428	0.24237	0.14189	0.23208	0.10726	0.22686	0.21883	0.24171	-1.8979	-2.6479	-2.3396	-2.4458	-2.9083	-2.4292	-2.6917	-2.6271	-2.2542	-2.7646	-2.5854	-2.4104	-2.8208	-2.4021	-2.5208	-2.8271	248.960	-38.096	103.863	-45.418	186.189	38.978	190.960	159.663	54.307	118.957	217.003	-91.362	-54.789	209.411	217.797	137.888	0.00017171	0.00059893	0.00020731	576.67	4.642e-06	4.3429e-06	828.35	131.07	8.7009e-07	2.9444e-06	285.68	95.527	30.764	9.4897	7.0145e-06	43.98	0.00037636	0.00039646	0.00010905	521.56	4.3922e-06	4.4995e-06	744.24	120.77	4.5225e-06	4.773e-06	260.57	86.973	29.551	9.1452	4.6314e-06	40.111	255.795	24.510	-94.204	-85.478	123.714	78.879	-84.905	-81.458	142.007	1.517	-82.289	-76.895	-77.899	-71.181	120.308	-73.167	-8191	255	
2165.457	1	1	0	0	0.147	0.29958	0.18313	0.33068	0.068153	0.18647	0.0367	0.20996	0.38804	0.024422	0.18674	0.039685	0.15381	0.14634	0.17889	0.27936	-1.9604	-2.6688	-2.6354	-2.4375	-2.7833	-2.3521	-2.675	-2.8187	-2.3604	-2.7854	-2.8542	-2.2333	-2.7687	-2.3854	-2.2687	-2.8167	-59.565	102.983	74.273	210.595	11.095	23.624	223.133	-10.478	251.671	-77.029	248.932	106.091	225.135	69.701	233.379	193.999	0.00016494	0.00060026	0.00019356	586.6	7.6879e-06	8.1334e-06	838.6	134.38	1.8633e-06	4.1155e-06	289.99	94.631	30.728	9.2974	2.6471e-06	42.679	0.00039814	0.00041215	0.00011144	529.05	4.4487e-06	4.3551e-06	754.16	123.33	4.4265e-06	4.7281e-06	262.1	86.315	29.485	9.0368	4.9693e-06	38.979	-77.173	58.109	-15.507	-85.437	49.291	19.958	-84.877	-81.762	112.974	-49.659	-81.990	-77.257	-77.554	-71.583	54.226	-72.730	-8191	255	
2165.578	1	1	0	0	0.15351	0.23903	0.036216	0.21381	0.2636	0.14642	0.37753	0.19939	0.12489	0.18448	0.11165	0.25539	0.15264	0.027543	0.081577	0.13331	-2.0125	-2.5	-2.6813	-2.2583	-2.7313	-2.4771	-2.6083	-2.8563	-2.5271	-2.6708	-2.8042	-2.5208	-2.6667	-2.6354	-2.2917	-2.8	258.962	45.193	-4.381	257.285	250.542	-43.924	195.094	41.496	-30.068	135.172	127.003	-97.490	162.706	210.128	-34.300	252.043	0.00026937	0.00050501	0.00018934	575.77	3.6634e-06	4.9647e-06	820.84	130.6	4.7496e-06	3.5907e-06	283.69	91.483	29.995	8.9392	3.6791e-06	40.954	0.00044428	0.00045389	0.00012809	523.99	5.0757e-06	4.8953e-06	742.47	120.5	4.92e-06	5.0789e-06	256.92	83.823	29.132	8.9017	5.8979e-06	37.837	-91.272	-92.502	-0.444	-85.461	37.940	4.260	-84.964	-81.926	58.327	6.725	-81.983	-77.276	-77.866	-71.291	-18.644	-72.703	-8191	255	
2165.672	1	1	0	0	0.13127	0.06018	0.067678	0.058064	0.10265	0.099359	0.28919	0.33955	0.049973	0.25389	0.14599	0.16953	0.036447	0.24238	0.20383	0.090766	-1.9375	-2.4875	-2.7375	-2.2167	-2.7333	-2.525	-2.4354	-2.6146	-2.4354	-2.5771	-2.7292	-2.2979	-2.7438	-2.8271	-2.1646	-2.9667	27.454	104.995	68.519	96.857	103.648	90.576	189.943	183.853	-95.062	9.874	180.496	211.190	130.479	127.142	-74.140	239.858	0.00011332	0.00045248	0.00024308	583.28	1.0306e-05	4.149e-06	809.89	127.99	2.2358e-06	5.0586e-06	271.84	85.663	28.47	8.586	3.2709e-06	40.273	0.00054301	0.00060735	0.00017033	532.59	6.5773e-06	6.3776e-06	735.1	119.59	6.1345e-06	6.2911e-06	249.61	79.37	28.307	8.6219	5.8929e-06	36.891	243.823	204.336	254.379	-85.643	26.396	-45.781	-85.223	-81.391	-18.003	9.295	-82.251	-76.961	-77.296	-71.243	20.053	-72.920	-8191	255	
2165.768	1	1	0	0	0.24932	0.030836	0.098368	0.15206	0.1537	0.031437	0.25277	0.10371	0.25062	0.3564	0.090339	0.11559	0.11226	0.2193	0.13309	0.32045	-2.0833	-2.5833	-2.9667	-2.5062	-2.6875	-2.7125	-2.2854	-2.8104	-2.5667	-2.4562	-2.9375	-2.4271	-2.675	-2.6021	-2.2833	-2.8542	60.758	-84.679	100.044	215.010	-59.754	-91.721	72.585	198.373	-78.026	94.429	131.142	235.888	-83.393	72.301	239.431	205.123	0.00020838	0.00064926	0.00014887	584.8	1.1088e-05	9.7069e-06	812.3	128.57	2.3007e-06	1.0271e-05	268.13	83.152	27.813	8.4757	2.4137e-06	39.916	0.00051948	0.00053918	0.00015172	532.16	5.8776e-06	5.9587e-06	737.55	119.95	6.0234e-06	6.1375e-06	246.56	77.284	27.777	8.462	5.6701e-06	36.822	-50.200	70.126	196.649	-85.655	-27.464	82.062	-84.926	-82.155	109.700	-33.406	-82.626	-77.267	-77.896	-71.805	-4.050	-72.702	-8191	255	
2165.864	1	1	0	0	0.18965	0.037205	0.25886	0.24904	0.39495	0.17829	0.097077	0.30649	0.03968	0.22392	0.20828	0.086624	0.14928	0.17734	0.13279	0.1104	-2.0771	-2.3896	-2.7729	-2.4833	-2.525	-2.6979	-2.3625	-2.6562	-2.5042	-2.4229	-2.9125	-2.3542	-2.5125	-2.8063	-2.3021	-2.7021	-40.822	-5.387	118.485	256.460	194.185	-45.467	189.926	-75.830	-61.492	177.538	165.874	44.433	164.685	-69.175	242.928	191.691	0.00024334	0.00069053	0.00015258	587.26	7.6258e-06	4.3412e-06	838.64	130.92	3.7845e-06	2.0143e-06	284.11	90.318	30.247	9.0225	2.178e-06	42.655	0.00047992	0.00048018	0.00012986	533.94	4.9423e-06	4.8983e-06	752.44	121.03	4.7799e-06	4.8229e-06	257.2	83.148	28.907	8.7711	4.492e-06	38.837	-44.118	-19.641	51.699	-85.281	66.055	121.476	-85.260	-81.222	84.604	-88.059	-82.196	-77.257	-78.352	-72.131	253.991	-72.767	-8191	255	
#DATA ENDS
