BOXY.EXE: ISS Imagent and Oximeter Data Acquisition Program Version 0.80
Ascii Record File

#ACQ INFORMATION
2  Detector Channels 
16  External MUX Channels 
1  Auxiliary Channels 
5000  Waveform (CCF) Frequency (Hz)
1  Waveforms Skipped 
30  Waveforms Averaged 
1  Cycles Averaged 
16  Acquisitions per Waveform 
10.0806  Updata Rate (Hz) 

#FILE INFORMATION
TRUE -- External MUX Channel results are PARSED.
FALSE -- AC DC and Phase are NOT grouped.
TRUE -- Companion Program Settings File CREATED.
FALSE -- AC data not excluded
FALSE -- DC data not excluded
FALSE -- Phase data not excluded
FALSE -- Auxillary Chn. data not excluded
Tab delimiters

#CALIBRATION STATE
TRUE -- Waveform Calibration Values APPLIED.


#AUX CALIBRATION VALUES
Val Type	aux-1	

Term	1.0000e+00	
Factor	0.0000e+00	


#WF CALIBRATION VALUES
A = Detector Channel
Val Type	A-AC1	A-AC2	A-AC3	A-AC4	A-AC5	A-AC6	A-AC7	A-AC8	A-AC9	A-AC10	A-AC11	A-AC12	A-AC13	A-AC14	A-AC15	A-AC16	A-DC1	A-DC2	A-DC3	A-DC4	A-DC5	A-DC6	A-DC7	A-DC8	A-DC9	A-DC10	A-DC11	A-DC12	A-DC13	A-DC14	A-DC15	A-DC16	A-Ph1	A-Ph2	A-Ph3	A-Ph4	A-Ph5	A-Ph6	A-Ph7	A-Ph8	A-Ph9	A-Ph10	A-Ph11	A-Ph12	A-Ph13	A-Ph14	A-Ph15	A-Ph16	

Term	0.00000e+00	0.00000e+00	0.00000e+00	0.00000e+00	0.00000e+00	0.00000e+00	0.00000e+00	0.00000e+00	0.00000e+00	0.00000e+00	0.00000e+00	0.00000e+00	0.00000e+00	0.00000e+00	0.00000e+00	0.00000e+00	0.00000e+00	0.00000e+00	0.00000e+00	0.00000e+00	0.00000e+00	0.00000e+00	0.00000e+00	0.00000e+00	0.00000e+00	0.00000e+00	0.00000e+00	0.00000e+00	0.00000e+00	0.00000e+00	0.00000e+00	0.00000e+00	0.00000e+00	0.00000e+00	0.00000e+00	0.00000e+00	0.00000e+00	0.00000e+00	0.00000e+00	0.00000e+00	0.00000e+00	0.00000e+00	0.00000e+00	0.00000e+00	0.00000e+00	0.00000e+00	0.00000e+00	0.00000e+00	
Factor	1.00000e+00	1.00000e+00	1.00000e+00	1.00000e+00	1.00000e+00	1.00000e+00	1.00000e+00	1.00000e+00	1.00000e+00	1.00000e+00	1.00000e+00	1.00000e+00	1.00000e+00	1.00000e+00	1.00000e+00	1.00000e+00	1.00000e+00	1.00000e+00	1.00000e+00	1.00000e+00	1.00000e+00	1.00000e+00	1.00000e+00	1.00000e+00	1.00000e+00	1.00000e+00	1.00000e+00	1.00000e+00	1.00000e+00	1.00000e+00	1.00000e+00	1.00000e+00	X	X	X	X	X	X	X	X	X	X	X	X	X	X	X	X	

B = Detector Channel
Val Type	B-AC1	B-AC2	B-AC3	B-AC4	B-AC5	B-AC6	B-AC7	B-AC8	B-AC9	B-AC10	B-AC11	B-AC12	B-AC13	B-AC14	B-AC15	B-AC16	B-DC1	B-DC2	B-DC3	B-DC4	B-DC5	B-DC6	B-DC7	B-DC8	B-DC9	B-DC10	B-DC11	B-DC12	B-DC13	B-DC14	B-DC15	B-DC16	B-Ph1	B-Ph2	B-Ph3	B-Ph4	B-Ph5	B-Ph6	B-Ph7	B-Ph8	B-Ph9	B-Ph10	B-Ph11	B-Ph12	B-Ph13	B-Ph14	B-Ph15	B-Ph16	

Term	0.00000e+00	0.00000e+00	0.00000e+00	0.00000e+00	0.00000e+00	0.00000e+00	0.00000e+00	0.00000e+00	0.00000e+00	0.00000e+00	0.00000e+00	0.00000e+00	0.00000e+00	0.00000e+00	0.00000e+00	0.00000e+00	0.00000e+00	0.00000e+00	0.00000e+00	0.00000e+00	0.00000e+00	0.00000e+00	0.00000e+00	0.00000e+00	0.00000e+00	0.00000e+00	0.00000e+00	0.00000e+00	0.00000e+00	0.00000e+00	0.00000e+00	0.00000e+00	-3.63263e+01	-1.44616e+02	-1.36455e+02	-1.83436e+02	-6.47196e+01	-8.14628e+01	-1.60695e+02	-1.62015e+02	-4.27404e+01	-5.87643e+01	-1.72707e+02	-1.72386e+02	-1.83401e+02	-1.78286e+02	-6.56670e+01	-1.51169e+02	
Factor	2.16242e-05	1.40199e-04	3.24853e-05	1.48686e-01	1.47159e-06	1.31807e-06	1.62454e-01	5.10240e-02	1.11014e-06	1.35182e-06	7.91605e-02	2.65441e-02	2.35584e-02	8.15133e-03	1.44641e-06	1.17866e-02	2.30442e-06	2.49268e-06	6.93736e-07	7.79555e-02	2.69482e-08	2.73278e-08	7.97935e-02	2.67642e-02	2.70149e-08	2.74240e-08	4.00788e-02	1.34491e-02	1.24290e-02	4.29815e-03	2.72636e-08	5.99323e-03	X	X	X	X	X	X	X	X	X	X	X	X	X	X	X	X	



#DISTANCE SETTINGS
A = Detector Channel
A-1	A-2	A-3	A-4	A-5	A-6	A-7	A-8	A-9	A-10	A-11	A-12	A-13	A-14	A-15	A-16	

2.5000e+00	3.0000e+00	2.5000e+00	3.0000e+00	2.0000e+00	3.0000e+00	1.5000e+00	3.0000e+00	3.0000e+00	3.0000e+00	3.0000e+00	3.0000e+00	3.0000e+00	3.0000e+00	1.5000e+00	3.0000e+00	

B = Detector Channel
B-1	B-2	B-3	B-4	B-5	B-6	B-7	B-8	B-9	B-10	B-11	B-12	B-13	B-14	B-15	B-16	

1.0000e+01	1.0000e+01	1.0000e+01	1.4400e+00	1.0000e+01	1.0000e+01	1.5100e+00	1.9400e+00	1.0000e+01	1.0000e+01	1.9900e+00	2.4900e+00	2.4100e+00	2.9000e+00	1.0000e+01	2.9800e+00	




#DATA BEGINS
time	group	step	mark	flag	A-AC1	A-AC2	A-AC3	A-AC4	A-AC5	A-AC6	A-AC7	A-AC8	A-AC9	A-AC10	A-AC11	A-AC12	A-AC13	A-AC14	A-AC15	A-AC16	A-DC1	A-DC2	A-DC3	A-DC4	A-DC5	A-DC6	A-DC7	A-DC8	A-DC9	A-DC10	A-DC11	A-DC12	A-DC13	A-DC14	A-DC15	A-DC16	A-Ph1	A-Ph2	A-Ph3	A-Ph4	A-Ph5	A-Ph6	A-Ph7	A-Ph8	A-Ph9	A-Ph10	A-Ph11	A-Ph12	A-Ph13	A-Ph14	A-Ph15	A-Ph16	B-AC1	B-AC2	B-AC3	B-AC4	B-AC5	B-AC6	B-AC7	B-AC8	B-AC9	B-AC10	B-AC11	B-AC12	B-AC13	B-AC14	B-AC15	B-AC16	B-DC1	B-DC2	B-DC3	B-DC4	B-DC5	B-DC6	B-DC7	B-DC8	B-DC9	B-DC10	B-DC11	B-DC12	B-DC13	B-DC14	B-DC15	B-DC16	B-Ph1	B-Ph2	B-Ph3	B-Ph4	B-Ph5	B-Ph6	B-Ph7	B-Ph8	B-Ph9	B-Ph10	B-Ph11	B-Ph12	B-Ph13	B-Ph14	B-Ph15	B-Ph16	aux-1	digaux	

2087.408	1	1	0	256	0.036104	0.10405	0.19045	0.09634	0.063266	0.11333	0.19835	0.25679	0.16635	0.30815	0.20846	0.11495	0.080396	0.053501	0.18894	0.069051	-1.9417	-2.5104	-2.2833	-2.1896	-2.5583	-2.4104	-2.3917	-2.6146	-2.0229	-2.3583	-2.3104	-2.0938	-2.5	-2.3396	-2.2271	-2.5979	256.226	70.128	254.513	278.930	192.913	226.036	312.822	154.494	192.154	300.126	203.340	272.924	278.390	94.499	256.015	299.352	0.00026523	0.00043059	4.4977e-05	598.27	4.3145e-06	5.1186e-06	985.09	145.95	2.8195e-06	3.912e-06	357.26	118.74	32.384	13.038	2.8838e-06	60.402	0.00010235	8.1775e-05	2.1731e-05	530.24	8.7868e-07	8.3373e-07	876.86	130.31	8.5789e-07	8.7974e-07	317.57	106.8	29.205	11.701	8.6312e-07	53.99	229.948	59.516	76.237	-11.119	115.135	94.192	-10.681	-6.748	133.884	188.150	-7.053	-2.207	-1.933	2.412	130.774	1.737	-8191	255	
2087.526	1	1	0	0	0.14462	0.069994	0.16675	0.11638	0.19359	0.13231	0.22588	0.14867	0.2338	0.253	0.19407	0.41167	0.089466	0.21149	0.1695	0.20489	-1.7375	-2.5271	-2.4938	-2.2521	-2.6813	-2.325	-2.425	-2.775	-2.2021	-2.6125	-2.4979	-2.1875	-2.6708	-2.2771	-2.2229	-2.8187	58.727	285.916	91.372	290.995	135.815	140.345	229.807	97.750	281.000	258.897	320.264	301.680	12.334	260.115	259.464	262.145	0.0002996	0.00042474	7.6338e-05	594.9	3.1665e-06	2.6099e-06	980.62	146.23	3.1804e-06	4.6944e-06	361.29	120.66	32.455	13.16	3.7686e-06	60.418	0.00010358	8.1661e-05	2.1497e-05	527.45	9.5705e-07	8.4135e-07	876.95	130.68	8.6436e-07	9.1693e-07	319.58	107.19	29.373	11.771	8.8948e-07	54.13	230.347	50.331	48.111	-11.500	157.858	115.932	-10.531	-7.136	175.494	112.976	-7.216	-2.147	-2.360	2.899	131.354	1.298	-8191	255	
2087.623	1	1	0	0	0.36621	0.059444	0.072451	0.093469	0.10978	0.11583	0.17277	0.17101	0.196	0.17432	0.12495	0.33925	0.21781	0.25339	0.080927	0.25734	-2.0333	-2.3604	-2.3688	-2.2562	-2.5458	-2.4625	-2.3708	-2.5771	-2.2208	-2.2667	-2.7333	-2.5438	-2.6375	-2.4396	-2.2229	-2.7208	200.964	237.042	86.610	281.373	267.063	238.115	-23.760	155.822	207.187	74.893	182.076	297.240	304.986	234.749	111.570	-20.327	0.00030281	0.00060701	0.00014652	595.9	4.396e-06	2.0981e-06	987.25	146.39	2.7459e-06	2.6572e-06	360.97	118.87	32.561	13.029	2.7384e-06	60.325	0.00011097	8.2471e-05	2.2796e-05	529.8	8.8379e-07	8.3896e-07	874.59	130.57	8.293e-07	8.7574e-07	318.78	106.55	29.228	11.679	8.5454e-07	53.783	223.202	27.939	62.890	-11.158	139.808	106.710	-10.580	-6.826	155.583	165.191	-6.853	-1.849	-2.527	2.568	99.316	1.283	-8191	255	
2087.719	1	1	0	0	0.081069	0.094606	0.063951	0.19326	0.10544	0.010682	0.10628	0.20816	0.048563	0.3455	0.16456	0.062214	0.15768	0.19059	0.32447	0.18214	-1.7875	-2.45	-2.6479	-2.2708	-2.4313	-2.4667	-2.3417	-2.6125	-2.2396	-2.3063	-2.6979	-2.4167	-2.6667	-2.5563	-2.1271	-2.7562	231.693	189.803	156.012	68.122	127.004	152.349	-23.491	63.153	278.096	314.202	84.995	312.565	289.796	-22.011	4.755	298.773	0.00027733	8.8082e-05	7.1143e-05	594.29	3.2873e-06	3.9527e-06	981.61	145.22	3.3355e-06	4.8669e-06	356.38	118.57	32.719	12.928	2.2757e-06	59.938	0.00010731	8.0446e-05	2.1078e-05	527.62	8.908e-07	8.2052e-07	873.35	129.65	8.5879e-07	8.0678e-07	317.57	106.25	29.172	11.616	8.3626e-07	53.769	225.132	320.829	35.162	-11.568	145.657	103.895	-10.621	-6.752	134.814	135.360	-7.145	-2.187	-1.605	2.013	138.790	1.570	-8191	255	
2087.815	1	1	0	0	0.17509	0.20398	0.091681	0.23507	0.29751	0.10798	0.39212	0.18379	0.14074	0.26986	0.075266	0.2772	0.072868	0.09579	0.14579	0.14279	-1.7542	-2.0938	-2.6333	-2.3854	-2.4208	-2.5625	-2.2104	-2.7146	-2.2271	-2.2687	-2.7979	-2.2479	-2.5167	-2.6208	-2.0854	-2.5646	43.839	235.028	125.294	269.856	161.292	192.366	288.157	211.621	234.964	106.143	312.580	294.989	17.077	314.136	73.566	326.118	0.00028828	0.00017725	0.00016541	593.86	3.7222e-06	3.7952e-06	985.47	145.69	9.3718e-07	4.4547e-06	356.85	119.25	32.274	12.953	3.2231e-06	60.376	0.00010512	8.3354e-05	2.1533e-05	528.64	9.1961e-07	8.3925e-07	876.72	130.17	8.8057e-07	8.7083e-07	317.46	106.42	29.281	11.654	8.9942e-07	54.162	230.463	96.219	101.866	-11.231	124.114	185.644	-10.711	-6.743	205.928	152.055	-7.123	-2.550	-1.874	2.325	121.814	1.890	-8191	255	
2087.911	1	1	0	0	0.16377	0.20012	0.10014	0.20128	0.1171	0.17126	0.20164	0.16577	0.15793	0.079471	0.19135	0.10378	0.048111	0.034582	0.15728	0.055469	-1.7917	-2.1375	-2.4958	-2.3646	-2.5208	-2.45	-2.2542	-2.6063	-2.5875	-2.3396	-2.6292	-2.4542	-2.2083	-2.5187	-2.1688	-2.6104	126.609	202.200	153.973	-15.050	69.904	60.139	288.587	46.872	167.977	176.622	247.845	313.439	55.037	119.052	188.259	211.293	0.00026991	0.00031566	0.00012498	592.96	3.3292e-06	1.2303e-06	993.5	146.15	3.9999e-06	3.6141e-06	358.88	118.87	32.51	13.048	3.1378e-06	60.763	0.00010724	8.0898e-05	2.1976e-05	528.44	9.0428e-07	8.532e-07	881.69	130.39	8.6301e-07	9.3944e-07	318.83	106.89	29.186	11.747	8.3688e-07	54.173	224.663	58.915	58.305	-11.229	144.930	142.184	-10.512	-6.487	142.351	103.562	-6.898	-2.147	-1.710	3.090	61.528	1.399	-8191	255	
2088.007	1	1	0	0	0.23433	0.1683	0.23484	0.14438	0.13475	0.10885	0.24141	0.19447	0.14704	0.080658	0.16948	0.26026	0.054703	0.23286	0.12861	0.10026	-2.0208	-2.2083	-2.6396	-2.3521	-2.3979	-2.7062	-2.2604	-2.6667	-2.5187	-2.0896	-2.775	-2.5187	-2.1437	-2.6917	-2.2896	-2.4646	176.599	307.747	120.933	311.773	215.039	227.286	231.402	246.880	58.956	194.055	212.687	334.931	-4.767	272.223	-3.420	243.152	0.00027732	0.00027787	7.0516e-05	595.56	3.3707e-06	3.4407e-06	981.38	145.82	2.1413e-06	3.4983e-06	355.49	119.71	32.501	12.906	2.874e-06	60.291	0.00010597	8.0243e-05	2.2369e-05	528.06	9.0961e-07	8.454e-07	875.33	129.71	8.9346e-07	8.3672e-07	316.21	106.67	29.079	11.645	8.3501e-07	53.994	224.190	66.482	30.659	-11.326	131.021	96.460	-11.096	-6.636	160.892	124.691	-7.022	-2.121	-1.724	3.105	113.851	1.343	-8191	255	
2088.128	1	1	0	0	0.23938	0.11581	0.346	0.25917	0.10258	0.16672	0.35673	0.15442	0.21995	0.18802	0.11102	0.17018	0.15815	0.049975	0.12799	0.068358	-2.0146	-2.1792	-2.5646	-2.2458	-2.1229	-2.5563	-2.1604	-2.4458	-2.475	-2.1375	-2.7062	-2.525	-2.0229	-2.3812	-2.2438	-2.2313	-18.071	305.698	189.969	280.097	98.813	303.356	222.659	267.794	151.625	166.120	-19.200	335.574	120.844	121.009	9.940	172.370	0.00029055	0.00040958	0.00010902	592.88	3.8618e-06	3.4118e-06	988.02	144.1	1.5885e-06	5.0414e-06	356.52	119.72	32.178	12.922	5.0887e-06	60.618	0.00010452	7.6961e-05	2.1003e-05	527.71	8.3769e-07	8.5029e-07	875.53	129.02	8.3898e-07	8.406e-07	315.53	107.06	29.218	11.728	8.3279e-07	54.256	234.621	49.834	55.666	-10.959	148.972	99.690	-10.564	-6.361	178.948	120.136	-6.951	-2.103	-1.963	3.185	155.191	1.544	-8191	255	
2088.222	1	1	0	0	0.17029	0.14397	0.12612	0.092004	0.16787	0.091924	0.32231	0.26488	0.2255	0.34669	0.2315	0.19239	0.14825	0.33546	0.20669	0.12125	-1.8958	-2.0104	-2.5021	-2.55	-2.2646	-2.825	-2.4583	-2.3354	-2.7396	-2.1688	-2.4479	-2.5771	-2.2208	-2.5187	-2.2438	-2.4875	85.917	255.452	320.096	138.647	180.158	-20.165	291.147	29.773	307.472	321.016	226.475	293.022	130.329	331.261	171.467	291.530	0.00027844	0.00031567	0.00013546	595	5.2154e-06	8.3109e-07	988.89	143.78	2.8529e-06	6.0807e-06	357.43	118.93	32.462	12.908	2.604e-06	61.243	0.00010442	7.4536e-05	2.2698e-05	527.69	8.3e-07	8.2342e-07	875.92	129.12	8.4911e-07	7.9192e-07	317	106.49	29.149	11.712	8.4e-07	54.371	228.477	51.830	37.679	-10.988	190.214	27.065	-10.621	-6.667	203.736	141.172	-6.948	-2.418	-2.255	2.154	138.485	1.791	-8191	255	
2088.296	1	1	0	0	0.22394	0.16758	0.13373	0.1781	0.16285	0.18226	0.43741	0.30255	0.077708	0.037582	0.15237	0.18019	0.14634	0.26518	0.20572	0.22468	-2.0354	-2.1396	-2.4458	-2.4396	-2.025	-2.7229	-2.4083	-2.3333	-2.6688	-2.1979	-2.5583	-2.5354	-2.1333	-2.5208	-2.5333	-2.375	291.454	186.993	270.757	122.833	321.321	233.474	255.680	-7.913	219.645	52.828	323.509	155.459	276.465	-22.995	1.575	170.161	0.00028955	0.00035043	3.6239e-05	590.22	4.4221e-06	3.7206e-06	979.52	144.08	4.4412e-06	3.3344e-06	351.8	117.95	32.029	12.911	2.123e-06	59.984	0.00010561	7.6146e-05	2.1919e-05	525.63	8.3753e-07	8.4027e-07	869.41	128.68	8.7737e-07	8.0552e-07	313.24	105.42	28.863	11.553	8.3432e-07	53.457	229.041	25.186	5.345	-11.162	120.929	102.020	-10.635	-6.463	162.165	163.775	-7.453	-2.209	-2.218	2.315	119.742	1.401	-8191	255	
2088.415	1	1	0	0	0.21123	0.30892	0.16223	0.28006	0.23553	0.42777	0.34622	0.29612	0.19188	0.18041	0.26799	0.094515	0.18152	0.066988	0.22717	0.3495	-2.0354	-2.2188	-2.3896	-2.3688	-1.8958	-2.6708	-2.5375	-2.1396	-2.6042	-2.3	-2.4854	-2.6667	-2.1146	-2.3958	-2.3646	-2.4083	192.166	225.912	248.364	304.208	118.675	96.086	282.811	220.090	-21.549	291.742	239.701	270.745	286.721	316.839	272.442	281.593	0.00032938	0.00023492	3.6545e-05	588.87	5.747e-06	3.6704e-06	968.11	143.35	2.9227e-06	3.6747e-06	350.9	117.65	32.161	12.837	5.0895e-06	60.005	0.00011264	7.5242e-05	2.2036e-05	522.23	8.3696e-07	8.2701e-07	862.08	128.22	8.2823e-07	8.2723e-07	312.02	105.24	28.876	11.554	8.5835e-07	53.482	226.859	59.961	78.408	-11.062	167.427	117.122	-10.364	-6.417	192.914	146.100	-7.169	-2.142	-1.853	2.571	122.509	1.398	-8191	255	
2088.511	1	1	0	0	0.24952	0.22285	0.33891	0.25543	0.17125	0.19146	0.13972	0.068275	0.20924	0.19306	0.25305	0.091615	0.10192	0.25783	0.24173	0.097041	-2.0312	-2.2354	-2.3646	-2.6937	-2.1562	-2.4646	-2.5312	-1.9958	-2.4	-2.2313	-2.3021	-2.6083	-2.2125	-2.35	-2.4146	-2.3063	62.580	265.457	-1.722	323.018	202.604	36.232	296.413	265.505	28.674	183.265	283.884	314.745	230.650	267.682	164.353	116.986	0.00027453	0.00039696	9.5738e-05	585.18	2.2844e-06	4.0059e-06	970.31	142.36	3.4299e-06	3.1431e-06	350.02	118.93	32.363	12.816	7.6467e-06	60.616	0.00010693	7.6068e-05	2.1585e-05	520.34	7.9435e-07	8.1209e-07	863.14	127.01	8.2705e-07	8.0466e-07	311.57	106.45	29.223	11.689	7.907e-07	54.129	237.170	59.569	74.124	-11.292	125.902	118.917	-10.486	-6.279	121.032	126.704	-7.385	-2.084	-1.945	2.381	116.626	1.535	-8191	255	
2088.607	1	1	0	0	0.11291	0.19016	0.13758	0.26861	0.15949	0.034748	0.18604	0.10582	0.13142	0.30209	0.21399	0.16566	0.18558	0.049238	0.052714	0.2249	-2.0458	-2.2792	-2.2812	-2.7542	-2.0771	-2.2542	-2.5854	-2.1188	-2.5229	-2.425	-2.1417	-2.7271	-2.0792	-2.4375	-2.4667	-2.3458	168.133	255.275	303.265	285.557	311.302	162.350	276.334	50.041	130.914	284.229	251.811	247.596	34.019	332.494	154.895	243.589	0.00026531	0.00026883	7.4256e-05	588.08	3.5356e-06	1.3698e-06	969.92	144.07	1.4978e-06	2.8668e-06	349.49	119.85	32.817	13.177	5.6124e-06	61.31	0.00010109	7.2267e-05	2.0227e-05	523.15	7.6297e-07	7.6512e-07	865.35	128.01	7.9345e-07	7.0697e-07	311.41	107.15	29.349	11.845	7.289e-07	54.446	230.338	64.798	38.090	-11.102	138.024	83.116	-10.484	-6.870	165.988	68.535	-7.263	-2.045	-2.369	2.499	115.875	1.482	-8191	255	
2088.703	1	1	0	0	0.37768	0.095819	0.22196	0.13708	0.21778	0.084817	0.23962	0.19887	0.22365	0.3814	0.32847	0.15836	0.31873	0.14087	0.074275	0.20801	-2.0333	-2.2292	-2.1417	-2.7188	-2.2	-2.1458	-2.6458	-2.1625	-2.3312	-2.4167	-2.0917	-2.55	-2.1021	-2.2125	-2.4917	-2.1771	310.896	297.726	224.999	-4.885	189.957	74.477	270.525	282.076	169.218	80.002	7.475	-22.905	302.584	114.384	93.507	256.290	0.0002766	0.00041855	6.3482e-05	589.23	5.2131e-06	3.3946e-06	961.14	142.49	3.386e-06	2.1009e-06	349.53	119.54	32.814	13.122	3.111e-06	61.099	9.3118e-05	6.0801e-05	1.8065e-05	522.74	7.1744e-07	7.042e-07	858.02	127.09	7.3295e-07	6.868e-07	309.94	106.62	29.27	11.745	7.2101e-07	54.328	226.699	47.394	57.767	-10.826	142.787	115.952	-10.511	-6.882	153.226	155.781	-7.082	-1.919	-1.516	2.213	174.575	1.507	-8191	255	
2088.824	1	1	0	0	0.11493	0.11083	0.18914	0.16603	0.070992	0.15401	0.06832	0.20751	0.14399	0.10772	0.18526	0.01318	0.035157	0.22188	0.10747	0.18504	-1.8542	-2.3854	-2.1021	-2.6542	-2.1958	-2.3042	-2.5104	-2.3458	-2.2958	-2.3521	-2.0708	-2.5604	-2.1958	-2.175	-2.5354	-2.2458	313.723	163.564	231.414	-20.186	314.336	117.665	169.224	67.700	250.973	164.559	213.275	269.755	232.859	265.867	185.261	4.002	0.00026907	0.00051044	7.9621e-05	587.42	5.1052e-06	3.9979e-06	969.49	144.83	4.0293e-06	2.3367e-06	353.14	119.57	33.184	13.171	5.3652e-06	60.797	9.0103e-05	6.8865e-05	1.6246e-05	520.46	7.0166e-07	7.3631e-07	863.38	128.32	7.9458e-07	7.4685e-07	313.55	106.97	29.554	11.823	8.0076e-07	54.312	227.129	59.035	89.217	-10.942	111.258	109.328	-10.555	-6.492	131.655	136.439	-6.954	-2.684	-2.068	2.800	137.763	1.685	-8191	255	
2088.920	1	1	0	0	0.22105	0.23585	0.28634	0.18521	0.077184	0.085727	0.31922	0.064046	0.18598	0.1509	0.094167	0.11059	0.24404	0.042253	0.088217	0.42276	-1.8896	-2.2125	-2.1042	-2.5687	-2.3312	-2.3063	-2.8	-2.2646	-2.3417	-2.5	-2.2062	-2.6479	-2.3479	-2.0771	-2.6646	-2.3396	-17.472	32.094	27.460	1.780	65.255	45.699	279.249	78.336	36.828	231.874	330.100	100.434	85.703	245.297	131.622	237.132	0.00027965	0.00018907	7.587e-05	583.6	3.5173e-06	2.682e-06	959.98	143.89	1.9015e-06	2.1445e-06	354.31	118.91	32.518	12.951	2.5441e-06	60.239	0.00010405	7.8327e-05	2.1293e-05	520.99	8.2776e-07	8.3338e-07	857.75	128.55	8.8963e-07	9.1516e-07	313.02	106.17	29.207	11.626	9.0901e-07	53.847	229.767	73.168	76.122	-11.027	94.217	100.731	-10.464	-6.917	130.230	137.439	-7.274	-2.098	-2.506	2.682	155.364	1.554	-8191	255	
2088.991	1	1	0	0	0.18229	0.075436	0.17199	0.36391	0.16145	0.11555	0.15838	0.06667	0.2449	0.50924	0.1181	0.28388	0.059013	0.17471	0.12561	0.24864	-1.9833	-2.6104	-2.1583	-2.4646	-2.4729	-1.9312	-2.6646	-2.2771	-2.3417	-2.4979	-2.2896	-2.6125	-2.4271	-2.2438	-2.5312	-2.5667	315.163	291.558	111.303	296.333	3.144	57.494	202.043	287.432	249.649	91.751	116.495	13.217	324.578	10.753	328.290	26.494	0.00027997	0.00026808	0.00010855	580.49	5.7953e-06	4.6673e-06	959.14	143.4	3.8739e-06	5.0965e-06	350.49	117.04	32	12.581	2.745e-06	58.858	0.00011024	7.7559e-05	2.1272e-05	518.82	8.6953e-07	8.4728e-07	853.65	127.9	8.8536e-07	8.8488e-07	311.31	105.15	28.897	11.372	9.2202e-07	52.751	224.716	73.987	65.156	-11.216	109.000	108.082	-10.597	-6.440	179.034	144.062	-7.083	-1.780	-1.717	2.582	122.075	1.424	-8191	255	
2089.088	1	1	0	0	0.1793	0.046235	0.11563	0.25539	0.26055	0.16971	0.21573	0.19498	0.14734	0.18423	0.21811	0.14151	0.11707	0.34138	0.12831	0.3986	-1.8375	-2.4729	-2.2083	-2.4062	-2.2646	-2.1583	-2.4917	-2.1583	-2.3167	-2.3563	-2.0833	-2.4958	-2.3979	-2.0833	-2.4562	-2.4021	87.722	183.484	258.287	91.625	311.937	12.936	256.660	293.889	239.632	0.350	11.959	14.627	320.926	251.637	21.336	242.465	0.00025214	0.00033597	6.5621e-05	583.05	3.1781e-06	3.3838e-06	957.43	143.85	3.1568e-06	2.1794e-06	352.79	118.53	32.293	12.98	3.1522e-06	59.921	0.00010354	8.1765e-05	2.2636e-05	517.23	8.9833e-07	8.6828e-07	854.74	128.42	8.4264e-07	8.354e-07	313.2	106.08	29.02	11.574	8.8255e-07	53.756	234.816	48.543	107.060	-11.271	197.673	125.603	-10.370	-6.336	147.361	151.164	-7.262	-2.059	-1.724	2.588	78.413	1.761	-8191	255	
2089.206	1	1	0	0	0.25502	0.093069	0.13294	0.31612	0.16166	0.19695	0.23729	0.23591	0.18122	0.067793	0.14523	0.20788	0.082743	0.34421	0.12234	0.26903	-1.6771	-2.6437	-1.9688	-2.3917	-2.2125	-2.1	-2.6396	-2.4646	-2.2687	-2.5687	-2.3417	-2.6	-2.6437	-2.3667	-2.4167	-2.6188	82.890	19.167	325.781	286.577	322.083	186.940	289.363	226.656	218.837	204.477	199.851	291.823	42.195	69.118	309.882	330.450	0.00022316	0.00033147	8.773e-05	591.84	4.5185e-06	5.0058e-06	974.18	145.05	2.8574e-06	8.5026e-07	353.36	119.17	32.179	13.067	4.237e-06	59.95	0.00010213	7.6613e-05	2.1357e-05	523.21	8.3579e-07	7.9837e-07	865.03	128.65	8.5874e-07	8.3649e-07	313.17	106.62	29.049	11.72	8.5142e-07	53.928	231.696	55.641	35.033	-10.970	104.034	91.458	-10.358	-6.329	167.560	98.185	-7.015	-2.430	-1.497	2.709	86.675	1.158	-8191	255	
2089.303	1	1	0	0	0.078328	0.22803	0.18535	0.11834	0.25387	0.079898	0.12004	0.19875	0.012376	0.17272	0.24715	0.21616	0.19794	0.080396	0.22597	0.31552	-1.5063	-2.6312	-2.1771	-2.2625	-2.7875	-2.0833	-2.7083	-2.4042	-2.1292	-2.5854	-2.2021	-2.3688	-2.5854	-2.2188	-2.4396	-2.6667	295.707	88.067	169.595	224.019	90.460	70.837	284.759	291.649	209.847	166.635	222.306	290.508	46.815	65.890	58.509	42.021	0.00024588	0.00040452	9.9373e-05	591.74	5.3063e-06	3.2714e-06	972.14	144.46	1.5593e-06	5.575e-06	352.45	119.67	32.069	12.759	2.2763e-06	60.024	0.0001021	7.935e-05	2.0792e-05	523.45	8.6318e-07	7.9609e-07	863.97	128.61	8.2277e-07	8.5654e-07	313.37	106.53	29.021	11.531	8.7068e-07	53.595	222.708	78.057	55.320	-11.177	116.696	120.957	-10.839	-7.046	173.242	134.726	-7.055	-2.088	-2.041	2.801	98.650	1.590	-8191	255	
2089.399	1	1	0	0	0.32224	0.24796	0.092515	0.12107	0.17424	0.083876	0.23528	0.084643	0.10266	0.32085	0.15325	0.39592	0.21061	0.18593	0.23713	0.2569	-1.5167	-2.6375	-2.4458	-2.2917	-2.5542	-2.2521	-2.6125	-2.6188	-1.9125	-2.5271	-2.5479	-2.2687	-2.525	-2.1688	-2.4458	-2.6354	104.272	-4.545	331.354	262.687	96.472	74.786	305.805	304.820	117.560	120.172	327.092	-17.679	225.242	168.791	137.626	335.780	0.00029341	0.00051961	0.0001137	581.44	3.4714e-06	1.5952e-06	957.18	141.7	2.8397e-06	3.4914e-06	348.67	117.41	31.885	12.627	1.7237e-06	58.835	0.0001004	8.2019e-05	2.0244e-05	516.37	8.4202e-07	8.4118e-07	849.76	126.22	7.9013e-07	8.234e-07	308.68	104.4	28.716	11.293	8.429e-07	52.245	233.816	5.227	60.046	-11.001	133.580	65.426	-10.788	-6.188	170.732	127.007	-6.796	-2.333	-1.720	2.801	133.646	1.268	-8191	255	
2089.519	1	1	0	0	0.0078009	0.058956	0.2914	0.099218	0.096188	0.17876	0.36589	0.264	0.1613	0.31941	0.038051	0.22146	0.31983	0.10594	0.22797	0.18906	-1.5896	-2.3958	-2.3375	-2.3958	-2.9229	-2.4708	-2.4521	-2.5875	-2.2896	-2.4604	-2.7604	-2.2417	-2.5833	-2.2438	-2.3104	-2.7521	283.927	335.486	189.086	144.523	27.198	130.815	306.670	28.943	244.879	176.655	114.897	205.379	127.220	237.544	195.511	322.047	0.00033397	0.00038858	7.7335e-05	571.58	1.8907e-06	3.2437e-06	935.49	140.43	3.4007e-06	3.8514e-06	341.6	115.78	31.723	12.338	2.5409e-06	57.634	0.00010488	7.9428e-05	2.0591e-05	509.2	8.6363e-07	8.1072e-07	832.72	124.46	8.1039e-07	8.4363e-07	303.18	103.29	28.509	11.064	8.6835e-07	51.563	233.116	34.674	53.186	-10.894	184.925	137.833	-10.572	-5.889	163.152	146.973	-7.057	-2.330	-2.009	2.821	98.054	1.402	-8191	255	
2089.591	1	1	0	0	0.13634	0.2086	0.1636	0.20176	0.04744	0.031212	0.11901	0.14642	0.34673	0.21305	0.059282	0.30727	0.040302	0.048511	0.25198	0.20243	-1.6958	-2.3854	-2.3312	-2.2604	-2.3563	-2.3146	-2.3146	-2.4958	-2.1896	-2.2604	-2.4813	-2.0563	-2.4083	-2.4083	-2.0667	-2.5417	198.836	122.583	289.984	311.819	190.299	242.449	204.886	259.994	211.774	325.723	151.733	283.927	331.354	195.637	117.380	275.540	0.00027665	0.00040327	3.9927e-05	562.51	1.7308e-06	2.1434e-06	924.04	137.92	2.4425e-06	3.3002e-06	335.88	113.88	31.296	11.721	4.3922e-06	56.393	0.00010177	7.5892e-05	2.1483e-05	500.68	8.6054e-07	7.6996e-07	821.23	123.12	8.5457e-07	8.306e-07	298.7	101.93	28.213	10.633	8.6443e-07	50.34	237.883	51.924	50.642	-10.773	123.827	165.222	-10.722	-6.121	126.060	162.838	-7.008	-2.272	-1.716	2.318	143.210	1.360	-8191	255	
2089.687	1	1	0	0	0.13233	0.19467	0.18021	0.27358	0.078168	0.10645	0.047893	0.19011	0.1766	0.089768	0.18058	0.12066	0.11199	0.21452	0.081198	0.07432	-1.5604	-2.4333	-2.4833	-2.0729	-2.5229	-2.4583	-2.4354	-2.4292	-2.2396	-2.3375	-2.6646	-2.1333	-2.4062	-2.4479	-2.0979	-2.7708	212.637	89.033	131.510	314.944	56.874	39.307	130.034	329.587	122.336	127.197	94.595	319.158	196.885	327.204	263.021	191.346	0.00025061	0.00047571	0.00010561	556.42	4.1066e-06	3.6617e-06	901.01	135.9	3.3402e-06	2.7621e-06	331.96	113.42	30.982	11.737	4.853e-06	55.2	9.7045e-05	7.8473e-05	2.2187e-05	493.93	8.7638e-07	8.2302e-07	804.22	120.91	8.1827e-07	8.5226e-07	296.05	100.75	27.844	10.576	8.0899e-07	49.425	240.067	13.852	72.980	-10.767	125.857	138.106	-10.527	-6.505	126.594	165.417	-7.238	-2.373	-1.661	3.036	155.610	1.290	-8191	255	
2089.808	1	1	0	0	0.17746	0.2215	0.2317	0.046266	0.12048	0.30123	0.15594	0.14637	0.29488	0.065231	0.10424	0.14798	0.092326	0.1489	0.097795	0.027681	-1.9083	-2.2062	-2.4083	-2.25	-2.325	-2.3937	-2.2479	-2.55	-2.1604	-2.2687	-2.675	-2.2083	-2.3333	-2.6083	-2.1188	-2.6833	30.751	11.290	43.605	37.655	258.142	241.223	304.954	303.795	68.631	183.983	329.259	51.444	182.227	111.464	-15.823	334.401	0.00027762	0.00050589	9.0761e-05	556.04	2.6701e-06	3.5106e-06	916.75	137.86	4.0743e-06	5.0818e-06	340.61	114.64	31.562	11.986	3.4618e-06	56.946	0.00010311	7.8722e-05	2.1571e-05	493.81	8.7071e-07	8.438e-07	814.9	122.75	8.8513e-07	9.3082e-07	302.72	102.18	28.31	10.817	8.7829e-07	50.765	221.938	70.720	91.408	-10.866	189.809	96.339	-10.454	-6.681	150.775	139.490	-6.782	-1.800	-1.630	2.712	146.865	1.308	-8191	255	
2089.904	1	1	0	0	0.062665	0.23833	0.18288	0.30994	0.06407	0.30333	0.45589	0.099645	0.10879	0.11978	0.18241	0.0052442	0.209	0.19939	0.13303	0.31277	-1.8292	-2.1667	-2.5375	-2.2438	-2.4521	-2.5167	-2.3104	-2.6208	-2.4042	-2.2104	-2.7854	-2.3646	-2.2938	-2.6167	-2.2646	-2.5271	213.890	11.674	129.341	-6.064	324.921	56.311	298.274	40.559	232.569	79.929	310.022	305.841	221.056	254.125	150.696	301.279	0.00021188	0.00045256	3.9316e-05	564.8	8.1858e-06	3.5247e-06	927.36	140.06	4.6907e-06	5.9461e-06	345.22	114.64	31.099	12.328	5.2515e-06	57.93	0.00010426	8.1028e-05	2.2259e-05	501.93	9.2612e-07	8.9749e-07	827.21	124.95	8.6712e-07	9.1773e-07	306.5	103.04	28.377	11.037	8.3631e-07	51.81	227.455	54.346	66.457	-11.762	140.098	99.471	-10.553	-6.062	154.768	132.782	-6.911	-2.089	-1.522	2.659	138.117	1.666	-8191	255	
2090.000	1	1	0	0	0.27224	0.10963	0.21508	0.18731	0.22905	0.27705	0.24762	0.19088	0.059421	0.23115	0.17186	0.074691	0.21302	0.17836	0.16935	0.069029	-1.7875	-2.1083	-2.7271	-2.4042	-2.3729	-2.675	-2.2208	-2.4062	-2.3812	-2.2438	-2.8792	-2.3792	-2.4021	-2.4229	-2.2729	-2.6333	50.445	114.301	281.794	273.599	268.901	130.657	262.208	259.998	135.703	12.919	-22.709	333.266	172.483	-0.965	81.630	175.739	0.00024529	0.0005088	0.00011459	573.91	1.8524e-06	4.2087e-06	941.49	141.51	9.4251e-07	3.6616e-06	352.29	116.89	31.907	12.595	2.4821e-06	59.43	0.00010446	7.9688e-05	2.3799e-05	509.17	8.7312e-07	8.7705e-07	841.61	126.68	8.5941e-07	8.5323e-07	310.73	104.61	28.679	11.34	8.7147e-07	52.787	229.411	69.268	48.660	-11.321	98.869	118.729	-10.679	-6.220	123.212	134.644	-7.064	-2.535	-1.143	3.065	139.594	1.227	-8191	255	
2090.121	1	1	0	0	0.12792	0.2246	0.084275	0.1624	0.27747	0.029048	0.14174	0.11905	0.16735	0.096412	0.15359	0.076789	0.21154	0.096607	0.131	0.068032	-2.0042	-2.2313	-2.5521	-2.4562	-2.2667	-2.5833	-2.3146	-2.3708	-2.5417	-2.2313	-2.6583	-2.2021	-2.2771	-2.5333	-1.9854	-2.5229	40.595	281.105	43.962	261.894	253.643	87.869	11.484	282.704	93.462	300.679	-1.258	110.344	240.993	161.113	106.626	146.506	0.00028205	0.0004585	0.00011372	575.75	1.42e-06	1.9986e-06	958.67	141.94	2.4189e-06	3.2006e-06	349.57	117.77	32.176	12.615	2.0769e-06	59.216	0.00010491	7.6707e-05	2.2724e-05	513.76	9.0866e-07	8.5553e-07	853.12	126.71	8.4258e-07	8.4889e-07	311.08	104.89	28.754	11.392	8.5988e-07	53.05	222.446	47.714	71.897	-11.186	167.084	9.435	-10.602	-6.163	108.613	141.781	-7.276	-1.970	-2.468	2.992	130.667	1.379	-8191	255	
2090.192	1	1	0	0	0.12688	0.17432	0.21579	0.17441	0.19085	0.1895	0.13177	0.25538	0.28386	0.25854	0.35609	0.13166	0.15433	0.14277	0.093319	0.12639	-2.1083	-2.1937	-2.6521	-2.5354	-2.0438	-2.6917	-2.4333	-2.5854	-2.6104	-2.0521	-2.5563	-2.4854	-2.1833	-2.5062	-2.4062	-2.6167	257.694	120.476	206.605	-12.299	23.597	323.234	242.803	164.452	35.388	6.192	225.123	263.583	127.012	111.518	256.265	48.303	0.00026515	0.00043816	8.6482e-05	578.25	3.7143e-06	4.5975e-06	971.18	141.66	1.0799e-06	2.8579e-06	353.02	118.91	32.187	13.008	5.4526e-06	60.855	0.00010359	8.1199e-05	2.2441e-05	517.24	8.8738e-07	8.5359e-07	862.77	127.41	9.2858e-07	8.4911e-07	313.31	106.15	28.953	11.669	8.6414e-07	54.174	232.573	33.195	50.469	-10.981	130.212	147.082	-10.374	-6.490	216.569	93.210	-7.323	-1.907	-2.131	3.036	142.764	1.414	-8191	255	
2090.287	1	1	0	0	0.11996	0.20791	0.20123	0.13198	0.27343	0.17285	0.16051	0.30281	0.17932	0.11377	0.31613	0.21134	0.33462	0.057709	0.1711	0.18371	-2.0583	-2.05	-2.5104	-2.4792	-2.2938	-2.6542	-2.4188	-2.2438	-2.7562	-2.2771	-2.7125	-2.5563	-2.2167	-2.7167	-2.3125	-2.3688	190.876	107.327	66.550	321.424	184.476	147.621	271.576	67.092	279.647	260.646	292.597	-11.827	157.825	147.458	241.719	216.889	0.00025193	0.00047409	7.0953e-05	585.36	4.2019e-06	4.859e-06	975.71	142.89	1.8781e-06	9.4478e-07	349.84	118.83	31.839	12.869	3.5512e-06	61.08	0.00010634	7.733e-05	2.1915e-05	521.34	9.1158e-07	8.8405e-07	870.22	127.69	8.4664e-07	8.6094e-07	312.99	106.26	28.851	11.647	8.5278e-07	54.264	228.766	48.509	66.344	-11.074	140.701	58.807	-10.739	-6.844	157.108	233.643	-6.617	-2.018	-1.825	2.955	99.207	1.513	-8191	255	
2090.383	1	1	0	0	0.27342	0.24594	0.068008	0.25089	0.24051	0.23688	0.17815	0.26787	0.083098	0.11104	0.16986	0.1905	0.17224	0.12132	0.070901	0.26114	-2.1354	-2.1146	-2.3271	-2.4667	-2.0896	-2.6021	-2.4062	-2.2146	-2.6375	-2.3521	-2.3771	-2.55	-2.3083	-2.5062	-2.4	-2.4542	210.598	314.271	-0.374	269.841	46.167	261.336	204.699	297.890	31.501	296.088	25.663	309.452	36.895	-19.019	19.697	242.696	0.00023469	0.00043987	0.00012332	585.56	3.0894e-06	1.9735e-06	968.96	142.7	3.9255e-06	1.4061e-06	349.62	116.52	31.328	12.496	2.0395e-06	58.456	0.00010747	7.8592e-05	2.2054e-05	522.24	8.784e-07	9.1241e-07	862.92	127.21	9.0821e-07	8.7602e-07	309.87	104.38	28.412	11.301	9.0152e-07	52.284	241.852	26.698	52.751	-10.871	138.455	152.787	-10.677	-6.036	156.416	126.562	-7.003	-1.969	-1.931	3.212	144.325	1.547	-8191	255	
2090.504	1	1	0	0	0.26086	0.13824	0.088601	0.23282	0.21761	0.087321	0.18975	0.21914	0.23985	0.095783	0.28811	0.21097	0.25954	0.14348	0.30141	0.15628	-2.1375	-1.9917	-2.2021	-2.4417	-2.0104	-2.65	-2.4896	-2.2896	-2.5396	-2.2208	-2.475	-2.4542	-2.175	-2.4917	-2.5312	-2.2021	250.730	47.822	185.609	327.426	-24.073	257.293	242.106	116.683	279.198	293.434	282.708	254.129	264.019	307.209	227.723	230.614	0.00023409	0.00036324	3.8456e-05	580.34	3.6625e-06	1.5824e-06	939.98	140.61	5.2351e-06	2.9372e-06	343.76	113.88	30.924	12.019	5.9108e-06	56.369	0.00010651	8.3479e-05	2.2691e-05	515.42	8.935e-07	9.2459e-07	842.97	125.24	9.6381e-07	9.127e-07	305.27	101.96	27.95	10.869	9.7053e-07	50.225	235.851	10.052	102.018	-10.949	155.676	34.531	-10.361	-6.379	148.644	137.702	-6.708	-2.103	-1.306	2.697	99.881	1.413	-8191	255	
2090.600	1	1	0	0	0.23225	0.096183	0.10206	0.036295	0.36012	0.39458	0.23938	0.13643	0.14042	0.25034	0.17859	0.099698	0.078248	0.26423	0.20516	0.0502	-2.0104	-2.3333	-2.2917	-2.6292	-2.2292	-2.5708	-2.5687	-2.1208	-2.5875	-2.2979	-2.2396	-2.5479	-2.1021	-2.4208	-2.5458	-2.2021	101.114	317.014	-10.385	178.799	242.062	138.558	5.011	240.162	261.949	71.334	281.198	26.881	160.214	271.151	8.432	-6.908	0.00027093	0.00045769	0.00010705	565.53	4.4908e-06	5.3862e-06	919.03	134.58	2.0481e-06	5.5322e-06	328.58	107.84	29.335	10.813	1.5563e-06	51.588	0.00010992	8.3972e-05	2.3191e-05	502.33	8.8615e-07	9.3171e-07	815.97	120.04	9.7462e-07	9.3361e-07	292.72	97.081	26.491	9.8654	9.4173e-07	45.799	223.911	55.138	17.176	-10.846	145.913	81.834	-10.252	-6.432	198.252	120.495	-6.836	-1.720	-1.001	2.968	182.099	1.902	-8191	255	
2090.696	1	1	0	0	0.079208	0.22102	0.10056	0.090333	0.31251	0.08616	0.11624	0.17134	0.031891	0.25791	0.1525	0.18645	0.25016	0.30374	0.035845	0.10351	-2.2042	-2.175	-2.0396	-2.6604	-2.2271	-2.5292	-2.6792	-2.2354	-2.6437	-2.4708	-2.2625	-2.7083	-2.3125	-2.3229	-2.4667	-2.2417	164.722	15.894	235.323	260.402	242.118	129.241	294.935	222.842	165.680	209.549	290.495	292.791	0.721	23.259	251.614	100.414	0.00024977	0.00054766	0.00011828	534.05	2.56e-06	2.0065e-06	847.35	122.67	1.2597e-06	2.8924e-06	293.48	97.75	26.711	9.1878	2.8941e-06	44.137	0.00011055	8.8791e-05	2.4911e-05	475.61	9.8568e-07	1.0498e-06	751.4	109.12	1.0554e-06	1.0246e-06	261.64	88.101	24.17	8.3269	1.0354e-06	39.385	222.444	39.190	63.753	-10.342	136.172	188.254	-10.254	-6.352	138.604	71.119	-6.723	-1.723	-2.334	3.735	150.551	1.848	-8191	255	
2090.792	1	1	0	0	0.028675	0.1072	0.29115	0.1212	0.18939	0.26379	0.34194	0.084305	0.29983	0.13888	0.14422	0.083377	0.092827	0.061747	0.061593	0.33542	-2.1167	-2.4708	-2.1	-2.6771	-2.2729	-2.2	-2.6688	-2.1375	-2.5729	-2.6521	-2.1896	-2.5354	-2.3479	-2.2292	-2.4625	-2.0979	16.892	335.997	89.672	254.299	229.809	139.255	313.746	189.441	54.104	100.226	-1.031	268.351	-21.593	-22.102	2.165	291.380	0.00015166	0.00033555	8.0112e-05	484.42	4.2629e-06	2.4883e-06	763.16	110.27	3.779e-06	2.6093e-06	264.9	90.222	25.064	8.0295	1.9388e-06	38.883	0.00010911	9.252e-05	2.6281e-05	433.12	1.0426e-06	9.9809e-07	680.59	98.807	1.0822e-06	1.0157e-06	236.32	81.174	22.739	7.3557	1.0713e-06	35.017	223.557	26.862	70.593	-10.591	134.425	75.433	-9.837	-5.791	173.041	57.521	-6.382	-2.170	-1.298	3.826	137.297	2.358	-8191	255	
2090.888	1	1	0	0	0.27662	0.22392	0.1335	0.30205	0.070079	0.12738	0.26666	0.05539	0.019447	0.075602	0.14989	0.02051	0.18409	0.45947	0.10215	0.12082	-2.0146	-2.5563	-2.1125	-2.4042	-2.2271	-2.1333	-2.5875	-2.2792	-2.4062	-2.4792	-2.1937	-2.5646	-2.2729	-1.9104	-2.5208	-2.0187	266.093	119.725	54.491	289.773	219.807	305.166	267.161	281.146	141.447	335.918	277.687	77.264	285.977	307.148	116.111	268.259	0.00019772	0.00021764	2.8447e-05	451.06	4.1741e-06	5.7127e-06	692.72	98.57	5.5552e-06	1.6346e-06	232.01	82.754	22.611	6.8194	4.041e-06	33.87	0.00011814	9.4826e-05	2.6735e-05	401.88	1.1039e-06	1.0806e-06	617.27	88.528	1.1905e-06	1.1647e-06	206.39	73.91	20.545	6.2616	1.173e-06	30.482	219.648	24.995	136.348	-10.285	91.099	94.102	-10.323	-5.760	171.960	104.258	-6.462	-1.762	-1.259	3.353	206.206	2.520	-8191	255	
2090.984	1	1	0	0	0.15915	0.078629	0.15064	0.084447	0.015633	0.14256	0.55503	0.19267	0.052565	0.044181	0.13391	0.21491	0.22231	0.13808	0.20598	0.036879	-1.9896	-2.4938	-1.9271	-2.4146	-2.2833	-2.0125	-2.4875	-2.1125	-2.3417	-2.6458	-2.2125	-2.4354	-2.4021	-2.0625	-2.6354	-2.2167	245.316	123.299	-3.598	99.693	98.440	32.951	275.629	222.369	210.753	243.932	301.346	310.450	208.976	71.150	186.974	318.841	0.00012659	0.0003735	4.3342e-06	418.74	1.2598e-06	1.198e-06	661.65	96.189	4.4033e-06	2.3588e-06	235.71	84.328	22.978	7.1765	3.6443e-06	36.54	0.00012359	0.00011163	3.0699e-05	374.89	1.1437e-06	1.1811e-06	593.93	86.175	1.2434e-06	1.141e-06	211.46	75.379	21.103	6.5839	1.1739e-06	32.685	226.800	114.281	262.045	-10.052	143.705	74.703	-9.943	-5.394	175.961	166.011	-6.276	-1.729	-0.698	3.172	142.215	2.280	-8191	255	
2091.081	1	1	0	0	0.28505	0.10329	0.12708	0.10864	0.12139	0.062153	0.13309	0.20984	0.074227	0.32595	0.30102	0.37169	0.099584	0.084081	0.095007	0.16827	-1.7042	-2.5708	-2.0729	-2.5104	-2.2854	-2.0604	-2.6813	-2.3479	-2.3646	-2.4854	-2.1937	-2.4708	-2.5479	-2.0979	-2.6396	-2.2542	202.578	36.361	38.903	62.845	18.065	-18.474	269.249	76.129	287.090	26.827	299.061	296.115	60.442	13.130	251.670	333.711	0.00018895	0.00036199	2.6262e-05	446.16	3.7237e-06	4.3599e-06	707.21	100.03	3.2635e-06	9.901e-07	247.32	85.46	23.661	7.4022	4.3335e-06	37.964	0.00012271	0.00010654	2.8408e-05	399.04	1.1691e-06	1.1473e-06	628.62	89.999	1.1706e-06	1.1621e-06	219.46	76.374	21.45	6.7751	1.1139e-06	33.924	233.768	31.545	64.883	-10.320	156.383	112.701	-9.929	-6.077	132.221	171.922	-6.196	-1.465	-1.526	4.029	315.252	2.382	-8191	255	
2091.201	1	1	0	0	0.18064	0.08556	0.076399	0.13716	0.20352	0.25402	0.23154	0.13832	0.10131	0.18305	0.27084	0.23601	0.021088	0.22796	0.27551	0.0043305	-1.6542	-2.5375	-2.2042	-2.3625	-2.3708	-2.0354	-2.6021	-2.3187	-2.0875	-2.6437	-2.4042	-2.4792	-2.5563	-2.025	-2.6125	-2.4271	161.731	-14.848	115.692	247.974	309.792	148.754	269.738	283.288	42.143	102.073	290.951	311.517	40.002	152.933	108.347	243.766	0.00017906	0.00056639	6.8867e-05	451.8	1.3731e-06	2.7308e-07	725.08	105.11	1.0648e-06	2.203e-06	266.21	90.366	25.046	8.5895	2.5912e-06	43.483	0.00012441	0.00011129	3.0023e-05	402.94	1.1857e-06	1.1864e-06	646.42	93.978	1.2294e-06	1.1892e-06	236.85	81.056	22.671	7.8336	1.2371e-06	38.83	249.087	37.679	43.391	-10.408	140.193	-4.678	-10.214	-6.556	119.742	101.092	-5.966	-1.866	-1.138	3.017	140.837	1.927	-8191	255	
2091.297	1	1	0	0	0.134	0.14381	0.2353	0.064268	0.24992	0.0082008	0.077465	0.11076	0.15195	0.089122	0.23318	0.38228	0.26009	0.14852	0.21813	0.07481	-1.6875	-2.4458	-2.2604	-2.2354	-2.4125	-2.0563	-2.5812	-2.4083	-2.1729	-2.4938	-2.3312	-2.2292	-2.4979	-2.1167	-2.4813	-2.5542	197.630	308.833	152.625	235.768	58.166	112.390	26.047	65.508	231.550	85.649	247.477	81.895	5.586	56.177	263.060	160.680	0.00021601	0.00050705	9.9185e-05	483.88	3.3938e-06	9.1802e-07	788.57	114.04	3.0266e-06	5.8423e-06	296.31	97.654	26.342	10.044	4.1707e-06	51.16	0.00012283	0.00010652	2.7919e-05	431.28	1.1987e-06	1.1255e-06	701.12	102.5	1.2097e-06	1.1481e-06	263.94	87.845	24.122	9.1564	1.1053e-06	45.6	227.269	105.708	64.731	-10.331	189.794	152.998	-10.242	-5.971	238.072	133.780	-6.797	-1.749	-1.830	3.308	105.520	1.920	-8191	255	
2091.392	1	1	0	0	0.23634	0.14494	0.097132	0.048749	0.10843	0.025545	0.22101	0.20302	0.17792	0.16728	0.2022	0.12157	0.18315	0.18907	0.15546	0.23939	-1.5583	-2.4875	-2.2	-2.1958	-2.4479	-2.1292	-2.5	-2.4146	-1.9625	-2.4979	-2.1875	-2.2479	-2.5896	-2.2833	-2.3583	-2.5771	157.390	107.901	86.592	307.355	276.718	-20.593	225.649	302.330	19.620	97.659	278.751	11.603	5.150	315.527	103.222	281.058	0.00026605	0.00040788	9.2412e-05	527.14	5.4387e-06	4.4213e-06	897.24	130.57	3.079e-06	1.2911e-06	332.38	107.81	28.525	11.403	2.8884e-06	54.659	0.00012356	9.7308e-05	2.7048e-05	470.9	1.1335e-06	1.0652e-06	798.86	117.01	1.128e-06	1.0866e-06	296.53	96.987	25.893	10.308	1.127e-06	49.073	239.176	7.994	52.875	-10.708	167.237	130.121	-10.424	-5.958	145.388	74.436	-7.315	-1.840	-1.795	3.366	60.741	1.302	-8191	255	
2091.488	1	1	0	0	0.23421	0.21446	0.12697	0.078933	0.058361	0.13933	0.097649	0.11476	0.17323	0.22835	0.25707	0.20948	0.11622	0.12077	0.20008	0.29319	-1.4688	-2.6417	-2.3063	-2.0375	-2.6125	-2.3521	-2.4	-2.5208	-2.1063	-2.5312	-2.5104	-2.2875	-2.5167	-2.2562	-2.3417	-2.6917	116.023	157.310	203.134	-5.804	332.776	219.396	15.116	230.028	249.418	111.475	131.949	294.523	274.802	199.176	103.565	272.191	0.00024304	0.00013175	7.872e-05	547.98	3.1222e-06	1.4356e-06	911.04	131.82	1.6998e-06	4.0018e-06	333.92	107.65	28.819	11.202	4.4223e-06	53.515	0.00011476	9.6098e-05	2.6813e-05	485.4	1.0178e-06	1.0585e-06	809.14	118.93	9.789e-07	1.0591e-06	296.35	96.709	25.843	10.142	1.1291e-06	47.953	224.983	11.191	38.179	-10.978	151.639	118.618	-10.671	-6.338	125.337	129.047	-7.081	-1.846	-1.739	3.475	104.759	1.584	-8191	255	
2091.584	1	1	0	0	0.074274	0.26658	0.16588	0.22283	0.058054	0.22903	0.24586	0.035057	0.062572	0.12316	0.32384	0.41416	0.22964	0.12996	0.12066	0.077023	-1.6688	-2.2979	-2.3208	-2.0687	-2.5479	-2.4583	-2.3042	-2.4833	-2.2188	-2.4938	-2.5812	-2.2229	-2.5104	-2.3063	-2.1667	-2.6437	110.175	57.522	103.968	288.029	301.864	163.026	276.366	203.788	288.447	275.454	279.554	-15.748	60.371	292.322	124.984	294.102	0.00020514	0.00045826	0.00013226	548.99	9.0469e-07	3.2068e-06	911.21	131.31	3.9757e-06	2.6523e-06	309.41	99.172	26.009	8.4676	3.2685e-06	38	0.00011747	0.00010551	2.6736e-05	491.54	1.0782e-06	1.0157e-06	805.27	117.37	9.7394e-07	1.0033e-06	275.19	88.555	23.557	7.835	1.1054e-06	34.207	236.813	84.912	99.736	-11.074	180.796	37.487	-10.181	-6.539	119.912	110.503	-7.059	-1.902	-1.273	3.198	147.444	2.456	-8191	255	
2091.680	1	1	0	0	0.089103	0.19492	0.21081	0.053491	0.049731	0.055854	0.29482	0.21485	0.12635	0.22315	0.10992	0.1219	0.035847	0.1494	0.2182	0.10251	-1.7208	-2.5312	-2.5104	-2.0833	-2.5521	-2.1979	-2.275	-2.8042	-2.3125	-2.5625	-2.5083	-2.225	-2.6	-2.3833	-2.1542	-2.7792	135.954	50.729	205.652	192.293	72.374	245.125	72.898	238.416	55.487	198.746	279.261	3.957	200.912	6.240	171.833	132.858	0.0001636	0.00039655	8.9458e-05	434.19	3.2836e-06	2.3013e-06	672.18	98.057	1.7835e-06	6.4956e-07	230.71	79.131	21.78	6.9312	4.7378e-06	33.624	0.00011912	0.0001137	3.098e-05	389.87	1.233e-06	1.22e-06	598.37	88.128	1.2203e-06	1.2979e-06	205.23	70.735	19.953	6.309	1.3026e-06	30.418	227.871	55.335	26.153	-10.618	133.628	329.219	-10.494	-5.429	171.396	55.930	-6.409	-1.709	-1.463	3.984	228.586	2.814	-8191	255	
2091.801	1	1	0	0	0.060945	0.13026	0.17033	0.19263	0.27815	0.14294	0.25894	0.31207	0.086218	0.20062	0.11683	0.10062	0.18964	0.10692	0.12415	0.1855	-1.7542	-2.2438	-2.6104	-2.1792	-2.5354	-2.3063	-2.0563	-2.4875	-2.1792	-2.4562	-2.4958	-2.1771	-2.35	-2.525	-2.1625	-2.5479	271.597	49.962	96.443	320.699	266.703	58.159	280.789	-19.606	129.243	30.058	-16.403	64.523	134.302	302.186	239.241	214.636	0.00016981	0.00024231	0.0001057	412.11	6.236e-07	1.6696e-06	636.8	92.432	1.8987e-06	2.1081e-06	222.64	75.54	21.096	6.426	4.1091e-06	32.522	0.00012871	0.00012359	3.3428e-05	371.54	1.2995e-06	1.2696e-06	570.61	83.883	1.3058e-06	1.3438e-06	198.88	67.633	19.248	5.9561	1.3161e-06	29.149	233.924	98.095	13.621	-10.670	132.754	168.389	-10.342	-5.849	122.167	108.853	-6.438	-1.333	-0.677	3.349	173.726	2.246	-8191	255	
2091.897	1	1	0	0	0.22256	0.088216	0.21185	0.16024	0.074648	0.064887	0.24573	0.27706	0.05814	0.17337	0.16987	0.17059	0.060459	0.10483	0.15027	0.17352	-1.9979	-2.0938	-2.5187	-2.1646	-2.5271	-2.4813	-2.2542	-2.5687	-2.3479	-2.1604	-2.6479	-2.3104	-2.3042	-2.4292	-1.9958	-2.6417	-14.030	254.084	5.521	302.087	195.234	220.593	7.515	5.434	138.565	304.321	284.125	207.003	265.812	166.220	76.912	-5.916	0.00014343	0.00037811	3.3215e-05	408.57	2.3594e-06	4.3503e-06	627.5	91.431	3.8151e-06	5.1214e-06	216.65	73.657	20.515	6.1241	2.9713e-06	31.107	0.00012614	0.00012711	3.4723e-05	364.57	1.4066e-06	1.3442e-06	560.39	82.604	1.3705e-06	1.4471e-06	194.38	66.286	18.911	5.7157	1.3693e-06	27.907	254.028	105.979	233.242	-10.710	140.418	100.216	-10.137	-5.725	158.036	167.433	-6.305	-2.032	-1.000	4.348	70.360	2.897	-8191	255	
2091.993	1	1	0	0	0.084254	0.22298	0.088548	0.2087	0.21491	0.027268	0.17091	0.33686	0.30241	0.086366	0.1828	0.16713	0.08769	0.10719	0.092193	0.0033484	-1.7708	-2.2292	-2.6229	-2.1583	-2.2979	-2.5646	-2.3312	-2.65	-2.5687	-2.1562	-2.8271	-2.2729	-2.3146	-2.7458	-2.2313	-2.4583	211.585	138.670	73.745	22.884	101.895	12.999	230.359	62.595	185.477	-3.599	235.342	317.408	106.298	76.415	294.771	198.679	0.00012396	0.00025872	8.9979e-05	401.5	3.2844e-06	3.1797e-06	615.5	89.358	2.2135e-06	1.0291e-06	213.32	72.527	19.912	6.1215	2.4474e-06	30.673	0.00013144	0.00012617	3.6784e-05	357.23	1.4034e-06	1.415e-06	549.11	80.665	1.4044e-06	1.411e-06	190.63	65.735	18.494	5.649	1.3595e-06	27.609	223.320	91.733	45.543	-10.635	152.033	109.429	-10.138	-5.649	124.701	166.106	-6.167	-1.700	-2.367	3.391	136.971	2.884	-8191	255	
2092.089	1	1	0	0	0.28845	0.17755	0.19076	0.20715	0.093082	0.15578	0.10597	0.26653	0.21573	0.1788	0.13351	0.184	0.15551	0.15069	0.12615	0.27686	-1.875	-2.2438	-2.6521	-2.3187	-2.4417	-2.5667	-2.1479	-2.4833	-2.3187	-2.0417	-2.5812	-2.2521	-2.2229	-2.6583	-2.1437	-2.4104	30.905	113.484	150.026	7.544	301.836	39.596	73.556	311.282	306.165	242.090	65.158	246.418	264.989	222.862	172.878	265.946	0.00010456	0.00013658	4.4772e-05	399.29	4.8683e-06	5.439e-06	607.43	88.694	1.7481e-06	7.511e-07	210.69	72.812	19.97	5.995	5.6508e-07	29.916	0.00013809	0.00012726	3.6694e-05	354.82	1.4322e-06	1.4367e-06	544.59	80.104	1.4036e-06	1.4328e-06	188.53	65.176	18.506	5.5635	1.4254e-06	27.042	229.477	172.933	-8.599	-10.891	161.215	108.543	-10.365	-5.683	114.289	244.954	-6.399	-1.291	-1.223	3.546	210.434	2.893	-8191	255	
2092.161	1	1	0	0	0.051118	0.13199	0.12432	0.01553	0.28588	0.14167	0.20706	0.25851	0.094394	0.1683	0.086544	0.094156	0.13726	0.17868	0.29419	0.043131	-2.0625	-2.175	-2.3354	-2.1958	-2.1771	-2.5167	-2.3563	-2.2896	-2.5125	-2.1813	-2.6146	-2.4042	-2.0521	-2.5958	-2.3563	-2.425	146.196	106.225	300.611	28.903	312.272	306.273	306.276	275.530	228.690	225.068	131.225	312.006	-17.116	160.499	228.455	229.489	0.00016337	0.00040972	9.0885e-05	386.91	8.4192e-06	2.3422e-06	596.68	86.162	2.8227e-06	2.9313e-06	204.09	71.436	19.762	5.9199	9.6733e-07	29.738	0.0001337	0.00012909	3.5366e-05	347.51	1.4498e-06	1.4315e-06	532.45	77.982	1.4479e-06	1.3898e-06	184.2	64.147	18.15	5.5138	1.369e-06	26.81	230.113	-13.305	63.333	-10.556	193.779	147.491	-10.725	-5.759	20.161	157.152	-5.937	-1.979	-0.537	3.995	81.471	2.784	-8191	255	
2092.280	1	1	0	0	0.26629	0.061683	0.098366	0.37082	0.19354	0.084672	0.13205	0.043052	0.13811	0.063335	0.23795	0.22747	0.092936	0.12721	0.16953	0.14011	-1.9417	-2.1417	-2.4792	-2.3521	-2.0687	-2.6708	-2.2708	-2.2938	-2.6562	-2.125	-2.475	-2.3896	-2.1583	-2.5875	-2.3375	-2.5187	43.915	84.792	301.203	263.176	243.862	5.023	220.473	87.647	151.458	291.934	157.433	273.798	322.495	200.514	176.591	335.193	0.00013518	0.00011522	7.9522e-06	377.63	3.5712e-06	3.3248e-06	578.75	83.01	3.8406e-06	2.2959e-06	200.98	69.964	19.341	5.8985	3.8505e-06	29.544	0.00014216	0.00013128	3.7161e-05	340.36	1.4982e-06	1.4473e-06	519.8	75.739	1.4595e-06	1.4433e-06	179.66	63.085	17.803	5.4218	1.5142e-06	26.54	220.823	18.036	269.600	-10.967	167.989	123.877	-9.930	-5.789	180.605	268.863	-6.401	-1.680	-1.326	3.431	109.127	2.543	-8191	255	
2092.376	1	1	0	0	0.22068	0.22507	0.2369	0.062897	0.33354	0.12884	0.29974	0.10996	0.086557	0.082251	0.17926	0.30662	0.15855	0.22108	0.14226	0.15503	-2.1104	-2.0208	-2.3021	-2.3875	-2.0292	-2.6042	-2.3208	-2.4979	-2.7604	-2.2146	-2.5271	-2.6104	-2.0979	-2.6542	-2.3729	-2.4167	201.038	162.535	160.141	61.714	92.596	273.013	319.857	244.258	298.195	189.148	232.407	328.560	256.328	263.597	230.791	179.695	0.00015627	0.00026469	9.6903e-05	373.36	2.616e-06	2.4211e-06	569.24	81.088	2.6282e-06	3.8245e-06	191.54	69.653	19.097	5.6948	3.0358e-06	28.886	0.00014064	0.00013114	3.7446e-05	334.03	1.4412e-06	1.4605e-06	510.81	73.355	1.4616e-06	1.3999e-06	171.63	62.515	17.573	5.2982	1.397e-06	25.99	221.892	11.581	67.397	-10.526	254.755	6.038	-10.416	-5.639	153.759	93.514	-6.806	-2.137	-0.564	3.714	210.735	2.704	-8191	255	
2092.472	1	1	0	0	0.15497	0.10641	0.19972	0.18924	0.21815	0.19918	0.075351	0.086486	0.35853	0.10557	0.074257	0.029261	0.19786	0.057263	0.11169	0.38506	-2.1625	-2.1667	-2.3521	-2.5125	-2.1479	-2.6292	-2.4146	-1.8625	-2.6437	-2.3542	-2.5125	-2.5187	-2.2458	-2.425	-2.35	-2.1042	7.034	6.741	255.391	278.764	165.577	78.130	251.355	37.318	279.302	170.333	239.435	60.665	257.540	281.637	-2.411	287.485	0.00013196	0.00035768	0.0001231	363.04	2.477e-06	1.3716e-06	563.28	79.631	2.9856e-06	1.9983e-06	187.09	68.186	18.936	5.5612	1.9492e-06	27.982	0.00014042	0.0001279	3.7212e-05	325.49	1.3366e-06	1.4226e-06	501.2	71.29	1.3603e-06	1.3746e-06	167.29	61.505	17.285	5.1456	1.3561e-06	25.346	239.036	19.752	55.884	-10.484	168.285	31.766	-10.423	-5.310	239.274	111.069	-6.623	-1.511	-0.933	3.683	102.928	2.564	-8191	255	
2092.568	1	1	0	0	0.086325	0.23078	0.3318	0.12166	0.2116	0.12251	0.22486	0.047785	0.14328	0.15382	0.19825	0.30778	0.13951	0.18867	0.18647	0.081644	-2.0812	-2.2396	-2.3937	-2.5917	-1.9958	-2.5333	-2.5	-2.1583	-2.5563	-2.3375	-2.2271	-2.5917	-2.1417	-2.5146	-2.375	-2.075	-11.372	156.189	206.475	321.616	105.114	127.135	234.706	145.662	36.750	158.874	332.537	262.744	69.145	194.755	63.074	269.273	0.00011491	0.00038348	4.4635e-05	358.51	9.9481e-07	6.5485e-07	542.88	76.638	3.2098e-06	2.2865e-06	181.83	67.221	18.653	5.4995	3.6646e-06	27.5	0.00013303	0.00011594	3.5566e-05	319.88	1.3414e-06	1.3819e-06	488.14	68.926	1.3793e-06	1.2822e-06	163.05	60.627	16.941	5.1	1.3276e-06	24.731	254.847	37.616	35.267	-10.669	242.354	205.874	-10.073	-5.471	139.125	140.066	-6.362	-1.535	-1.578	3.296	236.166	2.511	-8191	255	
2092.689	1	1	0	0	0.22968	0.32926	0.099831	0.137	0.09131	0.099101	0.11499	0.19328	0.16061	0.17414	0.16912	0.1512	0.13229	0.36431	0.32183	0.065947	-2.1042	-2.325	-2.1188	-2.6542	-2.1479	-2.3271	-2.5292	-2.1312	-2.6167	-2.3958	-2.1354	-2.5604	-2.1542	-2.4354	-2.5396	-2.2333	162.883	121.608	247.217	37.612	208.201	24.171	231.040	288.488	124.556	-20.099	260.433	186.921	134.322	188.752	224.180	219.895	0.00012695	0.00016525	7.3403e-05	351.96	2.6659e-06	4.9809e-06	543.96	75.576	1.055e-06	3.2956e-06	181.42	67.081	18.357	5.3561	3.1997e-06	27.381	0.00012984	0.00012018	3.2393e-05	314.93	1.3079e-06	1.4093e-06	483.85	67.975	1.3668e-06	1.294e-06	161.92	60.291	16.895	4.9665	1.3893e-06	24.722	227.862	65.779	76.023	-9.761	152.744	78.272	-10.209	-5.883	198.188	127.133	-6.181	-1.654	-1.087	3.540	137.777	2.443	-8191	255	
2092.761	1	1	0	0	0.18602	0.29975	0.090033	0.26368	0.17712	0.065363	0.19042	0.22572	0.12985	0.24045	0.084979	0.18661	0.015404	0.24026	0.23798	0.31622	-2.0792	-2.2354	-2.0104	-2.6083	-2.0354	-2.4104	-2.7458	-2.1604	-2.5854	-2.4146	-2.2	-2.7354	-2.1771	-2.2812	-2.5563	-2.1771	46.955	98.378	315.330	334.845	322.884	55.563	229.722	240.531	216.069	150.501	-5.175	32.527	207.759	142.095	157.013	292.616	0.00012836	0.00026875	8.0303e-05	352.35	4.2936e-06	2.0348e-06	547.21	76.26	1.8255e-06	1.6065e-06	183.25	66.764	18.388	5.487	2.1399e-06	27.72	0.00013687	0.00012679	3.5697e-05	315.64	1.3418e-06	1.407e-06	485.71	68.422	1.3739e-06	1.4118e-06	163.34	59.935	16.82	5.0765	1.4612e-06	24.935	208.365	48.281	97.444	-10.247	132.357	90.278	-10.470	-6.145	220.240	164.280	-6.437	-1.487	-2.322	3.814	320.279	2.640	-8191	255	
2092.881	1	1	0	0	0.35114	0.16442	0.070872	0.22085	0.12418	0.044382	0.017539	0.15276	0.075271	0.040149	0.14428	0.053149	0.31443	0.080825	0.19332	0.079819	-1.9625	-2.4792	-2.0125	-2.5	-2.1875	-2.325	-2.7021	-2.1646	-2.3146	-2.55	-2.1167	-2.4562	-2.4542	-2.3125	-2.6979	-2.0271	106.503	241.798	19.048	299.763	-21.953	195.243	187.579	13.705	71.769	331.780	320.806	71.439	324.930	280.272	225.671	331.367	0.0001383	0.00021529	6.9303e-05	357.82	1.0282e-06	8.3844e-07	543.29	76.331	2.9163e-06	2.0442e-06	183.02	66.196	17.876	5.3691	1.5013e-06	27.309	0.00013511	0.00013027	3.3937e-05	317.76	1.3275e-06	1.3418e-06	485.69	68.814	1.4455e-06	1.3932e-06	164.29	59.692	16.603	5.0158	1.4055e-06	24.636	231.601	14.947	46.190	-11.194	90.294	292.848	-10.100	-5.714	138.120	183.548	-6.265	-1.025	-1.092	3.917	150.492	3.080	-8191	255	
2092.977	1	1	0	0	0.090118	0.24453	0.13814	0.11428	0.20547	0.28138	0.22815	0.06213	0.089812	0.053797	0.041147	0.16355	0.28613	0.24259	0.18972	0.12491	-1.8062	-2.4083	-2.0708	-2.5875	-2.3292	-2.2875	-2.675	-2.2208	-2.4458	-2.5896	-2.1875	-2.5396	-2.2687	-2.3563	-2.5104	-2.1229	120.103	209.166	261.624	21.000	75.202	10.665	254.718	95.368	197.755	303.333	93.265	274.024	120.247	316.517	302.725	175.559	0.00018088	0.00030302	6.9655e-05	353.41	4.1972e-06	1.8073e-06	544.34	77.692	2.6091e-06	4.8355e-06	185.84	66.089	18.033	5.4301	5.1102e-06	27.236	0.0001363	0.00013341	3.5104e-05	317.76	1.4104e-06	1.414e-06	488.46	69.946	1.4609e-06	1.4504e-06	166.98	59.585	16.723	5.0152	1.452e-06	24.545	223.729	62.890	91.703	-10.489	147.740	79.408	-10.263	-5.257	137.071	117.373	-6.238	-1.734	-0.540	4.010	138.421	2.618	-8191	255	
2093.073	1	1	0	0	0.0088479	0.28003	0.2499	0.13682	0.17646	0.21631	0.12556	0.12053	0.12682	0.081845	0.11613	0.19569	0.17719	0.21443	0.072394	0.10653	-2.0021	-2.4458	-2.1312	-2.6583	-2.4125	-2.1875	-2.7271	-2.3438	-2.1958	-2.5542	-2.2271	-2.4167	-2.2375	-2.1729	-2.5604	-2.3646	228.796	116.824	112.059	194.780	189.044	272.783	272.278	92.438	166.613	88.029	267.421	273.055	23.436	267.356	83.250	316.821	8.3685e-05	0.00011458	6.7268e-05	356.11	2.8671e-06	3.5902e-06	552.22	76.935	1.1679e-06	1.5894e-06	186.59	66.402	17.738	5.4499	3.7302e-06	27.682	0.00013765	0.0001239	3.6706e-05	317.05	1.416e-06	1.4454e-06	488.9	69.517	1.4725e-06	1.447e-06	166.91	59.785	16.638	5.0398	1.5467e-06	24.765	235.760	113.427	56.539	-10.328	184.540	104.000	-10.251	-5.954	111.533	144.126	-6.740	-1.210	-2.422	3.573	94.068	3.183	-8191	255	
2093.170	1	1	0	0	0.20583	0.081501	0.16403	0.15359	0.09796	0.048507	0.034122	0.091931	0.19596	0.10726	0.16071	0.12014	0.37369	0.18146	0.021685	0.1206	-1.875	-2.6125	-2.0042	-2.3729	-2.4667	-2.2188	-2.7958	-2.425	-2.3083	-2.5979	-2.2333	-2.3229	-2.4771	-2.1083	-2.7375	-2.4479	273.267	121.576	224.578	309.901	228.984	272.242	227.285	22.044	184.587	323.512	293.452	66.445	-0.362	232.286	226.873	64.088	0.00015197	0.00041673	6.6857e-05	355.32	4.2343e-06	1.5058e-06	539.78	76.608	3.7675e-06	3.7301e-06	182.89	64.99	17.851	5.2857	2.2395e-06	26.982	0.00014537	0.00013872	3.6855e-05	317.86	1.5007e-06	1.464e-06	485.59	69.225	1.5653e-06	1.5353e-06	163.82	58.701	16.522	4.9721	1.558e-06	24.197	240.198	56.886	244.939	-10.248	132.315	104.558	-9.763	-6.022	147.910	171.687	-6.521	-1.969	-1.691	3.374	-7.517	2.477	-8191	255	
2093.289	1	1	0	0	0.17461	0.1499	0.028079	0.11376	0.12745	0.2068	0.22443	0.2173	0.24109	0.086138	0.023197	0.1392	0.16911	0.14445	0.29537	0.12886	-1.7354	-2.6583	-2.2896	-2.3917	-2.4667	-2.1958	-2.7104	-2.4417	-2.3125	-2.8292	-2.2812	-2.4729	-2.7479	-2.0479	-2.4875	-2.4729	336.259	276.094	261.660	99.414	17.145	302.512	258.342	275.614	2.863	115.668	197.573	-0.595	10.053	64.220	-15.692	0.935	0.00016357	0.00053222	0.00013276	351.73	5.7215e-06	4.4636e-06	543.39	76.464	2.7139e-06	3.8924e-06	182.59	65.558	17.877	5.2041	4.3165e-06	26.898	0.00015099	0.00014025	3.8884e-05	315.77	1.5971e-06	1.5381e-06	484.93	69.2	1.5235e-06	1.5554e-06	163.47	59.111	16.624	4.9221	1.5465e-06	24.346	234.220	93.417	18.303	-10.301	174.351	190.640	-10.269	-5.384	137.525	102.106	-6.564	-1.723	-1.425	3.322	124.899	2.652	-8191	255	
2093.360	1	1	0	0	0.14265	0.16829	0.2088	0.33448	0.18391	0.25242	0.16585	0.27274	0.33066	0.087252	0.20619	0.025404	0.14349	0.13969	0.15761	0.17886	-1.725	-2.3812	-2.1896	-2.4604	-2.5563	-2.0521	-2.525	-2.4396	-2.1042	-2.725	-2.3896	-2.2687	-2.6333	-2.0104	-2.2646	-2.4229	98.971	65.691	166.751	7.223	193.529	100.899	306.524	291.356	134.170	250.763	5.809	133.101	319.878	324.808	257.062	250.068	0.00016397	0.00065434	8.8732e-05	356.46	8.701e-07	5.7912e-06	547.89	76.362	4.0868e-06	4.7459e-07	184.49	66.375	18.24	5.4255	1.4711e-06	26.603	0.00014889	0.00014509	3.7989e-05	318.59	1.4938e-06	1.4953e-06	488.93	69.359	1.503e-06	1.5333e-06	164.58	59.38	16.783	4.9529	1.5832e-06	24.139	227.999	3.902	118.365	-10.720	322.489	147.781	-10.297	-5.311	97.859	106.260	-6.305	-1.856	-1.005	3.457	114.908	2.127	-8191	255	
2093.481	1	1	0	0	0.097048	0.10703	0.20725	0.19265	0.24663	0.15994	0.26365	0.11792	0.31188	0.153	0.18533	0.29744	0.2471	0.31222	0.15489	0.2562	-1.5271	-2.4188	-2.2771	-2.2042	-2.5812	-2.2271	-2.3396	-2.3833	-2.3771	-2.4875	-2.3063	-2.1875	-2.5104	-2.1854	-2.3792	-2.5729	53.562	89.520	279.584	4.270	18.425	-10.745	228.725	188.806	252.303	248.910	251.437	334.105	332.218	323.501	263.149	286.930	0.00016139	0.00024885	4.6392e-05	354.55	1.8352e-06	6.8232e-06	545.84	76.51	3.7461e-06	2.5897e-06	184.44	65.216	18.058	5.0775	1.5006e-06	26.309	0.000147	0.00014334	4.0618e-05	316.57	1.4952e-06	1.5625e-06	487.56	69.546	1.5342e-06	1.6118e-06	164.25	59.093	16.737	4.7908	1.5957e-06	23.737	231.036	37.399	80.061	-10.485	59.925	115.698	-9.876	-5.826	136.400	102.553	-6.075	-1.574	-0.298	3.756	320.368	2.547	-8191	255	
2093.577	1	1	0	0	0.31735	0.09321	0.22063	0.022337	0.044965	0.11726	0.17786	0.079602	0.21209	0.092111	0.11547	0.032569	0.14781	0.12973	0.21195	0.049071	-1.6542	-2.4958	-2.3896	-2.3792	-2.5042	-2.3417	-2.3271	-2.5187	-2.2833	-2.3792	-2.4771	-2.2354	-2.5062	-2.1604	-2.3042	-2.5625	1.562	10.994	316.974	231.730	281.450	277.187	73.000	14.168	172.536	65.373	273.436	185.922	320.532	129.193	51.323	148.683	9.4371e-05	0.00033455	5.4104e-05	347.89	3.9374e-06	3.2605e-06	539.95	75.483	4.3399e-06	1.5661e-06	182.57	66.614	18.27	5.1954	3.3613e-06	26.35	0.00014065	0.00013715	3.8173e-05	311.63	1.4455e-06	1.4534e-06	483.17	68.643	1.476e-06	1.4946e-06	163.88	59.709	16.961	4.8217	1.5211e-06	23.779	229.322	26.778	157.865	-10.220	190.143	102.000	-10.450	-5.335	201.960	207.217	-6.807	-1.884	-1.525	2.155	35.683	2.352	-8191	255	
2093.673	1	1	0	0	0.12146	0.075905	0.066224	0.079922	0.096033	0.15873	0.030793	0.089859	0.084985	0.09469	0.087229	0.044651	0.111	0.20955	0.12172	0.012422	-1.5958	-2.4146	-2.425	-2.1417	-2.5687	-2.1854	-2.1417	-2.4979	-2.0896	-2.475	-2.4042	-2.1708	-2.4313	-2.2354	-2.1833	-2.6479	57.321	85.226	138.427	213.985	247.972	294.592	318.831	320.367	298.384	336.289	299.450	287.945	219.785	176.610	232.578	65.316	6.7153e-05	0.00048586	1.1473e-05	352.91	2.1822e-06	2.5509e-06	539.57	75.512	2.3974e-06	3.5567e-06	180.69	66.14	18.307	5.0632	3.0087e-06	25.967	0.000135	0.00014058	3.7416e-05	315.28	1.5176e-06	1.4879e-06	483.2	68.562	1.4356e-06	1.5273e-06	162.13	59.716	16.895	4.7941	1.5318e-06	23.557	203.659	15.904	150.512	-10.381	94.555	128.215	-10.033	-5.322	157.791	145.805	-6.366	-1.337	-1.750	3.566	13.891	2.652	-8191	255	
2093.769	1	1	0	0	0.37529	0.30701	0.24839	0.12628	0.17987	0.14561	0.078771	0.16098	0.28218	0.14769	0.21986	0.48034	0.074878	0.13012	0.24457	0.14141	-1.7104	-2.2375	-2.4188	-2.0208	-2.4854	-2.2687	-2.0917	-2.5812	-2.1042	-2.5208	-2.5125	-2.1	-2.5438	-2.3396	-2.0438	-2.5146	269.537	211.374	42.018	318.289	-17.148	264.567	6.142	262.491	285.242	271.463	312.590	17.102	107.485	142.922	183.408	221.960	0.00010331	0.00017685	8.2167e-05	346.88	4.3056e-06	7.9353e-07	536.98	75.57	1.6391e-06	6.7445e-06	178.82	66.116	18.262	4.9375	4.6646e-06	25.861	0.00013805	0.00013994	3.994e-05	312.22	1.5835e-06	1.5115e-06	480.62	68.438	1.4687e-06	1.5084e-06	161.07	59.351	16.825	4.6444	1.4762e-06	23.25	237.368	332.062	90.768	-10.206	225.454	313.827	-10.107	-6.056	158.738	153.350	-7.076	-1.543	-1.002	2.585	84.076	2.504	-8191	255	
2093.865	1	1	0	0	0.15546	0.19984	0.12659	0.10264	0.12077	0.24619	0.1747	0.17172	0.10558	0.097674	0.19886	0.10251	0.10258	0.40313	0.19756	0.29466	-1.6729	-2.1583	-2.2854	-2.0479	-2.5417	-2.3583	-2.1667	-2.4854	-2.2625	-2.2958	-2.4521	-1.9292	-2.3333	-2.3458	-2.25	-2.6625	46.051	150.145	251.898	219.094	303.378	-18.066	144.582	315.456	235.982	276.984	271.163	254.826	315.677	32.919	-8.465	262.996	0.00010655	0.00024142	6.747e-05	346.71	2.0502e-06	4.8409e-06	540.01	75.731	1.155e-06	1.7389e-06	177.11	65.506	17.93	4.945	4.0283e-06	24.745	0.00013837	0.00014381	3.7473e-05	313.21	1.5533e-06	1.5113e-06	481.31	68.373	1.4902e-06	1.6258e-06	159.85	58.874	16.773	4.5652	1.5555e-06	22.356	221.916	72.177	61.442	-10.106	174.234	73.440	-10.052	-5.672	179.699	92.371	-6.476	-2.012	-1.382	3.073	159.749	2.680	-8191	255	
2093.986	1	1	0	0	0.17098	0.31172	0.12055	0.030263	0.028934	0.17197	0.24052	0.13259	0.11755	0.25005	0.16671	0.076258	0.27132	0.1335	0.11133	0.048162	-1.8854	-2.2146	-2.5104	-2.0792	-2.5396	-2.4	-2.2208	-2.5083	-2.3312	-2.0604	-2.6729	-2.1042	-2.4667	-2.4875	-2.1542	-2.4979	114.484	170.844	213.737	2.590	253.482	111.247	273.775	283.539	139.056	209.620	238.009	1.548	60.287	107.531	222.366	120.517	8.9521e-05	0.00015331	7.6374e-05	346.9	1.7344e-06	4.5085e-06	532.05	75.349	5.9145e-06	1.4881e-06	180.94	65.678	17.945	4.8834	1.6797e-06	24.79	0.00014799	0.00014714	4.0471e-05	310.18	1.6156e-06	1.6011e-06	476.85	68.534	1.6441e-06	1.6443e-06	161.79	58.731	16.851	4.593	1.5723e-06	22.468	198.708	323.274	77.854	-10.573	165.742	64.924	-10.538	-5.630	189.349	-3.958	-6.490	-1.354	-1.465	3.015	287.675	2.805	-8191	255	
2094.058	1	1	0	0	0.15292	0.074029	0.12064	0.27436	0.11227	0.1773	0.026592	0.098561	0.033797	0.20843	0.069388	0.088455	0.090339	0.11379	0.057571	0.17562	-1.8083	-2.0792	-2.3479	-2.1437	-2.0646	-2.5187	-2.1729	-2.3542	-2.1729	-2.3104	-2.5208	-2.2458	-2.1688	-2.5083	-2.1188	-2.5271	229.364	177.439	234.026	300.662	329.391	149.860	183.249	143.054	289.538	129.005	-21.799	-18.245	0.520	18.384	181.189	222.262	7.176e-05	0.00029411	7.7423e-05	347.28	2.1652e-06	2.5402e-06	534.28	75.252	9.2149e-07	5.0373e-07	177.38	64.644	18.452	4.8186	3.3187e-06	24.852	0.00015578	0.00014581	4.1835e-05	312.15	1.6697e-06	1.6106e-06	477.34	68.36	1.5962e-06	1.5584e-06	159.98	58.489	16.989	4.5283	1.5421e-06	22.429	213.952	330.323	43.488	-10.633	163.659	117.671	-10.273	-6.522	317.950	2.615	-6.617	-1.599	-1.266	4.119	144.644	2.799	-8191	255	
2094.154	1	1	0	0	0.16409	0.11077	0.11759	0.26139	0.051129	0.13404	0.13384	0.060888	0.076227	0.017094	0.1593	0.32992	0.12219	0.10628	0.28618	0.1606	-1.9125	-1.9312	-2.5458	-2.3208	-2.2208	-2.5229	-2.1292	-2.2313	-2.4958	-2.1104	-2.5812	-2.3146	-2.225	-2.5479	-2.125	-2.4062	26.981	255.078	224.773	48.974	242.511	89.584	58.416	43.087	215.681	170.952	304.963	19.044	179.521	9.573	-7.418	11.966	0.00019119	0.00011767	4.5593e-05	345.51	3.7171e-06	3.3222e-06	534.29	74.148	2.0359e-06	2.4016e-06	177.99	64.865	17.907	4.7638	1.6036e-06	24.752	0.00014339	0.00014663	3.9656e-05	310.61	1.5889e-06	1.5992e-06	477.63	68.053	1.583e-06	1.6077e-06	159.4	58.624	16.894	4.5035	1.5961e-06	22.452	239.930	332.886	23.090	-10.507	80.113	124.548	-9.858	-5.839	157.390	330.493	-6.201	-1.857	-1.186	3.840	329.013	2.645	-8191	255	
2094.250	1	1	0	0	0.048284	0.086021	0.19167	0.096927	0.077053	0.20469	0.062927	0.15247	0.081856	0.11232	0.085378	0.16715	0.093976	0.18434	0.19046	0.1351	-1.8354	-2.1437	-2.375	-2.4229	-2.2625	-2.6667	-2.3167	-2.1854	-2.3667	-2.125	-2.575	-2.3104	-2.0292	-2.6958	-2.0625	-2.3833	331.340	193.781	26.602	303.214	133.863	311.964	132.614	-17.279	147.362	-21.461	283.165	154.283	1.162	207.057	1.532	34.698	0.00013144	0.00014584	5.3454e-05	349.12	2.404e-06	3.1654e-06	542.95	76.136	2.7906e-06	1.1667e-06	183.1	64.861	17.83	4.8306	1.4979e-06	24.954	0.00014511	0.00014228	4.053e-05	313.83	1.6375e-06	1.6322e-06	485.17	69.172	1.5853e-06	1.6218e-06	163.93	58.429	16.819	4.5463	1.549e-06	22.659	230.582	109.636	112.229	-10.819	316.603	124.874	-10.272	-5.538	155.396	242.372	-6.465	-1.536	-2.055	3.119	313.085	2.725	-8191	255	
2094.369	1	1	0	0	0.21638	0.19152	0.348	0.093797	0.056061	0.21288	0.14942	0.19043	0.21912	0.098169	0.13867	0.20866	0.1913	0.18206	0.24461	0.13747	-2.1688	-2.0812	-2.5458	-2.4271	-2.1417	-2.5312	-2.0958	-2.0521	-2.5979	-1.9438	-2.4646	-2.5333	-2.125	-2.5375	-2.2354	-2.2521	229.780	320.812	236.841	25.530	118.673	76.384	263.884	248.730	200.328	307.759	325.716	45.009	75.338	30.308	-12.418	301.406	0.00013724	0.00032816	4.4128e-05	358.07	2.3463e-06	4.6125e-06	557.06	79.187	4.9702e-06	2.8796e-06	185.95	63.227	17.888	4.7234	1.4752e-06	24.262	0.00015057	0.00014023	4.1837e-05	320.63	1.5716e-06	1.5476e-06	494.43	71.145	1.5359e-06	1.4636e-06	166.31	57.292	16.578	4.4215	1.4782e-06	21.976	233.679	284.548	130.558	-9.800	21.323	71.324	-9.937	-5.251	136.562	178.883	-6.267	-1.732	-2.508	4.126	0.136	2.547	-8191	255	
2094.465	1	1	0	0	0.35964	0.24844	0.078731	0.073178	0.063952	0.17502	0.059602	0.12532	0.18836	0.056559	0.26558	0.15439	0.28416	0.14549	0.16071	0.1992	-2.0042	-2.0208	-2.1333	-2.4792	-2.2021	-2.4958	-2.2479	-2.2188	-2.5604	-2.175	-2.4917	-2.3438	-2.0146	-2.4646	-2.4917	-2.2375	174.141	39.723	280.871	24.032	40.746	139.357	303.108	141.092	-4.378	180.809	17.780	151.518	278.382	18.355	247.732	317.670	0.000145	0.00022177	1.9618e-05	354.16	1.2884e-06	5.1961e-06	552.02	78.96	2.2273e-06	2.0012e-06	185.51	63.651	17.77	4.7615	4.6454e-06	24.462	0.0001346	0.00013095	3.7255e-05	319.53	1.5067e-06	1.5154e-06	492.07	71.045	1.5615e-06	1.6113e-06	167.23	57.694	16.611	4.4802	1.7012e-06	22.222	234.917	15.170	60.355	-10.709	208.566	37.474	-9.830	-6.358	161.412	160.586	-6.531	-1.429	-1.282	2.268	125.102	2.533	-8191	255	
2094.561	1	1	0	0	0.04177	0.23921	0.12717	0.20796	0.2105	0.085652	0.19603	0.25337	0.063987	0.14142	0.30503	0.26958	0.23499	0.14376	0.051767	0.039809	-2.0458	-2.1979	-2.3771	-2.3812	-2.2271	-2.3563	-2.3417	-2.1104	-2.5	-2.15	-2.1229	-2.7021	-2.0917	-2.3187	-2.1396	-2.0667	-3.384	189.628	165.088	1.370	266.387	41.218	79.824	14.010	95.165	144.957	-10.569	225.164	65.808	-14.078	101.565	78.909	8.5182e-05	0.00034656	1.6995e-05	356.7	1.3668e-06	2.2104e-06	553.6	79.72	9.6055e-07	4.5157e-07	189.61	63.866	17.808	4.6821	6.3738e-06	24.424	0.00016607	0.0001573	4.4895e-05	322.29	1.6661e-06	1.8196e-06	492.56	72.333	1.7295e-06	1.7283e-06	168.56	57.363	16.569	4.4515	1.7578e-06	22.12	221.542	237.150	201.890	-9.924	19.304	245.634	-10.357	-6.055	252.023	176.364	-6.242	-1.696	-0.159	3.896	112.616	3.303	-8191	255	
2094.657	1	1	0	0	0.051448	0.19811	0.30148	0.31204	0.1679	0.034239	0.12984	0.21669	0.24269	0.23587	0.13936	0.079565	0.1564	0.19348	0.081981	0.39147	-2.0542	-2.1646	-2.1312	-2.5625	-2.1063	-2.4083	-2.3542	-1.9417	-2.7167	-2.3146	-2.1792	-2.4688	-2.0458	-2.4854	-2.5938	-2.0292	9.403	214.310	209.875	238.403	170.915	322.702	292.087	267.799	176.656	24.192	308.604	322.112	306.997	14.190	77.691	82.772	0.00014999	0.0001039	1.6496e-05	352.96	2.4252e-06	3.585e-06	546.33	78.883	2.0905e-06	3.0775e-06	182.58	62.625	17.659	4.5446	1.233e-06	23.832	0.00015774	0.00014919	4.3519e-05	318.92	1.6527e-06	1.7324e-06	486.42	71.122	1.6709e-06	1.6558e-06	164	56.74	16.468	4.3555	1.6525e-06	21.699	219.600	21.420	220.891	-9.909	163.954	232.809	-10.210	-5.425	296.746	93.108	-6.699	-1.921	-1.893	3.949	20.711	3.232	-8191	255	
2094.753	1	1	0	0	0.16422	0.087266	0.065568	0.16562	0.049926	0.067943	0.22959	0.077621	0.158	0.020011	0.32878	0.081284	0.39254	0.25261	0.046729	0.28544	-2.1333	-2.1833	-2.0438	-2.4896	-2.2354	-2.3229	-2.6542	-2.05	-2.6063	-2.1792	-2.1208	-2.5958	-2.2188	-2.4729	-2.5854	-2.1083	198.976	76.400	70.961	297.981	130.468	115.890	213.631	100.314	113.856	333.048	297.925	72.771	276.864	177.560	192.577	183.638	0.00011307	0.00037926	0.00013606	355.33	2.2836e-06	4.0133e-06	543.03	77.765	3.258e-06	3.7899e-06	180.73	62.845	17.921	4.6357	3.2546e-06	24.539	0.00015368	0.00015215	4.2806e-05	318.56	1.6049e-06	1.6527e-06	485.47	70.231	1.6899e-06	1.6037e-06	162.58	57.034	16.653	4.3913	1.6567e-06	22.149	183.936	24.813	86.423	-10.648	68.633	85.403	-10.798	-5.874	256.861	194.048	-6.463	-1.818	-0.572	4.229	174.512	2.714	-8191	255	
2094.850	1	1	0	0	0.20752	0.25734	0.12021	0.12456	0.28947	0.037668	0.22541	0.060247	0.16615	0.24821	0.13995	0.15551	0.12673	0.14175	0.075838	0.065887	-2.0646	-2.4125	-2.0417	-2.7917	-2.3292	-2.3354	-2.475	-2.1292	-2.5125	-2.4646	-2.1104	-2.4917	-2.3146	-2.4021	-2.6958	-2.0229	242.873	174.565	243.589	329.634	94.945	221.106	327.737	74.352	284.311	274.787	308.698	164.140	214.928	154.559	194.260	335.292	0.00015807	0.00024736	7.7798e-05	358.34	2.8641e-06	3.3992e-06	554.63	78.941	2.0999e-06	3.3253e-06	186.76	63.937	17.864	4.5482	1.8518e-06	24.053	0.00015279	0.00015029	4.1358e-05	321.98	1.7256e-06	1.6763e-06	496.83	71.453	1.6486e-06	1.6455e-06	166.2	57.175	16.671	4.3751	1.7018e-06	21.759	229.156	68.136	77.097	-10.772	193.842	57.919	-10.389	-6.064	114.591	188.968	-6.356	-1.457	-0.694	4.494	120.461	3.104	-8191	255	
2094.970	1	1	0	0	0.046136	0.063852	0.24894	0.2946	0.055815	0.16537	0.27053	0.19489	0.23935	0.34973	0.11566	0.25918	0.13739	0.19174	0.26668	0.3005	-2.1479	-2.525	-1.9583	-2.5583	-2.2667	-2.2208	-2.7	-2.175	-2.5917	-2.4688	-2.0646	-2.5792	-2.3896	-2.0229	-2.6583	-2.2938	-9.733	272.860	265.728	42.113	264.313	264.476	-2.925	176.794	12.699	280.293	160.723	-5.267	231.845	-7.163	194.188	-18.537	8.6915e-05	0.00013593	8.5492e-05	353.31	3.0353e-06	4.4708e-06	544.45	77.85	6.1712e-07	6.2335e-06	184.7	62.646	17.436	4.6342	3.1618e-06	24.078	0.0001532	0.00015257	4.1835e-05	318.34	1.6081e-06	1.6433e-06	488.15	70.362	1.6661e-06	1.6806e-06	165.26	56.404	16.351	4.3581	1.6205e-06	21.56	231.731	23.844	33.472	-10.819	310.457	77.674	-10.194	-5.687	40.721	90.580	-6.002	-1.511	-2.262	3.678	102.807	2.922	-8191	255	
2095.066	1	1	0	0	0.056783	0.15142	0.22507	0.14981	0.18274	0.16743	0.28872	0.096905	0.23284	0.16582	0.19338	0.1956	0.22977	0.07834	0.080207	0.18201	-1.8792	-2.4771	-2.1063	-2.6458	-2.275	-2.0729	-2.6458	-2.1042	-2.3604	-2.4375	-2.1979	-2.6208	-2.3396	-2.1229	-2.6479	-2.1104	37.288	265.625	84.887	313.774	137.996	151.806	293.618	253.324	212.005	237.977	36.213	325.348	173.510	101.086	132.078	159.044	0.00013221	0.00040218	9.1909e-05	350.04	4.4089e-06	2.5279e-06	543.33	77.055	6.2968e-07	1.199e-06	180.68	63.017	17.547	4.6077	5.5209e-06	23.679	0.0001556	0.00014922	4.1419e-05	315.34	1.5762e-06	1.6189e-06	483.32	69.633	1.5858e-06	1.591e-06	162.16	56.763	16.403	4.3351	1.6561e-06	21.333	233.156	317.711	57.371	-10.669	126.001	131.676	-10.134	-5.909	202.536	317.419	-6.613	-1.069	-0.583	4.506	146.563	2.829	-8191	255	
2095.163	1	1	0	0	0.11312	0.11649	0.28788	0.19114	0.065607	0.27774	0.36491	0.097169	0.12028	0.12915	0.1995	0.23331	0.10434	0.22149	0.21915	0.14414	-1.8854	-2.3833	-2.2	-2.4583	-2.5187	-2.15	-2.6292	-2.2375	-2.3792	-2.5687	-2.2875	-2.5583	-2.4625	-2.1167	-2.5708	-2.375	226.122	227.330	70.220	20.545	208.528	326.808	298.456	152.963	4.862	84.573	276.538	313.063	225.363	332.348	131.609	33.355	0.00019781	0.00059078	2.7742e-05	346.81	4.6387e-06	4.1268e-06	532.77	75.364	4.1123e-06	6.5556e-06	177.05	62.81	17.814	4.6394	2.4197e-06	23.786	0.00015685	0.00014256	3.9436e-05	311.4	1.6078e-06	1.5635e-06	476.93	68.199	1.6029e-06	1.5959e-06	158.6	56.648	16.412	4.3617	1.5828e-06	21.461	206.609	137.020	30.100	-10.567	241.767	125.375	-10.824	-6.190	99.650	166.982	-6.640	-1.840	-2.286	3.279	-22.460	2.833	-8191	255	
2095.281	1	1	0	0	0.17225	0.020057	0.14484	0.075932	0.17557	0.18677	0.24894	0.20597	0.18548	0.18608	0.24209	0.10495	0.14776	0.17234	0.090185	0.10399	-1.6208	-2.6125	-1.9125	-2.3292	-2.4354	-1.8667	-2.5938	-2.3187	-2.2354	-2.5917	-2.2667	-2.3896	-2.65	-2.0292	-2.6875	-2.3896	160.035	-7.881	97.977	234.919	142.323	162.927	277.548	12.344	48.429	200.717	4.772	44.232	165.554	111.680	291.224	221.775	0.00015179	8.4754e-05	7.2546e-05	340.52	4.6611e-06	2.4281e-06	518.21	72.422	2.5837e-06	1.4259e-06	167.18	61.521	17.304	4.4623	3.3901e-06	23.085	0.0001457	0.00014268	4.1608e-05	305.62	1.5662e-06	1.5661e-06	465.86	65.593	1.5522e-06	1.5556e-06	150.42	55.713	16.031	4.2356	1.6029e-06	20.884	204.431	-21.161	61.877	-10.382	231.655	207.859	-9.908	-5.199	98.326	260.763	-5.982	-1.957	-0.831	3.097	106.543	2.414	-8191	255	
2095.353	1	1	0	0	0.10247	0.095295	0.16894	0.16457	0.16935	0.44243	0.068703	0.24095	0.18592	0.14606	0.18263	0.31931	0.16913	0.052854	0.07198	0.014994	-1.5208	-2.6771	-2.1542	-2.4896	-2.6	-1.9896	-2.3937	-2.3937	-2.1396	-2.6333	-2.2896	-2.2958	-2.5083	-1.9771	-2.2938	-2.4292	199.653	195.233	98.625	136.923	66.860	249.650	31.238	307.767	186.288	304.607	10.182	314.264	-13.628	171.176	311.395	101.880	0.00014892	0.00025605	4.8282e-05	333.85	3.1761e-06	6.6112e-07	515.19	71.336	2.6456e-06	5.3933e-07	161.3	59.566	16.701	4.4284	3.6097e-06	22.673	0.00014137	0.00014019	3.8846e-05	300.05	1.5008e-06	1.5584e-06	459.2	64.521	1.4502e-06	1.5451e-06	144.79	53.909	15.623	4.1421	1.6032e-06	20.451	218.029	-9.391	1.407	-10.284	105.407	153.568	-10.399	-5.908	142.368	8.996	-6.385	-2.020	-1.353	3.306	127.237	2.470	-8191	255	
2095.449	1	1	0	0	0.20283	0.1072	0.053667	0.24141	0.07142	0.35852	0.09012	0.10052	0.10837	0.18122	0.059484	0.33818	0.40468	0.20395	0.1407	0.1626	-1.7042	-2.475	-2.025	-2.4146	-2.4208	-1.9625	-2.525	-2.3979	-2.1188	-2.6104	-2.3958	-2.1125	-2.5396	-2.2792	-2.475	-2.3729	77.859	136.669	99.077	287.406	246.893	-3.306	247.344	180.967	132.756	305.069	108.071	305.010	303.228	132.575	115.731	270.489	0.00010907	0.00036696	3.0462e-05	331.05	1.8598e-06	6.4315e-07	511.69	69.399	1.9202e-06	2.4035e-06	161.17	60.636	16.743	4.3549	2.3445e-06	22.368	0.00013899	0.00014059	3.8241e-05	296.5	1.4617e-06	1.4652e-06	456.12	62.726	1.4952e-06	1.5472e-06	145.29	54.483	15.561	4.1734	1.5775e-06	20.275	231.439	70.448	59.304	-10.345	202.283	29.055	-10.494	-5.441	26.423	90.251	-6.447	-0.949	-1.443	3.168	207.879	2.158	-8191	255	
2095.545	1	1	0	0	0.22349	0.11502	0.12404	0.040704	0.1591	0.1252	0.14431	0.21699	0.26751	0.17422	0.15461	0.1487	0.32501	0.13934	0.064345	0.080029	-1.5417	-2.475	-2.3667	-2.2375	-2.6688	-2.1625	-2.4313	-2.3271	-1.8917	-2.5354	-2.4313	-2.2062	-2.3771	-2.0833	-2.3375	-2.45	163.446	107.955	261.786	-21.408	318.855	126.197	188.161	161.572	121.324	275.390	320.981	264.779	195.323	217.304	-14.972	72.225	0.00015857	0.00020631	6.4209e-05	323.51	8.3676e-07	2.3808e-06	501.57	68.329	1.5716e-06	3.4953e-06	160.69	60.266	16.431	4.3744	3.775e-06	22.653	0.00014047	0.00014091	3.8312e-05	291.76	1.5671e-06	1.5195e-06	448	61.955	1.498e-06	1.4722e-06	142.66	54.181	15.326	4.1591	1.5408e-06	20.439	227.209	198.762	51.295	-10.744	216.657	155.609	-9.806	-5.495	243.028	161.148	-5.752	-1.409	-1.651	2.895	76.729	1.821	-8191	255	
2095.664	1	1	0	0	0.21837	0.24732	0.30663	0.15828	0.1112	0.30312	0.12917	0.22235	0.073957	0.13022	0.072845	0.19604	0.19924	0.35469	0.065919	0.07976	-1.5938	-2.4458	-2.2375	-2.1583	-2.5292	-2.1875	-2.3604	-2.4771	-2.3125	-2.4125	-2.4146	-2.1354	-2.5771	-2.3583	-2.0604	-2.5104	25.279	201.928	193.122	286.942	65.473	280.084	64.184	272.294	16.840	23.975	131.919	95.494	163.560	44.913	-20.502	269.788	8.6599e-05	0.00010839	7.4997e-05	322.25	3.2224e-06	2.9636e-06	495.48	67.817	3.3264e-06	2.3927e-06	155	58.455	16.5	4.2854	5.896e-07	22.192	0.00013779	0.00014011	3.8705e-05	288.41	1.5788e-06	1.5631e-06	441.33	61.424	1.4885e-06	1.6123e-06	139.73	52.644	15.136	4.0557	1.5841e-06	19.94	216.803	120.289	117.070	-10.626	129.907	191.241	-9.968	-6.423	225.977	200.864	-6.184	-1.418	-1.051	2.359	287.371	1.872	-8191	255	
2095.760	1	1	0	0	0.071013	0.23704	0.16018	0.28983	0.032132	0.065357	0.21876	0.16964	0.32266	0.092254	0.18681	0.216	0.10951	0.14317	0.17403	0.13772	-1.4937	-2.2958	-2.3896	-2.1979	-2.5729	-2.1396	-2.3771	-2.5479	-2.1937	-2.3438	-2.3708	-2	-2.5062	-2.2521	-2.1354	-2.6104	334.587	186.652	81.095	1.537	241.363	252.901	-16.554	210.140	309.738	299.191	235.442	298.735	133.860	35.700	99.459	295.773	8.3383e-05	0.00026059	4.3418e-05	316.99	6.3357e-06	1.3792e-06	493.77	67.506	1.0452e-06	4.0664e-06	156.56	59.249	16.28	4.322	3.6176e-06	22.137	0.00014423	0.00014623	3.9868e-05	285.8	1.5846e-06	1.5782e-06	440.97	61.046	1.5911e-06	1.6378e-06	139.97	53.173	15.299	4.092	1.605e-06	20.027	217.543	58.975	307.500	-10.531	170.134	292.835	-9.849	-4.856	313.675	116.783	-6.613	-1.508	-1.398	3.059	121.120	2.787	-8191	255	
2095.857	1	1	0	0	0.11335	0.11954	0.045018	0.11707	0.16669	0.12793	0.15518	0.16492	0.21453	0.20539	0.111	0.13	0.13747	0.15634	0.32573	0.14086	-1.7021	-2.3083	-2.5917	-2.0938	-2.5625	-2.3833	-2.2729	-2.5479	-2.1	-2.4417	-2.6125	-2.1896	-2.4583	-2.4188	-1.9958	-2.6729	310.378	-5.296	292.859	133.545	103.636	238.215	333.838	184.841	118.422	100.338	281.697	135.588	47.329	14.841	148.395	76.786	5.7467e-05	0.00047392	4.394e-05	321.06	1.1412e-06	2.3033e-06	493.38	69.01	3.2444e-06	1.7155e-06	160.09	60.503	16.911	4.37	4.835e-06	22.275	0.0001443	0.00014641	4.0491e-05	287.41	1.688e-06	1.6155e-06	443.05	62.565	1.5989e-06	1.6344e-06	144.24	54.315	15.692	4.1259	1.5812e-06	20.157	226.596	96.589	19.647	-10.125	74.568	116.456	-10.034	-6.039	159.251	-20.500	-6.337	-1.636	-1.314	3.812	147.890	2.193	-8191	255	
2095.930	1	1	0	0	0.15169	0.094145	0.053796	0.13028	0.20632	0.19186	0.1197	0.10365	0.12683	0.35254	0.051419	0.027197	0.08329	0.10314	0.29883	0.136	-1.8021	-2.3458	-2.4583	-2.1396	-2.5292	-2.3979	-2.1521	-2.5417	-2.2083	-2.2125	-2.6021	-2.1562	-2.3896	-2.2833	-2.2458	-2.3667	173.908	188.765	31.815	86.919	12.250	246.296	107.965	56.479	239.604	187.383	140.557	244.771	309.805	264.643	-21.841	265.613	0.00011645	4.3389e-05	4.7595e-05	322.98	1.8553e-06	2.8764e-06	490.29	68.746	1.1517e-06	1.771e-06	155.62	58.23	16.299	4.2625	1.1094e-06	21.682	0.00014894	0.00014868	4.0594e-05	288.41	1.6815e-06	1.6504e-06	439.35	62.043	1.599e-06	1.6001e-06	139.17	52.64	15.257	4.0341	1.651e-06	19.785	217.940	315.442	333.598	-10.155	308.568	196.017	-9.919	-5.809	199.537	142.396	-6.840	-1.716	-1.822	1.999	103.239	2.593	-8191	255	
2096.049	1	1	0	0	0.13302	0.30511	0.32088	0.30412	0.081237	0.018937	0.074484	0.11395	0.17769	0.15997	0.36176	0.070443	0.13887	0.17785	0.29544	0.097277	-1.775	-2.0667	-2.4417	-2.0271	-2.3208	-2.3854	-2.1188	-2.6312	-2.2521	-2.2458	-2.5667	-2.425	-2.35	-2.5417	-2.1958	-2.4542	37.271	56.495	332.108	261.170	187.583	95.085	142.150	-13.131	277.463	302.978	231.301	299.071	307.774	280.659	206.575	186.400	0.00011675	0.00060095	0.00013961	319.92	2.9356e-06	1.6427e-06	494.73	68.297	5.4054e-07	2.5924e-06	160.86	60.304	16.677	4.3591	6.6113e-07	22.157	0.00014668	0.00015177	4.1883e-05	288.59	1.6373e-06	1.6389e-06	443.6	62.864	1.5922e-06	1.6042e-06	144.25	54.169	15.593	4.0639	1.6229e-06	19.909	208.947	92.992	69.663	-10.605	208.588	73.621	-10.106	-5.694	26.203	143.433	-6.242	-1.591	-1.438	1.784	30.027	2.257	-8191	255	
2096.145	1	1	0	0	0.26966	0.28764	0.21179	0.25264	0.053029	0.27214	0.077242	0.43712	0.092491	0.20491	0.24426	0.10814	0.08838	0.12805	0.014863	0.45539	-2.0542	-2.2208	-2.5771	-2.3958	-2.2479	-2.5229	-2.0229	-2.3104	-2.2521	-2.2479	-2.525	-2.4062	-2.3271	-2.7083	-2.2104	-2.4104	77.464	317.489	141.835	228.978	92.357	-16.870	232.909	271.110	281.470	148.252	52.353	328.163	271.484	65.739	12.750	173.774	7.5449e-05	0.00022146	2.8818e-05	324.75	6.3725e-07	4.086e-07	495.76	69.582	1.6836e-06	3.0451e-06	161.44	59.957	16.924	4.2106	6.8233e-07	21.62	0.00014628	0.00014735	4.1394e-05	290.34	1.6514e-06	1.6032e-06	443.89	63.15	1.6092e-06	1.6787e-06	144.96	53.983	15.833	3.9938	1.6943e-06	19.649	221.871	64.098	303.024	-10.409	51.888	114.914	-10.323	-5.898	-9.889	308.963	-6.481	-1.357	-1.569	2.364	131.097	2.710	-8191	255	
2096.241	1	1	0	0	0.19388	0.15749	0.10009	0.11269	0.21512	0.091532	0.17055	0.016683	0.22889	0.065764	0.25173	0.16727	0.12109	0.17508	0.17652	0.19271	-1.8417	-2.2208	-2.7062	-2.1875	-2.2188	-2.4625	-2.2438	-2.3521	-2.5354	-2.2062	-2.5812	-2.0354	-2.2146	-2.5167	-2.0979	-2.4292	21.952	141.890	83.757	139.793	51.541	216.507	76.642	222.056	208.946	64.615	301.179	278.920	317.033	-15.335	53.488	304.006	0.00013659	0.00031786	9.1563e-06	324.22	2.6077e-06	4.1131e-06	505.2	70.925	2.4681e-06	8.2881e-07	165.11	60.147	16.866	4.242	5.0422e-06	21.651	0.00015427	0.00014934	4.3152e-05	291.83	1.7149e-06	1.6525e-06	451	64.67	1.6954e-06	1.62e-06	147.55	54.372	15.828	3.999	1.5812e-06	19.68	215.352	300.456	113.928	-10.416	169.513	267.417	-10.345	-6.017	326.056	34.043	-5.835	-1.999	-1.064	3.551	130.104	2.593	-8191	255	
2096.362	1	1	0	0	0.030438	0.23584	0.19411	0.20641	0.14346	0.03521	0.20208	0.092439	0.087077	0.1128	0.18484	0.23658	0.1556	0.22424	0.028713	0.21826	-2.075	-2.0979	-2.3917	-2.3729	-2.1875	-2.5271	-2.1667	-2.3229	-2.4208	-2.2354	-2.5146	-2.5708	-2.1188	-2.6063	-2.2292	-2.2271	113.051	317.567	19.244	83.355	222.269	329.313	295.429	305.129	313.862	208.730	217.972	252.423	323.671	271.317	236.126	216.101	6.0631e-05	0.00027094	7.8046e-05	330.16	5.0634e-06	1.5168e-06	504.91	72.305	1.3563e-06	4.0452e-06	167.37	60.553	17.184	4.237	3.0259e-06	22.025	0.00015166	0.00015197	4.2796e-05	295.83	1.6101e-06	1.634e-06	451.43	65.09	1.5846e-06	1.6423e-06	149.62	54.648	15.966	4.0498	1.6281e-06	19.91	238.454	55.828	90.841	-10.359	95.580	103.609	-10.254	-5.556	17.519	152.158	-6.464	-1.665	-1.447	3.465	41.198	2.556	-8191	255	
2096.458	1	1	0	0	0.23974	0.12151	0.37949	0.15371	0.26572	0.044588	0.11115	0.24265	0.17033	0.30836	0.11872	0.063628	0.12586	0.34218	0.082639	0.18325	-2.0875	-2.1146	-2.3688	-2.5104	-2.2396	-2.5292	-2.3167	-2.3521	-2.6083	-1.9813	-2.4062	-2.2104	-1.9458	-2.5104	-2.1896	-2.3771	226.299	73.164	310.387	259.983	197.557	115.692	65.413	2.780	208.973	94.597	228.117	38.203	214.703	292.441	283.273	90.698	0.0001265	0.00013003	0.00013373	327.76	2.8614e-06	2.2535e-06	503.34	70.601	9.6331e-07	1.1437e-06	165.14	59.606	17.112	4.2121	2.3754e-06	21.811	0.00015041	0.00014653	4.4106e-05	295.31	1.6227e-06	1.7025e-06	452.02	64.659	1.6592e-06	1.631e-06	148.45	54.205	15.868	3.9948	1.6445e-06	19.723	199.605	227.940	110.633	-10.280	165.552	122.842	-10.143	-6.000	261.168	-6.626	-6.938	-1.717	-0.876	2.270	135.450	2.753	-8191	255	
2096.530	1	1	0	0	0.13098	0.25367	0.025473	0.17246	0.04251	0.25523	0.062632	0.23638	0.31787	0.098943	0.16051	0.20661	0.19286	0.25944	0.0097773	0.31392	-2.1458	-2.0458	-2.4167	-2.5792	-2.0708	-2.4896	-2.0958	-1.9937	-2.5896	-2.2042	-2.3021	-2.3917	-1.9854	-2.2229	-2.2875	-2.3146	163.065	334.229	1.033	224.553	27.732	217.876	315.267	176.352	192.108	283.583	326.596	-13.552	26.963	1.772	139.490	228.681	8.4394e-05	0.0002363	4.6422e-05	328.91	2.8158e-06	2.815e-07	504.34	71.232	3.0095e-06	2.9251e-06	162.47	58.91	16.892	4.0796	2.2884e-06	21.161	0.00015266	0.00014965	4.4164e-05	296.62	1.6519e-06	1.6981e-06	450.09	64.681	1.7318e-06	1.6522e-06	145.53	53.364	15.741	3.9177	1.6785e-06	19.14	216.212	28.400	-1.152	-10.693	132.749	196.997	-10.211	-5.582	145.876	127.669	-6.866	-1.328	-1.415	1.576	72.881	2.466	-8191	255	
2096.650	1	1	0	0	0.059204	0.046959	0.053195	0.26417	0.070372	0.20402	0.20225	0.06646	0.061317	0.096967	0.30876	0.22392	0.20901	0.11224	0.10249	0.2126	-2.1208	-1.8729	-2.35	-2.6396	-2.1292	-2.4667	-2.2687	-2.2438	-2.4458	-2.1604	-2.4146	-2.4813	-2.1167	-2.4042	-2.3042	-2.1417	80.142	279.049	316.267	277.727	315.844	97.066	115.272	53.172	303.179	35.166	302.064	280.226	241.354	181.718	213.638	310.360	5.319e-05	0.00039949	3.9283e-05	327.19	6.2223e-06	5.6895e-06	496.89	69.992	3.3922e-06	2.6551e-06	156.28	58.17	16.548	4.1219	1.6542e-06	20.698	0.00015691	0.00015048	4.2786e-05	292.56	1.6415e-06	1.697e-06	443.48	63.386	1.6779e-06	1.6796e-06	140.34	52.236	15.349	3.921	1.6235e-06	18.774	234.790	11.205	101.839	-10.080	234.247	124.180	-10.041	-5.992	152.910	95.720	-6.473	-1.472	-1.322	3.269	83.715	1.834	-8191	255	
2096.745	1	1	0	0	0.17485	0.22566	0.29581	0.30051	0.11869	0.24965	0.14946	0.31445	0.20945	0.27373	0.17545	0.25915	0.13219	0.05398	0.23251	0.14771	-2.0563	-2.2854	-2.2375	-2.4896	-1.9583	-2.3646	-2.5062	-2.0979	-2.3917	-2.3521	-2.0271	-2.4771	-2.2229	-2.5333	-2.4021	-2.1083	245.067	316.016	189.880	149.920	177.694	114.240	283.462	115.507	87.819	41.715	322.503	165.789	-15.934	-18.925	-24.191	68.487	7.0253e-05	0.00064663	6.4879e-05	319.49	2.9738e-06	7.3368e-07	488.59	68.086	3.9936e-06	3.9809e-06	153.73	57.457	16.401	4.2741	3.5564e-06	21.024	0.0001628	0.00015698	4.2623e-05	288.38	1.6719e-06	1.7316e-06	437.41	62.421	1.7087e-06	1.7382e-06	138.16	52.262	15.312	4.0659	1.675e-06	19.091	241.169	143.793	73.400	-10.599	116.786	70.626	-9.833	-6.395	50.461	47.414	-6.731	-1.441	-1.955	1.992	79.336	2.038	-8191	255	
2096.841	1	1	0	0	0.11203	0.2197	0.02852	0.15779	0.17941	0.21057	0.050758	0.036598	0.13404	0.12158	0.066959	0.36931	0.097297	0.27059	0.067027	0.12275	-2.2125	-2.2938	-2.225	-2.7333	-1.9792	-2.2	-2.4437	-1.9604	-2.5687	-2.4042	-2.1375	-2.6813	-2.0646	-2.3729	-2.5938	-2.0021	91.083	305.941	94.119	1.084	109.484	234.997	78.585	83.950	6.521	9.375	221.363	13.184	287.926	25.497	238.721	225.645	0.00014565	0.00036095	7.4017e-05	320.44	3.5839e-06	1.4447e-06	492.96	67.615	4.1948e-06	1.4764e-06	152.79	58.511	16.399	4.52	3.8113e-06	22.651	0.00016157	0.00015633	4.4078e-05	288.24	1.6491e-06	1.7062e-06	440.02	61.753	1.699e-06	1.6529e-06	137.28	53.188	15.357	4.2455	1.655e-06	20.297	236.620	37.061	63.351	-10.336	139.683	286.941	-10.403	-4.743	182.951	142.262	-6.519	-1.781	-1.008	2.119	164.684	2.007	-8191	255	
2096.961	1	1	0	0	0.082623	0.15373	0.19096	0.11461	0.18711	0.10408	0.10102	0.22991	0.088574	0.027607	0.073155	0.10159	0.18712	0.02536	0.097709	0.046154	-1.9771	-2.3479	-2.0521	-2.475	-2.1396	-2.2625	-2.5792	-2.0708	-2.3771	-2.2833	-2.1292	-2.6208	-2.2792	-2.2625	-2.5021	-2.2292	-22.367	165.643	14.515	264.843	267.836	135.603	49.535	264.884	34.447	85.599	103.913	206.572	259.967	226.959	38.106	199.545	6.9598e-05	0.00020603	8.9523e-05	329.98	8.4307e-07	3.0882e-06	502.56	69.895	1.8245e-06	3.4872e-06	156.49	61.854	17	4.975	3.8701e-06	24.568	0.00015154	0.00015028	4.1585e-05	295.64	1.5859e-06	1.6117e-06	450.32	63.102	1.5975e-06	1.5981e-06	141.57	55.992	15.81	4.7133	1.5138e-06	22.202	239.613	8.406	150.795	-10.436	106.351	60.758	-10.245	-5.322	159.390	169.962	-6.636	-1.510	-1.323	2.647	164.429	1.340	-8191	255	
2097.058	1	1	0	0	0.049986	0.24543	0.14435	0.24994	0.20236	0.17123	0.063176	0.1729	0.046251	0.27852	0.17404	0.085512	0.18474	0.015206	0.08586	0.22714	-1.8813	-2.3812	-2.1208	-2.7042	-2.275	-2.1958	-2.4521	-2.0354	-2.1937	-2.3812	-2.1583	-2.3958	-2.2188	-2.1833	-2.5625	-2.1312	163.624	284.455	297.004	290.453	177.827	260.995	56.410	142.179	157.392	117.948	99.997	79.733	251.030	-11.065	44.537	63.090	8.7924e-05	0.00049369	4.6927e-05	333.02	4.1088e-06	3.3856e-06	496.99	68.785	3.5686e-06	6.2648e-06	138.66	46.147	13.703	3.6959	2.0112e-07	18.222	0.00014329	0.00014274	4.0169e-05	300.45	1.6235e-06	1.7534e-06	444.03	62.431	1.7819e-06	1.8009e-06	125.17	41.652	12.991	3.534	1.8463e-06	16.622	199.315	4.831	291.707	-10.095	186.338	85.115	-10.190	-5.614	148.376	93.366	-6.335	-1.746	-1.613	1.574	182.314	1.275	-8191	255	
2097.154	1	1	0	0	0.15671	0.076181	0.066179	0.26111	0.266	0.088392	0.37517	0.26607	0.12912	0.21349	0.24288	0.17067	0.080693	0.14489	0.25027	0.15382	-1.9646	-2.3958	-2.0021	-2.3875	-2.1583	-1.9458	-2.4417	-2	-2.2792	-2.3042	-1.9604	-2.35	-2.175	-2.0875	-2.4396	-2.2583	59.033	206.152	333.115	32.428	221.937	162.608	212.325	288.044	54.208	119.662	30.167	106.147	38.318	101.039	290.701	99.334	0.00010011	5.5376e-05	5.1821e-05	325.25	2.9735e-06	6.2678e-07	500.94	65.837	4.1475e-06	3.4518e-06	150.22	54.322	14.941	4.2512	1.5175e-06	20.869	0.00016632	0.00015972	4.3791e-05	293.17	1.6906e-06	1.7605e-06	448.16	60.577	1.7991e-06	1.7385e-06	136.14	49.199	14.088	4.0261	1.8151e-06	18.93	244.493	99.936	99.783	-10.932	120.715	331.691	-10.322	-5.625	4.220	194.826	-5.484	-1.492	-1.491	3.343	134.189	2.685	-8191	255	
2097.225	1	1	0	0	0.05864	0.26732	0.27454	0.17074	0.20306	0.1553	0.11854	0.12615	0.080506	0.19222	0.11365	0.16277	0.022942	0.086808	0.3757	0.062554	-1.8792	-2.4667	-1.9667	-2.4771	-2.2792	-2.175	-2.8229	-2.3042	-2.3083	-2.7	-2.1896	-2.45	-2.5333	-2.2104	-2.4167	-2.2875	333.744	330.934	90.425	217.526	281.965	307.641	162.500	243.333	105.184	154.332	-10.080	220.874	332.112	81.735	64.548	44.081	8.5545e-05	0.00055911	8.1792e-05	342.13	1.7171e-06	4.2661e-06	519.67	66.307	3.2253e-06	1.9783e-06	148.56	47.309	13.297	3.7147	4.3198e-06	18.895	0.00016816	0.00016925	4.748e-05	307.58	1.8791e-06	1.8734e-06	466.79	60.366	1.9414e-06	1.8336e-06	131.85	42.744	12.742	3.5671	1.7884e-06	17.127	239.192	16.654	68.359	-10.365	290.847	95.671	-10.016	-5.943	198.224	139.812	-6.693	-1.339	-0.661	3.856	261.520	3.210	-8191	255	
#DATA ENDS
