BOXY.EXE: ISS Imagent and Oximeter Data Acquisition Program Version 0.80
Ascii Record File

#ACQ INFORMATION
2  Detector Channels 
16  External MUX Channels 
1  Auxiliary Channels 
5000  Waveform (CCF) Frequency (Hz)
1  Waveforms Skipped 
30  Waveforms Averaged 
1  Cycles Averaged 
16  Acquisitions per Waveform 
10.0806  Updata Rate (Hz) 

#FILE INFORMATION
TRUE -- External MUX Channel results are PARSED.
FALSE -- AC DC and Phase are NOT grouped.
TRUE -- Companion Program Settings File CREATED.
FALSE -- AC data not excluded
FALSE -- DC data not excluded
FALSE -- Phase data not excluded
FALSE -- Auxillary Chn. data not excluded
Tab delimiters

#CALIBRATION STATE
TRUE -- Waveform Calibration Values APPLIED.


#AUX CALIBRATION VALUES
Val Type	aux-1	

Term	1.0000e+00	
Factor	0.0000e+00	


#WF CALIBRATION VALUES
A = Detector Channel
Val Type	A-AC1	A-AC2	A-AC3	A-AC4	A-AC5	A-AC6	A-AC7	A-AC8	A-AC9	A-AC10	A-AC11	A-AC12	A-AC13	A-AC14	A-AC15	A-AC16	A-DC1	A-DC2	A-DC3	A-DC4	A-DC5	A-DC6	A-DC7	A-DC8	A-DC9	A-DC10	A-DC11	A-DC12	A-DC13	A-DC14	A-DC15	A-DC16	A-Ph1	A-Ph2	A-Ph3	A-Ph4	A-Ph5	A-Ph6	A-Ph7	A-Ph8	A-Ph9	A-Ph10	A-Ph11	A-Ph12	A-Ph13	A-Ph14	A-Ph15	A-Ph16	

Term	0.00000e+00	0.00000e+00	0.00000e+00	0.00000e+00	0.00000e+00	0.00000e+00	0.00000e+00	0.00000e+00	0.00000e+00	0.00000e+00	0.00000e+00	0.00000e+00	0.00000e+00	0.00000e+00	0.00000e+00	0.00000e+00	0.00000e+00	0.00000e+00	0.00000e+00	0.00000e+00	0.00000e+00	0.00000e+00	0.00000e+00	0.00000e+00	0.00000e+00	0.00000e+00	0.00000e+00	0.00000e+00	0.00000e+00	0.00000e+00	0.00000e+00	0.00000e+00	0.00000e+00	0.00000e+00	0.00000e+00	0.00000e+00	0.00000e+00	0.00000e+00	0.00000e+00	0.00000e+00	0.00000e+00	0.00000e+00	0.00000e+00	0.00000e+00	0.00000e+00	0.00000e+00	0.00000e+00	0.00000e+00	
Factor	1.00000e+00	1.00000e+00	1.00000e+00	1.00000e+00	1.00000e+00	1.00000e+00	1.00000e+00	1.00000e+00	1.00000e+00	1.00000e+00	1.00000e+00	1.00000e+00	1.00000e+00	1.00000e+00	1.00000e+00	1.00000e+00	1.00000e+00	1.00000e+00	1.00000e+00	1.00000e+00	1.00000e+00	1.00000e+00	1.00000e+00	1.00000e+00	1.00000e+00	1.00000e+00	1.00000e+00	1.00000e+00	1.00000e+00	1.00000e+00	1.00000e+00	1.00000e+00	X	X	X	X	X	X	X	X	X	X	X	X	X	X	X	X	

B = Detector Channel
Val Type	B-AC1	B-AC2	B-AC3	B-AC4	B-AC5	B-AC6	B-AC7	B-AC8	B-AC9	B-AC10	B-AC11	B-AC12	B-AC13	B-AC14	B-AC15	B-AC16	B-DC1	B-DC2	B-DC3	B-DC4	B-DC5	B-DC6	B-DC7	B-DC8	B-DC9	B-DC10	B-DC11	B-DC12	B-DC13	B-DC14	B-DC15	B-DC16	B-Ph1	B-Ph2	B-Ph3	B-Ph4	B-Ph5	B-Ph6	B-Ph7	B-Ph8	B-Ph9	B-Ph10	B-Ph11	B-Ph12	B-Ph13	B-Ph14	B-Ph15	B-Ph16	

Term	0.00000e+00	0.00000e+00	0.00000e+00	0.00000e+00	0.00000e+00	0.00000e+00	0.00000e+00	0.00000e+00	0.00000e+00	0.00000e+00	0.00000e+00	0.00000e+00	0.00000e+00	0.00000e+00	0.00000e+00	0.00000e+00	0.00000e+00	0.00000e+00	0.00000e+00	0.00000e+00	0.00000e+00	0.00000e+00	0.00000e+00	0.00000e+00	0.00000e+00	0.00000e+00	0.00000e+00	0.00000e+00	0.00000e+00	0.00000e+00	0.00000e+00	0.00000e+00	-3.63263e+01	-1.44616e+02	-1.36455e+02	-1.83436e+02	-6.47196e+01	-8.14628e+01	-1.60695e+02	-1.62015e+02	-4.27404e+01	-5.87643e+01	-1.72707e+02	-1.72386e+02	-1.83401e+02	-1.78286e+02	-6.56670e+01	-1.51169e+02	
Factor	2.16242e-05	1.40199e-04	3.24853e-05	1.48686e-01	1.47159e-06	1.31807e-06	1.62454e-01	5.10240e-02	1.11014e-06	1.35182e-06	7.91605e-02	2.65441e-02	2.35584e-02	8.15133e-03	1.44641e-06	1.17866e-02	2.30442e-06	2.49268e-06	6.93736e-07	7.79555e-02	2.69482e-08	2.73278e-08	7.97935e-02	2.67642e-02	2.70149e-08	2.74240e-08	4.00788e-02	1.34491e-02	1.24290e-02	4.29815e-03	2.72636e-08	5.99323e-03	X	X	X	X	X	X	X	X	X	X	X	X	X	X	X	X	



#DISTANCE SETTINGS
A = Detector Channel
A-1	A-2	A-3	A-4	A-5	A-6	A-7	A-8	A-9	A-10	A-11	A-12	A-13	A-14	A-15	A-16	

2.5000e+00	3.0000e+00	2.5000e+00	3.0000e+00	2.0000e+00	3.0000e+00	1.5000e+00	3.0000e+00	3.0000e+00	3.0000e+00	3.0000e+00	3.0000e+00	3.0000e+00	3.0000e+00	1.5000e+00	3.0000e+00	

B = Detector Channel
B-1	B-2	B-3	B-4	B-5	B-6	B-7	B-8	B-9	B-10	B-11	B-12	B-13	B-14	B-15	B-16	

1.0000e+01	1.0000e+01	1.0000e+01	1.4400e+00	1.0000e+01	1.0000e+01	1.5100e+00	1.9400e+00	1.0000e+01	1.0000e+01	1.9900e+00	2.4900e+00	2.4100e+00	2.9000e+00	1.0000e+01	2.9800e+00	




#DATA BEGINS
time	group	step	mark	flag	A-AC1	A-AC2	A-AC3	A-AC4	A-AC5	A-AC6	A-AC7	A-AC8	A-AC9	A-AC10	A-AC11	A-AC12	A-AC13	A-AC14	A-AC15	A-AC16	A-DC1	A-DC2	A-DC3	A-DC4	A-DC5	A-DC6	A-DC7	A-DC8	A-DC9	A-DC10	A-DC11	A-DC12	A-DC13	A-DC14	A-DC15	A-DC16	A-Ph1	A-Ph2	A-Ph3	A-Ph4	A-Ph5	A-Ph6	A-Ph7	A-Ph8	A-Ph9	A-Ph10	A-Ph11	A-Ph12	A-Ph13	A-Ph14	A-Ph15	A-Ph16	B-AC1	B-AC2	B-AC3	B-AC4	B-AC5	B-AC6	B-AC7	B-AC8	B-AC9	B-AC10	B-AC11	B-AC12	B-AC13	B-AC14	B-AC15	B-AC16	B-DC1	B-DC2	B-DC3	B-DC4	B-DC5	B-DC6	B-DC7	B-DC8	B-DC9	B-DC10	B-DC11	B-DC12	B-DC13	B-DC14	B-DC15	B-DC16	B-Ph1	B-Ph2	B-Ph3	B-Ph4	B-Ph5	B-Ph6	B-Ph7	B-Ph8	B-Ph9	B-Ph10	B-Ph11	B-Ph12	B-Ph13	B-Ph14	B-Ph15	B-Ph16	aux-1	digaux	

1967.468	1	1	0	256	0.22379	0.12544	0.22459	0.054317	0.18935	0.1595	0.15591	0.22432	0.37129	0.16303	0.12777	0.24332	0.055641	0.27308	0.30433	0.20743	-2.0979	-2.9333	-2.4146	-2.7854	-2.5708	-2.6146	-3.0646	-2.6604	-2.6562	-2.8667	-2.4437	-2.8063	-2.7833	-2.4188	-3.0917	-2.6479	-19.979	-14.091	36.497	175.785	117.551	14.804	127.312	149.423	182.684	183.650	210.237	245.594	93.169	228.580	198.923	140.429	0.00019352	0.00033572	9.413e-05	394.4	3.5941e-06	5.5812e-06	614.52	118.1	2.3797e-06	4.4764e-06	290.6	136.06	41.37	20.875	1.5056e-06	73.626	0.00010653	7.3466e-05	1.8975e-05	350.24	7.5455e-07	7.8197e-07	547.75	105.85	8.7787e-07	7.6856e-07	258.37	121.17	37.195	18.664	8.6511e-07	65.453	259.380	33.841	-73.185	-69.111	75.940	72.223	-68.293	-64.579	132.854	89.894	-64.844	-59.912	-60.103	-56.457	97.857	-57.527	-8191	255	
1967.564	1	1	0	0	0.19659	0.19724	0.36	0.16588	0.086937	0.13882	0.22907	0.10754	0.36896	0.15876	0.23073	0.31003	0.30926	0.22303	0.16517	0.3078	-2.1562	-2.7188	-2.4333	-2.8438	-2.6292	-2.4667	-2.8354	-2.6042	-2.3708	-2.8292	-2.5312	-2.6729	-2.8271	-2.2583	-2.8042	-2.6312	272.946	120.732	2.870	-79.478	62.284	94.974	229.422	225.674	168.695	-8.596	234.182	-81.887	234.613	58.382	-32.876	265.007	0.00021535	0.00057425	7.4615e-05	397.73	3.8879e-06	4.5366e-06	626.24	120.09	2.8972e-06	1.15e-06	293.79	136.39	41.518	20.755	3.514e-06	71.937	0.00010726	7.5751e-05	1.8037e-05	354.27	8.1187e-07	7.4508e-07	557.64	107.09	8.6149e-07	8.0735e-07	259.88	121.8	37.288	18.575	8.2688e-07	64.236	-76.878	-1.396	6.244	-69.142	65.325	35.214	-68.398	-64.466	81.331	93.499	-64.716	-59.877	-60.545	-56.376	54.019	-57.369	-8191	255	
1967.660	1	1	0	0	0.07537	0.1678	0.15763	0.35075	0.092477	0.1572	0.16542	0.24952	0.28485	0.21688	0.2192	0.37083	0.10087	0.18151	0.22219	0.26304	-2.0208	-2.9146	-2.3083	-2.6917	-2.8854	-2.525	-3.0563	-2.7771	-2.6083	-2.7979	-2.6188	-2.6562	-2.75	-2.4854	-2.7458	-2.8438	95.366	165.024	234.307	2.882	266.677	158.643	-68.365	236.050	-60.846	17.212	212.958	128.281	150.759	126.827	229.419	222.616	0.00026436	0.00043087	0.0001104	395.94	4.7651e-06	3.7007e-06	610.78	117.31	3.7341e-06	1.7571e-06	285.8	130.85	40.778	20.121	2.3415e-06	70.325	0.00010427	7.532e-05	1.9501e-05	352.19	7.5326e-07	6.9771e-07	543.81	105.02	7.9947e-07	7.5662e-07	252.17	117.43	36.575	18.045	8.1791e-07	62.607	-79.612	31.246	39.753	-68.914	45.811	62.223	-68.103	-64.535	57.010	65.603	-64.402	-60.185	-60.221	-56.285	16.543	-57.503	-8191	255	
1967.781	1	1	0	0	0.10349	0.13882	0.15715	0.10834	0.14818	0.18216	0.23532	0.024092	0.039005	0.2072	0.055035	0.2577	0.087801	0.076259	0.10853	0.078551	-1.7792	-2.85	-2.3438	-2.5792	-2.725	-2.3833	-2.8292	-2.8583	-2.3646	-2.9396	-2.8417	-2.5563	-2.8521	-2.6042	-2.8021	-2.675	-77.103	108.278	254.870	68.332	110.966	-43.992	270.328	91.829	174.578	166.895	-50.996	223.704	147.136	-54.891	-46.814	188.815	0.00025959	0.00029089	8.6865e-05	395.83	1.9994e-06	3.0954e-06	607.38	116.49	1.0647e-06	2.0928e-06	283.11	132.18	40.866	20.113	2.6403e-06	71.522	9.862e-05	7.2443e-05	1.7893e-05	350.44	8.0901e-07	6.857e-07	540.3	104.48	7.182e-07	7.597e-07	252.4	118.03	36.604	18.105	7.9615e-07	63.446	268.255	-20.051	1.501	-69.822	82.046	36.826	-68.593	-64.758	136.538	73.527	-64.673	-60.185	-60.581	-56.537	116.201	-57.507	-8191	255	
1967.853	1	1	0	0	0.084684	0.19644	0.21219	0.30573	0.090501	0.10841	0.17411	0.23045	0.016444	0.13459	0.30019	0.29966	0.060793	0.19579	0.11262	0.062943	-2.125	-2.8375	-2.475	-2.4979	-2.8875	-2.4229	-2.6688	-2.8771	-2.3812	-2.8729	-2.5396	-2.5854	-2.9062	-2.45	-2.6104	-2.8979	64.632	-50.714	261.579	145.289	165.202	197.002	212.567	243.113	149.118	6.365	261.528	241.170	20.752	238.644	-15.921	138.085	0.00029179	0.00039233	5.8862e-05	395.82	4.2545e-06	2.8267e-06	614.98	117.1	3.9623e-06	3.4595e-06	285.52	132.34	40.762	20.558	5.5874e-06	71.681	9.5595e-05	7.5798e-05	1.8813e-05	352.7	7.9755e-07	7.0335e-07	546.41	104.58	7.8563e-07	7.8867e-07	253.56	118.81	36.776	18.324	8.0252e-07	63.893	274.220	33.840	3.231	-69.836	78.350	61.753	-68.689	-64.271	77.761	73.771	-64.495	-60.302	-60.331	-56.312	76.793	-57.656	-8191	255	
1967.973	1	1	0	0	0.23099	0.1113	0.18021	0.1736	0.055121	0.26158	0.29333	0.099602	0.14336	0.12549	0.3298	0.22269	0.1539	0.27875	0.27783	0.30864	-2.0333	-2.9375	-2.4583	-2.5083	-3.0958	-2.5375	-2.7458	-2.8604	-2.5938	-2.7188	-2.7438	-2.6292	-2.8896	-2.5375	-2.45	-3.0104	63.955	159.751	170.475	169.458	147.474	-41.697	174.899	-54.641	162.149	78.659	216.909	240.338	255.388	42.986	136.267	201.784	0.00021472	0.00044964	0.00016019	397.01	3.4542e-06	2.6907e-06	611.43	116.77	2.841e-06	5.2265e-06	282.67	130.02	40.12	19.83	3.8982e-06	68.784	9.8749e-05	7.328e-05	1.9258e-05	352.23	7.9929e-07	7.3352e-07	543.84	104.69	7.4843e-07	8.0689e-07	250.6	116.27	36.126	17.73	7.8633e-07	61.356	275.170	-4.138	-5.888	-69.182	88.497	30.777	-68.703	-63.836	102.452	72.590	-64.325	-60.086	-60.667	-56.239	108.866	-57.548	-8191	255	
1968.069	1	1	0	0	0.059746	0.14792	0.077071	0.22015	0.14639	0.14768	0.17315	0.27118	0.21787	0.21286	0.18424	0.22808	0.19041	0.24537	0.19099	0.066561	-1.9271	-2.6854	-2.8104	-2.4042	-2.7687	-2.4771	-2.4188	-3.0542	-2.4729	-2.8146	-2.8021	-2.5396	-2.9604	-2.7042	-2.5062	-2.9958	165.436	124.692	85.812	-41.396	4.192	-11.529	216.384	143.029	33.459	110.997	192.616	234.628	263.698	164.596	129.394	218.197	0.00027078	8.8837e-05	5.8855e-05	391.07	4.1671e-06	4.9743e-06	597.6	116.03	1.93e-06	5.1321e-06	279.78	127.9	40.077	19.76	3.6614e-06	68.733	9.2263e-05	6.9291e-05	1.7643e-05	348.02	8.3674e-07	7.1001e-07	529.92	103.22	6.7245e-07	7.8627e-07	247.64	114.37	35.871	17.628	7.9996e-07	61.08	269.202	7.625	20.910	-68.979	54.035	48.483	-67.783	-64.715	80.517	70.439	-64.761	-60.009	-59.612	-56.153	84.099	-57.426	-8191	255	
1968.164	1	1	0	0	0.088777	0.075295	0.10522	0.053956	0.01723	0.28456	0.10431	0.13808	0.056894	0.18297	0.18849	0.24893	0.053447	0.30039	0.10397	0.26347	-2.0333	-2.6437	-2.7438	-2.5479	-2.8187	-2.7021	-2.4583	-2.8167	-2.5042	-2.6	-2.8604	-2.575	-2.6958	-2.7021	-2.3771	-2.8688	-65.167	-32.450	72.955	161.751	220.881	95.138	229.795	35.580	216.638	226.919	201.046	-68.489	-29.663	199.309	-14.547	207.709	0.00020411	0.00036792	0.00011661	394.41	2.5203e-06	2.1176e-06	602.71	116.84	1.9736e-06	8.4632e-07	282.22	129.63	39.835	19.662	3.839e-06	68.929	9.2844e-05	7.4702e-05	1.9748e-05	351.06	7.5954e-07	6.8815e-07	539.81	103.49	6.8004e-07	7.6901e-07	249.35	115.45	35.826	17.55	7.4038e-07	61.391	264.959	2.544	-10.306	-69.443	108.840	66.631	-68.267	-64.316	112.631	16.578	-64.826	-59.819	-60.412	-56.050	89.428	-57.414	-8191	255	
1968.260	1	1	0	0	0.014735	0.11812	0.076944	0.11573	0.2754	0.12872	0.19946	0.070276	0.1291	0.0839	0.12048	0.32861	0.083048	0.15355	0.11719	0.10173	-2.075	-2.6104	-2.8	-2.2604	-2.7438	-2.775	-2.2875	-2.8604	-2.6708	-2.6792	-2.9417	-2.4562	-2.7125	-2.6958	-2.2875	-2.9375	257.200	215.362	-78.114	234.970	202.312	74.034	155.749	-45.421	222.889	196.284	206.299	256.076	178.463	232.797	-38.901	200.923	0.00026165	0.00027755	7.659e-05	397.89	3.2311e-06	2.5196e-06	605.51	116.61	3.7347e-06	3.3852e-06	281.15	128.07	39.303	19.416	3.8178e-06	68.211	9.5605e-05	7.0725e-05	1.8612e-05	352.88	7.7762e-07	7.4992e-07	538.73	103.51	6.9434e-07	7.4148e-07	247.8	114.28	35.36	17.397	7.076e-07	60.362	272.225	-8.366	-15.960	-69.346	73.275	65.271	-68.520	-64.470	96.830	58.367	-64.485	-59.967	-60.030	-56.536	97.291	-57.590	-8191	255	
1968.381	1	1	0	0	0.03206	0.088603	0.22745	0.47835	0.39197	0.085296	0.17979	0.1908	0.15187	0.15003	0.16447	0.16186	0.11164	0.10414	0.072933	0.099424	-2.2062	-2.4958	-2.9625	-2.4104	-2.675	-2.9292	-2.6312	-3.0021	-2.7292	-2.4854	-2.9	-2.5521	-2.7458	-3.0333	-2.3063	-2.8937	113.346	225.501	-25.471	199.226	-7.949	-1.394	151.514	-62.628	129.824	-41.650	-43.911	-61.086	220.720	249.776	40.038	6.039	0.00024628	0.00056375	8.2835e-05	386.29	8.6183e-06	5.0462e-06	588.46	113.48	2.3872e-06	3.5268e-06	272.53	125.27	39.068	19.437	2.6199e-06	68.116	9.0386e-05	6.4965e-05	1.903e-05	344.88	7.8026e-07	6.972e-07	523.74	101.5	6.9952e-07	7.2959e-07	241.71	111.99	35.092	17.407	7.7457e-07	60.425	263.590	-9.221	29.018	-69.738	27.100	10.459	-68.133	-64.367	185.414	75.080	-64.431	-60.113	-60.206	-55.981	60.409	-57.351	-8191	255	
1968.452	1	1	0	0	0.13557	0.18457	0.10139	0.25976	0.40059	0.21621	0.092988	0.22494	0.0481	0.10079	0.094522	0.25167	0.13015	0.044636	0.12581	0.14981	-2.2354	-2.4146	-2.7542	-2.5583	-2.5229	-2.7604	-2.4854	-2.7125	-2.8187	-2.4146	-3.0021	-2.6042	-2.4021	-2.7021	-2.55	-2.7333	149.198	-1.283	-67.450	239.483	-25.339	86.253	-8.961	177.648	-79.140	97.736	146.933	-58.097	-8.292	-62.492	241.835	253.352	0.00023683	0.00024786	0.00010804	387.82	4.156e-06	2.5667e-06	595.8	114.95	2.2999e-06	5.2603e-06	275.38	127.22	39.197	19.512	3.3454e-06	67.978	9.4059e-05	6.8112e-05	1.832e-05	344.6	7.9132e-07	7.3455e-07	527.96	102.15	7.3103e-07	7.6273e-07	244.29	113.6	35.336	17.413	7.3231e-07	60.65	276.046	-41.555	9.328	-69.230	82.519	18.299	-68.574	-64.621	89.261	54.766	-64.089	-60.132	-60.389	-56.273	78.006	-57.686	-8191	255	
1968.548	1	1	0	0	0.090094	0.20627	0.18768	0.10226	0.17991	0.16857	0.15924	0.029042	0.16901	0.098042	0.10465	0.29345	0.23815	0.19687	0.09508	0.17613	-2.175	-2.5667	-2.7771	-2.6146	-2.3875	-2.8792	-2.6771	-2.8375	-2.7417	-2.4958	-2.875	-2.5812	-2.4896	-2.9729	-2.3021	-2.75	72.635	-26.027	8.263	197.856	256.002	56.976	197.493	45.094	154.506	180.500	186.707	196.908	-82.313	217.017	230.962	239.336	0.00021392	0.00049884	5.517e-05	391.23	5.1404e-06	3.3498e-06	597.56	114.91	4.1098e-06	1.6856e-06	277.67	127.42	39.342	19.514	4.2743e-06	68.241	9.4308e-05	6.5713e-05	1.9599e-05	348.55	7.9261e-07	7.6131e-07	533.3	102.92	7.7713e-07	6.8594e-07	246.14	113.56	35.337	17.499	7.1101e-07	60.691	265.847	10.803	35.566	-69.640	113.709	42.359	-68.660	-64.566	95.895	66.308	-64.513	-60.387	-60.389	-56.595	80.438	-57.424	-8191	255	
1968.645	1	1	0	0	0.22362	0.079451	0.28698	0.19171	0.07659	0.14408	0.16422	0.20287	0.058924	0.043745	0.076882	0.3204	0.098577	0.38679	0.29552	0.19652	-2.2979	-2.5104	-2.875	-2.4583	-2.4854	-3.0646	-2.6771	-2.7667	-2.8833	-2.2125	-2.8667	-2.7229	-2.4688	-2.825	-2.4854	-2.7354	231.288	157.834	208.592	206.361	242.785	-32.739	-74.495	48.143	273.504	241.597	8.676	-37.817	-77.433	-73.237	196.476	136.982	0.00024114	0.00024273	9.4083e-05	392.22	4.7952e-06	3.529e-06	596.05	112.59	1.9149e-06	2.9052e-06	270.97	124.74	38.985	19.134	4.1611e-06	66.099	9.3367e-05	6.3023e-05	1.9058e-05	350.62	7.3074e-07	7.2561e-07	531.06	101.49	7.3616e-07	6.6063e-07	242.03	111.35	34.875	17.082	6.8165e-07	58.869	270.272	-25.704	26.688	-69.178	40.455	41.648	-68.793	-64.440	40.498	44.524	-64.392	-60.036	-60.156	-56.302	72.865	-57.626	-8191	255	
1968.765	1	1	0	0	0.11821	0.2982	0.12809	0.20159	0.22502	0.14418	0.19504	0.29348	0.29041	0.085965	0.28768	0.37977	0.0096151	0.23319	0.19294	0.064811	-2.4313	-2.4958	-2.6854	-2.7875	-2.55	-2.8833	-2.6042	-2.5771	-2.8583	-2.4958	-2.8229	-2.9604	-2.4688	-2.8396	-2.6542	-2.7313	259.512	149.745	39.090	253.988	241.297	259.763	-56.709	-65.326	-69.856	203.054	259.657	229.245	239.189	265.875	182.017	155.282	0.00022417	0.00033731	7.4434e-05	384.56	5.3077e-06	3.6779e-06	585.63	113.28	3.1793e-06	5.2911e-06	270.22	124.54	38.828	19.135	4.5786e-06	66.612	9.4088e-05	6.253e-05	1.939e-05	342.25	7.0907e-07	7.1906e-07	520.72	100.99	7.446e-07	6.848e-07	239.84	110.96	34.745	17.156	6.9801e-07	59.365	266.247	-17.587	-37.275	-69.014	45.392	68.403	-68.509	-64.360	68.894	80.303	-64.145	-60.143	-60.590	-56.492	50.851	-57.121	-8191	255	
1968.861	1	1	0	0	0.096273	0.075659	0.17612	0.20457	0.079594	0.10387	0.085856	0.095422	0.29799	0.13122	0.18001	0.032565	0.028514	0.086447	0.27767	0.22875	-2.5729	-2.55	-2.8604	-2.8125	-2.2938	-2.9354	-2.6854	-2.4021	-2.9646	-2.5479	-2.6854	-2.9938	-2.4667	-2.8021	-2.4437	-2.6583	-60.016	57.020	-45.528	-50.435	19.272	83.581	233.448	4.300	45.600	180.068	159.488	265.009	-67.860	-27.407	154.494	223.127	0.00019967	0.00062916	9.4849e-05	389.41	4.7969e-06	3.5666e-06	589.98	114.01	3.3771e-06	7.7615e-07	268.72	124.88	38.819	19.371	3.845e-06	67.648	9.5897e-05	6.1876e-05	1.9084e-05	344.9	6.979e-07	7.937e-07	525.56	101.34	7.4522e-07	6.7303e-07	239.64	111.7	34.923	17.309	6.9943e-07	60.143	267.267	-8.191	-12.261	-69.526	62.549	83.794	-68.296	-64.654	112.048	56.649	-64.527	-60.063	-60.156	-56.198	45.267	-57.376	-8191	255	
1968.958	1	1	0	0	0.32218	0.13236	0.33071	0.077467	0.23392	0.1784	0.12967	0.18869	0.051463	0.18373	0.20652	0.066874	0.23867	0.064697	0.077105	0.12826	-2.5354	-2.6604	-2.7354	-2.8271	-2.4521	-2.85	-2.6354	-2.475	-2.7917	-2.5083	-2.5271	-3.0229	-2.5042	-2.8521	-2.7854	-2.5875	259.726	215.916	201.641	274.785	36.002	-0.070	73.535	-9.929	85.273	213.249	210.224	240.601	130.316	-80.987	-53.313	263.340	0.00025039	0.00042918	0.0001476	389.33	5.4477e-06	6.1341e-06	594.84	113.65	2.1454e-06	3.3249e-06	271.17	123.85	38.406	19.003	5.4951e-07	65.634	9.5581e-05	5.9284e-05	2.0118e-05	345.11	7.1682e-07	7.4605e-07	527.68	101.47	7.4803e-07	6.5783e-07	241.12	110.59	34.443	17.005	6.8454e-07	58.458	267.889	32.538	-1.923	-69.195	84.878	85.245	-68.824	-64.089	75.197	109.807	-64.353	-59.853	-59.608	-55.592	195.571	-57.366	-8191	255	
1969.076	1	1	0	0	0.22824	0.1288	0.059484	0.16314	0.059994	0.29643	0.090997	0.1337	0.20891	0.26868	0.17239	0.33493	0.15889	0.058284	0.060477	0.23496	-2.4604	-2.6417	-2.6417	-2.9542	-2.4625	-2.7687	-2.8583	-2.5812	-2.9125	-2.5667	-2.5667	-3.1083	-2.4854	-2.6354	-2.7583	-2.5708	7.695	138.742	219.867	274.720	255.337	252.015	221.840	-34.958	172.392	104.047	128.880	269.889	55.271	235.503	191.107	153.507	0.0002197	0.0001615	0.00013484	379.1	2.9894e-06	2.7067e-06	567.66	111.01	2.286e-06	2.9074e-06	262.16	120.1	37.5	18.764	4.6556e-06	65.02	9.5821e-05	6.1569e-05	1.8497e-05	337.86	6.5624e-07	7.2367e-07	505.11	98.527	7.2085e-07	6.5755e-07	232.5	107.25	33.725	16.757	7.0925e-07	57.819	276.926	-2.764	-1.219	-69.428	71.964	46.984	-68.578	-64.129	81.312	106.037	-64.762	-60.363	-59.882	-56.038	42.983	-57.452	-8191	255	
1969.148	1	1	0	0	0.057671	0.098243	0.25422	0.065691	0.12482	0.065812	0.35269	0.3375	0.10708	0.22596	0.08065	0.052287	0.057083	0.11124	0.15063	0.19408	-2.3187	-2.5854	-2.5833	-2.8063	-2.65	-2.9521	-2.8417	-2.3208	-2.8125	-2.5708	-2.6042	-2.8979	-2.4917	-2.6917	-2.8917	-2.4292	63.261	156.662	213.837	183.806	-51.268	147.452	188.193	252.013	217.313	-4.824	-53.038	246.234	3.860	213.683	156.275	150.188	0.00020001	0.00023544	9.4869e-05	384.66	4.7266e-06	5.2209e-06	579.45	111.67	1.6967e-06	6.7282e-07	265.73	122.27	37.931	18.891	3.0348e-06	67.334	9.5801e-05	6.1107e-05	1.9001e-05	339.98	6.485e-07	7.4907e-07	513.74	99.621	7.7077e-07	6.8554e-07	236.45	109.52	34.304	17.071	7.2101e-07	59.797	269.875	-40.715	68.702	-69.765	126.938	73.204	-68.507	-65.089	167.434	124.073	-64.434	-60.037	-59.770	-56.378	98.003	-57.593	-8191	255	
1969.244	1	1	0	0	0.11978	0.31188	0.081325	0.029972	0.03296	0.24547	0.19569	0.45843	0.12377	0.22106	0.30296	0.13211	0.12254	0.15177	0.18141	0.35709	-2.4917	-2.8063	-2.3187	-2.9021	-2.5021	-2.6125	-3.0917	-2.5583	-2.5771	-2.8125	-2.4271	-2.9542	-2.5062	-2.5417	-2.8042	-2.5438	182.024	140.142	-62.475	213.636	76.565	-79.042	241.558	231.535	-66.173	35.455	-37.094	274.488	230.939	111.562	229.440	187.449	0.00023333	0.00044899	6.3722e-05	383.28	4.0771e-06	3.7605e-06	586.16	113.77	2.3045e-06	5.1747e-06	273.54	127.03	38.823	19.421	2.562e-06	67.966	9.5585e-05	6.858e-05	1.8281e-05	340.23	7.1895e-07	7.4958e-07	522.33	101.2	7.5901e-07	6.8571e-07	243.31	113.22	35.049	17.443	7.5049e-07	60.899	-77.144	7.707	5.776	-69.829	77.995	43.660	-68.177	-64.515	113.498	112.359	-64.592	-60.409	-60.629	-56.098	119.281	-57.340	-8191	255	
1969.340	1	1	0	0	0.033477	0.06227	0.11606	0.26512	0.066494	0.19415	0.047587	0.29617	0.085866	0.1879	0.25717	0.13069	0.074341	0.14104	0.32459	0.26086	-2.325	-2.7667	-2.2208	-2.7687	-2.5708	-2.5021	-2.9854	-2.5333	-2.7708	-2.7667	-2.5271	-3.1312	-2.6458	-2.5583	-2.8104	-2.5938	117.534	118.054	20.217	167.275	128.415	-42.293	144.489	176.829	18.766	-65.396	-18.647	178.804	121.902	188.284	-81.820	191.696	0.00022348	0.00050447	5.6821e-05	384.65	2.2616e-06	3.739e-06	585.38	113.66	2.7845e-06	2.9343e-06	268.02	123.63	38.035	19.178	4.9961e-06	66.854	0.00010063	6.6461e-05	1.8357e-05	342.42	7.066e-07	7.3529e-07	518.65	100.84	7.7876e-07	7.1708e-07	238.35	110.6	34.504	17.072	7.389e-07	59.403	261.695	-7.128	-8.172	-69.406	11.346	81.121	-68.288	-64.465	106.637	56.030	-64.587	-60.135	-60.317	-56.498	67.899	-57.327	-8191	255	
1969.461	1	1	0	0	0.13832	0.10236	0.032801	0.080207	0.20109	0.13165	0.15949	0.088504	0.081976	0.16814	0.16899	0.13443	0.11623	0.14153	0.21255	0.28905	-2.2313	-2.8542	-2.4771	-2.7833	-2.6604	-2.6	-2.9417	-2.6125	-2.6083	-2.9938	-2.5271	-2.9729	-2.6896	-2.5271	-2.9792	-2.6375	3.128	273.104	10.188	-8.972	192.358	247.801	197.357	264.335	-47.724	13.281	-37.126	261.013	143.761	78.206	243.964	177.540	0.00020629	0.00038472	9.2615e-05	380.68	3.2249e-06	6.1912e-06	579.06	111.73	3.2095e-06	5.2044e-06	269.85	124.99	38.302	19.261	2.0039e-06	68.051	9.7261e-05	6.9146e-05	1.7614e-05	337.07	7.07e-07	7.2299e-07	515.05	100.12	7.7938e-07	6.9737e-07	240.13	112.01	34.617	17.308	7.4736e-07	60.3	271.776	14.860	8.890	-69.202	57.509	62.337	-68.278	-64.373	113.076	67.554	-64.805	-60.297	-60.556	-56.357	65.648	-57.266	-8191	255	
1969.555	1	1	0	0	0.10641	0.18576	0.058409	0.096128	0.13509	0.04373	0.025362	0.21006	0.1601	0.17533	0.093278	0.13396	0.19074	0.18425	0.2212	0.15815	-1.9875	-2.7396	-2.3063	-2.7125	-2.5354	-2.4437	-2.925	-2.6167	-2.4708	-2.8854	-2.5875	-2.6708	-2.5583	-2.4625	-2.8792	-2.8146	149.779	55.124	243.767	-66.396	-56.825	177.228	103.774	102.082	105.264	128.961	53.021	199.692	255.231	245.949	205.248	188.400	0.00025747	0.00047198	0.00010499	381.26	1.8289e-06	4.1796e-06	584.29	113.58	8.7116e-07	8.3995e-07	273.1	126.57	39.01	19.613	5.8267e-06	68.874	9.5158e-05	6.9483e-05	1.7049e-05	338.78	7.089e-07	6.9652e-07	520.61	101.01	7.8929e-07	7.3433e-07	242.72	113.15	34.924	17.478	7.9888e-07	61.229	266.737	-41.679	25.043	-69.138	108.278	70.797	-68.261	-64.564	62.223	80.381	-64.760	-60.246	-60.665	-56.142	36.330	-57.397	-8191	255	
1969.652	1	1	0	0	0.25887	0.15136	0.13937	0.12594	0.24652	0.06137	0.37258	0.15231	0.23654	0.14452	0.12925	0.12619	0.11529	0.14744	0.25927	0.20998	-2.025	-2.8333	-2.35	-2.7375	-2.75	-2.4833	-2.7062	-2.7083	-2.4021	-3.1667	-2.5479	-2.6458	-2.6188	-2.5625	-2.8396	-2.85	179.090	36.235	244.926	263.577	1.181	-25.986	255.165	254.553	72.401	233.378	202.615	234.206	247.119	109.721	27.461	150.461	0.00023732	0.00053258	5.2445e-05	383.3	2.9372e-06	1.9356e-06	589.52	114.85	2.032e-06	3.6846e-06	272.18	126.77	38.964	19.373	2.1285e-06	66.75	9.5854e-05	6.7635e-05	1.7716e-05	340.47	7.2693e-07	7.3688e-07	525.93	101.91	7.8225e-07	7.1245e-07	242.03	113.17	34.814	17.3	7.5452e-07	59.664	-81.860	16.421	-33.862	-69.043	80.092	59.633	-68.476	-64.432	60.478	25.198	-64.518	-60.152	-60.040	-56.034	98.059	-57.635	-8191	255	
1969.748	1	1	0	0	0.14048	0.21143	0.08735	0.12017	0.042079	0.097766	0.23426	0.091496	0.14593	0.21045	0.14239	0.32169	0.20307	0.35404	0.16913	0.28464	-2.1229	-2.8417	-2.4792	-2.6979	-3.0062	-2.3688	-2.7062	-2.9	-2.6063	-2.8438	-2.6021	-2.6562	-2.8292	-2.6104	-2.6896	-2.975	-32.521	16.037	41.917	12.135	212.393	235.761	261.166	172.898	111.742	87.798	-2.782	186.521	129.741	169.365	192.038	219.630	0.00019006	0.00026053	0.00010294	375.7	3.1414e-06	4.5966e-06	573.53	112.53	1.7328e-06	3.1178e-06	267.82	123.89	38.306	19.188	2.7865e-06	67.653	9.1855e-05	6.8273e-05	1.7485e-05	334.49	7.2316e-07	7.0506e-07	511.88	99.513	7.079e-07	6.9337e-07	238.36	111.08	34.385	17.195	7.7258e-07	60.097	276.868	18.015	6.544	-69.349	75.237	35.210	-68.637	-64.851	48.879	32.554	-64.605	-60.442	-59.950	-55.950	28.355	-57.506	-8191	255	
1969.844	1	1	0	0	0.082092	0.071908	0.34136	0.16974	0.14054	0.12119	0.22709	0.12555	0.23564	0.16905	0.12113	0.10679	0.13571	0.15077	0.098304	0.25724	-2	-2.7542	-2.4188	-2.5354	-3	-2.4313	-2.7771	-2.9271	-2.3292	-2.7979	-2.6646	-2.5396	-3.0417	-2.5958	-2.7333	-2.8521	256.361	152.049	64.298	252.139	-37.142	-68.712	110.911	187.596	246.108	250.589	276.553	232.172	260.274	224.676	158.871	238.071	0.00020537	0.00014404	7.5005e-05	379.21	4.2416e-06	2.2745e-06	586.2	113.2	1.8147e-06	4.4856e-06	274.03	126.25	38.755	19.332	1.763e-06	68.556	9.2748e-05	6.7744e-05	1.6771e-05	337.54	7.3737e-07	6.5279e-07	521.2	100.9	7.1297e-07	7.5187e-07	242.15	113.01	34.892	17.467	8.1109e-07	61.256	-78.783	-29.693	-18.893	-69.311	65.953	43.120	-68.801	-65.043	118.069	57.260	-64.110	-59.887	-60.320	-55.677	121.135	-57.446	-8191	255	
1969.940	1	1	0	0	0.10241	0.10644	0.22927	0.03922	0.079683	0.15124	0.18862	0.070175	0.21568	0.33436	0.26767	0.27215	0.20869	0.15622	0.23244	0.14243	-1.9312	-2.8438	-2.625	-2.6667	-2.8688	-2.4333	-2.7271	-2.9354	-2.3187	-2.8917	-2.75	-2.4729	-2.7729	-2.5583	-2.5375	-2.95	-68.990	45.962	63.283	148.321	138.850	23.147	249.394	92.048	-30.443	108.937	85.912	269.942	255.537	-36.801	266.962	213.483	0.00024865	0.00020648	0.00012026	382.76	4.1219e-06	4.2809e-06	595.68	113.77	3.8422e-06	4.8275e-06	278.62	129.84	39.507	20.089	2.949e-06	70.129	9.2964e-05	6.8813e-05	1.8971e-05	340.94	7.5747e-07	7.0694e-07	529.41	101.6	7.2265e-07	7.7707e-07	246.23	115.51	35.573	17.883	7.7128e-07	62.413	274.795	-38.365	12.089	-69.520	71.340	67.945	-68.078	-64.821	83.334	66.242	-64.506	-60.307	-60.144	-55.942	46.157	-57.492	-8191	255	
1970.061	1	1	0	0	0.16419	0.23629	0.36824	0.0056313	0.28762	0.084981	0.24484	0.075097	0.16989	0.22976	0.22479	0.5524	0.093259	0.23609	0.17135	0.26188	-2.0021	-2.7604	-2.7021	-2.7271	-2.7604	-2.6083	-2.6583	-2.8708	-2.3979	-2.7646	-2.8375	-2.4917	-2.8542	-2.5792	-2.7854	-3.1292	265.433	-46.171	88.830	197.303	172.232	93.917	233.040	248.213	239.575	111.591	-40.313	-72.587	132.075	229.129	203.043	223.935	0.00025089	0.00015737	0.00013675	384.61	6.0582e-06	1.5528e-06	588.85	113.55	3.1522e-06	3.4375e-06	271.25	127.97	39.279	19.679	2.9603e-06	68.451	9.1577e-05	6.9691e-05	1.9163e-05	342.44	7.8442e-07	7.0608e-07	524.06	101.25	6.7807e-07	7.3536e-07	241.64	113.5	35.156	17.556	7.7162e-07	60.92	-82.318	38.536	-4.576	-69.348	76.972	51.039	-68.734	-64.600	92.823	16.986	-64.932	-60.363	-60.712	-56.593	42.993	-57.399	-8191	255	
1970.157	1	1	0	0	0.12016	0.25582	0.154	0.2398	0.12089	0.23829	0.14187	0.18631	0.12733	0.19152	0.1672	0.29083	0.12161	0.14478	0.1795	0.17025	-2.0583	-2.7521	-2.7104	-2.4313	-2.9688	-2.7438	-2.6771	-3.0396	-2.6229	-2.7271	-2.9	-2.6625	-2.8625	-2.7271	-2.6625	-3.0458	113.934	242.044	149.682	196.782	31.311	-22.416	-15.550	-72.204	203.133	-20.802	15.440	254.923	113.547	205.363	-59.798	272.896	0.00029249	0.00033882	0.00010067	378.32	2.2891e-06	4.2869e-06	591.98	112.32	3.0284e-06	2.8642e-06	277.87	128.1	39.228	19.862	4.3627e-06	69.396	9.0751e-05	7.2984e-05	1.7754e-05	337.52	8.0704e-07	6.9487e-07	523.14	100.75	7.0942e-07	7.4639e-07	245.81	114.35	35.368	17.703	7.255e-07	61.497	263.130	7.668	11.324	-69.672	28.538	76.679	-68.424	-64.773	79.000	103.555	-64.402	-60.163	-61.024	-56.456	52.657	-57.361	-8191	255	
1970.253	1	1	0	0	0.32714	0.39714	0.20053	0.079268	0.41906	0.18064	0.33218	0.038052	0.28262	0.31281	0.21008	0.1201	0.20836	0.14055	0.1241	0.36205	-1.8563	-2.725	-2.8396	-2.4375	-2.6458	-2.9708	-2.4354	-3.1521	-2.6521	-2.6146	-2.8667	-2.4375	-2.975	-2.6292	-2.5271	-3.0104	125.302	26.427	79.148	136.806	160.337	187.113	243.623	-44.077	-47.902	137.256	189.828	-70.595	192.095	175.898	119.782	-70.131	0.00023627	0.00039078	5.983e-05	381.78	3.3194e-06	2.6045e-06	595.3	113.27	2.8235e-06	5.4012e-06	275.03	129.72	39.146	19.933	4.2673e-06	70.193	9.4001e-05	7.1166e-05	1.7822e-05	341.56	7.7425e-07	7.0534e-07	529.75	101.28	6.9727e-07	7.6884e-07	246.42	115.9	35.403	17.828	7.147e-07	62.462	269.424	3.958	13.240	-69.422	62.555	42.806	-68.459	-64.442	110.059	80.798	-64.470	-60.162	-59.892	-56.340	72.269	-57.448	-8191	255	
1970.325	1	1	0	0	0.11558	0.032195	0.17948	0.15415	0.15268	0.030047	0.27705	0.22233	0.24059	0.19795	0.22192	0.17825	0.030726	0.2523	0.1051	0.22757	-2.2167	-2.4958	-2.8833	-2.3958	-2.6292	-2.9146	-2.3646	-2.7938	-2.4917	-2.4604	-2.6917	-2.525	-2.75	-2.7562	-2.4083	-2.8729	10.756	196.162	223.362	-67.588	59.567	34.762	255.086	126.085	82.285	275.823	-63.368	-76.760	-62.207	269.494	214.673	270.737	0.00027889	0.000369	0.00015979	386.88	4.1862e-06	4.2197e-06	604.02	113.38	3.7123e-06	3.6223e-06	278.44	130.31	39.486	19.9	3.3118e-06	69.429	8.9291e-05	7.1498e-05	1.8914e-05	345.66	7.5247e-07	7.0056e-07	538.3	102.44	7.2028e-07	7.5484e-07	247.95	115.83	35.76	17.852	7.2402e-07	61.923	275.850	43.403	-15.238	-69.130	67.429	63.569	-68.387	-64.678	122.342	97.550	-64.396	-60.203	-60.558	-55.904	53.122	-57.430	-8191	255	
1970.443	1	1	0	0	0.050626	0.058726	0.18471	0.049264	0.094687	0.29233	0.22209	0.14985	0.1121	0.098463	0.15239	0.13818	0.37117	0.19376	0.32503	0.17591	-2.0646	-2.45	-2.8042	-2.5729	-2.6813	-2.9062	-2.3604	-2.8646	-2.5812	-2.2979	-2.9104	-2.5604	-2.5167	-2.9083	-2.3917	-2.8146	-81.405	68.775	0.093	68.455	220.855	7.515	274.159	55.169	241.475	113.449	130.663	266.967	200.989	-12.840	87.236	146.659	0.00018946	0.00026763	0.00012358	381.09	1.5761e-06	3.9815e-06	589.53	112.72	3.1133e-06	4.0254e-06	273.56	126.98	38.83	19.576	3.8523e-06	69.115	9.5216e-05	6.8767e-05	1.8907e-05	339.95	7.7835e-07	6.9714e-07	522.34	101.04	7.1212e-07	7.1434e-07	243.46	113.97	35.153	17.639	6.9261e-07	61.64	276.803	-13.867	5.440	-69.645	63.144	99.406	-68.047	-64.116	133.816	62.826	-64.047	-59.782	-60.323	-55.920	34.413	-57.390	-8191	255	
1970.540	1	1	0	0	0.15318	0.11247	0.17662	0.063579	0.1835	0.32911	0.1487	0.2679	0.077902	0.27912	0.13026	0.052861	0.15579	0.12775	0.095724	0.41608	-2.2229	-2.4542	-2.6562	-2.6042	-2.4437	-2.7188	-2.6396	-2.7062	-2.7521	-2.5083	-2.7792	-2.6375	-2.4667	-2.8688	-2.4708	-2.9375	101.066	-29.922	-9.577	203.344	269.173	32.199	-76.988	148.758	230.076	97.112	159.398	215.756	242.471	173.847	246.016	211.757	0.00027097	0.00029145	9.9098e-05	383.11	4.6459e-06	3.4131e-06	591.93	113.52	1.1588e-06	2.438e-06	277.82	128.66	39.127	19.821	3.0678e-06	69.53	9.4697e-05	6.6321e-05	1.9812e-05	341.37	7.6258e-07	7.2083e-07	527.87	101.45	7.1376e-07	6.8326e-07	246.23	114.77	35.499	17.697	7.0596e-07	62.006	275.808	3.695	21.728	-69.445	48.493	4.461	-68.415	-64.338	166.075	69.390	-64.482	-60.264	-59.572	-56.182	87.261	-57.243	-8191	255	
1970.636	1	1	0	0	0.15633	0.096265	0.30201	0.080121	0.063408	0.28349	0.20904	0.14311	0.043814	0.088594	0.077953	0.18674	0.21664	0.14676	0.16618	0.20797	-2.3083	-2.3187	-2.6833	-2.5854	-2.5021	-2.9188	-2.5583	-2.6396	-2.7438	-2.3625	-2.7979	-2.85	-2.3875	-2.8333	-2.5229	-2.8083	-45.480	260.871	-34.046	263.487	177.994	152.904	243.856	196.707	97.890	18.095	262.788	168.570	32.697	76.976	193.654	228.218	0.00023749	8.4498e-05	0.00011968	387.84	5.3041e-06	4.1808e-06	609.21	113.9	2.3993e-06	3.121e-06	281.03	129.51	40.055	20.074	4.2922e-06	69.959	9.3358e-05	6.0655e-05	2.052e-05	344.77	7.7948e-07	7.4616e-07	537.4	102.32	7.2017e-07	7.0342e-07	249.09	116.13	35.751	17.856	7.1607e-07	62.147	-77.652	-34.236	-7.123	-69.358	89.014	41.086	-68.279	-64.702	48.594	76.024	-64.119	-60.105	-60.615	-56.396	70.734	-57.441	-8191	255	
1970.732	1	1	0	0	0.27052	0.19316	0.068098	0.20237	0.085876	0.10639	0.32886	0.18464	0.19322	0.13127	0.021175	0.3101	0.21215	0.22482	0.21894	0.3274	-2.4896	-2.4875	-2.7	-2.7208	-2.4792	-2.9583	-2.6167	-2.8083	-2.8667	-2.5167	-2.75	-2.7458	-2.4521	-2.8208	-2.6	-2.7875	117.325	-81.519	119.668	154.213	225.544	41.571	256.719	-57.198	175.696	-51.925	59.799	179.790	-22.476	232.852	42.615	270.713	0.0002296	0.00032739	5.6589e-05	386.87	2.7159e-06	4.0325e-06	589.79	113.08	3.2944e-06	4.9503e-06	272.86	126.19	38.751	19.272	5.3085e-06	67.567	9.9297e-05	6.1024e-05	1.9732e-05	343.43	6.6944e-07	7.4041e-07	524.6	100.64	7.2349e-07	6.6663e-07	241.69	112.4	34.847	17.278	6.6847e-07	60.245	275.435	-37.561	12.844	-69.304	85.896	64.310	-68.509	-64.584	60.572	78.208	-64.793	-60.370	-60.179	-56.663	17.323	-57.333	-8191	255	
1970.853	1	1	0	0	0.28132	0.26309	0.14083	0.13053	0.086492	0.19278	0.25372	0.20414	0.10986	0.032776	0.27532	0.14572	0.065305	0.063167	0.12105	0.26882	-2.6208	-2.3312	-2.6708	-2.6979	-2.5854	-2.9354	-2.8458	-2.6063	-2.9167	-2.4896	-2.6667	-2.9125	-2.5271	-2.6688	-2.6583	-2.6521	166.110	106.396	152.691	11.071	171.883	162.552	101.872	-80.151	231.533	99.026	-28.895	-70.549	244.755	222.050	268.990	182.287	0.00026579	0.00056183	0.00016026	378.77	3.5638e-06	2.6335e-06	584.88	113.3	3.2788e-06	4.4308e-06	274.66	126.72	39.092	19.544	4.0179e-06	67.6	9.0818e-05	6.0297e-05	2.0097e-05	337.75	7.0829e-07	7.4816e-07	523.04	100.96	7.2242e-07	6.9445e-07	243.86	113.27	35.078	17.433	6.9375e-07	60.552	268.789	-30.362	-4.087	-69.610	103.791	40.539	-68.591	-64.306	76.358	72.537	-64.282	-60.096	-60.643	-56.589	90.433	-57.271	-8191	255	
1970.949	1	1	0	0	0.34389	0.20822	0.16062	0.23089	0.27991	0.1576	0.35889	0.16029	0.31531	0.2516	0.10498	0.26694	0.20948	0.1393	0.062114	0.22455	-2.4208	-2.4917	-2.6708	-2.925	-2.6	-2.75	-2.8833	-2.5771	-2.8542	-2.6792	-2.8771	-2.9688	-2.4292	-2.7708	-2.675	-2.6688	262.324	94.037	276.064	-68.979	-44.154	140.810	195.831	-35.984	184.506	165.880	223.464	193.643	267.438	-73.504	182.087	267.911	0.00021873	0.00053839	4.5882e-05	383.27	5.6083e-06	1.699e-06	598.38	113.28	1.5242e-06	2.2194e-06	278.22	127.34	39.082	19.363	1.5473e-06	68.241	9.7909e-05	6.5204e-05	1.9435e-05	342.75	6.8993e-07	7.7184e-07	530.69	101.01	7.6171e-07	6.5343e-07	245.2	113.93	35.047	17.422	6.8114e-07	60.677	275.724	-34.079	19.474	-69.659	116.768	57.325	-68.379	-64.495	76.730	33.209	-65.007	-59.644	-60.434	-56.136	64.253	-57.408	-8191	255	
1971.020	1	1	0	0	0.17354	0.23001	0.10508	0.19034	0.13739	0.27434	0.033927	0.18735	0.22837	0.12577	0.20615	0.046201	0.15152	0.050264	0.056635	0.27554	-2.6521	-2.6646	-2.4479	-2.8771	-2.2521	-2.7313	-2.7958	-2.2438	-2.9625	-2.5604	-2.55	-2.95	-2.5	-2.7729	-2.7292	-2.4771	237.785	79.061	-55.328	260.245	-19.630	7.615	-32.722	78.024	-69.240	56.125	-59.330	-64.141	-25.854	247.465	219.660	161.394	0.0001872	0.000435	9.3819e-05	388.27	5.2818e-06	4.0052e-06	599.77	113.48	1.6153e-06	5.045e-06	273.09	125.11	38.407	19.347	4.5701e-06	67.179	9.5729e-05	6.3122e-05	1.9639e-05	345.45	6.9341e-07	7.6159e-07	534.32	101.24	7.7341e-07	7.0302e-07	242.6	112.29	34.664	17.274	7.2606e-07	59.779	265.968	-23.026	18.617	-69.137	67.981	50.128	-68.414	-64.095	105.968	85.200	-64.087	-60.214	-60.075	-55.893	91.380	-57.431	-8191	255	
1971.141	1	1	0	0	0.13276	0.27237	0.20542	0.24358	0.15018	0.17527	0.061462	0.10304	0.14586	0.24337	0.15022	0.24835	0.1728	0.16164	0.18012	0.25476	-2.3208	-2.5917	-2.5563	-2.9708	-2.4792	-2.6937	-2.9604	-2.4854	-2.6188	-2.6813	-2.4833	-3.0292	-2.5833	-2.7708	-2.9375	-2.55	65.691	177.448	165.133	251.701	211.404	140.295	217.630	100.168	171.339	125.035	7.388	-44.126	159.642	173.771	135.469	250.454	0.00019292	0.00041548	0.00012824	377.82	5.0916e-06	3.3276e-06	582.38	112.78	3.364e-06	3.7832e-06	271.08	125.65	38.502	19.399	2.5233e-06	67.742	9.5581e-05	6.2587e-05	1.8729e-05	337.32	6.1638e-07	7.5066e-07	516.85	99.852	7.4713e-07	6.5195e-07	240.44	112.31	34.626	17.366	7.4225e-07	60.503	271.157	-58.868	2.385	-69.534	78.479	50.691	-68.629	-64.585	70.449	31.370	-64.494	-59.925	-60.061	-55.740	75.999	-57.616	-8191	255	
1971.237	1	1	0	0	0.028013	0.27598	0.084687	0.24458	0.15334	0.26366	0.11603	0.18537	0.054392	0.21693	0.14095	0.11618	0.15635	0.36335	0.21401	0.11355	-2.3187	-2.6521	-2.5375	-2.85	-2.5062	-2.8167	-3.0083	-2.4479	-2.7833	-2.825	-2.5708	-3.0583	-2.5938	-2.5062	-2.9458	-2.4042	118.200	5.805	211.793	215.962	123.677	-60.684	198.554	84.624	146.553	195.437	-31.026	194.055	269.085	239.329	9.448	234.657	0.0002106	0.00038956	8.4854e-05	379.85	1.2881e-06	3.3808e-06	582.47	112.52	2.6762e-06	3.5961e-06	275.68	127.98	39.123	19.716	6.1329e-06	68.891	0.00010048	6.3075e-05	1.7498e-05	338.88	6.8207e-07	7.7007e-07	519.45	100.34	7.9762e-07	7.4119e-07	243.45	113.86	35.094	17.619	7.2987e-07	61.213	265.950	-28.476	-19.649	-69.344	33.782	30.458	-68.139	-64.173	62.284	71.691	-64.319	-60.365	-60.344	-56.108	61.530	-57.457	-8191	255	
1971.333	1	1	0	0	0.15051	0.16898	0.19587	0.17754	0.02411	0.13679	0.26018	0.087712	0.09637	0.057359	0.14761	0.18461	0.15679	0.26131	0.20208	0.20065	-2.2458	-2.6188	-2.4708	-2.9875	-2.6021	-2.6708	-2.8958	-2.5396	-2.7271	-2.7396	-2.6771	-3.0375	-2.6479	-2.7021	-2.8208	-2.6229	255.536	6.558	234.572	-64.795	136.166	203.730	169.581	-68.838	56.748	171.456	183.147	191.794	-75.435	70.441	5.898	148.277	0.00022756	0.00038595	0.00012957	382.32	7.5457e-06	3.6495e-06	586.72	112.99	2.3892e-06	3.3373e-06	274.94	128.68	39.051	19.518	4.2837e-06	68.459	0.00010309	6.6243e-05	1.7916e-05	340.73	6.819e-07	6.8485e-07	525.26	100.51	7.5856e-07	7.4467e-07	243.86	114.64	35.226	17.555	7.4146e-07	60.931	-80.842	9.547	-2.941	-69.163	101.978	49.877	-68.438	-64.379	133.981	58.127	-64.324	-60.342	-59.776	-55.794	114.725	-57.493	-8191	255	
1971.452	1	1	0	0	0.14334	0.11561	0.25892	0.08633	0.18676	0.15556	0.26656	0.14138	0.15851	0.095752	0.23374	0.33184	0.11709	0.099865	0.23168	0.13579	-2.3771	-2.7354	-2.4083	-3.0083	-2.75	-2.3417	-3.1583	-2.6188	-2.8042	-2.8083	-2.6083	-2.8812	-2.6521	-2.5438	-2.8625	-2.7875	261.092	-78.722	-63.227	172.247	130.264	247.138	275.232	-74.559	110.318	54.668	115.412	220.640	204.712	201.923	102.512	156.538	0.00022851	0.00026612	4.25e-05	383.51	3.2867e-06	2.8595e-06	578.16	111.53	1.8821e-06	5.3083e-06	269.03	125.51	38.062	19.553	4.176e-06	67.525	9.4227e-05	6.3698e-05	1.7456e-05	338.05	7.2451e-07	7.038e-07	514.06	99.259	7.5085e-07	7.0411e-07	237.83	111.73	34.448	17.393	7.3674e-07	60.19	273.696	2.482	-29.698	-69.797	56.969	25.307	-68.636	-64.179	82.464	115.565	-64.456	-60.198	-59.958	-56.390	72.720	-57.334	-8191	255	
1971.548	1	1	0	0	0.32716	0.1366	0.16622	0.094469	0.14252	0.099572	0.22233	0.12686	0.079054	0.12954	0.09585	0.019253	0.030848	0.0478	0.12806	0.27166	-2.0563	-2.8542	-2.5479	-2.8146	-2.8604	-2.5563	-3.0229	-2.6208	-2.6042	-2.9771	-2.6	-2.9938	-2.8563	-2.4813	-2.9979	-2.6271	148.708	214.246	105.718	105.257	32.877	107.932	174.304	274.142	224.824	67.226	212.156	96.598	8.447	-48.843	-78.811	181.566	0.00019461	0.0004998	1.6036e-05	375.63	4.6001e-06	3.6338e-06	577.96	110.19	2.2843e-06	3.8799e-06	267.62	124.85	38.346	19.308	6.6849e-07	67.668	9.7856e-05	6.5853e-05	1.6507e-05	334.23	7.2732e-07	6.8001e-07	513.67	98.846	7.5107e-07	7.1839e-07	238	112.06	34.581	17.299	7.3351e-07	60.14	272.638	6.180	209.505	-69.504	71.577	55.529	-68.681	-64.211	74.819	92.888	-64.467	-59.686	-60.353	-56.143	115.079	-57.553	-8191	255	
1971.620	1	1	0	0	0.15793	0.11549	0.022887	0.10461	0.04136	0.039263	0.13865	0.19927	0.17515	0.065711	0.10588	0.05379	0.092261	0.18973	0.21567	0.14716	-1.9979	-2.9771	-2.5	-2.7729	-2.7625	-2.4083	-2.9854	-2.5792	-2.6063	-2.9875	-2.6604	-2.9333	-2.8771	-2.375	-2.8417	-2.8	171.431	-4.026	248.914	19.588	144.053	259.851	-7.578	188.822	189.914	183.510	-24.567	179.393	-45.830	204.175	25.105	-43.145	0.00022261	0.00056023	0.00011423	382.57	2.4756e-06	3.9632e-06	576.85	111.48	3.8813e-06	3.1644e-06	267.89	125.46	38.17	19.203	3.2682e-06	67.197	9.3612e-05	6.6274e-05	1.6228e-05	338.76	6.6916e-07	6.8319e-07	515.46	99.102	7.3312e-07	7.2559e-07	238.65	111.61	34.382	17.145	7.9689e-07	59.87	273.006	-11.851	8.292	-69.193	68.134	68.931	-68.306	-64.313	135.336	59.656	-64.271	-59.960	-61.029	-56.236	76.264	-57.313	-8191	255	
1971.741	1	1	0	0	0.12922	0.11134	0.14553	0.1537	0.072581	0.27884	0.2844	0.19182	0.09171	0.037139	0.037196	0.24796	0.24363	0.13116	0.22944	0.20229	-2.1333	-2.9771	-2.6437	-2.6562	-2.9521	-2.4917	-2.8979	-2.7146	-2.5583	-2.8958	-2.6042	-2.7875	-2.9875	-2.4938	-2.9062	-2.9938	-3.422	146.326	266.722	165.219	276.626	139.782	263.879	-44.935	123.326	-64.704	45.056	212.151	156.081	259.163	52.532	-70.387	0.00023478	0.00035402	0.00010594	382.67	4.0243e-06	1.5238e-06	578.87	111.2	2.6395e-06	3.9109e-06	262.56	120.76	37.283	18.781	3.8942e-06	64.758	9.1793e-05	6.535e-05	1.7306e-05	338.78	6.9807e-07	6.2786e-07	515.23	99.266	6.9434e-07	7.1479e-07	231.89	107.73	33.454	16.732	7.2328e-07	57.611	276.801	5.615	-4.733	-69.054	65.224	-2.238	-68.374	-64.610	68.204	88.539	-64.255	-59.763	-60.433	-56.054	61.108	-57.381	-8191	255	
1971.837	1	1	0	0	0.22825	0.16021	0.065316	0.12874	0.10266	0.26053	0.074258	0.15911	0.03855	0.27019	0.12003	0.16129	0.18874	0.10055	0.34146	0.19135	-2.1042	-2.6042	-2.8021	-2.65	-3.0458	-2.5208	-2.7083	-2.8854	-2.2479	-2.9542	-2.7438	-2.6271	-3.0938	-2.5625	-2.7417	-2.8063	163.662	63.728	173.558	-73.383	174.128	277.513	51.339	191.536	-67.966	-18.372	121.971	157.280	198.055	135.143	251.500	277.530	0.00019054	0.00022504	2.0073e-05	368.28	4.6062e-06	3.5939e-06	554.37	107.62	1.7185e-06	2.6935e-06	258.21	118.56	36.586	18.522	5.4235e-06	64.535	8.5542e-05	6.6736e-05	1.6614e-05	327.25	6.7421e-07	6.274e-07	496.28	96.152	6.5269e-07	7.3662e-07	228.17	106.13	33.071	16.561	7.2056e-07	57.412	272.308	-24.443	-33.442	-69.425	81.007	59.643	-68.720	-64.454	64.883	53.946	-64.606	-59.667	-60.140	-56.202	110.193	-57.361	-8191	255	
1971.933	1	1	0	0	0.137	0.24537	0.18541	0.27764	0.23119	0.27689	0.20862	0.17099	0.081387	0.042725	0.05951	0.12846	0.11321	0.23014	0.23442	0.08333	-2.0021	-2.6479	-2.5917	-2.5812	-2.925	-2.4542	-2.7625	-2.9	-2.3792	-2.9375	-2.8979	-2.6354	-3.0479	-2.5125	-2.7042	-2.9917	178.793	208.901	83.440	229.181	-59.223	211.993	249.601	141.056	181.818	177.327	167.484	223.593	-53.366	-15.490	-80.836	238.421	0.00017346	0.00029757	0.00016297	369.96	5.4905e-06	5.1319e-06	559.02	108.2	3.4887e-06	3.5832e-06	256.79	119.65	36.947	18.795	2.048e-06	65.172	8.6949e-05	6.7557e-05	1.6473e-05	329.36	6.8757e-07	6.1852e-07	498.76	96.191	6.9344e-07	7.0382e-07	228.27	106.48	33.143	16.671	7.8701e-07	57.844	269.438	29.772	-5.191	-69.272	55.277	83.734	-68.840	-64.379	86.555	80.567	-64.420	-60.460	-60.247	-56.355	122.248	-57.589	-8191	255	
1972.029	1	1	0	0	0.16732	0.021353	0.022785	0.1616	0.16968	0.15815	0.17671	0.17446	0.052608	0.37107	0.17957	0.079213	0.21536	0.13121	0.19269	0.11352	-2.0979	-2.7479	-2.7167	-2.3875	-2.9292	-2.6375	-2.7667	-3.0062	-2.5208	-2.8667	-2.7938	-2.6521	-3.0042	-2.8021	-2.5812	-2.9313	140.610	-69.862	-75.917	-14.799	64.385	266.549	-75.758	193.438	-52.264	63.788	12.433	195.411	269.752	113.523	122.321	65.816	0.00025279	0.00039014	0.00010811	373.77	4.2661e-06	2.6745e-06	566.43	109.13	5.0241e-07	2.0577e-06	256.8	119.77	37.021	18.472	2.7095e-06	63.75	8.6022e-05	6.3942e-05	1.5994e-05	331.36	6.787e-07	6.7374e-07	503.02	97.13	6.3699e-07	7.2045e-07	230	107.02	33.014	16.499	6.8205e-07	56.624	263.899	-5.719	-58.178	-68.805	50.842	64.823	-68.347	-64.139	190.955	99.823	-64.097	-60.204	-60.640	-55.993	55.220	-57.271	-8191	255	
1972.150	1	1	0	0	0.13647	0.13015	0.11324	0.034461	0.17231	0.3409	0.24404	0.22362	0.13007	0.34971	0.10727	0.22588	0.12124	0.22792	0.19744	0.098709	-1.95	-2.9021	-2.9542	-2.325	-2.7729	-2.6063	-2.8	-3.0167	-2.6271	-2.625	-2.8083	-2.6646	-2.7958	-2.7667	-2.525	-2.9958	173.836	168.911	129.031	-71.717	268.157	127.335	272.281	12.301	164.386	82.266	143.018	-17.387	243.335	-21.804	272.834	195.843	0.00016831	0.00031316	8.3267e-05	364.32	3.785e-06	3.2132e-06	547.86	106.6	1.8194e-06	1.9012e-06	253.19	116.15	35.944	18.202	2.4932e-06	63.122	8.3987e-05	6.738e-05	1.6989e-05	325.12	6.9549e-07	6.2045e-07	486.55	94.847	6.4414e-07	6.9628e-07	223.96	103.73	32.472	16.259	6.6109e-07	56.286	275.197	3.026	32.691	-69.403	109.329	52.612	-68.287	-64.151	139.582	51.144	-64.714	-59.960	-60.362	-56.711	29.034	-57.283	-8191	255	
1972.244	1	1	0	0	0.051869	0.18889	0.082131	0.22661	0.066173	0.16327	0.14488	0.098324	0.1727	0.20211	0.031774	0.21163	0.015334	0.060634	0.088376	0.33776	-2.2208	-2.7438	-2.8854	-2.4833	-2.8167	-2.7292	-2.7021	-3.1042	-2.6771	-2.6396	-3.0563	-2.5479	-2.8375	-3.0187	-2.5625	-2.9646	-53.075	263.643	140.532	201.754	218.516	89.200	160.873	209.355	99.740	29.176	150.943	-61.898	-17.559	-62.592	128.366	180.602	0.00022908	0.00045939	7.417e-05	367.68	3.3893e-06	2.7393e-06	561.37	107.47	2.6368e-06	2.5009e-06	257.66	119.61	36.681	18.755	5.0474e-06	65.456	8.6464e-05	6.3984e-05	1.6207e-05	326.71	6.9285e-07	6.3025e-07	496.02	96.021	6.6896e-07	6.852e-07	229.34	106.88	33.252	16.69	6.5438e-07	58.152	275.618	-16.029	5.119	-69.237	86.958	41.720	-68.332	-64.674	78.704	57.132	-64.105	-59.982	-60.595	-56.326	71.050	-57.366	-8191	255	
1972.318	1	1	0	0	0.35902	0.148	0.31921	0.10982	0.072579	0.24183	0.24496	0.13068	0.13694	0.16162	0.16946	0.27522	0.2105	0.12128	0.07827	0.25333	-2.0208	-2.7313	-2.8125	-2.4792	-2.7938	-2.8375	-2.4667	-2.9875	-2.7021	-2.6354	-2.9229	-2.6917	-2.6688	-2.9062	-2.5021	-3.0083	259.201	231.155	-10.827	270.425	-44.202	100.742	-32.828	221.137	186.526	254.478	239.623	243.788	239.693	71.395	31.770	227.805	0.00020711	0.0002992	8.413e-05	368.88	6.2344e-06	4.8262e-06	564.15	109.37	2.7998e-06	5.9375e-06	265.12	122.38	37.889	18.866	3.7477e-06	66.733	8.8562e-05	6.32e-05	1.7741e-05	330.06	7.5247e-07	6.7454e-07	504.34	97.399	6.9276e-07	7.0394e-07	234.53	109.12	33.979	16.929	6.7568e-07	59.185	268.381	-52.587	-0.749	-69.260	72.805	33.357	-68.623	-64.671	51.240	69.140	-64.605	-59.913	-60.130	-56.227	78.542	-57.626	-8191	255	
1972.414	1	1	0	0	0.27577	0.16916	0.11692	0.11436	0.16234	0.11798	0.33639	0.082064	0.070511	0.05939	0.058724	0.14152	0.26076	0.15295	0.32271	0.15848	-2.2854	-2.6729	-3.0542	-2.6312	-2.7687	-2.9021	-2.4979	-2.8521	-2.8812	-2.5708	-3.0271	-2.6125	-2.6271	-3.0104	-2.4167	-3.025	135.126	162.563	-11.179	-46.427	244.454	209.306	-77.672	233.085	70.207	28.044	197.845	235.418	256.608	236.033	-60.688	262.863	0.00021114	0.00052017	4.7387e-05	371.96	3.5306e-06	2.7902e-06	572.64	109.18	4.1515e-06	3.4713e-06	258.71	120.66	36.671	18.678	1.4934e-06	64.333	8.8259e-05	6.1694e-05	1.8702e-05	332.4	7.6465e-07	6.9162e-07	508.67	97.578	6.5022e-07	6.6869e-07	230.93	107.38	33.246	16.644	6.7466e-07	57.179	261.615	21.763	8.253	-69.743	80.835	78.019	-68.833	-63.930	102.932	94.760	-64.452	-60.256	-60.339	-56.481	144.434	-57.413	-8191	255	
1972.533	1	1	0	0	0.10791	0.31522	0.099975	0.092136	0.10659	0.20743	0.36477	0.024201	0.18614	0.24226	0.20736	0.10049	0.042319	0.039667	0.33434	0.086617	-2.15	-2.475	-2.8854	-2.6396	-2.6083	-2.8667	-2.5125	-2.875	-2.725	-2.65	-2.9688	-2.7979	-2.6333	-2.8271	-2.5125	-2.9167	191.802	135.192	265.777	-30.253	-77.961	69.453	171.288	166.813	217.621	-73.791	247.038	226.797	247.853	153.242	153.657	242.063	0.00022585	0.00025093	0.00013727	369.39	1.9875e-06	5.0994e-06	559.23	108.17	3.5044e-06	3.3554e-06	262.75	121.25	37.119	18.727	3.144e-06	65.725	8.6301e-05	6.1855e-05	1.843e-05	327.74	6.9532e-07	6.6885e-07	498.96	96.92	7.0537e-07	6.3704e-07	233.24	108.25	33.497	16.768	6.85e-07	58.416	-79.828	5.828	-14.379	-69.318	81.241	49.641	-68.393	-64.112	122.418	6.440	-64.853	-60.318	-59.893	-56.454	64.073	-57.569	-8191	255	
1972.629	1	1	0	0	0.23638	0.19793	0.11166	0.10097	0.22536	0.22914	0.37973	0.19216	0.20476	0.21061	0.076295	0.18895	0.18299	0.2919	0.016908	0.13981	-2.4792	-2.5229	-2.8063	-2.6479	-2.5396	-2.8063	-2.6813	-2.7667	-2.7896	-2.4646	-2.8771	-2.7917	-2.6188	-2.8458	-2.6437	-2.7104	76.494	170.347	7.336	261.049	214.424	260.335	175.205	-5.576	211.298	211.981	79.384	204.725	-4.147	151.794	225.235	168.132	0.00021442	0.00046914	6.4612e-05	371.2	1.9495e-06	3.1529e-06	562.84	109.47	3.5333e-06	3.9369e-06	266.25	122.43	37.695	18.922	6.0893e-06	66.27	9.0626e-05	6.1844e-05	1.8965e-05	331.03	7.1856e-07	7.1963e-07	504.87	97.697	6.9653e-07	6.3618e-07	235.82	109.4	33.831	16.925	6.8426e-07	58.845	274.089	-4.152	-55.630	-69.005	109.226	52.728	-68.339	-64.261	79.855	62.110	-64.368	-60.308	-60.957	-56.425	75.051	-57.680	-8191	255	
1972.725	1	1	0	0	0.38832	0.014297	0.14227	0.15773	0.040052	0.23863	0.088859	0.11896	0.25981	0.20059	0.17887	0.27149	0.13479	0.2514	0.18756	0.10182	-2.5333	-2.4521	-2.9021	-2.7062	-2.5521	-3.025	-2.7271	-2.6375	-2.7188	-2.5479	-2.7792	-2.8688	-2.3583	-2.9521	-2.725	-2.75	-69.057	7.736	29.359	271.196	268.255	94.008	192.931	171.357	-43.178	249.041	250.031	233.070	272.579	271.918	216.607	151.891	0.00021446	0.00021442	8.3604e-05	371.51	5.3759e-06	2.0834e-06	577.21	110.52	2.6702e-06	4.7177e-06	267.01	123.8	37.938	19.401	4.5899e-06	66.229	9.1092e-05	6.3221e-05	1.8322e-05	332.89	6.9111e-07	6.861e-07	512.91	98.817	6.8905e-07	6.7137e-07	237.94	110.96	34.256	17.191	7.3845e-07	59.108	270.154	-28.421	3.237	-69.833	49.113	60.281	-68.288	-64.594	78.353	67.580	-64.286	-60.162	-59.588	-56.522	46.283	-57.751	-8191	255	
1972.821	1	1	0	0	0.2133	0.12583	0.21048	0.21245	0.14978	0.079655	0.09994	0.12639	0.20291	0.26426	0.19136	0.10995	0.24508	0.09735	0.20444	0.14561	-2.4938	-2.2917	-2.7812	-2.8812	-2.4562	-2.8625	-2.7208	-2.6729	-3.0729	-2.4958	-2.9938	-2.8729	-2.4375	-3.0292	-2.6583	-2.6063	13.247	185.400	38.984	106.140	217.909	-73.865	59.735	211.028	-52.394	3.177	179.422	228.068	-38.054	102.751	-74.438	193.911	0.00018733	0.00053999	4.6812e-05	366.08	2.1759e-06	2.9589e-06	563.33	108.43	2.0838e-06	1.1266e-06	263.07	122.18	37.919	18.973	1.4466e-06	66.075	9.1764e-05	6.0671e-05	1.8909e-05	328.29	6.8454e-07	7.1992e-07	502.21	97.606	7.4443e-07	6.2292e-07	233.67	109.21	34.121	16.985	6.7313e-07	58.689	270.028	-12.430	31.811	-69.333	93.440	70.163	-67.990	-64.469	43.131	85.114	-64.102	-60.301	-59.346	-56.169	79.935	-57.530	-8191	255	
1972.917	1	1	0	0	0.27263	0.093713	0.2275	0.30324	0.086813	0.044143	0.2095	0.16903	0.39065	0.10917	0.19184	0.12188	0.16913	0.093409	0.13393	0.34935	-2.2521	-2.5	-2.7875	-2.9208	-2.3104	-2.8875	-2.6208	-2.5438	-2.9688	-2.5104	-2.8792	-2.9062	-2.4104	-2.9229	-2.7792	-2.7667	-81.817	138.311	183.587	-48.325	115.417	100.890	233.210	219.359	220.072	-48.978	244.992	269.554	-39.250	57.430	218.110	-79.864	0.00023032	0.00049842	7.4262e-05	375.14	3.3643e-06	6.1564e-06	573.77	110.13	3.0228e-06	3.2756e-06	264.87	123.52	38.035	19.006	2.8592e-06	66.138	9.644e-05	6.0769e-05	1.8206e-05	332.59	6.7657e-07	7.0278e-07	507.08	98.549	7.3194e-07	6.5915e-07	236.02	110.18	34.164	17.004	6.9335e-07	58.774	-82.239	10.736	-4.636	-69.659	24.063	69.056	-68.339	-64.526	84.272	88.364	-64.763	-59.990	-60.647	-56.131	20.243	-57.410	-8191	255	
1973.013	1	1	0	0	0.13693	0.1031	0.14978	0.26324	0.14483	0.20768	0.047215	0.28761	0.21207	0.16861	0.19188	0.12614	0.083392	0.12603	0.084503	0.14016	-2.5833	-2.6083	-2.6833	-3.0479	-2.3458	-2.7938	-2.9271	-2.4292	-3.1729	-2.5812	-2.7708	-2.925	-2.4479	-2.8604	-2.7833	-2.65	244.481	205.344	-15.967	227.507	221.716	-71.797	219.210	265.211	-77.331	188.398	-81.263	-40.426	31.991	-44.810	-26.155	223.444	0.00018581	0.00042737	6.2736e-05	377.17	4.7618e-06	4.7222e-06	579.97	110.68	2.3819e-06	3.6269e-06	265.95	124.86	38.342	19.094	5.5487e-06	67.121	9.3867e-05	6.3901e-05	1.8487e-05	334.74	6.7314e-07	7.358e-07	514.1	99.124	7.289e-07	6.644e-07	238.44	110.99	34.391	17.102	7.1192e-07	59.637	270.873	-9.293	10.253	-69.216	87.243	47.272	-68.589	-64.455	111.039	58.340	-64.704	-60.087	-60.083	-55.858	52.102	-57.820	-8191	255	
1973.134	1	1	0	0	0.064267	0.30405	0.38633	0.14507	0.25457	0.051079	0.065934	0.054003	0.34738	0.16385	0.048092	0.1199	0.047293	0.073164	0.28441	0.29145	-2.4688	-2.6479	-2.5812	-2.8875	-2.5687	-2.925	-3.0146	-2.4521	-2.9896	-2.7354	-2.7812	-3.1146	-2.4979	-2.7417	-2.9562	-2.5854	93.470	68.543	-67.551	209.984	139.934	220.619	37.557	221.936	162.144	191.909	146.545	-37.897	154.220	13.433	137.345	181.162	0.00026704	0.00050829	7.9551e-05	378.26	3.9676e-06	9.9733e-07	575.13	110.87	1.9297e-06	2.7368e-06	264.46	122.55	37.655	18.95	2.2174e-06	65.694	9.728e-05	6.147e-05	1.8514e-05	337.58	6.3334e-07	7.2755e-07	512.03	98.935	7.4606e-07	6.3641e-07	234.93	109.47	33.957	17.003	7.2794e-07	58.292	266.853	-4.440	-6.789	-69.202	57.564	47.222	-68.297	-64.078	110.619	63.126	-64.589	-60.102	-60.207	-55.947	101.851	-57.363	-8191	255	
1973.230	1	1	0	0	0.026898	0.27874	0.064972	0.15459	0.066853	0.093272	0.088429	0.083036	0.09194	0.1323	0.22264	0.20778	0.17803	0.31831	0.15481	0.15713	-2.4958	-2.6771	-2.4896	-3.0187	-2.4917	-2.6458	-2.9417	-2.6521	-2.8854	-2.8646	-2.6813	-3.1792	-2.4979	-2.7875	-2.9208	-2.7562	84.713	68.639	-10.642	237.075	259.067	66.443	194.745	272.054	251.875	40.822	-74.630	224.852	225.912	14.077	81.593	225.851	0.00025634	0.00044837	0.00011181	374.38	3.6114e-06	1.6883e-06	562.9	110.2	2.6817e-06	4.3704e-06	264.25	122.57	37.321	18.846	3.7039e-06	66.264	9.4664e-05	6.281e-05	1.7767e-05	330.93	7.0161e-07	7.5191e-07	501.11	97.919	7.6756e-07	6.6612e-07	235.04	109.59	33.745	16.974	6.9102e-07	58.841	-79.946	-5.603	9.971	-69.498	37.459	89.727	-68.538	-64.260	64.320	51.939	-64.458	-59.718	-60.601	-56.499	70.408	-57.633	-8191	255	
1973.326	1	1	0	0	0.20471	0.23517	0.16282	0.19313	0.14673	0.0062625	0.12065	0.066508	0.20886	0.33781	0.24085	0.20108	0.12444	0.13859	0.10757	0.15325	-2.4333	-2.7792	-2.3979	-2.9958	-2.7313	-2.7917	-2.9625	-2.6312	-2.8812	-2.9583	-2.5417	-2.9104	-2.6396	-2.6271	-2.9521	-2.7042	53.430	45.209	184.452	-70.160	270.869	179.345	46.879	-52.005	86.014	37.660	107.497	-4.094	-19.855	177.764	247.935	247.113	0.0002296	0.00033347	0.00012065	375.54	3.3416e-06	1.7467e-06	574.04	110.1	1.7241e-06	4.8396e-06	267.51	122.7	38.409	19.232	3.7161e-06	66.849	9.1788e-05	6.2327e-05	1.7724e-05	333.54	6.5203e-07	7.1121e-07	507.27	98.18	7.0892e-07	6.5475e-07	236.49	110.18	34.304	17.109	6.8568e-07	59.383	-74.274	-53.122	11.865	-69.383	114.205	57.813	-68.513	-64.638	126.166	40.654	-64.650	-59.823	-59.899	-56.214	47.671	-57.432	-8191	255	
1973.422	1	1	0	0	0.1402	0.3064	0.16367	0.12145	0.099282	0.12766	0.05944	0.20185	0.11652	0.049898	0.27353	0.41257	0.27064	0.16502	0.36821	0.32058	-2.2333	-2.7417	-2.5396	-3.0167	-2.5958	-2.5229	-3.0042	-2.6458	-2.8729	-2.925	-2.6729	-3.0854	-2.7708	-2.4917	-2.9313	-2.7021	129.082	205.631	200.680	63.346	90.488	51.730	-50.409	40.060	-78.880	262.675	243.164	189.161	86.180	270.015	238.626	270.913	0.00019816	0.00038608	5.3995e-05	378.22	6.1515e-06	3.891e-06	579.02	110.93	2.3154e-06	4.8456e-06	267.84	123.94	37.948	19.038	3.4793e-06	65.706	9.464e-05	6.3428e-05	1.6622e-05	336.26	6.9571e-07	6.7648e-07	514.39	99.094	7.5045e-07	6.8017e-07	238	110.85	34.174	17.005	7.6162e-07	58.466	264.782	-0.343	11.274	-69.169	55.152	43.804	-68.525	-64.481	84.202	96.822	-64.618	-60.276	-60.751	-55.931	42.137	-57.680	-8191	255	
1973.517	1	1	0	0	0.11612	0.23334	0.28044	0.12161	0.072568	0.23614	0.36279	0.11954	0.32924	0.19236	0.2378	0.42009	0.28423	0.27646	0.06251	0.21387	-2.3667	-3.0104	-2.5896	-3.075	-2.7875	-2.5521	-3.1292	-2.5542	-2.8604	-3.0458	-2.5625	-2.8104	-2.9021	-2.4708	-2.8896	-2.7729	256.735	99.616	14.168	80.558	88.030	68.612	192.736	-32.836	90.316	-14.598	249.820	191.476	240.838	-81.354	-66.891	198.641	0.00022728	0.0003411	5.8415e-05	371.86	3.0996e-06	2.8686e-06	564.73	108.74	2.6013e-06	1.5136e-06	260.66	120.66	37.357	18.891	5.552e-06	65.217	9.0545e-05	6.5204e-05	1.6132e-05	330.53	6.8869e-07	6.7369e-07	500.25	96.774	7.0132e-07	6.4526e-07	231.05	107.89	33.587	16.853	7.3299e-07	58.058	264.240	-3.602	-15.432	-69.416	63.979	77.782	-68.764	-65.101	99.942	75.625	-64.520	-60.182	-60.298	-56.541	89.573	-57.340	-8191	255	
1973.613	1	1	0	0	0.24926	0.046706	0.075399	0.22422	0.14373	0.20967	0.065359	0.13093	0.063156	0.29513	0.20764	0.24536	0.12564	0.25284	0.035583	0.20493	-2.0583	-3.0104	-2.5292	-2.7396	-2.7708	-2.4417	-3.025	-2.7729	-2.5354	-3.1063	-2.5375	-2.9437	-2.9375	-2.5083	-2.9667	-2.8396	140.478	79.139	187.299	243.538	-72.055	191.277	-20.573	140.994	-1.276	175.798	166.278	230.760	204.098	-47.216	165.913	177.898	0.00018668	0.00038484	6.2254e-05	372.59	3.4763e-06	3.067e-06	568.9	109.58	3.0529e-06	1.2764e-06	264.78	123.65	37.908	19.062	2.3609e-06	66.566	9.2474e-05	6.1522e-05	1.6897e-05	331.69	6.7926e-07	6.5239e-07	506.02	97.759	7.1421e-07	6.8189e-07	235.49	109.89	34.018	17.008	7.8815e-07	59.296	266.326	-27.185	1.317	-69.591	93.252	27.646	-68.365	-64.599	168.904	51.878	-64.759	-60.200	-60.347	-55.626	88.139	-57.518	-8191	255	
1973.709	1	1	0	0	0.09643	0.064044	0.2659	0.17977	0.026116	0.081605	0.338	0.24065	0.26219	0.014371	0.25622	0.10644	0.089319	0.19675	0.18911	0.47037	-2.0062	-2.9083	-2.5979	-2.6271	-2.8396	-2.4	-2.9562	-2.9021	-2.5	-3.0917	-2.8937	-2.7854	-2.9	-2.6042	-2.8521	-2.9813	233.529	252.352	146.586	252.758	-9.461	251.091	196.191	71.798	142.767	-74.721	-41.971	189.866	251.120	206.663	62.845	176.199	0.00020011	0.00051185	0.00010406	378.39	6.4389e-06	3.3886e-06	574.95	109.7	3.2145e-06	2.6373e-06	267.45	123.98	37.9	19.221	5.1536e-06	66.84	9.1879e-05	6.5718e-05	1.6991e-05	335.43	7.2356e-07	6.3378e-07	512.12	98.437	7.2811e-07	6.9777e-07	237.35	110.7	34.095	17.085	7.4106e-07	59.444	273.263	-0.360	15.566	-69.161	63.586	40.758	-68.511	-64.360	89.086	102.791	-64.647	-60.275	-60.447	-56.036	111.150	-57.695	-8191	255	
1973.830	1	1	0	0	0.24561	0.23405	0.32639	0.24241	0.068673	0.19603	0.089709	0.10208	0.26723	0.1921	0.25121	0.1067	0.084491	0.25246	0.059028	0.25359	-1.8687	-2.7458	-2.5812	-2.5917	-2.8625	-2.4479	-2.8208	-2.8333	-2.3854	-2.9562	-2.6937	-2.6792	-2.9313	-2.5125	-2.8042	-2.9125	-16.675	276.695	88.570	-41.512	110.498	257.433	238.377	-65.510	174.374	39.548	115.359	-60.754	-38.508	18.482	58.880	201.696	0.00021199	0.0004718	8.3767e-05	377.57	4.8793e-06	2.7864e-06	562.43	109.56	1.8666e-06	4.8852e-06	260.55	119.97	37.172	18.832	2.3574e-06	65.424	9.3291e-05	6.6108e-05	1.6304e-05	335.02	7.1688e-07	6.7056e-07	502.34	97.524	6.9496e-07	7.2896e-07	230.83	107.84	33.428	16.763	7.4719e-07	58.099	-78.086	14.336	21.834	-69.217	103.925	43.142	-68.285	-64.861	129.053	95.043	-64.704	-60.120	-60.539	-56.266	27.768	-57.950	-8191	255	
1973.926	1	1	0	0	0.33849	0.16576	0.12713	0.27027	0.32833	0.040259	0.1118	0.097831	0.16568	0.06242	0.34026	0.12255	0.35342	0.10073	0.14109	0.2041	-1.8333	-2.9	-2.6542	-2.6667	-2.9813	-2.5979	-2.7625	-2.7604	-2.4583	-3.0042	-2.7188	-2.4604	-3.0667	-2.4979	-2.6333	-3.0479	238.834	86.644	-36.025	65.305	130.368	214.305	238.690	-59.214	204.511	76.090	5.190	-65.891	42.179	-23.529	27.444	95.842	0.00019336	0.00025759	9.1884e-05	366.35	2.6497e-06	3.0384e-06	562.78	108.58	3.8399e-06	3.103e-06	261.29	122.62	37.805	18.929	5.0585e-06	66.554	8.5715e-05	6.5137e-05	1.6809e-05	327.39	6.6848e-07	5.991e-07	499.26	96.483	6.8111e-07	7.3845e-07	231.89	109.43	33.812	16.97	7.1186e-07	59.121	-81.514	-22.174	-7.626	-69.475	151.256	31.480	-68.597	-64.357	106.311	111.680	-64.423	-60.028	-60.085	-56.725	95.382	-57.593	-8191	255	
1974.022	1	1	0	0	0.25726	0.2426	0.015086	0.089799	0.23478	0.23943	0.22055	0.1046	0.14721	0.12219	0.29923	0.33246	0.08341	0.092154	0.18942	0.26109	-1.8979	-2.8042	-2.7542	-2.5417	-2.9542	-2.6167	-2.8083	-3.0187	-2.5854	-2.6562	-2.925	-2.3937	-2.6854	-2.5438	-2.825	-3.0229	84.087	-69.441	251.294	245.026	234.155	-18.614	222.696	-4.688	197.144	-5.838	253.161	155.885	93.081	197.018	184.389	261.731	0.00023842	0.0003086	0.0001255	371.72	3.6032e-06	3.1533e-06	570.18	110.56	1.7493e-06	2.5856e-06	265.66	124.22	37.817	19.058	1.7095e-06	67.196	8.4615e-05	6.9452e-05	1.6612e-05	330.64	7.1542e-07	6.5069e-07	505.15	97.704	6.407e-07	7.1514e-07	234.33	110.88	33.953	17.075	7.5725e-07	59.743	277.323	17.185	-33.718	-69.318	86.687	62.820	-68.141	-64.380	41.849	87.855	-64.691	-60.287	-60.453	-56.432	103.291	-57.334	-8191	255	
1974.118	1	1	0	0	0.026827	0.043033	0.11872	0.22202	0.056987	0.07458	0.052656	0.17048	0.14874	0.2244	0.23999	0.28511	0.046104	0.23318	0.12155	0.21566	-2.2021	-2.7	-2.8396	-2.4229	-2.8708	-2.8354	-2.7125	-2.8708	-2.6188	-2.9458	-2.9792	-2.6021	-2.9271	-2.8021	-2.6854	-3.2375	130.421	198.285	56.204	-72.978	103.156	276.831	22.416	266.614	106.469	63.349	195.373	-67.310	142.482	243.767	164.448	25.453	0.00026023	0.00052758	0.00010002	371.88	3.5688e-06	3.7336e-06	573.49	109.83	1.8187e-06	2.8347e-06	262.12	123.09	37.274	18.942	2.5031e-06	66.3	8.8418e-05	6.6258e-05	1.678e-05	330.81	7.1935e-07	6.3252e-07	508.55	98.029	6.783e-07	7.1879e-07	234.03	109.72	33.579	16.902	7.0323e-07	58.645	276.829	-9.253	21.505	-68.815	48.983	86.295	-68.131	-64.808	47.368	83.359	-64.715	-59.957	-60.479	-56.507	111.550	-57.230	-8191	255	
1974.214	1	1	0	0	0.104	0.16774	0.10485	0.21817	0.21838	0.13632	0.26894	0.098006	0.17131	0.097869	0.041945	0.20886	0.089106	0.13025	0.10631	0.2841	-1.9417	-2.7354	-2.9771	-2.5521	-2.925	-2.7479	-2.5104	-3.0292	-2.5687	-2.7479	-2.9167	-2.4042	-2.8563	-2.8438	-2.5229	-2.9458	269.144	257.096	264.029	-76.847	219.649	112.278	-55.329	-9.449	253.164	-40.416	-41.953	257.194	-11.871	170.235	64.850	253.237	0.00021958	0.00046257	0.00011895	367.62	4.4507e-06	4.5045e-06	548.34	108.28	3.3081e-06	2.7732e-06	258.46	122.37	37.104	18.957	4.8722e-06	65.452	8.6325e-05	6.2348e-05	1.6788e-05	326.36	7.1626e-07	6.5735e-07	492.5	96.56	7.0582e-07	7.1194e-07	229.36	108.53	33.333	16.933	7.0334e-07	58.422	271.862	0.248	11.937	-69.063	92.082	44.620	-68.193	-64.879	104.534	58.028	-64.555	-59.713	-60.411	-56.164	60.056	-57.393	-8191	255	
1974.310	1	1	0	0	0.3353	0.18807	0.058139	0.20608	0.076614	0.12691	0.21757	0.10932	0.031895	0.12933	0.35856	0.085807	0.23393	0.11752	0.30822	0.30713	-2.1646	-2.6792	-3.0729	-2.5771	-2.8146	-2.8375	-2.5625	-3.0896	-2.7396	-2.6125	-2.9271	-2.5375	-2.6833	-2.8042	-2.3542	-2.9958	-67.382	219.629	274.355	222.666	182.204	-61.855	220.387	106.414	-71.802	104.091	276.441	225.212	-37.496	180.950	203.734	256.796	0.00018358	0.00045025	2.6491e-05	368.71	3.5975e-06	2.1772e-06	557.02	108.44	2.0631e-06	3.6046e-06	262.62	122.41	37.525	19.375	2.649e-06	66.711	8.6622e-05	6.2732e-05	1.7963e-05	327.41	7.3046e-07	6.3708e-07	498.16	96.572	6.6243e-07	7.0171e-07	232.91	109.57	33.817	17.221	6.5927e-07	59.718	276.413	-3.838	-33.651	-69.057	111.762	46.370	-68.030	-64.328	63.201	74.197	-64.180	-60.441	-60.774	-56.033	75.537	-57.597	-8191	255	
1974.407	1	1	0	0	0.21473	0.34066	0.10411	0.32119	0.18832	0.049376	0.029593	0.081672	0.22086	0.040858	0.18978	0.35042	0.21939	0.17715	0.21757	0.12037	-2.3312	-2.5271	-2.9958	-2.4583	-2.6271	-2.9333	-2.5125	-2.975	-2.7521	-2.6375	-2.9208	-2.475	-2.8083	-2.8521	-2.4313	-2.9042	268.340	-69.986	49.554	83.897	-30.318	-73.262	82.994	197.050	78.840	25.464	171.404	270.902	-50.189	239.297	214.009	96.665	0.00020076	0.00049712	0.00011136	369.91	4.4997e-06	3.3818e-06	561.12	109.31	2.8199e-06	2.8617e-06	263.17	124.66	37.952	19.405	3.1373e-06	67.681	8.9997e-05	6.4119e-05	1.752e-05	329.91	7.3613e-07	6.6122e-07	501.19	98.006	6.7014e-07	6.6406e-07	234.31	111.43	34.006	17.283	6.3598e-07	60.488	271.295	-10.169	-1.332	-68.996	53.099	53.882	-68.924	-64.552	111.353	57.279	-64.713	-60.336	-59.982	-56.295	114.987	-57.222	-8191	255	
1974.503	1	1	0	0	0.11453	0.16674	0.20138	0.03556	0.203	0.13906	0.17911	0.36989	0.13785	0.06422	0.14184	0.12767	0.22477	0.22878	0.19708	0.30618	-2.3146	-2.5771	-2.8708	-2.4229	-2.7146	-2.9271	-2.6	-2.9396	-2.9417	-2.5375	-2.8042	-2.6771	-2.7021	-2.8937	-2.4229	-2.9562	181.582	272.302	31.151	23.385	200.617	64.373	204.646	177.922	190.683	0.065	-46.017	123.796	135.419	142.668	83.003	158.588	0.0002123	0.0003822	8.6075e-05	370.97	2.4914e-06	4.7682e-06	551.56	108	3.7737e-06	4.349e-06	257.21	120.77	37.234	18.824	3.3248e-06	65.283	9.2763e-05	6.4742e-05	1.7567e-05	329.28	6.8358e-07	6.5564e-07	490.9	96.463	6.4712e-07	6.3418e-07	228.83	108.07	33.412	16.823	6.1059e-07	58.234	-81.638	-33.334	-8.756	-69.271	66.981	101.320	-68.685	-64.428	71.279	62.610	-64.344	-60.360	-60.199	-55.998	81.989	-57.410	-8191	255	
1974.622	1	1	0	0	0.32339	0.1893	0.36291	0.34622	0.094298	0.12898	0.11989	0.10808	0.21348	0.21188	0.16884	0.15057	0.18677	0.17047	0.22889	0.089345	-2.3167	-2.3187	-2.8812	-2.5938	-2.5604	-2.9375	-2.8271	-2.8063	-2.9458	-2.5	-2.9792	-2.9229	-2.6083	-2.8917	-2.5354	-2.8063	55.268	187.562	183.144	273.436	26.104	78.540	-22.499	144.144	93.030	203.784	159.319	-74.927	-41.235	-50.595	2.258	247.477	0.00020444	0.00049756	9.0359e-05	363.82	1.0492e-06	3.5803e-06	550.01	108.26	2.379e-06	1.9849e-06	257.19	120.27	36.657	18.709	3.5174e-06	64.655	8.7054e-05	6.0904e-05	1.728e-05	323.6	6.9246e-07	6.0252e-07	488.56	96.119	6.6862e-07	6.2664e-07	228.03	107.32	32.993	16.638	6.0821e-07	57.484	-76.997	-1.230	-7.327	-69.455	66.145	53.613	-68.378	-64.646	84.971	67.785	-64.578	-60.339	-59.924	-56.540	43.779	-57.335	-8191	255	
1974.718	1	1	0	0	0.20074	0.04543	0.074476	0.16718	0.041547	0.15864	0.13252	0.036852	0.034732	0.22341	0.26677	0.20446	0.070315	0.16353	0.21006	0.29268	-2.4542	-2.4562	-2.9813	-2.6937	-2.5042	-3.2	-2.7542	-2.7458	-3.0563	-2.475	-2.9271	-2.9792	-2.6417	-3.0771	-2.6521	-2.7396	122.371	72.493	164.862	-28.599	20.755	190.311	120.175	49.113	217.326	226.862	253.824	123.771	123.178	84.183	174.905	207.143	0.00021121	0.00036295	4.9801e-05	368.83	6.5742e-06	4.2628e-06	551.07	108.06	2.0294e-06	3.4173e-06	255.98	119.17	36.137	18.402	2.3397e-06	64.246	8.7928e-05	5.9326e-05	1.7445e-05	327.69	6.8061e-07	6.6919e-07	491.22	95.789	6.4312e-07	6.3744e-07	225.9	106.01	32.713	16.428	6.2746e-07	57.103	-80.936	-6.950	-11.833	-69.632	80.000	63.743	-68.353	-64.286	92.705	86.389	-64.551	-59.981	-60.361	-56.227	66.009	-57.297	-8191	255	
1974.814	1	1	0	0	0.14007	0.2818	0.17378	0.067976	0.26832	0.29311	0.25087	0.17807	0.11976	0.15797	0.22567	0.26711	0.02402	0.16664	0.073889	0.1969	-2.3896	-2.3125	-2.8396	-2.8875	-2.4604	-2.8104	-2.8146	-2.3479	-2.8292	-2.6125	-2.9583	-3.0062	-2.5292	-2.975	-2.6271	-2.7667	44.412	-25.098	-15.108	271.782	159.009	-8.956	235.473	237.459	-32.203	-32.378	-58.278	-80.467	262.502	244.516	-60.542	210.405	0.00019795	0.0004301	8.6506e-05	367.99	5.2889e-07	3.4055e-06	556.39	107.76	1.3764e-06	4.1207e-06	248.34	115.02	35.646	17.796	4.0518e-06	61.729	8.7189e-05	5.4018e-05	1.793e-05	327.07	6.3513e-07	6.5387e-07	493.42	95.597	6.5545e-07	6.0533e-07	221.65	103.03	32.098	16.064	6.2422e-07	54.996	274.049	0.061	7.213	-69.364	103.645	80.887	-68.233	-64.198	187.608	77.099	-64.396	-59.710	-60.045	-56.223	64.567	-57.063	-8191	255	
1974.910	1	1	0	0	0.10994	0.27466	0.024523	0.44608	0.021282	0.27587	0.20831	0.22973	0.27587	0.39704	0.064499	0.18268	0.24331	0.21843	0.039872	0.085942	-2.4021	-2.5604	-2.7875	-2.8958	-2.4354	-2.9958	-2.6542	-2.5583	-3.2229	-2.55	-2.8792	-2.8646	-2.4813	-2.8333	-2.9958	-2.6292	145.084	63.906	58.236	-66.449	170.660	242.880	194.353	122.851	187.928	85.834	-46.272	-18.226	-72.980	-29.896	53.907	-51.694	0.00020486	0.0003986	2.9666e-05	359.74	2.2016e-06	3.1688e-06	528.2	104.35	2.111e-06	2.1924e-06	244.61	114.93	35.956	17.987	3.3831e-06	62.41	8.7333e-05	5.6251e-05	1.6622e-05	321.3	6.234e-07	6.4869e-07	471.46	93.359	6.7582e-07	6.2252e-07	217.42	102.39	31.926	16.034	6.4677e-07	55.705	277.291	15.391	-13.754	-69.551	51.912	73.050	-68.432	-64.320	99.107	86.728	-64.750	-60.169	-60.396	-56.194	41.079	-57.160	-8191	255	
1975.006	1	1	0	0	0.074995	0.085226	0.085185	0.12424	0.35854	0.24767	0.11111	0.12977	0.079228	0.22108	0.064429	0.22494	0.09297	0.11166	0.16037	0.013416	-2.5417	-2.4396	-2.6292	-3.0021	-2.5812	-2.8438	-2.875	-2.5104	-2.8354	-2.5083	-2.6042	-3.0104	-2.4229	-2.7958	-2.8646	-2.7188	-16.259	170.467	-12.892	-63.837	58.820	111.099	182.781	61.174	76.644	160.569	221.044	52.299	116.473	76.085	153.883	-10.913	0.00022177	0.00020319	0.00010232	361.52	2.3189e-06	2.5497e-06	538.86	105.64	2.3156e-06	3.6245e-06	251.11	117.95	36.34	18.274	3.6547e-06	64.112	8.884e-05	5.8105e-05	1.7205e-05	321.03	5.9758e-07	6.7158e-07	479.72	94.472	7.0925e-07	6.2555e-07	222.46	105.05	32.547	16.382	6.4825e-07	57.127	272.462	-39.890	-5.604	-69.096	69.861	60.272	-67.986	-64.626	80.482	100.799	-64.229	-59.990	-59.512	-55.730	62.122	-57.305	-8191	255	
1975.102	1	1	0	0	0.05697	0.22415	0.11046	0.14428	0.05165	0.086928	0.17585	0.0336	0.14867	0.21014	0.25871	0.093665	0.1104	0.11617	0.16613	0.17768	-2.3688	-2.4729	-2.6458	-3.0354	-2.5479	-2.7854	-3.0208	-2.6375	-2.7854	-2.6646	-2.7146	-3.1583	-2.5521	-2.8333	-2.6958	-2.5604	44.546	125.893	244.483	-41.763	26.546	-33.032	273.426	25.032	227.045	92.640	-78.127	127.941	-33.963	115.595	106.571	206.434	0.0002287	0.00026514	9.3134e-05	366.88	1.105e-06	1.8652e-06	551.38	107.01	3.7226e-06	3.7768e-06	253.6	118.26	36.152	18.436	1.4687e-06	63.7	9.0895e-05	5.7534e-05	1.7381e-05	323.92	6.0807e-07	7.2624e-07	487.74	95.373	7.0042e-07	6.155e-07	225.45	105.76	32.519	16.4	6.5734e-07	56.807	-79.813	40.528	-1.871	-69.306	20.923	38.065	-68.419	-64.642	71.987	45.364	-64.448	-60.098	-59.968	-55.941	102.800	-57.314	-8191	255	
1975.223	1	1	0	0	0.27696	0.099882	0.23919	0.14006	0.050674	0.10503	0.08274	0.11381	0.23511	0.035983	0.18051	0.14285	0.039145	0.32278	0.084083	0.053096	-2.375	-2.5271	-2.4146	-3.0229	-2.6083	-2.8354	-2.9854	-2.4583	-2.7479	-2.7771	-2.5208	-3.0396	-2.4354	-2.7646	-2.8167	-2.5417	-76.662	50.883	250.631	138.265	89.333	82.748	51.083	-3.607	253.850	244.640	274.039	89.939	151.346	270.914	-16.556	238.225	0.00025316	0.00030707	0.00010273	363.47	3.6634e-06	2.7077e-06	537.02	105.68	1.4149e-06	3.7424e-06	248.67	115.71	35.422	18.014	3.2064e-06	62.774	8.7726e-05	5.81e-05	1.604e-05	323.88	5.9539e-07	6.418e-07	477.34	94.117	6.944e-07	6.0447e-07	220.43	103.24	32.003	16.127	6.8966e-07	56.057	275.919	-30.119	10.979	-69.257	68.358	56.306	-68.542	-64.366	114.228	72.660	-64.179	-60.146	-61.064	-56.015	60.672	-57.175	-8191	255	
1975.317	1	1	0	0	0.15739	0.037785	0.13633	0.107	0.1433	0.072089	0.050699	0.083576	0.53256	0.12241	0.090507	0.31157	0.15974	0.06948	0.21938	0.29378	-2.2583	-2.6437	-2.3438	-2.9375	-2.5354	-2.8187	-2.9521	-2.3875	-2.7167	-2.9708	-2.5625	-3.0292	-2.8229	-2.7188	-3.0479	-2.6604	256.560	184.385	211.039	158.858	-11.025	-60.726	241.893	-11.506	125.606	238.361	105.936	273.350	44.032	254.571	69.354	196.284	0.0001944	0.00036164	0.00015023	360.55	3.5198e-06	3.1088e-06	541.23	106.3	2.7199e-06	2.1665e-06	253.04	118.23	36.457	18.561	3.3252e-06	64.542	8.9896e-05	6.2369e-05	1.7135e-05	320.92	6.7674e-07	6.9663e-07	484.05	94.385	7.3655e-07	6.0464e-07	225.31	105.56	32.569	16.499	6.967e-07	57.38	273.942	-2.258	3.650	-69.555	74.024	49.695	-68.638	-64.919	89.718	61.883	-64.597	-59.988	-60.662	-56.118	95.672	-57.361	-8191	255	
1975.414	1	1	0	0	0.12928	0.16389	0.055845	0.30827	0.18099	0.26682	0.11867	0.27421	0.19711	0.042489	0.098587	0.19266	0.20747	0.16229	0.2233	0.32688	-2.2521	-2.9292	-2.4542	-2.9167	-2.8417	-2.6229	-3.0167	-2.5958	-2.8563	-2.9125	-2.525	-2.8833	-2.7521	-2.6375	-2.9458	-2.6479	27.165	95.077	214.521	236.942	-18.551	226.669	-47.821	149.054	-42.227	32.586	214.621	196.814	116.171	79.142	249.471	-67.547	0.00022007	0.00028116	1.8997e-05	365.84	5.2818e-07	2.1671e-06	560.16	108.08	2.0283e-06	3.9739e-06	258.67	120.54	36.841	18.669	3.6193e-06	65.543	9.0074e-05	6.0728e-05	1.6235e-05	325.64	6.4563e-07	6.4556e-07	493.69	96.667	7.2659e-07	6.8428e-07	229.19	107.84	33.128	16.737	6.9857e-07	58.2	273.569	-31.831	-40.959	-68.983	44.215	21.260	-68.418	-64.704	139.175	98.957	-64.835	-60.097	-60.296	-56.266	102.280	-57.394	-8191	255	
1975.510	1	1	0	0	0.063514	0.12841	0.2638	0.13535	0.38081	0.11084	0.18643	0.10492	0.19585	0.14943	0.24308	0.18204	0.21016	0.15539	0.16951	0.4624	-2.1708	-2.8792	-2.3771	-2.6917	-2.7208	-2.5458	-3.1354	-2.3542	-2.5208	-2.7812	-2.6396	-2.8604	-2.7167	-2.4521	-2.8521	-2.7667	228.723	-62.980	103.643	161.688	83.849	48.461	238.732	131.228	46.718	210.484	249.292	161.260	-54.021	211.818	38.395	216.112	0.00021372	0.00034577	0.0001098	367.24	4.2504e-06	4.3039e-06	558.76	108.91	3.0257e-06	7.1857e-07	259.57	120.21	36.802	18.592	2.4264e-06	64.842	9.1399e-05	6.4675e-05	1.6108e-05	329.63	6.3497e-07	6.5501e-07	499.95	97.237	7.1893e-07	6.7326e-07	229.78	107.52	32.978	16.651	7.1397e-07	57.73	-75.560	20.381	40.963	-69.497	74.352	50.014	-68.634	-64.216	119.581	76.783	-64.668	-59.816	-60.104	-56.136	177.796	-57.437	-8191	255	
1975.606	1	1	0	0	0.13409	0.25292	0.078229	0.18984	0.18121	0.24107	0.20747	0.20694	0.077941	0.15596	0.25223	0.10303	0.17126	0.11957	0.24129	0.17767	-2.1521	-2.875	-2.4083	-2.7125	-2.65	-2.4333	-3.0625	-2.725	-2.5542	-2.9958	-2.6479	-2.9125	-2.8146	-2.4917	-2.8042	-2.8708	101.487	79.134	93.793	-9.885	205.731	67.704	171.164	-65.270	245.411	112.555	256.080	213.205	65.528	211.927	140.935	-17.842	0.00023041	0.00040754	6.9434e-05	364.71	5.3697e-06	2.3603e-06	556.6	107.44	2.4157e-06	2.7434e-06	258.78	120.35	37.516	18.911	5.2026e-06	65.637	9.1005e-05	6.3039e-05	1.542e-05	324.87	6.6652e-07	6.7716e-07	491.9	95.978	7.047e-07	6.7629e-07	229.41	107.95	33.469	16.909	7.3333e-07	58.626	259.855	-18.770	5.331	-69.245	68.816	82.425	-68.122	-64.089	99.765	55.814	-64.492	-60.030	-60.000	-56.154	71.953	-57.222	-8191	255	
1975.702	1	1	0	0	0.15069	0.096568	0.10026	0.26647	0.065412	0.23578	0.16351	0.084792	0.18214	0.31824	0.096973	0.23738	0.17355	0.093627	0.034508	0.26831	-2.0354	-2.9896	-2.4583	-2.6625	-2.7583	-2.5896	-2.9083	-2.7458	-2.4479	-3.0771	-2.3917	-2.6979	-2.8896	-2.425	-2.8667	-2.9646	220.949	228.308	116.264	-41.779	-17.382	258.185	34.367	256.093	256.548	145.224	184.646	-27.405	-17.105	-20.526	247.107	173.367	0.00020161	0.0004544	0.00013685	364.23	3.5921e-06	3.1798e-06	556.32	108.99	2.9069e-06	5.1248e-06	258.8	122.07	36.703	19.167	1.7137e-06	66.452	9.0439e-05	6.5448e-05	1.6246e-05	325.35	6.6674e-07	6.2131e-07	495.43	96.697	6.9558e-07	6.8331e-07	230.73	109.32	33.401	17.014	7.3493e-07	59.192	276.337	-30.724	48.523	-69.345	99.203	32.371	-68.325	-64.651	101.645	57.781	-64.296	-60.301	-60.043	-56.505	60.588	-57.740	-8191	255	
1975.798	1	1	0	0	0.0242	0.10674	0.12992	0.12962	0.12573	0.242	0.092251	0.091147	0.20165	0.30893	0.13861	0.33129	0.047124	0.22956	0.31323	0.12811	-2.0854	-2.95	-2.5396	-2.6917	-3.1167	-2.5125	-2.9271	-2.8625	-2.3875	-2.8646	-2.8396	-2.5792	-2.85	-2.4188	-2.8312	-2.8854	69.002	-29.560	154.041	215.977	102.195	145.690	203.484	237.712	-4.367	29.721	-77.355	246.311	265.865	-47.045	236.132	175.830	0.00023333	0.00026866	8.8733e-05	372.42	3.4496e-06	3.4035e-06	567.46	110.17	2.7803e-06	3.8127e-06	265.92	126.16	37.502	19.487	2.0587e-06	67.718	8.9339e-05	6.5038e-05	1.6319e-05	328.89	6.7505e-07	6.0753e-07	504.72	97.61	6.9254e-07	7.3051e-07	235.77	112.26	33.977	17.269	7.2169e-07	60.385	272.034	7.804	-25.859	-69.359	72.975	89.498	-68.506	-64.214	115.618	88.961	-64.379	-60.279	-59.838	-56.110	107.525	-57.398	-8191	255	
1975.894	1	1	0	0	0.15857	0.1479	0.080371	0.17462	0.18222	0.12143	0.19398	0.15694	0.12734	0.14434	0.17639	0.28047	0.21163	0.34225	0.15542	0.3445	-1.7875	-2.8042	-2.5167	-2.4875	-2.95	-2.5062	-2.9854	-2.8542	-2.4792	-2.975	-2.8354	-2.7604	-3.0375	-2.4854	-2.8146	-2.9896	188.417	212.652	234.854	77.798	227.190	143.129	175.069	-68.631	152.054	194.345	219.204	183.455	-58.813	-71.550	227.984	239.091	0.00020682	0.00046645	0.00012064	367.06	1.7922e-06	5.9906e-06	557.63	107.44	1.6908e-06	5.2179e-06	261.06	122.64	37.061	18.969	4.1769e-06	66.667	9.0482e-05	6.9312e-05	1.6984e-05	327.06	6.8819e-07	6.4027e-07	494.56	96.526	6.5967e-07	7.1936e-07	231.12	109.47	33.539	16.988	7.4151e-07	59.459	261.352	8.533	6.894	-68.649	104.101	66.542	-68.230	-65.013	47.884	64.150	-64.894	-60.244	-60.019	-56.163	69.775	-57.824	-8191	255	
1976.015	1	1	0	0	0.026691	0.014855	0.25958	0.29311	0.21316	0.05011	0.24861	0.19809	0.10249	0.042044	0.15035	0.18048	0.040337	0.21931	0.14542	0.1126	-1.9875	-2.7083	-2.6583	-2.6021	-2.9104	-2.4979	-2.7646	-3	-2.4813	-2.9542	-2.8833	-2.4813	-2.8083	-2.625	-2.6667	-2.9958	-8.708	-5.300	101.040	198.854	121.190	-68.118	162.899	247.100	161.380	-9.520	156.676	-52.960	-17.719	230.161	204.450	-6.712	0.00024916	0.0001812	9.9043e-05	365.57	2.4682e-06	3.143e-06	558.73	109.22	2.7056e-06	3.5481e-06	262.45	123.88	37.577	19.275	5.7697e-06	67.582	8.727e-05	6.6695e-05	1.5822e-05	326.76	6.8678e-07	6.5165e-07	497.78	97.23	6.859e-07	7.3239e-07	233.54	110.51	33.796	17.235	7.3612e-07	60.106	269.898	-68.634	22.320	-69.264	63.467	10.570	-68.152	-64.389	46.569	51.303	-64.316	-59.715	-60.519	-55.982	54.823	-57.733	-8191	255	
1976.087	1	1	0	0	0.22476	0.32265	0.15939	0.21716	0.13183	0.30554	0.088012	0.20176	0.12243	0.14074	0.17444	0.07699	0.26623	0.096535	0.14784	0.12143	-2.0104	-2.6375	-2.7146	-2.4521	-2.9688	-2.6979	-2.6562	-2.8917	-2.5	-2.7625	-2.8479	-2.5667	-2.8625	-2.7042	-2.7021	-3.1125	98.021	131.410	28.657	208.849	94.680	-57.723	24.263	277.114	14.388	56.287	35.783	-49.234	45.867	-16.421	183.298	148.924	0.00024465	0.00050771	7.0455e-05	369.65	2.9203e-06	4.5662e-06	570.76	109.96	3.7556e-06	4.4348e-06	270.15	125.57	38.04	19.294	1.5082e-06	68.252	8.5686e-05	6.8066e-05	1.7414e-05	328.04	7.0632e-07	6.8735e-07	505.96	98.174	6.5061e-07	6.9868e-07	237.51	112.03	34.195	17.393	7.1096e-07	60.848	274.073	-20.421	34.019	-69.402	111.560	84.466	-68.434	-64.740	96.098	77.484	-65.024	-60.086	-60.476	-56.103	88.817	-57.529	-8191	255	
1976.183	1	1	0	0	0.14087	0.083744	0.16183	0.080994	0.18534	0.19633	0.11446	0.14736	0.17291	0.2462	0.21611	0.045413	0.13553	0.069105	0.097494	0.28294	-2.0687	-2.6833	-2.85	-2.3708	-2.8958	-2.8771	-2.5792	-2.9229	-2.6875	-2.7604	-2.9958	-2.5708	-2.9125	-2.7812	-2.6979	-2.9854	263.121	201.061	49.818	132.087	259.346	246.443	102.778	-28.660	10.833	203.612	-51.046	-64.309	222.340	78.901	-44.205	267.276	0.0002405	0.00047852	9.7661e-05	376.66	3.8754e-06	2.4857e-06	569.9	110.53	5.6616e-06	2.1532e-06	263.21	123.11	37.097	19.103	4.1616e-06	66.418	8.9541e-05	6.4789e-05	1.7722e-05	332.76	7.1536e-07	6.3605e-07	509.4	98.668	7.0008e-07	7.2348e-07	234.21	110.1	33.67	17.029	6.8767e-07	59.024	275.457	-19.360	4.531	-69.522	77.920	50.817	-68.262	-64.388	82.687	69.618	-64.116	-59.905	-60.215	-56.097	84.858	-57.376	-8191	255	
1976.303	1	1	0	0	0.16994	0.096131	0.10302	0.30751	0.15105	0.25244	0.16783	0.23292	0.065506	0.098298	0.097512	0.22208	0.21027	0.19548	0.27767	0.22066	-2.1208	-2.6833	-2.7125	-2.6167	-2.7313	-2.8187	-2.5708	-3.0479	-2.6146	-2.5417	-2.9667	-2.4979	-2.6958	-2.6667	-2.4313	-2.9208	198.146	-71.320	100.869	179.791	-15.317	162.513	54.523	32.109	-25.251	130.395	41.532	1.099	247.963	141.486	104.043	57.383	0.00022474	0.00013029	0.00011998	365.99	4.2531e-06	4.4965e-06	554.21	107.8	3.0226e-06	3.8837e-06	258.34	122.09	37.199	19.084	2.8578e-06	66.523	8.4443e-05	6.2031e-05	1.7208e-05	324.22	7.4388e-07	6.4761e-07	493.02	96.188	6.2731e-07	6.9337e-07	229.8	109	33.505	16.955	6.6182e-07	59.307	277.871	38.566	-23.991	-69.143	110.155	79.685	-68.454	-64.122	123.098	106.094	-64.284	-59.898	-60.165	-56.049	62.608	-57.515	-8191	255	
1976.400	1	1	0	0	0.11269	0.21319	0.099041	0.3905	0.1482	0.076167	0.43103	0.077073	0.16389	0.29654	0.35096	0.054919	0.21406	0.20368	0.099054	0.048625	-2.1	-2.55	-2.8583	-2.3667	-2.6937	-2.8708	-2.3896	-2.7687	-2.8146	-2.5792	-3.0375	-2.6417	-2.7667	-2.7167	-2.3708	-2.9125	-12.767	154.481	182.588	273.562	108.527	221.430	268.226	-34.456	94.065	-36.719	242.269	-19.012	59.262	228.470	230.351	6.239	0.00020995	0.00042169	4.1345e-05	366.62	2.8088e-06	3.9912e-06	560.9	109.06	2.9133e-06	3.4722e-06	263.19	123.96	37.577	19.202	3.8851e-06	67.228	8.6776e-05	6.2239e-05	1.73e-05	326.53	6.8308e-07	6.5592e-07	500.08	96.891	6.8674e-07	6.6389e-07	233.8	110.64	33.824	17.181	6.7256e-07	59.978	275.935	-11.234	-4.462	-69.580	74.690	64.133	-68.273	-64.447	102.621	59.662	-64.322	-60.114	-60.542	-56.426	86.551	-57.549	-8191	255	
1976.496	1	1	0	0	0.096353	0.11193	0.17533	0.20446	0.22388	0.12258	0.29566	0.10405	0.051717	0.077851	0.14209	0.38424	0.13188	0.070346	0.12477	0.1588	-2.4021	-2.5708	-2.7146	-2.6396	-2.5667	-2.9521	-2.5458	-2.9437	-2.7521	-2.6479	-2.8646	-2.8688	-2.5854	-2.8312	-2.3708	-2.8688	-74.876	253.653	217.598	245.414	149.710	250.832	184.901	64.695	-65.631	229.599	-62.053	228.639	-51.218	254.151	247.560	-53.991	0.00028821	0.00059756	0.0001071	369.82	3.2496e-06	3.0525e-06	568.28	109.74	2.7249e-06	3.7609e-06	264.54	125.83	38.278	19.096	4.2938e-06	66.374	8.9647e-05	6.3568e-05	1.8054e-05	329.44	7.1952e-07	6.73e-07	506.95	97.89	6.9535e-07	6.5395e-07	236	111.54	33.959	17.062	6.6137e-07	59.065	269.447	-3.911	-0.724	-68.762	37.824	58.957	-68.627	-64.455	117.554	75.315	-64.269	-60.252	-60.369	-56.788	76.195	-57.392	-8191	255	
1976.615	1	1	0	0	0.18509	0.14965	0.25018	0.23566	0.14906	0.15419	0.29815	0.1771	0.19121	0.15913	0.037108	0.12224	0.17594	0.12311	0.24863	0.40852	-2.3396	-2.4188	-2.7104	-2.7271	-2.75	-2.9521	-2.5667	-2.8104	-2.7792	-2.5062	-2.9146	-2.6625	-2.4813	-3.1333	-2.5938	-2.7958	70.986	242.564	97.462	233.231	124.250	170.111	272.005	268.751	15.426	62.872	-79.066	257.963	-51.958	228.437	61.321	235.633	0.00022468	0.00048512	0.00012658	363.4	3.3779e-06	3.7295e-06	556.19	107.92	2.8902e-06	2.273e-06	259.09	120.86	36.451	18.57	1.1728e-06	65.739	8.6891e-05	6.3849e-05	1.781e-05	324.71	7.0318e-07	6.7631e-07	492.54	96.287	6.6237e-07	6.4749e-07	229.2	108.06	32.977	16.66	6.4104e-07	58.134	266.557	11.798	2.913	-69.428	78.390	82.619	-68.268	-64.692	59.091	90.557	-64.586	-60.131	-60.446	-55.952	49.405	-57.637	-8191	255	
1976.686	1	1	0	0	0.14038	0.080342	0.27492	0.046099	0.15666	0.19694	0.10484	0.33453	0.30936	0.13302	0.058557	0.23618	0.14746	0.18827	0.079619	0.11255	-2.3896	-2.6208	-2.6167	-2.5938	-2.5167	-2.8708	-2.5417	-2.7021	-2.7771	-2.4208	-2.9729	-2.8688	-2.5062	-3.1229	-2.4854	-2.8208	-43.573	50.840	-77.613	-68.801	228.095	209.926	64.575	269.741	117.287	-42.885	-75.435	164.439	97.394	208.115	-58.506	208.130	0.0002282	0.0003598	8.9415e-05	364.9	2.7344e-06	3.6869e-06	557.23	107.77	1.8134e-06	3.9957e-06	262.13	121.4	37.062	18.86	2.5088e-06	66.308	8.5796e-05	5.5888e-05	1.8462e-05	323.66	6.9015e-07	7.1331e-07	495.36	96.062	6.9344e-07	6.0584e-07	232.06	108.79	33.357	16.962	6.5955e-07	59.194	276.817	-27.392	7.205	-69.719	75.366	71.015	-68.281	-64.222	64.884	119.353	-64.383	-60.139	-60.433	-56.352	92.602	-57.411	-8191	255	
1976.782	1	1	0	0	0.22466	0.19602	0.13665	0.094946	0.30261	0.079692	0.18256	0.046985	0.39102	0.14218	0.15136	0.087402	0.22193	0.024476	0.11968	0.090259	-2.5042	-2.3604	-2.8458	-2.7208	-2.4729	-2.8333	-2.6667	-2.6063	-2.9083	-2.4417	-2.6208	-2.9021	-2.5542	-2.8167	-2.5812	-2.5771	250.198	-67.110	-2.650	232.239	257.203	-40.661	179.778	-74.621	140.596	149.478	253.220	122.051	250.905	247.527	134.454	225.123	0.00023937	0.00048253	7.4455e-05	364.76	2.5578e-06	4.2167e-06	564.79	109.31	2.6688e-06	1.8169e-06	262.1	121.12	37.189	18.858	4.8925e-06	66.421	9.0228e-05	5.9881e-05	1.7758e-05	325.77	6.4361e-07	6.8855e-07	500.01	96.883	6.5207e-07	6.4235e-07	232.29	108.58	33.371	16.864	6.6347e-07	59.079	-77.704	-12.696	-3.621	-69.461	98.308	67.276	-68.451	-64.746	90.620	97.513	-64.418	-59.901	-60.261	-56.107	98.444	-57.325	-8191	255	
1976.903	1	1	0	0	0.11084	0.23147	0.088736	0.040449	0.35202	0.15628	0.21631	0.080647	0.12244	0.14183	0.061321	0.16551	0.20497	0.070112	0.15753	0.1504	-2.3083	-2.4375	-2.6208	-2.7604	-2.3333	-2.775	-2.4917	-2.4479	-2.7896	-2.7854	-2.7062	-2.9542	-2.4938	-2.7604	-2.6312	-2.6896	177.778	-48.009	135.373	47.245	-35.094	-65.915	22.016	-72.065	222.375	111.586	174.554	244.025	-59.744	-61.600	263.766	245.612	0.00022968	0.00051922	0.0001332	366.33	4.2811e-06	2.7753e-06	563.03	108.69	2.1754e-06	7.1375e-07	259.25	119.87	36.969	18.573	3.7028e-06	64.939	9.5139e-05	5.7976e-05	1.8192e-05	327.48	6.7208e-07	7.1092e-07	501.13	97.126	6.8826e-07	5.8996e-07	229.13	107.35	33.056	16.612	6.6251e-07	57.751	269.875	-11.901	-15.519	-69.111	91.120	68.180	-68.712	-64.163	81.201	88.889	-64.355	-60.353	-59.802	-56.383	73.546	-57.538	-8191	255	
1976.999	1	1	0	0	0.17687	0.30439	0.18158	0.15621	0.28901	0.22514	0.14394	0.16684	0.20031	0.066499	0.014219	0.24235	0.025069	0.10364	0.1783	0.049514	-2.4583	-2.4521	-2.4896	-2.7146	-2.2729	-2.7958	-2.7562	-2.3479	-2.9542	-2.4896	-2.7104	-3.075	-2.3854	-2.8896	-2.625	-2.6146	226.477	-22.486	190.772	173.716	196.883	-58.078	184.098	124.442	189.599	-37.917	276.231	-70.945	11.219	238.239	-1.362	51.460	0.00022883	0.00040148	7.0185e-05	361.5	2.9762e-06	2.2215e-06	550.33	106.65	1.847e-06	2.2311e-06	257.91	120.97	36.917	18.583	2.3418e-06	65.199	9.0933e-05	5.7955e-05	1.7936e-05	320.92	6.0701e-07	7.1963e-07	490.66	95.333	6.8623e-07	6.4498e-07	229.06	107.71	33.089	16.634	6.5166e-07	58.013	271.271	1.015	-8.933	-68.760	99.352	65.228	-68.346	-64.134	110.222	117.035	-64.397	-59.994	-59.766	-55.605	68.001	-57.431	-8191	255	
1977.095	1	1	0	0	0.15423	0.14616	0.16695	0.12484	0.26734	0.09451	0.25162	0.1856	0.10077	0.17648	0.21825	0.24156	0.12276	0.11883	0.2125	0.16257	-2.5708	-2.5604	-2.6729	-2.9854	-2.3438	-2.8083	-2.85	-2.4833	-3.0125	-2.6417	-2.6458	-2.8604	-2.5021	-2.7104	-2.8042	-2.4688	-40.951	195.908	168.659	194.403	215.875	44.478	-78.200	147.357	-68.745	106.925	-63.362	239.746	1.990	136.345	-81.931	200.889	0.00020509	0.00034827	6.3018e-05	367.13	2.0444e-06	3.5895e-06	550.02	107.39	1.6134e-06	1.5233e-06	258.88	122.14	36.813	18.895	1.9103e-06	66.824	9.1183e-05	5.768e-05	1.7806e-05	324.9	6.6584e-07	6.7688e-07	491.6	95.879	7.1471e-07	6.7292e-07	230.8	109.1	33.222	16.932	6.5478e-07	59.354	-78.777	20.380	-48.492	-69.147	79.835	52.278	-68.650	-64.743	107.596	57.379	-64.314	-60.029	-59.714	-56.473	83.779	-57.663	-8191	255	
1977.191	1	1	0	0	0.17985	0.1416	0.23745	0.057363	0.13624	0.3573	0.30714	0.19422	0.12127	0.085577	0.14919	0.22518	0.11132	0.29559	0.17003	0.10402	-2.3875	-2.6208	-2.4458	-2.9167	-2.5	-2.6437	-2.9792	-2.3479	-2.75	-2.6729	-2.4521	-2.9333	-2.4042	-2.7146	-2.9771	-2.5375	-16.893	-77.737	-27.233	149.219	-10.203	5.426	244.260	-82.043	67.014	58.936	253.847	205.115	94.629	228.481	-76.229	242.353	0.00024958	0.00048971	0.00010719	368.62	5.0952e-06	2.3361e-06	562.83	109.87	1.3818e-06	2.6984e-06	263.81	123.73	37.472	19.041	4.1622e-06	65.954	9.7424e-05	5.9315e-05	1.6559e-05	326.81	6.4732e-07	7.3517e-07	500.68	97.468	7.1544e-07	6.6423e-07	233.85	110.43	33.523	17.037	6.9335e-07	58.735	275.649	-10.311	-18.254	-69.631	90.659	31.561	-68.400	-64.575	81.414	97.225	-64.938	-59.751	-60.455	-56.098	69.362	-57.060	-8191	255	
1977.312	1	1	0	0	0.18348	0.22828	0.19618	0.17821	0.24714	0.16918	0.31341	0.24958	0.23393	0.24447	0.22807	0.15365	0.015581	0.14224	0.21482	0.13581	-2.4188	-2.5875	-2.5104	-2.8937	-2.5438	-2.4813	-2.8958	-2.3688	-2.7208	-2.7188	-2.5292	-2.975	-2.4479	-2.6208	-2.8979	-2.5604	-6.408	77.557	160.226	19.611	28.545	179.333	-6.173	121.982	-50.756	109.927	229.043	221.355	188.901	-77.846	250.492	-80.664	0.00023305	0.00050952	8.3982e-05	361.8	5.0826e-06	1.8256e-06	545.89	105.97	1.0907e-06	3.8108e-06	256.22	120.37	36.292	18.406	2.7698e-06	64.898	9.2215e-05	5.8526e-05	1.7115e-05	322.22	6.1941e-07	6.6429e-07	488.11	94.713	7.2597e-07	6.2161e-07	226.97	106.94	32.809	16.472	6.7086e-07	57.671	-80.324	31.663	5.010	-69.426	125.101	104.542	-68.250	-64.621	42.642	48.035	-64.760	-60.164	-60.415	-55.704	94.835	-57.440	-8191	255	
#DATA ENDS
