BOXY.EXE: ISS Imagent and Oximeter Data Acquisition Program Version 0.80
Ascii Record File

#ACQ INFORMATION
2  Detector Channels 
16  External MUX Channels 
1  Auxiliary Channels 
5000  Waveform (CCF) Frequency (Hz)
1  Waveforms Skipped 
30  Waveforms Averaged 
1  Cycles Averaged 
16  Acquisitions per Waveform 
10.0806  Updata Rate (Hz) 

#FILE INFORMATION
TRUE -- External MUX Channel results are PARSED.
FALSE -- AC DC and Phase are NOT grouped.
TRUE -- Companion Program Settings File CREATED.
FALSE -- AC data not excluded
FALSE -- DC data not excluded
FALSE -- Phase data not excluded
FALSE -- Auxillary Chn. data not excluded
Tab delimiters

#CALIBRATION STATE
TRUE -- Waveform Calibration Values APPLIED.


#AUX CALIBRATION VALUES
Val Type	aux-1	

Term	1.0000e+00	
Factor	0.0000e+00	


#WF CALIBRATION VALUES
A = Detector Channel
Val Type	A-AC1	A-AC2	A-AC3	A-AC4	A-AC5	A-AC6	A-AC7	A-AC8	A-AC9	A-AC10	A-AC11	A-AC12	A-AC13	A-AC14	A-AC15	A-AC16	A-DC1	A-DC2	A-DC3	A-DC4	A-DC5	A-DC6	A-DC7	A-DC8	A-DC9	A-DC10	A-DC11	A-DC12	A-DC13	A-DC14	A-DC15	A-DC16	A-Ph1	A-Ph2	A-Ph3	A-Ph4	A-Ph5	A-Ph6	A-Ph7	A-Ph8	A-Ph9	A-Ph10	A-Ph11	A-Ph12	A-Ph13	A-Ph14	A-Ph15	A-Ph16	

Term	0.00000e+00	0.00000e+00	0.00000e+00	0.00000e+00	0.00000e+00	0.00000e+00	0.00000e+00	0.00000e+00	0.00000e+00	0.00000e+00	0.00000e+00	0.00000e+00	0.00000e+00	0.00000e+00	0.00000e+00	0.00000e+00	0.00000e+00	0.00000e+00	0.00000e+00	0.00000e+00	0.00000e+00	0.00000e+00	0.00000e+00	0.00000e+00	0.00000e+00	0.00000e+00	0.00000e+00	0.00000e+00	0.00000e+00	0.00000e+00	0.00000e+00	0.00000e+00	0.00000e+00	0.00000e+00	0.00000e+00	0.00000e+00	0.00000e+00	0.00000e+00	0.00000e+00	0.00000e+00	0.00000e+00	0.00000e+00	0.00000e+00	0.00000e+00	0.00000e+00	0.00000e+00	0.00000e+00	0.00000e+00	
Factor	1.00000e+00	1.00000e+00	1.00000e+00	1.00000e+00	1.00000e+00	1.00000e+00	1.00000e+00	1.00000e+00	1.00000e+00	1.00000e+00	1.00000e+00	1.00000e+00	1.00000e+00	1.00000e+00	1.00000e+00	1.00000e+00	1.00000e+00	1.00000e+00	1.00000e+00	1.00000e+00	1.00000e+00	1.00000e+00	1.00000e+00	1.00000e+00	1.00000e+00	1.00000e+00	1.00000e+00	1.00000e+00	1.00000e+00	1.00000e+00	1.00000e+00	1.00000e+00	X	X	X	X	X	X	X	X	X	X	X	X	X	X	X	X	

B = Detector Channel
Val Type	B-AC1	B-AC2	B-AC3	B-AC4	B-AC5	B-AC6	B-AC7	B-AC8	B-AC9	B-AC10	B-AC11	B-AC12	B-AC13	B-AC14	B-AC15	B-AC16	B-DC1	B-DC2	B-DC3	B-DC4	B-DC5	B-DC6	B-DC7	B-DC8	B-DC9	B-DC10	B-DC11	B-DC12	B-DC13	B-DC14	B-DC15	B-DC16	B-Ph1	B-Ph2	B-Ph3	B-Ph4	B-Ph5	B-Ph6	B-Ph7	B-Ph8	B-Ph9	B-Ph10	B-Ph11	B-Ph12	B-Ph13	B-Ph14	B-Ph15	B-Ph16	

Term	0.00000e+00	0.00000e+00	0.00000e+00	0.00000e+00	0.00000e+00	0.00000e+00	0.00000e+00	0.00000e+00	0.00000e+00	0.00000e+00	0.00000e+00	0.00000e+00	0.00000e+00	0.00000e+00	0.00000e+00	0.00000e+00	0.00000e+00	0.00000e+00	0.00000e+00	0.00000e+00	0.00000e+00	0.00000e+00	0.00000e+00	0.00000e+00	0.00000e+00	0.00000e+00	0.00000e+00	0.00000e+00	0.00000e+00	0.00000e+00	0.00000e+00	0.00000e+00	-3.63263e+01	-1.44616e+02	-1.36455e+02	-1.83436e+02	-6.47196e+01	-8.14628e+01	-1.60695e+02	-1.62015e+02	-4.27404e+01	-5.87643e+01	-1.72707e+02	-1.72386e+02	-1.83401e+02	-1.78286e+02	-6.56670e+01	-1.51169e+02	
Factor	2.16242e-05	1.40199e-04	3.24853e-05	1.48686e-01	1.47159e-06	1.31807e-06	1.62454e-01	5.10240e-02	1.11014e-06	1.35182e-06	7.91605e-02	2.65441e-02	2.35584e-02	8.15133e-03	1.44641e-06	1.17866e-02	2.30442e-06	2.49268e-06	6.93736e-07	7.79555e-02	2.69482e-08	2.73278e-08	7.97935e-02	2.67642e-02	2.70149e-08	2.74240e-08	4.00788e-02	1.34491e-02	1.24290e-02	4.29815e-03	2.72636e-08	5.99323e-03	X	X	X	X	X	X	X	X	X	X	X	X	X	X	X	X	



#DISTANCE SETTINGS
A = Detector Channel
A-1	A-2	A-3	A-4	A-5	A-6	A-7	A-8	A-9	A-10	A-11	A-12	A-13	A-14	A-15	A-16	

2.5000e+00	3.0000e+00	2.5000e+00	3.0000e+00	2.0000e+00	3.0000e+00	1.5000e+00	3.0000e+00	3.0000e+00	3.0000e+00	3.0000e+00	3.0000e+00	3.0000e+00	3.0000e+00	1.5000e+00	3.0000e+00	

B = Detector Channel
B-1	B-2	B-3	B-4	B-5	B-6	B-7	B-8	B-9	B-10	B-11	B-12	B-13	B-14	B-15	B-16	

1.0000e+01	1.0000e+01	1.0000e+01	1.4400e+00	1.0000e+01	1.0000e+01	1.5100e+00	1.9400e+00	1.0000e+01	1.0000e+01	1.9900e+00	2.4900e+00	2.4100e+00	2.9000e+00	1.0000e+01	2.9800e+00	




#DATA BEGINS
time	group	step	mark	flag	A-AC1	A-AC2	A-AC3	A-AC4	A-AC5	A-AC6	A-AC7	A-AC8	A-AC9	A-AC10	A-AC11	A-AC12	A-AC13	A-AC14	A-AC15	A-AC16	A-DC1	A-DC2	A-DC3	A-DC4	A-DC5	A-DC6	A-DC7	A-DC8	A-DC9	A-DC10	A-DC11	A-DC12	A-DC13	A-DC14	A-DC15	A-DC16	A-Ph1	A-Ph2	A-Ph3	A-Ph4	A-Ph5	A-Ph6	A-Ph7	A-Ph8	A-Ph9	A-Ph10	A-Ph11	A-Ph12	A-Ph13	A-Ph14	A-Ph15	A-Ph16	B-AC1	B-AC2	B-AC3	B-AC4	B-AC5	B-AC6	B-AC7	B-AC8	B-AC9	B-AC10	B-AC11	B-AC12	B-AC13	B-AC14	B-AC15	B-AC16	B-DC1	B-DC2	B-DC3	B-DC4	B-DC5	B-DC6	B-DC7	B-DC8	B-DC9	B-DC10	B-DC11	B-DC12	B-DC13	B-DC14	B-DC15	B-DC16	B-Ph1	B-Ph2	B-Ph3	B-Ph4	B-Ph5	B-Ph6	B-Ph7	B-Ph8	B-Ph9	B-Ph10	B-Ph11	B-Ph12	B-Ph13	B-Ph14	B-Ph15	B-Ph16	aux-1	digaux	

2025.800	1	1	0	256	0.21756	0.077861	0.13889	0.094289	0.013612	0.18214	0.23814	0.20851	0.079201	0.12911	0.17102	0.27308	0.17642	0.09419	0.13681	0.14195	-2.0333	-2.65	-2.6979	-2.5125	-2.7	-2.9396	-2.5833	-2.8417	-2.55	-2.4479	-2.9917	-2.25	-2.7625	-2.85	-2.3875	-2.7562	85.188	138.052	271.236	137.859	171.388	0.318	-11.857	130.163	263.817	50.612	-22.287	303.587	-17.458	319.049	22.042	252.708	0.00021825	0.00034581	8.3048e-05	481.18	3.562e-06	2.3267e-06	856.2	114.02	1.6227e-06	3.9364e-06	285.92	127.17	41.281	13.516	3.9957e-06	51.606	6.6516e-05	4.746e-05	1.0942e-05	425.06	5.1336e-07	4.0918e-07	759.92	101.94	4.4518e-07	4.5689e-07	252.31	113.91	36.798	12.021	4.4667e-07	45.984	231.586	13.056	11.865	-11.657	97.988	71.675	-11.993	-7.585	155.428	94.232	-8.584	-3.682	-3.632	1.098	136.551	0.295	-8191	255	
2025.896	1	1	0	0	0.083243	0.14583	0.25968	0.17473	0.19636	0.088957	0.078192	0.12944	0.06423	0.082628	0.18019	0.21501	0.34568	0.13119	0.08413	0.16458	-2.1333	-2.5146	-2.9313	-2.5021	-2.6104	-2.7604	-2.4229	-2.875	-2.6792	-2.5187	-3.0708	-2.4062	-2.6208	-2.7771	-2.35	-2.8021	334.213	109.353	30.410	155.257	127.720	181.018	128.630	291.520	234.674	326.674	231.847	169.261	8.416	229.053	62.615	313.235	0.00022255	0.00028366	3.9313e-05	469.27	1.4948e-06	3.8981e-06	849.17	113.58	2.91e-06	3.4607e-06	284.8	126.48	41.013	13.207	5.1582e-06	50.651	6.2863e-05	4.3025e-05	1.14e-05	420.74	4.7345e-07	4.4709e-07	754.81	101.16	4.6713e-07	4.5609e-07	251.43	112.8	36.341	11.814	4.2384e-07	45.328	224.459	89.230	61.364	-11.023	111.832	91.273	-11.889	-6.798	159.365	116.813	-8.191	-3.804	-4.075	0.023	104.394	0.150	-8191	255	
2025.992	1	1	0	0	0.26053	0.054523	0.081321	0.031047	0.29439	0.26876	0.27783	0.051828	0.10296	0.27027	0.18504	0.19147	0.51256	0.21811	0.019406	0.10365	-2.125	-2.4979	-2.7562	-2.3958	-2.6875	-2.7417	-2.3458	-2.8479	-2.5125	-2.2958	-2.8937	-2.5812	-2.3604	-2.7083	-2.5312	-2.6583	5.944	79.159	264.253	164.814	149.257	296.190	232.574	55.561	98.948	320.457	150.824	196.144	-19.380	299.532	32.096	165.132	0.00022889	0.00035352	5.4759e-05	470.17	2.802e-06	1.9347e-06	841.78	110.97	3.6441e-06	2.4249e-06	277.9	122.59	39.693	12.992	3.2398e-06	50.637	6.1672e-05	4.1825e-05	1.0234e-05	417.54	4.4627e-07	4.1111e-07	749.2	99.103	4.507e-07	4.1422e-07	245.19	109.7	35.234	11.562	4.528e-07	45.107	227.775	46.031	46.860	-11.762	135.068	87.200	-12.057	-7.345	166.798	131.333	-8.250	-3.708	-3.690	1.013	141.843	-0.121	-8191	255	
2026.088	1	1	0	0	0.22022	0.19286	0.055683	0.10223	0.046166	0.15075	0.23855	0.14799	0.14778	0.0709	0.22647	0.079418	0.082486	0.21095	0.18717	0.094876	-2.2146	-2.2812	-2.8458	-2.5979	-2.3958	-2.7375	-2.475	-2.6625	-2.7167	-2.4708	-2.7771	-2.575	-2.4	-2.7917	-2.4625	-2.6667	25.900	272.363	-21.076	317.205	97.779	240.123	279.120	267.696	11.317	313.993	316.435	156.246	245.957	207.167	310.846	316.637	0.00020439	0.00051892	7.8635e-05	475.33	2.1862e-06	2.5799e-06	844.05	110.37	1.8517e-06	2.5723e-06	272.79	121.86	38.981	12.642	2.0822e-06	50.377	6.4653e-05	3.9353e-05	1.0764e-05	419.33	4.6317e-07	4.2261e-07	751.28	98.947	4.3978e-07	4.1524e-07	243.16	109.07	34.984	11.41	4.219e-07	44.64	225.266	54.723	91.757	-11.384	125.413	72.727	-11.820	-8.183	141.765	137.773	-7.953	-3.576	-3.037	0.392	140.297	-0.106	-8191	255	
2026.184	1	1	0	0	0.18498	0.12492	0.044826	0.12491	0.13218	0.20568	0.1506	0.087836	0.30387	0.099638	0.070184	0.21429	0.10373	0.18039	0.27681	0.065302	-2.2104	-2.2792	-2.6437	-2.5	-2.4167	-2.7708	-2.6104	-2.4188	-2.6813	-2.4062	-2.975	-2.5792	-2.4896	-2.7917	-2.3979	-2.6458	75.728	137.856	36.158	12.752	44.097	45.719	270.906	212.871	124.346	139.872	298.680	295.094	183.414	57.865	330.503	131.619	0.00019674	0.00029344	6.4104e-05	471.16	3.6901e-06	3.3298e-06	840.06	111.13	2.0123e-06	2.2789e-06	277.43	124.15	39.501	13.152	3.6453e-06	50.721	6.2397e-05	3.9654e-05	1.0629e-05	417.81	4.397e-07	4.484e-07	748.58	99.052	4.5047e-07	4.1262e-07	244.68	110.33	35.333	11.636	4.4621e-07	44.946	228.734	41.655	61.959	-11.845	121.278	128.451	-11.766	-7.642	172.829	109.255	-7.917	-3.897	-4.040	0.528	132.509	-0.055	-8191	255	
2026.281	1	1	0	0	0.22438	0.14117	0.12673	0.43162	0.07103	0.19729	0.32816	0.19186	0.1875	0.15001	0.19812	0.18739	0.19924	0.077275	0.24849	0.24527	-2.4	-2.1417	-2.7708	-2.6333	-2.4188	-2.8604	-2.7083	-2.6146	-2.9271	-2.4458	-2.8521	-2.7917	-2.5667	-2.7583	-2.6021	-2.5917	207.086	23.030	140.467	7.525	302.637	-24.398	295.276	285.411	180.757	321.520	264.074	3.957	18.308	-4.265	226.706	2.702	0.00025314	0.0004037	9.8828e-05	472.96	3.1999e-06	2.6107e-06	842.06	111.35	3.099e-06	3.9753e-06	278.19	124.18	40.222	13.003	4.1433e-06	50.122	6.2277e-05	3.7811e-05	1.0967e-05	418.77	4.5902e-07	4.1715e-07	748.96	99.515	4.7822e-07	4.0559e-07	245.46	110.47	35.733	11.627	4.0628e-07	44.78	230.594	48.468	76.090	-11.194	138.264	150.289	-11.857	-7.560	150.188	116.325	-8.185	-3.643	-3.958	0.278	126.333	0.054	-8191	255	
2026.401	1	1	0	0	0.17563	0.14933	0.10706	0.10869	0.1582	0.064735	0.052605	0.070508	0.045396	0.1473	0.11328	0.24315	0.21226	0.12008	0.28854	0.12722	-2.2313	-2.5125	-2.625	-2.75	-2.3667	-2.8417	-2.65	-2.475	-2.8	-2.3937	-2.8292	-2.8	-2.2375	-2.8146	-2.5	-2.3792	75.222	51.163	-23.467	104.195	297.433	274.172	279.250	115.180	-22.977	291.152	-16.334	2.979	314.549	225.058	163.654	285.952	0.00023251	0.00033212	9.9081e-05	463.84	2.2309e-06	3.6907e-06	841.9	111.71	4.8403e-06	2.8246e-06	276.44	123.95	39.854	12.914	3.5404e-06	50.122	6.4485e-05	3.7042e-05	1.1447e-05	414.34	4.3319e-07	4.3189e-07	745.99	99.14	4.6972e-07	4.081e-07	244.83	110.12	35.632	11.589	4.6609e-07	44.57	229.459	65.644	63.006	-11.958	181.071	135.208	-11.911	-7.787	153.567	131.604	-8.170	-4.027	-3.922	-0.248	119.312	0.094	-8191	255	
2026.496	1	1	0	0	0.25852	0.1273	0.15293	0.12023	0.060805	0.08382	0.10318	0.052656	0.34669	0.12273	0.051172	0.055967	0.05279	0.094409	0.21074	0.13262	-2.2438	-2.4188	-2.5625	-2.9188	-2.4792	-2.8375	-2.7562	-2.7208	-2.9417	-2.5354	-2.6083	-2.8854	-2.3396	-2.7354	-2.5417	-2.5854	27.654	66.021	287.792	-22.415	224.528	189.101	273.363	53.357	8.114	39.547	282.786	84.386	326.118	78.623	37.726	256.431	0.0002535	0.00030204	0.00012095	469.97	1.9636e-06	4.0596e-06	847.64	111.83	3.0965e-06	3.0276e-06	281.57	124.43	40.638	13.06	4.4034e-06	50.227	6.4994e-05	3.9114e-05	1.1779e-05	416.14	4.1236e-07	3.9278e-07	751.24	99.975	4.6027e-07	4.409e-07	248.37	111.54	36.234	11.692	4.0742e-07	44.689	221.323	55.374	82.590	-11.605	174.337	132.560	-11.808	-7.720	163.952	146.510	-7.939	-3.739	-4.230	0.268	141.856	0.248	-8191	255	
2026.592	1	1	0	0	0.017232	0.19731	0.044523	0.24627	0.18911	0.16548	0.14828	0.2051	0.35386	0.069471	0.079358	0.25945	0.1553	0.17213	0.045785	0.017587	-2.5083	-2.5292	-2.5187	-2.8729	-2.4333	-2.7396	-2.9333	-2.3083	-2.7562	-2.4437	-2.6333	-2.9125	-2.4667	-2.7208	-2.8417	-2.4437	49.087	129.090	321.775	318.791	221.407	38.038	256.510	150.510	232.192	131.766	57.460	329.868	20.697	283.663	299.132	283.690	0.00023463	0.00036034	9.2813e-05	468.11	3.8829e-06	3.4499e-06	842.69	113.93	2.4944e-06	2.2622e-06	282.15	124.59	40.096	12.961	2.0861e-06	49.996	6.3453e-05	3.7645e-05	1.1746e-05	416.76	4.5997e-07	4.4003e-07	749.26	100.39	4.4867e-07	4.0565e-07	249.18	111.61	35.935	11.607	4.5877e-07	44.536	232.626	37.008	32.272	-11.680	151.462	131.612	-11.974	-7.864	202.380	145.763	-8.116	-4.032	-3.241	-0.101	162.107	0.090	-8191	255	
2026.665	1	1	0	0	0.24052	0.27124	0.2558	0.075552	0.26673	0.1832	0.066162	0.30095	0.16265	0.35723	0.20168	0.12681	0.14282	0.18974	0.20702	0.14264	-2.3208	-2.6562	-2.4625	-2.9729	-2.5417	-2.7458	-2.6604	-2.4375	-2.7417	-2.55	-2.6083	-3.15	-2.5021	-2.4833	-2.9354	-2.3563	96.812	50.444	7.142	333.595	121.510	224.895	155.668	280.967	17.344	71.632	-19.095	320.928	164.326	212.217	4.458	193.192	0.00020239	0.00050137	6.8785e-05	472.51	6.1102e-06	3.2116e-06	842.96	111.16	2.9483e-06	2.6998e-06	278.32	124.08	40.483	13.035	3.1211e-06	50.031	6.1082e-05	3.8476e-05	1.1275e-05	416.79	4.5683e-07	4.5506e-07	746.98	98.716	4.7873e-07	4.4187e-07	246.06	110.53	35.962	11.621	4.319e-07	44.395	228.091	56.608	55.825	-11.351	125.329	118.197	-11.732	-7.201	151.820	127.043	-8.239	-3.678	-4.451	0.074	141.688	-0.286	-8191	255	
2026.784	1	1	0	0	0.20594	0.10623	0.11801	0.24675	0.14301	0.24922	0.12051	0.15913	0.04944	0.1428	0.18467	0.38742	0.29133	0.099963	0.03469	0.15234	-2.3646	-2.5938	-2.2958	-2.9437	-2.4688	-2.6375	-2.9042	-2.3708	-2.9292	-2.7188	-2.4646	-2.8792	-2.6063	-2.5333	-2.9125	-2.5	32.387	17.123	-10.729	-8.832	29.378	238.702	285.159	97.091	256.648	68.496	9.607	311.549	53.383	-25.559	282.177	258.841	0.00021575	0.00040001	0.00011137	468.03	2.7291e-06	1.9802e-06	848.27	111.87	2.5907e-06	3.682e-06	277.5	124.31	39.677	12.931	3.7004e-06	49.668	6.3948e-05	3.6165e-05	1.163e-05	416.28	4.3476e-07	4.143e-07	749.31	99.277	4.5948e-07	4.0942e-07	246.01	110.56	35.537	11.567	4.3366e-07	44.385	235.838	37.443	57.848	-11.532	148.987	152.660	-11.971	-7.684	115.859	129.553	-7.632	-3.329	-4.061	0.235	124.725	-0.005	-8191	255	
2026.880	1	1	0	0	0.17175	0.057935	0.032788	0.15808	0.2362	0.22122	0.20502	0.13742	0.15214	0.36101	0.06523	0.17691	0.20947	0.18459	0.24125	0.18721	-2.2208	-2.725	-2.3229	-2.8646	-2.6042	-2.5187	-2.8396	-2.4792	-2.7125	-2.6813	-2.3521	-2.9417	-2.6729	-2.4833	-2.8	-2.3792	18.633	333.056	326.166	297.963	176.642	73.233	216.132	258.334	329.159	324.669	229.621	304.734	165.627	328.560	241.067	320.103	0.00025601	0.00033086	4.6362e-05	468.38	4.7223e-06	2.482e-06	841.31	111.15	4.0296e-06	3.4891e-06	275.18	123.93	39.985	12.91	4.3674e-06	50.116	6.7371e-05	3.9042e-05	1.0299e-05	415.65	4.3095e-07	4.7101e-07	749.15	99.232	4.7709e-07	4.4101e-07	245.73	110.8	35.701	11.536	4.3838e-07	44.401	226.083	46.812	53.176	-11.533	157.239	169.997	-11.745	-7.714	150.698	143.397	-8.054	-3.657	-3.580	-0.436	162.202	0.300	-8191	255	
2026.976	1	1	0	0	0.26487	0.085934	0.026006	0.094833	0.1778	0.13478	0.15879	0.11403	0.19704	0.32227	0.088618	0.2571	0.064825	0.14191	0.22959	0.46731	-2.1896	-2.8375	-2.2625	-2.9292	-2.6125	-2.5729	-3.0104	-2.475	-2.6292	-2.8187	-2.4396	-2.7833	-2.6458	-2.3771	-2.7229	-2.5938	220.927	294.661	21.113	289.975	106.562	7.187	240.621	313.272	95.796	48.445	315.025	268.668	5.917	11.600	-16.182	331.441	0.00023867	0.00024916	3.9133e-05	466.58	1.6722e-06	2.6636e-06	849.63	112.31	2.7911e-06	4.427e-06	278.56	122.76	40.146	12.815	4.5374e-06	49.461	6.4615e-05	4.0039e-05	1.002e-05	415.63	4.1057e-07	4.4596e-07	750.1	99.568	5.13e-07	4.1867e-07	245.7	110.21	35.658	11.484	4.7024e-07	43.978	230.080	42.052	19.604	-11.680	143.884	63.253	-11.901	-7.861	137.305	160.984	-8.080	-3.984	-4.165	-0.244	134.777	0.124	-8191	255	
2027.072	1	1	0	0	0.085366	0.1975	0.087245	0.27966	0.12898	0.15864	0.085193	0.09918	0.16863	0.056042	0.22147	0.16986	0.10302	0.040768	0.27021	0.32003	-2.025	-2.7958	-2.6146	-2.6104	-2.7854	-2.4729	-2.9583	-2.4938	-2.4917	-2.9083	-2.4646	-2.7875	-2.7188	-2.4396	-2.7438	-2.6688	235.466	20.603	32.091	-22.628	225.230	98.855	7.834	49.898	40.913	148.970	-16.640	142.370	3.220	48.637	144.222	310.003	0.00017937	0.0004513	4.1216e-05	467.92	3.683e-06	2.1748e-06	845.84	109.28	3.2869e-06	2.028e-06	274.2	125.09	39.995	13.074	1.1503e-06	50.586	6.4889e-05	3.9239e-05	1.1184e-05	415.09	4.2292e-07	4.4909e-07	745.31	98.081	4.6938e-07	4.3318e-07	244.84	110.83	35.752	11.699	4.3787e-07	44.962	235.070	57.451	34.914	-11.639	125.558	123.635	-11.829	-7.711	148.653	157.407	-8.056	-4.022	-3.701	0.249	88.876	0.409	-8191	255	
2027.193	1	1	0	0	0.13522	0.082131	0.26665	0.14766	0.16874	0.27821	0.077717	0.18323	0.31317	0.13995	0.16299	0.33818	0.052643	0.079534	0.11665	0.13666	-2.0104	-2.7625	-2.1125	-2.7625	-2.8021	-2.3854	-2.8479	-2.4833	-2.5167	-2.9333	-2.5771	-2.6208	-2.7833	-2.3229	-2.7958	-2.8792	170.348	119.155	295.079	-11.947	286.540	35.744	255.088	229.658	225.680	292.470	17.200	282.238	58.035	240.742	321.883	265.945	0.0001999	0.00026139	7.8047e-05	471.3	4.747e-06	3.7989e-06	846.14	110.1	3.9064e-06	3.9986e-06	279.39	125.46	40.372	13.031	3.3186e-06	50.029	6.4653e-05	4.1571e-05	1.0409e-05	417.9	4.3555e-07	4.1413e-07	749.84	98.902	5.0225e-07	4.5587e-07	247.81	111.46	35.926	11.622	4.3985e-07	44.555	231.185	37.215	51.598	-11.690	132.882	70.145	-11.735	-7.764	157.803	153.149	-8.190	-3.665	-4.437	0.460	150.648	0.421	-8191	255	
2027.289	1	1	0	0	0.15975	0.017201	0.28017	0.071947	0.048747	0.13934	0.1932	0.16731	0.28896	0.29061	0.089767	0.13571	0.030917	0.27347	0.23531	0.32127	-1.8542	-2.9062	-2.5021	-2.6917	-2.8312	-2.3708	-2.7667	-2.5729	-2.4042	-2.8458	-2.7625	-2.4771	-2.8312	-2.2562	-2.5396	-2.9146	61.935	61.407	193.454	145.335	158.801	76.577	321.579	212.822	262.072	141.330	275.093	195.291	298.259	254.392	56.654	242.012	0.00019991	0.00046678	8.4625e-05	472.76	3.6328e-06	3.2172e-06	848.51	113.09	1.4582e-06	3.4959e-06	283.67	125.18	40.466	12.938	3.4582e-06	50.594	6.497e-05	4.3695e-05	1.0996e-05	417.68	4.5149e-07	4.4442e-07	752.66	100.6	4.4873e-07	4.2781e-07	251.17	112.17	36.212	11.684	4.5439e-07	44.739	232.102	61.852	58.291	-11.572	118.983	102.272	-11.577	-7.901	161.482	137.245	-8.068	-3.610	-3.641	0.926	88.325	0.138	-8191	255	
2027.361	1	1	0	0	0.19527	0.16924	0.044472	0.19403	0.26339	0.13684	0.3196	0.19258	0.18205	0.090345	0.21061	0.15012	0.19748	0.062423	0.17328	0.1119	-1.9708	-2.6583	-2.4417	-2.5917	-2.8167	-2.5167	-2.8104	-2.7792	-2.4062	-2.9188	-2.6417	-2.575	-2.8625	-2.5812	-2.6458	-2.8875	243.250	311.583	286.139	262.482	56.849	41.937	270.595	-9.273	333.258	266.115	141.854	171.484	316.534	81.126	303.279	-21.901	0.00020513	0.00039371	8.1351e-05	468.61	3.2064e-06	4.4196e-06	843.66	110.88	3.4796e-06	3.6709e-06	274.49	124.4	40.032	12.87	2.4967e-06	49.387	6.0942e-05	4.0387e-05	1.1596e-05	416.11	4.2499e-07	4.381e-07	748.54	99.028	4.7895e-07	4.3901e-07	244.91	110.75	35.68	11.523	4.5388e-07	44.032	233.522	32.716	85.186	-11.984	130.050	112.711	-11.591	-7.690	170.708	154.039	-8.344	-3.566	-3.903	0.044	171.650	-0.345	-8191	255	
2027.482	1	1	0	0	0.090635	0.076207	0.28959	0.1414	0.10747	0.082568	0.25016	0.012035	0.080473	0.10116	0.26151	0.24694	0.18054	0.11759	0.11664	0.20007	-1.8896	-2.6271	-2.6083	-2.525	-2.7875	-2.4313	-2.875	-2.7875	-2.3896	-2.9521	-2.7771	-2.5979	-2.7083	-2.6458	-2.5604	-2.8771	316.679	278.988	325.130	295.617	77.436	47.872	278.804	37.823	135.998	307.696	-12.081	266.274	195.902	36.356	83.210	16.982	0.00020246	0.00053876	0.00010992	467.03	3.7272e-06	1.5794e-06	842.78	111.69	3.4511e-06	2.6046e-06	278.85	124.24	39.967	13.007	3.0843e-06	50.12	6.3962e-05	4.2833e-05	1.0782e-05	415.65	5.0062e-07	3.9432e-07	747.18	99.244	4.6331e-07	4.1844e-07	246.6	111.16	35.79	11.571	4.4468e-07	44.366	228.615	28.869	67.777	-11.276	148.689	124.076	-11.907	-7.656	134.543	156.202	-8.010	-3.694	-3.830	0.085	107.225	0.195	-8191	255	
2027.576	1	1	0	0	0.22642	0.029395	0.21353	0.12043	0.18659	0.16104	0.17868	0.064064	0.058344	0.39594	0.32563	0.18913	0.47531	0.056201	0.24573	0.27287	-1.9562	-2.7062	-2.6021	-2.6896	-3.0167	-2.5042	-2.8521	-2.8333	-2.2521	-2.8	-2.8063	-2.5	-2.8937	-2.5271	-2.5104	-2.8312	143.329	159.242	64.603	271.728	224.815	157.374	31.227	203.065	141.360	135.965	286.488	-1.853	236.217	22.217	251.982	238.659	0.00020308	0.00029939	8.4903e-05	468.39	2.4151e-06	1.3773e-06	845.9	112.88	4.2187e-07	2.6293e-06	279.61	125.38	39.591	12.882	1.6874e-06	49.835	6.2623e-05	4.1373e-05	1.0642e-05	417.03	4.5048e-07	3.8418e-07	750.27	100.18	4.3139e-07	4.181e-07	247.88	111.34	35.613	11.49	4.5723e-07	44.307	234.272	64.360	59.745	-11.553	136.374	187.615	-11.809	-7.012	172.790	149.820	-8.382	-3.376	-4.175	0.242	188.362	-0.105	-8191	255	
2027.674	1	1	0	0	0.21519	0.14212	0.11903	0.093548	0.086514	0.1817	0.21306	0.054706	0.11074	0.13219	0.12059	0.27855	0.11996	0.055491	0.14652	0.19199	-1.9417	-2.5542	-2.6813	-2.4167	-2.8375	-2.5604	-2.6604	-2.7729	-2.4708	-2.5646	-2.8812	-2.5062	-2.8354	-2.4437	-2.4667	-2.8708	119.461	102.830	5.492	127.640	-7.092	203.475	-1.318	-9.747	-16.975	34.400	233.834	291.627	303.504	1.999	0.010	271.118	0.00020796	0.00027667	7.4175e-05	466.02	2.7073e-06	2.5272e-06	846.74	113.33	3.4887e-06	3.2902e-06	277.9	124.24	40.512	12.842	3.3013e-06	49.195	6.0894e-05	3.9301e-05	1.1452e-05	416.23	4.5492e-07	4.2153e-07	751.25	100.22	4.4715e-07	4.4193e-07	245.86	110.62	35.932	11.473	4.432e-07	43.971	233.727	32.293	21.282	-11.844	130.880	91.651	-11.786	-8.158	176.771	149.210	-8.025	-3.339	-4.062	0.619	121.734	-0.085	-8191	255	
2027.793	1	1	0	0	0.083493	0.074281	0.14774	0.13637	0.096987	0.06542	0.30152	0.19444	0.071432	0.17351	0.24085	0.17267	0.11031	0.29832	0.21719	0.27982	-1.9104	-2.6104	-2.6375	-2.3312	-2.7208	-2.5146	-2.5	-2.8208	-2.4083	-2.5417	-2.9688	-2.3625	-2.8708	-2.6125	-2.3688	-3.0062	71.982	49.830	102.902	46.696	-12.998	69.944	278.922	95.890	20.875	202.795	304.378	237.721	4.305	101.584	286.505	272.742	0.00021016	0.00045566	0.00011388	469.09	4.1755e-06	2.5263e-06	835.1	112.09	1.9026e-06	2.5236e-06	278.11	124.64	40.489	12.945	2.5522e-06	49.762	6.1494e-05	4.3648e-05	1.1893e-05	415.37	4.7749e-07	4.422e-07	743.95	99.586	4.4102e-07	4.0113e-07	245.23	111.17	36.123	11.575	4.4962e-07	44.271	229.536	44.940	41.459	-11.321	131.320	95.539	-11.986	-7.807	131.840	113.021	-8.420	-3.778	-3.488	0.062	115.842	-0.013	-8191	255	
2027.889	1	1	0	0	0.059567	0.078371	0.086519	0.11034	0.16966	0.19542	0.14064	0.11107	0.13163	0.17831	0.3141	0.28871	0.056835	0.1881	0.14162	0.074013	-2.2479	-2.6021	-2.8292	-2.5292	-2.8125	-2.7854	-2.5042	-2.9188	-2.5792	-2.5333	-2.7438	-2.5187	-2.8146	-2.875	-2.4771	-2.8729	192.813	95.803	148.833	169.711	232.213	304.741	283.352	23.028	51.806	329.173	41.189	265.774	-19.400	308.502	125.464	-19.919	0.0002492	0.00039799	9.9891e-05	468.38	4.268e-06	2.8832e-06	847.23	112.59	3.3711e-06	2.236e-06	280.19	124.76	40.287	13.033	2.978e-06	49.892	6.4298e-05	3.9208e-05	1.0945e-05	415.63	4.6761e-07	4.3935e-07	748.4	100.19	4.4957e-07	4.2216e-07	247.31	111.2	36.105	11.613	4.4877e-07	44.624	227.855	26.967	60.422	-11.755	131.187	114.224	-11.793	-7.668	157.506	111.368	-7.638	-4.154	-4.022	0.445	168.542	-0.468	-8191	255	
2027.961	1	1	0	0	0.2568	0.26507	0.18955	0.13984	0.44566	0.25751	0.19429	0.24063	0.082606	0.13758	0.32449	0.078599	0.18446	0.16459	0.26796	0.30922	-2.0708	-2.5521	-2.9042	-2.4771	-2.6354	-2.9229	-2.55	-2.9625	-2.6354	-2.4729	-2.9208	-2.4875	-2.5708	-2.7396	-2.425	-2.7729	43.459	306.737	323.534	38.082	334.113	293.288	235.157	267.691	74.758	97.161	301.475	326.358	25.394	13.821	233.490	55.352	0.00023188	0.00035685	7.2318e-05	467.42	3.2537e-06	3.8783e-06	845.51	112.19	3.6796e-06	3.2728e-06	280.91	124.43	40.311	13.063	1.9379e-06	49.207	6.4673e-05	4.2755e-05	1.1064e-05	417.07	5.0399e-07	4.0035e-07	750.28	100.13	4.6308e-07	4.3987e-07	248.46	111.05	35.866	11.601	4.373e-07	43.983	232.557	69.363	53.938	-12.000	154.109	107.268	-12.270	-7.665	161.304	147.224	-7.675	-3.498	-3.658	0.571	133.293	-0.195	-8191	255	
2028.081	1	1	0	0	0.10386	0.15242	0.13119	0.25148	0.081282	0.14514	0.10403	0.12354	0.060364	0.051508	0.12106	0.099226	0.17986	0.16265	0.26884	0.10751	-2.2562	-2.4271	-2.8208	-2.2729	-2.825	-2.975	-2.6063	-2.7062	-2.6583	-2.2812	-3.0917	-2.6833	-2.4875	-2.7646	-2.4042	-2.7438	29.562	201.968	168.461	306.093	248.499	14.109	242.503	256.473	316.104	95.396	101.951	42.072	319.170	226.381	260.729	259.625	0.00022023	0.00039713	9.248e-05	469.34	4.9006e-06	3.8118e-06	843.33	111.44	2.6644e-06	1.6647e-06	273.77	123.89	39.973	12.591	3.6839e-06	48.993	6.3343e-05	4.1264e-05	1.0741e-05	415.34	4.6278e-07	4.1145e-07	745.09	99.083	4.2599e-07	4.329e-07	243.77	109.97	35.729	11.302	4.273e-07	43.561	229.915	53.880	57.560	-11.413	114.136	134.177	-11.635	-7.520	170.135	134.052	-7.969	-3.320	-4.212	0.358	112.635	0.134	-8191	255	
2028.177	1	1	0	0	0.30679	0.16982	0.084785	0.014513	0.15141	0.17836	0.061303	0.25952	0.081261	0.33767	0.12799	0.089644	0.19046	0.15833	0.30183	0.058232	-2.2062	-2.2938	-2.8187	-2.6729	-2.4583	-2.85	-2.375	-2.575	-2.6479	-2.3688	-2.8604	-2.6437	-2.4854	-2.9896	-2.4479	-2.7521	202.586	78.100	10.092	38.313	207.989	303.872	252.581	34.315	133.539	190.340	24.521	279.515	0.455	224.854	145.259	311.257	0.00022705	0.00048525	0.00012805	465.66	3.383e-06	3.3326e-06	835.96	110.68	2.4551e-06	3.2257e-06	271.49	122.55	39.553	12.769	2.2278e-06	48.569	6.1413e-05	3.7998e-05	1.1357e-05	414.23	4.5565e-07	4.348e-07	744.5	99.269	4.5599e-07	4.9363e-07	242.31	109.48	35.678	11.356	4.3645e-07	43.456	224.951	51.025	55.702	-11.923	124.628	129.361	-11.771	-7.360	172.855	131.903	-7.896	-4.077	-3.695	0.697	125.460	-0.012	-8191	255	
2028.273	1	1	0	0	0.16507	0.31885	0.18403	0.2115	0.14038	0.34086	0.40301	0.20355	0.084722	0.05783	0.33822	0.14641	0.12884	0.082497	0.29561	0.39693	-2.3125	-2.2021	-2.8896	-2.6208	-2.3208	-2.9354	-2.6771	-2.6	-2.7125	-2.3563	-3.0042	-2.4729	-2.45	-2.7875	-2.375	-2.7667	136.218	49.132	211.244	314.438	179.467	22.331	260.281	16.680	207.545	87.406	327.602	330.959	273.430	293.656	6.658	316.635	0.00021314	0.00025276	3.0993e-05	468.79	3.0027e-06	1.9564e-06	836.77	112.63	2.0907e-06	2.9961e-06	276.9	123.44	40.258	12.694	5.5767e-06	49.009	6.1403e-05	3.7354e-05	9.9175e-06	415.68	4.4779e-07	4.3354e-07	745.16	99.855	4.4924e-07	4.4141e-07	245.32	109.84	35.803	11.296	4.5121e-07	43.598	224.976	34.674	107.604	-11.662	92.339	125.703	-11.947	-7.393	139.198	140.995	-8.265	-3.915	-3.680	0.365	131.933	0.177	-8191	255	
2028.370	1	1	0	0	0.403	0.19473	0.21039	0.15172	0.22434	0.11081	0.13493	0.062547	0.068686	0.16573	0.17821	0.1004	0.19686	0.13077	0.176	0.21798	-2.2792	-2.3792	-2.7333	-2.7562	-2.2625	-2.8083	-2.6229	-2.5563	-2.8375	-2.4583	-2.6333	-2.6562	-2.0625	-2.8104	-2.5812	-2.6667	183.552	161.734	-17.433	172.976	157.942	37.841	0.681	156.628	261.139	136.242	254.813	258.654	-0.004	18.951	220.017	243.468	0.00023662	0.00032772	0.00011103	467.73	4.8705e-06	2.761e-06	837.2	112.14	2.3045e-06	4.0818e-06	271.11	122.83	39.429	12.488	3.5306e-06	47.961	6.3391e-05	4.1342e-05	1.1549e-05	415.53	4.3611e-07	4.2751e-07	743.24	99.562	4.355e-07	4.2141e-07	240.96	108.9	35.327	11.159	4.2066e-07	42.708	220.227	61.889	56.934	-11.443	123.572	90.371	-11.950	-7.600	192.352	125.328	-7.874	-3.401	-3.709	0.184	126.865	-0.035	-8191	255	
2028.488	1	1	0	0	0.09765	0.30509	0.21836	0.062275	0.29551	0.18679	0.22434	0.11414	0.042365	0.3427	0.11764	0.019204	0.11622	0.073388	0.12252	0.088696	-2.4625	-2.3417	-2.5833	-2.8708	-2.3771	-2.7917	-2.675	-2.5125	-2.9021	-2.4729	-2.6917	-2.8958	-2.4271	-2.8396	-2.6583	-2.6688	-25.188	175.418	101.439	252.578	265.413	100.274	286.208	4.449	92.102	144.429	328.875	7.617	222.948	16.242	140.935	176.100	0.00022825	0.0004584	0.00011067	465.56	2.6746e-06	1.7368e-06	833.21	111.67	3.887e-06	2.9135e-06	271.43	121.75	39.661	12.49	2.8654e-06	47.832	6.4807e-05	4.0719e-05	1.1402e-05	414.44	4.209e-07	4.4436e-07	739.99	99.15	4.6325e-07	4.0365e-07	241.94	108.67	35.537	11.193	4.3582e-07	42.681	221.869	51.589	61.097	-11.874	119.713	118.209	-11.438	-7.474	149.954	78.730	-8.319	-3.772	-3.635	0.139	115.843	0.407	-8191	255	
2028.585	1	1	0	0	0.046629	0.15895	0.3068	0.20501	0.19459	0.025279	0.25921	0.035719	0.11502	0.30555	0.12252	0.16937	0.11669	0.061008	0.075297	0.2384	-2.4417	-2.4292	-2.4896	-2.8625	-2.2792	-2.9958	-2.7	-2.3563	-2.8896	-2.4729	-2.4583	-2.9583	-2.55	-2.7979	-2.6396	-2.3667	87.592	144.502	99.239	194.299	114.658	316.717	308.587	74.354	176.068	247.763	153.867	267.666	210.558	318.403	38.267	292.457	0.00022487	0.00034986	4.9016e-05	465.82	3.6905e-06	4.1026e-06	833.47	110.65	3.4524e-06	3.8368e-06	273.46	122.21	39.576	12.424	3.2185e-06	47.883	6.1936e-05	3.9981e-05	1.1295e-05	413.8	4.3083e-07	4.1652e-07	738.6	98.552	4.4563e-07	4.337e-07	241.6	108.6	35.459	11.155	4.2259e-07	42.509	213.487	67.155	91.449	-11.534	136.027	120.867	-11.807	-7.523	158.516	156.180	-8.329	-3.731	-4.407	0.405	159.752	0.088	-8191	255	
2028.658	1	1	0	0	0.0211	0.25026	0.11173	0.1759	0.23073	0.080495	0.31621	0.14571	0.11211	0.15773	0.16738	0.14423	0.14414	0.23722	0.153	0.16054	-2.4646	-2.3729	-2.3958	-2.8354	-2.3271	-2.4833	-2.8937	-2.4146	-2.9458	-2.6063	-2.5667	-2.9167	-2.2938	-2.6917	-2.7542	-2.2854	290.920	36.639	311.992	170.374	144.000	-21.005	90.720	209.793	148.133	11.418	2.878	279.968	53.651	316.080	328.244	160.386	0.00024429	0.00041028	5.9071e-05	466.21	1.4329e-06	1.9226e-06	831.49	111.44	3.1502e-06	4.9588e-06	271.94	121.26	39.493	12.219	3.4514e-06	47.528	6.3093e-05	4.0563e-05	1.1416e-05	413.82	3.9344e-07	4.1162e-07	739.53	98.832	4.5075e-07	4.4033e-07	241.3	108.07	35.063	10.925	4.3139e-07	42.011	228.175	49.680	30.786	-11.630	140.605	112.256	-11.711	-7.849	147.392	124.373	-8.319	-3.791	-3.241	0.307	144.278	0.212	-8191	255	
2028.754	1	1	0	0	0.024254	0.21645	0.14055	0.12516	0.32987	0.051444	0.17047	0.16455	0.20248	0.20677	0.17001	0.076838	0.31685	0.29372	0.19253	0.096797	-2.4688	-2.425	-2.5812	-2.8479	-2.3563	-2.5938	-2.7875	-2.425	-2.8521	-2.6188	-2.5896	-2.7812	-2.5229	-2.8104	-2.9688	-2.4604	328.385	138.349	303.523	307.148	231.224	309.624	293.701	295.444	71.078	235.460	105.890	-5.859	234.304	283.691	265.006	56.115	0.00019279	0.00038327	3.472e-05	460.26	2.0646e-06	3.6837e-06	823.46	107.95	2.1361e-06	2.5188e-06	266.77	117.64	38.127	11.907	3.9363e-06	46.17	6.1514e-05	3.6403e-05	1.0665e-05	408.23	4.2325e-07	4.3144e-07	731.34	96.149	4.655e-07	4.1576e-07	234.88	105.04	34.003	10.636	4.1764e-07	41.068	229.301	82.035	54.049	-11.729	107.279	117.578	-11.964	-8.095	186.011	105.528	-8.182	-3.881	-3.454	0.487	115.000	0.028	-8191	255	
2028.873	1	1	0	0	0.14974	0.18636	0.069346	0.22713	0.21503	0.11562	0.20217	0.10748	0.24737	0.21789	0.34739	0.067844	0.094421	0.19644	0.089025	0.1407	-2.4958	-2.4917	-2.4125	-2.8708	-2.4417	-2.4188	-2.7771	-2.4437	-2.7292	-2.6417	-2.275	-2.8812	-2.6125	-2.5042	-2.875	-2.4958	92.485	201.166	225.448	294.347	281.260	183.858	47.712	-20.378	142.949	79.619	292.705	97.665	49.086	239.097	74.322	326.430	0.00018792	0.00050849	7.7974e-05	460.37	1.1999e-06	3.6572e-06	827.26	106.69	2.2639e-06	2.9251e-06	263.02	115.77	37.11	11.735	1.808e-06	45.585	6.0409e-05	3.7821e-05	1.0379e-05	408.14	3.9917e-07	4.3571e-07	728.92	95.285	4.1445e-07	4.2284e-07	232.6	103.79	33.203	10.469	4.0958e-07	40.751	228.911	42.529	45.573	-12.013	183.221	144.681	-11.967	-7.724	130.964	166.289	-7.736	-3.649	-3.585	0.520	139.769	0.220	-8191	255	
2028.969	1	1	0	0	0.098671	0.090078	0.088684	0.25821	0.08379	0.15445	0.075081	0.35034	0.067293	0.058865	0.24378	0.028244	0.12527	0.10531	0.08056	0.10602	-2.2729	-2.7917	-2.1167	-2.8833	-2.6271	-2.5271	-2.9458	-2.4708	-2.6667	-2.8521	-2.5271	-2.6562	-2.6229	-2.3542	-2.7687	-2.4875	285.484	-7.041	177.865	11.960	213.098	329.014	170.478	285.651	126.851	317.476	244.783	145.373	286.073	285.829	290.822	199.492	0.00021531	0.00027652	8.0535e-05	459.35	3.3626e-06	2.5298e-06	812.02	106.38	1.7908e-06	4.435e-06	261.33	115.17	36.94	11.534	3.5948e-06	46.028	5.6689e-05	3.9031e-05	1.0345e-05	406.28	4.2219e-07	3.8475e-07	725	94.465	4.1096e-07	3.9828e-07	231.5	102.73	32.968	10.303	4.398e-07	40.801	231.237	64.773	78.506	-11.418	139.088	100.646	-11.736	-8.186	191.321	119.295	-8.391	-4.107	-3.984	0.671	134.128	0.533	-8191	255	
2029.065	1	1	0	0	0.2517	0.069706	0.14091	0.17902	0.22391	0.093026	0.052287	0.15647	0.087844	0.12566	0.20172	0.025196	0.035095	0.08745	0.31208	0.12159	-2.2396	-2.8771	-2.5979	-2.8875	-2.775	-2.6625	-3.0542	-2.6417	-2.5375	-2.8063	-2.3979	-2.9146	-2.7458	-2.4062	-2.7646	-2.5646	297.946	279.097	312.354	165.171	269.098	120.985	234.522	183.102	329.021	230.933	296.713	229.220	301.488	263.754	78.294	244.338	0.00020766	0.0002759	0.00010169	457.52	4.952e-06	3.6129e-06	813.69	104.55	4.4032e-06	2.6592e-06	257.84	114.51	36.157	11.44	2.3257e-06	45.234	6.1797e-05	3.9379e-05	1.0104e-05	405.33	4.4566e-07	3.6779e-07	724.15	93.55	4.2498e-07	3.8496e-07	227.77	101.7	32.499	10.168	4.1793e-07	40.143	223.645	101.538	61.764	-11.087	98.516	88.432	-12.106	-7.702	145.303	94.470	-7.972	-3.886	-4.240	0.610	126.290	0.139	-8191	255	
2029.162	1	1	0	0	0.20366	0.056287	0.39098	0.085603	0.24276	0.080401	0.19055	0.1808	0.070418	0.10304	0.036153	0.13155	0.090707	0.16644	0.14297	0.29681	-1.9583	-3.0333	-2.3979	-2.9042	-2.7667	-2.4104	-2.8063	-2.775	-2.5542	-2.8917	-2.575	-2.6125	-2.8229	-2.2583	-2.6958	-2.6646	275.666	-16.504	97.597	251.285	98.043	236.085	177.871	312.662	118.254	69.512	327.496	237.150	123.715	221.840	287.781	36.975	0.00022435	0.00029277	9.5745e-05	455.48	4.9762e-06	1.383e-06	806.21	103.81	2.8725e-06	2.0343e-06	257.49	114.03	36.008	11.441	4.7292e-06	45.286	6.1283e-05	3.8979e-05	1.0445e-05	402.3	4.0304e-07	4.1572e-07	718.11	92.553	4.5863e-07	4.1096e-07	227.85	101.63	32.568	10.224	4.2588e-07	40.419	225.984	45.087	79.012	-11.715	85.366	141.017	-11.921	-7.535	162.755	136.059	-7.820	-3.826	-3.796	0.866	137.487	0.122	-8191	255	
2029.258	1	1	0	0	0.076542	0.070079	0.09586	0.11323	0.1689	0.12104	0.16035	0.2857	0.29527	0.036334	0.074173	0.14443	0.27357	0.30905	0.045456	0.091463	-2.1083	-2.9021	-2.3375	-2.8563	-2.9146	-2.2875	-2.7792	-2.65	-2.3333	-2.8812	-2.5479	-2.5958	-2.8083	-2.475	-2.6979	-2.725	306.611	14.255	53.567	246.813	298.157	44.939	280.824	105.102	222.878	232.048	331.300	173.085	329.409	249.998	167.544	325.128	0.0001892	0.00028527	4.3885e-05	458.8	3.7077e-06	3.7096e-06	812.56	105.71	1.4834e-06	2.6344e-06	262.27	117.61	37.615	11.817	3.3104e-06	46.312	5.9464e-05	3.5458e-05	1.0425e-05	406.11	4.1253e-07	3.749e-07	723.11	94.335	4.1592e-07	4.1102e-07	232.42	104.29	33.595	10.492	4.2048e-07	41.156	223.678	0.585	36.062	-11.414	115.024	95.083	-11.901	-7.405	98.930	79.319	-8.334	-4.012	-4.014	0.385	152.639	0.392	-8191	255	
2029.354	1	1	0	0	0.41718	0.22229	0.11388	0.25938	0.16155	0.12092	0.2892	0.17218	0.15745	0.14033	0.34197	0.088351	0.16075	0.27606	0.16286	0.034328	-1.9958	-2.8583	-2.4604	-2.6312	-2.9521	-2.175	-2.7562	-2.6562	-2.2896	-2.6479	-2.7979	-2.7083	-2.8396	-2.4313	-2.8125	-2.7958	111.508	257.492	-3.013	32.434	20.918	249.250	301.107	5.522	230.806	107.385	142.495	273.177	294.022	314.599	252.617	280.713	0.0001766	0.00032255	3.8159e-05	459.97	7.0893e-07	1.0059e-06	824.81	107.56	3.1747e-06	5.1813e-06	269.25	119.01	38.26	11.995	1.4765e-06	46.47	5.6098e-05	3.8948e-05	1.0118e-05	406.28	4.3566e-07	4.0337e-07	729.44	95.903	4.48e-07	4.3124e-07	238.07	105.8	34.253	10.718	4.6047e-07	41.469	240.167	39.345	83.475	-11.489	42.485	176.718	-11.924	-8.036	115.114	136.831	-7.868	-3.915	-3.430	0.284	149.772	0.361	-8191	255	
2029.474	1	1	0	0	0.061849	0.17771	0.075912	0.11855	0.1997	0.34207	0.49793	0.18691	0.20658	0.027982	0.049382	0.040899	0.2441	0.078909	0.11252	0.030195	-1.8583	-3.0583	-2.6583	-2.3438	-2.9688	-2.375	-2.7708	-2.7354	-2.3667	-2.7771	-2.8187	-2.5646	-2.9229	-2.3875	-2.5938	-2.9375	45.974	82.515	182.160	212.610	194.013	330.660	319.740	85.597	87.771	136.714	1.071	311.394	172.674	21.636	99.454	55.989	0.00023816	0.0002945	8.86e-05	455.48	1.1979e-06	1.7408e-06	821.67	106.95	2.317e-06	3.4424e-06	262.56	118.35	38.398	12.022	2.7427e-06	46.592	6.4265e-05	3.428e-05	1.072e-05	406.47	4.1871e-07	4.0906e-07	728.44	95.07	4.332e-07	4.1382e-07	234.54	105.65	34.177	10.713	4.507e-07	41.457	232.810	19.374	63.259	-11.631	146.123	121.393	-11.951	-7.616	148.155	142.773	-8.493	-3.620	-3.163	0.240	98.280	-0.082	-8191	255	
2029.569	1	1	0	0	0.20414	0.32483	0.13053	0.25348	0.30902	0.27247	0.14755	0.079128	0.060019	0.071741	0.29601	0.19712	0.34601	0.2026	0.11192	0.12975	-2.0438	-2.8833	-2.6813	-2.5229	-2.9771	-2.6583	-2.6875	-2.8521	-2.3979	-2.7729	-2.8354	-2.4875	-2.8542	-2.4458	-2.7	-2.9896	201.162	306.267	171.403	325.029	98.676	273.984	46.278	225.403	-23.619	225.033	271.142	-16.066	-21.722	194.408	86.673	198.169	0.00019069	0.00015091	9.199e-05	457.54	3.563e-06	2.9504e-06	820.93	108.03	3.5306e-06	2.1719e-06	269.29	119.78	39.139	12.207	3.3654e-06	46.863	6.0938e-05	3.8533e-05	1.0019e-05	407.61	4.1034e-07	3.8458e-07	730.26	96.029	4.0629e-07	4.113e-07	237.91	106.48	34.776	10.889	4.2168e-07	41.85	221.964	67.171	24.521	-11.765	139.957	101.869	-11.957	-7.802	176.445	123.003	-8.293	-3.716	-4.062	0.811	134.044	0.229	-8191	255	
2029.665	1	1	0	0	0.16038	0.16682	0.11487	0.16251	0.076396	0.18753	0.20982	0.088873	0.16206	0.072402	0.093343	0.049309	0.3101	0.12476	0.23508	0.28988	-2.0792	-2.7208	-2.6792	-2.3208	-2.9375	-2.4688	-2.6125	-2.7771	-2.4208	-2.725	-2.8854	-2.3104	-2.8312	-2.5396	-2.5438	-2.8771	218.112	332.463	316.411	1.525	99.418	11.471	266.748	147.195	6.026	106.677	4.428	94.157	-16.737	146.187	186.516	274.444	0.00018663	0.00011347	5.3378e-05	458.6	1.4077e-06	5.1396e-06	830.43	109.12	2.9097e-06	2.8245e-06	269.45	121	39.561	12.259	6.0384e-06	47.404	5.5873e-05	3.9379e-05	1.0871e-05	408.88	4.6671e-07	3.7097e-07	736.27	96.927	4.4034e-07	4.369e-07	239.89	108.19	35.268	10.967	4.4985e-07	42.126	233.621	64.632	49.433	-11.656	102.453	120.753	-11.853	-7.945	138.972	144.266	-8.146	-3.997	-3.511	-0.172	134.776	0.017	-8191	255	
2029.763	1	1	0	0	0.15388	0.074774	0.24856	0.12849	0.18715	0.072721	0.21136	0.311	0.18752	0.19592	0.19436	0.29488	0.030114	0.26595	0.115	0.28793	-1.9104	-2.7521	-2.8083	-2.4521	-2.7896	-2.6479	-2.5542	-2.7458	-2.3063	-2.8063	-2.8438	-2.4917	-2.6875	-2.7292	-2.5125	-2.7562	123.355	146.111	170.876	282.915	135.076	162.622	253.515	54.955	311.197	151.179	288.659	220.625	89.495	38.135	276.302	200.611	0.00018399	0.00023058	7.8138e-05	460.67	2.404e-06	4.4359e-06	825.51	109.45	2.6812e-06	2.3409e-06	269.55	120.01	39.08	12.403	4.1763e-06	46.917	5.9113e-05	4.1145e-05	9.3466e-06	409.69	4.8905e-07	4.1812e-07	734.69	97.291	4.4997e-07	4.1216e-07	238.55	107.15	34.947	10.97	4.3326e-07	41.639	232.631	71.208	39.045	-11.654	140.677	93.094	-11.839	-8.004	188.397	163.388	-8.170	-4.009	-3.900	-0.070	111.743	0.000	-8191	255	
2029.857	1	1	0	0	0.26235	0.2301	0.059551	0.27901	0.032339	0.20532	0.13462	0.19727	0.07342	0.12789	0.11528	0.21968	0.23506	0.070511	0.16319	0.15174	-2.2042	-2.4708	-2.8438	-2.4208	-2.7125	-2.6875	-2.4333	-2.9354	-2.6375	-2.6333	-2.9479	-2.4083	-2.6063	-2.8063	-2.35	-2.9375	71.519	306.821	41.957	256.881	179.624	138.887	276.205	240.773	-10.749	181.467	305.819	288.116	178.076	212.056	-13.455	298.957	0.00020518	0.00028071	4.9038e-05	459.65	3.6598e-06	3.5867e-06	821.44	108.52	1.6978e-06	2.742e-06	271.14	121.41	39.562	12.402	3.5818e-06	47.222	6.2435e-05	4.2163e-05	1.0835e-05	407.16	4.497e-07	4.0958e-07	732.11	96.562	4.149e-07	4.2867e-07	239.46	107.96	35.297	11.038	4.1986e-07	41.978	231.815	47.765	42.297	-11.608	126.803	129.946	-11.887	-7.314	196.190	112.596	-8.480	-3.660	-3.212	0.306	144.639	-0.147	-8191	255	
2029.953	1	1	0	0	0.25092	0.19117	0.083092	0.19216	0.39995	0.37384	0.32683	0.092833	0.24008	0.13275	0.060972	0.27008	0.1615	0.10145	0.19798	0.17764	-2.1104	-2.4396	-2.6583	-2.5458	-2.7208	-2.8583	-2.4625	-2.7062	-2.5521	-2.5708	-2.8438	-2.575	-2.7188	-2.7167	-2.3896	-2.7271	237.799	204.139	131.510	-25.659	290.761	193.570	253.943	222.148	16.661	301.929	216.536	222.442	86.720	89.546	-9.125	283.947	0.00020916	0.00042986	3.2709e-05	462.73	2.391e-06	3.9389e-06	827.54	109.35	2.3984e-06	4.291e-06	274.25	122.51	39.719	12.691	3.0092e-06	49.121	6.135e-05	4.2599e-05	1.0772e-05	409.83	4.4683e-07	4.0929e-07	735.69	97.502	4.1451e-07	4.4204e-07	242.87	108.82	35.355	11.328	4.1719e-07	43.779	221.523	24.169	-4.842	-12.033	153.138	84.204	-11.699	-7.769	130.694	107.207	-7.979	-4.000	-3.565	0.103	129.089	0.324	-8191	255	
2030.050	1	1	0	0	0.2179	0.30917	0.17904	0.28044	0.1184	0.091818	0.37715	0.13091	0.24247	0.14438	0.13591	0.21993	0.47256	0.083823	0.17321	0.33773	-2.15	-2.3729	-2.9604	-2.5729	-2.4938	-2.8063	-2.5479	-2.7687	-2.65	-2.4354	-3.0625	-2.5917	-2.5938	-2.8937	-2.2812	-2.8854	235.288	-20.805	233.177	-2.025	307.358	0.787	16.240	230.194	193.820	39.847	275.686	282.889	7.212	122.385	235.057	296.565	0.00019844	0.00037144	9.5019e-05	466.59	3.4541e-06	2.424e-06	837.39	111.25	1.6467e-06	4.1997e-06	274.87	123.07	39.191	12.522	3.5917e-06	48.451	6.1557e-05	4.1924e-05	1.0579e-05	416.43	4.7715e-07	4.414e-07	745.38	99.218	4.4389e-07	4.261e-07	244.08	109.26	35.154	11.222	4.1304e-07	42.923	226.425	64.056	53.070	-11.993	123.264	140.158	-11.807	-7.724	166.207	131.542	-8.127	-3.621	-4.037	-0.244	148.745	0.439	-8191	255	
2030.170	1	1	0	0	0.068062	0.081383	0.10403	0.21354	0.13037	0.16447	0.14092	0.14047	0.0611	0.13543	0.27327	0.12771	0.051247	0.096414	0.12171	0.36332	-2.2188	-2.3771	-3.0208	-2.3146	-2.5062	-2.8896	-2.5104	-2.7479	-2.7917	-2.5042	-2.9458	-2.6833	-2.4917	-2.9292	-2.4271	-2.7667	0.310	27.345	197.593	281.610	130.269	91.275	286.343	135.620	177.273	116.910	43.178	313.220	228.513	34.795	-14.827	253.615	0.00020911	0.00033393	6.3589e-05	462.87	3.845e-06	3.1704e-06	828.37	108.69	3.2739e-06	1.7177e-06	270.9	122.19	39.533	12.494	2.6858e-06	47.839	6.2354e-05	3.6949e-05	1.0785e-05	410.45	4.3342e-07	4.0798e-07	736.05	97.387	4.4001e-07	3.7662e-07	239.49	108.17	35.331	11.147	4.2213e-07	42.491	231.392	56.996	117.888	-12.002	188.296	117.718	-11.317	-6.854	158.005	134.175	-8.379	-3.791	-4.506	-0.073	135.700	-0.004	-8191	255	
2030.266	1	1	0	0	0.16705	0.21039	0.18598	0.12695	0.039019	0.089046	0.26612	0.1674	0.11273	0.098742	0.3278	0.18854	0.31251	0.20643	0.27011	0.28751	-2.4146	-2.475	-2.8479	-2.6167	-2.5167	-2.7938	-2.4604	-2.6417	-2.6646	-2.4042	-2.7583	-2.6958	-2.2542	-2.9229	-2.2521	-2.8	255.449	213.645	216.309	280.293	97.618	-11.902	254.027	119.109	94.539	78.830	265.836	201.410	94.582	273.754	150.252	230.856	0.00022261	0.00025526	3.0533e-05	460.19	4.969e-06	2.304e-06	834.35	107.99	2.2995e-06	3.3924e-06	272.14	122.28	40.057	12.491	1.7306e-06	47.617	6.1437e-05	3.6642e-05	1.14e-05	409.83	4.5655e-07	4.0001e-07	739.2	97.399	4.4389e-07	3.9359e-07	241.34	108.54	35.402	11.177	4.0657e-07	42.537	233.047	43.371	21.825	-11.822	133.181	128.514	-11.756	-7.796	175.765	117.712	-8.072	-3.554	-4.341	0.151	155.760	-0.195	-8191	255	
2030.363	1	1	0	0	0.05806	0.14637	0.33095	0.11723	0.15891	0.033763	0.29772	0.13901	0.13881	0.11233	0.083484	0.32339	0.1031	0.037105	0.28196	0.22227	-2.2271	-2.3833	-2.6937	-2.5292	-2.275	-2.9896	-2.5458	-2.3771	-2.7812	-2.5042	-2.7188	-2.8187	-2.4333	-2.8396	-2.5021	-2.5438	125.707	194.872	299.159	217.711	219.808	-15.184	292.198	48.568	117.148	69.106	297.452	254.336	67.772	32.894	322.772	160.338	0.00022821	0.00041331	0.00013924	464.65	5.6634e-06	1.8774e-06	829.11	109.77	8.931e-07	4.3226e-06	273.83	121.23	39.51	12.525	2.9206e-06	48.601	6.2522e-05	3.7115e-05	1.1402e-05	411.04	4.3212e-07	4.3804e-07	737.97	98.04	4.2481e-07	4.0393e-07	242.28	108.37	35.328	11.193	4.1997e-07	43.144	233.344	40.865	70.039	-11.806	124.529	111.236	-11.571	-7.445	249.635	102.560	-7.744	-3.998	-3.236	0.916	113.515	0.473	-8191	255	
2030.459	1	1	0	0	0.33915	0.079288	0.12344	0.041194	0.18969	0.20169	0.18031	0.11287	0.19226	0.324	0.16152	0.17195	0.038574	0.036418	0.30368	0.10319	-2.3833	-2.2854	-2.7167	-2.7125	-2.3271	-2.7333	-2.6562	-2.4708	-2.9437	-2.4125	-2.6458	-2.8958	-2.4458	-2.8271	-2.4813	-2.5875	251.486	52.537	155.639	319.440	159.642	162.031	170.814	216.906	327.493	222.964	246.850	274.767	122.305	261.323	-7.382	290.170	0.00019181	0.00031546	6.6704e-05	462.65	3.148e-06	2.2637e-06	829.76	109.42	3.4545e-06	4.5518e-06	268.85	121.32	39.213	12.632	5.4909e-06	47.638	5.9675e-05	3.8507e-05	1.2075e-05	412.65	4.3364e-07	4.1601e-07	738.6	97.239	4.4496e-07	3.9188e-07	239.71	107.9	35.081	11.165	4.3236e-07	42.57	225.390	35.522	58.915	-11.719	85.269	112.657	-12.059	-7.737	147.436	168.313	-8.231	-3.534	-4.434	0.332	137.225	0.081	-8191	255	
2030.555	1	1	0	0	0.094173	0.16682	0.12459	0.10374	0.090015	0.16826	0.20764	0.20947	0.14282	0.41324	0.38205	0.12343	0.19524	0.09074	0.05528	0.29634	-2.4104	-2.4021	-2.55	-2.7958	-2.2792	-2.775	-2.7354	-2.4458	-2.925	-2.4562	-2.5146	-3.0042	-2.3833	-2.8146	-2.7479	-2.4688	238.917	203.236	299.188	260.003	309.310	44.641	18.792	164.467	117.988	287.996	315.967	264.880	29.483	70.493	-17.642	313.043	0.00020489	0.00045891	7.9982e-05	461.18	4.1607e-06	3.0448e-06	827.66	109.26	1.8624e-06	3.5843e-06	271.27	121.88	39.731	12.549	2.8182e-06	47.887	5.9128e-05	3.6403e-05	1.0608e-05	409.3	4.3763e-07	4.0223e-07	734.55	97.365	4.2926e-07	3.9062e-07	240.35	108.29	35.489	11.208	4.4576e-07	42.594	226.286	76.816	62.456	-11.293	164.866	102.365	-12.158	-7.756	133.515	146.451	-8.201	-3.691	-4.260	0.655	73.920	0.086	-8191	255	
2030.651	1	1	0	0	0.16522	0.089535	0.31255	0.076602	0.079365	0.27353	0.089148	0.1961	0.1949	0.092496	0.20131	0.25762	0.12497	0.17714	0.11814	0.20546	-2.6833	-2.6229	-2.5896	-3.0292	-2.3042	-2.8729	-2.7667	-2.4792	-2.8792	-2.6312	-2.7208	-3.1208	-2.3896	-2.5917	-2.7354	-2.3312	293.038	181.788	-19.209	12.000	259.150	71.002	221.533	276.791	199.670	261.297	321.327	200.973	295.700	186.259	60.031	126.280	0.00023265	0.00028272	7.0471e-05	462.23	3.2107e-06	4.367e-06	834.3	110.58	3.7437e-06	4.8342e-06	273.17	121.39	39.877	12.635	3.248e-06	48.426	6.2421e-05	3.6242e-05	1.0668e-05	412.24	4.4448e-07	4.3941e-07	739.32	98.535	4.5531e-07	4.1719e-07	242.43	108.93	35.671	11.296	4.3321e-07	43.144	230.178	69.871	63.520	-11.851	131.140	144.555	-11.961	-7.955	161.173	111.873	-7.737	-3.811	-4.196	-0.098	131.426	-0.254	-8191	255	
2030.745	1	1	0	0	0.085431	0.11439	0.22733	0.064058	0.11657	0.19699	0.19264	0.33158	0.11398	0.067015	0.26223	0.33945	0.20353	0.11715	0.1851	0.18046	-2.4333	-2.625	-2.475	-3.025	-2.5833	-2.7667	-2.7625	-2.3937	-3.0875	-2.725	-2.7083	-3.1042	-2.5062	-2.6	-2.9979	-2.4938	333.067	236.332	81.704	306.908	299.769	38.089	10.909	298.721	269.997	275.304	179.479	290.545	322.102	163.769	110.019	311.458	0.00023915	0.0003497	0.00010284	459.77	4.6943e-06	2.8978e-06	832.43	109.11	2.0928e-06	3.6334e-06	273.76	122.61	39.66	12.64	2.2316e-06	47.956	6.2834e-05	4.0002e-05	1.1598e-05	412.25	4.3128e-07	4.4596e-07	741.52	98.499	4.7214e-07	4.1919e-07	243.7	109.4	35.371	11.247	4.4383e-07	42.834	235.328	56.986	33.644	-11.401	132.870	88.357	-12.027	-7.631	190.325	109.784	-8.051	-3.736	-3.978	0.270	161.987	0.318	-8191	255	
2030.843	1	1	0	0	0.19278	0.22333	0.043853	0.24876	0.19746	0.23561	0.22981	0.22878	0.2179	0.20558	0.18001	0.17294	0.18067	0.021148	0.16514	0.088721	-2.4542	-2.6271	-2.4938	-2.85	-2.5958	-2.7854	-3.075	-2.3312	-2.8708	-2.5896	-2.5542	-2.9792	-2.4104	-2.425	-2.6875	-2.4125	334.153	239.094	195.681	2.690	205.723	73.407	287.411	21.188	162.163	-3.335	333.520	245.813	80.678	170.807	51.407	223.132	0.00018072	0.00042473	5.9638e-05	459.14	2.6054e-06	3.5709e-06	828.97	109.05	2.0457e-06	1.6777e-06	270.54	119.47	39.598	12.482	2.1726e-06	47.051	6.0472e-05	3.819e-05	1.0935e-05	408.99	4.2741e-07	4.6691e-07	736.18	97.431	4.4608e-07	4.2593e-07	239.19	107.5	35.196	11.108	4.2616e-07	42.056	225.316	43.517	69.188	-11.939	110.852	96.895	-11.618	-7.368	164.496	129.489	-8.124	-3.650	-3.389	-0.193	100.902	0.100	-8191	255	
2030.962	1	1	0	0	0.20142	0.10065	0.2342	0.21828	0.08768	0.032123	0.31442	0.32024	0.30827	0.11433	0.16077	0.12877	0.22959	0.17713	0.11474	0.32781	-2.3771	-2.6458	-2.3979	-2.9313	-2.6458	-2.5104	-2.9813	-2.3229	-2.8583	-2.6583	-2.625	-2.9417	-2.6875	-2.5833	-2.95	-2.5896	-3.235	113.943	39.618	105.846	73.578	310.652	301.072	299.211	152.322	279.876	254.894	291.510	111.388	46.190	278.147	262.488	0.00020024	0.00046377	0.00010841	462.09	3.3019e-06	1.906e-06	824.29	109.31	2.6351e-06	2.8744e-06	270.78	120.56	38.935	12.429	1.5353e-06	47.264	6.1336e-05	3.8024e-05	1.0886e-05	409.79	4.2831e-07	4.213e-07	734.13	97.313	4.2976e-07	4.077e-07	238.66	107.52	34.816	11.027	4.3894e-07	42.01	226.203	71.274	84.899	-11.800	136.492	36.805	-11.938	-7.421	142.126	138.039	-8.405	-3.599	-4.288	0.148	135.425	0.073	-8191	255	
2031.058	1	1	0	0	0.27083	0.27544	0.073798	0.23954	0.018681	0.24362	0.14278	0.10389	0.092809	0.32197	0.092665	0.31366	0.28023	0.11441	0.26254	0.14079	-2.2021	-2.7646	-2.3792	-2.7625	-2.6021	-2.3854	-2.9146	-2.4875	-2.6188	-2.8875	-2.2917	-2.9521	-2.5771	-2.4771	-2.9104	-2.6604	120.111	329.078	243.582	37.503	247.336	298.389	18.163	-19.022	180.612	201.062	315.286	-6.286	72.591	267.659	327.438	302.043	0.00019963	0.00043384	6.9175e-05	459.16	3.6011e-06	4.1161e-06	821.4	109.08	8.386e-07	3.1848e-06	271.56	120.85	39.214	12.339	2.0482e-06	47.123	6.2997e-05	3.8418e-05	1.0298e-05	408.3	4.2814e-07	4.303e-07	733.11	97.194	4.4727e-07	4.2753e-07	239.84	107.62	34.965	10.992	4.0123e-07	42.059	225.493	38.601	58.692	-11.642	128.225	113.205	-12.186	-7.859	141.774	132.169	-7.935	-3.867	-4.551	0.324	151.558	0.220	-8191	255	
2031.154	1	1	0	0	0.30823	0.15046	0.16215	0.31046	0.214	0.15367	0.35637	0.065419	0.12536	0.17166	0.17506	0.20119	0.23995	0.24448	0.10252	0.041292	-2.2375	-2.7729	-2.2833	-2.8167	-2.5854	-2.3229	-2.8896	-2.5854	-2.55	-2.8688	-2.4167	-2.9125	-2.7375	-2.3833	-2.8042	-2.6937	234.474	307.608	222.595	225.486	69.033	190.153	-5.108	9.759	70.904	100.125	140.058	254.900	124.366	273.256	90.070	147.438	0.00022605	0.00032257	8.1838e-05	458.81	2.7774e-06	3.5818e-06	827.67	109.89	1.6706e-06	1.1022e-06	267.85	120.27	38.569	12.191	4.5546e-06	46.935	6.3271e-05	4.1404e-05	9.9508e-06	408.39	4.2421e-07	4.0912e-07	736.99	97.358	4.4901e-07	3.8034e-07	237.73	107.18	34.614	10.92	4.444e-07	41.765	226.993	66.623	85.455	-11.999	154.584	110.176	-11.743	-7.263	202.713	93.713	-8.127	-3.487	-4.100	0.577	132.340	-0.051	-8191	255	
2031.251	1	1	0	0	0.17958	0.035309	0.21074	0.25643	0.08948	0.26584	0.24407	0.20619	0.081868	0.053924	0.12899	0.26545	0.055472	0.068925	0.096613	0.090497	-2.2042	-2.9021	-2.5396	-2.7917	-2.8333	-2.2479	-3.075	-2.7042	-2.3958	-2.9688	-2.7313	-2.8417	-2.7396	-2.5708	-2.8979	-2.6312	8.074	185.316	141.858	316.943	-6.836	121.982	260.542	153.024	195.888	19.092	257.622	315.404	141.968	104.608	73.434	155.715	0.00021987	0.00040899	7.8276e-05	461.64	2.3806e-06	3.2747e-06	822.3	108.99	2.9493e-06	3.0078e-06	267.3	119.56	38.935	12.181	2.4511e-06	47.346	6.1173e-05	3.7515e-05	9.9031e-06	409.03	4.278e-07	4.196e-07	729.79	96.634	4.3742e-07	4.177e-07	238.38	107.01	34.878	10.929	4.5922e-07	41.893	231.496	30.867	39.270	-11.847	149.420	143.465	-11.810	-7.557	124.981	147.020	-7.904	-3.980	-3.085	0.413	132.828	0.162	-8191	255	
2031.347	1	1	0	0	0.068922	0.2793	0.067275	0.24998	0.17487	0.1369	0.10131	0.14614	0.14084	0.16951	0.117	0.24958	0.08743	0.13094	0.090966	0.10876	-2.0104	-2.8833	-2.5104	-2.7062	-2.8875	-2.4542	-3.0563	-2.6875	-2.4229	-3.0271	-2.8125	-2.725	-2.9292	-2.6458	-2.775	-2.9958	44.473	310.842	125.332	278.582	302.215	191.968	285.893	215.105	76.537	257.767	317.031	267.066	260.847	199.946	143.973	263.303	0.00019003	0.00041081	4.8486e-05	460.52	3.6372e-06	2.9146e-06	824.45	108.75	2.3083e-06	3.0252e-06	269.38	120.92	38.946	12.282	3.1935e-06	47.133	6.2109e-05	3.8995e-05	1.0327e-05	409.44	4.4257e-07	3.8623e-07	734.5	97.093	4.0866e-07	4.3273e-07	239.23	107.45	34.874	10.944	4.1117e-07	41.672	227.628	30.595	37.111	-11.866	106.554	127.770	-11.779	-7.655	133.564	127.268	-8.082	-3.792	-4.160	0.609	146.532	0.298	-8191	255	
2031.443	1	1	0	0	0.18982	0.11719	0.25437	0.14442	0.12146	0.14814	0.40415	0.36131	0.3313	0.12013	0.29174	0.17315	0.32762	0.20286	0.24778	0.20943	-2.2562	-2.6958	-2.65	-2.7271	-3.0521	-2.5187	-2.8312	-2.8458	-2.4083	-2.8125	-2.6771	-2.5083	-2.9521	-2.4083	-2.6521	-2.9479	20.458	198.027	296.741	284.248	36.664	120.150	238.045	136.265	243.232	-5.951	8.126	76.746	257.692	225.715	215.263	264.734	0.00016464	0.00032587	7.8228e-05	460.4	5.0412e-06	2.1076e-06	830.11	109.36	1.7292e-06	2.0601e-06	269.99	120.54	38.972	12.2	3.8969e-06	46.412	5.8503e-05	4.1129e-05	1.0094e-05	409.09	4.145e-07	3.9699e-07	736.13	97.663	4.1412e-07	4.277e-07	239.37	107.23	34.945	10.901	4.323e-07	41.426	247.129	61.706	69.835	-11.150	127.599	116.514	-11.824	-7.216	145.892	107.105	-8.185	-3.957	-3.433	0.721	149.558	0.148	-8191	255	
2031.564	1	1	0	0	0.028061	0.065154	0.196	0.12396	0.030367	0.19821	0.2257	0.30615	0.28367	0.15206	0.18364	0.32269	0.06188	0.16762	0.033597	0.32148	-1.8729	-3.0229	-2.5062	-2.3917	-2.9354	-2.75	-2.7125	-2.9708	-2.4854	-2.7125	-2.6562	-2.5312	-2.8625	-2.5896	-2.8854	-3.0146	149.307	43.039	251.767	218.532	192.508	52.126	-6.423	327.339	240.619	122.611	177.404	288.288	125.955	68.750	87.375	290.154	0.00022589	0.00055902	3.7356e-05	458.66	3.3126e-06	4.3837e-06	820.84	107.62	2.6917e-06	2.188e-06	266.41	118.69	38.935	12.076	3.2646e-06	45.871	5.9555e-05	3.8273e-05	1.0004e-05	407.37	4.6396e-07	4.1197e-07	729.91	96.266	4.0961e-07	4.2039e-07	235.57	105.76	34.687	10.739	4.5224e-07	41.008	224.711	53.962	47.680	-11.661	163.416	87.235	-11.705	-7.777	164.200	172.947	-8.226	-3.990	-3.111	0.211	111.615	0.140	-8191	255	
2031.658	1	1	0	0	0.14875	0.3463	0.19959	0.34965	0.14302	0.26299	0.16825	0.20137	0.31566	0.17719	0.22847	0.13453	0.070433	0.064807	0.1397	0.24202	-2.1437	-2.9333	-2.6375	-2.6833	-2.9833	-2.5938	-2.6875	-2.8	-2.3771	-2.8604	-2.6979	-2.4938	-2.8333	-2.5687	-2.5646	-3.0021	140.637	-6.342	258.617	23.380	-18.098	70.112	143.204	217.365	327.362	94.485	-17.958	297.051	238.821	156.209	171.060	215.598	0.00019951	0.0004121	8.4601e-05	461.8	3.7303e-06	2.5104e-06	823.2	108.39	2.4662e-06	3.5098e-06	265.85	117.75	38.571	11.839	2.1083e-06	46.106	6.0453e-05	4.1721e-05	1.0321e-05	407.88	4.2213e-07	3.8566e-07	732.04	96.531	4.1547e-07	4.1005e-07	236.34	105.3	34.397	10.687	4.6036e-07	40.951	232.009	43.860	94.081	-11.175	117.057	136.087	-11.928	-7.645	147.760	76.736	-8.461	-3.961	-4.314	0.881	144.328	0.194	-8191	255	
2031.754	1	1	0	0	0.16572	0.15819	0.26003	0.11804	0.30383	0.20188	0.094918	0.095271	0.092912	0.13681	0.19147	0.12302	0.13523	0.070814	0.29351	0.21496	-2.0854	-2.5896	-2.7438	-2.3708	-2.7625	-2.6562	-2.6333	-3.0917	-2.4271	-2.8	-2.8792	-2.6354	-2.9125	-2.6292	-2.3042	-2.8417	323.551	298.111	-4.486	37.410	209.644	257.163	-1.954	139.569	143.344	64.319	-2.297	307.918	238.350	198.854	130.656	260.978	0.00018882	0.00043997	7.5263e-05	459.47	4.341e-06	2.8388e-06	823.14	107.04	2.1713e-06	3.8332e-06	265.71	117.53	38.082	11.805	2.457e-06	46.048	5.8355e-05	4.0662e-05	1.035e-05	407.6	4.4773e-07	4.1589e-07	730.33	95.942	4.1389e-07	4.3833e-07	235.51	104.5	33.824	10.571	4.1895e-07	40.927	229.877	48.637	50.046	-11.524	131.716	103.833	-11.836	-7.545	168.296	115.140	-8.195	-3.811	-3.854	0.881	187.006	0.279	-8191	255	
2031.850	1	1	0	0	0.34212	0.10398	0.0325	0.18428	0.17637	0.0622	0.24639	0.24995	0.24621	0.13911	0.26907	0.2201	0.17243	0.20031	0.044402	0.10439	-2.0958	-2.6667	-2.8146	-2.2208	-2.7167	-2.8312	-2.5958	-2.8542	-2.4979	-2.7604	-2.8646	-2.3521	-2.7271	-2.7583	-2.3667	-3.1083	214.790	102.237	78.740	323.116	245.308	107.237	272.072	229.927	66.271	108.738	179.554	326.878	187.758	-22.209	250.109	126.322	0.0002453	0.00061151	6.6585e-05	460.98	1.9461e-06	3.7797e-06	818.57	105.71	1.8823e-06	2.1884e-06	258.06	113.68	36.537	11.433	2.444e-06	44.54	5.9003e-05	4.2324e-05	1.1042e-05	407.22	4.4571e-07	3.9267e-07	723.54	93.716	4.0556e-07	3.9673e-07	228.75	101.44	32.741	10.19	3.8942e-07	39.524	232.966	63.761	81.503	-11.494	144.846	121.741	-11.760	-7.763	141.380	73.622	-8.341	-3.794	-3.468	0.388	130.446	0.293	-8191	255	
2031.946	1	1	0	0	0.18515	0.076572	0.13776	0.065611	0.17802	0.39168	0.11804	0.066653	0.24992	0.19075	0.14461	0.11692	0.29043	0.16149	0.10659	0.24029	-2.1396	-2.6063	-2.825	-2.3521	-2.6458	-2.9271	-2.4646	-2.7062	-2.6021	-2.5458	-2.9021	-2.5292	-2.8542	-2.8083	-2.3875	-3.0208	295.541	148.413	314.741	299.710	65.880	84.444	-18.834	150.918	30.506	-23.092	6.787	-0.961	196.677	296.710	-12.407	-17.254	0.00018032	0.00034134	6.3226e-05	453.57	3.8991e-06	1.1893e-06	809.51	102.69	1.7994e-06	2.2334e-06	254.27	112.52	35.748	11.346	2.3736e-06	44.313	5.5671e-05	3.8424e-05	9.7932e-06	402	4.3201e-07	3.9153e-07	717.92	91.986	3.9498e-07	4.0605e-07	226.14	100.16	32.309	10	3.8158e-07	39.158	223.314	42.461	80.752	-11.840	136.114	3.529	-11.846	-7.707	177.569	143.935	-8.209	-4.163	-3.187	0.126	136.028	0.441	-8191	255	
2032.043	1	1	0	0	0.18015	0.14973	0.17235	0.056702	0.12132	0.074604	0.23685	0.27481	0.27032	0.035193	0.09159	0.28315	0.25966	0.22676	0.15888	0.21844	-2.3021	-2.3479	-2.8063	-2.4125	-2.7208	-2.7104	-2.45	-2.8542	-2.7417	-2.5729	-3.0104	-2.5458	-2.6625	-2.7646	-2.2542	-2.8729	210.325	-18.994	201.958	189.717	156.000	211.920	241.924	322.389	77.452	45.210	263.140	275.049	222.120	313.083	279.265	232.731	0.00018339	0.00039052	0.00011678	455.7	3.1163e-06	1.5141e-06	802.16	104.05	2.6798e-06	3.1156e-06	253.06	111.92	36.286	11.278	9.7749e-07	43.811	5.4428e-05	3.6923e-05	1.0207e-05	402.59	4.1264e-07	4.0946e-07	713.69	92.291	4.1963e-07	3.7891e-07	225.03	99.808	32.346	10.002	4.0322e-07	39.004	222.906	36.540	64.183	-12.013	134.859	89.622	-11.525	-8.245	129.975	171.103	-8.356	-3.617	-4.608	0.551	140.520	0.249	-8191	255	
2032.139	1	1	0	0	0.0098889	0.16158	0.12695	0.039841	0.22886	0.10331	0.38614	0.07652	0.24751	0.075303	0.080743	0.064689	0.17594	0.062182	0.020875	0.086405	-2.1562	-2.5062	-2.9083	-2.4	-2.5687	-2.8	-2.5854	-2.6667	-2.5792	-2.4229	-2.9271	-2.5396	-2.4896	-2.7521	-2.4104	-2.6604	98.784	139.323	145.144	94.319	219.459	306.635	217.397	-25.667	8.567	186.439	123.556	175.305	307.068	22.287	-24.997	158.545	0.00020201	0.00040046	6.7516e-05	449.66	3.9733e-06	4.3084e-06	802.75	103.64	9.588e-07	3.0099e-06	254.12	111.14	35.905	10.998	2.4925e-06	43.211	5.6372e-05	3.686e-05	1.0701e-05	399.88	4.2488e-07	4.1299e-07	716.71	92.349	3.8935e-07	3.9525e-07	224.66	99.191	32.056	9.7792	3.9032e-07	38.394	224.228	50.505	60.596	-11.210	128.262	105.613	-12.135	-7.907	194.565	113.491	-7.984	-3.742	-4.154	0.316	103.850	-0.050	-8191	255	
2032.235	1	1	0	0	0.1836	0.089271	0.18679	0.29674	0.28154	0.19618	0.14121	0.1591	0.29394	0.15838	0.15439	0.22131	0.019416	0.20957	0.096935	0.062825	-2.2833	-2.4208	-2.8542	-2.6667	-2.4521	-2.8979	-2.5167	-2.6083	-2.7667	-2.3937	-2.8688	-2.7333	-2.3667	-2.8604	-2.3792	-2.7188	84.692	302.290	83.109	241.051	232.439	142.657	215.782	315.688	9.667	169.973	259.088	290.677	18.777	-6.111	229.887	125.826	0.00020335	0.00036209	5.8538e-05	451.23	2.1189e-06	1.8974e-06	803.09	103.11	3.4128e-06	2.754e-06	252.04	111.92	36.15	11.092	1.754e-06	42.908	5.6261e-05	3.6476e-05	1.0014e-05	398.63	3.8665e-07	3.6152e-07	711.24	91.128	4.1001e-07	3.5771e-07	222.8	99.771	32.181	9.8434	3.8913e-07	38.178	232.375	54.601	88.846	-11.766	132.017	96.832	-11.897	-7.706	177.422	132.468	-8.175	-3.912	-3.820	-0.127	134.167	-0.006	-8191	255	
2032.355	1	1	0	0	0.2198	0.12738	0.18585	0.24435	0.11784	0.11319	0.12475	0.2131	0.063829	0.11238	0.19897	0.10166	0.015587	0.17653	0.10371	0.035416	-2.2854	-2.2854	-2.8396	-2.6583	-2.3208	-2.8042	-2.6917	-2.5021	-2.8604	-2.5146	-2.7875	-2.7313	-2.3771	-2.8833	-2.4104	-2.5312	183.738	-12.230	231.500	319.159	8.900	204.546	230.184	141.996	-6.084	282.288	276.649	285.285	16.517	301.361	145.479	144.675	0.00019697	0.00031833	4.1977e-05	447.68	5.2622e-06	2.7507e-06	799.19	103.02	1.7251e-06	3.3026e-06	255.16	112.79	37.297	11.127	3.501e-06	42.689	5.6814e-05	3.5967e-05	9.8106e-06	398.13	4.1158e-07	3.8629e-07	710.39	91.952	3.8665e-07	3.7028e-07	225.66	100.77	33.051	9.947	4.1089e-07	37.925	223.584	82.056	34.046	-11.511	136.502	124.504	-11.557	-8.103	186.787	128.170	-8.247	-3.820	-4.046	0.044	141.066	-0.066	-8191	255	
2032.427	1	1	0	0	0.13892	0.26255	0.13768	0.15934	0.077108	0.11982	0.22678	0.31356	0.066035	0.18266	0.2617	0.41242	0.10736	0.0023074	0.158	0.24699	-2.3667	-2.2521	-2.7833	-2.8083	-2.4729	-2.9229	-2.7333	-2.3667	-3.0125	-2.5187	-2.7979	-2.7333	-2.4333	-2.8438	-2.4542	-2.7167	254.050	164.317	272.257	23.270	141.459	245.764	289.501	124.779	232.015	258.347	246.106	24.216	123.458	180.000	328.682	17.117	0.0001735	0.0003321	9.9643e-05	446.47	3.2332e-06	4.0622e-06	809.25	103.76	3.6493e-06	1.4752e-06	256.75	114.32	37.675	11.076	4.2891e-06	42.87	5.5172e-05	3.5261e-05	1.0165e-05	397.91	4.2696e-07	4.0229e-07	715.14	92.161	3.9706e-07	3.6628e-07	227.06	101.7	33.336	9.8961	3.7283e-07	38.138	220.890	63.693	39.340	-11.601	111.456	113.323	-12.010	-7.513	138.339	138.403	-8.392	-3.934	-4.317	0.208	106.800	-0.124	-8191	255	
2032.523	1	1	0	0	0.22109	0.09652	0.11144	0.12422	0.25213	0.091685	0.15705	0.1006	0.19376	0.058224	0.24573	0.066274	0.090841	0.11176	0.072569	0.23024	-2.4417	-2.2771	-2.7438	-2.6437	-2.4021	-2.8625	-2.8917	-2.5187	-2.8104	-2.5146	-2.7875	-3.0333	-2.3979	-2.95	-2.7771	-2.45	283.978	238.954	59.378	144.912	268.204	109.825	323.123	208.757	266.533	333.768	209.247	137.482	167.424	50.787	45.874	233.257	0.00020914	0.00029937	6.4568e-05	453.72	4.5648e-06	1.9813e-06	798.45	103.82	2.2026e-06	2.5998e-06	253.52	112.84	36.585	10.951	2.1578e-06	42.136	5.3227e-05	3.3147e-05	1.0272e-05	400.4	4.0327e-07	3.6665e-07	710.64	91.734	4.0505e-07	4.0148e-07	224.32	100.6	32.674	9.8107	3.7101e-07	37.465	235.690	43.109	66.359	-11.838	145.831	137.789	-11.886	-7.949	204.393	131.818	-8.355	-4.163	-4.058	0.175	132.264	0.167	-8191	255	
2032.644	1	1	0	0	0.31794	0.21176	0.11485	0.18793	0.35982	0.067914	0.13101	0.054707	0.11258	0.072304	0.24577	0.19749	0.2219	0.05738	0.29678	0.078727	-2.3583	-2.3917	-2.5062	-2.8625	-2.5042	-2.8375	-2.5521	-2.4646	-2.975	-2.5479	-2.5625	-2.9729	-2.3646	-2.6271	-2.6625	-2.6646	177.047	274.803	99.606	260.794	182.720	180.759	15.673	247.709	145.451	286.342	100.269	236.227	181.294	155.169	95.512	223.897	0.00018641	0.0003547	5.1907e-05	445.89	3.4846e-06	1.9188e-06	799.49	103.26	3.2726e-06	3.5393e-06	255.71	113.67	37.04	11.068	4.6217e-06	42.555	5.7111e-05	3.5889e-05	1.0231e-05	397.15	3.9822e-07	3.798e-07	711.72	92.014	4.0466e-07	3.8359e-07	226.72	101.39	33.118	9.9226	3.8686e-07	37.755	231.454	65.522	30.130	-11.770	121.854	139.874	-11.730	-7.591	181.621	152.500	-7.849	-3.812	-4.289	0.438	127.524	0.452	-8191	255	
2032.738	1	1	0	0	0.045956	0.10391	0.091913	0.12822	0.12215	0.1588	0.09787	0.14276	0.17344	0.062032	0.14404	0.031351	0.12971	0.10569	0.17702	0.17431	-2.5167	-2.3688	-2.6354	-2.8563	-2.4729	-2.6542	-2.9104	-2.4333	-2.825	-2.6479	-2.5938	-2.8667	-2.3146	-2.7375	-2.5875	-2.3375	0.185	104.519	30.871	226.775	137.808	133.348	155.799	222.585	242.166	50.545	43.200	236.176	305.782	59.823	7.595	295.242	0.00017895	0.00035898	5.2797e-05	444.36	3.7172e-06	4.2885e-06	806.44	102.77	2.2426e-06	3.243e-06	256.54	113.77	36.902	10.99	2.2953e-06	42.449	5.8744e-05	3.6538e-05	1.0785e-05	397.35	4.0916e-07	3.8879e-07	714.64	91.562	4.1732e-07	3.64e-07	227.18	101.37	33.105	9.8664	4.0748e-07	37.73	236.363	50.193	56.235	-11.561	125.396	114.676	-11.963	-7.898	126.691	138.999	-8.310	-3.772	-3.600	0.027	174.864	-0.201	-8191	255	
2032.834	1	1	0	0	0.18249	0.13121	0.10572	0.32132	0.069333	0.36854	0.18771	0.11289	0.1852	0.0443	0.078327	0.22332	0.1886	0.056116	0.22472	0.25098	-2.4396	-2.625	-2.4292	-2.8688	-2.4125	-2.5312	-2.8833	-2.3083	-2.7958	-2.625	-2.5292	-2.8625	-2.6479	-2.6958	-2.8375	-2.3479	68.737	286.960	125.631	248.723	187.557	44.258	14.759	273.603	105.037	226.003	250.112	154.123	327.705	22.020	268.069	225.049	0.00020737	0.00041984	3.3639e-05	453.61	3.7869e-06	1.395e-06	806.82	104.65	1.4651e-06	2.3964e-06	256.12	113.58	36.989	11.078	8.5068e-07	42.152	5.6852e-05	3.4087e-05	9.7614e-06	399.37	4.182e-07	3.794e-07	716.22	92.142	3.9464e-07	3.6154e-07	226.91	101.13	32.946	9.8528	3.8044e-07	37.538	237.503	42.993	51.209	-11.753	144.208	64.816	-11.668	-7.775	179.863	105.950	-8.243	-3.873	-4.623	0.254	214.687	-0.079	-8191	255	
2032.955	1	1	0	0	0.12496	0.23007	0.29261	0.16975	0.077408	0.050822	0.34009	0.1723	0.2457	0.061425	0.23121	0.32737	0.051814	0.11957	0.11665	0.13981	-2.3542	-2.5521	-2.3521	-2.85	-2.4229	-2.475	-2.8771	-2.3063	-2.7792	-2.8104	-2.2771	-2.9417	-2.7521	-2.55	-2.85	-2.5396	321.105	70.641	216.835	273.335	14.123	301.431	253.107	300.189	88.461	281.995	254.986	284.330	145.299	58.275	28.066	273.373	0.00018179	0.00023572	5.3965e-05	445.52	3.4705e-06	3.0273e-06	796.61	102.94	3.5226e-06	3.1284e-06	256.42	112.83	36.927	11.176	1.3705e-06	42.623	5.6252e-05	3.3506e-05	1.0042e-05	397.77	3.9058e-07	3.802e-07	710.02	91.539	4.0207e-07	3.8502e-07	225.74	100.95	33.039	9.9161	3.8112e-07	37.742	225.176	81.451	55.035	-11.507	124.747	79.243	-11.780	-7.590	133.455	130.797	-8.119	-3.812	-3.966	0.218	187.422	-0.021	-8191	255	
2033.027	1	1	0	0	0.30845	0.25411	0.09599	0.36142	0.27462	0.10387	0.4752	0.24013	0.083666	0.041966	0.12033	0.39405	0.14356	0.19195	0.21023	0.31045	-2.1458	-2.5917	-2.3521	-2.9021	-2.5021	-2.525	-2.8396	-2.4875	-2.5563	-2.6937	-2.4583	-3.0021	-2.6479	-2.3417	-2.8104	-2.5146	237.591	137.340	46.652	190.241	295.366	105.125	-8.417	295.947	24.256	93.685	-22.496	269.124	245.129	49.367	-11.929	292.579	0.00017236	0.00014319	5.7458e-05	448.5	4.5302e-06	4.9184e-06	802.98	103.03	2.9851e-06	2.3383e-06	257.48	113.34	37.226	11.118	3.0676e-06	42.569	5.8532e-05	3.3937e-05	9.1718e-06	398.96	3.6958e-07	3.8071e-07	713.75	91.801	4.1237e-07	3.5994e-07	227.06	101.29	33.078	9.9461	4.1418e-07	37.989	223.146	61.835	81.035	-11.475	122.025	79.089	-11.806	-7.735	159.203	133.865	-8.311	-3.995	-3.946	-0.288	119.137	0.289	-8191	255	
2033.123	1	1	0	0	0.040791	0.2896	0.26153	0.21242	0.084057	0.27351	0.33645	0.21669	0.26896	0.10785	0.062597	0.069901	0.30238	0.11058	0.20164	0.23606	-2.0292	-2.7104	-2.4021	-2.9167	-2.7833	-2.3312	-3.0021	-2.5667	-2.5958	-2.7271	-2.3792	-2.7979	-2.6229	-2.475	-2.8812	-2.6437	246.351	198.746	60.390	251.067	330.418	64.949	226.980	68.569	101.279	126.047	-16.175	-18.069	255.487	79.339	31.938	82.708	0.00020154	0.00013175	8.9555e-05	450.83	1.6778e-06	2.182e-06	808.92	103.24	3.3107e-06	2.2469e-06	259.81	114.14	37.487	11.351	2.1656e-06	43.165	5.7438e-05	3.2098e-05	1.0116e-05	400.3	4.0787e-07	3.5822e-07	717.72	92.178	4.1282e-07	3.8616e-07	229.61	102.11	33.264	10.1	3.8385e-07	38.226	221.623	42.701	60.503	-11.718	140.202	126.129	-12.102	-7.582	191.588	143.162	-8.385	-3.714	-4.672	0.138	153.183	-0.046	-8191	255	
2033.244	1	1	0	0	0.15814	0.069331	0.12813	0.19683	0.17974	0.24836	0.13139	0.11066	0.25646	0.21542	0.24503	0.15557	0.19555	0.19145	0.10255	0.041992	-2.1896	-2.7375	-2.4208	-2.6771	-2.5792	-2.4083	-2.8417	-2.3812	-2.6208	-2.7521	-2.4521	-2.6896	-2.8854	-2.3354	-2.8354	-2.8	66.596	260.527	133.378	284.849	52.009	-25.202	319.347	196.564	273.113	19.440	2.446	-11.063	166.350	243.574	213.424	62.775	0.00019659	0.00026041	0.00010624	451.93	2.5551e-06	3.6343e-06	805.03	102.87	2.0683e-06	1.4492e-06	257.35	113.61	37.092	11.077	3.6815e-06	42.778	5.533e-05	3.6798e-05	9.2643e-06	399.99	4.1708e-07	3.5777e-07	713.69	91.836	3.696e-07	3.3611e-07	227.69	101.52	33.085	9.9611	4.1151e-07	38.066	239.917	41.535	68.932	-11.278	126.196	116.881	-11.784	-7.856	167.023	92.462	-8.101	-3.775	-3.868	0.082	139.496	0.161	-8191	255	
2033.340	1	1	0	0	0.11371	0.12317	0.053498	0.14301	0.35918	0.16494	0.036995	0.14344	0.097237	0.14017	0.30283	0.20914	0.21959	0.18703	0.16816	0.13345	-2.0208	-2.7667	-2.4021	-2.7625	-2.6458	-2.3312	-2.95	-2.6417	-2.4042	-2.8521	-2.6625	-2.6021	-2.8542	-2.4062	-2.7229	-2.8125	194.974	35.503	-23.162	4.363	270.968	19.177	63.251	299.958	162.088	230.130	-6.695	230.051	-25.328	267.306	279.079	64.209	0.00021543	0.00015724	4.3618e-05	443.7	2.491e-06	1.9721e-06	804.61	103.16	2.7623e-06	8.1853e-07	258.01	114.59	37.341	11.348	2.8441e-06	43.141	5.7505e-05	3.6004e-05	9.7773e-06	397.56	3.8867e-07	3.8139e-07	712.62	91.978	3.9751e-07	4.0685e-07	227.79	101.9	33.283	10.095	4.1872e-07	38.397	227.785	100.324	95.262	-11.738	94.949	96.406	-11.996	-7.915	143.438	135.334	-8.420	-3.795	-4.872	0.519	162.069	-0.237	-8191	255	
2033.436	1	1	0	0	0.082839	0.068766	0.20356	0.11079	0.16616	0.11572	0.20808	0.078512	0.21986	0.07592	0.2171	0.11296	0.070722	0.31077	0.03281	0.032626	-1.875	-2.7604	-2.2583	-2.3708	-2.8083	-2.275	-2.7083	-2.6021	-2.3271	-2.9125	-2.3417	-2.5563	-2.825	-2.4	-2.6792	-2.7313	271.253	246.750	213.320	259.624	282.119	-7.350	295.465	125.984	170.963	319.883	57.186	303.650	55.905	178.172	142.039	57.661	0.00017116	0.00026845	8.0223e-05	447.73	2.9362e-06	1.396e-06	812.27	103.98	2.4215e-06	3.8785e-06	258.49	114.72	37.739	11.292	1.8994e-06	43.534	5.3126e-05	3.4461e-05	1.0033e-05	399.04	4.0243e-07	3.7069e-07	716.72	92.199	4.3393e-07	4.1747e-07	229.46	102.35	33.619	10.119	4.0856e-07	38.879	239.600	36.228	48.253	-11.148	176.461	188.319	-11.940	-7.459	142.634	117.206	-8.519	-4.145	-4.089	-0.292	138.360	0.256	-8191	255	
2033.556	1	1	0	0	0.17665	0.10442	0.066313	0.016636	0.04514	0.24153	0.268	0.056393	0.075788	0.17126	0.19133	0.19334	0.0639	0.045094	0.0646	0.15975	-1.9229	-2.6979	-2.5167	-2.4813	-2.8563	-2.5812	-2.7792	-2.7021	-2.4917	-2.9188	-2.5333	-2.4917	-2.7979	-2.4396	-2.7125	-2.8187	-10.708	319.404	3.356	93.805	269.507	203.001	209.934	280.895	223.838	208.212	0.550	-22.805	190.072	83.298	242.473	223.286	0.00018805	0.00045574	5.8898e-05	453.67	2.7613e-06	2.2037e-06	811.86	104.01	1.8094e-06	1.3221e-06	257.51	114.1	37.031	11.101	2.8908e-06	42.841	5.7447e-05	3.6123e-05	9.4738e-06	402.17	4.0624e-07	3.4923e-07	720.63	92.963	3.9234e-07	3.8136e-07	228.83	101.79	33.138	9.9686	4.2991e-07	38.06	225.074	68.959	87.104	-11.329	122.515	93.409	-11.656	-7.649	178.130	104.739	-8.013	-3.982	-4.140	-0.165	109.372	-0.112	-8191	255	
2033.651	1	1	0	0	0.28108	0.070489	0.23855	0.27972	0.082763	0.25447	0.24611	0.18168	0.11867	0.043973	0.28134	0.21172	0.085942	0.34304	0.26853	0.20011	-2.0021	-2.7417	-2.6688	-2.3563	-2.8646	-2.5958	-2.6813	-2.9604	-2.1958	-2.8042	-2.575	-2.7062	-2.7687	-2.5646	-2.5479	-2.8417	246.375	120.050	117.746	309.047	92.416	82.315	290.492	89.538	179.165	229.530	154.341	7.826	226.746	115.484	301.586	211.905	0.00021094	0.00037404	7.5479e-05	449.26	2.7784e-06	3.4785e-06	805.21	103.34	2.0833e-06	2.5671e-06	257.47	113.86	37.186	11.236	3.3789e-06	42.876	5.4634e-05	3.6507e-05	9.5678e-06	398.75	3.9659e-07	3.7308e-07	713.5	92.21	4.046e-07	3.8673e-07	227.14	101.71	33.15	10	4.0594e-07	38.046	221.432	18.889	30.312	-11.582	158.199	132.490	-12.055	-7.747	156.893	127.546	-8.077	-3.988	-4.568	0.098	154.199	0.240	-8191	255	
2033.723	1	1	0	0	0.17704	0.1141	0.10494	0.075303	0.19011	0.047511	0.1964	0.069195	0.044428	0.082181	0.074145	0.23512	0.060729	0.086525	0.035145	0.22053	-1.9646	-2.8542	-2.6562	-2.4813	-2.9667	-2.5646	-2.6521	-2.9333	-2.3854	-2.8167	-2.6958	-2.4604	-2.9292	-2.6	-2.6917	-3.0271	101.470	201.299	157.267	236.195	29.027	171.807	236.230	13.206	186.329	170.982	123.821	-15.752	236.257	-2.238	227.014	296.835	0.00018148	0.00037012	8.928e-05	447.28	3.8123e-06	2.5903e-06	808.42	103.9	1.6878e-06	2.9073e-06	257.22	114.41	37.03	11.038	4.2845e-06	42.649	5.3515e-05	3.5739e-05	9.7745e-06	397.42	3.9586e-07	3.4718e-07	716.23	92.627	4.0055e-07	3.9353e-07	228.11	101.92	33.326	9.9202	3.9078e-07	37.878	226.299	29.431	71.637	-11.802	130.410	131.470	-11.681	-7.513	208.351	157.547	-8.326	-3.988	-4.765	-0.504	132.674	0.169	-8191	255	
2033.819	1	1	0	0	0.069259	0.20382	0.23958	0.25362	0.12813	0.12329	0.18426	0.17911	0.032634	0.17001	0.073765	0.096004	0.19892	0.27866	0.15084	0.25072	-1.6688	-2.5979	-2.625	-2.3979	-2.7479	-2.6083	-2.5729	-2.7833	-2.3917	-2.5125	-2.7208	-2.6229	-2.8167	-2.6771	-2.4521	-2.925	92.351	265.558	12.772	227.683	242.867	255.994	316.607	252.356	125.174	282.921	290.174	195.966	221.934	19.383	35.960	291.111	0.00021753	0.00020764	9.2565e-05	450.28	2.6911e-06	1.6466e-06	805.05	103.38	1.9348e-06	3.0424e-06	256.76	114.29	37.166	11.055	2.1692e-06	42.385	5.5167e-05	3.4534e-05	8.9608e-06	399.67	3.8648e-07	3.5435e-07	713.17	91.957	3.9042e-07	3.957e-07	227.75	101.97	33.149	9.9192	3.9742e-07	37.74	224.133	64.928	35.841	-11.296	148.752	144.452	-11.771	-7.888	179.488	142.336	-8.352	-4.206	-4.413	0.634	168.839	0.058	-8191	255	
2033.917	1	1	0	0	0.12746	0.18921	0.25951	0.099903	0.019884	0.17031	0.20655	0.20322	0.14028	0.1314	0.23289	0.11823	0.22267	0.20039	0.18504	0.31708	-2.0354	-2.6292	-2.6667	-2.3167	-2.7417	-2.5583	-2.5812	-2.8875	-2.4437	-2.6125	-2.9354	-2.4667	-2.6396	-2.5396	-2.3333	-3.0812	303.754	247.773	323.880	42.716	98.606	277.656	291.666	11.075	235.219	301.149	244.838	324.610	293.170	303.151	27.700	283.259	0.00017651	0.00031773	6.4388e-05	448.33	3.3254e-06	3.5952e-06	798.38	103.24	1.6676e-06	2.6715e-06	253.53	112.87	36.678	11.031	3.255e-06	41.9	5.2003e-05	3.3319e-05	9.2238e-06	398.24	4.1405e-07	3.8475e-07	711.24	91.545	3.7787e-07	4.0153e-07	224.36	100.54	32.88	9.7866	3.9049e-07	37.395	234.204	75.642	72.381	-11.641	100.877	112.346	-11.621	-7.877	144.343	100.984	-8.110	-4.185	-4.695	-0.014	111.173	0.157	-8191	255	
2034.035	1	1	0	0	0.14801	0.24474	0.12137	0.13159	0.075967	0.25328	0.15471	0.11775	0.056241	0.2602	0.17701	0.14231	0.17564	0.25568	0.22643	0.26982	-2.1646	-2.5375	-2.775	-2.3104	-2.6333	-2.6063	-2.3583	-2.8458	-2.4625	-2.5687	-3.0083	-2.4979	-2.7562	-2.8729	-2.3396	-2.8396	28.410	163.040	201.496	202.132	74.804	102.075	294.295	33.442	96.925	329.240	296.408	286.909	170.433	96.036	36.531	283.540	0.00018521	0.00014285	7.6134e-05	441.78	2.7404e-06	3.6906e-06	799.78	102.47	2.8842e-06	2.5786e-06	254.49	113.93	36.891	11.174	4.7123e-06	42.203	5.4893e-05	3.5058e-05	9.8814e-06	395.56	4.2017e-07	3.5321e-07	710.41	91.552	3.6104e-07	3.8159e-07	225.36	101.24	33.007	9.9712	4.1231e-07	37.696	224.554	18.273	21.455	-11.482	131.577	85.257	-11.761	-7.590	175.760	162.091	-8.443	-4.201	-3.606	0.186	128.053	0.127	-8191	255	
2034.132	1	1	0	0	0.25469	0.13912	0.24481	0.098935	0.25404	0.12644	0.22459	0.051814	0.10416	0.25197	0.15841	0.049466	0.21614	0.27537	0.2322	0.29243	-2.2687	-2.4396	-2.7333	-2.5333	-2.5854	-2.5875	-2.4771	-2.7271	-2.6417	-2.3937	-2.9667	-2.5604	-2.575	-2.8417	-2.3667	-2.8312	248.012	49.185	-16.919	48.613	287.461	89.189	316.998	307.287	161.147	192.523	147.476	298.163	233.821	16.673	169.261	311.582	0.00017665	0.00035909	6.2997e-05	448.78	2.5661e-06	3.1231e-06	801.41	103.59	2.1499e-06	2.5659e-06	256.53	113.25	37.494	11	1.7914e-06	42.627	5.1144e-05	3.6798e-05	9.7383e-06	397.15	4.008e-07	3.9027e-07	714.28	92.227	4.0747e-07	3.9656e-07	227.12	101.15	33.14	9.8415	3.6215e-07	37.75	223.814	59.163	64.863	-11.423	123.537	120.546	-12.018	-8.110	130.645	126.858	-8.388	-3.891	-4.433	-0.155	182.685	0.099	-8191	255	
2034.228	1	1	0	0	0.074014	0.1633	0.18472	0.26357	0.030485	0.25443	0.22115	0.12477	0.22968	0.092103	0.095915	0.12107	0.07975	0.026817	0.20947	0.091075	-2.3479	-2.3625	-2.8688	-2.5292	-2.5687	-2.8917	-2.3292	-2.7604	-2.6833	-2.3083	-2.8438	-2.7	-2.5583	-2.8646	-2.3479	-2.9021	228.758	283.390	-16.519	37.839	75.729	232.862	291.167	277.509	96.012	1.579	146.630	216.462	307.568	277.833	11.001	257.572	0.00019014	0.00032012	8.2957e-05	447.81	4.1793e-06	1.1058e-06	808.27	103.45	1.6373e-06	3.2135e-06	254.3	113.29	36.972	11.12	5.2506e-06	42.359	5.6396e-05	3.1979e-05	9.0634e-06	398.5	4.4436e-07	3.6722e-07	714.99	92.139	3.7607e-07	3.7725e-07	225.46	100.94	32.989	9.9125	3.9566e-07	37.672	229.328	39.250	55.183	-11.409	135.497	149.826	-11.633	-7.135	141.683	123.348	-8.348	-4.136	-4.615	0.006	133.395	-0.144	-8191	255	
2034.324	1	1	0	0	0.15312	0.057926	0.10466	0.062531	0.050925	0.25771	0.16468	0.09868	0.32004	0.1654	0.094089	0.26024	0.24533	0.30176	0.10436	0.26452	-2.3979	-2.5458	-2.7458	-2.6562	-2.3021	-2.8417	-2.2792	-2.5812	-2.7396	-2.4104	-2.775	-2.5583	-2.4188	-2.9292	-2.3708	-2.6625	183.005	162.412	191.586	270.546	291.193	-5.248	235.939	107.575	38.957	-1.448	205.122	298.425	276.294	311.028	230.174	241.311	0.00016971	0.00013694	7.4095e-05	446.22	2.0411e-06	2.4575e-06	798.24	104.07	1.8752e-06	1.9229e-06	254.04	113.08	36.82	11.061	2.6393e-06	42.34	5.653e-05	3.5303e-05	9.4652e-06	396.8	4.036e-07	3.8817e-07	709.71	91.874	3.7556e-07	3.652e-07	225.18	100.93	32.905	9.9053	4.0248e-07	37.698	228.475	67.161	55.054	-11.581	104.271	120.509	-12.314	-7.723	139.190	94.224	-8.197	-3.966	-3.845	-0.212	119.525	-0.081	-8191	255	
2034.420	1	1	0	0	0.14181	0.10497	0.11925	0.083217	0.1835	0.22232	0.3311	0.091019	0.10421	0.15723	0.099173	0.033002	0.17101	0.37591	0.08088	0.27791	-2.3125	-2.3167	-2.7771	-2.7229	-2.4333	-2.8583	-2.5167	-2.5708	-2.875	-2.4333	-2.6646	-2.5646	-2.3271	-2.8292	-2.5125	-2.6875	-8.493	271.312	11.679	82.421	221.153	223.872	266.000	152.138	6.114	328.257	325.911	243.890	325.633	291.575	188.546	277.576	0.00021847	0.00027719	5.9567e-05	451.35	3.2472e-06	3.7635e-06	808.8	103.69	2.3792e-06	3.0507e-06	255.84	114.49	37.137	11.163	2.065e-06	42.706	5.6804e-05	3.429e-05	9.5895e-06	399	4.0344e-07	3.9409e-07	713.7	92.609	3.8204e-07	3.5605e-07	227.49	101.88	33.109	9.9557	3.797e-07	37.861	228.543	71.645	25.769	-11.713	123.812	111.633	-11.738	-7.416	149.598	157.047	-8.581	-3.854	-4.201	0.388	103.351	0.235	-8191	255	
2034.516	1	1	0	0	0.20467	0.023671	0.13777	0.17969	0.10052	0.036753	0.58259	0.16792	0.27501	0.12299	0.31663	0.19103	0.17737	0.17893	0.052489	0.31961	-2.4062	-2.3312	-2.8896	-2.6667	-2.575	-2.875	-2.7188	-2.5021	-2.7438	-2.4375	-2.5479	-2.5521	-2.2917	-2.7833	-2.5521	-2.3187	276.678	163.283	264.790	111.627	148.974	153.795	260.918	143.448	-8.252	203.616	251.813	54.819	141.818	39.194	217.942	316.037	0.00017134	0.00020696	7.5437e-05	447.71	3.465e-06	2.5715e-06	805.03	103.75	1.6383e-06	3.0457e-06	258.27	114.06	37.269	11.155	3.5851e-06	42.773	5.6276e-05	3.4051e-05	1.0201e-05	398.53	3.9513e-07	3.8743e-07	714.54	92.389	4.0168e-07	3.696e-07	228.96	101.9	33.251	10.012	3.7783e-07	38.169	235.008	60.450	78.159	-11.417	169.514	108.967	-11.585	-7.866	163.053	134.127	-7.991	-3.862	-3.869	0.269	143.415	-0.194	-8191	255	
2034.637	1	1	0	0	0.10105	0.16952	0.20404	0.33292	0.26503	0.14009	0.1577	0.20405	0.1927	0.1763	0.089537	0.17613	0.27849	0.058995	0.15892	0.47762	-2.3771	-2.375	-2.5979	-2.8187	-2.2292	-2.7	-2.7292	-2.4958	-2.7854	-2.4562	-2.7625	-2.9	-2.4313	-2.5771	-2.5812	-2.4521	104.166	90.858	290.701	332.908	203.360	286.148	253.840	244.997	46.976	80.790	91.403	267.328	150.446	203.293	-4.457	315.031	0.00018867	0.00025368	5.9252e-05	445.82	3.7127e-06	3.067e-06	796.75	102.07	6.1875e-07	2.3393e-06	254.99	113.03	36.599	11.077	3.0368e-06	41.939	5.9502e-05	3.2799e-05	1.0195e-05	397.11	3.9215e-07	3.6232e-07	707.63	91.217	3.6583e-07	3.4114e-07	224.86	100.75	32.67	9.8583	3.8055e-07	37.587	225.194	34.352	49.015	-11.935	139.774	106.504	-11.676	-7.761	220.258	113.643	-8.147	-3.894	-4.045	0.253	96.755	0.086	-8191	255	
2034.731	1	1	0	0	0.17446	0.072972	0.18135	0.1151	0.19971	0.14743	0.18736	0.14781	0.1092	0.2563	0.24821	0.23014	0.11172	0.087041	0.15813	0.12661	-2.4375	-2.4542	-2.5438	-2.8479	-2.3271	-2.6896	-2.6167	-2.2833	-2.8438	-2.5875	-2.5979	-2.95	-2.425	-2.8563	-2.9583	-2.4437	186.599	-19.760	51.327	268.748	264.356	231.664	288.414	-4.473	256.540	219.107	-22.549	295.786	20.732	67.782	140.803	311.677	0.00019438	0.00029287	9.366e-05	445	2.7242e-06	3.1469e-06	795.83	101.84	2.5654e-06	1.8986e-06	251.84	112.3	35.903	10.958	4.5098e-06	42.38	5.5095e-05	3.5277e-05	9.7354e-06	395.55	3.6049e-07	4.1026e-07	708.05	91.331	4.1502e-07	3.6103e-07	224.45	99.83	32.481	9.741	4.0004e-07	37.545	237.537	105.042	56.367	-12.128	112.407	125.523	-11.898	-7.446	138.321	144.981	-8.426	-4.110	-3.884	-0.133	150.916	-0.538	-8191	255	
2034.827	1	1	0	0	0.16352	0.22568	0.20239	0.27366	0.095204	0.12572	0.27726	0.060368	0.16173	0.025596	0.22341	0.24875	0.11692	0.092267	0.20269	0.11096	-2.2271	-2.575	-2.5604	-2.8896	-2.4271	-2.7604	-3.0146	-2.4688	-2.9792	-2.725	-2.5729	-3.05	-2.5542	-2.6937	-2.7875	-2.5979	246.450	247.677	320.881	240.403	-5.394	322.296	236.432	66.259	146.481	252.714	284.225	-10.494	214.719	312.404	82.504	200.707	0.00017222	0.00021176	9.5571e-05	446.45	3.0223e-06	1.7319e-06	800.15	102.59	2.3559e-06	2.1688e-06	251.09	110.28	35.759	10.755	2.1318e-06	41.77	5.5344e-05	3.3288e-05	1.0004e-05	396.44	3.6285e-07	4.1931e-07	709.96	91.034	4.2183e-07	3.5788e-07	222.49	98.667	31.839	9.5962	3.7096e-07	37.025	234.835	53.942	92.272	-11.623	139.173	101.086	-12.091	-7.905	135.302	111.300	-8.065	-3.916	-3.968	-0.185	129.575	-0.072	-8191	255	
2034.924	1	1	0	0	0.067502	0.23891	0.12539	0.42139	0.16659	0.06349	0.12229	0.12047	0.13758	0.13853	0.1034	0.26192	0.31642	0.14981	0.096766	0.15721	-2.3917	-2.5667	-2.3187	-2.9083	-2.4771	-2.5333	-2.7938	-2.2687	-2.7938	-2.6146	-2.575	-3.0833	-2.5354	-2.5667	-2.8292	-2.4896	-15.360	69.244	204.673	262.417	262.947	78.820	299.716	76.395	252.244	172.176	278.673	-9.706	272.996	100.161	157.126	321.115	0.00017928	0.00031825	4.7228e-05	445.96	1.4301e-06	2.8258e-06	793.95	100.47	8.1027e-07	2.9394e-06	248.52	109.79	35.121	10.658	2.3159e-06	41.389	5.5897e-05	3.2919e-05	9.1602e-06	396.21	3.9277e-07	3.9551e-07	708.02	89.825	3.9751e-07	3.2669e-07	220.25	97.136	31.344	9.4021	3.8152e-07	36.494	222.691	44.878	43.538	-11.969	163.783	112.375	-12.004	-7.961	129.359	92.649	-8.682	-4.357	-3.930	0.034	91.769	-0.061	-8191	255	
2035.020	1	1	0	0	0.018348	0.18138	0.2371	0.21255	0.16018	0.076545	0.20863	0.23659	0.19481	0.17319	0.22228	0.14038	0.083372	0.37943	0.24793	0.2979	-2.3375	-2.6208	-2.2771	-2.8833	-2.4938	-2.6188	-2.9708	-2.1792	-2.7062	-2.8229	-2.4437	-2.7771	-2.4917	-2.5062	-2.6771	-2.4625	217.888	282.079	271.003	239.098	33.449	3.606	109.614	211.080	261.561	174.782	328.812	294.211	25.023	309.833	321.969	274.730	0.0002051	0.00029473	5.232e-05	440.59	1.582e-06	3.0944e-06	788.81	99.155	1.9017e-06	2.7875e-06	244.48	108.95	35.043	10.441	5.1455e-06	40.939	5.3895e-05	3.3547e-05	8.5835e-06	391.38	3.7065e-07	3.6801e-07	701.95	88.251	3.7855e-07	3.5263e-07	217.28	96.517	31.233	9.3764	3.8794e-07	36.439	233.155	62.744	71.298	-11.762	89.246	105.365	-11.703	-8.456	182.731	129.684	-8.367	-3.721	-4.749	0.508	127.844	0.150	-8191	255	
2035.116	1	1	0	0	0.26873	0.30392	0.17484	0.13728	0.10927	0.18573	0.14591	0.097396	0.10353	0.10831	0.021131	0.047843	0.11332	0.18253	0.10016	0.04509	-2.3187	-2.5896	-2.2583	-2.8187	-2.6437	-2.3937	-2.8812	-2.5292	-2.6063	-2.7562	-2.5125	-2.8646	-2.4375	-2.6042	-2.8688	-2.6813	153.374	10.797	103.797	324.874	189.583	207.057	203.206	213.731	25.823	97.717	80.212	22.667	57.219	161.321	112.102	40.271	0.00016237	0.0003397	4.7246e-05	441.19	3.8466e-06	2.8519e-06	788.68	100.08	2.8928e-06	2.3613e-06	246.69	109.7	35.254	10.558	4.7941e-06	40.977	5.5287e-05	3.5116e-05	9.2628e-06	391.47	3.8491e-07	3.4553e-07	700.42	89.031	4.0483e-07	3.3543e-07	219.07	97.478	31.474	9.4304	3.7374e-07	36.415	232.227	56.728	72.450	-11.730	116.974	76.803	-11.996	-7.875	192.930	118.488	-7.890	-3.848	-3.354	0.388	114.124	0.013	-8191	255	
2035.212	1	1	0	0	0.09395	0.1873	0.1353	0.29568	0.13072	0.25736	0.26679	0.1389	0.23681	0.17334	0.13032	0.10206	0.17828	0.27902	0.17456	0.13098	-2.2479	-2.5667	-2.3667	-2.8833	-2.525	-2.4417	-2.9833	-2.5208	-2.525	-2.9646	-2.5979	-2.7687	-2.6188	-2.6396	-2.65	-2.7021	322.059	330.342	285.694	11.568	118.956	14.354	319.800	140.938	292.901	246.377	256.266	65.602	49.274	182.991	170.910	321.659	0.00018022	0.00024175	4.6909e-05	442.36	2.5786e-06	1.3085e-06	792.95	100.54	2.4845e-06	2.4898e-06	251.39	110.45	35.674	10.722	2.5261e-06	41.481	5.4605e-05	3.4934e-05	8.1398e-06	393.03	3.8272e-07	3.7991e-07	704.3	89.714	3.965e-07	3.7057e-07	222.08	98.44	31.865	9.5707	3.939e-07	37.024	236.894	32.765	29.627	-11.551	165.763	144.338	-11.628	-7.529	176.899	131.829	-8.118	-3.761	-4.059	-0.003	141.640	0.045	-8191	255	
2035.333	1	1	0	0	0.40473	0.084976	0.153	0.24203	0.17968	0.091653	0.21586	0.26329	0.26649	0.2253	0.069739	0.13987	0.066086	0.21467	0.038713	0.31588	-2.2125	-2.9167	-2.475	-2.6417	-2.8083	-2.3604	-3.0292	-2.7271	-2.6312	-2.9437	-2.5521	-2.7146	-2.8625	-2.5583	-2.8646	-2.8312	260.845	144.395	234.303	234.915	192.695	39.632	138.837	245.457	61.253	-24.198	27.871	64.783	194.547	301.282	187.715	266.048	0.00017112	0.00025099	7.1104e-05	444.42	1.8469e-06	3.4103e-06	798.43	100.67	2.2343e-06	2.3854e-06	248.52	111.42	35.701	10.83	1.6957e-06	41.344	5.7226e-05	3.2638e-05	8.5648e-06	393.71	3.8996e-07	3.4359e-07	703.75	89.234	3.8423e-07	3.6794e-07	220.91	98.831	31.947	9.6219	3.78e-07	37.049	231.686	99.987	58.064	-11.556	110.862	92.459	-11.504	-7.947	170.000	159.944	-8.242	-3.716	-4.087	-0.045	124.698	0.246	-8191	255	
2035.429	1	1	0	0	0.029725	0.22029	0.13655	0.10164	0.39414	0.21429	0.39668	0.27733	0.21972	0.38946	0.14227	0.17069	0.18694	0.10836	0.24003	0.091806	-1.9312	-2.9333	-2.4417	-2.5979	-2.9	-2.3521	-2.9792	-2.6604	-2.2104	-2.7521	-2.7188	-2.6	-2.7021	-2.3375	-2.8625	-2.7167	-5.278	213.919	85.701	127.910	203.295	286.241	256.168	11.725	-24.788	129.349	297.715	270.492	294.773	325.736	101.745	323.309	0.00020128	0.00014639	6.2813e-05	444.01	3.406e-06	1.8188e-06	797.71	101.89	1.9032e-06	3.2924e-06	253.74	112.31	35.963	10.84	3.1358e-06	42.367	5.4975e-05	3.3454e-05	8.9839e-06	394.68	3.5207e-07	3.4923e-07	705.79	90.252	3.9053e-07	4.0159e-07	223.78	99.956	32.304	9.743	3.8976e-07	37.543	221.914	24.582	52.263	-11.954	113.716	109.265	-12.171	-7.479	163.712	138.632	-8.219	-4.353	-4.258	0.493	148.956	0.257	-8191	255	
2035.525	1	1	0	0	0.37935	0.14015	0.1693	0.18848	0.13644	0.26355	0.28721	0.14403	0.19594	0.25948	0.20446	0.22648	0.033437	0.17745	0.054644	0.16242	-2.1688	-2.9896	-2.3833	-2.5021	-2.8021	-2.4958	-2.775	-2.7021	-2.2979	-2.8229	-2.7271	-2.4896	-2.7729	-2.4083	-2.6896	-2.8083	5.693	298.676	36.184	219.397	286.772	55.966	328.656	118.112	73.218	303.754	251.226	332.596	248.214	168.797	296.028	300.621	0.00018543	0.00031428	2.7882e-05	446.91	2.5776e-06	2.3355e-06	795.84	102.18	2.0604e-06	3.563e-06	255.23	113.04	36.38	11.23	2.7014e-06	42.833	5.4826e-05	3.4446e-05	9.2556e-06	395.46	3.793e-07	3.6705e-07	706.87	90.809	3.9279e-07	3.5948e-07	225.77	101	32.639	9.9817	3.9282e-07	38.073	220.889	61.445	155.393	-11.485	120.666	136.701	-11.640	-7.472	151.222	124.928	-8.682	-3.829	-3.928	-0.674	120.986	-0.137	-8191	255	
2035.597	1	1	0	0	0.091923	0.11922	0.1568	0.083562	0.19768	0.25083	0.22115	0.23597	0.081531	0.31297	0.17174	0.068035	0.12566	0.17211	0.18486	0.23477	-2.0104	-2.775	-2.575	-2.6208	-2.8292	-2.4042	-2.7667	-2.7042	-2.2812	-2.9	-2.6396	-2.6604	-2.9771	-2.4042	-2.5708	-2.9396	292.067	-7.687	183.675	327.050	123.370	224.396	328.580	92.630	301.256	157.135	288.357	214.826	-8.338	291.265	27.913	174.161	0.00020862	0.00036189	5.8172e-05	442.31	3.5581e-06	3.777e-06	800.76	103.36	2.5056e-06	2.5092e-06	254.71	113.92	36.418	11.057	3.7351e-06	42.79	5.5916e-05	3.6533e-05	8.942e-06	395.02	4.0259e-07	3.843e-07	710.9	91.478	3.7956e-07	3.6605e-07	225.82	101.53	32.808	9.9649	4.0691e-07	37.886	227.370	18.148	83.860	-11.508	141.482	128.100	-11.824	-7.822	171.323	151.508	-8.433	-3.967	-3.795	0.321	127.160	0.124	-8191	255	
#DATA ENDS
