BOXY.EXE: ISS Imagent and Oximeter Data Acquisition Program Version 0.80
Ascii Record File

#ACQ INFORMATION
2  Detector Channels 
16  External MUX Channels 
1  Auxiliary Channels 
5000  Waveform (CCF) Frequency (Hz)
1  Waveforms Skipped 
30  Waveforms Averaged 
1  Cycles Averaged 
16  Acquisitions per Waveform 
10.0806  Updata Rate (Hz) 

#FILE INFORMATION
TRUE -- External MUX Channel results are PARSED.
FALSE -- AC DC and Phase are NOT grouped.
TRUE -- Companion Program Settings File CREATED.
FALSE -- AC data not excluded
FALSE -- DC data not excluded
FALSE -- Phase data not excluded
FALSE -- Auxillary Chn. data not excluded
Tab delimiters

#CALIBRATION STATE
TRUE -- Waveform Calibration Values APPLIED.


#AUX CALIBRATION VALUES
Val Type	aux-1	

Term	1.0000e+00	
Factor	0.0000e+00	


#WF CALIBRATION VALUES
A = Detector Channel
Val Type	A-AC1	A-AC2	A-AC3	A-AC4	A-AC5	A-AC6	A-AC7	A-AC8	A-AC9	A-AC10	A-AC11	A-AC12	A-AC13	A-AC14	A-AC15	A-AC16	A-DC1	A-DC2	A-DC3	A-DC4	A-DC5	A-DC6	A-DC7	A-DC8	A-DC9	A-DC10	A-DC11	A-DC12	A-DC13	A-DC14	A-DC15	A-DC16	A-Ph1	A-Ph2	A-Ph3	A-Ph4	A-Ph5	A-Ph6	A-Ph7	A-Ph8	A-Ph9	A-Ph10	A-Ph11	A-Ph12	A-Ph13	A-Ph14	A-Ph15	A-Ph16	

Term	0.00000e+00	0.00000e+00	0.00000e+00	0.00000e+00	0.00000e+00	0.00000e+00	0.00000e+00	0.00000e+00	0.00000e+00	0.00000e+00	0.00000e+00	0.00000e+00	0.00000e+00	0.00000e+00	0.00000e+00	0.00000e+00	0.00000e+00	0.00000e+00	0.00000e+00	0.00000e+00	0.00000e+00	0.00000e+00	0.00000e+00	0.00000e+00	0.00000e+00	0.00000e+00	0.00000e+00	0.00000e+00	0.00000e+00	0.00000e+00	0.00000e+00	0.00000e+00	0.00000e+00	0.00000e+00	0.00000e+00	0.00000e+00	0.00000e+00	0.00000e+00	0.00000e+00	0.00000e+00	0.00000e+00	0.00000e+00	0.00000e+00	0.00000e+00	0.00000e+00	0.00000e+00	0.00000e+00	0.00000e+00	
Factor	1.00000e+00	1.00000e+00	1.00000e+00	1.00000e+00	1.00000e+00	1.00000e+00	1.00000e+00	1.00000e+00	1.00000e+00	1.00000e+00	1.00000e+00	1.00000e+00	1.00000e+00	1.00000e+00	1.00000e+00	1.00000e+00	1.00000e+00	1.00000e+00	1.00000e+00	1.00000e+00	1.00000e+00	1.00000e+00	1.00000e+00	1.00000e+00	1.00000e+00	1.00000e+00	1.00000e+00	1.00000e+00	1.00000e+00	1.00000e+00	1.00000e+00	1.00000e+00	X	X	X	X	X	X	X	X	X	X	X	X	X	X	X	X	

B = Detector Channel
Val Type	B-AC1	B-AC2	B-AC3	B-AC4	B-AC5	B-AC6	B-AC7	B-AC8	B-AC9	B-AC10	B-AC11	B-AC12	B-AC13	B-AC14	B-AC15	B-AC16	B-DC1	B-DC2	B-DC3	B-DC4	B-DC5	B-DC6	B-DC7	B-DC8	B-DC9	B-DC10	B-DC11	B-DC12	B-DC13	B-DC14	B-DC15	B-DC16	B-Ph1	B-Ph2	B-Ph3	B-Ph4	B-Ph5	B-Ph6	B-Ph7	B-Ph8	B-Ph9	B-Ph10	B-Ph11	B-Ph12	B-Ph13	B-Ph14	B-Ph15	B-Ph16	

Term	0.00000e+00	0.00000e+00	0.00000e+00	0.00000e+00	0.00000e+00	0.00000e+00	0.00000e+00	0.00000e+00	0.00000e+00	0.00000e+00	0.00000e+00	0.00000e+00	0.00000e+00	0.00000e+00	0.00000e+00	0.00000e+00	0.00000e+00	0.00000e+00	0.00000e+00	0.00000e+00	0.00000e+00	0.00000e+00	0.00000e+00	0.00000e+00	0.00000e+00	0.00000e+00	0.00000e+00	0.00000e+00	0.00000e+00	0.00000e+00	0.00000e+00	0.00000e+00	-3.63263e+01	-1.44616e+02	-1.36455e+02	-1.83436e+02	-6.47196e+01	-8.14628e+01	-1.60695e+02	-1.62015e+02	-4.27404e+01	-5.87643e+01	-1.72707e+02	-1.72386e+02	-1.83401e+02	-1.78286e+02	-6.56670e+01	-1.51169e+02	
Factor	2.16242e-05	1.40199e-04	3.24853e-05	1.48686e-01	1.47159e-06	1.31807e-06	1.62454e-01	5.10240e-02	1.11014e-06	1.35182e-06	7.91605e-02	2.65441e-02	2.35584e-02	8.15133e-03	1.44641e-06	1.17866e-02	2.30442e-06	2.49268e-06	6.93736e-07	7.79555e-02	2.69482e-08	2.73278e-08	7.97935e-02	2.67642e-02	2.70149e-08	2.74240e-08	4.00788e-02	1.34491e-02	1.24290e-02	4.29815e-03	2.72636e-08	5.99323e-03	X	X	X	X	X	X	X	X	X	X	X	X	X	X	X	X	



#DISTANCE SETTINGS
A = Detector Channel
A-1	A-2	A-3	A-4	A-5	A-6	A-7	A-8	A-9	A-10	A-11	A-12	A-13	A-14	A-15	A-16	

2.5000e+00	3.0000e+00	2.5000e+00	3.0000e+00	2.0000e+00	3.0000e+00	1.5000e+00	3.0000e+00	3.0000e+00	3.0000e+00	3.0000e+00	3.0000e+00	3.0000e+00	3.0000e+00	1.5000e+00	3.0000e+00	

B = Detector Channel
B-1	B-2	B-3	B-4	B-5	B-6	B-7	B-8	B-9	B-10	B-11	B-12	B-13	B-14	B-15	B-16	

1.0000e+01	1.0000e+01	1.0000e+01	1.4400e+00	1.0000e+01	1.0000e+01	1.5100e+00	1.9400e+00	1.0000e+01	1.0000e+01	1.9900e+00	2.4900e+00	2.4100e+00	2.9000e+00	1.0000e+01	2.9800e+00	




#DATA BEGINS
time	group	step	mark	flag	A-AC1	A-AC2	A-AC3	A-AC4	A-AC5	A-AC6	A-AC7	A-AC8	A-AC9	A-AC10	A-AC11	A-AC12	A-AC13	A-AC14	A-AC15	A-AC16	A-DC1	A-DC2	A-DC3	A-DC4	A-DC5	A-DC6	A-DC7	A-DC8	A-DC9	A-DC10	A-DC11	A-DC12	A-DC13	A-DC14	A-DC15	A-DC16	A-Ph1	A-Ph2	A-Ph3	A-Ph4	A-Ph5	A-Ph6	A-Ph7	A-Ph8	A-Ph9	A-Ph10	A-Ph11	A-Ph12	A-Ph13	A-Ph14	A-Ph15	A-Ph16	B-AC1	B-AC2	B-AC3	B-AC4	B-AC5	B-AC6	B-AC7	B-AC8	B-AC9	B-AC10	B-AC11	B-AC12	B-AC13	B-AC14	B-AC15	B-AC16	B-DC1	B-DC2	B-DC3	B-DC4	B-DC5	B-DC6	B-DC7	B-DC8	B-DC9	B-DC10	B-DC11	B-DC12	B-DC13	B-DC14	B-DC15	B-DC16	B-Ph1	B-Ph2	B-Ph3	B-Ph4	B-Ph5	B-Ph6	B-Ph7	B-Ph8	B-Ph9	B-Ph10	B-Ph11	B-Ph12	B-Ph13	B-Ph14	B-Ph15	B-Ph16	aux-1	digaux	

1748.597	1	1	0	256	0.27662	0.16243	0.22533	0.20199	0.31319	0.055236	0.11901	0.28392	0.043476	0.1213	0.15725	0.087368	0.28225	0.1847	0.016175	0.1736	-1.7771	-2.575	-2.5583	-2.3854	-2.8042	-2.4938	-2.4625	-2.6229	-2.0542	-2.6042	-2.5229	-2.3167	-2.7208	-2.5625	-2.1125	-2.6292	-17.007	116.634	133.825	242.068	200.596	236.437	211.549	244.015	172.555	200.991	221.812	29.838	178.159	216.864	-1.276	-37.170	0.00032324	2.2833e-05	0.00022248	1388.3	5.25e-06	6.7174e-06	1387.8	380.64	3.7511e-06	7.4559e-06	434.85	144.58	120.5	43.655	7.5809e-06	54.379	0.00077837	0.00080806	0.00022465	1405.6	8.7297e-06	8.7453e-06	1407.2	388.47	8.8043e-06	8.9315e-06	444.51	149.01	124.26	45.01	8.8258e-06	55.994	-70.563	90.056	-51.712	-92.257	63.165	65.394	-92.100	-87.451	2.346	14.238	-88.101	-83.468	-83.075	-78.583	28.718	-79.413	-8191	255	
1748.693	1	1	0	0	0.034037	0.12198	0.25665	0.33852	0.1894	0.16342	0.29576	0.28917	0.23568	0.25303	0.049794	0.25591	0.087766	0.21399	0.12054	0.22082	-1.8292	-2.2896	-2.8042	-2.2458	-2.5125	-2.4667	-2.5917	-2.7792	-2.3417	-2.2812	-2.8021	-2.2729	-2.6583	-2.5104	-2.2083	-2.7083	-24.842	192.547	97.013	208.354	162.531	223.904	-104.241	180.463	30.168	-64.773	214.201	195.071	214.790	75.873	23.784	197.706	0.00028214	0.00056423	8.3477e-05	1387.8	2.6461e-06	3.5205e-06	1383.5	379.9	2.945e-06	7.7641e-06	434.55	144.36	120.65	43.522	5.8522e-06	54.202	0.00077347	0.00080926	0.00022362	1405.6	8.7196e-06	8.8211e-06	1405.4	388.29	8.8208e-06	8.8692e-06	443.53	148.94	124.29	44.985	8.8468e-06	55.988	-81.914	6.795	-38.186	-92.128	30.055	118.637	-92.188	-87.743	143.905	44.235	-88.307	-83.605	-83.276	-78.711	47.788	-79.579	-8191	255	
1748.789	1	1	0	0	0.091996	0.19852	0.27038	0.15376	0.06623	0.29161	0.088276	0.35442	0.17136	0.22597	0.13211	0.3398	0.080794	0.21893	0.079774	0.23716	-1.8271	-2.3792	-2.6667	-2.225	-2.675	-2.5104	-2.5646	-2.9813	-2.4917	-2.2438	-2.6833	-2.1625	-2.4792	-2.625	-2.1625	-2.6208	-79.151	61.991	-39.596	110.722	-8.603	185.006	163.182	237.007	136.738	186.376	172.335	217.690	-53.009	213.000	4.919	144.878	0.00022902	0.00043214	0.00013035	1382.5	5.7341e-06	1.2372e-06	1380.6	379.96	5.8982e-06	9.9261e-06	434.69	144.67	120.46	43.544	4.6066e-06	54.166	0.00077497	0.00080646	0.00022086	1405.3	8.6854e-06	8.879e-06	1403.9	388.4	8.7341e-06	8.8287e-06	444.39	149.14	124.2	44.985	8.671e-06	55.978	-48.293	-1.495	-21.965	-92.302	157.395	239.945	-92.294	-87.611	-22.542	40.406	-88.090	-83.390	-83.098	-78.714	23.274	-78.975	-8191	255	
1748.885	1	1	0	0	0.14513	0.10377	0.19347	0.045841	0.15856	0.16268	0.21247	0.25886	0.15791	0.11382	0.24816	0.17065	0.25461	0.46706	0.11097	0.062839	-1.8521	-2.2021	-2.4896	-2.3146	-2.325	-2.6771	-2.4646	-2.7333	-2.3396	-2.1625	-2.7833	-2.3625	-2.4896	-2.8208	-2.2271	-2.6875	156.821	228.348	236.237	-13.000	91.248	12.610	199.273	217.666	51.402	-44.242	-59.184	177.864	164.130	217.927	10.734	138.538	0.00028904	0.0013204	0.00012296	1385.2	4.5673e-06	4.4572e-06	1384.6	379.9	5.7248e-06	7.143e-06	433.95	144.6	120.22	43.582	4.4195e-06	54.473	0.00077585	0.00080094	0.00022108	1406.1	8.721e-06	8.7649e-06	1406.7	388.79	8.6184e-06	8.7509e-06	443.81	148.88	124.1	45.02	8.6989e-06	56.031	-76.849	-48.451	-5.383	-92.116	48.894	45.776	-92.207	-87.410	5.860	81.287	-88.294	-83.288	-83.326	-78.709	23.245	-79.567	-8191	255	
1749.006	1	1	0	0	0.09686	0.043803	0.23036	0.10502	0.22553	0.084732	0.2631	0.24906	0.11871	0.43367	0.24357	0.23014	0.47889	0.22991	0.28706	0.2964	-1.9667	-2.0229	-2.7146	-2.4562	-2.2875	-2.7021	-2.4958	-2.7354	-2.4292	-2.1271	-2.8208	-2.3021	-2.3333	-2.6437	-2.1646	-2.6	22.995	32.348	177.609	163.763	211.668	-40.245	-91.987	192.283	-1.260	165.732	127.361	242.608	220.598	179.520	226.186	167.835	0.00029001	0.00064325	0.00010808	1381.9	4.5614e-06	9.8039e-06	1381.1	380.84	4.3566e-06	6.0799e-06	436.3	144.92	120.32	43.395	6.7267e-06	54.181	0.0007679	0.0007975	0.00021981	1405.6	8.5994e-06	8.6751e-06	1405.7	388.77	8.6677e-06	8.7098e-06	445.44	149.15	124.35	44.972	8.8357e-06	55.983	-78.303	-40.509	-36.555	-92.012	-67.425	23.836	-92.206	-87.689	21.100	29.843	-88.197	-83.643	-83.478	-78.804	34.090	-79.523	-8191	255	
1749.102	1	1	0	0	0.1891	0.11657	0.2243	0.27641	0.015996	0.24817	0.15199	0.17312	0.037981	0.095983	0.07875	0.16881	0.18242	0.11126	0.16341	0.2225	-2.0333	-2.0875	-2.5125	-2.5104	-2.2979	-2.45	-2.3625	-2.5563	-2.4167	-2.1479	-2.7146	-2.4229	-2.2625	-2.7083	-2.1542	-2.6521	115.270	61.516	249.470	214.810	-6.071	165.236	-98.997	164.979	-94.342	108.933	-91.773	169.570	202.032	178.183	-42.677	151.568	0.0003063	0.00080215	5.4113e-05	1388.1	3.4066e-07	5.1837e-06	1386.2	380.67	6.0718e-06	1.009e-05	435.66	144.98	120.55	43.532	7.0409e-06	54.419	0.00078744	0.00080616	0.00022836	1409.8	8.9459e-06	8.9825e-06	1411.2	389.5	9.0654e-06	9.1593e-06	446.22	149.41	124.74	45.196	9.2833e-06	56.291	-69.828	-39.497	21.427	-92.330	152.983	112.968	-92.091	-87.458	103.659	60.881	-88.142	-83.449	-83.080	-78.684	75.312	-79.250	-8191	255	
1749.197	1	1	0	0	0.016138	0.18366	0.080394	0.37572	0.098679	0.24439	0.087943	0.12675	0.18476	0.16017	0.12305	0.24071	0.077896	0.17376	0.34632	0.32791	-2.0833	-1.9458	-2.4375	-2.5104	-2.1021	-2.6625	-2.5438	-2.5938	-2.6771	-2.0042	-2.7771	-2.7271	-2.3917	-2.5104	-2.3688	-2.25	223.939	-9.995	93.976	209.597	-53.502	67.859	217.301	194.572	-65.533	123.988	190.853	251.949	233.923	199.875	9.357	185.569	0.00022515	0.0012676	0.00017858	1393.2	2.9369e-06	1.1222e-05	1397.7	382.21	7.1058e-06	4.7312e-06	437.77	145.83	121.28	43.827	6.6179e-06	54.479	0.00081617	0.00084198	0.00024118	1417.3	9.3033e-06	9.4e-06	1422	391.85	9.462e-06	9.4895e-06	449.31	150.4	125.44	45.419	9.6174e-06	56.485	-64.551	-20.011	-79.596	-92.162	83.955	75.040	-92.220	-87.515	111.585	56.429	-88.113	-83.493	-83.293	-78.623	10.360	-79.670	-8191	255	
1749.293	1	1	0	0	0.22591	0.23509	0.10849	0.20687	0.24406	0.37236	0.23008	0.29116	0.17817	0.12801	0.22113	0.23511	0.19809	0.11151	0.33236	0.1956	-2.1625	-2.0438	-2.3521	-2.7729	-2.1854	-2.5104	-2.4625	-2.3604	-2.6604	-2.2583	-2.5292	-2.5792	-2.4083	-2.7417	-2.3167	-2.2313	-1.245	251.481	-44.628	125.822	7.007	33.839	149.166	197.985	133.747	91.319	209.389	156.574	221.545	212.358	-36.728	34.149	0.00035384	0.00018408	0.00011784	1403.5	4.2016e-06	2.2176e-06	1407.2	384.89	4.5078e-06	6.3179e-06	440.69	146.36	122.16	44.08	2.74e-06	54.739	0.00084584	0.00087453	0.0002431	1428.2	9.4613e-06	9.4793e-06	1430.4	394.3	9.4632e-06	9.5924e-06	451.69	151.05	126.17	45.628	9.5703e-06	56.76	-67.371	-7.639	-12.568	-92.174	-17.760	38.520	-92.254	-87.518	35.652	69.420	-88.325	-83.564	-83.199	-79.047	-36.937	-79.612	-8191	255	
1749.366	1	1	0	0	0.027303	0.10911	0.18509	0.42653	0.084882	0.079832	0.32094	0.39397	0.088461	0.092701	0.15312	0.09362	0.099272	0.23157	0.097144	0.28664	-2.4458	-2.2042	-2.4208	-2.7667	-2.1896	-2.6479	-2.6771	-2.4292	-2.675	-2.4208	-2.5354	-2.6521	-2.1312	-2.6979	-2.4688	-2.5417	233.433	95.674	235.744	229.792	-41.548	135.270	197.094	152.601	69.607	90.472	-0.518	190.443	248.904	-62.339	-75.787	156.892	0.00029427	0.00070598	6.0431e-05	1410.6	6.9363e-06	7.0253e-06	1411	385.65	2.264e-06	1.5178e-07	440.91	147.28	122.15	44.318	6.6658e-06	54.925	0.00083265	0.00087381	0.000246	1433.2	9.4482e-06	9.4826e-06	1436.8	394.93	9.5319e-06	9.5718e-06	452.72	151.67	126.53	45.773	9.6092e-06	56.86	-63.957	8.277	244.962	-92.240	61.481	9.374	-92.367	-87.682	46.277	-13.524	-88.176	-83.460	-83.204	-78.913	88.962	-79.536	-8191	255	
1749.485	1	1	0	0	0.16201	0.057908	0.11685	0.2636	0.21506	0.14508	0.1195	0.15312	0.15971	0.21896	0.39287	0.29139	0.28859	0.16325	0.12903	0.26351	-2.1458	-2.2854	-2.4646	-2.7354	-2.2646	-2.5208	-2.5146	-2.2042	-2.5333	-2.3646	-2.5083	-2.7167	-2.1458	-2.6854	-2.6104	-2.1833	-66.307	22.138	-39.106	-80.888	243.248	65.951	238.403	163.317	227.851	10.811	222.533	-97.015	212.316	-6.792	225.224	209.011	0.00020894	0.00029273	0.00014208	1414.2	5.9121e-06	8.3668e-06	1412.4	386.45	4.9036e-06	1.2807e-05	442.28	147.51	121.67	44.394	4.152e-06	54.896	0.00084646	0.0008686	0.00024489	1437.6	9.4497e-06	9.5515e-06	1438.5	395.57	9.4407e-06	9.6402e-06	453.56	152.03	126.77	45.869	9.4607e-06	56.947	-74.599	-53.481	4.685	-92.290	59.165	83.072	-92.381	-87.642	51.103	25.554	-88.285	-83.342	-83.199	-78.823	-21.693	-79.758	-8191	255	
1749.581	1	1	0	0	0.18237	0.13647	0.16493	0.52253	0.25423	0.19194	0.18815	0.48001	0.11527	0.24485	0.29279	0.39293	0.15913	0.1111	0.20084	0.19676	-2.2729	-2.1833	-2.3708	-2.8458	-2.05	-2.5167	-2.75	-2.2646	-2.7458	-2.5104	-2.1937	-2.6417	-2.2792	-2.5917	-2.6792	-2.1917	-105.246	-1.084	38.079	222.502	76.206	-76.947	170.713	215.545	179.918	125.947	183.967	192.728	-50.044	48.878	153.591	148.754	0.00026121	0.00059805	8.7724e-05	1411.5	8.5507e-06	7.9372e-06	1416.7	386.56	3.8042e-06	1.5777e-06	441.24	146.77	122.81	44.389	1.2268e-05	55.157	0.00083726	0.00087027	0.00024328	1437.6	9.334e-06	9.4328e-06	1439.3	395.99	9.3879e-06	9.4891e-06	453.65	151.99	126.91	45.934	9.3598e-06	57.061	-76.509	-64.661	107.611	-92.168	104.098	37.989	-92.251	-87.608	-3.645	127.586	-88.219	-83.713	-83.348	-79.005	47.657	-79.556	-8191	255	
1749.677	1	1	0	0	0.13081	0.1453	0.325	0.35718	0.14387	0.06076	0.56444	0.11631	0.39907	0.16468	0.24553	0.18685	0.49777	0.13375	0.21121	0.17332	-2.0396	-2.4792	-2.2083	-2.8271	-2.2104	-2.4813	-2.6937	-2.2167	-2.5125	-2.3667	-2.3583	-2.7854	-2.1688	-2.5646	-2.4458	-2.3167	-70.289	175.712	186.811	220.666	56.590	-52.794	173.651	149.259	-4.569	149.719	110.811	230.003	241.690	218.072	-5.848	218.058	0.00021538	0.00068042	0.00023175	1412.8	1.3303e-06	4.0978e-06	1415.7	388.86	4.0637e-06	3.9314e-06	443.95	147.73	122.88	44.348	3.7328e-06	55.068	0.00081612	0.00085207	0.00023458	1437.2	9.1976e-06	9.279e-06	1439.1	395.99	9.2028e-06	9.2522e-06	454.44	152.37	127.13	45.882	9.204e-06	57.052	-98.745	-65.910	-8.851	-92.280	4.606	216.097	-92.226	-87.511	46.738	45.460	-88.188	-83.664	-83.168	-78.734	32.679	-79.289	-8191	255	
1749.773	1	1	0	0	0.17119	0.17251	0.219	0.19434	0.37232	0.26285	0.19007	0.26833	0.065876	0.19186	0.17645	0.11773	0.16985	0.11255	0.16169	0.13711	-2.1229	-2.5896	-1.9813	-2.7458	-2.3292	-2.2938	-2.9042	-2.3229	-2.3396	-2.4792	-2.3833	-2.6917	-2.2896	-2.3229	-2.6854	-2.3354	-2.956	54.428	-101.222	67.183	-40.915	95.105	225.924	220.472	138.390	46.506	228.824	-90.087	157.728	201.713	-103.914	141.295	0.0002496	0.00093749	7.0396e-05	1412.4	9.7682e-06	1.8731e-06	1411.1	386.7	8.9937e-06	9.3723e-06	444.47	148.07	122.59	44.397	1.1748e-05	55.039	0.00080852	0.00084068	0.00023299	1436.3	9.0306e-06	9.1436e-06	1435.8	395.43	9.0861e-06	9.1105e-06	454.43	152.41	127.06	45.893	9.0145e-06	56.97	-68.338	-96.596	-8.625	-92.158	80.381	89.262	-92.174	-87.763	60.358	78.874	-88.241	-83.474	-83.364	-78.963	19.622	-79.463	-8191	255	
1749.894	1	1	0	0	0.15167	0.11299	0.15093	0.22701	0.05798	0.079016	0.19058	0.19785	0.20355	0.12953	0.19046	0.11113	0.094061	0.08242	0.25318	0.22716	-2.1667	-2.5083	-2.1396	-2.8146	-2.4229	-2.2208	-2.9354	-2.3604	-2.3604	-2.5938	-2.2396	-2.7854	-2.5062	-2.5563	-2.6375	-2.3396	-81.342	-102.147	45.580	162.458	7.430	226.004	145.002	222.141	72.978	24.455	180.082	204.268	206.549	-13.293	-80.041	233.012	0.00022949	0.00061163	0.00015534	1412.4	1.5498e-06	6.9036e-06	1410.7	386.83	1.2121e-06	4.1683e-06	443.69	147.68	123.22	44.427	5.2719e-06	55.153	0.00079845	0.00082927	0.00023057	1434.9	9.0008e-06	9.0544e-06	1435.3	395.32	9.0758e-06	9.2063e-06	454.16	152.19	126.98	45.916	9.1813e-06	57.034	-80.164	-77.048	-40.017	-92.347	163.263	-6.282	-92.380	-87.461	184.474	49.771	-88.222	-83.590	-83.392	-78.658	44.000	-79.603	-8191	255	
1749.988	1	1	0	0	0.19697	0.16148	0.29756	0.19466	0.095046	0.1543	0.36526	0.45949	0.39666	0.117	0.094589	0.11029	0.050007	0.30496	0.12905	0.17156	-1.9396	-2.4417	-2.0354	-2.7292	-2.3917	-2.2	-2.9813	-2.4188	-2.4083	-2.5625	-2.3563	-2.5229	-2.6375	-2.1708	-2.6854	-2.4938	76.454	41.498	193.409	204.918	96.007	-57.163	233.411	196.646	91.667	109.774	66.649	134.791	-6.582	245.092	127.733	58.220	0.00027489	0.00032697	0.00018945	1410.6	3.0762e-06	2.5214e-06	1411.8	387.27	2.7984e-06	6.9367e-06	443.71	147.6	123.58	44.378	2.0027e-06	55.083	0.00081478	0.00084253	0.00023484	1435.8	9.2008e-06	9.2564e-06	1437.6	395.67	9.2377e-06	9.2883e-06	454.85	152.38	127.29	46.033	9.3413e-06	57.059	-85.064	6.609	-59.369	-92.135	15.436	226.747	-92.296	-87.585	57.728	94.913	-88.294	-83.488	-83.341	-78.810	77.864	-79.410	-8191	255	
1750.086	1	1	0	0	0.22898	0.24815	0.28536	0.061071	0.35725	0.13419	0.15315	0.20569	0.24355	0.19667	0.22766	0.24026	0.17427	0.036461	0.10193	0.20527	-1.9375	-2.5896	-2.0604	-2.5604	-2.5708	-2.1437	-2.7208	-2.5542	-2.1937	-2.5708	-2.4	-2.6167	-2.6396	-2.2333	-2.5729	-2.4	244.371	191.603	117.975	-50.739	187.578	37.376	165.552	171.834	69.822	-82.075	165.079	233.375	-94.759	128.153	52.160	-43.322	0.00027522	0.0008877	5.4841e-05	1416.1	2.846e-06	9.1332e-06	1415.1	386.49	1.4262e-06	1.9476e-06	445.18	147.4	122.93	44.257	4.6739e-06	55.105	0.0008275	0.00086303	0.00023914	1440.7	9.4179e-06	9.4793e-06	1441.2	395.71	9.4607e-06	9.5568e-06	455.16	152.27	127.12	45.92	9.5301e-06	57.076	-63.075	-22.740	-79.816	-92.358	88.524	35.257	-92.123	-87.880	17.804	90.859	-88.139	-83.461	-83.279	-78.895	32.822	-79.818	-8191	255	
1750.183	1	1	0	0	0.14865	0.11152	0.34718	0.33838	0.09442	0.12432	0.19215	0.24193	0.21904	0.13789	0.22863	0.08775	0.18719	0.31844	0.31176	0.26026	-1.7563	-2.5375	-2.2979	-2.6375	-2.4646	-2.2854	-2.8083	-2.4729	-2.2271	-2.7375	-2.3875	-2.525	-2.6875	-2.275	-2.5229	-2.5979	72.021	223.698	-33.041	247.987	-2.383	116.740	179.648	170.781	199.486	215.435	-43.025	45.156	142.035	-56.197	231.729	206.408	0.00024007	0.00053207	0.00012575	1415.7	3.1595e-06	2.1827e-06	1417.8	387.37	7.18e-06	4.0688e-06	443.74	148.03	122.89	44.431	5.6548e-06	55.358	0.0008392	0.00086634	0.0002424	1439.4	9.4758e-06	9.5765e-06	1442.2	396.48	9.4888e-06	9.5817e-06	455.47	152.52	127.08	45.928	9.6e-06	57.116	-64.372	-47.411	-15.644	-92.173	118.205	-17.001	-92.376	-87.550	37.315	37.561	-88.218	-83.614	-83.091	-78.909	110.909	-79.525	-8191	255	
1750.277	1	1	0	0	0.4239	0.068424	0.08599	0.24388	0.37614	0.049344	0.32584	0.098096	0.24029	0.099441	0.11107	0.16494	0.37363	0.070135	0.17717	0.24886	-1.75	-2.5458	-2.2687	-2.4354	-2.4354	-2.2396	-2.5292	-2.6833	-2.2646	-2.7083	-2.5812	-2.5604	-2.7854	-2.2938	-2.4792	-2.5208	-81.335	-104.097	105.075	227.268	-33.353	156.329	176.893	249.135	-69.119	227.759	180.903	-88.720	195.211	179.780	125.417	172.208	0.00026446	0.00041629	0.00014317	1413.1	4.779e-06	6.6976e-06	1414.4	386.78	3.0038e-06	6.0308e-06	444.99	147.93	122.91	44.531	2.0132e-06	55.062	0.00083903	0.00087568	0.00024086	1438.4	9.46e-06	9.485e-06	1440.2	396.07	9.4546e-06	9.5927e-06	455.41	152.49	127.19	45.931	9.5867e-06	57.011	-101.082	12.535	-5.869	-92.393	4.525	115.426	-92.242	-87.581	30.265	46.503	-88.346	-83.750	-83.416	-78.867	233.162	-79.407	-8191	255	
1750.373	1	1	0	0	0.16443	0.34056	0.23797	0.29086	0.18937	0.042375	0.21636	0.35662	0.076926	0.05561	0.252	0.28714	0.042169	0.32846	0.038778	0.1878	-1.4625	-2.5333	-2.2521	-2.5333	-2.6771	-2.2938	-2.6729	-2.6146	-2.0146	-2.675	-2.4646	-2.2812	-2.7979	-2.2479	-2.3875	-2.8458	176.919	87.762	115.035	166.556	125.275	204.510	154.455	239.940	242.912	206.930	245.054	205.992	-19.381	169.981	185.500	131.192	0.00032989	0.00069046	0.00019522	1414.4	6.1544e-06	4.3146e-06	1418.6	386.39	4.0459e-06	2.7848e-06	442.57	147.15	123.39	44.338	5.5474e-06	55.028	0.00083913	0.00088053	0.00024548	1438.7	9.4989e-06	9.5547e-06	1440.5	395.41	9.5721e-06	9.7668e-06	454.96	152.43	127.3	45.887	9.7677e-06	57.126	-63.954	-46.945	-35.996	-92.232	103.536	-15.500	-92.074	-87.641	202.948	-0.401	-88.370	-83.647	-83.083	-78.845	86.871	-79.734	-8191	255	
1750.494	1	1	0	0	0.16706	0.21518	0.068762	0.21757	0.20989	0.19718	0.23281	0.1215	0.055524	0.037768	0.1376	0.10485	0.17682	0.20067	0.48377	0.071388	-1.8354	-2.6292	-2.1396	-2.4562	-2.625	-2.2771	-2.6437	-2.7021	-2.2625	-2.6562	-2.6042	-2.2646	-2.775	-2.4375	-2.2917	-2.6958	117.627	12.309	153.855	220.585	241.117	190.696	130.199	224.819	-58.323	-79.741	236.936	180.218	-17.988	-48.282	-39.637	-71.812	0.00025365	0.00071069	9.5489e-05	1412.3	5.9256e-06	7.5906e-06	1416.5	386.95	1.4947e-06	4.016e-06	445.94	147.65	122.72	44.405	7.3053e-06	54.938	0.00085581	0.00088935	0.00025064	1439.2	9.6892e-06	9.834e-06	1442.2	396.86	9.7394e-06	9.7646e-06	456.76	152.5	127.19	45.992	9.7079e-06	57.047	-70.255	1.058	-50.763	-92.146	53.028	33.056	-92.274	-87.619	-3.520	36.398	-88.201	-83.522	-83.335	-78.856	-2.753	-79.462	-8191	255	
1750.590	1	1	0	0	0.099063	0.19647	0.1783	0.3559	0.17368	0.18725	0.264	0.1249	0.025795	0.066823	0.045292	0.1383	0.068528	0.28834	0.15984	0.1337	-1.6708	-2.4729	-2.3271	-2.4646	-2.4979	-2.2417	-2.6104	-2.8229	-2.0563	-2.5333	-2.5958	-2.3063	-2.7667	-2.5021	-2.0833	-2.7042	9.515	163.656	127.225	242.607	231.633	-14.206	171.907	138.348	-6.806	234.899	241.036	211.463	-101.191	171.828	-72.496	119.339	0.00033259	0.00029289	0.00011026	1414.4	4.8652e-06	7.1255e-06	1420.1	389.35	4.7649e-06	9.4609e-06	444.16	147.78	123.15	44.489	3.3345e-06	55.139	0.00085311	0.00088088	0.00024459	1440.8	9.4223e-06	9.4568e-06	1444	397.19	9.4236e-06	9.443e-06	455.72	152.6	127.47	46.063	9.4917e-06	57.162	-70.675	-75.183	5.981	-92.357	32.283	13.679	-92.161	-87.557	154.954	62.935	-88.327	-83.542	-83.387	-78.963	40.022	-79.772	-8191	255	
1750.662	1	1	0	0	0.10126	0.19364	0.23454	0.21516	0.18812	0.27221	0.22148	0.32411	0.22155	0.24354	0.11954	0.2769	0.16199	0.43352	0.099196	0.073674	-1.7646	-2.3812	-2.55	-2.4604	-2.6813	-2.3187	-2.5125	-2.7875	-2.3583	-2.3646	-2.7125	-2.2458	-2.75	-2.4271	-2.0479	-2.7667	227.512	160.605	200.642	243.106	131.686	209.392	149.349	180.312	197.448	220.712	222.486	228.336	249.829	235.560	7.208	-40.376	0.0002682	0.00059209	0.00021949	1421.2	5.8847e-06	6.4431e-06	1414.8	389.05	7.502e-06	3.6568e-06	446.08	148.02	123.05	44.282	6.4157e-06	55.12	0.00083442	0.00087522	0.00024273	1445.1	9.4913e-06	9.5228e-06	1443.1	397.51	9.4907e-06	9.7056e-06	456.85	152.78	127.3	45.965	9.6708e-06	57.116	-57.155	7.203	-32.267	-92.214	-0.998	44.296	-92.337	-87.598	-7.097	81.996	-88.251	-83.532	-83.300	-78.955	25.942	-79.432	-8191	255	
1750.782	1	1	0	0	0.12301	0.17392	0.19653	0.50156	0.053471	0.062225	0.26088	0.22765	0.060747	0.28882	0.26525	0.11102	0.12401	0.23955	0.23119	0.17061	-1.8208	-2.1437	-2.4125	-2.3667	-2.5729	-2.5812	-2.3438	-2.7771	-2.3958	-2.3812	-2.7354	-2.3187	-2.6937	-2.6146	-2.1417	-2.6875	212.613	30.057	47.083	228.195	245.713	191.281	226.363	-68.965	57.582	167.143	207.525	250.114	143.740	206.833	68.340	-81.494	0.00024653	0.00091105	0.00014406	1418.7	1.4901e-06	6.1639e-06	1419.5	386.17	4.7043e-06	7.7392e-06	445.47	147.73	122.99	44.346	4.6057e-06	55.053	0.00085416	0.00088715	0.00024709	1443.4	9.6615e-06	9.7257e-06	1445.1	397.12	9.7262e-06	9.7688e-06	456.85	152.65	127.33	46.023	9.8064e-06	57.157	-63.932	-14.951	-38.038	-92.293	128.621	5.392	-92.306	-87.448	83.694	4.829	-88.406	-83.735	-83.358	-78.750	-4.769	-79.456	-8191	255	
1750.878	1	1	0	0	0.10958	0.24489	0.10145	0.30927	0.090319	0.1107	0.11439	0.22814	0.26825	0.14023	0.18949	0.27755	0.20835	0.0097921	0.13149	0.2903	-1.6771	-2.4417	-2.7271	-2.4708	-2.6	-2.5812	-2.4125	-2.8146	-2.2438	-2.3583	-2.8583	-2.3833	-2.3646	-2.7854	-2.3875	-2.6667	57.535	97.608	5.209	223.014	32.795	36.738	163.540	-72.782	149.700	126.244	193.193	192.448	-37.817	-102.863	32.691	141.787	0.00031001	0.00074629	0.00014153	1424.1	4.6449e-06	5.3497e-06	1424.1	387.52	1.8635e-06	6.8177e-06	445.73	148.61	123.54	44.41	2.4041e-06	55.235	0.00086285	0.00089817	0.00024972	1445.6	9.7148e-06	9.7434e-06	1447.2	397.13	9.6684e-06	9.8641e-06	457.09	153.06	127.61	46.098	9.9429e-06	57.27	-77.683	-77.916	-25.261	-92.267	100.459	71.926	-92.077	-87.563	-27.919	67.067	-88.237	-83.575	-83.565	-79.002	-85.002	-79.665	-8191	255	
1750.974	1	1	0	0	0.11447	0.15885	0.17657	0.17579	0.2012	0.33216	0.35437	0.28304	0.34378	0.040906	0.13203	0.14952	0.27765	0.34735	0.20626	0.34551	-1.9	-2.2417	-2.5583	-2.5583	-2.375	-2.575	-2.5438	-2.7271	-2.4854	-2.1813	-2.7854	-2.5396	-2.4792	-2.6	-2.2021	-2.6458	-44.953	99.783	163.174	237.365	-46.705	186.910	197.393	212.959	73.807	175.055	-98.509	-73.502	196.708	253.990	169.274	227.991	0.00021438	0.0011816	0.00021799	1421.4	2.3349e-06	5.2535e-06	1420.2	387.28	1.6723e-06	6.7913e-06	444.76	147.87	123.33	44.375	7.681e-06	55.208	0.00086357	0.00090913	0.00025042	1447.4	9.9221e-06	9.9676e-06	1449.8	397.98	1.0009e-05	1.0076e-05	457.23	153.05	127.6	46.068	1.0054e-05	57.267	-65.330	-68.812	-23.062	-92.322	205.091	61.205	-92.126	-87.725	4.545	39.118	-88.167	-83.572	-83.224	-78.561	13.152	-79.651	-8191	255	
1751.071	1	1	0	0	0.068192	0.06661	0.13076	0.040672	0.34493	0.27665	0.27227	0.21012	0.1727	0.06298	0.23198	0.063723	0.11763	0.18116	0.13504	0.10744	-1.9583	-2.0667	-2.4646	-2.5958	-2.2833	-2.7333	-2.5583	-2.8146	-2.6208	-2.2167	-2.8958	-2.4521	-2.3708	-2.7458	-2.2396	-2.5792	-72.680	-75.252	-11.612	203.727	64.607	84.234	225.525	216.030	36.119	68.806	198.654	183.359	191.082	96.094	-62.460	72.520	0.00035998	0.00085609	0.00013285	1425.6	2.3298e-06	3.348e-06	1426.6	389.41	8.8523e-06	5.3614e-06	446.15	147.85	123.49	44.479	3.9946e-06	55.146	0.00089158	0.00092472	0.00025505	1449.8	1.0016e-05	1.0161e-05	1448	398.55	1.0048e-05	1.0146e-05	458.16	153	127.83	46.123	1.0068e-05	57.237	-80.724	15.000	29.947	-92.282	-11.200	50.962	-92.050	-87.727	-40.460	56.128	-88.217	-83.687	-83.216	-79.018	73.992	-79.212	-8191	255	
1751.189	1	1	0	0	0.28488	0.29604	0.18843	0.49169	0.16344	0.22885	0.33907	0.20803	0.26065	0.15234	0.48427	0.38891	0.27191	0.17046	0.23898	0.13997	-2.0375	-2.1792	-2.5563	-2.4521	-2.175	-2.8208	-2.5333	-2.3812	-2.5792	-2.2396	-2.8875	-2.4354	-2.2042	-2.9792	-2.3104	-2.5521	231.204	-25.096	-104.007	196.559	151.738	67.554	185.095	159.052	165.638	250.888	203.380	223.946	175.633	-100.880	133.846	-19.121	0.000223	0.00089322	0.00017183	1425.5	3.3504e-06	1.0484e-05	1424.5	388.91	4.366e-06	1.1733e-05	448.84	148.15	123.74	44.364	6.5481e-06	55.178	0.00087739	0.00091948	0.00025651	1448	9.9215e-06	9.968e-06	1450	398.67	9.906e-06	9.9215e-06	457.98	152.85	127.78	46.128	9.9062e-06	57.261	-83.225	-15.229	-5.627	-92.243	93.520	49.264	-92.256	-87.488	48.437	51.402	-88.004	-83.444	-83.124	-78.800	39.308	-79.531	-8191	255	
1751.286	1	1	0	0	0.083095	0.036995	0.1408	0.31254	0.28155	0.064443	0.13657	0.22111	0.11561	0.13657	0.012812	0.19252	0.090016	0.18919	0.085886	0.1317	-2.2667	-2.1813	-2.6208	-2.5104	-2.2979	-2.6396	-2.6271	-2.5729	-2.4188	-2.1646	-2.8354	-2.6333	-2.2875	-2.9188	-2.3	-2.3917	180.348	-65.572	84.183	241.557	-55.522	69.063	-80.726	207.222	59.174	24.361	92.926	-81.110	-53.711	126.849	-52.259	-102.227	0.00031112	0.00028538	0.00014321	1421.9	1.1337e-06	3.5171e-06	1424.5	389.11	7.2918e-06	5.4248e-06	445.98	147.6	123.6	44.464	1.6795e-06	55.203	0.00087074	0.00090033	0.00025241	1447.4	9.7639e-06	9.9651e-06	1447.8	398.58	9.8048e-06	9.8876e-06	458.14	152.74	127.73	46.114	9.8867e-06	57.27	-56.717	238.167	-81.522	-92.371	232.320	24.580	-92.268	-87.539	63.751	-20.930	-88.140	-83.723	-83.185	-78.790	-32.404	-79.442	-8191	255	
1751.357	1	1	0	0	0.12052	0.17617	0.065641	0.28416	0.3035	0.19231	0.34035	0.38794	0.16493	0.32898	0.10847	0.17373	0.13292	0.25566	0.14034	0.14366	-2.1937	-1.9583	-2.5833	-3.0625	-2.2313	-2.6833	-2.525	-2.4667	-2.5125	-2.3667	-2.5854	-2.6542	-2.2292	-2.8208	-2.3729	-2.3271	-31.241	248.123	184.087	173.334	136.839	200.700	158.548	222.403	128.483	36.975	113.062	247.963	148.756	154.421	-102.401	157.499	0.00029389	0.00046848	0.00019513	1425.8	7.9552e-06	4.3678e-06	1425.5	389.3	5.5324e-06	8.2668e-06	446.76	147.57	123.93	44.719	9.6597e-06	55.114	0.00086897	0.00089859	0.00025256	1450.8	9.6872e-06	9.8746e-06	1450.4	398.99	9.724e-06	9.8583e-06	458.25	153.12	127.85	46.13	9.92e-06	57.235	-79.769	-22.815	-36.988	-92.242	50.081	28.760	-92.205	-87.659	84.484	80.961	-88.442	-83.214	-83.373	-78.790	79.144	-79.711	-8191	255	
1751.453	1	1	0	0	0.27456	0.34966	0.15794	0.055928	0.13983	0.03704	0.3621	0.10563	0.10217	0.084941	0.10714	0.25503	0.26056	0.38976	0.17485	0.22664	-2.2917	-2.1813	-2.2438	-2.5938	-2.1625	-2.6708	-2.6146	-2.5062	-2.4521	-2.1208	-2.4479	-2.6542	-2.2354	-2.4292	-2.4625	-2.3937	14.169	84.430	120.521	238.947	189.552	-104.988	209.759	170.474	47.204	93.289	199.992	249.114	139.636	247.673	117.917	167.927	0.0002704	0.00037036	8.3972e-05	1420.6	4.6466e-06	5.1232e-06	1429.6	389.63	3.5865e-06	6.2365e-06	445.83	147.14	123.06	44.557	5.8095e-06	55.301	0.00085916	0.0009044	0.00025164	1447.2	9.7963e-06	9.9019e-06	1451.9	398.7	9.7755e-06	9.8271e-06	458.15	152.56	127.69	46.131	9.8338e-06	57.26	-50.423	-0.727	151.206	-92.245	9.463	41.927	-92.276	-87.549	23.527	54.048	-88.110	-83.936	-83.313	-78.921	89.613	-79.644	-8191	255	
1751.574	1	1	0	0	0.15156	0.33552	0.19069	0.19677	0.24509	0.045725	0.15025	0.13749	0.18894	0.18735	0.30095	0.22674	0.37036	0.18879	0.17056	0.31752	-2.1146	-2.2188	-2.5479	-2.9229	-2.1437	-2.6188	-2.5146	-2.4083	-2.5958	-2.5083	-2.4938	-2.8354	-2.3208	-2.3688	-2.425	-2.3958	71.428	45.120	3.909	213.617	63.580	3.163	237.358	128.124	-28.339	152.217	207.589	177.596	-96.126	222.601	-41.100	194.009	0.00024213	0.00031764	0.00022159	1418.3	7.5323e-06	6.2774e-06	1425.6	389	6.553e-06	3.1976e-06	446.97	148.08	123.35	44.513	5.9156e-06	55.083	0.00087002	0.00090455	0.00025061	1446.5	9.8336e-06	9.8697e-06	1449.4	398.84	9.8327e-06	9.9242e-06	458.55	152.8	127.8	46.17	9.8114e-06	57.223	-59.745	42.048	-23.555	-92.224	42.768	-15.267	-92.288	-87.605	12.417	40.834	-88.230	-83.475	-83.282	-79.148	127.422	-79.826	-8191	255	
1751.670	1	1	0	0	0.25049	0.15601	0.30079	0.2984	0.28771	0.20318	0.087469	0.15737	0.16513	0.28803	0.18951	0.1264	0.33284	0.064865	0.10217	0.24672	-2.2646	-2.2958	-2.3604	-2.8708	-2.0062	-2.5625	-2.6667	-2.2438	-2.6042	-2.3083	-2.3875	-2.8292	-2.3833	-2.5333	-2.5375	-2.3021	66.454	192.030	191.234	182.775	68.121	166.600	78.307	-81.238	-101.424	204.542	-92.993	197.665	-84.247	20.756	-29.394	164.425	0.0003086	0.00042906	0.00016729	1422.5	7.5131e-06	3.8751e-06	1429.3	389.66	4.5926e-06	1.0703e-05	446.78	148.62	123.57	44.356	6.6043e-06	55.113	0.00086744	0.00090732	0.00025077	1448.1	9.7656e-06	9.8643e-06	1451.1	399.16	9.8465e-06	9.905e-06	458.1	153.03	127.6	46.106	9.8408e-06	57.314	-69.178	-56.726	-17.293	-92.266	40.051	77.689	-92.230	-87.555	48.628	29.715	-88.359	-83.862	-83.337	-78.822	73.205	-79.370	-8191	255	
1751.766	1	1	0	0	0.2273	0.229	0.053958	0.11358	0.21867	0.19966	0.34399	0.044124	0.16546	0.12528	0.22516	0.17769	0.13387	0.10779	0.2298	0.15846	-2.1875	-2.5	-2.2396	-2.8417	-2.1854	-2.475	-2.9333	-2.2354	-2.4146	-2.5542	-2.3812	-2.7146	-2.4604	-2.25	-2.5	-2.2771	106.192	166.140	192.565	91.069	-91.027	11.961	222.408	192.537	3.524	130.684	235.220	168.157	225.354	139.207	106.355	169.513	0.00024286	0.00084302	6.9928e-05	1428	8.9743e-07	6.6347e-06	1423.4	389.28	2.4771e-06	4.4261e-06	446.38	148.28	122.8	44.624	3.0829e-06	55.512	0.0008718	0.00090564	0.00025071	1450.4	9.7238e-06	9.8289e-06	1451	398.2	9.807e-06	9.8692e-06	457.9	153.11	127.61	46.193	9.7247e-06	57.326	-60.291	16.631	-41.606	-92.243	46.886	-22.733	-92.265	-87.624	-25.451	-29.645	-88.375	-83.657	-83.245	-78.550	13.280	-79.403	-8191	255	
1751.887	1	1	0	0	0.16757	0.098731	0.091038	0.17812	0.22533	0.13353	0.11702	0.13751	0.3193	0.24269	0.059675	0.13087	0.20869	0.09727	0.20905	0.10601	-2.0208	-2.4813	-2.0521	-2.9042	-2.2438	-2.2875	-2.9271	-2.4375	-2.3771	-2.5333	-2.2792	-2.8583	-2.4062	-2.3208	-2.5854	-2.1792	218.851	138.091	89.190	-74.036	-11.913	-47.759	219.678	165.117	83.134	-15.229	112.250	196.506	158.321	-95.762	173.004	129.507	0.00032667	0.00041216	0.00017109	1422.6	1.9512e-06	9.6946e-06	1425	390.23	4.5349e-06	9.9625e-06	447.1	148.03	122.75	44.631	7.569e-06	54.862	0.00086826	0.00089361	0.00025037	1450.2	9.7584e-06	9.9647e-06	1450	399.57	9.8891e-06	9.796e-06	458.4	153.05	127.58	46.17	9.767e-06	57.239	-85.119	-37.558	9.352	-92.211	125.005	24.054	-92.198	-87.561	243.303	19.395	-88.426	-83.974	-83.459	-78.933	18.123	-79.395	-8191	255	
1751.959	1	1	0	0	0.13253	0.16078	0.18656	0.32292	0.10883	0.10729	0.23922	0.1297	0.25474	0.26869	0.29492	0.13778	0.15322	0.18746	0.028143	0.13369	-1.9917	-2.3312	-2.1083	-2.6771	-2.4958	-2.4208	-2.9854	-2.4	-2.5229	-2.7167	-2.3583	-2.6	-2.6708	-2.2625	-2.6271	-2.4625	-30.296	133.073	6.571	228.869	154.721	162.449	144.836	192.420	229.329	-33.784	207.551	-34.944	92.083	200.245	-52.955	194.092	0.00029654	0.0010351	0.00011857	1421.9	2.9769e-06	4.0074e-06	1422.8	390	6.7336e-06	3.7218e-06	446.82	148.22	124.02	44.679	3.5577e-06	55.397	0.00086384	0.00090194	0.00025085	1448.7	9.7483e-06	9.8369e-06	1448.4	399.61	9.8824e-06	9.8224e-06	458.19	153.1	127.98	46.183	9.7536e-06	57.419	-68.663	-39.716	-45.005	-92.067	-39.576	-8.660	-92.205	-87.704	46.992	57.498	-88.140	-83.609	-83.275	-79.013	-58.180	-79.413	-8191	255	
1752.055	1	1	0	0	0.061707	0.29266	0.16723	0.37524	0.26179	0.10405	0.15973	0.18316	0.23434	0.12821	0.22661	0.18779	0.1279	0.19198	0.21295	0.2595	-1.85	-2.6083	-2.2458	-2.6958	-2.3292	-2.3042	-2.8646	-2.4646	-2.2458	-2.725	-2.4437	-2.7646	-2.7021	-2.4104	-2.7313	-2.5229	13.457	-42.392	88.250	227.188	120.022	147.174	-95.451	195.235	185.216	-39.571	213.068	206.818	-21.833	206.715	141.055	239.559	0.00028316	0.00058093	0.00013205	1428.1	2.0603e-06	6.9311e-06	1430.9	390.1	4.507e-06	3.6111e-06	446.97	148.29	123.38	44.39	5.1178e-06	55.04	0.00086522	0.00088873	0.00024687	1448.7	9.7045e-06	9.7428e-06	1452.4	399.56	9.6911e-06	9.7593e-06	458.76	153.11	127.8	46.085	9.699e-06	57.247	-74.538	30.901	-50.271	-92.202	58.043	19.393	-92.458	-87.669	32.746	-5.464	-88.306	-83.277	-83.246	-79.048	4.053	-79.681	-8191	255	
1752.174	1	1	0	0	0.26447	0.11495	0.06985	0.20976	0.10304	0.17658	0.29392	0.13615	0.090681	0.087323	0.09864	0.20665	0.21007	0.18827	0.22428	0.18248	-1.9792	-2.5354	-2.1688	-2.6604	-2.4521	-2.1625	-2.7167	-2.6583	-2.3167	-2.6583	-2.4458	-2.5979	-2.7333	-2.4021	-2.5792	-2.4271	147.584	-80.184	242.249	209.467	72.377	91.186	207.397	217.040	-11.142	177.401	229.157	-86.553	172.617	-55.490	-10.033	235.688	0.00031726	0.00052391	4.6553e-05	1426.5	1.0185e-06	4.351e-06	1426.1	389.61	1.5876e-06	4.7244e-06	448.05	148.29	123.08	44.633	6.3294e-06	55.476	0.00086408	0.0008802	0.00024581	1449.5	9.6214e-06	9.7273e-06	1450.3	399.14	9.6447e-06	9.743e-06	458.49	152.97	127.63	46.163	9.6509e-06	57.229	-71.625	-71.540	-45.061	-92.417	241.146	-37.927	-92.362	-87.525	44.398	83.336	-88.434	-83.389	-83.227	-78.817	-63.447	-79.371	-8191	255	
1752.270	1	1	0	0	0.17034	0.26358	0.064924	0.32716	0.12943	0.18681	0.068276	0.018837	0.14815	0.29022	0.26258	0.25855	0.47538	0.092671	0.1089	0.15453	-1.925	-2.5833	-2.3	-2.5563	-2.6771	-2.0458	-2.8667	-2.6458	-2.1104	-2.7583	-2.5375	-2.5354	-2.6562	-2.2771	-2.7396	-2.6333	170.839	229.993	-10.584	198.999	134.078	-16.656	-74.224	152.848	50.368	199.339	-27.357	177.334	-101.502	243.482	30.739	16.541	0.00030429	0.00058403	0.00010566	1427.4	1.8218e-06	1.0658e-05	1429.2	390.17	1.2109e-06	2.6027e-06	446.21	148.61	123.25	44.589	3.7147e-06	55.268	0.00085066	0.00089196	0.00024648	1449.5	9.5473e-06	9.678e-06	1451.2	399.48	9.6134e-06	9.7326e-06	457.95	153.19	127.73	46.236	9.6932e-06	57.229	-76.268	-39.219	-61.930	-92.276	48.696	-4.065	-92.338	-87.640	5.706	53.268	-88.165	-83.582	-83.458	-78.918	-81.809	-79.574	-8191	255	
1752.366	1	1	0	0	0.12364	0.22217	0.10984	0.21868	0.18154	0.1413	0.12667	0.23032	0.14435	0.19205	0.23121	0.38122	0.25032	0.13322	0.23402	0.23791	-1.6938	-2.5375	-2.2604	-2.2833	-2.6458	-2.1063	-2.6083	-2.5854	-2.0521	-2.5563	-2.4646	-2.6042	-2.6375	-2.2375	-2.5333	-2.7208	-15.953	39.208	-84.588	207.748	238.576	131.362	209.510	141.668	78.087	71.903	207.702	183.090	228.267	210.014	-2.504	151.613	0.00022415	0.00052179	0.00010109	1423.9	3.2599e-06	5.9635e-06	1425.9	388.78	4.1581e-06	2.2802e-06	447.55	147.74	123.62	44.253	8.5461e-06	55.223	0.00084624	0.00088271	0.00024559	1450.8	9.5542e-06	9.5764e-06	1449.9	398.92	9.5821e-06	9.6905e-06	458.43	152.96	127.79	46.09	9.7261e-06	57.25	-43.907	-38.070	26.929	-92.270	56.718	91.521	-92.281	-87.547	-18.639	-7.613	-88.262	-83.438	-83.569	-78.843	68.853	-79.599	-8191	255	
1752.487	1	1	0	0	0.16302	0.26757	0.037696	0.47566	0.13265	0.29011	0.2202	0.30122	0.22941	0.23249	0.20934	0.13367	0.40581	0.23483	0.15002	0.063719	-1.6729	-2.4958	-2.3875	-2.4729	-2.7062	-2.1	-2.6208	-2.6625	-2.2313	-2.5958	-2.525	-2.2792	-2.7229	-2.3854	-2.2146	-2.6771	139.121	223.272	-46.820	217.802	95.840	89.266	200.180	160.642	120.604	138.777	-67.893	221.570	-9.436	236.964	221.387	188.286	0.00033842	0.00082336	0.00013726	1424.3	6.4772e-06	3.1612e-06	1426.9	390.92	4.1682e-06	6.2486e-06	448.35	148.22	123.51	44.448	8.2464e-06	55.236	0.00084205	0.00088319	0.0002484	1447	9.53e-06	9.5883e-06	1450.4	399.42	9.4375e-06	9.7131e-06	458.89	153.21	127.87	46.137	9.5967e-06	57.266	-72.548	-39.756	-23.355	-92.128	20.627	46.803	-92.167	-87.637	86.298	67.829	-88.240	-83.550	-83.128	-78.730	94.120	-79.650	-8191	255	
1752.558	1	1	0	0	0.18955	0.094218	0.066065	0.25625	0.21005	0.22557	0.22242	0.087156	0.098615	0.081263	0.42488	0.29982	0.33599	0.20296	0.28309	0.14137	-1.6208	-2.6458	-2.4875	-2.1708	-2.6104	-2.3125	-2.6042	-2.7896	-2.2833	-2.4938	-2.575	-2.2583	-2.7146	-2.3896	-2.3292	-2.9083	-60.000	226.012	-68.471	164.918	-15.591	-22.451	145.606	119.480	-9.489	85.331	250.679	236.620	210.244	18.730	-78.024	84.636	0.00028031	0.0011256	6.1677e-05	1424.3	9.1726e-06	2.6644e-06	1424.9	390.84	3.6638e-06	5.8809e-06	447.06	147.81	123.86	44.469	1.0323e-05	55.51	0.00084407	0.0008873	0.00024358	1450	9.5394e-06	9.5915e-06	1449.7	399.29	9.5632e-06	9.7534e-06	457.94	152.89	127.92	46.156	9.6296e-06	57.321	-75.258	-48.807	-14.384	-92.360	23.704	-4.440	-92.230	-87.484	-3.662	26.899	-88.130	-83.542	-83.221	-78.707	59.232	-79.575	-8191	255	
1752.654	1	1	0	0	0.10195	0.061252	0.44904	0.41175	0.125	0.18329	0.21295	0.076182	0.016377	0.15854	0.37683	0.033656	0.24516	0.16371	0.15361	0.24388	-1.7771	-2.425	-2.6437	-2.3042	-2.7417	-2.3979	-2.4333	-2.8563	-2.1583	-2.6271	-2.6458	-2.3375	-2.8417	-2.5229	-2.2354	-2.6479	56.380	208.103	151.137	176.576	168.684	-1.204	202.675	143.050	75.572	-86.898	244.939	222.183	225.655	-58.671	243.110	177.150	0.00026574	0.0004004	7.9142e-05	1424.8	2.9589e-06	3.1837e-06	1427.2	389.92	2.7493e-06	6.2196e-06	446.95	148.17	123.85	44.371	5.6637e-06	55.24	0.00085468	0.00088299	0.0002433	1448.6	9.5744e-06	9.5298e-06	1448.3	398.99	9.4642e-06	9.6391e-06	458.12	152.97	127.82	46.086	9.6531e-06	57.276	-71.488	-93.136	-24.608	-92.331	58.027	42.685	-92.200	-87.686	60.891	96.628	-88.153	-83.845	-83.397	-78.867	31.286	-79.532	-8191	255	
1752.751	1	1	0	0	0.23655	0.15497	0.26793	0.33006	0.049866	0.28952	0.21937	0.29407	0.124	0.11543	0.24087	0.34211	0.10725	0.34262	0.29292	0.18082	-1.7917	-2.5812	-2.4792	-2.4104	-2.5417	-2.5167	-2.4208	-2.8729	-2.3937	-2.4313	-2.7812	-2.3271	-2.7104	-2.5708	-2.1958	-2.7792	-89.664	254.259	-36.561	171.680	176.505	-69.129	191.013	228.614	106.978	-41.407	219.216	209.297	241.392	71.339	9.173	240.657	0.00025903	0.00061408	0.00018229	1425.7	2.0555e-06	8.5004e-06	1427.5	392.66	6.0771e-06	6.5809e-06	446.67	148.56	123.18	44.585	8.9536e-06	55.241	0.00084509	0.00088755	0.00024329	1448.8	9.608e-06	9.6541e-06	1450.1	400.09	9.6507e-06	9.6787e-06	457.96	153.25	127.85	46.111	9.64e-06	57.23	-70.035	-66.528	-41.668	-92.149	84.047	44.677	-91.974	-87.738	63.999	89.857	-88.306	-83.714	-83.354	-78.895	43.623	-79.690	-8191	255	
1752.871	1	1	0	0	0.14033	0.13482	0.17242	0.14689	0.18944	0.15861	0.10423	0.30098	0.13014	0.43737	0.18433	0.29663	0.1782	0.12855	0.24953	0.13488	-1.8146	-2.35	-2.5979	-2.3417	-2.4	-2.5229	-2.4125	-2.7417	-2.375	-2.2875	-2.8333	-2.3833	-2.6333	-2.7625	-2.1833	-2.7875	248.187	65.410	-43.364	157.558	178.525	-74.701	96.218	194.242	132.596	-93.544	229.573	-36.605	115.476	228.944	-51.146	178.722	0.00029874	0.00019204	8.7315e-05	1426.8	4.3036e-06	6.1988e-06	1424.6	389.87	4.7456e-06	5.5427e-06	447.71	147.79	123.55	44.64	7.4287e-06	55.233	0.00085167	0.00088339	0.00024472	1448.5	9.5577e-06	9.574e-06	1449.6	399.53	9.5037e-06	9.5857e-06	458.73	152.75	127.87	46.14	9.642e-06	57.249	-77.415	-94.410	-17.462	-92.244	32.786	50.804	-92.213	-87.660	-2.352	-0.648	-88.284	-83.501	-83.253	-78.930	113.482	-79.742	-8191	255	
1752.966	1	1	0	0	0.36346	0.13638	0.13275	0.281	0.12982	0.078062	0.19658	0.070361	0.11736	0.099754	0.096133	0.09884	0.11552	0.22988	0.22909	0.16166	-1.9125	-2.2375	-2.5729	-2.5896	-2.4813	-2.4229	-2.5	-2.7292	-2.4854	-2.2542	-2.825	-2.3521	-2.4938	-2.8042	-2.1583	-2.8021	40.695	64.963	153.769	-80.106	-54.571	-9.843	120.463	165.318	-19.238	120.131	-55.015	28.417	71.426	191.870	-39.882	227.891	0.00026011	0.00021372	0.00014515	1427.9	7.2695e-06	3.8681e-06	1425	391.36	2.0763e-06	2.598e-06	446.48	148.48	123.56	44.553	6.7531e-06	55.516	0.00084885	0.00088066	0.00024293	1450	9.5437e-06	9.5804e-06	1449.6	400.15	9.5686e-06	9.6955e-06	458.5	153.28	127.78	46.142	9.5937e-06	57.32	-76.505	-56.408	21.439	-92.291	51.220	127.920	-92.141	-87.644	36.602	59.826	-88.318	-83.467	-83.284	-78.887	91.096	-79.783	-8191	255	
1753.062	1	1	0	0	0.26735	0.20274	0.047651	0.10847	0.034197	0.12448	0.082867	0.42882	0.14593	0.38197	0.22935	0.21256	0.26872	0.090737	0.25389	0.23862	-1.8625	-2.0917	-2.7	-2.4479	-2.3604	-2.4833	-2.4813	-2.6417	-2.6021	-2.2875	-2.8833	-2.3667	-2.5146	-2.8583	-2.3	-2.7521	97.972	104.787	157.306	219.567	43.948	251.478	26.198	230.706	32.608	185.084	214.109	230.365	196.727	-84.909	188.787	181.542	0.00031889	0.00096758	0.00020595	1430.3	1.0086e-05	6.4129e-06	1419.4	390.87	2.0093e-06	7.1942e-06	448.95	148.35	123.71	44.448	2.6469e-06	55.18	0.00085174	0.00087528	0.00024493	1450.1	9.5743e-06	9.5818e-06	1448.7	399.96	9.6173e-06	9.6164e-06	458.8	153.29	127.81	46.101	9.5601e-06	57.182	-73.072	-15.872	-32.917	-92.301	27.918	18.569	-92.246	-87.622	80.477	100.700	-88.378	-83.475	-83.083	-79.011	110.088	-79.459	-8191	255	
1753.158	1	1	0	0	0.25784	0.20051	0.2767	0.35534	0.05025	0.089897	0.27756	0.23569	0.17112	0.14609	0.0058496	0.2236	0.36869	0.18105	0.30881	0.33974	-1.9917	-2.1396	-2.5271	-2.65	-2.3854	-2.7583	-2.5104	-2.6208	-2.6083	-2.4021	-2.8021	-2.5875	-2.4104	-2.7083	-2.1604	-2.5187	18.998	-61.389	-78.462	-85.701	58.537	153.229	158.396	164.435	210.889	19.804	-34.861	-86.714	234.742	185.707	-45.109	122.360	0.0003125	0.00013398	0.0002055	1421.1	6.2535e-06	5.9843e-06	1423.6	390.07	3.2983e-06	4.2242e-06	444.24	148.13	123.41	44.545	2.4892e-06	55.36	0.00084836	0.00086807	0.00024701	1446.3	9.5471e-06	9.6083e-06	1449.3	399.28	9.5471e-06	9.6905e-06	457.06	152.94	127.87	46.128	9.5502e-06	57.221	-65.341	209.634	-62.507	-92.223	55.466	20.825	-92.293	-87.679	45.242	64.665	-88.224	-83.359	-83.472	-78.860	165.511	-79.564	-8191	255	
1753.256	1	1	0	0	0.16918	0.046045	0.25295	0.34	0.22809	0.14743	0.22235	0.14757	0.53219	0.14899	0.36223	0.02205	0.17384	0.088275	0.13709	0.12395	-2.2542	-2	-2.6312	-2.7313	-2.1833	-2.6792	-2.35	-2.6833	-2.4979	-2.0792	-2.7354	-2.5896	-2.1417	-2.8646	-2.2313	-2.5812	-43.430	64.515	150.924	-88.226	-51.419	143.838	191.242	-87.109	24.051	226.248	193.161	214.011	-98.298	-17.212	29.621	212.562	0.00031236	0.00035334	0.00024615	1426.8	6.0421e-06	3.991e-06	1422.1	391.15	2.3856e-06	4.2992e-06	448.87	148.33	123.35	44.554	7.4968e-06	55.211	0.00085545	0.00089202	0.00024882	1447.6	9.6874e-06	9.7525e-06	1447.7	399.6	9.6406e-06	9.7505e-06	459.14	153.06	127.75	46.13	9.7668e-06	57.274	-77.750	-103.762	-18.515	-92.518	131.178	56.982	-92.275	-87.696	49.975	130.948	-88.400	-83.559	-83.406	-78.645	-27.202	-79.612	-8191	255	
1753.350	1	1	0	0	0.34966	0.11395	0.10798	0.14769	0.28318	0.14104	0.19279	0.15262	0.24169	0.12715	0.25752	0.15008	0.089392	0.24264	0.11002	0.21687	-2.1188	-2.2271	-2.4333	-2.3542	-2.1896	-2.7458	-2.4813	-2.4125	-2.6312	-2.2021	-2.7792	-2.6312	-2.3125	-2.825	-2.5458	-2.4188	93.981	-71.488	-27.988	-17.278	97.296	210.370	208.556	-80.889	-87.341	-40.717	-103.760	164.422	-21.448	160.239	-27.156	189.745	0.00024771	0.001277	0.00012577	1424.9	5.685e-06	2.7741e-06	1428.3	389.69	5.6223e-06	8.7144e-06	448.34	147.76	123.35	44.323	4.6131e-06	55.401	0.00086289	0.00088861	0.00024931	1448	9.6618e-06	9.6901e-06	1449.3	399.12	9.6996e-06	9.7925e-06	458.53	153.07	127.79	46.146	9.7182e-06	57.168	-85.248	4.904	-40.982	-92.384	-38.972	138.668	-92.327	-87.600	68.866	32.466	-88.376	-83.697	-83.175	-78.745	-37.646	-79.395	-8191	255	
1753.446	1	1	0	0	0.10748	0.083911	0.37122	0.21726	0.18331	0.2137	0.35775	0.17399	0.083701	0.073373	0.36402	0.25468	0.11559	0.12605	0.33166	0.10661	-2.2083	-2.2604	-2.5271	-2.8458	-2.2854	-2.7	-2.7354	-2.6083	-2.6292	-2.2854	-2.5896	-2.7708	-2.3063	-2.5917	-2.4458	-2.4375	28.875	-52.210	189.199	193.372	-32.225	180.909	216.589	107.444	244.054	221.890	248.280	202.412	-101.161	168.965	6.354	185.833	0.00036287	0.00032219	0.00017343	1421.8	8.5457e-06	5.0831e-06	1426.4	389.65	5.5223e-06	3.529e-06	447.65	148.61	123.1	44.474	2.0925e-06	55.307	0.00086388	0.00088712	0.00024974	1448.2	9.6005e-06	9.7752e-06	1450	398.97	9.6776e-06	9.8149e-06	458.74	153.32	127.71	46.144	9.8209e-06	57.236	-58.088	-60.834	-64.077	-92.309	51.649	7.728	-92.213	-87.637	51.043	5.367	-88.368	-83.572	-83.276	-78.919	-29.618	-79.565	-8191	255	
1753.567	1	1	0	0	0.20802	0.1451	0.22707	0.19282	0.30063	0.29837	0.36012	0.14875	0.23986	0.074331	0.13738	0.033228	0.099059	0.19541	0.2579	0.24203	-2.1917	-2.2687	-2.4646	-2.8542	-2.1562	-2.6312	-2.6104	-2.4229	-2.5646	-2.2833	-2.5292	-2.6437	-2.1021	-2.6792	-2.3688	-2.2833	162.739	174.936	-67.321	227.117	20.464	93.029	207.543	168.658	187.739	124.686	119.682	-10.367	195.452	-32.996	-61.438	241.955	0.0002766	0.0010612	0.00022644	1423.8	4.0656e-06	3.7073e-06	1423.6	390.44	6.8516e-06	4.1182e-06	446.47	148.27	123.55	44.509	5.5623e-06	55.438	0.00084794	0.00089092	0.00024912	1447.6	9.6468e-06	9.8148e-06	1448.4	399.44	9.6534e-06	9.6731e-06	458.7	153.19	127.71	46.147	9.7166e-06	57.275	-65.480	-37.502	-84.066	-92.256	85.598	130.112	-92.456	-87.801	49.171	40.704	-88.382	-83.590	-83.233	-78.839	-33.728	-79.664	-8191	255	
1753.663	1	1	0	0	0.24887	0.21142	0.19028	0.18422	0.23477	0.18932	0.35999	0.29928	0.29631	0.28147	0.32046	0.11634	0.12987	0.27571	0.21547	0.065995	-2.2562	-2.2938	-2.2729	-2.7667	-2.1771	-2.4813	-2.6979	-2.4104	-2.5771	-2.3187	-2.4313	-2.8292	-2.2438	-2.6417	-2.5771	-2.2729	-82.461	228.144	37.231	222.231	130.021	143.274	187.026	-93.994	55.683	-27.494	173.723	-88.775	131.142	-66.554	159.366	17.810	0.00030025	0.00063997	0.00022181	1426.5	7.3108e-06	7.9752e-07	1424.7	388.15	1.3398e-06	3.2163e-06	448.09	148.06	123.72	44.573	3.0751e-06	54.869	0.00085702	0.00088188	0.00024819	1450.6	9.748e-06	9.8859e-06	1448.8	398.81	9.7045e-06	9.7674e-06	459.09	153.06	127.86	46.198	9.779e-06	57.14	-62.820	-44.431	-30.712	-92.224	36.865	51.687	-92.285	-87.641	-5.559	67.334	-88.264	-83.786	-83.149	-78.822	56.914	-79.474	-8191	255	
1753.759	1	1	0	0	0.080159	0.12865	0.20596	0.13585	0.10546	0.11982	0.33083	0.41159	0.13729	0.16291	0.16869	0.18091	0.37994	0.42947	0.14483	0.15715	-2.0292	-2.2354	-2.3333	-2.7667	-2.3042	-2.4062	-2.7208	-2.3708	-2.5938	-2.1125	-2.3063	-2.8896	-2.3417	-2.2208	-2.6875	-2.1562	205.538	19.288	121.890	-69.766	-105.246	-13.428	163.740	208.494	-55.531	206.410	149.659	-43.371	212.222	222.581	102.401	238.673	0.00023497	0.000623	0.00014944	1426.9	4.5055e-06	4.956e-07	1422.6	391.21	8.1443e-06	4.7944e-06	445.81	147.99	123.51	44.511	5.0392e-06	55.184	0.00086803	0.00089821	0.00024946	1450.7	9.6793e-06	9.8194e-06	1449.8	399.89	9.7148e-06	9.8036e-06	458.4	153.13	127.9	46.126	9.8484e-06	57.214	-76.476	9.240	-81.869	-92.264	7.039	90.837	-92.143	-87.584	12.609	53.866	-88.262	-83.614	-83.262	-78.897	25.401	-79.713	-8191	255	
1753.855	1	1	0	0	0.13077	0.17662	0.27361	0.13065	0.16765	0.087088	0.17762	0.14716	0.16608	0.10222	0.11436	0.17912	0.073087	0.13334	0.086962	0.027076	-2.05	-2.3583	-2.2333	-2.8271	-2.2875	-2.3708	-3.0083	-2.2729	-2.4583	-2.4958	-2.3271	-2.8104	-2.4021	-2.6813	-2.6875	-2.4042	-84.834	-89.911	-73.540	-96.594	226.568	245.245	66.311	199.852	18.939	27.602	180.959	240.855	150.516	-89.346	227.298	213.480	0.00029782	0.0008852	7.6407e-05	1422	1.515e-06	8.5727e-07	1422.5	391.7	1.758e-06	5.4674e-06	446.84	148.57	123.79	44.457	3.5167e-06	55.291	0.00086009	0.00088988	0.00024643	1447.6	9.6033e-06	9.72e-06	1447.3	400.2	9.5271e-06	9.6331e-06	458.67	153.28	127.87	46.071	9.6772e-06	57.227	-63.516	-13.969	29.918	-92.336	75.384	-85.028	-92.073	-87.665	7.521	11.813	-88.390	-83.741	-83.312	-78.694	141.249	-79.440	-8191	255	
1753.952	1	1	0	0	0.13549	0.25568	0.055411	0.40182	0.055118	0.2447	0.30514	0.36058	0.15084	0.19832	0.26311	0.24748	0.13572	0.45752	0.26236	0.087422	-1.8937	-2.4729	-2.0021	-2.7917	-2.275	-2.2229	-2.8438	-2.1937	-2.6354	-2.5187	-2.2479	-2.6521	-2.4208	-2.4583	-2.6729	-2.3104	166.141	124.560	109.503	217.680	97.435	-34.314	193.767	197.710	145.526	139.725	-90.394	178.051	196.296	-56.246	163.746	213.800	0.00038262	0.00068788	0.00016886	1422.8	8.0544e-06	1.6215e-06	1420.2	391.64	4.7613e-06	3.5962e-06	448.08	148.14	123.41	44.602	8.4246e-06	55.326	0.00085071	0.00088455	0.00024474	1448	9.6431e-06	9.642e-06	1448	399.94	9.655e-06	9.5964e-06	458.99	153.06	127.82	46.132	9.6813e-06	57.174	-62.710	-53.634	2.211	-92.059	29.140	248.436	-92.388	-87.655	-2.023	41.623	-88.210	-83.670	-83.248	-78.834	49.462	-79.716	-8191	255	
1754.048	1	1	0	0	0.14231	0.056275	0.15327	0.16642	0.17142	0.21627	0.25342	0.2975	0.082198	0.17341	0.10086	0.04865	0.043119	0.027579	0.17663	0.20842	-1.9896	-2.5146	-2.0958	-2.7354	-2.3729	-2.3042	-2.7438	-2.3979	-2.5792	-2.35	-2.3542	-2.6396	-2.4979	-2.2104	-2.7229	-2.3604	180.190	-54.093	124.613	233.371	-29.400	133.100	143.645	252.262	-17.364	58.228	-95.335	198.660	34.459	125.142	104.841	236.807	0.00032525	0.00014641	0.00017842	1422.4	1.0171e-05	3.1193e-06	1430.3	389.12	5.7437e-06	8.4448e-06	448.46	148.11	123.33	44.524	1.3894e-05	55.109	0.00085642	0.00088838	0.00024742	1446.8	9.6019e-06	9.839e-06	1448.6	398.93	9.6974e-06	9.7398e-06	458.85	152.95	127.62	46.106	9.7463e-06	57.205	-86.226	50.443	-57.266	-92.261	85.237	39.764	-92.266	-87.684	106.100	43.102	-88.001	-83.579	-83.357	-78.687	69.948	-79.665	-8191	255	
1754.167	1	1	0	0	0.2179	0.18093	0.18116	0.28802	0.14799	0.016821	0.14326	0.035614	0.105	0.53037	0.094459	0.10304	0.18436	0.19572	0.32302	0.19917	-1.9	-2.6063	-1.9729	-2.6542	-2.4271	-2.0667	-2.7333	-2.2625	-2.3688	-2.7062	-2.2479	-2.6625	-2.5187	-2.3667	-2.5333	-2.3563	12.693	184.982	82.339	153.692	30.587	81.713	101.645	82.204	236.570	156.506	182.876	-100.553	240.678	207.201	122.550	145.580	0.00036645	0.00056635	4.9697e-05	1421.1	6.8355e-06	7.2919e-06	1421.6	389.3	4.5228e-06	6.7271e-06	449.01	148.42	123.44	44.652	3.3142e-07	55.183	0.00085416	0.00088068	0.00024564	1448.5	9.6209e-06	9.7463e-06	1446.1	399.28	9.6752e-06	9.6318e-06	458.68	153.21	127.8	46.101	9.6349e-06	57.184	-76.477	-50.530	218.971	-92.148	60.505	31.994	-91.931	-87.419	44.845	0.602	-88.339	-83.650	-83.069	-78.759	122.253	-79.426	-8191	255	
1754.263	1	1	0	0	0.17631	0.10845	0.40979	0.28888	0.040185	0.2375	0.17907	0.018618	0.11863	0.05149	0.080027	0.22929	0.074659	0.29893	0.13623	0.15242	-1.7458	-2.5875	-2.1917	-2.6937	-2.4583	-2.0208	-3.0438	-2.4375	-2.1979	-2.8833	-2.3875	-2.5542	-2.6521	-2.3125	-2.5646	-2.5687	-58.408	124.248	219.282	225.470	203.673	-100.994	244.433	60.097	121.361	227.301	197.622	233.046	177.662	111.232	119.895	118.062	0.00027156	0.00063534	8.3324e-05	1426.1	8.7782e-06	2.8247e-06	1427.1	390.74	4.8036e-06	5.2095e-06	446.46	147.99	123.51	44.549	9.5566e-06	54.911	0.00084931	0.00086949	0.00024455	1448.2	9.4043e-06	9.3944e-06	1448.1	399.49	9.4367e-06	9.5078e-06	458.39	152.84	127.7	46.08	9.4708e-06	57.019	-77.758	3.698	-42.871	-92.320	13.291	65.258	-92.214	-87.630	44.605	34.974	-88.198	-83.613	-83.058	-78.989	46.162	-79.585	-8191	255	
1754.359	1	1	0	0	0.056754	0.29634	0.039327	0.21529	0.12629	0.23603	0.099904	0.36912	0.16875	0.1927	0.43688	0.29634	0.25709	0.27175	0.041079	0.20933	-1.7104	-2.5771	-2.2083	-2.4167	-2.5875	-2.2146	-2.6792	-2.675	-2.2438	-2.8229	-2.3604	-2.6542	-2.7833	-2.3979	-2.6542	-2.5604	207.105	-85.199	-103.856	180.341	82.467	168.327	-17.642	222.377	144.412	104.133	241.527	207.569	220.983	169.086	103.576	148.289	0.00033418	0.00067576	0.00012254	1423.6	8.5352e-06	4.9028e-06	1423.4	390.86	3.0057e-06	5.1322e-06	446.08	147.81	123.31	44.58	1.4805e-05	55.342	0.00083374	0.00087067	0.00024581	1446.9	9.4361e-06	9.4902e-06	1448.6	399.9	9.4374e-06	9.5885e-06	457.86	152.98	127.51	46.089	9.5424e-06	57.226	-73.320	-23.878	-48.015	-92.180	-29.883	1.357	-92.312	-87.868	-59.977	33.931	-88.187	-83.577	-83.286	-78.870	29.800	-79.668	-8191	255	
1754.455	1	1	0	0	0.18927	0.14909	0.0127	0.15091	0.18438	0.16332	0.30713	0.088006	0.09093	0.13907	0.51068	0.19533	0.058765	0.16308	0.16121	0.27998	-1.8604	-2.6771	-2.3083	-2.5812	-2.7479	-2.1167	-2.6375	-2.6875	-2.3583	-2.6896	-2.4479	-2.3729	-2.775	-2.3063	-2.6417	-2.6271	80.788	-34.765	-5.687	240.994	232.681	250.907	192.761	233.091	217.498	-94.678	221.169	215.495	-105.166	49.783	0.321	17.380	0.00024632	0.00068324	7.8352e-05	1427.4	5.337e-06	7.2647e-06	1423.5	390.2	1.0257e-06	6.8118e-06	446.23	148.76	122.78	44.501	5.0247e-06	55.24	0.00083523	0.00086328	0.00024272	1449	9.3988e-06	9.469e-06	1447.5	399.24	9.4762e-06	9.5798e-06	457.9	153.17	127.43	46.062	9.5182e-06	57.173	-90.251	-59.664	-43.359	-92.345	36.773	27.777	-92.241	-87.745	76.655	76.362	-88.357	-83.792	-83.308	-78.970	60.098	-79.453	-8191	255	
1754.527	1	1	0	0	0.07494	0.17641	0.38601	0.40204	0.08732	0.15231	0.29901	0.31561	0.21096	0.15496	0.010565	0.32672	0.11239	0.30701	0.055188	0.4345	-1.6125	-2.5333	-2.4542	-2.3	-2.6208	-2.2958	-2.5312	-2.9271	-2.1792	-2.4604	-2.6042	-2.2979	-2.7562	-2.4521	-2.4375	-2.8146	113.855	-101.097	-78.067	251.865	39.915	119.460	153.128	200.298	43.575	-25.898	-100.104	236.496	-100.621	165.116	99.890	167.791	0.00022874	0.00045816	9.1021e-05	1425.5	5.6944e-07	1.82e-06	1423.6	392.47	3.6559e-06	5.1426e-06	447.79	147.91	123.47	44.514	3.7874e-06	55.272	0.00083423	0.00086524	0.00023802	1448.7	9.3975e-06	9.4417e-06	1447.1	399.79	9.2958e-06	9.4883e-06	458.43	153.07	127.62	46.069	9.4903e-06	57.155	-75.852	-42.384	18.594	-92.272	168.855	81.008	-92.190	-87.651	106.334	120.222	-88.292	-83.573	-83.291	-78.822	74.722	-79.659	-8191	255	
1754.647	1	1	0	0	0.17473	0.21033	0.10341	0.30255	0.045481	0.12491	0.19674	0.2881	0.31639	0.093785	0.10418	0.20039	0.15925	0.18145	0.25662	0.12144	-1.5167	-2.5083	-2.5187	-2.4375	-2.6771	-2.3375	-2.6833	-2.7875	-2.1229	-2.6542	-2.6229	-2.3104	-2.8167	-2.2062	-2.2417	-2.5729	241.243	-94.550	187.211	194.254	35.139	44.147	183.901	213.683	91.444	165.053	163.750	226.042	-72.623	-87.942	-16.887	-99.573	0.00029866	0.00078332	0.00013366	1427.5	9.9441e-06	5.663e-06	1425.2	391.28	5.553e-06	5.4098e-06	447.86	148.38	123.33	44.526	9.643e-06	55.283	0.00082943	0.00086882	0.00023635	1447	9.3271e-06	9.3927e-06	1447.4	399.61	9.2235e-06	9.4606e-06	458.58	153.12	127.57	46.084	9.3036e-06	57.104	-77.129	1.813	6.377	-92.253	56.972	16.953	-92.363	-87.536	-19.567	125.104	-88.245	-83.527	-83.355	-78.840	77.582	-79.521	-8191	255	
1754.744	1	1	0	0	0.038795	0.13163	0.24067	0.2015	0.19767	0.16787	0.090254	0.20137	0.15369	0.16876	0.14179	0.15738	0.12646	0.2147	0.095013	0.26131	-1.9521	-2.4021	-2.4396	-2.3187	-2.6188	-2.6083	-2.4646	-2.8625	-2.2542	-2.5521	-2.7979	-2.4167	-2.6646	-2.5542	-2.1292	-2.7042	89.421	-0.079	80.497	186.934	176.315	36.091	203.101	165.096	-55.221	170.609	209.148	167.190	206.281	37.927	-26.202	151.215	0.00026064	0.00057455	0.00020494	1424.2	4.1021e-06	7.7953e-06	1424.1	388.6	3.1721e-06	3.4129e-06	447.22	147.26	123.32	44.71	8.4627e-06	55.145	0.0008235	0.00085123	0.00023716	1443.3	9.225e-06	9.361e-06	1445.8	398.97	9.1761e-06	9.3317e-06	458.4	152.51	127.61	46.069	9.2124e-06	57.122	-54.713	-53.478	-18.145	-92.350	39.900	15.498	-92.121	-87.766	-68.796	93.724	-88.420	-83.691	-83.316	-78.652	61.295	-79.578	-8191	255	
1754.840	1	1	0	0	0.026577	0.16494	0.15084	0.22731	0.36856	0.17647	0.30747	0.21958	0.10796	0.23116	0.30959	0.16164	0.075529	0.22168	0.10067	0.3567	-1.7417	-2.3375	-2.4604	-2.5208	-2.4708	-2.4979	-2.2938	-2.8312	-2.2458	-2.3438	-2.6937	-2.1854	-2.8021	-2.5812	-2.1312	-2.6875	156.013	71.073	176.734	203.655	216.368	92.785	177.773	177.843	163.661	84.582	234.667	-99.494	158.957	161.538	-20.215	213.321	0.00029294	0.00055829	5.1335e-05	1418.6	2.1964e-06	6.4906e-06	1424.1	391.72	4.8642e-06	6.7295e-06	446.92	148.87	123.41	44.601	3.7399e-06	55.127	0.00082419	0.00085156	0.00023629	1444	9.1675e-06	9.1951e-06	1443.6	399.56	9.1217e-06	9.2926e-06	457.82	153.01	127.68	46.084	9.2767e-06	57.04	-84.485	-28.874	-39.968	-92.272	63.317	30.612	-92.099	-87.445	3.232	39.756	-88.423	-83.403	-83.173	-78.865	31.290	-79.686	-8191	255	
1754.936	1	1	0	0	0.17827	0.18183	0.19732	0.26317	0.029019	0.11803	0.23846	0.22695	0.15338	0.027999	0.20047	0.2364	0.22706	0.27205	0.10557	0.060096	-1.8937	-2.3375	-2.4958	-2.2562	-2.6125	-2.3896	-2.4979	-2.7917	-2.3	-2.3688	-2.7542	-2.1458	-2.6583	-2.5958	-2.0687	-2.6813	127.451	236.409	118.882	230.338	166.223	160.778	186.318	232.583	180.417	49.116	238.347	227.414	253.944	-60.283	221.302	219.871	0.00028009	0.00055279	0.00017273	1417.5	1.6855e-06	9.4557e-06	1421.5	390.34	8.4423e-06	4.3434e-06	446.77	148.24	123.73	44.577	1.1029e-05	55.46	0.00081459	0.00084348	0.00023427	1441.8	9.2205e-06	9.2458e-06	1444.8	399.27	9.2808e-06	9.2956e-06	457.79	153	127.81	46.115	9.3369e-06	57.2	-71.712	-32.305	3.916	-92.198	-53.672	19.548	-92.424	-87.697	64.289	35.318	-88.224	-83.638	-83.157	-78.844	-9.504	-79.632	-8191	255	
1755.055	1	1	0	0	0.063947	0.17983	0.16582	0.22756	0.20814	0.19815	0.31396	0.29021	0.23418	0.16359	0.11971	0.15881	0.074769	0.1772	0.2181	0.29156	-1.9208	-2.2083	-2.8271	-2.4979	-2.4229	-2.5312	-2.2313	-2.6792	-2.4021	-2.1667	-2.5938	-2.3187	-2.4292	-2.7979	-2.1854	-2.6146	98.830	153.687	158.600	173.231	176.067	-68.421	162.491	179.206	146.400	44.470	-39.758	139.594	-99.900	201.170	-50.468	144.892	0.00026126	0.0005197	0.00013363	1424.7	6.238e-06	6.4909e-06	1421.1	389.89	4.0492e-06	9.1637e-06	448.82	147.34	123.75	44.494	6.5292e-06	55.344	0.00082	0.00085108	0.00023616	1444.2	9.1701e-06	9.2064e-06	1444.1	398.88	9.2423e-06	9.3399e-06	457.96	152.54	127.67	46.089	9.4249e-06	57.167	-60.579	-63.437	2.069	-92.234	25.638	98.930	-92.153	-87.760	-3.028	35.722	-88.417	-83.543	-83.275	-78.849	26.197	-79.336	-8191	255	
1755.128	1	1	0	0	0.096759	0.11362	0.093202	0.43301	0.11221	0.07015	0.51855	0.11746	0.10683	0.075888	0.17998	0.10299	0.24335	0.20854	0.36942	0.1235	-1.8937	-2.0771	-2.6667	-2.4188	-2.2417	-2.6875	-2.2687	-2.7104	-2.5271	-2.3667	-2.6625	-2.3854	-2.4104	-2.7896	-2.3771	-2.6771	-47.799	17.197	53.882	200.385	74.044	65.679	241.931	131.809	-38.283	-74.723	251.952	174.920	245.573	198.850	33.387	-4.130	0.0002875	0.0010684	9.2251e-05	1417.1	5.0622e-06	4.8531e-06	1417.4	389.97	3.7683e-06	3.3647e-06	447.61	147.79	123.52	44.541	1.2833e-05	55.056	0.00082583	0.00085797	0.0002405	1441.7	9.3266e-06	9.5045e-06	1442.9	398.71	9.4706e-06	9.5302e-06	458.02	152.65	127.65	46.03	9.4546e-06	57.09	-56.852	-35.205	-43.082	-92.158	-39.892	78.590	-92.275	-87.440	112.076	141.157	-88.403	-83.515	-83.155	-78.938	96.081	-79.648	-8191	255	
1755.247	1	1	0	0	0.31243	0.41117	0.090759	0.15125	0.2007	0.086858	0.12308	0.34045	0.034944	0.12611	0.25024	0.10487	0.21945	0.1129	0.142	0.23105	-1.8312	-2.0521	-2.5563	-2.5229	-2.2646	-2.6333	-2.4667	-2.6104	-2.7021	-2.15	-2.75	-2.4229	-2.4271	-2.7958	-2.175	-2.6208	197.837	230.694	1.413	248.718	-8.100	198.034	-78.486	217.924	-90.145	173.235	217.514	19.481	168.286	21.559	-23.588	196.166	0.0002306	0.00062308	0.00013633	1421.8	7.1853e-06	2.4043e-06	1414.5	390.14	1.5416e-06	3.9289e-06	447.31	148.43	123.07	44.539	5.2006e-06	55.484	0.00083205	0.00087782	0.00024193	1442.5	9.4478e-06	9.5758e-06	1442.9	399.74	9.5078e-06	9.4761e-06	458.15	152.82	127.5	46.044	9.4467e-06	57.179	-66.343	-23.343	-41.837	-92.043	161.651	44.248	-92.326	-87.677	-48.864	15.238	-88.181	-83.527	-83.171	-78.934	3.198	-79.630	-8191	255	
1755.343	1	1	0	0	0.26553	0.26239	0.18972	0.45736	0.22483	0.19365	0.19103	0.3126	0.28577	0.069313	0.035879	0.23367	0.43494	0.34794	0.19171	0.17793	-2.1146	-2.1646	-2.6021	-2.5458	-2.1375	-2.6688	-2.4208	-2.5354	-2.5	-2.225	-2.6583	-2.6708	-2.3688	-2.7458	-2.2833	-2.5083	183.981	-97.467	156.642	245.817	107.095	107.422	236.662	235.374	-0.705	77.601	-96.227	160.044	234.712	239.071	200.587	183.657	0.00026713	4.7962e-05	0.0001598	1420.6	1.7056e-06	7.8261e-06	1422.3	390.46	4.1337e-06	8.3036e-06	446.48	147.85	122.97	44.504	2.5302e-06	55.221	0.00082194	0.00085362	0.00023726	1441.7	9.2185e-06	9.3139e-06	1443.4	399.34	9.2409e-06	9.2899e-06	457.96	152.82	127.31	45.982	9.3265e-06	57.075	-67.285	218.141	-23.385	-92.375	-7.713	66.418	-92.331	-87.643	-30.840	59.252	-88.258	-83.724	-83.403	-78.723	117.391	-79.384	-8191	255	
1755.439	1	1	0	0	0.13756	0.15641	0.22353	0.35407	0.17347	0.21015	0.077263	0.39715	0.28881	0.19993	0.27247	0.14728	0.27414	0.15285	0.26996	0.16929	-2.225	-2.0896	-2.5375	-2.8271	-2.1625	-2.7708	-2.4125	-2.5417	-2.6771	-2.1292	-2.6	-2.6604	-2.2062	-2.8521	-2.2771	-2.4958	154.273	-5.058	-31.811	199.649	143.398	156.160	166.887	181.303	189.404	-75.389	226.629	219.772	-103.836	211.301	209.855	-72.035	0.00029996	0.0010438	0.00012749	1415.8	8.5025e-06	1.2175e-06	1421.5	389.53	2.6287e-06	9.9452e-06	446.65	147.97	123.92	44.277	1.5624e-06	55.229	0.00082514	0.00084398	0.00023919	1440.6	9.2277e-06	9.2501e-06	1443.5	398.84	9.3347e-06	9.3527e-06	458.1	152.55	127.45	45.956	9.365e-06	57.092	-69.212	-13.211	42.351	-92.246	59.554	-35.493	-92.343	-87.699	104.601	102.298	-88.358	-83.430	-83.534	-78.755	45.402	-79.703	-8191	255	
1755.535	1	1	0	0	0.045158	0.21622	0.032007	0.34315	0.15952	0.048502	0.052537	0.22727	0.043193	0.025888	0.17158	0.10824	0.15773	0.27268	0.18194	0.058834	-2.05	-2.2229	-2.4292	-2.7417	-2.2583	-2.6208	-2.5521	-2.4625	-2.65	-2.1229	-2.5479	-2.6792	-2.1729	-2.6292	-2.4313	-2.4313	119.688	-41.514	136.641	163.333	15.729	-94.879	146.538	227.737	-44.344	4.774	-99.607	-60.523	-87.415	202.786	172.746	42.975	0.00026301	0.00019645	0.00022459	1418.9	2.4477e-06	3.8995e-06	1415.2	389.87	2.66e-06	1.5974e-06	447.53	147.47	123.47	44.719	7.701e-06	55.166	0.00082037	0.0008448	0.00023766	1443.4	9.2992e-06	9.3923e-06	1442.4	398.94	9.3103e-06	9.293e-06	457.64	152.45	127.49	46.052	9.293e-06	57.095	-76.661	181.247	-24.102	-92.284	55.069	-29.162	-92.347	-87.629	84.186	44.385	-88.331	-83.788	-83.262	-78.933	93.563	-79.374	-8191	255	
1755.656	1	1	0	0	0.12092	0.429	0.24151	0.35754	0.072176	0.13737	0.30597	0.27875	0.12922	0.11492	0.25167	0.32354	0.24488	0.37021	0.20629	0.36558	-2.1417	-2.2333	-2.475	-2.8271	-2.2417	-2.6021	-2.6813	-2.4104	-2.7	-2.4125	-2.3958	-2.7667	-2.4229	-2.6604	-2.3792	-2.075	-10.534	96.733	121.887	220.675	3.734	129.573	201.126	186.599	208.959	-72.557	189.968	185.598	184.027	-89.666	-15.205	220.876	0.00035394	0.00059595	0.00015247	1414.2	4.4444e-06	4.4179e-06	1421.4	391.15	5.2711e-06	1.0208e-06	446.13	148.2	123.17	44.344	2.8514e-06	55.504	0.00082616	0.00084822	0.00023913	1441.6	9.3173e-06	9.3518e-06	1444.2	399.48	9.2091e-06	9.461e-06	457.46	152.55	127.42	45.994	9.2901e-06	57.161	-69.759	-30.250	27.890	-92.218	-85.923	-6.271	-92.169	-87.412	-4.108	-19.100	-88.361	-83.898	-83.270	-78.979	56.406	-79.419	-8191	255	
1755.728	1	1	0	0	0.19098	0.040821	0.098824	0.44485	0.18519	0.21213	0.13158	0.1501	0.16527	0.09559	0.36266	0.1061	0.012147	0.36381	0.26512	0.34758	-2.2396	-2.2562	-2.2375	-2.8417	-2.2417	-2.4792	-2.6875	-2.4188	-2.4188	-2.3417	-2.5438	-2.7771	-2.3438	-2.6792	-2.6021	-2.3229	85.434	42.422	-26.896	-103.983	75.235	-99.699	227.248	178.871	205.511	153.257	248.336	-95.965	-68.325	251.521	-0.167	169.262	0.00030173	0.00026046	0.00015848	1421.2	8.9875e-06	2.0909e-06	1418.9	390.61	3.4924e-06	4.9002e-06	447.56	147.74	123.38	44.391	5.7948e-06	55.202	0.00082196	0.00085967	0.00023984	1442.8	9.3968e-06	9.4582e-06	1442.1	398.95	9.4637e-06	9.5043e-06	458.07	152.7	127.54	46.075	9.4341e-06	57.141	-63.277	-63.938	-69.884	-92.412	33.920	-47.708	-92.332	-87.563	61.249	60.476	-88.288	-83.414	-83.463	-78.740	1.322	-79.563	-8191	255	
1755.824	1	1	0	0	0.020626	0.24763	0.1833	0.26864	0.14987	0.2103	0.20719	0.33922	0.1109	0.18228	0.14204	0.07267	0.087632	0.19466	0.069587	0.2146	-2.1979	-2.2271	-2.1729	-2.7708	-2.3292	-2.4042	-2.7479	-2.2542	-2.6167	-2.4188	-2.3729	-2.8667	-2.3146	-2.6646	-2.4979	-2.1229	-28.932	101.867	232.180	227.273	-62.253	-15.473	170.798	163.914	91.389	-75.311	193.374	156.303	252.184	208.731	0.973	131.095	0.0003486	0.00083568	0.00021717	1422.7	9.2372e-06	4.5446e-06	1422.5	390.72	1.2113e-06	5.9875e-06	447.46	148.08	123.18	44.454	4.1499e-06	55.132	0.00083314	0.00087324	0.00024048	1444.3	9.3796e-06	9.5102e-06	1445.7	399.43	9.3989e-06	9.581e-06	458.02	152.68	127.53	46.012	9.4116e-06	57.031	-73.166	-18.786	-11.430	-92.131	34.218	80.933	-92.351	-87.557	232.419	25.839	-88.067	-83.530	-82.965	-78.746	42.951	-79.458	-8191	255	
1755.945	1	1	0	0	0.22468	0.24988	0.14579	0.42642	0.080862	0.27107	0.1337	0.18673	0.048842	0.24987	0.11206	0.044969	0.10675	0.092861	0.21973	0.21425	-2.0792	-2.3625	-2.1937	-2.8979	-2.4917	-2.2188	-2.8812	-2.3021	-2.4833	-2.5229	-2.2667	-2.7458	-2.4813	-2.5	-2.7458	-2.4	143.379	122.626	143.764	225.791	-93.036	-85.153	-86.036	248.051	135.002	120.414	206.672	206.363	-67.811	228.002	-57.120	241.441	0.00024661	0.00061244	0.00011888	1415.7	1.8454e-06	7.5893e-06	1424.5	390.28	2.6957e-06	2.734e-06	447.55	147.21	123.84	44.341	3.2317e-06	55.025	0.00083408	0.00086562	0.00024059	1442.2	9.3493e-06	9.5035e-06	1444.2	399.21	9.4317e-06	9.5264e-06	458.52	152.53	127.51	46.015	9.4749e-06	57.072	-71.666	-28.613	27.023	-92.279	-40.974	25.112	-92.259	-87.586	153.013	-27.891	-88.175	-83.568	-83.289	-78.771	31.643	-79.636	-8191	255	
1756.039	1	1	0	0	0.19065	0.087078	0.094728	0.25909	0.25957	0.18197	0.14218	0.18832	0.10613	0.01365	0.24847	0.12088	0.1135	0.39925	0.16291	0.10821	-2.0458	-2.5687	-2.1125	-2.9562	-2.3271	-2.3708	-2.8125	-2.3187	-2.4542	-2.4125	-2.4083	-2.6479	-2.5458	-2.1646	-2.7333	-2.5146	147.066	99.478	-65.184	-101.115	149.941	-3.921	205.311	151.689	-75.157	18.211	155.775	-41.014	-44.744	196.593	242.301	26.577	0.00033146	0.00051124	0.00014496	1422.3	1.5004e-06	4.3715e-06	1423.3	389.24	4.6121e-06	1.1512e-06	445.96	147.89	123.32	44.451	2.8767e-06	55.058	0.00083652	0.00086469	0.00024191	1445	9.456e-06	9.6942e-06	1444.9	398.75	9.4421e-06	9.5458e-06	457.73	152.78	127.37	45.974	9.5799e-06	57.048	-58.035	7.730	-34.087	-92.168	228.630	197.398	-92.221	-87.569	44.797	-103.025	-88.305	-83.649	-83.104	-78.991	24.462	-79.399	-8191	255	
1756.135	1	1	0	0	0.14003	0.14642	0.11399	0.24425	0.36569	0.05632	0.048258	0.20079	0.32671	0.2149	0.18331	0.085667	0.12542	0.12284	0.15341	0.31083	-2.0646	-2.5938	-1.95	-2.7396	-2.4625	-2.3042	-2.7562	-2.5417	-2.3896	-2.6542	-2.4208	-2.5854	-2.6688	-2.425	-2.675	-2.2771	236.698	72.515	21.878	238.086	-55.174	-84.083	205.756	-64.241	135.329	23.643	174.616	183.413	242.569	-63.962	91.367	173.372	0.00021774	0.00037629	6.887e-05	1416.8	2.5099e-06	1.5274e-06	1423.3	389.54	3.8665e-06	6.1939e-06	446.46	147.89	123.38	44.501	4.3769e-06	54.952	0.00086098	0.00088047	0.00024492	1442.5	9.6002e-06	9.5903e-06	1445.6	398.9	9.5802e-06	9.7131e-06	458.24	152.7	127.51	46.047	9.6471e-06	57.062	-79.997	-20.499	-2.895	-92.152	64.700	73.230	-92.346	-87.627	62.413	146.662	-87.986	-83.621	-83.297	-78.888	-35.948	-79.524	-8191	255	
1756.256	1	1	0	0	0.31165	0.23569	0.1803	0.18703	0.097277	0.036456	0.18042	0.12063	0.095373	0.10854	0.28969	0.10199	0.19143	0.069751	0.16279	0.20711	-1.9396	-2.5646	-2.1042	-2.7542	-2.5583	-2.2896	-2.7542	-2.5417	-2.3187	-2.5333	-2.4542	-2.6875	-2.7396	-2.2771	-2.625	-2.4896	65.294	-63.827	3.318	-100.650	-76.918	36.725	208.560	-79.648	-46.759	22.499	241.864	196.905	-84.295	244.471	-23.351	242.526	0.00029959	0.0011885	3.1611e-05	1419.5	4.6881e-07	2.8256e-06	1419.1	389.59	4.6379e-06	3.5225e-06	446.45	147.55	123.02	44.341	1.39e-06	54.742	0.00084912	0.00087623	0.00024365	1443.8	9.5194e-06	9.6418e-06	1444.6	399.42	9.5223e-06	9.6083e-06	458.01	152.72	127.45	45.989	9.6526e-06	56.923	-58.788	-24.213	253.449	-92.150	170.454	88.950	-92.132	-87.555	59.030	17.830	-88.418	-83.391	-83.080	-79.022	185.109	-79.510	-8191	255	
1756.352	1	1	0	0	0.089329	0.19374	0.15475	0.2679	0.25688	0.095416	0.35662	0.37491	0.0027287	0.1522	0.18894	0.34513	0.17035	0.23926	0.094662	0.09477	-1.9104	-2.7271	-2.425	-2.6437	-2.6375	-2.0917	-2.8646	-2.5667	-2.3896	-2.6792	-2.5125	-2.5333	-2.7271	-2.3896	-2.6125	-2.6125	77.137	198.622	-0.303	-97.338	213.549	48.207	195.358	-90.836	-19.513	143.808	242.424	91.396	174.172	-27.349	218.356	164.118	0.00023474	0.00072322	0.00013615	1423.6	5.2219e-06	5.9652e-06	1420.2	391.39	7.2575e-06	9.6193e-06	446.94	148.05	123.18	44.248	1.1599e-05	55.119	0.00085433	0.00088129	0.00024676	1444.4	9.6949e-06	9.6124e-06	1443.9	399.55	9.6577e-06	9.7929e-06	458.3	152.79	127.19	45.888	9.6334e-06	57.133	-72.658	253.791	5.958	-92.294	141.977	73.539	-92.376	-87.729	29.185	82.276	-88.067	-83.473	-83.256	-78.909	37.731	-79.562	-8191	255	
1756.424	1	1	0	0	0.12846	0.18806	0.1527	0.24924	0.32602	0.19665	0.22155	0.24692	0.25458	0.054099	0.24983	0.18709	0.33408	0.11293	0.26896	0.052092	-1.925	-2.7667	-2.3104	-2.6063	-2.5979	-2.225	-2.8104	-2.5792	-2.2833	-2.8083	-2.5687	-2.5458	-2.6792	-2.4813	-2.6562	-2.6937	157.630	-51.906	62.104	171.716	10.425	-93.323	195.881	211.994	240.182	7.709	-54.251	157.701	214.326	174.011	26.198	146.594	0.00035873	0.00029727	4.9267e-05	1418.3	7.4972e-06	1.3348e-06	1424.9	388.1	3.6352e-06	4.9032e-06	447.49	148.09	122.28	44.477	4.347e-06	55.066	0.00084782	0.00087834	0.00024754	1443.7	9.5864e-06	9.5724e-06	1446	398.23	9.4732e-06	9.6786e-06	457.71	152.64	127.35	45.976	9.6489e-06	57.006	-67.546	152.280	144.011	-92.224	34.158	93.801	-92.386	-87.602	101.019	39.597	-88.471	-83.642	-82.992	-78.594	13.167	-79.465	-8191	255	
1756.520	1	1	0	0	0.15686	0.2327	0.15012	0.30351	0.062925	0.11631	0.26103	0.17087	0.18424	0.19767	0.10516	0.35634	0.17035	0.21973	0.17637	0.25812	-1.8896	-2.625	-2.3333	-2.4688	-2.5792	-2.2104	-2.8125	-2.7729	-2.4167	-2.7	-2.4562	-2.6354	-2.8312	-2.3812	-2.6625	-2.7375	62.679	53.764	166.407	190.307	90.516	149.134	204.559	179.781	233.989	6.182	-18.826	201.939	209.175	-68.135	245.933	210.390	0.00018314	0.0001178	0.00010117	1420	3.2836e-06	6.3481e-06	1416.3	390.52	5.2944e-06	7.7881e-06	448.15	147.56	122.85	44.372	9.0172e-06	54.994	0.00084851	0.00087444	0.00024527	1442	9.5569e-06	9.5598e-06	1442.3	399.4	9.6397e-06	9.8011e-06	458.48	152.47	127.36	45.919	9.6452e-06	57.083	-67.160	-84.406	-6.490	-92.282	24.200	96.336	-92.176	-87.597	60.439	46.877	-88.108	-83.423	-83.132	-78.680	39.894	-79.426	-8191	255	
1756.616	1	1	0	0	0.13779	0.24662	0.34044	0.19909	0.21382	0.11995	0.28329	0.22498	0.15905	0.21454	0.12743	0.29833	0.14315	0.33205	0.18037	0.098465	-1.7292	-2.5375	-2.4542	-2.5083	-2.5896	-2.2708	-2.6146	-2.8063	-2.0729	-2.7271	-2.725	-2.5021	-2.9271	-2.3688	-2.4208	-2.7229	19.281	12.818	-3.377	-56.790	122.309	208.247	152.170	-101.560	208.851	210.264	-98.180	183.174	212.244	199.728	192.719	127.610	0.00027469	0.00028631	8.8133e-05	1416.4	2.893e-06	5.3933e-06	1419.9	389.55	4.175e-06	4.872e-06	448.18	147.14	122.88	44.289	5.0458e-06	55.075	0.00085435	0.00088562	0.00024871	1442.9	9.747e-06	9.8141e-06	1443.6	399.59	9.8076e-06	9.9816e-06	457.86	152.5	127.32	45.98	9.9149e-06	57.091	-66.219	-2.104	-13.467	-92.180	-44.689	86.553	-92.524	-87.719	94.893	84.427	-88.135	-83.652	-83.397	-78.597	78.519	-79.624	-8191	255	
1756.736	1	1	0	0	0.12998	0.18883	0.063066	0.16198	0.31279	0.21745	0.19882	0.082242	0.0084207	0.18014	0.17094	0.14858	0.24598	0.19549	0.22539	0.080624	-1.4646	-2.4854	-2.5542	-2.3625	-2.7	-2.3583	-2.6375	-2.9125	-2.1958	-2.6958	-2.7479	-2.2812	-2.7167	-2.475	-2.3229	-2.7562	68.912	184.903	-103.844	207.527	141.250	98.574	194.099	137.261	162.480	104.855	237.558	-67.917	-57.346	120.365	-9.373	79.771	0.00022684	0.00097891	0.00021223	1422.4	4.5289e-06	1.1127e-05	1417.7	390.39	3.7001e-06	4.354e-06	447.78	147.38	122.96	44.27	7.0455e-06	55.066	0.00086068	0.00089697	0.00025119	1443.8	9.7124e-06	9.8919e-06	1444	399.34	9.7005e-06	9.9092e-06	458.17	152.45	127.46	45.902	9.905e-06	57.043	-80.083	-57.230	12.790	-92.274	133.252	12.703	-92.086	-87.519	-97.307	149.918	-88.227	-83.567	-83.302	-78.955	7.354	-79.687	-8191	255	
1756.833	1	1	0	0	0.13304	0.43079	0.087016	0.44871	0.087689	0.48557	0.13829	0.19962	0.23108	0.12968	0.15711	0.13266	0.099571	0.23144	0.26156	0.28872	-1.7375	-2.3271	-2.55	-2.3521	-2.6875	-2.3667	-2.6104	-2.8958	-2.1896	-2.6646	-2.8187	-2.3521	-2.7354	-2.5833	-2.1771	-2.9667	-86.999	173.215	38.387	199.529	221.718	89.710	-95.839	53.753	-20.251	48.520	-91.969	81.223	213.779	-105.426	127.540	203.475	0.00026124	0.00039072	0.00015801	1424.8	3.455e-06	8.1789e-06	1421.5	390.69	3.2246e-06	9.3197e-06	446.27	147.22	123.25	44.331	5.7569e-06	55.134	0.00085806	0.00090284	0.00024873	1445.4	9.815e-06	9.8926e-06	1444.5	399.54	9.8214e-06	9.8901e-06	458.13	152.49	127.46	45.991	9.7761e-06	57.116	-65.225	-19.563	-31.182	-92.409	73.884	4.150	-92.184	-87.655	-65.328	60.399	-88.088	-83.296	-83.501	-78.748	52.264	-79.298	-8191	255	
1756.929	1	1	0	0	0.051538	0.12941	0.1742	0.1457	0.075418	0.24546	0.086282	0.21913	0.11224	0.15648	0.10757	0.1071	0.12759	0.47402	0.18505	0.13728	-1.8667	-2.3917	-2.6208	-2.35	-2.325	-2.5979	-2.6146	-2.8896	-2.3187	-2.3625	-2.7438	-2.3438	-2.5667	-2.6521	-2.3042	-2.6854	20.172	-92.365	218.404	229.404	143.555	111.649	208.670	235.166	160.804	129.637	148.472	75.303	110.893	217.549	120.635	196.829	0.00028677	0.00032589	7.1842e-05	1419	8.8969e-06	8.8811e-06	1419.3	389.73	3.3124e-06	3.3516e-06	445.47	147.86	123.36	44.398	5.4224e-06	55.105	0.00085787	0.00090671	0.00024918	1443.4	9.7252e-06	9.7419e-06	1445.6	399.3	9.6449e-06	9.8298e-06	458.13	152.62	127.68	45.974	9.7107e-06	57.044	-67.073	-87.592	-35.882	-92.166	40.430	49.767	-92.235	-87.694	90.900	46.834	-88.164	-83.525	-83.130	-78.718	44.834	-79.543	-8191	255	
1757.025	1	1	0	0	0.4487	0.10067	0.1019	0.16905	0.094031	0.18858	0.2301	0.499	0.14717	0.10936	0.30418	0.11971	0.27294	0.24085	0.082947	0.093915	-1.8417	-2.3333	-2.5104	-2.3646	-2.5042	-2.4688	-2.2208	-2.7667	-2.2396	-2.4125	-2.7938	-2.475	-2.6688	-2.6854	-2.2938	-2.8125	11.916	-20.363	124.185	245.736	117.062	242.895	161.355	198.331	141.622	-7.772	239.703	231.564	215.662	209.132	142.680	76.232	0.00034654	0.00099927	0.00020769	1422.4	2.4617e-06	5.7304e-06	1419.1	391.08	3.623e-06	5.3981e-06	447.42	147.75	122.99	44.444	9.0436e-06	55.201	0.00085256	0.00089032	0.00024627	1442.9	9.7441e-06	9.6757e-06	1443.6	399.55	9.6838e-06	9.8037e-06	458.63	152.63	127.47	45.939	9.661e-06	57.122	-84.850	-42.905	-0.549	-92.302	76.263	43.426	-92.137	-87.470	32.856	-56.266	-88.348	-83.622	-83.188	-79.043	126.023	-79.550	-8191	255	
1757.121	1	1	0	0	0.18158	0.13312	0.21715	0.051127	0.17494	0.024314	0.12396	0.26325	0.074015	0.06228	0.1715	0.13538	0.092605	0.24311	0.10665	0.1074	-2.0896	-2.2188	-2.5729	-2.5312	-2.5896	-2.6958	-2.5417	-2.8708	-2.3875	-2.3667	-2.8937	-2.5333	-2.5542	-2.7708	-2.0875	-2.6958	202.853	-33.037	117.312	166.541	-20.121	9.028	104.591	139.683	14.259	240.319	234.402	-52.346	226.736	121.756	-13.237	33.263	0.00031783	0.00062725	0.00020697	1420.8	8.3575e-06	1.0829e-05	1422.3	389.84	2.3139e-06	5.1357e-06	447.76	148.05	122.66	44.306	4.8771e-06	55.097	0.00085713	0.00088755	0.00024859	1444.9	9.682e-06	9.7588e-06	1445	398.68	9.6736e-06	9.756e-06	458.64	152.57	127.32	45.963	9.6468e-06	57.087	-79.439	-32.394	9.535	-92.210	-0.240	19.098	-92.186	-87.832	81.327	62.525	-88.392	-83.510	-83.347	-78.968	13.743	-79.534	-8191	255	
1757.217	1	1	0	0	0.33362	0.14583	0.18875	0.31466	0.036408	0.05806	0.1575	0.16026	0.076322	0.077019	0.18195	0.33983	0.19157	0.19592	0.19916	0.25985	-2	-2.1729	-2.7021	-2.6292	-2.4708	-2.6937	-2.575	-2.8396	-2.5708	-2.3042	-2.8583	-2.3625	-2.4979	-2.7708	-2.2833	-2.6917	-91.543	-87.081	91.604	246.868	214.878	13.214	143.662	146.482	193.221	152.221	229.345	205.161	209.672	-74.467	102.832	211.016	0.00030893	0.00058473	6.81e-05	1421.3	4.8826e-06	4.6905e-06	1423.8	389.76	4.0258e-06	2.7229e-06	445.63	147.56	123.06	44.148	1.2132e-06	55.177	0.00085299	0.00088498	0.0002456	1442.4	9.5788e-06	9.7155e-06	1443.8	399.45	9.6255e-06	9.6258e-06	457.81	152.53	127.45	45.913	9.6758e-06	57	-82.802	-16.539	-83.185	-92.362	-83.707	-12.049	-92.275	-87.456	40.379	114.471	-88.416	-83.588	-83.333	-78.777	95.940	-79.178	-8191	255	
1757.336	1	1	0	0	0.18936	0.16492	0.22999	0.037416	0.075334	0.11553	0.34425	0.20463	0.22596	0.25656	0.253	0.21049	0.16093	0.24221	0.11665	0.15117	-2.0312	-2.2313	-2.4896	-2.7146	-2.3833	-2.6937	-2.4188	-2.7271	-2.5812	-2.15	-2.7313	-2.5104	-2.4729	-2.7792	-2.2125	-2.5396	27.679	234.573	117.099	-71.644	236.652	-42.825	162.123	227.317	91.933	-54.785	226.489	-87.458	212.512	189.778	-78.832	164.803	0.00020701	0.00097925	0.00021972	1420.2	5.0285e-06	4.7866e-06	1417.8	389.33	1.9378e-06	7.1212e-06	447.23	147.82	122.79	44.334	5.7858e-06	54.983	0.00084604	0.00087609	0.00024269	1443.4	9.5325e-06	9.5245e-06	1445.2	399.56	9.5752e-06	9.5559e-06	458.59	152.58	127.5	46.009	9.6126e-06	57.048	-73.992	-19.780	-4.815	-92.191	108.841	40.676	-92.165	-87.744	151.428	41.491	-88.299	-83.630	-83.355	-78.823	45.869	-79.598	-8191	255	
1757.432	1	1	0	0	0.094901	0.29016	0.20694	0.09498	0.20296	0.19708	0.18861	0.28001	0.092896	0.1951	0.17532	0.17111	0.1028	0.027125	0.2748	0.3024	-2.1271	-2.4042	-2.4896	-2.7542	-2.4062	-2.9146	-2.525	-2.4688	-2.6479	-2.2646	-2.6542	-2.7938	-2.45	-2.725	-2.3563	-2.5292	62.792	84.388	-76.079	206.958	-70.356	173.646	198.964	186.139	-99.972	161.129	156.713	-63.893	116.559	227.215	-91.442	240.694	0.00021118	0.00039253	0.00014461	1417.2	5.0925e-06	6.449e-06	1419.2	389.66	2.236e-06	4.2334e-06	445.77	147.63	122.95	44.425	1.133e-06	55.028	0.00083417	0.00087025	0.000241	1442	9.4192e-06	9.5108e-06	1443.2	399.35	9.4726e-06	9.446e-06	458.16	152.68	127.33	46.042	9.503e-06	56.985	-91.841	47.785	1.099	-92.318	204.393	0.006	-92.206	-87.559	76.836	105.598	-88.381	-83.559	-83.229	-79.039	247.172	-79.269	-8191	255	
1757.528	1	1	0	0	0.1991	0.032407	0.18473	0.27007	0.22984	0.22013	0.16521	0.26561	0.13595	0.1822	0.12186	0.14086	0.19589	0.1986	0.12229	0.18281	-2.2708	-2.2188	-2.5312	-2.7771	-2.2917	-2.6917	-2.6375	-2.3438	-2.7021	-2.1667	-2.6854	-2.6167	-2.4396	-2.6188	-2.4083	-2.6729	63.961	-6.399	-96.333	206.663	192.527	58.251	202.222	187.756	132.749	152.247	250.745	218.032	249.915	132.319	-35.388	-60.893	0.00029922	9.4223e-05	0.00013081	1416.8	9.2129e-06	5.9647e-06	1415.5	390.72	5.4574e-06	6.8357e-06	447.55	147.9	122.89	44.396	4.5907e-06	55.201	0.00083706	0.00085996	0.00024138	1442.2	9.3996e-06	9.4882e-06	1442.4	399.87	9.4422e-06	9.4528e-06	458.24	152.74	127.31	46.015	9.5036e-06	57.07	-63.878	3.597	-56.292	-92.276	73.976	71.365	-92.056	-87.442	21.114	-5.583	-88.072	-83.718	-83.286	-78.680	19.578	-79.433	-8191	255	
1757.649	1	1	0	0	0.15927	0.054689	0.18205	0.26014	0.38314	0.23887	0.24971	0.36689	0.13809	0.058063	0.039902	0.10556	0.052903	0.22131	0.22804	0.24254	-2.3458	-2.1542	-2.525	-2.8792	-2.4083	-2.5229	-2.7833	-2.4354	-2.9938	-2.4021	-2.5521	-2.6521	-2.2854	-2.7375	-2.4979	-2.4146	216.449	106.999	-102.964	248.589	45.331	98.269	194.927	187.239	-46.530	87.193	200.301	207.996	183.888	201.051	222.364	-72.898	0.00021357	0.00087409	0.00022949	1420.4	4.2248e-06	4.5001e-06	1420.8	390.06	3.2941e-06	2.4435e-06	447.96	148.25	122.59	44.303	8.8879e-06	54.803	0.00082662	0.00085613	0.00023999	1441.7	9.3054e-06	9.3305e-06	1444.3	399.75	9.2576e-06	9.408e-06	458.15	152.68	127.04	45.995	9.4629e-06	56.919	-82.930	-36.077	-64.920	-92.321	-2.062	-43.205	-92.352	-87.665	93.067	60.633	-88.218	-83.542	-83.310	-78.793	-8.437	-79.764	-8191	255	
1757.721	1	1	0	0	0.16094	0.12583	0.15585	0.22841	0.074522	0.074831	0.17234	0.22047	0.054615	0.20198	0.28849	0.26135	0.019171	0.065065	0.14312	0.12715	-2.3854	-2.2458	-2.4813	-2.8458	-2.0896	-2.4562	-2.7417	-2.275	-2.7979	-2.5	-2.6354	-2.7938	-2.1417	-2.6688	-2.5687	-2.4542	146.538	-27.081	18.014	232.795	-79.630	35.321	215.032	207.492	246.775	56.661	-79.445	254.585	164.392	-101.577	89.231	141.037	0.00027278	0.000461	0.00018031	1414.3	4.8942e-06	1.9049e-06	1418.1	390.36	2.6869e-06	5.5433e-06	447.7	147.65	123.02	44.514	3.5375e-06	55.26	0.0008182	0.00085646	0.0002384	1441.3	9.2396e-06	9.3163e-06	1442.7	399.15	9.2367e-06	9.3963e-06	458.21	152.64	127.25	45.978	9.2404e-06	57.04	-77.735	-36.204	-23.967	-92.364	-46.474	1.774	-92.227	-87.416	65.082	84.922	-88.270	-83.393	-83.353	-78.830	-15.058	-79.409	-8191	255	
1757.815	1	1	0	0	0.19915	0.2163	0.23695	0.2813	0.17365	0.065509	0.3567	0.37081	0.11644	0.2775	0.12813	0.048998	0.30554	0.21511	0.11365	0.05138	-2.325	-2.3792	-2.2562	-2.8271	-2.2667	-2.5604	-2.7812	-2.3396	-2.5292	-2.5021	-2.5292	-2.7854	-2.3937	-2.6083	-2.4875	-2.2854	10.273	-48.400	-79.016	183.303	215.754	151.137	181.456	219.465	191.936	1.974	-92.625	147.244	225.809	233.273	-30.982	34.540	0.00022161	0.0014058	0.00012471	1417.7	6.1502e-06	3.2017e-06	1417.9	389.36	4.6964e-06	1.8365e-06	446.65	148.28	123.13	44.333	8.6656e-06	55.184	0.00081463	0.00085173	0.00023649	1440	9.1277e-06	9.2391e-06	1441.3	398.73	9.1796e-06	9.2115e-06	456.99	152.73	127.17	45.946	9.2325e-06	57.127	-57.301	-5.920	32.646	-92.161	51.555	38.957	-92.370	-87.733	38.861	1.289	-88.148	-83.700	-83.474	-78.865	3.899	-79.566	-8191	255	
1757.911	1	1	0	0	0.17609	0.044562	0.12663	0.31148	0.25677	0.058871	0.15815	0.14074	0.064725	0.22404	0.1976	0.15711	0.28693	0.18271	0.19985	0.10214	-2.2021	-2.4479	-2.3479	-2.775	-2.2583	-2.3479	-2.9083	-2.3333	-2.4875	-2.4396	-2.2708	-2.7333	-2.275	-2.425	-2.7083	-2.2604	-81.829	10.228	-66.409	219.782	42.664	208.826	239.936	209.801	139.922	-16.760	245.399	174.571	247.069	199.209	179.118	-75.568	0.00028636	0.00062591	2.4788e-05	1416.2	1.6604e-06	1.2153e-06	1415.7	391.06	8.5519e-06	2.4492e-06	448.11	148.13	123.16	44.413	5.4469e-06	55.126	0.00080569	0.00083934	0.00023345	1440.3	9.0168e-06	9.2096e-06	1441.1	399.1	9.0955e-06	9.2271e-06	458.15	152.41	127.27	45.96	9.231e-06	57.057	-57.187	-2.023	-32.809	-92.108	-29.474	20.713	-92.280	-87.629	56.838	69.241	-88.200	-83.572	-83.176	-78.735	26.854	-79.587	-8191	255	
1758.032	1	1	0	0	0.26054	0.065324	0.21061	0.31149	0.11876	0.17182	0.27902	0.23043	0.23754	0.017923	0.23973	0.15877	0.091432	0.4459	0.2271	0.24634	-2	-2.5729	-2.1042	-2.8958	-2.1813	-2.4	-2.7625	-2.4208	-2.1333	-2.5854	-2.2167	-2.7708	-2.4021	-2.3187	-2.4146	-2.1479	109.397	26.625	72.507	205.638	-31.995	166.672	149.089	203.812	247.252	-32.175	-83.738	224.454	-55.219	226.778	-68.621	198.438	0.00027766	0.00036561	0.0001197	1414.6	3.4054e-06	5.1163e-06	1422.3	389.99	4.5951e-06	1.898e-06	447.83	147.95	123.08	44.391	8.0986e-06	55.119	0.00080663	0.00083595	0.00023354	1439.1	9.139e-06	9.2836e-06	1441.8	399.17	9.1383e-06	9.1974e-06	457.5	152.66	127.25	45.968	9.0795e-06	56.988	-75.011	-50.724	213.561	-92.257	97.430	46.911	-92.288	-87.762	32.610	69.355	-88.255	-83.471	-83.305	-79.012	119.042	-79.486	-8191	255	
1758.128	1	1	0	0	0.18881	0.2157	0.12964	0.25852	0.14909	0.33202	0.12893	0.16591	0.02145	0.23552	0.28038	0.089127	0.17963	0.055087	0.15375	0.15244	-2.0271	-2.55	-1.975	-2.8688	-2.4688	-2.2021	-2.8583	-2.3354	-2.3521	-2.5354	-2.2229	-2.6583	-2.3146	-2.3333	-2.6104	-2.3771	71.163	139.808	-98.985	190.313	143.032	212.029	108.204	226.917	-87.660	248.777	-82.816	200.467	30.866	110.295	8.417	193.243	0.0002565	0.00035034	0.00010346	1412.7	3.7473e-06	5.4619e-06	1416.7	389.85	3.5697e-06	7.6265e-06	447.64	147.74	123.03	44.469	6.3471e-06	55.031	0.00081079	0.00082411	0.00022915	1438.2	9.0556e-06	9.0582e-06	1440.5	398.9	8.9895e-06	9.0823e-06	457.57	152.66	127.22	46.011	8.9365e-06	56.93	-75.238	-42.595	-19.895	-92.091	88.232	28.079	-92.375	-87.605	140.872	-18.321	-88.234	-83.657	-83.271	-78.702	-53.242	-79.708	-8191	255	
1758.224	1	1	0	0	0.29417	0.071554	0.1773	0.11352	0.047906	0.35129	0.19526	0.38986	0.04947	0.20107	0.21288	0.36075	0.2303	0.23287	0.16276	0.09433	-1.9792	-2.5542	-2.0958	-2.8417	-2.2833	-2.2833	-2.9042	-2.6146	-2.5438	-2.6292	-2.3125	-2.6875	-2.6458	-2.3146	-2.6354	-2.4083	81.040	223.149	141.643	183.099	32.254	-75.349	89.519	162.487	142.221	-13.493	218.845	212.629	251.623	-67.039	-42.295	-73.761	0.00028607	0.00053681	4.2023e-05	1417.7	6.2737e-06	4.6746e-06	1415.7	389.82	3.5479e-06	7.4486e-06	445.56	147.53	123.21	44.41	3.5245e-06	55.097	0.00079083	0.00080857	0.00022798	1438.8	8.8967e-06	8.96e-06	1438.6	398.44	8.9514e-06	9.0079e-06	456.98	152.48	127.12	45.917	9.0425e-06	56.968	-78.324	-46.203	-26.141	-92.184	25.110	21.955	-92.347	-87.690	30.491	36.123	-88.033	-83.683	-83.318	-78.791	40.214	-79.647	-8191	255	
1758.296	1	1	0	0	0.16389	0.21468	0.054858	0.25896	0.17865	0.24737	0.41615	0.24906	0.20061	0.14922	0.21264	0.29805	0.29084	0.080992	0.15647	0.33808	-1.9688	-2.6042	-2.1083	-2.6521	-2.375	-2.1896	-2.8167	-2.4083	-2.3458	-2.6875	-2.2958	-2.6417	-2.6729	-2.325	-2.6146	-2.4771	100.827	139.184	219.586	226.412	-98.953	218.098	213.735	243.595	-4.071	63.772	246.461	244.981	197.062	192.137	204.139	195.389	0.00029036	0.00030605	0.00021931	1411.8	4.5498e-06	6.9259e-06	1420.5	389.64	2.0753e-06	8.5908e-06	446.41	148.25	123.22	44.471	8.1621e-06	55.403	0.00079828	0.00082149	0.00022781	1435.9	8.9112e-06	8.9498e-06	1440.2	398.73	9.0905e-06	9.0892e-06	457.93	152.71	127.31	45.995	9.0381e-06	57.005	-69.983	22.547	-58.514	-92.350	37.150	104.739	-92.092	-87.728	32.273	69.312	-88.286	-83.401	-83.245	-78.656	32.345	-79.674	-8191	255	
1758.416	1	1	0	0	0.14092	0.27685	0.30416	0.18039	0.085551	0.17405	0.30394	0.28054	0.23816	0.030277	0.13906	0.23559	0.095757	0.24477	0.13929	0.22423	-1.7125	-2.4708	-2.2458	-2.5521	-2.5604	-2.2271	-2.9333	-2.625	-2.4167	-2.7875	-2.5292	-2.5542	-2.5854	-2.0042	-2.6896	-2.5292	66.557	103.289	186.774	190.590	197.449	-28.417	211.182	157.741	202.467	164.991	197.044	143.200	-64.551	-26.387	55.777	96.889	0.00019391	0.00052385	0.0001779	1414.8	6.392e-06	4.6908e-06	1419.6	391.32	4.0511e-06	5.3446e-06	448.27	148.46	123.19	44.488	9.9428e-08	55.112	0.00079881	0.00082013	0.00023158	1439.1	8.975e-06	9.0322e-06	1439.9	398.82	8.9294e-06	9.0141e-06	457.84	152.7	127.37	45.984	9.0484e-06	56.92	-78.770	-9.508	-24.869	-92.205	41.657	81.142	-92.119	-87.416	77.495	86.542	-88.314	-83.731	-83.264	-78.860	-97.279	-79.334	-8191	255	
#DATA ENDS
