BOXY.EXE: ISS Imagent and Oximeter Data Acquisition Program Version 0.80
Ascii Record File

#ACQ INFORMATION
2  Detector Channels 
16  External MUX Channels 
1  Auxiliary Channels 
5000  Waveform (CCF) Frequency (Hz)
1  Waveforms Skipped 
30  Waveforms Averaged 
1  Cycles Averaged 
16  Acquisitions per Waveform 
10.0806  Updata Rate (Hz) 

#FILE INFORMATION
TRUE -- External MUX Channel results are PARSED.
FALSE -- AC DC and Phase are NOT grouped.
TRUE -- Companion Program Settings File CREATED.
FALSE -- AC data not excluded
FALSE -- DC data not excluded
FALSE -- Phase data not excluded
FALSE -- Auxillary Chn. data not excluded
Tab delimiters

#CALIBRATION STATE
TRUE -- Waveform Calibration Values APPLIED.


#AUX CALIBRATION VALUES
Val Type	aux-1	

Term	1.0000e+00	
Factor	0.0000e+00	


#WF CALIBRATION VALUES
A = Detector Channel
Val Type	A-AC1	A-AC2	A-AC3	A-AC4	A-AC5	A-AC6	A-AC7	A-AC8	A-AC9	A-AC10	A-AC11	A-AC12	A-AC13	A-AC14	A-AC15	A-AC16	A-DC1	A-DC2	A-DC3	A-DC4	A-DC5	A-DC6	A-DC7	A-DC8	A-DC9	A-DC10	A-DC11	A-DC12	A-DC13	A-DC14	A-DC15	A-DC16	A-Ph1	A-Ph2	A-Ph3	A-Ph4	A-Ph5	A-Ph6	A-Ph7	A-Ph8	A-Ph9	A-Ph10	A-Ph11	A-Ph12	A-Ph13	A-Ph14	A-Ph15	A-Ph16	

Term	0.00000e+00	0.00000e+00	0.00000e+00	0.00000e+00	0.00000e+00	0.00000e+00	0.00000e+00	0.00000e+00	0.00000e+00	0.00000e+00	0.00000e+00	0.00000e+00	0.00000e+00	0.00000e+00	0.00000e+00	0.00000e+00	0.00000e+00	0.00000e+00	0.00000e+00	0.00000e+00	0.00000e+00	0.00000e+00	0.00000e+00	0.00000e+00	0.00000e+00	0.00000e+00	0.00000e+00	0.00000e+00	0.00000e+00	0.00000e+00	0.00000e+00	0.00000e+00	0.00000e+00	0.00000e+00	0.00000e+00	0.00000e+00	0.00000e+00	0.00000e+00	0.00000e+00	0.00000e+00	0.00000e+00	0.00000e+00	0.00000e+00	0.00000e+00	0.00000e+00	0.00000e+00	0.00000e+00	0.00000e+00	
Factor	1.00000e+00	1.00000e+00	1.00000e+00	1.00000e+00	1.00000e+00	1.00000e+00	1.00000e+00	1.00000e+00	1.00000e+00	1.00000e+00	1.00000e+00	1.00000e+00	1.00000e+00	1.00000e+00	1.00000e+00	1.00000e+00	1.00000e+00	1.00000e+00	1.00000e+00	1.00000e+00	1.00000e+00	1.00000e+00	1.00000e+00	1.00000e+00	1.00000e+00	1.00000e+00	1.00000e+00	1.00000e+00	1.00000e+00	1.00000e+00	1.00000e+00	1.00000e+00	X	X	X	X	X	X	X	X	X	X	X	X	X	X	X	X	

B = Detector Channel
Val Type	B-AC1	B-AC2	B-AC3	B-AC4	B-AC5	B-AC6	B-AC7	B-AC8	B-AC9	B-AC10	B-AC11	B-AC12	B-AC13	B-AC14	B-AC15	B-AC16	B-DC1	B-DC2	B-DC3	B-DC4	B-DC5	B-DC6	B-DC7	B-DC8	B-DC9	B-DC10	B-DC11	B-DC12	B-DC13	B-DC14	B-DC15	B-DC16	B-Ph1	B-Ph2	B-Ph3	B-Ph4	B-Ph5	B-Ph6	B-Ph7	B-Ph8	B-Ph9	B-Ph10	B-Ph11	B-Ph12	B-Ph13	B-Ph14	B-Ph15	B-Ph16	

Term	0.00000e+00	0.00000e+00	0.00000e+00	0.00000e+00	0.00000e+00	0.00000e+00	0.00000e+00	0.00000e+00	0.00000e+00	0.00000e+00	0.00000e+00	0.00000e+00	0.00000e+00	0.00000e+00	0.00000e+00	0.00000e+00	0.00000e+00	0.00000e+00	0.00000e+00	0.00000e+00	0.00000e+00	0.00000e+00	0.00000e+00	0.00000e+00	0.00000e+00	0.00000e+00	0.00000e+00	0.00000e+00	0.00000e+00	0.00000e+00	0.00000e+00	0.00000e+00	-3.63263e+01	-1.44616e+02	-1.36455e+02	-1.83436e+02	-6.47196e+01	-8.14628e+01	-1.60695e+02	-1.62015e+02	-4.27404e+01	-5.87643e+01	-1.72707e+02	-1.72386e+02	-1.83401e+02	-1.78286e+02	-6.56670e+01	-1.51169e+02	
Factor	2.16242e-05	1.40199e-04	3.24853e-05	1.48686e-01	1.47159e-06	1.31807e-06	1.62454e-01	5.10240e-02	1.11014e-06	1.35182e-06	7.91605e-02	2.65441e-02	2.35584e-02	8.15133e-03	1.44641e-06	1.17866e-02	2.30442e-06	2.49268e-06	6.93736e-07	7.79555e-02	2.69482e-08	2.73278e-08	7.97935e-02	2.67642e-02	2.70149e-08	2.74240e-08	4.00788e-02	1.34491e-02	1.24290e-02	4.29815e-03	2.72636e-08	5.99323e-03	X	X	X	X	X	X	X	X	X	X	X	X	X	X	X	X	



#DISTANCE SETTINGS
A = Detector Channel
A-1	A-2	A-3	A-4	A-5	A-6	A-7	A-8	A-9	A-10	A-11	A-12	A-13	A-14	A-15	A-16	

2.5000e+00	3.0000e+00	2.5000e+00	3.0000e+00	2.0000e+00	3.0000e+00	1.5000e+00	3.0000e+00	3.0000e+00	3.0000e+00	3.0000e+00	3.0000e+00	3.0000e+00	3.0000e+00	1.5000e+00	3.0000e+00	

B = Detector Channel
B-1	B-2	B-3	B-4	B-5	B-6	B-7	B-8	B-9	B-10	B-11	B-12	B-13	B-14	B-15	B-16	

1.0000e+01	1.0000e+01	1.0000e+01	1.4400e+00	1.0000e+01	1.0000e+01	1.5100e+00	1.9400e+00	1.0000e+01	1.0000e+01	1.9900e+00	2.4900e+00	2.4100e+00	2.9000e+00	1.0000e+01	2.9800e+00	




#DATA BEGINS
time	group	step	mark	flag	A-AC1	A-AC2	A-AC3	A-AC4	A-AC5	A-AC6	A-AC7	A-AC8	A-AC9	A-AC10	A-AC11	A-AC12	A-AC13	A-AC14	A-AC15	A-AC16	A-DC1	A-DC2	A-DC3	A-DC4	A-DC5	A-DC6	A-DC7	A-DC8	A-DC9	A-DC10	A-DC11	A-DC12	A-DC13	A-DC14	A-DC15	A-DC16	A-Ph1	A-Ph2	A-Ph3	A-Ph4	A-Ph5	A-Ph6	A-Ph7	A-Ph8	A-Ph9	A-Ph10	A-Ph11	A-Ph12	A-Ph13	A-Ph14	A-Ph15	A-Ph16	B-AC1	B-AC2	B-AC3	B-AC4	B-AC5	B-AC6	B-AC7	B-AC8	B-AC9	B-AC10	B-AC11	B-AC12	B-AC13	B-AC14	B-AC15	B-AC16	B-DC1	B-DC2	B-DC3	B-DC4	B-DC5	B-DC6	B-DC7	B-DC8	B-DC9	B-DC10	B-DC11	B-DC12	B-DC13	B-DC14	B-DC15	B-DC16	B-Ph1	B-Ph2	B-Ph3	B-Ph4	B-Ph5	B-Ph6	B-Ph7	B-Ph8	B-Ph9	B-Ph10	B-Ph11	B-Ph12	B-Ph13	B-Ph14	B-Ph15	B-Ph16	aux-1	digaux	

1768.740	1	1	0	256	0.059829	0.33411	0.20088	0.23605	0.23144	0.1441	0.082784	0.14013	0.1453	0.17735	0.083335	0.18143	0.13873	0.17066	0.20866	0.16301	-1.9375	-2.6771	-2.1708	-2.7667	-2.7021	-2.1937	-2.8375	-2.5583	-2.2062	-2.7958	-2.4979	-2.3958	-2.6479	-2.1333	-2.6229	-2.5604	151.668	127.225	44.743	210.722	61.582	-0.762	-66.381	-90.037	-81.020	102.045	134.701	208.537	1.467	214.189	71.932	118.387	0.00012006	0.00036397	6.6726e-05	1100.7	2.4967e-06	3.3122e-06	1191.8	235.97	2.3377e-06	3.489e-06	295.86	82.377	61.938	19.377	1.9092e-06	26.931	0.00011077	0.0001002	2.7254e-05	1070.2	1.1676e-06	1.1267e-06	1161.8	231.19	1.1536e-06	1.1044e-06	289.34	81.632	61.371	19.269	1.1736e-06	26.817	-74.242	-37.491	-13.130	-90.119	69.347	48.245	-89.618	-82.580	46.576	67.993	-82.868	-75.937	-75.954	-68.621	56.979	-69.347	-8191	255	
1768.836	1	1	0	0	0.10172	0.04619	0.1157	0.24702	0.17779	0.19089	0.10557	0.15902	0.30508	0.10954	0.048174	0.4209	0.21	0.16772	0.033801	0.091345	-1.7188	-2.5479	-2.3312	-2.6375	-2.8125	-2.4146	-2.9042	-2.4875	-2.2521	-2.8375	-2.5375	-2.2729	-2.7833	-2.3125	-2.5938	-2.7083	31.506	-67.587	-55.401	176.963	216.435	-15.500	255.740	214.500	204.963	-40.536	180.241	-75.134	-14.959	171.269	64.300	77.805	9.9822e-05	0.00023956	4.5413e-05	1102.6	7.6425e-07	2.9203e-06	1194.9	233.91	3.1594e-06	3.6642e-06	295.71	82.229	62.141	19.473	3.3486e-06	27.101	0.00011199	0.00010565	2.9477e-05	1073.1	1.2062e-06	1.1344e-06	1162.7	230.07	1.1897e-06	1.1331e-06	290.1	81.617	61.513	19.301	1.138e-06	26.812	-82.660	-98.365	-11.663	-89.900	19.546	17.053	-89.611	-82.468	59.537	82.263	-83.226	-75.604	-75.382	-68.745	60.460	-69.271	-8191	255	
1768.932	1	1	0	0	0.20714	0.18552	0.31577	0.090788	0.16918	0.090596	0.048225	0.16513	0.34895	0.24874	0.26975	0.075428	0.31679	0.070479	0.19802	0.14892	-1.8583	-2.5125	-2.4437	-2.4313	-2.6396	-2.2104	-2.5958	-2.5896	-2.2354	-2.5396	-2.5271	-2.2021	-2.6646	-2.4146	-2.4917	-2.7583	-42.467	82.353	-42.050	133.795	-30.040	52.104	149.444	181.685	-35.049	-100.361	242.926	130.170	175.396	-33.759	174.971	3.180	0.00012052	0.00028697	5.5371e-05	1101.1	2.3599e-06	1.0073e-06	1195.3	234.58	1.6273e-06	4.7176e-06	296.11	82.699	62.295	19.387	2.4956e-06	26.953	0.00011396	0.00010247	2.8997e-05	1072.4	1.199e-06	1.1128e-06	1163.4	230.47	1.1578e-06	1.1222e-06	288.9	81.896	61.517	19.322	1.0943e-06	26.82	-84.111	11.207	-31.634	-89.961	27.647	41.191	-89.705	-82.608	69.526	62.675	-83.086	-75.706	-75.628	-68.390	19.091	-69.462	-8191	255	
1769.052	1	1	0	0	0.18395	0.14111	0.19427	0.20347	0.10349	0.27776	0.22971	0.18962	0.40603	0.16928	0.1295	0.10663	0.071373	0.16933	0.10313	0.3284	-1.7042	-2.8208	-2.6979	-2.4604	-2.6417	-2.3958	-2.6479	-2.9271	-2.2521	-2.5479	-2.6667	-2.3021	-2.7729	-2.3708	-2.4396	-2.5646	13.683	203.764	245.024	-74.529	-4.708	251.600	195.240	-23.376	78.161	110.838	218.231	154.878	117.782	207.513	65.667	140.469	0.0001485	0.00034568	7.3835e-05	1101.4	3.0484e-06	2.6149e-06	1189.1	234.04	1.299e-06	3.9341e-06	295.27	82.411	62.413	19.339	3.0008e-06	26.968	0.00011023	0.00010345	2.9013e-05	1073.4	1.1655e-06	1.14e-06	1163.6	230.36	1.1648e-06	1.1328e-06	289.18	81.709	61.5	19.349	1.1364e-06	26.799	-80.321	-33.490	-2.074	-89.869	23.598	-24.670	-89.824	-82.484	26.707	34.110	-82.870	-75.795	-75.735	-68.961	44.523	-68.715	-8191	255	
1769.124	1	1	0	0	0.11917	0.16143	0.24985	0.1759	0.3197	0.22908	0.12274	0.033999	0.088848	0.37584	0.38868	0.14095	0.0998	0.22237	0.28098	0.29228	-1.9542	-2.4125	-2.5771	-2.2604	-2.6063	-2.5479	-2.4021	-2.7146	-2.375	-2.5563	-2.8375	-2.2896	-2.6146	-2.4875	-2.4062	-2.6521	120.363	115.923	-27.769	225.044	144.982	232.673	191.176	0.129	222.021	-22.210	205.774	209.166	251.843	178.054	21.228	118.899	9.2627e-05	0.00049612	7.689e-05	1101.5	3.4513e-06	3.1828e-06	1194.5	235.06	1.9314e-06	3.6569e-06	296.46	81.864	62.208	19.407	1.3667e-06	27.097	0.00011157	0.0001042	2.8559e-05	1071.5	1.156e-06	1.1109e-06	1164	230.55	1.1664e-06	1.1087e-06	289.28	81.727	61.584	19.349	1.111e-06	26.858	-80.616	6.731	4.666	-89.989	73.589	35.727	-89.796	-82.414	24.255	34.887	-82.622	-75.855	-75.337	-68.439	-28.851	-69.293	-8191	255	
1769.220	1	1	0	0	0.19224	0.37478	0.024834	0.22811	0.17541	0.11502	0.33342	0.3093	0.30716	0.1913	0.36158	0.23616	0.42887	0.070349	0.11837	0.073098	-1.8813	-2.5271	-2.625	-2.3458	-2.6813	-2.3708	-2.4917	-3.0687	-2.3104	-2.4771	-2.8438	-2.3646	-2.6021	-2.4813	-2.2375	-2.8458	84.548	-60.934	125.751	148.911	-42.074	-94.721	206.426	250.373	139.241	218.956	197.793	-57.024	-56.498	122.771	62.350	114.816	9.5436e-05	0.00051346	5.1203e-05	1098	3.5672e-06	3.0151e-06	1193.4	235.13	3.1906e-06	3.3548e-06	295.73	82.555	62.396	19.148	3.1455e-06	26.964	0.00010798	0.00010047	2.708e-05	1069.8	1.1469e-06	1.0193e-06	1161.7	230.94	1.0693e-06	1.0574e-06	289.46	81.853	61.58	19.259	1.0731e-06	26.758	-71.222	-24.308	-52.058	-89.981	40.588	23.498	-89.881	-82.628	37.933	61.370	-82.754	-75.622	-75.980	-68.227	62.375	-69.558	-8191	255	
1769.341	1	1	0	0	0.13693	0.16926	0.25208	0.2812	0.39503	0.21885	0.090465	0.045554	0.17484	0.094958	0.13721	0.13408	0.065009	0.17949	0.2371	0.15306	-2.0333	-2.3937	-2.7917	-2.3854	-2.575	-2.5979	-2.4083	-2.5708	-2.3375	-2.2167	-2.6792	-2.3708	-2.6354	-2.6104	-2.3917	-2.7208	90.829	98.826	217.242	228.766	142.461	206.212	-82.533	81.765	14.499	129.790	241.076	120.736	11.786	173.273	194.111	147.096	7.6815e-05	0.00036816	4.6318e-05	1098.2	1.0741e-06	3.2476e-06	1190.4	234.98	2.2873e-06	4.0739e-06	295.97	82.854	62.119	19.478	3.2882e-06	27.02	0.00010415	9.7884e-05	2.6736e-05	1070.7	1.0812e-06	1.0417e-06	1160.9	230.49	1.0673e-06	1.0887e-06	289.02	81.791	61.524	19.407	1.0672e-06	26.824	-77.230	3.488	-29.419	-89.666	7.538	61.557	-89.876	-82.684	93.858	2.951	-82.949	-76.025	-75.638	-68.840	27.187	-68.505	-8191	255	
1769.437	1	1	0	0	0.074066	0.17386	0.068908	0.17175	0.016097	0.20589	0.162	0.371	0.081349	0.233	0.20905	0.15357	0.069219	0.039077	0.24859	0.15076	-2.0167	-2.3354	-2.6542	-2.4958	-2.2938	-2.6396	-2.3458	-2.8187	-2.5646	-2.4146	-2.8688	-2.5083	-2.5229	-2.9375	-2.2375	-2.7458	-20.233	54.425	107.806	234.568	86.966	212.852	169.070	145.758	-32.070	-91.251	247.421	121.544	-40.623	167.534	-26.753	-72.638	0.00013891	0.0003016	4.0112e-05	1098.4	1.3293e-06	2.1582e-06	1191.3	235.21	3.5956e-06	2.2721e-06	297.56	82.146	62.731	19.432	2.7229e-06	26.846	0.00010672	9.5449e-05	2.6332e-05	1069.8	1.0939e-06	1.04e-06	1161.9	230.66	1.0772e-06	1.0473e-06	289.93	81.561	61.746	19.335	1.0657e-06	26.784	-83.498	-4.942	-32.868	-89.885	230.437	72.862	-89.840	-82.556	98.371	109.673	-82.824	-76.130	-75.151	-68.623	25.416	-69.368	-8191	255	
1769.533	1	1	0	0	0.39531	0.064659	0.14476	0.22354	0.20665	0.15751	0.28253	0.27412	0.10496	0.11804	0.058521	0.15045	0.3186	0.15578	0.30709	0.21853	-2.2687	-2.2313	-2.7521	-2.5083	-2.4542	-2.8146	-2.5292	-2.8312	-2.4813	-2.2229	-2.8292	-2.3854	-2.4938	-2.6771	-2.2208	-2.8375	136.035	155.330	-67.123	-96.227	39.178	35.187	228.713	-62.111	135.462	80.509	110.462	77.912	204.675	236.975	86.337	-96.410	9.2715e-05	0.00039634	7.2789e-05	1099.1	2.2827e-06	3.2754e-06	1193.1	236.62	8.5745e-07	2.119e-06	295.19	82.969	62.545	19.518	1.1765e-06	26.808	0.00010453	9.8045e-05	2.6924e-05	1069.6	1.1249e-06	1.0568e-06	1162.5	231.09	1.0782e-06	1.0606e-06	289.45	81.92	61.512	19.336	1.1003e-06	26.804	-58.980	-32.248	-37.699	-89.883	39.201	40.737	-89.685	-82.383	194.002	58.035	-83.050	-75.988	-75.475	-68.773	43.727	-69.244	-8191	255	
1769.652	1	1	0	0	0.3484	0.15061	0.29048	0.2641	0.08271	0.28015	0.4119	0.11435	0.065956	0.10788	0.17701	0.022607	0.15544	0.27093	0.10757	0.16071	-1.9917	-2.1771	-2.7667	-2.5187	-2.3708	-2.8792	-2.4062	-2.5938	-2.6417	-2.2104	-2.8292	-2.5083	-2.4083	-2.8833	-2.1646	-2.5375	140.174	99.647	-68.701	241.503	178.453	203.424	171.793	178.181	95.521	131.144	163.043	45.870	24.055	-76.503	-75.408	233.888	0.0001183	0.00016532	8.1159e-05	1095.7	4.0154e-06	1.7695e-06	1193.4	235.12	2.2363e-06	4.7977e-06	295.99	82.773	62.1	19.489	2.9107e-06	26.837	0.00010718	9.5734e-05	2.6848e-05	1069.5	1.0868e-06	1.03e-06	1163.4	231.03	1.1117e-06	1.0543e-06	290.11	81.851	61.395	19.295	1.0957e-06	26.785	-81.708	-14.916	-4.370	-89.837	35.151	32.106	-89.752	-82.513	59.431	68.499	-83.049	-75.777	-75.523	-68.752	70.691	-69.398	-8191	255	
1769.724	1	1	0	0	0.051992	0.071077	0.087876	0.055019	0.31259	0.18439	0.23189	0.1371	0.11	0.19652	0.20201	0.084985	0.31979	0.05769	0.15009	0.22056	-2.2229	-2.2875	-2.8312	-2.5854	-2.3021	-2.4458	-2.6458	-2.5771	-2.625	-2.4521	-2.65	-2.575	-2.4292	-2.6208	-2.3521	-2.65	92.575	-34.873	-71.221	203.977	144.717	97.781	140.852	-98.916	96.284	234.590	211.252	189.994	258.961	-30.783	179.827	127.080	0.0001149	0.00031998	5.0258e-05	1093.4	1.7339e-06	2.3602e-06	1193.4	234.28	2.0925e-06	2.6006e-06	296.57	82.326	62.438	19.436	1.4221e-06	27.029	0.00010406	9.7422e-05	2.7554e-05	1067.7	1.1453e-06	1.0537e-06	1159.9	230.49	1.1248e-06	1.0547e-06	289.74	81.806	61.553	19.353	1.0899e-06	26.884	-63.489	-66.677	-35.680	-89.989	20.368	23.151	-89.873	-82.605	83.878	60.123	-83.196	-75.624	-75.567	-68.904	83.789	-69.297	-8191	255	
1769.820	1	1	0	0	0.33693	0.23558	0.066608	0.29401	0.36979	0.12037	0.19941	0.15857	0.10505	0.090056	0.072119	0.12093	0.20876	0.16769	0.39678	0.054631	-2.2687	-2.1708	-2.6542	-2.6583	-2.2417	-2.5604	-2.4333	-2.5833	-2.7083	-2.2458	-2.5917	-2.7104	-2.1646	-2.8792	-2.35	-2.4479	201.966	-51.301	-81.153	-84.730	217.935	193.620	193.472	182.082	-42.822	233.524	178.972	-91.637	239.595	-98.468	142.092	-69.621	0.00011035	0.00011492	5.5814e-05	1093.4	1.6996e-06	2.7493e-06	1189.7	235.12	2.574e-06	3.0695e-06	297.31	82.463	62.488	19.247	2.7605e-06	26.965	0.00010741	9.9286e-05	2.6645e-05	1068.5	1.1309e-06	1.1009e-06	1159.5	230.8	1.0799e-06	1.0638e-06	289.55	81.726	61.58	19.31	1.0967e-06	26.762	-82.488	-11.334	18.646	-89.899	31.176	10.642	-89.833	-82.500	140.494	55.006	-83.237	-75.904	-75.674	-68.686	13.304	-69.304	-8191	255	
1769.916	1	1	0	0	0.3522	0.044178	0.20966	0.18119	0.11786	0.24987	0.23443	0.056477	0.18221	0.24616	0.056184	0.1134	0.22674	0.15889	0.17911	0.37784	-2.3375	-2.2021	-2.5	-2.5896	-2.375	-2.6708	-2.6833	-2.3021	-2.8042	-2.3458	-2.7146	-2.6208	-2.1	-2.6937	-2.3458	-2.4313	212.962	-58.716	230.064	230.035	157.028	192.824	133.496	125.172	198.607	196.399	229.840	104.268	246.338	138.999	150.353	-87.979	0.00012011	0.00034335	5.6725e-05	1094.9	3.2162e-06	3.4926e-06	1192	235.02	1.4361e-06	3.8726e-06	293.84	82.318	61.98	19.503	3.9071e-06	26.829	0.00010253	0.00010074	2.6527e-05	1069.3	1.1204e-06	1.061e-06	1161	230.56	1.0951e-06	1.0668e-06	289.17	81.469	61.506	19.414	1.0978e-06	26.771	-69.395	-5.429	-21.810	-89.945	55.744	35.101	-89.762	-82.613	-0.392	42.037	-82.956	-75.550	-75.652	-68.548	59.292	-69.076	-8191	255	
1770.037	1	1	0	0	0.11242	0.18642	0.23066	0.20102	0.19321	0.2051	0.26297	0.11193	0.15282	0.061105	0.10395	0.07858	0.21393	0.24019	0.238	0.16979	-2.2458	-2.2062	-2.5521	-2.6125	-2.3104	-2.6021	-2.9	-2.2771	-2.4625	-2.4146	-2.5083	-2.6104	-2.3417	-2.4792	-2.4938	-2.2396	30.567	31.829	39.748	-69.775	101.174	10.044	253.149	132.768	-27.338	194.875	-14.354	147.539	-78.711	-25.875	-13.317	-73.040	7.5841e-05	0.00044959	7.9177e-05	1101	2.8633e-06	4.4007e-06	1186	234.43	3.2708e-06	3.0188e-06	295.13	82.037	61.687	19.452	6.5188e-06	27.071	0.0001054	9.7407e-05	2.666e-05	1067.1	1.0724e-06	1.0404e-06	1156.7	230.76	1.045e-06	1.0047e-06	289.29	81.588	61.388	19.318	1.0763e-06	26.861	-93.438	-35.279	-33.714	-89.886	65.573	-22.897	-89.618	-82.862	58.613	60.517	-83.045	-75.576	-75.579	-68.772	100.434	-69.222	-8191	255	
1770.133	1	1	0	0	0.076561	0.066488	0.18309	0.17594	0.19894	0.13279	0.024538	0.29301	0.084969	0.2484	0.22001	0.032589	0.20796	0.26426	0.15815	0.030703	-2.1437	-2.4792	-2.1896	-2.7729	-2.2083	-2.7271	-2.875	-2.3937	-2.675	-2.3458	-2.3812	-2.7438	-2.1833	-2.4062	-2.7271	-2.3333	245.167	34.627	171.741	215.604	107.865	-3.163	153.367	116.823	-30.496	156.612	-47.594	106.302	219.394	-57.912	100.786	17.766	9.8158e-05	0.00029798	6.0105e-05	1093.3	3.1148e-06	3.3204e-06	1186.1	234.6	1.1933e-06	2.8643e-06	296.7	81.999	62.166	19.395	1.4339e-06	26.845	0.00010519	9.4976e-05	2.605e-05	1066.3	1.065e-06	1.0126e-06	1157.8	230.57	1.0342e-06	9.6372e-07	289.03	81.512	61.417	19.356	1.0012e-06	26.695	-79.078	-69.620	-14.915	-89.831	61.142	44.278	-89.734	-82.456	3.199	41.765	-82.444	-75.257	-75.198	-68.730	96.366	-69.059	-8191	255	
1770.229	1	1	0	0	0.096265	0.17036	0.18403	0.1403	0.29642	0.029747	0.11947	0.11738	0.081922	0.12509	0.30787	0.2325	0.21507	0.0053146	0.23176	0.35081	-2.2958	-2.3792	-2.2958	-2.8333	-2.3312	-2.4917	-2.8875	-2.1729	-2.6729	-2.7042	-2.2792	-2.9708	-2.4917	-2.6854	-2.8021	-2.3375	-67.641	156.413	17.178	196.704	158.494	-89.071	169.125	240.001	-40.509	136.189	-68.943	258.930	94.114	235.571	-18.135	155.563	6.8153e-05	0.00022291	7.5866e-05	1094.1	1.041e-06	1.9282e-06	1184.6	233.88	4.793e-07	4.1915e-06	293.46	82.702	61.685	19.244	3.997e-06	26.906	9.7338e-05	8.9549e-05	2.4324e-05	1063.5	1.0159e-06	9.6968e-07	1154.7	229.71	9.843e-07	9.6355e-07	287.89	81.39	61.098	19.218	9.3526e-07	26.687	-81.201	-17.105	-49.214	-90.096	16.042	59.332	-89.824	-82.554	-12.560	66.434	-82.981	-75.580	-75.462	-68.528	61.871	-69.309	-8191	255	
1770.325	1	1	0	0	0.097295	0.11452	0.029468	0.088653	0.047738	0.068404	0.25841	0.20697	0.19373	0.080255	0.1464	0.2789	0.28666	0.044827	0.21631	0.089956	-2.0979	-2.3375	-2.3354	-2.8771	-2.3542	-2.5104	-2.8875	-2.3417	-2.7417	-2.5604	-2.4271	-2.8604	-2.5167	-2.4271	-2.7542	-2.3521	170.733	-31.335	138.872	-35.529	207.087	194.669	237.780	193.402	44.341	-16.402	-40.270	-97.407	251.971	195.221	38.297	116.886	0.00011555	0.00037158	4.9339e-05	1088.6	2.0218e-07	2.5696e-06	1174.4	233.28	2.749e-06	4.3608e-06	292.99	82.326	61.484	19.33	2.764e-06	26.73	9.7122e-05	8.7934e-05	2.4177e-05	1058.7	9.7266e-07	9.2482e-07	1147.2	228.98	9.3398e-07	9.0288e-07	287.18	81.347	60.854	19.158	9.1748e-07	26.624	-69.904	4.880	-21.324	-89.791	227.070	65.261	-89.636	-82.310	11.443	48.716	-83.195	-75.618	-75.697	-69.061	21.990	-68.926	-8191	255	
1770.421	1	1	0	0	0.20871	0.031765	0.22604	0.1149	0.11878	0.068614	0.1629	0.22314	0.11506	0.24644	0.082482	0.23384	0.03328	0.23416	0.29639	0.22682	-2.1458	-2.5667	-2.3542	-2.8875	-2.6063	-2.5021	-2.9125	-2.1396	-2.6312	-2.7708	-2.3583	-2.8312	-2.4458	-2.3917	-2.7021	-2.4792	-1.836	-82.014	-8.781	-66.125	-81.464	-86.932	37.053	198.994	122.271	133.288	166.710	-99.900	16.059	143.767	73.556	228.956	0.0001304	0.00025213	4.4796e-05	1081.7	2.188e-06	2.6746e-06	1171.3	233.24	8.698e-07	4.7833e-06	294.16	82.213	61.755	19.266	2.8608e-06	26.657	9.137e-05	7.9584e-05	2.2603e-05	1052.7	8.9507e-07	8.7876e-07	1141.6	228.62	9.1597e-07	8.3352e-07	287.35	81.152	60.874	19.143	8.9021e-07	26.54	-70.591	-34.180	-6.227	-89.817	63.187	36.193	-89.709	-82.214	-22.085	98.968	-82.573	-75.716	-75.817	-68.670	30.152	-69.155	-8191	255	
1770.517	1	1	0	0	0.038411	0.20251	0.16172	0.11842	0.17054	0.1262	0.45539	0.26648	0.33842	0.18029	0.14769	0.088525	0.12036	0.11841	0.19638	0.13063	-2.125	-2.5458	-2.3104	-2.7229	-2.4417	-2.4354	-2.8833	-2.5583	-2.6	-2.6354	-2.2875	-2.5104	-2.5187	-2.3167	-2.6188	-2.5146	-26.595	253.379	-64.009	-10.854	58.501	161.583	-96.157	135.508	179.597	126.196	182.831	-56.784	244.825	183.601	24.024	-37.336	9.8982e-05	0.00034264	8.7466e-05	1081	1.6089e-06	4.3509e-06	1171.2	233.24	2.0652e-06	3.8693e-06	292.47	81.037	62.068	19.289	8.6529e-07	26.833	8.763e-05	7.6925e-05	2.1614e-05	1050.5	9.0546e-07	8.7586e-07	1141	228	9.1339e-07	8.2483e-07	285.44	80.689	60.812	19.175	8.3665e-07	26.61	-73.012	-7.097	-22.018	-89.771	70.963	41.427	-89.852	-82.320	25.892	60.213	-82.873	-75.840	-75.631	-68.403	53.396	-69.241	-8191	255	
1770.614	1	1	0	0	0.058308	0.044323	0.12138	0.23613	0.05539	0.11887	0.22682	0.12521	0.11499	0.21494	0.12644	0.31727	0.22703	0.17204	0.10442	0.17342	-2.1188	-2.5208	-2.2521	-2.6813	-2.4188	-2.2708	-2.7896	-2.5208	-2.4854	-2.6813	-2.2938	-2.5563	-2.5062	-2.2667	-2.7979	-2.5708	202.482	136.890	89.695	-27.384	134.421	211.551	193.407	198.030	169.143	87.092	86.139	-57.704	246.880	3.353	190.117	3.068	8.8461e-05	0.00045775	5.1932e-05	1075.5	1.9097e-06	2.0122e-06	1174	230.82	2.9672e-06	2.9077e-06	293.01	81.656	60.676	19.242	2.7368e-06	26.738	8.7621e-05	7.6738e-05	2.1039e-05	1046.4	8.6004e-07	8.5069e-07	1138.7	227.22	8.6358e-07	7.9364e-07	285.59	80.768	60.48	19.121	8.596e-07	26.553	-79.635	-27.131	-31.323	-90.123	94.035	65.435	-89.719	-82.372	113.673	38.332	-83.147	-75.548	-75.329	-68.827	43.919	-69.618	-8191	255	
1770.732	1	1	0	0	0.060646	0.024825	0.17108	0.29549	0.13174	0.080655	0.055354	0.16349	0.11047	0.25659	0.20773	0.29782	0.079324	0.22744	0.062651	0.21545	-1.8792	-2.7687	-2.3438	-2.6583	-2.4875	-2.2042	-2.9542	-2.5812	-2.4271	-2.9104	-2.3604	-2.5	-2.8063	-2.2229	-2.7125	-2.6833	190.977	130.278	245.248	158.727	129.136	187.367	131.689	155.954	49.874	-41.990	-81.768	206.083	-98.207	-84.147	139.204	181.686	9.9894e-05	0.00039479	6.3119e-05	1070.9	3.0591e-06	1.2916e-06	1169.2	232.11	1.4598e-06	3.2515e-06	293.33	81.219	61.301	19.191	2.4966e-06	26.717	8.6497e-05	7.1768e-05	2.0855e-05	1046.1	8.8878e-07	8.2388e-07	1137.7	227.62	8.49e-07	8.33e-07	286.22	80.5	60.514	19.095	8.1461e-07	26.511	-66.646	-21.684	-62.641	-89.991	58.923	36.066	-89.706	-82.341	77.516	28.121	-82.855	-75.633	-75.827	-68.662	31.356	-68.850	-8191	255	
1770.829	1	1	0	0	0.15863	0.20848	0.17385	0.23522	0.25966	0.31779	0.12795	0.19624	0.1302	0.22105	0.12609	0.16635	0.23534	0.18738	0.056029	0.15427	-1.7458	-2.7667	-2.4292	-2.6792	-2.8271	-2.2604	-2.8125	-2.5938	-2.3458	-2.7167	-2.4646	-2.6208	-2.6375	-2.2938	-2.5187	-2.7438	54.084	93.614	248.092	221.469	26.954	164.571	196.821	209.763	108.109	9.669	209.034	221.063	148.716	197.404	201.039	-86.270	8.0619e-05	0.00010857	2.8466e-05	1078.4	2.035e-06	3.9453e-06	1170.1	231.59	1.515e-06	3.1936e-06	292.65	81.389	60.958	19.203	9.4786e-07	26.774	9.0372e-05	7.3321e-05	2.0588e-05	1046.7	8.8508e-07	8.0936e-07	1138.7	227.43	8.6572e-07	8.7048e-07	286.08	80.662	60.484	19.072	8.5063e-07	26.581	-64.663	3.568	34.882	-89.703	32.172	70.589	-89.667	-82.893	120.524	77.861	-83.182	-75.860	-75.425	-69.096	29.795	-69.377	-8191	255	
1770.925	1	1	0	0	0.13539	0.23093	0.07405	0.091711	0.24857	0.18506	0.43537	0.012427	0.042241	0.21625	0.11532	0.35115	0.16805	0.22006	0.27563	0.21573	-1.8208	-2.7687	-2.45	-2.5833	-2.6833	-2.3812	-2.8979	-2.7167	-2.0917	-2.7167	-2.4875	-2.55	-2.7687	-2.3542	-2.5542	-2.8583	161.748	16.841	-90.752	-97.278	-54.571	-85.617	182.567	83.586	237.596	-15.037	153.098	169.396	-11.733	-7.995	-93.554	4.864	9.9538e-05	0.00030146	9.3441e-05	1074.6	3.4804e-06	3.1294e-06	1168.7	232.78	1.8896e-06	1.7579e-06	294.83	81.937	61.161	19.292	2.6384e-06	26.756	8.9748e-05	8.0249e-05	2.1405e-05	1046.6	8.9131e-07	8.3771e-07	1137.8	228.45	9.0247e-07	8.6254e-07	287.37	80.845	60.618	19.181	8.3455e-07	26.601	-72.874	51.911	-30.344	-89.926	86.353	59.146	-89.622	-82.459	51.919	48.996	-83.078	-75.770	-76.174	-68.460	56.296	-68.889	-8191	255	
1771.021	1	1	0	0	0.2799	0.11354	0.17862	0.069509	0.061319	0.1946	0.16541	0.1059	0.37131	0.17245	0.081185	0.38128	0.1319	0.22521	0.15081	0.028798	-1.85	-2.7646	-2.4	-2.5667	-2.7271	-2.3917	-2.7188	-2.7042	-2.2896	-2.725	-2.8208	-2.4042	-2.7646	-2.5062	-2.5312	-2.6688	-3.733	59.168	-17.851	-72.528	95.447	173.393	224.346	133.975	201.864	96.032	43.299	223.976	191.770	171.366	82.099	-60.265	0.00013817	0.00021089	1.9117e-05	1076.6	1.2361e-06	2.8733e-06	1166.9	234.26	1.6508e-06	9.8535e-07	294.74	81.502	61.46	19.277	2.6165e-07	26.718	8.7112e-05	7.6136e-05	2.2711e-05	1048.8	8.9271e-07	8.1892e-07	1138	229.46	8.8615e-07	8.2649e-07	287.21	80.88	60.765	19.196	8.6937e-07	26.561	-63.588	-19.431	12.002	-89.779	58.820	82.991	-89.614	-82.604	64.222	67.261	-82.904	-75.370	-75.826	-68.783	64.153	-69.302	-8191	255	
1771.117	1	1	0	0	0.072434	0.21183	0.32399	0.28276	0.16374	0.23009	0.23809	0.082164	0.086523	0.096275	0.15417	0.13176	0.21784	0.023603	0.16515	0.19016	-1.8167	-2.5771	-2.5646	-2.3354	-2.6688	-2.4979	-2.7333	-2.7667	-2.2771	-2.6292	-2.6271	-2.4875	-2.6271	-2.4292	-2.4875	-2.6708	-69.416	243.772	112.028	117.233	124.606	19.877	220.335	50.813	16.301	242.238	216.805	50.161	-33.002	158.952	204.204	-41.076	7.9921e-05	0.00031991	7.3761e-05	1074.7	2.3932e-06	1.7287e-06	1168.5	233.89	9.4898e-07	1.6465e-06	293.49	81.358	61.415	19.191	3.2239e-06	26.64	8.8192e-05	7.827e-05	2.2286e-05	1045.9	9.1259e-07	8.7739e-07	1137.1	229.36	9.2565e-07	8.5563e-07	286.25	80.561	60.463	19.128	8.8505e-07	26.42	-76.328	-37.704	-27.766	-89.687	57.458	41.215	-89.509	-82.382	66.360	55.122	-82.875	-75.391	-75.680	-68.659	66.527	-69.552	-8191	255	
1771.213	1	1	0	0	0.050461	0.14434	0.31851	0.14327	0.14759	0.21179	0.26745	0.20449	0.095087	0.25845	0.14552	0.022923	0.090899	0.22436	0.30623	0.11496	-1.6208	-2.3167	-2.6208	-2.2271	-2.5563	-2.325	-2.5625	-2.7271	-2.3333	-2.5229	-2.6688	-2.325	-2.7896	-2.3937	-2.1958	-2.7729	-85.205	-33.271	24.723	230.796	-38.027	235.979	208.939	189.888	205.610	111.630	241.004	55.971	148.887	-41.901	119.237	-2.515	0.00011098	0.0002232	8.9334e-05	1074.4	2.0218e-06	3.809e-06	1167.5	232.02	1.4194e-06	2.9341e-06	292.89	81.355	60.786	19.063	3.8228e-06	26.558	9.3814e-05	8.0088e-05	2.2346e-05	1046.6	9.6429e-07	8.7369e-07	1137.4	228.05	9.301e-07	9.0362e-07	285.95	80.596	60.321	19.047	9.4236e-07	26.396	-77.876	23.824	-38.577	-90.036	59.435	27.907	-89.648	-82.458	100.463	86.614	-82.870	-75.575	-75.453	-68.904	52.850	-69.016	-8191	255	
1771.334	1	1	0	0	0.27905	0.24966	0.17035	0.2237	0.14553	0.16259	0.20861	0.23986	0.078789	0.19459	0.15281	0.2641	0.17933	0.29583	0.096366	0.19268	-1.8062	-2.3625	-2.7083	-2.4833	-2.6	-2.4562	-2.5104	-2.8937	-2.475	-2.4604	-2.775	-2.2313	-2.525	-2.6	-2.0521	-2.75	214.577	159.651	255.068	-88.140	203.762	-56.475	141.939	146.753	105.700	130.845	254.557	256.227	-92.418	210.431	239.018	-95.009	0.00012802	0.00025821	5.051e-05	1075.3	5.6549e-06	2.7691e-06	1166.3	232.55	1.2312e-06	2.7088e-06	291.82	81.543	61.275	19.147	3.512e-06	26.604	9.379e-05	8.5239e-05	2.3612e-05	1046.3	9.6862e-07	8.8485e-07	1136.6	228.17	9.3725e-07	9.0876e-07	285.55	80.567	60.482	19.084	9.0549e-07	26.476	-73.585	-34.246	30.342	-89.779	56.367	61.675	-89.873	-82.504	67.402	65.793	-82.768	-75.499	-75.352	-69.192	26.948	-69.345	-8191	255	
1771.430	1	1	0	0	0.1092	0.16871	0.039944	0.20002	0.1207	0.18688	0.30124	0.1197	0.082029	0.27055	0.079482	0.074509	0.37504	0.24331	0.13792	0.096428	-1.95	-2.4875	-2.7438	-2.4604	-2.6042	-2.65	-2.5146	-2.725	-2.5	-2.3646	-2.9729	-2.3208	-2.5625	-2.6021	-2.2188	-2.6333	-78.489	38.858	-16.282	-67.658	84.498	225.478	223.428	29.522	172.553	101.745	-45.966	-50.760	-54.460	239.522	-51.268	205.776	8.1547e-05	0.00035943	6.6027e-05	1079.6	2.5224e-06	4.2385e-06	1171.6	231.73	1.3398e-06	2.2141e-06	293.29	81.839	61.278	19.054	4.0697e-06	26.66	8.994e-05	8.1017e-05	2.2594e-05	1046.9	9.2808e-07	9.0227e-07	1137.9	227.99	9.4271e-07	8.8008e-07	286.37	80.77	60.492	19.067	9.0617e-07	26.482	-74.567	-29.346	20.231	-89.678	28.147	48.731	-89.566	-82.440	88.142	48.810	-82.904	-75.659	-75.513	-68.938	72.447	-69.321	-8191	255	
1771.524	1	1	0	0	0.15856	0.080941	0.098773	0.14278	0.28829	0.076019	0.18506	0.16585	0.090382	0.16662	0.13501	0.30128	0.18587	0.20514	0.20385	0.27168	-1.95	-2.3042	-2.6708	-2.3792	-2.4208	-2.7313	-2.4646	-2.6813	-2.5563	-2.4667	-2.7875	-2.175	-2.5771	-2.5521	-2.2479	-2.8021	-55.685	217.609	89.128	136.980	199.659	203.477	217.532	-36.972	64.550	109.658	-39.687	-78.761	158.844	188.573	-71.051	203.655	0.00011288	0.00037717	9.3806e-05	1073	2.4943e-06	2.483e-06	1164.2	234.43	2.1762e-06	3.2924e-06	292.84	81.19	61.005	19.212	3.9453e-06	26.692	9.2004e-05	8.0742e-05	2.1835e-05	1046.2	9.461e-07	8.3424e-07	1137.3	228.52	9.2402e-07	8.7362e-07	285.39	80.451	60.282	19.051	9.2248e-07	26.456	-60.187	-11.782	-8.984	-89.890	114.954	59.137	-89.846	-82.292	53.425	77.035	-82.988	-75.594	-75.546	-68.701	72.850	-69.487	-8191	255	
1771.598	1	1	0	0	0.27397	0.091019	0.1288	0.37238	0.21226	0.34086	0.22634	0.26051	0.084837	0.099915	0.11183	0.11781	0.13498	0.13704	0.27611	0.1357	-2.0792	-2.3792	-2.8563	-2.6063	-2.3875	-2.6854	-2.4437	-2.75	-2.5583	-2.2917	-2.7313	-2.4042	-2.4125	-2.825	-2.1792	-2.5375	-81.773	137.953	164.974	-94.183	31.678	91.202	190.368	-100.183	-18.198	137.945	13.590	-74.889	-62.288	-29.196	108.126	228.253	0.00011397	0.00056163	7.9176e-05	1072.9	1.6312e-06	4.5726e-06	1164.9	232.94	7.9111e-07	1.8965e-06	293.08	80.686	61.232	19.151	2.0035e-06	26.575	8.9728e-05	8.2139e-05	2.2968e-05	1044.2	9.1511e-07	9.1087e-07	1134.7	227.89	9.2802e-07	8.766e-07	285.23	80.033	60.348	19.027	9.3213e-07	26.371	-65.757	-8.436	-26.514	-90.053	18.110	66.951	-89.689	-82.435	39.147	74.043	-83.039	-75.932	-75.820	-68.902	31.726	-69.005	-8191	255	
1771.717	1	1	0	0	0.24513	0.29658	0.10557	0.30088	0.22086	0.21564	0.07488	0.27515	0.089603	0.11304	0.16934	0.30302	0.12694	0.22852	0.24111	0.14256	-2.225	-2.1708	-2.5125	-2.5271	-2.225	-2.7667	-2.4417	-2.5521	-2.5021	-2.2604	-2.5563	-2.4792	-2.3375	-2.7271	-2.3833	-2.5979	43.609	-52.609	-67.970	223.423	142.398	150.776	192.384	244.007	111.117	175.009	132.274	-33.910	146.284	213.968	8.580	-71.629	0.00011209	0.00025893	7.7383e-05	1071.4	2.7435e-06	2.8935e-06	1165.7	230.34	8.5027e-07	4.417e-06	292.75	81.077	61.001	19.022	3.8062e-06	26.525	9.2911e-05	8.5026e-05	2.3466e-05	1045	9.4397e-07	9.3228e-07	1134.8	226.42	9.6348e-07	9.2819e-07	284.97	80.016	60.203	18.995	9.1572e-07	26.305	-75.400	-0.036	22.139	-89.782	-24.243	38.368	-89.566	-82.601	94.167	56.050	-82.929	-75.795	-75.702	-68.823	35.749	-69.170	-8191	255	
1771.813	1	1	0	0	0.13811	0.15537	0.043215	0.17266	0.13637	0.3531	0.095026	0.15212	0.085356	0.28957	0.089692	0.42129	0.1447	0.082153	0.3602	0.098043	-2.2146	-2.2	-2.6354	-2.5542	-2.3229	-2.7625	-2.5542	-2.4458	-2.5396	-2.3625	-2.7646	-2.4292	-2.3417	-2.7667	-2.3646	-2.3333	-29.928	83.668	137.749	-73.025	105.628	-1.388	-95.723	-15.582	-68.396	-10.808	240.438	-97.172	208.279	59.513	12.971	80.251	0.00014751	0.00024598	0.00010279	1074.4	1.1592e-06	2.455e-06	1166.3	231.61	1.9336e-06	4.7049e-06	291.16	80.901	60.235	18.942	4.1979e-06	26.289	9.1769e-05	8.2212e-05	2.3827e-05	1044.9	9.8973e-07	9.115e-07	1133.4	226.52	9.6449e-07	9.3504e-07	284.25	80.026	59.845	18.922	9.1799e-07	26.258	-64.222	-54.718	-20.901	-89.707	41.513	42.096	-89.837	-82.065	77.992	44.718	-83.116	-75.845	-75.615	-68.435	65.417	-69.301	-8191	255	
1771.909	1	1	0	0	0.1362	0.078951	0.13709	0.23989	0.052415	0.047813	0.17301	0.11307	0.29053	0.10836	0.34955	0.20599	0.21041	0.067579	0.030127	0.082654	-2.2667	-2.1708	-2.6063	-2.6417	-2.3417	-2.6896	-2.4167	-2.5312	-2.5125	-2.2146	-2.4813	-2.6188	-2.3854	-2.6771	-2.2687	-2.2417	164.627	-44.504	108.965	190.975	179.104	228.175	234.312	96.283	178.874	188.529	176.894	-35.118	-54.583	-78.864	88.497	82.235	8.6125e-05	0.00020075	4.1482e-05	1071	1.852e-06	1.4163e-06	1160.2	231.16	3.435e-07	2.2822e-06	291.5	80.638	60.576	19.095	2.3057e-06	26.411	9.306e-05	8.3307e-05	2.2392e-05	1042.7	9.3347e-07	8.8149e-07	1132.5	226.27	9.2301e-07	8.7077e-07	283.97	79.815	59.923	18.943	8.8754e-07	26.293	-77.063	-21.660	-48.810	-89.991	10.155	-24.115	-89.550	-82.471	-78.652	86.826	-82.726	-75.905	-75.492	-68.498	41.240	-68.997	-8191	255	
1772.005	1	1	0	0	0.064866	0.10956	0.054528	0.29387	0.36078	0.151	0.11941	0.29547	0.13204	0.18071	0.24305	0.20654	0.081924	0.41476	0.23635	0.081479	-2.3104	-2.4583	-2.5604	-2.6979	-2.2167	-2.7958	-2.5812	-2.3	-2.6896	-2.3333	-2.4917	-2.6583	-2.2729	-2.6813	-2.4792	-2.2417	111.063	71.916	-97.110	219.546	-88.200	238.733	154.822	146.743	10.686	-85.538	231.456	199.583	-88.000	203.812	-47.928	-97.644	0.00012417	9.4948e-05	5.6604e-05	1067.2	2.6832e-06	3.6035e-06	1160.5	230.74	6.6859e-07	2.5548e-06	290.11	80.77	61.149	18.952	3.4989e-06	26.424	9.2172e-05	8.1178e-05	2.2318e-05	1041.6	9.3864e-07	8.8132e-07	1131.9	226.11	9.2633e-07	9.0093e-07	283.75	79.943	59.89	18.822	8.8925e-07	26.228	-54.305	20.116	-53.912	-89.858	22.238	74.584	-89.897	-82.330	98.615	64.283	-83.163	-75.717	-75.205	-68.123	18.946	-69.146	-8191	255	
1772.126	1	1	0	0	0.039057	0.12303	0.14783	0.069754	0.26328	0.058342	0.30352	0.25576	0.21197	0.21362	0.19225	0.13638	0.072282	0.19355	0.12671	0.19767	-2.1667	-2.2896	-2.5708	-2.8354	-2.1188	-2.6937	-2.6083	-2.3438	-2.7562	-2.3271	-2.5417	-2.9333	-2.1312	-2.3833	-2.7271	-2.2979	235.615	25.040	144.950	249.335	-42.735	159.535	208.373	101.137	225.762	225.103	159.998	62.620	67.240	250.863	37.503	229.946	8.1162e-05	0.00020068	3.9188e-05	1068.2	1.9753e-06	2.858e-06	1156.2	228.47	1.1819e-06	3.052e-06	289.29	79.958	60.555	18.924	2.7473e-06	26.586	8.9791e-05	8.1355e-05	2.2782e-05	1040.1	9.1871e-07	8.6436e-07	1128.4	224.88	9.2847e-07	8.7282e-07	282.61	79.558	59.865	18.819	8.9402e-07	26.245	-97.115	-11.302	8.794	-89.684	134.623	23.353	-89.711	-82.180	62.601	58.048	-82.977	-75.850	-75.012	-68.612	58.916	-69.076	-8191	255	
1772.222	1	1	0	0	0.16189	0.086145	0.10589	0.20388	0.1675	0.3577	0.34995	0.19357	0.18866	0.017396	0.066756	0.15419	0.12662	0.22639	0.22931	0.062979	-2.2188	-2.3854	-2.275	-2.8104	-2.2021	-2.4062	-2.7313	-2.2583	-2.6979	-2.4729	-2.3917	-2.8937	-2.3812	-2.4813	-2.7438	-2.3375	195.567	2.072	30.920	255.015	-38.542	120.365	178.748	239.045	76.311	184.827	57.251	200.814	223.687	209.621	56.405	145.999	8.5482e-05	0.00018539	4.173e-05	1066.8	2.0377e-06	3.5231e-06	1155.9	228.21	2.5845e-06	1.5143e-06	288.89	80.134	60.572	18.756	1.3807e-06	26.573	9.102e-05	8.0617e-05	2.1645e-05	1038.1	9.3993e-07	8.9066e-07	1130.4	224.36	9.2284e-07	8.8482e-07	282.26	79.642	59.914	18.755	8.9436e-07	26.122	-73.310	-27.720	-88.327	-89.843	32.906	108.931	-89.726	-82.316	36.521	43.716	-83.143	-75.911	-75.488	-68.414	1.191	-69.272	-8191	255	
1772.294	1	1	0	0	0.024942	0.22023	0.1886	0.20099	0.21002	0.1609	0.19056	0.10099	0.19577	0.07492	0.26684	0.1964	0.28355	0.036479	0.18256	0.029778	-2.15	-2.4583	-2.3708	-2.825	-2.2708	-2.5208	-2.8375	-2.2917	-2.5062	-2.5812	-2.3792	-2.6667	-2.3125	-2.6437	-2.6063	-2.4146	-48.298	61.681	-70.437	209.392	209.613	-74.648	183.977	222.823	-86.736	6.134	207.020	198.715	46.117	101.771	169.602	237.842	8.6081e-05	0.00022336	8.9466e-05	1066.5	2.6299e-06	3.2007e-06	1160.5	228.96	2.3669e-06	4.377e-06	289.4	80.753	60.376	18.811	3.2304e-06	26.279	9.1217e-05	8.5447e-05	2.319e-05	1038.9	9.1562e-07	8.9202e-07	1128.9	224.33	9.2273e-07	8.8956e-07	282.16	79.646	59.615	18.739	8.9743e-07	26.054	-75.186	-20.115	-9.513	-89.730	13.700	35.161	-89.738	-82.266	17.726	44.447	-82.688	-75.885	-75.841	-68.597	60.862	-69.152	-8191	255	
1772.414	1	1	0	0	0.25244	0.26292	0.1966	0.20526	0.16218	0.11741	0.12979	0.25073	0.059571	0.12483	0.1234	0.30322	0.29863	0.12149	0.095713	0.062772	-2.0708	-2.5833	-2.3083	-3.0771	-2.4188	-2.4437	-2.8708	-2.1	-2.5812	-2.6063	-2.375	-2.8063	-2.4542	-2.2292	-2.725	-2.3458	41.188	188.187	237.131	254.376	213.692	174.843	211.531	240.482	247.713	233.984	148.508	218.531	135.949	154.659	91.044	207.590	0.00011776	0.00029053	4.3546e-05	1066.2	2.5656e-06	8.3791e-07	1165.6	228.66	1.1963e-06	2.9914e-06	288.26	80.271	60.116	18.75	1.9385e-06	26.44	9.2878e-05	8.5187e-05	2.3064e-05	1039.1	9.5896e-07	9.2687e-07	1129.9	224.62	9.3753e-07	9.1573e-07	281.94	79.597	59.464	18.756	8.951e-07	26.149	-72.801	-28.069	-17.271	-89.916	71.329	22.531	-89.999	-82.364	54.758	51.979	-82.901	-75.727	-75.451	-68.215	-11.055	-68.992	-8191	255	
1772.510	1	1	0	0	0.13094	0.31607	0.14259	0.22334	0.35397	0.20489	0.16477	0.10537	0.17908	0.24797	0.18119	0.047863	0.19609	0.10745	0.080269	0.18608	-2.2146	-2.5375	-2.1729	-2.9021	-2.3271	-2.3708	-2.8521	-2.3146	-2.4104	-2.4104	-2.3063	-2.7167	-2.4875	-2.3417	-2.8563	-2.475	201.220	-68.433	119.015	238.659	80.368	-23.019	154.240	221.389	128.446	20.351	136.627	55.444	258.859	146.306	154.850	-30.781	0.00013272	0.0004923	8.122e-06	1070.9	3.1459e-06	2.6019e-06	1160.8	229.52	1.6181e-06	2.1259e-06	288.94	80.259	60.271	18.77	3.3614e-06	26.177	9.0693e-05	7.8675e-05	2.3084e-05	1039.9	9.2151e-07	9.1821e-07	1130.4	224.41	9.2717e-07	8.7317e-07	282.41	79.429	59.536	18.78	9.1095e-07	26.058	-63.202	-24.121	65.095	-89.750	33.963	69.913	-89.589	-82.265	19.038	103.445	-82.842	-75.659	-75.481	-68.449	58.151	-68.822	-8191	255	
1772.606	1	1	0	0	0.20324	0.11898	0.17138	0.23582	0.33416	0.10493	0.34533	0.019224	0.1017	0.18064	0.10677	0.30059	0.28639	0.071189	0.26021	0.21764	-1.9833	-2.7062	-2.2208	-2.6792	-2.3667	-2.3208	-2.7958	-2.4854	-2.3417	-2.7958	-2.4104	-2.55	-2.4958	-2.4375	-2.6771	-2.5229	218.263	259.637	9.626	-58.001	-45.373	29.175	223.021	242.023	172.686	55.549	258.341	99.996	223.126	-35.861	105.453	203.685	8.445e-05	0.00049354	9.7205e-05	1066.1	2.2615e-06	1.9069e-06	1154.8	228.05	1.9537e-06	2.536e-06	290.31	80.39	60.371	18.886	3.8148e-06	26.238	9.4304e-05	8.3068e-05	2.2781e-05	1037.5	9.493e-07	8.7586e-07	1127.1	224.12	9.3393e-07	9.0733e-07	282.49	79.51	59.536	18.768	9.1691e-07	26.01	-74.069	-13.989	-10.178	-89.502	37.502	53.182	-89.932	-82.323	34.477	75.007	-83.204	-75.650	-75.430	-68.357	78.380	-69.209	-8191	255	
1772.703	1	1	0	0	0.16359	0.1515	0.19458	0.13739	0.13297	0.076253	0.022772	0.30341	0.14124	0.078369	0.31606	0.21689	0.20022	0.29556	0.21527	0.19146	-1.8979	-2.5563	-2.0333	-2.5667	-2.5521	-2.2875	-2.8333	-2.4458	-2.3125	-2.8167	-2.275	-2.5417	-2.4562	-1.9917	-2.6813	-2.3875	0.151	192.800	182.516	236.788	111.616	-6.929	100.168	248.995	-62.434	178.221	-96.243	103.316	45.038	-97.927	-64.615	229.374	9.2469e-05	0.00018108	7.1102e-05	1065.4	5.258e-07	1.5862e-06	1153.9	228.44	1.3949e-06	2.7217e-06	289.62	79.808	60.345	18.905	3.2974e-06	26.071	9.0833e-05	7.9262e-05	2.362e-05	1038	9.232e-07	8.6618e-07	1127.6	224.08	9.3246e-07	9.0408e-07	281.92	79.482	59.601	18.761	9.193e-07	26.057	-77.256	-13.728	30.157	-89.987	97.643	83.586	-89.864	-82.512	44.997	91.344	-82.714	-75.523	-75.451	-68.692	65.724	-68.633	-8191	255	
1772.822	1	1	0	0	0.27	0.23966	0.099386	0.089789	0.22274	0.29044	0.20365	0.28063	0.25947	0.06468	0.2346	0.11573	0.1217	0.18608	0.07179	0.2207	-1.6667	-2.6208	-2.2687	-2.6604	-2.6229	-2.2833	-2.8229	-2.5667	-2.2583	-2.6813	-2.4688	-2.5	-2.6854	-2.3125	-2.5417	-2.5729	-91.060	-34.006	192.986	34.929	97.175	-27.092	115.146	244.997	-92.520	166.527	253.308	172.530	212.570	160.970	206.450	-90.671	7.9145e-05	0.00022785	6.3626e-05	1064.8	2.1204e-06	1.8819e-06	1159.5	229.15	1.1439e-06	2.1248e-06	289.01	79.899	60.357	18.917	3.0821e-06	26.295	9.2614e-05	8.298e-05	2.1924e-05	1038.1	9.2494e-07	8.9185e-07	1129.3	224.59	9.2262e-07	8.5528e-07	282.49	79.42	59.68	18.805	9.0578e-07	26.128	-50.951	-31.592	-3.999	-89.895	36.077	4.845	-89.786	-82.552	57.644	24.439	-82.768	-75.851	-75.453	-68.634	56.420	-69.503	-8191	255	
1772.893	1	1	0	0	0.19268	0.028389	0.23081	0.15001	0.059224	0.16573	0.17557	0.087739	0.09769	0.17301	0.40647	0.31961	0.25142	0.2482	0.11062	0.15734	-1.8083	-2.8229	-2.4708	-2.4583	-2.5729	-2.0417	-2.8396	-2.5604	-2.2354	-2.7146	-2.4458	-2.4562	-2.7458	-2.2854	-2.525	-2.6708	-56.836	41.269	198.451	253.535	0.398	122.345	171.208	157.531	-94.240	100.261	255.667	168.123	214.477	-54.110	-12.625	168.771	8.4419e-05	0.0003575	4.0362e-05	1067	1.8194e-06	2.9084e-06	1155.4	228.06	3.3579e-07	2.357e-06	288.61	80.208	60.483	18.889	1.9672e-06	26.484	8.9743e-05	8.1168e-05	2.2778e-05	1039.3	9.2191e-07	8.8878e-07	1126.8	224.24	8.9802e-07	8.9339e-07	282.7	79.458	59.584	18.804	9.1646e-07	26.104	-80.097	-17.746	9.615	-89.844	43.041	23.288	-89.576	-82.517	86.709	89.923	-82.562	-75.900	-75.368	-68.957	112.664	-69.313	-8191	255	
1773.014	1	1	0	0	0.016224	0.023008	0.085352	0.097056	0.080841	0.061676	0.12517	0.070759	0.16042	0.06225	0.19721	0.32036	0.07039	0.17582	0.12159	0.014597	-1.7188	-2.6188	-2.4979	-2.4771	-2.8917	-2.325	-2.9188	-2.5854	-2.1979	-2.8083	-2.6292	-2.5667	-2.8667	-2.2854	-2.5708	-2.7167	-40.153	-72.495	-22.297	256.528	153.275	12.220	163.975	206.252	-94.134	24.345	-60.625	184.732	189.005	35.144	-96.663	-62.599	9.5654e-05	0.000118	4.6062e-05	1063	3.0137e-06	3.0197e-06	1157.7	228.52	2.9278e-06	2.3861e-06	286.5	80.558	60.256	18.812	3.3525e-06	26.232	9.1457e-05	8.2077e-05	2.2259e-05	1039.3	9.7373e-07	8.8411e-07	1127.6	223.84	9.7135e-07	8.9305e-07	281.75	79.587	59.525	18.755	9.4503e-07	26.147	-75.970	17.767	-8.816	-89.917	114.567	-0.812	-89.571	-82.375	60.701	44.728	-82.930	-75.900	-75.453	-68.456	51.544	-69.225	-8191	255	
1773.110	1	1	0	0	0.1649	0.087072	0.049961	0.17233	0.1965	0.19228	0.37703	0.031737	0.31312	0.1963	0.1166	0.047228	0.41211	0.25139	0.32019	0.045186	-1.7875	-2.6437	-2.4062	-2.4167	-2.8438	-2.2021	-2.675	-2.6542	-2.225	-2.75	-2.4458	-2.55	-2.8521	-2.5354	-2.3187	-2.9104	102.241	-30.900	-6.469	225.836	-51.564	254.947	194.950	-36.893	149.955	-90.096	-72.810	175.809	226.818	-54.092	114.382	97.789	0.00012489	0.00025837	6.5698e-05	1065.5	3.8495e-06	3.7954e-06	1160.8	229.19	1.4853e-06	3.8626e-06	287.14	80.561	60.432	18.823	3.3187e-06	26.258	9.4774e-05	8.2144e-05	2.2752e-05	1038.6	9.3589e-07	8.676e-07	1128.6	224.19	9.2008e-07	8.9968e-07	282.14	79.614	59.647	18.846	9.4582e-07	26.139	-70.826	-19.981	-43.663	-89.735	82.607	86.073	-89.627	-82.407	60.267	44.560	-82.956	-76.003	-75.059	-68.760	52.484	-68.852	-8191	255	
1773.206	1	1	0	0	0.16231	0.1238	0.23987	0.17889	0.24848	0.039065	0.23939	0.0065026	0.071359	0.3442	0.15893	0.082719	0.24643	0.29177	0.14627	0.19312	-1.7146	-2.6375	-2.5187	-2.4229	-2.7625	-2.5583	-2.5625	-2.8458	-2.25	-2.475	-2.675	-2.2083	-2.9	-2.425	-2.3063	-2.6937	96.162	-2.341	50.687	197.623	223.444	38.549	-44.246	141.223	77.434	10.019	182.921	251.933	139.605	-79.237	-50.665	100.694	9.2442e-05	0.00032992	4.0038e-05	1071.6	1.5308e-06	3.2048e-06	1156.2	228.79	3.3196e-07	2.1472e-06	289.73	80.158	60.126	18.916	3.8185e-06	26.325	9.1442e-05	8.2819e-05	2.2117e-05	1039.2	9.5576e-07	9.1924e-07	1130.3	224.06	9.4012e-07	8.9602e-07	281.87	79.431	59.646	18.794	9.239e-07	26.151	-85.036	-25.831	-61.472	-89.882	29.573	16.043	-89.938	-82.313	26.675	114.114	-82.683	-75.506	-75.408	-68.821	100.940	-68.954	-8191	255	
1773.302	1	1	0	0	0.29079	0.2368	0.24698	0.12736	0.061948	0.13925	0.31656	0.1587	0.15685	0.29595	0.067643	0.21011	0.087774	0.24792	0.12129	0.07274	-2.0208	-2.5938	-2.5833	-2.5292	-2.7479	-2.5583	-2.5604	-2.8479	-2.3854	-2.8	-2.7062	-2.475	-2.8271	-2.6479	-2.3812	-2.7083	119.122	96.810	72.264	210.104	137.729	63.246	192.416	184.573	143.316	4.783	256.213	251.059	237.074	80.852	-70.999	153.782	0.00011009	7.0522e-05	2.7775e-05	1067.9	2.4183e-06	3.7775e-06	1159.6	227.82	1.4836e-06	2.7687e-06	289.98	80.141	60.24	18.834	1.0111e-06	26.137	8.8821e-05	8.2004e-05	2.2575e-05	1039.2	9.3617e-07	8.6043e-07	1128.5	224.08	8.8221e-07	8.7625e-07	282.17	79.378	59.657	18.795	8.9317e-07	25.999	-73.666	-63.911	-39.119	-89.643	4.423	22.066	-89.801	-82.475	90.981	33.064	-82.921	-75.583	-75.634	-68.396	101.989	-69.238	-8191	255	
1773.423	1	1	0	0	0.15765	0.28939	0.31528	0.15009	0.20596	0.17565	0.35988	0.16511	0.22604	0.061598	0.11774	0.12066	0.27258	0.074862	0.18022	0.26065	-1.8583	-2.6354	-2.6437	-2.3771	-2.5729	-2.4667	-2.4271	-2.7917	-2.3896	-2.5208	-2.7812	-2.3812	-2.65	-2.7438	-2.2625	-2.7125	166.924	-88.688	-75.911	241.714	157.602	184.600	160.657	249.070	106.635	110.779	234.981	105.122	-54.535	154.131	254.984	184.229	0.00010438	0.00040906	6.4051e-05	1067.5	2.7204e-06	1.6588e-06	1159.5	228.09	1.2423e-06	2.4101e-06	288.96	80.125	60.444	18.854	8.925e-07	26.299	9.0641e-05	7.7231e-05	2.1064e-05	1038.5	9.319e-07	8.0725e-07	1128	223.9	8.6763e-07	8.3575e-07	282.41	79.539	59.566	18.785	8.4017e-07	26.16	-83.083	-30.537	-20.473	-89.808	20.545	102.009	-89.485	-82.409	105.354	58.598	-82.698	-75.841	-75.232	-68.392	44.899	-69.041	-8191	255	
1773.517	1	1	0	0	0.15142	0.13563	0.10537	0.21014	0.26787	0.043546	0.33175	0.11991	0.12743	0.12035	0.13312	0.00838	0.027619	0.14913	0.087289	0.11009	-1.8917	-2.3854	-2.7354	-2.5042	-2.5062	-2.5875	-2.3146	-2.9646	-2.3792	-2.4021	-2.8521	-2.4	-2.6437	-2.525	-2.3167	-2.6042	249.597	195.116	28.375	221.405	46.272	105.235	193.114	49.222	8.193	244.182	-65.607	92.650	61.907	226.745	35.735	86.897	8.9947e-05	0.00037059	7.3404e-05	1067.9	7.6551e-07	3.6562e-06	1158.6	227.93	1.4178e-06	1.5361e-06	287.7	80.587	60.27	19.011	3.8237e-06	26.357	8.4889e-05	7.4251e-05	2.0376e-05	1038.9	8.5852e-07	8.1864e-07	1128.6	223.9	8.6937e-07	8.3083e-07	282.09	79.621	59.571	18.839	8.4216e-07	26.21	-75.498	-48.961	-5.312	-90.160	45.067	3.180	-89.622	-82.461	77.446	23.659	-82.571	-75.759	-75.363	-68.635	66.665	-69.023	-8191	255	
1773.591	1	1	0	0	0.097635	0.22614	0.23761	0.14405	0.085092	0.053799	0.091444	0.38509	0.21224	0.152	0.11299	0.36597	0.34298	0.084048	0.17014	0.098176	-2.1021	-2.2708	-2.5083	-2.4271	-2.6312	-2.5979	-2.5979	-2.575	-2.4583	-2.2812	-2.9083	-2.3	-2.2771	-2.6188	-2.3208	-2.5083	157.035	208.584	-3.644	191.160	-98.307	220.195	222.472	177.190	16.595	92.872	23.163	215.276	256.907	-52.805	-61.417	-34.640	0.00011548	0.00041103	4.7748e-05	1068.1	3.1421e-06	3.0651e-06	1157.5	229.63	1.4536e-06	4.4641e-06	288.83	80.377	60.575	18.749	3.0247e-06	26.394	8.6584e-05	7.5217e-05	2.0383e-05	1040.2	8.6464e-07	8.1215e-07	1130.2	224.67	8.6133e-07	8.0952e-07	281.8	79.511	59.749	18.781	8.1461e-07	26.201	-70.059	-42.708	-25.023	-89.652	21.484	49.107	-89.719	-82.368	32.855	65.857	-83.291	-75.606	-75.410	-68.817	22.886	-69.154	-8191	255	
1773.687	1	1	0	0	0.066462	0.082003	0.077818	0.30543	0.32613	0.080368	0.19036	0.22697	0.14797	0.22698	0.14011	0.080722	0.39321	0.00604	0.16793	0.040947	-2.3312	-2.2708	-2.5271	-2.5938	-2.4167	-2.8	-2.5667	-2.5396	-2.5125	-2.1375	-2.7375	-2.4354	-2.3896	-2.8708	-2.0438	-2.6125	-26.689	123.560	191.385	230.947	77.658	34.280	185.767	160.882	133.825	233.353	205.126	143.311	241.288	242.892	-62.086	76.531	6.3233e-05	0.00042012	7.8048e-05	1070.1	2.228e-06	1.8267e-06	1159.6	229.56	1.7946e-06	1.9193e-06	289.41	80.338	60.419	19.064	5.9347e-06	26.42	8.5988e-05	7.5699e-05	2.0854e-05	1041.1	8.8946e-07	8.1693e-07	1129.7	225.01	8.4928e-07	8.9208e-07	282.46	79.6	59.652	18.891	9.2287e-07	26.25	-71.868	-28.324	-45.728	-89.849	83.177	41.536	-89.596	-82.402	47.400	47.045	-82.690	-75.511	-75.286	-68.522	76.072	-68.773	-8191	255	
1773.783	1	1	0	0	0.025349	0.23673	0.078035	0.11723	0.14834	0.12021	0.063337	0.078084	0.30751	0.10908	0.1364	0.37091	0.19225	0.3569	0.17139	0.24315	-2.15	-2.2021	-2.6229	-2.6	-2.3292	-2.6375	-2.5375	-2.5896	-2.5708	-2.4625	-2.8187	-2.5396	-2.4208	-2.7479	-2.4979	-2.6354	86.189	82.666	-69.777	41.068	-16.326	16.751	222.088	229.030	60.794	258.434	45.359	242.713	189.775	240.557	137.204	213.282	0.00010844	0.00010315	0.00013048	1065.3	5.7955e-07	1.3325e-06	1158.9	228.58	2.9137e-06	3.9854e-06	288.41	80.931	60.57	18.88	2.1412e-06	26.4	8.8327e-05	7.9885e-05	2.2593e-05	1038	9.2107e-07	8.5234e-07	1127	224.49	9.2768e-07	9.0236e-07	282.17	79.876	59.808	18.809	9.2588e-07	26.219	-73.481	2.838	-23.658	-89.922	72.508	65.905	-89.481	-82.123	66.848	79.119	-82.650	-75.548	-75.356	-68.861	47.127	-69.111	-8191	255	
1773.902	1	1	0	0	0.013965	0.12304	0.19039	0.14186	0.059795	0.14221	0.24633	0.29751	0.082628	0.238	0.27081	0.15743	0.22445	0.18024	0.10943	0.12726	-2.3063	-2.3375	-2.5708	-2.5792	-2.2875	-2.7583	-2.5458	-2.4188	-2.7396	-2.3187	-2.5896	-2.7979	-2.3396	-2.6375	-2.4	-2.4271	127.493	14.291	-32.668	222.658	19.173	37.641	206.611	155.003	37.581	126.792	219.280	93.974	85.903	55.800	115.156	25.839	0.00013387	0.00026943	7.0007e-05	1069.6	3.0673e-07	4.0387e-06	1155.7	228.8	1.2971e-06	2.1499e-06	287.77	80.109	60.405	18.844	5.0471e-06	26.302	9.0497e-05	8.3494e-05	2.298e-05	1039	9.2398e-07	9.0603e-07	1128.3	224.59	9.5076e-07	9.2059e-07	282.12	79.442	59.675	18.83	9.4508e-07	26.197	-75.078	-43.239	-13.370	-89.764	110.619	28.680	-89.498	-82.254	36.063	143.312	-82.744	-75.465	-75.661	-68.422	28.941	-69.432	-8191	255	
1773.998	1	1	0	0	0.23501	0.23679	0.47516	0.217	0.058878	0.15437	0.10872	0.31109	0.15182	0.16535	0.11431	0.098158	0.19474	0.14526	0.26941	0.069762	-2.2625	-2.1271	-2.5271	-2.9208	-2.2167	-2.7375	-2.6417	-2.45	-2.7146	-2.2354	-2.5729	-2.6417	-2.4313	-2.5938	-2.4313	-2.3083	-70.124	203.320	80.922	-69.455	114.629	170.283	187.700	193.974	-72.560	110.183	216.927	131.136	-77.066	148.631	250.370	72.765	0.00010951	0.00030276	5.4677e-05	1061.7	4.1426e-06	1.8997e-06	1158.2	228.71	1.7964e-06	1.0337e-06	288.28	80.94	60.923	18.829	2.512e-06	26.483	9.1533e-05	8.4014e-05	2.3312e-05	1038.4	9.5745e-07	9.2038e-07	1129.9	224.33	9.3787e-07	8.642e-07	282.2	79.773	59.908	18.848	9.1151e-07	26.204	-78.976	-37.471	-44.627	-89.727	77.697	12.598	-89.634	-82.392	42.094	27.973	-82.375	-75.732	-75.631	-68.578	55.344	-69.043	-8191	255	
1774.094	1	1	0	0	0.042246	0.17411	0.11048	0.13884	0.08059	0.18177	0.21627	0.18027	0.19705	0.18905	0.079398	0.10285	0.14763	0.1484	0.18784	0.10074	-2.2771	-2.2562	-2.55	-2.8583	-2.2646	-2.6479	-2.7542	-2.4917	-2.7729	-2.4208	-2.5417	-2.8563	-2.2896	-2.6458	-2.5146	-2.3937	-3.488	-37.828	200.870	-41.763	28.213	3.251	191.448	187.758	-77.488	-86.040	215.023	-26.746	-37.564	190.028	131.614	-30.363	9.7614e-05	0.00012576	6.2283e-05	1066.4	2.2559e-06	2.9521e-06	1155.6	228.47	3.1245e-06	1.6773e-06	288.03	80.572	60.579	18.938	3.5362e-06	26.341	9.1303e-05	8.2206e-05	2.2977e-05	1038.5	9.4835e-07	8.9282e-07	1128.6	224.54	9.543e-07	8.9191e-07	281.68	79.647	59.691	18.896	9.0924e-07	26.143	-72.450	-63.803	-47.721	-89.976	73.725	26.009	-89.653	-82.301	41.100	64.318	-82.807	-75.950	-75.581	-68.643	46.698	-69.250	-8191	255	
1774.190	1	1	0	0	0.23772	0.26634	0.23876	0.14793	0.23488	0.28295	0.17493	0.32389	0.16928	0.14377	0.088224	0.096148	0.082756	0.13261	0.29204	0.12652	-2.3833	-2.4479	-2.3354	-2.9021	-2.3667	-2.5875	-2.6729	-2.3896	-2.6937	-2.4417	-2.3417	-2.8688	-2.3583	-2.4854	-2.7417	-2.3083	144.982	-49.106	-71.786	216.697	193.234	100.646	175.578	233.439	136.857	125.704	257.526	254.850	131.843	184.262	250.304	186.160	0.00011963	0.00028255	9.3719e-05	1060.8	3.3978e-06	1.0866e-06	1161.1	229.52	5.8627e-07	3.1148e-06	289.63	80.195	60.784	18.844	3.4892e-06	26.592	9.0362e-05	8.1277e-05	2.1884e-05	1037.7	9.4257e-07	9.1355e-07	1129.4	224.59	9.2926e-07	8.7322e-07	282.3	79.685	59.604	18.851	9.0282e-07	26.24	-77.914	-25.447	-4.425	-89.981	77.578	48.498	-89.623	-82.454	45.414	56.379	-82.962	-75.567	-75.504	-68.588	64.665	-68.868	-8191	255	
1774.287	1	1	0	0	0.24805	0.019607	0.2872	0.14715	0.22912	0.14826	0.39889	0.14334	0.06487	0.014778	0.15131	0.1626	0.1081	0.040045	0.082515	0.25639	-2.125	-2.4688	-2.1	-2.8583	-2.2417	-2.5771	-2.7896	-2.2292	-2.65	-2.5292	-2.45	-2.7521	-2.3521	-2.7292	-2.5875	-2.2812	2.844	-43.095	50.669	185.689	123.161	139.648	202.365	213.556	73.470	-69.758	-48.164	7.518	19.690	247.449	229.599	223.669	0.0001017	0.00026669	7.1017e-05	1067.7	1.6602e-06	1.7399e-06	1162.9	228.05	2.6004e-06	2.5467e-06	289.39	80.622	60.116	18.759	2.0201e-06	26.236	9.0919e-05	8.0602e-05	2.1987e-05	1038.5	9.3504e-07	8.5166e-07	1130.8	224.05	9.1389e-07	8.9528e-07	282.23	79.775	59.51	18.791	9.0958e-07	26.163	-80.341	-52.571	-10.393	-89.780	9.549	85.478	-89.545	-82.581	30.595	44.321	-82.972	-75.802	-75.689	-68.677	36.935	-69.090	-8191	255	
1774.383	1	1	0	0	0.12846	0.069659	0.28463	0.32172	0.26156	0.16325	0.16076	0.21659	0.16127	0.33382	0.12353	0.26005	0.070172	0.085848	0.25295	0.26427	-2.1646	-2.4396	-2.2021	-2.7625	-2.4667	-2.2	-2.8187	-2.1167	-2.4083	-2.4958	-2.3708	-2.6813	-2.2521	-2.5667	-2.6854	-2.1583	-96.695	239.475	170.787	217.403	154.612	-60.661	190.834	220.247	105.666	-25.963	177.560	-83.565	157.612	109.738	146.810	44.712	8.1636e-05	0.00050334	2.1044e-05	1067.4	1.9946e-06	2.0216e-06	1155.9	228.62	9.0813e-07	2.6543e-06	289.2	80.057	60.435	18.924	2.2115e-06	26.323	9.3391e-05	8.1713e-05	2.2674e-05	1038.5	9.5492e-07	8.705e-07	1128.1	224.39	9.0961e-07	8.9996e-07	282.34	79.535	59.642	18.788	8.834e-07	26.195	-73.978	-52.366	-1.769	-89.763	103.882	52.184	-89.567	-82.494	-33.215	16.968	-82.917	-75.501	-75.602	-68.702	50.194	-68.505	-8191	255	
1774.503	1	1	0	0	0.27062	0.2487	0.053828	0.1017	0.098692	0.28111	0.13412	0.18163	0.29439	0.0941	0.17325	0.17235	0.11623	0.22023	0.151	0.23794	-1.9104	-2.4896	-2.1375	-2.6625	-2.425	-2.3854	-2.9229	-2.3187	-2.4583	-2.4896	-2.2313	-2.6333	-2.4583	-2.3917	-2.8375	-2.35	120.622	25.083	169.931	220.499	-29.248	101.273	256.765	-1.692	246.445	217.561	165.486	-64.101	9.414	-60.982	5.634	8.861	0.0001031	0.00036048	4.7836e-05	1066.4	2.2848e-06	3.2094e-06	1161.4	228.59	2.3707e-07	3.8936e-06	289.9	80.275	59.86	18.897	2.7769e-06	26.408	8.6267e-05	7.7886e-05	2.2914e-05	1037.3	9.0276e-07	8.4995e-07	1127.5	224.33	9.4575e-07	8.7357e-07	282.86	79.809	59.543	18.784	8.6323e-07	26.209	-59.603	-22.576	31.363	-89.851	32.584	54.022	-89.561	-82.113	219.377	60.355	-82.922	-75.613	-75.462	-68.239	95.818	-69.077	-8191	255	
1774.598	1	1	0	0	0.11767	0.045191	0.15854	0.2265	0.35889	0.20982	0.19301	0.14378	0.24698	0.047241	0.11888	0.13196	0.17985	0.14717	0.17053	0.065498	-1.9229	-2.5646	-2.2542	-2.7604	-2.2562	-2.2208	-2.85	-2.5229	-2.6562	-2.5812	-2.3333	-2.6813	-2.6	-2.3479	-2.7125	-2.3667	-50.354	218.455	198.150	113.664	16.021	18.753	187.451	-49.838	-45.137	151.972	222.172	123.502	48.866	-50.661	117.349	152.210	7.038e-05	0.0004285	0.00012246	1067.6	2.1361e-06	2.81e-06	1162.8	228.2	2.228e-06	2.2618e-06	288.57	80.74	60.25	18.893	2.1378e-06	26.358	9.2009e-05	8.2793e-05	2.3109e-05	1038.3	9.3589e-07	8.7603e-07	1130	224.4	8.9881e-07	8.9322e-07	282.54	79.62	59.663	18.798	8.9322e-07	26.175	-66.429	-44.876	-20.604	-89.850	1.892	52.663	-89.707	-82.327	58.893	10.322	-82.887	-75.558	-75.480	-68.847	85.494	-69.363	-8191	255	
1774.696	1	1	0	0	0.33855	0.1658	0.07422	0.056234	0.25172	0.25362	0.043115	0.21182	0.11916	0.12316	0.14733	0.15496	0.20693	0.12095	0.1598	0.16161	-1.975	-2.6979	-2.4	-2.8063	-2.7542	-2.4104	-2.7083	-2.4729	-2.4708	-2.725	-2.4604	-2.6708	-2.5417	-2.1792	-2.7667	-2.3146	-47.287	97.779	209.053	122.553	97.827	56.295	107.891	126.094	132.422	78.861	238.638	-24.401	-69.468	248.452	-49.770	215.898	9.2339e-05	0.00032625	0.00011894	1064.4	4.154e-06	2.8451e-06	1153	228.54	7.6245e-07	2.4165e-06	288.2	81.186	60.494	18.979	4.9353e-06	26.398	8.9239e-05	7.9366e-05	2.1932e-05	1038.8	9.1371e-07	8.7227e-07	1126.6	224.52	9.1102e-07	8.3643e-07	282.2	79.845	59.775	18.811	9.0237e-07	26.161	-58.748	-29.106	3.909	-89.721	13.169	67.500	-89.614	-82.322	101.586	15.612	-82.735	-75.671	-75.442	-68.682	55.799	-68.951	-8191	255	
1774.790	1	1	0	0	0.28099	0.079192	0.086164	0.39809	0.2253	0.1703	0.15294	0.46896	0.084572	0.13768	0.25125	0.031448	0.26016	0.26073	0.18687	0.098013	-1.8521	-2.7208	-2.3	-2.4854	-2.8312	-2.1667	-2.8208	-2.6146	-2.2375	-2.8771	-2.5021	-2.6	-2.6896	-2.2667	-2.7375	-2.6792	127.422	127.322	254.578	206.901	259.436	195.330	90.351	182.923	-83.328	-93.614	-80.692	223.658	160.273	218.744	45.287	225.013	9.1651e-05	0.00038164	5.9571e-05	1068.7	2.5139e-06	1.9295e-06	1156.6	228.01	2.7674e-06	1.457e-06	287.45	80.022	60.81	19.029	1.292e-06	26.131	9.1942e-05	8.1781e-05	2.2156e-05	1037.8	9.1568e-07	8.6999e-07	1128.4	224.19	9.1946e-07	8.7117e-07	282.19	79.505	59.798	18.838	9.1021e-07	26.115	-92.953	-33.907	-32.487	-89.843	33.050	27.782	-89.512	-82.126	43.477	91.618	-82.511	-75.868	-75.317	-68.801	-22.117	-69.356	-8191	255	
1774.886	1	1	0	0	0.12236	0.2101	0.25048	0.086065	0.14382	0.32119	0.12612	0.066504	0.36301	0.17462	0.2478	0.11739	0.49719	0.038382	0.15101	0.081813	-1.8833	-2.5417	-2.3417	-2.4646	-2.725	-2.1604	-2.6208	-2.5896	-2.4771	-2.7771	-2.3417	-2.3563	-2.5146	-2.2667	-2.8083	-2.6583	-48.352	200.164	139.957	-11.627	147.482	53.939	238.783	165.033	49.197	-61.333	258.540	152.169	-90.105	238.010	247.465	-65.019	0.00010783	0.00019089	4.6912e-05	1064.8	4.1117e-06	2.1267e-06	1154.6	229.29	2.1444e-06	2.3005e-06	287.74	79.954	60.484	18.938	1.8221e-06	26.553	8.9104e-05	8.1038e-05	2.2218e-05	1037.2	9.3813e-07	8.7449e-07	1127.4	224.35	9.1012e-07	8.5671e-07	282.35	79.372	59.567	18.817	8.9873e-07	26.17	-66.221	11.899	-2.199	-89.780	74.587	20.567	-89.558	-82.439	15.649	60.639	-82.576	-75.684	-75.564	-68.596	49.903	-69.069	-8191	255	
1774.982	1	1	0	0	0.041734	0.20409	0.19222	0.22056	0.048759	0.072583	0.20178	0.20087	0.087709	0.085042	0.31212	0.046173	0.36881	0.37589	0.12638	0.14106	-1.7271	-2.7042	-2.4667	-2.4083	-2.6396	-2.3937	-2.9	-2.6063	-2.0687	-2.6792	-2.5021	-2.275	-2.7167	-2.3417	-2.475	-2.8354	83.548	60.936	-9.927	180.641	10.966	243.456	217.600	-83.044	-2.015	134.588	193.928	-49.324	-91.205	237.257	100.908	230.865	0.00012131	0.00026925	4.7205e-05	1061.4	1.7578e-06	2.5353e-06	1161.3	229.52	1.5337e-06	2.6992e-06	288.29	80.268	60.234	18.96	2.332e-06	26.353	8.8442e-05	7.9085e-05	2.2663e-05	1037.2	9.0877e-07	8.6185e-07	1127.5	224.72	9.5616e-07	8.5546e-07	282.31	79.638	59.555	18.832	9.4003e-07	26.262	-85.804	-60.292	-9.419	-89.747	67.250	73.941	-89.423	-82.416	84.386	75.976	-82.799	-75.890	-75.417	-68.545	63.394	-69.092	-8191	255	
1775.078	1	1	0	0	0.084272	0.036056	0.21419	0.19008	0.066168	0.12664	0.17471	0.3645	0.050076	0.097011	0.084569	0.11154	0.12596	0.20075	0.16888	0.14635	-1.8917	-2.6604	-2.4125	-2.5458	-2.925	-2.3396	-2.6188	-2.8146	-2.2479	-2.5625	-2.5687	-2.3063	-2.7812	-2.3521	-2.4646	-2.8312	-21.816	62.588	28.286	202.888	221.136	161.953	170.917	203.709	-41.112	216.028	124.834	151.289	-89.182	-62.441	81.490	27.347	0.00010083	0.00032951	9.0201e-05	1064.4	2.0426e-06	3.0129e-06	1153.6	229.24	1.7201e-06	2.1532e-06	289.42	79.998	60.729	18.992	1.1999e-06	26.192	9.2441e-05	8.0332e-05	2.2948e-05	1038	9.3926e-07	8.8081e-07	1126.4	224.55	9.5132e-07	9.1996e-07	282.41	79.444	59.721	18.851	9.2378e-07	26.046	-75.536	-16.651	-28.411	-89.954	48.005	42.455	-89.600	-82.522	49.065	84.435	-82.902	-75.652	-75.190	-68.840	173.943	-69.116	-8191	255	
1775.199	1	1	0	0	0.082043	0.28263	0.16737	0.21085	0.048151	0.095524	0.12054	0.32424	0.10564	0.20964	0.1986	0.35106	0.22279	0.096072	0.14072	0.081948	-1.9	-2.6792	-2.4667	-2.4708	-2.8063	-2.4979	-2.7021	-2.8958	-2.3937	-2.5938	-2.6437	-2.4813	-2.8021	-2.3354	-2.6333	-2.6104	34.849	20.569	29.041	-55.897	97.258	-81.309	214.844	219.135	45.908	127.593	134.388	253.397	182.305	-73.030	19.128	240.869	0.00011439	0.00030596	8.429e-05	1063.3	3.4188e-06	1.7697e-06	1156.4	228.22	1.4892e-06	3.7381e-06	289.9	80.503	60.212	18.913	1.5723e-06	26.209	9.1351e-05	8.0243e-05	2.2827e-05	1037.2	9.4021e-07	8.9772e-07	1128	224.33	9.4169e-07	8.9128e-07	282.63	79.554	59.649	18.82	8.709e-07	26.194	-85.512	-59.344	14.304	-89.858	55.181	37.965	-89.458	-82.397	4.811	71.776	-82.732	-75.707	-75.398	-68.683	78.253	-68.857	-8191	255	
1775.293	1	1	0	0	0.1568	0.38873	0.14149	0.19371	0.16569	0.22595	0.31328	0.20849	0.18845	0.19067	0.26861	0.1333	0.24957	0.26301	0.14499	0.44725	-2.0083	-2.4146	-2.6917	-2.3417	-2.6125	-2.4771	-2.5583	-2.7917	-2.4688	-2.6292	-2.7896	-2.2167	-2.6708	-2.3937	-2.1708	-2.6188	232.535	120.614	75.860	208.642	184.761	125.371	197.386	-93.169	-6.276	-88.892	190.737	-27.963	214.892	193.624	-41.270	172.142	0.00012849	0.00033524	4.9817e-05	1064.7	8.8265e-07	2.5371e-06	1155.9	228.85	1.3116e-06	3.5675e-06	289.98	80.692	60.28	18.874	1.907e-06	26.383	9.077e-05	7.9589e-05	2.2019e-05	1038.4	9.1736e-07	8.6373e-07	1126.7	224.73	8.947e-07	8.682e-07	282.34	79.74	59.529	18.818	9.3827e-07	26.13	-74.857	11.794	-10.772	-89.715	39.324	42.748	-89.618	-82.220	110.900	31.599	-82.885	-75.773	-75.204	-68.932	106.915	-69.350	-8191	255	
1775.390	1	1	0	0	0.10968	0.22339	0.083421	0.11044	0.045539	0.07478	0.26832	0.24899	0.16098	0.3011	0.12013	0.2232	0.31055	0.19412	0.15501	0.13881	-1.8479	-2.5708	-2.7229	-2.2854	-2.8771	-2.7687	-2.6604	-2.9938	-2.575	-2.5354	-2.9667	-2.2438	-2.6875	-2.6312	-2.2583	-2.7521	172.017	233.258	181.881	154.188	199.353	78.088	245.875	132.081	17.310	252.871	-60.806	142.937	222.370	245.324	79.337	227.832	0.00010812	0.00029203	9.2277e-05	1067.4	1.5744e-06	3.8303e-06	1162	227.54	1.97e-06	2.8959e-06	287.95	79.767	60.302	19.038	1.0221e-06	26.232	9.2729e-05	8.0882e-05	2.2393e-05	1039.4	8.7441e-07	8.8969e-07	1129.3	224.76	9.1406e-07	9.0516e-07	282.57	79.494	59.741	18.859	8.7687e-07	26.159	-54.181	0.127	-46.142	-89.948	21.490	42.675	-89.650	-82.262	53.005	26.709	-82.834	-75.955	-75.496	-68.629	23.283	-69.282	-8191	255	
1775.486	1	1	0	0	0.09313	0.13344	0.19043	0.36549	0.23255	0.27832	0.28806	0.15832	0.13532	0.013154	0.28316	0.14813	0.19008	0.29901	0.11956	0.18007	-1.7854	-2.35	-2.7479	-2.5021	-2.5708	-2.6208	-2.1958	-2.8104	-2.4313	-2.5687	-2.7792	-2.3229	-2.6104	-2.5833	-2.3771	-2.7396	32.006	169.762	122.754	176.764	15.721	-93.307	218.130	236.039	26.149	196.530	-81.132	30.659	-69.063	141.674	162.293	104.357	0.00011849	0.00022837	7.5543e-05	1064.7	2.9131e-06	4.1245e-06	1149.3	228.7	5.8438e-07	2.103e-06	289.5	79.612	60.527	18.898	3.6765e-06	26.486	8.8989e-05	7.9096e-05	2.2535e-05	1037	9.4515e-07	8.5433e-07	1126	224.3	8.8564e-07	8.7517e-07	282.37	79.405	59.617	18.819	9.1532e-07	26.247	-76.253	-48.822	-10.787	-89.888	96.268	54.956	-89.511	-82.432	111.310	32.111	-83.075	-75.538	-75.465	-68.675	25.806	-69.164	-8191	255	
1775.582	1	1	0	0	0.1418	0.052378	0.3031	0.33015	0.30578	0.16176	0.24185	0.44515	0.20215	0.15729	0.15093	0.17228	0.12227	0.42345	0.1933	0.18312	-2.175	-2.2229	-2.8771	-2.4958	-2.5062	-2.6354	-2.4646	-2.8354	-2.5396	-2.1521	-2.9083	-2.2875	-2.3688	-2.6813	-2.0917	-2.6521	169.910	-9.121	-11.875	233.895	184.758	-82.002	174.296	-59.014	-2.893	89.640	-19.886	182.034	119.003	-28.914	170.792	146.619	7.3151e-05	0.00021676	6.2266e-05	1066.5	2.2241e-06	1.5791e-06	1155.9	227.02	2.0187e-06	7.4217e-07	290.04	80.389	60.596	18.981	3.1549e-06	26.253	9.0405e-05	8.1656e-05	2.1776e-05	1039.2	9.584e-07	8.7124e-07	1127.8	223.98	9.1519e-07	8.6163e-07	282.99	79.789	59.624	18.842	9.2674e-07	26.194	-99.641	-24.069	-34.694	-89.782	226.646	46.970	-89.728	-82.656	41.627	258.588	-82.704	-76.004	-75.621	-68.616	86.082	-69.186	-8191	255	
1775.678	1	1	0	0	0.20584	0.1216	0.10079	0.12881	0.10693	0.43688	0.23464	0.20388	0.045605	0.25024	0.24484	0.1634	0.23258	0.23879	0.16944	0.12185	-2.1354	-2.1667	-2.7667	-2.45	-2.5125	-2.9729	-2.4167	-2.5917	-2.6958	-2.4604	-2.8729	-2.5563	-2.3875	-2.825	-2.3896	-2.625	50.344	9.851	212.605	172.459	48.970	10.739	151.418	216.363	61.869	84.339	244.511	209.616	-45.633	-89.882	-47.104	-73.710	0.00012414	0.00037466	3.6772e-05	1066.3	3.552e-06	3.2922e-06	1149.3	229.19	2.5417e-06	1.3379e-06	289.31	80.227	60.491	18.888	3.3858e-06	26.4	9.0516e-05	8.0119e-05	2.2097e-05	1037.6	9.4756e-07	8.6287e-07	1126.8	225.02	9.1772e-07	8.8459e-07	281.97	79.483	59.774	18.818	8.801e-07	26.216	-71.713	-50.440	-33.907	-89.821	80.982	26.408	-89.796	-82.296	19.562	49.279	-82.528	-75.564	-75.570	-68.613	60.502	-69.333	-8191	255	
1775.774	1	1	0	0	0.21229	0.10945	0.11361	0.20225	0.14882	0.090078	0.12532	0.21446	0.19952	0.14978	0.18148	0.080056	0.38487	0.12568	0.085626	0.10142	-2.1875	-2.0417	-2.6875	-2.6167	-2.3354	-2.7708	-2.375	-2.7812	-2.675	-2.2062	-2.8042	-2.4833	-2.4938	-2.8583	-2.3583	-2.5167	-77.244	222.320	158.328	-32.672	250.568	5.917	103.248	197.793	238.088	130.275	199.856	-82.778	23.921	2.947	114.763	98.010	0.00010649	0.00032123	3.4389e-05	1065.9	1.3433e-06	3.7291e-06	1151.8	230.54	1.5298e-06	1.8746e-06	287.87	80.153	60.506	18.911	3.0785e-06	26.564	9.0002e-05	7.8919e-05	2.1994e-05	1037.3	9.0338e-07	8.7648e-07	1126.3	224.88	9.1198e-07	8.9922e-07	282.41	79.539	59.663	18.842	8.9839e-07	26.088	-76.083	17.784	8.826	-89.879	-27.916	33.624	-89.445	-82.202	80.348	66.119	-82.701	-75.656	-75.276	-68.831	57.622	-69.083	-8191	255	
1775.895	1	1	0	0	0.17039	0.25084	0.089483	0.16164	0.2246	0.15727	0.23782	0.20961	0.29919	0.090247	0.11178	0.29954	0.19739	0.38287	0.12692	0.11349	-2.1688	-2.1458	-2.7292	-2.5417	-2.2875	-2.8833	-2.5229	-2.65	-2.5896	-2.2479	-2.6063	-2.7354	-2.4208	-2.9021	-2.4604	-2.6646	114.113	-51.406	55.025	180.032	98.090	134.839	161.148	191.183	179.478	-68.084	-21.876	243.508	231.960	251.556	33.910	-25.621	9.0582e-05	0.00044234	8.9477e-05	1066.7	1.8988e-06	2.1494e-06	1153.8	228.4	7.2482e-07	1.993e-06	288.54	80.01	60.562	19.033	4.6227e-06	26.333	9.0602e-05	8.0249e-05	2.222e-05	1038	9.1949e-07	8.5542e-07	1127	224.73	9.2543e-07	8.9202e-07	282.18	79.471	59.789	18.869	9.0044e-07	26.194	-81.192	-19.393	-12.659	-89.979	-17.691	0.255	-89.699	-82.256	-30.150	19.156	-82.902	-75.736	-75.449	-68.605	41.463	-68.754	-8191	255	
1775.989	1	1	0	0	0.20183	0.2808	0.21537	0.15857	0.024461	0.111	0.074578	0.045618	0.15942	0.3224	0.093968	0.028877	0.058535	0.24283	0.20574	0.31318	-2.3042	-2.2854	-2.5687	-2.8083	-2.1958	-2.7042	-2.5396	-2.7604	-2.6188	-2.3771	-2.6104	-2.6708	-2.2354	-2.7062	-2.4521	-2.4542	15.381	-92.285	-93.140	189.197	94.632	221.878	166.768	-88.722	21.172	106.342	128.491	-69.491	49.250	181.818	194.724	-25.854	7.5426e-05	0.00037996	9.7767e-05	1064.9	2.8807e-06	2.0953e-06	1156.3	230.1	1.7184e-06	9.2738e-07	288.4	80.233	60.559	19.026	4.2862e-06	26.235	8.9637e-05	8.4102e-05	2.2931e-05	1036.8	9.1427e-07	8.5991e-07	1125.7	224.48	8.9369e-07	8.9882e-07	282.36	79.572	59.697	18.854	8.8289e-07	26.101	-74.324	-20.194	-7.070	-89.986	27.145	-12.452	-89.763	-82.632	139.095	-2.406	-82.854	-75.712	-74.918	-68.585	49.750	-68.740	-8191	255	
1776.087	1	1	0	0	0.11549	0.26212	0.085381	0.21508	0.30031	0.13598	0.20902	0.25742	0.12912	0.1391	0.20983	0.091587	0.16406	0.27444	0.080048	0.10773	-2.2271	-2.3375	-2.5458	-2.6771	-2.2958	-2.6896	-2.5875	-2.5187	-2.8354	-2.2625	-2.475	-2.775	-2.1479	-2.7104	-2.6562	-2.4167	-89.785	105.495	-48.871	-61.993	252.722	-93.113	221.779	259.269	14.445	236.610	114.348	134.846	143.362	223.613	5.341	174.796	0.00011066	0.00037344	5.696e-05	1060.3	3.2129e-06	3.255e-06	1156.7	229.07	1.8933e-06	3.1671e-06	289.49	80.013	60.32	18.901	2.8057e-06	26.164	9.0136e-05	8.11e-05	2.2286e-05	1034.6	9.3241e-07	8.6828e-07	1127.1	224.54	8.8485e-07	8.682e-07	282.65	79.654	59.752	18.843	8.6784e-07	26.095	-73.746	-31.187	-33.753	-89.799	55.794	66.069	-89.701	-82.328	12.656	70.275	-82.890	-76.128	-75.401	-68.596	43.143	-69.069	-8191	255	
1776.183	1	1	0	0	0.15145	0.10588	0.31118	0.34185	0.037759	0.26713	0.19991	0.20963	0.083116	0.090726	0.043189	0.10637	0.32449	0.056552	0.18074	0.16778	-2.3146	-2.4729	-2.3937	-2.8667	-2.2833	-2.6813	-2.6562	-2.2167	-2.7938	-2.6813	-2.3792	-2.7354	-2.2875	-2.6458	-2.7021	-2.3958	-18.668	1.139	168.430	173.924	-35.070	-77.545	194.041	-86.414	145.562	199.046	136.465	70.219	165.252	51.594	60.917	239.213	0.00011262	0.00029424	4.8497e-05	1067.6	2.1923e-06	2.4324e-06	1155.9	229.86	1.4191e-06	4.7084e-06	289.29	80.065	60.525	18.877	3.7612e-06	26.569	8.9868e-05	7.5326e-05	2.1684e-05	1037.9	9.3162e-07	8.5832e-07	1124.3	224.77	8.4061e-07	8.0404e-07	282.17	79.484	59.719	18.82	8.4398e-07	26.139	-67.603	-7.823	-30.838	-89.707	98.052	33.366	-89.591	-82.414	13.619	53.466	-83.010	-75.743	-75.045	-68.589	43.872	-68.940	-8191	255	
1776.278	1	1	0	0	0.040567	0.10061	0.19496	0.45135	0.21322	0.12572	0.15239	0.18423	0.14496	0.24987	0.43521	0.20846	0.2529	0.26349	0.37533	0.17624	-2.2833	-2.5062	-2.5146	-2.9313	-2.3542	-2.5521	-2.7313	-2.2646	-2.6583	-2.5583	-2.3479	-3.0062	-2.4167	-2.5521	-2.5917	-2.1813	58.699	2.454	114.541	218.167	134.454	57.028	210.543	255.491	-3.251	163.657	195.927	-38.988	179.409	-51.967	93.325	-99.094	0.00011398	0.00033564	4.5835e-05	1068	3.7185e-07	3.8594e-06	1152.5	229.07	2.3454e-06	5.0215e-06	289	80.239	60.122	18.9	3.1315e-06	26.295	8.8202e-05	7.6286e-05	2.0905e-05	1036.1	8.6133e-07	8.0571e-07	1125.5	224.62	8.5592e-07	8.0844e-07	281.88	79.53	59.481	18.853	8.4108e-07	26.163	-94.895	12.815	12.508	-89.804	200.057	57.051	-89.440	-82.372	118.702	63.239	-83.029	-75.835	-75.264	-68.717	70.875	-69.370	-8191	255	
1776.374	1	1	0	0	0.43016	0.066612	0.22283	0.32553	0.092226	0.34009	0.25885	0.33937	0.11796	0.14854	0.27301	0.24389	0.37468	0.16159	0.21536	0.24053	-2.3292	-2.5854	-2.2958	-2.8063	-2.4042	-2.6417	-2.8812	-2.3021	-2.4396	-2.4813	-2.4292	-2.7958	-2.4	-2.5312	-2.8979	-2.2854	-44.680	-30.201	8.628	219.175	84.131	130.507	163.219	-36.507	98.614	166.039	-77.027	-98.762	109.376	-80.190	10.363	-96.999	9.2264e-05	0.00020109	7.3339e-05	1061.5	1.6686e-06	2.9115e-06	1156.3	228.72	8.7418e-07	3.2011e-06	289.32	79.441	60.564	19.037	3.8027e-06	26.429	8.4452e-05	7.5274e-05	2.087e-05	1033.8	8.725e-07	7.9171e-07	1125	224.56	8.405e-07	8.0958e-07	282.26	79.354	59.592	18.864	7.9195e-07	26.181	-75.152	-8.096	-0.335	-89.649	106.081	51.973	-89.589	-82.367	77.472	25.248	-82.903	-75.470	-75.070	-68.525	47.195	-69.243	-8191	255	
1776.494	1	1	0	0	0.38651	0.17692	0.12957	0.33026	0.26678	0.049305	0.43165	0.12265	0.18401	0.14733	0.27949	0.34148	0.08706	0.23153	0.10229	0.2758	-2.2875	-2.5979	-2.5292	-2.9042	-2.2958	-2.4458	-2.8208	-2.4313	-2.5563	-2.775	-2.4083	-2.75	-2.4271	-2.2229	-2.8792	-2.2521	57.245	249.810	-24.909	210.184	-71.708	108.510	188.382	244.953	47.603	103.670	192.437	205.631	-73.296	-62.064	68.888	143.326	8.6192e-05	0.00028841	6.3266e-05	1059.9	1.1876e-06	2.9536e-06	1157.3	228.87	1.5628e-06	3.969e-06	287.59	79.945	60.422	18.947	2.9733e-06	26.308	8.3636e-05	7.074e-05	2.0328e-05	1034.1	8.4628e-07	7.7087e-07	1123.1	224.77	7.9716e-07	7.9078e-07	282.3	79.368	59.527	18.804	8.2081e-07	26.149	-72.211	-44.186	-1.748	-89.720	162.247	79.064	-89.805	-82.207	80.860	60.984	-82.765	-75.590	-75.414	-68.312	62.864	-68.982	-8191	255	
1776.591	1	1	0	0	0.15511	0.16158	0.099321	0.27167	0.15366	0.18493	0.14799	0.38467	0.028451	0.30341	0.035309	0.25668	0.067911	0.0031793	0.097842	0.053445	-2.3333	-2.65	-2.2292	-3.0917	-2.4875	-2.3875	-2.7771	-2.1875	-2.4354	-2.6958	-2.4521	-2.7208	-2.4854	-2.4521	-2.7729	-2.4896	157.156	-80.146	-69.463	211.844	235.663	249.601	156.176	134.216	214.772	94.918	244.222	165.927	216.467	256.001	235.553	46.717	9.1458e-05	0.0003249	0.00012849	1057.8	2.7644e-06	3.0634e-06	1151	227.69	1.733e-06	5.192e-06	288.02	80.535	60.096	18.797	1.6352e-06	26.266	7.9642e-05	7.0309e-05	1.9654e-05	1029.7	8.0474e-07	7.4013e-07	1119.8	224.05	8.2092e-07	7.8095e-07	281.86	79.397	59.387	18.801	7.907e-07	26.089	-67.620	-8.819	3.562	-89.917	39.676	15.567	-89.579	-82.231	93.419	71.810	-82.558	-75.355	-75.606	-68.135	47.434	-68.755	-8191	255	
1776.687	1	1	0	0	0.15372	0.40387	0.079947	0.16397	0.26117	0.24494	0.11822	0.020748	0.011623	0.05825	0.10447	0.082669	0.061336	0.05276	0.23078	0.33659	-2.0542	-2.7625	-2.2646	-2.8396	-2.4271	-2.2375	-2.9104	-2.4688	-2.3812	-2.6146	-2.3312	-2.5875	-2.7542	-2.5062	-2.7854	-2.5021	4.106	134.036	-62.316	194.176	64.894	158.822	145.308	115.580	246.348	235.554	186.194	-77.540	-64.294	57.507	-24.969	151.011	0.00011497	0.00049355	0.00010483	1055.7	2.7894e-06	2.307e-06	1144.8	227.6	3.8692e-07	1.6362e-06	288.55	79.551	59.69	18.825	2.4215e-06	26.363	8.0218e-05	6.8767e-05	1.9949e-05	1028.3	7.9003e-07	7.6074e-07	1116.2	223.27	7.7758e-07	7.2748e-07	281.75	79.253	59.401	18.773	7.7082e-07	26.054	-75.894	-55.625	-20.206	-89.743	65.371	74.352	-89.705	-82.319	55.279	39.088	-82.859	-75.675	-75.200	-68.646	68.646	-69.047	-8191	255	
1776.758	1	1	0	0	0.12983	0.026852	0.176	0.079461	0.20792	0.15931	0.4414	0.19489	0.28696	0.17076	0.091194	0.22629	0.23561	0.25583	0.20086	0.092631	-2.1479	-2.5896	-2.3646	-2.9167	-2.6229	-2.3812	-2.8917	-2.4333	-2.4313	-2.8292	-2.3167	-2.5229	-2.6312	-2.0979	-2.7417	-2.5021	174.566	-29.820	-64.463	235.817	93.302	5.020	227.913	250.167	51.300	153.250	20.645	5.534	81.913	236.091	19.300	176.541	8.0343e-05	0.00021433	7.1595e-05	1056	1.3358e-06	4.9927e-06	1146.2	227.25	1.2736e-06	2.6579e-06	287.49	80.046	60.085	18.821	3.1661e-06	26.307	8.0799e-05	6.5947e-05	1.8417e-05	1026.1	8.0367e-07	7.6928e-07	1114.1	223.33	7.7347e-07	7.1679e-07	280.51	79.17	59.236	18.729	7.3748e-07	26.042	-71.167	-40.431	-11.407	-89.748	121.237	53.440	-89.600	-82.446	111.687	85.017	-82.584	-75.789	-75.492	-68.365	81.242	-69.518	-8191	255	
1776.879	1	1	0	0	0.084443	0.20754	0.22009	0.27621	0.075163	0.12421	0.080032	0.28902	0.15835	0.025359	0.1722	0.30618	0.22594	0.21954	0.21793	0.20858	-1.9688	-2.7958	-2.5042	-2.6896	-2.7313	-2.225	-2.7646	-2.5792	-2.3688	-2.7854	-2.4979	-2.5917	-2.8125	-2.2208	-2.5458	-2.7	193.076	-72.377	-30.863	251.257	-27.907	16.033	-90.791	-64.110	196.858	-69.988	-50.551	235.398	60.967	-100.362	49.059	-69.852	7.7093e-05	0.00026468	7.8541e-05	1051.9	2.4682e-06	1.2961e-06	1145.1	228.43	1.6558e-06	1.7197e-06	287.66	79.974	60.274	18.716	2.009e-06	26.29	8.0237e-05	6.5999e-05	1.9488e-05	1024.2	8.0946e-07	7.3574e-07	1112.6	223.93	7.8912e-07	7.4085e-07	280.49	79.121	59.299	18.69	7.7894e-07	26.061	-73.259	-7.783	-2.414	-89.725	96.400	27.392	-89.593	-82.438	-12.689	22.938	-82.880	-76.039	-75.392	-68.539	37.370	-68.925	-8191	255	
1776.975	1	1	0	0	0.14341	0.097522	0.12386	0.12692	0.17448	0.082451	0.1909	0.26166	0.25593	0.060232	0.090994	0.23328	0.1179	0.094419	0.37563	0.10182	-1.8	-2.6729	-2.1708	-2.5979	-2.7042	-2.2917	-2.8667	-2.5312	-2.3979	-2.7	-2.5438	-2.4292	-2.7229	-2.3354	-2.6854	-2.8563	96.022	-74.784	22.188	160.945	27.050	247.129	-76.107	187.975	-48.982	-66.043	202.857	134.214	-100.367	-84.057	35.963	44.159	9.3707e-05	0.0003819	5.5115e-05	1049.1	3.1393e-06	3.0563e-06	1141.1	229.4	1.7514e-06	2.1805e-06	287.56	79.88	60.146	18.802	3.6235e-06	26.018	7.9234e-05	6.5713e-05	1.9332e-05	1023.2	7.5758e-07	7.3364e-07	1113.8	223.64	7.9649e-07	7.3233e-07	280.89	79.16	59.352	18.71	7.5265e-07	25.958	-89.307	-43.112	26.475	-89.650	35.876	29.028	-89.742	-82.442	89.774	97.600	-82.688	-75.534	-75.593	-68.597	27.187	-69.217	-8191	255	
1777.070	1	1	0	0	0.24368	0.16649	0.3352	0.1003	0.20904	0.080283	0.36217	0.1087	0.17054	0.18089	0.23421	0.10679	0.12436	0.17472	0.10238	0.046975	-1.875	-2.6042	-2.4146	-2.4917	-2.8333	-2.25	-2.6917	-2.9396	-2.3979	-2.7104	-2.5438	-2.3229	-2.7375	-2.3021	-2.5396	-2.6458	52.640	200.145	257.086	238.854	73.255	-32.067	188.990	-83.118	143.408	225.171	192.528	-57.147	144.168	-3.442	78.703	47.492	0.00010224	0.00023652	3.7651e-05	1050.1	1.3875e-06	2.5819e-06	1140.4	225.75	1.8687e-06	2.0411e-06	286.69	80.119	60.045	18.874	3.8148e-06	26.228	7.6737e-05	6.6705e-05	1.7697e-05	1022.9	7.6847e-07	7.2868e-07	1111.1	222.67	7.9131e-07	7.1679e-07	280.32	79.091	59.173	18.764	7.6861e-07	26.074	-76.758	-33.904	-8.563	-89.646	76.023	26.885	-89.635	-82.401	-6.530	10.979	-82.742	-75.742	-75.699	-68.665	13.901	-69.045	-8191	255	
1777.168	1	1	0	0	0.28165	0.28103	0.20622	0.046329	0.067031	0.18605	0.20629	0.082182	0.19799	0.11914	0.088402	0.12213	0.030667	0.30384	0.074795	0.25874	-1.6521	-2.6542	-2.5	-2.4875	-2.5312	-2.3771	-2.7125	-2.7583	-2.4042	-2.6917	-2.7938	-2.2479	-2.9646	-2.4667	-2.5854	-2.9271	98.521	-1.735	134.617	249.077	-36.228	-96.646	146.687	215.403	-18.030	39.847	120.438	220.538	-7.980	162.703	149.666	183.234	0.00013136	0.00039134	4.6845e-05	1048	3.0213e-06	2.0905e-06	1141.7	226.8	1.2306e-06	2.2807e-06	285.77	80.135	59.782	18.823	2.7328e-06	26.289	7.6334e-05	6.7069e-05	1.8637e-05	1022.5	7.573e-07	7.198e-07	1113.2	223.1	7.9221e-07	7.2885e-07	280.21	79.087	59.072	18.681	7.7173e-07	26.003	-86.410	-8.687	14.948	-89.792	63.159	27.208	-89.433	-82.436	32.225	70.303	-82.910	-75.794	-75.536	-68.604	61.052	-68.933	-8191	255	
1777.286	1	1	0	0	0.15789	0.10367	0.099626	0.17666	0.28104	0.2626	0.188	0.14384	0.16567	0.20961	0.14135	0.094409	0.14903	0.13891	0.086574	0.14592	-1.7729	-2.5854	-2.5417	-2.2771	-2.6813	-2.4854	-2.4667	-2.8	-2.3875	-2.5771	-2.7687	-2.3208	-2.8625	-2.4833	-2.3229	-2.7854	165.228	52.292	204.257	232.428	34.332	2.730	55.036	-73.120	-44.106	54.241	222.083	190.529	259.038	20.489	-96.947	186.223	9.178e-05	0.00050992	2.3738e-05	1055.9	2.0754e-06	1.9249e-06	1141.7	227.45	1.472e-06	2.7189e-06	288.81	79.455	60.138	18.841	2.9518e-06	26.26	7.9728e-05	6.9354e-05	1.8533e-05	1023.2	8.0755e-07	7.1388e-07	1112.5	223.22	7.7364e-07	7.4925e-07	281.07	78.959	59.32	18.751	7.644e-07	26.018	-84.560	-36.022	-54.143	-89.659	-7.201	49.714	-89.567	-82.394	57.409	52.551	-82.691	-75.907	-75.250	-68.642	66.721	-69.397	-8191	255	
1777.358	1	1	0	0	0.23965	0.21937	0.22296	0.18159	0.078796	0.18786	0.090956	0.068804	0.12452	0.26076	0.07152	0.089499	0.23426	0.077078	0.084544	0.19141	-1.8708	-2.5208	-2.7479	-2.2479	-2.7708	-2.2854	-2.3854	-2.95	-2.2958	-2.4083	-2.7021	-2.2458	-2.6896	-2.4396	-2.2833	-2.6646	98.505	-70.665	186.729	203.232	125.471	-60.520	185.146	-4.751	98.358	-71.335	208.895	142.588	221.296	55.349	45.405	86.634	0.00010455	0.00030922	0.00010148	1052.4	1.9158e-06	1.8364e-06	1144.6	227.31	3.0719e-06	2.8397e-06	286.05	79.81	60.168	18.888	1.595e-06	26.181	8.0684e-05	6.9219e-05	1.942e-05	1023.1	7.9413e-07	7.4907e-07	1113.7	223.16	8.1591e-07	7.4308e-07	279.64	79.114	59.162	18.744	7.4407e-07	25.986	-59.818	-43.531	-13.165	-89.866	41.212	12.310	-89.782	-82.070	74.400	107.799	-82.580	-75.723	-75.408	-68.513	87.052	-69.203	-8191	255	
1777.454	1	1	0	0	0.27492	0.13212	0.19667	0.41807	0.14554	0.14201	0.17664	0.25755	0.22843	0.37422	0.057828	0.1566	0.0674	0.27838	0.12261	0.15518	-1.9438	-2.1854	-2.6854	-2.3167	-2.8667	-2.7083	-2.2333	-2.6479	-2.3312	-2.4042	-2.85	-2.4208	-2.4917	-2.775	-2.3604	-2.7938	142.533	26.385	-45.154	214.911	166.981	57.868	257.761	194.851	240.348	-14.905	206.209	24.212	240.840	-74.591	194.071	219.526	0.00010884	0.0004799	5.9589e-05	1051.4	1.213e-06	3.1146e-06	1144.7	228.17	1.5467e-06	2.234e-06	285.63	79.55	60.225	18.875	2.9276e-06	26.197	7.8715e-05	7.0003e-05	1.9097e-05	1023.3	8.1361e-07	7.6598e-07	1113.1	223.27	7.7617e-07	7.517e-07	279.66	78.834	59.262	18.712	7.7713e-07	26.021	-79.506	-8.895	-31.985	-89.743	31.028	54.493	-89.669	-82.177	88.870	39.165	-82.706	-75.659	-75.497	-68.547	64.713	-68.810	-8191	255	
1777.575	1	1	0	0	0.19798	0.22482	0.019144	0.22755	0.29225	0.18869	0.19157	0.17708	0.016779	0.22324	0.16494	0.080648	0.1833	0.1668	0.075552	0.094382	-1.9417	-2.3438	-2.7854	-2.3625	-2.5396	-2.6104	-2.3792	-2.7	-2.5167	-2.5917	-2.8875	-2.5333	-2.5792	-2.7646	-2.0417	-2.7146	88.686	-21.790	-98.637	199.086	188.914	64.115	202.141	257.783	40.184	80.629	228.572	98.998	137.612	-82.821	120.877	11.780	0.0001048	0.00016265	5.5217e-05	1058.9	1.5052e-06	2.2941e-06	1142.6	227.41	1.6567e-06	3.6213e-06	285.82	80.244	59.8	18.718	3.3529e-06	26.353	8.1216e-05	7.0382e-05	1.8299e-05	1026.2	8.1586e-07	7.3273e-07	1113.8	223.21	7.8028e-07	7.7438e-07	279.36	79.173	59.204	18.632	7.9814e-07	25.968	-47.829	-6.957	-13.731	-89.867	162.136	32.179	-89.697	-82.454	88.400	77.977	-82.980	-75.990	-75.508	-68.570	61.442	-68.828	-8191	255	
1777.671	1	1	0	0	0.092179	0.10882	0.14668	0.075825	0.057348	0.067268	0.29839	0.42028	0.078804	0.090564	0.32578	0.25621	0.053506	0.20916	0.13274	0.18562	-2.0708	-2.5833	-2.7479	-2.4521	-2.3354	-2.6896	-2.3021	-2.55	-2.5187	-2.4604	-2.7396	-2.3917	-2.3937	-2.6479	-2.3917	-2.7687	153.052	135.205	58.037	-90.912	182.065	62.134	209.195	-61.002	-44.700	-4.628	197.575	-53.728	43.258	237.465	33.836	47.598	0.00010914	0.00028571	4.891e-05	1055.8	1.192e-06	3.1952e-06	1140.2	226.84	6.7761e-07	3.7941e-06	288.19	79.778	59.647	18.702	3.9611e-06	26.033	8.041e-05	6.779e-05	1.9419e-05	1025.7	8.135e-07	7.7195e-07	1112.2	222.79	7.9086e-07	7.6907e-07	281.47	78.823	59.066	18.672	7.8235e-07	25.964	-60.927	-31.982	7.754	-89.619	56.001	38.792	-89.545	-82.477	-16.622	61.018	-82.944	-75.858	-75.417	-68.665	85.518	-68.699	-8191	255	
1777.767	1	1	0	0	0.206	0.18474	0.21093	0.17577	0.31125	0.018122	0.13876	0.070887	0.23739	0.29018	0.051906	0.094144	0.11338	0.056743	0.25602	0.24665	-2.2062	-2.0458	-2.7104	-2.5125	-2.6104	-2.8063	-2.4667	-2.7958	-2.6542	-2.3083	-2.7167	-2.5062	-2.4167	-2.5771	-2.2583	-2.5958	-29.675	117.350	92.335	211.076	153.511	196.847	100.346	41.639	236.936	259.488	4.084	143.828	199.985	183.451	-20.665	69.301	0.00011371	0.00038645	3.5771e-05	1049.3	1.3216e-06	3.269e-06	1136.6	226.53	1.6024e-06	1.345e-06	286.21	79.55	59.586	18.779	2.2854e-06	26.06	7.8461e-05	7.1566e-05	2.0449e-05	1022.2	8.2731e-07	7.0659e-07	1111.7	222.6	8.0763e-07	7.6559e-07	280.03	78.869	58.971	18.691	7.7298e-07	25.992	-74.721	-24.290	-6.848	-89.735	-31.286	20.903	-89.441	-82.159	112.304	79.979	-82.730	-75.597	-75.911	-69.023	49.751	-68.936	-8191	255	
1777.888	1	1	0	0	0.16394	0.20711	0.2091	0.31524	0.10606	0.049031	0.20586	0.21927	0.067032	0.090117	0.36037	0.15588	0.12492	0.17135	0.07509	0.30218	-2.1917	-2.2896	-2.7125	-2.7396	-2.2167	-2.7917	-2.5458	-2.7271	-2.7812	-2.3729	-2.65	-2.6417	-2.2271	-2.7896	-2.4062	-2.5542	213.152	90.488	151.002	175.556	120.570	11.127	206.161	148.880	120.433	-17.317	200.687	134.925	-81.377	234.116	-36.303	257.688	0.00012061	0.00023524	6.8535e-05	1048.6	7.103e-07	2.5318e-06	1141	227.23	1.2516e-06	1.8929e-06	288.3	79.911	60.174	18.827	3.1567e-06	26.354	7.7477e-05	6.9291e-05	1.8955e-05	1023.1	8.1513e-07	7.6353e-07	1111.4	223.09	7.9429e-07	7.6381e-07	280.7	78.897	59.3	18.728	7.861e-07	26.049	-77.041	-9.968	-16.928	-89.660	29.209	-15.999	-89.554	-81.710	15.710	53.497	-82.648	-75.463	-75.499	-68.939	72.064	-68.791	-8191	255	
1777.959	1	1	0	0	0.086132	0.1109	0.18831	0.283	0.059415	0.062259	0.28723	0.10494	0.0068159	0.34755	0.062673	0.12366	0.10068	0.15343	0.055291	0.018462	-2.2188	-2.2146	-2.5646	-2.6437	-2.375	-2.7708	-2.5208	-2.4229	-2.5896	-2.2062	-2.7979	-2.6083	-2.2958	-2.6937	-2.3479	-2.475	140.309	170.166	-49.121	223.708	9.124	253.939	234.577	237.090	91.646	172.046	61.506	202.707	-17.636	238.458	-1.668	53.630	0.00010158	0.00033844	8.629e-05	1052	2.7764e-06	1.9771e-06	1142.2	227.06	2.0764e-06	3.2001e-06	288.54	79.79	60.062	18.706	1.8598e-06	26.343	8.0616e-05	6.8398e-05	1.9475e-05	1023.9	8.0075e-07	7.4685e-07	1111.4	222.9	8.1945e-07	7.8193e-07	280.42	79.015	59.233	18.671	8.295e-07	26.052	-77.186	-35.761	-11.813	-89.889	34.421	35.254	-89.751	-82.408	66.504	67.320	-82.634	-75.766	-75.231	-68.180	80.245	-68.863	-8191	255	
1778.056	1	1	0	0	0.16995	0.10482	0.23635	0.32349	0.038276	0.12464	0.23379	0.21322	0.16863	0.19581	0.25404	0.055821	0.092905	0.50512	0.11622	0.088313	-2.2771	-2.1292	-2.4646	-2.5917	-2.3771	-2.8708	-2.7812	-2.4146	-2.8187	-2.4521	-2.6771	-2.5625	-2.1542	-2.5792	-2.4104	-2.2021	106.076	225.655	-7.689	218.421	-52.862	252.096	171.790	243.066	57.752	96.217	239.231	237.821	-94.633	-97.019	149.166	-100.092	0.00011081	0.0003522	8.3304e-05	1056.1	1.3861e-06	2.2541e-06	1140.6	227.33	2.8476e-07	1.2938e-06	287.67	79.76	59.692	18.861	3.7833e-06	26.115	7.7265e-05	7.074e-05	1.9542e-05	1026.3	8.1501e-07	7.7087e-07	1111.4	223.01	7.8287e-07	7.3782e-07	280.81	78.931	59.142	18.693	7.6963e-07	25.908	-71.625	-22.067	-9.723	-89.710	74.307	47.236	-89.569	-82.189	18.106	48.225	-82.835	-75.676	-75.442	-68.742	39.410	-69.143	-8191	255	
1778.174	1	1	0	0	0.40027	0.079616	0.18133	0.3894	0.14022	0.08964	0.36888	0.31889	0.19685	0.077301	0.15677	0.1744	0.25623	0.096632	0.086802	0.31586	-2.4208	-2.4125	-2.5104	-2.6646	-2.1958	-2.5729	-2.4896	-2.3	-2.8146	-2.4354	-2.5062	-2.675	-2.2667	-2.6604	-2.6583	-2.2687	102.293	-41.088	-4.731	217.017	186.919	139.705	179.220	-80.614	24.421	-84.149	176.660	-86.305	234.831	186.919	31.998	84.323	0.0001135	0.00048736	6.1394e-05	1055.3	2.9585e-06	2.8053e-06	1140	227.02	1.8186e-06	2.7963e-06	287.51	80.006	59.548	18.713	4.4663e-06	26.218	8.0554e-05	7.0979e-05	1.9388e-05	1025.5	8.2967e-07	7.35e-07	1114.3	222.99	8.0448e-07	7.6039e-07	280.95	79.054	59.091	18.703	7.8116e-07	26.014	-76.854	-32.972	12.138	-89.700	83.038	16.554	-89.748	-82.387	64.671	72.544	-82.727	-75.628	-75.397	-68.114	36.560	-68.752	-8191	255	
1778.271	1	1	0	0	0.26907	0.08637	0.1647	0.055312	0.29403	0.12056	0.16371	0.097617	0.092202	0.25642	0.1806	0.22245	0.13224	0.10591	0.10681	0.077111	-2.3104	-2.55	-2.5021	-2.7854	-2.3375	-2.5125	-2.6792	-2.2521	-2.7542	-2.4208	-2.5167	-2.8583	-2.3063	-2.6458	-2.5583	-2.3792	223.436	156.458	51.477	-13.310	255.891	127.665	172.623	-95.295	125.027	-2.730	166.243	-100.260	-46.443	169.621	154.400	-44.557	0.00011837	0.00010178	0.0001216	1045.2	3.5711e-06	2.8749e-06	1139.6	227.96	1.5e-06	3.2246e-06	288.65	79.989	60.277	18.811	3.481e-06	26.309	7.8038e-05	7.3207e-05	1.9159e-05	1023.5	8.2826e-07	7.4685e-07	1112.2	223.45	7.8962e-07	7.5999e-07	280.45	78.989	59.088	18.727	7.4839e-07	26.052	-76.580	-15.004	-33.631	-89.799	43.478	32.167	-89.467	-82.405	14.754	41.409	-82.806	-75.661	-75.725	-68.543	18.503	-69.022	-8191	255	
1778.367	1	1	0	0	0.14005	0.13024	0.11506	0.33612	0.057713	0.18856	0.16481	0.15925	0.1389	0.089504	0.20825	0.15558	0.20377	0.22069	0.2083	0.085093	-2.1292	-2.4292	-2.3104	-2.9	-2.3021	-2.55	-2.8583	-2.2979	-2.5792	-2.5042	-2.3875	-2.7687	-2.3979	-2.7583	-2.6333	-2.2167	152.963	70.895	159.931	-97.719	-72.235	119.268	163.503	197.314	185.167	-90.698	187.898	71.996	237.104	183.282	162.941	201.744	0.00012048	0.00027856	7.4052e-05	1051.2	1.2993e-06	3.4159e-06	1143.3	227.11	5.69e-07	1.4454e-06	287.27	79.814	60.131	18.931	3.2595e-06	26.271	8.3386e-05	6.8377e-05	1.9835e-05	1024.5	8.1193e-07	7.6837e-07	1112.8	223.03	8.0544e-07	7.6062e-07	281.09	79.158	59.251	18.789	7.7741e-07	26.048	-82.563	-26.227	-12.279	-89.797	101.329	38.820	-89.462	-82.457	-63.069	146.462	-82.378	-75.793	-75.679	-68.199	53.607	-69.343	-8191	255	
1778.463	1	1	0	0	0.048787	0.20879	0.088667	0.11559	0.065627	0.11784	0.33546	0.12281	0.15548	0.17605	0.20722	0.089931	0.18367	0.14425	0.083144	0.09238	-2.3021	-2.5125	-2.3479	-2.8458	-2.4167	-2.4562	-2.7771	-2.3583	-2.6562	-2.5917	-2.4104	-2.9479	-2.5292	-2.5125	-2.8167	-2.425	215.165	-67.132	157.652	-59.614	111.834	135.444	176.128	190.529	64.341	57.243	180.106	-47.355	188.727	44.443	-98.893	135.829	0.0001216	0.00024167	8.0102e-05	1053.4	1.4452e-06	1.25e-06	1141.9	228.57	2.4758e-06	3.4433e-06	288.57	79.786	60.331	18.887	3.1642e-06	26.33	8.0909e-05	7.0943e-05	1.9698e-05	1026.4	8.1614e-07	7.5755e-07	1115.4	223.31	8.2525e-07	7.5422e-07	281.41	79.376	59.284	18.76	7.5889e-07	26.086	-68.122	-32.459	-18.005	-89.843	62.111	58.297	-89.668	-82.379	73.673	82.848	-83.094	-75.552	-75.254	-68.572	74.050	-69.096	-8191	255	
1778.584	1	1	0	0	0.091356	0.06112	0.14443	0.23022	0.079321	0.15376	0.17706	0.31512	0.18119	0.094752	0.27766	0.12653	0.10165	0.065609	0.12289	0.20097	-2.1688	-2.4688	-2.3229	-2.7938	-2.5917	-2.4896	-2.825	-2.4854	-2.5021	-2.6146	-2.4875	-2.8875	-2.5458	-2.4625	-2.7021	-2.4542	77.063	-58.570	-18.872	238.968	57.173	22.974	217.397	232.543	136.725	132.480	215.713	-63.666	195.918	103.928	121.024	207.795	8.0638e-05	0.00034671	6.9688e-05	1054.6	3.1508e-06	2.8604e-06	1147	227.71	2.1752e-06	2.3976e-06	286.59	79.823	60.097	18.823	2.5036e-06	26.329	8.1591e-05	6.8907e-05	1.9199e-05	1024.5	8.1681e-07	7.7508e-07	1116.4	223.94	8.0786e-07	7.8764e-07	280.91	79.294	59.168	18.713	8.0036e-07	26.053	-82.957	-41.449	6.905	-89.844	76.517	65.299	-89.548	-82.403	81.752	87.078	-83.227	-75.730	-75.662	-68.945	40.188	-69.394	-8191	255	
#DATA ENDS
