BOXY.EXE: ISS Imagent and Oximeter Data Acquisition Program Version 0.80
Ascii Record File

#ACQ INFORMATION
2  Detector Channels 
16  External MUX Channels 
1  Auxiliary Channels 
5000  Waveform (CCF) Frequency (Hz)
1  Waveforms Skipped 
30  Waveforms Averaged 
1  Cycles Averaged 
16  Acquisitions per Waveform 
10.0806  Updata Rate (Hz) 

#FILE INFORMATION
TRUE -- External MUX Channel results are PARSED.
FALSE -- AC DC and Phase are NOT grouped.
TRUE -- Companion Program Settings File CREATED.
FALSE -- AC data not excluded
FALSE -- DC data not excluded
FALSE -- Phase data not excluded
FALSE -- Auxillary Chn. data not excluded
Tab delimiters

#CALIBRATION STATE
TRUE -- Waveform Calibration Values APPLIED.


#AUX CALIBRATION VALUES
Val Type	aux-1	

Term	1.0000e+00	
Factor	0.0000e+00	


#WF CALIBRATION VALUES
A = Detector Channel
Val Type	A-AC1	A-AC2	A-AC3	A-AC4	A-AC5	A-AC6	A-AC7	A-AC8	A-AC9	A-AC10	A-AC11	A-AC12	A-AC13	A-AC14	A-AC15	A-AC16	A-DC1	A-DC2	A-DC3	A-DC4	A-DC5	A-DC6	A-DC7	A-DC8	A-DC9	A-DC10	A-DC11	A-DC12	A-DC13	A-DC14	A-DC15	A-DC16	A-Ph1	A-Ph2	A-Ph3	A-Ph4	A-Ph5	A-Ph6	A-Ph7	A-Ph8	A-Ph9	A-Ph10	A-Ph11	A-Ph12	A-Ph13	A-Ph14	A-Ph15	A-Ph16	

Term	0.00000e+00	0.00000e+00	0.00000e+00	0.00000e+00	0.00000e+00	0.00000e+00	0.00000e+00	0.00000e+00	0.00000e+00	0.00000e+00	0.00000e+00	0.00000e+00	0.00000e+00	0.00000e+00	0.00000e+00	0.00000e+00	0.00000e+00	0.00000e+00	0.00000e+00	0.00000e+00	0.00000e+00	0.00000e+00	0.00000e+00	0.00000e+00	0.00000e+00	0.00000e+00	0.00000e+00	0.00000e+00	0.00000e+00	0.00000e+00	0.00000e+00	0.00000e+00	0.00000e+00	0.00000e+00	0.00000e+00	0.00000e+00	0.00000e+00	0.00000e+00	0.00000e+00	0.00000e+00	0.00000e+00	0.00000e+00	0.00000e+00	0.00000e+00	0.00000e+00	0.00000e+00	0.00000e+00	0.00000e+00	
Factor	1.00000e+00	1.00000e+00	1.00000e+00	1.00000e+00	1.00000e+00	1.00000e+00	1.00000e+00	1.00000e+00	1.00000e+00	1.00000e+00	1.00000e+00	1.00000e+00	1.00000e+00	1.00000e+00	1.00000e+00	1.00000e+00	1.00000e+00	1.00000e+00	1.00000e+00	1.00000e+00	1.00000e+00	1.00000e+00	1.00000e+00	1.00000e+00	1.00000e+00	1.00000e+00	1.00000e+00	1.00000e+00	1.00000e+00	1.00000e+00	1.00000e+00	1.00000e+00	X	X	X	X	X	X	X	X	X	X	X	X	X	X	X	X	

B = Detector Channel
Val Type	B-AC1	B-AC2	B-AC3	B-AC4	B-AC5	B-AC6	B-AC7	B-AC8	B-AC9	B-AC10	B-AC11	B-AC12	B-AC13	B-AC14	B-AC15	B-AC16	B-DC1	B-DC2	B-DC3	B-DC4	B-DC5	B-DC6	B-DC7	B-DC8	B-DC9	B-DC10	B-DC11	B-DC12	B-DC13	B-DC14	B-DC15	B-DC16	B-Ph1	B-Ph2	B-Ph3	B-Ph4	B-Ph5	B-Ph6	B-Ph7	B-Ph8	B-Ph9	B-Ph10	B-Ph11	B-Ph12	B-Ph13	B-Ph14	B-Ph15	B-Ph16	

Term	0.00000e+00	0.00000e+00	0.00000e+00	0.00000e+00	0.00000e+00	0.00000e+00	0.00000e+00	0.00000e+00	0.00000e+00	0.00000e+00	0.00000e+00	0.00000e+00	0.00000e+00	0.00000e+00	0.00000e+00	0.00000e+00	0.00000e+00	0.00000e+00	0.00000e+00	0.00000e+00	0.00000e+00	0.00000e+00	0.00000e+00	0.00000e+00	0.00000e+00	0.00000e+00	0.00000e+00	0.00000e+00	0.00000e+00	0.00000e+00	0.00000e+00	0.00000e+00	-3.63263e+01	-1.44616e+02	-1.36455e+02	-1.83436e+02	-6.47196e+01	-8.14628e+01	-1.60695e+02	-1.62015e+02	-4.27404e+01	-5.87643e+01	-1.72707e+02	-1.72386e+02	-1.83401e+02	-1.78286e+02	-6.56670e+01	-1.51169e+02	
Factor	2.16242e-05	1.40199e-04	3.24853e-05	1.48686e-01	1.47159e-06	1.31807e-06	1.62454e-01	5.10240e-02	1.11014e-06	1.35182e-06	7.91605e-02	2.65441e-02	2.35584e-02	8.15133e-03	1.44641e-06	1.17866e-02	2.30442e-06	2.49268e-06	6.93736e-07	7.79555e-02	2.69482e-08	2.73278e-08	7.97935e-02	2.67642e-02	2.70149e-08	2.74240e-08	4.00788e-02	1.34491e-02	1.24290e-02	4.29815e-03	2.72636e-08	5.99323e-03	X	X	X	X	X	X	X	X	X	X	X	X	X	X	X	X	



#DISTANCE SETTINGS
A = Detector Channel
A-1	A-2	A-3	A-4	A-5	A-6	A-7	A-8	A-9	A-10	A-11	A-12	A-13	A-14	A-15	A-16	

2.5000e+00	3.0000e+00	2.5000e+00	3.0000e+00	2.0000e+00	3.0000e+00	1.5000e+00	3.0000e+00	3.0000e+00	3.0000e+00	3.0000e+00	3.0000e+00	3.0000e+00	3.0000e+00	1.5000e+00	3.0000e+00	

B = Detector Channel
B-1	B-2	B-3	B-4	B-5	B-6	B-7	B-8	B-9	B-10	B-11	B-12	B-13	B-14	B-15	B-16	

1.0000e+01	1.0000e+01	1.0000e+01	1.4400e+00	1.0000e+01	1.0000e+01	1.5100e+00	1.9400e+00	1.0000e+01	1.0000e+01	1.9900e+00	2.4900e+00	2.4100e+00	2.9000e+00	1.0000e+01	2.9800e+00	




#DATA BEGINS
time	group	step	mark	flag	A-AC1	A-AC2	A-AC3	A-AC4	A-AC5	A-AC6	A-AC7	A-AC8	A-AC9	A-AC10	A-AC11	A-AC12	A-AC13	A-AC14	A-AC15	A-AC16	A-DC1	A-DC2	A-DC3	A-DC4	A-DC5	A-DC6	A-DC7	A-DC8	A-DC9	A-DC10	A-DC11	A-DC12	A-DC13	A-DC14	A-DC15	A-DC16	A-Ph1	A-Ph2	A-Ph3	A-Ph4	A-Ph5	A-Ph6	A-Ph7	A-Ph8	A-Ph9	A-Ph10	A-Ph11	A-Ph12	A-Ph13	A-Ph14	A-Ph15	A-Ph16	B-AC1	B-AC2	B-AC3	B-AC4	B-AC5	B-AC6	B-AC7	B-AC8	B-AC9	B-AC10	B-AC11	B-AC12	B-AC13	B-AC14	B-AC15	B-AC16	B-DC1	B-DC2	B-DC3	B-DC4	B-DC5	B-DC6	B-DC7	B-DC8	B-DC9	B-DC10	B-DC11	B-DC12	B-DC13	B-DC14	B-DC15	B-DC16	B-Ph1	B-Ph2	B-Ph3	B-Ph4	B-Ph5	B-Ph6	B-Ph7	B-Ph8	B-Ph9	B-Ph10	B-Ph11	B-Ph12	B-Ph13	B-Ph14	B-Ph15	B-Ph16	aux-1	digaux	

2211.697	1	1	0	256	0.054214	0.13999	0.23294	0.15009	0.099087	0.31997	0.13165	0.23752	0.12241	0.10267	0.25202	0.22698	0.095059	0.068357	0.12495	0.23431	-1.9625	-2.3833	-2.5729	-2.2979	-2.4604	-2.5979	-2.2979	-2.6729	-2.2792	-2.5583	-2.7667	-2.0979	-2.5125	-2.5375	-2.1292	-2.5938	15.775	249.639	199.979	136.301	-54.724	-47.977	198.420	103.909	167.793	-36.813	119.715	208.024	-54.809	206.391	259.089	170.589	0.00015349	0.00046286	5.4535e-05	595.25	1.7389e-06	1.9755e-06	822.36	124.45	1.3664e-06	3.6193e-06	273.94	98.952	30.087	9.0669	2.1422e-06	42.328	6.8532e-05	5.3395e-05	1.4226e-05	529.36	5.5283e-07	5.4342e-07	730.82	111.11	5.4643e-07	5.6076e-07	242.44	88.013	27.04	8.1485	5.5783e-07	37.863	-68.116	-5.853	23.878	-84.908	23.394	16.711	-84.443	-80.191	22.204	55.281	-80.370	-75.433	-75.764	-70.755	55.512	-71.841	-8191	255	
2211.817	1	1	0	0	0.18908	0.24349	0.12598	0.25565	0.35678	0.32999	0.23347	0.1854	0.022526	0.053338	0.30166	0.31466	0.12537	0.062353	0.24217	0.047556	-1.9562	-2.4	-2.5083	-2.1667	-2.6896	-2.4646	-2.3375	-2.6271	-2.3167	-2.325	-2.6146	-2.2583	-2.4396	-2.6042	-2.3521	-2.6958	-11.794	228.112	-80.293	187.286	210.357	136.412	101.080	136.483	148.681	157.796	133.774	220.722	78.432	100.905	-87.105	223.536	0.00013442	0.0003577	3.6828e-05	587.94	3.176e-06	3.9639e-06	792.74	120.27	7.9781e-07	3.3003e-06	262.09	96.409	29.149	9.101	1.9952e-06	42.558	6.7409e-05	5.2647e-05	1.4303e-05	520.66	5.9336e-07	5.5919e-07	705.02	106.92	5.4632e-07	5.4528e-07	231.48	86.328	26.362	8.1341	5.8861e-07	37.799	-67.197	-23.442	-32.135	-84.764	67.411	61.843	-84.633	-80.056	14.758	50.551	-80.141	-75.609	-75.506	-71.110	38.656	-71.854	-8191	255	
2211.913	1	1	0	0	0.027206	0.14534	0.069991	0.047288	0.15353	0.098591	0.4212	0.081881	0.12324	0.036024	0.057212	0.13603	0.24985	0.11382	0.15605	0.18445	-2.2083	-2.2229	-2.7562	-2.2687	-2.5292	-2.6896	-2.3958	-2.7354	-2.4083	-2.3625	-2.7458	-2.2646	-2.5417	-2.7333	-2.2375	-2.8063	260.510	158.271	39.294	240.175	200.615	197.303	164.133	41.409	19.881	183.371	-60.538	73.464	-42.005	166.364	199.803	128.470	0.00018847	0.0004421	4.3985e-05	579.21	4.6179e-06	2.108e-06	795.18	122.58	1.8819e-06	3.7736e-06	264.55	97.493	29.455	8.9949	3.2699e-06	42.361	6.8614e-05	4.8254e-05	1.3698e-05	514.69	5.4632e-07	5.4673e-07	706.42	108.31	5.4064e-07	5.6356e-07	233.63	86.753	26.394	8.0851	5.4544e-07	37.615	-73.019	8.550	25.649	-84.683	32.731	127.524	-84.332	-79.663	64.195	115.759	-79.919	-75.675	-76.648	-71.130	17.011	-71.749	-8191	255	
2212.010	1	1	0	0	0.1233	0.095347	0.090537	0.10299	0.10857	0.088422	0.28234	0.31715	0.20567	0.23352	0.13581	0.23839	0.36575	0.095146	0.064823	0.17522	-1.9208	-2.1917	-2.6083	-2.3375	-2.5187	-2.7687	-2.3063	-2.6125	-2.5208	-2.2396	-2.7271	-2.4938	-2.4958	-2.6729	-2.2833	-2.6417	-75.062	-61.161	145.595	164.146	-60.632	97.975	204.914	141.029	117.094	166.165	210.224	154.088	-40.823	195.695	102.486	129.441	0.00011218	0.00031051	6.1125e-05	579.17	2.1434e-06	1.9277e-06	804.73	122.59	2.228e-06	2.0221e-06	257.13	94.967	28.547	8.6901	2.2071e-06	40.572	6.8297e-05	4.8109e-05	1.3896e-05	514.33	5.7894e-07	5.0072e-07	713.64	109.04	5.7384e-07	5.4339e-07	227.99	84.812	25.635	7.8218	5.376e-07	36.032	-78.955	9.440	-0.577	-84.580	66.881	28.500	-84.595	-79.788	101.188	108.052	-80.436	-76.073	-76.153	-72.130	85.378	-71.879	-8191	255	
2212.130	1	1	0	0	0.21616	0.10665	0.24961	0.21613	0.19851	0.22289	0.16765	0.14446	0.21907	0.1584	0.15724	0.23313	0.17362	0.15547	0.23419	0.1827	-1.975	-2.1167	-2.4771	-2.2542	-2.3417	-2.5708	-2.2417	-2.375	-2.5187	-2.2375	-2.5458	-2.4375	-2.2292	-2.5938	-2.1792	-2.5062	223.005	35.163	-8.936	236.598	-84.059	54.595	186.601	73.477	200.208	126.172	113.026	243.986	242.770	7.810	57.560	104.857	0.00018366	0.00029864	8.2345e-05	514.95	1.7434e-06	2.9903e-06	733.47	110.46	2.744e-06	3.3445e-06	250.96	95.032	27.977	8.65	4.0869e-06	40.139	6.6281e-05	5.0233e-05	1.3039e-05	456.37	5.5721e-07	5.625e-07	650.79	98.689	5.2848e-07	5.4379e-07	221.36	84.737	25.346	7.7639	5.2091e-07	35.772	-75.745	-66.859	-41.565	-84.571	28.991	32.827	-84.364	-79.887	68.160	64.644	-80.635	-75.670	-74.866	-71.295	14.123	-71.582	-8191	255	
2212.200	1	1	0	0	0.22052	0.11953	0.28252	0.19616	0.19694	0.24469	0.123	0.19713	0.15442	0.068275	0.18733	0.4371	0.17452	0.15041	0.12853	0.30248	-2.1958	-2.1146	-2.5917	-2.4167	-2.2562	-2.8271	-2.2854	-2.3917	-2.4813	-2.3729	-2.6271	-2.3896	-2.2687	-2.7417	-2.3667	-2.4562	-95.751	32.420	115.489	217.291	16.749	183.012	193.712	186.335	256.429	121.388	-63.737	196.535	19.619	93.179	215.121	220.853	0.00014595	0.00035453	6.9418e-05	505.68	4.0987e-06	3.2702e-06	728.81	109.96	3.8781e-07	2.3678e-06	260.01	99.305	29.733	9.1994	1.3918e-06	42.191	6.1062e-05	4.5844e-05	1.2185e-05	447.11	5.123e-07	4.7875e-07	646.18	97.3	4.8053e-07	4.6644e-07	231.05	88.299	26.708	8.1824	4.6962e-07	37.55	-70.242	-8.050	-10.431	-84.757	56.966	78.209	-84.631	-79.637	182.341	34.907	-80.106	-75.794	-75.331	-70.975	97.226	-71.467	-8191	255	
2212.296	1	1	0	0	0.08388	0.1754	0.28642	0.21856	0.13569	0.16072	0.18728	0.20161	0.11546	0.059296	0.15839	0.16596	0.12814	0.12207	0.062269	0.040218	-2.2292	-2.1042	-2.4958	-2.4437	-2.3625	-2.5479	-2.3375	-2.3333	-2.6312	-2.1979	-2.5271	-2.5042	-2.1104	-2.6583	-2.1917	-2.4917	-0.919	147.341	151.861	140.838	-37.017	-14.612	183.093	238.484	52.049	-34.436	-24.096	149.928	49.375	209.057	150.405	-10.606	0.00016424	0.00037611	6.9916e-05	538.48	1.8904e-06	3.0698e-06	763.96	117.72	2.7816e-06	2.6977e-06	270.03	100.24	31.038	9.4	2.9811e-06	43.407	6.1691e-05	4.5299e-05	1.1805e-05	479.59	4.9747e-07	4.6383e-07	679.13	104.02	4.9679e-07	4.9312e-07	237.75	89.518	27.676	8.3987	4.929e-07	38.782	-75.487	25.029	-46.927	-84.877	79.257	39.054	-84.422	-80.168	73.428	40.353	-80.599	-75.831	-75.332	-70.779	87.065	-71.726	-8191	255	
2212.392	1	1	0	0	0.15061	0.040016	0.15846	0.088541	0.067732	0.16453	0.017145	0.39065	0.3235	0.13742	0.11382	0.302	0.077896	0.074178	0.17417	0.44084	-2.1417	-2.1271	-2.5625	-2.5521	-2.2229	-2.6937	-2.4792	-2.4146	-2.8146	-2.2438	-2.6	-2.7896	-2.2146	-2.5542	-2.3937	-2.3521	26.883	-32.845	231.439	243.779	-96.370	125.078	9.604	230.052	23.586	238.065	-32.048	144.345	47.571	244.343	259.571	169.020	0.000159	0.00041233	8.1417e-05	573.14	3.3843e-06	3.8817e-06	789.14	118.82	1.4166e-06	3.4301e-06	261.99	99.827	30.355	9.308	3.6942e-06	43.202	6.3573e-05	4.3243e-05	1.2995e-05	506.23	5.087e-07	4.4818e-07	699.56	105.33	5.3388e-07	4.6055e-07	231.23	89.145	27.133	8.3541	4.7564e-07	38.45	-73.823	-26.912	-24.951	-85.040	35.639	30.563	-84.482	-79.991	12.164	84.894	-80.347	-75.536	-75.508	-71.737	36.384	-71.521	-8191	255	
2212.513	1	1	0	0	0.12076	0.36987	0.14609	0.14495	0.092309	0.16188	0.13197	0.04623	0.19942	0.27331	0.19364	0.33257	0.14431	0.11001	0.37922	0.20742	-2.1417	-2.4292	-2.4	-2.7125	-2.1167	-2.525	-2.6896	-2.3146	-2.525	-2.3083	-2.3896	-2.5125	-2.1479	-2.7542	-2.5458	-2.3771	221.104	67.578	29.511	-70.437	99.086	-10.766	12.456	227.333	151.948	-73.051	132.041	-48.859	146.234	20.631	55.634	229.821	0.00019764	0.00039964	3.6866e-05	552.05	2.3523e-06	2.15e-06	779.65	118.73	2.9092e-06	3.7609e-06	255.56	99.586	29.674	9.1856	1.4875e-06	42.576	6.112e-05	3.9343e-05	1.1737e-05	491.49	4.9062e-07	4.7476e-07	690.82	104.99	4.8075e-07	4.2879e-07	226.58	88.877	26.744	8.2643	4.833e-07	37.93	-73.197	-38.869	10.231	-84.609	63.209	70.088	-84.525	-79.686	109.276	82.156	-80.217	-75.614	-76.150	-71.277	62.313	-72.128	-8191	255	
2212.609	1	1	0	0	0.21046	0.1044	0.24516	0.16899	0.023445	0.041772	0.14508	0.12775	0.29103	0.18255	0.071121	0.21266	0.10528	0.16323	0.38741	0.13233	-2.2271	-2.1646	-2.3125	-2.6792	-2.3312	-2.6063	-2.5792	-2.225	-2.4792	-2.4562	-2.4313	-2.8667	-2.0854	-2.4313	-2.4583	-2.0583	245.062	-16.856	132.349	224.763	80.906	-81.313	-69.681	232.995	188.120	118.615	211.895	258.036	192.187	-63.529	153.628	-85.941	0.00018259	0.00049824	8.4711e-05	547.57	4.4914e-06	3.0653e-06	782.63	119.67	1.5511e-06	3.0314e-06	262.68	100.31	30.32	9.2563	3.2783e-06	42.515	6.0712e-05	4.1217e-05	1.1906e-05	483.33	4.6093e-07	4.4544e-07	691.22	106.33	4.7659e-07	4.2759e-07	232.6	89.257	27.073	8.2948	4.5371e-07	37.823	-75.821	-8.957	-11.720	-84.855	26.811	38.357	-84.448	-80.064	33.912	56.903	-80.771	-75.736	-76.069	-70.939	72.007	-71.930	-8191	255	
2212.705	1	1	0	0	0.2167	0.073215	0.12357	0.20554	0.087593	0.17686	0.24262	0.09774	0.248	0.15026	0.16641	0.14763	0.087187	0.1129	0.053626	0.06793	-2.1917	-2.45	-2.4188	-2.7854	-2.1854	-2.4167	-2.6542	-2.1146	-2.5312	-2.4292	-2.325	-2.6	-2.375	-2.5083	-2.5375	-2.35	-5.564	170.227	-34.688	238.717	-70.149	227.594	184.881	151.749	142.742	214.366	136.864	147.680	201.587	219.150	-6.892	-37.379	0.00015323	0.00019589	8.3307e-05	539.73	2.7649e-06	2.3568e-06	759.38	116.82	9.823e-07	3.5771e-06	259.95	99.242	30.531	9.2263	1.3615e-06	42.91	5.7265e-05	3.765e-05	1.1162e-05	481.5	4.3005e-07	4.2016e-07	674.05	103.79	4.1924e-07	4.1142e-07	230.27	88.489	27.274	8.2452	4.0197e-07	37.983	-70.994	-63.701	-25.650	-84.890	69.804	-1.203	-84.520	-80.150	86.669	45.637	-80.341	-75.786	-75.887	-70.766	92.372	-72.349	-8191	255	
2212.802	1	1	0	0	0.31844	0.1533	0.11568	0.16141	0.17296	0.12901	0.082249	0.020106	0.31829	0.15003	0.16921	0.087257	0.24094	0.1189	0.17451	0.20875	-2.1417	-2.4833	-2.1417	-2.7771	-2.5104	-2.5229	-2.6875	-2.2854	-2.55	-2.4917	-2.2396	-2.7271	-2.3208	-2.5479	-2.575	-2.3417	-73.781	110.264	67.479	-60.345	220.596	-69.756	223.635	123.403	201.925	195.392	-37.330	189.308	261.193	56.304	136.797	196.511	0.00016398	0.00032145	9.4201e-05	566.24	2.1557e-06	2.7964e-06	794.57	123.24	3.0101e-06	2.167e-06	277.82	102.04	31.712	9.5408	3.7834e-06	43.576	5.5657e-05	3.7001e-05	1.0288e-05	501.47	4.0355e-07	4.0753e-07	705.34	109.89	4.5633e-07	4.2164e-07	245.2	91.337	28.179	8.5284	4.5899e-07	38.813	-76.367	-43.226	-28.842	-85.257	85.332	9.762	-84.805	-80.353	91.350	62.844	-80.212	-76.274	-76.182	-71.007	31.248	-71.877	-8191	255	
2212.898	1	1	0	0	0.047486	0.30307	0.26063	0.12918	0.31239	0.32072	0.11772	0.22416	0.15586	0.030275	0.22416	0.3282	0.22239	0.34914	0.16857	0.26084	-2.1562	-2.3604	-2.275	-2.8375	-2.2917	-2.4062	-2.8042	-2.1854	-2.6437	-2.6646	-2.3458	-2.7458	-2.3667	-2.1146	-2.7292	-2.4292	222.146	-45.907	1.047	210.841	-9.299	238.337	237.601	190.751	207.581	-24.390	228.912	-95.006	213.648	231.054	-72.731	126.536	0.00015037	0.00033935	4.328e-05	590.69	3.0607e-06	3.5767e-06	823.96	130.37	1.5123e-06	3.7949e-07	284.78	104.52	32.358	9.6789	1.4641e-06	44.158	6.1197e-05	4.0065e-05	1.1643e-05	522.5	4.7294e-07	4.4937e-07	730.14	114.93	4.5244e-07	4.3141e-07	251.27	93.111	28.907	8.6751	4.2832e-07	39.362	-80.970	-40.259	0.148	-84.915	22.015	25.431	-84.662	-80.349	51.766	-33.041	-80.408	-75.949	-76.036	-70.836	58.981	-71.909	-8191	255	
2212.994	1	1	0	0	0.037724	0.095313	0.038194	0.065175	0.25515	0.19195	0.16354	0.029781	0.21608	0.21745	0.11281	0.22914	0.2232	0.22856	0.17665	0.19496	-2.0833	-2.6146	-2.175	-2.7583	-2.4021	-2.4604	-2.7	-2.4104	-2.3708	-2.6312	-2.3312	-2.7	-2.5125	-2.1667	-2.7604	-2.4333	65.752	112.144	111.041	225.590	249.181	72.178	-77.494	132.967	206.352	131.596	219.336	-29.311	194.986	8.028	71.991	245.927	0.00018942	0.00035003	0.00012472	597.42	2.8015e-06	1.6196e-06	823.1	129.89	3.4955e-06	1.2302e-06	284.4	104.1	32.67	9.799	2.9749e-06	44.519	5.9646e-05	3.9566e-05	1.1798e-05	527.97	4.2241e-07	4.3292e-07	731.41	114.92	4.4974e-07	4.3376e-07	251.68	92.892	29.022	8.721	4.1333e-07	39.474	-67.317	-13.276	-17.411	-84.804	56.045	6.094	-84.448	-79.978	83.213	41.616	-80.190	-75.775	-76.058	-70.829	31.328	-72.104	-8191	255	
2213.090	1	1	0	0	0.23888	0.13377	0.099264	0.21563	0.17387	0.25069	0.30736	0.18266	0.23763	0.067584	0.4402	0.17899	0.13798	0.24202	0.21066	0.043576	-1.9438	-2.5708	-2.0854	-2.6937	-2.4229	-2.2146	-2.7458	-2.3417	-2.5479	-2.6021	-2.2917	-2.7188	-2.5687	-2.2729	-2.7521	-2.675	-67.740	156.963	139.121	227.268	49.740	36.602	211.802	-63.470	225.114	236.260	226.413	242.277	-96.804	189.315	239.162	236.557	0.00017125	0.00042718	7.9104e-05	604.27	3.4455e-06	3.6262e-06	837.59	130.64	2.5274e-06	1.7992e-06	286.23	105.54	32.55	9.8	1.9711e-06	44.913	6.2767e-05	4.1493e-05	1.0587e-05	535.26	4.7541e-07	4.0866e-07	739.81	116.05	4.3967e-07	4.3907e-07	252.43	93.794	29.079	8.7927	4.6297e-07	40.018	-77.172	-31.760	-10.689	-84.541	84.397	28.658	-84.336	-80.090	76.597	38.341	-80.055	-75.573	-76.292	-71.295	54.640	-72.420	-8191	255	
2213.211	1	1	0	0	0.10797	0.097848	0.18141	0.29677	0.13508	0.26614	0.10118	0.09359	0.27316	0.36369	0.18783	0.14848	0.21875	0.029219	0.26181	0.18251	-1.8312	-2.8479	-2.2917	-2.4479	-2.5104	-2.3083	-2.8729	-2.3312	-2.3417	-2.5708	-2.3396	-2.6396	-2.4042	-2.2146	-2.6562	-2.4437	-21.252	-21.925	224.175	233.169	-30.148	13.934	204.316	-38.211	106.965	26.052	-96.505	253.088	226.999	-56.476	187.458	233.128	0.00015173	0.00062806	2.8785e-05	613.88	3.7383e-06	3.739e-06	857.24	138.44	2.9432e-06	3.256e-06	298.84	107.07	33.762	10.056	3.3173e-06	46.058	5.9694e-05	4.1301e-05	1.1029e-05	543.43	4.7154e-07	4.3599e-07	759.88	122.35	4.6893e-07	4.4038e-07	264.28	95.498	30.074	9.0205	4.3872e-07	40.82	-66.966	-53.527	4.222	-84.804	44.203	45.107	-84.614	-79.838	88.937	94.435	-80.402	-75.783	-75.830	-71.020	47.642	-72.077	-8191	255	
2213.305	1	1	0	0	0.041876	0.33564	0.077119	0.29761	0.3592	0.11209	0.28545	0.074618	0.17893	0.22378	0.08842	0.11152	0.07723	0.041305	0.17598	0.20498	-1.8792	-2.5333	-2.2625	-2.5521	-2.5583	-2.2146	-2.5938	-2.3729	-2.3063	-2.7229	-2.4125	-2.4146	-2.6354	-2.3729	-2.5312	-2.4167	159.808	225.014	246.100	206.001	227.696	203.563	250.773	249.971	204.672	157.298	-91.380	0.982	-6.369	-26.542	-25.087	114.361	0.00019626	0.00024045	0.00010815	627.12	4.9553e-06	1.4682e-06	869.94	140.02	2.7055e-06	3.5908e-06	299.27	107.72	33.639	10.1	3.3589e-06	45.39	6.389e-05	3.9628e-05	1.0329e-05	552.56	4.6693e-07	4.3377e-07	771.7	123.77	4.4682e-07	4.6181e-07	264.4	96.001	30.024	8.9663	4.394e-07	40.185	-83.255	-1.177	-25.854	-84.392	23.770	35.788	-84.479	-80.008	66.973	49.271	-79.884	-75.422	-74.896	-70.893	58.343	-71.848	-8191	255	
2213.401	1	1	0	0	0.16047	0.092092	0.25488	0.20794	0.072506	0.13537	0.18496	0.17691	0.18756	0.28008	0.12599	0.12207	0.14507	0.069113	0.061734	0.17279	-1.7521	-2.5687	-2.2625	-2.4792	-2.5625	-2.1604	-2.8187	-2.5687	-2.2042	-2.6437	-2.2208	-2.3688	-2.7313	-2.2604	-2.4333	-2.4188	15.323	90.382	237.414	-36.736	-17.857	215.193	230.840	166.474	90.247	120.530	142.929	96.814	-28.237	-57.867	176.716	212.780	0.00018362	0.0002378	6.832e-05	611.71	1.6571e-06	2.8075e-06	855.43	135.22	2.6285e-06	4.8676e-06	294.84	106.83	33.404	10.026	9.6855e-07	45.824	5.8748e-05	3.8242e-05	1.086e-05	543.42	4.5497e-07	4.0496e-07	758.75	121.13	4.5126e-07	4.3267e-07	261.79	95.579	30.128	9.0334	4.2724e-07	40.544	-74.195	-14.557	-30.682	-84.498	44.417	12.339	-84.308	-79.728	66.377	70.645	-79.791	-75.604	-75.472	-70.779	32.053	-72.323	-8191	255	
2213.497	1	1	0	0	0.086358	0.32126	0.18174	0.24372	0.25005	0.16213	0.25694	0.14802	0.21424	0.21239	0.21341	0.1778	0.13843	0.097588	0.074049	0.32603	-1.6354	-2.4917	-2.3229	-2.3479	-2.6479	-2.2521	-2.4458	-2.5	-2.0458	-2.6229	-2.3792	-2.35	-2.7333	-2.1937	-2.5167	-2.65	101.516	-9.720	152.536	-80.138	6.976	53.823	257.263	106.937	9.039	98.087	161.806	255.511	214.875	200.164	26.962	88.309	0.00016678	0.00015309	5.6425e-05	618.63	2.619e-06	3.8756e-06	853.36	135.13	2.7568e-06	2.1785e-06	295.82	108.01	33.922	10.133	3.5914e-06	45.193	5.9219e-05	3.7291e-05	1.1384e-05	545.73	4.5408e-07	4.1737e-07	758.61	120.01	4.4546e-07	4.3227e-07	261.5	96.278	30.223	9.0407	4.1202e-07	40.318	-76.737	-46.079	1.654	-84.540	68.147	45.494	-84.355	-79.665	102.108	90.673	-80.357	-75.660	-75.121	-70.760	76.220	-71.687	-8191	255	
2213.593	1	1	0	0	0.042525	0.4016	0.185	0.18781	0.10428	0.075269	0.22977	0.077522	0.25219	0.13526	0.18741	0.10747	0.19225	0.083055	0.023712	0.30707	-1.7563	-2.6417	-2.3833	-2.3396	-2.6896	-2.2062	-2.6292	-2.6792	-1.9771	-2.5625	-2.4562	-2.1542	-2.6021	-2.3792	-2.2042	-2.7646	-95.791	-90.014	-69.941	248.171	210.875	-13.704	155.455	98.618	236.162	96.263	195.510	95.717	237.778	143.134	-70.048	181.364	0.00019579	0.00045024	8.4146e-05	612.36	4.0963e-06	2.8574e-06	846.97	132.96	1.6541e-06	4.1857e-06	293.16	107.21	33.782	10.099	3.7007e-06	45.496	6.0486e-05	3.7468e-05	1.0209e-05	540.92	4.2909e-07	4.3485e-07	751.04	117.89	4.2503e-07	4.389e-07	257.65	95.556	30.08	8.9797	4.2821e-07	40.384	-74.275	-52.713	-27.141	-84.698	57.131	34.081	-83.970	-79.893	90.924	64.758	-79.929	-75.530	-75.715	-70.939	59.270	-72.000	-8191	255	
2213.690	1	1	0	0	0.2017	0.042807	0.049004	0.21714	0.037947	0.27342	0.17694	0.207	0.056067	0.18045	0.21352	0.28011	0.27646	0.083242	0.17057	0.079235	-1.8583	-2.5875	-2.6146	-2.2313	-2.5563	-2.2833	-2.3083	-2.6625	-2.0833	-2.3854	-2.6271	-2.0979	-2.6125	-2.3104	-2.3625	-2.6625	15.060	209.393	226.733	55.906	58.654	14.152	205.679	-74.958	10.697	199.694	-54.484	262.258	244.978	132.494	144.349	162.355	0.0001666	0.00026369	8.6475e-05	612.91	4.6931e-06	2.745e-06	844.78	133.78	2.0108e-06	2.4847e-06	291.17	107.73	33.835	10.135	4.7468e-06	45.657	5.8191e-05	4.0054e-05	1.0282e-05	541	4.5559e-07	3.8094e-07	750.28	118.81	4.2419e-07	4.0953e-07	258.54	95.728	30.13	9.0297	4.1435e-07	40.497	-72.404	-29.867	-1.005	-84.714	19.951	65.513	-84.487	-79.654	65.921	77.637	-80.499	-75.501	-75.806	-71.082	50.394	-72.012	-8191	255	
2213.810	1	1	0	0	0.20077	0.10294	0.076817	0.35825	0.34716	0.18809	0.059678	0.21695	0.24427	0.13919	0.21488	0.14175	0.077318	0.22405	0.16943	0.33625	-1.7437	-2.4271	-2.4354	-2.1042	-2.7729	-2.4646	-2.4417	-2.8417	-2.3083	-2.4625	-2.6333	-2.2562	-2.5187	-2.45	-2.3229	-2.9917	175.251	198.990	77.998	249.746	153.731	-85.719	142.517	-58.909	224.242	-23.102	195.776	81.430	94.336	-11.282	-40.664	219.120	0.00017057	0.00022475	8.3224e-05	614.99	4.6824e-06	1.5207e-06	847.92	137.17	1.0466e-06	9.2499e-07	294.96	108.06	33.754	10.185	3.7691e-06	45.785	5.8859e-05	3.8642e-05	1.0887e-05	544.39	4.5778e-07	4.1214e-07	757.25	121.29	4.2599e-07	4.1496e-07	261.19	96.396	30.173	9.086	4.4519e-07	40.724	-85.681	-23.464	15.512	-84.560	68.244	14.691	-84.129	-80.192	42.320	131.677	-79.995	-75.766	-75.590	-71.007	68.619	-72.006	-8191	255	
2213.906	1	1	0	0	0.086963	0.071436	0.053372	0.30333	0.25453	0.03172	0.071046	0.084967	0.29617	0.095216	0.095179	0.083731	0.044288	0.11055	0.2769	0.088434	-1.9562	-2.575	-2.5729	-2.1833	-2.4688	-2.5771	-2.4479	-2.7125	-2.3438	-2.4813	-2.7604	-2.2604	-2.6979	-2.5438	-2.0646	-2.9021	3.988	-54.183	-87.137	-45.830	-90.137	-65.056	-81.850	244.379	88.934	170.468	116.736	121.092	67.261	92.065	67.134	248.133	0.00015874	0.00040278	9.3129e-05	613.24	2.5611e-06	1.8254e-06	861.42	138.13	3.4067e-06	2.8184e-06	297.83	109.18	33.807	10.067	4.7027e-06	45.725	6.0352e-05	4.087e-05	9.7369e-06	546.11	4.2174e-07	3.8293e-07	762.46	122.22	4.292e-07	4.0793e-07	263.71	96.861	30.32	9.068	4.131e-07	40.891	-71.894	-14.161	-27.747	-84.668	19.783	45.247	-84.564	-79.939	64.209	65.407	-80.103	-75.302	-75.134	-70.852	63.234	-72.117	-8191	255	
2214.003	1	1	0	0	0.13662	0.16986	0.3138	0.082415	0.25967	0.062469	0.15099	0.19971	0.12549	0.21219	0.15358	0.11274	0.11857	0.11029	0.1141	0.13418	-1.9146	-2.2313	-2.6083	-2.3625	-2.4562	-2.6583	-2.3167	-2.7	-2.3583	-2.3146	-2.7792	-2.2604	-2.7604	-2.4229	-2.2833	-2.7062	6.391	68.621	246.148	-79.613	208.806	174.909	145.463	-72.589	-77.890	249.844	200.272	168.711	7.391	228.740	132.284	261.971	0.00019377	0.00048094	8.7059e-05	618.5	3.3329e-06	2.9385e-06	865.56	138.83	2.325e-06	2.4854e-06	300.19	108.94	34.117	10.234	2.405e-06	45.905	6.0318e-05	3.8979e-05	9.9898e-06	546.57	4.1236e-07	3.9728e-07	766.08	122.8	4.3258e-07	4.0782e-07	265.08	97.24	30.447	9.1768	4.2861e-07	40.881	-68.908	-9.683	-3.176	-84.785	10.933	65.452	-84.068	-80.035	77.476	45.306	-80.350	-75.980	-76.256	-71.250	40.177	-71.595	-8191	255	
2214.074	1	1	0	0	0.16308	0.10116	0.13236	0.10181	0.085782	0.12743	0.19984	0.19369	0.15175	0.24007	0.15861	0.15236	0.13617	0.17072	0.16073	0.23783	-1.9458	-2.3271	-2.7083	-2.4625	-2.5792	-2.5917	-2.4458	-2.5979	-2.5708	-2.2417	-2.7229	-2.3021	-2.5187	-2.5083	-1.9792	-2.675	-96.980	143.349	-19.023	191.055	197.456	32.720	164.611	-61.933	68.970	-22.840	206.736	205.594	37.279	203.438	-58.516	-66.764	0.00015606	0.00034729	7.3656e-05	617.72	9.1145e-07	5.2234e-06	865.77	139.34	2.7037e-06	3.0902e-06	302.29	108.65	34.41	10.286	4.1529e-06	45.769	5.8052e-05	3.7925e-05	1.0617e-05	547.49	4.7367e-07	4.225e-07	767.45	123.81	4.3376e-07	4.0376e-07	267.09	97.245	30.717	9.2011	3.9146e-07	40.919	-72.961	-48.812	-28.545	-84.569	31.223	48.983	-84.717	-79.717	90.725	73.858	-80.215	-75.609	-75.568	-71.027	72.959	-71.755	-8191	255	
2214.193	1	1	0	0	0.31777	0.12412	0.074028	0.15131	0.27682	0.085463	0.30085	0.22423	0.3562	0.12788	0.077672	0.22117	0.25263	0.11337	0.17738	0.19345	-2.1354	-2.2167	-2.6854	-2.4917	-2.4021	-2.8167	-2.4229	-2.5271	-2.5542	-2.4542	-2.7	-2.4271	-2.4104	-2.5708	-2.225	-2.6	45.224	-18.675	221.070	257.657	119.127	257.440	226.332	-76.802	61.101	144.289	53.580	181.204	251.292	149.213	-64.851	-75.978	0.00016818	0.00044252	0.00010705	618.89	1.5897e-06	4.3098e-06	865.36	139.12	7.3972e-07	1.8193e-06	301.49	108.53	34.245	10.137	3.5303e-06	46.245	5.8139e-05	4.1264e-05	1.0543e-05	548.43	4.3319e-07	4.0109e-07	766.62	123.28	4.3162e-07	4.257e-07	266.79	97.282	30.742	9.1996	4.3855e-07	41.194	-79.000	-0.656	14.097	-84.561	40.040	43.868	-84.316	-79.799	35.619	74.979	-79.957	-75.684	-75.432	-71.216	63.755	-72.124	-8191	255	
2214.289	1	1	0	0	0.11154	0.14776	0.12732	0.21435	0.26209	0.032812	0.27078	0.12512	0.18649	0.17988	0.30395	0.13423	0.12783	0.13125	0.095991	0.052781	-2.0292	-2.225	-2.7958	-2.4021	-2.2792	-2.8125	-2.4396	-2.4354	-2.5187	-2.0458	-2.8354	-2.475	-2.2687	-2.8688	-2.4458	-2.4208	5.282	150.665	84.400	206.418	230.233	108.162	173.130	-38.871	244.127	194.265	-95.997	111.436	187.802	86.569	10.981	-0.809	0.00016768	0.00024279	7.5205e-05	619.24	4.6241e-06	2.0149e-06	868.52	139.18	1.314e-06	2.1239e-06	305.03	109.84	34.621	10.374	3.3381e-06	46.918	5.8988e-05	3.9504e-05	1.0064e-05	549.11	4.2354e-07	3.6665e-07	770.37	123.61	4.2267e-07	4.077e-07	268.85	97.911	30.882	9.2504	4.1594e-07	41.605	-71.975	-11.260	-39.649	-84.861	27.730	54.121	-84.170	-79.782	138.727	95.032	-80.267	-75.316	-75.735	-70.589	63.061	-71.977	-8191	255	
2214.385	1	1	0	0	0.11485	0.14766	0.1098	0.31409	0.27734	0.059169	0.076232	0.32148	0.10237	0.055267	0.11156	0.21936	0.18547	0.1273	0.18566	0.30423	-2.0687	-2.2354	-2.5708	-2.6562	-2.2771	-2.6646	-2.3792	-2.5125	-2.6208	-2.2104	-2.7271	-2.4146	-2.2958	-2.7313	-2.2604	-2.3854	39.228	199.790	246.788	-91.025	231.563	-30.645	49.952	-18.471	5.420	39.784	229.685	249.139	242.231	119.868	138.677	185.860	0.00018586	0.00032708	8.7012e-05	624.9	3.7294e-06	2.7454e-06	868.62	140.62	1.6769e-06	2.7343e-06	303.1	109.23	34.408	10.294	2.2104e-06	46.5	5.9622e-05	3.8683e-05	1.1172e-05	552.8	4.4201e-07	3.8549e-07	771.39	124.48	4.234e-07	4.2313e-07	267.51	97.457	30.78	9.1904	4.1895e-07	41.296	-71.361	-33.973	-21.817	-84.628	70.118	30.087	-84.588	-80.115	63.257	81.635	-79.836	-75.568	-75.826	-71.151	110.601	-71.932	-8191	255	
2214.482	1	1	0	0	0.10216	0.049669	0.18034	0.24949	0.22737	0.049881	0.13275	0.30879	0.18761	0.40011	0.17939	0.12443	0.093399	0.15537	0.16376	0.22654	-2.1854	-2.1208	-2.5875	-2.7958	-2.175	-2.5208	-2.6292	-2.4562	-2.6771	-2.0854	-2.6979	-2.6	-2.2	-2.65	-2.5146	-2.2958	125.025	72.655	-43.796	196.240	129.917	-59.766	208.413	203.741	88.631	205.986	-96.372	0.915	112.603	-68.873	-45.671	242.314	0.00021277	0.00031291	6.0017e-05	624.91	2.8085e-06	3.0201e-06	873.12	141.48	2.5163e-06	3.3451e-06	303.78	109.85	34.507	10.241	2.8958e-06	46.386	6.0659e-05	3.9618e-05	1.0311e-05	552.34	4.3454e-07	4.061e-07	775.53	125.08	4.3241e-07	4.0485e-07	269.39	98.002	30.858	9.1599	4.2236e-07	41.168	-76.543	-12.559	-23.434	-84.816	46.829	37.270	-84.429	-79.531	91.372	31.711	-79.882	-75.717	-75.386	-70.847	53.259	-71.924	-8191	255	
2214.602	1	1	0	0	0.15542	0.18393	0.27636	0.23101	0.27906	0.14641	0.18327	0.34203	0.12007	0.21665	0.27046	0.18735	0.21263	0.18	0.39179	0.14515	-2.3187	-2.3083	-2.4229	-2.7021	-2.2646	-2.6708	-2.6104	-2.3542	-2.7062	-2.4375	-2.6375	-2.7479	-2.2542	-2.625	-2.3187	-2.325	-66.431	130.920	134.974	187.830	-16.340	-80.562	229.740	7.710	148.152	156.046	237.038	140.187	257.645	-78.678	3.118	249.946	0.00020794	0.00036583	7.0481e-05	618.69	1.5224e-06	9.9056e-07	877.21	142.26	1.7264e-06	3.0539e-06	304.51	109.49	34.207	10.296	2.8075e-06	46.3	5.8297e-05	4.088e-05	1.06e-05	550.1	4.6996e-07	4.118e-07	777.18	125.9	4.0657e-07	4.1433e-07	270.94	97.827	30.788	9.2219	4.3752e-07	41.335	-78.287	-27.613	8.956	-84.481	62.503	54.899	-84.332	-79.803	89.624	56.270	-80.036	-76.081	-76.075	-71.581	52.294	-72.033	-8191	255	
2214.698	1	1	0	0	0.14856	0.19336	0.27222	0.13676	0.077017	0.11181	0.31465	0.24274	0.24205	0.25923	0.17932	0.28727	0.12105	0.24178	0.065447	0.082348	-2.2833	-2.4208	-2.4771	-2.7104	-2.3021	-2.6583	-2.4208	-2.4021	-2.6271	-2.2771	-2.425	-2.8771	-2.3187	-2.7521	-2.4979	-2.3396	-3.535	83.588	238.331	186.849	58.466	-11.335	200.783	33.225	120.554	171.342	116.822	226.120	59.469	168.474	34.703	255.710	0.00018625	0.00027134	7.9323e-05	621.63	2.7898e-06	1.8891e-06	880.1	141.22	2.0098e-06	3.8559e-06	307.33	110.19	34.53	10.309	4.8553e-06	46.547	5.859e-05	3.6056e-05	1.0149e-05	551.77	4.5728e-07	4.3639e-07	777.9	125.13	4.2605e-07	4.1759e-07	272.29	98.283	30.857	9.2177	3.9765e-07	41.322	-72.505	9.378	1.796	-84.975	61.607	84.161	-84.515	-79.622	87.035	68.240	-80.103	-75.577	-75.957	-71.017	63.641	-71.916	-8191	255	
2214.770	1	1	0	0	0.23787	0.12744	0.33457	0.15129	0.19323	0.17286	0.13777	0.23846	0.16242	0.11811	0.098519	0.15038	0.068165	0.19015	0.089045	0.15383	-2.4042	-2.25	-2.1979	-2.6958	-2.2375	-2.5854	-2.6021	-2.1437	-2.475	-2.2521	-2.3979	-2.7083	-2.1417	-2.3354	-2.5333	-2.3625	240.309	-87.698	105.745	-13.046	46.629	88.545	184.788	188.186	-34.576	41.045	138.877	183.984	180.662	241.213	20.407	195.432	0.00017342	0.00037591	8.1486e-05	620.17	1.3029e-06	4.409e-06	868.48	138.69	1.4329e-06	3.2904e-06	306.88	110.38	34.277	10.251	2.0237e-06	46.462	5.8081e-05	4.1737e-05	1.1226e-05	548.45	4.36e-07	4.0923e-07	771.32	123.55	4.1547e-07	4.3107e-07	269.84	97.998	30.921	9.1234	4.1867e-07	41.354	-71.521	-26.138	-1.751	-84.638	72.765	32.993	-84.457	-79.740	55.642	44.124	-79.817	-75.494	-75.436	-71.173	64.807	-72.050	-8191	255	
2214.891	1	1	0	0	0.2586	0.05977	0.17569	0.05377	0.23408	0.18687	0.10812	0.19534	0.12509	0.096888	0.31936	0.11631	0.095599	0.14095	0.062305	0.21257	-2.1979	-2.2583	-2.1688	-2.6813	-2.3083	-2.4708	-2.6979	-2.3875	-2.65	-2.3833	-2.3958	-2.8854	-2.4062	-2.4188	-2.7438	-2.2313	-14.136	-53.450	185.917	-45.137	39.496	-57.608	135.175	205.696	3.877	69.556	158.685	126.850	15.816	11.461	-92.224	181.002	0.00015935	0.00030001	8.6246e-05	620.4	3.354e-06	1.4044e-06	874.33	140.88	2.2733e-06	2.4035e-06	307.16	109.84	34.461	10.458	3.1707e-06	46.506	6.2781e-05	3.847e-05	1.1093e-05	550.73	4.2842e-07	3.9386e-07	777.73	125.23	4.3061e-07	3.9959e-07	272.11	97.988	30.799	9.284	4.3997e-07	41.483	-79.346	-29.979	-10.847	-84.595	36.193	-12.159	-84.196	-80.005	49.212	122.451	-79.972	-75.415	-76.150	-70.411	58.844	-71.433	-8191	255	
2214.987	1	1	0	0	0.19719	0.14417	0.089897	0.12263	0.16765	0.076069	0.12794	0.20473	0.1039	0.19458	0.19672	0.24045	0.35206	0.20038	0.098404	0.15997	-2.1479	-2.3104	-2.1396	-2.75	-2.2604	-2.2417	-2.6292	-2.1312	-2.6854	-2.5563	-2.2	-2.8396	-2.3292	-2.3625	-2.5771	-2.3104	-6.362	157.803	200.648	210.328	116.535	191.747	222.115	167.474	-90.207	-79.343	201.929	261.847	110.456	-93.737	122.295	216.542	0.00017065	0.00052416	8.9163e-05	619.8	2.4556e-06	1.8706e-06	876.32	141.18	1.5606e-06	2.2592e-06	309.23	111.95	34.64	10.216	3.6218e-06	46.956	5.9939e-05	4.0376e-05	1.084e-05	549.62	4.3544e-07	4.3696e-07	779.48	125.75	4.3218e-07	3.7679e-07	273.09	98.849	31.011	9.2027	4.4786e-07	41.659	-79.621	-26.233	-13.383	-84.521	113.897	51.132	-84.446	-79.899	111.473	44.098	-79.926	-75.985	-75.463	-70.789	59.646	-71.484	-8191	255	
2215.083	1	1	0	0	0.18046	0.032736	0.27257	0.26672	0.21005	0.10887	0.14111	0.1358	0.089726	0.27466	0.19835	0.12736	0.26376	0.15437	0.21405	0.12752	-2.0271	-2.5208	-2.1729	-2.8125	-2.3458	-2.4188	-2.7354	-2.2271	-2.4167	-2.4854	-2.1542	-2.6271	-2.4375	-2.2958	-2.6708	-2.3438	221.917	-55.668	196.649	-97.898	12.869	241.877	172.804	-51.105	195.264	246.348	247.599	31.173	29.678	101.525	108.154	206.168	0.00014741	0.00020565	5.9773e-05	623.54	1.7833e-06	1.5926e-06	880.74	140.99	1.553e-06	4.6003e-06	309.33	109.84	34.765	10.243	2.39e-06	46.259	6.1014e-05	3.9291e-05	9.7152e-06	553.29	4.5267e-07	4.1743e-07	779.98	125.78	4.5644e-07	4.2239e-07	273.16	98.135	30.978	9.1924	4.1412e-07	41.3	-76.017	-11.562	-45.137	-84.700	108.921	77.692	-84.564	-80.108	46.793	85.345	-80.174	-75.397	-75.250	-70.523	73.131	-71.663	-8191	255	
2215.179	1	1	0	0	0.1694	0.11332	0.072868	0.062852	0.079816	0.22252	0.11272	0.4254	0.23093	0.16018	0.11402	0.077311	0.24328	0.12031	0.095366	0.13302	-1.8438	-2.3708	-2.0625	-2.6292	-2.3583	-2.35	-2.6979	-2.2938	-2.5604	-2.6021	-2.1688	-2.6167	-2.3958	-2.2	-2.7146	-2.3417	260.492	83.525	-39.088	240.368	209.731	233.262	151.288	138.923	24.506	46.080	-64.633	-22.357	75.106	151.440	-16.662	98.609	0.00018629	0.00037793	7.7478e-05	622.47	4.4137e-06	2.0255e-06	884.32	142.66	1.8486e-06	2.4691e-06	309.88	110.64	34.601	10.274	3.2539e-06	46.651	5.8172e-05	3.7053e-05	1.0806e-05	551.51	4.2982e-07	4.2244e-07	780.09	126.84	4.4248e-07	3.7839e-07	273.81	98.557	31.103	9.2218	4.131e-07	41.41	-66.650	-40.409	-39.008	-84.654	52.681	16.193	-84.364	-79.887	54.250	91.424	-79.745	-75.599	-75.712	-70.271	32.936	-72.183	-8191	255	
2215.298	1	1	0	0	0.31028	0.086792	0.1431	0.1947	0.16426	0.047455	0.30489	0.15932	0.060078	0.053732	0.24301	0.20066	0.093722	0.07041	0.22411	0.11137	-2.2062	-2.5312	-2.3479	-2.6146	-2.5083	-2.3271	-2.7396	-2.4062	-2.4729	-2.7458	-2.2021	-2.5687	-2.5583	-2.0438	-2.7521	-2.4771	177.935	139.070	97.349	259.560	63.989	117.870	176.418	113.959	31.454	-83.353	215.263	164.727	68.356	-85.309	41.979	57.733	0.00021338	0.00042098	0.00010685	625.33	3.4843e-06	2.7792e-06	879.89	140.25	1.7667e-06	3.8024e-06	308.36	110.1	34.606	10.233	4.0117e-06	46.296	6.2714e-05	3.5998e-05	1.0728e-05	551.24	4.2511e-07	4.1903e-07	780.28	125.38	4.5104e-07	4.0045e-07	272.16	98.517	30.942	9.206	3.989e-07	41.341	-73.672	-22.379	-1.858	-84.599	104.852	36.301	-84.142	-79.904	63.787	75.367	-79.687	-75.769	-75.943	-70.607	85.106	-71.685	-8191	255	
2215.370	1	1	0	0	0.14608	0.22581	0.087656	0.08052	0.18532	0.066521	0.26773	0.13379	0.15078	0.081754	0.097766	0.27062	0.17125	0.11829	0.3241	0.1603	-1.8667	-2.6542	-2.325	-2.475	-2.4646	-2.1854	-2.7583	-2.5604	-2.2625	-2.8667	-2.4896	-2.5604	-2.5521	-2.1958	-2.7625	-2.5187	-91.447	6.293	92.094	177.000	87.767	58.994	-78.046	-63.017	172.193	-18.606	97.516	97.465	-22.491	80.868	1.776	162.055	0.00015399	0.0002338	8.3126e-05	619.05	2.3249e-06	2.7188e-06	872.5	139.17	2.2839e-06	2.8835e-06	304.1	109.85	34.601	10.374	1.8761e-06	46.062	6.0088e-05	3.6705e-05	9.9002e-06	548.18	4.264e-07	3.8082e-07	775.72	123.55	4.2318e-07	3.8725e-07	268.78	97.944	30.859	9.1971	4.3162e-07	41.074	-76.581	-36.256	-17.916	-84.972	-33.512	57.764	-84.357	-79.754	98.836	79.095	-80.072	-75.406	-75.569	-70.484	10.700	-72.001	-8191	255	
2215.490	1	1	0	0	0.139	0.25107	0.1105	0.089359	0.082915	0.22577	0.28695	0.25772	0.17066	0.08978	0.03825	0.10259	0.081841	0.097824	0.21378	0.14345	-1.8937	-2.65	-2.3542	-2.5646	-2.6354	-2.3104	-2.6167	-2.4979	-2.1375	-2.7896	-2.3833	-2.4625	-2.65	-2.2542	-2.7479	-2.6146	248.905	41.878	80.535	230.358	55.496	141.024	214.756	101.964	103.451	109.583	143.848	-4.788	216.990	96.643	-44.788	-83.950	0.00018217	0.0003468	5.4774e-05	614.5	2.5153e-06	3.1145e-06	869.87	138.52	2.074e-06	1.9238e-06	299.25	108.43	33.856	10.084	1.841e-06	45.812	5.6943e-05	3.9597e-05	9.7976e-06	546.83	4.1657e-07	3.9756e-07	768.38	122.57	4.3083e-07	4.0902e-07	265.69	97.093	30.33	9.0547	4.0367e-07	40.812	-76.086	-11.201	16.247	-84.741	30.650	32.462	-83.996	-79.763	46.059	42.749	-80.276	-75.737	-75.625	-70.705	71.420	-71.705	-8191	255	
2215.586	1	1	0	0	0.17755	0.13778	0.17157	0.17462	0.20532	0.022406	0.1698	0.039401	0.25037	0.083312	0.16675	0.20538	0.12614	0.19502	0.098901	0.14369	-1.7458	-2.5375	-2.3208	-2.4125	-2.6083	-2.2854	-2.5917	-2.6146	-2.2958	-2.7708	-2.5375	-2.4562	-2.8458	-2.3521	-2.4542	-2.7417	-97.315	11.263	152.223	175.581	170.000	-94.632	-13.779	12.413	186.338	10.218	141.121	143.221	251.143	92.655	-83.903	9.300	0.00018065	0.00035755	7.338e-05	617.21	2.6791e-06	2.2981e-06	854.59	135.54	2.9167e-06	2.6157e-06	296.81	108.71	33.671	10.031	2.0594e-06	45.717	5.8417e-05	3.4653e-05	1.029e-05	545.3	4.1113e-07	4.2694e-07	760.97	120.7	3.701e-07	3.8222e-07	262.97	96.739	30.197	9.0077	3.8641e-07	40.566	-72.425	-17.714	-29.949	-84.869	98.368	31.324	-84.302	-79.972	18.162	81.203	-80.094	-75.730	-76.605	-71.084	82.042	-71.868	-8191	255	
2215.683	1	1	0	0	0.083296	0.067109	0.18864	0.11178	0.28143	0.22969	0.20972	0.16148	0.057222	0.10426	0.22088	0.3355	0.04346	0.17112	0.091242	0.17495	-1.7792	-2.5979	-2.3458	-2.3521	-2.6979	-2.325	-2.5729	-2.5563	-2.2562	-2.5396	-2.5604	-2.2604	-2.6542	-2.3104	-2.3417	-2.7271	162.650	240.066	12.873	222.114	47.186	-73.494	244.874	188.890	-72.758	140.168	91.179	194.382	211.382	225.590	-9.946	-51.825	0.0001979	0.00025544	8.1041e-05	607.75	2.1669e-06	1.668e-06	855.94	134.76	2.0994e-06	2.3968e-06	294.7	108.19	32.786	9.9818	3.8347e-06	45.381	5.7625e-05	3.5993e-05	9.5851e-06	538.87	4.2651e-07	4.176e-07	761.19	119.78	4.4119e-07	4.2267e-07	262.34	96.751	29.771	8.9721	3.8743e-07	40.527	-66.937	-8.548	-21.451	-84.703	91.486	21.566	-84.005	-79.879	57.520	51.927	-80.309	-75.281	-75.466	-70.320	81.698	-71.841	-8191	255	
2215.779	1	1	0	0	0.20878	0.28008	0.12121	0.24819	0.22414	0.30004	0.23111	0.070336	0.18856	0.22987	0.19507	0.12341	0.33591	0.1576	0.23784	0.12573	-1.7042	-2.5687	-2.5042	-2.4125	-2.6792	-2.3667	-2.3875	-2.4062	-2.3146	-2.6208	-2.4229	-2.2542	-2.6042	-2.5	-2.3896	-2.7917	141.432	76.760	78.845	223.411	81.863	1.284	196.396	61.319	99.918	127.793	188.918	58.521	163.212	15.676	22.638	-12.801	0.00017267	0.00023062	4.7738e-05	607.62	2.2398e-06	2.7517e-06	853.98	136.52	1.205e-06	3.4902e-06	298.65	108.53	33.451	10.055	4.3363e-06	45.591	5.7995e-05	3.5811e-05	1.0121e-05	540.85	4.3257e-07	3.9722e-07	761.76	121.2	4.3106e-07	3.9799e-07	264.65	96.417	30.083	8.9328	4.3468e-07	40.499	-63.705	-81.337	13.905	-84.350	46.944	27.443	-84.208	-79.739	-13.605	28.632	-80.197	-75.834	-76.073	-71.175	67.736	-72.194	-8191	255	
2215.899	1	1	0	0	0.14209	0.15787	0.23985	0.25964	0.22491	0.14854	0.18243	0.029049	0.096144	0.19136	0.22919	0.34548	0.11515	0.086642	0.083704	0.10439	-1.8917	-2.4875	-2.5542	-2.2396	-2.7292	-2.3146	-2.7271	-2.8125	-2.25	-2.5771	-2.4688	-2.2729	-2.7229	-2.3792	-2.4021	-2.8604	26.713	158.335	254.249	203.779	-62.309	247.391	188.197	-88.518	-69.661	-48.506	198.118	163.447	97.332	9.782	-62.992	169.950	0.0002141	0.0003643	0.0001182	611.2	2.1266e-06	3.8913e-06	854.06	136.09	1.5542e-06	4.0319e-06	297.95	108.75	33.764	10.045	2.8729e-06	46.155	5.9147e-05	3.5931e-05	1.0786e-05	539.62	4.177e-07	3.979e-07	761.52	121.28	4.3877e-07	3.9136e-07	264.54	96.785	30.318	9.0172	4.2543e-07	40.802	-73.579	-24.203	-9.643	-84.474	45.224	58.923	-84.205	-79.398	50.431	83.701	-80.401	-75.487	-75.967	-70.648	53.601	-71.884	-8191	255	
2215.995	1	1	0	0	0.13829	0.062076	0.19587	0.33755	0.15975	0.055409	0.13679	0.26337	0.2756	0.31961	0.172	0.19115	0.092579	0.079351	0.14567	0.17285	-1.8604	-2.7125	-2.4021	-2.3354	-2.5833	-2.4979	-2.3438	-2.8646	-2.2562	-2.3917	-2.8708	-2.4542	-2.7021	-2.2646	-2.2917	-2.7229	-37.011	-45.784	162.943	-80.272	70.639	258.565	190.998	243.166	171.085	-16.661	0.498	248.697	-14.622	136.351	110.500	210.885	0.00020282	0.00044016	6.5958e-05	611.9	2.304e-06	3.3532e-06	860.65	137.17	3.0533e-06	3.4063e-06	300.37	108.8	33.907	10.01	4.3032e-06	45.667	5.8844e-05	3.8398e-05	9.6213e-06	542.35	4.4015e-07	3.8339e-07	763.27	121.49	4.3809e-07	4.1696e-07	265.71	97.1	30.364	8.9919	4.1316e-07	40.679	-75.049	-22.697	-46.703	-84.588	66.804	39.178	-84.169	-80.227	42.026	77.484	-80.148	-75.704	-76.223	-70.938	0.711	-72.019	-8191	255	
2216.067	1	1	0	0	0.099782	0.19483	0.14511	0.033667	0.1434	0.18218	0.20386	0.13094	0.012631	0.074868	0.048191	0.095471	0.16113	0.15851	0.26892	0.12841	-1.775	-2.5354	-2.7083	-2.2562	-2.4708	-2.5604	-2.3354	-2.8	-2.0521	-2.3979	-2.5625	-2.2313	-2.4437	-2.6083	-2.1958	-2.7167	10.574	111.452	146.933	261.650	237.919	241.596	213.720	260.104	69.440	31.312	-82.467	-90.753	-56.808	54.824	39.551	244.323	0.00015543	0.00051836	9.1883e-05	609.4	2.7882e-06	2.6288e-06	867.5	138.52	1.4994e-06	2.0117e-06	302.07	109.21	33.931	10.271	2.9157e-06	45.465	5.8484e-05	3.7982e-05	1.1308e-05	541.53	4.3022e-07	4.1994e-07	771.32	122.85	4.2442e-07	3.9576e-07	267.56	97.372	30.422	9.0706	4.2446e-07	40.602	-68.500	-18.306	-10.519	-84.376	65.472	38.357	-84.095	-79.562	47.752	88.770	-80.325	-75.338	-76.007	-71.082	55.662	-71.974	-8191	255	
2216.163	1	1	0	0	0.052729	0.27988	0.13408	0.37911	0.13042	0.0049413	0.082712	0.2039	0.048685	0.14413	0.091078	0.12643	0.263	0.15491	0.21692	0.1094	-1.8729	-2.3042	-2.6521	-2.1354	-2.4625	-2.5625	-2.3896	-2.6354	-2.4292	-2.1771	-2.8646	-2.1542	-2.4146	-2.5583	-2.4313	-2.6958	52.070	-26.539	98.378	210.245	43.852	10.889	65.938	-70.658	-85.016	-85.989	-55.486	227.379	61.029	-5.356	145.553	154.395	0.00016301	0.00018827	5.0112e-05	607.56	2.9641e-06	3.869e-06	859.72	137.16	1.2413e-06	1.1607e-06	302.96	109.61	33.769	10.216	2.574e-06	45.695	5.9118e-05	4.0028e-05	1.0205e-05	539.72	4.4605e-07	4.1686e-07	765.1	122.71	3.9875e-07	4.4215e-07	268.31	97.358	30.523	9.0529	4.1549e-07	40.776	-71.852	-24.922	-10.909	-84.740	60.191	30.199	-84.238	-79.556	25.743	70.476	-80.204	-75.654	-75.896	-70.950	70.777	-71.939	-8191	255	
2216.259	1	1	0	0	0.073109	0.059863	0.22058	0.24012	0.17553	0.13774	0.042718	0.35236	0.21491	0.145	0.27647	0.19322	0.16762	0.30254	0.076813	0.31647	-1.8396	-2.275	-2.7438	-2.2833	-2.4688	-2.5896	-2.2583	-2.5833	-2.5062	-2.1312	-2.8729	-2.4417	-2.5938	-2.5792	-2.3125	-2.5854	45.637	72.804	-22.371	232.568	220.729	79.249	218.971	-46.548	-9.310	-96.727	199.784	203.027	98.825	252.282	243.541	239.094	0.00018561	0.00037682	0.00013466	608.13	3.3059e-06	3.317e-06	870.77	140.13	4.8986e-07	3.929e-06	303.47	109.23	34.576	10.158	1.2319e-06	46.291	5.8585e-05	3.953e-05	1.1254e-05	541.27	4.6143e-07	4.0747e-07	767.99	123.71	4.5683e-07	4.0256e-07	268.77	97.445	30.766	9.109	4.1702e-07	41.027	-71.494	13.102	-17.728	-84.368	46.470	18.771	-84.261	-79.796	46.238	52.403	-80.053	-75.481	-75.838	-70.727	68.537	-71.872	-8191	255	
2216.378	1	1	0	0	0.053853	0.096735	0.06017	0.26423	0.21965	0.049394	0.024846	0.074756	0.24902	0.1706	0.1657	0.16002	0.10526	0.091969	0.29031	0.37198	-1.9917	-2.1604	-2.6646	-2.475	-2.4521	-2.7146	-2.2542	-2.5542	-2.6708	-2.1625	-2.8292	-2.5875	-2.3833	-2.6542	-2.2625	-2.6521	76.375	-16.121	203.417	227.454	46.295	45.474	44.539	68.289	-48.549	147.388	86.719	-94.354	154.869	110.291	154.030	174.196	0.00015547	0.00044326	3.9319e-05	610.49	2.7731e-06	1.5361e-06	875.91	140.58	2.4879e-06	2.3315e-06	309.89	110.46	34.638	10.448	3.5452e-06	46.846	5.9296e-05	3.9919e-05	1.1396e-05	543.04	4.4936e-07	4.106e-07	774.01	125.25	4.5408e-07	4.349e-07	273.61	98.525	31.041	9.2694	4.0884e-07	41.486	-79.018	-31.828	-22.340	-84.264	54.473	27.634	-84.436	-79.637	72.292	53.953	-80.231	-75.313	-75.683	-71.294	46.414	-71.988	-8191	255	
2216.474	1	1	0	0	0.18299	0.10559	0.22361	0.17651	0.11666	0.047935	0.10001	0.054835	0.2156	0.083663	0.34556	0.17972	0.17346	0.14506	0.28603	0.3075	-2.2479	-2.2313	-2.8333	-2.5833	-2.4542	-2.7375	-2.55	-2.4625	-2.4292	-2.3833	-2.8083	-2.5646	-2.3937	-2.6458	-2.4313	-2.6979	181.900	226.604	157.158	254.423	115.878	140.483	-63.016	81.591	18.343	152.183	242.687	140.820	-38.958	-86.170	239.655	190.858	0.00017119	0.00027608	4.4964e-05	613.83	2.9988e-06	3.6522e-06	876.04	141	2.4859e-06	2.0691e-06	308.92	110.56	34.485	10.336	2.5123e-06	46.52	5.799e-05	3.8424e-05	1.1121e-05	545.42	4.4021e-07	4.209e-07	775.23	125.58	4.3894e-07	4.285e-07	273.83	98.293	30.887	9.1975	4.3605e-07	41.361	-73.399	-13.774	-15.412	-84.412	23.014	54.541	-84.209	-79.902	72.706	54.013	-80.238	-75.853	-75.925	-71.357	83.745	-72.047	-8191	255	
2216.571	1	1	0	0	0.095346	0.14661	0.20845	0.10222	0.11848	0.081737	0.17041	0.12959	0.083654	0.2813	0.13637	0.23085	0.11742	0.035674	0.18212	0.15821	-2.2667	-2.1333	-2.6917	-2.5542	-2.3042	-2.8208	-2.4188	-2.3292	-2.6542	-2.2417	-2.5354	-2.7896	-2.2458	-2.7188	-2.2896	-2.6646	-22.188	247.074	20.898	252.947	63.464	207.593	160.973	21.293	110.521	111.867	212.595	-93.070	-89.721	-70.628	151.264	70.601	0.00019343	0.00032447	6.5008e-05	613.29	3.3025e-06	3.1508e-06	872.02	141.6	1.9555e-06	3.9951e-06	310.9	110.62	34.645	10.242	3.1976e-06	46.489	6.2258e-05	4.0049e-05	1.1101e-05	543.9	4.6385e-07	4.4909e-07	773.93	125.47	4.4704e-07	4.0799e-07	273.63	98.58	31.131	9.222	4.3911e-07	41.346	-70.144	-34.355	-29.269	-84.601	67.743	6.204	-84.436	-79.239	120.620	52.997	-79.977	-75.856	-75.617	-70.989	58.511	-71.696	-8191	255	
2216.667	1	1	0	0	0.13538	0.20395	0.27046	0.25678	0.1927	0.18826	0.25406	0.17005	0.20286	0.071783	0.10315	0.345	0.15552	0.090323	0.10596	0.27604	-2.1292	-2.1104	-2.5438	-2.7604	-2.1562	-2.7646	-2.6292	-2.3729	-2.7833	-2.3104	-2.5438	-2.6292	-2.1646	-2.6479	-2.4188	-2.4062	71.851	134.775	-59.330	214.734	154.988	36.981	184.409	78.260	-65.238	16.229	-52.555	229.283	49.344	-94.502	-7.278	168.007	0.0001514	0.00056395	9.7176e-05	614.11	3.1551e-06	3.322e-06	874.62	142.09	2.5791e-06	2.1721e-06	309.17	110.83	34.785	10.328	3.0421e-06	46.774	5.9041e-05	4.3367e-05	1.0858e-05	545.23	4.5683e-07	4.2677e-07	776.42	125.74	4.5588e-07	4.7181e-07	274.11	98.579	31.088	9.254	4.3679e-07	41.509	-84.754	-11.979	-27.400	-84.367	82.103	48.146	-84.249	-80.026	87.465	95.071	-80.064	-75.869	-75.282	-71.062	47.935	-72.226	-8191	255	
2216.763	1	1	0	0	0.20633	0.11349	0.050544	0.30155	0.2569	0.29948	0.27311	0.30687	0.034408	0.056708	0.052515	0.19147	0.11055	0.19606	0.1622	0.19787	-2.1813	-1.9937	-2.6208	-2.7583	-2.2104	-2.5521	-2.4875	-2.3958	-2.7375	-2.2188	-2.5375	-2.8708	-2.3417	-2.6437	-2.4104	-2.4896	-90.345	254.974	4.670	222.447	137.673	36.700	202.677	199.104	-69.298	-40.311	179.764	194.424	209.181	124.950	166.832	90.823	0.00019255	0.00034689	6.2726e-05	611.86	3.7599e-06	8.469e-07	877.29	142.01	3.0399e-06	2.2524e-06	309.37	110.21	34.313	10.245	3.2274e-06	46.404	6.0976e-05	4.0428e-05	1.0978e-05	545.01	4.6486e-07	4.4846e-07	778.69	126.08	4.8042e-07	4.2039e-07	274.21	98.858	30.926	9.1634	4.4923e-07	41.393	-72.856	-0.036	-24.756	-84.938	70.310	83.845	-84.030	-79.731	102.411	79.771	-79.970	-75.761	-75.595	-70.917	70.431	-72.177	-8191	255	
2216.859	1	1	0	0	0.22704	0.23126	0.098018	0.63488	0.21156	0.27904	0.19143	0.24964	0.14457	0.22151	0.056907	0.13036	0.13208	0.1818	0.15811	0.082882	-2.2812	-2.3604	-2.3104	-2.6667	-2.2542	-2.6688	-2.7521	-2.2771	-2.7938	-2.4062	-2.4396	-2.9021	-2.2833	-2.475	-2.5438	-2.275	-21.088	-53.227	-58.888	241.014	90.438	92.840	-59.025	214.742	187.126	-10.893	9.786	243.898	34.527	-18.993	-46.274	237.398	0.00014631	0.00030071	8.0679e-05	618.33	3.4154e-06	3.1297e-06	867.38	141.65	3.3737e-06	3.514e-06	307.21	109.84	34.826	10.291	1.1014e-06	46.636	6.1182e-05	4.0132e-05	1.0792e-05	545.23	4.3757e-07	4.291e-07	772.02	125.3	4.6364e-07	4.3884e-07	271.23	98.166	30.844	9.1681	4.3866e-07	41.341	-72.795	-76.336	26.301	-84.744	10.874	58.781	-84.323	-79.579	52.108	65.528	-80.014	-75.764	-74.934	-71.596	76.798	-71.765	-8191	255	
2216.980	1	1	0	0	0.16842	0.099147	0.20756	0.13148	0.33223	0.12328	0.20388	0.054016	0.22486	0.34891	0.16245	0.17667	0.12592	0.25858	0.04825	0.21376	-2.1875	-2.3271	-2.4646	-2.7771	-2.2833	-2.5187	-2.7625	-2.3479	-2.4979	-2.3896	-2.4021	-2.7375	-2.3438	-2.4813	-2.6562	-2.1625	162.787	152.896	231.509	238.513	55.550	164.511	201.992	-66.189	6.543	167.142	239.573	170.441	148.664	203.303	67.772	36.036	0.00015171	0.00037866	7.255e-05	613.75	2.0721e-06	3.6183e-06	867.94	140.6	1.1548e-06	1.6113e-06	306.95	110.86	34.531	10.269	2.271e-06	46.492	6.2363e-05	3.9031e-05	1.1289e-05	543.05	4.4251e-07	4.463e-07	770.33	125.07	4.4068e-07	4.3084e-07	271.74	98.626	30.943	9.2032	4.4042e-07	41.342	-75.198	-29.017	-18.846	-84.132	61.741	67.560	-84.555	-79.465	63.697	52.405	-80.074	-75.383	-75.677	-71.038	86.646	-71.851	-8191	255	
2217.076	1	1	0	0	0.17991	0.13064	0.25445	0.20703	0.079651	0.11529	0.15604	0.215	0.32331	0.27235	0.19655	0.22049	0.25531	0.15276	0.1264	0.27655	-2.3771	-2.4188	-2.1167	-2.8625	-2.3271	-2.4854	-2.6583	-2.1708	-2.8542	-2.4792	-2.0604	-2.6771	-2.3417	-2.2938	-2.6937	-2.2771	11.827	153.174	-66.236	226.271	251.755	122.313	-61.256	188.553	20.262	2.758	221.575	-84.481	122.363	-67.889	261.033	249.175	0.00019076	0.00022463	9.3644e-05	609.33	2.4299e-06	3.2749e-06	866.35	140.06	1.3687e-06	4.0043e-06	307.88	110.66	34.506	10.381	4.2496e-06	46.657	6.2109e-05	4.1524e-05	1.1065e-05	541.44	4.6317e-07	4.1339e-07	771.51	124.76	4.2633e-07	4.3604e-07	272.31	98.837	30.976	9.2367	4.2974e-07	41.544	-73.095	-7.239	-12.437	-84.679	62.960	42.692	-84.496	-79.986	77.067	54.454	-80.117	-75.664	-75.242	-71.142	55.040	-71.803	-8191	255	
2217.172	1	1	0	0	0.084262	0.18228	0.22973	0.29782	0.20359	0.16873	0.2562	0.26254	0.062278	0.057223	0.14832	0.13351	0.20906	0.093886	0.074427	0.036399	-2.1667	-2.3833	-2.2104	-2.6312	-2.2229	-2.4813	-2.7646	-2.3312	-2.6854	-2.5812	-2.3	-2.8375	-2.4313	-2.3854	-2.7167	-2.2854	-9.556	5.315	33.114	137.458	-44.208	6.602	140.550	185.686	-11.739	79.175	190.916	204.390	200.436	80.370	0.050	242.566	0.00014346	0.00019577	0.00015306	612.32	3.4986e-06	3.5728e-06	862.85	139.3	1.5496e-06	1.6955e-06	305.35	109.82	34.729	10.314	3.8629e-06	46.506	6.1941e-05	4.0376e-05	1.1767e-05	541.48	4.5705e-07	4.1191e-07	768.95	123.93	4.3517e-07	4.1644e-07	270.56	97.894	30.803	9.181	4.4264e-07	41.274	-75.851	-2.408	-13.118	-84.435	57.434	49.717	-84.498	-79.480	27.435	75.654	-79.915	-75.772	-75.630	-70.863	59.576	-71.600	-8191	255	
2217.268	1	1	0	0	0.10501	0.086313	0.11591	0.41613	0.099809	0.03403	0.2181	0.013436	0.063855	0.41255	0.35046	0.16836	0.23419	0.17196	0.28351	0.18857	-1.9562	-2.6042	-2.075	-2.6583	-2.5833	-2.2729	-2.7604	-2.35	-2.4125	-2.6479	-2.225	-2.6729	-2.4271	-2.375	-2.5667	-2.3667	157.495	-62.055	241.279	191.356	252.967	182.668	96.014	152.539	242.707	175.970	198.646	210.760	224.465	239.561	80.823	205.067	0.00019975	0.0003664	3.652e-05	613.92	2.7628e-06	3.7242e-06	862.7	139.19	1.4529e-06	1.3382e-06	302.65	109.3	34.287	10.266	3.38e-06	46.156	5.9161e-05	3.7536e-05	1.0824e-05	541.78	4.7109e-07	4.184e-07	767.74	123.62	4.9398e-07	4.2461e-07	268.49	97.653	30.647	9.1037	4.1997e-07	40.986	-79.221	5.065	-20.127	-84.336	73.026	56.068	-84.302	-79.266	32.729	66.065	-80.282	-75.506	-76.070	-70.607	9.378	-71.724	-8191	255	
2217.363	1	1	0	0	0.2138	0.094519	0.069607	0.23902	0.29778	0.14717	0.27158	0.053337	0.097187	0.087805	0.13073	0.085218	0.098248	0.32914	0.092523	0.21904	-1.8917	-2.5625	-2.2833	-2.475	-2.4208	-2.2354	-2.8063	-2.3792	-2.4229	-2.6604	-2.3229	-2.5062	-2.6167	-2.2396	-2.6833	-2.5	-51.110	-97.492	143.172	242.678	97.384	178.081	224.766	200.002	-55.453	110.114	209.874	55.241	99.570	246.531	90.712	196.341	0.00013148	0.00041963	9.2584e-05	604.43	3.1062e-06	3.1416e-06	863.3	138.33	6.4626e-07	2.8924e-06	303.27	110.24	34.026	10.148	2.8509e-06	46.183	6.3357e-05	3.9691e-05	1.1431e-05	537.93	4.5357e-07	4.2876e-07	765.98	122.35	4.7209e-07	4.4444e-07	268.84	98.043	30.642	9.1106	3.9953e-07	40.914	-66.155	-27.964	13.573	-84.390	33.599	63.787	-84.363	-79.933	94.940	73.826	-80.073	-75.583	-75.322	-70.085	62.688	-71.897	-8191	255	
2217.459	1	1	0	0	0.19614	0.17713	0.031018	0.1499	0.14625	0.14391	0.23617	0.16911	0.37191	0.069853	0.048275	0.35754	0.19546	0.056201	0.12561	0.12545	-1.825	-2.8208	-2.2479	-2.4146	-2.4604	-2.1667	-3.0333	-2.3542	-2.475	-2.6167	-2.4396	-2.6854	-2.5104	-2.2271	-2.7146	-2.575	0.858	238.453	67.839	245.228	102.302	-13.776	-82.027	259.170	146.685	-41.359	186.930	210.616	-14.613	180.795	255.778	173.866	0.00018277	0.00036925	9.8371e-05	606.62	4.5733e-06	2.8245e-06	868.62	137.94	2.644e-06	2.7939e-06	303.13	109.68	34.147	10.119	4.4212e-06	46.048	6.3578e-05	3.9961e-05	9.9638e-06	538.03	4.1685e-07	4.2239e-07	769.24	122.69	4.5469e-07	4.357e-07	269.57	97.918	30.524	9.1026	4.1486e-07	41.089	-70.009	9.667	-32.383	-84.933	41.936	46.660	-84.008	-79.593	89.837	53.765	-80.263	-75.850	-75.769	-71.101	38.543	-71.567	-8191	255	
2217.579	1	1	0	0	0.056088	0.20703	0.17554	0.055217	0.24689	0.15243	0.24072	0.19902	0.16467	0.22745	0.067044	0.132	0.3227	0.14482	0.070358	0.30975	-1.7542	-2.6667	-2.2146	-2.6583	-2.4417	-2.1521	-2.6146	-2.6729	-2.0917	-2.5792	-2.175	-2.6667	-2.6396	-2.2833	-2.7208	-2.5667	185.799	178.749	225.580	224.328	145.518	177.853	156.982	-52.107	150.428	-86.258	9.840	240.120	164.831	-27.206	152.377	25.167	0.00017146	0.00030689	3.4545e-05	608.32	1.8655e-06	4.4817e-06	863.9	138.49	1.4941e-06	3.336e-06	304.9	110.66	34.253	10.027	4.545e-06	46.582	5.9742e-05	4.047e-05	1.1059e-05	537.62	4.6076e-07	4.41e-07	768.38	123.69	4.5081e-07	4.2776e-07	270.81	98.495	30.753	9.0983	4.469e-07	41.17	-77.445	-40.559	-18.062	-84.792	47.977	39.348	-83.987	-79.651	88.615	67.699	-80.325	-75.899	-76.132	-71.049	81.421	-71.876	-8191	255	
2217.675	1	1	0	0	0.34868	0.10482	0.079718	0.13761	0.31068	0.16924	0.12357	0.20278	0.18367	0.23453	0.1947	0.21457	0.25641	0.16183	0.1643	0.3832	-1.7083	-2.75	-2.2875	-2.5833	-2.7188	-2.275	-2.7125	-2.6292	-2.3292	-2.6896	-2.525	-2.4	-2.6708	-2.2167	-2.4396	-2.6958	35.877	-93.884	196.203	160.403	75.400	58.408	221.557	174.742	39.416	201.831	36.443	144.916	-1.191	147.058	112.440	205.985	0.00016289	0.00036645	7.1295e-05	612.64	2.8173e-06	2.2645e-06	866.78	139.87	2.4092e-06	2.6395e-06	308.43	110.46	34.082	10.115	3.1603e-06	46.469	6.3405e-05	3.928e-05	1.0572e-05	543.02	4.6401e-07	4.1948e-07	770.29	124.59	4.7186e-07	4.4444e-07	272.86	98.217	30.779	9.0944	4.4156e-07	41.347	-79.135	-36.304	-46.126	-84.483	108.781	28.406	-84.254	-79.722	55.819	38.515	-79.786	-75.409	-75.788	-70.776	78.580	-71.693	-8191	255	
2217.772	1	1	0	0	0.25019	0.14815	0.021436	0.20662	0.17194	0.13604	0.27095	0.062798	0.24392	0.057216	0.07806	0.26772	0.14768	0.1397	0.018999	0.15246	-1.5708	-2.65	-2.0938	-2.525	-2.7438	-2.1646	-2.6979	-2.7167	-2.0625	-2.7104	-2.3792	-2.3396	-2.6792	-2.3375	-2.5333	-2.7042	126.049	-79.020	232.791	202.009	15.166	78.459	217.015	167.623	245.379	215.388	234.950	248.903	239.567	191.192	182.052	257.257	0.00017431	0.00027013	7.6396e-05	612.67	3.8666e-06	3.3529e-06	876.45	140.27	1.2419e-06	2.7346e-06	312.25	110.37	33.974	10.308	3.0532e-06	46.721	6.0798e-05	3.8185e-05	1.0698e-05	541.61	4.3858e-07	4.0661e-07	775.25	125.07	4.404e-07	4.2741e-07	274.52	98.989	30.884	9.2285	4.1475e-07	41.573	-83.361	-36.651	-8.400	-84.488	30.707	32.638	-84.215	-79.867	83.955	62.508	-80.182	-76.137	-75.215	-70.935	40.551	-71.695	-8191	255	
2217.868	1	1	0	0	0.056175	0.022106	0.23713	0.18894	0.22331	0.2219	0.149	0.09977	0.10412	0.10769	0.22333	0.29655	0.048754	0.13233	0.052917	0.059406	-1.8104	-2.6229	-2.475	-2.1875	-2.4958	-2.2562	-2.4875	-2.5979	-2.1458	-2.5271	-2.2417	-2.3792	-2.7583	-2.1646	-2.4062	-2.675	171.432	259.321	-62.114	235.354	260.537	30.739	-93.305	107.552	243.227	178.980	141.045	-42.757	153.731	-13.494	226.507	49.220	0.00016694	0.00027928	7.9923e-05	606.27	1.1798e-06	2.1803e-06	863.69	140.92	1.5714e-06	3.9827e-06	309.87	109.91	34.51	10.301	3.5986e-06	46.265	6.1917e-05	3.8694e-05	1.0951e-05	539.4	4.5031e-07	4.3383e-07	770.39	125.13	4.5295e-07	4.2553e-07	273.25	98.342	31.015	9.186	4.6178e-07	41.116	-72.664	-20.101	-1.686	-84.500	-27.071	37.832	-83.978	-79.819	70.221	74.005	-80.316	-75.558	-75.334	-70.311	45.546	-72.158	-8191	255	
2217.939	1	1	0	0	0.23405	0.18117	0.17408	0.34244	0.18773	0.15859	0.022089	0.18566	0.16139	0.10407	0.20593	0.27627	0.12345	0.12386	0.25304	0.18585	-1.6604	-2.35	-2.5167	-2.1604	-2.5771	-2.35	-2.4688	-2.3542	-2.2979	-2.5896	-2.5708	-2.275	-2.8833	-2.3937	-2.3	-2.7062	197.177	251.128	245.126	-70.296	213.305	135.295	163.516	-70.392	134.271	45.573	201.733	225.820	254.330	137.565	143.835	25.260	0.0001468	0.00039015	6.232e-05	605.22	4.4166e-06	3.2189e-06	868.27	141.34	1.9505e-06	2.5869e-06	305.2	110.18	34.344	10.35	1.0424e-06	46.36	6.3367e-05	4.0979e-05	1.0798e-05	538.96	4.7103e-07	4.3952e-07	772.05	125.14	4.7451e-07	4.1582e-07	271.42	98.262	30.758	9.1746	4.2236e-07	41.342	-83.533	-13.148	7.398	-84.125	51.065	51.410	-84.244	-79.475	65.562	96.072	-79.966	-75.313	-75.241	-71.171	18.952	-71.725	-8191	255	
2218.060	1	1	0	0	0.23938	0.24362	0.17003	0.42368	0.044092	0.22523	0.14184	0.21545	0.080035	0.13847	0.07602	0.20938	0.27052	0.37096	0.18591	0.17884	-1.8563	-2.4125	-2.4917	-2.3	-2.4771	-2.4625	-2.4688	-2.7208	-2.2271	-2.6833	-2.6688	-2.1833	-2.8729	-2.4375	-2.2208	-2.7854	87.864	-76.519	53.272	215.019	-90.286	80.694	153.977	51.838	8.836	89.030	129.904	254.186	197.225	15.650	56.782	227.659	0.00017354	0.00047551	5.9415e-05	609.92	3.4861e-06	1.9225e-06	872.85	138.4	3.0349e-06	2.1296e-06	305.21	110.68	35.032	10.296	4.4543e-06	46.63	5.9094e-05	4.034e-05	1.017e-05	539.48	4.5436e-07	4.2233e-07	771.06	123.65	4.6494e-07	4.2627e-07	271.38	98.631	30.976	9.1737	4.3934e-07	41.479	-74.649	-12.964	-13.488	-84.443	76.705	59.206	-84.196	-79.992	68.774	55.178	-79.833	-75.230	-75.938	-71.698	68.735	-72.248	-8191	255	
2218.156	1	1	0	0	0.15867	0.065406	0.12019	0.20373	0.037606	0.24094	0.22634	0.064314	0.2413	0.24141	0.19795	0.14369	0.32741	0.078775	0.18977	0.18258	-2.0042	-2.3729	-2.6958	-2.2958	-2.4917	-2.45	-2.2396	-2.6042	-2.4021	-2.4104	-2.7021	-2.3208	-2.5438	-2.2354	-2.0729	-2.7375	148.350	-49.248	261.184	208.234	50.925	148.832	-86.477	123.257	1.429	132.560	212.972	-35.353	173.324	193.142	218.308	185.657	0.00018808	0.00048817	0.00011164	607.96	3.0013e-06	3.6076e-06	866.42	139.16	1.0167e-06	1.5356e-06	306.27	110.71	34.905	10.2	5.1179e-06	46.067	5.8273e-05	4.3134e-05	1.1145e-05	537.12	4.7378e-07	4.3354e-07	770.92	124.22	4.4653e-07	4.2639e-07	271.83	98.505	30.997	9.1965	4.3167e-07	41.252	-65.257	-40.929	-37.849	-84.406	43.409	47.690	-84.217	-80.213	57.471	42.109	-79.864	-75.776	-75.117	-70.885	69.218	-72.055	-8191	255	
2218.252	1	1	0	0	0.16528	0.075336	0.093545	0.092649	0.23577	0.25484	0.080851	0.16586	0.20386	0.15286	0.23495	0.14513	0.13652	0.046361	0.12327	0.12765	-1.9188	-2.3917	-2.8083	-2.3792	-2.5771	-2.3667	-2.3021	-2.6583	-2.1937	-2.3292	-2.6937	-2.3333	-2.6937	-2.6042	-2.0833	-2.7083	159.632	215.293	55.424	104.254	26.421	159.699	0.716	207.774	205.464	223.565	26.588	154.945	111.432	145.630	53.085	-60.498	0.00013313	0.00037308	0.00011156	603.86	4.3809e-06	2.2899e-06	862.16	139.24	3.0912e-06	2.1934e-06	305.78	110.68	34.534	10.138	1.6879e-06	46.464	6.161e-05	4.0958e-05	9.7889e-06	534.04	4.4661e-07	4.0348e-07	763.91	123.5	4.6651e-07	4.1599e-07	269.68	98.166	30.854	9.174	4.1583e-07	41.369	-80.336	-47.509	-7.910	-84.731	19.008	57.070	-84.344	-79.739	86.767	87.765	-80.109	-75.426	-75.489	-71.136	75.202	-71.757	-8191	255	
2218.371	1	1	0	0	0.11005	0.11081	0.15338	0.10363	0.25515	0.14697	0.41723	0.093012	0.38054	0.097987	0.13063	0.075037	0.20477	0.16089	0.068995	0.36788	-2.0729	-2.3187	-2.6146	-2.3542	-2.375	-2.3958	-2.2333	-2.5125	-2.4688	-2.375	-2.725	-2.2438	-2.2729	-2.8063	-2.0625	-2.6063	187.006	71.732	-86.753	-8.255	-63.793	212.577	-84.604	194.448	234.718	149.688	109.702	257.947	8.588	39.232	6.522	218.394	0.00014743	0.0003076	6.3305e-05	599.94	1.4061e-06	3.5504e-06	854.49	135.83	1.2057e-06	1.0009e-06	297.06	109.45	33.834	10.24	2.6867e-06	45.957	6.0592e-05	3.8491e-05	1.0678e-05	532.34	4.1545e-07	3.9346e-07	758.15	121.16	4.3753e-07	4.1296e-07	265.16	97.775	30.525	9.1471	4.4639e-07	41.051	-72.755	3.688	-9.686	-84.338	19.155	69.150	-84.147	-79.663	31.397	36.773	-80.075	-75.641	-76.202	-72.089	80.588	-72.058	-8191	255	
2218.467	1	1	0	0	0.094957	0.15195	0.040169	0.034134	0.14178	0.19953	0.30959	0.23258	0.23289	0.18636	0.10134	0.38888	0.13154	0.037838	0.19667	0.13116	-2.2167	-2.2438	-2.6271	-2.2625	-2.3167	-2.6021	-2.4375	-2.6875	-2.6104	-2.2292	-2.6375	-2.2687	-2.4771	-2.6125	-2.2104	-2.6333	38.282	217.094	69.428	110.870	180.744	-73.290	214.604	-61.236	41.508	117.707	151.746	232.100	-48.515	33.250	248.367	247.781	0.00019329	0.00025982	6.974e-05	600.65	3.2907e-06	1.7691e-06	853.5	134.86	2.4862e-06	3.7674e-06	295.51	108.8	33.844	10.218	2.4054e-06	46.599	5.7111e-05	3.8766e-05	1.0189e-05	532.1	4.5733e-07	3.9409e-07	755.47	120.45	4.4147e-07	3.8114e-07	261.8	96.972	30.253	9.127	4.2117e-07	41.158	-70.915	-19.747	-47.131	-84.607	43.975	77.455	-84.345	-79.894	42.037	49.334	-80.087	-75.694	-75.212	-70.913	74.371	-72.090	-8191	255	
2218.541	1	1	0	0	0.15392	0.1744	0.30223	0.21163	0.12291	0.27896	0.082508	0.26088	0.092015	0.062864	0.15279	0.25031	0.1035	0.32717	0.36502	0.32167	-2.2042	-2.1979	-2.7354	-2.3667	-2.2396	-2.8625	-2.4396	-2.4479	-2.5479	-2.2729	-2.6	-2.5625	-2.325	-2.5979	-2.3896	-2.3896	93.286	-55.748	195.372	196.187	-0.558	84.019	193.902	-28.896	-32.668	222.213	110.634	239.750	187.419	-24.943	73.157	237.849	0.00017735	0.00022494	8.1465e-05	595.67	1.6955e-06	1.1252e-06	847	134.14	2.2973e-06	2.829e-06	295.1	108.44	33.533	10.009	3.0009e-06	45.628	5.7438e-05	3.6367e-05	1.0259e-05	528.97	4.1876e-07	3.917e-07	750.84	119.1	4.2233e-07	4.1502e-07	261.83	96.679	29.986	9.0068	4.2935e-07	40.577	-71.022	-13.534	-20.875	-84.569	-14.731	54.827	-83.999	-79.527	69.768	73.327	-80.025	-75.330	-75.659	-71.314	53.706	-71.920	-8191	255	
2218.660	1	1	0	0	0.15409	0.28085	0.16317	0.02463	0.10439	0.25816	0.19446	0.071531	0.20414	0.17445	0.18962	0.5313	0.12027	0.24077	0.12139	0.017329	-2.2354	-1.9521	-2.5604	-2.4854	-2.2583	-2.6958	-2.2875	-2.3125	-2.6458	-2.2167	-2.8667	-2.5417	-2.3271	-2.6917	-2.275	-2.5333	244.582	200.921	-16.926	-76.907	96.652	112.497	171.207	-31.643	-39.855	46.057	203.120	251.658	-49.848	238.757	-97.372	184.932	0.00019547	0.00032327	4.7764e-05	595.83	3.621e-06	3.124e-06	845.5	133.96	1.7886e-06	3.939e-06	295.84	108.32	33.531	10.097	1.874e-06	45.582	6.0755e-05	3.6611e-05	9.7513e-06	527.1	4.1057e-07	3.7342e-07	750.04	118.81	4.2836e-07	3.8485e-07	260.38	96.438	29.91	9.0338	3.9345e-07	40.631	-72.213	-4.810	-12.470	-84.603	60.097	19.575	-84.512	-79.571	68.003	108.196	-80.081	-75.674	-75.778	-70.619	26.019	-72.065	-8191	255	
2218.756	1	1	0	0	0.13336	0.1003	0.066091	0.054191	0.072224	0.18387	0.24637	0.20668	0.2886	0.29522	0.21768	0.17261	0.19615	0.11053	0.047661	0.12423	-1.9813	-2.3271	-2.4375	-2.6271	-2.3292	-2.7375	-2.3063	-2.3104	-2.6542	-2.225	-2.6104	-2.4917	-2.1437	-2.7708	-2.4104	-2.2604	168.944	-29.367	248.939	70.210	-58.738	83.702	205.395	77.167	45.205	-10.780	205.179	241.233	218.997	30.772	-66.960	150.926	0.00017016	0.00014161	0.00010994	596.48	1.9017e-06	4.5412e-06	845.28	132.71	1.1414e-06	2.2374e-06	292.06	107.16	33.401	10.113	1.5953e-06	45.762	5.8283e-05	4.0335e-05	1.0727e-05	526.21	4.6261e-07	4.0918e-07	747.93	117.6	4.1704e-07	3.7639e-07	258.41	96.22	30.002	9.015	4.0237e-07	40.833	-74.011	-37.162	9.376	-84.650	38.889	30.126	-84.338	-79.641	77.841	63.834	-80.020	-75.819	-75.285	-71.287	-22.964	-71.985	-8191	255	
2218.852	1	1	0	0	0.20004	0.23306	0.11725	0.15351	0.14445	0.1869	0.29512	0.24784	0.11901	0.19181	0.096263	0.078349	0.21119	0.27924	0.13969	0.28884	-2.2146	-2.0563	-2.5104	-2.6271	-2.0271	-2.8292	-2.4854	-2.2583	-2.7333	-2.4396	-2.4917	-2.6667	-2.1833	-2.6708	-2.5187	-2.3646	-22.685	-59.500	-51.353	73.261	248.426	-76.689	206.304	-83.877	50.086	231.484	234.220	83.560	256.060	138.896	54.109	153.460	0.00019179	0.00021959	6.3389e-05	593.18	2.6598e-06	3.7929e-06	844.52	132.78	1.9765e-06	3.262e-06	293.82	108.36	33.469	9.9117	1.4247e-06	46.025	5.6204e-05	3.7707e-05	1.0235e-05	524.84	4.0703e-07	4.2472e-07	749.87	117.64	4.238e-07	3.6594e-07	259.88	96.504	29.941	8.9876	4.2861e-07	40.916	-78.387	10.055	-11.856	-84.158	88.746	70.616	-84.390	-79.153	88.695	52.703	-80.518	-75.910	-75.777	-70.951	107.951	-71.662	-8191	255	
2218.973	1	1	0	0	0.25712	0.039693	0.22455	0.32362	0.14609	0.13995	0.26616	0.09767	0.037581	0.19493	0.17467	0.11723	0.15977	0.11535	0.22958	0.35706	-2.2542	-2.2771	-2.4917	-2.7229	-2.2708	-2.6042	-2.5958	-2.3854	-2.8	-2.4938	-2.5708	-2.8458	-2.2375	-2.4562	-2.3542	-2.4313	159.754	42.960	-62.353	197.356	107.738	32.667	240.918	198.098	-25.694	240.190	-23.465	81.558	159.506	217.307	172.809	247.312	0.00018551	0.00020475	7.4159e-05	595.29	4.0382e-06	3.0248e-06	842.17	133.85	2.442e-06	3.9787e-06	293.53	107.77	33.683	10.138	2.8811e-06	45.836	5.8835e-05	3.6419e-05	1.0871e-05	526.06	4.3729e-07	3.9585e-07	746.01	118.63	4.1749e-07	4.0862e-07	259.63	95.973	30.076	9.0356	4.0418e-07	40.807	-75.932	-23.946	11.162	-84.968	89.485	35.389	-84.146	-79.904	71.392	92.847	-80.153	-75.371	-75.943	-71.036	38.073	-72.114	-8191	255	
2219.069	1	1	0	0	0.38595	0.016306	0.17722	0.17046	0.077032	0.10168	0.20428	0.2169	0.09906	0.12649	0.10389	0.091894	0.25345	0.13609	0.115	0.05673	-2.2771	-2.2917	-2.35	-2.8521	-2.1437	-2.6479	-2.8042	-2.1854	-2.65	-2.4896	-2.4771	-2.7979	-2.1271	-2.5375	-2.6562	-2.3917	-43.287	67.705	10.839	235.083	-85.414	-17.003	227.580	78.997	104.668	134.439	-55.775	154.960	116.912	143.116	188.391	-34.157	0.00016468	0.00014502	3.2146e-05	595.66	1.9899e-06	2.2797e-06	839.59	132.4	1.0651e-06	2.0016e-06	292	107.75	33.31	10.196	2.2201e-06	46.101	5.7327e-05	3.5827e-05	1.0318e-05	525.73	4.2797e-07	4.0565e-07	745.68	117.63	4.3083e-07	4.1547e-07	259.23	96.174	30.007	9.0658	4.1583e-07	40.957	-70.780	-53.528	-92.923	-84.598	36.961	24.691	-84.377	-79.806	83.872	33.869	-80.097	-75.533	-75.702	-71.108	72.922	-72.254	-8191	255	
2219.163	1	1	0	0	0.14382	0.058258	0.14687	0.10847	0.21277	0.12523	0.28881	0.16922	0.18263	0.32	0.070559	0.16051	0.15207	0.10159	0.027235	0.14245	-2.0917	-2.2896	-2.1646	-2.8958	-2.3812	-2.4917	-2.6833	-2.1896	-2.7854	-2.3875	-2.3104	-2.9688	-2.4	-2.4208	-2.6854	-2.4021	110.312	87.766	-21.103	128.338	-50.312	81.065	77.726	250.751	215.986	-7.180	-92.030	72.057	14.699	197.307	121.578	166.479	0.00019039	0.00043153	7.7301e-05	593.47	3.3751e-06	4.3506e-06	842.16	135.34	1.8604e-06	2.1533e-06	296.91	108.83	33.759	10.187	9.3724e-07	46.652	5.9411e-05	3.8019e-05	1.0903e-05	524.43	4.2921e-07	4.2757e-07	749.04	119.71	4.4012e-07	4.2216e-07	263.05	97.202	30.288	9.0691	4.29e-07	41.458	-78.344	2.934	-9.416	-84.369	38.192	62.426	-84.041	-79.695	61.733	80.797	-80.022	-75.648	-75.809	-71.097	-56.812	-72.024	-8191	255	
2219.261	1	1	0	0	0.28625	0.40741	0.31348	0.14946	0.14855	0.36185	0.027263	0.20116	0.10534	0.08688	0.44268	0.026509	0.24812	0.034089	0.042051	0.1892	-2.1333	-2.575	-2.425	-2.7812	-2.2896	-2.4583	-2.7021	-2.3042	-2.6229	-2.5854	-2.325	-2.65	-2.3667	-2.3	-2.6333	-2.2042	37.547	130.926	14.407	103.899	211.367	-87.263	180.487	241.606	52.389	255.436	200.102	81.578	-44.566	-66.675	181.260	59.278	0.00017082	0.00040106	8.0058e-05	590.75	3.9783e-06	1.8969e-06	841.94	134.79	2.0536e-06	3.5632e-06	297.67	108.69	33.778	10.201	3.0276e-06	46.207	5.8691e-05	4.0631e-05	1.1398e-05	526.79	4.3471e-07	4.0417e-07	751.52	119.49	4.6663e-07	4.0725e-07	262.77	97.187	30.151	9.1069	4.0543e-07	41.019	-83.142	-44.332	-5.368	-84.619	47.905	75.791	-84.151	-79.702	61.862	75.227	-80.303	-75.317	-76.544	-70.419	55.289	-72.288	-8191	255	
2219.355	1	1	0	0	0.25996	0.16519	0.15529	0.13462	0.11989	0.27281	0.30524	0.17818	0.23674	0.35322	0.25902	0.092566	0.059394	0.21032	0.13524	0.14612	-2.1958	-2.4833	-2.1417	-2.8896	-2.5292	-2.4167	-2.85	-2.1417	-2.4104	-2.5708	-1.9188	-2.8042	-2.4271	-2.35	-2.7292	-2.2917	188.835	198.992	-78.022	207.316	147.040	-78.156	180.723	139.449	-38.615	79.909	181.502	-65.346	29.696	183.266	-59.027	243.715	0.00017955	0.00014421	5.4131e-05	588.84	2.751e-06	3.2275e-06	843.66	132.62	2.663e-06	1.99e-06	292.79	108.29	33.433	10.141	2.1743e-06	46.011	5.8446e-05	3.8346e-05	1.0795e-05	522.04	4.63e-07	4.66e-07	748.15	117.76	4.5689e-07	4.2604e-07	259.92	96.516	30.142	9.0074	4.4582e-07	41.099	-65.573	-0.675	31.272	-84.822	48.286	50.883	-83.892	-79.829	74.503	33.168	-79.731	-75.230	-74.839	-71.163	57.362	-71.907	-8191	255	
2219.452	1	1	0	0	0.31861	0.35302	0.35682	0.30434	0.10994	0.054858	0.13724	0.10572	0.074115	0.11589	0.25938	0.19246	0.10566	0.20222	0.18657	0.38054	-2.0333	-2.5833	-2.1292	-2.7771	-2.3833	-2.2542	-2.6396	-2.3208	-2.4354	-2.6896	-2.4271	-2.6688	-2.5167	-2.1333	-2.6437	-2.4208	78.867	239.253	190.670	216.364	49.801	214.485	184.817	15.702	4.526	94.399	-84.685	151.654	189.309	85.921	-41.344	210.405	0.00015711	0.0004512	9.564e-05	588.7	1.4937e-06	2.8119e-06	843.82	134.42	9.6533e-07	3.0707e-06	295.34	109.2	33.781	10.163	2.2366e-06	46.384	6.3544e-05	3.7915e-05	1.0879e-05	524.2	4.4543e-07	4.1453e-07	751.86	118.95	4.583e-07	4.2301e-07	261.9	97.275	30.228	9.1109	4.2685e-07	41.274	-78.573	-1.161	-25.952	-84.751	21.502	20.292	-84.173	-79.940	120.095	30.506	-80.289	-75.526	-75.745	-70.667	10.569	-71.707	-8191	255	
2219.548	1	1	0	0	0.1298	0.10944	0.16014	0.21822	0.17689	0.089653	0.22612	0.21641	0.20906	0.11145	0.10818	0.18181	0.21586	0.049326	0.13623	0.35377	-1.9604	-2.7146	-2.0646	-2.6	-2.4708	-2.2417	-2.9667	-2.4542	-2.5375	-2.6688	-2.3333	-2.7354	-2.5438	-2.2292	-2.7042	-2.7	179.083	78.145	50.720	216.601	42.018	181.930	231.912	74.322	33.404	137.178	-89.493	-69.972	49.852	34.727	-31.955	183.862	0.0002329	0.00043031	4.3502e-05	596.31	1.2442e-06	1.2995e-06	854.9	134.21	1.5882e-06	2.3116e-06	297.08	109.24	33.222	10.115	2.5539e-06	45.873	6.0261e-05	3.9187e-05	1.1334e-05	527.68	4.3179e-07	4.2774e-07	757.36	119.18	4.4558e-07	4.0707e-07	263.79	97.347	29.963	9.0475	4.0788e-07	41.03	-81.336	-55.685	16.405	-84.226	32.576	39.024	-84.465	-79.552	58.351	66.641	-80.132	-75.342	-75.036	-71.017	6.611	-71.672	-8191	255	
2219.644	1	1	0	0	0.073381	0.14328	0.15574	0.11785	0.092646	0.022602	0.13708	0.11381	0.24625	0.057704	0.22314	0.29035	0.22554	0.24155	0.20141	0.032312	-1.8229	-2.6437	-2.3125	-2.5167	-2.5729	-2.2229	-2.8354	-2.425	-2.4146	-2.8125	-2.4	-2.6021	-2.55	-2.2646	-2.5187	-2.4375	47.334	-17.701	-24.643	-88.626	-46.278	35.325	225.078	123.861	116.142	53.294	199.177	196.167	91.862	-77.285	148.462	-81.710	0.00015507	0.000248	3.8271e-05	590.18	1.3087e-06	3.7469e-06	844.92	134.62	2.4771e-06	3.6622e-06	296.57	108.81	33.583	10.036	4.9026e-06	46.082	6.1398e-05	4.0007e-05	1.1074e-05	522.06	4.1556e-07	4.1134e-07	750.87	119.39	4.7642e-07	4.1427e-07	262.45	97.221	30.195	9.0653	4.4093e-07	40.929	-73.099	-9.635	-0.747	-84.252	12.738	63.636	-84.093	-79.641	80.118	79.699	-79.996	-75.251	-75.967	-70.728	60.668	-71.885	-8191	255	
2219.765	1	1	0	0	0.20989	0.18147	0.071879	0.41101	0.22974	0.1556	0.33956	0.28053	0.19224	0.063165	0.034123	0.11924	0.027175	0.35568	0.014096	0.16847	-1.8125	-2.7021	-2.2812	-2.5687	-2.6875	-2.3812	-2.8896	-2.3667	-2.25	-2.6688	-2.5146	-2.6167	-2.6875	-2.2021	-2.4583	-2.5646	262.117	93.750	24.635	170.284	145.511	-2.932	198.714	120.650	260.240	178.096	34.286	247.294	261.452	106.134	124.352	239.471	0.00021218	0.00039429	7.4902e-05	587.66	2.3882e-06	2.694e-06	840.78	133.61	1.0255e-06	2.2883e-06	297.63	109.61	33.822	10.267	3.233e-06	46.353	6.2863e-05	3.9561e-05	1.0932e-05	522.42	4.5739e-07	4.1669e-07	747.17	118.86	4.6528e-07	4.3547e-07	263.22	97.958	30.442	9.1859	4.5036e-07	41.253	-70.935	-4.657	-11.822	-84.398	60.420	47.019	-83.891	-79.852	76.278	42.097	-80.402	-75.577	-75.686	-71.236	49.364	-72.154	-8191	255	
2219.836	1	1	0	0	0.1641	0.15696	0.056823	0.24633	0.15768	0.13032	0.31488	0.22238	0.14645	0.20184	0.23548	0.194	0.28431	0.076835	0.19148	0.25548	-1.8229	-2.6771	-2.4146	-2.5104	-2.6708	-2.2917	-2.7583	-2.4313	-2.3958	-2.7229	-2.5104	-2.4646	-2.7438	-2.1896	-2.6354	-2.5792	-6.248	228.876	252.944	134.853	183.837	254.430	189.200	152.226	170.710	144.754	132.570	249.663	203.802	-68.602	131.394	260.671	0.0002074	0.00021684	7.7651e-05	597.12	3.1713e-06	2.2584e-06	857.76	136.88	4.0074e-06	3.2719e-06	305.23	110.94	34.341	10.484	3.3426e-06	47.072	6.2459e-05	3.8984e-05	1.1045e-05	528.5	4.9068e-07	4.1106e-07	759.29	121.56	4.4755e-07	4.1416e-07	270.37	98.975	30.85	9.2914	4.315e-07	42.033	-81.769	-47.423	19.135	-84.428	59.303	32.736	-84.097	-79.569	85.863	60.148	-79.757	-75.382	-75.710	-70.980	28.764	-71.652	-8191	255	
2219.932	1	1	0	0	0.29734	0.11952	0.13365	0.25057	0.041391	0.14091	0.051186	0.081787	0.24686	0.047895	0.13937	0.054538	0.10592	0.18059	0.048268	0.33955	-1.6583	-2.5	-2.4375	-2.3187	-2.775	-2.3021	-2.4896	-2.7042	-2.15	-2.6958	-2.4833	-2.2208	-2.6875	-2.2708	-2.4583	-2.6833	182.792	-31.066	149.843	196.219	36.918	-74.739	138.304	162.443	36.399	-9.836	222.588	-82.985	55.791	101.813	-69.505	167.679	0.0002105	0.00047279	7.6021e-05	597.43	3e-06	3.0417e-06	859.63	139.14	3.5602e-06	3.1391e-06	306.89	111.38	34.574	10.438	1.8117e-06	46.959	6.0914e-05	4.0688e-05	1.0975e-05	532.54	4.3504e-07	4.3537e-07	763.92	123.75	4.507e-07	4.3233e-07	270.61	99.194	31.055	9.2897	4.4258e-07	41.85	-76.600	-61.600	-18.924	-84.454	60.890	61.372	-83.966	-79.494	40.292	58.701	-79.939	-75.497	-74.993	-70.475	32.890	-71.934	-8191	255	
2220.053	1	1	0	0	0.20639	0.22371	0.20863	0.047896	0.14488	0.14204	0.35352	0.21767	0.26025	0.040348	0.23712	0.26101	0.083775	0.33857	0.077335	0.30053	-1.8375	-2.4417	-2.425	-2.35	-2.7771	-2.2146	-2.5229	-2.5917	-2.2375	-2.5167	-2.5583	-2.2542	-2.6521	-2.2604	-2.3521	-2.8271	26.246	-82.614	195.920	94.226	8.917	-63.585	261.460	197.198	83.250	29.376	219.334	257.844	248.312	-76.001	76.227	-77.859	0.00019369	0.00040736	3.0328e-05	603.14	1.7302e-06	3.016e-06	861.77	138.22	3.2563e-06	2e-06	305.37	111.3	34.738	10.422	2.5022e-06	47.195	5.8724e-05	4.2246e-05	1.1001e-05	532.14	4.1781e-07	4.3053e-07	764.17	123.1	4.498e-07	4.4233e-07	270.47	99.532	31.097	9.3055	4.3298e-07	41.942	-71.663	-37.702	9.724	-84.022	44.750	58.255	-84.270	-79.651	103.822	56.091	-80.028	-75.271	-75.989	-71.142	44.278	-72.347	-8191	255	
2220.149	1	1	0	0	0.24629	0.13034	0.043855	0.20857	0.16222	0.16101	0.18131	0.239	0.13499	0.16982	0.0064339	0.15617	0.32146	0.1932	0.20088	0.069983	-1.725	-2.4979	-2.6271	-2.2833	-2.675	-2.4875	-2.4	-2.6937	-2.4042	-2.5521	-2.8083	-2.2896	-2.5583	-2.3229	-2.2562	-2.8583	172.521	-75.835	247.266	208.812	222.672	-16.414	-95.979	213.382	239.065	243.309	255.031	46.586	213.578	40.580	174.045	28.545	0.00021084	0.00029211	0.00011942	601.52	2.9305e-06	3.1798e-06	859.87	137.09	3.5005e-06	2.8503e-06	307.95	111.06	34.618	10.42	2.0626e-06	47.235	6.0803e-05	3.8013e-05	1.0649e-05	532.56	4.4223e-07	4.0707e-07	762.1	122.7	4.5379e-07	4.205e-07	271.55	99.316	31.107	9.3304	4.3684e-07	42.006	-72.197	-11.550	-44.533	-84.406	65.869	58.399	-84.399	-79.737	61.657	80.116	-80.362	-75.392	-74.947	-71.648	13.413	-72.049	-8191	255	
2220.244	1	1	0	0	0.22355	0.098847	0.13728	0.3129	0.031202	0.31737	0.26283	0.14322	0.17654	0.20356	0.089368	0.14102	0.10958	0.20401	0.072272	0.28467	-1.6458	-2.5542	-2.8	-2.1479	-2.6562	-2.5187	-2.4125	-2.8042	-2.3958	-2.3708	-2.6458	-2.3667	-2.6125	-2.6146	-2.2687	-2.8104	-78.448	36.713	-42.248	192.149	-85.404	13.512	207.760	-53.654	-79.060	-35.763	243.876	-1.353	-51.363	122.990	-75.054	190.141	0.00020722	0.00022041	6.3792e-05	597.86	3.1118e-06	1.212e-06	867.47	139.58	3.3196e-06	1.9386e-06	308.71	112.24	34.791	10.43	3.4862e-06	47.497	6.3487e-05	3.9426e-05	1.0824e-05	530.8	4.5099e-07	4.0912e-07	766.55	123.77	4.6736e-07	4.2947e-07	273.52	100.18	31.272	9.3799	4.3576e-07	42.218	-79.383	-8.121	10.556	-84.300	60.333	4.496	-84.347	-79.581	43.589	49.646	-80.027	-75.296	-75.510	-70.619	57.537	-71.675	-8191	255	
2220.341	1	1	0	0	0.11617	0.13778	0.2391	0.064608	0.086833	0.081094	0.29678	0.12436	0.076436	0.038233	0.31908	0.32344	0.027577	0.09767	0.1383	0.29794	-1.7729	-2.1708	-2.5729	-2.2417	-2.7271	-2.5521	-2.5021	-2.7083	-2.2146	-2.35	-2.6958	-2.2729	-2.4583	-2.6833	-2.3583	-2.7292	24.286	239.942	160.087	-33.041	-73.411	12.785	253.875	124.767	72.608	95.764	249.445	167.022	83.704	-66.655	259.868	-91.332	0.00017392	0.00036816	0.000118	599.28	2.3667e-06	1.723e-06	864.08	139.3	1.6176e-06	3.4016e-06	306.19	112.35	34.853	10.583	3.1019e-06	47.42	6.1643e-05	4.0413e-05	1.1292e-05	532.18	4.6671e-07	4.073e-07	768.03	124.28	4.4226e-07	4.6552e-07	272.73	99.957	31.275	9.4289	4.4042e-07	42.283	-76.313	4.351	-23.427	-84.584	45.593	25.081	-84.287	-79.587	56.396	69.576	-80.160	-75.450	-75.290	-70.765	36.013	-71.707	-8191	255	
2220.436	1	1	0	0	0.048207	0.017259	0.07178	0.030174	0.27087	0.073373	0.056136	0.134	0.025905	0.33359	0.20647	0.094092	0.18136	0.10673	0.17576	0.15865	-2.0021	-2.2833	-2.7208	-2.3417	-2.4813	-2.4771	-2.2979	-2.575	-2.4437	-2.5021	-2.775	-2.2833	-2.4208	-2.6146	-2.1583	-2.6063	208.471	-68.667	231.487	243.607	216.055	25.473	146.889	51.120	216.974	60.292	-48.720	-66.203	253.455	259.762	201.952	137.729	0.0002044	0.00027797	6.3306e-05	599.2	1.5874e-06	3.1358e-06	862.11	140.57	2.3353e-06	1.4059e-06	306.29	112.91	35.556	10.683	3.997e-06	47.813	6.051e-05	3.9369e-05	1.0958e-05	533.34	4.5868e-07	4.2865e-07	766.72	124.66	4.3832e-07	4.3878e-07	272.31	100.49	31.542	9.5116	4.532e-07	42.563	-75.866	-21.817	0.868	-84.581	58.830	36.807	-84.272	-79.873	48.609	40.980	-79.567	-75.509	-75.970	-70.838	37.678	-71.931	-8191	255	
2220.532	1	1	0	0	0.066695	0.22891	0.10962	0.11661	0.11409	0.13635	0.19799	0.26487	0.13367	0.12463	0.057374	0.047184	0.049354	0.38881	0.068785	0.084038	-2.1083	-2.2417	-2.7271	-2.2958	-2.4542	-2.7354	-2.3271	-2.55	-2.5125	-2.2458	-2.8271	-2.4646	-2.4833	-2.7854	-2.2458	-2.7271	250.256	11.724	93.314	202.029	34.952	1.381	151.770	232.863	181.598	127.157	96.017	-52.925	-46.057	40.530	214.203	201.794	0.00017072	0.00018744	0.00013679	603.84	2.3677e-06	2.0674e-06	859.26	140.21	1.8878e-06	4.1768e-06	308.64	113.47	34.923	10.512	1.9772e-06	47.848	6.0865e-05	3.9275e-05	1.0958e-05	535.6	4.7895e-07	4.1914e-07	767.11	124.92	4.3483e-07	4.3621e-07	273.03	100.65	31.297	9.4336	4.4991e-07	42.633	-70.652	-11.278	8.784	-84.476	18.093	83.839	-84.060	-79.732	74.985	89.794	-80.182	-75.297	-75.738	-71.428	36.836	-71.845	-8191	255	
2220.653	1	1	0	0	0.27441	0.032005	0.072306	0.18717	0.10533	0.27479	0.17857	0.14559	0.13524	0.34252	0.25205	0.076462	0.17897	0.17438	0.19633	0.17595	-1.9688	-2.2	-2.6813	-2.4854	-2.35	-2.6854	-2.2979	-2.5646	-2.5104	-2.3625	-2.6562	-2.5708	-2.5458	-2.7542	-2.2417	-2.6604	249.945	172.006	-14.418	230.859	174.951	101.890	181.657	105.276	108.442	132.122	187.848	-87.876	52.777	-23.404	-17.051	257.552	0.00018413	0.00048665	4.1544e-05	600.93	3.5257e-06	4.3018e-06	862.85	140.45	5.6353e-07	3.8591e-06	309.31	112.03	35.114	10.509	3.3627e-06	47.918	6.4164e-05	3.9919e-05	1.0542e-05	533.38	4.616e-07	4.3525e-07	765.99	124.61	4.543e-07	4.4318e-07	272.93	100.33	31.425	9.4445	4.3826e-07	42.469	-73.650	-26.455	40.111	-84.127	37.257	41.597	-84.419	-79.760	34.879	55.890	-80.039	-75.246	-75.807	-70.256	51.794	-71.761	-8191	255	
2220.749	1	1	0	0	0.25551	0.31188	0.19653	0.089549	0.1375	0.19073	0.15845	0.2196	0.28765	0.036746	0.25661	0.12165	0.24763	0.28735	0.33787	0.15949	-2.0521	-2.3438	-2.6375	-2.2687	-2.4417	-2.7625	-2.3854	-2.5583	-2.6958	-2.2354	-2.7979	-2.4646	-2.2729	-2.7896	-2.1604	-2.3854	-87.710	-61.285	80.891	-21.024	130.917	226.447	101.782	-67.212	-29.320	-59.412	135.104	196.021	-60.034	-50.754	104.489	15.870	0.00023059	0.00032095	6.2919e-05	600.75	2.7958e-06	5.0363e-06	861.87	139.63	3.16e-06	2.7942e-06	306.31	112.93	35.402	10.627	2.5061e-06	47.887	6.3674e-05	3.98e-05	1.0447e-05	531.31	4.5756e-07	4.1544e-07	762.8	124.3	4.6117e-07	4.1273e-07	272.13	100.65	31.672	9.5363	4.394e-07	42.693	-71.764	-11.300	-7.878	-84.400	63.777	26.564	-84.079	-79.711	74.560	30.600	-79.513	-75.543	-75.858	-71.208	51.406	-71.544	-8191	255	
2220.845	1	1	0	0	0.19171	0.076852	0.12399	0.2832	0.10739	0.066247	0.074241	0.38425	0.017281	0.22333	0.19404	0.18191	0.31532	0.1353	0.20153	0.051158	-2.1312	-2.0583	-2.5167	-2.6021	-2.1646	-2.6979	-2.2854	-2.4	-2.7375	-2.3292	-2.6771	-2.5792	-2.2542	-2.6	-2.4271	-2.3979	145.521	248.260	117.488	231.768	258.029	196.839	126.066	193.174	232.187	117.845	176.721	205.413	-93.153	81.144	156.031	154.281	0.00021901	0.00027443	6.9697e-05	599	1.9394e-06	2.3508e-06	857.85	137.6	2.071e-07	5.1887e-06	305.4	112.79	35.027	10.523	3.3025e-06	48.177	6.1427e-05	3.8766e-05	1.1285e-05	533.02	4.4835e-07	4.1402e-07	762.82	123.28	4.2824e-07	4.6044e-07	271.12	100.66	31.496	9.5076	4.3542e-07	42.714	-78.643	-19.353	11.188	-84.372	80.381	60.595	-84.499	-80.061	250.797	65.958	-80.068	-75.527	-75.588	-70.703	50.906	-71.563	-8191	255	
2220.941	1	1	0	0	0.13054	0.1897	0.19462	0.032573	0.11093	0.095171	0.27481	0.10694	0.08987	0.11813	0.15389	0.1491	0.16151	0.15949	0.24909	0.15348	-2.0979	-2.2271	-2.6083	-2.7354	-2.2271	-2.75	-2.5208	-2.3375	-2.8979	-2.2896	-2.6896	-2.6063	-2.3812	-2.4688	-2.5396	-2.5417	204.106	135.470	-38.687	179.188	-84.448	-15.943	206.197	-36.306	-69.092	61.056	155.265	-91.913	260.957	-60.203	202.478	-0.135	0.00021881	0.00057669	6.865e-05	604.89	1.8752e-06	2.5944e-06	861.01	138.54	1.9069e-06	2.3217e-06	306.55	113.73	35.296	10.669	3.766e-06	47.576	6.0774e-05	4.0246e-05	1.0897e-05	534.45	4.2791e-07	4.1589e-07	765.51	122.89	4.3421e-07	4.245e-07	271.04	100.9	31.465	9.5537	4.4008e-07	42.457	-72.008	-2.696	-10.613	-84.401	18.190	58.015	-83.945	-79.811	86.618	66.289	-79.941	-75.501	-75.556	-70.635	63.101	-71.801	-8191	255	
2221.062	1	1	0	0	0.29867	0.14678	0.24126	0.074679	0.048655	0.28809	0.21763	0.37108	0.28052	0.16119	0.14032	0.016561	0.17034	0.12808	0.079109	0.12453	-2.0646	-2.2354	-2.6104	-2.5667	-2.3583	-2.6729	-2.575	-2.1958	-2.6375	-2.4813	-2.6562	-2.6104	-2.0312	-2.6833	-2.5	-2.4667	155.647	99.692	-76.141	-56.303	30.449	202.780	207.194	108.692	154.728	73.886	167.989	-43.774	-92.788	-56.269	85.415	-32.836	0.0001797	0.00039044	2.2693e-05	601.25	5.6823e-06	2.0951e-06	858.99	138.2	2.4207e-06	3.5561e-06	304.23	112.32	35.277	10.575	2.9484e-06	47.736	6.0942e-05	3.7967e-05	1.165e-05	529.92	4.6991e-07	4.4413e-07	760.4	122.76	4.5171e-07	4.3118e-07	268.49	100.22	31.415	9.5482	4.4053e-07	42.661	-75.566	-53.178	-50.581	-84.690	49.413	115.705	-84.307	-79.782	64.238	56.695	-80.085	-75.215	-75.392	-71.264	15.184	-72.083	-8191	255	
2221.133	1	1	0	0	0.13786	0.2488	0.30405	0.2141	0.22429	0.12934	0.30718	0.2065	0.13429	0.14899	0.33123	0.037317	0.098784	0.1482	0.13955	0.18623	-2.2208	-2.2375	-2.3979	-2.9	-2.1771	-2.7021	-2.6521	-2.3604	-2.7396	-2.6417	-2.5062	-2.7583	-2.2771	-2.5417	-2.5521	-2.2438	-67.097	141.747	83.952	115.282	2.294	231.360	180.259	207.214	209.578	28.794	225.340	42.944	-49.508	154.991	154.198	91.984	0.00020979	0.00027892	7.0301e-05	599.94	1.5292e-06	3.9371e-06	853.35	136.93	1.4695e-06	6.0369e-07	305.04	112.15	35.299	10.592	2.1225e-06	47.873	6.3871e-05	4.0496e-05	1.1347e-05	530.18	4.511e-07	4.4937e-07	758.18	122.25	4.7749e-07	4.1216e-07	269.91	100.05	31.49	9.5206	4.4621e-07	42.647	-78.175	-18.330	-12.208	-84.571	40.963	21.889	-84.651	-80.033	110.915	-53.294	-79.796	-75.138	-75.985	-70.734	55.941	-71.696	-8191	255	
2221.230	1	1	0	0	0.18663	0.38517	0.21847	0.12311	0.047059	0.29147	0.23405	0.17965	0.014578	0.33023	0.008234	0.30296	0.024342	0.030948	0.32718	0.36792	-2.3312	-2.2062	-2.3688	-2.5312	-2.2521	-2.4729	-2.5417	-2.3625	-2.5958	-2.4542	-2.4292	-2.8688	-2.1375	-2.2458	-2.3917	-2.0229	-13.181	-14.372	219.376	236.692	-59.748	192.555	-95.546	-72.719	241.399	-4.161	25.296	241.909	45.323	212.965	131.493	136.406	0.00021733	0.00024091	4.6265e-05	592.28	2.9737e-06	6.6393e-07	850.18	135.4	2.3733e-06	1.6891e-06	297.31	111.58	34.8	10.606	2.7625e-06	47.959	6.2234e-05	3.8907e-05	1.1942e-05	526.54	4.3426e-07	4.2324e-07	755.24	120.43	4.4935e-07	4.2016e-07	263.25	99.745	31.107	9.4789	4.5144e-07	42.56	-63.408	-35.125	-18.145	-84.398	52.484	59.387	-84.254	-79.623	145.630	56.136	-79.589	-75.585	-75.158	-70.898	65.765	-71.915	-8191	255	
2221.326	1	1	0	0	0.25011	0.13748	0.18942	0.19822	0.15632	0.099685	0.13394	0.028368	0.36067	0.14602	0.154	0.15389	0.10705	0.099693	0.18706	0.1993	-2.1583	-2.5208	-2.15	-2.5812	-2.3063	-2.4521	-2.7875	-2.2625	-2.5729	-2.5833	-2.2708	-2.7854	-2.325	-2.3979	-2.6937	-2.4667	3.484	10.641	194.860	57.017	225.195	-89.357	258.266	51.166	232.713	226.839	119.741	139.892	244.377	9.491	57.747	-31.642	0.00017428	0.00025328	3.9926e-05	589.67	1.9472e-06	2.92e-06	833.52	132.04	2.9777e-06	2.7548e-06	289.45	111.02	34.321	10.568	2.087e-06	47.048	6.0275e-05	3.9405e-05	1.0571e-05	522.02	4.5728e-07	4.1851e-07	740.14	117.59	4.6308e-07	4.337e-07	256.33	98.564	30.651	9.3845	4.2208e-07	41.874	-77.679	-22.382	-18.777	-84.008	63.233	60.702	-84.246	-79.695	45.844	14.395	-79.984	-75.661	-75.769	-70.943	28.998	-71.638	-8191	255	
2221.445	1	1	0	0	0.054497	0.22701	0.06973	0.19855	0.12936	0.31466	0.27299	0.20128	0.18758	0.30255	0.12545	0.19005	0.065822	0.064003	0.18304	0.049944	-2.175	-2.5021	-2.2375	-2.6792	-2.2062	-2.5	-2.7438	-2.2604	-2.6729	-2.5271	-2.2667	-2.7562	-2.4292	-2.4833	-2.5271	-2.3688	197.365	244.617	-83.666	197.777	72.700	221.444	214.106	-64.205	38.758	-68.006	160.112	207.935	150.279	-56.381	240.803	203.332	0.00019792	0.00026271	5.2495e-05	585.26	3.4518e-06	2.1507e-06	831.99	129.61	1.6851e-06	2.7282e-06	286.22	109.57	34.329	10.441	2.6457e-06	46.979	6.0241e-05	3.6746e-05	1.028e-05	517.73	4.5054e-07	4.1635e-07	733.88	115.38	4.4001e-07	3.8491e-07	253.77	97.62	30.49	9.3542	4.1554e-07	41.838	-75.763	-33.837	-33.314	-84.370	80.555	10.515	-83.985	-80.026	46.205	56.231	-79.988	-75.803	-75.594	-70.805	34.435	-72.137	-8191	255	
2221.541	1	1	0	0	0.074714	0.096499	0.096802	0.2585	0.27747	0.10154	0.27349	0.2807	0.092853	0.28381	0.20984	0.14733	0.10782	0.1426	0.064362	0.20258	-1.9417	-2.5375	-2.3063	-2.6896	-2.4771	-2.2604	-2.7042	-2.2917	-2.5917	-2.6646	-2.2771	-2.75	-2.4583	-2.3875	-2.6312	-2.1	176.351	107.528	-74.215	218.474	216.939	-26.099	209.331	-73.954	256.563	2.228	-96.226	174.009	185.444	-5.491	129.436	160.825	0.00019923	0.00030057	6.9807e-05	576.73	3.5118e-06	3.2616e-06	825.63	128.33	1.2986e-06	1.7058e-06	280.62	109.59	33.154	10.407	3.1814e-06	46.874	6.209e-05	3.7468e-05	1.05e-05	512.87	4.3763e-07	4.2432e-07	730.06	113.88	4.5188e-07	3.8256e-07	249.29	97.308	29.901	9.3064	4.1515e-07	41.7	-77.009	-15.868	21.770	-84.359	42.556	26.347	-84.454	-79.410	99.497	33.570	-79.939	-75.452	-75.279	-70.845	64.246	-71.719	-8191	255	
#DATA ENDS
