BOXY.EXE: ISS Imagent and Oximeter Data Acquisition Program Version 0.80
Ascii Record File

#ACQ INFORMATION
2  Detector Channels 
16  External MUX Channels 
1  Auxiliary Channels 
5000  Waveform (CCF) Frequency (Hz)
1  Waveforms Skipped 
30  Waveforms Averaged 
1  Cycles Averaged 
16  Acquisitions per Waveform 
10.0806  Updata Rate (Hz) 

#FILE INFORMATION
TRUE -- External MUX Channel results are PARSED.
FALSE -- AC DC and Phase are NOT grouped.
TRUE -- Companion Program Settings File CREATED.
FALSE -- AC data not excluded
FALSE -- DC data not excluded
FALSE -- Phase data not excluded
FALSE -- Auxillary Chn. data not excluded
Tab delimiters

#CALIBRATION STATE
TRUE -- Waveform Calibration Values APPLIED.


#AUX CALIBRATION VALUES
Val Type	aux-1	

Term	1.0000e+00	
Factor	0.0000e+00	


#WF CALIBRATION VALUES
A = Detector Channel
Val Type	A-AC1	A-AC2	A-AC3	A-AC4	A-AC5	A-AC6	A-AC7	A-AC8	A-AC9	A-AC10	A-AC11	A-AC12	A-AC13	A-AC14	A-AC15	A-AC16	A-DC1	A-DC2	A-DC3	A-DC4	A-DC5	A-DC6	A-DC7	A-DC8	A-DC9	A-DC10	A-DC11	A-DC12	A-DC13	A-DC14	A-DC15	A-DC16	A-Ph1	A-Ph2	A-Ph3	A-Ph4	A-Ph5	A-Ph6	A-Ph7	A-Ph8	A-Ph9	A-Ph10	A-Ph11	A-Ph12	A-Ph13	A-Ph14	A-Ph15	A-Ph16	

Term	0.00000e+00	0.00000e+00	0.00000e+00	0.00000e+00	0.00000e+00	0.00000e+00	0.00000e+00	0.00000e+00	0.00000e+00	0.00000e+00	0.00000e+00	0.00000e+00	0.00000e+00	0.00000e+00	0.00000e+00	0.00000e+00	0.00000e+00	0.00000e+00	0.00000e+00	0.00000e+00	0.00000e+00	0.00000e+00	0.00000e+00	0.00000e+00	0.00000e+00	0.00000e+00	0.00000e+00	0.00000e+00	0.00000e+00	0.00000e+00	0.00000e+00	0.00000e+00	0.00000e+00	0.00000e+00	0.00000e+00	0.00000e+00	0.00000e+00	0.00000e+00	0.00000e+00	0.00000e+00	0.00000e+00	0.00000e+00	0.00000e+00	0.00000e+00	0.00000e+00	0.00000e+00	0.00000e+00	0.00000e+00	
Factor	1.00000e+00	1.00000e+00	1.00000e+00	1.00000e+00	1.00000e+00	1.00000e+00	1.00000e+00	1.00000e+00	1.00000e+00	1.00000e+00	1.00000e+00	1.00000e+00	1.00000e+00	1.00000e+00	1.00000e+00	1.00000e+00	1.00000e+00	1.00000e+00	1.00000e+00	1.00000e+00	1.00000e+00	1.00000e+00	1.00000e+00	1.00000e+00	1.00000e+00	1.00000e+00	1.00000e+00	1.00000e+00	1.00000e+00	1.00000e+00	1.00000e+00	1.00000e+00	X	X	X	X	X	X	X	X	X	X	X	X	X	X	X	X	

B = Detector Channel
Val Type	B-AC1	B-AC2	B-AC3	B-AC4	B-AC5	B-AC6	B-AC7	B-AC8	B-AC9	B-AC10	B-AC11	B-AC12	B-AC13	B-AC14	B-AC15	B-AC16	B-DC1	B-DC2	B-DC3	B-DC4	B-DC5	B-DC6	B-DC7	B-DC8	B-DC9	B-DC10	B-DC11	B-DC12	B-DC13	B-DC14	B-DC15	B-DC16	B-Ph1	B-Ph2	B-Ph3	B-Ph4	B-Ph5	B-Ph6	B-Ph7	B-Ph8	B-Ph9	B-Ph10	B-Ph11	B-Ph12	B-Ph13	B-Ph14	B-Ph15	B-Ph16	

Term	0.00000e+00	0.00000e+00	0.00000e+00	0.00000e+00	0.00000e+00	0.00000e+00	0.00000e+00	0.00000e+00	0.00000e+00	0.00000e+00	0.00000e+00	0.00000e+00	0.00000e+00	0.00000e+00	0.00000e+00	0.00000e+00	0.00000e+00	0.00000e+00	0.00000e+00	0.00000e+00	0.00000e+00	0.00000e+00	0.00000e+00	0.00000e+00	0.00000e+00	0.00000e+00	0.00000e+00	0.00000e+00	0.00000e+00	0.00000e+00	0.00000e+00	0.00000e+00	-3.63263e+01	-1.44616e+02	-1.36455e+02	-1.83436e+02	-6.47196e+01	-8.14628e+01	-1.60695e+02	-1.62015e+02	-4.27404e+01	-5.87643e+01	-1.72707e+02	-1.72386e+02	-1.83401e+02	-1.78286e+02	-6.56670e+01	-1.51169e+02	
Factor	2.16242e-05	1.40199e-04	3.24853e-05	1.48686e-01	1.47159e-06	1.31807e-06	1.62454e-01	5.10240e-02	1.11014e-06	1.35182e-06	7.91605e-02	2.65441e-02	2.35584e-02	8.15133e-03	1.44641e-06	1.17866e-02	2.30442e-06	2.49268e-06	6.93736e-07	7.79555e-02	2.69482e-08	2.73278e-08	7.97935e-02	2.67642e-02	2.70149e-08	2.74240e-08	4.00788e-02	1.34491e-02	1.24290e-02	4.29815e-03	2.72636e-08	5.99323e-03	X	X	X	X	X	X	X	X	X	X	X	X	X	X	X	X	



#DISTANCE SETTINGS
A = Detector Channel
A-1	A-2	A-3	A-4	A-5	A-6	A-7	A-8	A-9	A-10	A-11	A-12	A-13	A-14	A-15	A-16	

2.5000e+00	3.0000e+00	2.5000e+00	3.0000e+00	2.0000e+00	3.0000e+00	1.5000e+00	3.0000e+00	3.0000e+00	3.0000e+00	3.0000e+00	3.0000e+00	3.0000e+00	3.0000e+00	1.5000e+00	3.0000e+00	

B = Detector Channel
B-1	B-2	B-3	B-4	B-5	B-6	B-7	B-8	B-9	B-10	B-11	B-12	B-13	B-14	B-15	B-16	

1.0000e+01	1.0000e+01	1.0000e+01	1.4400e+00	1.0000e+01	1.0000e+01	1.5100e+00	1.9400e+00	1.0000e+01	1.0000e+01	1.9900e+00	2.4900e+00	2.4100e+00	2.9000e+00	1.0000e+01	2.9800e+00	




#DATA BEGINS
time	group	step	mark	flag	A-AC1	A-AC2	A-AC3	A-AC4	A-AC5	A-AC6	A-AC7	A-AC8	A-AC9	A-AC10	A-AC11	A-AC12	A-AC13	A-AC14	A-AC15	A-AC16	A-DC1	A-DC2	A-DC3	A-DC4	A-DC5	A-DC6	A-DC7	A-DC8	A-DC9	A-DC10	A-DC11	A-DC12	A-DC13	A-DC14	A-DC15	A-DC16	A-Ph1	A-Ph2	A-Ph3	A-Ph4	A-Ph5	A-Ph6	A-Ph7	A-Ph8	A-Ph9	A-Ph10	A-Ph11	A-Ph12	A-Ph13	A-Ph14	A-Ph15	A-Ph16	B-AC1	B-AC2	B-AC3	B-AC4	B-AC5	B-AC6	B-AC7	B-AC8	B-AC9	B-AC10	B-AC11	B-AC12	B-AC13	B-AC14	B-AC15	B-AC16	B-DC1	B-DC2	B-DC3	B-DC4	B-DC5	B-DC6	B-DC7	B-DC8	B-DC9	B-DC10	B-DC11	B-DC12	B-DC13	B-DC14	B-DC15	B-DC16	B-Ph1	B-Ph2	B-Ph3	B-Ph4	B-Ph5	B-Ph6	B-Ph7	B-Ph8	B-Ph9	B-Ph10	B-Ph11	B-Ph12	B-Ph13	B-Ph14	B-Ph15	B-Ph16	aux-1	digaux	

1682.094	1	1	0	256	0.1316	0.25653	0.35064	0.1451	0.41643	0.14223	0.2208	0.40426	0.095634	0.20144	0.13544	0.21502	0.22642	0.12781	0.11342	0.16865	-1.9583	-2.5021	-2.5771	-2.5292	-2.6979	-2.5812	-2.4854	-2.9208	-2.2833	-2.5104	-2.8021	-2.3583	-2.7521	-2.575	-2.3375	-2.8167	-54.310	-86.976	82.975	-97.667	-27.267	256.924	225.613	211.604	165.590	-14.347	-77.134	108.420	211.593	186.104	185.871	209.929	0.00012646	0.00024484	4.9882e-05	1125.6	2.398e-06	1.375e-06	1216.1	234.66	3.2899e-06	3.4361e-06	293.45	82.527	63.725	19.333	5.3227e-06	26.598	0.00022622	0.00022815	6.3392e-05	1103	2.5017e-06	2.527e-06	1189.8	231.19	2.5047e-06	2.5457e-06	290.61	82.298	63.637	19.492	2.4873e-06	26.92	-50.254	53.598	225.688	-90.355	181.295	-42.409	-90.048	-82.643	25.067	34.720	-83.083	-76.313	-76.169	-68.849	9.720	-69.403	-8191	255	
1682.189	1	1	0	0	0.30202	0.40056	0.17875	0.071791	0.23937	0.17861	0.26614	0.31816	0.21748	0.094649	0.079479	0.05467	0.099585	0.07989	0.27075	0.16143	-1.8854	-2.3896	-2.6792	-2.5062	-2.7167	-2.6562	-2.4813	-2.7833	-2.1729	-2.5042	-2.8896	-2.4562	-2.7333	-2.6542	-2.2604	-2.7042	227.926	242.956	105.673	-18.273	151.633	-15.432	204.191	177.460	116.529	124.433	-61.350	231.529	120.446	213.829	-11.811	194.890	6.6374e-05	0.0003617	6.9473e-05	1127.4	1.3749e-06	1.8635e-06	1222.4	234.54	4.5934e-06	2.9992e-06	295.71	82.286	63.252	19.241	4.4028e-06	27.098	0.0002276	0.00023571	6.6404e-05	1104	2.6606e-06	2.5666e-06	1194.8	231.56	2.7001e-06	2.6654e-06	291.79	82.662	63.525	19.576	2.8047e-06	27.103	-64.739	-23.845	255.221	-90.295	106.725	-19.044	-89.820	-82.579	33.434	153.626	-83.217	-76.414	-76.136	-68.936	51.619	-69.634	-8191	255	
1682.309	1	1	0	0	0.050544	0.11977	0.16774	0.31708	0.083259	0.23305	0.15165	0.18144	0.27657	0.056155	0.14874	0.21649	0.30709	0.12933	0.1546	0.25548	-2.1208	-2.5125	-2.7	-2.4729	-2.5542	-2.6458	-2.5146	-2.6875	-2.4875	-2.4083	-2.8	-2.5354	-2.5687	-2.6125	-2.1167	-2.7021	-3.508	210.849	82.439	183.631	226.949	130.345	-56.218	-28.929	-49.943	169.927	128.829	68.610	-9.390	155.678	78.407	-71.931	7.4402e-05	0.00038537	8.4665e-05	1133.4	3.8251e-06	8.1429e-06	1229.5	234.86	6.459e-07	4.9391e-07	296.19	82.282	64.242	19.353	4.4909e-06	26.897	0.00025282	0.00026637	7.3461e-05	1113.1	2.9525e-06	2.9094e-06	1200.9	232.99	2.9255e-06	2.8388e-06	292.61	82.859	64.34	19.628	2.8016e-06	27.168	-71.512	-20.140	-17.921	-90.192	47.339	-13.027	-90.047	-82.732	236.423	82.240	-83.174	-76.085	-76.173	-68.902	97.569	-69.699	-8191	255	
1682.405	1	1	0	0	0.21861	0.25626	0.029061	0.13268	0.16523	0.21621	0.49442	0.32476	0.13773	0.31784	0.12096	0.15281	0.3369	0.15291	0.19967	0.099185	-2.0812	-2.1896	-2.7271	-2.5292	-2.4938	-2.7354	-2.425	-2.9375	-2.3896	-2.2833	-2.9125	-2.5104	-2.2625	-2.6875	-2.4271	-2.4604	195.175	-9.685	-32.754	195.744	210.406	226.771	202.941	153.778	-39.877	205.481	158.820	-98.129	182.052	-60.898	1.196	214.027	0.00012898	0.00029619	9.2777e-05	1130.9	4.5038e-06	9.8629e-07	1228.3	236.71	2.506e-06	4.0993e-06	297.76	82.832	64.141	19.455	1.6455e-06	27.016	0.00025344	0.00025615	7.1835e-05	1111.5	2.9088e-06	2.8222e-06	1203.6	233.72	2.9276e-06	2.9624e-06	294.22	83.187	64.481	19.732	3.0321e-06	27.255	-73.557	28.399	-17.492	-90.363	90.767	-55.453	-90.112	-82.453	115.128	-1.237	-83.248	-76.112	-76.038	-69.196	256.390	-69.600	-8191	255	
1682.501	1	1	0	0	0.1923	0.19437	0.15423	0.070072	0.38721	0.022973	0.17367	0.27735	0.38604	0.12184	0.15591	0.067292	0.12745	0.1975	0.050642	0.14872	-2.0896	-2.175	-2.5854	-2.5187	-2.3583	-2.6083	-2.3646	-2.5979	-2.7458	-2.3521	-2.7687	-2.8083	-2.55	-2.6146	-2.3375	-2.7479	65.875	-35.972	20.977	219.487	97.773	84.727	226.024	163.646	250.351	34.803	-53.075	-55.467	-22.972	11.816	-43.820	24.905	9.862e-05	0.00021184	6.4501e-05	1142.6	5.3001e-06	3.0484e-06	1235.4	236.04	1.5553e-06	7.2087e-07	298.55	83.21	64.17	19.67	1.8457e-06	27.108	0.00026861	0.00027561	7.6023e-05	1120.3	3.0933e-06	3.0529e-06	1210.2	234.69	3.1489e-06	3.151e-06	294.98	83.599	64.63	19.871	3.2422e-06	27.472	-77.229	-11.815	258.191	-90.166	83.083	84.279	-90.203	-82.740	92.279	134.883	-83.015	-76.193	-76.240	-69.085	161.050	-69.720	-8191	255	
1682.598	1	1	0	0	0.091054	0.1792	0.081922	0.27624	0.2372	0.18996	0.20321	0.11214	0.064395	0.14284	0.36325	0.1661	0.17319	0.089619	0.11486	0.20913	-2.2687	-2.3792	-2.6354	-2.7417	-2.5646	-2.7208	-2.5729	-2.5479	-2.8083	-2.4292	-2.8438	-2.5625	-2.2792	-2.825	-2.5417	-2.4521	191.105	-11.816	70.937	220.379	217.524	15.542	199.140	212.679	-4.057	95.581	233.776	240.055	208.753	-88.435	83.316	109.015	0.00013592	0.00016392	0.00015162	1150.2	2.2516e-06	2.824e-06	1239.6	237.83	2.4895e-07	2.0804e-06	300.06	82.918	64.843	19.703	2.324e-06	27.353	0.00029627	0.00029066	8.1974e-05	1124.9	3.2728e-06	3.2322e-06	1213.8	236.11	3.2712e-06	3.2828e-06	296.14	83.675	64.932	19.933	3.206e-06	27.557	-78.007	233.989	-0.210	-90.592	258.278	45.591	-90.014	-82.838	44.816	9.760	-83.264	-76.535	-76.131	-69.152	-14.051	-69.922	-8191	255	
1682.694	1	1	0	0	0.17529	0.11784	0.1475	0.24958	0.017281	0.13865	0.24498	0.33871	0.13922	0.21172	0.25174	0.10668	0.39468	0.26426	0.13391	0.28698	-2.1917	-2.2354	-2.5458	-2.6521	-2.3417	-2.8292	-2.5875	-2.5042	-2.8271	-2.4042	-2.7958	-2.6021	-2.4021	-2.7833	-2.3479	-2.65	48.013	117.918	-6.345	206.558	246.456	12.768	166.452	208.498	49.849	183.786	186.000	179.603	-97.573	137.781	-1.541	-59.410	0.00017343	0.0003827	4.9325e-05	1152.6	4.0342e-06	4.7246e-06	1242.2	236.76	4.127e-06	4.903e-06	298.97	84.423	65.196	19.564	3.426e-06	27.349	0.00027863	0.00028385	8.0287e-05	1127	3.1424e-06	3.0046e-06	1217.4	235.86	2.9995e-06	3.0019e-06	295.5	83.945	65.092	19.88	3.1259e-06	27.455	-85.203	14.281	60.939	-90.383	48.495	22.591	-90.229	-82.894	36.607	61.528	-83.293	-76.275	-76.199	-69.159	58.212	-69.417	-8191	255	
1682.790	1	1	0	0	0.19573	0.013656	0.068192	0.26922	0.24817	0.15272	0.356	0.18672	0.16026	0.13874	0.12559	0.19563	0.20902	0.15551	0.081414	0.20469	-2.1354	-2.4333	-2.5563	-2.7917	-2.1479	-2.7458	-2.6562	-2.5167	-2.8792	-2.4479	-2.5208	-2.6729	-2.2354	-2.6188	-2.5146	-2.4229	179.026	196.764	58.915	203.879	181.136	211.272	159.084	178.939	-47.719	250.977	195.589	197.628	-22.662	212.222	202.702	61.190	0.00010894	0.00025808	5.5602e-05	1145.7	5.5797e-06	1.4315e-06	1237.2	237.89	1.0255e-06	3.6296e-06	299.97	83.333	64.567	19.432	4.3236e-06	26.864	0.00028106	0.00027953	7.7891e-05	1123.7	2.9606e-06	2.8268e-06	1210.8	235.35	2.7625e-06	2.6947e-06	294.74	83.226	64.443	19.63	2.4375e-06	27.196	-47.498	32.469	222.471	-90.237	37.719	49.267	-90.133	-82.823	104.976	8.923	-82.920	-75.863	-75.905	-69.239	38.657	-69.251	-8191	255	
1682.886	1	1	0	0	0.12267	0.19547	0.14719	0.18869	0.10906	0.19923	0.13107	0.36919	0.13989	0.31804	0.026375	0.069458	0.1377	0.080095	0.04541	0.12852	-2.5583	-2.3542	-2.4375	-2.9333	-2.2854	-2.6229	-2.6417	-2.3937	-2.8104	-2.2271	-2.6104	-2.9771	-2.1646	-2.6312	-2.6146	-2.2979	-60.791	-26.137	-98.268	252.370	149.751	29.388	41.964	208.577	57.710	97.799	89.900	186.844	98.352	235.153	195.444	181.234	0.00012015	0.0004344	5.5381e-05	1141.9	3.1264e-06	1.7463e-06	1228.4	237.59	1.2371e-06	8.8311e-07	298.18	83.455	64.173	19.38	4.6088e-06	27.059	0.00022049	0.00022335	6.0737e-05	1113.3	2.4215e-06	2.3871e-06	1199.4	233.77	2.4313e-06	2.3751e-06	293.14	83.25	64.124	19.589	2.4031e-06	27.091	-81.952	-5.990	44.276	-90.405	24.080	7.781	-90.247	-82.934	-76.348	44.760	-82.949	-76.207	-75.585	-68.659	63.291	-69.195	-8191	255	
1683.007	1	1	0	0	0.1512	0.28196	0.29399	0.15521	0.044135	0.10229	0.19044	0.33234	0.025592	0.24262	0.2234	0.11265	0.18024	0.056405	0.31721	0.11299	-2.0771	-2.4396	-2.4104	-2.9833	-2.1208	-2.7438	-2.8563	-2.5021	-2.6083	-2.5667	-2.5292	-2.8563	-2.3292	-2.7542	-2.5167	-2.2729	166.171	-76.478	123.695	196.417	144.545	96.241	164.245	214.400	3.185	166.328	136.376	221.678	83.712	-25.984	108.674	203.446	9.6367e-05	0.00052172	7.1428e-05	1137.3	1.3308e-06	4.3875e-07	1227.1	236.35	1.6806e-06	2.251e-06	297.75	82.352	63.385	19.208	4.015e-07	26.801	0.00021445	0.0002154	5.9241e-05	1110.1	2.3448e-06	2.2867e-06	1198.3	232.97	2.2816e-06	2.1364e-06	291.53	81.976	63.385	19.357	2.0785e-06	26.858	-87.052	-20.538	43.310	-90.209	168.346	172.347	-90.156	-82.637	100.666	143.721	-82.940	-76.180	-75.784	-68.928	184.762	-69.181	-8191	255	
1683.101	1	1	0	0	0.10876	0.058136	0.089914	0.17187	0.25252	0.019865	0.17615	0.20179	0.025601	0.24824	0.057905	0.39784	0.15643	0.092889	0.1875	0.16784	-2.4188	-2.45	-2.3521	-2.9437	-2.2646	-2.725	-2.8292	-2.4771	-2.8333	-2.4875	-2.3896	-2.8667	-2.3375	-2.6583	-2.7083	-2.3854	46.498	-68.526	9.950	153.609	-17.587	218.484	207.926	185.332	-55.554	82.515	-97.778	-66.159	-87.551	-74.316	199.444	231.258	7.4792e-05	0.00040544	6.4391e-05	1113.4	2.8719e-06	3.6054e-06	1205.4	231.58	2.2133e-06	3.8123e-06	293.02	81.451	63.181	19.112	2.0301e-06	26.536	0.00018458	0.00018436	5.2124e-05	1093.7	2.1067e-06	2.1722e-06	1180.7	229.27	2.312e-06	2.3597e-06	287.86	81.416	63.02	19.288	2.4448e-06	26.735	-81.461	-8.613	-87.601	-90.117	153.860	21.679	-89.998	-82.613	8.678	114.777	-83.104	-75.846	-76.118	-68.686	35.484	-68.989	-8191	255	
1683.197	1	1	0	0	0.19066	0.36895	0.056891	0.26384	0.090988	0.15315	0.25188	0.027885	0.088023	0.11668	0.047646	0.075329	0.30264	0.090979	0.12003	0.10053	-2.2646	-2.5042	-2.3479	-3.0167	-2.4771	-2.5958	-2.8271	-2.4625	-2.7812	-2.6021	-2.5938	-2.8646	-2.3812	-2.5187	-2.6854	-2.5479	38.772	128.998	222.224	229.279	77.134	110.610	203.631	200.061	213.873	67.428	7.106	186.355	231.376	242.866	80.318	-61.683	0.00011395	0.00025201	9.3923e-05	1116	2.7534e-06	1.764e-06	1204.6	230.81	1.9501e-06	4.5511e-06	290.54	81.266	62.834	18.964	4.977e-06	26.681	0.00023287	0.00022706	6.538e-05	1091.8	2.61e-06	2.6606e-06	1179.6	227.76	2.6936e-06	2.6395e-06	286.63	81.537	62.757	19.188	2.6161e-06	26.734	-88.829	3.541	-18.129	-90.055	-42.191	39.540	-90.204	-82.789	19.651	99.529	-83.028	-76.235	-76.073	-68.878	30.280	-69.403	-8191	255	
1683.318	1	1	0	0	0.22549	0.11388	0.17172	0.23762	0.24912	0.25991	0.48407	0.15358	0.083054	0.04645	0.20644	0.074691	0.13745	0.13755	0.15628	0.23208	-2.3042	-2.6937	-2.2083	-2.8833	-2.4083	-2.3	-2.9062	-2.4437	-2.5458	-2.75	-2.3958	-2.7438	-2.3354	-2.5521	-2.7333	-2.45	247.497	200.519	93.600	205.298	179.148	226.103	202.518	231.105	-25.329	-31.513	-71.312	88.993	218.609	1.270	80.078	205.063	9.513e-05	0.00055143	0.0001096	1113.1	2.7742e-06	3.4669e-06	1201.4	229.36	2.5411e-07	1.9982e-06	289.54	80.687	62.401	18.992	3.8489e-06	26.312	0.00023548	0.00022768	6.2484e-05	1088.9	2.4742e-06	2.3828e-06	1174.3	226.76	2.3569e-06	2.2303e-06	284.5	80.72	62.251	19.051	2.077e-06	26.38	-70.531	3.291	-31.247	-90.359	51.287	8.728	-90.259	-82.483	-63.168	114.626	-83.241	-76.173	-75.812	-68.873	35.374	-69.154	-8191	255	
1683.390	1	1	0	0	0.063221	0.089471	0.21566	0.16669	0.11248	0.25564	0.1584	0.35824	0.13446	0.21112	0.17787	0.25293	0.29403	0.093626	0.097446	0.19017	-2.2146	-2.7	-2.3521	-2.8146	-2.5667	-2.4354	-2.8875	-2.5	-2.6146	-2.7938	-2.3729	-2.7083	-2.5792	-2.4813	-2.975	-2.3729	-64.347	12.803	53.139	217.225	235.518	32.121	158.717	185.157	223.179	-55.788	156.209	169.601	141.546	125.091	-95.873	-61.441	9.1836e-05	0.00047406	8.5995e-05	1100.4	2.6014e-06	2.2468e-06	1190.6	227.61	1.6809e-06	2.9334e-06	287.84	80.368	62.222	18.983	2.9269e-06	26.323	0.00019143	0.00018366	5.0056e-05	1073.1	1.9596e-06	1.9066e-06	1160	224.7	1.8868e-06	1.8977e-06	282.85	80.368	62.06	19.023	1.9139e-06	26.436	-68.135	-62.173	-40.822	-89.982	33.988	73.963	-89.633	-82.336	6.152	42.815	-82.997	-75.559	-75.856	-68.934	1.975	-68.968	-8191	255	
1683.486	1	1	0	0	0.21382	0.21698	0.25731	0.23808	0.16773	0.32456	0.15996	0.14092	0.11772	0.41054	0.17035	0.28541	0.009048	0.2217	0.22779	0.30017	-1.925	-2.7792	-2.4042	-2.9958	-2.5333	-2.3438	-2.8604	-2.6146	-2.3833	-2.6937	-2.3312	-2.7562	-2.575	-2.2188	-2.6292	-2.4896	234.254	159.953	125.275	-76.913	148.956	21.192	156.030	209.223	-71.791	227.544	-46.629	-97.184	186.482	-58.623	101.505	182.443	0.00012829	0.00058183	8.6048e-05	1102.7	3.9742e-07	2.8482e-06	1192.7	228.4	2.234e-06	1.7922e-06	289.6	81.661	63.228	19.203	2.9308e-06	26.739	0.00017803	0.00017767	4.9372e-05	1077.5	1.993e-06	1.9296e-06	1166.5	225.36	1.8717e-06	1.8008e-06	284.75	81.025	62.704	19.273	1.7949e-06	26.705	-84.019	-23.261	-4.062	-90.264	41.864	61.136	-90.063	-82.989	88.970	72.846	-83.128	-75.867	-75.704	-69.085	45.175	-69.226	-8191	255	
1683.606	1	1	0	0	0.043632	0.14265	0.14731	0.12272	0.13062	0.022237	0.28323	0.18491	0.05511	0.12789	0.058087	0.24542	0.20327	0.16401	0.032614	0.241	-2.2521	-2.7188	-2.3833	-2.8937	-2.7208	-2.5312	-2.9604	-2.7208	-2.4792	-2.7021	-2.5083	-2.6667	-2.5771	-2.3125	-2.7146	-2.6583	139.729	101.867	99.943	128.282	238.772	-86.513	152.291	154.538	149.109	190.161	133.492	250.520	-11.262	-80.743	-33.793	244.580	0.00013263	0.00030242	6.2322e-05	1117.6	2.2103e-06	2.5054e-06	1201.6	233.48	2.7878e-06	2.0586e-06	294.67	81.981	63.281	19.483	5.0523e-06	26.736	0.0001678	0.00016115	4.3701e-05	1088.9	1.6945e-06	1.596e-06	1172.4	229.93	1.5203e-06	1.5113e-06	289.14	81.715	62.986	19.47	1.5094e-06	26.775	-56.540	-27.552	11.490	-90.213	41.291	23.586	-90.022	-82.713	101.972	64.750	-82.957	-75.902	-75.430	-69.165	63.555	-69.656	-8191	255	
1683.702	1	1	0	0	0.13382	0.030638	0.17679	0.20888	0.20178	0.22285	0.078102	0.14676	0.12725	0.15041	0.22371	0.24904	0.15354	0.21068	0.03309	0.090888	-1.975	-2.8375	-2.1917	-2.7833	-2.8812	-2.1104	-2.9146	-2.7604	-2.4	-2.8354	-2.5167	-2.4396	-2.6063	-2.2562	-2.6125	-2.6854	-59.633	-62.587	-56.680	179.931	189.091	16.238	15.244	127.346	177.284	-14.713	215.154	227.611	64.964	126.937	235.323	-91.786	8.3384e-05	1.18e-05	6.5954e-05	1113.8	2.0825e-06	7.0586e-07	1209.7	236.74	3.8547e-06	4.3465e-06	297.77	82.665	63.723	19.692	3.785e-06	26.74	0.00014077	0.00013477	3.777e-05	1088.4	1.5207e-06	1.4651e-06	1176.8	233.32	1.5265e-06	1.4953e-06	292.05	82.032	63.362	19.603	1.5205e-06	26.895	-75.826	173.719	24.471	-90.338	50.378	47.584	-90.198	-82.828	16.894	26.683	-82.928	-75.996	-75.971	-68.949	66.664	-69.412	-8191	255	
1683.799	1	1	0	0	0.11553	0.1791	0.1927	0.14506	0.12322	0.013581	0.17335	0.26462	0.02415	0.10697	0.075034	0.039775	0.076869	0.075742	0.13787	0.11472	-1.9104	-2.6646	-2.2896	-2.5958	-2.8417	-2.2875	-2.9958	-2.7146	-2.3417	-2.7292	-2.5312	-2.3833	-2.7042	-2.3125	-2.7062	-2.5854	165.408	74.777	180.043	136.744	-5.810	-74.881	163.656	190.789	137.488	249.136	216.164	107.212	198.715	39.441	26.128	112.740	0.00013631	0.00031789	3.9913e-05	1118.5	3.2905e-06	3.9351e-06	1203.7	237.37	1.0207e-06	1.4365e-06	296.18	82.426	64.086	19.469	4.0173e-06	26.894	0.0001424	0.00013384	3.8193e-05	1086.1	1.479e-06	1.4745e-06	1174.9	233.91	1.5031e-06	1.4518e-06	290.95	82.024	63.232	19.533	1.488e-06	26.924	-79.894	-42.159	-79.631	-90.143	64.674	23.538	-89.796	-82.859	-75.964	21.977	-83.098	-75.902	-76.007	-69.119	63.893	-69.639	-8191	255	
1683.895	1	1	0	0	0.37553	0.11067	0.26774	0.23232	0.16183	0.19544	0.23002	0.14391	0.18533	0.28915	0.064485	0.2196	0.10759	0.049738	0.13759	0.04315	-1.9083	-2.825	-2.4167	-2.5333	-2.7625	-2.3063	-2.7292	-2.6875	-2.0917	-2.5667	-2.7271	-2.4625	-2.9604	-2.3271	-2.5667	-2.7896	-21.520	-35.293	-80.655	209.250	53.021	99.114	-97.934	105.035	237.617	51.319	27.332	257.631	144.729	81.177	26.856	22.081	8.3021e-05	0.00044271	9.9016e-05	1113.8	4.927e-06	1.2202e-06	1206.1	239.44	2.5282e-06	2.5769e-06	297.33	82.618	63.733	19.531	3.0308e-06	27.061	0.00014516	0.00013436	3.7587e-05	1086.2	1.448e-06	1.4299e-06	1176	234.31	1.4359e-06	1.3778e-06	290.56	81.944	63.292	19.416	1.3481e-06	26.905	-75.273	-23.924	-8.243	-90.287	54.082	60.113	-89.831	-82.625	75.951	46.714	-83.157	-76.011	-75.912	-69.345	93.484	-69.829	-8191	255	
1683.991	1	1	0	0	0.014279	0.029838	0.077074	0.15167	0.12103	0.17583	0.43328	0.13526	0.1333	0.21558	0.09615	0.14891	0.052085	0.041401	0.055756	0.22487	-1.7896	-2.5646	-2.5187	-2.4437	-2.7667	-2.4292	-2.4417	-2.7792	-2.3104	-2.5708	-2.6708	-2.3771	-2.8229	-2.5208	-2.4479	-2.8979	4.955	91.734	-40.215	-43.439	118.829	-78.559	148.320	111.563	-35.001	175.365	255.329	209.084	189.357	167.683	15.031	205.210	9.0978e-05	0.00014075	4.6343e-05	1116.3	3.5133e-06	8.7082e-07	1203.8	236.29	7.6633e-07	5.056e-06	296.66	82.864	63.691	19.418	2.899e-06	26.806	0.00012588	0.00011627	3.3166e-05	1088.4	1.2879e-06	1.2292e-06	1175.7	233.08	1.2476e-06	1.2195e-06	290.98	82.103	62.897	19.34	1.2108e-06	26.716	-85.395	-41.764	-9.107	-90.135	69.636	35.504	-90.125	-83.153	-16.984	49.668	-83.060	-76.008	-76.148	-69.024	36.874	-69.410	-8191	255	
1684.087	1	1	0	0	0.29742	0.28828	0.092162	0.24551	0.062129	0.074442	0.040766	0.18043	0.1981	0.076542	0.076781	0.17916	0.10632	0.18369	0.14487	0.073554	-1.7167	-2.5312	-2.8167	-2.4229	-2.6896	-2.4792	-2.6375	-2.8083	-2.4896	-2.7167	-3.0167	-2.3917	-2.5375	-2.6188	-2.275	-2.8896	127.920	-55.548	82.650	212.653	243.236	187.455	257.600	166.589	150.351	225.111	222.458	-43.968	247.176	171.046	-97.010	3.502	0.00016542	0.00040175	4.3987e-05	1116.5	3.0258e-06	1.5579e-06	1192.6	236.67	8.5675e-07	3.2512e-06	295.33	82.639	63.228	19.288	2.7104e-06	26.795	0.00011562	0.00010565	2.9085e-05	1084.9	1.1525e-06	1.1173e-06	1167.7	232.39	1.1307e-06	1.0877e-06	288.8	81.402	62.528	19.198	1.1072e-06	26.554	-70.896	-52.565	-7.311	-90.208	111.900	-33.458	-90.146	-82.888	121.326	70.030	-82.931	-76.188	-75.686	-69.036	51.046	-69.001	-8191	255	
1684.181	1	1	0	0	0.12348	0.16964	0.12934	0.1498	0.093874	0.13743	0.12176	0.15089	0.13556	0.20311	0.064933	0.36732	0.21479	0.16531	0.08917	0.21151	-1.9354	-2.5917	-2.75	-2.4875	-2.7604	-2.5708	-2.6354	-2.975	-2.3187	-2.6979	-2.8312	-2.35	-2.7917	-2.5271	-2.3375	-2.8208	51.585	221.297	107.556	-16.806	94.611	38.034	164.521	-57.613	-10.967	-62.668	-85.943	225.867	97.708	221.169	220.647	-24.402	0.00012215	0.00029472	0.00014503	1104.8	1.9709e-06	2.8998e-06	1196.1	233.66	5.8184e-07	3.2959e-06	293.28	81.832	62.506	19.089	3.9299e-06	26.386	0.00010963	9.925e-05	2.6775e-05	1074.1	1.0787e-06	1.0528e-06	1162.1	229.38	1.1406e-06	1.0589e-06	286.73	80.676	62.085	19.05	1.0688e-06	26.442	-81.824	-36.278	-2.644	-90.009	92.625	60.362	-90.028	-82.722	-7.306	57.760	-83.038	-75.670	-75.712	-68.908	49.268	-69.047	-8191	255	
1684.278	1	1	0	0	0.18182	0.2819	0.25094	0.19285	0.25769	0.23877	0.13306	0.15463	0.061069	0.31956	0.26695	0.42491	0.17836	0.023605	0.20423	0.23449	-1.9521	-2.5458	-2.6688	-2.5958	-2.6125	-2.7188	-2.4708	-2.85	-2.5667	-2.3875	-2.9562	-2.4354	-2.6208	-2.625	-2.4042	-2.8521	-5.930	69.949	224.146	168.705	4.239	234.026	210.195	213.790	-73.738	212.068	205.991	213.734	-91.419	149.202	71.194	200.400	9.0476e-05	0.00028203	5.4569e-05	1099.1	9.3243e-07	1.5572e-06	1188.2	231.51	1.1891e-06	2.8139e-06	291.62	80.734	62.925	18.911	3.3482e-06	26.564	0.00010741	9.884e-05	2.7434e-05	1069	1.1834e-06	1.145e-06	1156.5	227.48	1.1665e-06	1.1505e-06	284.87	80.326	61.977	18.998	1.1621e-06	26.367	-66.763	13.037	-4.278	-90.132	90.390	98.178	-90.165	-82.641	97.580	63.614	-82.849	-75.817	-75.954	-68.787	61.532	-69.807	-8191	255	
1684.398	1	1	0	0	0.19292	0.19254	0.15258	0.36592	0.098225	0.23921	0.10526	0.15714	0.16576	0.16356	0.19328	0.076604	0.29706	0.11099	0.19804	0.18939	-2.1125	-2.3854	-2.8563	-2.5708	-2.5187	-2.7667	-2.4562	-2.8042	-2.6458	-2.4708	-2.8438	-2.4229	-2.6625	-2.7062	-2.5354	-2.9208	201.953	222.606	135.553	186.875	64.582	56.125	-48.981	-34.993	187.024	101.458	-32.902	194.625	252.839	-86.663	211.779	39.266	5.7623e-05	0.00042191	2.1747e-05	1096.7	1.0954e-06	3.2337e-06	1187.6	229.97	5.6326e-07	1.7507e-06	290.58	81.286	62.747	18.982	2.7999e-06	26.447	0.00011756	0.00010802	2.9371e-05	1068.4	1.1948e-06	1.1474e-06	1155.6	226.43	1.2011e-06	1.1865e-06	284.9	80.444	61.925	19.007	1.1764e-06	26.324	-98.374	-4.991	-26.607	-89.985	83.805	22.084	-89.928	-82.500	179.876	84.636	-83.228	-75.988	-75.959	-69.021	17.145	-69.557	-8191	255	
1684.494	1	1	0	0	0.050434	0.08691	0.15329	0.54718	0.064916	0.22656	0.20631	0.13953	0.2141	0.10041	0.060727	0.13464	0.12033	0.051311	0.085305	0.061844	-2.0708	-2.2687	-2.9042	-2.5167	-2.5479	-2.725	-2.3896	-2.8271	-2.6271	-2.5	-2.8521	-2.3875	-2.4688	-2.8438	-2.3125	-2.6958	5.691	-26.025	39.421	234.455	159.901	57.294	200.762	230.030	-14.023	27.536	-56.426	102.424	224.918	-73.897	12.012	92.886	6.7934e-05	0.00039122	4.1853e-05	1095.8	1.5836e-06	3.1158e-06	1178.2	230.74	4.8104e-07	6.6974e-07	291.76	80.371	61.992	18.902	2.0588e-06	26.285	0.00011221	0.00010408	2.8099e-05	1067	1.2111e-06	1.115e-06	1150.2	226.44	1.1423e-06	1.1312e-06	284.43	80.102	61.491	18.935	1.2164e-06	26.169	-63.447	-26.710	-29.067	-90.178	73.603	65.241	-90.025	-82.520	-55.497	204.039	-82.774	-75.879	-75.731	-68.972	57.308	-69.774	-8191	255	
1684.591	1	1	0	0	0.14266	0.16018	0.073109	0.085221	0.2262	0.085805	0.24558	0.251	0.1219	0.21983	0.11581	0.065504	0.16989	0.089105	0.19431	0.12135	-2.2042	-2.2521	-2.7292	-2.7188	-2.4896	-2.9917	-2.5958	-2.6125	-2.7479	-2.3604	-2.8854	-2.775	-2.6333	-2.8312	-2.3083	-2.5062	210.027	43.734	-54.924	198.253	-60.181	-62.468	163.003	235.034	112.552	213.431	110.514	-30.240	254.047	71.650	130.114	171.673	0.00011266	0.00035111	5.6854e-05	1095.8	1.5309e-06	3.3929e-06	1188.8	230.44	1.4636e-06	3.8143e-06	290.46	81.053	62.547	19.102	2.9856e-06	26.322	0.00011404	0.00010803	2.9754e-05	1067.1	1.2306e-06	1.1668e-06	1156.4	226.85	1.2622e-06	1.203e-06	284.17	80.294	61.804	19.046	1.237e-06	26.262	-71.625	-9.579	-12.194	-90.291	62.641	41.474	-89.906	-82.925	105.460	40.333	-83.244	-75.798	-75.993	-69.021	68.138	-69.475	-8191	255	
1684.687	1	1	0	0	0.10068	0.065228	0.033767	0.15943	0.26354	0.052407	0.15303	0.12133	0.086656	0.18954	0.19361	0.14118	0.02776	0.16903	0.14387	0.1876	-2.2667	-2.3229	-2.7	-2.7021	-2.3333	-2.9479	-2.5208	-2.5854	-2.7542	-2.3229	-2.7438	-2.7646	-2.4479	-2.9167	-2.3812	-2.5479	236.121	135.981	4.484	198.033	148.781	70.742	84.451	244.918	50.769	101.408	-27.806	94.215	6.727	236.389	168.459	191.428	6.7814e-05	0.00035699	8.9808e-05	1099	2.2918e-06	3.8502e-06	1189.1	230.55	2.0156e-06	4.0932e-06	292.13	80.114	62.255	18.887	2.3013e-06	26.369	0.00012126	0.00011464	3.1871e-05	1070.5	1.2585e-06	1.2024e-06	1157.6	226.62	1.2675e-06	1.207e-06	284.96	79.947	61.73	18.983	1.2057e-06	26.254	-66.128	-8.319	-27.652	-90.229	171.274	67.586	-89.877	-82.459	122.392	18.387	-83.153	-75.874	-75.699	-68.855	81.569	-69.567	-8191	255	
1684.783	1	1	0	0	0.4435	0.11611	0.0986	0.18542	0.40165	0.17306	0.31381	0.50063	0.2219	0.24355	0.20039	0.094187	0.033563	0.15696	0.1014	0.19565	-2.3937	-2.375	-2.7875	-2.7833	-2.3563	-2.8458	-2.6896	-2.5083	-2.8187	-2.1604	-2.7188	-2.7875	-2.3354	-2.8667	-2.5687	-2.5479	52.265	111.496	169.191	189.426	45.839	116.831	213.918	217.564	239.156	68.613	222.955	31.077	252.565	234.704	162.457	179.033	8.4182e-05	0.00043457	5.0706e-05	1099	3.116e-06	7.4621e-07	1185.5	231.2	9.1434e-07	2.1991e-06	290.76	81.389	62.624	18.962	2.0406e-06	26.254	0.00011311	0.00010967	2.9562e-05	1070.6	1.2161e-06	1.1732e-06	1157.1	227.13	1.1589e-06	1.1479e-06	284.01	80.171	61.793	18.89	1.1242e-06	26.159	-86.720	19.860	-28.018	-90.052	17.080	98.907	-90.076	-82.829	80.428	79.536	-83.204	-75.995	-76.050	-68.824	-2.545	-69.364	-8191	255	
1684.879	1	1	0	0	0.27093	0.37149	0.091852	0.34283	0.19676	0.11219	0.35207	0.23175	0.061357	0.15469	0.11586	0.16615	0.11775	0.30418	0.25565	0.15255	-2.2562	-2.475	-2.5542	-2.8438	-2.5167	-2.7542	-2.6375	-2.2812	-2.5917	-2.6875	-2.7604	-2.6604	-2.2125	-2.8146	-2.6896	-2.3979	-13.301	-84.916	-98.003	-68.356	67.186	189.582	214.916	258.085	153.005	77.973	-64.119	-47.930	42.315	-85.809	171.369	241.710	0.00011113	0.00035021	8.6758e-05	1092.4	1.0946e-06	2.7528e-06	1168.3	228.64	5.2211e-07	4.4268e-06	287.99	80.79	61.822	18.837	1.1455e-06	26.203	0.00010796	0.00010033	2.7105e-05	1062	1.1665e-06	1.0837e-06	1144	225.07	1.1281e-06	1.1071e-06	281.27	79.703	61.294	18.817	1.0872e-06	26.042	-86.293	-3.519	0.489	-90.349	105.491	66.138	-89.949	-82.282	-18.891	63.623	-83.275	-76.416	-75.943	-68.645	-30.921	-68.966	-8191	255	
1685.000	1	1	0	0	0.11012	0.23593	0.17601	0.37133	0.25692	0.070339	0.30166	0.1375	0.086762	0.25829	0.16146	0.076107	0.15203	0.2765	0.31993	0.044355	-2.2375	-2.4083	-2.4938	-2.9021	-2.1833	-2.6021	-2.6583	-2.2396	-3.0167	-2.5979	-2.5708	-2.7083	-2.4437	-2.7188	-2.6979	-2.4146	125.830	215.295	107.195	202.963	179.486	220.868	218.452	204.966	117.095	30.544	208.658	230.851	-7.812	214.806	247.063	206.347	8.4823e-05	0.00046514	5.8726e-05	1085.7	3.0424e-06	3.6967e-06	1171.7	228.97	1.0265e-06	3.0953e-06	288.11	80.025	61.615	18.906	4.4329e-06	26.235	0.0001077	0.00010086	2.8031e-05	1056.1	1.1543e-06	1.0788e-06	1140.1	224.35	1.1291e-06	1.0983e-06	281.08	79.585	60.924	18.767	1.1061e-06	26.051	-56.640	-13.813	-37.682	-90.277	91.649	48.843	-90.010	-82.613	76.132	54.266	-82.693	-76.153	-75.929	-68.747	7.666	-68.995	-8191	255	
1685.096	1	1	0	0	0.11809	0.18157	0.13136	0.054473	0.059733	0.06094	0.16375	0.36683	0.22999	0.10288	0.10289	0.21174	0.091186	0.065901	0.33263	0.029928	-2.3729	-2.5479	-2.3271	-3.0083	-2.4979	-2.7771	-2.9021	-2.4479	-2.8229	-2.5042	-2.7021	-2.7729	-2.4958	-2.6292	-2.5812	-2.3896	75.770	36.079	-53.227	152.359	-93.128	193.419	195.418	186.182	-55.923	114.201	118.769	252.916	-55.133	28.584	34.178	245.412	8.3367e-05	0.00026327	1.0864e-05	1074.8	1.7566e-06	3.0384e-06	1170.4	228.5	1.3213e-06	3.262e-06	287.19	79.928	61.296	18.821	3.984e-06	26.299	0.00010987	0.00010026	2.8143e-05	1051.5	1.1314e-06	1.0461e-06	1139.2	223.54	1.1086e-06	1.1064e-06	280.1	79.256	60.797	18.761	1.1079e-06	25.973	-91.549	3.760	93.357	-90.138	164.949	48.987	-89.886	-82.332	76.078	47.521	-83.125	-75.793	-75.482	-68.655	47.264	-69.306	-8191	255	
1685.190	1	1	0	0	0.14703	0.047174	0.047176	0.27113	0.12708	0.059942	0.11338	0.12907	0.46158	0.11014	0.1266	0.19773	0.37319	0.27192	0.0079503	0.23677	-2.4188	-2.5792	-2.6396	-2.9313	-2.4646	-2.7208	-2.9021	-2.4813	-2.7875	-2.7229	-2.5396	-2.7	-2.55	-2.6896	-2.7583	-2.2229	219.110	108.297	-49.903	214.406	226.652	148.068	144.429	-26.832	-14.430	-82.305	145.201	83.671	204.857	-15.612	74.788	96.906	0.00011886	0.00046057	4.9322e-05	1081.2	4.4151e-06	3.3167e-06	1165.9	226.95	1.8489e-06	2.1566e-06	287.35	80.179	61.538	18.801	1.3309e-06	26.058	0.00011078	9.8087e-05	2.7884e-05	1052.9	1.1361e-06	1.0656e-06	1137.8	223.22	1.1273e-06	1.1092e-06	280.57	79.271	61.011	18.702	1.0881e-06	25.956	-64.988	-1.364	-48.174	-90.347	74.007	46.819	-89.871	-82.267	62.096	10.621	-82.910	-75.930	-76.072	-68.658	34.147	-69.296	-8191	255	
1685.286	1	1	0	0	0.1482	0.21833	0.21633	0.21567	0.15344	0.29842	0.22726	0.12857	0.19709	0.1283	0.19095	0.15088	0.12052	0.12774	0.25101	0.037641	-2.3	-2.4771	-2.5062	-2.8146	-2.4813	-2.6667	-2.9833	-2.2083	-2.7521	-2.675	-2.5583	-2.8208	-2.6271	-2.4958	-2.6396	-2.4188	35.006	115.752	103.671	243.727	248.451	-35.862	-78.068	47.222	-19.583	-74.708	-66.375	240.445	-80.877	155.793	-20.086	154.694	8.3361e-05	0.00053078	5.6834e-05	1081.9	2.7064e-06	4.0614e-06	1167.2	226.7	2.1102e-06	4.8549e-06	287.6	80.167	61.461	18.842	1.6677e-06	26.08	0.00011091	0.00010308	2.8984e-05	1054.2	1.1811e-06	1.1633e-06	1139.1	223.09	1.207e-06	1.1745e-06	281.36	79.382	60.978	18.729	1.1774e-06	25.954	-61.940	-50.520	47.408	-90.404	77.431	28.736	-89.888	-82.647	96.858	71.852	-82.758	-75.747	-75.722	-68.958	44.299	-68.875	-8191	255	
1685.383	1	1	0	0	0.11391	0.23321	0.16113	0.21707	0.15465	0.05305	0.39616	0.42474	0.12849	0.33219	0.13534	0.16602	0.24302	0.29819	0.035508	0.13066	-2.2146	-2.6167	-2.6083	-2.7896	-2.5938	-2.5792	-3.0417	-2.4813	-2.5021	-2.6521	-2.3979	-2.8521	-2.5792	-2.3958	-2.6667	-2.3271	58.030	192.499	179.137	200.896	-85.717	-23.087	197.610	146.315	7.133	-44.364	205.910	-63.977	128.800	-46.250	27.299	-86.216	0.00010452	0.00032705	4.9165e-05	1080.3	1.7465e-06	5.0603e-06	1174.8	226.76	2.2311e-06	1.8487e-06	288.62	79.986	61.427	18.846	2.8367e-06	25.958	0.00011537	0.00010875	2.9163e-05	1055.7	1.1926e-06	1.1696e-06	1141.1	222.55	1.238e-06	1.1592e-06	281	79.247	60.844	18.718	1.1773e-06	25.967	-89.159	9.377	0.116	-90.263	51.399	44.656	-90.016	-82.733	61.790	47.101	-82.784	-75.999	-75.533	-68.318	40.931	-69.731	-8191	255	
1685.479	1	1	0	0	0.0604	0.17157	0.14986	0.39047	0.099615	0.12625	0.21681	0.10026	0.19129	0.19493	0.14471	0.089366	0.034728	0.20036	0.19545	0.32479	-2.1167	-2.6479	-2.2625	-2.7896	-2.5021	-2.2708	-2.9021	-2.5229	-2.5312	-2.8771	-2.4979	-2.7062	-2.6292	-2.525	-2.9292	-2.575	50.875	143.186	-75.919	240.959	43.660	163.927	51.158	124.717	72.230	115.584	12.161	147.361	97.678	247.986	154.103	223.797	0.00013498	0.00037049	4.6498e-05	1084.4	1.8555e-06	2.7082e-06	1169.9	227.63	1.5832e-06	2.5212e-06	284.53	80.143	61.51	18.733	2.6739e-06	26.043	0.00011092	0.00010456	3.068e-05	1056.4	1.2257e-06	1.1678e-06	1141.2	223.41	1.1959e-06	1.1504e-06	280.32	79.441	60.987	18.711	1.1877e-06	26.006	-94.447	10.414	38.988	-90.152	24.693	49.297	-90.095	-82.303	79.154	31.504	-82.867	-76.121	-76.223	-69.159	60.165	-69.255	-8191	255	
1685.575	1	1	0	0	0.13563	0.33265	0.18341	0.18024	0.15048	0.13126	0.18488	0.15159	0.049379	0.34085	0.30823	0.2198	0.31251	0.25054	0.067719	0.10304	-1.9917	-2.9042	-2.2354	-2.825	-2.7708	-2.35	-2.9208	-2.4938	-2.3875	-2.7958	-2.425	-2.5646	-2.5938	-2.2979	-2.825	-2.4042	47.757	81.513	-4.112	189.605	18.497	-19.317	197.590	196.544	-16.340	-16.561	240.858	255.438	-46.257	-80.557	181.507	76.211	9.5135e-05	0.00055224	8.1583e-05	1081.9	2.5072e-06	3.2842e-06	1172.9	227.72	2.9078e-06	3.3549e-06	284.98	80.153	61.78	18.875	3.9608e-06	26.057	0.00011382	0.00010851	2.9414e-05	1056	1.1702e-06	1.151e-06	1143.5	223.39	1.2052e-06	1.1236e-06	280.58	79.36	61.124	18.785	1.1735e-06	25.942	-70.117	-13.908	5.735	-90.080	81.900	63.863	-89.966	-82.796	38.754	98.607	-83.333	-75.988	-76.175	-68.665	56.018	-69.298	-8191	255	
1685.695	1	1	0	0	0.086138	0.14763	0.01948	0.29675	0.11695	0.031899	0.47343	0.044326	0.1654	0.14585	0.13938	0.26136	0.14689	0.17979	0.19162	0.10695	-2.0187	-2.8042	-2.4917	-2.7125	-2.6354	-2.3104	-2.9958	-2.5521	-2.4167	-2.925	-2.5667	-2.6083	-2.8167	-2.2771	-2.6063	-2.6896	10.385	3.530	130.305	125.640	105.362	-84.343	138.557	176.420	4.257	-5.340	155.026	-84.177	17.430	-37.023	173.696	242.229	0.0001276	0.00040398	3.2545e-05	1083.1	5.215e-07	2.942e-06	1172.5	227.75	2.1403e-06	2.6715e-06	288.79	80.344	61.845	18.811	6.7909e-07	26.211	0.0001165	0.00010793	2.9479e-05	1056.4	1.1559e-06	1.1404e-06	1142.4	223.77	1.1639e-06	1.1102e-06	280.89	79.557	61.195	18.761	1.1528e-06	26.084	-72.345	6.199	-23.516	-89.914	-5.631	59.341	-90.051	-82.485	62.954	66.666	-83.173	-75.913	-75.817	-68.881	118.908	-69.348	-8191	255	
1685.792	1	1	0	0	0.14258	0.13566	0.1771	0.19723	0.070281	0.080498	0.23898	0.13326	0.05301	0.21421	0.027818	0.33164	0.11121	0.22367	0.17904	0.18074	-1.9708	-2.7042	-2.4583	-2.7938	-2.6708	-2.3688	-2.6437	-2.6979	-2.3646	-2.9	-2.5917	-2.6833	-2.8708	-2.2	-2.6562	-2.8271	234.780	188.161	-8.952	-73.477	173.477	5.599	212.547	196.879	251.757	14.661	-25.673	245.422	-19.906	231.679	136.231	196.382	0.00011369	0.00053197	0.00010264	1083.6	1.5713e-06	2.514e-06	1168.8	226.77	2.8185e-06	4.1093e-06	289.15	80.322	61.966	18.88	3.2699e-06	26.198	0.00011374	0.00010403	2.9682e-05	1055.8	1.2005e-06	1.1336e-06	1140.2	223.82	1.1844e-06	1.1211e-06	281.29	79.56	61.027	18.763	1.1663e-06	26.032	-83.060	-30.694	-51.612	-90.083	151.272	24.388	-90.091	-82.631	-15.406	72.944	-83.127	-76.083	-75.757	-68.837	38.824	-69.389	-8191	255	
1685.863	1	1	0	0	0.098149	0.091256	0.26822	0.12515	0.077666	0.17877	0.41741	0.28184	0.30058	0.086263	0.14364	0.21166	0.12131	0.27409	0.41924	0.13693	-1.8521	-2.7083	-2.4104	-2.6292	-2.9292	-2.425	-2.8083	-2.6562	-2.3229	-2.6396	-2.6604	-2.6708	-2.9083	-2.4417	-2.5417	-2.7396	183.268	41.082	242.771	149.188	232.683	175.593	192.027	214.339	-99.960	22.078	229.193	206.022	195.252	193.316	65.072	78.035	0.00013398	0.00027596	6.5259e-05	1087.8	2.1982e-06	5.5771e-06	1173.2	227.51	2.3022e-06	8.0985e-07	286.96	79.843	61.62	18.942	1.9576e-06	25.985	0.000115	0.00010573	2.9215e-05	1056.6	1.1895e-06	1.1699e-06	1143.2	223.65	1.2214e-06	1.1479e-06	280.9	79.583	61.04	18.909	1.1776e-06	25.901	-73.864	-22.641	-36.875	-90.240	108.049	32.292	-90.034	-82.672	71.781	50.869	-83.406	-75.845	-76.081	-68.872	13.765	-69.523	-8191	255	
1685.959	1	1	0	0	0.14625	0.035277	0.055125	0.38633	0.19272	0.29444	0.34212	0.076001	0.29075	0.21443	0.12799	0.20442	0.11717	0.16021	0.19051	0.33762	-1.6521	-2.5708	-2.5854	-2.5896	-2.8	-2.3167	-2.7083	-2.875	-2.2687	-2.6688	-2.5542	-2.4437	-2.8167	-2.4437	-2.4062	-2.7438	38.945	29.679	20.265	235.684	182.578	198.396	151.105	10.862	31.887	34.633	-22.404	-0.463	227.115	229.697	54.888	146.033	9.6964e-05	0.00038502	6.616e-05	1086.3	1.082e-06	1.9907e-06	1173	227.7	9.3307e-07	4.5078e-06	288.49	79.682	61.934	18.845	2.8206e-06	26.078	0.00011226	0.0001057	2.8705e-05	1059.1	1.1676e-06	1.1503e-06	1143.1	223.81	1.1552e-06	1.1764e-06	281.33	79.507	61.136	18.839	1.1546e-06	26.033	-74.100	7.027	1.582	-90.380	-47.280	67.213	-89.946	-82.607	-23.957	80.263	-83.305	-76.264	-75.795	-69.041	45.026	-69.383	-8191	255	
1686.078	1	1	0	0	0.21615	0.12659	0.047475	0.14802	0.24694	0.080844	0.38466	0.22833	0.054456	0.11836	0.049897	0.18367	0.24169	0.0054306	0.051733	0.20826	-1.8563	-2.6125	-2.65	-2.5333	-2.6979	-2.4875	-2.7104	-2.9542	-2.3458	-2.7562	-2.7	-2.3667	-2.8708	-2.5083	-2.3833	-2.8104	147.817	90.191	52.217	214.646	204.413	-35.124	190.374	-79.263	255.078	14.537	-32.256	173.694	-75.502	-76.335	183.131	175.868	0.0001025	0.0003214	1.1663e-05	1082.8	1.1415e-06	4.2062e-06	1173.5	227.97	7.305e-07	2.6417e-06	287.85	80.141	61.822	18.886	1.8797e-06	26.127	0.00011574	0.00010683	2.9663e-05	1057.7	1.199e-06	1.1489e-06	1143.3	224.09	1.1583e-06	1.1547e-06	281.08	79.672	61.205	18.839	1.1601e-06	25.955	-69.717	-50.807	-16.061	-90.118	216.268	63.304	-90.084	-82.487	-3.291	54.917	-82.781	-76.054	-75.886	-69.076	51.201	-69.188	-8191	255	
1686.174	1	1	0	0	0.25646	0.14718	0.086599	0.1411	0.14418	0.05554	0.038664	0.20481	0.24431	0.06354	0.067088	0.12901	0.25849	0.035965	0.17577	0.18627	-1.9021	-2.6333	-2.6854	-2.3812	-2.8771	-2.3771	-2.5146	-2.7792	-2.4708	-2.5833	-2.7833	-2.4417	-2.6729	-2.6	-2.5	-2.7604	78.476	160.602	161.060	151.393	164.526	80.672	39.097	165.679	160.200	119.186	229.315	159.763	-99.279	-5.164	178.984	-63.693	9.0947e-05	0.00034784	6.8161e-05	1089.3	3.3151e-06	3.5624e-06	1173.3	228.55	2.202e-06	3.3243e-06	287.52	80.298	61.737	18.895	2.5318e-06	26.072	0.00011255	0.00010433	2.9208e-05	1058.6	1.1862e-06	1.1523e-06	1144.1	224.49	1.1839e-06	1.1795e-06	280.99	79.636	61.159	18.818	1.1735e-06	26.025	-87.752	20.838	13.190	-90.256	9.509	0.433	-89.993	-82.354	37.919	9.286	-83.445	-75.872	-75.901	-69.038	35.276	-69.254	-8191	255	
1686.271	1	1	0	0	0.21868	0.24371	0.15259	0.1418	0.09757	0.1746	0.30263	0.12019	0.18232	0.07342	0.11744	0.10456	0.23414	0.15745	0.18911	0.076603	-1.9354	-2.7667	-2.6667	-2.4854	-2.7167	-2.6146	-2.7583	-2.8792	-2.575	-2.5187	-2.7083	-2.4313	-2.7417	-2.7375	-2.4938	-2.8688	100.218	183.921	-82.032	101.102	58.826	-79.965	155.221	-95.158	27.154	39.850	227.636	137.707	179.119	164.990	-95.697	126.085	0.0001016	0.00044855	4.4012e-05	1085.3	2.4249e-06	1.727e-06	1172.2	227.31	1.654e-06	5.2116e-06	288.73	80.379	61.943	18.902	1.8357e-06	26.433	0.00011025	0.00010471	2.8784e-05	1057.9	1.1754e-06	1.1166e-06	1143.6	224.03	1.1676e-06	1.0938e-06	281.21	79.614	61.261	18.829	1.1432e-06	26.126	-78.905	-48.666	-50.697	-90.171	53.086	33.468	-89.941	-82.630	34.888	38.672	-83.103	-76.176	-75.757	-68.844	98.230	-69.314	-8191	255	
1686.367	1	1	0	0	0.22883	0.14991	0.31673	0.22633	0.16517	0.11955	0.18159	0.05254	0.18508	0.17273	0.23022	0.098137	0.12584	0.098575	0.29489	0.080619	-2.1937	-2.55	-2.7354	-2.2896	-2.5625	-2.8771	-2.6562	-2.8563	-2.7333	-2.5354	-2.9917	-2.6167	-2.6813	-2.7354	-2.3354	-2.8146	39.729	157.326	38.668	188.672	142.242	180.933	178.336	183.490	251.248	-37.597	209.497	142.940	205.822	132.337	147.369	12.888	0.00010548	0.00029716	7.5792e-05	1086.3	1.0392e-06	1.9443e-06	1172.2	228.56	3.0751e-06	1.8774e-06	286.93	80.316	61.7	18.829	3.2572e-06	26.197	0.00011251	0.00010468	2.8099e-05	1057.7	1.1566e-06	1.126e-06	1144.4	224.18	1.1621e-06	1.1439e-06	281.61	79.612	61.178	18.824	1.1553e-06	26.068	-79.629	-29.174	11.103	-90.072	64.545	76.087	-90.109	-82.408	35.878	58.381	-82.894	-76.429	-75.719	-68.914	35.210	-69.490	-8191	255	
1686.487	1	1	0	0	0.15583	0.049208	0.093381	0.11713	0.32873	0.24358	0.2564	0.35586	0.092564	0.31066	0.18401	0.073208	0.092296	0.088845	0.045144	0.095543	-2.1312	-2.3417	-2.8042	-2.3917	-2.6083	-2.8104	-2.6083	-3.0354	-2.7146	-2.4688	-2.7729	-2.5396	-2.6875	-2.8896	-2.2458	-2.7	18.266	13.291	-73.976	215.287	132.314	80.646	166.491	229.121	-3.475	14.747	-33.747	-97.540	80.844	229.311	-31.375	49.761	0.00012234	0.00021099	5.4441e-05	1083	3.2347e-06	4.6984e-06	1173.9	228.4	1.461e-06	1.4242e-06	288.95	80.271	61.842	18.702	2.435e-06	26.122	0.00010891	0.00010141	2.8043e-05	1057	1.1447e-06	1.1147e-06	1144	224.32	1.1416e-06	1.1411e-06	281.61	79.646	61.135	18.815	1.1679e-06	26.017	-68.704	-18.095	-10.311	-90.234	-13.842	34.525	-90.188	-82.849	67.780	94.537	-83.022	-75.721	-75.902	-68.973	-0.754	-68.967	-8191	255	
1686.559	1	1	0	0	0.071893	0.15794	0.20803	0.35031	0.11851	0.082437	0.20253	0.07969	0.050411	0.15297	0.20159	0.095712	0.27788	0.08632	0.086418	0.11255	-2.15	-2.4062	-2.7208	-2.5583	-2.6583	-2.8708	-2.5604	-2.8083	-2.5625	-2.3688	-2.7729	-2.4458	-2.4437	-2.7104	-2.1604	-2.6354	-69.666	-84.917	-44.750	192.632	138.561	-75.243	224.940	87.633	130.671	88.189	108.735	-46.015	-93.084	217.596	232.257	-66.975	8.8186e-05	5.2619e-05	7.3704e-05	1085.7	1.0394e-06	2.9965e-06	1180.2	226.95	8.1704e-07	3.4886e-06	287.65	80.513	61.7	18.844	2.0783e-06	26.229	0.0001093	0.00010321	2.7848e-05	1056.8	1.1587e-06	1.1203e-06	1144.7	223.88	1.1194e-06	1.1335e-06	281.46	79.722	61.077	18.829	1.1228e-06	26.039	251.749	-42.438	-54.347	-90.201	71.605	40.468	-89.820	-82.599	-73.728	109.382	-83.073	-76.063	-76.050	-68.993	26.311	-69.376	-8191	255	
1686.680	1	1	0	0	0.085032	0.088962	0.038618	0.15217	0.22742	0.10993	0.11426	0.10697	0.11612	0.14261	0.17346	0.14582	0.16493	0.0088644	0.088361	0.25689	-2.2875	-2.3042	-2.6542	-2.7188	-2.2979	-2.9437	-2.5125	-2.7604	-2.7438	-2.1917	-2.775	-2.5854	-2.4729	-2.8167	-2.3083	-2.5771	38.289	-31.734	-37.487	225.261	8.046	31.313	228.409	140.421	61.077	-32.612	161.156	-61.727	-5.360	-60.139	83.342	170.544	0.00011197	0.00011498	5.2985e-05	1086.7	2.5455e-06	2.1888e-06	1172.4	227.73	3.4575e-07	4.2029e-06	289.19	80.977	61.77	18.721	1.6953e-06	26.202	0.00010836	0.00010223	2.7475e-05	1057.4	1.1943e-06	1.1241e-06	1144.4	224.29	1.1591e-06	1.1382e-06	281.85	79.768	61.159	18.776	1.1713e-06	26.072	-83.977	20.079	-21.510	-90.126	31.035	16.859	-90.008	-82.558	244.159	84.783	-83.132	-76.031	-76.097	-69.023	101.689	-69.342	-8191	255	
1686.776	1	1	0	0	0.082662	0.094814	0.12057	0.058747	0.10683	0.18126	0.069398	0.18187	0.15212	0.093497	0.21183	0.050531	0.25591	0.15895	0.1417	0.05055	-2.3521	-2.1833	-2.6708	-2.6188	-2.2938	-2.8146	-2.7	-2.4292	-2.8771	-2.3354	-2.7771	-2.7375	-2.4854	-2.7958	-2.7271	-2.4979	-51.206	-25.578	79.443	146.529	0.014	-24.315	117.664	-72.402	180.332	118.280	246.122	73.323	236.673	211.090	137.004	104.769	0.00011111	0.00027801	6.6171e-05	1087.8	1.6476e-06	2.1795e-06	1177.1	228.74	1.7857e-06	2.3473e-06	285.63	80.391	61.642	18.753	2.3851e-06	26.187	0.00011151	0.00010679	2.9925e-05	1057.9	1.2012e-06	1.1318e-06	1145.9	224.27	1.1714e-06	1.1406e-06	281.09	79.671	61.204	18.814	1.2051e-06	26.125	-86.476	-14.577	-10.991	-90.243	42.282	20.304	-89.905	-82.578	101.111	33.122	-82.818	-76.156	-75.704	-68.665	13.614	-69.271	-8191	255	
1686.872	1	1	0	0	0.12122	0.12988	0.04041	0.12997	0.21684	0.1782	0.18606	0.055421	0.11492	0.16306	0.23806	0.24992	0.18892	0.14295	0.20907	0.26732	-2.2417	-2.4271	-2.5708	-2.8333	-2.4042	-2.7542	-2.6167	-2.4979	-2.7083	-2.3187	-2.6229	-2.8708	-2.3854	-2.6063	-2.6208	-2.5417	11.740	-88.340	229.237	247.608	63.281	194.399	210.790	69.008	125.274	-62.529	58.029	240.697	194.623	-2.756	201.668	156.229	0.00011386	0.00037734	0.000114	1084.4	2.9955e-06	2.58e-06	1173	228.09	1.096e-06	2.1493e-06	288.32	79.694	61.825	18.772	3.7647e-06	26.286	0.00010955	0.00010459	2.8757e-05	1057.8	1.232e-06	1.1513e-06	1144.7	224.51	1.1796e-06	1.1932e-06	281.73	79.335	61.187	18.812	1.1765e-06	26.108	-46.890	-64.865	-6.490	-89.824	42.293	18.517	-90.079	-82.792	50.877	42.496	-83.149	-75.875	-75.768	-68.597	102.544	-69.316	-8191	255	
1686.968	1	1	0	0	0.073862	0.17764	0.19004	0.20657	0.12293	0.14872	0.16281	0.16636	0.082193	0.11527	0.1148	0.22539	0.32367	0.048629	0.18526	0.241	-2.3	-2.5479	-2.4458	-2.8125	-2.3146	-2.7646	-2.7458	-2.3354	-2.7792	-2.3521	-2.5396	-2.9229	-2.3521	-2.5292	-2.5271	-2.4604	228.873	-78.180	250.225	161.588	131.923	-70.636	203.744	145.636	-73.485	19.872	250.752	239.930	253.137	86.733	190.395	231.154	0.00010593	0.00027938	8.0803e-05	1086.5	4.1878e-06	3.4767e-06	1177.4	228.6	2.5261e-06	2.322e-06	289.57	80.521	61.357	18.931	2.7786e-06	26.07	0.00011455	0.00010197	2.8748e-05	1057.4	1.2173e-06	1.1503e-06	1145	224.41	1.1707e-06	1.1366e-06	282.43	79.699	61.137	18.854	1.139e-06	26.054	-94.073	-43.338	-12.288	-90.309	114.526	18.713	-89.852	-82.550	67.921	25.464	-83.111	-76.313	-75.781	-68.981	48.409	-69.752	-8191	255	
1687.087	1	1	0	0	0.20998	0.23733	0.087507	0.13846	0.13955	0.091343	0.33547	0.11681	0.15981	0.18244	0.36726	0.11976	0.25899	0.22861	0.11044	0.23789	-2.2271	-2.4688	-2.3854	-2.7562	-2.1979	-2.7042	-2.7729	-2.3896	-2.7271	-2.5229	-2.5917	-2.7958	-2.4542	-2.5958	-2.5	-2.5042	188.474	-38.685	211.803	205.661	217.967	-50.647	226.254	67.704	58.208	-78.952	226.210	199.237	-91.233	82.399	235.417	135.315	7.9332e-05	0.00040131	9.5068e-05	1086.6	3.4612e-06	3.0518e-06	1173	228.87	1.0811e-06	5.766e-07	287.48	80.046	61.899	18.853	1.5673e-06	26.22	0.00011281	0.00010481	2.929e-05	1059	1.2155e-06	1.1527e-06	1142.8	224.94	1.1566e-06	1.1692e-06	282.02	79.56	61.183	18.819	1.1843e-06	26.038	-84.343	-5.380	-4.203	-90.131	81.397	95.693	-89.608	-82.426	251.115	33.805	-83.101	-76.559	-75.693	-68.637	20.947	-69.559	-8191	255	
1687.159	1	1	0	0	0.10159	0.10322	0.093282	0.20751	0.12728	0.14319	0.33511	0.19987	0.15195	0.010858	0.17231	0.20859	0.13744	0.098137	0.1088	0.15382	-2.3604	-2.4792	-2.3521	-3.1188	-2.4292	-2.5375	-2.7812	-2.4188	-2.9375	-2.6292	-2.5187	-2.9625	-2.4	-2.5687	-2.7562	-2.4813	116.248	98.339	-68.915	202.910	-97.734	-30.338	245.371	209.534	49.610	-44.292	200.420	-53.302	100.908	204.622	220.034	250.896	0.00010747	0.00052949	5.3319e-05	1089.3	2.8582e-06	1.874e-06	1174.2	228.07	7.1994e-07	2.2284e-06	287.3	80.301	61.846	18.702	4.3338e-06	26.203	0.00011537	0.00010267	3.0224e-05	1059.9	1.2e-06	1.1508e-06	1145.2	224.5	1.1866e-06	1.1631e-06	281.74	79.706	61.197	18.725	1.217e-06	26.012	-79.290	-4.933	-44.194	-90.021	52.544	38.278	-90.325	-82.582	129.093	137.184	-83.102	-76.029	-75.586	-68.843	44.051	-69.686	-8191	255	
1687.255	1	1	0	0	0.16104	0.24749	0.21481	0.22485	0.16511	0.2011	0.25405	0.089029	0.047124	0.16677	0.12588	0.089118	0.14964	0.062634	0.12794	0.26679	-2.4083	-2.475	-2.525	-3.0208	-2.3688	-2.6792	-2.8563	-2.4479	-2.625	-2.6542	-2.5	-2.825	-2.4792	-2.8021	-2.8187	-2.3292	250.482	-3.006	-37.680	161.639	29.077	-67.356	180.467	139.720	93.042	71.377	74.489	64.975	142.282	253.801	201.796	118.720	9.989e-05	0.00013422	6.409e-05	1088.6	1.6264e-06	1.731e-06	1171.4	228.36	2.8104e-06	3.4072e-06	287.75	80.028	62.145	18.846	4.1549e-06	26.198	0.00011606	0.00010773	2.9755e-05	1058.9	1.1847e-06	1.1559e-06	1144.3	224.4	1.1778e-06	1.1568e-06	282.41	79.564	61.31	18.812	1.1419e-06	26.048	-67.074	-39.923	-39.778	-90.302	25.496	97.114	-89.846	-82.781	33.449	60.860	-82.962	-76.040	-75.575	-69.124	57.957	-69.641	-8191	255	
1687.351	1	1	0	0	0.12126	0.04184	0.11393	0.059794	0.11973	0.10628	0.48035	0.11999	0.23892	0.19476	0.18004	0.10423	0.099192	0.35558	0.12877	0.13488	-2.1292	-2.4479	-2.3167	-2.9875	-2.6021	-2.5812	-2.8104	-2.3479	-2.6271	-2.5812	-2.5062	-2.7333	-2.7	-2.4271	-2.7625	-2.2313	77.359	81.697	127.303	-42.266	-72.560	-17.385	195.057	236.904	105.902	69.817	-51.943	-59.820	210.999	179.427	-80.700	91.309	7.9168e-05	0.00020932	9.4032e-05	1086.7	1.0961e-06	9.5084e-07	1163.3	229.49	1.1746e-06	1.447e-06	288.24	80.348	62.084	18.866	3.2404e-06	26.295	0.00011395	0.00010586	2.9611e-05	1058.5	1.1854e-06	1.1139e-06	1140.7	224.47	1.2055e-06	1.1661e-06	281.92	79.68	61.1	18.789	1.2022e-06	26.112	-79.101	-3.128	2.405	-90.152	159.905	82.646	-89.918	-82.711	-38.312	37.091	-82.970	-76.100	-75.892	-68.619	75.835	-69.120	-8191	255	
1687.472	1	1	0	0	0.077149	0.15327	0.063996	0.18263	0.19764	0.22763	0.47711	0.16285	0.27195	0.20581	0.078618	0.1006	0.15749	0.099593	0.1557	0.29615	-2.1208	-2.7875	-2.3667	-2.8438	-2.5792	-2.3896	-2.9021	-2.3521	-2.4437	-2.7375	-2.3083	-2.8417	-2.5229	-2.4729	-2.8646	-2.3021	78.083	76.361	-37.125	185.682	4.035	33.355	187.587	240.498	237.250	41.210	-34.170	-96.372	-79.048	166.735	116.084	136.726	8.5927e-05	0.0004046	6.3352e-05	1086.3	2.4576e-06	2.03e-06	1171	227.95	9.222e-07	2.122e-06	288.4	80.055	61.854	18.836	1.1225e-06	26.374	0.00011238	0.00010669	2.9683e-05	1058.4	1.2e-06	1.1276e-06	1144.5	224.15	1.163e-06	1.1248e-06	281.49	79.601	61.171	18.797	1.1664e-06	26.08	-74.378	-19.290	-21.126	-90.087	15.506	55.341	-89.825	-82.942	258.976	51.910	-83.057	-75.544	-75.879	-69.136	-14.164	-68.917	-8191	255	
1687.568	1	1	0	0	0.12738	0.10142	0.064518	0.063089	0.11319	0.072542	0.50635	0.33287	0.13146	0.17852	0.34034	0.10355	0.043648	0.16733	0.1066	0.19544	-2.1104	-2.6354	-2.1063	-2.7562	-2.525	-2.3771	-2.9313	-2.6	-2.3604	-2.7354	-2.3563	-2.6917	-2.6104	-2.3208	-2.9	-2.4458	-48.479	23.125	49.726	239.261	157.589	200.060	216.677	242.750	17.483	164.394	209.628	-80.442	129.437	18.836	82.931	86.773	0.00011342	0.00030688	8.0541e-05	1087.7	2.6525e-07	2.0252e-06	1173.6	227.85	1.1928e-06	1.1916e-06	286.7	80.532	61.759	19	1.258e-06	26.076	0.00011052	0.00010074	2.8862e-05	1059.4	1.0979e-06	1.1264e-06	1144.6	224.22	1.1569e-06	1.1388e-06	281.8	79.781	61.191	18.907	1.1416e-06	26.018	-76.113	-14.165	-25.208	-90.027	-88.909	40.246	-90.054	-82.409	22.803	124.477	-82.947	-75.990	-75.738	-68.999	95.900	-69.214	-8191	255	
1687.664	1	1	0	0	0.10302	0.34117	0.042661	0.11127	0.16567	0.15874	0.45156	0.18704	0.043995	0.049242	0.21513	0.17975	0.16754	0.36057	0.038472	0.10833	-2.0521	-2.8479	-2.4146	-3.0125	-2.6458	-2.325	-2.8563	-2.7042	-2.3792	-2.8146	-2.3667	-2.6979	-2.7708	-2.4333	-2.6188	-2.6625	19.293	106.824	-78.473	-37.474	-55.311	174.756	188.910	-90.199	177.715	8.774	84.364	194.039	-45.684	174.989	152.442	235.844	9.3834e-05	0.00043096	6.1176e-05	1088.1	2.2668e-06	3.2948e-06	1174.2	228.15	2.1243e-06	4.4953e-06	288.34	79.749	62.255	18.971	1.8676e-06	26.244	0.00011077	9.8269e-05	2.8206e-05	1059.4	1.1328e-06	1.105e-06	1145.8	224.96	1.1736e-06	1.1074e-06	281.77	79.717	61.315	18.858	1.0952e-06	26.137	-88.295	-6.825	-7.749	-90.137	40.421	19.409	-89.981	-82.477	1.461	58.320	-83.245	-76.219	-75.844	-68.780	28.486	-68.940	-8191	255	
1687.783	1	1	0	0	0.21313	0.1147	0.15855	0.11689	0.19239	0.18456	0.17513	0.24153	0.18612	0.046768	0.12627	0.25962	0.17266	0.13036	0.094425	0.13155	-1.9208	-2.5896	-2.1833	-2.6604	-2.7458	-2.3396	-2.8833	-2.5958	-2.2479	-2.7125	-2.4479	-2.5042	-2.625	-2.4604	-2.6063	-2.4896	244.476	41.132	159.980	179.149	236.914	43.326	-27.947	-94.726	237.981	254.536	-6.932	201.588	-64.871	4.434	189.894	158.005	9.8833e-05	3.5308e-05	5.6111e-05	1084.1	2.044e-06	2.1877e-06	1174.6	228.93	1.6507e-06	1.9026e-06	289.52	80.835	62.216	18.874	3.1612e-06	26.327	0.00010887	9.5823e-05	2.8252e-05	1057.8	1.125e-06	1.1288e-06	1144	225.11	1.1367e-06	1.0756e-06	282.98	79.947	61.37	18.814	1.13e-06	26.126	-81.425	-75.132	32.064	-90.306	55.687	76.930	-89.868	-82.543	51.107	73.536	-82.699	-76.038	-75.969	-69.189	76.978	-69.338	-8191	255	
1687.854	1	1	0	0	0.24541	0.090304	0.10747	0.053203	0.13167	0.27124	0.17658	0.12886	0.11029	0.084581	0.085349	0.10501	0.14892	0.1817	0.097397	0.11082	-1.9438	-2.9354	-2.4583	-2.6604	-2.8667	-2.2917	-2.8583	-2.7333	-2.4	-2.8792	-2.5771	-2.4562	-2.8083	-2.3458	-2.575	-2.6896	58.892	15.696	-27.175	-47.401	65.332	102.872	145.208	180.522	-29.646	132.418	-47.505	59.825	6.687	157.208	-17.272	-68.597	0.00012283	0.00053499	1.2422e-05	1089.2	1.1785e-06	2.2801e-06	1174.5	228.38	2.0225e-06	4.0388e-06	288.2	80.112	62.072	18.994	2.4965e-06	26.228	0.0001091	9.9614e-05	2.8017e-05	1059.1	1.1259e-06	1.0722e-06	1144.1	225.51	1.1099e-06	1.0656e-06	282.48	79.643	61.29	18.866	1.0925e-06	26.007	-69.057	-58.061	29.602	-90.151	70.378	1.670	-89.904	-82.466	97.131	89.626	-83.089	-75.670	-75.523	-68.742	-9.397	-69.406	-8191	255	
1687.951	1	1	0	0	0.15119	0.15074	0.11359	0.26793	0.15037	0.15079	0.3261	0.23976	0.13755	0.21881	0.043854	0.20049	0.33662	0.24909	0.070029	0.048823	-1.8708	-2.7354	-2.5583	-2.6208	-2.8708	-2.175	-2.7958	-2.8104	-2.2708	-2.6542	-2.6292	-2.5083	-2.7167	-2.4104	-2.5021	-2.7354	-13.787	58.786	153.028	216.388	152.966	154.240	185.048	236.259	166.735	41.061	147.005	-53.246	-97.877	258.777	67.813	140.095	0.00011949	0.00019022	4.6623e-05	1091.3	2.0816e-06	2.9889e-06	1171.8	230.88	2.0654e-06	3.861e-06	289.98	80.976	62.088	18.998	1.0345e-06	26.342	0.00010702	9.9603e-05	2.6908e-05	1059.8	1.0967e-06	1.0682e-06	1145	226.22	1.0874e-06	1.0808e-06	283.04	79.98	61.506	18.902	1.078e-06	26.1	-69.399	-11.103	57.694	-90.095	178.806	32.809	-90.014	-82.553	64.013	73.215	-83.087	-76.254	-75.773	-68.477	91.530	-69.298	-8191	255	
1688.047	1	1	0	0	0.33626	0.12221	0.12625	0.048973	0.11537	0.22546	0.18161	0.12812	0.34009	0.13032	0.10997	0.11077	0.17842	0.26575	0.18847	0.2177	-1.925	-2.5979	-2.4729	-2.5854	-2.7458	-2.4521	-2.65	-2.7	-2.2062	-2.6917	-2.775	-2.3792	-2.7	-2.2958	-2.3833	-2.7646	146.477	-39.128	-39.311	-7.421	-70.978	-40.444	216.489	243.326	167.407	86.935	-63.146	231.142	177.236	-53.332	244.714	192.275	9.6346e-05	0.00037097	4.0322e-05	1092.8	1.6652e-06	3.077e-06	1171.3	229.46	3.4101e-06	1.1117e-06	289.41	80.074	62.435	18.978	1.8982e-06	26.501	0.00010699	9.8554e-05	2.7099e-05	1061.6	1.1053e-06	1.0428e-06	1145.8	225.8	1.1521e-06	1.0648e-06	282.76	79.574	61.48	18.797	1.1171e-06	26.162	-84.905	-26.360	-25.858	-90.074	66.290	23.058	-90.005	-82.688	43.997	44.004	-83.014	-76.207	-75.766	-69.193	22.101	-69.872	-8191	255	
1688.167	1	1	0	0	0.20217	0.22542	0.13375	0.2265	0.10724	0.13588	0.13051	0.13387	0.14685	0.10869	0.13226	0.30732	0.034285	0.038754	0.11811	0.09524	-1.8354	-2.5646	-2.5479	-2.2625	-2.8958	-2.6104	-2.5667	-2.8521	-2.4396	-2.8167	-2.8354	-2.2833	-2.8771	-2.65	-2.3187	-2.8583	-52.562	-34.304	134.247	-97.242	210.609	102.349	169.320	48.622	179.584	203.506	-85.574	226.038	246.487	209.931	-99.513	167.228	0.00011317	0.00041036	9.6857e-05	1087	2.6127e-06	2.2046e-06	1172.9	229.53	1.4729e-06	1.6152e-06	288.4	80.603	61.864	18.942	2.5575e-06	26.188	0.00010783	9.9889e-05	2.8033e-05	1059.4	1.1465e-06	1.0769e-06	1143.9	225.73	1.1359e-06	1.1017e-06	282.77	79.96	61.343	18.904	1.1331e-06	26.07	-78.066	-39.408	19.829	-89.853	-21.686	32.348	-90.131	-82.545	106.683	15.684	-83.452	-75.956	-75.728	-68.744	39.562	-69.482	-8191	255	
1688.264	1	1	0	0	0.086056	0.12303	0.19386	0.14309	0.088661	0.17875	0.23394	0.16037	0.068537	0.27966	0.18748	0.23638	0.30344	0.033671	0.1829	0.2888	-1.8917	-2.7188	-2.5729	-2.4104	-2.6625	-2.6	-2.5938	-2.8104	-2.4417	-2.5083	-2.7708	-2.2396	-2.8833	-2.4979	-2.3937	-2.7625	109.633	173.409	-2.138	255.133	158.558	33.064	-68.447	233.287	178.660	137.631	137.092	241.872	-87.670	2.604	46.347	102.850	8.3609e-05	0.00044163	6.3007e-05	1086.8	8.0598e-07	4.9184e-07	1173.2	230.42	4.0263e-07	4.2311e-06	289.05	80.106	62.182	19.016	4.0522e-06	26.301	0.00010735	9.9266e-05	2.7382e-05	1058	1.1655e-06	1.1052e-06	1145.3	226.08	1.1212e-06	1.0595e-06	283.09	79.8	61.369	18.842	1.1631e-06	26.158	-95.660	-44.323	-35.847	-90.260	4.811	68.965	-90.168	-83.078	-36.903	60.929	-82.960	-76.310	-75.868	-68.807	45.319	-68.894	-8191	255	
1688.360	1	1	0	0	0.24521	0.16037	0.21211	0.44457	0.09455	0.15159	0.22907	0.19343	0.22898	0.070217	0.16604	0.18456	0.25454	0.23574	0.2889	0.14686	-1.925	-2.5042	-2.6792	-2.3521	-2.6188	-2.5771	-2.375	-3.025	-2.5833	-2.4271	-2.9437	-2.35	-2.6021	-2.7958	-2.4271	-2.9396	-15.938	-99.625	-39.074	196.979	103.435	124.563	221.424	-40.972	196.606	52.425	42.765	220.569	-39.232	44.852	250.515	155.886	0.00011363	0.00028456	6.9915e-05	1088	1.3589e-06	4.9989e-06	1174.3	230.44	2.8512e-06	2.2708e-06	290.51	80.628	62.268	18.856	2.3081e-06	26.313	0.00010875	0.00010113	2.7442e-05	1059.9	1.1104e-06	1.1391e-06	1144.9	226.44	1.1379e-06	1.119e-06	283.38	79.856	61.403	18.873	1.108e-06	26.127	-71.134	-72.004	4.623	-89.945	54.343	61.020	-90.056	-82.435	39.685	34.868	-83.132	-75.736	-75.934	-68.975	95.322	-69.285	-8191	255	
1688.456	1	1	0	0	0.2906	0.19629	0.19319	0.092084	0.22145	0.11406	0.16825	0.38416	0.42479	0.24032	0.27235	0.074688	0.23758	0.26046	0.096752	0.061608	-2.0438	-2.4313	-2.6688	-2.3271	-2.4896	-2.7021	-2.4625	-2.7583	-2.4396	-2.3646	-2.6792	-2.4521	-2.5354	-2.5854	-2.1896	-2.5896	30.568	77.134	217.027	-33.173	48.709	-86.268	193.139	227.695	171.368	-61.216	-93.912	-22.635	217.718	198.600	93.568	215.901	0.00012737	9.9192e-05	5.092e-05	1089.6	2.4574e-06	1.5544e-06	1179	229.78	1.9528e-06	3.6707e-06	289.67	80.357	62.012	18.849	2.2837e-06	26.248	0.00011138	0.00010397	2.8164e-05	1062.4	1.1646e-06	1.1186e-06	1149.5	225.87	1.1798e-06	1.1686e-06	283.18	79.834	61.494	18.922	1.1162e-06	26.214	-74.377	-14.182	-21.385	-89.972	38.560	65.359	-89.778	-82.658	-40.139	71.734	-82.966	-76.221	-75.885	-68.617	9.986	-69.283	-8191	255	
1688.550	1	1	0	0	0.17792	0.27542	0.22078	0.24994	0.20209	0.30857	0.23805	0.27229	0.064606	0.12691	0.074168	0.051985	0.15825	0.092397	0.14898	0.3103	-2.0687	-2.2	-2.775	-2.5958	-2.6479	-2.6958	-2.5104	-2.7771	-2.6	-2.3167	-2.9417	-2.4437	-2.575	-2.8854	-2.2167	-2.8	-90.068	192.285	77.144	238.610	180.298	230.615	212.954	238.243	-64.897	255.380	162.726	-30.578	186.117	80.837	2.002	234.508	9.3667e-05	0.00041233	0.00010177	1092	6.7152e-07	3.0884e-06	1178.7	230.89	2.0849e-06	3.0416e-06	290.88	80.72	62.57	19.119	3.1145e-06	26.608	0.00010501	9.926e-05	2.6488e-05	1062.3	1.1052e-06	1.078e-06	1148.7	226.34	1.0841e-06	1.0339e-06	283.77	80.185	61.441	19.019	1.0422e-06	26.267	-79.471	-1.182	-27.448	-90.238	-1.080	60.418	-89.926	-82.601	29.975	28.869	-83.059	-75.964	-76.169	-68.978	56.788	-69.496	-8191	255	
1688.648	1	1	0	0	0.077098	0.13247	0.18004	0.095928	0.091334	0.05975	0.062499	0.082605	0.018274	0.21528	0.30832	0.14049	0.16307	0.28266	0.11917	0.11575	-2.2292	-2.2646	-2.6917	-2.5	-2.5125	-2.7812	-2.3563	-2.5812	-2.6688	-2.3312	-3.0042	-2.3833	-2.3729	-2.8229	-2.3229	-2.5958	78.979	113.040	45.532	-97.857	148.327	174.779	151.533	-30.770	241.404	-27.660	246.368	156.695	225.929	-14.976	207.742	-96.167	0.00010373	0.00032758	9.4499e-05	1089.8	3.3676e-06	2.8921e-06	1178	229.59	1.8439e-06	4.782e-06	289.41	80.915	62.129	18.932	2.0663e-06	26.372	0.0001061	9.655e-05	2.669e-05	1062.5	1.111e-06	1.0328e-06	1146.1	226.68	1.1317e-06	1.1031e-06	283.34	79.953	61.387	18.927	1.1328e-06	26.236	-82.625	-28.095	-5.326	-90.156	70.930	-22.608	-90.154	-82.889	83.288	58.636	-83.080	-76.079	-75.439	-69.019	2.315	-69.436	-8191	255	
1688.767	1	1	0	0	0.24326	0.25403	0.14289	0.19102	0.16069	0.25927	0.10266	0.23519	0.087127	0.13481	0.053739	0.2454	0.25806	0.1315	0.15984	0.15851	-2.3521	-2.2875	-2.8417	-2.5604	-2.4562	-2.9813	-2.4042	-2.6917	-2.8375	-2.3229	-2.8479	-2.5875	-2.3063	-2.7208	-2.4104	-2.5687	201.924	102.184	3.327	230.509	55.690	100.236	225.596	-83.505	253.403	176.161	-54.715	255.601	-53.321	180.920	149.135	218.143	9.8331e-05	0.00011814	0.00010407	1091.2	9.5611e-07	3.8476e-06	1177.1	230.55	1.1588e-06	2.4284e-06	290.96	80.416	62.185	18.838	1.9012e-06	26.158	0.00010896	0.00010023	2.7544e-05	1060.7	1.1629e-06	1.0606e-06	1146.3	226.72	1.1125e-06	1.125e-06	283.66	79.919	61.424	18.916	1.153e-06	26.081	252.536	5.562	-39.286	-90.012	139.329	39.474	-89.783	-82.785	133.931	107.647	-83.024	-75.826	-75.982	-68.893	77.874	-69.340	-8191	255	
1688.863	1	1	0	0	0.20364	0.27303	0.23621	0.1075	0.083581	0.18488	0.38924	0.3106	0.071008	0.16992	0.17545	0.071709	0.2714	0.35354	0.18152	0.28311	-2.2833	-2.1458	-2.6271	-2.7542	-2.2979	-2.8937	-2.7646	-2.6146	-2.6188	-2.4979	-2.7583	-2.575	-2.3583	-2.9917	-2.5583	-2.5979	55.613	125.593	54.920	221.284	105.132	-38.577	221.423	144.369	155.622	215.179	124.693	-87.745	-48.744	-88.854	-5.166	-23.278	0.00011237	0.00029016	9.9689e-05	1086.7	3.6584e-06	1.7937e-06	1177	229.26	4.7488e-07	2.9033e-06	289.87	80.453	62.006	18.994	1.885e-06	26.411	0.0001074	9.9847e-05	2.8099e-05	1060	1.1334e-06	1.1154e-06	1147	226.44	1.1494e-06	1.108e-06	284.29	79.901	61.45	18.931	1.1594e-06	26.192	-61.967	15.852	-28.093	-90.275	2.471	33.183	-89.767	-82.776	161.218	114.726	-82.900	-75.748	-75.529	-68.382	24.985	-69.669	-8191	255	
1688.959	1	1	0	0	0.18401	0.2247	0.228	0.45383	0.059381	0.10762	0.40446	0.29912	0.29379	0.1034	0.18341	0.17986	0.055661	0.1822	0.17952	0.22721	-2.1646	-1.9604	-2.5875	-2.7375	-2.125	-2.7542	-2.5187	-2.3792	-2.6688	-2.2271	-2.6729	-2.5438	-2.4146	-2.8146	-2.5958	-2.325	108.372	125.488	11.565	228.062	-55.787	-80.158	158.230	224.515	91.170	147.296	187.676	230.765	148.345	22.958	-11.550	174.692	0.00010866	0.00027453	3.9097e-05	1087.6	3.777e-06	2.3127e-06	1174.7	231.21	1.7125e-06	1.684e-06	289.08	80.202	61.997	19.049	3.1011e-06	26.07	0.00010792	0.00010404	2.9274e-05	1062	1.2041e-06	1.1285e-06	1145.3	226.84	1.1811e-06	1.1832e-06	283.77	79.852	61.285	18.932	1.1998e-06	26.077	-73.861	-23.497	-64.624	-90.326	45.017	-4.155	-89.859	-82.879	-15.870	96.465	-82.975	-76.181	-75.755	-68.820	54.811	-69.609	-8191	255	
1689.055	1	1	0	0	0.18446	0.23542	0.21621	0.229	0.031784	0.21557	0.063026	0.11661	0.16331	0.23222	0.23654	0.12779	0.20268	0.26336	0.06724	0.22625	-2.4771	-2.1833	-2.6188	-2.7979	-2.2146	-2.6937	-2.7125	-2.5375	-2.7021	-2.2646	-2.6625	-2.8729	-2.4125	-2.7188	-2.375	-2.2229	-86.194	192.990	44.660	220.566	68.133	241.229	99.469	152.117	21.462	233.928	91.013	182.672	24.995	-59.731	87.767	180.269	0.0001052	0.00016386	6.6743e-05	1092.5	1.9534e-06	2.3197e-06	1176.2	230.43	1.761e-06	3.2444e-06	290.56	80.307	62.075	18.807	7.8044e-07	26.271	0.00011913	0.0001071	3.0485e-05	1061.8	1.2739e-06	1.2317e-06	1146	226.34	1.2686e-06	1.2782e-06	283.8	79.832	61.612	18.876	1.2596e-06	26.107	-67.532	-20.648	-13.375	-90.242	-51.864	47.184	-89.908	-82.830	50.313	50.249	-83.343	-76.097	-75.467	-68.579	112.839	-69.389	-8191	255	
1689.152	1	1	0	0	0.23891	0.23132	0.23038	0.27871	0.082801	0.17035	0.028566	0.12283	0.031757	0.084726	0.16372	0.029795	0.089475	0.18777	0.26797	0.16786	-2.3417	-2.2104	-2.5938	-2.7417	-2.2333	-2.7479	-2.6875	-2.4375	-2.9667	-2.4688	-2.5812	-2.7146	-2.45	-2.6479	-2.7542	-2.2896	231.184	105.574	16.069	199.457	158.989	207.555	-4.235	221.532	147.164	124.983	130.276	-61.588	220.500	213.804	19.690	206.025	9.0711e-05	0.00037989	5.784e-05	1094.4	1.326e-06	3.5454e-06	1180.8	230.32	7.1966e-07	3.4532e-06	291.47	80.272	62.262	18.955	1.7894e-06	26.188	0.00012216	0.00011327	3.1908e-05	1065	1.2964e-06	1.2241e-06	1151.2	226.79	1.2503e-06	1.2152e-06	284.69	79.889	61.577	18.933	1.2256e-06	26.243	-76.558	-15.953	-55.898	-90.011	40.537	74.508	-89.872	-82.567	-51.282	62.986	-82.859	-76.256	-76.025	-69.155	65.275	-68.930	-8191	255	
1689.248	1	1	0	0	0.26598	0.31496	0.12966	0.2591	0.097029	0.12465	0.25091	0.11141	0.32184	0.073274	0.4015	0.017666	0.26965	0.045988	0.28902	0.44807	-2.2292	-2.5104	-2.4583	-2.8625	-2.3729	-2.7729	-2.9458	-2.3708	-2.6833	-2.4938	-2.4917	-2.7021	-2.4437	-2.5938	-2.7938	-2.3937	83.902	123.523	126.731	-68.454	255.980	-84.773	189.767	-92.805	-98.720	-70.321	-75.000	45.477	218.608	166.496	119.654	203.128	9.2292e-05	0.00050624	5.205e-05	1091.7	1.8462e-06	4.444e-06	1179.4	231.09	1.3773e-06	3.588e-06	291.74	80.699	62.335	19.056	3.4367e-06	26.334	0.00011628	0.0001119	3.0045e-05	1065	1.2603e-06	1.1826e-06	1151.7	227.3	1.23e-06	1.1723e-06	284.54	80.177	61.592	18.929	1.2432e-06	26.254	-88.939	-13.996	-41.656	-90.214	1.481	70.498	-89.988	-82.603	111.221	69.686	-83.055	-76.129	-76.024	-69.202	84.523	-69.352	-8191	255	
1689.344	1	1	0	0	0.20418	0.17344	0.21288	0.31938	0.068611	0.021825	0.26114	0.18725	0.13757	0.091748	0.13713	0.087651	0.10745	0.067831	0.11161	0.10562	-2.3375	-2.5833	-2.3271	-2.9875	-2.4333	-2.6875	-2.9979	-2.25	-2.5687	-2.5896	-2.5854	-3.0396	-2.4979	-2.5	-2.7687	-2.2938	-71.289	-14.167	134.591	201.020	172.078	163.220	179.984	248.654	-88.831	111.295	-62.710	129.470	9.930	228.414	96.898	151.397	0.00014266	0.00035503	5.0108e-05	1095.3	2.8782e-06	3.37e-07	1180.6	230.91	9.4772e-07	3.7443e-06	288.92	80.555	61.845	19.008	4.1398e-06	26.361	0.00011601	0.00011113	3.0756e-05	1065.5	1.267e-06	1.2196e-06	1152.1	227	1.2412e-06	1.2041e-06	284.53	79.909	61.432	18.954	1.2399e-06	26.15	-84.735	-12.630	0.401	-90.308	77.827	131.223	-89.994	-82.774	113.439	65.016	-83.124	-75.836	-76.348	-69.191	50.507	-69.177	-8191	255	
1689.440	1	1	0	0	0.13048	0.10529	0.065822	0.18059	0.17733	0.17117	0.23886	0.21845	0.124	0.13587	0.03231	0.1003	0.25532	0.049932	0.098041	0.09049	-2.1896	-2.5792	-2.3875	-2.7583	-2.6104	-2.3479	-2.9167	-2.5312	-2.5542	-2.6312	-2.2333	-2.8875	-2.6125	-2.4125	-2.7	-2.4	-50.572	183.258	60.175	251.504	132.570	9.133	164.810	246.271	112.196	21.115	112.411	124.604	-0.077	243.763	208.655	141.319	9.7262e-05	0.00038734	5.0269e-05	1096.3	3.1407e-06	1.4271e-06	1186.2	230.35	7.954e-07	3.5456e-06	289.44	80.693	62.185	18.997	2.5733e-06	26.231	0.00011571	0.00011061	3.1543e-05	1065.6	1.2714e-06	1.2283e-06	1154.1	227.26	1.2831e-06	1.2043e-06	284.3	80.065	61.414	18.975	1.2483e-06	26.178	-69.235	-47.172	-2.299	-90.234	66.500	23.367	-89.944	-82.694	17.223	67.114	-83.138	-75.998	-75.707	-68.471	-16.885	-69.614	-8191	255	
1689.559	1	1	0	0	0.056566	0.2665	0.21464	0.23982	0.18745	0.15591	0.095176	0.14591	0.059675	0.088406	0.078927	0.1017	0.13803	0.27545	0.19774	0.11838	-2.1125	-2.7354	-2.3042	-2.6854	-2.4958	-2.3625	-2.9458	-2.3729	-2.5229	-2.775	-2.4167	-2.7667	-2.4729	-2.4688	-2.7938	-2.4771	252.255	72.248	-93.093	258.160	195.036	183.229	197.102	112.019	145.677	17.405	141.460	170.923	41.046	257.793	203.612	122.405	0.00011355	0.00029044	0.00014141	1094.1	3.8019e-06	2.7359e-06	1179.2	230.57	2.8577e-06	2.0692e-06	290.54	80.74	61.889	18.911	3.3249e-06	26.09	0.0001191	0.00011604	3.1734e-05	1065.3	1.2526e-06	1.1889e-06	1152	226.91	1.2471e-06	1.2328e-06	284.49	80.131	61.539	18.903	1.2302e-06	26.138	-66.921	-85.071	-16.567	-90.106	19.854	44.064	-90.179	-82.703	91.650	41.892	-83.087	-76.070	-75.585	-68.955	17.935	-69.639	-8191	255	
1689.655	1	1	0	0	0.21955	0.21469	0.21607	0.32037	0.17103	0.13763	0.39642	0.25876	0.059908	0.19397	0.1075	0.15191	0.2056	0.075519	0.12491	0.15523	-2.1083	-2.6479	-2.1646	-2.7812	-2.7979	-2.3792	-2.8958	-2.5208	-2.4688	-2.6125	-2.2458	-2.6333	-2.65	-2.2229	-2.7917	-2.3667	247.245	188.142	-35.644	171.998	-71.050	-22.049	210.379	-83.058	85.598	-90.546	156.013	-37.826	250.411	10.674	121.226	-12.080	9.4822e-05	0.00020145	8.0195e-05	1094.4	2.2795e-06	3.0091e-06	1186.2	231.76	1.0306e-06	1.7804e-06	291.01	80.861	62.565	18.824	2.6449e-06	26.482	0.00011543	0.00010697	3.0371e-05	1066.3	1.2437e-06	1.2245e-06	1152.5	227.55	1.2486e-06	1.2103e-06	284.82	80.07	61.519	18.893	1.2271e-06	26.204	-79.849	38.618	-25.170	-90.052	48.878	35.941	-89.977	-82.654	57.006	43.095	-83.089	-76.264	-75.558	-68.910	176.113	-69.363	-8191	255	
1689.728	1	1	0	0	0.30228	0.24483	0.16811	0.15757	0.067458	0.22776	0.11455	0.10308	0.10589	0.051939	0.18889	0.28615	0.15684	0.25454	0.115	0.22227	-2.0104	-2.6854	-2.2958	-2.6562	-2.6667	-2.4729	-2.925	-2.5271	-2.3875	-2.5958	-2.4562	-2.7	-2.6708	-2.2375	-2.7417	-2.6417	-27.436	170.069	18.818	253.172	8.490	-72.133	156.738	176.835	103.717	-2.898	200.287	185.850	-98.087	113.526	-93.885	110.700	0.00011662	0.00024547	3.6748e-05	1094.3	1.8328e-06	1.7243e-06	1183.2	230.07	3.8198e-06	8.8964e-07	289.77	80.683	62.208	19.081	2.3867e-06	26.174	0.00011804	0.000107	2.9592e-05	1066.9	1.2144e-06	1.2011e-06	1151	226.89	1.2272e-06	1.177e-06	284.26	80.16	61.392	18.948	1.2449e-06	26.083	-66.252	-35.480	15.440	-90.179	13.740	33.538	-90.105	-82.919	90.482	80.059	-83.285	-76.319	-75.774	-68.822	105.181	-69.506	-8191	255	
1689.847	1	1	0	0	0.37102	0.0097607	0.013733	0.17999	0.27284	0.14313	0.33671	0.10045	0.056665	0.27362	0.13148	0.12331	0.060659	0.23835	0.23535	0.394	-2.0438	-2.6063	-2.4458	-2.6083	-2.6312	-2.1979	-2.75	-2.5979	-2.4458	-2.8312	-2.3125	-2.6312	-2.7062	-2.2125	-2.8312	-2.6146	117.245	243.200	246.169	-92.728	-43.460	-34.912	190.137	130.663	58.542	-15.545	-63.595	194.952	161.846	157.034	-50.229	191.099	9.5796e-05	0.00030571	5.5133e-05	1096.1	3.5572e-06	2.6403e-06	1183.8	231.76	1.9861e-06	3.3033e-06	289.15	80.566	62.11	18.808	1.1667e-06	26.168	0.00012196	0.00011388	3.1218e-05	1067.3	1.252e-06	1.2201e-06	1150.3	227.26	1.2592e-06	1.2589e-06	284	79.925	61.542	18.854	1.2298e-06	26.171	-75.643	-48.922	-28.035	-90.195	43.167	55.389	-90.154	-82.728	-44.086	73.817	-83.041	-75.939	-75.850	-68.762	103.269	-69.567	-8191	255	
1689.944	1	1	0	0	0.22847	0.20986	0.20914	0.30789	0.12849	0.26886	0.13812	0.10014	0.11897	0.24105	0.20358	0.25972	0.10673	0.11095	0.037811	0.25328	-1.8708	-2.6771	-2.4167	-2.5729	-2.6771	-2.275	-2.8208	-2.7542	-2.2125	-2.7167	-2.5812	-2.3083	-2.7771	-2.2208	-2.6479	-2.7583	120.624	166.504	-64.353	211.563	-53.652	222.387	197.223	24.370	68.503	24.519	229.005	-90.511	217.522	81.693	163.919	96.330	9.2083e-05	9.4566e-05	0.00013805	1099.6	3.3346e-06	3.264e-06	1181.4	231.57	4.5598e-07	2.71e-06	290.68	80.946	62.129	18.86	2.5748e-06	25.957	0.00012188	0.00011226	3.0891e-05	1069.4	1.2685e-06	1.2256e-06	1153.9	227.61	1.2492e-06	1.2143e-06	284.39	80.161	61.507	18.92	1.2521e-06	26.063	-81.036	-23.655	9.950	-90.279	34.224	87.191	-90.098	-82.746	84.641	77.862	-83.243	-76.090	-75.985	-68.969	131.031	-69.056	-8191	255	
1690.040	1	1	0	0	0.1403	0.36763	0.15641	0.21093	0.017795	0.046154	0.22228	0.054121	0.21875	0.1027	0.12978	0.22515	0.32237	0.053829	0.24652	0.24965	-1.7188	-2.5833	-2.425	-2.4208	-2.8042	-2.3229	-2.6146	-2.6042	-2.2979	-2.7396	-2.5938	-2.2687	-2.85	-2.4646	-2.5125	-2.8042	-24.943	82.278	190.157	170.887	-28.117	13.023	200.864	226.418	-61.911	45.021	-35.262	231.691	-86.557	154.483	139.077	211.682	0.00013018	0.0001756	5.9078e-05	1099.1	3.6746e-06	3.5962e-06	1183.4	230.13	7.4534e-07	2.3261e-06	291.15	80.772	62.223	19.04	3.0005e-06	26.322	0.00011985	0.00010974	3.159e-05	1068	1.2913e-06	1.2051e-06	1154.5	227.13	1.2655e-06	1.1905e-06	284.9	79.96	61.614	18.98	1.2309e-06	26.166	-69.079	1.769	-44.154	-90.245	33.013	14.785	-89.865	-82.800	26.759	99.718	-82.968	-76.055	-75.901	-68.830	49.206	-69.186	-8191	255	
1690.160	1	1	0	0	0.2183	0.15208	0.16543	0.28743	0.35493	0.22148	0.074863	0.30062	0.077196	0.24958	0.25411	0.1601	0.25896	0.095043	0.14508	0.066398	-1.7979	-2.5917	-2.5146	-2.4229	-2.7625	-2.2729	-2.6312	-2.7146	-2.4688	-2.6354	-2.7271	-2.3604	-2.7104	-2.5812	-2.3625	-2.9521	106.815	229.664	5.496	215.943	39.592	-57.503	-44.644	232.396	209.416	64.237	240.775	171.997	247.473	184.241	241.465	-34.142	7.571e-05	0.00064147	6.1846e-05	1092.7	1.3317e-06	3.3012e-06	1184	232.34	2.2182e-06	3.193e-06	291.43	80.971	62.286	18.964	1.7257e-06	26.234	0.00012048	0.00011241	3.0977e-05	1067.1	1.2192e-06	1.2064e-06	1152.5	227.8	1.2646e-06	1.2288e-06	285.12	80.087	61.614	18.939	1.2028e-06	26.172	-89.309	-24.155	-72.621	-90.047	35.560	18.153	-89.859	-82.850	74.444	80.891	-82.907	-76.352	-75.981	-68.845	11.782	-69.485	-8191	255	
1690.256	1	1	0	0	0.16742	0.092738	0.18041	0.29405	0.14755	0.13347	0.26759	0.16314	0.26108	0.11608	0.31959	0.040378	0.18212	0.12679	0.25213	0.19871	-1.7437	-2.5938	-2.7375	-2.5229	-2.7313	-2.5104	-2.6688	-2.8792	-2.3583	-2.7	-2.85	-2.2812	-2.8208	-2.4896	-2.3667	-2.8104	211.625	26.569	24.964	226.043	-98.071	-70.034	164.696	139.202	178.490	26.507	184.558	178.945	-34.841	251.787	-4.953	170.207	8.1897e-05	0.00031609	5.3215e-05	1096.8	2.4776e-06	1.9516e-06	1183.3	230.98	1.932e-06	3.3997e-06	290.24	80.644	62.061	18.989	5.1831e-06	26.222	0.00011802	0.00010823	3.0462e-05	1067.5	1.2424e-06	1.1942e-06	1154.5	226.69	1.2475e-06	1.1816e-06	284.26	80.138	61.544	18.984	1.2074e-06	26.194	-64.153	-21.857	-36.809	-90.195	42.558	56.639	-90.246	-82.723	84.978	20.163	-83.034	-76.025	-75.877	-69.104	66.763	-69.465	-8191	255	
1690.328	1	1	0	0	0.33369	0.13732	0.17259	0.21185	0.10397	0.2913	0.2464	0.061023	0.25141	0.12889	0.12306	0.2867	0.068072	0.13714	0.22286	0.065982	-1.9854	-2.4	-2.6833	-2.2854	-2.85	-2.7021	-2.5542	-2.7667	-2.4167	-2.6937	-2.7188	-2.2208	-2.6292	-2.4917	-2.4125	-2.8937	62.249	-87.372	9.436	-73.438	90.295	119.347	189.985	-61.252	-31.009	-42.815	-95.681	161.759	-36.299	243.734	13.372	159.256	0.00010692	0.00033706	6.9107e-05	1100.9	1.7165e-06	2.3916e-06	1181.4	231.19	8.6416e-07	3.9182e-06	289.11	81.407	62.473	19.037	1.4461e-06	26.455	0.00011777	0.00011006	3.0036e-05	1069.2	1.2433e-06	1.1857e-06	1151.9	227.42	1.2099e-06	1.2267e-06	285.16	80.403	61.728	18.982	1.1498e-06	26.305	-70.609	-15.256	21.484	-90.016	91.665	35.049	-90.001	-82.596	5.404	64.813	-82.973	-75.850	-75.915	-69.077	103.080	-69.231	-8191	255	
1690.449	1	1	0	0	0.11811	0.076866	0.086816	0.31067	0.15147	0.023138	0.21368	0.1901	0.16638	0.25317	0.29496	0.20613	0.049492	0.13201	0.19581	0.080015	-1.9604	-2.6021	-2.8646	-2.5187	-2.7917	-2.5812	-2.4167	-2.8625	-2.4208	-2.4646	-2.7062	-2.2917	-2.7396	-2.6042	-2.3	-2.7833	-96.524	248.927	244.828	204.503	223.412	79.987	199.652	183.836	-2.269	-12.005	246.518	-79.052	158.870	241.607	242.931	-79.675	0.00012132	0.00021201	6.3503e-05	1093.5	2.7193e-06	3.7518e-06	1183.6	232.18	6.9362e-07	2.8631e-06	292.67	81.279	62.639	19.019	1.2538e-06	26.504	0.00011393	0.00010625	2.9611e-05	1068.3	1.1962e-06	1.1725e-06	1153.2	227.97	1.2318e-06	1.2177e-06	284.65	80.378	61.738	18.986	1.1998e-06	26.272	-82.539	-49.971	22.771	-90.300	111.584	39.892	-90.079	-82.780	110.814	69.972	-82.660	-76.010	-75.590	-68.938	56.016	-69.488	-8191	255	
1690.543	1	1	0	0	0.19183	0.1197	0.20182	0.22597	0.18873	0.010127	0.12636	0.13939	0.087422	0.26012	0.20671	0.18039	0.30015	0.22894	0.018995	0.07501	-2.1188	-2.4083	-2.8688	-2.4354	-2.6021	-2.7333	-2.4813	-2.8833	-2.4771	-2.4375	-2.8063	-2.5563	-2.7479	-2.7062	-2.3292	-2.7479	225.154	153.225	144.754	202.327	219.526	92.658	-76.076	-99.943	36.884	78.794	-59.288	243.756	78.210	-42.076	43.889	48.439	0.00011651	0.00024816	6.5494e-05	1094.7	1.3737e-06	1.5694e-06	1184.1	232.1	4.593e-07	1.136e-06	290.21	80.625	62.282	18.973	2.6235e-06	26.348	0.00011373	0.00011121	2.9399e-05	1066.5	1.1856e-06	1.1647e-06	1152.8	227.88	1.2053e-06	1.1582e-06	284.73	80.057	61.685	18.969	1.1996e-06	26.247	-78.143	-18.677	-34.222	-90.243	57.891	25.556	-89.995	-82.852	205.337	110.234	-83.178	-75.786	-76.026	-68.729	65.004	-69.349	-8191	255	
1690.639	1	1	0	0	0.19159	0.22074	0.14481	0.24349	0.025201	0.15686	0.064707	0.202	0.20967	0.10562	0.083157	0.21179	0.096496	0.19182	0.17137	0.24217	-2.0104	-2.2729	-2.5271	-2.5896	-2.5479	-2.7875	-2.4167	-2.7979	-2.6333	-2.2646	-2.9708	-2.2646	-2.5396	-2.7	-2.1833	-2.5875	-76.837	126.274	233.240	200.213	137.092	190.949	85.790	172.043	173.058	23.266	124.834	-31.764	168.329	170.674	36.198	93.448	0.00012766	0.00039708	0.00010375	1095	2.3863e-06	2.8519e-06	1180	231.62	1.4351e-06	3.108e-06	290.34	80.873	62.396	18.855	4.0166e-06	26.364	0.00011497	0.00011005	2.8459e-05	1066.4	1.1834e-06	1.136e-06	1150.8	227.99	1.2052e-06	1.1933e-06	284.38	80.163	61.714	18.977	1.1345e-06	26.3	-69.925	-50.381	-13.794	-90.146	52.344	50.249	-90.064	-82.675	15.783	52.493	-83.136	-75.887	-75.621	-69.300	38.554	-69.492	-8191	255	
1690.735	1	1	0	0	0.1671	0.17911	0.10939	0.22503	0.12796	0.22889	0.27014	0.23499	0.24752	0.23585	0.055826	0.12241	0.19936	0.21219	0.1951	0.11962	-2.1042	-2.2896	-2.7938	-2.4542	-2.2417	-2.9062	-2.4104	-2.8521	-2.7708	-2.2708	-2.8333	-2.5042	-2.5	-2.7417	-2.2396	-2.3812	75.432	22.456	-17.105	215.202	211.990	194.850	183.019	132.855	-84.006	1.132	235.988	-51.099	-37.748	183.550	-93.786	-71.124	0.0001246	0.00023334	6.3332e-05	1095.3	1.9001e-06	1.6421e-06	1179.1	231.44	7.7769e-07	4.6563e-07	289.81	81.585	62.418	19.027	2.7775e-06	26.322	0.00011673	0.00010482	2.8599e-05	1066.1	1.2225e-06	1.114e-06	1151.3	227.87	1.1817e-06	1.1427e-06	285.22	80.56	61.548	19.005	1.1388e-06	26.221	-63.399	6.231	-13.089	-90.154	44.033	53.739	-89.939	-82.622	0.925	52.493	-83.319	-75.954	-75.676	-68.985	91.289	-69.347	-8191	255	
1690.856	1	1	0	0	0.1858	0.054391	0.15275	0.089458	0.10711	0.064605	0.27903	0.19209	0.072498	0.18122	0.13338	0.22196	0.11857	0.15862	0.12697	0.09351	-2.1583	-2.2479	-2.6146	-2.5979	-2.4333	-2.7583	-2.5729	-2.5792	-2.5521	-2.3146	-2.8083	-2.6208	-2.3833	-2.8937	-2.2333	-2.6458	-53.694	223.782	-74.341	-44.674	140.043	-94.361	213.523	43.056	-19.252	-91.709	-77.496	-77.764	88.873	9.864	-32.784	159.317	0.00012959	0.00044582	7.7142e-05	1095.3	2.3029e-06	1.8668e-06	1186.6	232.33	6.3957e-07	2.0514e-06	290.49	80.588	62.439	19.13	2.7768e-06	26.264	0.00011271	0.00010506	2.9134e-05	1068.2	1.1727e-06	1.0871e-06	1155	227.7	1.2163e-06	1.1605e-06	285.08	80.088	61.695	19	1.121e-06	26.185	-52.329	-11.892	5.676	-89.923	5.059	119.969	-90.135	-82.786	-86.115	66.390	-82.927	-76.097	-76.167	-68.929	52.305	-69.445	-8191	255	
1690.952	1	1	0	0	0.1504	0.16547	0.070937	0.24436	0.15514	0.1659	0.17371	0.14774	0.1075	0.14439	0.333	0.11141	0.36437	0.062602	0.10541	0.089822	-2.4062	-2.4917	-2.6625	-2.6292	-2.0521	-2.8417	-2.5396	-2.5729	-2.5938	-2.2458	-2.7271	-2.6917	-2.3521	-2.7	-2.4104	-2.5896	-46.635	192.703	208.841	97.738	227.168	250.188	253.593	-2.629	-89.918	188.839	211.574	186.868	111.953	109.567	22.386	-77.078	8.9999e-05	0.0002703	6.4741e-05	1091.2	9.852e-07	3.005e-06	1181.4	232.42	1.5795e-06	3.5888e-06	293.46	81.195	62.371	19.078	2.2522e-06	26.306	0.00010905	0.00010445	2.8469e-05	1067.4	1.1528e-06	1.1008e-06	1154.2	227.95	1.1553e-06	1.0891e-06	285.57	80.482	61.696	19.041	1.1395e-06	26.282	-90.124	-36.949	-7.196	-90.008	-1.859	30.753	-90.093	-82.655	64.228	117.792	-83.385	-75.782	-76.063	-69.149	76.252	-69.454	-8191	255	
1691.024	1	1	0	0	0.2851	0.043916	0.18007	0.083239	0.10919	0.13319	0.33583	0.47811	0.10776	0.10402	0.2221	0.069726	0.13218	0.035531	0.064063	0.1903	-2.4292	-2.1667	-2.5646	-2.7979	-2.0271	-2.8042	-2.7042	-2.4562	-2.7438	-2.3896	-2.6104	-2.7458	-2.2083	-2.7875	-2.6188	-2.2229	59.676	202.498	210.095	-82.048	-39.921	175.528	183.952	253.216	212.074	-78.858	-100.009	96.818	218.858	-55.943	4.882	178.873	0.00011174	0.00049408	9.8344e-05	1098.3	1.325e-06	1.8449e-06	1183.9	233.6	3.8362e-06	4.778e-06	291.7	80.961	62.521	19.032	1.4448e-06	26.42	0.00010736	0.00010207	2.7233e-05	1068.9	1.1082e-06	1.1067e-06	1155.7	228.5	1.1173e-06	1.1176e-06	285.63	80.495	61.846	19.06	1.1034e-06	26.245	-71.956	-6.724	-7.298	-90.221	67.960	45.667	-89.862	-82.589	14.498	84.137	-83.331	-76.272	-76.413	-69.203	41.017	-69.111	-8191	255	
1691.120	1	1	0	0	0.080828	0.20019	0.044118	0.26141	0.12937	0.13406	0.2634	0.18694	0.14437	0.06113	0.15074	0.095721	0.01616	0.11475	0.18175	0.1195	-2.3354	-2.2396	-2.5333	-2.7938	-2.1458	-2.6792	-2.7042	-2.4896	-2.775	-2.1688	-2.5854	-2.6562	-2.1917	-2.7396	-2.6021	-2.4208	91.672	155.349	-89.156	-84.467	258.547	-61.993	166.851	84.839	-47.200	122.038	162.430	-30.978	149.997	96.488	-99.492	147.254	6.8057e-05	0.00056236	2.8277e-05	1100.5	3.5071e-06	3.7806e-06	1185.5	232.32	2.0266e-06	3.7674e-06	290.39	81.685	62.818	19.11	3.9655e-06	26.483	0.00010876	0.00010192	2.7562e-05	1071.2	1.1722e-06	1.1088e-06	1155.9	228.33	1.0939e-06	1.0992e-06	285.12	80.595	61.86	19.11	1.116e-06	26.343	-87.098	22.127	-14.450	-90.291	69.487	37.985	-89.821	-83.024	107.836	57.108	-83.161	-75.766	-75.936	-68.912	-12.816	-69.783	-8191	255	
1691.241	1	1	0	0	0.084891	0.26085	0.20945	0.10575	0.16947	0.22319	0.24109	0.33761	0.19348	0.099392	0.17526	0.095301	0.18356	0.050112	0.10168	0.10708	-2.2604	-2.4646	-2.4354	-2.7396	-2.3042	-2.6667	-2.5021	-2.4646	-2.7167	-2.5187	-2.4333	-2.6188	-2.1958	-2.6937	-2.7146	-2.2917	-64.301	103.341	7.681	138.309	17.890	-62.772	120.766	-88.393	197.611	-54.184	31.571	163.239	-79.885	12.043	184.653	-58.263	8.0703e-05	0.00018721	8.3199e-05	1099.6	2.5074e-06	3.5284e-06	1185.5	232.78	9.0676e-07	2.2876e-06	293.61	81.29	62.804	19.265	2.6889e-06	26.37	0.00010738	9.7967e-05	2.8469e-05	1070.7	1.1143e-06	1.0833e-06	1156.7	229.2	1.086e-06	1.0203e-06	285.99	80.532	61.853	19.144	1.0595e-06	26.347	-79.867	-4.320	-45.962	-90.198	46.618	41.629	-89.968	-82.637	40.118	150.422	-83.152	-76.047	-76.032	-69.093	81.417	-69.876	-8191	255	
1691.337	1	1	0	0	0.17298	0.24862	0.18138	0.20281	0.16871	0.23913	0.065473	0.29164	0.18431	0.11012	0.085279	0.11317	0.18763	0.085336	0.20064	0.23577	-2.2875	-2.2958	-2.3	-2.8229	-2.3	-2.6083	-2.8125	-2.2771	-2.7167	-2.5646	-2.3	-2.8604	-2.2583	-2.6625	-2.5646	-2.2771	213.052	-47.061	-94.579	193.561	-15.065	195.823	166.764	-85.526	32.334	-90.589	-43.019	214.083	229.743	230.459	26.192	1.391	0.00011034	0.00024236	5.6784e-05	1099.4	2.0555e-06	4.2778e-06	1187.8	234.22	1.9616e-06	3.7413e-06	291.94	81.16	62.566	19.239	4.1754e-06	26.602	0.00010511	9.6804e-05	2.6603e-05	1071	1.0957e-06	1.0623e-06	1156.7	229.87	1.0802e-06	1.0471e-06	286.18	80.695	61.997	19.182	1.0563e-06	26.461	-83.642	-18.611	-41.061	-90.176	84.054	50.480	-90.069	-82.686	61.829	121.747	-83.338	-76.219	-75.493	-69.154	49.112	-69.625	-8191	255	
1691.431	1	1	0	0	0.076232	0.10339	0.16833	0.3794	0.1664	0.095222	0.40121	0.14629	0.042557	0.29938	0.25665	0.058192	0.11376	0.18597	0.035338	0.25764	-2.0917	-2.4542	-2.25	-2.9062	-2.4917	-2.5646	-2.8646	-2.1646	-2.5875	-2.7562	-2.325	-2.9875	-2.5	-2.4938	-2.5625	-2.4104	139.573	211.932	74.422	183.257	69.531	54.745	206.007	-75.874	102.883	31.128	222.716	-61.570	153.967	243.184	65.764	162.155	0.00010552	0.00045969	0.00011207	1103.1	3.4996e-06	1.5459e-06	1188.5	233.39	3.3503e-06	1.7692e-06	294.19	81.086	62.876	19.257	2.5684e-06	26.549	0.00010552	9.6015e-05	2.7463e-05	1073.4	1.1076e-06	1.033e-06	1157.1	229.93	1.1049e-06	1.0366e-06	287.12	80.642	61.985	19.241	1.0385e-06	26.4	-84.796	-25.144	-40.455	-90.174	54.765	17.862	-90.093	-82.713	6.890	88.586	-83.330	-76.033	-75.760	-68.759	48.128	-69.554	-8191	255	
1691.529	1	1	0	0	0.23743	0.18713	0.18006	0.10206	0.13776	0.15657	0.14359	0.062671	0.19571	0.098713	0.17018	0.078434	0.16694	0.059986	0.13063	0.22401	-2.025	-2.5292	-2.2938	-2.7812	-2.2812	-2.5	-2.8083	-2.3229	-2.6208	-2.6854	-2.2938	-2.7771	-2.4688	-2.6958	-2.7208	-2.3271	111.171	-75.373	15.556	190.200	147.138	115.005	161.359	110.939	44.498	137.639	122.983	190.192	248.388	207.901	-96.716	234.535	0.00014911	0.00049306	3.2259e-05	1098.1	3.8767e-06	2.4256e-06	1190.1	234.97	3.9415e-06	1.878e-06	294.52	81.496	62.915	19.3	2.0675e-06	26.708	0.00010553	9.415e-05	2.7546e-05	1072.8	1.0615e-06	1.0211e-06	1156.9	230.82	1.1204e-06	1.0207e-06	287.63	80.971	62.022	19.227	1.0637e-06	26.472	-76.968	-31.665	20.093	-90.296	89.537	80.971	-90.008	-83.096	48.569	67.115	-83.281	-75.819	-76.466	-69.046	46.545	-69.432	-8191	255	
1691.624	1	1	0	0	0.27454	0.14911	0.21389	0.22704	0.21229	0.22215	0.049328	0.079236	0.21419	0.22764	0.4612	0.059284	0.089823	0.14352	0.21468	0.16746	-1.9375	-2.5208	-2.0979	-2.8104	-2.4729	-2.2167	-2.8875	-2.2687	-2.4938	-2.5792	-2.2104	-2.6375	-2.6021	-2.2896	-2.675	-2.2271	109.949	50.768	-68.436	203.725	65.352	171.417	135.694	132.889	33.979	186.421	190.162	46.875	151.127	-71.943	200.466	252.946	0.00011695	0.00033605	6.0226e-05	1102.2	3.6459e-06	5.0619e-06	1184.6	234.31	1.5861e-06	3.2711e-06	294.18	81.631	63.055	19.381	2.4918e-06	26.733	0.00010621	9.3397e-05	2.6983e-05	1072.7	1.1156e-06	1.0638e-06	1157.1	230.42	1.117e-06	1.0202e-06	287.03	80.863	62.134	19.211	1.0832e-06	26.505	-76.422	-25.418	-29.503	-90.239	47.928	42.704	-89.917	-82.865	105.826	36.066	-83.129	-75.803	-75.966	-69.122	110.168	-69.257	-8191	255	
1691.721	1	1	0	0	0.13718	0.10017	0.069878	0.19079	0.11056	0.12458	0.30895	0.22609	0.11382	0.15431	0.16257	0.27647	0.13247	0.22213	0.08599	0.27687	-2.0125	-2.5938	-2.1458	-2.6729	-2.5458	-2.2271	-2.8104	-2.5042	-2.2458	-2.7	-2.2979	-2.6979	-2.4646	-2.1854	-2.7583	-2.575	71.164	222.605	160.193	239.177	-80.520	92.475	212.699	150.951	181.551	99.664	-59.951	258.863	-86.065	249.227	50.221	118.764	0.0001049	0.00020911	8.3206e-05	1103.7	1.8822e-06	3.1156e-06	1189.2	235.37	1.7535e-06	2.3773e-06	293.39	80.949	62.753	19.31	4.5184e-06	26.561	0.00011226	9.6472e-05	2.729e-05	1074.9	1.1055e-06	1.0513e-06	1158.9	230.52	1.1587e-06	1.0722e-06	287.02	80.619	62.028	19.201	1.0803e-06	26.423	-70.340	-48.470	-5.902	-90.240	113.273	58.773	-89.856	-82.686	77.705	75.084	-83.118	-75.942	-76.309	-68.884	72.611	-69.328	-8191	255	
1691.840	1	1	0	0	0.28089	0.11249	0.16364	0.075542	0.21921	0.010683	0.20007	0.074168	0.11083	0.17543	0.35933	0.11176	0.10535	0.069164	0.06581	0.25653	-1.6562	-2.9021	-2.1958	-2.7417	-2.6375	-2.1917	-2.7396	-2.3812	-2.3271	-2.7833	-2.4188	-2.4042	-2.7	-2.3042	-2.8042	-2.5833	55.977	-8.208	120.335	-99.365	80.827	1.116	131.464	223.443	210.730	-46.205	247.166	-57.864	103.411	-16.153	102.413	114.739	8.414e-05	0.00033407	1.5302e-05	1103.1	1.4431e-06	4.545e-07	1193	235.06	1.7055e-06	3.3117e-06	293.24	81.645	62.662	19.099	3.4167e-06	26.473	0.00010596	9.8923e-05	2.6946e-05	1073.3	1.1326e-06	1.0504e-06	1160	230.27	1.0995e-06	1.0629e-06	287.32	80.912	62.08	19.141	1.0253e-06	26.446	-68.426	-37.733	64.286	-90.275	56.468	16.259	-89.949	-82.352	-50.383	39.691	-82.873	-76.148	-75.918	-68.985	28.899	-69.675	-8191	255	
1691.936	1	1	0	0	0.15583	0.098721	0.33837	0.23342	0.076531	0.14638	0.22332	0.12676	0.37774	0.077264	0.17525	0.15484	0.041097	0.22091	0.16075	0.27569	-1.8854	-2.5563	-2.1708	-2.5938	-2.7333	-2.0312	-2.7375	-2.5563	-2.3396	-2.6896	-2.4521	-2.5312	-2.6854	-2.2313	-2.6188	-2.6521	-66.585	0.390	151.726	210.478	90.680	138.167	191.828	-93.513	68.174	130.934	256.571	-72.014	115.794	69.546	111.171	150.087	0.00012596	0.00056472	7.8391e-05	1100.4	1.238e-06	2.5673e-06	1188	234.57	2.276e-06	3.5121e-06	293.8	81.256	62.872	19.262	1.8996e-06	26.712	0.00010598	9.5329e-05	2.6772e-05	1073.5	1.0862e-06	1.0402e-06	1158.9	230.7	1.0863e-06	1.01e-06	287.24	80.771	61.87	19.192	1.0028e-06	26.475	-48.335	-32.071	-17.391	-90.283	15.453	46.442	-89.831	-82.681	31.179	137.048	-82.967	-75.857	-75.820	-68.834	36.974	-69.446	-8191	255	
#DATA ENDS
