BOXY.EXE: ISS Imagent and Oximeter Data Acquisition Program Version 0.80
Ascii Record File

#ACQ INFORMATION
2  Detector Channels 
16  External MUX Channels 
1  Auxiliary Channels 
5000  Waveform (CCF) Frequency (Hz)
1  Waveforms Skipped 
30  Waveforms Averaged 
1  Cycles Averaged 
16  Acquisitions per Waveform 
10.0806  Updata Rate (Hz) 

#FILE INFORMATION
TRUE -- External MUX Channel results are PARSED.
FALSE -- AC DC and Phase are NOT grouped.
TRUE -- Companion Program Settings File CREATED.
FALSE -- AC data not excluded
FALSE -- DC data not excluded
FALSE -- Phase data not excluded
FALSE -- Auxillary Chn. data not excluded
Tab delimiters

#CALIBRATION STATE
TRUE -- Waveform Calibration Values APPLIED.


#AUX CALIBRATION VALUES
Val Type	aux-1	

Term	1.0000e+00	
Factor	0.0000e+00	


#WF CALIBRATION VALUES
A = Detector Channel
Val Type	A-AC1	A-AC2	A-AC3	A-AC4	A-AC5	A-AC6	A-AC7	A-AC8	A-AC9	A-AC10	A-AC11	A-AC12	A-AC13	A-AC14	A-AC15	A-AC16	A-DC1	A-DC2	A-DC3	A-DC4	A-DC5	A-DC6	A-DC7	A-DC8	A-DC9	A-DC10	A-DC11	A-DC12	A-DC13	A-DC14	A-DC15	A-DC16	A-Ph1	A-Ph2	A-Ph3	A-Ph4	A-Ph5	A-Ph6	A-Ph7	A-Ph8	A-Ph9	A-Ph10	A-Ph11	A-Ph12	A-Ph13	A-Ph14	A-Ph15	A-Ph16	

Term	0.00000e+00	0.00000e+00	0.00000e+00	0.00000e+00	0.00000e+00	0.00000e+00	0.00000e+00	0.00000e+00	0.00000e+00	0.00000e+00	0.00000e+00	0.00000e+00	0.00000e+00	0.00000e+00	0.00000e+00	0.00000e+00	0.00000e+00	0.00000e+00	0.00000e+00	0.00000e+00	0.00000e+00	0.00000e+00	0.00000e+00	0.00000e+00	0.00000e+00	0.00000e+00	0.00000e+00	0.00000e+00	0.00000e+00	0.00000e+00	0.00000e+00	0.00000e+00	0.00000e+00	0.00000e+00	0.00000e+00	0.00000e+00	0.00000e+00	0.00000e+00	0.00000e+00	0.00000e+00	0.00000e+00	0.00000e+00	0.00000e+00	0.00000e+00	0.00000e+00	0.00000e+00	0.00000e+00	0.00000e+00	
Factor	1.00000e+00	1.00000e+00	1.00000e+00	1.00000e+00	1.00000e+00	1.00000e+00	1.00000e+00	1.00000e+00	1.00000e+00	1.00000e+00	1.00000e+00	1.00000e+00	1.00000e+00	1.00000e+00	1.00000e+00	1.00000e+00	1.00000e+00	1.00000e+00	1.00000e+00	1.00000e+00	1.00000e+00	1.00000e+00	1.00000e+00	1.00000e+00	1.00000e+00	1.00000e+00	1.00000e+00	1.00000e+00	1.00000e+00	1.00000e+00	1.00000e+00	1.00000e+00	X	X	X	X	X	X	X	X	X	X	X	X	X	X	X	X	

B = Detector Channel
Val Type	B-AC1	B-AC2	B-AC3	B-AC4	B-AC5	B-AC6	B-AC7	B-AC8	B-AC9	B-AC10	B-AC11	B-AC12	B-AC13	B-AC14	B-AC15	B-AC16	B-DC1	B-DC2	B-DC3	B-DC4	B-DC5	B-DC6	B-DC7	B-DC8	B-DC9	B-DC10	B-DC11	B-DC12	B-DC13	B-DC14	B-DC15	B-DC16	B-Ph1	B-Ph2	B-Ph3	B-Ph4	B-Ph5	B-Ph6	B-Ph7	B-Ph8	B-Ph9	B-Ph10	B-Ph11	B-Ph12	B-Ph13	B-Ph14	B-Ph15	B-Ph16	

Term	0.00000e+00	0.00000e+00	0.00000e+00	0.00000e+00	0.00000e+00	0.00000e+00	0.00000e+00	0.00000e+00	0.00000e+00	0.00000e+00	0.00000e+00	0.00000e+00	0.00000e+00	0.00000e+00	0.00000e+00	0.00000e+00	0.00000e+00	0.00000e+00	0.00000e+00	0.00000e+00	0.00000e+00	0.00000e+00	0.00000e+00	0.00000e+00	0.00000e+00	0.00000e+00	0.00000e+00	0.00000e+00	0.00000e+00	0.00000e+00	0.00000e+00	0.00000e+00	-3.63263e+01	-1.44616e+02	-1.36455e+02	-1.83436e+02	-6.47196e+01	-8.14628e+01	-1.60695e+02	-1.62015e+02	-4.27404e+01	-5.87643e+01	-1.72707e+02	-1.72386e+02	-1.83401e+02	-1.78286e+02	-6.56670e+01	-1.51169e+02	
Factor	2.16242e-05	1.40199e-04	3.24853e-05	1.48686e-01	1.47159e-06	1.31807e-06	1.62454e-01	5.10240e-02	1.11014e-06	1.35182e-06	7.91605e-02	2.65441e-02	2.35584e-02	8.15133e-03	1.44641e-06	1.17866e-02	2.30442e-06	2.49268e-06	6.93736e-07	7.79555e-02	2.69482e-08	2.73278e-08	7.97935e-02	2.67642e-02	2.70149e-08	2.74240e-08	4.00788e-02	1.34491e-02	1.24290e-02	4.29815e-03	2.72636e-08	5.99323e-03	X	X	X	X	X	X	X	X	X	X	X	X	X	X	X	X	



#DISTANCE SETTINGS
A = Detector Channel
A-1	A-2	A-3	A-4	A-5	A-6	A-7	A-8	A-9	A-10	A-11	A-12	A-13	A-14	A-15	A-16	

2.5000e+00	3.0000e+00	2.5000e+00	3.0000e+00	2.0000e+00	3.0000e+00	1.5000e+00	3.0000e+00	3.0000e+00	3.0000e+00	3.0000e+00	3.0000e+00	3.0000e+00	3.0000e+00	1.5000e+00	3.0000e+00	

B = Detector Channel
B-1	B-2	B-3	B-4	B-5	B-6	B-7	B-8	B-9	B-10	B-11	B-12	B-13	B-14	B-15	B-16	

1.0000e+01	1.0000e+01	1.0000e+01	1.4400e+00	1.0000e+01	1.0000e+01	1.5100e+00	1.9400e+00	1.0000e+01	1.0000e+01	1.9900e+00	2.4900e+00	2.4100e+00	2.9000e+00	1.0000e+01	2.9800e+00	




#DATA BEGINS
time	group	step	mark	flag	A-AC1	A-AC2	A-AC3	A-AC4	A-AC5	A-AC6	A-AC7	A-AC8	A-AC9	A-AC10	A-AC11	A-AC12	A-AC13	A-AC14	A-AC15	A-AC16	A-DC1	A-DC2	A-DC3	A-DC4	A-DC5	A-DC6	A-DC7	A-DC8	A-DC9	A-DC10	A-DC11	A-DC12	A-DC13	A-DC14	A-DC15	A-DC16	A-Ph1	A-Ph2	A-Ph3	A-Ph4	A-Ph5	A-Ph6	A-Ph7	A-Ph8	A-Ph9	A-Ph10	A-Ph11	A-Ph12	A-Ph13	A-Ph14	A-Ph15	A-Ph16	B-AC1	B-AC2	B-AC3	B-AC4	B-AC5	B-AC6	B-AC7	B-AC8	B-AC9	B-AC10	B-AC11	B-AC12	B-AC13	B-AC14	B-AC15	B-AC16	B-DC1	B-DC2	B-DC3	B-DC4	B-DC5	B-DC6	B-DC7	B-DC8	B-DC9	B-DC10	B-DC11	B-DC12	B-DC13	B-DC14	B-DC15	B-DC16	B-Ph1	B-Ph2	B-Ph3	B-Ph4	B-Ph5	B-Ph6	B-Ph7	B-Ph8	B-Ph9	B-Ph10	B-Ph11	B-Ph12	B-Ph13	B-Ph14	B-Ph15	B-Ph16	aux-1	digaux	

2009.811	1	1	0	512	0.21258	0.15843	0.070334	0.20249	0.18842	0.29877	0.281	0.066884	0.18145	0.14452	0.20316	0.14668	0.093284	0.17569	0.24196	0.30446	-2.3104	-2.6104	-2.7104	-2.6646	-2.7021	-2.9562	-2.5917	-2.8458	-2.5604	-2.6958	-3.1271	-2.8208	-2.5667	-2.9125	-2.475	-2.9854	90.643	68.828	29.867	318.039	27.113	330.051	322.897	215.453	288.838	244.078	215.572	222.910	42.716	102.838	312.430	220.493	0.00021435	0.00039319	4.9481e-05	504.89	5.4095e-06	3.1058e-06	802.46	122.92	1.7622e-06	3.2779e-06	279.46	113.49	38.046	12.472	5.6767e-06	51.015	6.2195e-05	4.0485e-05	1.0789e-05	447.04	4.3605e-07	4.1601e-07	713	109.38	4.4788e-07	4.1804e-07	247.12	101.41	34.301	11.149	4.5508e-07	45.58	234.369	68.227	77.904	-12.108	120.770	100.329	-12.064	-8.342	132.470	126.608	-8.796	-3.676	-4.675	0.440	112.086	0.473	-8191	255	
2009.907	1	1	0	0	0.10973	0.12163	0.27247	0.19875	0.1033	0.068429	0.071987	0.069163	0.17577	0.17849	0.041736	0.1467	0.065851	0.2312	0.052908	0.14323	-2.4396	-2.4729	-2.8771	-2.7479	-2.625	-2.8604	-2.475	-2.6437	-2.8729	-2.675	-2.9938	-2.6979	-2.5458	-2.7792	-2.525	-2.6458	248.839	119.643	303.875	332.187	72.783	176.800	115.539	311.226	68.408	176.951	261.480	205.898	198.223	239.120	117.260	-11.480	0.00024303	0.00071934	8.9706e-05	503.62	9.871e-07	3.6976e-06	807.56	126.73	3.4417e-06	3.0174e-06	281.24	115.56	39.09	12.791	4.7722e-06	51.357	6.3482e-05	3.8496e-05	1.1723e-05	447.64	4.4347e-07	3.9124e-07	717.48	111.96	4.2109e-07	4.0702e-07	249.13	102.6	34.843	11.339	4.3145e-07	45.787	228.769	54.796	49.388	-12.125	91.674	133.065	-11.944	-8.582	156.785	136.138	-8.869	-3.902	-4.709	0.223	151.366	0.247	-8191	255	
2010.026	1	1	0	0	0.24189	0.11294	0.23603	0.12799	0.11355	0.07464	0.14025	0.079558	0.3164	0.14909	0.26117	0.038903	0.20171	0.11776	0.10688	0.2136	-2.5458	-2.5021	-2.875	-2.6292	-2.5417	-2.9354	-2.6333	-2.8896	-2.7812	-2.3729	-2.8396	-2.7375	-2.4	-2.9458	-2.6146	-2.7687	251.275	202.206	144.920	292.261	236.582	26.384	228.153	235.162	193.185	263.264	133.662	-6.081	41.679	6.697	220.045	227.141	0.00020616	0.00037761	6.9409e-05	508.41	4.9482e-06	4.6223e-06	814.79	127.14	1.9141e-06	2.9547e-06	285.15	116.22	39.759	12.684	3.8088e-06	51.119	6.1149e-05	3.9e-05	1.0909e-05	450.18	4.8793e-07	4.8433e-07	723.59	113.05	4.4271e-07	4.5238e-07	252.7	103.62	35.382	11.288	4.1747e-07	45.57	238.950	68.840	67.272	-11.952	113.087	78.170	-11.741	-8.927	211.090	129.255	-9.182	-4.209	-5.182	0.752	151.974	-0.270	-8191	255	
2010.122	1	1	0	0	0.083123	0.27198	0.11426	0.2728	0.0693	0.068136	0.069851	0.20386	0.05265	0.13776	0.33975	0.1147	0.083664	0.059173	0.11144	0.2161	-2.525	-2.3937	-2.8708	-2.9313	-2.5687	-2.8708	-2.7167	-2.7167	-2.85	-2.4125	-2.8146	-2.6354	-2.4479	-2.7812	-2.6813	-2.6021	219.715	313.397	55.912	188.704	119.884	66.975	223.128	327.285	60.489	-9.002	300.363	290.584	221.754	258.269	68.576	241.015	0.00024332	0.00028618	6.4556e-05	501.29	2.632e-06	2.9142e-06	807.43	124.53	8.6186e-07	2.7318e-06	279.76	115.16	39.528	12.631	2.8315e-06	50.816	6.3996e-05	3.6362e-05	1.1635e-05	445.48	4.4689e-07	4.0542e-07	718.27	110.75	4.3297e-07	4.229e-07	248.78	102.95	35.38	11.269	4.4059e-07	45.396	228.458	56.741	60.525	-12.226	135.527	125.230	-11.712	-8.556	213.527	138.422	-9.052	-4.227	-5.053	0.480	180.744	0.658	-8191	255	
2010.195	1	1	0	0	0.22632	0.12205	0.19256	0.09343	0.089123	0.16183	0.22202	0.21981	0.19036	0.15143	0.10072	0.26715	0.17523	0.24115	0.083642	0.1907	-2.3583	-2.3708	-2.7521	-2.725	-2.4188	-2.8438	-2.7396	-2.5792	-3.0708	-2.4542	-2.7521	-2.9188	-2.3563	-2.8312	-2.8167	-2.5167	200.386	110.056	270.269	278.601	210.379	102.279	230.375	200.404	8.748	108.634	19.268	65.093	265.487	2.662	82.416	248.245	0.00024716	0.00031871	5.9103e-05	505.16	2.0218e-06	1.5783e-06	808.04	125.92	2.1845e-06	3.075e-06	284.03	116.25	39.819	12.73	2.584e-06	51.627	6.2594e-05	4.1415e-05	1.285e-05	449.58	4.4504e-07	4.4043e-07	718.97	111.81	4.8734e-07	3.8514e-07	251.2	103.42	35.461	11.327	4.6024e-07	45.765	225.018	22.076	37.204	-11.574	123.324	76.441	-11.879	-8.477	183.122	127.327	-8.684	-4.510	-4.811	0.705	124.661	0.251	-8191	255	
2010.314	1	1	0	0	0.063227	0.10722	0.072913	0.15036	0.2746	0.19901	0.23083	0.091629	0.22057	0.16562	0.21814	0.19286	0.15241	0.11587	0.13448	0.19096	-2.6312	-2.3563	-2.6625	-2.8229	-2.4417	-2.8708	-2.6375	-2.5167	-3.0667	-2.6083	-2.8208	-2.9542	-2.3854	-2.8229	-2.6917	-2.5542	221.878	228.310	158.224	239.838	37.160	-25.793	297.564	228.681	84.180	276.906	26.253	290.426	224.784	328.967	253.287	253.711	0.00025343	0.00036647	7.1855e-05	509.37	4.2132e-06	2.1433e-06	815.35	126.41	2.8562e-06	4.3038e-06	284.99	116.68	39.264	12.76	1.5335e-06	51.702	6.5129e-05	4.0895e-05	1.1809e-05	450.9	4.7069e-07	4.4311e-07	722.26	112.41	4.5644e-07	4.261e-07	252.23	103.66	35.195	11.367	4.7904e-07	46.017	217.177	46.823	106.931	-12.444	125.279	122.542	-11.694	-8.406	176.256	133.962	-8.453	-4.262	-4.552	-0.235	89.630	0.135	-8191	255	
2010.411	1	1	0	0	0.15146	0.1131	0.22225	0.15432	0.083597	0.15312	0.30564	0.24946	0.12341	0.17182	0.1907	0.13691	0.21102	0.11092	0.14495	0.11048	-2.3771	-2.4333	-2.7062	-2.9875	-2.4167	-2.7812	-2.9625	-2.6604	-2.9354	-2.6292	-2.7167	-3.0292	-2.3396	-2.925	-2.8083	-2.3812	198.987	301.573	283.265	228.847	57.995	152.126	-14.803	261.716	165.125	89.634	237.580	104.906	204.862	249.422	-1.361	238.297	0.00026519	0.00034162	9.5297e-05	511.02	4.2384e-06	3.4104e-06	813.82	125.69	2.5679e-06	4.4928e-06	279.28	114.93	38.301	12.435	8.7873e-07	51.109	6.352e-05	4.2012e-05	1.1801e-05	451.56	4.4436e-07	4.1544e-07	723.3	111.35	4.7119e-07	4.4433e-07	247.73	102.13	34.192	11.124	4.0271e-07	45.525	234.227	39.187	52.704	-12.473	103.952	112.025	-12.013	-8.521	130.063	115.243	-8.711	-3.728	-4.651	0.201	102.229	0.280	-8191	255	
2010.507	1	1	0	0	0.11144	0.058832	0.25648	0.083707	0.17766	0.042441	0.31218	0.14352	0.16558	0.091405	0.017368	0.35752	0.20257	0.083532	0.10034	0.27052	-2.4146	-2.5042	-2.3667	-3.0271	-2.6562	-2.6646	-2.8479	-2.6813	-2.7313	-2.6125	-2.4437	-2.9813	-2.4646	-2.6417	-2.8021	-2.4042	40.403	167.514	156.370	291.373	-11.278	24.253	242.435	27.850	114.460	115.414	85.452	285.602	292.570	62.786	127.959	244.218	0.00023249	0.00046429	8.5249e-05	501.84	4.4803e-06	2.5824e-06	806.48	123.26	1.4327e-06	2.6162e-06	282.28	115.91	39.285	12.547	3.5183e-06	51.408	6.4048e-05	3.9556e-05	1.1269e-05	445.91	4.2657e-07	4.5085e-07	716.01	110.14	4.8672e-07	4.4341e-07	249.31	103.33	34.985	11.24	4.5366e-07	45.842	231.476	52.370	88.615	-12.609	118.594	89.347	-11.944	-8.369	117.620	93.125	-8.968	-4.176	-4.328	-0.033	178.789	0.423	-8191	255	
2010.627	1	1	0	0	0.20723	0.16269	0.33352	0.13377	0.16961	0.10871	0.31018	0.12716	0.087863	0.24526	0.035584	0.13488	0.17088	0.18189	0.096658	0.36881	-2.5438	-2.7271	-2.4667	-2.8479	-2.4458	-2.9062	-3.0042	-2.6083	-2.6896	-2.6729	-2.4958	-3.0646	-2.6667	-2.7375	-2.7938	-2.5938	207.109	201.333	150.451	250.579	26.365	234.830	302.776	58.611	71.655	301.444	319.470	222.703	192.598	147.921	58.628	297.279	0.00022584	0.00022827	7.9023e-05	504.4	2.1906e-06	2.1387e-06	814.56	123.87	3.723e-06	3.9359e-06	284.46	115.06	38.742	12.556	3.6084e-06	51.276	6.2891e-05	3.8772e-05	1.1293e-05	447.51	4.4622e-07	4.1618e-07	719.58	110.5	4.4738e-07	3.8411e-07	250.73	102.8	34.8	11.243	4.3037e-07	45.691	230.606	2.257	54.434	-12.424	147.367	130.458	-11.877	-8.425	147.089	118.341	-9.072	-4.238	-4.814	0.624	137.216	0.139	-8191	255	
2010.723	1	1	0	0	0.20666	0.015358	0.10199	0.048666	0.20392	0.28607	0.21299	0.10932	0.16108	0.02464	0.25889	0.096407	0.55772	0.15783	0.17873	0.23596	-2.3208	-2.7833	-2.4146	-2.8604	-2.6	-2.4542	-2.9688	-2.6583	-2.7583	-2.9396	-2.6375	-3.0542	-2.7292	-2.7167	-2.8729	-2.7167	116.560	282.435	278.242	48.931	132.278	317.135	283.619	180.795	285.064	172.859	184.325	-1.382	270.895	327.792	86.153	302.630	0.00024198	0.00030093	0.00011544	503.94	2.8797e-06	1.2241e-06	812.8	125.34	1.7872e-06	3.2055e-06	279.77	113.88	38.244	12.35	1.9197e-06	50.576	6.4605e-05	3.9171e-05	1.076e-05	446.95	4.2393e-07	4.0354e-07	721.27	110.79	4.4552e-07	3.8902e-07	248.81	101.75	34.311	11.057	4.0628e-07	45.018	225.465	68.718	49.828	-12.322	148.363	74.717	-11.271	-8.455	210.235	110.895	-8.748	-4.312	-4.886	0.153	126.629	0.265	-8191	255	
2010.795	1	1	0	0	0.17622	0.11347	0.20847	0.17653	0.36748	0.35375	0.1438	0.14557	0.27375	0.13764	0.10594	0.28811	0.10185	0.080439	0.099248	0.093094	-2.4104	-2.7729	-2.3667	-2.8875	-2.7521	-2.5417	-3.0229	-2.4688	-2.7	-2.8667	-2.5	-2.9875	-2.6104	-2.4083	-3.1833	-2.6792	-13.142	128.783	-10.817	251.186	146.054	304.534	279.803	132.710	327.743	268.516	45.377	269.763	224.249	146.295	113.040	129.466	0.00022748	0.00027834	5.8879e-05	502.24	3.9689e-06	2.2205e-06	795.71	120.97	1.5668e-06	2.4382e-06	272.32	112.65	36.759	12.022	4.9652e-06	49.507	6.2541e-05	3.5993e-05	9.364e-06	444.48	3.9664e-07	3.5953e-07	708.81	108.25	4.2892e-07	3.9473e-07	241.56	99.514	32.959	10.76	3.8447e-07	44.16	229.984	74.276	60.018	-12.578	117.467	115.591	-11.941	-8.495	132.135	136.975	-8.818	-3.747	-4.376	0.389	102.734	0.114	-8191	255	
2010.916	1	1	0	0	0.10724	0.18976	0.20111	0.14393	0.023406	0.42921	0.37678	0.16694	0.15246	0.1018	0.15413	0.12944	0.24092	0.23628	0.039854	0.080591	-2.1667	-2.7958	-2.3688	-2.7771	-2.9188	-2.5625	-2.9562	-2.7979	-2.6042	-2.9229	-2.575	-2.6063	-2.8708	-2.4021	-2.7708	-3.0125	116.649	215.226	217.692	-21.170	66.206	257.561	280.197	250.788	26.704	204.184	228.148	35.375	267.151	106.367	-3.046	269.879	0.00022596	0.0003165	7.6744e-05	499.07	2.7218e-06	2.6944e-06	798.45	121.18	1.6578e-06	3.1895e-06	272.14	111.13	37.292	12.02	1.9228e-06	49.906	5.7913e-05	3.6227e-05	1.0133e-05	442.4	3.6301e-07	4.0468e-07	708.71	107.95	3.9824e-07	3.8496e-07	241.91	99.116	33.317	10.719	4.1503e-07	44.265	226.144	42.917	66.903	-12.349	155.096	99.940	-12.094	-8.468	159.838	139.490	-8.416	-4.081	-3.945	0.556	157.088	0.324	-8191	255	
2011.010	1	1	0	0	0.096957	0.14628	0.10549	0.23251	0.098995	0.25466	0.31339	0.22111	0.1537	0.14324	0.32054	0.10832	0.051027	0.081895	0.13117	0.14129	-2.125	-2.8563	-2.5375	-2.7958	-2.6562	-2.4667	-3.05	-2.6771	-2.6188	-3.1854	-2.6729	-2.8187	-2.7812	-2.2521	-2.8208	-2.6333	191.603	288.541	105.221	323.389	255.064	244.349	302.015	103.397	279.279	60.966	323.800	27.183	65.269	307.062	209.227	-2.451	0.00022177	0.00041758	8.3013e-05	498.39	1.1531e-06	1.5948e-06	798.85	120.98	1.9253e-06	2.0543e-06	273.75	110.45	37.041	11.946	5.4554e-06	49.823	6.0765e-05	3.6564e-05	9.3221e-06	441.11	3.7851e-07	3.7764e-07	707.71	107.76	4.0742e-07	4.0902e-07	242.61	98.578	32.947	10.716	3.7249e-07	44.28	232.450	39.717	71.810	-12.175	143.482	40.993	-11.984	-8.207	97.241	146.458	-8.801	-3.707	-4.047	0.453	141.544	-0.058	-8191	255	
2011.106	1	1	0	0	0.26396	0.047151	0.19467	0.10816	0.12331	0.17291	0.37275	0.15373	0.16643	0.081154	0.15458	0.29326	0.17594	0.24416	0.08367	0.25944	-1.9979	-2.8833	-2.55	-2.6937	-2.7792	-2.5146	-2.8667	-2.8583	-2.5958	-2.7812	-2.6562	-2.6188	-2.8812	-2.4708	-2.7542	-2.7396	204.726	296.047	164.832	48.376	170.567	62.183	256.545	2.975	95.295	249.045	224.266	263.259	283.336	275.608	321.327	233.911	0.00019101	0.00027004	7.1732e-05	494.71	3.6922e-06	1.4336e-06	791.81	120.1	2.1381e-06	3.6769e-06	269.45	109.1	36.019	11.724	2.2363e-06	49.133	6.0376e-05	3.6487e-05	9.6877e-06	440.06	3.9429e-07	3.6169e-07	703.17	106.26	4.0618e-07	3.9268e-07	238.4	97.025	32.165	10.513	3.5784e-07	43.66	233.485	58.707	57.947	-12.084	120.274	116.416	-11.696	-9.060	149.065	104.210	-8.839	-3.878	-4.030	0.244	82.172	0.366	-8191	255	
2011.202	1	1	0	0	0.12631	0.15364	0.17463	0.10079	0.32679	0.10115	0.19968	0.21126	0.26063	0.12929	0.15148	0.21142	0.12009	0.1185	0.16643	0.27042	-2.1125	-2.7083	-2.5833	-2.4875	-2.8563	-2.4604	-2.9917	-2.925	-2.5708	-2.9792	-2.7458	-2.5979	-3.0687	-2.5292	-2.7125	-2.9917	296.075	123.863	18.059	191.642	113.824	284.492	9.558	196.012	59.580	230.531	131.265	270.856	327.806	217.988	203.953	193.253	0.00023431	0.00021694	6.9144e-05	491.38	1.1449e-06	1.6703e-06	791.17	118.43	1.437e-06	2.5834e-06	269.77	108.85	36.339	11.923	1.8465e-06	49.189	6.1422e-05	3.4669e-05	9.0879e-06	437.61	3.9198e-07	3.6693e-07	700.37	105.47	3.8755e-07	4.0319e-07	238.51	97.416	32.388	10.626	4.2957e-07	43.932	231.078	69.908	44.496	-12.334	102.135	116.073	-11.909	-8.509	161.020	137.513	-8.759	-3.838	-4.839	0.245	171.696	0.219	-8191	255	
2011.323	1	1	0	0	0.19608	0.092355	0.049091	0.33141	0.25853	0.068663	0.1491	0.021385	0.25934	0.20709	0.20726	0.16559	0.13457	0.20556	0.042216	0.094076	-1.9292	-2.8604	-2.5062	-2.5271	-2.8958	-2.7104	-2.8396	-2.6562	-2.5312	-3.0187	-2.6688	-2.5167	-2.8229	-2.7083	-2.5812	-3.0208	50.182	110.025	235.116	-15.925	42.469	39.466	63.440	262.971	32.302	102.174	172.746	194.770	5.569	273.047	268.249	6.141	0.00019724	0.00026462	6.7662e-05	496.56	5.0335e-06	2.3711e-06	800.66	121.15	3.1482e-06	1.9074e-06	277.99	112.22	38.009	12.208	3.6863e-06	50.004	6.1202e-05	3.7146e-05	9.8135e-06	440.02	4.2606e-07	3.9067e-07	709.7	108.21	4.1761e-07	4.1896e-07	244.96	100.06	33.788	10.904	4.1412e-07	44.538	232.715	53.930	46.227	-12.203	143.904	127.317	-11.837	-8.372	148.478	137.863	-8.824	-3.863	-4.753	-0.154	148.607	0.488	-8191	255	
2011.419	1	1	0	0	0.096565	0.088089	0.03222	0.081544	0.036812	0.018995	0.20786	0.17635	0.14206	0.21715	0.13212	0.21622	0.068084	0.056992	0.16829	0.16132	-2.1083	-2.7417	-2.6667	-2.4375	-2.8583	-2.5667	-2.8688	-2.9	-2.5083	-3.0271	-2.8208	-2.3292	-2.8458	-2.6042	-2.5438	-2.8917	217.148	54.992	275.042	239.213	28.230	213.724	296.332	128.268	239.678	218.046	90.287	211.725	-0.750	-23.643	31.587	247.629	0.00020043	0.00029301	6.8467e-05	497.14	3.4028e-06	2.1222e-06	805.11	123.63	1.2122e-06	3.5835e-06	279.64	112.84	38.542	12.143	3.4819e-06	50.057	6.0073e-05	4.114e-05	1.0681e-05	443.82	4.3173e-07	4.024e-07	715.7	109.91	4.0978e-07	4.4575e-07	247.19	101.01	34.317	10.903	4.3094e-07	44.389	221.426	23.669	60.612	-12.225	117.455	108.064	-11.854	-8.560	168.947	161.422	-8.876	-4.066	-4.402	0.603	115.179	0.006	-8191	255	
2011.491	1	1	0	0	0.28122	0.26796	0.22283	0.38816	0.16328	0.066813	0.34734	0.072906	0.039503	0.11409	0.35406	0.15272	0.015832	0.15695	0.0625	0.11825	-1.8438	-2.725	-2.7479	-2.4208	-2.7146	-2.6125	-2.6417	-2.85	-2.4625	-2.55	-2.8688	-2.5062	-2.8396	-2.7354	-2.5938	-2.9854	160.745	218.973	325.149	311.409	325.955	209.504	299.298	287.418	42.259	248.969	257.243	5.245	148.600	46.273	327.775	330.182	0.00021913	0.00038838	5.9279e-05	500.58	1.323e-06	1.7984e-06	798.1	121.66	3.1223e-06	2.3666e-06	276.13	112.88	38.391	12.174	3.6066e-06	50.174	6.1806e-05	4.0054e-05	1.0977e-05	445.01	4.4431e-07	4.131e-07	711.03	108.65	4.3432e-07	4.3713e-07	244.75	100.79	34.366	10.942	4.3758e-07	44.615	225.688	61.734	74.613	-12.102	117.035	143.188	-12.314	-8.095	140.323	186.909	-8.968	-3.841	-4.791	0.184	89.438	0.020	-8191	255	
2011.587	1	1	0	0	0.14931	0.14751	0.13769	0.19042	0.10851	0.089537	0.46646	0.16651	0.24242	0.2691	0.10423	0.23774	0.23512	0.17541	0.26352	0.29819	-2.0292	-2.8063	-2.7125	-2.4583	-2.7958	-2.7854	-2.6042	-2.9146	-2.6479	-2.6646	-2.975	-2.5854	-2.6625	-2.7375	-2.4271	-2.7667	93.112	286.123	35.662	281.313	48.361	240.340	265.899	44.538	5.208	-1.085	298.000	-26.143	72.259	-12.111	134.245	-8.865	0.00021648	0.00049863	8.2259e-05	501.15	4.6721e-06	2.2682e-06	811.79	123.17	1.3798e-06	4.2472e-06	278.54	113.3	38.537	12.613	2.5262e-06	50.307	6.4557e-05	4.115e-05	1.1922e-05	445.76	4.8389e-07	4.3229e-07	716.28	109.9	4.2171e-07	4.1142e-07	247.16	101.56	34.601	11.2	4.1753e-07	44.988	231.601	40.951	51.363	-12.103	126.641	165.488	-11.812	-8.818	145.646	98.529	-8.950	-4.230	-4.903	0.239	127.972	0.384	-8191	255	
2011.708	1	1	0	0	0.060951	0.19671	0.21379	0.32484	0.085333	0.055256	0.022837	0.29997	0.078527	0.11799	0.13349	0.20644	0.32401	0.28179	0.10847	0.099082	-2.2188	-2.4521	-2.8417	-2.6396	-2.7333	-2.9125	-2.7583	-2.7521	-2.7188	-2.4792	-2.9229	-2.7542	-2.725	-2.8521	-2.2833	-3.0833	29.754	57.757	253.877	-12.188	235.656	112.550	-21.075	176.281	28.618	271.807	228.046	73.129	319.524	65.864	188.944	28.637	0.00016846	0.00036994	3.8458e-05	502.91	1.8867e-06	3.376e-06	807.87	124.08	2.3562e-06	2.9269e-06	279.18	115.68	39.051	12.436	4.1256e-06	51.148	6.0083e-05	4.1934e-05	9.9797e-06	447.18	4.5688e-07	3.79e-07	717.64	110.12	4.0731e-07	3.7262e-07	249.66	102.6	34.736	11.152	4.3741e-07	45.437	239.388	70.066	65.928	-12.315	106.978	117.014	-11.721	-8.595	197.236	157.570	-8.734	-3.569	-4.367	0.612	116.994	0.464	-8191	255	
2011.804	1	1	0	0	0.018245	0.11049	0.13686	0.10133	0.198	0.14079	0.50319	0.086107	0.18457	0.093145	0.24386	0.30425	0.1514	0.1048	0.17339	0.079467	-2.2792	-2.4021	-2.9458	-2.4688	-2.5958	-2.8458	-2.4833	-2.6875	-2.6688	-2.3354	-3.0167	-2.5458	-2.5396	-2.7396	-2.4771	-2.8854	-9.883	41.844	46.558	28.047	190.922	143.479	279.324	253.671	61.473	195.489	326.920	0.054	197.285	1.489	146.746	244.465	0.00019234	0.00048707	7.8786e-05	505.69	5.552e-06	1.4258e-06	810.04	123.9	1.5419e-06	2.3146e-06	279.06	113.91	38.66	12.319	2.6704e-06	50.238	6.2051e-05	3.7006e-05	1.084e-05	448.57	4.7361e-07	4.0565e-07	719.76	110.07	4.4867e-07	3.9165e-07	246.09	101.34	34.406	11.036	4.1265e-07	44.637	229.181	49.532	78.016	-12.757	148.688	103.233	-11.964	-8.565	130.467	195.742	-9.197	-3.592	-4.500	0.629	142.266	0.399	-8191	255	
2011.900	1	1	0	0	0.22627	0.23289	0.078493	0.15508	0.1236	0.16539	0.10837	0.16386	0.32612	0.14111	0.13337	0.047018	0.15492	0.16241	0.28389	0.13195	-2.3292	-2.3458	-2.8271	-2.6333	-2.5229	-3.0021	-2.5917	-2.8146	-2.7438	-2.4542	-2.8792	-2.6708	-2.5792	-2.9771	-2.6292	-2.6771	206.853	314.056	69.658	252.707	49.781	286.945	222.332	-16.918	318.911	90.780	7.486	204.058	13.872	-10.937	184.489	216.151	0.00023229	0.00039643	0.00011223	500.97	2.5076e-06	3.8373e-06	806.98	124.18	1.5207e-06	2.6174e-06	280.67	114.12	39.262	12.375	3.3318e-06	50.262	6.1336e-05	3.8185e-05	1.0759e-05	445.06	4.6536e-07	3.9523e-07	716.94	110.27	4.4068e-07	4.0953e-07	248.34	101.89	34.723	11.095	4.3162e-07	44.707	238.365	68.786	46.568	-12.108	151.060	136.213	-11.843	-8.446	120.460	164.361	-8.691	-3.973	-5.099	-0.070	132.570	0.220	-8191	255	
2011.996	1	1	0	0	0.087151	0.23934	0.27084	0.17721	0.11273	0.18216	0.12772	0.049862	0.15573	0.031825	0.3815	0.31133	0.17407	0.048558	0.082297	0.21449	-2.3042	-2.4458	-2.9229	-2.7604	-2.5771	-2.9375	-2.5979	-2.7438	-2.9333	-2.4271	-2.8896	-2.8021	-2.4562	-2.8812	-2.5125	-2.7438	310.494	92.179	84.533	252.436	108.361	327.019	5.245	126.044	227.125	243.818	285.336	26.586	37.620	108.537	0.057	223.506	0.00018658	0.00031781	5.3292e-05	509.16	3.0931e-06	2.6559e-06	813.98	125.07	1.7686e-06	1.669e-06	282.21	115.12	39.617	12.482	4.2407e-06	50.785	6.2819e-05	4.1243e-05	1.1522e-05	450.13	4.5773e-07	4.2865e-07	720.37	110.9	4.6089e-07	4.4627e-07	250.18	103.05	35.19	11.174	4.5445e-07	45.156	225.686	53.997	8.409	-12.292	104.229	107.783	-11.957	-9.040	138.537	107.550	-8.821	-3.567	-4.416	0.437	122.899	0.321	-8191	255	
2012.092	1	1	0	0	0.26382	0.31353	0.22147	0.16969	0.21902	0.15301	0.15643	0.15669	0.041737	0.043945	0.10885	0.3256	0.14248	0.21622	0.10432	0.17463	-2.275	-2.5729	-2.8521	-2.6083	-2.4667	-3.0521	-2.6583	-2.7708	-2.8937	-2.5521	-2.925	-2.7271	-2.45	-2.9958	-2.725	-2.7562	217.214	88.269	-2.318	35.511	23.791	117.669	199.419	274.612	84.948	79.913	327.354	263.654	56.578	189.117	264.578	56.615	0.00021962	0.00036466	0.00010292	506.57	3.0214e-06	3.7008e-06	820.79	124.37	3.2961e-06	1.792e-06	280.87	113.32	38.587	12.28	2.5984e-06	49.938	6.3876e-05	4.0309e-05	1.1451e-05	449.43	4.269e-07	4.5837e-07	724.59	110.65	4.3218e-07	4.209e-07	248.37	101.53	34.708	11.012	3.8783e-07	44.466	232.792	42.163	57.302	-12.268	112.092	94.926	-11.952	-8.016	167.939	136.647	-8.751	-4.063	-4.668	0.252	120.697	0.229	-8191	255	
2012.188	1	1	0	0	0.15751	0.17072	0.10794	0.23072	0.11873	0.40796	0.28633	0.15163	0.30134	0.085993	0.17209	0.31121	0.21395	0.073236	0.033891	0.24129	-2.5938	-2.4917	-2.7854	-2.8563	-2.6271	-2.8563	-2.5	-2.4313	-2.8833	-2.3958	-2.6854	-2.8937	-2.3917	-3.0104	-2.5729	-2.5979	43.168	15.292	168.770	325.350	96.624	275.001	283.003	79.155	-26.145	149.918	-15.656	264.376	40.985	89.897	73.894	291.642	0.00025638	0.00032274	2.6325e-05	506.04	2.5719e-06	2.3806e-06	805.39	123.28	1.9827e-06	1.0165e-06	278.44	112.99	38.676	12.365	3.4372e-06	50.373	6.3372e-05	4.0241e-05	1.1269e-05	450.04	4.2769e-07	3.8378e-07	716.64	109.99	4.3905e-07	3.8919e-07	246.48	101.29	34.535	11.024	4.1446e-07	44.569	233.965	60.126	33.755	-12.208	147.911	172.724	-11.961	-8.556	203.903	170.933	-8.782	-3.682	-4.730	0.106	137.205	0.333	-8191	255	
2012.307	1	1	0	0	0.075658	0.24251	0.14206	0.1828	0.043371	0.17192	0.2426	0.21233	0.079713	0.24277	0.24354	0.099453	0.36011	0.33248	0.083015	0.16131	-2.2896	-2.3792	-2.6688	-2.7	-2.4833	-2.8521	-2.6917	-2.4646	-2.7854	-2.3604	-2.8458	-2.9729	-2.4479	-2.8708	-2.7812	-2.5438	69.664	141.807	297.732	-15.972	273.988	268.469	184.616	-16.657	101.471	133.541	309.636	274.217	211.966	14.119	63.570	188.320	0.00023647	0.00027976	0.00011841	507.78	2.218e-06	3.2723e-06	811.16	126.14	1.3298e-06	1.4753e-06	280.7	114.96	39.352	12.346	2.8778e-06	50.08	6.1821e-05	3.7032e-05	1.1354e-05	452.16	4.4358e-07	4.3662e-07	721.77	111.85	4.8238e-07	4.2336e-07	250.04	102.65	35.21	11.073	4.2117e-07	44.547	229.749	68.193	49.597	-12.197	142.686	120.519	-11.845	-8.591	170.338	128.983	-8.564	-3.912	-4.582	0.475	78.924	0.336	-8191	255	
2012.403	1	1	0	0	0.21817	0.12423	0.23274	0.10599	0.22564	0.22269	0.23574	0.28955	0.18383	0.18566	0.070122	0.059221	0.19904	0.12241	0.22824	0.11576	-2.2271	-2.5312	-2.7208	-3.0062	-2.4188	-2.8354	-2.8854	-2.3979	-2.8958	-2.5229	-2.6667	-2.9	-2.3458	-2.5417	-2.7854	-2.4354	210.369	275.793	250.239	279.435	308.232	75.144	216.170	241.790	86.594	124.156	290.838	-17.632	31.338	197.660	246.905	319.346	0.00019754	0.0003678	8.5007e-05	508.3	3.6487e-06	1.7541e-06	818.52	126.64	6.4972e-07	2.8598e-06	287.27	116.17	40.379	12.615	1.2454e-06	50.678	6.4193e-05	4.2256e-05	1.1291e-05	452.83	4.2898e-07	4.3053e-07	726.6	112.98	4.6651e-07	4.1696e-07	253.54	104.16	36.21	11.291	4.4712e-07	44.977	228.369	70.909	39.902	-12.193	131.328	122.266	-11.901	-9.033	180.540	84.301	-8.331	-4.080	-4.950	0.556	142.131	0.037	-8191	255	
2012.500	1	1	0	0	0.25409	0.10631	0.052909	0.18242	0.024088	0.13608	0.24597	0.2675	0.28064	0.09913	0.11106	0.3301	0.1416	0.31348	0.13398	0.20351	-2.5354	-2.5458	-2.5375	-2.9625	-2.4458	-2.8063	-2.9125	-2.4688	-2.7521	-2.5687	-2.6146	-2.9792	-2.6646	-2.6021	-2.6667	-2.4354	247.920	294.923	100.883	177.595	65.679	24.170	257.299	221.120	197.169	187.594	313.229	9.424	138.744	309.807	302.092	4.389	0.00019116	0.00047089	7.3491e-05	512.5	5.2196e-06	3.1362e-06	812.67	126.5	2.0473e-06	3.2119e-06	282.71	114.91	39.48	12.46	3.9462e-06	49.287	6.4629e-05	4.3923e-05	1.1049e-05	455.33	4.6946e-07	4.7807e-07	724.35	112.72	4.476e-07	4.081e-07	249.79	102.56	35.44	11.064	4.4428e-07	44.088	216.699	56.273	72.645	-12.346	145.438	109.233	-11.906	-8.586	197.618	152.957	-9.095	-4.391	-4.814	-0.056	145.920	0.209	-8191	255	
2012.596	1	1	0	0	0.17366	0.30491	0.27141	0.18812	0.1025	0.11957	0.29329	0.19533	0.12664	0.043149	0.39822	0.18312	0.18835	0.013257	0.068455	0.19349	-2.45	-2.6146	-2.3896	-2.7521	-2.5604	-2.6167	-2.8854	-2.4021	-2.8979	-2.7333	-2.6708	-2.9208	-2.5792	-2.6729	-2.825	-2.5563	261.670	33.146	251.879	276.285	186.267	49.403	327.968	311.892	177.964	292.663	329.014	220.944	293.314	51.399	330.275	270.728	0.00026216	0.00020419	8.2938e-05	513.82	4.8688e-06	4.0044e-06	816.48	126.26	2.6096e-06	3.2531e-06	280.1	114.35	39.502	12.319	2.5777e-06	49.66	6.5081e-05	3.9099e-05	1.2067e-05	454.1	4.543e-07	4.3184e-07	723.2	112.18	4.9387e-07	4.093e-07	248.37	101.96	35.04	11.032	4.2639e-07	44.305	221.248	10.354	71.289	-12.151	152.454	106.477	-12.111	-8.775	169.445	164.823	-8.874	-3.967	-4.368	0.393	128.748	-0.169	-8191	255	
2012.716	1	1	0	0	0.23194	0.19646	0.049002	0.27687	0.19695	0.18549	0.010635	0.073564	0.20595	0.088334	0.1512	0.1906	0.10852	0.16912	0.027703	0.16333	-2.4604	-2.7479	-2.3812	-2.7833	-2.6958	-2.5375	-3.0125	-2.5146	-2.7062	-2.7896	-2.5375	-2.9125	-2.5083	-2.6229	-2.925	-2.4875	278.758	0.409	322.182	247.964	-2.593	184.049	190.049	256.691	17.488	65.753	146.100	283.248	296.703	31.963	185.771	137.186	0.00020474	0.00035066	0.00012169	509.05	2.6054e-06	1.5896e-06	821.32	127.62	2.7509e-06	3.2952e-06	283.36	115.6	39.996	12.388	4.0411e-06	49.714	6.3429e-05	3.8252e-05	1.0744e-05	453.42	4.4543e-07	4.4766e-07	726.41	113.05	4.6933e-07	4.2039e-07	250.59	103.05	35.443	11.044	4.3474e-07	44.361	234.178	19.032	82.472	-12.214	139.719	103.638	-12.014	-8.614	117.719	88.195	-8.898	-4.124	-4.499	0.957	143.721	-0.316	-8191	255	
2012.788	1	1	0	0	0.30889	0.11122	0.10389	0.12842	0.3141	0.055941	0.1727	0.11269	0.17711	0.1252	0.23719	0.32662	0.057401	0.045771	0.077597	0.29736	-2.4	-2.8375	-2.3542	-3.0021	-2.7188	-2.5854	-2.9708	-2.4042	-2.7542	-2.7479	-2.525	-3.1083	-2.75	-2.4792	-3.0979	-2.5854	220.438	-22.282	104.802	271.208	46.520	17.441	279.665	186.022	118.180	263.530	162.556	317.453	114.158	-5.926	139.169	202.218	0.00023475	0.00022239	8.4575e-05	514.66	5.4684e-06	4.2378e-06	820.3	127.94	2.1236e-06	1.8021e-06	284.55	116.5	40.22	12.425	2.6007e-06	49.695	6.57e-05	3.9171e-05	1.0351e-05	456.76	4.4201e-07	4.3565e-07	730.66	114.05	4.8193e-07	4.0667e-07	252.74	104.01	35.999	11.124	4.2452e-07	44.297	227.010	102.818	66.097	-12.347	102.117	124.199	-11.664	-8.179	131.696	157.621	-9.113	-3.777	-4.401	-0.134	157.835	0.299	-8191	255	
2012.884	1	1	0	0	0.22444	0.27282	0.056743	0.067761	0.15187	0.046816	0.20479	0.17515	0.12861	0.10481	0.36282	0.23872	0.12192	0.12132	0.16159	0.056567	-2.0229	-2.9208	-2.5062	-3.0375	-2.7208	-2.6229	-3.0146	-2.7188	-2.6229	-3.0604	-2.3917	-2.7917	-2.6833	-2.3625	-2.9208	-2.7125	307.826	320.337	108.932	-21.405	68.078	181.527	315.726	317.126	86.582	39.527	290.223	297.054	2.526	291.581	69.215	126.224	0.00021045	0.00024952	8.5882e-05	517.71	1.9278e-06	3.777e-06	816.15	129.56	1.858e-06	5.0182e-06	285.46	117.62	41.181	12.482	4.9035e-06	49.46	6.6483e-05	4.0916e-05	1.0896e-05	458.64	4.4178e-07	4.3508e-07	727.47	114.57	4.8773e-07	4.6546e-07	251.84	104.55	36.673	11.177	4.9097e-07	44.18	226.725	38.466	66.607	-11.962	115.281	139.861	-12.013	-8.552	146.803	132.238	-8.681	-4.163	-4.994	0.121	111.191	0.213	-8191	255	
2012.980	1	1	0	0	0.23508	0.095469	0.066215	0.088801	0.063037	0.15271	0.1283	0.15647	0.22488	0.2106	0.11634	0.25669	0.11563	0.27024	0.27066	0.23541	-2.1479	-2.7646	-2.5021	-2.5938	-2.7729	-2.5479	-2.9313	-2.6854	-2.4854	-3.0146	-2.5208	-2.8417	-2.8625	-2.4375	-2.8583	-2.6896	122.422	166.354	1.635	132.673	-6.160	291.651	32.431	199.850	302.112	58.273	306.917	-19.398	-10.955	-12.848	193.356	224.165	0.00021765	0.00018166	4.6647e-05	514.43	5.6939e-06	2.5101e-06	827	128.98	2.8082e-06	3.2571e-06	285.81	117.48	41.629	12.847	1.4537e-06	50.103	6.5618e-05	4.0413e-05	1.0776e-05	457.18	4.8961e-07	4.3383e-07	730.91	115.11	4.8745e-07	4.6386e-07	253.58	104.98	37.173	11.354	4.766e-07	44.673	226.528	53.236	49.771	-12.229	145.563	131.777	-12.401	-8.921	152.241	163.712	-8.786	-3.699	-4.498	-0.016	123.562	0.124	-8191	255	
2013.099	1	1	0	0	0.10173	0.21922	0.08954	0.40803	0.12638	0.10737	0.23604	0.26139	0.20814	0.29468	0.18762	0.40212	0.19418	0.068582	0.17154	0.38409	-2.0583	-2.8312	-2.6104	-2.6604	-2.8083	-2.5187	-2.7792	-2.6604	-2.3312	-2.9979	-2.5187	-2.7417	-2.8083	-2.35	-2.7729	-2.7375	88.885	135.412	158.976	293.385	154.129	179.834	305.149	284.790	12.878	136.615	227.159	212.632	154.583	159.503	-0.155	290.505	0.00022776	0.00027184	0.00010103	517.01	2.6834e-06	2.9937e-06	824.46	128.88	2.0484e-06	2.7024e-06	287.19	117.33	40.915	12.795	2.8164e-06	50.136	6.5234e-05	4.3201e-05	1.0936e-05	460.12	4.7412e-07	4.4618e-07	733.63	115.19	4.7794e-07	4.225e-07	254.3	104.72	36.618	11.336	4.8302e-07	44.612	232.351	45.634	44.605	-12.621	121.291	96.590	-11.437	-8.584	142.342	127.199	-8.812	-4.198	-5.243	-0.067	132.662	0.124	-8191	255	
2013.195	1	1	0	0	0.21872	0.073915	0.079808	0.040667	0.033215	0.16016	0.21379	0.14029	0.11145	0.18686	0.16675	0.33922	0.32721	0.03773	0.2078	0.27497	-2.1708	-2.8271	-2.5083	-2.5604	-2.7229	-2.5771	-2.5708	-2.7229	-2.4458	-2.8333	-2.7	-2.4708	-2.8875	-2.4229	-2.5979	-2.8333	295.745	17.718	19.377	270.495	295.662	172.323	17.250	11.690	292.429	203.329	20.505	283.486	-16.355	123.304	331.541	331.613	0.00021067	0.00030929	8.0064e-05	514.68	5.5242e-06	4.9187e-06	823.93	128.36	8.6156e-07	1.8543e-06	281.41	116.65	40.365	12.434	9.2043e-07	49.437	6.6799e-05	4.2111e-05	1.2281e-05	457.66	4.8361e-07	4.365e-07	729.17	114.11	4.516e-07	4.4444e-07	250.27	103.83	36.064	11.164	4.904e-07	44.097	221.625	68.624	66.594	-12.700	147.406	126.766	-12.146	-8.403	166.944	120.988	-8.723	-4.194	-4.858	0.484	115.603	-0.434	-8191	255	
2013.292	1	1	0	0	0.25206	0.19596	0.16316	0.2147	0.28332	0.17096	0.1814	0.25961	0.31034	0.15349	0.13179	0.20066	0.127	0.052402	0.18928	0.30391	-2.0208	-2.7438	-2.6396	-2.4562	-2.9125	-2.3792	-2.8063	-2.8979	-2.4458	-2.7771	-2.8292	-2.5604	-3.025	-2.6063	-2.7125	-2.9437	158.832	262.475	97.163	276.138	153.496	325.911	244.650	223.793	-13.524	170.800	291.824	-23.120	244.419	323.321	196.348	250.291	0.00019185	0.00029756	7.6175e-05	510.35	5.5192e-06	2.5569e-06	827.01	127.25	2.8513e-06	3.8296e-06	284.08	117.49	41.155	12.515	2.2261e-06	49.722	6.426e-05	4.1898e-05	1.1421e-05	454.65	4.7215e-07	4.3337e-07	729.45	113.79	4.4473e-07	4.0982e-07	251.96	104.56	36.57	11.258	4.2963e-07	44.295	232.837	80.091	58.153	-12.255	125.314	111.441	-11.825	-8.478	194.205	115.876	-9.010	-3.833	-4.684	-0.094	107.523	0.318	-8191	255	
2013.388	1	1	0	0	0.20177	0.21872	0.21071	0.34567	0.13135	0.15887	0.11482	0.10848	0.16193	0.06108	0.21378	0.29842	0.26213	0.24652	0.37918	0.2852	-1.95	-2.8042	-2.8271	-2.4479	-2.7542	-2.3917	-2.7812	-2.8625	-2.5708	-2.8646	-2.8729	-2.6604	-2.7958	-2.5583	-2.5792	-2.9708	137.998	272.867	239.507	315.746	168.971	178.439	162.929	308.711	215.976	220.506	272.306	320.837	54.592	291.375	304.650	256.311	0.00023916	0.00015995	8.2521e-05	516.03	2.6204e-06	4.087e-06	822.46	129.48	2.3134e-06	2.5231e-06	288.46	117.58	41.374	12.545	2.3191e-06	49.773	6.2901e-05	4.0413e-05	1.1325e-05	457.1	4.2398e-07	3.9392e-07	730.37	114.85	4.5312e-07	4.5667e-07	254.58	104.95	36.732	11.202	4.7098e-07	44.413	224.418	61.176	23.157	-12.394	151.494	106.950	-11.957	-8.295	146.880	169.459	-9.111	-3.792	-4.649	-0.146	71.468	0.388	-8191	255	
2013.484	1	1	0	0	0.15722	0.3017	0.12314	0.096706	0.2626	0.21817	0.097774	0.16197	0.2843	0.18847	0.36232	0.33977	0.069763	0.1229	0.12954	0.22304	-1.9125	-2.6417	-2.6854	-2.3187	-2.9375	-2.5208	-2.6458	-2.9146	-2.4313	-2.7333	-2.925	-2.5667	-2.7875	-2.6958	-2.5667	-3.05	316.824	138.760	313.134	-7.723	302.246	58.115	220.535	254.825	176.955	201.224	287.647	-19.106	1.504	112.338	159.862	265.978	0.00021055	0.00024424	0.00010256	516.73	5.169e-06	1.7832e-06	827.51	129	2.34e-06	4.7065e-06	284.81	117.37	40.54	12.486	2.5875e-06	49.259	6.2819e-05	4.2614e-05	1.1213e-05	460.7	4.9242e-07	4.2415e-07	732.03	114.33	4.319e-07	4.2981e-07	252.61	104.17	36.272	11.145	4.3934e-07	44.006	244.482	78.775	38.047	-12.454	149.765	91.436	-11.878	-8.227	195.683	118.590	-8.985	-4.288	-4.866	-0.274	130.890	0.141	-8191	255	
2013.580	1	1	0	0	0.060329	0.20353	0.060398	0.071945	0.1565	0.055652	0.052658	0.39268	0.077741	0.36716	0.07666	0.033938	0.13618	0.13571	0.25133	0.046939	-2	-2.7333	-2.7667	-2.4938	-2.7313	-2.8375	-2.6104	-2.8292	-2.4896	-2.6937	-3.0792	-2.4229	-2.7833	-2.7458	-2.4646	-2.9417	230.254	199.849	130.047	112.352	116.020	45.086	297.007	309.416	166.280	45.063	-13.528	299.103	235.406	215.432	72.218	220.689	0.00022208	0.00032292	5.1112e-05	513.44	3.802e-06	2.7508e-06	818.58	127.03	3.7473e-06	3.4086e-06	282.49	115.77	40.612	12.45	2.0822e-06	49.443	6.4423e-05	4.2843e-05	1.1198e-05	455.39	4.6323e-07	4.2506e-07	727.2	113.14	4.5937e-07	4.3021e-07	250.15	103.36	36.109	11.101	4.1276e-07	43.871	221.110	86.970	15.370	-12.721	130.494	121.975	-11.847	-8.202	156.517	132.786	-8.760	-4.404	-5.064	0.213	117.572	0.409	-8191	255	
2013.676	1	1	0	0	0.1549	0.26528	0.21254	0.18199	0.18442	0.14725	0.094284	0.2375	0.3257	0.10598	0.16471	0.20774	0.24914	0.28427	0.037426	0.16037	-1.9729	-2.5104	-2.8729	-2.4896	-2.8354	-2.7	-2.5417	-2.8917	-2.5979	-2.5062	-2.875	-2.3708	-2.7729	-2.4708	-2.3979	-2.8667	24.328	175.309	49.324	133.267	230.939	328.575	16.147	-24.223	12.897	316.865	147.522	291.266	49.304	270.882	152.311	316.276	0.0002529	0.0001996	0.00011579	517.23	4.433e-06	8.4543e-07	814.88	126.55	2.3639e-06	2.1988e-06	281.35	115.91	39.908	12.276	3.4851e-06	48.624	6.5393e-05	3.6575e-05	1.1158e-05	456.42	4.5402e-07	4.0622e-07	726.27	112.82	4.1322e-07	3.9879e-07	250.05	102.65	35.688	10.954	4.0941e-07	43.444	222.034	24.731	49.164	-12.537	133.081	150.425	-11.550	-8.833	141.890	131.015	-8.735	-3.987	-4.531	-0.034	123.725	0.078	-8191	255	
2013.797	1	1	0	0	0.23582	0.20972	0.076342	0.13776	0.19052	0.0095714	0.21825	0.11839	0.053461	0.24518	0.16825	0.23819	0.2064	0.15126	0.063423	0.2222	-2.2146	-2.4958	-2.8229	-2.4146	-2.7333	-2.9104	-2.4354	-2.8229	-2.5646	-2.5521	-2.8604	-2.5604	-2.8333	-2.8354	-2.2979	-2.7479	91.626	68.751	78.068	253.574	149.030	217.626	261.500	2.843	36.352	204.844	133.178	-23.930	265.912	222.257	68.337	285.789	0.00020564	0.00036228	0.00010154	512.02	1.9393e-06	1.7663e-06	814.4	126.84	2.3955e-06	3.1591e-06	280.48	114.27	39.778	11.97	3.5411e-06	48.186	6.2032e-05	4.0163e-05	9.8525e-06	453.64	4.3443e-07	4.3548e-07	726.99	112.67	4.3933e-07	4.1033e-07	248.35	101.85	35.54	10.745	4.0782e-07	42.908	230.672	33.936	59.063	-12.359	159.206	94.123	-12.091	-8.440	200.320	138.246	-8.801	-4.247	-4.182	0.462	110.269	-0.000	-8191	255	
2013.893	1	1	0	0	0.17837	0.095999	0.027924	0.21352	0.20829	0.049189	0.31704	0.21853	0.13047	0.085197	0.11066	0.1558	0.24238	0.11174	0.013243	0.21835	-2.2625	-2.4271	-2.7604	-2.4833	-2.4417	-2.8396	-2.4938	-2.7375	-2.5771	-2.2812	-2.9813	-2.6896	-2.5833	-2.7875	-2.3312	-2.7313	204.804	57.676	210.565	6.672	197.557	37.502	30.594	17.854	286.514	134.224	195.337	126.740	48.303	185.796	227.696	4.861	0.00021427	0.00039535	7.6317e-05	505.99	4.5059e-06	2.8997e-06	814.34	123	2.7421e-06	2.7904e-06	273.2	111.68	38.824	11.658	2.0797e-06	47.374	5.8513e-05	3.7608e-05	1.0231e-05	451.25	4.3493e-07	3.6147e-07	720.77	109.8	3.8795e-07	3.7737e-07	242.1	99.241	34.616	10.478	3.8146e-07	42.065	232.866	12.837	47.244	-12.223	170.375	144.475	-11.593	-8.591	146.057	156.654	-9.249	-4.082	-4.963	0.760	126.667	0.190	-8191	255	
2013.989	1	1	0	0	0.20226	0.052088	0.13007	0.1131	0.11601	0.052636	0.3276	0.19027	0.23669	0.20059	0.16267	0.26442	0.14	0.24866	0.18855	0.11854	-2.2875	-2.4479	-2.6125	-2.6417	-2.5771	-2.8229	-2.6167	-2.8271	-2.6479	-2.3833	-2.95	-2.5938	-2.4854	-2.7583	-2.4813	-2.775	80.627	-17.028	110.677	13.689	123.691	97.269	293.889	57.834	228.472	115.384	265.311	280.620	34.835	27.548	119.436	151.816	0.00023457	0.00041836	9.8813e-05	509.07	3.1736e-06	2.1714e-06	813.18	122.98	2.1829e-06	3.0967e-06	274.23	111.09	38.816	11.739	4.1472e-06	47.261	5.9008e-05	3.308e-05	1.0926e-05	451.27	4.3005e-07	3.8088e-07	716.89	109.9	3.9211e-07	3.524e-07	243.06	99.128	34.563	10.472	3.914e-07	42.116	229.132	100.627	58.531	-12.055	134.241	88.354	-11.678	-8.943	165.651	125.683	-9.176	-4.123	-4.678	0.191	143.994	0.329	-8191	255	
2014.085	1	1	0	0	0.09811	0.029073	0.13284	0.087517	0.27309	0.14283	0.43428	0.07899	0.24443	0.10681	0.079317	0.041103	0.053022	0.18006	0.3466	0.34192	-2.3667	-2.3042	-2.7479	-2.5125	-2.4667	-2.8521	-2.3604	-2.7938	-2.8729	-2.5812	-2.6271	-2.625	-2.4479	-2.7396	-2.5312	-2.6521	84.155	0.314	173.262	265.482	303.518	90.832	-20.928	5.034	266.366	90.578	70.118	259.878	87.787	187.851	85.559	275.690	0.00023516	0.0003024	3.3163e-05	506.12	2.1421e-06	2.3982e-06	809.58	123.52	2.2342e-06	2.7434e-06	276.2	111.3	38.848	11.724	1.3959e-06	47.656	6.0803e-05	3.3501e-05	9.7672e-06	449.65	3.7508e-07	3.5065e-07	718.32	110	4.0168e-07	3.7497e-07	244.08	98.975	34.648	10.422	3.8016e-07	42.198	223.345	77.503	45.357	-12.310	155.413	155.699	-12.119	-8.562	137.236	155.816	-8.802	-4.497	-5.214	0.112	118.337	0.316	-8191	255	
2014.180	1	1	0	0	0.10055	0.19555	0.10008	0.2231	0.061102	0.16956	0.15755	0.46123	0.22986	0.059289	0.22707	0.10953	0.13766	0.3552	0.15749	0.20712	-2.4188	-2.2292	-2.6333	-2.6063	-2.4375	-2.9688	-2.6667	-2.3875	-2.8438	-2.3042	-2.7521	-2.6354	-2.3979	-2.8542	-2.7313	-2.4771	31.177	96.805	254.886	32.647	58.395	-24.141	310.925	147.795	37.676	-18.311	50.380	-8.889	300.265	312.603	-26.236	308.401	0.00022287	0.00018276	7.9499e-05	506.65	3.2002e-06	1.5927e-06	810.71	124.05	1.932e-06	2.4195e-06	275.5	111.24	38.42	11.661	3.7553e-06	46.878	6.0093e-05	3.3256e-05	1.0185e-05	449.49	4.1029e-07	3.7912e-07	718.66	110.58	3.8204e-07	3.7839e-07	243.37	99.086	34.495	10.429	4.0015e-07	41.879	224.758	-1.271	88.231	-12.693	132.819	108.505	-12.142	-8.711	152.931	153.732	-8.807	-3.579	-4.904	-0.023	127.223	0.281	-8191	255	
2014.277	1	1	0	0	0.27482	0.28466	0.12612	0.13012	0.30759	0.12102	0.027468	0.25956	0.25019	0.22936	0.16349	0.22881	0.059414	0.17495	0.13009	0.19526	-2.4229	-2.2854	-2.5229	-2.8479	-2.5083	-2.6729	-2.7417	-2.5354	-3.0521	-2.4146	-2.6875	-2.7958	-2.5	-2.7208	-2.5375	-2.3875	192.906	325.332	321.751	9.982	-11.605	101.625	14.634	-10.184	171.750	89.430	11.583	219.509	220.702	143.699	35.263	228.972	0.0001939	0.00027197	7.9516e-05	502.94	2.9139e-06	9.9623e-07	808.22	123.65	5.3299e-07	4.293e-06	277.07	112.11	39.684	11.912	3.5089e-06	47.303	5.8988e-05	3.4669e-05	1.0371e-05	447.65	4.072e-07	3.8134e-07	716.9	109.62	4.3123e-07	4.1125e-07	244.39	100.13	35.112	10.594	4.0413e-07	42.131	229.557	84.223	60.498	-12.382	124.368	162.691	-11.842	-8.995	141.464	140.536	-8.802	-4.033	-5.147	-0.479	118.528	-0.135	-8191	255	
2014.396	1	1	0	0	0.25205	0.13979	0.18851	0.16429	0.20075	0.25233	0.11805	0.16943	0.05942	0.23955	0.076375	0.21671	0.31294	0.087537	0.084992	0.37137	-2.3333	-2.3917	-2.6083	-2.8688	-2.3375	-2.7562	-2.7729	-2.4688	-2.5729	-2.7083	-2.4062	-2.8458	-2.35	-2.6729	-2.6312	-2.6104	207.515	59.247	47.067	-5.045	31.551	245.192	302.403	252.214	-22.694	142.447	272.515	321.815	190.302	91.312	91.349	310.942	0.00021988	0.00028545	7.8363e-05	509.13	2.2654e-06	1.8572e-06	813.4	123.75	1.2589e-06	1.8032e-06	278.3	113.25	40.218	12.027	1.9615e-06	47.66	6.0217e-05	3.6689e-05	1.0165e-05	451.31	4.2286e-07	4.1242e-07	721.85	110.24	4.5469e-07	4.0616e-07	246.93	101.56	35.846	10.8	4.2673e-07	42.508	227.805	21.903	45.494	-12.017	152.709	131.699	-11.490	-8.371	191.293	140.506	-8.938	-4.430	-4.492	0.214	98.495	0.294	-8191	255	
2014.493	1	1	0	0	0.31442	0.24922	0.13522	0.022669	0.18744	0.10796	0.12934	0.16015	0.1479	0.069142	0.41877	0.17434	0.28765	0.047996	0.21269	0.034559	-2.0708	-2.5333	-2.4833	-2.8812	-2.5146	-2.7229	-2.8917	-2.4604	-2.8563	-2.5854	-2.7021	-2.8812	-2.4208	-2.6708	-2.6042	-2.4208	237.254	168.269	106.210	147.763	118.853	278.293	286.243	314.444	140.815	271.384	5.875	-20.307	96.579	300.637	271.122	83.686	0.00022403	0.00014553	4.5481e-05	506.65	2.1338e-06	2.7398e-06	818.64	126.4	3.0922e-06	2.5659e-06	285.01	115.78	41.02	12.188	2.0014e-06	48.136	6.1782e-05	3.5412e-05	1.0253e-05	451.3	4.5475e-07	4.3013e-07	725.25	112.53	4.27e-07	4.2844e-07	250.97	103.37	36.423	10.853	4.1617e-07	42.943	233.043	54.019	10.081	-12.147	124.734	90.001	-12.095	-8.185	174.382	112.845	-8.843	-4.040	-5.058	0.587	132.631	-0.000	-8191	255	
2014.589	1	1	0	0	0.22066	0.1333	0.32367	0.10091	0.087167	0.1291	0.17782	0.25017	0.22592	0.053908	0.22349	0.23206	0.26154	0.15773	0.067344	0.16138	-2.25	-2.6063	-2.5417	-2.975	-2.4146	-2.7604	-2.9562	-2.4938	-2.9062	-2.5458	-2.5104	-2.9833	-2.6521	-2.6354	-2.7938	-2.4833	256.021	145.183	255.979	21.553	39.066	252.580	296.360	288.109	259.782	319.049	78.932	42.932	289.533	3.120	165.063	176.746	0.00020109	0.00037939	5.4671e-05	512.2	4.5413e-06	4.6848e-06	822.55	125.08	2.6924e-06	1.9994e-06	279.81	114.46	40.236	12.097	3.5767e-06	47.815	6.2973e-05	3.9483e-05	9.9898e-06	454.07	4.5239e-07	4.406e-07	725.62	111.57	4.6134e-07	4.6775e-07	247.77	102.18	35.97	10.793	4.2156e-07	42.667	227.524	44.089	65.232	-12.071	134.621	130.125	-12.152	-8.825	159.369	151.008	-8.887	-4.144	-5.216	0.138	141.237	0.137	-8191	255	
2014.660	1	1	0	0	0.16975	0.21017	0.24148	0.11683	0.18195	0.2783	0.062129	0.23549	0.2326	0.021337	0.12254	0.21935	0.12357	0.041174	0.14314	0.18776	-2.2458	-2.7917	-2.2938	-2.8958	-2.4771	-2.6229	-2.9417	-2.45	-2.8458	-2.9021	-2.3583	-2.9958	-2.6146	-2.55	-2.8583	-2.5604	148.469	142.316	38.254	305.335	213.612	97.932	282.631	-9.361	322.788	5.798	199.330	36.690	22.050	61.292	138.156	52.875	0.00014637	0.0002772	5.9525e-05	505.16	2.54e-06	3.6154e-06	823.94	126.38	2.4548e-06	2.6136e-06	283.05	116.93	41.001	12.309	2.3923e-06	48.537	6.2407e-05	3.6653e-05	1.0993e-05	451.52	4.4442e-07	4.131e-07	730.23	112.56	4.6105e-07	4.4541e-07	251.24	103.8	36.466	10.992	4.3917e-07	43.173	232.100	78.283	104.594	-12.310	108.451	109.774	-11.853	-8.355	157.216	119.720	-8.686	-4.313	-4.762	0.336	176.322	0.060	-8191	255	
2014.781	1	1	0	0	0.066124	0.063888	0.13412	0.18918	0.21729	0.070379	0.10444	0.2441	0.01167	0.15172	0.16813	0.17105	0.092154	0.15095	0.1269	0.25594	-2.3104	-2.7417	-2.4979	-2.8563	-2.5979	-2.4146	-3.1063	-2.6229	-2.7479	-2.625	-2.4521	-2.9333	-2.7792	-2.5604	-2.8375	-2.5646	132.153	40.464	332.135	257.288	306.637	71.643	121.572	249.642	230.907	198.395	46.036	249.545	279.846	282.616	143.175	229.072	0.00022074	0.00036333	7.9503e-05	513.95	2.216e-06	1.5845e-06	821.82	126.84	1.7597e-06	3.7e-06	284.21	116.71	41.238	12.119	2.221e-06	48.349	6.3895e-05	4.1077e-05	1.1223e-05	454.64	4.5475e-07	4.4174e-07	728.96	112.78	4.9449e-07	4.3758e-07	252.04	103.99	36.698	10.938	4.6166e-07	43.086	236.026	44.524	96.205	-12.288	140.705	73.614	-11.949	-8.173	133.537	117.672	-8.727	-4.125	-4.436	0.335	68.898	0.182	-8191	255	
2014.877	1	1	0	0	0.1376	0.18273	0.24688	0.2117	0.17443	0.07464	0.37469	0.097233	0.029111	0.12461	0.22574	0.32204	0.27957	0.22423	0.049175	0.041967	-2.2625	-2.7771	-2.4583	-2.7625	-2.65	-2.5771	-2.8646	-2.6104	-2.5583	-2.9042	-2.5979	-2.8542	-2.7667	-2.4958	-2.8771	-2.6292	65.891	-18.899	255.487	268.973	64.460	175.780	247.049	282.574	122.445	308.612	315.205	327.804	54.972	252.140	157.037	112.926	0.00021423	0.00023477	4.3127e-05	518.98	3.0754e-06	2.5704e-06	833.13	127.64	3.6926e-06	3.1166e-06	283.79	115.68	41.06	12.259	4.2749e-06	48.261	6.4519e-05	4.3788e-05	1.1376e-05	458.12	4.4279e-07	4.295e-07	735.21	113.34	4.9533e-07	4.429e-07	251.85	103.51	36.706	10.984	5.0784e-07	42.809	232.230	36.143	90.215	-12.128	155.313	128.264	-12.191	-7.874	149.434	95.863	-9.164	-3.908	-5.011	-0.221	137.274	0.090	-8191	255	
2014.973	1	1	0	0	0.09162	0.15113	0.18265	0.16244	0.30162	0.078799	0.14762	0.11819	0.090607	0.10642	0.23018	0.13282	0.11685	0.17644	0.14186	0.25872	-2.2458	-2.7875	-2.3042	-2.8021	-2.4958	-2.4479	-2.8521	-2.775	-2.5729	-3.0125	-2.3521	-2.7771	-2.7917	-2.5854	-2.9083	-2.7479	302.852	257.961	329.419	277.736	195.526	148.480	311.812	147.286	215.430	236.351	306.577	294.027	92.191	190.912	306.712	266.719	0.00020835	0.00020588	8.0673e-05	513.29	4.1337e-06	4.0286e-06	820.03	125.53	2.0729e-06	3.5411e-06	282.56	116.28	40.524	12.263	3.7704e-06	48.286	6.2925e-05	3.9296e-05	1.2062e-05	455.39	4.5486e-07	4.4123e-07	727.24	111.79	4.7912e-07	4.5204e-07	249.59	103.18	36.245	10.934	5.3613e-07	42.933	232.406	55.065	87.114	-12.421	121.883	77.748	-11.593	-8.621	160.607	149.078	-8.681	-4.199	-4.769	-0.172	129.096	0.066	-8191	255	
2015.069	1	1	0	0	0.063633	0.069718	0.1574	0.038903	0.13709	0.19485	0.1553	0.22969	0.080299	0.26158	0.19415	0.096286	0.14544	0.35888	0.37646	0.10304	-2.2687	-3.0083	-2.4167	-2.7521	-2.8146	-2.5812	-3.0542	-2.9875	-2.4583	-3.1104	-2.5812	-2.8521	-2.8708	-2.5521	-2.8542	-2.7583	206.103	222.133	105.334	259.714	11.092	284.307	261.882	5.130	14.674	274.481	266.014	24.481	105.035	-8.404	144.457	-15.660	0.0002474	0.00048574	7.3521e-05	518.13	4.1213e-06	2.1847e-06	822.16	127.3	2.9635e-06	1.3093e-06	284.55	116.32	41.314	12.337	3.1188e-06	48.494	6.3458e-05	4.5315e-05	1.1473e-05	458.63	4.6738e-07	4.5899e-07	731.66	113.09	4.8295e-07	4.7346e-07	251.88	103.66	36.631	10.991	4.8756e-07	43.121	230.295	23.689	21.271	-12.153	99.693	134.004	-11.991	-8.327	191.130	97.612	-8.729	-4.426	-5.464	0.004	112.206	0.256	-8191	255	
2015.188	1	1	0	0	0.20857	0.14579	0.26491	0.14264	0.092822	0.062148	0.42053	0.079378	0.17425	0.10583	0.19337	0.19682	0.047086	0.25238	0.21407	0.18585	-1.8563	-2.9688	-2.6229	-2.8312	-2.6813	-2.6604	-2.8333	-2.7188	-2.4167	-2.8021	-2.7521	-2.6125	-2.9208	-2.6125	-2.5646	-2.8583	260.454	307.628	188.868	270.070	-3.417	327.048	252.072	64.905	226.908	50.313	231.545	308.202	76.560	218.752	203.199	-5.814	0.00022536	0.00021425	6.245e-05	514.22	4.2032e-06	3.3197e-06	824.91	127.9	1.9686e-06	3.4205e-06	289.76	118.47	41.79	12.45	1.2619e-06	48.335	6.6262e-05	4.612e-05	1.2367e-05	457.67	4.9618e-07	4.4208e-07	735.51	114.47	4.6758e-07	5.026e-07	256.25	104.99	37.199	11.107	4.8864e-07	43.131	233.210	44.536	38.600	-12.327	127.494	118.316	-11.955	-7.748	162.751	133.654	-8.727	-4.099	-4.651	-0.045	81.538	-0.217	-8191	255	
2015.260	1	1	0	0	0.31726	0.33121	0.064287	0.17425	0.099178	0.22089	0.11906	0.36627	0.29203	0.072738	0.2148	0.14706	0.11142	0.14376	0.16076	0.28189	-1.9458	-2.7417	-2.6229	-2.5604	-2.8417	-2.3563	-2.7458	-2.875	-2.3646	-2.9208	-2.6146	-2.3479	-2.9958	-2.4833	-2.6958	-3.1021	275.575	316.586	283.199	216.962	214.111	115.572	299.613	296.743	319.660	115.855	233.788	-19.333	7.559	20.097	1.666	9.376	0.00020746	0.00030096	4.3503e-05	523.16	3.8237e-06	3.5127e-06	827.17	127.13	2.3931e-06	2.3863e-06	282.32	117.23	41.905	12.416	3.4275e-06	48.197	6.9517e-05	4.4967e-05	1.2645e-05	461.26	5.1948e-07	4.7391e-07	732.9	113.79	5.4587e-07	4.9763e-07	252.19	104.63	37.439	11.041	5.5158e-07	42.853	221.466	11.077	73.430	-12.308	137.071	103.330	-11.452	-8.496	170.113	125.160	-8.935	-4.340	-5.238	-0.235	137.214	0.047	-8191	255	
2015.358	1	1	0	0	0.19525	0.18461	0.22165	0.2092	0.23808	0.1678	0.086447	0.090359	0.026136	0.19476	0.17064	0.11089	0.207	0.050282	0.25118	0.31018	-1.8813	-2.8083	-2.7917	-2.5646	-2.7583	-2.5083	-2.75	-2.9104	-2.2854	-2.8125	-2.9417	-2.5458	-2.9292	-2.5708	-2.7167	-2.9604	-26.652	122.745	287.833	300.685	243.595	257.250	273.417	224.770	125.183	125.160	-8.283	298.462	225.255	109.220	-7.390	273.643	0.00020471	0.00027419	9.3677e-05	520.01	1.8246e-06	2.0214e-06	829.32	128.74	2.3894e-06	3.2699e-06	285.35	117.68	42.403	12.321	1.9233e-06	48.331	7.0299e-05	5.1115e-05	1.3328e-05	461.8	5.4778e-07	5.0562e-07	735.03	114.49	5.2685e-07	5.3054e-07	253.61	105.25	37.669	11.107	5.5237e-07	42.883	227.447	18.375	44.798	-12.027	173.204	104.967	-11.743	-8.917	144.907	128.777	-8.918	-4.091	-4.362	0.348	120.340	0.228	-8191	255	
2015.477	1	1	0	0	0.10678	0.14799	0.065021	0.10849	0.18928	0.23038	0.07534	0.23948	0.092682	0.14323	0.37993	0.21788	0.11489	0.099614	0.034679	0.23658	-2.0312	-2.7771	-2.7458	-2.55	-2.8625	-2.6125	-2.5771	-2.8104	-2.5	-2.8125	-2.725	-2.5458	-2.9146	-2.7	-2.6042	-2.9896	102.878	271.015	229.587	54.629	252.509	-21.841	280.613	5.071	9.319	88.349	27.338	202.786	28.857	271.322	211.804	269.350	0.00021419	0.00049977	8.9364e-05	519.22	2.0721e-06	5.0882e-06	834.2	130.58	1.2603e-06	4.9599e-06	289.17	118.95	42.272	12.308	3.4502e-06	47.995	7.029e-05	5.3889e-05	1.382e-05	461.77	5.8056e-07	5.0995e-07	739.07	115.87	5.7553e-07	5.4459e-07	256.13	105.95	37.775	11.103	5.6044e-07	43.032	220.621	50.206	37.856	-12.423	152.519	118.521	-11.806	-8.541	218.318	129.108	-9.342	-4.638	-5.391	-0.172	144.502	-0.174	-8191	255	
2015.573	1	1	0	0	0.043352	0.17411	0.19203	0.26288	0.062817	0.17155	0.064898	0.31505	0.23502	0.028925	0.18988	0.22953	0.16214	0.26034	0.080849	0.25032	-1.9	-2.6562	-2.7708	-2.5375	-2.9146	-2.6542	-2.5125	-2.925	-2.6271	-2.8479	-2.8208	-2.6083	-2.725	-2.8729	-2.5687	-2.8917	160.381	183.389	4.609	312.693	-1.629	20.965	2.753	-10.685	167.576	-1.431	274.469	253.304	324.545	135.843	278.290	228.121	0.00020472	0.00042092	5.2584e-05	517.26	2.1061e-06	4.4372e-06	831.56	130.16	2.8638e-06	3.9641e-06	290.93	119	42.498	12.468	3.3522e-06	47.974	7.2479e-05	5.2611e-05	1.3904e-05	463.07	5.5485e-07	5.2828e-07	739.83	115.79	5.8521e-07	5.6539e-07	256.62	105.98	38.197	11.186	5.7248e-07	42.647	222.037	-1.670	54.047	-12.071	138.098	115.168	-12.183	-8.355	153.726	141.528	-8.806	-4.357	-5.130	0.366	131.146	0.062	-8191	255	
2015.669	1	1	0	0	0.091554	0.32814	0.21987	0.18393	0.12072	0.056118	0.21391	0.098824	0.092927	0.1188	0.23771	0.21877	0.1049	0.33916	0.16378	0.16419	-2.1979	-2.55	-2.7729	-2.4729	-2.8583	-2.7062	-2.5354	-3.025	-2.6083	-2.6375	-3.0458	-2.4625	-2.7896	-2.7646	-2.3854	-2.9417	204.103	264.337	64.072	329.996	107.346	188.273	229.292	22.470	56.182	-7.168	282.511	279.335	287.768	326.806	42.781	316.223	0.00020478	0.00033914	0.00010581	520.13	4.5353e-06	3.1502e-06	828.89	129.85	3.9073e-06	3.5247e-06	288.74	118.43	43.045	12.585	4.5169e-06	48.502	6.7491e-05	5.367e-05	1.381e-05	462.18	5.6507e-07	5.465e-07	737.16	116.12	5.6225e-07	5.6528e-07	254.45	106.23	38.751	11.268	5.8588e-07	43.13	237.344	67.758	54.517	-12.402	145.508	68.420	-11.993	-8.568	173.017	122.111	-9.199	-4.850	-4.944	0.248	154.141	-0.060	-8191	255	
2015.790	1	1	0	0	0.050661	0.29322	0.058237	0.057223	0.09321	0.14131	0.23534	0.26556	0.23962	0.090071	0.37133	0.041395	0.10247	0.29084	0.29095	0.066945	-1.9917	-2.5771	-2.8812	-2.4292	-2.6646	-2.8646	-2.5042	-2.9083	-2.6854	-2.6188	-3.075	-2.4833	-2.7562	-2.6917	-2.2979	-2.8896	304.754	206.740	157.399	77.191	59.132	15.580	229.275	247.311	176.436	158.475	330.605	237.388	242.432	200.217	-17.991	236.084	0.00026405	0.00043984	8.7962e-05	520.47	5.7052e-06	3.1245e-06	839.34	131.53	4.1704e-06	3.3568e-06	292.07	121.63	43.414	12.636	3.6711e-06	48.203	7.5211e-05	4.9365e-05	1.4668e-05	464.26	5.8736e-07	5.7764e-07	744.58	117.38	5.7215e-07	5.8207e-07	258.04	108.25	39.076	11.378	6.0128e-07	43.221	220.332	69.767	71.745	-11.995	153.546	113.823	-11.713	-8.675	189.393	137.806	-8.807	-4.449	-4.952	-0.602	130.531	0.100	-8191	255	
2015.886	1	1	0	0	0.044019	0.23452	0.16123	0.25754	0.17531	0.15098	0.073764	0.052409	0.2644	0.14893	0.25521	0.17434	0.067959	0.10827	0.10922	0.06175	-2.2583	-2.3375	-2.9313	-2.4875	-2.6125	-2.7438	-2.275	-2.85	-2.7313	-2.5438	-3.1375	-2.5292	-2.6604	-2.9208	-2.5875	-2.9646	116.200	215.311	62.766	218.644	78.691	128.563	287.448	-19.359	84.320	165.533	7.964	9.460	9.580	282.041	208.708	271.980	0.00023204	0.00037375	5.3505e-05	522.13	2.8421e-06	2.5435e-06	839.36	132.52	2.6484e-06	1.7036e-06	294.11	121.19	43.449	12.521	2.4963e-06	48.835	7.7649e-05	5.2263e-05	1.3706e-05	463.97	5.7647e-07	5.7815e-07	744.45	117.77	5.8093e-07	5.4077e-07	259.13	107.56	38.732	11.226	5.5368e-07	43.275	226.178	17.270	17.719	-12.064	134.446	90.269	-12.277	-8.813	162.296	118.969	-9.141	-4.348	-4.916	-0.161	110.159	-0.354	-8191	255	
2015.957	1	1	0	0	0.29339	0.11164	0.17873	0.1853	0.2957	0.047992	0.35616	0.081102	0.22697	0.17191	0.12894	0.1041	0.055087	0.12393	0.12843	0.17673	-2.3125	-2.2583	-2.9146	-2.6417	-2.6583	-2.9542	-2.6292	-2.9229	-2.7917	-2.3646	-3.0125	-2.7	-2.5917	-2.8167	-2.2938	-2.9083	58.667	177.196	-2.982	2.934	197.182	38.789	273.330	-8.744	257.145	201.404	114.711	55.765	221.890	-26.149	230.946	-8.187	0.00023582	0.00032886	8.4231e-05	524.68	5.1233e-06	3.0412e-06	828.69	130.33	2.8381e-06	3.5184e-06	286.91	119.39	42.738	12.456	2.4147e-06	47.891	7.4438e-05	5.326e-05	1.3435e-05	465.56	5.8792e-07	5.063e-07	737.59	116.07	5.4407e-07	4.9089e-07	253.68	106.19	38.311	11.13	5.0722e-07	42.643	238.546	85.088	5.791	-12.562	169.086	118.023	-11.975	-8.537	138.739	132.426	-9.129	-4.851	-4.821	-0.421	142.008	-0.157	-8191	255	
2016.078	1	1	0	0	0.11108	0.12355	0.11855	0.083383	0.30604	0.16998	0.056445	0.040771	0.21657	0.17916	0.10103	0.19581	0.33695	0.28961	0.10845	0.20597	-2.5021	-2.4771	-2.6854	-2.6958	-2.5687	-2.85	-2.5979	-2.7792	-2.8208	-2.4562	-2.9417	-2.6813	-2.4375	-2.9625	-2.4771	-2.8479	40.870	248.666	13.996	329.162	296.791	72.646	269.433	220.228	173.621	30.391	149.805	285.324	297.000	258.468	85.975	242.135	0.00023134	0.00032621	8.0011e-05	523.04	3.0438e-06	4.5668e-06	832.7	130.66	3.5265e-06	3.0347e-06	286.77	119.22	43.426	12.559	3.4028e-06	48.188	6.9435e-05	4.8202e-05	1.2552e-05	462.96	5.4654e-07	4.927e-07	740.15	116.17	5.5594e-07	4.9106e-07	255.14	106.35	38.607	11.23	4.9728e-07	42.94	221.586	43.462	86.141	-12.020	121.621	106.767	-12.170	-9.085	179.990	148.811	-8.780	-4.248	-5.074	-0.133	115.547	-0.114	-8191	255	
2016.173	1	1	0	0	0.19683	0.20303	0.14607	0.15967	0.2216	0.10815	0.22151	0.36358	0.26541	0.11944	0.24868	0.20912	0.05938	0.1248	0.059579	0.043549	-2.3833	-2.5604	-2.7313	-2.7313	-2.2833	-2.825	-2.525	-2.5729	-2.9938	-2.225	-2.7979	-2.7979	-2.5625	-2.875	-2.55	-2.6021	310.085	-5.848	107.383	3.806	65.376	237.293	262.728	-2.916	145.458	245.966	320.871	293.343	-22.011	39.167	141.697	184.836	0.00022987	0.00032808	2.843e-05	524.96	4.597e-06	4.0613e-06	835.61	131.49	2.4013e-06	4.6397e-06	290.83	119.85	42.446	12.444	3.3832e-06	48.151	6.919e-05	4.4489e-05	1.3139e-05	464.75	5.3279e-07	5.1092e-07	740.72	116.99	5.1193e-07	4.7769e-07	257.08	106.65	38.22	11.171	4.6286e-07	42.925	229.480	25.537	89.505	-12.366	125.389	136.204	-11.700	-8.368	162.982	157.962	-8.957	-4.515	-5.107	0.055	122.409	-0.030	-8191	255	
2016.269	1	1	0	0	0.11671	0.097702	0.17549	0.13435	0.15613	0.10083	0.041709	0.07612	0.092883	0.079053	0.29715	0.077108	0.18551	0.20241	0.037009	0.069848	-2.4792	-2.5604	-2.5146	-2.7	-2.6021	-2.8604	-2.8646	-2.4708	-2.8271	-2.6271	-2.625	-3.0021	-2.4917	-2.7729	-2.7604	-2.4813	61.476	15.813	170.639	-21.376	318.331	113.695	248.222	204.308	1.346	136.065	280.899	187.295	99.821	28.041	85.221	268.167	0.00022905	0.00019874	5.6342e-05	523.81	3.5224e-06	1.7861e-06	832.36	131.72	2.9772e-06	2.9384e-06	286.05	117.77	42.584	12.305	4.5489e-06	47.756	6.619e-05	4.1467e-05	1.2665e-05	465.08	5.0241e-07	4.5529e-07	740.68	116.75	4.6972e-07	4.6929e-07	253.82	105.33	37.88	11.022	4.858e-07	42.476	221.258	34.726	75.928	-12.705	135.442	100.426	-11.872	-8.377	147.891	158.260	-8.924	-4.440	-5.102	0.373	139.877	0.376	-8191	255	
2016.365	1	1	0	0	0.10962	0.12352	0.12437	0.080142	0.1659	0.20437	0.29929	0.14531	0.15624	0.22192	0.12459	0.22256	0.13077	0.17229	0.21575	0.21391	-2.6271	-2.4188	-2.6479	-2.8167	-2.4167	-2.8688	-2.7	-2.3958	-2.9896	-2.5208	-2.775	-2.825	-2.5062	-2.8521	-2.6146	-2.5438	186.217	186.525	101.573	-3.078	103.064	271.759	213.462	262.628	-21.150	263.324	34.853	-16.123	18.038	39.752	134.959	312.447	0.00021945	0.00036302	9.5775e-05	523.31	3.7189e-06	1.724e-06	832.18	129.35	2.9249e-06	2.2354e-06	287.85	119.15	42.56	12.393	7.0996e-07	47.853	6.6814e-05	4.0485e-05	1.2129e-05	461.79	4.5554e-07	4.6161e-07	736.53	114.91	4.8238e-07	4.3438e-07	253.71	106.15	38.015	11.111	4.9324e-07	42.746	229.460	61.949	58.470	-12.503	151.776	74.576	-12.135	-8.247	150.579	134.506	-8.999	-4.222	-4.582	-0.316	121.106	0.797	-8191	255	
2016.485	1	1	0	0	0.10107	0.12838	0.34625	0.099936	0.45266	0.070221	0.18043	0.15155	0.2216	0.17247	0.023563	0.08752	0.097745	0.097466	0.20846	0.32014	-2.4271	-2.5396	-2.5312	-2.9708	-2.4188	-2.7792	-2.7479	-2.3646	-2.7458	-2.5312	-2.525	-3.1042	-2.4313	-2.7271	-2.8354	-2.5271	309.800	214.821	239.580	290.753	58.311	0.137	213.284	244.471	106.054	157.997	-7.441	39.484	189.626	-10.961	225.927	289.887	0.00019875	0.00039006	5.9311e-05	520.88	2.7927e-06	1.9884e-06	831.56	130.84	2.0442e-06	3.9603e-06	287.98	119.52	42.629	12.601	2.8702e-06	48.018	6.7001e-05	4.2635e-05	1.2726e-05	464.51	5.0724e-07	4.4772e-07	740.29	116.66	5.1041e-07	4.9455e-07	255.34	106.68	38.11	11.183	4.8211e-07	42.777	216.006	56.861	41.742	-12.570	152.286	94.819	-12.085	-8.483	153.703	120.075	-9.209	-4.309	-4.884	-0.279	92.531	0.188	-8191	255	
2016.557	1	1	0	0	0.13067	0.29032	0.24146	0.2672	0.19501	0.31194	0.084638	0.1077	0.027197	0.026538	0.22393	0.10021	0.022761	0.075255	0.15841	0.20252	-2.4396	-2.5708	-2.4792	-2.8375	-2.5312	-2.5917	-2.9167	-2.2792	-2.7313	-2.7208	-2.5208	-2.8833	-2.5271	-2.7125	-2.5646	-2.4292	221.337	134.596	95.580	285.039	193.032	38.982	106.944	207.822	-23.356	237.905	299.065	69.239	-19.698	49.290	147.893	295.682	0.00022242	0.00045365	8.2278e-05	524.03	2.2953e-06	4.0979e-06	834.62	131.18	2.3841e-06	3.582e-06	290.34	118.25	42.47	12.323	2.4017e-06	47.971	6.7707e-05	4.2697e-05	1.2691e-05	464.89	4.7872e-07	4.365e-07	741.7	116.8	4.9268e-07	4.4661e-07	256.5	105.88	37.697	11.072	4.3366e-07	42.739	219.144	66.212	54.445	-12.233	166.487	104.304	-11.592	-8.522	149.317	113.700	-8.816	-4.485	-5.065	-0.181	139.685	0.130	-8191	255	
2016.653	1	1	0	0	0.24122	0.099344	0.11493	0.092833	0.058115	0.064475	0.17655	0.11726	0.013162	0.20854	0.14644	0.22024	0.15265	0.17202	0.15833	0.12936	-2.4375	-2.65	-2.3063	-3.05	-2.6667	-2.5792	-3.0167	-2.4167	-2.6146	-2.8104	-2.3812	-2.7917	-2.4208	-2.4979	-2.9396	-2.3125	117.506	249.299	333.073	65.251	74.568	234.141	-9.989	-21.840	244.734	327.777	188.306	23.691	268.789	209.514	194.067	332.528	0.00023331	0.00036504	6.6268e-05	524.55	2.8504e-06	1.0745e-06	827.64	127.29	1.5284e-06	2.5759e-06	283.73	116.33	41.806	12.128	4.0972e-06	47.583	6.3117e-05	3.7676e-05	1.1306e-05	463.7	4.1719e-07	4.5e-07	736.23	113.84	4.4828e-07	4.4238e-07	251.01	103.66	36.989	10.868	4.348e-07	42.34	233.814	40.950	71.214	-12.605	153.609	96.920	-12.150	-8.709	125.977	163.601	-8.840	-4.266	-4.730	0.112	125.869	0.387	-8191	255	
2016.749	1	1	0	0	0.19049	0.1091	0.21362	0.24885	0.14589	0.087171	0.2199	0.3318	0.086275	0.22276	0.097861	0.1794	0.29241	0.061682	0.31895	0.10461	-2.0312	-2.6833	-2.4813	-2.8812	-2.5417	-2.5646	-2.9521	-2.3729	-2.7188	-2.8563	-2.4938	-2.9667	-2.6667	-2.3792	-2.8187	-2.5646	81.988	147.232	-20.905	289.026	228.154	200.313	285.274	221.494	96.078	-24.717	215.249	-8.806	101.465	28.810	167.111	228.724	0.00023317	0.00010451	0.0001026	518.89	2.9397e-06	2.7111e-06	826.83	127.64	3.0036e-06	4.0938e-06	281.91	116.76	41.045	12.074	4.4826e-06	47.039	6.5335e-05	4.1036e-05	1.1736e-05	460.55	4.4161e-07	4.1174e-07	732.81	113.86	4.9522e-07	4.6329e-07	249.96	103.74	36.612	10.743	4.7342e-07	41.953	232.263	42.307	67.523	-12.121	170.925	140.033	-11.992	-8.311	157.209	131.860	-9.114	-4.552	-4.955	-0.119	92.001	0.137	-8191	255	
2016.870	1	1	0	0	0.070261	0.11324	0.079169	0.15959	0.17058	0.093615	0.18728	0.31691	0.032404	0.064538	0.11401	0.22234	0.084566	0.22173	0.12376	0.21841	-2.1896	-2.7958	-2.5042	-2.7646	-2.5854	-2.6292	-2.9167	-2.5354	-2.5979	-2.8208	-2.4292	-2.9437	-2.75	-2.5229	-2.9104	-2.5167	322.044	18.860	130.510	67.492	218.556	218.113	74.100	266.976	148.791	85.282	51.447	240.483	35.661	107.105	327.462	121.238	0.00021421	0.00019562	2.1468e-05	518.32	2.5124e-06	2.5432e-06	824.8	127.36	1.2761e-06	3.4471e-06	280.91	116.13	41.163	12.017	3.5274e-06	46.867	6.5215e-05	3.9441e-05	1.0516e-05	460.81	4.3954e-07	4.1567e-07	731.82	113.5	4.0596e-07	4.1244e-07	250.07	103.16	36.611	10.681	4.4644e-07	41.926	213.809	11.910	121.253	-12.541	149.073	96.306	-12.072	-8.747	94.807	144.773	-8.910	-4.128	-5.026	0.468	107.884	-0.016	-8191	255	
2016.966	1	1	0	0	0.40329	0.30583	0.22799	0.35399	0.066357	0.22024	0.23357	0.22949	0.35876	0.16278	0.13547	0.30513	0.16524	0.35967	0.16702	0.10774	-2.2917	-2.8771	-2.5521	-2.8563	-2.5583	-2.5646	-2.9771	-2.6063	-2.5625	-2.9375	-2.4104	-2.7646	-2.7562	-2.5104	-3.0938	-2.6562	-5.925	271.096	135.255	281.782	-13.746	248.231	262.534	254.658	127.559	3.183	263.192	222.296	248.615	215.290	225.320	16.362	0.00019184	0.00031608	6.5373e-05	516.42	1.4132e-06	2.4713e-06	826.36	126.9	2.6142e-06	2.5182e-06	279.18	113.23	40.134	11.732	2.7225e-06	46.469	6.149e-05	3.9265e-05	1.0809e-05	458.49	4.3443e-07	4.0901e-07	731.24	112.86	4.4017e-07	3.8879e-07	246.08	101.03	35.868	10.462	4.2014e-07	41.063	236.204	59.832	90.031	-12.064	122.254	128.638	-11.866	-8.089	144.336	143.431	-8.569	-4.287	-5.186	0.182	134.907	0.265	-8191	255	
2017.062	1	1	0	0	0.18781	0.26913	0.060207	0.22266	0.18338	0.065903	0.21681	0.13181	0.039511	0.065227	0.037025	0.10657	0.13806	0.051978	0.15501	0.067343	-2.1021	-2.9396	-2.5125	-2.6792	-2.7354	-2.4313	-2.8729	-2.6042	-2.6146	-2.6958	-2.6417	-2.6917	-2.7646	-2.2854	-2.7729	-2.7687	50.585	320.437	153.607	-15.260	10.114	180.452	286.944	20.159	282.442	169.288	262.289	277.280	280.769	-21.314	293.517	250.323	0.00017929	0.00037792	5.7062e-05	513.66	2.8443e-06	1.7478e-06	823.15	124.46	1.8784e-06	4.1144e-06	275.68	112.97	40.617	11.656	3.3222e-06	46.041	5.9963e-05	3.8979e-05	9.8395e-06	455.16	4.1809e-07	3.7564e-07	726.23	111	4.2194e-07	3.9353e-07	245.04	100.91	35.847	10.42	4.1441e-07	41.036	229.930	27.656	41.085	-12.673	140.059	80.423	-11.832	-8.379	140.783	133.788	-9.277	-4.073	-5.578	0.235	142.193	0.098	-8191	255	
2017.159	1	1	0	0	0.095975	0.26162	0.19256	0.15665	0.23915	0.096081	0.075501	0.19641	0.23588	0.16646	0.16485	0.22296	0.22496	0.16078	0.10446	0.12494	-1.9875	-2.8667	-2.4979	-2.5417	-2.7729	-2.3146	-2.9792	-2.7083	-2.4875	-2.8521	-2.7188	-2.7188	-2.6771	-2.3833	-2.7083	-2.8271	150.243	127.112	103.131	26.213	60.355	138.498	277.780	-10.854	263.294	252.543	314.713	242.315	230.296	74.159	110.075	203.959	0.00023601	0.00023241	7.2766e-05	511.34	3.6016e-06	1.749e-06	818.98	125.37	2.7717e-06	2.4451e-06	278.73	113.61	40.4	11.634	1.891e-06	46.945	6.04e-05	3.5168e-05	1.0757e-05	456.19	3.871e-07	4.1618e-07	726.11	111.39	4.0612e-07	3.5765e-07	246.19	101.44	35.987	10.469	4.0725e-07	41.434	234.506	55.633	54.298	-12.127	105.533	99.947	-11.956	-8.371	146.160	131.537	-8.891	-4.519	-5.212	-0.231	78.324	0.109	-8191	255	
2017.253	1	1	0	0	0.096927	0.053462	0.14568	0.51073	0.10213	0.20497	0.09805	0.14697	0.18976	0.21083	0.13759	0.33292	0.021801	0.26975	0.06973	0.12776	-1.9229	-2.9333	-2.5021	-2.4354	-2.8771	-2.4521	-2.8771	-2.8458	-2.5292	-2.9375	-2.8479	-2.6354	-2.8125	-2.5229	-2.5104	-2.9313	92.836	290.263	228.786	284.181	1.726	319.255	54.330	235.036	106.479	333.003	253.633	-20.019	59.569	177.078	103.967	326.494	0.00019912	0.00021483	6.7881e-05	511.6	3.6017e-06	4.5162e-06	820.25	126.36	2.0596e-06	1.9808e-06	280.13	115.31	40.525	11.777	3.07e-06	46.659	5.7692e-05	3.5557e-05	9.906e-06	455.55	4.4083e-07	3.987e-07	730.09	112.54	4.1693e-07	4.0096e-07	249.3	102.95	36.305	10.618	4.5513e-07	41.506	229.684	47.535	57.838	-12.011	131.555	110.458	-11.544	-8.261	147.824	134.981	-9.040	-4.255	-4.936	0.658	107.447	0.287	-8191	255	
2017.351	1	1	0	0	0.063476	0.096234	0.086031	0.18973	0.098762	0.33185	0.25598	0.13985	0.061189	0.10161	0.19626	0.087132	0.16451	0.21829	0.18399	0.12526	-1.9979	-2.675	-2.7062	-2.4771	-2.8875	-2.5521	-2.8854	-2.7292	-2.3812	-2.7313	-2.7708	-2.5021	-2.8229	-2.5375	-2.5521	-3.0104	225.746	24.292	263.048	328.581	39.653	330.032	271.547	-21.372	108.889	25.417	37.870	3.035	226.942	305.925	261.234	306.249	0.00024223	0.00026737	9.0778e-05	509.15	4.7015e-06	3.1933e-06	823.23	124.94	1.2618e-06	4.1169e-06	277.81	113.68	40.585	11.867	2.5191e-06	46.898	6.1254e-05	4.1394e-05	1.0605e-05	455.28	4.41e-07	4.0468e-07	727.37	111.63	4.1766e-07	4.3067e-07	245.63	102.13	36.236	10.629	4.7183e-07	41.614	230.202	99.610	55.726	-12.297	111.264	96.998	-12.010	-8.698	168.104	132.590	-8.942	-4.411	-4.757	-0.484	104.949	0.114	-8191	255	
2017.470	1	1	0	0	0.17403	0.10033	0.13894	0.1689	0.1086	0.21493	0.3301	0.12978	0.14572	0.23012	0.01318	0.38194	0.18922	0.075863	0.1589	0.20151	-1.7667	-2.8042	-2.5729	-2.4396	-2.8771	-2.6583	-2.7333	-2.9938	-2.4604	-2.8625	-2.8417	-2.4083	-2.9437	-2.4979	-2.5687	-2.9729	178.866	332.635	-6.556	254.220	93.060	114.625	306.846	146.065	149.652	19.483	80.093	302.315	139.270	170.023	83.356	190.401	0.0002123	0.00041521	0.00010639	514.26	3.4595e-06	2.2129e-06	822.2	127.16	1.8414e-06	2.5094e-06	281.66	115.01	41.273	12.046	4.714e-06	47.404	6.2853e-05	3.9836e-05	1.0624e-05	455.63	4.4245e-07	3.9751e-07	729.93	112.55	4.4445e-07	4.3284e-07	249.1	103.07	36.751	10.792	4.7348e-07	42.164	230.759	72.254	47.581	-12.337	169.405	127.928	-11.810	-8.632	168.896	142.355	-8.839	-4.520	-5.153	0.050	158.665	0.098	-8191	255	
2017.566	1	1	0	0	0.22031	0.12482	0.27836	0.093941	0.24231	0.31514	0.22692	0.03575	0.15387	0.12587	0.092611	0.18196	0.29766	0.14809	0.081135	0.22	-1.9146	-2.7521	-2.6521	-2.4417	-2.8271	-2.6312	-2.4813	-2.9437	-2.3604	-2.6396	-2.7521	-2.6667	-2.8896	-2.7542	-2.2812	-2.9604	152.464	316.845	29.466	89.721	146.957	55.287	195.064	9.317	40.383	215.134	66.266	1.283	10.952	329.183	-22.712	-24.737	0.00021165	0.00018963	0.00014011	519.35	4.2105e-06	4.993e-06	828.02	126.71	3.6568e-06	1.4492e-06	283.54	118.15	41.716	12.175	4.9799e-06	47.953	6.22e-05	4.0407e-05	1.1331e-05	458.91	4.6817e-07	4.2278e-07	734.05	113.34	4.2577e-07	4.3336e-07	250.93	104.76	37.195	10.857	4.4553e-07	42.512	234.634	68.723	67.989	-12.118	97.823	128.948	-11.911	-8.559	121.957	129.560	-9.001	-4.510	-5.326	0.023	158.916	-0.108	-8191	255	
2017.662	1	1	0	0	0.25582	0.15757	0.060257	0.29023	0.11507	0.087859	0.08276	0.33988	0.12162	0.1125	0.2405	0.38117	0.18681	0.19182	0.091089	0.10351	-1.9625	-2.3979	-2.7208	-2.5542	-2.8667	-2.5958	-2.3521	-2.6	-2.4375	-2.7146	-2.85	-2.3979	-2.7125	-2.6792	-2.4146	-2.9083	17.569	215.755	141.269	265.806	8.523	41.726	178.423	330.509	278.750	40.802	-23.000	255.809	11.647	193.632	229.477	280.167	0.00021329	0.000522	0.00011498	519.47	2.6825e-06	3.8659e-06	831.71	127.46	1.9088e-06	3.2084e-06	282.35	116.52	41.633	12.081	1.9085e-06	46.449	6.5518e-05	4.0148e-05	1.074e-05	460.03	4.4161e-07	4.3935e-07	737.23	113.51	4.2104e-07	4.2256e-07	250.4	103.74	36.893	10.734	4.3457e-07	41.621	223.323	49.637	74.728	-12.143	152.958	73.728	-11.952	-8.491	106.886	138.268	-8.567	-4.474	-4.559	-0.209	125.045	-0.152	-8191	255	
2017.758	1	1	0	0	0.1708	0.098062	0.19172	0.3174	0.095494	0.26456	0.090328	0.21088	0.11679	0.086196	0.12542	0.18362	0.12325	0.15594	0.17122	0.13913	-2.0167	-2.4208	-2.9396	-2.2771	-2.5646	-2.6937	-2.6063	-2.8042	-2.55	-2.4229	-2.9521	-2.5062	-2.7313	-2.8937	-2.4542	-2.7854	114.000	28.761	185.103	-10.573	178.811	215.366	226.500	61.770	76.047	333.530	286.767	266.163	34.627	240.676	113.716	105.375	0.00020707	0.00040277	7.9405e-05	515.57	3.0063e-06	1.8082e-06	825.34	127.11	2.4446e-06	1.6329e-06	281.1	116.58	42.265	12.228	3.3062e-06	47.23	6.3544e-05	4.3674e-05	1.0723e-05	458.78	4.4796e-07	4.0975e-07	731.74	113	4.5244e-07	4.373e-07	250.28	104.54	37.587	10.965	4.6644e-07	42.102	230.565	30.733	60.320	-12.341	155.734	145.067	-11.972	-8.146	142.307	130.258	-9.013	-4.433	-5.315	0.614	137.968	-0.073	-8191	255	
2017.854	1	1	0	0	0.12298	0.43576	0.1443	0.047525	0.24551	0.071508	0.19427	0.18663	0.13206	0.14733	0.15927	0.22734	0.084752	0.12706	0.012809	0.31166	-2.1854	-2.2375	-2.8937	-2.4688	-2.675	-2.7271	-2.4917	-2.6813	-2.5542	-2.5438	-2.9	-2.6875	-2.7104	-2.7833	-2.4188	-2.9354	65.101	221.422	241.554	-10.427	310.310	-20.071	304.551	264.861	61.493	85.445	309.916	-13.869	100.288	163.402	8.164	267.881	0.00021474	0.00032427	0.0001135	520.48	2.9594e-06	4.3287e-06	828.25	128.78	9.8648e-07	2.2906e-06	285.3	118.07	42.262	12.124	4.0458e-06	47.361	6.3088e-05	4.3902e-05	1.1835e-05	462.56	4.9551e-07	4.5552e-07	736.68	114.81	4.7704e-07	4.9066e-07	252.93	105.38	37.516	10.903	4.4951e-07	42.272	232.189	41.219	74.809	-12.211	155.573	111.226	-11.838	-8.892	146.337	137.814	-8.942	-4.190	-5.021	0.451	136.891	-0.223	-8191	255	
2017.950	1	1	0	0	0.15625	0.15419	0.17224	0.057899	0.33674	0.16788	0.14256	0.080421	0.28112	0.18754	0.14111	0.056053	0.063432	0.17582	0.12275	0.14638	-2.2042	-2.2562	-2.7896	-2.5333	-2.5375	-2.6729	-2.4437	-2.725	-2.5958	-2.1979	-2.8438	-2.4958	-2.5021	-2.7938	-2.4896	-2.7812	240.339	270.934	165.762	282.005	321.895	178.142	268.630	291.432	199.489	319.385	281.450	48.066	5.884	133.176	25.797	329.406	0.00025506	0.00034805	7.7701e-05	520.11	2.7132e-06	2.8249e-06	833.01	128.94	2.0009e-06	3.5312e-06	287.46	118.04	42.226	12.141	4.3914e-06	47.618	6.1605e-05	4.1363e-05	1.1571e-05	461.64	4.9304e-07	4.4237e-07	739.7	114.8	4.7473e-07	4.365e-07	254.68	105.23	37.615	10.878	4.6297e-07	42.206	233.020	49.598	57.316	-12.184	120.519	125.103	-11.759	-8.021	191.933	170.880	-8.910	-4.491	-4.680	0.538	138.411	0.071	-8191	255	
2018.047	1	1	0	0	0.10947	0.22522	0.068969	0.1399	0.15553	0.23629	0.17868	0.096454	0.082272	0.12647	0.11079	0.074421	0.26521	0.15664	0.15289	0.22145	-2.375	-2.3396	-2.8729	-2.7042	-2.4979	-2.7479	-2.5354	-2.8063	-2.7146	-2.3833	-2.6396	-2.6562	-2.3688	-2.7479	-2.5938	-2.6937	141.115	248.695	210.812	-23.287	71.690	44.901	178.383	177.031	231.927	316.486	251.073	51.102	217.730	182.210	177.257	275.401	0.00020677	0.00054992	6.5937e-05	518.7	1.9982e-06	3.3588e-06	831.31	128.11	2.3891e-06	3.6835e-06	280.49	117.45	41.627	12.005	3.6245e-06	47.278	6.1365e-05	3.7437e-05	1.186e-05	460.82	4.7726e-07	4.2848e-07	735.77	113.7	4.8548e-07	4.6386e-07	250.05	104.38	37.133	10.825	4.4854e-07	41.884	222.253	32.254	71.499	-12.040	116.564	136.004	-12.096	-8.197	162.505	134.162	-8.890	-4.572	-5.415	0.144	108.642	0.495	-8191	255	
2018.143	1	1	0	0	0.1646	0.19345	0.048156	0.22043	0.20263	0.11816	0.096396	0.29987	0.10205	0.10087	0.26131	0.18008	0.1575	0.2849	0.1917	0.091282	-2.4792	-2.2792	-2.8167	-2.7104	-2.3458	-2.7042	-2.5104	-2.65	-2.875	-2.3542	-2.8063	-2.7562	-2.3438	-2.8167	-2.4875	-2.6396	206.946	1.099	118.634	326.329	-24.448	323.105	3.322	222.096	152.849	-7.434	275.431	227.985	196.098	101.971	-8.826	285.936	0.0001947	0.00048732	6.3832e-05	518.58	3.875e-06	3.7702e-06	830.87	127.47	2.8676e-06	2.4827e-06	282.17	117	42.099	12.133	5.9103e-06	47.234	6.3141e-05	4.2105e-05	1.2265e-05	460.9	4.6839e-07	4.3275e-07	735.27	113.41	4.6438e-07	4.3153e-07	250.5	104.33	37.234	10.832	4.4542e-07	42.087	223.325	40.239	34.440	-12.377	115.524	76.830	-11.743	-8.318	206.785	133.290	-9.140	-4.387	-4.908	-0.184	132.603	0.055	-8191	255	
2018.262	1	1	0	0	0.09786	0.15637	0.10806	0.070735	0.16405	0.16774	0.15227	0.1155	0.28068	0.22156	0.15991	0.12177	0.086173	0.29393	0.082964	0.11136	-2.2479	-2.4604	-2.6312	-2.7875	-2.4417	-2.8875	-2.4562	-2.5187	-2.7521	-2.4229	-2.7562	-2.7958	-2.4333	-2.9479	-2.6604	-2.475	147.183	-2.020	-20.909	72.427	130.008	321.966	322.438	232.589	133.994	168.436	4.103	65.625	10.581	230.131	277.979	299.678	0.00019771	0.00030971	3.0381e-05	522.11	2.6996e-07	4.044e-06	831.36	129.06	2.1616e-06	2.9357e-06	286.44	117.97	42.058	12.181	2.6525e-06	47.615	6.3794e-05	4.4567e-05	1.1228e-05	463.12	4.634e-07	4.8154e-07	739.18	114.8	4.7704e-07	4.7889e-07	254.25	105.09	37.494	10.87	4.8376e-07	42.37	218.949	51.406	39.943	-12.234	131.432	91.123	-12.205	-8.244	139.014	130.461	-8.742	-4.247	-5.224	-0.182	119.993	0.142	-8191	255	
2018.358	1	1	0	0	0.1347	0.22735	0.2465	0.21474	0.10909	0.027811	0.14012	0.16737	0.069234	0.1995	0.08759	0.035698	0.14789	0.1546	0.18824	0.095561	-2.3187	-2.2687	-2.5479	-2.7833	-2.4604	-2.7292	-2.7417	-2.6667	-2.8542	-2.4167	-2.8292	-2.7896	-2.4	-2.8	-2.4604	-2.425	331.650	330.168	17.996	308.613	17.381	254.063	-1.778	224.634	26.563	308.422	297.609	315.672	231.226	313.973	122.058	37.289	0.00018088	0.00038917	5.0836e-05	521.8	3.641e-06	1.6114e-06	833.99	130.2	3.3205e-06	4.8387e-06	282.73	117.98	42.215	12.071	2.6927e-06	47.077	6.581e-05	4.1986e-05	1.184e-05	463.57	4.6952e-07	4.6081e-07	741.4	114.97	5.0242e-07	4.345e-07	252.31	105.12	37.623	10.826	4.5292e-07	41.937	228.849	36.529	76.989	-12.158	128.665	112.901	-11.743	-8.303	168.114	140.171	-9.322	-4.431	-5.237	-0.496	137.333	-0.165	-8191	255	
2018.431	1	1	0	0	0.053134	0.29425	0.31164	0.15495	0.26398	0.14562	0.18526	0.26952	0.19215	0.2137	0.1773	0.24452	0.094522	0.18254	0.11289	0.11735	-2.3604	-2.3083	-2.3958	-2.75	-2.5042	-2.8187	-2.6542	-2.2396	-2.7917	-2.4729	-2.55	-2.7583	-2.4458	-2.6875	-2.6312	-2.3896	145.805	255.956	-0.192	191.371	256.893	247.697	246.704	247.725	16.589	89.837	298.379	-8.021	18.542	6.708	195.914	271.306	0.00022152	0.00029361	0.00012093	517.66	3.6732e-06	4.3972e-06	825.47	127.72	4.0354e-06	4.2808e-06	283.23	117.37	42.203	12.117	3.5106e-06	47.391	6.389e-05	3.9888e-05	1.1804e-05	461.53	4.6648e-07	4.734e-07	735.48	113.77	4.7541e-07	4.5518e-07	251.49	104.75	37.628	10.851	4.762e-07	41.997	229.117	13.715	35.233	-12.444	97.135	77.813	-11.699	-8.691	155.688	135.319	-8.730	-4.578	-4.847	-0.458	110.849	0.114	-8191	255	
2018.550	1	1	0	0	0.24735	0.2159	0.23949	0.18341	0.33152	0.15499	0.36369	0.25449	0.21594	0.040249	0.11443	0.28385	0.14156	0.177	0.13344	0.1158	-2.3458	-2.4708	-2.4542	-2.825	-2.2104	-2.7542	-2.9188	-2.2938	-2.8792	-2.7875	-2.4771	-2.9604	-2.3688	-2.7333	-2.7625	-2.575	221.438	30.369	323.174	250.478	178.118	24.288	39.634	308.286	48.509	94.558	264.916	209.500	328.395	265.244	1.958	81.912	0.00023701	0.00042318	8.2476e-05	523.17	2.0177e-06	3.5512e-06	837.43	129.57	3.3685e-06	3.3796e-06	287.75	118.92	42.522	12.281	2.2584e-06	47.741	6.5734e-05	4.41e-05	1.1851e-05	464.34	4.6845e-07	4.9008e-07	740.31	114.86	5.0186e-07	4.481e-07	253.96	105.85	38.009	10.942	4.5508e-07	42.32	223.630	62.404	47.048	-12.100	148.383	150.925	-11.771	-8.383	159.134	145.066	-8.889	-4.507	-5.197	0.294	150.369	0.489	-8191	255	
2018.646	1	1	0	0	0.052751	0.063663	0.17224	0.069576	0.17701	0.12603	0.080056	0.19673	0.13096	0.1171	0.064056	0.15699	0.12571	0.14035	0.010035	0.20623	-2.2	-2.5604	-2.3083	-2.7708	-2.6063	-2.6562	-2.9104	-2.4667	-2.8083	-2.6521	-2.4813	-3.0458	-2.4	-2.5625	-2.7333	-2.4208	115.846	98.443	36.048	-9.513	18.493	31.580	235.179	314.880	260.914	181.210	288.412	248.704	207.811	142.837	288.485	294.368	0.00020338	0.00042326	9.1474e-05	520.96	2.3918e-06	2.2703e-06	838.81	129.61	2.0572e-06	2.4128e-06	289.07	118.58	42.035	12.082	4.4071e-06	47.357	6.5354e-05	4.2708e-05	1.1545e-05	463.86	5.0101e-07	4.5563e-07	743.17	115.68	4.3809e-07	3.9839e-07	255.54	105.79	37.902	10.879	4.5911e-07	42.089	224.749	66.831	53.039	-12.330	116.492	126.920	-12.209	-8.421	153.131	115.906	-8.835	-4.486	-5.328	-0.278	133.083	-0.331	-8191	255	
2018.742	1	1	0	0	0.33516	0.25547	0.14916	0.2888	0.051148	0.18737	0.22496	0.16663	0.2672	0.13756	0.151	0.09856	0.21529	0.2531	0.11153	0.13855	-2.2062	-2.6854	-2.3104	-2.9917	-2.3958	-2.5625	-2.975	-2.3396	-2.6208	-2.6354	-2.4208	-2.6792	-2.5417	-2.5792	-2.9333	-2.3833	91.991	-12.525	82.193	-24.914	329.037	272.230	295.813	319.574	5.960	63.966	103.871	308.260	293.233	201.880	231.359	14.831	0.00021315	0.00036752	6.9732e-05	525.11	5.4365e-06	2.17e-06	828.73	129.67	1.9279e-06	1.6862e-06	281.59	117.47	42.47	12.176	3.9934e-06	47.167	6.5205e-05	3.887e-05	1.0617e-05	465.41	4.3538e-07	4.64e-07	736.51	115.11	4.7721e-07	4.4507e-07	250.89	105.08	37.853	10.865	4.6138e-07	41.858	223.919	52.460	74.787	-12.439	120.125	74.124	-11.532	-8.117	165.228	151.790	-9.078	-4.609	-5.343	0.220	98.475	-0.047	-8191	255	
2018.839	1	1	0	0	0.30486	0.31434	0.2522	0.17179	0.023373	0.13023	0.21345	0.13767	0.079572	0.1599	0.16748	0.26824	0.19471	0.31224	0.38714	0.40206	-2.1813	-2.7292	-2.2896	-2.8708	-2.5958	-2.6188	-2.9708	-2.4458	-2.6562	-2.8937	-2.4437	-3.05	-2.65	-2.5792	-2.8958	-2.5479	-7.360	223.112	205.478	235.603	210.342	11.672	23.692	59.848	162.532	253.370	191.949	319.597	263.305	226.948	163.610	300.525	0.00020378	0.00024689	8.5154e-05	520.88	2.1765e-06	2.8008e-06	833.11	129.6	3.0321e-06	8.3926e-07	285.52	118.6	42.681	12.142	3.2838e-06	46.951	6.3679e-05	3.9026e-05	1.1909e-05	464.87	4.4358e-07	4.5159e-07	739.53	115.54	4.5199e-07	4.1496e-07	253.34	105.89	38.041	10.904	4.419e-07	41.912	221.487	82.006	61.367	-12.312	150.789	92.879	-11.963	-8.093	175.878	108.386	-8.631	-4.882	-4.440	0.444	128.712	-0.204	-8191	255	
2018.957	1	1	0	0	0.14021	0.15933	0.18666	0.15875	0.40477	0.017045	0.18275	0.14844	0.3896	0.27291	0.23532	0.28411	0.41177	0.3066	0.060793	0.32652	-2.1583	-2.8375	-2.2583	-2.8937	-2.6813	-2.1542	-2.875	-2.4875	-2.4521	-2.8187	-2.3292	-2.7438	-2.6479	-2.2667	-2.9771	-2.7062	0.223	203.300	93.686	80.892	156.119	74.357	-8.659	150.691	255.808	281.791	261.034	317.562	45.925	-20.948	209.987	274.028	0.00021276	0.00032406	4.1034e-05	524.81	2.193e-06	3.9376e-06	838.22	129.91	1.8733e-06	7.7017e-07	289.33	119.61	42.796	12.235	2.742e-06	47.693	6.1264e-05	4.0729e-05	1.1226e-05	464.71	4.7086e-07	4.217e-07	742.38	115.77	4.776e-07	4.2559e-07	256	106.56	38.15	10.96	4.29e-07	42.294	227.277	42.664	107.228	-11.930	122.720	119.228	-11.505	-8.490	158.163	119.348	-8.997	-4.204	-4.996	0.270	109.757	0.292	-8191	255	
2019.054	1	1	0	0	0.22035	0.1593	0.16255	0.13973	0.053662	0.066515	0.11615	0.16911	0.15129	0.19317	0.064757	0.062459	0.12564	0.16136	0.16308	0.19708	-1.9625	-2.8646	-2.3396	-2.6354	-2.5917	-2.4042	-2.6521	-2.6688	-2.5146	-2.9292	-2.4896	-2.6542	-2.6437	-2.45	-2.5062	-2.7375	23.480	203.723	226.369	290.514	289.800	220.801	135.403	172.157	253.325	120.098	233.610	99.981	119.689	-16.595	311.273	281.946	0.00026499	0.00036759	1.3108e-05	523.12	3.9937e-06	2.5586e-06	841.63	130.62	2.0497e-06	3.3026e-06	283.5	117.12	42.912	12.317	1.4064e-06	47.373	6.6967e-05	4.2329e-05	1.0711e-05	465.62	4.6098e-07	4.0195e-07	742.19	116.04	4.816e-07	4.6769e-07	251.99	105.07	37.956	10.939	4.5246e-07	42.045	223.597	53.797	96.035	-12.003	143.053	136.683	-11.757	-8.587	171.045	149.663	-8.729	-4.727	-5.084	-0.306	156.136	-0.113	-8191	255	
2019.151	1	1	0	0	0.072242	0.16467	0.1998	0.22968	0.10652	0.19269	0.057559	0.14816	0.18983	0.1245	0.11952	0.26802	0.11269	0.11276	0.2832	0.12139	-2.1	-2.6708	-2.3771	-2.6083	-2.7708	-2.2792	-2.7354	-2.6688	-2.5729	-2.9833	-2.4917	-2.7146	-2.7896	-2.2833	-2.8521	-2.8896	-12.333	39.803	-12.976	318.560	-19.274	-25.555	219.031	46.302	72.606	19.799	287.473	292.582	-17.875	216.616	161.661	171.248	0.00019857	0.00019608	0.0001069	522.65	5.0196e-06	3.9856e-06	836.61	129.99	2.1235e-06	3.658e-06	285.72	118.06	42.92	12.346	5.3118e-06	47.149	6.1682e-05	4.0459e-05	1.0863e-05	464.64	4.4594e-07	3.9637e-07	741.45	114.97	4.5582e-07	4.0079e-07	252.15	105.53	38.189	10.937	4.6325e-07	41.952	227.708	49.158	57.176	-12.627	126.581	117.042	-12.075	-8.666	159.908	126.444	-8.883	-4.630	-5.119	-0.512	130.981	0.063	-8191	255	
2019.248	1	1	0	0	0.10023	0.19415	0.15729	0.074668	0.30404	0.37854	0.16176	0.4298	0.090226	0.15603	0.2027	0.20182	0.15248	0.35857	0.26416	0.2496	-1.8229	-2.9625	-2.3583	-2.7458	-2.6813	-2.1667	-2.6813	-2.625	-2.4396	-2.8354	-2.5229	-2.6333	-2.8354	-2.3708	-2.5792	-2.7396	10.082	19.664	64.361	136.269	310.501	229.086	202.466	312.462	49.504	332.636	324.747	311.778	-14.719	251.282	176.724	262.054	0.00021562	0.00031062	6.2279e-05	526.32	2.9122e-06	2.885e-06	837.98	129.97	1.8591e-06	3.7832e-06	286.46	118.53	42.804	12.199	3.2407e-06	47.556	6.4101e-05	4.1217e-05	1.0973e-05	466.17	4.68e-07	4.2967e-07	742.83	115.56	4.6105e-07	4.4901e-07	253.74	105.84	38.164	10.927	4.3599e-07	42.15	225.995	70.380	35.387	-12.365	140.071	91.208	-11.816	-8.631	179.770	120.182	-8.782	-3.971	-5.173	0.097	120.671	0.175	-8191	255	
2019.342	1	1	0	0	0.11613	0.071002	0.15176	0.28297	0.10023	0.10682	0.10725	0.21467	0.050313	0.31009	0.42587	0.17559	0.025766	0.13626	0.25409	0.10847	-1.9146	-2.7	-2.4813	-2.4625	-2.7292	-2.4146	-2.7438	-2.7375	-2.4146	-2.7292	-2.6208	-2.45	-2.8312	-2.5375	-2.525	-2.7792	-15.807	127.527	109.898	288.343	295.870	241.133	302.421	275.977	222.798	18.981	64.681	251.333	4.124	292.340	261.382	217.622	0.00021234	0.00028881	5.693e-05	527.87	3.1185e-06	2.8813e-06	838.84	130.37	2.5773e-06	3.1612e-06	289.76	119.16	43.402	12.305	4.0297e-06	47.443	6.4164e-05	4.1306e-05	1.0886e-05	466.62	4.8905e-07	4.5085e-07	745.1	116.61	4.6573e-07	4.6929e-07	256.37	106.57	38.72	10.962	4.979e-07	42.061	226.173	49.000	93.435	-12.206	144.996	140.846	-11.811	-7.992	178.080	176.157	-9.217	-4.856	-5.256	-0.561	134.362	-0.221	-8191	255	
2019.438	1	1	0	0	0.25585	0.1932	0.18343	0.20161	0.13379	0.052154	0.19567	0.1862	0.19645	0.1149	0.14343	0.2066	0.25976	0.22862	0.16994	0.21385	-1.8271	-2.8292	-2.5729	-2.4021	-2.8042	-2.5083	-2.7458	-2.6354	-2.3688	-2.7292	-2.5979	-2.4333	-2.6875	-2.3604	-2.3729	-2.6708	19.710	233.166	69.917	10.757	192.014	83.389	267.096	21.120	35.887	285.484	323.102	288.571	128.481	322.099	109.749	264.166	0.00017115	0.00020351	7.7936e-05	523.93	3.9447e-06	3.8455e-06	829.52	128.33	8.8891e-07	3.3373e-06	283.97	119.31	43.155	12.164	1.7643e-06	47.445	5.9416e-05	4.2729e-05	1.1551e-05	463.72	4.2982e-07	4.1077e-07	739.24	114.67	4.5464e-07	4.5055e-07	251.46	106.14	38.45	10.896	4.4883e-07	41.99	223.617	58.627	72.626	-11.693	145.122	137.172	-11.484	-8.574	144.423	115.887	-8.685	-4.617	-5.275	-0.199	215.791	0.195	-8191	255	
2019.559	1	1	0	0	0.19468	0.07161	0.20662	0.070395	0.12001	0.22407	0.13807	0.081928	0.16384	0.029201	0.088505	0.084006	0.17076	0.091639	0.26063	0.15982	-1.9271	-2.625	-2.7229	-2.5167	-2.7875	-2.425	-2.5833	-2.9667	-2.5542	-2.7042	-2.7958	-2.4417	-2.8708	-2.6458	-2.4313	-2.9146	243.115	125.069	68.452	54.402	-12.153	172.757	209.566	257.855	-14.731	120.845	218.437	29.636	306.610	10.468	120.189	180.758	0.0002143	0.00044475	5.8952e-05	527.83	3.5588e-06	3.6562e-06	835.54	130.16	2.1616e-06	4.0621e-06	286.82	119.47	43.357	12.122	3.9715e-06	46.877	6.1091e-05	4.3606e-05	1.15e-05	466.66	4.8164e-07	4.2273e-07	742.23	115.87	4.5081e-07	4.7038e-07	254.35	106.33	38.559	10.922	4.2009e-07	41.857	231.041	52.260	83.387	-12.252	114.231	96.169	-11.862	-8.019	119.613	142.247	-8.547	-4.282	-4.941	0.275	142.401	-0.254	-8191	255	
2019.655	1	1	0	0	0.22992	0.21751	0.080326	0.21867	0.24352	0.21646	0.097303	0.094369	0.3042	0.15697	0.081477	0.18132	0.1418	0.25414	0.30676	0.45561	-1.9583	-2.5271	-2.6104	-2.3583	-2.7812	-2.6458	-2.3792	-2.8354	-2.4354	-2.6542	-2.7333	-2.3896	-2.7125	-2.6813	-2.4479	-2.7417	86.195	286.446	32.290	22.284	255.979	333.014	195.188	167.173	196.611	178.846	15.987	54.600	246.137	24.578	93.823	329.211	0.00021661	0.00042535	0.00011428	523.27	4.2709e-06	3.4597e-06	838.43	130.48	2.287e-06	4.5298e-06	288.37	120.37	43.09	12.303	4.6764e-06	47.413	5.8883e-05	4.2417e-05	1.1172e-05	464.94	4.8271e-07	4.3742e-07	743.04	116.26	4.5745e-07	4.5381e-07	254.52	106.65	38.294	10.927	4.444e-07	42.07	226.189	29.554	52.199	-11.912	156.542	92.141	-11.794	-8.066	177.295	125.099	-9.098	-4.745	-5.133	-0.031	157.160	0.087	-8191	255	
#DATA ENDS
