BOXY.EXE: ISS Imagent and Oximeter Data Acquisition Program Version 0.80
Ascii Record File

#ACQ INFORMATION
2  Detector Channels 
16  External MUX Channels 
1  Auxiliary Channels 
5000  Waveform (CCF) Frequency (Hz)
1  Waveforms Skipped 
30  Waveforms Averaged 
1  Cycles Averaged 
16  Acquisitions per Waveform 
10.0806  Updata Rate (Hz) 

#FILE INFORMATION
TRUE -- External MUX Channel results are PARSED.
FALSE -- AC DC and Phase are NOT grouped.
TRUE -- Companion Program Settings File CREATED.
FALSE -- AC data not excluded
FALSE -- DC data not excluded
FALSE -- Phase data not excluded
FALSE -- Auxillary Chn. data not excluded
Tab delimiters

#CALIBRATION STATE
TRUE -- Waveform Calibration Values APPLIED.


#AUX CALIBRATION VALUES
Val Type	aux-1	

Term	1.0000e+00	
Factor	0.0000e+00	


#WF CALIBRATION VALUES
A = Detector Channel
Val Type	A-AC1	A-AC2	A-AC3	A-AC4	A-AC5	A-AC6	A-AC7	A-AC8	A-AC9	A-AC10	A-AC11	A-AC12	A-AC13	A-AC14	A-AC15	A-AC16	A-DC1	A-DC2	A-DC3	A-DC4	A-DC5	A-DC6	A-DC7	A-DC8	A-DC9	A-DC10	A-DC11	A-DC12	A-DC13	A-DC14	A-DC15	A-DC16	A-Ph1	A-Ph2	A-Ph3	A-Ph4	A-Ph5	A-Ph6	A-Ph7	A-Ph8	A-Ph9	A-Ph10	A-Ph11	A-Ph12	A-Ph13	A-Ph14	A-Ph15	A-Ph16	

Term	0.00000e+00	0.00000e+00	0.00000e+00	0.00000e+00	0.00000e+00	0.00000e+00	0.00000e+00	0.00000e+00	0.00000e+00	0.00000e+00	0.00000e+00	0.00000e+00	0.00000e+00	0.00000e+00	0.00000e+00	0.00000e+00	0.00000e+00	0.00000e+00	0.00000e+00	0.00000e+00	0.00000e+00	0.00000e+00	0.00000e+00	0.00000e+00	0.00000e+00	0.00000e+00	0.00000e+00	0.00000e+00	0.00000e+00	0.00000e+00	0.00000e+00	0.00000e+00	0.00000e+00	0.00000e+00	0.00000e+00	0.00000e+00	0.00000e+00	0.00000e+00	0.00000e+00	0.00000e+00	0.00000e+00	0.00000e+00	0.00000e+00	0.00000e+00	0.00000e+00	0.00000e+00	0.00000e+00	0.00000e+00	
Factor	1.00000e+00	1.00000e+00	1.00000e+00	1.00000e+00	1.00000e+00	1.00000e+00	1.00000e+00	1.00000e+00	1.00000e+00	1.00000e+00	1.00000e+00	1.00000e+00	1.00000e+00	1.00000e+00	1.00000e+00	1.00000e+00	1.00000e+00	1.00000e+00	1.00000e+00	1.00000e+00	1.00000e+00	1.00000e+00	1.00000e+00	1.00000e+00	1.00000e+00	1.00000e+00	1.00000e+00	1.00000e+00	1.00000e+00	1.00000e+00	1.00000e+00	1.00000e+00	X	X	X	X	X	X	X	X	X	X	X	X	X	X	X	X	

B = Detector Channel
Val Type	B-AC1	B-AC2	B-AC3	B-AC4	B-AC5	B-AC6	B-AC7	B-AC8	B-AC9	B-AC10	B-AC11	B-AC12	B-AC13	B-AC14	B-AC15	B-AC16	B-DC1	B-DC2	B-DC3	B-DC4	B-DC5	B-DC6	B-DC7	B-DC8	B-DC9	B-DC10	B-DC11	B-DC12	B-DC13	B-DC14	B-DC15	B-DC16	B-Ph1	B-Ph2	B-Ph3	B-Ph4	B-Ph5	B-Ph6	B-Ph7	B-Ph8	B-Ph9	B-Ph10	B-Ph11	B-Ph12	B-Ph13	B-Ph14	B-Ph15	B-Ph16	

Term	0.00000e+00	0.00000e+00	0.00000e+00	0.00000e+00	0.00000e+00	0.00000e+00	0.00000e+00	0.00000e+00	0.00000e+00	0.00000e+00	0.00000e+00	0.00000e+00	0.00000e+00	0.00000e+00	0.00000e+00	0.00000e+00	0.00000e+00	0.00000e+00	0.00000e+00	0.00000e+00	0.00000e+00	0.00000e+00	0.00000e+00	0.00000e+00	0.00000e+00	0.00000e+00	0.00000e+00	0.00000e+00	0.00000e+00	0.00000e+00	0.00000e+00	0.00000e+00	-3.63263e+01	-1.44616e+02	-1.36455e+02	-1.83436e+02	-6.47196e+01	-8.14628e+01	-1.60695e+02	-1.62015e+02	-4.27404e+01	-5.87643e+01	-1.72707e+02	-1.72386e+02	-1.83401e+02	-1.78286e+02	-6.56670e+01	-1.51169e+02	
Factor	2.16242e-05	1.40199e-04	3.24853e-05	1.48686e-01	1.47159e-06	1.31807e-06	1.62454e-01	5.10240e-02	1.11014e-06	1.35182e-06	7.91605e-02	2.65441e-02	2.35584e-02	8.15133e-03	1.44641e-06	1.17866e-02	2.30442e-06	2.49268e-06	6.93736e-07	7.79555e-02	2.69482e-08	2.73278e-08	7.97935e-02	2.67642e-02	2.70149e-08	2.74240e-08	4.00788e-02	1.34491e-02	1.24290e-02	4.29815e-03	2.72636e-08	5.99323e-03	X	X	X	X	X	X	X	X	X	X	X	X	X	X	X	X	



#DISTANCE SETTINGS
A = Detector Channel
A-1	A-2	A-3	A-4	A-5	A-6	A-7	A-8	A-9	A-10	A-11	A-12	A-13	A-14	A-15	A-16	

2.5000e+00	3.0000e+00	2.5000e+00	3.0000e+00	2.0000e+00	3.0000e+00	1.5000e+00	3.0000e+00	3.0000e+00	3.0000e+00	3.0000e+00	3.0000e+00	3.0000e+00	3.0000e+00	1.5000e+00	3.0000e+00	

B = Detector Channel
B-1	B-2	B-3	B-4	B-5	B-6	B-7	B-8	B-9	B-10	B-11	B-12	B-13	B-14	B-15	B-16	

1.0000e+01	1.0000e+01	1.0000e+01	1.4400e+00	1.0000e+01	1.0000e+01	1.5100e+00	1.9400e+00	1.0000e+01	1.0000e+01	1.9900e+00	2.4900e+00	2.4100e+00	2.9000e+00	1.0000e+01	2.9800e+00	




#DATA BEGINS
time	group	step	mark	flag	A-AC1	A-AC2	A-AC3	A-AC4	A-AC5	A-AC6	A-AC7	A-AC8	A-AC9	A-AC10	A-AC11	A-AC12	A-AC13	A-AC14	A-AC15	A-AC16	A-DC1	A-DC2	A-DC3	A-DC4	A-DC5	A-DC6	A-DC7	A-DC8	A-DC9	A-DC10	A-DC11	A-DC12	A-DC13	A-DC14	A-DC15	A-DC16	A-Ph1	A-Ph2	A-Ph3	A-Ph4	A-Ph5	A-Ph6	A-Ph7	A-Ph8	A-Ph9	A-Ph10	A-Ph11	A-Ph12	A-Ph13	A-Ph14	A-Ph15	A-Ph16	B-AC1	B-AC2	B-AC3	B-AC4	B-AC5	B-AC6	B-AC7	B-AC8	B-AC9	B-AC10	B-AC11	B-AC12	B-AC13	B-AC14	B-AC15	B-AC16	B-DC1	B-DC2	B-DC3	B-DC4	B-DC5	B-DC6	B-DC7	B-DC8	B-DC9	B-DC10	B-DC11	B-DC12	B-DC13	B-DC14	B-DC15	B-DC16	B-Ph1	B-Ph2	B-Ph3	B-Ph4	B-Ph5	B-Ph6	B-Ph7	B-Ph8	B-Ph9	B-Ph10	B-Ph11	B-Ph12	B-Ph13	B-Ph14	B-Ph15	B-Ph16	aux-1	digaux	

1726.652	1	1	0	256	0.12979	0.13873	0.16249	0.39138	0.20882	0.24511	0.074031	0.1605	0.21225	0.26481	0.062939	0.25172	0.11814	0.55003	0.054002	0.049225	-2.2458	-2.3167	-2.3583	-2.7583	-2.1146	-2.5625	-2.8312	-2.4688	-2.6125	-2.3	-2.4562	-2.5271	-2.2229	-2.7	-2.5	-2.2875	-70.609	-21.943	-20.371	222.001	190.112	-48.246	172.148	-45.506	184.711	220.103	228.425	191.998	160.906	159.806	-43.484	-38.514	9.8447e-05	0.00012991	7.5792e-05	1097	2.8985e-06	3.6077e-06	1192.1	229.62	9.1125e-07	2.8084e-06	290.13	80.952	61.48	19.291	2.2616e-06	26.762	0.00015426	0.00015149	3.992e-05	1070.5	1.6552e-06	1.5988e-06	1162.5	225.79	1.6331e-06	1.6134e-06	284.58	80.908	61.275	19.209	1.6043e-06	26.667	-62.061	232.658	-14.948	-90.194	109.457	25.608	-89.821	-82.712	38.567	35.890	-83.082	-75.739	-75.950	-68.729	-13.404	-69.317	-8191	255	
1726.773	1	1	0	0	0.1468	0.11684	0.17732	0.15652	0.23397	0.33961	0.36466	0.092533	0.18703	0.080766	0.20842	0.29665	0.26632	0.31988	0.097177	0.26449	-2.3521	-2.4562	-2.3729	-2.7104	-2.2896	-2.7292	-2.7479	-2.3604	-2.6312	-2.2833	-2.6708	-2.9062	-2.3083	-2.5958	-2.5958	-2.3958	174.692	-2.895	98.192	257.206	215.444	-13.295	172.623	-27.006	-37.565	155.331	-8.625	-91.802	-94.788	-81.578	52.009	138.787	9.4745e-05	0.00014257	0.00010142	1096	3.5115e-06	2.6861e-06	1195.9	228.12	1.7624e-06	3.7536e-06	290.51	81.499	61.654	19.315	2.562e-06	26.719	0.00014677	0.00014299	4.0422e-05	1070.7	1.6058e-06	1.6088e-06	1164.3	225.1	1.6432e-06	1.586e-06	284.65	80.955	61.409	19.248	1.5731e-06	26.682	-52.175	-24.143	-21.795	-89.895	18.912	9.478	-89.876	-82.635	34.217	44.246	-82.920	-75.978	-75.752	-68.831	50.819	-69.516	-8191	255	
1726.869	1	1	0	0	0.15952	0.053348	0.10966	0.48117	0.20698	0.17241	0.41012	0.053753	0.17453	0.045019	0.19219	0.056028	0.07966	0.1534	0.12953	0.22814	-2.1854	-2.5	-2.4146	-2.8875	-2.4229	-2.675	-2.8979	-2.4896	-2.8458	-2.4208	-2.275	-2.8021	-2.4938	-2.5167	-2.5104	-2.2687	143.352	25.883	-96.852	226.713	-6.581	-62.463	222.208	173.883	-3.260	29.808	211.120	183.149	-33.967	-50.130	191.809	-73.572	9.9105e-05	0.00033789	2.6585e-05	1096.1	2.0713e-06	3.8413e-07	1187.8	228.25	2.566e-06	2.2538e-06	289.26	81.259	61.441	19.217	1.0373e-06	26.736	0.00015147	0.00014115	4.0748e-05	1068.9	1.6435e-06	1.5854e-06	1159.5	225.76	1.6296e-06	1.5979e-06	285.02	80.999	61.303	19.243	1.6058e-06	26.687	-73.119	7.588	259.280	-90.342	146.110	-70.473	-89.907	-82.143	103.272	24.100	-83.022	-75.755	-75.732	-68.581	44.577	-69.519	-8191	255	
1726.965	1	1	0	0	0.13435	0.19079	0.19647	0.3121	0.37094	0.048969	0.26336	0.18694	0.20418	0.13302	0.31079	0.26491	0.12769	0.16106	0.056617	0.15045	-2.4354	-2.5521	-2.4396	-2.8979	-2.4792	-2.4708	-2.8292	-2.1167	-2.6	-2.4938	-2.4375	-2.7438	-2.4437	-2.5042	-2.5583	-2.2896	7.600	82.269	174.662	241.541	-34.123	172.277	193.560	211.175	10.454	91.126	210.740	204.550	102.374	249.956	38.194	135.053	9.1465e-05	0.00020146	0.00011782	1095.7	1.7669e-06	4.8556e-06	1190.3	229.14	3.4825e-06	4.362e-06	289.62	81.447	61.959	19.327	5.5216e-06	26.669	0.00014892	0.00014171	4.0636e-05	1070.7	1.6176e-06	1.56e-06	1162.5	226.22	1.5937e-06	1.6348e-06	285.33	81.218	61.432	19.296	1.6326e-06	26.64	-72.175	-38.686	-30.109	-90.265	256.510	58.890	-89.845	-82.615	5.400	86.029	-83.182	-75.867	-75.866	-69.597	31.609	-69.179	-8191	255	
1727.061	1	1	0	0	0.15557	0.17091	0.23283	0.48929	0.058578	0.25027	0.19304	0.044386	0.22472	0.089436	0.14412	0.22798	0.17699	0.17336	0.43685	0.061931	-2.0979	-2.5292	-2.2417	-2.7875	-2.3563	-2.4521	-2.7854	-2.3583	-2.5229	-2.7604	-2.3042	-2.7896	-2.4375	-2.3354	-2.675	-2.2729	68.652	238.320	179.739	155.332	165.957	-40.999	214.279	133.784	204.136	98.476	231.791	233.185	177.551	-82.089	-15.688	-28.063	8.3479e-05	0.00012974	7.4902e-05	1094.6	3.9054e-06	3.127e-06	1187.8	230.5	3.0023e-06	4.5971e-06	291.17	81.503	61.889	19.326	2.9065e-06	26.975	0.0001516	0.00014856	4.1218e-05	1069.6	1.7183e-06	1.6415e-06	1161.1	226.49	1.7606e-06	1.6709e-06	285.54	81.163	61.468	19.366	1.722e-06	26.867	-96.709	-22.642	-31.996	-90.045	34.764	-18.178	-89.981	-82.585	44.518	42.782	-83.227	-76.090	-75.843	-68.784	69.370	-69.575	-8191	255	
1727.133	1	1	0	0	0.30466	0.14756	0.22589	0.2036	0.19542	0.1066	0.35553	0.12124	0.22557	0.16808	0.11958	0.15097	0.15885	0.10031	0.28245	0.12329	-2.1063	-2.5125	-2.1708	-2.8667	-2.4708	-2.5396	-3.0333	-2.4917	-2.5271	-2.7271	-2.3021	-2.6562	-2.5292	-2.3812	-2.8854	-2.3854	187.630	36.090	57.529	-86.393	70.334	-19.165	199.015	190.749	122.755	74.917	162.837	-24.770	176.922	-64.446	112.816	196.980	0.00012042	0.0002818	6.6789e-05	1102.8	1.3583e-06	5.5967e-06	1191.3	229.76	1.4177e-06	1.1932e-06	293.34	81.518	61.856	19.318	2.7449e-06	26.907	0.00016221	0.00015935	4.459e-05	1077	1.7468e-06	1.7373e-06	1168	227.51	1.7756e-06	1.69e-06	286.86	81.507	61.696	19.414	1.745e-06	26.86	-67.843	-32.399	-11.928	-90.030	29.267	12.730	-89.797	-82.554	92.272	76.958	-82.850	-75.824	-75.549	-69.122	49.846	-69.449	-8191	255	
1727.253	1	1	0	0	0.299	0.13328	0.105	0.17913	0.18742	0.030827	0.14652	0.2058	0.23719	0.21988	0.15253	0.07916	0.094037	0.19179	0.13158	0.10621	-2.0229	-2.575	-2.2521	-2.8583	-2.5708	-2.3625	-3.0958	-2.5208	-2.5583	-2.6479	-2.4208	-2.7396	-2.675	-2.4542	-2.7042	-2.3792	179.082	94.794	77.506	137.223	213.145	208.635	185.003	181.691	221.658	246.800	158.175	85.838	254.811	-67.164	211.117	86.909	0.00010211	0.00038709	0.00012389	1103.4	3.454e-06	3.7627e-06	1199.9	232.92	1.9235e-06	2.08e-06	293.35	81.584	62.135	19.329	2.4997e-06	27.279	0.00016351	0.00016377	4.5362e-05	1078.7	1.8125e-06	1.7761e-06	1171.3	229.09	1.7998e-06	1.7876e-06	287.76	81.698	62.043	19.469	1.8117e-06	27.052	-76.480	-18.348	-40.642	-90.242	37.537	70.570	-89.862	-82.586	143.451	49.810	-82.989	-75.923	-75.690	-68.733	36.214	-69.638	-8191	255	
1727.349	1	1	0	0	0.33503	0.15472	0.027059	0.24396	0.20036	0.059717	0.014993	0.19271	0.13767	0.27509	0.21783	0.13274	0.21953	0.17303	0.27873	0.16016	-1.8125	-2.7896	-2.3396	-2.4979	-2.4354	-2.2521	-2.8729	-2.6333	-2.35	-2.7292	-2.3229	-2.5062	-2.6729	-2.2917	-2.6	-2.4708	-71.903	178.601	250.499	-96.828	176.639	252.803	-25.757	165.992	0.241	249.688	151.878	-57.128	-91.520	163.199	91.293	144.902	0.00017026	0.00016994	8.9888e-05	1114.5	4.0117e-06	2.9217e-06	1203.2	234.15	1.4124e-06	2.8587e-06	295	82.364	62.851	19.427	3.1441e-06	26.975	0.00017371	0.00016104	4.6373e-05	1084.9	1.8091e-06	1.848e-06	1173.7	229.96	1.8328e-06	1.8056e-06	288.86	81.922	62.396	19.522	1.8159e-06	27.007	-77.230	-80.416	-9.811	-90.037	31.470	69.293	-89.947	-82.305	36.557	88.807	-82.740	-75.868	-76.211	-68.827	50.423	-69.275	-8191	255	
1727.446	1	1	0	0	0.25025	0.20603	0.1662	0.42783	0.21605	0.15634	0.22373	0.13276	0.19647	0.098817	0.36729	0.10602	0.18207	0.20547	0.24488	0.17718	-1.8542	-2.775	-2.4167	-2.6896	-2.5417	-2.4437	-2.7562	-2.4917	-2.2687	-2.8167	-2.3854	-2.4875	-2.8958	-2.2104	-2.5042	-2.6104	-94.415	-22.171	65.769	219.388	-69.968	140.342	254.734	104.075	-4.109	134.330	194.321	145.336	186.754	-11.664	200.475	196.298	7.9563e-05	0.00043811	8.0439e-05	1111.9	1.6186e-06	4.6919e-06	1202.7	234.65	1.0267e-06	3.8261e-06	295.48	83.053	62.612	19.578	5.3119e-06	27.049	0.00016789	0.00016671	4.4805e-05	1084.4	1.8143e-06	1.8108e-06	1175.1	230.57	1.85e-06	1.7653e-06	289.32	82.325	62.332	19.532	1.8202e-06	27.013	-71.366	-13.938	-14.298	-89.846	104.465	20.393	-89.661	-82.716	81.737	42.283	-83.067	-76.149	-75.794	-68.747	42.020	-69.192	-8191	255	
1727.566	1	1	0	0	0.14885	0.080808	0.038306	0.19006	0.14281	0.31527	0.22953	0.43908	0.065566	0.16342	0.07752	0.14266	0.12665	0.19041	0.07957	0.19781	-1.6812	-2.6604	-2.4229	-2.55	-2.7958	-2.225	-2.775	-2.5812	-2.3063	-2.6229	-2.5979	-2.4042	-2.7583	-2.1833	-2.4875	-2.6146	215.884	-82.026	107.067	225.355	138.181	89.758	181.176	198.883	-67.073	70.124	52.606	241.154	5.020	38.945	-69.095	201.778	0.00010652	0.00017313	8.4488e-05	1109.3	3.3656e-06	3.0963e-06	1203.6	233.95	2.7452e-06	2.4154e-06	295.38	82.695	62.859	19.546	3.4988e-06	27.051	0.00016655	0.00016343	4.5927e-05	1083	1.8257e-06	1.8147e-06	1176.5	230.88	1.8237e-06	1.8268e-06	289.36	82.216	62.516	19.644	1.8008e-06	27.033	-77.885	-29.683	0.089	-90.109	68.863	27.329	-89.970	-82.531	-43.801	42.639	-83.011	-75.822	-75.575	-68.526	22.722	-69.793	-8191	255	
1727.661	1	1	0	0	0.13092	0.13448	0.15658	0.068811	0.077411	0.14537	0.17351	0.096208	0.22664	0.22749	0.11589	0.15063	0.054611	0.14959	0.12126	0.16104	-1.9229	-2.5958	-2.5187	-2.4062	-2.7625	-2.225	-2.7188	-2.6458	-2.3292	-2.7687	-2.6958	-2.2771	-2.7208	-2.35	-2.7458	-2.8229	-28.730	-11.354	245.383	182.844	233.105	128.671	122.348	187.860	-76.569	81.355	122.428	-19.871	54.726	143.527	177.957	164.557	0.00011498	0.0002721	0.00016632	1115.2	1.6082e-06	4.2216e-06	1209	235.79	3.2274e-06	1.7475e-06	296.98	83.122	63.279	19.632	1.0937e-06	26.951	0.00017415	0.00016255	4.6691e-05	1088.5	1.8532e-06	1.8435e-06	1181.2	231.91	1.8691e-06	1.8317e-06	291.37	82.677	62.627	19.698	1.8863e-06	27.128	-70.812	-6.962	8.755	-90.183	65.217	18.598	-89.951	-82.831	71.966	35.302	-82.799	-76.118	-75.963	-69.107	-37.469	-69.022	-8191	255	
1727.757	1	1	0	0	0.15762	0.24749	0.077436	0.35401	0.12528	0.21606	0.30521	0.13232	0.4718	0.13855	0.3083	0.2866	0.038502	0.13214	0.36734	0.36033	-1.9604	-2.7229	-2.5375	-2.5563	-2.8271	-2.4958	-2.5583	-2.85	-2.2521	-2.5458	-2.4708	-2.3625	-2.7708	-2.5958	-2.4562	-2.8979	223.540	211.809	99.737	215.415	66.331	51.627	180.598	-17.296	-48.133	251.964	221.444	121.889	122.016	239.803	216.916	-0.511	0.00013111	0.00012043	5.7987e-05	1125.3	7.6389e-07	1.958e-06	1211.5	236.2	2.2861e-06	1.6016e-06	298.14	83.418	63.438	19.692	4.1444e-06	27.169	0.00017851	0.00017226	4.6723e-05	1095.6	1.9103e-06	1.8627e-06	1185.9	233.19	1.8997e-06	1.8789e-06	292.44	82.792	62.876	19.715	1.9953e-06	27.193	-86.633	246.156	-67.416	-90.168	259.053	42.832	-89.901	-82.869	119.701	8.059	-83.135	-76.005	-75.803	-69.206	3.586	-69.890	-8191	255	
1727.853	1	1	0	0	0.12906	0.090883	0.14844	0.13748	0.20834	0.13606	0.18798	0.20389	0.18365	0.17378	0.067865	0.27425	0.22159	0.17314	0.16355	0.093116	-1.8625	-2.5375	-2.5021	-2.2604	-2.8354	-2.3438	-2.5083	-2.8292	-2.3229	-2.5187	-2.6479	-2.2479	-2.725	-2.5792	-2.1708	-2.8854	102.115	-54.486	-52.532	-87.602	-22.519	-98.615	213.081	151.524	258.721	-53.402	-86.070	-35.602	-48.216	239.716	58.206	210.971	0.00010412	0.00034399	0.00010121	1126.6	1.218e-06	5.5811e-06	1221.2	238.02	1.6394e-06	4.9163e-06	299.76	83.692	63.561	19.886	2.5057e-06	27.344	0.00017648	0.000187	5.1678e-05	1096.5	2.069e-06	2.0758e-06	1191.9	234.36	2.1096e-06	2.1106e-06	294.24	83.34	63.319	20.013	2.2517e-06	27.432	-71.932	-75.079	-55.020	-90.186	163.680	47.970	-89.898	-82.646	51.027	104.847	-83.269	-76.022	-75.929	-69.426	76.348	-70.103	-8191	255	
1727.949	1	1	0	0	0.17141	0.13188	0.10884	0.16401	0.11343	0.50186	0.27656	0.11547	0.17034	0.1956	0.28281	0.058948	0.21116	0.24995	0.29356	0.082669	-1.7104	-2.5	-2.5875	-2.3146	-2.55	-2.5833	-2.4667	-2.8125	-2.3146	-2.4875	-2.6562	-2.2667	-2.5563	-2.4458	-2.1354	-2.7417	-42.563	-37.313	-78.779	-56.485	116.488	176.125	194.343	148.889	121.113	-24.052	-80.876	127.145	-58.211	185.431	89.818	34.996	5.5152e-05	0.00026801	3.9987e-05	1129.6	2.4803e-06	3.5352e-06	1227.5	240.98	1.3476e-06	2.6539e-06	302.41	83.518	63.676	19.959	3.5207e-06	27.633	0.00020313	0.00019968	5.6427e-05	1104.9	2.2517e-06	2.2609e-06	1198.9	237.34	2.2392e-06	2.3012e-06	296.77	83.541	63.737	20.186	2.3288e-06	27.682	-60.582	-64.896	-22.583	-90.321	218.830	17.537	-89.947	-82.521	92.519	56.551	-83.197	-76.297	-75.861	-69.565	66.984	-69.955	-8191	255	
1728.045	1	1	0	0	0.065999	0.16206	0.14436	0.29542	0.49856	0.15694	0.0899	0.072188	0.15144	0.10499	0.11843	0.4254	0.083056	0.13999	0.052283	0.21773	-1.9	-2.5479	-2.5187	-2.4208	-2.6729	-2.4792	-2.4896	-2.8563	-2.3812	-2.4562	-2.7896	-2.3771	-2.7146	-2.6937	-2.4104	-2.8688	240.520	-19.026	69.146	253.440	-95.432	88.466	153.065	238.382	54.554	190.387	220.398	-32.102	-37.313	18.426	101.334	186.807	0.0001288	0.00026771	6.9101e-05	1134.2	3.1955e-06	4.5033e-06	1230.5	242.54	4.7203e-06	1.141e-06	302.52	84.09	64.495	20.218	3.2664e-06	27.502	0.00021415	0.00021612	6.0365e-05	1108.7	2.4482e-06	2.437e-06	1201.7	238.99	2.4779e-06	2.4466e-06	297.28	84.163	64.224	20.26	2.5787e-06	27.735	-70.802	-50.824	-52.747	-90.179	22.901	29.479	-89.966	-82.851	31.090	-18.485	-83.084	-76.006	-76.557	-69.278	54.820	-69.590	-8191	255	
1728.166	1	1	0	0	0.10844	0.40068	0.073417	0.431	0.10222	0.20916	0.2398	0.22738	0.24732	0.22782	0.203	0.22464	0.1199	0.24233	0.14188	0.18745	-2.0917	-2.3729	-2.7292	-2.4104	-2.5375	-2.7854	-2.3271	-2.7875	-2.4208	-2.3729	-2.8646	-2.3167	-2.6396	-2.525	-2.1021	-2.6417	213.242	47.942	85.288	238.162	210.573	-96.113	181.322	174.378	223.256	27.561	150.834	244.010	239.786	-85.263	16.582	166.702	0.00014094	0.00030265	0.00010583	1134.7	7.4787e-07	3.1313e-06	1235	242.07	6.3821e-06	3.5972e-06	303.1	84.222	64.075	20.026	3.493e-06	27.372	0.0002268	0.000233	6.3235e-05	1110.7	2.5274e-06	2.5228e-06	1205.7	239.04	2.5242e-06	2.5033e-06	297.3	84.157	64.08	20.257	2.4914e-06	27.658	-79.231	-35.877	-23.445	-90.488	160.775	49.212	-89.848	-82.854	34.472	40.112	-83.164	-76.089	-76.124	-69.706	-4.007	-69.897	-8191	255	
1728.262	1	1	0	0	0.23999	0.10413	0.22824	0.1589	0.12296	0.12245	0.388	0.30648	0.1628	0.083073	0.17066	0.24909	0.27014	0.13777	0.16659	0.098476	-1.8708	-2.2771	-2.7104	-2.4854	-2.4688	-2.7125	-2.2958	-2.5521	-2.5208	-2.4771	-2.7625	-2.4562	-2.5667	-2.7271	-2.2667	-2.6292	37.226	155.532	19.135	211.053	-78.905	56.316	200.285	212.689	-67.566	32.942	187.837	219.498	-66.882	151.046	33.958	-97.719	0.00015892	0.00046544	9.4348e-05	1137.7	7.6602e-07	2.3111e-06	1231.6	241.43	2.2559e-06	1.2358e-07	303.81	84.473	63.997	20.13	1.8951e-06	27.325	0.00022935	0.00022533	6.1461e-05	1112.7	2.496e-06	2.4523e-06	1203.2	238.41	2.436e-06	2.3903e-06	297.08	83.867	63.91	20.175	2.353e-06	27.613	-72.137	-10.323	-17.700	-90.328	64.563	80.610	-90.097	-82.993	60.073	189.212	-83.150	-76.487	-76.266	-69.311	-10.337	-69.659	-8191	255	
1728.358	1	1	0	0	0.20985	0.17361	0.3599	0.18865	0.085947	0.31754	0.38968	0.15458	0.17907	0.068679	0.22809	0.091773	0.061986	0.22658	0.085952	0.17894	-2	-2.275	-2.575	-2.5667	-2.2771	-2.7542	-2.4083	-2.6521	-2.4854	-2.4354	-2.8604	-2.6312	-2.3958	-2.6375	-2.3104	-2.5458	119.551	132.706	-60.571	144.791	181.133	130.182	219.050	147.784	121.192	-64.657	-96.342	240.164	-11.406	41.551	221.003	157.831	8.3868e-05	0.00066203	7.8147e-05	1141.1	1.3105e-06	8.6697e-07	1228.9	241.07	1.5741e-06	1.7861e-06	300.95	83.814	64.108	19.956	6.8188e-06	27.589	0.00021526	0.00021488	5.8944e-05	1112.1	2.3877e-06	2.297e-06	1202.4	238.12	2.3744e-06	2.3829e-06	296	83.669	63.856	20.09	2.3861e-06	27.624	-61.933	-7.468	-1.057	-90.281	120.996	214.383	-89.945	-82.738	13.930	120.481	-82.986	-76.424	-76.308	-69.348	37.806	-69.509	-8191	255	
1728.430	1	1	0	0	0.18804	0.29751	0.09095	0.10252	0.12324	0.091167	0.20768	0.041617	0.14535	0.21378	0.072954	0.1685	0.34062	0.1527	0.178	0.31532	-2.175	-2.3708	-2.675	-2.6458	-2.3042	-2.7917	-2.45	-2.6271	-2.5458	-2.1937	-2.7229	-2.5729	-2.3187	-2.7625	-2.3187	-2.5687	7.626	43.678	211.376	167.838	43.649	20.998	234.846	-61.168	-40.080	110.542	97.225	-73.869	247.640	220.772	-89.157	214.930	0.00010617	0.00026171	9.1291e-05	1134.8	1.3589e-06	5.4342e-06	1231.8	240.89	3.2272e-06	2.6627e-06	301.19	84.228	63.787	19.835	1.58e-06	27.404	0.00021474	0.00021784	5.8456e-05	1109.6	2.3841e-06	2.2974e-06	1203.5	237.82	2.3832e-06	2.3526e-06	295.76	83.811	63.704	20.067	2.4085e-06	27.606	-65.555	-43.377	6.168	-90.232	26.545	32.189	-90.142	-82.908	68.898	98.699	-82.800	-76.217	-76.153	-69.388	76.929	-69.578	-8191	255	
1728.549	1	1	0	0	0.10921	0.22705	0.14591	0.10261	0.3455	0.12936	0.13409	0.31926	0.13522	0.18119	0.1273	0.024832	0.19862	0.21546	0.26035	0.11606	-2.2396	-2.2521	-2.8229	-2.7292	-2.3187	-2.85	-2.5417	-2.5104	-2.8208	-2.1833	-2.7313	-2.3875	-2.3521	-2.8854	-2.2708	-2.4104	-4.860	205.598	140.054	99.234	222.344	172.269	252.667	177.515	19.892	-34.428	214.034	150.688	-34.716	163.155	170.311	5.316	8.5988e-05	0.00035348	6.3216e-05	1135.9	3.603e-06	5.22e-06	1229.5	240.92	2.9936e-06	3.8773e-06	299.35	83.517	63.959	19.867	5.8142e-06	27.305	0.0002173	0.00022166	6.3527e-05	1110.2	2.4799e-06	2.4247e-06	1201.4	237.45	2.5242e-06	2.4846e-06	295.31	83.505	63.663	20.03	2.416e-06	27.528	-82.716	-54.348	-38.302	-90.314	19.426	27.194	-90.012	-82.946	101.790	81.259	-83.025	-76.012	-76.027	-69.461	59.271	-69.673	-8191	255	
1728.645	1	1	0	0	0.10888	0.37774	0.26667	0.10892	0.19015	0.26762	0.051018	0.30381	0.19575	0.12529	0.25066	0.033135	0.13287	0.04555	0.16678	0.25085	-2.1625	-2.0563	-2.5896	-2.7687	-2.3312	-2.6771	-2.7771	-2.3417	-2.6458	-2.4417	-2.6604	-2.7042	-2.35	-2.7708	-2.25	-2.4375	4.925	96.489	202.300	171.041	130.683	-34.878	200.410	206.708	-73.769	150.483	218.493	102.144	-78.087	189.355	61.527	132.755	0.00011604	0.00032411	9.0759e-05	1138.5	2.7413e-06	1.0174e-06	1228.3	239.51	2.5213e-06	2.305e-06	299.59	83.218	63.366	19.808	3.0899e-06	27.311	0.00021965	0.00022661	6.2183e-05	1110.6	2.4492e-06	2.378e-06	1200.5	236.79	2.4913e-06	2.3475e-06	295.58	83.321	63.526	19.965	2.3663e-06	27.47	-92.181	16.422	23.087	-90.096	138.681	-13.085	-90.049	-82.912	23.826	35.578	-82.900	-76.038	-76.183	-69.112	98.021	-69.430	-8191	255	
1728.741	1	1	0	0	0.16097	0.12382	0.21223	0.21317	0.13338	0.22224	0.20636	0.20408	0.26206	0.15238	0.15362	0.30111	0.1231	0.066948	0.24213	0.091051	-2.2771	-2.2313	-2.4021	-2.7667	-2.1229	-2.575	-2.6458	-2.3979	-2.95	-2.4313	-2.5479	-2.7396	-2.2458	-2.5167	-2.35	-2.4021	30.412	34.807	15.190	84.625	-44.007	-92.176	183.404	226.948	77.764	141.228	245.240	174.122	-72.275	42.118	104.898	-5.379	0.00013913	0.00037584	8.0923e-05	1136.4	2.9313e-06	5.0723e-06	1226.7	240.25	1.167e-06	4.6578e-07	300.1	83.663	63.443	19.819	2.714e-06	27.109	0.00021859	0.00021785	6.0355e-05	1109.7	2.4578e-06	2.2988e-06	1200.4	237.2	2.3193e-06	2.3565e-06	294.9	83.292	63.463	19.981	2.3976e-06	27.388	-76.165	-15.977	-76.930	-90.154	80.709	34.993	-89.835	-82.897	37.680	231.896	-83.015	-76.171	-76.010	-69.393	25.612	-69.617	-8191	255	
1728.837	1	1	0	0	0.06992	0.20497	0.030164	0.1581	0.052097	0.1164	0.033935	0.14903	0.36675	0.19306	0.28395	0.060242	0.21957	0.13076	0.13327	0.14159	-2.3646	-2.2812	-2.4625	-2.8708	-2.2583	-2.6417	-2.6	-2.1604	-2.7458	-2.3021	-2.4792	-2.8271	-2.0708	-2.625	-2.5229	-2.2271	-37.622	154.544	4.160	118.323	48.661	-52.425	132.792	-61.030	153.453	87.500	142.434	148.871	-81.244	-100.611	173.150	-85.336	5.3307e-05	0.00010984	5.8766e-05	1138.3	1.5828e-06	3.3271e-06	1226.5	240.07	8.093e-07	3.4017e-06	301.49	82.95	63.686	19.834	1.7745e-06	27.179	0.00021554	0.00021351	6.0443e-05	1110.8	2.3617e-06	2.3183e-06	1199.5	236.51	2.3406e-06	2.3988e-06	295.06	83.374	63.384	19.926	2.3309e-06	27.356	258.661	-1.918	7.720	-90.159	28.670	-8.988	-90.033	-82.956	-67.584	73.130	-83.381	-75.932	-76.009	-68.869	-17.166	-69.681	-8191	255	
1728.958	1	1	0	0	0.25441	0.077987	0.16025	0.4394	0.22293	0.15357	0.10298	0.21747	0.1727	0.094666	0.23364	0.36792	0.17657	0.22366	0.24519	0.17252	-2.2875	-2.4208	-2.525	-2.8833	-2.2938	-2.6979	-2.9542	-2.3208	-2.8896	-2.3604	-2.4521	-2.8396	-2.3646	-2.6063	-2.6708	-2.2854	-69.689	-6.603	178.250	240.514	175.583	240.742	227.693	254.956	58.838	-100.258	95.255	195.418	48.163	197.727	-21.884	-38.733	9.895e-05	0.0003514	0.00013727	1135.8	1.8383e-06	2.8071e-06	1228.8	239.77	8.8462e-07	4.1014e-06	299.1	83.237	63.527	19.7	2.2622e-06	27.258	0.00021286	0.00021024	5.8157e-05	1109.7	2.3125e-06	2.3435e-06	1199	236.29	2.3493e-06	2.3037e-06	293.83	83.256	63.231	19.887	2.3204e-06	27.303	-37.522	-71.681	-14.547	-90.244	168.900	35.740	-90.000	-82.967	-100.141	87.996	-82.936	-75.780	-75.962	-69.668	101.706	-69.682	-8191	255	
1729.054	1	1	0	0	0.080834	0.12131	0.35881	0.17091	0.05582	0.21309	0.2304	0.24673	0.20249	0.36423	0.1499	0.24663	0.04664	0.4026	0.091672	0.10987	-2.1625	-2.4396	-2.3	-2.7729	-2.275	-2.4875	-2.8771	-2.3354	-2.675	-2.4854	-2.3125	-2.8771	-2.3458	-2.2792	-2.7396	-2.3688	146.917	57.498	49.135	-81.088	-31.523	-90.523	244.711	202.685	145.942	140.730	230.814	-100.547	65.555	37.067	111.595	197.141	0.00014622	0.00012339	8.7272e-05	1130.8	4.8186e-06	4.6257e-06	1221.1	238.04	1.1311e-06	3.1144e-06	298.43	83.725	63.094	19.636	2.0788e-06	27.115	0.00020764	0.00020908	5.8112e-05	1105.6	2.2333e-06	2.1997e-06	1194.2	235.44	2.2266e-06	2.2135e-06	293.32	82.944	63.052	19.865	2.186e-06	27.29	-74.578	62.872	13.797	-90.364	32.758	35.133	-89.813	-82.952	-49.629	-24.799	-82.918	-76.228	-75.712	-68.793	88.891	-69.006	-8191	255	
1729.126	1	1	0	0	0.255	0.14412	0.14988	0.26381	0.21623	0.2154	0.29355	0.086751	0.12783	0.10301	0.21908	0.2103	0.33965	0.21383	0.17761	0.37868	-2.1354	-2.4042	-2.1354	-2.9667	-2.2417	-2.4104	-2.8854	-2.3854	-2.7292	-2.8167	-2.3625	-2.75	-2.4188	-2.575	-2.6979	-2.1792	96.755	63.395	167.582	230.277	-53.930	-15.933	185.402	18.858	115.127	-76.739	-60.613	216.377	-70.314	245.731	213.495	154.900	0.00013802	0.00026543	7.132e-05	1129.9	1.5838e-06	1.9707e-06	1222.2	237.25	3.5432e-06	4.0535e-06	296.03	82.341	62.875	19.876	4.8926e-06	27.109	0.00020389	0.00019387	5.3922e-05	1102.9	2.0923e-06	2.0512e-06	1191.1	234.55	2.0818e-06	2.0513e-06	291.51	82.465	62.81	19.801	2.0345e-06	27.174	-69.622	2.113	-73.515	-90.280	1.359	153.689	-89.999	-82.711	33.633	76.435	-82.612	-76.001	-76.041	-69.097	39.465	-69.776	-8191	255	
1729.246	1	1	0	0	0.36716	0.02875	0.21685	0.48298	0.27866	0.14261	0.31215	0.038459	0.25704	0.09425	0.064724	0.037306	0.25948	0.25697	0.16789	0.12537	-2.0812	-2.675	-2.1	-2.7875	-2.4813	-2.1708	-2.8604	-2.375	-2.5042	-2.7854	-2.4521	-2.7438	-2.6104	-2.3771	-2.7021	-2.4437	136.344	70.509	242.895	212.897	-74.162	96.723	196.623	229.211	132.249	151.772	-29.062	161.285	200.547	-43.316	116.340	45.012	0.00011084	0.00041612	5.1013e-05	1121.8	5.6419e-07	4.2859e-06	1215	238.14	3.6063e-06	4.6545e-06	297.68	82.734	62.92	19.635	3.0606e-06	27.094	0.00018265	0.00018	4.9261e-05	1096.7	2.0053e-06	1.9711e-06	1187.4	233.65	1.9249e-06	1.8888e-06	291.63	82.413	62.585	19.671	1.8845e-06	27.09	-90.397	-49.124	-69.274	-90.207	106.776	103.396	-89.969	-82.963	28.222	91.329	-83.166	-75.809	-75.869	-69.034	73.004	-69.050	-8191	255	
1729.342	1	1	0	0	0.18199	0.27074	0.020188	0.22301	0.2054	0.22054	0.31797	0.13498	0.12292	0.049748	0.11892	0.14437	0.056008	0.23357	0.072599	0.14681	-2.05	-2.8854	-2.2417	-2.7792	-2.5583	-2.3021	-2.9417	-2.4771	-2.4479	-2.7979	-2.3	-2.4875	-2.5	-2.0208	-2.7396	-2.5062	-40.609	219.676	-12.441	-8.813	77.162	97.706	201.116	237.502	-16.100	120.437	-51.331	215.348	116.037	176.286	228.051	230.702	6.3493e-05	0.00015887	0.00011797	1120.3	8.5832e-06	9.8986e-07	1205.6	235.66	3.5626e-07	2.598e-06	293.71	82.278	62.262	19.472	1.5597e-06	26.952	0.00017893	0.00017264	4.7349e-05	1092.8	1.862e-06	1.8236e-06	1180.7	232	1.8766e-06	1.7815e-06	288.95	81.902	62.149	19.579	1.8381e-06	26.915	251.050	-43.415	21.276	-90.191	59.561	72.772	-89.977	-82.770	116.133	14.787	-83.345	-76.045	-76.095	-69.361	-33.593	-69.441	-8191	255	
1729.439	1	1	0	0	0.19901	0.12474	0.12306	0.19089	0.10868	0.20058	0.090952	0.1992	0.23763	0.14406	0.32841	0.19099	0.13339	0.1191	0.14492	0.14746	-1.8937	-2.6542	-2.1063	-2.8354	-2.6542	-2.3479	-2.7958	-2.5062	-2.3	-2.85	-2.3896	-2.5042	-2.7104	-2.2667	-2.7042	-2.4792	43.990	-37.551	174.791	172.135	-57.882	136.864	257.453	190.736	92.250	81.925	-94.182	210.751	-94.472	92.394	194.469	227.725	9.9006e-05	9.2841e-05	9.3832e-05	1119.1	3.066e-06	2.156e-06	1208.8	235.17	1.7136e-06	3.3484e-06	292.78	82.062	62.495	19.245	4.6845e-06	26.905	0.00017075	0.0001614	4.5989e-05	1091.8	1.8482e-06	1.8356e-06	1178.6	231.56	1.8554e-06	1.744e-06	288.71	81.786	61.939	19.414	1.7521e-06	26.94	-81.247	-46.191	-20.642	-90.131	-19.666	38.421	-89.813	-82.590	70.151	28.762	-83.160	-76.246	-76.016	-68.281	25.863	-69.515	-8191	255	
1729.535	1	1	0	0	0.083284	0.051324	0.054935	0.30914	0.19708	0.13091	0.22455	0.044045	0.081184	0.14466	0.14464	0.36561	0.074491	0.42687	0.11966	0.32488	-1.7417	-2.7	-2.2188	-2.6562	-2.5417	-2.0563	-2.8583	-2.7417	-2.3208	-2.7417	-2.2646	-2.5062	-2.6292	-2.1188	-2.5083	-2.7146	-55.254	61.435	173.657	181.652	-87.917	254.855	205.576	116.864	-87.829	-13.946	159.837	132.434	-23.285	232.242	-16.135	-29.848	9.4786e-05	0.0002785	4.9836e-05	1114.3	2.3208e-06	3.0441e-06	1203.6	232.57	1.229e-06	4.5211e-06	294.9	82.202	62.251	19.306	2.7646e-06	26.805	0.00016865	0.00015984	4.5182e-05	1087.6	1.7466e-06	1.7472e-06	1175.7	230.3	1.7455e-06	1.6758e-06	288.34	81.753	61.803	19.436	1.723e-06	26.786	-60.692	-47.307	-31.205	-90.078	11.272	77.802	-89.720	-82.665	248.341	77.983	-82.813	-75.953	-75.514	-69.089	183.251	-69.378	-8191	255	
1729.654	1	1	0	0	0.24392	0.20214	0.16427	0.19513	0.099762	0.20371	0.30662	0.1173	0.17564	0.21104	0.17357	0.17912	0.19098	0.021812	0.20337	0.099868	-1.9583	-2.6	-2.3354	-2.6229	-2.7271	-2.1104	-2.6854	-2.7167	-2.3	-2.6375	-2.6333	-2.4646	-2.8937	-2.375	-2.3667	-2.6021	221.949	-64.865	-18.456	-76.863	183.036	-53.028	192.184	-68.296	187.574	-79.226	166.407	-54.956	-74.180	205.729	-56.688	199.661	8.5651e-05	0.00040708	6.1055e-05	1116.6	3.5442e-06	1.1257e-06	1203	234.91	1.4909e-06	3.978e-06	294.15	81.528	62.152	19.285	9.2416e-07	26.948	0.00016579	0.00016021	4.2918e-05	1087.9	1.7633e-06	1.7463e-06	1173.9	230.58	1.7723e-06	1.7963e-06	287.8	81.35	61.845	19.415	1.7663e-06	26.913	-79.746	-9.050	-17.523	-90.175	104.772	69.397	-89.938	-82.904	120.031	63.496	-83.063	-76.215	-76.575	-68.894	49.043	-69.156	-8191	255	
1729.725	1	1	0	0	0.098668	0.24618	0.2928	0.034355	0.049473	0.27645	0.33286	0.33722	0.075545	0.086124	0.17965	0.1531	0.32989	0.24048	0.25806	0.095235	-1.8854	-2.8354	-2.3917	-2.5854	-2.8563	-2.3438	-2.7875	-2.7625	-2.3021	-2.6583	-2.4396	-2.2687	-2.7792	-2.3542	-2.4604	-2.7812	89.672	102.108	35.168	121.090	28.719	158.508	197.169	186.592	-7.274	-59.143	187.958	-37.235	-46.586	237.573	191.900	111.927	0.00010427	0.00010609	7.58e-05	1109.5	1.8198e-06	4.0872e-06	1205.3	234.73	7.7944e-07	3.2066e-06	292.42	81.524	62.517	19.22	3.7146e-06	26.661	0.00016451	0.00016207	4.458e-05	1084.5	1.7529e-06	1.7187e-06	1174.3	230.39	1.7933e-06	1.7067e-06	288.36	81.423	62.011	19.399	1.7232e-06	26.785	-85.511	16.899	-20.341	-89.930	15.134	-6.871	-89.899	-82.959	130.955	137.138	-83.010	-75.717	-75.598	-68.994	68.219	-69.238	-8191	255	
1729.846	1	1	0	0	0.095444	0.14739	0.050096	0.14788	0.03081	0.23748	0.25383	0.23581	0.16159	0.13541	0.19509	0.13412	0.14351	0.28477	0.12277	0.16668	-1.7708	-2.6875	-2.4479	-2.4188	-2.5667	-2.2979	-2.5563	-2.7375	-2.2313	-2.5021	-2.7083	-2.4854	-2.9938	-2.3771	-2.5187	-2.75	219.824	-93.896	248.127	188.870	158.576	225.223	187.377	217.763	57.845	52.805	103.666	188.765	113.658	166.294	252.733	237.204	0.00012133	0.00037462	5.9028e-05	1112.1	2.62e-06	3.3189e-06	1198.2	235.46	1.1219e-06	5.0614e-06	292.36	81.417	62.221	19.35	4.2607e-06	26.824	0.00016152	0.00015564	4.389e-05	1084.8	1.7412e-06	1.7174e-06	1172.8	230.58	1.7729e-06	1.7107e-06	287.3	81.522	61.807	19.451	1.7388e-06	26.796	-93.905	-38.710	-9.348	-90.122	84.029	98.745	-90.053	-82.613	68.471	80.670	-82.854	-76.041	-75.817	-68.886	77.605	-69.440	-8191	255	
1729.942	1	1	0	0	0.17042	0.13809	0.13519	0.21611	0.16997	0.2179	0.11964	0.27349	0.28353	0.17336	0.056681	0.2105	0.11374	0.13948	0.085484	0.27904	-1.6167	-2.425	-2.4854	-2.3875	-2.7271	-2.5458	-2.5542	-2.7771	-2.2062	-2.5604	-2.6458	-2.3563	-2.6229	-2.4875	-2.2875	-2.7021	33.204	255.695	85.645	179.342	200.958	49.455	119.521	197.045	144.191	88.177	67.524	-3.039	-26.382	51.544	247.028	-8.847	0.00011152	0.00033656	8.3354e-05	1112.8	2.7735e-06	2.0474e-06	1201	233.3	2.2097e-06	2.1848e-06	291.57	82.243	62.101	19.289	2.3046e-06	27.008	0.00015902	0.00015574	4.357e-05	1083.7	1.7716e-06	1.7235e-06	1174.1	229.98	1.7899e-06	1.6875e-06	287.55	81.672	61.766	19.406	1.7655e-06	26.814	-77.236	-35.219	-2.760	-90.234	-5.890	120.766	-90.008	-82.769	52.180	129.666	-83.112	-76.125	-75.843	-68.935	72.878	-69.588	-8191	255	
1730.038	1	1	0	0	0.13709	0.17825	0.17995	0.18307	0.19244	0.25058	0.071473	0.26347	0.045207	0.096498	0.27209	0.063827	0.094651	0.17991	0.026266	0.19767	-1.7229	-2.6583	-2.6042	-2.3958	-2.7062	-2.4208	-2.5854	-2.7542	-2.3458	-2.6875	-2.6792	-2.3021	-2.6729	-2.6125	-2.35	-2.8771	227.943	192.821	50.296	-84.691	98.383	137.262	-75.858	-88.610	249.289	44.356	-95.461	240.029	206.289	207.346	-68.139	238.230	0.00012767	0.00037328	9.1331e-05	1112.3	1.379e-06	3.1193e-06	1201	232.91	6.9574e-07	3.7263e-06	293.28	81.538	61.888	19.395	5.0754e-06	26.788	0.00016622	0.00016139	4.5093e-05	1084.6	1.8041e-06	1.7152e-06	1172.7	230.03	1.7787e-06	1.7419e-06	287.45	81.279	61.702	19.45	1.7832e-06	26.723	-59.236	-26.516	-18.595	-90.064	111.259	-20.820	-89.885	-82.138	250.238	31.996	-83.132	-76.280	-75.487	-69.171	45.818	-69.181	-8191	255	
1730.134	1	1	0	0	0.059795	0.067689	0.19032	0.2471	0.14917	0.18533	0.43395	0.060352	0.12647	0.12617	0.16179	0.13026	0.23875	0.25894	0.029525	0.14489	-1.8	-2.5187	-2.8042	-2.3167	-2.5083	-2.5646	-2.3958	-2.6667	-2.4562	-2.5854	-2.8833	-2.3958	-2.6	-2.6917	-2.2438	-2.7708	6.658	-35.317	215.784	253.954	-50.228	216.495	-72.402	231.000	156.022	57.246	233.624	225.962	254.106	247.347	124.006	-91.658	0.0001028	0.00026747	7.187e-05	1110.5	6.7285e-07	5.2549e-06	1200.8	233.1	1.4572e-06	5.9612e-06	291.99	81.655	62.286	19.363	2.0128e-06	26.767	0.00016472	0.00016127	4.4771e-05	1083.4	1.7914e-06	1.7794e-06	1170.8	229.62	1.7576e-06	1.7953e-06	287.01	81.208	61.755	19.422	1.8024e-06	26.786	-60.942	-54.207	-43.086	-90.150	159.074	55.038	-90.118	-82.738	0.139	56.819	-82.809	-75.803	-76.073	-68.834	91.105	-69.627	-8191	255	
1730.255	1	1	0	0	0.23573	0.032821	0.051399	0.38323	0.17186	0.19007	0.1541	0.047194	0.42506	0.18779	0.17717	0.23346	0.13054	0.1296	0.35534	0.26487	-1.7938	-2.2938	-2.775	-2.5417	-2.6667	-2.5854	-2.4458	-2.8271	-2.5125	-2.4667	-2.7958	-2.3812	-2.5	-2.6708	-2.3854	-2.7104	-23.525	-28.571	31.513	230.852	-27.784	206.035	60.934	186.469	-2.911	-99.190	182.770	225.061	158.178	232.848	-49.327	245.255	6.2507e-05	0.00025501	5.2662e-05	1108.4	4.3641e-06	2.3837e-06	1203	233.67	2.5824e-06	1.8343e-06	292.2	81.356	62.391	19.285	2.8959e-06	26.745	0.00016933	0.0001621	4.41e-05	1081.6	1.8224e-06	1.7275e-06	1170.7	230.12	1.8262e-06	1.8012e-06	287.54	81.171	61.86	19.397	1.8167e-06	26.767	-73.828	-31.620	-82.942	-90.303	6.569	100.313	-89.857	-83.012	141.437	53.415	-82.843	-76.119	-75.775	-68.567	10.714	-69.434	-8191	255	
1730.327	1	1	0	0	0.30629	0.08756	0.065572	0.24844	0.13951	0.08372	0.31188	0.20584	0.10099	0.084505	0.2111	0.051779	0.43964	0.22931	0.020834	0.20206	-2.2708	-2.3729	-2.8542	-2.5354	-2.5354	-2.7125	-2.4021	-2.5187	-2.4271	-2.4167	-2.7313	-2.5083	-2.3396	-2.7062	-2.1521	-2.6813	74.463	106.515	-63.830	183.286	92.930	155.967	169.270	200.186	140.317	51.859	232.579	208.807	220.440	45.148	-73.391	110.388	0.00012439	0.0002627	9.9793e-05	1105.2	2.1511e-06	2.5187e-06	1197.2	234.06	2.2475e-06	2.8042e-06	290.97	81.488	61.522	19.33	2.7606e-06	26.637	0.00017176	0.00016442	4.6076e-05	1081.3	1.8486e-06	1.8354e-06	1170.6	229.69	1.8603e-06	1.8033e-06	286.7	81.186	61.581	19.385	1.8458e-06	26.692	-70.696	19.628	-79.597	-90.085	89.937	50.670	-89.842	-82.752	124.363	59.194	-82.979	-75.971	-75.893	-69.497	66.048	-69.596	-8191	255	
1730.423	1	1	0	0	0.15708	0.070796	0.049512	0.12849	0.14285	0.23511	0.22856	0.11343	0.23656	0.10703	0.096162	0.18685	0.27516	0.016521	0.14605	0.12452	-1.9479	-2.2104	-2.6854	-2.4938	-2.4313	-2.7854	-2.4396	-2.6188	-2.6104	-2.2625	-2.7458	-2.5062	-2.2188	-2.7812	-2.3646	-2.6354	245.999	-23.958	252.497	187.755	182.405	-9.353	190.993	108.845	102.652	33.737	0.844	-86.140	185.925	191.403	167.971	3.599	8.5458e-05	0.0001428	8.1655e-05	1108.5	1.4669e-06	4.2055e-06	1195.7	233.36	1.6718e-06	8.4847e-07	292.38	81.991	62.414	19.326	1.8774e-06	26.568	0.00017358	0.00016719	4.655e-05	1082	1.9121e-06	1.8495e-06	1169.7	229.91	1.9083e-06	1.8887e-06	287.08	81.212	61.693	19.372	1.8558e-06	26.674	-69.646	23.690	14.890	-90.129	-49.677	75.870	-90.120	-82.824	82.474	52.438	-83.080	-75.988	-75.676	-68.889	72.044	-69.261	-8191	255	
1730.519	1	1	0	0	0.2001	0.11432	0.017415	0.36108	0.20091	0.1085	0.056999	0.1451	0.059673	0.095436	0.16796	0.11902	0.22442	0.18357	0.10569	0.12506	-2.2375	-2.0458	-2.6854	-2.5563	-2.2896	-2.7896	-2.4396	-2.6396	-2.6875	-2.1458	-2.5938	-2.5333	-2.4313	-2.7229	-2.4437	-2.5771	-81.446	-37.012	146.900	231.875	209.068	13.665	190.988	256.776	100.260	29.557	217.852	179.132	-65.067	-75.980	-82.800	131.992	0.00012187	0.00039145	2.5721e-05	1107.4	1.3324e-06	3.9613e-06	1194.2	232.82	2.4403e-06	5.877e-06	292.7	81.192	61.973	19.229	1.3747e-06	26.531	0.00017413	0.00016452	4.666e-05	1080.6	1.8452e-06	1.8196e-06	1169.8	229.24	1.8716e-06	1.8472e-06	287.22	81.159	61.587	19.336	1.8161e-06	26.674	-64.741	-16.978	19.766	-90.168	-99.103	61.028	-90.048	-82.589	-71.046	70.798	-83.045	-75.782	-75.898	-69.123	-3.572	-69.560	-8191	255	
1730.638	1	1	0	0	0.21913	0.092137	0.064502	0.06024	0.10367	0.10941	0.36636	0.25724	0.22038	0.33949	0.33047	0.094183	0.076617	0.089472	0.053276	0.11847	-2.0833	-2.1771	-2.4708	-2.6667	-2.2542	-2.8	-2.6167	-2.5979	-2.6771	-2.2958	-2.6479	-2.5563	-2.2521	-2.9021	-2.4396	-2.4938	180.366	4.963	187.876	-85.738	197.148	-38.048	232.332	254.041	157.768	177.663	190.687	162.461	8.181	-70.324	-96.987	155.637	0.00010401	0.00033882	9.1148e-05	1106.6	2.108e-06	3.0663e-06	1204.4	232.01	6.6902e-07	2.5636e-06	292.93	80.875	62.046	19.219	2.2222e-06	26.694	0.00017327	0.00016225	4.7407e-05	1080.6	1.8612e-06	1.8373e-06	1172	229.24	1.865e-06	1.882e-06	287.11	80.986	61.675	19.342	1.8261e-06	26.664	-78.222	-44.038	-52.986	-90.112	40.022	24.306	-89.976	-82.714	30.488	74.032	-83.063	-75.924	-75.805	-69.050	78.374	-69.805	-8191	255	
1730.734	1	1	0	0	0.27562	0.15112	0.27254	0.23135	0.067696	0.12775	0.14448	0.045651	0.16573	0.20833	0.2198	0.036924	0.25316	0.058712	0.077376	0.22546	-2.1292	-2.2292	-2.4354	-2.6104	-2.1771	-2.5667	-2.7646	-2.3396	-2.7458	-2.0333	-2.7667	-2.6271	-2.1208	-2.8104	-2.4979	-2.2896	119.303	-65.339	-90.307	172.707	220.384	-21.673	191.694	-30.145	-40.864	254.801	114.047	258.969	-74.257	233.635	32.547	-12.004	7.5608e-05	0.00014554	6.278e-05	1106.9	7.9184e-07	5.6131e-07	1196	233.71	2.8347e-06	1.9305e-06	292.15	81.099	61.481	19.255	3.1302e-06	26.625	0.00017405	0.00016585	4.6136e-05	1080.6	1.853e-06	1.8306e-06	1170.2	229.45	1.8567e-06	1.8522e-06	287.03	81.112	61.475	19.372	1.8502e-06	26.694	-86.549	-29.073	-48.744	-90.461	31.233	-47.393	-90.122	-82.562	115.837	56.173	-83.305	-76.028	-75.812	-68.849	74.182	-69.794	-8191	255	
1730.830	1	1	0	0	0.085246	0.32916	0.10652	0.13336	0.1893	0.071636	0.11113	0.11446	0.29526	0.16883	0.17412	0.30334	0.10356	0.06035	0.16984	0.12775	-2.3292	-2.1375	-2.4813	-2.6708	-2.2208	-2.4188	-2.6312	-2.2958	-2.65	-2.3833	-2.5229	-2.7896	-2.4146	-2.5667	-2.5583	-2.3083	-56.995	14.739	-63.647	219.560	-83.552	90.254	182.733	229.548	-20.545	93.321	245.689	-81.870	-74.456	202.350	142.897	-83.357	7.946e-05	0.00046115	7.5482e-05	1111.9	2.6076e-06	1.958e-06	1198.5	232.1	2.6072e-06	3.2212e-06	292.55	81.698	61.967	19.212	2.4448e-06	26.574	0.00016738	0.00016845	4.6888e-05	1083.1	1.8669e-06	1.8657e-06	1170.4	229.1	1.8554e-06	1.8965e-06	286.94	81.127	61.692	19.332	2.063e-06	26.644	-45.817	15.933	17.175	-90.223	23.340	94.588	-89.652	-82.743	51.800	33.869	-83.136	-76.101	-75.956	-69.383	35.930	-69.058	-8191	255	
1730.926	1	1	0	0	0.099032	0.11736	0.24226	0.22049	0.19734	0.22245	0.34313	0.21345	0.16786	0.16323	0.10254	0.14521	0.11921	0.13788	0.17764	0.25836	-2.2833	-2.2521	-2.3208	-3.0646	-2.2729	-2.6125	-2.6396	-2.5729	-2.6688	-2.4021	-2.4833	-2.8187	-2.2875	-2.5583	-2.6396	-2.3583	188.714	-69.679	168.999	-95.637	-61.334	239.788	223.602	223.451	164.191	-70.365	157.274	34.418	222.645	-100.122	155.762	150.955	0.00013205	0.00043347	5.8738e-05	1109.1	1.8869e-06	4.037e-06	1200.2	233.43	1.9774e-06	3.0295e-06	292.11	81.375	62.116	19.373	2.5137e-06	26.652	0.00019782	0.00020381	5.6625e-05	1084.3	2.4002e-06	2.5184e-06	1175.5	230.24	2.5947e-06	2.7603e-06	288.83	81.47	62.296	19.602	3.0142e-06	27.01	-95.994	-5.452	-4.978	-90.119	111.811	40.960	-89.909	-82.795	-64.176	120.487	-83.053	-76.123	-75.898	-69.008	19.469	-69.092	-8191	255	
1731.022	1	1	0	0	0.46516	0.19133	0.2085	0.10815	0.15886	0.13126	0.15424	0.22683	0.10857	0.21137	0.19194	0.10407	0.075516	0.19302	0.093433	0.19111	-2.2958	-2.4875	-2.4875	-2.8833	-2.3563	-2.4542	-2.8333	-2.5271	-2.6729	-2.3875	-2.4125	-2.8083	-2.3063	-2.6771	-2.7188	-2.1771	-100.250	56.925	90.860	166.703	-98.349	135.367	226.457	203.371	203.672	207.945	230.349	-32.715	109.323	-77.783	122.616	233.106	5.9659e-05	0.00052012	8.1949e-05	1126.9	1.2484e-06	5.1436e-06	1216.5	233.58	1.0763e-06	4.3909e-06	293.12	81.387	62.01	19.194	2.443e-06	26.826	0.00027462	0.0002852	7.9385e-05	1102.4	3.1706e-06	3.1938e-06	1191.2	232.01	3.0947e-06	3.0955e-06	290.03	81.79	62.336	19.518	2.8414e-06	26.94	-71.865	-11.025	26.277	-90.141	59.543	29.790	-90.021	-82.939	8.559	50.672	-83.230	-76.111	-75.708	-68.939	128.432	-69.413	-8191	255	
1731.119	1	1	0	0	0.14595	0.13127	0.10274	0.17639	0.18489	0.11485	0.11025	0.084953	0.091159	0.059725	0.16227	0.12142	0.18346	0.25245	0.054511	0.10848	-2.1562	-2.5229	-2.3187	-2.7729	-2.35	-2.3937	-2.7833	-2.3333	-2.6625	-2.575	-2.1312	-2.6875	-2.5354	-2.525	-2.7146	-2.4042	205.864	111.349	234.683	223.305	74.662	11.092	45.810	-70.018	53.505	249.895	209.116	-48.180	-70.338	249.993	197.411	-11.842	0.00010938	0.00011086	0.00010248	1127.5	3.1686e-06	1.9108e-06	1207.3	232.08	1.0175e-06	1.0549e-06	292.83	80.87	61.947	19.185	2.7441e-06	26.519	0.00024801	0.00024613	6.6797e-05	1098.7	2.5231e-06	2.4586e-06	1182.5	228.71	2.3959e-06	2.3714e-06	286.84	80.864	61.639	19.331	2.3131e-06	26.616	-60.234	207.690	-0.524	-90.092	4.484	-18.919	-90.012	-82.661	246.567	31.818	-83.344	-75.759	-75.777	-68.691	62.864	-69.685	-8191	255	
1731.215	1	1	0	0	0.32249	0.10691	0.090811	0.25771	0.10608	0.15679	0.20667	0.16868	0.29312	0.18971	0.20051	0.21109	0.21967	0.042292	0.20118	0.071585	-2.0583	-2.5083	-2.3312	-2.6854	-2.5292	-2.3187	-2.9083	-2.2687	-2.6375	-2.7479	-2.3812	-2.8083	-2.5125	-2.3604	-2.7479	-2.4354	162.670	249.624	123.043	118.745	53.355	54.363	217.622	151.109	47.422	-87.750	-86.690	200.857	-83.544	209.442	51.527	193.536	5.8319e-05	0.00020162	0.00016997	1112.1	5.762e-06	1.3126e-06	1204.1	231.72	3.3288e-06	3.1684e-06	288.36	80.786	61.905	19.261	1.8782e-06	26.456	0.00020963	0.00020753	5.7859e-05	1087.3	2.2874e-06	2.2778e-06	1177.5	227.72	2.2452e-06	2.2345e-06	285.19	80.901	61.505	19.314	2.2247e-06	26.611	-69.845	-62.664	-16.463	-90.269	80.594	-29.275	-89.711	-82.506	61.250	31.123	-82.928	-75.958	-75.620	-68.774	120.543	-69.721	-8191	255	
1731.335	1	1	0	0	0.27322	0.083842	0.073346	0.13575	0.16901	0.14055	0.12943	0.22322	0.33508	0.20262	0.10626	0.15911	0.062086	0.12966	0.17887	0.083784	-2.2354	-2.7271	-2.4125	-2.8625	-2.5833	-2.5187	-3.0042	-2.4271	-2.5042	-2.7458	-2.4417	-2.9458	-2.7292	-2.2812	-2.7771	-2.4813	18.716	156.828	-96.910	-91.074	48.543	147.575	217.667	226.118	167.530	124.818	180.047	59.675	-53.071	212.614	228.564	-43.648	0.000105	0.00018978	0.00014015	1113.6	3.4371e-06	1.5478e-06	1206	228.41	2.4732e-06	3.6541e-06	289.62	80.675	61.878	19.062	3.9221e-06	26.493	0.00020898	0.00021173	5.9943e-05	1089.1	2.382e-06	2.3862e-06	1179	227.15	2.5064e-06	2.5188e-06	285.7	80.835	61.692	19.348	2.7251e-06	26.713	-67.019	35.095	41.250	-90.185	92.963	-40.896	-89.758	-82.675	12.313	42.904	-82.752	-76.279	-75.721	-69.073	19.505	-69.467	-8191	255	
1731.431	1	1	0	0	0.04904	0.15156	0.20823	0.044582	0.15979	0.27902	0.55361	0.34345	0.085339	0.2443	0.1695	0.078533	0.20518	0.25946	0.10174	0.046267	-2.1937	-2.5125	-2.1917	-2.8792	-2.4479	-2.4729	-2.7	-2.3333	-2.4313	-2.7625	-2.3417	-2.6562	-2.6292	-2.4229	-2.8438	-2.5042	-77.332	64.384	-67.365	-34.735	-49.650	167.667	189.707	247.734	-90.830	120.189	199.512	194.793	164.598	20.719	160.254	32.164	8.0184e-05	0.00023893	3.5894e-05	1120.8	1.0148e-06	1.8539e-06	1210.1	230.93	2.9697e-06	1.8367e-06	288.56	80.862	62.143	19.077	1.7278e-06	26.508	0.00025735	0.00025951	7.2519e-05	1096.3	2.9015e-06	2.948e-06	1184.1	229.03	2.9391e-06	2.9215e-06	286.14	81.153	62.07	19.381	2.9009e-06	26.766	-54.573	-46.955	-7.077	-90.198	89.569	91.667	-89.860	-82.396	96.058	26.404	-83.117	-75.944	-75.787	-68.833	47.125	-69.352	-8191	255	
1731.528	1	1	0	0	0.099288	0.17208	0.069159	0.16642	0.038429	0.12539	0.2106	0.041408	0.14577	0.17494	0.081088	0.17029	0.26287	0.19675	0.27154	0.15021	-1.8583	-2.5979	-2.2812	-2.7521	-2.5604	-2.3708	-2.8312	-2.7125	-2.4375	-2.8833	-2.4625	-2.4667	-2.7604	-2.3187	-2.5708	-2.4667	8.913	110.628	234.105	249.124	-6.715	102.748	-96.986	190.110	-47.205	29.441	-24.969	70.850	-9.795	240.715	-23.292	98.014	8.1965e-05	0.00066868	4.955e-05	1118.5	8.2531e-07	1.5817e-06	1209.1	231.68	4.3593e-06	4.6038e-06	290.96	81.007	61.739	19.17	4.9957e-06	26.557	0.00025986	0.00025945	7.2409e-05	1095.2	2.8065e-06	2.7604e-06	1183.8	228.49	2.7803e-06	2.646e-06	287.08	81.203	61.786	19.367	2.7037e-06	26.721	-97.976	11.497	0.525	-90.146	90.907	77.215	-89.903	-82.533	47.363	73.498	-83.203	-75.916	-75.624	-68.927	67.991	-69.548	-8191	255	
1731.622	1	1	0	0	0.25962	0.25645	0.18727	0.26925	0.082328	0.15613	0.26038	0.16443	0.33105	0.30622	0.20144	0.18705	0.13774	0.085878	0.21398	0.097604	-2.0625	-2.5708	-2.2771	-2.7521	-2.6292	-2.3167	-3.0396	-2.5729	-2.3604	-2.8396	-2.3438	-2.6708	-2.6375	-2.2521	-2.6958	-2.6333	225.073	-97.193	-71.774	214.431	72.193	126.961	182.770	175.255	149.686	158.977	211.335	224.415	122.673	-95.153	165.002	34.600	9.7362e-05	0.00025532	9.3387e-05	1121	3.5744e-06	2.7035e-06	1207.2	231.17	9.4957e-07	2.7006e-06	289.6	80.832	61.461	19.131	3.3452e-06	26.353	0.00023896	0.00023671	6.6308e-05	1095.2	2.6716e-06	2.6361e-06	1182.5	228.22	2.6996e-06	2.7161e-06	286.16	81.062	61.743	19.416	2.847e-06	26.708	-85.773	25.805	-38.854	-90.481	64.938	84.051	-89.831	-82.451	226.652	49.936	-82.821	-76.156	-76.163	-69.079	132.853	-69.474	-8191	255	
1731.718	1	1	0	0	0.29232	0.32322	0.34176	0.13287	0.14337	0.20845	0.21302	0.31407	0.12585	0.098211	0.1009	0.34856	0.13703	0.080512	0.030425	0.24561	-1.8229	-2.7979	-2.3438	-2.4813	-2.7042	-2.4125	-2.7958	-2.6417	-2.2417	-2.7438	-2.5542	-2.4917	-2.7625	-2.3979	-2.5687	-2.7292	218.263	-46.055	179.983	191.930	85.350	79.897	-83.475	-22.171	165.967	98.746	250.705	179.838	-2.215	-73.336	20.899	-89.542	0.00010811	0.00027809	5.7305e-05	1118.9	4.3207e-06	1.8761e-06	1207.3	231.35	1.6059e-06	2.6938e-06	290.42	80.326	61.459	19.116	4.3209e-06	26.337	0.00026013	0.00026294	7.3114e-05	1095.4	2.9693e-06	2.906e-06	1184.9	228.73	2.9125e-06	2.981e-06	286.56	80.99	61.708	19.369	3.0532e-06	26.73	-67.472	-82.046	15.551	-89.985	19.474	83.135	-89.842	-82.627	101.158	79.184	-82.843	-75.993	-75.859	-68.830	136.561	-69.707	-8191	255	
1731.814	1	1	0	0	0.2578	0.10958	0.20257	0.19614	0.094011	0.12711	0.1806	0.31839	0.10087	0.27562	0.10654	0.076462	0.11942	0.18013	0.10224	0.1152	-1.9292	-2.6646	-2.2896	-2.4896	-2.7313	-2.3708	-2.6292	-2.9271	-2.4354	-2.7438	-2.625	-2.4417	-2.9917	-2.2917	-2.3167	-2.7667	-20.906	-2.953	-43.003	184.482	40.917	245.611	168.480	202.497	-43.164	189.723	7.667	-78.371	-97.654	138.388	172.684	179.935	7.7751e-05	0.00032852	6.3848e-05	1125.8	1.5278e-06	6.4408e-06	1211.2	230.11	1.3144e-06	4.0509e-06	290.53	81.214	61.767	19.155	7.4399e-06	26.163	0.00027098	0.0002759	7.7937e-05	1098	3.073e-06	3.0922e-06	1185.7	228.23	3.1097e-06	3.0867e-06	287	81.064	61.811	19.426	3.119e-06	26.639	-31.702	-22.069	-3.010	-90.178	-6.048	60.026	-89.799	-82.707	22.913	107.692	-83.102	-76.163	-75.578	-69.068	30.194	-69.503	-8191	255	
1731.935	1	1	0	0	0.21875	0.04584	0.26226	0.1945	0.10551	0.13199	0.21762	0.076678	0.11423	0.21753	0.15009	0.27619	0.10844	0.091436	0.17251	0.24559	-1.7271	-2.5083	-2.5062	-2.4813	-2.4375	-2.2417	-2.6542	-2.8167	-2.2979	-2.6312	-2.6437	-2.275	-2.7313	-2.6437	-2.4854	-2.9917	71.792	248.226	149.076	161.840	112.757	-41.429	184.963	-22.133	209.297	29.475	-94.008	232.800	17.222	110.237	-40.163	73.397	0.00014761	0.00020396	8.4789e-05	1126.7	4.7185e-06	5.3636e-07	1210.5	230.26	9.1565e-07	2.5666e-06	292.47	81.138	61.733	19.045	5.4133e-06	26.408	0.00027419	0.00028855	7.785e-05	1100.9	3.142e-06	3.0881e-06	1189	228.59	3.0883e-06	2.9968e-06	287.67	81.133	61.852	19.347	2.9599e-06	26.736	-80.966	-34.414	-25.378	-90.313	23.254	224.625	-89.971	-82.500	48.225	94.308	-83.293	-76.072	-75.823	-68.817	8.351	-69.174	-8191	255	
1732.031	1	1	0	0	0.051202	0.085349	0.039306	0.30179	0.24543	0.18268	0.13683	0.071805	0.078543	0.22881	0.18547	0.30128	0.10922	0.21921	0.17297	0.11262	-1.8729	-2.4771	-2.6917	-2.1625	-2.5708	-2.2917	-2.7271	-2.7188	-2.1896	-2.6688	-2.6063	-2.2729	-2.7333	-2.6375	-2.2958	-2.6937	108.100	-24.779	231.688	-93.245	-74.848	6.948	-59.362	-64.852	249.707	22.095	188.724	170.162	223.390	137.396	157.145	99.545	8.0652e-05	0.00065368	4.1726e-05	1126.8	3.5538e-06	2.783e-06	1208	229.79	2.7061e-06	1.4568e-06	290.9	80.978	61.693	19.085	2.3527e-06	26.346	0.00026113	0.00026758	7.458e-05	1100.4	2.9517e-06	2.9577e-06	1186.2	228.15	2.9513e-06	3.0145e-06	287.46	80.967	61.82	19.313	3.0643e-06	26.705	-60.874	9.148	-45.311	-90.399	115.513	72.401	-89.937	-82.580	40.927	59.441	-83.045	-75.987	-75.919	-69.064	-41.573	-69.278	-8191	255	
1732.127	1	1	0	0	0.08031	0.090977	0.20575	0.18832	0.18933	0.10887	0.16746	0.18807	0.13895	0.23471	0.1179	0.28235	0.19953	0.44561	0.24428	0.19777	-1.7938	-2.5458	-2.6229	-2.3417	-2.6792	-2.5104	-2.6104	-2.7375	-2.2812	-2.5646	-2.7896	-2.2417	-2.6271	-2.6917	-2.3104	-2.7938	229.715	55.630	219.509	222.396	-59.108	229.292	219.484	145.123	-83.317	-40.721	-81.332	-54.940	142.428	169.530	229.948	186.525	7.9862e-05	0.00035299	0.00010474	1123.4	3.2177e-06	3.0944e-06	1209.8	230.38	9.6163e-07	1.0117e-06	290.27	80.771	61.761	18.96	4.3688e-06	26.449	0.00026641	0.00026581	7.2234e-05	1099.9	2.8205e-06	2.6545e-06	1184	227.94	2.5783e-06	2.5191e-06	285.97	80.691	61.564	19.188	2.3872e-06	26.533	-69.166	-18.652	-7.326	-90.102	3.865	95.579	-89.833	-82.357	-84.244	82.815	-83.280	-76.029	-75.850	-68.571	62.100	-69.432	-8191	255	
1732.223	1	1	0	0	0.19002	0.17352	0.21328	0.2043	0.16389	0.25104	0.29308	0.10182	0.21072	0.11	0.11594	0.23275	0.18979	0.1291	0.12404	0.10907	-1.7604	-2.2979	-2.65	-2.3292	-2.625	-2.6125	-2.4979	-2.8875	-2.3583	-2.2458	-2.6979	-2.2875	-2.5896	-2.6271	-2.2583	-2.8021	208.686	230.204	120.223	227.392	-52.265	90.409	206.435	48.794	22.602	89.830	-24.754	-32.116	172.235	-93.885	-43.847	-52.599	0.00013103	0.00040001	8.9185e-05	1113.8	1.5946e-06	2.8185e-06	1212.4	228.83	1.5421e-06	1.1247e-06	289.77	80.459	61.451	19.036	3.5997e-06	26.54	0.00022119	0.00022549	6.2257e-05	1090.6	2.5311e-06	2.5263e-06	1182.3	226.72	2.6529e-06	2.6592e-06	285.17	80.679	61.405	19.243	2.6794e-06	26.511	-67.002	7.509	67.743	-90.295	28.041	-30.528	-90.001	-82.647	123.839	53.656	-83.014	-75.920	-75.733	-68.623	45.977	-69.201	-8191	255	
1732.320	1	1	0	0	0.1766	0.3098	0.12827	0.11906	0.12368	0.16734	0.33876	0.11719	0.15192	0.075353	0.081449	0.26048	0.080405	0.04722	0.10983	0.36309	-1.875	-2.4437	-2.6375	-2.4875	-2.5563	-2.7708	-2.375	-2.7083	-2.4938	-2.3042	-2.7062	-2.3083	-2.5187	-2.7729	-2.3396	-2.6354	245.261	-42.278	178.450	196.078	69.644	-22.313	246.758	-62.144	246.302	134.420	157.330	240.925	26.494	109.780	192.268	250.489	0.00013946	0.00076368	5.2413e-05	1122	2.5775e-06	6.6235e-07	1207.7	229.27	3.0681e-06	1.8569e-06	290	80.623	61.393	19.04	1.9235e-06	26.421	0.00024159	0.00024457	6.7216e-05	1095.9	2.7094e-06	2.6509e-06	1184.5	226.94	2.6229e-06	2.6014e-06	285.3	80.805	61.454	19.205	2.5547e-06	26.609	-77.993	-53.070	-25.831	-90.335	-11.284	-64.908	-89.945	-82.612	52.037	9.257	-83.044	-76.025	-75.981	-68.768	148.786	-69.842	-8191	255	
1732.416	1	1	0	0	0.13054	0.24412	0.082686	0.16143	0.17377	0.073037	0.12213	0.39769	0.10379	0.17376	0.18695	0.034193	0.13825	0.25711	0.14844	0.054201	-2.0833	-2.4792	-2.6896	-2.4396	-2.6458	-2.7562	-2.3771	-2.5521	-2.6562	-2.275	-2.7812	-2.2771	-2.4437	-2.7188	-2.2062	-2.5958	73.000	163.246	222.089	95.700	23.277	221.025	223.008	252.158	254.101	-7.158	74.646	220.986	197.107	218.107	9.025	152.598	8.9747e-05	0.00029288	0.00013215	1116.4	3.4953e-06	3.4604e-06	1215.2	229.45	2.6857e-06	2.0922e-06	290.06	80.785	61.352	19.047	1.3805e-06	26.235	0.00023123	0.00023509	6.3386e-05	1093.4	2.5488e-06	2.5019e-06	1183	227.2	2.5247e-06	2.5132e-06	284.85	80.931	61.383	19.195	2.4776e-06	26.501	-58.516	-33.172	-6.650	-90.295	24.486	29.521	-89.973	-82.612	-24.798	17.602	-83.106	-75.455	-76.087	-69.537	28.659	-69.790	-8191	255	
1732.512	1	1	0	0	0.071782	0.1375	0.094958	0.19968	0.19411	0.13082	0.27501	0.15325	0.1121	0.17764	0.083168	0.070895	0.17196	0.16305	0.057426	0.26061	-2.0312	-2.35	-2.7396	-2.5521	-2.3167	-2.5521	-2.5229	-2.3792	-2.5854	-2.3792	-2.8937	-2.3604	-2.4646	-2.8	-2.4979	-2.5479	-51.483	-88.297	-45.830	225.716	-0.549	47.909	241.423	131.528	130.826	-78.586	137.202	104.619	25.398	38.826	197.990	222.330	7.8017e-05	0.00042715	0.00012266	1119.9	1.7981e-06	2.8581e-06	1206.5	228.74	1.102e-06	2.6791e-06	288.27	80.024	61.745	19.052	2.1171e-06	26.519	0.00021755	0.00022213	6.327e-05	1094.3	2.5014e-06	2.4165e-06	1180.6	226.89	2.4591e-06	2.4682e-06	284.7	80.535	61.368	19.245	2.5134e-06	26.566	-71.767	-15.439	-13.698	-90.182	-10.496	6.773	-89.862	-82.770	251.949	63.355	-83.281	-75.745	-75.847	-69.033	44.677	-69.300	-8191	255	
1732.608	1	1	0	0	0.11286	0.034648	0.27735	0.22583	0.048389	0.1416	0.10083	0.14562	0.12667	0.198	0.19646	0.23769	0.17804	0.2059	0.16485	0.14537	-2.1562	-2.3438	-2.5208	-2.6104	-2.2146	-2.6771	-2.4354	-2.4208	-2.6188	-2.0958	-2.6688	-2.4896	-2.3125	-2.5854	-2.3708	-2.4813	163.882	-20.191	111.844	179.386	-40.219	80.904	195.466	29.638	77.094	27.891	-66.397	-65.769	-84.875	-51.201	127.029	117.720	9.0738e-05	0.00034054	6.5452e-05	1117.3	2.5487e-06	5.4931e-06	1205.1	228.5	1.5732e-06	3.9453e-06	288.73	80.756	61.441	18.954	4.3716e-06	26.254	0.00022922	0.00023113	6.2832e-05	1092.4	2.5606e-06	2.5306e-06	1178.3	226.37	2.5456e-06	2.5457e-06	284.63	80.627	61.478	19.185	2.5209e-06	26.519	-84.640	2.406	-36.751	-90.142	27.055	61.379	-89.987	-82.188	247.335	126.858	-82.912	-75.720	-75.765	-68.906	-10.733	-69.496	-8191	255	
1732.727	1	1	0	0	0.15084	0.1202	0.13697	0.14329	0.088103	0.1291	0.23585	0.12874	0.14983	0.35985	0.31581	0.077808	0.17642	0.22739	0.25118	0.3397	-2.1729	-2.2021	-2.5812	-2.6292	-2.1937	-2.6729	-2.7083	-2.5875	-2.6833	-2.4667	-2.7833	-2.6542	-2.3021	-2.7271	-2.5062	-2.4188	167.579	252.727	-18.357	221.504	26.088	225.712	138.137	177.672	-46.262	-33.251	197.873	152.934	214.891	48.247	7.109	190.525	0.00015046	0.00032848	8.2002e-05	1117.8	3.7955e-06	5.0011e-06	1203.8	229.01	3.3616e-06	3.1598e-06	288.84	80.969	61.695	19.178	2.3511e-06	26.239	0.00022672	0.00021947	6.3523e-05	1092.4	2.4399e-06	2.4665e-06	1178.4	226.69	2.5039e-06	2.4119e-06	284.88	80.567	61.473	19.195	2.4404e-06	26.501	-85.521	-18.407	-66.120	-90.276	105.934	43.604	-89.863	-82.583	85.287	100.552	-83.000	-76.096	-75.837	-69.258	38.569	-68.822	-8191	255	
1732.823	1	1	0	0	0.16121	0.22327	0.13187	0.32486	0.063146	0.21792	0.30862	0.25768	0.12397	0.063366	0.085679	0.20808	0.29659	0.16086	0.30706	0.18927	-2.15	-2.2958	-2.4688	-2.6958	-2.3	-2.5854	-2.7	-2.425	-2.8729	-2.2667	-2.6188	-2.6542	-2.25	-2.6729	-2.4417	-2.3438	230.956	-9.604	238.329	217.714	102.337	141.161	166.301	215.795	182.877	-23.763	213.877	-58.390	141.702	178.554	1.430	-59.363	0.0001294	0.0006481	2.1643e-05	1114.5	2.6792e-06	2.7248e-06	1204.4	228.66	7.8462e-07	6.1787e-06	288.64	80.108	61.392	19.025	5.0014e-06	26.084	0.00022367	0.00022852	6.1993e-05	1090.5	2.4948e-06	2.3733e-06	1177.9	225.99	2.4653e-06	2.44e-06	284.78	80.344	61.304	19.189	2.4288e-06	26.383	-81.308	28.625	73.839	-90.084	66.704	77.799	-89.819	-82.977	-29.333	22.813	-83.128	-75.858	-75.852	-68.916	61.034	-69.752	-8191	255	
1732.895	1	1	0	0	0.27133	0.085605	0.13553	0.19883	0.10138	0.13506	0.052224	0.068717	0.13154	0.16988	0.054394	0.20636	0.30676	0.37235	0.1819	0.1265	-2.1583	-2.3563	-2.4229	-2.8083	-2.15	-2.6896	-2.5438	-2.3625	-2.7792	-2.2792	-2.6208	-2.6604	-2.3021	-2.7062	-2.5667	-2.2646	-78.264	168.750	145.231	228.191	94.869	227.974	182.909	258.271	105.886	17.204	-62.013	173.693	217.231	242.596	-66.229	86.451	0.00012259	0.00035397	6.7662e-05	1114.2	1.1068e-06	6.0226e-06	1202.5	228.52	2.4838e-06	5.4369e-06	288.4	80.204	61.514	19.138	7.1598e-06	26.368	0.0002213	0.00022184	6.1277e-05	1090	2.4638e-06	2.4136e-06	1177.6	226.3	2.4431e-06	2.4382e-06	284.79	80.588	61.399	19.244	2.4729e-06	26.561	-59.421	-14.114	-9.838	-90.149	239.257	47.237	-90.016	-82.656	58.669	61.272	-83.251	-75.744	-75.825	-68.931	60.373	-69.162	-8191	255	
1733.015	1	1	0	0	0.1577	0.10982	0.30361	0.081128	0.19086	0.092815	0.069203	0.13241	0.28521	0.14433	0.14374	0.22239	0.11841	0.061478	0.14571	0.19852	-2.1333	-2.2375	-2.2292	-2.6562	-2.2375	-2.6813	-2.6958	-2.1979	-2.525	-2.4562	-2.3833	-2.7167	-2.2896	-2.5167	-2.5062	-2.1625	141.923	162.856	227.316	120.963	240.174	122.946	232.413	124.055	144.425	205.768	82.751	85.649	212.502	-31.415	53.999	110.508	0.00010384	0.00029516	9.1528e-05	1117.1	3.1219e-06	1.589e-06	1206.5	229.52	1.2579e-06	1.5924e-06	288.83	80.153	61.514	19.067	3.3695e-06	26.308	0.00021896	0.00021933	6.2348e-05	1092.7	2.4851e-06	2.3997e-06	1179.1	226.51	2.4513e-06	2.5034e-06	284.93	80.274	61.328	19.226	2.5362e-06	26.529	-47.631	-38.848	-32.257	-90.126	26.173	-20.087	-90.077	-82.587	-0.184	110.772	-83.121	-75.612	-76.057	-69.065	71.229	-69.464	-8191	255	
1733.111	1	1	0	0	0.19901	0.14226	0.24696	0.25284	0.12712	0.095971	0.17644	0.16128	0.04385	0.24081	0.19591	0.1112	0.13414	0.085527	0.18454	0.21163	-2.2021	-2.5083	-2.3042	-2.7208	-2.3479	-2.6063	-2.8521	-2.2042	-2.6417	-2.5479	-2.4188	-2.7833	-2.2771	-2.5333	-2.4042	-2.1833	-0.176	-17.085	169.597	210.030	21.732	232.865	187.263	137.075	-25.275	76.046	193.611	111.805	196.860	54.515	23.051	220.077	5.7098e-05	0.00040953	0.00012483	1111.9	1.8743e-06	1.1653e-06	1201.6	229.82	2.0567e-06	4.03e-06	289.15	80.474	61.184	19.095	2.2301e-06	26.393	0.0002284	0.00022934	6.3837e-05	1091.2	2.5101e-06	2.5332e-06	1174.4	226.53	2.5088e-06	2.4774e-06	284.71	80.548	61.305	19.21	2.5038e-06	26.526	-68.082	12.802	-31.584	-89.859	118.817	-14.000	-89.889	-82.644	-16.151	-7.397	-82.907	-75.801	-75.980	-69.107	123.826	-69.051	-8191	255	
1733.208	1	1	0	0	0.20173	0.19897	0.037767	0.17437	0.26466	0.11553	0.5902	0.21395	0.30966	0.063628	0.10462	0.055501	0.10098	0.13918	0.19637	0.14644	-2.3417	-2.4854	-2.1375	-2.9375	-2.3312	-2.3875	-2.8312	-2.3625	-2.7375	-2.4604	-2.2542	-2.7292	-2.4625	-2.4208	-2.5208	-2.3167	-19.619	110.830	-33.988	119.063	162.033	156.871	202.956	218.456	-73.227	164.244	-91.223	138.825	132.409	227.528	-61.820	220.336	0.00017064	0.00043316	4.1885e-05	1113.7	1.3023e-06	5.2538e-06	1204.6	228.34	4.3859e-06	3.1382e-06	291.02	79.896	61.235	19.088	1.3003e-06	26.291	0.00022902	0.00023164	6.2688e-05	1090.5	2.5539e-06	2.5435e-06	1179	226.43	2.5791e-06	2.5384e-06	284.92	80.329	61.131	19.197	2.4666e-06	26.474	-72.398	22.335	-68.720	-90.110	-57.670	42.165	-90.017	-82.641	33.616	68.125	-83.316	-75.843	-75.780	-69.381	108.227	-69.404	-8191	255	
1733.328	1	1	0	0	0.29206	0.10087	0.18301	0.31617	0.12658	0.10175	0.20593	0.22371	0.1457	0.15815	0.16393	0.24818	0.20156	0.09836	0.10786	0.15693	-2.2042	-2.5792	-2.2438	-2.6771	-2.1833	-2.3	-2.7333	-2.3271	-2.4	-2.55	-2.2833	-2.6417	-2.3187	-2.5792	-2.8458	-2.4292	86.814	75.804	167.104	217.958	58.918	84.528	184.584	-75.793	121.962	141.414	240.614	154.213	230.772	-2.461	153.665	252.889	7.2687e-05	0.00021245	7.5277e-05	1117.7	2.3351e-06	1.3301e-06	1206.5	229.79	3.9431e-07	3.4468e-06	288.56	80.699	61.451	19.094	2.4256e-06	26.326	0.0002206	0.00022365	6.4695e-05	1092.8	2.4847e-06	2.466e-06	1179.7	226.59	2.5442e-06	2.4754e-06	284.14	80.649	61.235	19.237	2.4941e-06	26.554	-97.005	-9.558	-73.710	-90.084	57.262	-15.227	-90.025	-82.592	79.493	25.801	-82.723	-75.992	-75.970	-68.939	-3.370	-69.181	-8191	255	
1733.423	1	1	0	0	0.15137	0.17213	0.24254	0.19346	0.22404	0.096648	0.25162	0.098106	0.15339	0.27209	0.10729	0.40492	0.016027	0.063346	0.22642	0.20381	-2.0563	-2.4479	-2.0479	-2.8646	-2.4188	-2.3042	-2.8625	-2.4479	-2.4729	-2.6042	-2.4583	-2.6083	-2.5542	-2.4021	-2.825	-2.3812	33.103	-1.718	217.756	197.028	-39.246	258.992	204.056	-9.573	96.329	230.591	-86.895	224.306	175.690	139.387	237.751	89.214	9.8618e-05	0.00046534	0.00012423	1120.4	6.3326e-06	3.2511e-06	1210.1	230.81	3.6646e-06	1.4351e-06	289.76	80.571	61.11	18.925	3.8283e-06	26.278	0.00022985	0.00023638	6.4103e-05	1095	2.4966e-06	2.4778e-06	1181.6	226.66	2.5117e-06	2.5089e-06	284.61	80.393	61.186	19.172	2.5192e-06	26.564	-90.940	-24.967	-17.434	-90.248	38.158	9.764	-90.025	-82.509	34.620	109.525	-83.130	-75.845	-75.590	-68.950	-9.928	-69.568	-8191	255	
1733.496	1	1	0	0	0.043161	0.21383	0.15612	0.33559	0.053522	0.076682	0.25356	0.18384	0.077491	0.070504	0.10573	0.13874	0.18251	0.080808	0.29905	0.021819	-1.9438	-2.7146	-2.1167	-2.8896	-2.6229	-2.4125	-2.9875	-2.3167	-2.475	-2.6937	-2.5167	-2.7625	-2.6521	-2.1417	-2.7333	-2.675	249.852	124.371	-23.648	-84.111	143.335	137.126	212.004	121.611	113.483	115.875	66.138	251.258	176.950	-58.050	254.985	134.008	0.0001017	0.00072095	5.5254e-05	1119.2	9.5297e-07	3.382e-06	1205.2	229.71	1.2479e-06	2.1975e-06	288.63	80.516	61.388	19.174	3.3816e-06	26.369	0.00023115	0.00023256	6.2676e-05	1092.5	2.5271e-06	2.6304e-06	1179.7	226.88	2.5414e-06	2.5783e-06	284.84	80.541	61.319	19.259	2.6508e-06	26.563	-57.093	-36.120	12.858	-89.952	-23.998	98.433	-89.944	-82.898	69.073	85.885	-83.329	-76.032	-75.925	-68.654	49.537	-69.470	-8191	255	
1733.617	1	1	0	0	0.10023	0.075028	0.025711	0.070528	0.19802	0.043237	0.15166	0.25681	0.2872	0.052202	0.13642	0.4364	0.11926	0.19231	0.068496	0.13858	-1.8479	-2.7667	-2.3792	-2.7062	-2.5542	-2.2375	-3.1229	-2.6521	-2.3104	-2.9896	-2.5104	-2.5292	-2.6229	-2.2083	-2.6458	-2.4646	205.714	6.600	-72.801	-50.482	-56.434	-23.781	-100.065	258.763	169.886	193.964	22.795	215.893	228.957	38.926	107.641	207.670	8.8365e-05	0.00038666	4.8178e-05	1119.3	2.9394e-06	2.9339e-06	1203.9	229.73	3.311e-06	4.8958e-06	290.16	80.771	61.323	19.07	1.7154e-06	26.306	0.00024408	0.000252	7.0274e-05	1093.5	2.8091e-06	2.7729e-06	1181.2	227.28	2.8411e-06	2.8242e-06	285.78	80.883	61.429	19.287	2.7374e-06	26.594	255.127	-22.771	29.537	-90.310	135.562	89.634	-89.927	-82.270	-19.187	45.567	-83.367	-75.794	-75.721	-69.135	230.234	-69.169	-8191	255	
1733.711	1	1	0	0	0.09316	0.16133	0.075127	0.26897	0.069657	0.22763	0.38023	0.15888	0.031183	0.13859	0.18786	0.17588	0.14427	0.096308	0.14802	0.2185	-1.9188	-2.6208	-2.3229	-2.8063	-2.7729	-2.2979	-2.6917	-2.7062	-2.1917	-2.6667	-2.3896	-2.3708	-2.8	-2.2979	-2.3708	-2.4042	177.993	126.524	-69.596	227.850	-18.070	-2.707	207.440	134.963	-17.619	183.019	148.434	206.749	184.297	230.706	63.404	197.244	0.00012026	0.00024056	0.00011103	1117.3	2.7189e-06	2.528e-06	1205.4	229.18	4.2953e-06	1.6933e-06	289.55	80.776	61.393	19.123	1.7032e-06	26.54	0.0002432	0.00023483	6.4397e-05	1094.3	2.5138e-06	2.4714e-06	1181.7	226.88	2.4154e-06	2.382e-06	284.52	80.751	61.232	19.242	2.291e-06	26.534	-61.459	5.373	-3.132	-90.279	76.131	39.181	-89.936	-82.560	-26.477	90.439	-83.028	-75.888	-76.347	-68.889	-47.023	-69.787	-8191	255	
1733.807	1	1	0	0	0.16852	0.15429	0.14895	0.25213	0.074224	0.15328	0.082153	0.25739	0.13109	0.35709	0.17264	0.12867	0.20094	0.048721	0.092906	0.090139	-1.7563	-2.8063	-2.225	-2.4875	-2.7313	-2.3542	-2.7708	-2.7521	-2.2708	-2.7062	-2.8208	-2.5417	-2.9271	-2.475	-2.5812	-2.5479	-30.671	-38.915	179.253	146.744	-62.441	256.560	189.290	194.853	118.154	107.124	-81.860	-15.293	-25.224	232.359	146.993	145.172	0.00010292	0.00039052	7.4528e-05	1113.7	2.002e-06	1.6885e-06	1204.7	228.47	2.2984e-06	1.8162e-06	289.23	80.053	61.783	19.14	3.8552e-06	26.431	0.00020459	0.00020849	5.6756e-05	1092.1	2.24e-06	2.1498e-06	1178.2	226.07	2.2233e-06	2.1043e-06	284.12	80.114	61.255	19.152	2.138e-06	26.466	-75.686	-3.189	-43.556	-90.042	29.670	7.366	-90.017	-82.851	56.024	57.332	-83.156	-76.279	-76.142	-69.019	-23.719	-69.514	-8191	255	
1733.903	1	1	0	0	0.16038	0.089556	0.14249	0.31048	0.12874	0.12608	0.22792	0.44789	0.099736	0.10712	0.15387	0.27702	0.074266	0.30288	0.082872	0.21306	-1.8646	-2.5167	-2.4896	-2.5896	-2.6167	-2.3167	-2.7792	-2.6667	-2.1229	-2.6833	-2.6833	-2.35	-2.6937	-2.2875	-2.4979	-2.6375	172.931	92.014	204.959	223.015	-14.277	-28.755	163.676	188.058	140.136	-28.627	152.293	198.218	-78.942	169.384	107.430	248.743	0.00012776	0.0004348	5.3212e-05	1115.2	4.3161e-06	2.4994e-06	1202.5	228.57	2.4934e-06	1.3828e-06	290.43	80.731	61.274	19.072	2.655e-06	26.315	0.00019138	0.00019004	5.3678e-05	1089.8	2.156e-06	2.1547e-06	1178	225.77	2.1989e-06	2.1534e-06	284.58	80.47	61.042	19.171	2.1909e-06	26.514	-51.613	-33.404	-27.170	-89.999	-41.495	-4.058	-89.751	-82.458	128.173	78.672	-83.212	-75.817	-75.634	-69.078	10.748	-69.781	-8191	255	
1734.024	1	1	0	0	0.34946	0.13589	0.17799	0.14437	0.17059	0.095593	0.29454	0.32176	0.16375	0.30419	0.37028	0.12795	0.25907	0.15505	0.13788	0.19474	-1.7563	-2.4854	-2.3937	-2.5271	-2.6417	-2.4896	-2.7146	-2.9271	-2.2708	-2.65	-2.6979	-2.3063	-2.6312	-2.3479	-2.3979	-2.8312	-30.570	-39.481	151.145	-69.792	213.052	144.062	242.337	-90.185	122.515	-52.973	125.803	184.502	118.828	70.695	240.423	26.296	9.9136e-05	0.00030588	7.1761e-05	1114	2.0416e-06	3.2189e-06	1203.5	228.96	2.0159e-06	1.9931e-06	288.19	80.596	61.428	19.221	2.1603e-06	26.302	0.0001998	0.00020021	5.5395e-05	1091.6	2.2491e-06	2.1904e-06	1179	225.95	2.2294e-06	2.3041e-06	283.94	80.331	61.268	19.218	2.2559e-06	26.539	-67.249	-29.367	-11.852	-90.094	-9.211	-45.359	-90.033	-82.563	-30.977	7.650	-83.069	-76.237	-75.963	-68.845	83.323	-69.739	-8191	255	
1734.120	1	1	0	0	0.29854	0.25461	0.31023	0.40579	0.10407	0.12942	0.40242	0.11294	0.27475	0.10631	0.20117	0.30052	0.10788	0.25594	0.44755	0.15847	-1.8813	-2.6042	-2.6833	-2.2625	-2.6813	-2.4521	-2.5271	-2.8625	-2.35	-2.5667	-2.6208	-2.2313	-2.7125	-2.6458	-2.1396	-2.85	237.040	118.568	-68.331	252.096	159.989	-69.401	190.683	-63.741	177.843	94.432	178.270	202.939	108.606	-88.826	-28.997	211.130	0.00011873	0.00027825	4.0792e-05	1117.5	3.7271e-06	4.8615e-06	1206.7	229.22	3.5742e-06	5.8533e-06	288.22	80.18	61.209	19.08	1.4608e-06	26.211	0.00020421	0.00020704	5.7107e-05	1091	2.2544e-06	2.2617e-06	1178.7	226.04	2.3165e-06	2.3001e-06	284.1	80.137	61.099	19.196	2.3494e-06	26.445	-69.518	93.909	12.771	-90.239	29.284	-2.559	-89.805	-82.306	62.501	87.414	-83.145	-75.768	-76.488	-69.187	44.400	-69.935	-8191	255	
1734.192	1	1	0	0	0.26887	0.087945	0.16434	0.15298	0.27629	0.30674	0.38868	0.10426	0.12238	0.17932	0.11234	0.095773	0.21783	0.13297	0.10118	0.12817	-1.8188	-2.5083	-2.5604	-2.2542	-2.7896	-2.6312	-2.6125	-2.8208	-2.1396	-2.575	-2.7854	-2.4062	-2.7583	-2.7	-2.2104	-2.8292	240.266	74.863	159.747	238.461	138.638	20.857	217.524	230.806	55.818	249.048	126.325	172.412	236.775	-47.262	153.117	176.056	8.2171e-05	0.00062878	5.1639e-05	1119.1	1.263e-06	7.7452e-07	1208.7	229.64	2.3891e-06	6.9838e-06	289.22	80.705	61.229	19.078	3.8575e-06	26.176	0.00020877	0.00020946	5.6726e-05	1091.6	2.3146e-06	2.235e-06	1179.7	226.15	2.2399e-06	2.2347e-06	284.01	80.378	61.128	19.125	2.2231e-06	26.432	-64.620	-27.441	-78.418	-90.095	216.076	95.346	-89.959	-82.806	79.120	111.559	-83.032	-75.764	-75.664	-68.965	-8.168	-69.828	-8191	255	
1734.288	1	1	0	0	0.19116	0.21879	0.07969	0.22773	0.3014	0.087944	0.15464	0.11799	0.23833	0.1954	0.18264	0.2257	0.24739	0.24261	0.15989	0.29202	-1.9396	-2.2188	-2.6583	-2.4813	-2.4979	-2.65	-2.4958	-2.5875	-2.3958	-2.4896	-2.7271	-2.3521	-2.5979	-2.5812	-2.1083	-2.7188	-65.319	57.250	118.778	-87.240	58.457	40.513	197.072	234.311	248.240	108.679	151.974	-63.711	-90.036	22.656	62.584	233.440	0.00015579	0.00033645	7.5097e-05	1119.4	3.0819e-06	3.2213e-06	1205.9	228.97	4.1489e-06	2.8337e-06	284.97	79.894	61.323	19.09	3.6406e-06	26.082	0.00019401	0.00019756	5.4598e-05	1090.9	2.1012e-06	2.0672e-06	1175	225.72	1.9812e-06	1.9581e-06	282.17	79.829	60.88	19.061	1.9057e-06	26.276	-68.766	-27.420	3.663	-90.044	17.375	21.628	-89.703	-82.505	40.546	65.174	-83.009	-75.955	-75.711	-69.125	43.379	-69.255	-8191	255	
1734.409	1	1	0	0	0.14883	0.14592	0.15503	0.16798	0.03122	0.21489	0.15256	0.014832	0.090772	0.10031	0.25659	0.10924	0.10056	0.21384	0.23299	0.078305	-1.8854	-2.2062	-2.7479	-2.3937	-2.4917	-2.6229	-2.3146	-2.8583	-2.5729	-2.4313	-2.9104	-2.5333	-2.5438	-2.6375	-2.1813	-2.6875	200.289	103.034	178.168	178.814	25.062	-5.408	-68.366	-16.762	38.821	40.495	67.031	175.803	-4.302	-75.877	86.879	120.744	5.4454e-05	0.00017675	9.3638e-05	1113.4	5.0413e-06	1.8004e-06	1206.4	227.49	1.5675e-06	6.1165e-06	287.54	80.355	61.216	18.874	2.0312e-06	26.353	0.00017867	0.0001761	4.9679e-05	1086.7	2.0082e-06	1.953e-06	1175.4	224.61	1.9867e-06	1.9908e-06	283.2	80.074	60.847	19.034	1.9522e-06	26.373	-61.120	-19.695	-11.674	-90.062	64.943	82.456	-89.810	-82.347	5.430	79.572	-82.974	-76.214	-75.845	-69.072	79.459	-69.405	-8191	255	
1734.505	1	1	0	0	0.066613	0.070841	0.37865	0.052534	0.21099	0.095544	0.44543	0.26475	0.15897	0.16189	0.37736	0.24337	0.3812	0.081667	0.058463	0.34234	-1.9604	-2.1542	-2.6792	-2.5625	-2.4542	-2.5667	-2.2521	-2.625	-2.5729	-2.2062	-2.8875	-2.5354	-2.4688	-2.6708	-2.4	-2.5979	-89.701	-44.114	-36.932	108.356	138.710	69.261	160.395	153.477	-91.232	-48.791	176.081	257.881	245.417	178.906	134.216	166.920	0.00011786	8.9332e-05	9.2626e-05	1108.7	8.7296e-07	4.6182e-06	1197.1	228.5	1.2181e-06	2.0126e-06	286.96	80.065	60.899	18.922	8.9209e-07	26.32	0.00017972	0.00017733	4.8155e-05	1084.3	1.949e-06	1.8961e-06	1169.3	224.94	1.8912e-06	1.8454e-06	281.69	79.761	60.665	18.974	1.8342e-06	26.309	-87.248	98.693	4.081	-90.130	46.019	53.840	-89.996	-82.825	-41.756	67.005	-83.027	-75.770	-75.635	-68.905	32.798	-68.902	-8191	255	
1734.599	1	1	0	0	0.067154	0.45277	0.085825	0.091061	0.14191	0.16127	0.22087	0.056579	0.19078	0.13864	0.34702	0.38025	0.26139	0.086612	0.0068473	0.14029	-1.9479	-2.1167	-2.825	-2.5833	-2.4396	-2.5625	-2.375	-2.5208	-2.5812	-2.1958	-2.7042	-2.5646	-2.4604	-2.7021	-2.325	-2.7313	-26.766	158.416	215.862	118.395	-87.547	93.608	237.511	240.585	-90.268	57.726	216.493	-49.137	250.672	-78.290	181.507	89.799	8.7284e-05	0.00030085	0.00014031	1112.5	4.0623e-06	3.3149e-06	1202.8	227.58	1.041e-06	2.8007e-06	288.43	80.03	60.575	18.947	4.5793e-06	26.122	0.00017302	0.00017358	4.6622e-05	1085.7	1.969e-06	1.8895e-06	1172.2	224.08	2.0272e-06	2.0615e-06	282.96	79.997	60.593	19.046	2.0764e-06	26.282	-72.575	-44.471	-41.338	-89.981	54.597	25.685	-89.903	-82.635	-9.704	95.991	-83.035	-76.036	-75.545	-68.911	95.421	-69.213	-8191	255	
1734.695	1	1	0	0	0.038842	0.1037	0.13748	0.13635	0.23746	0.15612	0.26948	0.20077	0.17876	0.3444	0.27027	0.057876	0.059026	0.28023	0.14259	0.30561	-2.1021	-2.2042	-2.5687	-2.6188	-2.1396	-2.5062	-2.4104	-2.5396	-2.6542	-2.1042	-2.4604	-2.4458	-2.3708	-2.6583	-2.1979	-2.4562	244.035	-48.874	173.601	63.527	202.460	-97.150	197.223	149.576	-40.336	130.055	-41.800	205.019	-6.894	117.997	-25.380	120.090	0.00011599	0.00045347	5.2382e-05	1106.8	5.4691e-06	3.3572e-06	1200.4	228.29	1.8234e-06	4.4496e-06	286.49	80.157	61.013	18.837	2.6962e-06	26.188	0.00019625	0.000195	5.6714e-05	1085.8	2.2116e-06	2.2154e-06	1175	225.04	2.2125e-06	2.2742e-06	282.6	80.178	60.964	19.055	2.235e-06	26.356	-88.025	26.228	-16.903	-89.911	0.069	8.922	-89.876	-82.451	71.974	57.906	-83.200	-75.989	-75.451	-68.888	32.140	-69.521	-8191	255	
1734.791	1	1	0	0	0.022915	0.09718	0.10561	0.23884	0.068169	0.25138	0.16291	0.24344	0.1959	0.20295	0.33452	0.18157	0.2542	0.12657	0.08997	0.12438	-2.2833	-2.05	-2.4562	-2.5563	-2.275	-2.6417	-2.4562	-2.4062	-2.7438	-2.1521	-2.6854	-2.6208	-2.3792	-2.7375	-2.3208	-2.5312	145.990	-10.522	145.989	228.862	126.805	74.978	30.945	173.988	253.396	145.455	-98.013	117.080	229.551	254.118	103.943	-84.583	0.00013589	0.00043225	6.1971e-05	1112	3.2088e-07	4.4151e-06	1197.3	228.29	1.9552e-06	2.3096e-06	286.8	79.679	61.049	19.069	2.7388e-06	26.238	0.00020018	0.00020582	5.6748e-05	1087.3	2.2308e-06	2.2296e-06	1174.3	224.97	2.1646e-06	2.2411e-06	282.31	79.83	60.829	19.114	2.1747e-06	26.406	-86.330	-11.474	-10.661	-90.012	123.124	41.091	-89.882	-82.597	84.748	62.306	-82.851	-75.976	-75.596	-68.806	52.285	-69.377	-8191	255	
1734.888	1	1	0	0	0.15054	0.26194	0.24614	0.065653	0.30225	0.10252	0.2307	0.4091	0.14522	0.089236	0.10234	0.2542	0.11588	0.16134	0.14211	0.24303	-2.2896	-1.9708	-2.5208	-2.7687	-2.2062	-2.6792	-2.5229	-2.1688	-2.5375	-2.2146	-2.5375	-2.5771	-2.2812	-2.6979	-2.4896	-2.3438	54.114	208.863	177.545	110.019	149.528	247.705	247.259	219.530	177.330	176.631	203.310	207.639	43.287	118.038	139.530	-75.355	0.00012284	0.00059171	9.3323e-05	1113.4	2.7849e-06	3.0921e-06	1204.5	227.46	1.0879e-06	2.5212e-06	288.05	80.059	61.06	18.927	1.7866e-06	26.066	0.00020249	0.00019932	5.4075e-05	1089	2.1442e-06	2.1206e-06	1176.2	225.13	2.0131e-06	1.9852e-06	283.13	79.864	60.659	19.01	1.8423e-06	26.149	-79.946	-14.399	-8.508	-90.088	-40.057	45.008	-89.981	-82.587	26.852	35.644	-83.027	-75.475	-75.680	-68.818	1.486	-69.486	-8191	255	
1735.008	1	1	0	0	0.26436	0.15683	0.11416	0.034472	0.10041	0.18193	0.070384	0.18231	0.13341	0.16982	0.10022	0.16996	0.25475	0.24205	0.1919	0.26553	-2.3146	-2.1271	-2.5146	-2.6479	-2.275	-2.7646	-2.6021	-2.2271	-2.7083	-2.2313	-2.6208	-2.6063	-2.4083	-2.4437	-2.3375	-2.0958	-63.069	118.360	-8.080	246.777	192.676	199.945	152.009	158.045	-19.768	43.247	19.053	-83.687	-97.554	120.032	101.470	-80.707	0.00011638	0.00029714	1.3555e-05	1109.4	2.6806e-06	1.939e-06	1191	226.34	4.7852e-07	3.0761e-06	285.48	79.88	60.694	18.856	1.6493e-06	26.016	0.00016873	0.0001687	4.6161e-05	1080.9	1.8981e-06	1.8646e-06	1165.8	223.69	1.8828e-06	1.816e-06	280.61	79.338	60.377	18.933	1.8209e-06	26.183	-65.094	-71.095	31.901	-89.939	56.411	70.078	-89.944	-82.438	191.921	76.215	-82.804	-75.998	-75.563	-68.772	-15.107	-69.220	-8191	255	
1735.104	1	1	0	0	0.19613	0.20462	0.1862	0.15858	0.1145	0.17495	0.2268	0.31367	0.039166	0.17424	0.38705	0.14246	0.17925	0.13073	0.26696	0.18424	-2.1271	-2.3021	-2.2438	-2.8917	-2.1542	-2.6083	-2.7396	-2.3458	-2.8458	-2.4313	-2.4646	-2.6542	-2.4667	-2.3333	-2.5458	-2.2375	9.196	-22.982	14.006	170.872	84.400	0.109	159.160	253.965	129.310	239.548	187.769	193.093	106.556	117.584	-25.619	214.148	9.3751e-05	0.00034518	4.0763e-05	1101.1	2.4852e-06	9.1327e-07	1191.8	227.29	1.526e-06	4.1524e-06	286.33	79.452	60.694	18.975	1.398e-06	26.123	0.00017548	0.00017194	4.9244e-05	1076.7	2.0471e-06	1.9884e-06	1165.7	223.47	2.0538e-06	2.0574e-06	281.13	79.52	60.415	18.988	2.0277e-06	26.231	-66.404	-4.122	54.188	-90.140	-95.819	159.193	-89.894	-82.525	57.064	86.001	-82.460	-76.078	-75.541	-68.511	56.610	-69.358	-8191	255	
1735.201	1	1	0	0	0.31686	0.22027	0.334	0.23631	0.25545	0.26555	0.33727	0.1237	0.11931	0.16939	0.18967	0.17801	0.28398	0.12691	0.096444	0.30435	-2.2229	-2.3292	-2.225	-2.9562	-2.1937	-2.5375	-2.875	-2.5042	-2.4479	-2.3229	-2.3083	-2.7917	-2.4958	-2.5312	-2.6083	-2.3083	158.766	256.237	237.545	232.181	200.393	-57.549	155.432	212.125	210.633	167.699	200.586	114.522	1.505	-38.338	49.295	100.098	0.00011768	0.00014008	6.6799e-05	1105	2.2277e-06	3.3871e-06	1193.1	224.56	3.4278e-06	1.8693e-06	284.21	79.167	60.342	18.732	1.5474e-06	26.041	0.00018098	0.00017771	4.8459e-05	1080.1	1.885e-06	1.8161e-06	1162.2	221.25	1.7814e-06	1.7325e-06	278.41	78.804	59.838	18.753	1.6899e-06	26.037	-73.475	15.127	-31.120	-90.046	91.222	-4.021	-89.888	-82.632	42.915	30.191	-82.758	-75.926	-75.377	-68.535	111.333	-69.288	-8191	255	
1735.297	1	1	0	0	0.28237	0.23394	0.17235	0.2	0.097867	0.17716	0.13491	0.12225	0.064166	0.29617	0.030619	0.14381	0.22139	0.017265	0.10159	0.15405	-2.25	-2.4896	-2.2417	-2.8042	-2.5667	-2.4688	-2.925	-2.3625	-2.55	-2.4208	-2.3937	-2.7167	-2.4292	-2.4083	-2.6271	-2.4771	127.496	178.011	-38.199	245.950	-50.452	120.200	-56.421	196.683	253.253	96.675	80.540	141.000	180.490	-32.745	115.782	-90.171	9.7782e-05	0.00054203	1.9563e-05	1096.2	4.3938e-06	1.789e-06	1184.4	224.83	2.1846e-06	3.295e-06	281.54	78.51	60.112	18.66	3.2382e-06	25.842	0.00015783	0.000158	4.234e-05	1069.2	1.7114e-06	1.6567e-06	1155.5	220.57	1.7406e-06	1.6261e-06	277.49	78.473	59.799	18.789	1.6193e-06	25.891	-66.983	-17.866	3.847	-90.028	15.858	18.400	-89.932	-82.491	49.013	107.949	-82.953	-75.520	-75.716	-68.855	52.804	-69.340	-8191	255	
1735.417	1	1	0	0	0.17682	0.24701	0.06005	0.10505	0.21537	0.16483	0.18932	0.16498	0.1919	0.069081	0.27781	0.14137	0.11343	0.072856	0.30054	0.30723	-2.0229	-2.4062	-2.2396	-2.8375	-2.4854	-2.4604	-2.9146	-2.5604	-2.475	-2.575	-2.2687	-2.7208	-2.5833	-2.3583	-2.5771	-2.4125	146.011	127.021	55.542	231.549	204.074	53.157	198.748	257.255	-76.326	48.660	193.657	135.917	-82.008	-64.959	7.503	226.524	7.0278e-05	0.00042203	5.917e-05	1091.7	3.0184e-06	1.7035e-06	1182.3	223.69	1.8734e-06	3.5953e-06	283.04	78.782	59.623	18.608	3.0875e-06	26.064	0.00015494	0.00014755	4.0523e-05	1066.4	1.6316e-06	1.6326e-06	1153.4	220.45	1.6597e-06	1.6508e-06	277.23	78.574	59.532	18.738	1.6533e-06	25.854	-55.626	-99.074	1.828	-90.109	28.478	151.729	-90.145	-82.666	24.262	82.022	-82.859	-75.740	-75.641	-68.576	86.681	-69.026	-8191	255	
1735.489	1	1	0	0	0.072519	0.071939	0.018629	0.11693	0.097745	0.27357	0.042362	0.13488	0.049112	0.056253	0.13106	0.063393	0.11591	0.15262	0.14395	0.24635	-2.2687	-2.5708	-2.3771	-2.8833	-2.7167	-2.175	-3.0354	-2.4646	-2.5812	-2.6833	-2.2313	-2.6688	-2.5521	-2.4271	-2.6958	-2.3125	-52.535	197.170	225.604	-84.793	208.983	91.549	98.417	197.791	230.673	166.613	101.325	156.033	9.707	113.299	-13.098	193.285	7.6588e-05	0.00037252	2.6079e-05	1094.1	5.5122e-06	3.882e-06	1186.7	223.8	2.232e-06	1.7788e-06	284.21	78.652	60.086	18.833	4.691e-06	25.79	0.00016127	0.00015125	4.2672e-05	1065.7	1.7676e-06	1.7424e-06	1154.2	220.22	1.7929e-06	1.7398e-06	278.13	78.707	59.728	18.786	1.7554e-06	25.873	-80.962	-33.708	244.486	-89.983	-15.628	1.399	-89.978	-82.192	48.767	117.829	-83.000	-75.936	-75.768	-69.081	129.952	-69.228	-8191	255	
1735.585	1	1	0	0	0.044718	0.27016	0.22981	0.18065	0.15754	0.19873	0.16439	0.060052	0.12137	0.2974	0.26402	0.097592	0.16557	0.1283	0.10218	0.25981	-1.9021	-2.6688	-2.1	-2.8167	-2.4292	-2.1958	-2.9146	-2.4021	-2.3208	-2.5583	-2.4354	-2.5708	-2.6417	-2.4375	-2.7687	-2.3	54.124	-2.486	-14.064	-75.762	183.481	149.288	241.925	-70.228	189.931	252.099	-89.989	-78.666	223.055	217.374	-35.265	228.437	0.00012774	0.00038389	4.4485e-05	1092.8	2.4562e-06	2.883e-06	1178	224.71	2.6003e-06	6.6833e-07	282.58	79.364	59.965	18.699	2.7219e-06	25.91	0.00016284	0.0001574	4.4191e-05	1067.5	1.7576e-06	1.6676e-06	1151.4	220.8	1.7142e-06	1.6618e-06	277.46	78.804	59.742	18.69	1.7051e-06	25.954	-78.322	-47.793	-39.669	-90.150	43.345	25.147	-89.836	-82.154	41.497	61.371	-82.907	-76.144	-75.062	-68.819	-18.271	-69.577	-8191	255	
1735.680	1	1	0	0	0.12955	0.085473	0.047999	0.33422	0.18258	0.18625	0.19187	0.50521	0.20308	0.097829	0.31979	0.35569	0.25967	0.20625	0.19144	0.075708	-2.1	-2.7896	-2.1708	-2.5875	-2.6792	-2.3312	-2.8312	-2.4208	-2.3812	-2.7521	-2.3479	-2.4042	-2.7021	-2.1833	-2.7208	-2.5812	227.350	-9.436	118.976	208.855	13.970	-75.412	210.614	223.570	227.982	133.118	223.907	-26.015	6.391	175.023	191.558	83.791	8.0072e-05	0.00025869	9.4898e-05	1091.7	5.7932e-06	4.8367e-06	1181.8	223.45	2.3024e-06	3.4091e-06	281.62	78.787	59.756	18.645	4.2495e-06	25.836	0.00015991	0.00015691	4.237e-05	1066.7	1.7679e-06	1.7168e-06	1152.7	220.2	1.7712e-06	1.713e-06	277.01	78.621	59.696	18.673	1.8052e-06	25.9	-77.756	71.243	-38.983	-90.177	84.442	54.508	-89.680	-82.500	77.716	58.846	-82.898	-75.814	-75.731	-68.383	129.841	-69.188	-8191	255	
1735.800	1	1	0	0	0.22771	0.085964	0.38927	0.042772	0.15891	0.048323	0.10968	0.061888	0.09041	0.13524	0.25879	0.17007	0.42328	0.20272	0.15462	0.094951	-1.775	-2.6771	-2.2229	-2.6479	-2.6208	-2.2667	-2.8458	-2.65	-2.2833	-2.6917	-2.6312	-2.4792	-2.6771	-2.3812	-2.6625	-2.7396	-37.215	216.379	-2.653	203.484	19.249	183.543	112.479	227.670	17.607	123.899	199.167	-45.172	222.423	193.300	168.285	30.884	0.00011232	0.00049039	3.6183e-05	1092.6	2.1906e-06	2.3327e-06	1183.4	222.64	2.442e-06	2.0519e-06	283.05	79.023	59.987	18.565	2.3225e-06	25.999	0.00016798	0.00016712	4.6538e-05	1066.2	1.8534e-06	1.8044e-06	1152.8	220.56	1.9133e-06	1.8724e-06	277.56	78.877	59.841	18.689	1.8716e-06	25.996	-62.824	-66.552	24.875	-90.016	192.849	20.193	-90.020	-82.393	24.162	55.380	-83.068	-76.118	-75.551	-68.527	238.187	-68.924	-8191	255	
1735.896	1	1	0	0	0.096962	0.040349	0.029128	0.15484	0.049119	0.19113	0.17104	0.26139	0.2662	0.10863	0.2398	0.18408	0.0823	0.32416	0.12356	0.16896	-1.7208	-2.7875	-2.4938	-2.5292	-2.7438	-2.3708	-2.8271	-2.8208	-2.1229	-2.6562	-2.4625	-2.5896	-2.8896	-2.2021	-2.6292	-2.6229	174.855	236.932	-65.949	181.522	40.470	221.966	164.844	237.234	63.757	22.977	201.586	106.481	226.130	-21.772	245.685	174.189	7.3037e-05	0.00021584	0.00010307	1096.4	4.5259e-06	3.3266e-06	1181.3	224.51	1.9849e-06	3.8429e-06	283.44	78.989	59.736	18.666	1.4867e-06	25.944	0.00017359	0.00016856	4.7135e-05	1068.2	1.9249e-06	1.9115e-06	1153.8	220.85	1.9024e-06	1.8819e-06	277.82	78.76	59.731	18.768	1.9333e-06	26.002	-59.209	14.023	-46.258	-90.031	68.567	22.531	-89.765	-82.562	61.192	35.556	-83.035	-75.621	-75.411	-68.652	112.180	-69.339	-8191	255	
1735.992	1	1	0	0	0.075604	0.22725	0.17797	0.10827	0.1978	0.12869	0.25562	0.16412	0.051206	0.061087	0.12569	0.036291	0.21877	0.27197	0.031343	0.20902	-1.8188	-2.8375	-2.4167	-2.4854	-2.7375	-2.3375	-2.7479	-2.5729	-2.325	-2.6813	-2.6375	-2.3708	-2.7521	-2.4979	-2.4042	-2.7604	158.493	-61.446	213.548	9.064	-42.604	254.185	247.949	258.932	-14.310	233.667	157.418	207.711	238.476	-28.664	-69.909	-11.939	0.00012957	0.00025687	8.4507e-05	1094.5	4.4789e-06	1.2872e-06	1179.5	223.93	1.7707e-06	5.9151e-06	282.22	78.762	60.25	18.787	4.1362e-06	25.757	0.00018014	0.00017821	4.9066e-05	1069.7	1.996e-06	1.9307e-06	1153.9	221.22	1.9612e-06	1.9376e-06	277.8	78.809	59.939	18.813	2.0299e-06	25.96	-65.966	-24.524	-24.262	-89.842	122.985	-21.585	-89.933	-82.923	-75.494	105.884	-83.082	-76.029	-75.680	-69.027	41.104	-69.318	-8191	255	
1736.089	1	1	0	0	0.24098	0.18324	0.24405	0.15678	0.03788	0.27263	0.13575	0.24571	0.35273	0.20641	0.18196	0.19669	0.26548	0.055275	0.15505	0.092538	-1.7313	-2.5625	-2.5687	-2.2354	-2.7396	-2.4208	-2.4958	-2.6188	-2.1958	-2.6417	-2.4292	-2.225	-2.6333	-2.5021	-2.2417	-2.7104	110.414	182.746	179.594	227.508	154.678	7.920	143.092	163.232	96.179	26.844	158.690	-81.678	233.301	101.137	-57.400	56.522	0.00010334	0.0001639	9.9404e-05	1095.7	3.6411e-06	4.5177e-06	1186.2	224.41	1.8383e-06	7.3378e-07	283.53	79.786	60.102	18.864	2.1375e-06	26.055	0.00018691	0.00018472	5.1131e-05	1070.6	2.0376e-06	2.0763e-06	1159.6	222.18	2.1791e-06	2.0971e-06	278.99	79.285	60.044	18.901	2.1078e-06	26.123	-88.436	-21.366	5.563	-90.046	-7.923	74.880	-90.017	-82.591	88.368	30.841	-83.049	-75.628	-75.697	-69.052	240.439	-69.102	-8191	255	
1736.185	1	1	0	0	0.41019	0.25114	0.099492	0.19278	0.20813	0.092422	0.096522	0.2135	0.038724	0.097786	0.1573	0.24452	0.22379	0.074004	0.34939	0.26842	-1.7333	-2.5229	-2.6458	-2.3792	-2.6208	-2.4208	-2.4	-2.75	-2.1562	-2.4083	-2.5187	-2.1646	-2.7708	-2.4771	-2.4062	-2.6875	158.996	165.732	169.886	-22.493	135.738	-10.249	-36.799	-98.230	177.930	228.558	239.362	75.215	-49.493	-73.175	74.356	-82.203	0.00012031	0.0006231	7.9086e-05	1102	1.1367e-06	4.7011e-06	1185.4	224.28	2.0098e-06	4.3613e-06	284.01	79.331	60.138	18.761	4.9049e-06	26.185	0.00019037	0.00019376	5.2261e-05	1073.5	2.1484e-06	2.1248e-06	1161.7	222	2.1512e-06	2.0943e-06	279.79	79.228	60.091	18.894	2.1652e-06	26.11	-67.320	-7.576	-12.324	-89.905	39.247	48.103	-89.868	-82.588	37.989	55.181	-83.013	-76.167	-75.676	-68.840	44.373	-69.161	-8191	255	
1736.281	1	1	0	0	0.15348	0.045942	0.23041	0.30812	0.057406	0.14804	0.12799	0.24428	0.30939	0.11677	0.26362	0.12628	0.13272	0.15907	0.11591	0.10134	-1.7563	-2.4813	-2.7521	-2.4417	-2.6458	-2.4562	-2.3271	-2.9854	-2.5271	-2.5604	-2.6521	-2.3333	-2.5062	-2.6813	-2.1063	-2.8479	-63.378	185.838	-74.612	217.664	33.729	221.368	196.164	239.754	130.702	125.692	-33.565	15.659	175.379	147.915	-35.441	7.887	0.00013925	0.00034734	9.7872e-05	1099.9	1.2511e-06	4.5068e-06	1191.1	225.64	1.9072e-06	5.6153e-07	285.32	79.756	60.491	18.723	1.474e-06	25.847	0.00019565	0.00018972	5.3321e-05	1075.5	2.1438e-06	2.1298e-06	1162.9	222.37	2.145e-06	2.104e-06	279.64	79.466	60.211	18.845	2.1005e-06	26.122	-96.730	-61.939	-0.222	-90.124	249.883	61.953	-90.048	-82.552	88.354	-0.078	-82.857	-76.018	-75.757	-68.732	-9.416	-69.106	-8191	255	
1736.377	1	1	0	0	0.31032	0.15433	0.13954	0.22751	0.31787	0.20144	0.35999	0.24571	0.18216	0.30079	0.15588	0.16555	0.23162	0.15131	0.18653	0.20498	-1.8625	-2.5625	-2.5563	-2.2479	-2.6354	-2.3854	-2.5125	-2.65	-2.3271	-2.4708	-2.7188	-2.1396	-2.5208	-2.5958	-2.2958	-2.6479	10.743	182.788	48.441	249.456	163.191	-85.936	238.212	214.970	58.999	154.154	-36.676	160.929	199.100	229.470	138.330	5.919	0.00013683	0.00035175	2.0325e-05	1106.4	3.41e-06	4.1657e-06	1184.7	224.63	1.3127e-06	9.0913e-07	284.57	79.021	60.596	18.717	3.5852e-06	25.874	0.00018825	0.00018301	5.0523e-05	1075.4	2.0218e-06	1.9672e-06	1160.3	221.73	2.0035e-06	1.9535e-06	279.49	79.125	60.193	18.861	2.0163e-06	26.036	-81.226	-82.660	-9.669	-90.033	55.507	41.144	-89.876	-82.487	15.676	118.638	-82.974	-76.389	-75.699	-68.958	67.006	-69.106	-8191	255	
1736.498	1	1	0	0	0.33172	0.066194	0.072857	0.26811	0.16268	0.1307	0.30796	0.24213	0.097544	0.10337	0.12964	0.064116	0.13089	0.35846	0.072776	0.07587	-1.9958	-2.2792	-2.75	-2.3812	-2.4688	-2.5667	-2.4062	-2.8625	-2.3333	-2.3604	-2.7667	-2.3854	-2.3708	-2.6	-2.2521	-2.8146	112.581	81.124	244.815	-95.940	56.662	61.169	189.944	-87.654	139.473	-54.814	-98.956	2.490	26.591	214.444	-95.608	-97.790	7.3548e-05	0.00045097	0.00010153	1097.9	2.9499e-06	3.0107e-06	1188.1	225.91	9.3279e-07	3.7798e-06	283.02	79.084	60.337	18.718	3.2637e-07	25.876	0.0001823	0.00018481	4.9738e-05	1075.8	2.0539e-06	1.9963e-06	1163.2	222.46	2.0671e-06	2.0136e-06	279.34	79.341	60.081	18.855	2.056e-06	26.102	-92.617	-35.313	-46.481	-90.249	38.165	57.571	-89.946	-82.152	133.455	135.100	-82.861	-75.737	-75.462	-68.916	20.258	-69.020	-8191	255	
#DATA ENDS
