BOXY.EXE: ISS Imagent and Oximeter Data Acquisition Program Version 0.80
Ascii Record File

#ACQ INFORMATION
2  Detector Channels 
16  External MUX Channels 
1  Auxiliary Channels 
5000  Waveform (CCF) Frequency (Hz)
1  Waveforms Skipped 
30  Waveforms Averaged 
1  Cycles Averaged 
16  Acquisitions per Waveform 
10.0806  Updata Rate (Hz) 

#FILE INFORMATION
TRUE -- External MUX Channel results are PARSED.
FALSE -- AC DC and Phase are NOT grouped.
TRUE -- Companion Program Settings File CREATED.
FALSE -- AC data not excluded
FALSE -- DC data not excluded
FALSE -- Phase data not excluded
FALSE -- Auxillary Chn. data not excluded
Tab delimiters

#CALIBRATION STATE
TRUE -- Waveform Calibration Values APPLIED.


#AUX CALIBRATION VALUES
Val Type	aux-1	

Term	1.0000e+00	
Factor	0.0000e+00	


#WF CALIBRATION VALUES
A = Detector Channel
Val Type	A-AC1	A-AC2	A-AC3	A-AC4	A-AC5	A-AC6	A-AC7	A-AC8	A-AC9	A-AC10	A-AC11	A-AC12	A-AC13	A-AC14	A-AC15	A-AC16	A-DC1	A-DC2	A-DC3	A-DC4	A-DC5	A-DC6	A-DC7	A-DC8	A-DC9	A-DC10	A-DC11	A-DC12	A-DC13	A-DC14	A-DC15	A-DC16	A-Ph1	A-Ph2	A-Ph3	A-Ph4	A-Ph5	A-Ph6	A-Ph7	A-Ph8	A-Ph9	A-Ph10	A-Ph11	A-Ph12	A-Ph13	A-Ph14	A-Ph15	A-Ph16	

Term	0.00000e+00	0.00000e+00	0.00000e+00	0.00000e+00	0.00000e+00	0.00000e+00	0.00000e+00	0.00000e+00	0.00000e+00	0.00000e+00	0.00000e+00	0.00000e+00	0.00000e+00	0.00000e+00	0.00000e+00	0.00000e+00	0.00000e+00	0.00000e+00	0.00000e+00	0.00000e+00	0.00000e+00	0.00000e+00	0.00000e+00	0.00000e+00	0.00000e+00	0.00000e+00	0.00000e+00	0.00000e+00	0.00000e+00	0.00000e+00	0.00000e+00	0.00000e+00	0.00000e+00	0.00000e+00	0.00000e+00	0.00000e+00	0.00000e+00	0.00000e+00	0.00000e+00	0.00000e+00	0.00000e+00	0.00000e+00	0.00000e+00	0.00000e+00	0.00000e+00	0.00000e+00	0.00000e+00	0.00000e+00	
Factor	1.00000e+00	1.00000e+00	1.00000e+00	1.00000e+00	1.00000e+00	1.00000e+00	1.00000e+00	1.00000e+00	1.00000e+00	1.00000e+00	1.00000e+00	1.00000e+00	1.00000e+00	1.00000e+00	1.00000e+00	1.00000e+00	1.00000e+00	1.00000e+00	1.00000e+00	1.00000e+00	1.00000e+00	1.00000e+00	1.00000e+00	1.00000e+00	1.00000e+00	1.00000e+00	1.00000e+00	1.00000e+00	1.00000e+00	1.00000e+00	1.00000e+00	1.00000e+00	X	X	X	X	X	X	X	X	X	X	X	X	X	X	X	X	

B = Detector Channel
Val Type	B-AC1	B-AC2	B-AC3	B-AC4	B-AC5	B-AC6	B-AC7	B-AC8	B-AC9	B-AC10	B-AC11	B-AC12	B-AC13	B-AC14	B-AC15	B-AC16	B-DC1	B-DC2	B-DC3	B-DC4	B-DC5	B-DC6	B-DC7	B-DC8	B-DC9	B-DC10	B-DC11	B-DC12	B-DC13	B-DC14	B-DC15	B-DC16	B-Ph1	B-Ph2	B-Ph3	B-Ph4	B-Ph5	B-Ph6	B-Ph7	B-Ph8	B-Ph9	B-Ph10	B-Ph11	B-Ph12	B-Ph13	B-Ph14	B-Ph15	B-Ph16	

Term	0.00000e+00	0.00000e+00	0.00000e+00	0.00000e+00	0.00000e+00	0.00000e+00	0.00000e+00	0.00000e+00	0.00000e+00	0.00000e+00	0.00000e+00	0.00000e+00	0.00000e+00	0.00000e+00	0.00000e+00	0.00000e+00	0.00000e+00	0.00000e+00	0.00000e+00	0.00000e+00	0.00000e+00	0.00000e+00	0.00000e+00	0.00000e+00	0.00000e+00	0.00000e+00	0.00000e+00	0.00000e+00	0.00000e+00	0.00000e+00	0.00000e+00	0.00000e+00	-3.63263e+01	-1.44616e+02	-1.36455e+02	-1.83436e+02	-6.47196e+01	-8.14628e+01	-1.60695e+02	-1.62015e+02	-4.27404e+01	-5.87643e+01	-1.72707e+02	-1.72386e+02	-1.83401e+02	-1.78286e+02	-6.56670e+01	-1.51169e+02	
Factor	2.16242e-05	1.40199e-04	3.24853e-05	1.48686e-01	1.47159e-06	1.31807e-06	1.62454e-01	5.10240e-02	1.11014e-06	1.35182e-06	7.91605e-02	2.65441e-02	2.35584e-02	8.15133e-03	1.44641e-06	1.17866e-02	2.30442e-06	2.49268e-06	6.93736e-07	7.79555e-02	2.69482e-08	2.73278e-08	7.97935e-02	2.67642e-02	2.70149e-08	2.74240e-08	4.00788e-02	1.34491e-02	1.24290e-02	4.29815e-03	2.72636e-08	5.99323e-03	X	X	X	X	X	X	X	X	X	X	X	X	X	X	X	X	



#DISTANCE SETTINGS
A = Detector Channel
A-1	A-2	A-3	A-4	A-5	A-6	A-7	A-8	A-9	A-10	A-11	A-12	A-13	A-14	A-15	A-16	

2.5000e+00	3.0000e+00	2.5000e+00	3.0000e+00	2.0000e+00	3.0000e+00	1.5000e+00	3.0000e+00	3.0000e+00	3.0000e+00	3.0000e+00	3.0000e+00	3.0000e+00	3.0000e+00	1.5000e+00	3.0000e+00	

B = Detector Channel
B-1	B-2	B-3	B-4	B-5	B-6	B-7	B-8	B-9	B-10	B-11	B-12	B-13	B-14	B-15	B-16	

1.0000e+01	1.0000e+01	1.0000e+01	1.4400e+00	1.0000e+01	1.0000e+01	1.5100e+00	1.9400e+00	1.0000e+01	1.0000e+01	1.9900e+00	2.4900e+00	2.4100e+00	2.9000e+00	1.0000e+01	2.9800e+00	




#DATA BEGINS
time	group	step	mark	flag	A-AC1	A-AC2	A-AC3	A-AC4	A-AC5	A-AC6	A-AC7	A-AC8	A-AC9	A-AC10	A-AC11	A-AC12	A-AC13	A-AC14	A-AC15	A-AC16	A-DC1	A-DC2	A-DC3	A-DC4	A-DC5	A-DC6	A-DC7	A-DC8	A-DC9	A-DC10	A-DC11	A-DC12	A-DC13	A-DC14	A-DC15	A-DC16	A-Ph1	A-Ph2	A-Ph3	A-Ph4	A-Ph5	A-Ph6	A-Ph7	A-Ph8	A-Ph9	A-Ph10	A-Ph11	A-Ph12	A-Ph13	A-Ph14	A-Ph15	A-Ph16	B-AC1	B-AC2	B-AC3	B-AC4	B-AC5	B-AC6	B-AC7	B-AC8	B-AC9	B-AC10	B-AC11	B-AC12	B-AC13	B-AC14	B-AC15	B-AC16	B-DC1	B-DC2	B-DC3	B-DC4	B-DC5	B-DC6	B-DC7	B-DC8	B-DC9	B-DC10	B-DC11	B-DC12	B-DC13	B-DC14	B-DC15	B-DC16	B-Ph1	B-Ph2	B-Ph3	B-Ph4	B-Ph5	B-Ph6	B-Ph7	B-Ph8	B-Ph9	B-Ph10	B-Ph11	B-Ph12	B-Ph13	B-Ph14	B-Ph15	B-Ph16	aux-1	digaux	

1653.235	1	1	0	768	0.28757	0.15153	0.24808	0.15412	0.21669	0.16427	0.11555	0.12626	0.068561	0.11846	0.033723	0.30629	0.038028	0.10712	0.13145	0.23088	-2.1271	-2.5958	-2.675	-2.7313	-2.9292	-2.5771	-2.5104	-2.9771	-2.3354	-2.6042	-2.8479	-2.3042	-2.7938	-2.5917	-2.5312	-3.0792	208.665	-9.167	-54.846	240.111	-22.020	174.378	152.884	107.590	-45.332	227.696	74.392	131.185	-85.261	-64.024	-11.976	194.970	0.00026145	0.00069735	0.0001752	1375	1.3077e-06	7.7471e-06	1365.8	369.39	8.0767e-07	3.6228e-06	425.36	140.89	122.22	42.231	8.5537e-06	52.252	0.00053632	0.00055068	0.00015487	1387.3	6.0403e-06	6.1089e-06	1386.7	375.26	6.1062e-06	6.2004e-06	428.99	144.39	125.44	43.359	6.3551e-06	53.518	-77.851	-43.917	-36.216	-92.457	-95.137	18.667	-92.428	-87.529	-42.541	63.651	-88.093	-83.828	-83.385	-79.067	66.145	-79.548	-8191	255	
1653.331	1	1	0	0	0.21329	0.16504	0.13352	0.17896	0.054223	0.052895	0.33929	0.20943	0.041685	0.17748	0.15441	0.21929	0.039321	0.27327	0.31605	0.20966	-1.9917	-2.4896	-2.6646	-2.5604	-2.6979	-2.6708	-2.7375	-2.9333	-2.3146	-2.7083	-3.1042	-2.475	-2.775	-2.625	-2.2812	-3.0833	-15.159	72.604	35.685	229.420	-64.787	-38.920	254.002	71.074	52.698	72.367	-88.936	176.603	181.427	236.107	149.228	198.608	0.00022413	0.00070284	9.8746e-05	1371.1	3.5051e-06	3.8989e-06	1372.3	370.35	1.6335e-06	6.2706e-06	422.8	140.79	122.29	42.202	7.9133e-06	52.255	0.00056499	0.00058768	0.00016167	1387.7	6.3289e-06	6.3437e-06	1388.5	375.19	6.3233e-06	6.3576e-06	428.93	144.41	125.23	43.32	6.2981e-06	53.522	-68.363	-81.279	-40.570	-92.536	133.974	-24.056	-92.483	-87.613	109.268	0.723	-88.298	-83.907	-83.234	-79.082	-3.213	-79.557	-8191	255	
1653.426	1	1	0	0	0.31895	0.24652	0.16493	0.1028	0.29767	0.18052	0.27086	0.16527	0.25743	0.25889	0.2259	0.35246	0.13696	0.028933	0.16905	0.17811	-1.9042	-2.4792	-2.8063	-2.4583	-2.7438	-2.5042	-2.6083	-2.8208	-2.4375	-2.6479	-3.0146	-2.5271	-2.7438	-2.75	-2.45	-2.9792	169.512	218.008	-82.697	-48.241	-18.911	121.472	212.637	160.989	57.001	-13.133	202.084	-91.333	-39.723	230.341	84.794	194.547	0.00032093	0.00030973	0.00010438	1376	4.1947e-06	6.2316e-06	1377.1	368.99	4.32e-06	5.5022e-06	421.63	140.82	122.94	42.232	3.7776e-06	52.19	0.00056489	0.00057485	0.00015799	1388.5	6.2195e-06	6.2027e-06	1389.4	374.92	6.2971e-06	6.247e-06	428.6	144.31	125.47	43.286	6.2628e-06	53.615	-70.286	-62.839	-37.123	-92.570	76.870	32.157	-92.395	-87.763	-3.101	76.804	-88.274	-83.754	-83.392	-79.061	68.405	-79.694	-8191	255	
1653.524	1	1	0	0	0.27348	0.18031	0.30708	0.34552	0.20096	0.23166	0.15706	0.29138	0.18736	0.28654	0.14934	0.2874	0.18645	0.13543	0.069554	0.13072	-1.9854	-2.5042	-2.6854	-2.775	-2.6229	-2.625	-2.3812	-2.8646	-2.4417	-2.4396	-2.7521	-2.4313	-2.7188	-2.7188	-2.2083	-3.0792	214.827	-86.803	114.710	238.682	220.086	39.162	183.553	-92.396	-46.565	135.925	-77.451	193.306	-102.178	248.367	243.604	153.079	0.00028028	0.0006797	0.00017423	1375.7	4.9489e-06	2.743e-06	1377.9	368.45	5.4671e-06	5.4214e-06	422.4	141.47	122.36	42.455	3.0959e-06	52.36	0.00056331	0.00056687	0.00015784	1389.6	6.1908e-06	6.2271e-06	1390	375.16	6.2079e-06	6.2406e-06	428.74	144.56	125.46	43.373	6.1444e-06	53.611	-59.475	-72.507	-7.067	-92.411	3.889	-80.936	-92.475	-87.793	31.589	19.286	-88.247	-83.550	-83.065	-78.980	79.820	-79.639	-8191	255	
1653.618	1	1	0	0	0.075222	0.091251	0.18872	0.15868	0.054883	0.14469	0.24065	0.2839	0.24943	0.3074	0.34734	0.25609	0.20334	0.17263	0.21295	0.1873	-2.2062	-2.4583	-2.7625	-2.6146	-2.5979	-2.6479	-2.5417	-2.8396	-2.4208	-2.3833	-2.9354	-2.6271	-2.6792	-2.9146	-2.2292	-2.8208	-8.210	-5.048	197.473	237.187	177.322	42.427	192.019	207.628	-21.367	-43.841	213.254	219.830	30.792	192.395	205.829	146.431	0.00027102	0.00014424	1.2886e-05	1378.5	2.3328e-06	3.6289e-06	1370.1	368.73	4.2654e-06	5.3652e-06	422.54	141.37	122.28	42.316	2.04e-06	52.293	0.00055245	0.0005678	0.0001595	1391.7	6.2057e-06	6.2448e-06	1389.1	375.19	6.1703e-06	6.2287e-06	428.77	144.68	125.29	43.379	6.1953e-06	53.683	-62.929	99.776	82.995	-92.411	103.366	43.524	-92.508	-87.909	-43.024	98.158	-88.400	-83.495	-83.297	-79.098	125.983	-79.312	-8191	255	
1653.714	1	1	0	0	0.085431	0.055865	0.23005	0.28577	0.046508	0.14277	0.24809	0.23119	0.011716	0.24668	0.045189	0.2239	0.11092	0.059126	0.08775	0.17946	-1.8854	-2.1958	-2.7146	-2.7562	-2.4813	-2.9854	-2.7271	-2.8042	-2.9458	-2.3937	-2.8667	-2.6604	-2.6063	-2.9521	-2.5375	-2.8312	131.817	-30.594	181.388	251.459	42.567	180.019	179.872	219.761	250.304	-71.309	235.960	-102.192	200.702	-100.781	-48.235	242.219	0.00025348	0.00020716	8.8161e-05	1374.7	7.1154e-06	4.7747e-06	1373.5	368.61	2.7354e-06	3.2631e-06	420.97	141.66	122.56	42.34	7.2983e-06	52.304	0.00055964	0.00056211	0.0001584	1389.6	6.1599e-06	6.1349e-06	1387.7	375.24	6.1946e-06	6.2736e-06	428.3	144.42	125.32	43.321	6.1078e-06	53.625	-70.762	-3.807	-10.349	-92.438	49.221	87.857	-92.326	-87.393	127.610	75.811	-88.268	-83.577	-83.307	-79.036	40.406	-79.632	-8191	255	
1653.835	1	1	0	0	0.072937	0.055272	0.1921	0.19188	0.036983	0.29775	0.41672	0.36071	0.060303	0.13348	0.13856	0.14594	0.21667	0.19547	0.052917	0.2034	-2.2854	-2.1708	-2.65	-2.8646	-2.3604	-2.9729	-2.5333	-2.7125	-2.5854	-2.3917	-2.8438	-2.7771	-2.4458	-2.8833	-2.3063	-2.6979	138.289	4.713	166.126	-64.907	-88.687	108.167	211.670	205.585	-39.353	12.420	236.894	-100.967	246.130	251.414	154.644	143.865	0.00024736	0.00084319	7.7241e-05	1376.7	7.1563e-06	4.0112e-06	1378.6	369.73	2.4208e-06	3.9589e-06	421.63	141.13	122.99	42.51	1.0197e-05	52.302	0.00055966	0.00056535	0.00015712	1390.1	6.1775e-06	6.1569e-06	1390.2	375.52	6.13e-06	6.1047e-06	428.89	144.48	125.53	43.449	6.1685e-06	53.646	-78.697	-14.294	-48.580	-92.473	56.680	17.963	-92.253	-87.934	52.444	-33.019	-88.271	-83.941	-83.216	-78.984	45.130	-79.535	-8191	255	
1653.931	1	1	0	0	0.0076023	0.18742	0.16081	0.12234	0.08753	0.035926	0.3848	0.09699	0.26497	0.058314	0.059632	0.15597	0.15863	0.16733	0.16227	0.21715	-2.3042	-2.275	-2.7417	-2.9208	-2.3979	-2.8792	-2.725	-2.7542	-2.8417	-2.3438	-2.7875	-2.7125	-2.4646	-2.975	-2.4062	-2.5375	-53.851	115.603	11.678	223.828	-71.732	210.438	206.726	88.333	80.244	-58.817	-81.153	198.881	226.006	-23.234	37.905	250.499	0.0002634	0.00096608	7.2129e-05	1378.2	5.113e-06	6.3169e-06	1372.9	368.5	3.2922e-06	5.0359e-06	422.17	141.84	122.92	42.652	2.809e-06	52.536	0.00054581	0.00055673	0.00015499	1390.8	6.0739e-06	6.1003e-06	1388.8	375.4	6.1174e-06	6.0093e-06	429.27	145.1	125.84	43.568	5.9768e-06	53.707	-63.614	-13.145	-24.146	-92.552	39.229	33.053	-92.500	-87.655	83.602	67.395	-88.252	-83.732	-83.061	-79.013	55.482	-79.945	-8191	255	
1654.027	1	1	0	0	0.11128	0.3183	0.049082	0.29166	0.19003	0.093268	0.19144	0.17287	0.31543	0.25893	0.16025	0.14333	0.27666	0.2675	0.081025	0.13597	-2.3542	-2.3625	-2.7188	-2.8	-2.275	-2.7167	-2.7229	-2.7167	-2.7417	-2.5104	-2.6979	-2.6625	-2.4688	-2.7417	-2.5187	-2.5083	-5.225	-59.340	-1.064	195.179	-64.815	83.722	213.003	-98.089	163.799	-51.510	142.485	14.733	221.650	-64.068	98.261	218.558	0.00026677	0.0008507	0.00014607	1379.4	1.8515e-06	4.1817e-06	1374.3	370.61	2.663e-06	3.2943e-06	422.53	141.87	122.54	42.469	7.86e-06	52.58	0.00053488	0.0005526	0.00015333	1392.4	5.9345e-06	5.9936e-06	1390	375.9	5.9693e-06	6.0316e-06	428.33	144.74	125.55	43.511	6.1779e-06	53.753	-68.112	-1.105	-40.713	-92.312	36.822	88.099	-92.677	-87.545	-20.276	118.652	-88.301	-83.671	-83.151	-79.004	92.487	-79.306	-8191	255	
1654.123	1	1	0	0	0.34836	0.178	0.17552	0.12678	0.24679	0.13105	0.15814	0.24916	0.14703	0.10983	0.10766	0.12783	0.18075	0.44188	0.1294	0.13906	-2.225	-2.2625	-2.4938	-2.9083	-2.3521	-2.7625	-2.8292	-2.525	-2.9292	-2.3917	-2.6354	-2.8458	-2.275	-2.9083	-2.6125	-2.5167	132.006	91.561	138.070	31.331	138.362	145.228	205.952	101.928	-33.129	-77.977	53.220	-81.154	244.430	206.123	251.719	162.808	0.00029135	0.00028154	0.00016724	1380.4	4.795e-06	1.9071e-06	1375.2	369.6	2.7721e-06	6.0741e-06	422.19	141.13	122.8	42.244	3.9532e-06	52.261	0.00055201	0.00056137	0.00015708	1391.7	6.0862e-06	6.2292e-06	1389.8	375.68	6.1377e-06	6.2031e-06	428.39	144.65	125.59	43.322	6.2264e-06	53.588	-66.169	-98.488	21.972	-92.588	76.173	103.909	-92.243	-87.776	62.103	27.882	-88.385	-83.532	-83.221	-78.901	61.714	-79.696	-8191	255	
1654.219	1	1	0	0	0.18446	0.16107	0.29325	0.30971	0.071887	0.19363	0.18983	0.18422	0.066589	0.16125	0.21296	0.33382	0.37053	0.24432	0.14762	0.067249	-2.4458	-2.3354	-2.5292	-2.9875	-2.4083	-2.7062	-2.7667	-2.5271	-2.8271	-2.4125	-2.6083	-2.8937	-2.325	-2.8187	-2.7208	-2.4646	133.540	135.145	-66.398	165.975	233.161	57.082	202.139	209.727	-33.025	128.404	249.761	206.759	-97.612	-101.476	-83.293	-27.606	0.00026894	0.00013243	0.00026388	1378.8	8.5248e-06	5.3642e-06	1378.7	368.78	4.0458e-06	2.7635e-06	423.31	140.79	122.87	42.34	9.6632e-06	52.471	0.00054981	0.00056788	0.00015623	1389.9	6.1647e-06	6.2127e-06	1390.5	375.14	6.1763e-06	6.2487e-06	428.83	144.35	125.88	43.426	6.1662e-06	53.679	-72.390	-86.925	-64.408	-92.484	51.261	54.129	-92.542	-87.655	24.212	68.385	-88.361	-83.814	-83.286	-79.029	28.700	-79.475	-8191	255	
1654.315	1	1	0	0	0.44511	0.073124	0.41112	0.24873	0.22951	0.21572	0.39558	0.029727	0.29474	0.1454	0.085726	0.17442	0.082263	0.062333	0.12746	0.15445	-2.3875	-2.4854	-2.3771	-3.0021	-2.1042	-2.5625	-3.0292	-2.4583	-2.7375	-2.4417	-2.7188	-2.9542	-2.3792	-2.7146	-2.65	-2.275	190.423	42.698	204.432	217.578	-16.676	6.015	153.533	226.045	-8.757	166.172	122.967	97.763	240.189	-90.037	148.544	-74.423	0.00030844	0.0008723	4.5195e-05	1378.4	3.1433e-06	4.1862e-06	1373.7	370.04	5.8126e-06	4.5408e-06	421.37	141.85	122.45	42.387	5.1779e-06	52.325	0.00055493	0.00057805	0.00015676	1391.6	6.1464e-06	6.2157e-06	1388.3	375.65	6.1556e-06	6.1758e-06	428.98	145.03	125.51	43.508	6.0963e-06	53.713	-67.273	-74.007	-69.473	-92.645	-61.847	11.178	-92.556	-87.683	46.667	100.163	-88.402	-83.644	-83.193	-79.000	21.122	-79.514	-8191	255	
1654.436	1	1	0	0	0.30461	0.26335	0.0333	0.31357	0.19444	0.2062	0.43403	0.24962	0.25406	0.17743	0.04655	0.045973	0.084743	0.12987	0.11653	0.16183	-2.2667	-2.4708	-2.3271	-3.0604	-2.3667	-2.6	-2.8063	-2.4688	-2.6729	-2.5396	-2.4021	-2.9562	-2.4458	-2.5792	-2.8208	-2.4646	-42.331	62.413	183.278	-102.998	202.441	7.069	154.122	202.992	21.068	21.051	215.270	143.528	14.499	231.752	143.848	-43.964	0.00027786	0.00052108	7.2643e-05	1382.1	2.4654e-06	1.6452e-06	1379.7	370.73	2.054e-06	5.8083e-06	423.16	141.69	123.07	42.441	2.8494e-06	52.566	0.00054715	0.00056628	0.00015429	1394.3	6.0488e-06	6.0586e-06	1391.6	376.17	6.1118e-06	6.1058e-06	428.92	144.98	125.92	43.632	6.0849e-06	53.816	-46.766	10.694	-18.976	-92.268	-0.638	22.073	-92.312	-87.801	50.117	57.789	-88.198	-84.029	-83.160	-79.073	18.101	-79.829	-8191	255	
1654.531	1	1	0	0	0.18099	0.24326	0.067763	0.25986	0.18127	0.053938	0.27143	0.17736	0.17485	0.14326	0.071161	0.16535	0.12199	0.18964	0.18413	0.079078	-2.2	-2.6063	-2.275	-3.1271	-2.3896	-2.6229	-2.9292	-2.4938	-2.7479	-2.6063	-2.5104	-2.9729	-2.5667	-2.4979	-2.8438	-2.3937	108.360	179.404	-75.917	207.959	235.132	-44.386	106.550	168.901	-105.185	-90.129	42.546	139.660	-81.026	-51.967	173.822	-22.383	0.0002782	0.00053655	2.3214e-05	1379.4	4.0058e-06	4.371e-06	1379.6	371.95	2.3353e-06	6.0731e-06	424.91	142.28	123.71	42.596	1.5323e-06	52.731	0.0005476	0.0005563	0.00015272	1394.7	6.1177e-06	6.1314e-06	1391.8	377.01	6.0861e-06	6.119e-06	430.26	145.4	126.16	43.664	6.0671e-06	53.906	-54.086	-46.427	-16.471	-92.412	28.633	33.488	-92.358	-87.532	54.613	61.877	-88.199	-83.924	-83.319	-78.708	211.390	-79.318	-8191	255	
1654.627	1	1	0	0	0.21544	0.18037	0.26074	0.28328	0.074113	0.13875	0.40426	0.20676	0.027627	0.20057	0.33133	0.046326	0.27967	0.16444	0.24539	0.07164	-2.3958	-2.7521	-2.2042	-2.9708	-2.6437	-2.3958	-3.0125	-2.5875	-2.75	-2.7062	-2.4	-2.8312	-2.625	-2.5229	-2.7625	-2.6375	151.432	140.353	100.806	251.990	-103.444	-35.559	168.957	235.888	190.826	250.329	226.753	-65.039	247.641	207.934	-21.739	-4.850	0.0002727	0.00040611	0.00016396	1374.8	8.4342e-06	2.2492e-06	1378.8	371.26	1.9924e-06	8.3126e-06	422.16	142.16	123.9	42.639	7.2987e-06	52.603	0.00055468	0.00056079	0.0001557	1394.7	6.1803e-06	6.082e-06	1395.2	377.01	6.1238e-06	6.1547e-06	429.47	145.58	126.34	43.629	6.2119e-06	53.901	-75.262	-43.875	-65.801	-92.444	-7.339	26.936	-92.484	-87.489	54.519	45.199	-88.606	-83.709	-83.172	-79.068	-19.820	-79.565	-8191	255	
1654.723	1	1	0	0	0.054592	0.17171	0.10057	0.11731	0.14908	0.11963	0.25313	0.24717	0.0093695	0.20974	0.208	0.047017	0.14294	0.11165	0.13502	0.13449	-2.1292	-2.8458	-2.3375	-3.0104	-2.6958	-2.3812	-2.9875	-2.7875	-2.4688	-2.7917	-2.4979	-2.7917	-2.7792	-2.5312	-2.8604	-2.7167	178.916	90.937	251.190	204.905	-30.132	107.892	197.926	249.946	-89.072	238.759	221.749	208.341	105.211	167.266	82.719	-3.105	0.0002709	0.00070465	5.7088e-05	1385.8	2.57e-06	5.5165e-06	1378	370.76	1.6894e-06	3.3561e-06	424.49	142.5	122.85	42.644	4.2127e-06	52.592	0.00055958	0.00055664	0.00015634	1398.4	6.14e-06	6.164e-06	1396	377.21	6.3009e-06	6.2203e-06	430.3	145.63	126.11	43.699	6.3402e-06	53.829	-63.286	-90.337	58.174	-92.408	-62.789	39.470	-92.427	-87.711	81.619	40.523	-88.443	-83.822	-83.346	-78.985	82.883	-79.291	-8191	255	
1654.819	1	1	0	0	0.17444	0.13587	0.029513	0.18338	0.23055	0.21261	0.11948	0.071285	0.40424	0.18725	0.13369	0.071835	0.056645	0.026345	0.021002	0.20514	-1.9167	-2.5917	-2.3438	-2.8354	-2.5458	-2.25	-2.7792	-2.6167	-2.3875	-2.7313	-2.4188	-2.6125	-2.7562	-2.3688	-2.7896	-2.7146	-8.076	209.493	174.756	160.436	238.582	12.609	-31.861	-69.567	-78.002	74.261	70.087	174.345	206.517	-14.387	72.960	178.572	0.00031056	0.0007535	7.1125e-05	1386.2	8.2289e-06	8.6342e-06	1379.5	371.63	3.0589e-06	7.0324e-07	424.19	142	123.38	42.366	2.6407e-06	52.436	0.00056957	0.00057459	0.00016059	1397	6.2684e-06	6.3298e-06	1395.1	377.22	6.354e-06	6.3213e-06	430.43	145.35	126.16	43.493	6.3074e-06	53.921	-69.743	-15.947	-86.667	-92.413	23.450	39.966	-92.473	-87.711	0.087	177.831	-88.351	-83.692	-83.253	-79.027	35.061	-79.568	-8191	255	
1654.915	1	1	0	0	0.18652	0.26906	0.20911	0.17056	0.28783	0.20354	0.2553	0.42625	0.35792	0.12952	0.26158	0.43078	0.39763	0.09674	0.12935	0.22139	-1.8521	-2.6854	-2.2417	-2.8563	-2.7771	-2.3146	-2.9667	-2.6208	-2.3542	-2.7562	-2.3583	-2.5625	-2.8083	-2.4396	-2.65	-2.7583	106.381	46.764	26.989	-22.853	219.589	127.309	235.478	185.323	197.081	209.079	-101.898	206.901	217.834	-1.092	73.230	234.148	0.00022563	0.00062512	0.00015706	1383.3	3.0706e-06	4.8219e-06	1380	370.55	4.1834e-06	3.1174e-06	423.76	142.21	123.03	42.505	1.1226e-06	52.744	0.00056399	0.00056742	0.00015814	1397.5	6.2592e-06	6.3317e-06	1395.2	376.59	6.2697e-06	6.3416e-06	430.17	145.36	125.97	43.585	6.2944e-06	53.952	-67.530	-58.958	2.716	-92.283	11.215	41.221	-92.292	-87.761	100.263	79.669	-88.004	-83.878	-83.242	-78.811	112.190	-79.598	-8191	255	
1655.011	1	1	0	0	0.17236	0.091309	0.024083	0.34649	0.12954	0.25182	0.47822	0.11065	0.11305	0.06833	0.33767	0.11115	0.15072	0.21505	0.046038	0.076431	-1.9646	-2.8375	-2.4396	-2.7125	-2.7021	-2.2562	-2.7125	-2.5646	-2.4521	-2.8208	-2.7062	-2.6312	-2.8	-2.3979	-2.5854	-2.6458	11.992	-34.709	44.087	196.798	165.283	68.774	202.747	219.053	-67.481	115.644	-104.044	181.549	-80.877	219.055	-43.585	145.283	0.00030553	0.00085807	9.4311e-05	1388.5	5.6946e-06	6.7903e-06	1384.1	371.55	4.3372e-06	5.7072e-06	425.97	142.19	123.42	42.636	6.5297e-06	52.573	0.0005647	0.00057955	0.00015988	1400.1	6.2393e-06	6.2397e-06	1399.2	377.42	6.2171e-06	6.2434e-06	430.84	145.51	126.21	43.612	6.2192e-06	53.862	-71.212	-2.917	-32.635	-92.375	-13.630	-6.947	-92.465	-87.819	6.600	40.189	-88.208	-83.784	-83.375	-78.908	58.402	-79.646	-8191	255	
1655.107	1	1	0	0	0.12722	0.17629	0.0572	0.17542	0.14333	0.3106	0.14029	0.37043	0.1128	0.10864	0.27169	0.17936	0.19797	0.049154	0.14705	0.1058	-1.7167	-2.7	-2.4708	-2.7479	-2.6188	-2.2979	-2.8937	-2.7896	-2.1875	-2.8333	-2.7229	-2.6562	-2.8042	-2.5729	-2.3792	-2.6979	205.335	123.024	-35.389	161.426	101.660	124.629	175.508	167.285	28.866	-36.628	-105.173	136.357	-85.147	253.260	165.994	187.671	0.0002663	0.00084627	8.0884e-05	1384.1	4.1467e-06	7.6014e-06	1382.3	371.71	1.5222e-06	3.0168e-06	423.38	142.91	123.85	42.795	4.6125e-06	52.658	0.00055474	0.00056276	0.00015653	1397.7	6.0619e-06	6.1036e-06	1398.7	377.92	6.0736e-06	6.0953e-06	430.66	146	126.47	43.835	6.1516e-06	54.036	-85.050	-35.001	-25.171	-92.381	2.252	-3.357	-92.652	-87.624	54.823	41.344	-88.513	-83.807	-83.239	-79.226	21.992	-79.564	-8191	255	
1655.204	1	1	0	0	0.1218	0.042	0.01449	0.43703	0.068249	0.090074	0.14432	0.12338	0.12002	0.19544	0.30717	0.2776	0.21136	0.11256	0.30061	0.079163	-1.8438	-2.6792	-2.4625	-2.3708	-2.8729	-2.425	-2.5458	-3.0104	-2.3479	-2.7042	-2.8771	-2.2938	-2.8875	-2.5479	-2.2833	-2.7583	151.471	-56.806	73.769	201.989	217.889	135.430	167.316	217.610	89.159	-43.390	-67.448	211.415	-96.397	68.373	12.770	143.996	0.00029019	0.00061926	0.00010425	1390	3.5692e-06	7.2213e-06	1388.8	373.59	3.9543e-06	3.2873e-06	424.57	142.06	123.24	42.808	2.5036e-06	52.936	0.00055053	0.0005563	0.00015461	1400.6	6.1041e-06	6.0574e-06	1400.4	378.07	6.0566e-06	6.1219e-06	431.65	145.7	126.52	43.813	6.1478e-06	54.087	-55.304	-36.860	-10.665	-92.388	139.417	54.180	-92.475	-87.718	17.301	140.175	-88.329	-83.533	-83.414	-79.075	-82.330	-79.717	-8191	255	
1655.324	1	1	0	0	0.36258	0.21071	0.26374	0.30723	0.15775	0.27876	0.34304	0.37108	0.37087	0.12266	0.181	0.17193	0.098585	0.18626	0.012416	0.16371	-1.9896	-2.6417	-2.6479	-2.5229	-2.7792	-2.6125	-2.7438	-2.9708	-2.4167	-2.7188	-2.7583	-2.4854	-2.8375	-2.7	-2.5479	-2.9167	243.684	99.370	59.418	233.215	246.333	-15.906	191.555	147.339	239.381	-10.829	188.610	-77.913	-13.584	194.727	210.878	-104.223	0.00026008	0.00049898	0.00017029	1388	7.2978e-06	3.1718e-06	1387.5	372.12	3.1274e-06	7.7356e-06	425.36	143.08	124.35	42.992	6.434e-06	52.882	0.00054662	0.00055618	0.00015549	1400.7	5.9407e-06	6.0217e-06	1402.1	377.91	5.997e-06	6.0607e-06	431.82	146.25	127.07	44.008	6.0727e-06	54.112	-73.731	-14.776	-66.974	-92.497	10.962	30.637	-92.492	-87.704	-23.393	35.026	-88.348	-83.859	-83.174	-79.049	115.364	-79.455	-8191	255	
1655.396	1	1	0	0	0.20669	0.26085	0.12562	0.3335	0.13458	0.20245	0.23097	0.48443	0.2202	0.10158	0.32052	0.059247	0.25408	0.12118	0.064105	0.14048	-1.9604	-2.6167	-2.7208	-2.4437	-2.7708	-2.5479	-2.6271	-2.8667	-2.2812	-2.4917	-2.9729	-2.5792	-2.95	-2.7521	-2.45	-2.9979	168.063	-93.581	38.809	196.358	239.286	106.617	-102.506	221.283	-84.211	-20.367	178.576	-47.597	-64.676	-103.860	63.592	193.488	0.00032216	0.00038795	7.9554e-05	1387.3	1.7554e-06	9.9795e-06	1385.7	373.74	3.4309e-06	5.7554e-06	425.97	142.92	124.11	42.801	3.3161e-06	52.922	0.00053746	0.00054699	0.00015264	1402.3	5.9733e-06	6.0414e-06	1400.4	378.93	6.0068e-06	6.041e-06	431.89	146.28	126.96	43.999	5.9925e-06	54.206	-68.451	31.709	-15.337	-92.382	61.244	33.226	-92.196	-87.909	11.203	70.578	-88.066	-83.852	-83.087	-79.105	35.221	-79.695	-8191	255	
1655.516	1	1	0	0	0.26021	0.054656	0.29501	0.17199	0.16789	0.24752	0.22639	0.12153	0.019578	0.06392	0.30717	0.35309	0.34517	0.25552	0.20136	0.25903	-2.0396	-2.4958	-2.9146	-2.5229	-2.7687	-2.6625	-2.5271	-3	-2.4292	-2.525	-2.9688	-2.4562	-2.7188	-2.8458	-2.2146	-2.9417	-33.291	16.020	10.249	158.072	-97.306	109.597	229.716	251.080	57.249	66.765	173.202	99.480	157.343	25.205	161.438	177.920	0.00017638	0.00055809	9.2558e-05	1387.6	1.8335e-06	3.207e-06	1389	372.3	2.3342e-06	4.8761e-06	427.42	143.32	124.49	43.287	3.753e-06	53.345	0.00053085	0.00054916	0.00015125	1401.3	5.9315e-06	5.9909e-06	1402.9	379.03	5.9625e-06	5.9486e-06	432.69	146.55	127.6	44.253	5.8679e-06	54.558	-65.234	58.144	-66.542	-92.463	-37.132	90.248	-92.319	-87.772	232.786	74.406	-88.284	-83.662	-83.273	-79.108	2.506	-79.733	-8191	255	
1655.611	1	1	0	0	0.31325	0.11563	0.22643	0.33654	0.039848	0.12351	0.17748	0.25069	0.076664	0.12991	0.39968	0.16111	0.16819	0.32543	0.15951	0.28434	-1.8958	-2.4229	-2.7875	-2.6688	-2.7958	-2.5979	-2.6688	-2.7375	-2.4813	-2.4917	-2.8583	-2.4271	-2.6813	-2.8167	-2.375	-2.9083	183.123	170.361	138.211	166.956	174.364	67.365	247.008	185.774	46.513	121.999	167.488	177.434	227.680	-67.377	222.046	185.167	0.00024547	0.00025575	0.00024018	1386	4.6803e-06	4.3167e-06	1393.1	374.21	8.3425e-07	7.4282e-06	428.18	143.81	124.98	43.083	3.6281e-06	53.356	0.00052429	0.00053221	0.00014686	1402.6	5.8133e-06	5.8104e-06	1404.1	379.7	5.8123e-06	5.8199e-06	433.45	147.18	127.67	44.24	5.8053e-06	54.449	-50.311	-52.744	-2.247	-92.365	103.664	26.703	-92.539	-87.643	114.340	90.815	-88.479	-83.809	-83.194	-78.916	38.252	-79.862	-8191	255	
1655.707	1	1	0	0	0.11611	0.040736	0.24954	0.21396	0.15101	0.20421	0.1638	0.21527	0.10465	0.26619	0.08124	0.099348	0.23278	0.22446	0.25882	0.2102	-2.2458	-2.2938	-2.8104	-2.7042	-2.5417	-2.7812	-2.5583	-2.7417	-2.6562	-2.3875	-2.9229	-2.5542	-2.5375	-2.9042	-2.3563	-2.7979	-58.721	13.832	-95.961	232.672	29.298	56.299	162.330	120.487	13.014	19.146	157.171	215.952	-93.127	230.375	161.141	207.221	0.00028438	0.00096542	6.9993e-05	1390.5	8.3022e-07	3.828e-06	1385.5	374.05	3.7656e-06	6.8651e-06	427.11	143.7	125.16	43.181	5.4774e-06	53.181	0.00052025	0.00052799	0.00014775	1404.2	5.8689e-06	5.7929e-06	1402.4	379.66	5.8293e-06	5.8657e-06	433.33	147.06	127.64	44.188	5.7427e-06	54.444	-74.467	-51.573	194.206	-92.550	57.604	-0.566	-92.296	-87.711	25.491	70.192	-88.405	-83.761	-83.404	-78.751	29.920	-79.858	-8191	255	
1655.803	1	1	0	0	0.24259	0.37335	0.078948	0.20576	0.13303	0.10595	0.45767	0.20381	0.12351	0.06194	0.099942	0.16763	0.28544	0.20426	0.20315	0.18335	-2.0458	-2.1188	-2.9458	-2.6562	-2.3646	-2.7667	-2.5292	-2.7396	-2.6021	-2.3187	-2.8187	-2.6875	-2.6063	-2.85	-2.2667	-2.6292	86.216	63.057	116.536	199.050	97.756	187.267	201.359	-86.718	146.195	120.815	143.378	122.402	252.439	234.152	164.839	194.434	0.00021714	0.00067982	9.5039e-05	1390.4	4.4881e-06	2.3526e-06	1392.6	373	1.958e-06	8.6483e-06	427.58	144.05	124.98	43.313	2.3724e-06	53.155	0.00052218	0.00052369	0.00014752	1402.7	5.7917e-06	5.831e-06	1403.3	379.39	5.8349e-06	5.809e-06	433.45	146.9	127.41	44.214	5.8371e-06	54.436	-71.124	-49.361	89.555	-92.515	37.047	-5.704	-92.412	-87.812	145.988	79.928	-88.145	-83.652	-83.588	-78.943	105.599	-79.622	-8191	255	
1655.924	1	1	0	0	0.14141	0.056855	0.22234	0.27637	0.062041	0.10962	0.26473	0.09203	0.11281	0.16465	0.092419	0.35499	0.16508	0.36566	0.24333	0.20662	-2.2938	-2.3125	-2.7313	-2.6646	-2.2729	-2.7729	-2.7313	-2.6167	-2.5583	-2.2812	-2.8271	-2.6875	-2.3146	-2.7958	-2.4437	-2.4604	-83.939	10.210	115.483	208.568	-21.298	144.304	155.461	152.777	4.353	-39.630	225.428	166.299	238.306	186.566	-73.552	213.625	0.00022136	0.00073324	0.00014896	1387.1	9.0386e-06	3.0719e-06	1395.8	374.73	5.1842e-06	7.018e-06	427.11	144.17	124.55	43.208	3.3575e-06	53.41	0.00052359	0.00053328	0.00014979	1401.3	5.8527e-06	5.7923e-06	1404.8	379.55	5.7706e-06	5.8656e-06	432.84	146.88	127.28	44.236	5.8651e-06	54.503	-74.282	-30.245	-15.241	-92.389	10.569	84.796	-92.379	-87.652	61.716	75.958	-88.151	-84.061	-83.198	-79.087	103.646	-79.743	-8191	255	
1656.020	1	1	0	0	0.17439	0.20599	0.12656	0.40576	0.31188	0.20036	0.087182	0.032201	0.152	0.17747	0.27624	0.31834	0.12532	0.076767	0.20644	0.1379	-2.2604	-2.2542	-2.5167	-2.6104	-2.3875	-2.8167	-2.7083	-2.7979	-2.7729	-2.4688	-2.8646	-2.8042	-2.4729	-2.9313	-2.4771	-2.6604	120.420	-13.351	102.144	195.003	-69.875	122.935	192.329	207.692	2.373	32.299	168.665	122.159	228.158	-99.694	90.144	177.654	0.00028054	0.00048414	8.6544e-05	1388.9	9.059e-06	4.8258e-06	1391.6	370.97	3.2448e-06	3.2616e-06	426.89	143.19	123.97	42.922	1.3878e-06	53.029	0.00052811	0.00053728	0.00015106	1403.9	5.8902e-06	5.9427e-06	1403.1	378.44	5.8624e-06	5.9894e-06	432.74	146.24	126.8	43.944	6.0316e-06	54.199	-70.105	-30.118	-66.856	-92.314	47.243	-55.580	-92.533	-87.668	-35.182	156.716	-88.103	-84.102	-83.144	-79.144	120.767	-79.364	-8191	255	
1656.116	1	1	0	0	0.17688	0.20786	0.070212	0.17866	0.07669	0.19849	0.025424	0.33556	0.24688	0.029075	0.13719	0.33177	0.36344	0.17637	0.18162	0.35256	-2.3292	-2.4292	-2.4813	-2.7875	-2.2938	-2.6688	-2.6167	-2.5812	-2.8417	-2.2792	-2.5208	-2.7542	-2.1708	-2.8875	-2.5563	-2.5312	240.183	196.857	169.376	187.213	1.456	202.451	204.048	168.078	184.518	40.610	190.269	194.240	183.564	-38.124	33.393	239.884	0.0002539	0.0010121	6.5064e-05	1386	3.7309e-06	3.2539e-06	1382	371.04	3.6688e-06	3.7597e-06	425	143.15	123.98	42.907	2.2176e-06	52.851	0.00054229	0.00054981	0.00015292	1400.8	6.0167e-06	6.0145e-06	1399	377.87	6.018e-06	5.9595e-06	431.32	146.18	126.64	43.812	6.0599e-06	54.08	-83.190	-29.453	7.545	-92.324	47.600	88.540	-92.466	-87.791	50.795	43.980	-88.251	-83.938	-83.423	-79.022	42.127	-79.573	-8191	255	
1656.212	1	1	0	0	0.027698	0.31333	0.014373	0.13654	0.3031	0.23785	0.36786	0.30204	0.067591	0.045317	0.11614	0.22576	0.04871	0.26805	0.047428	0.25894	-2.3563	-2.5646	-2.4708	-2.9083	-2.1125	-2.7542	-2.6437	-2.4562	-2.8187	-2.6208	-2.5917	-2.8979	-2.4125	-2.8	-2.5042	-2.5542	154.435	198.023	101.490	254.039	-42.084	32.570	144.580	176.967	28.962	3.384	190.657	219.319	89.777	-63.551	210.849	226.050	0.00029671	0.00025414	0.00010061	1384.8	4.3304e-06	2.1466e-06	1383.7	372.2	1.4416e-06	7.815e-06	423.42	143.23	124.21	42.718	3.3711e-06	52.908	0.000535	0.00054702	0.0001528	1399.2	6.0143e-06	5.9575e-06	1398.9	377.75	6.0306e-06	6.0131e-06	430.28	146.12	126.7	43.886	6.0572e-06	54.163	-75.122	-46.737	-11.351	-92.506	32.494	9.147	-92.373	-87.679	74.931	78.628	-88.220	-83.683	-83.189	-79.169	93.120	-79.546	-8191	255	
1656.308	1	1	0	0	0.38907	0.10729	0.051922	0.20639	0.09378	0.045169	0.25161	0.21632	0.14414	0.24355	0.36438	0.17565	0.025953	0.24689	0.33819	0.024844	-2.2729	-2.3792	-2.4771	-2.8187	-2.3312	-2.7562	-2.8083	-2.3	-2.7854	-2.5271	-2.6896	-2.9792	-2.4167	-2.5542	-2.5396	-2.4479	151.616	-16.306	211.159	-87.043	89.342	211.814	223.176	229.028	56.686	-46.169	201.225	173.156	171.462	181.876	122.740	-14.349	0.00022662	0.00015655	0.00015267	1384.8	3.3475e-06	5.8613e-06	1384	371.07	4.6618e-06	4.9962e-06	426.26	144.05	123.9	43.074	3.0331e-06	53.042	0.00054126	0.00054972	0.00015303	1399.6	5.96e-06	6.0119e-06	1400.7	377.77	5.922e-06	5.9584e-06	431.74	146.47	126.86	44.04	5.9304e-06	54.223	-52.244	-59.714	-68.601	-92.500	98.276	-4.889	-92.406	-87.619	60.978	40.373	-88.231	-83.752	-83.092	-79.038	43.397	-79.672	-8191	255	
1656.403	1	1	0	0	0.31066	0.20005	0.17406	0.17239	0.13173	0.36235	0.19555	0.45491	0.26324	0.11946	0.16245	0.31621	0.10151	0.24862	0.23474	0.2502	-2.2687	-2.5854	-2.5271	-2.8833	-2.2479	-2.4792	-2.9521	-2.2729	-2.6792	-2.5438	-2.375	-2.7625	-2.3875	-2.825	-2.5938	-2.2854	29.889	36.093	203.915	245.471	88.569	227.634	162.451	185.519	-38.681	50.373	89.933	228.315	108.614	218.562	61.541	31.267	0.00023904	0.00040868	6.3217e-05	1386.6	2.8541e-06	5.2127e-06	1389	372.42	2.7002e-06	9.7792e-07	427.15	143.6	124.53	43.142	4.6498e-06	53.153	0.00053054	0.00053774	0.00014942	1400	5.902e-06	5.9618e-06	1400.9	378.57	5.9921e-06	5.9408e-06	432.36	146.55	127.21	44.087	5.9276e-06	54.314	-58.676	1.601	-18.838	-92.411	-3.150	78.202	-92.289	-87.700	49.678	38.735	-88.199	-83.579	-83.283	-78.816	115.966	-79.691	-8191	255	
1656.499	1	1	0	0	0.17139	0.032882	0.13137	0.19361	0.18829	0.27124	0.26183	0.22368	0.18119	0.12777	0.14103	0.21077	0.13713	0.25339	0.085603	0.28786	-2.3312	-2.4958	-2.3896	-2.7729	-2.4375	-2.5167	-3.0458	-2.6042	-2.9188	-2.6604	-2.4042	-2.8125	-2.3979	-2.4625	-2.7167	-2.4188	-72.868	-81.604	143.097	223.300	-56.060	31.474	171.064	163.576	-1.447	154.671	193.161	229.794	187.785	180.158	207.859	173.365	0.00024704	0.0004532	2.6493e-05	1388.1	1.0454e-05	6.2623e-06	1383.4	373.18	1.8122e-06	8.887e-06	426.03	143.81	124.62	42.796	7.2911e-06	53.016	0.00053718	0.00054113	0.00015057	1401.7	5.9349e-06	6.0138e-06	1400.7	378.93	5.981e-06	5.9493e-06	432.36	146.68	126.94	43.991	5.9666e-06	54.246	-63.913	-70.507	-8.825	-92.470	71.316	28.639	-92.459	-87.785	50.690	48.804	-88.290	-83.904	-83.239	-78.862	89.638	-79.620	-8191	255	
1656.620	1	1	0	0	0.11492	0.17255	0.16246	0.32027	0.16605	0.24166	0.067121	0.13815	0.055795	0.01682	0.46178	0.19864	0.14755	0.09715	0.13976	0.2396	-2.0125	-2.3958	-2.3729	-2.95	-2.4354	-2.3625	-2.9313	-2.4562	-2.4229	-2.7646	-2.2917	-2.8688	-2.7	-2.5312	-2.6604	-2.4188	138.935	198.649	-38.221	244.619	174.297	-18.934	28.474	198.221	10.639	190.193	214.346	217.263	-61.036	92.809	-88.932	254.198	0.00024468	0.0004754	9.6514e-05	1384.3	7.7459e-06	7.2192e-06	1390.8	373.15	2.9704e-06	3.952e-06	426.31	143.94	123.83	43.092	3.3605e-06	53.181	0.00054024	0.00054636	0.00015345	1401.2	5.9759e-06	5.9981e-06	1401.6	378.43	5.9913e-06	6.0494e-06	432.68	146.86	126.8	44.07	6.0287e-06	54.316	-79.363	26.092	-30.200	-92.515	67.252	-13.291	-92.484	-87.650	26.217	5.271	-88.347	-83.945	-83.387	-79.003	78.858	-79.669	-8191	255	
1656.691	1	1	0	0	0.31992	0.26035	0.16063	0.31178	0.010264	0.1938	0.2175	0.035449	0.14966	0.16875	0.25983	0.11312	0.028041	0.2501	0.069086	0.15074	-2.0208	-2.5458	-2.1854	-2.9354	-2.3625	-2.4292	-3.1271	-2.3667	-2.45	-2.8333	-2.5229	-2.6833	-2.8083	-2.4771	-2.7729	-2.6021	239.146	221.051	59.076	220.700	-85.837	122.617	233.433	210.234	18.208	111.823	220.352	144.358	-4.561	198.235	75.733	143.252	0.00027669	0.00048808	0.00016546	1388.4	3.183e-06	5.3728e-06	1385.1	372.1	1.6565e-06	3.9026e-06	426.1	143.07	124.04	42.846	8.2355e-06	53.18	0.00054335	0.00054979	0.00015231	1401.5	5.9987e-06	6.0004e-06	1402	378.06	6.0311e-06	6.0262e-06	432.07	146.34	126.64	43.869	6.1116e-06	54.213	-97.727	23.106	-45.942	-92.653	7.454	56.103	-92.498	-87.902	-11.231	75.076	-88.196	-83.764	-83.289	-78.835	15.315	-79.349	-8191	255	
1656.787	1	1	0	0	0.2611	0.23994	0.25863	0.13988	0.11186	0.084968	0.30636	0.20726	0.019628	0.2485	0.1744	0.11897	0.081126	0.22954	0.12596	0.32675	-1.9583	-2.7458	-2.1667	-2.7646	-2.6146	-2.3729	-2.8854	-2.7104	-2.4083	-2.8229	-2.4625	-2.9146	-2.8104	-2.2333	-2.6833	-2.4833	15.542	127.068	244.633	182.574	147.774	60.921	171.206	-81.565	157.750	-78.777	118.266	92.376	56.987	-73.685	74.475	207.729	0.00030007	0.00045942	0.00012577	1383.3	1.9182e-06	4.3371e-06	1386.7	371.47	1.8155e-06	5.143e-06	424.94	142.44	123.54	42.677	5.5426e-06	52.78	0.00054982	0.00055026	0.00015532	1401.1	6.1161e-06	6.1095e-06	1401.3	377.47	6.0921e-06	6.1923e-06	431.36	146	126.32	43.742	6.1312e-06	54.118	-78.172	59.302	-24.706	-92.394	117.286	34.473	-92.403	-87.914	134.597	124.655	-88.339	-83.729	-83.381	-78.892	44.009	-79.571	-8191	255	
1656.884	1	1	0	0	0.18272	0.2774	0.15161	0.32026	0.22999	0.13313	0.29074	0.26326	0.11534	0.17633	0.30749	0.19559	0.26563	0.18514	0.081688	0.42853	-1.9792	-2.7188	-2.4292	-2.7458	-2.6188	-2.3	-2.9292	-2.7854	-2.4354	-2.6813	-2.5021	-2.7104	-2.8958	-2.375	-2.8271	-2.6229	122.895	-75.232	184.192	218.696	187.424	194.410	190.756	181.233	146.195	-72.368	241.453	-99.136	190.737	-100.737	68.668	183.550	0.00024404	0.00085328	0.00014026	1380.7	1.0676e-05	2.656e-06	1385.1	371	3.7754e-06	6.192e-06	424.81	142.65	123.81	42.619	6.1828e-06	52.715	0.00055338	0.00056479	0.00015712	1398.4	6.1774e-06	6.1808e-06	1397.5	377.16	6.1222e-06	6.1591e-06	430.52	145.89	126.47	43.727	6.2188e-06	54.034	-81.536	-72.470	11.786	-92.341	30.728	75.089	-92.466	-87.718	-25.968	31.576	-88.493	-84.020	-83.272	-78.796	7.965	-79.648	-8191	255	
1657.004	1	1	0	0	0.25151	0.072964	0.21102	0.35419	0.11403	0.10272	0.24693	0.35334	0.27917	0.202	0.075615	0.21021	0.1027	0.23783	0.15616	0.29403	-1.9937	-2.6479	-2.3812	-3.0042	-2.6646	-2.3771	-2.8771	-2.8854	-2.35	-2.8104	-2.3937	-2.6083	-2.7771	-2.3271	-2.5542	-2.6562	243.335	-97.026	-90.814	204.631	-29.998	115.992	148.934	146.832	214.432	-69.224	-77.481	207.415	245.053	235.619	18.278	251.979	0.0002796	0.00018578	0.00020263	1378.5	3.683e-06	4.0436e-06	1382.8	370.24	5.6033e-06	7.3844e-06	423.66	141.93	123.72	42.829	1.0209e-05	52.726	0.00055916	0.00056113	0.00015747	1397.9	6.1825e-06	6.0921e-06	1399.3	376.76	6.2209e-06	6.1191e-06	430.91	145.46	126.44	43.783	6.1986e-06	54.074	-64.463	48.254	-34.682	-92.316	14.435	32.941	-92.381	-87.623	35.761	56.825	-88.110	-83.841	-83.217	-79.122	68.903	-79.571	-8191	255	
1657.100	1	1	0	0	0.16568	0.10212	0.041264	0.20708	0.17575	0.16284	0.15888	0.12505	0.11073	0.45028	0.19561	0.19531	0.16796	0.18377	0.093774	0.0084849	-1.675	-2.7979	-2.3187	-2.5729	-2.7938	-2.3292	-2.9292	-2.9458	-2.2667	-2.6729	-2.6854	-2.35	-2.8396	-2.425	-2.5792	-2.8187	73.938	-50.318	-29.968	189.203	106.286	233.228	108.689	166.397	248.111	191.624	164.560	211.078	249.636	147.205	242.656	60.611	0.00030133	0.00053902	0.00012867	1387.2	2.0713e-06	8.2388e-06	1384.2	370.51	2.6939e-06	5.223e-06	424.46	142.32	123.95	42.598	3.3229e-06	52.562	0.00055345	0.00057063	0.00015527	1400.6	6.1907e-06	6.1568e-06	1398	377.04	6.2143e-06	6.205e-06	430.74	145.51	126.38	43.73	6.1824e-06	53.918	-91.400	-20.140	-28.196	-92.456	-28.877	53.196	-92.265	-87.751	-49.514	88.860	-88.397	-83.512	-83.214	-79.100	100.090	-79.502	-8191	255	
1657.196	1	1	0	0	0.20307	0.18002	0.21034	0.16906	0.022455	0.13719	0.32357	0.18786	0.18844	0.27015	0.33825	0.12411	0.073697	0.24363	0.15801	0.31104	-1.7667	-2.6646	-2.4646	-2.5292	-2.8	-2.35	-2.5542	-2.8917	-2.2833	-2.7521	-2.7583	-2.5729	-2.8917	-2.5062	-2.4854	-2.5979	246.024	-21.620	113.008	-104.019	218.083	205.398	238.254	240.769	187.804	-81.478	150.989	-25.467	-14.512	-5.615	229.776	197.912	0.00028729	0.00065027	8.7632e-05	1382.8	3.5273e-06	1.0667e-06	1382.4	371.39	5.4736e-06	4.2457e-06	424.41	142.83	123.43	42.771	6.0727e-06	52.802	0.00055136	0.00055698	0.00015835	1398.4	6.0784e-06	6.1386e-06	1398.7	377	6.2336e-06	6.22e-06	430.64	146.11	126.28	43.769	6.1472e-06	54.076	-67.172	-46.078	-37.111	-92.359	20.708	32.703	-92.330	-87.634	60.822	87.252	-88.351	-83.609	-83.075	-78.852	101.111	-79.679	-8191	255	
1657.293	1	1	0	0	0.22733	0.2358	0.10342	0.32637	0.1463	0.20871	0.41681	0.052765	0.28386	0.16445	0.088076	0.1503	0.28262	0.32449	0.19703	0.26112	-1.9937	-2.7479	-2.5	-2.5042	-2.7375	-2.3833	-2.7375	-2.9917	-2.3688	-2.7208	-2.7896	-2.4708	-2.8375	-2.6958	-2.3479	-2.7458	-31.972	13.905	-82.007	198.256	37.364	63.330	167.279	195.722	-94.219	-60.736	221.066	28.930	-93.335	239.053	199.537	179.412	0.00029545	0.00058547	0.00012643	1384.1	5.6437e-06	6.6192e-06	1384.8	370.35	5.7896e-06	2.1298e-06	422.88	143.17	124.05	42.939	5.8373e-06	53.019	0.00055248	0.00055308	0.00015515	1399.6	6.0527e-06	6.0027e-06	1398.9	376.87	6.0446e-06	6.2381e-06	430.3	146.06	126.57	43.854	6.1044e-06	54.108	-68.763	-49.271	-47.299	-92.463	2.877	34.473	-92.223	-87.780	26.537	29.101	-88.353	-83.815	-83.144	-79.071	44.852	-79.607	-8191	255	
1657.389	1	1	0	0	0.2114	0.34846	0.3977	0.079646	0.14286	0.10374	0.31481	0.18791	0.20559	0.14171	0.14531	0.15262	0.22077	0.21355	0.20892	0.019648	-1.875	-2.5687	-2.5104	-2.5	-2.75	-2.5833	-2.6688	-2.8958	-2.275	-2.6208	-2.9917	-2.3729	-2.75	-2.5229	-2.6396	-2.8854	-98.251	193.871	156.544	140.558	26.624	0.489	176.370	90.393	3.711	7.647	51.638	205.432	222.879	191.723	177.784	231.758	0.00033179	0.00068587	0.00017226	1386.7	6.675e-06	5.4049e-06	1388.3	372.15	3.0815e-06	6.0413e-06	424.75	143.47	123.3	43.057	6.2998e-06	52.648	0.00054657	0.00055836	0.00015524	1400.7	6.0885e-06	6.0866e-06	1399.8	377.38	6.0791e-06	6.0941e-06	430.02	146.16	126.51	43.947	6.111e-06	54.163	-76.175	-4.770	-3.353	-92.428	62.489	14.480	-92.241	-87.580	96.823	94.023	-88.354	-83.407	-83.290	-78.789	73.870	-79.783	-8191	255	
1657.485	1	1	0	0	0.18893	0.053655	0.29314	0.13721	0.19108	0.11907	0.2289	0.23989	0.34164	0.094262	0.26451	0.028843	0.1385	0.074967	0.037901	0.11996	-2.025	-2.55	-2.5646	-2.5042	-2.7	-2.6479	-2.5896	-2.9521	-2.2792	-2.5917	-2.7583	-2.5521	-2.6312	-2.5125	-2.3708	-2.8833	219.171	226.291	163.740	172.794	39.127	214.858	202.625	232.051	55.200	190.610	212.418	184.277	207.037	101.370	86.367	251.426	0.00029624	0.00068903	0.00020487	1385.8	2.6729e-06	3.8127e-06	1384.4	372.84	4.8243e-06	6.2398e-06	426.91	143.61	124	43.064	3.6921e-06	53.263	0.00053881	0.00055258	0.00015299	1400.9	6.1123e-06	5.9162e-06	1399.7	378.4	5.9962e-06	6.026e-06	432.32	146.5	126.97	44.017	5.9656e-06	54.363	-85.500	25.673	-2.483	-92.221	27.261	10.495	-92.249	-87.720	-30.550	79.310	-88.415	-83.915	-83.321	-79.054	30.144	-79.638	-8191	255	
1657.604	1	1	0	0	0.17947	0.18224	0.17453	0.28721	0.044018	0.089736	0.13273	0.12825	0.097062	0.15838	0.17181	0.17213	0.099815	0.081571	0.054675	0.094548	-1.9021	-2.4271	-2.6542	-2.6396	-2.6896	-2.5771	-2.4125	-2.9479	-2.4542	-2.2833	-2.9437	-2.3063	-2.5812	-2.7313	-2.3917	-2.8792	85.823	-25.930	192.087	223.198	49.223	-13.448	210.206	214.401	98.991	19.089	90.524	202.159	139.395	158.717	64.090	253.194	0.00025442	0.00065606	0.0001469	1389.2	4.9924e-06	5.1299e-06	1382	372.1	4.5002e-06	4.7893e-06	424.68	143.28	124.22	42.934	3.5474e-06	53.127	0.00053627	0.00054404	0.00015134	1401.3	5.9147e-06	5.9371e-06	1400.2	378.27	5.9902e-06	5.9455e-06	432.22	146.7	127.08	44.015	6.0091e-06	54.359	-60.905	-8.011	8.148	-92.361	58.695	39.693	-92.320	-87.842	-24.049	106.618	-88.334	-83.697	-83.381	-78.994	-58.541	-80.032	-8191	255	
1657.700	1	1	0	0	0.10678	0.1966	0.031127	0.32476	0.22699	0.11115	0.56096	0.28781	0.16311	0.073942	0.026548	0.10051	0.31962	0.3063	0.12052	0.31454	-2.1375	-2.2417	-2.5479	-2.6604	-2.5417	-2.6625	-2.5583	-2.8479	-2.5625	-2.4667	-2.8771	-2.4542	-2.3896	-2.8292	-2.1771	-2.725	145.704	101.980	-38.818	246.726	-2.736	108.759	198.031	169.330	-98.947	-70.025	143.536	227.319	-102.210	189.311	99.954	148.399	0.00022835	0.00086825	0.00012676	1384.2	9.7024e-06	3.8861e-06	1385.7	373	3.7489e-06	5.6052e-06	424.89	143.33	124.32	42.971	1.2307e-05	53.32	0.00054388	0.00055281	0.00015043	1401	6.0163e-06	5.9797e-06	1401.3	378.24	5.9621e-06	5.9799e-06	431.27	146.6	127.06	44.05	5.9946e-06	54.405	-65.690	-52.513	-60.042	-92.461	3.802	22.303	-92.337	-87.728	33.398	26.328	-88.462	-84.074	-83.514	-79.059	51.383	-79.870	-8191	255	
1657.796	1	1	0	0	0.18875	0.14166	0.24649	0.21771	0.39841	0.073646	0.30684	0.18344	0.094112	0.13967	0.21197	0.37283	0.23728	0.16793	0.28875	0.29884	-2.1146	-2.4917	-2.6646	-2.5417	-2.5354	-2.7792	-2.4188	-2.6125	-2.575	-2.2958	-2.8979	-2.5917	-2.6208	-2.6625	-2.2083	-2.5396	57.146	75.565	42.136	224.757	29.394	15.698	188.748	193.982	95.291	100.086	39.071	242.271	195.047	227.310	-33.115	-39.400	0.00033038	0.00041969	9.0664e-05	1386.9	4.2666e-06	1.886e-06	1390.2	373.07	1.32e-06	2.645e-06	426.6	144.06	124.62	43.322	2.5869e-06	53.505	0.0005398	0.0005487	0.00015146	1402.5	5.8796e-06	5.88e-06	1402.9	378.66	5.9073e-06	5.9213e-06	432.33	147.02	127.28	44.182	5.9334e-06	54.574	-74.412	-19.564	-50.737	-92.371	95.091	25.745	-92.502	-87.712	53.254	15.513	-88.219	-83.633	-83.139	-79.075	20.289	-79.723	-8191	255	
1657.917	1	1	0	0	0.18691	0.14658	0.10835	0.22542	0.31752	0.22383	0.39021	0.22273	0.10121	0.12193	0.04295	0.078181	0.20923	0.10336	0.0087265	0.21973	-1.9667	-2.3042	-2.7917	-2.6208	-2.4479	-2.7917	-2.4792	-2.7958	-2.6729	-2.3063	-2.9167	-2.4833	-2.7313	-2.8771	-2.4208	-2.5875	242.925	-39.257	123.584	158.211	-88.408	166.658	189.211	181.748	198.744	155.325	-63.815	246.074	221.723	237.712	-2.571	76.457	0.00020696	0.00043599	8.9158e-05	1390.1	3.4764e-06	6.8234e-06	1385.2	374.34	2.7169e-06	6.5962e-06	428.1	143.71	124.85	43.268	4.4357e-06	53.439	0.00053769	0.000533	0.00014975	1403.2	5.9185e-06	5.8514e-06	1401.3	379.56	5.8629e-06	5.8221e-06	433.21	147.04	127.39	44.273	5.9031e-06	54.583	-60.843	-72.101	-47.728	-92.474	131.815	75.370	-92.542	-87.842	-87.475	45.282	-88.389	-83.507	-83.480	-79.098	98.670	-79.782	-8191	255	
1657.988	1	1	0	0	0.12612	0.20711	0.12871	0.13816	0.076781	0.091356	0.11182	0.4313	0.20629	0.13444	0.22335	0.1469	0.22609	0.18595	0.21569	0.18052	-2.1771	-2.0979	-2.6	-2.6917	-2.3542	-2.7729	-2.5	-2.7438	-2.8125	-2.3063	-2.9396	-2.7729	-2.5521	-3.0458	-2.3729	-2.5729	171.183	90.992	24.226	58.442	100.879	89.615	-25.133	205.989	240.112	-4.864	211.533	155.003	203.382	-51.792	-7.349	172.313	0.00021672	0.00071395	0.00016543	1391.5	8.478e-06	4.7519e-06	1387.7	373.28	5.027e-06	5.6476e-06	426.05	143.89	124.72	43.288	6.4634e-06	53.311	0.00052081	0.00052707	0.00014697	1404.9	5.8187e-06	5.7976e-06	1402.9	379.61	5.7431e-06	5.7224e-06	432.86	147.46	127.67	44.318	5.721e-06	54.606	-60.550	-21.269	-30.815	-92.266	46.986	20.605	-92.352	-87.453	39.444	-13.144	-88.221	-83.723	-83.555	-79.152	91.989	-79.571	-8191	255	
1658.085	1	1	0	0	0.23211	0.06776	0.17424	0.14113	0.29142	0.10003	0.07756	0.33446	0.064484	0.12116	0.45684	0.16231	0.16501	0.16685	0.19174	0.16173	-2.1688	-2.1229	-2.5563	-2.8312	-2.1354	-2.875	-2.6625	-2.6312	-2.7292	-2.3729	-2.7896	-2.8896	-2.4625	-2.9083	-2.4104	-2.5979	193.549	205.053	127.497	164.493	190.487	-48.546	-57.999	-92.679	103.840	47.782	195.985	213.111	157.487	55.991	89.662	176.275	0.00030585	0.00047664	0.00019691	1390.9	2.8808e-06	1.243e-06	1392.3	374.44	1.9901e-06	4.618e-06	429.97	143.58	124.91	43.168	1.4989e-06	53.571	0.00051987	0.00052215	0.00014768	1404	5.7351e-06	5.7362e-06	1404.8	380.1	5.8891e-06	5.75e-06	434.49	147.26	128.01	44.383	5.7915e-06	54.82	-66.375	-81.544	-33.220	-92.364	-9.348	-46.845	-92.429	-87.790	64.631	65.707	-88.207	-83.683	-83.338	-79.116	48.203	-79.637	-8191	255	
1658.181	1	1	0	0	0.052635	0.14892	0.20301	0.043357	0.085097	0.16342	0.30168	0.060314	0.18148	0.07197	0.10831	0.435	0.28142	0.18086	0.21856	0.12051	-2.2812	-2.2875	-2.6583	-2.8083	-2.3604	-2.6833	-2.675	-2.5	-2.7062	-2.2854	-2.6104	-2.9333	-2.4583	-2.8271	-2.3146	-2.5479	-86.670	134.174	-100.677	3.580	121.502	-37.097	208.082	94.418	225.687	79.206	74.258	218.294	148.682	198.139	121.403	170.236	0.00024653	0.00047568	0.00013541	1392.9	4.63e-06	7.3922e-06	1394.7	374.45	1.9139e-06	5.6798e-06	429.29	145.32	124.76	43.29	5.2301e-06	53.455	0.00051518	0.00052272	0.00014489	1406.7	5.6596e-06	5.6699e-06	1405.4	380.69	5.6749e-06	5.6889e-06	434.22	147.9	128.01	44.427	5.7688e-06	54.816	-66.338	-43.006	-36.137	-92.429	94.205	33.755	-92.494	-87.765	2.041	79.243	-88.352	-83.751	-83.488	-79.104	144.422	-79.643	-8191	255	
1658.300	1	1	0	0	0.12643	0.016353	0.18573	0.27596	0.12202	0.065671	0.031291	0.091527	0.03349	0.1303	0.14815	0.21114	0.28481	0.13183	0.27765	0.14309	-2.1854	-2.3354	-2.5792	-2.8604	-2.5333	-2.6937	-2.75	-2.4458	-2.7542	-2.5167	-2.6771	-2.8896	-2.3583	-2.8063	-2.7875	-2.4146	195.353	152.493	-81.679	233.131	-50.071	178.424	61.957	242.320	169.374	100.035	249.710	234.678	204.419	194.085	179.661	-57.992	0.000267	0.00042998	5.5618e-05	1398	1.8679e-06	8.3605e-06	1391.7	374.96	3.459e-06	4.3857e-06	428.65	144.92	125.4	43.563	3.2822e-06	53.656	0.00052058	0.00051976	0.00014347	1406.6	5.6449e-06	5.659e-06	1406.3	380.86	5.6849e-06	5.7117e-06	434.38	147.69	127.9	44.472	5.6953e-06	54.801	-63.041	23.650	-8.048	-92.539	-62.886	23.221	-92.445	-87.879	21.593	89.941	-88.235	-83.539	-83.158	-79.164	-10.806	-79.694	-8191	255	
1658.396	1	1	0	0	0.12562	0.15369	0.049876	0.1079	0.08729	0.079283	0.19342	0.29736	0.10489	0.18847	0.21348	0.13916	0.28558	0.07767	0.17913	0.33916	-2.3625	-2.4229	-2.4542	-2.9042	-2.4021	-2.6146	-2.9313	-2.3667	-2.7313	-2.2833	-2.4646	-2.7896	-2.2917	-2.8333	-2.6875	-2.425	25.461	59.028	136.348	206.250	247.068	108.893	206.673	200.823	107.876	132.905	205.380	212.471	238.555	-22.877	202.139	-102.642	0.00026647	0.00089381	0.00015443	1391	9.347e-06	6.0426e-06	1398	375.29	3.1064e-06	5.0917e-06	428.69	145.09	126.22	43.564	2.0734e-06	53.862	0.00050731	0.00052015	0.00014328	1406.4	5.6566e-06	5.6074e-06	1408.8	380.79	5.6315e-06	5.6278e-06	433.97	148.03	128.25	44.554	5.6327e-06	54.84	-59.582	-9.172	-39.271	-92.302	70.966	64.771	-92.318	-87.657	68.786	54.467	-88.303	-83.711	-83.404	-79.130	126.911	-79.740	-8191	255	
1658.492	1	1	0	0	0.15335	0.060264	0.034329	0.23806	0.074945	0.31214	0.27744	0.15082	0.10753	0.23441	0.30964	0.1347	0.040995	0.24232	0.21112	0.11817	-2.0146	-2.4313	-2.2271	-2.9417	-2.3021	-2.6208	-2.8875	-2.1792	-2.6292	-2.6375	-2.5479	-3.0438	-2.3688	-2.7021	-2.6979	-2.5062	58.035	-95.828	28.100	-87.325	-67.168	-47.576	221.325	88.661	115.824	134.211	209.062	217.374	159.046	210.067	26.927	-28.786	0.00028662	0.0005605	0.00015202	1396.6	2.6177e-06	5.6415e-06	1393.5	374.3	3.863e-06	2.0855e-06	427.85	144.91	125.55	43.509	4.2974e-06	53.711	0.00050326	0.00051316	0.00014345	1407	5.624e-06	5.659e-06	1407.1	380.67	5.6435e-06	5.6364e-06	433.6	147.79	127.94	44.415	5.6674e-06	54.706	-81.100	-11.599	-54.714	-92.546	97.538	43.139	-92.576	-87.597	-45.454	248.136	-88.302	-83.622	-83.436	-78.948	13.499	-79.709	-8191	255	
1658.565	1	1	0	0	0.093265	0.075123	0.15365	0.22328	0.17142	0.076702	0.22897	0.26255	0.22658	0.070199	0.10043	0.24804	0.19462	0.42588	0.29249	0.12257	-2.175	-2.6354	-2.1229	-2.9333	-2.4729	-2.4979	-3.025	-2.3625	-2.8042	-2.5521	-2.3167	-3.0208	-2.7188	-2.5042	-2.5417	-2.375	-62.326	96.687	-13.643	231.986	178.683	87.946	196.698	154.961	35.117	113.113	64.009	113.478	199.851	226.148	-48.589	203.063	0.00030331	0.00030198	0.00018091	1387.3	6.8471e-06	5.7032e-06	1392.8	374.61	2.6116e-06	5.5365e-06	428.53	144.07	125.17	43.277	3.8247e-06	53.607	0.00051179	0.00051546	0.00014441	1404.6	5.6354e-06	5.7532e-06	1404.6	380.13	5.6605e-06	5.6476e-06	433.4	147.35	127.83	44.274	5.7403e-06	54.635	-86.513	69.828	-31.640	-92.414	22.098	6.331	-92.606	-87.672	26.922	33.508	-88.356	-83.803	-83.326	-79.188	-21.528	-79.689	-8191	255	
1658.684	1	1	0	0	0.10022	0.2094	0.10664	0.21716	0.089366	0.33214	0.021229	0.20556	0.1349	0.1402	0.11333	0.28989	0.051373	0.074036	0.081503	0.19788	-2.1521	-2.3854	-2.2375	-2.8521	-2.2458	-2.3563	-2.8417	-2.5083	-2.3646	-2.7	-2.4083	-2.6958	-2.4708	-2.3354	-2.7979	-2.3958	106.059	26.120	174.025	203.420	219.533	123.543	221.376	224.668	35.888	214.756	176.994	232.703	75.946	228.790	38.471	211.103	0.00021024	0.00025024	0.00016866	1389.1	2.4667e-06	3.791e-06	1392.7	375.19	5.0919e-06	5.0879e-06	428.23	144.63	125.05	43.33	8.9472e-07	53.521	0.00051426	0.00052276	0.00014529	1403.6	5.6812e-06	5.815e-06	1406.4	380.12	5.7147e-06	5.6874e-06	433.44	147.68	127.81	44.369	5.6462e-06	54.66	-78.759	-9.173	-8.737	-92.551	65.708	99.302	-92.385	-87.612	77.749	40.826	-88.159	-83.865	-83.191	-79.024	94.852	-79.782	-8191	255	
1658.780	1	1	0	0	0.38246	0.16446	0.29315	0.21181	0.3077	0.24474	0.12286	0.090393	0.20545	0.16576	0.2415	0.21936	0.19563	0.10654	0.081001	0.18346	-1.9771	-2.6292	-2.1542	-2.8438	-2.4833	-2.2542	-2.975	-2.5875	-2.4417	-2.6917	-2.2604	-2.7417	-2.5396	-2.3812	-2.8146	-2.6604	137.942	40.156	95.548	160.853	120.767	94.893	-56.584	207.424	-47.864	208.636	214.766	180.435	-34.205	245.740	195.445	-104.312	0.00027928	0.00067781	0.00012799	1388.4	7.8343e-06	4.37e-06	1391.1	374.85	1.9067e-06	4.0846e-06	428.14	144.76	125.86	43.397	3.9693e-06	53.532	0.00051611	0.00051935	0.00014428	1404.2	5.6562e-06	5.6742e-06	1404.8	380.23	5.6577e-06	5.65e-06	434.35	147.67	127.84	44.394	5.7444e-06	54.779	-69.083	-38.812	26.102	-92.452	55.999	43.892	-92.552	-87.718	59.547	181.823	-88.181	-83.669	-83.092	-79.224	104.881	-79.757	-8191	255	
1658.877	1	1	0	0	0.20185	0.30851	0.094335	0.33723	0.20747	0.059625	0.15635	0.1046	0.16214	0.023313	0.2662	0.17669	0.20074	0.25199	0.15006	0.19081	-2.075	-2.5812	-2.3625	-2.8812	-2.6396	-2.4062	-3.0104	-2.6792	-2.5	-2.7583	-2.2646	-2.6771	-2.7104	-2.375	-2.7875	-2.5896	-94.182	-79.543	142.432	194.557	128.970	1.099	-95.217	149.993	245.208	37.576	212.998	206.896	-51.183	213.052	-5.679	169.634	0.00031948	0.0005879	7.736e-05	1389.6	4.3732e-06	2.6428e-06	1391	374.93	4.9006e-06	5.4551e-06	429.77	144.41	125.33	43.386	6.4861e-06	53.747	0.00051718	0.000516	0.00014464	1405.2	5.7185e-06	5.7268e-06	1403.7	380.23	5.6878e-06	5.7045e-06	433.74	147.67	127.87	44.409	5.6503e-06	54.689	-54.518	-17.336	2.033	-92.589	76.965	129.173	-92.301	-87.632	150.364	90.291	-88.282	-83.864	-83.435	-79.076	55.591	-79.836	-8191	255	
1658.997	1	1	0	0	0.035601	0.28908	0.12208	0.2929	0.072868	0.036904	0.30219	0.17078	0.10787	0.16147	0.25018	0.42491	0.25543	0.061208	0.13946	0.12118	-1.8958	-2.7583	-2.3229	-2.825	-2.7438	-2.3875	-2.8729	-2.5542	-2.3875	-2.7479	-2.6125	-2.4729	-2.8042	-2.3625	-2.6437	-2.7438	-55.362	-98.727	155.915	171.409	214.988	217.039	235.931	-64.016	182.972	80.758	171.017	-100.534	-94.753	-87.497	-2.838	184.742	0.00023664	0.00093355	0.00011665	1394	8.2873e-06	4.8117e-06	1392	374.37	3.3073e-06	2.4368e-06	428.56	144.43	125.3	43.538	3.5784e-06	53.351	0.00051616	0.00051354	0.00014355	1406.5	5.6128e-06	5.6409e-06	1406.8	380.52	5.6322e-06	5.6856e-06	433.39	147.53	127.99	44.362	5.6761e-06	54.652	-63.414	-10.305	-26.176	-92.557	45.581	54.211	-92.332	-87.639	13.296	55.111	-88.200	-83.687	-83.086	-78.983	116.907	-79.414	-8191	255	
1659.093	1	1	0	0	0.064581	0.12691	0.21439	0.29468	0.18441	0.1723	0.11582	0.25954	0.11264	0.050424	0.28815	0.19103	0.13251	0.12557	0.070102	0.24588	-1.8354	-2.7375	-2.5292	-2.6333	-2.7042	-2.3271	-2.8229	-2.6833	-2.4958	-2.75	-2.6188	-2.4146	-2.8688	-2.3104	-2.7708	-2.8187	-11.588	100.966	160.733	200.990	176.996	204.155	97.399	156.756	186.296	123.722	138.512	111.585	107.592	180.506	189.214	204.037	0.0002841	0.00048268	0.00012775	1391.8	6.852e-06	4.7432e-06	1391.5	372.7	3.6778e-06	3.4291e-06	427.31	144.87	125.83	43.248	2.6497e-06	53.803	0.00051403	0.00051585	0.00014501	1405.5	5.6302e-06	5.6573e-06	1406.2	379.6	5.721e-06	5.606e-06	433.66	147.96	128.12	44.423	5.6917e-06	54.803	-67.178	-42.019	-69.660	-92.476	22.981	6.583	-92.345	-87.753	14.669	64.626	-88.279	-83.748	-83.234	-79.174	58.629	-79.785	-8191	255	
1659.189	1	1	0	0	0.22303	0.14288	0.12458	0.29607	0.19363	0.089328	0.069774	0.15703	0.23278	0.24285	0.20525	0.28136	0.060302	0.33723	0.065957	0.15674	-1.7708	-2.8104	-2.5	-2.6937	-2.7708	-2.4208	-2.9938	-2.9667	-2.2875	-2.7354	-2.8354	-2.5417	-2.9417	-2.4583	-2.6125	-2.7188	-87.610	8.688	211.928	182.609	-0.086	-88.505	217.178	123.858	52.300	151.048	-33.146	142.863	-101.147	182.144	171.774	195.986	0.00031967	6.4653e-05	0.00021498	1393.8	4.2155e-06	4.4334e-06	1390.3	374.05	1.3522e-06	1.8419e-06	429.45	144.75	125.34	43.6	9.5296e-06	53.78	0.00051049	0.0005193	0.00014119	1407.8	5.5581e-06	5.5995e-06	1404.5	380.23	5.6221e-06	5.6632e-06	434.36	147.88	128.12	44.581	5.6543e-06	54.861	-63.322	-87.174	-36.496	-92.558	15.345	57.325	-92.307	-87.610	50.237	116.935	-88.504	-83.634	-83.441	-79.002	35.269	-79.648	-8191	255	
1659.286	1	1	0	0	0.12163	0.26577	0.082277	0.37159	0.070602	0.42399	0.40378	0.14366	0.065301	0.069385	0.052766	0.12075	0.039303	0.49546	0.14661	0.29168	-1.8646	-2.7021	-2.5417	-2.725	-3.0542	-2.4479	-2.7208	-2.9792	-2.2542	-2.7417	-2.6625	-2.5104	-2.825	-2.3563	-2.4729	-2.8333	-42.415	237.415	-8.705	220.345	33.656	120.571	223.892	-44.210	-89.594	48.822	244.050	194.708	158.830	227.846	218.522	211.721	0.00021717	0.00020204	0.00018027	1393.1	3.2404e-06	3.1401e-06	1399.3	376.17	4.4872e-06	5.5878e-06	429.5	144.45	125.53	43.506	1.5983e-06	53.426	0.00050615	0.00051479	0.00014429	1407	5.5551e-06	5.5635e-06	1409.7	381.11	5.6126e-06	5.615e-06	434.68	147.94	128	44.429	5.6809e-06	54.707	-80.731	-13.015	10.951	-92.422	11.585	41.656	-92.579	-87.750	21.902	66.410	-88.291	-83.858	-83.372	-78.878	28.678	-79.673	-8191	255	
1659.382	1	1	0	0	0.2151	0.18389	0.1617	0.41697	0.23467	0.16113	0.33091	0.16171	0.041858	0.11101	0.20951	0.14517	0.19237	0.15891	0.16942	0.12792	-1.9	-2.5812	-2.5375	-2.6312	-2.7375	-2.3146	-2.6625	-2.8104	-2.3	-2.5979	-2.7125	-2.3417	-2.7083	-2.5938	-2.3479	-3.0021	77.778	-16.363	137.638	220.496	-91.340	245.338	191.241	169.369	203.099	152.076	169.442	169.879	226.643	250.276	119.668	203.690	0.00035465	0.00048611	0.00015407	1396.1	2.3212e-06	4.5475e-06	1395.2	376.24	1.7076e-06	4.9134e-06	429.01	144.87	125.02	43.33	5.2559e-06	53.461	0.00051005	0.00051161	0.00014322	1407.9	5.6089e-06	5.6483e-06	1405	380.17	5.592e-06	5.7606e-06	433.58	147.86	127.99	44.457	5.7227e-06	54.742	-66.885	-24.621	-7.961	-92.471	68.811	88.235	-92.329	-87.660	47.560	31.833	-88.306	-83.644	-83.162	-79.091	132.671	-79.517	-8191	255	
1659.476	1	1	0	0	0.087213	0.15447	0.19467	0.075185	0.19924	0.11857	0.20424	0.24535	0.25203	0.092603	0.24581	0.17719	0.27354	0.149	0.16323	0.043504	-1.85	-2.5458	-2.6042	-2.4083	-2.7354	-2.5417	-2.5896	-2.825	-2.2646	-2.6417	-2.8917	-2.3792	-2.7812	-2.5229	-2.1708	-2.7771	-23.502	225.131	201.142	211.468	104.576	-30.704	196.410	-100.333	22.678	231.787	216.404	220.568	181.061	251.226	78.349	-46.797	0.00020333	0.00053958	3.6684e-05	1398.3	5.7832e-06	6.7103e-06	1393.6	375.8	4.1526e-06	6.5411e-06	426.9	145.38	125.37	43.319	7.7201e-06	53.445	0.00051073	0.00051693	0.00014312	1407.6	5.5912e-06	5.6421e-06	1406.6	380.54	5.6196e-06	5.6354e-06	433.54	147.95	128.1	44.414	5.7124e-06	54.729	-69.381	-43.364	-84.385	-92.362	50.386	27.421	-92.463	-87.750	-72.556	47.867	-88.101	-83.775	-83.227	-79.233	43.679	-79.793	-8191	255	
1659.597	1	1	0	0	0.20914	0.11339	0.26846	0.32385	0.099951	0.22079	0.17576	0.35105	0.28673	0.14715	0.11567	0.10941	0.15146	0.30029	0.11248	0.10182	-1.7979	-2.5521	-2.725	-2.2625	-2.7104	-2.5792	-2.6125	-2.8812	-2.3646	-2.5479	-2.9708	-2.2917	-2.7333	-2.8146	-2.3146	-2.8396	-29.919	234.480	103.309	237.755	170.319	24.874	-96.800	193.805	-0.364	97.675	-34.421	-67.110	78.321	223.208	-14.491	112.661	0.00023367	0.00078908	0.0001688	1393.2	3.3367e-06	1.5926e-06	1389.4	374.47	4.9274e-06	5.6843e-06	429.91	144.96	125.51	43.461	7.0265e-06	53.427	0.00051241	0.00051512	0.00014345	1406.5	5.65e-06	5.6582e-06	1406.1	380.12	5.573e-06	5.6404e-06	433.55	147.59	128.08	44.417	5.6796e-06	54.69	-68.984	-10.760	-64.296	-92.327	-15.815	58.579	-92.366	-87.704	93.846	119.996	-88.352	-83.649	-83.085	-78.953	42.108	-79.745	-8191	255	
1659.693	1	1	0	0	0.3647	0.06922	0.22795	0.30368	0.22385	0.14751	0.24434	0.36002	0.27843	0.059197	0.18145	0.197	0.26362	0.15868	0.16724	0.10371	-1.8021	-2.3917	-2.7333	-2.4333	-2.6646	-2.4688	-2.4375	-2.8854	-2.5271	-2.4542	-3.0021	-2.4688	-2.7875	-2.75	-2.2562	-2.9667	-68.441	235.116	224.673	160.172	32.650	61.692	145.852	206.192	-59.192	4.390	168.788	174.720	192.514	216.146	24.146	145.485	0.00022394	0.00052518	0.00019767	1396.4	6.6697e-06	6.4064e-06	1394.3	374.72	2.5817e-06	1.9806e-06	428.27	145.11	125.28	43.447	2.8491e-06	53.576	0.00050794	0.0005197	0.00014357	1407.7	5.6432e-06	5.6602e-06	1406	380.25	5.6227e-06	5.5966e-06	432.88	147.74	127.62	44.409	5.6653e-06	54.638	-59.527	-58.496	-1.650	-92.366	37.122	14.238	-92.497	-87.674	198.796	78.090	-88.371	-83.750	-83.325	-79.033	77.104	-79.583	-8191	255	
1659.789	1	1	0	0	0.28281	0.082103	0.13299	0.086149	0.12065	0.22996	0.14105	0.092515	0.10976	0.17854	0.14757	0.20489	0.14878	0.36607	0.12332	0.28031	-2.1667	-2.2792	-2.7667	-2.4062	-2.4313	-2.7167	-2.5083	-2.8458	-2.4479	-2.2792	-2.85	-2.5812	-2.7229	-2.9167	-2.2062	-2.6813	142.678	206.622	126.001	-101.257	-30.430	-29.576	196.846	128.098	26.754	122.530	248.873	158.124	199.548	226.408	115.892	109.424	0.0002232	0.00046419	0.00016205	1390.9	4.4678e-06	5.3067e-06	1395.7	374.83	6.7839e-06	6.3252e-06	428.5	144.8	125.35	43.43	5.3766e-06	53.414	0.0005131	0.00051542	0.00014456	1403.6	5.5988e-06	5.6221e-06	1405.6	379.92	5.6387e-06	5.6827e-06	433.04	147.54	127.75	44.344	5.6691e-06	54.608	-72.442	-40.365	23.086	-92.510	24.483	64.060	-92.498	-87.758	43.731	80.529	-88.092	-83.676	-83.186	-78.780	59.055	-79.576	-8191	255	
1659.861	1	1	0	0	0.19783	0.15182	0.097206	0.26129	0.25426	0.31795	0.12538	0.21092	0.050903	0.10027	0.35187	0.40166	0.072515	0.17231	0.20509	0.078729	-2.0729	-2.15	-2.9208	-2.6292	-2.4083	-2.6937	-2.6042	-2.875	-2.5521	-2.1771	-2.9542	-2.5729	-2.5229	-2.8167	-2.5646	-2.6646	190.114	197.712	208.476	200.248	193.988	220.701	-82.994	203.752	188.250	-88.024	171.789	244.382	228.565	-102.889	101.333	-37.359	0.00027645	0.00049334	0.00010278	1395.3	7.1724e-06	7.3419e-06	1389.3	374.46	2.7002e-06	1.4669e-06	427.96	144.86	125.12	43.398	2.2646e-06	53.643	0.00051212	0.00052069	0.00014255	1406.3	5.6363e-06	5.6422e-06	1403.9	379.69	5.6458e-06	5.7021e-06	433.54	147.59	127.67	44.303	5.7107e-06	54.704	-65.913	-43.069	-26.351	-92.466	45.412	-2.052	-92.589	-87.547	78.619	89.958	-88.273	-83.665	-83.305	-79.265	21.965	-79.487	-8191	255	
1659.981	1	1	0	0	0.24063	0.44655	0.21553	0.24814	0.093815	0.072289	0.39666	0.19646	0.26784	0.11504	0.23586	0.040875	0.23424	0.11685	0.28276	0.24123	-2.2417	-2.2854	-2.7021	-2.6396	-2.4667	-2.8875	-2.5312	-2.6188	-2.6	-2.4625	-2.9146	-2.8271	-2.6021	-2.8875	-2.3292	-2.5917	19.289	114.446	44.561	121.468	-41.118	248.172	189.300	216.100	174.420	241.737	247.403	236.714	-70.366	160.150	191.523	-49.399	0.00027402	0.00076899	9.7432e-05	1393.5	2.4386e-06	3.2277e-06	1392	374.45	1.1985e-06	5.1127e-06	427.04	143.86	124.94	43.331	5.2591e-06	53.493	0.00051372	0.00052135	0.00014307	1406.2	5.6654e-06	5.5995e-06	1405.4	379.42	5.6131e-06	5.6135e-06	433.21	147.42	127.7	44.327	5.6963e-06	54.713	-67.666	-34.983	-12.267	-92.360	70.720	10.921	-92.401	-87.705	129.899	90.584	-88.348	-83.809	-83.130	-78.971	111.858	-79.405	-8191	255	
1660.078	1	1	0	0	0.22601	0.11208	0.068656	0.10945	0.17037	0.11081	0.19777	0.20203	0.25685	0.18083	0.15805	0.082123	0.34715	0.31054	0.075464	0.16126	-2.2208	-2.1708	-2.5729	-2.9104	-2.3333	-2.7208	-2.6729	-2.6667	-2.6625	-2.1979	-2.8479	-2.6708	-2.4542	-3.0146	-2.4708	-2.4604	148.412	-42.678	187.521	248.076	112.746	42.424	191.612	213.399	253.660	66.132	206.962	142.644	155.938	174.107	-30.522	28.447	0.00023507	0.0010855	8.4893e-05	1390.5	9.9074e-06	1.899e-06	1393.6	375.17	9.598e-07	5.8008e-06	430.24	145.06	125.27	43.444	6.3664e-06	53.807	0.00050878	0.00051342	0.00014407	1404.9	5.5949e-06	5.5713e-06	1406.1	380.56	5.5731e-06	5.5685e-06	434.2	147.81	127.83	44.492	5.6479e-06	54.823	-62.959	-36.269	-74.252	-92.330	34.019	54.714	-92.451	-87.658	32.252	50.556	-88.448	-83.924	-83.318	-79.013	42.776	-79.721	-8191	255	
1660.174	1	1	0	0	0.34468	0.23336	0.085135	0.048056	0.1266	0.14006	0.24879	0.0072663	0.26371	0.11387	0.20852	0.3296	0.067743	0.26817	0.16292	0.18189	-2.1	-2.1188	-2.525	-2.8667	-2.2812	-2.8688	-2.7667	-2.7125	-2.9021	-2.3021	-2.7104	-2.8917	-2.5146	-2.8	-2.6375	-2.4	238.642	-88.991	-103.514	29.708	-50.154	116.937	253.538	161.614	-74.714	242.605	234.243	215.382	147.519	205.842	12.287	199.542	0.00027144	0.00039318	0.00010518	1395.9	7.7784e-06	4.0365e-06	1394	376.7	3.1427e-06	7.492e-06	429.14	144.87	125.26	43.624	4.263e-06	53.55	0.00051595	0.00051159	0.00014085	1407.3	5.6571e-06	5.5284e-06	1408.2	380.9	5.6397e-06	5.6262e-06	434.42	148	127.9	44.522	5.6432e-06	54.796	-56.585	-52.145	-2.271	-92.570	14.004	56.581	-92.388	-87.537	68.616	23.217	-88.500	-83.679	-83.199	-78.967	116.148	-79.527	-8191	255	
1660.270	1	1	0	0	0.10839	0.06878	0.10109	0.1588	0.24605	0.10213	0.1505	0.42779	0.095209	0.3493	0.065877	0.26797	0.085716	0.29814	0.087362	0.2323	-2.3708	-2.2833	-2.5104	-3.1125	-2.2208	-2.7313	-2.7208	-2.3792	-2.6896	-2.2833	-2.6229	-2.7917	-2.3333	-2.6479	-2.6875	-2.4479	221.911	86.248	147.265	212.473	196.773	144.523	-74.351	190.083	62.241	219.411	209.720	207.463	233.977	-74.312	-103.419	162.923	0.00018819	0.00049507	0.00016659	1394.9	3.2728e-06	3.7108e-06	1397.6	374.71	3.8886e-07	5.0946e-06	427.58	145.43	125.93	43.477	4.8031e-06	53.612	0.00050727	0.00051151	0.00014385	1407.3	5.5731e-06	5.6141e-06	1407.6	380.5	5.591e-06	5.5867e-06	433.87	147.91	128.24	44.519	5.5922e-06	54.825	-79.181	27.377	6.631	-92.516	-4.524	-25.150	-92.398	-87.775	168.107	52.775	-88.106	-83.846	-83.323	-79.100	47.781	-79.549	-8191	255	
1660.366	1	1	0	0	0.038926	0.28561	0.25135	0.18163	0.3609	0.049639	0.077876	0.21918	0.10874	0.159	0.20051	0.20952	0.28211	0.14848	0.097414	0.23612	-2.2667	-2.3167	-2.4062	-2.8979	-2.3125	-2.5771	-2.7917	-2.4625	-2.8187	-2.4688	-2.6208	-2.8937	-2.3354	-2.6375	-2.5604	-2.3917	198.257	214.671	70.303	245.465	-92.137	206.722	248.819	235.664	30.067	-14.290	241.280	-69.588	211.328	175.083	190.945	230.099	0.00028269	0.00064574	0.00016897	1394.2	5.4081e-06	5.9406e-06	1391.5	375.03	4.3643e-06	2.5844e-06	428.55	144.56	125.3	43.38	6.1228e-06	53.781	0.00050927	0.0005117	0.00014303	1407.2	5.5143e-06	5.5339e-06	1405.7	380.76	5.6134e-06	5.6352e-06	433.88	147.78	127.93	44.446	5.6216e-06	54.821	-67.036	-23.135	-51.404	-92.410	30.476	2.726	-92.362	-87.663	88.354	107.745	-88.285	-83.856	-83.180	-79.268	10.676	-79.426	-8191	255	
1660.462	1	1	0	0	0.11879	0.076651	0.20496	0.48814	0.055636	0.098476	0.081851	0.17901	0.13303	0.14132	0.13715	0.36837	0.089209	0.30437	0.15198	0.12254	-2.2208	-2.4188	-2.3792	-2.8438	-2.3438	-2.4979	-2.5312	-2.4146	-2.8896	-2.5687	-2.6208	-2.9292	-2.4792	-2.6729	-2.8333	-2.4021	16.233	180.362	253.518	162.698	-72.935	28.194	192.436	146.978	110.843	227.608	164.763	233.623	-48.917	194.471	244.460	153.099	0.00037251	0.00069417	0.00015379	1397.8	8.8806e-06	4.3413e-06	1393.1	375.46	3.1609e-06	5.2194e-06	428.7	145.31	125	43.587	3.3477e-06	53.884	0.0005093	0.00051262	0.00014122	1407.6	5.538e-06	5.5586e-06	1406.1	380.83	5.6033e-06	5.5618e-06	433.83	148.1	128.06	44.517	5.6044e-06	54.867	-70.262	-45.795	-21.774	-92.388	88.862	8.805	-92.386	-87.580	-15.893	52.974	-88.407	-83.683	-83.386	-79.101	22.107	-79.601	-8191	255	
1660.558	1	1	0	0	0.20661	0.092134	0.098219	0.11681	0.058603	0.15389	0.28335	0.28662	0.22396	0.11052	0.27551	0.17865	0.034743	0.29349	0.10585	0.18591	-2.2208	-2.3708	-2.4979	-2.8229	-2.4229	-2.5	-2.9375	-2.3271	-2.8812	-2.675	-2.4667	-2.7229	-2.5333	-2.6729	-2.8354	-2.4646	22.048	114.590	49.479	201.659	87.701	-68.518	220.656	-76.542	31.806	-99.366	245.802	-66.611	163.822	182.944	69.399	183.383	0.00031063	0.00058729	0.00010725	1396.4	1.8142e-06	3.2735e-06	1390.5	374.32	2.4023e-06	5.9164e-06	427.5	145.48	125.84	43.591	1.4214e-06	53.728	0.00050212	0.00051475	0.00014023	1408.2	5.5083e-06	5.6527e-06	1407.6	380.46	5.6202e-06	5.5945e-06	434.08	148.13	128.21	44.561	5.5697e-06	54.821	-85.751	-30.939	-50.484	-92.532	-35.856	29.055	-92.324	-87.571	-42.700	61.314	-88.325	-83.786	-83.344	-79.155	44.699	-79.711	-8191	255	
1660.677	1	1	0	0	0.15663	0.2169	0.27081	0.089299	0.16306	0.052765	0.42677	0.19662	0.28945	0.15908	0.1657	0.31318	0.4045	0.18568	0.04202	0.052526	-2.2208	-2.55	-2.1958	-2.8979	-2.4375	-2.4646	-2.9521	-2.4625	-2.4646	-2.4583	-2.3958	-2.6667	-2.5438	-2.6146	-2.525	-2.4333	238.973	65.176	173.018	166.539	-38.087	35.034	212.167	122.260	173.624	185.639	224.066	215.135	117.789	170.328	147.603	183.836	0.000277	0.00013015	0.00013185	1391.2	3.3444e-06	6.6911e-06	1388.9	374.26	1.827e-06	4.3447e-06	428.67	145.17	126.16	43.378	1.8442e-06	53.615	0.00050089	0.00050046	0.00014034	1405.2	5.471e-06	5.4283e-06	1404.2	380.42	5.5252e-06	5.4787e-06	433.5	147.9	128.13	44.562	5.5167e-06	54.864	-74.203	-18.656	6.639	-92.386	20.407	28.296	-92.649	-87.679	34.537	113.407	-88.418	-83.814	-83.265	-79.173	113.161	-79.543	-8191	255	
1660.773	1	1	0	0	0.18934	0.096611	0.22671	0.24001	0.10205	0.10817	0.13089	0.29361	0.17388	0.30002	0.40738	0.07245	0.15986	0.17716	0.024568	0.39754	-2.175	-2.6896	-2.2188	-2.9729	-2.6771	-2.325	-3.0479	-2.4188	-2.5625	-2.6875	-2.3458	-2.825	-2.7292	-2.4813	-2.8021	-2.6542	-29.414	99.565	-102.543	191.454	117.702	159.102	-30.223	163.223	212.047	227.264	179.955	228.559	153.946	-90.923	-14.704	155.523	0.00023286	0.00053856	0.00025583	1397	2.9238e-06	2.3433e-06	1394.2	375.33	4.7743e-06	1.0052e-05	428.73	145.6	126.1	43.602	4.4393e-06	53.939	0.00050441	0.00050447	0.00014022	1408.8	5.595e-06	5.5248e-06	1407.8	380.85	5.6125e-06	5.5804e-06	434.55	148.31	128.28	44.544	5.4511e-06	54.869	-49.902	-102.473	-19.038	-92.348	107.392	84.904	-92.430	-87.609	42.596	32.195	-88.191	-83.858	-83.384	-78.996	81.188	-79.511	-8191	255	
1660.869	1	1	0	0	0.20957	0.20484	0.073019	0.24437	0.24258	0.21722	0.25512	0.35861	0.14884	0.025577	0.12091	0.27011	0.38813	0.16514	0.15012	0.13515	-2.1521	-2.7271	-2.3667	-2.8583	-2.7167	-2.4208	-3.0271	-2.4333	-2.5687	-2.8292	-2.5333	-2.7625	-2.6354	-2.4375	-2.7188	-2.6667	-87.429	20.410	76.470	225.891	197.323	63.213	183.988	190.897	198.629	72.302	160.823	-88.188	238.178	131.531	-44.495	152.593	0.00024053	0.00014739	0.00012148	1395.3	4.6786e-06	3.7624e-06	1401.9	376.28	5.8313e-06	5.511e-06	433.28	145.33	125.64	43.699	3.5085e-06	53.762	0.00049426	0.00049575	0.00013737	1407.2	5.3915e-06	5.4487e-06	1408.1	381.72	5.4573e-06	5.384e-06	435.52	148.34	128.35	44.653	5.5121e-06	54.924	-74.875	240.519	-19.253	-92.326	104.666	74.516	-92.380	-87.769	39.692	43.167	-88.106	-83.722	-83.295	-79.100	12.513	-79.468	-8191	255	
1660.966	1	1	0	0	0.13462	0.26493	0.043863	0.42884	0.10156	0.18703	0.094378	0.29381	0.30161	0.11612	0.087276	0.033327	0.33071	0.42247	0.17067	0.16959	-2.0542	-2.7875	-2.4708	-2.5875	-2.6458	-2.2292	-2.9333	-2.4562	-2.3646	-2.7208	-2.3688	-2.625	-2.7542	-2.3167	-2.6792	-2.6208	194.252	238.491	111.113	203.316	-43.341	154.175	164.422	149.233	23.971	152.658	253.109	-73.905	-74.202	228.001	94.455	165.449	0.00023207	0.00039306	0.00011757	1396.8	4.6103e-06	9.4255e-06	1397.7	376.13	2.4753e-06	3.0829e-06	427.98	145.26	125.71	43.596	8.9624e-07	53.98	0.00050691	0.00050545	0.00014181	1408.9	5.5604e-06	5.587e-06	1409.8	381.11	5.5654e-06	5.5251e-06	433.68	148.41	128.32	44.655	5.4834e-06	54.967	-62.200	-4.388	-24.312	-92.485	9.734	56.318	-92.471	-87.772	249.343	34.903	-88.068	-83.734	-83.284	-78.831	18.068	-79.796	-8191	255	
1661.086	1	1	0	0	0.14412	0.14762	0.28765	0.23954	0.14141	0.091011	0.4615	0.20289	0.31762	0.10607	0.20363	0.17888	0.43196	0.16682	0.23393	0.18639	-1.8708	-2.9521	-2.3896	-2.5792	-2.5729	-2.3646	-2.9146	-2.5917	-2.2354	-2.7229	-2.3875	-2.7021	-2.7042	-2.4938	-2.7	-2.4917	158.277	-87.563	80.849	246.448	-50.008	-54.283	216.849	199.135	-91.450	198.720	213.047	-104.017	218.456	197.595	217.924	234.298	0.00027481	0.00044227	0.00013791	1397.7	3.6287e-07	2.0928e-06	1395.2	374.09	2.56e-06	4.9198e-06	430.26	145	125.72	43.577	3.3925e-06	53.88	0.00049843	0.0004992	0.00013859	1410.3	5.4427e-06	5.5064e-06	1408.4	380.13	5.5061e-06	5.5058e-06	435.01	148.13	128.32	44.57	5.5834e-06	54.856	-76.464	23.893	20.926	-92.346	85.956	77.922	-92.414	-87.864	46.759	79.961	-88.089	-83.749	-83.148	-79.036	18.509	-79.869	-8191	255	
1661.158	1	1	0	0	0.16683	0.22162	0.19394	0.25916	0.24383	0.22543	0.43737	0.29008	0.071763	0.031617	0.20638	0.28164	0.31103	0.18203	0.19278	0.15087	-1.8458	-2.6042	-2.3708	-2.525	-2.7146	-2.1813	-2.8417	-2.8333	-2.3042	-2.7833	-2.5312	-2.4875	-2.875	-2.3771	-2.4917	-2.6854	11.415	213.365	122.595	211.661	241.165	-77.406	172.244	168.186	215.344	105.385	249.361	209.359	194.152	-76.907	-57.874	8.077	0.00022706	0.00030028	0.00012068	1400.9	7.8239e-06	4.6671e-06	1397.7	376.64	4.3028e-06	3.8126e-06	429.44	145.71	125.44	43.633	4.6852e-06	53.764	0.0005016	0.00050721	0.00014114	1409.8	5.5439e-06	5.5803e-06	1408.2	381.9	5.4986e-06	5.5216e-06	435.26	148.58	128.31	44.64	5.5266e-06	54.943	-64.503	29.653	-48.328	-92.363	7.982	26.852	-92.499	-87.791	61.631	-8.157	-88.233	-83.771	-83.180	-78.878	33.175	-79.576	-8191	255	
1661.279	1	1	0	0	0.14434	0.082548	0.22951	0.094273	0.22655	0.164	0.12451	0.38695	0.10214	0.19178	0.17785	0.097419	0.076054	0.21678	0.053431	0.53233	-1.7917	-2.4729	-2.6437	-2.5146	-2.7792	-2.2583	-2.8208	-2.7167	-2.1167	-2.6021	-2.525	-2.3563	-2.7708	-2.4792	-2.5042	-2.5833	-65.160	215.427	46.839	202.311	230.828	193.598	179.159	186.705	-55.262	-59.141	163.331	209.641	16.087	182.669	173.380	186.329	0.00031676	0.0007649	0.00021038	1395.5	1.5666e-06	6.7817e-06	1396.3	377.2	1.8322e-06	6.9666e-06	429.09	145.54	126.14	43.671	3.5158e-06	53.631	0.00049139	0.00049933	0.00013971	1408.8	5.4224e-06	5.5133e-06	1409.1	381.54	5.4668e-06	5.5752e-06	434.45	148.12	128.34	44.61	5.5527e-06	54.9	-55.810	-46.036	-42.598	-92.430	3.243	22.145	-92.352	-87.678	-79.927	56.410	-88.210	-83.572	-83.360	-78.854	-38.784	-79.500	-8191	255	
1661.375	1	1	0	0	0.16524	0.092912	0.40341	0.07363	0.18034	0.13757	0.33261	0.098856	0.13328	0.24201	0.21285	0.325	0.41428	0.015058	0.29919	0.11062	-1.8125	-2.5396	-2.4208	-2.6437	-2.6708	-2.3833	-2.8729	-2.7396	-2.2458	-2.6667	-2.6688	-2.3729	-2.7104	-2.5583	-2.4292	-2.8833	96.361	64.013	97.933	122.819	18.288	202.205	149.074	-42.715	156.610	219.897	221.934	-22.165	220.628	41.656	253.032	-70.774	0.00027341	0.0006018	0.0001264	1393	9.3253e-06	3.129e-06	1390.3	375.04	4.1699e-06	6.3194e-06	430.08	145.15	125.52	43.493	3.5293e-06	53.689	0.00049487	0.00050403	0.00013982	1408.6	5.4602e-06	5.4707e-06	1406.8	380.89	5.5541e-06	5.5784e-06	434.47	148.15	127.97	44.433	5.7166e-06	54.741	-60.926	-69.503	-2.856	-92.237	28.762	34.999	-92.399	-87.763	91.108	57.113	-88.236	-83.751	-83.429	-79.202	120.565	-79.750	-8191	255	
1661.469	1	1	0	0	0.20035	0.26733	0.18115	0.15509	0.23127	0.047063	0.28806	0.15942	0.12428	0.14735	0.48292	0.15336	0.13638	0.23256	0.03569	0.24737	-1.7625	-2.6167	-2.4875	-2.3583	-2.8	-2.4292	-2.5583	-3.1	-2.3438	-2.5062	-2.7521	-2.3354	-2.7583	-2.5021	-2.2167	-2.9437	-50.674	-25.909	72.017	223.994	163.889	141.596	244.539	-93.893	29.853	162.758	219.947	-104.489	197.254	-74.803	240.934	206.706	0.00030539	0.0005714	0.00016567	1399.9	1.8748e-06	2.7519e-06	1396.3	373.25	2.0571e-06	5.4379e-06	424.92	143.91	124.08	42.715	8.0029e-06	53.371	0.00051376	0.00053192	0.00014817	1409.4	5.8065e-06	5.8538e-06	1407.3	379.23	5.9525e-06	6.0316e-06	431.82	146.47	126.65	43.85	6.0187e-06	54.297	-80.808	-6.931	27.928	-92.357	-92.772	6.403	-92.423	-87.666	131.262	18.665	-88.327	-83.803	-83.328	-79.063	60.799	-79.617	-8191	255	
1661.565	1	1	0	0	0.16156	0.05257	0.17604	0.17393	0.027443	0.10792	0.059442	0.20409	0.1281	0.13901	0.14978	0.21718	0.13421	0.45484	0.11393	0.19649	-1.9167	-2.4021	-2.5917	-2.4375	-2.5417	-2.4917	-2.5438	-2.9104	-2.3688	-2.5062	-2.7042	-2.3708	-2.7354	-2.5625	-2.3104	-2.6833	135.006	136.955	68.238	186.598	114.752	111.807	82.322	109.790	216.448	96.614	228.012	-100.294	-73.083	-82.376	86.677	188.597	0.00027321	0.001063	0.00014426	1394.5	7.58e-07	5.2115e-06	1388.3	372.94	3.4636e-06	6.7434e-06	425.26	144.46	124.61	43.049	7.5201e-06	53.203	0.000534	0.00053908	0.00014933	1407.2	5.8704e-06	5.8179e-06	1406.2	378.76	5.7328e-06	5.7265e-06	431.89	146.92	127.15	44.094	5.6213e-06	54.416	-76.347	-36.885	-41.358	-92.276	187.735	78.001	-92.488	-87.686	51.907	56.588	-88.182	-83.994	-83.166	-78.930	-37.189	-79.869	-8191	255	
1661.686	1	1	0	0	0.25913	0.068031	0.045583	0.21823	0.13284	0.13959	0.17435	0.19018	0.28376	0.21534	0.15519	0.21749	0.25723	0.26671	0.21215	0.28857	-1.8625	-2.4083	-2.7479	-2.5542	-2.5521	-2.6167	-2.5042	-2.7833	-2.2896	-2.4	-2.8958	-2.2562	-2.9229	-2.7938	-2.2875	-2.8083	4.427	50.487	-27.305	198.690	191.842	90.064	248.062	227.543	35.644	145.611	157.211	122.331	-35.717	231.704	162.929	-104.403	0.00022723	0.00038969	0.00015577	1390.8	5.5285e-06	1.8487e-06	1385.3	374.42	2.3488e-06	3.7418e-06	426.81	144.14	124.39	42.927	6.3002e-06	53.612	0.00050124	0.00050703	0.00014149	1403.8	5.4679e-06	5.5189e-06	1399.4	379.17	5.454e-06	5.5797e-06	431.65	146.96	126.95	43.993	5.5814e-06	54.452	-67.670	-14.310	-60.713	-92.231	59.403	66.446	-92.253	-87.793	27.628	78.912	-88.304	-83.528	-83.047	-78.820	24.592	-79.617	-8191	255	
1661.758	1	1	0	0	0.20159	0.10613	0.20377	0.36619	0.064638	0.072028	0.3452	0.20974	0.072321	0.15847	0.077426	0.28541	0.22919	0.1536	0.26163	0.085931	-1.9604	-2.3438	-2.8104	-2.4958	-2.5542	-2.525	-2.5479	-2.775	-2.5021	-2.4479	-2.7729	-2.5083	-2.5896	-2.6958	-2.3375	-2.725	197.459	-103.233	131.455	162.165	185.156	202.147	191.327	129.270	218.174	75.507	253.475	249.300	110.206	-64.332	-92.996	127.007	0.00022815	0.00071775	0.00016196	1389.8	5.7561e-06	5.0306e-06	1388.4	373.45	2.1385e-06	3.602e-06	427.02	143.48	123.6	43.084	3.8779e-06	53.218	0.00050192	0.00051481	0.00014098	1403.9	5.5881e-06	5.6159e-06	1401.7	377.99	5.6363e-06	5.7e-06	431.83	146.68	126.86	44.103	5.6839e-06	54.441	-60.307	-50.349	-23.968	-92.366	43.192	23.886	-92.349	-87.684	29.886	105.599	-88.292	-83.594	-83.311	-79.141	59.308	-79.688	-8191	255	
1661.854	1	1	0	0	0.11506	0.076553	0.18579	0.31228	0.09871	0.090718	0.43132	0.16065	0.067524	0.097017	0.03688	0.23471	0.18673	0.0037523	0.17028	0.11698	-2.1104	-2.175	-2.6729	-2.6542	-2.6896	-2.5667	-2.3417	-2.7313	-2.6437	-2.2146	-2.7667	-2.5583	-2.5333	-2.7687	-2.3417	-2.8125	-16.174	234.378	159.314	244.972	47.613	225.060	198.124	244.787	72.380	-75.613	126.210	239.234	245.359	2.428	124.796	26.990	0.00029004	0.0010609	6.6172e-05	1391.6	5.5825e-06	6.5781e-06	1389.6	371.53	7.1945e-07	5.8786e-06	428.82	143.85	124.65	43.173	3.8618e-06	53.623	0.00051179	0.00051837	0.00014468	1405.6	5.6648e-06	5.6923e-06	1403.4	378.64	5.6605e-06	5.7447e-06	432.72	147.12	127.27	44.248	5.6763e-06	54.583	-60.054	-18.573	-30.747	-92.262	34.545	53.780	-92.233	-87.675	80.849	39.434	-88.379	-83.493	-83.286	-79.300	216.808	-79.264	-8191	255	
1661.950	1	1	0	0	0.17463	0.077813	0.11568	0.31617	0.16715	0.0829	0.17066	0.26762	0.10845	0.20087	0.06981	0.29417	0.18993	0.20886	0.12157	0.11483	-2.0583	-2.3167	-2.6625	-2.5792	-2.4521	-2.6792	-2.4083	-2.8312	-2.7021	-2.2458	-2.7646	-2.5875	-2.4938	-2.8854	-2.3583	-2.8521	-65.522	207.741	245.212	244.327	217.167	67.256	208.508	176.236	171.422	6.279	-24.387	-100.380	-26.833	-90.705	141.258	163.464	0.00030883	0.0006489	0.00013981	1394.1	5.5681e-06	5.4697e-06	1391.4	374.17	5.5254e-06	4.032e-06	428.38	144.78	125.24	43.445	6.0975e-06	53.536	0.00050717	0.00051791	0.00014366	1404.9	5.6829e-06	5.6083e-06	1404.6	379.74	5.6396e-06	5.6986e-06	433.51	147.68	127.65	44.415	5.6118e-06	54.617	-60.974	-14.801	-5.542	-92.333	2.314	46.404	-92.426	-87.840	0.809	39.407	-88.261	-83.829	-83.416	-79.070	51.015	-79.880	-8191	255	
1662.046	1	1	0	0	0.058461	0.16884	0.19849	0.31237	0.030109	0.05492	0.24199	0.12208	0.098935	0.19734	0.065991	0.20893	0.22072	0.1362	0.03964	0.05445	-2.0917	-2.2687	-2.5687	-2.8354	-2.2792	-2.6542	-2.4292	-2.6146	-2.5604	-2.1229	-2.8375	-2.4771	-2.3667	-2.8438	-2.3542	-2.6292	-36.874	19.026	38.409	177.140	185.425	242.102	218.338	-65.432	217.661	179.536	213.638	200.232	207.296	31.599	25.301	166.273	0.00023695	0.00048637	0.00014216	1392.5	4.2551e-06	4.0323e-06	1394.6	374.39	1.6708e-06	3.1919e-06	427.56	144.69	124.93	43.418	6.2691e-06	53.621	0.00050925	0.00051081	0.00014402	1405.4	5.7037e-06	5.7358e-06	1405.3	378.99	5.7372e-06	5.6213e-06	432.93	147.61	127.44	44.326	5.6521e-06	54.663	-65.891	-79.228	-41.011	-92.506	96.625	67.380	-92.246	-87.670	17.978	-48.085	-88.554	-83.643	-83.265	-79.076	-19.205	-79.633	-8191	255	
1662.167	1	1	0	0	0.14864	0.19242	0.16591	0.28805	0.039366	0.23642	0.38819	0.4115	0.3249	0.15214	0.18905	0.2919	0.32219	0.20419	0.32124	0.091488	-2.2583	-2.2417	-2.6625	-2.7354	-2.3542	-2.7667	-2.5	-2.7229	-2.8479	-2.3771	-2.6833	-2.7542	-2.4521	-2.8396	-2.3458	-2.5625	31.891	167.419	215.200	184.210	84.578	-61.353	224.312	217.358	128.875	101.171	225.648	175.737	199.823	117.585	163.136	-96.779	0.00027511	0.00047793	0.00018616	1393.2	9.6689e-07	2.55e-06	1393.4	374.65	1.0495e-06	4.2312e-06	426.99	143.91	124.07	43.281	4.8806e-06	53.449	0.00050623	0.0005184	0.00014312	1406.6	5.6985e-06	5.6574e-06	1405.9	379.43	5.6507e-06	5.6654e-06	432.85	146.91	127.05	44.207	5.6378e-06	54.499	-61.309	-36.609	-17.780	-92.473	-65.533	-18.509	-92.489	-87.652	-2.534	71.392	-88.181	-83.584	-83.221	-79.026	39.084	-79.683	-8191	255	
1662.263	1	1	0	0	0.07691	0.36903	0.1077	0.33699	0.18087	0.074692	0.34998	0.20047	0.19239	0.15798	0.21381	0.4343	0.34104	0.21392	0.22467	0.24368	-2.2625	-2.3063	-2.5708	-2.775	-2.1375	-2.7	-2.825	-2.4854	-2.9167	-2.3146	-2.6833	-2.5687	-2.5021	-2.85	-2.6375	-2.5354	82.802	-96.800	-77.641	-102.447	60.875	111.035	186.883	211.010	189.998	-22.378	-103.747	159.542	-66.020	192.956	245.104	-79.171	0.00019636	0.00080747	0.00012688	1386.5	4.9938e-06	2.8736e-06	1389.1	370.52	5.4023e-06	5.0276e-06	424.23	142.55	123.47	42.549	6.7713e-06	52.628	0.00050102	0.00050863	0.0001415	1402.2	5.5431e-06	5.6643e-06	1400.8	376.55	5.7175e-06	5.7449e-06	430.09	145.79	125.99	43.665	5.9179e-06	53.827	-78.904	-64.070	48.742	-92.544	77.195	24.111	-92.438	-87.609	98.386	38.774	-88.228	-83.840	-83.190	-78.679	72.845	-79.370	-8191	255	
1662.359	1	1	0	0	0.080187	0.13542	0.13729	0.2924	0.21472	0.17914	0.29307	0.231	0.11383	0.1236	0.2657	0.18968	0.087678	0.1846	0.07709	0.12948	-2.2583	-2.075	-2.4792	-3.0083	-2.3771	-2.9104	-2.7521	-2.4396	-2.8979	-2.5687	-2.5375	-2.85	-2.5062	-2.7646	-2.5083	-2.3042	-50.148	252.134	10.629	153.326	165.273	165.939	123.654	229.239	-46.669	33.857	209.019	206.500	-83.406	248.645	57.455	176.759	0.00030109	0.00061502	0.00013163	1384.2	7.8986e-07	3.6363e-07	1385.9	369.71	1.4683e-06	8.2e-06	420.87	142.1	122.68	42.485	5.1157e-06	52.49	0.00052989	0.00054612	0.0001551	1397.3	5.9858e-06	5.9732e-06	1398	374.98	6.0757e-06	6.1081e-06	428.51	144.66	125.42	43.41	6.1577e-06	53.781	-79.374	-86.656	-26.326	-92.368	11.960	173.548	-92.479	-87.558	235.671	6.637	-88.139	-83.541	-83.210	-79.009	51.827	-79.591	-8191	255	
1662.455	1	1	0	0	0.064739	0.16359	0.2605	0.20724	0.07535	0.22338	0.29872	0.18841	0.13179	0.087485	0.17882	0.17248	0.1589	0.082005	0.12658	0.10062	-2.3271	-2.575	-2.5396	-3.1396	-2.275	-2.6167	-2.6833	-2.4938	-2.7396	-2.2896	-2.6646	-2.8438	-2.2	-2.7875	-2.6542	-2.3833	103.788	57.807	-29.742	226.095	117.228	25.000	209.627	205.180	176.302	74.381	147.218	153.713	115.891	112.112	52.118	-57.942	0.00021587	0.00013407	0.00010713	1382.5	9.8432e-07	2.4935e-06	1384.4	368.53	2.4077e-06	1.4104e-06	422.68	142.05	122.79	42.53	5.0414e-06	53.016	0.00055542	0.00055882	0.00015628	1398.7	5.9737e-06	6.0246e-06	1398.5	375.3	5.9342e-06	5.918e-06	428.6	145.2	125.63	43.59	5.6619e-06	54.107	-71.229	151.634	-43.529	-92.416	-2.277	70.765	-92.339	-87.683	59.473	-75.443	-88.175	-83.827	-83.172	-78.844	-18.523	-79.556	-8191	255	
1662.549	1	1	0	0	0.089588	0.23277	0.13397	0.23449	0.095657	0.16262	0.030889	0.24729	0.091183	0.22366	0.083846	0.25315	0.13663	0.19688	0.32257	0.30626	-2.5042	-2.3708	-2.4688	-3	-2.2979	-2.5354	-2.825	-2.5875	-2.6542	-2.4667	-2.5771	-2.925	-2.4458	-2.6521	-2.5854	-2.3896	247.710	88.759	232.641	226.160	38.346	-2.354	140.593	226.615	200.635	28.237	-80.220	-58.213	210.862	-94.531	111.745	191.016	0.00028236	0.00075412	0.00013459	1384.6	6.5572e-06	4.9177e-06	1385.8	372.25	3.637e-06	6.9426e-06	427.06	144.43	124.54	43.177	8.8645e-06	53.133	0.00049994	0.00050423	0.00013795	1397.5	5.3658e-06	5.2997e-06	1397.3	377.32	5.2325e-06	5.218e-06	432.36	147.07	126.92	44.176	5.3095e-06	54.497	-62.669	-28.679	-57.501	-92.546	36.336	-14.509	-92.462	-87.519	53.479	74.412	-88.468	-83.845	-83.127	-78.950	29.762	-79.661	-8191	255	
1662.647	1	1	0	0	0.24355	0.22462	0.11321	0.44018	0.080579	0.26654	0.18885	0.27269	0.18275	0.27416	0.1072	0.078023	0.27714	0.30368	0.22371	0.2572	-2.1188	-2.6292	-2.2687	-2.7938	-2.3271	-2.5438	-2.9062	-2.3479	-2.5479	-2.4833	-2.4271	-3.0146	-2.6937	-2.5062	-2.725	-2.4292	29.201	-42.575	79.873	224.928	121.988	-81.206	-98.965	211.891	22.891	-64.175	-52.021	148.785	-94.189	250.139	241.042	156.687	0.00025813	0.00035355	0.00012447	1387.8	1.6138e-06	8.4964e-06	1389.4	373.83	2.8651e-06	6.1383e-06	428.14	145.36	125.77	43.81	5.5667e-06	54.292	0.00047884	0.00048032	0.0001336	1398.7	5.2146e-06	5.2431e-06	1400	379.23	5.1794e-06	5.1574e-06	432.97	148.14	128.31	44.701	4.9591e-06	55.215	-69.925	-29.249	-46.019	-92.447	156.693	14.259	-92.388	-87.544	-4.167	31.636	-88.373	-83.688	-83.230	-79.042	43.340	-79.641	-8191	255	
1662.766	1	1	0	0	0.20907	0.06414	0.010033	0.37854	0.16727	0.16666	0.27263	0.21593	0.17779	0.33152	0.25279	0.078611	0.2139	0.26553	0.14411	0.081114	-2.0729	-2.6125	-2.2667	-2.7354	-2.2562	-2.4333	-3.075	-2.4646	-2.6125	-2.5083	-2.4021	-2.8458	-2.7083	-2.5187	-2.9062	-2.6229	47.814	232.307	30.167	-90.071	1.639	-2.709	167.615	208.136	172.887	191.418	-100.830	-73.340	190.166	214.359	47.602	117.455	0.00028624	0.00054751	4.8161e-05	1400.8	1.3384e-06	6.0441e-06	1395.7	377.04	1.5091e-06	5.2863e-06	431.87	145.04	125.6	43.678	5.3309e-06	53.777	0.0004483	0.0004475	0.0001228	1407.7	4.8139e-06	4.8242e-06	1407.3	382.2	4.8603e-06	4.8667e-06	434.5	148.16	127.96	44.58	4.8716e-06	54.736	-64.049	-60.609	-14.501	-92.423	197.454	26.134	-92.434	-87.618	-38.200	132.502	-88.223	-83.853	-83.506	-79.083	27.235	-79.797	-8191	255	
1662.862	1	1	0	0	0.2315	0.1501	0.075143	0.18062	0.22873	0.13899	0.18018	0.40431	0.23414	0.13341	0.14025	0.2965	0.3094	0.04215	0.19024	0.20724	-2.05	-2.6917	-2.2833	-3.1083	-2.5125	-2.3917	-2.9333	-2.3688	-2.4125	-2.6167	-2.5438	-2.8208	-2.5875	-2.2333	-2.6958	-2.5208	-72.379	58.302	122.219	231.847	143.069	-43.008	176.530	194.872	232.460	134.342	236.345	229.794	-60.007	59.538	2.973	-29.639	0.00027225	0.00038328	0.0001185	1387	4.8788e-06	7.8876e-06	1383	373.28	5.311e-06	4.8982e-06	425.62	144.35	124.12	43.048	4.251e-06	53.134	0.00045765	0.00045252	0.0001267	1397.5	5.0959e-06	5.0579e-06	1395.2	378.64	5.1367e-06	5.1007e-06	430.55	146.63	126.71	43.964	5.2176e-06	54.225	-70.756	-55.274	17.874	-92.428	16.444	40.754	-92.340	-87.613	51.328	36.362	-88.355	-83.861	-83.306	-78.854	57.672	-79.640	-8191	255	
1662.959	1	1	0	0	0.27285	0.089802	0.29932	0.19503	0.10289	0.14046	0.20206	0.11606	0.089185	0.084486	0.41568	0.12728	0.25474	0.42069	0.22536	0.12736	-1.9771	-2.5729	-2.0958	-2.7812	-2.6667	-2.3729	-3.0333	-2.3958	-2.4771	-2.7042	-2.2708	-2.9292	-2.7104	-2.5021	-2.6188	-2.6708	215.381	161.865	-59.800	219.089	-38.975	37.104	203.267	194.454	172.343	-28.046	-68.630	107.350	158.765	242.108	-49.043	-29.601	0.00033925	0.0006654	9.173e-05	1377.3	8.293e-06	4.0586e-06	1380	369.38	4.2847e-06	5.2476e-06	422.37	142.44	123.73	42.599	2.1883e-06	52.614	0.0004785	0.00047513	0.00013596	1393	5.2992e-06	5.2681e-06	1392.8	375.39	5.3779e-06	5.3193e-06	428.14	145.28	125.78	43.616	5.2722e-06	53.765	-69.581	-17.190	-25.888	-92.311	28.934	10.974	-92.443	-87.743	31.652	23.616	-88.277	-83.739	-83.271	-78.993	65.359	-79.288	-8191	255	
1663.055	1	1	0	0	0.19417	0.074502	0.064197	0.028712	0.07547	0.11643	0.16746	0.41643	0.19701	0.23463	0.29214	0.36128	0.43506	0.29308	0.17969	0.069494	-2.0438	-2.7042	-2.3917	-2.7021	-2.6146	-2.0896	-2.9667	-2.5667	-2.4896	-2.5167	-2.4354	-2.775	-2.8875	-2.4104	-2.6729	-2.4938	215.012	127.508	-48.823	-30.894	159.646	-89.337	240.094	187.000	-89.117	34.121	237.471	234.747	-75.258	-99.732	-73.148	126.284	0.00032789	0.00090243	0.00013978	1379.2	3.251e-06	6.6655e-06	1380.5	370.51	1.8848e-06	6.7577e-06	423.38	143.39	123.52	42.617	6.7046e-06	52.693	0.00048261	0.00049306	0.00013654	1392.4	5.3527e-06	5.2577e-06	1392.5	375.98	5.2911e-06	5.2536e-06	428.41	145.57	125.95	43.731	5.3102e-06	53.883	-61.735	-13.000	-37.247	-92.252	22.649	56.905	-92.474	-87.613	74.373	120.430	-88.491	-83.926	-83.316	-78.925	54.766	-79.561	-8191	255	
#DATA ENDS
