BOXY.EXE: ISS Imagent and Oximeter Data Acquisition Program Version 0.80
Ascii Record File

#ACQ INFORMATION
2  Detector Channels 
16  External MUX Channels 
1  Auxiliary Channels 
5000  Waveform (CCF) Frequency (Hz)
1  Waveforms Skipped 
30  Waveforms Averaged 
1  Cycles Averaged 
16  Acquisitions per Waveform 
10.0806  Updata Rate (Hz) 

#FILE INFORMATION
TRUE -- External MUX Channel results are PARSED.
FALSE -- AC DC and Phase are NOT grouped.
TRUE -- Companion Program Settings File CREATED.
FALSE -- AC data not excluded
FALSE -- DC data not excluded
FALSE -- Phase data not excluded
FALSE -- Auxillary Chn. data not excluded
Tab delimiters

#CALIBRATION STATE
TRUE -- Waveform Calibration Values APPLIED.


#AUX CALIBRATION VALUES
Val Type	aux-1	

Term	1.0000e+00	
Factor	0.0000e+00	


#WF CALIBRATION VALUES
A = Detector Channel
Val Type	A-AC1	A-AC2	A-AC3	A-AC4	A-AC5	A-AC6	A-AC7	A-AC8	A-AC9	A-AC10	A-AC11	A-AC12	A-AC13	A-AC14	A-AC15	A-AC16	A-DC1	A-DC2	A-DC3	A-DC4	A-DC5	A-DC6	A-DC7	A-DC8	A-DC9	A-DC10	A-DC11	A-DC12	A-DC13	A-DC14	A-DC15	A-DC16	A-Ph1	A-Ph2	A-Ph3	A-Ph4	A-Ph5	A-Ph6	A-Ph7	A-Ph8	A-Ph9	A-Ph10	A-Ph11	A-Ph12	A-Ph13	A-Ph14	A-Ph15	A-Ph16	

Term	0.00000e+00	0.00000e+00	0.00000e+00	0.00000e+00	0.00000e+00	0.00000e+00	0.00000e+00	0.00000e+00	0.00000e+00	0.00000e+00	0.00000e+00	0.00000e+00	0.00000e+00	0.00000e+00	0.00000e+00	0.00000e+00	0.00000e+00	0.00000e+00	0.00000e+00	0.00000e+00	0.00000e+00	0.00000e+00	0.00000e+00	0.00000e+00	0.00000e+00	0.00000e+00	0.00000e+00	0.00000e+00	0.00000e+00	0.00000e+00	0.00000e+00	0.00000e+00	0.00000e+00	0.00000e+00	0.00000e+00	0.00000e+00	0.00000e+00	0.00000e+00	0.00000e+00	0.00000e+00	0.00000e+00	0.00000e+00	0.00000e+00	0.00000e+00	0.00000e+00	0.00000e+00	0.00000e+00	0.00000e+00	
Factor	1.00000e+00	1.00000e+00	1.00000e+00	1.00000e+00	1.00000e+00	1.00000e+00	1.00000e+00	1.00000e+00	1.00000e+00	1.00000e+00	1.00000e+00	1.00000e+00	1.00000e+00	1.00000e+00	1.00000e+00	1.00000e+00	1.00000e+00	1.00000e+00	1.00000e+00	1.00000e+00	1.00000e+00	1.00000e+00	1.00000e+00	1.00000e+00	1.00000e+00	1.00000e+00	1.00000e+00	1.00000e+00	1.00000e+00	1.00000e+00	1.00000e+00	1.00000e+00	X	X	X	X	X	X	X	X	X	X	X	X	X	X	X	X	

B = Detector Channel
Val Type	B-AC1	B-AC2	B-AC3	B-AC4	B-AC5	B-AC6	B-AC7	B-AC8	B-AC9	B-AC10	B-AC11	B-AC12	B-AC13	B-AC14	B-AC15	B-AC16	B-DC1	B-DC2	B-DC3	B-DC4	B-DC5	B-DC6	B-DC7	B-DC8	B-DC9	B-DC10	B-DC11	B-DC12	B-DC13	B-DC14	B-DC15	B-DC16	B-Ph1	B-Ph2	B-Ph3	B-Ph4	B-Ph5	B-Ph6	B-Ph7	B-Ph8	B-Ph9	B-Ph10	B-Ph11	B-Ph12	B-Ph13	B-Ph14	B-Ph15	B-Ph16	

Term	0.00000e+00	0.00000e+00	0.00000e+00	0.00000e+00	0.00000e+00	0.00000e+00	0.00000e+00	0.00000e+00	0.00000e+00	0.00000e+00	0.00000e+00	0.00000e+00	0.00000e+00	0.00000e+00	0.00000e+00	0.00000e+00	0.00000e+00	0.00000e+00	0.00000e+00	0.00000e+00	0.00000e+00	0.00000e+00	0.00000e+00	0.00000e+00	0.00000e+00	0.00000e+00	0.00000e+00	0.00000e+00	0.00000e+00	0.00000e+00	0.00000e+00	0.00000e+00	-3.63263e+01	-1.44616e+02	-1.36455e+02	-1.83436e+02	-6.47196e+01	-8.14628e+01	-1.60695e+02	-1.62015e+02	-4.27404e+01	-5.87643e+01	-1.72707e+02	-1.72386e+02	-1.83401e+02	-1.78286e+02	-6.56670e+01	-1.51169e+02	
Factor	2.16242e-05	1.40199e-04	3.24853e-05	1.48686e-01	1.47159e-06	1.31807e-06	1.62454e-01	5.10240e-02	1.11014e-06	1.35182e-06	7.91605e-02	2.65441e-02	2.35584e-02	8.15133e-03	1.44641e-06	1.17866e-02	2.30442e-06	2.49268e-06	6.93736e-07	7.79555e-02	2.69482e-08	2.73278e-08	7.97935e-02	2.67642e-02	2.70149e-08	2.74240e-08	4.00788e-02	1.34491e-02	1.24290e-02	4.29815e-03	2.72636e-08	5.99323e-03	X	X	X	X	X	X	X	X	X	X	X	X	X	X	X	X	



#DISTANCE SETTINGS
A = Detector Channel
A-1	A-2	A-3	A-4	A-5	A-6	A-7	A-8	A-9	A-10	A-11	A-12	A-13	A-14	A-15	A-16	

2.5000e+00	3.0000e+00	2.5000e+00	3.0000e+00	2.0000e+00	3.0000e+00	1.5000e+00	3.0000e+00	3.0000e+00	3.0000e+00	3.0000e+00	3.0000e+00	3.0000e+00	3.0000e+00	1.5000e+00	3.0000e+00	

B = Detector Channel
B-1	B-2	B-3	B-4	B-5	B-6	B-7	B-8	B-9	B-10	B-11	B-12	B-13	B-14	B-15	B-16	

1.0000e+01	1.0000e+01	1.0000e+01	1.4400e+00	1.0000e+01	1.0000e+01	1.5100e+00	1.9400e+00	1.0000e+01	1.0000e+01	1.9900e+00	2.4900e+00	2.4100e+00	2.9000e+00	1.0000e+01	2.9800e+00	




#DATA BEGINS
time	group	step	mark	flag	A-AC1	A-AC2	A-AC3	A-AC4	A-AC5	A-AC6	A-AC7	A-AC8	A-AC9	A-AC10	A-AC11	A-AC12	A-AC13	A-AC14	A-AC15	A-AC16	A-DC1	A-DC2	A-DC3	A-DC4	A-DC5	A-DC6	A-DC7	A-DC8	A-DC9	A-DC10	A-DC11	A-DC12	A-DC13	A-DC14	A-DC15	A-DC16	A-Ph1	A-Ph2	A-Ph3	A-Ph4	A-Ph5	A-Ph6	A-Ph7	A-Ph8	A-Ph9	A-Ph10	A-Ph11	A-Ph12	A-Ph13	A-Ph14	A-Ph15	A-Ph16	B-AC1	B-AC2	B-AC3	B-AC4	B-AC5	B-AC6	B-AC7	B-AC8	B-AC9	B-AC10	B-AC11	B-AC12	B-AC13	B-AC14	B-AC15	B-AC16	B-DC1	B-DC2	B-DC3	B-DC4	B-DC5	B-DC6	B-DC7	B-DC8	B-DC9	B-DC10	B-DC11	B-DC12	B-DC13	B-DC14	B-DC15	B-DC16	B-Ph1	B-Ph2	B-Ph3	B-Ph4	B-Ph5	B-Ph6	B-Ph7	B-Ph8	B-Ph9	B-Ph10	B-Ph11	B-Ph12	B-Ph13	B-Ph14	B-Ph15	B-Ph16	aux-1	digaux	

1705.022	1	1	0	256	0.088923	0.1423	0.15683	0.22187	0.11097	0.11252	0.28593	0.19436	0.19774	0.14843	0.15983	0.17584	0.2142	0.45451	0.077435	0.076654	-1.9458	-2.2917	-2.7833	-2.3583	-2.7417	-2.6813	-2.6271	-2.8958	-2.5521	-2.5687	-2.875	-2.3063	-2.65	-2.6333	-2.2604	-2.7854	-66.220	109.702	-49.379	-67.224	15.108	-76.777	236.705	97.913	98.332	4.617	195.281	186.747	206.297	240.015	35.569	-98.401	0.00033119	0.00058182	0.00017933	1395.8	1.5813e-06	2.333e-06	1390.8	375.59	2.3733e-06	8.4262e-06	429.18	141.37	119.24	42.552	2.7351e-06	52.891	0.00063862	0.00065266	0.00017934	1412	7.0535e-06	7.0783e-06	1408.1	382.21	6.9818e-06	6.9993e-06	434.81	145.14	122.48	43.674	6.8097e-06	54.325	-70.400	-11.511	-23.662	-92.589	25.019	18.535	-92.428	-87.821	75.439	38.683	-88.234	-83.688	-83.150	-78.970	10.490	-79.733	-8191	255	
1705.118	1	1	0	0	0.14654	0.22891	0.037348	0.21907	0.093741	0.22495	0.22548	0.22722	0.15831	0.097213	0.2331	0.25176	0.24542	0.23523	0.24984	0.10559	-2.0583	-2.2687	-2.6396	-2.4792	-2.5396	-2.7479	-2.6083	-2.8063	-2.4896	-2.5021	-2.9333	-2.625	-2.5938	-2.8229	-2.2313	-2.825	189.688	-47.496	38.932	-70.937	55.227	43.146	-52.769	125.134	-38.137	186.511	164.014	241.779	142.929	234.090	220.764	250.371	0.00027604	0.0005564	0.00010431	1397.2	6.5216e-06	5.8687e-06	1388.2	375.33	2.3878e-06	9.9409e-06	428.32	142.08	119.98	42.471	6.9073e-06	52.776	0.00061757	0.00062612	0.0001727	1409	6.853e-06	6.6392e-06	1405.5	382.07	6.764e-06	6.6803e-06	434.74	145.39	122.77	43.704	6.8044e-06	54.24	-89.889	254.111	-14.374	-92.419	64.040	-8.383	-92.491	-87.493	103.868	56.387	-88.205	-83.837	-83.341	-78.794	32.730	-79.522	-8191	255	
1705.214	1	1	0	0	0.11669	0.27456	0.19172	0.30467	0.11462	0.11161	0.42438	0.1448	0.33211	0.30495	0.085968	0.21046	0.089458	0.46393	0.12566	0.070174	-2.0625	-2.525	-2.8542	-2.5708	-2.5708	-2.7146	-2.5354	-2.7958	-2.5104	-2.4062	-2.9313	-2.5958	-2.625	-2.6375	-2.2854	-2.4667	213.122	19.776	90.205	222.133	229.438	224.015	208.656	167.718	190.404	141.174	-48.883	143.088	-25.814	-88.460	95.362	-71.813	0.00022923	0.00035191	0.00013647	1388.9	2.7841e-06	2.2232e-06	1391.7	376.63	1.7437e-06	3.9763e-06	427.78	141.71	119.8	42.533	5.1239e-06	52.735	0.00060533	0.0006141	0.00017413	1406.9	6.8174e-06	6.8009e-06	1406	382.8	6.895e-06	6.866e-06	434.84	144.98	122.6	43.702	7.0194e-06	54.172	-64.883	-23.138	-45.910	-92.379	9.283	64.726	-92.425	-87.507	-40.081	55.653	-88.378	-83.887	-83.535	-79.114	42.403	-79.872	-8191	255	
1705.333	1	1	0	0	0.14103	0.15859	0.20998	0.29402	0.14474	0.24585	0.28842	0.072535	0.10339	0.3602	0.097499	0.098511	0.24641	0.028886	0.133	0.20487	-1.9375	-2.1458	-2.7396	-2.5833	-2.3604	-2.6312	-2.3958	-2.6354	-2.5354	-2.225	-2.7438	-2.4979	-2.2917	-2.7292	-2.2271	-2.5396	-49.453	211.118	101.221	188.503	44.296	12.039	216.325	-100.975	-28.640	167.903	-60.680	84.677	245.389	15.178	251.815	174.226	0.00023688	0.00065869	0.00014985	1396.1	7.4919e-07	5.4843e-06	1388.5	376.18	3.2173e-06	4.2027e-06	425.66	141.14	118.82	42.449	7.71e-06	52.961	0.00061814	0.00063555	0.00017902	1409.9	7.0221e-06	7.012e-06	1406.2	382.34	7.0416e-06	7.1026e-06	434.26	144.94	122.16	43.663	7.0557e-06	54.203	-64.966	-36.774	-11.359	-92.568	98.283	-34.285	-92.300	-87.534	58.557	92.647	-88.443	-83.843	-83.458	-78.923	65.696	-79.571	-8191	255	
1705.429	1	1	0	0	0.12536	0.45286	0.16876	0.28086	0.027069	0.087115	0.29817	0.25671	0.30301	0.129	0.20174	0.38834	0.050454	0.14802	0.029148	0.14254	-2.1667	-2.2062	-2.6729	-2.6208	-2.2938	-2.7375	-2.4875	-2.3917	-2.6208	-2.3542	-2.6958	-2.5146	-2.3563	-2.875	-2.3354	-2.5146	118.166	243.608	-96.000	192.723	135.520	-43.422	226.416	184.731	-60.685	-79.446	234.556	-87.771	151.741	-8.380	-77.872	231.878	0.00023622	0.00074651	2.7971e-05	1394.3	3.9013e-06	6.7054e-06	1390.4	374.65	2.7411e-06	3.9412e-06	429.05	141.32	119.48	42.572	2.6215e-06	52.865	0.00062553	0.00063425	0.00017828	1410.1	7.0122e-06	7.0416e-06	1405.3	382.26	7.0212e-06	6.9837e-06	435.16	145.01	122.49	43.68	7.0238e-06	54.314	-75.824	-33.271	-0.131	-92.575	59.427	48.511	-92.292	-87.633	45.975	92.806	-88.413	-83.903	-83.570	-78.869	-92.252	-79.729	-8191	255	
1705.525	1	1	0	0	0.13045	0.0501	0.096425	0.32253	0.22339	0.29818	0.19061	0.2031	0.24489	0.18348	0.12955	0.39202	0.14783	0.10354	0.36786	0.12316	-2.2708	-1.9875	-2.5583	-2.7521	-2.2208	-2.6646	-2.525	-2.4625	-2.65	-2.3792	-2.7042	-2.7146	-2.3792	-2.8083	-2.2542	-2.5812	39.417	-37.108	59.895	-59.412	213.981	178.864	177.355	-95.506	58.459	236.339	224.876	185.461	229.752	-18.803	-3.544	213.315	0.0001885	0.00070937	0.00021595	1393.5	2.2481e-06	5.0553e-06	1391.3	374.85	1.2824e-06	1.0836e-05	426.29	141.46	118.83	42.328	2.6415e-06	52.851	0.00062687	0.00064077	0.00017942	1410.1	7.0053e-06	7.0659e-06	1406.3	382.1	7.0504e-06	7.0402e-06	433.98	145.14	122.28	43.605	7.1824e-06	54.241	-65.649	-28.081	-20.357	-92.516	79.071	39.568	-92.317	-87.849	-0.871	71.177	-88.468	-83.571	-83.473	-78.728	102.124	-79.700	-8191	255	
1705.621	1	1	0	0	0.19859	0.2165	0.26815	0.35902	0.16852	0.15608	0.27132	0.16357	0.27978	0.062677	0.25784	0.12114	0.17984	0.023299	0.1375	0.1822	-2.4125	-2.1792	-2.5438	-2.7375	-2.3396	-2.6583	-2.5542	-2.45	-2.6	-2.1417	-2.7021	-2.6479	-2.1708	-2.7271	-2.5083	-2.3458	252.828	-0.243	64.962	-61.921	120.492	121.067	154.347	188.573	33.379	-82.462	59.016	215.408	-90.143	-54.580	48.361	203.168	0.00027817	0.00057609	8.291e-05	1391.1	2.7496e-06	6.6791e-06	1383.9	375.72	9.1976e-07	7.8501e-06	428.87	141.37	119.25	42.481	5.2233e-06	52.949	0.0006286	0.00063785	0.00018076	1407.2	6.9923e-06	7.2029e-06	1404	382.26	7.0993e-06	7.0653e-06	434.83	145.06	122.32	43.713	7.1296e-06	54.245	-68.438	-47.320	-66.665	-92.459	71.300	88.919	-92.633	-87.489	240.726	24.421	-88.351	-84.002	-83.389	-79.009	97.463	-79.704	-8191	255	
1705.717	1	1	0	0	0.20599	0.058372	0.077223	0.14898	0.17184	0.17534	0.28053	0.29249	0.068325	0.0087767	0.25627	0.28596	0.20275	0.14449	0.12395	0.18044	-2.2917	-2.4021	-2.3792	-2.8396	-2.3833	-2.5125	-2.75	-2.5208	-2.8917	-2.2229	-2.6646	-2.7687	-2.4708	-2.5687	-2.4354	-2.4938	12.825	134.355	-28.825	249.338	157.544	143.437	-100.878	-80.905	68.759	-5.223	-34.193	-78.085	221.934	230.454	120.457	140.912	0.00027847	0.0010818	0.00016591	1393.1	4.7957e-06	3.0081e-06	1394.3	375.48	2.4739e-06	9.997e-07	429.1	142.03	119.33	42.527	2.1216e-06	52.883	0.00063155	0.0006497	0.00018094	1411.4	6.9577e-06	7.1197e-06	1407.6	382.17	7.0163e-06	7.0654e-06	435.89	145.33	122.36	43.742	7.0413e-06	54.243	-88.916	-61.376	-62.444	-92.366	-5.332	5.524	-92.485	-87.582	-19.772	58.346	-88.493	-83.723	-83.713	-79.059	12.967	-79.540	-8191	255	
1705.838	1	1	0	0	0.13388	0.12728	0.046047	0.3604	0.20494	0.13608	0.24672	0.20874	0.29975	0.18662	0.14283	0.15627	0.31407	0.044519	0.15925	0.29811	-2.2062	-2.2687	-2.2958	-2.8646	-2.4062	-2.6937	-2.5979	-2.3312	-2.7313	-2.4313	-2.5646	-2.7771	-2.3688	-2.6375	-2.6375	-2.4146	-53.548	234.279	34.593	232.113	112.762	21.176	243.715	201.718	62.967	100.852	221.037	216.491	248.872	251.411	-75.407	-84.484	0.00019461	0.00072643	9.1646e-05	1397.4	7.3896e-06	1.324e-05	1394.6	375.43	2.4039e-06	2.9335e-06	427.29	142.12	119.3	42.658	4.6727e-06	52.791	0.00062118	0.0006412	0.00018025	1409.8	7.0063e-06	7.072e-06	1408.2	382.63	7.0983e-06	7.1189e-06	434.35	145.3	122.26	43.735	7.2057e-06	54.291	-65.890	9.907	-8.293	-92.511	43.334	30.092	-92.467	-87.832	18.040	131.787	-88.186	-83.827	-83.460	-78.900	101.820	-79.626	-8191	255	
1705.934	1	1	0	0	0.18805	0.19719	0.13507	0.38909	0.19195	0.024232	0.13479	0.47583	0.13807	0.075369	0.092371	0.23976	0.15402	0.29949	0.2087	0.28777	-2.1875	-2.5021	-2.2812	-2.8604	-2.2917	-2.5854	-2.9125	-2.4271	-2.6146	-2.5958	-2.3438	-2.9792	-2.4542	-2.4667	-2.6562	-2.3625	-100.160	225.116	-26.613	227.601	49.019	27.758	216.818	223.867	188.774	124.555	-101.845	142.847	163.716	220.176	141.986	206.237	0.00028756	0.00072458	0.00020708	1397.2	2.3205e-06	4.0629e-06	1391.1	376.1	2.1251e-06	4.8278e-06	429.61	141.47	119.67	42.617	1.6813e-06	53.027	0.00064263	0.0006655	0.00018499	1414.8	7.2783e-06	7.3162e-06	1410.9	383.09	7.3611e-06	7.4299e-06	437.1	145.55	122.84	43.867	7.3765e-06	54.475	-56.502	-11.038	-15.733	-92.495	-33.858	114.790	-92.376	-87.693	-18.242	27.309	-88.250	-83.521	-83.314	-78.906	90.573	-79.452	-8191	255	
1706.029	1	1	0	0	0.16219	0.12565	0.12149	0.17083	0.15713	0.1515	0.34374	0.22696	0.19268	0.098659	0.26863	0.31377	0.057249	0.18981	0.19376	0.071825	-2.1417	-2.3896	-2.0792	-2.9292	-2.3333	-2.2042	-2.7771	-2.5979	-2.475	-2.4562	-2.35	-2.6792	-2.3604	-2.4729	-2.6937	-2.2792	217.107	52.996	59.351	226.512	-24.635	168.815	220.539	198.488	125.508	-5.650	203.036	193.131	195.432	-98.158	-45.951	112.111	0.00025873	0.00046598	0.00020105	1406.1	6.6605e-06	6.7592e-06	1403.6	379.01	4.3801e-06	6.401e-06	429.83	142.22	119.91	42.745	4.2104e-06	53.058	0.00065405	0.00066392	0.00018589	1421.1	7.2892e-06	7.185e-06	1417.8	384.7	7.2019e-06	7.1965e-06	436.98	145.72	123.17	43.97	7.184e-06	54.542	-68.894	-57.878	-2.514	-92.420	64.696	63.799	-92.252	-87.983	41.853	62.345	-88.367	-83.466	-83.367	-78.809	119.383	-79.457	-8191	255	
1706.125	1	1	0	0	0.13073	0.043336	0.19946	0.17331	0.21144	0.08387	0.19495	0.094261	0.22474	0.19433	0.15081	0.11419	0.070513	0.095496	0.11015	0.24779	-2.2354	-2.4375	-2.175	-3.0125	-2.4833	-2.3688	-2.8271	-2.4875	-2.6312	-2.6021	-2.3854	-2.8104	-2.4104	-2.3146	-2.4813	-2.4208	-44.130	241.615	175.475	207.182	86.137	227.489	176.860	165.427	53.060	121.161	149.648	183.948	114.992	251.691	138.338	173.444	0.00029236	0.00066233	4.0144e-05	1402.1	4.0005e-06	2.4188e-06	1397.1	378.76	4.4986e-06	9.6155e-06	432.09	141.9	120.43	42.765	6.871e-06	53.263	0.00063525	0.00064716	0.00018158	1421	7.0683e-06	7.1491e-06	1416.9	385.17	7.2555e-06	7.2419e-06	437.82	145.87	123.3	43.943	7.1687e-06	54.545	-72.659	-20.993	-21.165	-92.460	70.995	63.490	-92.451	-87.824	134.898	33.478	-88.418	-83.826	-83.346	-78.786	47.986	-79.458	-8191	255	
1706.221	1	1	0	0	0.17969	0.052911	0.23515	0.23806	0.22418	0.16446	0.34273	0.16288	0.12614	0.14845	0.04998	0.080521	0.15512	0.28961	0.16349	0.072245	-1.9188	-2.6813	-2.2542	-3.0312	-2.2729	-2.3542	-2.8396	-2.4188	-2.3479	-2.8042	-2.3479	-2.8583	-2.6333	-2.4188	-2.7792	-2.4708	213.102	180.491	-100.448	251.060	128.799	-50.608	228.965	-89.497	248.528	111.905	93.953	144.790	227.171	172.771	100.860	228.800	0.00022884	0.00036906	8.6846e-05	1410.2	4.7846e-06	5.1135e-06	1405.2	376.97	2.7189e-06	9.155e-06	431.01	142.89	119.63	42.744	8.6024e-06	52.997	0.00064049	0.00065316	0.00018438	1424.5	7.2288e-06	7.3129e-06	1421.7	384.41	7.2585e-06	7.278e-06	438.15	146.17	123.15	44.017	7.2973e-06	54.55	-56.341	35.806	-70.020	-92.662	-78.779	37.958	-92.306	-87.753	53.922	42.975	-88.428	-83.588	-83.304	-79.045	44.168	-79.498	-8191	255	
1706.317	1	1	0	0	0.16955	0.34646	0.046201	0.26631	0.18317	0.09311	0.13407	0.36511	0.053001	0.14018	0.34202	0.24136	0.05458	0.15435	0.15487	0.24992	-2.0938	-2.7042	-2.3312	-2.7021	-2.5438	-2.2833	-2.725	-2.6625	-2.2833	-2.7271	-2.375	-2.6458	-2.7313	-2.3729	-2.6292	-2.5125	70.082	177.752	122.656	210.968	94.296	243.834	167.013	191.859	-99.684	51.399	157.050	126.961	110.305	-104.016	106.422	229.048	0.00022675	0.00057069	0.00022503	1411.4	6.0534e-06	2.6052e-06	1408	378.68	3.2506e-06	3.7856e-06	430.99	142.47	120.69	42.62	8.2291e-06	53.239	0.00064837	0.00066168	0.00018549	1425.7	7.3021e-06	7.3159e-06	1421.6	385.12	7.2453e-06	7.3054e-06	439.43	146.09	123.51	43.991	7.2377e-06	54.638	-78.718	-42.384	-21.052	-92.283	38.806	24.664	-92.313	-87.708	-10.909	56.975	-88.471	-83.629	-83.253	-78.841	100.499	-79.444	-8191	255	
1706.413	1	1	0	0	0.14907	0.18667	0.056845	0.24396	0.095399	0.22076	0.17015	0.075313	0.34766	0.13873	0.21734	0.07653	0.21369	0.31938	0.042908	0.38547	-1.9979	-2.75	-2.1583	-2.7313	-2.4833	-2.1937	-2.8792	-2.6979	-2.2729	-2.8271	-2.2896	-2.4521	-2.6188	-2.4354	-2.6979	-2.6583	212.701	-50.698	175.950	214.025	62.563	182.282	205.840	117.839	-54.016	99.960	-79.193	120.298	-61.422	236.990	196.010	194.752	0.00028836	0.00045943	0.00015443	1405.9	3.814e-06	6.8914e-06	1404.6	377.81	7.0787e-06	7.9276e-06	430.57	142.09	120.83	42.759	2.4579e-06	53.112	0.00064613	0.00065828	0.00018384	1424.7	7.2147e-06	7.2281e-06	1424.3	385.21	7.2442e-06	7.3142e-06	438.56	146.09	123.59	43.986	7.3668e-06	54.631	-77.188	-2.461	15.410	-92.590	-15.671	47.965	-92.541	-87.725	46.636	8.690	-88.326	-83.514	-83.336	-78.741	26.097	-79.895	-8191	255	
1706.509	1	1	0	0	0.17649	0.21853	0.17656	0.15655	0.23773	0.22861	0.18096	0.30519	0.26206	0.087605	0.22613	0.12796	0.21563	0.19863	0.085459	0.28368	-1.7271	-2.8125	-2.2292	-2.8104	-2.7333	-2.0458	-2.825	-2.6771	-2.1146	-2.8	-2.5875	-2.5146	-2.6562	-2.4062	-2.6875	-2.7542	-60.919	113.134	207.693	226.490	64.577	-49.906	-86.433	190.285	122.019	-44.067	-92.321	-101.570	198.064	169.991	-67.980	170.178	0.00029681	0.0007684	4.0436e-05	1409.4	6.9984e-06	5.0504e-06	1406.7	378.63	4.7361e-06	8.163e-06	431.54	142.38	120.52	42.84	8.7484e-06	52.91	0.00065181	0.00067353	0.0001867	1427.9	7.3321e-06	7.3403e-06	1423.9	385.12	7.2509e-06	7.2539e-06	439.11	146.22	123.52	44.083	7.3279e-06	54.599	-76.336	-45.998	68.931	-92.469	61.669	57.043	-92.334	-87.822	35.909	72.125	-88.280	-83.703	-83.349	-78.880	28.420	-79.735	-8191	255	
1706.605	1	1	0	0	0.15457	0.1361	0.19966	0.11572	0.11631	0.15742	0.22571	0.1592	0.071959	0.19824	0.40671	0.24555	0.12581	0.07456	0.19157	0.31336	-1.8208	-2.7917	-2.4042	-2.6417	-2.6542	-2.2	-2.8187	-2.65	-2.2104	-2.7271	-2.4771	-2.4958	-2.7542	-2.3875	-2.5292	-2.7792	95.119	-91.798	221.860	239.258	79.035	31.253	215.546	190.165	-79.834	-92.939	167.901	-102.064	-74.310	252.551	-34.118	175.066	0.00028096	0.00068266	0.00013028	1407.5	1.4321e-06	3.7609e-06	1404.3	377.93	2.0557e-06	5.6029e-06	429.87	142.62	120.61	42.905	6.0772e-06	53.085	0.00063778	0.00065855	0.00018492	1427.4	7.139e-06	7.2221e-06	1423.5	384.99	7.2661e-06	7.1894e-06	438.38	146.18	123.6	44.023	7.3261e-06	54.68	-78.420	-71.440	-16.562	-92.576	156.675	103.426	-92.458	-87.760	124.537	47.856	-88.226	-83.624	-83.466	-79.068	30.412	-79.511	-8191	255	
1706.726	1	1	0	0	0.23795	0.218	0.15892	0.4419	0.043771	0.12766	0.35242	0.12614	0.04193	0.086749	0.080452	0.086898	0.097708	0.27453	0.038593	0.254	-1.6854	-2.55	-2.4625	-2.3937	-2.6625	-2.325	-2.6437	-2.8521	-2.1437	-2.4813	-2.5271	-2.2604	-2.6917	-2.4271	-2.4167	-2.6646	129.869	125.555	100.593	224.350	-67.216	87.323	195.609	226.691	48.852	64.908	103.088	230.065	179.481	206.756	26.607	138.405	0.00020513	0.00028489	6.2809e-05	1411.4	7.559e-06	5.1657e-06	1406.2	379.18	1.7343e-06	5.6118e-06	431.99	142.75	120.23	42.94	5.7176e-06	53.036	0.00064122	0.00065469	0.00018615	1426.9	7.2194e-06	7.2663e-06	1424.7	385.86	7.1748e-06	7.3085e-06	439.27	146.28	123.53	44.135	7.1967e-06	54.575	-99.774	-50.865	-15.078	-92.474	16.418	-12.427	-92.630	-87.692	-102.556	110.216	-88.617	-83.865	-83.430	-79.006	46.786	-79.589	-8191	255	
1706.822	1	1	0	0	0.27478	0.074025	0.11301	0.099323	0.20265	0.15529	0.28015	0.32908	0.13097	0.25072	0.11102	0.19434	0.27983	0.339	0.19739	0.09719	-1.6521	-2.6083	-2.4938	-2.4	-2.7375	-2.3896	-2.5938	-2.8208	-2.0604	-2.3896	-2.8021	-2.2875	-2.7083	-2.5	-2.3937	-2.8292	10.987	23.073	124.540	-63.352	-37.646	217.910	-58.616	143.132	158.806	245.304	144.241	248.651	175.920	-53.029	125.645	-37.638	0.00026178	0.00072552	0.00014313	1418.2	4.574e-06	5.9497e-06	1403	378.43	4.3206e-06	1.9508e-06	433.67	142.58	120.55	42.964	4.2831e-06	53.121	0.00064267	0.00066138	0.00018366	1430	7.2545e-06	7.18e-06	1422.6	385.07	7.0964e-06	7.3009e-06	439.43	146.16	123.48	44.11	7.352e-06	54.671	-89.566	-17.517	-17.392	-92.448	9.073	42.741	-92.223	-87.582	90.147	37.920	-88.481	-83.664	-83.516	-79.086	19.740	-79.542	-8191	255	
1706.918	1	1	0	0	0.083048	0.056531	0.15738	0.48434	0.10601	0.13676	0.23286	0.28944	0.27869	0.20753	0.096402	0.18288	0.098405	0.35489	0.14883	0.18743	-1.5979	-2.4437	-2.4208	-2.35	-2.6937	-2.2979	-2.5833	-2.9562	-2.3042	-2.4292	-2.8479	-2.3312	-2.6437	-2.6063	-2.2375	-2.6479	-62.014	61.124	166.902	196.560	-51.329	36.722	168.636	-87.053	-102.480	-57.467	213.452	241.558	-94.196	-105.467	156.188	243.955	0.00022911	0.00061405	8.7426e-05	1412.5	3.2339e-06	5.2588e-06	1413.9	381.23	1.8072e-06	6.547e-06	432.2	142.92	120.94	43.088	1.1268e-05	53.472	0.00064899	0.00066673	0.0001869	1430.4	7.4675e-06	7.5179e-06	1427.9	387.3	7.603e-06	7.6791e-06	441.83	147.08	124.44	44.392	7.9472e-06	55.075	-65.066	-41.622	-0.308	-92.267	39.304	89.950	-92.531	-87.951	30.978	150.706	-88.233	-83.732	-83.519	-78.957	13.627	-79.779	-8191	255	
1707.013	1	1	0	0	0.16146	0.26816	0.039648	0.38417	0.1077	0.036281	0.43292	0.30229	0.16675	0.078898	0.21365	0.15187	0.20371	0.37938	0.14751	0.039622	-1.8125	-2.5896	-2.6083	-2.4375	-2.6146	-2.5354	-2.5938	-2.825	-2.4125	-2.3896	-2.9562	-2.3063	-2.6	-2.6042	-2.1604	-2.9896	-80.865	76.098	156.820	226.240	80.955	-31.626	193.984	192.200	87.537	4.902	217.635	219.563	-64.392	-91.380	-71.636	128.292	0.00033014	0.00065095	3.5369e-05	1433.7	6.1342e-06	3.0995e-06	1430.5	382.91	5.3182e-06	5.8134e-06	437.93	143.72	121.92	43.525	7.0217e-06	53.754	0.00070015	0.00072182	0.00019927	1449.3	7.7146e-06	7.7043e-06	1447	389.87	7.5451e-06	7.6093e-06	445.36	148.1	125.31	44.789	7.4526e-06	55.454	-72.625	-31.024	20.463	-92.436	25.616	4.027	-92.524	-87.782	26.865	13.078	-88.391	-83.779	-83.432	-78.983	89.779	-79.627	-8191	255	
1707.109	1	1	0	0	0.040092	0.1665	0.21089	0.08674	0.27504	0.41823	0.42959	0.31453	0.014948	0.08254	0.085547	0.090381	0.12121	0.14214	0.22364	0.18976	-1.8687	-2.4083	-2.6937	-2.4417	-2.7458	-2.5771	-2.4938	-2.9333	-2.4896	-2.3563	-2.775	-2.3604	-2.55	-2.7417	-2.3083	-2.7917	37.356	49.094	44.762	219.129	81.996	209.498	155.976	239.940	124.226	-71.386	-40.894	142.322	236.919	217.815	11.387	141.623	0.00027621	0.0011447	8.324e-05	1441.1	2.7479e-06	3.3431e-06	1434.5	384.9	3.5416e-06	6.5752e-06	441.88	145.49	122.71	43.625	4.3163e-06	54.458	0.00065886	0.00067901	0.00018645	1458.3	7.3617e-06	7.377e-06	1452.5	391.94	7.2381e-06	7.3431e-06	449.08	149.31	126.18	45.053	7.3603e-06	55.804	-60.739	-7.191	18.654	-92.446	43.341	38.565	-92.512	-88.066	71.842	111.841	-88.460	-83.797	-83.493	-79.161	47.543	-79.992	-8191	255	
1707.207	1	1	0	0	0.074821	0.012259	0.19365	0.10333	0.038293	0.021567	0.48906	0.22291	0.11951	0.053228	0.1526	0.23909	0.14486	0.23205	0.04812	0.175	-2.0167	-2.2958	-2.7646	-2.6542	-2.5792	-2.6583	-2.5708	-2.9688	-2.45	-2.3833	-2.9708	-2.4313	-2.45	-2.7062	-2.0604	-2.7146	-81.082	-8.700	90.133	182.799	38.026	244.591	214.809	157.293	202.378	-105.356	120.694	204.502	-103.800	-60.673	-13.903	238.417	0.00017864	0.00036569	0.00011661	1443.7	8.1922e-07	4.2009e-06	1447.5	388.9	4.1169e-06	5.8056e-06	444.41	146.62	123.41	43.908	1.3023e-05	54.207	0.00066518	0.00068363	0.00019064	1464.6	7.4499e-06	7.5511e-06	1464.1	395.28	7.6462e-06	7.7441e-06	451.26	150.19	126.85	45.332	7.861e-06	55.973	-56.074	27.932	-38.445	-92.493	113.522	-9.415	-92.430	-88.135	43.290	47.686	-88.301	-83.664	-83.731	-79.002	106.905	-79.692	-8191	255	
1707.326	1	1	0	0	0.24426	0.16659	0.17736	0.16866	0.12534	0.2479	0.26737	0.20591	0.26588	0.041344	0.33088	0.25738	0.16362	0.2187	0.11856	0.18804	-2.1271	-2.2479	-2.6063	-2.5146	-2.4021	-2.7083	-2.4792	-2.725	-2.5229	-2.4458	-2.825	-2.575	-2.5458	-2.7917	-2.2271	-2.7188	-73.533	-2.987	81.605	210.356	110.288	146.473	163.840	221.965	238.995	-27.604	233.300	183.325	-88.760	230.469	75.543	169.988	0.00026479	0.00081177	5.1917e-05	1454.8	6.5043e-06	4.1352e-06	1457.6	391.71	1.676e-06	6.7286e-06	442.08	146.34	123.95	44.204	4.7338e-06	54.559	0.00069845	0.00072424	0.000202	1474.6	7.8291e-06	7.875e-06	1474.5	397.99	7.7014e-06	7.793e-06	452.65	150.62	127.37	45.534	7.7199e-06	56.11	-61.984	-51.379	-42.285	-92.569	72.066	41.779	-92.410	-87.786	-18.577	56.656	-88.450	-83.822	-83.449	-79.175	45.564	-79.674	-8191	255	
1707.422	1	1	0	0	0.21036	0.020941	0.026306	0.33506	0.2492	0.055246	0.48231	0.1368	0.23172	0.10901	0.2432	0.30751	0.20047	0.18533	0.28055	0.12883	-2.1542	-2.2125	-2.7208	-2.5229	-2.4354	-2.8083	-2.4458	-2.6104	-2.6875	-2.3187	-2.7917	-2.4417	-2.5563	-2.9104	-2.2021	-2.5958	-22.682	-96.055	-97.218	227.133	-32.028	22.244	195.873	200.965	171.503	-92.665	142.581	251.568	212.937	216.601	123.806	227.639	0.00016122	0.00034992	8.1385e-05	1461.1	4.0716e-06	3.2162e-06	1455.6	390.89	2.4877e-06	4.6316e-06	445.7	146.74	124.38	44.261	7.0404e-06	54.621	0.00067653	0.00069301	0.00019628	1478.2	7.5569e-06	7.5964e-06	1474	397.81	7.5683e-06	7.5849e-06	453.82	150.56	127.41	45.447	7.5358e-06	56.242	-86.264	-26.658	-14.071	-92.694	-13.074	33.182	-92.608	-87.995	57.272	1.962	-88.595	-83.879	-83.491	-79.078	2.201	-79.737	-8191	255	
1707.518	1	1	0	0	0.1416	0.19848	0.15963	0.31206	0.19993	0.18206	0.14916	0.26576	0.1222	0.013266	0.31103	0.044616	0.11788	0.13649	0.12473	0.10895	-2.2396	-2.3	-2.7333	-2.7104	-2.1521	-2.7583	-2.5604	-2.8854	-2.525	-2.1833	-2.775	-2.5417	-2.5312	-2.8021	-2.3375	-2.5062	232.736	-13.181	61.823	214.306	5.268	-88.244	212.501	134.917	155.525	253.362	-83.896	-62.091	-103.834	-48.665	-95.045	-67.837	0.00033919	0.00046563	0.00025313	1462.7	6.936e-06	6.3933e-06	1456.1	390.51	1.6812e-06	4.7116e-06	445.7	146.99	124.38	44.389	6.8114e-06	54.743	0.00065498	0.00066701	0.00018792	1477.1	7.3447e-06	7.3249e-06	1474.2	398.01	7.2455e-06	7.2894e-06	452.63	150.8	127.38	45.557	7.3557e-06	56.224	-80.048	-31.496	-23.149	-92.611	80.921	5.420	-92.683	-87.843	-15.207	106.716	-88.312	-84.108	-83.491	-79.135	77.970	-79.860	-8191	255	
1707.614	1	1	0	0	0.069362	0.20346	0.16627	0.19067	0.064449	0.1337	0.39487	0.22765	0.278	0.18684	0.070684	0.13065	0.18371	0.10963	0.044087	0.13742	-2.3375	-2.1958	-2.5792	-2.7229	-2.1	-2.6271	-2.7188	-2.6521	-2.6562	-2.2875	-2.5271	-2.8104	-2.3792	-2.8979	-2.425	-2.5271	198.607	-65.000	-59.150	121.948	-67.890	42.412	6.259	-76.647	22.880	-12.377	-57.935	218.483	209.311	165.166	-25.196	144.147	0.00030567	0.00074718	0.0001955	1461.5	1.478e-06	5.2408e-06	1449.8	390.67	2.2913e-06	5.51e-06	445.59	147.19	123.62	44.091	3.2179e-06	54.465	0.00065782	0.00066615	0.00018649	1478.8	7.2786e-06	7.2879e-06	1472.3	397.99	7.1976e-06	7.2201e-06	453.96	150.54	127.08	45.432	7.1858e-06	55.967	-76.075	-17.928	-92.895	-92.651	50.145	42.802	-92.661	-87.987	119.997	49.736	-88.625	-83.725	-83.442	-79.037	109.377	-79.808	-8191	255	
1707.710	1	1	0	0	0.12045	0.14559	0.134	0.051385	0.179	0.076673	0.20508	0.10603	0.2532	0.11936	0.26122	0.2463	0.13043	0.20242	0.042502	0.36718	-2.2292	-2.0938	-2.6104	-2.9146	-2.2708	-2.6813	-2.6979	-2.5979	-2.6917	-2.2583	-2.5521	-2.7208	-2.3646	-2.8958	-2.6104	-2.4083	-10.399	233.167	69.014	48.915	-84.562	-52.542	222.491	164.242	178.287	115.486	244.305	-105.159	166.858	183.449	3.039	193.986	0.00031763	0.0001057	0.0002247	1460.2	7.249e-06	2.3297e-06	1457	391.88	5.31e-06	5.2465e-06	447.15	146.83	124.29	44.263	3.4231e-06	54.564	0.00064064	0.00064971	0.00018097	1477.5	7.1352e-06	7.1865e-06	1472.2	397.99	7.1247e-06	7.2127e-06	453.97	150.56	127.3	45.479	7.2128e-06	56.127	-80.966	-89.878	-21.029	-92.566	55.076	46.386	-92.311	-87.903	30.392	138.480	-88.487	-83.830	-83.490	-79.073	30.518	-79.805	-8191	255	
1707.806	1	1	0	0	0.21243	0.14756	0.12891	0.13274	0.18073	0.14802	0.15106	0.14143	0.094493	0.11814	0.29638	0.108	0.25317	0.098198	0.21044	0.086617	-2.4542	-2.5062	-2.4562	-2.9625	-2.1708	-2.7125	-2.8417	-2.4646	-2.8979	-2.35	-2.7146	-2.8312	-2.2521	-2.6083	-2.5021	-2.5646	222.901	168.634	2.032	-72.151	172.534	-64.613	173.932	181.298	37.956	-2.860	243.544	184.672	118.714	39.770	241.467	141.638	0.00025133	0.00062974	0.00020429	1462	5.9804e-06	4.8553e-06	1456.5	390.39	2.5798e-06	1.6808e-06	446.55	147.1	123.86	44.412	8.5633e-06	54.673	0.00063845	0.00065231	0.00018294	1478.7	7.1519e-06	7.1717e-06	1470.9	397.88	7.0078e-06	7.058e-06	453.73	150.54	127.04	45.556	7.0539e-06	56.128	-75.916	-31.296	15.225	-92.776	61.462	52.412	-92.426	-87.820	68.250	-26.564	-88.136	-83.983	-83.413	-78.937	14.407	-79.799	-8191	255	
1707.927	1	1	0	0	0.23339	0.19189	0.16174	0.27816	0.18718	0.26884	0.33365	0.27229	0.22213	0.23246	0.23193	0.20117	0.27673	0.16754	0.29392	0.2615	-2.2521	-2.2271	-2.4479	-2.7125	-2.2604	-2.5979	-2.6813	-2.4604	-2.8417	-2.4417	-2.4313	-2.7667	-2.25	-2.7542	-2.6021	-2.3729	163.085	-76.007	-83.535	233.518	38.829	-86.428	175.736	233.002	-91.066	95.246	201.882	-39.601	241.334	221.639	85.852	171.036	0.00028879	0.00047907	0.00012931	1462.4	2.5388e-06	3.2392e-06	1454	391.12	2.1835e-06	3.4661e-06	447.24	147.09	123.62	44.305	4.3827e-06	54.632	0.00062276	0.00064299	0.00017861	1479.1	6.9348e-06	7.107e-06	1472.5	398.33	7.069e-06	7.0438e-06	453.95	150.84	127.24	45.583	7.0687e-06	56.151	-75.590	-42.248	-17.176	-92.600	81.594	-0.328	-92.488	-87.827	-72.726	79.165	-88.222	-83.729	-83.440	-79.000	119.350	-79.679	-8191	255	
1708.022	1	1	0	0	0.081689	0.17864	0.064816	0.19667	0.057009	0.14997	0.12867	0.3877	0.044777	0.14761	0.24329	0.23544	0.010956	0.23798	0.067639	0.463	-2.2062	-2.4354	-2.2833	-3.0438	-2.3542	-2.7583	-2.6708	-2.4854	-2.5354	-2.5354	-2.2958	-2.8479	-2.4771	-2.5896	-2.6583	-2.3604	251.935	252.121	-7.719	216.178	-88.347	90.185	233.431	131.224	-22.033	198.131	240.406	221.661	170.069	-41.459	-22.012	195.963	0.00034706	0.00050278	8.5469e-05	1462.7	5.2828e-06	3.1336e-06	1456.4	392.86	2.9884e-06	8.1489e-06	447.53	147.03	124.08	44.467	3.3929e-06	54.864	0.00063135	0.00064104	0.00018094	1478.6	7.0152e-06	7.1197e-06	1474.8	399.04	7.1125e-06	7.0954e-06	454.16	150.83	127.56	45.655	7.0939e-06	56.267	-64.504	-26.954	-60.442	-92.687	52.727	-32.675	-92.503	-87.999	37.540	66.911	-88.572	-83.807	-83.428	-79.071	0.234	-79.947	-8191	255	
1708.093	1	1	0	0	0.23145	0.21817	0.26683	0.1305	0.11385	0.12526	0.31898	0.18297	0.22288	0.18474	0.16528	0.092711	0.2325	0.32527	0.086987	0.059453	-2.1833	-2.4729	-2.0167	-3.0687	-2.2521	-2.4729	-2.9833	-2.4021	-2.6729	-2.5	-2.3146	-2.7417	-2.5333	-2.4521	-2.7042	-2.3854	94.311	-5.843	142.536	-99.967	184.035	171.348	242.723	135.338	-72.252	203.055	85.881	219.396	-95.725	-84.837	225.416	188.173	0.00040091	0.00054295	0.00012703	1466.3	7.2638e-06	3.1136e-06	1463.1	393.65	2.2162e-06	2.6321e-06	448.16	147.59	124.87	44.227	5.662e-06	54.904	0.0006294	0.00064572	0.00018054	1482.7	7.0855e-06	7.1246e-06	1479.4	400.14	7.0741e-06	7.0908e-06	455.36	151.56	127.83	45.619	7.0682e-06	56.327	-66.129	1.916	15.800	-92.431	38.531	101.806	-92.700	-87.820	54.478	70.277	-88.762	-83.694	-83.462	-79.073	9.860	-79.850	-8191	255	
1708.189	1	1	0	0	0.30002	0.20207	0.33879	0.44547	0.25156	0.10307	0.3013	0.40538	0.10793	0.1763	0.22926	0.2339	0.092505	0.24383	0.070013	0.098929	-2.225	-2.4833	-2.325	-2.7583	-2.4	-2.2958	-3.0771	-2.3812	-2.5542	-2.7354	-2.4458	-2.625	-2.4979	-2.4375	-2.7604	-2.5229	205.081	80.264	77.328	223.575	246.258	33.306	181.952	183.667	-96.543	238.302	182.897	-88.122	228.759	226.212	52.061	156.109	0.00033157	0.00058106	0.0001699	1464.1	6.2733e-06	4.8734e-06	1467.1	394.79	5.4718e-06	9.498e-06	450.16	147.52	125.1	44.349	7.5019e-06	54.899	0.00063128	0.00064533	0.00017828	1482.3	6.9787e-06	7.1008e-06	1480.3	400.86	7.0884e-06	7.0829e-06	456.54	151.13	128.05	45.693	6.9923e-06	56.407	-84.930	-24.373	-37.261	-92.397	90.003	41.966	-92.655	-88.084	57.552	66.263	-88.406	-83.828	-83.705	-79.198	-10.202	-79.801	-8191	255	
1708.287	1	1	0	0	0.20753	0.21357	0.2919	0.24173	0.13856	0.21776	0.19217	0.16683	0.18801	0.23615	0.13526	0.2704	0.10703	0.17284	0.33824	0.34622	-1.9479	-2.4792	-1.9667	-2.7792	-2.3375	-2.2229	-2.9479	-2.6167	-2.3875	-2.6188	-2.4292	-2.6417	-2.6021	-2.5021	-2.6667	-2.6146	212.183	68.861	84.311	182.944	231.484	238.119	-70.514	188.744	158.368	-91.891	107.827	221.945	196.235	235.466	241.363	65.983	0.00030463	0.00051252	0.00013798	1470.7	7.1854e-06	1.4586e-07	1461.7	394.54	4.7963e-06	4.0778e-06	447.44	147.55	124.89	44.524	5.9931e-06	55.041	0.00062485	0.00064266	0.00017781	1485.2	6.9867e-06	7.0884e-06	1480.2	400.99	7.0914e-06	7.1142e-06	455.58	151.67	127.93	45.77	7.1193e-06	56.387	-79.505	35.405	20.057	-92.625	4.305	-36.410	-92.617	-87.967	47.830	96.069	-88.403	-83.929	-83.477	-78.990	70.132	-79.504	-8191	255	
1708.406	1	1	0	0	0.33367	0.1244	0.23011	0.3918	0.13523	0.11501	0.21504	0.14036	0.030838	0.12623	0.30814	0.49953	0.15072	0.16412	0.082278	0.087629	-1.9104	-2.6396	-2.0708	-2.875	-2.4333	-2.2167	-3.0979	-2.4125	-2.3625	-2.7125	-2.4625	-2.725	-2.6042	-2.5333	-2.7479	-2.4917	235.190	57.547	122.620	227.695	199.148	147.086	135.760	185.014	-25.355	-8.222	-104.412	191.429	193.573	241.559	151.176	207.787	0.00025953	0.00023585	0.00018483	1469.6	5.7151e-06	8.0542e-06	1466.1	393.07	1.6014e-06	8.7135e-06	447.62	148.41	124.69	44.495	5.9391e-06	54.928	0.00063582	0.00064148	0.00017987	1484.8	7.0298e-06	7.0521e-06	1480.9	401.03	6.9861e-06	7.1488e-06	456.03	151.67	128.05	45.77	7.2204e-06	56.39	-67.480	-34.054	-11.845	-92.742	-2.673	54.691	-92.545	-87.880	194.583	65.911	-88.594	-83.762	-83.564	-78.976	47.932	-79.728	-8191	255	
1708.502	1	1	0	0	0.23323	0.2702	0.16726	0.2494	0.16781	0.21224	0.1712	0.48243	0.21891	0.16331	0.31758	0.35389	0.20274	0.079368	0.081244	0.081925	-2.0687	-2.6667	-2.1417	-2.6729	-2.5771	-2.3083	-2.7438	-2.5458	-2.2104	-2.7292	-2.4146	-2.5958	-2.7958	-2.3542	-2.6333	-2.7	191.493	156.583	-32.723	-82.169	131.617	-16.681	226.772	194.085	211.223	179.304	244.088	137.476	-67.520	135.597	222.611	184.082	0.00029401	0.0002633	0.00019843	1471.3	3.4084e-06	4.5685e-06	1463.1	392.59	8.5594e-06	7.5695e-06	449.09	148.03	125.25	44.532	2.3004e-06	54.872	0.00063946	0.00064587	0.00018104	1487.6	7.2049e-06	7.1201e-06	1481.7	400.79	7.2251e-06	7.2891e-06	455.56	151.65	128.22	45.826	7.2119e-06	56.354	-71.233	-13.795	32.003	-92.484	-54.468	-30.186	-92.534	-88.037	42.005	65.890	-88.634	-83.640	-83.565	-78.992	7.540	-79.746	-8191	255	
1708.598	1	1	0	0	0.18146	0.19938	0.035275	0.38078	0.17628	0.20739	0.13805	0.18838	0.044453	0.034278	0.28	0.12961	0.15794	0.11146	0.13539	0.13874	-1.6812	-2.5979	-2.3979	-2.4583	-2.6875	-2.0375	-2.8187	-2.7021	-2.2083	-2.8354	-2.5021	-2.5375	-2.9625	-2.3875	-2.5604	-2.6188	67.797	185.626	-103.742	211.487	200.192	-22.918	130.404	196.655	9.614	249.617	242.089	-69.809	219.190	178.771	10.388	221.112	0.00024212	0.00054094	9.1412e-05	1466.3	5.8106e-06	2.9416e-06	1465.7	395.68	7.7299e-06	5.7678e-06	448.99	148.73	124.92	44.712	7.8395e-06	55.298	0.00064391	0.00065524	0.00018127	1484.8	7.0927e-06	7.1185e-06	1479.7	401.92	7.0347e-06	7.1256e-06	456.56	151.95	128.08	45.839	7.0903e-06	56.581	-89.840	-28.809	-90.767	-92.553	102.485	52.817	-92.512	-88.018	69.800	13.462	-88.316	-83.989	-83.796	-78.963	46.266	-79.824	-8191	255	
1708.719	1	1	0	0	0.05912	0.075963	0.063486	0.17011	0.21202	0.11017	0.2147	0.33793	0.19233	0.20909	0.11445	0.30439	0.31806	0.15559	0.10429	0.19771	-1.8333	-2.6729	-2.2771	-2.6583	-2.5771	-2.4646	-2.975	-2.8	-2.3063	-2.8688	-2.7042	-2.2687	-2.8563	-2.4208	-2.5708	-2.5979	128.184	218.108	-10.984	229.406	-74.114	228.010	195.008	182.674	195.753	179.540	215.649	179.355	240.303	213.640	226.087	183.085	0.00034106	0.00078326	7.5234e-05	1468.1	1.9037e-06	5.8693e-06	1472	396.49	2.4917e-06	5.8161e-06	448.32	148.84	125.4	44.789	9.6447e-06	55.309	0.00062987	0.00064339	0.00017955	1488.3	7.0017e-06	7.0366e-06	1486.3	402.48	6.9113e-06	7.0157e-06	456.68	152.38	128.68	45.924	6.9117e-06	56.626	-73.105	-35.098	5.314	-92.710	14.132	109.487	-92.513	-88.002	27.684	15.839	-88.627	-83.731	-83.327	-79.275	40.175	-79.871	-8191	255	
1708.791	1	1	0	0	0.17721	0.10772	0.09899	0.26771	0.2266	0.16764	0.25688	0.18282	0.14998	0.15124	0.18412	0.068206	0.16817	0.087167	0.16873	0.23871	-1.6021	-2.7042	-2.5	-2.5521	-2.8292	-2.2708	-2.6417	-2.6625	-2.1813	-2.6208	-2.5271	-2.3042	-2.6917	-2.4708	-2.475	-2.6917	-79.653	113.902	230.936	252.539	-92.552	75.460	136.569	196.994	143.977	129.083	217.685	238.361	95.435	222.354	153.686	216.080	0.00024698	0.0011013	0.0001159	1472.8	3.9936e-06	3.9613e-06	1470.7	396.21	4.7551e-06	1.7774e-06	448.12	148.54	125.56	44.748	2.7337e-06	55.122	0.00061069	0.00062083	0.00017444	1489.5	6.8806e-06	6.8696e-06	1486.1	401.71	6.8522e-06	6.8712e-06	456.44	152.46	128.56	46.029	6.8298e-06	56.631	-67.560	-36.520	-26.287	-92.730	68.215	16.775	-92.483	-88.169	74.632	41.760	-88.506	-83.642	-83.606	-79.212	84.902	-79.781	-8191	255	
1708.887	1	1	0	0	0.18963	0.14284	0.32613	0.27122	0.24209	0.19373	0.14757	0.30572	0.10519	0.1566	0.17223	0.17451	0.058654	0.31987	0.12661	0.17099	-1.7792	-2.4542	-2.4604	-2.6292	-2.8417	-2.3542	-2.5979	-2.825	-2.2521	-2.5563	-2.7625	-2.4062	-2.8542	-2.525	-2.3792	-2.7667	-40.268	230.067	226.102	-103.104	71.918	17.164	-90.722	216.134	200.951	-100.672	227.870	207.289	200.756	177.771	42.522	204.466	0.00028718	0.00031948	2.4821e-05	1478.6	7.1841e-06	4.056e-06	1468.5	395.34	3.5722e-06	5.5e-06	449.64	149.09	125.66	44.84	4.666e-06	55.419	0.00061096	0.00062482	0.00017455	1491.6	6.8333e-06	6.8987e-06	1487.8	402.28	6.8288e-06	6.9347e-06	456.88	152.69	128.66	46.059	6.967e-06	56.742	-73.604	-78.107	-12.056	-92.706	42.082	-31.352	-92.580	-87.872	52.628	55.827	-88.333	-83.785	-83.583	-79.041	43.446	-79.762	-8191	255	
1709.007	1	1	0	0	0.13344	0.10757	0.12959	0.25383	0.29084	0.11031	0.047332	0.37741	0.02536	0.15934	0.058032	0.25092	0.21329	0.090202	0.045948	0.11445	-1.8375	-2.4958	-2.625	-2.3958	-2.5292	-2.3521	-2.5771	-2.8458	-2.3729	-2.5875	-2.6083	-2.2354	-2.6813	-2.5729	-2.2208	-2.9646	70.229	140.881	152.880	181.098	178.829	180.803	184.438	186.454	-15.873	36.264	180.557	159.884	248.740	162.774	227.488	129.593	0.00025104	0.00052734	0.00010529	1476.4	3.8195e-06	5.1559e-06	1471	396.75	3.896e-06	5.899e-06	450.23	148.86	125.44	44.878	6.0746e-06	55.561	0.00062147	0.00063365	0.00017735	1491.2	6.858e-06	6.9182e-06	1487.8	402.72	6.8507e-06	6.9178e-06	456.68	152.95	128.85	46.115	6.9363e-06	56.739	-71.347	-6.744	53.031	-92.598	134.525	-1.543	-92.671	-87.969	42.234	41.746	-88.588	-83.893	-83.430	-79.246	37.948	-79.615	-8191	255	
1709.102	1	1	0	0	0.053728	0.20285	0.20575	0.23769	0.18279	0.085918	0.30052	0.22266	0.21242	0.19833	0.26821	0.15695	0.055572	0.19996	0.14464	0.06157	-1.7062	-2.4708	-2.5354	-2.4688	-2.5438	-2.3896	-2.3729	-2.9833	-2.4917	-2.4708	-2.8104	-2.3146	-2.7792	-2.75	-2.3125	-2.8333	252.691	197.269	209.622	-102.998	93.388	-36.208	179.378	159.249	80.092	-0.174	171.317	100.902	171.141	-104.281	-103.020	169.838	0.00023239	0.0010338	9.078e-05	1478.3	8.6121e-06	1.6812e-06	1472.5	396.72	7.5086e-06	5.9123e-06	448.73	148.68	125.39	44.832	4.8997e-06	55.559	0.00061675	0.00062965	0.00017443	1491.7	6.863e-06	6.9502e-06	1488.9	402.4	6.8447e-06	6.9383e-06	456.32	152.46	128.74	46.01	6.888e-06	56.746	-73.193	-29.307	-48.583	-92.623	-4.731	57.124	-92.586	-87.869	108.369	44.418	-88.271	-83.928	-83.600	-79.101	37.543	-79.757	-8191	255	
1709.198	1	1	0	0	0.052725	0.16902	0.35088	0.37177	0.19892	0.081601	0.23058	0.21172	0.14357	0.33076	0.26176	0.1245	0.22353	0.039411	0.15068	0.033506	-1.6354	-2.4854	-2.8125	-2.3771	-2.5542	-2.6354	-2.4562	-2.8729	-2.4062	-2.3042	-2.9813	-2.5396	-2.65	-2.5917	-2.2188	-2.725	-76.422	218.383	22.150	238.523	-70.435	-74.682	202.971	96.152	-51.926	96.095	175.071	-20.943	193.367	78.014	-31.496	-9.334	0.00025945	0.00099306	4.0171e-05	1477.3	4.2834e-06	1.936e-06	1478.4	395.5	8.4072e-07	6.5128e-06	450.53	148.99	125.18	44.828	9.2949e-06	55.095	0.00061287	0.00063372	0.00017348	1492.1	6.9212e-06	6.9367e-06	1489.9	401.85	6.9078e-06	6.8816e-06	456.6	152.76	128.49	46.039	6.9465e-06	56.657	-81.886	-42.118	166.189	-92.563	24.112	0.020	-92.418	-87.909	21.479	14.670	-88.377	-83.768	-83.451	-79.067	55.517	-79.810	-8191	255	
1709.319	1	1	0	0	0.24442	0.058494	0.20971	0.28066	0.21173	0.17511	0.20033	0.20766	0.19021	0.082687	0.28474	0.38547	0.33342	0.15754	0.012309	0.059417	-2	-2.1354	-2.7375	-2.7125	-2.4917	-2.5438	-2.2708	-2.8292	-2.5083	-2.5021	-2.8333	-2.4188	-2.6437	-2.8146	-2.2729	-2.7417	46.198	71.445	126.459	245.731	176.780	-49.092	122.669	-40.496	129.986	-102.371	-86.952	188.249	207.719	-60.031	89.666	67.828	0.00037831	0.00058467	0.00025371	1474.4	8.3554e-06	1.0688e-05	1473	394.49	4.5811e-06	7.2122e-06	451.15	148.53	124.94	44.831	6.4606e-06	55.106	0.00061348	0.00063254	0.00017468	1490.4	6.8884e-06	6.8593e-06	1488.4	401.57	6.8913e-06	6.904e-06	457.45	152.37	128.37	45.979	6.9533e-06	56.633	-84.443	-6.050	-18.574	-92.595	44.274	46.507	-92.543	-87.805	57.685	17.713	-88.707	-84.004	-83.475	-79.258	32.132	-79.956	-8191	255	
1709.390	1	1	0	0	0.26481	0.12407	0.15996	0.24745	0.038046	0.11302	0.33821	0.19395	0.081916	0.31581	0.29369	0.065473	0.33144	0.13967	0.059562	0.14851	-2.0438	-2.4333	-2.6562	-2.5438	-2.4646	-2.725	-2.65	-2.7125	-2.5542	-2.3583	-3	-2.5438	-2.4813	-2.7125	-2.3271	-2.7229	106.167	-17.566	4.823	209.357	35.849	184.244	175.194	179.816	130.749	-83.962	169.228	244.689	249.059	-94.692	98.131	250.899	0.00032931	0.00052041	0.00015183	1476.1	5.7828e-06	4.1082e-06	1476.5	395.31	4.1497e-06	1.8766e-06	451.44	149.55	125.66	44.732	1.9509e-06	55.015	0.0006165	0.00063337	0.0001732	1493.4	6.8328e-06	6.8316e-06	1488.9	402.26	6.9104e-06	6.9154e-06	457.06	152.62	128.83	45.919	7.0796e-06	56.631	-72.056	8.564	-8.671	-92.369	208.220	-23.138	-92.380	-88.149	45.238	85.553	-88.522	-83.826	-83.508	-79.248	24.789	-79.630	-8191	255	
1709.486	1	1	0	0	0.19216	0.26347	0.07312	0.089055	0.17596	0.27475	0.1931	0.14998	0.1811	0.22546	0.28946	0.07469	0.25291	0.18439	0.064423	0.09299	-2.2687	-2.2625	-2.5542	-2.7667	-2.3333	-2.7229	-2.4167	-2.7896	-2.6396	-2.2583	-2.7542	-2.55	-2.45	-2.775	-2.5771	-2.7958	80.936	-105.995	229.998	137.324	-8.255	71.464	243.722	158.901	116.798	133.871	187.131	73.808	245.712	127.468	212.834	79.402	0.00025197	0.00070139	0.00013259	1476.1	2.6865e-06	5.2901e-06	1472.8	396.02	1.1332e-06	4.6801e-06	450.27	148.99	125.13	44.759	3.5686e-06	55.399	0.00061827	0.00063682	0.00017698	1493	6.9101e-06	6.8891e-06	1488.3	402.42	6.8609e-06	6.8771e-06	456.78	152.71	128.71	45.967	6.8381e-06	56.777	-62.822	-18.536	2.291	-92.656	72.988	49.133	-92.459	-88.016	22.146	56.413	-88.314	-83.992	-83.641	-79.250	52.483	-79.811	-8191	255	
1709.583	1	1	0	0	0.18966	0.19212	0.2205	0.28083	0.056951	0.27025	0.35443	0.3324	0.10918	0.14983	0.2385	0.34696	0.14576	0.20501	0.1982	0.17508	-2.3688	-2.4458	-2.6167	-2.6792	-2.2625	-2.6646	-2.6271	-2.5729	-2.5396	-2.2979	-2.7313	-2.4625	-2.4917	-2.7458	-2.2812	-2.6833	116.285	235.643	227.108	-104.825	208.977	86.797	144.157	218.819	127.475	-14.156	214.019	175.192	184.708	-82.805	228.026	139.855	0.0003383	0.00041515	0.00016737	1477.7	8.8639e-06	7.0695e-06	1476	396.5	1.4012e-06	2.5326e-06	449.56	149.09	125.72	44.897	3.8e-06	55.257	0.00061518	0.0006277	0.00017443	1493	6.8592e-06	6.9492e-06	1490.5	402.48	6.8686e-06	6.9216e-06	455.8	152.77	128.71	46.006	6.8294e-06	56.777	-72.301	-45.137	-23.559	-92.549	32.545	11.871	-92.477	-87.931	-16.732	24.033	-88.644	-83.966	-83.578	-79.439	1.347	-79.654	-8191	255	
1709.703	1	1	0	0	0.26472	0.063797	0.2596	0.094202	0.081063	0.17057	0.1411	0.20463	0.20587	0.18714	0.2541	0.21203	0.12615	0.050968	0.16543	0.19041	-2.25	-2.0792	-2.6604	-2.575	-2.1354	-2.7	-2.6562	-2.6667	-2.6167	-2.2812	-2.6479	-2.5667	-2.2583	-2.7208	-2.4729	-2.6188	-105.008	-51.128	253.676	184.879	16.483	-8.381	191.440	186.012	173.629	237.222	-88.079	220.379	195.501	193.775	-78.391	228.876	0.00028414	0.00050542	0.00027722	1478.4	4.9861e-06	4.6981e-06	1476	394.62	4.719e-06	4.1155e-06	449.77	148.85	125.4	44.888	6.534e-07	55.773	0.00060758	0.00062597	0.00017379	1494.2	6.7309e-06	6.7927e-06	1489.3	402	6.7651e-06	6.8202e-06	456.76	152.64	128.66	46.08	6.8009e-06	56.811	-66.572	-68.846	-12.619	-92.532	19.747	10.594	-92.570	-87.952	42.326	-5.760	-88.676	-83.925	-83.696	-79.212	242.261	-79.763	-8191	255	
1709.799	1	1	0	0	0.13433	0.25856	0.1148	0.32262	0.30931	0.32076	0.16176	0.2653	0.12905	0.079839	0.25463	0.12528	0.31452	0.12559	0.154	0.30142	-2.2083	-2.1458	-2.5521	-2.5792	-2.2125	-2.65	-2.5458	-2.4188	-2.7917	-2.3646	-2.7229	-2.7104	-2.3167	-2.7042	-2.3958	-2.4083	-15.600	35.591	97.914	-102.720	178.635	96.717	170.889	127.256	225.536	13.674	167.380	-91.309	168.339	253.883	-26.038	128.928	0.00028231	0.00091189	0.00018943	1480	3.5744e-06	3.8002e-06	1471	397.29	6.0662e-06	6.1315e-06	449.58	148.89	126.2	44.888	5.0138e-06	55.353	0.00059993	0.00062256	0.00017267	1493.8	6.7334e-06	6.7505e-06	1486.3	402.53	6.6795e-06	6.7062e-06	456.05	152.86	128.79	46.044	6.6753e-06	56.68	-78.181	-78.047	-23.526	-92.351	94.190	2.163	-92.507	-87.980	0.087	78.971	-88.555	-83.814	-83.398	-78.973	38.094	-79.861	-8191	255	
1709.896	1	1	0	0	0.081301	0.073482	0.10533	0.23985	0.21776	0.18658	0.11125	0.41372	0.10846	0.1301	0.29825	0.18106	0.30041	0.31107	0.27692	0.044874	-2.3875	-2.2417	-2.5458	-3.025	-2.2667	-2.45	-2.6625	-2.4896	-2.7479	-2.2958	-2.4771	-2.8083	-2.425	-2.6083	-2.7354	-2.3646	179.904	38.612	2.937	190.898	213.367	-85.530	74.305	221.948	32.766	103.409	165.583	177.859	143.127	-105.563	201.989	152.926	0.00027541	0.0007078	0.0001271	1478.9	5.2176e-06	9.4488e-06	1474.5	395.84	5.3463e-06	5.5905e-06	447.58	149.02	125.44	44.9	5.9356e-06	55.061	0.00060099	0.00061105	0.00017051	1493.6	6.6896e-06	6.6568e-06	1489.3	402.42	6.7253e-06	6.7205e-06	455.95	152.83	128.44	46.018	6.7012e-06	56.581	-62.159	-31.328	-21.974	-92.487	77.538	24.325	-92.443	-88.092	103.496	31.067	-88.218	-83.759	-83.240	-78.841	61.255	-79.685	-8191	255	
1709.990	1	1	0	0	0.15313	0.33721	0.084177	0.22012	0.20752	0.33791	0.26372	0.1614	0.15177	0.1446	0.18467	0.23892	0.10087	0.19803	0.14286	0.21171	-2.2542	-2.3438	-2.3375	-2.8354	-2.2292	-2.6229	-2.8104	-2.4313	-2.6583	-2.3354	-2.4146	-3.0792	-2.3625	-2.6833	-2.675	-2.3458	60.118	-15.692	213.297	197.860	218.811	-71.827	222.617	165.442	-102.452	9.927	-38.450	-95.055	169.062	178.246	49.613	188.140	0.00030779	0.00098872	0.00011531	1474.9	3.7539e-06	6.3815e-06	1475.8	395.36	4.3735e-06	8.9065e-06	449.86	149.26	125.35	44.802	4.2411e-06	55.465	0.00059728	0.00061326	0.00017158	1491.2	6.6231e-06	6.7063e-06	1489	401.97	6.6727e-06	6.7505e-06	456.21	152.77	128.48	46.034	6.7105e-06	56.733	-57.501	-2.557	0.626	-92.449	-90.354	38.186	-92.612	-87.851	93.185	65.782	-88.529	-83.964	-83.618	-79.153	67.687	-79.790	-8191	255	
1710.086	1	1	0	0	0.19918	0.31828	0.043318	0.18664	0.23072	0.042495	0.61384	0.065488	0.12303	0.14824	0.33412	0.098765	0.28809	0.4306	0.2402	0.054052	-2.2875	-2.5812	-2.3438	-2.9417	-2.3	-2.4542	-2.6312	-2.4146	-2.7771	-2.5208	-2.4333	-2.9313	-2.4437	-2.5938	-2.8	-2.3875	131.013	30.698	-63.905	197.962	160.630	43.067	224.729	230.652	152.051	47.128	222.072	-76.543	91.884	239.033	91.533	-65.473	0.00028865	0.00081604	0.00017977	1484.5	4.1996e-06	8.3824e-06	1473.6	396.99	4.9675e-06	9.9818e-06	448.62	149.2	125.78	44.864	5.6399e-07	55.35	0.00060713	0.00061454	0.00017164	1494.2	6.7067e-06	6.7539e-06	1488.1	402.24	6.7028e-06	6.6455e-06	456.03	152.67	128.71	46.068	6.6627e-06	56.625	-79.744	-47.387	-27.446	-92.558	16.682	50.506	-92.671	-87.957	8.021	59.724	-88.612	-83.975	-83.616	-79.141	-73.128	-79.826	-8191	255	
1710.182	1	1	0	0	0.20164	0.19302	0.28645	0.25663	0.22237	0.29732	0.31746	0.15257	0.2637	0.2765	0.12158	0.32023	0.28292	0.32	0.16441	0.10863	-2.2417	-2.4125	-2.4354	-2.9208	-2.3792	-2.4542	-3.0062	-2.3875	-2.6688	-2.6167	-2.4167	-2.95	-2.6083	-2.6125	-2.6958	-2.3354	128.521	132.788	-32.237	188.481	131.039	137.397	-94.375	204.057	44.164	34.531	109.043	184.876	244.102	-70.138	-103.785	-38.928	0.00033912	0.00065819	0.00016392	1473	6.0918e-06	3.3572e-06	1473	394.91	5.4482e-06	5.7185e-06	447.89	149.26	125.85	44.923	4.601e-06	55.227	0.00059886	0.00060768	0.00016858	1491.2	6.6433e-06	6.712e-06	1487.8	401.58	6.6628e-06	6.7109e-06	455.91	152.69	128.64	46.068	6.7207e-06	56.668	-64.749	-21.563	24.367	-92.472	38.316	166.404	-92.552	-87.943	43.230	19.095	-88.576	-83.885	-83.616	-79.084	-42.939	-79.701	-8191	255	
1710.278	1	1	0	0	0.045819	0.2014	0.11096	0.42157	0.06803	0.12778	0.15646	0.34875	0.18811	0.17253	0.38881	0.3961	0.30817	0.12601	0.097413	0.12335	-2.1292	-2.6792	-2.2958	-2.8667	-2.3208	-2.4021	-3.0208	-2.3438	-2.5354	-2.7146	-2.5417	-2.8708	-2.4792	-2.4938	-2.9292	-2.4875	71.518	-95.339	1.435	197.808	30.128	94.159	220.080	172.929	237.013	108.808	-87.132	222.135	162.733	-97.085	122.021	125.417	0.0002681	0.00048157	9.6786e-05	1478.9	6.3232e-06	7.3002e-06	1471.6	395.9	2.756e-06	6.6965e-06	450.87	148.97	125.86	44.9	1.5779e-06	55.372	0.00059823	0.00061012	0.00016695	1493.9	6.559e-06	6.7331e-06	1487.8	401.88	6.7273e-06	6.7147e-06	456.21	152.67	128.66	46.064	6.6301e-06	56.748	-59.924	-41.738	-39.728	-92.740	80.563	32.127	-92.620	-88.042	-87.155	76.653	-88.543	-84.122	-83.679	-78.912	-50.976	-79.784	-8191	255	
1710.399	1	1	0	0	0.10918	0.068405	0.13879	0.29564	0.13097	0.20536	0.26397	0.072614	0.11702	0.044812	0.11235	0.33412	0.22657	0.2351	0.032781	0.2859	-2.15	-2.625	-2.0542	-2.8937	-2.4979	-2.2521	-2.8646	-2.6833	-2.4521	-2.85	-2.4792	-2.9938	-2.7604	-2.4729	-2.7833	-2.375	-23.545	176.564	93.852	227.412	-50.711	-87.579	-16.110	112.710	191.292	115.676	-75.325	226.817	223.735	227.631	100.447	185.589	0.00024616	0.00075746	0.00019669	1475.9	3.6586e-06	3.0675e-06	1475	396.41	2.3823e-06	4.1362e-06	448.1	149.67	125.69	44.81	8.353e-06	55.288	0.00060601	0.00060825	0.00017016	1492.8	6.6566e-06	6.6354e-06	1488.7	402.12	6.6428e-06	6.5838e-06	456.23	152.84	128.62	46.082	6.6408e-06	56.603	-65.337	22.492	-15.251	-92.469	44.225	50.636	-92.406	-87.964	3.242	119.785	-88.625	-83.651	-83.717	-78.932	80.269	-79.824	-8191	255	
1710.495	1	1	0	0	0.24257	0.1332	0.12904	0.57061	0.14798	0.26544	0.4292	0.29579	0.16478	0.10794	0.31911	0.27697	0.16149	0.23607	0.011896	0.12709	-1.8125	-2.5104	-2.2687	-2.7188	-2.4021	-2.325	-2.9646	-2.4458	-2.3729	-2.825	-2.3083	-2.7083	-2.6979	-2.4062	-2.7958	-2.7313	6.538	-77.397	164.454	246.654	185.287	-42.865	225.342	240.250	43.545	96.891	216.126	237.329	205.796	-98.640	207.758	97.818	0.00030394	0.00043556	0.00014456	1480.9	5.2468e-06	7.7247e-06	1476.5	395.27	2.7141e-06	8.8932e-06	448.6	149.24	125.32	44.842	4.8109e-06	55.169	0.00059015	0.00060216	0.00016764	1493.7	6.5091e-06	6.5907e-06	1490.3	401.57	6.5692e-06	6.6412e-06	455.7	152.73	128.51	45.971	6.5754e-06	56.594	-68.098	-40.204	10.214	-92.570	38.708	9.987	-92.600	-88.012	125.552	62.505	-88.574	-83.643	-83.580	-79.163	-31.134	-79.702	-8191	255	
1710.591	1	1	0	0	0.20733	0.14031	0.20279	0.19057	0.18545	0.093704	0.22277	0.10143	0.14493	0.28699	0.16259	0.029776	0.13821	0.20491	0.12019	0.2112	-1.9417	-2.6917	-2.3917	-2.7333	-2.5021	-2.25	-3.0917	-2.6854	-2.3063	-2.6458	-2.4521	-2.7646	-2.6833	-2.3708	-2.6021	-2.6729	-4.870	-81.280	80.426	204.233	123.905	58.480	169.653	224.801	31.944	-79.357	163.568	-101.362	250.947	1.668	193.963	181.992	0.00032524	0.00082924	0.00019517	1475.9	3.4876e-06	8.1131e-06	1477.6	397.07	1.4326e-06	2.3225e-06	450.01	149.79	125.58	44.768	5.7304e-06	55.496	0.0005878	0.00060205	0.00017014	1494	6.6251e-06	6.6043e-06	1491	402.01	6.6242e-06	6.6748e-06	455.77	152.87	128.58	46.036	6.5937e-06	56.817	-59.816	-12.645	-43.596	-92.491	6.174	49.087	-92.603	-87.903	96.361	24.271	-88.390	-84.056	-83.360	-79.060	64.930	-79.776	-8191	255	
1710.687	1	1	0	0	0.11815	0.13879	0.093792	0.30138	0.13763	0.15916	0.1782	0.16455	0.068054	0.113	0.10451	0.45601	0.16247	0.20091	0.35319	0.11261	-1.8083	-2.6854	-2.2292	-2.6896	-2.5938	-2.225	-2.8187	-2.6688	-2.2792	-2.85	-2.4938	-2.6188	-2.7938	-2.4313	-2.6792	-2.6813	-68.644	253.268	106.084	223.825	96.363	99.929	198.155	239.660	98.812	60.373	19.014	148.619	249.453	128.764	-75.827	234.935	0.00025414	0.00071522	0.00018004	1478.3	4.8669e-06	7.8386e-06	1480.9	395.8	5.2821e-06	8.162e-06	449.13	149.35	125.54	44.914	2.4476e-06	55.555	0.000587	0.00059997	0.00016571	1493.7	6.5844e-06	6.5726e-06	1489.5	401.85	6.5562e-06	6.5687e-06	456.53	152.81	128.47	46.057	6.6574e-06	56.76	-64.268	-57.033	-43.843	-92.619	57.617	34.942	-92.419	-88.202	79.108	102.780	-88.610	-83.866	-83.450	-79.273	9.789	-79.712	-8191	255	
1710.784	1	1	0	0	0.11751	0.18179	0.10963	0.10672	0.25408	0.15266	0.2074	0.29324	0.20585	0.38207	0.11935	0.23613	0.1128	0.17448	0.088891	0.22014	-1.7333	-2.5896	-2.4	-2.6562	-2.7917	-2.3021	-2.6813	-2.6146	-2.175	-2.6833	-2.5083	-2.4021	-2.7979	-2.2687	-2.7229	-2.8438	-100.914	141.640	102.377	226.591	-24.320	83.922	229.204	-104.515	199.491	-54.316	-105.349	162.051	245.292	165.847	35.140	146.543	0.00025795	0.00060815	2.946e-05	1480	1.9489e-06	2.6248e-06	1474	395.48	1.7206e-06	3.3528e-06	447.22	149.24	125.46	44.891	2.0775e-06	55.616	0.00058593	0.00060886	0.00016915	1494.3	6.5753e-06	6.6227e-06	1490.4	401.29	6.6004e-06	6.7001e-06	455.11	152.93	128.72	46.005	6.7328e-06	56.778	-69.059	15.358	140.326	-92.581	-0.521	13.149	-92.680	-87.974	-21.445	78.361	-88.530	-83.791	-83.445	-79.116	62.272	-79.540	-8191	255	
1710.880	1	1	0	0	0.22291	0.18166	0.19961	0.38749	0.097364	0.14049	0.27561	0.060413	0.31693	0.17042	0.18826	0.10476	0.28167	0.12025	0.14384	0.37977	-1.7271	-2.4833	-2.475	-2.4521	-2.5479	-2.2292	-2.775	-2.8812	-2.3583	-2.6333	-2.6437	-2.3833	-2.9271	-2.6708	-2.4417	-2.8042	41.061	204.995	110.652	251.241	253.816	20.744	156.622	23.743	-26.570	215.444	215.732	235.507	213.494	177.735	36.956	112.553	0.00028022	0.0011245	0.0001433	1481.1	4.4708e-06	2.3815e-06	1473.6	394.4	1.9582e-06	3.4046e-06	449.25	149.4	125.8	44.867	6.0636e-06	55.116	0.00060255	0.00061523	0.00017084	1494.5	6.5759e-06	6.705e-06	1491.3	401.13	6.6823e-06	6.6936e-06	455.19	152.83	128.61	46.006	6.6848e-06	56.579	-69.341	-16.655	23.295	-92.503	35.367	95.095	-92.340	-87.661	32.384	52.169	-88.509	-83.979	-83.596	-79.020	-18.266	-79.887	-8191	255	
1711.000	1	1	0	0	0.12846	0.086706	0.15415	0.39506	0.097656	0.30815	0.27324	0.28526	0.025222	0.25972	0.11591	0.34261	0.24428	0.069363	0.30395	0.16065	-1.7292	-2.6521	-2.5104	-2.6437	-2.8312	-2.5854	-2.8833	-2.8063	-2.0896	-2.7375	-2.6688	-2.4625	-2.8917	-2.4396	-2.4458	-2.9458	-54.764	22.912	-59.936	248.722	-81.751	-56.687	147.908	242.556	161.924	122.487	-97.023	230.079	204.230	168.000	-91.363	214.743	0.00033653	0.00078413	9.8791e-05	1475.2	1.0979e-06	4.0149e-06	1472	395.59	2.2305e-06	1.0081e-05	447.84	149.08	124.9	44.948	3.4348e-06	55.518	0.00059625	0.00061825	0.00016976	1491.8	6.6697e-06	6.5804e-06	1489	401.54	6.6955e-06	6.8155e-06	455.61	152.54	128.37	46.019	6.7405e-06	56.654	-63.655	-63.233	-63.090	-92.478	51.277	96.458	-92.410	-87.935	60.534	50.294	-88.717	-83.848	-83.870	-78.953	100.856	-79.835	-8191	255	
1711.095	1	1	0	0	0.16801	0.16789	0.089295	0.2947	0.16363	0.12709	0.28403	0.28032	0.053022	0.11835	0.20356	0.35694	0.15157	0.18135	0.19139	0.32505	-1.8188	-2.5146	-2.5208	-2.4542	-2.8167	-2.4854	-2.4688	-2.7979	-2.2708	-2.5667	-2.7	-2.2021	-2.6813	-2.6688	-2.2833	-2.9062	206.574	190.113	52.626	204.317	22.042	71.578	231.014	204.581	193.541	132.801	200.010	190.323	98.006	-74.719	126.351	-81.342	0.00029078	0.00027806	0.0001755	1474.5	5.3745e-06	6.6733e-06	1473	394.27	3.7938e-06	6.0732e-06	449.38	148.8	125.87	44.82	6.6923e-06	55.551	0.00059768	0.00061118	0.00017029	1492.9	6.6514e-06	6.6955e-06	1487.1	400.1	6.7061e-06	6.8058e-06	455.59	152.54	128.71	46.002	6.7641e-06	56.646	-68.195	-22.488	-12.306	-92.496	19.812	16.187	-92.504	-87.757	-74.700	31.864	-88.401	-83.960	-83.521	-79.300	67.383	-79.830	-8191	255	
1711.191	1	1	0	0	0.26047	0.27076	0.27184	0.045304	0.24102	0.17472	0.20783	0.17558	0.24869	0.081251	0.12223	0.21974	0.14104	0.21625	0.16004	0.12426	-1.925	-2.4979	-2.8146	-2.5417	-2.6417	-2.3875	-2.5042	-2.8854	-2.3375	-2.7375	-2.7542	-2.4104	-2.6937	-2.7146	-2.1042	-2.6813	-74.413	-61.153	216.037	228.324	123.414	-15.882	232.573	172.328	-87.279	29.692	218.308	170.440	99.153	168.560	-69.796	112.260	0.00030824	0.00067175	0.0001256	1473.2	2.8352e-06	3.7741e-06	1472.6	395.02	3.2368e-06	2.1874e-06	448.93	148.49	124.94	44.807	6.4515e-06	55.348	0.00060949	0.00061994	0.00017197	1489.8	6.745e-06	6.8592e-06	1488.6	400.73	6.709e-06	6.8294e-06	455.43	152.6	128.32	45.9	6.8822e-06	56.646	-73.504	29.071	-77.160	-92.511	21.212	49.017	-92.532	-88.005	59.111	32.979	-88.555	-83.880	-83.601	-79.264	46.080	-79.590	-8191	255	
1711.263	1	1	0	0	0.25563	0.16342	0.13223	0.29043	0.098796	0.23649	0.35011	0.25611	0.17543	0.015182	0.13966	0.094699	0.088658	0.15176	0.22235	0.12377	-2.025	-2.4083	-2.6	-2.4271	-2.7458	-2.7271	-2.4875	-2.8021	-2.4458	-2.4583	-2.9813	-2.4083	-2.6979	-2.5812	-2.1562	-2.9708	103.156	96.080	-75.636	236.980	210.198	-72.718	-100.968	227.910	112.205	1.122	217.226	238.015	128.903	165.516	-88.327	246.762	0.00028218	0.00062421	8.1998e-06	1473.3	6.6183e-07	1.3957e-06	1477.1	395.09	2.8982e-06	3.9395e-06	449.51	149.46	125.32	44.913	4.1084e-06	55.494	0.00061379	0.00062989	0.00017256	1492.6	6.8382e-06	6.8712e-06	1489.8	400.68	6.7887e-06	6.8999e-06	455.36	152.74	128.44	45.962	6.8602e-06	56.692	-65.975	30.549	168.794	-92.735	176.614	-23.270	-92.355	-87.853	45.030	63.619	-88.435	-83.977	-83.560	-79.322	26.079	-79.728	-8191	255	
1711.383	1	1	0	0	0.19901	0.1724	0.2488	0.23413	0.17502	0.10628	0.20013	0.31354	0.1254	0.13284	0.050249	0.15721	0.086859	0.4484	0.025814	0.26532	-2.1646	-2.2417	-2.6	-2.4083	-2.5583	-2.8438	-2.4979	-2.8063	-2.3125	-2.1271	-2.8979	-2.4688	-2.6792	-2.7938	-2.1937	-2.7271	-40.594	156.903	148.408	146.318	-63.830	1.169	165.383	186.168	110.819	-12.683	201.067	221.223	152.637	-95.373	173.171	245.816	0.00018276	0.00057701	0.00013415	1480.2	5.0547e-06	5.5202e-06	1473.4	393.2	4.1305e-06	6.5433e-06	448.91	149.38	124.99	44.643	4.3058e-06	55.3	0.00060864	0.00062237	0.00017372	1495	6.8538e-06	6.7513e-06	1488.4	400.91	6.8415e-06	6.8354e-06	455.61	152.72	128.4	45.949	6.7567e-06	56.665	-69.925	-81.347	30.104	-92.605	-66.330	-7.860	-92.682	-87.810	8.228	47.265	-88.422	-83.594	-83.562	-78.930	38.173	-79.879	-8191	255	
1711.479	1	1	0	0	0.17564	0.14813	0.043817	0.46371	0.34152	0.045819	0.28969	0.15916	0.11174	0.26576	0.24147	0.30817	0.063822	0.2968	0.22796	0.20075	-2.1667	-2.4021	-2.6125	-2.425	-2.4271	-2.5125	-2.3792	-2.775	-2.5667	-2.3104	-2.9813	-2.3896	-2.4354	-2.5417	-2.3104	-2.5604	20.690	-26.923	137.564	206.174	80.422	-13.628	202.683	172.641	-27.583	-95.469	250.356	224.924	-44.260	167.498	134.649	236.632	0.00025882	0.00097192	7.5872e-05	1480.2	2.3208e-06	6.6636e-06	1469.3	394.76	1.2788e-06	3.3624e-06	448.29	149.22	125.6	44.821	5.7886e-06	55.13	0.00060833	0.00062869	0.00017395	1493	6.8795e-06	6.8287e-06	1487.8	401.55	6.8946e-06	6.9401e-06	455.31	152.49	128.57	45.96	6.8239e-06	56.602	-68.375	-38.734	-49.386	-92.384	-27.631	7.796	-92.644	-87.881	244.095	113.667	-88.507	-83.950	-83.735	-79.063	50.173	-79.609	-8191	255	
1711.576	1	1	0	0	0.25623	0.30463	0.045583	0.2576	0.26488	0.055629	0.30831	0.17109	0.028725	0.24656	0.18841	0.11886	0.18397	0.19681	0.27821	0.054551	-2.1729	-2.3021	-2.7812	-2.6854	-2.4083	-2.725	-2.4604	-2.725	-2.6021	-2.2687	-2.9437	-2.4771	-2.7271	-2.7604	-2.2604	-2.6479	68.884	238.875	198.846	205.026	176.159	97.136	203.946	-15.217	105.794	137.853	228.518	230.534	42.543	-67.798	147.016	-86.678	0.00028499	9.6293e-05	0.00011	1476	1.1293e-06	4.5111e-06	1476.5	395.42	1.8607e-06	9.6125e-06	447.32	148.71	125.24	44.743	3.9587e-06	55.201	0.00060999	0.00062511	0.0001757	1492.6	6.8338e-06	6.8177e-06	1490	400.76	6.807e-06	6.8345e-06	454.7	152.36	128.39	45.924	6.87e-06	56.543	-73.984	221.421	-1.484	-92.504	-81.866	43.194	-92.506	-87.893	-42.909	51.295	-88.375	-83.938	-83.359	-79.096	27.105	-79.752	-8191	255	
1711.672	1	1	0	0	0.18248	0.016738	0.052411	0.26308	0.13741	0.094444	0.35851	0.20975	0.13675	0.089751	0.21511	0.43364	0.21531	0.12095	0.065401	0.16129	-2.0687	-2.0521	-2.5479	-2.8583	-2.5417	-2.7667	-2.5146	-2.6875	-2.6979	-2.2896	-2.8354	-2.4917	-2.3688	-2.9062	-2.3625	-2.7458	157.939	-90.453	82.194	189.972	123.009	231.372	137.446	232.594	233.545	-44.171	246.087	240.934	229.824	237.303	185.035	197.258	0.00023868	0.00052721	0.00012138	1478.1	6.1009e-06	4.0739e-06	1474.3	393.46	3.6198e-06	3.5377e-06	446.54	149.13	126.07	44.656	9.2283e-06	55.242	0.00061333	0.00062513	0.00017233	1492.7	6.7758e-06	6.7266e-06	1488.8	400.14	6.7734e-06	6.789e-06	454.49	152.3	128.67	45.859	6.8245e-06	56.536	-79.435	-36.393	-36.771	-92.572	74.728	28.193	-92.575	-87.875	32.732	56.295	-88.595	-84.026	-83.505	-79.030	-13.870	-79.693	-8191	255	
1711.792	1	1	0	0	0.14757	0.31611	0.11053	0.30305	0.29307	0.27402	0.088691	0.090262	0.042661	0.031921	0.11115	0.12332	0.16624	0.29297	0.053376	0.074419	-2.3042	-2.2417	-2.4896	-2.7708	-2.3167	-2.8792	-2.45	-2.6437	-2.75	-2.3583	-2.6771	-2.7292	-2.3271	-2.8042	-2.4667	-2.375	222.491	40.734	18.622	182.312	64.127	-43.342	243.987	236.652	142.426	-53.783	228.989	-80.969	241.073	165.171	-67.225	-80.878	0.00028737	0.0005071	0.00011822	1476.6	2.7332e-06	3.9853e-06	1469.1	393.77	3.3642e-06	4.3169e-06	448.29	148.94	125.46	44.725	3.8661e-06	55.205	0.00061125	0.00061575	0.00017402	1494.1	6.768e-06	6.8687e-06	1487.8	400.87	6.8781e-06	6.8314e-06	456.05	152.44	128.42	45.925	6.9105e-06	56.508	-59.167	-20.238	2.190	-92.699	48.671	52.777	-92.612	-87.820	202.523	-5.146	-88.540	-84.021	-83.635	-79.032	123.933	-79.775	-8191	255	
1711.887	1	1	0	0	0.23322	0.18364	0.071784	0.2626	0.10594	0.084617	0.2354	0.29573	0.22274	0.089892	0.13419	0.10771	0.11963	0.20001	0.24226	0.13321	-2.1833	-2.2271	-2.6437	-2.8396	-2.2979	-2.7354	-2.5104	-2.6417	-2.75	-2.425	-2.6229	-2.6229	-2.3292	-2.8187	-2.3417	-2.4354	114.712	35.374	222.150	179.244	-103.826	3.047	226.290	182.254	-99.000	48.837	-95.929	182.275	234.926	-72.753	-67.588	187.586	0.00024983	0.00061448	0.00015395	1472.9	1.5848e-06	1.5197e-06	1474.1	395.08	6.0897e-06	8.5771e-06	448.76	148.67	125.26	44.833	8.3152e-06	55.43	0.00061145	0.00061934	0.00017317	1491.7	6.6963e-06	6.7221e-06	1488	401.2	6.6817e-06	6.708e-06	455.4	152.52	128.37	45.955	6.6774e-06	56.63	-60.137	-72.381	56.089	-92.604	87.017	13.373	-92.597	-87.975	50.264	53.754	-88.210	-83.994	-83.442	-78.929	63.561	-79.668	-8191	255	
1711.960	1	1	0	0	0.26849	0.14458	0.085426	0.23604	0.11828	0.086925	0.28772	0.21395	0.23053	0.26077	0.034578	0.17353	0.15204	0.18662	0.20685	0.34534	-2.4771	-2.2854	-2.4917	-2.8042	-2.2479	-2.7521	-2.6042	-2.5	-2.9042	-2.4667	-2.6688	-2.7854	-2.3563	-2.5667	-2.5396	-2.2062	84.482	235.452	-1.726	-78.325	-40.223	50.659	160.743	159.769	231.692	97.894	-95.450	167.206	240.592	209.206	-18.392	232.726	0.00019321	0.00051127	0.0001156	1480.3	5.4307e-06	7.8425e-06	1478.7	395.52	2.1655e-06	4.0059e-06	447.99	149.19	125.04	44.82	1.8736e-06	55.146	0.000594	0.0006004	0.00016882	1494.5	6.6178e-06	6.7029e-06	1489	400.65	6.593e-06	6.634e-06	455.48	152.38	128.17	45.98	6.5472e-06	56.504	-55.578	4.865	-29.867	-92.649	141.855	31.926	-92.629	-87.811	56.538	88.876	-88.532	-83.930	-83.699	-79.179	46.891	-79.843	-8191	255	
1712.081	1	1	0	0	0.17524	0.17032	0.25543	0.27635	0.2175	0.259	0.27845	0.059604	0.19488	0.25625	0.22032	0.089549	0.10483	0.089081	0.15838	0.12797	-2.4833	-2.2708	-2.425	-2.7542	-2.1604	-2.6625	-2.7604	-2.3729	-2.8646	-2.525	-2.4479	-2.9625	-2.2583	-2.6396	-2.7271	-2.5479	39.308	77.974	79.938	192.504	241.174	6.635	200.244	183.213	58.991	-69.202	201.271	72.865	53.558	193.265	134.425	120.126	0.00024859	0.00022089	0.00014804	1474.1	6.0058e-06	8.8336e-06	1472.9	392.99	7.8705e-07	3.484e-06	448.58	149.47	125.75	44.971	1.9993e-06	55.474	0.00058223	0.00059601	0.00016693	1491.2	6.5629e-06	6.5859e-06	1488.7	400.36	6.4877e-06	6.546e-06	455.04	152.76	128.51	46.088	6.5591e-06	56.557	-69.039	-29.661	13.142	-92.663	150.453	40.198	-92.500	-88.042	207.631	105.744	-88.307	-83.850	-83.586	-79.039	128.929	-79.665	-8191	255	
1712.175	1	1	0	0	0.1637	0.14	0.1901	0.28347	0.15023	0.02188	0.19402	0.39772	0.28898	0.17888	0.22156	0.1581	0.10122	0.066362	0.19778	0.35298	-2.25	-2.3729	-2.3021	-2.9167	-2.3083	-2.5687	-2.8937	-2.4292	-2.7104	-2.4667	-2.4875	-2.7854	-2.4875	-2.6625	-2.6	-2.2771	17.900	31.601	5.919	219.851	173.633	231.158	200.268	199.545	231.581	230.943	230.110	187.928	-28.916	166.266	122.298	-86.555	0.00026914	0.00044303	0.00018347	1479.1	8.5443e-06	4.9836e-06	1475.5	393.88	1.3185e-06	8.4353e-06	446.92	148.89	125.49	44.913	5.2935e-06	55.198	0.00058671	0.00059003	0.0001653	1493.5	6.497e-06	6.5486e-06	1490.2	400.17	6.5218e-06	6.5671e-06	454.39	152.45	128.36	45.911	6.5918e-06	56.553	-82.194	-31.958	-44.755	-92.523	73.626	21.873	-92.544	-87.844	71.801	95.147	-88.460	-84.141	-83.649	-78.974	49.965	-79.669	-8191	255	
1712.271	1	1	0	0	0.16431	0.32731	0.26504	0.25764	0.16663	0.095942	0.15119	0.23116	0.29341	0.10358	0.098538	0.20303	0.28467	0.080258	0.11747	0.20882	-2.2708	-2.3396	-2.2271	-3.0375	-2.2667	-2.6333	-2.9229	-2.2583	-2.5958	-2.5146	-2.3729	-2.9292	-2.3271	-2.6792	-2.7062	-2.3854	228.312	141.472	190.318	251.368	160.194	-57.924	-103.087	183.904	246.732	203.738	248.393	211.812	-93.354	-70.822	166.386	86.305	0.0003017	0.00080266	4.9443e-05	1476	6.4677e-06	4.9778e-06	1472.6	394.87	1.3986e-06	1.2587e-06	445.44	149.34	125.29	44.841	1.3976e-06	55.178	0.00058141	0.00058723	0.00016601	1490.2	6.5184e-06	6.5261e-06	1488	401.01	6.4652e-06	6.4494e-06	453.95	152.57	128.23	45.891	6.4715e-06	56.484	-66.001	-52.469	21.339	-92.489	-24.430	-5.700	-92.451	-87.799	-38.844	-31.007	-88.248	-83.732	-83.459	-78.992	30.668	-79.693	-8191	255	
1712.368	1	1	0	0	0.27086	0.168	0.19887	0.26075	0.1079	0.080155	0.30208	0.14021	0.1186	0.23936	0.17573	0.35371	0.25149	0.2605	0.10335	0.12601	-2.0583	-2.4375	-2.1521	-2.7875	-2.3729	-2.325	-2.8854	-2.5021	-2.5604	-2.5417	-2.3792	-2.6167	-2.5083	-2.3063	-2.6896	-2.2062	248.254	110.939	151.643	236.243	195.668	204.015	214.770	134.124	38.976	76.694	-46.652	185.798	-24.589	242.558	24.438	150.178	0.00026867	0.00061722	0.00024827	1481.1	5.5298e-06	5.1151e-06	1471.5	394.8	6.2059e-07	1.8769e-06	447.75	149.11	125.56	44.936	1.0613e-06	55.335	0.00059017	0.00059607	0.00016307	1491.5	6.4239e-06	6.4845e-06	1487.6	400.31	6.4633e-06	6.4275e-06	454.17	152.42	128.12	45.896	6.3849e-06	56.484	-77.680	13.402	1.189	-92.696	84.029	57.744	-92.706	-88.007	-30.338	22.630	-88.506	-84.049	-83.666	-79.163	-76.142	-79.579	-8191	255	
1712.488	1	1	0	0	0.12869	0.27882	0.16685	0.23645	0.081069	0.14206	0.13625	0.16349	0.25496	0.18805	0.26785	0.16711	0.26015	0.052798	0.35961	0.1222	-2.0875	-2.4146	-2.2625	-2.8187	-2.5604	-2.3688	-2.8521	-2.4875	-2.5521	-2.7083	-2.2604	-2.7083	-2.4521	-2.4333	-2.6646	-2.3833	42.569	-46.255	29.313	228.467	40.588	223.389	192.178	209.707	250.510	35.634	213.194	113.171	233.796	44.334	132.977	121.022	0.00029003	0.00043286	0.00012379	1476.7	4.859e-06	5.8986e-06	1474.4	393.81	4.0842e-06	4.4796e-06	449.31	148.88	125.92	44.786	4.4863e-06	55.187	0.0005729	0.00058369	0.00016192	1491.5	6.3498e-06	6.3868e-06	1488.1	399.75	6.3929e-06	6.4567e-06	454.04	152.3	128.36	45.905	6.4144e-06	56.523	-69.057	-75.722	-57.739	-92.574	57.643	0.250	-92.619	-87.921	65.232	61.651	-88.547	-83.792	-83.588	-79.136	42.656	-79.544	-8191	255	
1712.560	1	1	0	0	0.10444	0.26899	0.1252	0.23663	0.21226	0.08663	0.25713	0.43205	0.10224	0.070955	0.18126	0.090361	0.12372	0.20819	0.18049	0.28389	-1.9521	-2.5687	-2.2812	-2.8146	-2.5479	-2.3604	-3.1271	-2.6063	-2.5917	-2.7	-2.45	-2.7646	-2.8063	-2.4104	-2.8083	-2.4896	-62.342	173.396	150.568	251.502	52.327	-27.610	171.831	210.999	-6.587	-97.412	166.288	-84.162	-80.455	199.966	-102.511	-92.556	0.00028161	0.00071824	0.00014266	1473.7	5.5513e-06	3.905e-06	1473.6	392.97	3.8234e-06	5.9644e-06	446.63	149.22	125.01	44.747	2.9779e-06	55.283	0.00057108	0.00057586	0.00016013	1490.3	6.292e-06	6.3393e-06	1486.7	399.62	6.3347e-06	6.3554e-06	453.15	152.56	128.19	45.826	6.3782e-06	56.445	-58.058	-42.723	-42.513	-92.369	50.927	11.138	-92.521	-88.070	47.514	20.376	-88.682	-84.037	-83.554	-78.861	-13.572	-79.842	-8191	255	
1712.680	1	1	0	0	0.018565	0.13586	0.15936	0.1901	0.17328	0.2223	0.17566	0.32688	0.32563	0.15984	0.38649	0.52496	0.17	0.17885	0.089454	0.28309	-1.8625	-2.7646	-2.2604	-2.875	-2.6708	-2.2938	-2.9021	-2.525	-2.3063	-2.6479	-2.4271	-2.5229	-2.7375	-2.2292	-2.5792	-2.5646	-91.292	80.900	11.401	223.009	17.768	181.714	165.775	229.752	77.818	48.252	165.734	218.787	175.644	242.296	150.922	-65.350	0.0002679	0.00084862	0.00019736	1474.8	7.0181e-06	3.7477e-06	1471.2	392.51	1.1459e-06	4.5424e-06	447.47	149.7	124.71	45.106	2.5961e-06	55.164	0.00056836	0.00058167	0.00016111	1489.4	6.3355e-06	6.2845e-06	1486.3	399.22	6.3744e-06	6.3902e-06	453.7	152.32	127.75	45.937	6.4486e-06	56.409	-65.010	-63.005	-45.800	-92.320	20.284	43.140	-92.658	-87.815	91.332	13.319	-88.566	-83.804	-83.616	-79.108	-76.564	-79.885	-8191	255	
1712.777	1	1	0	0	0.14301	0.16579	0.1083	0.083295	0.2083	0.039021	0.20069	0.1629	0.088812	0.043073	0.40187	0.17385	0.57619	0.22232	0.26471	0.23883	-1.8813	-2.7646	-2.2854	-2.7812	-2.4958	-2.1312	-2.8729	-2.475	-2.3646	-2.8021	-2.3792	-2.6292	-2.8021	-2.2042	-2.5875	-2.6312	129.601	30.309	-27.929	209.556	130.785	238.822	238.383	206.303	227.794	201.880	179.571	195.254	204.082	137.117	167.453	227.660	0.00025206	0.00035554	0.00015065	1471.9	2.9215e-06	3.0452e-06	1472.6	394.57	5.5226e-06	4.1493e-06	447.5	148.68	125.24	44.695	2.9572e-06	54.961	0.00057939	0.00058183	0.00016182	1487	6.2892e-06	6.3027e-06	1484.9	399.7	6.2407e-06	6.3614e-06	453.38	152.19	128.01	45.812	6.2856e-06	56.36	-62.179	-4.326	-47.898	-92.627	76.796	-11.628	-92.586	-87.792	92.938	12.173	-88.500	-83.860	-83.710	-79.045	51.713	-79.638	-8191	255	
1712.873	1	1	0	0	0.38316	0.20544	0.10319	0.20501	0.074108	0.050018	0.24228	0.21945	0.11682	0.28926	0.1176	0.30451	0.31679	0.087875	0.22395	0.064801	-1.8062	-2.5604	-2.1417	-2.5417	-2.5563	-2.2458	-2.8146	-2.5625	-2.2229	-2.6958	-2.5333	-2.3708	-2.6417	-2.4146	-2.5812	-2.5229	-42.105	176.045	-62.554	175.676	125.705	197.788	197.336	172.137	76.884	129.664	35.722	180.404	208.272	-46.594	7.815	18.298	0.00030239	0.00023058	8.2581e-05	1474.7	6.4082e-06	6.3011e-06	1466.9	393.42	4.2354e-06	3.727e-06	448.17	148.62	124.78	44.635	7.3154e-06	54.98	0.00055931	0.00057073	0.00015886	1489.6	6.1749e-06	6.2408e-06	1485.1	398.91	6.3748e-06	6.2455e-06	452.99	151.97	127.78	45.721	6.3104e-06	56.367	-77.993	50.178	-45.706	-92.514	19.902	29.725	-92.607	-87.892	-15.844	71.901	-88.391	-83.855	-83.450	-79.205	72.390	-79.720	-8191	255	
1712.969	1	1	0	0	0.14376	0.099046	0.12689	0.24025	0.051476	0.26458	0.30447	0.14719	0.18806	0.11556	0.29366	0.24576	0.1532	0.21993	0.11118	0.13743	-1.7062	-2.6979	-2.5333	-2.3583	-2.6562	-2.225	-2.7687	-2.7687	-2.025	-2.8146	-2.5896	-2.4271	-2.7604	-2.4313	-2.4208	-2.7792	193.499	157.870	195.452	212.953	1.791	11.691	194.255	-78.206	82.537	84.272	193.477	234.206	154.226	236.079	158.196	-93.276	0.00025825	0.00070642	0.00012116	1475.5	2.3475e-06	5.2784e-06	1475.1	394.27	8.3008e-07	7.3128e-06	447.3	148.42	125.37	44.577	2.3282e-07	54.978	0.00055395	0.0005742	0.00015713	1488.2	6.1733e-06	6.2172e-06	1485.4	399.2	6.2056e-06	6.2769e-06	453.5	151.95	127.96	45.73	6.3403e-06	56.315	-67.614	-76.489	-16.633	-92.494	35.270	81.465	-92.427	-88.009	86.063	34.335	-88.533	-83.871	-83.568	-79.061	18.331	-79.706	-8191	255	
1713.088	1	1	0	0	0.22506	0.1192	0.13816	0.33837	0.14141	0.10766	0.18269	0.098272	0.11717	0.043741	0.033399	0.053941	0.22722	0.047432	0.1465	0.30035	-1.8396	-2.4396	-2.2396	-2.5312	-2.8521	-2.3417	-2.6708	-2.8521	-2.1833	-2.575	-2.6271	-2.3354	-2.8187	-2.5021	-2.4729	-2.7875	211.232	75.421	85.100	247.737	238.181	-13.242	176.945	-71.820	-86.232	62.652	9.601	222.197	0.389	222.503	249.067	245.519	0.00026093	0.00099471	0.0001316	1472.8	6.4918e-06	3.1663e-06	1470.2	394.3	3.6632e-06	5.1793e-06	446.96	148.65	125.69	44.613	6.03e-06	55.481	0.00056588	0.00057028	0.00016121	1488.7	6.3032e-06	6.3357e-06	1485.1	399.64	6.2755e-06	6.312e-06	453.8	151.92	128.04	45.743	6.2944e-06	56.416	-65.909	-41.432	-44.178	-92.504	13.108	31.619	-92.441	-87.852	22.790	16.123	-88.660	-83.797	-83.374	-79.181	67.935	-79.679	-8191	255	
1713.184	1	1	0	0	0.15202	0.30072	0.21982	0.34196	0.27085	0.077179	0.09512	0.19686	0.032079	0.39234	0.36882	0.052449	0.24673	0.081315	0.14037	0.11699	-1.7542	-2.4604	-2.5104	-2.35	-2.7167	-2.475	-2.6208	-2.9542	-2.25	-2.5521	-2.9208	-2.4396	-2.7938	-2.4667	-2.3646	-2.925	-4.007	87.494	-92.839	153.484	211.763	-72.566	87.971	-95.058	142.626	121.175	241.611	220.163	206.202	-86.929	146.656	240.343	0.00033887	0.00048627	0.00011218	1477.4	4.9793e-06	6.4412e-06	1475.8	392.12	1.3451e-06	8.157e-06	449.66	148.44	124.94	44.649	3.0699e-06	54.995	0.00057164	0.00057607	0.00016061	1489.3	6.3005e-06	6.3961e-06	1485.2	399.08	6.3199e-06	6.2826e-06	453.79	151.96	127.9	45.783	6.3486e-06	56.332	-65.637	-42.410	-27.583	-92.477	46.512	105.525	-92.807	-87.693	52.634	61.441	-88.479	-84.049	-83.557	-78.889	3.998	-79.693	-8191	255	
1713.256	1	1	0	0	0.33643	0.21016	0.15745	0.35131	0.31555	0.26603	0.38203	0.2342	0.21991	0.13468	0.24121	0.16681	0.066747	0.15705	0.23245	0.13618	-1.675	-2.5333	-2.5708	-2.2188	-2.4583	-2.5229	-2.5104	-2.9	-2.3104	-2.6167	-2.6542	-2.4271	-2.7625	-2.65	-2.2417	-2.7958	80.195	228.924	136.954	207.112	-63.087	-7.333	188.073	184.137	85.442	25.423	240.518	144.874	213.218	-92.246	170.960	204.763	0.00025366	0.00033203	0.00015816	1470.9	5.5933e-06	4.5833e-06	1471.7	393.49	1.3893e-06	1.8015e-06	447.54	148.93	125.65	44.879	5.5306e-06	55.088	0.00056152	0.00058129	0.00015883	1489.5	6.332e-06	6.3083e-06	1486.4	399.65	6.1635e-06	6.301e-06	452.75	152.05	128.07	45.844	6.2021e-06	56.276	-73.955	31.331	-20.942	-92.559	-14.811	11.524	-92.563	-87.959	17.402	161.268	-88.671	-83.730	-83.562	-79.182	4.297	-79.695	-8191	255	
1713.352	1	1	0	0	0.29794	0.24337	0.12778	0.4346	0.074479	0.12287	0.10257	0.21668	0.014269	0.05457	0.18051	0.16088	0.28654	0.090518	0.2046	0.062952	-1.9062	-2.375	-2.6771	-2.4667	-2.5938	-2.7521	-2.5542	-2.8708	-2.2729	-2.3625	-2.7396	-2.3812	-2.7313	-2.4437	-2.0271	-2.9688	-90.100	189.785	93.631	182.329	54.185	174.531	185.365	-77.455	53.647	243.395	167.821	249.009	224.199	87.910	-23.417	-29.227	0.00031039	0.00052208	8.1624e-05	1477.8	4.5852e-06	6.2474e-06	1471.8	393.85	4.3525e-06	2.9063e-06	448.46	148.6	125.4	44.764	3.3167e-06	55.079	0.00055268	0.00056121	0.00015426	1489.5	6.0284e-06	6.0687e-06	1485.6	399.28	6.0385e-06	6.0699e-06	454.12	151.94	128.03	45.766	6.0393e-06	56.322	-66.007	-24.604	-20.114	-92.577	18.453	70.150	-92.446	-87.926	53.455	128.928	-88.230	-83.846	-83.662	-79.023	53.031	-79.577	-8191	255	
1713.472	1	1	0	0	0.10426	0.26413	0.14264	0.27162	0.21921	0.17768	0.1268	0.26342	0.088816	0.14913	0.25345	0.13993	0.31053	0.090991	0.21603	0.25443	-1.9562	-2.4479	-2.5917	-2.4583	-2.5104	-2.6146	-2.475	-2.9021	-2.4562	-2.4958	-2.825	-2.4521	-2.6167	-2.8604	-2.3312	-2.7375	180.159	-56.109	239.435	182.413	173.824	154.040	250.896	206.596	171.811	197.444	171.816	209.734	249.473	191.182	187.846	250.881	0.00019165	0.00048239	0.0001381	1480.3	3.8104e-06	5.7576e-06	1468.4	394.02	4.2018e-06	2.5664e-06	448.34	148.84	125.42	44.711	6.5943e-06	55.357	0.00054621	0.00055362	0.00015311	1489.8	6.0133e-06	5.9626e-06	1483.4	399.55	6.0274e-06	6.0157e-06	453.96	152.05	127.88	45.846	6.0463e-06	56.438	-77.558	-30.021	3.137	-92.711	17.631	53.639	-92.355	-88.037	10.993	20.217	-88.741	-83.889	-83.398	-78.831	21.764	-79.626	-8191	255	
1713.569	1	1	0	0	0.10912	0.13681	0.108	0.13661	0.040099	0.2224	0.43709	0.24832	0.15727	0.20962	0.20041	0.14265	0.35499	0.30617	0.055299	0.24333	-1.9292	-2.3479	-2.7083	-2.5687	-2.5771	-2.7146	-2.4708	-2.7417	-2.6771	-2.4354	-2.6937	-2.4562	-2.5458	-2.9188	-2.3104	-2.6104	-33.661	29.451	72.875	213.973	-79.218	-7.720	209.027	174.143	176.002	-97.982	250.711	125.718	158.873	-82.578	-72.901	250.637	0.00027268	0.00073291	6.4651e-05	1473.1	7.736e-06	2.0182e-06	1469.9	395.63	3.566e-06	3.8544e-06	445.96	148.51	125.27	44.712	6.087e-06	55.033	0.00054944	0.00055717	0.00015322	1488.8	6.0454e-06	6.0985e-06	1483.5	399.45	6.0134e-06	6.0385e-06	452.83	151.95	127.88	45.743	6.0899e-06	56.309	-56.091	-46.644	-13.680	-92.847	56.746	-61.760	-92.721	-87.852	13.813	21.254	-88.317	-83.937	-83.498	-79.047	61.189	-79.653	-8191	255	
1713.665	1	1	0	0	0.04655	0.28164	0.19282	0.23778	0.088208	0.15041	0.10562	0.25202	0.27716	0.26516	0.2063	0.20048	0.089901	0.28634	0.094747	0.12322	-2.1646	-2.1458	-2.6063	-2.6625	-2.4896	-2.7021	-2.6708	-2.8958	-2.7854	-2.1917	-2.8667	-2.5625	-2.7083	-2.7979	-2.3958	-2.7062	-55.957	8.724	1.257	215.686	171.777	-83.848	215.734	202.652	76.501	110.268	174.656	251.295	123.976	126.735	124.545	210.032	0.00030819	0.00084858	0.0001922	1478.8	7.1501e-06	7.3721e-06	1469.2	391.86	4.8409e-06	3.0246e-06	448.05	148.41	125.3	44.738	5.039e-06	54.953	0.00054704	0.00054822	0.00015308	1490.2	6.0442e-06	6.0302e-06	1483.5	398.79	6.0473e-06	6.0118e-06	452.49	151.59	127.97	45.756	6.0434e-06	56.176	-59.000	-19.139	-36.161	-92.462	55.344	61.171	-92.522	-87.925	29.015	56.952	-88.651	-83.890	-83.811	-79.111	78.100	-79.696	-8191	255	
1713.761	1	1	0	0	0.16994	0.25444	0.27814	0.34747	0.17661	0.3469	0.11522	0.27861	0.1987	0.13805	0.11742	0.34716	0.062351	0.22665	0.062412	0.095715	-2.2604	-2.1688	-2.7667	-2.7625	-2.3729	-2.8042	-2.5125	-2.5958	-2.8292	-2.3563	-2.95	-2.5875	-2.5625	-2.7333	-2.4521	-2.575	-69.560	-19.994	61.137	205.443	89.663	123.899	148.129	199.477	43.583	192.035	241.654	252.415	-36.281	151.218	89.221	194.433	0.00035895	0.00027833	0.00016004	1473.4	6.2044e-06	6.9594e-06	1476.8	393.33	3.1404e-06	5.312e-06	446.18	148.7	124.98	44.617	3.6152e-06	55.153	0.00053608	0.00054531	0.0001512	1487.9	5.9141e-06	5.8586e-06	1484.7	398.81	5.903e-06	5.8955e-06	452.13	151.77	127.65	45.679	5.8346e-06	56.208	-74.389	-64.764	-35.823	-92.587	-18.812	-2.029	-92.536	-87.984	30.384	33.578	-88.445	-83.928	-83.571	-79.061	207.713	-79.447	-8191	255	
1713.857	1	1	0	0	0.23412	0.14193	0.32296	0.24482	0.17536	0.23269	0.2643	0.21022	0.19703	0.15565	0.22258	0.10796	0.078853	0.11658	0.17521	0.066706	-2.2229	-2.3625	-2.6958	-2.6875	-2.3396	-2.8063	-2.6688	-2.6083	-2.6729	-2.125	-2.6688	-2.7458	-2.4292	-2.8917	-2.4979	-2.5396	59.563	46.335	-57.731	220.420	123.553	-62.456	218.267	180.880	16.268	97.466	171.248	28.025	243.530	41.153	-80.159	19.107	0.00026311	0.00069661	0.00014522	1481.6	6.0745e-06	8.1212e-06	1471.1	393.39	3.4322e-06	6.0608e-06	446.92	148.76	125.14	44.596	3.3802e-06	55.065	0.00052439	0.00052924	0.00014869	1489.5	5.8377e-06	5.7163e-06	1484.3	398.66	5.7384e-06	5.839e-06	452.93	151.84	127.74	45.632	5.7733e-06	56.277	-59.052	-42.286	-46.930	-92.551	6.791	58.427	-92.451	-87.820	-5.782	105.219	-88.528	-83.821	-83.614	-79.091	34.314	-79.746	-8191	255	
1713.953	1	1	0	0	0.13383	0.11942	0.11452	0.22845	0.12863	0.15424	0.30003	0.22931	0.41255	0.096598	0.15731	0.11035	0.2444	0.1637	0.13217	0.13214	-2.3167	-2.0125	-2.6583	-2.7146	-2.3542	-2.6167	-2.6	-2.3063	-2.7417	-2.3646	-2.7479	-2.7958	-2.3375	-2.8021	-2.3063	-2.4521	108.143	19.333	142.274	-105.571	252.129	208.094	209.971	231.200	114.830	-49.167	167.157	-70.282	227.825	223.162	76.489	192.848	0.00028256	0.00057033	0.00013058	1478.6	2.6372e-06	4.5548e-06	1468.8	393.74	1.0744e-06	8.1951e-06	446.08	148.8	124.52	44.543	4.9641e-06	55.152	0.000528	0.0005339	0.0001477	1489.3	5.7784e-06	5.8e-06	1483	398.68	5.7442e-06	5.796e-06	451.95	151.54	127.46	45.606	5.7885e-06	56.278	-81.385	-44.328	-32.512	-92.461	83.188	35.188	-92.545	-87.969	185.420	67.059	-88.501	-83.793	-83.671	-79.124	26.462	-80.066	-8191	255	
1714.049	1	1	0	0	0.26836	0.15706	0.030515	0.091422	0.10867	0.11529	0.36098	0.45877	0.21988	0.10584	0.10906	0.17527	0.34723	0.29057	0.29737	0.13766	-2.1667	-2.1583	-2.5917	-2.7396	-2.1729	-2.5583	-2.6896	-2.3667	-2.775	-2.4104	-2.4417	-2.8063	-2.3812	-2.8583	-2.6833	-2.3833	60.453	247.574	-53.579	243.135	113.814	-55.763	194.418	167.858	68.390	27.210	-72.667	154.027	-101.168	201.837	234.285	204.322	0.00033459	0.00056883	0.00022612	1473.5	5.5563e-06	4.657e-06	1474.1	393.69	6.4317e-06	3.4077e-06	447.56	148.58	125.39	44.797	6.0695e-06	54.818	0.00052072	0.00052887	0.00014664	1487.7	5.6894e-06	5.8441e-06	1485	398.96	5.7092e-06	5.7787e-06	453.07	151.64	127.7	45.716	5.7653e-06	56.14	-68.040	-52.331	10.438	-92.581	94.214	44.190	-92.512	-88.058	51.063	0.053	-88.756	-83.849	-83.423	-79.154	20.421	-79.461	-8191	255	
1714.168	1	1	0	0	0.22677	0.16659	0.18963	0.21621	0.10745	0.26344	0.63663	0.11999	0.017731	0.21432	0.36509	0.23744	0.20359	0.25307	0.054902	0.01694	-2.3708	-2.1792	-2.5021	-2.8563	-2.2521	-2.6354	-2.8812	-2.5021	-2.7167	-2.3125	-2.5708	-2.8312	-2.4354	-2.5646	-2.6875	-2.5583	228.009	39.387	203.542	238.735	214.368	-69.573	169.739	-59.430	200.222	201.010	233.434	230.374	238.431	201.091	178.284	148.587	0.00023715	0.00056919	7.579e-05	1471.2	4.326e-06	3.3487e-06	1470.9	392.76	2.8287e-06	3.1518e-06	447.57	147.96	124.63	44.613	3.808e-06	55.107	0.00052519	0.00052001	0.00014494	1486.7	5.6977e-06	5.7263e-06	1482.3	398.69	5.6957e-06	5.662e-06	452.81	151.2	127.3	45.661	5.6569e-06	56.144	-84.674	-74.379	-67.833	-92.615	94.951	-30.532	-92.396	-87.779	41.934	-4.616	-88.334	-83.820	-83.673	-79.106	104.039	-79.859	-8191	255	
1714.264	1	1	0	0	0.15773	0.03919	0.088882	0.13969	0.071018	0.18645	0.20977	0.089962	0.23171	0.29264	0.27237	0.19554	0.18093	0.19473	0.17124	0.1048	-2.2208	-2.4771	-2.1458	-2.8792	-2.3396	-2.6896	-2.8333	-2.5854	-2.8375	-2.5187	-2.3354	-2.875	-2.6896	-2.6854	-2.8937	-2.4854	39.380	-9.197	54.934	216.128	153.428	137.194	226.960	164.066	134.928	-95.699	134.547	194.985	188.567	-84.134	47.200	195.102	0.00022068	0.00033534	0.00013892	1477.1	5.5252e-06	2.338e-06	1475.2	393.87	2.7904e-06	9.3902e-06	447.65	149.47	124.52	44.567	5.1419e-06	55.084	0.00051239	0.00051335	0.0001436	1487.9	5.5994e-06	5.6564e-06	1484.7	398.41	5.6417e-06	5.6105e-06	451.9	151.86	127.28	45.542	5.6308e-06	56.185	-70.765	9.409	-49.672	-92.613	46.681	22.909	-92.756	-87.877	2.431	49.780	-88.501	-83.901	-83.691	-79.114	79.668	-79.660	-8191	255	
1714.360	1	1	0	0	0.089786	0.11982	0.070808	0.35885	0.053561	0.035443	0.17712	0.10948	0.099767	0.036067	0.30398	0.057211	0.15519	0.088508	0.02229	0.073603	-2.3146	-2.7771	-2.3063	-2.8812	-2.2354	-2.5062	-2.9604	-2.5333	-2.6396	-2.3833	-2.425	-2.8875	-2.5458	-2.5229	-2.5792	-2.4562	14.649	45.767	40.836	228.415	-92.303	226.242	196.600	245.856	171.731	78.668	-79.869	127.906	228.682	99.850	99.045	-80.331	0.00027486	0.00043262	0.00019051	1473.9	8.9439e-07	7.644e-06	1465.7	391.99	3.8534e-06	7.7578e-06	446.73	148.19	124.47	44.587	8.4843e-07	55.136	0.00050537	0.00051717	0.0001412	1487.1	5.5783e-06	5.5775e-06	1480.9	398.42	5.5887e-06	5.646e-06	452.27	151.06	127.22	45.553	5.5338e-06	56.137	-69.078	-30.707	8.344	-92.552	0.396	31.552	-92.468	-88.058	67.935	79.340	-88.499	-83.711	-83.352	-79.088	50.860	-79.666	-8191	255	
1714.457	1	1	0	0	0.088507	0.26674	0.30707	0.093043	0.046443	0.17502	0.34474	0.41312	0.14195	0.10925	0.21033	0.08656	0.16962	0.074256	0.01695	0.30873	-2.2479	-2.4979	-2.1583	-2.9354	-2.3854	-2.4646	-2.9729	-2.5771	-2.7333	-2.6458	-2.4896	-2.8229	-2.7083	-2.5375	-2.8042	-2.3604	193.791	142.665	-10.621	225.337	-56.022	-5.443	190.265	188.898	38.319	178.189	130.419	244.163	219.477	42.554	160.390	186.146	0.00036206	0.00025252	6.7678e-05	1475.7	3.2797e-06	3.6541e-06	1473.6	392.38	2.6895e-06	3.1887e-06	448.39	149.04	125.12	44.692	4.7236e-06	54.971	0.00049768	0.00050304	0.00014093	1486.6	5.4819e-06	5.4749e-06	1483	397.86	5.4724e-06	5.4409e-06	452.07	151.58	127.2	45.611	5.4982e-06	56.026	-64.708	-33.786	-26.543	-92.517	15.723	30.899	-92.644	-87.700	58.568	83.978	-88.597	-83.872	-83.591	-79.219	47.699	-79.660	-8191	255	
1714.553	1	1	0	0	0.02402	0.10135	0.19109	0.29931	0.22757	0.15573	0.26477	0.29537	0.17048	0.10515	0.066826	0.21334	0.22812	0.11448	0.17917	0.21197	-2.15	-2.6437	-2.1792	-2.7271	-2.5917	-2.3208	-2.8792	-2.5229	-2.5625	-2.6375	-2.3625	-2.6479	-2.7042	-2.4896	-2.7542	-2.5167	60.621	175.972	150.656	190.035	-69.827	-0.330	181.126	187.568	25.939	5.812	170.691	-46.013	210.041	48.946	47.115	237.808	0.00026164	0.00075378	0.00014998	1475.6	8.6963e-06	2.4939e-06	1473.7	393.32	4.696e-06	2.4784e-06	446.01	148.69	124.9	44.529	3.9915e-06	54.836	0.0004917	0.00049898	0.00013693	1485.8	5.394e-06	5.4003e-06	1481	398.61	5.3654e-06	5.3799e-06	451.45	151.29	127.24	45.524	5.3841e-06	55.972	-67.950	-20.997	-52.612	-92.526	4.699	30.733	-92.612	-87.923	42.686	135.989	-88.406	-83.994	-83.550	-79.083	-32.819	-79.754	-8191	255	
1714.649	1	1	0	0	0.10616	0.094472	0.17366	0.13589	0.14162	0.031022	0.27499	0.17519	0.2139	0.15156	0.3006	0.2032	0.070182	0.21033	0.23129	0.4183	-2.0563	-2.6562	-2.3146	-2.8417	-2.4313	-2.3229	-2.9667	-2.7146	-2.5396	-2.6771	-2.5521	-2.9125	-2.8458	-2.5521	-2.7167	-2.8	30.051	-81.538	202.573	-99.238	33.557	219.399	120.178	203.660	-98.635	-76.398	205.162	120.573	-5.680	161.669	69.843	149.192	0.00031686	0.00034737	6.2873e-05	1471.7	4.6914e-06	4.9881e-06	1470.2	392.6	1.4055e-06	6.4311e-06	447.59	148.83	125.02	44.715	4.6259e-06	54.864	0.00049442	0.00049348	0.0001348	1485.5	5.3809e-06	5.4032e-06	1482.1	398.36	5.3855e-06	5.3993e-06	451.43	151.21	127.08	45.575	5.3623e-06	56.067	-66.389	-93.113	-69.713	-92.620	78.862	40.937	-92.608	-88.023	135.326	60.036	-88.432	-83.722	-83.450	-78.955	-5.449	-79.481	-8191	255	
1714.770	1	1	0	0	0.055901	0.17806	0.10671	0.06178	0.18296	0.14489	0.036286	0.3602	0.05707	0.1314	0.099689	0.39304	0.16342	0.17213	0.24474	0.19882	-2.1458	-2.7542	-2.3104	-2.9125	-2.7625	-2.3625	-3	-2.7083	-2.4062	-2.8167	-2.3583	-2.725	-2.7521	-2.3708	-2.75	-2.5646	87.130	123.522	163.093	142.152	245.683	165.635	73.104	246.300	237.727	222.135	219.227	-79.099	188.068	-79.658	-42.878	154.490	0.00024675	0.00067082	0.00024584	1475.3	4.6392e-06	5.2428e-06	1473.2	393.35	3.7339e-06	5.6157e-06	446.5	148.1	124.97	44.688	2.9812e-06	54.756	0.0004915	0.00049281	0.00013781	1487.6	5.386e-06	5.4264e-06	1484.1	397.94	5.5373e-06	5.4444e-06	452.47	151.35	127.7	45.634	5.5401e-06	56.031	-65.793	-46.052	-42.383	-92.599	50.194	65.690	-92.638	-87.952	-8.549	32.294	-88.351	-83.822	-83.269	-79.190	106.855	-79.807	-8191	255	
1714.866	1	1	0	0	0.23165	0.14248	0.18958	0.36708	0.19646	0.058208	0.1599	0.10805	0.13311	0.093146	0.22858	0.19358	0.25709	0.23527	0.11371	0.28179	-1.9667	-2.825	-2.4042	-2.6542	-2.8125	-2.0438	-2.8792	-2.7083	-2.4	-2.7188	-2.5229	-2.5625	-2.7062	-2.4208	-2.6729	-2.6042	40.768	194.514	-104.166	244.087	238.841	56.687	180.466	189.895	-46.482	242.079	213.326	-41.585	251.022	-100.521	-95.350	237.047	0.00026442	0.00050743	0.00015404	1474.9	6.4732e-06	3.1688e-06	1472.6	393.35	2.0082e-06	2.7518e-06	446.63	148	125.18	44.455	3.682e-06	55.023	0.00049932	0.00050093	0.00014012	1488.1	5.5779e-06	5.5828e-06	1482.3	398.47	5.5226e-06	5.6589e-06	451.53	151.16	127.43	45.469	5.6244e-06	56.155	-61.292	-55.214	-0.149	-92.514	37.535	67.238	-92.489	-87.889	71.895	-14.644	-88.263	-83.822	-83.514	-79.345	233.579	-79.552	-8191	255	
#DATA ENDS
