BOXY.EXE: ISS Imagent and Oximeter Data Acquisition Program Version 0.80
Ascii Record File

#ACQ INFORMATION
2  Detector Channels 
16  External MUX Channels 
1  Auxiliary Channels 
5000  Waveform (CCF) Frequency (Hz)
1  Waveforms Skipped 
30  Waveforms Averaged 
1  Cycles Averaged 
16  Acquisitions per Waveform 
10.0806  Updata Rate (Hz) 

#FILE INFORMATION
TRUE -- External MUX Channel results are PARSED.
FALSE -- AC DC and Phase are NOT grouped.
TRUE -- Companion Program Settings File CREATED.
FALSE -- AC data not excluded
FALSE -- DC data not excluded
FALSE -- Phase data not excluded
FALSE -- Auxillary Chn. data not excluded
Tab delimiters

#CALIBRATION STATE
TRUE -- Waveform Calibration Values APPLIED.


#AUX CALIBRATION VALUES
Val Type	aux-1	

Term	1.0000e+00	
Factor	0.0000e+00	


#WF CALIBRATION VALUES
A = Detector Channel
Val Type	A-AC1	A-AC2	A-AC3	A-AC4	A-AC5	A-AC6	A-AC7	A-AC8	A-AC9	A-AC10	A-AC11	A-AC12	A-AC13	A-AC14	A-AC15	A-AC16	A-DC1	A-DC2	A-DC3	A-DC4	A-DC5	A-DC6	A-DC7	A-DC8	A-DC9	A-DC10	A-DC11	A-DC12	A-DC13	A-DC14	A-DC15	A-DC16	A-Ph1	A-Ph2	A-Ph3	A-Ph4	A-Ph5	A-Ph6	A-Ph7	A-Ph8	A-Ph9	A-Ph10	A-Ph11	A-Ph12	A-Ph13	A-Ph14	A-Ph15	A-Ph16	

Term	0.00000e+00	0.00000e+00	0.00000e+00	0.00000e+00	0.00000e+00	0.00000e+00	0.00000e+00	0.00000e+00	0.00000e+00	0.00000e+00	0.00000e+00	0.00000e+00	0.00000e+00	0.00000e+00	0.00000e+00	0.00000e+00	0.00000e+00	0.00000e+00	0.00000e+00	0.00000e+00	0.00000e+00	0.00000e+00	0.00000e+00	0.00000e+00	0.00000e+00	0.00000e+00	0.00000e+00	0.00000e+00	0.00000e+00	0.00000e+00	0.00000e+00	0.00000e+00	0.00000e+00	0.00000e+00	0.00000e+00	0.00000e+00	0.00000e+00	0.00000e+00	0.00000e+00	0.00000e+00	0.00000e+00	0.00000e+00	0.00000e+00	0.00000e+00	0.00000e+00	0.00000e+00	0.00000e+00	0.00000e+00	
Factor	1.00000e+00	1.00000e+00	1.00000e+00	1.00000e+00	1.00000e+00	1.00000e+00	1.00000e+00	1.00000e+00	1.00000e+00	1.00000e+00	1.00000e+00	1.00000e+00	1.00000e+00	1.00000e+00	1.00000e+00	1.00000e+00	1.00000e+00	1.00000e+00	1.00000e+00	1.00000e+00	1.00000e+00	1.00000e+00	1.00000e+00	1.00000e+00	1.00000e+00	1.00000e+00	1.00000e+00	1.00000e+00	1.00000e+00	1.00000e+00	1.00000e+00	1.00000e+00	X	X	X	X	X	X	X	X	X	X	X	X	X	X	X	X	

B = Detector Channel
Val Type	B-AC1	B-AC2	B-AC3	B-AC4	B-AC5	B-AC6	B-AC7	B-AC8	B-AC9	B-AC10	B-AC11	B-AC12	B-AC13	B-AC14	B-AC15	B-AC16	B-DC1	B-DC2	B-DC3	B-DC4	B-DC5	B-DC6	B-DC7	B-DC8	B-DC9	B-DC10	B-DC11	B-DC12	B-DC13	B-DC14	B-DC15	B-DC16	B-Ph1	B-Ph2	B-Ph3	B-Ph4	B-Ph5	B-Ph6	B-Ph7	B-Ph8	B-Ph9	B-Ph10	B-Ph11	B-Ph12	B-Ph13	B-Ph14	B-Ph15	B-Ph16	

Term	0.00000e+00	0.00000e+00	0.00000e+00	0.00000e+00	0.00000e+00	0.00000e+00	0.00000e+00	0.00000e+00	0.00000e+00	0.00000e+00	0.00000e+00	0.00000e+00	0.00000e+00	0.00000e+00	0.00000e+00	0.00000e+00	0.00000e+00	0.00000e+00	0.00000e+00	0.00000e+00	0.00000e+00	0.00000e+00	0.00000e+00	0.00000e+00	0.00000e+00	0.00000e+00	0.00000e+00	0.00000e+00	0.00000e+00	0.00000e+00	0.00000e+00	0.00000e+00	-3.63263e+01	-1.44616e+02	-1.36455e+02	-1.83436e+02	-6.47196e+01	-8.14628e+01	-1.60695e+02	-1.62015e+02	-4.27404e+01	-5.87643e+01	-1.72707e+02	-1.72386e+02	-1.83401e+02	-1.78286e+02	-6.56670e+01	-1.51169e+02	
Factor	2.16242e-05	1.40199e-04	3.24853e-05	1.48686e-01	1.47159e-06	1.31807e-06	1.62454e-01	5.10240e-02	1.11014e-06	1.35182e-06	7.91605e-02	2.65441e-02	2.35584e-02	8.15133e-03	1.44641e-06	1.17866e-02	2.30442e-06	2.49268e-06	6.93736e-07	7.79555e-02	2.69482e-08	2.73278e-08	7.97935e-02	2.67642e-02	2.70149e-08	2.74240e-08	4.00788e-02	1.34491e-02	1.24290e-02	4.29815e-03	2.72636e-08	5.99323e-03	X	X	X	X	X	X	X	X	X	X	X	X	X	X	X	X	



#DISTANCE SETTINGS
A = Detector Channel
A-1	A-2	A-3	A-4	A-5	A-6	A-7	A-8	A-9	A-10	A-11	A-12	A-13	A-14	A-15	A-16	

2.5000e+00	3.0000e+00	2.5000e+00	3.0000e+00	2.0000e+00	3.0000e+00	1.5000e+00	3.0000e+00	3.0000e+00	3.0000e+00	3.0000e+00	3.0000e+00	3.0000e+00	3.0000e+00	1.5000e+00	3.0000e+00	

B = Detector Channel
B-1	B-2	B-3	B-4	B-5	B-6	B-7	B-8	B-9	B-10	B-11	B-12	B-13	B-14	B-15	B-16	

1.0000e+01	1.0000e+01	1.0000e+01	1.4400e+00	1.0000e+01	1.0000e+01	1.5100e+00	1.9400e+00	1.0000e+01	1.0000e+01	1.9900e+00	2.4900e+00	2.4100e+00	2.9000e+00	1.0000e+01	2.9800e+00	




#DATA BEGINS
time	group	step	mark	flag	A-AC1	A-AC2	A-AC3	A-AC4	A-AC5	A-AC6	A-AC7	A-AC8	A-AC9	A-AC10	A-AC11	A-AC12	A-AC13	A-AC14	A-AC15	A-AC16	A-DC1	A-DC2	A-DC3	A-DC4	A-DC5	A-DC6	A-DC7	A-DC8	A-DC9	A-DC10	A-DC11	A-DC12	A-DC13	A-DC14	A-DC15	A-DC16	A-Ph1	A-Ph2	A-Ph3	A-Ph4	A-Ph5	A-Ph6	A-Ph7	A-Ph8	A-Ph9	A-Ph10	A-Ph11	A-Ph12	A-Ph13	A-Ph14	A-Ph15	A-Ph16	B-AC1	B-AC2	B-AC3	B-AC4	B-AC5	B-AC6	B-AC7	B-AC8	B-AC9	B-AC10	B-AC11	B-AC12	B-AC13	B-AC14	B-AC15	B-AC16	B-DC1	B-DC2	B-DC3	B-DC4	B-DC5	B-DC6	B-DC7	B-DC8	B-DC9	B-DC10	B-DC11	B-DC12	B-DC13	B-DC14	B-DC15	B-DC16	B-Ph1	B-Ph2	B-Ph3	B-Ph4	B-Ph5	B-Ph6	B-Ph7	B-Ph8	B-Ph9	B-Ph10	B-Ph11	B-Ph12	B-Ph13	B-Ph14	B-Ph15	B-Ph16	aux-1	digaux	

1950.303	1	1	0	512	0.10061	0.059498	0.1802	0.077868	0.2147	0.15565	0.30389	0.20056	0.27108	0.11618	0.062751	0.4878	0.28125	0.12822	0.06832	0.11314	-2.2271	-2.5479	-2.7729	-2.6875	-2.5896	-2.8083	-2.4979	-2.6958	-2.5938	-2.3479	-2.8521	-2.6188	-2.7667	-2.7646	-2.4646	-2.8646	171.332	141.670	29.451	86.332	-31.159	177.430	244.970	79.391	217.400	-1.975	-32.497	-56.885	-11.753	-64.975	-4.832	169.568	0.00021576	0.00029811	8.4006e-05	481.14	3.8453e-06	3.5921e-06	688.41	123.93	9.4681e-07	2.9822e-06	274.63	121.53	41.424	20.858	2.0545e-06	67.101	8.2796e-05	6.1398e-05	1.7228e-05	427.59	6.9521e-07	6.348e-07	613.76	111.01	6.5162e-07	6.3007e-07	243.17	108.25	37.338	18.379	6.5825e-07	59.412	271.507	29.162	-21.998	-69.416	95.947	57.846	-68.538	-64.178	81.430	74.419	-64.472	-59.907	-59.821	-55.809	75.965	-57.153	-8191	255	
1950.399	1	1	0	0	0.068753	0.17541	0.27247	0.015978	0.34021	0.17618	0.18153	0.16419	0.27615	0.23649	0.063429	0.18477	0.12421	0.21705	0.25198	0.30394	-2.4292	-2.5208	-2.9708	-2.5042	-2.5854	-2.85	-2.4292	-2.8583	-2.6667	-2.2875	-2.9375	-2.7292	-2.5938	-2.8646	-2.4625	-2.8146	264.524	39.506	182.070	146.951	215.552	166.621	179.800	270.621	200.706	139.990	275.325	17.289	231.451	227.315	84.590	168.306	0.00023382	0.00041143	2.4197e-05	481.22	7.2119e-07	1.6637e-06	695.87	124.71	2.5378e-06	5.9068e-06	275.37	121.3	41.503	20.637	3.5138e-06	66.618	8.6877e-05	5.6537e-05	1.7745e-05	430.58	7.0722e-07	6.3617e-07	615.82	111.18	6.4988e-07	6.4463e-07	244.07	108.91	37.446	18.437	6.2161e-07	59.324	252.654	7.672	-35.705	-68.773	159.649	15.306	-68.379	-64.075	71.942	105.679	-64.442	-59.732	-60.316	-56.196	71.838	-57.108	-8191	255	
1950.495	1	1	0	0	0.067155	0.13652	0.097927	0.14506	0.14791	0.026171	0.094143	0.14059	0.31312	0.080694	0.14991	0.2245	0.070273	0.16742	0.16922	0.24682	-2.3917	-2.4229	-2.7	-2.4708	-2.6042	-2.9167	-2.3875	-2.6583	-2.675	-2.4625	-2.8292	-2.7167	-2.5167	-2.8729	-2.5458	-2.7438	-67.612	3.758	-50.312	206.426	116.766	213.141	149.474	207.587	148.916	159.524	141.989	-59.167	162.709	134.550	-6.996	198.331	0.00020308	0.00047235	5.9246e-05	486.2	4.6078e-06	3.5366e-06	692.13	123.38	2.6886e-06	1.7623e-06	273.6	119.43	41.602	20.533	2.2889e-06	66.359	9.0348e-05	6.1356e-05	1.706e-05	429.97	7.0778e-07	6.783e-07	612.89	110.2	6.8275e-07	6.3652e-07	241.98	107.13	37.298	18.223	6.662e-07	58.87	276.266	-11.728	28.008	-69.568	67.659	9.933	-68.225	-63.823	50.072	73.410	-64.128	-59.778	-59.787	-56.211	108.990	-57.186	-8191	255	
1950.614	1	1	0	0	0.059517	0.11797	0.21857	0.049369	0.027528	0.2239	0.064829	0.13297	0.091077	0.18086	0.21689	0.054619	0.080808	0.099455	0.20519	0.13668	-2.2792	-2.35	-2.8563	-2.7146	-2.4021	-2.8875	-2.7542	-2.6479	-2.9313	-2.5229	-2.8583	-2.825	-2.4771	-2.8583	-2.6562	-2.6604	-36.518	266.974	187.363	93.896	173.674	277.611	-21.732	86.419	141.047	-39.818	247.450	-20.409	-23.870	-12.386	129.688	-63.264	0.00025508	0.00048439	0.00016105	482.97	3.2838e-06	1.3227e-06	687.45	124.36	3.6112e-06	4.8268e-06	274.16	122.73	41.824	20.676	2.2925e-06	66.225	8.7726e-05	6.1896e-05	1.8618e-05	429.26	6.5074e-07	6.8058e-07	612.27	110.77	6.6434e-07	6.4526e-07	243.51	108.7	37.663	18.393	6.6654e-07	58.881	-81.773	-9.670	29.250	-68.966	69.108	72.496	-67.975	-64.044	132.195	61.391	-64.144	-59.737	-59.954	-56.046	102.894	-57.162	-8191	255	
1950.685	1	1	0	0	0.14604	0.14415	0.3034	0.019258	0.090456	0.15305	0.24781	0.1287	0.16931	0.18811	0.17426	0.16978	0.032687	0.056874	0.16959	0.15234	-2.5271	-2.3438	-2.5667	-2.9021	-2.5521	-2.9417	-2.8688	-2.5604	-2.85	-2.5229	-2.7917	-2.9292	-2.5438	-2.7438	-2.6229	-2.6833	112.154	-31.046	-26.771	131.413	-43.792	73.892	178.755	172.220	-68.863	181.433	201.634	38.892	87.409	47.827	251.544	253.628	0.00027859	0.00066497	5.2315e-05	483.51	3.0939e-06	2.9835e-06	693.38	124.43	3.4024e-06	3.1994e-06	273.2	120.58	41.539	20.533	5.8422e-06	65.918	9.4558e-05	6.321e-05	1.7588e-05	429.62	6.9942e-07	7.0056e-07	616.22	111.29	7.8107e-07	6.9211e-07	242.82	107.79	37.368	18.274	6.7551e-07	58.611	274.625	-22.204	42.545	-69.231	62.366	38.891	-68.055	-64.167	135.759	55.531	-63.904	-59.614	-60.015	-55.908	78.614	-57.283	-8191	255	
1950.783	1	1	0	0	0.065683	0.13372	0.30767	0.12274	0.096416	0.15135	0.20102	0.12128	0.2149	0.22082	0.30204	0.25369	0.0057915	0.10946	0.12619	0.054334	-2.2542	-2.3875	-2.7208	-2.9146	-2.3458	-2.7	-2.7604	-2.4562	-2.9167	-2.6292	-2.6458	-3.0812	-2.2354	-2.6708	-2.6437	-2.5438	171.305	183.276	166.004	-25.310	29.072	108.419	-64.587	182.843	42.684	105.558	215.470	-61.958	-44.807	141.491	149.455	216.646	0.00022692	0.00036032	9.4735e-05	485.6	3.2596e-06	3.6362e-06	692.44	125.21	2.7513e-06	1.3279e-06	272.28	118.8	41.561	20.192	2.6445e-06	64.703	9.4553e-05	6.4586e-05	1.8394e-05	431.85	7.1188e-07	7.2151e-07	616.23	111.47	6.9828e-07	6.3058e-07	240.77	106.25	37.001	17.896	6.6887e-07	57.359	272.677	-0.477	0.628	-68.950	65.310	30.236	-68.462	-64.268	109.343	94.053	-64.277	-59.513	-60.100	-56.332	110.568	-57.156	-8191	255	
1950.902	1	1	0	0	0.087294	0.13551	0.078295	0.040297	0.15267	0.069985	0.11236	0.10381	0.27765	0.10395	0.05402	0.1899	0.2382	0.11829	0.064905	0.19266	-2.4188	-2.5208	-2.4958	-2.8229	-2.4	-2.8604	-2.6937	-2.5646	-2.9104	-2.4958	-2.6604	-2.8667	-2.4354	-2.5854	-2.7146	-2.4771	116.026	234.699	133.995	2.978	-22.882	274.616	218.366	183.505	46.348	243.646	32.534	258.138	60.998	71.202	-49.349	-15.583	0.00020103	0.00037954	4.5407e-05	481.87	1.8999e-06	3.8411e-06	687.9	123.14	3.2181e-06	2.3946e-06	269.62	117.86	40.691	19.817	8.7879e-07	65.074	9.0785e-05	5.7077e-05	1.7306e-05	429.05	6.2772e-07	6.9515e-07	609.06	109.83	6.8736e-07	6.5698e-07	239.3	105.49	36.642	17.84	6.5319e-07	57.788	-75.228	17.794	22.972	-68.843	67.145	43.377	-68.359	-64.099	90.176	115.156	-64.350	-59.676	-59.552	-56.225	-72.826	-57.815	-8191	255	
1950.998	1	1	0	0	0.28954	0.14177	0.11699	0.13311	0.23622	0.062669	0.11144	0.37249	0.045778	0.10117	0.082614	0.36801	0.096814	0.22756	0.20681	0.14982	-2.4542	-2.5021	-2.4917	-2.9125	-2.5458	-2.6729	-2.825	-2.3125	-2.8458	-2.8167	-2.6521	-3.0396	-2.5479	-2.6667	-2.775	-2.5187	-17.586	-44.892	-45.231	231.487	-75.113	80.839	111.624	276.012	257.876	-80.155	169.635	272.663	-56.388	190.389	63.599	231.514	0.00023091	0.00047958	6.5269e-05	481.38	2.5581e-06	4.3759e-06	688.17	124.39	3.2227e-06	3.5757e-06	268.67	118.72	40.696	20.095	5.1217e-06	65.018	9.186e-05	5.7892e-05	1.7867e-05	428.14	6.467e-07	6.6389e-07	611.61	110.42	6.9017e-07	6.6286e-07	239.72	105.83	36.584	17.918	6.5921e-07	57.817	-75.748	35.473	-45.048	-69.246	97.449	46.603	-68.371	-63.856	106.208	72.714	-64.553	-59.635	-60.378	-56.134	39.837	-57.011	-8191	255	
1951.095	1	1	0	0	0.24703	0.13583	0.15468	0.17829	0.22734	0.10805	0.18161	0.36773	0.12874	0.08159	0.076343	0.23408	0.095332	0.26347	0.17822	0.087746	-2.2854	-2.5	-2.3187	-2.9271	-2.3958	-2.7208	-3.0187	-2.3812	-2.5667	-2.7667	-2.4938	-2.8417	-2.6542	-2.6	-2.8104	-2.5604	12.578	43.161	204.828	-13.470	182.582	162.551	273.574	166.966	230.799	33.524	146.251	223.309	1.830	-24.043	36.316	190.487	0.00020262	0.0003733	0.000104	482.84	6.3532e-06	3.7875e-06	684.25	124.17	3.8881e-06	2.4657e-06	271.49	119.22	41.064	20.075	2.2557e-06	65.062	9.1423e-05	5.6423e-05	1.6518e-05	429.6	6.3519e-07	6.5342e-07	611.51	110.55	6.8168e-07	5.9996e-07	240.94	106.66	36.812	18.038	6.7807e-07	57.969	-76.862	3.670	25.107	-69.035	81.495	37.627	-68.003	-64.456	117.689	84.733	-64.053	-60.198	-59.889	-56.054	59.158	-57.347	-8191	255	
1951.215	1	1	0	0	0.28946	0.16173	0.13101	0.2479	0.16976	0.10739	0.090838	0.16199	0.01959	0.21599	0.13578	0.042027	0.12954	0.14243	0.25018	0.084787	-2.3125	-2.6458	-2.4833	-3.0042	-2.5042	-2.5854	-2.925	-2.6188	-2.7812	-2.8812	-2.5104	-3.0271	-2.425	-2.5854	-2.9104	-2.5771	-26.938	90.289	108.530	241.023	187.879	61.050	147.442	208.887	70.337	259.654	239.623	46.449	-27.317	-34.195	181.024	-54.747	0.00017951	0.00034685	0.00011219	483.65	3.3874e-06	3.2289e-06	685.11	124.06	3.994e-06	3.1119e-06	267.53	118.2	40.971	19.99	4.2906e-06	64.795	8.8389e-05	5.6989e-05	1.6083e-05	428.7	6.5866e-07	6.3167e-07	607.75	109.79	6.7729e-07	6.0418e-07	238.34	105.49	36.688	17.867	6.6075e-07	57.721	-80.951	-24.968	1.537	-69.051	92.110	36.917	-68.107	-64.231	97.741	70.423	-64.347	-59.639	-60.079	-55.985	53.418	-57.244	-8191	255	
1951.287	1	1	0	0	0.12958	0.12131	0.096864	0.09534	0.11854	0.24923	0.093346	0.13754	0.079276	0.14673	0.24217	0.13399	0.22243	0.21155	0.21785	0.31226	-2.2313	-2.8229	-2.45	-2.8875	-2.8417	-2.5583	-3.0062	-2.5229	-2.8583	-2.8229	-2.3542	-2.7875	-2.6854	-2.5833	-2.7625	-2.5729	159.362	-44.393	59.037	145.512	161.713	205.230	112.499	185.250	-10.611	-71.468	263.333	18.853	129.870	184.998	101.643	34.879	0.0002355	0.00023717	7.7923e-05	477.69	2.7113e-06	3.1822e-06	682.67	123.9	4.1782e-06	3.4992e-06	270.56	119.75	41.014	20.093	3.9593e-06	65.537	9.0871e-05	5.9456e-05	1.6624e-05	425.6	6.1228e-07	6.4243e-07	608.18	109.75	6.6772e-07	6.1864e-07	239.4	106.34	36.892	17.905	6.6444e-07	58.189	269.811	-5.300	-0.558	-69.445	92.561	48.452	-68.527	-64.287	87.671	94.578	-64.255	-59.751	-60.118	-55.755	83.900	-57.237	-8191	255	
1951.383	1	1	0	0	0.19974	0.045824	0.21803	0.20744	0.16214	0.1863	0.10507	0.21398	0.27825	0.13337	0.1019	0.23312	0.039708	0.32783	0.11379	0.097393	-2.2583	-2.7333	-2.4854	-2.5854	-2.8438	-2.425	-2.9583	-2.6292	-2.5333	-2.7729	-2.5854	-2.9604	-2.6417	-2.4917	-2.7854	-2.6875	218.287	160.464	14.365	-43.107	-62.733	-22.212	234.977	241.764	2.785	210.544	-50.066	266.710	175.597	267.130	66.775	155.335	0.000275	0.00022761	8.1936e-05	482.63	2.3106e-06	3.7266e-06	685.87	123.41	2.2529e-06	4.8981e-06	272.4	120.4	41.436	20.471	5.2514e-06	66.033	8.7635e-05	5.8313e-05	1.5346e-05	427.77	6.5372e-07	6.3309e-07	608.26	109.83	6.8038e-07	6.4961e-07	242.15	107.8	37.089	18.287	6.9517e-07	59.046	275.254	33.462	-19.210	-69.232	59.943	62.152	-68.170	-63.926	144.207	100.880	-64.570	-59.672	-59.637	-56.046	53.196	-57.094	-8191	255	
1951.479	1	1	0	0	0.2503	0.094831	0.23113	0.19807	0.14439	0.067817	0.14901	0.18136	0.042763	0.26199	0.056891	0.22992	0.02358	0.022602	0.37521	0.044427	-2.2062	-2.7875	-2.3833	-2.6958	-2.4604	-2.4646	-3.0625	-2.6479	-2.4667	-3.0354	-2.6583	-2.7667	-2.7458	-2.5062	-2.8208	-2.5333	59.477	53.447	196.450	52.026	32.241	206.335	268.623	34.775	136.141	93.748	226.075	-54.018	-9.605	93.684	132.452	180.972	0.00023467	0.00042367	5.1314e-05	484.05	3.0595e-06	3.4167e-06	684.1	123.71	2.8674e-06	3.8914e-06	272.14	119.49	41.062	20.142	4.8029e-06	65.99	9.2431e-05	6.1522e-05	1.5518e-05	427.26	6.5579e-07	6.4084e-07	608.97	110.05	6.64e-07	6.7966e-07	240.92	106.88	36.758	18.029	6.9579e-07	58.662	272.957	18.897	-29.673	-68.973	65.489	27.321	-68.424	-64.520	95.613	74.290	-64.052	-59.849	-60.056	-55.834	68.055	-57.006	-8191	255	
1951.598	1	1	0	0	0.12158	0.027584	0.126	0.082614	0.20575	0.032133	0.18326	0.21942	0.16838	0.15011	0.12784	0.31949	0.26474	0.11314	0.17951	0.24715	-1.8083	-2.8521	-2.4521	-2.6188	-2.8563	-2.4896	-2.8458	-2.5938	-2.5396	-2.7917	-2.5917	-2.4667	-2.7125	-2.3729	-2.6833	-2.8292	119.861	-39.210	124.830	134.303	-14.393	243.571	265.875	158.987	256.205	175.941	133.364	239.673	248.180	-44.886	245.023	190.931	0.00024261	0.00055424	6.1006e-05	476.91	4.0226e-06	3.2478e-06	684.17	123.01	3.2209e-06	2.4299e-06	273.41	121.19	41.34	20.414	3.2189e-06	66.487	9.0391e-05	6.0541e-05	1.6272e-05	425.17	6.6158e-07	6.0281e-07	609.66	109.91	6.9597e-07	6.3709e-07	241.3	107.83	37.133	18.288	6.9028e-07	59.11	270.188	-31.080	2.066	-69.184	77.641	54.337	-68.183	-64.263	89.401	80.443	-64.625	-59.896	-59.838	-56.302	67.415	-57.237	-8191	255	
1951.694	1	1	0	0	0.11592	0.037183	0.12948	0.10957	0.013806	0.022078	0.10419	0.21763	0.25127	0.099141	0.28404	0.32001	0.025237	0.16777	0.19302	0.15077	-1.8687	-2.7562	-2.5479	-2.4062	-2.8833	-2.4604	-2.7625	-2.8187	-2.4313	-2.8688	-2.7875	-2.575	-2.7375	-2.575	-2.725	-2.8417	-72.537	189.484	114.505	219.549	-57.026	-63.368	-67.262	-34.261	-25.483	-15.743	132.891	142.238	-68.383	101.100	206.438	144.932	0.00019852	0.00025287	9.4449e-05	479.68	3.2105e-06	4.986e-06	688.27	123.77	4.1512e-06	4.8865e-06	271.96	121.34	41.402	20.587	1.0565e-06	67.202	8.7539e-05	6.1891e-05	1.5774e-05	425.77	6.9897e-07	6.1209e-07	611	110.24	6.3705e-07	6.6463e-07	242.39	108.46	37.277	18.427	7.3759e-07	59.841	260.824	18.125	5.893	-69.285	65.500	46.577	-68.510	-64.104	63.031	79.314	-64.108	-59.883	-59.463	-56.250	91.498	-57.128	-8191	255	
1951.790	1	1	0	0	0.25973	0.036998	0.226	0.12798	0.1987	0.1405	0.11147	0.27259	0.20717	0.27799	0.16251	0.14397	0.073056	0.12502	0.12177	0.2199	-1.9354	-2.8042	-2.5	-2.475	-2.9938	-2.6646	-2.6937	-2.8458	-2.3604	-2.9479	-2.675	-2.5667	-2.9042	-2.6292	-2.75	-2.9396	172.290	71.936	121.249	205.413	-28.160	71.005	138.949	203.998	34.814	184.635	250.326	238.956	222.560	274.905	207.366	5.795	0.00018732	0.00030656	0.00013586	479.81	1.6877e-06	3.874e-06	688.28	123.96	3.622e-06	3.5041e-06	276.02	122.01	42.102	20.879	4.7185e-06	67.075	8.8648e-05	6.0884e-05	1.6499e-05	426.51	6.5911e-07	5.8276e-07	612.99	110.6	6.5444e-07	6.8543e-07	244.26	108.69	37.528	18.525	6.8534e-07	59.773	-77.109	-31.301	-8.669	-69.008	44.878	43.788	-68.234	-63.928	113.598	69.957	-64.023	-59.934	-60.056	-56.121	52.591	-57.311	-8191	255	
1951.886	1	1	0	0	0.31506	0.24054	0.12398	0.19041	0.1919	0.12697	0.12599	0.17118	0.34139	0.13221	0.074351	0.023084	0.18285	0.24243	0.10141	0.24204	-1.7646	-2.9125	-2.5979	-2.5187	-3.0125	-2.5667	-2.7042	-2.9104	-2.3729	-2.9083	-2.6708	-2.5	-2.9208	-2.6813	-2.3542	-2.8979	244.319	195.106	169.172	-10.375	-46.461	12.539	-60.947	263.988	246.353	39.649	164.801	-35.183	101.360	260.589	130.101	207.922	0.00025828	0.00041857	3.8132e-05	480.62	4.2711e-06	4.324e-06	685.49	123.99	2.3227e-06	4.1528e-06	274.78	120.48	42.037	20.519	1.6244e-06	66.7	8.6881e-05	6.158e-05	1.6924e-05	426.54	7.0329e-07	6.4778e-07	609.97	110.35	6.1954e-07	6.9177e-07	243.38	107.91	37.43	18.366	6.4887e-07	59.525	271.873	31.202	-16.704	-68.897	49.002	45.222	-68.176	-64.240	55.708	77.865	-63.929	-59.838	-59.878	-55.740	177.125	-57.108	-8191	255	
1951.981	1	1	0	0	0.16923	0.10697	0.10295	0.078236	0.18893	0.17368	0.27228	0.097578	0.30383	0.15037	0.1497	0.18559	0.17655	0.21122	0.20631	0.10088	-2.0646	-2.7583	-2.6437	-2.3958	-2.8667	-2.7292	-2.5146	-2.9208	-2.4104	-2.6771	-2.9042	-2.6396	-2.9875	-2.7146	-2.4188	-2.9771	162.980	-64.273	91.267	149.620	29.140	103.363	-80.813	196.790	145.088	-65.220	96.224	206.825	110.243	274.196	236.459	269.283	0.00019041	0.00029087	8.339e-05	478.88	1.1837e-06	5.4591e-06	689.92	123.57	1.924e-06	1.6549e-06	274.94	122.1	41.792	20.79	5.4845e-06	67.765	8.6973e-05	6.1086e-05	1.4983e-05	425.61	6.7814e-07	6.5205e-07	611.48	110.01	6.4757e-07	6.5686e-07	244.18	109.05	37.478	18.547	6.5495e-07	60.066	258.690	-22.771	17.578	-69.351	18.016	31.322	-68.152	-64.232	37.646	97.304	-64.428	-59.445	-60.342	-55.796	53.961	-57.663	-8191	255	
1952.077	1	1	0	0	0.12641	0.20125	0.11312	0.15971	0.13255	0.22459	0.18467	0.057463	0.159	0.14568	0.15157	0.25277	0.13325	0.21298	0.065663	0.18535	-1.8771	-2.5833	-2.8312	-2.3417	-2.9292	-2.7854	-2.4708	-2.7729	-2.4729	-2.6771	-3.0729	-2.3208	-2.7833	-2.8104	-2.4104	-3.0667	71.285	221.973	20.295	176.828	-47.617	-78.400	-34.733	216.084	53.990	96.067	-29.297	-64.290	250.578	-33.463	210.854	230.341	0.0002088	0.00050772	0.00010514	477.05	6.2381e-06	3.8415e-06	685.92	123.4	1.864e-06	4.3766e-06	274.75	122.58	41.912	20.884	2.7844e-06	68.26	8.5561e-05	6.5957e-05	1.6527e-05	424.06	7.3344e-07	6.2655e-07	610.79	110.45	6.5838e-07	6.9863e-07	244.64	109.68	37.706	18.659	7.1578e-07	60.538	264.101	15.297	-15.255	-68.810	114.802	45.479	-68.286	-64.219	64.865	68.104	-64.491	-59.328	-59.761	-55.966	117.621	-57.394	-8191	255	
1952.175	1	1	0	0	0.1633	0.34471	0.08747	0.28846	0.093562	0.21003	0.19197	0.19477	0.090371	0.17578	0.26275	0.087018	0.26473	0.39478	0.10038	0.64197	-2.0312	-2.2896	-2.7167	-2.4375	-2.9125	-2.7333	-2.5354	-2.7792	-2.6937	-2.7083	-2.8521	-2.5375	-2.5812	-2.7396	-2.3625	-2.7708	71.614	205.633	100.813	-65.589	181.895	-69.734	218.078	86.409	165.277	105.756	206.344	231.310	-22.726	5.432	186.216	185.031	0.00023048	0.00022354	9.8675e-05	481.45	5.439e-06	3.8987e-06	685.47	123.64	2.7463e-06	2.8878e-06	273.98	121.95	41.735	20.824	4.2364e-06	67.372	8.7914e-05	6.5267e-05	1.7134e-05	427.51	7.0492e-07	6.3418e-07	610.3	110.43	6.5815e-07	6.788e-07	242.61	108.47	37.519	18.556	6.4433e-07	59.788	276.588	-16.637	23.569	-68.899	57.528	70.581	-68.546	-64.449	148.079	42.362	-64.005	-59.852	-59.726	-55.786	87.460	-57.055	-8191	255	
1952.294	1	1	0	0	0.086707	0.2607	0.13974	0.23499	0.31978	0.13395	0.27773	0.20728	0.088446	0.033296	0.18367	0.33637	0.28135	0.19614	0.17515	0.15543	-2.1292	-2.3812	-2.7562	-2.4542	-2.8	-2.8521	-2.625	-2.9458	-2.6771	-2.4875	-2.9792	-2.4458	-2.4729	-2.7729	-2.4229	-2.675	-48.434	86.994	92.981	-78.584	94.501	147.262	247.234	172.430	222.644	-41.351	125.182	257.020	68.573	-15.637	226.462	-60.634	0.00022101	0.00043583	0.0001216	479.77	1.9515e-06	2.2577e-06	689.36	122.97	3.3126e-06	4.9113e-06	273.84	121.53	41.743	20.812	1.2433e-06	67.644	9.0338e-05	5.9056e-05	1.7354e-05	426.51	6.5888e-07	6.5e-07	609.84	109.76	6.5838e-07	6.6503e-07	242.75	108.97	37.511	18.56	6.5143e-07	60.081	264.123	-27.735	8.415	-69.087	75.797	38.746	-68.291	-63.914	103.911	84.137	-64.418	-59.850	-59.805	-56.295	122.356	-57.375	-8191	255	
1952.390	1	1	0	0	0.24873	0.12694	0.08717	0.30756	0.14702	0.20861	0.34179	0.2045	0.19473	0.13782	0.16581	0.15997	0.24866	0.13102	0.42235	0.19023	-2.3104	-2.4062	-2.7	-2.5604	-2.6625	-2.825	-2.4729	-2.7292	-2.8187	-2.4583	-2.7875	-2.5875	-2.7833	-2.8708	-2.3458	-2.7104	-16.685	15.900	171.996	256.489	75.033	1.682	264.124	257.720	10.305	248.420	234.688	266.395	-13.681	239.636	254.861	-62.206	0.00024051	0.00027062	0.00010891	478.71	5.6297e-06	3.0946e-06	688.21	123.82	3.1813e-06	2.7579e-06	275.19	122.42	41.262	20.923	6.7324e-06	67.297	8.8082e-05	6.0214e-05	1.6955e-05	424.76	6.6017e-07	6.475e-07	610.99	110.3	6.1819e-07	6.043e-07	244.16	109.17	37.4	18.615	6.5632e-07	60.208	271.553	1.222	6.682	-69.194	83.729	19.110	-68.037	-63.978	71.701	46.278	-64.485	-59.832	-59.495	-55.701	96.326	-57.302	-8191	255	
1952.486	1	1	0	0	0.29941	0.064091	0.20483	0.21893	0.17453	0.25723	0.19128	0.20207	0.13626	0.053838	0.12065	0.084511	0.057814	0.17476	0.2738	0.17808	-2.1354	-2.3417	-2.8417	-2.7833	-2.5812	-2.7875	-2.5875	-2.5958	-2.7417	-2.3312	-2.9708	-2.5667	-2.4083	-3.0604	-2.4583	-2.7292	105.312	149.678	136.076	-50.214	28.790	200.133	225.222	126.343	149.766	255.874	151.595	100.607	51.115	166.687	74.150	231.634	0.00021409	0.00032555	0.00010212	475.28	3.1405e-06	3.1788e-06	686.42	123.03	5.3678e-06	3.7665e-06	275.78	122.32	41.957	20.598	2.4364e-06	66.581	8.9767e-05	5.9876e-05	1.6692e-05	425.32	6.6888e-07	6.4323e-07	612.76	109.91	6.9704e-07	6.3412e-07	245.22	109.16	37.564	18.461	6.274e-07	59.432	262.166	-8.404	-3.242	-68.680	91.046	31.847	-68.228	-63.914	96.267	101.673	-64.137	-59.758	-60.182	-55.766	67.475	-57.290	-8191	255	
1952.582	1	1	0	0	0.0072	0.18449	0.33121	0.16183	0.27534	0.16077	0.019059	0.14761	0.2979	0.3326	0.18517	0.42342	0.27949	0.33347	0.16217	0.069987	-2.2625	-2.3083	-2.8042	-2.6271	-2.4437	-2.9396	-2.5771	-2.5187	-2.7875	-2.3375	-2.9437	-2.8375	-2.4271	-2.8854	-2.5646	-2.7333	43.886	77.725	200.017	-33.303	63.085	-8.156	180.627	-57.287	120.463	104.884	204.383	229.478	168.393	-76.982	-37.340	262.869	0.00021544	0.000314	0.00011026	475.4	4.722e-06	3.8668e-06	688.35	123.22	3.0527e-06	2.5996e-06	273.08	121.46	41.842	20.707	4.5696e-06	66.695	8.6891e-05	5.7467e-05	1.7135e-05	424.38	7.0116e-07	6.8126e-07	610.3	110.08	6.9265e-07	6.0693e-07	242.23	108.3	37.513	18.423	6.5302e-07	59.507	-79.458	32.642	-15.122	-68.783	64.739	17.413	-68.277	-64.734	116.151	79.257	-64.212	-59.760	-59.891	-56.110	53.070	-57.395	-8191	255	
1952.678	1	1	0	0	0.26008	0.1166	0.20176	0.11283	0.15488	0.02685	0.18085	0.29401	0.17629	0.11626	0.077122	0.1013	0.13101	0.41108	0.14926	0.25972	-2.4	-2.4833	-2.7042	-2.8521	-2.3646	-2.8854	-2.6188	-2.5938	-2.9042	-2.3937	-2.7375	-2.8479	-2.5083	-3.0271	-2.5479	-2.6688	237.241	192.226	85.646	86.174	18.647	122.756	150.046	-67.005	70.636	250.277	-18.899	-65.880	194.888	274.454	262.526	235.222	0.00025215	0.00028802	8.9231e-05	479.04	3.1008e-06	1.2631e-06	692.19	123.13	1.7223e-06	2.5968e-06	274.96	121.83	41.566	20.934	3.9767e-06	67.801	8.7914e-05	5.6106e-05	1.6968e-05	424.77	6.7926e-07	6.6446e-07	612.45	110.01	6.4369e-07	6.1384e-07	244.26	108.93	37.436	18.542	6.6478e-07	60.385	-79.649	31.367	-23.806	-69.259	86.398	66.097	-68.086	-64.293	115.083	75.074	-64.063	-60.049	-59.586	-56.173	53.300	-57.365	-8191	255	
1952.775	1	1	0	0	0.18937	0.18642	0.21855	0.31195	0.13529	0.19106	0.13765	0.25738	0.14731	0.29957	0.1754	0.10187	0.14184	0.091913	0.16366	0.13953	-2.4042	-2.3521	-2.4854	-2.8104	-2.3083	-2.9146	-2.5292	-2.45	-2.6125	-2.5229	-2.6646	-2.8479	-2.2354	-2.8354	-2.725	-2.5167	-55.880	207.027	58.747	274.088	-63.314	-72.100	274.404	151.429	211.215	238.571	249.573	-59.455	-42.967	166.806	-70.427	269.588	0.00026723	0.00030044	8.8508e-05	478.89	4.4611e-06	2.2461e-06	686.63	124.57	4.5291e-06	2.8708e-06	277.12	122.98	41.828	21.119	9.9983e-07	69.343	8.8562e-05	5.2102e-05	1.805e-05	424.49	6.6596e-07	6.7699e-07	612.73	110.9	6.8562e-07	6.6223e-07	246.32	110.47	37.76	18.811	6.9011e-07	61.227	271.806	-48.711	31.069	-69.142	62.350	81.707	-68.109	-63.896	92.891	86.728	-64.022	-59.719	-59.351	-55.860	80.066	-57.460	-8191	255	
1952.895	1	1	0	0	0.22887	0.10312	0.2953	0.084234	0.31738	0.05521	0.036994	0.20543	0.26665	0.35885	0.11221	0.13503	0.10894	0.27083	0.13282	0.26366	-2.4625	-2.2812	-2.5229	-2.9083	-2.6562	-3.0021	-2.7438	-2.7438	-3.0833	-2.3625	-2.7083	-2.7854	-2.2771	-2.8479	-2.6354	-2.6583	179.644	45.376	131.994	-69.770	131.422	49.656	-21.221	258.192	61.542	-61.128	223.355	-72.808	-37.366	218.778	97.071	179.455	0.00020874	0.00050813	7.8352e-05	479.75	1.2549e-06	2.8883e-06	690.16	124.39	4.3632e-06	3.6791e-06	275.68	122.8	41.433	20.817	3.9806e-06	67.718	9.0866e-05	5.9336e-05	1.7653e-05	426.65	6.549e-07	6.4004e-07	612.21	110.3	6.8911e-07	6.3429e-07	244.56	109.51	37.532	18.635	6.7574e-07	60.174	276.164	7.952	35.187	-68.840	19.707	49.321	-67.913	-64.448	101.943	41.968	-64.397	-59.657	-59.734	-56.308	6.808	-57.139	-8191	255	
1952.990	1	1	0	0	0.1121	0.1233	0.058385	0.029669	0.19528	0.21604	0.15091	0.19973	0.21097	0.28045	0.22245	0.24466	0.13994	0.18409	0.058963	0.17855	-2.5	-2.6667	-2.4354	-3.0854	-2.4792	-2.6625	-2.8187	-2.2833	-2.8063	-2.4521	-2.8083	-2.975	-2.6979	-2.6521	-2.9729	-2.3688	-16.420	131.266	240.700	263.266	272.858	4.084	-52.513	-59.591	276.777	44.850	-54.440	144.255	16.267	28.735	50.004	276.262	0.00026626	0.00049165	7.6091e-05	480.67	1.9232e-06	4.9158e-06	687.07	123.93	1.8395e-06	6.5051e-06	272.76	121.8	41.78	20.643	2.61e-06	66.855	9.2191e-05	5.6942e-05	1.6907e-05	425.8	6.3558e-07	6.6207e-07	610.5	110.16	6.9749e-07	6.1298e-07	242.62	108.41	37.458	18.443	6.4956e-07	59.499	263.615	-14.533	14.217	-69.288	94.664	48.746	-68.340	-64.208	74.644	89.810	-64.401	-59.619	-60.152	-55.996	37.716	-57.217	-8191	255	
1953.086	1	1	0	0	0.060361	0.43348	0.12783	0.11651	0.079107	0.10373	0.093121	0.27272	0.43372	0.38166	0.11147	0.13378	0.10109	0.040049	0.047799	0.17784	-2.4479	-2.5042	-2.425	-2.9354	-2.3771	-2.7833	-2.8812	-2.5979	-2.6167	-2.6667	-2.45	-2.8438	-2.5646	-2.6937	-2.8021	-2.4417	24.081	84.091	-60.103	214.587	31.443	202.504	201.564	-70.198	172.854	231.767	161.515	274.844	16.174	-46.890	69.577	-74.715	0.00026552	0.00044424	0.00016135	481.41	1.6769e-06	3.5735e-06	688.67	124.39	4.2203e-06	4.2314e-06	275.75	122.04	41.619	20.82	1.8893e-06	67.546	9.2258e-05	5.7254e-05	1.6757e-05	426.5	6.4092e-07	6.9225e-07	611.9	111.15	7.1967e-07	6.9166e-07	243.7	108.83	37.488	18.497	6.7756e-07	60.109	270.772	4.013	-4.450	-69.132	37.699	52.924	-67.778	-64.481	59.416	81.851	-64.392	-59.692	-59.871	-56.052	115.042	-57.043	-8191	255	
1953.182	1	1	0	0	0.075425	0.10295	0.07572	0.1639	0.22927	0.12001	0.1816	0.16525	0.17593	0.30005	0.076561	0.24083	0.24297	0.080621	0.1625	0.28386	-2.3229	-2.5563	-2.4833	-2.8	-2.45	-2.6354	-2.8292	-2.5438	-2.8375	-2.8063	-2.4646	-3.0146	-2.7646	-2.7146	-2.8417	-2.6688	-10.698	9.748	215.177	-49.866	215.009	108.117	265.282	229.108	191.856	-7.100	123.181	265.441	276.887	-31.933	52.305	239.236	0.00024881	0.00052497	5.4583e-05	482.4	2.7717e-06	4.1016e-06	689.95	124.21	2.6024e-06	2.0553e-06	274.21	122.03	41.665	20.64	6.1404e-06	67.027	8.9743e-05	6.0567e-05	1.5969e-05	428.33	6.4445e-07	6.627e-07	613.31	111.04	7.0419e-07	6.6732e-07	243.66	108.69	37.349	18.39	6.7296e-07	59.447	274.891	-48.958	-41.673	-68.806	36.897	75.307	-68.442	-63.929	52.770	50.029	-64.294	-59.470	-59.583	-56.156	51.801	-57.282	-8191	255	
1953.278	1	1	0	0	0.18483	0.29488	0.34633	0.13573	0.10765	0.29128	0.13206	0.053005	0.064821	0.092992	0.082929	0.37281	0.10004	0.16781	0.14865	0.19419	-2.05	-2.6646	-2.4604	-2.6229	-2.6458	-2.4938	-3.0354	-2.5979	-2.6396	-2.7958	-2.1667	-2.775	-2.7833	-2.5417	-3.0187	-2.7104	225.619	51.140	41.812	189.477	193.124	32.648	157.838	266.483	191.187	144.128	159.643	202.818	-56.525	20.445	250.674	156.674	0.00023003	0.00032106	0.00010212	477.06	5.0609e-07	3.5438e-06	684.32	123.4	2.3234e-06	4.3576e-06	275.68	121.59	41.792	20.792	3.9706e-06	67.506	8.9263e-05	5.8443e-05	1.5756e-05	425.09	6.4019e-07	6.6617e-07	610.76	110.38	6.8944e-07	6.4549e-07	243.87	108.51	37.603	18.554	6.9102e-07	60.214	274.054	5.037	-11.624	-69.297	37.698	54.451	-68.279	-64.208	114.943	75.957	-64.304	-60.023	-60.021	-56.276	54.628	-56.911	-8191	255	
1953.374	1	1	0	0	0.16214	0.25976	0.06433	0.2234	0.34333	0.073442	0.24465	0.093424	0.1816	0.18374	0.10926	0.16098	0.32677	0.12385	0.019474	0.030774	-2.1354	-2.7021	-2.4646	-2.8708	-2.7479	-2.5979	-2.9917	-2.5875	-2.7271	-2.8812	-2.5104	-2.7625	-2.7896	-2.4562	-2.8271	-2.8917	231.965	-58.668	156.804	-57.356	88.443	209.859	191.499	-35.554	-39.311	168.928	249.310	237.077	140.102	142.796	210.962	166.967	0.0002116	0.00062737	7.4446e-05	479.4	3.5786e-06	3.5199e-06	686.57	122.95	1.4104e-06	4.6999e-06	278.14	122.61	42.059	20.943	4.6834e-06	67.844	9.1654e-05	5.7929e-05	1.6082e-05	426	6.7382e-07	6.8467e-07	611.83	110.16	7.1134e-07	6.2635e-07	245.08	109.2	37.522	18.641	6.8693e-07	60.361	269.391	2.319	-6.355	-69.099	72.108	111.859	-68.323	-64.162	137.958	77.882	-64.524	-59.900	-59.409	-55.823	77.400	-57.563	-8191	255	
1953.470	1	1	0	0	0.012184	0.25275	0.021998	0.094541	0.065258	0.22676	0.13548	0.16458	0.14185	0.16132	0.26823	0.19993	0.10804	0.1112	0.091202	0.29605	-1.9271	-2.7271	-2.3958	-2.6625	-2.7667	-2.6396	-3.0375	-2.6208	-2.5625	-3.0729	-2.5125	-2.7938	-2.8271	-2.5083	-2.8708	-2.6854	75.820	-25.965	196.702	64.352	-41.733	220.314	127.801	269.229	174.922	167.445	-69.176	241.003	132.609	262.421	17.296	202.019	0.00023774	0.00056629	4.1657e-05	482.63	3.0489e-06	3.5998e-06	687.14	124.79	1.8115e-06	2.6638e-06	276.03	121.69	41.601	20.806	4.1366e-06	68.541	9.2566e-05	6.1834e-05	1.59e-05	427.41	6.6506e-07	6.7095e-07	611.59	110.89	7.2237e-07	6.6143e-07	244.46	109.25	37.552	18.607	7.021e-07	60.727	266.831	-15.060	-63.116	-68.855	69.494	54.527	-68.374	-64.205	98.258	76.152	-64.471	-59.731	-60.133	-56.021	34.234	-57.331	-8191	255	
1953.566	1	1	0	0	0.10107	0.13615	0.14738	0.30553	0.071656	0.081439	0.52707	0.034058	0.13633	0.22586	0.16365	0.16088	0.032918	0.21017	0.18893	0.1346	-1.8583	-2.8479	-2.3563	-2.7042	-2.8604	-2.3625	-2.6854	-2.6458	-2.4896	-2.9375	-2.7167	-2.6354	-2.9375	-2.3312	-2.7875	-2.7687	-66.560	55.894	149.560	-73.794	112.105	223.967	219.196	-62.833	168.814	-35.644	229.778	230.960	86.162	-8.721	-13.816	81.526	0.00027362	0.00038627	5.7918e-05	480.93	2.1162e-06	2.2275e-06	685.78	124.44	2.974e-06	3.1668e-06	273.54	121.24	41.827	20.594	3.1403e-06	66.667	8.7045e-05	6.1226e-05	1.5956e-05	426.43	6.5186e-07	6.5296e-07	611.56	110.66	6.9423e-07	6.5572e-07	242.83	108.03	37.534	18.277	6.8665e-07	59.095	273.681	-24.532	38.620	-69.160	85.081	37.852	-68.570	-64.466	79.776	133.396	-63.947	-59.576	-60.063	-56.329	64.438	-57.281	-8191	255	
1953.687	1	1	0	0	0.14345	0.18874	0.40408	0.32625	0.39442	0.12351	0.089302	0.23491	0.042826	0.14432	0.0705	0.19429	0.15289	0.1825	0.20443	0.27018	-1.9479	-2.8104	-2.6167	-2.7146	-2.8292	-2.3958	-2.925	-2.6667	-2.5521	-2.9521	-2.8042	-2.6292	-2.8312	-2.5771	-2.6667	-2.7271	74.622	264.215	189.858	240.702	130.241	268.712	125.229	-69.089	35.552	59.576	249.303	232.760	-48.963	272.675	144.082	219.916	0.00021316	0.00029724	8.5878e-05	478.6	4.8641e-06	2.3487e-06	685.61	123.33	1.3217e-06	4.217e-06	274	120.58	41.45	20.363	1.6385e-06	66.596	8.8663e-05	6.173e-05	1.6089e-05	426.13	6.668e-07	5.7354e-07	610.88	110.17	6.2286e-07	6.5606e-07	243.27	107.72	37.274	18.225	6.9051e-07	59.071	270.406	2.539	26.397	-68.977	93.551	88.620	-68.403	-63.799	82.384	83.906	-64.043	-59.514	-59.689	-56.392	26.551	-57.282	-8191	255	
1953.783	1	1	0	0	0.30477	0.099225	0.27944	0.14874	0.064245	0.15012	0.21531	0.1258	0.11803	0.12342	0.12474	0.098206	0.07815	0.25206	0.049634	0.035921	-1.9729	-2.7562	-2.3833	-2.5271	-2.8271	-2.4896	-2.8646	-2.7271	-2.5167	-2.9354	-2.7125	-2.6167	-2.8792	-2.6	-2.6104	-3.1125	122.873	277.115	172.856	-18.106	182.848	7.091	226.789	271.696	119.722	99.962	-45.047	-46.931	197.860	-45.019	13.108	210.374	0.0002341	0.0005221	8.6394e-05	482.34	2.9047e-06	1.3478e-06	689.89	122.9	2.3573e-06	4.7302e-06	274.14	121.66	41.777	20.378	2.139e-06	66.668	8.5753e-05	6.4617e-05	1.5186e-05	427.17	6.211e-07	6.0935e-07	612.59	110.31	6.1093e-07	6.6783e-07	242.04	107.68	37.501	18.212	6.6836e-07	59.255	273.423	6.377	-8.842	-69.193	62.596	273.405	-68.189	-64.046	40.060	158.070	-64.464	-59.329	-60.093	-56.133	47.661	-57.335	-8191	255	
1953.855	1	1	0	0	0.04309	0.35992	0.15888	0.13011	0.094317	0.24509	0.080957	0.112	0.04574	0.12594	0.37051	0.31044	0.080493	0.046944	0.23136	0.19912	-2.0417	-2.725	-2.5417	-2.7417	-2.9229	-2.5687	-2.6312	-3.0417	-2.3958	-2.9146	-2.6729	-2.5104	-2.9021	-2.6	-2.6146	-2.8708	46.293	196.600	81.060	-10.215	174.585	67.759	197.037	43.087	132.779	17.748	253.445	-65.981	229.353	95.510	54.222	159.091	0.00020396	0.00044909	7.5928e-05	481.28	3.2773e-06	2.8838e-06	691	124.44	3.4558e-06	3.4234e-06	274.45	119.57	40.934	20.007	2.7893e-06	64.761	8.389e-05	6.1502e-05	1.533e-05	428.99	6.6888e-07	6.2467e-07	614.03	110.92	6.1656e-07	6.7789e-07	241.58	106.15	36.864	17.841	6.495e-07	57.576	269.579	-6.933	1.803	-69.306	90.704	18.967	-68.471	-63.658	117.000	98.561	-64.315	-59.449	-60.140	-56.451	123.156	-57.271	-8191	255	
1953.976	1	1	0	0	0.14331	0.090935	0.11636	0.065503	0.21969	0.10835	0.25755	0.20286	0.11019	0.026775	0.25502	0.063737	0.17662	0.1729	0.31643	0.15069	-1.9188	-2.6354	-2.6104	-2.3583	-2.7875	-2.8146	-2.6208	-2.9417	-2.5375	-2.7875	-3.0229	-2.5146	-2.9021	-2.6437	-2.5417	-3.0125	-14.790	181.106	112.817	194.492	134.177	-56.736	236.252	99.086	-14.088	171.404	151.357	105.898	-15.858	207.491	120.507	136.401	0.00021177	0.0004979	6.1168e-05	479.17	6.1301e-06	1.9503e-06	681.07	122.68	2.2911e-06	4.0452e-06	270.05	117.74	41.024	20.081	3.5117e-06	65.119	8.2599e-05	6.0053e-05	1.5736e-05	427.02	6.7836e-07	6.155e-07	607.08	109.59	5.9281e-07	6.2647e-07	239.1	105.2	36.701	17.801	6.3303e-07	57.764	274.425	-1.143	-20.381	-68.874	101.310	47.513	-68.589	-64.232	71.722	68.204	-64.138	-59.718	-59.691	-55.741	95.990	-57.072	-8191	255	
1954.070	1	1	0	0	0.020539	0.029573	0.16562	0.035862	0.21717	0.10657	0.073794	0.1367	0.032085	0.40331	0.052976	0.21146	0.10559	0.17207	0.19393	0.16152	-2.1437	-2.625	-2.7938	-2.5083	-2.8771	-2.7771	-2.525	-2.9771	-2.6063	-2.925	-3.0646	-2.4458	-2.8042	-2.7042	-2.5	-2.9938	68.762	182.007	259.439	15.335	68.775	151.717	240.596	240.806	79.838	251.777	-59.776	111.385	120.934	175.387	122.273	-69.337	0.00022926	0.00040862	9.4343e-05	481.19	3.9945e-06	2.3979e-06	684.43	123.42	3.4537e-06	2.4671e-06	271.02	118.03	40.798	19.967	2.569e-06	65.313	8.4956e-05	5.9559e-05	1.568e-05	427.44	6.9605e-07	6.3474e-07	608.06	109.71	6.1414e-07	6.504e-07	239.63	105.45	36.784	17.879	6.4058e-07	58.039	262.934	-8.257	7.701	-69.347	68.136	38.347	-68.384	-64.181	95.310	50.977	-64.226	-59.583	-59.853	-55.981	54.696	-57.130	-8191	255	
1954.166	1	1	0	0	0.23117	0.057078	0.080789	0.10183	0.13885	0.19224	0.18916	0.38999	0.071886	0.090626	0.27712	0.19521	0.26655	0.21937	0.11858	0.27068	-2.3146	-2.5938	-2.9562	-2.3333	-2.7062	-2.6417	-2.625	-2.9875	-2.5875	-2.5625	-2.9896	-2.6417	-2.8604	-2.7771	-2.5687	-3.1562	231.756	171.820	202.983	185.314	178.792	217.977	199.390	273.239	139.189	199.515	-45.471	226.539	4.126	162.177	113.764	145.513	0.00019586	0.00026556	0.00010963	478.37	3.3825e-06	3.8186e-06	689.65	123.82	2.9863e-06	4.4562e-06	268.68	119.28	41.09	20.024	1.9515e-06	65.421	8.6012e-05	5.8433e-05	1.6339e-05	428.86	6.9431e-07	5.9825e-07	612.75	110.12	6.3733e-07	6.4326e-07	240.41	106.27	36.787	17.895	6.257e-07	58.212	-81.614	-29.161	6.805	-68.867	92.728	24.878	-68.415	-64.400	91.951	51.087	-64.722	-59.327	-60.611	-55.970	54.687	-57.281	-8191	255	
1954.287	1	1	0	0	0.25557	0.099636	0.15661	0.073259	0.21879	0.063996	0.3185	0.065346	0.057925	0.15227	0.31002	0.10775	0.070388	0.24915	0.14051	0.30561	-2.2833	-2.3333	-2.9375	-2.3417	-2.6271	-2.8083	-2.5333	-2.9729	-2.6625	-2.75	-3.2271	-2.5375	-2.8187	-2.8021	-2.3958	-3.1021	238.225	219.569	-71.132	-70.837	199.448	175.806	128.970	81.199	130.298	-4.969	190.453	226.756	-12.063	-47.727	33.917	253.622	0.00025085	0.00038018	7.0387e-05	479.35	2.3721e-06	3.149e-06	680.27	122.56	1.1044e-06	2.3627e-06	269.64	116.91	40.824	19.863	3.9158e-06	64.809	8.5345e-05	6.0042e-05	1.6129e-05	426.52	6.5967e-07	6.1186e-07	605.99	109.35	6.1667e-07	6.2572e-07	238.47	104.52	36.616	17.684	5.9878e-07	57.418	273.979	-0.135	-8.119	-69.248	73.245	42.752	-68.048	-64.161	224.875	57.499	-64.381	-59.782	-60.054	-56.331	58.354	-57.170	-8191	255	
1954.383	1	1	0	0	0.072923	0.11362	0.11988	0.34894	0.20132	0.21202	0.23313	0.11735	0.10529	0.32097	0.34931	0.25411	0.29638	0.17679	0.10431	0.012689	-2.3354	-2.3708	-2.9375	-2.7333	-2.7	-2.9562	-2.5583	-2.6625	-2.6896	-2.5958	-3.0187	-2.5833	-2.7188	-2.8667	-2.5396	-2.9813	-37.689	134.897	186.502	196.662	204.906	97.156	142.149	-35.495	267.347	195.410	184.846	227.855	107.566	266.726	-71.754	14.576	0.00020933	0.00014018	7.1927e-05	476.6	2.369e-06	1.9542e-06	685.34	122.84	1.8945e-06	4.3498e-06	270.89	118.47	40.994	19.863	3.7576e-06	65.32	8.5115e-05	5.6682e-05	1.6988e-05	425.27	6.453e-07	6.311e-07	607.55	109.65	6.3311e-07	6.2075e-07	240.19	105.31	36.71	17.882	6.3746e-07	57.987	262.876	18.360	23.698	-68.953	80.157	69.344	-68.605	-63.829	148.488	66.749	-64.085	-59.487	-59.521	-56.315	38.165	-57.370	-8191	255	
1954.455	1	1	0	0	0.19056	0.30673	0.34398	0.15236	0.13787	0.079394	0.29976	0.053605	0.25433	0.1549	0.41292	0.11418	0.17751	0.32266	0.15138	0.42708	-2.4375	-2.4708	-2.8521	-2.7229	-2.625	-2.8354	-2.6	-2.8292	-2.7833	-2.6437	-3.0521	-2.7833	-2.6479	-3.0604	-2.5104	-2.9271	98.909	110.141	17.975	165.019	140.229	10.486	242.751	119.207	114.357	214.843	264.662	241.018	244.127	-57.832	239.202	250.639	0.00022979	0.00032437	7.3047e-05	479.94	3.4064e-06	2.1075e-06	688.35	123.43	1.8827e-06	3.6913e-06	270.86	118.98	41.066	19.932	1.5524e-06	65.012	8.3334e-05	5.5021e-05	1.6311e-05	426.96	6.4429e-07	6.11e-07	612.35	109.64	6.4357e-07	6.7503e-07	241.74	106.06	36.707	17.872	6.524e-07	57.96	271.426	-21.796	5.640	-69.158	102.887	20.716	-68.504	-63.586	59.494	101.319	-64.123	-59.702	-60.204	-55.913	84.642	-57.657	-8191	255	
1954.575	1	1	0	0	0.21855	0.12368	0.29621	0.19473	0.050552	0.21279	0.019365	0.13088	0.12503	0.017553	0.11	0.14903	0.15632	0.029101	0.11797	0.09145	-2.4437	-2.4437	-2.8833	-2.775	-2.5979	-2.8688	-2.5417	-2.7438	-2.8104	-2.4271	-3.1063	-2.8812	-2.6063	-3.0771	-2.6646	-2.8125	-56.752	119.903	85.668	-16.401	21.936	221.515	71.106	219.162	-77.149	252.311	11.487	-78.963	-60.591	10.375	153.157	17.927	0.00016822	0.00045512	0.00013416	481.47	3.3252e-06	3.1342e-06	690.07	123.63	2.3791e-06	2.0863e-06	270.94	117.28	40.962	20.011	2.9794e-06	64.413	8.7213e-05	5.7404e-05	1.7669e-05	428.18	6.5243e-07	6.2165e-07	613.73	109.89	6.1335e-07	6.0436e-07	240.43	104.82	36.53	17.716	6.2087e-07	57.144	-81.091	-11.311	-7.110	-69.283	82.105	73.624	-67.874	-64.301	92.190	131.264	-64.733	-59.534	-59.938	-55.662	3.924	-57.483	-8191	255	
1954.671	1	1	0	0	0.21756	0.13028	0.334	0.20342	0.29374	0.19036	0.15799	0.20189	0.13887	0.14761	0.35069	0.12336	0.32254	0.029379	0.13776	0.12411	-2.3937	-2.5833	-2.8854	-3.0042	-2.5042	-3.175	-2.7792	-2.7	-2.9625	-2.5646	-2.8563	-2.8042	-2.4	-2.8958	-2.6312	-2.7812	-5.727	89.232	259.955	-76.348	184.413	213.769	7.903	-78.283	2.508	67.558	205.982	-69.757	211.657	210.610	258.593	255.146	0.00018568	0.00035979	3.3248e-05	479.55	6.1028e-06	2.8087e-06	680.06	122.98	1.7185e-06	2.8165e-06	271.12	118.18	40.494	19.884	5.7608e-06	64.578	8.3886e-05	5.768e-05	1.641e-05	426.91	6.44e-07	6.2137e-07	607.9	109.5	6.3035e-07	5.8596e-07	239.72	104.85	36.404	17.746	6.2252e-07	57.63	-80.999	-45.351	-39.766	-68.866	82.259	98.555	-68.135	-64.553	72.468	90.277	-64.241	-59.618	-59.584	-56.174	67.078	-57.221	-8191	255	
1954.767	1	1	0	0	0.10813	0.17936	0.14762	0.31056	0.072756	0.15549	0.13216	0.23667	0.27334	0.22291	0.049817	0.26975	0.21755	0.22749	0.065745	0.19244	-2.4688	-2.5812	-2.7479	-2.8396	-2.5479	-2.9083	-2.7917	-2.5833	-2.9667	-2.5042	-2.8417	-2.9146	-2.6167	-2.6771	-2.7438	-2.5958	70.530	-22.824	-21.462	197.136	-17.679	-51.017	132.730	203.138	130.244	24.942	191.859	267.721	-23.744	-59.471	-14.205	196.537	0.00019151	0.00034296	9.1979e-05	482.37	5.273e-06	1.8183e-06	691.43	121.78	2.0846e-06	3.0885e-06	272.04	119.18	40.982	20.057	4.29e-06	64.85	8.5744e-05	5.4642e-05	1.733e-05	427.2	6.4591e-07	6.5479e-07	612.01	109.64	6.4808e-07	6.1807e-07	241.62	105.85	36.628	17.895	6.8846e-07	58.053	267.651	-19.597	8.344	-69.353	64.617	63.808	-68.674	-64.480	74.552	65.675	-64.403	-59.769	-60.200	-55.951	121.560	-57.185	-8191	255	
1954.864	1	1	0	0	0.091861	0.17654	0.13205	0.304	0.21481	0.069044	0.18894	0.13939	0.19328	0.22924	0.15143	0.057922	0.27811	0.13701	0.28211	0.22111	-2.5938	-2.5083	-2.5458	-2.9125	-2.5125	-2.8604	-2.9083	-2.5187	-3.0333	-2.575	-2.8604	-2.9313	-2.5125	-2.8354	-2.6458	-2.6521	79.871	37.027	218.937	233.794	159.738	-23.921	153.093	159.767	149.382	89.491	266.904	49.838	216.778	198.264	219.310	228.096	0.00022531	0.00029106	9.5407e-05	479	2.873e-06	3.045e-06	691.9	122.84	9.6485e-07	4.9049e-06	274.14	119.3	40.972	20.246	3.8671e-06	65.84	8.584e-05	5.7809e-05	1.6765e-05	426.43	6.0712e-07	6.824e-07	612.99	109.73	6.2782e-07	6.171e-07	242.39	106.39	36.773	18.064	6.8023e-07	58.349	274.017	-11.177	25.679	-69.215	83.948	50.263	-68.529	-64.212	130.886	75.881	-64.717	-59.620	-59.511	-56.381	43.824	-57.227	-8191	255	
1954.983	1	1	0	0	0.12106	0.20876	0.28512	0.25418	0.071644	0.10683	0.25362	0.23443	0.086673	0.23942	0.15077	0.14262	0.37032	0.14154	0.10948	0.071003	-2.5958	-2.6625	-2.6417	-3.1104	-2.5479	-2.8375	-2.8583	-2.4896	-2.9313	-2.7146	-2.6875	-3.0167	-2.4958	-2.7604	-2.7	-2.6542	147.061	80.318	176.925	-73.206	92.555	27.942	191.121	115.706	141.915	26.742	15.038	187.300	144.427	-72.550	248.651	196.544	0.00020626	0.00019512	5.6812e-05	478.06	3.2109e-06	8.9507e-07	684.46	122.98	4.1066e-06	2.5282e-06	270.06	119.6	40.952	20.231	1.6876e-06	65.396	8.849e-05	5.379e-05	1.7174e-05	425.3	5.8915e-07	6.5416e-07	609.37	109.5	6.5359e-07	6.3167e-07	240.17	106	36.592	17.943	6.5171e-07	58.17	265.519	3.538	21.282	-69.255	96.642	34.388	-68.570	-64.622	107.254	107.551	-64.783	-59.754	-60.711	-56.045	36.279	-57.197	-8191	255	
1955.079	1	1	0	0	0.15034	0.18274	0.1591	0.15307	0.28476	0.28508	0.31009	0.097442	0.042381	0.030523	0.043835	0.41413	0.18257	0.083564	0.2203	0.086705	-2.35	-2.4521	-2.3563	-2.9625	-2.4938	-2.775	-2.8688	-2.4917	-2.8	-2.7313	-2.5271	-2.9854	-2.6708	-2.7	-2.725	-2.6271	76.775	224.596	136.585	274.565	171.116	234.362	191.741	46.988	133.988	104.993	-34.141	-73.787	-69.974	13.254	103.143	96.727	0.000215	0.00039279	0.00012362	480.58	3.5904e-06	4.8926e-06	682.79	122.66	1.5004e-06	3.8427e-06	272.87	119.62	40.696	20.281	1.4901e-06	65.629	8.8874e-05	5.8936e-05	1.6066e-05	425.51	5.8876e-07	6.5678e-07	608.18	109.36	6.7751e-07	5.9493e-07	241.39	106.44	36.651	18.034	6.5223e-07	58.333	-70.840	-19.776	7.449	-69.289	43.405	65.985	-68.203	-63.488	70.746	93.043	-64.056	-59.732	-59.972	-56.193	55.532	-57.185	-8191	255	
1955.150	1	1	0	0	0.072856	0.064526	0.36718	0.14184	0.18699	0.26993	0.17364	0.017759	0.17159	0.16188	0.37613	0.09463	0.22835	0.19477	0.14781	0.33617	-2.3063	-2.7917	-2.4646	-3.0125	-2.6104	-2.6729	-3.1167	-2.6083	-2.8375	-2.7958	-2.6667	-2.9625	-2.6063	-2.7021	-2.8792	-2.7792	-43.558	134.564	239.046	222.038	-14.775	110.624	276.935	-0.040	171.047	-75.444	199.450	145.766	271.205	264.992	-23.130	205.269	0.00025172	0.00041678	5.4083e-05	480.75	2.9787e-06	3.3304e-06	690.71	123.64	2.2091e-06	4.4549e-06	272.08	120.33	41.229	20.119	3.5395e-06	65.842	9.0256e-05	5.742e-05	1.6213e-05	427.56	6.3143e-07	6.2564e-07	612.51	109.77	6.9321e-07	6.2241e-07	241.26	106.99	36.939	18	6.7477e-07	58.54	269.867	-10.703	43.541	-69.438	100.359	70.614	-68.085	-64.216	83.949	38.943	-64.593	-59.667	-60.136	-56.199	72.901	-57.281	-8191	255	
1955.248	1	1	0	0	0.17342	0.32802	0.13083	0.1381	0.048041	0.14687	0.30472	0.32229	0.10643	0.1227	0.35451	0.14046	0.33057	0.103	0.15017	0.098175	-2.2812	-2.7208	-2.4938	-2.875	-2.6667	-2.7271	-2.9979	-2.4708	-2.8063	-3.0792	-2.5292	-2.9917	-2.7667	-2.5667	-2.9396	-2.5333	140.093	13.571	-50.453	-68.802	75.646	98.248	166.529	-59.556	31.349	49.706	274.776	174.265	216.720	-79.417	86.484	161.080	0.00019084	0.00059765	7.8074e-05	483.13	3.9627e-06	1.0614e-06	683.64	123.85	2.1218e-06	8.5489e-07	271.26	118.37	40.594	19.971	4.5205e-06	64.669	9.2926e-05	5.7965e-05	1.5622e-05	428.07	6.2441e-07	6.5245e-07	610.74	110.01	6.5551e-07	6.1664e-07	240.82	105.58	36.538	17.814	6.9744e-07	57.4	-77.141	21.924	-34.298	-69.267	105.089	15.126	-68.500	-63.843	97.924	39.645	-64.095	-59.752	-59.585	-56.121	123.195	-57.226	-8191	255	
1955.367	1	1	0	0	0.20944	0.1525	0.27273	0.17949	0.072231	0.11989	0.17372	0.23871	0.16889	0.048765	0.22412	0.18957	0.045371	0.19261	0.049185	0.28353	-2.1396	-2.9729	-2.2646	-2.9271	-2.6813	-2.5083	-3.0083	-2.5729	-2.5604	-2.9104	-2.4375	-2.975	-3.0458	-2.5	-2.75	-2.9292	-18.569	230.694	-55.640	-29.834	176.927	-13.378	-40.200	183.649	68.989	-23.050	205.633	-63.790	177.939	-4.786	-9.175	231.971	0.0001838	0.00054688	0.0001017	481.79	2.4791e-06	3.3807e-06	683.85	123.4	2.6352e-06	3.8192e-06	270.03	118.14	40.623	19.788	2.916e-06	64.584	8.5604e-05	5.6734e-05	1.5097e-05	426.66	6.1885e-07	6.003e-07	608.93	109.71	6.7712e-07	6.1115e-07	239.46	105.24	36.459	17.767	6.7086e-07	57.288	266.999	-15.263	31.048	-69.192	45.115	84.497	-68.350	-64.067	130.108	79.487	-64.204	-59.370	-59.734	-56.396	55.784	-57.212	-8191	255	
1955.463	1	1	0	0	0.19759	0.15905	0.20287	0.21721	0.17339	0.33098	0.11613	0.3203	0.09282	0.11841	0.32336	0.24066	0.25325	0.20907	0.040869	0.21348	-2.1208	-2.9708	-2.6208	-2.9625	-2.8438	-2.4042	-2.975	-2.7833	-2.7896	-2.9792	-2.4917	-2.8125	-2.9458	-2.4938	-2.9104	-2.7375	177.046	248.368	99.603	245.730	-38.533	270.040	33.837	255.892	197.983	271.290	254.803	215.686	247.609	176.603	129.443	251.581	0.0002301	0.00048804	0.00010545	478.98	2.8789e-06	5.2779e-06	688.66	123.62	2.5993e-06	2.3945e-06	269.84	118.24	41.53	19.74	4.1456e-06	64.719	8.2369e-05	6.0188e-05	1.5155e-05	426.01	6.6394e-07	6.1915e-07	611.2	109.74	6.7554e-07	6.2744e-07	240.91	105.74	36.846	17.78	7.0658e-07	57.649	271.201	-2.978	-3.296	-69.406	81.799	37.616	-68.502	-64.513	26.464	131.601	-64.279	-59.856	-59.950	-56.325	75.120	-57.046	-8191	255	
1955.559	1	1	0	0	0.28777	0.15408	0.27232	0.15779	0.15855	0.19383	0.15141	0.056188	0.27996	0.16615	0.092521	0.05416	0.26328	0.14876	0.21294	0.16376	-1.9854	-2.9479	-2.625	-2.8688	-2.9396	-2.3563	-2.8979	-2.7875	-2.5833	-3.0958	-2.5687	-2.8187	-2.8042	-2.5958	-3.0146	-2.8458	108.462	161.631	-44.568	-69.795	179.437	11.520	234.320	70.582	271.733	224.008	273.597	56.918	79.051	142.723	161.479	207.455	0.00019679	0.00047121	6.0777e-05	480.27	4.6908e-06	4.4158e-06	692.56	124.26	6.008e-07	4.0296e-06	270.44	119.61	40.56	20.014	4.0875e-06	65.217	8.499e-05	6.065e-05	1.4951e-05	427.35	6.3519e-07	5.9438e-07	613.51	110.22	6.3783e-07	6.5709e-07	241.92	106.42	36.804	17.917	6.4302e-07	57.921	265.082	-6.912	3.195	-69.182	71.468	69.585	-67.775	-63.549	144.003	74.690	-64.171	-59.882	-60.220	-56.193	77.853	-57.289	-8191	255	
1955.656	1	1	0	0	0.25961	0.080082	0.28181	0.25463	0.23457	0.12172	0.40245	0.11173	0.1236	0.19567	0.18608	0.077256	0.10322	0.18783	0.067252	0.39997	-2.3146	-2.9729	-2.4708	-2.8167	-3.1125	-2.5187	-2.9521	-2.7729	-2.7042	-3.0354	-2.8292	-2.7146	-2.9292	-2.4396	-2.9125	-2.9229	252.734	87.711	236.814	-16.718	275.620	141.952	222.466	230.415	169.962	210.191	229.577	188.903	26.012	210.772	262.548	251.225	0.00021398	0.00028267	7.3888e-05	480.39	4.1694e-06	2.477e-06	684.37	122.99	2.0258e-06	3.7365e-06	271.15	119.56	40.861	20.055	5.0537e-06	65.304	8.4831e-05	6.199e-05	1.5252e-05	426.67	6.4367e-07	5.9882e-07	609.14	109.33	6.5978e-07	6.6206e-07	241.62	106.19	36.648	17.948	7.3015e-07	58.148	277.047	11.077	5.445	-69.841	103.771	55.704	-68.428	-64.218	65.706	53.579	-63.949	-59.612	-60.265	-56.254	94.867	-57.336	-8191	255	
1955.752	1	1	0	0	0.056634	0.090406	0.18689	0.23112	0.065748	0.049382	0.13555	0.037526	0.25063	0.039446	0.33333	0.17583	0.035536	0.1082	0.16184	0.14183	-2.15	-3.0396	-2.4583	-2.6167	-3.0521	-2.3896	-2.9979	-2.8708	-2.375	-3.0521	-2.9208	-2.5875	-2.9833	-2.5563	-2.7667	-2.9521	175.628	93.799	136.137	234.433	18.370	-51.280	147.564	140.994	79.036	-23.828	270.377	137.892	56.634	-32.959	26.963	73.612	0.00020817	0.00038956	9.0597e-05	479.53	3.022e-06	3.3198e-06	683.96	124.33	3.8798e-06	2.8264e-06	275.04	120.62	41.157	20.349	4.6013e-06	66.076	8.5336e-05	6.0177e-05	1.4988e-05	426.1	6.5793e-07	6.3993e-07	610.49	110.26	6.8027e-07	6.4526e-07	243.11	107.35	37.052	18.148	7.1141e-07	58.775	272.881	-5.081	6.473	-69.148	108.704	43.662	-68.227	-64.277	55.711	57.516	-64.559	-59.495	-59.714	-56.025	76.694	-56.933	-8191	255	
1955.848	1	1	0	0	0.3608	0.11079	0.13077	0.12031	0.048264	0.25999	0.14594	0.111	0.27938	0.19697	0.12944	0.26978	0.089092	0.18873	0.28336	0.36491	-2.0708	-3.025	-2.7646	-2.6042	-3.0542	-2.6271	-2.825	-2.9854	-2.4042	-2.8104	-2.7188	-2.5542	-3.0062	-2.5792	-2.7083	-3.0896	39.916	77.415	16.604	1.581	-79.951	223.774	268.267	93.059	145.763	108.967	156.974	196.521	73.003	170.706	23.842	246.491	0.00020855	0.00043615	3.3481e-05	477.35	4.4157e-06	3.1414e-06	691.6	123.94	3.3527e-06	4.5405e-06	276.37	119.75	41.391	20.074	2.9334e-06	66.207	8.5518e-05	5.8708e-05	1.6232e-05	425.95	6.6006e-07	5.8629e-07	613.78	110.72	6.2933e-07	6.9508e-07	243.55	107.02	37.217	18.045	6.8329e-07	58.672	266.174	13.292	24.910	-69.282	55.793	106.425	-67.961	-64.391	108.621	101.648	-64.065	-59.672	-59.760	-56.082	74.041	-57.244	-8191	255	
1955.967	1	1	0	0	0.068066	0.16006	0.1564	0.33266	0.16706	0.027762	0.11191	0.08337	0.047463	0.13216	0.20179	0.15815	0.12205	0.30889	0.14658	0.28273	-1.8937	-2.7375	-2.7	-2.4313	-2.9958	-2.7021	-2.7604	-2.9708	-2.5396	-2.7625	-2.9625	-2.4979	-2.9375	-2.7104	-2.6354	-3.1125	-40.091	-64.144	-63.955	114.616	17.668	75.986	-72.481	249.639	166.689	-48.896	143.648	265.755	228.794	-65.225	95.489	257.884	0.00021512	0.00052559	9.9574e-05	484.62	1.6317e-06	2.9956e-06	687.25	124.41	3.7403e-06	6.004e-06	273.32	117.91	40.961	19.911	3.4909e-06	64.814	8.5518e-05	6.8081e-05	1.5606e-05	428.77	7.285e-07	6.2552e-07	612.31	110.22	6.3631e-07	6.58e-07	242.1	105.88	36.754	17.805	6.3354e-07	57.69	267.493	-11.164	-12.253	-69.075	150.594	75.113	-67.920	-64.541	101.270	73.438	-64.371	-59.308	-60.115	-56.132	78.788	-57.393	-8191	255	
1956.063	1	1	0	0	0.086557	0.15784	0.15306	0.16454	0.37603	0.090282	0.30625	0.374	0.20462	0.039018	0.22998	0.17589	0.032796	0.15027	0.25009	0.21904	-2.1688	-2.7938	-2.9208	-2.6104	-3.0646	-2.6708	-2.6479	-3.0125	-2.3625	-2.975	-3.0812	-2.5667	-2.8021	-2.7229	-2.4875	-2.9833	-8.911	198.694	-59.879	201.427	-21.674	106.770	257.856	197.791	258.899	240.357	200.289	108.137	56.980	150.349	30.465	266.651	0.00024128	0.00038312	0.00010685	480.41	4.5715e-06	2.7915e-06	687.4	124.34	3.2774e-06	2.3265e-06	274.57	119.85	40.636	20.203	2.3882e-06	65.312	8.5513e-05	5.9544e-05	1.5035e-05	426.57	6.8061e-07	6.1823e-07	610.93	109.94	6.1223e-07	6.7743e-07	242.44	106.41	36.793	17.981	6.8988e-07	58.173	269.862	-18.341	-47.952	-69.800	78.350	31.158	-68.543	-63.943	107.707	133.516	-64.663	-59.992	-60.218	-55.745	81.401	-57.149	-8191	255	
1956.159	1	1	0	0	0.14674	0.10793	0.22461	0.1231	0.22416	0.1898	0.22173	0.12035	0.22634	0.030214	0.068503	0.097107	0.21139	0.12803	0.18619	0.10488	-2.2333	-2.7104	-2.9021	-2.4542	-2.7375	-2.6667	-2.5604	-2.9667	-2.6771	-2.6583	-3.0292	-2.5833	-2.8563	-2.8667	-2.5021	-3.0229	36.696	150.337	173.656	198.822	104.995	-25.637	273.390	277.450	-2.574	14.090	-75.860	-39.652	-39.233	192.709	-76.206	-79.313	0.00022745	0.00053188	7.0296e-05	479.98	5.5084e-06	9.1144e-07	691.1	123.79	2.4709e-06	3.1442e-06	272.39	119.13	41.323	20.176	3.153e-06	64.466	8.5859e-05	6.2603e-05	1.6995e-05	425.85	7.413e-07	6.1191e-07	613.63	110.48	6.4858e-07	6.5783e-07	242.21	106.48	37	17.946	6.4609e-07	57.817	-80.278	-16.593	-1.388	-68.805	85.847	75.621	-68.317	-63.557	89.163	78.266	-64.705	-59.474	-60.121	-56.681	99.735	-57.230	-8191	255	
1956.255	1	1	0	0	0.21723	0.17369	0.1913	0.050793	0.30995	0.089083	0.21319	0.12124	0.14646	0.24775	0.20943	0.16242	0.12509	0.19671	0.11221	0.2483	-2.2021	-2.6417	-2.8688	-2.5958	-3.0333	-2.9875	-2.5542	-2.9938	-2.65	-2.6771	-3.1979	-2.6646	-2.7625	-3.0208	-2.4938	-3.1167	103.004	41.781	-31.335	22.199	201.979	245.113	-8.111	204.841	-37.137	127.619	212.491	181.457	78.323	198.771	49.503	-25.546	0.00025961	0.00026474	9.1713e-05	487.09	3.376e-06	2.0575e-06	692.65	123.55	2.576e-06	1.784e-06	273.88	119.5	40.396	20.019	3.0693e-06	64.899	8.7856e-05	6.0079e-05	1.6858e-05	428.76	6.7325e-07	6.3321e-07	615.3	110.61	6.6474e-07	6.3812e-07	243.85	106.52	36.692	17.827	6.6881e-07	57.51	-73.284	-9.043	8.172	-69.133	86.635	98.071	-67.903	-64.565	75.075	87.865	-64.623	-59.625	-59.595	-55.766	78.412	-57.707	-8191	255	
1956.376	1	1	0	0	0.24365	0.29481	0.069662	0.12236	0.11466	0.055629	0.26538	0.10396	0.16838	0.1619	0.051328	0.31213	0.13204	0.3017	0.19424	0.17855	-2.3438	-2.5563	-3.0125	-2.7521	-2.7125	-2.9042	-2.5771	-3.0271	-2.85	-2.5812	-3.1271	-2.5646	-2.575	-2.9604	-2.4313	-2.8521	253.101	103.814	58.310	235.351	152.774	76.393	238.447	182.573	36.579	87.330	32.617	-81.481	107.391	26.559	255.740	203.523	0.00020492	0.00054286	6.6724e-05	481.78	2.4997e-06	2.9443e-06	688.34	124.03	2.6194e-06	4.4513e-06	268.89	118.81	41.22	19.815	4.7613e-06	64.359	8.4668e-05	5.8962e-05	1.6929e-05	426.7	7.116e-07	6.233e-07	613.25	110.06	6.4751e-07	6.4783e-07	240.87	105.58	36.671	17.701	6.09e-07	57.178	276.170	-18.714	-10.605	-69.283	51.875	63.492	-68.515	-64.044	71.081	90.081	-64.296	-59.445	-59.011	-55.671	55.686	-56.992	-8191	255	
1956.447	1	1	0	0	0.23993	0.22142	0.33362	0.25768	0.079227	0.20288	0.21748	0.20748	0.15243	0.085398	0.1126	0.087367	0.34161	0.22706	0.22571	0.037948	-2.3708	-2.3896	-2.8812	-2.7083	-2.6354	-2.8396	-2.5062	-2.6958	-2.8312	-2.4521	-2.8667	-2.8021	-2.5583	-3.0458	-2.5458	-2.8542	107.979	5.788	30.000	149.013	229.489	170.029	182.696	-23.916	23.761	158.999	80.278	-23.461	220.194	240.421	150.961	226.784	0.0001932	0.0001167	8.6569e-05	481.93	5.577e-06	3.9635e-06	688.92	123.21	2.8721e-06	1.7679e-06	273.9	118.44	40.868	20.098	1.0381e-06	64.274	8.9013e-05	5.8593e-05	1.6391e-05	426.6	6.9133e-07	6.1493e-07	613.93	110.08	6.4656e-07	6.1961e-07	242.12	105.5	36.514	17.789	6.2985e-07	57.292	268.156	18.679	13.508	-69.599	74.835	25.640	-68.570	-63.946	98.953	72.800	-63.921	-59.452	-59.923	-55.745	14.762	-57.120	-8191	255	
1956.544	1	1	0	0	0.073061	0.32593	0.17328	0.22538	0.20462	0.068783	0.1589	0.27339	0.088493	0.16427	0.10003	0.2343	0.26822	0.11413	0.21571	0.24126	-2.5062	-2.3208	-2.9333	-2.6813	-2.4771	-2.9292	-2.7167	-2.6979	-2.9917	-2.7125	-2.9771	-2.8812	-2.575	-2.8979	-2.5792	-2.8	-64.107	184.006	-49.078	-47.611	51.072	32.763	262.909	238.750	106.998	152.353	17.012	63.854	-76.480	121.603	25.399	227.531	0.00024179	0.00031585	8.2299e-05	483.73	5.0721e-06	2.9891e-06	691.57	124.03	2.9131e-06	3.3966e-06	274.58	118.26	41.073	20.059	3.6016e-06	64.76	8.342e-05	5.9056e-05	1.6878e-05	429.02	6.54e-07	6.2786e-07	616	110.07	6.6457e-07	6.2795e-07	242.74	105.99	36.899	17.864	6.2184e-07	57.796	273.912	-8.205	-6.890	-68.895	73.380	57.453	-68.188	-63.883	77.963	97.660	-63.863	-59.611	-59.864	-55.859	64.310	-57.194	-8191	255	
1956.640	1	1	0	0	0.31051	0.14473	0.07915	0.16159	0.13567	0.10649	0.19728	0.26446	0.099537	0.11647	0.31759	0.12043	0.15931	0.26002	0.30678	0.2684	-2.6417	-2.4208	-2.8875	-2.7271	-2.6542	-3.025	-2.5917	-2.6958	-2.8312	-2.6417	-2.9729	-2.7958	-2.4917	-2.9	-2.5563	-2.6042	141.054	75.712	184.593	231.583	167.843	81.625	170.162	190.935	-72.845	67.434	227.540	-59.316	170.304	-17.319	-31.932	194.911	0.00023041	0.00052053	8.7418e-05	480.08	2.4578e-06	4.3663e-06	689.81	123.11	1.2988e-06	4.5595e-06	270.26	117.85	40.784	19.652	1.9744e-06	63.584	8.692e-05	5.85e-05	1.6638e-05	427.47	6.4502e-07	6.1846e-07	615.34	110.18	6.2725e-07	6.0167e-07	240.23	105.2	36.505	17.564	6.1116e-07	56.709	267.235	27.658	-7.148	-69.228	115.734	68.601	-68.329	-63.676	125.102	96.744	-64.085	-59.485	-59.990	-55.642	83.617	-56.983	-8191	255	
1956.760	1	1	0	0	0.09579	0.16943	0.083367	0.088449	0.15615	0.33913	0.046431	0.087845	0.046977	0.23085	0.046913	0.16948	0.086044	0.17213	0.2317	0.18966	-2.4792	-2.4229	-2.8979	-2.8833	-2.4354	-2.8688	-2.7438	-2.7479	-2.8292	-2.6021	-2.7812	-2.8104	-2.4646	-2.975	-2.6771	-2.6083	72.754	121.474	17.434	-2.700	189.961	85.679	268.890	108.341	164.609	29.170	178.964	196.464	12.710	210.821	132.457	174.915	0.00019007	0.00031486	0.00012634	480.52	4.2226e-07	3.1475e-06	687.88	122.91	2.9898e-06	2.4091e-06	270.39	117.64	40.281	19.724	3.2198e-06	63.917	8.6041e-05	5.1614e-05	1.6887e-05	426.63	6.3699e-07	6.6429e-07	611.34	109.79	6.483e-07	5.9481e-07	240.43	105.15	36.279	17.575	6.1843e-07	56.938	268.089	-7.645	-7.644	-69.386	71.293	60.521	-68.638	-63.911	116.676	59.529	-64.184	-59.694	-59.171	-56.532	71.336	-57.346	-8191	255	
1956.857	1	1	0	0	0.20625	0.10896	0.19814	0.30728	0.067737	0.145	0.10192	0.096877	0.18012	0.095067	0.15081	0.15716	0.31268	0.20067	0.096158	0.23244	-2.4292	-2.2771	-2.8771	-2.9854	-2.5104	-2.9688	-2.9146	-2.5042	-2.8729	-2.625	-2.7125	-3.0292	-2.5021	-2.8	-2.7771	-2.6521	228.928	91.880	-78.847	190.673	-53.702	166.001	209.022	-70.059	150.340	121.088	161.713	29.625	227.061	155.809	94.628	187.319	0.00024695	0.00043638	9.6444e-05	482.99	2.7361e-06	1.72e-06	689.44	122.98	3.6773e-06	3.5736e-06	273.22	117.25	40.648	19.402	4.3217e-06	63.503	8.667e-05	5.6044e-05	1.691e-05	428.12	6.0212e-07	6.4334e-07	613.48	109.87	6.3074e-07	6.0915e-07	241.02	104.89	36.393	17.394	6.3127e-07	56.61	277.516	1.137	13.415	-69.274	75.109	60.545	-68.449	-64.091	82.629	93.425	-64.262	-59.535	-59.711	-56.497	56.267	-57.214	-8191	255	
1956.951	1	1	0	0	0.060924	0.045741	0.079312	0.087463	0.092185	0.037055	0.26684	0.15548	0.23286	0.15828	0.12752	0.17305	0.22536	0.077507	0.084272	0.11275	-2.4354	-2.7104	-2.7458	-3.025	-2.5583	-2.8021	-2.8042	-2.4104	-2.9208	-2.6813	-2.5417	-3.0458	-2.5792	-2.6729	-2.9042	-2.7104	195.666	246.990	-54.675	242.011	-72.663	-30.756	246.639	175.676	61.669	35.923	-9.958	264.243	-81.775	-69.690	-1.508	235.749	0.00021569	0.00027259	8.5327e-05	488.13	3.6594e-06	1.397e-06	693.91	123.43	1.8441e-06	4.946e-06	268.46	115.63	40.019	19.077	3.5302e-06	61.502	8.631e-05	5.5275e-05	1.6498e-05	430.53	5.9943e-07	6.6515e-07	615.46	109.67	6.7757e-07	5.7859e-07	239.01	103.37	35.876	17.08	6.0003e-07	54.682	274.253	14.677	5.242	-69.470	55.191	41.050	-68.403	-64.181	101.775	74.900	-64.255	-59.586	-60.118	-56.015	67.668	-57.185	-8191	255	
1957.049	1	1	0	0	0.1759	0.19142	0.14797	0.18824	0.12528	0.025821	0.12143	0.027508	0.27101	0.15946	0.19424	0.25332	0.25106	0.17591	0.1731	0.045101	-2.4875	-2.5292	-2.6562	-2.8542	-2.6562	-2.7354	-2.8354	-2.4667	-2.9875	-2.6458	-2.6104	-3	-2.5792	-2.8875	-2.8667	-2.4542	-29.460	240.145	10.836	250.606	86.892	-44.657	179.699	172.260	141.976	173.553	45.465	223.521	242.184	50.404	72.441	193.142	0.00024422	0.0001274	8.4659e-05	485.99	3.5313e-06	2.7933e-06	685.22	121.64	1.7255e-06	2.9971e-06	267.03	113.68	39.852	19.01	2.8251e-06	61.831	8.6123e-05	5.2876e-05	1.4801e-05	429.17	5.8809e-07	5.9535e-07	608.43	108.75	6.286e-07	6.0436e-07	236.74	101.61	35.632	16.99	6.0758e-07	55.07	270.403	-57.314	-28.909	-69.391	83.932	36.485	-68.602	-64.639	45.903	69.438	-64.545	-59.646	-60.087	-56.049	38.171	-56.956	-8191	255	
1957.143	1	1	0	0	0.22248	0.33636	0.34154	0.04862	0.16269	0.074002	0.078962	0.11639	0.025729	0.21443	0.12116	0.27197	0.19458	0.10169	0.17604	0.19249	-2.4062	-2.5938	-2.4417	-3.0812	-2.4688	-2.6667	-2.8833	-2.5167	-2.8896	-2.8479	-2.4813	-3.025	-2.6542	-2.6292	-2.8667	-2.4938	154.065	80.337	218.558	237.001	119.296	119.029	179.814	-51.841	185.925	100.376	112.181	193.038	102.715	270.283	265.258	90.279	0.00019604	0.00029509	7.9786e-05	481.93	2.9769e-06	4.0507e-06	685.57	122.28	2.688e-06	2.2647e-06	270.14	115.59	39.875	19.494	4.3718e-06	63.149	8.3482e-05	5.0799e-05	1.51e-05	428.4	5.9404e-07	6.0867e-07	609.31	109	6.6023e-07	6.0881e-07	239.22	103.1	35.935	17.302	6.4723e-07	56.184	277.030	-18.025	37.085	-69.538	61.726	63.232	-67.987	-64.236	84.494	89.527	-64.350	-59.561	-60.403	-56.190	59.563	-57.264	-8191	255	
1957.239	1	1	0	0	0.23842	0.20412	0.30226	0.10234	0.20353	0.31566	0.2194	0.30958	0.21784	0.24021	0.40401	0.0261	0.035934	0.28015	0.034695	0.25771	-2.4458	-2.7938	-2.4583	-3.0417	-2.4125	-2.5292	-3.1125	-2.6979	-2.7792	-2.8229	-2.4521	-2.8563	-2.5542	-2.525	-2.9813	-2.6792	47.755	116.149	61.840	242.583	241.804	-8.624	259.398	210.953	251.524	187.824	264.861	197.392	110.733	275.926	216.200	255.041	0.00025052	0.00034148	0.00013286	481.97	1.2911e-06	4.8341e-06	685.24	122.28	3.5002e-06	2.9178e-06	271.26	116.06	40.592	19.531	2.7054e-06	64.021	8.4419e-05	5.675e-05	1.5558e-05	427.51	6.1262e-07	6.2085e-07	609	109.57	6.5258e-07	6.1138e-07	240.01	104.16	36.134	17.398	6.541e-07	56.866	-80.599	-13.697	-12.662	-69.452	44.799	64.131	-68.180	-64.400	100.433	91.375	-64.211	-59.814	-60.436	-56.192	80.383	-57.023	-8191	255	
1957.336	1	1	0	0	0.2434	0.20133	0.11685	0.25021	0.24975	0.053178	0.24731	0.28677	0.16115	0.31638	0.21175	0.041649	0.085367	0.1838	0.026038	0.21805	-2.2771	-2.8042	-2.3979	-2.8896	-2.7083	-2.2958	-2.8292	-2.4229	-2.5458	-2.9667	-2.4208	-2.9542	-2.7354	-2.3479	-3.0896	-2.5583	137.507	252.827	154.161	275.232	-75.005	7.487	226.561	139.149	233.744	183.446	-44.594	228.613	104.453	273.325	266.166	-81.546	0.00016297	0.00047213	0.00013004	482.43	4.8259e-06	3.5552e-06	685.68	123.52	2.1989e-06	5.2236e-06	268.96	116.15	39.657	19.237	2.7413e-06	63.147	8.5086e-05	5.5311e-05	1.5639e-05	427.77	6.3862e-07	6.2507e-07	610.01	109.19	6.4836e-07	5.875e-07	237.99	103.53	35.727	17.256	6.4728e-07	56.102	264.297	12.254	-12.395	-69.223	84.834	93.580	-68.331	-64.367	73.591	81.733	-64.157	-59.761	-59.354	-56.127	70.502	-56.888	-8191	255	
1957.456	1	1	0	0	0.14294	0.088645	0.13504	0.26352	0.15783	0.18104	0.16305	0.24494	0.15624	0.041382	0.13117	0.12895	0.12692	0.13134	0.24661	0.26867	-2.1333	-2.8625	-2.4604	-2.7208	-2.6354	-2.55	-3.0208	-2.6583	-2.6917	-2.8917	-2.4667	-2.9625	-2.8125	-2.5333	-2.95	-2.8438	73.723	9.244	-11.916	269.503	-70.700	160.843	199.754	175.652	209.218	151.245	8.063	264.915	19.400	230.093	265.855	205.847	0.00022761	0.00028935	6.3919e-05	479.36	4.2088e-06	4.4202e-06	683.6	122.06	5.0288e-06	4.1645e-06	270.26	116.1	40.071	19.427	4.3501e-06	63.241	8.6281e-05	5.7238e-05	1.4183e-05	425.51	6.4103e-07	6.0918e-07	608.93	108.58	6.658e-07	6.211e-07	239.17	103.81	35.995	17.369	6.604e-07	56.285	276.406	-0.441	-0.424	-69.484	55.337	24.489	-68.028	-64.218	82.747	93.994	-64.477	-59.547	-59.419	-56.552	61.040	-56.759	-8191	255	
1957.552	1	1	0	0	0.17154	0.15869	0.35928	0.31557	0.087709	0.098268	0.23537	0.15699	0.20541	0.13348	0.072832	0.11922	0.1305	0.24321	0.17867	0.46816	-2.0312	-2.9667	-2.5458	-2.8312	-2.8187	-2.1917	-2.9708	-2.6354	-2.4396	-3.0792	-2.6562	-2.6229	-2.7667	-2.4771	-2.6771	-2.725	179.202	29.750	186.183	218.216	-48.191	154.960	214.929	159.627	77.710	174.116	-41.936	235.183	-31.972	-7.940	66.987	207.802	0.00022806	0.00054088	0.00011568	482.14	2.1989e-06	2.413e-06	690.26	122.82	1.1578e-06	4.4794e-06	273.32	116.7	39.634	19.229	6.1378e-06	63.131	8.7525e-05	5.6947e-05	1.4688e-05	427.49	6.3828e-07	6.1391e-07	613.09	109.34	5.9579e-07	6.1298e-07	240.24	104	35.778	17.211	6.7744e-07	56.117	-81.562	7.354	-13.420	-69.013	69.482	51.583	-68.264	-64.250	92.051	66.107	-64.314	-59.808	-60.003	-55.846	97.257	-57.077	-8191	255	
1957.648	1	1	0	0	0.21592	0.13455	0.12486	0.12611	0.041597	0.11907	0.11978	0.0681	0.031272	0.19908	0.26016	0.19665	0.10535	0.052149	0.10454	0.20851	-2.05	-2.9479	-2.6063	-2.8438	-3.0187	-2.5417	-2.9417	-2.7542	-2.5812	-2.95	-2.6063	-2.7396	-2.9479	-2.4708	-2.725	-2.9542	77.793	242.339	91.503	-23.447	153.171	-29.703	87.070	276.651	-55.322	21.984	235.712	254.434	-13.270	153.812	-38.855	235.674	0.00025147	0.00047886	8.0366e-05	481.75	9.5591e-07	2.474e-06	690.18	123.11	1.3509e-06	5.9075e-06	269.11	116.03	40.32	19.264	4.2513e-06	62.937	8.2234e-05	5.8422e-05	1.4472e-05	427.53	6.0544e-07	6.0952e-07	613.11	109.48	6.0187e-07	6.4338e-07	239.75	103.65	36.012	17.178	6.6699e-07	55.683	271.059	-8.192	-18.268	-69.559	189.684	62.826	-68.273	-64.042	76.649	94.587	-64.644	-59.323	-59.680	-55.806	132.459	-57.061	-8191	255	
1957.745	1	1	0	0	0.13834	0.27604	0.29947	0.29547	0.21685	0.15551	0.089738	0.18936	0.11704	0.14343	0.14974	0.41044	0.24778	0.091967	0.15639	0.18068	-2.0292	-2.7854	-2.8063	-2.5104	-2.9688	-2.5729	-2.7771	-2.7062	-2.4167	-2.9833	-2.8438	-2.6896	-3.0083	-2.5375	-2.6229	-2.8271	-65.199	220.664	34.892	-25.211	218.744	16.459	79.447	200.798	184.798	80.462	142.508	225.312	44.588	262.724	152.648	-78.671	0.00020999	0.00022338	0.00014623	482.39	3.8259e-06	2.7868e-06	685.43	121.18	3.9742e-06	3.2362e-06	269.53	115.75	39.635	19.347	3.8676e-06	62.729	8.1221e-05	5.7259e-05	1.5359e-05	426.75	5.827e-07	5.9643e-07	608.22	108.81	6.4931e-07	6.4109e-07	238.42	103.49	35.74	17.255	6.5927e-07	55.861	276.973	-12.357	-13.533	-69.095	86.993	28.351	-68.176	-63.731	100.325	81.916	-64.797	-59.567	-59.979	-55.504	88.989	-57.337	-8191	255	
1957.841	1	1	0	0	0.13229	0.15302	0.31442	0.25466	0.3673	0.038083	0.16518	0.23461	0.10157	0.010835	0.2687	0.16335	0.22085	0.045383	0.16403	0.15987	-2.0271	-3.0229	-2.5167	-2.6604	-3.0812	-2.6146	-3.0604	-2.8833	-2.4437	-2.7062	-2.8646	-2.6583	-2.7271	-2.6854	-2.6542	-2.9896	152.281	-61.359	271.099	-41.985	-53.075	276.802	252.388	-55.777	115.965	77.287	201.489	84.049	-64.649	110.693	238.333	-50.132	0.00020149	0.00021185	8.5208e-05	481.04	9.1132e-07	3.5206e-06	689.1	122.97	3.0229e-06	3.0795e-06	269.43	116.09	39.687	19.381	2.4603e-06	62.905	8.1961e-05	5.8941e-05	1.5375e-05	426.83	6.4513e-07	5.9802e-07	611.03	108.83	6.062e-07	6.5383e-07	238.81	103.58	35.748	17.23	6.3939e-07	56.043	262.292	-31.417	22.212	-68.904	62.194	33.152	-67.955	-64.091	56.325	71.578	-64.235	-59.288	-60.669	-56.511	65.257	-57.163	-8191	255	
1957.937	1	1	0	0	0.1157	0.14632	0.134	0.16951	0.26981	0.12032	0.051008	0.29807	0.19911	0.15802	0.16772	0.30744	0.24891	0.26351	0.0067967	0.060897	-1.9667	-2.9062	-2.6979	-2.5771	-3.0354	-2.6021	-2.7125	-2.8875	-2.4854	-2.9062	-2.7125	-2.4333	-2.7292	-2.6146	-2.6042	-2.9979	36.042	-59.844	-29.902	-30.783	247.379	155.753	131.798	268.548	255.772	138.584	148.277	267.685	44.786	231.731	146.109	156.709	0.00018869	0.00020358	8.2904e-05	477.57	2.6062e-06	3.9725e-06	686.23	122.94	1.7155e-06	2.2782e-06	270.39	116.76	40.19	19.338	1.3737e-06	62.959	8.0607e-05	6.0531e-05	1.5681e-05	425.66	6.3317e-07	6.1442e-07	612.07	109.38	6.156e-07	6.3321e-07	239.87	104.36	35.951	17.318	6.5717e-07	56.026	261.508	-32.119	39.414	-69.307	104.873	65.003	-68.292	-64.007	118.057	101.201	-64.398	-59.402	-59.640	-56.277	78.398	-57.253	-8191	255	
1958.056	1	1	0	0	0.10742	0.014188	0.056612	0.21008	0.16973	0.12084	0.12728	0.35286	0.191	0.14483	0.077595	0.23449	0.12558	0.1692	0.13769	0.27919	-2.2521	-2.6937	-2.7771	-2.5104	-2.8917	-2.6208	-2.6583	-3.1333	-2.55	-2.7521	-2.8104	-2.5583	-2.8937	-2.6312	-2.5438	-3.1188	184.008	85.949	141.867	-75.771	145.125	-51.988	210.335	-45.023	235.570	-23.023	153.695	60.050	-60.348	-60.029	95.655	221.879	0.00019809	0.00028556	7.3807e-05	481.31	4.5246e-06	2.8076e-06	683.13	122.35	2.1353e-06	6.7664e-06	267.58	114.6	39.743	19.15	1.8407e-06	62.308	7.957e-05	5.9123e-05	1.4943e-05	428.77	6.5231e-07	5.7292e-07	610.41	109.05	5.7069e-07	6.2595e-07	238.7	102.88	35.735	17.108	6.2877e-07	55.326	268.392	31.344	3.657	-68.936	58.405	62.690	-68.295	-64.302	99.337	69.385	-63.837	-59.613	-59.869	-55.967	100.403	-57.247	-8191	255	
1958.152	1	1	0	0	0.18087	0.17661	0.22579	0.19743	0.11152	0.11694	0.16417	0.19437	0.18323	0.23002	0.10079	0.36219	0.15219	0.21892	0.1337	0.24035	-2.0479	-2.5396	-2.8854	-2.525	-2.8208	-2.7271	-2.6417	-2.9354	-2.65	-2.7521	-2.6583	-2.6063	-2.8333	-2.875	-2.4396	-2.9292	-55.458	224.485	233.823	32.737	142.351	163.762	195.373	170.542	220.091	73.699	239.214	237.706	238.023	226.261	164.220	222.995	0.0002017	0.00016987	7.4044e-05	480.7	3.4512e-06	4.1233e-06	684	121.7	3.57e-06	4.5339e-06	268.78	116.35	40.211	19.475	2.8104e-06	63.155	8.1788e-05	5.6495e-05	1.5428e-05	426.46	6.2615e-07	5.5811e-07	608.36	108.81	6.2478e-07	6.568e-07	238.87	103.89	36.064	17.359	6.2945e-07	56.135	268.216	-2.206	26.383	-68.804	50.121	12.497	-68.526	-63.915	92.890	70.794	-64.434	-59.568	-60.334	-55.773	30.664	-57.082	-8191	255	
1958.248	1	1	0	0	0.09648	0.0811	0.17902	0.20877	0.36628	0.12359	0.069278	0.16856	0.23178	0.19051	0.09299	0.12136	0.1588	0.045759	0.28313	0.3452	-2.1	-2.5021	-3.0042	-2.5958	-2.7979	-2.9458	-2.4833	-2.85	-2.6771	-2.5042	-3.0354	-2.5021	-2.6042	-2.9125	-2.4708	-3.0146	232.095	27.700	75.134	183.943	-54.952	116.178	99.416	253.407	247.589	101.343	-45.329	-33.795	23.454	-1.463	-72.081	272.864	0.00019421	0.00033283	0.00014023	478.08	2.1486e-06	1.947e-06	689.63	122.26	3.5238e-06	6.1277e-08	271.8	117.44	39.792	19.521	2.6202e-06	63.917	8.4107e-05	5.8744e-05	1.585e-05	424.92	6.4344e-07	6.0742e-07	611	109.07	6.4228e-07	6.5166e-07	241.08	104.65	36.033	17.474	6.0025e-07	56.803	273.985	-13.321	2.733	-68.934	48.425	9.240	-68.693	-64.234	60.158	18.453	-64.300	-59.607	-60.050	-55.883	113.789	-57.471	-8191	255	
1958.320	1	1	0	0	0.084219	0.28055	0.18174	0.34222	0.19594	0.1305	0.086117	0.33369	0.12891	0.19081	0.13561	0.097223	0.042896	0.28686	0.13383	0.16217	-2.3667	-2.4771	-3.0875	-2.5458	-2.675	-2.7583	-2.55	-2.9125	-2.7771	-2.5896	-3.05	-2.7125	-2.7625	-2.7521	-2.5396	-2.8042	53.741	166.838	1.992	237.393	-7.464	276.967	176.282	148.655	193.969	193.347	110.044	246.549	-29.808	220.555	25.141	198.722	0.00024692	0.00036686	5.0036e-05	477.82	3.7146e-06	4.5958e-06	686.05	122.12	1.5469e-06	1.6345e-06	269.1	116.2	40.503	19.423	1.9354e-06	62.953	8.644e-05	5.9424e-05	1.6595e-05	425.59	6.6837e-07	6.4465e-07	612.76	109.09	6.0007e-07	5.9876e-07	239.66	103.98	36.263	17.293	6.006e-07	56.069	271.345	1.795	51.124	-68.905	47.458	49.450	-68.051	-64.194	167.193	13.550	-64.360	-59.615	-59.975	-55.887	-68.008	-57.024	-8191	255	
1958.440	1	1	0	0	0.2772	0.060685	0.18779	0.189	0.18027	0.25479	0.14931	0.26426	0.033749	0.17832	0.16459	0.20446	0.046866	0.24656	0.13597	0.25895	-2.4125	-2.5042	-2.8271	-2.5729	-2.6437	-2.9021	-2.6104	-2.8167	-2.9125	-2.3958	-2.9625	-2.5479	-2.7208	-2.9375	-2.5583	-2.9521	-36.562	-10.020	237.955	20.917	-27.046	159.740	-68.818	224.064	99.195	89.062	33.693	-66.299	-74.680	230.814	7.771	179.364	0.00023016	0.00042466	4.4082e-05	479.92	4.1071e-06	3.537e-06	679.47	122.87	3.7998e-06	3.9667e-06	269.52	116.98	40.425	19.489	2.9381e-06	63.515	8.8586e-05	5.6402e-05	1.5681e-05	424.55	6.6579e-07	6.1784e-07	606.37	108.71	6.1684e-07	6.171e-07	239.63	104.58	36.156	17.45	5.7685e-07	56.583	272.085	-12.557	6.337	-68.652	72.071	31.680	-67.923	-64.464	98.926	78.760	-64.493	-59.729	-59.522	-56.187	65.741	-56.952	-8191	255	
1958.537	1	1	0	0	0.06751	0.15114	0.12518	0.058395	0.14354	0.29953	0.20151	0.098172	0.14696	0.15414	0.072113	0.066584	0.019632	0.040043	0.1406	0.2517	-2.4125	-2.4604	-3.0563	-2.6229	-2.4396	-2.9125	-2.7208	-2.7875	-2.7229	-2.4771	-2.9667	-2.8542	-2.6667	-3.0312	-2.575	-2.8937	124.191	-55.063	90.477	-69.794	56.659	-44.334	263.590	251.316	189.973	-26.204	-43.230	207.432	78.239	174.529	173.415	227.510	0.00020645	0.00041659	4.9875e-05	478.32	3.8965e-06	5.2227e-06	686.37	122.51	1.3865e-06	1.1487e-06	271.47	117.64	40.721	19.593	2.3462e-06	64.07	8.6641e-05	5.6682e-05	1.602e-05	424.71	6.1593e-07	6.2125e-07	609.92	108.68	6.3614e-07	6.0476e-07	241.33	104.81	36.266	17.523	6.278e-07	56.831	273.886	1.646	-6.146	-69.374	60.518	58.210	-68.453	-64.584	55.399	100.373	-64.337	-59.515	-60.068	-56.131	98.683	-57.343	-8191	255	
1958.633	1	1	0	0	0.074823	0.11366	0.031459	0.075213	0.21905	0.049897	0.11754	0.10864	0.2638	0.3014	0.2303	0.17402	0.10927	0.12031	0.19012	0.15308	-2.5104	-2.3958	-2.7812	-2.6417	-2.3729	-3.1042	-2.6646	-2.6229	-2.9667	-2.4625	-2.9604	-2.6479	-2.7	-3.0083	-2.6167	-2.9021	-47.827	26.642	133.027	7.597	21.513	104.766	199.855	185.022	56.996	-55.657	-54.077	193.935	98.055	-32.274	180.964	162.881	0.00021539	0.00053648	5.3891e-05	476.89	2.8355e-06	3.7037e-06	690.64	122.54	2.7056e-06	4.6875e-06	270.98	117.64	40.044	19.463	4.7182e-06	63.748	8.5134e-05	5.7087e-05	1.6697e-05	424.73	6.3311e-07	6.2455e-07	611.91	109.18	6.4661e-07	6.123e-07	240.24	104.99	36.139	17.424	5.9611e-07	56.651	274.940	2.558	1.451	-69.026	73.021	77.335	-68.333	-64.379	73.935	83.402	-64.875	-59.446	-60.087	-56.602	56.605	-56.936	-8191	255	
1958.729	1	1	0	0	0.1536	0.10084	0.22542	0.081035	0.18987	0.26789	0.26755	0.18358	0.16732	0.11992	0.18108	0.38384	0.079676	0.19178	0.29801	0.25005	-2.5021	-2.4458	-2.8729	-2.85	-2.3792	-3.1292	-2.6667	-2.5604	-2.9771	-2.3312	-2.7417	-2.875	-2.4521	-2.9333	-2.5812	-2.5708	103.873	-5.731	185.951	-3.721	-29.397	-62.488	192.987	250.892	-50.726	103.030	-39.254	260.944	55.228	8.729	-74.688	231.970	0.0002135	0.00043368	3.2736e-05	476.63	2.5019e-06	2.9956e-06	684.12	122.2	2.4869e-06	5.0106e-06	267.7	116.62	39.853	19.337	2.0777e-06	63.058	8.6382e-05	5.3052e-05	1.7177e-05	425.8	5.9522e-07	6.4306e-07	608.06	108.98	6.649e-07	5.6842e-07	238.36	104.12	35.839	17.293	6.2286e-07	56.109	266.658	-5.441	-52.939	-68.780	50.909	75.488	-68.074	-64.395	99.554	75.257	-64.221	-60.131	-60.099	-56.196	72.832	-57.258	-8191	255	
1958.848	1	1	0	0	0.13139	0.084951	0.038735	0.031562	0.16977	0.18071	0.28924	0.3155	0.048213	0.15113	0.15885	0.28233	0.29539	0.17325	0.21331	0.1911	-2.5042	-2.3125	-2.7708	-2.8479	-2.3958	-3.0312	-2.8229	-2.5375	-2.8104	-2.5563	-2.7771	-2.9146	-2.3187	-2.7083	-2.5938	-2.625	38.865	15.561	95.320	-72.784	-53.844	21.825	189.193	131.346	180.151	156.169	-31.297	-52.782	271.613	182.273	106.137	184.579	0.00019278	0.00026746	2.337e-05	481.19	3.3341e-06	5.3343e-06	688.89	122.69	2.2971e-06	1.5233e-06	269.1	115.76	40.399	19.502	3.7742e-06	62.992	8.4923e-05	5.7223e-05	1.6051e-05	425.5	6.243e-07	6.3093e-07	610	108.97	6.5162e-07	6.051e-07	238.99	103.65	36.13	17.295	6.1127e-07	55.989	273.813	59.290	-37.689	-68.947	92.202	78.648	-68.599	-64.391	48.896	91.293	-64.360	-59.398	-60.176	-55.612	69.691	-57.268	-8191	255	
1958.921	1	1	0	0	0.20476	0.53251	0.19836	0.11914	0.16234	0.02665	0.23011	0.24729	0.24364	0.072997	0.085993	0.11587	0.17493	0.19496	0.093146	0.098748	-2.3771	-2.4479	-2.7125	-2.9813	-2.325	-2.725	-2.7313	-2.5563	-2.9833	-2.7021	-2.7354	-2.9333	-2.6083	-2.7208	-2.7729	-2.5312	39.494	67.674	215.010	250.736	246.289	57.432	-81.429	-52.216	268.200	155.843	-81.623	224.437	101.434	128.899	24.929	131.516	0.00019119	0.00053549	7.9018e-05	481.11	2.6196e-06	3.6666e-06	691.32	123.49	1.2404e-06	2.7232e-06	268.74	116.59	39.937	19.511	3.4204e-06	62.994	8.6795e-05	5.1775e-05	1.6275e-05	426.07	5.7832e-07	6.2262e-07	612.83	109.4	6.3052e-07	5.983e-07	239.88	103.89	35.945	17.371	6.5234e-07	56.065	269.685	-19.438	-5.103	-69.414	121.622	80.160	-68.339	-64.189	94.756	74.690	-63.861	-59.792	-60.134	-56.209	62.421	-56.677	-8191	255	
1959.017	1	1	0	0	0.12834	0.36406	0.2404	0.11721	0.38973	0.1104	0.16285	0.11701	0.21453	0.1637	0.19845	0.090151	0.24869	0.18425	0.12726	0.1665	-2.4875	-2.6167	-2.6521	-3.0146	-2.4729	-2.7625	-2.7271	-2.4271	-3.0208	-2.7375	-2.5854	-3.0271	-2.3833	-2.5604	-2.8646	-2.5625	-59.783	15.347	-17.666	83.950	137.249	142.216	274.295	257.174	180.727	-79.208	242.548	267.049	141.043	234.501	-17.711	170.286	0.00017238	0.00038928	0.00010812	483.51	5.6588e-06	2.8234e-06	685.83	121.75	1.8161e-06	3.6381e-06	270.55	116.07	40.707	19.196	2.5788e-06	62.865	8.6483e-05	5.3281e-05	1.6563e-05	429.24	6.0414e-07	6.1453e-07	611.06	109	6.4352e-07	5.8464e-07	239.77	103.54	36.087	17.244	6.0752e-07	55.903	260.800	-23.713	12.135	-69.044	46.711	13.948	-68.224	-64.403	103.228	74.894	-64.255	-59.580	-60.020	-56.391	50.564	-57.295	-8191	255	
1959.136	1	1	0	0	0.14286	0.26844	0.1157	0.079214	0.11835	0.14915	0.31367	0.12256	0.25694	0.0068923	0.29002	0.12113	0.13862	0.27632	0.19496	0.32365	-2.3208	-2.6958	-2.5292	-2.8812	-2.5396	-2.6958	-2.8771	-2.5667	-2.8875	-2.9375	-2.7146	-3.2583	-2.7542	-2.7188	-2.8333	-2.4667	-34.215	3.236	-42.845	227.438	163.469	217.960	171.471	227.103	73.979	-49.068	198.111	8.135	46.575	168.853	30.371	184.027	0.00024056	0.0004505	7.7877e-05	475.62	3.2125e-06	4.2098e-06	681.43	121.53	2.1629e-06	2.3418e-06	269.84	116.18	40.471	19.364	1.4295e-06	63.22	8.6555e-05	5.3992e-05	1.5255e-05	423.12	5.8466e-07	6.1265e-07	606.76	108.68	6.4335e-07	5.8156e-07	239.51	103.82	36.018	17.328	6.2593e-07	56.3	269.988	-5.622	-5.149	-68.813	35.299	72.767	-68.160	-64.189	128.197	67.827	-64.188	-59.944	-59.621	-56.375	53.318	-57.161	-8191	255	
1959.232	1	1	0	0	0.029481	0.14401	0.17648	0.27605	0.23313	0.23829	0.17994	0.28243	0.065458	0.030884	0.096224	0.52255	0.15449	0.22682	0.040789	0.076661	-2.4417	-2.8187	-2.5208	-2.9208	-2.6958	-2.675	-2.9875	-2.6958	-2.7854	-2.7604	-2.6917	-2.7729	-2.6583	-2.6792	-3.0271	-2.7042	15.518	93.986	262.356	-4.213	-25.565	176.261	243.355	104.458	231.721	24.329	144.010	188.401	234.574	-39.392	92.239	218.736	0.00018623	0.00038417	7.8086e-05	478.19	1.4122e-06	3.8795e-06	687.59	121.59	2.6789e-06	3.5075e-06	270.55	117.14	40.03	19.625	3.0389e-06	63.78	8.1941e-05	5.3837e-05	1.483e-05	425.67	5.9612e-07	5.9415e-07	610.09	108.63	6.4341e-07	5.803e-07	240.06	104.4	36.068	17.451	6.2087e-07	56.71	269.489	-2.788	-19.598	-69.335	34.696	58.064	-68.378	-64.610	41.624	56.750	-64.752	-60.057	-59.522	-56.228	65.515	-57.003	-8191	255	
1959.329	1	1	0	0	0.26634	0.18973	0.021929	0.20664	0.29423	0.15021	0.21429	0.13486	0.072208	0.079315	0.18156	0.01906	0.31888	0.093876	0.14438	0.21415	-2.4292	-2.8271	-2.4208	-2.9583	-2.7125	-2.625	-3.1188	-2.6271	-2.8187	-3.1458	-2.6042	-2.9479	-2.8438	-2.4854	-3.0083	-2.9417	13.944	46.596	114.554	203.930	273.024	-60.518	273.567	58.554	32.023	48.876	134.984	12.281	233.594	127.792	32.469	177.954	0.00018062	0.00046534	6.0983e-05	480.24	3.6459e-06	3.6406e-06	687.28	121.63	1.5421e-06	3.9017e-06	273.43	118.3	40.979	19.627	2.9151e-06	63.836	8.836e-05	5.8656e-05	1.5106e-05	426.35	6.0027e-07	6.4989e-07	612.07	109.44	5.9512e-07	6.0116e-07	241.15	105.32	36.62	17.522	6.3059e-07	56.749	262.481	-21.303	-7.834	-68.837	35.750	54.673	-68.209	-64.461	81.329	69.986	-64.473	-59.926	-59.665	-55.754	88.176	-57.395	-8191	255	
1959.449	1	1	0	0	0.1605	0.18425	0.18628	0.091304	0.2294	0.14703	0.14064	0.083369	0.35352	0.083274	0.20472	0.076135	0.23662	0.16212	0.039117	0.1944	-2.3958	-2.7875	-2.5229	-2.9188	-2.8229	-2.6	-3.15	-2.6667	-2.7938	-2.8937	-2.7417	-2.8583	-2.875	-2.4542	-3.0104	-2.7938	236.785	74.563	105.390	90.557	211.279	101.004	230.272	-33.778	-43.779	268.292	240.634	222.452	-49.714	215.794	162.729	218.471	0.00018402	0.00035809	7.1286e-05	475.1	2.6193e-06	4.4769e-06	675.68	120.82	2.1726e-06	3.7316e-06	267.95	116.08	40.639	19.335	1.4944e-06	63.473	8.6036e-05	5.6241e-05	1.5173e-05	422.79	6.2447e-07	5.8134e-07	605.49	108.24	5.9168e-07	6.0116e-07	237.69	103.59	36.134	17.364	6.5632e-07	56.391	266.385	8.215	5.044	-69.093	90.066	41.113	-68.219	-64.196	86.421	58.659	-64.584	-59.670	-59.932	-56.531	9.970	-57.526	-8191	255	
1959.545	1	1	0	0	0.19682	0.15128	0.27157	0.22659	0.14583	0.15951	0.13368	0.3315	0.16598	0.21383	0.12846	0.27029	0.25624	0.11094	0.1305	0.034166	-2.1229	-2.9396	-2.5208	-2.75	-2.7333	-2.5896	-2.9854	-2.625	-2.65	-2.8542	-2.5687	-2.7792	-2.9062	-2.5521	-2.6479	-2.9813	78.211	250.275	251.755	200.895	-10.720	172.882	236.053	-35.196	9.409	227.979	226.652	23.145	239.921	263.648	118.061	151.456	0.00022147	0.00051875	6.2615e-05	479.31	3.447e-06	4.466e-06	679.39	122.25	2.9449e-06	3.4817e-06	269.89	116.98	41.103	19.448	3.256e-06	63.467	8.1068e-05	5.6667e-05	1.4222e-05	423.55	6.1739e-07	6.081e-07	606.14	108.7	5.9816e-07	6.0498e-07	238.97	104.09	36.446	17.405	6.2286e-07	56.411	274.886	-18.033	-12.388	-69.137	36.164	68.361	-68.147	-64.227	93.793	72.173	-64.130	-59.374	-59.683	-56.510	120.774	-57.195	-8191	255	
1959.617	1	1	0	0	0.070113	0.20075	0.17785	0.28718	0.27599	0.35395	0.22938	0.17944	0.071878	0.097876	0.015181	0.1771	0.20245	0.052165	0.12686	0.37908	-2.1188	-2.7458	-2.4958	-2.825	-2.975	-2.3937	-3.0042	-2.7208	-2.5312	-2.8812	-2.6417	-2.7729	-2.9688	-2.5771	-2.6646	-2.9188	118.905	234.611	179.089	1.135	-1.792	243.713	246.415	207.666	61.420	-54.140	227.735	157.296	273.314	265.713	-15.461	179.220	0.00017831	0.00035326	0.00013907	478.72	1.1366e-06	3.3318e-06	685.6	121.75	3.0031e-06	2.9677e-06	271.84	116.36	39.73	19.45	4.3166e-06	63.529	8.1696e-05	5.7378e-05	1.4499e-05	425.07	5.9376e-07	5.5578e-07	609.57	108.77	5.9568e-07	6.1087e-07	239.58	104.02	35.929	17.322	6.1468e-07	56.373	270.065	-24.995	14.549	-69.138	49.295	11.191	-68.473	-64.526	87.693	90.971	-64.021	-59.168	-60.309	-56.189	79.775	-57.236	-8191	255	
1959.738	1	1	0	0	0.12073	0.19451	0.21342	0.21014	0.08457	0.32442	0.14351	0.19764	0.16655	0.22172	0.18712	0.10882	0.15662	0.12396	0.209	0.16715	-2.025	-2.9729	-2.5062	-2.6458	-3.075	-2.5625	-2.9188	-2.8812	-2.5167	-3.0104	-2.6771	-2.7646	-2.9479	-2.525	-2.9104	-2.8333	54.607	27.224	159.860	257.793	39.329	88.457	115.800	184.444	-45.694	227.654	196.318	260.676	202.843	-75.183	65.078	162.613	0.00022509	0.00026193	9.9364e-05	483.58	2.9904e-06	3.4732e-06	684.14	120.97	2.2152e-06	1.0373e-06	267.6	114.16	40.096	19.077	2.852e-06	62.034	8.415e-05	5.3032e-05	1.497e-05	426.84	6.1116e-07	5.5288e-07	609.57	108.75	5.878e-07	5.855e-07	236.95	102.21	35.799	17.026	6.0991e-07	54.936	273.513	6.925	-11.286	-68.947	-9.477	76.836	-68.437	-63.952	87.878	124.014	-64.163	-59.671	-60.399	-55.775	97.711	-57.572	-8191	255	
1959.834	1	1	0	0	0.1414	0.25795	0.2794	0.23419	0.069695	0.055193	0.27953	0.087456	0.17264	0.18695	0.14229	0.18924	0.21997	0.28309	0.098375	0.22691	-2.0542	-2.6771	-2.7958	-2.7313	-2.9625	-2.5125	-2.6583	-2.9271	-2.5083	-2.8396	-2.7729	-2.6063	-2.8417	-2.6625	-2.5625	-2.9208	-7.444	266.702	-11.856	259.051	40.050	179.052	181.416	175.652	96.881	-27.072	-2.921	132.390	193.222	-12.628	73.155	-32.136	0.0002347	0.00032244	0.00010767	479.22	3.7727e-06	2.3101e-06	679.7	120.35	1.925e-06	4.0129e-06	265.68	113.9	40.059	19.207	3.438e-06	62.257	8.0155e-05	5.6978e-05	1.4318e-05	425.67	6.0712e-07	5.5128e-07	603.93	108	5.7193e-07	5.8133e-07	235.48	101.73	35.692	17.097	6.2934e-07	55.462	267.172	-15.089	-18.575	-69.356	100.754	22.665	-68.434	-63.811	109.545	117.352	-64.113	-59.732	-59.816	-56.164	43.978	-57.358	-8191	255	
1959.928	1	1	0	0	0.11335	0.062365	0.18565	0.038173	0.18012	0.14184	0.16501	0.032277	0.24863	0.16683	0.34038	0.21	0.12565	0.050861	0.047184	0.23823	-2.1271	-3	-2.7833	-2.5583	-2.9833	-2.4208	-2.7542	-2.8917	-2.65	-2.9437	-2.7604	-2.3333	-2.9	-2.5979	-2.5625	-2.9125	63.161	116.629	195.688	105.150	227.070	92.193	92.055	147.399	-49.176	240.271	74.868	238.697	271.313	66.499	36.355	202.309	0.00020547	0.00032076	4.4795e-05	480.35	4.6349e-06	1.6155e-06	681.89	121.39	7.8669e-07	2.1781e-06	265.69	114.2	39.757	18.967	6.3619e-07	61.997	8.0467e-05	5.2902e-05	1.4392e-05	425.91	6.1262e-07	5.7605e-07	604.34	108.35	5.869e-07	6.0201e-07	235.82	101.99	35.574	17.027	6.4405e-07	55.328	-81.779	-34.888	30.435	-68.739	62.870	13.497	-68.089	-64.006	135.270	131.285	-64.567	-59.464	-60.146	-56.018	96.617	-57.502	-8191	255	
1960.024	1	1	0	0	0.24113	0.12682	0.36403	0.20688	0.10982	0.31735	0.19073	0.18089	0.11797	0.25002	0.30371	0.077553	0.15334	0.074565	0.10458	0.23024	-2.0687	-2.8042	-2.9125	-2.45	-2.75	-2.6458	-2.5938	-2.8354	-2.5438	-2.7354	-2.9208	-2.5083	-2.7146	-2.75	-2.4604	-3.0062	-18.288	-57.167	141.612	-56.694	-22.815	35.344	223.263	194.865	40.843	180.076	260.395	127.159	192.321	93.230	68.934	168.615	0.00020891	0.00021698	8.9547e-05	477.49	2.0575e-06	2.9286e-06	688.25	120.99	1.3378e-06	1.5592e-06	267.59	113.09	39.494	18.691	3.3328e-06	60.996	7.7937e-05	5.4548e-05	1.3953e-05	426.69	6.0448e-07	5.8003e-07	609.89	108.25	5.6855e-07	5.8984e-07	235.64	101.08	35.369	16.742	5.6828e-07	54.307	272.315	20.513	-30.178	-69.222	76.722	66.790	-68.594	-64.460	111.550	51.248	-64.487	-59.644	-60.045	-55.872	79.381	-57.288	-8191	255	
1960.145	1	1	0	0	0.056035	0.11672	0.18944	0.2236	0.20643	0.024809	0.18617	0.26644	0.10738	0.25711	0.081095	0.2199	0.15996	0.4635	0.20743	0.34118	-2.2229	-2.9667	-2.825	-2.5271	-2.6729	-2.6625	-2.5042	-3.0667	-2.7	-2.6396	-2.9708	-2.4938	-2.8521	-2.9271	-2.4729	-3.1417	-50.863	54.288	128.744	259.731	118.732	76.371	159.199	262.711	186.122	-4.819	-61.902	231.188	269.807	228.808	-19.125	222.928	0.00020816	0.00031856	1.4574e-05	478.76	1.856e-06	2.3784e-06	679.27	120.02	1.659e-06	2.179e-06	261.83	110.97	39.094	18.775	2.0585e-06	61.254	7.3108e-05	5.2388e-05	1.4688e-05	422.95	6.0106e-07	5.2133e-07	600.58	107.34	5.842e-07	5.7996e-07	232.19	99.587	35.047	16.794	5.6453e-07	54.371	271.032	0.651	20.179	-68.702	40.051	21.232	-68.683	-64.201	122.417	89.326	-64.151	-59.729	-59.508	-56.298	29.496	-57.303	-8191	255	
#DATA ENDS
