BOXY.EXE: ISS Imagent and Oximeter Data Acquisition Program Version 0.80
Ascii Record File

#ACQ INFORMATION
2  Detector Channels 
16  External MUX Channels 
1  Auxiliary Channels 
5000  Waveform (CCF) Frequency (Hz)
1  Waveforms Skipped 
30  Waveforms Averaged 
1  Cycles Averaged 
16  Acquisitions per Waveform 
10.0806  Updata Rate (Hz) 

#FILE INFORMATION
TRUE -- External MUX Channel results are PARSED.
FALSE -- AC DC and Phase are NOT grouped.
TRUE -- Companion Program Settings File CREATED.
FALSE -- AC data not excluded
FALSE -- DC data not excluded
FALSE -- Phase data not excluded
FALSE -- Auxillary Chn. data not excluded
Tab delimiters

#CALIBRATION STATE
TRUE -- Waveform Calibration Values APPLIED.


#AUX CALIBRATION VALUES
Val Type	aux-1	

Term	1.0000e+00	
Factor	0.0000e+00	


#WF CALIBRATION VALUES
A = Detector Channel
Val Type	A-AC1	A-AC2	A-AC3	A-AC4	A-AC5	A-AC6	A-AC7	A-AC8	A-AC9	A-AC10	A-AC11	A-AC12	A-AC13	A-AC14	A-AC15	A-AC16	A-DC1	A-DC2	A-DC3	A-DC4	A-DC5	A-DC6	A-DC7	A-DC8	A-DC9	A-DC10	A-DC11	A-DC12	A-DC13	A-DC14	A-DC15	A-DC16	A-Ph1	A-Ph2	A-Ph3	A-Ph4	A-Ph5	A-Ph6	A-Ph7	A-Ph8	A-Ph9	A-Ph10	A-Ph11	A-Ph12	A-Ph13	A-Ph14	A-Ph15	A-Ph16	

Term	0.00000e+00	0.00000e+00	0.00000e+00	0.00000e+00	0.00000e+00	0.00000e+00	0.00000e+00	0.00000e+00	0.00000e+00	0.00000e+00	0.00000e+00	0.00000e+00	0.00000e+00	0.00000e+00	0.00000e+00	0.00000e+00	0.00000e+00	0.00000e+00	0.00000e+00	0.00000e+00	0.00000e+00	0.00000e+00	0.00000e+00	0.00000e+00	0.00000e+00	0.00000e+00	0.00000e+00	0.00000e+00	0.00000e+00	0.00000e+00	0.00000e+00	0.00000e+00	0.00000e+00	0.00000e+00	0.00000e+00	0.00000e+00	0.00000e+00	0.00000e+00	0.00000e+00	0.00000e+00	0.00000e+00	0.00000e+00	0.00000e+00	0.00000e+00	0.00000e+00	0.00000e+00	0.00000e+00	0.00000e+00	
Factor	1.00000e+00	1.00000e+00	1.00000e+00	1.00000e+00	1.00000e+00	1.00000e+00	1.00000e+00	1.00000e+00	1.00000e+00	1.00000e+00	1.00000e+00	1.00000e+00	1.00000e+00	1.00000e+00	1.00000e+00	1.00000e+00	1.00000e+00	1.00000e+00	1.00000e+00	1.00000e+00	1.00000e+00	1.00000e+00	1.00000e+00	1.00000e+00	1.00000e+00	1.00000e+00	1.00000e+00	1.00000e+00	1.00000e+00	1.00000e+00	1.00000e+00	1.00000e+00	X	X	X	X	X	X	X	X	X	X	X	X	X	X	X	X	

B = Detector Channel
Val Type	B-AC1	B-AC2	B-AC3	B-AC4	B-AC5	B-AC6	B-AC7	B-AC8	B-AC9	B-AC10	B-AC11	B-AC12	B-AC13	B-AC14	B-AC15	B-AC16	B-DC1	B-DC2	B-DC3	B-DC4	B-DC5	B-DC6	B-DC7	B-DC8	B-DC9	B-DC10	B-DC11	B-DC12	B-DC13	B-DC14	B-DC15	B-DC16	B-Ph1	B-Ph2	B-Ph3	B-Ph4	B-Ph5	B-Ph6	B-Ph7	B-Ph8	B-Ph9	B-Ph10	B-Ph11	B-Ph12	B-Ph13	B-Ph14	B-Ph15	B-Ph16	

Term	0.00000e+00	0.00000e+00	0.00000e+00	0.00000e+00	0.00000e+00	0.00000e+00	0.00000e+00	0.00000e+00	0.00000e+00	0.00000e+00	0.00000e+00	0.00000e+00	0.00000e+00	0.00000e+00	0.00000e+00	0.00000e+00	0.00000e+00	0.00000e+00	0.00000e+00	0.00000e+00	0.00000e+00	0.00000e+00	0.00000e+00	0.00000e+00	0.00000e+00	0.00000e+00	0.00000e+00	0.00000e+00	0.00000e+00	0.00000e+00	0.00000e+00	0.00000e+00	-2.67937e+02	-1.30297e+02	-1.24741e+02	-1.87822e+02	-6.96048e+01	-6.65855e+01	-1.56226e+02	-1.62015e+02	-6.64801e+01	-6.54146e+01	-1.71993e+02	-1.70449e+02	-1.82921e+02	-1.77447e+02	-7.06104e+01	-1.50185e+02	
Factor	5.08686e-05	1.23101e-04	3.70342e-05	3.47696e-01	1.44184e-06	1.36155e-06	1.51375e-01	4.06272e-02	2.33488e-06	1.39090e-06	7.25516e-02	2.05289e-02	3.17289e-02	6.81532e-03	1.55922e-06	9.51071e-03	2.34709e-05	6.99811e-05	2.09637e-05	1.86283e-01	7.08699e-07	8.53338e-07	7.64441e-02	2.19243e-02	5.51292e-07	8.80824e-07	3.79906e-02	1.07674e-02	1.72504e-02	3.72260e-03	6.45250e-07	5.03074e-03	X	X	X	X	X	X	X	X	X	X	X	X	X	X	X	X	



#DISTANCE SETTINGS
A = Detector Channel
A-1	A-2	A-3	A-4	A-5	A-6	A-7	A-8	A-9	A-10	A-11	A-12	A-13	A-14	A-15	A-16	

2.5000e+00	3.0000e+00	2.5000e+00	3.0000e+00	2.0000e+00	3.0000e+00	1.5000e+00	3.0000e+00	3.0000e+00	3.0000e+00	3.0000e+00	3.0000e+00	3.0000e+00	3.0000e+00	1.5000e+00	3.0000e+00	

B = Detector Channel
B-1	B-2	B-3	B-4	B-5	B-6	B-7	B-8	B-9	B-10	B-11	B-12	B-13	B-14	B-15	B-16	

1.0000e+01	1.0000e+01	1.0000e+01	1.4400e+00	1.0000e+01	1.0000e+01	1.5100e+00	1.9400e+00	1.0000e+01	1.0000e+01	1.9900e+00	2.4900e+00	2.4100e+00	2.9000e+00	1.0000e+01	2.9800e+00	




#DATA BEGINS
time	group	step	mark	flag	A-AC1	A-AC2	A-AC3	A-AC4	A-AC5	A-AC6	A-AC7	A-AC8	A-AC9	A-AC10	A-AC11	A-AC12	A-AC13	A-AC14	A-AC15	A-AC16	A-DC1	A-DC2	A-DC3	A-DC4	A-DC5	A-DC6	A-DC7	A-DC8	A-DC9	A-DC10	A-DC11	A-DC12	A-DC13	A-DC14	A-DC15	A-DC16	A-Ph1	A-Ph2	A-Ph3	A-Ph4	A-Ph5	A-Ph6	A-Ph7	A-Ph8	A-Ph9	A-Ph10	A-Ph11	A-Ph12	A-Ph13	A-Ph14	A-Ph15	A-Ph16	B-AC1	B-AC2	B-AC3	B-AC4	B-AC5	B-AC6	B-AC7	B-AC8	B-AC9	B-AC10	B-AC11	B-AC12	B-AC13	B-AC14	B-AC15	B-AC16	B-DC1	B-DC2	B-DC3	B-DC4	B-DC5	B-DC6	B-DC7	B-DC8	B-DC9	B-DC10	B-DC11	B-DC12	B-DC13	B-DC14	B-DC15	B-DC16	B-Ph1	B-Ph2	B-Ph3	B-Ph4	B-Ph5	B-Ph6	B-Ph7	B-Ph8	B-Ph9	B-Ph10	B-Ph11	B-Ph12	B-Ph13	B-Ph14	B-Ph15	B-Ph16	aux-1	digaux	

2397.305	1	1	0	256	0.21611	0.29108	0.14425	0.20311	0.22259	0.19262	0.20457	0.23512	0.15901	0.16204	0.33254	0.090347	0.2101	0.14223	0.16769	0.21067	-2.9	-3.7938	-3.25	-3.3271	-3.8063	-2.9562	-3.7792	-3.6562	-2.9354	-3.8104	-3.2708	-3.2396	-3.7812	-2.9854	-3.3854	-3.4	271.535	411.490	169.605	444.578	416.408	170.215	271.538	287.459	262.766	322.898	161.527	105.628	330.943	405.551	119.501	180.179	9.2891e-05	4.4497e-05	7.6048e-06	26.22	3.1572e-07	7.093e-07	60.427	7.3886	1.6249e-06	1.2228e-06	19.952	6.8335	3.1084	0.64097	7.9241e-07	1.7609	0.00014097	0.00028546	9.5559e-05	26.97	2.6355e-06	4.1014e-06	59.679	7.3694	2.459e-06	3.1288e-06	19.612	6.9065	3.0937	0.66426	3.0609e-06	1.7771	378.681	264.059	147.316	103.914	428.843	168.065	101.076	109.282	222.661	215.669	104.704	107.886	112.123	115.715	155.235	110.391	-8191	255	
2397.426	1	1	0	0	0.017917	0.084617	0.03001	0.2703	0.11249	0.31066	0.06178	0.13252	0.2518	0.25307	0.23997	0.051717	0.26737	0.19955	0.11471	0.17246	-2.4729	-3.6688	-3.2917	-3.1562	-3.8125	-3.0583	-3.325	-3.5917	-2.9167	-3.8063	-3.3	-3.0896	-3.6875	-3.0187	-3.4125	-3.6979	363.488	312.452	228.092	262.262	433.827	101.868	361.343	119.132	254.804	217.633	422.412	255.309	377.389	292.636	213.262	381.426	5.5624e-05	0.00010611	2.3714e-06	26.149	9.8276e-07	7.2769e-08	58.937	7.286	4.7356e-07	3.8516e-07	19.316	7.0271	3.1609	0.65961	1.2533e-06	1.7253	0.00012523	0.0002391	9.6564e-05	26.412	2.386e-06	3.5894e-06	59.359	7.2251	2.6094e-06	2.9214e-06	19.399	6.9376	3.1173	0.65661	2.7074e-06	1.7596	398.667	206.721	246.314	103.107	212.617	271.363	101.340	110.588	245.822	168.629	104.788	107.899	110.806	115.172	230.309	110.180	-8191	255	
2397.522	1	1	0	0	0.26816	0.073181	0.12526	0.14084	0.17077	0.0085824	0.25138	0.08057	0.21067	0.13296	0.22375	0.1243	0.28156	0.1728	0.12969	0.15335	-2.8042	-3.7625	-3.4083	-3.0875	-3.7792	-3.0771	-3.1917	-3.7271	-2.8792	-3.6229	-3.4542	-3.0479	-3.8792	-3.2375	-3.2583	-3.7562	259.535	333.731	91.360	315.951	143.381	242.766	172.755	283.194	298.349	260.856	350.389	373.074	342.697	154.492	124.779	127.425	3.3509e-05	6.5547e-05	2.305e-05	25.935	9.2716e-07	4.6025e-07	57.298	6.9444	2.0528e-06	3.8094e-07	18.784	6.7427	3.055	0.61592	7.9718e-07	1.6556	0.00013598	0.00028488	7.6561e-05	26.193	2.8747e-06	3.8951e-06	58.419	7.0573	2.5233e-06	3.2902e-06	18.858	6.7396	3.0625	0.63901	2.4009e-06	1.7117	434.277	431.508	314.497	104.180	271.937	166.380	100.585	107.833	253.171	381.844	103.911	108.051	112.491	116.093	177.827	109.301	-8191	255	
2397.618	1	1	0	0	0.10611	0.1514	0.28838	0.035043	0.15517	0.027463	0.28194	0.22487	0.080455	0.16294	0.24452	0.11783	0.13403	0.21628	0.18341	0.056869	-2.6146	-3.5458	-3.4271	-2.9521	-3.5854	-3.3063	-3.1417	-3.8187	-2.8937	-3.4771	-3.4479	-2.9979	-3.6312	-3.3438	-3.0104	-3.7687	321.703	109.945	340.083	194.076	313.552	320.598	279.872	224.106	168.848	140.688	375.062	167.510	359.727	329.416	239.494	191.964	7.19e-05	4.4565e-05	7.7112e-06	26.038	4.0751e-07	3.2654e-07	59.521	6.8824	1.3178e-06	5.3343e-07	19.048	6.7674	3.0753	0.63296	1.3482e-07	1.6884	0.00012547	0.00028095	7.0316e-05	26.43	2.3284e-06	3.2694e-06	58.547	7.0032	2.5107e-06	3.5086e-06	18.831	6.7258	2.9602	0.64645	2.7114e-06	1.7205	395.899	120.551	97.895	103.435	375.863	407.924	100.815	109.666	129.567	155.917	104.222	107.408	111.194	116.203	147.683	109.925	-8191	255	
2397.737	1	1	0	0	0.23419	0.10665	0.20698	0.12523	0.19962	0.19798	0.023632	0.23941	0.11775	0.1103	0.16116	0.078482	0.24462	0.14128	0.07134	0.19045	-2.6917	-3.375	-3.4688	-2.7646	-3.6875	-3.4292	-2.975	-3.8333	-3.0479	-3.025	-3.7208	-2.825	-3.6417	-3.5625	-2.9104	-3.6583	209.826	161.576	270.937	396.327	263.843	144.739	132.058	404.158	205.600	326.594	350.496	110.730	423.632	90.980	429.387	349.269	3.1418e-05	9.3664e-05	1.2761e-05	25.544	9.4964e-07	3.2049e-07	58.192	6.8521	7.9202e-07	4.0591e-07	18.255	6.7598	3.1003	0.60564	1.029e-06	1.6471	0.00012836	0.00027818	6.0402e-05	26.124	2.3786e-06	3.4578e-06	57.949	6.9237	2.2844e-06	3.5508e-06	18.491	6.6366	2.9665	0.62756	2.6388e-06	1.6808	388.231	249.822	343.000	104.828	237.949	178.214	100.452	108.646	298.117	415.362	103.603	107.844	111.150	115.258	95.622	111.460	-8191	255	
2397.809	1	1	0	0	0.17331	0.2848	0.20277	0.10683	0.10776	0.03301	0.15076	0.049762	0.18859	0.22683	0.11496	0.26318	0.15464	0.20916	0.14977	0.2305	-2.7792	-3.2021	-3.6667	-3.0938	-3.6021	-3.4375	-2.9521	-3.7812	-3.2188	-3.3208	-3.6937	-2.9958	-3.4	-3.4354	-2.85	-3.6	400.876	138.907	288.404	367.026	319.818	277.424	257.754	313.154	266.768	436.926	430.065	442.774	383.612	148.687	356.854	408.459	6.3561e-05	2.2358e-05	1.5997e-05	24.548	1.502e-06	9.0567e-07	57.631	6.8423	2.2164e-06	6.2032e-07	18.312	6.2273	2.7874	0.56989	5.6961e-07	1.5643	0.0001197	0.00028823	6.1886e-05	25.802	2.7196e-06	3.1378e-06	57.682	6.9119	2.2821e-06	3.8775e-06	18.229	6.3311	2.8249	0.58854	2.7813e-06	1.6007	404.991	119.449	359.806	104.658	246.191	448.783	99.830	108.099	145.583	371.656	103.358	108.021	110.649	115.855	375.583	109.386	-8191	255	
2397.905	1	1	0	0	0.11197	0.36712	0.16698	0.038134	0.092293	0.09205	0.27564	0.16213	0.13244	0.16831	0.15874	0.08226	0.034915	0.16227	0.094602	0.10915	-3.0458	-2.8979	-3.6958	-2.8542	-3.3229	-3.6396	-2.9313	-3.6437	-3.3396	-3.1396	-3.7438	-2.9667	-3.3	-3.6896	-2.8937	-3.5479	437.302	101.637	104.508	180.651	340.731	132.935	271.017	392.506	380.390	320.677	338.792	333.060	171.647	190.174	175.452	349.882	5.9893e-05	2.1866e-05	2.269e-05	24.872	1.0547e-06	4.1247e-07	56.511	6.8494	9.7924e-07	8.3116e-07	17.339	5.8751	2.6202	0.51461	2.3928e-07	1.3956	0.00012009	0.00024975	7.1713e-05	25.823	2.8614e-06	3.2142e-06	57.159	6.7913	2.3981e-06	3.9472e-06	17.324	5.868	2.6673	0.53433	2.9923e-06	1.4156	390.636	319.733	236.566	102.879	160.767	279.343	100.351	109.894	280.138	277.584	104.836	108.724	111.626	115.164	278.258	109.843	-8191	255	
2398.025	1	1	0	0	0.12641	0.065946	0.30972	0.092273	0.0796	0.15063	0.11024	0.11472	0.18048	0.14573	0.048479	0.1696	0.12876	0.26302	0.19208	0.13276	-2.925	-2.9083	-3.9167	-3.1125	-3.3479	-3.6042	-2.9396	-3.5958	-3.4688	-3.0708	-3.6479	-3.1688	-3.1042	-3.6229	-3.0646	-3.5938	183.994	238.230	359.213	330.426	283.981	315.384	327.840	445.959	154.895	304.069	438.321	429.560	313.147	324.733	266.686	260.484	3.8711e-05	8.8012e-05	1.6237e-05	25.47	9.1961e-07	4.5737e-07	58.916	6.6673	1.4834e-06	7.5858e-07	17.034	5.5231	2.6832	0.4987	1.1762e-06	1.2397	0.00011691	0.00030602	7.5644e-05	26.75	2.8584e-06	2.3982e-06	58.868	6.7979	2.1891e-06	3.6848e-06	17.041	5.5306	2.5939	0.49615	2.7947e-06	1.2679	435.381	214.936	165.469	103.329	133.527	240.062	100.862	109.826	167.787	352.601	104.197	107.713	112.949	115.913	376.761	111.418	-8191	255	
2398.121	1	1	0	0	0.23058	0.049169	0.04823	0.18659	0.1581	0.079153	0.10389	0.037823	0.015645	0.31163	0.2241	0.12502	0.024908	0.016167	0.23556	0.11706	-3.1479	-2.7958	-3.7604	-3.2167	-3.0104	-3.8438	-2.8646	-3.5042	-3.4958	-3.0333	-3.5187	-3.2271	-3.1917	-3.7542	-3.0708	-3.2354	260.477	249.483	346.041	147.098	146.575	149.220	345.445	189.402	147.170	360.982	291.772	235.709	132.967	288.595	103.779	280.184	1.4936e-05	4.9509e-05	2.7585e-05	28.829	8.6165e-07	3.1856e-07	62.298	6.9045	7.7178e-07	1.1329e-06	17.012	5.2713	2.4389	0.44842	6.8971e-07	1.2116	0.00011095	0.00032352	6.3415e-05	29.211	3.1227e-06	3.2e-06	62.036	6.8306	2.0237e-06	3.7729e-06	17.025	5.281	2.495	0.47138	3.1214e-06	1.2335	341.619	355.966	192.114	105.414	203.861	231.102	100.985	107.932	207.505	241.250	104.530	109.742	112.537	115.131	288.409	110.603	-8191	255	
2398.218	1	1	0	0	0.15347	0.21846	0.14088	0.067597	0.1716	0.18561	0.24466	0.10618	0.04204	0.18525	0.025347	0.17045	0.16095	0.17056	0.11996	0.11677	-3.2521	-2.8125	-3.6562	-3.2854	-3.1104	-3.65	-3.1958	-3.2062	-3.8063	-3.0375	-3.5875	-3.3792	-2.9729	-3.7479	-3.1583	-3.0542	159.158	349.776	130.019	328.634	406.078	339.791	93.936	225.742	438.813	312.258	266.365	430.978	416.273	230.506	189.272	260.644	3.0025e-05	4.5866e-05	9.7347e-06	29.223	1.1186e-06	6.1993e-07	63.151	6.8182	7.1302e-07	4.495e-07	16.953	4.9986	2.3808	0.4368	5.6133e-07	1.1416	0.0001041	0.00033314	8.3287e-05	29.404	3.0194e-06	2.5902e-06	62.297	6.7595	1.7561e-06	3.6352e-06	16.939	5.0734	2.4395	0.45731	2.6536e-06	1.1782	424.432	282.928	187.503	103.440	181.169	184.328	101.073	109.573	414.453	341.238	104.496	108.052	114.147	117.827	381.741	111.290	-8191	255	
2398.314	1	1	0	0	0.095443	0.21004	0.14408	0.20302	0.096551	0.17364	0.047571	0.12537	0.042137	0.10626	0.12365	0.15466	0.19844	0.19064	0.23745	0.085599	-3.4104	-2.7583	-3.5062	-3.3583	-3.0729	-3.7771	-3.0729	-3.1688	-3.725	-3.1312	-3.5896	-3.4688	-2.9125	-3.7083	-3.0438	-3.0771	254.937	93.237	284.087	312.716	123.921	106.760	412.052	231.940	252.358	304.664	195.696	341.139	269.875	199.904	314.201	161.620	5.1751e-05	5.7029e-05	8.1246e-06	28.001	2.6749e-07	3.2843e-07	62.353	6.4859	1.9207e-06	3.5062e-07	16.338	4.8529	2.2599	0.4351	5.0256e-07	1.1157	9.8626e-05	0.0003276	8.4641e-05	29.188	3.0563e-06	3.1911e-06	62.12	6.4681	1.9973e-06	3.9013e-06	16.519	4.7968	2.3082	0.43986	2.5985e-06	1.1415	435.924	129.709	109.255	105.807	351.964	416.904	100.816	110.270	304.057	177.778	104.569	108.505	114.158	116.904	225.700	111.424	-8191	255	
2398.410	1	1	0	0	0.072697	0.017129	0.19935	0.18698	0.052434	0.032805	0.22187	0.17617	0.17797	0.13448	0.050523	0.14016	0.26922	0.14008	0.094832	0.16661	-3.3729	-2.8417	-3.4062	-3.5354	-2.7917	-3.6063	-3.1188	-2.8333	-3.775	-3.0646	-3.375	-3.5146	-2.7583	-3.4792	-3.1688	-2.8729	294.209	252.231	367.582	413.401	271.760	185.035	376.722	450.997	344.368	412.483	383.288	253.193	317.072	114.458	446.393	254.259	2.8472e-05	0.00011824	1.8076e-05	30.041	2.5523e-07	9.6522e-07	63.716	6.1836	7.6381e-07	5.2127e-07	16.501	4.6602	2.228	0.4279	1.2315e-06	1.1226	0.00010332	0.00032993	7.4683e-05	30	3.012e-06	3.0436e-06	62.577	6.3447	1.8675e-06	3.2058e-06	16.419	4.6194	2.2143	0.441	2.628e-06	1.1488	428.796	141.560	450.640	105.195	174.848	111.760	99.685	110.172	215.808	226.597	104.089	108.706	111.283	116.983	283.340	111.878	-8191	255	
2398.506	1	1	0	0	0.22676	0.26377	0.12721	0.07629	0.15467	0.18682	0.051173	0.18561	0.17891	0.21609	0.078682	0.23208	0.38165	0.088351	0.041204	0.15284	-3.45	-3.0625	-3.2854	-3.575	-2.9542	-3.5583	-3.4333	-2.8771	-3.5958	-3.0938	-3.0417	-3.5625	-2.8792	-3.4604	-3.4417	-2.8958	296.823	138.754	448.393	427.782	123.268	184.829	330.056	279.767	297.476	342.095	323.815	101.559	216.170	123.661	317.652	344.453	5.8883e-05	4.001e-05	3.2009e-05	29.084	7.8367e-07	6.858e-07	62.012	6.1726	1.3183e-06	4.0498e-07	16.405	4.5113	2.1278	0.42498	5.8664e-07	1.1402	9.8773e-05	0.00029829	8.4335e-05	29.83	2.7433e-06	2.9387e-06	62.481	6.2786	1.9203e-06	3.2132e-06	16.453	4.5799	2.1683	0.43724	2.3229e-06	1.1703	367.949	240.130	145.347	104.691	275.870	108.280	100.983	110.046	274.300	199.144	104.693	107.509	109.938	117.029	250.561	112.743	-8191	255	
2398.602	1	1	0	0	0.068068	0.22517	0.17182	0.18886	0.17848	0.087283	0.13829	0.39111	0.16388	0.011095	0.067457	0.38447	0.055269	0.056877	0.082984	0.1401	-3.2667	-3.1021	-3.1042	-3.6542	-3.0646	-3.5979	-3.2833	-2.8063	-3.6063	-3.1542	-2.8812	-3.5917	-2.7896	-3.3375	-3.6188	-2.8937	157.339	361.332	260.544	248.775	343.466	420.833	155.428	161.982	411.683	419.384	301.407	334.521	270.601	260.019	423.143	138.609	5.1308e-05	5.2138e-05	1.6726e-05	29.292	2.438e-07	2.5485e-07	62.064	6.2673	8.8569e-07	4.6418e-07	16.259	4.6711	2.1578	0.41627	5.637e-07	1.1576	8.738e-05	0.0003069	7.595e-05	29.368	2.9677e-06	3.2942e-06	62.282	6.3163	1.8032e-06	2.9232e-06	16.435	4.6127	2.2378	0.44021	2.2987e-06	1.1696	426.601	307.393	119.235	104.514	215.270	293.304	100.938	108.194	438.260	423.889	104.063	107.934	112.853	117.319	227.265	111.761	-8191	255	
2398.698	1	1	0	0	0.15846	0.19339	0.2807	0.099146	0.12329	0.20091	0.18932	0.10481	0.22943	0.20939	0.23288	0.19119	0.12227	0.06633	0.15598	0.17591	-3.3646	-3.2208	-2.9604	-3.5687	-3.025	-3.4583	-3.6396	-2.7271	-3.6958	-3.3604	-3.1167	-3.7313	-3.1167	-3.2542	-3.7354	-3.0542	372.958	265.817	208.709	298.934	276.796	365.285	234.149	237.305	113.069	211.025	387.033	125.677	364.033	131.746	107.487	120.289	4.9618e-05	4.5402e-05	3.0282e-05	29.491	1.248e-06	5.636e-07	62.514	6.268	3.5965e-07	6.6159e-07	16.398	4.676	2.2318	0.42163	1.0245e-06	1.1716	9.2612e-05	0.0002375	7.4508e-05	29.603	2.6635e-06	2.6916e-06	61.734	6.3091	1.6183e-06	2.6168e-06	16.554	4.685	2.2324	0.43896	1.6279e-06	1.1782	392.400	359.952	206.557	105.324	236.974	191.861	100.902	109.796	303.761	387.119	103.583	108.774	112.722	116.608	395.899	111.695	-8191	255	
2398.817	1	1	0	0	0.030334	0.066717	0.13995	0.29438	0.23747	0.063559	0.14933	0.08061	0.1111	0.030618	0.32654	0.27849	0.12422	0.21423	0.2184	0.17299	-3.3042	-3.4146	-2.8542	-3.7604	-3.2687	-3.1604	-3.9604	-2.8229	-3.5062	-3.625	-2.8771	-3.7542	-3.1542	-3.2729	-3.5917	-3.0458	410.934	287.153	238.417	441.448	310.707	270.734	105.399	440.209	382.058	233.058	387.518	165.552	100.916	310.428	222.426	338.653	4.7846e-05	2.2272e-05	9.9572e-06	30.522	9.6575e-07	7.3121e-07	62.262	6.2589	1.6712e-06	3.2676e-07	17.196	5.0211	2.2806	0.45958	1.119e-06	1.1989	8.8798e-05	0.00023006	7.5425e-05	30.051	2.5513e-06	3.2409e-06	61.495	6.4509	1.7664e-06	2.3911e-06	17.088	4.994	2.3269	0.4614	2.218e-06	1.2228	372.894	196.108	104.338	104.320	312.112	430.269	100.400	109.934	426.198	441.650	104.877	110.169	112.457	114.598	281.469	112.394	-8191	255	
2398.913	1	1	0	0	0.18806	0.012541	0.14493	0.14374	0.054602	0.16071	0.13877	0.20645	0.14205	0.24773	0.049931	0.21991	0.29307	0.02586	0.1795	0.305	-3.0667	-3.7208	-2.7771	-3.7271	-3.1646	-3.1	-3.7188	-2.8917	-3.3771	-3.6104	-2.9854	-3.6292	-3.3896	-3.0271	-3.8958	-3.125	135.987	273.656	228.666	225.611	220.417	182.111	199.316	134.132	321.602	399.353	427.123	184.461	206.512	285.166	143.456	372.301	6.4007e-05	5.77e-05	1.9478e-05	28.839	3.4029e-07	1.2818e-07	62.457	6.6168	7.0391e-07	5.4185e-07	17.507	5.0937	2.4154	0.44956	8.6462e-07	1.2142	9.7453e-05	0.00022204	8.0754e-05	29.397	2.2944e-06	2.9067e-06	61.91	6.5995	1.5379e-06	2.358e-06	17.337	5.0474	2.3714	0.46398	1.4263e-06	1.2369	374.352	172.641	171.683	105.612	296.431	277.726	101.014	109.282	237.734	258.096	103.963	108.365	112.639	114.593	337.885	112.636	-8191	255	
2399.010	1	1	0	0	0.11704	0.23712	0.39737	0.12121	0.13218	0.013457	0.18766	0.11418	0.059209	0.11348	0.15758	0.051887	0.058695	0.23375	0.087311	0.25018	-3.0563	-3.6167	-2.8187	-3.5083	-3.3104	-3.0187	-3.7062	-3.0854	-3.1917	-3.6104	-2.9458	-3.575	-3.4313	-2.9396	-3.6979	-2.9583	310.218	259.964	97.635	436.388	186.574	439.513	433.515	372.809	377.572	102.135	424.977	162.611	297.857	253.518	431.941	344.299	5.3346e-05	2.3815e-05	1.2419e-05	29.755	1.1525e-06	1.2724e-06	61.769	6.4192	7.2099e-07	6.0241e-07	17.083	5.0353	2.3073	0.47229	2.5926e-07	1.2109	0.00010694	0.00023444	7.5688e-05	29.83	2.1911e-06	3.1485e-06	61.454	6.5064	1.941e-06	2.4259e-06	16.988	5.016	2.3516	0.47546	1.5836e-06	1.2179	354.418	236.693	168.426	103.027	287.902	319.285	100.659	108.421	344.161	195.367	104.311	109.137	112.342	115.669	299.861	111.692	-8191	255	
2399.106	1	1	0	0	0.21791	0.18005	0.067263	0.23331	0.20502	0.017895	0.15889	0.15432	0.15884	0.3757	0.035605	0.1093	0.24356	0.12842	0.20792	0.2655	-2.9625	-3.7208	-2.7792	-3.4979	-3.2854	-2.8312	-3.7167	-3.1417	-3.1437	-3.7	-2.8812	-3.6229	-3.5854	-2.8812	-3.6437	-3.2438	317.430	139.736	250.610	216.451	128.584	439.592	370.204	279.438	145.122	390.844	121.848	98.170	148.956	202.081	397.085	428.768	6.8927e-05	3.7684e-05	6.4717e-06	28.053	5.0801e-07	3.9467e-07	59.914	6.2399	1.3504e-06	5.2688e-07	16.707	5.0032	2.3815	0.45891	7.1438e-07	1.1623	0.00011496	0.00019464	7.595e-05	28.969	2.4066e-06	2.9902e-06	60.066	6.3679	2.0593e-06	2.191e-06	16.694	4.9783	2.3324	0.4646	1.3577e-06	1.1944	369.858	294.953	106.451	105.151	189.946	222.507	100.999	110.153	216.144	219.233	104.421	109.108	111.102	116.296	368.928	111.475	-8191	255	
2399.202	1	1	0	0	0.37237	0.053723	0.25266	0.16666	0.18096	0.13362	0.17	0.18878	0.16357	0.13541	0.19656	0.19764	0.15493	0.10678	0.08548	0.20526	-2.4854	-3.6896	-2.9271	-3.3708	-3.5771	-2.9417	-3.4958	-3.2167	-2.8833	-3.6854	-3.1208	-3.2021	-3.5333	-2.8917	-3.5938	-3.4188	378.001	92.869	420.181	276.210	127.011	278.822	397.190	410.879	242.559	309.627	343.414	98.539	369.799	315.311	401.081	243.476	2.9934e-05	5.2649e-05	1.2722e-05	28.614	9.5543e-07	6.9909e-07	58.81	6.2493	8.2105e-07	1.2349e-06	16.717	5.1153	2.322	0.47556	1.6031e-06	1.2155	8.8309e-05	0.00020688	7.1364e-05	28.222	2.0301e-06	3.1538e-06	58.688	6.2787	1.8399e-06	2.2755e-06	16.558	5.1211	2.3802	0.48568	1.9707e-06	1.2295	431.761	109.117	419.007	101.709	211.361	236.131	102.075	107.690	218.684	160.079	105.231	108.654	112.890	114.378	238.150	111.303	-8191	255	
2399.298	1	1	0	0	0.20054	0.088728	0.27024	0.078392	0.16452	0.11413	0.26249	0.21972	0.11177	0.33132	0.088486	0.1712	0.10149	0.24091	0.068924	0.20031	-2.7542	-3.7396	-2.9792	-3.2083	-3.7396	-2.9771	-3.5417	-3.3375	-3.0563	-3.7042	-3.1667	-3.0687	-3.675	-2.9	-3.625	-3.5	211.529	335.482	109.338	174.564	125.660	265.554	343.437	139.822	128.569	393.074	413.642	435.338	369.213	356.049	197.594	242.368	1.5137e-05	6.2529e-05	1.786e-05	26.583	1.2464e-07	9.5983e-07	58.23	6.2402	5.5535e-07	9.6131e-07	16.518	5.1333	2.4976	0.47119	1.3044e-06	1.2631	0.00010508	0.00019347	7.1407e-05	27.359	1.8736e-06	3.6942e-06	57.841	6.2877	2.065e-06	2.3323e-06	16.501	5.2203	2.4328	0.49069	2.0635e-06	1.2819	401.033	244.678	181.215	102.916	163.860	268.702	101.386	108.351	235.630	173.714	103.735	108.767	111.576	115.218	243.475	111.693	-8191	255	
2399.419	1	1	0	0	0.18613	0.067351	0.057706	0.070325	0.024044	0.1749	0.17492	0.17431	0.057052	0.26754	0.25797	0.4454	0.076303	0.21009	0.25396	0.10531	-2.6063	-3.7083	-3.0667	-3.1021	-3.7625	-2.9458	-3.3958	-3.5667	-2.9771	-3.7104	-3.2167	-3.1229	-3.6729	-2.8542	-3.4667	-3.6042	97.221	168.400	158.009	110.884	181.473	183.752	426.303	140.876	216.991	212.050	442.317	134.464	144.103	260.414	443.520	176.800	8.576e-05	9.1234e-05	1.9011e-05	25.554	7.0984e-07	6.5344e-07	57.285	6.1946	1.1776e-06	9.9668e-07	16.273	5.1822	2.3748	0.46564	6.0423e-07	1.2826	0.00011188	0.00020586	6.145e-05	26.752	1.3805e-06	2.9902e-06	56.91	6.2253	2.0742e-06	2.1342e-06	16.421	5.1464	2.3914	0.48502	1.9438e-06	1.2675	397.742	93.059	232.044	105.045	319.097	110.924	101.408	109.692	284.302	196.120	105.686	108.376	110.778	114.095	201.538	112.435	-8191	255	
2399.515	1	1	0	0	0.087257	0.13695	0.098946	0.31795	0.096396	0.18136	0.22078	0.10241	0.24164	0.27698	0.37176	0.045078	0.088671	0.33239	0.1305	0.14809	-2.5729	-3.4354	-3.3646	-2.8146	-3.6958	-3.0979	-3.3146	-3.6042	-2.8979	-3.3854	-3.325	-3.0104	-3.6333	-3.0604	-3.2917	-3.7354	128.040	412.534	238.233	404.566	313.463	254.098	278.914	232.253	250.867	343.477	356.259	159.753	203.500	404.776	124.492	195.822	5.4364e-05	4.3264e-05	1.6277e-05	25.292	1.2629e-06	2.2328e-07	58.316	6.1023	2.486e-07	4.3719e-07	16.241	5.0172	2.3148	0.45288	1.4685e-07	1.2202	0.00011946	0.0002426	6.5075e-05	26.767	2.0006e-06	3.4027e-06	57.379	6.1684	1.9422e-06	2.7948e-06	16.103	5.0829	2.3343	0.47383	2.2638e-06	1.2403	385.103	183.903	364.811	104.788	423.729	397.090	100.737	109.741	222.875	250.929	104.666	107.366	112.333	116.633	399.997	112.405	-8191	255	
2399.609	1	1	0	0	0.28486	0.070645	0.31537	0.025104	0.15833	0.024574	0.18154	0.10465	0.11964	0.21875	0.026692	0.14296	0.18357	0.061112	0.24761	0.12523	-2.6125	-3.5667	-3.4708	-2.8812	-3.8917	-2.9833	-3.1792	-3.8375	-2.8583	-3.5875	-3.5896	-2.8958	-3.6604	-3.175	-3.1937	-3.8625	334.240	414.071	160.535	360.477	188.404	316.928	107.890	417.923	431.098	321.503	347.141	417.852	285.271	212.103	359.226	188.824	5.3724e-05	0.00011384	1.8445e-05	26.975	7.228e-07	1.2175e-06	58.592	6.1446	1.2709e-06	4.1226e-07	16.267	5.1297	2.377	0.47387	9.8416e-07	1.2169	0.00010899	0.00020746	6.6079e-05	27.179	2.1645e-06	3.1165e-06	58.989	6.2334	2.1121e-06	2.3617e-06	16.526	5.1403	2.4113	0.47856	1.9747e-06	1.2493	408.646	164.688	397.640	104.984	200.282	159.511	101.330	110.043	227.518	299.452	104.191	108.447	110.853	114.738	309.330	110.364	-8191	255	
2399.707	1	1	0	0	0.095695	0.22199	0.076853	0.29476	0.27274	0.17114	0.1413	0.17951	0.15653	0.2448	0.13244	0.060237	0.12662	0.13977	0.17049	0.059555	-2.625	-3.4625	-3.5167	-3.0042	-3.8354	-3.3333	-3.0833	-3.6583	-2.9167	-3.4333	-3.5604	-2.8271	-3.5938	-3.3667	-3.0458	-3.7375	318.550	204.903	154.754	211.935	196.163	338.261	397.010	404.497	181.984	394.351	400.082	414.972	143.053	288.557	393.676	395.998	6.3332e-05	3.1262e-05	2.3999e-05	27.401	6.2186e-07	8.0146e-07	61.338	6.6426	1.184e-06	3.985e-07	16.62	5.1811	2.4189	0.45864	1.9192e-07	1.2871	0.0001199	0.00025937	6.1057e-05	28.357	2.0552e-06	3.1698e-06	61.065	6.5041	2.297e-06	2.7342e-06	16.829	5.233	2.4357	0.48045	2.2382e-06	1.2832	402.777	334.286	206.319	105.219	312.758	246.055	100.459	108.402	320.876	435.632	103.684	108.502	110.346	116.606	379.401	111.312	-8191	255	
2399.801	1	1	0	0	0.11733	0.031272	0.16279	0.097908	0.311	0.10424	0.080257	0.14085	0.23839	0.026332	0.07816	0.29165	0.091927	0.18506	0.12074	0.32485	-2.7271	-3.3542	-3.5646	-2.8896	-3.5187	-3.5125	-3.1479	-3.7021	-3.2729	-3.2979	-4.0083	-3.0417	-3.6063	-3.3937	-2.9229	-3.7375	243.013	279.251	335.169	201.968	433.389	384.520	253.735	379.222	136.024	227.298	339.719	176.827	96.897	351.379	102.621	343.179	3.3553e-05	2.8906e-05	3.0608e-05	27.662	6.1045e-07	1.3774e-06	62.015	6.6446	1.6619e-06	5.1646e-07	17.06	5.1854	2.4941	0.4707	4.4736e-07	1.2063	0.0001132	0.00024741	6.0445e-05	28.592	2.3668e-06	2.7396e-06	62.159	6.5248	1.7492e-06	3.1031e-06	16.888	5.1655	2.4415	0.48373	2.4963e-06	1.2475	447.413	144.648	256.087	103.523	192.626	306.178	100.699	108.898	96.189	107.845	103.301	108.780	112.961	114.700	230.066	112.433	-8191	255	
2399.898	1	1	0	0	0.16651	0.13792	0.22081	0.10888	0.048575	0.19853	0.32408	0.18929	0.21881	0.078217	0.1364	0.13692	0.026068	0.03966	0.1649	0.21726	-2.7646	-3.2896	-3.7938	-2.825	-3.425	-3.3979	-2.9688	-3.6271	-3.2042	-3.1167	-3.7875	-3.0354	-3.3104	-3.5979	-3.0021	-3.6042	244.450	433.658	192.634	330.505	133.308	121.100	385.732	342.129	272.136	382.756	363.939	258.912	183.681	287.485	134.420	283.607	4.46e-05	2.2258e-05	9.8901e-06	28.421	2.9738e-07	4.0587e-07	62.186	6.5085	9.8812e-07	1.102e-06	17.043	5.1022	2.4852	0.47129	2.7114e-07	1.244	8.9776e-05	0.0002512	6.2017e-05	29.19	2.1158e-06	2.4302e-06	62.402	6.5067	1.9869e-06	3.0774e-06	16.855	5.0904	2.444	0.47659	2.4022e-06	1.2591	354.676	333.864	281.806	104.570	252.972	186.140	101.061	110.084	208.385	362.491	104.253	108.607	113.320	115.415	175.119	112.248	-8191	255	
2399.994	1	1	0	0	0.34938	0.17002	0.18002	0.10248	0.064279	0.25195	0.051535	0.31424	0.039833	0.2077	0.27909	0.045045	0.065191	0.11212	0.058337	0.3293	-2.9354	-3.0333	-3.7292	-3.0167	-3.3417	-3.725	-3.0146	-3.775	-3.4104	-3.1521	-3.6583	-3.0583	-3.3083	-3.6479	-2.9021	-3.7875	359.601	166.203	119.994	255.343	449.223	249.196	333.896	451.381	140.593	369.313	203.802	397.627	138.148	287.183	249.326	133.904	4.1592e-05	2.6553e-05	2.5453e-05	30.302	3.8757e-07	5.9863e-07	64.739	6.7429	9.6739e-07	6.1121e-07	16.904	5.1758	2.5197	0.47094	2.3705e-07	1.2683	9.8822e-05	0.00026097	5.2278e-05	29.991	2.4066e-06	2.2116e-06	64.38	6.7235	1.6504e-06	3.0774e-06	17.231	5.1608	2.4873	0.48445	2.2906e-06	1.2826	369.110	178.179	163.845	103.493	159.274	280.854	100.921	109.438	142.426	243.120	102.855	109.657	111.632	113.636	217.776	111.731	-8191	255	
2400.114	1	1	0	0	0.25165	0.067898	0.13565	0.24143	0.090345	0.084657	0.15549	0.15133	0.19509	0.41344	0.17637	0.20317	0.13227	0.061563	0.23305	0.21654	-3.0187	-3.0146	-3.5	-3.1	-3.3563	-3.7792	-2.9208	-3.5458	-3.4729	-2.9333	-3.725	-3.1833	-3.225	-3.6979	-2.9417	-3.4917	158.265	125.766	331.387	372.675	145.342	201.568	419.573	135.659	174.781	133.544	353.375	94.216	335.748	140.036	282.061	400.491	5.9411e-05	6.7497e-05	1.0977e-05	31.021	5.1757e-07	3.8557e-07	66.348	6.9066	5.6609e-07	2.11e-07	17.398	5.2839	2.5991	0.47545	6.4095e-07	1.2742	9.3003e-05	0.00026637	5.2802e-05	31.42	2.1069e-06	2.2489e-06	66.313	6.9481	1.5976e-06	3.3159e-06	17.496	5.267	2.5682	0.49227	2.0446e-06	1.2993	391.292	224.619	230.864	102.978	422.747	219.934	99.839	108.360	216.811	187.274	103.333	108.510	112.829	114.041	251.447	111.054	-8191	255	
2400.211	1	1	0	0	0.11663	0.21975	0.19472	0.2945	0.22217	0.10683	0.099308	0.040779	0.15799	0.13252	0.10661	0.10722	0.089794	0.18316	0.08698	0.23928	-3.2458	-2.9896	-3.6021	-3.0396	-3.075	-3.9021	-2.9625	-3.2708	-3.675	-2.9562	-3.7062	-3.2646	-3.0312	-3.6625	-3.0729	-3.3958	172.442	231.430	298.463	411.099	438.166	272.667	442.223	216.487	286.607	384.072	310.899	364.799	404.209	336.022	126.177	107.632	3.7463e-05	3.484e-05	1.8581e-05	31.954	6.7102e-07	9.4573e-07	66.843	7.1362	2.0634e-07	5.4205e-07	17.542	5.2877	2.5215	0.47355	6.3915e-07	1.2461	8.2833e-05	0.00023852	5.1623e-05	32.7	1.8559e-06	2.1849e-06	67.429	7.1005	1.2691e-06	2.7948e-06	17.711	5.217	2.5466	0.48312	2.214e-06	1.2742	416.427	202.251	251.460	104.394	320.989	192.072	100.008	107.948	325.935	244.389	103.710	107.475	111.351	117.972	123.073	111.150	-8191	255	
2400.282	1	1	0	0	0.14527	0.19871	0.096746	0.12082	0.27066	0.070218	0.090913	0.1877	0.1229	0.17265	0.035869	0.050689	0.10626	0.13219	0.15535	0.16626	-3.3312	-2.8708	-3.6417	-3.4979	-3.0125	-3.8521	-3.0708	-3.3812	-3.7229	-3.1083	-3.4417	-3.3312	-3.0042	-3.7229	-3.3333	-3.25	148.513	360.720	426.912	398.240	202.424	329.475	427.580	207.304	404.304	394.625	391.263	134.939	277.748	241.766	132.326	111.724	6.9654e-05	6.838e-05	1.5015e-05	32.192	5.3052e-07	8.4651e-07	67.228	6.9353	1.0883e-06	5.1432e-07	17.682	5.2035	2.543	0.47934	7.4939e-07	1.24	7.7454e-05	0.00021446	4.9265e-05	32.298	1.9666e-06	1.9378e-06	67.088	7.0692	1.4448e-06	2.8553e-06	17.738	5.1537	2.511	0.48129	1.6225e-06	1.2688	369.442	386.012	335.296	101.638	180.823	186.068	100.404	109.813	153.424	266.128	105.614	107.645	111.401	116.046	197.012	112.228	-8191	255	
2400.378	1	1	0	0	0.06307	0.10287	0.24039	0.094448	0.095173	0.12681	0.26519	0.19087	0.21982	0.10098	0.094567	0.11071	0.10135	0.078442	0.16705	0.14842	-3.4625	-2.8917	-3.575	-3.3667	-2.8896	-3.7833	-3.1792	-3.0833	-3.7396	-3.2146	-3.5229	-3.5979	-2.9583	-3.7542	-3.4292	-3.1	299.484	166.709	391.694	98.141	332.522	363.845	154.885	410.882	327.285	429.649	180.020	362.909	340.362	311.523	362.828	416.544	4.8042e-05	3.8184e-05	1.4699e-05	33.785	3.1367e-07	1.1638e-06	68.34	7.3478	1.3994e-06	2.5021e-07	17.769	5.3046	2.5417	0.46519	4.3573e-07	1.2695	7.8578e-05	0.00024216	5.5423e-05	33.257	2.2988e-06	1.9698e-06	68.208	7.2681	1.0693e-06	2.5342e-06	18.053	5.3361	2.597	0.48325	1.8322e-06	1.2975	439.999	232.386	318.900	101.940	425.601	222.146	99.899	109.989	194.082	97.489	104.049	108.458	110.940	115.722	381.498	112.237	-8191	255	
2400.499	1	1	0	0	0.13173	0.11793	0.13292	0.18636	0.17991	0.21752	0.066834	0.30387	0.15008	0.35669	0.20762	0.089486	0.16902	0.10727	0.24873	0.088742	-3.4104	-3.1604	-3.4875	-3.5479	-2.9958	-3.7583	-3.3125	-3.0021	-3.7875	-3.0646	-3.4062	-3.7271	-2.975	-3.7333	-3.4729	-3.0229	225.567	364.437	124.016	198.229	393.271	255.444	143.821	222.332	281.329	309.027	226.017	331.722	132.852	225.255	207.833	232.670	4.277e-05	3.5812e-05	2.2101e-05	32.337	8.3375e-07	9.8489e-07	70.043	7.3402	3.7158e-07	2.3706e-07	17.974	5.4547	2.684	0.48814	9.9291e-07	1.2958	7.6476e-05	0.00023633	5.5685e-05	33.662	2.3018e-06	2.192e-06	69.619	7.3702	1.5964e-06	2.4773e-06	18.266	5.4369	2.6322	0.491	1.7946e-06	1.3161	418.231	173.015	166.068	103.281	208.217	243.568	99.371	108.712	214.224	224.885	103.936	109.114	110.417	118.483	235.551	112.443	-8191	255	
2400.595	1	1	0	0	0.005092	0.1782	0.22984	0.10036	0.086145	0.27363	0.21003	0.15012	0.17063	0.13484	0.094879	0.022975	0.089223	0.15573	0.20789	0.25435	-3.4729	-3.2042	-3.2562	-3.5708	-2.9542	-3.6625	-3.4208	-2.8312	-3.7896	-3.0958	-3.1417	-3.7083	-2.9167	-3.6604	-3.5271	-2.9354	257.299	213.102	362.843	167.681	337.952	94.441	339.349	429.268	445.933	410.852	243.899	123.900	353.696	432.123	437.626	113.531	5.4626e-05	0.00011884	1.7632e-05	33.2	8.4186e-07	1.838e-07	70.5	7.402	8.2528e-07	6.8257e-07	18.283	5.5373	2.6781	0.47362	4.327e-07	1.2809	8.2392e-05	0.00025033	5.3064e-05	33.673	2.5557e-06	2.4213e-06	69.839	7.3122	1.2806e-06	2.6039e-06	18.407	5.3713	2.6328	0.49078	1.3859e-06	1.2865	421.355	379.048	180.329	101.625	190.007	112.017	98.816	108.665	413.928	163.610	105.069	108.250	112.030	117.116	185.505	109.189	-8191	255	
2400.690	1	1	0	0	0.0508	0.066934	0.19389	0.10783	0.10763	0.1046	0.11166	0.1006	0.29282	0.17825	0.10128	0.18159	0.2748	0.064044	0.13333	0.18872	-3.3854	-3.4104	-3.1	-3.7292	-3.0083	-3.3708	-3.6625	-3.1396	-3.725	-3.4021	-3.05	-3.7896	-3.0021	-3.2562	-3.8	-2.8167	174.971	286.425	269.775	222.061	310.047	198.030	329.099	371.064	217.337	146.015	172.379	140.077	340.617	233.271	297.823	221.097	6.3683e-05	2.4929e-05	2.5667e-05	33.34	5.5861e-07	6.4373e-07	70.733	7.4447	7.4368e-07	5.3134e-07	18.296	5.2325	2.6678	0.48934	1.6762e-06	1.2612	7.6085e-05	0.000227	6.1057e-05	33.616	2.4494e-06	2.7858e-06	69.694	7.3761	1.5023e-06	2.7104e-06	18.136	5.2946	2.6406	0.49658	1.39e-06	1.3028	374.626	418.511	94.177	102.317	203.270	255.786	100.046	108.990	299.409	274.445	103.930	108.503	112.234	117.229	114.941	111.651	-8191	255	
2400.787	1	1	0	0	0.091273	0.11376	0.16736	0.24126	0.2006	0.1298	0.26904	0.069846	0.094451	0.19045	0.059369	0.096186	0.079944	0.10523	0.12071	0.2171	-3.3792	-3.3688	-3.025	-3.85	-3.0729	-3.2229	-3.5625	-2.9979	-3.4979	-3.4042	-3.0958	-3.85	-3.2521	-3.1167	-3.8625	-2.975	282.646	311.532	190.238	362.815	423.932	343.314	156.487	215.484	324.424	285.499	204.184	161.793	125.648	262.117	328.068	398.182	7.5441e-05	4.8734e-05	7.8203e-06	33.939	3.6619e-07	6.8457e-07	70.441	7.4285	8.1599e-07	5.9492e-07	18.798	5.4654	2.6224	0.49039	4.4709e-07	1.3	9.4666e-05	0.00019566	6.8045e-05	34.25	2.3889e-06	2.3982e-06	69.831	7.3462	1.4104e-06	2.1745e-06	18.607	5.421	2.6264	0.50195	2.0514e-06	1.3157	388.063	228.283	347.339	102.112	143.711	272.427	100.712	108.589	164.384	300.623	103.909	109.091	109.343	116.107	203.539	112.156	-8191	255	
2400.906	1	1	0	0	0.16575	0.073465	0.14205	0.049333	0.19295	0.18606	0.12722	0.10521	0.12049	0.2956	0.12092	0.12164	0.088394	0.3449	0.15434	0.11768	-3.2979	-3.5146	-3.0542	-3.7458	-3.0521	-3.1792	-3.5792	-2.8625	-3.4188	-3.4167	-3.0146	-3.6771	-3.2417	-3.2646	-3.7729	-2.9625	118.008	227.565	297.522	200.276	93.576	354.711	398.975	346.290	112.324	151.767	307.905	415.700	311.290	168.222	439.663	200.703	5.5777e-05	7.896e-05	9.8498e-06	34.107	4.7207e-07	1.5485e-07	71.596	7.6827	4.989e-07	2.6188e-07	18.878	5.5515	2.6635	0.50252	8.7391e-07	1.3155	9.183e-05	0.00022219	7.7959e-05	34.451	2.039e-06	2.6738e-06	71.34	7.5758	1.6619e-06	2.325e-06	18.881	5.5223	2.6546	0.50936	1.6024e-06	1.3389	411.173	261.912	223.534	103.651	166.162	307.909	100.028	108.014	239.607	277.159	104.054	108.005	110.973	117.084	189.053	112.184	-8191	255	
2400.978	1	1	0	0	0.26021	0.2623	0.19491	0.32952	0.14112	0.19126	0.035966	0.19466	0.23829	0.072662	0.13611	0.16292	0.25337	0.26011	0.19427	0.13878	-3.025	-3.5354	-2.9479	-3.6042	-3.2667	-3.1312	-3.6063	-3.1333	-3.5625	-3.6708	-2.8542	-3.6063	-3.5458	-2.85	-3.6167	-3.0417	151.153	233.223	372.734	424.145	128.593	124.403	442.258	212.800	352.649	214.091	333.950	378.956	173.773	308.184	428.356	323.932	3.348e-05	2.6129e-05	1.0749e-05	35.496	1.1525e-06	1.2249e-07	72.876	7.6405	1.3057e-06	4.6788e-07	18.865	5.6592	2.6907	0.49007	1.1012e-06	1.3069	8.782e-05	0.00019493	6.2192e-05	35.79	1.8131e-06	2.9725e-06	72.378	7.641	1.5425e-06	1.769e-06	18.957	5.4823	2.678	0.50427	1.5836e-06	1.3054	375.288	208.599	395.089	103.443	240.164	265.798	99.802	108.124	290.208	362.182	103.808	108.042	109.966	114.643	279.440	110.575	-8191	255	
2401.099	1	1	0	0	0.12817	0.20812	0.099439	0.061079	0.12301	0.17918	0.14231	0.092304	0.22651	0.20166	0.225	0.087606	0.1049	0.34958	0.27147	0.24634	-2.7687	-3.8292	-2.9208	-3.5729	-3.4333	-3.0396	-3.7146	-2.9771	-3.3292	-3.7583	-2.9375	-3.6042	-3.55	-2.9833	-3.9167	-3.2146	184.590	374.234	306.656	329.566	110.326	194.263	310.386	405.591	287.044	312.110	395.614	269.429	195.440	277.016	315.740	425.467	4.2876e-05	3.894e-05	7.6223e-06	36.613	2.8617e-07	6.0049e-07	73.124	7.4564	7.4336e-07	5.5131e-07	18.93	5.5628	2.6961	0.50698	4.2811e-07	1.2513	9.8382e-05	0.00019186	6.6691e-05	35.674	2.1143e-06	3.0667e-06	72.072	7.5657	1.4598e-06	2.1984e-06	18.846	5.488	2.7024	0.51907	1.5809e-06	1.3147	399.730	126.548	418.679	103.004	291.082	218.850	99.987	108.104	145.336	204.292	104.600	107.328	113.200	117.172	172.180	110.676	-8191	255	
2401.195	1	1	0	0	0.11066	0.20766	0.11452	0.094668	0.1261	0.17	0.080395	0.12087	0.074376	0.21121	0.18135	0.10265	0.1643	0.16565	0.12777	0.047125	-2.8208	-3.825	-3.0938	-3.7333	-3.5771	-2.9354	-3.5104	-3.3271	-3.1771	-3.8458	-2.8542	-3.3167	-3.8146	-2.9208	-3.6937	-3.3312	448.090	230.289	125.622	279.934	430.175	273.280	223.519	155.276	123.471	355.788	378.408	146.816	92.848	400.451	141.578	253.920	3.5748e-05	3.9768e-05	1.5642e-05	35.887	1.6028e-07	9.7295e-07	72.667	7.6848	4.4552e-07	2.9635e-07	19.049	5.6895	2.7466	0.48762	7.2728e-07	1.308	9.623e-05	0.00015687	6.538e-05	36.35	1.596e-06	3.0987e-06	72.942	7.6153	1.7733e-06	1.7561e-06	19.145	5.6134	2.7296	0.51628	1.5244e-06	1.3263	355.736	356.629	185.907	103.153	143.411	212.981	100.547	109.550	340.196	349.225	105.522	109.828	114.121	113.507	178.693	113.317	-8191	255	
2401.291	1	1	0	0	0.15085	0.1784	0.13247	0.089912	0.1222	0.19029	0.2162	0.13363	0.2461	0.25045	0.32789	0.14171	0.14937	0.062235	0.13273	0.25775	-2.525	-3.6937	-3.0167	-3.2479	-3.6688	-2.9917	-3.625	-3.4083	-3.0646	-3.7667	-3.0938	-3.0708	-3.6729	-3.0417	-3.6271	-3.7146	312.895	99.226	449.468	326.302	262.560	335.280	317.766	203.649	156.918	233.581	166.600	317.703	357.939	172.699	395.360	213.495	9.1994e-05	0.00014187	2.2058e-05	36.591	8.4948e-07	2.2083e-07	74.027	7.8876	7.5816e-07	1.2006e-06	18.819	5.6357	2.8378	0.51347	5.4429e-07	1.3461	9.359e-05	0.0001856	6.7651e-05	36.553	1.4824e-06	2.8142e-06	73.576	7.7513	1.6045e-06	2.002e-06	19.291	5.7052	2.8273	0.52831	1.4599e-06	1.3584	397.785	176.438	207.935	105.109	217.696	438.953	100.137	109.161	391.463	244.199	103.717	107.712	112.401	114.980	326.117	112.568	-8191	255	
2401.387	1	1	0	0	0.17327	0.2144	0.19316	0.16162	0.30202	0.22536	0.1323	0.15385	0.12273	0.13409	0.15015	0.20502	0.051376	0.16879	0.096704	0.17009	-2.7438	-3.9333	-3.2646	-3.2104	-3.9458	-2.8854	-3.6521	-3.3917	-2.9771	-3.8333	-2.9542	-3.1083	-3.7521	-3.0438	-3.4146	-3.55	309.154	190.733	435.065	144.947	158.471	376.856	400.984	161.910	414.639	204.743	274.593	374.273	172.171	106.665	111.529	312.640	7.2481e-05	5.2444e-05	1.1439e-05	36.999	5.1174e-07	3.3321e-07	73.055	7.8265	4.5928e-07	1.3132e-07	19.122	5.4482	2.6843	0.4841	1.1304e-06	1.3177	9.9115e-05	0.00016183	5.7519e-05	36.794	1.5518e-06	2.3698e-06	73.373	7.7626	2.0145e-06	2.114e-06	19.28	5.6264	2.7403	0.51071	1.8927e-06	1.3231	412.242	114.956	406.868	103.327	209.381	171.334	99.454	107.557	195.702	100.837	104.735	108.897	110.659	116.003	341.927	112.595	-8191	255	
2401.508	1	1	0	0	0.28338	0.13948	0.19284	0.099673	0.20279	0.17021	0.34469	0.10286	0.10893	0.086787	0.055013	0.060667	0.089065	0.06821	0.066215	0.16412	-2.7313	-3.7	-3.1271	-3.1542	-3.625	-2.9562	-3.3604	-3.6167	-2.9104	-3.5979	-3.4542	-3.0563	-3.5875	-2.9688	-3.4625	-3.7125	191.424	426.850	376.278	426.429	110.694	133.658	302.811	403.086	335.579	273.396	373.940	361.434	345.456	178.495	306.807	423.807	5.1181e-05	8.1939e-05	2.8087e-05	34.933	3.8227e-07	2.0053e-07	72.867	7.7652	1.9891e-06	7.2947e-07	19.122	5.6463	2.9304	0.48324	7.8238e-07	1.3171	9.9311e-05	0.00016839	4.8304e-05	36.209	1.8441e-06	2.5387e-06	72.865	7.7643	1.6056e-06	2.1488e-06	19.233	5.6842	2.8857	0.51964	2.0648e-06	1.3372	371.078	271.294	297.404	101.812	331.869	299.282	99.905	108.913	226.646	251.458	103.504	107.849	111.834	113.586	209.117	110.678	-8191	255	
2401.579	1	1	0	0	0.24534	0.18619	0.17992	0.025496	0.25261	0.16744	0.071064	0.19875	0.15685	0.18446	0.38908	0.22492	0.18537	0.097271	0.14592	0.21325	-2.5458	-3.6958	-3.4125	-2.8646	-3.7542	-3.0604	-3.2708	-3.7208	-3.05	-3.5583	-3.5417	-3.075	-3.7667	-3.0812	-3.1813	-3.7583	342.478	409.713	378.956	360.770	341.172	265.031	229.708	147.019	263.988	441.219	109.932	194.536	253.544	424.387	426.101	369.308	4.8442e-05	6.7106e-05	2.7997e-05	36.553	1.2226e-07	1.0765e-06	74.893	8.0478	4.6812e-07	6.1824e-07	20.195	6.1583	3.0284	0.5682	1.2804e-06	1.3876	9.4079e-05	0.0001923	5.682e-05	37.242	1.6448e-06	2.3858e-06	74.875	7.9895	1.879e-06	2.0644e-06	19.901	6.121	3.0127	0.5742	1.8618e-06	1.4221	418.102	411.888	283.997	104.577	158.699	271.291	99.962	109.057	207.803	247.097	103.719	107.709	112.344	116.480	253.720	110.829	-8191	255	
2401.676	1	1	0	0	0.28372	0.21774	0.21904	0.15821	0.086197	0.20821	0.13311	0.18719	0.10223	0.12363	0.29429	0.090549	0.13177	0.14174	0.25265	0.28474	-2.4437	-3.6208	-3.575	-2.9896	-3.7562	-3.2417	-3.2	-3.8312	-2.95	-3.4854	-3.7562	-2.8021	-3.65	-3.2062	-2.9667	-3.8521	342.518	343.202	235.838	326.657	95.338	401.569	96.749	282.909	396.287	296.575	365.416	437.766	406.510	320.791	188.875	418.856	2.9922e-05	6.4238e-05	1.6621e-05	37.568	8.6763e-07	1.1369e-06	77.182	8.4378	6.4754e-07	2.6673e-07	20.697	6.6209	3.2118	0.61267	7.3195e-07	1.4845	0.00010053	0.00017874	4.1097e-05	38.193	1.8618e-06	2.1831e-06	76.975	8.3424	1.7021e-06	2.1085e-06	20.696	6.5825	3.2134	0.62258	1.8215e-06	1.5142	419.735	372.846	286.945	102.951	163.973	259.415	99.341	109.039	168.621	95.034	103.788	108.176	110.200	115.380	270.014	112.101	-8191	255	
2401.794	1	1	0	0	0.22422	0.2716	0.19726	0.19222	0.098302	0.14343	0.40021	0.15118	0.062589	0.042366	0.059306	0.13392	0.18415	0.12242	0.20654	0.11874	-2.6771	-3.3083	-3.4021	-2.7875	-3.7271	-3.2583	-3.0271	-3.7812	-3.1396	-3.3208	-3.7313	-2.8771	-3.6312	-3.4313	-2.8042	-3.875	161.442	335.218	365.576	399.688	118.362	426.363	446.203	361.967	416.780	220.881	93.373	274.127	174.863	355.059	426.004	96.941	5.4382e-05	4.8365e-05	1.5859e-05	38.013	1.1982e-06	4.2011e-07	80.48	8.7329	1.2877e-06	7.8619e-08	21.765	6.8557	3.437	0.66646	7.1091e-07	1.5906	8.6206e-05	0.00019434	4.4504e-05	38.962	1.4602e-06	1.9698e-06	79.946	8.7047	1.4081e-06	2.0497e-06	21.61	6.8618	3.4224	0.67844	1.7368e-06	1.5968	379.012	167.799	362.467	104.782	216.798	200.564	100.144	108.338	197.366	174.132	104.834	108.070	111.784	114.061	194.759	111.542	-8191	255	
2401.891	1	1	0	0	0.10875	0.14406	0.36792	0.11816	0.17383	0.084109	0.16614	0.12593	0.20818	0.29818	0.3014	0.27833	0.20529	0.16989	0.23905	0.34472	-2.8	-3.1958	-3.6375	-2.9208	-3.5333	-3.6437	-3.0417	-3.8625	-3.1875	-3.2083	-3.7833	-3.0479	-3.4833	-3.6792	-3.1854	-3.7313	336.004	99.224	117.172	204.351	182.688	301.839	182.826	434.979	229.142	447.152	102.198	290.816	392.370	384.570	220.811	358.112	4.8596e-05	3.9439e-05	1.874e-05	39.895	1.7803e-07	1.0254e-06	85.635	9.0794	1.8337e-06	1.179e-06	22.426	7.1346	3.6525	0.69794	1.033e-06	1.6338	8.5766e-05	0.00020586	4.3543e-05	39.449	1.4174e-06	1.9538e-06	84.71	8.9659	1.2232e-06	2.0791e-06	22.513	7.182	3.6027	0.7144	1.8148e-06	1.6883	351.264	114.223	199.130	104.024	402.797	216.784	100.888	108.855	383.420	336.621	104.371	107.330	111.966	113.428	307.511	109.787	-8191	255	
2401.987	1	1	0	0	0.1888	0.14952	0.18722	0.11201	0.049641	0.20499	0.14251	0.18868	0.24552	0.17474	0.17572	0.11906	0.18772	0.068905	0.14364	0.11023	-2.8604	-3.0208	-3.575	-2.9042	-3.6771	-3.525	-3.0042	-3.7438	-3.2188	-3.0333	-3.8063	-3.0646	-3.3208	-3.6813	-2.8708	-3.6688	230.890	102.568	417.331	118.594	202.651	116.635	137.976	341.041	241.070	342.913	174.810	230.397	368.336	139.658	155.623	109.151	0.00011259	7.1126e-05	2.6611e-05	39.709	2.9306e-07	1.1965e-06	89.572	9.1071	1.2104e-06	6.2974e-07	23.861	7.5498	3.7681	0.73257	2.402e-07	1.7112	7.7503e-05	0.00016868	3.2363e-05	38.644	1.7806e-06	1.5396e-06	89.841	9.1686	1.2243e-06	2.3507e-06	23.598	7.4266	3.7366	0.75411	1.9452e-06	1.7563	381.635	165.279	183.682	102.538	409.532	229.465	98.690	107.970	257.597	293.611	103.442	108.411	110.161	113.965	257.782	111.874	-8191	255	
2402.083	1	1	0	0	0.025631	0.12579	0.11312	0.15974	0.23643	0.053119	0.13055	0.15705	0.078047	0.1526	0.10877	0.21746	0.22765	0.15129	0.12965	0.2297	-2.9479	-3.0854	-3.7271	-3.0729	-3.1021	-3.7792	-2.8625	-3.4625	-3.4896	-2.9917	-3.7917	-3.1562	-3.2625	-3.6375	-2.7938	-3.475	202.658	363.843	222.308	306.676	297.634	97.172	278.943	131.989	130.237	357.454	97.406	143.274	167.605	294.588	383.818	335.175	3.0143e-05	2.815e-05	6.846e-06	38.311	1.6437e-07	3.2416e-07	91.478	9.0947	3.5146e-07	8.1136e-07	25.054	7.5358	3.7917	0.73748	6.2304e-07	1.7833	8.3077e-05	0.00023969	3.9088e-05	38.035	1.9268e-06	2.1742e-06	90.508	9.2156	1.361e-06	2.6223e-06	24.684	7.4747	3.7313	0.75701	2.2772e-06	1.775	361.747	261.469	407.680	102.639	326.569	190.290	99.567	107.496	243.563	240.594	103.798	108.455	111.825	112.927	348.455	110.602	-8191	255	
2402.179	1	1	0	0	0.21855	0.14413	0.2337	0.096747	0.19885	0.12222	0.33275	0.15724	0.051685	0.067874	0.10602	0.17227	0.028318	0.041793	0.030667	0.20221	-3.2542	-2.7833	-3.6312	-3.0563	-3.1813	-3.7229	-2.9875	-3.3792	-3.4917	-3.0208	-3.6146	-3.2146	-3.0438	-3.575	-3.0062	-3.5042	434.280	340.414	91.662	302.169	313.939	177.474	203.039	293.244	425.748	411.066	228.036	203.535	113.719	268.389	156.845	157.351	6.8211e-05	3.8641e-05	5.1063e-06	37.728	6.1856e-07	9.4294e-07	90.808	9.4533	1.2334e-06	6.7713e-07	24.931	7.4527	3.8804	0.76351	9.4087e-07	1.6699	9.0705e-05	0.00021344	4.481e-05	38.577	1.9873e-06	2.1636e-06	90.608	9.5435	1.5436e-06	2.9067e-06	25.303	7.3387	3.7993	0.76263	1.89e-06	1.728	381.199	353.089	344.279	103.154	298.678	223.043	99.839	107.599	271.683	298.388	103.064	107.115	110.176	113.747	211.109	110.673	-8191	255	
2402.273	1	1	0	0	0.17488	0.14834	0.2639	0.18938	0.096917	0.062607	0.013682	0.14081	0.12485	0.2497	0.041658	0.17001	0.21738	0.19504	0.024464	0.12919	-3.15	-2.7729	-3.7229	-3.2375	-2.7958	-3.8458	-3.0354	-3.3958	-3.4938	-3.0083	-3.7104	-3.2875	-2.8958	-3.6667	-2.9437	-3.225	357.629	353.805	226.302	191.852	432.085	364.904	283.204	313.339	377.509	416.052	284.225	110.959	312.751	351.900	242.155	432.251	5.6041e-05	9.5878e-05	2.3493e-05	38.56	1.7185e-07	8.4379e-07	89.465	9.5874	3.9622e-07	9.4164e-07	25.487	7.3222	3.7749	0.73309	7.7654e-07	1.6421	9.1047e-05	0.00024887	6.3939e-05	38.7	2.637e-06	2.304e-06	88.746	9.6032	1.4425e-06	3.3233e-06	25.653	7.2141	3.7368	0.758	2.3767e-06	1.7088	411.349	172.358	349.222	100.727	416.819	211.955	98.769	107.229	160.319	262.854	103.545	107.195	109.797	114.507	341.335	110.247	-8191	255	
2402.370	1	1	0	0	0.094106	0.23806	0.1915	0.1201	0.12966	0.039495	0.15892	0.10173	0.21285	0.084637	0.093989	0.25487	0.030894	0.27224	0.10129	0.1174	-3.3792	-2.9833	-3.4292	-3.425	-2.8042	-3.6708	-3.1458	-3.2646	-3.7812	-3.0187	-3.5875	-3.5	-3.0812	-3.6167	-3.2729	-2.9437	183.594	335.628	245.436	385.062	175.578	407.824	307.804	106.465	410.656	192.719	443.264	373.872	115.318	315.662	130.834	110.153	8.4422e-05	5.4598e-05	1.4779e-05	39.814	1.1517e-06	1.3714e-06	88.993	10.65	1.5393e-06	3.8522e-07	26.789	7.2723	3.7682	0.73903	9.5919e-07	1.7165	9.8382e-05	0.00026855	6.5162e-05	40.59	3.1035e-06	2.304e-06	88.693	10.79	2.0294e-06	3.3068e-06	26.775	7.1751	3.7497	0.75078	2.1898e-06	1.7306	368.444	169.749	258.733	101.401	240.415	235.659	98.131	107.237	186.919	227.872	102.661	107.296	110.895	113.299	243.322	110.786	-8191	255	
2402.466	1	1	0	0	0.21175	0.077492	0.19122	0.051047	0.038702	0.095059	0.29369	0.12263	0.078824	0.15218	0.16925	0.16213	0.23017	0.11807	0.090179	0.1941	-3.2021	-2.8375	-3.3146	-3.4229	-2.95	-3.7333	-3.0729	-2.9458	-3.8729	-2.8438	-3.3875	-3.5958	-2.8271	-3.4958	-3.3583	-2.8667	203.675	335.134	264.788	322.607	121.331	221.472	407.680	340.718	387.217	244.958	196.263	323.602	363.587	140.186	91.069	212.006	8.066e-05	4.3844e-05	3.8813e-05	44.096	7.6388e-07	5.9055e-07	87.984	11.424	1.0097e-06	9.0021e-07	27.03	7.0424	3.6597	0.71964	7.9686e-07	1.628	0.00010699	0.00028838	7.346e-05	43.768	3.2984e-06	2.9671e-06	87.511	11.786	1.8239e-06	3.3728e-06	27.133	7.0598	3.6976	0.74347	2.7732e-06	1.704	398.583	181.199	253.452	99.297	216.090	173.164	99.127	106.539	237.171	116.714	102.240	107.090	110.815	113.301	219.705	109.050	-8191	255	
2402.586	1	1	0	0	0.071786	0.081278	0.065139	0.2042	0.17519	0.13667	0.033644	0.17681	0.11126	0.033441	0.068183	0.10448	0.12818	0.077141	0.071656	0.20056	-3.3583	-3.0521	-3.0812	-3.6104	-2.8812	-3.3854	-3.3208	-2.875	-3.5396	-3.0375	-3.3146	-3.6771	-2.9917	-3.5042	-3.4167	-2.925	424.864	441.677	380.110	318.867	398.480	159.266	403.023	363.085	324.036	334.918	389.676	253.963	124.061	297.861	154.007	438.101	5.1412e-05	8.5234e-05	1.9386e-05	44.703	1.5993e-07	8.0173e-07	82.463	12.391	1.4189e-06	4.4457e-07	26.518	6.5261	3.705	0.6998	1.5047e-06	1.5901	0.00011999	0.00031331	8.6868e-05	45.365	3.3516e-06	2.9316e-06	82.649	12.392	1.9295e-06	3.8022e-06	26.45	6.6374	3.542	0.71942	2.4842e-06	1.6236	398.760	311.772	378.683	99.920	302.259	161.728	98.424	106.540	233.644	295.968	102.420	106.617	108.434	112.732	147.439	110.056	-8191	255	
2402.682	1	1	0	0	0.3562	0.14127	0.35917	0.067233	0.21548	0.084646	0.15946	0.082677	0.36418	0.11396	0.13609	0.26218	0.072071	0.14314	0.18744	0.15975	-3.3208	-3.1667	-3.2938	-3.8604	-2.8521	-3.5333	-3.4896	-2.8625	-3.6688	-3.2625	-3.0854	-3.6833	-2.9458	-3.4083	-3.4792	-2.8688	114.045	433.176	406.105	149.777	364.727	214.699	431.859	260.553	245.504	286.043	190.736	174.805	339.694	118.935	188.990	399.187	7.587e-05	0.00012002	1.7921e-05	47.862	1.1109e-06	5.8651e-08	78.608	12.731	9.3078e-07	7.682e-07	25.728	6.3798	3.3611	0.66735	5.2263e-07	1.583	0.00010909	0.00032789	9.866e-05	47.953	3.9421e-06	3.7938e-06	78.322	12.739	2.4659e-06	4.406e-06	25.773	6.4269	3.4253	0.71056	3.0246e-06	1.616	367.210	142.509	342.896	100.321	192.167	420.065	99.914	105.057	231.388	131.046	102.146	107.353	109.486	111.610	291.551	109.700	-8191	255	
2402.779	1	1	0	0	0.097074	0.11108	0.15303	0.39615	0.11386	0.33617	0.17559	0.12145	0.051122	0.13071	0.097849	0.14151	0.019091	0.14521	0.041487	0.083593	-3.3792	-3.3521	-3.0708	-3.7708	-2.8333	-3.4396	-3.4792	-2.9271	-3.5958	-3.4375	-2.9562	-3.6688	-3.0229	-3.3792	-3.5604	-2.725	277.376	447.271	360.802	303.302	305.814	307.644	312.788	183.462	206.002	396.651	184.017	273.657	88.486	216.722	333.838	252.846	5.0691e-05	9.6029e-05	6.6404e-06	48.323	7.4026e-07	3.0844e-07	76.458	12.939	1.0732e-06	1.1731e-06	25.541	6.2614	3.3525	0.65142	7.4023e-07	1.6097	0.00011555	0.00036711	0.00010491	48.796	3.7354e-06	4.688e-06	76.344	12.959	2.869e-06	4.7106e-06	25.646	6.3049	3.3663	0.6982	3.7008e-06	1.6348	424.985	384.498	269.058	100.037	333.527	167.351	99.015	105.752	241.489	266.516	102.024	106.515	109.204	113.091	215.030	109.363	-8191	255	
2402.875	1	1	0	0	0.10781	0.017388	0.19508	0.29416	0.2777	0.061688	0.079522	0.068334	0.1199	0.14809	0.10292	0.15906	0.10671	0.12818	0.21448	0.10745	-3.1125	-3.3479	-2.9708	-3.7687	-3.3458	-3.3146	-3.7583	-2.75	-3.4729	-3.3604	-3	-3.6229	-3.1708	-3.0687	-3.675	-2.9833	144.591	429.267	259.802	360.777	303.767	153.426	131.309	161.198	359.082	140.197	180.703	358.488	115.336	235.140	209.126	314.701	4.8703e-05	9.035e-05	9.3548e-06	49.955	1.4011e-07	3.8804e-07	75.323	13.215	7.4641e-07	1.1018e-06	25.311	6.2103	3.3065	0.66137	4.9586e-07	1.591	0.00017153	0.00046975	0.00014347	51.29	4.732e-06	6.0569e-06	74.894	13.335	3.9119e-06	5.9676e-06	25.322	6.1887	3.3379	0.68435	3.7828e-06	1.6394	377.491	291.074	199.335	100.320	289.693	275.526	99.197	105.044	194.373	112.397	102.145	105.923	109.500	111.947	215.061	109.775	-8191	255	
2402.971	1	1	0	0	0.2412	0.035079	0.15581	0.084006	0.012812	0.062828	0.18281	0.25559	0.21356	0.25155	0.1206	0.18847	0.19063	0.039434	0.16127	0.12987	-2.9625	-3.4646	-2.8417	-3.6792	-3.2667	-3.0187	-3.8167	-2.8271	-3.4583	-3.4396	-2.8542	-3.7625	-3.1188	-2.9771	-3.75	-3.1562	151.061	88.124	88.558	191.137	375.213	382.859	380.888	432.817	367.730	326.831	127.620	299.953	211.810	440.978	291.229	189.631	7.0925e-05	6.8565e-05	6.6063e-06	50.75	1.1225e-06	3.4014e-07	73.452	12.969	5.3428e-07	4.7487e-07	24.386	5.9172	3.1208	0.65785	1.0232e-06	1.5596	0.00018224	0.00049322	0.00015299	50.854	4.8147e-06	6.1814e-06	73.594	13.162	3.194e-06	5.8703e-06	24.777	5.9864	3.1867	0.67772	3.7263e-06	1.5868	415.927	327.210	291.543	99.983	227.930	170.717	97.554	104.677	119.733	412.839	102.672	106.114	107.964	113.346	394.700	110.518	-8191	255	
2403.067	1	1	0	0	0.17057	0.070345	0.21152	0.094328	0.10382	0.20148	0.090069	0.13625	0.1184	0.19946	0.21131	0.07926	0.2809	0.099316	0.1724	0.071026	-2.7375	-3.5333	-3.0208	-3.6146	-3.5229	-2.9146	-3.625	-3.0438	-3.2479	-3.7646	-2.8417	-3.5125	-3.3354	-2.9958	-3.7396	-3.0667	136.336	179.269	90.840	241.350	122.999	290.144	181.874	158.620	293.593	422.301	323.074	406.584	108.670	355.734	92.271	200.937	4.7656e-05	4.9208e-05	3.7837e-05	50.209	5.4466e-07	7.069e-07	73.693	12.47	5.7278e-07	7.1847e-07	23.794	5.891	3.1404	0.63245	5.1388e-07	1.5478	0.00015491	0.00039948	0.00014046	50.585	4.5298e-06	6.1511e-06	72.483	12.624	3.812e-06	5.4941e-06	23.909	5.8975	3.1854	0.66918	3.643e-06	1.5702	345.279	233.464	277.009	102.130	111.189	205.956	99.536	105.258	92.250	289.086	102.030	106.438	109.326	112.258	206.692	108.765	-8191	255	
2403.186	1	1	0	0	0.18833	0.052928	0.12213	0.089362	0.1315	0.087007	0.27598	0.10852	0.054413	0.095701	0.062928	0.076933	0.18132	0.18575	0.19025	0.054466	-2.7208	-3.6063	-3.0396	-3.5583	-3.625	-2.8438	-3.6542	-3.2562	-3.3812	-3.8792	-2.9917	-3.4375	-3.6646	-3.1708	-3.7333	-3.3729	306.861	386.803	118.723	228.585	426.521	328.494	300.929	323.940	271.887	437.241	195.957	370.374	342.361	334.701	298.780	173.584	6.1428e-05	7.1547e-05	6.4402e-06	49.799	7.0341e-07	1.2971e-06	73.295	12.118	1.2656e-06	9.8779e-07	23.964	6.1195	3.1828	0.6513	6.1954e-07	1.5585	0.00017843	0.00044832	0.00014081	50.691	4.6346e-06	5.6391e-06	72.755	12.488	3.8062e-06	5.6942e-06	24.147	6.0772	3.2139	0.6781	3.5448e-06	1.5866	395.334	120.606	288.395	99.483	205.768	389.232	98.652	104.603	225.495	223.880	102.855	107.235	109.696	114.037	390.580	108.665	-8191	255	
2403.282	1	1	0	0	0.19522	0.1967	0.28687	0.24313	0.074819	0.11423	0.10613	0.067576	0.071524	0.028681	0.12188	0.19949	0.17345	0.12966	0.22615	0.13187	-2.675	-3.6333	-3.0062	-3.3125	-3.6354	-2.8771	-3.5646	-3.275	-2.9875	-3.8333	-3.0375	-3.3604	-3.6792	-2.8375	-3.65	-3.2917	135.579	215.464	198.903	316.441	106.563	381.952	376.606	332.828	384.241	361.263	278.906	114.419	197.782	86.608	226.375	420.365	0.000118	4.1497e-05	1.593e-05	48.786	1.0783e-06	5.3582e-07	73.241	12.214	3.772e-07	1.0067e-06	23.46	6.001	3.1355	0.63293	7.1911e-07	1.536	0.00018987	0.00042791	0.00012648	49.509	4.357e-06	5.5236e-06	72.686	12.262	3.5708e-06	4.7473e-06	23.873	6.0054	3.1953	0.66561	3.5637e-06	1.5566	397.543	248.685	266.724	100.172	266.250	418.297	98.887	104.423	239.774	92.449	102.061	106.103	107.626	112.916	166.959	108.698	-8191	255	
2403.378	1	1	0	0	0.22888	0.16747	0.20522	0.11587	0.099976	0.1047	0.048609	0.11398	0.19517	0.15341	0.16617	0.11238	0.073863	0.23063	0.050522	0.024537	-2.7104	-3.7396	-3.0833	-3.325	-3.8104	-3.0104	-3.5854	-3.5375	-2.9792	-3.8667	-3.1104	-3.1354	-3.6229	-2.8083	-3.4313	-3.4354	204.518	268.522	384.304	98.983	88.604	341.120	91.314	326.977	304.308	227.427	419.325	234.680	189.021	410.255	293.769	240.826	6.7777e-05	7.4558e-05	7.6446e-06	48.798	4.521e-07	2.4142e-07	71.434	11.948	1.6878e-06	3.9053e-07	23.817	5.944	3.202	0.61221	1.2753e-06	1.4556	0.00018972	0.000397	0.00012696	49.736	3.8934e-06	5.3387e-06	71.816	12.142	3.3399e-06	4.2683e-06	23.743	5.8932	3.1526	0.65073	3.2935e-06	1.4855	396.726	220.789	171.343	100.927	334.267	336.557	99.364	106.004	225.515	212.739	101.580	106.492	108.659	111.801	246.486	108.269	-8191	255	
2403.450	1	1	0	0	0.079659	0.12265	0.10584	0.28237	0.021666	0.2159	0.10004	0.085728	0.063846	0.0061919	0.095851	0.2434	0.10059	0.18486	0.36328	0.012192	-2.5438	-3.5542	-3.1604	-3.1271	-3.7542	-2.8937	-3.5104	-3.4625	-2.9583	-3.675	-3.2354	-3.1	-3.7708	-2.7938	-3.4375	-3.4792	442.451	323.570	423.526	297.514	403.553	326.933	100.952	271.480	386.227	401.708	340.564	426.369	180.930	379.746	129.885	302.490	3.2084e-05	7.3757e-05	1.4975e-05	49.391	1.4675e-06	9.536e-07	72.17	11.837	1.612e-06	4.0695e-07	23.434	5.7653	3.0834	0.62692	4.3422e-07	1.4877	0.00016366	0.0003257	0.00011626	48.733	3.5583e-06	4.4658e-06	71.622	11.953	3.2182e-06	4.1509e-06	23.427	5.8399	3.0941	0.64361	3.1335e-06	1.5139	407.126	227.362	411.714	98.884	171.011	177.059	98.519	104.242	172.217	265.605	101.739	105.290	110.428	113.782	135.683	110.601	-8191	255	
2403.571	1	1	0	0	0.22664	0.18194	0.18976	0.092382	0.14401	0.14818	0.15695	0.11569	0.039697	0.22791	0.13142	0.086106	0.26831	0.10961	0.031445	0.13441	-2.5354	-3.4688	-3.2292	-3.0271	-3.7792	-3.0708	-3.325	-3.6958	-2.8125	-3.6083	-3.275	-2.9083	-3.5917	-3.0938	-3.0708	-3.6458	108.964	227.622	359.113	388.629	425.040	243.062	162.263	253.680	400.046	312.428	201.930	161.977	354.035	380.581	120.597	239.322	4.483e-05	9.9474e-06	1.5819e-05	47.419	1.4938e-06	8.5477e-07	73.126	11.868	7.2872e-07	7.2556e-07	24.355	5.9169	3.1458	0.63556	1.4608e-06	1.5512	0.00014987	0.00031943	9.7219e-05	48.054	3.26e-06	4.4391e-06	72.805	11.974	2.3843e-06	4.1619e-06	24.287	5.9372	3.2079	0.6517	2.9614e-06	1.5513	409.165	188.116	171.136	99.647	215.873	222.871	98.993	104.767	285.444	427.652	103.156	106.160	109.838	112.770	264.951	108.298	-8191	255	
2403.667	1	1	0	0	0.024153	0.13264	0.23474	0.2994	0.16682	0.33837	0.14903	0.20153	0.091076	0.26104	0.17305	0.16862	0.10817	0.13152	0.050186	0.18125	-2.5375	-3.6375	-3.3729	-2.9854	-3.6813	-3.1833	-3.15	-3.7125	-2.9625	-3.4958	-3.4375	-2.95	-3.7146	-3.125	-3.1021	-3.7687	412.828	291.727	323.552	100.851	412.731	124.910	390.269	134.075	446.310	257.010	428.942	235.266	184.030	365.934	289.610	436.127	6.0792e-05	1.4383e-05	1.8725e-05	48.261	3.0767e-07	3.5337e-07	75.499	12.038	1.9469e-06	7.9804e-07	25.243	6.3268	3.2885	0.64395	1.2059e-06	1.5453	0.00013295	0.00032833	8.4335e-05	49.214	2.6473e-06	4.1102e-06	75.878	12.074	2.413e-06	3.1086e-06	25.123	6.2944	3.2693	0.6687	2.7033e-06	1.5622	423.136	386.905	191.535	99.792	153.088	412.500	99.061	106.636	222.030	197.593	101.553	106.006	108.490	114.982	236.428	109.763	-8191	255	
2403.763	1	1	0	0	0.16296	0.118	0.16614	0.1871	0.071605	0.21215	0.15133	0.12499	0.14182	0.35625	0.042074	0.20561	0.11129	0.23656	0.10604	0.1578	-2.4792	-3.5812	-3.5792	-3.0396	-3.6104	-3.3333	-3.1771	-3.8	-3.0625	-3.2333	-3.7271	-2.8667	-3.5979	-3.3854	-3.1646	-3.8042	322.707	353.530	397.587	98.735	230.111	394.070	136.003	403.521	175.954	344.363	427.013	431.676	211.751	202.707	285.374	429.815	2.978e-05	4.7281e-05	3.4637e-06	51.521	2.2423e-07	7.6276e-07	80.016	12.178	1.3695e-06	3.0401e-07	26.368	6.4828	3.3904	0.62906	8.5131e-07	1.5633	0.00012845	0.00025937	7.4203e-05	51.42	2.7403e-06	3.2658e-06	79.705	12.22	2.2936e-06	3.3324e-06	26.21	6.5249	3.4205	0.6601	2.659e-06	1.5707	414.803	268.246	254.758	99.495	207.502	242.866	98.752	104.624	216.180	356.866	102.177	106.937	109.422	113.674	228.943	110.112	-8191	255	
2403.859	1	1	0	0	0.15915	0.14118	0.12808	0.18767	0.31012	0.12136	0.13669	0.089635	0.091164	0.079671	0.24271	0.20759	0.14461	0.19883	0.13324	0.015976	-2.7917	-3.5458	-3.5729	-2.7583	-3.6229	-3.5687	-2.9917	-3.7729	-3.3083	-3.2583	-3.6979	-2.8833	-3.5417	-3.4271	-3.0438	-3.8438	404.281	293.472	146.186	124.394	394.330	255.572	374.036	280.178	337.853	266.840	105.284	405.145	92.571	268.089	352.567	354.505	8.0142e-05	6.6458e-05	5.2384e-06	51	2.1797e-07	8.067e-07	82.628	12.605	3.8591e-07	8.0652e-07	27.178	6.7846	3.6029	0.66913	1.3371e-06	1.6026	0.00011995	0.00024975	6.6254e-05	52.648	2.0331e-06	2.6169e-06	82.982	12.781	1.9249e-06	3.3526e-06	27.354	6.7944	3.6325	0.68691	2.417e-06	1.6308	394.656	91.278	179.858	99.666	302.454	261.435	99.044	104.796	264.820	189.225	102.543	107.537	109.235	111.346	288.538	110.480	-8191	255	
2403.978	1	1	0	0	0.10665	0.063516	0.052866	0.12331	0.12047	0.18602	0.19591	0.16886	0.018307	0.15976	0.069379	0.48244	0.08336	0.04713	0.10331	0.16822	-2.6521	-3.3063	-3.7104	-2.8958	-3.5208	-3.4688	-2.8292	-3.6042	-3.0646	-3.15	-3.8375	-2.8792	-3.2521	-3.475	-2.8958	-3.7438	167.815	390.381	191.820	335.223	249.923	424.697	436.528	325.053	392.307	92.802	392.071	383.629	122.695	157.384	103.918	351.435	3.0871e-05	4.0059e-05	2.071e-05	57.848	1.0875e-06	3.4662e-07	87.347	14.34	7.475e-07	1.1912e-06	29.955	7.4292	4.03	0.73998	8.9071e-07	1.7389	9.98e-05	0.00024931	4.612e-05	58.489	1.8943e-06	2.6436e-06	87.578	14.33	1.8709e-06	3.1214e-06	29.52	7.4882	4.0354	0.74672	2.0298e-06	1.7714	375.689	430.007	177.509	98.928	216.497	330.968	98.403	105.734	242.183	434.553	102.714	107.141	109.814	114.930	215.966	107.797	-8191	255	
2404.074	1	1	0	0	0.38069	0.10477	0.1547	0.044988	0.039136	0.028528	0.30678	0.19893	0.19498	0.14427	0.14262	0.26022	0.098255	0.18067	0.051287	0.1471	-2.8771	-3.0729	-3.7062	-2.9521	-3.4333	-3.6708	-2.9542	-3.5646	-3.4917	-2.9333	-3.7833	-2.9	-3.2708	-3.7062	-2.9437	-3.4542	417.433	295.033	163.937	258.445	185.058	151.434	188.494	206.647	200.384	336.210	306.553	407.800	242.827	279.871	430.243	216.329	8.4712e-05	7.4155e-05	1.6238e-05	64.319	2.4557e-07	1.758e-07	97.484	15.822	1.2108e-06	6.2651e-07	31.958	8.2501	4.5286	0.78637	2.0557e-06	1.9097	9.9849e-05	0.00022511	4.4591e-05	64.211	2.5764e-06	2.3307e-06	95.918	16.052	1.786e-06	2.5837e-06	32.167	8.1988	4.4637	0.79311	2.0621e-06	1.9327	384.208	143.739	116.780	100.658	146.054	156.422	98.412	106.484	198.946	232.007	101.862	106.333	108.196	113.960	173.628	109.348	-8191	255	
2404.147	1	1	0	0	0.041488	0.21033	0.11314	0.039731	0.21499	0.1963	0.28264	0.19259	0.093069	0.25295	0.27986	0.2367	0.29242	0.16539	0.15929	0.18621	-2.9667	-2.8979	-3.7167	-2.7938	-3.2354	-3.7042	-2.8854	-3.4333	-3.2375	-3.0687	-3.8042	-2.9479	-3.075	-3.7854	-2.875	-3.2792	254.044	359.871	292.726	303.580	309.915	101.194	118.312	173.377	206.340	318.453	206.884	281.845	278.033	174.306	373.878	401.025	5.2984e-05	0.00011322	2.5116e-05	68.931	7.2551e-07	5.4013e-07	102.51	17.445	3.8944e-07	1.1232e-06	33.849	8.5157	4.7115	0.78905	1.0678e-06	1.9587	9.5301e-05	0.00026126	5.4025e-05	68.915	2.0582e-06	2.6365e-06	101.32	17.49	1.8606e-06	3.1563e-06	33.976	8.6119	4.764	0.81242	2.5702e-06	1.9848	387.109	251.177	179.709	98.673	201.932	237.879	98.577	105.416	414.173	310.893	102.457	106.448	109.223	113.511	231.777	108.156	-8191	255	
2404.266	1	1	0	0	0.12402	0.055416	0.16068	0.19612	0.16849	0.15336	0.25719	0.081175	0.1483	0.14982	0.14349	0.19769	0.048304	0.059545	0.061698	0.017858	-3.0604	-2.9458	-3.7396	-3.1417	-2.9646	-3.8021	-3.0938	-3.45	-3.4479	-2.8187	-3.4833	-3.1083	-3.0125	-3.7604	-3.0604	-3.3896	225.173	123.029	162.800	156.341	135.847	151.074	436.220	311.136	234.068	136.075	428.015	185.661	113.671	319.426	402.123	245.464	4.8118e-05	4.4513e-05	8.9122e-06	70.762	5.0745e-07	2.2861e-07	101.67	18.235	1.2158e-06	4.888e-07	34.898	8.5711	4.9501	0.82132	8.893e-07	1.9878	9.095e-05	0.00025412	4.2932e-05	71.493	2.386e-06	2.544e-06	101.36	18.126	1.5643e-06	2.7581e-06	34.637	8.6525	4.9143	0.82699	2.4721e-06	1.9854	420.823	169.704	195.940	99.250	387.472	175.471	98.547	104.907	246.996	103.355	102.456	105.996	110.191	112.094	179.579	109.400	-8191	255	
2404.362	1	1	0	0	0.15585	0.15009	0.16415	0.15418	0.2221	0.18931	0.16177	0.18034	0.12937	0.26658	0.053272	0.10649	0.16879	0.14858	0.20471	0.27038	-3.4021	-2.7979	-3.5979	-3.3896	-2.8958	-3.75	-3.1646	-3.3875	-3.6625	-3.025	-3.6521	-3.2792	-2.85	-3.6583	-3.1312	-3.1292	146.673	185.908	232.130	425.550	440.636	91.436	253.748	302.669	188.844	125.816	94.927	358.773	146.942	171.992	424.023	328.678	5.9143e-05	8.8191e-05	1.6178e-05	72.543	1.3811e-06	7.4034e-07	102.3	18.578	1.3551e-06	2.1349e-07	35.575	8.8524	4.8864	0.83744	5.1472e-07	1.9943	0.00010278	0.00023035	5.9528e-05	72.502	2.7521e-06	2.4622e-06	102.26	18.716	1.6849e-06	3.56e-06	35.045	8.8267	4.8913	0.84687	1.8148e-06	2.0223	393.345	258.217	429.988	100.252	257.170	266.748	98.935	106.364	227.374	348.030	103.487	107.120	108.476	114.043	305.694	110.205	-8191	255	
2404.459	1	1	0	0	0.28267	0.097101	0.097546	0.093084	0.071664	0.099612	0.061834	0.15428	0.12884	0.1547	0.069313	0.074049	0.10812	0.11978	0.16136	0.21184	-3.2625	-2.9708	-3.5542	-3.4146	-2.9437	-3.8063	-3.1312	-3.0792	-3.8021	-3.0854	-3.4313	-3.4771	-3.0979	-3.65	-3.4833	-2.9729	426.493	209.364	95.262	284.606	435.494	172.659	110.282	447.791	232.523	268.093	355.265	428.346	123.197	223.534	180.146	244.107	5.5576e-05	3.1104e-05	2.9159e-06	71.226	8.0039e-07	4.2557e-07	101.64	18.824	6.0144e-07	9.5967e-07	34.525	8.7001	4.9243	0.80275	5.9297e-07	1.951	0.00011584	0.00028372	7.9487e-05	72.662	2.9042e-06	3.2747e-06	101.27	18.801	2.0432e-06	3.059e-06	34.785	8.7268	4.8981	0.82795	2.9735e-06	2.0068	381.804	91.134	270.414	100.288	217.121	415.388	99.197	106.027	191.966	222.449	103.271	106.249	109.454	112.279	130.971	109.435	-8191	255	
2404.579	1	1	0	0	0.039713	0.36503	0.09738	0.12894	0.19204	0.01064	0.059762	0.13906	0.2603	0.23367	0.27847	0.19247	0.22479	0.070478	0.12376	0.049625	-3.4917	-2.825	-3.4292	-3.7021	-3.0458	-3.75	-3.5333	-3.0396	-3.7917	-3.0021	-3.1604	-3.6937	-2.9229	-3.7	-3.4021	-2.8792	293.604	419.591	250.944	440.650	150.962	106.175	361.530	324.884	380.215	272.950	189.700	176.771	165.196	233.075	294.847	99.711	8.2762e-05	1.9813e-05	1.4209e-05	71.68	7.1765e-07	1.1312e-06	99.685	18.426	7.1857e-07	4.1554e-07	33.799	8.4861	4.8429	0.78454	5.0864e-07	1.8673	0.00013398	0.00031608	9.521e-05	71.765	3.4844e-06	4.0196e-06	97.994	18.461	2.4751e-06	5.0886e-06	33.61	8.4682	4.8074	0.81002	3.6591e-06	1.9091	386.132	261.834	150.067	100.806	213.150	202.614	97.972	105.539	317.475	311.689	102.664	106.181	108.271	112.396	330.851	109.332	-8191	255	
2404.675	1	1	0	0	0.2253	0.15646	0.22729	0.27098	0.14054	0.38335	0.33071	0.19295	0.14663	0.10788	0.31958	0.11382	0.12455	0.13149	0.28998	0.35888	-3.3479	-3.2125	-3.3417	-3.7062	-3.0125	-3.725	-3.325	-3.0417	-3.6583	-3.1437	-3.1063	-3.6479	-2.7812	-3.5833	-3.5333	-2.9938	235.982	440.179	236.720	294.163	404.532	440.705	389.702	216.895	391.025	104.668	401.720	171.494	298.197	183.838	412.853	372.254	6.4269e-05	7.1687e-05	1.6099e-05	64.821	1.209e-06	6.0263e-07	91.763	16.763	1.4526e-06	1.0937e-06	31.034	8.0456	4.4411	0.7198	1.6777e-06	1.7539	0.00014317	0.00044263	0.00013382	66.469	5.3861e-06	5.4969e-06	91.185	16.929	3.8602e-06	6.7878e-06	31.152	8.0416	4.5262	0.77656	5.322e-06	1.8327	367.671	317.981	193.100	100.528	223.872	179.905	98.783	105.841	375.437	321.400	102.487	106.814	109.524	113.717	152.569	109.606	-8191	255	
2404.747	1	1	0	0	0.081313	0.13994	0.083796	0.19639	0.056277	0.23414	0.084318	0.15051	0.15639	0.2738	0.1483	0.15444	0.061439	0.30643	0.042153	0.092569	-3.3438	-3.1542	-2.9875	-3.7771	-3.0979	-3.6479	-3.6562	-2.9708	-3.775	-3.2396	-3.225	-3.6417	-3.0312	-3.5146	-3.6333	-3.0083	426.379	320.885	259.960	439.410	92.069	196.979	95.702	98.505	222.936	91.846	191.788	338.224	338.363	306.119	445.042	341.466	7.9362e-05	1.1593e-05	3.7253e-05	60.613	6.7026e-07	9.3053e-07	86.894	14.995	1.8119e-06	4.3336e-07	28.833	7.8385	4.3179	0.6936	3.3921e-06	1.7488	0.00023569	0.00068305	0.00020999	62.555	7.4605e-06	9.3014e-06	86.77	14.995	6.7177e-06	1.1915e-05	29.2	7.8832	4.511	0.76733	9.9463e-06	1.8338	383.392	275.878	177.789	100.896	203.187	99.709	98.860	106.673	158.505	293.163	102.645	107.795	108.783	113.183	214.805	109.896	-8191	255	
2404.868	1	1	0	0	0.15188	0.064552	0.23269	0.14813	0.16817	0.16335	0.21187	0.10438	0.12303	0.067131	0.053233	0.26571	0.13694	0.17943	0.30605	0.16332	-3.3104	-3.3271	-3.1312	-3.7562	-3.0896	-3.3458	-3.8042	-2.9125	-3.6104	-3.3688	-2.9542	-3.7646	-3.2583	-3.4271	-3.6375	-2.9958	402.393	140.043	391.036	258.808	168.979	130.957	308.034	304.481	406.556	95.016	267.830	405.305	153.743	313.256	359.112	387.880	8.2417e-05	6.7568e-05	2.1602e-05	56.612	5.4014e-07	2.3603e-06	85.573	11.828	1.0919e-06	1.247e-06	27.438	8.0593	4.2295	0.88352	2.8065e-06	2.1483	0.00041499	0.0011499	0.00035721	59.816	1.251e-05	1.611e-05	86.235	12.298	1.1187e-05	1.8415e-05	28.174	8.3576	4.6566	1.0058	1.5845e-05	2.292	414.720	292.351	370.869	100.854	235.301	193.120	99.680	107.859	227.813	210.261	103.834	106.870	109.187	112.988	227.016	109.437	-8191	255	
2404.964	1	1	0	0	0.094339	0.20738	0.14934	0.23986	0.33378	0.24678	0.16867	0.17491	0.14474	0.22313	0.12857	0.079132	0.072991	0.28266	0.12357	0.11953	-3.2542	-3.3958	-2.8417	-3.8083	-3.0896	-3.2333	-3.7583	-3.0792	-3.5271	-3.6542	-3.0292	-3.8021	-3.1667	-3.2021	-3.8312	-2.9604	314.143	257.525	328.180	394.445	119.844	136.729	362.377	232.826	126.505	178.273	427.615	293.374	449.104	426.869	150.728	407.721	0.00010076	9.4066e-05	2.9248e-05	59.335	1.6521e-06	1.7998e-06	91.05	11.724	9.6826e-07	1.4999e-06	26.14	9.6801	5.0961	1.2655	1.6406e-06	3.0009	0.00071611	0.0019531	0.00060952	64.364	2.3329e-05	2.8731e-05	92.471	12.342	2.0204e-05	3.4014e-05	27.821	10.075	5.6909	1.4309	2.7278e-05	3.2471	395.865	182.527	318.127	100.477	175.483	153.671	99.639	108.001	229.957	174.659	103.745	106.513	110.176	112.857	321.030	107.656	-8191	255	
2405.058	1	1	0	0	0.17331	0.29912	0.13741	0.17714	0.16275	0.22551	0.24658	0.19471	0.15099	0.31884	0.27391	0.14564	0.12516	0.059235	0.19045	0.13918	-3.2896	-3.5229	-2.9042	-3.6167	-3.1625	-3.0229	-3.8583	-2.9875	-3.3167	-3.7458	-3.1354	-3.7229	-3.3354	-3.0542	-3.8104	-3.0563	380.426	135.851	441.559	368.114	421.734	306.388	443.747	394.201	355.304	357.867	429.931	171.453	321.677	332.435	370.791	102.917	0.00015204	7.4803e-05	8.1822e-05	64.727	1.3181e-06	3.7308e-07	97.744	13.31	3.6865e-06	1.0914e-06	26.768	11.366	5.6953	1.4946	3.6393e-06	3.4666	0.0010927	0.0031233	0.0010001	72.714	3.471e-05	4.3453e-05	101.66	14.774	2.9359e-05	4.7076e-05	29.023	11.92	6.5033	1.733	3.5737e-05	3.7732	368.304	224.798	427.199	100.848	361.367	190.176	98.694	106.346	114.889	255.828	103.189	106.154	107.364	111.414	199.099	108.718	-8191	255	
2405.154	1	1	0	0	0.11039	0.13113	0.10466	0.24139	0.075563	0.068242	0.046356	0.28858	0.11123	0.39377	0.25795	0.23345	0.32003	0.15652	0.096574	0.19942	-2.9437	-3.65	-2.9979	-3.6063	-3.3708	-2.9854	-3.8875	-3.1937	-3.2375	-3.6667	-3.0042	-3.5146	-3.3646	-2.7167	-3.8688	-3.1854	177.439	406.841	94.843	124.118	311.523	358.128	408.746	199.677	97.184	230.207	240.401	389.549	339.618	173.872	313.936	316.318	0.00014698	8.5901e-05	7.4216e-05	67.952	3.4866e-06	8.9756e-07	102.9	15.162	3.329e-06	6.9042e-07	27.833	11.359	5.677	1.5447	3.4279e-06	3.361	0.0013614	0.0039636	0.0012387	79.098	4.0991e-05	4.9743e-05	105.8	16.247	3.1201e-05	4.9377e-05	29.817	11.902	6.3864	1.7571	3.4671e-05	3.6597	390.862	88.204	390.459	101.345	289.398	440.508	100.357	104.954	203.365	163.464	102.537	105.594	110.100	112.992	181.298	108.744	-8191	255	
2405.275	1	1	0	0	0.16823	0.16346	0.13786	0.14251	0.037278	0.33192	0.14407	0.019492	0.22743	0.091529	0.11572	0.10994	0.065637	0.026727	0.094074	0.030179	-2.8271	-3.7354	-2.8333	-3.65	-3.5021	-3.0167	-3.7583	-3.2021	-3.1	-3.8375	-2.9521	-3.3438	-3.6417	-3.0479	-3.7417	-3.3812	184.657	318.871	410.946	219.659	381.146	159.860	417.944	435.992	125.002	298.863	169.299	318.419	303.541	209.381	430.514	412.118	0.00018066	0.00014647	5.8907e-05	69.543	2.1127e-06	6.1309e-07	102.33	14.617	4.6949e-06	2.2387e-06	27.445	11.424	5.6811	1.6479	2.3198e-06	3.5811	0.0012816	0.0036597	0.0011532	78.033	3.789e-05	4.6688e-05	105.22	15.861	3.0671e-05	4.8783e-05	29.876	12.155	6.5892	1.8547	3.7723e-05	3.8978	394.710	410.168	226.433	100.690	261.572	393.805	99.214	105.248	148.149	253.473	103.528	105.602	109.136	111.545	384.923	108.173	-8191	255	
2405.371	1	1	0	0	0.087436	0.15736	0.16096	0.073248	0.1276	0.40231	0.094663	0.16389	0.21543	0.27467	0.077111	0.17061	0.2518	0.088305	0.052896	0.42226	-2.7062	-3.7854	-3	-3.3	-3.6792	-2.8438	-3.4708	-3.4146	-2.9042	-3.7208	-2.9708	-3.1979	-3.5708	-3.0625	-3.6417	-3.4146	158.070	185.551	399.641	295.200	297.534	337.067	198.853	285.378	132.789	183.867	399.242	118.415	369.716	354.172	386.234	308.216	7.7526e-05	0.00016517	4.8987e-05	70.113	1.9132e-06	2.1468e-06	104.73	15.069	2.8498e-06	1.7029e-06	28.818	11.805	5.6521	1.6281	2.4771e-06	3.4528	0.0014326	0.0041433	0.0012754	79.823	4.2495e-05	5.2301e-05	108.32	16.324	3.3779e-05	5.2726e-05	30.884	12.283	6.5614	1.8688	3.6877e-05	3.7732	396.984	382.343	396.704	100.522	129.478	399.197	100.048	105.919	134.306	182.716	102.017	105.552	108.795	111.539	404.394	108.525	-8191	255	
2405.443	1	1	0	0	0.11859	0.17105	0.18445	0.19497	0.24256	0.1513	0.2207	0.20583	0.22453	0.08816	0.30543	0.1622	0.18431	0.078457	0.24685	0.11118	-2.4917	-3.6833	-3.0146	-3.0146	-3.7542	-2.8312	-3.5792	-3.4458	-2.8688	-3.7542	-3.1562	-3.0021	-3.7375	-2.8271	-3.3792	-3.4833	311.294	161.839	324.624	144.475	283.188	229.275	447.629	121.001	407.053	274.000	398.595	223.186	117.270	278.524	342.208	153.538	0.00013524	2.8417e-05	2.5445e-05	68.353	2.753e-06	1.0517e-06	102.34	14.92	2.0115e-06	3.0659e-06	27.341	10.973	5.3546	1.5776	5.2213e-07	3.2406	0.0013476	0.0038331	0.0011295	77.768	3.6349e-05	4.3702e-05	105.25	15.917	2.6994e-05	4.1577e-05	29.493	11.482	6.1433	1.7637	2.9969e-05	3.4731	387.754	217.077	253.066	101.650	329.747	393.729	98.969	106.238	439.421	238.918	103.053	106.688	109.682	111.947	287.714	108.754	-8191	255	
2405.539	1	1	0	0	0.22478	0.010993	0.24994	0.20017	0.23894	0.10004	0.086825	0.042711	0.10972	0.15469	0.042478	0.18467	0.053645	0.086773	0.11031	0.060067	-2.5271	-3.5667	-3.1021	-3.0875	-3.7875	-3	-3.3104	-3.5604	-3.0625	-3.7271	-3.2938	-3.0083	-3.6583	-3.0375	-3.2938	-3.6896	358.727	111.858	113.887	137.666	312.613	170.951	408.217	152.964	353.508	203.510	401.192	412.123	124.917	201.294	333.177	379.346	0.00010046	0.0002534	4.041e-05	65.543	1.3488e-06	2.5441e-06	101.99	15.147	5.3733e-06	1.0028e-06	28.415	10.816	5.2813	1.5628	1.5866e-06	3.1276	0.0010948	0.0030717	0.00091035	73.626	2.9762e-05	3.5942e-05	104.02	15.94	2.2685e-05	3.4769e-05	29.049	11.126	5.8531	1.6988	2.315e-05	3.3444	400.973	147.743	402.591	99.452	374.423	336.237	99.362	105.424	98.244	271.995	102.082	106.005	110.430	112.755	91.758	110.680	-8191	255	
2405.660	1	1	0	0	0.11349	0.021786	0.18857	0.15059	0.11999	0.11723	0.03749	0.050688	0.18556	0.12982	0.076605	0.23329	0.13801	0.15694	0.13177	0.11346	-2.6521	-3.5458	-3.4708	-2.9208	-3.7646	-3.0167	-3.2438	-3.5563	-2.9583	-3.5312	-3.3312	-2.9792	-3.6979	-3.0771	-3.0083	-3.6	258.636	401.043	155.316	368.650	236.330	104.985	183.628	174.972	308.949	147.867	194.585	290.082	402.838	429.611	393.734	306.678	0.00013398	0.0001475	2.6812e-05	65.074	7.8757e-07	1.8827e-06	99.488	15.445	2.01e-06	8.797e-07	27.336	10.538	5.127	1.5053	2.1957e-06	3.0738	0.00080701	0.002291	0.00064271	69.527	2.1477e-05	2.6551e-05	101.74	16.024	1.6696e-05	2.5219e-05	28.496	10.77	5.4492	1.6181	1.6682e-05	3.1993	387.555	187.817	246.484	99.462	229.369	217.686	98.935	105.014	238.426	261.610	103.690	106.638	109.424	113.355	277.324	109.640	-8191	255	
2405.756	1	1	0	0	0.091283	0.24784	0.13945	0.18662	0.1405	0.20406	0.28424	0.034719	0.034444	0.14821	0.15717	0.059405	0.047226	0.14691	0.046348	0.02701	-2.5583	-3.525	-3.6271	-2.85	-3.6208	-3.075	-3.2021	-3.625	-2.8896	-3.4625	-3.6229	-2.8979	-3.6875	-3.1979	-3.1396	-3.8479	178.929	379.565	335.948	132.290	287.721	436.222	392.432	312.621	130.023	262.465	439.568	443.857	372.463	154.274	186.617	384.334	6.6661e-05	6.0919e-05	1.8111e-06	62.85	1.3356e-06	1.9542e-06	97.284	15.778	2.3807e-06	1.3567e-06	27.057	9.7255	4.8076	1.4061	7.354e-07	2.7815	0.0006364	0.0017734	0.00048666	64.947	1.5652e-05	2.0091e-05	98.701	16.132	1.2344e-05	1.8622e-05	27.458	9.9751	4.9835	1.4991	1.2769e-05	2.9157	414.827	282.479	95.648	100.668	231.448	196.303	99.116	106.454	248.666	165.480	103.114	107.354	109.903	113.962	377.606	109.134	-8191	255	
2405.852	1	1	0	0	0.038656	0.17671	0.040781	0.22618	0.080378	0.10409	0.21701	0.041862	0.12661	0.13904	0.15258	0.061005	0.091649	0.20513	0.12763	0.12927	-2.4938	-3.3958	-3.575	-2.7438	-3.6729	-3.2396	-2.8812	-3.5938	-2.9146	-3.2958	-3.7271	-3.0625	-3.5271	-3.4313	-2.9292	-3.7188	320.414	296.439	244.844	237.639	137.173	189.906	108.518	143.994	284.253	302.377	341.625	118.826	124.896	291.086	447.075	204.110	9.355e-05	3.6363e-05	5.0106e-05	54.273	1.4178e-06	3.9136e-07	93.142	15.421	1.3426e-06	8.0613e-07	26.012	9.0824	4.3422	1.3322	1.3663e-06	2.5916	0.00046819	0.0013222	0.00037752	58.169	1.215e-05	1.4425e-05	94.111	15.533	9.3743e-06	1.3745e-05	26.595	9.3015	4.5598	1.3844	9.5201e-06	2.6763	384.093	89.119	206.630	101.343	250.461	403.807	100.256	106.062	390.227	274.283	104.055	106.907	110.589	113.899	440.313	110.171	-8191	255	
2405.948	1	1	0	0	0.20943	0.047468	0.16517	0.23903	0.31008	0.040018	0.34304	0.12632	0.2412	0.2193	0.1447	0.18994	0.10672	0.056152	0.21075	0.016327	-2.7292	-3.2667	-3.6875	-3.075	-3.5333	-3.4167	-2.9271	-3.6667	-3.1583	-3.2812	-3.6646	-2.9562	-3.5708	-3.5854	-2.8646	-3.6333	382.941	293.125	429.037	245.830	363.969	339.092	372.854	428.136	446.758	183.844	427.863	393.772	397.888	273.758	423.341	311.976	5.732e-05	4.8026e-05	4.8236e-05	51.285	4.0638e-07	7.7552e-07	88.91	14.68	2.365e-06	5.7821e-07	26.335	8.7936	4.181	1.2303	5.7047e-07	2.4991	0.00036497	0.00096734	0.00026021	53.018	8.9311e-06	9.9521e-06	88.573	14.832	6.1882e-06	9.8193e-06	26.381	8.7897	4.2307	1.2953	7.6086e-06	2.525	383.794	212.095	429.656	100.389	301.442	223.219	99.430	106.729	225.857	385.441	103.228	106.791	111.065	112.462	144.167	109.486	-8191	255	
2406.044	1	1	0	0	0.14407	0.11116	0.059954	0.020046	0.1667	0.19661	0.15552	0.20018	0.17659	0.081811	0.061441	0.2683	0.062687	0.086228	0.1618	0.14121	-2.8042	-3.0354	-3.8958	-3	-3.1708	-3.5938	-2.9479	-3.6625	-3.1604	-3.2562	-3.7625	-2.8063	-3.4792	-3.55	-2.8417	-3.725	435.934	311.751	285.096	172.983	374.921	335.345	390.040	419.132	330.241	401.200	315.435	290.807	418.908	96.921	352.278	320.878	6.7662e-05	0.00010333	1.5485e-05	49.79	7.9652e-07	1.4011e-07	83.824	13.806	2.6785e-06	1.8287e-06	26.339	8.4762	3.8032	1.1983	6.5456e-07	2.3431	0.00026855	0.00067605	0.0001926	52.589	7.025e-06	8.2223e-06	83.397	13.831	4.5505e-06	8.1036e-06	26.198	8.4081	3.9055	1.2296	4.717e-06	2.3921	396.791	115.366	203.969	102.780	308.868	355.353	99.946	105.956	243.431	242.521	103.354	107.866	111.304	114.125	207.515	109.704	-8191	255	
2406.140	1	1	0	0	0.21282	0.1183	0.22099	0.11033	0.11333	0.13795	0.19821	0.021081	0.17419	0.10499	0.11707	0.25703	0.10661	0.24778	0.20012	0.27532	-3.1083	-2.9688	-3.7896	-2.9521	-3.3063	-3.7521	-2.925	-3.7	-3.5604	-3.2021	-3.7854	-2.9542	-3.175	-3.5646	-2.9604	-3.6792	206.752	400.756	257.484	377.957	374.500	318.880	206.519	299.091	221.612	251.904	421.569	355.940	291.473	116.922	172.339	231.251	6.6209e-05	2.8082e-05	2.3135e-05	54.233	8.2362e-07	3.4734e-07	84.05	13.376	5.7504e-07	1.4989e-07	25.715	7.9453	3.6587	1.1015	1.468e-06	2.2123	0.00020708	0.00055504	0.0001426	54.361	4.8e-06	5.5929e-06	84.761	13.371	3.5352e-06	6.0153e-06	25.841	8.0258	3.6364	1.1493	4.0543e-06	2.2589	367.909	102.168	274.735	102.287	154.819	260.380	100.138	107.273	163.958	438.445	103.428	108.054	110.008	113.508	384.757	109.653	-8191	255	
2406.259	1	1	0	0	0.05101	0.1141	0.11977	0.095275	0.076074	0.30218	0.13072	0.12613	0.1387	0.086779	0.17631	0.17771	0.19677	0.28765	0.18521	0.16909	-3.0042	-2.9271	-3.6896	-3.2438	-3.3042	-3.6854	-2.9125	-3.4625	-3.7167	-3.0354	-3.7417	-3.2646	-3.025	-3.7625	-3.0646	-3.4646	105.004	208.987	292.854	157.847	391.682	121.984	179.439	204.774	346.900	92.938	343.183	298.086	303.441	98.911	338.976	120.480	5.4025e-05	9.1291e-05	2.2715e-05	54.836	7.7418e-07	7.7552e-07	89.269	13.428	2.1479e-06	2.81e-07	25.798	7.9271	3.5761	1.0864	5.8761e-07	2.1536	0.00016831	0.00044044	0.00010434	56.535	3.9289e-06	4.608e-06	89.205	13.582	2.9896e-06	5.1088e-06	26.106	7.9266	3.585	1.1225	3.6295e-06	2.198	400.005	173.060	439.626	102.156	217.965	337.858	99.807	105.854	203.552	291.629	103.414	106.369	110.555	114.667	211.582	110.024	-8191	255	
2406.355	1	1	0	0	0.13313	0.21669	0.072019	0.12915	0.11035	0.11115	0.039243	0.15882	0.13429	0.18691	0.15204	0.040487	0.091041	0.21356	0.22515	0.14598	-3.2354	-2.9583	-3.6	-3.2292	-3.0458	-3.7833	-3.0729	-3.4062	-3.5875	-3.0812	-3.7	-3.5021	-3.0979	-3.6479	-3.0812	-3.3542	319.018	237.837	144.517	354.909	212.939	253.071	156.234	419.939	363.911	210.439	290.480	393.277	195.857	129.273	213.825	361.641	6.5538e-05	3.2537e-05	2.4483e-05	57.185	6.6252e-07	7.8399e-07	95.101	13.882	8.1457e-07	1.0947e-06	26.088	8.1585	3.7283	1.084	1.2159e-06	2.1252	0.00014552	0.00042703	9.9665e-05	57.692	3.7e-06	3.6622e-06	94.973	13.878	2.3706e-06	4.6812e-06	25.977	8.1358	3.7248	1.0972	3.0555e-06	2.1707	387.557	241.118	377.767	102.279	270.419	191.422	99.233	107.057	177.979	220.781	103.555	105.874	110.525	113.523	291.942	111.027	-8191	255	
2406.452	1	1	0	0	0.28275	0.11958	0.16884	0.04979	0.077605	0.15286	0.10498	0.1362	0.10751	0.070797	0.30191	0.088077	0.050531	0.17347	0.1383	0.085186	-3.2625	-2.9188	-3.6854	-3.3708	-3.1562	-3.9167	-3.0687	-3.2021	-3.575	-3.0187	-3.5708	-3.3729	-2.9417	-3.7938	-3.4104	-3.0958	148.062	91.767	246.410	432.032	204.185	287.457	305.552	326.909	271.210	94.331	336.460	102.439	367.576	328.229	165.059	118.788	9.0073e-05	9.1541e-05	3.1364e-05	59.172	6.945e-07	1.7256e-06	100.63	14.337	1.893e-06	8.4752e-07	26.285	8.2721	3.6614	1.0864	1.0457e-06	2.1949	0.00011931	0.00036259	8.6082e-05	59.865	3.5125e-06	2.9796e-06	100	14.189	2.0742e-06	3.8353e-06	26.565	8.245	3.7103	1.0918	2.6012e-06	2.226	380.007	172.173	204.370	102.445	231.451	238.897	99.845	106.667	280.337	276.939	103.065	106.629	110.207	111.508	151.787	110.212	-8191	255	
2406.548	1	1	0	0	0.13289	0.018939	0.16197	0.16283	0.10174	0.1885	0.22058	0.21259	0.078777	0.052942	0.17499	0.15254	0.21513	0.12582	0.043811	0.15142	-3.2417	-2.9979	-3.4417	-3.4417	-2.8021	-3.7354	-3.2104	-3.0938	-3.8375	-3.1562	-3.5458	-3.6792	-2.9354	-3.6833	-3.4875	-3.0646	353.260	408.304	416.995	160.097	95.445	152.642	431.111	384.135	338.340	290.287	199.735	115.090	350.770	129.061	386.764	224.843	9.5756e-05	5.9937e-05	2.5639e-05	62.031	1.1959e-06	4.6919e-07	102.54	14.348	2.6227e-07	8.0901e-07	26.832	8.2727	3.6008	1.0242	1.03e-06	2.1183	0.00012708	0.00032031	8.0579e-05	61.819	3.1035e-06	3.2747e-06	101.08	14.317	2.0099e-06	3.4793e-06	26.646	8.1642	3.631	1.0595	2.2073e-06	2.1537	390.813	209.003	187.222	102.137	264.585	275.831	100.213	106.705	380.186	244.076	102.957	106.115	108.742	113.544	121.771	110.572	-8191	255	
2406.644	1	1	0	0	0.1354	0.14065	0.23262	0.055277	0.23002	0.12762	0.12531	0.30416	0.090166	0.26266	0.16886	0.22127	0.2981	0.038779	0.24557	0.081647	-3.4396	-3.175	-3.3979	-3.8479	-2.9604	-3.7458	-3.4104	-3.0917	-3.825	-3.2646	-3.2104	-3.6688	-2.9688	-3.5938	-3.2833	-3.0708	423.623	307.976	320.041	110.422	373.698	363.132	378.636	215.987	328.326	208.377	361.551	373.361	204.333	133.918	349.365	142.168	9.5936e-05	9.7757e-05	2.165e-05	60.218	8.1839e-07	1.217e-06	101.48	14.192	9.7187e-07	6.5985e-07	26.048	8.1624	3.3869	1.0425	8.5034e-07	2.1506	9.8969e-05	0.00025456	8.4204e-05	61.175	2.8156e-06	3.1129e-06	100.25	14.048	1.8526e-06	3.1526e-06	26.069	8.0216	3.5011	1.0533	2.1549e-06	2.1942	393.731	148.109	424.350	100.748	216.361	274.347	99.828	106.677	421.644	272.204	102.438	106.564	109.290	114.502	191.505	108.931	-8191	255	
2406.740	1	1	0	0	0.27453	0.14065	0.23221	0.21173	0.029986	0.06769	0.077989	0.091855	0.18967	0.1902	0.33082	0.02963	0.10469	0.099692	0.21506	0.22516	-3.4313	-3.1771	-3.1458	-3.7667	-2.8708	-3.55	-3.5229	-2.8521	-3.7958	-3.3521	-3.1729	-3.65	-3.0667	-3.4854	-3.6375	-2.9813	254.197	432.569	363.616	185.959	171.466	374.125	226.886	191.742	352.461	303.998	147.487	322.618	134.103	287.176	108.774	157.312	0.0001103	6.8491e-05	1.1797e-05	59.863	5.9768e-07	7.4521e-07	101.4	14.044	1.5234e-06	5.4191e-07	25.695	8.1639	3.3431	1.0948	9.0669e-07	2.1763	0.00010542	0.00028226	7.6692e-05	59.828	2.8747e-06	3.2925e-06	99.798	13.983	1.9904e-06	3.4554e-06	25.743	7.9611	3.4052	1.0791	2.0863e-06	2.2053	383.262	299.196	120.827	102.700	185.725	121.074	99.726	106.284	242.798	341.380	102.826	106.833	110.995	116.106	160.777	109.739	-8191	255	
2406.836	1	1	0	0	0.16778	0.21571	0.301	0.037084	0.096294	0.16119	0.022112	0.28147	0.16701	0.14449	0.097145	0.20103	0.10962	0.15258	0.10953	0.10922	-3.3854	-3.3458	-3.0563	-3.8125	-3.1625	-3.3583	-3.6208	-2.8208	-3.6917	-3.3354	-3.0542	-3.7938	-3.1396	-3.4208	-3.5062	-2.8271	244.640	193.444	305.481	393.232	210.995	111.419	362.990	362.622	303.182	132.218	250.032	152.666	304.045	327.344	159.586	285.833	6.1868e-05	1.7012e-05	1.49e-05	60.673	1.0022e-06	7.3011e-07	99.937	13.929	7.3636e-07	4.5271e-07	25.482	7.8552	3.4254	1.0333	6.2561e-07	2.1194	0.00011594	0.00026432	8.1889e-05	60.079	3.0164e-06	3.4365e-06	98.659	13.864	1.9318e-06	3.026e-06	25.494	7.911	3.4219	1.0492	2.085e-06	2.1698	386.358	105.299	211.846	101.727	195.589	139.839	100.846	107.308	138.938	228.866	103.188	106.365	107.786	114.013	249.427	109.700	-8191	255	
2406.957	1	1	0	0	0.19462	0.18355	0.15155	0.16852	0.21114	0.20385	0.18752	0.14109	0.2141	0.077949	0.2001	0.23526	0.06375	0.25629	0.36645	0.073906	-3.3063	-3.5792	-2.975	-3.775	-2.975	-3.3104	-3.6792	-2.7125	-3.6562	-3.2729	-3.0958	-3.65	-3.0917	-3.275	-3.7917	-2.8917	433.239	192.794	168.188	433.364	146.002	333.036	318.272	255.509	94.031	166.189	252.165	90.689	414.011	317.806	441.082	286.731	9.2326e-05	4.1743e-05	9.0126e-06	57.725	2.5205e-07	1.241e-06	94.678	13.261	2.4579e-06	8.0593e-07	24.719	7.5257	3.3128	0.97621	4.2461e-07	2.0571	0.00012176	0.00027818	9.7961e-05	58.232	3.1508e-06	3.6356e-06	96.306	13.419	2.2626e-06	3.1122e-06	24.932	7.6347	3.3321	1.0232	1.968e-06	2.098	406.053	162.332	185.514	102.733	362.720	171.105	99.600	105.139	279.127	282.351	103.304	106.728	110.119	114.199	241.366	110.639	-8191	255	
2407.051	1	1	0	0	0.14044	0.18425	0.22575	0.32071	0.090701	0.19156	0.13204	0.26075	0.35012	0.17039	0.17697	0.055652	0.099981	0.17715	0.35488	0.15992	-3.1458	-3.5042	-2.8958	-3.6688	-3.0792	-3.2188	-3.6729	-3.0625	-3.3625	-3.6771	-2.9729	-3.6521	-3.1667	-3.0104	-3.7875	-2.9396	215.918	108.606	182.499	306.830	444.887	416.650	174.740	88.731	408.041	240.527	174.250	283.421	385.841	252.566	262.088	307.731	9.9366e-05	0.00010583	1.489e-05	56.221	3.9631e-07	1.703e-06	94.06	12.932	1.306e-06	1.0723e-06	24.012	7.5913	3.2363	0.97851	3.4117e-07	1.9817	0.00013334	0.00024421	0.00010242	56.628	3.3279e-06	3.7547e-06	94.197	13.009	2.2098e-06	3.1086e-06	24.508	7.5929	3.325	1.003	2.4385e-06	2.0545	385.441	226.822	343.178	100.975	287.224	193.966	99.676	106.003	151.796	245.567	102.724	107.913	109.247	113.547	369.991	109.898	-8191	255	
2407.147	1	1	0	0	0.028181	0.096516	0.051992	0.11739	0.20206	0.1726	0.23221	0.17843	0.1707	0.20507	0.18797	0.10188	0.2293	0.30111	0.18254	0.012898	-2.8187	-3.6396	-2.8896	-3.7771	-3.3271	-2.8937	-3.8854	-2.9062	-3.4271	-3.6875	-2.8333	-3.6542	-3.3646	-3.0625	-3.6354	-3.1229	392.074	310.996	298.067	437.180	98.817	266.428	374.075	345.239	128.546	130.800	150.315	143.145	335.796	229.843	242.265	334.326	2.8954e-05	3.2145e-05	4.3248e-06	56.622	4.3894e-07	1.0621e-06	94.337	12.579	5.0789e-07	3.6053e-07	24.186	7.5369	3.2953	0.94061	1.1417e-06	1.9935	0.00011564	0.00023969	0.00010696	56.808	2.8614e-06	3.664e-06	94.437	12.716	2.482e-06	3.6462e-06	24.268	7.5407	3.328	0.96722	2.4224e-06	2.0139	393.023	263.825	251.892	101.922	421.030	165.156	98.630	106.150	298.954	200.195	103.146	106.450	109.454	113.602	231.324	110.017	-8191	255	
#DATA ENDS
