BOXY.EXE: ISS Imagent and Oximeter Data Acquisition Program Version 0.80
Ascii Record File

#ACQ INFORMATION
2  Detector Channels 
16  External MUX Channels 
1  Auxiliary Channels 
5000  Waveform (CCF) Frequency (Hz)
1  Waveforms Skipped 
30  Waveforms Averaged 
1  Cycles Averaged 
16  Acquisitions per Waveform 
10.0806  Updata Rate (Hz) 

#FILE INFORMATION
TRUE -- External MUX Channel results are PARSED.
FALSE -- AC DC and Phase are NOT grouped.
TRUE -- Companion Program Settings File CREATED.
FALSE -- AC data not excluded
FALSE -- DC data not excluded
FALSE -- Phase data not excluded
FALSE -- Auxillary Chn. data not excluded
Tab delimiters

#CALIBRATION STATE
TRUE -- Waveform Calibration Values APPLIED.


#AUX CALIBRATION VALUES
Val Type	aux-1	

Term	1.0000e+00	
Factor	0.0000e+00	


#WF CALIBRATION VALUES
A = Detector Channel
Val Type	A-AC1	A-AC2	A-AC3	A-AC4	A-AC5	A-AC6	A-AC7	A-AC8	A-AC9	A-AC10	A-AC11	A-AC12	A-AC13	A-AC14	A-AC15	A-AC16	A-DC1	A-DC2	A-DC3	A-DC4	A-DC5	A-DC6	A-DC7	A-DC8	A-DC9	A-DC10	A-DC11	A-DC12	A-DC13	A-DC14	A-DC15	A-DC16	A-Ph1	A-Ph2	A-Ph3	A-Ph4	A-Ph5	A-Ph6	A-Ph7	A-Ph8	A-Ph9	A-Ph10	A-Ph11	A-Ph12	A-Ph13	A-Ph14	A-Ph15	A-Ph16	

Term	0.00000e+00	0.00000e+00	0.00000e+00	0.00000e+00	0.00000e+00	0.00000e+00	0.00000e+00	0.00000e+00	0.00000e+00	0.00000e+00	0.00000e+00	0.00000e+00	0.00000e+00	0.00000e+00	0.00000e+00	0.00000e+00	0.00000e+00	0.00000e+00	0.00000e+00	0.00000e+00	0.00000e+00	0.00000e+00	0.00000e+00	0.00000e+00	0.00000e+00	0.00000e+00	0.00000e+00	0.00000e+00	0.00000e+00	0.00000e+00	0.00000e+00	0.00000e+00	0.00000e+00	0.00000e+00	0.00000e+00	0.00000e+00	0.00000e+00	0.00000e+00	0.00000e+00	0.00000e+00	0.00000e+00	0.00000e+00	0.00000e+00	0.00000e+00	0.00000e+00	0.00000e+00	0.00000e+00	0.00000e+00	
Factor	1.00000e+00	1.00000e+00	1.00000e+00	1.00000e+00	1.00000e+00	1.00000e+00	1.00000e+00	1.00000e+00	1.00000e+00	1.00000e+00	1.00000e+00	1.00000e+00	1.00000e+00	1.00000e+00	1.00000e+00	1.00000e+00	1.00000e+00	1.00000e+00	1.00000e+00	1.00000e+00	1.00000e+00	1.00000e+00	1.00000e+00	1.00000e+00	1.00000e+00	1.00000e+00	1.00000e+00	1.00000e+00	1.00000e+00	1.00000e+00	1.00000e+00	1.00000e+00	X	X	X	X	X	X	X	X	X	X	X	X	X	X	X	X	

B = Detector Channel
Val Type	B-AC1	B-AC2	B-AC3	B-AC4	B-AC5	B-AC6	B-AC7	B-AC8	B-AC9	B-AC10	B-AC11	B-AC12	B-AC13	B-AC14	B-AC15	B-AC16	B-DC1	B-DC2	B-DC3	B-DC4	B-DC5	B-DC6	B-DC7	B-DC8	B-DC9	B-DC10	B-DC11	B-DC12	B-DC13	B-DC14	B-DC15	B-DC16	B-Ph1	B-Ph2	B-Ph3	B-Ph4	B-Ph5	B-Ph6	B-Ph7	B-Ph8	B-Ph9	B-Ph10	B-Ph11	B-Ph12	B-Ph13	B-Ph14	B-Ph15	B-Ph16	

Term	0.00000e+00	0.00000e+00	0.00000e+00	0.00000e+00	0.00000e+00	0.00000e+00	0.00000e+00	0.00000e+00	0.00000e+00	0.00000e+00	0.00000e+00	0.00000e+00	0.00000e+00	0.00000e+00	0.00000e+00	0.00000e+00	0.00000e+00	0.00000e+00	0.00000e+00	0.00000e+00	0.00000e+00	0.00000e+00	0.00000e+00	0.00000e+00	0.00000e+00	0.00000e+00	0.00000e+00	0.00000e+00	0.00000e+00	0.00000e+00	0.00000e+00	0.00000e+00	-2.67937e+02	-1.30297e+02	-1.24741e+02	-1.87822e+02	-6.96048e+01	-6.65855e+01	-1.56226e+02	-1.62015e+02	-6.64801e+01	-6.54146e+01	-1.71993e+02	-1.70449e+02	-1.82921e+02	-1.77447e+02	-7.06104e+01	-1.50185e+02	
Factor	5.08686e-05	1.23101e-04	3.70342e-05	3.47696e-01	1.44184e-06	1.36155e-06	1.51375e-01	4.06272e-02	2.33488e-06	1.39090e-06	7.25516e-02	2.05289e-02	3.17289e-02	6.81532e-03	1.55922e-06	9.51071e-03	2.34709e-05	6.99811e-05	2.09637e-05	1.86283e-01	7.08699e-07	8.53338e-07	7.64441e-02	2.19243e-02	5.51292e-07	8.80824e-07	3.79906e-02	1.07674e-02	1.72504e-02	3.72260e-03	6.45250e-07	5.03074e-03	X	X	X	X	X	X	X	X	X	X	X	X	X	X	X	X	



#DISTANCE SETTINGS
A = Detector Channel
A-1	A-2	A-3	A-4	A-5	A-6	A-7	A-8	A-9	A-10	A-11	A-12	A-13	A-14	A-15	A-16	

2.5000e+00	3.0000e+00	2.5000e+00	3.0000e+00	2.0000e+00	3.0000e+00	1.5000e+00	3.0000e+00	3.0000e+00	3.0000e+00	3.0000e+00	3.0000e+00	3.0000e+00	3.0000e+00	1.5000e+00	3.0000e+00	

B = Detector Channel
B-1	B-2	B-3	B-4	B-5	B-6	B-7	B-8	B-9	B-10	B-11	B-12	B-13	B-14	B-15	B-16	

1.0000e+01	1.0000e+01	1.0000e+01	1.4400e+00	1.0000e+01	1.0000e+01	1.5100e+00	1.9400e+00	1.0000e+01	1.0000e+01	1.9900e+00	2.4900e+00	2.4100e+00	2.9000e+00	1.0000e+01	2.9800e+00	




#DATA BEGINS
time	group	step	mark	flag	A-AC1	A-AC2	A-AC3	A-AC4	A-AC5	A-AC6	A-AC7	A-AC8	A-AC9	A-AC10	A-AC11	A-AC12	A-AC13	A-AC14	A-AC15	A-AC16	A-DC1	A-DC2	A-DC3	A-DC4	A-DC5	A-DC6	A-DC7	A-DC8	A-DC9	A-DC10	A-DC11	A-DC12	A-DC13	A-DC14	A-DC15	A-DC16	A-Ph1	A-Ph2	A-Ph3	A-Ph4	A-Ph5	A-Ph6	A-Ph7	A-Ph8	A-Ph9	A-Ph10	A-Ph11	A-Ph12	A-Ph13	A-Ph14	A-Ph15	A-Ph16	B-AC1	B-AC2	B-AC3	B-AC4	B-AC5	B-AC6	B-AC7	B-AC8	B-AC9	B-AC10	B-AC11	B-AC12	B-AC13	B-AC14	B-AC15	B-AC16	B-DC1	B-DC2	B-DC3	B-DC4	B-DC5	B-DC6	B-DC7	B-DC8	B-DC9	B-DC10	B-DC11	B-DC12	B-DC13	B-DC14	B-DC15	B-DC16	B-Ph1	B-Ph2	B-Ph3	B-Ph4	B-Ph5	B-Ph6	B-Ph7	B-Ph8	B-Ph9	B-Ph10	B-Ph11	B-Ph12	B-Ph13	B-Ph14	B-Ph15	B-Ph16	aux-1	digaux	

909.300	1	1	0	768	0.14489	0.079033	0.17055	0.21503	0.18125	0.047648	0.13584	0.31731	0.18583	0.3648	0.16473	0.29018	0.2883	0.10465	0.084648	0.055158	-3.4917	-3.475	-3.1125	-3.9792	-3.0167	-3.3604	-3.9292	-3.4208	-3.6792	-3.7208	-3.3438	-4.1292	-3.4167	-3.4562	-3.8438	-3.1854	409.556	490.547	345.188	516.498	506.263	496.854	507.775	488.269	182.037	504.416	188.766	484.620	185.219	397.684	521.693	462.451	0.0019463	0.00054324	0.00014746	1380.7	5.9958e-06	4.6436e-06	1378.8	373.24	1.2377e-05	5.9924e-06	424.72	143.79	124.03	42.771	6.8168e-06	52.333	0.00082368	0.00052413	0.00015814	1388	5.8261e-06	5.5218e-06	1384.6	376.69	6.0298e-06	6.4942e-06	429.58	144.61	125.49	43.415	5.7306e-06	53.605	418.871	243.362	259.633	180.729	303.163	321.570	180.138	184.908	293.368	321.330	184.399	188.538	188.957	194.258	295.614	193.256	-8191	255	
909.396	1	1	0	0	0.18984	0.089395	0.18849	0.095121	0.22385	0.20857	0.45491	0.23256	0.24476	0.16303	0.086671	0.096127	0.25389	0.23314	0.25751	0.11549	-3.4917	-3.5083	-3.0833	-4.0125	-3.4437	-3.2604	-4.2083	-3.1813	-3.6562	-3.6937	-3.2687	-4.0479	-3.3479	-3.4042	-3.7979	-3.2438	417.987	187.185	172.506	170.812	371.251	387.206	464.194	480.676	486.087	445.276	417.199	506.143	429.933	495.086	416.023	412.525	0.0020677	0.00045238	0.00013201	1383.2	7.1451e-06	6.1484e-06	1374.4	373.22	1.3654e-05	4.9894e-06	424.21	143.11	125.23	42.521	6.0156e-06	52.37	0.00083869	0.00054133	0.00015688	1387.4	6.2262e-06	6.4107e-06	1383.9	376.33	6.0585e-06	6.0612e-06	430.42	144.44	125.86	43.44	5.5841e-06	53.551	417.838	249.113	265.010	180.660	311.625	326.279	180.194	185.140	301.395	322.107	184.575	188.742	189.124	194.042	305.773	192.983	-8191	255	
909.492	1	1	0	0	0.29047	0.26264	0.064734	0.19272	0.21567	0.31728	0.14985	0.32808	0.19658	0.15622	0.21745	0.11847	0.043377	0.2995	0.25131	0.2476	-3.25	-3.6875	-3.0479	-3.8708	-3.4562	-3.1479	-4.0833	-3.5646	-3.5667	-3.6604	-3.1979	-3.7188	-3.6417	-3.1896	-3.9167	-3.475	518.774	525.660	224.462	176.391	319.566	248.795	471.488	441.541	466.847	247.416	479.263	522.040	213.866	198.630	346.230	176.164	0.0020975	0.00052427	0.0001248	1376.4	6.1278e-06	5.8096e-06	1370.5	373.06	1.2452e-05	4.3202e-06	427.14	143.34	125.75	42.689	6.489e-06	52.329	0.00084705	0.00053915	0.0001636	1386.5	6.0254e-06	6.6169e-06	1383.4	376.52	6.055e-06	5.7822e-06	430.81	144.53	125.82	43.419	5.814e-06	53.616	417.459	259.156	251.874	180.667	303.215	319.032	180.155	184.909	296.098	327.370	184.269	188.632	189.033	193.837	294.869	192.937	-8191	255	
909.588	1	1	0	0	0.24475	0.16756	0.14535	0.17869	0.05618	0.11793	0.16183	0.20537	0.32425	0.15221	0.29091	0.16023	0.073904	0.28436	0.19218	0.34962	-2.9833	-3.9292	-3.0521	-3.8396	-3.7938	-3.2521	-4.2104	-3.5563	-3.3417	-3.9021	-3.1729	-3.8167	-3.5917	-3.3	-3.7396	-3.4771	173.555	289.603	227.312	481.768	267.991	502.183	518.753	437.535	207.894	384.155	472.224	314.303	451.169	463.447	416.202	467.133	0.0020774	0.00046079	0.00013245	1383.1	5.5756e-06	4.7266e-06	1379	372.33	1.2182e-05	6.0559e-06	425.17	142.72	124.64	42.374	5.9216e-06	52.459	0.00085341	0.00050343	0.00015264	1387.3	5.9531e-06	6.6116e-06	1385.9	376.39	6.2686e-06	5.7437e-06	429.08	144.66	125.82	43.321	5.5639e-06	53.633	418.703	262.363	257.231	180.657	317.083	320.002	180.259	185.057	300.261	318.808	184.526	188.679	188.816	194.304	303.156	193.035	-8191	255	
909.684	1	1	0	0	0.21384	0.073306	0.24037	0.14346	0.08699	0.16002	0.29578	0.19245	0.18417	0.22032	0.30491	0.16256	0.22961	0.24605	0.25379	0.11809	-2.9313	-3.8812	-3.1937	-3.6042	-3.7771	-3.1375	-3.9896	-3.6667	-3.1833	-3.7958	-3.3937	-3.8979	-3.7417	-3.3979	-3.8167	-3.7771	358.212	495.332	218.975	447.414	246.223	482.959	459.466	471.106	268.722	370.540	489.970	476.446	496.066	470.672	255.886	480.400	0.0019575	0.00044918	0.00014928	1384.1	5.2564e-06	5.1734e-06	1379.7	372.43	1.1849e-05	5.3578e-06	423.79	143.12	125.21	42.419	7.7196e-06	52.309	0.00081175	0.00050722	0.00016365	1388.4	5.8187e-06	6.4267e-06	1386.3	376.06	6.4294e-06	5.652e-06	429.47	144.29	125.65	43.351	6.1151e-06	53.53	416.650	254.606	261.025	180.605	306.336	307.080	180.295	184.947	296.227	316.879	184.248	189.135	189.045	194.206	307.981	193.174	-8191	255	
909.781	1	1	0	0	0.19715	0.17693	0.20414	0.17857	0.038609	0.028705	0.19998	0.16672	0.080886	0.10307	0.15126	0.30298	0.18585	0.25308	0.18492	0.011453	-2.6229	-4.1021	-3.1354	-3.6646	-3.8083	-3.15	-4.0146	-3.6271	-3.1292	-4.0646	-3.35	-3.4479	-3.8958	-3.2458	-3.7458	-3.65	366.362	361.037	419.940	505.237	455.000	202.244	420.716	505.293	169.845	325.278	491.868	168.849	471.387	409.472	440.030	514.127	0.0020203	0.00044099	0.00014626	1371.3	5.8148e-06	5.7425e-06	1377.4	372.27	1.2048e-05	4.6817e-06	423.67	143.31	125.36	42.467	7.0378e-06	52.475	0.00083923	0.00051013	0.00016605	1385.3	5.4673e-06	6.5867e-06	1387.6	376.3	5.9987e-06	5.4721e-06	429.61	144.54	125.77	43.364	5.9121e-06	53.674	417.439	255.051	254.262	180.571	308.317	317.776	180.434	185.102	301.171	319.311	184.717	188.825	188.926	194.056	305.951	193.285	-8191	255	
909.901	1	1	0	0	0.19014	0.14537	0.12137	0.054818	0.14092	0.20917	0.17766	0.24801	0.077552	0.098954	0.27753	0.16215	0.18329	0.40514	0.1572	0.187	-2.6333	-4.0542	-3.1583	-3.3438	-3.9167	-3.1479	-3.9854	-3.9417	-3.1312	-4.0938	-3.4938	-3.4396	-3.8333	-3.3646	-3.6312	-4.0792	307.844	301.587	481.695	398.500	526.287	240.876	450.559	413.405	474.060	193.004	527.541	467.435	233.320	511.877	321.491	447.675	0.0021391	0.00060646	0.00013019	1382.1	5.2063e-06	4.4842e-06	1382.3	373.46	1.2721e-05	5.2744e-06	425.9	143.37	124.96	42.501	6.4786e-06	52.431	0.00085864	0.00052836	0.00014094	1390.2	5.7242e-06	6.0125e-06	1385.8	376.37	6.5466e-06	5.9749e-06	429.57	144.57	125.6	43.351	5.9054e-06	53.588	416.236	253.743	264.700	181.432	310.909	306.454	181.640	186.947	300.128	313.339	186.340	191.377	191.612	196.093	303.771	195.277	-8191	255	
909.996	1	1	0	0	0.055481	0.14065	0.020848	0.45903	0.29267	0.046495	0.32878	0.24462	0.19589	0.28808	0.094003	0.20743	0.18664	0.2502	0.11055	0.26913	-2.65	-3.8688	-3.4354	-3.4396	-3.9417	-3.2687	-3.8479	-3.9146	-3.1542	-3.7146	-3.5854	-3.2271	-3.8833	-3.4625	-3.4333	-3.9625	349.460	177.057	247.607	181.553	288.833	168.456	451.739	439.920	354.243	401.491	235.574	466.554	398.082	434.720	355.369	450.761	0.0020198	0.00055217	0.00014881	1373.2	5.7503e-06	4.3109e-06	1370.9	373.49	1.3023e-05	5.6019e-06	425.73	143.94	125.14	42.612	7.5661e-06	52.594	0.00086691	0.0005183	0.00015229	1385.4	5.8438e-06	5.6854e-06	1383.6	376.19	6.4134e-06	5.318e-06	429.59	144.93	125.67	43.336	6.4162e-06	53.631	417.945	251.089	265.449	182.615	314.478	317.581	181.622	185.523	296.144	320.293	187.144	191.185	191.508	196.244	306.485	195.404	-8191	255	
910.092	1	1	0	0	0.30362	0.12813	0.17472	0.2829	0.05092	0.18569	0.1709	0.21593	0.028131	0.12636	0.14948	0.11132	0.21787	0.1662	0.12517	0.27058	-2.8063	-3.5521	-3.4688	-3.1333	-3.7458	-3.2396	-3.5729	-4.15	-3.0583	-3.6	-3.6063	-3.1792	-3.8937	-3.4479	-3.3479	-4.0396	430.231	208.974	291.855	195.956	308.396	235.686	428.713	463.572	301.244	521.673	470.435	469.284	514.076	336.635	296.720	463.035	0.0019625	0.000445	0.00013349	1378.4	5.6615e-06	4.6764e-06	1374.4	373.52	1.3878e-05	4.8292e-06	426.44	143.78	125.32	42.703	6.8968e-06	52.717	0.00083097	0.00053054	0.00015338	1389.2	6.0579e-06	6.192e-06	1386	376.74	6.6121e-06	6.3328e-06	430.84	144.79	125.87	43.379	6.306e-06	53.677	417.383	259.617	261.713	182.992	307.744	323.514	182.255	187.254	299.328	323.479	185.604	190.065	191.094	196.099	307.198	195.630	-8191	255	
910.188	1	1	0	0	0.077133	0.073347	0.089389	0.12261	0.14977	0.13556	0.35544	0.068283	0.16987	0.092147	0.126	0.096978	0.17907	0.071176	0.17206	0.20992	-2.7146	-3.5667	-3.7583	-3.3	-3.8812	-3.4104	-3.4833	-4.1396	-3.2667	-3.5208	-3.6958	-3.2938	-3.9104	-3.5667	-3.3688	-3.9729	410.755	303.708	192.976	449.113	411.013	423.145	489.188	456.165	417.555	466.122	227.839	519.264	436.002	434.883	407.624	470.753	0.0019597	0.00050733	0.00013847	1380.4	6.2221e-06	5.074e-06	1380.8	372.27	1.1926e-05	6.506e-06	426.51	143.39	124.9	42.641	6.7658e-06	52.417	0.000816	0.00055037	0.00014963	1388.9	5.8158e-06	6.0391e-06	1385.7	376.33	6.2009e-06	6.5475e-06	430.12	144.56	126.1	43.395	6.5345e-06	53.572	418.369	253.156	266.185	182.489	313.632	313.392	182.085	186.531	289.166	326.340	185.819	190.579	190.672	195.949	304.930	195.436	-8191	255	
910.284	1	1	0	0	0.26054	0.26799	0.11807	0.12174	0.04362	0.046538	0.27015	0.2113	0.11073	0.22104	0.17929	0.3949	0.18594	0.2001	0.12982	0.24825	-2.9	-3.5854	-3.7979	-3.0917	-3.8917	-3.45	-3.5958	-4.0813	-3.2375	-3.5312	-3.9042	-3.1208	-3.9604	-3.6063	-3.1688	-3.9542	215.989	446.936	373.195	520.479	179.344	211.391	426.381	526.421	486.292	192.451	223.471	431.925	491.090	478.511	507.173	490.782	0.0019883	0.00050257	0.00015668	1381.4	6.0181e-06	4.7925e-06	1378.7	372.49	1.2831e-05	5.3537e-06	426.51	143.63	126.1	42.599	6.6417e-06	52.742	0.00083121	0.00055533	0.00015317	1385.7	6.1125e-06	5.5751e-06	1385	376.73	6.5374e-06	6.1125e-06	429.71	144.48	126.05	43.429	6.5372e-06	53.73	417.571	261.643	260.914	182.420	318.594	317.841	182.147	186.847	295.897	325.985	186.226	190.587	190.439	195.306	306.375	194.036	-8191	255	
910.380	1	1	0	0	0.11224	0.32226	0.19648	0.27917	0.18893	0.12701	0.1172	0.27988	0.091021	0.21825	0.061437	0.37656	0.090049	0.2434	0.16601	0.078277	-2.9938	-3.4396	-3.8917	-3.2729	-3.5625	-3.7562	-3.3646	-4.025	-3.2938	-3.375	-3.8646	-3.2979	-3.6979	-3.7875	-3.1479	-4.0604	291.791	234.965	460.328	178.881	504.845	425.671	482.016	171.016	516.599	353.580	411.281	488.772	482.764	486.167	236.139	210.471	0.0020032	0.00045699	0.0001398	1373	5.7064e-06	4.9261e-06	1376.3	372.96	1.2542e-05	4.8233e-06	424.82	143.17	125.23	42.293	6.5342e-06	52.409	0.00084055	0.00053273	0.00013867	1383.4	5.6991e-06	5.6036e-06	1385.1	376.52	6.163e-06	6.2483e-06	429.29	144.53	125.98	43.27	6.3597e-06	53.58	417.700	255.721	268.207	180.990	301.534	326.159	181.038	185.742	300.694	314.965	185.125	189.338	189.307	194.685	300.395	193.942	-8191	255	
910.501	1	1	0	0	0.27257	0.37634	0.15029	0.23108	0.25838	0.098432	0.048511	0.066291	0.097109	0.15635	0.24464	0.31534	0.1811	0.078881	0.11931	0.17679	-2.9875	-3.2313	-3.9167	-3.2438	-3.4625	-3.6729	-3.2854	-4.1333	-3.3354	-3.2542	-4.1438	-3.2562	-3.5792	-3.9333	-3.2458	-3.9354	173.184	427.102	329.832	234.760	451.836	330.544	476.834	494.944	501.156	312.266	512.395	197.129	289.336	476.670	370.554	458.916	0.0019501	0.0004898	0.00014003	1378.4	4.9671e-06	6.1178e-06	1375.7	372.49	1.2074e-05	4.8878e-06	425.69	143.16	125.42	42.54	7.1567e-06	52.362	0.00082955	0.00053536	0.0001481	1384.3	5.9752e-06	5.7298e-06	1384.8	376.43	5.885e-06	6.7016e-06	430.13	144.49	125.78	43.366	6.3046e-06	53.651	416.120	254.334	266.837	181.219	311.810	327.038	180.636	185.559	297.800	315.544	185.080	189.104	189.411	194.648	299.169	193.697	-8191	255	
910.597	1	1	0	0	0.15842	0.17468	0.17997	0.25766	0.24504	0.40034	0.26087	0.1718	0.18547	0.15929	0.2254	0.098654	0.15402	0.15501	0.19277	0.18294	-3.325	-3.1875	-3.7562	-3.2062	-3.6104	-3.8146	-3.25	-3.7917	-3.4417	-3.1562	-4.0563	-3.5021	-3.4125	-3.9	-3.0167	-3.8792	178.755	377.236	405.265	445.310	361.313	210.563	435.583	438.848	476.050	472.204	487.909	263.428	483.269	432.686	435.866	522.995	0.0019435	0.00050485	0.00017055	1376.3	5.8229e-06	4.9222e-06	1370.3	372.4	1.2009e-05	5.5484e-06	425.73	142.77	125.12	42.628	5.6359e-06	52.491	0.00080613	0.00056349	0.00014723	1385	6.5525e-06	5.7689e-06	1382.8	376.44	6.194e-06	6.6979e-06	430.02	144.31	125.53	43.397	6.1877e-06	53.566	417.874	258.713	265.778	181.529	313.808	331.644	181.155	186.099	301.284	313.805	185.571	189.735	189.976	195.067	303.009	193.817	-8191	255	
910.693	1	1	0	0	0.10954	0.0071842	0.12412	0.10962	0.19936	0.22914	0.28876	0.17976	0.1973	0.10996	0.099484	0.24661	0.1185	0.095651	0.16687	0.46315	-3.1	-2.9583	-3.8146	-3.2979	-3.2771	-3.9188	-3.2167	-3.8083	-3.6708	-3.0604	-3.9979	-3.5271	-3.1937	-4.0021	-3.0896	-3.6312	375.364	360.843	513.116	408.703	522.671	527.122	513.331	429.248	518.050	435.131	465.983	167.487	442.829	416.411	456.346	461.531	0.0019959	0.00054437	0.00015894	1369.9	6.2663e-06	5.1474e-06	1369.9	372.19	1.125e-05	5.3567e-06	425.62	142.75	124.95	42.524	7.2766e-06	52.162	0.00082925	0.00059047	0.00014758	1382.9	6.4551e-06	5.6071e-06	1381.2	375.56	5.9459e-06	6.5787e-06	430.08	144.08	125.64	43.283	6.4646e-06	53.507	416.661	264.242	262.681	181.026	301.374	319.287	180.413	185.437	302.545	314.073	184.887	189.029	189.313	194.625	315.133	193.664	-8191	255	
910.789	1	1	0	0	0.16233	0.043021	0.15689	0.11942	0.16758	0.037729	0.35501	0.20863	0.050083	0.076824	0.14017	0.076631	0.20545	0.15637	0.32274	0.064015	-3.4437	-3.1521	-3.7458	-3.4458	-3.3187	-3.9417	-3.3792	-3.7812	-3.725	-3.0417	-3.8979	-3.7812	-3.2979	-3.9979	-3.1188	-3.5521	495.545	512.573	202.807	290.157	212.693	294.018	472.021	197.964	516.168	304.200	447.320	439.712	377.745	467.175	258.118	390.958	0.0019919	0.00052588	0.0001687	1372.8	5.7939e-06	4.5145e-06	1372.3	371.38	1.1752e-05	4.738e-06	423.49	142.48	124.56	42.562	6.1951e-06	52.351	0.0008207	0.00059455	0.00014827	1383.5	6.2676e-06	5.4347e-06	1380.6	375.48	6.2928e-06	6.2649e-06	429.05	144.18	125.45	43.287	5.939e-06	53.498	417.572	258.265	252.153	180.965	313.923	317.701	180.389	185.531	299.456	321.452	184.939	189.006	189.391	194.323	299.979	193.508	-8191	255	
910.861	1	1	0	0	0.21288	0.29035	0.067138	0.03813	0.093334	0.25553	0.17844	0.1691	0.049469	0.34035	0.052555	0.29347	0.11519	0.19937	0.023789	0.29055	-3.3688	-3.0354	-3.6063	-3.5604	-2.9771	-3.7438	-3.4333	-3.575	-3.7313	-3.0583	-3.9958	-3.85	-3.1771	-4.0042	-3.3021	-3.3833	390.562	423.070	427.245	393.858	282.712	276.257	429.391	456.921	478.324	487.730	218.754	494.031	444.721	459.322	433.057	494.953	0.0019924	0.00045197	0.00016733	1379	6.9353e-06	5.3729e-06	1374.2	371.8	1.2539e-05	4.9846e-06	424.68	143.34	124.84	42.468	6.5904e-06	52.615	0.00081762	0.00057472	0.00015269	1386.7	6.5112e-06	5.2943e-06	1381.7	375.92	6.0745e-06	6.3493e-06	429.01	144.52	125.53	43.295	6.3853e-06	53.64	418.452	253.899	252.970	180.595	301.625	312.379	180.152	185.281	289.019	318.883	184.870	188.951	189.528	194.472	304.204	193.689	-8191	255	
910.980	1	1	0	0	0.073608	0.24368	0.075838	0.04455	0.22318	0.12516	0.31768	0.36401	0.071653	0.049643	0.071983	0.25531	0.084724	0.13228	0.063794	0.14975	-3.2708	-3.0938	-3.5646	-3.7833	-3.0229	-3.6312	-3.5438	-3.3667	-3.9062	-3.0375	-3.6979	-3.8187	-3.2083	-3.9	-3.4854	-3.3604	253.129	317.254	301.992	491.842	319.629	427.125	475.276	506.602	215.244	227.526	210.167	501.491	506.213	451.693	256.919	220.030	0.0019597	0.00053203	0.00016726	1365	4.9259e-06	5.2421e-06	1365.5	370.97	1.1451e-05	4.6894e-06	423.53	142.82	125	42.431	6.0194e-06	52.4	0.00081806	0.00060344	0.00016448	1382.2	6.2602e-06	5.7885e-06	1379.5	375.25	5.8965e-06	5.9125e-06	429.08	144.24	125.7	43.278	6.3409e-06	53.444	416.621	258.203	258.563	180.853	314.198	314.483	180.351	185.400	302.609	320.482	184.863	188.989	189.397	194.370	302.367	193.390	-8191	255	
911.076	1	1	0	0	0.29866	0.07766	0.060445	0.11042	0.27112	0.073369	0.3255	0.26932	0.11824	0.070079	0.27647	0.10678	0.10967	0.219	0.18779	0.036337	-3.5542	-3.1396	-3.5792	-3.8396	-3.0312	-3.7125	-3.8292	-3.3438	-3.8271	-3.2917	-3.4604	-4.1229	-3.0771	-3.8354	-3.5917	-3.1063	285.051	207.992	488.632	286.452	310.322	416.236	486.846	332.145	188.306	489.108	254.415	452.956	444.319	225.846	248.547	438.954	0.0019054	0.00052299	0.00015337	1371.2	4.5386e-06	5.261e-06	1370.9	370.86	1.1013e-05	5.4232e-06	424.58	142.03	124	42.378	7.3423e-06	52.134	0.00081331	0.00057428	0.00015116	1381.2	6.2956e-06	5.9556e-06	1379.8	375.62	5.7863e-06	6.0924e-06	428.98	144	125.1	43.264	6.2105e-06	53.444	416.323	258.410	241.927	180.066	298.538	302.685	180.022	184.950	300.027	314.572	184.539	188.635	188.992	193.938	310.076	193.474	-8191	255	
911.172	1	1	0	0	0.30658	0.14338	0.17612	0.12126	0.26795	0.18324	0.058141	0.24214	0.17535	0.086733	0.19649	0.32268	0.092218	0.15695	0.19591	0.092277	-3.4021	-3.2833	-3.1771	-3.8708	-3.0167	-3.6375	-3.8875	-3.2771	-3.8771	-3.4208	-3.3	-4.0083	-3.1292	-3.7229	-3.8125	-3.15	518.291	436.451	169.383	511.446	393.612	474.058	497.678	439.469	379.493	357.626	497.146	426.753	260.740	526.218	473.003	433.004	0.0019401	0.00045221	0.00016778	1371.1	4.5613e-06	4.8817e-06	1368.1	370.65	1.2247e-05	5.6944e-06	423.01	143	124.33	42.25	8.0485e-06	52.394	0.0008052	0.00056335	0.00016177	1381.4	6.3768e-06	5.7174e-06	1379	375.23	5.8954e-06	6.4337e-06	428.82	144.2	125.21	43.224	6.1568e-06	53.46	417.385	254.960	273.376	180.445	307.915	325.463	180.077	184.959	286.386	321.106	184.517	188.727	188.891	194.118	306.589	193.328	-8191	255	
911.270	1	1	0	0	0.13389	0.1133	0.24633	0.24569	0.14791	0.10798	0.22354	0.44449	0.12231	0.094401	0.158	0.32272	0.05057	0.31295	0.061647	0.20445	-3.3708	-3.5292	-3.0958	-4.0333	-3.1958	-3.5792	-3.8604	-3.2708	-3.7333	-3.5646	-3.2396	-3.9437	-3.3292	-3.3958	-3.6417	-3.2896	197.265	234.288	233.984	525.017	498.043	308.059	465.434	408.017	483.208	360.152	506.969	474.018	424.586	511.407	279.999	504.618	0.0019154	0.00054564	0.00014982	1373.8	6.2619e-06	5.7857e-06	1368.4	369.69	1.1862e-05	5.0839e-06	422.94	142.27	124.12	42.229	6.9109e-06	52.106	0.00079992	0.00056145	0.00015906	1383.8	6.4093e-06	5.6658e-06	1378.5	374.84	6.101e-06	6.1089e-06	428.52	144.03	125.05	43.244	5.7481e-06	53.484	416.934	251.771	254.405	180.462	301.648	323.801	180.223	185.120	300.274	312.082	184.720	188.578	188.778	194.183	305.060	193.124	-8191	255	
911.389	1	1	0	0	0.34167	0.018299	0.22301	0.25862	0.034888	0.053816	0.25329	0.14632	0.14344	0.092206	0.18501	0.32715	0.18243	0.029979	0.17796	0.19347	-3.4542	-3.4604	-3.0917	-3.7521	-3.1208	-3.3375	-4.2312	-3.2188	-3.7188	-3.5333	-3.2021	-4.0312	-3.4021	-3.5396	-3.9625	-3.1771	222.229	370.048	516.031	502.933	370.801	218.420	425.601	209.050	219.241	472.642	361.553	513.042	230.574	216.851	467.950	498.307	0.0020079	0.00060207	0.00014655	1370.3	5.0136e-06	5.576e-06	1365.4	371.59	1.1753e-05	5.5602e-06	423.68	142.4	123.6	42.148	6.5015e-06	52.129	0.00083551	0.00059499	0.00015806	1381.8	5.8571e-06	6.0569e-06	1376.7	375.81	6.1905e-06	5.6685e-06	428.5	143.96	125.23	43.174	5.5115e-06	53.384	417.620	249.001	263.682	180.619	310.623	316.138	180.325	185.024	295.387	319.354	184.668	188.570	188.822	194.184	297.048	193.170	-8191	255	
911.461	1	1	0	0	0.17287	0.13141	0.060557	0.18055	0.31868	0.1804	0.38207	0.12985	0.071442	0.15718	0.31871	0.16575	0.30177	0.048115	0.12403	0.20122	-3.3167	-3.6542	-2.8958	-3.8542	-3.4333	-3.2292	-4.1188	-3.3271	-3.5708	-3.7479	-3.2646	-3.9604	-3.4979	-3.2146	-3.7479	-3.2333	309.551	305.962	240.267	504.492	247.382	332.086	497.368	434.364	309.921	191.344	436.738	285.531	464.961	353.950	366.622	381.740	0.002005	0.00050454	0.00014837	1365	6.5023e-06	4.3526e-06	1366.4	372.02	1.4046e-05	5.8715e-06	425.78	142.43	124.52	42.327	6.0504e-06	52.432	0.00082872	0.00052836	0.00016448	1378	5.9796e-06	5.8045e-06	1376.6	375.34	6.4926e-06	5.9345e-06	429.1	143.96	125.38	43.234	5.6285e-06	53.434	416.660	261.997	255.069	180.716	294.134	319.258	180.191	184.922	290.999	314.704	184.499	188.783	189.120	194.162	307.408	193.439	-8191	255	
911.581	1	1	0	0	0.24156	0.051392	0.22586	0.16084	0.18062	0.19645	0.10284	0.22578	0.21531	0.13425	0.10901	0.36337	0.28719	0.14511	0.14483	0.193	-3.2292	-3.5438	-3.0125	-3.8396	-3.4542	-3.1771	-4.1021	-3.5083	-3.4104	-3.8271	-3.3292	-3.8021	-3.4917	-3.3438	-4	-3.4896	330.390	230.740	197.456	488.380	404.873	335.202	419.804	445.106	391.960	394.734	424.234	473.228	508.666	487.456	198.007	521.529	0.0020275	0.00042422	0.00016973	1371.1	5.4387e-06	5.4552e-06	1370.2	369.85	1.1707e-05	4.6518e-06	425.26	142.93	125.21	42.398	8.0807e-06	52.252	0.0008428	0.00054469	0.00017448	1384.1	5.5928e-06	6.5725e-06	1379.5	374.23	6.1389e-06	5.7162e-06	428.79	144.23	125.7	43.251	6.181e-06	53.383	418.339	246.807	270.156	180.656	321.493	313.045	180.100	185.043	296.934	313.428	184.350	188.598	188.815	194.097	300.296	192.993	-8191	255	
911.677	1	1	0	0	0.025798	0.053054	0.11808	0.19151	0.24354	0.26881	0.096944	0.14671	0.12555	0.18865	0.14283	0.16614	0.25972	0.095831	0.19034	0.30412	-3.1063	-3.8979	-3.2021	-3.6375	-3.5729	-3.0542	-4.0375	-3.5583	-3.2687	-3.7354	-3.1354	-3.6271	-3.6333	-3.1	-3.8146	-3.4479	419.115	217.824	192.563	181.493	284.014	343.310	469.568	412.891	429.660	492.512	463.927	501.409	523.069	482.691	423.860	450.510	0.0019988	0.00052217	0.00011671	1368.4	6.3487e-06	4.7814e-06	1368	369.79	1.1289e-05	5.2033e-06	423.1	141.64	124.88	42.549	5.3199e-06	52.477	0.00085043	0.0005148	0.00015159	1380.6	5.7331e-06	6.3894e-06	1380.3	374.54	6.287e-06	5.5951e-06	428.49	143.8	125.56	43.314	5.861e-06	53.538	417.072	265.310	262.884	180.730	303.796	326.740	180.156	184.907	294.626	320.719	184.418	188.713	188.953	193.888	307.936	193.136	-8191	255	
911.773	1	1	0	0	0.20433	0.064621	0.041687	0.19398	0.12825	0.16022	0.30566	0.19836	0.19864	0.14135	0.18788	0.15407	0.13825	0.021835	0.13794	0.15723	-2.7771	-3.7917	-3.0833	-3.6	-3.6292	-3.1375	-4.1021	-3.5542	-3.2958	-3.9292	-3.4229	-3.6188	-3.8729	-3.1833	-3.6979	-3.6937	214.552	306.023	517.219	421.735	216.648	495.473	488.645	426.817	295.894	299.535	465.610	449.687	227.498	415.739	312.442	406.672	0.0019537	0.00049082	0.00017808	1369.4	4.1028e-06	5.0289e-06	1372.4	370.73	1.2236e-05	5.1202e-06	422.83	142.16	124.92	42.263	5.8398e-06	52.337	0.00082153	0.00051203	0.00016911	1382.3	5.5249e-06	6.3396e-06	1382.2	375.59	6.1676e-06	5.9896e-06	428.38	144.1	125.2	43.247	5.9202e-06	53.459	418.293	267.294	268.377	180.291	310.127	313.835	180.119	184.816	294.066	315.065	184.388	188.713	188.775	194.189	296.370	193.263	-8191	255	
911.870	1	1	0	0	0.19793	0.18399	0.062632	0.26544	0.20985	0.083166	0.08842	0.11675	0.29709	0.19208	0.28067	0.078178	0.19056	0.16336	0.19415	0.16751	-2.7458	-3.7979	-3.2333	-3.5229	-3.75	-2.925	-3.9083	-3.7125	-3.2146	-3.8688	-3.3833	-3.3667	-3.8479	-3.3042	-3.7021	-3.7562	488.212	248.232	188.002	489.880	474.939	489.821	490.915	397.859	232.139	216.459	476.723	454.039	495.529	216.527	351.616	449.360	0.0019116	0.00046279	0.0001469	1368.5	4.5928e-06	5.4653e-06	1371.1	371.72	1.2394e-05	4.3324e-06	424.2	142.01	124.72	42.381	6.511e-06	52.035	0.00082163	0.00050488	0.00015906	1384.2	5.9339e-06	6.4072e-06	1382	376.07	6.4421e-06	5.6795e-06	428.42	144.09	125.36	43.226	6.0331e-06	53.441	417.090	254.590	263.687	180.805	309.598	315.734	180.328	184.810	292.575	319.501	184.474	188.958	189.032	194.297	291.603	192.966	-8191	255	
911.990	1	1	0	0	0.19933	0.22512	0.22994	0.31067	0.12681	0.19502	0.37884	0.17293	0.11786	0.059407	0.22057	0.19853	0.099836	0.24954	0.18487	0.41629	-2.7479	-3.7708	-3.2396	-3.3417	-3.9521	-3.0479	-3.7812	-3.8792	-3.1854	-3.7687	-3.6521	-3.3771	-3.9562	-3.3604	-3.45	-3.9104	356.831	334.377	267.013	519.763	432.363	260.029	445.698	460.617	392.514	309.187	468.024	485.919	403.103	509.472	376.812	429.438	0.0019578	0.00053466	0.00014268	1381.3	6.2639e-06	4.6924e-06	1369	371.63	1.3056e-05	4.8651e-06	421.61	142.87	124.75	42.486	6.2153e-06	52.606	0.00082006	0.0005132	0.00015308	1388.7	5.7538e-06	5.9325e-06	1380.6	375.46	6.8314e-06	5.9804e-06	428.24	144.22	125.48	43.3	6.185e-06	53.526	417.245	267.018	278.152	180.475	308.021	319.090	180.288	184.967	295.409	328.367	184.452	188.677	188.947	194.009	300.029	193.290	-8191	255	
912.085	1	1	0	0	0.1345	0.21256	0.10272	0.06176	0.10849	0.10609	0.15895	0.23791	0.20633	0.34063	0.14984	0.12795	0.11383	0.11422	0.15528	0.093123	-2.7062	-3.8167	-3.4021	-3.2854	-3.9271	-3.0042	-3.7167	-3.8833	-3.0333	-3.6292	-3.6521	-3.2729	-3.9521	-3.375	-3.425	-3.9708	468.799	404.845	171.945	507.040	239.798	423.226	440.871	463.904	173.712	231.778	294.159	295.418	194.294	283.105	473.788	475.142	0.0020855	0.0004997	0.00015088	1366.5	6.6526e-06	4.5709e-06	1370.2	372.05	1.3681e-05	5.1812e-06	422.17	142.36	124.63	42.243	7.2424e-06	52.222	0.00085869	0.00049235	0.00014967	1380.6	5.7272e-06	6.3698e-06	1380.7	375.62	6.3801e-06	5.4189e-06	428.29	143.96	125.76	43.255	6.0828e-06	53.522	418.288	254.535	258.146	180.671	312.636	317.954	180.362	185.019	299.342	318.375	184.537	188.698	189.078	194.006	298.939	192.877	-8191	255	
912.158	1	1	0	0	0.25024	0.17027	0.082606	0.20403	0.064626	0.072384	0.20149	0.12365	0.29648	0.052858	0.14178	0.24922	0.2588	0.09931	0.082277	0.26842	-2.6958	-3.4833	-3.7188	-3.175	-3.8083	-3.2625	-3.5896	-4.0729	-2.8812	-3.4292	-3.7646	-3.2292	-3.8792	-3.5062	-3.3146	-3.9667	242.260	285.390	517.871	492.769	427.407	508.114	513.274	498.715	502.767	212.274	453.673	436.095	479.306	399.530	183.269	462.818	0.0019498	0.00047438	0.00015215	1369	5.6647e-06	5.0668e-06	1366.2	371.79	1.2022e-05	5.1097e-06	423.24	142.82	124.36	42.234	7.1292e-06	52.431	0.00083273	0.0005269	0.00015496	1381.8	5.8674e-06	6.0711e-06	1380.1	375.97	6.3559e-06	5.8079e-06	428.78	144.19	125.56	43.198	6.0438e-06	53.609	417.746	256.624	260.941	180.661	311.805	325.885	180.543	184.949	292.153	310.896	184.144	188.693	188.905	193.822	306.567	193.094	-8191	255	
912.277	1	1	0	0	0.33674	0.071369	0.075144	0.19692	0.21279	0.1827	0.31667	0.23575	0.088898	0.08328	0.27746	0.12468	0.23105	0.1978	0.11461	0.20976	-2.7667	-3.4354	-3.5958	-3.0229	-3.6771	-3.2438	-3.2146	-4.025	-3.0854	-3.525	-3.8042	-3.1292	-3.8063	-3.4396	-3.0646	-4.0583	206.818	429.675	285.488	173.996	432.661	526.284	445.561	427.698	340.264	510.617	222.075	171.701	462.042	460.092	349.301	397.408	0.0020037	0.00045967	0.00010912	1376.6	6.3978e-06	4.7876e-06	1372.1	372.5	1.1561e-05	4.2047e-06	425.11	142.24	124.4	42.497	4.9686e-06	52.546	0.0008562	0.00053259	0.00014517	1387.2	6.0933e-06	5.5218e-06	1383.6	375.81	6.4823e-06	5.5565e-06	429.05	144.19	125.45	43.311	6.1541e-06	53.605	417.865	259.629	272.783	180.594	299.757	301.394	180.027	184.921	302.669	325.627	184.309	188.777	188.851	193.914	301.370	193.093	-8191	255	
912.373	1	1	0	0	0.12031	0.1309	0.16959	0.36729	0.22721	0.092909	0.2298	0.23855	0.063383	0.17863	0.064728	0.12786	0.20078	0.034613	0.18238	0.15578	-2.8187	-3.3333	-3.7271	-3.1792	-3.7354	-3.6146	-3.3042	-3.8917	-3.1646	-3.4979	-4.1271	-3.2021	-3.8542	-3.7521	-3.0104	-4.0854	348.052	385.646	369.745	478.289	432.436	309.021	510.827	444.332	246.293	494.003	511.311	503.947	432.303	403.259	418.896	498.353	0.0019699	0.0005131	0.0001269	1382.3	5.2739e-06	4.031e-06	1374.3	371.31	1.3887e-05	4.474e-06	424.23	143.22	125.37	42.411	6.461e-06	52.138	0.00082314	0.00053215	0.00013508	1387	6.0594e-06	6.0943e-06	1382.1	375.98	6.07e-06	6.0226e-06	429.35	144.33	125.65	43.328	6.2697e-06	53.474	417.836	258.392	263.381	180.592	310.053	317.476	180.226	185.083	288.693	320.227	184.714	188.776	189.040	194.026	309.390	193.315	-8191	255	
912.469	1	1	0	0	0.036499	0.14715	0.11971	0.30648	0.12317	0.046556	0.42225	0.44574	0.11395	0.17823	0.23612	0.10997	0.1305	0.22088	0.10355	0.076395	-2.7646	-3.2625	-3.9313	-3.1437	-3.5625	-3.525	-3.2729	-3.9792	-3.3021	-3.2271	-4.0167	-3.2604	-3.6667	-3.8396	-2.825	-3.775	187.827	293.328	240.905	188.311	519.426	435.286	463.126	458.556	245.611	466.825	522.590	472.132	480.444	465.897	307.703	279.965	0.0019734	0.00051225	0.00014987	1364.5	6.6244e-06	5.2767e-06	1369.3	371.97	1.2355e-05	5.1519e-06	424.38	142.71	124.37	42.26	7.3026e-06	52.357	0.00084114	0.00057589	0.0001464	1383.7	6.1509e-06	5.8436e-06	1383	376.09	6.2997e-06	6.0869e-06	429.35	144.37	125.61	43.327	6.4915e-06	53.604	417.329	249.919	254.909	180.789	321.803	318.177	180.321	184.920	293.690	317.100	184.603	188.574	189.348	194.037	299.657	193.299	-8191	255	
912.565	1	1	0	0	0.19562	0.21579	0.15139	0.059954	0.226	0.18084	0.4007	0.28256	0.081211	0.17921	0.17677	0.18296	0.321	0.20799	0.15208	0.079045	-3.0604	-3.15	-3.9792	-3.2521	-3.3771	-3.7562	-3.3083	-3.9896	-3.2729	-3.0667	-3.8438	-3.3688	-3.45	-4	-2.9271	-3.7938	321.989	271.194	344.308	275.200	466.945	461.836	484.733	494.090	364.205	428.921	193.082	523.775	525.740	180.758	307.157	475.319	0.0019522	0.00056018	0.00016128	1369.5	5.1477e-06	5.0769e-06	1369.2	371.39	1.4491e-05	4.9828e-06	424.77	142.59	125.72	42.39	6.1972e-06	52.192	0.00078754	0.00055956	0.00014404	1383.1	5.8453e-06	5.4596e-06	1382.1	375.75	6.4375e-06	6.5731e-06	429.36	144.07	125.77	43.277	6.4444e-06	53.565	417.147	259.656	264.811	180.596	328.563	315.256	180.363	185.103	298.591	322.484	184.278	188.507	188.976	194.140	300.023	193.073	-8191	255	
912.686	1	1	0	0	0.049636	0.065991	0.28027	0.11226	0.28416	0.20253	0.14775	0.1723	0.11227	0.056762	0.16333	0.25587	0.15433	0.17521	0.36721	0.31773	-3.275	-3.1604	-3.9208	-3.2354	-3.2521	-3.7687	-3.1562	-3.8208	-3.5917	-2.9562	-4.0167	-3.3958	-3.2583	-3.9021	-2.8917	-3.5729	526.044	299.779	312.842	355.941	286.854	439.091	445.712	175.210	467.771	232.229	392.635	400.343	206.777	263.150	439.241	499.807	0.0020482	0.00054555	0.0001527	1361.2	6.5381e-06	3.7364e-06	1366.8	370.96	1.351e-05	4.9607e-06	423.47	142.61	124.39	42.472	6.3231e-06	52.335	0.00084476	0.00059236	0.00014076	1377.5	6.3207e-06	4.8587e-06	1378.9	375.6	6.3869e-06	6.9236e-06	428.92	144.03	125.25	43.223	6.4942e-06	53.528	418.561	253.200	274.772	180.706	299.917	313.280	180.040	185.164	304.322	310.510	184.596	188.857	189.341	194.038	311.367	193.489	-8191	255	
912.758	1	1	0	0	0.06772	0.031193	0.080242	0.32995	0.19441	0.078796	0.1926	0.24448	0.086006	0.37178	0.10785	0.27837	0.17342	0.087964	0.087949	0.18283	-3.1208	-3.0271	-3.725	-3.4625	-3.1958	-3.875	-3.2979	-3.6458	-3.6396	-2.9271	-3.9021	-3.6271	-3.2313	-4.1958	-3.0187	-3.5292	424.859	236.601	394.011	494.959	367.008	415.672	455.248	491.007	284.350	408.802	511.355	489.328	448.483	524.313	345.786	401.086	0.0019942	0.00052875	0.00013925	1368.5	5.4064e-06	4.2733e-06	1373	372.54	1.3397e-05	5.785e-06	424.42	142.79	125.32	42.448	6.4548e-06	52.204	0.00083732	0.00057166	0.0001474	1381.1	6.2484e-06	5.0934e-06	1382.1	376.51	6.2893e-06	6.6667e-06	428.83	144.15	125.73	43.254	6.3329e-06	53.586	417.480	259.660	270.412	180.550	301.042	306.405	180.153	185.352	296.263	316.438	184.818	188.618	189.363	194.221	290.731	193.415	-8191	255	
912.854	1	1	0	0	0.29774	0.12107	0.12976	0.1294	0.14637	0.24233	0.080302	0.079633	0.25751	0.14803	0.16284	0.2104	0.1122	0.28977	0.14653	0.1446	-3.2979	-3.0875	-3.7354	-3.3958	-3.2521	-3.9271	-3.3417	-3.525	-3.7458	-2.9229	-3.7687	-3.9188	-3.1604	-3.8812	-3.2167	-3.3333	397.942	185.954	496.532	214.331	401.453	233.637	250.254	436.936	187.486	481.639	487.335	173.901	251.831	188.598	452.491	438.865	0.0019456	0.00045635	0.00015654	1373.6	6.5918e-06	5.7684e-06	1376.3	372.32	1.2816e-05	5.0148e-06	423.27	142.99	124.62	42.341	6.3102e-06	52.604	0.00081581	0.00055548	0.00015404	1382	6.6367e-06	5.8009e-06	1383.9	376	5.7978e-06	6.7438e-06	428.99	144.44	125.6	43.238	6.3006e-06	53.659	416.126	265.520	259.271	180.603	310.339	314.512	180.139	185.299	294.915	307.960	184.798	189.141	189.200	194.286	310.153	193.331	-8191	255	
912.950	1	1	0	0	0.17093	0.16173	0.093137	0.14053	0.2535	0.11414	0.051442	0.42927	0.052649	0.17663	0.22585	0.20084	0.031728	0.32071	0.15731	0.1278	-3.3542	-3.0125	-3.5062	-3.6917	-3.0146	-3.6896	-3.4208	-3.475	-3.7792	-3.0563	-3.6604	-3.8521	-2.9354	-3.9458	-3.175	-3.3104	304.791	387.693	491.986	426.193	490.455	288.675	174.166	434.246	197.468	288.152	497.803	435.308	511.842	491.320	366.104	388.486	0.0019352	0.00044666	0.00013365	1369.3	5.9807e-06	5.8727e-06	1370.6	372.79	1.2056e-05	4.4335e-06	425.75	142.55	124.74	42.332	6.976e-06	52.198	0.00081742	0.00057108	0.00014993	1381.8	6.1184e-06	5.8471e-06	1382.1	375.65	6.0045e-06	6.6631e-06	429.41	144.1	125.5	43.276	6.3947e-06	53.546	418.405	257.045	259.778	180.673	308.843	317.444	180.452	185.138	304.127	317.036	184.935	188.798	189.301	194.193	310.812	193.366	-8191	255	
913.069	1	1	0	0	0.15692	0.1702	0.13749	0.12665	0.10537	0.22928	0.35361	0.17024	0.24494	0.26015	0.15646	0.30458	0.034249	0.28339	0.33552	0.098795	-3.2458	-3.1604	-3.4792	-3.6188	-3.0792	-3.6042	-3.6292	-3.2062	-3.8333	-3.1688	-3.5958	-3.9104	-3.1479	-3.8	-3.6583	-3.2812	423.943	426.423	266.283	466.538	510.722	188.518	474.389	516.180	491.648	179.814	493.786	472.414	473.392	510.837	362.738	169.153	0.0019928	0.00043998	0.00015636	1366.7	4.8475e-06	4.7587e-06	1369.9	371.54	1.2016e-05	4.6874e-06	423.56	142.43	124.32	42.412	7.158e-06	52.277	0.00081517	0.00052296	0.00016107	1381.6	6.3458e-06	5.4631e-06	1382.3	375.8	6.0447e-06	6.1804e-06	427.92	144.02	125.46	43.181	6.1635e-06	53.488	417.406	243.999	253.702	180.638	307.802	313.736	180.110	185.284	305.226	317.169	184.856	188.786	189.328	194.537	303.419	193.493	-8191	255	
913.165	1	1	0	0	0.09235	0.10667	0.11298	0.27146	0.14106	0.083891	0.17264	0.15516	0.1564	0.16993	0.19492	0.2142	0.076587	0.28981	0.15647	0.15932	-3.4604	-3.4417	-3.3688	-3.8167	-3.2188	-3.7604	-3.7396	-3.2896	-3.8542	-3.4188	-3.5938	-3.9229	-3.2125	-3.8167	-3.5375	-3.35	429.414	211.778	180.816	221.740	384.522	212.217	498.026	446.626	247.361	209.888	447.917	493.240	445.367	174.018	306.172	389.117	0.0019169	0.00059218	0.00017272	1369.8	5.2097e-06	5.4915e-06	1370.6	371.3	1.1672e-05	5.406e-06	423.92	142.18	124.73	42.338	6.5815e-06	52.522	0.00081879	0.00063537	0.00016605	1383	6.117e-06	5.5378e-06	1382.3	375.41	5.8931e-06	6.252e-06	428.79	144.06	125.37	43.231	6.1635e-06	53.518	417.509	254.376	262.479	180.611	311.871	307.799	180.210	185.403	300.078	315.676	184.619	188.826	189.344	194.481	301.345	193.439	-8191	255	
913.261	1	1	0	0	0.099762	0.28011	0.085626	0.18239	0.10707	0.28402	0.25114	0.29292	0.14361	0.34225	0.17752	0.069957	0.28226	0.037345	0.064216	0.14651	-3.3312	-3.2042	-3.1333	-3.7729	-3.225	-3.6167	-4.0479	-3.2687	-3.8979	-3.3208	-3.1667	-4.1937	-3.3104	-3.6292	-3.6021	-3.2729	192.554	377.719	173.492	479.457	230.143	224.588	418.086	468.270	323.903	476.409	491.981	246.914	489.176	473.114	293.373	381.343	0.0019435	0.00046255	0.0001601	1370.2	5.7586e-06	5.1445e-06	1371.1	371.17	1.1853e-05	5.1041e-06	424.25	142.78	125.22	42.223	4.9425e-06	52.431	0.00080554	0.00051976	0.00015989	1381.4	6.6396e-06	5.9503e-06	1383.1	375.63	5.8092e-06	5.8116e-06	428.95	144.12	125.58	43.144	5.6984e-06	53.464	417.898	256.673	258.762	180.470	316.756	314.944	180.274	185.073	292.360	319.563	184.736	188.662	188.890	194.278	302.386	193.353	-8191	255	
913.357	1	1	0	0	0.19392	0.14211	0.21889	0.073832	0.11929	0.22377	0.3117	0.24582	0.18158	0.10364	0.16219	0.13638	0.29208	0.10625	0.22689	0.1155	-3.3625	-3.2208	-3.0479	-3.9375	-3.1458	-3.4833	-4.0729	-3.1417	-3.7438	-3.4938	-3.2083	-4.025	-3.1854	-3.5687	-3.7854	-3.1604	459.598	247.721	447.253	247.296	305.981	264.508	450.645	216.592	377.818	316.927	459.671	175.952	346.109	256.184	437.178	378.083	0.001999	0.00046446	0.00016268	1369.3	5.9543e-06	4.8945e-06	1372.1	372.63	1.3553e-05	5.2322e-06	424.32	142.62	125	42.481	5.6042e-06	52.493	0.0008363	0.00048885	0.00016487	1384.5	6.2513e-06	5.632e-06	1383.5	376.15	6.1699e-06	6.6098e-06	428.29	144.13	125.51	43.345	5.7642e-06	53.534	418.775	256.429	262.166	180.911	309.774	325.691	180.175	185.121	295.474	307.361	184.742	188.805	189.068	194.480	295.546	193.075	-8191	255	
913.453	1	1	0	0	0.19731	0.20021	0.01432	0.21134	0.040783	0.18294	0.36173	0.34919	0.096764	0.11332	0.052958	0.053695	0.12039	0.14818	0.095885	0.070918	-3.1792	-3.6063	-3.0958	-3.9458	-3.0375	-3.2583	-3.9896	-3.1125	-3.6771	-3.6917	-3.1792	-3.8458	-3.25	-3.3125	-3.6875	-3.3104	177.957	372.157	457.383	522.246	389.153	210.655	480.146	465.639	434.123	299.638	450.734	248.258	473.856	477.805	485.686	434.280	0.0019454	0.00053785	0.00013784	1374.8	6.0815e-06	4.6799e-06	1373.6	371.26	1.2236e-05	5.8208e-06	424.42	142.4	124.33	42.375	7.1693e-06	52.181	0.00080838	0.00057064	0.00015535	1384.5	6.1982e-06	6.2898e-06	1382	375.42	6.1262e-06	6.1951e-06	428.66	144.21	125.26	43.253	6.1205e-06	53.534	417.591	261.918	271.702	180.833	304.543	312.902	180.282	185.225	296.771	310.166	184.721	188.756	188.992	194.333	312.086	193.091	-8191	255	
913.550	1	1	0	0	0.1335	0.06432	0.1465	0.10309	0.08746	0.1605	0.44265	0.24923	0.076848	0.107	0.36436	0.11687	0.29758	0.28739	0.14361	0.21777	-3.1229	-3.6896	-2.9354	-3.8646	-3.2292	-3.0458	-3.9437	-3.4354	-3.4042	-3.7313	-3.1667	-3.8896	-3.4333	-3.2938	-3.8812	-3.325	417.359	370.940	347.995	231.218	193.394	300.643	449.644	469.946	238.199	409.854	502.911	461.932	482.928	451.051	476.950	518.970	0.0019738	0.00054264	0.00013267	1372.3	5.5243e-06	5.3754e-06	1372.7	370.7	1.2918e-05	5.4126e-06	424.1	142.17	124.48	42.183	6.8022e-06	52.3	0.00082148	0.00056393	0.00016911	1383.5	6.0963e-06	6.1938e-06	1381.6	375.36	6.279e-06	5.885e-06	428.92	144.05	125.15	43.17	5.9067e-06	53.428	417.117	260.039	263.206	180.906	307.988	326.466	180.399	185.027	296.788	322.564	184.641	188.660	189.187	194.330	304.455	193.436	-8191	255	
913.670	1	1	0	0	0.084909	0.19318	0.18407	0.15105	0.1387	0.020477	0.22756	0.27484	0.062104	0.19219	0.13396	0.16963	0.23991	0.19779	0.15453	0.056031	-3.0312	-3.5979	-3.0938	-3.7812	-3.4729	-3.1604	-4.1104	-3.4062	-3.3521	-3.6646	-3.1354	-3.8708	-3.6354	-3.0792	-3.9958	-3.3958	324.093	523.644	395.706	324.888	449.950	225.040	493.526	421.545	200.822	284.101	464.615	435.165	383.857	184.951	206.257	523.130	0.0019412	0.00049909	0.00015434	1370.6	5.414e-06	5.1731e-06	1364.8	371.06	1.2285e-05	4.8858e-06	423.33	142.49	124.62	42.212	6.6038e-06	52.249	0.00082036	0.00049745	0.00016491	1382.6	5.6917e-06	6.3591e-06	1379.7	375.61	6.2284e-06	6.0024e-06	428.06	144.18	125.19	43.168	5.7831e-06	53.384	416.380	258.853	264.975	180.935	311.187	299.417	180.310	185.080	292.671	326.452	184.672	189.063	188.893	194.301	307.206	193.342	-8191	255	
913.766	1	1	0	0	0.058437	0.16356	0.12593	0.314	0.18641	0.19402	0.23236	0.14822	0.095846	0.062705	0.2161	0.02402	0.31003	0.083114	0.1271	0.18041	-2.8604	-3.7625	-2.9333	-3.7	-3.5917	-3.0729	-4.025	-3.6271	-3.0438	-3.8396	-3.1979	-3.7583	-3.6875	-3.1979	-3.8792	-3.375	429.515	340.045	180.116	451.937	306.222	328.540	170.014	248.765	516.081	273.554	491.573	460.223	459.715	520.577	386.988	466.280	0.0019864	0.0005243	0.00016269	1372.1	5.5924e-06	5.1847e-06	1373.8	371.55	1.4502e-05	5.5637e-06	423.64	141.94	123.88	42.338	6.8507e-06	52.13	0.00084192	0.00050634	0.00017147	1383.2	5.6386e-06	6.6934e-06	1381.7	375.06	6.5006e-06	5.4483e-06	428.44	143.94	124.99	43.282	5.9309e-06	53.353	418.015	261.193	261.031	180.884	306.700	315.010	180.320	185.194	300.681	315.407	184.907	189.145	189.380	194.392	299.408	193.234	-8191	255	
913.863	1	1	0	0	0.16122	0.31182	0.075215	0.18755	0.13136	0.0095465	0.11	0.027028	0.044574	0.1489	0.1317	0.028345	0.022807	0.10707	0.035973	0.088611	-2.7292	-3.6458	-3.1625	-3.4708	-3.9188	-3.0938	-3.9729	-3.6396	-3.2562	-3.8083	-3.5354	-3.5292	-3.8604	-3.1583	-3.6542	-3.7083	458.234	365.935	404.300	229.782	202.110	426.902	460.645	385.042	282.858	406.554	425.342	457.189	401.521	288.338	365.751	231.037	0.0020168	0.0005245	0.00017513	1370.8	4.6747e-06	5.4908e-06	1372.3	372.68	1.1626e-05	4.7574e-06	422.85	142.93	123.89	42.482	6.1284e-06	52.274	0.00082701	0.0005304	0.00015841	1383.7	5.612e-06	6.7094e-06	1381.8	375.55	6.0803e-06	6.1511e-06	428.15	144.08	125.05	43.189	5.7226e-06	53.511	417.519	250.270	256.605	180.641	298.834	326.256	180.516	185.117	297.324	320.096	184.603	189.065	189.152	194.467	300.954	193.553	-8191	255	
913.981	1	1	0	0	0.11017	0.10739	0.022097	0.19015	0.043964	0.26803	0.18237	0.38145	0.20642	0.053381	0.096636	0.21268	0.031596	0.17208	0.18264	0.3334	-2.7812	-3.825	-3.1	-3.5687	-3.7792	-3.1312	-3.8937	-3.7583	-2.9104	-3.8771	-3.275	-3.3958	-3.8125	-3.1063	-3.5958	-3.7396	389.234	251.726	339.805	191.592	389.730	400.792	494.560	469.128	436.624	476.889	504.761	510.653	398.859	200.574	334.629	475.446	0.0019293	0.00048078	0.00017217	1374	5.007e-06	5.1948e-06	1371.5	370.3	1.3629e-05	5.6734e-06	422.61	141.78	124.06	42.375	6.0969e-06	52.247	0.00081473	0.00054425	0.00015618	1380.5	6.1613e-06	6.6169e-06	1380.1	375.03	6.6075e-06	5.8263e-06	428.43	143.64	124.96	43.113	5.9901e-06	53.312	417.135	260.144	259.008	181.026	308.837	316.449	180.690	185.293	298.436	322.790	184.971	189.046	189.196	194.607	304.519	193.476	-8191	255	
914.053	1	1	0	0	0.13969	0.12017	0.086671	0.14994	0.086067	0.18921	0.28096	0.4083	0.13292	0.13718	0.091652	0.18335	0.20894	0.22101	0.34649	0.085549	-2.8146	-3.7438	-3.2604	-3.3063	-3.8896	-3	-3.6146	-3.7229	-2.9625	-3.8083	-3.5438	-3.4083	-3.8979	-3.0875	-3.3833	-3.4833	300.997	464.567	195.471	448.057	405.479	258.512	432.363	472.047	409.072	284.969	399.070	457.437	423.091	444.018	330.676	237.716	0.0019948	0.00045968	0.00016839	1371.7	5.9519e-06	5.5062e-06	1372.3	370.11	1.4303e-05	5.6216e-06	424.27	141.82	124.52	42.187	6.275e-06	52.284	0.00084353	0.00048724	0.00015317	1383.4	5.7552e-06	6.8178e-06	1379.4	374.85	6.6442e-06	5.7859e-06	428.72	143.69	125.17	43.074	6.2939e-06	53.344	418.688	250.306	255.949	181.277	303.195	327.103	180.859	185.340	298.167	315.925	184.867	189.293	189.438	194.728	307.005	193.569	-8191	255	
914.149	1	1	0	0	0.27199	0.20639	0.068485	0.14246	0.24893	0.35514	0.081401	0.3627	0.079977	0.15264	0.090208	0.20214	0.058374	0.20941	0.17985	0.25065	-2.5583	-3.7125	-3.3958	-3.0687	-3.7687	-2.975	-3.2667	-3.9604	-3.0083	-3.6583	-3.4833	-3.1125	-3.6854	-3.1708	-3.1604	-4.0167	381.383	262.983	425.505	398.825	191.573	307.696	354.068	523.068	269.595	334.026	425.993	215.506	190.835	177.635	405.012	493.321	0.0020458	0.0005065	0.0001647	1369.8	5.8972e-06	5.5212e-06	1370.3	370.34	1.4555e-05	4.3214e-06	422.49	141.85	124.31	42.323	6.7582e-06	52.319	0.00085918	0.00055606	0.00016098	1379.6	5.8379e-06	6.5938e-06	1380.3	375.32	6.573e-06	5.8703e-06	427.94	143.55	125.36	43.202	6.0667e-06	53.413	417.622	259.178	261.723	180.847	299.612	323.459	180.426	185.177	295.497	326.280	184.789	188.993	189.356	194.394	296.539	193.332	-8191	255	
914.245	1	1	0	0	0.19543	0.18597	0.11657	0.26452	0.1278	0.19584	0.056814	0.35595	0.13919	0.1677	0.20758	0.15408	0.18581	0.29278	0.088038	0.29867	-2.6354	-3.5208	-3.4458	-3.1	-3.7021	-3.2021	-3.4896	-3.9979	-3.0875	-3.6083	-3.6167	-3.0542	-3.7604	-3.1979	-2.9896	-4.0729	257.976	476.766	415.157	186.545	216.721	460.424	462.760	422.598	285.431	257.942	519.957	498.961	510.937	467.591	378.907	442.158	0.0019835	0.00048642	0.00013853	1371.9	5.6818e-06	5.2573e-06	1375.4	370.31	1.1719e-05	4.6232e-06	422.44	142.39	124.41	42.337	6.3794e-06	52.112	0.0008341	0.00057501	0.00015644	1382.6	5.6135e-06	6.4872e-06	1383.2	375.13	6.3479e-06	5.6978e-06	427.86	144.07	125.34	43.195	6.3503e-06	53.458	417.601	251.076	263.964	181.077	308.753	306.999	180.630	185.270	298.578	317.879	184.779	188.882	189.117	194.062	299.568	193.571	-8191	255	
914.366	1	1	0	0	0.067357	0.24298	0.06832	0.086423	0.32536	0.073334	0.25882	0.32603	0.13982	0.1821	0.083226	0.075925	0.11796	0.13379	0.08705	0.16093	-2.7021	-3.4	-3.6583	-2.9125	-3.6542	-3.375	-3.3917	-4.1229	-3.2938	-3.4417	-3.9583	-3.0354	-3.8333	-3.6229	-3.0438	-3.9688	220.719	231.935	259.587	285.040	297.124	406.163	456.953	408.543	317.039	418.463	513.032	455.478	458.542	208.073	353.348	309.019	0.0020612	0.00045981	0.00017104	1371	5.0267e-06	5.7251e-06	1364.1	371.24	1.2792e-05	4.7126e-06	423.15	141.98	124.57	42.106	7.2617e-06	52.052	0.00086314	0.00054206	0.00015517	1383.4	5.6932e-06	6.4534e-06	1379.4	375.51	6.4719e-06	6.0795e-06	427.82	143.88	125.37	43.084	6.3799e-06	53.408	416.792	256.346	260.409	180.760	312.081	330.992	180.585	185.407	298.239	318.783	184.917	189.140	189.545	194.440	299.619	193.520	-8191	255	
914.462	1	1	0	0	0.09728	0.092349	0.21808	0.16515	0.27992	0.20246	0.19286	0.22272	0.098786	0.20119	0.11446	0.10179	0.1608	0.12838	0.16151	0.095937	-2.7354	-3.3479	-3.7708	-3.1125	-3.7458	-3.5146	-3.3458	-3.9646	-3.1021	-3.3917	-3.8688	-3.0708	-3.4917	-3.6083	-2.8563	-3.9125	421.770	315.453	290.278	508.026	289.975	428.342	456.842	484.315	346.386	418.075	497.771	516.442	460.603	477.450	353.529	394.146	0.0019432	0.00049768	0.00014932	1376.5	6.7816e-06	5.646e-06	1367.5	370.92	1.3364e-05	5.2351e-06	421.94	141.71	124.33	42.296	6.6951e-06	51.977	0.00082392	0.00055854	0.00014474	1384.1	6.5717e-06	5.8614e-06	1379.8	375.14	6.4237e-06	6.441e-06	427.74	143.61	125.31	43.175	6.4162e-06	53.334	419.825	254.732	262.658	181.217	309.385	329.817	180.702	185.418	285.856	318.978	185.035	188.984	189.451	194.488	304.388	193.740	-8191	255	
914.558	1	1	0	0	0.1116	0.19893	0.17226	0.18232	0.12635	0.12988	0.25385	0.21763	0.1761	0.065419	0.15436	0.098965	0.1885	0.16969	0.10029	0.12397	-2.9792	-3.05	-3.7208	-3.0646	-3.75	-3.5833	-3.35	-3.9583	-3.4688	-3.1188	-4.0979	-3.2438	-3.4375	-3.825	-3.0062	-3.7812	323.326	338.151	401.620	457.131	358.513	257.743	403.794	428.113	223.334	336.369	502.617	488.882	268.006	480.685	270.997	296.924	0.002008	0.00045445	0.00014926	1374.7	6.3723e-06	4.354e-06	1366.6	370.82	1.1908e-05	4.3727e-06	422.2	141.66	124.09	42.166	6.7742e-06	52.218	0.0008382	0.0005616	0.0001526	1384.5	6.2174e-06	5.8383e-06	1379.8	375.34	6.1159e-06	6.43e-06	428.02	143.5	125.12	43.1	6.5762e-06	53.423	417.613	250.434	266.563	180.969	307.207	319.326	180.642	185.614	297.398	334.419	184.640	189.029	189.317	194.468	297.835	193.413	-8191	255	
914.630	1	1	0	0	0.13392	0.19806	0.12581	0.11319	0.093261	0.2544	0.20258	0.23501	0.016578	0.23671	0.093377	0.046269	0.29395	0.2228	0.080957	0.19479	-3.0062	-3.1312	-3.8771	-3.2958	-3.3812	-3.8021	-3.3354	-3.8083	-3.4042	-3.0687	-3.8792	-3.2062	-3.3937	-3.8917	-2.9708	-3.9542	340.482	370.679	323.950	424.077	475.144	252.157	447.548	451.960	468.087	448.092	173.542	387.334	499.562	209.796	523.018	434.000	0.0019735	0.00043099	0.00013202	1376	5.551e-06	4.6827e-06	1366.3	370.53	1.2513e-05	4.9567e-06	423.57	142.76	123.92	42.073	6.6546e-06	52.39	0.00081903	0.00055664	0.00014583	1381.3	6.1302e-06	5.8134e-06	1377.7	375.1	6.2158e-06	6.3071e-06	428.45	144.03	125.18	43.1	6.5627e-06	53.476	416.919	254.777	263.471	180.771	301.276	308.811	180.385	185.402	296.937	311.010	185.118	189.169	189.662	194.574	299.690	193.659	-8191	255	
914.751	1	1	0	0	0.32253	0.3342	0.221	0.24215	0.15469	0.18742	0.064759	0.16202	0.086866	0.10867	0.11486	0.14103	0.063718	0.12904	0.089464	0.082278	-2.9604	-2.9729	-3.8063	-3.2062	-3.2792	-3.9521	-3.1417	-3.8917	-3.5792	-2.9167	-3.8729	-3.5229	-3.1458	-4.0229	-2.9021	-3.5896	467.826	474.200	218.629	486.317	383.756	494.260	240.012	466.322	404.644	483.674	209.386	185.583	312.797	436.560	404.934	444.342	0.0020248	0.00047011	0.00016156	1375.4	5.111e-06	5.266e-06	1372.6	371.75	1.1926e-05	5.7216e-06	423.44	142.45	124.01	42.415	5.6845e-06	52.185	0.00082133	0.00055956	0.00015596	1382.1	5.9501e-06	5.7227e-06	1379.6	375.52	5.8724e-06	6.8869e-06	428.32	143.97	125.25	43.213	6.435e-06	53.451	417.110	257.116	254.147	180.981	305.485	326.713	180.438	185.452	293.048	313.073	184.979	189.197	189.430	194.602	291.905	193.971	-8191	255	
914.847	1	1	0	0	0.08066	0.18267	0.26236	0.18526	0.27773	0.1346	0.065715	0.21412	0.33568	0.061246	0.20039	0.094249	0.15395	0.13095	0.23815	0.11517	-3.2354	-2.9938	-3.6771	-3.4521	-3.1063	-3.9458	-3.1771	-3.6937	-3.7542	-2.9729	-3.9437	-3.4417	-3.2938	-3.8917	-3.0521	-3.5438	189.699	525.544	189.619	459.060	168.516	459.888	243.458	489.091	310.483	371.225	428.707	181.637	482.568	480.608	515.965	448.563	0.0019432	0.00055752	0.00014533	1370.4	5.8235e-06	5.044e-06	1370.5	372.57	1.3099e-05	4.4367e-06	424.66	143.04	124.61	42.444	6.6634e-06	52.259	0.00080661	0.00058755	0.00014129	1383.3	6.3325e-06	5.6747e-06	1380.4	375.86	6.4306e-06	6.1749e-06	429.23	144.15	125.06	43.173	6.0869e-06	53.467	417.176	256.307	256.995	180.494	301.505	312.029	180.564	185.427	295.869	331.970	184.898	188.950	189.300	194.514	297.935	193.831	-8191	255	
914.943	1	1	0	0	0.10471	0.15297	0.17151	0.27318	0.20912	0.15162	0.22894	0.18694	0.096585	0.22191	0.18786	0.3113	0.015589	0.13743	0.08339	0.24319	-3.2979	-3.0167	-3.5625	-3.4729	-3.05	-3.7667	-3.2396	-3.4354	-3.8458	-2.9896	-3.75	-3.6979	-3.1583	-3.8125	-3.2583	-3.4229	454.988	255.879	175.420	221.725	318.292	488.531	522.024	447.674	171.078	178.531	478.920	521.428	175.712	233.844	317.343	452.630	0.0019128	0.00047601	0.00010336	1372.5	5.4562e-06	4.8546e-06	1370.9	372.24	1.3665e-05	5.8996e-06	422.55	142.13	124.09	42.367	7.0992e-06	52.412	0.0007964	0.00058391	0.00014993	1381.5	6.2055e-06	5.8116e-06	1380.6	375.38	6.024e-06	6.6429e-06	428.37	143.83	125.35	43.149	6.0533e-06	53.589	417.116	263.879	255.575	180.921	309.679	328.964	180.647	185.390	291.241	320.891	185.088	189.000	189.545	194.402	301.353	193.803	-8191	255	
915.064	1	1	0	0	0.24026	0.18657	0.16692	0.11431	0.041697	0.091652	0.25013	0.17613	0.16117	0.15106	0.10366	0.32691	0.12647	0.23329	0.21573	0.18568	-3.2938	-2.9146	-3.3937	-3.6146	-3.0125	-3.6875	-3.5563	-3.3646	-3.8604	-3.0812	-3.7354	-3.9083	-3.1167	-3.9771	-3.3333	-3.1375	412.123	334.290	384.085	504.400	289.934	419.983	434.103	476.468	224.152	379.006	295.057	501.609	474.562	506.125	335.860	443.348	0.0019177	0.00041206	0.00013662	1372.7	6.4655e-06	4.4409e-06	1371	371.43	1.327e-05	5.0676e-06	423.69	142.73	124.68	42.242	6.5662e-06	52.283	0.00079468	0.00057268	0.00014264	1380.9	6.4935e-06	5.776e-06	1381.3	375.33	6.1297e-06	6.8025e-06	428.2	143.82	125.48	43.2	6.2482e-06	53.444	418.580	253.052	271.737	180.700	309.521	305.640	180.382	185.596	291.926	318.788	184.827	189.216	189.657	194.729	300.835	193.674	-8191	255	
915.158	1	1	0	0	0.10658	0.13868	0.18935	0.13795	0.15623	0.078467	0.30907	0.090115	0.22039	0.34649	0.24228	0.1076	0.12345	0.11616	0.10678	0.11208	-3.4208	-3.1188	-3.3104	-3.6146	-2.9333	-3.7208	-3.5646	-3.4062	-3.7917	-3.0958	-3.5021	-3.8958	-3.1542	-3.7583	-3.325	-3.1875	443.987	446.784	519.784	473.164	295.612	283.874	525.705	469.100	340.345	492.451	476.486	521.787	525.253	403.033	182.006	515.811	0.0019151	0.00054779	0.0001377	1379.2	6.5073e-06	5.5863e-06	1365.3	370.17	1.3111e-05	5.2689e-06	422.86	142.78	124.61	42.346	6.3378e-06	52.009	0.00079855	0.00056291	0.00015867	1383.8	6.6381e-06	5.6143e-06	1378.7	375.4	6.4019e-06	6.1217e-06	428.29	143.9	125.35	43.19	5.8973e-06	53.372	416.398	262.063	266.662	180.995	311.562	322.477	180.405	185.551	295.110	320.304	185.198	189.062	189.346	194.708	307.357	193.609	-8191	255	
915.254	1	1	0	0	0.11623	0.15753	0.38278	0.2485	0.079856	0.1444	0.28521	0.24717	0.13452	0.15737	0.27675	0.17474	0.3269	0.15687	0.16596	0.065386	-3.5542	-3.3063	-3.2521	-3.6813	-2.9292	-3.7375	-3.7958	-3.2375	-3.6917	-3.275	-3.3333	-3.8583	-3.0854	-3.825	-3.4958	-3.1063	417.016	179.001	331.169	199.951	340.458	287.498	471.625	424.367	346.877	185.930	213.163	513.013	406.740	509.298	498.339	369.356	0.0020266	0.00044863	0.00014696	1367.2	6.0039e-06	5.3951e-06	1366.2	371.44	1.414e-05	5.1241e-06	424.11	142.54	124.44	42.199	6.3559e-06	52.205	0.0008359	0.0005597	0.0001657	1382.9	6.2927e-06	5.7991e-06	1379.2	375.66	6.5879e-06	6.4869e-06	429.15	144	125.26	43.136	6.0129e-06	53.49	417.640	276.646	265.151	180.957	307.011	313.244	180.467	185.502	299.692	322.662	185.254	189.364	189.607	194.564	305.952	193.684	-8191	255	
915.350	1	1	0	0	0.06813	0.11378	0.16573	0.12627	0.177	0.12913	0.418	0.36834	0.13986	0.1212	0.1058	0.35885	0.33569	0.12882	0.24142	0.37991	-3.4833	-3.3917	-3.125	-3.8438	-3.2042	-3.5979	-3.8792	-3.2104	-3.6833	-3.3771	-3.3458	-3.9375	-3.1542	-3.6458	-3.6854	-3.125	415.521	470.776	282.467	401.950	486.943	350.042	476.789	525.301	461.000	384.118	492.993	468.793	514.290	188.222	391.045	475.638	0.0019427	0.00055645	0.00016029	1372.3	6.1168e-06	5.8048e-06	1370.8	371.58	1.5603e-05	5.3234e-06	422.98	142.29	124.8	42.344	6.22e-06	52.167	0.00081048	0.00056276	0.00016365	1381.7	6.3119e-06	6.0178e-06	1381.8	375.79	6.2457e-06	6.5199e-06	428.77	143.92	125.38	43.2	5.5949e-06	53.505	417.591	254.032	262.838	181.059	310.903	323.362	180.695	185.530	299.703	319.984	185.187	189.328	189.507	194.548	307.725	193.736	-8191	255	
915.446	1	1	0	0	0.23345	0.15522	0.1016	0.25403	0.14524	0.018559	0.27358	0.27087	0.2428	0.086008	0.27083	0.13157	0.059668	0.17073	0.15262	0.14226	-3.3583	-3.4188	-3.0083	-3.95	-3.1521	-3.3542	-4.0396	-3.1958	-3.5187	-3.575	-3.1417	-3.9625	-3.4396	-3.4562	-3.7104	-3.1583	215.626	217.026	351.264	204.239	399.318	260.983	481.595	455.384	522.464	321.297	507.174	507.858	404.984	477.964	419.143	474.358	0.0019838	0.00062777	0.00013795	1370.8	5.1331e-06	6.3635e-06	1367.3	371.87	1.2395e-05	5.6636e-06	422.54	142.77	124.48	42.146	6.4851e-06	52.288	0.0008027	0.00053492	0.00015631	1384	6.2085e-06	6.8072e-06	1379.2	375.64	6.0619e-06	6.0887e-06	428.81	144.21	125.29	43.189	6.0882e-06	53.472	416.859	253.187	266.475	181.178	299.155	312.473	180.632	185.444	303.806	310.616	184.755	189.072	189.484	194.746	306.823	193.641	-8191	255	
915.543	1	1	0	0	0.096633	0.16423	0.048413	0.055077	0.11435	0.22424	0.15795	0.35488	0.21241	0.054264	0.1194	0.13939	0.16499	0.29852	0.11596	0.1713	-3.2896	-3.5271	-2.9979	-3.8771	-3.175	-3.2479	-4.1875	-3.2313	-3.4813	-3.8146	-3.2854	-3.8208	-3.4125	-3.3167	-3.8167	-3.225	425.287	335.525	293.061	372.727	378.906	499.862	274.669	504.076	186.431	237.971	184.698	479.724	186.801	492.042	433.270	489.422	0.0019512	0.00062112	0.00015496	1372.2	5.8775e-06	3.8686e-06	1371.6	371.55	1.2059e-05	5.626e-06	424.39	142.27	123.82	42.251	6.6948e-06	52.412	0.00082617	0.00054425	0.00015509	1383	5.9915e-06	5.808e-06	1381.4	375.63	6.0734e-06	5.6685e-06	429.17	143.82	125.1	43.143	6.1043e-06	53.56	417.727	256.878	248.344	181.293	304.670	311.095	180.556	185.353	300.156	326.660	185.258	188.891	189.371	194.737	310.133	193.552	-8191	255	
915.663	1	1	0	0	0.4248	0.13005	0.44929	0.14697	0.3017	0.18668	0.3179	0.32094	0.1834	0.12487	0.25426	0.12813	0.18926	0.063367	0.16716	0.075923	-3.1188	-3.6104	-3.1354	-3.7208	-3.3958	-3.1729	-4.1771	-3.1833	-3.2604	-3.5563	-3.0729	-3.7604	-3.4208	-3.2562	-3.8792	-3.2562	460.230	302.639	463.912	230.577	306.754	469.999	503.083	516.294	381.842	172.326	493.474	342.434	515.322	270.446	260.717	444.329	0.002076	0.00049066	0.00014901	1366.9	5.4557e-06	4.9311e-06	1368.9	370.33	1.4505e-05	3.4804e-06	424.2	142.34	124.32	42.382	7.4176e-06	52.287	0.00082901	0.00052777	0.00016417	1380.4	6.0284e-06	6.1938e-06	1378.8	374.82	6.635e-06	5.6758e-06	429.28	143.79	125.29	43.22	6.3046e-06	53.423	418.206	265.217	260.919	181.186	314.541	321.378	180.484	185.500	300.880	320.442	185.025	189.166	189.423	194.490	298.422	193.804	-8191	255	
915.759	1	1	0	0	0.17488	0.26487	0.2426	0.068211	0.099247	0.024688	0.15459	0.15664	0.050004	0.18132	0.23784	0.037764	0.43479	0.19952	0.022418	0.22014	-2.9104	-3.825	-2.8417	-3.65	-3.4	-2.95	-3.9708	-3.3708	-3.2062	-3.8771	-3.0125	-3.6354	-3.7167	-3.1021	-3.9104	-3.4354	253.679	183.347	349.513	503.752	297.447	338.997	482.967	507.986	212.501	383.406	512.810	477.375	496.714	478.263	205.444	489.070	0.002005	0.00053476	0.00016907	1364	4.7756e-06	5.3819e-06	1366.4	372.15	1.2802e-05	5.5646e-06	422.47	142.55	125.11	42.108	6.8852e-06	52.345	0.00083894	0.00049891	0.00016793	1380.5	5.7715e-06	6.4178e-06	1379	375.79	6.7315e-06	6.1694e-06	427.82	144.05	125.64	43.151	6.1124e-06	53.413	416.984	251.296	262.905	181.311	304.819	316.294	180.430	185.583	297.159	319.397	184.901	189.091	189.564	194.721	297.802	193.333	-8191	255	
915.855	1	1	0	0	0.11302	0.26632	0.11062	0.20049	0.17601	0.26973	0.23782	0.13983	0.15604	0.062613	0.18851	0.12161	0.098266	0.39073	0.041209	0.27793	-2.675	-3.7313	-2.9792	-3.7083	-3.5917	-3.0146	-3.9667	-3.5354	-2.9542	-3.9292	-3.1583	-3.5146	-3.7708	-3.225	-3.6979	-3.5458	413.839	322.427	510.163	481.218	272.949	342.493	469.361	451.406	196.891	494.450	189.357	521.998	283.821	187.978	398.927	394.060	0.0019804	0.00046149	0.000137	1367.4	5.4801e-06	4.2333e-06	1367	369.79	1.252e-05	5.4976e-06	422.51	141.44	124.4	42.075	5.9966e-06	51.888	0.00082104	0.00052675	0.00015474	1380	5.7789e-06	5.8063e-06	1377.8	374.64	6.5041e-06	5.9272e-06	428.06	143.86	125.23	43.196	6.0882e-06	53.402	416.793	259.986	264.322	181.478	312.585	331.488	180.799	185.718	294.084	321.408	185.133	189.271	189.478	194.836	295.143	193.751	-8191	255	
915.927	1	1	0	0	0.15603	0.051353	0.12054	0.091889	0.16648	0.23357	0.28462	0.1796	0.2348	0.28582	0.21177	0.19936	0.048871	0.30623	0.12532	0.062295	-2.6771	-3.7854	-3.0083	-3.3521	-3.6104	-2.9938	-3.8708	-3.5563	-3.0625	-3.7396	-3.2792	-3.5	-3.6208	-3.3646	-3.5979	-3.5563	325.174	232.977	251.119	282.281	502.487	387.607	422.373	460.333	508.113	273.990	501.924	491.360	446.052	509.797	329.286	524.609	0.0019478	0.00046634	0.00015151	1344.2	6.1962e-06	6.162e-06	1362.2	369.01	1.3412e-05	5.4329e-06	415.52	139.59	122.1	41.653	6.6555e-06	51.827	0.00082197	0.00049891	0.00016186	1375	5.6844e-06	7.0952e-06	1377.5	374.49	6.6913e-06	5.7419e-06	426.58	143.45	124.72	42.959	5.8167e-06	53.234	418.222	247.641	264.166	180.644	316.820	327.432	180.660	185.315	302.231	318.186	184.704	188.945	189.300	194.333	301.630	193.745	-8191	255	
916.046	1	1	0	0	0.04186	0.24569	0.076608	0.44105	0.29249	0.11077	0.42422	0.049607	0.055454	0.12005	0.35068	0.15839	0.1394	0.14574	0.156	0.21522	-2.5187	-3.7521	-3.1479	-3.0729	-3.8833	-3.1604	-3.5625	-3.7125	-2.9083	-3.8	-3.3583	-3.3333	-3.7125	-3.2396	-3.6042	-3.6792	419.565	469.235	435.168	418.992	483.530	444.971	481.398	203.080	198.087	389.657	480.071	185.224	504.367	313.643	299.992	267.860	0.0019221	0.00052984	0.00016582	1349.8	6.1901e-06	4.4625e-06	1342.9	365.37	1.3209e-05	4.6599e-06	416.19	140.64	123.38	41.651	6.9924e-06	51.695	0.00083713	0.00054775	0.00016487	1378.6	5.7154e-06	6.0889e-06	1374.3	373.68	6.7327e-06	5.685e-06	426.28	143.51	125.1	42.963	6.1971e-06	53.262	419.738	252.149	267.199	180.725	302.585	308.514	180.550	185.118	297.384	321.534	184.691	188.970	189.226	194.355	295.305	193.705	-8191	255	
916.142	1	1	0	0	0.18853	0.13132	0.011847	0.1474	0.014304	0.21769	0.30747	0.080377	0.3073	0.18204	0.15918	0.18123	0.06089	0.29219	0.088555	0.19435	-2.5146	-3.7	-3.1667	-3.1333	-3.7896	-3.1562	-3.8438	-3.8146	-3.0438	-3.8917	-3.5208	-3.0938	-4.0083	-3.3354	-3.4062	-3.7792	368.564	216.087	396.013	472.599	311.608	364.332	211.063	461.649	220.137	234.325	483.206	523.281	292.045	502.302	498.071	482.970	0.0019276	0.00046875	0.00013333	1355.8	5.9545e-06	4.9588e-06	1348.2	366.61	1.3426e-05	4.7257e-06	418.64	140.81	122.98	41.965	6.2887e-06	51.777	0.00082119	0.00049716	0.0001536	1375.1	5.8704e-06	6.6223e-06	1376.7	373.98	6.7832e-06	5.1418e-06	427.46	143.69	124.85	43.111	5.8449e-06	53.282	417.467	254.944	256.067	180.919	312.583	313.817	180.717	185.242	299.031	320.996	184.871	189.394	189.579	194.664	304.558	193.723	-8191	255	
916.238	1	1	0	0	0.19686	0.14906	0.24119	0.28573	0.15077	0.22639	0.12248	0.13493	0.15584	0.13279	0.059799	0.40708	0.096006	0.2029	0.13917	0.042455	-2.5958	-3.7042	-3.3729	-3.075	-3.8354	-3.1229	-3.5438	-3.9792	-3.0083	-3.6396	-3.5604	-3.2417	-3.7458	-3.3937	-3.1708	-3.8792	343.898	472.202	209.661	522.696	177.721	270.217	409.989	462.038	217.837	427.039	490.437	468.602	407.557	503.346	175.498	291.106	0.0020607	0.00057174	0.00015307	1350.2	5.322e-06	3.5052e-06	1353.4	367.54	1.3395e-05	6.5639e-06	417.45	141.16	123.85	41.878	6.872e-06	51.757	0.00084348	0.00054133	0.00014972	1376.8	5.8468e-06	5.8614e-06	1376.7	374.55	6.5271e-06	6.4539e-06	426.62	143.55	125.34	43.128	6.2509e-06	53.327	417.175	257.422	270.184	180.658	312.818	328.521	180.749	185.346	295.806	327.957	184.628	189.259	189.431	194.791	306.129	193.524	-8191	255	
916.334	1	1	0	0	0.22264	0.12935	0.1092	0.14513	0.26575	0.081372	0.22016	0.34893	0.2855	0.14973	0.074242	0.1928	0.14818	0.27086	0.11888	0.12642	-2.6021	-3.6229	-3.3937	-3.1125	-3.8104	-3.3042	-3.3083	-3.9396	-3.1125	-3.4833	-3.7979	-3.2083	-3.95	-3.3167	-3.2042	-3.9167	294.164	219.506	442.765	412.605	293.928	313.495	174.583	515.582	358.648	464.699	523.171	465.209	211.724	495.672	307.618	493.280	0.0019231	0.00060037	0.00015974	1362.5	5.1534e-06	5.3346e-06	1358.5	367.27	1.1217e-05	5.2083e-06	421.41	140.92	124.13	41.917	6.644e-06	51.826	0.00082803	0.00055271	0.00014299	1378.8	5.6962e-06	6.0551e-06	1374.5	374.1	6.3743e-06	6.3034e-06	427.66	143.73	125.25	43.098	6.3974e-06	53.424	416.401	248.413	259.253	180.866	318.646	319.610	180.674	185.580	294.927	319.353	185.058	189.130	189.694	194.485	310.487	193.778	-8191	255	
916.455	1	1	0	0	0.1159	0.17836	0.056022	0.13272	0.06553	0.046114	0.18891	0.059885	0.078399	0.17433	0.16152	0.10881	0.070383	0.086736	0.12657	0.057652	-2.5208	-3.4917	-3.7479	-2.8583	-3.6437	-3.3667	-3.3292	-3.8833	-3.1104	-3.3396	-3.9104	-3.3229	-3.7313	-3.5458	-2.9667	-3.8979	463.825	459.934	175.121	480.185	170.917	401.097	412.805	172.671	423.544	225.189	474.357	468.384	523.458	372.998	180.964	422.518	0.0019504	0.00048712	0.00011302	1353.8	5.6175e-06	5.4394e-06	1357	367.81	1.225e-05	5.3692e-06	421.76	140.88	122.94	42.019	7.2535e-06	51.71	0.00082339	0.0005269	0.00013399	1380.2	6.3074e-06	5.7049e-06	1377.5	374.92	6.4317e-06	6.4814e-06	428.12	143.55	124.95	43.098	6.2764e-06	53.378	416.660	252.004	257.735	181.186	296.466	314.073	180.719	185.660	296.797	319.326	184.913	189.287	189.847	194.735	306.834	193.813	-8191	255	
916.527	1	1	0	0	0.089505	0.22896	0.14325	0.078755	0.20382	0.1244	0.29035	0.26131	0.11799	0.15576	0.10695	0.37356	0.16104	0.23378	0.030141	0.22799	-2.9792	-3.2	-3.7979	-3.0083	-3.6083	-3.4771	-3.2562	-3.9917	-3.2854	-3.1792	-3.9167	-3.0812	-3.6	-3.7792	-3.05	-3.7875	500.292	253.664	325.320	170.684	295.359	383.655	494.918	477.065	430.776	394.043	492.341	453.754	495.524	494.170	237.024	466.215	0.0020182	0.00055996	0.00015351	1366.1	5.9657e-06	5.0575e-06	1358.9	368.83	1.1673e-05	5.657e-06	422.74	142	124.26	42.06	5.8736e-06	51.982	0.00085204	0.00054819	0.00014386	1379	5.99e-06	6.1974e-06	1376.1	374.37	6.1182e-06	6.208e-06	428.09	143.61	125.31	43.11	5.9699e-06	53.364	418.944	254.813	259.108	181.356	309.796	321.500	180.886	185.723	300.574	317.679	185.120	189.530	189.746	194.696	307.279	193.946	-8191	255	
916.623	1	1	0	0	0.086521	0.15912	0.14008	0.18109	0.22164	0.2447	0.1251	0.46632	0.13344	0.081033	0.14829	0.51643	0.12432	0.33969	0.16982	0.11339	-2.9271	-2.9583	-3.5938	-3.0312	-3.4083	-3.5208	-3.0479	-3.7667	-3.3854	-3.0292	-3.9562	-3.1625	-3.4458	-3.8187	-2.9271	-3.7271	508.896	256.555	492.343	371.357	504.372	311.542	505.902	444.626	308.727	399.754	471.272	474.907	461.779	487.715	349.636	462.196	0.0020249	0.00052238	0.00018513	1359.5	5.8077e-06	4.139e-06	1358.8	368.68	1.4491e-05	4.0103e-06	420.35	141.54	123.27	42.135	7.5025e-06	51.511	0.00081864	0.00056918	0.00014937	1373.3	5.7729e-06	5.4987e-06	1375.1	374.65	6.3743e-06	6.1364e-06	427.24	143.54	124.85	43.105	6.6501e-06	53.236	416.956	251.497	261.886	181.483	303.703	324.752	180.798	185.732	292.971	318.777	185.309	189.233	189.699	194.725	313.640	193.833	-8191	255	
916.744	1	1	0	0	0.2424	0.053202	0.14011	0.054466	0.027515	0.18031	0.16541	0.13409	0.13109	0.064675	0.40405	0.16112	0.20753	0.12937	0.13319	0.055969	-3.0896	-3.0396	-3.8354	-3.075	-3.375	-3.8458	-3.0333	-3.6708	-3.5875	-2.7979	-3.8354	-3.4667	-3.2646	-4.0062	-2.975	-3.6688	273.109	389.283	493.843	351.688	480.588	349.995	488.858	506.218	213.481	425.096	461.194	418.807	480.329	216.345	213.042	497.296	0.0020577	0.00061418	0.00013904	1345.5	5.8411e-06	4.8517e-06	1354	366.76	1.225e-05	4.9934e-06	420.42	140.87	122.39	41.516	4.8776e-06	51.426	0.00082637	0.00060709	0.00015653	1368.9	6.3591e-06	6.0178e-06	1375.3	374.27	5.8804e-06	6.6704e-06	427.64	143.51	124.66	42.994	6.2226e-06	53.205	418.909	256.411	263.040	181.143	316.804	324.962	180.748	185.757	304.707	315.927	185.394	189.249	189.713	194.827	307.878	193.856	-8191	255	
916.840	1	1	0	0	0.32033	0.27135	0.31334	0.25334	0.14615	0.21175	0.14461	0.30178	0.23706	0.20451	0.07721	0.073127	0.21955	0.27721	0.20795	0.14974	-3.1771	-2.9208	-3.85	-3.1937	-3.1542	-3.6583	-3.2438	-3.6937	-3.4771	-3.0812	-3.7583	-3.425	-3.3312	-3.7354	-3.0021	-3.6646	387.161	332.553	494.205	435.036	235.421	236.270	168.905	504.703	175.238	210.541	324.022	481.852	210.008	493.402	196.546	190.958	0.0020101	0.00045326	0.00014994	1352.1	5.029e-06	5.1833e-06	1352.5	366.8	1.307e-05	5.0564e-06	416.01	139.92	122.97	41.766	6.068e-06	51.807	0.00083776	0.00056539	0.000146	1373.6	6.2233e-06	5.4934e-06	1375.6	374.38	6.0206e-06	6.3658e-06	427.47	143.3	124.81	43.038	6.0694e-06	53.361	417.070	253.725	259.375	181.246	316.689	317.565	181.196	185.912	293.510	309.878	185.157	188.905	189.490	194.371	302.603	193.814	-8191	255	
916.936	1	1	0	0	0.1866	0.2437	0.1101	0.22333	0.1021	0.13626	0.16866	0.029174	0.14932	0.17986	0.17921	0.12481	0.063147	0.18219	0.23639	0.14084	-3.4646	-2.9292	-3.6896	-3.3604	-3.0417	-4.0021	-3.3604	-3.6937	-3.7625	-3.2292	-3.8937	-3.7875	-3.1063	-3.7583	-3.1917	-3.5042	448.526	357.982	313.488	440.751	472.375	369.554	510.734	359.567	212.642	252.067	405.149	473.674	517.368	515.582	174.721	492.157	0.0018977	0.00050916	0.00012365	1354.8	5.4178e-06	4.9621e-06	1356.7	366.95	1.3814e-05	5.5271e-06	418.26	141.07	122.72	41.694	6.7984e-06	51.781	0.00078041	0.00056743	0.00013408	1375.7	6.1288e-06	5.7565e-06	1375.7	374.31	6.3065e-06	6.6117e-06	427.31	143.66	124.84	43.047	6.556e-06	53.312	417.681	254.874	271.175	180.883	304.434	319.939	180.593	185.911	295.646	318.037	185.045	189.207	189.798	194.620	292.906	193.955	-8191	255	
917.032	1	1	0	0	0.16812	0.1567	0.14372	0.24571	0.077592	0.2107	0.080733	0.22939	0.10606	0.19736	0.090679	0.33473	0.12074	0.13032	0.16668	0.18065	-3.4062	-3.0333	-3.7313	-3.4	-2.9604	-3.8979	-3.3354	-3.5479	-3.8375	-2.8771	-3.8104	-3.7958	-2.9979	-3.9	-3.3229	-3.2938	275.894	299.032	485.563	179.538	204.526	367.349	439.885	442.802	460.429	505.568	370.779	467.345	354.546	403.458	384.065	176.184	0.0019011	0.00054913	0.00016605	1355.5	6.0716e-06	5.5646e-06	1356.4	367.19	1.1306e-05	5.4185e-06	416.44	140.65	123.41	41.76	5.8433e-06	51.747	0.00080001	0.00053915	0.00014867	1376.7	6.4876e-06	5.9094e-06	1375.2	374.39	5.5991e-06	6.5291e-06	426.59	143.29	125.12	43.038	5.9672e-06	53.361	417.089	257.024	267.591	181.051	294.659	329.448	180.650	185.648	294.881	323.530	185.263	189.465	190.196	194.662	298.487	193.800	-8191	255	
917.151	1	1	0	0	0.079298	0.13053	0.32866	0.14509	0.19788	0.097289	0.36335	0.2235	0.052017	0.23772	0.12153	0.23548	0.30505	0.18236	0.26306	0.103	-3.4896	-3.1333	-3.4313	-3.6292	-3.0146	-3.7146	-3.5833	-3.3458	-3.8688	-3.1042	-3.7854	-3.8354	-3.0854	-3.8292	-3.3271	-3.0833	463.834	332.994	339.735	204.204	264.803	296.568	479.888	504.543	411.508	366.060	414.904	517.060	194.138	440.789	457.732	175.908	0.0020118	0.00055794	0.00014031	1357.4	4.8179e-06	4.078e-06	1355.5	368.22	1.157e-05	5.2425e-06	418.23	141.46	123.32	42.069	6.2617e-06	51.554	0.00081776	0.00059382	0.00015094	1377.3	6.0948e-06	5.1911e-06	1375	374.71	5.6484e-06	6.2153e-06	426.72	143.52	124.91	43.129	6.1541e-06	53.217	417.501	261.486	259.670	180.980	310.066	321.754	180.308	185.416	301.100	320.207	185.146	189.380	189.505	194.910	313.861	193.952	-8191	255	
917.223	1	1	0	0	0.085302	0.16898	0.11501	0.14683	0.11857	0.11442	0.10269	0.23988	0.039538	0.12523	0.35938	0.28906	0.13613	0.16048	0.20599	0.04549	-3.5125	-3.1042	-3.3083	-3.7375	-2.9583	-3.6375	-3.5833	-3.2375	-3.8646	-3.2375	-3.4396	-3.8354	-3.0521	-3.7146	-3.4208	-3.0792	461.660	331.202	354.521	488.424	425.042	519.699	416.722	461.326	437.463	515.900	488.325	457.254	369.356	465.913	382.569	403.173	0.0020004	0.00053735	0.00014296	1343.5	5.7614e-06	4.139e-06	1354.7	369.25	1.2404e-05	4.8731e-06	420.44	140.86	122.98	42.092	6.1711e-06	51.764	0.00081586	0.00057224	0.00015142	1369.5	6.5038e-06	5.6231e-06	1374.9	374.82	5.9654e-06	6.1015e-06	427.82	143.23	124.99	43.017	5.8839e-06	53.285	416.267	249.774	256.091	180.501	311.552	319.652	180.355	185.336	297.677	327.457	184.874	188.803	189.016	194.710	313.269	193.666	-8191	255	
917.343	1	1	0	0	0.058496	0.081983	0.14223	0.16095	0.07185	0.045045	0.08011	0.33116	0.11058	0.10459	0.016898	0.48819	0.095907	0.14958	0.061624	0.11044	-3.3604	-3.1063	-3.2708	-3.8688	-3.0083	-3.5625	-3.7542	-3.0833	-3.9562	-3.3458	-3.2188	-3.9354	-3.2	-3.6125	-3.5187	-3.1688	490.212	210.239	495.462	419.572	384.198	390.318	477.755	489.206	459.233	191.852	403.649	505.165	420.422	516.004	311.265	208.069	0.0019997	0.00044689	0.00013891	1357.5	6.6993e-06	5.1007e-06	1355.2	367.21	1.3561e-05	6.162e-06	419.44	141.36	123.37	41.966	5.844e-06	51.502	0.00081776	0.0005406	0.00014958	1377.5	6.489e-06	6.0267e-06	1374.1	374.43	6.1147e-06	6.4337e-06	427.4	143.46	124.73	43.1	5.9699e-06	53.13	416.513	245.304	259.197	181.162	309.224	313.509	180.618	185.644	299.786	314.479	184.955	189.299	189.399	194.854	297.860	194.161	-8191	255	
917.439	1	1	0	0	0.24414	0.093693	0.19042	0.13514	0.34079	0.26041	0.29951	0.18902	0.03341	0.081247	0.16691	0.13481	0.05669	0.074073	0.21456	0.28974	-3.3333	-3.2583	-2.9313	-3.9896	-3.0687	-3.3354	-3.8083	-3.1708	-3.65	-3.4562	-3.2417	-4.0667	-3.2438	-3.6063	-3.7375	-3.0896	403.583	375.578	347.356	472.531	407.209	412.008	438.876	176.720	406.690	199.545	220.583	206.415	527.084	234.017	405.337	450.602	0.0020158	0.00043533	0.00012435	1351.8	5.2954e-06	4.889e-06	1357.8	366.52	1.2771e-05	4.927e-06	421.06	141.52	124.07	42.138	6.4612e-06	52.017	0.00082177	0.00051597	0.00016478	1374.4	6.179e-06	5.8525e-06	1374.7	373.88	6.4099e-06	5.8043e-06	427.46	143.28	125.21	43.119	5.8772e-06	53.424	417.624	245.820	263.000	181.297	308.077	328.579	181.044	185.782	304.734	324.814	185.469	189.719	190.233	195.465	304.582	194.217	-8191	255	
917.535	1	1	0	0	0.20259	0.08598	0.22539	0.038338	0.10711	0.087348	0.26078	0.17469	0.045881	0.0045239	0.19012	0.020782	0.1976	0.058645	0.059828	0.12317	-3.1063	-3.4521	-2.975	-3.9875	-3.2062	-3.2396	-3.8312	-3.2062	-3.5521	-3.6813	-3.2208	-4.0229	-3.25	-3.5062	-3.7729	-3.0875	385.625	285.977	500.546	328.888	410.246	304.447	498.274	518.542	294.224	173.421	469.756	397.616	389.628	347.099	343.244	441.967	0.0020466	0.00049817	0.00015441	1367.1	5.3344e-06	4.9007e-06	1364.1	371.22	1.226e-05	5.7751e-06	421.4	142.83	123.71	42.186	6.4519e-06	52.082	0.00084608	0.00053798	0.00015356	1376.5	6.2041e-06	5.76e-06	1379.5	375.26	6.1113e-06	6.0226e-06	428.18	144.06	124.86	43.15	5.49e-06	53.385	417.620	255.512	266.109	181.740	305.711	328.055	181.264	186.073	304.758	317.944	185.388	189.734	190.115	195.189	312.610	194.258	-8191	255	
917.632	1	1	0	0	0.16772	0.2025	0.18535	0.18502	0.02823	0.16665	0.25584	0.28245	0.025109	0.11213	0.12817	0.27937	0.14426	0.10214	0.062467	0.08378	-3.3354	-3.5312	-2.9042	-3.7771	-3.2271	-3.0687	-3.9833	-3.3333	-3.4542	-3.6063	-3.1312	-3.8604	-3.3812	-3.2667	-3.9375	-3.1854	427.015	496.413	355.845	286.256	283.745	502.443	484.753	437.323	240.241	268.435	471.282	513.286	261.866	223.983	297.421	403.537	0.0021055	0.00052279	0.00012707	1367.2	6.8645e-06	6.1559e-06	1360.6	371.48	1.2075e-05	5.2464e-06	421.08	141.6	124.34	42.265	6.9858e-06	51.928	0.00084187	0.00052763	0.00015413	1380.1	6.4846e-06	6.5156e-06	1375.5	375.5	6.0918e-06	6.2061e-06	426.57	143.75	125.22	43.167	5.7454e-06	53.345	418.132	254.863	247.308	181.351	302.575	314.122	180.802	185.826	297.226	315.642	185.351	189.569	189.625	194.904	307.371	193.875	-8191	255	
917.728	1	1	0	0	0.18874	0.085992	0.038369	0.17344	0.023001	0.21642	0.31743	0.1946	0.17331	0.01488	0.14549	0.18491	0.012487	0.099439	0.2829	0.27662	-3.1083	-3.9042	-2.8625	-3.7271	-3.4375	-3.1208	-4.1083	-3.2667	-3.2562	-3.6229	-2.9813	-3.7729	-3.5042	-3.2542	-3.825	-3.3396	430.305	335.089	348.230	499.373	233.471	465.010	463.817	202.875	168.286	400.975	402.784	436.235	444.933	459.419	266.262	173.444	0.0018628	0.00039433	0.00012709	1352.5	4.4254e-06	5.9419e-06	1356.3	368.22	1.1484e-05	5.7007e-06	417.74	141.28	122.91	41.83	6.7984e-06	51.593	0.00079552	0.00045881	0.00016972	1376.3	5.6415e-06	6.496e-06	1375.4	374.5	6.1538e-06	6.5052e-06	427	143.59	124.94	43.056	5.8314e-06	53.248	416.859	244.624	261.898	181.362	305.775	311.781	180.662	185.564	299.543	324.810	185.144	189.290	189.485	194.655	296.128	193.783	-8191	255	
917.824	1	1	0	0	0.052656	0.056313	0.13328	0.075566	0.14159	0.10995	0.24405	0.16814	0.13291	0.13556	0.20283	0.29666	0.02532	0.069285	0.059838	0.025224	-2.8312	-3.6708	-3.1083	-3.6354	-3.5042	-3.0667	-4.0875	-3.4479	-3.2167	-3.8896	-3.1292	-3.7729	-3.8354	-3.3729	-3.7542	-3.5583	504.687	342.665	441.655	212.836	457.378	517.787	447.723	503.458	179.503	198.449	489.822	192.466	468.554	478.862	227.199	265.815	0.0020101	0.00041246	0.0001418	1352.7	5.1613e-06	4.3343e-06	1357.5	367.05	1.2376e-05	4.8528e-06	423.13	141.04	123.04	41.966	7.2673e-06	51.805	0.00082045	0.00050255	0.00015452	1376.9	5.8217e-06	6.2631e-06	1377.4	374.13	6.5546e-06	5.4446e-06	428.55	143.68	125.03	43.051	6.0358e-06	53.378	417.838	259.004	274.442	181.084	304.604	315.441	180.752	185.787	299.768	315.241	185.364	189.691	189.634	195.147	304.512	194.050	-8191	255	
917.920	1	1	0	0	0.14285	0.17995	0.13725	0.32043	0.39414	0.12215	0.23358	0.0044581	0.16785	0.19382	0.16267	0.24591	0.15734	0.147	0.14933	0.12254	-2.7854	-3.8479	-3.125	-3.7125	-3.6854	-2.8792	-3.8229	-3.5521	-3.1937	-3.9146	-3.2625	-3.4437	-3.8	-3.3604	-3.6417	-3.6396	199.156	418.459	297.601	519.832	321.058	215.716	397.043	504.805	440.028	373.077	489.773	278.369	490.029	183.673	476.406	476.286	0.0019994	0.00048018	0.00015022	1356	4.9874e-06	5.2268e-06	1353.4	367.17	1.3537e-05	5.7704e-06	418.42	140.78	123.17	41.801	6.1088e-06	51.69	0.00084637	0.000525	0.00016247	1376.3	5.5618e-06	6.48e-06	1375.2	374.21	6.5753e-06	6.1034e-06	427.53	143.67	125.03	43.062	6.0223e-06	53.325	416.959	261.663	261.640	182.106	312.076	327.620	181.163	185.975	289.242	311.600	185.650	190.171	189.933	194.994	313.855	193.828	-8191	255	
918.016	1	1	0	0	0.046274	0.10334	0.16646	0.15875	0.12831	0.15753	0.19521	0.15584	0.062148	0.28958	0.26658	0.22534	0.10285	0.13938	0.097011	0.14007	-2.8729	-3.7375	-3.0812	-3.5167	-3.8312	-2.9104	-3.8312	-3.7208	-2.9667	-3.8583	-3.2375	-3.3104	-3.9688	-3.025	-3.7	-3.6896	397.061	378.659	368.678	184.293	211.175	203.246	385.908	413.151	364.206	477.947	472.378	186.321	224.016	428.839	403.552	498.786	0.0019335	0.00052498	0.00012318	1352.9	6.3771e-06	4.337e-06	1358.2	366.66	1.3408e-05	3.8007e-06	417.28	141.56	123.51	41.886	6.018e-06	51.445	0.00079732	0.0005374	0.00014976	1376.1	6.0166e-06	6.5334e-06	1377.7	374.2	6.5948e-06	5.217e-06	427.02	143.79	124.95	43.077	5.8624e-06	53.168	416.508	258.177	266.848	181.615	305.282	311.600	180.580	185.732	300.291	308.661	185.288	189.502	189.830	194.789	297.895	193.324	-8191	255	
918.112	1	1	0	0	0.22535	0.25822	0.18379	0.2382	0.094851	0.17763	0.32388	0.20485	0.037655	0.094888	0.11119	0.16275	0.31406	0.27371	0.15347	0.090665	-2.6	-3.7938	-3.3438	-3.325	-3.8167	-3.0854	-3.7792	-3.8271	-3.0375	-3.8354	-3.3688	-3.3896	-3.875	-3.2	-3.45	-3.825	435.176	397.927	284.709	234.313	362.173	346.976	477.540	500.371	210.506	277.139	174.027	517.713	416.252	220.973	186.792	374.181	0.0019763	0.00058333	0.00017337	1360.4	4.9446e-06	4.7078e-06	1355.8	368.37	1.2147e-05	5.755e-06	420.37	142.05	123.72	41.846	6.6786e-06	51.847	0.00083498	0.00053419	0.00015653	1378.4	5.4762e-06	6.1209e-06	1375.7	374.31	6.4984e-06	5.896e-06	427.56	143.79	125.19	43.014	6.435e-06	53.283	417.694	248.514	261.972	180.905	323.176	322.433	180.650	185.411	301.853	320.949	185.063	189.242	189.415	194.654	300.701	194.022	-8191	255	
918.231	1	1	0	0	0.094237	0.029064	0.094374	0.17541	0.15539	0.20947	0.272	0.31079	0.031789	0.17176	0.1065	0.29424	0.11529	0.053595	0.13258	0.11581	-2.5229	-3.75	-3.4292	-3.2833	-3.8208	-3.1646	-3.4938	-3.7646	-2.9313	-3.6583	-3.6708	-3.1771	-3.7771	-3.1146	-3.2708	-3.8292	201.227	479.144	495.438	365.272	182.063	316.922	480.496	492.295	488.249	483.716	329.415	169.896	287.702	347.116	174.414	443.864	0.0020065	0.00040454	0.00015088	1366.6	6.1327e-06	3.2142e-06	1365.3	369.25	1.3251e-05	5.2031e-06	420.8	142	123.37	42.125	8.3675e-06	52.014	0.00084691	0.00049074	0.00014972	1378.9	5.6297e-06	5.8276e-06	1378.1	374.75	6.6833e-06	5.7602e-06	427.7	143.77	125.09	43.13	6.6555e-06	53.445	416.152	246.358	264.815	181.492	309.297	325.998	181.034	185.679	307.398	317.755	185.261	189.577	189.743	194.778	305.813	193.785	-8191	255	
918.327	1	1	0	0	0.24185	0.13818	0.097033	0.2131	0.27362	0.041973	0.26915	0.19461	0.25555	0.20163	0.26119	0.090266	0.16476	0.22149	0.088771	0.20291	-2.5938	-3.5208	-3.4792	-3.2375	-3.9417	-3.2458	-3.6188	-4.0875	-3.0896	-3.5229	-3.8125	-3.1833	-3.7562	-3.35	-3.2167	-4.0188	269.130	338.529	513.181	502.499	211.103	459.447	465.795	200.190	301.514	218.511	460.199	455.061	423.796	289.682	352.689	494.504	0.0020477	0.00049543	0.00016154	1355.1	5.3616e-06	4.5568e-06	1356.5	367.28	1.2298e-05	5.4408e-06	417.56	141.49	122.61	41.765	5.1836e-06	51.524	0.00083757	0.00052471	0.00015618	1378	5.6917e-06	6.416e-06	1374.8	374.85	6.0493e-06	5.7969e-06	426.57	143.81	124.78	43.056	5.7938e-06	53.308	417.862	250.309	265.272	181.117	310.605	301.516	180.874	186.035	285.623	324.254	185.309	189.483	189.577	194.860	303.994	194.233	-8191	255	
918.424	1	1	0	0	0.20386	0.20277	0.25274	0.148	0.08854	0.10745	0.27603	0.27931	0.17962	0.11908	0.3158	0.16291	0.10953	0.19221	0.2433	0.18049	-2.7479	-3.6667	-3.6708	-3.075	-3.8521	-3.3438	-3.35	-4.1417	-3.3	-3.4	-3.6917	-3.4479	-3.8563	-3.5458	-3.1396	-4.0521	273.097	469.248	494.410	519.844	189.540	396.335	475.941	483.095	198.765	201.579	472.181	460.952	375.192	379.770	380.638	199.611	0.0019675	0.00048451	0.00019831	1357.8	4.8602e-06	4.9774e-06	1359.7	370.25	1.4459e-05	5.9176e-06	422.88	141.74	123.92	42.132	6.9146e-06	51.993	0.00081537	0.0005253	0.00016387	1374.9	5.4378e-06	5.8383e-06	1376.8	375.46	6.5018e-06	6.641e-06	428.29	143.82	125.13	43.152	6.3382e-06	53.498	417.823	251.337	260.366	181.721	320.002	320.976	181.399	186.136	296.156	313.782	185.495	189.767	189.854	195.039	300.416	194.290	-8191	255	
918.520	1	1	0	0	0.034831	0.14325	0.29677	0.21844	0.25329	0.23974	0.21086	0.28939	0.13655	0.27088	0.191	0.19086	0.035924	0.021443	0.13523	0.021421	-2.7104	-3.3125	-3.7521	-3.1958	-3.6625	-3.5583	-3.2667	-4.1208	-3.1729	-3.525	-3.8521	-3.2062	-3.8354	-3.7	-3.15	-3.9583	254.373	292.626	246.714	471.476	313.164	305.619	433.587	501.824	444.117	441.532	521.380	468.816	313.369	176.810	278.600	485.628	0.0020737	0.00058186	0.00017448	1363.9	4.9722e-06	5.5398e-06	1365.6	371.06	1.3859e-05	4.4848e-06	421.47	141.73	124.8	42.314	7.3821e-06	52.128	0.00085106	0.00058376	0.00015338	1376.4	6.0933e-06	5.5787e-06	1377.6	375.88	6.3238e-06	6.6465e-06	428.32	143.96	125.41	43.235	6.6515e-06	53.475	417.187	263.063	268.759	181.818	306.220	322.802	181.369	186.637	295.213	322.045	185.669	189.872	190.419	195.422	296.489	194.689	-8191	255	
918.616	1	1	0	0	0.24211	0.23508	0.17396	0.29728	0.12199	0.21449	0.26989	0.23876	0.058423	0.026599	0.16373	0.073847	0.39103	0.29221	0.16019	0.079645	-2.8708	-3.2208	-3.6458	-2.9896	-3.4813	-3.5542	-3.2542	-3.8396	-3.2958	-3.2438	-3.9229	-3.2125	-3.6542	-3.6396	-3.1083	-3.9083	339.423	265.105	356.346	476.402	339.230	209.464	202.908	175.363	367.855	235.136	282.146	526.617	423.214	481.033	197.330	422.681	0.001988	0.00051079	0.0001557	1353.5	5.7095e-06	4.9601e-06	1366.3	372.11	1.4599e-05	4.9581e-06	423.07	142.66	124.07	42.109	8.2668e-06	52.148	0.00083551	0.00053725	0.0001436	1374.7	6.0741e-06	5.6107e-06	1378.6	375.42	6.457e-06	6.6227e-06	428.92	144.06	125.21	43.089	6.6152e-06	53.442	417.829	251.546	255.245	182.005	297.369	319.528	181.359	186.241	298.377	318.697	186.005	190.108	190.523	195.474	295.500	194.471	-8191	255	
918.712	1	1	0	0	0.13651	0.21259	0.086701	0.22052	0.076502	0.12412	0.25967	0.25629	0.12922	0.22558	0.15044	0.32494	0.2669	0.042398	0.074014	0.13775	-2.95	-3.0646	-3.8729	-3.2562	-3.425	-3.6813	-3.175	-3.8875	-3.2646	-3.0417	-4	-3.3	-3.4313	-3.85	-3.1958	-3.5833	264.955	216.086	316.912	498.830	475.411	243.438	439.528	436.111	276.588	442.005	485.354	516.891	485.660	202.346	204.363	387.043	0.0019388	0.00052437	0.00016249	1361.8	6.2974e-06	5.3396e-06	1355.1	367.14	1.4575e-05	4.5679e-06	418.57	141.14	123.34	41.905	6.2786e-06	51.928	0.00080823	0.0005718	0.00013853	1376.4	5.801e-06	5.4151e-06	1375	374.93	6.1837e-06	6.4374e-06	427.45	143.65	125.02	43.141	6.1514e-06	53.554	417.231	239.841	266.186	182.052	302.546	318.314	181.429	186.084	293.600	320.048	185.383	189.784	189.993	195.079	304.095	194.300	-8191	255	
918.833	1	1	0	0	0.15813	0.23772	0.17259	0.18291	0.064558	0.27193	0.29094	0.19457	0.1767	0.31158	0.21666	0.10468	0.097856	0.14273	0.082601	0.18607	-3.05	-3.1354	-3.7562	-3.2583	-3.1583	-3.6979	-3.2542	-3.9396	-3.5667	-2.9479	-3.9646	-3.3937	-3.3729	-3.6688	-3.2167	-3.4167	293.800	319.119	511.436	490.353	498.929	454.101	453.345	468.456	381.648	306.006	204.193	518.512	492.109	490.648	224.266	418.868	0.0019799	0.00056442	0.00014522	1354.3	5.5551e-06	5.0491e-06	1349.4	366.44	1.3409e-05	5.445e-06	419.29	140.9	123.5	41.927	7.2151e-06	52.066	0.00081512	0.00059484	0.00014679	1376.4	6.052e-06	5.6196e-06	1374.1	374.92	6.3054e-06	6.208e-06	427.73	143.56	124.94	43.128	6.388e-06	53.398	418.151	251.702	252.089	181.721	305.852	317.738	181.323	186.219	300.564	310.536	185.336	189.614	190.303	195.322	296.003	194.295	-8191	255	
918.929	1	1	0	0	0.32248	0.023146	0.15684	0.081872	0.41223	0.12746	0.18078	0.23914	0.21815	0.24006	0.17004	0.27253	0.10958	0.13988	0.11178	0.15906	-3.1562	-3.0896	-3.6229	-3.3875	-3.0187	-3.7875	-3.3667	-3.5187	-3.625	-2.8292	-3.8979	-3.5333	-3.225	-3.8271	-3.225	-3.5271	229.101	215.681	203.872	451.611	266.317	502.197	448.793	467.078	404.131	513.245	451.906	523.296	193.875	522.070	304.579	206.978	0.0019836	0.00045642	0.00014754	1358.6	5.5506e-06	4.6685e-06	1358.9	369.97	1.2387e-05	5.043e-06	422.27	142.37	123.61	42.157	7.4838e-06	52.108	0.00083742	0.00058959	0.00013993	1381.5	5.9295e-06	5.5218e-06	1378.3	375.3	5.877e-06	6.5144e-06	427.71	144.24	125.22	43.172	6.3436e-06	53.458	417.726	261.758	258.582	181.643	305.122	312.259	180.636	185.655	293.064	320.476	185.341	189.471	189.800	195.299	308.406	194.336	-8191	255	
919.023	1	1	0	0	0.024962	0.069293	0.10083	0.18063	0.016413	0.12794	0.24832	0.17991	0.20642	0.13557	0.31242	0.076937	0.22723	0.30482	0.31048	0.17204	-3.2938	-2.9813	-3.7479	-3.3438	-2.9396	-3.825	-3.2917	-3.4354	-3.7167	-3.2146	-3.4979	-3.6437	-3.1896	-3.7375	-3.1229	-3.3833	245.086	315.214	234.677	382.060	426.604	377.565	428.163	452.020	415.521	433.597	190.034	240.825	260.454	228.536	430.658	385.014	0.0019045	0.00061685	0.00014844	1373.9	5.7503e-06	5.9465e-06	1364.6	371.56	1.3446e-05	5.9453e-06	424.62	142.17	124.84	42.435	6.4471e-06	52.563	0.000794	0.00058668	0.00015788	1382.1	6.5717e-06	5.7885e-06	1381.5	375.73	6.2009e-06	6.5915e-06	429.33	144.17	125.38	43.364	6.4391e-06	53.605	418.832	258.377	264.298	181.809	302.261	314.815	181.330	186.508	301.807	328.530	185.907	190.226	190.901	195.959	305.365	194.801	-8191	255	
919.119	1	1	0	0	0.13038	0.25506	0.096702	0.28992	0.21657	0.054862	0.080493	0.28402	0.21191	0.168	0.19117	0.33276	0.19188	0.17562	0.056309	0.18391	-3.4313	-3.0792	-3.8021	-3.6792	-2.9688	-3.9	-3.475	-3.3958	-3.6417	-3.1792	-3.7771	-3.6104	-3.0812	-3.8042	-3.3521	-3.5687	191.913	358.550	176.022	498.449	269.013	484.215	374.085	180.521	180.009	336.782	213.282	515.012	483.063	318.648	515.822	507.814	0.0020952	0.00042747	0.00013273	1367.3	6.1515e-06	5.4632e-06	1372.2	371.49	1.244e-05	4.4445e-06	424.16	142.55	124.47	42.45	7.0474e-06	52.536	0.00084793	0.0005097	0.0001512	1380.1	6.712e-06	5.5111e-06	1384.2	375.99	5.7828e-06	6.3529e-06	429.67	144.26	125.94	43.326	6.1675e-06	53.674	417.483	256.911	249.174	181.937	303.762	314.814	181.479	186.188	298.531	305.885	185.860	190.002	190.465	195.583	296.744	194.835	-8191	255	
#DATA ENDS
