BOXY.EXE: ISS Imagent and Oximeter Data Acquisition Program Version 0.80
Ascii Record File

#ACQ INFORMATION
2  Detector Channels 
16  External MUX Channels 
1  Auxiliary Channels 
5000  Waveform (CCF) Frequency (Hz)
1  Waveforms Skipped 
30  Waveforms Averaged 
1  Cycles Averaged 
16  Acquisitions per Waveform 
10.0806  Updata Rate (Hz) 

#FILE INFORMATION
TRUE -- External MUX Channel results are PARSED.
FALSE -- AC DC and Phase are NOT grouped.
TRUE -- Companion Program Settings File CREATED.
FALSE -- AC data not excluded
FALSE -- DC data not excluded
FALSE -- Phase data not excluded
FALSE -- Auxillary Chn. data not excluded
Tab delimiters

#CALIBRATION STATE
TRUE -- Waveform Calibration Values APPLIED.


#AUX CALIBRATION VALUES
Val Type	aux-1	

Term	1.0000e+00	
Factor	0.0000e+00	


#WF CALIBRATION VALUES
A = Detector Channel
Val Type	A-AC1	A-AC2	A-AC3	A-AC4	A-AC5	A-AC6	A-AC7	A-AC8	A-AC9	A-AC10	A-AC11	A-AC12	A-AC13	A-AC14	A-AC15	A-AC16	A-DC1	A-DC2	A-DC3	A-DC4	A-DC5	A-DC6	A-DC7	A-DC8	A-DC9	A-DC10	A-DC11	A-DC12	A-DC13	A-DC14	A-DC15	A-DC16	A-Ph1	A-Ph2	A-Ph3	A-Ph4	A-Ph5	A-Ph6	A-Ph7	A-Ph8	A-Ph9	A-Ph10	A-Ph11	A-Ph12	A-Ph13	A-Ph14	A-Ph15	A-Ph16	

Term	0.00000e+00	0.00000e+00	0.00000e+00	0.00000e+00	0.00000e+00	0.00000e+00	0.00000e+00	0.00000e+00	0.00000e+00	0.00000e+00	0.00000e+00	0.00000e+00	0.00000e+00	0.00000e+00	0.00000e+00	0.00000e+00	0.00000e+00	0.00000e+00	0.00000e+00	0.00000e+00	0.00000e+00	0.00000e+00	0.00000e+00	0.00000e+00	0.00000e+00	0.00000e+00	0.00000e+00	0.00000e+00	0.00000e+00	0.00000e+00	0.00000e+00	0.00000e+00	0.00000e+00	0.00000e+00	0.00000e+00	0.00000e+00	0.00000e+00	0.00000e+00	0.00000e+00	0.00000e+00	0.00000e+00	0.00000e+00	0.00000e+00	0.00000e+00	0.00000e+00	0.00000e+00	0.00000e+00	0.00000e+00	
Factor	1.00000e+00	1.00000e+00	1.00000e+00	1.00000e+00	1.00000e+00	1.00000e+00	1.00000e+00	1.00000e+00	1.00000e+00	1.00000e+00	1.00000e+00	1.00000e+00	1.00000e+00	1.00000e+00	1.00000e+00	1.00000e+00	1.00000e+00	1.00000e+00	1.00000e+00	1.00000e+00	1.00000e+00	1.00000e+00	1.00000e+00	1.00000e+00	1.00000e+00	1.00000e+00	1.00000e+00	1.00000e+00	1.00000e+00	1.00000e+00	1.00000e+00	1.00000e+00	X	X	X	X	X	X	X	X	X	X	X	X	X	X	X	X	

B = Detector Channel
Val Type	B-AC1	B-AC2	B-AC3	B-AC4	B-AC5	B-AC6	B-AC7	B-AC8	B-AC9	B-AC10	B-AC11	B-AC12	B-AC13	B-AC14	B-AC15	B-AC16	B-DC1	B-DC2	B-DC3	B-DC4	B-DC5	B-DC6	B-DC7	B-DC8	B-DC9	B-DC10	B-DC11	B-DC12	B-DC13	B-DC14	B-DC15	B-DC16	B-Ph1	B-Ph2	B-Ph3	B-Ph4	B-Ph5	B-Ph6	B-Ph7	B-Ph8	B-Ph9	B-Ph10	B-Ph11	B-Ph12	B-Ph13	B-Ph14	B-Ph15	B-Ph16	

Term	0.00000e+00	0.00000e+00	0.00000e+00	0.00000e+00	0.00000e+00	0.00000e+00	0.00000e+00	0.00000e+00	0.00000e+00	0.00000e+00	0.00000e+00	0.00000e+00	0.00000e+00	0.00000e+00	0.00000e+00	0.00000e+00	0.00000e+00	0.00000e+00	0.00000e+00	0.00000e+00	0.00000e+00	0.00000e+00	0.00000e+00	0.00000e+00	0.00000e+00	0.00000e+00	0.00000e+00	0.00000e+00	0.00000e+00	0.00000e+00	0.00000e+00	0.00000e+00	-2.67937e+02	-1.30297e+02	-1.24741e+02	-1.87822e+02	-6.96048e+01	-6.65855e+01	-1.56226e+02	-1.62015e+02	-6.64801e+01	-6.54146e+01	-1.71993e+02	-1.70449e+02	-1.82921e+02	-1.77447e+02	-7.06104e+01	-1.50185e+02	
Factor	5.08686e-05	1.23101e-04	3.70342e-05	3.47696e-01	1.44184e-06	1.36155e-06	1.51375e-01	4.06272e-02	2.33488e-06	1.39090e-06	7.25516e-02	2.05289e-02	3.17289e-02	6.81532e-03	1.55922e-06	9.51071e-03	2.34709e-05	6.99811e-05	2.09637e-05	1.86283e-01	7.08699e-07	8.53338e-07	7.64441e-02	2.19243e-02	5.51292e-07	8.80824e-07	3.79906e-02	1.07674e-02	1.72504e-02	3.72260e-03	6.45250e-07	5.03074e-03	X	X	X	X	X	X	X	X	X	X	X	X	X	X	X	X	



#DISTANCE SETTINGS
A = Detector Channel
A-1	A-2	A-3	A-4	A-5	A-6	A-7	A-8	A-9	A-10	A-11	A-12	A-13	A-14	A-15	A-16	

2.5000e+00	3.0000e+00	2.5000e+00	3.0000e+00	2.0000e+00	3.0000e+00	1.5000e+00	3.0000e+00	3.0000e+00	3.0000e+00	3.0000e+00	3.0000e+00	3.0000e+00	3.0000e+00	1.5000e+00	3.0000e+00	

B = Detector Channel
B-1	B-2	B-3	B-4	B-5	B-6	B-7	B-8	B-9	B-10	B-11	B-12	B-13	B-14	B-15	B-16	

1.0000e+01	1.0000e+01	1.0000e+01	1.4400e+00	1.0000e+01	1.0000e+01	1.5100e+00	1.9400e+00	1.0000e+01	1.0000e+01	1.9900e+00	2.4900e+00	2.4100e+00	2.9000e+00	1.0000e+01	2.9800e+00	




#DATA BEGINS
time	group	step	mark	flag	A-AC1	A-AC2	A-AC3	A-AC4	A-AC5	A-AC6	A-AC7	A-AC8	A-AC9	A-AC10	A-AC11	A-AC12	A-AC13	A-AC14	A-AC15	A-AC16	A-DC1	A-DC2	A-DC3	A-DC4	A-DC5	A-DC6	A-DC7	A-DC8	A-DC9	A-DC10	A-DC11	A-DC12	A-DC13	A-DC14	A-DC15	A-DC16	A-Ph1	A-Ph2	A-Ph3	A-Ph4	A-Ph5	A-Ph6	A-Ph7	A-Ph8	A-Ph9	A-Ph10	A-Ph11	A-Ph12	A-Ph13	A-Ph14	A-Ph15	A-Ph16	B-AC1	B-AC2	B-AC3	B-AC4	B-AC5	B-AC6	B-AC7	B-AC8	B-AC9	B-AC10	B-AC11	B-AC12	B-AC13	B-AC14	B-AC15	B-AC16	B-DC1	B-DC2	B-DC3	B-DC4	B-DC5	B-DC6	B-DC7	B-DC8	B-DC9	B-DC10	B-DC11	B-DC12	B-DC13	B-DC14	B-DC15	B-DC16	B-Ph1	B-Ph2	B-Ph3	B-Ph4	B-Ph5	B-Ph6	B-Ph7	B-Ph8	B-Ph9	B-Ph10	B-Ph11	B-Ph12	B-Ph13	B-Ph14	B-Ph15	B-Ph16	aux-1	digaux	

2557.512	1	1	0	768	0.12299	0.12573	0.12403	0.10835	0.12461	0.12087	0.15448	0.084846	0.26773	0.10401	0.23172	0.2679	0.18191	0.145	0.11004	0.14098	-2.6354	-3.5479	-3.0792	-2.9271	-3.5271	-2.9437	-3.4667	-3.5938	-2.7708	-3.6396	-3.2208	-2.8979	-3.6437	-2.9708	-3.3396	-3.6208	277.607	393.572	257.103	312.792	230.764	250.985	104.304	380.029	367.665	393.463	333.132	347.455	408.272	377.674	452.785	111.233	0.00018691	6.3832e-05	1.1926e-05	85.546	2.1346e-07	3.1638e-07	164	14.732	1.4457e-06	8.4933e-07	30.306	13.907	7.3954	2.4655	7.3408e-07	5.1488	0.00029089	0.00062312	0.00020038	86.848	5.7641e-06	8.1565e-06	163.59	15.146	4.7939e-06	7.6907e-06	30.569	13.935	7.4164	2.5424	5.6513e-06	5.2627	392.621	429.878	178.750	110.376	281.227	248.834	106.491	116.339	211.804	231.849	113.212	115.962	118.097	121.720	176.988	118.290	-8191	255	
2557.608	1	1	0	0	0.20129	0.22845	0.081889	0.15088	0.15995	0.14164	0.099622	0.19444	0.10448	0.3595	0.14034	0.064707	0.039714	0.1047	0.080234	0.12126	-2.6	-3.5333	-3.2313	-3.0167	-3.6167	-2.9958	-3.3271	-3.5792	-2.9604	-3.5229	-3.2042	-2.9667	-3.5583	-3.0125	-3.1021	-3.7667	248.287	363.747	147.468	433.373	273.672	244.423	312.056	213.512	350.313	383.208	379.736	131.548	341.349	234.362	310.066	101.759	0.00015735	9.6792e-05	7.265e-06	84.922	1.0682e-06	9.8237e-07	167.34	15.316	1.4889e-07	1.3156e-06	30.427	13.926	7.3741	2.5025	6.3082e-07	5.2312	0.00028429	0.00059557	0.00019003	86.189	6.5348e-06	7.9005e-06	165.45	15.35	5.3004e-06	6.8337e-06	30.687	14.062	7.42	2.5574	6.0143e-06	5.3165	390.320	123.762	218.763	109.308	260.321	211.957	106.049	114.263	123.603	279.765	111.912	115.401	117.900	120.956	388.239	118.435	-8191	255	
2557.705	1	1	0	0	0.18742	0.13981	0.23649	0.175	0.23392	0.24648	0.094298	0.085968	0.10963	0.30836	0.23458	0.09905	0.12151	0.22195	0.22032	0.24861	-2.6896	-3.4667	-3.3375	-3.2167	-3.6292	-3.0792	-3.0375	-3.7438	-2.775	-3.2917	-3.4729	-2.8771	-3.4667	-3.2021	-3.0083	-3.7104	164.714	142.684	284.309	196.907	305.070	398.501	328.128	400.368	219.857	131.433	288.034	412.844	256.528	317.082	417.324	359.449	0.00011911	6.3697e-05	2.4959e-05	86.678	4.7205e-07	2.6366e-07	167.17	15.19	3.4665e-07	9.9503e-07	31.045	14.074	7.3488	2.5526	1.62e-06	5.1197	0.00028669	0.00063202	0.00018514	88.101	6.1362e-06	7.6e-06	165.84	15.257	5.0719e-06	7.287e-06	30.579	14.015	7.4372	2.5527	5.8435e-06	5.2411	400.558	192.346	155.168	109.844	197.027	305.908	107.303	116.320	162.548	294.055	112.343	116.366	118.858	121.888	238.070	118.824	-8191	255	
2557.801	1	1	0	0	0.1379	0.14578	0.19044	0.18541	0.084104	0.07644	0.16752	0.064779	0.2368	0.22422	0.030943	0.082809	0.16777	0.2628	0.071685	0.1081	-2.4229	-3.2771	-3.4667	-2.8271	-3.6437	-3.0521	-3.0396	-3.7188	-2.9313	-3.3125	-3.5542	-2.9292	-3.7271	-3.1458	-2.8187	-3.6562	367.712	306.156	333.317	112.783	379.667	129.721	316.963	410.113	395.628	131.521	176.641	334.784	172.949	224.150	224.923	326.180	0.00018523	0.00010183	3.3928e-05	86.495	3.9476e-07	1.2816e-06	168.89	15.051	1.768e-06	3.2488e-07	30.629	13.999	7.5721	2.4618	1.0135e-06	5.2061	0.00025613	0.00066045	0.00016823	88.074	6.0727e-06	7.4525e-06	167.46	15.272	5.1844e-06	8.2834e-06	30.56	13.98	7.5437	2.5317	5.7629e-06	5.2511	383.693	186.961	170.176	111.382	244.717	166.408	106.683	114.990	214.520	219.974	112.752	116.521	119.058	120.923	240.304	117.686	-8191	255	
2557.897	1	1	0	0	0.06785	0.099677	0.044244	0.19306	0.11548	0.29707	0.10648	0.23056	0.27062	0.33099	0.095264	0.06283	0.051291	0.082267	0.18103	0.16302	-2.5604	-3.1688	-3.5812	-2.7313	-3.5229	-3.375	-2.9062	-3.825	-2.9625	-3.2167	-3.7354	-2.9042	-3.3563	-3.4271	-2.9854	-3.7313	220.166	350.530	116.088	273.831	101.254	132.943	401.348	361.144	399.462	150.148	443.588	335.400	418.591	431.465	305.230	341.562	0.00018642	0.00011917	2.0033e-05	86.693	1.3766e-06	8.3531e-07	168.9	15.445	2.2366e-06	7.0408e-07	30.58	14.217	7.4034	2.5272	1.1069e-06	5.2191	0.00029407	0.00062823	0.00017976	88.265	6.2041e-06	6.9796e-06	167.67	15.299	5.1144e-06	7.7256e-06	30.669	14.059	7.4362	2.5669	6.5466e-06	5.2558	401.593	229.022	217.472	109.777	223.030	177.913	106.185	115.696	225.622	237.417	112.171	115.849	117.247	121.044	323.492	118.445	-8191	255	
2557.993	1	1	0	0	0.39226	0.22719	0.063327	0.14534	0.1575	0.11994	0.17059	0.099404	0.15644	0.14272	0.020467	0.24202	0.20367	0.035824	0.19303	0.1126	-2.675	-3.0896	-3.6125	-2.7833	-3.4729	-3.4583	-2.8708	-3.5438	-3.2875	-2.9104	-3.8396	-2.825	-3.3146	-3.4896	-3.0438	-3.6542	257.099	392.913	380.896	247.507	147.120	223.041	378.717	249.885	234.121	429.726	323.650	409.475	399.969	340.917	125.555	235.865	0.00025337	8.2711e-06	3.8441e-05	86.854	1.191e-06	1.0688e-06	170.58	15.198	1.8367e-06	7.7764e-07	30.475	14.144	7.4252	2.528	1.435e-06	5.2395	0.00028825	0.00065053	0.00017727	88.914	5.8615e-06	8.0232e-06	169.18	15.195	5.0949e-06	8.4743e-06	30.837	14.106	7.4995	2.5725	6.2253e-06	5.2875	385.140	263.338	146.176	110.561	195.530	253.647	106.523	114.623	278.677	227.549	112.952	116.671	119.108	120.621	262.073	119.040	-8191	255	
2558.112	1	1	0	0	0.16413	0.071681	0.36722	0.11686	0.12325	0.08736	0.17777	0.17704	0.15217	0.16247	0.26293	0.025949	0.063875	0.17584	0.20756	0.12787	-3.0604	-2.8812	-3.6583	-2.9771	-3.2396	-3.5125	-2.9875	-3.6792	-3.4104	-2.8896	-3.575	-3.0812	-3.2625	-3.4354	-2.7958	-3.5062	209.854	397.100	178.900	342.333	416.882	298.000	314.962	307.285	344.827	158.702	301.909	142.301	448.183	360.079	184.756	108.384	0.00018948	0.00011801	2.4841e-05	88.772	1.0883e-06	1.777e-06	172.61	15.104	2.9353e-06	1.0246e-06	30.903	13.998	7.3454	2.4971	7.9833e-07	5.0464	0.00029026	0.00070973	0.00018531	89.42	6.3901e-06	7.6089e-06	170.8	15.177	4.9823e-06	8.6743e-06	30.933	13.906	7.395	2.5552	6.5856e-06	5.09	397.838	243.910	143.356	110.136	232.065	246.776	106.556	115.068	241.286	218.260	112.773	116.325	119.011	121.739	199.325	118.925	-8191	255	
2558.208	1	1	0	0	0.15232	0.19524	0.23149	0.27173	0.083858	0.18019	0.10444	0.16379	0.38649	0.35605	0.22004	0.19211	0.088344	0.32713	0.099079	0.14988	-3.0208	-2.7896	-3.5312	-2.9625	-3.15	-3.6542	-2.8542	-3.525	-3.2979	-2.9021	-3.75	-3.1417	-3.0208	-3.5687	-2.9958	-3.4562	203.715	305.720	144.880	402.674	358.944	222.323	166.059	148.201	429.917	161.164	271.436	145.400	239.242	433.222	203.313	110.630	0.00020818	0.00011269	7.8686e-06	88.443	3.9781e-07	8.4343e-07	170.45	14.684	1.4372e-06	1.0706e-06	30.812	13.742	7.2732	2.5257	8.9545e-07	5.0453	0.00029588	0.00068509	0.00017151	89.948	7.0826e-06	7.7405e-06	169.5	14.948	5.1638e-06	9.1239e-06	30.583	13.784	7.3047	2.5671	5.9874e-06	5.1228	400.377	239.161	227.559	109.859	172.391	248.671	106.636	115.278	234.976	382.459	112.716	116.453	117.401	121.298	190.541	119.106	-8191	255	
2558.304	1	1	0	0	0.096044	0.20253	0.17892	0.34132	0.10107	0.31204	0.20903	0.15769	0.068686	0.12054	0.20645	0.21072	0.08729	0.17045	0.13057	0.078954	-3.1	-2.7771	-3.6562	-3.175	-3.0125	-3.6521	-2.8563	-3.425	-3.6562	-2.825	-3.5271	-3.35	-2.8583	-3.7771	-3.0687	-3.3708	115.152	208.452	411.816	350.077	104.498	222.445	111.261	334.730	132.207	309.427	339.984	288.584	349.559	238.423	97.852	365.987	0.00016407	7.596e-05	2.118e-05	88.424	9.841e-07	3.4032e-07	169.96	14.841	1.7369e-06	2.8427e-06	30.59	14.016	7.255	2.491	2.4005e-07	4.9979	0.00026894	0.00061831	0.00017278	89.273	6.2026e-06	6.8285e-06	168.28	14.911	4.7675e-06	8.6908e-06	30.722	13.977	7.2784	2.5686	5.6298e-06	5.1151	397.209	304.116	100.318	109.555	434.152	115.401	106.678	115.004	185.385	234.597	112.961	115.850	118.402	120.536	142.822	119.566	-8191	255	
2558.400	1	1	0	0	0.11081	0.13588	0.18829	0.2381	0.083729	0.12964	0.22223	0.11365	0.21548	0.0053081	0.063919	0.055118	0.2535	0.25996	0.10253	0.18145	-3.2625	-3.1146	-3.5438	-3.2417	-2.9292	-3.7854	-3.0896	-3.0625	-3.5667	-2.8917	-3.6188	-3.3083	-3.0021	-3.5021	-3.0187	-2.9917	224.705	303.093	157.581	248.020	425.854	309.454	372.955	176.853	144.863	397.568	185.164	150.877	204.558	292.913	107.632	273.242	0.00017345	5.9123e-05	2.2528e-05	87.829	2.5292e-06	6.243e-07	168.39	14.884	1.2593e-06	9.4775e-07	30.928	14.316	7.2299	2.5389	9.6961e-07	5.1351	0.00026894	0.00059455	0.00016448	88.254	7.121e-06	6.7432e-06	168.78	14.949	4.6584e-06	8.1201e-06	30.91	14.158	7.3389	2.5926	5.5411e-06	5.1859	401.305	154.640	221.091	110.112	298.788	129.902	106.019	115.299	424.456	230.377	111.725	115.506	118.838	121.146	260.991	118.060	-8191	255	
2558.497	1	1	0	0	0.21871	0.18941	0.15842	0.027149	0.15584	0.086321	0.18407	0.069737	0.21473	0.10048	0.1117	0.16598	0.054851	0.1429	0.081096	0.2341	-3.2083	-2.7854	-3.45	-3.2354	-2.8729	-3.775	-3.1813	-3.1063	-3.8542	-2.9667	-3.4083	-3.4375	-2.775	-3.6604	-3.275	-2.9979	230.562	117.218	251.401	337.299	129.796	212.441	264.219	249.385	313.447	144.140	396.690	365.904	257.545	137.879	231.101	280.525	0.00016103	7.59e-05	2.6915e-05	86.323	1.1547e-06	1.0908e-06	171.97	14.819	2.2791e-07	7.8227e-07	30.216	14.004	7.3585	2.5398	7.9268e-07	5.0488	0.0002551	0.00064645	0.00019426	88.901	6.3074e-06	7.344e-06	169.47	14.905	4.7962e-06	8.3036e-06	30.707	13.988	7.3604	2.5608	5.7279e-06	5.135	383.029	289.693	220.081	110.120	315.610	168.843	105.385	115.259	152.453	325.365	111.462	115.692	118.661	120.584	316.910	118.024	-8191	255	
2558.593	1	1	0	0	0.058593	0.23157	0.15301	0.18096	0.20672	0.072348	0.09268	0.13537	0.29434	0.18448	0.048697	0.24655	0.094316	0.017988	0.18534	0.12632	-3.2417	-3.2	-3.3438	-3.5104	-3.0604	-3.7417	-3.4229	-3.0104	-3.5896	-3.175	-3.1437	-3.6146	-2.9437	-3.6667	-3.3542	-2.9708	249.739	161.625	190.988	321.197	266.426	422.763	99.950	155.132	356.679	265.558	394.887	289.178	125.913	311.998	441.604	352.049	0.00018449	0.00017494	6.7389e-06	88.926	1.6901e-06	7.0723e-07	171.29	14.881	9.5185e-07	7.0557e-07	30.447	13.859	7.1607	2.5425	1.3106e-06	4.9949	0.00026014	0.0006466	0.00020116	89.755	7.0648e-06	7.7672e-06	169.96	14.905	4.9076e-06	7.8026e-06	30.777	13.883	7.2625	2.5731	6.2065e-06	5.0782	405.334	120.188	106.182	109.877	259.417	316.298	105.711	115.498	259.058	102.993	113.336	115.829	117.635	120.967	332.964	118.937	-8191	255	
2558.713	1	1	0	0	0.05324	0.21791	0.12808	0.10362	0.20321	0.09187	0.21353	0.1755	0.13016	0.075203	0.08277	0.15121	0.25164	0.16009	0.26478	0.15682	-3.3812	-2.9583	-3.0729	-3.6271	-2.7792	-3.3667	-3.2729	-2.7667	-3.6375	-3.2083	-3.1167	-3.6562	-2.7958	-3.3292	-3.3125	-2.8458	368.473	173.002	114.878	450.644	358.482	326.865	422.288	440.492	358.113	255.154	97.220	151.475	141.901	440.066	412.720	184.536	0.00022639	0.000109	2.1789e-05	88.786	1.3678e-06	8.0384e-07	172.04	14.693	7.7214e-07	9.4872e-07	30.604	14.024	7.2239	2.5351	9.1292e-07	5.06	0.00029265	0.00064149	0.00019479	89.93	7.2273e-06	7.4045e-06	171.11	14.845	4.9295e-06	8.4431e-06	31.003	13.989	7.3742	2.5792	6.1931e-06	5.0969	400.325	171.464	411.373	110.032	215.768	272.316	105.956	114.657	258.764	306.585	111.282	115.460	117.550	121.101	242.835	118.325	-8191	255	
2558.809	1	1	0	0	0.073361	0.12026	0.056936	0.1254	0.23998	0.28087	0.14233	0.17241	0.11421	0.10456	0.024595	0.2692	0.34585	0.36481	0.035012	0.2087	-3.4562	-3.2292	-3	-3.7208	-3.0771	-3.3	-3.4292	-2.8854	-3.6063	-3.3167	-3.1417	-3.5896	-2.8604	-3.0896	-3.6	-2.9813	157.631	211.020	313.953	195.083	132.953	152.744	391.467	390.082	131.440	220.734	125.422	145.775	199.868	127.815	126.154	450.858	0.00012743	0.00011786	1.7413e-05	89.983	4.5883e-07	6.1209e-07	172.56	14.72	2.5857e-06	6.3134e-07	30.862	13.887	7.2285	2.54	5.7956e-07	5.0502	0.00026253	0.00067896	0.00019396	91.465	7.0102e-06	7.8276e-06	170.6	14.924	5.2556e-06	8.2375e-06	31.063	13.995	7.2878	2.5904	6.1944e-06	5.1497	394.497	175.453	122.082	109.695	428.703	251.615	106.047	115.126	411.484	360.081	111.770	115.541	117.501	121.084	418.613	118.239	-8191	255	
2558.904	1	1	0	0	0.10294	0.21125	0.09753	0.058398	0.17938	0.10512	0.15503	0.07009	0.070159	0.068121	0.19324	0.22205	0.14837	0.16298	0.0091322	0.18899	-3.0646	-3.2292	-3.0312	-3.5583	-3.0687	-3.2229	-3.5854	-2.9313	-3.6354	-3.2687	-2.925	-3.6604	-3.0187	-3.1729	-3.65	-2.9354	133.285	196.145	134.457	429.905	293.747	248.212	414.588	382.820	365.856	214.189	455.886	156.200	192.186	434.744	101.425	335.606	0.00022229	5.1499e-05	3.1183e-05	88.955	1.721e-07	5.6672e-07	170.98	14.382	9.4298e-07	1.3384e-06	30.764	14.059	7.2636	2.4832	2.0654e-06	4.9263	0.00030424	0.00068961	0.00021234	90.798	6.7563e-06	8.6827e-06	169.64	14.776	5.1328e-06	8.5128e-06	31.095	13.979	7.3014	2.5468	6.1312e-06	5.0577	388.711	184.731	135.105	110.342	207.106	217.884	105.780	114.174	312.816	406.086	112.320	115.601	118.005	120.584	220.350	119.027	-8191	255	
2559.000	1	1	0	0	0.17483	0.096165	0.11674	0.1258	0.26939	0.062685	0.1837	0.19803	0.099839	0.074281	0.22049	0.11744	0.082595	0.21971	0.053934	0.18375	-3.15	-3.5438	-2.9708	-3.775	-3.0458	-3.1729	-3.7396	-2.8083	-3.3208	-3.3354	-2.9188	-3.5896	-3.0875	-3.1063	-3.6854	-2.9625	317.582	432.618	256.606	225.602	203.412	115.005	284.794	358.494	192.134	366.183	201.621	160.697	443.863	369.965	114.589	181.794	0.00016276	9.8722e-05	3.1068e-05	87.176	5.3654e-07	1.1516e-06	167.08	14.801	1.444e-06	5.9145e-07	30.764	13.984	7.1541	2.5022	2.0728e-06	4.9171	0.00029984	0.00063756	0.00021103	88.195	6.5333e-06	8.4676e-06	167.15	14.812	5.1086e-06	8.0247e-06	30.774	13.874	7.2716	2.5472	6.0237e-06	4.9924	390.915	309.342	248.423	109.971	377.847	107.927	105.912	114.474	206.839	258.937	113.310	116.562	117.648	121.456	320.123	118.656	-8191	255	
2559.073	1	1	0	0	0.11905	0.1116	0.050254	0.16408	0.12597	0.20029	0.12644	0.22868	0.13449	0.14861	0.19204	0.36817	0.06222	0.088694	0.17753	0.086605	-3.0479	-3.3833	-2.9104	-3.6104	-3.2938	-2.75	-3.75	-2.8958	-3.3187	-3.5083	-2.8208	-3.6979	-3.2667	-2.9	-3.6979	-2.9875	442.749	121.480	401.824	404.550	263.819	302.688	406.105	317.509	396.259	258.462	358.986	306.729	392.709	386.780	195.820	267.004	0.00011887	6.7183e-05	2.6525e-05	86.695	2.6003e-07	7.285e-07	169.31	14.556	2.3467e-06	8.0864e-07	30.313	13.969	7.2022	2.4753	1.0613e-06	5.0301	0.000275	0.00064193	0.00019924	86.591	6.5333e-06	7.9645e-06	165.62	14.647	5.4475e-06	7.676e-06	30.617	14.003	7.2836	2.5434	5.5733e-06	5.0424	397.461	447.089	151.693	109.697	243.761	312.773	106.172	115.574	227.485	401.164	112.421	116.332	118.162	120.704	274.981	119.087	-8191	255	
2559.192	1	1	0	0	0.12928	0.32488	0.17065	0.31809	0.21595	0.32248	0.20172	0.034614	0.1495	0.12889	0.2415	0.20456	0.12919	0.011141	0.19496	0.23844	-2.7896	-3.6667	-2.8354	-3.4833	-3.4479	-2.9188	-3.6479	-2.9667	-3.0938	-3.7292	-2.8417	-3.4333	-3.3917	-2.9437	-3.675	-2.9562	214.839	413.167	132.040	450.167	388.396	209.666	371.491	201.678	109.104	99.074	335.000	412.953	411.133	418.808	281.311	448.325	0.00023888	6.5453e-05	3.2631e-05	83.332	6.9736e-07	1.3718e-06	168.08	14.662	4.4781e-07	1.1694e-06	31.071	14.001	7.2934	2.5061	9.5335e-07	5.0291	0.00027084	0.00061219	0.0002175	84.956	6.3872e-06	8.1049e-06	165.77	14.829	5.0914e-06	7.621e-06	30.909	14.023	7.2547	2.5681	5.8637e-06	5.0561	400.465	140.631	231.731	110.215	336.817	231.190	105.795	115.078	144.821	235.817	112.020	114.914	118.086	120.088	411.641	117.884	-8191	255	
2559.288	1	1	0	0	0.16696	0.055517	0.12022	0.17615	0.21835	0.18911	0.14679	0.24569	0.15963	0.075384	0.05536	0.050032	0.16795	0.13734	0.17545	0.19887	-2.6937	-3.6562	-2.9375	-3.4792	-3.4875	-3.0479	-3.6562	-3.1125	-3.0229	-3.6667	-2.9479	-3.325	-3.4583	-2.9083	-3.6063	-3.1625	302.164	279.565	271.343	376.508	400.151	126.215	368.294	408.144	293.843	368.794	263.564	252.153	103.614	259.850	155.201	211.206	0.00022646	7.9184e-05	2.0487e-05	85.329	3.0262e-07	1.732e-06	165.39	14.653	5.3988e-07	9.8688e-07	30.217	13.933	6.8847	2.3841	7.7122e-07	4.8749	0.000297	0.00063625	0.00022881	86.419	6.681e-06	8.4001e-06	164.62	14.776	5.8942e-06	8.0302e-06	30.703	13.88	7.1522	2.5124	5.7871e-06	4.9852	393.369	170.813	286.928	109.357	369.339	219.182	105.959	114.550	321.318	235.368	111.899	115.984	116.883	120.725	273.904	118.374	-8191	255	
2559.385	1	1	0	0	0.25018	0.13237	0.14208	0.10067	0.23216	0.21543	0.094673	0.05817	0.16113	0.17875	0.052193	0.37924	0.2892	0.092484	0.14445	0.14493	-2.7479	-3.5875	-2.9229	-3.2562	-3.6208	-2.875	-3.4417	-3.2375	-2.9854	-3.7062	-2.8583	-3.25	-3.5938	-2.9938	-3.4542	-3.3542	142.348	317.355	311.381	131.117	261.889	181.498	256.037	401.580	332.219	335.030	246.682	248.904	423.677	274.959	199.700	178.134	0.00012553	8.0598e-05	1.3018e-05	85.022	8.1181e-07	8.5649e-07	163.56	14.654	1.8146e-06	1.3442e-06	29.698	13.598	7.0205	2.4039	2.472e-06	4.8508	0.00030884	0.00061948	0.00020426	86.292	6.6367e-06	8.8694e-06	163.06	14.717	5.6312e-06	8.1917e-06	30.429	13.63	7.0894	2.4835	6.232e-06	4.9246	395.879	134.954	137.333	108.517	203.562	298.286	105.788	114.672	196.905	261.541	111.002	116.016	117.079	119.871	249.973	116.728	-8191	255	
2559.481	1	1	0	0	0.073099	0.13938	0.057556	0.21905	0.10642	0.21061	0.2077	0.15583	0.3557	0.19191	0.17772	0.069684	0.34288	0.031248	0.087785	0.11155	-2.4792	-3.6354	-3.2354	-2.9688	-3.7313	-2.9646	-3.425	-3.3354	-2.7292	-3.7542	-3.1229	-3.1083	-3.6646	-2.8958	-3.5021	-3.5312	317.869	120.569	432.886	127.536	293.104	153.241	265.226	454.629	160.941	139.625	236.753	303.536	419.142	239.717	97.752	210.929	0.00017791	1.7254e-05	2.708e-05	84.445	1.0864e-06	1.2038e-06	163.78	14.615	3.225e-06	8.4504e-07	30.392	13.813	7.3372	2.4499	8.6022e-07	4.9287	0.00029925	0.00062239	0.00020243	85.196	6.7312e-06	8.3752e-06	163.07	14.747	5.5233e-06	7.5586e-06	30.532	13.705	7.2305	2.4877	6.0331e-06	4.9566	387.139	186.322	130.809	108.023	208.263	201.093	105.861	115.017	239.630	206.043	111.511	115.580	117.564	120.078	391.102	118.096	-8191	255	
2559.601	1	1	0	0	0.069673	0.24476	0.070995	0.24813	0.027464	0.087749	0.074326	0.066144	0.046011	0.079086	0.17765	0.14021	0.13008	0.10011	0.21405	0.084982	-2.7062	-3.5896	-3.2333	-2.8854	-3.7875	-3.0729	-3.4271	-3.6688	-2.9562	-3.5625	-3.2208	-2.9188	-3.6229	-2.9688	-3.3271	-3.6188	390.305	126.045	263.103	138.651	392.653	241.034	134.300	306.196	203.247	426.112	449.556	267.963	208.821	226.417	149.565	443.135	0.00014689	0.00011798	2.4413e-05	83.896	1.9423e-06	5.6487e-07	164.9	14.53	2.6193e-06	5.202e-07	30.19	13.615	6.935	2.3938	1.0199e-06	4.8607	0.0002774	0.00066424	0.00020116	84.837	6.2543e-06	8.0872e-06	163.55	14.659	5.5439e-06	7.7824e-06	30.679	13.585	7.1242	2.469	6.634e-06	4.9687	399.221	281.602	302.311	108.669	217.425	374.810	106.152	113.242	198.128	324.665	111.099	115.716	117.076	120.244	175.238	118.651	-8191	255	
2559.673	1	1	0	0	0.14786	0.10781	0.31908	0.25248	0.14082	0.29136	0.19728	0.14513	0.14861	0.22361	0.19107	0.069008	0.18799	0.21473	0.23324	0.12537	-2.3708	-3.5917	-3.3125	-2.9125	-3.6688	-3.025	-3.1521	-3.6979	-2.8854	-3.4917	-3.4104	-2.9583	-3.6896	-3.0854	-2.8542	-3.6479	284.432	289.285	304.076	313.847	131.592	396.931	320.846	429.363	297.751	427.123	342.141	391.872	452.903	183.656	164.600	444.744	0.00023211	5.4195e-05	5.1208e-06	84.616	4.8875e-07	9.9421e-07	163.33	14.761	2.6932e-06	2.9183e-07	30.644	13.541	6.9693	2.3634	1.359e-06	4.6735	0.00030532	0.00067182	0.00022553	86.131	6.5569e-06	9.5556e-06	162.3	14.854	6.132e-06	1.0645e-05	30.908	13.505	7.0346	2.4447	7.0977e-06	4.8002	386.689	123.285	99.450	109.345	112.173	275.520	106.039	114.520	201.889	408.352	112.564	114.939	117.060	120.274	211.236	119.332	-8191	255	
2559.794	1	1	0	0	0.10727	0.13112	0.089741	0.11257	0.037892	0.075121	0.17382	0.22421	0.16175	0.12688	0.1172	0.089048	0.32613	0.14389	0.31687	0.13355	-2.4708	-3.5083	-3.5458	-2.9	-3.5563	-3.1333	-2.8812	-3.525	-2.6896	-3.2708	-3.4333	-2.7667	-3.6063	-3.2667	-2.9604	-3.6937	276.436	360.202	228.991	446.765	248.540	281.809	380.784	455.038	449.975	398.892	163.765	119.149	274.584	114.403	168.504	415.135	0.00019393	2.2175e-05	8.1396e-06	79.38	1.0398e-06	1.3205e-06	153.03	15.473	2.9941e-06	2.8361e-07	31.444	13.305	6.9613	2.3314	1.214e-06	4.5479	0.00033426	0.00078889	0.00023824	81.065	8.0378e-06	1.0258e-05	153.22	15.376	7.2047e-06	1.1508e-05	32.013	13.244	7.0806	2.3928	1.0667e-05	4.6289	396.476	431.959	262.808	110.248	251.399	293.890	106.419	114.623	229.403	384.991	112.299	116.015	117.041	121.438	264.040	119.671	-8191	255	
2559.890	1	1	0	0	0.07219	0.034114	0.010034	0.20134	0.18545	0.1808	0.071735	0.14291	0.052084	0.17845	0.11313	0.22329	0.053528	0.052387	0.084303	0.25714	-2.6708	-3.1771	-3.4042	-2.85	-3.5333	-3.2396	-3.125	-3.6375	-3.1188	-3.2875	-3.65	-2.6063	-3.5812	-3.2292	-3.0292	-3.7396	390.112	341.187	273.436	291.061	197.212	430.945	418.064	291.396	390.266	190.744	298.844	296.105	397.185	151.969	362.334	318.150	0.00010523	0.00017531	3.5606e-05	76.764	1.0825e-06	3.0035e-07	148.83	17.732	1.2176e-06	1.1929e-06	33.473	12.635	6.7656	2.2002	1.9257e-06	4.3142	0.00047817	0.0012659	0.00037189	81.243	1.3883e-05	1.8523e-05	147.96	17.905	1.3789e-05	2.2679e-05	34.45	12.899	7.0845	2.3553	2.0391e-05	4.5087	402.892	334.789	106.275	108.841	287.098	135.107	106.504	113.579	157.926	150.191	110.487	115.819	117.360	121.507	175.212	118.213	-8191	255	
2559.984	1	1	0	0	0.12602	0.15194	0.18769	0.12554	0.10638	0.038253	0.13796	0.019356	0.18881	0.067678	0.11823	0.28309	0.13545	0.059001	0.20274	0.22999	-2.55	-3.0646	-3.6188	-2.9313	-3.5792	-3.4125	-2.9792	-3.7	-3.0542	-3.2292	-3.6896	-3.0812	-3.4688	-3.3396	-2.7104	-3.5125	210.981	143.603	188.082	226.633	173.890	336.275	207.957	229.674	121.708	146.158	298.422	135.858	224.473	262.610	220.929	174.116	0.00014742	0.00012241	4.7541e-05	77.661	7.4039e-07	3.2152e-06	140.12	16.951	3.2276e-06	7.8059e-07	34.139	12.127	6.3478	2.1717	2.0675e-06	4.1813	0.00085541	0.002369	0.00071696	84.017	2.6064e-05	3.1462e-05	142.75	17.748	2.1959e-05	3.4873e-05	35.009	12.502	6.9857	2.2864	2.1347e-05	4.3436	370.930	395.617	228.189	107.850	187.865	429.474	107.107	115.007	352.949	351.526	112.808	115.902	118.150	121.877	225.502	118.821	-8191	255	
2560.082	1	1	0	0	0.2982	0.18997	0.16413	0.11631	0.065126	0.037919	0.12534	0.17373	0.29115	0.39343	0.058425	0.21135	0.099903	0.077795	0.15992	0.18621	-2.7375	-2.9104	-3.6271	-2.825	-3.375	-3.5917	-2.9271	-3.5687	-3.2375	-2.9562	-3.6396	-2.9917	-3.1833	-3.5208	-2.8625	-3.7479	203.638	280.855	179.789	128.606	336.914	435.942	345.266	295.076	371.601	437.254	374.548	246.078	302.297	143.833	414.480	294.263	0.00013078	0.00015559	4.4496e-05	69.618	1.7846e-06	3.086e-06	135.24	16.358	2.974e-06	1.5322e-06	32.345	12.039	6.2914	2.1056	3.3507e-07	4.0727	0.00070109	0.0017586	0.00047111	74.751	1.4846e-05	1.7913e-05	136.77	16.711	1.1987e-05	2.0727e-05	33.105	12.238	6.6482	2.2298	1.8028e-05	4.2466	405.716	192.731	127.904	108.143	257.316	230.330	106.983	114.970	266.725	339.930	112.557	114.699	116.749	121.511	145.662	119.364	-8191	255	
2560.201	1	1	0	0	0.086443	0.1548	0.18457	0.24584	0.096956	0.18142	0.21555	0.28248	0.10851	0.18986	0.13367	0.10957	0.12039	0.3597	0.058698	0.32212	-2.8771	-2.8833	-3.6042	-3.0062	-3.1646	-3.7333	-2.7458	-3.5354	-3.2167	-2.8375	-3.5833	-2.9979	-2.975	-3.6	-2.9958	-3.4188	247.608	202.871	365.107	352.713	316.328	364.963	107.417	258.217	138.398	449.125	105.595	400.068	287.418	454.415	116.179	234.490	9.0369e-05	0.0001243	4.4727e-05	76.271	1.6081e-06	1.1294e-06	141	15.371	3.8535e-06	7.1233e-07	30.083	11.903	6.0119	2.0072	2.5548e-06	4.0082	0.00070378	0.0020045	0.00057882	80.485	2.0719e-05	2.3364e-05	142.11	15.756	1.6525e-05	2.6696e-05	31.262	11.996	6.5056	2.1173	1.8359e-05	4.1191	395.918	137.314	254.274	107.703	244.931	252.916	106.608	114.457	153.130	357.557	111.883	115.595	119.100	120.072	433.815	118.540	-8191	255	
2560.297	1	1	0	0	0.15898	0.15901	0.27717	0.15733	0.13497	0.048578	0.17429	0.011048	0.090008	0.10187	0.13437	0.15728	0.025873	0.10497	0.097605	0.2653	-3.0375	-2.8	-3.4792	-3.025	-3.0604	-3.6792	-2.8208	-3.3896	-3.3271	-3.1312	-3.6833	-3.2062	-3.0479	-3.6833	-3.0083	-3.4083	249.124	447.599	446.108	282.855	175.444	243.459	193.255	400.748	312.309	112.155	399.040	133.915	162.951	203.353	313.695	220.445	0.0002089	0.00020074	1.7813e-05	78.974	1.834e-06	1.9793e-07	143.43	14.062	3.7166e-06	1.2246e-06	27.078	11.421	6.0817	1.8119	8.3281e-07	3.9994	0.00070266	0.0019186	0.00056091	82.677	1.9451e-05	2.2638e-05	142.16	14.426	1.4741e-05	2.3312e-05	27.942	11.656	6.3539	1.914	1.7994e-05	4.1954	385.893	426.427	211.019	106.555	269.625	372.747	106.731	115.050	353.732	308.577	111.605	115.498	118.324	120.776	422.411	118.705	-8191	255	
2560.369	1	1	0	0	0.16668	0.024022	0.17189	0.31755	0.15903	0.059081	0.10856	0.11524	0.078167	0.10118	0.16106	0.079524	0.30156	0.31118	0.054863	0.26091	-3.2292	-2.9917	-3.5833	-3.1167	-2.9958	-3.6437	-2.7979	-3.2958	-3.4188	-2.7625	-3.4396	-3.2896	-2.8563	-3.7833	-2.95	-3.2229	307.639	287.919	392.335	222.489	414.725	381.176	103.383	442.723	158.429	270.303	396.961	295.922	391.284	379.806	359.069	278.046	0.0001599	6.7451e-05	4.9174e-05	84.715	1.4702e-06	2.3018e-06	148.57	11.385	2.2039e-06	1.5176e-06	24.545	11.873	6.3253	1.5826	3.6749e-07	4.5327	0.00072569	0.0021032	0.00068376	91.147	2.5048e-05	3.0971e-05	149.29	12.246	2.4082e-05	4.0997e-05	26.101	12.366	7.1528	1.8299	4.3169e-05	4.9373	380.937	450.455	285.571	109.122	99.278	390.498	105.841	115.452	128.127	239.286	112.888	115.623	117.240	121.351	439.010	117.102	-8191	255	
2560.489	1	1	0	0	0.17606	0.1322	0.071961	0.20167	0.15261	0.19639	0.052777	0.019402	0.31047	0.1933	0.13995	0.32486	0.11066	0.16377	0.20717	0.029106	-3.1958	-2.8271	-3.5062	-3.3063	-2.8625	-3.5542	-3.0042	-2.9917	-3.5396	-2.8146	-3.2979	-3.3792	-2.8187	-3.6792	-3.2458	-3.0958	251.055	202.679	251.276	111.441	358.732	317.406	452.046	177.279	440.828	391.900	373.225	161.025	327.208	278.018	445.679	434.666	0.00024436	2.151e-05	7.3965e-05	98.837	1.5327e-06	3.2063e-06	155.11	11.722	3.981e-06	2.5242e-06	25.137	13.025	6.7585	1.6697	1.1295e-06	4.7316	0.0018031	0.0053807	0.0017275	113.04	6.2253e-05	7.7069e-05	161.13	13.951	5.3286e-05	8.613e-05	28.765	14.03	8.4226	2.1009	8.2037e-05	5.4485	407.710	409.725	162.671	110.010	216.729	234.877	106.126	115.637	287.270	316.267	112.946	114.276	115.490	119.925	183.141	116.059	-8191	255	
2560.586	1	1	0	0	0.055998	0.13182	0.18263	0.07573	0.061194	0.15334	0.044056	0.030152	0.12051	0.2303	0.2228	0.18551	0.13807	0.14701	0.26508	0.12313	-3.2479	-2.7917	-3.3771	-3.3438	-2.7375	-3.7104	-3.1188	-2.9062	-3.65	-2.8979	-3.2625	-3.625	-2.7687	-3.5229	-3.1896	-3.1562	440.567	204.599	452.981	209.022	373.583	450.066	364.786	290.074	226.252	424.520	368.531	117.444	140.411	416.043	206.072	121.653	0.00012179	0.00047915	0.00010257	103.85	1.1005e-06	5.3678e-06	155.27	12.636	5.6425e-06	1.9089e-06	25.058	12.623	6.5595	1.5874	2.1716e-06	4.6058	0.0031344	0.009268	0.002824	127.14	9.3832e-05	0.0001128	164.83	15.139	6.9802e-05	0.00011175	29.416	14.053	8.5054	2.0493	7.7301e-05	5.244	124.254	263.632	255.202	109.305	434.872	166.261	106.456	114.654	162.498	138.562	111.263	114.331	114.558	119.414	258.609	116.292	-8191	255	
2560.682	1	1	0	0	0.082717	0.080417	0.094426	0.083037	0.16777	0.029822	0.13725	0.24897	0.28083	0.16846	0.17236	0.24724	0.23201	0.16339	0.097001	0.19372	-3.3563	-2.9188	-3.1729	-3.425	-2.5854	-3.7104	-3.4042	-2.9313	-3.7521	-3.0271	-2.9688	-3.6417	-3.0375	-3.4313	-3.2875	-2.7687	325.419	343.787	376.928	391.961	328.363	383.710	332.992	350.911	377.455	366.407	196.312	365.620	222.416	258.490	238.861	244.029	0.00014847	0.00033062	3.0347e-05	111.54	3.7594e-06	2.5221e-06	167.76	12.725	2.4354e-06	1.4547e-06	25.259	12.759	6.5288	1.5809	1.5215e-06	4.5447	0.0027974	0.0081048	0.0024492	131.89	8.2044e-05	0.00010052	174.2	15.302	6.9177e-05	0.00011617	30.245	14.176	8.855	2.1131	9.1709e-05	5.2138	366.293	123.666	101.356	108.958	308.234	126.145	106.128	114.941	189.179	236.721	111.500	114.766	118.228	120.545	418.691	115.446	-8191	255	
2560.778	1	1	0	0	0.18321	0.095113	0.13012	0.24072	0.10005	0.060389	0.093578	0.13316	0.11136	0.059385	0.048187	0.19258	0.19189	0.062852	0.13252	0.17344	-3.1063	-3.0208	-3.1042	-3.6292	-2.8479	-3.5917	-3.5542	-2.7417	-3.7125	-3.0896	-3.0042	-3.5708	-2.9917	-3.2646	-3.3479	-2.7292	196.272	227.585	292.161	405.316	389.765	199.494	142.248	333.499	387.031	442.058	379.781	446.389	326.681	443.143	279.247	411.679	0.00031247	0.00020667	2.6058e-05	119.95	5.7665e-06	3.5791e-06	176.51	13.002	5.829e-06	1.5519e-06	25.059	12.121	6.0622	1.4577	3.0434e-06	4.3438	0.0033628	0.0097421	0.0028465	143.24	9.3755e-05	0.00010836	184.01	15.412	6.7982e-05	0.00010573	29.543	13.24	8.1262	1.9186	7.5896e-05	4.9517	418.358	286.172	115.537	109.842	162.330	145.108	107.464	115.146	137.692	419.800	111.958	114.888	117.737	121.443	311.234	115.876	-8191	255	
2560.897	1	1	0	0	0.16202	0.1094	0.075629	0.12022	0.15649	0.18434	0.19394	0.13	0.031211	0.14505	0.14748	0.065788	0.16048	0.17328	0.077186	0.11699	-3.3312	-3.1813	-3.0479	-3.5896	-2.7229	-3.5062	-3.6917	-2.6125	-3.5021	-3.3354	-2.7396	-3.6646	-2.9271	-3.175	-3.5125	-2.8854	390.469	442.932	245.903	155.614	127.912	125.948	367.340	128.387	412.369	283.407	362.442	346.138	375.898	388.306	348.085	211.494	0.00015813	7.4819e-05	0.000104	123.6	1.2805e-06	1.6404e-06	185.96	13.252	5.3331e-06	3.6158e-06	26.544	11.985	6.1854	1.5078	2.3416e-06	4.0256	0.0027997	0.0081471	0.0024001	144.69	8.3079e-05	0.00010149	192.53	15.831	6.9263e-05	0.0001096	30.805	13.335	8.1861	1.9956	7.2314e-05	4.6191	415.240	316.540	133.372	109.535	213.800	405.772	106.528	115.216	407.353	386.750	112.886	114.277	117.261	119.109	259.248	117.106	-8191	255	
2560.970	1	1	0	0	0.10069	0.31782	0.12157	0.16027	0.041806	0.24672	0.17728	0.26406	0.31	0.12142	0.05375	0.053587	0.047863	0.19597	0.17604	0.12347	-3.1875	-3.3438	-2.9479	-3.5979	-2.8312	-3.0917	-3.6708	-2.8604	-3.5042	-3.4125	-2.8417	-3.7896	-2.9771	-3.1083	-3.5083	-2.8625	151.260	381.736	106.689	403.870	256.734	306.139	219.974	299.936	383.670	189.374	293.560	305.234	233.269	312.022	452.665	103.681	2.4251e-05	0.00029625	8.4487e-05	128.12	4.2275e-07	4.195e-06	190.86	13.002	5.1979e-06	1.8909e-06	26.678	11.737	5.787	1.6191	1.2444e-06	3.9144	0.0026163	0.0071933	0.0020907	145.03	6.4478e-05	7.5037e-05	195.47	14.839	4.3561e-05	6.7077e-05	29.458	12.427	7.1573	1.9004	4.5884e-05	4.2846	117.885	194.164	194.738	109.027	209.033	121.900	106.441	115.124	231.975	224.478	111.422	114.614	117.835	122.003	429.037	116.895	-8191	255	
2561.065	1	1	0	0	0.079484	0.12884	0.26852	0.068672	0.16958	0.072863	0.16478	0.11518	0.2693	0.088528	0.079219	0.34871	0.1409	0.10254	0.12665	0.16533	-3.1458	-3.3646	-2.75	-3.5687	-3.1729	-3.0625	-3.7792	-2.9104	-3.2938	-3.3979	-2.8125	-3.6667	-3.1063	-2.925	-3.5167	-2.8438	215.233	216.439	427.916	240.333	411.504	323.651	290.871	291.652	134.405	100.327	156.680	364.247	191.142	332.543	330.916	150.182	5.9842e-05	0.00019612	2.9306e-05	128.95	1.8438e-06	9.2965e-07	193.95	13.55	5.5018e-06	2.0055e-06	27.947	11.737	5.8862	1.7712	2.5013e-07	3.929	0.0017395	0.0049934	0.0014819	139.92	4.8583e-05	5.7243e-05	197.76	14.924	3.7197e-05	5.8006e-05	30.629	12.39	7.0231	2.0454	4.3486e-05	4.3058	347.086	263.391	283.353	109.494	252.533	355.410	106.012	115.882	387.772	350.941	112.093	113.889	118.530	121.233	159.751	117.755	-8191	255	
2561.163	1	1	0	0	0.079236	0.21374	0.20164	0.086018	0.022544	0.040401	0.12954	0.20346	0.16723	0.1367	0.17319	0.085284	0.087097	0.25641	0.14589	0.16495	-2.9604	-3.4333	-2.7021	-3.6229	-3.2604	-2.9479	-3.7062	-2.9604	-2.9917	-3.4708	-2.8063	-3.5833	-3.3354	-2.8937	-3.8021	-3.0687	238.035	202.467	349.316	225.486	451.016	304.191	151.006	125.674	264.184	322.591	446.047	261.532	302.434	358.980	231.840	333.620	0.00011064	0.00031479	9.1848e-06	130.03	1.6091e-06	2.6998e-06	198.96	13.282	2.1807e-06	1.5703e-06	28.672	12.071	6.0965	1.9105	7.2169e-07	4.0156	0.0016478	0.0048331	0.0014344	142.37	4.744e-05	5.6912e-05	201.51	14.79	3.4959e-05	5.6389e-05	30.846	12.534	7.059	2.1613	3.996e-05	4.3299	359.372	194.134	451.297	110.099	142.571	242.442	105.979	115.454	239.817	166.133	111.916	115.065	117.015	120.224	287.370	118.251	-8191	255	
2561.281	1	1	0	0	0.1264	0.077144	0.16259	0.36928	0.20741	0.14963	0.073211	0.21315	0.036712	0.14062	0.062963	0.050738	0.080683	0.17765	0.22562	0.057129	-2.9354	-3.7	-2.8146	-3.5229	-3.2708	-2.9479	-3.7583	-3.0625	-3.125	-3.6792	-3.1312	-3.4146	-3.65	-2.675	-3.725	-3.3021	241.516	172.965	361.990	241.869	240.758	257.763	147.423	455.580	254.530	436.633	413.176	284.220	412.724	383.105	212.745	446.604	0.00022958	0.00032242	9.8568e-05	138.47	6.0727e-07	1.75e-06	201.45	14.07	2.7379e-06	5.0539e-07	28.699	12.265	6.3277	2.0575	7.498e-07	4.2659	0.001574	0.0044961	0.0013903	150.28	4.8583e-05	6.0411e-05	204.3	15.794	3.8681e-05	6.2625e-05	31.716	13.044	7.5257	2.3583	4.7201e-05	4.6431	393.757	410.809	119.554	109.334	406.182	156.681	106.318	114.473	322.970	170.902	111.698	114.659	118.243	120.133	265.252	118.334	-8191	255	
2561.378	1	1	0	0	0.3874	0.11732	0.3395	0.19196	0.19108	0.11531	0.10092	0.15045	0.023969	0.089957	0.16448	0.11126	0.12935	0.27099	0.02231	0.090344	-2.7208	-3.725	-2.9354	-3.4396	-3.5167	-2.8729	-3.6917	-3.2979	-3.25	-3.8854	-2.9479	-3.2896	-3.5875	-2.6854	-3.4958	-3.2646	406.973	416.004	269.784	444.477	146.498	233.230	380.868	228.097	391.256	114.340	437.309	349.354	189.501	357.664	370.767	416.948	0.00013298	0.00025053	8.958e-05	139.05	8.3913e-07	2.1916e-06	198.83	15.169	9.1762e-07	1.9378e-06	29.273	12.574	6.3139	2.0191	3.0538e-06	4.0969	0.0018789	0.0052995	0.0015862	152.88	5.3253e-05	6.2784e-05	203.67	16.6	3.7831e-05	5.9534e-05	31.554	13.24	7.3633	2.2845	3.7117e-05	4.4245	423.582	314.396	302.873	110.438	405.495	145.505	106.769	115.160	241.958	353.908	111.396	114.310	116.588	120.271	246.313	116.666	-8191	255	
2561.474	1	1	0	0	0.13607	0.21021	0.10699	0.11563	0.0087344	0.17683	0.23869	0.15806	0.12081	0.17384	0.16731	0.15552	0.17757	0.27938	0.27126	0.076193	-2.5479	-3.6396	-3.0771	-3.3083	-3.4604	-2.9188	-3.6021	-3.2667	-3.0083	-3.8125	-3.0208	-3.2	-3.5312	-2.8458	-3.4938	-3.3	428.808	432.051	147.148	157.868	236.174	184.844	226.083	277.460	123.255	287.760	183.354	172.857	209.402	428.219	435.178	345.407	0.0001647	7.581e-05	4.3066e-05	138.56	3.731e-06	1.6327e-06	196.5	15.02	7.1648e-07	2.0717e-06	29.228	12.774	6.5214	2.0315	9.5586e-07	3.9322	0.0013234	0.0036161	0.0010898	146.99	3.4517e-05	4.2313e-05	200.04	15.926	2.7113e-05	4.2243e-05	30.614	13.282	7.2613	2.2108	2.7406e-05	4.2268	414.239	97.872	259.202	108.611	194.712	432.097	106.629	114.276	420.886	239.721	111.404	114.482	116.790	121.309	441.930	117.200	-8191	255	
2561.570	1	1	0	0	0.24694	0.090616	0.23029	0.25633	0.11126	0.04655	0.12427	0.091012	0.12493	0.13656	0.1882	0.25148	0.21337	0.16301	0.22258	0.14185	-2.3937	-3.6667	-3.0438	-3.0771	-3.5979	-3.0979	-3.1667	-3.5854	-2.8271	-3.6667	-3	-3.0312	-3.5708	-2.7521	-3.1875	-3.5333	214.275	158.612	420.759	182.248	158.298	363.305	425.833	418.064	397.134	124.090	354.230	281.601	326.932	248.632	105.813	319.082	0.0001962	0.00016293	3.6994e-05	136.5	7.5819e-07	5.6735e-07	195.81	14.785	6.0953e-07	1.7774e-06	28.269	13.043	6.5863	1.9865	8.6256e-07	3.965	0.0010486	0.0028286	0.00084781	142.47	2.6188e-05	3.1289e-05	196.78	15.306	1.9937e-05	2.9106e-05	29.19	13.221	7.0638	2.117	2.0195e-05	4.1453	383.324	197.916	335.671	109.542	335.297	193.329	106.411	114.113	249.139	274.396	111.657	115.207	116.770	120.899	149.463	117.934	-8191	255	
2561.666	1	1	0	0	0.15539	0.15954	0.21881	0.09657	0.2596	0.2084	0.29869	0.099235	0.26178	0.19548	0.072581	0.22257	0.036506	0.037893	0.15778	0.22926	-2.4562	-3.5083	-3.2521	-2.8479	-3.6458	-3.1583	-3.1937	-3.5583	-3.0208	-3.4562	-3.2208	-2.8625	-3.7208	-3.0646	-3.225	-3.6042	235.422	385.475	278.891	250.703	102.023	307.357	358.495	120.320	373.174	186.947	436.210	112.771	233.613	389.465	432.171	450.191	0.00010172	0.00012889	2.6171e-05	129.9	8.2298e-07	1.4842e-06	194.04	14.363	2.2638e-06	2.4271e-06	27.747	12.872	6.355	1.9165	2.2755e-06	3.9348	0.00079527	0.0022263	0.00065166	136.74	2.1652e-05	2.6701e-05	193.72	14.833	1.746e-05	2.6505e-05	28.714	12.958	6.8262	2.0447	1.8191e-05	4.039	369.202	212.050	296.545	110.128	104.830	216.376	106.524	114.803	195.379	220.505	111.643	115.136	116.793	119.891	248.587	117.136	-8191	255	
2561.762	1	1	0	0	0.23912	0.19534	0.05032	0.15552	0.055084	0.12794	0.080517	0.16054	0.19112	0.047535	0.19572	0.046672	0.076988	0.14587	0.13983	0.12261	-2.6167	-3.3104	-3.4146	-2.9625	-3.65	-3.1458	-3.0521	-3.6958	-2.8083	-3.5583	-3.4333	-2.7958	-3.65	-3.0458	-3.0479	-3.7458	177.600	184.794	443.986	398.997	225.620	327.134	374.378	245.152	251.928	418.283	125.676	152.134	425.279	312.593	253.229	425.584	0.00016373	2.4888e-05	2.5947e-05	127.69	6.7312e-07	1.7395e-06	184.9	13.688	2.7701e-06	1.1074e-06	26.576	12.302	6.2821	1.8879	2.0525e-06	3.8925	0.00071884	0.0018609	0.00056488	132.69	1.9291e-05	2.3502e-05	186.91	14.137	1.5115e-05	2.3147e-05	27.469	12.573	6.6217	1.9828	1.7056e-05	3.9663	385.810	426.056	274.281	109.728	287.441	397.260	106.279	115.275	264.542	155.881	112.263	115.341	117.871	120.492	224.685	117.594	-8191	255	
2561.883	1	1	0	0	0.29762	0.19281	0.1347	0.14122	0.22602	0.042849	0.2019	0.094018	0.068459	0.18032	0.18989	0.21801	0.18062	0.42638	0.18357	0.016447	-2.5646	-3.2896	-3.4396	-2.7812	-3.7292	-3.1042	-2.925	-3.5396	-2.9021	-3.3271	-3.5229	-2.8729	-3.6125	-3.0979	-2.9771	-3.7313	371.536	273.591	425.990	226.744	216.809	424.612	380.790	136.210	241.079	205.736	406.634	312.283	433.993	153.874	305.614	273.786	0.00012963	5.5966e-05	1.3472e-05	124.31	9.9116e-07	1.594e-06	184.26	13.008	3.8387e-07	1.5245e-06	25.938	12.184	6.2391	1.8204	7.0778e-07	3.6857	0.00067508	0.0017969	0.00052344	128.79	1.7862e-05	2.1333e-05	184.57	13.733	1.3812e-05	2.2182e-05	26.992	12.314	6.5151	1.934	1.6068e-05	3.8898	413.670	311.354	194.823	108.568	186.442	226.828	106.269	113.579	420.798	320.645	112.533	114.978	118.730	120.420	283.089	117.989	-8191	255	
2561.977	1	1	0	0	0.32438	0.22697	0.072517	0.21265	0.21934	0.053035	0.076596	0.10542	0.12127	0.18994	0.10343	0.082672	0.29574	0.14546	0.050133	0.16872	-2.6375	-3.1458	-3.7062	-2.8917	-3.4917	-3.3771	-2.7625	-3.5708	-3.1937	-3.1042	-3.6083	-2.7646	-3.4125	-3.1667	-2.7104	-3.6625	204.660	177.030	387.838	176.189	358.590	302.312	437.958	370.022	346.125	174.130	174.285	319.162	294.164	302.665	340.009	408.073	0.00011163	9.9696e-05	1.3406e-05	121.75	6.6381e-07	1.4107e-06	180.92	13.108	3.9032e-06	2.0076e-06	26.302	12.013	6.0006	1.8061	1.0394e-06	3.7095	0.00063572	0.0016902	0.00047832	126.09	1.7472e-05	1.976e-05	181.75	13.515	1.3068e-05	2.0307e-05	26.724	12.139	6.3224	1.8983	1.4755e-05	3.862	395.811	434.047	357.005	109.403	262.579	222.159	106.176	114.043	226.975	169.673	112.194	114.306	117.318	121.898	221.483	117.489	-8191	255	
2562.073	1	1	0	0	0.055372	0.12887	0.15233	0.2806	0.10181	0.028506	0.095406	0.21808	0.084022	0.18121	0.10888	0.11257	0.091295	0.1099	0.10513	0.26147	-2.6396	-3.025	-3.4875	-2.7	-3.4854	-3.4833	-2.8667	-3.6208	-3.1208	-3.1188	-3.8167	-2.95	-3.4146	-3.5208	-2.9062	-3.5312	453.338	264.134	388.538	283.651	424.052	375.102	360.424	401.269	115.803	145.177	199.274	135.947	274.050	157.635	252.287	351.256	0.00013331	3.887e-05	4.678e-05	115.3	9.8862e-07	9.1345e-08	176.05	12.677	2.8058e-06	1.5614e-06	25.291	11.669	6.0115	1.7583	1.2584e-06	3.654	0.00055763	0.0015225	0.00044902	119.77	1.5104e-05	1.7805e-05	177.28	13.109	1.1652e-05	1.8064e-05	25.966	11.845	6.2027	1.8668	1.2718e-05	3.8357	385.327	303.545	153.855	109.128	287.925	351.272	106.790	115.771	171.849	229.500	112.310	115.307	118.812	120.491	278.163	117.787	-8191	255	
2562.194	1	1	0	0	0.22965	0.29615	0.33165	0.1367	0.24816	0.19107	0.11032	0.10252	0.15735	0.11232	0.21139	0.18881	0.27125	0.15792	0.25516	0.22282	-2.825	-3.0312	-3.6604	-2.9354	-3.1833	-3.6875	-2.8333	-3.5583	-3.2313	-2.8875	-3.7938	-2.9875	-3.1063	-3.3875	-2.9542	-3.6333	240.030	393.139	439.872	335.158	392.099	232.168	263.040	288.411	103.435	108.751	266.447	374.253	455.006	402.601	106.536	436.868	8.3166e-05	0.00013609	2.5717e-05	110.72	9.3719e-07	1.8759e-06	175.95	12.402	2.7695e-06	1.4753e-06	25.673	11.591	5.8833	1.7302	1.3022e-06	3.7164	0.0005257	0.0014171	0.00042115	114.63	1.445e-05	1.6741e-05	174.5	12.756	1.1505e-05	1.8207e-05	25.926	11.677	6.1376	1.832	1.3156e-05	3.8354	397.582	174.860	161.424	109.772	130.802	172.132	106.470	115.238	231.187	398.935	111.193	114.808	117.625	121.026	295.994	117.501	-8191	255	
2562.266	1	1	0	0	0.058775	0.15847	0.072898	0.075065	0.075275	0.095933	0.27038	0.28295	0.19355	0.24996	0.12505	0.23297	0.21455	0.2129	0.10026	0.11328	-2.9458	-2.75	-3.5167	-3.0021	-3.125	-3.7833	-2.8604	-3.45	-3.3604	-3.0687	-3.7708	-3.1542	-3.0146	-3.7854	-2.9958	-3.4604	199.852	334.051	429.223	123.795	455.217	410.917	142.161	329.718	430.580	241.818	411.014	402.800	257.459	352.338	210.475	440.021	6.6925e-05	0.00011429	4.7911e-05	106.21	1.0923e-06	1.0558e-06	171.6	12.153	2.5798e-06	9.2211e-07	25.192	11.462	5.8732	1.7331	2.9201e-07	3.689	0.00050096	0.0013747	0.00038398	110.02	1.3803e-05	1.578e-05	172	12.632	9.9095e-06	1.7161e-05	25.687	11.665	6.1682	1.8342	1.2521e-05	3.826	408.275	184.579	230.524	109.394	293.933	99.982	106.546	115.828	269.301	237.066	112.234	115.142	116.346	119.146	311.496	117.489	-8191	255	
2562.362	1	1	0	0	0.12794	0.18658	0.25703	0.087175	0.078294	0.35189	0.027059	0.082174	0.20326	0.060021	0.28423	0.10583	0.14229	0.27238	0.22994	0.30071	-3.1396	-2.8604	-3.5771	-3.2292	-3.0458	-3.7771	-2.9896	-3.3729	-3.4271	-2.9188	-3.6792	-3.2062	-3.0708	-3.7417	-3.1104	-3.2958	411.318	247.241	233.471	312.253	218.898	169.083	347.319	142.706	183.960	166.248	402.594	399.999	116.721	278.420	441.874	335.608	0.0001701	5.0106e-05	4.7425e-05	104.85	1.589e-06	8.7213e-07	171.52	12.308	1.2094e-06	1.0263e-06	25.122	11.555	5.8923	1.7635	9.9392e-07	3.6927	0.00049577	0.0013326	0.00040857	108.39	1.3609e-05	1.5805e-05	171.11	12.519	1.0692e-05	1.7965e-05	25.757	11.679	6.1282	1.8496	1.2519e-05	3.8697	369.366	218.113	335.859	108.504	301.109	418.680	105.627	115.461	199.542	332.161	113.617	115.041	116.839	120.996	264.434	118.501	-8191	255	
2562.458	1	1	0	0	0.12563	0.24257	0.12374	0.11658	0.063753	0.1893	0.18446	0.12273	0.077072	0.071081	0.13251	0.14657	0.11423	0.12428	0.086025	0.16796	-3.2646	-2.8	-3.5854	-3.1625	-2.8812	-3.8292	-2.8958	-3.1937	-3.7104	-2.8917	-3.5479	-3.3187	-3.0292	-3.6813	-2.9958	-3.0583	127.395	239.675	205.860	145.382	272.622	139.268	333.433	350.559	166.996	367.586	291.185	194.574	237.092	103.970	347.037	294.257	0.00014777	0.00012163	4.9743e-05	106.56	2.3343e-06	2.0201e-06	172.36	12.353	2.5371e-06	7.857e-07	25.227	11.343	6.0034	1.7837	1.0239e-06	3.7713	0.00051523	0.0013457	0.00039547	108.7	1.3087e-05	1.5888e-05	170.64	12.629	1.0678e-05	1.6675e-05	25.725	11.675	6.1894	1.8488	1.2154e-05	3.8722	410.563	234.714	252.374	109.502	188.970	272.095	106.380	115.868	441.717	294.021	113.443	115.661	116.733	120.614	101.261	118.166	-8191	255	
2562.579	1	1	0	0	0.30717	0.21913	0.010394	0.14983	0.058925	0.073064	0.1427	0.18211	0.11125	0.011947	0.19273	0.21842	0.15545	0.14028	0.11853	0.058142	-3.125	-2.9292	-3.5292	-3.2896	-2.9896	-3.6396	-3.0979	-3.1063	-3.6708	-3.0271	-3.3729	-3.5479	-3	-3.7729	-3.0833	-3.1042	255.880	430.220	446.430	409.276	329.238	347.435	110.735	199.380	233.225	236.808	332.217	155.585	337.305	396.521	229.320	327.717	0.00018185	0.0001116	1.7231e-05	104.2	8.5647e-07	3.996e-07	170.96	12.072	1.66e-06	2.1399e-06	25.379	11.47	5.8954	1.8046	2.4298e-06	3.752	0.00048027	0.0012913	0.00037634	107.95	1.3009e-05	1.4996e-05	169.47	12.333	9.6028e-06	1.6697e-05	25.695	11.651	6.1716	1.8632	1.1906e-05	3.8821	381.574	225.647	376.952	108.511	251.466	272.697	106.830	114.855	204.565	344.644	112.462	115.885	118.676	121.472	153.136	118.488	-8191	255	
2562.675	1	1	0	0	0.066314	0.17905	0.10669	0.077694	0.22952	0.13801	0.03307	0.050643	0.19127	0.15948	0.04881	0.15296	0.12258	0.1274	0.091059	0.15304	-3.2417	-2.9271	-3.3146	-3.4813	-2.8708	-3.5854	-3.3167	-2.9146	-3.5563	-3.0625	-3.3854	-3.6417	-2.9083	-3.5	-3.4104	-2.8479	232.831	390.147	295.731	320.676	444.454	293.244	208.727	355.340	405.476	173.564	187.666	123.577	196.441	310.236	456.932	150.719	0.00020356	0.00012672	3.8602e-05	106.73	6.9755e-07	2.7712e-07	169.6	12.369	9.6885e-07	5.6215e-07	25.539	11.564	5.9957	1.7592	2.4435e-06	3.7636	0.00049299	0.0013033	0.00039416	109.54	1.3294e-05	1.4939e-05	171.27	12.511	9.5592e-06	1.7271e-05	25.958	11.707	6.1806	1.8537	1.153e-05	3.883	393.396	155.158	152.112	109.778	375.851	240.301	106.736	115.607	333.861	422.502	111.463	114.908	116.728	121.263	283.186	119.301	-8191	255	
2562.771	1	1	0	0	0.22599	0.076195	0.11383	0.017448	0.10442	0.059108	0.16547	0.10377	0.2613	0.071653	0.058179	0.18345	0.11838	0.12875	0.14207	0.035509	-3.4479	-2.8688	-3.4021	-3.7021	-2.9875	-3.6896	-3.3187	-2.9271	-3.6854	-3.1437	-3.275	-3.6813	-3.1042	-3.4604	-3.3979	-2.9417	280.746	353.500	133.969	142.264	352.025	208.141	413.111	453.962	333.159	303.644	323.068	410.885	365.672	118.967	350.163	235.811	0.00013421	5.8068e-05	5.3513e-05	107.27	1.3922e-06	1.004e-06	171.82	11.744	3.6409e-06	1.7765e-06	25.237	11.678	5.9262	1.8156	1.644e-07	3.7789	0.00047279	0.0013053	0.00038049	109.91	1.3003e-05	1.5095e-05	170.59	12.328	9.8245e-06	1.6515e-05	26.075	11.807	6.2148	1.881	1.1809e-05	3.9366	410.152	340.610	226.683	109.670	162.162	386.105	106.384	115.414	281.658	305.195	112.584	115.907	118.927	120.878	262.148	118.954	-8191	255	
2562.843	1	1	0	0	0.057301	0.21549	0.11465	0.2181	0.21877	0.090009	0.20838	0.099535	0.17011	0.071025	0.097019	0.089185	0.098681	0.11944	0.040995	0.10527	-3.2687	-3.0854	-3.0958	-3.5438	-2.9313	-3.4646	-3.525	-2.9167	-3.6542	-3.2375	-3.2167	-3.575	-2.9042	-3.3187	-3.4625	-2.9437	193.747	335.468	353.559	435.308	129.924	330.948	106.679	191.762	192.455	122.643	169.573	394.706	209.177	235.698	423.514	377.736	0.0001766	0.00011168	1.9119e-05	106.82	4.299e-07	2.0857e-07	171.48	12.203	1.0019e-06	2.5085e-06	25.597	11.612	5.7705	1.8144	5.9938e-07	3.7064	0.00048614	0.0013114	0.00036839	110.14	1.3935e-05	1.6212e-05	171.22	12.456	1.0241e-05	1.6396e-05	25.915	11.816	6.1631	1.8733	1.079e-05	3.8695	392.829	214.480	336.495	110.631	364.299	357.522	106.449	115.674	449.368	427.881	112.815	116.148	118.693	120.934	268.236	118.858	-8191	255	
2562.961	1	1	0	0	0.034577	0.013899	0.23987	0.20597	0.28005	0.068029	0.14283	0.1836	0.11339	0.10614	0.18191	0.085672	0.15857	0.22205	0.29749	0.1726	-3.2792	-3.2	-2.8417	-3.5625	-2.9229	-3.3854	-3.6208	-2.8792	-3.5333	-3.1688	-2.8688	-3.5146	-2.8063	-3.2083	-3.4708	-2.8292	376.894	263.492	255.886	295.077	294.739	303.296	393.360	229.194	190.229	393.123	382.593	187.238	142.531	219.159	392.187	400.523	0.00017925	0.0002149	2.1885e-05	108.46	2.5157e-06	1.5812e-06	171.53	12.032	1.2593e-06	8.5105e-07	25.279	11.557	5.9346	1.7855	1.1559e-06	3.7671	0.00045739	0.001282	0.00037438	110.98	1.3417e-05	1.6235e-05	170.58	12.391	1.0246e-05	1.6726e-05	25.733	11.741	6.2243	1.8871	1.2162e-05	3.8613	376.829	195.759	330.640	109.251	452.883	312.927	106.528	116.803	115.847	173.612	114.184	114.896	117.946	122.074	260.828	118.693	-8191	255	
2563.058	1	1	0	0	0.10687	0.23712	0.056453	0.13923	0.3088	0.12276	0.25138	0.1431	0.081983	0.1334	0.17413	0.21578	0.23082	0.13049	0.094365	0.36459	-3.1854	-3.3146	-2.8125	-3.5625	-3.0417	-3.1083	-3.5854	-3.0229	-3.3417	-3.55	-2.8354	-3.6396	-3.0333	-3.0687	-3.6354	-2.6875	156.514	443.460	104.204	106.078	421.661	196.566	405.519	244.667	271.122	447.859	131.877	397.348	385.772	229.884	346.986	382.249	0.00012191	0.00020444	1.9284e-05	107.84	3.8446e-07	1.5081e-06	171.06	12.045	2.719e-06	1.4279e-06	25.369	11.645	5.9589	1.8143	1.1383e-06	3.8472	0.00050668	0.0013152	0.0004391	111.08	1.3533e-05	1.7033e-05	171.43	12.429	1.0875e-05	1.618e-05	25.855	11.832	6.2029	1.8952	1.2607e-05	3.9185	409.916	142.748	417.816	109.584	301.042	188.794	106.576	115.028	247.441	111.444	113.359	116.310	117.405	122.536	348.041	118.888	-8191	255	
2563.155	1	1	0	0	0.15126	0.053532	0.12637	0.13236	0.14413	0.08976	0.23247	0.18877	0.28396	0.26742	0.18373	0.17773	0.07453	0.14233	0.23365	0.095391	-3.0292	-3.3125	-2.7708	-3.625	-3.1625	-3.0125	-3.7729	-3.0458	-3.4125	-3.5687	-3.1	-3.7417	-3.3458	-3.0271	-3.6958	-2.9875	111.064	425.516	331.410	318.894	183.796	324.247	138.383	166.521	337.881	369.626	243.633	301.336	338.718	219.740	323.658	416.815	0.00014407	7.007e-05	5.6661e-05	106.7	5.1954e-07	1.9649e-06	171.7	11.865	7.9175e-07	7.0766e-07	24.863	11.852	5.9143	1.8262	7.506e-07	3.8382	0.00052599	0.0013146	0.00040368	111.16	1.3169e-05	1.6357e-05	171.05	12.317	1.0997e-05	1.5954e-05	25.753	11.935	6.1642	1.8995	1.2385e-05	3.9544	372.585	186.309	128.597	109.868	344.312	260.706	106.404	116.403	372.726	355.945	113.694	115.566	118.209	122.229	189.085	118.710	-8191	255	
2563.274	1	1	0	0	0.052512	0.080884	0.16016	0.09234	0.16572	0.095909	0.068546	0.26199	0.077586	0.16482	0.1828	0.05896	0.076933	0.17028	0.033561	0.31171	-2.7333	-3.6021	-2.75	-3.5958	-3.3271	-2.8833	-3.75	-3.0729	-3.2479	-3.6083	-2.9333	-3.6312	-3.4667	-2.9271	-3.7125	-3.1104	228.231	367.681	225.201	347.231	401.597	272.534	172.675	172.120	441.664	166.679	157.360	446.129	293.773	191.724	175.720	167.521	0.00016217	0.00012025	1.9035e-05	109.32	4.0132e-07	1.5466e-06	173.11	11.907	2.0244e-06	1.699e-06	25.079	11.64	5.9976	1.8076	2.1249e-06	3.7653	0.00050976	0.0012961	0.00042412	111.51	1.3445e-05	1.7149e-05	171.33	12.357	1.0383e-05	1.6209e-05	25.544	11.887	6.2527	1.8904	1.208e-05	3.8996	403.589	204.351	442.128	110.555	210.237	167.724	106.514	115.452	338.926	240.804	112.994	116.059	118.258	121.633	127.981	119.199	-8191	255	
2563.371	1	1	0	0	0.17207	0.16857	0.095724	0.14639	0.15999	0.042702	0.27449	0.14427	0.038636	0.17154	0.050962	0.13244	0.06791	0.02972	0.22233	0.10383	-2.625	-3.6792	-2.8479	-3.2625	-3.4646	-2.9604	-3.7938	-3.2188	-3.15	-3.5875	-3.0333	-3.3	-3.4542	-2.8333	-3.6083	-3.2458	443.959	119.192	393.622	186.087	455.870	441.755	251.720	325.534	263.186	234.588	208.029	228.982	149.823	277.514	99.366	108.287	0.00012489	0.00014876	1.9275e-05	107.5	9.2021e-07	1.2872e-06	169.26	11.899	3.4206e-06	9.9178e-07	24.231	11.848	5.948	1.7938	2.5777e-07	3.8274	0.00050956	0.0013207	0.00038551	110.61	1.2891e-05	1.7472e-05	169.53	12.245	1.0983e-05	1.6174e-05	25.3	11.915	6.2605	1.9067	1.2338e-05	3.9001	412.023	247.086	118.290	111.539	353.362	290.750	107.071	116.776	227.078	305.533	112.624	116.100	117.870	121.783	323.392	119.372	-8191	255	
2563.467	1	1	0	0	0.34374	0.17171	0.099561	0.33315	0.20332	0.15662	0.25672	0.10403	0.12019	0.068278	0.12758	0.10951	0.083421	0.24163	0.091071	0.20124	-2.5146	-3.675	-2.8667	-3.3438	-3.4042	-2.9083	-3.5521	-3.3312	-3.0396	-3.7812	-2.9896	-3.1917	-3.6729	-2.7604	-3.5271	-3.4875	304.177	117.884	343.112	136.192	170.104	288.462	371.327	357.935	185.244	142.069	200.768	192.869	456.676	299.310	386.186	298.598	0.00011222	0.00021039	1.1408e-05	109.15	1.4915e-06	7.5284e-07	170.92	11.718	2.4654e-06	8.3514e-07	24.521	11.78	5.9086	1.824	1.6851e-06	3.7987	0.00052066	0.0012998	0.00041294	110.39	1.287e-05	1.6773e-05	168.8	12.275	9.898e-06	1.5969e-05	25.406	11.998	6.1605	1.9028	1.1339e-05	3.9176	400.218	156.501	182.521	110.576	381.808	123.318	107.357	115.332	300.070	125.347	112.198	117.058	118.531	121.224	272.640	118.288	-8191	255	
2563.563	1	1	0	0	0.12409	0.15496	0.17602	0.16591	0.12364	0.047958	0.11566	0.11312	0.30494	0.28395	0.2097	0.1064	0.14443	0.15593	0.13536	0.21818	-2.4458	-3.6562	-2.9542	-3.1771	-3.5771	-2.8354	-3.4292	-3.45	-2.7812	-3.7104	-3.1333	-2.9854	-3.6208	-2.9625	-3.4333	-3.2979	388.730	386.543	337.342	341.414	349.000	351.198	368.645	322.886	351.119	344.825	143.846	366.363	308.463	292.819	439.634	155.696	0.00016784	6.6303e-05	8.3294e-06	107.2	2.548e-06	6.1532e-07	169.4	11.559	1.9772e-06	1.2956e-06	25.521	12.016	5.9562	1.799	1.5822e-06	3.8583	0.00048624	0.0011993	0.00037097	108.97	1.2678e-05	1.6164e-05	168.14	12.114	1.0377e-05	1.5594e-05	25.619	12.079	6.2266	1.8993	1.0332e-05	3.959	411.221	386.482	441.986	109.942	260.873	260.448	106.798	115.620	182.512	257.704	113.598	116.509	120.054	122.010	135.448	118.004	-8191	255	
2563.659	1	1	0	0	0.31705	0.06222	0.346	0.16834	0.11632	0.094285	0.12791	0.17469	0.26006	0.056888	0.16215	0.10577	0.067401	0.080997	0.18211	0.10866	-2.4458	-3.5062	-2.8792	-2.7354	-3.4167	-2.8833	-3.3604	-3.4229	-2.7604	-3.5896	-3.1875	-2.9854	-3.5667	-2.8875	-3.225	-3.5917	180.054	347.931	120.329	426.353	300.375	436.254	408.449	346.257	134.342	420.895	372.714	330.145	229.893	108.981	321.996	132.618	0.00011455	5.5217e-05	4.7112e-05	104.09	1.1923e-06	7.7067e-08	166.99	11.403	1.8661e-06	8.8079e-07	24.644	11.788	5.9739	1.7691	2.3767e-06	3.8393	0.00044423	0.0011591	0.00034276	107.43	1.0991e-05	1.5072e-05	165.87	11.942	9.4064e-06	1.3884e-05	25.522	11.991	6.173	1.8589	1.0471e-05	3.9307	375.656	137.925	205.459	109.448	163.863	359.378	106.325	116.222	195.137	395.706	112.337	116.054	117.861	120.769	431.698	117.733	-8191	255	
2563.755	1	1	0	0	0.24655	0.080135	0.073044	0.098334	0.18339	0.10025	0.12383	0.086158	0.14282	0.12067	0.084319	0.32564	0.22419	0.092249	0.080589	0.13643	-2.4021	-3.4313	-3.2521	-2.9562	-3.6479	-3.125	-3.2604	-3.5958	-2.9896	-3.45	-3.3021	-3.025	-3.7708	-3.0062	-3.0854	-3.85	436.140	373.469	191.113	167.248	185.541	360.800	304.463	333.203	104.147	454.323	316.135	441.056	398.519	162.291	332.350	226.842	0.00016611	0.00015493	1.1788e-05	101.52	6.4167e-07	8.1073e-07	162.55	11.594	2.7207e-06	1.314e-06	25.088	11.805	5.9522	1.7912	2.9263e-06	3.8537	0.00042394	0.0010684	0.00032105	104.27	1.0505e-05	1.2839e-05	162.64	11.727	8.3498e-06	1.2425e-05	25.196	11.978	6.1622	1.8776	9.1625e-06	3.9696	376.540	357.535	311.677	110.624	108.002	302.249	106.587	115.722	279.753	314.178	112.368	115.527	118.437	120.277	327.160	117.806	-8191	255	
2563.876	1	1	0	0	0.34521	0.06729	0.32981	0.38905	0.025279	0.23028	0.31525	0.33111	0.22054	0.087663	0.10172	0.392	0.25172	0.035046	0.010508	0.19424	-2.5687	-3.4229	-3.3042	-2.9083	-3.5771	-3.0333	-3.0479	-3.6937	-2.8542	-3.3708	-3.4375	-3.0062	-3.5208	-3.1458	-2.8979	-3.6625	286.247	421.703	142.746	135.563	387.271	159.175	377.624	334.945	153.621	244.631	388.927	103.605	367.149	188.449	282.265	205.329	0.000102	4.4739e-05	2.5026e-05	99.192	6.8335e-07	2.0721e-06	162.44	11.756	8.2158e-07	6.3942e-07	24.765	12.094	6.0354	1.8507	8.68e-07	3.8535	0.00039172	0.0009914	0.00027995	102.02	9.749e-06	1.1609e-05	161.79	11.891	7.6354e-06	1.2098e-05	25.263	12.158	6.1628	1.8822	9.1975e-06	3.9845	396.527	231.160	379.959	109.295	239.714	339.309	106.620	116.735	300.665	178.607	112.963	115.986	116.769	121.789	242.936	118.399	-8191	255	
2563.970	1	1	0	0	0.17649	0.19768	0.30299	0.10304	0.20266	0.043019	0.082564	0.12784	0.11378	0.080538	0.12325	0.27212	0.14678	0.29329	0.036968	0.21056	-2.3833	-3.3896	-3.5729	-2.8021	-3.5542	-3.2812	-3.0875	-3.6083	-3.0167	-3.2646	-3.7167	-2.8396	-3.5854	-3.2542	-2.8375	-3.6729	107.736	458.104	99.508	327.676	241.970	350.707	221.670	239.558	410.648	102.929	191.518	307.922	447.743	131.389	315.660	164.355	0.00010352	0.00010662	1.4223e-05	102	6.2964e-07	7.3725e-07	162.08	11.744	1.6708e-06	1.1719e-07	24.498	12.046	6.1441	1.8034	1.0462e-06	3.8641	0.00040429	0.0009395	0.00026702	102.28	9.9705e-06	1.1565e-05	162.14	11.894	8.0661e-06	1.1385e-05	25.338	12.13	6.2674	1.8729	8.5966e-06	3.9872	401.293	359.785	202.826	109.564	282.963	409.880	106.868	116.499	182.823	284.643	112.448	115.666	117.606	120.651	275.977	118.919	-8191	255	
2564.066	1	1	0	0	0.13378	0.20389	0.12371	0.10481	0.24898	0.085969	0.17688	0.12096	0.057856	0.19252	0.051219	0.082468	0.1467	0.18722	0.3145	0.089917	-2.5917	-3.0771	-3.5167	-2.9188	-3.4125	-3.3792	-2.9021	-3.7625	-3.0625	-3.2083	-3.7438	-2.8812	-3.5083	-3.4875	-2.9042	-3.5438	370.823	232.883	174.886	421.828	387.648	199.072	262.030	311.287	403.568	380.288	294.114	191.418	147.757	406.018	352.606	133.464	0.00019643	4.6886e-05	1.938e-05	99.42	7.1461e-07	8.262e-07	162.36	11.735	3.1358e-06	5.4533e-07	24.953	11.786	5.9703	1.8041	1.0357e-06	3.7867	0.00036967	0.00092827	0.00026668	101.24	9.1658e-06	1.1397e-05	162.06	11.916	7.1783e-06	1.1475e-05	25.337	11.924	6.088	1.8661	8.9623e-06	3.9137	402.913	363.213	204.612	110.778	256.751	198.452	105.843	115.853	190.036	356.426	112.506	116.178	117.670	120.422	449.706	118.447	-8191	255	
2564.138	1	1	0	0	0.16022	0.23809	0.24543	0.26735	0.26344	0.088988	0.025986	0.21332	0.23905	0.25719	0.20487	0.085978	0.097902	0.11902	0.15778	0.1401	-2.7438	-3.2646	-3.6146	-2.775	-3.4	-3.6917	-2.8458	-3.6604	-3.0521	-3.0896	-3.6625	-2.9208	-3.3354	-3.425	-2.8479	-3.6375	121.103	357.198	106.512	161.054	244.521	234.838	161.487	359.563	358.641	158.073	104.258	413.734	193.901	168.830	418.825	165.490	0.00017023	4.5965e-05	5.2268e-05	97.953	7.3268e-07	6.3897e-07	162.83	11.756	1.036e-06	8.2701e-07	24.344	11.814	5.9772	1.7449	2.2234e-06	3.8634	0.00037343	0.0009742	0.0002796	101.25	9.4656e-06	1.1038e-05	161.63	11.985	7.0933e-06	1.1568e-05	25.011	11.906	6.1065	1.838	9.6908e-06	3.9144	380.944	262.288	211.431	111.021	251.672	253.650	106.999	115.331	240.085	325.684	111.778	115.638	118.660	121.999	224.683	117.463	-8191	255	
2564.259	1	1	0	0	0.12435	0.22025	0.12472	0.33272	0.13803	0.13919	0.10767	0.27158	0.06779	0.19007	0.042887	0.29017	0.24157	0.12013	0.051562	0.12405	-2.7917	-3.1104	-3.5792	-3.1271	-3.2917	-3.6479	-2.7979	-3.6375	-3.2521	-2.8521	-3.5458	-2.975	-3.1333	-3.4979	-2.7625	-3.6063	351.956	310.813	344.427	390.204	112.317	296.917	292.048	209.272	163.189	357.920	185.412	125.281	417.498	121.108	308.360	336.030	0.00013538	8.9152e-05	2.9855e-05	100.31	8.8829e-07	1.3567e-06	162.22	11.846	1.2429e-06	8.2468e-07	25.36	11.879	5.9339	1.7931	5.0089e-07	3.7801	0.00035289	0.0010001	0.00029091	101.27	9.91e-06	1.1154e-05	161.21	12.061	7.1323e-06	1.1856e-05	25.419	11.96	6.0993	1.8609	8.8198e-06	3.9248	408.716	193.656	451.251	111.106	413.921	155.266	106.511	114.229	246.062	266.210	112.917	115.824	119.354	122.258	447.554	118.423	-8191	255	
2564.355	1	1	0	0	0.084662	0.057873	0.26657	0.27367	0.12906	0.29137	0.30564	0.37545	0.14371	0.17506	0.060025	0.10565	0.17074	0.162	0.23036	0.19409	-2.9417	-2.8063	-3.6271	-3.0938	-3.0792	-3.7188	-3.0021	-3.475	-3.5479	-2.8417	-3.7333	-2.9938	-3.025	-3.5708	-2.8854	-3.2167	231.761	189.115	260.783	97.401	234.077	162.453	421.424	415.553	440.630	388.197	180.711	343.732	352.436	139.413	269.967	167.966	0.00013522	8.5548e-05	2.0852e-05	97.24	6.409e-07	1.05e-06	164.19	11.896	2.7777e-06	8.602e-07	25.226	11.848	6.0797	1.82	1.2929e-06	3.8454	0.00034913	0.00096122	0.00026528	100.93	9.4848e-06	1.1072e-05	163.33	12.089	6.975e-06	1.1456e-05	25.42	12.016	6.1912	1.8617	8.6262e-06	3.9383	377.571	152.992	184.516	110.474	332.087	288.443	106.788	115.129	232.052	131.373	113.331	116.038	118.994	121.219	186.974	119.427	-8191	255	
2564.451	1	1	0	0	0.021967	0.23202	0.13729	0.083219	0.25185	0.15346	0.20202	0.0099112	0.09541	0.16655	0.081321	0.23158	0.1134	0.1031	0.081558	0.1011	-3.1542	-2.7896	-3.5521	-3.2188	-3	-3.6229	-2.8646	-3.3021	-3.6771	-2.85	-3.7687	-3.3271	-3.0542	-3.8042	-3.0208	-3.2	198.241	370.154	311.247	382.855	246.651	308.421	101.396	309.049	271.188	411.892	428.017	152.724	453.810	162.913	135.351	332.665	0.00018574	0.00012205	9.0821e-06	97.881	1.4534e-06	1.6046e-06	162.33	11.682	7.4535e-07	4.4455e-07	25.007	12.113	5.8584	1.7818	1.8525e-06	3.8559	0.00033866	0.00093716	0.00025846	99.906	9.4744e-06	1.0782e-05	161.59	12.052	6.7453e-06	1.1133e-05	25.322	12.001	6.0874	1.8387	8.3425e-06	3.896	389.311	367.104	294.699	110.730	230.770	299.311	106.840	115.611	202.148	405.211	112.846	115.167	118.571	121.897	163.460	119.594	-8191	255	
2564.547	1	1	0	0	0.17271	0.03888	0.039875	0.27335	0.16916	0.079566	0.13689	0.053016	0.13158	0.26169	0.13808	0.17103	0.18711	0.14445	0.10953	0.046273	-3.1896	-2.7687	-3.5375	-3.1625	-2.8792	-3.6229	-2.9667	-3.2125	-3.5938	-2.8854	-3.4167	-3.4417	-2.6792	-3.6292	-3.1083	-3.0292	101.713	336.857	264.569	392.123	325.510	344.364	254.683	268.040	440.583	439.447	182.600	198.519	404.724	208.304	351.595	193.108	0.00012199	8.9445e-06	3.6409e-05	97.974	7.3984e-07	4.522e-07	162.69	12.166	1.7163e-06	5.685e-07	25.201	12.115	5.9773	1.8081	1.1822e-06	3.8233	0.00033749	0.00087243	0.00025108	100.15	9.6472e-06	1.0114e-05	160.65	12.217	6.5282e-06	1.0581e-05	25.389	12.06	6.0824	1.866	7.6516e-06	3.9319	384.731	212.813	183.974	109.123	333.053	227.962	106.449	116.532	441.180	197.755	113.063	115.866	119.329	122.872	262.132	118.373	-8191	255	
2564.668	1	1	0	0	0.24092	0.24291	0.18161	0.32052	0.10353	0.10064	0.12039	0.091226	0.22861	0.14776	0.032115	0.1012	0.15387	0.27491	0.22573	0.1466	-3.2812	-2.8917	-3.4	-3.275	-2.7854	-3.6	-3.2875	-3.0312	-3.7292	-2.8708	-3.2604	-3.5729	-2.8125	-3.5208	-3.1479	-2.9896	107.611	384.839	329.119	136.009	423.402	368.131	297.291	204.978	199.082	177.944	247.003	293.103	344.108	203.203	242.736	408.593	0.00019754	0.00014421	1.5889e-05	97.763	3.7551e-07	1.013e-06	162.83	11.887	1.567e-06	1.0529e-06	25.261	12.271	6.1927	1.8271	2.0978e-07	3.9285	0.00032678	0.00085333	0.00023807	98.84	8.8558e-06	9.8881e-06	161.01	12.19	5.9379e-06	1.0715e-05	25.531	12.219	6.1788	1.887	6.9768e-06	3.9791	388.065	354.566	160.390	109.474	426.176	277.147	106.494	116.386	317.736	265.258	113.656	115.819	118.363	121.320	257.314	118.831	-8191	255	
2564.739	1	1	0	0	0.17395	0.09656	0.20602	0.3703	0.20008	0.12852	0.15563	0.054223	0.29279	0.044916	0.13279	0.077833	0.26856	0.1407	0.093599	0.02259	-3.325	-2.8958	-3.1708	-3.6396	-2.725	-3.5583	-3.2625	-2.975	-3.6458	-2.8958	-3.1375	-3.4562	-2.7562	-3.55	-3.1771	-3.0229	446.015	113.633	189.995	434.791	113.212	121.123	161.735	302.871	431.598	165.946	341.192	264.448	238.012	207.922	342.944	194.129	0.00016557	0.00012183	2.175e-05	97.169	1.1965e-06	8.7781e-07	162.7	12.084	2.1485e-06	7.9337e-07	25.387	12.32	6.1751	1.8573	1.1496e-06	3.9419	0.00028258	0.00078481	0.00022676	98.057	8.2652e-06	9.2534e-06	160.86	12.203	5.7231e-06	9.7147e-06	25.642	12.333	6.1882	1.8899	6.9606e-06	4.0097	400.221	185.626	289.409	109.625	232.024	140.742	106.121	116.271	284.235	195.574	113.706	116.520	118.907	121.545	155.461	119.569	-8191	255	
2564.835	1	1	0	0	0.12292	0.18985	0.085112	0.2516	0.19449	0.31797	0.23777	0.13957	0.1348	0.16794	0.29219	0.27426	0.033977	0.090417	0.12232	0.20895	-3.2833	-2.9792	-3.1896	-3.5938	-2.8146	-3.6458	-3.4042	-2.7792	-3.5938	-3.2083	-3.1896	-3.7521	-2.9188	-3.4104	-3.4354	-2.8583	316.776	167.841	212.008	164.741	211.249	232.029	272.513	370.942	342.723	294.934	166.410	213.892	308.433	167.250	243.414	350.220	0.00016828	5.0046e-05	2.381e-05	98.446	4.296e-07	1.1243e-06	164.2	11.935	1.1577e-06	7.9681e-07	25.648	12.01	5.9217	1.8429	1.4707e-06	3.8674	0.00028043	0.00068829	0.00022108	99.019	7.4635e-06	8.9138e-06	162.14	12.222	5.22e-06	9.7973e-06	25.675	12.134	6.1553	1.8772	6.517e-06	3.9197	406.443	249.229	246.336	109.611	318.293	367.980	106.339	117.068	277.141	326.606	113.471	116.818	118.554	121.093	241.393	119.474	-8191	255	
2564.956	1	1	0	0	0.19931	0.13341	0.3289	0.21669	0.11484	0.19471	0.091007	0.1938	0.075418	0.184	0.15775	0.069788	0.041551	0.13328	0.19416	0.096439	-3.1896	-3.1521	-3.0333	-3.7417	-2.8312	-3.375	-3.5875	-2.9042	-3.7	-3.3208	-2.9	-3.5625	-2.9854	-3.2771	-3.6813	-2.9688	161.024	322.128	269.232	107.707	170.183	294.936	380.504	327.780	262.740	108.833	208.967	243.574	403.095	385.037	100.113	453.666	0.00012405	0.00011187	1.3657e-05	98.015	7.844e-07	8.5536e-07	163.36	11.959	1.0531e-06	1.5663e-07	25.678	12.216	6.1465	1.8325	9.8313e-07	3.8588	0.00028918	0.00069646	0.00021213	98.643	7.5122e-06	8.5387e-06	162.59	12.094	5.5405e-06	8.6486e-06	25.66	12.138	6.1827	1.8884	6.591e-06	3.9565	370.206	164.757	452.090	110.839	430.602	223.134	106.296	116.896	371.790	127.710	113.540	116.520	119.973	121.388	147.221	119.372	-8191	255	
2565.051	1	1	0	0	0.13479	0.13355	0.10942	0.10358	0.14788	0.1546	0.1998	0.087016	0.094578	0.084325	0.06971	0.02823	0.11068	0.14968	0.074196	0.16247	-3.1833	-3.325	-3.0729	-3.6	-2.9833	-3.1583	-3.5625	-2.8479	-3.4188	-3.3458	-2.9375	-3.7812	-3.1188	-3.0271	-3.5708	-2.9562	387.550	291.296	345.857	209.530	416.439	322.266	322.221	439.978	326.804	195.040	365.862	437.067	168.100	205.100	416.450	173.073	9.3356e-05	3.9528e-05	4.0613e-05	97.952	2.8826e-07	6.5485e-07	164.01	11.665	6.4316e-07	1.2777e-06	25.78	12.206	6.0781	1.897	5.1894e-07	3.8846	0.00028693	0.0007402	0.0002244	99.888	7.9168e-06	8.6667e-06	163.42	12.159	5.823e-06	8.8137e-06	25.746	12.305	6.1947	1.9237	6.513e-06	3.992	391.671	245.312	113.446	109.968	412.210	130.868	106.740	115.940	253.162	212.615	112.928	115.974	117.977	121.849	181.196	118.663	-8191	255	
2565.147	1	1	0	0	0.33458	0.28796	0.15592	0.12276	0.079492	0.18958	0.25717	0.089442	0.057443	0.1111	0.10931	0.041964	0.10412	0.15508	0.24965	0.1962	-3.0563	-3.3271	-2.8667	-3.5458	-2.9292	-3.1312	-3.7271	-2.8812	-3.4292	-3.6333	-2.7375	-3.6521	-2.9417	-3.1125	-3.9125	-2.8667	160.037	358.896	167.879	239.395	156.350	278.985	345.040	187.014	278.900	365.315	256.879	329.817	453.642	277.014	353.486	320.071	0.00014304	0.00012868	1.6955e-05	97.524	7.9381e-07	7.0229e-07	166.39	12.316	2.0404e-06	1.8995e-06	25.438	12.385	6.0683	1.8928	1.2324e-06	3.9191	0.0002905	0.00070739	0.00021558	98.57	7.056e-06	9.4507e-06	163.71	12.325	5.405e-06	9.0028e-06	25.858	12.416	6.2511	1.9296	6.4633e-06	3.9767	389.894	169.371	236.515	110.320	204.813	221.985	107.000	115.621	448.961	295.304	113.347	116.720	118.356	122.115	255.531	119.414	-8191	255	
2565.243	1	1	0	0	0.18022	0.14875	0.19988	0.020171	0.1785	0.098874	0.20257	0.13393	0.093098	0.1041	0.094946	0.0054976	0.29007	0.32611	0.12267	0.26904	-3.0125	-3.5625	-2.6271	-3.4875	-3.3021	-2.9188	-3.7313	-3.0312	-3.3396	-3.6583	-2.9708	-3.4542	-3.1875	-2.9646	-3.7208	-3.1312	223.631	371.715	184.019	353.395	357.361	139.738	404.748	227.075	297.353	444.233	334.319	258.616	164.326	367.458	326.601	413.503	0.00015991	0.00011069	2.1893e-05	96.834	1.0822e-06	9.1738e-07	164.33	12.232	8.7529e-07	3.3308e-07	25.485	12.384	6.2139	1.8516	4.1564e-07	3.7914	0.00029431	0.00073553	0.00023628	98.057	7.899e-06	8.7841e-06	163.85	12.395	6.0711e-06	8.8963e-06	25.867	12.369	6.1922	1.9141	7.0467e-06	3.9258	376.939	355.888	167.171	110.645	256.425	190.212	106.576	115.688	174.129	167.819	112.990	115.877	119.162	121.231	276.598	118.532	-8191	255	
2565.363	1	1	0	0	0.17861	0.031349	0.19029	0.15841	0.1461	0.067889	0.17352	0.096196	0.18857	0.030974	0.17371	0.10501	0.17211	0.16268	0.16993	0.26129	-3.0062	-3.6312	-2.8479	-3.4833	-3.4833	-2.875	-3.8229	-3.0542	-3.2521	-3.6104	-2.975	-3.5979	-3.5292	-2.85	-3.5958	-3.1604	104.071	203.388	141.945	384.057	232.599	194.268	291.127	358.424	344.762	449.183	249.622	308.501	189.854	138.419	214.919	191.742	0.00015417	3.0191e-06	3.729e-05	99.754	1.2539e-07	1.2742e-06	167.85	12.38	2.1358e-06	9.4732e-07	25.567	12.276	6.1276	1.8559	1.1445e-06	3.8019	0.00031363	0.00073626	0.0002427	100.09	7.5329e-06	1.0021e-05	166.15	12.487	5.7576e-06	9.0743e-06	26.323	12.216	6.1628	1.913	7.173e-06	3.9187	387.907	260.488	277.875	111.297	231.852	187.533	106.502	117.067	220.631	344.882	113.441	116.478	118.075	120.625	138.925	119.781	-8191	255	
2565.435	1	1	0	0	0.18616	0.21971	0.16869	0.20832	0.051542	0.1312	0.18467	0.1797	0.30603	0.10414	0.10278	0.20206	0.11871	0.10278	0.14229	0.075259	-2.8708	-3.6437	-2.8542	-3.3875	-3.4646	-2.8458	-3.7833	-3.1542	-3.1083	-3.5938	-2.9208	-3.3021	-3.6979	-2.9583	-3.6813	-3.3854	246.985	179.003	429.060	356.241	228.985	409.792	270.079	264.048	322.738	222.773	314.689	153.393	222.789	387.400	135.527	98.444	0.00010505	0.00015841	2.0112e-05	97.04	1.1725e-06	8.4192e-07	169.27	12.28	1.7973e-06	1.7013e-06	26.228	12.075	6.0921	1.8497	1.5293e-06	3.8087	0.00031871	0.00078875	0.00024663	98.475	8.1899e-06	1.0357e-05	167.64	12.511	6.2824e-06	9.6872e-06	26.348	12.126	6.206	1.8975	6.9082e-06	3.8882	397.713	172.449	176.009	110.522	169.306	255.384	106.185	114.982	427.784	201.147	113.653	116.476	118.373	120.930	181.188	118.977	-8191	255	
2565.531	1	1	0	0	0.14945	0.10311	0.19216	0.055115	0.16224	0.15498	0.11812	0.27759	0.03138	0.29269	0.062068	0.20926	0.21379	0.21755	0.2739	0.19552	-2.5563	-3.6729	-2.8792	-3.3729	-3.5521	-2.9021	-3.625	-3.2354	-2.8771	-3.8208	-3.1021	-3.1562	-3.6125	-2.7958	-3.5021	-3.4958	381.446	126.889	274.424	425.997	242.983	415.699	431.038	338.357	453.270	211.064	152.439	313.003	181.999	441.179	341.258	161.686	0.00013755	7.6148e-05	1.4729e-05	97.765	4.7868e-07	1.5911e-06	169.86	12.503	7.3595e-07	8.36e-07	26.057	12.174	6.1032	1.8481	3.0097e-07	3.752	0.00032815	0.00078481	0.00025056	98.925	8.5369e-06	1.0581e-05	168.25	12.59	6.9486e-06	1.0418e-05	26.425	12.144	6.1383	1.9042	7.2994e-06	3.871	405.084	110.532	247.657	110.189	295.921	216.631	107.171	116.005	104.327	268.225	113.560	116.273	118.115	121.049	363.366	119.381	-8191	255	
2565.652	1	1	0	0	0.17906	0.17592	0.15236	0.031846	0.31484	0.10479	0.21633	0.1264	0.15519	0.04708	0.22674	0.38338	0.056874	0.12243	0.19571	0.04983	-2.7271	-3.6229	-3.0875	-3.1583	-3.6312	-2.8854	-3.5458	-3.4042	-2.95	-3.6813	-3.2792	-3.1854	-3.7062	-2.9083	-3.3812	-3.5396	131.126	330.668	262.848	332.405	338.018	140.975	453.957	256.440	168.292	388.853	320.246	206.687	304.706	380.448	247.333	246.673	0.00015792	9.1908e-05	8.5343e-06	98.167	2.5609e-06	6.0411e-07	167.5	11.956	1.0164e-06	9.3219e-07	25.979	11.913	5.8972	1.8412	7.1419e-07	3.7112	0.00033739	0.000759	0.00024545	99.556	8.0806e-06	9.8596e-06	167.82	12.391	7.0898e-06	9.5312e-06	26.171	11.871	6.0284	1.8869	7.3236e-06	3.8216	381.972	181.112	452.958	111.729	296.084	340.545	107.058	117.079	291.404	227.573	113.725	116.236	119.837	121.279	280.378	119.670	-8191	255	
2565.748	1	1	0	0	0.065725	0.26478	0.15316	0.14062	0.13513	0.11392	0.11791	0.14471	0.15018	0.083135	0.26135	0.090335	0.13621	0.12977	0.20109	0.13162	-2.6562	-3.6375	-3.3104	-3.0625	-3.5708	-3.0417	-3.3333	-3.5646	-2.8479	-3.7833	-3.2458	-2.8167	-3.7208	-2.9292	-3.275	-3.4813	309.270	316.421	285.059	153.307	324.532	246.605	124.788	390.394	203.169	384.719	144.859	362.556	233.200	162.252	273.703	167.133	0.00010339	5.4809e-05	2.4876e-05	98.689	7.2061e-07	1.2614e-06	170.18	12.337	1.4864e-06	8.5056e-07	25.767	11.925	5.8658	1.83	3.1911e-07	3.7236	0.00032316	0.00078554	0.00023388	99.226	7.7706e-06	9.6107e-06	168.35	12.548	6.1549e-06	9.3349e-06	26.309	11.936	5.9938	1.9018	7.2819e-06	3.8157	402.562	389.793	162.660	110.695	278.694	350.637	106.825	115.140	110.612	221.812	113.456	115.909	117.788	121.782	131.699	118.827	-8191	255	
2565.844	1	1	0	0	0.079809	0.27993	0.34929	0.19806	0.12256	0.30517	0.11927	0.10373	0.088977	0.13064	0.4118	0.056674	0.18808	0.08091	0.15294	0.28498	-2.625	-3.6354	-3.3958	-2.9167	-3.6125	-2.9729	-3.175	-3.6396	-2.8417	-3.6708	-3.4375	-2.9396	-3.7604	-2.9313	-3.2375	-3.6562	157.062	326.178	319.558	453.353	309.041	119.820	444.541	207.348	429.182	455.476	289.640	126.838	97.789	148.940	307.567	115.514	0.00015405	3.902e-05	2.0927e-05	96.999	2.0378e-06	2.1253e-06	171.04	12.041	1.6579e-06	1.5887e-06	25.844	11.869	5.9438	1.8107	4.0008e-07	3.7503	0.00030111	0.00074238	0.00022566	98.735	7.964e-06	9.0916e-06	168.95	12.337	6.3479e-06	9.3991e-06	26.299	11.873	5.9627	1.9025	7.4836e-06	3.8452	399.280	163.123	196.201	109.194	275.404	259.371	106.860	115.100	297.443	259.526	112.713	115.535	118.499	121.295	243.916	118.849	-8191	255	
2565.963	1	1	0	0	0.094791	0.18089	0.16828	0.10067	0.13905	0.23408	0.20383	0.2548	0.20479	0.34999	0.1485	0.17132	0.10453	0.12955	0.046066	0.26275	-2.5646	-3.4896	-3.5396	-2.7062	-3.7188	-3.1854	-3.0854	-3.775	-3.0417	-3.4208	-3.4958	-2.8792	-3.6833	-3.4229	-2.9062	-3.7062	231.473	279.644	240.450	377.121	222.337	303.611	451.845	305.691	161.213	360.439	324.948	360.866	360.043	210.964	419.342	162.995	0.00011691	1.9613e-05	4.1657e-05	99.029	1.5914e-06	3.4293e-07	171.3	12.396	1.2505e-06	6.6395e-07	26.623	11.741	5.9792	1.8686	2.1062e-07	3.7	0.00030385	0.00077242	0.00022208	98.652	7.1608e-06	8.4001e-06	170.02	12.422	5.7702e-06	9.1642e-06	26.52	11.806	5.971	1.9251	7.4795e-06	3.7921	374.852	303.621	162.585	110.076	302.355	178.326	106.722	115.750	268.818	175.894	112.624	115.674	119.563	121.003	409.179	118.912	-8191	255	
2566.035	1	1	0	0	0.023047	0.19352	0.17422	0.19042	0.1208	0.054623	0.27791	0.24212	0.1168	0.2271	0.084625	0.17556	0.2161	0.19284	0.10813	0.048966	-2.5938	-3.2292	-3.5771	-2.7625	-3.5854	-3.2771	-2.9	-3.5312	-3.0083	-3.3333	-3.5771	-2.9354	-3.4271	-3.2667	-2.9292	-3.6562	210.415	239.483	440.496	453.519	256.428	122.803	359.243	421.517	230.643	378.492	411.419	113.439	342.795	319.751	403.528	195.187	0.00012344	9.8325e-05	2.4275e-05	98.4	3.435e-07	7.1346e-07	169.3	12.357	1.94e-06	7.8946e-07	25.7	11.51	5.8233	1.853	1.8152e-06	3.6521	0.00031779	0.00070491	0.0002106	99.155	7.7735e-06	8.6365e-06	169.45	12.475	5.8896e-06	9.2945e-06	25.994	11.657	5.9164	1.9039	7.4715e-06	3.7536	383.043	301.129	423.446	111.046	301.946	151.664	106.388	114.751	200.978	278.970	112.772	115.687	119.303	120.247	192.339	119.242	-8191	255	
2566.131	1	1	0	0	0.13679	0.18727	0.19628	0.25672	0.16558	0.077118	0.15228	0.099144	0.099836	0.11484	0.16442	0.029529	0.23194	0.12028	0.16137	0.1297	-2.7188	-3.2438	-3.7292	-2.8542	-3.5542	-3.4125	-2.9521	-3.6792	-3.1833	-3.2146	-3.7729	-2.8958	-3.4437	-3.6021	-2.8854	-3.6667	246.818	405.566	279.669	229.610	434.217	194.960	252.080	410.052	428.159	327.595	367.674	123.969	433.181	198.110	256.848	103.264	0.00012496	3.4968e-05	1.9941e-05	97.367	7.3769e-07	1.1148e-06	169.75	12.093	6.2496e-07	2.7326e-06	25.481	11.524	5.8272	1.8429	6.0733e-07	3.6844	0.00030424	0.00079137	0.00020204	98.533	7.5993e-06	9.5681e-06	168.97	12.259	5.9115e-06	9.3551e-06	26.047	11.603	5.8933	1.904	7.0668e-06	3.7328	385.745	279.775	117.557	109.623	224.074	269.579	106.346	115.819	253.155	269.845	113.021	116.082	119.593	121.988	107.977	118.810	-8191	255	
2566.227	1	1	0	0	0.10769	0.16175	0.1188	0.30831	0.17941	0.21324	0.15	0.11847	0.079844	0.10328	0.1418	0.032941	0.17727	0.049213	0.072732	0.056147	-2.7875	-3.0146	-3.6958	-2.8458	-3.4354	-3.5812	-2.9562	-3.7458	-3.2417	-3.0771	-3.7125	-3.1458	-3.4583	-3.5396	-3.025	-3.6667	161.546	244.243	187.721	449.155	243.995	244.339	392.491	379.453	226.648	311.317	205.306	446.609	248.392	337.135	419.852	136.162	0.00015638	4.3243e-05	3.8836e-05	99.618	9.6617e-07	6.1899e-07	171.15	12.211	1.6428e-06	1.1005e-06	25.555	11.48	5.9421	1.8508	1.221e-06	3.6374	0.00031842	0.00080041	0.00022401	100.35	7.6909e-06	9.2143e-06	169.14	12.261	5.9884e-06	9.1606e-06	25.929	11.615	5.9227	1.8938	7.1892e-06	3.7507	390.529	136.949	258.131	111.096	436.532	297.212	106.647	115.578	117.815	381.251	112.973	115.718	120.365	120.950	207.565	119.455	-8191	255	
2566.323	1	1	0	0	0.19005	0.071294	0.36394	0.089381	0.15342	0.14107	0.38264	0.23706	0.14593	0.17253	0.16414	0.10091	0.17823	0.19079	0.20131	0.19773	-2.8667	-3.0687	-3.6333	-2.925	-3.1646	-3.6083	-2.9208	-3.7208	-3.4604	-2.9333	-3.7104	-3.2708	-3.05	-3.5938	-2.9021	-3.5021	343.946	266.363	278.545	425.795	404.446	437.547	395.239	208.029	296.630	351.355	413.842	126.150	163.645	288.185	309.098	382.972	0.00015529	7.731e-05	3.1076e-05	96.637	1.1945e-06	1.1836e-06	168.88	12.123	3.1242e-06	1.1176e-06	25.97	11.558	5.7014	1.8502	1.5465e-06	3.6616	0.00031216	0.00076994	0.00022099	99.55	7.2597e-06	8.9743e-06	168.08	12.259	5.8816e-06	1.0174e-05	26.175	11.57	5.8695	1.8897	7.3908e-06	3.7507	409.571	186.584	381.099	111.215	299.239	216.225	106.867	117.391	259.050	244.705	113.527	116.088	118.809	121.353	236.780	119.138	-8191	255	
2566.444	1	1	0	0	0.099476	0.1697	0.1997	0.28773	0.067979	0.091044	0.27942	0.15519	0.016978	0.21468	0.27633	0.19869	0.11604	0.096352	0.25643	0.13913	-3.2021	-3.0146	-3.6813	-3.1208	-3.1688	-3.7458	-3.0396	-3.5187	-3.5667	-2.9458	-3.8917	-3.0292	-3.1854	-3.6396	-2.9021	-3.2	383.579	291.633	437.717	152.005	218.887	396.630	108.727	405.084	273.244	205.593	361.738	148.718	216.441	351.192	347.363	344.734	0.00014844	9.3672e-05	3.8253e-05	95.518	4.9611e-07	6.8166e-07	165.8	11.946	1.55e-06	9.681e-07	25.344	11.555	5.8069	1.8772	1.0694e-06	3.7611	0.00030507	0.00077271	0.00021645	97.49	7.4679e-06	8.6436e-06	165.74	12.133	5.7185e-06	9.3037e-06	25.673	11.67	5.9119	1.9035	6.6259e-06	3.7872	399.261	208.254	230.749	111.628	457.178	332.127	106.583	117.277	202.485	275.538	113.994	116.725	117.392	121.963	292.433	119.533	-8191	255	
2566.540	1	1	0	0	0.12119	0.076917	0.067044	0.085633	0.13984	0.16709	0.22286	0.061978	0.14125	0.20724	0.19087	0.24537	0.097679	0.13198	0.20239	0.18918	-3.3271	-2.9313	-3.7917	-3.2208	-3.0708	-3.7854	-2.9271	-3.3	-3.7083	-3.0271	-3.5563	-3.3771	-2.7396	-3.675	-3.0854	-3.2604	393.255	404.181	410.139	447.988	339.266	297.809	205.656	423.213	127.457	116.542	276.236	120.303	434.231	431.385	418.864	132.124	0.00013582	0.00012811	1.2606e-05	97.721	4.1949e-07	7.0374e-07	166.45	12.071	1.4577e-06	8.8432e-07	25.631	11.59	6.0208	1.8609	4.9686e-07	3.6852	0.00030209	0.00070331	0.00019618	98.262	7.6215e-06	8.2543e-06	164.65	12.272	5.3981e-06	9.089e-06	25.906	11.815	5.9778	1.9008	6.7684e-06	3.8074	405.608	150.136	202.922	111.821	244.233	147.927	107.081	117.175	177.435	330.395	113.994	116.881	119.583	121.781	373.362	120.396	-8191	255	
2566.636	1	1	0	0	0.089544	0.23598	0.038259	0.17756	0.15649	0.15747	0.20624	0.24832	0.11676	0.14943	0.15502	0.24443	0.12498	0.21146	0.14667	0.15631	-3.3083	-3.0625	-3.7354	-3.3396	-3.0042	-3.6896	-3.0563	-3.2458	-3.6458	-2.8896	-3.5354	-3.3417	-2.8771	-3.6792	-3.1937	-3.0896	364.967	265.403	425.671	452.196	130.745	403.328	445.662	251.639	227.376	296.293	444.905	452.282	197.004	406.907	261.155	303.570	0.00012983	9.0908e-05	2.6173e-05	95.923	6.4945e-07	1.3464e-06	163.42	12.027	1.6462e-07	5.5148e-07	25.896	11.885	5.9799	1.8522	8.3312e-07	3.7865	0.00028688	0.00076979	0.00019597	96.35	7.121e-06	8.0356e-06	163.1	12.202	5.591e-06	9.489e-06	26.124	11.931	6.0386	1.9099	6.5157e-06	3.883	378.664	380.553	239.220	112.190	235.598	305.446	107.149	115.035	408.197	150.177	114.078	116.715	119.410	121.085	238.349	118.855	-8191	255	
2566.732	1	1	0	0	0.02528	0.19189	0.14792	0.048867	0.17697	0.16632	0.13414	0.16006	0.13878	0.064859	0.21637	0.19092	0.32764	0.25266	0.080648	0.19192	-3.325	-2.7771	-3.4104	-3.4979	-2.8375	-3.7562	-3.0729	-3.1	-3.6437	-3.0417	-3.2729	-3.5312	-2.8625	-3.6292	-3.3	-3.0521	165.290	163.365	324.069	213.467	149.501	395.995	367.221	127.983	119.829	322.489	127.248	404.428	393.650	193.859	150.925	159.249	0.00011325	0.00011416	7.0573e-06	95.631	8.0212e-07	1.8871e-06	165.14	12.095	8.959e-07	1.0749e-06	25.799	12.02	5.9618	1.8946	4.6701e-07	3.7739	0.00027441	0.00071279	0.00020409	96.405	7.1077e-06	8.112e-06	164.01	12.317	5.444e-06	8.722e-06	26.007	12.025	6.0331	1.931	6.9889e-06	3.8547	407.629	220.602	318.872	111.115	445.801	352.914	107.208	116.129	236.415	225.393	114.520	116.190	119.831	121.375	398.428	118.432	-8191	255	
2566.828	1	1	0	0	0.11505	0.15151	0.18398	0.21789	0.092615	0.22104	0.10007	0.084304	0.12	0.20435	0.16335	0.085648	0.3371	0.089495	0.17234	0.1668	-3.3479	-2.9896	-3.1354	-3.5646	-2.7687	-3.5667	-3.5187	-2.9396	-3.8312	-3.0708	-3.2458	-3.5583	-2.8208	-3.5875	-3.1562	-2.875	248.035	259.333	433.426	434.864	345.744	258.140	114.032	232.612	228.797	361.520	201.333	245.627	123.344	119.534	109.111	390.916	0.00012465	2.3067e-05	2.2495e-05	95.177	6.5246e-07	2.7653e-07	165.23	12.196	4.6871e-07	4.5637e-07	26.011	11.928	6.049	1.8875	2.9706e-07	3.8048	0.00026933	0.00069631	0.00023012	96.03	7.9729e-06	8.7023e-06	164.45	12.285	5.8931e-06	9.3294e-06	26.128	11.958	6.0426	1.9336	6.556e-06	3.8697	383.369	447.578	296.650	110.650	398.973	192.718	106.354	115.278	332.024	345.316	113.561	115.791	118.658	122.046	216.860	119.380	-8191	255	
2566.925	1	1	0	0	0.052643	0.21005	0.10542	0.19782	0.14554	0.12876	0.13999	0.23244	0.15788	0.27991	0.2473	0.16116	0.064426	0.098417	0.16903	0.17695	-3.2188	-2.9667	-3.1625	-3.5458	-2.8792	-3.45	-3.4583	-2.8312	-3.5271	-3.125	-3.1396	-3.7833	-2.9188	-3.3625	-3.5292	-2.8646	212.942	206.451	261.418	402.835	265.652	400.299	430.407	163.598	319.288	436.301	299.735	127.456	294.880	337.648	107.309	403.977	0.00018568	2.3583e-05	2.6079e-05	96.557	1.3372e-06	7.0268e-07	164.77	12.109	1.8373e-06	7.926e-07	25.369	12.032	5.8836	1.9082	7.8742e-07	3.8556	0.00028898	0.00075405	0.00022898	96.835	7.7115e-06	9.0632e-06	165.15	12.272	6.1182e-06	9.1752e-06	26.124	12.062	6.0767	1.957	6.673e-06	3.9204	390.432	101.321	321.778	110.986	299.074	337.785	106.278	116.153	397.681	400.463	112.582	115.873	118.804	122.148	372.539	118.741	-8191	255	
2567.045	1	1	0	0	0.13472	0.059905	0.18512	0.20138	0.042016	0.22778	0.1425	0.21781	0.123	0.085216	0.10501	0.071599	0.1138	0.21723	0.23895	0.18531	-3.2667	-3.1167	-3.0104	-3.5792	-2.9146	-3.4729	-3.5667	-2.8125	-3.5667	-3.3521	-3.1292	-3.7104	-3	-3.175	-3.5583	-2.7958	332.343	340.537	242.820	212.145	207.778	288.258	145.650	114.107	397.761	139.657	104.396	416.010	279.932	213.209	222.702	294.633	0.00017032	3.8766e-05	5.9617e-05	94.61	1.8395e-06	1.6137e-06	166.48	12.075	1.6743e-06	8.3249e-07	26.077	12.13	6.0564	1.9314	1.17e-06	3.8646	0.00027774	0.00075186	0.00022243	97.353	7.5727e-06	8.7787e-06	166.32	12.307	5.9643e-06	9.7001e-06	26.298	12.181	6.1221	1.9828	6.4955e-06	3.9455	409.396	370.908	197.238	110.794	256.684	153.766	106.958	115.197	114.392	413.244	112.862	115.936	119.231	121.899	422.045	118.419	-8191	255	
2567.140	1	1	0	0	0.22059	0.1538	0.16976	0.10037	0.26101	0.22737	0.18942	0.2696	0.18257	0.1238	0.16381	0.27885	0.060076	0.16808	0.24991	0.13453	-3.4021	-3.2333	-3.0146	-3.7167	-3.2521	-3.4188	-3.6104	-2.9583	-3.6292	-3.4833	-2.9354	-3.7396	-3.1667	-2.9875	-3.5667	-3.0417	166.387	391.173	411.468	349.027	130.303	350.830	128.210	186.710	416.303	168.283	405.641	229.228	330.663	270.677	340.822	373.814	0.00018886	6.8153e-05	4.4052e-06	97.313	7.6076e-07	7.4112e-07	168.96	12.296	2.1394e-06	9.628e-07	25.82	12.22	6.0293	1.9237	2.8329e-06	3.8062	0.00029314	0.0007714	0.00023335	97.981	8.0423e-06	1.0397e-05	167.62	12.408	5.9631e-06	9.223e-06	26.208	12.196	6.1279	1.9791	6.6434e-06	3.9163	401.223	433.569	407.573	110.178	374.093	288.229	106.599	115.705	274.779	290.683	113.352	116.927	119.081	120.532	255.231	118.458	-8191	255	
2567.236	1	1	0	0	0.18799	0.15994	0.070817	0.13794	0.083793	0.22232	0.022251	0.29294	0.073623	0.1029	0.37414	0.15335	0.29221	0.097374	0.21476	0.19834	-3.2042	-3.4813	-2.8729	-3.625	-3.1646	-3.1708	-3.7062	-2.8979	-3.3667	-3.6937	-2.875	-3.7729	-3.0417	-3.1854	-3.8458	-2.9062	323.935	203.740	445.379	255.682	379.165	292.518	240.665	396.005	310.505	204.647	114.341	293.047	340.934	347.792	237.830	329.117	0.0001355	3.1464e-05	3.7635e-05	98.888	1.255e-07	1.104e-06	168.71	12.074	1.2721e-06	7.1407e-07	25.72	12.183	6.1201	1.9378	1.5989e-06	3.8838	0.00031412	0.00075755	0.00023754	99.206	8.3612e-06	1.0141e-05	167.32	12.31	6.5202e-06	9.3404e-06	26.4	12.287	6.1221	1.9833	7.0709e-06	3.9522	385.211	357.256	189.933	110.571	431.488	212.377	107.679	115.686	210.311	114.022	113.684	117.150	119.435	121.352	296.340	119.303	-8191	255	
2567.332	1	1	0	0	0.13753	0.09514	0.080818	0.083196	0.13228	0.17466	0.040265	0.1334	0.028937	0.23124	0.24348	0.13204	0.18467	0.091601	0.16882	0.17741	-3.0563	-3.5167	-2.925	-3.6458	-3.3604	-3.0979	-3.7313	-3.0708	-3.3833	-3.7708	-3.0042	-3.7354	-3.4458	-2.9583	-3.55	-2.9708	114.785	354.449	239.846	419.007	200.321	99.274	285.916	441.287	412.364	412.856	432.739	129.023	281.709	294.767	181.410	233.160	0.00012051	0.00016923	3.9432e-05	98.789	5.88e-07	9.6593e-07	170.34	12.313	1.9283e-06	9.9806e-07	26.67	12.261	6.0738	1.9246	1.7303e-06	3.9056	0.00032884	0.00077475	0.00024327	99.175	8.5295e-06	9.8081e-06	168.46	12.446	6.2239e-06	8.8211e-06	26.81	12.309	6.1697	1.9912	7.083e-06	3.9747	401.035	439.890	421.915	111.616	196.141	273.251	107.104	116.897	136.096	296.195	114.275	116.921	119.288	121.551	201.994	119.798	-8191	255	
#DATA ENDS
