BOXY.EXE: ISS Imagent and Oximeter Data Acquisition Program Version 0.80
Ascii Record File

#ACQ INFORMATION
2  Detector Channels 
16  External MUX Channels 
1  Auxiliary Channels 
5000  Waveform (CCF) Frequency (Hz)
1  Waveforms Skipped 
30  Waveforms Averaged 
1  Cycles Averaged 
16  Acquisitions per Waveform 
10.0806  Updata Rate (Hz) 

#FILE INFORMATION
TRUE -- External MUX Channel results are PARSED.
FALSE -- AC DC and Phase are NOT grouped.
TRUE -- Companion Program Settings File CREATED.
FALSE -- AC data not excluded
FALSE -- DC data not excluded
FALSE -- Phase data not excluded
FALSE -- Auxillary Chn. data not excluded
Tab delimiters

#CALIBRATION STATE
TRUE -- Waveform Calibration Values APPLIED.


#AUX CALIBRATION VALUES
Val Type	aux-1	

Term	1.0000e+00	
Factor	0.0000e+00	


#WF CALIBRATION VALUES
A = Detector Channel
Val Type	A-AC1	A-AC2	A-AC3	A-AC4	A-AC5	A-AC6	A-AC7	A-AC8	A-AC9	A-AC10	A-AC11	A-AC12	A-AC13	A-AC14	A-AC15	A-AC16	A-DC1	A-DC2	A-DC3	A-DC4	A-DC5	A-DC6	A-DC7	A-DC8	A-DC9	A-DC10	A-DC11	A-DC12	A-DC13	A-DC14	A-DC15	A-DC16	A-Ph1	A-Ph2	A-Ph3	A-Ph4	A-Ph5	A-Ph6	A-Ph7	A-Ph8	A-Ph9	A-Ph10	A-Ph11	A-Ph12	A-Ph13	A-Ph14	A-Ph15	A-Ph16	

Term	0.00000e+00	0.00000e+00	0.00000e+00	0.00000e+00	0.00000e+00	0.00000e+00	0.00000e+00	0.00000e+00	0.00000e+00	0.00000e+00	0.00000e+00	0.00000e+00	0.00000e+00	0.00000e+00	0.00000e+00	0.00000e+00	0.00000e+00	0.00000e+00	0.00000e+00	0.00000e+00	0.00000e+00	0.00000e+00	0.00000e+00	0.00000e+00	0.00000e+00	0.00000e+00	0.00000e+00	0.00000e+00	0.00000e+00	0.00000e+00	0.00000e+00	0.00000e+00	0.00000e+00	0.00000e+00	0.00000e+00	0.00000e+00	0.00000e+00	0.00000e+00	0.00000e+00	0.00000e+00	0.00000e+00	0.00000e+00	0.00000e+00	0.00000e+00	0.00000e+00	0.00000e+00	0.00000e+00	0.00000e+00	
Factor	1.00000e+00	1.00000e+00	1.00000e+00	1.00000e+00	1.00000e+00	1.00000e+00	1.00000e+00	1.00000e+00	1.00000e+00	1.00000e+00	1.00000e+00	1.00000e+00	1.00000e+00	1.00000e+00	1.00000e+00	1.00000e+00	1.00000e+00	1.00000e+00	1.00000e+00	1.00000e+00	1.00000e+00	1.00000e+00	1.00000e+00	1.00000e+00	1.00000e+00	1.00000e+00	1.00000e+00	1.00000e+00	1.00000e+00	1.00000e+00	1.00000e+00	1.00000e+00	X	X	X	X	X	X	X	X	X	X	X	X	X	X	X	X	

B = Detector Channel
Val Type	B-AC1	B-AC2	B-AC3	B-AC4	B-AC5	B-AC6	B-AC7	B-AC8	B-AC9	B-AC10	B-AC11	B-AC12	B-AC13	B-AC14	B-AC15	B-AC16	B-DC1	B-DC2	B-DC3	B-DC4	B-DC5	B-DC6	B-DC7	B-DC8	B-DC9	B-DC10	B-DC11	B-DC12	B-DC13	B-DC14	B-DC15	B-DC16	B-Ph1	B-Ph2	B-Ph3	B-Ph4	B-Ph5	B-Ph6	B-Ph7	B-Ph8	B-Ph9	B-Ph10	B-Ph11	B-Ph12	B-Ph13	B-Ph14	B-Ph15	B-Ph16	

Term	0.00000e+00	0.00000e+00	0.00000e+00	0.00000e+00	0.00000e+00	0.00000e+00	0.00000e+00	0.00000e+00	0.00000e+00	0.00000e+00	0.00000e+00	0.00000e+00	0.00000e+00	0.00000e+00	0.00000e+00	0.00000e+00	0.00000e+00	0.00000e+00	0.00000e+00	0.00000e+00	0.00000e+00	0.00000e+00	0.00000e+00	0.00000e+00	0.00000e+00	0.00000e+00	0.00000e+00	0.00000e+00	0.00000e+00	0.00000e+00	0.00000e+00	0.00000e+00	-2.67937e+02	-1.30297e+02	-1.24741e+02	-1.87822e+02	-6.96048e+01	-6.65855e+01	-1.56226e+02	-1.62015e+02	-6.64801e+01	-6.54146e+01	-1.71993e+02	-1.70449e+02	-1.82921e+02	-1.77447e+02	-7.06104e+01	-1.50185e+02	
Factor	5.08686e-05	1.23101e-04	3.70342e-05	3.47696e-01	1.44184e-06	1.36155e-06	1.51375e-01	4.06272e-02	2.33488e-06	1.39090e-06	7.25516e-02	2.05289e-02	3.17289e-02	6.81532e-03	1.55922e-06	9.51071e-03	2.34709e-05	6.99811e-05	2.09637e-05	1.86283e-01	7.08699e-07	8.53338e-07	7.64441e-02	2.19243e-02	5.51292e-07	8.80824e-07	3.79906e-02	1.07674e-02	1.72504e-02	3.72260e-03	6.45250e-07	5.03074e-03	X	X	X	X	X	X	X	X	X	X	X	X	X	X	X	X	



#DISTANCE SETTINGS
A = Detector Channel
A-1	A-2	A-3	A-4	A-5	A-6	A-7	A-8	A-9	A-10	A-11	A-12	A-13	A-14	A-15	A-16	

2.5000e+00	3.0000e+00	2.5000e+00	3.0000e+00	2.0000e+00	3.0000e+00	1.5000e+00	3.0000e+00	3.0000e+00	3.0000e+00	3.0000e+00	3.0000e+00	3.0000e+00	3.0000e+00	1.5000e+00	3.0000e+00	

B = Detector Channel
B-1	B-2	B-3	B-4	B-5	B-6	B-7	B-8	B-9	B-10	B-11	B-12	B-13	B-14	B-15	B-16	

1.0000e+01	1.0000e+01	1.0000e+01	1.4400e+00	1.0000e+01	1.0000e+01	1.5100e+00	1.9400e+00	1.0000e+01	1.0000e+01	1.9900e+00	2.4900e+00	2.4100e+00	2.9000e+00	1.0000e+01	2.9800e+00	




#DATA BEGINS
time	group	step	mark	flag	A-AC1	A-AC2	A-AC3	A-AC4	A-AC5	A-AC6	A-AC7	A-AC8	A-AC9	A-AC10	A-AC11	A-AC12	A-AC13	A-AC14	A-AC15	A-AC16	A-DC1	A-DC2	A-DC3	A-DC4	A-DC5	A-DC6	A-DC7	A-DC8	A-DC9	A-DC10	A-DC11	A-DC12	A-DC13	A-DC14	A-DC15	A-DC16	A-Ph1	A-Ph2	A-Ph3	A-Ph4	A-Ph5	A-Ph6	A-Ph7	A-Ph8	A-Ph9	A-Ph10	A-Ph11	A-Ph12	A-Ph13	A-Ph14	A-Ph15	A-Ph16	B-AC1	B-AC2	B-AC3	B-AC4	B-AC5	B-AC6	B-AC7	B-AC8	B-AC9	B-AC10	B-AC11	B-AC12	B-AC13	B-AC14	B-AC15	B-AC16	B-DC1	B-DC2	B-DC3	B-DC4	B-DC5	B-DC6	B-DC7	B-DC8	B-DC9	B-DC10	B-DC11	B-DC12	B-DC13	B-DC14	B-DC15	B-DC16	B-Ph1	B-Ph2	B-Ph3	B-Ph4	B-Ph5	B-Ph6	B-Ph7	B-Ph8	B-Ph9	B-Ph10	B-Ph11	B-Ph12	B-Ph13	B-Ph14	B-Ph15	B-Ph16	aux-1	digaux	

1000.375	1	1	0	256	0.18064	0.24475	0.018082	0.06101	0.16842	0.15185	0.14747	0.11946	0.12938	0.12629	0.057472	0.095467	0.32277	0.27618	0.18697	0.24286	-3.375	-3.3292	-3.2521	-3.8	-3.1104	-3.3312	-3.7354	-3.225	-3.7792	-3.5021	-3.2396	-3.8563	-3.1437	-3.5187	-3.6104	-3.0354	-22.766	13.182	-99.016	168.557	23.152	-110.517	-96.293	-106.490	-60.691	82.734	40.777	213.547	175.627	166.069	-46.236	126.144	0.00083674	0.00037669	0.00011559	1142	3.9152e-06	4.0012e-06	1131.6	302.76	7.1116e-06	5.4558e-06	347	115.9	100.79	34.572	4.0892e-06	42.696	0.00060853	0.00065112	0.00019492	1171.7	7.3424e-06	7.5343e-06	1164.9	312.59	6.8153e-06	8.4981e-06	356.39	119.92	104.68	36.036	6.8356e-06	44.499	62.865	-33.516	-27.301	-109.457	24.458	19.184	-109.539	-104.314	8.021	21.542	-105.107	-101.129	-100.679	-95.535	21.748	-96.203	-8191	255	
1000.471	1	1	0	0	0.14624	0.2791	0.083537	0.025405	0.18422	0.14576	0.29681	0.24787	0.12756	0.20813	0.13403	0.23104	0.24149	0.086855	0.12477	0.26718	-3.4583	-3.2083	-3.0646	-3.8667	-3.1104	-3.2792	-3.9271	-2.8812	-3.425	-3.3583	-3.0792	-3.7917	-3.1479	-3.2708	-3.6521	-3.0104	206.800	53.686	60.146	156.150	-45.748	57.377	208.218	206.008	-109.298	-34.486	-78.595	-110.963	-113.834	-63.245	-55.745	-122.129	0.00081795	0.00039561	0.00011978	1138.9	5.0216e-06	3.5413e-06	1129.7	302.81	6.3035e-06	2.9065e-06	345.97	115.18	101.28	34.688	4.8356e-06	42.76	0.00059689	0.00067969	0.00019977	1171.5	7.6525e-06	7.4418e-06	1163.1	312.31	6.8739e-06	7.2613e-06	356.02	119.72	104.71	36.063	6.8464e-06	44.482	61.722	-29.841	-34.305	-109.139	24.668	32.276	-109.355	-104.272	-12.358	23.968	-104.887	-100.687	-100.579	-95.196	5.554	-96.099	-8191	255	
1000.567	1	1	0	0	0.067476	0.11475	0.086345	0.26786	0.13019	0.15724	0.18338	0.22313	0.13548	0.080659	0.071882	0.29425	0.13869	0.13227	0.08651	0.036899	-3.2333	-3.3896	-2.9104	-3.85	-3.2479	-3.1875	-4.0417	-3.2271	-3.4	-3.9458	-3.0979	-3.8375	-3.4271	-3.2875	-3.6958	-3.1063	78.487	87.688	-84.409	-120.576	230.980	50.229	223.596	210.154	-93.958	227.750	114.950	231.189	-119.989	235.645	196.746	194.769	0.00082352	0.00046426	0.0001449	1142.4	4.5223e-06	4.5883e-06	1133.2	303.29	6.7748e-06	4.8043e-06	344.84	115.63	100.83	34.615	3.8172e-06	42.941	0.00060809	0.00066642	0.00020758	1173.4	7.685e-06	7.7814e-06	1165.2	312.59	6.8797e-06	7.7861e-06	356.2	119.6	104.65	36.008	6.5318e-06	44.634	64.915	-33.914	-23.835	-108.384	15.035	35.285	-108.894	-103.916	-8.462	22.751	-104.847	-100.336	-100.118	-95.042	32.320	-96.031	-8191	255	
1000.663	1	1	0	0	0.34817	0.38229	0.26508	0.069197	0.29406	0.25935	0.030055	0.18655	0.21206	0.16583	0.18509	0.40734	0.23467	0.15924	0.16601	0.24161	-3.0917	-3.6104	-3.0021	-3.7125	-3.2271	-2.9917	-3.85	-3.2042	-3.3479	-3.6604	-3.0792	-3.6146	-3.4958	-3.3646	-3.8187	-3.2083	-117.526	107.758	52.513	-96.712	95.138	-21.063	96.553	143.158	56.907	-54.501	232.953	164.892	-87.893	-85.222	67.829	119.520	0.00083375	0.00032149	0.00012089	1152	3.5718e-06	4.9064e-06	1130.8	302.86	6.0324e-06	3.5635e-06	345.39	115.62	101.03	34.599	3.4496e-06	42.789	0.0005986	0.00061613	0.0001919	1176	7.245e-06	7.9663e-06	1163.3	312.05	6.8464e-06	6.7034e-06	355.78	119.89	104.65	35.999	6.7254e-06	44.541	63.644	-48.343	-41.292	-108.749	30.676	34.836	-108.923	-104.138	-4.817	37.720	-104.747	-100.621	-100.349	-95.246	15.417	-96.156	-8191	255	
1000.760	1	1	0	0	0.11597	0.034873	0.030525	0.15853	0.10902	0.22481	0.17013	0.23566	0.30757	0.16364	0.096011	0.20959	0.18756	0.35374	0.21904	0.19615	-3.0292	-3.8458	-2.9042	-3.5604	-3.5	-3.0479	-3.9333	-3.425	-3.3021	-3.8667	-3.1771	-3.8479	-3.7104	-2.9104	-3.8229	-3.4437	7.196	62.355	7.727	189.968	102.935	-78.057	168.397	231.624	81.813	194.894	-75.690	198.161	136.391	216.919	-14.146	29.694	0.00084258	0.00051277	9.2857e-05	1148.6	4.256e-06	4.0567e-06	1131.5	303.42	5.7796e-06	4.1585e-06	345.18	115.54	101.21	34.685	5.0913e-06	42.829	0.00060046	0.00063581	0.00020544	1174.9	6.8434e-06	7.8952e-06	1164.3	312.39	7.0152e-06	7.1604e-06	355.59	119.7	104.84	36.045	6.9311e-06	44.495	65.776	-33.452	-34.460	-108.537	13.010	15.347	-108.839	-104.209	-6.921	31.890	-104.786	-100.393	-100.016	-95.242	11.040	-96.090	-8191	255	
1000.856	1	1	0	0	0.26383	0.070759	0.05458	0.091935	0.20896	0.17408	0.21633	0.19452	0.13218	0.20256	0.12113	0.11857	0.094907	0.20391	0.041324	0.13057	-2.8521	-3.5958	-2.9021	-3.7062	-3.6562	-3.0563	-4.0583	-3.6292	-3.1896	-3.8187	-3.4083	-3.4958	-3.6667	-2.9625	-3.8083	-3.4437	196.335	213.809	-78.391	189.800	47.821	213.406	165.611	191.708	-117.246	-46.989	197.607	54.427	-94.230	-118.795	-50.346	154.049	0.00086298	0.00036807	0.00010999	1142.3	4.1706e-06	4.8797e-06	1134.2	301.31	6.4492e-06	4.3139e-06	346.56	115.36	101.58	34.695	4.3287e-06	42.651	0.00060799	0.00061029	0.00020763	1173	6.7828e-06	8.4001e-06	1162.4	311.68	7.0818e-06	7.2558e-06	356.13	119.59	104.53	36.001	6.8423e-06	44.47	63.519	-33.113	-33.443	-108.694	15.322	21.993	-108.874	-104.035	-4.886	21.658	-105.080	-100.354	-100.021	-95.349	31.038	-96.408	-8191	255	
1000.976	1	1	0	0	0.24107	0.095794	0.17755	0.20809	0.035337	0.17946	0.1598	0.24582	0.13221	0.12113	0.28154	0.097915	0.045715	0.17182	0.013622	0.07892	-2.6854	-3.85	-3.1688	-3.4	-3.65	-3.0396	-3.8583	-3.6417	-3.0687	-3.8396	-3.25	-3.5771	-3.8792	-3.1417	-3.65	-3.7958	53.755	-101.291	82.215	-32.679	132.687	-73.694	224.212	-115.022	111.685	-27.432	170.097	-115.937	54.129	-104.415	-81.666	-49.329	0.0008371	0.00040156	0.00011103	1138.3	3.7185e-06	3.94e-06	1135.2	302.32	6.9877e-06	4.5737e-06	345.32	115.8	101.03	34.626	2.6589e-06	42.56	0.00061322	0.00063756	0.00019832	1172.1	6.9054e-06	8.2223e-06	1164.2	312.14	6.998e-06	7.0961e-06	355.55	119.79	104.54	36.021	6.7993e-06	44.471	65.343	-22.370	-21.888	-108.919	29.646	26.686	-109.274	-104.247	-14.539	27.424	-104.971	-100.559	-100.145	-95.248	1.143	-96.156	-8191	255	
1001.073	1	1	0	0	0.15776	0.18489	0.066011	0.14785	0.14104	0.24279	0.15593	0.11246	0.10718	0.090362	0.027568	0.092331	0.014689	0.171	0.15431	0.20455	-2.625	-3.8083	-3.5292	-3.225	-3.9229	-3.2083	-3.7292	-3.7521	-3.0146	-3.8833	-3.4562	-3.2062	-3.7938	-3.1292	-3.5521	-3.775	130.065	135.764	-116.526	109.070	-113.783	82.432	-56.638	100.661	177.747	163.809	131.446	82.824	224.623	206.357	-22.323	146.600	0.00086434	0.00044549	0.00015363	1139.8	3.2668e-06	3.7236e-06	1127.5	301.69	5.7749e-06	3.6887e-06	344.85	115.54	100.87	34.681	3.776e-06	42.75	0.00061494	0.000631	0.00020169	1169.4	6.9364e-06	8.1725e-06	1161.7	311.83	6.9647e-06	7.9604e-06	355.4	119.75	104.5	35.962	6.7066e-06	44.489	62.309	-41.026	-38.413	-108.658	32.129	26.653	-108.813	-103.929	-28.794	22.474	-104.708	-100.520	-99.906	-95.237	8.049	-96.039	-8191	255	
1001.169	1	1	0	0	0.22538	0.072337	0.18444	0.2833	0.14432	0.29467	0.17188	0.25849	0.27046	0.070298	0.14784	0.18081	0.31025	0.16351	0.18804	0.34625	-2.7146	-3.7646	-3.3771	-3.3125	-3.7021	-3.0229	-3.6458	-3.7229	-3.0854	-3.7	-3.4896	-3.1917	-3.7812	-3.1542	-3.2917	-3.9313	131.092	108.992	-72.698	-81.007	-112.686	151.973	174.201	129.038	-116.950	-83.612	201.572	-43.962	-99.882	-120.561	-121.222	164.427	0.00081962	0.00040126	0.00014825	1138.9	4.8983e-06	3.497e-06	1132.8	303.73	5.432e-06	3.7932e-06	346.02	115.23	101.42	34.606	5.0007e-06	42.832	0.00060041	0.00063989	0.00020029	1170.6	7.0043e-06	7.616e-06	1163.7	312.05	6.8395e-06	7.0631e-06	356.19	119.65	104.72	35.967	7.2725e-06	44.583	63.077	-25.845	-25.386	-109.015	12.227	25.371	-109.068	-104.314	-7.407	34.151	-104.812	-100.737	-100.113	-95.102	13.466	-96.239	-8191	255	
1001.263	1	1	0	0	0.32831	0.021498	0.11216	0.092957	0.099438	0.26843	0.082294	0.13699	0.28991	0.20228	0.10642	0.23082	0.046214	0.15541	0.11918	0.23813	-2.6417	-3.5542	-3.2833	-2.9771	-3.8646	-3.1833	-3.5917	-4.0458	-3.1229	-3.675	-3.6646	-3.0563	-3.975	-3.425	-3.2458	-3.7917	72.745	163.800	114.484	211.203	-9.820	-92.133	156.126	197.617	94.318	-66.628	-105.083	180.040	184.086	121.036	211.121	149.256	0.00083057	0.00042852	0.0001175	1140.6	3.8154e-06	4.9569e-06	1130.8	301.75	5.2881e-06	4.1874e-06	345.95	115.82	101.14	34.506	3.6933e-06	42.713	0.00060242	0.00062983	0.00018933	1172.8	6.5378e-06	7.9165e-06	1163.2	311.95	6.8291e-06	7.3292e-06	355.66	119.66	104.49	35.94	6.8612e-06	44.52	63.696	-30.405	-28.437	-108.593	31.569	32.513	-109.070	-104.021	2.638	17.933	-104.932	-100.659	-99.865	-95.340	21.639	-96.603	-8191	255	
1001.359	1	1	0	0	0.12544	0.14198	0.15989	0.14717	0.20187	0.054424	0.10524	0.18065	0.21142	0.030269	0.44217	0.028535	0.23257	0.14727	0.094857	0.32503	-2.5958	-3.5708	-3.5125	-3.1167	-3.6562	-3.3667	-3.4062	-3.9813	-3.0271	-3.4208	-3.8292	-3.0938	-3.7542	-3.5021	-3.0771	-3.8729	41.957	84.903	-82.052	34.478	-90.541	10.426	222.697	229.128	118.194	-114.274	166.877	-120.091	191.927	-93.085	28.186	-64.368	0.00081334	0.00042641	0.00013852	1142.4	4.0564e-06	3.9468e-06	1134.6	301.22	6.1475e-06	3.666e-06	344.79	115.28	101.26	34.597	4.104e-06	42.636	0.00058618	0.00063902	0.00018334	1172.4	6.6441e-06	7.3565e-06	1163.9	312.1	6.689e-06	7.6026e-06	355.49	119.59	104.7	35.995	7.2201e-06	44.509	60.781	-22.407	-36.962	-108.872	22.153	17.208	-109.165	-104.139	-26.396	37.185	-105.014	-100.673	-100.341	-95.751	23.115	-96.213	-8191	255	
1001.457	1	1	0	0	0.051727	0.08451	0.15055	0.37986	0.05092	0.36843	0.29455	0.2533	0.32407	0.12363	0.32459	0.096442	0.12776	0.03963	0.17489	0.086037	-2.7667	-3.2625	-3.6083	-3.1458	-3.7104	-3.4437	-3.2062	-3.9729	-3.2458	-3.4896	-3.8854	-3.125	-3.6729	-3.6479	-3.2042	-3.8479	39.106	-47.983	-18.158	-116.837	59.267	-6.669	202.740	162.674	-85.417	-3.124	190.281	7.422	202.369	-67.502	63.713	-12.538	0.00084539	0.00044429	0.00011344	1140.7	3.615e-06	4.3208e-06	1132.9	301.75	6.6142e-06	4.8901e-06	346.16	115.78	101.61	34.685	4.7677e-06	42.826	0.00062716	0.00065097	0.00019623	1171.2	6.5067e-06	7.4187e-06	1163.2	311.64	6.9876e-06	7.9421e-06	355.49	119.52	104.65	36.026	7.3787e-06	44.502	64.927	-35.583	-17.929	-108.949	18.812	22.903	-108.966	-104.026	-3.643	33.716	-105.418	-101.030	-100.092	-95.020	19.435	-96.069	-8191	255	
1001.576	1	1	0	0	0.15911	0.13668	0.1557	0.13924	0.14126	0.14367	0.23387	0.26003	0.24772	0.21265	0.013612	0.10844	0.16602	0.1705	0.14902	0.13125	-2.75	-3.1813	-3.6604	-3.1813	-3.6125	-3.3667	-2.9729	-3.9042	-3.3187	-3.2438	-3.9292	-3.1979	-3.6063	-3.5917	-2.9708	-3.9208	164.930	156.568	38.430	-12.870	29.024	163.597	121.685	-103.114	-87.686	-58.642	-76.591	206.308	-108.570	178.271	-32.662	140.855	0.00087336	0.00022496	0.00013099	1139.9	3.1871e-06	3.879e-06	1133.2	302.19	7.3785e-06	4.0006e-06	345.39	115.76	101.55	34.606	4.9568e-06	42.909	0.00060648	0.00066657	0.00018439	1170.3	6.9246e-06	7.184e-06	1164.3	312.15	7.0473e-06	7.7402e-06	355.61	119.63	104.66	35.91	7.3424e-06	44.568	63.255	-32.930	-22.409	-108.702	16.583	15.181	-109.419	-104.434	-3.944	30.827	-105.175	-100.663	-100.389	-95.794	6.079	-96.460	-8191	255	
1001.672	1	1	0	0	0.24738	0.036476	0.15345	0.095762	0.20007	0.21801	0.13575	0.25112	0.24493	0.095128	0.14898	0.046607	0.22252	0.17684	0.15653	0.3211	-2.925	-3.1208	-3.8146	-3.0833	-3.3979	-3.6792	-3.1979	-3.9437	-3.4354	-3.1417	-3.6667	-3.2833	-3.6417	-3.7396	-2.9313	-3.7146	216.698	182.194	233.672	181.672	49.115	90.977	176.396	177.815	60.883	165.425	127.143	120.604	174.735	-47.145	-35.006	183.526	0.00090098	0.00031115	0.00012034	1149.2	3.0569e-06	4.3236e-06	1126.6	302.19	5.2908e-06	4.5762e-06	345.33	115.27	101.28	34.622	3.6011e-06	42.867	0.00060496	0.00065855	0.00017077	1173.1	7.0102e-06	7.1058e-06	1161.7	311.86	6.5615e-06	7.9916e-06	355.77	119.4	104.65	36.008	7.4446e-06	44.534	62.097	-40.398	-34.488	-108.837	24.972	37.382	-109.192	-104.132	11.015	33.500	-104.889	-100.720	-100.163	-95.253	2.056	-96.254	-8191	255	
1001.768	1	1	0	0	0.16583	0.077265	0.2179	0.21923	0.19299	0.12731	0.14413	0.035624	0.079596	0.15256	0.18344	0.20647	0.10462	0.18232	0.22269	0.17129	-3.1562	-2.8438	-3.7354	-3.2167	-3.2604	-3.7729	-3.0875	-3.7167	-3.5792	-3.1937	-3.8458	-3.2646	-3.3583	-3.8792	-3.0875	-3.6542	-16.564	-6.584	215.749	-70.719	106.067	68.706	171.655	-30.562	-111.478	-2.923	158.241	174.426	-39.528	118.166	-21.859	131.205	0.00084052	0.00044636	0.00012719	1146.8	4.303e-06	3.4354e-06	1133.5	302.57	7.5837e-06	2.9512e-06	344.19	115.34	100.72	34.488	4.4009e-06	42.711	0.00058604	0.00069004	0.00018544	1172.3	6.8951e-06	6.7307e-06	1165.6	311.85	6.9635e-06	7.9549e-06	355.58	119.56	104.54	35.98	7.4244e-06	44.53	64.251	-33.286	-39.949	-109.178	23.913	21.855	-109.378	-104.778	-11.192	9.987	-105.318	-101.194	-100.642	-95.396	15.782	-96.527	-8191	255	
1001.864	1	1	0	0	0.34599	0.077234	0.18001	0.090295	0.14925	0.35423	0.079424	0.17233	0.14764	0.25228	0.20031	0.06575	0.082246	0.25532	0.075413	0.13814	-3.2792	-2.9896	-3.6312	-3.35	-3.0875	-3.8167	-3.2854	-3.7208	-3.5312	-3.0167	-3.9854	-3.5958	-3.1875	-3.9479	-3.0854	-3.4146	172.293	83.786	21.228	76.610	-108.776	197.297	-81.849	165.011	224.459	-39.390	175.695	-111.089	192.135	233.797	127.213	226.941	0.00078737	0.00036085	0.00012478	1139.4	3.8614e-06	4.4092e-06	1134	303.11	7.0235e-06	4.6835e-06	345.21	115.2	100.99	34.642	3.8533e-06	42.828	0.00057411	0.00063683	0.00019094	1170.8	6.9157e-06	6.992e-06	1163.8	312.24	6.8659e-06	7.9127e-06	355.6	119.5	104.48	36.006	7.0816e-06	44.522	62.552	-35.628	-31.239	-109.183	23.683	25.530	-109.664	-104.725	-10.312	47.196	-105.248	-101.105	-100.838	-95.815	3.013	-96.598	-8191	255	
1001.961	1	1	0	0	0.050684	0.14227	0.087109	0.15436	0.20355	0.29122	0.3962	0.10277	0.147	0.1724	0.12008	0.20411	0.057427	0.06115	0.068022	0.26483	-3.1229	-3.0146	-3.7146	-3.5479	-3.0125	-3.8042	-3.2188	-3.5312	-3.7875	-3.1208	-3.8875	-3.5187	-2.8896	-3.8688	-3.0812	-3.6146	-38.552	70.244	169.076	17.619	154.446	-57.246	171.186	138.259	237.629	76.286	-108.365	193.783	212.207	-81.889	232.804	177.434	0.00085762	0.0003659	0.00011727	1140.8	4.1288e-06	4.1025e-06	1132.9	303.44	5.9326e-06	4.465e-06	344.68	115.68	101.22	34.663	3.7672e-06	42.907	0.00057841	0.00066351	0.00017548	1173	7.5225e-06	7.2143e-06	1166.1	312.09	6.4616e-06	7.9054e-06	355.07	119.66	104.64	36.007	6.8827e-06	44.59	62.307	-48.586	-32.571	-109.070	18.478	16.480	-109.462	-104.312	-19.442	26.748	-105.085	-101.043	-100.450	-95.480	18.268	-96.339	-8191	255	
1002.057	1	1	0	0	0.17428	0.097764	0.16671	0.092523	0.017335	0.040538	0.16816	0.10755	0.11191	0.017546	0.17632	0.20451	0.23891	0.21592	0.091986	0.32665	-3.3854	-2.9979	-3.5938	-3.7458	-2.9854	-3.775	-3.2729	-3.4417	-3.7271	-2.9875	-3.7521	-3.6083	-3.0229	-3.8333	-3.3354	-3.1937	236.256	-73.255	200.135	-10.921	30.794	-1.343	173.434	185.293	139.170	44.870	165.827	200.387	-72.633	-116.751	219.175	-97.121	0.00080335	0.00046057	0.00013368	1146.5	4.4475e-06	4.4104e-06	1130.8	302.62	7.728e-06	5.0645e-06	344.69	115.46	101.11	34.574	4.9048e-06	42.635	0.00058208	0.00067663	0.00018457	1174.7	7.2553e-06	6.9743e-06	1163.3	312.04	6.5937e-06	7.7439e-06	356.21	119.72	104.47	36.031	6.8719e-06	44.535	64.057	-25.205	-25.471	-109.118	20.381	27.771	-109.451	-104.463	-1.596	27.701	-106.009	-101.884	-101.188	-96.474	1.581	-97.150	-8191	255	
1002.153	1	1	0	0	0.1453	0.25595	0.13722	0.0811	0.1961	0.11445	0.21159	0.17217	0.13895	0.14438	0.068705	0.072029	0.20244	0.15028	0.076159	0.18753	-3.5396	-2.9604	-3.4896	-3.7729	-3.0083	-3.7333	-3.6333	-3.3104	-3.9833	-3.1104	-3.5104	-3.9646	-3.2354	-3.8167	-3.4688	-3.2521	181.272	94.755	149.451	219.129	-67.311	134.272	199.878	208.112	210.232	-21.390	226.571	25.401	-54.564	-67.342	110.826	136.980	0.00086905	0.00040023	0.00010478	1136.9	4.3942e-06	4.183e-06	1131.6	301.33	6.8685e-06	4.3648e-06	344.92	115.18	101.05	34.51	3.9231e-06	42.668	0.00056619	0.00063012	0.00018295	1169.7	7.4413e-06	6.4534e-06	1163	311.62	6.4559e-06	7.3108e-06	354.99	119.57	104.61	36.018	6.8222e-06	44.549	60.962	-35.753	-36.505	-109.388	13.258	33.378	-110.242	-104.983	-13.749	22.120	-106.099	-101.726	-101.677	-96.483	5.011	-97.274	-8191	255	
1002.249	1	1	0	0	0.080743	0.22291	0.06972	0.10722	0.19984	0.08245	0.093995	0.06287	0.040551	0.19689	0.056329	0.16977	0.11441	0.078086	0.38493	0.31095	-3.3542	-3.1896	-3.45	-3.9688	-2.9833	-3.5833	-3.8438	-3.2	-3.7667	-3.1146	-3.3167	-3.8229	-3.1646	-3.6521	-3.75	-2.9688	20.276	117.079	-11.684	198.198	74.615	-88.112	-17.472	-94.515	-106.820	110.473	217.802	148.313	37.624	210.333	56.817	161.674	0.00086956	0.00051406	0.00013758	1143.7	4.1704e-06	4.6235e-06	1127.7	301.36	5.8157e-06	3.6216e-06	346.54	115.15	100.64	34.424	3.8508e-06	43.001	0.00059274	0.00068975	0.00019383	1172.2	7.496e-06	7.0987e-06	1162.3	311.44	6.3605e-06	7.6375e-06	355.89	119.53	104.46	35.973	6.1366e-06	44.614	65.513	-35.916	-31.900	-109.822	24.277	32.343	-110.135	-104.929	-17.323	28.211	-106.150	-101.488	-101.188	-96.117	26.421	-96.959	-8191	255	
1002.368	1	1	0	0	0.21736	0.1995	0.18436	0.15116	0.092243	0.30633	0.27568	0.23036	0.12451	0.11169	0.21942	0.027717	0.39266	0.018848	0.15473	0.12309	-3.575	-3.2167	-3.2167	-3.7458	-3.1479	-3.4854	-3.6604	-3.0521	-3.8521	-3.45	-3.225	-3.9958	-3.1417	-3.3979	-3.6479	-3.0771	-118.216	-53.916	-1.503	193.159	235.172	-94.403	-80.430	100.653	232.975	82.468	224.172	-93.636	165.098	-27.217	112.895	204.634	0.00080069	0.00045729	0.00013899	1136.6	4.3371e-06	4.6334e-06	1130	302.17	4.1658e-06	4.5122e-06	344.87	115.77	100.91	34.461	3.0757e-06	42.613	0.00059934	0.00068261	0.00019479	1171.9	7.2701e-06	7.0436e-06	1163.8	311.83	6.2939e-06	7.4631e-06	355.73	119.75	104.45	35.979	6.0062e-06	44.596	65.392	-31.123	-22.559	-109.688	21.152	28.286	-110.037	-105.257	-5.828	21.597	-105.983	-101.602	-101.622	-96.344	7.512	-97.485	-8191	255	
1002.440	1	1	0	0	0.12677	0.32935	0.0217	0.024021	0.026645	0.016282	0.15224	0.056295	0.085236	0.14031	0.03843	0.15144	0.10305	0.28572	0.077999	0.040984	-3.3146	-3.2979	-3.2313	-3.9521	-3.2021	-3.5021	-3.7562	-3.0625	-3.8187	-3.5312	-3.375	-3.8458	-3.125	-3.5958	-3.7562	-3.1354	-63.164	-47.696	199.459	-115.176	-49.082	21.163	171.309	-109.624	90.966	-75.216	8.317	154.742	92.647	207.907	3.130	67.400	0.00082082	0.0004304	0.00010169	1141.5	3.806e-06	2.8568e-06	1129.4	301.58	6.7315e-06	3.7318e-06	344.95	115.18	101.43	34.451	4.4196e-06	42.823	0.00058794	0.00064937	0.0001861	1172.3	6.9733e-06	6.9867e-06	1163.8	312	6.3996e-06	7.1567e-06	355.35	119.65	104.61	35.997	6.3934e-06	44.589	66.679	-44.737	-29.432	-110.144	20.022	25.929	-110.208	-105.310	-2.505	29.116	-106.170	-101.534	-101.307	-96.354	18.071	-97.195	-8191	255	
1002.538	1	1	0	0	0.031826	0.073901	0.24126	0.22495	0.1345	0.068507	0.066093	0.18308	0.27588	0.048183	0.23004	0.082941	0.14379	0.12988	0.14523	0.21402	-3.3937	-3.6375	-2.9333	-3.8771	-3.1667	-3.3646	-3.8688	-3.1688	-3.5292	-3.4604	-3.0792	-3.925	-3.3167	-3.175	-3.5625	-3.2229	-118.075	186.961	222.906	-106.265	132.769	-62.096	181.566	148.536	-21.803	115.605	156.350	-46.319	27.890	106.295	43.255	-45.647	0.0009008	0.00043392	0.00010814	1134.1	4.3921e-06	3.9036e-06	1128.9	301.97	5.9257e-06	5.1404e-06	344.41	115.33	100.82	34.63	4.4017e-06	42.613	0.00059391	0.00064966	0.00019107	1171.3	7.1032e-06	7.632e-06	1164.4	311.8	6.2135e-06	7.3512e-06	355.08	119.61	104.63	35.985	6.4189e-06	44.508	62.904	-50.045	-14.919	-109.850	29.492	27.047	-110.005	-105.119	-8.257	10.140	-106.003	-101.677	-101.263	-96.153	13.046	-97.117	-8191	255	
1002.656	1	1	0	0	0.20387	0.089586	0.17813	0.26428	0.34359	0.28136	0.17182	0.21977	0.041636	0.025051	0.31254	0.22819	0.13256	0.22417	0.088359	0.28598	-3.1229	-3.5771	-2.9667	-3.9167	-3.1937	-3.1958	-3.8729	-3.2354	-3.3479	-3.6	-3.0687	-3.9188	-3.3854	-3.2271	-3.8667	-3.1833	-82.992	-105.166	2.958	217.742	6.664	-45.477	-82.917	190.422	138.325	-69.153	187.684	-62.629	-119.494	-69.150	130.334	16.459	0.00087153	0.00041295	0.00012575	1134.7	4.2148e-06	2.9861e-06	1128	301.18	6.0403e-06	3.9669e-06	344.54	115.58	100.82	34.448	3.7781e-06	42.575	0.00058266	0.00062852	0.00019016	1171	7.3409e-06	7.1947e-06	1165.1	311.88	6.4765e-06	6.764e-06	355.77	119.7	104.74	36.037	6.8531e-06	44.457	61.479	-29.771	-35.994	-109.597	36.877	26.609	-110.172	-105.347	-5.062	25.152	-105.897	-101.459	-101.415	-96.250	11.976	-97.029	-8191	255	
1002.753	1	1	0	0	0.23144	0.024723	0.24357	0.24588	0.32181	0.15437	0.20455	0.042159	0.071679	0.11337	0.365	0.1904	0.23153	0.14204	0.094	0.18408	-3.0083	-3.6854	-3.0917	-3.8125	-3.3104	-3.1354	-3.9583	-3.2521	-3.2708	-3.6729	-3.2771	-3.6688	-3.5646	-3.1604	-3.925	-3.3292	-31.616	51.957	-71.950	1.778	61.010	-94.241	125.960	228.794	79.344	184.129	-104.813	-17.172	184.763	146.439	-44.901	67.827	0.00081618	0.00039136	0.00010669	1145.4	3.8535e-06	4.8777e-06	1131.4	302.27	5.5784e-06	4.6716e-06	343.7	115.07	101.31	34.476	5.043e-06	42.541	0.0005899	0.00059907	0.00018776	1176.5	6.7577e-06	7.7227e-06	1165.6	312.36	6.3617e-06	6.7218e-06	355.4	119.49	104.86	36.013	6.6313e-06	44.485	60.882	-26.872	-39.695	-109.670	45.132	25.649	-110.016	-105.173	-3.978	36.770	-106.017	-101.714	-101.285	-96.446	8.150	-97.545	-8191	255	
1002.849	1	1	0	0	0.13068	0.2622	0.15354	0.10672	0.15377	0.083239	0.12597	0.2489	0.24488	0.25002	0.15019	0.1091	0.11878	0.23488	0.11207	0.15798	-2.8542	-3.8083	-3.0604	-3.5625	-3.6229	-3.0208	-3.9813	-3.3063	-3.1208	-3.8917	-3.2667	-3.6708	-3.6292	-3.2062	-3.7729	-3.1958	-101.368	155.240	159.870	-63.015	120.734	199.074	187.529	167.926	174.865	-8.940	-37.066	235.569	31.499	178.392	-109.826	-95.263	0.0009049	0.00031506	0.00011008	1140.3	3.3846e-06	4.7167e-06	1127.8	301.75	6.9238e-06	3.9201e-06	343.8	115.21	100.98	34.56	3.376e-06	42.781	0.0006078	0.00060752	0.00020038	1172.7	6.3045e-06	7.2569e-06	1166	312.24	6.8257e-06	7.487e-06	355.33	119.67	104.64	35.96	6.6582e-06	44.573	63.780	-43.372	-30.695	-109.861	25.838	22.680	-109.871	-105.116	-8.414	35.161	-105.751	-101.443	-100.826	-96.207	3.097	-96.963	-8191	255	
1002.969	1	1	0	0	0.35927	0.17596	0.097552	0.23125	0.26378	0.061232	0.023928	0.37935	0.04617	0.094963	0.09629	0.18232	0.078261	0.24048	0.025302	0.11687	-2.7188	-3.8	-3.1688	-3.4125	-3.775	-2.9958	-3.8854	-3.5833	-3.2042	-3.9	-3.1813	-3.5187	-3.8	-3.2646	-3.7542	-3.5542	187.549	56.147	-90.726	233.336	82.439	57.716	130.247	196.925	108.688	171.095	31.585	-99.925	78.551	137.051	190.603	114.500	0.00087898	0.00042056	9.5539e-05	1141.5	4.2216e-06	4.4653e-06	1128.5	300.73	6.3474e-06	4.5859e-06	339.95	114.38	99.84	34.267	4.2799e-06	42.214	0.00059562	0.00059163	0.00018758	1173.8	6.8951e-06	7.3992e-06	1164.4	311.93	6.9451e-06	7.2448e-06	354.71	119.46	104.49	35.88	6.4055e-06	44.385	64.901	-29.711	-19.682	-109.656	22.583	23.568	-109.742	-104.886	-0.080	25.045	-105.883	-101.849	-101.328	-96.434	8.850	-97.447	-8191	255	
1003.041	1	1	0	0	0.10656	0.072145	0.21107	0.12547	0.23518	0.079825	0.24443	0.14133	0.099212	0.12543	0.053185	0.22528	0.23735	0.17449	0.09971	0.11626	-2.6	-3.8833	-3.2438	-3.3542	-3.8042	-3	-3.7083	-3.6604	-3.1417	-3.7292	-3.4208	-3.4208	-3.8646	-3.3208	-3.5021	-3.575	31.313	-119.782	-37.185	-104.601	-51.626	5.796	101.032	151.139	0.758	-52.248	-103.629	185.737	201.781	171.249	67.970	11.827	0.00088147	0.00032254	0.00011334	1132.4	4.3959e-06	3.9999e-06	1126.6	299.16	4.895e-06	3.3531e-06	342.44	114.76	100.25	34.118	4.8379e-06	42.313	0.0005898	0.00059396	0.00020234	1171.5	6.864e-06	7.7778e-06	1166.8	311.58	6.5592e-06	7.12e-06	355.28	119.68	104.43	35.912	6.3275e-06	44.473	61.490	-34.583	-29.987	-110.013	11.147	35.007	-110.192	-105.399	-22.654	24.070	-105.934	-101.495	-100.895	-96.579	-0.338	-97.477	-8191	255	
1003.137	1	1	0	0	0.1533	0.14485	0.1136	0.075271	0.11531	0.40869	0.28189	0.11722	0.10403	0.1958	0.26615	0.31299	0.10075	0.17778	0.077707	0.1306	-2.5917	-3.6771	-3.3979	-3.2021	-3.9042	-3.1188	-3.5938	-3.5229	-3.0062	-3.8167	-3.3771	-3.2896	-3.7812	-2.9583	-3.4042	-3.6958	97.069	-27.342	226.216	-57.178	122.264	235.694	173.833	140.917	172.109	152.430	-53.444	235.790	124.051	215.551	231.417	178.285	0.00087079	0.00028233	0.00012832	1126.1	4.4253e-06	4.2604e-06	1130.5	299.58	5.0055e-06	3.0762e-06	340.18	114.21	98.995	34.156	3.9578e-06	42.138	0.00059973	0.00062793	0.00018863	1168.3	6.9054e-06	8.0836e-06	1167.6	311.79	6.9107e-06	6.9824e-06	354.77	119.55	104.33	35.908	6.7886e-06	44.4	64.403	-10.602	-24.015	-110.365	21.365	20.231	-110.586	-105.925	-11.438	17.397	-106.709	-102.218	-101.669	-96.984	0.854	-97.516	-8191	255	
1003.258	1	1	0	0	0.18614	0.11134	0.14022	0.18648	0.011913	0.1512	0.33582	0.055878	0.05957	0.18947	0.15219	0.21135	0.044784	0.12869	0.084202	0.252	-2.7812	-3.6375	-3.4938	-3.2042	-3.7021	-3.1792	-3.6979	-3.7479	-3.0604	-3.6896	-3.6625	-3.1312	-3.9604	-3.3167	-3.2021	-3.9188	95.629	-71.164	16.826	196.788	78.254	227.269	181.465	172.214	29.422	-55.578	155.724	234.588	124.920	125.941	-93.008	166.858	0.00085917	0.00037807	0.00011587	1135.8	3.968e-06	4.1512e-06	1122.3	299.69	6.4204e-06	3.8209e-06	341.88	114.11	99.751	34.25	5.0076e-06	42.505	0.00059904	0.00062881	0.00018736	1173.8	6.7031e-06	7.5876e-06	1165.8	311.81	6.5994e-06	6.9273e-06	355.38	119.47	104.53	35.933	6.6057e-06	44.566	63.392	-30.698	-34.215	-110.067	10.908	28.489	-110.783	-105.691	-7.404	33.972	-106.769	-102.273	-101.714	-97.013	13.245	-97.751	-8191	255	
1003.352	1	1	0	0	0.047925	0.14811	0.07632	0.31473	0.24249	0.11917	0.25333	0.11937	0.21651	0.12389	0.31113	0.47188	0.13025	0.49576	0.14657	0.25195	-2.6	-3.7646	-3.5938	-3.0229	-3.9146	-3.3021	-3.3875	-3.9188	-3.0812	-3.6375	-3.5854	-3.1104	-3.8542	-3.5229	-3.0521	-3.8583	213.546	-37.748	188.655	187.090	142.307	58.122	190.977	199.783	199.870	229.914	176.885	183.042	221.849	224.809	-62.269	165.903	0.00085015	0.00047295	0.00010158	1134.5	4.903e-06	4.5038e-06	1122.7	299.72	7.3292e-06	4.2074e-06	340.99	115.01	100.74	34.418	2.9709e-06	42.419	0.00058922	0.00062342	0.00017566	1175.8	6.6559e-06	6.8925e-06	1165.2	311.68	6.7763e-06	7.4118e-06	355.4	119.53	104.84	35.954	6.5063e-06	44.466	61.400	-41.564	-49.592	-110.316	14.035	37.764	-110.632	-105.719	-12.863	39.563	-106.392	-102.296	-101.590	-96.874	6.797	-97.781	-8191	255	
1003.448	1	1	0	0	0.099106	0.035746	0.062006	0.13449	0.1916	0.21305	0.147	0.089913	0.067358	0.12762	0.12333	0.12067	0.22961	0.27544	0.044021	0.2599	-2.5938	-3.4875	-3.5854	-3.0667	-3.5917	-3.3083	-3.275	-3.8521	-2.9708	-3.4854	-3.775	-3.0646	-3.7792	-3.4437	-3.0917	-3.8667	-61.901	25.291	-33.824	218.075	162.516	-38.147	-117.552	56.220	-115.054	87.086	103.805	133.231	125.361	-118.011	142.972	140.741	0.00090288	0.00039025	0.0001133	1126.9	4.3889e-06	4.0148e-06	1124.3	299.07	7.6492e-06	3.4662e-06	341.01	114.71	99.18	34.402	4.0476e-06	42.351	0.00058863	0.00062487	0.00016505	1170	6.8951e-06	7.1076e-06	1164.7	311.46	6.5604e-06	7.0998e-06	355.13	119.58	104.34	35.965	6.8867e-06	44.473	59.847	-46.094	-33.533	-110.314	17.978	19.668	-110.678	-105.751	5.222	31.285	-106.768	-102.204	-101.709	-97.015	7.803	-97.619	-8191	255	
1003.569	1	1	0	0	0.2482	0.057338	0.10137	0.059879	0.19528	0.28213	0.14278	0.2003	0.051264	0.077462	0.26069	0.13826	0.16322	0.12646	0.15849	0.17674	-2.6688	-3.325	-3.6354	-3.1542	-3.5771	-3.4688	-3.2833	-3.9729	-3.1917	-3.1958	-3.8271	-3.025	-3.5438	-3.7062	-2.9292	-4.0375	69.119	18.266	64.246	225.480	128.015	-98.467	185.869	234.853	219.709	-5.691	223.695	165.531	-67.287	183.129	-41.839	5.535	0.00088864	0.00039482	0.0001124	1135.9	4.1308e-06	3.95e-06	1123	299.04	7.6421e-06	4.2269e-06	341.86	114.62	100.28	34.22	5.533e-06	42.48	0.00060257	0.00061977	0.00017487	1171.5	6.4876e-06	7.0294e-06	1164.2	311.58	6.6591e-06	7.175e-06	355.32	119.63	104.7	35.934	7.2765e-06	44.46	62.013	-28.503	-25.262	-110.301	18.505	16.900	-110.374	-105.608	6.398	21.674	-106.325	-102.008	-101.623	-96.661	9.682	-97.440	-8191	255	
1003.665	1	1	0	0	0.055009	0.0708	0.075152	0.22256	0.16474	0.14944	0.39685	0.10411	0.1117	0.2628	0.25275	0.15895	0.3262	0.11469	0.11881	0.18122	-2.9354	-3.1333	-3.7146	-3.0083	-3.5812	-3.3563	-3.0208	-3.8896	-3.3208	-3.2479	-3.8479	-3.0771	-3.5083	-3.7313	-3.0896	-3.6854	126.534	-85.877	147.470	211.088	105.815	214.896	135.214	234.249	194.879	151.546	-109.057	128.978	-98.168	197.135	178.322	-115.297	0.00087516	0.0004031	0.00012014	1134	3.783e-06	4.7857e-06	1123.7	300.48	6.9605e-06	4.3274e-06	345.18	114.18	99.653	34.327	3.706e-06	42.386	0.00057753	0.00063362	0.00017055	1172.4	6.9733e-06	7.1627e-06	1163.7	311.56	6.6511e-06	7.2283e-06	355.31	119.47	104.46	35.96	6.5614e-06	44.477	60.416	-32.319	-31.159	-110.129	17.170	30.924	-110.309	-105.276	-14.724	33.988	-106.293	-101.862	-101.536	-96.588	11.422	-97.041	-8191	255	
1003.737	1	1	0	0	0.24034	0.27426	0.15855	0.10215	0.12696	0.22527	0.1789	0.16791	0.02065	0.16135	0.062958	0.14754	0.22472	0.094841	0.31447	0.1138	-2.8708	-2.9625	-3.6771	-3.1979	-3.3125	-3.6396	-3.1688	-3.8375	-3.4437	-3.1833	-3.9813	-3.2583	-3.2917	-3.8667	-2.9417	-3.6437	161.477	127.524	186.545	188.614	155.943	43.010	163.414	199.211	52.051	64.547	202.345	202.978	-109.495	90.792	29.008	160.597	0.0008561	0.0004141	0.00011229	1130.4	3.7655e-06	3.2044e-06	1124	297.67	7.6104e-06	5.4623e-06	342.76	114.21	100.45	34.302	5.0585e-06	42.288	0.00059078	0.00062167	0.00016216	1171.3	6.8183e-06	6.6063e-06	1164.9	311.26	6.4237e-06	7.6558e-06	354.95	119.37	104.68	35.949	6.6756e-06	44.476	64.740	-32.485	-32.211	-110.493	19.774	32.671	-110.613	-105.757	-9.509	19.450	-106.569	-101.974	-101.564	-96.663	11.361	-97.391	-8191	255	
1003.833	1	1	0	0	0.31249	0.22051	0.1295	0.16595	0.32238	0.18938	0.17343	0.10375	0.25167	0.030028	0.16792	0.20972	0.4804	0.052742	0.081217	0.070792	-2.9917	-3.1458	-3.7521	-3.2646	-3.5083	-3.8833	-3.0521	-3.6813	-3.4458	-3.0458	-3.6583	-3.1979	-3.1771	-3.8312	-2.9958	-3.6813	20.529	93.161	-94.886	-75.236	-98.232	58.480	231.326	-92.840	-110.259	167.185	215.077	-113.218	150.876	-49.556	33.962	147.029	0.00086274	0.00043814	0.00010991	1122.7	2.836e-06	4.7258e-06	1123.8	299.85	7.2776e-06	5.2056e-06	341.02	114.99	100.16	34.367	4.7937e-06	42.575	0.00057611	0.00066074	0.00018147	1167.5	6.6883e-06	6.8712e-06	1163.4	311.76	6.581e-06	7.5292e-06	354.98	119.64	104.51	35.976	7.2026e-06	44.574	62.249	-46.586	-33.797	-110.371	14.703	34.799	-110.517	-105.556	-9.682	23.580	-106.448	-102.152	-101.410	-96.725	21.547	-97.483	-8191	255	
1003.929	1	1	0	0	0.26321	0.1339	0.088695	0.29715	0.049333	0.23832	0.19247	0.2066	0.16561	0.21969	0.24986	0.17873	0.16883	0.18749	0.22164	0.11697	-3.1104	-2.9062	-3.6042	-3.3521	-3.1083	-3.8646	-3.2208	-3.5042	-3.6771	-3	-3.8958	-3.5625	-3.0167	-3.875	-2.9896	-3.425	-15.180	-101.536	62.524	-57.188	7.501	157.743	111.628	198.921	-29.207	162.236	177.986	216.541	105.573	215.829	-18.314	-36.454	0.00087383	0.00033328	0.00010963	1136.7	4.7536e-06	3.3998e-06	1119.3	297.72	7.4174e-06	3.8095e-06	341.15	114.02	100.29	34.162	4.7059e-06	42.199	0.00059694	0.00062079	0.00017478	1171.2	6.7622e-06	5.984e-06	1161.6	311.15	6.3732e-06	7.5971e-06	355.84	119.45	104.73	35.94	7.1824e-06	44.384	62.821	-35.973	-21.877	-110.105	21.973	31.028	-110.405	-105.531	-1.383	16.193	-105.894	-101.774	-101.345	-96.282	6.401	-97.132	-8191	255	
1004.050	1	1	0	0	0.038262	0.26917	0.068856	0.16454	0.13036	0.10769	0.25578	0.14247	0.060852	0.12081	0.080094	0.16501	0.17935	0.41707	0.28284	0.22083	-3.3354	-2.9917	-3.8688	-3.3396	-3.0375	-3.7188	-3.2729	-3.3958	-3.8021	-3.0542	-3.9417	-3.5229	-3.0542	-3.7833	-3.1521	-3.3229	141.160	226.838	171.082	126.237	137.738	-100.012	184.888	31.011	-99.104	24.879	133.963	225.254	-117.851	-59.745	40.268	-79.028	0.0008201	0.0004416	7.9119e-05	1125.9	5.032e-06	3.8964e-06	1120.1	299.99	6.0171e-06	3.9477e-06	344.14	114.48	100.65	34.112	4.0574e-06	42.33	0.00056374	0.00064164	0.00016129	1168.2	7.1623e-06	6.9512e-06	1162.1	312.05	6.333e-06	7.6118e-06	356.17	119.49	104.69	35.909	6.6111e-06	44.466	63.827	-39.342	-18.194	-109.666	26.303	26.447	-110.028	-104.992	-4.533	14.454	-105.796	-101.861	-100.967	-96.354	4.693	-97.082	-8191	255	
1004.146	1	1	0	0	0.075402	0.2484	0.11277	0.066961	0.043439	0.15227	0.26569	0.06981	0.21613	0.12614	0.20076	0.17768	0.12805	0.078587	0.25354	0.059784	-3.4917	-2.775	-3.6667	-3.55	-3.0312	-3.9042	-3.5438	-3.2458	-3.8104	-2.8438	-3.6708	-3.7833	-2.9562	-3.9542	-3.3396	-3.3083	-25.879	66.970	-60.806	120.959	47.594	-106.419	191.231	-100.987	-76.091	-59.771	163.526	143.880	26.160	215.722	-61.218	134.645	0.00085699	0.00033082	0.00011714	1136.3	3.0494e-06	4.9387e-06	1122.3	301.18	6.1699e-06	3.5772e-06	341.22	114.76	100.77	34.555	4.2166e-06	42.597	0.00057171	0.0006396	0.0001781	1171.6	6.8906e-06	7.2409e-06	1164	312.32	6.1412e-06	7.5476e-06	354.81	119.56	104.64	36.015	6.8128e-06	44.51	63.593	-30.078	-28.851	-109.650	14.154	25.832	-109.845	-104.593	0.898	31.301	-105.916	-101.704	-100.686	-96.153	10.620	-97.063	-8191	255	
1004.242	1	1	0	0	0.11849	0.080194	0.20211	0.14515	0.12147	0.21048	0.15545	0.19861	0.087911	0.048037	0.23061	0.073986	0.3439	0.26461	0.014929	0.30123	-3.3438	-3.1146	-3.4458	-3.625	-2.9813	-3.7208	-3.4583	-3.1354	-3.8167	-3.2083	-3.5646	-3.8667	-3.0438	-3.7042	-3.4792	-3.0625	-28.523	212.747	19.185	-101.874	181.891	110.555	146.980	139.440	-120.482	50.337	167.058	64.164	223.598	-104.858	158.271	210.583	0.00085019	0.00033893	0.00011497	1137.7	4.0603e-06	4.2821e-06	1126.1	301.14	4.5182e-06	4.4802e-06	342.5	114.38	99.699	34.297	3.8796e-06	42.424	0.00057596	0.00061511	0.00018247	1170.5	6.9556e-06	6.7627e-06	1165.5	312.07	6.1503e-06	7.109e-06	355.31	119.23	104.36	35.95	6.8329e-06	44.403	62.827	-32.815	-23.420	-109.773	15.640	29.352	-110.037	-104.731	-0.055	35.077	-105.788	-101.442	-100.752	-96.179	19.397	-96.781	-8191	255	
1004.338	1	1	0	0	0.16228	0.23229	0.27592	0.2051	0.26961	0.2091	0.10453	0.33122	0.17093	0.11209	0.17818	0.34807	0.099539	0.2531	0.083373	0.086923	-3.3417	-3.0771	-3.2375	-3.6854	-2.9375	-3.7958	-3.5187	-3.0438	-3.6688	-3.0896	-3.3542	-3.8083	-3.1146	-3.7583	-3.7083	-3.2	202.204	100.715	210.150	157.353	-121.438	181.401	186.127	185.726	206.587	43.594	8.256	235.652	74.107	186.075	102.746	181.810	0.00090721	0.00036714	9.493e-05	1135.5	5.261e-06	3.8604e-06	1128.2	300.61	6.6534e-06	4.9672e-06	341.87	114.37	99.972	34.344	3.108e-06	42.295	0.00058804	0.00062691	0.00018116	1171.7	7.307e-06	7.5058e-06	1165.3	311.96	6.395e-06	7.832e-06	355.7	119.23	104.35	35.946	6.3799e-06	44.469	61.223	-35.411	-34.455	-109.767	24.649	28.145	-109.794	-104.942	-12.632	37.566	-106.125	-101.769	-101.528	-96.335	13.204	-97.103	-8191	255	
1004.433	1	1	0	0	0.053597	0.23475	0.13161	0.039151	0.22266	0.17486	0.17261	0.27388	0.10522	0.12594	0.19477	0.14913	0.21237	0.2052	0.29455	0.11717	-3.2812	-3.3917	-3.0312	-3.8521	-3.125	-3.4729	-3.8542	-3.1792	-3.7708	-3.4583	-3.1188	-3.8646	-3.1646	-3.5917	-3.6917	-2.9542	60.967	205.723	27.302	178.078	199.314	147.597	233.861	209.108	132.928	-40.856	-110.811	199.092	50.001	202.420	-73.549	171.342	0.00079534	0.00040434	0.00013923	1136.5	3.1651e-06	4.9715e-06	1124.8	300.32	5.9943e-06	2.9773e-06	341.59	115.02	100.74	34.552	3.7768e-06	42.539	0.00055533	0.00064485	0.00018998	1171.6	6.6957e-06	7.2445e-06	1165	311.22	6.3192e-06	6.7365e-06	355.1	119.43	104.7	36.022	6.4485e-06	44.476	61.577	-31.608	-37.294	-109.201	22.588	27.246	-109.626	-104.647	-14.513	30.264	-105.397	-101.082	-100.526	-95.612	5.764	-96.473	-8191	255	
1004.530	1	1	0	0	0.14512	0.049026	0.065209	0.13371	0.10079	0.071132	0.23685	0.21491	0.10171	0.18912	0.16125	0.15189	0.11845	0.13977	0.13959	0.28251	-3.4021	-3.2604	-3.0792	-3.9437	-2.9	-3.4313	-3.9875	-3.1979	-3.5458	-3.5125	-2.9854	-3.8083	-3.1583	-3.4	-3.7646	-3.1854	135.326	155.924	151.829	-94.853	80.997	71.502	187.304	189.051	187.977	5.439	143.972	187.099	117.082	213.842	-7.816	118.571	0.00082281	0.00039968	0.00012196	1133	3.9151e-06	3.9996e-06	1129.8	300.51	6.7356e-06	4.2946e-06	344.89	115.13	100.31	34.525	2.882e-06	42.514	0.00058125	0.00061379	0.00019094	1171.7	7.053e-06	7.0543e-06	1163.7	311.16	6.5213e-06	7.2448e-06	355.66	119.53	104.57	35.971	6.4041e-06	44.434	61.496	-38.947	-33.396	-109.170	26.030	31.965	-109.622	-104.616	-19.374	20.179	-105.513	-100.902	-100.671	-95.767	2.069	-96.718	-8191	255	
1004.649	1	1	0	0	0.28987	0.052471	0.21066	0.14998	0.1813	0.27348	0.28116	0.069332	0.21799	0.14975	0.35481	0.17493	0.14356	0.14173	0.21147	0.34045	-3.2917	-3.5396	-3.0729	-3.6604	-3.0667	-3.1958	-4.0312	-3.3979	-3.6396	-3.5333	-2.9396	-3.9229	-3.2729	-3.3063	-3.7938	-3.1021	83.338	63.827	-39.279	-31.554	115.393	31.178	166.079	212.388	105.472	132.136	135.883	-73.863	160.749	-61.718	-91.823	223.403	0.00078662	0.00040644	0.00010716	1137.8	4.7513e-06	4.2017e-06	1124.7	299.89	7.4104e-06	4.1094e-06	342.18	114.94	100.76	34.47	3.5319e-06	42.324	0.00058638	0.00060519	0.00019273	1173.8	6.7149e-06	7.1627e-06	1163.8	311.08	6.5512e-06	7.3182e-06	354.8	119.51	104.75	35.96	6.1594e-06	44.435	64.415	-30.328	-26.949	-108.778	30.478	19.709	-109.355	-104.389	5.986	36.295	-105.241	-100.852	-100.563	-95.593	5.248	-96.480	-8191	255	
1004.745	1	1	0	0	0.22708	0.14879	0.11741	0.19853	0.058379	0.15335	0.49809	0.13233	0.23632	0.095201	0.12502	0.14973	0.12678	0.1783	0.11125	0.0081177	-3.1542	-3.4583	-2.8625	-3.775	-3.2792	-3.225	-4.1292	-3.1562	-3.4354	-3.7208	-3.1271	-3.8438	-3.3958	-3.1646	-3.7875	-3.2833	-95.769	-28.181	237.331	117.097	-15.831	165.658	174.865	183.692	-63.838	117.912	163.154	-53.290	236.908	108.003	74.471	172.229	0.00083901	0.00038907	0.0001126	1141.6	3.3349e-06	4.0028e-06	1122.9	299.93	6.85e-06	3.7711e-06	340.88	114.11	99.966	34.296	3.8362e-06	42.351	0.00058296	0.00057516	0.0001871	1172.9	6.1775e-06	6.9956e-06	1163.5	311.44	6.2376e-06	6.4557e-06	354.65	119.42	104.34	35.945	6.4108e-06	44.462	61.214	-35.876	-34.513	-109.201	15.867	36.984	-109.232	-104.665	10.271	35.057	-105.312	-100.834	-100.612	-95.665	21.831	-96.422	-8191	255	
1004.842	1	1	0	0	0.30099	0.20248	0.26963	0.21552	0.11721	0.26404	0.13683	0.12535	0.24936	0.096767	0.14649	0.16932	0.16103	0.059565	0.13941	0.10423	-3.0104	-3.7708	-2.9854	-3.6813	-3.5646	-3.1146	-3.9417	-3.3667	-3.1562	-3.7479	-3.1354	-3.425	-3.4479	-3.1813	-3.7042	-3.3542	-71.901	125.724	53.711	-113.352	65.551	228.665	-83.544	127.620	-59.051	57.264	232.579	214.720	71.764	181.300	78.868	-95.556	0.00087616	0.00038014	0.00011765	1133.2	3.9094e-06	3.8986e-06	1126.4	299.41	5.86e-06	4.1726e-06	342.63	114.52	100.12	34.308	4.6779e-06	42.394	0.00057484	0.00057049	0.00017077	1170.8	6.3473e-06	7.232e-06	1163.9	310.82	6.1561e-06	6.7273e-06	355.05	119.38	104.54	35.921	6.267e-06	44.42	64.672	-36.824	-36.528	-108.902	26.209	16.333	-109.317	-104.442	1.501	31.040	-105.652	-101.341	-100.593	-95.475	-12.800	-96.518	-8191	255	
1004.938	1	1	0	0	0.13306	0.2756	0.05523	0.20906	0.20078	0.27232	0.22878	0.2207	0.14325	0.12009	0.10261	0.1355	0.20546	0.27253	0.2099	0.091938	-2.9896	-3.7562	-3.0667	-3.6854	-3.6417	-2.95	-3.8854	-3.6208	-3.0146	-3.8375	-3.1792	-3.7208	-3.825	-2.9792	-3.7104	-3.5729	166.195	132.255	112.343	225.603	212.764	152.549	162.350	225.070	-86.928	101.351	-61.295	174.494	199.018	177.898	196.525	-117.377	0.00088292	0.00043916	0.00014297	1133.9	4.6368e-06	4.5122e-06	1126.9	299.01	6.8769e-06	4.4594e-06	341.99	114.43	100.27	34.356	4.0132e-06	42.443	0.00058623	0.00055125	0.00018352	1171.5	6.3e-06	6.8783e-06	1164.1	311.17	6.6316e-06	7.1475e-06	354.83	119.28	104.38	35.864	6.599e-06	44.421	63.220	-26.396	-19.916	-108.934	10.417	35.934	-109.347	-104.519	-5.672	29.253	-105.191	-101.002	-100.215	-95.528	11.983	-96.458	-8191	255	
1005.034	1	1	0	0	0.22165	0.24021	0.13168	0.17077	0.05807	0.1776	0.16727	0.26353	0.12094	0.13395	0.090523	0.11773	0.1295	0.25715	0.046368	0.026674	-2.6979	-3.8354	-3.0521	-3.3458	-3.7729	-3.0583	-3.8792	-3.5396	-3.1417	-3.8438	-3.3458	-3.2792	-3.7771	-2.9979	-3.5687	-3.6833	3.809	-16.651	183.739	-52.702	1.125	116.685	-58.752	127.686	51.441	68.026	129.817	-101.887	121.578	177.259	-88.640	-106.382	0.00086041	0.00036119	0.00011751	1131.9	5.1078e-06	4.8885e-06	1120.5	299.08	6.7748e-06	4.2978e-06	342.21	114.79	99.614	34.293	3.6427e-06	42.611	0.00060393	0.00053798	0.00017653	1168.9	6.3827e-06	7.52e-06	1163	310.68	6.7797e-06	6.6612e-06	354.94	119.43	104.35	35.936	5.9229e-06	44.522	62.208	-44.979	-29.206	-109.056	31.938	38.123	-109.245	-104.586	-3.967	25.908	-105.876	-101.254	-100.915	-95.634	0.721	-96.772	-8191	255	
1005.130	1	1	0	0	0.08123	0.23847	0.082687	0.25557	0.11373	0.019103	0.21391	0.24618	0.10131	0.14037	0.36776	0.29063	0.16808	0.096756	0.26556	0.12053	-2.6917	-3.9792	-3.1625	-3.1312	-3.7812	-2.9167	-3.7229	-3.8229	-2.8604	-3.7979	-3.3208	-3.2438	-3.8458	-3.1771	-3.3604	-3.7104	-51.673	20.336	126.396	167.936	171.180	128.866	-97.437	233.464	105.976	190.668	175.717	182.638	199.158	114.072	-116.375	207.300	0.00085272	0.00043204	0.00013267	1129.9	3.3952e-06	3.5924e-06	1124.2	298.87	8.0802e-06	4.851e-06	343.16	114.24	100.85	34.228	5.1274e-06	42.375	0.00058814	0.00060694	0.0001757	1170.2	6.0741e-06	7.1947e-06	1163.8	310.89	7.0416e-06	6.5566e-06	354.99	119.46	104.8	35.941	6.5977e-06	44.416	64.953	-24.084	-24.008	-109.229	27.254	35.587	-109.705	-104.983	-5.015	17.599	-105.810	-101.380	-101.151	-96.037	12.922	-96.793	-8191	255	
1005.226	1	1	0	0	0.23872	0.17276	0.12426	0.15559	0.1492	0.30357	0.15193	0.087136	0.19688	0.11475	0.097372	0.27852	0.22804	0.18411	0.1462	0.30823	-2.4854	-3.8729	-3.1813	-3.3083	-3.9104	-3.225	-3.5812	-3.8396	-3.0375	-3.7604	-3.4521	-3.3833	-3.9604	-3.1583	-3.5229	-3.9167	184.525	82.719	-6.937	209.346	145.199	-73.797	-2.124	136.764	126.496	41.470	64.365	-7.061	103.397	201.809	173.596	188.998	0.00082128	0.00040719	0.00011903	1139.5	4.0721e-06	4.0611e-06	1128.5	299.1	6.1808e-06	4.0531e-06	341.03	114.56	99.634	34.349	4.8326e-06	42.717	0.00059274	0.00059396	0.00017243	1171.2	6.4344e-06	7.152e-06	1164	311	6.596e-06	6.8668e-06	354.69	119.31	104.42	35.94	6.5493e-06	44.496	62.464	-23.459	-28.925	-109.478	28.526	33.549	-109.783	-104.657	4.881	33.192	-105.636	-100.850	-100.670	-96.118	15.837	-96.655	-8191	255	
1005.345	1	1	0	0	0.14732	0.050019	0.23754	0.11054	0.22263	0.17281	0.14281	0.14509	0.12059	0.086929	0.15656	0.1554	0.034629	0.099689	0.20547	0.19757	-2.5083	-3.75	-3.5021	-3.1167	-3.8833	-3.025	-3.2938	-3.7042	-3.1042	-3.7729	-3.6937	-3.1604	-3.7875	-3.2167	-3.1562	-3.9708	-40.870	117.813	80.089	-14.323	231.870	188.825	-84.391	-115.015	114.664	-24.853	115.939	110.885	-109.738	196.453	220.045	-96.547	0.00086521	0.00033639	0.000122	1127.3	4.4102e-06	3.1255e-06	1121.9	299.2	7.7317e-06	3.7473e-06	343.16	114.5	100.88	34.465	5.279e-06	42.611	0.00059978	0.00053579	0.00017644	1166.3	6.8626e-06	7.1929e-06	1161.1	310.43	6.5098e-06	7.2099e-06	354.38	119.26	104.5	35.905	6.6931e-06	44.516	63.012	-32.742	-25.588	-109.305	10.860	36.935	-109.601	-104.706	-11.747	37.342	-105.256	-100.732	-100.526	-95.528	18.500	-96.452	-8191	255	
1005.441	1	1	0	0	0.19186	0.12119	0.12467	0.11983	0.31299	0.16871	0.1291	0.099851	0.02428	0.15852	0.066704	0.19844	0.053352	0.1712	0.089746	0.036339	-2.6125	-3.6021	-3.5563	-2.95	-3.65	-3.2792	-3.1354	-4.0646	-2.9854	-3.4729	-3.6896	-3.1104	-3.8937	-3.4625	-3.1729	-3.8979	190.306	-80.911	19.859	15.417	92.761	210.861	159.024	221.878	130.063	110.131	69.056	77.495	127.131	220.109	158.195	183.979	0.00085891	0.00035031	0.00011217	1134	3.1211e-06	3.7649e-06	1121.2	299.58	6.6683e-06	4.2413e-06	340.29	113.98	100.86	34.178	3.6825e-06	42.523	0.00062017	0.0005858	0.00017675	1167.8	6.4772e-06	7.1165e-06	1161	311.07	6.4053e-06	6.8851e-06	353.87	119.14	104.6	35.858	6.5372e-06	44.464	64.694	-51.133	-42.304	-109.134	8.837	35.631	-109.142	-104.398	-11.944	46.163	-105.424	-100.755	-100.363	-95.992	17.244	-96.522	-8191	255	
1005.537	1	1	0	0	0.17097	0.15834	0.050944	0.19682	0.12758	0.13251	0.30677	0.22305	0.10999	0.1519	0.10071	0.44514	0.25357	0.19578	0.24008	0.14493	-2.8271	-3.4125	-3.6083	-3.0417	-3.5875	-3.4167	-3.4521	-4.0542	-3.0417	-3.2729	-3.9375	-3.1875	-3.7521	-3.4625	-2.9688	-4.0813	115.279	40.958	223.056	-95.400	-32.794	67.819	223.848	196.362	225.999	-1.513	23.173	177.428	227.564	-120.529	69.752	-45.520	0.00084231	0.00043472	0.00011528	1126	4.3529e-06	4.2195e-06	1124.4	299.5	5.3624e-06	4.2084e-06	342.35	114.93	100.32	34.327	4.1137e-06	42.568	0.0005901	0.00061117	0.00017177	1166.5	6.4521e-06	7.0027e-06	1160.3	310.91	6.6879e-06	7.4118e-06	354.84	119.58	104.48	35.911	6.7133e-06	44.537	64.391	-36.254	-29.190	-109.038	22.669	32.339	-109.302	-104.330	-6.774	26.373	-105.296	-101.915	-101.881	-96.562	8.334	-97.076	-8191	255	
1005.611	1	1	0	0	0.025819	0.065331	0.080448	0.15952	0.1411	0.11267	0.090621	0.12801	0.12257	0.14783	0.14099	0.19606	0.30201	0.26476	0.18364	0.33681	-2.8208	-3.4813	-3.7417	-3.3271	-3.6604	-3.2687	-3.3417	-3.9708	-3.0604	-3.0708	-3.8	-3.0667	-3.5271	-3.6125	-2.9292	-3.7938	111.385	210.639	137.916	154.705	93.558	203.199	138.981	-80.479	205.166	68.507	155.618	104.933	188.896	187.527	178.782	203.541	0.00084784	0.0003471	0.0001227	1128.6	3.2026e-06	4.1706e-06	1120.4	299.7	5.0539e-06	3.6784e-06	342.67	114.93	100.44	34.424	4.0847e-06	42.652	0.00057122	0.00063202	0.00016339	1166.5	6.5451e-06	6.9227e-06	1159.8	311.13	6.4685e-06	7.0356e-06	354.79	119.51	104.46	35.993	6.7267e-06	44.564	61.526	-43.267	-21.073	-109.846	1.234	21.870	-110.282	-105.420	-7.849	21.985	-106.178	-101.962	-101.491	-96.751	23.165	-97.262	-8191	255	
1005.730	1	1	0	0	0.010348	0.19885	0.0934	0.11803	0.12532	0.20728	0.25759	0.095971	0.14742	0.050563	0.08685	0.12001	0.10128	0.20008	0.31556	0.28602	-2.8292	-3.275	-3.7146	-3.0667	-3.5167	-3.6146	-3.0917	-3.8563	-3.3458	-2.9479	-3.8083	-3.2417	-3.3875	-3.7062	-2.9708	-3.8646	157.619	174.060	144.218	-86.096	174.929	-71.453	173.758	215.891	70.830	210.073	159.682	-82.662	134.445	153.249	187.618	150.473	0.00082283	0.00038924	0.00014231	1123.8	4.1467e-06	4.7622e-06	1119	299.72	6.082e-06	4.5444e-06	341.28	114.49	100.41	34.375	4.1338e-06	42.505	0.0005856	0.00063595	0.00016378	1168.7	6.7504e-06	6.7112e-06	1160.1	311.05	6.0642e-06	7.7329e-06	354.39	119.38	104.53	35.919	6.8544e-06	44.491	64.974	-24.945	-31.038	-110.107	17.722	24.779	-110.643	-105.613	-2.451	24.100	-106.303	-102.059	-101.413	-96.697	6.505	-97.595	-8191	255	
1005.826	1	1	0	0	0.25692	0.031152	0.18307	0.31051	0.11192	0.050813	0.033055	0.28481	0.029144	0.091365	0.11901	0.19363	0.13451	0.11655	0.033813	0.06082	-2.9	-2.9062	-3.7646	-3.0563	-3.3771	-3.7771	-3.1813	-3.7521	-3.6417	-2.9167	-3.8417	-3.2479	-3.2646	-3.7417	-3.0542	-3.6417	233.184	96.966	40.975	152.782	100.250	18.680	3.262	213.233	110.236	99.719	-50.209	196.400	191.248	-11.766	1.870	50.026	0.00083742	0.00033932	0.00010454	1128.5	3.8922e-06	4.0636e-06	1119.5	299.12	6.0081e-06	4.6154e-06	342.08	114.49	100.28	34.293	4.4458e-06	42.348	0.00057391	0.00062589	0.00016915	1167.3	6.8065e-06	6.4854e-06	1160.4	310.7	6.3203e-06	7.2466e-06	354.72	119.42	104.35	35.937	6.8612e-06	44.451	58.795	-38.342	-17.021	-110.087	22.697	20.039	-110.613	-105.254	-20.287	30.432	-106.267	-101.802	-101.268	-96.537	15.802	-97.407	-8191	255	
1005.922	1	1	0	0	0.11779	0.10344	0.15179	0.057879	0.091729	0.52551	0.23639	0.25373	0.15307	0.053562	0.1287	0.28366	0.10018	0.045112	0.064674	0.19496	-3.1854	-2.9833	-3.8312	-3.1688	-3.1437	-3.8125	-3.1646	-3.5687	-3.5312	-2.8396	-3.8375	-3.3625	-3.2479	-3.6354	-2.9958	-3.5458	-108.549	214.130	-28.064	141.833	169.400	5.629	178.797	107.431	151.053	224.993	-52.836	187.230	-106.242	-48.309	177.204	-116.503	0.00083798	0.00038399	0.00012713	1123.6	3.6819e-06	3.4859e-06	1117.5	299.15	6.9407e-06	4.2303e-06	340.32	114.68	99.653	34.359	3.5145e-06	42.239	0.00059156	0.00062458	0.00016347	1164.8	6.7947e-06	6.4356e-06	1158.9	310.82	6.3065e-06	7.1677e-06	354.26	119.29	104.35	35.899	6.5063e-06	44.399	63.172	-31.311	-39.908	-110.195	13.235	22.011	-110.072	-104.999	-13.623	9.394	-105.642	-101.433	-100.977	-96.190	12.295	-96.720	-8191	255	
1006.018	1	1	0	0	0.17319	0.11543	0.094348	0.023519	0.23868	0.12437	0.25775	0.22468	0.28114	0.14875	0.12024	0.02707	0.16779	0.22114	0.038071	0.079767	-3.2542	-2.8625	-3.7729	-3.4625	-3.0354	-3.775	-3.225	-3.5729	-3.7562	-3.1042	-3.8542	-3.5625	-3.3333	-3.9437	-3.2375	-3.425	-15.069	-16.231	126.185	163.834	51.538	58.027	-109.941	154.456	33.916	121.445	-94.589	169.319	117.112	-10.827	85.775	32.202	0.00082581	0.00045514	0.00014702	1128.8	4.1469e-06	4.3285e-06	1123.9	298.81	4.7699e-06	3.7541e-06	341.45	113.78	100.06	34.357	3.6106e-06	42.203	0.00056213	0.00067473	0.00018348	1168	6.8153e-06	6.9494e-06	1161.6	310.71	6.1274e-06	7.2778e-06	354.32	119.28	104.43	35.942	6.6743e-06	44.387	62.639	-53.498	-37.218	-109.876	27.284	22.668	-109.923	-104.909	0.639	27.331	-105.934	-101.582	-100.766	-96.056	22.009	-97.094	-8191	255	
1006.139	1	1	0	0	0.14424	0.11888	0.22669	0.19076	0.062603	0.097448	0.2427	0.15639	0.15984	0.11274	0.094979	0.015515	0.13318	0.026152	0.25173	0.18096	-3.2958	-2.9646	-3.6542	-3.4958	-3.1458	-3.8125	-3.2812	-3.4146	-3.9	-2.9562	-3.7292	-3.6458	-3.0333	-3.7646	-3.1146	-3.3208	64.692	145.778	44.832	185.624	-122.631	56.344	180.924	171.150	53.334	232.686	130.794	94.527	109.835	-81.906	85.225	156.289	0.00081974	0.00038254	0.00011495	1123.1	4.9389e-06	4.3335e-06	1117.3	299.76	6.4948e-06	4.0422e-06	342	115.15	100.28	34.316	3.4189e-06	42.487	0.00056966	0.00064339	0.00016308	1168.2	6.8463e-06	6.6578e-06	1160	311.09	5.7955e-06	7.1787e-06	354.25	119.57	104.63	35.967	6.3369e-06	44.481	66.132	-31.132	-43.191	-110.333	23.072	26.697	-110.473	-105.280	15.394	26.211	-105.854	-101.629	-101.346	-96.070	19.514	-96.964	-8191	255	
1006.210	1	1	0	0	0.23809	0.20017	0.12885	0.10214	0.12377	0.1175	0.15065	0.37278	0.27181	0.02239	0.18078	0.17146	0.27096	0.10332	0.20869	0.18207	-3.3312	-2.8521	-3.3812	-3.5812	-2.9125	-3.8792	-3.5021	-3.1042	-3.8667	-3.1229	-3.6229	-3.8417	-3.025	-3.7479	-3.35	-3.1896	-14.632	-62.703	100.242	147.846	105.243	37.074	128.502	-104.764	108.564	72.823	84.957	102.859	194.283	203.324	72.027	137.418	0.0008384	0.00044676	8.8974e-05	1127.1	4.021e-06	4.4865e-06	1120.1	299.25	6.9592e-06	3.8286e-06	342.92	114.43	99.763	34.483	4.0914e-06	42.285	0.0005898	0.00061073	0.0001598	1168.4	7.2538e-06	6.7218e-06	1161.1	310.75	6.2974e-06	7.4301e-06	355.42	119.51	104.2	35.947	6.837e-06	44.44	61.540	-29.160	-33.276	-110.441	25.186	26.837	-110.009	-105.031	-9.377	18.295	-105.940	-101.725	-101.285	-96.195	44.144	-97.031	-8191	255	
1006.331	1	1	0	0	0.23411	0.10027	0.25625	0.19342	0.10272	0.11225	0.11537	0.33779	0.15571	0.36071	0.21961	0.16066	0.31603	0.093379	0.20981	0.3319	-3.2979	-3.0125	-3.3042	-3.6625	-3.0417	-3.7521	-3.6167	-3.1354	-3.7188	-3.15	-3.4521	-3.7729	-2.9167	-3.5687	-3.5917	-3.2396	232.061	225.663	156.823	-76.282	128.277	95.233	177.636	205.216	-29.037	162.307	227.927	-64.818	-112.748	-30.731	184.211	235.646	0.0008339	0.00041262	0.0001072	1132.2	3.5726e-06	3.2759e-06	1123.3	298.78	5.9959e-06	4.3787e-06	342.41	114.58	100.37	34.492	4.4932e-06	42.287	0.00058022	0.00064193	0.0001757	1169.7	6.9334e-06	6.4712e-06	1161.4	310.8	5.9298e-06	7.5622e-06	354.68	119.32	104.34	35.988	6.3692e-06	44.468	63.047	-43.205	-21.580	-109.948	23.376	24.624	-110.005	-104.921	-13.596	26.981	-105.803	-102.005	-101.384	-96.643	19.121	-97.429	-8191	255	
1006.425	1	1	0	0	0.22572	0.1486	0.119	0.061656	0.15397	0.030542	0.25223	0.24762	0.15652	0.15375	0.14701	0.17791	0.21325	0.18662	0.12075	0.17523	-3.3896	-3.2167	-3.1458	-3.6979	-2.9854	-3.6229	-3.6167	-3.1896	-3.8417	-3.2625	-3.3729	-3.9229	-3.0812	-3.5938	-3.6188	-3.2229	199.235	144.940	150.394	232.400	171.831	-85.348	191.343	190.129	219.845	51.342	110.718	234.133	233.293	-120.309	112.204	146.470	0.00086055	0.00055697	0.00012232	1126	3.6105e-06	5.5833e-06	1117	298.1	6.6609e-06	4.099e-06	339.81	114.01	100.57	34.406	4.4471e-06	42.37	0.00057112	0.00065082	0.00018645	1168.9	6.6071e-06	6.6276e-06	1160.3	310.15	6.1239e-06	6.7695e-06	354.39	119.24	104.47	35.969	6.6044e-06	44.402	62.096	-32.476	-34.406	-109.175	15.601	27.194	-109.933	-105.150	-6.970	27.934	-106.019	-101.785	-100.955	-96.235	-4.040	-97.262	-8191	255	
1006.522	1	1	0	0	0.32029	0.13231	0.081466	0.1301	0.10138	0.12782	0.15577	0.31895	0.12886	0.081512	0.12711	0.13473	0.30068	0.14111	0.12436	0.23445	-3.5687	-3.2104	-3.2083	-3.9021	-3.1271	-3.5042	-3.7292	-3.1708	-3.7146	-3.475	-3.2792	-3.9604	-3.2708	-3.5083	-3.7313	-3.0792	187.018	215.300	-108.013	-83.043	167.450	70.816	198.942	176.761	-35.529	-30.310	233.954	166.031	194.774	234.802	-6.431	126.117	0.00084255	0.00033882	0.00013063	1131	3.7327e-06	5.4195e-06	1124.2	299.86	5.6202e-06	4.456e-06	341.56	114.52	100.23	34.405	3.5114e-06	42.285	0.00059665	0.0005581	0.00017583	1168.8	7.3173e-06	7.3032e-06	1162.9	310.51	6.186e-06	7.2503e-06	354.3	119.32	104.41	36.023	5.9847e-06	44.429	62.868	-31.320	-40.922	-110.122	6.874	24.648	-110.338	-105.127	-28.024	30.205	-106.225	-101.864	-101.092	-96.391	8.743	-96.886	-8191	255	
1006.618	1	1	0	0	0.12492	0.023877	0.21416	0.090546	0.12161	0.20703	0.10842	0.11587	0.096042	0.03423	0.29037	0.23251	0.083237	0.099969	0.16367	0.032625	-3.3292	-3.5708	-3.0167	-3.9938	-3.2729	-3.1188	-3.9646	-3.2208	-3.7083	-3.4271	-2.9083	-3.9771	-3.3812	-3.3792	-3.6417	-3.1646	10.941	27.853	37.134	158.103	205.744	177.095	139.374	175.550	118.025	189.886	211.073	234.522	175.025	187.849	-80.332	137.942	0.00082747	0.0004356	0.00010956	1133.5	3.6386e-06	4.0238e-06	1122.1	298.59	6.8618e-06	3.9431e-06	344.18	114.48	100.51	34.368	3.8869e-06	42.382	0.00056858	0.00061802	0.00018601	1170.4	6.6249e-06	7.0845e-06	1161.5	310.65	6.604e-06	7.0356e-06	355.42	119.37	104.61	35.939	6.1258e-06	44.4	60.551	-31.003	-19.006	-109.580	21.534	31.083	-110.170	-105.156	-17.582	22.816	-105.996	-101.764	-100.988	-96.450	6.028	-96.821	-8191	255	
1006.738	1	1	0	0	0.26087	0.21865	0.14375	0.14101	0.21876	0.028477	0.25194	0.10029	0.12813	0.21253	0.21419	0.27473	0.13146	0.27819	0.18576	0.20284	-3.3688	-3.5208	-2.8375	-3.8896	-3.2667	-3.3208	-3.9437	-3.1583	-3.4583	-3.5938	-3.1937	-3.8479	-3.5312	-3.3479	-3.8354	-3.2417	24.669	-14.316	134.695	163.646	154.698	235.862	221.683	-70.560	-53.620	230.585	110.569	-90.000	140.274	149.945	-32.361	156.606	0.00083764	0.00042479	0.00010884	1136.6	4.4987e-06	3.8973e-06	1118.9	298.11	6.9092e-06	3.6269e-06	340.16	114.13	100.27	34.179	3.269e-06	42.412	0.00059054	0.00060213	0.0001785	1170.6	6.6765e-06	6.8338e-06	1160.7	310.11	6.465e-06	6.4172e-06	355.12	119.39	104.41	35.88	6.0559e-06	44.449	62.162	-29.783	-34.202	-110.260	20.637	23.194	-110.347	-105.346	17.466	26.489	-105.669	-101.366	-101.318	-96.136	23.955	-97.053	-8191	255	
1006.835	1	1	0	0	0.050229	0.078709	0.083099	0.14125	0.21428	0.065142	0.29092	0.063753	0.048212	0.13272	0.13007	0.24367	0.19228	0.20287	0.33771	0.088618	-2.9646	-3.7208	-3.1354	-3.7313	-3.5062	-3.1042	-3.9104	-3.3104	-3.3271	-3.8292	-3.0979	-3.7417	-3.4562	-3.1875	-3.8312	-3.3104	222.360	-15.358	-116.231	-73.854	-15.703	-89.772	195.420	147.762	-53.643	58.398	166.768	130.426	66.384	-47.138	-114.044	126.615	0.0008328	0.00042963	0.00010672	1130.2	3.6911e-06	3.2713e-06	1120.9	298.88	6.1377e-06	4.3588e-06	341.71	114.7	99.775	34.332	5.2581e-06	42.326	0.0005724	0.00060053	0.00018736	1169	6.6263e-06	7.1734e-06	1160.5	310.91	6.4708e-06	6.6062e-06	355.04	119.57	104.34	35.885	6.4135e-06	44.405	65.760	-26.407	-29.697	-110.263	29.923	27.174	-110.429	-105.487	-8.316	22.661	-106.214	-101.798	-101.543	-96.648	6.304	-97.299	-8191	255	
1006.906	1	1	0	0	0.27782	0.15145	0.158	0.064259	0.26118	0.081313	0.14843	0.26314	0.11165	0.029354	0.28511	0.13195	0.132	0.18619	0.20546	0.15685	-2.8979	-3.8583	-2.7896	-3.6688	-3.4396	-2.9813	-3.9625	-3.4354	-3.2125	-3.8521	-3.1562	-3.7687	-3.675	-3.0938	-3.8125	-3.3583	48.596	222.114	-13.295	-85.516	78.408	220.175	207.838	177.254	-17.454	174.405	202.956	213.086	172.874	234.354	-122.360	-107.780	0.00086396	0.00039292	0.00011122	1129.7	3.6378e-06	3.3444e-06	1121.1	298.53	6.2624e-06	3.7796e-06	342.28	114.58	100.35	34.382	3.3177e-06	42.433	0.00056389	0.00060446	0.00018976	1171.2	6.3635e-06	7.0436e-06	1161.9	310.54	6.3628e-06	6.4906e-06	354.74	119.45	104.42	35.922	6.1527e-06	44.409	62.543	-27.141	-14.813	-110.139	16.577	25.851	-110.518	-105.965	-7.794	41.517	-106.427	-102.390	-101.995	-96.936	16.833	-97.747	-8191	255	
1007.027	1	1	0	0	0.10176	0.13041	0.065942	0.2448	0.26534	0.23284	0.29113	0.1113	0.18553	0.12123	0.21774	0.34101	0.10759	0.24574	0.14083	0.16204	-2.8208	-3.7833	-3.1208	-3.5667	-3.6813	-3.0687	-3.8646	-3.5521	-3.2	-3.9458	-3.225	-3.5292	-3.6854	-3.0271	-3.6417	-3.6125	-6.252	7.050	40.941	77.769	76.243	64.394	-113.425	24.894	-96.878	-69.283	206.853	-66.319	17.375	-17.513	-34.804	141.817	0.00081203	0.00035693	0.00013184	1128.3	4.0778e-06	4.1156e-06	1118.6	298.14	7.14e-06	4.4903e-06	340.02	114.79	99.893	34.278	4.5433e-06	42.34	0.00056447	0.00055387	0.00018863	1168.2	6.4388e-06	7.0383e-06	1162.2	310.58	6.3594e-06	6.8484e-06	354.78	119.56	104.39	35.906	6.3409e-06	44.363	62.633	-36.722	-30.365	-110.217	22.054	32.673	-110.409	-105.620	1.569	25.650	-106.395	-101.661	-101.557	-96.687	6.333	-97.552	-8191	255	
1007.123	1	1	0	0	0.18572	0.032344	0.070055	0.067064	0.050757	0.084961	0.099267	0.066011	0.20011	0.21207	0.013728	0.34822	0.29176	0.28272	0.16689	0.30755	-2.6688	-3.8937	-2.9396	-3.3479	-3.6458	-2.8875	-3.7833	-3.7062	-3.0646	-3.7979	-3.1958	-3.4167	-3.9	-3.2833	-3.6625	-3.5583	60.652	153.554	181.729	-68.793	24.859	111.506	150.599	181.179	200.341	216.864	136.191	-122.279	187.444	169.584	-96.254	195.305	0.00090841	0.00047643	0.00013392	1132.1	3.8897e-06	4.1973e-06	1121.9	298.91	7.0856e-06	3.8302e-06	341.97	114.85	100.03	34.218	4.553e-06	42.509	0.00060907	0.00059411	0.00017998	1170.4	6.1613e-06	7.0134e-06	1161.3	310.59	6.8211e-06	6.4429e-06	355.04	119.56	104.41	35.89	6.7214e-06	44.422	61.268	-39.786	-22.835	-110.144	36.595	31.724	-110.189	-105.373	-12.219	35.189	-106.184	-101.472	-101.470	-96.249	8.529	-97.184	-8191	255	
1007.219	1	1	0	0	0.17362	0.075564	0.013614	0.12598	0.34896	0.22917	0.44788	0.24902	0.06633	0.27647	0.17387	0.15368	0.16028	0.29178	0.28092	0.099481	-2.8333	-3.6917	-3.2354	-3.3292	-3.8542	-2.9333	-3.6375	-3.7104	-3.1958	-3.8917	-3.3896	-3.3167	-3.925	-3.325	-3.6646	-3.8042	-17.168	-92.052	178.162	-119.796	201.412	142.158	196.127	225.046	-1.563	-96.724	159.629	195.956	-96.848	126.728	229.357	30.524	0.00083784	0.00040772	0.00014132	1133.4	4.6716e-06	3.09e-06	1132.1	300.07	4.9417e-06	4.1632e-06	342.81	115.13	100.76	34.554	4.4075e-06	42.599	0.00057572	0.0005667	0.00018077	1167.6	6.2336e-06	7.2516e-06	1164	311.06	6.5546e-06	6.6502e-06	354.83	119.7	104.56	35.944	6.5009e-06	44.437	62.182	-36.370	-40.467	-109.991	11.280	26.506	-109.808	-105.005	-7.660	32.606	-105.926	-101.186	-100.832	-96.133	14.842	-96.814	-8191	255	
1007.314	1	1	0	0	0.027649	0.10503	0.22904	0.096041	0.11346	0.12388	0.14616	0.13429	0.22667	0.13258	0.062297	0.09926	0.032733	0.23097	0.20497	0.029694	-2.7083	-3.6521	-3.3542	-3.4354	-3.6958	-3.0208	-3.5083	-3.9271	-2.9604	-3.7562	-3.5375	-3.2083	-3.9417	-3.1917	-3.3667	-3.9688	20.668	87.026	71.215	210.253	19.990	127.720	222.754	-106.120	133.149	202.405	96.832	-103.859	228.731	-109.088	-117.973	18.913	0.00086401	0.00039451	0.00014816	1145.4	4.5672e-06	4.2667e-06	1131.3	300.16	4.4951e-06	4.5229e-06	342.48	115.3	101.22	34.528	3.5762e-06	42.622	0.00059186	0.00058405	0.00018155	1172.6	6.6263e-06	7.344e-06	1163.3	310.98	6.6029e-06	7.4393e-06	355.13	119.57	104.9	35.923	6.4028e-06	44.491	62.750	-36.483	-37.836	-109.525	24.880	10.464	-109.588	-104.742	4.862	23.108	-105.756	-101.298	-100.984	-96.213	9.222	-96.807	-8191	255	
1007.411	1	1	0	0	0.3129	0.15817	0.39543	0.066896	0.13084	0.084388	0.012665	0.066678	0.14414	0.155	0.05186	0.37248	0.070268	0.1375	0.121	0.14863	-2.6688	-3.7375	-3.5146	-3.1417	-3.6646	-3.1521	-3.6625	-4.0229	-3.1083	-3.5292	-3.575	-3.3104	-3.7896	-3.2062	-3.1729	-3.8833	36.973	-5.085	51.963	-67.684	53.047	50.772	134.013	89.169	-77.485	139.583	36.673	209.112	129.673	70.497	-35.343	146.049	0.00084466	0.00042088	0.0001434	1145.7	4.6891e-06	4.2852e-06	1134.4	300.93	5.3295e-06	4.5126e-06	344.13	115.21	100.95	34.461	4.047e-06	42.499	0.00057914	0.00062239	0.00018885	1172.5	6.5067e-06	7.0098e-06	1165.1	311.6	6.5179e-06	7.2172e-06	355.11	119.65	104.6	35.939	6.5305e-06	44.475	60.835	-31.829	-27.315	-109.527	27.858	23.734	-109.792	-104.477	-26.004	16.940	-105.661	-101.352	-100.980	-96.038	-2.430	-96.746	-8191	255	
1007.506	1	1	0	0	0.23798	0.029703	0.34232	0.27959	0.29331	0.11535	0.16234	0.19849	0.12992	0.13485	0.28756	0.23067	0.1609	0.22086	0.16315	0.28211	-2.7542	-3.4313	-3.4896	-3.1208	-3.7729	-3.4146	-3.2	-4.1354	-3.0917	-3.3958	-3.7375	-3.1792	-3.85	-3.6021	-3.1479	-3.9667	-87.619	120.002	-111.721	-108.905	123.257	149.229	113.972	-91.142	-53.744	135.319	-69.002	183.702	123.294	220.281	187.393	115.995	0.00083485	0.00039536	0.0001279	1134.4	4.4891e-06	4.0143e-06	1130.9	300.79	7.8209e-06	3.7255e-06	344.08	115.16	101.51	34.43	4.1932e-06	42.512	0.00058643	0.00065986	0.00017959	1169.2	6.6027e-06	6.9085e-06	1164	310.84	6.6867e-06	6.6594e-06	354.96	119.61	104.73	35.933	6.7644e-06	44.441	63.680	-31.680	-28.157	-109.565	14.991	26.723	-109.445	-105.020	-14.033	29.530	-105.543	-101.182	-100.733	-95.990	34.274	-96.446	-8191	255	
1007.602	1	1	0	0	0.072224	0.13106	0.11081	0.226	0.098036	0.16701	0.11882	0.28289	0.1861	0.16221	0.22541	0.20411	0.24639	0.26826	0.11098	0.11596	-2.9458	-3.4979	-3.7292	-3.1396	-3.8438	-3.5854	-3.2104	-4.1542	-3.2417	-3.4042	-3.9458	-3.1833	-3.6979	-3.5938	-3.1104	-3.8708	199.856	206.700	225.057	-107.577	164.870	-17.858	-17.776	234.681	14.494	131.082	194.761	36.629	-116.400	-78.034	186.653	212.384	0.00086256	0.00035697	0.00010715	1134	5.1984e-06	4.441e-06	1122.4	300.96	6.2297e-06	5.001e-06	342.01	114.92	100.78	34.344	3.3473e-06	42.313	0.00059684	0.0005753	0.00017478	1170.1	6.6381e-06	7.0792e-06	1161.5	311.13	6.4363e-06	7.1163e-06	354.82	119.58	104.71	35.943	6.9243e-06	44.407	65.745	-36.577	-44.189	-109.406	16.574	35.396	-109.425	-104.731	-7.055	39.734	-105.494	-101.191	-100.469	-95.774	16.667	-96.554	-8191	255	
1007.698	1	1	0	0	0.27434	0.23696	0.12757	0.056449	0.18527	0.18362	0.34605	0.16049	0.20286	0.18704	0.16611	0.049905	0.063866	0.22074	0.012349	0.17857	-2.9313	-3.2583	-3.875	-3.2708	-3.6729	-3.5542	-3.3667	-4.0583	-3.4271	-3.1813	-3.8958	-3.0333	-3.5354	-3.7313	-3.1	-3.8833	-25.526	166.517	223.761	55.889	-81.041	45.029	185.754	-118.316	66.078	128.958	-70.135	134.633	204.023	-89.417	35.686	174.518	0.0008385	0.00043358	0.00012239	1130.5	5.1032e-06	4.4335e-06	1123.9	298.6	6.0746e-06	3.6996e-06	340.82	114.57	99.868	34.337	5.0745e-06	42.568	0.0005831	0.00065462	0.00016199	1168.1	6.65e-06	7.2249e-06	1161.7	310.42	6.4926e-06	7.6081e-06	354.39	119.3	104.1	35.865	7.0547e-06	44.473	62.765	-42.423	-29.577	-109.124	6.660	28.313	-109.364	-104.537	-3.627	34.473	-105.443	-101.114	-100.519	-95.790	-14.426	-96.505	-8191	255	
1007.819	1	1	0	0	0.24204	0.29626	0.11076	0.10483	0.17388	0.121	0.20124	0.12324	0.11318	0.08396	0.29651	0.20834	0.16976	0.18673	0.21287	0.12524	-3.05	-3.2292	-3.7125	-3.2	-3.4062	-3.7208	-3.1562	-3.8354	-3.2979	-2.9917	-3.9271	-3.2479	-3.3396	-3.7979	-2.9417	-3.7792	171.824	-41.446	116.422	61.349	82.324	143.814	175.044	-105.020	-1.685	204.084	213.933	-22.766	74.819	-64.015	31.415	237.311	0.0008501	0.00042439	0.00016524	1125.8	4.6003e-06	3.7204e-06	1123.8	299.01	7.5303e-06	3.7607e-06	342.4	114.83	100.41	34.405	3.6255e-06	42.286	0.00058516	0.0006619	0.00017885	1166.7	6.6441e-06	6.3947e-06	1161.4	310.77	6.248e-06	7.6944e-06	355.43	119.69	104.64	35.903	6.4458e-06	44.359	60.194	-34.560	-29.395	-109.712	11.234	25.274	-109.701	-104.622	-12.535	33.211	-105.455	-101.573	-100.547	-95.997	-1.200	-96.788	-8191	255	
1007.915	1	1	0	0	0.10741	0.091867	0.17966	0.10356	0.24694	0.16518	0.041419	0.23196	0.081272	0.1505	0.17192	0.2025	0.15666	0.03971	0.10424	0.15637	-3.0792	-2.9042	-3.6604	-3.2521	-3.425	-3.7188	-3.0687	-3.8604	-3.3792	-3.0896	-3.8521	-3.2604	-3.3229	-4	-3.0375	-3.8	26.309	-18.289	26.893	190.809	-58.834	79.681	189.802	201.290	5.060	-96.989	-105.980	166.483	166.172	-110.622	-57.455	-119.813	0.00082801	0.00028025	0.00013765	1132.6	4.4121e-06	4.4777e-06	1120.7	298.46	5.4045e-06	4.8493e-06	340.74	113.93	99.812	34.258	4.3239e-06	42.523	0.00057068	0.00060257	0.00016535	1169.8	6.3739e-06	6.3183e-06	1162.9	310.63	6.3663e-06	7.7971e-06	354.42	119.18	104.43	35.921	6.7025e-06	44.434	62.095	-31.361	-29.978	-109.560	6.596	39.501	-109.687	-104.809	-8.367	24.819	-105.344	-101.097	-100.691	-95.960	3.771	-96.657	-8191	255	
1008.011	1	1	0	0	0.096704	0.13666	0.17816	0.16341	0.070105	0.16943	0.30302	0.21101	0.10801	0.17813	0.27947	0.074463	0.057149	0.12787	0.1746	0.2239	-3.2083	-2.8646	-3.575	-3.3625	-3.1042	-3.7021	-3.1542	-3.575	-3.5938	-3.0875	-3.7604	-3.4042	-3.1437	-3.7479	-3.3021	-3.3917	236.706	153.776	-92.244	-120.670	63.369	-28.330	147.927	174.294	98.692	173.095	183.919	-44.813	201.712	235.865	142.828	129.634	0.00084448	0.0003233	9.177e-05	1128.1	3.7462e-06	4.1123e-06	1118.1	299.51	6.9983e-06	4.3036e-06	341.51	114.57	99.932	34.237	3.8949e-06	42.374	0.00056526	0.00063493	0.00016736	1168.1	6.8094e-06	6.496e-06	1160.6	310.66	5.9953e-06	7.8705e-06	355.32	119.34	104.29	35.921	6.8652e-06	44.391	60.755	-30.867	-37.659	-109.471	21.755	28.000	-109.665	-104.548	10.167	37.535	-105.606	-101.251	-100.483	-95.870	9.879	-96.457	-8191	255	
1008.132	1	1	0	0	0.10906	0.14565	0.14984	0.091999	0.21952	0.14659	0.14138	0.12439	0.086456	0.23098	0.21782	0.10013	0.11701	0.12983	0.18329	0.25709	-3.2188	-2.9646	-3.6229	-3.4229	-3.075	-3.8	-3.2708	-3.5542	-3.7104	-2.9979	-3.7458	-3.5687	-3.2542	-3.8292	-3.2125	-3.2875	-116.728	168.700	44.764	193.334	113.138	113.707	-108.858	179.468	-98.097	202.573	83.695	172.417	-28.209	-29.433	-20.578	123.983	0.00085695	0.00037636	0.00011079	1126.7	5.123e-06	3.7554e-06	1121.9	298.32	5.6214e-06	4.1239e-06	341.81	114.27	99.75	34.2	3.2455e-06	42.234	0.0005768	0.00063129	0.00016491	1168.8	6.867e-06	6.8463e-06	1161.3	310.35	5.9861e-06	7.821e-06	353.8	119.18	104.33	35.811	6.2858e-06	44.339	61.489	-23.271	-19.259	-109.180	15.937	27.532	-109.281	-104.657	-5.349	45.934	-105.465	-101.020	-100.393	-95.959	-4.732	-96.351	-8191	255	
1008.203	1	1	0	0	0.1996	0.21982	0.0422	0.26679	0.1992	0.10229	0.097959	0.21644	0.24357	0.18863	0.16581	0.30473	0.22885	0.10416	0.16667	0.21188	-3.4917	-2.8417	-3.4646	-3.5396	-3.0542	-3.6604	-3.4729	-3.3917	-3.7583	-2.9583	-3.7021	-3.6917	-3.1292	-3.9104	-3.2604	-3.3771	-32.348	197.306	-110.936	121.610	232.056	-97.942	166.218	156.717	-99.238	-84.000	207.197	198.584	107.271	119.117	218.876	136.566	0.00078783	0.00037245	0.00011433	1126.1	3.8363e-06	3.684e-06	1123.6	299.17	6.2298e-06	4.3326e-06	341.67	114.54	100.25	34.231	4.9517e-06	42.433	0.00056799	0.00059557	0.00015496	1165.9	6.4684e-06	6.6507e-06	1161.4	310.9	5.9459e-06	7.2668e-06	353.99	119.34	104.42	35.849	6.5506e-06	44.411	62.811	-35.301	-27.343	-109.262	17.305	42.780	-109.626	-104.464	-12.972	40.080	-105.465	-101.079	-100.686	-95.821	8.695	-96.717	-8191	255	
1008.300	1	1	0	0	0.14701	0.088366	0.26667	0.059967	0.092599	0.13303	0.1318	0.15023	0.25308	0.18516	0.47889	0.11847	0.010911	0.11262	0.062128	0.21304	-3.5333	-2.9688	-3.3937	-3.6917	-2.9938	-3.6646	-3.4667	-3.3438	-3.7938	-3.2021	-3.5479	-3.6729	-3.0896	-3.7583	-3.4479	-3.3479	-29.540	134.337	42.962	-7.994	35.117	139.035	153.447	181.174	-38.473	-43.647	185.301	-93.600	-112.871	-89.401	22.656	210.417	0.00082191	0.00049168	0.00012682	1126.3	4.1433e-06	3.6834e-06	1122.8	300.26	6.4349e-06	3.114e-06	341.77	114.9	99.682	34.29	3.8771e-06	42.207	0.00058433	0.00063799	0.00017675	1169.4	6.7194e-06	6.5227e-06	1160.6	311.02	5.9e-06	6.6612e-06	354.65	119.55	104.27	35.897	6.5533e-06	44.408	64.303	-38.930	-39.680	-109.718	23.733	17.349	-109.741	-104.744	-31.900	9.247	-105.279	-101.340	-100.618	-95.771	26.696	-96.933	-8191	255	
1008.418	1	1	0	0	0.088905	0.12479	0.14275	0.2287	0.12856	0.16084	0.20369	0.16046	0.18777	0.16081	0.24453	0.12464	0.37496	0.1403	0.15332	0.086596	-3.4646	-3.1854	-3.4125	-3.7313	-2.9646	-3.5604	-3.5938	-3.1833	-3.6458	-3.1604	-3.3875	-3.9354	-3.0729	-3.7625	-3.3604	-3.075	-22.917	-115.283	220.311	211.476	-5.369	-92.688	204.117	229.028	129.724	4.426	-51.794	-2.152	200.237	38.786	24.652	12.973	0.00083944	0.00034302	0.00010738	1128.9	4.1645e-06	3.9114e-06	1124.5	298.45	6.958e-06	4.5719e-06	342.99	115.23	100.06	34.131	3.9452e-06	42.409	0.00055538	0.00058536	0.00017706	1167.8	7.2656e-06	6.6223e-06	1161.6	310.41	6.0975e-06	7.2962e-06	354.88	119.66	104.46	35.845	6.345e-06	44.398	63.608	-29.403	-38.894	-109.549	19.215	36.896	-109.776	-104.767	-9.669	25.645	-105.576	-101.097	-100.488	-95.763	20.508	-96.882	-8191	255	
1008.515	1	1	0	0	0.11904	0.091688	0.11783	0.0077936	0.13884	0.12678	0.1184	0.13576	0.20867	0.054284	0.2082	0.12335	0.31494	0.12299	0.11514	0.19368	-3.35	-3.2583	-3.1875	-3.8458	-2.9771	-3.5062	-3.7333	-3.1396	-3.8583	-3.4042	-3.3563	-4.0104	-3.0938	-3.5208	-3.6042	-2.9604	21.949	90.600	190.554	8.150	118.447	-84.478	233.205	228.505	65.673	216.053	193.311	189.428	132.845	209.394	2.785	9.225	0.00084159	0.00034037	0.00012555	1132.5	3.704e-06	3.8038e-06	1123.4	298.45	5.1405e-06	4.4454e-06	344.01	114.46	99.856	34.382	3.7907e-06	42.436	0.00055685	0.00065345	0.00018155	1166.7	6.6086e-06	6.3876e-06	1161.4	310.5	5.9769e-06	7.0833e-06	355.69	119.33	104.38	35.909	6.4001e-06	44.45	61.820	-30.079	-33.608	-108.989	28.747	21.183	-109.722	-104.668	2.617	27.729	-105.077	-101.064	-100.688	-95.613	15.718	-96.387	-8191	255	
1008.611	1	1	0	0	0.036196	0.19913	0.058985	0.20881	0.12999	0.14708	0.2809	0.1991	0.23486	0.26221	0.050054	0.25615	0.11522	0.20622	0.082909	0.23554	-3.4521	-3.4062	-3.2208	-3.9042	-3.0208	-3.35	-3.7896	-3.1229	-3.6375	-3.3333	-3.2333	-4.0042	-3.2646	-3.3771	-3.6396	-3.1604	202.986	116.419	176.504	235.986	205.831	-68.476	124.377	224.574	234.469	151.028	-34.869	181.745	236.453	-94.262	-88.010	188.586	0.00082547	0.00041926	0.00011884	1132.1	4.0173e-06	4.0454e-06	1120.2	299.03	5.5532e-06	4.08e-06	342.25	114.6	99.538	34.351	4.1352e-06	42.399	0.00056433	0.00060461	0.00018492	1169.6	6.6101e-06	7.1769e-06	1160.7	310.03	6.0171e-06	7.3879e-06	354.49	119.4	104.13	35.856	6.6286e-06	44.386	61.927	-29.727	-45.833	-109.113	21.783	22.244	-109.482	-104.823	-7.852	38.423	-105.256	-101.080	-100.700	-95.601	11.531	-96.377	-8191	255	
1008.707	1	1	0	0	0.19253	0.043572	0.15984	0.1798	0.11876	0.15674	0.30714	0.30818	0.17503	0.023335	0.20497	0.30185	0.049735	0.15161	0.13498	0.24934	-3.3937	-3.475	-2.8	-3.8083	-3.1292	-3.3479	-3.9604	-3.1063	-3.6937	-3.6354	-3.1979	-3.8417	-3.3583	-3.4417	-3.8937	-3.1688	198.221	166.198	218.373	-122.289	4.721	-5.920	170.075	193.149	113.106	156.332	-62.075	218.450	52.724	-103.481	95.149	-105.314	0.00085959	0.00038364	0.00012154	1130.7	4.1606e-06	4.9333e-06	1119.7	298.28	7.7148e-06	4.8142e-06	340.98	115.17	100.26	34.324	5.1766e-06	42.307	0.0005676	0.00056947	0.0001781	1167.1	6.8345e-06	7.1467e-06	1160	310.23	6.2388e-06	7.3732e-06	353.77	119.55	104.23	35.844	6.0976e-06	44.298	61.970	-37.480	-27.636	-109.048	17.214	34.779	-109.324	-104.438	-8.230	34.178	-105.222	-100.982	-100.691	-95.635	4.846	-96.455	-8191	255	
1008.803	1	1	0	0	0.053993	0.13967	0.12952	0.18104	0.23631	0.1063	0.27747	0.25074	0.12627	0.070824	0.18615	0.22845	0.13834	0.06162	0.22355	0.061312	-3.3417	-3.5125	-3.0438	-3.6979	-3.4062	-3.225	-4.0125	-3.1417	-3.6375	-3.7333	-3.1	-3.9833	-3.5062	-3.2958	-3.7708	-3.0375	-47.432	-21.272	21.721	-110.626	31.154	-55.325	184.327	180.065	-41.413	-20.698	131.911	102.657	-36.232	70.035	24.821	-49.062	0.00083088	0.00050697	0.00013143	1134.7	4.0901e-06	4.6633e-06	1123.2	299.23	5.7497e-06	3.8826e-06	343.03	114.86	100.69	34.303	3.3068e-06	42.438	0.00057988	0.00060402	0.00018265	1169.7	6.4285e-06	6.976e-06	1161.1	310.33	6.0941e-06	6.7273e-06	354.57	119.48	104.59	35.891	6.271e-06	44.394	62.157	-36.439	-34.278	-109.104	16.220	21.429	-109.360	-104.405	-22.410	36.663	-105.210	-100.619	-100.539	-95.488	9.951	-96.342	-8191	255	
1008.899	1	1	0	0	0.015476	0.20824	0.14367	0.17877	0.23394	0.22363	0.22327	0.15219	0.070213	0.14724	0.15517	0.19209	0.18216	0.0957	0.1581	0.15707	-3.1625	-3.6083	-3.2771	-3.7333	-3.4562	-3.0771	-3.8708	-3.4562	-3.3021	-3.7021	-2.9917	-3.7583	-3.5875	-2.9333	-3.7646	-3.4021	14.762	133.473	54.877	207.864	-46.820	-32.609	147.417	194.706	-73.834	63.072	102.220	205.852	-117.356	205.582	28.392	134.507	0.00083267	0.0003815	0.00010892	1126.6	3.1637e-06	3.8398e-06	1125.8	299.61	7.5439e-06	4.147e-06	342.61	114.54	100.26	34.351	3.3299e-06	42.359	0.00057513	0.00057268	0.00018059	1167.8	6.272e-06	7.1129e-06	1161.2	310.7	6.279e-06	6.4007e-06	354.66	119.43	104.29	35.918	5.9981e-06	44.42	63.226	-33.884	-37.728	-109.056	21.770	29.642	-109.329	-104.581	1.546	29.090	-105.074	-100.888	-100.193	-95.363	27.223	-96.612	-8191	255	
1008.995	1	1	0	0	0.13658	0.12356	0.20992	0.077356	0.30001	0.13543	0.30491	0.16196	0.033432	0.22765	0.2706	0.098784	0.097463	0.014487	0.15591	0.43462	-2.9125	-3.7208	-3.0792	-3.65	-3.4208	-3.1354	-3.9208	-3.2521	-3.1333	-3.8187	-3.1833	-3.6292	-3.7771	-3.1937	-3.7417	-3.4417	235.648	24.902	53.840	-78.064	-19.105	177.348	137.386	189.001	-31.858	-1.600	233.594	178.483	173.792	-20.627	-116.260	97.778	0.00082379	0.0005058	0.00013106	1129.4	4.7205e-06	3.1407e-06	1125.5	298.74	6.7638e-06	4.1075e-06	342.67	114.5	100.36	34.308	3.9873e-06	42.638	0.00058261	0.00058755	0.00017531	1166.2	6.2011e-06	6.6365e-06	1161.9	310.32	6.4432e-06	6.1933e-06	354.2	119.47	104.27	35.89	6.1272e-06	44.478	63.346	-44.412	-15.004	-109.190	6.722	5.149	-109.412	-104.271	2.823	17.672	-105.176	-100.829	-100.520	-95.555	19.946	-96.590	-8191	255	
1009.091	1	1	0	0	0.015958	0.11787	0.20963	0.090852	0.14144	0.1666	0.26541	0.32084	0.14772	0.16207	0.13278	0.22243	0.21839	0.16901	0.27931	0.099652	-2.7542	-3.7104	-2.9833	-3.4958	-3.7479	-3.0438	-3.75	-3.3917	-3.0833	-3.8792	-3.2896	-3.6063	-3.6625	-3.0833	-3.6708	-3.575	117.056	134.396	220.425	192.533	-3.238	222.541	184.875	227.358	230.340	-40.319	1.017	235.346	170.947	219.397	-90.988	172.295	0.00080545	0.00041236	0.0001187	1134.8	3.8348e-06	3.9504e-06	1124.8	299.21	4.6148e-06	4.4741e-06	341.84	114.43	99.879	34.59	5.3017e-06	42.446	0.00058995	0.00061408	0.00017374	1167.5	6.2336e-06	6.9707e-06	1161.2	310.48	6.4214e-06	6.9236e-06	354.2	119.43	104.07	35.94	6.1218e-06	44.359	64.057	-20.521	-32.516	-109.410	32.533	17.022	-109.386	-104.295	-2.238	20.849	-105.422	-100.667	-100.531	-95.536	18.133	-96.356	-8191	255	
1009.212	1	1	0	0	0.01177	0.10047	0.043484	0.25192	0.10924	0.30701	0.29103	0.14984	0.14791	0.30321	0.33472	0.08542	0.31275	0.15078	0.15904	0.13712	-2.6146	-3.8854	-3.0854	-3.4188	-3.5604	-3.0583	-3.8896	-3.6208	-3.2021	-3.8771	-3.35	-3.4708	-3.975	-3.3021	-3.5917	-3.8375	20.809	-112.803	87.887	-87.519	109.146	203.762	202.833	182.102	-118.415	-73.725	-111.676	-119.024	-107.149	195.036	30.401	182.933	0.00089859	0.00040458	0.00012959	1125.2	4.1903e-06	4.5943e-06	1126.2	299.59	5.8923e-06	4.6119e-06	340.02	114.94	100.26	34.414	5.1939e-06	42.276	0.00061098	0.00054571	0.00017339	1167.4	6.0668e-06	7.2338e-06	1162.9	310.62	6.5684e-06	6.2612e-06	353.49	119.41	104.24	35.908	6.4552e-06	44.417	60.100	-20.132	-30.898	-109.255	28.445	25.130	-108.916	-103.944	-27.397	16.234	-104.847	-100.434	-100.123	-95.205	17.345	-96.201	-8191	255	
1009.306	1	1	0	0	0.20623	0.25505	0.1225	0.071555	0.13766	0.15958	0.25951	0.2855	0.046451	0.098294	0.10668	0.21211	0.15698	0.29388	0.16209	0.049798	-2.675	-3.9	-3.325	-3.3312	-3.9521	-3.2167	-3.5104	-3.8333	-2.8708	-3.8083	-3.6375	-3.2875	-3.9646	-3.2104	-3.4	-3.7458	152.610	-56.772	75.887	170.103	-17.448	-57.138	165.547	189.535	11.144	-23.330	107.610	162.439	192.859	144.899	63.060	176.785	0.00078627	0.00045407	0.00012671	1127.8	3.9045e-06	4.5784e-06	1127.6	298.56	7.1988e-06	4.4621e-06	342.78	114.83	100.63	34.468	4.1002e-06	42.53	0.00056198	0.00056072	0.00017164	1165.1	6.3931e-06	6.8889e-06	1161.4	310.64	6.5225e-06	6.3805e-06	354.55	119.36	104.43	35.94	6.2146e-06	44.471	62.922	-32.214	-33.082	-108.670	31.739	24.116	-108.857	-104.200	-11.744	32.339	-104.792	-100.629	-100.180	-95.274	8.856	-96.231	-8191	255	
1009.380	1	1	0	0	0.16868	0.10021	0.076925	0.015326	0.16357	0.18411	0.1667	0.2837	0.19193	0.099803	0.064896	0.29906	0.10486	0.18867	0.10855	0.16486	-2.7771	-3.7562	-3.3625	-3.2625	-3.8542	-3.1167	-3.5812	-3.7812	-3.0208	-3.7438	-3.6396	-3.1979	-3.8438	-3.2396	-3.3146	-3.6937	183.323	171.487	-54.283	-36.297	-65.016	-4.875	192.901	192.384	-117.934	126.502	197.704	-106.618	-72.895	167.395	30.863	-112.389	0.00083097	0.00044268	0.00010609	1140.1	4.3807e-06	4.747e-06	1125.7	298.66	6.9415e-06	5.2331e-06	341.8	114.66	100.32	34.236	4.1752e-06	42.346	0.00058721	0.00060082	0.00016561	1171.5	6.3488e-06	6.9832e-06	1163.4	310.67	6.7372e-06	7.0466e-06	353.99	119.52	104.29	35.845	6.2697e-06	44.401	62.929	-38.423	-13.253	-108.290	19.539	26.137	-108.837	-104.000	-1.613	25.662	-104.762	-100.520	-100.057	-95.132	0.795	-96.034	-8191	255	
1009.501	1	1	0	0	0.18226	0.14384	0.23192	0.3167	0.20034	0.014355	0.47717	0.20506	0.042157	0.088482	0.15583	0.062523	0.15616	0.12447	0.15419	0.2021	-2.6854	-3.5458	-3.4688	-3.0312	-3.9313	-3.4	-3.4875	-4.0125	-3.0938	-3.7271	-3.6833	-3.1708	-3.9083	-3.3979	-3.1604	-3.9958	161.008	156.273	3.646	-100.620	165.683	231.356	218.888	-93.138	52.550	-116.403	215.084	-95.404	141.796	161.004	230.376	127.522	0.00082943	0.00044277	0.0001208	1134	4.341e-06	4.8958e-06	1124	299.35	5.1578e-06	4.3258e-06	340.7	114.77	100.05	34.178	3.8553e-06	42.451	0.00057298	0.00060898	0.00017365	1168.9	6.1391e-06	6.8409e-06	1161	310.23	6.4076e-06	6.6777e-06	353.91	119.45	104.23	35.849	6.2925e-06	44.413	61.700	-34.303	-29.410	-108.581	9.105	20.706	-108.892	-103.997	-10.864	31.210	-104.673	-100.617	-99.869	-95.219	9.980	-96.046	-8191	255	
1009.595	1	1	0	0	0.11398	0.027901	0.24514	0.15928	0.2698	0.094153	0.119	0.054658	0.086027	0.10727	0.08603	0.024671	0.16818	0.056904	0.064921	0.11359	-2.7083	-3.5333	-3.5896	-3.0625	-3.6604	-3.5563	-3.3125	-4.0042	-3.025	-3.4396	-3.8979	-3.1667	-3.7812	-3.7125	-3.0958	-3.9646	-7.617	-16.345	235.177	175.895	226.947	140.238	234.333	61.933	90.979	153.122	8.694	147.610	-65.568	164.093	-14.252	-3.996	0.00082268	0.00042624	0.00012529	1126.4	2.9774e-06	4.8351e-06	1126.1	298.41	7.3091e-06	4.9994e-06	341.74	114.79	100.61	34.409	4.7241e-06	42.421	0.0005898	0.00059061	0.00016609	1163.2	6.238e-06	6.6152e-06	1160.8	310.28	6.48e-06	7.2613e-06	354.87	119.53	104.53	35.901	6.2347e-06	44.479	65.094	-30.761	-24.468	-108.562	19.671	40.238	-108.856	-103.858	-7.554	36.978	-104.765	-100.138	-100.023	-95.450	12.607	-95.889	-8191	255	
1009.691	1	1	0	0	0.15973	0.28708	0.18118	0.18861	0.22816	0.20638	0.41656	0.2429	0.053221	0.057137	0.12892	0.054894	0.090348	0.11625	0.093025	0.17747	-2.8187	-3.3979	-3.7042	-3.3021	-3.65	-3.5687	-3.3104	-4.025	-3.3875	-3.2833	-4.0833	-3.1021	-3.7208	-3.7521	-3.0604	-3.9021	117.357	11.548	61.022	235.811	-93.560	120.377	168.251	184.515	118.143	75.476	45.012	201.774	196.353	146.502	-77.599	202.275	0.00077686	0.00034926	0.00011311	1134	4.8386e-06	3.4895e-06	1120.7	299.19	6.4164e-06	4.6482e-06	342.37	115.1	100.45	34.27	4.7062e-06	42.373	0.00058017	0.00060971	0.00016085	1168	6.1982e-06	6.2791e-06	1160.6	310.53	6.3732e-06	7.7659e-06	354.74	119.69	104.68	35.846	6.4592e-06	44.444	59.824	-29.814	-29.995	-108.653	29.169	43.838	-108.795	-103.902	-16.893	35.007	-104.861	-100.485	-99.772	-95.159	15.892	-95.624	-8191	255	
1009.812	1	1	0	0	0.04445	0.17211	0.16385	0.15335	0.20513	0.089831	0.291	0.038889	0.2033	0.034584	0.039772	0.38253	0.036639	0.10554	0.025464	0.14795	-2.8667	-3.1729	-3.9083	-3.0854	-3.4042	-3.7375	-3.1813	-3.8187	-3.3979	-3.125	-3.8646	-3.1104	-3.4354	-3.6562	-2.9188	-3.925	191.241	63.199	-19.808	53.200	118.671	91.719	171.651	132.655	-85.685	98.568	-106.222	208.084	-44.963	226.733	74.592	169.685	0.00085389	0.00036194	0.00012939	1138.5	4.2625e-06	4.2194e-06	1123.6	299.38	6.2786e-06	5.2112e-06	342.49	114.79	100.6	34.364	3.7005e-06	42.597	0.00058521	0.00057414	0.00016592	1171.9	6.2764e-06	6.6649e-06	1161.1	310.6	6.4248e-06	7.5109e-06	354.9	119.66	104.63	35.925	6.3261e-06	44.553	61.952	-30.695	-24.369	-108.894	17.361	30.127	-109.069	-104.190	-14.504	30.979	-104.937	-100.659	-99.967	-95.246	25.954	-95.926	-8191	255	
1009.908	1	1	0	0	0.13659	0.033437	0.11299	0.067245	0.060574	0.075586	0.17801	0.45149	0.15977	0.15227	0.12817	0.18893	0.31976	0.18918	0.20595	0.1948	-3.175	-3.2271	-3.7479	-3.0854	-3.5062	-3.7583	-3.1625	-3.9271	-3.5021	-3.1708	-3.9146	-3.325	-3.3688	-3.8479	-3.0354	-3.7021	178.014	-65.919	-50.169	2.541	149.666	206.668	175.599	166.183	198.021	-66.164	76.290	168.147	142.533	-58.916	176.870	210.045	0.00088394	0.00035712	0.00011694	1131.2	4.295e-06	3.5362e-06	1124.6	299.36	5.6584e-06	4.572e-06	343.54	115.08	100.89	34.243	4.5391e-06	42.502	0.0005922	0.00057443	0.00016509	1168.7	6.709e-06	6.1031e-06	1162.1	310.76	6.3146e-06	7.1071e-06	355.14	119.68	104.68	35.92	6.8235e-06	44.431	65.221	-39.308	-26.154	-108.859	27.134	24.758	-108.972	-104.100	-16.941	32.841	-104.874	-100.474	-99.998	-95.397	13.381	-95.947	-8191	255	
1010.004	1	1	0	0	0.045614	0.08266	0.16385	0.13054	0.086947	0.1	0.18979	0.23834	0.040102	0.29794	0.16003	0.072818	0.14345	0.21091	0.18041	0.16793	-3.0896	-3.0542	-3.7875	-3.1875	-3.3896	-3.8271	-3.3937	-3.8312	-3.725	-2.9854	-3.9854	-3.4542	-3.25	-3.7875	-3.1771	-3.7771	19.462	-37.682	-103.317	217.380	66.169	-64.089	157.849	165.719	26.978	3.395	-107.565	138.910	105.964	80.001	211.930	-101.669	0.00079905	0.00033251	0.0001139	1127.4	3.2679e-06	4.8569e-06	1129.8	298.84	5.6159e-06	4.8328e-06	342.06	114.72	100.4	34.35	4.3347e-06	42.561	0.00056399	0.00064062	0.0001602	1167.7	6.4654e-06	6.4036e-06	1162.8	310.98	5.8161e-06	7.2576e-06	354.97	119.58	104.54	35.879	6.806e-06	44.474	66.026	-36.991	-29.261	-108.956	1.003	24.389	-109.254	-104.199	-32.688	30.796	-104.889	-100.552	-99.859	-95.198	18.251	-96.175	-8191	255	
1010.100	1	1	0	0	0.10169	0.14152	0.084114	0.14262	0.064062	0.171	0.27946	0.29086	0.18017	0.34896	0.027863	0.17751	0.31097	0.11357	0.075015	0.24947	-3.3667	-3.1479	-3.6729	-3.3625	-3.0542	-3.7021	-3.3063	-3.5979	-3.7917	-3.0271	-3.9125	-3.5687	-3	-3.9854	-3.0938	-3.625	187.865	-70.003	230.143	-119.171	23.373	132.258	205.926	173.802	-96.384	-80.356	215.232	138.378	-110.706	195.234	207.175	226.361	0.00082458	0.00040289	0.00013652	1128.4	4.4368e-06	4.7508e-06	1121.6	299.22	6.1995e-06	3.7773e-06	342.8	114.69	100.88	34.283	3.9267e-06	42.594	0.00057733	0.00061685	0.00016753	1168.7	6.7371e-06	6.7609e-06	1159.5	310.83	6.1584e-06	6.8539e-06	354.77	119.31	104.59	35.89	6.3584e-06	44.493	65.473	-36.630	-26.123	-109.471	17.376	27.252	-110.108	-105.212	-12.645	33.456	-105.934	-101.717	-101.196	-96.505	22.268	-97.150	-8191	255	
1010.196	1	1	0	0	0.11585	0.21086	0.18078	0.11114	0.14065	0.085987	0.23158	0.3147	0.064897	0.17201	0.16675	0.19801	0.058898	0.03486	0.12907	0.19487	-3.3021	-2.9562	-3.7583	-3.4375	-3.2375	-3.775	-3.4313	-3.3875	-3.9479	-2.9521	-3.6167	-3.6167	-3.1375	-3.8708	-3.2854	-3.4542	-9.477	210.660	-24.324	-48.536	177.266	-60.937	225.218	208.254	109.610	216.851	213.258	170.325	-84.157	206.807	130.470	188.415	0.00082005	0.00041331	0.00011753	1126.8	5.4556e-06	4.9918e-06	1121.4	299.13	6.4924e-06	4.7793e-06	341.52	114.51	99.96	34.307	3.7521e-06	42.581	0.00055729	0.00062123	0.00016574	1166.5	6.8744e-06	6.7752e-06	1161.1	310.44	6.2319e-06	7.2723e-06	354.46	119.46	104.38	35.927	6.1931e-06	44.488	63.402	-26.582	-26.502	-109.650	29.057	31.815	-110.060	-105.033	-12.763	36.050	-105.777	-101.322	-101.459	-96.096	13.174	-97.064	-8191	255	
#DATA ENDS
