BOXY.EXE: ISS Imagent and Oximeter Data Acquisition Program Version 0.80
Ascii Record File

#ACQ INFORMATION
2  Detector Channels 
16  External MUX Channels 
1  Auxiliary Channels 
5000  Waveform (CCF) Frequency (Hz)
1  Waveforms Skipped 
30  Waveforms Averaged 
1  Cycles Averaged 
16  Acquisitions per Waveform 
10.0806  Updata Rate (Hz) 

#FILE INFORMATION
TRUE -- External MUX Channel results are PARSED.
FALSE -- AC DC and Phase are NOT grouped.
TRUE -- Companion Program Settings File CREATED.
FALSE -- AC data not excluded
FALSE -- DC data not excluded
FALSE -- Phase data not excluded
FALSE -- Auxillary Chn. data not excluded
Tab delimiters

#CALIBRATION STATE
TRUE -- Waveform Calibration Values APPLIED.


#AUX CALIBRATION VALUES
Val Type	aux-1	

Term	1.0000e+00	
Factor	0.0000e+00	


#WF CALIBRATION VALUES
A = Detector Channel
Val Type	A-AC1	A-AC2	A-AC3	A-AC4	A-AC5	A-AC6	A-AC7	A-AC8	A-AC9	A-AC10	A-AC11	A-AC12	A-AC13	A-AC14	A-AC15	A-AC16	A-DC1	A-DC2	A-DC3	A-DC4	A-DC5	A-DC6	A-DC7	A-DC8	A-DC9	A-DC10	A-DC11	A-DC12	A-DC13	A-DC14	A-DC15	A-DC16	A-Ph1	A-Ph2	A-Ph3	A-Ph4	A-Ph5	A-Ph6	A-Ph7	A-Ph8	A-Ph9	A-Ph10	A-Ph11	A-Ph12	A-Ph13	A-Ph14	A-Ph15	A-Ph16	

Term	0.00000e+00	0.00000e+00	0.00000e+00	0.00000e+00	0.00000e+00	0.00000e+00	0.00000e+00	0.00000e+00	0.00000e+00	0.00000e+00	0.00000e+00	0.00000e+00	0.00000e+00	0.00000e+00	0.00000e+00	0.00000e+00	0.00000e+00	0.00000e+00	0.00000e+00	0.00000e+00	0.00000e+00	0.00000e+00	0.00000e+00	0.00000e+00	0.00000e+00	0.00000e+00	0.00000e+00	0.00000e+00	0.00000e+00	0.00000e+00	0.00000e+00	0.00000e+00	0.00000e+00	0.00000e+00	0.00000e+00	0.00000e+00	0.00000e+00	0.00000e+00	0.00000e+00	0.00000e+00	0.00000e+00	0.00000e+00	0.00000e+00	0.00000e+00	0.00000e+00	0.00000e+00	0.00000e+00	0.00000e+00	
Factor	1.00000e+00	1.00000e+00	1.00000e+00	1.00000e+00	1.00000e+00	1.00000e+00	1.00000e+00	1.00000e+00	1.00000e+00	1.00000e+00	1.00000e+00	1.00000e+00	1.00000e+00	1.00000e+00	1.00000e+00	1.00000e+00	1.00000e+00	1.00000e+00	1.00000e+00	1.00000e+00	1.00000e+00	1.00000e+00	1.00000e+00	1.00000e+00	1.00000e+00	1.00000e+00	1.00000e+00	1.00000e+00	1.00000e+00	1.00000e+00	1.00000e+00	1.00000e+00	X	X	X	X	X	X	X	X	X	X	X	X	X	X	X	X	

B = Detector Channel
Val Type	B-AC1	B-AC2	B-AC3	B-AC4	B-AC5	B-AC6	B-AC7	B-AC8	B-AC9	B-AC10	B-AC11	B-AC12	B-AC13	B-AC14	B-AC15	B-AC16	B-DC1	B-DC2	B-DC3	B-DC4	B-DC5	B-DC6	B-DC7	B-DC8	B-DC9	B-DC10	B-DC11	B-DC12	B-DC13	B-DC14	B-DC15	B-DC16	B-Ph1	B-Ph2	B-Ph3	B-Ph4	B-Ph5	B-Ph6	B-Ph7	B-Ph8	B-Ph9	B-Ph10	B-Ph11	B-Ph12	B-Ph13	B-Ph14	B-Ph15	B-Ph16	

Term	0.00000e+00	0.00000e+00	0.00000e+00	0.00000e+00	0.00000e+00	0.00000e+00	0.00000e+00	0.00000e+00	0.00000e+00	0.00000e+00	0.00000e+00	0.00000e+00	0.00000e+00	0.00000e+00	0.00000e+00	0.00000e+00	0.00000e+00	0.00000e+00	0.00000e+00	0.00000e+00	0.00000e+00	0.00000e+00	0.00000e+00	0.00000e+00	0.00000e+00	0.00000e+00	0.00000e+00	0.00000e+00	0.00000e+00	0.00000e+00	0.00000e+00	0.00000e+00	-2.67937e+02	-1.30297e+02	-1.24741e+02	-1.87822e+02	-6.96048e+01	-6.65855e+01	-1.56226e+02	-1.62015e+02	-6.64801e+01	-6.54146e+01	-1.71993e+02	-1.70449e+02	-1.82921e+02	-1.77447e+02	-7.06104e+01	-1.50185e+02	
Factor	5.08686e-05	1.23101e-04	3.70342e-05	3.47696e-01	1.44184e-06	1.36155e-06	1.51375e-01	4.06272e-02	2.33488e-06	1.39090e-06	7.25516e-02	2.05289e-02	3.17289e-02	6.81532e-03	1.55922e-06	9.51071e-03	2.34709e-05	6.99811e-05	2.09637e-05	1.86283e-01	7.08699e-07	8.53338e-07	7.64441e-02	2.19243e-02	5.51292e-07	8.80824e-07	3.79906e-02	1.07674e-02	1.72504e-02	3.72260e-03	6.45250e-07	5.03074e-03	X	X	X	X	X	X	X	X	X	X	X	X	X	X	X	X	



#DISTANCE SETTINGS
A = Detector Channel
A-1	A-2	A-3	A-4	A-5	A-6	A-7	A-8	A-9	A-10	A-11	A-12	A-13	A-14	A-15	A-16	

2.5000e+00	3.0000e+00	2.5000e+00	3.0000e+00	2.0000e+00	3.0000e+00	1.5000e+00	3.0000e+00	3.0000e+00	3.0000e+00	3.0000e+00	3.0000e+00	3.0000e+00	3.0000e+00	1.5000e+00	3.0000e+00	

B = Detector Channel
B-1	B-2	B-3	B-4	B-5	B-6	B-7	B-8	B-9	B-10	B-11	B-12	B-13	B-14	B-15	B-16	

1.0000e+01	1.0000e+01	1.0000e+01	1.4400e+00	1.0000e+01	1.0000e+01	1.5100e+00	1.9400e+00	1.0000e+01	1.0000e+01	1.9900e+00	2.4900e+00	2.4100e+00	2.9000e+00	1.0000e+01	2.9800e+00	




#DATA BEGINS
time	group	step	mark	flag	A-AC1	A-AC2	A-AC3	A-AC4	A-AC5	A-AC6	A-AC7	A-AC8	A-AC9	A-AC10	A-AC11	A-AC12	A-AC13	A-AC14	A-AC15	A-AC16	A-DC1	A-DC2	A-DC3	A-DC4	A-DC5	A-DC6	A-DC7	A-DC8	A-DC9	A-DC10	A-DC11	A-DC12	A-DC13	A-DC14	A-DC15	A-DC16	A-Ph1	A-Ph2	A-Ph3	A-Ph4	A-Ph5	A-Ph6	A-Ph7	A-Ph8	A-Ph9	A-Ph10	A-Ph11	A-Ph12	A-Ph13	A-Ph14	A-Ph15	A-Ph16	B-AC1	B-AC2	B-AC3	B-AC4	B-AC5	B-AC6	B-AC7	B-AC8	B-AC9	B-AC10	B-AC11	B-AC12	B-AC13	B-AC14	B-AC15	B-AC16	B-DC1	B-DC2	B-DC3	B-DC4	B-DC5	B-DC6	B-DC7	B-DC8	B-DC9	B-DC10	B-DC11	B-DC12	B-DC13	B-DC14	B-DC15	B-DC16	B-Ph1	B-Ph2	B-Ph3	B-Ph4	B-Ph5	B-Ph6	B-Ph7	B-Ph8	B-Ph9	B-Ph10	B-Ph11	B-Ph12	B-Ph13	B-Ph14	B-Ph15	B-Ph16	aux-1	digaux	

2383.524	1	1	0	256	0.0054569	0.25628	0.030881	0.11563	0.2287	0.1129	0.096104	0.13324	0.15028	0.25793	0.14119	0.14453	0.076033	0.1898	0.045299	0.11015	-2.9125	-3.1625	-3.8	-2.9771	-3.2896	-3.7188	-2.9313	-3.7229	-3.3708	-3.0833	-3.7125	-3.1917	-3.1479	-3.7021	-3.0062	-3.6375	93.699	249.230	384.400	299.239	207.798	173.630	102.160	382.545	407.414	429.380	294.042	215.972	448.446	277.096	441.533	130.692	6.8227e-05	7.6472e-05	2.1749e-05	76.561	7.6694e-07	5.7207e-07	124.96	17.346	2.3036e-06	7.9102e-07	39.856	8.4634	3.7509	0.85318	9.8186e-07	1.9786	0.00014273	0.00030354	7.774e-05	78.186	3.0636e-06	3.1502e-06	125.17	17.509	2.3545e-06	3.8371e-06	39.605	8.3886	3.7924	0.86319	3.3365e-06	2.0045	379.470	365.495	181.417	101.151	234.208	160.305	98.698	106.691	264.109	233.118	102.141	106.202	109.619	113.954	296.275	110.134	-8191	255	
2383.620	1	1	0	0	0.10997	0.14133	0.31114	0.086518	0.1367	0.070945	0.16569	0.024424	0.16978	0.17382	0.17883	0.15495	0.22088	0.087616	0.19178	0.1351	-3.1562	-2.775	-3.6604	-3.0771	-3.1771	-3.7979	-3.1125	-3.475	-3.5917	-3.0521	-3.5958	-3.1896	-2.9313	-3.8438	-2.8417	-3.5542	315.528	188.197	433.287	140.008	144.345	143.182	388.927	174.780	409.079	340.811	323.451	140.980	409.910	151.893	354.435	208.297	8.2801e-05	4.121e-05	1.9272e-05	78.17	4.1309e-07	4.4097e-07	125.63	17.089	1.5809e-06	8.4144e-07	39.675	8.3355	3.7869	0.85096	7.107e-07	2.0073	0.00013432	0.00035472	7.3941e-05	78.064	3.483e-06	2.9014e-06	124.95	17.411	2.0938e-06	3.9821e-06	39.503	8.3929	3.7863	0.86129	3.0999e-06	2.0114	393.522	167.224	190.713	101.270	225.356	258.835	98.056	105.716	351.162	227.879	102.093	105.837	110.870	113.166	254.025	111.188	-8191	255	
2383.741	1	1	0	0	0.16664	0.15916	0.062433	0.41811	0.11224	0.11073	0.18416	0.213	0.19082	0.17621	0.26211	0.045122	0.25446	0.11855	0.02587	0.26584	-3.0958	-2.8937	-3.7167	-3.1104	-3.1688	-3.9042	-2.9521	-3.3854	-3.4729	-2.8021	-3.6083	-3.2188	-3.2	-3.55	-3.0583	-3.2917	327.592	369.794	189.559	327.859	363.196	299.772	305.013	196.021	339.772	215.274	398.962	445.571	124.369	348.875	246.899	269.301	7.9261e-05	8.9993e-05	1.4817e-05	77.938	1.4403e-06	9.0216e-07	125.19	17.796	2.203e-06	2.3525e-07	40.267	8.5132	3.8093	0.87174	7.687e-07	2.0447	0.00012689	0.00037527	8.0885e-05	77.971	3.1877e-06	2.9014e-06	125.56	17.584	2.4108e-06	3.9655e-06	40.066	8.4421	3.7918	0.86983	2.7638e-06	2.059	387.953	198.610	431.240	100.795	206.776	153.398	98.358	105.980	229.933	254.665	102.114	106.767	107.999	113.903	227.973	111.496	-8191	255	
2383.813	1	1	0	0	0.32463	0.035809	0.15318	0.19593	0.16981	0.15268	0.090318	0.22965	0.094583	0.22879	0.21058	0.13429	0.17742	0.32812	0.35247	0.1367	-3.2104	-2.8792	-3.7021	-3.3021	-2.975	-3.8917	-3.05	-3.1771	-3.6979	-2.9875	-3.6063	-3.575	-3	-3.8292	-3.0229	-3.1896	422.638	352.446	326.299	333.106	128.813	191.952	187.446	232.756	221.953	114.119	98.999	263.156	413.304	437.959	203.242	132.218	7.327e-05	0.00013209	3.7704e-05	78.541	1.0509e-06	2.9897e-07	128.21	17.637	6.2329e-07	1.0857e-06	39.659	8.4005	3.8598	0.86421	3.999e-07	2.0303	0.0001221	0.00034203	8.7873e-05	78.771	3.4977e-06	3.1751e-06	126.22	17.669	2.1696e-06	4.4445e-06	39.948	8.4274	3.8178	0.87652	3.2021e-06	2.0683	376.371	139.822	177.864	100.651	185.256	252.831	98.534	106.291	252.873	121.959	102.299	106.298	109.391	114.304	186.364	110.408	-8191	255	
2383.909	1	1	0	0	0.19409	0.29639	0.063509	0.19575	0.13032	0.11312	0.16368	0.17054	0.2548	0.12813	0.12361	0.10739	0.11435	0.13444	0.075809	0.11296	-3.2438	-2.7854	-3.4167	-3.45	-2.9833	-3.75	-3.2604	-3.1542	-3.7125	-2.9125	-3.5104	-3.3958	-3.0042	-3.7812	-3.1479	-3.0187	92.040	349.019	401.234	345.170	313.672	298.425	408.729	108.955	242.384	231.080	249.760	389.148	348.016	282.229	349.078	384.473	6.6222e-05	4.308e-05	1.7966e-05	79.879	5.1576e-07	9.0941e-07	126.22	17.656	1.1774e-06	5.628e-07	40.364	8.4365	3.797	0.8345	1.0431e-06	2.0032	0.00011579	0.00034757	8.368e-05	79.287	3.2999e-06	3.1396e-06	126.59	17.664	2.2189e-06	4.05e-06	40.022	8.4239	3.8085	0.85697	2.9749e-06	2.0408	404.357	186.886	126.101	99.652	343.370	133.435	98.503	105.928	173.830	168.722	102.333	106.648	110.093	113.383	203.228	109.474	-8191	255	
2384.029	1	1	0	0	0.14705	0.231	0.11275	0.29469	0.17946	0.10651	0.13442	0.080539	0.1346	0.19224	0.15913	0.12394	0.3795	0.25809	0.065713	0.081569	-3.3667	-2.9104	-3.4813	-3.5438	-3.0271	-3.6479	-3.4313	-2.9833	-3.6708	-3.1646	-3.1354	-3.6396	-2.7771	-3.5354	-3.3917	-3.0979	357.881	358.970	126.876	104.760	168.914	375.662	118.875	132.163	122.872	113.112	262.266	387.602	283.504	209.825	386.576	338.005	5.9458e-05	8.1201e-05	7.7796e-06	77.401	1.2072e-06	1.0486e-06	126.7	17.482	9.7465e-07	1.4669e-06	39.827	8.6054	3.7252	0.85095	4.4296e-07	2.0411	0.00012875	0.00029786	8.6955e-05	79.087	3.2423e-06	2.7982e-06	126.47	17.594	2.1868e-06	3.6462e-06	40.19	8.4884	3.7546	0.87227	2.4157e-06	2.0792	384.917	410.221	313.886	101.281	236.107	187.210	98.272	104.556	202.104	268.804	102.558	106.045	110.264	112.126	248.519	109.930	-8191	255	
2384.124	1	1	0	0	0.22642	0.21751	0.27909	0.25216	0.10175	0.13186	0.26508	0.25518	0.099523	0.10552	0.26268	0.1457	0.04462	0.27909	0.23715	0.10246	-3.4229	-3.0938	-3.3688	-3.5687	-2.8625	-3.5958	-3.4146	-2.8021	-3.8396	-3.1375	-3.2542	-3.6542	-2.9188	-3.6958	-3.4708	-2.775	142.457	219.520	198.397	346.905	146.902	347.081	352.660	446.322	110.978	145.071	193.923	310.121	259.094	300.841	126.801	406.731	9.2104e-05	3.4664e-05	3.5193e-05	78.395	1.1213e-06	7.421e-07	127.21	17.956	1.2114e-06	7.0459e-07	40.961	8.6401	3.65	0.89209	7.0061e-07	2.0234	0.00012303	0.000298	8.6999e-05	79.036	2.9987e-06	3.4614e-06	126.62	17.876	2.0007e-06	3.5398e-06	40.99	8.5453	3.6945	0.88176	2.7168e-06	2.0763	408.639	287.701	100.915	100.236	205.556	99.585	98.231	106.389	245.455	240.719	102.604	105.893	109.191	113.096	213.309	109.031	-8191	255	
2384.220	1	1	0	0	0.22387	0.13418	0.067991	0.19587	0.023477	0.1414	0.076056	0.009524	0.1362	0.18783	0.26106	0.13328	0.09054	0.16905	0.19611	0.22945	-3.1521	-3.2854	-3.0542	-3.9	-3.0771	-3.5708	-3.6792	-2.9458	-3.7458	-3.3042	-3.1646	-3.75	-2.9104	-3.5104	-3.6958	-2.8667	388.644	433.509	351.325	440.816	302.755	202.357	429.768	207.925	192.212	270.342	380.967	346.696	426.514	111.388	227.561	119.506	5.2737e-05	1.9965e-05	2.0224e-05	78.519	3.8013e-07	6.9794e-07	127	17.907	2.2807e-06	1.2826e-06	40.344	8.5274	3.7575	0.8654	1.075e-07	2.0908	0.00010303	0.00029159	8.5209e-05	79.561	3.1463e-06	3.2427e-06	127.09	17.933	2.049e-06	4.0243e-06	40.651	8.5167	3.7538	0.87635	2.2342e-06	2.1096	390.684	331.643	198.150	100.793	286.294	184.008	98.874	105.651	251.644	215.760	101.966	106.047	109.997	112.197	416.592	109.732	-8191	255	
2384.341	1	1	0	0	0.24618	0.048312	0.44328	0.010708	0.1865	0.012149	0.15023	0.06595	0.096353	0.19625	0.24781	0.19581	0.03978	0.10963	0.051449	0.18314	-3.3729	-3.2979	-3.1	-3.7896	-3	-3.2458	-3.7458	-2.9479	-3.6479	-3.4083	-2.9833	-3.7313	-3.1604	-3.375	-3.7771	-2.8854	179.243	144.343	291.919	148.055	279.864	127.836	165.406	227.974	109.630	268.829	437.196	215.051	171.607	104.440	221.200	141.619	4.8979e-05	4.4919e-05	2.2997e-05	79.584	1.9789e-07	9.3004e-07	127.08	18.027	7.6792e-07	4.2171e-07	40.507	8.4092	3.7302	0.834	6.3884e-07	2.0546	0.00011364	0.00024727	8.2501e-05	79.784	3.1375e-06	3.1485e-06	126.28	17.766	1.8778e-06	2.9856e-06	40.627	8.4016	3.6701	0.86253	2.1065e-06	2.0709	395.951	119.165	412.834	99.912	132.507	302.293	98.389	106.030	218.579	195.710	102.926	105.996	110.110	113.717	317.044	110.544	-8191	255	
2384.412	1	1	0	0	0.11258	0.10855	0.16753	0.22051	0.23045	0.11191	0.082952	0.16792	0.14195	0.085884	0.115	0.34727	0.33353	0.11179	0.090313	0.35317	-3.0646	-3.4771	-3.0938	-3.6646	-3.2708	-3.2812	-3.7292	-2.8646	-3.4562	-3.3854	-3.0771	-3.6542	-3.1542	-3.2104	-3.7854	-3.0292	253.387	375.027	440.857	155.031	289.994	201.161	388.252	349.696	289.497	130.828	170.567	191.246	239.936	181.583	201.613	149.742	8.0807e-05	2.9525e-05	1.5953e-05	80.58	3.5516e-07	1.9154e-06	128.16	18.02	5.5675e-07	6.986e-07	41.108	8.4743	3.7517	0.82771	6.7691e-07	2.0959	0.00012591	0.00024785	8.4073e-05	79.744	2.882e-06	3.392e-06	126.81	17.882	2.2339e-06	2.9893e-06	41.121	8.4785	3.7128	0.85994	1.8255e-06	2.0917	389.445	152.015	431.573	100.204	147.360	288.395	99.253	105.727	191.475	255.463	100.954	106.760	108.461	113.920	221.985	110.290	-8191	255	
2384.508	1	1	0	0	0.15033	0.10152	0.03216	0.069395	0.28896	0.34762	0.032897	0.15945	0.16745	0.18073	0.20861	0.13766	0.050933	0.32097	0.13191	0.12336	-2.9833	-3.5271	-2.8958	-3.6854	-3.2854	-3.125	-3.8542	-2.9688	-3.4854	-3.5958	-3.0667	-3.6271	-3.4104	-3.1063	-3.8896	-3.1188	377.006	267.425	264.428	147.135	299.953	192.676	406.589	167.392	383.738	358.837	353.561	420.208	170.581	342.406	204.809	415.603	7.9269e-05	2.8968e-05	9.6537e-06	77.643	5.6527e-07	1.2921e-06	129.97	17.826	7.5979e-07	3.4998e-07	40.482	8.3995	3.7309	0.8509	6.4436e-07	2.0435	0.0001196	0.00025995	9.6913e-05	79.941	2.5779e-06	3.5858e-06	128.42	17.818	2.1581e-06	3.0535e-06	41.135	8.4165	3.6978	0.87181	2.214e-06	2.0917	369.667	208.916	123.919	100.216	177.791	226.414	98.966	105.711	332.804	339.511	101.395	106.659	109.922	112.965	157.444	109.049	-8191	255	
2384.604	1	1	0	0	0.15478	0.12188	0.18272	0.20317	0.27186	0.16989	0.21526	0.10274	0.25193	0.076573	0.052928	0.056316	0.25955	0.26561	0.11466	0.13218	-3.0229	-3.7188	-2.8354	-3.5521	-3.2833	-2.8312	-3.8375	-3.0563	-3.1125	-3.6583	-2.9542	-3.5146	-3.5708	-3.1312	-3.6479	-3.3042	353.160	139.198	349.326	332.538	325.488	190.240	413.249	137.593	137.043	384.294	181.299	401.602	152.325	443.287	410.735	203.437	6.5554e-05	3.1186e-05	1.3449e-05	83.241	8.8311e-07	8.2031e-07	127.91	17.798	3.8517e-07	3.476e-07	40.304	8.3989	3.7093	0.85148	1.3098e-06	2.0313	0.00012581	0.00020207	7.9968e-05	81.625	2.2811e-06	3.5325e-06	128.44	17.818	2.1167e-06	2.7049e-06	40.76	8.3933	3.6389	0.87214	2.2785e-06	2.061	392.947	134.027	251.083	100.769	243.286	228.501	98.742	105.351	249.936	186.661	101.454	106.527	110.466	113.725	266.503	109.178	-8191	255	
2384.723	1	1	0	0	0.10745	0.10693	0.22965	0.18955	0.12504	0.25733	0.1125	0.068297	0.10581	0.19487	0.010006	0.10936	0.099373	0.05902	0.17151	0.13143	-2.7271	-3.5958	-2.825	-3.5229	-3.45	-2.9583	-3.6375	-3.1208	-2.8583	-3.7896	-3.1604	-3.525	-3.4354	-3.0708	-3.5917	-3.1583	178.668	95.253	316.707	133.426	250.373	256.177	147.646	373.477	359.337	271.149	438.468	405.083	118.905	423.311	113.025	237.566	3.8329e-05	8.6451e-05	2.4164e-05	82.179	7.2113e-07	8.2816e-07	127.93	17.289	1.0361e-06	9.0101e-07	39.679	8.2111	3.5942	0.82746	1.2391e-06	1.9912	0.00011882	0.00021126	8.962e-05	81.431	2.4317e-06	3.5307e-06	127.06	17.281	2.3947e-06	2.3305e-06	39.279	8.2195	3.55	0.84471	2.3673e-06	2.0158	363.511	137.251	133.030	100.013	295.769	272.733	97.919	107.275	234.857	259.643	101.678	106.574	108.634	111.841	224.159	109.649	-8191	255	
2384.820	1	1	0	0	0.090573	0.13153	0.23281	0.10913	0.20301	0.077174	0.10491	0.15786	0.29101	0.10904	0.069465	0.096611	0.24557	0.18602	0.13941	0.19067	-2.5271	-3.7	-2.8708	-3.2917	-3.5125	-2.8187	-3.6396	-3.3438	-3.0354	-3.7562	-3.1063	-3.2375	-3.6833	-2.8563	-3.5583	-3.2896	134.104	249.731	343.995	229.874	93.108	445.070	322.731	394.079	140.223	381.035	166.787	371.672	191.904	197.533	222.052	387.828	8.0643e-05	4.4584e-05	3.6003e-05	78.403	1.1058e-06	7.9567e-07	126.85	17.055	7.1863e-07	2.4034e-07	38.539	8.0544	3.5457	0.80677	1.2751e-06	2.0107	0.00013095	0.00020397	7.9618e-05	80.35	2.3564e-06	3.2498e-06	125.76	16.941	2.2109e-06	2.7434e-06	38.752	8.0981	3.5311	0.83864	2.2221e-06	2.0276	397.062	186.943	155.943	101.322	269.983	262.839	98.424	105.017	401.165	325.503	102.454	106.439	110.224	111.459	147.786	109.180	-8191	255	
2384.916	1	1	0	0	0.14344	0.31374	0.15273	0.11032	0.071185	0.19586	0.079523	0.038301	0.18622	0.21941	0.16951	0.030642	0.04545	0.0089459	0.17223	0.16119	-2.5917	-3.7062	-3.1312	-3.25	-3.6229	-2.8958	-3.475	-3.3958	-3.0542	-3.75	-3.0563	-3.1188	-3.6937	-2.9104	-3.5396	-3.4708	370.812	335.284	174.246	226.277	197.705	222.582	221.613	222.705	153.395	426.975	165.471	433.799	109.195	163.555	104.427	424.504	7.5198e-05	4.7276e-05	1.0653e-05	77.828	2.9955e-07	7.3884e-07	127.88	17.05	2.1598e-06	5.0659e-07	39.489	8.2341	3.6123	0.8495	5.2706e-07	2.0035	0.00012694	0.00028503	8.8877e-05	80.472	2.4347e-06	3.4436e-06	126.35	17.062	2.3269e-06	2.8994e-06	39.181	8.2168	3.5962	0.84777	2.3431e-06	2.0156	382.192	312.731	271.096	100.625	158.708	268.794	98.540	104.971	239.939	137.968	102.011	106.835	109.579	111.326	253.941	109.239	-8191	255	
2385.012	1	1	0	0	0.18801	0.12274	0.16083	0.16733	0.16194	0.28929	0.13273	0.044263	0.017183	0.041448	0.090905	0.27958	0.12916	0.18805	0.075255	0.17583	-2.4833	-3.6688	-3.375	-2.9583	-3.7	-2.9604	-3.4938	-3.4146	-2.8042	-3.5604	-3.15	-2.9854	-3.8104	-3.0667	-3.3688	-3.7771	176.907	410.483	327.865	282.552	409.801	437.286	336.534	294.524	142.837	103.901	248.262	332.717	166.707	91.495	202.234	224.083	6.5968e-05	4.8066e-05	5.3394e-06	79.948	9.9218e-07	6.6406e-07	127.53	17.061	8.636e-07	5.757e-07	39.565	8.2618	3.6388	0.80049	3.8481e-07	1.9918	0.00013506	0.00024114	7.7653e-05	80.418	2.5941e-06	3.4774e-06	127.01	17.109	2.3441e-06	2.9599e-06	39.637	8.2787	3.6063	0.83462	2.5084e-06	2.03	393.622	108.211	401.700	99.334	180.700	175.341	97.913	105.349	394.166	244.794	102.405	106.443	109.737	113.956	255.097	109.577	-8191	255	
2385.108	1	1	0	0	0.11168	0.1227	0.047413	0.083111	0.19022	0.053583	0.17971	0.07166	0.27787	0.069336	0.19143	0.10313	0.16149	0.13067	0.15161	0.10908	-2.4896	-3.75	-3.2812	-2.875	-3.6667	-3.0438	-3.3312	-3.5896	-2.9958	-3.5812	-3.4167	-2.9667	-3.6875	-2.9604	-3.2375	-3.8271	331.188	341.541	124.003	281.606	325.880	167.168	171.550	171.930	311.847	307.802	198.278	115.917	214.006	166.224	387.952	404.233	5.6748e-05	2.348e-05	1.1929e-05	79.932	8.6615e-07	1.475e-06	128.39	17.19	1.4835e-06	3.9186e-07	39.189	8.2919	3.5976	0.77949	7.9303e-07	1.9701	0.00013515	0.00027497	8.071e-05	80.948	2.3298e-06	3.8329e-06	127.67	17.205	2.4911e-06	2.9122e-06	39.377	8.2719	3.566	0.8255	2.6213e-06	2.0114	385.188	106.439	121.771	101.053	190.983	135.172	97.900	105.240	438.570	218.126	101.267	105.606	110.326	113.974	197.272	109.976	-8191	255	
2385.204	1	1	0	0	0.24126	0.15377	0.11285	0.12914	0.094063	0.18056	0.028065	0.22356	0.10719	0.19501	0.05447	0.22484	0.080319	0.22138	0.28329	0.092385	-2.5042	-3.4375	-3.4708	-2.8208	-3.7917	-3.1042	-3.1688	-3.5875	-2.8542	-3.4896	-3.3812	-2.8854	-3.7229	-3.15	-3.0375	-3.6792	137.334	427.834	383.172	149.522	369.054	388.768	133.425	336.104	316.211	137.383	329.307	253.200	137.261	394.321	187.457	408.705	6.522e-05	0.00012477	3.6574e-05	81.022	1.0108e-06	1.0258e-06	127.29	17.406	6.2192e-07	5.8686e-07	39.628	8.336	3.6635	0.80525	2.3917e-07	1.988	0.00012146	0.00031535	7.0228e-05	80.861	2.8437e-06	3.7227e-06	128.06	17.381	2.3085e-06	3.1875e-06	40.091	8.3537	3.6191	0.82176	2.6133e-06	2.0154	409.795	279.526	430.794	99.899	240.149	206.813	98.308	104.819	150.472	175.625	102.068	107.037	109.774	112.962	314.206	109.654	-8191	255	
2385.300	1	1	0	0	0.053776	0.063726	0.11737	0.3544	0.29763	0.085479	0.049067	0.074515	0.17942	0.16758	0.060316	0.16324	0.24332	0.20561	0.10508	0.15373	-2.5979	-3.2854	-3.5375	-2.9229	-3.7958	-3.3063	-3.0604	-3.6833	-2.9667	-3.2667	-3.6354	-2.7729	-3.5896	-3.45	-2.9833	-3.8021	420.696	93.507	113.944	296.185	114.019	433.232	336.351	289.707	422.170	211.144	309.150	88.990	200.883	382.311	393.234	329.367	5.5049e-05	0.00011321	1.2578e-05	80.491	1.0076e-06	2.9569e-07	131.17	17.662	2.8455e-07	4.8475e-07	41.487	8.4777	3.7119	0.81288	3.9681e-07	1.9987	0.00013354	0.00028255	7.5207e-05	80.841	3.0607e-06	3.3458e-06	130.15	17.621	2.544e-06	3.5783e-06	41.011	8.4377	3.6541	0.83932	2.9695e-06	2.037	416.809	155.764	95.520	101.483	186.251	228.753	98.052	105.139	295.812	410.277	101.605	105.636	109.421	113.577	197.813	108.537	-8191	255	
2385.421	1	1	0	0	0.13688	0.053072	0.16069	0.11979	0.13654	0.072814	0.11821	0.20067	0.16645	0.071575	0.17083	0.070521	0.23941	0.14796	0.18022	0.17108	-2.6188	-3.0021	-3.5438	-3.0458	-3.5542	-3.325	-2.8667	-3.775	-3.1958	-3.2417	-3.6542	-2.9896	-3.5812	-3.5125	-2.8604	-3.9271	332.633	406.160	423.603	406.098	116.635	242.917	342.630	318.785	437.893	268.255	368.979	387.877	136.329	270.132	236.217	161.266	8.6782e-05	3.2114e-05	2.2476e-05	84.518	5.4537e-07	5.1169e-07	131.39	17.689	2.3648e-06	1.7645e-06	41.534	8.4516	3.7547	0.80949	1.0094e-06	1.9874	0.00013447	0.00029407	8.9969e-05	83.46	2.569e-06	3.9236e-06	130.52	17.807	2.1753e-06	3.694e-06	41.355	8.4999	3.6972	0.83067	3.0179e-06	2.0048	394.674	136.885	312.244	100.546	153.937	135.248	98.546	104.274	285.711	202.354	101.403	106.090	109.507	112.922	277.008	109.375	-8191	255	
2385.515	1	1	0	0	0.04001	0.064422	0.22943	0.13129	0.029921	0.41509	0.27893	0.17164	0.11497	0.13863	0.21038	0.22891	0.1009	0.30869	0.14735	0.13001	-2.6917	-3.1458	-3.7	-2.9792	-3.4833	-3.4688	-2.9208	-3.8667	-3.1146	-3.0146	-3.8667	-2.8354	-3.4062	-3.5854	-2.8667	-3.675	261.821	435.271	358.711	144.992	271.012	207.726	267.870	319.655	244.289	444.888	314.777	396.186	280.571	180.971	280.115	229.888	6.51e-05	5.4126e-05	2.5236e-05	81.715	1.0203e-06	7.4193e-07	131.22	17.435	8.1524e-07	3.5294e-07	40.717	8.5738	3.5361	0.77085	1.1487e-06	1.8926	0.00012205	0.00033081	6.9049e-05	82.581	2.9381e-06	3.4027e-06	130.12	17.693	2.4383e-06	3.9674e-06	41.072	8.4408	3.6675	0.79623	3.0959e-06	1.9591	414.796	206.386	113.526	100.532	296.920	226.415	98.477	105.933	220.774	141.735	101.737	106.524	109.445	113.626	215.093	109.278	-8191	255	
2385.613	1	1	0	0	0.036956	0.060914	0.023038	0.26267	0.17063	0.25439	0.10834	0.11894	0.25305	0.11913	0.26721	0.14789	0.21002	0.26717	0.084479	0.17946	-2.8542	-3.0479	-3.675	-3.1833	-3.3958	-3.7938	-3.0812	-3.6875	-3.3771	-3.0062	-3.8521	-3.1292	-3.3021	-3.6542	-3.1333	-3.7458	222.520	367.516	372.791	380.050	422.541	318.211	363.059	119.732	284.659	386.825	376.273	107.800	199.023	158.361	94.773	106.165	8.2384e-05	0.00012078	1.26e-05	80.784	1.0949e-06	8.3109e-07	131.32	17.851	2.9558e-06	9.1818e-07	41.92	8.5665	3.6462	0.78737	3.5612e-07	1.9101	0.00013197	0.00035763	7.7129e-05	81.452	3.0075e-06	3.2e-06	130.35	17.838	2.351e-06	4.1417e-06	41.509	8.4953	3.6894	0.80352	3.116e-06	1.9441	407.732	134.292	154.047	101.061	203.843	308.340	98.384	106.884	186.041	266.152	102.039	106.954	110.780	113.312	190.479	110.627	-8191	255	
2385.709	1	1	0	0	0.033131	0.2578	0.29131	0.19358	0.16111	0.1916	0.19326	0.1643	0.14268	0.14478	0.023202	0.10363	0.21374	0.058861	0.13254	0.1831	-3.1417	-3.0479	-3.7125	-3.2625	-3.0625	-3.7854	-2.9146	-3.6063	-3.5	-2.7854	-3.5229	-3.0479	-3.1083	-3.6688	-2.9583	-3.5438	327.764	90.028	249.791	89.138	252.227	254.250	207.798	287.770	411.476	108.359	149.519	320.940	266.403	159.307	112.894	296.208	6.5024e-05	6.8175e-05	2.2267e-05	82.126	6.659e-07	1.9521e-07	131.01	18.605	1.3524e-06	3.5125e-07	43.551	8.7773	3.846	0.7787	9.8193e-07	1.897	0.00013437	0.00030238	8.8877e-05	81.958	3.2984e-06	3.1414e-06	130.82	18.748	2.7771e-06	4.0573e-06	43.377	8.6804	3.7856	0.78835	3.2921e-06	1.9365	371.817	158.786	377.819	101.327	233.751	395.745	98.931	105.517	287.093	208.592	101.422	106.476	109.188	113.512	270.302	108.817	-8191	255	
2385.804	1	1	0	0	0.092052	0.20708	0.10995	0.10161	0.16056	0.04655	0.14821	0.17083	0.26624	0.3566	0.2932	0.13215	0.031482	0.065454	0.19018	0.16432	-3.15	-2.7083	-3.6479	-3.1271	-3.1021	-3.8208	-3.1667	-3.3729	-3.6604	-2.8708	-3.8625	-3.2938	-3.0458	-3.825	-3.0208	-3.4646	177.391	258.810	160.753	326.616	441.132	360.972	444.595	139.536	174.462	215.709	211.012	99.273	338.062	302.900	304.519	444.246	3.4645e-05	4.7155e-05	7.159e-06	79.64	2.9213e-07	7.4965e-07	132.84	19.81	1.3186e-07	1.4037e-06	44.49	8.5709	3.6235	0.71542	2.5949e-07	1.7857	0.00013026	0.00037994	8.8047e-05	79.846	3.8506e-06	3.7369e-06	130.97	19.934	2.5336e-06	4.4775e-06	44.253	8.5307	3.6358	0.74107	3.2585e-06	1.8111	356.327	403.076	221.156	101.268	249.289	202.652	98.736	105.659	108.641	285.277	102.297	107.213	108.986	114.294	208.239	110.594	-8191	255	
2385.900	1	1	0	0	0.10128	0.018393	0.016652	0.018771	0.073223	0.19787	0.1807	0.071284	0.1969	0.16692	0.21443	0.22009	0.13216	0.15333	0.090418	0.19498	-3.3479	-2.9042	-3.5896	-3.4458	-2.9125	-3.8646	-3.0604	-3.2292	-3.6458	-2.9604	-3.6167	-3.5625	-2.9083	-3.725	-3.1458	-3.1771	194.559	201.699	199.757	429.334	290.102	342.165	409.935	174.588	128.397	153.297	319.924	226.295	273.248	238.896	290.951	269.424	7.5577e-05	1.8419e-05	3.1512e-05	76.798	2.7271e-07	2.2507e-07	128.98	19.297	1.046e-06	1.2003e-06	41.937	8.1483	3.5175	0.67457	1.732e-06	1.6453	0.00013638	0.00045692	9.8485e-05	77.799	4.0676e-06	3.7796e-06	128.34	19.471	2.776e-06	5.3455e-06	42.038	8.0905	3.4922	0.70092	3.4951e-06	1.7115	399.316	113.935	300.396	100.993	123.783	192.126	98.700	105.726	162.229	399.375	101.512	107.646	111.597	114.896	165.206	111.089	-8191	255	
2386.021	1	1	0	0	0.045343	0.2662	0.083528	0.086857	0.14573	0.11108	0.071287	0.047138	0.063913	0.27394	0.19869	0.35642	0.022809	0.047752	0.26745	0.078428	-3.3563	-2.8167	-3.4104	-3.425	-2.7958	-3.7208	-3.1813	-3	-3.6979	-2.9646	-3.425	-3.5396	-2.9646	-3.7562	-3.3021	-3.1208	191.006	173.920	267.376	348.724	115.190	234.486	396.869	372.850	229.736	269.538	351.685	122.028	212.158	305.413	179.384	284.039	7.5546e-05	7.2261e-05	2.1871e-05	76.454	1.2633e-06	1.1183e-06	126.53	18.635	1.4445e-06	1.6089e-07	40.704	7.9239	3.3452	0.65829	9.075e-07	1.6204	0.00013173	0.00044132	0.00011766	76.413	4.0632e-06	4.9529e-06	125.54	18.548	2.9356e-06	5.3308e-06	40.345	7.8762	3.3951	0.67388	3.6e-06	1.6864	377.686	121.492	263.938	101.920	236.758	289.073	98.553	105.803	287.898	401.138	102.716	106.215	108.791	114.078	336.311	110.995	-8191	255	
2386.117	1	1	0	0	0.16826	0.22082	0.20156	0.066528	0.17417	0.078135	0.12479	0.061018	0.050635	0.21161	0.13563	0.3137	0.15129	0.038705	0.2617	0.14988	-3.4625	-2.8292	-3.2958	-3.5896	-2.9813	-3.6542	-3.4708	-3.075	-3.8354	-2.9833	-3.4646	-3.6458	-2.8417	-3.5729	-3.3021	-2.7625	364.047	398.557	324.868	323.877	411.741	189.825	382.151	248.769	236.676	164.630	294.044	436.522	256.695	373.410	296.958	395.718	3.8384e-05	2.0869e-05	3.434e-05	74.032	4.174e-07	1.0896e-06	123.21	17.271	1.228e-06	6.1245e-07	38.381	7.5128	3.2896	0.63813	8.6432e-07	1.6215	0.00014107	0.0004021	0.00010958	75.477	4.6567e-06	4.4569e-06	123.06	17.391	2.954e-06	4.795e-06	38.003	7.5185	3.2793	0.64735	3.3916e-06	1.652	360.269	436.108	197.076	101.241	223.490	168.390	99.456	104.688	166.102	93.870	101.064	105.972	111.446	113.037	365.546	110.505	-8191	255	
2386.213	1	1	0	0	0.18702	0.097665	0.13686	0.34865	0.096093	0.021417	0.2467	0.047156	0.25089	0.12709	0.27709	0.18782	0.075529	0.088091	0.11812	0.047739	-3.2938	-3.0396	-3.0354	-3.6375	-3.0104	-3.6333	-3.35	-3.075	-3.8104	-3.2167	-3.2229	-3.8875	-3.0646	-3.6333	-3.4021	-2.9104	304.581	427.713	271.912	275.589	389.061	294.023	362.665	392.580	201.160	144.147	101.539	124.627	343.443	212.870	167.080	175.072	6.6137e-05	4.791e-05	2.4819e-05	74.513	3.5216e-07	2.6168e-07	122.45	16.774	1.6519e-06	1.3342e-06	36.251	7.3246	3.3014	0.59467	1.1817e-06	1.5545	0.00014161	0.0003728	0.00010556	75.498	4.0957e-06	4.2258e-06	122.37	16.67	2.7967e-06	4.4628e-06	36.587	7.3126	3.1865	0.62729	3.0811e-06	1.6097	411.544	185.936	159.297	100.525	214.729	148.108	98.930	105.618	193.008	262.266	103.366	106.639	108.869	112.658	194.880	112.184	-8191	255	
2386.309	1	1	0	0	0.045789	0.33872	0.19805	0.056385	0.21159	0.14915	0.075785	0.1723	0.15881	0.20983	0.27215	0.27272	0.18667	0.028955	0.058427	0.088618	-3.2875	-3.2042	-3.0083	-3.5896	-2.9021	-3.5083	-3.6	-3.0042	-3.7938	-3.2812	-3.1	-3.7542	-3.0333	-3.4854	-3.6375	-3.0563	146.765	305.640	201.975	422.574	420.798	131.268	358.310	144.717	124.299	98.650	163.205	304.202	165.449	137.452	263.209	352.798	4.4412e-05	6.4351e-05	4.4132e-05	75.408	1.2295e-06	1.1915e-06	122.06	15.726	3.6632e-07	8.6481e-07	35.636	7.2846	3.1209	0.60758	2.4376e-07	1.559	0.0001596	0.00038023	0.00010023	75.676	4.267e-06	4.4445e-06	121.03	16.026	2.73e-06	4.0756e-06	35.577	7.2048	3.1448	0.62787	3.194e-06	1.6096	372.297	264.531	183.428	102.505	262.291	207.263	97.773	105.267	368.845	300.522	102.436	105.830	109.561	113.932	300.582	109.495	-8191	255	
2386.405	1	1	0	0	0.15516	0.21914	0.22805	0.14623	0.29446	0.10504	0.23369	0.23133	0.29727	0.20756	0.21487	0.12457	0.072392	0.12908	0.063156	0.26454	-3.175	-3.2625	-3.1958	-3.8667	-3.0417	-3.3833	-3.4833	-2.9354	-3.7229	-3.3563	-3.0042	-3.7313	-3.0021	-3.3438	-3.6875	-2.9104	233.287	309.663	316.346	217.762	174.676	124.060	368.454	442.031	209.320	159.102	148.878	422.153	233.658	302.373	217.528	190.783	7.4083e-05	7.278e-05	7.1682e-06	73.72	3.7323e-07	3.24e-07	117.96	15.435	1.6767e-07	2.8944e-07	34.184	6.9179	3.0046	0.60204	1.571e-06	1.6012	0.00015461	0.00035413	0.00011351	74.209	4.078e-06	3.776e-06	118.79	15.39	2.7829e-06	3.7802e-06	34.283	6.9389	3.0958	0.6225	2.6764e-06	1.659	382.413	152.440	344.931	100.737	231.088	406.960	99.223	104.996	287.793	267.663	102.260	106.468	108.163	113.805	248.685	110.231	-8191	255	
2386.501	1	1	0	0	0.21401	0.0082112	0.066368	0.098875	0.10648	0.067732	0.2006	0.22389	0.21091	0.056463	0.16502	0.13326	0.18091	0.13626	0.18371	0.11063	-3.3292	-3.4188	-3.0021	-3.525	-3.2938	-3.175	-3.7271	-2.8354	-3.5583	-3.6813	-2.9292	-3.6875	-3.2167	-2.9667	-3.6458	-2.825	204.416	206.518	331.467	140.813	426.572	219.192	358.155	441.334	295.088	210.584	374.374	343.435	105.415	214.649	167.291	119.730	1.5959e-05	7.6218e-05	1.7357e-05	72.442	7.8593e-07	2.2597e-07	116.14	14.367	2.0529e-06	9.3026e-07	31.909	6.9278	3.0932	0.61179	6.9895e-07	1.7082	0.00014562	0.00033401	9.5909e-05	72.23	3.5701e-06	4.3627e-06	115.29	14.419	2.7254e-06	4.0848e-06	32.356	6.9429	3.1458	0.65284	3.1416e-06	1.7275	402.914	191.356	185.963	100.177	309.469	435.610	98.449	105.152	243.063	138.492	102.459	105.082	110.096	112.352	128.176	111.771	-8191	255	
2386.596	1	1	0	0	0.19968	0.12391	0.11976	0.14281	0.18688	0.072089	0.29232	0.10273	0.16121	0.085496	0.064903	0.13833	0.20471	0.10394	0.062727	0.12575	-3.1396	-3.4917	-2.9417	-3.6333	-2.9688	-3.1417	-3.8479	-3.0646	-3.3083	-3.625	-2.9479	-3.5729	-3.4062	-2.8875	-3.7313	-3.0979	235.259	179.671	385.597	244.033	312.002	228.478	388.875	126.349	426.552	387.568	135.988	240.567	273.583	313.114	427.185	228.149	9.0871e-05	4.5961e-05	3.1642e-05	70.232	7.9199e-07	5.6193e-07	106.47	13.583	9.8823e-07	8.3956e-07	30.772	7.1129	3.255	0.71441	4.1575e-07	1.807	0.0001641	0.00038854	0.00011783	70.874	4.6095e-06	5.7156e-06	105.48	13.817	3.9785e-06	5.7254e-06	30.825	7.1245	3.3335	0.75346	5.3166e-06	1.8669	399.927	254.302	380.909	101.745	133.543	187.571	98.391	105.551	170.134	270.429	101.633	107.697	107.300	110.361	206.596	109.987	-8191	255	
2386.694	1	1	0	0	0.086999	0.18933	0.16757	0.16503	0.052318	0.17328	0.35526	0.14319	0.096567	0.11433	0.19946	0.13953	0.11423	0.15826	0.20842	0.24845	-2.9458	-3.6937	-2.9521	-3.5687	-3.4313	-2.9146	-3.8063	-3.0021	-3.2667	-3.6875	-2.975	-3.3833	-3.5104	-2.8896	-3.7438	-3.3146	287.984	387.172	134.491	375.818	229.741	135.867	391.102	243.141	306.527	145.603	201.762	420.071	381.981	327.184	440.130	221.441	6.4624e-05	5.8451e-05	1.0356e-05	59.431	1.2746e-06	5.9826e-07	91.616	13.091	1.7539e-06	1.3672e-06	29.79	7.0511	3.3211	0.94689	7.2943e-07	2.4689	0.00029163	0.00076717	0.00027506	62.374	1.1028e-05	1.5451e-05	90.894	13.596	1.3015e-05	2.1184e-05	30.827	7.335	3.7597	1.0987	2.7728e-05	2.7769	419.010	263.630	377.578	101.476	441.519	343.948	98.605	106.203	298.849	438.670	102.152	106.349	108.437	111.095	373.811	106.968	-8191	255	
2386.812	1	1	0	0	0.064565	0.2366	0.041886	0.30462	0.15093	0.1269	0.15654	0.22941	0.18798	0.13197	0.12952	0.22563	0.13231	0.20944	0.066926	0.094976	-2.8292	-3.675	-3.0292	-3.3333	-3.6083	-2.9771	-3.7313	-3.1958	-3.1458	-3.8021	-2.9417	-3.4646	-3.6146	-2.85	-3.7313	-3.1437	239.391	181.910	129.189	444.478	336.787	330.585	256.553	418.479	135.857	398.893	278.304	140.707	380.803	161.257	179.409	357.221	0.00017231	0.0002484	4.5309e-05	61.906	1.8395e-06	2.8573e-06	105.75	18.313	4.2865e-06	2.3534e-06	37.044	11.13	5.3757	1.4633	4.234e-07	4.0156	0.001327	0.0042655	0.001394	75.945	5.6017e-05	7.2797e-05	112.99	20.484	5.9249e-05	9.699e-05	41.504	12.281	7.5712	1.989	9.1799e-05	4.7243	387.630	260.427	436.706	99.627	360.679	213.608	97.904	104.763	336.436	272.544	100.548	104.441	107.713	109.125	422.431	106.907	-8191	255	
2386.909	1	1	0	0	0.27526	0.15702	0.050525	0.1241	0.090665	0.13704	0.13693	0.19476	0.13217	0.090751	0.024713	0.20774	0.1634	0.16596	0.13645	0.03627	-2.9208	-3.5958	-3.0896	-3.4271	-3.6813	-2.7979	-3.6604	-3.3438	-3.0729	-3.7896	-3.2667	-3.3771	-3.6854	-2.8812	-3.4833	-3.4354	135.212	134.228	396.784	250.289	396.566	89.417	356.463	228.208	357.181	356.112	271.218	413.284	224.987	266.693	221.432	429.952	0.00024498	0.00015003	9.8334e-05	72.539	7.0118e-06	4.5004e-06	121.23	24.043	1.1545e-06	2.9518e-06	44.768	13.95	6.9583	1.6725	7.4697e-06	4.3151	0.0036302	0.011187	0.0035016	104.28	0.00012534	0.00015718	134.7	27.993	0.00010544	0.00017022	51.943	16.004	10.022	2.4553	0.00012451	5.345	399.889	405.398	222.873	98.759	203.057	345.384	98.381	104.212	140.941	253.865	101.111	104.709	105.128	109.907	295.863	106.403	-8191	255	
2386.980	1	1	0	0	0.028932	0.073722	0.072451	0.070468	0.17867	0.082331	0.33546	0.15726	0.24193	0.26594	0.089651	0.23408	0.1449	0.10295	0.25264	0.16336	-2.6667	-3.5875	-3.0312	-3.2146	-3.6813	-2.9521	-3.6292	-3.6021	-2.85	-3.6937	-3.3958	-3.1188	-3.7333	-2.9917	-3.5812	-3.5271	389.131	196.738	135.353	254.788	253.203	230.711	376.066	239.563	263.233	261.872	285.544	402.844	406.574	422.617	295.243	89.327	0.00011435	0.00051118	5.027e-05	74.939	1.1611e-06	1.4839e-06	122.24	23.821	1.0272e-05	5.8411e-06	45.47	14.71	7.1889	1.6791	4.4284e-06	4.1164	0.0047185	0.013898	0.0042408	110.86	0.0001416	0.0001728	136.69	28.519	0.00011116	0.00017799	53.136	16.747	10.287	2.4049	0.0001196	5.0639	379.892	300.744	172.722	99.990	333.689	211.470	98.757	104.431	281.795	266.058	101.481	103.498	108.415	110.076	189.097	106.368	-8191	255	
2387.101	1	1	0	0	0.094497	0.091875	0.15864	0.18106	0.064041	0.13398	0.062176	0.034705	0.12529	0.14531	0.045918	0.054394	0.076115	0.067055	0.28714	0.08964	-2.7188	-3.7271	-3.1208	-3.0792	-3.8333	-3.0042	-3.3812	-3.5104	-2.9396	-3.7792	-3.3792	-3.0687	-3.725	-2.8625	-3.2438	-3.6104	211.600	436.851	407.441	321.399	347.368	114.062	157.924	351.127	426.665	251.916	122.795	263.911	220.076	114.349	206.589	89.095	1.4823e-05	0.00028085	8.8522e-05	70.186	1.0313e-06	4.2783e-06	117.58	22.455	5.3774e-06	4.1014e-06	42.2	13.059	6.3383	1.4184	2.6292e-06	3.5583	0.0041401	0.012116	0.003525	98.241	0.00011627	0.00013685	129.14	25.785	8.1904e-05	0.00012893	47.052	14.303	8.5351	1.958	8.4836e-05	4.2088	419.290	415.599	150.885	99.030	380.750	126.560	98.571	105.204	120.461	233.912	102.010	105.555	107.244	111.362	163.619	108.131	-8191	255	
2387.197	1	1	0	0	0.15847	0.12726	0.35352	0.088844	0.10122	0.12239	0.086735	0.058595	0.04548	0.070997	0.11251	0.13352	0.13041	0.19947	0.091717	0.11816	-2.3708	-3.5104	-3.2625	-2.9104	-3.875	-3.2333	-3.1875	-3.5354	-2.9062	-3.4938	-3.4708	-3.0271	-3.6667	-3.1458	-3.2708	-3.7354	408.635	284.565	403.927	416.434	281.388	423.664	269.081	434.785	282.591	307.859	286.237	183.592	136.087	379.594	141.570	169.991	0.00024224	0.00010882	8.3194e-05	57.734	2.9619e-06	2.0923e-06	112.88	20.04	2.9622e-06	1.0829e-06	40.376	11.899	6.0638	1.4059	4.5323e-06	3.3772	0.002975	0.0085056	0.0024894	79.922	8.2135e-05	9.4562e-05	119.96	22.244	5.8312e-05	9.1842e-05	43.785	13.097	7.7209	1.7789	6.4298e-05	3.8727	405.316	369.687	155.091	102.535	133.306	213.552	99.296	104.809	121.531	278.187	102.286	105.161	109.024	111.240	161.085	108.614	-8191	255	
2387.293	1	1	0	0	0.15245	0.076674	0.21041	0.093978	0.10108	0.17109	0.21918	0.35077	0.15513	0.024555	0.23251	0.16516	0.17345	0.18049	0.020994	0.086741	-2.5417	-3.7313	-3.6458	-2.9333	-3.7646	-3.3438	-3.1562	-3.5854	-3.025	-3.5187	-3.55	-2.8792	-3.7292	-3.3021	-3.1312	-3.8521	434.930	352.168	143.749	329.129	387.298	122.243	206.380	168.091	169.809	158.092	157.569	220.365	311.449	316.086	177.500	343.825	2.3766e-05	0.000252	4.6675e-05	56.646	2.7038e-06	3.6207e-06	113.89	17.771	1.7345e-06	2.658e-06	39.501	12.176	6.4338	1.4834	2.2228e-06	3.4862	0.0022562	0.006455	0.001921	72.711	6.2739e-05	7.5645e-05	119.77	19.574	4.6946e-05	7.5342e-05	42.932	13.15	7.7184	1.7571	5.273e-05	3.9603	342.692	195.334	176.233	102.369	165.118	132.895	98.566	106.359	401.502	259.627	102.022	105.664	108.088	111.315	265.422	109.069	-8191	255	
2387.414	1	1	0	0	0.080843	0.24793	0.069528	0.11756	0.12907	0.095407	0.034846	0.24831	0.056235	0.084917	0.11082	0.33339	0.069985	0.18437	0.062065	0.27118	-2.7583	-3.4167	-3.7271	-2.9875	-3.5396	-3.3021	-2.9708	-3.8104	-3.1271	-3.5146	-3.5062	-2.9729	-3.7646	-3.475	-3.1104	-3.7354	289.110	236.253	301.940	386.737	322.116	181.310	94.204	112.156	436.149	412.538	370.144	360.616	395.676	437.694	119.873	90.759	0.00010666	4.601e-05	1.3689e-05	60.719	1.7554e-06	1.6373e-06	116.89	16.18	6.1324e-06	1.4327e-06	38.961	12.488	6.491	1.4228	8.9977e-07	3.4363	0.0019097	0.0055877	0.0016698	74.579	5.404e-05	6.6955e-05	123.17	17.787	4.0496e-05	6.2845e-05	41.538	13.232	7.715	1.6909	4.3615e-05	3.7337	429.340	420.351	342.281	102.877	401.217	95.247	98.857	106.135	105.071	212.145	102.140	105.860	108.639	112.613	410.038	107.905	-8191	255	
2387.510	1	1	0	0	0.014901	0.21039	0.068989	0.060657	0.11436	0.12602	0.24453	0.10978	0.27788	0.10355	0.063835	0.16398	0.12735	0.22583	0.22591	0.18478	-2.8542	-3.2771	-3.8271	-3.0208	-3.7792	-3.4875	-2.8083	-3.7979	-3.1562	-3.2792	-3.7833	-2.9271	-3.4583	-3.3542	-2.9813	-3.65	100.047	255.977	119.278	115.356	129.436	407.592	231.307	438.803	158.984	127.273	94.836	230.751	340.868	373.758	176.175	263.641	9.3897e-05	0.00013634	3.1673e-05	58.887	4.09e-06	2.9812e-06	117.03	15.528	2.0851e-06	2.0976e-06	37.865	12.726	6.5004	1.4648	5.3146e-07	3.4045	0.0015687	0.0045773	0.0013334	71.039	4.4013e-05	5.2242e-05	120.24	16.897	3.383e-05	5.3761e-05	40.502	13.27	7.588	1.6763	3.6915e-05	3.6982	355.820	387.025	375.267	101.144	258.463	116.581	98.161	106.576	237.483	318.978	102.088	105.930	108.161	110.921	138.716	108.721	-8191	255	
2387.582	1	1	0	0	0.24948	0.15464	0.15541	0.053737	0.051688	0.098314	0.35628	0.25989	0.10713	0.11816	0.17242	0.11836	0.070972	0.14746	0.030944	0.19994	-2.7896	-3.1479	-3.7062	-3.0229	-3.5167	-3.5396	-2.9729	-3.8354	-3.2625	-3.1146	-3.8104	-3.0708	-3.3521	-3.6417	-3.0667	-3.7854	135.142	146.004	245.106	256.006	104.443	266.123	339.043	357.168	170.525	118.606	251.959	364.122	317.469	273.659	121.738	279.988	0.00014343	0.0002039	4.8537e-05	58.653	4.5122e-06	4.6903e-07	113.69	14.672	3.2287e-06	1.4684e-06	36.784	11.992	6.4959	1.412	1.5887e-06	3.1589	0.0012867	0.0036702	0.0010532	66.967	3.3036e-05	3.8601e-05	116.97	15.688	2.1541e-05	3.4348e-05	38.049	12.416	6.9119	1.5356	2.2605e-05	3.3575	389.319	90.728	156.113	100.420	187.227	245.640	98.774	107.211	154.745	372.720	101.980	106.190	109.287	111.709	266.864	109.230	-8191	255	
2387.701	1	1	0	0	0.12163	0.30759	0.19167	0.26156	0.31148	0.064731	0.16613	0.16319	0.18849	0.078987	0.086605	0.084037	0.057016	0.12568	0.15226	0.14312	-3.0458	-3.0542	-3.725	-2.9583	-3.2125	-3.8167	-2.9625	-3.675	-3.2604	-3.0271	-3.775	-3.1688	-3.1771	-3.6312	-2.925	-3.5354	335.967	105.046	256.807	294.505	278.046	147.540	300.841	440.542	97.273	274.990	153.907	278.280	369.429	297.818	363.146	265.846	0.00015059	0.00016196	3.1591e-05	57.187	1.525e-06	2.6081e-06	111.3	14.401	1.694e-06	2.6406e-06	36.44	11.551	6.2753	1.3678	4.5802e-07	3.0722	0.00087067	0.0024041	0.0007146	63.197	2.3251e-05	2.5229e-05	113.56	14.925	1.5502e-05	2.4045e-05	37.414	11.938	6.5593	1.449	1.6471e-05	3.2057	381.860	163.838	343.552	99.853	409.387	293.156	98.141	106.856	169.009	333.963	102.096	105.337	108.390	111.612	294.284	109.197	-8191	255	
2387.797	1	1	0	0	0.13015	0.25077	0.10571	0.19869	0.15466	0.088516	0.15315	0.15919	0.07079	0.040965	0.17441	0.075449	0.049962	0.094405	0.23741	0.18103	-3.1229	-2.7208	-3.7687	-3.0396	-3.2062	-3.7604	-2.8875	-3.6	-3.5104	-3.1	-3.7438	-3.3229	-3.0854	-3.6854	-3.0792	-3.3604	250.140	300.949	256.177	183.450	211.855	158.429	248.988	305.142	299.037	117.841	335.280	328.996	251.220	299.813	137.983	296.838	9.5199e-05	0.00011883	1.51e-05	55.126	1.6848e-06	4.2414e-07	111.12	14.111	3.821e-06	1.3477e-06	36.793	11.672	6.1516	1.3012	8.4314e-07	2.9217	0.00061562	0.0017962	0.00051719	59.943	1.8408e-05	2.0697e-05	111.75	14.576	1.3136e-05	2.278e-05	36.967	11.786	6.5117	1.3989	1.4709e-05	3.0567	359.517	108.042	361.721	98.923	294.113	107.857	98.055	106.503	200.686	240.120	101.219	106.366	107.452	111.861	441.130	108.144	-8191	255	
2387.893	1	1	0	0	0.31344	0.1231	0.23602	0.14918	0.31349	0.21479	0.23263	0.42934	0.10194	0.058942	0.23728	0.19082	0.055722	0.069202	0.19116	0.20407	-3.1333	-2.8417	-3.6854	-3.1333	-2.9917	-3.875	-3.1479	-3.3729	-3.6937	-2.9771	-3.5167	-3.1667	-3.1458	-3.7021	-2.9938	-3.2167	164.580	193.342	320.341	190.421	325.786	219.711	124.344	341.362	442.992	272.087	301.745	174.275	199.510	250.659	447.657	298.993	0.00018096	5.6457e-05	2.2755e-05	53.985	2.0033e-06	5.8622e-07	106.75	13.692	1.0198e-06	1.1143e-06	33.951	11.153	5.9187	1.2646	4.3806e-07	2.8005	0.00057773	0.0015403	0.00041862	57.403	1.4643e-05	1.7303e-05	107.63	13.994	1.0849e-05	1.631e-05	35.113	11.215	6.1738	1.3199	1.2299e-05	2.913	384.325	252.383	102.832	101.357	225.067	180.432	98.489	105.860	274.706	294.289	101.774	106.895	110.639	110.706	174.609	108.781	-8191	255	
2387.989	1	1	0	0	0.18647	0.25953	0.14109	0.11882	0.19814	0.088613	0.21862	0.1147	0.22808	0.17796	0.04586	0.084597	0.19784	0.16427	0.13679	0.19983	-3.3333	-3.0604	-3.6646	-3.325	-2.8875	-3.7396	-3.1625	-3.2125	-3.7687	-2.9437	-3.6396	-3.6521	-2.9479	-3.7687	-3.1521	-3.0896	230.028	274.304	374.526	184.176	115.816	262.449	153.786	149.316	385.100	398.226	425.962	263.611	428.324	197.814	99.729	355.520	9.7495e-05	2.4942e-05	3.1778e-05	51.912	1.5442e-06	4.3064e-07	105.45	13.31	1.5476e-06	4.7301e-07	34.739	10.892	5.6416	1.2209	1.4078e-06	2.7095	0.00041592	0.0011977	0.00033376	55.237	1.0881e-05	1.2231e-05	105.32	13.721	7.6515e-06	1.1746e-05	34.744	11.045	5.9222	1.2716	7.0252e-06	2.8375	384.645	201.787	240.576	99.999	132.858	253.308	98.375	106.528	263.556	217.121	101.263	106.166	108.650	112.711	298.093	109.367	-8191	255	
2388.110	1	1	0	0	0.26289	0.091417	0.26043	0.076071	0.053782	0.1465	0.2867	0.36521	0.1143	0.27812	0.037032	0.10105	0.099389	0.10183	0.20859	0.20366	-3.4729	-3.0625	-3.6354	-3.4688	-3.1188	-3.7313	-3.1229	-3.1208	-3.8125	-3.0563	-3.5104	-3.5354	-3.1104	-3.7979	-3.2188	-3.0354	343.187	105.427	327.147	210.560	352.875	341.052	163.089	358.703	278.549	263.712	285.658	395.283	254.192	358.579	373.012	348.676	0.0001167	8.5106e-05	5.1131e-06	51.69	4.9844e-07	1.2534e-06	103.12	12.456	1.0294e-06	7.6697e-07	33.968	10.572	5.6765	1.1828	9.6553e-07	2.6507	0.00026855	0.00068713	0.00017444	51.85	5.8733e-06	6.0889e-06	103.28	12.682	3.31e-06	4.9143e-06	34.048	10.733	5.7136	1.2196	3.0031e-06	2.7366	366.907	260.532	417.938	100.013	376.422	204.271	98.295	105.914	367.133	102.896	102.481	105.615	108.423	111.425	198.527	109.456	-8191	255	
2388.206	1	1	0	0	0.1573	0.30807	0.12034	0.11708	0.031761	0.026195	0.12326	0.14071	0.1056	0.23269	0.15934	0.019176	0.080847	0.20905	0.087139	0.20563	-3.4875	-3.0396	-3.4854	-3.6729	-2.9521	-3.5792	-3.3729	-3.0687	-3.8542	-3.0958	-3.3229	-3.8604	-2.9062	-3.5854	-3.5375	-2.9313	235.659	216.452	127.621	331.106	404.730	102.317	172.916	212.513	372.979	211.011	353.466	211.954	339.907	211.349	302.380	411.961	0.00011596	6.8456e-05	3.1312e-05	48.486	5.9722e-07	9.0581e-07	102.24	12.226	4.198e-07	5.0606e-07	33.477	10.695	5.579	1.2026	3.413e-07	2.6461	0.00013584	0.00034393	8.2937e-05	49.195	3.6173e-06	3.3031e-06	101.8	12.208	1.9479e-06	3.8793e-06	33.417	10.697	5.6351	1.216	2.1764e-06	2.7035	394.446	244.678	314.720	100.027	225.478	267.258	99.053	107.810	107.164	262.425	101.947	106.433	108.918	112.070	200.310	109.351	-8191	255	
2388.277	1	1	0	0	0.049014	0.14449	0.20715	0.18866	0.26027	0.17611	0.1541	0.051222	0.10393	0.16785	0.1138	0.15548	0.10333	0.17711	0.11491	0.088822	-3.5146	-3.2125	-3.3125	-3.7354	-2.8833	-3.5062	-3.4271	-2.8104	-3.7812	-3.1708	-3.1146	-3.8417	-2.975	-3.4917	-3.7083	-2.9354	312.954	251.221	435.260	168.844	139.014	379.018	202.620	439.866	372.792	91.450	293.360	260.512	166.702	340.628	400.850	282.132	0.00010925	1.8096e-05	1.7188e-05	47.176	9.777e-07	6.6564e-07	101.77	11.998	1.568e-06	8.2161e-07	33.015	10.5	5.5975	1.1919	7.2996e-07	2.6247	0.00010679	0.00022773	8.4728e-05	48.675	2.7816e-06	2.5458e-06	101.66	12.025	1.3242e-06	3.2939e-06	33.203	10.509	5.6361	1.2053	1.7838e-06	2.6652	388.362	210.144	224.021	100.537	213.201	197.733	98.673	105.899	382.875	243.377	102.919	107.463	109.181	112.463	223.464	109.316	-8191	255	
2388.374	1	1	0	0	0.39011	0.23086	0.26765	0.19554	0.26769	0.15448	0.18672	0.10128	0.24307	0.088509	0.30796	0.10886	0.21987	0.13368	0.071158	0.13484	-3.4313	-3.1979	-3.2	-3.6917	-3	-3.4	-3.5521	-2.975	-3.6896	-3.2292	-2.9271	-3.8417	-3.0125	-3.3167	-3.7917	-2.9667	183.711	167.550	435.741	417.523	223.840	256.266	419.497	386.090	127.754	265.266	428.789	391.454	341.135	441.364	379.988	225.378	7.7583e-05	5.0407e-05	1.9634e-05	50.115	2.6465e-07	8.8368e-07	102.94	11.963	9.2238e-07	2.5147e-07	33.494	10.716	5.6021	1.1662	5.14e-07	2.6083	9.2514e-05	0.00022263	6.9486e-05	49.534	2.4066e-06	2.3698e-06	103.73	12.041	1.4001e-06	2.8865e-06	33.179	10.604	5.7052	1.1975	2.0473e-06	2.6243	399.054	239.397	223.340	101.330	105.751	196.152	98.532	107.634	298.553	135.620	102.677	107.579	109.854	112.285	232.178	110.233	-8191	255	
2388.494	1	1	0	0	0.28713	0.13945	0.072955	0.040707	0.24333	0.029729	0.26575	0.24731	0.25896	0.28216	0.073872	0.16795	0.073116	0.19169	0.26017	0.098535	-3.3229	-3.2792	-3.0125	-3.775	-3.1042	-3.3896	-3.6896	-3.0542	-3.4646	-3.5125	-2.9354	-3.8292	-3.1375	-3.2792	-3.7771	-2.9896	359.518	152.339	239.350	105.278	221.184	320.518	404.194	176.281	331.294	341.345	266.498	209.987	205.949	274.247	145.507	434.807	8.1549e-05	4.4396e-05	1.8748e-05	51.648	1.1146e-06	8.8595e-07	109.9	12.73	9.5171e-07	9.8348e-07	34.301	10.631	5.8634	1.1769	5.462e-07	2.5039	0.00010479	0.00022263	8.3724e-05	52.268	2.4243e-06	3.248e-06	109.7	12.826	1.9892e-06	2.6975e-06	34.58	10.643	5.9289	1.1979	1.839e-06	2.5462	405.916	188.594	238.203	99.936	355.208	179.295	98.966	107.922	305.699	242.263	103.051	106.892	109.761	113.273	376.712	109.549	-8191	255	
2388.589	1	1	0	0	0.05443	0.13766	0.24047	0.25452	0.11398	0.17093	0.092451	0.067612	0.066306	0.24118	0.092555	0.14526	0.023717	0.17706	0.08439	0.06017	-3.1688	-3.5896	-2.8688	-3.8229	-3.1479	-3.1312	-3.7938	-2.8271	-3.5375	-3.5792	-2.9771	-3.8021	-3.2438	-3.2167	-3.7292	-3.0938	365.410	357.400	314.646	147.755	296.754	149.625	129.063	405.276	299.222	421.625	263.724	93.045	317.174	136.014	298.361	364.493	7.6675e-05	4.0552e-05	1.7035e-05	56.873	8.6442e-07	9.3303e-07	117.54	13.637	7.5812e-07	1.4952e-06	35.642	10.485	5.8783	1.1357	1.5649e-07	2.3484	0.00012816	0.00022379	8.2632e-05	56.273	2.9367e-06	3.44e-06	117.12	13.587	1.9054e-06	2.9728e-06	35.556	10.45	5.9253	1.1557	2.1965e-06	2.4505	395.220	112.693	358.920	100.118	209.750	137.889	98.529	107.844	158.761	259.743	103.411	106.944	107.621	113.243	337.704	109.126	-8191	255	
2388.685	1	1	0	0	0.39908	0.18337	0.15643	0.067913	0.027054	0.1384	0.085399	0.12922	0.06145	0.057354	0.20595	0.15193	0.029315	0.27023	0.028828	0.009818	-2.975	-3.5146	-2.7604	-3.6771	-3.3708	-2.9104	-3.6813	-3.05	-3.5125	-3.7146	-3.1437	-3.7687	-3.3812	-3.1021	-3.8375	-3.0146	322.165	384.340	338.541	127.179	210.865	366.221	144.726	145.057	107.865	307.957	242.602	401.956	298.016	278.778	441.926	347.347	7.828e-05	6.073e-05	1.2714e-05	61.714	1.1007e-06	2.2784e-07	131.18	14.627	8.1695e-07	3.9218e-07	36.416	10.644	5.9554	1.1318	8.4106e-07	2.3874	0.000131	0.00023692	8.9052e-05	61.91	2.9352e-06	3.7547e-06	131.22	14.923	2.614e-06	3.4315e-06	37.108	10.546	6.032	1.153	2.6832e-06	2.4132	375.551	115.291	354.869	101.014	254.991	438.050	98.779	106.687	165.028	212.838	102.716	106.814	110.308	113.400	279.938	109.277	-8191	255	
2388.783	1	1	0	0	0.03422	0.32927	0.14095	0.14438	0.21716	0.21517	0.079121	0.18113	0.049129	0.048432	0.030733	0.12213	0.21795	0.092371	0.096799	0.10057	-2.875	-3.7625	-3.0354	-3.6042	-3.4354	-2.9562	-3.6312	-3.1917	-3.2021	-3.7687	-2.9104	-3.5833	-3.5104	-2.9938	-3.6167	-3.0229	123.375	414.811	103.436	273.182	172.063	325.714	402.484	280.734	195.837	422.723	420.619	243.642	436.934	173.347	117.100	337.323	6.1641e-05	7.3252e-05	4.2294e-05	70.232	1.0806e-06	7.2415e-08	145.66	15.35	9.6408e-07	1.6774e-07	36.704	10.528	5.9724	1.1433	1.1686e-06	2.3506	0.0001353	0.0002582	9.8267e-05	69.75	3.5095e-06	4.2276e-06	143.74	15.553	2.9632e-06	2.7764e-06	37.211	10.523	5.9665	1.1425	2.378e-06	2.3907	395.270	274.784	234.280	100.766	240.819	248.739	98.734	106.720	148.249	145.587	102.822	106.976	108.775	113.142	304.098	110.250	-8191	255	
2388.877	1	1	0	0	0.043315	0.18021	0.1968	0.26827	0.10567	0.11754	0.25167	0.062358	0.19221	0.090309	0.1668	0.16879	0.13198	0.2226	0.010179	0.11533	-2.8354	-3.8417	-2.8937	-3.4938	-3.6833	-2.8729	-3.6021	-3.3854	-3.1437	-3.6583	-3.0875	-3.4229	-3.5104	-2.9813	-3.7583	-3.2167	204.615	126.021	398.941	329.736	246.466	201.576	166.215	179.475	94.423	373.765	305.749	133.827	323.328	275.870	163.016	405.885	8.6559e-05	3.3964e-06	2.0104e-05	70.963	6.5544e-07	1.998e-07	146.71	15.321	1.737e-06	1.1437e-06	36.889	10.584	5.9631	1.1455	9.0875e-07	2.4074	0.00014014	0.0002512	8.8266e-05	71.517	2.5868e-06	3.9734e-06	146.99	15.524	2.5497e-06	3.2223e-06	37.113	10.515	5.9846	1.1518	2.4614e-06	2.403	393.888	373.459	172.548	100.539	306.273	383.352	98.793	105.703	273.329	262.975	101.018	107.681	109.692	111.724	265.113	110.125	-8191	255	
2388.973	1	1	0	0	0.18621	0.25246	0.23253	0.11532	0.15864	0.05773	0.10817	0.10588	0.18491	0.12933	0.21466	0.14743	0.24275	0.12704	0.18174	0.15596	-2.6792	-3.7812	-3.125	-3.2833	-3.65	-2.9375	-3.7396	-3.4958	-3.0438	-3.9062	-3.2229	-3.3417	-3.725	-3.0563	-3.6708	-3.2708	418.294	223.328	245.230	179.220	366.908	177.800	127.350	272.032	238.285	391.558	107.292	397.420	181.894	145.203	345.690	286.149	6.9826e-05	0.00012563	5.1665e-06	71.642	7.1649e-07	3.6138e-07	146.77	15.414	2.2365e-07	1.9336e-07	36.55	10.321	5.8087	1.0901	9.5423e-07	2.3728	0.0001442	0.00025514	9.735e-05	71.251	2.4465e-06	3.7742e-06	146.37	15.412	2.4418e-06	3.0902e-06	36.169	10.356	5.8943	1.1373	2.7181e-06	2.4042	371.547	239.036	189.599	100.331	224.616	294.519	98.632	106.340	271.916	145.228	101.906	107.118	108.824	112.957	196.089	109.751	-8191	255	
2389.094	1	1	0	0	0.10831	0.23487	0.16391	0.15973	0.12757	0.19312	0.094258	0.05503	0.17678	0.099979	0.044694	0.17294	0.18536	0.058376	0.080644	0.17032	-2.5979	-3.8896	-3.1583	-3.2313	-3.8333	-2.7438	-3.6021	-3.5146	-2.9646	-3.85	-3.1771	-3.1292	-3.7458	-2.9313	-3.5417	-3.4396	170.057	250.189	367.031	287.372	109.442	194.621	117.449	385.553	142.098	295.130	418.275	431.427	423.630	120.259	402.198	263.728	6.309e-05	2.7423e-05	2.0206e-05	70.133	7.518e-07	3.8488e-07	145.93	15.211	8.9342e-07	1.0808e-06	36.376	10.29	5.9766	1.0666	8.5282e-07	2.2719	0.0001331	0.00025354	8.9401e-05	70.632	2.3505e-06	3.7334e-06	145.29	15.314	2.6588e-06	3.2077e-06	36.12	10.314	5.9429	1.1024	2.1952e-06	2.3185	384.890	393.918	447.574	100.878	213.514	197.644	98.389	105.899	249.813	189.118	102.293	106.376	108.435	112.318	299.020	107.824	-8191	255	
2389.190	1	1	0	0	0.037804	0.11013	0.14448	0.041258	0.22205	0.24028	0.15822	0.26079	0.1408	0.020012	0.10279	0.23485	0.079911	0.19447	0.16918	0.13917	-2.6646	-3.7875	-3.4208	-3.0687	-3.8646	-3.0875	-3.4458	-3.7125	-3	-3.7917	-3.4833	-3.1417	-3.8438	-3.0792	-3.2729	-3.6625	399.978	436.578	202.876	164.742	171.126	445.826	388.066	212.311	419.194	161.980	234.118	288.988	323.028	142.963	99.357	334.346	8.1007e-05	5.0098e-05	8.333e-06	70.45	7.6282e-07	6.9728e-07	148.27	15.051	8.4756e-07	7.7044e-07	36.061	10.601	5.9172	1.0687	1.5159e-06	2.2987	0.00013774	0.00026418	7.3591e-05	71.57	2.29e-06	3.6622e-06	146.45	15.078	2.3338e-06	3.2554e-06	36.287	10.599	5.9722	1.0957	2.5729e-06	2.3339	405.985	123.668	436.104	100.360	213.103	292.077	98.252	106.252	205.179	283.204	101.727	106.553	108.414	112.506	237.169	109.314	-8191	255	
2389.286	1	1	0	0	0.16474	0.30083	0.099818	0.27221	0.27203	0.14682	0.13201	0.20138	0.19497	0.13418	0.15251	0.18311	0.17198	0.13935	0.26305	0.35628	-2.6083	-3.6125	-3.4521	-3.0958	-3.7479	-3.2396	-3.225	-3.8146	-2.8563	-3.5271	-3.4688	-2.9896	-3.7062	-3.0042	-3.2687	-3.7938	173.082	266.661	183.582	374.957	99.635	189.202	407.598	366.148	275.059	272.196	433.015	264.613	390.962	185.037	349.301	421.737	7.1693e-05	4.4175e-05	2.5384e-05	72.473	1.0174e-06	1.1217e-06	149.49	14.894	2.2547e-06	2.8108e-07	37.693	10.657	6.0098	1.1015	8.7179e-07	2.2382	0.0001352	0.00027672	7.9968e-05	72.449	2.5233e-06	3.4062e-06	147.87	15.101	2.2167e-06	2.5012e-06	37.534	10.745	6.0177	1.1021	2.5084e-06	2.3259	366.761	317.931	256.464	99.546	166.975	180.346	98.636	105.699	240.367	264.227	102.088	105.995	108.691	113.231	245.108	108.338	-8191	255	
2389.382	1	1	0	0	0.16736	0.1799	0.21251	0.20107	0.17076	0.077633	0.15977	0.09376	0.15325	0.081456	0.17312	0.15833	0.030216	0.24865	0.33004	0.39621	-2.7771	-3.5271	-3.5521	-2.8812	-3.8438	-3.2083	-2.9604	-3.6396	-3.0354	-3.4917	-3.6021	-2.9292	-3.7479	-3.1667	-3.1125	-3.8438	196.322	112.863	431.535	225.238	316.486	254.230	323.939	260.223	332.952	125.166	408.806	217.539	384.565	360.265	225.713	283.104	9.3678e-05	0.00010324	2.739e-05	71.618	2.1142e-07	5.8765e-07	145.29	15.158	1.7428e-06	6.0663e-07	38.483	10.649	6.1986	1.0448	1.126e-06	2.266	0.00012801	0.00022059	6.9617e-05	72.992	2.0611e-06	3.168e-06	144.82	15.382	2.142e-06	2.6351e-06	38.506	10.655	6.0127	1.0661	2.3269e-06	2.3008	397.137	232.271	140.240	100.649	142.515	221.587	98.332	106.647	204.706	142.812	102.187	105.677	108.967	111.946	285.875	109.172	-8191	255	
2389.503	1	1	0	0	0.13556	0.1135	0.17344	0.096935	0.1188	0.090447	0.07603	0.16814	0.098884	0.16104	0.10974	0.27931	0.12263	0.13993	0.21339	0.126	-2.6312	-3.375	-3.5875	-2.7646	-3.7542	-3.2521	-3.225	-3.8375	-3.0687	-3.2667	-3.5	-2.9333	-3.5854	-3.3625	-3.1042	-3.9792	252.513	292.424	421.069	109.528	227.022	354.639	334.260	429.142	120.190	250.248	118.240	334.478	250.763	201.142	183.805	359.948	6.0074e-05	5.8238e-05	8.7976e-06	74.054	1.8578e-07	1.5123e-06	142.81	16.002	6.7804e-07	4.7224e-07	39.115	10.657	5.949	1.0473	7.1454e-07	2.3006	0.00012669	0.0002426	5.9965e-05	73.761	2.2575e-06	3.6765e-06	142.28	15.806	2.1248e-06	2.9856e-06	38.72	10.609	5.9699	1.0716	2.1051e-06	2.3444	396.672	143.324	406.579	100.234	211.595	181.882	97.763	106.563	274.827	186.475	102.283	106.463	109.259	112.494	247.250	109.406	-8191	255	
2389.575	1	1	0	0	0.11682	0.047016	0.051227	0.061201	0.2995	0.091468	0.030907	0.192	0.067663	0.10877	0.10502	0.08025	0.15	0.029677	0.2904	0.021997	-2.8312	-3.0125	-3.7396	-2.9062	-3.5417	-3.3583	-3.0292	-3.7521	-3.1708	-3.1396	-3.9042	-3.0167	-3.5438	-3.45	-3.0167	-3.6937	444.741	358.367	299.726	250.473	303.440	305.569	339.633	114.505	356.935	166.317	226.845	283.507	384.707	347.424	315.528	329.447	0.000104	4.92e-05	1.7831e-05	75.332	7.0334e-07	1.5934e-06	146	16.3	1.4123e-06	5.3154e-07	40.158	10.976	5.9647	1.0925	1.4683e-06	2.3593	0.00012229	0.00024741	5.4156e-05	76.041	2.1202e-06	2.832e-06	145.32	16.291	1.964e-06	3.4609e-06	39.988	10.989	6.0932	1.101	2.5151e-06	2.4198	389.337	217.320	181.732	99.609	246.090	210.913	97.942	106.200	325.226	201.471	101.734	105.411	109.498	111.595	213.827	108.803	-8191	255	
2389.671	1	1	0	0	0.15743	0.3125	0.026176	0.10563	0.061213	0.28255	0.13825	0.091383	0.09505	0.27916	0.13878	0.06261	0.16088	0.19962	0.10722	0.20845	-2.9583	-3.1	-3.6396	-2.8771	-3.3625	-3.475	-3.0521	-3.6771	-3.3292	-3.1146	-3.7708	-3.0146	-3.4229	-3.6604	-2.9021	-3.7271	434.472	170.817	150.620	272.461	132.236	349.745	304.366	237.576	206.173	122.896	240.777	230.142	157.903	141.919	437.832	105.863	7.4188e-05	2.3107e-05	2.7371e-05	74.462	1.0683e-06	3.488e-07	148.83	16.599	6.9401e-07	6.831e-07	39.727	11.187	6.1602	1.0822	5.6553e-07	2.3668	0.00011486	0.00031564	5.2715e-05	75.89	2.7137e-06	2.544e-06	146.01	16.487	2.1328e-06	3.1912e-06	40.273	11.048	6.1144	1.1108	2.2355e-06	2.4053	389.567	104.257	154.797	100.206	282.387	132.128	98.493	105.885	246.630	173.377	102.205	106.773	107.036	111.102	138.392	108.180	-8191	255	
2389.790	1	1	0	0	0.20793	0.15396	0.15101	0.23218	0.21832	0.15958	0.11331	0.080501	0.064638	0.066665	0.10883	0.20962	0.16922	0.18279	0.16604	0.33992	-2.9729	-2.8854	-3.7188	-3.175	-3.2083	-3.7146	-3.0417	-3.5958	-3.4188	-3.0792	-3.7729	-3.0938	-3.2583	-3.6729	-2.9813	-3.6188	212.169	392.570	427.612	389.243	236.489	250.027	299.516	116.635	339.267	428.847	317.911	212.795	299.918	119.871	246.909	214.096	6.0724e-05	3.289e-05	2.6339e-05	75.303	9.0689e-07	3.4607e-07	146.52	16.907	8.0577e-07	7.2804e-07	41.033	10.892	6.2499	1.106	5.0893e-07	2.3983	0.0001176	0.00025849	5.2453e-05	76.039	2.5631e-06	2.7627e-06	145.42	16.58	1.8744e-06	3.1746e-06	40.609	11.016	6.1891	1.1169	2.5474e-06	2.4501	419.364	91.099	150.730	99.785	308.124	325.478	97.623	106.191	143.678	433.340	101.781	106.233	109.014	113.070	335.062	108.627	-8191	255	
2389.886	1	1	0	0	0.023534	0.24959	0.23687	0.092353	0.17653	0.20845	0.18653	0.21737	0.17852	0.17228	0.14685	0.16986	0.22774	0.13078	0.14455	0.066861	-3.1917	-3.0208	-3.6625	-3.1375	-3.1708	-3.6875	-2.9667	-3.55	-3.7021	-2.925	-3.7604	-3.3667	-2.9917	-3.8229	-3.1542	-3.4437	312.739	304.829	401.870	315.265	137.499	321.638	404.818	150.177	257.443	188.978	350.593	397.154	223.853	179.022	373.152	359.188	0.00011655	4.2201e-06	3.4395e-05	77.683	7.7438e-07	3.8154e-07	148.13	16.666	2.1814e-06	2.0909e-07	40.966	11.296	6.3126	1.1115	1.2058e-06	2.4443	0.00011457	0.00029771	5.4243e-05	77.561	2.7152e-06	2.128e-06	146.77	16.736	1.701e-06	3.5031e-06	41.096	11.255	6.2428	1.1299	1.9667e-06	2.4737	405.934	353.971	219.420	98.650	211.967	177.416	98.165	105.860	229.338	91.704	102.186	106.754	108.870	112.182	195.001	107.535	-8191	255	
2389.982	1	1	0	0	0.33307	0.096542	0.11308	0.18311	0.039064	0.082731	0.0744	0.12445	0.15998	0.12584	0.11019	0.1121	0.19052	0.12211	0.24505	0.049437	-3.2417	-3.0625	-3.7229	-3.2021	-3.0958	-3.6958	-3.0125	-3.0958	-3.6833	-2.8438	-3.7479	-3.3333	-3.0021	-3.7792	-3.1521	-3.4208	253.385	182.981	373.409	300.922	300.020	281.039	202.538	313.273	146.051	285.786	150.494	406.213	428.556	225.618	349.436	125.311	9.6077e-05	7.0612e-05	2.4517e-05	76.865	1.0589e-06	1.1557e-06	149.56	16.738	8.7573e-07	6.6039e-07	42.173	11.283	6.3375	1.12	6.4647e-07	2.5303	0.0001107	0.00027074	6.573e-05	77.708	2.9588e-06	2.3662e-06	147.6	16.816	1.8974e-06	3.371e-06	41.689	11.235	6.3133	1.152	2.5057e-06	2.5556	374.913	225.033	167.180	99.949	148.422	249.425	97.858	106.934	211.888	319.100	102.125	106.697	109.159	112.800	309.555	109.083	-8191	255	
2390.078	1	1	0	0	0.089649	0.046857	0.2172	0.36755	0.12323	0.17889	0.11838	0.12277	0.086852	0.046171	0.16158	0.35529	0.12782	0.10094	0.15311	0.27649	-3.4042	-2.9	-3.6896	-3.4125	-2.9792	-3.7313	-3.1667	-3.2375	-3.5854	-2.9458	-3.5792	-3.5646	-2.9708	-3.8396	-3.2229	-3.1375	281.893	282.308	285.618	395.160	179.169	95.853	190.716	339.917	218.790	406.718	355.368	309.754	127.718	264.794	119.915	321.401	0.00011489	2.888e-05	2.4392e-05	76.409	3.7604e-07	7.9606e-07	150.11	17.099	2.3742e-06	1.04e-06	41.373	11.145	6.493	1.191	1.3412e-06	2.5879	9.5937e-05	0.00026505	6.228e-05	77.09	2.6901e-06	2.4409e-06	148.55	16.869	1.8962e-06	3.2058e-06	41.521	11.099	6.3559	1.1992	2.2906e-06	2.6137	396.212	116.556	415.439	100.183	236.645	221.913	98.141	105.616	128.017	250.822	101.491	106.065	109.184	111.282	116.999	109.298	-8191	255	
2390.174	1	1	0	0	0.23503	0.15001	0.16247	0.142	0.1571	0.036348	0.11089	0.19942	0.21611	0.23291	0.19737	0.1344	0.17724	0.17341	0.23724	0.25216	-3.4604	-2.9875	-3.5438	-3.6729	-3.0625	-3.7875	-3.2354	-3.0667	-3.7083	-2.9979	-3.5938	-3.5	-3.0708	-3.7917	-3.2521	-3.0292	417.469	348.109	441.688	362.784	341.213	358.557	378.249	370.721	370.743	438.008	277.749	350.830	356.114	189.453	425.298	230.902	6.4965e-05	8.7475e-05	1.5574e-05	77.06	7.3503e-07	1.0053e-06	149.47	16.666	4.7301e-07	4.5927e-07	42.147	11.261	6.258	1.2088	1.0531e-06	2.6524	0.0001041	0.00028313	7.2499e-05	77.555	3.0016e-06	2.72e-06	148.07	16.723	1.8664e-06	3.7802e-06	41.817	11.291	6.3453	1.2184	2.3968e-06	2.6576	386.769	168.796	430.872	99.961	285.431	310.328	97.864	106.125	298.698	356.785	101.915	106.395	107.499	114.086	113.246	109.032	-8191	255	
2390.270	1	1	0	0	0.10008	0.087489	0.088801	0.13997	0.17417	0.04117	0.11424	0.11458	0.13109	0.20586	0.22326	0.13873	0.11009	0.17117	0.1234	0.13822	-3.5146	-3.125	-3.375	-3.5854	-3.0687	-3.65	-3.2375	-3.0208	-3.6958	-3.1854	-3.2396	-3.7313	-3.0396	-3.5062	-3.2562	-3.0167	388.667	286.632	228.842	320.119	220.470	164.992	423.490	338.637	306.190	156.891	90.648	272.545	143.738	324.286	121.867	336.404	0.00013017	8.9001e-06	3.3604e-05	77.113	8.3739e-07	8.955e-07	150.76	16.779	5.7562e-07	3.1312e-07	42.056	11.405	6.4453	1.2219	2.182e-07	2.6894	0.00011745	0.00028969	6.8481e-05	77.618	2.854e-06	2.9618e-06	148.74	16.798	1.9996e-06	3.4462e-06	42.284	11.336	6.3922	1.234	2.1024e-06	2.7084	393.563	309.364	161.404	100.230	277.758	211.770	98.069	106.263	212.880	203.916	101.856	106.237	108.490	112.634	205.551	108.288	-8191	255	
2390.367	1	1	0	0	0.081788	0.050617	0.26536	0.20973	0.093994	0.16483	0.28176	0.22569	0.18744	0.040868	0.11072	0.32469	0.27981	0.2579	0.084542	0.16746	-3.3688	-3.1646	-3.3354	-3.6917	-2.9667	-3.6167	-3.5312	-2.8688	-3.7125	-3.1104	-3.2708	-3.7396	-2.8625	-3.3896	-3.6562	-2.9771	423.092	227.333	229.140	384.185	263.373	328.282	152.895	242.157	291.611	211.948	377.092	403.785	237.365	216.622	219.778	102.606	0.0001025	4.8572e-05	3.9957e-05	76.15	4.8527e-07	1.0942e-06	150.39	16.773	2.0602e-06	7.4897e-07	42.169	11.596	6.5932	1.2402	1.2023e-06	2.7628	0.00012053	0.00027176	7.1014e-05	77.649	2.668e-06	2.6649e-06	150.03	16.901	1.5252e-06	3.3526e-06	42.77	11.532	6.4795	1.2626	2.1495e-06	2.7503	388.714	418.947	173.377	100.421	236.894	247.004	98.016	105.261	197.988	239.760	100.427	105.528	109.821	113.368	238.409	108.361	-8191	255	
2390.463	1	1	0	0	0.072849	0.077233	0.15961	0.20582	0.17278	0.378	0.18208	0.042254	0.15235	0.20244	0.18484	0.054978	0.12845	0.14226	0.093793	0.24768	-3.225	-3.3417	-2.9417	-3.7687	-3.05	-3.4125	-3.6479	-3.0208	-3.6104	-3.2604	-2.9896	-3.7646	-3.0354	-3.1854	-3.6437	-2.9646	304.817	286.476	430.051	350.308	347.473	332.242	405.011	218.190	385.822	311.656	330.661	338.897	306.604	368.977	198.097	181.379	0.00010776	5.0401e-05	1.294e-05	77.927	1.4273e-06	9.5115e-07	152.17	16.954	5.6142e-07	1.0379e-06	42.205	11.498	6.5111	1.2111	1.0634e-06	2.7127	0.00012127	0.00025018	7.5469e-05	77.782	3.1832e-06	3.12e-06	150.76	17.01	1.8399e-06	3.2444e-06	42.648	11.538	6.5055	1.2472	2.0245e-06	2.7378	394.598	159.956	152.539	100.837	238.209	196.920	98.082	107.085	298.506	205.921	101.999	106.140	108.626	111.879	119.136	108.645	-8191	255	
2390.583	1	1	0	0	0.18228	0.10003	0.18644	0.34723	0.13434	0.14909	0.21015	0.1903	0.096767	0.26703	0.12889	0.06534	0.047028	0.058796	0.11401	0.1269	-3.1312	-3.3063	-3.1	-3.725	-3.2687	-3.3958	-3.7125	-2.9625	-3.4958	-3.6562	-2.95	-3.8146	-3.1437	-3.1792	-3.7458	-2.8979	147.690	442.779	255.303	366.102	403.701	314.281	313.065	375.424	239.533	408.984	410.448	332.470	100.283	288.286	105.128	265.802	0.00012286	3.4277e-05	2.3022e-05	78.536	8.1373e-07	1.668e-06	150.4	17.32	2.4368e-06	8.0994e-07	42.885	11.422	6.6115	1.2364	8.7995e-07	2.7512	0.00011246	0.00021855	8.0099e-05	78.076	2.696e-06	3.3671e-06	149.98	17.267	2.0191e-06	3.1214e-06	42.945	11.476	6.5468	1.2673	2.2812e-06	2.7619	392.586	399.453	111.466	98.747	405.991	244.081	98.124	106.359	203.434	221.258	101.599	105.982	108.957	112.978	240.228	108.711	-8191	255	
2390.678	1	1	0	0	0.18251	0.12936	0.077728	0.11897	0.23415	0.051389	0.088045	0.19809	0.22675	0.08002	0.12158	0.051403	0.18217	0.18313	0.087919	0.068182	-3.2833	-3.5542	-2.9896	-3.6667	-3.1625	-3.225	-3.8292	-2.9479	-3.3708	-3.6104	-3.0208	-3.7854	-3.2562	-3.0687	-3.7667	-3.0229	259.708	88.072	391.182	366.446	118.953	321.412	212.944	293.325	247.618	175.106	209.580	337.929	380.647	302.383	200.680	398.259	0.00011945	6.1598e-05	1.153e-05	77.926	1.4001e-06	9.4424e-07	151.83	17.61	9.0564e-07	2.4841e-07	43.668	11.566	6.5298	1.2758	7.6278e-07	2.7652	0.00012469	0.00023881	8.8353e-05	78.523	2.6473e-06	3.6338e-06	151.18	17.483	1.9961e-06	3.0939e-06	43.676	11.728	6.6095	1.2975	2.0298e-06	2.8085	380.759	373.880	183.004	101.184	243.151	215.963	98.180	106.004	349.758	163.981	100.904	107.241	108.260	111.324	211.683	108.358	-8191	255	
2390.774	1	1	0	0	0.036125	0.16025	0.15691	0.12886	0.25961	0.061447	0.059753	0.31845	0.10541	0.057787	0.17901	0.10695	0.127	0.24834	0.060705	0.089435	-3.0917	-3.6979	-2.9354	-3.6312	-3.2771	-2.975	-3.8771	-3.0292	-3.2458	-3.7583	-2.8833	-3.5146	-3.5083	-3.1021	-3.8229	-3.1854	384.339	126.387	264.937	114.240	124.115	131.465	324.452	348.223	266.745	141.380	102.139	272.544	423.166	283.787	270.313	252.156	0.00010046	2.1246e-05	2.1674e-05	78.879	2.5729e-07	9.3876e-08	154.68	17.381	1.8046e-06	7.2663e-07	43.524	11.865	6.6766	1.2719	5.4301e-07	2.8146	0.00011867	0.00020411	8.2413e-05	78.995	2.4258e-06	3.4631e-06	153.17	17.533	2.142e-06	2.6535e-06	43.731	11.858	6.6322	1.3025	2.3713e-06	2.8185	390.555	199.028	206.521	101.288	241.445	177.344	97.706	107.034	222.403	267.633	101.814	106.415	107.330	112.661	189.513	109.132	-8191	255	
2390.870	1	1	0	0	0.029184	0.011695	0.033412	0.2152	0.27969	0.1804	0.10803	0.11856	0.14223	0.15535	0.21465	0.18239	0.099742	0.20069	0.16242	0.1928	-2.8937	-3.8521	-2.8792	-3.4562	-3.5146	-2.8729	-3.775	-3.0938	-3.1167	-3.7417	-2.875	-3.5583	-3.4562	-2.8958	-3.7188	-3.2292	344.305	367.583	178.475	167.710	402.521	198.076	143.418	354.736	178.680	236.813	196.167	435.363	97.329	138.713	386.668	416.938	0.00012675	5.6555e-05	3.1584e-06	79.026	1.0101e-06	1.0178e-06	151.09	17.395	1.2573e-06	2.6653e-07	43.423	11.526	6.6741	1.2319	6.8543e-07	2.7198	0.00013667	0.00023108	9.3943e-05	78.086	2.7743e-06	3.488e-06	151.15	17.452	2.2235e-06	2.3342e-06	43.066	11.627	6.5895	1.2658	2.0863e-06	2.7394	396.435	141.329	275.232	98.949	119.519	229.986	97.762	105.970	294.198	195.159	101.266	106.230	108.313	111.501	206.818	108.698	-8191	255	
2390.966	1	1	0	0	0.24965	0.16312	0.073691	0.37361	0.38754	0.13313	0.059722	0.019413	0.062435	0.32888	0.074919	0.16664	0.16799	0.38589	0.18419	0.2048	-2.8438	-3.8833	-2.9854	-3.4562	-3.7021	-2.9042	-3.6562	-3.4229	-3.1271	-3.6854	-2.9562	-3.3312	-3.4104	-3.0333	-3.7958	-3.3896	399.111	160.225	353.977	230.609	194.002	292.747	411.513	94.063	230.616	422.929	306.934	211.081	431.522	337.561	261.520	385.770	6.6975e-05	6.3166e-06	1.7805e-05	79.627	1.1114e-06	3.1929e-07	149.64	17.139	7.7128e-07	6.0989e-07	43.5	11.743	6.5205	1.2111	9.7679e-07	2.6738	0.00012259	0.00025456	8.6169e-05	78.965	1.9858e-06	3.5751e-06	150.09	17.256	2.2752e-06	2.5305e-06	43.009	11.628	6.4873	1.2496	2.2664e-06	2.688	385.960	345.879	324.960	99.064	257.128	176.584	98.450	104.668	238.937	247.209	101.892	106.694	107.984	112.097	170.883	108.303	-8191	255	
2391.062	1	1	0	0	0.2207	0.17376	0.14621	0.17014	0.27638	0.18238	0.24346	0.28009	0.15322	0.062931	0.17501	0.29178	0.12442	0.11579	0.16567	0.065069	-2.725	-3.7521	-3.1292	-3.2375	-3.7021	-2.9979	-3.6813	-3.5146	-2.9292	-3.8875	-3.25	-3.2542	-3.6562	-3.0208	-3.6083	-3.5312	234.217	170.041	98.113	147.577	251.365	162.209	111.931	374.252	269.025	439.914	222.555	120.536	301.930	400.461	428.058	184.343	0.00011197	1.8147e-05	1.7031e-05	79.236	1.1125e-06	1.1332e-06	152.72	17.285	9.1557e-07	5.335e-07	42.667	11.479	6.6844	1.2384	8.3546e-07	2.6427	0.00012948	0.00023327	7.7784e-05	78.552	2.3549e-06	3.6942e-06	151.09	17.259	2.5807e-06	3.2315e-06	42.939	11.516	6.5246	1.2595	2.0433e-06	2.7231	403.749	400.077	137.640	100.038	188.796	168.326	97.382	106.368	162.885	445.967	101.044	106.348	107.689	111.423	215.136	109.800	-8191	255	
2391.183	1	1	0	0	0.12618	0.09849	0.12461	0.077095	0.25954	0.033303	0.070088	0.045167	0.2792	0.2365	0.14038	0.096127	0.22126	0.17478	0.15443	0.14981	-2.4	-3.7375	-3.2979	-3.1854	-3.8396	-3.0479	-3.4521	-3.5021	-2.9375	-3.8	-3.3208	-3.1188	-3.7875	-3.1833	-3.3979	-3.5917	129.752	104.016	399.224	164.838	377.598	175.355	184.442	88.353	133.703	170.157	198.328	93.354	289.905	312.785	321.098	101.077	0.00010251	2.6418e-05	1.6703e-05	79.763	8.3143e-07	1.2677e-06	150.84	17.218	8.5618e-07	1.1783e-06	43.165	11.535	6.5131	1.1981	3.5628e-07	2.6847	0.00013051	0.0002044	9.5909e-05	79.26	2.4923e-06	3.84e-06	150.46	17.279	2.3774e-06	3.204e-06	43.043	11.537	6.4638	1.2303	2.4667e-06	2.6719	376.514	418.230	177.162	98.802	263.625	214.710	97.748	106.054	252.088	192.669	101.796	105.737	107.903	111.423	338.791	109.257	-8191	255	
2391.279	1	1	0	0	0.17147	0.13954	0.11378	0.12563	0.19751	0.2087	0.13787	0.097412	0.08339	0.15599	0.14411	0.15972	0.15052	0.12123	0.26633	0.26272	-2.4646	-3.7479	-3.4104	-3.0396	-3.7458	-3.0229	-3.4667	-3.7229	-2.9667	-3.7167	-3.4771	-2.9792	-3.9292	-3.0563	-3.3688	-3.8438	224.220	425.134	348.763	270.301	251.797	109.696	286.872	331.152	107.345	232.875	395.609	362.646	97.133	115.144	252.185	148.936	9.319e-05	5.2843e-05	1.2474e-05	79.341	1.1828e-06	1.5616e-06	150.28	17.475	2.8966e-07	5.052e-07	42.646	11.486	6.448	1.2006	5.1475e-07	2.565	0.00014899	0.00023123	8.6868e-05	79.501	2.51e-06	3.5538e-06	149.64	17.56	2.4923e-06	2.9287e-06	42.989	11.452	6.497	1.2145	2.6845e-06	2.6116	366.417	278.759	346.333	98.765	176.371	182.728	98.647	105.936	187.478	120.236	102.218	106.097	109.824	113.377	267.937	108.842	-8191	255	
2391.375	1	1	0	0	0.13056	0.2351	0.060264	0.050253	0.22834	0.24061	0.25175	0.14108	0.068751	0.1744	0.093133	0.052816	0.13722	0.35594	0.096724	0.079459	-2.6021	-3.5938	-3.4708	-2.9917	-3.8667	-3.2208	-3.3458	-3.7	-3.0521	-3.5208	-3.5083	-3.0979	-3.8792	-3.2333	-3.1271	-3.8833	343.424	172.947	178.641	169.710	148.915	269.818	330.546	89.301	392.920	308.714	161.857	395.789	285.141	265.373	272.112	266.202	6.9919e-05	8.6816e-05	2.6649e-05	79.8	4.8053e-07	3.0515e-07	149.36	17.764	2.4128e-06	7.9613e-07	43.465	11.379	6.6639	1.1587	3.5752e-07	2.6393	0.00013491	0.00024581	8.9183e-05	79.059	2.5129e-06	2.9991e-06	148.84	17.819	2.4119e-06	2.5966e-06	43.133	11.428	6.4809	1.2005	2.4009e-06	2.6543	379.368	88.343	129.899	100.520	104.352	407.783	98.571	106.182	250.844	240.383	102.454	106.185	107.360	112.592	288.737	110.445	-8191	255	
2391.447	1	1	0	0	0.26544	0.14386	0.057565	0.25479	0.16933	0.16929	0.16361	0.01054	0.26828	0.02985	0.31863	0.11294	0.17531	0.1364	0.17063	0.12311	-2.7062	-3.4083	-3.65	-2.9271	-3.7562	-3.4604	-3.0229	-3.6375	-2.9708	-3.5083	-3.6479	-2.9042	-3.6708	-3.1688	-3.1125	-3.8479	221.386	146.944	155.589	213.470	387.776	296.747	293.264	413.612	443.948	249.320	102.824	370.971	125.822	351.929	89.603	439.464	8.7724e-05	3.4018e-05	1.527e-05	80.742	2.3271e-07	4.0321e-07	151.62	18.01	1.3046e-06	7.7153e-07	43.94	11.712	6.4845	1.2103	5.7806e-07	2.6973	0.00012547	0.00028197	7.5862e-05	79.937	2.2752e-06	3.0951e-06	149.36	17.936	2.0938e-06	3.0187e-06	43.682	11.582	6.5031	1.2302	2.8378e-06	2.6775	412.487	222.007	185.890	100.659	362.644	129.004	98.619	105.885	211.117	240.755	101.563	106.243	108.319	113.217	307.720	109.549	-8191	255	
2391.566	1	1	0	0	0.2481	0.046988	0.1443	0.097563	0.053562	0.149	0.2725	0.12805	0.11203	0.25309	0.23912	0.3323	0.25338	0.17389	0.30908	0.076611	-2.6833	-3.3417	-3.5208	-2.9771	-3.6292	-3.4125	-2.9771	-3.8354	-2.9646	-3.5396	-3.75	-2.8146	-3.5875	-3.4021	-3.0021	-3.7333	94.350	421.824	404.757	440.356	346.082	347.163	413.912	301.784	403.874	274.879	143.466	118.260	339.727	246.114	300.018	117.184	9.2752e-05	2.7176e-05	4.7047e-05	81.23	9.096e-07	6.4827e-07	150.87	18.138	1.4627e-06	2.4429e-07	44.165	11.742	6.3162	1.1377	4.1052e-07	2.6192	0.00011965	0.00025864	6.0576e-05	80.961	2.3609e-06	2.9209e-06	149.9	17.985	2.0168e-06	3.0627e-06	43.709	11.671	6.492	1.1987	2.7746e-06	2.6251	401.499	167.379	174.011	100.111	238.578	163.469	98.663	105.797	277.567	189.898	101.718	107.357	107.960	111.797	184.584	109.482	-8191	255	
2391.662	1	1	0	0	0.14371	0.072974	0.19758	0.12766	0.22199	0.086788	0.30753	0.19354	0.094333	0.16085	0.1175	0.19896	0.03307	0.018268	0.14839	0.22924	-2.8104	-3.3312	-3.7229	-2.9646	-3.6792	-3.6417	-3.0479	-3.7646	-3.2542	-3.275	-3.7812	-2.8979	-3.5875	-3.6854	-2.9625	-3.8167	300.938	142.023	344.162	345.244	306.900	341.662	89.574	176.439	219.822	318.448	232.590	382.495	415.661	243.056	405.054	329.868	0.00012505	0.00010061	1.2239e-05	80.428	1.237e-06	8.537e-07	150.38	17.908	1.4065e-06	1.6517e-06	43.671	11.652	6.4154	1.179	1.4388e-06	2.5068	0.00012767	0.00031287	7.1844e-05	80.218	2.6015e-06	3.0187e-06	148.97	18.057	2.0915e-06	3.604e-06	43.325	11.618	6.5096	1.1906	2.6832e-06	2.5777	370.477	200.154	281.909	101.108	121.930	258.187	98.411	105.439	206.443	302.581	101.736	106.403	108.054	110.931	223.635	109.297	-8191	255	
2391.758	1	1	0	0	0.19514	0.064768	0.086537	0.13496	0.11345	0.035377	0.097569	0.077705	0.18293	0.061939	0.26105	0.19777	0.16418	0.096677	0.1975	0.1077	-2.9062	-3.0604	-3.6875	-3.1042	-3.5208	-3.7271	-2.8792	-3.7396	-3.5083	-3.1146	-3.9437	-3.1604	-3.3083	-3.6979	-2.95	-3.6312	240.401	409.529	369.552	168.413	310.036	350.776	201.443	394.227	95.600	174.064	380.810	411.215	244.365	176.843	116.504	160.689	7.3219e-05	8.6885e-05	2.6431e-05	80.88	1.2379e-06	6.5847e-07	149.53	18.232	9.1409e-07	4.0031e-08	43.524	11.618	6.5329	1.1891	5.7714e-07	2.5536	0.00012122	0.00026345	6.2847e-05	81.345	2.3919e-06	2.5742e-06	149.03	18.046	1.8928e-06	3.6242e-06	43.4	11.559	6.4908	1.202	2.745e-06	2.5951	391.102	202.382	141.907	99.539	128.478	279.766	98.658	104.395	396.936	335.962	102.447	105.842	108.552	112.776	222.942	109.298	-8191	255	
2391.854	1	1	0	0	0.33452	0.19943	0.10227	0.012283	0.22526	0.15283	0.11621	0.15685	0.094111	0.066741	0.18454	0.24442	0.19651	0.23952	0.28582	0.13294	-3.0312	-3.0125	-3.8438	-2.9625	-3.2979	-3.6542	-2.9771	-3.525	-3.5396	-2.9375	-3.7979	-3.0521	-3.0896	-3.6896	-3.1521	-3.5521	109.107	210.704	247.758	367.348	174.795	145.813	130.000	153.069	425.151	150.410	380.799	244.282	202.907	186.159	199.129	141.150	8.7027e-05	7.429e-05	2.9072e-05	79.989	1.4327e-06	1.0617e-06	148.78	17.796	1.8549e-06	7.8954e-07	43.403	11.357	6.2077	1.1751	7.5269e-07	2.5436	0.00012278	0.0002738	6.6953e-05	80.885	2.9869e-06	2.8125e-06	147.72	17.828	2.0283e-06	3.3802e-06	43.341	11.381	6.3003	1.1898	2.8283e-06	2.5757	365.951	177.997	301.678	98.616	272.478	251.380	98.581	105.425	247.486	248.718	101.626	106.638	109.202	110.994	221.894	108.986	-8191	255	
2391.975	1	1	0	0	0.15866	0.13646	0.063864	0.028597	0.021542	0.12482	0.12254	0.082935	0.24392	0.11936	0.18367	0.24338	0.1162	0.092625	0.2135	0.11932	-3.1	-3.0438	-3.8	-3.2021	-3.0708	-3.8625	-2.9729	-3.5354	-3.6	-2.9896	-3.8417	-3.2396	-3.2396	-3.6958	-3.0875	-3.4	227.774	301.149	211.312	165.092	181.481	392.195	143.750	201.815	216.951	187.992	231.132	87.539	185.248	234.247	162.384	172.281	9.4354e-05	0.00011855	2.8627e-05	79.602	1.8133e-06	4.7074e-07	147.39	17.049	2.2099e-06	7.846e-07	42.448	11.042	6.238	1.1603	9.4646e-07	2.4948	0.0001332	0.00033533	7.7085e-05	79.579	3.0297e-06	2.9227e-06	145.63	17.359	2.1822e-06	3.9307e-06	42.496	11.123	6.2047	1.1605	2.8378e-06	2.5363	394.073	200.266	112.510	99.508	246.107	320.298	98.046	105.330	287.586	201.578	100.846	106.040	110.223	112.153	213.485	109.040	-8191	255	
2392.047	1	1	0	0	0.15331	0.17632	0.27646	0.1853	0.1437	0.18839	0.15401	0.10378	0.088794	0.23025	0.14879	0.090211	0.063346	0.17763	0.040268	0.051317	-3.2333	-2.9083	-3.5125	-3.3021	-3.1625	-3.7562	-3.0292	-3.3667	-3.6833	-2.9125	-3.6229	-3.4292	-2.8958	-3.7958	-3.075	-3.2	340.288	329.067	98.763	317.979	327.393	173.672	286.355	285.548	304.550	132.102	350.987	442.768	158.076	137.263	308.692	152.382	7.8765e-05	6.2433e-05	3.0778e-05	78.078	1e-06	9.7081e-07	147.34	17.506	1.0511e-06	1.1919e-06	42.046	11.164	6.3157	1.1362	9.5384e-07	2.4827	0.00012938	0.00033664	8.6388e-05	79.626	3.7399e-06	3.1431e-06	146.58	17.173	2.4372e-06	3.9178e-06	42.01	11.068	6.2473	1.1579	2.8754e-06	2.5323	389.289	181.778	263.782	100.051	192.266	216.387	98.422	105.678	191.978	228.688	101.388	106.444	108.016	112.792	233.276	109.992	-8191	255	
2392.143	1	1	0	0	0.16939	0.068123	0.2915	0.059476	0.21695	0.020719	0.21832	0.044958	0.19374	0.12352	0.21172	0.27303	0.045495	0.21051	0.21844	0.13934	-3.3729	-2.975	-3.4458	-3.3229	-3.0021	-3.6937	-3.1542	-3.2229	-3.7146	-2.9813	-3.3917	-3.5417	-2.8542	-3.7896	-3.2104	-3.2625	163.545	152.630	141.645	98.321	175.118	92.181	134.999	238.091	115.052	206.803	352.194	137.506	330.314	350.500	442.914	436.773	0.00012016	0.0001149	1.6601e-05	78.39	2.7501e-07	8.8043e-07	145.77	16.803	6.8681e-07	1.1332e-06	41.869	10.805	6.0076	1.0837	1.3059e-06	2.3941	0.00012938	0.00034699	8.2239e-05	79.2	3.6306e-06	3.3618e-06	144.91	16.913	2.1535e-06	3.8903e-06	41.524	10.859	6.0046	1.118	3.026e-06	2.4565	398.108	151.102	135.422	99.564	207.537	439.151	98.436	105.584	240.862	244.226	101.907	106.213	109.270	111.657	235.318	108.254	-8191	255	
2392.263	1	1	0	0	0.15479	0.098478	0.10175	0.31135	0.18614	0.14103	0.28565	0.08928	0.18685	0.41515	0.071291	0.031852	0.095887	0.054066	0.099051	0.25606	-3.425	-3.1583	-3.525	-3.6604	-3.1667	-3.75	-3.2979	-3.1229	-3.7313	-3	-3.3604	-3.6667	-2.9813	-3.8542	-3.1875	-2.9562	403.900	372.817	371.319	419.849	326.397	200.439	291.623	149.799	99.126	218.491	288.414	398.776	96.690	412.714	245.472	91.049	8.0338e-05	0.00011469	1.0917e-05	78.153	6.8733e-07	6.3209e-07	148.12	16.297	1.6534e-06	1.9677e-07	41.105	10.612	5.8907	1.0641	1.12e-06	2.405	0.00013212	0.00035413	9.7132e-05	78.832	3.6085e-06	3.7014e-06	146.55	16.434	2.0582e-06	3.8848e-06	40.919	10.625	5.8635	1.0762	3.0502e-06	2.3968	407.787	165.012	412.699	98.951	142.279	216.970	97.899	105.988	136.303	419.470	102.468	106.346	108.997	113.025	169.864	109.476	-8191	255	
2392.359	1	1	0	0	0.11016	0.063466	0.084412	0.21667	0.22125	0.093269	0.11276	0.20571	0.21244	0.080019	0.14384	0.024478	0.34116	0.14891	0.1497	0.24337	-3.3625	-3.1813	-3.2292	-3.5833	-3.0104	-3.5792	-3.4958	-3.0104	-3.925	-3.1729	-3.2313	-3.7854	-2.9708	-3.6667	-3.5208	-3.0042	259.560	89.446	226.256	418.231	166.208	319.506	208.932	162.009	344.021	181.141	172.948	109.349	350.060	195.373	390.946	271.716	7.6679e-05	6.7812e-05	1.6759e-05	73.79	1.1671e-06	1.2078e-06	147.93	15.788	1.7228e-06	2.3358e-07	40.311	10.375	5.7199	1.0167	1.2448e-06	2.2679	0.0001397	0.00033358	9.9403e-05	76.266	3.3648e-06	3.5556e-06	147.53	16.043	2.1719e-06	3.9876e-06	40.153	10.38	5.7419	1.0294	2.6872e-06	2.3257	391.514	188.686	201.839	99.520	291.865	240.186	97.866	106.133	206.138	278.492	102.028	105.283	108.429	112.650	217.032	109.402	-8191	255	
2392.456	1	1	0	0	0.20645	0.37297	0.26345	0.11165	0.086979	0.10436	0.19128	0.089181	0.17996	0.15414	0.031525	0.047963	0.055833	0.32377	0.21037	0.11795	-3.5021	-3.2083	-3.2521	-3.7625	-2.9167	-3.4458	-3.6729	-2.8854	-3.7667	-3.3083	-3.2438	-3.9042	-2.9833	-3.4417	-3.7354	-2.9167	359.619	101.058	246.999	416.007	145.361	388.446	162.061	162.914	92.344	294.416	250.368	379.237	320.591	289.288	419.595	423.617	8.2161e-05	5.9429e-05	3.1894e-05	73.465	4.8338e-07	1.0816e-06	153.14	15.866	9.328e-07	5.333e-07	39.135	10.218	5.7093	0.99137	1.5717e-06	2.2719	0.00011995	0.00034728	9.3332e-05	73.728	3.6513e-06	4.0125e-06	151.58	15.948	2.5256e-06	3.9619e-06	39.007	10.209	5.7207	1.0299	3.0743e-06	2.3128	374.594	144.463	282.386	99.506	223.122	237.254	98.178	105.851	268.218	105.200	101.496	106.484	109.102	114.053	202.626	109.935	-8191	255	
2392.574	1	1	0	0	0.1835	0.43424	0.067757	0.13167	0.1235	0.19721	0.077825	0.17607	0.14661	0.10612	0.1736	0.045983	0.26521	0.028567	0.35917	0.040801	-3.1792	-3.3312	-3.0083	-3.6042	-3.1354	-3.4667	-3.6333	-2.95	-3.775	-3.2917	-3.0375	-3.6729	-3.1146	-3.3354	-3.6146	-3.0042	318.515	193.428	217.087	382.233	312.422	92.253	317.967	261.507	143.964	113.113	325.715	209.615	246.342	316.132	272.514	184.942	0.0001087	8.9332e-05	1.3152e-05	73.509	7.3654e-07	6.4815e-07	156.48	15.464	1.3864e-06	1.1604e-06	38.244	10.156	5.7494	1.0024	6.6344e-07	2.2345	0.00012816	0.0003155	0.00010919	73.359	3.6793e-06	4.2862e-06	154.62	15.457	2.3315e-06	3.538e-06	38.285	10.207	5.6847	1.025	2.8552e-06	2.2644	385.273	193.070	437.748	100.414	216.201	249.899	98.223	106.307	218.563	195.450	101.717	106.864	108.914	112.983	380.841	109.885	-8191	255	
2392.671	1	1	0	0	0.16589	0.15101	0.097906	0.13132	0.21933	0.31906	0.092585	0.26199	0.19046	0.18685	0.17897	0.31445	0.10798	0.2087	0.12908	0.072156	-3.2979	-3.5708	-3.0563	-3.8479	-3.2979	-3.1562	-3.6833	-2.9062	-3.4833	-3.575	-2.9938	-3.7146	-3.1854	-3.0687	-3.8104	-2.8167	232.577	258.784	371.932	268.391	303.774	217.750	141.364	230.322	148.055	348.151	180.858	213.401	407.177	419.960	358.879	297.293	0.00011214	0.00011165	1.7621e-05	71.816	1.2147e-06	5.8988e-07	158.87	15.794	1.8831e-06	4.3471e-07	37.183	10.074	5.5701	0.97341	3.8354e-07	2.1949	0.00014508	0.00030311	9.9665e-05	71.48	3.1877e-06	3.7778e-06	157.5	15.837	2.5118e-06	3.7545e-06	37.252	10.06	5.5483	1.0043	2.378e-06	2.2427	376.819	367.554	380.581	101.221	235.328	277.298	97.451	105.619	256.755	131.522	101.669	106.790	109.781	113.084	174.313	109.644	-8191	255	
2392.742	1	1	0	0	0.16887	0.11464	0.050707	0.06902	0.097046	0.1966	0.38048	0.15565	0.21052	0.068042	0.1821	0.14586	0.13375	0.10178	0.32755	0.14869	-3.0312	-3.4562	-3.0042	-3.7333	-3.2583	-3.2792	-3.7542	-2.7729	-3.2417	-3.8271	-2.875	-3.8667	-3.375	-3.2396	-3.7583	-2.9854	236.823	95.231	99.997	211.291	318.160	295.519	310.161	338.046	192.929	213.478	348.380	361.930	231.889	304.841	121.319	93.561	0.0001019	7.9893e-05	2.0233e-05	70.133	5.8731e-07	4.0438e-07	165.18	16.921	1.7271e-06	9.0768e-07	35.939	9.9573	5.5321	0.9762	6.5559e-07	2.1166	0.00013305	0.00028313	0.00010115	71.473	2.6768e-06	3.9218e-06	163.83	16.831	2.3074e-06	3.204e-06	36.069	9.9267	5.5223	1.0001	2.2691e-06	2.1688	384.693	427.816	117.149	100.910	343.587	250.053	97.427	105.690	202.002	269.508	102.168	106.438	109.291	114.515	250.600	110.639	-8191	255	
2392.863	1	1	0	0	0.057522	0.17529	0.14443	0.14837	0.082965	0.24243	0.20445	0.11931	0.1539	0.21918	0.11234	0.10779	0.13736	0.21262	0.15638	0.15166	-2.9833	-3.7417	-2.7562	-3.5604	-3.1375	-3.0271	-3.8958	-3.0479	-3.2271	-3.5979	-3.0187	-3.6042	-3.4979	-2.9062	-3.7313	-3.0667	334.888	406.523	312.364	232.493	321.644	99.446	341.805	88.261	305.692	90.568	398.547	360.736	195.040	376.427	138.468	315.156	7.6019e-05	6.0593e-05	1.2499e-05	72.155	3.0838e-07	1.2637e-06	163.61	17.475	5.8621e-07	6.2284e-07	35.859	9.8099	5.5363	0.9811	1.0912e-06	2.1232	0.00013256	0.00029815	8.7698e-05	71.821	3.1803e-06	4.112e-06	164.33	17.383	2.2419e-06	3.059e-06	36.169	9.8268	5.5136	0.99491	2.1616e-06	2.1376	380.397	183.486	415.305	101.167	256.018	181.136	98.134	105.684	355.723	245.636	102.017	106.638	110.023	111.801	242.010	108.453	-8191	255	
2392.959	1	1	0	0	0.34189	0.16865	0.059044	0.14314	0.049704	0.13623	0.046586	0.16041	0.24164	0.27989	0.10279	0.20195	0.26904	0.21451	0.029699	0.094946	-2.9125	-3.6083	-2.9354	-3.475	-3.5979	-3.0896	-3.8104	-3.3312	-3.0271	-3.7729	-2.9083	-3.4	-3.5042	-2.9292	-3.6646	-3.1354	432.148	189.372	445.171	420.305	387.241	170.440	270.846	255.051	110.287	258.463	388.220	188.202	180.767	237.987	415.643	331.818	9.3231e-05	8.6973e-05	1.3618e-05	71.074	8.9944e-07	1.2718e-06	165.83	17.99	1.1117e-06	6.926e-07	35.537	10.207	5.4427	0.9774	8.3248e-07	2.0806	0.0001374	0.00025791	0.00010036	71.432	2.5986e-06	3.9325e-06	166.89	18.029	2.4647e-06	2.7342e-06	36.123	9.9054	5.5134	1	2.3646e-06	2.1202	388.801	131.857	120.913	102.423	273.298	253.320	97.798	104.744	328.957	205.935	102.380	105.947	108.847	112.943	240.243	109.285	-8191	255	
2393.055	1	1	0	0	0.14156	0.17103	0.060995	0.12338	0.1121	0.11407	0.074864	0.30686	0.16763	0.125	0.03676	0.04669	0.16183	0.16507	0.29287	0.083999	-2.7188	-3.7521	-2.9542	-3.3729	-3.6646	-2.95	-3.6042	-3.2938	-3.1437	-3.7417	-3.0333	-3.2542	-3.5958	-2.8583	-3.725	-3.4833	160.887	183.053	373.465	319.603	284.304	217.456	295.059	228.520	260.342	219.065	96.125	204.786	115.795	348.113	213.262	320.273	8.506e-05	6.3572e-05	1.1754e-05	72.768	9.9419e-07	3.7632e-07	167.95	18.356	4.446e-07	8.3605e-07	36.436	9.8484	5.4574	0.96933	4.9918e-07	2.0973	0.00013012	0.00026447	8.8615e-05	72.461	2.7831e-06	3.5431e-06	167.26	18.183	2.498e-06	3.5673e-06	36.57	9.7864	5.48	1.0026	2.4103e-06	2.1272	376.345	219.130	222.528	102.055	189.859	437.552	97.109	104.628	240.426	200.148	101.625	106.932	108.740	113.182	242.822	109.941	-8191	255	
2393.151	1	1	0	0	0.10477	0.17668	0.2421	0.23189	0.37696	0.22221	0.093925	0.066482	0.068859	0.073035	0.12643	0.056417	0.14655	0.20375	0.13521	0.040119	-2.4833	-3.7229	-3.1229	-3.3625	-3.6479	-3.1271	-3.7	-3.4271	-2.9583	-3.8208	-3.1729	-3.1104	-3.7458	-2.8312	-3.6125	-3.5458	264.093	419.019	295.097	256.841	335.454	169.130	437.431	91.144	88.736	298.460	406.247	393.713	107.787	443.581	213.050	110.615	0.00011685	3.0336e-05	1.9478e-05	71.667	1.3532e-06	7.1862e-07	166.73	18.166	1.6408e-06	5.7079e-07	36.242	9.7241	5.4889	0.95916	7.4073e-07	2.0015	0.00014263	0.00025339	8.7567e-05	72.272	2.7226e-06	3.5982e-06	166.03	17.981	2.8254e-06	3.1765e-06	36.085	9.7439	5.5213	1.0003	2.3081e-06	2.0924	405.125	118.413	219.478	100.633	271.688	264.485	97.569	105.047	225.037	253.219	101.443	106.684	109.319	113.692	302.586	109.535	-8191	255	
2393.272	1	1	0	0	0.15288	0.19224	0.28775	0.14412	0.11063	0.30422	0.15236	0.12648	0.21575	0.13215	0.23395	0.26619	0.10748	0.078713	0.19915	0.14884	-2.5896	-3.6917	-3.1437	-3.2104	-3.875	-3.0146	-3.5938	-3.7167	-3.0625	-3.8104	-3.2417	-2.9437	-3.7583	-3.0104	-3.4646	-3.675	150.866	391.738	432.260	143.254	342.421	312.290	252.196	368.552	264.564	215.259	421.373	425.718	110.469	241.061	414.009	192.335	7.8141e-05	6.3591e-05	1.6768e-05	71.733	6.2021e-07	6.914e-07	165.44	17.437	7.1899e-07	8.0163e-08	36.442	9.999	5.5908	0.99363	6.0585e-07	2.1284	0.00014229	0.00025062	8.6955e-05	71.792	2.5469e-06	4.0427e-06	165.04	17.634	2.7496e-06	2.7581e-06	36.439	10.016	5.6398	1.0204	2.4815e-06	2.1672	399.257	270.511	201.086	101.813	417.927	261.071	97.632	106.294	156.289	212.287	101.891	107.183	108.542	111.276	250.919	109.266	-8191	255	
2393.344	1	1	0	0	0.077959	0.13778	0.12049	0.15768	0.17217	0.19899	0.10603	0.043499	0.059372	0.056191	0.099097	0.048601	0.17387	0.10188	0.090834	0.23046	-2.6208	-3.6042	-3.2521	-3.0417	-3.6479	-2.8604	-3.3063	-3.5354	-2.9333	-3.6104	-3.325	-2.9708	-3.5354	-2.95	-3.3354	-3.6417	128.759	310.099	288.598	277.163	223.041	107.012	301.140	328.410	433.634	378.165	115.757	123.631	172.806	295.591	132.781	296.434	5.1576e-05	6.4432e-05	1.7748e-06	72.766	6.6134e-07	4.7469e-07	169.3	18.03	1.1943e-06	5.722e-07	37.212	10.262	5.819	1.0005	1.9581e-07	2.1499	0.00012508	0.00028284	8.0186e-05	73.666	2.3062e-06	3.552e-06	168.12	17.948	2.6519e-06	3.382e-06	37.334	10.252	5.7487	1.0418	2.4627e-06	2.1947	404.310	145.631	321.855	101.217	115.910	206.192	97.250	104.916	187.718	291.703	102.310	106.109	108.478	111.028	208.717	109.306	-8191	255	
#DATA ENDS
