BOXY.EXE: ISS Imagent and Oximeter Data Acquisition Program Version 0.80
Ascii Record File

#ACQ INFORMATION
2  Detector Channels 
16  External MUX Channels 
1  Auxiliary Channels 
5000  Waveform (CCF) Frequency (Hz)
1  Waveforms Skipped 
30  Waveforms Averaged 
1  Cycles Averaged 
16  Acquisitions per Waveform 
10.0806  Updata Rate (Hz) 

#FILE INFORMATION
TRUE -- External MUX Channel results are PARSED.
FALSE -- AC DC and Phase are NOT grouped.
TRUE -- Companion Program Settings File CREATED.
FALSE -- AC data not excluded
FALSE -- DC data not excluded
FALSE -- Phase data not excluded
FALSE -- Auxillary Chn. data not excluded
Tab delimiters

#CALIBRATION STATE
TRUE -- Waveform Calibration Values APPLIED.


#AUX CALIBRATION VALUES
Val Type	aux-1	

Term	1.0000e+00	
Factor	0.0000e+00	


#WF CALIBRATION VALUES
A = Detector Channel
Val Type	A-AC1	A-AC2	A-AC3	A-AC4	A-AC5	A-AC6	A-AC7	A-AC8	A-AC9	A-AC10	A-AC11	A-AC12	A-AC13	A-AC14	A-AC15	A-AC16	A-DC1	A-DC2	A-DC3	A-DC4	A-DC5	A-DC6	A-DC7	A-DC8	A-DC9	A-DC10	A-DC11	A-DC12	A-DC13	A-DC14	A-DC15	A-DC16	A-Ph1	A-Ph2	A-Ph3	A-Ph4	A-Ph5	A-Ph6	A-Ph7	A-Ph8	A-Ph9	A-Ph10	A-Ph11	A-Ph12	A-Ph13	A-Ph14	A-Ph15	A-Ph16	

Term	0.00000e+00	0.00000e+00	0.00000e+00	0.00000e+00	0.00000e+00	0.00000e+00	0.00000e+00	0.00000e+00	0.00000e+00	0.00000e+00	0.00000e+00	0.00000e+00	0.00000e+00	0.00000e+00	0.00000e+00	0.00000e+00	0.00000e+00	0.00000e+00	0.00000e+00	0.00000e+00	0.00000e+00	0.00000e+00	0.00000e+00	0.00000e+00	0.00000e+00	0.00000e+00	0.00000e+00	0.00000e+00	0.00000e+00	0.00000e+00	0.00000e+00	0.00000e+00	0.00000e+00	0.00000e+00	0.00000e+00	0.00000e+00	0.00000e+00	0.00000e+00	0.00000e+00	0.00000e+00	0.00000e+00	0.00000e+00	0.00000e+00	0.00000e+00	0.00000e+00	0.00000e+00	0.00000e+00	0.00000e+00	
Factor	1.00000e+00	1.00000e+00	1.00000e+00	1.00000e+00	1.00000e+00	1.00000e+00	1.00000e+00	1.00000e+00	1.00000e+00	1.00000e+00	1.00000e+00	1.00000e+00	1.00000e+00	1.00000e+00	1.00000e+00	1.00000e+00	1.00000e+00	1.00000e+00	1.00000e+00	1.00000e+00	1.00000e+00	1.00000e+00	1.00000e+00	1.00000e+00	1.00000e+00	1.00000e+00	1.00000e+00	1.00000e+00	1.00000e+00	1.00000e+00	1.00000e+00	1.00000e+00	X	X	X	X	X	X	X	X	X	X	X	X	X	X	X	X	

B = Detector Channel
Val Type	B-AC1	B-AC2	B-AC3	B-AC4	B-AC5	B-AC6	B-AC7	B-AC8	B-AC9	B-AC10	B-AC11	B-AC12	B-AC13	B-AC14	B-AC15	B-AC16	B-DC1	B-DC2	B-DC3	B-DC4	B-DC5	B-DC6	B-DC7	B-DC8	B-DC9	B-DC10	B-DC11	B-DC12	B-DC13	B-DC14	B-DC15	B-DC16	B-Ph1	B-Ph2	B-Ph3	B-Ph4	B-Ph5	B-Ph6	B-Ph7	B-Ph8	B-Ph9	B-Ph10	B-Ph11	B-Ph12	B-Ph13	B-Ph14	B-Ph15	B-Ph16	

Term	0.00000e+00	0.00000e+00	0.00000e+00	0.00000e+00	0.00000e+00	0.00000e+00	0.00000e+00	0.00000e+00	0.00000e+00	0.00000e+00	0.00000e+00	0.00000e+00	0.00000e+00	0.00000e+00	0.00000e+00	0.00000e+00	0.00000e+00	0.00000e+00	0.00000e+00	0.00000e+00	0.00000e+00	0.00000e+00	0.00000e+00	0.00000e+00	0.00000e+00	0.00000e+00	0.00000e+00	0.00000e+00	0.00000e+00	0.00000e+00	0.00000e+00	0.00000e+00	-2.67937e+02	-1.30297e+02	-1.24741e+02	-1.87822e+02	-6.96048e+01	-6.65855e+01	-1.56226e+02	-1.62015e+02	-6.64801e+01	-6.54146e+01	-1.71993e+02	-1.70449e+02	-1.82921e+02	-1.77447e+02	-7.06104e+01	-1.50185e+02	
Factor	5.08686e-05	1.23101e-04	3.70342e-05	3.47696e-01	1.44184e-06	1.36155e-06	1.51375e-01	4.06272e-02	2.33488e-06	1.39090e-06	7.25516e-02	2.05289e-02	3.17289e-02	6.81532e-03	1.55922e-06	9.51071e-03	2.34709e-05	6.99811e-05	2.09637e-05	1.86283e-01	7.08699e-07	8.53338e-07	7.64441e-02	2.19243e-02	5.51292e-07	8.80824e-07	3.79906e-02	1.07674e-02	1.72504e-02	3.72260e-03	6.45250e-07	5.03074e-03	X	X	X	X	X	X	X	X	X	X	X	X	X	X	X	X	



#DISTANCE SETTINGS
A = Detector Channel
A-1	A-2	A-3	A-4	A-5	A-6	A-7	A-8	A-9	A-10	A-11	A-12	A-13	A-14	A-15	A-16	

2.5000e+00	3.0000e+00	2.5000e+00	3.0000e+00	2.0000e+00	3.0000e+00	1.5000e+00	3.0000e+00	3.0000e+00	3.0000e+00	3.0000e+00	3.0000e+00	3.0000e+00	3.0000e+00	1.5000e+00	3.0000e+00	

B = Detector Channel
B-1	B-2	B-3	B-4	B-5	B-6	B-7	B-8	B-9	B-10	B-11	B-12	B-13	B-14	B-15	B-16	

1.0000e+01	1.0000e+01	1.0000e+01	1.4400e+00	1.0000e+01	1.0000e+01	1.5100e+00	1.9400e+00	1.0000e+01	1.0000e+01	1.9900e+00	2.4900e+00	2.4100e+00	2.9000e+00	1.0000e+01	2.9800e+00	




#DATA BEGINS
time	group	step	mark	flag	A-AC1	A-AC2	A-AC3	A-AC4	A-AC5	A-AC6	A-AC7	A-AC8	A-AC9	A-AC10	A-AC11	A-AC12	A-AC13	A-AC14	A-AC15	A-AC16	A-DC1	A-DC2	A-DC3	A-DC4	A-DC5	A-DC6	A-DC7	A-DC8	A-DC9	A-DC10	A-DC11	A-DC12	A-DC13	A-DC14	A-DC15	A-DC16	A-Ph1	A-Ph2	A-Ph3	A-Ph4	A-Ph5	A-Ph6	A-Ph7	A-Ph8	A-Ph9	A-Ph10	A-Ph11	A-Ph12	A-Ph13	A-Ph14	A-Ph15	A-Ph16	B-AC1	B-AC2	B-AC3	B-AC4	B-AC5	B-AC6	B-AC7	B-AC8	B-AC9	B-AC10	B-AC11	B-AC12	B-AC13	B-AC14	B-AC15	B-AC16	B-DC1	B-DC2	B-DC3	B-DC4	B-DC5	B-DC6	B-DC7	B-DC8	B-DC9	B-DC10	B-DC11	B-DC12	B-DC13	B-DC14	B-DC15	B-DC16	B-Ph1	B-Ph2	B-Ph3	B-Ph4	B-Ph5	B-Ph6	B-Ph7	B-Ph8	B-Ph9	B-Ph10	B-Ph11	B-Ph12	B-Ph13	B-Ph14	B-Ph15	B-Ph16	aux-1	digaux	

1561.359	1	1	0	768	0.16679	0.28815	0.11725	0.18046	0.17116	0.20672	0.12894	0.11979	0.3037	0.12074	0.046379	0.2038	0.14063	0.15013	0.015387	0.088275	-2.8875	-3.35	-2.8229	-3.5396	-3.1083	-3.0833	-3.6875	-2.8937	-3.4521	-3.3083	-2.8625	-3.8667	-2.9604	-3.1292	-3.5771	-3.0042	220.472	41.407	228.703	188.294	178.914	328.618	234.660	270.303	147.525	298.907	320.657	313.177	112.910	-3.154	142.675	36.729	0.00070295	0.0004222	9.0216e-05	848.16	5.9568e-06	3.8391e-06	812.11	250.81	4.8096e-06	4.3978e-06	263.51	95.828	84.584	32.915	3.9028e-06	41.801	0.0019367	0.0048357	0.0014567	847.39	5.0024e-05	6.0731e-05	807.77	252.72	4.0162e-05	6.1924e-05	266.08	96.699	86.022	33.482	4.649e-05	42.428	-3.369	64.657	116.418	-1.011	129.157	105.265	-2.340	3.420	138.751	167.949	0.808	5.047	7.392	11.328	97.935	8.668	-8191	255	
1561.455	1	1	0	0	0.26856	0.18133	0.17462	0.21457	0.21143	0.23144	0.29947	0.089043	0.083426	0.06457	0.30507	0.40357	0.19775	0.26128	0.12326	0.15777	-3.0271	-3.4562	-2.8438	-3.7938	-3.0979	-2.8854	-3.7396	-3.2062	-3.125	-3.65	-2.9813	-3.7625	-3.3333	-3.0687	-3.7125	-3.2521	-3.521	209.524	308.583	187.823	145.009	23.575	245.402	3.836	319.769	2.515	341.043	201.522	68.924	309.601	214.339	212.655	0.00070327	0.00026127	0.00011143	838.36	6.68e-06	3.7758e-06	811.79	252.13	1.0137e-05	3.9705e-06	267.11	97.017	85.373	33.142	6.0552e-06	42.076	0.0020035	0.0049579	0.0015309	847.82	5.1177e-05	6.1426e-05	810.7	253.51	4.0969e-05	6.4287e-05	268.38	97.365	86.634	33.628	4.679e-05	42.621	-5.690	76.550	126.264	-1.242	119.717	139.692	-1.980	3.195	148.806	169.925	0.925	5.180	7.376	11.362	135.553	8.587	-8191	255	
1561.551	1	1	0	0	0.054411	0.061699	0.16283	0.28736	0.19415	0.14814	0.021006	0.15513	0.14823	0.052877	0.066918	0.18191	0.20318	0.16639	0.090535	0.17655	-2.925	-3.7104	-2.9437	-3.65	-3.3417	-2.9333	-3.8063	-3.2542	-3.4271	-3.7104	-2.9646	-3.6188	-3.5458	-3.0396	-3.5792	-3.2313	190.334	290.592	326.927	26.491	192.435	14.269	267.267	308.456	53.598	188.617	239.657	297.018	64.267	14.032	141.481	328.369	0.00065954	0.0006423	0.00012592	840.76	6.07e-06	3.9775e-06	815.49	253.43	6.4132e-06	1.5966e-06	268.08	97.018	85.395	33.135	4.456e-06	42.273	0.0019791	0.0048281	0.0014597	846.18	4.9581e-05	5.8304e-05	813.3	253.9	3.8392e-05	5.9687e-05	268.84	97.655	86.438	33.697	4.4217e-05	42.866	-8.575	48.174	69.700	-0.501	136.920	161.590	-2.219	2.824	127.092	94.428	0.974	5.403	7.620	11.327	131.287	8.362	-8191	255	
1561.648	1	1	0	0	0.15933	0.16622	0.043718	0.1369	0.10197	0.047814	0.22394	0.25666	0.096586	0.25577	0.07563	0.093497	0.15998	0.21365	0.24094	0.26511	-2.8021	-3.6354	-2.8854	-3.3583	-3.3729	-2.8354	-3.7979	-3.4	-2.9125	-3.6042	-3.0417	-3.45	-3.5854	-2.8854	-3.6208	-3.3187	261.206	194.990	67.165	96.745	100.702	110.734	312.440	298.590	169.007	53.546	235.141	282.979	81.954	-2.617	255.022	283.543	0.00073491	0.00050033	0.00017053	842.76	3.0997e-06	3.0856e-06	821.22	254.66	7.3442e-06	5.3499e-06	269.57	97.026	85.404	33.055	5.7381e-06	42.276	0.0018942	0.004702	0.0014336	850.81	4.9255e-05	5.7908e-05	818.39	255.29	3.7922e-05	5.7413e-05	269.8	97.863	86.7	33.656	4.2841e-05	42.744	-8.764	46.576	87.891	-0.002	135.081	118.545	-1.809	3.243	198.872	141.838	1.094	5.479	7.540	11.857	171.593	8.647	-8191	255	
1561.744	1	1	0	0	0.094716	0.11941	0.12513	0.32478	0.12292	0.17794	0.18018	0.068249	0.23158	0.16494	0.051801	0.21672	0.21751	0.084538	0.10258	0.14513	-2.5938	-3.725	-2.9062	-3.3937	-3.4688	-2.8583	-3.6771	-3.425	-2.6688	-3.8104	-3.2083	-3.3208	-3.5604	-3.0687	-3.4	-3.4437	76.057	69.039	-3.439	212.052	41.077	182.364	316.008	229.722	273.886	336.439	38.239	295.705	282.969	39.964	11.896	266.767	0.00062939	0.00052558	6.5034e-05	836.82	2.6067e-06	3.3405e-06	815.49	253.42	8.6292e-06	4.7188e-06	266.92	96.141	84.967	32.854	9.421e-07	41.758	0.0018657	0.0045615	0.0013853	847.03	4.6141e-05	5.6342e-05	810.77	254.18	3.7459e-05	5.7342e-05	267.82	96.841	86.076	33.393	4.3819e-05	42.278	0.081	65.437	96.677	-0.358	131.501	155.521	-1.850	3.734	159.669	160.380	0.971	5.535	7.788	11.348	170.915	8.367	-8191	255	
1561.840	1	1	0	0	0.2371	0.083272	0.14525	0.07872	0.41966	0.34985	0.31836	0.084611	0.10203	0.036561	0.20062	0.14872	0.012863	0.24145	0.1463	0.22543	-2.5563	-3.7542	-3.0583	-3.0938	-3.6021	-2.7854	-3.6833	-3.6229	-2.7333	-3.5521	-3.2417	-3.0271	-3.6979	-2.9958	-3.3104	-3.525	245.643	59.759	127.748	56.047	209.004	80.384	7.328	-1.847	37.495	80.055	-13.041	315.804	180.971	36.028	289.850	-9.978	0.00050674	0.00037743	0.00013955	842.24	5.2403e-06	2.4579e-06	811.57	253.77	6.9312e-06	2.5535e-06	266.19	96.486	85.214	33.11	9.7622e-06	41.908	0.0018846	0.0046546	0.0014102	846.7	4.8214e-05	5.8118e-05	808.97	254.12	3.8703e-05	5.9527e-05	267.79	97.107	86.451	33.601	4.4589e-05	42.473	-5.894	67.277	78.725	-0.709	139.131	131.656	-2.435	3.190	155.969	127.839	0.261	4.674	6.552	10.625	109.785	7.406	-8191	255	
1561.959	1	1	0	0	0.11775	0.076298	0.074135	0.37354	0.20934	0.084417	0.12203	0.079278	0.1141	0.13825	0.10211	0.067602	0.14077	0.14039	0.22139	0.20493	-2.6	-3.6042	-3.2021	-2.9708	-3.625	-2.9917	-3.4083	-3.8125	-2.7562	-3.4354	-3.4979	-2.9313	-3.8417	-3.1792	-3.2687	-3.5708	229.097	213.368	260.339	236.447	230.335	95.723	324.211	15.926	98.967	173.694	206.741	15.162	269.386	118.005	133.796	284.936	0.00057336	0.00035844	5.9156e-05	836.98	3.8372e-06	2.7426e-06	815.3	252.53	7.299e-06	5.1623e-06	267.73	96.904	85.786	33.135	5.071e-06	42.244	0.0019272	0.0046626	0.0014317	847.78	4.7403e-05	5.7664e-05	812.38	254.05	3.7132e-05	5.7857e-05	269.28	97.699	86.818	33.696	4.4026e-05	42.729	5.376	100.286	29.241	-1.468	124.954	91.370	-2.772	2.639	174.911	146.536	0.124	4.639	6.680	10.793	136.441	7.691	-8191	255	
1562.055	1	1	0	0	0.13958	0.11407	0.28526	0.1369	0.059631	0.19139	0.10285	0.077336	0.10001	0.20888	0.038582	0.023104	0.32571	0.10474	0.15964	0.19641	-2.625	-3.4979	-3.3583	-3.1396	-3.5833	-3.0375	-3.2292	-3.7104	-2.7188	-3.5604	-3.5375	-2.8937	-3.6833	-3.2292	-3.0667	-3.6312	34.578	291.036	70.299	289.404	107.915	31.036	318.719	9.366	238.556	306.274	106.599	53.532	330.582	60.970	285.017	77.523	0.00061574	0.00041683	8.2224e-05	841.14	6.3608e-06	4.8714e-06	819.94	254.37	7.3244e-06	5.995e-06	269.53	97.403	86.087	33.245	3.8047e-06	42.373	0.0018958	0.0046848	0.0014032	850.38	4.6972e-05	5.6336e-05	818.12	256.12	3.9045e-05	5.912e-05	271.2	98.647	87.504	33.867	4.5457e-05	43.062	0.080	85.970	20.152	-1.461	116.692	125.451	-2.544	2.919	115.070	154.853	0.424	4.593	6.810	10.695	159.843	7.746	-8191	255	
1562.151	1	1	0	0	0.24814	0.06927	0.21041	0.026516	0.27216	0.11074	0.094355	0.12564	0.21129	0.05101	0.031843	0.18984	0.26209	0.23489	0.30529	0.1479	-2.4562	-3.3979	-3.4813	-2.7812	-3.4354	-3.2188	-3.0917	-3.8625	-2.875	-3.4042	-3.5354	-3.1229	-3.5021	-3.4771	-2.9708	-3.7438	236.932	80.939	195.148	151.945	96.115	187.166	247.127	-9.094	140.041	313.827	268.509	313.693	288.189	254.493	292.825	332.480	0.00072421	0.00018878	0.00012085	846.17	6.2033e-06	6.7822e-06	812.15	255.87	3.6144e-06	6.2192e-06	267.93	96.977	85.928	33.221	6.1045e-06	42.004	0.001925	0.0048064	0.0014271	855.05	4.9606e-05	5.9858e-05	813.46	256.88	3.8571e-05	6.0806e-05	269.89	97.932	87.313	33.842	4.5509e-05	42.638	-8.095	61.832	65.928	-1.094	120.856	124.503	-2.600	2.880	110.613	166.501	0.360	4.908	6.761	10.764	121.759	7.981	-8191	255	
1562.247	1	1	0	0	0.15276	0.16701	0.088471	0.10838	0.0493	0.12206	0.1035	0.23155	0.14782	0.32882	0.094662	0.18822	0.063496	0.13471	0.19774	0.31995	-2.6625	-3.3167	-3.4	-2.9125	-3.5146	-3.425	-2.9729	-3.7687	-2.9667	-3.3083	-3.6979	-3.0396	-3.5312	-3.4313	-2.9146	-3.8104	110.649	166.150	338.064	336.298	64.243	107.537	150.833	260.402	116.177	277.392	72.257	7.969	-0.917	328.508	200.215	268.336	0.00065887	0.00037718	0.00016299	843.58	1.2961e-06	4.8962e-06	815.18	254.9	7.3972e-06	4.1343e-06	270.83	96.844	85.745	33.463	6.55e-06	41.982	0.0019615	0.0047551	0.0014069	850.91	4.857e-05	5.6061e-05	813.79	256.33	3.7567e-05	5.8428e-05	270.8	97.828	87.188	33.843	4.3795e-05	42.733	-8.785	84.961	63.180	-1.381	102.641	121.924	-2.763	2.594	159.167	126.568	0.167	4.593	6.466	10.368	149.004	7.535	-8191	255	
1562.343	1	1	0	0	0.24289	0.076121	0.13777	0.23641	0.33222	0.24208	0.2017	0.11531	0.12398	0.19089	0.1784	0.18018	0.24276	0.068737	0.11826	0.32809	-2.5854	-3.2521	-3.5	-2.8187	-3.4625	-3.3312	-2.9042	-3.6	-3.0854	-3.1167	-3.6042	-3.0042	-3.3729	-3.4167	-2.8979	-3.6396	145.505	-5.332	117.651	213.403	288.374	160.690	302.939	272.834	243.287	31.955	287.407	242.249	239.765	147.629	14.124	297.096	0.00076044	0.00048304	0.00015443	846.6	6.8299e-06	3.2299e-06	817.75	256	6.5917e-06	4.5575e-06	270.23	98.121	86.255	33.388	4.9414e-06	42.57	0.0018465	0.0046174	0.0013336	852.52	4.5131e-05	5.3817e-05	816.62	257.86	3.751e-05	5.758e-05	271.89	98.447	87.78	33.945	4.2651e-05	42.999	5.453	66.936	54.186	-1.967	135.452	96.281	-3.203	2.518	118.674	137.044	0.265	4.556	6.878	10.535	156.787	7.711	-8191	255	
1562.440	1	1	0	0	0.05169	0.0074384	0.19989	0.24388	0.19997	0.13167	0.059622	0.10011	0.25995	0.085616	0.041482	0.21597	0.21323	0.2289	0.098309	0.18566	-2.7604	-2.9792	-3.65	-2.9021	-3.2729	-3.5396	-2.7833	-3.5958	-3.2708	-2.9458	-3.7333	-3.1688	-3.1937	-3.7583	-2.8375	-3.6	42.827	50.004	96.949	153.153	164.078	335.399	264.297	293.667	14.426	176.133	307.747	9.034	226.943	0.120	12.950	176.456	0.00072165	0.00045625	0.0001178	843.11	3.5498e-06	5.1633e-06	825.22	257.85	8.4387e-06	7.0455e-06	273.25	98.043	86.801	33.543	3.9239e-06	42.714	0.0018634	0.0047207	0.0014067	855.83	4.6621e-05	5.6379e-05	821.1	259.04	3.7468e-05	5.8591e-05	274.35	98.923	87.99	34.053	4.4376e-05	43.136	-2.914	82.892	91.402	-1.743	90.681	150.488	-2.685	2.758	139.492	130.809	0.560	4.653	7.105	10.993	100.761	8.187	-8191	255	
1562.536	1	1	0	0	0.039894	0.22525	0.044593	0.075436	0.094452	0.23129	0.19686	0.16384	0.12048	0.17018	0.084242	0.19213	0.27	0.23482	0.084442	0.12233	-3.0625	-2.7604	-3.6167	-2.8688	-3.2125	-3.5687	-3.0354	-3.6333	-3.4646	-2.7646	-3.7542	-3.2479	-3.2833	-3.6958	-2.7792	-3.4896	309.998	83.173	208.835	298.572	89.783	93.779	260.481	265.067	82.230	172.420	26.803	90.763	223.926	5.738	96.431	240.698	0.00066701	0.0003347	8.3178e-05	844.23	1.9475e-06	4.004e-06	819.02	258.05	3.7232e-06	5.6905e-06	272.04	98.037	86.341	33.201	5.8666e-06	42.329	0.0018751	0.0046311	0.0013861	856.85	4.7966e-05	5.5661e-05	817.59	259.21	3.6558e-05	5.7316e-05	272.68	98.458	87.788	33.837	4.3576e-05	42.654	-8.947	82.445	69.206	-1.134	158.814	172.862	-2.326	3.256	149.148	149.322	0.340	4.546	7.193	10.817	151.275	8.045	-8191	255	
1562.656	1	1	0	0	0.25279	0.16485	0.062796	0.060867	0.1209	0.092782	0.25521	0.25065	0.19684	0.16938	0.17999	0.15517	0.43586	0.21898	0.32058	0.11961	-3.1042	-2.9292	-3.5625	-3.1292	-2.8667	-3.6375	-2.9792	-3.5563	-3.4354	-2.8458	-3.8125	-3.4917	-2.9521	-3.7792	-2.875	-3.2917	338.172	204.723	97.754	77.897	277.632	305.326	286.647	283.794	204.199	64.550	3.245	41.272	267.573	-13.315	205.361	270.603	0.00079539	0.00044077	0.00016673	840.35	2.771e-06	3.0083e-06	813.04	257.72	1.0144e-05	4.5701e-06	271.63	98.085	86.728	33.41	4.3367e-06	42.223	0.0018681	0.0046857	0.0013726	852.34	4.7532e-05	5.5906e-05	814.23	259.13	3.7603e-05	5.791e-05	272.79	98.599	88.138	33.979	4.4541e-05	42.758	-12.348	96.059	112.439	-1.409	172.736	102.238	-3.028	2.796	168.603	107.807	0.619	4.772	7.013	10.723	112.270	7.905	-8191	255	
1562.752	1	1	0	0	0.08221	0.22941	0.098905	0.18687	0.14251	0.13974	0.096527	0.22334	0.10521	0.017012	0.040275	0.29265	0.13992	0.14438	0.11438	0.1812	-3.0958	-2.825	-3.5604	-3.275	-3.0396	-3.7104	-3.2167	-3.1479	-3.625	-2.725	-3.6688	-3.3167	-2.9167	-3.7333	-3.0375	-3.2458	268.185	292.264	238.050	54.002	193.019	51.021	162.092	327.308	124.820	248.242	158.653	300.085	304.110	319.444	312.730	323.236	0.00073163	0.00062659	0.00012469	850.82	4.3134e-06	5.1498e-06	818.04	257.96	4.911e-06	4.9633e-06	270.75	97.964	87.037	33.519	5.305e-06	42.664	0.0018962	0.0047892	0.001422	856.55	4.8525e-05	5.6402e-05	818.27	258.89	3.8347e-05	6.0193e-05	272.61	98.932	88.538	34.119	4.4909e-05	43.131	-2.201	82.831	67.775	-1.493	116.368	147.384	-2.578	2.833	142.607	129.507	-0.153	4.651	6.604	10.691	117.974	7.873	-8191	255	
1562.847	1	1	0	0	0.08002	0.090159	0.11372	0.17701	0.18544	0.21861	0.18052	0.16433	0.21201	0.19301	0.089207	0.32156	0.084536	0.25123	0.31254	0.28791	-3.35	-2.8208	-3.4896	-3.6083	-2.9583	-3.775	-3.1583	-3.1479	-3.5396	-3.0042	-3.5208	-3.6458	-2.9708	-3.8	-3.1042	-3.0458	111.461	242.028	334.058	225.485	12.398	60.891	305.989	172.949	253.002	297.524	7.406	233.982	216.024	340.646	196.308	304.173	0.00067748	0.00040981	0.00010033	851.13	2.332e-06	7.2318e-06	826.09	258.8	6.2517e-06	1.3057e-06	274.24	99.113	87.343	33.663	3.9676e-06	42.756	0.0019584	0.0048549	0.0014406	859.19	5.0917e-05	5.951e-05	823.13	260.04	3.8968e-05	6.0316e-05	275.59	99.804	88.739	34.187	4.55e-05	43.327	-0.236	76.442	77.165	-1.184	88.067	147.293	-2.559	2.839	154.975	85.276	0.586	4.904	7.106	10.973	170.196	8.007	-8191	255	
1562.920	1	1	0	0	0.16792	0.16597	0.063541	0.24041	0.1535	0.10856	0.084332	0.17004	0.21745	0.18766	0.028847	0.156	0.2572	0.25675	0.23557	0.27374	-3.2438	-2.8729	-3.2125	-3.4437	-2.5625	-3.4375	-3.3958	-3.1167	-3.6833	-3.0146	-3.2396	-3.7208	-2.9542	-3.6542	-3.2833	-3.0729	47.558	128.670	-3.025	157.006	-4.185	296.835	145.821	-12.341	67.369	320.999	3.347	317.083	119.486	315.326	203.350	287.834	0.00066894	0.00053429	0.00016627	848.71	4.23e-06	4.8329e-06	821.18	257.02	7.9895e-06	1.8563e-06	272.95	98.639	86.795	33.436	8.1421e-06	42.427	0.0019756	0.0048732	0.0014957	856.85	5.0107e-05	5.9485e-05	819.47	258.78	4.0564e-05	6.2527e-05	273.5	99.242	88.442	34.035	4.7017e-05	42.904	1.327	89.423	88.318	-1.278	142.239	129.359	-2.387	3.256	205.161	92.229	0.631	4.415	6.910	10.608	149.798	7.866	-8191	255	
1563.039	1	1	0	0	0.17035	0.13561	0.17647	0.15646	0.13167	0.11751	0.18934	0.18354	0.058731	0.17443	0.13783	0.15348	0.10931	0.040889	0.17343	0.31992	-3.3729	-2.9437	-3.0146	-3.5563	-2.6729	-3.4938	-3.4229	-2.9354	-3.6021	-3.0104	-3	-3.8063	-2.8292	-3.5083	-3.4646	-2.8833	340.870	144.493	319.537	255.265	329.456	-11.033	213.035	14.222	166.346	0.884	20.466	293.792	244.094	133.308	153.220	214.450	0.00070203	0.0001691	5.36e-05	850.62	5.1843e-06	6.5012e-06	815.64	257.74	3.9509e-06	3.473e-06	270.58	98.37	86.59	33.303	6.4967e-06	42.025	0.0020377	0.0051868	0.0015302	860.14	5.2844e-05	6.3453e-05	815.59	258.79	4.1371e-05	6.2924e-05	272.19	98.676	88.053	33.966	4.4729e-05	42.677	7.496	80.379	114.264	-1.477	133.948	138.424	-2.465	2.939	112.477	141.571	0.408	5.014	7.255	11.183	162.404	8.263	-8191	255	
1563.135	1	1	0	0	0.061969	0.098663	0.088176	0.14118	0.16214	0.16264	0.26121	0.13551	0.1375	0.079581	0.097519	0.010635	0.37644	0.1122	0.17072	0.065217	-3.2542	-3.1292	-2.9854	-3.6396	-2.9354	-3.2542	-3.6688	-2.8312	-3.5062	-3.1792	-3.0438	-3.7458	-2.9813	-3.4333	-3.4875	-3.05	24.539	291.950	28.807	115.936	121.782	182.989	116.463	207.265	160.562	22.084	53.402	247.956	270.960	244.341	116.087	190.115	0.00053387	0.00034194	0.00014651	838.08	4.6424e-06	6.2752e-06	817.66	255.02	4.8043e-06	1.1809e-06	267.9	98.008	87.021	33.24	5.9603e-06	42.352	0.0019214	0.0047487	0.0014326	852.14	4.7904e-05	5.656e-05	813.52	257.02	3.6899e-05	5.6527e-05	270.91	98.437	87.729	33.9	4.2487e-05	42.821	-8.329	63.755	82.894	-1.384	172.890	171.505	-2.645	2.673	145.059	66.036	0.547	4.704	7.026	10.735	147.211	7.748	-8191	255	
1563.231	1	1	0	0	0.13824	0.20453	0.22506	0.13568	0.29917	0.10088	0.095998	0.186	0.23654	0.078636	0.23083	0.010808	0.19519	0.1445	0.195	0.025766	-3.175	-3.35	-2.9771	-3.5875	-2.8812	-3.2458	-3.825	-3.1063	-3.5167	-3.4479	-2.9792	-3.7792	-3.0625	-3.2917	-3.6104	-3.0146	73.205	336.533	300.885	245.606	179.272	142.595	32.777	260.997	179.660	-12.505	232.431	337.972	319.277	334.686	109.464	48.500	0.00066319	0.00035019	0.0001534	842.89	7.6223e-06	3.2106e-06	819.5	256.12	6.7491e-06	4.8676e-06	270.73	97.338	86.919	33.441	2.3269e-06	42.61	0.001808	0.0045055	0.0013483	854.32	4.6082e-05	5.4063e-05	816.71	257.08	3.6366e-05	5.6362e-05	271.43	98.513	87.931	34.016	4.1718e-05	43.134	-3.398	59.552	52.518	-1.085	138.032	149.759	-3.079	3.034	159.290	152.637	0.582	4.621	6.797	10.673	96.115	8.094	-8191	255	
1563.328	1	1	0	0	0.13512	0.064638	0.23679	0.18036	0.13283	0.0863	0.080372	0.22262	0.24495	0.2619	0.083763	0.1089	0.048197	0.12054	0.23547	0.02357	-2.9583	-3.4021	-2.7	-3.6396	-3.1104	-2.8729	-3.6396	-2.9917	-3.35	-3.3312	-2.875	-3.5125	-2.9729	-3.0833	-3.6604	-3.0625	58.082	65.835	231.730	336.785	155.498	61.048	312.011	-14.637	290.656	66.892	-1.768	234.758	20.172	265.267	314.519	260.516	0.00070204	0.00022601	7.6989e-05	852.47	4.9864e-06	5.5834e-06	818.27	254.4	2.9212e-06	5.9006e-06	268.99	96.645	85.433	33.382	5.9296e-06	42.129	0.0018627	0.0044821	0.0013734	857.7	4.5578e-05	5.4203e-05	817.08	255.72	3.569e-05	5.5009e-05	269.79	97.52	86.92	33.934	3.9952e-05	42.628	-2.945	62.998	89.822	-0.955	134.277	122.519	-2.913	2.948	168.973	132.980	0.903	5.038	6.801	10.923	173.601	7.926	-8191	255	
1563.448	1	1	0	0	0.15214	0.19998	0.27144	0.11238	0.16375	0.13632	0.36644	0.31427	0.18458	0.21827	0.29317	0.26781	0.29072	0.21485	0.29222	0.13584	-2.7875	-3.3312	-2.95	-3.5146	-3.4208	-2.7771	-3.6333	-2.8896	-3.2188	-3.5563	-2.9396	-3.6167	-3.25	-3.0417	-3.5417	-3.0438	339.047	187.709	33.817	256.901	53.647	44.622	267.673	332.688	123.697	331.289	38.427	275.782	319.458	257.336	151.309	244.769	0.00067747	0.00039223	0.00014995	842.53	5.0648e-06	1.8945e-06	808.9	253.56	6.5263e-06	1.8903e-06	265.91	96.234	85.403	33.365	3.3539e-06	41.754	0.0017543	0.0042143	0.0012989	849.34	4.2631e-05	5.1076e-05	809.21	254.72	3.362e-05	5.1849e-05	266.84	96.829	86.186	33.834	3.7041e-05	42.341	-1.294	29.811	76.024	-1.131	149.876	137.598	-2.479	3.049	179.215	157.382	0.801	5.234	6.665	10.704	185.118	7.618	-8191	255	
1563.520	1	1	0	0	0.10587	0.17981	0.14792	0.21644	0.081389	0.073594	0.18862	0.2541	0.209	0.1501	0.29043	0.23363	0.26213	0.20487	0.11852	0.11204	-2.7292	-3.4688	-2.8958	-3.4083	-3.3688	-2.9521	-3.7917	-3.0625	-3.05	-3.6188	-2.9771	-3.4813	-3.3812	-2.8646	-3.6417	-3.2875	189.200	-7.064	295.225	60.711	324.307	315.046	334.949	256.688	196.239	230.174	267.007	267.256	303.272	-10.994	64.689	116.320	0.00067789	0.00019214	8.3623e-05	840.97	3.5042e-06	2.4761e-06	809.79	254.35	5.9275e-06	5.0893e-06	265.18	96.391	85.112	33.626	4.7037e-06	42.411	0.0016465	0.0038682	0.0011299	846.72	3.9737e-05	4.7917e-05	809.44	254.66	3.1733e-05	4.7019e-05	266.93	96.823	86.302	34.105	3.6506e-05	42.773	-3.428	66.609	102.403	-1.215	156.462	105.668	-2.711	3.014	127.393	100.347	0.275	4.583	6.666	10.772	134.485	7.353	-8191	255	
1563.641	1	1	0	0	0.19991	0.097031	0.281	0.18575	0.20666	0.052769	0.2577	0.04721	0.067378	0.04554	0.20397	0.17035	0.20604	0.25727	0.062682	0.23321	-2.7833	-3.4938	-2.9062	-3.2542	-3.4771	-2.875	-3.7146	-3.2354	-2.8729	-3.5812	-2.9375	-3.5396	-3.3979	-2.9917	-3.4875	-3.3937	84.406	2.438	110.863	256.808	197.230	232.148	330.035	270.260	294.204	342.978	306.198	73.715	83.808	62.702	67.848	301.739	0.00063032	0.00039845	0.0001582	841.8	2.1961e-06	5.2156e-06	811.72	253.09	5.7376e-06	4.0939e-06	268.37	96.823	86.082	33.72	4.8552e-06	42.574	0.0016145	0.0038367	0.001164	847.91	3.9545e-05	4.6295e-05	811.55	254.59	3.2135e-05	4.7561e-05	268.56	97.637	87.158	34.226	3.7299e-05	43.032	-9.852	69.750	87.542	-1.722	118.135	111.271	-2.772	2.741	177.966	148.039	0.234	4.923	7.270	11.043	148.950	7.826	-8191	255	
1563.737	1	1	0	0	0.22736	0.17274	0.098349	0.2436	0.10952	0.24492	0.26772	0.23573	0.087698	0.11076	0.23737	0.16775	0.089433	0.20501	0.22805	0.18078	-2.4375	-3.6521	-2.8917	-3.325	-3.5271	-2.7417	-3.575	-3.2875	-2.9083	-3.5667	-2.9458	-3.2479	-3.5854	-2.9479	-3.5708	-3.4146	231.281	76.728	190.893	327.797	198.413	317.048	311.414	259.595	33.067	194.602	208.317	254.102	172.025	77.006	117.364	223.753	0.00066727	0.00039131	0.00012768	846.69	6.6831e-06	2.9598e-06	817.23	253.1	5.4983e-06	7.1493e-06	266.52	96.182	85.31	33.585	5.3147e-06	42.106	0.0016621	0.0038936	0.0012062	851.49	4.0737e-05	4.7415e-05	815.34	254.09	3.2793e-05	4.7957e-05	267.43	97.007	86.279	34.048	3.5582e-05	42.705	0.618	77.141	81.004	-0.837	157.738	110.479	-2.462	2.713	149.785	125.041	0.512	4.844	6.775	10.717	161.252	7.556	-8191	255	
1563.833	1	1	0	0	0.28755	0.032532	0.23266	0.25882	0.12985	0.17156	0.13653	0.10796	0.18439	0.18883	0.21589	0.056733	0.14069	0.20571	0.10346	0.11453	-2.4792	-3.5333	-2.9938	-3.1646	-3.6042	-2.7938	-3.4458	-3.5687	-2.9271	-3.5417	-3.0958	-2.9958	-3.6271	-3.0438	-3.3021	-3.5812	39.293	10.453	195.686	8.158	23.534	168.154	344.069	304.815	29.709	15.435	-0.317	257.353	151.031	316.825	320.380	123.734	0.00073549	0.0003291	0.00015954	836.28	4.0247e-06	4.1881e-06	808.08	252.83	6.9186e-06	4.0564e-06	261.7	96.028	85.055	33.458	3.4268e-06	42.19	0.0015959	0.0037901	0.0011121	843.84	3.7024e-05	4.4295e-05	803.96	252.49	3.0601e-05	4.6214e-05	264.07	96.285	85.909	33.953	3.6098e-05	42.578	0.959	34.752	33.181	-1.403	168.670	155.335	-2.638	2.633	139.049	142.188	0.348	4.853	6.976	10.685	152.191	7.088	-8191	255	
1563.929	1	1	0	0	0.12522	0.29595	0.23606	0.30131	0.18695	0.20317	0.22728	0.13137	0.13433	0.17712	0.097417	0.18412	0.2531	0.35262	0.034468	0.17524	-2.4646	-3.6312	-3.0583	-3.1083	-3.6729	-2.9813	-3.4333	-3.6208	-2.8083	-3.6312	-3.1667	-2.9938	-3.5792	-3.0563	-3.2021	-3.675	139.630	213.290	266.781	302.561	24.970	189.599	13.935	-12.319	293.520	163.483	236.464	4.303	279.392	38.700	26.732	4.770	0.00055509	0.00070441	0.0001385	838.93	5.9049e-06	2.4554e-06	812.99	252.44	6.3376e-06	4.0189e-06	265.22	95.759	85.348	33.626	2.2531e-06	42.316	0.0016248	0.0038797	0.001132	845.76	3.8536e-05	4.6704e-05	807.85	253.47	3.1564e-05	4.891e-05	266.33	96.667	86.164	34.09	3.5404e-05	42.732	-11.151	70.748	85.790	-1.644	130.448	143.636	-2.517	2.820	183.097	138.093	0.424	4.923	6.771	10.701	110.287	7.776	-8191	255	
1564.048	1	1	0	0	0.16874	0.076247	0.023726	0.14759	0.19324	0.24555	0.11129	0.32343	0.2579	0.12742	0.22281	0.068815	0.1216	0.074294	0.17426	0.24994	-2.3958	-3.4917	-3.0604	-2.875	-3.7167	-3.0396	-3.2792	-3.6937	-2.7542	-3.5271	-3.4104	-2.8937	-3.6688	-3.0833	-2.9333	-3.6854	241.755	19.147	89.023	90.572	238.993	99.881	74.925	328.937	49.529	253.637	12.973	106.288	54.740	318.183	127.875	220.930	0.00069837	0.00060868	0.00019618	842.52	3.9487e-06	2.6986e-06	810.56	251.47	1.0878e-05	4.4378e-06	265.13	96.099	85.178	33.679	6.6361e-06	42.615	0.001618	0.0037867	0.0011046	847.67	3.6643e-05	4.5273e-05	808.23	252.64	3.0655e-05	4.5929e-05	266.47	96.853	86.307	34.268	3.4563e-05	43.056	1.333	69.031	34.335	-1.154	116.040	139.238	-2.809	2.917	138.267	150.297	0.601	4.737	7.195	10.820	157.458	7.870	-8191	255	
1564.144	1	1	0	0	0.16602	0.18002	0.23565	0.12515	0.17112	0.15065	0.16546	0.11478	0.2151	0.048965	0.18675	0.21254	0.20519	0.23005	0.13504	0.07596	-2.3375	-3.375	-3.4521	-2.6375	-3.5208	-3.175	-3.05	-3.7146	-2.6646	-3.2542	-3.6521	-2.9333	-3.6042	-3.3479	-2.8792	-3.7604	273.385	240.261	230.689	302.315	268.989	40.687	305.643	328.748	91.940	324.714	152.570	296.067	305.828	0.652	192.361	264.558	0.00070028	0.00034063	0.00016576	841.34	2.9293e-06	3.5419e-06	813.33	252.03	5.7081e-06	3.5609e-06	267.94	96.202	85.337	33.813	7.6155e-06	42.696	0.0015423	0.0035122	0.0010425	845.21	3.5617e-05	4.2455e-05	811.27	253.18	2.8416e-05	4.501e-05	267.32	96.74	86.127	34.275	3.4866e-05	42.938	0.257	45.068	88.061	-1.007	158.941	139.064	-2.359	2.733	163.676	142.884	0.561	5.113	6.972	10.646	130.484	7.864	-8191	255	
1564.240	1	1	0	0	0.082968	0.2233	0.10775	0.086838	0.08564	0.14132	0.13155	0.062136	0.22103	0.27805	0.26055	0.1029	0.32253	0.095051	0.18818	0.23778	-2.4354	-3.2271	-3.4938	-2.875	-3.5062	-3.1979	-2.9813	-3.7729	-2.8229	-3.2292	-3.6625	-2.9958	-3.4375	-3.4208	-2.8	-3.6354	3.723	271.854	180.885	282.310	289.430	274.485	323.566	195.116	52.453	138.293	19.344	40.480	183.156	279.442	54.228	264.535	0.00064358	0.00028686	6.2275e-06	839.95	3.5776e-06	3.523e-06	803.85	252.33	1.254e-05	3.2234e-06	264.2	95.355	84.19	33.3	3.6253e-06	41.709	0.0015672	0.0035399	0.0010854	845.86	3.7037e-05	4.4676e-05	802.74	253.22	2.9877e-05	4.5383e-05	264.56	95.729	85.509	33.924	3.4745e-05	42.413	-5.995	6.816	111.868	-1.218	104.079	135.492	-3.004	2.546	144.155	134.252	0.069	4.395	7.007	10.554	142.242	7.563	-8191	255	
1564.336	1	1	0	0	0.27374	0.32575	0.25577	0.16187	0.22813	0.030786	0.15307	0.32734	0.075569	0.23916	0.075855	0.25045	0.12125	0.20921	0.14393	0.15264	-2.7313	-3.0417	-3.6771	-2.9646	-3.4646	-3.4125	-3.0271	-3.7271	-2.9729	-3.1458	-3.7417	-2.9583	-3.3625	-3.5667	-2.8896	-3.7875	23.865	284.172	170.522	-10.037	295.089	75.611	-4.181	326.234	205.572	93.390	74.751	73.971	-12.826	-6.672	269.897	81.091	0.00056013	0.00046528	7.8912e-05	841.62	2.2353e-06	4.774e-06	808.52	251.23	6.3083e-06	3.0925e-06	264.83	94.973	84.955	33.679	8.0786e-06	42.202	0.0015353	0.0034757	0.0010734	843.3	3.5806e-05	4.2423e-05	803.9	252.63	2.8854e-05	4.4676e-05	265.32	95.674	85.671	34.117	3.3396e-05	42.775	-9.389	71.497	59.159	-1.516	107.560	154.065	-3.149	2.816	138.704	152.740	0.261	4.562	6.868	10.429	138.433	7.589	-8191	255	
1564.432	1	1	0	0	0.36967	0.097136	0.18354	0.1328	0.057854	0.099942	0.19099	0.14068	0.093711	0.14821	0.029491	0.21498	0.16497	0.23871	0.18484	0.22785	-2.7542	-2.9313	-3.5104	-2.9313	-3.1771	-3.5438	-2.8812	-3.8563	-3.4062	-2.9917	-3.8042	-2.8812	-3.1333	-3.5646	-2.8312	-3.4396	161.466	-1.753	162.220	222.936	240.338	170.338	184.881	267.967	166.664	221.082	138.332	295.087	314.867	332.389	319.056	297.626	0.00059743	0.00044401	0.00013309	838.56	4.3132e-06	3.4028e-06	808.59	252.28	8.9377e-06	2.9095e-06	265.57	94.981	85.081	33.604	5.6157e-06	42.317	0.0014736	0.0036217	0.0010446	844.72	3.6624e-05	4.2957e-05	806.73	252.58	2.866e-05	4.3659e-05	265.71	95.929	86.087	34.16	3.3658e-05	42.899	5.145	43.717	91.611	-1.333	137.946	150.694	-2.661	2.793	148.681	116.979	0.516	4.679	6.757	10.592	138.041	7.552	-8191	255	
1564.529	1	1	0	0	0.071316	0.24875	0.24091	0.18502	0.089953	0.079733	0.28216	0.10143	0.22136	0.079761	0.23167	0.28126	0.13539	0.25411	0.14498	0.086785	-2.85	-2.8063	-3.5792	-2.9021	-2.9688	-3.5042	-2.9479	-3.6333	-3.3646	-3.0062	-3.8125	-3.0854	-3.0667	-3.6813	-2.9188	-3.5125	129.500	339.569	189.501	-13.405	262.127	68.648	341.538	338.081	126.644	85.489	15.125	318.790	287.662	321.906	-1.344	257.632	0.00076614	0.00039154	6.4656e-05	837.09	4.1766e-06	3.5033e-06	810.45	251.52	4.316e-06	3.1695e-06	264.11	95.764	84.32	33.77	4.2565e-06	42.381	0.0014832	0.0035766	0.0010408	844.89	3.4725e-05	4.0756e-05	807.38	252.06	2.8135e-05	4.3041e-05	265.13	96.244	85.728	34.207	3.2008e-05	42.788	-5.575	65.861	106.437	-2.014	142.311	120.036	-3.427	2.612	156.278	183.855	-0.009	4.404	6.859	10.320	126.762	7.706	-8191	255	
1564.625	1	1	0	0	0.15435	0.0868	0.15753	0.079864	0.11412	0.14266	0.25295	0.10723	0.1113	0.11395	0.14972	0.14742	0.1678	0.20029	0.19602	0.20576	-3.0708	-2.6188	-3.5417	-3.2687	-2.9521	-3.625	-2.9979	-3.4146	-3.4125	-2.8208	-3.6521	-3.3708	-3.0417	-3.7583	-2.8	-3.3542	26.021	55.018	151.847	230.382	-6.813	241.003	294.928	55.387	3.441	207.559	-12.234	16.242	-14.604	251.135	75.056	-14.904	0.00070695	0.00020668	0.00015647	838.63	3.8092e-06	3.1171e-06	805.55	249.6	4.5172e-06	3.0647e-06	261.53	94.378	84.199	33.347	3.835e-06	41.935	0.0015105	0.0035721	0.0010467	842.5	3.712e-05	4.2151e-05	801.05	250.81	2.9743e-05	4.6383e-05	262.23	95.111	85.188	33.866	3.3821e-05	42.319	-2.840	53.763	98.731	-1.854	153.100	121.156	-3.260	2.451	117.340	149.875	0.238	4.229	6.619	10.340	151.645	7.551	-8191	255	
1564.744	1	1	0	0	0.25767	0.21296	0.10037	0.076703	0.2182	0.098113	0.22576	0.2478	0.061344	0.21018	0.08898	0.2349	0.34341	0.21733	0.11619	0.18424	-3.3104	-2.825	-3.3646	-3.1521	-2.9917	-3.8979	-3.1958	-3.4042	-3.4437	-2.7396	-3.65	-3.4521	-3.0312	-3.6208	-2.8542	-3.2792	195.839	85.933	222.469	224.808	296.366	9.377	328.898	313.306	173.060	282.864	-3.815	184.264	-13.570	316.847	52.683	320.987	0.00070274	0.00044409	9.2862e-05	832	5.2227e-06	6.4482e-06	800.84	249.45	8.245e-06	4.4254e-06	261.38	94.743	84.444	33.387	5.935e-06	41.889	0.0015295	0.003661	0.0010625	837.87	3.6864e-05	4.2731e-05	799.34	250.53	2.9339e-05	4.4894e-05	262.12	95.372	85.473	33.918	3.4459e-05	42.414	-3.172	80.134	60.256	-1.525	117.369	153.845	-3.155	2.265	160.209	141.661	0.128	4.199	6.589	10.300	140.117	7.618	-8191	255	
1564.817	1	1	0	0	0.085884	0.1261	0.36418	0.035512	0.13526	0.20607	0.11951	0.19557	0.068396	0.098232	0.050292	0.37324	0.040069	0.21779	0.10558	0.28773	-3.3333	-2.7833	-3.2417	-3.3563	-2.9	-3.5312	-3.2375	-3.0875	-3.6104	-2.8417	-3.3438	-3.4083	-2.9062	-3.5729	-3.0854	-3.0354	329.385	191.340	18.385	234.743	276.266	-5.082	319.361	297.138	181.081	1.281	281.017	301.714	119.665	331.864	15.717	223.878	0.00070625	0.00052686	0.00015552	843.85	5.7286e-06	2.7905e-06	805.85	252.42	5.7234e-06	4.3837e-06	262.28	95.305	84.649	33.598	2.5814e-06	42.248	0.0015188	0.0036236	0.0011017	843.11	3.713e-05	4.3206e-05	803.42	252.4	2.9697e-05	4.5324e-05	264.2	95.933	85.749	34.067	3.504e-05	42.623	9.701	108.800	61.889	-2.006	128.872	62.455	-2.925	2.571	165.154	141.475	0.141	4.370	7.119	10.339	109.782	7.367	-8191	255	
1564.913	1	1	0	0	0.077393	0.12683	0.16704	0.13744	0.1544	0.16661	0.21558	0.40775	0.16269	0.14592	0.13492	0.094237	0.3093	0.099231	0.093537	0.034199	-3.2146	-2.675	-3.3875	-3.35	-2.8604	-3.5521	-3.4708	-3.125	-3.6333	-2.9833	-3.5104	-3.5896	-3	-3.3854	-3.4167	-3.025	325.947	103.161	151.096	229.149	221.917	189.768	296.957	326.140	232.578	216.557	216.724	-4.006	54.454	331.791	193.861	151.627	0.00072489	0.00041455	8.4268e-05	839.79	2.8821e-06	1.703e-06	807.43	251.73	7.1336e-06	3.1335e-06	264.54	95.511	85.185	33.706	3.1255e-06	42.192	0.001519	0.0036033	0.0010486	843.14	3.8132e-05	4.4048e-05	807.18	251.91	2.903e-05	4.4744e-05	265.35	96.167	85.872	34.095	3.4529e-05	42.73	-3.461	52.573	91.565	-2.365	141.763	118.258	-3.148	2.546	151.328	128.466	-0.043	4.587	6.769	10.497	155.128	7.459	-8191	255	
1565.009	1	1	0	0	0.31777	0.19581	0.19793	0.022601	0.087563	0.2569	0.24441	0.21203	0.16306	0.12395	0.20926	0.1415	0.19721	0.18932	0.096244	0.22481	-3.3563	-2.9125	-3.1125	-3.7104	-2.8104	-3.4375	-3.4646	-2.9646	-3.6937	-3.1104	-3.1688	-3.7458	-2.9271	-3.6625	-3.3375	-3.0292	118.319	275.094	0.316	29.941	71.108	135.898	276.318	310.706	234.557	15.751	103.223	315.322	269.916	310.633	223.440	322.168	0.00064644	0.00038994	0.00014847	835.58	3.4062e-06	4.0972e-06	801.82	249.58	5.0465e-06	4.7329e-06	260.89	94.838	84.149	33.379	7.034e-06	41.827	0.0015118	0.0036217	0.0010917	843.32	3.7948e-05	4.4004e-05	800.06	251.19	2.9595e-05	4.5906e-05	262.89	95.233	85.413	33.836	3.3053e-05	42.217	-4.090	66.232	72.389	-1.694	128.749	126.805	-3.306	2.395	162.015	180.034	-0.271	4.169	6.583	10.508	144.835	7.521	-8191	255	
1565.128	1	1	0	0	0.14239	0.091194	0.10357	0.077579	0.12432	0.18977	0.13165	0.20021	0.039832	0.094549	0.15929	0.10873	0.11859	0.04462	0.076189	0.24424	-3.1292	-2.9667	-2.8812	-3.7438	-2.8333	-3.3208	-3.5896	-2.9104	-3.625	-3.1271	-3.0771	-3.7188	-3.0604	-3.2	-3.5	-2.8771	124.610	27.458	177.751	1.969	102.007	123.428	157.641	13.759	275.425	158.403	303.227	293.210	2.912	326.589	332.142	-6.975	0.00063746	0.00034383	0.00011423	833.76	2.7811e-06	4.7324e-06	798.37	250.87	5.6582e-06	3.5784e-06	261.35	94.326	84.216	33.165	3.5222e-06	41.719	0.0015119	0.0036228	0.0010519	841.31	3.6801e-05	4.2658e-05	797.4	250.76	2.8854e-05	4.3355e-05	262.36	94.921	85.439	33.826	3.299e-05	42.214	-1.105	109.324	68.624	-1.478	140.734	110.441	-2.831	2.177	150.918	149.897	0.094	4.503	6.769	10.325	144.696	7.203	-8191	255	
1565.224	1	1	0	0	0.042717	0.2648	0.23755	0.1077	0.071761	0.19127	0.14355	0.064961	0.2499	0.2707	0.24046	0.19405	0.21809	0.18596	0.17665	0.30011	-3.0646	-3.225	-2.7271	-3.6354	-2.9083	-3.2375	-3.4583	-2.8521	-3.6917	-3.2979	-3.0563	-3.5021	-2.9542	-3.2521	-3.4875	-2.7625	340.198	294.225	293.682	261.202	323.530	135.265	-12.446	23.899	232.505	16.197	102.407	305.946	78.927	306.891	2.013	270.095	0.00067923	0.00051111	0.00017046	836.37	7.2395e-06	3.9638e-06	804.6	249.68	6.1947e-06	2.1754e-06	263.96	94.749	84.393	33.366	6.7676e-06	41.986	0.0015078	0.0034612	0.0010493	843.05	3.576e-05	4.3833e-05	801.8	251.52	2.796e-05	4.445e-05	263.91	95.706	85.55	33.882	3.3502e-05	42.36	2.882	51.495	77.830	-1.466	142.390	127.798	-3.246	2.468	198.831	145.072	0.320	4.532	6.944	10.641	144.199	7.344	-8191	255	
1565.321	1	1	0	0	0.18181	0.26189	0.09537	0.077004	0.19936	0.13295	0.032152	0.39274	0.17559	0.12092	0.2312	0.10525	0.080429	0.21537	0.10854	0.085097	-3.0458	-3.3854	-2.7062	-3.7771	-2.9771	-3.0333	-3.6875	-3.2125	-3.3771	-3.3646	-2.9917	-3.4813	-3.1792	-3.0854	-3.5	-3.2562	190.617	72.645	202.853	45.740	209.713	244.257	10.980	338.643	1.744	55.133	71.064	32.236	327.943	51.230	198.574	334.132	0.00063537	0.00021944	6.9626e-05	835.07	3.9869e-06	2.5644e-06	808.8	251.41	9.1479e-06	4.1229e-06	263.54	94.699	84.452	33.7	4.2705e-06	41.927	0.0014793	0.0034036	0.0010526	844.87	3.5726e-05	4.2244e-05	807.35	252.05	2.7702e-05	4.1445e-05	264.39	95.634	85.333	34.041	3.1093e-05	42.498	-2.962	93.194	86.921	-1.748	138.310	127.422	-3.215	2.528	134.523	128.157	-0.187	4.165	6.978	10.177	158.415	7.282	-8191	255	
1565.417	1	1	0	0	0.069577	0.25922	0.16035	0.15727	0.14953	0.014139	0.19508	0.054262	0.20058	0.14136	0.12552	0.055497	0.14124	0.30315	0.072806	0.12437	-2.9167	-3.3125	-2.725	-3.5417	-3.0208	-3.1	-3.7708	-3.0875	-3.2375	-3.4375	-3.0396	-3.5438	-3.1875	-3.0521	-3.4667	-3.0938	150.557	263.380	65.870	294.180	127.825	284.194	340.651	23.832	315.973	53.262	168.628	48.831	6.135	265.178	284.924	156.204	0.00072418	0.00059396	0.00013227	841.23	5.1849e-06	4.2475e-06	804.31	251.85	7.8495e-07	5.1305e-06	262.86	94.575	85.005	33.325	2.2095e-06	41.853	0.001504	0.0034423	0.0010516	846.77	3.5872e-05	4.2628e-05	805.44	252.53	2.8166e-05	4.2944e-05	263.81	95.222	85.63	33.934	3.189e-05	42.244	-2.248	82.251	63.130	-1.897	125.300	146.648	-3.204	2.447	135.558	158.256	0.118	4.352	6.313	10.497	187.849	7.281	-8191	255	
1565.513	1	1	0	0	0.18798	0.14427	0.12588	0.23193	0.18223	0.15491	0.17664	0.10119	0.16405	0.26479	0.33163	0.33382	0.22334	0.1495	0.10458	0.11632	-2.7958	-3.575	-2.8	-3.4375	-3.3937	-2.8125	-3.6688	-3.1146	-3.0563	-3.55	-3.0042	-3.5917	-3.5354	-2.8729	-3.5729	-3.0208	30.669	216.828	-6.208	242.609	7.168	108.223	301.493	306.399	212.898	317.753	328.926	228.890	103.203	274.998	224.370	46.446	0.00067152	0.00054162	0.00010099	843.97	3.3646e-06	6.0329e-06	801.62	250.75	9.9872e-06	4.9267e-06	261.19	94.753	84.356	33.413	5.3943e-06	42.045	0.0014934	0.0034802	0.0010704	843.78	3.5611e-05	4.1634e-05	800.66	252.01	2.9e-05	4.2318e-05	263.02	95.388	85.591	34.041	3.2257e-05	42.455	-0.184	56.851	31.045	-2.337	131.492	150.049	-3.167	2.127	162.062	96.139	-0.400	4.373	6.659	10.187	174.809	7.176	-8191	255	
1565.609	1	1	0	0	0.14968	0.070042	0.2563	0.089821	0.14429	0.01224	0.14644	0.19653	0.072496	0.090147	0.21706	0.32013	0.095585	0.18396	0.064282	0.1989	-2.6604	-3.6667	-2.7458	-3.4062	-3.125	-2.7417	-3.8167	-3.35	-2.8083	-3.6	-2.9229	-3.325	-3.5125	-2.8896	-3.5292	-3.3583	221.315	331.827	327.860	-2.413	303.118	50.960	265.984	219.001	205.363	228.834	331.805	263.326	286.235	106.183	290.481	294.503	0.000727	0.00047406	0.00012758	842.15	2.6878e-06	1.936e-06	807.25	252.31	9.1035e-06	2.427e-06	264.55	96.415	86.085	33.71	4.8077e-06	42.544	0.0015029	0.0033786	0.0010183	849.35	3.5011e-05	4.2244e-05	808.28	253.69	2.8756e-05	4.3322e-05	265.7	96.644	86.833	34.302	3.2729e-05	42.897	1.410	46.112	74.359	-1.870	128.074	172.329	-3.132	2.406	144.576	137.847	0.133	4.303	6.618	10.067	115.424	7.128	-8191	255	
1565.730	1	1	0	0	0.17905	0.17379	0.30554	0.05681	0.14469	0.13335	0.065725	0.35017	0.21104	0.20895	0.32378	0.11035	0.10256	0.3015	0.18994	0.023284	-2.5792	-3.5687	-2.9688	-3.2562	-3.4729	-2.875	-3.5292	-3.3833	-2.8917	-3.5521	-3.0062	-3.3979	-3.6833	-2.9875	-3.45	-3.3708	255.647	279.887	162.904	341.204	182.331	295.632	268.881	292.885	90.015	320.428	292.457	5.619	57.505	38.966	245.585	89.397	0.0006486	0.0005481	0.00013638	846.64	4.4792e-06	1.5287e-06	811.75	253.91	6.905e-06	4.7888e-06	266.73	96.287	85.796	34.17	3.4568e-06	42.695	0.001486	0.0034167	0.0010323	849.47	3.4248e-05	4.099e-05	810.33	254.5	2.7259e-05	4.2357e-05	267.54	97.082	86.872	34.51	2.9887e-05	43.129	3.211	95.864	72.112	-1.895	132.947	108.379	-3.077	2.428	140.770	150.509	-0.149	4.681	6.362	10.232	136.195	7.276	-8191	255	
1565.824	1	1	0	0	0.12475	0.07065	0.17084	0.12322	0.18582	0.10596	0.17544	0.19266	0.24163	0.28214	0.25268	0.079996	0.20855	0.13436	0.18336	0.12744	-2.6188	-3.7667	-3.1042	-3.2625	-3.6125	-2.7729	-3.4125	-3.5167	-2.775	-3.5229	-3.2604	-3.1562	-3.5667	-3.15	-3.2521	-3.5354	271.918	282.521	308.029	106.799	335.960	62.986	309.196	312.168	120.102	-5.130	316.213	281.905	2.023	-7.583	334.672	334.643	0.00075584	0.00036727	5.0094e-05	843.96	4.1723e-06	2.9261e-06	818.45	252.99	4.4607e-06	5.0717e-06	266.33	96.138	85.657	33.757	2.9371e-06	42.183	0.0014297	0.0032108	0.00094572	850.69	3.2894e-05	3.8242e-05	812.7	254.62	2.685e-05	4.1215e-05	266.5	96.877	86.729	34.299	3.2312e-05	42.714	-1.303	68.582	54.203	-1.639	127.858	163.863	-3.024	2.305	132.749	172.727	-0.062	4.537	6.511	10.469	130.102	7.543	-8191	255	
1565.920	1	1	0	0	0.16226	0.062617	0.049254	0.086848	0.11651	0.36646	0.055029	0.16015	0.090338	0.17401	0.18308	0.063249	0.15483	0.037264	0.18169	0.16359	-2.3563	-3.4542	-2.9688	-3.0833	-3.7333	-2.8667	-3.2708	-3.6542	-2.7625	-3.5125	-3.1958	-3.1042	-3.7542	-2.9688	-3.1271	-3.5729	165.304	243.006	72.056	238.710	267.359	142.990	314.813	302.551	244.593	90.872	-13.873	151.182	11.054	327.884	309.415	18.796	0.0007192	0.00044852	0.00018326	846.09	4.83e-06	2.4324e-06	813.93	254.21	6.0579e-06	5.6888e-06	263.87	95.609	86.468	33.578	3.5305e-06	42.227	0.0015058	0.0034076	0.0010485	851.12	3.6656e-05	4.3549e-05	807.7	255.25	3.0051e-05	4.4968e-05	265.92	96.824	87.184	34.245	3.4454e-05	42.612	3.673	54.587	74.004	-1.683	141.690	122.661	-2.996	2.573	158.917	116.526	0.157	4.614	6.329	10.657	125.679	7.158	-8191	255	
1566.041	1	1	0	0	0.28987	0.1086	0.35824	0.057056	0.2117	0.23414	0.13014	0.15048	0.097339	0.063398	0.044051	0.13987	0.15621	0.1317	0.20158	0.30245	-2.3937	-3.5042	-3.3021	-2.9938	-3.7208	-3.0938	-3.2042	-3.7562	-2.7479	-3.5333	-3.5042	-3.0479	-3.5917	-2.9188	-3.2146	-3.7667	6.418	207.072	311.704	327.873	136.088	171.204	192.469	315.950	111.438	134.849	244.312	330.554	183.960	139.799	202.662	273.108	0.00072949	0.00036769	0.00016448	846.62	4.1531e-06	3.1064e-06	813.8	254.15	5.1273e-06	4.3577e-06	266.85	96.55	86.594	33.929	5.403e-06	42.391	0.0016117	0.0036644	0.0011045	852.14	3.8048e-05	4.5794e-05	811.77	256.05	3.0637e-05	4.6643e-05	268	97.299	87.447	34.396	3.5303e-05	42.866	4.023	98.104	69.203	-1.586	123.976	126.318	-2.903	2.678	132.388	123.686	0.023	4.709	6.879	10.501	120.151	7.379	-8191	255	
1566.113	1	1	0	0	0.36065	0.16146	0.053615	0.080921	0.027535	0.14379	0.1318	0.27351	0.19152	0.070646	0.26184	0.18524	0.26996	0.10113	0.16192	0.1243	-2.5292	-3.3771	-3.35	-2.9625	-3.7708	-3.1063	-3.1396	-3.7875	-2.8979	-3.2229	-3.4771	-2.9021	-3.5354	-3.2562	-2.8854	-3.7896	180.842	290.160	246.148	215.978	143.466	230.296	148.882	267.287	200.888	220.397	189.229	274.631	271.102	56.775	302.452	24.534	0.00064473	0.00052101	3.4911e-05	849.41	6.3159e-06	4.5076e-06	821.39	255.84	7.8829e-06	6.005e-06	269.11	97.203	87.326	33.877	6.7385e-06	42.638	0.0015981	0.0037064	0.0011468	855.79	3.877e-05	4.4281e-05	817.19	257.36	3.009e-05	4.5766e-05	269.91	97.558	87.845	34.503	3.4556e-05	43.121	0.066	73.451	78.011	-1.663	140.793	106.096	-2.721	2.941	137.402	117.322	0.063	4.798	6.634	10.604	171.321	7.202	-8191	255	
1566.209	1	1	0	0	0.20242	0.088678	0.095518	0.088039	0.10554	0.32576	0.27041	0.1101	0.22487	0.099568	0.26153	0.1983	0.18375	0.20437	0.17599	0.073395	-2.4813	-3.2146	-3.4979	-2.9208	-3.5083	-3.2354	-3.1167	-3.8563	-2.9417	-3.2021	-3.5667	-3.0854	-3.4938	-3.3792	-2.9104	-3.8021	284.112	288.997	261.369	7.375	-1.040	261.631	336.290	173.583	281.369	101.888	314.567	296.715	319.155	326.719	88.493	43.243	0.00066017	0.00059415	0.00010202	851.33	3.2819e-06	6.0429e-06	822.9	256.97	6.865e-06	3.9604e-06	268.04	96.414	86.483	33.84	5.3697e-06	42.461	0.001614	0.0037239	0.001115	857.3	3.8661e-05	4.5353e-05	820.11	257.83	3.079e-05	4.7774e-05	269.09	97.229	87.501	34.361	3.5068e-05	42.766	-5.241	68.292	85.779	-1.346	105.616	125.048	-2.605	2.750	177.344	92.524	0.265	4.750	6.866	10.435	130.851	7.592	-8191	255	
1566.305	1	1	0	0	0.059211	0.062244	0.228	0.11395	0.15902	0.23036	0.17673	0.18631	0.2138	0.16501	0.051571	0.17756	0.12183	0.18264	0.1535	0.30884	-2.5208	-3.0687	-3.6854	-2.7875	-3.3208	-3.4	-2.9104	-3.7604	-3.025	-2.9229	-3.5375	-2.9917	-3.3958	-3.5146	-2.8229	-3.6333	137.530	343.129	241.132	19.038	111.463	206.737	162.741	327.352	288.736	14.013	116.774	240.133	12.235	242.799	189.702	-14.053	0.0006651	0.00028004	0.00016599	848.94	7.4897e-06	1.5865e-06	811.32	254.73	8.0128e-06	4.7218e-06	266.95	95.711	86.027	33.677	4.2605e-06	42.197	0.0015804	0.0036266	0.0010925	853.23	3.7216e-05	4.4182e-05	808.98	256.28	2.9171e-05	4.4704e-05	267.38	96.197	87.004	34.253	3.3249e-05	42.544	-3.617	72.591	48.153	-1.394	104.931	123.437	-2.502	2.887	142.887	112.820	0.511	4.608	6.900	10.670	133.204	7.521	-8191	255	
1566.425	1	1	0	0	0.2404	0.052451	0.20022	0.16307	0.028494	0.061711	0.1859	0.14584	0.38885	0.22595	0.17438	0.16247	0.037349	0.12914	0.23078	0.046387	-2.9104	-2.75	-3.7	-3.0563	-3.2771	-3.6708	-3.0083	-3.7062	-3.1542	-2.975	-3.7146	-2.9729	-3.1292	-3.6833	-2.6437	-3.5354	298.732	218.022	270.509	67.652	2.571	2.365	11.187	281.415	340.568	217.622	343.844	341.924	117.428	156.455	58.810	40.056	0.00071905	0.00038103	0.0001276	842.91	3.8436e-06	5.0515e-06	810.85	254.33	3.401e-06	3.0395e-06	266.69	95.725	86.192	33.745	2.3786e-06	42.19	0.0014802	0.0034905	0.0010233	847.88	3.5364e-05	4.2254e-05	808.86	255.34	2.7597e-05	4.3302e-05	266.91	96.467	87.099	34.309	3.2049e-05	42.598	-14.054	55.493	67.354	-1.032	135.631	159.897	-2.715	2.898	185.735	159.027	0.333	4.644	6.887	10.950	136.394	7.344	-8191	255	
1566.522	1	1	0	0	0.2294	0.17143	0.12638	0.11885	0.040358	0.095993	0.23661	0.065097	0.1626	0.055359	0.079899	0.1924	0.050102	0.25458	0.24827	0.12677	-2.8875	-2.8729	-3.3792	-2.8375	-3.0667	-3.6188	-2.875	-3.5396	-3.3396	-2.8833	-3.7958	-2.9437	-3.0542	-3.7542	-2.8542	-3.325	194.260	235.050	129.575	204.590	146.511	-14.868	323.012	321.183	257.303	241.829	58.336	322.849	61.969	338.443	231.938	241.795	0.00068119	0.00039407	0.00015299	847.85	2.7345e-06	2.2787e-06	813.94	253.74	5.6858e-06	5.5206e-06	266.24	95.761	85.877	33.65	3.3913e-06	42.364	0.001454	0.0034206	0.00095813	851	3.4889e-05	4.0203e-05	811.05	255.3	2.7314e-05	4.1641e-05	267.22	96.527	86.772	34.298	3.027e-05	42.842	-0.376	67.040	70.814	-1.445	131.109	96.996	-2.727	2.728	134.133	160.445	0.390	4.978	7.201	10.866	146.998	7.683	-8191	255	
1566.618	1	1	0	0	0.11111	0.22778	0.013723	0.13831	0.13843	0.23691	0.161	0.16511	0.10134	0.19002	0.1843	0.17683	0.1366	0.26069	0.061701	0.26786	-3.1521	-2.8771	-3.4958	-3.2521	-2.9708	-3.6042	-2.9813	-3.4562	-3.5792	-2.9042	-3.5292	-3.1646	-2.9521	-3.7208	-2.9083	-3.3042	84.940	76.311	200.877	272.076	157.285	8.306	188.101	186.505	247.623	114.431	305.855	95.540	302.116	331.406	118.454	329.976	0.00069385	0.00026916	0.00014066	838.92	4.946e-06	4.6747e-06	816.44	254.54	7.5825e-06	2.7602e-06	266.56	95.807	86.162	33.878	3.1544e-06	42.488	0.0013667	0.003205	0.0009172	847.45	3.2379e-05	3.794e-05	811.66	255.24	2.6032e-05	3.882e-05	267.53	96.459	87.081	34.414	3.1471e-05	42.861	-7.084	47.518	63.110	-1.267	147.534	123.401	-2.768	2.761	164.148	144.186	0.290	4.671	6.497	10.875	131.301	7.930	-8191	255	
1566.689	1	1	0	0	0.26145	0.09484	0.18393	0.16853	0.03778	0.084069	0.47438	0.16346	0.028504	0.14266	0.19859	0.33201	0.079906	0.20097	0.061232	0.067154	-3.1729	-2.7729	-3.4458	-3.3896	-2.8896	-3.6646	-2.9938	-3.2188	-3.5667	-2.8542	-3.6354	-3.3375	-2.7917	-3.7854	-2.9417	-3.0771	155.392	238.744	314.190	70.103	216.876	341.633	286.912	301.823	222.307	6.521	163.097	285.767	165.938	22.192	64.946	295.339	0.00069086	0.00022582	7.5898e-05	841.77	3.5621e-06	5.3884e-06	806.99	254.37	1.1e-05	3.4653e-06	264.27	94.913	85.442	33.68	4.3055e-06	41.755	0.0014241	0.0033951	0.00096341	850.58	3.4496e-05	3.8247e-05	807.49	255.4	2.6794e-05	4.1109e-05	265.67	95.565	86.51	34.146	3.0743e-05	42.278	-2.092	34.051	69.226	-1.114	150.941	151.214	-3.008	2.691	136.480	158.027	0.509	4.853	6.875	10.690	138.471	7.816	-8191	255	
1566.810	1	1	0	0	0.086451	0.086458	0.21622	0.094567	0.18992	0.1671	0.29567	0.12964	0.20516	0.11513	0.096975	0.057719	0.060058	0.21979	0.37241	0.32322	-3.1125	-2.8104	-3.4292	-3.2604	-2.9479	-3.6292	-3.2896	-2.9604	-3.4521	-2.9021	-3.5292	-3.6333	-3	-3.6917	-3.0438	-3.1958	244.476	205.448	320.152	304.564	207.920	319.510	293.981	290.623	195.383	57.997	314.315	315.990	229.473	279.391	89.236	311.140	0.00069419	0.00039756	0.00012284	843.73	4.5629e-06	4.6751e-06	805.14	255.26	6.8882e-06	2.4503e-06	264.28	95.488	85.589	33.671	5.4023e-06	41.977	0.0013775	0.0031435	0.00092852	846.94	3.1432e-05	3.7044e-05	804.65	254.85	2.517e-05	3.7479e-05	265.45	95.805	86.239	34.155	2.7941e-05	42.383	-2.763	63.589	51.672	-1.594	154.635	123.099	-2.742	3.029	156.372	115.832	0.195	4.577	6.816	10.751	131.610	7.642	-8191	255	
1566.904	1	1	0	0	0.15907	0.1476	0.13898	0.14757	0.20457	0.051281	0.054716	0.39305	0.17098	0.083548	0.16497	0.060657	0.20326	0.071669	0.10267	0.10855	-3.3396	-2.8271	-3.2271	-3.4771	-2.7896	-3.5417	-3.3042	-2.9542	-3.6125	-2.8208	-3.2167	-3.6208	-2.7375	-3.6604	-3.2062	-2.9333	6.599	259.865	300.816	185.196	50.263	205.573	250.423	288.837	79.614	239.260	292.522	3.437	241.550	120.063	220.018	137.594	0.00069639	0.00031754	6.8944e-05	850.53	3.8824e-06	3.27e-06	811.11	254.74	4.561e-06	3.2489e-06	266.09	95.508	85.379	33.87	6.0865e-06	42.173	0.0012688	0.0029688	0.00086632	852.28	3.0152e-05	3.5943e-05	807.97	255.2	2.421e-05	3.6429e-05	266.05	96.027	86.407	34.237	2.8216e-05	42.647	0.533	62.551	103.426	-1.263	152.248	140.010	-2.816	2.731	129.306	154.813	0.475	4.741	7.036	10.643	111.218	7.756	-8191	255	
1567.002	1	1	0	0	0.12168	0.13249	0.10951	0.14031	0.22943	0.18222	0.14232	0.23808	0.051352	0.20099	0.1492	0.27199	0.07321	0.23817	0.16486	0.18708	-3.3312	-2.8042	-3.2042	-3.6208	-2.7542	-3.5125	-3.3104	-2.9229	-3.5438	-3.0375	-3.1875	-3.6646	-2.8833	-3.3521	-3.4854	-2.9083	115.719	165.994	302.992	286.510	304.403	334.952	298.604	341.639	70.519	343.844	5.348	66.397	308.092	332.710	156.113	319.151	0.00064872	0.00058627	6.7105e-05	850.93	4.2344e-06	2.1918e-06	817.96	254.04	6.3522e-06	4.0809e-06	266.19	95.951	86.325	33.936	7.7016e-07	42.484	0.0012822	0.0028956	0.00087663	849.04	2.9736e-05	3.4166e-05	813.41	254.91	2.3394e-05	3.6002e-05	267.06	96.621	86.892	34.367	2.6927e-05	42.676	-6.378	74.279	64.218	-1.597	137.747	94.616	-2.796	2.962	153.269	124.539	0.216	4.700	7.117	10.728	172.738	7.517	-8191	255	
1567.121	1	1	0	0	0.12943	0.34128	0.18894	0.076284	0.18077	0.17671	0.14925	0.1657	0.1673	0.068791	0.16594	0.32992	0.39596	0.1813	0.22487	0.13518	-3.3042	-3.0208	-2.9542	-3.6875	-2.8187	-3.2938	-3.4771	-2.9458	-3.5354	-3.2229	-2.9125	-3.6	-2.8688	-3.5	-3.4625	-2.7938	22.371	3.255	338.301	152.483	304.782	109.563	338.833	38.998	9.941	162.704	300.219	288.826	324.915	319.770	197.683	323.840	0.00065699	0.00029138	0.00011935	843.65	2.4323e-06	4.7517e-06	808.65	253.7	4.6443e-06	2.8581e-06	264.61	95.016	85.269	33.445	6.8461e-06	41.738	0.0012905	0.0028503	0.0008751	849.05	2.9752e-05	3.6046e-05	806.68	253.91	2.3228e-05	3.6795e-05	264.54	95.345	86.228	34.015	2.8353e-05	42.097	3.994	102.039	41.093	-1.538	157.118	123.522	-2.787	2.574	160.235	139.055	0.564	4.680	6.502	10.669	142.757	7.604	-8191	255	
1567.217	1	1	0	0	0.16089	0.085496	0.14322	0.087532	0.049111	0.050553	0.040061	0.07391	0.087554	0.15726	0.055366	0.27693	0.27603	0.12929	0.1638	0.15433	-3.1437	-3.1021	-2.9396	-3.7125	-2.9479	-3.0646	-3.5896	-2.9625	-3.5042	-3.3125	-3.1354	-3.7208	-2.9542	-3.0938	-3.3583	-2.7917	52.394	-15.514	0.592	83.486	94.149	286.644	289.098	-11.430	273.060	60.937	130.480	245.948	123.391	27.872	180.466	289.900	0.00068345	0.00038479	0.00014757	836.95	3.2361e-06	4.1214e-06	802.86	252.67	3.5924e-06	4.5539e-06	262.88	95.52	85.086	33.662	5.7503e-06	41.897	0.0012863	0.0028883	0.00084204	844.06	2.9144e-05	3.3673e-05	801.79	253.4	2.3014e-05	3.4433e-05	264.16	95.721	86.179	34.126	2.65e-05	42.186	-9.048	96.780	63.299	-1.343	151.907	147.555	-3.043	2.417	156.234	126.116	-0.234	4.448	6.907	10.504	128.908	7.219	-8191	255	
1567.314	1	1	0	0	0.2497	0.20546	0.10154	0.24366	0.2448	0.17517	0.11981	0.23866	0.016584	0.24227	0.12952	0.31573	0.11872	0.40249	0.15538	0.14561	-3.0438	-3.225	-2.8042	-3.6771	-3.0042	-3.2188	-3.8896	-2.8312	-3.425	-3.475	-2.9729	-3.6063	-3.1979	-2.9958	-3.6813	-2.9333	211.157	259.980	60.730	65.604	198.774	135.958	89.547	326.500	289.031	320.651	67.694	311.688	337.277	325.174	308.899	98.887	0.00065277	0.00066468	0.00010257	845.53	5.3627e-06	3.6522e-06	807.92	253.69	6.3157e-06	3.4249e-06	264	95.344	86.036	33.776	2.3535e-06	42.112	0.0012626	0.0028414	0.00085409	848.66	2.8547e-05	3.4395e-05	805.96	253.92	2.319e-05	3.5167e-05	265.49	95.882	86.563	34.158	2.7172e-05	42.535	-1.218	56.445	66.883	-1.695	143.226	108.631	-2.856	2.645	176.198	123.592	0.009	4.536	6.980	10.537	111.520	7.402	-8191	255	
1567.410	1	1	0	0	0.36049	0.14753	0.049831	0.3967	0.096273	0.053637	0.19194	0.22019	0.047617	0.14602	0.26124	0.11202	0.089015	0.20423	0.25775	0.17727	-2.8583	-3.3667	-2.7583	-3.5333	-3.2021	-3.0333	-3.7958	-2.9583	-3.2396	-3.5187	-2.8604	-3.6479	-3.2521	-2.8667	-3.3917	-3.125	193.126	254.955	95.651	-11.246	179.176	25.194	13.791	272.661	275.509	94.245	268.524	-5.802	337.875	330.774	257.893	252.986	0.0006603	0.00023116	0.00014524	852.02	5.3197e-06	3.6564e-06	815.95	252.41	2.6873e-06	4.0806e-06	264.97	95.922	85.74	33.781	3.6898e-06	42.033	0.0012783	0.0028192	0.0008675	851.34	2.827e-05	3.5131e-05	812.08	254	2.3138e-05	3.455e-05	266.06	96.394	86.45	34.219	2.6778e-05	42.538	2.282	64.469	98.149	-1.614	123.312	132.273	-3.219	2.476	100.183	138.076	0.305	4.728	6.509	10.915	128.634	7.501	-8191	255	
1567.506	1	1	0	0	0.13532	0.022367	0.20537	0.15233	0.33032	0.18069	0.13265	0.21211	0.16226	0.26089	0.14674	0.20918	0.093076	0.28521	0.33495	0.082254	-2.6813	-3.4062	-2.7833	-3.4417	-3.2562	-2.8479	-3.8917	-3.0021	-3.1042	-3.6104	-2.9417	-3.4	-3.2708	-3.0375	-3.7396	-3.2333	101.828	188.625	109.364	290.076	31.142	-1.934	194.365	338.627	340.914	288.381	305.715	321.613	116.446	340.512	138.106	162.321	0.00070685	0.00051376	0.00015717	848.36	3.8068e-06	2.0959e-06	808.48	251.68	4.9689e-06	3.1489e-06	263.93	95.354	84.811	33.585	5.242e-06	41.514	0.0012684	0.002729	0.00083269	847.23	2.8299e-05	3.4624e-05	804.87	252.63	2.2605e-05	3.4301e-05	263.53	95.413	85.838	34.018	2.649e-05	41.95	-0.367	48.010	59.074	-1.599	127.222	147.698	-3.254	2.512	170.899	153.778	0.018	4.563	6.610	10.638	153.338	7.316	-8191	255	
1567.602	1	1	0	0	0.14112	0.10655	0.18659	0.30463	0.10088	0.20834	0.1492	0.10514	0.068877	0.23557	0.10006	0.3968	0.1749	0.19652	0.1429	0.33131	-2.5812	-3.75	-2.7958	-3.4042	-3.35	-2.8167	-3.7938	-3.1667	-3.0646	-3.5875	-3.0854	-3.3479	-3.6562	-2.875	-3.4583	-3.2687	64.337	23.845	82.052	282.698	335.864	40.854	271.238	338.464	175.164	42.739	50.956	312.208	146.070	3.073	310.994	314.302	0.00070869	0.00029016	0.00011508	840.21	4.3105e-06	4.7183e-06	806.71	252.51	5.2268e-06	3.8044e-06	264.2	94.787	85.942	33.516	5.8996e-06	41.667	0.0012898	0.0027196	0.00086348	844.57	2.9029e-05	3.5126e-05	802.98	253.57	2.4599e-05	3.5716e-05	264.38	95.292	86.486	34.076	2.6401e-05	42.126	-5.505	59.917	63.606	-1.674	124.022	136.885	-2.849	2.668	150.096	133.489	0.142	4.529	7.060	10.703	156.461	7.259	-8191	255	
1567.723	1	1	0	0	0.10361	0.051378	0.25184	0.15632	0.078699	0.22738	0.20789	0.06279	0.09906	0.10342	0.28531	0.33865	0.23359	0.1653	0.14657	0.17689	-2.6583	-3.5417	-2.8729	-3.2104	-3.4458	-2.8792	-3.6021	-3.2833	-2.95	-3.6188	-2.9146	-3.3583	-3.5896	-2.8896	-3.375	-3.4104	37.480	-12.644	-1.178	321.588	283.811	276.421	340.290	225.294	199.539	16.105	267.151	265.504	238.120	10.113	290.420	266.394	0.00066415	0.00042716	7.6426e-05	843.66	3.5103e-06	5.2164e-06	810.11	252.41	8.6833e-06	7.1101e-06	263.73	95.543	85.542	33.563	4.0619e-06	41.797	0.001301	0.0027594	0.00084977	848.52	2.9066e-05	3.4493e-05	806.34	253.42	2.3129e-05	3.5095e-05	264.64	95.413	86.346	34.132	2.6517e-05	42.274	1.058	49.766	73.496	-2.020	91.937	125.581	-3.176	2.651	110.555	132.656	0.469	4.913	6.901	10.764	133.045	7.688	-8191	255	
1567.817	1	1	0	0	0.27948	0.10694	0.17285	0.058718	0.1331	0.21525	0.3967	0.26339	0.22159	0.089679	0.26571	0.12177	0.059414	0.29971	0.21282	0.24764	-2.5021	-3.6688	-3.0833	-3.0417	-3.3667	-2.7833	-3.4354	-3.6125	-2.825	-3.7667	-3.2083	-3.0167	-3.6792	-2.6583	-3.3063	-3.3979	193.953	202.856	-1.330	177.544	137.702	269.546	304.824	268.880	-1.486	250.688	274.009	311.205	337.465	31.539	291.960	237.889	0.00063258	0.00039127	0.00010581	853.34	3.4448e-06	5.6403e-06	815	254.14	6.8825e-06	5.0236e-06	267.11	96.073	85.445	33.687	4.0271e-06	42.242	0.0012674	0.002808	0.00085663	852.39	2.8779e-05	3.4494e-05	812.49	254.52	2.3764e-05	3.4266e-05	266.45	96.263	86.618	34.248	2.6966e-05	42.615	-3.429	65.918	73.545	-1.128	116.171	123.073	-2.685	3.058	116.451	139.846	0.385	4.466	6.828	10.472	127.601	7.392	-8191	255	
1567.913	1	1	0	0	0.13433	0.035928	0.11817	0.30636	0.046439	0.1295	0.12574	0.047921	0.12868	0.071433	0.17488	0.27751	0.18418	0.055339	0.30018	0.074865	-2.4875	-3.3979	-3.2062	-2.9521	-3.5917	-3.0292	-3.3937	-3.675	-2.7208	-3.6083	-3.1688	-2.9667	-3.5146	-3.1188	-3.1229	-3.4562	109.226	311.667	-9.696	12.209	75.690	53.180	287.563	206.167	271.796	235.963	57.305	10.335	198.519	276.833	316.931	13.245	0.00069575	0.0002238	0.00015054	846.92	6.38e-06	5.5936e-06	813.44	252.38	8.3902e-06	4.8711e-06	262.99	94.378	85.335	33.479	6.4904e-06	41.463	0.0012698	0.0028132	0.00083977	852.17	2.7802e-05	3.3056e-05	806.93	252.78	2.2883e-05	3.3279e-05	263.35	94.935	86.018	33.902	2.6634e-05	41.872	3.358	88.076	80.519	-1.736	137.673	146.297	-2.775	2.688	140.343	135.444	0.232	4.692	7.256	10.872	133.691	7.414	-8191	255	
1567.987	1	1	0	0	0.24323	0.089057	0.14647	0.098894	0.21663	0.0098588	0.15381	0.2501	0.23454	0.1293	0.15816	0.077155	0.065071	0.23836	0.12372	0.15015	-2.3979	-3.5062	-3.4083	-2.8542	-3.6333	-2.975	-3.2208	-3.5667	-2.6708	-3.2646	-3.3125	-2.7313	-3.8896	-3.1542	-3.1792	-3.8542	3.503	207.630	223.570	54.014	58.889	132.258	274.136	226.623	243.425	191.452	131.503	330.649	269.907	169.133	67.718	-1.480	0.00067815	0.00024778	0.00012187	839.92	4.3421e-06	3.5332e-06	802.36	252.33	6.9313e-06	2.9335e-06	262.86	93.711	85.077	33.346	4.8979e-06	41.149	0.0012716	0.0027523	0.00081282	843.93	2.7529e-05	3.4157e-05	800.2	252.52	2.2286e-05	3.3783e-05	262.11	94.287	85.519	33.809	2.5806e-05	41.587	-7.515	75.464	85.708	-1.539	135.881	136.567	-2.933	2.974	126.901	177.626	0.120	4.623	7.145	10.757	118.765	7.464	-8191	255	
1568.083	1	1	0	0	0.14941	0.014574	0.089537	0.24151	0.20813	0.19081	0.21545	0.22722	0.096229	0.0089903	0.099576	0.22305	0.12847	0.055559	0.24324	0.20778	-2.4271	-3.375	-3.4646	-2.7292	-3.5146	-2.9458	-3.0979	-3.725	-2.7917	-3.1083	-3.55	-2.6792	-3.4417	-3.3146	-2.7958	-3.5354	153.788	15.430	329.015	330.354	89.767	203.855	280.379	292.226	319.911	341.798	85.037	-7.953	85.118	-12.217	229.518	177.768	0.0006071	0.0003314	9.5038e-05	847.16	5.0683e-06	4.6703e-06	807.91	253.02	7.7247e-06	2.9325e-06	261.87	94.214	84.823	33.417	2.5567e-06	41.294	0.0012206	0.0027717	0.00080474	843.96	2.6635e-05	3.2658e-05	803.43	252.89	2.2815e-05	3.4525e-05	262.68	94.447	85.757	33.903	2.5579e-05	41.755	-4.530	68.046	90.602	-1.551	104.867	141.177	-2.714	2.672	151.642	120.105	-0.021	4.595	7.066	10.465	142.407	7.211	-8191	255	
1568.202	1	1	0	0	0.18638	0.086637	0.26527	0.18302	0.11987	0.054343	0.25072	0.12905	0.066657	0.16093	0.048335	0.4112	0.24919	0.14056	0.12855	0.066913	-2.5229	-3.175	-3.3083	-2.925	-3.35	-3.2646	-2.9354	-3.7646	-2.9667	-3.0521	-3.5938	-2.7917	-3.4896	-3.3187	-2.7333	-3.6625	332.731	126.137	93.573	224.378	11.562	103.975	2.200	332.436	41.608	312.338	255.468	340.105	336.507	214.396	-9.837	292.255	0.00075206	0.00025722	9.8623e-05	838.96	3.1969e-06	4.497e-06	810.94	251.77	6.8544e-06	5.6836e-06	262.94	93.982	84.495	33.225	6.6274e-06	41.535	0.0012514	0.0028036	0.00081566	845.88	2.885e-05	3.3462e-05	807.04	253.01	2.3441e-05	3.5108e-05	263.58	94.696	85.658	33.822	2.6033e-05	41.964	-5.187	67.567	75.557	-2.104	141.828	123.926	-2.938	2.518	138.277	134.939	-0.472	4.379	6.394	10.036	157.736	6.947	-8191	255	
1568.298	1	1	0	0	0.20202	0.089722	0.10702	0.096892	0.26257	0.2408	0.080681	0.090752	0.146	0.30042	0.11958	0.23426	0.20489	0.1491	0.077411	0.09176	-2.6063	-2.9917	-3.5187	-2.8521	-3.3354	-3.4104	-2.8271	-3.6521	-3.0292	-3.125	-3.6562	-2.8896	-3.4062	-3.4917	-2.7458	-3.6125	273.588	231.888	39.847	30.030	14.387	239.957	321.456	46.257	36.790	274.094	72.903	261.950	313.902	270.070	242.377	338.890	0.00067414	0.00048437	0.00014792	840.73	4.2401e-06	5.3456e-06	808.56	251.62	4.7476e-06	3.7245e-06	262.63	93.05	84.17	32.91	6.7526e-06	40.892	0.0012101	0.0027023	0.00077937	845.11	2.6767e-05	3.1527e-05	804.29	251.99	2.1663e-05	3.2275e-05	262.44	93.686	85.082	33.526	2.5391e-05	41.402	1.860	51.466	73.194	-1.333	147.033	134.449	-3.222	2.515	139.983	122.278	-0.208	4.253	6.511	9.985	130.583	7.192	-8191	255	
1568.394	1	1	0	0	0.30608	0.091843	0.083952	0.10303	0.1406	0.1449	0.041984	0.20868	0.18945	0.10343	0.36449	0.26629	0.083615	0.099153	0.22071	0.24849	-2.8292	-2.725	-3.6813	-2.9708	-3.2667	-3.4667	-2.8083	-3.6667	-3.1271	-2.8479	-3.6958	-2.875	-3.1479	-3.625	-2.7583	-3.5729	107.202	6.492	2.303	322.707	265.214	65.779	250.338	328.075	329.229	225.222	-10.195	20.583	15.633	261.529	57.213	186.106	0.00062494	0.00016244	5.6077e-05	844.45	3.5227e-06	4.3276e-06	796	248.93	5.6434e-06	4.7742e-06	261.16	92.177	83.679	32.841	6.6199e-06	40.623	0.0011841	0.002754	0.00080068	843.38	2.6356e-05	3.111e-05	793.59	249.97	2.127e-05	3.2873e-05	259.62	92.722	84.332	33.327	2.4608e-05	41.049	0.355	17.590	65.392	-2.019	130.622	116.638	-3.346	2.556	148.944	128.755	-0.204	4.197	6.751	10.295	155.721	7.493	-8191	255	
1568.490	1	1	0	0	0.15189	0.26496	0.25355	0.18584	0.24333	0.16234	0.29217	0.13057	0.23065	0.098539	0.13214	0.31546	0.17115	0.10803	0.089098	0.034162	-3.0438	-2.6646	-3.3937	-2.9375	-3.0854	-3.5896	-2.8542	-3.35	-3.475	-2.6583	-3.6792	-3.025	-2.9958	-3.7146	-2.6188	-3.4271	117.397	205.063	164.618	40.258	108.805	33.795	113.233	122.386	329.918	160.296	5.145	324.460	326.391	326.012	228.620	-8.138	0.00060294	0.00012243	6.0109e-05	836.71	1.2202e-06	6.1886e-06	803	249.04	4.4384e-06	2.9739e-06	258.7	92.39	83.566	33.01	3.7426e-06	40.746	0.001184	0.0026427	0.00075928	838.79	2.6982e-05	3.0667e-05	797.82	249.6	2.1944e-05	3.2495e-05	259.76	93.179	84.57	33.51	2.5244e-05	41.253	-2.835	73.524	99.436	-1.983	143.602	123.352	-3.095	2.620	150.267	114.702	-0.065	4.462	7.047	10.636	136.492	7.450	-8191	255	
1568.586	1	1	0	0	0.10174	0.27709	0.11337	0.13006	0.017159	0.060111	0.27795	0.19462	0.11538	0.062683	0.18744	0.32142	0.13396	0.21569	0.21703	0.069845	-2.9104	-2.8812	-3.4167	-3.1083	-2.9062	-3.4896	-3.1813	-3.5104	-3.3167	-2.8896	-3.6625	-3.2604	-2.8292	-3.7458	-2.7625	-3.3563	166.897	206.578	236.855	133.473	293.047	325.205	270.849	318.983	205.206	195.527	55.502	304.496	259.618	331.460	61.775	32.832	0.0006853	0.00040272	8.0455e-05	836.71	5.7503e-06	2.5391e-06	802.97	249.49	6.038e-06	2.856e-06	260.96	92.817	83.184	32.906	4.2742e-06	41.021	0.0012085	0.0026634	0.00079662	841.62	2.8484e-05	3.192e-05	800.91	250.06	2.1985e-05	3.26e-05	260.67	93.339	84.332	33.388	2.5427e-05	41.362	-4.883	62.377	37.124	-1.391	116.480	148.297	-2.892	2.676	115.137	134.304	0.028	4.556	7.054	10.921	151.332	7.713	-8191	255	
1568.682	1	1	0	0	0.019527	0.39235	0.16239	0.22654	0.097028	0.098705	0.41236	0.15011	0.10157	0.22104	0.17535	0.15428	0.17852	0.11722	0.2722	0.13036	-3.1292	-2.625	-3.3604	-3.1562	-2.9667	-3.6396	-2.9833	-3.1521	-3.6688	-2.7646	-3.4938	-3.2125	-2.9479	-3.6625	-2.9271	-3.1667	205.485	20.266	-4.179	330.232	190.891	238.511	260.400	1.564	86.980	84.492	63.727	19.506	316.900	338.876	257.011	158.555	0.00059477	0.00042713	0.00012789	837.34	5.0457e-06	5.1752e-06	806.73	249.64	4.3522e-06	4.4115e-06	259.36	92.737	83.296	32.912	5.3908e-06	40.891	0.001187	0.0026583	0.00078884	840.32	2.7097e-05	3.1323e-05	802.19	250.22	2.1578e-05	3.4602e-05	260.6	93.159	84.391	33.341	2.6326e-05	41.221	-6.244	53.004	92.817	-1.194	146.000	119.577	-2.867	2.637	84.138	137.209	-0.102	4.405	6.906	10.353	155.823	7.581	-8191	255	
1568.803	1	1	0	0	0.11315	0.10142	0.055256	0.13744	0.19855	0.013817	0.1756	0.05813	0.054722	0.20223	0.21408	0.13715	0.18104	0.20447	0.15058	0.3179	-3.3312	-2.8187	-3.2625	-3.4604	-2.8042	-3.3771	-3.2521	-3.3125	-3.5604	-3.0146	-3.4375	-3.5771	-2.825	-3.5625	-3.0542	-3.0958	240.467	-0.449	-0.264	278.673	324.827	171.208	198.495	17.304	237.399	272.718	239.065	8.904	70.918	107.318	138.606	276.526	0.0005764	0.00030834	7.5317e-05	831.05	4.658e-06	5.1494e-06	797.05	248.49	8.9981e-06	4.2586e-06	257.06	91.365	83.179	32.469	6.0644e-06	40.269	0.0012078	0.0027419	0.00080623	835.56	2.9088e-05	3.1808e-05	796.18	249.38	2.3057e-05	3.5038e-05	258.39	92.243	83.986	32.982	2.7192e-05	40.724	14.236	62.216	71.303	-1.796	155.928	125.502	-3.160	2.668	136.558	134.573	0.114	4.251	6.973	10.664	149.856	7.209	-8191	255	
1568.897	1	1	0	0	0.22332	0.093455	0.23162	0.16878	0.10121	0.061741	0.035353	0.24953	0.20071	0.24132	0.30594	0.18615	0.1077	0.24637	0.12559	0.2485	-3.1167	-2.8312	-3.2938	-3.5792	-2.8125	-3.4813	-3.2812	-2.9625	-3.6729	-2.9938	-3.2229	-3.6146	-2.8812	-3.625	-3.3229	-2.9292	96.821	106.551	173.388	58.589	31.156	31.146	295.594	332.036	222.572	137.894	238.689	299.749	199.865	249.369	70.038	340.995	0.00069753	0.00034794	4.2044e-05	832.31	2.6447e-06	3.6487e-06	799.73	249.56	4.9272e-06	7.1241e-06	258.62	92.379	83.529	32.79	4.2092e-06	40.472	0.0012131	0.0027183	0.00083588	837.92	2.8525e-05	3.263e-05	795.57	250.3	2.2209e-05	3.4793e-05	259.39	92.709	84.293	33.12	2.5563e-05	40.797	1.044	66.836	130.969	-1.719	89.829	143.642	-3.309	2.551	161.082	149.925	0.013	4.359	6.773	10.643	142.496	7.235	-8191	255	
1568.994	1	1	0	0	0.18311	0.24329	0.051531	0.10579	0.38177	0.082335	0.22034	0.30921	0.26766	0.25398	0.23019	0.07615	0.23063	0.25095	0.21181	0.077192	-3.1958	-3.1667	-3.0542	-3.6292	-2.7438	-3.4313	-3.4354	-3.0521	-3.6375	-3.0229	-3.1125	-3.5917	-2.7313	-3.4271	-3.2792	-2.9938	123.077	97.229	341.023	-11.515	144.675	14.810	171.064	297.906	337.417	112.827	29.762	324.750	254.694	231.613	68.075	277.428	0.00054823	0.00022571	0.00011115	831.36	4.109e-06	4.441e-06	802.91	248.26	6.4187e-06	2.1403e-06	259.65	92.22	83.21	32.566	2.0267e-06	40.125	0.0011532	0.0026284	0.00080544	836.92	2.6604e-05	3.0827e-05	797.18	249.19	2.0972e-05	3.1422e-05	259.27	92.665	84.081	33.015	2.5073e-05	40.647	3.520	112.484	94.628	-1.817	119.011	146.024	-3.094	2.608	157.903	126.036	-0.063	4.623	6.721	10.552	185.542	7.322	-8191	255	
1569.091	1	1	0	0	0.12981	0.22884	0.16441	0.1424	0.10063	0.24952	0.35882	0.28524	0.0046443	0.29266	0.24108	0.14984	0.115	0.35072	0.084379	0.11901	-3.1583	-2.8729	-2.9708	-3.5771	-2.9021	-3.3146	-3.5333	-2.95	-3.5375	-3.0896	-3.0167	-3.6542	-2.9979	-3.2438	-3.6521	-3.0333	100.805	178.365	56.413	189.772	35.566	195.678	239.415	263.266	287.508	74.058	269.137	332.549	59.129	311.935	328.544	312.025	0.00065912	0.00038371	0.00014548	835.02	5.0827e-06	4.5596e-06	796.44	246.85	8.17e-06	4.4334e-06	257.22	91.053	82.212	32.181	2.6734e-06	39.902	0.0011465	0.0025819	0.0007916	838.88	2.7616e-05	3.0957e-05	798.08	247.78	2.1058e-05	3.2605e-05	257.69	91.814	83.109	32.694	2.4626e-05	40.201	-0.033	63.163	90.663	-1.540	138.967	156.581	-2.861	2.524	92.463	150.014	0.422	4.394	6.236	10.793	160.407	7.523	-8191	255	
1569.210	1	1	0	0	0.25459	0.1163	0.16467	0.18517	0.073774	0.083793	0.29072	0.23046	0.16574	0.20304	0.23479	0.012982	0.19952	0.15376	0.071817	0.32741	-3.1813	-3.1958	-2.9458	-3.5979	-3.0687	-3.2375	-3.7708	-2.9125	-3.3958	-3.2938	-2.7542	-3.6146	-3.0771	-3.1437	-3.5062	-2.8396	324.267	83.452	-1.970	223.184	300.307	215.921	318.668	286.485	75.137	320.064	263.767	282.096	221.984	293.729	329.896	319.577	0.00064452	0.00037282	0.00017315	835.39	2.4427e-06	2.0296e-06	793.33	244.5	7.857e-06	3.965e-06	255.2	89.792	81.305	31.691	4.8857e-06	38.926	0.0011808	0.0025839	0.00080138	835.28	2.7416e-05	3.1915e-05	789.04	245.62	2.1607e-05	3.3209e-05	254.56	90.223	82.172	32.144	2.5439e-05	39.387	-9.606	60.487	62.646	-1.613	136.632	134.430	-3.264	2.747	151.720	129.328	0.249	4.360	6.689	10.414	169.309	7.254	-8191	255	
1569.282	1	1	0	0	0.043292	0.14719	0.15318	0.23824	0.067039	0.18028	0.44377	0.23593	0.2042	0.0442	0.17192	0.21305	0.12045	0.23962	0.19408	0.24206	-3.1646	-3.3271	-2.85	-3.5792	-3.0271	-3.0875	-3.7854	-2.9667	-3.3812	-3.3354	-2.9104	-3.5687	-3.0083	-3.0917	-3.5438	-2.9688	109.658	330.874	211.152	-12.138	184.554	259.295	247.368	3.426	289.319	264.896	39.999	251.256	189.807	201.273	150.085	218.847	0.00063704	0.00028074	9.1653e-05	830.96	5.0392e-06	4.9502e-06	787.94	244.17	6.3785e-06	3.1614e-06	252.25	88.887	80.235	31.55	4.6545e-06	38.854	0.0011994	0.0025845	0.00081623	831.41	2.7515e-05	3.215e-05	785.07	244.73	2.1344e-05	3.1746e-05	252.52	89.723	81.512	32.03	2.547e-05	39.254	6.272	65.560	85.195	-1.773	115.817	148.847	-3.202	2.630	127.234	128.053	0.220	4.544	6.939	10.727	138.830	7.435	-8191	255	
1569.403	1	1	0	0	0.19572	0.25236	0.18547	0.081608	0.2222	0.079685	0.14675	0.11909	0.012916	0.19797	0.060149	0.18763	0.10783	0.37376	0.059965	0.35728	-2.9437	-3.3833	-2.8333	-3.55	-3.2208	-2.9208	-3.8229	-2.9208	-3.2208	-3.5271	-2.8896	-3.3125	-3.2979	-3.0312	-3.5	-2.9604	167.556	168.972	191.819	220.101	-5.378	187.180	260.636	194.546	152.163	96.734	72.624	-1.878	70.988	335.433	129.042	315.028	0.00061619	0.00042979	9.4997e-05	829.59	4.8725e-06	3.7781e-06	788.2	243.45	5.1119e-06	3.7693e-06	252.76	89.652	81.068	31.468	6.7034e-06	39.096	0.0012047	0.0026494	0.00080182	832.41	2.8533e-05	3.259e-05	786.24	244.46	2.2435e-05	3.2741e-05	253.14	89.839	81.701	31.946	2.6013e-05	39.265	-4.183	56.830	75.821	-1.679	144.819	153.684	-2.698	2.714	131.839	129.703	0.159	4.746	6.953	10.536	163.917	7.465	-8191	255	
1569.499	1	1	0	0	0.17912	0.076081	0.20263	0.076477	0.26617	0.11971	0.040736	0.37789	0.18806	0.22924	0.075083	0.13124	0.25985	0.34248	0.24066	0.19986	-2.8042	-3.6167	-2.8229	-3.475	-3.2417	-2.8896	-3.6208	-3.0021	-2.9854	-3.6188	-2.7792	-3.4167	-3.3187	-2.7604	-3.6521	-3.2042	107.133	165.073	343.510	297.319	271.855	118.788	9.032	283.523	306.322	290.164	35.971	250.171	302.159	316.856	114.201	324.475	0.0005947	0.00051884	9.9217e-05	825.56	2.5708e-06	3.8208e-06	787.92	242.49	5.6548e-06	3.405e-06	250.45	88.268	79.787	30.972	3.413e-06	38.177	0.0012075	0.0027189	0.00083946	832.07	2.8094e-05	3.3165e-05	786.71	242.98	2.1877e-05	3.1144e-05	250.3	88.748	80.218	31.438	2.3697e-05	38.533	-4.904	90.619	69.411	-1.434	116.242	137.582	-2.987	2.406	145.086	166.603	0.139	4.550	6.919	10.786	118.108	7.978	-8191	255	
1569.595	1	1	0	0	0.23358	0.056835	0.29264	0.18211	0.16071	0.29764	0.22385	0.26734	0.14557	0.15607	0.16409	0.21278	0.03429	0.20218	0.36198	0.22493	-2.5042	-3.4792	-2.9479	-3.6188	-3.3917	-2.675	-3.5271	-3.3042	-2.9479	-3.5854	-2.9958	-3.2812	-3.6125	-2.8146	-3.5979	-3.2458	253.173	94.856	165.351	36.001	222.050	297.312	274.229	-12.043	199.818	315.234	296.866	94.014	160.635	313.782	253.160	104.357	0.0005758	0.00021941	0.00012751	823.28	2.2383e-06	3.772e-06	782.29	240.02	4.8945e-06	4.3607e-06	245.46	85.858	78.655	30.604	2.6227e-06	37.38	0.0011627	0.0024122	0.00075015	829.11	2.59e-05	3.184e-05	778.79	240.04	2.1503e-05	2.9568e-05	246.05	86.537	79.103	30.998	2.4034e-05	37.741	-3.351	58.524	61.729	-1.418	129.622	123.608	-2.898	2.711	129.950	167.132	0.100	4.831	7.309	10.692	128.308	7.927	-8191	255	
1569.691	1	1	0	0	0.059432	0.14258	0.21942	0.15791	0.13844	0.044284	0.32688	0.20552	0.10662	0.07127	0.15913	0.077029	0.11384	0.17977	0.15324	0.17658	-2.3583	-3.6437	-2.8771	-3.2667	-3.45	-2.8521	-3.6125	-3.4562	-2.8563	-3.5771	-2.9646	-3.1708	-3.6437	-2.8958	-3.3458	-3.3396	253.389	66.250	242.904	-7.401	259.059	18.160	279.298	-13.607	244.965	233.272	305.083	175.774	267.507	0.068	104.794	266.388	0.00062932	0.00041602	9.877e-05	820.83	3.3769e-06	3.2766e-06	775.57	236.54	4.3052e-06	4.0537e-06	243.54	85.701	78.031	30.612	2.5266e-06	37.598	0.0011126	0.002438	0.0007436	824.4	2.5481e-05	3.1209e-05	774.44	237.63	2.1395e-05	3.0726e-05	243.96	86.025	78.641	30.902	2.3889e-05	37.789	-3.690	76.026	59.554	-1.408	154.125	129.441	-2.963	2.469	174.950	126.458	0.402	4.643	6.531	10.577	152.948	7.533	-8191	255	
1569.787	1	1	0	0	0.076735	0.11398	0.066188	0.051321	0.21428	0.069102	0.1623	0.1085	0.18953	0.33658	0.23239	0.2047	0.12133	0.12653	0.20149	0.34422	-2.4	-3.5396	-2.9646	-2.9104	-3.6333	-2.7167	-3.3312	-3.6125	-2.6312	-3.675	-3.2229	-2.9562	-3.7021	-2.9333	-3.1833	-3.5479	72.696	188.633	161.595	278.848	228.679	9.193	234.100	6.189	338.407	160.822	231.108	235.593	141.475	224.004	255.590	289.270	0.00053703	0.00022607	9.3472e-05	822.95	4.1411e-06	3.4688e-06	783.81	238.57	5.3746e-06	4.3374e-06	244.03	85.251	78.133	30.509	4.9276e-06	37.611	0.0011422	0.0025238	0.00074561	824.11	2.5701e-05	3.1358e-05	776.84	238.22	2.1082e-05	3.0513e-05	244.43	85.923	78.445	30.899	2.3732e-05	37.931	-7.702	102.222	78.811	-1.382	119.110	98.702	-3.264	2.880	115.115	134.547	0.156	4.752	6.883	11.095	133.674	7.541	-8191	255	
1569.883	1	1	0	0	0.20426	0.084583	0.089568	0.086179	0.30056	0.22739	0.057097	0.024175	0.12849	0.25656	0.037643	0.095715	0.35212	0.24163	0.23642	0.13034	-2.2771	-3.5458	-3.1375	-2.9292	-3.65	-2.8229	-3.2771	-3.4083	-3.0042	-3.5875	-3.3896	-2.8167	-3.5896	-2.9083	-2.9667	-3.7417	231.138	82.415	123.496	250.724	26.140	-5.617	47.203	70.316	257.232	287.795	78.023	64.224	41.880	301.137	297.026	5.321	0.00064351	8.9447e-05	0.0001566	824.82	2.7844e-06	3.0607e-06	776.77	236.55	4.9693e-06	3.3372e-06	243.92	84.842	77.494	30.388	3.8625e-06	37.591	0.0011206	0.0025049	0.00075334	825.85	2.519e-05	3.0907e-05	777.04	237.33	2.0676e-05	3.0458e-05	243.37	85.474	78.042	30.846	2.2488e-05	37.871	3.314	45.517	112.257	-1.681	139.799	136.147	-3.052	2.545	124.600	102.577	0.186	4.850	7.053	10.744	177.111	7.413	-8191	255	
1569.979	1	1	0	0	0.20591	0.11221	0.17743	0.11881	0.07653	0.069143	0.030255	0.28146	0.12012	0.10485	0.19185	0.30689	0.089239	0.087804	0.2158	0.17695	-2.5396	-3.4729	-3.2708	-2.8521	-3.4896	-3.0563	-3.1792	-3.7333	-2.9833	-3.3625	-3.5854	-2.8375	-3.6125	-3.1625	-2.9833	-3.7125	208.739	153.247	276.397	309.958	104.542	321.350	166.034	-3.857	328.908	146.304	277.811	329.742	162.943	247.582	-10.751	245.179	0.00060527	0.00047612	0.00011121	821.14	3.0115e-06	5.4451e-06	778.93	235.13	8.5003e-06	5.0502e-06	240.36	83.887	76.482	30.108	3.6967e-06	37.04	0.0011309	0.0024383	0.00072194	821.63	2.3749e-05	2.9312e-05	773.44	235.23	2.0734e-05	2.8975e-05	240.2	84.192	77.089	30.559	2.2631e-05	37.232	-3.207	67.833	64.091	-1.570	116.634	113.413	-2.790	2.763	166.416	138.136	0.309	4.537	6.516	10.755	130.116	7.851	-8191	255	
1570.074	1	1	0	0	0.020018	0.19325	0.16254	0.095987	0.02469	0.13589	0.19167	0.26068	0.13446	0.070153	0.18447	0.26323	0.053008	0.11425	0.31368	0.088719	-2.4938	-3.3583	-3.5167	-2.8292	-3.4688	-3.1375	-3.0042	-3.7479	-2.8312	-3.2375	-3.6937	-2.8271	-3.5646	-3.2167	-2.6542	-3.6729	7.976	130.025	289.381	298.136	122.036	124.850	193.030	279.242	31.566	323.864	303.616	193.282	269.460	94.032	246.172	311.115	0.00055009	0.00036187	7.1575e-05	811.96	4.8174e-06	3.5095e-06	765.72	233.1	2.9878e-06	3.0442e-06	237.45	83.167	76.172	30.121	3.8756e-06	36.601	0.0010782	0.0023804	0.0007087	817.68	2.3138e-05	2.9078e-05	765.15	233.56	2.0142e-05	2.9212e-05	237.81	83.399	76.581	30.414	2.2413e-05	36.993	-7.763	67.573	61.065	-1.935	139.135	132.093	-2.768	2.625	153.488	147.765	0.078	4.705	7.058	10.907	151.528	7.650	-8191	255	
1570.172	1	1	0	0	0.17887	0.19709	0.23426	0.1697	0.26376	0.20784	0.28553	0.27362	0.13111	0.18432	0.054292	0.042313	0.097633	0.10772	0.15403	0.12461	-2.475	-3.3271	-3.4896	-2.9313	-3.4938	-3.1771	-3.0375	-3.9146	-3.1042	-3.2062	-3.6437	-2.9333	-3.4646	-3.2313	-2.7562	-3.8021	320.245	109.562	58.160	296.837	34.370	-3.568	315.985	250.995	219.426	260.524	195.033	63.923	245.459	4.472	178.942	99.281	0.00057291	0.00022906	0.00010055	810.28	3.8256e-06	3.489e-06	773.75	232.4	6.4035e-06	3.1766e-06	236.53	82.847	75.918	29.978	4.0353e-06	36.845	0.0010821	0.0023037	0.00067782	813.02	2.3101e-05	2.7538e-05	765.61	232.75	1.8807e-05	2.7951e-05	237.39	83.153	76.123	30.349	2.2293e-05	37.064	-3.710	47.891	83.483	-1.638	131.977	109.437	-3.038	2.662	182.221	140.216	0.234	4.913	6.841	10.778	119.112	7.761	-8191	255	
1570.291	1	1	0	0	0.25591	0.1945	0.19856	0.029461	0.19599	0.16591	0.20212	0.067853	0.090959	0.1193	0.22854	0.087003	0.12353	0.07502	0.38461	0.051687	-2.8646	-3.0896	-3.6333	-2.8521	-3.3667	-3.3104	-2.9979	-3.7438	-3.2521	-3.0104	-3.6667	-3.0312	-3.3604	-3.5854	-2.9167	-3.55	240.661	246.418	138.886	30.538	200.970	44.156	284.386	31.902	301.023	134.698	247.727	325.106	332.359	96.384	291.896	259.091	0.0004975	0.0004287	0.00015926	814.22	4.328e-06	3.2795e-06	771.06	231.85	8.3529e-06	2.8816e-06	237.94	83.122	75.691	30.046	2.1081e-06	37.049	0.0010699	0.0023314	0.00069403	815.59	2.4418e-05	2.7785e-05	769.41	232.96	1.9548e-05	2.8974e-05	238.13	83.42	76.255	30.46	2.2523e-05	37.379	-12.203	58.585	73.988	-1.907	130.025	161.023	-3.114	2.681	123.290	104.458	0.168	4.740	6.952	10.873	113.347	7.356	-8191	255	
1570.387	1	1	0	0	0.15575	0.16703	0.23104	0.067743	0.080921	0.08341	0.24018	0.051865	0.19634	0.13171	0.19318	0.26862	0.17449	0.21682	0.24478	0.25151	-2.8708	-3.0229	-3.6729	-2.9021	-3.3292	-3.4833	-2.9708	-3.6417	-3.2083	-2.9333	-3.7583	-2.9375	-3.1125	-3.6271	-2.7438	-3.5729	250.371	59.540	254.806	270.802	193.042	97.644	268.525	38.268	37.769	311.304	259.512	-9.150	278.979	23.065	49.244	202.494	0.00047996	0.0004681	9.1073e-05	822.4	2.2606e-06	2.2526e-06	775.22	232.45	5.0361e-06	1.1611e-06	238.89	82.561	75.425	30.014	2.514e-06	36.78	0.0010735	0.0023277	0.00071451	819.47	2.4765e-05	2.872e-05	772.41	233.52	1.9447e-05	2.9963e-05	237.77	82.986	76.217	30.377	2.3615e-05	37.013	-6.807	77.660	67.395	-1.440	141.007	130.460	-2.979	3.018	127.117	128.387	0.543	4.861	7.169	11.145	178.285	8.003	-8191	255	
1570.483	1	1	0	0	0.15402	0.22179	0.18971	0.035541	0.17955	0.063287	0.1299	0.33664	0.15203	0.074785	0.041838	0.14606	0.053049	0.18277	0.34436	0.077073	-2.7458	-2.8229	-3.4562	-3.0062	-3.1625	-3.5375	-2.9458	-3.4417	-3.45	-2.8396	-3.5271	-3.3229	-3.0833	-3.5271	-2.9375	-3.5375	95.238	234.372	273.043	172.641	137.125	98.216	-2.056	302.414	237.843	67.792	276.835	297.073	16.244	-0.249	257.861	174.084	0.00061292	0.00024656	0.00014246	811.29	4.2664e-06	2.1253e-06	767.51	231.6	6.4768e-06	3.7382e-06	236.79	82.295	75.209	29.865	2.7788e-06	36.499	0.001122	0.0024902	0.00073539	816.07	2.5569e-05	2.8518e-05	764.76	232.49	1.9975e-05	3.0673e-05	236.12	82.474	75.947	30.24	2.2322e-05	36.815	0.986	57.619	65.577	-1.291	131.026	103.337	-2.952	3.068	116.050	138.299	0.062	4.644	7.258	10.859	115.282	7.976	-8191	255	
1570.579	1	1	0	0	0.13007	0.11397	0.17936	0.20311	0.20131	0.024696	0.27815	0.3716	0.070835	0.092038	0.072903	0.06384	0.064371	0.13778	0.36403	0.11021	-3.0417	-2.9104	-3.6188	-3.1729	-3.0083	-3.6437	-2.9417	-3.3375	-3.4542	-2.9667	-3.6813	-3.275	-3.1896	-3.5042	-2.8583	-3.5104	254.234	186.112	275.950	50.602	69.459	43.908	313.060	-12.999	232.704	196.125	239.467	268.776	334.074	175.359	292.385	19.279	0.00065733	0.00027255	0.00012148	807.16	2.3527e-06	2.9948e-06	767.54	233.34	9.4123e-06	3.9029e-06	237.28	82.663	75.43	30.173	3.058e-06	36.843	0.0010973	0.0024259	0.00070643	811.45	2.3867e-05	2.7625e-05	764.31	233.23	1.9802e-05	2.9328e-05	237.11	82.726	76.114	30.47	2.2912e-05	37.096	0.891	66.253	78.263	-1.261	137.738	145.429	-2.829	2.603	160.546	147.997	0.397	4.874	7.216	11.148	110.498	7.647	-8191	255	
1570.675	1	1	0	0	0.060261	0.21181	0.084847	0.21173	0.27427	0.36461	0.17059	0.11683	0.17524	0.24551	0.20618	0.027863	0.13331	0.35447	0.24453	0.11681	-3.2313	-2.7833	-3.6063	-3.3729	-2.9854	-3.5583	-3.25	-3.1271	-3.6521	-2.7729	-3.5375	-3.3625	-3.075	-3.85	-3.1063	-3.0062	235.578	304.342	225.386	71.176	342.587	255.030	284.633	285.956	327.247	60.735	278.057	63.040	305.126	265.483	326.758	160.317	0.00060798	0.00032075	4.7229e-05	816.61	3.6781e-06	3.4944e-06	776.8	233.67	8.811e-06	3.406e-06	237.99	83.095	75.995	30.231	6.0705e-06	37.16	0.0010888	0.0024499	0.00071866	816.13	2.4314e-05	2.8477e-05	770.8	234.06	1.9663e-05	3.0084e-05	238.64	83.46	76.731	30.613	2.2422e-05	37.329	-5.797	76.194	52.043	-1.722	129.430	132.353	-3.058	2.942	155.956	143.092	0.259	4.631	6.802	10.956	140.092	7.737	-8191	255	
1570.771	1	1	0	0	0.16433	0.18945	0.071828	0.20404	0.23246	0.14488	0.31187	0.26164	0.10655	0.08665	0.29331	0.13102	0.1603	0.076274	0.10839	0.23612	-3.3667	-2.9208	-3.3688	-3.4354	-2.9458	-3.7042	-3.1771	-3.1979	-3.5625	-2.9562	-3.4813	-3.5146	-2.8896	-3.7146	-3.2687	-3	23.130	-2.851	58.502	323.663	62.678	13.458	235.388	343.913	56.343	280.046	-0.802	318.518	220.851	40.737	66.740	251.510	0.00067051	0.00038499	8.1353e-05	810.67	3.2411e-06	4.2756e-06	774.23	233.08	5.7124e-06	4.2694e-06	238.43	82.761	75.98	30.33	3.903e-06	36.803	0.0010483	0.0023384	0.00068359	816.84	2.2826e-05	2.6914e-05	769.72	233.46	1.8213e-05	2.7834e-05	238.56	83.26	76.759	30.644	2.2426e-05	37.171	1.213	91.157	102.190	-1.724	117.873	143.984	-3.184	2.827	175.664	135.528	0.677	4.783	7.314	10.868	137.156	8.283	-8191	255	
1570.892	1	1	0	0	0.017116	0.10477	0.07243	0.19951	0.15785	0.15788	0.30405	0.27145	0.11602	0.066184	0.18533	0.13252	0.12794	0.26169	0.078235	0.10505	-3.4104	-2.8625	-3.1875	-3.4896	-2.8396	-3.5271	-3.3229	-2.9188	-3.6396	-2.9208	-3.3104	-3.5167	-2.6646	-3.5875	-3.2979	-2.9562	257.853	291.630	176.957	195.086	125.101	50.684	237.794	316.449	3.352	75.583	234.135	14.988	286.475	253.347	190.185	160.636	0.00058128	0.00036845	0.00012084	814.46	3.2153e-06	2.5037e-06	765.57	232.56	3.3238e-06	4.3857e-06	236.53	82.311	75.435	29.991	4.2182e-06	36.627	0.0010062	0.0022745	0.00067813	815.95	2.3761e-05	2.6973e-05	764.15	233.18	1.8494e-05	2.853e-05	236.95	82.839	76.202	30.452	2.148e-05	36.992	7.827	85.876	71.609	-1.548	141.436	140.782	-2.891	3.029	108.450	125.034	0.148	4.182	7.226	11.097	151.227	7.799	-8191	255	
1570.986	1	1	0	0	0.044385	0.1256	0.37089	0.18943	0.15612	0.10152	0.34808	0.28503	0.11661	0.099689	0.11802	0.10823	0.23807	0.17424	0.17627	0.11109	-3.3271	-2.8979	-2.9146	-3.6063	-2.8229	-3.5812	-3.525	-2.8917	-3.6208	-3.0125	-3.1229	-3.5771	-2.8937	-3.4229	-3.3521	-2.7938	194.132	309.404	213.399	13.721	121.271	71.429	81.911	313.193	57.340	262.980	320.841	197.368	267.150	75.426	-4.170	42.855	0.0005749	0.0003781	0.00011964	813.46	4.3864e-06	4.5404e-06	767.54	232.91	6.7514e-06	2.6791e-06	237.7	83.559	76.565	30.277	4.2726e-06	37.207	0.0010041	0.0023849	0.00066787	816.24	2.3972e-05	2.821e-05	765.46	233.21	1.8929e-05	2.8919e-05	238.1	83.516	76.966	30.715	2.2033e-05	37.381	-8.217	45.778	71.413	-1.411	144.177	109.010	-2.622	3.071	140.591	144.661	0.095	5.209	7.266	10.769	148.681	7.625	-8191	255	
1571.083	1	1	0	0	0.1412	0.11562	0.10678	0.13634	0.05939	0.18093	0.17711	0.042976	0.16495	0.11663	0.15534	0.1044	0.06214	0.1165	0.30119	0.1544	-3.1958	-3.2021	-2.9854	-3.5812	-3.0104	-2.9979	-3.6208	-2.8042	-3.5854	-3.0729	-3.0875	-3.7125	-3.0292	-3.2229	-3.5667	-2.7167	320.178	48.192	21.230	138.605	24.782	58.667	290.378	59.976	135.184	34.407	194.598	-1.948	63.366	252.301	183.958	101.988	0.00057176	0.00052482	9.252e-05	816.47	4.5227e-06	3.0286e-06	777.64	235.12	6.2191e-06	4.9011e-06	240.87	84.493	77.461	30.512	4.4335e-06	37.471	0.0010396	0.0023296	0.00068162	816.58	2.4201e-05	2.8075e-05	771.51	235.09	1.9232e-05	2.8953e-05	240.48	84.615	77.622	30.961	2.1187e-05	37.771	0.822	85.462	63.127	-1.493	131.067	127.321	-2.680	3.071	152.796	160.340	0.231	4.724	7.512	11.236	164.040	7.783	-8191	255	
1571.179	1	1	0	0	0.061725	0.19399	0.12454	0.101	0.11427	0.16039	0.23884	0.26991	0.089772	0.080221	0.099652	0.12544	0.18935	0.25034	0.096845	0.17351	-2.9729	-3.3292	-2.9437	-3.4979	-2.8833	-3.1333	-3.7333	-2.9562	-3.5771	-3.3646	-2.9333	-3.7687	-3.075	-3.1208	-3.5875	-2.9146	-1.208	89.190	248.541	280.998	74.934	86.886	170.419	266.250	83.098	241.678	179.991	295.978	51.545	262.748	174.502	254.424	0.00065503	0.00034339	0.00012523	817.65	1.9685e-06	3.0018e-06	781.6	234.99	6.6515e-06	3.4142e-06	242.14	84.713	76.932	30.787	3.7737e-06	37.644	0.0010557	0.0022686	0.00069752	821	2.3335e-05	2.8569e-05	776.14	236.35	1.9614e-05	2.9702e-05	241.72	85.243	77.687	31.179	2.2441e-05	37.921	-1.712	69.239	96.346	-1.401	118.727	153.130	-2.840	3.096	126.986	126.241	0.072	4.619	6.744	11.253	113.462	7.913	-8191	255	
#DATA ENDS
