BOXY.EXE: ISS Imagent and Oximeter Data Acquisition Program Version 0.80
Ascii Record File

#ACQ INFORMATION
2  Detector Channels 
16  External MUX Channels 
1  Auxiliary Channels 
5000  Waveform (CCF) Frequency (Hz)
1  Waveforms Skipped 
30  Waveforms Averaged 
1  Cycles Averaged 
16  Acquisitions per Waveform 
10.0806  Updata Rate (Hz) 

#FILE INFORMATION
TRUE -- External MUX Channel results are PARSED.
FALSE -- AC DC and Phase are NOT grouped.
TRUE -- Companion Program Settings File CREATED.
FALSE -- AC data not excluded
FALSE -- DC data not excluded
FALSE -- Phase data not excluded
FALSE -- Auxillary Chn. data not excluded
Tab delimiters

#CALIBRATION STATE
TRUE -- Waveform Calibration Values APPLIED.


#AUX CALIBRATION VALUES
Val Type	aux-1	

Term	1.0000e+00	
Factor	0.0000e+00	


#WF CALIBRATION VALUES
A = Detector Channel
Val Type	A-AC1	A-AC2	A-AC3	A-AC4	A-AC5	A-AC6	A-AC7	A-AC8	A-AC9	A-AC10	A-AC11	A-AC12	A-AC13	A-AC14	A-AC15	A-AC16	A-DC1	A-DC2	A-DC3	A-DC4	A-DC5	A-DC6	A-DC7	A-DC8	A-DC9	A-DC10	A-DC11	A-DC12	A-DC13	A-DC14	A-DC15	A-DC16	A-Ph1	A-Ph2	A-Ph3	A-Ph4	A-Ph5	A-Ph6	A-Ph7	A-Ph8	A-Ph9	A-Ph10	A-Ph11	A-Ph12	A-Ph13	A-Ph14	A-Ph15	A-Ph16	

Term	0.00000e+00	0.00000e+00	0.00000e+00	0.00000e+00	0.00000e+00	0.00000e+00	0.00000e+00	0.00000e+00	0.00000e+00	0.00000e+00	0.00000e+00	0.00000e+00	0.00000e+00	0.00000e+00	0.00000e+00	0.00000e+00	0.00000e+00	0.00000e+00	0.00000e+00	0.00000e+00	0.00000e+00	0.00000e+00	0.00000e+00	0.00000e+00	0.00000e+00	0.00000e+00	0.00000e+00	0.00000e+00	0.00000e+00	0.00000e+00	0.00000e+00	0.00000e+00	0.00000e+00	0.00000e+00	0.00000e+00	0.00000e+00	0.00000e+00	0.00000e+00	0.00000e+00	0.00000e+00	0.00000e+00	0.00000e+00	0.00000e+00	0.00000e+00	0.00000e+00	0.00000e+00	0.00000e+00	0.00000e+00	
Factor	1.00000e+00	1.00000e+00	1.00000e+00	1.00000e+00	1.00000e+00	1.00000e+00	1.00000e+00	1.00000e+00	1.00000e+00	1.00000e+00	1.00000e+00	1.00000e+00	1.00000e+00	1.00000e+00	1.00000e+00	1.00000e+00	1.00000e+00	1.00000e+00	1.00000e+00	1.00000e+00	1.00000e+00	1.00000e+00	1.00000e+00	1.00000e+00	1.00000e+00	1.00000e+00	1.00000e+00	1.00000e+00	1.00000e+00	1.00000e+00	1.00000e+00	1.00000e+00	X	X	X	X	X	X	X	X	X	X	X	X	X	X	X	X	

B = Detector Channel
Val Type	B-AC1	B-AC2	B-AC3	B-AC4	B-AC5	B-AC6	B-AC7	B-AC8	B-AC9	B-AC10	B-AC11	B-AC12	B-AC13	B-AC14	B-AC15	B-AC16	B-DC1	B-DC2	B-DC3	B-DC4	B-DC5	B-DC6	B-DC7	B-DC8	B-DC9	B-DC10	B-DC11	B-DC12	B-DC13	B-DC14	B-DC15	B-DC16	B-Ph1	B-Ph2	B-Ph3	B-Ph4	B-Ph5	B-Ph6	B-Ph7	B-Ph8	B-Ph9	B-Ph10	B-Ph11	B-Ph12	B-Ph13	B-Ph14	B-Ph15	B-Ph16	

Term	0.00000e+00	0.00000e+00	0.00000e+00	0.00000e+00	0.00000e+00	0.00000e+00	0.00000e+00	0.00000e+00	0.00000e+00	0.00000e+00	0.00000e+00	0.00000e+00	0.00000e+00	0.00000e+00	0.00000e+00	0.00000e+00	0.00000e+00	0.00000e+00	0.00000e+00	0.00000e+00	0.00000e+00	0.00000e+00	0.00000e+00	0.00000e+00	0.00000e+00	0.00000e+00	0.00000e+00	0.00000e+00	0.00000e+00	0.00000e+00	0.00000e+00	0.00000e+00	-2.67937e+02	-1.30297e+02	-1.24741e+02	-1.87822e+02	-6.96048e+01	-6.65855e+01	-1.56226e+02	-1.62015e+02	-6.64801e+01	-6.54146e+01	-1.71993e+02	-1.70449e+02	-1.82921e+02	-1.77447e+02	-7.06104e+01	-1.50185e+02	
Factor	5.08686e-05	1.23101e-04	3.70342e-05	3.47696e-01	1.44184e-06	1.36155e-06	1.51375e-01	4.06272e-02	2.33488e-06	1.39090e-06	7.25516e-02	2.05289e-02	3.17289e-02	6.81532e-03	1.55922e-06	9.51071e-03	2.34709e-05	6.99811e-05	2.09637e-05	1.86283e-01	7.08699e-07	8.53338e-07	7.64441e-02	2.19243e-02	5.51292e-07	8.80824e-07	3.79906e-02	1.07674e-02	1.72504e-02	3.72260e-03	6.45250e-07	5.03074e-03	X	X	X	X	X	X	X	X	X	X	X	X	X	X	X	X	



#DISTANCE SETTINGS
A = Detector Channel
A-1	A-2	A-3	A-4	A-5	A-6	A-7	A-8	A-9	A-10	A-11	A-12	A-13	A-14	A-15	A-16	

2.5000e+00	3.0000e+00	2.5000e+00	3.0000e+00	2.0000e+00	3.0000e+00	1.5000e+00	3.0000e+00	3.0000e+00	3.0000e+00	3.0000e+00	3.0000e+00	3.0000e+00	3.0000e+00	1.5000e+00	3.0000e+00	

B = Detector Channel
B-1	B-2	B-3	B-4	B-5	B-6	B-7	B-8	B-9	B-10	B-11	B-12	B-13	B-14	B-15	B-16	

1.0000e+01	1.0000e+01	1.0000e+01	1.4400e+00	1.0000e+01	1.0000e+01	1.5100e+00	1.9400e+00	1.0000e+01	1.0000e+01	1.9900e+00	2.4900e+00	2.4100e+00	2.9000e+00	1.0000e+01	2.9800e+00	




#DATA BEGINS
time	group	step	mark	flag	A-AC1	A-AC2	A-AC3	A-AC4	A-AC5	A-AC6	A-AC7	A-AC8	A-AC9	A-AC10	A-AC11	A-AC12	A-AC13	A-AC14	A-AC15	A-AC16	A-DC1	A-DC2	A-DC3	A-DC4	A-DC5	A-DC6	A-DC7	A-DC8	A-DC9	A-DC10	A-DC11	A-DC12	A-DC13	A-DC14	A-DC15	A-DC16	A-Ph1	A-Ph2	A-Ph3	A-Ph4	A-Ph5	A-Ph6	A-Ph7	A-Ph8	A-Ph9	A-Ph10	A-Ph11	A-Ph12	A-Ph13	A-Ph14	A-Ph15	A-Ph16	B-AC1	B-AC2	B-AC3	B-AC4	B-AC5	B-AC6	B-AC7	B-AC8	B-AC9	B-AC10	B-AC11	B-AC12	B-AC13	B-AC14	B-AC15	B-AC16	B-DC1	B-DC2	B-DC3	B-DC4	B-DC5	B-DC6	B-DC7	B-DC8	B-DC9	B-DC10	B-DC11	B-DC12	B-DC13	B-DC14	B-DC15	B-DC16	B-Ph1	B-Ph2	B-Ph3	B-Ph4	B-Ph5	B-Ph6	B-Ph7	B-Ph8	B-Ph9	B-Ph10	B-Ph11	B-Ph12	B-Ph13	B-Ph14	B-Ph15	B-Ph16	aux-1	digaux	

2659.190	1	1	0	256	0.15187	0.066481	0.072906	0.16922	0.085029	0.19557	0.10277	0.06558	0.014156	0.1078	0.099944	0.25446	0.18685	0.092092	0.079801	0.071364	-3.2854	-3.7083	-3.1417	-3.6937	-3.3854	-3.2687	-3.9042	-2.9729	-3.5042	-3.6063	-3.0542	-3.7625	-3.45	-3.2875	-3.9229	-3.0271	181.256	61.525	213.287	318.279	277.450	57.204	297.642	85.314	0.620	96.345	249.334	323.891	31.190	-23.573	75.813	122.654	0.00010234	0.00011072	1.7673e-05	40.674	9.438e-07	1.0031e-06	59.873	11.831	1.9482e-06	4.0088e-07	27.171	11.04	6.5154	3.328	1.3556e-06	6.5902	0.00015349	0.00026535	9.6476e-05	41.549	3.3043e-06	3.9894e-06	59.233	11.643	2.6072e-06	3.8958e-06	26.435	11.115	6.4412	3.331	2.6939e-06	6.561	11.810	307.571	161.443	-20.178	99.083	72.242	-19.820	-14.347	105.687	84.064	-16.612	-12.893	-9.792	-6.795	165.248	-9.806	-8191	255	
2659.311	1	1	0	0	0.24574	0.13672	0.20146	0.04889	0.14521	0.20571	0.12732	0.18529	0.085447	0.079648	0.22162	0.18508	0.15433	0.08068	0.15569	0.32305	-3.0438	-3.7521	-3.0646	-3.6708	-3.4646	-2.975	-3.7896	-3.1208	-3.3042	-3.8958	-3.1458	-3.6792	-3.425	-3.2271	-3.8021	-3.3104	18.990	130.579	200.400	264.761	79.159	-3.829	54.636	119.349	182.703	-14.678	271.598	224.275	275.152	51.158	148.952	312.234	0.00010589	8.1688e-05	3.4089e-05	42.721	5.9769e-07	7.9168e-07	60.254	11.609	7.411e-07	8.4284e-07	26.218	11.421	6.4837	3.3583	3.2928e-07	6.6104	0.00015716	0.00028226	0.00010355	42.066	3.133e-06	4.5529e-06	59.6	11.541	2.6049e-06	3.6462e-06	26.499	11.373	6.4702	3.3766	2.9171e-06	6.6252	5.439	173.086	51.460	-20.065	16.910	111.372	-18.809	-15.102	4.926	163.426	-17.712	-11.857	-9.542	-6.361	265.176	-10.475	-8191	255	
2659.405	1	1	0	0	0.20224	0.12716	0.1594	0.20701	0.054882	0.18064	0.11258	0.14229	0.2246	0.14935	0.10756	0.37487	0.053821	0.21843	0.21008	0.080705	-2.8771	-3.7542	-3.1	-3.6208	-3.5646	-3.0187	-3.7	-3.2604	-3.2292	-3.925	-3.2104	-3.725	-3.6021	-3.1583	-3.9083	-3.3021	159.073	188.840	207.583	271.200	243.259	122.422	253.060	252.722	321.059	282.596	91.454	23.473	12.403	288.152	69.435	212.718	9.986e-05	3.6458e-05	5.7552e-05	42.642	9.8674e-07	5.3956e-07	60.167	11.812	1.0161e-06	8.7069e-07	26.188	11.333	6.3266	3.4186	1.2202e-06	6.5602	0.00016606	0.00030456	9.8267e-05	42.525	2.9411e-06	4.3911e-06	60.049	11.646	2.4877e-06	3.6903e-06	26.38	11.302	6.4439	3.3836	2.9399e-06	6.5436	0.174	265.127	51.443	-18.902	123.365	193.137	-19.416	-14.797	42.103	128.910	-17.834	-12.852	-9.829	-6.665	92.158	-10.121	-8191	255	
2659.502	1	1	0	0	0.15989	0.055326	0.12628	0.08415	0.31832	0.13936	0.20816	0.23435	0.1013	0.089568	0.056691	0.16279	0.22714	0.11278	0.12849	0.076405	-2.9167	-3.8104	-3.0729	-3.5146	-3.7271	-3.1188	-3.8812	-3.6063	-3.2271	-4.0854	-3.0167	-3.4813	-3.725	-2.8896	-3.8104	-3.5521	-0.422	99.475	146.893	307.444	203.307	45.464	309.168	125.308	27.896	183.554	126.014	-25.321	70.821	199.080	260.070	63.280	7.5109e-05	4.6492e-05	3.9143e-05	42.941	6.4972e-07	8.6345e-07	60.866	11.443	2.2744e-06	3.0627e-07	26.396	11.125	6.7042	3.3411	1.325e-06	6.5258	0.00016454	0.00029946	0.00010215	42.49	2.8894e-06	4.1902e-06	60.371	11.466	2.7542e-06	3.694e-06	26.162	11.111	6.5248	3.3537	2.1844e-06	6.5158	3.480	119.316	58.616	-20.893	-10.610	208.835	-19.705	-15.080	81.834	287.706	-16.963	-12.125	-8.488	-7.558	123.585	-10.077	-8191	255	
2659.598	1	1	0	0	0.066281	0.23846	0.23354	0.039568	0.097528	0.13912	0.19476	0.23407	0.1965	0.12342	0.206	0.061128	0.23809	0.045491	0.31899	0.21425	-2.8854	-3.8875	-3.1896	-3.4542	-3.6646	-3.1021	-3.675	-3.6375	-3	-3.9354	-3.1271	-3.5062	-3.8021	-3.025	-3.6792	-3.7479	164.153	80.795	278.664	299.841	275.139	32.007	47.329	-26.406	62.458	203.371	303.771	-30.365	21.792	129.429	-17.210	252.026	9.5433e-05	7.478e-05	1.0346e-05	43.591	5.2381e-07	4.3322e-07	62.473	11.515	2.0634e-06	4.3203e-07	26.474	11.371	6.4262	3.4297	1.4046e-06	6.5752	0.00015129	0.00025966	9.2589e-05	44.057	2.4022e-06	3.9645e-06	62.106	11.538	2.7163e-06	3.4554e-06	26.218	11.27	6.5188	3.4046	2.5797e-06	6.5911	22.341	141.146	173.551	-19.926	192.487	62.883	-20.496	-15.521	183.944	145.727	-18.542	-11.827	-10.630	-7.125	84.461	-10.433	-8191	255	
2659.718	1	1	0	0	0.12618	0.25975	0.14388	0.088249	0.081012	0.04045	0.13698	0.30619	0.12725	0.21109	0.126	0.090101	0.059184	0.14339	0.13975	0.20119	-2.8521	-3.8583	-3.3896	-3.375	-3.9625	-3.2479	-3.6417	-3.6063	-3.0792	-3.7604	-3.3875	-3.3896	-3.8604	-2.9833	-3.4896	-3.7375	92.391	11.638	237.512	234.555	80.325	49.179	75.422	264.263	327.039	-17.249	193.475	240.509	61.971	-18.051	250.654	259.007	5.9682e-05	6.5778e-05	7.5694e-06	44.851	1.7923e-07	1.748e-07	63.932	11.443	2.0838e-06	2.7579e-07	27.231	11.759	6.7437	3.5368	2.0504e-07	6.8385	0.00016254	0.00026039	9.355e-05	44.647	2.6945e-06	3.8667e-06	63.606	11.55	2.583e-06	3.0315e-06	26.963	11.727	6.7987	3.5468	3.1389e-06	6.8684	-13.235	39.138	276.043	-22.616	82.294	299.259	-19.017	-12.921	78.146	192.163	-18.056	-12.717	-10.568	-7.064	63.711	-10.754	-8191	255	
2659.814	1	1	0	0	0.074752	0.10267	0.18851	0.20876	0.1439	0.16602	0.16689	0.081773	0.10243	0.11173	0.22184	0.07733	0.099722	0.23074	0.015798	0.18561	-2.7812	-3.8542	-3.2396	-3.125	-3.9062	-3.1479	-3.5458	-3.6562	-3.0354	-3.7354	-3.4896	-3.1063	-3.9271	-3.2833	-3.35	-3.7896	119.177	13.601	317.024	283.933	325.437	168.939	72.379	231.084	53.396	40.558	80.362	112.975	294.164	314.857	141.450	322.372	0.00012585	8.5369e-05	1.3875e-05	45.533	6.1051e-07	5.0332e-07	64.934	11.753	7.3966e-07	3.1589e-07	27.647	12.024	6.9232	3.6764	4.6392e-07	6.8085	0.00017398	0.00028984	7.5556e-05	45.645	2.5395e-06	3.2036e-06	65.202	11.798	2.4176e-06	2.8095e-06	27.285	11.989	6.9533	3.628	2.378e-06	6.8714	4.929	117.279	153.247	-21.233	179.321	128.638	-19.800	-15.450	91.620	139.687	-17.872	-12.622	-9.405	-7.958	82.809	-10.437	-8191	255	
2659.911	1	1	0	0	0.087776	0.067105	0.081736	0.25293	0.088522	0.086272	0.28073	0.17524	0.30217	0.10863	0.10434	0.22178	0.28893	0.14441	0.36917	0.1233	-2.7354	-3.7188	-3.5229	-2.9875	-3.8229	-3.2979	-3.3542	-3.7167	-3.0125	-3.6125	-3.7188	-3.1417	-3.7042	-3.4042	-3.3792	-3.8917	-32.456	257.902	55.525	217.048	121.036	98.620	-22.850	74.033	40.665	121.078	262.429	199.814	296.441	293.328	137.111	310.325	0.00012552	6.7581e-05	2.2896e-05	45.37	4.6787e-07	6.7144e-07	67.297	12.012	7.9233e-07	8.8896e-07	27.035	12.064	7.0112	3.6194	9.255e-07	6.8295	0.0001509	0.00030369	6.1013e-05	46.023	2.1143e-06	3.1556e-06	66.728	11.869	2.1546e-06	2.5929e-06	26.963	12.011	7.0421	3.6409	2.4452e-06	6.9428	-6.595	109.465	72.372	-22.327	131.282	86.850	-21.974	-15.721	72.431	105.181	-18.282	-13.210	-11.778	-7.630	173.570	-10.485	-8191	255	
2660.007	1	1	0	0	0.085711	0.10086	0.20376	0.35938	0.10288	0.14168	0.08316	0.10101	0.34488	0.20118	0.16945	0.16389	0.090098	0.073872	0.22995	0.14199	-2.6562	-3.3937	-3.6896	-2.9313	-3.8333	-3.4167	-3.325	-3.9729	-3.1333	-3.5875	-3.5625	-3.0979	-3.7625	-3.3563	-3.1979	-3.8042	40.705	184.370	92.344	88.445	138.714	-27.656	227.907	306.621	278.792	80.547	175.212	293.421	23.599	223.926	307.695	48.710	0.00013704	5.6333e-05	7.9775e-06	45.776	2.3034e-07	1.2343e-06	67.392	11.894	1.2804e-06	6.5663e-07	27.23	12.136	6.7107	3.5724	8.475e-07	6.7504	0.00015305	0.00022627	6.7826e-05	46.257	2.0346e-06	3.2249e-06	66.707	11.762	2.2304e-06	2.9966e-06	27.056	11.974	6.9045	3.6068	2.292e-06	6.8696	15.695	184.321	-29.754	-21.964	298.450	130.032	-21.743	-15.992	145.038	69.907	-17.887	-12.648	-10.556	-7.639	44.120	-11.490	-8191	255	
2660.103	1	1	0	0	0.33226	0.20831	0.12417	0.25428	0.17064	0.067998	0.13413	0.079764	0.21757	0.087417	0.079943	0.19423	0.24379	0.085784	0.27421	0.042464	-2.8583	-3.525	-3.5875	-3.1417	-3.8167	-3.6333	-3.2062	-3.9208	-3.3229	-3.5979	-3.5583	-3.1	-3.725	-3.6958	-3.1667	-3.8333	111.877	43.133	99.521	59.234	309.438	-18.337	231.901	118.933	104.373	133.690	25.829	-22.626	201.419	58.019	55.035	89.627	9.9571e-05	2.2757e-05	1.3296e-05	46.284	2.0109e-06	5.9641e-07	66.351	12.047	4.3704e-07	8.4204e-07	26.938	11.849	6.6913	3.5866	2.0531e-06	6.7848	0.00014097	0.00022467	6.5642e-05	46.104	2.0523e-06	3.248e-06	66.901	11.968	2.5233e-06	3.3288e-06	26.998	11.797	6.806	3.5765	2.5756e-06	6.8114	23.079	190.732	-22.271	-19.751	129.071	117.548	-20.803	-14.915	118.855	163.338	-18.155	-13.061	-10.852	-7.651	133.896	-9.999	-8191	255	
2660.199	1	1	0	0	0.23365	0.15208	0.12103	0.11485	0.046847	0.14581	0.25308	0.15577	0.17795	0.17226	0.31677	0.24774	0.21691	0.29197	0.14061	0.18446	-2.8708	-3.2521	-3.9021	-3.1708	-3.6667	-3.5458	-3.2562	-3.7562	-3.3583	-3.4354	-3.8333	-3.225	-3.5417	-3.6396	-3.2167	-3.8729	224.381	324.829	242.710	44.378	172.229	186.126	281.834	156.289	69.176	313.915	292.506	240.076	-29.362	73.637	235.989	179.693	6.8623e-05	4.8425e-05	1.3656e-05	45.425	1.1707e-06	1.1181e-06	67.095	12.004	2.7136e-07	8.216e-07	26.29	11.443	6.658	3.4492	7.0749e-07	6.5459	0.00013706	0.00026855	7.0316e-05	46.043	2.6178e-06	3.1414e-06	66.749	11.811	2.2121e-06	3.6958e-06	26.407	11.498	6.6306	3.4532	3.1684e-06	6.544	27.507	215.254	318.210	-21.557	146.534	68.548	-20.907	-15.833	314.776	126.512	-17.985	-13.840	-10.731	-8.243	32.649	-10.773	-8191	255	
2660.320	1	1	0	0	0.13971	0.03473	0.046556	0.16246	0.22789	0.13436	0.23642	0.22113	0.20421	0.22135	0.13958	0.18727	0.18534	0.099517	0.24762	0.11166	-2.9292	-3.1771	-3.9396	-3.0312	-3.5875	-3.5958	-3.0417	-3.8833	-3.4792	-3.3708	-3.9208	-3.3083	-3.2854	-3.5958	-2.8312	-3.8229	56.526	300.801	5.515	66.628	-13.500	259.397	181.659	-28.001	299.842	11.676	165.091	41.245	225.508	222.145	207.027	-5.097	0.00010987	7.862e-05	1.8951e-05	44.719	6.049e-07	2.2455e-07	67.036	11.398	2.4951e-06	1.0571e-06	25.45	11.315	6.4881	3.3586	7.5115e-07	6.5296	0.00014288	0.00029946	8.1278e-05	45.361	2.9352e-06	2.8765e-06	65.594	11.436	2.1673e-06	3.9821e-06	25.722	11.283	6.5019	3.4219	2.8485e-06	6.5002	-11.988	275.589	125.991	-20.369	62.083	4.228	-20.714	-15.598	72.498	212.798	-18.581	-12.767	-10.032	-7.415	143.225	-9.961	-8191	255	
2660.414	1	1	0	0	0.080862	0.13604	0.2016	0.081744	0.21046	0.067417	0.16339	0.0331	0.16001	0.13499	0.097173	0.18227	0.35347	0.19465	0.13857	0.11521	-3.0729	-3.1437	-3.9021	-3.0896	-3.425	-3.8667	-3.0333	-3.6042	-3.6229	-3.0542	-3.925	-3.1542	-3.3438	-3.7646	-2.9625	-3.5458	27.369	319.710	309.346	277.305	305.124	24.447	84.405	172.529	230.618	25.194	182.800	23.494	307.240	307.778	-28.344	236.217	9.7738e-05	3.9662e-05	3.2228e-05	44.241	8.6274e-07	3.6365e-07	65.814	11.457	2.5112e-07	3.2317e-07	25.972	11.161	6.2631	3.3214	7.6166e-07	6.3988	0.00014963	0.00038504	6.5337e-05	44.745	3.1862e-06	3.2178e-06	65.23	11.356	1.9433e-06	4.1215e-06	25.633	11.139	6.3995	3.3526	3.1201e-06	6.4388	-16.489	308.395	69.258	-20.343	131.815	46.488	-20.942	-15.909	91.563	248.072	-18.734	-12.707	-10.398	-7.987	190.573	-9.807	-8191	255	
2660.486	1	1	0	0	0.0079096	0.18014	0.16896	0.21542	0.13084	0.15983	0.17853	0.15044	0.21474	0.061206	0.1012	0.2016	0.23066	0.14452	0.15043	0.21268	-3.3604	-3.0021	-3.9188	-3.3417	-3.4479	-3.9771	-3.1271	-3.5438	-3.6792	-3.1562	-3.9146	-3.4771	-3.3604	-3.9625	-3.0667	-3.4042	293.710	286.774	39.328	256.597	-30.410	84.246	182.776	41.537	-21.189	164.327	276.126	10.111	322.401	48.362	258.457	59.662	8.1974e-05	4.8501e-05	1.1667e-05	44.514	1.2335e-07	7.8246e-07	66.289	11.271	4.344e-07	1.3558e-06	25.221	11.067	6.2753	3.2749	7.9118e-07	6.3688	0.00015119	0.00032935	6.8569e-05	44.615	3.1419e-06	3.0702e-06	65.844	11.323	2.4176e-06	4.3913e-06	25.394	10.986	6.3657	3.31	3.3378e-06	6.3898	4.243	54.833	74.903	-22.268	208.354	123.006	-21.270	-15.085	222.004	172.169	-17.356	-13.319	-11.052	-8.135	56.287	-9.855	-8191	255	
2660.582	1	1	0	0	0.048337	0.055734	0.14606	0.13111	0.19496	0.1505	0.070386	0.17071	0.13676	0.15249	0.12749	0.021379	0.2245	0.09629	0.13252	0.13239	-3.3896	-3.0312	-3.7604	-3.4938	-3.3521	-3.9333	-3.3104	-3.525	-3.8521	-3.1437	-3.8438	-3.4271	-3.0104	-3.9354	-3.1708	-3.4875	28.957	122.700	244.743	185.647	53.645	54.821	143.464	311.406	105.991	300.146	82.461	48.608	100.096	274.743	267.016	10.429	5.9057e-05	6.9532e-05	2.6973e-05	45.647	6.2298e-07	6.5414e-07	66.57	11.244	9.3618e-07	1.1107e-06	25.036	10.91	6.3187	3.3472	1.0041e-06	6.3755	0.00013105	0.00036303	8.7043e-05	45.327	3.4962e-06	3.7351e-06	66.092	11.192	1.8767e-06	4.1197e-06	24.913	10.844	6.3611	3.3099	2.8378e-06	6.3044	28.920	95.798	0.856	-21.822	194.529	113.080	-21.565	-14.976	171.707	140.490	-17.725	-13.180	-10.210	-7.742	-7.193	-10.307	-8191	255	
2660.703	1	1	0	0	0.10853	0.22098	0.14818	0.20521	0.25358	0.18021	0.21558	0.16515	0.060716	0.054801	0.20338	0.1257	0.027773	0.053569	0.32665	0.29371	-3.4167	-2.975	-3.6688	-3.5729	-2.9729	-3.975	-3.3375	-3.4208	-3.8812	-3.0438	-3.7708	-3.5667	-3.0667	-3.7938	-3.2979	-3.3625	184.256	84.032	23.036	9.065	-6.357	-13.189	312.811	108.701	78.522	181.692	101.081	322.018	112.336	213.710	116.811	171.898	6.4941e-05	0.00010122	1.6885e-05	44.91	2.2624e-07	1.9363e-06	66.667	10.986	7.8793e-07	9.5542e-07	25.337	10.867	6.3767	3.2986	5.474e-07	6.2374	0.00012136	0.00034378	8.3855e-05	44.629	3.6321e-06	2.6578e-06	65.936	11.045	2.0754e-06	3.8921e-06	24.961	10.814	6.3866	3.321	3.0502e-06	6.3041	21.012	157.152	9.994	-20.971	189.824	71.235	-20.532	-15.346	49.099	152.150	-17.898	-13.119	-12.003	-6.915	100.527	-9.972	-8191	255	
2660.799	1	1	0	0	0.1595	0.077536	0.2076	0.15273	0.14007	0.16294	0.12642	0.14349	0.24804	0.41071	0.20873	0.096804	0.2358	0.07041	0.13844	0.045731	-3.6	-3.2708	-3.5917	-3.7333	-2.9729	-3.6458	-3.2917	-3.2229	-3.925	-3.2083	-3.6583	-3.6271	-3.0958	-3.6917	-3.3937	-3.2	169.302	20.875	233.085	323.060	109.349	107.122	94.420	31.915	152.536	272.117	98.427	113.750	234.783	233.878	211.589	-23.674	0.00012269	6.1753e-05	4.0119e-05	44.694	9.3036e-07	7.5577e-07	67.193	11.035	1.9793e-06	5.097e-07	25.24	11.133	6.5031	3.3608	5.2699e-07	6.4007	0.00014899	0.00032862	8.4291e-05	45.43	3.0769e-06	3.0062e-06	66.522	11.153	2.3223e-06	3.7949e-06	25.147	11.031	6.4429	3.3774	2.9453e-06	6.4356	-7.190	46.147	164.860	-22.515	8.719	54.201	-21.682	-16.479	-10.100	117.078	-17.235	-13.094	-11.019	-7.096	43.364	-10.445	-8191	255	
2660.895	1	1	0	0	0.20457	0.1442	0.24813	0.13203	0.067772	0.10305	0.14683	0.26732	0.08349	0.23058	0.14912	0.086121	0.12359	0.056856	0.24605	0.14192	-3.4896	-3.1646	-3.525	-3.675	-3.2042	-3.85	-3.5583	-3.3417	-3.9271	-3.0729	-3.3417	-3.7729	-3.0479	-3.7354	-3.5458	-3.2479	14.783	177.828	182.881	278.114	49.239	225.027	259.642	253.030	-17.023	5.912	61.348	323.505	160.089	113.365	130.713	215.274	0.00010691	0.00016028	1.3973e-05	47.071	5.8575e-07	1.0931e-06	66.58	11.247	4.3963e-07	8.1329e-07	25.663	11.418	6.4406	3.4324	1.7962e-06	6.5079	0.00012381	0.00027672	8.6257e-05	46.091	2.9603e-06	3.2889e-06	66.729	11.324	1.7205e-06	3.3453e-06	25.419	11.22	6.5072	3.4251	2.6522e-06	6.4977	24.434	94.390	51.587	-21.685	15.833	67.439	-19.722	-16.339	238.757	25.973	-17.963	-13.961	-11.234	-8.304	106.337	-9.962	-8191	255	
2660.991	1	1	0	0	0.21621	0.18063	0.18843	0.085112	0.21983	0.19144	0.20682	0.027053	0.16836	0.070355	0.10803	0.07958	0.17802	0.029671	0.13245	0.18109	-3.5854	-3.3229	-3.3438	-3.7667	-2.875	-3.7229	-3.6312	-3.0521	-3.9667	-3.4104	-3.1833	-3.8875	-3.0542	-3.4375	-3.7458	-2.9896	137.087	253.477	257.486	-32.070	8.421	135.120	143.919	48.423	256.760	233.005	302.154	151.351	253.614	189.699	246.842	35.422	4.9659e-05	7.9976e-05	3.6214e-05	45.618	1.3623e-06	6.8504e-07	67.046	11.416	1.8419e-06	9.8786e-07	25.749	11.081	6.5823	3.4613	6.1808e-07	6.5139	0.00012493	0.00030486	8.6737e-05	46.929	2.8865e-06	3.2285e-06	67.216	11.445	1.7412e-06	3.0554e-06	25.289	11.045	6.5758	3.4683	2.1253e-06	6.5016	0.739	90.564	120.186	-21.638	94.621	219.846	-20.560	-14.972	98.019	168.259	-17.455	-13.102	-10.662	-7.850	92.450	-11.461	-8191	255	
2661.087	1	1	0	0	0.17331	0.096889	0.13783	0.17688	0.18408	0.14213	0.12335	0.15918	0.13663	0.2546	0.072945	0.13503	0.122	0.13459	0.18873	0.37054	-3.4958	-3.4167	-3.2354	-3.9521	-3.1417	-3.4208	-3.8625	-3.1833	-3.7042	-3.4688	-3.1417	-3.825	-3.0563	-3.45	-3.6979	-2.9375	232.185	184.669	75.179	302.692	95.686	28.705	245.945	4.859	51.000	5.209	200.315	50.504	-19.253	25.879	116.579	200.733	7.655e-05	3.5161e-05	2.5624e-05	47.283	3.4653e-07	5.5195e-07	68.694	11.494	4.2663e-07	7.3756e-07	25.639	11.401	6.7764	3.5422	6.906e-07	6.6409	0.00011838	0.00023298	7.1276e-05	46.859	2.5306e-06	2.6347e-06	67.7	11.437	1.7412e-06	2.8131e-06	25.76	11.423	6.7591	3.5657	1.964e-06	6.6899	41.215	100.454	83.792	-20.139	44.336	7.287	-21.941	-17.200	59.153	62.780	-17.317	-13.125	-11.412	-7.554	122.387	-10.757	-8191	255	
2661.183	1	1	0	0	0.027751	0.096219	0.024034	0.06011	0.082963	0.23152	0.1713	0.11177	0.17536	0.096032	0.12956	0.29772	0.27448	0.10791	0.062182	0.21448	-3.3458	-3.6188	-3.1	-3.7354	-3.2938	-3.3542	-3.9458	-3.2	-3.9771	-3.6667	-3.0646	-4.0083	-3.2625	-3.3312	-3.8208	-3.0354	200.412	153.124	232.747	212.183	133.094	155.206	198.064	96.847	173.559	182.537	170.127	187.157	289.375	-33.719	282.963	268.052	0.00010526	3.8728e-05	6.7511e-06	47.182	2.6965e-07	8.5633e-07	69.466	11.657	1.2431e-06	4.7418e-07	26.427	11.872	6.8451	3.6361	1.1013e-06	6.7941	0.00011701	0.0002391	7.7303e-05	47.274	2.4893e-06	3.0258e-06	68.787	11.651	1.9961e-06	2.7893e-06	26.088	11.772	6.877	3.6471	2.0151e-06	6.9023	9.796	100.974	316.993	-23.076	257.414	93.718	-21.177	-16.276	85.566	88.021	-17.253	-13.527	-10.220	-8.183	144.839	-10.729	-8191	255	
2661.279	1	1	0	0	0.22898	0.23582	0.1739	0.20608	0.095217	0.16053	0.13449	0.033331	0.11088	0.075118	0.22303	0.3255	0.045371	0.12164	0.12011	0.21958	-3.4062	-3.7812	-3.0771	-3.7542	-3.2792	-3.2792	-3.9292	-3.1583	-3.7729	-3.7687	-3.2125	-3.8604	-3.4604	-3.4229	-4.0146	-3.1042	36.968	40.963	84.729	96.547	-25.784	192.890	58.439	311.542	257.302	184.845	125.808	298.403	272.946	100.445	244.482	112.231	0.00010039	8.557e-05	2.1339e-05	48.118	3.6801e-07	7.0474e-07	70.003	11.774	2.0242e-06	3.2079e-07	26.474	11.803	6.9189	3.6861	3.4383e-07	6.8881	0.000131	0.00021738	7.6517e-05	47.879	2.4775e-06	3.3849e-06	69.934	11.75	1.7676e-06	2.8131e-06	26.561	11.824	6.9089	3.6792	1.8847e-06	6.9061	-8.630	109.757	120.066	-22.263	146.325	125.873	-21.415	-15.482	127.414	93.613	-18.452	-13.215	-10.026	-8.637	151.652	-11.403	-8191	255	
2661.400	1	1	0	0	0.28715	0.30368	0.21157	0.092332	0.09932	0.06404	0.16259	0.11807	0.061276	0.12021	0.29584	0.15657	0.11149	0.11594	0.28585	0.17783	-3.3187	-3.6271	-3.0708	-3.6688	-3.5396	-3.1833	-3.825	-3.1	-3.4	-3.7292	-3.3354	-3.7792	-3.4792	-3.2833	-3.8625	-3.3458	318.528	56.518	174.479	257.774	180.169	184.645	18.901	263.201	57.484	148.135	243.756	209.526	113.448	192.526	54.300	154.169	0.00013001	1.9697e-05	3.9685e-05	48.291	9.1801e-07	8.4484e-07	69.177	11.905	3.2859e-07	5.7061e-07	25.595	11.747	6.8249	3.5676	5.5897e-07	6.6565	0.00014097	0.0002149	7.7041e-05	48.463	2.1409e-06	2.9938e-06	69.197	11.785	1.8101e-06	2.2443e-06	25.851	11.588	6.7676	3.6026	1.7368e-06	6.7098	23.246	34.074	53.380	-20.847	150.086	154.153	-20.952	-15.508	88.551	113.097	-17.541	-12.988	-10.768	-8.169	151.993	-11.235	-8191	255	
2661.494	1	1	0	0	0.14106	0.25858	0.11729	0.20625	0.10528	0.24783	0.1947	0.14887	0.26451	0.067296	0.43526	0.12329	0.01157	0.22995	0.059546	0.049483	-3.0438	-3.75	-3.1333	-3.6708	-3.5208	-3.0792	-3.8333	-3.2521	-3.2333	-3.7812	-3.0208	-3.8354	-3.7042	-3.1229	-3.8729	-3.0854	16.745	150.327	164.944	317.142	59.225	276.215	251.913	52.886	107.113	23.261	-19.702	214.856	-33.539	157.067	233.653	248.326	0.00010243	5.6791e-05	3.2428e-05	47.734	1.03e-06	1.3109e-06	69.329	11.762	1.8262e-06	1.0446e-06	25.512	11.483	6.7892	3.4892	8.2049e-07	6.6256	0.00012899	0.00019114	7.3373e-05	47.904	2.2235e-06	3.312e-06	68.77	11.709	2.1351e-06	2.4259e-06	25.46	11.44	6.6962	3.5179	2.0083e-06	6.6181	17.307	168.682	105.735	-21.493	163.644	66.639	-21.508	-16.802	155.953	56.789	-18.854	-12.852	-10.342	-7.350	156.327	-10.811	-8191	255	
2661.591	1	1	0	0	0.19585	0.046442	0.15829	0.069377	0.097658	0.16765	0.19901	0.13506	0.086429	0.066307	0.15629	0.065293	0.12326	0.18191	0.17626	0.2481	-2.8	-3.9354	-3.3604	-3.6208	-3.7042	-3.0187	-3.8187	-3.4583	-3.0833	-4	-3.3417	-3.4229	-3.7083	-3.0229	-3.7396	-3.4917	42.090	15.809	9.446	190.593	60.351	36.831	101.204	139.063	63.174	168.410	302.015	94.736	152.326	246.288	242.195	4.709	8.9967e-05	3.7263e-05	9.9829e-06	47.533	6.0518e-07	5.3298e-07	68.769	11.844	5.8047e-07	8.0919e-07	25.98	11.29	6.5985	3.4174	6.7871e-07	6.4516	0.0001421	0.00022015	8.2544e-05	47.829	2.6724e-06	3.9058e-06	68.215	11.558	2.3866e-06	2.4057e-06	25.432	11.205	6.5408	3.4588	2.3928e-06	6.5236	23.834	25.270	20.641	-21.486	104.439	55.144	-20.847	-15.984	129.170	157.334	-18.406	-12.766	-11.122	-8.899	67.837	-10.450	-8191	255	
2661.711	1	1	0	0	0.18959	0.36448	0.24521	0.23257	0.16476	0.079621	0.15752	0.12543	0.094756	0.10731	0.072161	0.1173	0.091204	0.092954	0.11875	0.17291	-2.6021	-3.7646	-3.0583	-3.4917	-3.9583	-3.0708	-3.7833	-3.6375	-3.3187	-3.9333	-3.2896	-3.3187	-3.9062	-2.9292	-3.7583	-3.5958	104.604	25.391	139.813	90.056	137.509	-14.191	110.340	191.596	-24.335	82.796	82.816	322.058	270.231	289.410	247.517	212.218	5.7541e-05	3.1946e-05	1.2472e-05	48.297	1.0397e-06	7.5091e-07	69	11.668	1.2293e-06	3.7446e-07	25.113	11.128	6.3391	3.3598	1.737e-07	6.3615	0.00014899	0.00024785	8.3156e-05	47.843	2.5366e-06	3.3405e-06	68.309	11.462	2.5015e-06	2.8572e-06	25.185	11.03	6.4156	3.392	2.5837e-06	6.4037	-2.308	48.096	158.018	-23.115	38.361	46.980	-19.776	-15.870	145.868	195.093	-17.770	-12.054	-10.971	-8.396	321.442	-10.817	-8191	255	
2661.783	1	1	0	0	0.11984	0.043045	0.10898	0.39117	0.086652	0.1089	0.14035	0.16558	0.041147	0.14886	0.27001	0.058304	0.11927	0.1024	0.02613	0.060594	-2.6562	-3.8625	-3.4813	-3.325	-3.8937	-3.25	-3.6896	-3.7667	-3.0708	-3.9688	-3.2604	-3.1958	-3.8896	-3.1813	-3.8396	-3.8646	105.087	300.764	145.576	-15.393	221.674	24.286	253.203	297.715	186.375	146.537	160.811	19.537	263.639	275.060	5.101	-3.540	8.4154e-05	1.2e-05	3.0929e-06	47.933	1.1356e-06	5.5493e-07	68.41	11.502	2.1049e-06	1.4471e-06	24.954	10.911	6.2378	3.2883	4.5004e-07	6.2981	0.00015985	0.00026535	9.1367e-05	47.385	2.5779e-06	3.6374e-06	67.914	11.468	2.5061e-06	3.037e-06	24.668	10.796	6.3131	3.3532	2.1468e-06	6.3033	-3.304	110.781	198.924	-19.880	136.584	117.623	-20.707	-14.254	208.136	110.440	-17.893	-11.960	-10.302	-7.419	127.108	-10.548	-8191	255	
2661.879	1	1	0	0	0.26507	0.11509	0.16669	0.24273	0.091319	0.15043	0.12326	0.044864	0.27824	0.30231	0.038835	0.16571	0.20026	0.15122	0.14631	0.16517	-2.7042	-3.7833	-3.4792	-3.2313	-3.95	-3.3917	-3.4	-3.7875	-3.0104	-3.9062	-3.6375	-3.2354	-3.7729	-3.1021	-3.5292	-3.8208	88.331	270.009	98.358	21.383	230.165	61.259	225.238	288.341	173.367	201.687	-1.128	125.256	266.185	98.537	187.201	55.691	6.1163e-05	6.1886e-05	1.3948e-05	48.142	9.6554e-07	4.9149e-07	66.554	11.778	2.2366e-06	1.0311e-06	25.264	10.868	6.3705	3.3853	1.3131e-06	6.3651	0.00014581	0.00022438	8.7305e-05	47.593	2.2398e-06	3.8631e-06	66.389	11.568	2.2235e-06	2.7911e-06	24.878	10.801	6.3204	3.3697	2.5918e-06	6.3594	13.878	64.099	301.145	-21.539	0.482	109.525	-20.071	-15.031	136.168	103.297	-18.245	-12.369	-10.808	-7.969	144.027	-10.476	-8191	255	
2662.000	1	1	0	0	0.048748	0.1032	0.12657	0.121	0.19166	0.19697	0.09317	0.14895	0.077134	0.014308	0.13812	0.18246	0.315	0.11484	0.13837	0.092373	-2.6208	-3.6271	-3.4292	-3.0917	-3.825	-3.1521	-3.1354	-3.8438	-3.1125	-3.7354	-3.6	-3.0667	-3.8042	-3.3667	-3.4021	-3.8458	-9.737	277.460	256.345	-26.030	168.228	109.059	117.464	169.133	89.008	84.026	51.694	85.099	288.991	2.234	63.427	228.310	9.3707e-05	3.9445e-05	2.3444e-05	45.137	6.5586e-07	6.1233e-07	67.623	11.49	8.1173e-07	1.322e-06	25.411	10.852	6.3078	3.3964	9.8771e-07	6.4559	0.00015271	0.00029859	7.6168e-05	46.581	2.38e-06	3.6871e-06	66.757	11.512	2.0754e-06	3.2132e-06	25.17	10.838	6.355	3.4057	2.6711e-06	6.4519	29.247	235.602	130.118	-21.122	101.363	127.214	-20.646	-14.634	129.184	118.673	-18.120	-12.413	-10.016	-7.882	145.140	-10.431	-8191	255	
2662.096	1	1	0	0	0.060294	0.2529	0.086459	0.29002	0.27453	0.28057	0.082165	0.15463	0.10886	0.13231	0.25118	0.14768	0.11427	0.25831	0.15317	0.13752	-2.7229	-3.4396	-3.6917	-2.8521	-3.7438	-3.3958	-3.3333	-3.9354	-3.2021	-3.7021	-3.6771	-3.2458	-3.6354	-3.5	-3.2313	-3.9208	195.468	248.659	153.874	151.269	-30.571	113.088	184.345	61.752	33.990	86.877	289.593	132.365	172.403	62.949	163.915	133.063	7.1774e-05	7.8055e-05	1.005e-05	47.128	5.7454e-07	1.2836e-06	67.916	11.722	2.032e-06	5.5944e-07	25.219	11.017	6.2339	3.4008	1.1549e-06	6.4547	0.0001506	0.00025703	7.1058e-05	46.957	2.3978e-06	3.1574e-06	67.435	11.57	2.3476e-06	3.4169e-06	25.064	10.952	6.331	3.4089	3.2061e-06	6.4617	11.675	69.591	38.792	-21.309	88.460	147.087	-20.463	-15.734	139.567	20.451	-18.531	-13.305	-9.936	-6.653	75.982	-10.549	-8191	255	
2662.192	1	1	0	0	0.031467	0.18373	0.21156	0.10944	0.057643	0.14365	0.17503	0.1476	0.085518	0.15826	0.03905	0.13628	0.064229	0.081064	0.11379	0.043254	-2.7458	-3.2583	-3.85	-3.0083	-3.7313	-3.6021	-3.1021	-3.8146	-3.3833	-3.4646	-4.0042	-3.1896	-3.7	-3.8542	-3.1833	-4.15	179.264	102.060	213.682	-7.165	76.853	244.272	257.531	117.977	274.760	309.749	74.921	243.323	185.297	223.871	-17.745	238.145	0.00011569	2.6247e-05	1.54e-05	48.243	8.0683e-07	9.2224e-07	67.705	11.639	6.8167e-07	7.8677e-07	25.07	10.833	6.4292	3.3682	1.7662e-06	6.2975	0.00015848	0.00031681	7.4683e-05	47.129	2.9027e-06	3.3138e-06	67.051	11.46	2.3315e-06	3.5985e-06	24.799	10.85	6.3524	3.3672	2.7786e-06	6.354	9.476	23.675	212.589	-22.491	132.729	66.267	-20.129	-15.281	63.567	221.560	-19.273	-11.893	-11.211	-7.351	82.498	-9.702	-8191	255	
2662.288	1	1	0	0	0.06839	0.17173	0.12676	0.3602	0.088031	0.22582	0.08188	0.20665	0.098165	0.22736	0.17883	0.15976	0.14075	0.12816	0.23648	0.10417	-3.0958	-3.2979	-3.9	-2.9938	-3.725	-3.7292	-3.1854	-4.0271	-3.5375	-3.4771	-3.9646	-3.1083	-3.5333	-3.7042	-3.1896	-3.8688	304.199	246.196	167.627	-5.220	56.579	211.845	96.553	119.804	-0.516	-30.322	186.090	197.372	254.248	324.010	-0.508	2.714	8.7375e-05	0.00010617	1.1026e-05	47.217	1.2561e-06	2.8935e-07	65.409	11.48	1.552e-06	2.4537e-07	24.996	11.173	6.4155	3.3783	1.2405e-06	6.3991	0.0001443	0.00029042	6.6778e-05	46.773	2.5469e-06	3.0151e-06	66.12	11.437	2.0306e-06	3.6334e-06	24.82	10.928	6.3508	3.4015	2.8794e-06	6.4787	-9.646	32.552	66.142	-21.651	83.425	41.526	-20.069	-15.508	75.902	214.065	-18.695	-12.227	-9.401	-7.566	110.399	-10.526	-8191	255	
2662.383	1	1	0	0	0.052382	0.13726	0.29644	0.16043	0.080574	0.056711	0.21135	0.21006	0.19054	0.18204	0.062138	0.1002	0.18267	0.021498	0.1959	0.15064	-3.1042	-3.375	-3.8958	-3.1625	-3.4604	-4.0021	-3.2146	-3.9771	-3.6312	-3.2521	-4.0083	-3.1083	-3.5646	-3.9292	-3.0875	-3.9938	105.363	178.611	184.052	108.035	-31.637	194.782	290.688	281.164	0.652	217.942	231.773	47.201	42.476	200.755	119.297	110.301	7.4983e-05	2.1413e-05	2.3988e-05	45.888	7.7276e-07	4.5978e-07	67.402	11.822	1.3363e-06	1.0837e-06	25.72	11.428	6.4526	3.5608	9.2925e-07	6.8276	0.00014087	0.00027234	6.7782e-05	46.78	3.0282e-06	2.8285e-06	67.281	11.621	1.7894e-06	3.7802e-06	25.806	11.422	6.644	3.6053	2.6092e-06	6.8752	6.775	102.455	78.199	-20.568	103.199	243.441	-20.126	-16.464	319.053	115.609	-17.428	-12.661	-9.959	-6.781	107.707	-10.347	-8191	255	
2662.479	1	1	0	0	0.23603	0.13838	0.10464	0.29669	0.38023	0.20418	0.1763	0.27675	0.14522	0.088736	0.12921	0.19373	0.16714	0.23185	0.024415	0.098978	-3.2667	-3.2938	-3.9813	-3.1562	-3.6104	-3.8604	-3.2562	-3.7125	-3.6104	-3.2458	-3.8417	-3.2417	-3.3104	-3.7854	-3.2354	-3.7917	97.736	243.945	-30.754	170.589	184.356	302.664	25.406	-6.153	218.936	4.066	165.770	233.563	-29.927	6.062	-5.894	287.322	9.3527e-05	4.1396e-05	1.3123e-05	46.811	1.0428e-06	6.4573e-07	67.976	12.136	8.9081e-07	6.3448e-07	27.087	11.757	6.7299	3.6918	1.0738e-07	7.0404	0.00013295	0.00030136	5.9484e-05	47.306	2.4598e-06	2.3378e-06	67.39	12.053	1.7193e-06	2.8076e-06	26.656	11.639	6.8315	3.7072	2.5084e-06	7.0025	5.783	216.081	41.136	-23.512	81.344	104.595	-20.605	-16.867	95.106	38.940	-17.875	-12.303	-11.073	-7.874	58.325	-9.765	-8191	255	
2662.575	1	1	0	0	0.044861	0.14318	0.26006	0.25743	0.1514	0.15289	0.23867	0.14599	0.25694	0.18065	0.14356	0.20517	0.17297	0.091313	0.12716	0.046761	-3.3479	-3.1479	-3.8292	-3.3708	-3.2833	-3.8708	-3.2958	-3.5896	-3.7083	-3.1792	-4.0188	-3.4854	-3.3646	-3.9313	-3.375	-3.6479	255.994	325.147	61.277	38.774	-0.609	228.374	117.236	183.181	13.515	276.704	23.680	2.073	94.447	-16.545	57.936	57.798	7.6294e-05	4.3717e-05	1.8695e-05	47.324	4.0007e-07	4.3569e-07	65.391	11.989	1.5679e-06	7.8375e-07	25.933	11.448	6.6065	3.6368	1.1083e-06	6.8373	0.00012523	0.00024829	7.2892e-05	47.35	2.8377e-06	2.1813e-06	65.264	11.928	1.5023e-06	3.2022e-06	26.209	11.333	6.6763	3.6063	2.3699e-06	6.841	14.097	91.176	80.675	-21.277	152.617	141.916	-20.542	-16.009	104.350	92.019	-17.392	-12.439	-11.222	-7.188	47.811	-10.373	-8191	255	
2662.671	1	1	0	0	0.18541	0.18163	0.25801	0.052563	0.15241	0.12978	0.14595	0.058722	0.15219	0.02417	0.25494	0.23226	0.10323	0.078105	0.16001	0.17278	-3.5125	-3.0646	-3.9062	-3.5229	-3.2292	-4.0563	-3.5146	-3.3271	-3.8292	-2.9396	-3.8	-3.5375	-3.3771	-3.8979	-3.3167	-3.45	139.594	121.614	145.958	243.015	147.782	77.131	212.907	234.464	82.208	323.358	230.621	322.262	237.758	254.117	42.389	280.865	0.00011394	3.2876e-05	7.0152e-06	47.087	1.0303e-06	4.9264e-07	64.151	12.233	2.6951e-06	1.309e-06	26.161	11.192	6.6465	3.6136	1.1141e-06	6.8011	0.00011476	0.00025193	6.4594e-05	47.18	2.8082e-06	2.624e-06	64.271	11.91	1.7607e-06	3.1765e-06	25.95	11.318	6.7141	3.6624	2.2113e-06	6.907	-1.971	127.326	253.338	-22.274	147.221	98.433	-20.222	-16.037	86.627	107.466	-18.200	-12.920	-10.509	-8.477	125.136	-9.803	-8191	255	
2662.792	1	1	0	0	0.038987	0.056082	0.059324	0.016004	0.054424	0.18945	0.035828	0.24495	0.062092	0.14131	0.069976	0.095265	0.14576	0.057405	0.046162	0.19702	-3.6063	-3.1354	-3.7333	-3.6479	-3.2979	-3.9604	-3.3187	-3.5167	-3.8396	-3.1792	-3.8146	-3.7917	-3.1021	-3.9479	-3.3521	-3.4146	96.706	111.313	236.713	233.181	145.051	171.762	8.284	236.023	300.201	283.841	326.038	251.856	149.708	296.597	11.749	125.202	9.2471e-05	3.7561e-05	1.0331e-05	46.955	6.7762e-07	1.2889e-06	65.838	11.91	6.2876e-07	4.4201e-07	26.214	11.627	6.6917	3.6378	1.4428e-06	6.863	0.00012459	0.00021024	6.2105e-05	46.317	2.6399e-06	2.3449e-06	64.749	11.853	1.6688e-06	2.7893e-06	26.147	11.465	6.6991	3.667	2.3283e-06	6.9529	-10.577	30.512	124.434	-21.655	100.785	118.578	-20.307	-15.447	313.212	40.572	-17.912	-12.321	-10.583	-7.794	63.445	-10.304	-8191	255	
2662.888	1	1	0	0	0.25423	0.034906	0.040484	0.11813	0.062603	0.10224	0.20011	0.10127	0.066397	0.1213	0.20028	0.054202	0.1767	0.21252	0.15886	0.20421	-3.6792	-3.0583	-3.6333	-3.75	-3.2646	-3.7375	-3.3292	-3.15	-3.9417	-3.225	-3.5896	-3.7229	-3.05	-3.9417	-3.6083	-3.1542	9.572	-13.541	310.227	-8.283	55.129	68.823	-30.125	-2.374	-5.093	321.985	206.794	59.544	64.260	318.666	202.260	22.657	7.8952e-05	8.8087e-06	2.5144e-05	47.701	4.4221e-07	4.0533e-07	65.559	11.755	6.754e-07	2.9742e-07	26.682	11.448	6.6526	3.6506	8.1444e-07	6.9059	0.00012713	0.00024071	6.6429e-05	47.719	2.7167e-06	2.4036e-06	64.862	11.829	1.2197e-06	2.9838e-06	26.381	11.392	6.6847	3.6331	2.1374e-06	6.9123	27.021	-27.130	51.584	-21.204	123.307	208.777	-19.766	-14.954	3.753	140.080	-18.917	-13.045	-10.266	-7.452	138.789	-10.081	-8191	255	
2662.984	1	1	0	0	0.038095	0.022045	0.15478	0.18238	0.16216	0.06929	0.24462	0.044316	0.047973	0.091796	0.085929	0.092314	0.067893	0.20767	0.069098	0.18713	-3.6375	-3.2583	-3.4729	-3.9313	-3.0292	-4.0042	-3.7438	-3.1979	-4.0125	-3.325	-3.25	-3.8104	-3.125	-3.8438	-3.5729	-2.8833	106.964	255.679	78.660	59.276	169.659	76.771	67.578	265.901	69.475	-16.012	119.532	140.278	66.409	253.282	108.556	213.155	8.3442e-05	3.4762e-05	1.9387e-05	47.422	5.5722e-07	6.4997e-07	63.568	12.044	1.2938e-06	5.8242e-07	25.766	11.105	6.4855	3.5885	5.3361e-07	6.5458	0.00010953	0.00020032	6.5773e-05	46.881	2.3638e-06	2.4196e-06	63.688	11.8	1.2037e-06	2.9196e-06	25.566	11.086	6.5627	3.593	1.8215e-06	6.6642	-12.967	168.775	28.353	-21.551	114.829	153.056	-20.197	-16.319	170.296	159.629	-18.870	-12.800	-10.387	-6.647	164.963	-10.805	-8191	255	
2663.080	1	1	0	0	0.12683	0.087669	0.19749	0.074743	0.065279	0.062983	0.21421	0.13721	0.08934	0.070192	0.072168	0.34757	0.18592	0.10022	0.12166	0.097383	-3.5333	-3.4417	-3.2854	-3.9813	-3.2104	-3.725	-3.6542	-3.1188	-3.8167	-3.3771	-3.2771	-3.9021	-3.175	-3.5042	-3.8646	-2.9646	167.056	273.914	97.532	-23.037	256.175	-4.458	319.414	234.329	281.980	176.768	215.923	10.689	204.128	198.529	183.103	178.936	0.0001059	5.8757e-05	2.1761e-05	47.463	7.7528e-07	1.1064e-06	64.993	11.719	8.233e-07	1.2971e-06	25.26	11.205	6.4711	3.5307	2.8196e-07	6.6818	0.0001108	0.00021344	6.2978e-05	46.828	2.2413e-06	2.448e-06	63.453	11.638	1.4058e-06	2.7269e-06	25.46	11.107	6.5466	3.5582	2.011e-06	6.7164	16.482	27.563	49.598	-20.654	79.775	70.321	-19.552	-16.596	109.781	126.812	-18.072	-12.254	-8.868	-7.668	73.923	-9.884	-8191	255	
2663.176	1	1	0	0	0.19948	0.059052	0.15672	0.18075	0.35576	0.15484	0.31477	0.083813	0.17681	0.31025	0.09479	0.081696	0.16491	0.032883	0.10296	0.087749	-3.3958	-3.4125	-3.2062	-3.7771	-3.0062	-3.5292	-3.7229	-3.0917	-3.7542	-3.5625	-3.2771	-3.7208	-3.1813	-3.4083	-3.7104	-3.0625	243.007	187.768	-29.813	30.829	167.656	236.536	69.113	11.643	-25.646	96.555	116.064	304.907	50.306	173.680	0.848	73.034	9.5651e-05	3.5739e-05	2.2111e-05	46.9	9.1309e-07	1.0012e-06	63.493	11.86	2.5226e-06	1.066e-06	26.127	11.203	6.4756	3.5965	4.0162e-07	6.7424	0.00012811	0.0001942	6.6822e-05	46.703	2.727e-06	2.896e-06	63.741	11.716	1.3059e-06	2.1121e-06	25.948	11.161	6.6434	3.6038	1.7785e-06	6.7678	1.060	199.150	173.178	-21.249	89.832	134.664	-19.652	-15.959	152.886	102.744	-17.794	-13.016	-10.307	-6.948	183.333	-10.718	-8191	255	
2663.272	1	1	0	0	0.22682	0.22314	0.069063	0.13646	0.052733	0.28737	0.022799	0.041959	0.15378	0.075959	0.034264	0.21659	0.060808	0.017313	0.22638	0.064192	-3.4146	-3.4104	-3.0354	-3.8021	-3.1792	-3.3771	-3.6583	-3.1708	-3.8021	-3.6229	-3.1833	-3.8312	-3.2708	-3.4146	-3.9146	-3.1104	294.351	227.646	187.256	-1.153	209.206	238.974	97.396	97.895	73.630	141.972	-10.761	15.667	300.570	146.531	55.860	144.858	6.0466e-05	7.7564e-05	2.1214e-05	46.717	8.8151e-07	2.3925e-07	64.202	11.973	2.0966e-06	1.0167e-06	26.892	11.492	6.788	3.6445	6.2846e-07	6.7825	0.00012616	0.0001872	7.8745e-05	46.646	2.3047e-06	2.6489e-06	64.379	11.832	1.6148e-06	2.314e-06	26.422	11.443	6.7879	3.6458	1.5486e-06	6.8606	13.983	76.519	14.847	-23.374	146.059	105.179	-19.774	-15.901	138.187	161.431	-18.639	-13.003	-10.650	-8.060	67.667	-10.309	-8191	255	
2663.393	1	1	0	0	0.19191	0.12387	0.21125	0.17424	0.13796	0.32301	0.013506	0.26843	0.076612	0.15702	0.29261	0.17919	0.061429	0.099157	0.18323	0.1278	-3.2521	-3.7646	-3.225	-3.6854	-3.3896	-3.3354	-3.8104	-3.2104	-3.6375	-3.7667	-3.0812	-3.7958	-3.5938	-3.0563	-4.0354	-3.2958	313.207	134.863	141.409	141.708	123.071	214.231	137.651	216.750	107.498	185.310	12.222	39.088	214.187	277.711	95.566	97.081	8.3165e-05	4.3955e-05	1.5083e-05	47.917	8.6306e-07	7.5184e-07	66.998	11.854	1.3825e-06	5.8737e-07	26.325	11.095	6.6451	3.5809	7.5355e-07	6.7059	0.00012586	0.00018122	6.7477e-05	47.616	1.8603e-06	2.8125e-06	65.921	11.776	1.5321e-06	2.0663e-06	26.166	11.171	6.6525	3.6082	1.7691e-06	6.7407	16.207	76.461	224.741	-21.122	129.092	196.669	-19.736	-17.568	114.591	8.196	-17.504	-12.321	-11.242	-7.009	10.027	-10.081	-8191	255	
2663.487	1	1	0	0	0.17405	0.22669	0.095629	0.13558	0.15147	0.02806	0.044037	0.14568	0.19492	0.10622	0.09441	0.30037	0.18433	0.05321	0.15968	0.14211	-3.0854	-3.7667	-2.8229	-3.7917	-3.5146	-3.1021	-3.8312	-3	-3.2562	-3.7854	-3.0479	-3.7562	-3.5271	-3.0687	-3.9583	-3.3688	231.558	152.742	184.759	245.573	253.003	63.834	125.434	218.122	87.594	320.041	202.417	-13.007	167.080	266.832	115.561	273.466	7.7894e-05	7.4738e-05	2.9476e-05	46.406	9.2366e-07	7.9631e-07	65.69	11.791	6.4268e-07	1.0285e-06	25.841	11.254	6.7317	3.5955	1.9089e-06	6.7705	0.00012787	0.00019259	7.4901e-05	47.373	1.8943e-06	2.8534e-06	65.784	11.669	1.2542e-06	2.1213e-06	26.03	11.171	6.6555	3.6038	1.8215e-06	6.7733	11.214	83.800	285.069	-21.899	135.826	123.248	-20.820	-16.069	73.716	50.513	-17.402	-12.538	-12.395	-6.642	112.321	-10.093	-8191	255	
2663.584	1	1	0	0	0.2978	0.27241	0.25519	0.050239	0.28884	0.18986	0.22495	0.20561	0.080715	0.17956	0.20921	0.069059	0.015312	0.17998	0.25617	0.26248	-3.0417	-3.8375	-2.9208	-3.725	-3.65	-3.0292	-3.9792	-3.3937	-3.1771	-3.9437	-3.1792	-3.6229	-3.4896	-3.0333	-3.6979	-3.4042	-18.819	135.555	33.772	9.097	119.567	28.504	-24.604	318.965	124.273	264.805	111.142	81.099	28.944	65.598	312.712	166.092	8.2651e-05	1.5655e-05	2.0895e-05	47.826	1.2762e-06	7.7412e-07	68.554	11.81	1.9094e-06	1.3379e-06	26.462	11.5	6.6887	3.5804	9.0077e-07	6.7534	0.00013481	0.00015323	7.1888e-05	46.973	1.8854e-06	2.4871e-06	67.197	11.613	1.8572e-06	2.1764e-06	26.226	11.333	6.6953	3.6022	1.7166e-06	6.7714	4.918	90.875	321.717	-21.328	73.668	44.731	-20.100	-15.931	-11.500	115.936	-18.598	-12.969	-9.423	-7.133	119.407	-10.566	-8191	255	
2663.680	1	1	0	0	0.12174	0.14581	0.076858	0.08739	0.42139	0.091594	0.12366	0.21539	0.10988	0.15514	0.20092	0.073952	0.14688	0.090725	0.063441	0.24619	-2.8667	-3.7042	-3.0187	-3.3958	-3.775	-3.0167	-3.6104	-3.3375	-3.2562	-3.9437	-3.025	-3.3063	-3.6917	-2.9708	-3.7562	-3.5312	19.380	-30.183	79.089	-12.134	301.249	121.966	47.201	20.317	216.838	168.261	200.689	82.250	302.940	-16.761	223.713	219.232	6.8075e-05	4.1498e-05	8.6234e-06	47.468	8.4639e-07	4.3945e-07	69.19	11.556	2.3086e-07	1.0796e-06	26.183	11.089	6.7495	3.5981	1.1518e-06	6.7453	0.00012894	0.00017422	6.2978e-05	47.93	2.2043e-06	2.8267e-06	68.27	11.55	1.6091e-06	1.7672e-06	26.08	11.288	6.6911	3.5848	1.804e-06	6.7394	11.238	75.164	201.500	-21.853	-16.009	276.703	-20.715	-15.807	187.338	46.804	-17.726	-12.481	-11.076	-8.292	169.978	-10.420	-8191	255	
2663.776	1	1	0	0	0.048565	0.063227	0.20834	0.23024	0.058999	0.24506	0.12456	0.056538	0.08432	0.26775	0.35909	0.37305	0.068429	0.21255	0.12124	0.10851	-2.5938	-3.7062	-3.2646	-3.35	-3.6104	-3.0729	-3.7417	-3.6083	-3.1208	-3.8812	-3.1708	-3.3354	-3.7687	-3.1375	-3.6562	-3.6562	110.100	202.609	48.086	155.528	267.105	319.807	238.295	232.677	17.136	147.312	144.383	130.729	188.925	-26.830	213.492	155.122	5.364e-05	7.4594e-05	5.3588e-05	49.271	7.7986e-07	2.0915e-07	68.511	11.458	4.2518e-07	4.3572e-07	26.174	11.088	6.7163	3.4658	6.7216e-07	6.6505	0.00014542	0.00016591	6.6298e-05	48.307	1.8958e-06	2.4249e-06	67.852	11.309	1.9043e-06	1.4497e-06	25.859	11.008	6.5335	3.4925	1.6548e-06	6.6053	11.470	133.330	132.483	-22.281	141.942	75.597	-20.835	-15.867	121.986	93.302	-18.285	-11.947	-9.659	-7.442	97.334	-10.207	-8191	255	
2663.872	1	1	0	0	0.1001	0.091513	0.10479	0.090473	0.066615	0.073688	0.13244	0.050891	0.062784	0.18527	0.11265	0.069634	0.10481	0.13756	0.18379	0.2649	-2.5958	-3.6521	-3.2875	-3.1292	-3.8271	-3.0604	-3.6708	-3.675	-3.0875	-3.7125	-3.325	-3.2604	-3.7521	-3.1729	-3.325	-3.7979	271.356	190.402	144.787	25.325	99.997	13.539	120.514	92.998	218.426	170.280	203.700	265.319	138.192	45.220	-20.563	95.916	8.1906e-05	0.00010612	1.0885e-05	47.111	1.0263e-06	1.0527e-06	66.824	11.295	3.7245e-07	5.7998e-07	25.15	10.808	6.3668	3.4514	1.2505e-06	6.4696	0.00013002	0.00012363	5.3719e-05	46.819	1.4159e-06	2.4533e-06	66.685	11.195	1.4816e-06	1.5836e-06	25.046	10.805	6.4508	3.4626	1.4075e-06	6.4995	-0.369	93.857	10.926	-20.909	27.543	97.884	-20.735	-16.478	322.314	108.683	-18.609	-11.825	-9.559	-8.923	126.913	-10.911	-8191	255	
2663.968	1	1	0	0	0.12009	0.12376	0.032149	0.20718	0.15675	0.07572	0.20488	0.14644	0.052813	0.085381	0.083974	0.082489	0.079073	0.33708	0.18727	0.206	-2.6646	-3.8229	-3.4396	-3.1375	-3.9583	-3.2062	-3.4542	-3.9	-3.1125	-3.7313	-3.5979	-3.15	-3.8458	-3.1188	-3.2417	-3.7812	134.673	-23.952	178.960	146.995	-12.239	218.252	263.038	11.520	212.635	283.152	304.416	57.096	266.100	10.962	291.177	136.357	8.8957e-05	7.311e-05	3.2238e-05	46.373	5.2139e-07	5.531e-07	66.168	11.517	1.1366e-06	1.016e-06	25.868	10.789	6.3915	3.4378	6.3934e-07	6.5096	0.00011457	0.00012495	5.7432e-05	46.435	1.5104e-06	1.7262e-06	65.72	11.22	1.585e-06	1.9782e-06	25.359	10.82	6.4434	3.4597	2.0661e-06	6.5256	-8.299	69.556	16.416	-21.732	108.285	271.118	-20.294	-15.115	77.805	155.515	-17.701	-12.827	-11.204	-8.372	267.360	-10.997	-8191	255	
2664.089	1	1	0	0	0.099207	0.15306	0.17366	0.23493	0.22781	0.21006	0.083667	0.18909	0.24915	0.022047	0.11481	0.11016	0.074974	0.23631	0.093234	0.094441	-2.6	-3.6542	-3.5458	-3.2292	-3.85	-3.2125	-3.3354	-3.8229	-3.0896	-3.4313	-3.6729	-3.0521	-3.7812	-3.2	-3.2271	-3.8771	22.795	59.930	42.009	159.220	49.663	265.378	262.986	140.846	28.384	21.959	260.132	231.700	84.991	319.789	83.846	156.604	8.9309e-05	5.8708e-05	2.1561e-05	46.257	8.1021e-07	1.2533e-06	65.75	10.997	1.4831e-06	9.2069e-07	24.539	10.355	6.0245	3.2121	6.7792e-07	6.2196	0.00013075	0.00019041	4.8784e-05	46.824	1.6551e-06	2.6596e-06	64.763	11.056	1.9433e-06	2.7819e-06	24.585	10.336	6.0294	3.2517	2.6227e-06	6.1913	9.733	263.235	42.686	-21.913	241.727	98.567	-20.353	-16.378	70.202	115.095	-18.814	-12.754	-9.554	-7.502	45.357	-11.056	-8191	255	
2664.185	1	1	0	0	0.19167	0.074867	0.15418	0.14195	0.27861	0.34512	0.10835	0.16485	0.087649	0.17579	0.22329	0.15145	0.16023	0.25274	0.029569	0.16314	-2.8583	-3.5396	-3.7083	-3.175	-3.7083	-3.3583	-3.1896	-3.8708	-3.1167	-3.4562	-3.6979	-3.1813	-3.6667	-3.4625	-3.175	-3.8833	109.026	91.112	144.251	-1.072	91.842	254.986	237.484	95.305	63.382	126.614	62.158	251.031	-27.263	190.759	21.954	73.146	8.4993e-05	0.00010363	3.6162e-05	45.178	1.3832e-06	4.6496e-07	64.813	10.51	1.5019e-06	1.8644e-07	23.704	9.8848	5.8827	3.0892	8.8334e-07	5.8427	0.00013682	0.00020572	6.4856e-05	44.559	2.1837e-06	3.2178e-06	64.248	10.452	2.1477e-06	3.2572e-06	23.628	9.8092	5.6929	3.1004	2.4183e-06	5.8674	27.741	68.745	51.346	-22.434	166.855	274.507	-20.175	-15.767	93.127	249.521	-18.043	-12.577	-11.260	-7.915	142.516	-10.658	-8191	255	
2664.257	1	1	0	0	0.35072	0.19397	0.12935	0.14133	0.061416	0.33015	0.1656	0.26292	0.067868	0.086674	0.10618	0.18337	0.20114	0.044325	0.21523	0.12178	-2.8917	-3.3917	-3.7958	-3.0271	-3.8063	-3.525	-3.0646	-3.9167	-3.3167	-3.2833	-3.7417	-3.0521	-3.6729	-3.5854	-3.0104	-3.975	134.842	129.100	66.756	205.303	1.778	285.029	205.484	306.926	-18.682	191.731	-28.612	130.077	182.624	293.309	233.545	166.396	7.1587e-05	9.8927e-06	4.5529e-05	44.022	2.9328e-07	5.0557e-07	64.251	10.198	8.8704e-07	1.0394e-07	23.311	9.7077	5.4126	3.076	7.0794e-07	5.7688	0.00014581	0.00027438	6.1188e-05	44.253	2.6045e-06	2.8818e-06	63.325	10.167	2.142e-06	3.6884e-06	23.142	9.6628	5.5924	3.0685	2.4587e-06	5.7961	1.586	45.211	54.541	-20.023	244.548	248.421	-19.611	-15.641	111.722	82.559	-17.759	-13.128	-11.298	-8.350	39.920	-9.949	-8191	255	
2664.353	1	1	0	0	0.34257	0.13637	0.17969	0.10778	0.15862	0.20772	0.21161	0.090047	0.11543	0.24685	0.24397	0.21663	0.11524	0.086257	0.14121	0.28731	-2.7917	-3.2479	-3.8792	-3.2146	-3.5896	-3.4917	-2.9646	-3.8167	-3.3479	-3.2229	-3.8292	-2.9792	-3.5062	-3.7083	-2.8542	-3.6771	87.777	237.747	231.098	-18.659	176.260	50.252	114.901	193.387	271.196	111.062	45.417	40.571	3.134	116.584	281.519	5.950	8.2985e-05	8.6332e-05	1.4243e-05	42.457	1.0358e-06	4.3612e-07	63.9	10.22	9.645e-07	6.8818e-07	23.436	9.7053	5.6869	3.0835	5.2853e-07	5.8918	0.00014322	0.00026112	6.5511e-05	43.741	2.5292e-06	2.4996e-06	63.797	10.056	2.1891e-06	2.8223e-06	23.188	9.6883	5.7078	3.0808	2.5635e-06	5.8401	20.189	114.664	23.060	-21.306	96.419	137.291	-19.757	-14.839	184.612	164.845	-17.586	-12.969	-11.732	-6.818	85.488	-10.349	-8191	255	
2664.472	1	1	0	0	0.16217	0.13267	0.10678	0.15366	0.085439	0.16068	0.16844	0.23961	0.18977	0.17064	0.059217	0.077798	0.31605	0.23036	0.098239	0.31725	-2.9833	-3.2729	-3.7188	-3.1813	-3.3792	-3.7521	-3.1708	-3.7354	-3.3937	-3.1042	-3.7875	-2.9354	-3.3229	-3.7979	-3.2167	-3.8312	151.779	277.775	-23.196	-24.493	281.156	105.119	-11.934	195.918	-22.683	-18.187	130.771	168.878	184.756	253.557	16.612	151.332	7.1229e-05	8.5242e-05	2.7807e-05	44.362	1.0604e-06	9.5763e-07	63.476	10.348	7.6833e-07	4.2396e-07	23.6	9.7789	5.7165	3.1228	8.6291e-07	5.8711	0.0001286	0.0002652	6.1712e-05	44.486	2.2619e-06	2.3645e-06	63.575	10.124	1.8572e-06	2.859e-06	23.295	9.7167	5.7253	3.114	2.4694e-06	5.9085	-0.867	112.072	304.836	-21.882	150.264	135.801	-19.650	-16.034	47.901	91.168	-18.939	-12.576	-10.728	-7.660	84.447	-10.912	-8191	255	
2664.568	1	1	0	0	0.17828	0.073961	0.192	0.07223	0.18667	0.036739	0.091444	0.26447	0.17179	0.17971	0.10986	0.15033	0.097993	0.1948	0.15634	0.17753	-3.2479	-3.1146	-3.7854	-3.2271	-3.2667	-3.7396	-2.9771	-3.6542	-3.5708	-3.0042	-3.9188	-3.3604	-3.2667	-3.8354	-3.0563	-3.5354	34.177	153.494	-10.175	-0.139	323.514	36.774	114.715	48.409	38.675	180.830	252.301	-0.672	58.563	287.980	246.189	158.042	6.6119e-05	6.4314e-05	2.0702e-05	44.781	1.1985e-06	5.5523e-07	63.23	10.335	7.8018e-07	9.8897e-07	22.857	9.4495	5.5273	3.0112	9.3274e-07	5.7373	0.00013017	0.00024975	5.7868e-05	44.096	2.6414e-06	2.5813e-06	63.096	10.113	1.6654e-06	3.0645e-06	23.021	9.5142	5.6415	3.0445	2.5622e-06	5.7725	29.081	71.619	131.025	-21.832	104.093	182.958	-20.196	-14.815	2.509	161.002	-17.928	-12.382	-10.586	-7.938	124.947	-10.877	-8191	255	
2664.664	1	1	0	0	0.1842	0.22967	0.16907	0.058747	0.28104	0.34377	0.10499	0.31637	0.18394	0.14327	0.062768	0.1565	0.1392	0.093861	0.13492	0.2569	-3.3	-3.0125	-3.8708	-3.3375	-3.1792	-3.8542	-3.1521	-3.5896	-3.7583	-3.1688	-3.7417	-3.3667	-3.2271	-3.9729	-2.9917	-3.4938	28.410	-25.189	-1.905	30.625	110.276	293.030	203.719	268.736	242.655	282.052	283.611	161.605	17.252	223.350	128.822	306.219	0.00010354	7.5406e-05	3.3946e-05	42.995	2.5899e-07	6.7129e-07	63.717	10.516	8.3475e-07	1.2266e-07	23.404	9.9325	5.9863	3.2434	6.369e-07	6.1294	0.00011163	0.00026928	6.3371e-05	43.307	2.3845e-06	2.3271e-06	62.597	10.387	1.0486e-06	3.1618e-06	23.652	9.9225	5.9577	3.2723	1.8887e-06	6.1208	-3.930	-13.469	126.212	-21.650	173.859	85.791	-20.162	-15.133	63.347	298.668	-18.986	-13.204	-10.697	-7.830	57.199	-9.816	-8191	255	
2664.760	1	1	0	0	0.093601	0.13589	0.21031	0.10381	0.1747	0.097576	0.13084	0.02415	0.15481	0.12948	0.1887	0.33539	0.18096	0.22293	0.034538	0.26319	-3.5667	-3.0521	-3.5854	-3.4917	-3.1979	-3.9062	-3.2354	-3.2354	-3.8917	-3.1021	-3.6354	-3.525	-2.9208	-3.8521	-3.3125	-3.3833	184.986	-25.010	23.155	261.619	159.464	140.769	200.242	256.885	6.454	292.938	197.569	3.696	241.070	281.926	-13.406	238.004	4.7123e-05	3.3207e-05	5.4403e-06	45.918	6.8984e-07	4.3316e-07	62.885	10.915	1.1984e-06	8.9103e-07	25.137	10.334	5.9922	3.3531	1.5814e-06	6.2636	0.00011378	0.00021796	4.5465e-05	44.204	2.3771e-06	1.9022e-06	62.445	10.728	1.1083e-06	2.2186e-06	24.781	10.17	6.035	3.3492	1.7018e-06	6.3132	6.399	34.181	88.249	-21.575	230.136	214.498	-19.929	-15.974	103.558	53.014	-17.757	-13.170	-10.021	-8.669	102.771	-10.405	-8191	255	
2664.881	1	1	0	0	0.048245	0.14286	0.21568	0.16618	0.076222	0.037513	0.12842	0.27414	0.058351	0.23594	0.20996	0.18776	0.11639	0.059881	0.27234	0.030352	-3.3979	-3.0625	-3.7167	-3.5958	-2.9542	-3.6437	-3.1021	-3.15	-3.75	-3.0604	-3.6	-3.5917	-3.0083	-3.9458	-3.2104	-3.1417	46.302	64.646	272.009	-2.767	203.181	298.846	209.533	96.825	235.659	223.091	93.663	309.993	30.734	231.524	62.886	33.411	9.9077e-05	5.6884e-05	2.1404e-06	44.84	1.0926e-06	8.7439e-07	63.156	11.018	1.7243e-06	1.616e-06	24.669	10.13	5.812	3.2742	2.6839e-07	6.1107	9.8235e-05	0.00025733	4.8042e-05	44.326	2.2619e-06	1.3618e-06	62.25	10.958	1.2565e-06	2.7306e-06	24.784	10.062	5.9611	3.2802	1.9304e-06	6.1641	-9.246	28.641	159.618	-21.183	188.501	174.172	-20.647	-15.751	131.833	143.249	-18.686	-12.060	-10.775	-6.933	22.328	-10.451	-8191	255	
2664.952	1	1	0	0	0.15003	0.10381	0.10965	0.23375	0.12033	0.18735	0.12488	0.1379	0.16098	0.075219	0.17314	0.10248	0.40541	0.024809	0.13174	0.09126	-3.45	-3.0021	-3.5104	-3.6021	-3.0979	-3.7896	-3.3167	-3.0812	-3.8688	-3.2083	-3.4188	-3.7625	-2.8458	-3.9208	-3.3583	-3.3271	301.787	103.905	143.857	275.537	49.888	176.868	-33.389	-27.008	298.951	308.118	158.291	241.445	193.595	315.797	298.223	66.580	9.8985e-05	4.2166e-05	3.0454e-05	42.527	3.1073e-07	7.608e-08	59.178	10.784	8.9294e-07	9.8476e-07	23.784	9.4812	5.4854	3.0217	6.4885e-07	5.7094	9.3101e-05	0.00022948	6.5773e-05	42.668	2.2988e-06	2.0462e-06	58.978	10.52	1.2841e-06	2.5691e-06	23.585	9.2999	5.4558	3.0427	1.8874e-06	5.756	3.827	-35.089	82.066	-22.569	109.547	55.936	-20.302	-17.326	-8.610	156.424	-18.814	-12.587	-9.452	-7.815	242.510	-10.856	-8191	255	
2665.073	1	1	0	0	0.13803	0.28443	0.068869	0.246	0.1445	0.06687	0.24147	0.01661	0.066625	0.070007	0.088449	0.24175	0.24192	0.20547	0.11767	0.13042	-3.4375	-3.0729	-3.3458	-3.7292	-3.1437	-3.7292	-3.4354	-2.9062	-3.9646	-3.2146	-3.2104	-3.8625	-3.1063	-3.7188	-3.6	-3.1792	-13.327	7.122	8.514	163.798	11.870	276.658	-27.923	20.018	258.902	127.614	262.512	57.515	67.347	-30.678	22.094	300.737	8.366e-05	4.5979e-05	1.617e-05	42.44	1.271e-06	9.5203e-07	58.397	10.447	8.4641e-07	7.2161e-07	23.436	9.1378	5.3241	2.994	1.2303e-06	5.6414	9.3688e-05	0.00022394	5.4505e-05	41.914	2.6119e-06	2.2329e-06	58.131	10.361	1.4563e-06	2.7599e-06	23.327	9.1048	5.3227	3.0292	1.765e-06	5.6666	3.607	32.263	98.311	-21.023	140.758	-20.647	-19.513	-15.512	105.559	137.135	-17.551	-12.245	-11.964	-8.544	146.809	-10.314	-8191	255	
2665.169	1	1	0	0	0.24739	0.21981	0.10305	0.16035	0.11113	0.2022	0.10565	0.20874	0.17367	0.067122	0.19063	0.17995	0.16298	0.072182	0.11408	0.13234	-3.5333	-3.3021	-3.2562	-3.75	-3.1125	-3.4688	-3.4917	-2.9813	-3.8479	-3.3063	-3.2562	-3.8458	-3.2104	-3.6542	-3.5958	-3.0396	21.589	53.524	63.755	1.110	101.085	209.363	296.546	0.628	244.834	81.847	247.674	308.821	250.211	104.043	251.427	7.360	6.4269e-05	1.6258e-05	6.6246e-06	41.961	2.8192e-07	1.2267e-06	57.347	10.553	7.7619e-07	5.7941e-07	23.418	9.1476	5.359	3.0292	7.4928e-07	5.7711	9.8773e-05	0.0001786	6.918e-05	41.463	2.5823e-06	2.224e-06	56.863	10.503	1.0635e-06	2.7562e-06	23.273	9.1039	5.3561	3.0351	1.7422e-06	5.8009	-22.125	41.174	54.299	-20.860	239.842	114.359	-19.517	-17.200	104.756	140.819	-18.581	-11.776	-10.723	-8.120	110.554	-10.459	-8191	255	
2665.265	1	1	0	0	0.13168	0.15653	0.22134	0.030911	0.14619	0.18167	0.082067	0.13626	0.0030297	0.084383	0.12809	0.19826	0.060383	0.090094	0.10756	0.24558	-3.3292	-3.4521	-3.2375	-3.7542	-3.0458	-3.5167	-3.6437	-3.1271	-3.6646	-3.2354	-3.1542	-3.8792	-3.0021	-3.3438	-4.0125	-3.0458	166.752	105.603	255.086	77.222	132.397	183.760	175.512	231.639	32.771	70.059	313.757	81.416	210.286	137.149	31.563	35.336	8.4545e-05	9.176e-05	2.8327e-05	40.844	5.1277e-07	1.2537e-06	56.611	10.561	1.6211e-06	8.8848e-07	23.721	9.2335	5.3906	3.0537	7.639e-07	5.9015	8.4055e-05	0.00017072	7.2892e-05	40.534	2.0065e-06	1.9165e-06	55.874	10.472	1.5919e-06	2.0938e-06	23.588	9.1273	5.3784	3.0796	1.4182e-06	5.9625	-4.632	53.102	189.202	-21.309	190.112	117.973	-19.406	-17.112	63.800	156.443	-17.025	-12.901	-11.153	-7.543	101.160	-10.120	-8191	255	
2665.361	1	1	0	0	0.10047	0.050712	0.093828	0.09489	0.093005	0.12661	0.19656	0.051776	0.29933	0.27804	0.13721	0.21401	0.1854	0.26965	0.11399	0.15763	-3.3458	-3.5187	-3.0021	-4	-3.3875	-3.2792	-3.7396	-3.1104	-3.7062	-3.5312	-3.1521	-3.7167	-3.3812	-3.3208	-3.8167	-3.0354	52.024	196.726	35.737	191.483	43.369	79.703	165.558	100.406	247.521	97.340	275.217	290.987	230.549	105.259	23.818	77.851	7.8305e-05	5.8755e-05	1.5072e-05	39.411	4.8814e-07	2.8464e-07	55.899	10.527	3.6351e-07	3.5375e-07	23.383	9.0704	5.2852	3.1007	3.9657e-07	5.8632	0.00011002	0.00013384	5.2802e-05	39.712	1.7171e-06	2.0729e-06	56.011	10.427	9.2686e-07	1.4882e-06	23.323	9.0119	5.2919	3.1039	8.563e-07	5.8777	10.072	67.470	50.825	-20.566	175.934	62.251	-19.339	-17.161	97.752	-21.632	-17.900	-12.044	-9.921	-8.062	51.374	-10.127	-8191	255	
2665.480	1	1	0	0	0.12665	0.0080917	0.074372	0.22371	0.1226	0.25114	0.20505	0.20659	0.1131	0.025085	0.1047	0.16233	0.3954	0.16355	0.14098	0.036573	-3.1521	-3.6458	-3.0208	-3.7417	-3.4333	-3.2271	-3.8937	-3.1208	-3.4354	-3.7646	-3.0875	-3.7271	-3.2812	-3.3063	-3.8812	-3.1688	-3.366	124.881	171.020	25.134	38.474	305.200	218.334	188.315	200.048	20.762	-33.156	-10.511	33.492	322.369	226.288	205.031	8.6439e-05	3.9615e-05	2.9151e-06	38.964	1.1236e-06	9.3123e-07	56.558	10.272	1.5839e-06	4.9863e-07	23.378	8.7728	5.2306	3.1369	7.7469e-07	6.0106	0.00011085	0.00013107	4.7692e-05	38.779	1.41e-06	1.8187e-06	55.566	10.325	9.0274e-07	1.5121e-06	23.157	8.8303	5.205	3.1144	8.7512e-07	5.9516	-4.110	300.652	165.373	-23.257	120.168	4.496	-19.365	-16.287	129.114	261.338	-19.583	-12.312	-10.042	-7.442	129.944	-10.196	-8191	255	
2665.552	1	1	0	0	0.066922	0.22961	0.054907	0.12684	0.043367	0.029402	0.16788	0.17662	0.33445	0.27059	0.17327	0.22486	0.12566	0.039201	0.15264	0.026054	-3.1792	-3.6958	-2.9875	-3.9021	-3.4958	-3.1604	-3.9479	-3.0958	-3.4437	-3.8125	-3.1458	-3.5854	-3.4104	-3.1333	-3.7729	-3.2479	-28.882	296.896	76.133	265.109	256.127	49.250	72.750	37.009	228.857	38.963	95.753	105.276	194.396	28.214	52.855	228.849	6.8132e-05	3.3093e-05	2.0168e-05	39.487	6.7416e-07	4.4131e-07	57.497	10.075	9.0221e-07	5.0588e-07	23.098	8.8787	5.2177	3.1429	6.7861e-07	5.9299	8.8309e-05	0.00011095	4.5727e-05	38.642	1.3569e-06	1.824e-06	57.156	10.145	1.2209e-06	7.9458e-07	23.088	8.8476	5.2414	3.1309	1.0028e-06	6.0226	29.180	30.554	106.540	-23.436	105.114	130.671	-19.982	-16.959	120.251	15.354	-19.619	-12.357	-11.378	-6.706	59.939	-9.882	-8191	255	
2665.648	1	1	0	0	0.089176	0.1248	0.43794	0.078009	0.15957	0.13461	0.1284	0.12784	0.16385	0.24368	0.27303	0.19835	0.13843	0.017433	0.26478	0.15422	-2.9562	-3.6792	-3.0812	-3.65	-3.5667	-3.1417	-3.7333	-3.2979	-3.2979	-3.6688	-3.0542	-3.5792	-3.5375	-2.9854	-3.7562	-3.425	59.119	2.112	204.666	170.036	237.845	10.918	235.596	281.334	278.819	90.851	110.068	133.174	101.413	297.332	209.717	2.106	8.9522e-05	6.3555e-05	2.2663e-05	38.197	6.5395e-07	1.9235e-07	59.855	10.036	3.0169e-07	1.0167e-06	23.038	8.8913	5.1778	3.083	2.3385e-07	6.0485	8.6842e-05	8.4706e-05	4.4679e-05	37.762	1.0527e-06	1.8365e-06	58.121	9.9648	9.1193e-07	8.9367e-07	22.771	8.7985	5.1754	3.1024	7.4473e-07	5.9854	2.352	81.046	85.350	-22.120	91.382	102.441	-18.809	-16.859	99.793	161.498	-18.507	-12.305	-10.636	-7.616	126.370	-10.304	-8191	255	
2665.769	1	1	0	0	0.089005	0.12613	0.023078	0.15839	0.12094	0.1092	0.10953	0.027785	0.30846	0.089749	0.087077	0.051563	0.22643	0.13001	0.068741	0.11458	-2.925	-3.8812	-3.1458	-3.55	-3.8792	-3.1375	-3.7333	-3.4583	-3.175	-3.8667	-2.9875	-3.4604	-3.7375	-3.0229	-3.6937	-3.4208	231.753	316.788	178.050	140.343	30.466	50.690	154.625	202.186	253.798	-17.924	160.681	54.740	147.380	227.835	286.085	150.717	9.8016e-05	2.3927e-05	9.2336e-06	38.045	1.6531e-07	1.1719e-06	58.365	9.9238	1.0648e-06	6.1768e-07	22.185	8.7158	4.9333	2.9767	1.2973e-06	5.6152	9.7355e-05	6.619e-05	4.4897e-05	37.868	9.7151e-07	1.7902e-06	57.837	9.7954	9.7969e-07	1.1506e-06	22.097	8.5546	5.0275	2.9898	7.622e-07	5.7115	25.726	243.840	198.649	-19.581	130.187	23.692	-19.689	-15.847	154.019	22.323	-18.518	-12.476	-11.204	-7.294	130.222	-10.990	-8191	255	
2665.865	1	1	0	0	0.2415	0.095373	0.15604	0.19018	0.065309	0.21393	0.14297	0.17145	0.079731	0.29894	0.15959	0.10778	0.066214	0.26755	0.21173	0.19725	-2.8458	-3.8146	-3.0854	-3.425	-3.8417	-3.1063	-3.7208	-3.5979	-3.0687	-3.8979	-3.2313	-3.2042	-3.875	-3.1146	-3.725	-3.5958	119.014	99.074	37.639	309.500	86.207	11.920	131.037	126.129	28.447	322.359	25.362	248.796	111.848	219.369	-25.795	158.566	0.00011167	6.1746e-05	3.3522e-06	36.592	2.0362e-06	2.7234e-07	58.421	9.5361	1.5878e-06	1.2642e-06	21.808	8.435	4.9379	2.8882	5.1957e-07	5.6589	8.249e-05	7.6542e-05	2.948e-05	37.212	5.7729e-07	1.6569e-06	58.025	9.444	1.0256e-06	6.8447e-07	21.699	8.3625	4.9436	2.927	1.027e-06	5.6819	-6.170	10.450	91.344	-22.073	72.870	140.353	-19.677	-17.237	133.820	188.899	-18.234	-12.270	-9.888	-6.738	232.727	-10.584	-8191	255	
2665.961	1	1	0	0	0.18901	0.15258	0.13502	0.19934	0.056117	0.089723	0.12558	0.2356	0.25938	0.14536	0.32675	0.22637	0.19871	0.071232	0.16348	0.059857	-2.6354	-3.8063	-3.3729	-3.2229	-3.8125	-3.0833	-3.5625	-3.7354	-3.1125	-3.8646	-3.3104	-3.3146	-3.8229	-3.0042	-3.6667	-3.8875	4.078	235.910	170.430	297.154	-5.138	238.125	261.793	47.207	-17.040	122.124	215.501	298.529	295.642	127.280	150.224	4.590	8.0901e-05	8.6423e-05	7.2469e-06	38.586	7.7199e-07	7.5544e-07	58.919	9.3652	1.2903e-06	3.9498e-07	22.366	8.462	5.2214	2.9754	5.632e-07	5.6474	9.0412e-05	5.8755e-05	3.079e-05	38.003	4.6065e-07	1.1893e-06	58.088	9.2921	8.6484e-07	9.1752e-09	21.854	8.4997	5.0511	2.9551	1.1157e-06	5.6448	9.177	9.827	-5.009	-21.558	90.918	110.097	-19.577	-17.129	56.434	284.547	-18.995	-12.104	-10.866	-8.057	126.699	-10.907	-8191	255	
2666.057	1	1	0	0	0.19874	0.18884	0.21449	0.17537	0.21179	0.15084	0.084141	0.27297	0.12235	0.083929	0.027816	0.13653	0.2439	0.056436	0.088297	0.21062	-2.7229	-3.7458	-3.4292	-3.0792	-3.8229	-3.175	-3.4542	-3.8	-3.1042	-3.75	-3.6208	-3.15	-3.8688	-3.2875	-3.4	-3.7604	155.339	92.229	180.896	-17.317	107.792	-19.477	51.025	289.000	99.037	102.395	34.554	173.554	-16.575	9.391	261.136	150.948	7.3117e-05	4.3389e-05	6.729e-06	39.132	5.9541e-07	6.1961e-07	59.861	9.1977	2.6555e-06	5.1827e-07	21.728	8.7257	5.1845	2.9216	2.4397e-07	5.487	8.4348e-05	7.2314e-05	2.3366e-05	38.554	6.6883e-07	1.5929e-06	58.755	9.1175	8.0167e-07	4.7161e-07	21.703	8.6657	5.1303	2.9117	9.7863e-07	5.525	18.717	76.464	-21.813	-20.242	111.522	137.288	-19.608	-16.763	74.927	37.058	-17.638	-12.631	-10.557	-6.681	127.279	-10.519	-8191	255	
2666.153	1	1	0	0	0.1803	0.18476	0.19645	0.078971	0.12354	0.093109	0.17927	0.12602	0.099361	0.18667	0.31114	0.18785	0.029898	0.26417	0.12781	0.059694	-2.8583	-3.7729	-3.5958	-3.0729	-3.9437	-3.3583	-3.3021	-3.9208	-3.0854	-3.5687	-3.5187	-3.1104	-3.8438	-3.2979	-3.3792	-3.8833	146.201	267.848	283.270	64.994	22.226	-0.384	234.570	213.602	229.174	271.431	22.747	-26.582	153.459	257.515	90.021	12.047	7.6222e-05	4.0661e-05	7.4339e-06	41.662	1.3027e-06	6.7136e-07	60.359	9.1895	5.0356e-07	3.8415e-07	21.415	8.6207	5.2107	2.887	7.3063e-07	5.3612	8.3713e-05	7.0127e-05	1.4281e-05	40.812	7.0427e-07	1.3618e-06	59.682	9.1532	9.3949e-07	7.2301e-07	21.322	8.5501	5.1221	2.8988	9.1814e-07	5.4164	12.787	307.219	28.295	-22.678	96.834	79.388	-19.190	-15.934	215.276	52.826	-18.317	-12.294	-10.738	-8.287	111.360	-10.996	-8191	255	
2666.248	1	1	0	0	0.078261	0.16543	0.0097151	0.25449	0.33262	0.19986	0.058973	0.069826	0.23283	0.050957	0.028756	0.10634	0.16589	0.077936	0.088045	0.018697	-2.65	-3.4354	-3.7604	-3	-3.7646	-3.3458	-3.3438	-3.7771	-3.0438	-3.425	-3.7458	-3.0104	-3.7021	-3.3438	-3.0667	-3.9042	7.191	188.506	71.585	179.353	227.937	60.587	151.510	78.034	137.404	-29.804	313.772	140.442	12.731	17.361	280.073	-26.973	8.4383e-05	0.00014023	1.3614e-05	40.472	1.1775e-06	2.0781e-07	60.407	9.4471	1.4953e-06	6.1258e-07	21.952	8.7025	5.1262	2.8752	8.2281e-07	5.4776	9.1341e-05	8.2519e-05	1.7644e-05	40.875	1.0557e-06	9.2267e-07	59.914	9.1911	8.7632e-07	1.0478e-06	21.551	8.5953	5.1198	2.8813	6.8558e-07	5.4705	32.087	80.039	78.321	-21.460	101.102	-9.670	-20.355	-15.930	197.363	146.148	-18.881	-12.050	-10.981	-7.424	94.263	-10.605	-8191	255	
2666.344	1	1	0	0	0.075793	0.2039	0.21807	0.26174	0.13031	0.10513	0.29718	0.14174	0.030026	0.22251	0.10128	0.2875	0.074405	0.15733	0.057679	0.058005	-2.8583	-3.25	-3.6521	-3.075	-3.6854	-3.4167	-2.9313	-3.8729	-3.3271	-3.275	-3.8312	-3.1146	-3.5875	-3.5875	-2.9354	-3.9042	115.808	103.743	275.339	208.224	186.973	15.225	308.277	249.162	181.171	141.167	-26.613	-30.242	189.355	9.597	-27.839	310.875	5.6759e-05	6.3635e-05	2.6048e-05	41.922	5.4633e-07	2.8882e-07	61.233	9.0232	9.1781e-07	8.4526e-07	21.778	8.7756	5.3364	2.8989	4.3679e-07	5.5805	8.1903e-05	0.0001057	1.2666e-05	40.982	8.1796e-07	8.6578e-07	60.687	8.9913	8.1201e-07	8.6798e-07	21.688	8.7781	5.2409	2.9003	1.1144e-06	5.5101	20.951	1.257	73.612	-20.813	103.777	57.041	-19.867	-15.799	1.817	147.220	-18.328	-12.948	-11.377	-8.111	138.235	-10.636	-8191	255	
2666.440	1	1	0	0	0.21187	0.3705	0.14364	0.19126	0.20143	0.074625	0.14735	0.16741	0.25959	0.068863	0.24616	0.14677	0.16333	0.11076	0.14023	0.077767	-2.8625	-3.2854	-3.7604	-3.0521	-3.6125	-3.6875	-2.9042	-3.9125	-3.3333	-3.3979	-3.8812	-3.1458	-3.4917	-3.6333	-3.1771	-3.8958	126.857	262.142	282.506	104.554	-12.372	132.012	158.307	-8.653	-17.629	203.782	100.647	-16.277	3.549	256.903	-10.637	110.072	8.9406e-05	6.1507e-05	5.8398e-06	42.991	3.5802e-07	7.0214e-07	62.774	9.2081	1.1464e-06	5.0774e-07	22.12	8.9443	5.1212	2.9259	6.7571e-07	5.4802	9.1341e-05	0.00010497	1.1006e-05	43.017	4.0307e-07	6.2223e-07	62.106	9.1136	6.8911e-07	6.1474e-07	21.793	8.8687	5.1987	2.9264	1.2193e-06	5.4777	15.020	-30.161	15.552	-21.992	14.590	133.948	-21.142	-15.223	72.604	54.633	-18.992	-12.301	-9.980	-7.577	308.953	-10.348	-8191	255	
2666.561	1	1	0	0	0.22519	0.044271	0.13713	0.11334	0.019756	0.34798	0.31894	0.19505	0.026349	0.1196	0.2302	0.13496	0.14414	0.26515	0.068564	0.033273	-3.0042	-3.1875	-3.8708	-2.9875	-3.6021	-3.7729	-3.0667	-3.7188	-3.5583	-3.1229	-3.9667	-3.2458	-3.4167	-3.8021	-3.0479	-3.7167	124.733	142.199	183.974	97.399	293.707	266.900	77.336	33.078	119.805	105.670	52.465	208.552	-4.868	283.213	26.197	183.533	7.9026e-05	5.7766e-05	3.2587e-05	44.374	1.0056e-06	1.6903e-06	63.147	9.0986	1.4275e-06	6.6574e-07	21.973	8.8467	5.2047	2.9558	2.4324e-07	5.3666	7.7796e-05	0.00010147	6.4201e-06	43.518	5.4186e-07	8.6401e-07	63.069	9.0197	5.6507e-07	1.0001e-06	21.601	8.8554	5.203	2.9257	1.3886e-06	5.3839	2.671	112.366	75.746	-20.410	102.788	110.523	-20.729	-17.381	138.313	65.937	-18.553	-12.471	-9.903	-6.771	121.542	-10.485	-8191	255	
2666.657	1	1	0	0	0.12352	0.09685	0.21853	0.22204	0.24296	0.10552	0.23897	0.068545	0.13187	0.21148	0.050853	0.13517	0.04871	0.2377	0.31454	0.29661	-3.0979	-2.9979	-3.7271	-3.2167	-3.3375	-3.9417	-3.0792	-3.5521	-3.6604	-3.0604	-3.8104	-3.1958	-3.2104	-3.7771	-3.0167	-3.6188	199.675	309.995	139.885	65.263	199.252	264.962	308.936	224.747	102.742	217.805	132.313	197.519	-23.568	52.918	169.111	148.763	8.6161e-05	2.1753e-05	7.4633e-06	43.554	9.8789e-07	7.6132e-07	64.701	9.0711	1.7287e-06	8.7778e-07	21.611	8.7956	5.2163	2.8819	3.231e-07	5.3276	6.7381e-05	0.00013078	1.7557e-05	43.102	1.3273e-06	8.3201e-07	63.304	8.9767	6.1561e-07	1.3451e-06	21.372	8.7943	5.1719	2.8721	1.2287e-06	5.3277	42.271	-16.401	106.216	-20.897	57.098	58.296	-20.009	-16.558	108.393	121.910	-19.381	-12.719	-10.049	-6.834	162.722	-9.644	-8191	255	
2666.753	1	1	0	0	0.11588	0.073878	0.21259	0.14266	0.1327	0.10546	0.19054	0.28366	0.020302	0.1102	0.14485	0.13421	0.010534	0.035116	0.15133	0.086956	-3.3458	-2.9896	-3.675	-3.3521	-3.1312	-3.9062	-3.0917	-3.5021	-3.8	-3.0625	-3.7875	-3.2542	-3.1875	-3.7333	-3.2146	-3.5521	195.874	123.894	266.041	265.946	267.451	89.959	170.125	191.856	166.644	96.238	98.339	177.625	34.819	6.204	111.780	118.065	6.2235e-05	3.6329e-05	1.3364e-05	43.426	6.8938e-07	5.3685e-07	64.317	9.265	5.246e-07	4.1347e-07	22.109	8.8172	5.137	2.8462	6.4718e-07	5.3489	6.7234e-05	0.00011299	1.5854e-05	43.556	1.2417e-06	8.16e-07	63.567	8.9993	5.3751e-07	1.824e-06	21.807	8.7663	5.1273	2.8524	1.2797e-06	5.2899	5.887	325.022	320.912	-20.908	127.303	202.470	-20.411	-15.494	252.961	29.259	-17.793	-13.519	-9.977	-6.579	130.934	-10.501	-8191	255	
2666.847	1	1	0	0	0.21429	0.063304	0.14059	0.061411	0.2349	0.08415	0.12403	0.11951	0.2747	0.15174	0.16923	0.11495	0.11526	0.16861	0.046273	0.10184	-3.4917	-3.1437	-3.6646	-3.2292	-3	-3.8458	-3.2438	-3.3917	-3.7083	-3.1229	-3.8771	-3.5896	-3.0667	-3.7188	-3.1958	-3.3896	91.495	122.476	166.931	217.329	122.899	85.559	277.041	42.274	236.052	238.787	319.116	27.140	89.160	231.671	26.378	284.335	0.00011345	9.9084e-05	2.0614e-05	44.511	5.6013e-07	5.5126e-07	64.774	8.9177	2.003e-06	2.7089e-07	21.984	8.8342	4.992	2.7101	7.3644e-07	5.0005	8.0241e-05	0.00014375	2.5287e-05	43.329	1.5045e-06	8.6045e-07	63.828	8.9103	6.5121e-07	1.5396e-06	21.619	8.6571	4.9869	2.7272	1.3322e-06	5.0506	29.564	31.042	105.000	-20.446	40.445	288.961	-20.561	-16.007	208.927	21.694	-18.098	-11.849	-8.936	-7.373	210.174	-9.969	-8191	255	
2666.944	1	1	0	0	0.077403	0.27491	0.1631	0.15184	0.033397	0.09972	0.18946	0.095491	0.019174	0.19322	0.19097	0.09627	0.15286	0.034675	0.18215	0.21409	-3.3563	-3.1458	-3.4771	-3.6104	-3.0667	-3.8271	-3.3187	-3.1854	-3.8042	-3.2417	-3.7938	-3.6271	-2.9542	-3.7667	-3.2938	-3.2646	176.922	85.400	196.252	96.894	248.552	-2.424	174.568	3.487	168.331	-11.747	247.385	273.353	313.572	178.205	258.847	-4.115	4.8487e-05	9.0455e-05	5.3566e-06	43.422	1.489e-07	9.1559e-07	65.115	8.7162	2.4754e-06	9.0497e-07	21.821	8.4067	4.9331	2.6579	1.0204e-06	4.9292	7.2173e-05	0.00015571	3.2668e-05	42.861	1.7983e-06	1.1449e-06	64.041	8.742	9.4179e-07	1.8185e-06	21.505	8.376	4.8842	2.6586	1.1561e-06	4.9762	-6.405	47.124	14.754	-20.940	112.094	69.522	-20.720	-16.273	156.246	149.541	-17.380	-12.402	-9.513	-7.562	12.757	-10.175	-8191	255	
2667.041	1	1	0	0	0.25669	0.1665	0.014761	0.090123	0.11861	0.17824	0.085425	0.072855	0.24639	0.11671	0.18167	0.045607	0.15055	0.15103	0.13245	0.12362	-3.4354	-2.9771	-3.425	-3.5958	-3.1042	-3.7438	-3.225	-3.0187	-3.7521	-3.2083	-3.4354	-3.875	-3.0375	-3.7292	-3.4813	-2.9542	253.186	56.638	-32.253	206.798	217.203	48.749	29.699	313.044	224.492	-6.475	239.663	56.844	285.119	230.374	263.795	-15.748	4.9199e-05	5.3993e-05	4.6116e-06	42.248	1.0322e-06	4.4142e-07	63.246	8.704	7.8266e-07	8.0811e-07	21.623	8.3856	4.6367	2.6971	1.0634e-06	4.9534	7.4716e-05	0.00015381	2.8301e-05	42.44	1.6152e-06	1.1662e-06	62.612	8.6181	5.3177e-07	1.5726e-06	21.335	8.3669	4.7313	2.6683	1.3013e-06	4.9223	-10.499	139.486	217.907	-20.731	121.610	156.162	-20.668	-15.222	132.637	141.868	-17.843	-12.640	-11.023	-8.073	134.002	-10.065	-8191	255	
2667.160	1	1	0	0	0.05922	0.19829	0.14231	0.20099	0.075273	0.14672	0.37461	0.1949	0.14506	0.19355	0.069845	0.19843	0.15782	0.20673	0.09317	0.19498	-3.5167	-3.1542	-3.5	-3.7958	-3.1208	-3.7292	-3.4875	-2.8521	-3.6979	-3.3646	-3.3896	-3.75	-3.0708	-3.7417	-3.7	-3.2104	-18.211	225.116	66.523	247.160	161.012	230.607	107.127	-17.060	79.139	-2.332	75.127	134.576	301.695	122.054	121.408	323.084	6.037e-05	4.07e-05	1.5929e-05	43.054	7.2364e-07	6.192e-07	62.532	8.8759	2.0883e-06	3.1174e-07	21.493	8.4286	4.7861	2.6295	2.6018e-07	4.8702	6.5425e-05	0.00013778	4.3369e-05	42.301	1.5591e-06	1.1076e-06	62.436	8.557	5.6163e-07	1.7873e-06	21.177	8.2914	4.7768	2.6148	1.1346e-06	4.8998	10.425	71.587	209.786	-21.770	120.354	0.406	-20.468	-16.735	168.277	40.207	-17.648	-12.049	-11.387	-7.324	310.587	-10.290	-8191	255	
2667.256	1	1	0	0	0.25099	0.037009	0.36803	0.063072	0.07732	0.17873	0.05141	0.033191	0.18044	0.085155	0.22296	0.07298	0.13425	0.26988	0.040319	0.066449	-3.4083	-3.2271	-3.25	-3.7708	-2.975	-3.7229	-3.4938	-3.1021	-3.9396	-3.4792	-3.2375	-3.9979	-3.1562	-3.4833	-3.7375	-2.9062	302.007	294.363	266.728	291.189	167.591	98.061	89.153	24.663	168.449	235.892	209.784	312.564	243.531	229.374	73.501	294.447	0.00010247	2.0551e-05	2.2895e-05	41.881	3.6108e-07	7.3205e-07	63.642	8.6103	2.2995e-06	7.3705e-07	21.62	8.2471	4.7473	2.6131	9.4602e-07	4.8923	6.6892e-05	0.00013588	4.529e-05	42.037	1.6536e-06	1.2302e-06	63.278	8.5844	9.0619e-07	1.7451e-06	21.074	8.2918	4.7615	2.5921	9.5443e-07	4.867	8.579	-5.925	122.233	-19.794	111.638	106.718	-21.369	-15.358	148.063	108.852	-18.219	-12.223	-9.655	-6.989	209.006	-10.555	-8191	255	
2667.353	1	1	0	0	0.15889	0.10477	0.12498	0.06286	0.26094	0.29116	0.28173	0.15668	0.076287	0.14436	0.091745	0.077872	0.099126	0.20973	0.15439	0.13716	-3.3854	-3.4958	-3.0729	-3.8875	-3.1271	-3.4396	-4.0104	-3.1833	-3.9125	-3.4542	-3.0938	-3.8917	-3.1813	-3.4188	-3.7083	-2.9771	231.865	156.943	171.686	142.518	149.769	271.932	139.351	239.873	12.198	303.617	42.801	152.927	213.765	122.645	37.284	230.708	7.7543e-05	4.7172e-05	5.4663e-06	43.495	5.4452e-07	8.4249e-07	63.786	8.5372	1.3736e-06	8.1665e-07	21.294	8.1409	4.743	2.5399	8.3644e-07	4.7716	7.7943e-05	0.00015119	5.4593e-05	42.479	1.4514e-06	1.2711e-06	63.172	8.3843	9.0044e-07	1.7965e-06	20.846	8.1378	4.7129	2.5535	9.3965e-07	4.7738	38.811	18.191	62.201	-20.497	65.315	-11.507	-19.608	-16.486	296.251	141.368	-19.236	-12.514	-11.079	-8.107	-24.673	-10.104	-8191	255	
2667.424	1	1	0	0	0.11186	0.20214	0.3254	0.06981	0.11646	0.13122	0.059115	0.14398	0.11558	0.25117	0.1602	0.1127	0.20345	0.067724	0.14914	0.09707	-3.4167	-3.4	-3.1354	-3.825	-3.2708	-3.3646	-3.9542	-2.9125	-3.6854	-3.6833	-3.1396	-3.8521	-3.4146	-3.2833	-3.8375	-2.9688	242.881	11.327	265.661	72.745	213.861	65.853	29.440	77.535	103.600	74.084	34.636	80.230	27.623	146.048	271.566	-21.396	7.1422e-05	3.7355e-05	2.9793e-05	42.206	8.7619e-07	1.5082e-07	63.354	8.3382	8.9222e-07	7.9949e-07	20.654	7.9927	4.4787	2.5342	2.8597e-07	4.6995	7.4813e-05	0.00011707	4.5771e-05	41.614	1.7673e-06	1.5947e-06	61.347	8.2559	9.751e-07	1.7947e-06	20.77	8.0318	4.6089	2.5328	8.9663e-07	4.7141	24.443	34.824	4.929	-21.865	70.275	88.357	-20.719	-17.273	152.671	69.591	-18.349	-11.779	-9.405	-7.013	225.334	-9.845	-8191	255	
2667.545	1	1	0	0	0.26656	0.15282	0.044735	0.12914	0.10622	0.15724	0.12492	0.1409	0.091485	0.30562	0.44397	0.07607	0.12197	0.094111	0.028237	0.081509	-3.3187	-3.6875	-3.0125	-3.825	-3.2542	-3.2729	-3.7479	-3.1021	-3.4729	-3.6708	-2.95	-3.7104	-3.3312	-3.2583	-3.8146	-3.0792	-30.309	175.835	19.913	313.769	52.066	36.851	288.716	301.929	269.918	320.246	44.419	301.709	229.833	319.605	6.773	112.087	6.091e-05	8.3013e-05	3.0933e-05	40.441	7.9127e-07	4.2258e-07	62.266	8.3226	5.4266e-07	7.3707e-07	20.614	8.2009	4.5663	2.4949	5.1394e-07	4.7287	8.7625e-05	9.7682e-05	4.6338e-05	40.648	1.0379e-06	1.6996e-06	61.332	8.2336	9.4753e-07	1.5102e-06	20.677	8.0895	4.5923	2.5114	7.622e-07	4.7529	9.906	-11.481	155.384	-21.161	67.349	120.727	-20.462	-14.832	142.819	186.121	-19.275	-12.662	-9.960	-7.821	202.986	-10.110	-8191	255	
2667.641	1	1	0	0	0.30712	0.29071	0.10435	0.093921	0.17391	0.071692	0.10328	0.19726	0.079348	0.11256	0.10128	0.16045	0.07262	0.091911	0.24589	0.1588	-3.1	-3.6188	-3.0729	-3.8187	-3.4313	-3.0979	-3.8833	-3.1667	-3.3937	-3.6437	-3.0542	-3.5687	-3.4792	-2.9938	-3.6792	-3.2438	61.953	170.347	97.640	88.217	-20.955	107.558	306.696	190.588	-26.457	215.115	92.411	301.644	83.537	70.856	206.745	58.130	9.9045e-05	2.9169e-05	1.3428e-05	40.426	4.2575e-07	1.0493e-06	61.168	8.3091	1.0206e-06	4.6471e-07	20.64	7.8335	4.4541	2.4475	1.0384e-06	4.6876	8.5424e-05	9.8703e-05	3.5988e-05	40.501	1.3953e-06	1.6693e-06	60.137	8.2646	9.6131e-07	1.024e-06	20.485	7.9264	4.5024	2.4838	9.0335e-07	4.6801	14.064	24.725	215.711	-22.140	86.660	121.242	-20.841	-16.702	32.991	161.636	-19.245	-11.759	-9.749	-6.941	122.997	-10.839	-8191	255	
2667.737	1	1	0	0	0.04518	0.14193	0.12643	0.033898	0.009295	0.25929	0.053925	0.13906	0.19297	0.15132	0.18345	0.069875	0.051276	0.26814	0.1281	0.11278	-2.9229	-3.7979	-2.9625	-3.6833	-3.5917	-3.0708	-3.8875	-3.4354	-3.2729	-3.7625	-3.125	-3.5333	-3.6583	-2.975	-3.8521	-3.4938	203.828	299.440	198.743	14.089	186.039	105.602	-24.107	222.425	220.187	234.114	322.189	35.510	137.462	83.693	21.206	90.936	4.6791e-05	5.2977e-05	1.4443e-05	40.642	1.0079e-06	4.3567e-07	60.326	8.1736	6.7755e-07	6.5204e-07	20.647	8.0017	4.4001	2.4904	4.1245e-07	4.6823	8.7087e-05	7.348e-05	4.3718e-05	40.206	1.3081e-06	1.8916e-06	59.499	8.1319	8.9011e-07	5.1748e-07	20.472	7.8746	4.4629	2.5011	9.4233e-07	4.6806	-2.875	283.468	-31.147	-21.523	92.876	282.485	-18.635	-17.017	149.442	137.185	-17.225	-11.714	-10.707	-7.438	110.904	-9.884	-8191	255	
2667.833	1	1	0	0	0.19011	0.14752	0.15393	0.089181	0.26956	0.081668	0.097765	0.14803	0.049149	0.28412	0.23747	0.16679	0.080205	0.11639	0.31786	0.2449	-2.8354	-3.85	-3.1312	-3.5187	-3.8646	-3.1354	-3.7604	-3.3479	-3.0521	-3.8833	-3.1229	-3.4667	-3.8917	-2.9021	-3.8146	-3.4938	42.535	295.577	-13.336	-22.814	169.689	87.623	-25.777	291.671	16.843	177.887	221.650	324.020	200.853	244.722	153.608	145.199	6.845e-05	5.2659e-05	1.5632e-05	38.995	3.2873e-07	5.3391e-07	59.001	8.1982	1.4807e-06	7.3415e-07	20.55	7.8715	4.4424	2.4746	4.563e-07	4.7326	9.1536e-05	7.7708e-05	4.3587e-05	39.647	8.1648e-07	1.9413e-06	58.571	8.0862	1.1956e-06	7.6522e-07	20.148	7.8154	4.4262	2.4899	7.1918e-07	4.6959	7.415	-1.319	11.632	-23.000	78.411	284.520	-21.292	-15.846	114.256	225.458	-18.057	-11.228	-11.237	-7.495	73.257	-10.415	-8191	255	
2667.952	1	1	0	0	0.041791	0.10549	0.06515	0.23296	0.14188	0.061204	0.16586	0.28655	0.12933	0.20318	0.10125	0.096688	0.15027	0.10384	0.076374	0.12251	-2.9292	-3.7146	-3.175	-3.2896	-3.7083	-3.1188	-3.7188	-3.4375	-2.9625	-3.8083	-3.2792	-3.3937	-3.6896	-2.7854	-3.7729	-3.6437	246.704	114.085	73.611	25.434	104.512	196.665	126.044	-5.735	128.292	257.141	-32.627	93.791	128.254	-18.967	287.384	168.009	7.1145e-05	9.1972e-05	7.724e-06	40.069	5.5685e-07	4.3486e-07	57.549	7.9538	6.2286e-07	9.0845e-07	20.148	7.8135	4.4693	2.483	3.8368e-07	4.6767	8.5131e-05	6.5316e-05	3.2319e-05	39.282	9.2574e-07	1.5342e-06	57.129	8.0178	6.6614e-07	3.6884e-07	19.959	7.8412	4.5186	2.5038	6.7348e-07	4.7552	-16.232	0.048	303.104	-20.703	247.821	213.599	-19.964	-16.746	27.579	121.579	-18.158	-12.194	-10.585	-7.394	88.794	-10.828	-8191	255	
2668.048	1	1	0	0	0.15907	0.19814	0.25558	0.13336	0.11088	0.2554	0.17365	0.12237	0.27346	0.30675	0.24791	0.14634	0.11942	0.071507	0.28306	0.13542	-2.9042	-3.7854	-3.2479	-3.1542	-3.8125	-2.95	-3.7188	-3.6792	-3.0729	-3.7771	-3.125	-3.1292	-3.9292	-3.1188	-3.5812	-3.8458	69.015	263.894	233.427	20.702	144.760	115.651	253.339	212.133	169.652	199.661	230.778	50.645	101.391	139.794	247.037	-20.130	4.2463e-05	7.047e-05	2.302e-05	38.752	1.2911e-06	7.4529e-07	57.331	8.1898	1.7116e-06	1.2674e-06	20.497	7.7703	4.445	2.4695	7.1957e-07	4.8059	7.8823e-05	2.8284e-05	3.3804e-05	39.188	7.648e-07	1.4933e-06	56.621	7.9996	7.787e-07	3.6334e-07	20.141	7.7441	4.5101	2.5202	9.383e-07	4.7851	2.398	65.171	86.470	-21.085	129.189	50.270	-19.930	-15.484	140.110	54.607	-19.034	-13.029	-10.028	-8.088	142.080	-11.281	-8191	255	
2668.122	1	1	0	0	0.17567	0.16433	0.046723	0.22307	0.14974	0.06304	0.13403	0.074377	0.1652	0.18614	0.1195	0.30253	0.089124	0.14682	0.049823	0.18295	-2.9313	-3.8187	-3.3625	-3.1521	-3.7521	-3.175	-3.3521	-3.7292	-2.8792	-3.7188	-3.4979	-3.05	-3.7583	-3.2125	-3.3021	-3.7396	150.269	48.011	254.362	-27.642	273.236	256.572	145.242	56.326	36.639	265.678	59.077	64.296	-24.694	55.607	194.256	-28.830	6.9485e-05	1.2374e-05	1.3189e-05	38.5	8.3524e-08	1.4323e-06	56.516	8.1974	5.4748e-07	5.3093e-07	20.79	7.7745	4.5006	2.5839	4.9611e-07	4.8306	9.7453e-05	3.7906e-05	2.258e-05	38.845	2.8643e-07	1.2267e-06	55.595	8.1206	1.0383e-06	1.6515e-07	20.213	7.7784	4.4924	2.571	9.1276e-07	4.8471	23.938	291.131	14.390	-21.732	219.149	112.093	-19.632	-16.839	115.280	140.003	-18.630	-12.931	-10.750	-7.220	154.802	-10.523	-8191	255	
2668.241	1	1	0	0	0.15301	0.16374	0.18929	0.195	0.07535	0.21531	0.17815	0.16882	0.40244	0.14771	0.072367	0.17832	0.088681	0.13147	0.13164	0.029601	-2.6958	-3.6125	-3.4729	-2.7917	-3.7729	-3.3167	-3.3479	-3.7604	-3.0646	-3.6542	-3.6542	-3.0062	-3.6437	-3.3333	-3.2958	-3.7667	17.948	215.439	97.656	-5.876	283.885	242.990	211.767	287.452	186.490	-23.791	115.797	113.971	185.809	64.519	294.485	231.519	5.7462e-05	3.8006e-05	1.2859e-05	39.125	7.1383e-07	1.312e-06	55.518	8.3054	1.6051e-06	5.2378e-07	20.469	7.9815	4.6699	2.6279	6.6207e-07	4.9197	7.0461e-05	5.5693e-05	1.45e-05	38.642	4.7542e-07	7.3067e-07	55.263	8.19	7.4999e-07	1.1194e-07	20.385	7.9841	4.656	2.6451	9.7594e-07	4.9629	4.501	-2.989	61.307	-21.386	39.850	111.649	-20.816	-15.581	174.931	106.720	-18.396	-12.440	-8.733	-8.095	203.294	-10.279	-8191	255	
2668.337	1	1	0	0	0.16638	0.11236	0.19671	0.069191	0.084207	0.16758	0.14339	0.17553	0.045992	0.27836	0.25474	0.15701	0.23024	0.16992	0.26197	0.10075	-2.6979	-3.4833	-3.6083	-3.1188	-3.7792	-3.2104	-3.2729	-3.6854	-3.0229	-3.5979	-3.7062	-3	-3.8312	-3.5542	-3.1	-3.8583	250.193	149.838	179.228	258.795	171.272	131.561	141.837	288.602	173.883	310.527	84.526	112.290	288.161	147.826	57.511	10.874	3.8178e-05	5.6065e-05	3.4699e-06	40.169	2.3727e-07	1.5163e-07	55.212	8.2838	5.2255e-07	6.5835e-07	20.486	8.1152	4.5654	2.6208	3.5053e-07	5.014	7.5302e-05	7.1439e-05	1.201e-05	39.396	2.4066e-07	4.9245e-07	55.228	8.2344	6.8452e-07	3.3214e-07	20.409	8.0777	4.6135	2.6596	9.5847e-07	5.0701	2.606	292.752	8.338	-21.399	192.508	8.397	-19.856	-15.724	214.374	-2.408	-18.816	-11.683	-11.781	-7.535	202.382	-10.654	-8191	255	
2668.433	1	1	0	0	0.18455	0.15568	0.06506	0.32487	0.1179	0.09224	0.34047	0.080799	0.22254	0.036813	0.2458	0.081154	0.15549	0.13955	0.19945	0.15977	-2.6063	-3.4562	-3.6854	-2.9708	-3.7062	-3.5417	-3.0229	-3.7896	-3.2146	-3.1271	-3.9688	-2.9792	-3.5812	-3.5646	-2.9375	-3.7708	85.024	114.322	4.850	98.918	-23.479	118.565	11.686	148.627	46.638	25.653	83.283	56.036	284.109	-23.265	254.317	2.542	7.7105e-05	4.3797e-05	1.6344e-05	39.219	5.4734e-08	6.4221e-07	56.112	8.3561	1.1796e-07	6.9438e-07	20.748	8.0756	4.6593	2.6811	9.6345e-07	5.0367	7.4911e-05	6.1671e-05	9.3026e-06	39.412	3.573e-07	5.0311e-07	55.42	8.2553	5.3751e-07	8.5513e-07	20.497	7.9899	4.6542	2.6602	8.9394e-07	5.0116	19.530	-14.572	107.199	-22.750	57.485	65.008	-20.271	-16.270	299.992	138.238	-19.381	-12.455	-12.299	-7.226	83.815	-11.408	-8191	255	
2668.554	1	1	0	0	0.10805	0.13596	0.2956	0.10084	0.03465	0.12389	0.24158	0.16769	0.26965	0.11094	0.019488	0.12162	0.14877	0.097356	0.17738	0.07458	-2.9667	-3.2771	-3.8354	-3.0542	-3.5792	-3.5812	-3.1208	-3.7313	-3.1625	-3.2458	-3.9146	-3.0792	-3.5938	-3.6708	-3.0187	-3.8563	77.779	48.072	-22.953	261.755	238.201	84.789	169.261	275.308	147.739	316.758	175.426	225.143	60.504	296.518	264.674	283.418	8.7803e-05	7.4085e-05	1.39e-05	39.146	9.1189e-07	1.0102e-06	56.443	8.439	1.1769e-07	7.8394e-07	20.812	7.9645	4.5424	2.6417	1.126e-06	5.007	6.1269e-05	5.1611e-05	6.3764e-06	39.128	6.2454e-07	1.8133e-07	56.17	8.3094	3.6982e-07	8.166e-07	20.511	7.9755	4.612	2.6577	8.4823e-07	5.0091	6.363	62.930	292.600	-20.717	128.539	145.047	-20.282	-16.449	34.186	164.251	-18.124	-11.605	-9.874	-6.736	111.714	-10.635	-8191	255	
2668.650	1	1	0	0	0.084689	0.0099731	0.073436	0.19979	0.18544	0.14403	0.082555	0.27869	0.16449	0.23588	0.24359	0.2828	0.16581	0.10086	0.090276	0.14808	-3.1521	-3.1667	-3.825	-2.9979	-3.45	-3.8583	-2.9958	-3.7	-3.4813	-3.1813	-3.9292	-3.1729	-3.2979	-3.8396	-3.0104	-3.7646	44.042	143.874	213.623	283.158	148.301	166.224	274.599	54.738	-22.182	271.241	164.640	272.824	255.497	183.885	237.959	73.174	7.5705e-05	5.5282e-05	9.2327e-06	40.664	5.7739e-07	4.7928e-07	56.146	8.3677	2.0313e-07	1.1334e-06	20.669	8.1819	4.6383	2.6634	4.7009e-07	5.1274	6.6452e-05	9.2579e-05	5.6777e-06	39.306	5.0642e-07	2.0622e-07	56.097	8.2094	4.4678e-07	5.0464e-07	20.42	8.1031	4.6151	2.6487	7.1784e-07	5.0538	-6.835	85.534	140.629	-21.297	172.199	200.944	-20.183	-15.803	215.070	-17.301	-19.556	-12.743	-10.684	-7.679	86.143	-10.651	-8191	255	
2668.721	1	1	0	0	0.28051	0.13803	0.064437	0.27853	0.13034	0.025793	0.20884	0.077694	0.096713	0.067441	0.34034	0.20617	0.058421	0.062311	0.24813	0.062479	-3.1167	-3.0042	-3.7417	-3.1958	-3.5042	-3.9146	-3.0333	-3.5792	-3.6188	-3.2062	-3.8979	-3.1604	-3.4062	-3.8625	-3.1312	-3.6604	-24.749	237.093	166.822	241.728	53.628	238.193	226.015	87.419	160.451	177.226	-20.423	243.344	-31.502	44.122	314.548	71.765	5.2922e-05	4.2683e-05	5.4564e-06	39.505	5.9931e-07	1.188e-06	57.115	8.4893	1.1447e-06	2.8533e-07	20.197	8.0316	4.6507	2.6241	8.7729e-07	4.9481	6.3714e-05	6.7357e-05	-1.3102e-07	39.1	5.5072e-07	1.9556e-08	56.699	8.2275	3.6753e-07	5.6336e-07	20.196	8.0786	4.6346	2.6431	8.8184e-07	4.9954	6.720	319.021	92.984	-21.816	80.713	94.451	-20.785	-16.454	273.885	307.223	-19.817	-13.520	-10.530	-7.280	107.820	-10.055	-8191	255	
2668.842	1	1	0	0	0.1838	0.16305	0.11459	0.068374	0.18468	0.11772	0.29263	0.21864	0.14497	0.23804	0.21323	0.075446	0.22168	0.15601	0.042131	0.025747	-3.4042	-3.0104	-3.8667	-3.2625	-3.2542	-3.95	-2.9542	-3.6562	-3.5396	-3.0812	-3.8812	-3.3521	-3.2271	-3.9458	-3.0208	-3.4958	138.394	235.657	100.071	39.612	200.223	21.697	216.732	17.980	301.411	216.036	89.631	100.711	227.054	225.214	23.089	46.165	8.6358e-05	9.876e-05	3.099e-05	40.196	5.8578e-07	9.7671e-07	58.631	8.0719	9.2607e-07	9.1121e-07	19.608	7.9054	4.4679	2.6014	2.1802e-07	4.9535	5.4765e-05	5.5256e-05	-2.1837e-07	39.336	5.1381e-07	-1.2445e-08	58.205	7.8401	-5.3981e-08	7.3585e-07	19.409	7.9402	4.5344	2.6063	7.2859e-07	4.944	-1.488	49.876	91.803	-21.751	106.523	38.876	-19.609	-16.321	62.489	110.041	-17.084	-12.821	-10.436	-7.893	63.417	-9.999	-8191	255	
2668.936	1	1	0	0	0.089705	0.18863	0.11558	0.42273	0.21921	0.083525	0.097723	0.051559	0.071389	0.075873	0.16873	0.20422	0.18406	0.03218	0.16654	0.046973	-3.4792	-3.0042	-3.6833	-3.3854	-3.0875	-4.0563	-3.1729	-3.4104	-3.6875	-3.0312	-3.8604	-3.5104	-3.1896	-3.8875	-3.2083	-3.2917	305.626	248.240	200.403	26.038	289.772	282.053	-30.698	133.846	113.102	60.872	282.459	138.286	130.494	95.740	56.311	98.180	5.2682e-05	8.551e-05	2.2292e-05	38.804	6.5582e-07	3.5947e-07	61.265	7.7296	2.3951e-06	3.9666e-07	19.612	7.954	4.5961	2.654	8.3813e-07	4.9889	4.4301e-05	6.8961e-05	5.7213e-06	38.58	4.2817e-07	-3.5556e-08	60.596	7.5688	6.7763e-08	5.8355e-07	19.284	7.9572	4.5694	2.643	3.5892e-07	4.9972	3.925	20.654	60.053	-20.124	155.279	130.458	-19.639	-16.708	112.317	88.728	-17.992	-13.266	-10.559	-7.670	126.018	-10.557	-8191	255	
2669.033	1	1	0	0	0.31677	0.2366	0.20995	0.16217	0.16728	0.25048	0.13141	0.13123	0.32141	0.24358	0.21293	0.21231	0.14908	0.16553	0.25218	0.26677	-3.4375	-3.1833	-3.675	-3.5021	-3.1083	-3.9	-3.1583	-3.1417	-3.9188	-3.0333	-3.5271	-3.7188	-3.1729	-3.7583	-3.4229	-3.3479	93.997	242.722	115.934	252.118	37.888	178.642	294.556	249.945	101.928	284.418	237.892	176.306	227.517	170.393	118.463	204.709	9.7709e-05	8.0083e-05	9.6222e-06	37.042	5.1829e-07	4.7971e-07	64.116	7.1947	5.4513e-07	1.3164e-06	19.176	8.0645	4.6046	2.6798	6.3229e-07	5.0763	4.3079e-05	7.5667e-05	6.7258e-06	36.748	7.2346e-07	-2.6489e-07	63.117	7.1899	2.7909e-07	1.0185e-06	18.972	8.0043	4.5552	2.668	2.1374e-07	5.1113	-4.628	11.325	-33.270	-20.247	113.010	68.478	-19.941	-16.188	210.184	138.272	-18.272	-11.906	-10.153	-6.945	117.801	-10.833	-8191	255	
#DATA ENDS
