BOXY.EXE: ISS Imagent and Oximeter Data Acquisition Program Version 0.80
Ascii Record File

#ACQ INFORMATION
2  Detector Channels 
16  External MUX Channels 
1  Auxiliary Channels 
5000  Waveform (CCF) Frequency (Hz)
1  Waveforms Skipped 
30  Waveforms Averaged 
1  Cycles Averaged 
16  Acquisitions per Waveform 
10.0806  Updata Rate (Hz) 

#FILE INFORMATION
TRUE -- External MUX Channel results are PARSED.
FALSE -- AC DC and Phase are NOT grouped.
TRUE -- Companion Program Settings File CREATED.
FALSE -- AC data not excluded
FALSE -- DC data not excluded
FALSE -- Phase data not excluded
FALSE -- Auxillary Chn. data not excluded
Tab delimiters

#CALIBRATION STATE
TRUE -- Waveform Calibration Values APPLIED.


#AUX CALIBRATION VALUES
Val Type	aux-1	

Term	1.0000e+00	
Factor	0.0000e+00	


#WF CALIBRATION VALUES
A = Detector Channel
Val Type	A-AC1	A-AC2	A-AC3	A-AC4	A-AC5	A-AC6	A-AC7	A-AC8	A-AC9	A-AC10	A-AC11	A-AC12	A-AC13	A-AC14	A-AC15	A-AC16	A-DC1	A-DC2	A-DC3	A-DC4	A-DC5	A-DC6	A-DC7	A-DC8	A-DC9	A-DC10	A-DC11	A-DC12	A-DC13	A-DC14	A-DC15	A-DC16	A-Ph1	A-Ph2	A-Ph3	A-Ph4	A-Ph5	A-Ph6	A-Ph7	A-Ph8	A-Ph9	A-Ph10	A-Ph11	A-Ph12	A-Ph13	A-Ph14	A-Ph15	A-Ph16	

Term	0.00000e+00	0.00000e+00	0.00000e+00	0.00000e+00	0.00000e+00	0.00000e+00	0.00000e+00	0.00000e+00	0.00000e+00	0.00000e+00	0.00000e+00	0.00000e+00	0.00000e+00	0.00000e+00	0.00000e+00	0.00000e+00	0.00000e+00	0.00000e+00	0.00000e+00	0.00000e+00	0.00000e+00	0.00000e+00	0.00000e+00	0.00000e+00	0.00000e+00	0.00000e+00	0.00000e+00	0.00000e+00	0.00000e+00	0.00000e+00	0.00000e+00	0.00000e+00	0.00000e+00	0.00000e+00	0.00000e+00	0.00000e+00	0.00000e+00	0.00000e+00	0.00000e+00	0.00000e+00	0.00000e+00	0.00000e+00	0.00000e+00	0.00000e+00	0.00000e+00	0.00000e+00	0.00000e+00	0.00000e+00	
Factor	1.00000e+00	1.00000e+00	1.00000e+00	1.00000e+00	1.00000e+00	1.00000e+00	1.00000e+00	1.00000e+00	1.00000e+00	1.00000e+00	1.00000e+00	1.00000e+00	1.00000e+00	1.00000e+00	1.00000e+00	1.00000e+00	1.00000e+00	1.00000e+00	1.00000e+00	1.00000e+00	1.00000e+00	1.00000e+00	1.00000e+00	1.00000e+00	1.00000e+00	1.00000e+00	1.00000e+00	1.00000e+00	1.00000e+00	1.00000e+00	1.00000e+00	1.00000e+00	X	X	X	X	X	X	X	X	X	X	X	X	X	X	X	X	

B = Detector Channel
Val Type	B-AC1	B-AC2	B-AC3	B-AC4	B-AC5	B-AC6	B-AC7	B-AC8	B-AC9	B-AC10	B-AC11	B-AC12	B-AC13	B-AC14	B-AC15	B-AC16	B-DC1	B-DC2	B-DC3	B-DC4	B-DC5	B-DC6	B-DC7	B-DC8	B-DC9	B-DC10	B-DC11	B-DC12	B-DC13	B-DC14	B-DC15	B-DC16	B-Ph1	B-Ph2	B-Ph3	B-Ph4	B-Ph5	B-Ph6	B-Ph7	B-Ph8	B-Ph9	B-Ph10	B-Ph11	B-Ph12	B-Ph13	B-Ph14	B-Ph15	B-Ph16	

Term	0.00000e+00	0.00000e+00	0.00000e+00	0.00000e+00	0.00000e+00	0.00000e+00	0.00000e+00	0.00000e+00	0.00000e+00	0.00000e+00	0.00000e+00	0.00000e+00	0.00000e+00	0.00000e+00	0.00000e+00	0.00000e+00	0.00000e+00	0.00000e+00	0.00000e+00	0.00000e+00	0.00000e+00	0.00000e+00	0.00000e+00	0.00000e+00	0.00000e+00	0.00000e+00	0.00000e+00	0.00000e+00	0.00000e+00	0.00000e+00	0.00000e+00	0.00000e+00	-2.67937e+02	-1.30297e+02	-1.24741e+02	-1.87822e+02	-6.96048e+01	-6.65855e+01	-1.56226e+02	-1.62015e+02	-6.64801e+01	-6.54146e+01	-1.71993e+02	-1.70449e+02	-1.82921e+02	-1.77447e+02	-7.06104e+01	-1.50185e+02	
Factor	5.08686e-05	1.23101e-04	3.70342e-05	3.47696e-01	1.44184e-06	1.36155e-06	1.51375e-01	4.06272e-02	2.33488e-06	1.39090e-06	7.25516e-02	2.05289e-02	3.17289e-02	6.81532e-03	1.55922e-06	9.51071e-03	2.34709e-05	6.99811e-05	2.09637e-05	1.86283e-01	7.08699e-07	8.53338e-07	7.64441e-02	2.19243e-02	5.51292e-07	8.80824e-07	3.79906e-02	1.07674e-02	1.72504e-02	3.72260e-03	6.45250e-07	5.03074e-03	X	X	X	X	X	X	X	X	X	X	X	X	X	X	X	X	



#DISTANCE SETTINGS
A = Detector Channel
A-1	A-2	A-3	A-4	A-5	A-6	A-7	A-8	A-9	A-10	A-11	A-12	A-13	A-14	A-15	A-16	

2.5000e+00	3.0000e+00	2.5000e+00	3.0000e+00	2.0000e+00	3.0000e+00	1.5000e+00	3.0000e+00	3.0000e+00	3.0000e+00	3.0000e+00	3.0000e+00	3.0000e+00	3.0000e+00	1.5000e+00	3.0000e+00	

B = Detector Channel
B-1	B-2	B-3	B-4	B-5	B-6	B-7	B-8	B-9	B-10	B-11	B-12	B-13	B-14	B-15	B-16	

1.0000e+01	1.0000e+01	1.0000e+01	1.4400e+00	1.0000e+01	1.0000e+01	1.5100e+00	1.9400e+00	1.0000e+01	1.0000e+01	1.9900e+00	2.4900e+00	2.4100e+00	2.9000e+00	1.0000e+01	2.9800e+00	




#DATA BEGINS
time	group	step	mark	flag	A-AC1	A-AC2	A-AC3	A-AC4	A-AC5	A-AC6	A-AC7	A-AC8	A-AC9	A-AC10	A-AC11	A-AC12	A-AC13	A-AC14	A-AC15	A-AC16	A-DC1	A-DC2	A-DC3	A-DC4	A-DC5	A-DC6	A-DC7	A-DC8	A-DC9	A-DC10	A-DC11	A-DC12	A-DC13	A-DC14	A-DC15	A-DC16	A-Ph1	A-Ph2	A-Ph3	A-Ph4	A-Ph5	A-Ph6	A-Ph7	A-Ph8	A-Ph9	A-Ph10	A-Ph11	A-Ph12	A-Ph13	A-Ph14	A-Ph15	A-Ph16	B-AC1	B-AC2	B-AC3	B-AC4	B-AC5	B-AC6	B-AC7	B-AC8	B-AC9	B-AC10	B-AC11	B-AC12	B-AC13	B-AC14	B-AC15	B-AC16	B-DC1	B-DC2	B-DC3	B-DC4	B-DC5	B-DC6	B-DC7	B-DC8	B-DC9	B-DC10	B-DC11	B-DC12	B-DC13	B-DC14	B-DC15	B-DC16	B-Ph1	B-Ph2	B-Ph3	B-Ph4	B-Ph5	B-Ph6	B-Ph7	B-Ph8	B-Ph9	B-Ph10	B-Ph11	B-Ph12	B-Ph13	B-Ph14	B-Ph15	B-Ph16	aux-1	digaux	

2631.628	1	1	0	768	0.26514	0.19504	0.39511	0.10133	0.14071	0.15425	0.15715	0.16614	0.18278	0.082994	0.087284	0.065504	0.32024	0.10357	0.047423	0.14283	-2.9042	-2.8688	-3.625	-2.9396	-3.2771	-3.6813	-2.8	-3.4813	-3.45	-3.0333	-3.7354	-3.0729	-3.225	-3.6354	-2.8583	-3.5083	-3.889	36.350	101.707	306.926	168.547	79.327	192.455	246.095	291.882	175.382	100.677	282.229	220.971	-32.537	43.397	40.035	9.9505e-05	5.1356e-05	3.2607e-05	131.4	1.4909e-06	9.851e-07	180.27	29.81	5.2301e-07	7.7612e-07	48.147	15.746	7.1812	2.3057	3.8248e-08	6.8163	0.00018581	0.0004193	0.0001036	130.67	3.9303e-06	4.3005e-06	179.44	29.48	3.2021e-06	5.3051e-06	48.193	15.732	7.3107	2.3167	4.3796e-06	6.8333	-12.517	76.105	76.157	-20.455	164.157	54.858	-20.182	-14.738	-11.324	124.982	-17.525	-13.108	-10.913	-5.168	200.538	-10.000	-8191	255	
2631.723	1	1	0	0	0.14964	0.087322	0.12816	0.10908	0.093461	0.14674	0.21055	0.090111	0.079698	0.14117	0.17062	0.05085	0.060934	0.2453	0.10939	0.28054	-3.0625	-2.7979	-3.4979	-3.0792	-3.1042	-3.7729	-2.9292	-3.4062	-3.6875	-2.8292	-3.5	-3.2375	-2.9729	-3.8417	-3.0917	-3.3042	83.727	274.980	6.730	303.209	-24.732	153.599	228.761	296.069	195.750	209.701	-28.338	167.019	203.189	201.082	-5.877	219.261	7.0692e-05	6.8916e-05	2.2322e-05	132.04	1.0374e-06	1.0877e-06	179.85	29.675	1.5859e-07	1.4845e-06	48.573	15.39	7.284	2.2111	7.0216e-07	6.7352	0.00017261	0.00044788	0.00010194	131.16	4.4973e-06	4.2578e-06	178.49	29.244	2.9678e-06	5.5877e-06	47.952	15.459	7.2834	2.2629	3.7129e-06	6.7218	-15.413	284.450	21.821	-19.298	43.540	157.780	-20.846	-14.834	43.689	79.837	-17.186	-13.058	-10.285	-6.427	86.668	-10.644	-8191	255	
2631.819	1	1	0	0	0.25947	0.23108	0.17367	0.21425	0.073115	0.049483	0.12364	0.19372	0.15167	0.12153	0.017269	0.14293	0.12579	0.18508	0.20381	0.27568	-3.0521	-2.7729	-3.5042	-3.0417	-2.8604	-3.5646	-3.1	-3.1583	-3.5167	-2.9333	-3.4542	-3.2313	-2.8167	-3.4333	-3.2354	-3.1312	46.790	58.254	292.652	23.130	22.598	305.328	111.768	4.667	173.576	314.221	50.037	170.108	195.618	0.149	123.286	219.793	0.00011588	7.3529e-05	2.8479e-05	132.22	5.7413e-07	9.1953e-07	180.65	29.561	1.1976e-06	5.6569e-07	48.514	15.493	7.1476	2.2465	8.8464e-07	6.7113	0.00017926	0.00047208	0.00011085	131.14	4.4102e-06	4.6703e-06	179.07	29.469	3.1745e-06	4.94e-06	48.055	15.448	7.1824	2.2739	3.6524e-06	6.748	4.477	32.992	85.591	-20.333	69.849	141.590	-20.887	-14.352	111.642	183.880	-17.085	-13.488	-10.283	-7.028	110.617	-9.594	-8191	255	
2631.917	1	1	0	0	0.13379	0.26501	0.042263	0.23832	0.20383	0.082266	0.058211	0.077301	0.106	0.29506	0.23732	0.24721	0.12546	0.22044	0.20602	0.16493	-3.2458	-2.8438	-3.4313	-3.5333	-2.9062	-3.7271	-3.0062	-3.0333	-3.7375	-3.1125	-3.4417	-3.2479	-2.7625	-3.5542	-3.0771	-2.9104	159.692	233.868	171.419	32.639	316.638	229.824	85.186	124.050	59.112	192.625	164.044	-6.502	22.479	123.315	213.559	20.755	8.3295e-05	6.0833e-05	2.5569e-05	132.14	1.0182e-07	1.4673e-06	181.94	29.59	1.702e-06	1.4684e-06	48.927	15.52	7.2735	2.311	1.3606e-06	6.6722	0.00016865	0.00040983	0.00010499	130.29	4.7867e-06	4.5227e-06	179.14	29.61	3.0229e-06	5.5363e-06	48.198	15.433	7.2833	2.3009	3.7935e-06	6.758	-8.410	100.007	50.508	-20.117	318.914	82.006	-20.515	-15.432	121.831	129.876	-16.793	-13.198	-9.753	-6.597	157.090	-9.658	-8191	255	
2632.011	1	1	0	0	0.048124	0.087783	0.23518	0.23236	0.14655	0.18004	0.17849	0.059474	0.30854	0.20372	0.1475	0.15128	0.15317	0.299	0.090274	0.10282	-3.2167	-2.6937	-3.2917	-3.4333	-2.8333	-3.4625	-3.3396	-2.9604	-3.4688	-2.8458	-3.1104	-3.6146	-3.0458	-3.6188	-3.4271	-2.9562	108.634	134.746	29.568	12.365	68.586	164.094	-19.875	188.727	84.566	182.449	-13.947	94.251	61.492	75.271	126.156	61.739	9.9125e-05	7.9201e-05	2.1994e-05	132.3	1.2466e-06	1.5933e-06	181.04	29.494	1.8662e-06	9.5053e-07	48.848	15.441	7.1282	2.2911	1.0164e-06	6.8409	0.00018063	0.00042907	0.00011587	131.2	4.2566e-06	4.4854e-06	179.3	29.474	3.2228e-06	4.9289e-06	48.332	15.475	7.281	2.301	3.3647e-06	6.8279	-1.702	46.478	27.198	-19.598	117.549	111.986	-20.681	-15.670	131.050	53.989	-17.647	-13.022	-9.977	-7.182	99.759	-10.093	-8191	255	
2632.109	1	1	0	0	0.15758	0.035823	0.18315	0.17045	0.15787	0.062579	0.10806	0.0695	0.16568	0.10264	0.084946	0.13426	0.08999	0.12146	0.18867	0.063303	-3.3104	-3.0021	-3.0062	-3.3854	-2.7125	-3.5062	-3.4208	-2.7562	-3.4688	-3.0396	-3.0896	-3.7167	-2.775	-3.4604	-3.4708	-2.9979	129.681	221.119	150.128	-7.684	221.671	-27.366	5.369	307.579	-30.133	82.954	17.092	210.050	-29.751	251.565	317.884	247.569	7.0004e-05	6.3223e-05	5.771e-06	132.62	6.6175e-07	1.4231e-06	181.87	29.744	1.3898e-06	8.6338e-07	48.442	15.291	7.1226	2.2191	9.1299e-07	6.5562	0.00017965	0.00039481	0.0001243	132.18	4.6021e-06	4.0978e-06	178.94	29.553	3.2779e-06	4.8776e-06	47.804	15.347	7.2478	2.2402	3.5946e-06	6.6494	12.865	25.362	250.409	-19.908	96.288	129.027	-20.779	-15.570	58.053	114.090	-17.183	-12.626	-10.518	-6.441	124.602	-10.318	-8191	255	
2632.228	1	1	0	0	0.31607	0.11507	0.067153	0.086151	0.42904	0.068529	0.21897	0.29925	0.21903	0.30181	0.11249	0.11469	0.17403	0.066562	0.24111	0.28597	-3.4229	-3.0687	-3.0563	-3.5875	-2.9729	-3.3646	-3.425	-2.9021	-3.5417	-3.0083	-3.0438	-3.8208	-2.9292	-3.1917	-3.4875	-2.8646	150.789	111.753	10.874	298.061	4.995	201.803	154.024	16.680	280.460	17.274	228.345	261.500	154.366	207.741	276.548	95.356	5.5152e-05	9.4695e-05	2.7571e-06	131.06	1.5425e-06	1.0082e-06	180.88	29.671	1.403e-06	1.0914e-06	47.709	15.297	7.2548	2.2077	1.1824e-06	6.5753	0.00018004	0.00041289	0.00013801	130.77	4.3319e-06	4.0782e-06	178.41	29.324	3.0861e-06	5.0464e-06	47.469	15.27	7.2427	2.2488	3.3876e-06	6.6227	11.230	47.210	81.845	-20.278	120.503	135.470	-20.903	-14.844	153.412	151.394	-17.672	-12.546	-10.547	-7.470	142.991	-9.521	-8191	255	
2632.324	1	1	0	0	0.12566	0.14584	0.33009	0.12501	0.1229	0.11194	0.149	0.21451	0.20749	0.21319	0.2206	0.18276	0.1271	0.13785	0.19395	0.26149	-3.2021	-2.9167	-2.9833	-3.7625	-3.0708	-3.0917	-3.4813	-2.8875	-3.6396	-3.2042	-2.9313	-3.6625	-2.8271	-3.0875	-3.4354	-2.8563	314.379	137.010	242.802	91.516	123.521	165.807	204.771	146.750	-7.366	110.068	220.962	253.717	221.879	252.692	311.996	82.905	0.00010807	7.2712e-05	1.7322e-05	134.63	7.7785e-07	1.258e-06	181.62	29.767	1.3703e-06	8.7962e-07	48.796	15.451	7.0739	2.2474	5.2989e-07	6.6339	0.00017378	0.00039583	0.00013037	132.22	3.9525e-06	5.216e-06	179.35	29.472	3.209e-06	4.4849e-06	48.42	15.407	7.1863	2.2576	3.7115e-06	6.6552	8.047	321.652	-16.218	-20.674	97.282	25.383	-21.038	-14.421	204.947	66.434	-16.887	-13.123	-11.173	-6.766	169.613	-10.679	-8191	255	
2632.420	1	1	0	0	0.13381	0.19228	0.20843	0.15011	0.32226	0.12582	0.068533	0.072637	0.072212	0.22967	0.17006	0.096603	0.24134	0.076619	0.17955	0.12823	-3.0833	-3.3	-2.7292	-3.6729	-2.8937	-3.0646	-3.4854	-2.8208	-3.4042	-3.5146	-2.7271	-3.525	-2.8583	-2.9813	-3.5771	-2.8688	247.614	64.357	209.179	305.929	201.487	-6.200	147.452	241.633	104.219	23.310	92.337	4.099	1.629	207.847	135.375	152.163	6.6809e-05	7.5591e-05	2.3447e-05	134.16	1.1782e-06	1.3461e-06	182.49	30.03	1.6137e-06	7.8569e-07	48.737	15.582	7.152	2.2239	1.5779e-06	6.6708	0.00017564	0.00037542	0.00012997	132.2	4.5652e-06	5.1378e-06	179.53	29.827	3.0803e-06	5.0078e-06	48.321	15.377	7.2516	2.267	3.2585e-06	6.7064	1.460	56.315	38.193	-21.014	98.790	136.406	-20.241	-15.603	166.550	193.503	-17.134	-12.760	-8.782	-5.867	115.914	-9.871	-8191	255	
2632.517	1	1	0	0	0.33132	0.20894	0.31418	0.19522	0.23494	0.12316	0.0049775	0.21205	0.18717	0.08925	0.26528	0.14704	0.21124	0.12459	0.053421	0.11248	-2.7229	-3.3333	-2.8875	-3.6396	-3.0396	-3.0958	-3.7542	-2.7083	-3.2208	-3.3063	-2.7812	-3.5667	-3.1771	-2.8167	-3.7375	-2.9562	170.458	212.325	306.180	267.926	132.006	43.911	87.441	231.093	187.290	190.171	-19.737	168.936	27.646	184.348	32.592	43.135	8.0153e-05	5.4302e-05	3.0005e-05	132.67	6.2109e-07	1.7633e-06	183.9	29.851	2.7411e-06	7.9808e-07	48.851	15.527	7.1443	2.2669	1.3711e-06	6.6587	0.00019495	0.00035734	0.00014325	132.06	3.8314e-06	5.0454e-06	180.65	29.732	3.1527e-06	4.2555e-06	48.279	15.388	7.2571	2.2729	3.6201e-06	6.6735	2.132	5.427	18.646	-19.532	30.184	118.802	-20.932	-15.447	118.670	86.250	-16.881	-12.344	-11.199	-6.706	114.282	-9.826	-8191	255	
2632.613	1	1	0	0	0.17619	0.11621	0.091837	0.13667	0.017764	0.28983	0.036287	0.16133	0.04821	0.1066	0.24569	0.1811	0.14059	0.074234	0.3006	0.18456	-2.6833	-3.4188	-2.9125	-3.3979	-3.3958	-2.8583	-3.6271	-3.2125	-3.2583	-3.5667	-2.8125	-3.5438	-3.3083	-2.8625	-3.4062	-2.8479	202.351	163.380	92.869	139.950	215.656	176.421	41.651	299.509	-10.306	144.445	189.418	5.803	131.072	69.089	290.323	199.867	6.2413e-05	0.00013271	1.0572e-05	132.97	8.7273e-07	4.4816e-07	178.91	30.007	3.4891e-06	5.3228e-07	48.199	15.285	7.0432	2.2337	4.5017e-07	6.6938	0.00020268	0.00034684	0.00012508	131.4	3.7635e-06	5.2694e-06	178.05	29.514	3.511e-06	4.4573e-06	47.886	15.237	7.1878	2.2311	3.5892e-06	6.6428	4.741	-9.421	305.590	-20.947	127.609	91.618	-20.521	-15.322	125.682	96.898	-17.044	-12.626	-10.410	-7.103	142.711	-9.983	-8191	255	
2632.709	1	1	0	0	0.21589	0.087252	0.020232	0.13918	0.22529	0.14903	0.16782	0.060928	0.3126	0.25142	0.069074	0.1184	0.29807	0.151	0.089934	0.056495	-2.7792	-3.6312	-2.7792	-3.3792	-3.3896	-3.0271	-3.6063	-3.0812	-2.9083	-3.4708	-2.9667	-3.3708	-3.2833	-2.8104	-3.4208	-3.05	37.516	140.318	4.931	216.491	13.755	263.993	154.371	266.879	20.844	36.512	64.639	216.083	68.520	-24.804	-4.938	240.951	6.2405e-05	3.923e-05	4.5506e-06	133.69	1.3685e-06	5.6595e-07	181.56	29.824	2.424e-06	7.1209e-07	48.857	15.25	6.9893	2.2081	2.2541e-06	6.5902	0.00020048	0.00033897	0.00012473	132.01	3.8668e-06	5.2907e-06	178.85	29.679	3.6133e-06	4.9546e-06	48.013	15.299	7.1672	2.2406	3.9589e-06	6.6296	2.469	124.401	108.853	-19.778	84.834	194.371	-20.925	-14.957	103.255	88.878	-17.283	-12.399	-10.188	-6.428	123.029	-10.035	-8191	255	
2632.828	1	1	0	0	0.2823	0.13986	0.16773	0.068394	0.20709	0.062501	0.080373	0.10695	0.10503	0.076169	0.16149	0.10178	0.3137	0.03361	0.020453	0.22966	-2.5333	-3.6083	-2.8896	-3.1958	-3.5792	-2.7313	-3.5729	-3.3708	-2.8083	-3.4	-2.9042	-3.15	-3.6979	-2.6917	-3.4021	-3.4583	56.383	-22.771	234.003	284.298	268.778	34.723	103.290	185.949	185.136	-8.106	58.439	125.972	-30.568	247.268	202.791	314.673	5.3754e-05	8.9891e-05	4.3004e-05	132.76	1.0076e-06	9.8494e-07	182.17	29.804	6.9775e-07	2.5073e-06	48.647	15.504	7.0475	2.2512	1.6642e-06	6.6705	0.00017618	0.00038154	0.00012945	132.12	4.0544e-06	4.9458e-06	179.14	29.764	3.4421e-06	4.4115e-06	48.126	15.35	7.1676	2.269	3.9764e-06	6.6615	323.666	105.548	106.142	-21.409	114.935	102.594	-20.897	-14.665	130.401	97.167	-17.839	-13.170	-10.020	-5.781	78.391	-10.075	-8191	255	
2632.924	1	1	0	0	0.21802	0.15888	0.1246	0.27028	0.091773	0.19177	0.1423	0.18964	0.19752	0.33583	0.053008	0.22941	0.22307	0.054976	0.06287	0.13988	-2.5604	-3.4729	-2.8021	-3.2062	-3.6479	-2.8833	-3.4583	-3.2396	-2.8083	-3.6292	-3.1917	-3.1271	-3.6312	-2.8854	-3.2708	-3.3937	180.817	81.328	219.120	152.596	188.322	34.148	323.661	120.167	186.022	187.769	293.355	214.527	247.593	131.267	229.281	-16.787	7.6975e-05	5.8388e-05	1.7246e-05	131.98	4.0825e-07	8.2076e-08	181.23	30.044	2.0779e-06	5.2942e-07	48.177	15.55	7.2402	2.2263	3.8476e-07	6.6222	0.00020156	0.00036828	0.0001177	131.29	4.1149e-06	5.216e-06	179.38	29.744	3.7017e-06	4.5583e-06	48.469	15.472	7.2866	2.258	3.5247e-06	6.672	6.226	294.844	66.311	-21.149	23.854	88.168	-20.438	-15.620	102.736	137.189	-17.647	-12.929	-10.446	-7.247	57.112	-10.068	-8191	255	
2633.020	1	1	0	0	0.072543	0.21123	0.22111	0.14898	0.28801	0.24517	0.12312	0.24709	0.20429	0.064314	0.15585	0.070693	0.23254	0.22262	0.2952	0.16765	-2.3854	-3.6167	-3.1	-3.075	-3.5292	-2.9646	-3.2896	-3.3479	-2.7208	-3.6125	-3.1146	-3.0396	-3.6646	-3.0396	-3.3021	-3.5729	183.433	237.291	161.396	45.129	221.825	60.139	-8.346	95.075	45.749	288.026	157.678	6.780	272.251	117.089	321.028	15.480	7.6106e-05	0.00010105	1.5227e-05	134.53	5.1211e-07	8.3467e-07	180.41	29.958	6.1815e-07	7.3745e-07	48.655	15.1	7.1628	2.2353	1.3239e-06	6.5868	0.00021251	0.00037775	0.00011687	131.88	4.2478e-06	4.6685e-06	177.78	29.467	3.5822e-06	4.5069e-06	47.9	15.131	7.2022	2.2461	4.0167e-06	6.5469	-12.336	38.431	67.215	-20.678	58.335	164.901	-20.497	-15.349	160.988	138.375	-18.098	-13.349	-11.218	-6.937	123.814	-10.497	-8191	255	
2633.116	1	1	0	0	0.045132	0.18178	0.28875	0.126	0.27342	0.065664	0.22502	0.26207	0.19069	0.13275	0.11228	0.14377	0.2422	0.14044	0.1583	0.24945	-2.4188	-3.7521	-3.2333	-2.975	-3.6521	-2.9562	-3.1833	-3.6396	-2.7938	-3.6229	-3.2875	-2.85	-3.4729	-2.9188	-2.9208	-3.5917	275.181	45.166	69.584	272.834	-22.852	48.382	-2.547	319.081	14.285	44.312	-4.211	138.131	4.556	-12.588	319.285	137.745	6.4066e-05	3.0056e-05	2.3164e-05	132.31	7.2638e-07	1.4096e-06	180.21	29.59	5.5788e-07	1.0183e-06	48.127	15.398	7.1552	2.2547	5.5459e-07	6.5225	0.00019564	0.00036113	0.00011871	132.36	3.5863e-06	4.8907e-06	178.53	29.453	3.4215e-06	4.5381e-06	47.561	15.213	7.2049	2.2496	4.0745e-06	6.5748	6.806	207.086	33.656	-19.825	120.970	66.711	-20.141	-14.731	281.430	109.595	-17.774	-13.085	-11.005	-6.461	69.992	-10.232	-8191	255	
2633.188	1	1	0	0	0.10357	0.10059	0.17826	0.23411	0.20564	0.01336	0.30391	0.1144	0.21277	0.20476	0.082723	0.19119	0.047532	0.13337	0.10479	0.11075	-2.2958	-3.4542	-3.3771	-2.7042	-3.7646	-2.9958	-3.1312	-3.7875	-2.9125	-3.3792	-3.5938	-2.8167	-3.6146	-2.9104	-2.9979	-3.5833	-18.505	80.576	279.304	-5.999	90.764	151.941	7.982	313.038	106.124	55.576	101.311	106.201	153.218	-19.914	235.284	314.534	0.00012044	0.00016273	5.4749e-06	132.04	1.5638e-07	1.4773e-06	181.25	29.483	2.1778e-06	1.0045e-06	47.88	15.441	7.2968	2.2562	5.1407e-07	6.6651	0.00020224	0.00040385	0.00011923	130.39	3.5538e-06	5.0027e-06	179.02	29.52	3.4823e-06	5.1914e-06	48.067	15.419	7.2936	2.2744	3.7075e-06	6.6707	-0.614	105.116	46.165	-20.836	52.489	111.189	-20.653	-14.790	64.214	93.200	-18.197	-12.292	-11.461	-5.838	53.506	-9.488	-8191	255	
2633.308	1	1	0	0	0.39826	0.077131	0.26809	0.086312	0.056331	0.12396	0.099348	0.2972	0.24169	0.10476	0.27511	0.26584	0.11373	0.060209	0.16576	0.12153	-2.5792	-3.1896	-3.5146	-2.9292	-3.5979	-3.3125	-2.925	-3.5979	-2.8667	-3.2896	-3.5896	-2.7396	-3.5979	-3.0812	-2.8458	-3.7562	0.253	77.186	70.224	186.546	248.272	100.120	287.478	22.357	260.109	-18.944	300.591	37.314	-19.590	87.058	297.956	-20.084	6.5197e-05	8.1806e-05	1.3317e-05	132.18	1.3218e-06	1.4368e-06	180.35	29.51	1.8724e-06	7.5768e-07	48.44	15.53	7.0997	2.2688	6.2001e-07	6.5677	0.00018972	0.00039306	0.00012631	131.2	3.4387e-06	4.384e-06	179.08	29.473	3.4467e-06	5.1748e-06	48.062	15.441	7.2408	2.2897	4.0006e-06	6.6768	16.943	22.012	40.663	-21.229	59.833	66.751	-20.704	-15.014	24.387	155.208	-18.106	-12.831	-10.277	-5.586	317.885	-9.947	-8191	255	
2633.405	1	1	0	0	0.14753	0.030601	0.26123	0.15112	0.10345	0.27592	0.31235	0.051273	0.10876	0.18925	0.27876	0.21557	0.2564	0.045482	0.13555	0.16462	-2.6396	-3.1667	-3.45	-2.8646	-3.3708	-3.4979	-2.9104	-3.6042	-3.0583	-3.0667	-3.7062	-2.8146	-3.4417	-3.2687	-2.7687	-3.7708	27.751	308.526	291.966	130.318	74.162	168.204	49.883	290.578	-24.666	53.156	101.440	129.640	-15.133	188.714	91.172	199.413	7.298e-05	6.096e-05	5.0506e-05	132.65	6.8043e-07	9.3868e-07	181.07	29.498	2.7565e-06	5.4789e-07	48.176	15.112	7.0693	2.2501	1.196e-06	6.4828	0.0001976	0.00040574	0.00011399	131.84	3.8048e-06	4.784e-06	178.39	29.52	3.2067e-06	5.2281e-06	47.924	15.156	7.1517	2.2637	3.8258e-06	6.5431	-21.943	81.929	-19.098	-20.527	-20.632	132.204	-20.429	-15.124	144.632	72.618	-18.108	-12.280	-9.642	-6.052	123.728	-10.316	-8191	255	
2633.501	1	1	0	0	0.12687	0.29686	0.15691	0.25717	0.059405	0.1636	0.10086	0.18864	0.15208	0.18369	0.21431	0.36628	0.018465	0.26362	0.39133	0.12565	-2.8583	-2.9479	-3.55	-2.8771	-3.5229	-3.4375	-2.8979	-3.7458	-3.2708	-3.0479	-3.7521	-2.9229	-3.1917	-3.5438	-2.8146	-3.6583	274.693	-3.964	-24.580	293.602	147.214	62.681	70.618	-15.543	209.522	150.053	162.352	-17.440	298.742	293.613	296.650	22.554	9.8706e-05	8.4924e-05	1.2702e-05	132.5	6.5907e-07	1.857e-06	178.52	29.366	1.6428e-06	8.4473e-07	47.745	15.134	7.2068	2.2609	1.8858e-06	6.5752	0.00019173	0.00041726	0.00010294	131.01	4.0027e-06	4.6063e-06	176.84	29.287	3.6443e-06	5.573e-06	47.636	15.128	7.195	2.2738	4.0678e-06	6.6138	16.027	60.185	303.636	-21.299	103.363	85.407	-20.886	-14.817	112.823	78.686	-17.366	-13.263	-10.492	-7.179	94.004	-10.404	-8191	255	
2633.597	1	1	0	0	0.25131	0.2496	0.092657	0.12331	0.22544	0.22572	0.1789	0.11862	0.27809	0.16237	0.064676	0.097457	0.26426	0.1098	0.18716	0.092858	-2.65	-2.8229	-3.5875	-2.8479	-3.1167	-3.4813	-2.8625	-3.375	-3.2125	-3.0229	-3.6542	-3.2708	-3.0062	-3.5333	-2.9229	-3.4437	131.743	308.457	246.241	111.607	245.056	224.459	60.237	-32.674	-30.157	126.285	58.236	19.411	241.014	236.403	314.781	295.352	0.00010354	4.944e-05	2.8517e-05	130.45	1.1221e-06	8.5046e-07	181.46	29.413	1.2718e-06	1.1252e-06	47.996	15.221	7.1364	2.222	7.8219e-07	6.6256	0.00018508	0.0004419	0.00010316	130.04	4.1105e-06	4.5476e-06	178.2	29.432	3.2572e-06	4.9106e-06	47.619	15.219	7.219	2.2609	4.0691e-06	6.6478	5.433	58.569	166.628	-20.230	112.195	54.882	-21.150	-15.226	118.171	83.082	-17.355	-14.001	-10.460	-6.790	143.609	-10.567	-8191	255	
2633.716	1	1	0	0	0.33668	0.12547	0.18714	0.12082	0.17285	0.078025	0.091	0.12224	0.2616	0.22549	0.07317	0.094786	0.128	0.26976	0.22893	0.24718	-2.9625	-2.6708	-3.675	-3.0333	-2.9562	-3.7396	-2.9708	-3.5042	-3.4542	-3.0458	-3.7521	-3.0563	-3.0458	-3.6104	-2.9354	-3.3979	294.303	-3.960	129.650	58.759	312.880	-31.172	116.118	121.727	203.805	203.716	8.714	276.824	65.680	38.713	211.139	214.265	8.9305e-05	0.00014087	1.9766e-05	130.62	6.5818e-07	8.2336e-07	179.71	29.642	1.2874e-06	1.014e-06	48.54	15.276	7.0009	2.2747	1.5161e-06	6.5266	0.00019168	0.00046158	0.00011045	130.68	4.2227e-06	4.2756e-06	177.45	29.447	3.48e-06	5.1271e-06	47.96	15.295	7.2253	2.2823	4.1887e-06	6.6548	13.781	100.806	117.945	-20.111	262.053	21.228	-20.649	-15.187	80.972	153.390	-17.418	-12.467	-11.884	-6.246	166.433	-10.527	-8191	255	
2633.789	1	1	0	0	0.1427	0.30694	0.017523	0.11219	0.051574	0.31981	0.069477	0.24659	0.14613	0.28675	0.17166	0.31113	0.14434	0.17545	0.090202	0.1678	-2.9708	-2.9792	-3.3854	-3.075	-2.7958	-3.6458	-2.9542	-3.2854	-3.5292	-2.6688	-3.575	-3.2417	-2.8542	-3.7583	-2.9604	-3.0333	121.079	214.520	257.894	229.882	173.681	239.301	225.770	74.384	121.527	120.891	223.500	94.545	254.594	265.574	292.168	-26.975	6.0826e-05	1.4968e-05	3.0858e-05	127.97	6.5225e-07	1.2278e-06	179.94	29.169	2.8054e-06	1.6716e-06	47.587	15.117	6.9887	2.2118	1.0089e-06	6.4622	0.00018439	0.00041508	0.00010975	129.59	3.9643e-06	4.4925e-06	177.69	29.209	3.364e-06	5.8355e-06	47.484	15.201	7.1677	2.253	4.4657e-06	6.5411	-5.464	129.895	45.343	-21.070	87.133	99.437	-21.125	-15.424	76.531	169.858	-17.142	-13.005	-11.880	-6.631	118.610	-9.526	-8191	255	
2633.908	1	1	0	0	0.13266	0.20461	0.093203	0.085482	0.27804	0.095298	0.08633	0.077375	0.11609	0.22453	0.39937	0.24603	0.22948	0.077076	0.29559	0.20032	-3.2958	-2.8438	-3.4854	-3.2479	-2.9188	-3.7167	-2.9771	-3.1271	-3.5292	-2.7917	-3.4854	-3.2687	-2.8458	-3.6292	-3.175	-3.1229	283.025	299.757	54.089	249.650	214.032	257.206	242.728	233.153	96.717	316.169	-0.694	133.263	315.204	55.361	145.503	267.500	9.8839e-05	8.7985e-05	4.9456e-05	131.67	1.688e-07	3.1589e-07	179.7	29.114	2.7887e-06	1.4819e-06	47.091	14.94	7.1897	2.2228	2.3872e-06	6.453	0.00017256	0.00040064	0.00011539	131.42	4.4117e-06	4.8285e-06	177.01	29.115	3.1205e-06	5.2721e-06	47.318	15.043	7.1969	2.2389	3.7532e-06	6.5268	-24.507	77.033	7.176	-20.272	126.476	65.463	-20.929	-15.315	134.548	93.217	-18.026	-13.453	-10.855	-7.857	34.205	-9.712	-8191	255	
2634.004	1	1	0	0	0.2846	0.19445	0.23442	0.10432	0.11825	0.031616	0.15602	0.30747	0.065847	0.048118	0.084134	0.084921	0.24901	0.21445	0.2204	0.2653	-3.2687	-2.8812	-3.2354	-3.5312	-2.9292	-3.6729	-3.0625	-3.0479	-3.6646	-2.7521	-3.3229	-3.3208	-2.8375	-3.4313	-3.1354	-3.0375	307.675	317.238	160.367	268.596	200.759	244.924	-1.681	145.731	285.026	146.846	262.197	118.332	273.074	189.246	8.363	293.050	0.00012054	2.3704e-05	1.6559e-05	129.67	5.9746e-07	6.3999e-07	178.19	29.502	1.4733e-06	1.5372e-06	47.767	15.313	7.2346	2.2643	5.1497e-07	6.5873	0.00017099	0.00041785	0.00013722	129.48	4.2153e-06	4.3822e-06	177.56	29.273	2.8598e-06	5.0904e-06	47.499	15.262	7.2327	2.2779	3.6833e-06	6.5973	2.044	136.064	72.721	-22.148	120.141	144.685	-20.956	-15.053	149.528	151.059	-17.721	-13.398	-11.650	-6.104	-30.199	-10.157	-8191	255	
2634.100	1	1	0	0	0.091606	0.064483	0.089234	0.11271	0.12624	0.13379	0.20611	0.12327	0.084953	0.047949	0.19546	0.11324	0.11941	0.15374	0.16233	0.20302	-3.2188	-2.8542	-3.0687	-3.5667	-2.8917	-3.5125	-3.3542	-2.7646	-3.6437	-2.9208	-3.1979	-3.55	-2.8542	-3.3833	-3.3354	-2.8479	78.265	48.431	134.366	79.932	-4.023	201.543	176.283	69.626	124.031	39.534	230.865	177.834	12.815	121.746	84.494	-32.683	9.2131e-05	0.00013445	9.9262e-06	132.02	1.3752e-06	1.2283e-06	179.71	29.268	9.1064e-07	5.2144e-07	48.101	15.439	7.1859	2.2473	1.1258e-06	6.6297	0.0001774	0.00044103	0.00011036	131.19	4.487e-06	4.4978e-06	178.05	29.208	3.325e-06	5.1675e-06	47.732	15.29	7.2772	2.2715	4.2291e-06	6.6588	3.208	31.644	69.313	-21.410	83.019	103.387	-21.307	-15.636	59.736	62.598	-17.419	-13.384	-10.908	-7.493	100.067	-9.452	-8191	255	
2634.197	1	1	0	0	0.12146	0.1071	0.033404	0.071591	0.16315	0.08274	0.082277	0.10253	0.12653	0.095673	0.34426	0.27783	0.1565	0.013501	0.026883	0.095368	-3.1458	-3.0771	-3.1167	-3.7167	-2.9771	-3.4562	-3.35	-2.8792	-3.6375	-3.0312	-3.0417	-3.5667	-2.75	-3.3292	-3.3438	-2.8375	209.848	46.079	166.052	71.612	-3.158	220.555	316.885	263.241	146.692	-20.434	1.721	229.340	156.436	184.899	32.916	64.706	5.9243e-05	5.7865e-05	1.5406e-05	131.45	4.8685e-07	1.8856e-06	178.61	29.53	6.4263e-07	7.6877e-07	47.777	15.28	7.0897	2.2061	2.0093e-06	6.498	0.0001795	0.00039321	0.00013989	131.3	4.4131e-06	4.4391e-06	176.99	29.474	2.9069e-06	4.7234e-06	47.639	15.173	7.2088	2.2722	3.7613e-06	6.5751	39.014	111.727	123.414	-20.046	4.375	134.203	-21.305	-15.835	227.529	136.541	-18.490	-13.621	-11.520	-6.562	249.486	-10.409	-8191	255	
2634.317	1	1	0	0	0.11163	0.083395	0.22194	0.321	0.29139	0.22324	0.087526	0.12476	0.091456	0.10936	0.29163	0.18497	0.083963	0.12085	0.17885	0.3055	-3.3312	-3.0875	-2.9354	-3.7271	-2.8312	-3.25	-3.5187	-2.8563	-3.5604	-3.3396	-2.9875	-3.5875	-3.0187	-3.1771	-3.6729	-2.7229	216.138	108.531	302.915	85.240	-11.324	213.158	195.969	224.839	67.740	59.001	72.172	186.073	115.283	281.391	289.394	217.788	9.7091e-05	6.1756e-05	3.6125e-05	131.64	7.9821e-07	5.7957e-07	177.83	29.204	1.2047e-06	1.2488e-06	47.002	15.071	7.2684	2.1999	7.449e-07	6.5513	0.00018909	0.00038402	0.00013015	130.61	4.5106e-06	5.1005e-06	176.48	29.287	2.9517e-06	5.2115e-06	47.109	15.085	7.2181	2.2362	3.561e-06	6.5793	-1.122	32.874	69.847	-20.623	103.232	115.012	-21.048	-16.003	162.239	120.507	-18.434	-12.706	-11.006	-6.387	133.199	-9.800	-8191	255	
2634.413	1	1	0	0	0.20658	0.13136	0.055341	0.21343	0.23679	0.14778	0.19684	0.25338	0.077437	0.080866	0.051964	0.14066	0.39679	0.15717	0.086687	0.065549	-3.0667	-3.225	-2.8729	-3.4104	-2.95	-3.2521	-3.45	-2.7625	-3.5396	-3.3688	-2.9646	-3.55	-2.9021	-3.0354	-3.6104	-3.0417	66.495	110.661	-16.766	209.382	25.136	303.631	38.756	179.911	165.926	313.659	9.104	244.842	161.645	94.741	99.644	113.966	9.4438e-05	8.9755e-05	2.5246e-05	129.29	8.2884e-07	8.1641e-07	180.2	29.393	3.2082e-07	7.2475e-07	47.58	15.204	7.1826	2.2952	1.4071e-06	6.6239	0.0001817	0.00038475	0.00011683	130.23	4.4057e-06	5.0738e-06	177.5	29.445	3.2905e-06	4.828e-06	47.26	15.214	7.2334	2.2914	3.6967e-06	6.6275	14.623	32.628	86.622	-21.411	85.132	98.887	-20.832	-15.144	128.729	169.161	-18.782	-12.822	-10.438	-7.108	122.727	-10.031	-8191	255	
2634.485	1	1	0	0	0.32057	0.26716	0.19152	0.16591	0.24794	0.17806	0.11337	0.088261	0.050725	0.13305	0.17502	0.051103	0.094107	0.12285	0.14358	0.22319	-3.0687	-3.4938	-2.7417	-3.6917	-3.1708	-2.9771	-3.6312	-2.925	-3.3937	-3.4354	-2.7479	-3.6188	-3.2333	-2.9104	-3.9083	-2.9958	244.973	175.776	280.576	16.470	-3.019	8.176	149.976	121.825	153.008	-13.738	-3.920	248.728	163.246	124.674	159.476	288.131	0.00011756	0.00011483	3.7477e-05	134.46	6.6399e-07	4.8198e-07	182.05	29.792	4.5153e-07	2.5821e-07	47.836	15.332	7.1856	2.2593	1.7191e-06	6.6501	0.00017911	0.00041201	0.00012517	131.36	4.2522e-06	5.0151e-06	178.08	29.467	3.3985e-06	5.1198e-06	47.699	15.257	7.2765	2.3016	3.2841e-06	6.6502	-5.626	24.847	125.978	-21.106	162.885	187.609	-20.327	-15.936	38.135	79.668	-17.471	-12.648	-9.857	-6.613	161.866	-10.707	-8191	255	
2634.606	1	1	0	0	0.1202	0.19672	0.05976	0.19801	0.16779	0.16885	0.12185	0.069914	0.13039	0.11294	0.074244	0.087122	0.047129	0.030203	0.11587	0.15421	-2.9667	-3.4938	-2.9125	-3.7021	-3.2521	-2.9896	-3.6771	-2.9562	-3.15	-3.5667	-2.8667	-3.5667	-3.4333	-2.7854	-3.6625	-3.0646	39.260	47.639	214.336	206.085	1.086	308.817	-14.541	296.463	273.184	-22.057	189.952	-10.674	0.425	220.301	2.184	-18.822	8.0568e-05	7.2014e-05	2.1442e-05	132.28	6.0141e-07	8.8257e-07	178.09	29.098	1.3615e-06	1.0949e-06	48.118	15.172	7.1344	2.2657	1.0141e-06	6.6746	0.00018679	0.00035909	0.00012631	130.64	4.0411e-06	5.3796e-06	177.68	29.194	3.48e-06	4.5252e-06	47.698	15.239	7.2442	2.2838	3.518e-06	6.6356	-3.287	91.637	58.086	-21.122	60.877	68.194	-20.767	-14.868	139.936	138.992	-17.888	-12.926	-11.302	-6.756	317.537	-10.749	-8191	255	
2634.700	1	1	0	0	0.23007	0.17554	0.079753	0.16852	0.05918	0.29971	0.134	0.10517	0.12791	0.25086	0.094474	0.10168	0.2397	0.3694	0.17161	0.16663	-2.7417	-3.575	-2.925	-3.5458	-3.2854	-2.8792	-3.5771	-3.0312	-3.1542	-3.6521	-2.9542	-3.3646	-3.2958	-2.7667	-3.7583	-3.0396	182.430	200.345	237.670	172.963	5.608	145.302	326.374	45.110	74.841	312.759	51.116	-26.014	14.708	166.054	153.719	137.695	7.9416e-05	0.00012312	2.3036e-05	132.04	1.5495e-06	3.2315e-07	179.43	29.84	1.381e-06	1.0265e-06	47.521	14.93	7.1669	2.212	1.1767e-06	6.5274	0.00018508	0.0003728	0.00012823	130.28	3.9023e-06	4.8658e-06	177.25	29.331	3.6362e-06	4.2114e-06	47.152	15.007	7.2254	2.2699	3.3351e-06	6.5395	20.194	69.236	168.263	-19.866	35.681	128.149	-20.185	-15.003	27.260	136.764	-17.415	-13.575	-11.937	-6.488	131.171	-10.094	-8191	255	
2634.796	1	1	0	0	0.18779	0.063747	0.16667	0.1862	0.088707	0.064287	0.3246	0.084244	0.13783	0.26348	0.088755	0.16735	0.1713	0.20525	0.15059	0.1992	-2.5521	-3.7562	-2.8646	-3.2604	-3.3729	-2.7042	-3.725	-3.2771	-2.9125	-3.7438	-2.9896	-3.2792	-3.5083	-2.6958	-3.6333	-3.2938	27.130	-15.841	310.433	15.108	128.658	-12.702	-19.472	271.297	67.815	-12.050	63.132	98.899	312.434	22.040	89.683	76.533	3.8232e-05	5.4048e-05	1.2991e-05	128.75	1.0964e-06	2.8984e-07	179.62	29.131	7.7925e-07	9.2562e-07	47.415	15.207	7.1935	2.2976	8.4406e-07	6.4662	0.00019051	0.00034495	0.00013015	128.31	3.5583e-06	5.2818e-06	177.26	29.22	3.4548e-06	4.6812e-06	47.116	15.097	7.2489	2.2868	3.6752e-06	6.5364	12.815	85.148	62.246	-19.921	79.252	301.744	-20.297	-14.822	147.646	203.957	-18.248	-12.833	-8.820	-6.032	112.597	-10.739	-8191	255	
2634.892	1	1	0	0	0.03166	0.31731	0.21446	0.14835	0.098393	0.18857	0.22382	0.13738	0.1094	0.091862	0.13705	0.25499	0.19658	0.13344	0.22818	0.046725	-2.5229	-3.525	-3.0521	-3.3229	-3.3958	-2.7792	-3.5271	-3.3146	-3.0854	-3.7604	-3.0312	-3.0042	-3.4375	-2.8854	-3.4375	-3.5687	82.803	3.875	304.817	280.147	10.721	71.932	36.537	302.537	92.127	37.230	11.043	-8.101	-31.214	189.993	130.509	196.070	8.5679e-05	8.1666e-05	2.6312e-05	130.21	4.4441e-07	7.3879e-07	179.56	29.3	2.0139e-06	9.2952e-07	47.411	15.394	7.2092	2.2571	5.7338e-07	6.6887	0.00019583	0.00031637	0.00012906	129.81	3.5391e-06	5.04e-06	177.16	29.195	3.5156e-06	4.6941e-06	47.355	15.267	7.2223	2.2969	3.358e-06	6.6486	-21.499	46.292	13.393	-19.565	115.668	99.895	-20.501	-15.255	157.035	96.053	-17.728	-13.578	-12.272	-6.667	39.011	-11.014	-8191	255	
2635.013	1	1	0	0	0.17522	0.12016	0.06483	0.12379	0.14572	0.18901	0.12905	0.065369	0.04266	0.084455	0.1013	0.15021	0.18492	0.11942	0.15199	0.044146	-2.5229	-3.5542	-2.95	-2.9479	-3.7167	-2.7708	-3.3812	-3.4437	-2.925	-3.7375	-2.9875	-3.0312	-3.5458	-2.7542	-3.3542	-3.5729	115.145	61.932	176.414	305.945	-7.123	36.387	233.580	6.762	323.464	244.862	186.252	265.865	232.608	299.703	275.543	113.429	6.2238e-05	3.1944e-05	1.7997e-05	131.11	1.0101e-06	5.2421e-07	178.43	29.521	1.0264e-06	2.7788e-07	48.073	15.539	7.1662	2.3049	1.9613e-06	6.5256	0.00019065	0.00035574	0.00012858	130.69	3.951e-06	4.8854e-06	177.79	29.465	3.5972e-06	5.3125e-06	47.833	15.391	7.2371	2.3052	3.8742e-06	6.6245	9.665	-8.611	33.123	-21.144	63.007	197.680	-20.794	-15.188	172.032	108.484	-18.015	-13.241	-11.037	-6.567	163.331	-9.727	-8191	255	
2635.085	1	1	0	0	0.092564	0.24649	0.091218	0.14333	0.22438	0.085459	0.15192	0.12638	0.06807	0.15777	0.38732	0.11222	0.092724	0.24086	0.17853	0.074242	-2.3875	-3.6458	-3.1208	-2.9083	-3.6833	-3.0667	-3.2854	-3.6063	-2.7729	-3.7188	-3.3187	-2.8729	-3.6604	-2.9188	-3.1458	-3.4562	2.438	206.915	180.314	304.210	233.367	189.766	295.019	62.926	146.947	113.446	284.689	223.000	294.724	15.282	220.789	233.762	8.3578e-05	9.1127e-05	6.2092e-06	130.88	1.7111e-06	1.2199e-06	180.04	29.029	2.2024e-06	1.1773e-06	48.18	15.24	7.0824	2.2251	5.1893e-07	6.5221	0.00021231	0.00038971	0.00010975	129.45	3.5922e-06	5.0827e-06	176.95	29.211	3.7419e-06	5.1491e-06	47.335	15.148	7.2443	2.262	3.8446e-06	6.5487	-5.400	140.549	317.382	-20.995	66.504	113.035	-19.819	-15.395	169.637	189.302	-17.832	-13.041	-10.309	-7.052	159.352	-10.294	-8191	255	
2635.181	1	1	0	0	0.11583	0.15486	0.12167	0.24779	0.062763	0.11993	0.21109	0.17155	0.17381	0.23837	0.15324	0.11075	0.095368	0.23201	0.082253	0.28824	-2.4813	-3.4854	-3.2792	-2.8271	-3.6854	-3.0417	-3.2396	-3.7438	-2.8854	-3.3521	-3.4083	-2.9604	-3.575	-3.1104	-2.9708	-3.5854	204.829	230.452	151.537	216.032	99.935	293.649	306.725	215.334	155.622	299.489	225.744	304.892	214.975	325.288	157.034	251.464	8.5525e-05	7.2861e-05	3.0163e-05	131.21	1.2962e-06	1.3919e-06	178.43	29.343	1.9899e-06	1.4629e-06	48.494	15.321	7.0878	2.2973	1.5984e-06	6.6297	0.00020615	0.00038563	0.00012085	129.92	3.9776e-06	5.6463e-06	176.65	29.188	3.4927e-06	5.4923e-06	47.553	15.184	7.238	2.3005	4.0207e-06	6.6422	-4.918	34.301	17.532	-20.707	95.076	66.238	-20.295	-15.215	274.662	150.317	-17.062	-13.033	-10.637	-6.144	140.628	-10.273	-8191	255	
2635.277	1	1	0	0	0.14768	0.22953	0.063507	0.25872	0.26823	0.04156	0.10823	0.034546	0.21636	0.11378	0.11419	0.11404	0.088155	0.098224	0.23148	0.10486	-2.4729	-3.3438	-3.575	-2.6896	-3.75	-3.2458	-3.0083	-3.4625	-2.8229	-3.2875	-3.5187	-2.8187	-3.5958	-3.3167	-2.9583	-3.5646	190.284	232.093	226.384	94.406	215.205	17.660	235.535	295.044	80.281	123.346	-27.652	13.184	59.758	39.898	5.309	56.786	7.832e-05	9.7309e-05	1.628e-05	130.34	1.0501e-06	8.1694e-07	179.83	29.48	9.8285e-07	9.9309e-07	47.564	15.365	7.4032	2.263	1.1889e-06	6.6802	0.00019701	0.00041537	0.00010757	129.84	3.9111e-06	4.9511e-06	177.39	29.458	3.48e-06	5.4262e-06	47.315	15.299	7.3578	2.296	3.7922e-06	6.671	31.902	72.345	72.577	-20.003	81.343	132.712	-20.389	-15.137	227.510	112.664	-17.688	-13.972	-10.281	-5.779	215.479	-9.284	-8191	255	
2635.398	1	1	0	0	0.19614	0.055679	0.063327	0.24168	0.073165	0.17599	0.13384	0.063005	0.11148	0.25994	0.13444	0.064183	0.24768	0.12869	0.1449	0.08579	-2.5875	-3.1854	-3.6125	-2.7125	-3.4792	-3.2854	-2.8604	-3.6562	-2.8917	-3.2896	-3.6229	-2.8	-3.5271	-3.2792	-2.8854	-3.7021	-5.144	235.520	200.111	212.656	-23.201	121.143	172.577	56.142	213.457	1.350	228.233	57.007	170.640	18.702	49.277	179.587	0.00010559	7.0032e-05	3.8459e-05	132.82	1.0105e-06	1.7193e-06	178.67	29.951	1.3499e-06	9.4788e-07	48.393	15.377	7.2173	2.2876	6.7262e-07	6.7312	0.00019036	0.0003865	0.00010805	130.27	4.013e-06	4.9476e-06	177.56	29.726	3.7074e-06	5.7767e-06	47.759	15.382	7.3427	2.3222	3.9548e-06	6.7302	5.513	122.644	20.780	-20.982	131.527	110.453	-19.851	-14.595	91.107	92.447	-18.050	-12.967	-10.735	-6.781	207.509	-10.808	-8191	255	
2635.494	1	1	0	0	0.28195	0.18539	0.23363	0.09357	0.074392	0.20022	0.25996	0.14804	0.073787	0.10369	0.18878	0.13044	0.089104	0.25013	0.10854	0.20305	-2.6125	-3.1312	-3.5396	-2.9458	-3.4625	-3.4813	-2.9188	-3.5229	-3.15	-3.0771	-3.6896	-2.9688	-3.2938	-3.3708	-2.7562	-3.7188	-19.792	89.891	180.090	295.303	274.788	193.789	10.388	96.018	136.683	209.748	292.364	304.605	175.481	146.181	104.328	297.755	0.00011498	7.9999e-05	2.4543e-05	129.8	4.721e-07	1.1547e-06	179.62	29.423	3.3146e-07	1.0009e-06	48.131	15.206	7.1416	2.2766	1.5048e-06	6.5756	0.000193	0.00040297	0.00011176	130.48	4.2566e-06	4.7716e-06	177.27	29.456	3.619e-06	5.0776e-06	47.496	15.196	7.2436	2.3014	4.221e-06	6.6081	-14.727	1.694	156.365	-19.805	105.542	90.498	-19.752	-14.714	20.187	158.032	-17.141	-12.740	-10.166	-6.768	102.537	-9.559	-8191	255	
2635.590	1	1	0	0	0.053074	0.11757	0.088153	0.073016	0.1815	0.1596	0.11472	0.31209	0.32078	0.10676	0.014621	0.16818	0.21458	0.10428	0.14167	0.094557	-2.8438	-2.9271	-3.6604	-3.0167	-3.3104	-3.5479	-2.8375	-3.575	-3.2042	-2.8146	-3.7542	-2.9021	-3.0312	-3.4417	-2.8187	-3.5812	120.614	296.993	145.869	137.870	274.172	168.329	317.769	254.366	292.504	124.233	247.324	158.204	48.945	279.929	235.928	187.484	7.6614e-05	6.3835e-05	3.1669e-05	130.94	3.3502e-07	1.6894e-06	179.22	29.794	1.7918e-06	8.6161e-07	47.557	15.166	7.2112	2.2422	9.9016e-07	6.6024	0.00019544	0.00042411	0.00011054	129.94	4.4013e-06	4.6898e-06	176.84	29.492	3.3709e-06	5.3492e-06	47.408	15.154	7.2679	2.2641	4.4361e-06	6.6243	-14.015	60.342	78.075	-20.181	69.603	137.293	-20.818	-14.579	96.784	122.592	-17.054	-13.344	-10.414	-6.344	113.792	-9.327	-8191	255	
2635.686	1	1	0	0	0.21802	0.28479	0.17755	0.16091	0.20027	0.15421	0.10128	0.19072	0.36977	0.070808	0.029698	0.2427	0.044361	0.085476	0.30477	0.148	-2.8958	-2.9667	-3.6	-3.1271	-3.1521	-3.65	-2.8771	-3.5062	-3.3042	-3.0271	-3.65	-3.0354	-3.0542	-3.6146	-2.7792	-3.5146	234.415	187.115	227.542	-28.411	87.223	-5.272	175.918	294.860	53.845	249.385	173.037	-2.912	25.990	179.622	-2.763	270.253	5.553e-05	6.7501e-05	2.9482e-05	131.54	4.6911e-08	1.6426e-06	177.67	29.865	9.651e-07	1.0128e-06	48.015	15.359	7.27	2.2889	7.8137e-07	6.6629	0.00018566	0.00043971	0.00010827	130.01	4.0027e-06	4.1618e-06	176.99	29.803	3.1952e-06	6.0336e-06	47.678	15.311	7.3455	2.3124	4.2197e-06	6.6993	-5.624	100.289	128.728	-19.732	183.472	75.422	-19.629	-13.871	84.359	60.507	-16.859	-12.411	-10.731	-7.236	77.527	-9.891	-8191	255	
2635.782	1	1	0	0	0.066255	0.19416	0.077365	0.083884	0.14539	0.16891	0.056686	0.10455	0.13584	0.072041	0.14184	0.10847	0.2028	0.10326	0.11819	0.14094	-3.0062	-2.7292	-3.3521	-2.9833	-2.9396	-3.6562	-3.0187	-3.3104	-3.5042	-2.9333	-3.5438	-3.2458	-2.9646	-3.6729	-3.0229	-3.3667	253.026	275.140	217.635	100.296	282.714	142.135	165.170	217.818	79.043	82.160	106.351	86.027	299.063	166.914	100.508	209.126	0.00012314	7.3334e-05	2.7721e-05	133.26	1.6445e-06	1.4642e-07	179.73	29.638	3.3397e-07	7.8897e-07	48.302	15.374	7.2142	2.2858	1.4052e-06	6.7356	0.00018928	0.00041595	0.00010879	131.11	4.6139e-06	4.1814e-06	177.53	29.565	3.3123e-06	5.7822e-06	47.825	15.352	7.3251	2.3426	4.2815e-06	6.7545	18.456	46.659	84.496	-19.569	131.606	46.394	-20.444	-14.896	140.447	-4.195	-17.091	-13.131	-10.145	-6.818	120.204	-10.822	-8191	255	
2635.878	1	1	0	0	0.14165	0.094006	0.14268	0.061501	0.12704	0.22114	0.25177	0.17064	0.16915	0.0093618	0.16369	0.12127	0.11983	0.12714	0.18358	0.23007	-3.2104	-2.8958	-3.7021	-3.1688	-2.9021	-3.6646	-2.9979	-3.15	-3.3521	-2.7292	-3.3604	-3.3688	-2.8292	-3.6646	-2.975	-3.1292	123.676	7.258	96.584	304.457	202.299	280.589	321.532	41.945	274.416	-24.608	-0.606	-10.149	70.112	100.143	200.894	237.772	8.7453e-05	4.5785e-05	3.9465e-05	132.2	5.673e-07	5.525e-07	179.26	29.674	7.2273e-07	5.9143e-07	47.662	15.252	7.2075	2.2358	5.88e-07	6.6393	0.00018762	0.00043855	0.0001239	130.75	4.2758e-06	4.4996e-06	177.12	29.54	2.8196e-06	6.0887e-06	47.691	15.251	7.2671	2.2882	3.9683e-06	6.6284	30.489	263.691	55.893	-20.034	102.856	166.515	-20.894	-14.775	165.876	110.305	-17.359	-12.757	-10.692	-6.795	149.888	-9.949	-8191	255	
2635.997	1	1	0	0	0.11058	0.092225	0.17148	0.086214	0.12801	0.11791	0.02761	0.1828	0.16306	0.20256	0.18962	0.2025	0.16558	0.13424	0.15561	0.1031	-3.2875	-2.7521	-3.4292	-3.4167	-2.8646	-3.6375	-3.1396	-3	-3.7604	-3.0042	-3.3958	-3.4437	-2.7917	-3.6646	-3.0396	-3.0146	256.076	297.117	89.177	154.552	-20.757	-4.133	86.444	95.693	123.456	284.323	323.455	72.372	1.147	286.671	-28.828	248.520	5.2267e-05	5.611e-05	2.6891e-05	132.12	9.3831e-07	5.3536e-07	177.34	29.504	9.8128e-07	1.3661e-07	47.562	15.165	7.1952	2.2594	1.5365e-06	6.5918	0.00016806	0.00042237	0.00012818	129.27	4.4855e-06	4.4925e-06	175.34	29.473	2.9069e-06	5.4391e-06	47.013	15.092	7.2393	2.2861	3.6551e-06	6.6133	17.553	16.316	39.109	-19.529	172.615	118.851	-20.450	-14.828	-2.297	221.969	-17.469	-12.983	-10.683	-6.852	117.493	-9.677	-8191	255	
2636.093	1	1	0	0	0.29052	0.17354	0.032124	0.1276	0.095704	0.13837	0.24932	0.0417	0.076929	0.11667	0.18415	0.12992	0.21286	0.27921	0.20947	0.12419	-3.3438	-2.7938	-3.35	-3.6167	-2.7687	-3.6771	-3.1458	-2.9625	-3.6708	-3.0729	-3.1646	-3.4708	-2.8917	-3.4188	-3.2625	-2.8563	201.719	-5.379	286.047	313.509	145.429	244.067	75.761	215.756	7.281	32.139	205.010	175.368	212.683	287.112	21.222	79.833	8.5076e-05	9.0257e-05	2.7039e-05	131.17	1.2968e-06	1.148e-06	178.31	29.866	2.5783e-07	1.0588e-06	48.361	15.353	7.1297	2.2648	7.8346e-07	6.7261	0.00017461	0.00045371	0.0001243	130.87	4.6287e-06	4.7183e-06	176.82	29.542	3.1274e-06	5.7822e-06	47.545	15.182	7.2378	2.3041	3.651e-06	6.6753	-20.325	115.371	55.149	-19.874	86.789	94.217	-20.305	-14.631	147.538	183.094	-16.847	-12.205	-9.408	-6.846	68.299	-9.546	-8191	255	
2636.189	1	1	0	0	0.26026	0.14199	0.046504	0.2189	0.2443	0.20172	0.13641	0.10848	0.43691	0.22153	0.16357	0.1293	0.2494	0.25039	0.26195	0.052824	-3.3417	-3.0167	-3.1729	-3.5354	-2.9042	-3.3937	-3.3896	-2.9229	-3.4646	-3.0667	-3.1333	-3.4562	-2.8146	-3.4979	-3.4833	-3.0021	-10.838	-12.691	143.509	74.734	184.176	44.626	200.799	11.455	138.012	311.818	-21.784	-3.514	7.098	273.536	89.016	144.951	6.9284e-05	0.00011137	2.1349e-05	129.34	5.5265e-07	4.6862e-07	179.4	29.367	8.8023e-07	6.1245e-07	47.671	15.404	7.2262	2.3252	1.4362e-06	6.67	0.00019667	0.00039773	0.0001253	129.5	4.484e-06	4.7467e-06	177.03	29.402	3.1584e-06	5.6666e-06	47.52	15.374	7.3368	2.3391	3.5784e-06	6.7124	6.634	58.877	62.780	-19.988	148.363	146.315	-21.190	-14.178	158.641	148.149	-16.895	-12.556	-9.674	-6.310	77.358	-9.428	-8191	255	
2636.310	1	1	0	0	0.081466	0.0996	0.40447	0.17183	0.058902	0.059678	0.14076	0.15013	0.19899	0.2362	0.042403	0.15938	0.063076	0.028174	0.20011	0.17924	-3.2021	-3.1875	-3.0021	-3.7396	-2.8167	-3.3042	-3.4958	-2.5938	-3.5604	-3.0458	-2.9375	-3.6958	-3.0333	-3.1417	-3.4854	-2.7062	109.483	175.613	290.239	53.466	73.485	223.344	263.923	286.510	96.466	115.315	233.257	1.764	221.480	-14.355	217.764	-19.972	0.00011019	6.892e-05	1.9174e-05	130.46	6.9879e-07	1.2016e-06	180.77	29.744	9.7917e-07	6.1314e-07	47.799	15.301	7.1637	2.3223	5.3988e-07	6.6217	0.00017892	0.00042251	0.00012508	129.77	4.7468e-06	5.2747e-06	177.42	29.586	3.1022e-06	5.3602e-06	47.38	15.217	7.2985	2.335	3.4306e-06	6.6194	10.313	98.944	34.062	-20.479	86.948	44.830	-20.277	-14.643	45.739	109.106	-16.354	-12.557	-9.818	-6.294	55.122	-9.297	-8191	255	
2636.382	1	1	0	0	0.15527	0.22568	0.23796	0.047254	0.030019	0.19524	0.03589	0.21763	0.11794	0.14608	0.068234	0.22407	0.39554	0.035306	0.10721	0.04299	-3.2542	-3.3	-2.7313	-3.6479	-2.925	-3.1917	-3.5792	-2.8625	-3.4333	-3.2687	-2.925	-3.6542	-3.0083	-3.0833	-3.5938	-3.0667	90.664	324.751	220.751	184.347	211.140	183.409	158.630	233.796	310.967	1.195	253.755	100.023	-1.530	-7.303	113.247	15.930	5.1565e-05	0.00011412	2.4225e-05	130.67	1.4738e-06	1.0241e-06	177.24	28.874	2.8367e-06	1.5123e-06	46.869	15.106	7.18	2.2777	9.1604e-07	6.5283	0.00017838	0.00039904	0.00014085	129.77	4.3674e-06	5.0205e-06	176.33	29.066	3.4605e-06	4.6592e-06	47.011	15.212	7.2846	2.3129	3.979e-06	6.5872	-22.455	53.108	64.789	-19.715	56.453	145.274	-20.145	-14.715	170.171	131.564	-17.179	-12.201	-10.474	-5.410	133.601	-9.876	-8191	255	
2636.478	1	1	0	0	0.24169	0.22438	0.12348	0.072292	0.11231	0.080597	0.049055	0.2159	0.18368	0.095885	0.13531	0.089627	0.09741	0.024755	0.11569	0.12678	-3.1083	-3.2667	-2.8875	-3.5792	-3.1312	-3.1417	-3.5833	-2.7896	-3.2833	-3.4667	-2.7396	-3.5146	-3.2375	-3.0833	-3.7188	-2.8792	164.856	28.933	-23.933	125.632	220.993	25.259	238.974	-13.880	108.849	112.369	240.746	178.062	156.536	50.003	184.388	48.675	7.0602e-05	0.00012601	3.0306e-05	132.37	1.1439e-06	6.204e-07	178.47	29.652	1.4295e-06	3.7197e-07	47.54	15.185	7.1877	2.2665	2.4029e-07	6.6115	0.00019799	0.00041143	0.00012216	130.84	4.4929e-06	4.9031e-06	176.48	29.338	3.2687e-06	4.472e-06	47.221	15.224	7.2699	2.3185	3.8285e-06	6.6522	-7.254	41.714	104.227	-19.466	120.163	124.638	-20.493	-14.935	103.749	120.345	-17.329	-12.898	-9.444	-6.191	143.576	-10.961	-8191	255	
2636.574	1	1	0	0	0.11312	0.152	0.075594	0.027799	0.068985	0.18199	0.052844	0.31303	0.043265	0.030332	0.35414	0.15629	0.080249	0.081887	0.082955	0.07738	-2.9	-3.4708	-2.8	-3.7604	-3.3063	-3.0396	-3.8646	-2.7479	-3.2958	-3.55	-2.9333	-3.5958	-3.2375	-2.7812	-3.5771	-3.0583	113.933	183.902	-3.041	271.307	97.209	5.193	188.762	32.951	109.065	24.159	119.761	-30.399	-17.597	45.828	185.814	228.029	6.4763e-05	0.00010218	1.7674e-05	130.96	7.1567e-07	3.9465e-07	178.88	29.574	1.846e-06	1.6655e-06	47.786	15.461	7.332	2.3607	1.0439e-06	6.7059	0.00018684	0.00037615	0.00013111	130.89	4.3733e-06	5.0454e-06	177.09	29.305	3.6603e-06	5.1124e-06	47.368	15.328	7.3185	2.3551	3.3526e-06	6.7202	-24.331	65.503	321.269	-19.758	121.720	191.564	-20.754	-14.928	123.896	146.760	-16.750	-12.631	-11.088	-5.824	161.741	-10.016	-8191	255	
2636.693	1	1	0	0	0.060012	0.2249	0.093283	0.094494	0.25986	0.19718	0.21588	0.27725	0.10164	0.19395	0.10158	0.2227	0.09545	0.22362	0.17047	0.16108	-2.8021	-3.6542	-2.8187	-3.5646	-3.3042	-2.9354	-3.6229	-2.875	-3.1229	-3.5354	-2.8187	-3.4729	-3.3479	-2.7479	-3.4521	-2.925	154.450	279.206	-31.946	68.704	236.226	215.648	158.702	30.271	220.193	52.420	-4.979	-10.953	151.943	180.098	217.444	18.762	8.8406e-05	7.0357e-05	1.5358e-05	131.23	1.3691e-06	7.4423e-07	178.85	29.117	2.9054e-06	8.5248e-07	47.628	15.33	7.1452	2.3133	3.939e-07	6.6014	0.00019608	0.0003639	0.00012928	131.06	4.171e-06	5.2783e-06	176.74	29.105	3.5788e-06	4.6996e-06	47.395	15.305	7.2435	2.3368	3.4521e-06	6.644	-14.769	97.900	104.033	-19.801	78.488	172.252	-20.504	-14.892	39.678	145.532	-17.565	-12.973	-10.831	-6.810	156.062	-10.249	-8191	255	
2636.789	1	1	0	0	0.041428	0.12239	0.17184	0.17552	0.13446	0.043773	0.098821	0.16664	0.14134	0.33209	0.11886	0.10984	0.017781	0.069107	0.25735	0.13657	-2.6208	-3.4104	-2.8438	-3.5292	-3.4833	-2.9458	-3.5312	-3.1188	-3.075	-3.6396	-2.9604	-3.3917	-3.3333	-2.9042	-3.6	-3.25	124.669	26.505	215.409	147.968	299.644	152.886	314.600	53.783	7.771	231.537	226.137	124.659	191.327	-23.290	245.360	37.442	0.00010228	0.00011383	4.9635e-05	129.85	9.3819e-07	5.1719e-07	177.93	28.944	2.0892e-06	1.1236e-06	47.016	14.95	7.13	2.2982	7.0746e-07	6.5885	0.00019882	0.00037615	0.00013172	129.96	4.1296e-06	4.6596e-06	176.33	28.886	3.2733e-06	5.0299e-06	46.673	15.117	7.2592	2.3189	3.9038e-06	6.5951	14.931	-15.346	40.641	-19.507	72.717	99.944	-20.343	-14.109	103.226	106.610	-18.435	-12.642	-10.606	-6.106	120.554	-9.693	-8191	255	
2636.885	1	1	0	0	0.17377	0.20352	0.22552	0.20117	0.086591	0.036235	0.087237	0.12001	0.13499	0.13928	0.1855	0.12183	0.2414	0.1136	0.10189	0.059778	-2.5583	-3.6063	-2.9	-3.2271	-3.3771	-2.7792	-3.5583	-3.1375	-2.9854	-3.6271	-2.7521	-3.0917	-3.6979	-2.7708	-3.3438	-3.2646	67.186	81.487	2.006	231.361	118.800	22.174	171.194	259.791	255.432	134.579	30.266	215.921	131.026	8.672	84.727	88.659	8.3937e-05	0.00010537	1.1618e-05	131.79	2.0336e-07	1.2149e-06	179.18	29.049	1.5243e-06	5.8183e-07	47.003	15.378	7.1083	2.2947	1.2293e-06	6.6337	0.00018899	0.00036988	0.00013194	130.93	3.4697e-06	5.8187e-06	177.01	28.915	3.3319e-06	4.9601e-06	47.101	15.25	7.2274	2.3257	4.0705e-06	6.6412	20.137	47.023	127.380	-20.146	15.020	101.822	-19.935	-14.127	170.420	106.128	-16.640	-12.753	-11.045	-7.757	154.230	-9.488	-8191	255	
2636.959	1	1	0	0	0.14808	0.040397	0.14718	0.22107	0.050189	0.3337	0.28911	0.2172	0.13884	0.040887	0.1742	0.15889	0.088039	0.025225	0.26459	0.12044	-2.4604	-3.6104	-2.9271	-3.0687	-3.4729	-2.8312	-3.5771	-3.3292	-2.8479	-3.6792	-3.2667	-2.9688	-3.7792	-2.7792	-3.4083	-3.4646	170.872	161.904	89.436	294.853	292.702	238.961	117.604	63.250	22.655	172.323	22.717	324.186	38.515	82.532	238.963	153.669	8.0487e-05	0.00021205	1.7155e-05	131.65	1.0507e-06	1.2249e-06	179.82	29.333	1.3458e-06	2.0285e-07	47.592	15.518	7.2366	2.3328	7.0469e-07	6.6522	0.0001931	0.00038227	0.0001277	130.64	3.8713e-06	5.5911e-06	176.89	29.128	3.6558e-06	5.0409e-06	47.228	15.334	7.3565	2.3483	3.8298e-06	6.6805	21.405	35.667	22.735	-20.123	98.166	137.481	-20.664	-14.230	116.190	87.739	-17.545	-12.255	-10.682	-6.291	150.646	-9.154	-8191	255	
2637.078	1	1	0	0	0.17821	0.25689	0.31087	0.051163	0.12972	0.052824	0.21509	0.063552	0.11212	0.159	0.2082	0.19012	0.16871	0.13468	0.037007	0.081372	-2.5833	-3.5479	-3.1562	-3.0958	-3.8521	-2.8688	-3.3417	-3.5687	-2.8229	-3.6833	-3.3229	-2.7667	-3.5792	-2.9396	-3.1292	-3.6104	33.323	85.364	117.382	33.456	218.942	204.512	294.183	122.375	244.748	293.314	27.322	205.106	181.611	153.049	119.578	308.420	8.8648e-05	9.1837e-05	2.4386e-05	131.77	1.1383e-06	1.0853e-06	179.43	29.359	8.6999e-07	1.1609e-06	47.677	15.336	7.0841	2.269	1.5279e-06	6.6243	0.0002217	0.00036696	0.00012513	130.76	3.6705e-06	4.7147e-06	178.29	29.125	3.6948e-06	5.4684e-06	47.449	15.402	7.245	2.3143	3.9589e-06	6.6898	-11.854	141.393	92.356	-19.482	149.513	70.938	-19.859	-13.713	115.875	114.303	-16.642	-12.680	-10.081	-5.970	137.182	-9.361	-8191	255	
2637.174	1	1	0	0	0.10749	0.093707	0.1867	0.14171	0.29974	0.054441	0.12912	0.24483	0.073024	0.10966	0.26878	0.1369	0.028708	0.16103	0.16688	0.087847	-2.3667	-3.5917	-3.2562	-2.8021	-3.8146	-3.0146	-3.2667	-3.6375	-2.9521	-3.5812	-3.2167	-3.0146	-3.7625	-2.8812	-3.1979	-3.6229	186.756	36.185	45.488	95.599	95.658	257.576	202.111	-4.875	43.365	140.455	248.656	313.072	291.628	134.097	316.610	48.820	9.4327e-05	3.5444e-05	1.1846e-05	131.86	1.1576e-06	1.5133e-06	178.57	28.974	1.501e-06	1.1238e-06	46.421	15.104	7.2126	2.2613	4.1453e-07	6.5119	0.00021178	0.00041318	0.00012002	131.04	4.3496e-06	5.5058e-06	176.29	28.879	3.4766e-06	5.006e-06	46.694	15.159	7.267	2.3111	3.8486e-06	6.5228	18.724	292.938	8.994	-19.899	136.229	99.874	-19.534	-14.644	162.461	105.076	-16.641	-12.527	-9.760	-6.617	-29.422	-9.991	-8191	255	
2637.270	1	1	0	0	0.10001	0.2688	0.24629	0.096545	0.091626	0.1814	0.16975	0.26134	0.022495	0.10388	0.2804	0.2969	0.17785	0.17486	0.13106	0.11483	-2.5729	-3.4125	-3.3667	-2.9375	-3.7104	-3.2521	-3.1417	-3.7062	-2.9146	-3.4292	-3.5187	-2.8625	-3.5	-3.3354	-2.875	-3.6104	-18.720	61.273	246.710	254.170	238.025	176.692	225.741	65.564	300.865	-27.738	309.986	-22.826	324.164	11.215	155.766	116.780	3.72e-05	3.2359e-05	4.8807e-06	131.99	6.6817e-07	1.3591e-06	178.21	29.043	2.6146e-06	7.0934e-07	47.306	15.26	6.9574	2.2904	7.8943e-07	6.5144	0.00019608	0.00041857	0.00012181	130.5	3.669e-06	5.3796e-06	176.78	29.01	3.8142e-06	4.9785e-06	46.881	15.152	7.2312	2.3182	4.2519e-06	6.5674	-13.969	206.159	146.945	-19.364	23.541	92.782	-19.879	-14.290	122.120	199.194	-17.441	-11.983	-11.389	-5.667	117.113	-9.327	-8191	255	
2637.390	1	1	0	0	0.12658	0.14691	0.080033	0.16691	0.15328	0.23083	0.11591	0.13669	0.14115	0.040071	0.17594	0.016662	0.084939	0.26669	0.12357	0.12616	-2.5812	-3.4458	-3.2979	-2.9458	-3.6896	-3.3292	-2.9604	-3.7167	-2.6854	-3.3979	-3.5833	-2.8125	-3.5521	-3.3438	-3.025	-3.6562	118.129	47.111	134.660	145.508	289.776	316.604	-25.301	270.867	155.169	108.114	59.502	-14.834	207.829	104.681	35.077	193.122	7.4223e-05	2.7614e-05	2.1938e-05	130.09	7.6529e-07	3.2666e-07	180.13	28.814	2.0956e-06	1.7643e-06	47.672	15.224	7.1385	2.3156	1.7165e-07	6.6495	0.0001931	0.00039146	0.00011858	130.62	4.2906e-06	4.8943e-06	178.04	29.003	3.6615e-06	5.2024e-06	47.186	15.294	7.3179	2.3199	3.9441e-06	6.6796	-16.016	75.547	91.045	-19.376	128.409	26.180	-20.020	-14.474	147.674	82.728	-17.342	-12.079	-9.852	-6.279	50.460	-9.729	-8191	255	
2637.487	1	1	0	0	0.067811	0.17287	0.16585	0.089687	0.15199	0.20123	0.058729	0.15316	0.086675	0.098204	0.074836	0.079814	0.21325	0.31475	0.2246	0.037358	-2.3792	-3.1729	-3.7021	-2.8729	-3.4521	-3.4417	-3.0396	-3.7188	-3.125	-3.275	-3.7708	-2.9979	-3.3833	-3.5187	-3.0146	-3.6729	286.271	127.010	95.455	80.555	234.156	146.953	281.232	19.997	279.176	182.106	-10.632	1.202	-30.652	54.494	62.804	-24.236	9.4083e-05	0.00014131	2.2962e-05	132.11	1.4726e-06	1.041e-06	177.04	29.43	1.4915e-06	1.2629e-06	47.52	15.556	7.2192	2.3265	5.5125e-07	6.7518	0.0001951	0.00041785	0.00010757	131.18	4.1385e-06	4.8605e-06	177.45	29.264	3.611e-06	5.384e-06	47.602	15.418	7.3545	2.3496	4.342e-06	6.7442	-4.106	87.023	115.588	-19.809	79.066	115.937	-20.191	-13.890	38.118	175.542	-16.803	-12.631	-10.395	-6.379	80.782	-9.258	-8191	255	
2637.583	1	1	0	0	0.014832	0.078417	0.12122	0.082216	0.21761	0.16769	0.34592	0.20681	0.13402	0.11945	0.070367	0.2415	0.081356	0.063194	0.1208	0.084661	-2.7542	-3.0042	-3.4458	-3.0042	-3.4625	-3.3688	-2.8688	-3.6	-3.1125	-2.9792	-3.6271	-2.8958	-3.3708	-3.5187	-2.8125	-3.6458	138.506	-29.982	244.848	283.066	46.333	173.970	181.362	-10.801	161.528	318.010	322.074	37.058	104.554	72.194	294.387	149.930	0.00013104	9.7876e-05	3.9217e-05	133.26	1.6469e-06	5.6023e-07	177.82	29.323	6.4251e-07	1.4165e-06	47.424	15.226	7.0381	2.2849	2.695e-07	6.5967	0.00020469	0.00041172	0.00011823	131.16	4.2286e-06	4.8516e-06	176.95	29.164	3.1022e-06	5.1803e-06	47.196	15.256	7.2228	2.3022	4.2479e-06	6.6052	8.826	57.796	72.734	-20.104	110.489	214.640	-19.928	-14.430	74.057	116.330	-16.616	-12.921	-10.381	-6.734	87.393	-9.575	-8191	255	
2637.679	1	1	0	0	0.1308	0.15127	0.21	0.16931	0.064106	0.16548	0.066655	0.17661	0.21526	0.14292	0.16626	0.055382	0.23869	0.15625	0.10996	0.12406	-2.7604	-3.0208	-3.6958	-2.9729	-3.1896	-3.6146	-2.9583	-3.6437	-3.2875	-2.9458	-3.7208	-3.0229	-3.2229	-3.6729	-3.0396	-3.4542	77.537	270.631	179.116	125.078	234.792	82.449	305.407	155.302	73.236	140.813	281.775	89.481	142.667	-12.379	322.547	266.961	0.00011621	4.037e-05	2.0558e-05	131.55	1.2679e-06	1.534e-06	180.54	29.095	1.0674e-06	6.3214e-07	47.118	15.271	7.1396	2.3587	8.5204e-07	6.5946	0.00019026	0.0003916	0.0001129	130.41	4.7867e-06	4.8783e-06	177.04	29.073	3.6443e-06	5.5932e-06	46.97	15.189	7.2755	2.3268	3.932e-06	6.6462	-26.168	74.506	152.433	-19.786	181.682	103.655	-20.278	-14.113	269.095	189.217	-16.877	-12.298	-9.264	-6.072	161.141	-9.190	-8191	255	
2637.775	1	1	0	0	0.21348	0.1005	0.075972	0.18758	0.11161	0.42853	0.033372	0.076419	0.094244	0.087553	0.10079	0.26052	0.14112	0.13104	0.1939	0.24939	-3.1833	-3.0062	-3.7917	-3.0229	-3.1542	-3.775	-2.9417	-3.3667	-3.3646	-2.7958	-3.7021	-3.0646	-3.2333	-3.6167	-2.7375	-3.3646	89.397	249.892	16.551	46.006	303.114	9.188	114.156	102.213	286.050	297.108	38.570	256.877	88.109	193.546	124.958	145.111	0.00011729	7.2607e-05	2.5889e-05	131.7	7.7178e-07	7.4987e-07	178.61	29.3	2.8476e-06	3.4559e-07	47.815	15.474	7.1074	2.3399	1.6074e-06	6.6157	0.00018835	0.00038942	0.00011386	131.35	4.5814e-06	4.6507e-06	176.78	29.168	3.2721e-06	5.7749e-06	47.384	15.377	7.3049	2.3474	4.6283e-06	6.6975	-9.588	92.842	51.255	-18.687	112.789	196.140	-19.907	-15.099	138.119	59.052	-17.362	-13.229	-10.045	-6.532	40.289	-9.072	-8191	255	
2637.869	1	1	0	0	0.11912	0.1234	0.19087	0.11821	0.25396	0.14341	0.04489	0.15911	0.23186	0.076059	0.053964	0.083645	0.1102	0.039177	0.066207	0.033176	-3.1792	-2.7313	-3.6417	-3.1792	-2.9313	-3.6	-2.7104	-3.3812	-3.5708	-2.8	-3.8542	-3.1625	-2.9667	-3.5646	-2.9333	-3.3479	244.657	176.964	313.062	289.379	69.596	153.711	167.328	243.622	-21.115	264.364	199.844	303.280	110.132	197.415	305.536	318.541	0.00010886	8.2367e-05	2.5364e-05	133.54	1.1881e-06	8.3388e-07	180.2	29.489	1.842e-06	1.0025e-06	47.876	15.402	7.2607	2.3009	1.0124e-06	6.7129	0.00018488	0.00043709	0.0001191	130.71	4.3792e-06	4.8427e-06	178.78	29.328	3.3319e-06	5.6079e-06	47.385	15.399	7.3666	2.3377	4.4697e-06	6.7614	1.451	301.542	255.947	-19.727	193.702	86.140	-20.340	-14.555	74.400	148.100	-17.514	-12.822	-9.519	-5.176	93.632	-9.209	-8191	255	
2637.990	1	1	0	0	0.084668	0.12522	0.1059	0.1903	0.11119	0.074405	0.44453	0.10637	0.16504	0.11151	0.14749	0.24542	0.061517	0.20402	0.053534	0.17319	-3.1979	-2.9729	-3.4813	-3.1208	-2.9125	-3.8229	-3.2583	-3.1792	-3.6312	-2.9333	-3.5521	-3.3	-2.8438	-3.6021	-3.0958	-3.0208	84.933	227.229	322.221	281.510	72.189	26.417	-28.630	112.909	122.829	78.151	55.427	57.361	204.976	295.021	19.387	80.718	7.1265e-05	2.4415e-05	2.7019e-05	131.06	1.1519e-06	1.1341e-06	180.46	29.158	1.6572e-06	1.9475e-06	48.056	15.551	7.3663	2.302	1.6392e-06	6.6667	0.00018205	0.0004298	0.00011486	130.93	4.7527e-06	4.5511e-06	177.78	29.116	3.2274e-06	5.6409e-06	47.426	15.432	7.3324	2.3241	4.1054e-06	6.6958	-2.375	327.405	79.735	-20.023	138.085	26.774	-19.889	-14.231	140.347	141.731	-17.147	-12.811	-9.382	-7.049	122.866	-9.043	-8191	255	
2638.086	1	1	0	0	0.23621	0.10227	0.1434	0.1728	0.22892	0.26251	0.16218	0.11881	0.1131	0.14163	0.077163	0.19871	0.059709	0.18093	0.17872	0.10538	-3.3917	-2.8375	-3.4208	-3.3896	-2.8167	-3.7792	-3.0854	-2.9875	-3.7646	-2.8458	-3.3333	-3.4792	-2.8667	-3.5583	-3.1125	-3.0521	226.231	213.780	17.677	54.570	257.816	67.147	115.280	327.400	244.425	-7.210	186.041	247.578	24.645	49.055	282.390	0.900	9.6211e-05	0.00010795	1.824e-05	131.28	7.6086e-07	6.5489e-07	180.27	29.299	2.1712e-06	1.1267e-06	47.289	15.177	7.1701	2.2824	1.3297e-06	6.5997	0.00018522	0.00042893	0.0001174	130.58	4.6508e-06	4.3911e-06	177.66	28.998	3.0459e-06	5.5712e-06	47.087	15.266	7.338	2.3208	3.9481e-06	6.6568	10.565	36.492	29.110	-20.410	182.231	105.681	-20.435	-14.610	139.637	66.688	-16.704	-12.364	-11.460	-6.528	112.629	-9.823	-8191	255	
2638.182	1	1	0	0	0.081405	0.25029	0.15912	0.036376	0.13209	0.18017	0.04059	0.019685	0.047992	0.14621	0.15291	0.057399	0.10269	0.20169	0.23394	0.11535	-3.3167	-2.8771	-3.1771	-3.3937	-2.8458	-3.5792	-3.2042	-3.0729	-3.6646	-3.0479	-3.1667	-3.6708	-2.8917	-3.4021	-3.3083	-3.0292	272.114	-27.460	106.645	24.486	238.148	132.491	218.005	319.144	251.295	133.898	9.771	236.042	-8.652	164.839	-10.598	217.587	7.8655e-05	6.7105e-05	4.7891e-05	132.75	7.2311e-07	6.5888e-07	180.51	29.363	1.1926e-07	7.9953e-07	47.439	15.497	7.2389	2.3171	1.2879e-06	6.621	0.00018879	0.00042907	0.00012766	131.07	4.6125e-06	4.8071e-06	177.76	29.104	3.2917e-06	5.1675e-06	47.468	15.364	7.3525	2.3424	3.5919e-06	6.674	0.532	94.406	46.333	-19.638	94.058	53.179	-20.512	-15.053	302.456	119.443	-17.142	-12.766	-11.689	-6.478	131.502	-9.710	-8191	255	
2638.254	1	1	0	0	0.25166	0.070255	0.11288	0.12418	0.16146	0.25463	0.08616	0.13823	0.074608	0.19125	0.18067	0.16904	0.20161	0.16765	0.029819	0.14189	-3.2375	-2.9896	-3.0333	-3.5583	-2.8937	-3.3604	-3.275	-2.8083	-3.5208	-2.9708	-3.1083	-3.5979	-2.8583	-3.4583	-3.3708	-2.8667	254.308	264.167	4.047	140.137	144.605	203.908	13.869	142.431	44.279	225.741	289.330	-16.552	-27.888	226.336	80.950	45.737	7.7542e-05	4.3799e-05	1.6992e-05	133.96	7.8205e-07	2.5819e-07	180.04	28.992	1.0768e-06	1.136e-06	48.062	15.477	7.3567	2.3742	1.3957e-06	6.819	0.00018606	0.00042441	0.00010447	132.11	4.4368e-06	5.2e-06	178.32	29.181	3.2239e-06	5.6648e-06	47.49	15.455	7.4336	2.3613	3.7398e-06	6.7966	12.602	-24.240	272.568	-19.389	68.754	189.251	-19.941	-14.720	72.890	97.689	-17.404	-12.472	-10.043	-6.726	116.771	-9.719	-8191	255	
2638.375	1	1	0	0	0.17715	0.22282	0.185	0.03261	0.29433	0.025327	0.063973	0.16964	0.25701	0.090842	0.1172	0.077467	0.10485	0.37821	0.10148	0.039371	-3.2938	-3.0062	-2.85	-3.4854	-2.8646	-3.2938	-3.3563	-2.7938	-3.5271	-3.2521	-2.9167	-3.55	-2.9917	-3.1437	-3.6312	-2.7271	150.410	58.141	78.260	200.143	112.276	222.771	48.463	202.851	94.246	99.144	196.396	286.471	166.791	37.049	160.803	99.891	6.8578e-05	2.2243e-05	1.8402e-05	132.54	1.2402e-06	6.6521e-07	181.35	29.395	3.7564e-06	1.3714e-06	47.652	15.612	7.1737	2.3678	1.1504e-06	6.7478	0.00018195	0.00038723	0.00013487	131.28	4.8413e-06	4.9049e-06	178.77	29.224	3.2859e-06	5.2281e-06	47.321	15.409	7.2959	2.354	3.7586e-06	6.7151	6.130	24.525	35.725	-19.812	151.005	165.608	-20.497	-15.331	89.071	189.405	-17.216	-13.304	-10.285	-7.498	139.343	-10.078	-8191	255	
2638.471	1	1	0	0	0.060734	0.10306	0.058058	0.15598	0.24398	0.29578	0.023584	0.14736	0.21778	0.2737	0.0821	0.12582	0.12889	0.16812	0.26435	0.12898	-3.2479	-3.2417	-2.8208	-3.625	-2.9104	-3.2687	-3.4958	-2.9333	-3.6125	-3.2396	-2.9229	-3.5292	-2.9938	-3.1667	-3.6813	-2.7583	72.910	69.302	217.337	-31.509	250.383	280.409	320.138	-11.239	204.451	64.977	-21.248	240.108	139.991	50.963	213.704	280.290	8.7897e-05	0.00015778	2.1934e-05	132.31	1.3019e-06	1.1291e-06	178.93	29.21	3.1652e-06	5.0646e-07	47.94	15.431	7.1483	2.2902	1.4865e-06	6.6497	0.00019725	0.0004314	0.00013932	131.74	4.487e-06	4.8783e-06	177.61	29.047	3.4777e-06	5.3033e-06	47.533	15.31	7.301	2.3175	3.6887e-06	6.665	-0.692	67.024	32.507	-20.703	81.398	39.867	-20.478	-14.885	160.656	180.053	-16.995	-12.471	-10.977	-6.654	197.217	-9.766	-8191	255	
2638.567	1	1	0	0	0.28328	0.18245	0.28788	0.15827	0.15614	0.09695	0.22832	0.13438	0.095944	0.42159	0.27193	0.11493	0.11998	0.012088	0.13782	0.079714	-3.1229	-3.2375	-2.7042	-3.5771	-3.0042	-3.0396	-3.625	-2.775	-3.5875	-3.5854	-2.8396	-3.5563	-3.3417	-2.9813	-3.6437	-2.9375	261.379	70.730	21.014	286.188	143.644	230.505	-18.735	211.411	312.514	184.739	24.542	207.202	318.320	-26.698	105.080	325.275	0.00011134	7.2831e-05	1.7844e-05	133.17	3.7631e-07	1.059e-06	181.26	29.107	2.5784e-06	8.4388e-07	47.324	15.357	7.3914	2.2952	1.1913e-06	6.6255	0.00019901	0.00039627	0.00013439	131.18	4.549e-06	4.9956e-06	179.63	29.123	3.6764e-06	5.3914e-06	47.468	15.373	7.3367	2.3287	3.6658e-06	6.7078	2.933	-27.951	38.996	-20.266	200.844	103.962	-20.158	-15.090	200.364	166.246	-17.361	-12.835	-10.166	-6.857	136.152	-9.400	-8191	255	
2638.663	1	1	0	0	0.087759	0.10411	0.19741	0.36273	0.07596	0.18428	0.11243	0.27264	0.16948	0.26028	0.16138	0.1262	0.098587	0.042497	0.093755	0.20099	-2.9875	-3.4875	-2.7729	-3.7146	-3.2604	-3.0938	-3.7167	-2.9396	-3.0812	-3.7208	-2.9646	-3.5458	-3.2229	-2.9417	-3.7292	-3.0354	176.838	272.992	167.514	160.286	323.010	193.007	5.924	11.448	243.248	45.347	-3.193	246.059	144.804	74.638	39.091	143.945	8.1169e-05	5.8841e-05	3.3827e-05	129.63	8.5211e-07	1.0253e-06	181.01	29.474	1.7572e-06	3.1765e-07	48.304	15.571	7.199	2.3131	1.6703e-06	6.7677	0.00018102	0.00037775	0.00012749	130.82	3.793e-06	5.2e-06	178.91	29.346	3.5489e-06	5.1051e-06	47.89	15.489	7.3322	2.3486	3.487e-06	6.7907	-4.723	126.505	49.152	-20.857	90.283	118.149	-20.297	-15.013	136.429	74.196	-16.649	-12.182	-9.200	-5.686	91.182	-9.305	-8191	255	
2638.759	1	1	0	0	0.16221	0.024266	0.061984	0.13599	0.16772	0.10251	0.11675	0.16252	0.24716	0.12915	0.12587	0.033944	0.21815	0.12091	0.14054	0.088901	-2.8937	-3.4542	-2.8042	-3.4313	-3.3625	-2.8271	-3.6875	-3.0458	-3.2167	-3.7458	-2.8458	-3.4167	-3.3958	-2.9313	-3.5896	-3.1625	280.615	301.096	109.764	68.004	209.972	260.576	208.927	255.487	242.640	80.615	22.797	256.966	105.235	86.180	74.121	136.637	0.00012383	9.0805e-05	1.4025e-05	132.22	1.0658e-06	1.0374e-06	182.48	29.708	5.5451e-07	8.5558e-07	48.187	15.605	7.3948	2.305	6.0192e-07	6.7238	0.0002064	0.00041129	0.00012159	131.62	4.2109e-06	5.664e-06	180.24	29.453	3.6179e-06	5.129e-06	47.864	15.506	7.4153	2.3367	3.7478e-06	6.7759	-27.353	36.609	143.440	-19.919	74.175	115.059	-20.042	-14.727	32.833	127.124	-17.103	-12.457	-10.405	-6.507	164.813	-9.424	-8191	255	
2638.855	1	1	0	0	0.14785	0.14456	0.14076	0.11961	0.046139	0.076206	0.24579	0.16689	0.11599	0.2724	0.063192	0.21134	0.080209	0.11477	0.055265	0.118	-2.6396	-3.6646	-2.7562	-3.3896	-3.6708	-2.8708	-3.5729	-3.1583	-2.9333	-3.6729	-3.0479	-3.3458	-3.4688	-2.8333	-3.6729	-3.2042	144.931	129.669	84.210	39.260	77.457	199.281	251.853	291.160	129.974	12.497	83.029	303.129	42.351	270.059	264.010	84.323	8.7015e-05	4.885e-05	1.7462e-05	130.81	1.4242e-06	4.7671e-07	182.17	29.67	2.1944e-06	2.2392e-06	47.699	15.233	7.2125	2.2875	8.3783e-07	6.6494	0.00020503	0.00038942	0.0001322	130.91	3.886e-06	5.248e-06	179.97	29.47	3.7982e-06	5.2207e-06	47.821	15.327	7.3	2.3158	3.4373e-06	6.6672	12.481	131.955	114.774	-19.462	133.220	46.540	-20.672	-14.984	126.853	101.517	-17.383	-12.099	-9.946	-6.924	120.906	-9.849	-8191	255	
2638.952	1	1	0	0	0.20845	0.074672	0.028274	0.077578	0.034718	0.069197	0.1646	0.33883	0.20938	0.24354	0.35114	0.26365	0.10293	0.13764	0.050703	0.055547	-2.6667	-3.5542	-3.0458	-3.175	-3.6708	-2.7229	-3.5479	-3.1896	-2.7646	-3.6229	-2.9083	-3.1188	-3.5958	-2.825	-3.5333	-3.3	206.631	-27.732	299.086	316.220	13.908	151.466	192.317	286.169	246.413	231.308	322.816	248.980	284.314	11.056	113.282	148.999	8.727e-05	7.4475e-05	2.8223e-05	132.73	1.0443e-06	1.2864e-06	184.05	29.619	1.0664e-06	4.6561e-07	49.086	15.393	7.4097	2.3071	8.2441e-07	6.6356	0.00019481	0.00037265	0.00013207	131.2	4.3098e-06	5.0863e-06	180.79	29.46	3.565e-06	4.9124e-06	48.147	15.414	7.3356	2.3319	3.5892e-06	6.6944	-3.025	102.899	33.686	-20.470	72.437	163.548	-20.946	-14.474	124.062	148.047	-17.628	-12.970	-10.488	-6.389	209.029	-9.552	-8191	255	
2639.070	1	1	0	0	0.094521	0.14358	0.22417	0.033312	0.024985	0.092708	0.17586	0.072993	0.13638	0.29672	0.11267	0.082053	0.20864	0.381	0.26831	0.1024	-2.3229	-3.5812	-2.9958	-2.8542	-3.675	-2.9229	-3.2438	-3.4521	-2.8521	-3.6979	-3.1083	-3.0729	-3.4875	-2.8937	-3.4021	-3.4938	318.709	255.163	39.031	96.010	9.307	257.066	297.266	46.377	93.975	325.958	215.953	56.999	292.714	76.251	151.477	120.103	6.9983e-05	3.2439e-05	1.769e-05	134.82	1.7088e-06	3.8067e-07	180.52	29.871	1.4194e-06	6.6761e-07	48.771	15.531	7.4752	2.2771	1.7739e-06	6.7815	0.00020053	0.00038869	0.00012229	132.82	3.9185e-06	5.5449e-06	179.89	29.631	3.6741e-06	4.8188e-06	48.166	15.561	7.3808	2.3021	3.8634e-06	6.8325	6.541	1.520	59.086	-20.491	87.997	113.618	-20.649	-14.742	100.515	142.145	-17.063	-11.803	-10.642	-6.491	104.481	-10.219	-8191	255	
2639.167	1	1	0	0	0.10665	0.11253	0.072389	0.17808	0.066999	0.12414	0.089838	0.27861	0.2628	0.26753	0.18911	0.10569	0.18943	0.18484	0.10848	0.12138	-2.3875	-3.5062	-3.1083	-2.9521	-3.4292	-2.8771	-3.2896	-3.5375	-2.9167	-3.4583	-3.1854	-2.8	-3.525	-2.9271	-3.2667	-3.6937	1.916	290.802	100.651	208.524	178.349	220.949	271.812	272.284	26.300	7.211	26.156	187.276	212.727	-15.907	18.333	6.696	4.6127e-05	0.00013262	2.6874e-05	134.02	8.1595e-07	3.8046e-07	181.07	29.978	2.0417e-06	1.3754e-06	48.324	15.692	7.3632	2.3303	1.2586e-06	6.7712	0.00021358	0.00041712	0.00012923	132.62	3.9436e-06	5.2623e-06	180.44	29.799	3.8958e-06	4.8592e-06	48.412	15.626	7.3962	2.3244	3.8204e-06	6.823	-10.213	1.000	-15.669	-20.169	68.056	59.699	-19.912	-14.834	233.283	143.015	-17.027	-11.895	-11.343	-6.927	74.610	-9.909	-8191	255	
2639.263	1	1	0	0	0.046681	0.14547	0.0851	0.15887	0.033668	0.10703	0.16085	0.026666	0.10907	0.11143	0.10288	0.041369	0.25411	0.13322	0.12623	0.035164	-2.4458	-3.4813	-3.2833	-2.8771	-3.5854	-2.95	-3.1875	-3.5729	-3.1188	-3.5312	-3.3688	-2.7438	-3.5604	-3.0438	-2.9875	-3.525	322.859	185.712	111.924	95.279	218.365	214.079	290.040	34.273	125.695	159.220	325.957	268.109	40.898	119.239	56.331	6.661	0.00011707	5.116e-05	1.5525e-05	133.12	1.2132e-06	6.1025e-07	183.02	30.036	1.8925e-06	2.1852e-06	48.642	15.37	7.2177	2.281	9.1453e-07	6.6639	0.0002152	0.00037717	0.00011377	131.73	3.8211e-06	5.1467e-06	180.13	29.643	3.8384e-06	5.2611e-06	48.091	15.405	7.3322	2.3149	3.9226e-06	6.6916	5.954	86.607	-15.252	-19.944	64.085	57.661	-20.115	-15.851	91.791	63.655	-18.140	-12.718	-9.215	-7.103	92.768	-9.829	-8191	255	
2639.359	1	1	0	0	0.088541	0.029992	0.12772	0.10923	0.15766	0.29105	0.09258	0.12389	0.11636	0.071726	0.16481	0.12798	0.13126	0.0086829	0.13279	0.19483	-2.2812	-3.3438	-3.4104	-2.8812	-3.6479	-3.0375	-3.075	-3.6958	-2.8688	-3.3792	-3.5875	-2.9042	-3.6229	-3.3208	-2.875	-3.6271	154.480	60.237	318.257	240.046	231.089	8.581	294.171	256.952	250.177	41.664	73.330	287.309	298.020	212.980	215.838	174.762	8.0238e-05	8.0766e-05	4.9986e-06	133.43	7.462e-07	1.7103e-06	182.17	29.799	1.6398e-06	5.1008e-07	48.315	15.484	7.2647	2.2699	9.4259e-07	6.6348	0.00019823	0.00039321	0.0001153	132	4.1754e-06	5.4223e-06	179.56	29.566	3.4996e-06	5.028e-06	47.966	15.384	7.3029	2.3094	4.2519e-06	6.685	15.549	55.319	5.976	-19.536	101.896	89.939	-20.608	-14.889	68.164	99.959	-17.183	-12.421	-10.463	-6.315	224.648	-10.020	-8191	255	
2639.480	1	1	0	0	0.26449	0.12801	0.14271	0.18404	0.052999	0.1977	0.077801	0.19629	0.28633	0.096384	0.075676	0.10235	0.14775	0.17515	0.049685	0.15406	-2.5646	-3.1979	-3.4979	-2.7	-3.5208	-3.3333	-2.9437	-3.6854	-2.8958	-3.2333	-3.4021	-2.8521	-3.3771	-3.3688	-2.8708	-3.4688	124.454	170.702	215.989	43.619	78.445	49.386	-27.163	166.977	188.773	41.756	289.080	295.845	81.717	189.850	22.590	168.397	8.8381e-05	0.00011727	1.4623e-05	132.67	3.716e-07	3.5616e-07	182.73	29.86	1.8347e-06	1.4168e-06	47.978	15.71	7.1502	2.3116	1.9721e-06	6.7494	0.00019227	0.00036113	0.0001129	132.44	4.044e-06	4.8516e-06	180.11	29.523	3.3227e-06	5.3143e-06	48.079	15.542	7.2625	2.3145	4.1538e-06	6.7911	15.358	109.961	133.245	-20.332	48.519	35.190	-20.225	-14.403	33.360	101.734	-17.218	-12.506	-9.888	-6.254	141.546	-9.178	-8191	255	
2639.551	1	1	0	0	0.031282	0.061111	0.01055	0.30404	0.11181	0.13586	0.099686	0.11301	0.13514	0.17733	0.18442	0.057413	0.2512	0.21778	0.172	0.23408	-2.5958	-2.9708	-3.4604	-3.0125	-3.3792	-3.4208	-2.8646	-3.6188	-2.9896	-3.3833	-3.8312	-2.9958	-3.5042	-3.5917	-2.9854	-3.8417	55.340	214.318	284.064	314.630	42.349	121.161	44.734	321.935	297.620	27.097	145.214	-3.221	124.527	317.780	46.896	77.303	6.2674e-05	0.00013333	1.239e-05	132.63	7.3988e-07	6.4426e-07	181.76	29.952	2.1918e-06	6.1949e-07	48.631	15.826	7.2135	2.3122	1.2618e-06	6.7897	0.000204	0.00041989	0.00012456	132.16	3.6719e-06	4.976e-06	180.75	29.701	3.4605e-06	5.1308e-06	48.519	15.7	7.3678	2.3387	4.1014e-06	6.8198	27.697	58.316	143.040	-19.850	109.927	48.773	-20.081	-14.200	159.806	127.291	-16.426	-12.425	-9.686	-6.324	197.008	-9.149	-8191	255	
2639.672	1	1	0	0	0.14604	0.13348	0.18419	0.15866	0.13727	0.35693	0.13349	0.18856	0.073718	0.076812	0.28698	0.10891	0.056379	0.11996	0.15339	0.23174	-3.1437	-3.2125	-3.9771	-3.0646	-3.4854	-3.9104	-3.025	-3.8438	-3.5625	-3.2146	-3.8104	-3.2417	-3.4354	-3.7708	-3.2271	-3.7146	33.544	-27.404	104.016	140.221	153.191	148.092	267.323	29.701	198.522	176.831	102.338	302.571	247.579	257.927	150.940	249.201	9.9237e-05	7.7003e-05	3.9231e-06	132.99	1.3496e-06	1.7213e-06	183.73	29.92	2.137e-06	1.5249e-06	48.845	15.573	7.4276	2.261	1.0391e-06	6.7486	0.00020131	0.00039802	0.00010984	132.12	4.1178e-06	4.5902e-06	181.19	29.736	3.2388e-06	5.1693e-06	48.507	15.557	7.3281	2.3041	3.9535e-06	6.7817	27.379	174.138	20.841	-19.874	152.131	74.216	-20.019	-14.055	159.035	87.591	-16.450	-12.542	-10.064	-6.706	186.723	-9.516	-8191	255	
2639.766	1	1	0	0	0.11232	0.039776	0.068475	0.099013	0.19111	0.14194	0.1758	0.18566	0.32046	0.30489	0.18993	0.075826	0.15671	0.093468	0.16729	0.088236	-3.1958	-2.8438	-3.8479	-3.1708	-3.3312	-3.825	-3.1292	-3.725	-3.6875	-3.0542	-3.9854	-3.1104	-3.2958	-3.8625	-2.9333	-3.6437	82.822	73.459	131.374	143.989	145.394	116.691	77.331	-21.520	74.080	302.785	-16.274	303.714	306.638	35.336	-31.843	15.415	0.00010776	8.4212e-05	9.0393e-06	133.31	1.5783e-06	5.886e-07	185.31	30.39	1.1069e-06	5.9964e-07	48.147	15.465	7.2454	2.234	7.1645e-07	6.7334	0.00019711	0.00040749	0.00010949	131.79	4.0676e-06	4.8871e-06	181.67	29.843	3.1125e-06	5.3767e-06	48.077	15.473	7.3373	2.3012	3.8634e-06	6.7444	-23.473	50.465	253.588	-18.901	158.178	281.198	-20.260	-14.610	195.081	-8.525	-16.897	-13.031	-11.260	-5.870	78.063	-9.056	-8191	255	
2639.862	1	1	0	0	0.16286	0.090638	0.1449	0.25726	0.054107	0.13886	0.1358	0.13655	0.12444	0.067392	0.080597	0.17934	0.15368	0.37884	0.15055	0.10551	-3.2625	-3.0521	-3.9146	-3.2979	-3.1813	-3.7979	-3.1063	-3.5187	-3.5875	-3.0354	-3.8125	-3.4396	-3.2667	-3.9021	-3.1771	-3.5917	44.650	226.934	243.145	-14.216	-0.476	82.522	60.179	253.623	203.165	103.764	183.913	220.063	315.446	273.888	79.731	131.172	8.7372e-05	0.00010644	1.6633e-05	134.27	2.9085e-07	1.3789e-06	183.55	30.222	1.0954e-06	1.0112e-06	48.901	15.789	7.1815	2.3298	6.0562e-07	6.7964	0.00017491	0.00046027	0.00011456	133.46	4.4619e-06	4.3449e-06	180.63	29.885	3.2664e-06	5.4868e-06	48.496	15.575	7.2794	2.3389	3.8876e-06	6.8182	8.683	39.528	-17.531	-20.038	35.900	94.161	-20.313	-14.686	295.393	155.953	-17.042	-12.555	-11.181	-6.611	176.190	-8.907	-8191	255	
2639.959	1	1	0	0	0.25565	0.12157	0.15968	0.11027	0.24178	0.075379	0.097152	0.15006	0.13114	0.17029	0.096548	0.11616	0.1277	0.2985	0.17194	0.047751	-3.3979	-3.0771	-3.7438	-3.5646	-2.9542	-4.025	-3.1042	-3.3208	-3.7708	-2.9708	-3.7812	-3.4354	-3.0375	-3.8479	-3.0271	-3.2875	197.137	235.087	139.473	52.271	280.997	143.207	225.283	221.927	25.313	164.186	303.147	29.144	53.678	247.303	49.756	297.951	0.00010371	4.407e-05	5.1835e-06	133.46	1.6171e-06	1.6087e-06	182.69	29.533	1.9723e-06	1.1851e-06	49.292	15.707	7.3982	2.3264	8.6706e-07	6.8368	0.00020385	0.00043928	0.00010198	133.11	4.3984e-06	4.6489e-06	180.63	29.679	2.9138e-06	5.5785e-06	48.713	15.688	7.3373	2.332	3.8365e-06	6.8731	4.191	91.395	97.646	-19.449	81.826	112.567	-20.039	-14.221	122.686	108.170	-17.316	-12.519	-9.633	-6.762	111.170	-8.851	-8191	255	
2640.079	1	1	0	0	0.18952	0.11826	0.11654	0.17932	0.086557	0.11304	0.15021	0.12532	0.30575	0.080244	0.11138	0.22837	0.20453	0.17863	0.14552	0.15215	-3.5354	-3.125	-3.7521	-3.4437	-2.9625	-3.7542	-3.2042	-3.2396	-3.8417	-3.125	-3.6979	-3.3937	-3.0042	-3.7875	-3.3438	-3.2354	105.056	321.075	-29.695	217.952	40.465	173.454	16.706	314.952	305.827	324.801	-25.228	41.547	95.391	287.898	290.680	-3.811	0.00013738	8.7687e-05	4.064e-05	134.09	4.2076e-07	4.4853e-07	183.47	30.061	7.5567e-07	9.8616e-07	48.784	15.705	7.1483	2.2905	1.5757e-06	6.7942	0.00017124	0.00042645	0.00011499	132.69	4.2935e-06	4.2507e-06	181.48	29.866	3.2721e-06	5.1748e-06	48.596	15.649	7.3119	2.3144	4.0342e-06	6.8331	19.414	111.219	6.674	-19.758	109.044	71.781	-20.227	-14.661	86.140	97.235	-17.109	-12.470	-9.969	-6.446	145.564	-9.774	-8191	255	
2640.151	1	1	0	0	0.15958	0.14805	0.1754	0.28312	0.23141	0.028419	0.15799	0.13539	0.21548	0.19989	0.11385	0.15724	0.053878	0.27947	0.23072	0.15891	-3.3375	-3.1125	-3.5708	-3.6229	-3.1208	-3.6854	-3.5417	-3.1521	-3.8208	-3.1208	-3.5604	-3.7604	-3.0021	-3.7687	-3.4667	-3.2229	267.876	234.634	213.886	11.079	262.366	296.913	30.548	61.639	3.367	305.983	141.683	51.907	199.666	240.754	37.242	177.294	8.5268e-05	5.0841e-05	1.2316e-05	133.02	5.0553e-07	9.5075e-07	183.54	29.662	5.2248e-07	6.8977e-07	48.366	15.611	7.266	2.2858	6.2779e-07	6.7477	0.00017256	0.00043505	0.00012098	131.85	4.6612e-06	4.1245e-06	180.69	29.477	3.0218e-06	4.8133e-06	48.058	15.541	7.2603	2.3177	3.764e-06	6.7921	-6.336	9.238	139.281	-19.527	202.471	73.985	-19.746	-14.437	104.931	149.802	-16.981	-12.144	-10.905	-6.385	105.367	-9.800	-8191	255	
2640.247	1	1	0	0	0.087533	0.27811	0.10251	0.11314	0.1333	0.072332	0.070408	0.14617	0.21896	0.1398	0.12686	0.17833	0.049971	0.058324	0.050242	0.158	-3.5354	-3.0271	-3.3667	-3.7896	-3.1833	-3.8146	-3.5625	-2.9708	-3.775	-3.3458	-3.3625	-3.8	-3.0146	-3.7479	-3.6417	-3.2083	84.003	177.347	57.555	153.846	-22.203	304.438	176.790	38.010	219.877	207.509	321.594	17.734	86.649	322.106	21.558	84.320	8.6908e-05	4.7847e-05	3.4714e-05	132.51	1.6476e-06	6.4539e-07	180.62	29.357	1.0666e-06	1.2235e-06	48.286	15.686	7.1909	2.3014	1.0019e-06	6.8842	0.00018904	0.00039743	0.00013797	130.58	4.4043e-06	4.7591e-06	179.13	29.378	3.4697e-06	5.0244e-06	47.903	15.607	7.2752	2.3268	4.0342e-06	6.832	1.826	19.505	119.941	-19.421	74.267	47.017	-20.379	-14.161	99.177	130.340	-17.034	-12.593	-9.795	-6.529	74.665	-9.332	-8191	255	
2640.343	1	1	0	0	0.072271	0.026724	0.10949	0.16824	0.036526	0.16712	0.18067	0.070267	0.070381	0.05087	0.090374	0.15446	0.057816	0.19443	0.13861	0.20487	-3.4104	-3.1375	-3.3042	-3.8063	-2.9958	-3.6458	-3.6854	-3.2229	-3.7833	-3.3667	-3.2667	-3.9625	-3.0563	-3.5833	-3.5812	-3.0833	255.690	92.729	86.540	84.577	79.626	241.768	33.641	-11.119	244.772	253.117	288.890	14.765	-8.753	-20.825	208.549	3.213	0.00010719	3.8961e-05	2.8456e-05	132.31	1.6915e-07	8.6084e-07	183.47	29.427	1.548e-06	7.7807e-07	47.746	15.604	7.0851	2.2973	1.3885e-06	6.8486	0.00017031	0.00039627	0.00010713	131.5	4.2581e-06	4.5547e-06	180.94	29.241	3.0585e-06	4.7142e-06	47.831	15.612	7.3084	2.3343	3.4669e-06	6.8889	14.506	42.894	85.210	-18.976	103.950	52.107	-20.125	-14.427	108.478	116.557	-16.463	-11.935	-10.257	-6.224	165.979	-9.849	-8191	255	
2640.439	1	1	0	0	0.14088	0.18814	0.07315	0.1194	0.13506	0.10864	0.10886	0.16824	0.27741	0.14983	0.15962	0.099398	0.028624	0.18013	0.053298	0.11978	-3.3729	-3.2479	-3.2188	-3.7188	-3.1271	-3.5521	-3.7438	-3.0229	-3.7812	-3.5708	-3.0687	-3.7979	-3.0271	-3.5062	-3.7521	-3.0542	175.324	82.153	257.130	191.479	312.650	146.802	302.079	152.218	285.826	278.597	196.256	255.546	218.779	97.492	242.081	211.630	8.9493e-05	2.0035e-06	1.139e-05	130.85	1.352e-06	4.7021e-07	183.1	29.655	3.8613e-06	8.078e-07	48.929	15.934	7.2171	2.3042	1.7431e-06	6.8265	0.00018146	0.00043345	0.00012058	131.61	4.4692e-06	4.6507e-06	181.24	29.341	3.1573e-06	4.9051e-06	48.533	15.79	7.3097	2.3364	3.9078e-06	6.8998	3.592	274.692	111.603	-20.114	140.669	119.148	-20.345	-14.052	130.747	130.456	-17.477	-12.239	-11.356	-5.077	93.611	-9.669	-8191	255	
2640.560	1	1	0	0	0.07215	0.12488	0.2439	0.12642	0.092592	0.1654	0.086852	0.077444	0.18185	0.038597	0.05556	0.12581	0.18386	0.085269	0.14258	0.10738	-3.3667	-3.3792	-3.0958	-3.6875	-3.2938	-3.3542	-3.725	-3.125	-3.5896	-3.5083	-3.0104	-3.8812	-3.1271	-3.3833	-3.8167	-3.05	7.779	45.534	195.331	47.749	14.004	152.640	135.442	-12.112	149.639	250.434	-6.397	43.788	140.587	188.259	171.933	305.111	0.00010352	3.7725e-05	2.3896e-05	134.04	5.1085e-07	5.2352e-07	182.51	29.195	1.785e-06	1.7124e-06	48.362	15.654	7.1603	2.3258	1.9765e-06	6.7745	0.00020229	0.0003795	0.00012596	131.85	4.1858e-06	4.3698e-06	180.93	29.08	3.2469e-06	4.8647e-06	47.925	15.594	7.2766	2.3298	3.233e-06	6.7723	30.243	223.498	154.134	-19.851	192.875	111.715	-20.537	-14.895	213.283	146.794	-17.035	-12.875	-9.901	-5.701	125.566	-9.015	-8191	255	
2640.656	1	1	0	0	0.16735	0.17235	0.20092	0.15164	0.22573	0.19804	0.17207	0.021257	0.14667	0.23597	0.17136	0.056848	0.24248	0.11572	0.17395	0.14807	-3.2333	-3.8563	-2.9562	-3.8312	-3.3271	-3.2667	-3.9167	-3.2104	-3.4979	-3.6729	-3.0958	-3.8292	-3.3292	-3.1958	-3.825	-3.1854	93.079	239.664	-9.125	249.781	53.529	209.829	326.890	109.429	183.534	94.810	24.646	-29.793	107.977	214.995	-23.127	128.394	8.2072e-05	3.6509e-05	2.2262e-05	131.77	4.0747e-07	6.509e-07	182.03	29.296	2.6871e-06	1.1835e-06	48.159	15.749	7.143	2.2818	1.7651e-06	6.7419	0.00016826	0.00035617	0.000135	131.2	4.2448e-06	5.1876e-06	180.44	28.928	3.2434e-06	4.7473e-06	47.897	15.579	7.284	2.322	3.2894e-06	6.7613	21.605	110.978	138.555	-20.314	59.774	38.037	-20.240	-14.314	138.484	165.921	-17.154	-12.561	-9.467	-7.240	246.840	-10.362	-8191	255	
2640.752	1	1	0	0	0.29983	0.24791	0.079009	0.151	0.2208	0.085735	0.058357	0.15435	0.1195	0.075621	0.22163	0.033389	0.061585	0.14238	0.18509	0.24952	-2.9708	-3.6792	-3.0854	-3.5646	-3.4562	-3.2229	-3.8563	-3.2604	-3.4688	-3.8187	-2.8896	-3.5583	-3.5979	-3.125	-3.9938	-3.2104	158.595	50.362	196.205	154.514	160.045	143.588	102.156	208.232	181.097	96.189	319.469	185.394	265.428	173.049	88.036	124.759	0.00012041	7.9848e-05	1.2884e-05	135.37	1.3939e-06	1.0442e-06	184.99	28.938	2.6384e-06	7.8396e-07	47.873	15.53	7.0463	2.3364	8.7164e-07	6.8103	0.00019168	0.00038927	0.00011543	132.52	4.0529e-06	5.1094e-06	181.92	29.097	3.3548e-06	4.461e-06	47.924	15.634	7.2239	2.3426	3.7344e-06	6.8517	21.128	320.937	88.009	-19.674	87.225	92.596	-20.594	-14.704	55.580	122.873	-17.363	-12.758	-10.789	-5.690	156.482	-9.195	-8191	255	
2640.847	1	1	0	0	0.21011	0.12072	0.076469	0.073104	0.21534	0.14879	0.15974	0.058731	0.077029	0.068849	0.2005	0.15122	0.16615	0.13042	0.1658	0.12333	-2.9208	-3.8229	-3.1833	-3.6042	-3.6937	-3.0458	-3.8125	-3.1521	-3.2708	-3.9292	-3.0729	-3.4958	-3.5208	-2.9458	-3.9125	-3.3542	312.417	209.905	75.271	133.893	192.282	-12.598	175.350	24.014	258.027	61.722	92.312	76.663	220.264	184.579	158.574	318.949	0.00011594	8.5859e-05	4.4617e-06	134.1	3.9381e-07	9.5275e-07	183.39	29.29	1.7537e-06	9.4065e-07	48.903	15.947	7.2429	2.2934	1.1426e-06	6.891	0.00019896	0.00036944	0.00012299	132.15	3.9244e-06	5.0294e-06	182.26	29.191	3.2664e-06	4.3674e-06	48.487	15.761	7.2958	2.3345	3.7559e-06	6.9243	19.813	75.573	111.263	-19.224	100.659	63.829	-20.470	-14.625	182.892	98.564	-17.853	-13.045	-11.326	-6.752	91.445	-9.999	-8191	255	
2640.943	1	1	0	0	0.24622	0.025434	0.089795	0.054414	0.14767	0.20998	0.077191	0.25068	0.159	0.16425	0.16159	0.1655	0.20349	0.063883	0.12424	0.22598	-2.9104	-3.8479	-2.95	-3.6813	-3.6729	-3.0438	-3.7438	-3.4104	-3.2583	-4.0875	-3.0604	-3.3542	-3.8375	-3.1562	-3.7979	-3.6354	116.486	-12.837	187.222	162.751	48.295	141.044	98.456	35.036	241.191	233.735	123.325	107.182	145.019	321.635	-18.067	312.569	0.00010674	5.9779e-05	3.1099e-06	133.38	2.5188e-07	1.8389e-06	184.57	29.3	3.0097e-06	1.1006e-06	48.776	15.607	7.2873	2.3047	1.5916e-06	6.6832	0.00020879	0.00037979	0.00012281	132.08	4.0957e-06	4.6525e-06	182.81	29.271	3.4169e-06	4.4151e-06	48.208	15.618	7.3145	2.3231	3.3903e-06	6.781	-8.468	39.581	26.368	-19.911	166.032	119.658	-20.032	-13.437	132.413	167.365	-17.489	-12.564	-11.673	-6.429	90.602	-9.631	-8191	255	
2641.041	1	1	0	0	0.027927	0.039758	0.17884	0.26498	0.098074	0.063633	0.081984	0.072627	0.045947	0.022967	0.065836	0.052096	0.23624	0.30848	0.052253	0.12978	-2.85	-3.9708	-3.0833	-3.2958	-3.8563	-3.1167	-3.7062	-3.3729	-3.0229	-3.8021	-3.2687	-3.3792	-3.85	-3.0354	-3.5625	-3.6667	67.709	34.539	273.766	208.587	309.624	51.418	256.104	190.786	192.138	194.093	186.632	13.790	101.062	-2.122	46.740	175.250	9.6187e-05	2.713e-05	2.8186e-05	132.98	1.0046e-06	3.6392e-07	183.89	29.651	4.4644e-07	1.567e-06	48.446	15.729	7.2263	2.2857	1.2394e-06	6.7735	0.00019349	0.00037761	0.00013539	132.27	3.8329e-06	4.704e-06	182.16	29.268	3.4352e-06	4.7528e-06	48.31	15.546	7.2884	2.3057	3.686e-06	6.8002	9.624	16.118	43.528	-20.145	65.881	313.274	-20.754	-14.651	164.382	131.397	-17.176	-12.407	-10.747	-6.504	128.030	-9.867	-8191	255	
2641.160	1	1	0	0	0.093229	0.033078	0.27089	0.10924	0.09113	0.2522	0.11501	0.16458	0.19154	0.22411	0.11419	0.036861	0.021881	0.20521	0.19547	0.22698	-2.8333	-3.8542	-3.3042	-3.2167	-3.9083	-3.3229	-3.5687	-3.6708	-2.975	-4.0042	-3.425	-3.4167	-3.7917	-3.1833	-3.5792	-3.8271	309.577	-3.242	25.045	265.663	28.012	219.682	244.761	-21.972	137.728	234.488	91.000	273.088	100.604	92.476	54.520	296.850	4.5383e-05	5.3505e-05	2.3793e-05	133.43	1.5738e-06	1.6745e-06	184.54	29.494	2.1468e-06	1.572e-06	48.492	15.659	7.119	2.3055	6.7186e-07	6.9172	0.0002085	0.00038009	0.00012797	132.76	3.8772e-06	4.9831e-06	182.22	29.281	3.4111e-06	5.0556e-06	48.155	15.662	7.2484	2.315	3.5704e-06	6.8741	-29.103	40.273	29.263	-20.185	178.247	80.541	-20.404	-15.132	116.284	137.773	-17.676	-12.537	-10.427	-6.214	183.796	-9.528	-8191	255	
2641.256	1	1	0	0	0.30319	0.094181	0.028532	0.25651	0.14642	0.23327	0.19462	0.10387	0.2208	0.11352	0.27772	0.1757	0.084813	0.20896	0.1563	0.025855	-2.4792	-3.7729	-3.3479	-3.3083	-3.925	-3.1667	-3.325	-3.6667	-3.1771	-3.8021	-3.4833	-3.15	-3.7542	-3.1792	-3.4062	-3.8417	53.554	238.209	82.908	-20.355	60.411	7.245	-20.504	229.354	33.621	216.094	246.847	7.292	198.786	123.344	34.046	92.965	0.0001143	7.6294e-05	2.0454e-05	131.53	7.9772e-07	1.4419e-06	186.41	29.384	1.3581e-06	1.5238e-06	48.513	15.944	7.2839	2.3278	1.2508e-06	6.8532	0.00021598	0.00036638	0.00011036	131.65	3.4771e-06	5.0294e-06	182.62	29.311	3.3675e-06	4.8262e-06	48.232	15.824	7.3059	2.3466	4.2694e-06	6.8992	-7.635	142.264	-2.687	-20.088	150.489	109.007	-20.478	-14.930	90.835	91.743	-16.843	-12.009	-10.201	-5.949	89.249	-9.680	-8191	255	
2641.352	1	1	0	0	0.16762	0.21695	0.11859	0.11258	0.093064	0.14706	0.26258	0.080591	0.24313	0.167	0.079975	0.21913	0.13517	0.30976	0.10564	0.036632	-2.725	-3.6104	-3.4188	-3.1229	-3.9938	-3.3271	-3.2771	-3.8792	-3.0187	-3.6083	-3.6375	-3.0854	-3.7146	-3.2625	-3.2417	-3.7687	260.310	-31.776	89.908	120.662	186.382	69.324	165.180	233.891	221.495	-17.463	-31.302	42.254	17.378	112.358	219.838	157.944	0.00011147	0.0001099	2.8479e-05	135.34	5.1874e-07	4.7781e-07	186.6	29.553	5.3416e-07	1.684e-06	48.63	15.62	7.1993	2.2899	1.0203e-06	6.7426	0.00019623	0.00039933	0.00011604	132.73	3.6587e-06	5.1645e-06	183.76	29.516	3.7074e-06	5.0702e-06	48.405	15.593	7.2275	2.3089	4.4737e-06	6.8149	5.038	69.766	77.149	-20.647	315.628	93.354	-19.542	-14.467	204.595	204.729	-16.389	-11.878	-9.997	-5.685	136.058	-10.823	-8191	255	
2641.448	1	1	0	0	0.16652	0.37064	0.14176	0.18761	0.30605	0.014817	0.13028	0.1374	0.068887	0.078733	0.12799	0.31621	0.12058	0.10497	0.10708	0.16652	-2.7146	-3.4521	-3.6083	-2.9667	-3.9458	-3.3979	-3.1417	-3.9042	-3.0583	-3.5729	-3.6771	-3.1479	-3.7271	-3.4042	-3.1729	-3.9917	67.452	147.463	193.391	271.528	209.262	207.047	67.413	2.696	139.980	18.317	228.031	281.870	-9.680	116.332	7.643	62.745	9.6232e-05	8.458e-05	1.3443e-05	133.93	1.0909e-06	8.2472e-07	184.47	29.939	2.3498e-06	4.297e-07	48.977	15.621	7.2766	2.2668	7.9773e-07	6.8956	0.00018835	0.00038388	0.00010233	131.57	3.3028e-06	4.7787e-06	182.34	29.73	3.1194e-06	4.7876e-06	48.498	15.594	7.2682	2.296	4.0826e-06	6.8771	9.197	92.194	143.177	-20.235	111.107	-13.519	-19.969	-14.206	191.502	117.142	-16.594	-12.302	-11.035	-6.447	107.854	-9.593	-8191	255	
#DATA ENDS
