BOXY.EXE: ISS Imagent and Oximeter Data Acquisition Program Version 0.80
Ascii Record File

#ACQ INFORMATION
2  Detector Channels 
16  External MUX Channels 
1  Auxiliary Channels 
5000  Waveform (CCF) Frequency (Hz)
1  Waveforms Skipped 
30  Waveforms Averaged 
1  Cycles Averaged 
16  Acquisitions per Waveform 
10.0806  Updata Rate (Hz) 

#FILE INFORMATION
TRUE -- External MUX Channel results are PARSED.
FALSE -- AC DC and Phase are NOT grouped.
TRUE -- Companion Program Settings File CREATED.
FALSE -- AC data not excluded
FALSE -- DC data not excluded
FALSE -- Phase data not excluded
FALSE -- Auxillary Chn. data not excluded
Tab delimiters

#CALIBRATION STATE
TRUE -- Waveform Calibration Values APPLIED.


#AUX CALIBRATION VALUES
Val Type	aux-1	

Term	1.0000e+00	
Factor	0.0000e+00	


#WF CALIBRATION VALUES
A = Detector Channel
Val Type	A-AC1	A-AC2	A-AC3	A-AC4	A-AC5	A-AC6	A-AC7	A-AC8	A-AC9	A-AC10	A-AC11	A-AC12	A-AC13	A-AC14	A-AC15	A-AC16	A-DC1	A-DC2	A-DC3	A-DC4	A-DC5	A-DC6	A-DC7	A-DC8	A-DC9	A-DC10	A-DC11	A-DC12	A-DC13	A-DC14	A-DC15	A-DC16	A-Ph1	A-Ph2	A-Ph3	A-Ph4	A-Ph5	A-Ph6	A-Ph7	A-Ph8	A-Ph9	A-Ph10	A-Ph11	A-Ph12	A-Ph13	A-Ph14	A-Ph15	A-Ph16	

Term	0.00000e+00	0.00000e+00	0.00000e+00	0.00000e+00	0.00000e+00	0.00000e+00	0.00000e+00	0.00000e+00	0.00000e+00	0.00000e+00	0.00000e+00	0.00000e+00	0.00000e+00	0.00000e+00	0.00000e+00	0.00000e+00	0.00000e+00	0.00000e+00	0.00000e+00	0.00000e+00	0.00000e+00	0.00000e+00	0.00000e+00	0.00000e+00	0.00000e+00	0.00000e+00	0.00000e+00	0.00000e+00	0.00000e+00	0.00000e+00	0.00000e+00	0.00000e+00	0.00000e+00	0.00000e+00	0.00000e+00	0.00000e+00	0.00000e+00	0.00000e+00	0.00000e+00	0.00000e+00	0.00000e+00	0.00000e+00	0.00000e+00	0.00000e+00	0.00000e+00	0.00000e+00	0.00000e+00	0.00000e+00	
Factor	1.00000e+00	1.00000e+00	1.00000e+00	1.00000e+00	1.00000e+00	1.00000e+00	1.00000e+00	1.00000e+00	1.00000e+00	1.00000e+00	1.00000e+00	1.00000e+00	1.00000e+00	1.00000e+00	1.00000e+00	1.00000e+00	1.00000e+00	1.00000e+00	1.00000e+00	1.00000e+00	1.00000e+00	1.00000e+00	1.00000e+00	1.00000e+00	1.00000e+00	1.00000e+00	1.00000e+00	1.00000e+00	1.00000e+00	1.00000e+00	1.00000e+00	1.00000e+00	X	X	X	X	X	X	X	X	X	X	X	X	X	X	X	X	

B = Detector Channel
Val Type	B-AC1	B-AC2	B-AC3	B-AC4	B-AC5	B-AC6	B-AC7	B-AC8	B-AC9	B-AC10	B-AC11	B-AC12	B-AC13	B-AC14	B-AC15	B-AC16	B-DC1	B-DC2	B-DC3	B-DC4	B-DC5	B-DC6	B-DC7	B-DC8	B-DC9	B-DC10	B-DC11	B-DC12	B-DC13	B-DC14	B-DC15	B-DC16	B-Ph1	B-Ph2	B-Ph3	B-Ph4	B-Ph5	B-Ph6	B-Ph7	B-Ph8	B-Ph9	B-Ph10	B-Ph11	B-Ph12	B-Ph13	B-Ph14	B-Ph15	B-Ph16	

Term	0.00000e+00	0.00000e+00	0.00000e+00	0.00000e+00	0.00000e+00	0.00000e+00	0.00000e+00	0.00000e+00	0.00000e+00	0.00000e+00	0.00000e+00	0.00000e+00	0.00000e+00	0.00000e+00	0.00000e+00	0.00000e+00	0.00000e+00	0.00000e+00	0.00000e+00	0.00000e+00	0.00000e+00	0.00000e+00	0.00000e+00	0.00000e+00	0.00000e+00	0.00000e+00	0.00000e+00	0.00000e+00	0.00000e+00	0.00000e+00	0.00000e+00	0.00000e+00	-2.67937e+02	-1.30297e+02	-1.24741e+02	-1.87822e+02	-6.96048e+01	-6.65855e+01	-1.56226e+02	-1.62015e+02	-6.64801e+01	-6.54146e+01	-1.71993e+02	-1.70449e+02	-1.82921e+02	-1.77447e+02	-7.06104e+01	-1.50185e+02	
Factor	5.08686e-05	1.23101e-04	3.70342e-05	3.47696e-01	1.44184e-06	1.36155e-06	1.51375e-01	4.06272e-02	2.33488e-06	1.39090e-06	7.25516e-02	2.05289e-02	3.17289e-02	6.81532e-03	1.55922e-06	9.51071e-03	2.34709e-05	6.99811e-05	2.09637e-05	1.86283e-01	7.08699e-07	8.53338e-07	7.64441e-02	2.19243e-02	5.51292e-07	8.80824e-07	3.79906e-02	1.07674e-02	1.72504e-02	3.72260e-03	6.45250e-07	5.03074e-03	X	X	X	X	X	X	X	X	X	X	X	X	X	X	X	X	



#DISTANCE SETTINGS
A = Detector Channel
A-1	A-2	A-3	A-4	A-5	A-6	A-7	A-8	A-9	A-10	A-11	A-12	A-13	A-14	A-15	A-16	

2.5000e+00	3.0000e+00	2.5000e+00	3.0000e+00	2.0000e+00	3.0000e+00	1.5000e+00	3.0000e+00	3.0000e+00	3.0000e+00	3.0000e+00	3.0000e+00	3.0000e+00	3.0000e+00	1.5000e+00	3.0000e+00	

B = Detector Channel
B-1	B-2	B-3	B-4	B-5	B-6	B-7	B-8	B-9	B-10	B-11	B-12	B-13	B-14	B-15	B-16	

1.0000e+01	1.0000e+01	1.0000e+01	1.4400e+00	1.0000e+01	1.0000e+01	1.5100e+00	1.9400e+00	1.0000e+01	1.0000e+01	1.9900e+00	2.4900e+00	2.4100e+00	2.9000e+00	1.0000e+01	2.9800e+00	




#DATA BEGINS
time	group	step	mark	flag	A-AC1	A-AC2	A-AC3	A-AC4	A-AC5	A-AC6	A-AC7	A-AC8	A-AC9	A-AC10	A-AC11	A-AC12	A-AC13	A-AC14	A-AC15	A-AC16	A-DC1	A-DC2	A-DC3	A-DC4	A-DC5	A-DC6	A-DC7	A-DC8	A-DC9	A-DC10	A-DC11	A-DC12	A-DC13	A-DC14	A-DC15	A-DC16	A-Ph1	A-Ph2	A-Ph3	A-Ph4	A-Ph5	A-Ph6	A-Ph7	A-Ph8	A-Ph9	A-Ph10	A-Ph11	A-Ph12	A-Ph13	A-Ph14	A-Ph15	A-Ph16	B-AC1	B-AC2	B-AC3	B-AC4	B-AC5	B-AC6	B-AC7	B-AC8	B-AC9	B-AC10	B-AC11	B-AC12	B-AC13	B-AC14	B-AC15	B-AC16	B-DC1	B-DC2	B-DC3	B-DC4	B-DC5	B-DC6	B-DC7	B-DC8	B-DC9	B-DC10	B-DC11	B-DC12	B-DC13	B-DC14	B-DC15	B-DC16	B-Ph1	B-Ph2	B-Ph3	B-Ph4	B-Ph5	B-Ph6	B-Ph7	B-Ph8	B-Ph9	B-Ph10	B-Ph11	B-Ph12	B-Ph13	B-Ph14	B-Ph15	B-Ph16	aux-1	digaux	

1051.969	1	1	0	256	0.18544	0.14123	0.093695	0.21413	0.17817	0.1284	0.17703	0.19408	0.25128	0.11841	0.10448	0.068748	0.17117	0.20254	0.15075	0.2413	-2.9875	-3.5917	-2.7604	-3.6937	-3.1333	-2.9896	-3.9604	-3.2979	-3.2875	-3.7208	-3.0187	-3.7	-3.5062	-3	-3.9188	-3.2167	162.629	-69.511	67.086	217.381	179.393	-10.644	181.289	167.428	-48.522	-88.684	215.891	-83.435	-26.440	15.847	92.514	214.847	0.00033361	0.00022461	5.414e-05	789.56	2.6783e-06	2.5582e-06	861.93	156.66	4.4922e-06	2.2682e-06	204.87	57.45	45.327	13.083	2.7211e-06	18.635	0.00021153	0.00013573	4.5247e-05	798.31	1.853e-06	2.1618e-06	877.56	160.12	2.2821e-06	1.1065e-06	207.87	59.356	46.095	13.53	1.351e-06	19.351	63.509	-40.211	-20.779	-107.272	22.999	53.694	-107.186	-99.235	-1.848	18.415	-100.348	-92.650	-93.418	-85.792	29.075	-86.410	-8191	255	
1052.065	1	1	0	0	0.12676	0.017239	0.13704	0.23402	0.043178	0.22505	0.16388	0.13743	0.081982	0.023187	0.16178	0.1774	0.19601	0.18544	0.28653	0.16383	-2.7583	-3.8583	-2.8875	-3.4875	-3.425	-2.9458	-3.9479	-3.2646	-3.2729	-3.7583	-3.2021	-3.4604	-3.5375	-3.1167	-3.6271	-3.3	-85.570	-20.226	-25.697	116.260	-21.876	-57.885	188.600	186.906	181.089	170.787	115.422	-112.383	202.005	-101.105	89.463	189.429	0.00030931	0.00019612	6.0115e-05	787.71	1.2914e-06	2.3748e-06	863.65	157.03	2.2705e-06	2.0161e-06	204.23	57.857	44.322	13.037	3.2979e-06	18.353	0.00023446	0.00013267	4.6076e-05	796.02	1.4735e-06	2.192e-06	874.65	160.02	2.0765e-06	9.4505e-07	207.6	59.507	45.668	13.558	1.5016e-06	19.267	64.346	-35.659	-35.290	-107.103	12.167	32.466	-107.077	-100.413	23.064	33.617	-101.151	-93.903	-93.717	-86.324	12.821	-86.833	-8191	255	
1052.162	1	1	0	0	0.19177	0.17355	0.30098	0.1447	0.26187	0.13561	0.3953	0.05258	0.15681	0.22763	0.17707	0.18025	0.16823	0.071395	0.15317	0.028841	-2.8042	-3.7313	-2.7792	-3.5687	-3.5958	-2.9	-3.7146	-3.2917	-3.0708	-3.7542	-3.25	-3.4562	-3.7521	-2.9833	-3.5687	-3.3625	1.791	147.817	102.167	110.856	131.239	109.502	183.605	32.001	84.571	127.438	137.661	78.038	80.313	88.175	-98.301	159.113	0.00030312	0.00021203	8.2541e-05	775.67	1.7982e-06	2.6083e-06	853.83	155.35	3.7808e-06	2.9407e-06	202.54	57.749	44.225	12.998	2.2981e-06	18.694	0.00022566	0.00015469	4.6863e-05	790.73	1.6359e-06	2.0231e-06	871.85	159.29	2.3246e-06	1.2075e-06	207.15	59.575	45.866	13.609	1.2905e-06	19.454	63.233	-33.819	-23.057	-108.086	37.963	28.855	-107.749	-99.890	23.206	31.082	-100.365	-93.626	-92.725	-86.006	28.645	-86.304	-8191	255	
1052.258	1	1	0	0	0.19161	0.30319	0.13699	0.25813	0.25944	0.12047	0.17749	0.11346	0.021875	0.10008	0.14538	0.016419	0.10183	0.15774	0.14071	0.41796	-2.4667	-3.7521	-3.0062	-3.1312	-3.7896	-2.9771	-3.6396	-3.4979	-2.7979	-3.7625	-3.0917	-3.2042	-3.7146	-2.9521	-3.5625	-3.5104	28.831	205.809	173.326	-33.118	1.604	-64.301	233.381	70.440	-20.576	239.379	-81.276	43.123	-113.981	107.295	58.780	231.726	0.00032114	0.00016944	6.6411e-05	775.97	2.6208e-06	2.8994e-06	854.55	155.42	2.5046e-06	2.7985e-06	201.83	57.528	44.221	13.118	1.9475e-06	18.609	0.00021896	0.00011634	4.3369e-05	790.6	1.4233e-06	1.9716e-06	870.89	159.53	2.1248e-06	1.2075e-06	206.86	59.552	45.953	13.634	1.5473e-06	19.462	61.383	-13.070	-28.863	-108.164	32.119	21.788	-108.139	-100.390	-10.079	33.888	-100.941	-94.137	-94.317	-86.322	24.873	-86.969	-8191	255	
1052.378	1	1	0	0	0.20691	0.058238	0.12859	0.24082	0.082561	0.26862	0.13491	0.23953	0.089811	0.22711	0.28439	0.31256	0.029759	0.21444	0.15467	0.22534	-2.6396	-3.7125	-3.2125	-3.2021	-3.7917	-3.0271	-3.6708	-3.6063	-2.9646	-3.7375	-3.1208	-3.1042	-3.8438	-2.9625	-3.2583	-3.5979	-97.646	43.448	-96.985	-14.676	-43.272	171.694	145.096	64.185	-84.865	-13.923	237.544	-87.013	178.770	-90.486	-92.211	137.892	0.00032253	0.00023762	5.6635e-05	782.42	2.0481e-06	2.4429e-06	861.5	157.55	2.9774e-06	2.8392e-06	202.92	58.386	45.03	13.164	2.5126e-06	18.674	0.00021662	0.00012305	3.3717e-05	789.67	1.4159e-06	1.4667e-06	869.21	159.58	2.0961e-06	1.1634e-06	206.73	59.501	46.12	13.571	1.5405e-06	19.446	61.522	-35.991	-26.765	-107.229	36.332	35.961	-107.482	-99.809	-12.998	35.662	-100.319	-93.412	-93.643	-85.970	25.994	-86.470	-8191	255	
1052.474	1	1	0	0	0.15571	0.065939	0.21725	0.06577	0.15389	0.32273	0.11447	0.20167	0.13157	0.11374	0.15125	0.10504	0.11723	0.27198	0.17822	0.23602	-2.5958	-3.6271	-3.3604	-3.0396	-3.7687	-3.0583	-3.3979	-3.9125	-2.9313	-3.8125	-3.3625	-2.9062	-3.7583	-2.9583	-3.0625	-3.7208	177.696	-107.175	17.275	19.067	192.239	79.110	-62.495	160.924	225.220	200.407	121.834	221.384	50.552	-71.779	-90.402	199.538	0.00034596	0.00016239	6.3077e-05	774.54	1.4718e-06	2.5004e-06	850.13	155.29	2.5994e-06	2.034e-06	201.44	57.506	44.46	13.005	2.1332e-06	18.273	0.00022058	0.00012728	3.293e-05	786.52	1.3244e-06	1.8916e-06	866.85	159.21	2.1041e-06	1.0625e-06	206.57	59.28	45.887	13.497	1.5486e-06	19.247	59.333	-18.823	-29.350	-107.744	32.745	36.528	-107.465	-99.624	3.459	57.540	-100.118	-93.112	-93.657	-85.987	10.348	-86.713	-8191	255	
1052.571	1	1	0	0	0.13322	0.24354	0.1893	0.26695	0.12581	0.089468	0.15422	0.033131	0.18123	0.15781	0.17347	0.080267	0.24027	0.16259	0.1423	0.12943	-2.5938	-3.5021	-3.5917	-3.0771	-3.8167	-3.2375	-3.3333	-3.7	-3.0062	-3.6312	-3.4562	-3.0208	-3.7792	-3.35	-3.0062	-3.7021	-0.495	19.932	147.676	237.531	99.100	165.958	221.685	206.360	46.007	235.892	155.318	112.388	193.492	227.644	240.866	194.962	0.00035213	0.00020191	7.0611e-05	775.14	1.484e-06	2.2187e-06	844.95	155.07	3.6366e-06	2.5476e-06	200.88	57.01	43.686	12.983	1.8164e-06	18.403	0.00021011	0.00012903	3.6162e-05	784.47	1.1989e-06	1.0169e-06	864.21	158.76	1.9341e-06	1.1763e-06	206.2	59.133	45.465	13.519	1.5795e-06	19.223	67.455	-22.947	-17.233	-107.520	7.741	15.356	-107.851	-100.194	28.177	35.653	-100.951	-93.902	-93.187	-85.750	28.401	-86.691	-8191	255	
1052.667	1	1	0	0	0.042211	0.24393	0.13279	0.12475	0.22916	0.1513	0.1172	0.075633	0.21079	0.046415	0.18668	0.11125	0.41436	0.33316	0.20548	0.19644	-2.5583	-3.4417	-3.6458	-2.9875	-3.5812	-3.1562	-3.2958	-3.8875	-3.1854	-3.3229	-3.6875	-2.7438	-3.4479	-3.4	-3.025	-3.7188	14.918	-109.815	-103.489	-78.510	158.647	88.471	197.717	-67.917	78.085	-112.121	178.511	-23.670	151.978	-106.977	-13.126	-67.350	0.00031633	0.0002002	5.6966e-05	770.81	2.4743e-06	2.1903e-06	850	154.46	3.0139e-06	2.1924e-06	200.73	57.549	43.908	13.127	2.0668e-06	18.523	0.00021911	0.00013573	1.9304e-05	783.99	1.2845e-06	1.1129e-06	865.11	158.77	2.018e-06	1.624e-06	205.75	59.264	45.502	13.518	1.5513e-06	19.305	64.190	-14.163	-11.676	-107.876	23.453	46.463	-107.627	-99.981	11.206	40.262	-100.520	-93.502	-93.100	-86.698	21.553	-86.665	-8191	255	
1052.763	1	1	0	0	0.10646	0.19556	0.082217	0.19458	0.18306	0.18738	0.30837	0.3	0.1565	0.12158	0.21053	0.14726	0.13257	0.11664	0.068957	0.1353	-2.7792	-3.2708	-3.8208	-3.0792	-3.4896	-3.6042	-3.2146	-3.7687	-3.1646	-3.4375	-3.8667	-2.9562	-3.6688	-3.3208	-2.9833	-3.8	149.504	5.803	163.600	167.832	-43.289	161.173	-98.693	229.608	-37.099	70.900	167.557	161.290	-84.288	-105.952	-33.850	130.452	0.00031584	0.00022298	8.3557e-05	776.06	1.9689e-06	1.3955e-06	856.91	156.97	3.1923e-06	2.0161e-06	202.21	57.507	44.755	13.069	2.4223e-06	18.765	0.00021588	0.00013224	2.3278e-05	784.27	1.1974e-06	1.344e-06	867.07	159.09	1.9226e-06	1.6075e-06	206.35	59.113	45.72	13.531	1.7892e-06	19.366	60.977	-16.252	-9.032	-107.633	-22.281	17.964	-107.845	-99.948	-12.372	38.235	-100.905	-94.054	-93.129	-86.283	20.182	-86.475	-8191	255	
1052.859	1	1	0	0	0.21251	0.073146	0.12657	0.11829	0.13532	0.17302	0.13726	0.28147	0.14794	0.098996	0.059245	0.072296	0.31701	0.12075	0.031268	0.18857	-2.9646	-3.0896	-3.7729	-3.1188	-3.6458	-3.5958	-3.2562	-3.7292	-3.2042	-3.2458	-3.8167	-3.1146	-3.3792	-3.5833	-2.9917	-3.8542	225.501	-101.580	-93.130	6.458	94.655	157.254	-50.980	159.718	109.793	113.300	-117.320	50.936	-110.513	98.087	-105.018	153.664	0.00029547	0.00020185	7.0448e-05	784.85	2.0997e-06	2.1748e-06	856.48	157.48	2.8985e-06	2.2239e-06	202.05	57.99	44.625	13.064	2.2148e-06	18.658	0.00019764	0.000149	2.52e-05	788.11	1.5916e-06	9.9023e-07	866.1	159.31	1.9111e-06	1.3928e-06	206.22	59.262	45.642	13.529	1.7946e-06	19.327	62.910	-24.097	-40.166	-107.530	3.666	45.301	-107.536	-99.782	-3.026	20.120	-100.150	-93.333	-93.522	-85.992	35.981	-86.594	-8191	255	
1052.978	1	1	0	0	0.11774	0.19217	0.061686	0.13258	0.077369	0.22098	0.15544	0.22526	0.14625	0.11259	0.13143	0.29551	0.033116	0.037828	0.2592	0.061426	-2.9813	-3.0646	-3.6146	-2.9958	-3.4896	-3.6042	-3.0917	-3.9042	-3.4667	-3.1333	-3.8396	-3.2708	-3.4458	-3.6562	-2.9938	-3.7062	-40.140	-52.402	-54.282	-4.032	120.579	51.800	149.089	-55.635	-92.856	144.708	177.541	202.860	60.675	95.690	-46.681	172.723	0.00030273	0.00014446	5.841e-05	785.32	2.7867e-06	1.9171e-06	859.61	157.37	3.6117e-06	2.5953e-06	202.79	57.799	44.718	13.094	2.4567e-06	18.633	0.00020053	0.00016344	2.0614e-05	788.23	1.63e-06	8.8534e-07	867.14	159.36	1.8882e-06	1.7029e-06	206.09	59.207	45.828	13.469	1.5903e-06	19.274	57.106	-23.576	-18.992	-107.675	45.090	28.795	-107.765	-100.096	-4.954	35.764	-100.042	-93.448	-93.379	-85.652	-3.498	-85.948	-8191	255	
1053.074	1	1	0	0	0.13821	0.17622	0.088542	0.058595	0.13236	0.093497	0.2366	0.24378	0.17475	0.11997	0.13814	0.14854	0.070191	0.096276	0.24556	0.19052	-3.1437	-2.9604	-3.7125	-3.2875	-3.2062	-3.8	-3.1125	-3.625	-3.4583	-3.1271	-3.8396	-3.325	-3.1479	-3.9	-3.0646	-3.4958	55.998	156.169	213.125	19.321	157.530	78.528	132.222	184.828	4.864	193.508	188.447	-36.416	-34.465	237.667	-116.439	5.113	0.00032186	0.00017971	8.0166e-05	786.88	1.7798e-06	2.5612e-06	862.14	156.51	3.0345e-06	1.6192e-06	203.35	57.75	44.704	13.225	2.6419e-06	18.401	0.00019877	0.00014886	2.2711e-05	788.32	1.9209e-06	6.8978e-07	867.38	159.2	1.8974e-06	1.6057e-06	206.77	59.242	45.811	13.547	1.5056e-06	19.297	61.303	-38.584	-20.841	-107.394	5.871	47.349	-106.702	-98.798	14.632	29.556	-100.858	-93.540	-92.865	-85.572	30.546	-85.950	-8191	255	
1053.170	1	1	0	0	0.1814	0.18678	0.17915	0.11178	0.14316	0.062394	0.18965	0.14491	0.1867	0.10659	0.21119	0.075353	0.088489	0.21322	0.23254	0.14154	-3.1937	-3.0625	-3.8604	-3.2417	-3.1354	-3.7354	-3.2	-3.5583	-3.6229	-3.0729	-3.8292	-3.3958	-3.1646	-3.7188	-3.1208	-3.3812	-10.682	-40.641	219.747	0.726	-110.772	132.454	153.410	-32.012	82.957	44.312	142.006	-26.346	203.093	226.542	223.307	-59.428	0.00026956	0.00019264	7.1825e-05	792.41	1.683e-06	2.0035e-06	860.47	157.35	2.5405e-06	2.5834e-06	203.06	57.802	44.98	13.179	1.9729e-06	18.687	0.00019246	0.00016402	2.4196e-05	790.58	1.7673e-06	8.5512e-07	868.88	159.52	1.7814e-06	1.7818e-06	206.5	59.326	45.834	13.555	1.7408e-06	19.372	59.213	-21.225	-13.787	-107.205	21.615	17.172	-107.422	-99.578	6.086	29.504	-99.683	-92.941	-92.486	-85.033	25.811	-85.719	-8191	255	
1053.266	1	1	0	0	0.054531	0.11551	0.13605	0.15855	0.15104	0.12027	0.16104	0.31938	0.36282	0.15056	0.1202	0.19488	0.093049	0.026657	0.22062	0.29046	-3.4333	-2.8771	-3.5479	-3.5667	-3.2104	-3.7354	-3.1479	-3.3438	-3.5875	-3.1208	-3.6646	-3.4125	-3.0542	-3.7292	-3.2521	-3.1729	83.660	167.998	92.860	-42.911	71.317	59.782	192.455	-83.558	220.003	186.017	209.110	193.145	137.303	55.184	-70.375	-54.930	0.0003067	0.00022281	8.8845e-05	784.75	2.9899e-06	2.3964e-06	867.21	157.02	3.3911e-06	1.8123e-06	204.95	58.051	44.521	13.148	1.698e-06	18.681	0.00018874	0.00016504	3.6861e-05	789.31	2.1187e-06	9.7067e-07	871.4	159.65	1.5505e-06	1.7745e-06	207.46	59.327	45.825	13.569	1.4532e-06	19.41	62.279	-22.082	-33.909	-106.965	19.273	46.693	-106.560	-99.040	14.885	40.811	-99.249	-92.621	-92.073	-85.009	-0.415	-85.528	-8191	255	
1053.363	1	1	0	0	0.18298	0.040726	0.15726	0.19248	0.11314	0.21244	0.074714	0.21368	0.077382	0.13005	0.18125	0.043409	0.17226	0.20515	0.13292	0.099404	-3.5187	-3.0417	-3.4396	-3.6979	-3.0208	-3.7354	-3.3208	-3.0583	-3.8812	-3.1604	-3.4437	-3.625	-2.9	-3.7271	-3.3917	-3.0729	-82.928	-62.352	-63.601	4.589	-100.270	51.674	-103.844	134.978	49.384	72.637	216.338	99.637	190.458	216.354	-9.841	-75.413	0.00028588	0.00017232	7.2647e-05	789.17	1.8634e-06	3.0698e-06	868.39	157.48	3.1742e-06	1.7072e-06	203.13	58.04	44.727	13.136	1.9618e-06	18.778	0.00018415	0.00017772	1.9959e-05	790.39	1.9814e-06	1.0596e-06	872.06	159.71	1.5195e-06	1.6387e-06	207.36	59.546	45.927	13.533	1.3443e-06	19.403	61.425	-14.162	-33.132	-106.541	39.613	39.144	-106.670	-98.851	3.358	40.689	-100.458	-93.169	-93.267	-85.303	39.029	-85.917	-8191	255	
1053.459	1	1	0	0	0.085325	0.17745	0.082426	0.36614	0.092736	0.087966	0.076125	0.095888	0.037862	0.2131	0.055177	0.22637	0.13312	0.15038	0.054637	0.12998	-3.4437	-2.8104	-3.3292	-3.6667	-2.925	-3.5771	-3.4792	-3.1729	-3.8521	-3.1521	-3.4333	-3.7417	-2.9583	-3.5375	-3.4667	-2.9313	-107.512	-112.359	-72.602	220.576	-61.703	-37.634	-41.841	106.285	72.023	207.226	225.538	-22.347	222.589	-2.220	164.560	191.422	0.00030032	0.0001681	6.172e-05	786.74	2.5107e-06	2.1741e-06	864.59	157.16	3.1484e-06	2.1975e-06	204.87	57.941	45.109	13.213	2.1465e-06	18.853	0.00019334	0.00015629	3.5332e-05	791.84	1.9607e-06	7.0223e-07	872.17	159.82	1.4219e-06	1.5818e-06	207.7	59.452	45.981	13.601	1.1574e-06	19.442	65.335	-20.495	-21.160	-106.998	55.793	48.422	-107.240	-99.455	-5.851	54.416	-99.906	-93.100	-92.882	-85.192	23.284	-86.242	-8191	255	
1053.555	1	1	0	0	0.12067	0.28836	0.16826	0.20787	0.06745	0.14536	0.38517	0.16189	0.19406	0.056952	0.22643	0.14077	0.37892	0.14001	0.13611	0.1133	-3.3187	-3.2812	-3.1458	-3.7708	-3.0375	-3.6688	-3.5833	-3.025	-3.9771	-3	-3.1417	-3.6813	-2.95	-3.5917	-3.5229	-3.0708	-43.152	142.272	96.805	225.480	26.477	-28.089	180.191	2.214	-9.472	225.095	228.802	47.245	-83.533	26.305	-0.936	230.392	0.00032748	0.00023172	3.9296e-05	788.68	1.8869e-06	1.9548e-06	864.09	157.34	3.3734e-06	2.5515e-06	203.44	57.959	44.998	13.175	2.2617e-06	18.695	0.00018894	0.00016008	3.4808e-05	793.86	2.0626e-06	8.5156e-07	873.7	159.91	1.4621e-06	1.0441e-06	207.58	59.494	45.953	13.575	1.0418e-06	19.385	70.714	-18.307	-18.095	-107.079	19.961	26.116	-107.272	-99.511	19.683	35.345	-100.279	-93.438	-92.794	-85.193	28.995	-85.799	-8191	255	
1053.651	1	1	0	0	0.10433	0.24395	0.05138	0.072162	0.087634	0.26924	0.083912	0.26737	0.11534	0.13415	0.037499	0.1909	0.20031	0.062555	0.10088	0.15773	-3.3271	-3.2167	-3.2958	-3.7938	-2.9917	-3.375	-3.6937	-3.1042	-3.6646	-3.1354	-3.2542	-3.8667	-2.9521	-3.5208	-3.4688	-3.1354	206.122	60.887	169.334	224.545	-98.238	51.966	126.309	-93.988	13.766	116.554	95.714	-98.557	-5.567	125.448	-65.430	226.310	0.00031263	0.00024887	4.4586e-05	787.03	2.2825e-06	2.2289e-06	868.61	158.25	3.4665e-06	2.6992e-06	203.58	58.151	44.931	13.198	1.7463e-06	18.774	0.00018327	0.00012524	4.0224e-05	793.66	1.9519e-06	1.4027e-06	874.71	160.21	1.5528e-06	9.4322e-07	207.69	59.72	45.996	13.588	1.0768e-06	19.397	60.423	-29.473	-17.008	-107.268	3.805	32.778	-107.127	-99.321	4.170	26.627	-99.804	-93.602	-92.796	-85.126	12.402	-85.580	-8191	255	
1053.770	1	1	0	0	0.042217	0.072162	0.25486	0.18214	0.21595	0.16883	0.059157	0.069424	0.19069	0.22527	0.072548	0.079076	0.23468	0.19259	0.28257	0.091405	-3.3104	-3.5312	-3.2167	-3.8125	-3.1354	-3.3729	-3.7979	-2.9333	-3.6479	-3.2271	-3.0292	-3.95	-3.05	-3.1833	-3.7021	-3.0875	-44.816	-15.763	90.926	-116.822	193.081	-23.021	181.665	-105.947	-44.348	16.876	156.415	23.774	137.582	-74.623	-67.320	97.102	0.00028856	0.0002154	6.8728e-05	789.43	2.1534e-06	3.339e-06	868.36	157.62	3.9279e-06	2.4864e-06	204.62	57.933	44.931	13.196	1.577e-06	18.757	0.00019921	0.0001439	3.6119e-05	792.28	1.8101e-06	1.7316e-06	874.67	160.06	1.7297e-06	1.2185e-06	207.73	59.514	45.929	13.593	8.2942e-07	19.402	63.292	-13.884	-20.326	-107.737	31.460	31.209	-107.232	-99.291	-2.952	50.873	-99.993	-93.192	-92.655	-85.467	17.400	-85.474	-8191	255	
1053.843	1	1	0	0	0.18438	0.27331	0.068992	0.038622	0.20708	0.15409	0.20221	0.19888	0.074407	0.087019	0.20266	0.16047	0.053656	0.18737	0.084107	0.013992	-3.1875	-3.3958	-2.8333	-3.8187	-3.0729	-2.9917	-3.9479	-2.9875	-3.4188	-3.4688	-3.0354	-3.6729	-3.1	-3.175	-3.7167	-3.0479	201.650	-73.897	218.690	37.984	-46.625	-80.212	138.175	136.864	106.494	-76.603	-12.167	137.385	74.646	-51.101	-48.795	-31.494	0.00029993	0.00014477	6.0996e-05	791.84	1.8667e-06	2.2666e-06	866.21	156.98	2.503e-06	3.1229e-06	203.99	58.282	45.022	13.14	2.8735e-06	18.638	0.00019613	0.00010949	4.232e-05	793.16	1.6625e-06	1.7671e-06	873.17	159.88	1.9295e-06	1.1487e-06	207.19	59.59	45.927	13.577	1.3201e-06	19.372	51.781	-6.167	-22.819	-106.979	31.695	20.010	-106.862	-99.015	4.066	41.192	-100.031	-93.227	-92.777	-85.198	21.954	-85.901	-8191	255	
1053.939	1	1	0	0	0.29767	0.054406	0.25475	0.11412	0.082437	0.11383	0.30536	0.2851	0.25536	0.078947	0.017254	0.11295	0.18397	0.10733	0.10694	0.015221	-3.1292	-3.6417	-2.7812	-3.5917	-3.2271	-3.0479	-3.7229	-3.0271	-3.3146	-3.5917	-2.9333	-3.5521	-3.4375	-3.0396	-3.5396	-3.0875	12.794	182.538	-30.286	-103.129	-57.672	63.935	149.930	180.462	-0.141	-8.568	95.180	-2.381	157.066	86.102	46.854	156.154	0.00032163	0.0002104	6.3621e-05	784.71	1.7018e-06	1.8328e-06	867.75	156.89	3.6843e-06	2.0762e-06	203.96	57.928	44.918	13.136	2.0436e-06	18.84	0.00020522	7.8875e-05	4.3674e-05	793.16	1.5813e-06	1.6071e-06	871.69	159.6	1.6975e-06	1.1377e-06	207.82	59.569	45.997	13.551	1.2703e-06	19.385	64.934	-17.847	-20.898	-106.899	16.614	34.089	-106.979	-98.961	-1.785	18.075	-99.800	-92.911	-92.899	-84.923	35.332	-86.095	-8191	255	
1054.058	1	1	0	0	0.16945	0.11039	0.31905	0.22494	0.028803	0.098944	0.14961	0.18491	0.073897	0.18056	0.26246	0.24383	0.22082	0.1986	0.087784	0.29869	-2.7417	-3.6542	-2.7125	-3.5021	-3.35	-3.1063	-3.9854	-3.1646	-3.2625	-3.6937	-2.9583	-3.5271	-3.3771	-3.0042	-3.7083	-3.2333	-16.506	71.912	-62.349	185.157	-65.707	240.184	-49.171	163.668	-39.356	121.350	-105.106	-66.113	58.864	-79.947	21.668	88.431	0.00030187	0.00018864	7.46e-05	789.14	2.229e-06	3.3124e-06	866.55	156.24	3.0517e-06	1.8364e-06	205.94	57.95	44.817	13.214	2.8517e-06	18.796	0.00020772	0.00012567	3.8739e-05	793.37	1.568e-06	1.8489e-06	874.62	159.61	1.8457e-06	2.514e-07	208.09	59.454	45.918	13.564	9.3292e-07	19.372	63.701	-13.366	-14.480	-106.709	37.983	43.089	-106.879	-99.281	-9.395	13.355	-99.725	-92.429	-92.443	-84.602	23.886	-85.852	-8191	255	
1054.154	1	1	0	0	0.21011	0.039473	0.16345	0.1325	0.059765	0.18672	0.14769	0.16618	0.08849	0.18781	0.11533	0.24283	0.21516	0.13593	0.04967	0.28895	-2.675	-3.7854	-2.9167	-3.5542	-3.6875	-2.9125	-3.9375	-3.4062	-3.1354	-3.6229	-2.9562	-3.2687	-3.6896	-2.9604	-3.5458	-3.3271	228.487	237.464	70.569	127.739	42.231	22.463	204.443	82.438	-68.694	187.304	99.410	184.416	221.821	128.995	47.959	-96.215	0.00029785	0.00015004	6.4509e-05	789.18	2.2872e-06	2.6201e-06	868.7	157.79	3.4956e-06	2.566e-06	204.73	58.575	45.165	13.077	2.1804e-06	18.793	0.00020904	0.00010016	4.7212e-05	793.55	1.3347e-06	1.9058e-06	872.9	159.8	2.1569e-06	6.5695e-07	207.53	59.733	46.023	13.549	1.3322e-06	19.39	65.475	-3.367	-19.405	-106.530	33.496	30.147	-106.607	-98.758	-13.266	24.316	-98.798	-92.118	-92.059	-84.740	25.541	-85.070	-8191	255	
1054.251	1	1	0	0	0.08184	0.18415	0.22457	0.068667	0.13343	0.037093	0.39612	0.008564	0.1459	0.27447	0.15525	0.12548	0.30472	0.17676	0.15129	0.1122	-2.675	-3.7333	-2.9979	-3.3438	-3.5979	-2.8708	-3.6271	-3.4271	-3.0083	-3.6792	-3.0583	-3.325	-3.5729	-3.1104	-3.5854	-3.5062	-48.643	102.246	193.486	-47.925	124.732	-91.913	175.322	205.294	89.883	71.057	176.099	233.381	5.308	184.466	-110.769	221.173	0.00026306	0.00022346	7.1369e-05	790.81	2.2578e-06	2.8745e-06	865.75	157.33	2.8052e-06	3.2103e-06	205.83	58.196	45.048	13.222	2.7707e-06	18.921	0.00020733	9.914e-05	4.1185e-05	793.8	1.3185e-06	1.9165e-06	873.55	159.81	2.2867e-06	8.2577e-07	207.68	59.481	45.964	13.563	1.269e-06	19.423	62.878	-23.575	-15.314	-106.007	23.257	33.681	-106.326	-98.486	6.522	39.881	-99.194	-92.071	-91.845	-84.677	26.997	-85.426	-8191	255	
1054.371	1	1	0	0	0.12521	0.19183	0.19822	0.25439	0.28547	0.12363	0.21532	0.092551	0.16568	0.11621	0.15045	0.1517	0.078893	0.07413	0.10251	0.15341	-2.4813	-3.7917	-3.0854	-3.2521	-3.5312	-2.9729	-3.5625	-3.6354	-3.0854	-3.6937	-3.2604	-3.25	-3.7854	-3.2167	-3.4938	-3.6271	96.169	129.293	76.255	173.248	182.741	-68.710	-77.532	182.255	155.341	196.192	-27.733	123.908	73.889	66.389	221.004	42.251	0.00030088	0.0002244	9.0604e-05	791.87	1.8016e-06	2.1467e-06	865.1	156.96	3.6419e-06	1.681e-06	204.1	58.427	45.211	13.221	2.1878e-06	18.754	0.00021955	8.3686e-05	4.1578e-05	793.5	1.224e-06	1.4187e-06	876.02	160.36	2.057e-06	6.1474e-07	207.5	59.73	46.031	13.62	1.2623e-06	19.43	63.814	-30.987	-20.458	-105.814	26.964	37.781	-105.928	-98.082	37.714	52.983	-99.287	-92.223	-91.387	-84.370	32.710	-85.620	-8191	255	
1054.467	1	1	0	0	0.07667	0.15558	0.098972	0.044359	0.11905	0.20203	0.043983	0.10665	0.093669	0.12765	0.13158	0.071643	0.15361	0.17023	0.23768	0.22915	-2.5083	-3.7146	-3.4146	-3.0062	-3.7438	-3.0687	-3.5	-3.6146	-2.7646	-3.5563	-3.4062	-2.85	-3.7396	-3.0792	-3.2771	-3.6521	28.990	-71.213	24.366	-43.526	82.503	65.191	194.170	178.583	-100.991	118.756	-112.781	172.474	127.927	103.935	53.621	236.141	0.00028267	0.00022987	7.658e-05	793.16	2.1979e-06	2.3767e-06	871.31	158.15	4.1245e-06	1.2288e-06	205.99	58.284	45.178	13.258	2.9063e-06	18.72	0.00021857	8.5581e-05	3.756e-05	795.63	1.2904e-06	1.4222e-06	876.11	160.33	1.941e-06	7.0833e-07	208.33	59.653	46.222	13.642	1.6548e-06	19.356	52.748	-31.787	-3.137	-106.688	25.564	31.813	-106.599	-99.111	4.171	60.917	-99.889	-92.794	-92.260	-84.680	36.577	-85.710	-8191	255	
1054.539	1	1	0	0	0.05741	0.45862	0.21481	0.10331	0.12822	0.093332	0.057219	0.22465	0.087931	0.15459	0.083433	0.22485	0.32771	0.26166	0.056311	0.18442	-2.4583	-3.5875	-3.35	-3.0958	-3.625	-3.0875	-3.2313	-3.8479	-2.9958	-3.6208	-3.4229	-2.725	-3.7917	-3.1562	-3.1708	-3.7021	80.425	118.969	-70.512	227.101	-11.268	211.638	195.493	185.981	155.498	211.109	226.607	20.740	-44.472	83.266	201.349	209.402	0.00027513	0.00018557	8.2638e-05	789.5	1.526e-06	1.973e-06	869.55	158.45	3.4639e-06	2.4969e-06	206.2	58.27	45.243	13.11	2.2746e-06	18.711	0.00021349	6.8961e-05	2.9349e-05	794.52	1.1118e-06	1.0276e-06	876.28	160.48	2.2189e-06	1.0129e-06	208.22	59.394	46.095	13.563	1.4733e-06	19.405	70.789	-24.171	-29.680	-107.168	10.993	19.664	-107.270	-99.648	11.019	45.177	-100.333	-93.418	-92.592	-85.062	31.333	-86.076	-8191	255	
1054.660	1	1	0	0	0.16153	0.054125	0.14423	0.16459	0.16148	0.054563	0.15143	0.098517	0.058689	0.13221	0.090875	0.096301	0.22835	0.15938	0.04165	0.048887	-2.4813	-3.3042	-3.4104	-2.8958	-3.5042	-3.1437	-3.2125	-3.7292	-2.9792	-3.3917	-3.5146	-2.9208	-3.6958	-3.2271	-3.1396	-3.7833	-50.092	133.519	140.725	203.949	44.124	105.574	93.991	144.055	149.351	-29.326	30.444	-55.801	-38.024	170.749	118.164	-54.358	0.00028148	0.0002543	6.3845e-05	788.13	2.3292e-06	2.6696e-06	870.57	158.08	2.1298e-06	2.5017e-06	204.13	57.765	45.097	13.143	2.5768e-06	18.809	0.00021138	0.00014055	3.245e-05	792.94	1.4071e-06	1.2498e-06	877	159.98	2.08e-06	1.1322e-06	207.29	59.469	46.046	13.596	1.7207e-06	19.388	57.293	-39.518	-30.580	-107.162	23.547	24.319	-107.179	-99.249	-11.132	41.280	-99.564	-93.375	-93.005	-85.207	15.075	-85.402	-8191	255	
1054.754	1	1	0	0	0.064797	0.10006	0.10228	0.083813	0.16159	0.22452	0.076425	0.22207	0.23186	0.15894	0.16273	0.29975	0.20853	0.16509	0.050366	0.020394	-2.5229	-3.3854	-3.6875	-2.8729	-3.675	-3.2917	-3.0438	-3.8396	-3.025	-3.3229	-3.6333	-3.025	-3.5833	-3.5542	-3.0646	-3.7896	196.104	226.233	-58.852	93.542	114.088	164.418	122.881	136.500	95.816	183.986	160.218	216.002	-61.051	76.250	-47.482	-92.439	0.00026415	0.0001837	7.026e-05	798.86	1.9483e-06	3.104e-06	867.19	157.41	2.9467e-06	2.5691e-06	204.35	58.236	44.643	13.213	1.5974e-06	18.782	0.00020869	0.00014886	1.5635e-05	797.72	1.3613e-06	1.6356e-06	876.12	160.17	1.8503e-06	1.446e-06	207.81	59.673	45.903	13.607	1.48e-06	19.452	62.489	-27.636	-40.565	-106.714	35.788	36.516	-106.958	-99.087	-2.188	43.824	-99.745	-93.158	-92.375	-85.589	18.345	-85.783	-8191	255	
1054.850	1	1	0	0	0.22948	0.23783	0.031788	0.14585	0.12834	0.064124	0.049156	0.093676	0.11086	0.12958	0.16986	0.091842	0.17728	0.2831	0.35838	0.23488	-2.6146	-3.0875	-3.6083	-2.8667	-3.425	-3.4708	-2.7938	-3.6979	-3.4313	-3.1437	-3.7646	-2.9792	-3.5604	-3.4	-2.8792	-3.6667	137.131	-83.414	97.484	237.132	141.905	124.048	205.241	72.377	-24.412	-21.624	138.917	223.846	191.893	-107.556	75.626	-81.463	0.00026657	0.00016203	5.3477e-05	792.16	2.1534e-06	1.3244e-06	868.11	157.84	3.9996e-06	1.8607e-06	204.56	58.235	45.445	13.231	2.0977e-06	18.708	0.00021295	0.00017422	2.6248e-05	795.07	1.6551e-06	7.5023e-07	875.33	160.24	2.0168e-06	1.4772e-06	207.81	59.555	46.166	13.584	1.4626e-06	19.428	60.741	-14.431	-24.710	-107.038	35.486	24.893	-107.140	-98.879	4.184	44.157	-99.891	-93.239	-92.560	-84.996	7.854	-86.110	-8191	255	
1054.971	1	1	0	0	0.29246	0.18366	0.093841	0.2252	0.16931	0.28381	0.13532	0.19808	0.090966	0.14325	0.092223	0.31897	0.2001	0.086514	0.1743	0.062507	-3.0187	-3.0687	-3.5896	-2.8104	-3.3792	-3.3979	-3.0729	-3.85	-3.2	-2.9688	-3.7562	-3.0792	-3.1708	-3.3875	-2.9458	-3.5021	-46.514	-109.012	-60.178	-107.634	49.404	-71.834	-84.773	187.152	240.046	217.949	104.541	164.705	15.014	194.748	231.096	145.881	0.00028992	0.00025566	8.4964e-05	788	2.4269e-06	2.0412e-06	863.32	158.35	2.4438e-06	3.0663e-06	205.89	58.222	44.514	13.285	2.785e-06	18.676	0.00019124	0.00016344	2.1706e-05	793.58	1.6507e-06	9.0845e-07	874.74	160.64	1.9513e-06	1.657e-06	208.11	59.61	45.846	13.654	1.9398e-06	19.422	56.169	-8.092	-23.572	-107.229	4.419	51.915	-107.114	-99.688	6.067	27.407	-100.413	-93.194	-93.193	-85.288	21.681	-85.772	-8191	255	
1055.067	1	1	0	0	0.28871	0.063794	0.14469	0.043093	0.19881	0.13843	0.31081	0.02683	0.018212	0.065114	0.14493	0.14389	0.075367	0.090291	0.20592	0.14223	-2.9	-2.9354	-3.6583	-2.9875	-3.2875	-3.6875	-3.0667	-3.6979	-3.3604	-2.9896	-3.8563	-3.0833	-3.0354	-3.5354	-2.7812	-3.6083	28.573	57.097	-31.745	240.593	18.357	214.918	154.200	99.605	77.832	-16.404	86.297	-7.324	153.714	-65.277	-43.756	202.172	0.00028994	0.0002124	4.686e-05	794.54	2.1928e-06	2.3796e-06	869.26	157.26	2.742e-06	2.1322e-06	204.48	58.105	44.716	13.262	2.0002e-06	18.757	0.00019936	0.0001385	1.5068e-05	796.39	1.4632e-06	7.6978e-07	877.18	160.08	1.6596e-06	1.4992e-06	207.76	59.504	45.984	13.631	1.6978e-06	19.397	58.859	-25.444	-44.939	-106.937	59.562	31.772	-107.041	-99.318	7.947	43.838	-100.084	-93.212	-92.902	-86.136	26.503	-86.592	-8191	255	
1055.139	1	1	0	0	0.063846	0.085824	0.02219	0.20537	0.087137	0.10978	0.11381	0.094901	0.16261	0.11402	0.22409	0.11248	0.06514	0.21765	0.16906	0.17658	-2.9604	-2.9813	-3.5021	-3.1104	-3.025	-3.6771	-2.9771	-3.5896	-3.5729	-2.9667	-3.7062	-3.3875	-3.0687	-3.7604	-2.9708	-3.375	16.254	-69.577	205.551	104.486	-66.689	-20.187	110.602	136.661	-73.279	-53.087	156.685	119.571	-86.595	-46.087	205.818	-113.862	0.00031384	0.00019381	7.7982e-05	786.73	1.8356e-06	1.8351e-06	870.7	157.88	2.9214e-06	2.7881e-06	204.44	58.343	45.105	13.179	2.4291e-06	18.636	0.000195	0.00019507	2.9131e-05	794.04	1.9105e-06	4.7467e-07	877.2	160.17	1.601e-06	1.3671e-06	208.28	59.523	46.068	13.586	1.636e-06	19.35	65.229	-38.910	-28.607	-107.637	21.791	16.074	-107.751	-99.981	2.804	30.287	-100.411	-93.763	-93.150	-85.935	21.980	-86.574	-8191	255	
1055.235	1	1	0	0	0.097142	0.047216	0.15014	0.04841	0.23828	0.14559	0.28264	0.20752	0.17024	0.28089	0.16145	0.24997	0.089901	0.078879	0.073846	0.087355	-3.1604	-2.6771	-3.5146	-3.1813	-3.1	-3.5979	-3.0792	-3.3	-3.4583	-2.9833	-3.4938	-3.3708	-3.1333	-3.6562	-2.9813	-3.3917	179.000	203.907	176.667	-42.798	-26.839	90.030	231.975	197.110	203.443	-47.117	119.249	220.333	195.312	13.174	-3.943	-55.522	0.00032843	0.0002513	6.7645e-05	793.08	1.9124e-06	2.789e-06	870.42	158.37	3.5582e-06	2.174e-06	205.28	58.048	45.054	13.274	2.0487e-06	18.807	0.00019799	0.00015498	2.7427e-05	796.07	1.8913e-06	7.3423e-07	875.47	160.2	1.7102e-06	1.6185e-06	208.56	59.497	46.042	13.648	1.6454e-06	19.475	63.556	-40.123	-26.462	-107.438	11.288	31.807	-107.688	-100.052	-3.265	44.098	-100.551	-94.007	-93.430	-85.709	25.780	-86.217	-8191	255	
1055.331	1	1	0	0	0.05336	0.25236	0.16838	0.22443	0.16423	0.26207	0.29954	0.040311	0.12667	0.14503	0.15869	0.12244	0.10604	0.16665	0.10867	0.31052	-3.1958	-2.6771	-3.5104	-3.5417	-2.9437	-3.6771	-3.2021	-3.1292	-3.725	-3.0438	-3.575	-3.55	-2.7188	-3.7479	-3.0792	-3.1083	-47.153	192.418	179.544	121.265	240.723	121.900	149.732	29.306	145.391	155.204	44.722	145.329	136.870	110.525	-10.288	168.318	0.00027572	0.00022995	4.9405e-05	792.18	2.3044e-06	2.0257e-06	874.16	158.37	3.7358e-06	1.938e-06	206.33	58.221	45.411	13.209	2.2704e-06	18.874	0.00019192	0.00017437	2.3147e-05	797.65	2.0818e-06	7.6978e-07	876.79	160.54	1.5964e-06	1.2845e-06	208.08	59.531	46.095	13.579	1.4626e-06	19.414	63.642	-20.192	-32.340	-107.947	31.891	34.225	-107.479	-99.785	-13.215	24.669	-100.282	-93.644	-93.349	-85.495	42.862	-86.801	-8191	255	
1055.452	1	1	0	0	0.17164	0.25213	0.30725	0.070312	0.04612	0.19933	0.076625	0.055304	0.15085	0.22427	0.21592	0.073552	0.12228	0.27623	0.31349	0.2272	-3.2521	-2.8354	-3.3312	-3.4792	-2.8521	-3.6125	-3.2792	-3.0229	-3.725	-2.95	-3.3521	-3.6063	-2.8563	-3.7708	-3.2875	-3.0479	-50.736	181.315	6.560	78.146	10.981	15.339	-82.845	145.353	80.979	153.467	188.858	233.086	-75.443	43.588	-40.554	177.418	0.00031865	0.00019804	6.3008e-05	795.82	1.7246e-06	2.8331e-06	874.01	158.63	3.6583e-06	2.1333e-06	203.97	58.404	45.04	13.183	2.7309e-06	18.889	0.00018752	0.00016096	3.4284e-05	796.46	1.7053e-06	1.0205e-06	878.09	160.68	1.6286e-06	1.1396e-06	207.63	59.62	45.971	13.567	1.2139e-06	19.449	59.751	-33.159	-36.356	-107.411	32.959	36.865	-107.521	-99.613	-19.546	41.036	-100.370	-93.803	-92.799	-85.876	19.568	-86.122	-8191	255	
1055.548	1	1	0	0	0.11013	0.17397	0.27939	0.1422	0.084264	0.27626	0.14826	0.12768	0.15407	0.21989	0.18403	0.098437	0.13004	0.13945	0.23613	0.25386	-3.3979	-3.0021	-3.1083	-3.5708	-2.8563	-3.5229	-3.5396	-2.9625	-3.6958	-2.9958	-3.2917	-3.6583	-2.9188	-3.6167	-3.4562	-2.8896	-93.537	193.717	236.975	1.396	46.144	-46.761	136.581	240.600	-54.916	18.407	-115.501	234.008	-111.017	63.158	141.048	220.648	0.00029335	0.00024204	7.4707e-05	798.73	2.1332e-06	2.5405e-06	874.69	157.77	2.6382e-06	2.2342e-06	205.11	58.312	45.182	13.28	2.975e-06	18.829	0.00018796	0.00013238	3.9438e-05	798.22	1.9046e-06	1.2213e-06	878.12	160.15	1.454e-06	1.5781e-06	208.43	59.657	46.187	13.613	1.3859e-06	19.426	61.719	-48.238	-24.251	-107.267	28.465	36.077	-107.435	-99.560	-4.058	36.485	-100.028	-93.490	-92.899	-85.962	35.855	-86.023	-8191	255	
1055.644	1	1	0	0	0.10523	0.21443	0.089321	0.06194	0.20874	0.1447	0.26707	0.14397	0.3375	0.054071	0.056732	0.048204	0.10576	0.15814	0.28332	0.20915	-3.3063	-3.0083	-2.9229	-3.5854	-2.8104	-3.3771	-3.4437	-3.0104	-3.7042	-3.2792	-3.1	-3.7562	-2.9208	-3.3312	-3.5896	-2.8708	138.016	76.000	-90.020	25.341	199.174	93.983	135.928	-102.437	117.618	213.782	19.767	135.277	46.212	-9.544	130.073	2.997	0.00027814	0.00023303	9.0279e-05	798.12	1.6685e-06	2.3984e-06	876.71	158	4.0869e-06	2.5789e-06	203.67	58.35	45.097	13.204	1.5853e-06	18.939	0.00018997	0.000142	4.446e-05	800.47	1.7983e-06	9.3512e-07	879.36	160.42	1.6401e-06	1.2662e-06	208.16	59.674	46.2	13.635	1.2555e-06	19.496	62.184	-31.167	-23.778	-107.427	51.791	56.697	-107.182	-99.548	4.886	34.865	-100.061	-93.472	-92.794	-85.103	11.877	-85.746	-8191	255	
1055.740	1	1	0	0	0.11938	0.12869	0.13352	0.24966	0.31707	0.11463	0.10015	0.20768	0.1498	0.11019	0.18607	0.071616	0.16608	0.0931	0.10519	0.17567	-3.0812	-3.3021	-2.9	-3.6333	-3.0625	-3.4042	-3.4875	-2.8187	-3.6125	-3.4542	-2.7792	-3.7313	-3.0271	-3.3271	-3.5396	-2.9333	-48.303	-4.860	12.065	-30.192	106.606	137.687	133.661	224.841	148.859	-96.641	-17.089	197.044	105.911	163.436	-34.592	142.152	0.00028576	0.00022251	7.6736e-05	800.98	1.4098e-06	2.2979e-06	874.24	158.93	2.5946e-06	2.5715e-06	205.92	58.931	45.203	13.293	2.2741e-06	18.925	0.00020229	0.0001611	4.398e-05	800.5	1.6256e-06	1.1022e-06	879.76	160.56	1.5413e-06	1.2093e-06	208.75	59.857	46.245	13.663	1.2824e-06	19.467	62.129	-31.759	-24.939	-107.395	23.904	45.148	-107.359	-99.591	16.362	36.037	-99.969	-93.323	-93.014	-85.777	48.358	-86.049	-8191	255	
1055.836	1	1	0	0	0.25626	0.17292	0.071265	0.21486	0.32479	0.11851	0.15186	0.34238	0.13166	0.038844	0.24612	0.07515	0.20362	0.15887	0.15519	0.077545	-3.1542	-3.3583	-2.8937	-3.6354	-3.0958	-3.0896	-3.6708	-3	-3.5438	-3.2875	-2.9021	-3.6813	-3.1792	-3.0229	-3.5896	-2.9917	112.130	-19.884	59.001	96.218	60.093	150.123	-107.333	178.876	109.018	-48.044	-86.852	-68.640	179.256	236.613	-95.003	-21.744	0.00026977	0.00031437	6.8353e-05	794.97	2.5547e-06	2.1314e-06	876.91	157.9	2.9965e-06	1.3861e-06	206.99	58.4	45.062	13.281	2.9196e-06	18.796	0.00020904	0.00012976	4.1927e-05	800.36	1.9105e-06	1.4293e-06	880	160.25	1.593e-06	9.8726e-07	208.99	59.605	46.064	13.617	1.515e-06	19.44	53.272	-34.837	-18.510	-107.284	22.954	27.228	-107.113	-99.538	3.242	55.903	-100.104	-93.352	-93.276	-85.522	21.617	-86.107	-8191	255	
1055.932	1	1	0	0	0.21538	0.03866	0.074239	0.10659	0.17059	0.22849	0.02442	0.035663	0.15858	0.12909	0.068772	0.20587	0.034994	0.22564	0.1431	0.094181	-2.9917	-3.475	-2.9521	-3.6604	-3.1312	-3.1333	-3.85	-3.0583	-3.3792	-3.5458	-2.9854	-3.7083	-3.2188	-3.0271	-3.6	-2.8375	-2.099	-116.613	48.779	65.175	45.868	173.522	64.525	241.176	-10.537	-108.446	230.620	207.347	-11.258	148.940	118.566	62.303	0.00031015	0.00019166	7.0672e-05	801.18	2.202e-06	2.4731e-06	876.97	158.99	4.4687e-06	2.1474e-06	205.31	58.678	45.507	13.272	3.3665e-06	18.874	0.00019456	0.00010308	4.4853e-05	798.49	1.5444e-06	1.728e-06	881.4	160.44	1.8262e-06	9.0284e-07	208.13	59.833	46.055	13.597	1.3013e-06	19.47	64.945	-17.410	-31.070	-107.048	29.331	41.063	-107.158	-99.276	-6.936	46.637	-100.069	-92.896	-93.047	-84.743	11.014	-86.504	-8191	255	
1056.051	1	1	0	0	0.27346	0.091626	0.08491	0.23156	0.18478	0.097222	0.25608	0.11802	0.025577	0.092594	0.053872	0.05365	0.47384	0.044759	0.12661	0.06333	-2.9188	-3.3354	-2.8292	-3.4396	-3.2729	-2.9771	-3.8688	-3.025	-3.2042	-3.6708	-3.1312	-3.6875	-3.1854	-3.0917	-3.7854	-3.1458	49.206	122.351	101.310	-59.863	125.701	71.256	173.036	82.368	218.437	-51.849	159.148	5.612	-23.709	178.425	26.137	206.377	0.00029099	0.0002216	7.4956e-05	802.16	2.3148e-06	2.4503e-06	871.14	158.92	3.8967e-06	2.859e-06	206.13	58.717	45.337	13.204	2.439e-06	18.891	0.00021148	0.00011255	4.9003e-05	801.36	1.7909e-06	1.392e-06	880.41	160.55	2.0846e-06	8.4596e-07	208.59	59.748	46.137	13.603	1.2972e-06	19.466	67.951	-37.269	-18.792	-107.207	26.539	36.526	-107.012	-99.326	1.576	36.152	-99.737	-92.844	-92.781	-85.446	8.677	-86.182	-8191	255	
1056.147	1	1	0	0	0.16412	0.065516	0.089884	0.18087	0.33989	0.16365	0.11645	0.1061	0.15454	0.21602	0.29093	0.18796	0.13232	0.20052	0.24354	0.095432	-2.8646	-3.7083	-2.7562	-3.6688	-3.5167	-2.9979	-3.7146	-3.0917	-3.3104	-3.6708	-3.0312	-3.475	-3.6562	-2.9833	-3.6896	-3.2188	-3.803	226.326	150.434	-105.905	23.412	219.402	232.164	198.897	31.640	29.824	-87.234	227.179	128.252	116.014	-70.812	-99.397	0.00028759	0.00017967	5.803e-05	802.79	1.7204e-06	1.6904e-06	879.46	158.5	2.0672e-06	2.3618e-06	206.68	58.308	45.46	13.223	2.7235e-06	18.931	0.00021011	8.4706e-05	4.6513e-05	802.09	1.4381e-06	1.4667e-06	880.65	160.41	2.1179e-06	9.1569e-07	208.34	59.675	46.238	13.631	9.1545e-07	19.452	61.729	-14.308	-28.516	-106.739	12.005	32.973	-106.858	-99.300	-3.693	23.055	-99.362	-92.751	-91.887	-84.420	23.993	-86.093	-8191	255	
1056.244	1	1	0	0	0.21178	0.16036	0.10429	0.1448	0.10137	0.12297	0.07286	0.20621	0.099491	0.096017	0.047519	0.21219	0.033616	0.19521	0.07183	0.054867	-2.7375	-3.7062	-2.8979	-3.4	-3.6063	-2.8333	-3.7146	-3.4729	-3.0458	-3.5917	-2.8604	-3.4271	-3.7292	-3.0563	-3.5792	-3.4979	198.859	229.938	147.948	-45.758	-110.204	-36.970	-29.942	22.274	68.019	47.321	130.007	220.896	-60.541	190.807	197.940	27.702	0.00028142	0.00015744	7.0332e-05	801.68	1.7063e-06	2.5042e-06	877.85	158.18	2.748e-06	2.6183e-06	206.38	58.461	45.152	13.226	3.4748e-06	18.887	0.0002108	5.8172e-05	3.2013e-05	800.97	1.3022e-06	1.8133e-06	880.69	160.46	1.9077e-06	7.5604e-07	208.56	59.865	46.1	13.639	1.1977e-06	19.433	63.475	-2.614	-21.516	-106.934	25.129	48.390	-106.417	-98.976	-23.229	40.326	-99.217	-92.468	-91.951	-84.336	37.958	-84.529	-8191	255	
1056.340	1	1	0	0	0.14212	0.09212	0.3205	0.10202	0.18589	0.14184	0.021761	0.018429	0.29133	0.22687	0.32724	0.29775	0.36682	0.26422	0.067589	0.2697	-2.6271	-3.6813	-3.1312	-3.4146	-3.6979	-2.8104	-3.6792	-3.6813	-2.8646	-3.7146	-3.2083	-3.1292	-3.6833	-3.1833	-3.4479	-3.7229	-100.415	122.456	-10.690	-44.145	192.009	170.905	75.909	68.397	165.831	10.706	-28.552	117.859	-33.685	214.906	201.058	120.238	0.00029747	0.00026443	5.1807e-05	795.83	2.1683e-06	2.3839e-06	876.98	158.95	3.1082e-06	2.3282e-06	205.16	58.726	45.007	13.189	2.3678e-06	18.851	0.00021002	9.0538e-05	3.0397e-05	799.04	1.3583e-06	1.4631e-06	880.65	160.54	2.134e-06	7.0649e-07	208.12	59.698	46.103	13.591	1.3228e-06	19.415	67.742	-16.397	-38.669	-106.086	36.265	40.347	-105.732	-98.135	-14.092	40.434	-98.398	-92.022	-91.537	-83.634	18.435	-84.779	-8191	255	
1056.436	1	1	0	0	0.19798	0.13056	0.10624	0.094373	0.20633	0.071069	0.18715	0.21633	0.25355	0.24829	0.054085	0.10949	0.12864	0.24181	0.084114	0.12875	-2.5271	-3.8479	-3.2896	-3.2729	-3.7562	-3.0479	-3.6167	-3.5938	-3.0625	-3.725	-3.3229	-3.1188	-3.5792	-2.8917	-3.4229	-3.4625	6.223	-86.349	-21.303	-3.217	-42.060	225.068	184.891	-100.339	218.289	172.917	157.602	-36.589	-111.409	-46.009	141.027	164.343	0.00028052	0.00023588	5.3498e-05	793.09	1.7368e-06	3.2235e-06	876.73	159.15	3.2125e-06	1.8371e-06	206.65	58.619	45.69	13.367	2.0154e-06	18.906	0.00021711	8.6456e-05	3.0572e-05	798.47	1.472e-06	1.4987e-06	881.15	160.64	2.1753e-06	6.753e-07	208.55	59.797	46.448	13.701	1.4128e-06	19.451	61.090	-25.380	-6.196	-105.391	14.402	39.091	-104.980	-97.650	3.356	43.530	-98.140	-91.306	-90.915	-83.066	38.212	-84.584	-8191	255	
1056.532	1	1	0	0	0.33994	0.15871	0.20872	0.32167	0.15486	0.23716	0.2158	0.13864	0.22464	0.10343	0.25014	0.24899	0.083564	0.2563	0.13928	0.15074	-2.6854	-3.6729	-3.1917	-2.9542	-3.7854	-3.0625	-3.4792	-3.7	-2.7979	-3.5833	-3.4729	-2.9729	-3.8063	-3.1083	-3.3	-3.5479	220.612	12.809	210.716	204.930	-14.274	-69.705	195.238	240.007	116.289	2.563	195.770	-46.231	-39.079	-87.615	70.951	44.789	0.00030279	0.00023236	5.8123e-05	798.21	2.647e-06	2.6096e-06	874.71	158.95	2.8346e-06	2.8373e-06	204.84	58.575	45.027	13.314	2.3995e-06	18.871	0.00021041	0.0001388	1.8649e-05	799.54	1.4897e-06	1.3333e-06	880.16	160.59	2.3418e-06	9.0101e-07	208.48	59.665	46.201	13.64	1.5257e-06	19.481	66.222	-28.309	-13.661	-105.208	41.748	36.438	-105.249	-97.819	21.557	50.003	-97.875	-91.309	-91.113	-83.741	42.866	-83.651	-8191	255	
1056.653	1	1	0	0	0.067933	0.21706	0.15468	0.13921	0.23765	0.11473	0.075996	0.092454	0.16989	0.10042	0.21661	0.090432	0.1235	0.20006	0.078075	0.18237	-2.4271	-3.4125	-3.6271	-2.9292	-3.6813	-3.1604	-3.2646	-3.7333	-2.9875	-3.5875	-3.5021	-2.9167	-3.5438	-3.2771	-3.175	-3.8354	-95.827	-31.804	169.111	190.676	44.168	-75.078	-112.715	116.924	-31.757	-2.843	148.603	203.408	0.849	-6.977	-79.170	-68.696	0.00026006	0.00030615	7.9004e-05	801.03	2.084e-06	3.0179e-06	876.36	159.29	4.2199e-06	1.6912e-06	206.16	58.872	45.301	13.215	1.8463e-06	18.905	0.00021378	0.00014186	3.2188e-05	799.99	1.3111e-06	1.5005e-06	880.39	160.38	1.9755e-06	8.8266e-07	208.43	59.749	46.159	13.634	1.4935e-06	19.494	59.625	-27.425	-29.807	-105.338	37.279	27.596	-105.080	-97.354	-1.203	44.440	-98.419	-91.320	-90.903	-83.096	19.805	-83.815	-8191	255	
1056.749	1	1	0	0	0.15358	0.23821	0.16428	0.20029	0.07458	0.19579	0.19555	0.025338	0.30245	0.14148	0.12595	0.07282	0.14603	0.16041	0.1619	0.21454	-2.5604	-3.3646	-3.5521	-2.975	-3.6875	-3.3187	-3.2854	-3.9708	-2.9813	-3.3479	-3.7167	-2.8333	-3.7917	-3.2479	-2.9646	-3.6708	110.474	-59.446	62.169	83.188	-32.566	25.220	57.091	34.232	-0.974	238.281	-12.423	34.155	-28.396	81.059	-31.730	-102.143	0.00026938	0.0002295	6.7858e-05	798.5	1.5453e-06	2.2506e-06	878.24	159.11	2.2312e-06	2.4972e-06	205.91	58.603	44.987	13.254	2.1831e-06	18.937	0.00020356	0.00013807	2.0789e-05	800.29	1.3642e-06	8.3023e-07	881.96	160.79	1.902e-06	1.1873e-06	208.78	59.917	46.166	13.618	1.5755e-06	19.524	55.892	-23.916	-35.128	-105.262	11.946	50.643	-104.988	-97.234	-15.063	28.709	-98.252	-91.267	-91.138	-83.402	38.741	-84.183	-8191	255	
1056.843	1	1	0	0	0.14956	0.13523	0.1611	0.098182	0.10878	0.14231	0.29548	0.11704	0.15315	0.138	0.0856	0.094011	0.20258	0.25418	0.35586	0.014074	-2.7625	-3.2021	-3.65	-3.0896	-3.5854	-3.3667	-3.0229	-3.7875	-3.2438	-3.2729	-3.7917	-2.95	-3.7625	-3.5167	-2.8917	-3.7875	172.086	227.617	111.882	202.726	132.777	-98.473	215.806	159.889	7.374	106.715	-7.487	68.740	-49.102	110.365	132.291	-32.111	0.00029884	0.00025392	7.8178e-05	791.2	2.2092e-06	3.0661e-06	877.96	158.86	3.0248e-06	2.1885e-06	206.94	58.73	45.278	13.277	2.4035e-06	19.055	0.00020972	0.00012567	2.2798e-05	798.71	1.444e-06	1.0382e-06	881.56	160.55	1.794e-06	1.2772e-06	208.53	59.874	46.205	13.633	1.7341e-06	19.505	58.402	-19.129	-17.640	-105.287	24.498	41.808	-105.273	-97.720	4.536	22.333	-97.871	-91.298	-90.717	-83.433	28.387	-84.675	-8191	255	
1056.939	1	1	0	0	0.18134	0.13207	0.12745	0.22801	0.13551	0.15451	0.13445	0.30566	0.11902	0.126	0.16813	0.1542	0.10417	0.25144	0.22401	0.14118	-2.8625	-3.1958	-3.7417	-2.9583	-3.4875	-3.5	-2.9896	-3.8271	-3.1958	-3.1437	-3.7458	-3.0563	-3.2625	-3.525	-2.9729	-3.6333	82.665	29.328	93.325	-64.009	-40.943	193.543	-68.735	43.010	-2.361	57.944	216.677	191.616	201.688	3.656	3.697	168.530	0.00030613	0.00018298	7.9535e-05	806.82	2.6564e-06	1.8216e-06	875.2	158.22	2.8873e-06	1.5929e-06	206.08	58.472	45.33	13.296	2.102e-06	18.941	0.00019271	0.00013063	2.7777e-05	804.17	1.4676e-06	9.5467e-07	880.52	160.31	1.8962e-06	1.1157e-06	208.23	59.811	46.255	13.642	1.7879e-06	19.484	62.430	-42.303	-13.105	-105.410	21.718	37.147	-105.504	-97.772	6.599	13.386	-98.551	-92.136	-91.153	-83.672	-5.500	-84.528	-8191	255	
1057.013	1	1	0	0	0.21901	0.23667	0.098053	0.18924	0.14153	0.25053	0.15171	0.15304	0.18889	0.17471	0.19331	0.1707	0.13179	0.17592	0.16277	0.21744	-3.075	-3.025	-3.8187	-3.0542	-3.4396	-3.5875	-3.0208	-3.6396	-3.3458	-3.0854	-3.7042	-3.0646	-3.2792	-3.7229	-2.8458	-3.6583	103.741	163.863	105.626	131.688	90.867	181.847	234.260	221.919	127.911	80.175	53.711	115.438	-4.243	-83.900	-58.026	195.321	0.00028868	0.00026921	8.0394e-05	797.25	2.2059e-06	2.269e-06	876.46	158.92	2.9433e-06	2.4859e-06	206.15	58.478	45.517	13.336	2.5591e-06	18.863	0.000213	0.00015367	2.9262e-05	798.18	1.5444e-06	1.0293e-06	879.33	160.81	2.0237e-06	1.6148e-06	208.65	59.846	46.214	13.671	1.8806e-06	19.486	65.008	-19.904	-18.593	-105.780	30.672	14.518	-105.881	-98.132	6.737	41.578	-98.755	-91.992	-91.954	-84.426	34.289	-85.030	-8191	255	
1057.132	1	1	0	0	0.069537	0.10141	0.14703	0.20703	0.29449	0.11835	0.39947	0.02491	0.29854	0.068307	0.068521	0.11973	0.051186	0.1267	0.11797	0.21599	-3.1083	-2.9188	-3.55	-3.2354	-3.325	-3.6167	-3.3708	-3.5333	-3.5708	-2.8771	-3.7313	-3.2833	-3.1	-3.7542	-2.85	-3.2292	-4.064	-30.565	0.522	221.258	-14.166	94.525	103.510	6.906	26.993	124.267	141.267	164.026	103.488	163.525	-83.753	89.094	0.00032178	0.00021511	6.3201e-05	794.22	1.6406e-06	2.2348e-06	873.91	159.36	3.2056e-06	2.2849e-06	204.79	58.79	45.446	13.244	2.35e-06	18.929	0.00021129	0.00016504	2.0527e-05	798.96	1.63e-06	8.4623e-07	879.28	160.75	1.7193e-06	1.446e-06	208.04	59.906	46.315	13.626	1.8027e-06	19.454	69.301	-34.998	-30.058	-106.047	26.916	42.767	-105.973	-98.347	14.145	46.381	-98.934	-92.236	-91.806	-84.448	23.471	-85.315	-8191	255	
1057.228	1	1	0	0	0.35791	0.15644	0.016464	0.15057	0.10093	0.1411	0.15262	0.043751	0.20176	0.24094	0.18589	0.13275	0.17405	0.27275	0.28785	0.10886	-3.1604	-2.6667	-3.5	-3.0958	-3.1208	-3.8063	-3.0812	-3.2833	-3.4521	-2.9354	-3.7687	-3.3208	-3.0438	-3.5354	-2.8417	-3.3458	138.634	95.219	59.735	97.201	-88.136	169.625	236.776	-75.057	5.650	199.654	151.460	-59.750	182.059	224.948	54.940	176.181	0.00027388	0.00019051	0.00010034	796.63	2.8855e-06	2.7284e-06	876.01	158.64	2.5672e-06	2.9959e-06	205.41	58.443	45.273	13.285	1.6687e-06	18.853	0.00019911	0.00016898	3.3192e-05	798.61	1.9873e-06	6.2756e-07	879.54	160.63	1.7044e-06	1.9011e-06	208.23	59.89	46.163	13.647	1.6817e-06	19.466	67.354	-6.781	-23.136	-106.080	41.396	32.391	-106.118	-97.830	35.624	15.243	-98.386	-91.854	-90.953	-83.594	39.028	-83.901	-8191	255	
1057.324	1	1	0	0	0.17563	0.16923	0.25616	0.084807	0.14876	0.33544	0.15457	0.097006	0.26519	0.28423	0.10195	0.23079	0.23169	0.2748	0.30899	0.1287	-3.0917	-2.8042	-3.5646	-3.2958	-2.9313	-3.7458	-3.0812	-3.3708	-3.625	-2.9667	-3.3542	-3.3292	-2.875	-3.6312	-3.1104	-3.2021	-78.075	-89.107	-83.277	-9.977	55.941	47.174	-108.517	189.598	-2.451	21.407	95.353	-85.278	-72.373	-77.661	41.616	219.943	0.00031515	0.00018964	6.194e-05	807.15	1.9788e-06	2.6184e-06	876.16	158.57	3.5049e-06	2.5548e-06	206.03	58.67	45.324	13.325	2.7068e-06	18.669	0.00019163	0.00016139	2.3235e-05	801.69	2.0272e-06	7.8223e-07	879.59	160.55	1.5654e-06	1.4717e-06	208.88	59.894	46.28	13.646	1.6871e-06	19.438	64.027	-9.016	-23.036	-105.499	33.329	45.613	-105.747	-97.842	2.206	29.355	-98.454	-91.618	-91.239	-83.710	34.860	-84.014	-8191	255	
1057.420	1	1	0	0	0.10727	0.15459	0.11692	0.10575	0.13878	0.094065	0.1264	0.048358	0.066326	0.22778	0.060856	0.058458	0.090234	0.13349	0.17869	0.07485	-3.35	-2.7958	-3.4792	-3.3875	-2.8771	-3.8771	-3.3417	-3.2729	-3.5396	-3.0521	-3.3729	-3.6188	-2.8521	-3.5417	-3.3417	-3.0208	-56.279	196.371	-110.166	223.021	76.694	110.747	-106.492	195.074	-9.899	195.907	43.856	172.556	-32.702	242.095	-8.979	84.522	0.0003039	0.00021434	5.0646e-05	796.15	2.5899e-06	2.501e-06	874.46	158.91	3.0215e-06	2.1907e-06	205.23	58.222	44.851	13.205	2.7415e-06	18.995	0.00020532	0.00019012	3.411e-05	798.47	2.2206e-06	1.0898e-06	878.29	160.8	1.5517e-06	1.1708e-06	208.79	59.678	46.098	13.677	1.5405e-06	19.538	62.879	-44.165	-25.473	-105.856	36.064	34.251	-105.922	-98.134	-2.066	53.369	-98.337	-92.408	-92.428	-85.314	23.726	-85.760	-8191	255	
1057.541	1	1	0	0	0.27121	0.24379	0.1343	0.12169	0.041055	0.18587	0.25113	0.1403	0.26612	0.082441	0.17859	0.080785	0.46326	0.20439	0.33402	0.19709	-3.3187	-3.0229	-3.2396	-3.4792	-2.9292	-3.7667	-3.475	-3.1646	-3.7604	-2.9708	-3.3479	-3.5625	-2.9146	-3.5583	-3.3625	-3.0646	217.124	-65.237	194.242	133.405	-111.822	-9.528	144.797	-106.143	107.070	80.826	233.598	84.292	178.945	-113.824	67.424	214.957	0.0002957	0.00025304	7.1759e-05	792.51	2.6557e-06	2.2016e-06	874.4	158.14	3.796e-06	2.8408e-06	204.74	58.855	45.085	13.195	1.9077e-06	18.938	0.00018576	0.00017043	3.9176e-05	798.87	2.1807e-06	1.0507e-06	879.59	160.38	1.6504e-06	1.6185e-06	208.42	59.934	46.082	13.658	1.3859e-06	19.568	67.196	-9.565	-23.814	-107.241	30.241	37.310	-107.344	-99.220	3.357	17.728	-99.893	-93.143	-92.783	-85.230	10.017	-86.343	-8191	255	
1057.637	1	1	0	0	0.068373	0.070037	0.36432	0.14629	0.19682	0.14531	0.18674	0.091363	0.22176	0.17485	0.14053	0.17022	0.065801	0.097054	0.082472	0.087988	-3.3312	-2.9688	-3.3229	-3.6083	-3.0938	-3.6063	-3.6562	-2.8854	-3.6167	-3.0958	-3.1646	-3.6354	-2.9771	-3.4958	-3.4	-2.9562	79.738	24.141	37.436	-15.581	211.188	-37.068	184.376	206.795	147.551	22.875	227.454	-96.831	-34.394	58.861	104.340	200.435	0.00030418	0.00018162	6.9806e-05	794.41	1.9363e-06	1.8618e-06	877	159.1	4.4412e-06	2.5941e-06	206.26	58.646	45.296	13.272	3.4118e-06	18.732	0.00018889	0.00013836	4.136e-05	799.07	1.6477e-06	9.9201e-07	880.81	160.86	1.786e-06	1.2185e-06	208.98	59.942	46.339	13.61	1.4666e-06	19.419	59.278	1.656	-39.362	-106.538	48.528	46.164	-106.751	-98.984	-7.097	33.639	-100.062	-93.037	-92.953	-84.745	23.884	-85.733	-8191	255	
1057.733	1	1	0	0	0.21699	0.35199	0.18856	0.14688	0.090929	0.15619	0.11069	0.12043	0.16152	0.11785	0.095878	0.15851	0.18537	0.30981	0.12065	0.21372	-3.4	-3.2271	-3.1479	-3.7646	-3.0021	-3.4479	-3.6312	-3.0021	-3.6667	-3.2896	-2.95	-3.6188	-2.8896	-3.3604	-3.5833	-2.9458	-29.623	-8.286	-92.664	161.078	61.963	145.462	200.773	20.915	147.651	-79.753	151.902	143.709	103.058	-77.124	92.632	241.646	0.0003263	0.00025162	6.6989e-05	797.29	2.5168e-06	1.7009e-06	876.14	158.94	3.1509e-06	2.1759e-06	206.25	58.417	45.251	13.355	2.9389e-06	18.774	0.00021036	0.0001353	4.2757e-05	800.71	1.9711e-06	9.3512e-07	880.58	160.81	1.7561e-06	9.6891e-07	208.66	59.749	46.207	13.67	1.2905e-06	19.464	67.661	-24.204	-12.906	-106.730	24.772	31.203	-106.838	-98.894	18.628	33.897	-99.807	-92.517	-92.467	-85.075	16.007	-85.710	-8191	255	
1057.829	1	1	0	0	0.26684	0.17077	0.22722	0.053903	0.2034	0.20166	0.053209	0.10471	0.2274	0.16348	0.13032	0.032318	0.11418	0.10981	0.26258	0.23116	-3.025	-3.3271	-2.9604	-3.8937	-3.0563	-3.3312	-3.7396	-3.0667	-3.55	-3.4521	-2.8771	-3.7896	-3.0479	-3.1292	-3.6875	-3.0333	-33.420	26.782	-33.624	-9.312	27.361	217.591	58.169	189.716	159.321	56.942	172.058	166.875	228.690	156.524	-78.784	-4.293	0.00030095	0.00018565	5.9146e-05	800.2	2.1665e-06	2.7611e-06	876.94	158.62	1.6589e-06	2.2739e-06	207.15	58.51	45.379	13.289	1.8204e-06	18.81	0.00020679	0.00010191	3.4415e-05	801.37	1.9873e-06	1.3511e-06	881.49	160.63	1.4368e-06	1.0772e-06	208.87	59.834	46.043	13.636	9.6788e-07	19.513	60.817	-25.667	-21.347	-106.924	33.492	46.359	-106.673	-98.902	20.700	31.297	-99.292	-92.920	-92.502	-85.289	27.004	-85.561	-8191	255	
1057.924	1	1	0	0	0.19461	0.13048	0.21851	0.24545	0.18112	0.10748	0.19308	0.020944	0.22743	0.024368	0.040941	0.19965	0.088577	0.1405	0.27026	0.14333	-3.0125	-3.4833	-2.9396	-3.6083	-3.1146	-2.9833	-3.9271	-2.9917	-3.3521	-3.5042	-3.0021	-3.6271	-3.2792	-3.0542	-3.6125	-2.9167	242.097	-81.857	-66.186	115.354	76.198	2.519	-72.406	109.190	-98.942	-35.043	-21.922	-75.841	196.171	223.772	153.559	49.394	0.00029829	0.00027609	6.6046e-05	801.6	1.4845e-06	2.4718e-06	878.81	158.87	2.6614e-06	2.3487e-06	205.53	58.861	45.023	13.318	2.8624e-06	18.816	0.000195	0.00012174	4.018e-05	798.47	1.6241e-06	1.4276e-06	880.71	160.45	1.7331e-06	8.7165e-07	208.52	59.967	46.103	13.642	1.027e-06	19.508	58.674	-23.036	-15.272	-106.652	8.930	37.381	-106.700	-98.936	9.535	26.294	-99.876	-92.775	-92.751	-84.916	28.993	-85.698	-8191	255	
1058.021	1	1	0	0	0.06266	0.12783	0.082641	0.016329	0.1971	0.23311	0.18888	0.085919	0.25356	0.13782	0.18474	0.054038	0.18498	0.28922	0.15804	0.21125	-2.9062	-3.4583	-2.8229	-3.4792	-3.3208	-2.8563	-3.8688	-3.0229	-3.2833	-3.5167	-3.0583	-3.6917	-3.4021	-2.8708	-3.675	-3.1562	111.922	55.600	93.095	87.108	71.447	-5.154	56.734	34.349	-20.217	139.222	201.811	95.559	215.078	-85.672	-25.851	-54.996	0.00032511	0.00017217	6.7878e-05	791.73	2.2803e-06	1.6538e-06	878.58	158.87	4.1772e-06	1.721e-06	206.78	58.386	45.451	13.216	2.204e-06	18.834	0.00020185	0.00011838	4.2844e-05	799.55	1.7053e-06	1.5502e-06	881.08	160.57	1.9376e-06	6.6062e-07	209.04	59.848	46.377	13.625	1.1803e-06	19.45	63.218	-34.709	-33.397	-106.353	31.311	26.002	-106.720	-99.330	21.034	46.235	-99.680	-92.838	-92.178	-84.912	22.804	-85.799	-8191	255	
1058.140	1	1	0	0	0.03076	0.2733	0.11953	0.23559	0.052956	0.22816	0.20663	0.14532	0.023031	0.074551	0.13054	0.19592	0.092797	0.25166	0.30114	0.051275	-2.7958	-3.7396	-2.9375	-3.6354	-3.4854	-2.9354	-3.8896	-3.0542	-3.2521	-3.7917	-2.9833	-3.5563	-3.6042	-3.0333	-3.8375	-3.0604	7.486	75.308	86.964	241.680	239.458	57.306	199.883	-11.076	-102.422	-35.988	-69.592	200.863	28.349	-94.643	22.609	110.777	0.0003133	0.000247	7.7387e-05	791.06	1.9083e-06	1.5733e-06	872.27	158.91	2.3884e-06	2.2176e-06	207.73	58.874	45.484	13.323	2.8851e-06	18.968	0.00021041	0.00011153	4.1709e-05	797.29	1.5473e-06	1.6871e-06	879.86	160.71	1.8721e-06	7.6155e-07	209.28	59.836	46.23	13.643	1.3738e-06	19.471	62.348	-30.400	-27.401	-106.746	30.224	45.170	-106.435	-99.160	-12.941	50.886	-99.539	-92.716	-92.310	-85.020	26.630	-85.167	-8191	255	
1058.236	1	1	0	0	0.18098	0.060193	0.072428	0.10227	0.17957	0.14088	0.25513	0.12847	0.025984	0.11859	0.33104	0.19989	0.14062	0.31209	0.13948	0.14669	-2.7167	-3.6604	-2.8896	-3.35	-3.5583	-2.9667	-3.8646	-3.3104	-2.975	-3.65	-3.0854	-3.4313	-3.5438	-2.9292	-3.5271	-3.4146	-69.329	85.650	131.581	144.621	-25.226	49.851	170.012	46.710	210.646	-28.499	237.464	-115.400	-65.846	60.941	204.981	239.897	0.0002774	0.00020569	4.725e-05	794.51	3.1361e-06	1.5938e-06	874.71	158.73	2.9951e-06	3.2427e-06	206.95	58.518	45.512	13.261	2.2021e-06	18.986	0.0002131	0.0001108	3.6599e-05	798.05	1.6462e-06	1.3476e-06	881.05	160.4	2.0834e-06	9.0468e-07	208.59	59.871	46.253	13.65	1.2838e-06	19.468	65.052	-11.211	-28.592	-106.466	36.386	33.637	-106.698	-99.199	-13.189	37.971	-99.816	-92.326	-92.327	-84.678	40.400	-85.658	-8191	255	
1058.308	1	1	0	0	0.11484	0.12843	0.1972	0.10166	0.14513	0.14273	0.10208	0.20288	0.13674	0.1144	0.15605	0.039889	0.043634	0.14572	0.12061	0.047119	-2.6958	-3.6562	-3.1167	-3.2646	-3.7	-3.025	-3.7271	-3.4562	-2.8563	-3.8833	-3.1146	-3.4875	-3.7104	-2.9979	-3.5771	-3.6042	167.398	236.124	150.818	-103.891	217.084	-68.782	150.963	227.713	180.267	-46.948	3.172	198.948	-52.205	76.570	139.822	21.301	0.00031471	0.00018891	5.7496e-05	794.34	1.6102e-06	2.2637e-06	873.45	159.52	4.2697e-06	1.6534e-06	206.76	58.158	45.428	13.304	2.9336e-06	19.054	0.00022586	0.00010832	3.6905e-05	798.34	1.2683e-06	1.4596e-06	879.38	160.88	2.1707e-06	5.0097e-07	208.88	59.773	46.339	13.635	1.2959e-06	19.498	58.912	-39.035	-32.525	-106.357	24.457	41.530	-106.185	-98.422	-6.314	48.598	-99.419	-92.504	-92.487	-84.646	32.215	-85.383	-8191	255	
1058.429	1	1	0	0	0.017925	0.146	0.26627	0.25893	0.18487	0.16252	0.15551	0.14739	0.12233	0.023359	0.24478	0.077913	0.44427	0.13097	0.2617	0.10559	-2.6	-3.8583	-3.1708	-3.1646	-3.7333	-2.9542	-3.4146	-3.4521	-2.7583	-3.7292	-3.2833	-3.175	-3.675	-3	-3.4917	-3.575	-68.159	-105.451	-10.320	172.019	145.713	167.316	191.663	163.692	238.766	73.852	222.790	-113.353	-114.948	61.867	159.657	125.710	0.00029488	0.00017277	6.9328e-05	797.87	1.9597e-06	2.194e-06	873.46	157.95	4.298e-06	2.9804e-06	205.32	58.629	45.084	13.42	2.4886e-06	18.779	0.00022556	7.8291e-05	3.9962e-05	798.74	1.2712e-06	1.4756e-06	881.85	160.18	2.1167e-06	9.634e-07	208.3	60	46.112	13.692	1.2502e-06	19.52	63.860	-38.598	-19.130	-106.498	44.408	34.271	-106.350	-98.930	-11.075	21.388	-99.224	-91.964	-92.098	-84.703	24.703	-85.057	-8191	255	
1058.525	1	1	0	0	0.37932	0.079391	0.078166	0.058549	0.20811	0.13588	0.19374	0.038181	0.1973	0.20194	0.10547	0.23616	0.19025	0.08878	0.21996	0.088933	-2.6312	-3.7479	-3.3438	-3.25	-3.7854	-3.0875	-3.5667	-3.8312	-2.7771	-3.7875	-3.3688	-3.0125	-3.7333	-3.0667	-3.3396	-3.7	-97.914	205.591	224.385	172.535	74.347	52.145	159.554	179.953	220.502	148.248	-78.186	-80.392	-92.278	203.205	-43.602	164.916	0.00035181	0.00021842	7.1566e-05	799.48	2.4616e-06	2.5196e-06	875.39	158.96	2.8475e-06	1.805e-06	206.26	58.725	45.82	13.293	2.7472e-06	19.007	0.00020918	0.00010147	3.5682e-05	799.56	1.1708e-06	1.3191e-06	881.09	160.65	2.1282e-06	8.5146e-07	208.53	59.923	46.411	13.64	1.7166e-06	19.55	58.384	-10.677	-20.694	-106.172	44.839	20.385	-106.162	-98.102	-15.029	52.427	-99.158	-92.384	-91.544	-84.354	21.107	-85.171	-8191	255	
1058.621	1	1	0	0	0.20694	0.2326	0.022157	0.17263	0.13859	0.174	0.064561	0.15115	0.064665	0.27819	0.12811	0.27086	0.35658	0.21706	0.079975	0.14049	-2.45	-3.6333	-3.3083	-3.0417	-3.9375	-3.1646	-3.4437	-3.7729	-2.9229	-3.6417	-3.4104	-3.1437	-3.8083	-3.2146	-3.1292	-3.6437	215.702	-115.470	9.941	-23.330	146.933	8.058	-50.532	167.302	-102.473	104.875	-30.344	181.258	-97.485	30.317	53.140	154.223	0.00030451	0.00022193	6.994e-05	799.05	2.307e-06	1.8018e-06	879.53	158.55	5.1699e-06	2.3785e-06	207.17	58.667	45.312	13.283	3.1218e-06	18.928	0.00021466	0.00015279	4.018e-05	799.75	1.2122e-06	1.3725e-06	881.77	160.64	2.0961e-06	1.2607e-06	208.93	60.048	46.324	13.651	1.9048e-06	19.489	61.115	-18.070	-24.194	-106.252	47.016	28.387	-105.978	-98.589	-3.339	55.123	-99.246	-92.770	-91.967	-84.236	34.535	-85.235	-8191	255	
1058.717	1	1	0	0	0.41465	0.092292	0.12561	0.040499	0.054633	0.16202	0.064567	0.051281	0.1975	0.13271	0.069225	0.11393	0.053718	0.13991	0.13517	0.15918	-2.4521	-3.5687	-3.5	-2.9375	-3.7812	-3.2479	-3.3604	-3.7104	-2.9333	-3.5167	-3.5229	-2.9021	-3.6979	-3.3563	-3.0812	-3.7667	191.089	-74.795	-62.914	71.374	51.034	163.901	-109.282	206.656	112.727	10.521	171.546	194.540	83.555	-69.395	193.243	-88.099	0.0003141	0.00018811	6.2801e-05	802.92	2.2226e-06	2.842e-06	877.7	159.29	3.1805e-06	2.6298e-06	206.36	58.483	45.284	13.305	2.192e-06	18.882	0.00020425	0.00011489	2.0702e-05	802.59	1.475e-06	1.2391e-06	881.96	160.73	2.2879e-06	1.3139e-06	208.94	59.962	46.211	13.637	1.7946e-06	19.499	66.016	-13.940	-48.035	-106.275	22.252	40.831	-106.411	-98.501	-5.203	34.465	-99.079	-92.273	-91.876	-84.995	25.769	-85.305	-8191	255	
1058.836	1	1	0	0	0.14959	0.062078	0.25609	0.12082	0.085567	0.16633	0.14225	0.12169	0.058384	0.020961	0.054572	0.13517	0.080876	0.13497	0.20647	0.13597	-2.6646	-3.3854	-3.6104	-2.95	-3.6542	-3.4271	-3.2542	-3.8438	-3.0708	-3.3271	-3.6437	-2.8729	-3.5604	-3.4896	-2.8604	-3.6208	-72.683	181.223	17.019	222.232	158.406	5.110	173.401	-111.257	-59.934	140.439	128.148	34.538	46.750	136.881	130.157	167.859	0.00033074	0.00018876	5.5646e-05	798.86	2.6191e-06	2.0127e-06	878.99	158.11	3.6377e-06	2.5373e-06	207.12	58.661	45.493	13.31	2.3155e-06	19.022	0.00021495	0.0001299	1.9566e-05	800.03	1.6433e-06	1.4862e-06	882.76	160.41	1.9915e-06	1.3414e-06	208.74	59.886	46.203	13.641	1.7032e-06	19.545	66.339	-12.004	-23.245	-106.018	44.406	19.857	-106.512	-98.819	23.057	41.232	-99.137	-92.559	-91.650	-84.640	11.933	-84.897	-8191	255	
1058.932	1	1	0	0	0.35566	0.25611	0.093495	0.15916	0.4002	0.10545	0.39947	0.015298	0.097963	0.22444	0.14787	0.11464	0.275	0.21927	0.17031	0.10012	-2.6937	-3.1708	-3.6229	-3.1562	-3.6354	-3.5938	-3.0667	-3.6958	-3.275	-3.3063	-3.7438	-3.0875	-3.4437	-3.7146	-2.9896	-3.7979	80.539	29.691	191.202	155.415	-22.745	109.331	195.100	-20.175	-13.202	128.820	-69.021	150.158	-49.669	159.380	113.657	20.763	0.00025691	0.00022216	6.0783e-05	798.29	1.9697e-06	2.3738e-06	876.4	159.03	3.0092e-06	2.312e-06	207.29	58.802	45.3	13.366	2.0881e-06	18.864	0.00021202	0.0001576	1.6028e-05	801.15	1.537e-06	8.3912e-07	881.05	160.88	1.9938e-06	1.2827e-06	209.29	59.955	46.375	13.682	1.5526e-06	19.53	61.702	-6.338	-12.937	-106.466	33.253	19.387	-106.511	-98.675	19.979	27.265	-99.432	-92.448	-92.252	-84.704	9.273	-85.004	-8191	255	
1059.004	1	1	0	0	0.22001	0.10157	0.069248	0.29194	0.11438	0.047704	0.16289	0.21626	0.13681	0.08079	0.25947	0.13194	0.2095	0.29203	0.1863	0.047754	-2.8167	-3.0021	-3.6458	-3.0229	-3.4729	-3.5333	-3	-3.6729	-3.1604	-3.1021	-3.8021	-3.1125	-3.3958	-3.6396	-2.9646	-3.6354	85.259	-24.372	50.242	231.438	-52.764	175.003	192.597	235.113	225.375	-35.712	237.459	-109.775	19.691	-92.567	133.352	56.382	0.00032219	0.00023325	8.8331e-05	807.47	2.1713e-06	2.4807e-06	883.64	159.09	3.7982e-06	2.4819e-06	207.22	58.835	45.046	13.292	2.3251e-06	18.872	0.00021637	0.00016169	3.4852e-05	802.64	1.6108e-06	5.5645e-07	883.25	161.06	1.8744e-06	1.5543e-06	209.62	59.966	46.217	13.653	1.6709e-06	19.544	54.978	-19.053	-13.528	-106.373	33.984	26.666	-106.512	-98.566	-0.055	18.682	-99.593	-92.272	-91.815	-84.742	32.474	-85.005	-8191	255	
1059.102	1	1	0	0	0.13772	0.14366	0.18701	0.047086	0.16375	0.2665	0.085426	0.25185	0.19285	0.27657	0.17229	0.31488	0.14832	0.067028	0.10233	0.068642	-2.9688	-3.0479	-3.7062	-3.1813	-3.2938	-3.6896	-2.95	-3.5875	-3.4354	-3.0083	-3.7896	-3.1188	-3.2	-3.85	-2.9229	-3.6292	13.945	228.594	141.397	6.063	129.072	43.851	153.849	-112.859	-43.426	180.717	-95.484	194.422	133.464	197.384	66.426	87.449	0.00030443	0.0001786	5.4757e-05	803.95	1.7171e-06	2.1644e-06	876.61	158.56	4.4451e-06	2.3328e-06	206.64	58.48	45.76	13.358	3.2724e-06	18.876	0.00020889	0.0001509	2.2492e-05	803.03	1.2535e-06	1.024e-06	882.57	160.91	1.7446e-06	1.3047e-06	209.44	59.956	46.403	13.652	1.6535e-06	19.478	63.992	-7.989	-32.911	-106.231	28.050	36.030	-106.532	-98.569	18.532	34.719	-98.838	-92.109	-91.539	-84.437	45.144	-84.904	-8191	255	
1059.221	1	1	0	0	0.162	0.081738	0.087296	0.1607	0.18907	0.099836	0.097922	0.12801	0.1623	0.10777	0.052297	0.20973	0.21054	0.20249	0.24073	0.040902	-3.1312	-3.1146	-3.8958	-3.1667	-3.1146	-3.7458	-3.1063	-3.5896	-3.6021	-2.9479	-3.8625	-3.1771	-3.2979	-3.8333	-2.8958	-3.4313	-74.533	-3.376	-75.137	8.028	-8.181	-4.376	166.189	-8.101	-114.037	-36.691	136.016	96.355	-101.528	-29.353	176.894	-83.226	0.00027333	0.00013634	6.7705e-05	799.21	2.2485e-06	2.4169e-06	875.58	159.17	4.2369e-06	2.8055e-06	207.66	58.462	45.22	13.269	2.807e-06	19.028	0.00018478	0.00018224	2.8126e-05	801.52	1.85e-06	7.6978e-07	881.58	160.62	1.8824e-06	1.8461e-06	209.77	59.983	46.335	13.651	1.7825e-06	19.545	63.258	-35.203	-11.889	-106.006	20.460	47.702	-106.274	-98.205	21.478	27.041	-99.053	-91.939	-91.324	-83.998	25.661	-84.607	-8191	255	
1059.317	1	1	0	0	0.1691	0.19628	0.20251	0.25619	0.24259	0.046232	0.26415	0.23285	0.15246	0.14564	0.030735	0.24237	0.097182	0.33115	0.098442	0.11316	-3.2396	-3.0104	-3.7146	-3.3146	-2.9792	-3.7708	-3.175	-3.45	-3.5958	-2.9729	-3.6708	-3.3	-2.9938	-3.775	-2.9896	-3.3521	33.840	-30.179	-5.356	-21.663	142.784	228.193	-103.973	169.136	-2.967	25.384	-96.465	217.022	155.210	148.193	-11.664	-58.001	0.00028555	0.00019622	7.8091e-05	798.41	2.0237e-06	2.3438e-06	879.3	159	3.3506e-06	2.458e-06	207.45	58.627	45.427	13.355	2.7603e-06	19.063	0.00018728	0.00015862	3.031e-05	801.43	1.9534e-06	9.9912e-07	881.21	160.38	1.8755e-06	1.958e-06	209.15	59.927	46.355	13.695	1.5217e-06	19.574	58.534	-32.857	-19.752	-105.752	38.534	33.947	-105.940	-98.020	3.220	24.577	-98.767	-91.975	-91.481	-84.251	36.188	-84.351	-8191	255	
1059.413	1	1	0	0	0.010798	0.20152	0.16582	0.10377	0.21256	0.18646	0.080892	0.16681	0.1116	0.16632	0.075899	0.15182	0.20553	0.29482	0.12705	0.25414	-3.3458	-2.7917	-3.5604	-3.5563	-2.8563	-3.7479	-3.2917	-3.1688	-3.7062	-2.8708	-3.5604	-3.5125	-2.9354	-3.6771	-3.175	-3.0354	-4.789	105.483	-38.955	223.252	3.939	-103.931	-69.994	239.295	-97.164	241.996	-87.406	-24.127	-46.688	242.339	217.550	-38.741	0.00030824	0.00022407	8.7906e-05	797.69	1.4958e-06	2.5645e-06	880.46	159.74	3.8999e-06	2.2212e-06	206.56	58.699	45.3	13.287	1.9462e-06	19.042	0.00019901	0.00013996	2.9262e-05	798.93	1.7644e-06	9.6178e-07	882.24	160.69	1.7435e-06	1.3855e-06	208.97	59.924	46.323	13.661	1.519e-06	19.532	57.253	7.256	-28.678	-105.632	16.771	20.241	-105.739	-97.893	20.940	32.465	-98.515	-92.345	-91.549	-83.796	57.276	-84.909	-8191	255	
1059.534	1	1	0	0	0.27237	0.27025	0.084381	0.20262	0.29793	0.11135	0.096774	0.051727	0.10392	0.065848	0.082036	0.055838	0.206	0.24261	0.21385	0.17302	-3.3104	-2.925	-3.4562	-3.6667	-3.0792	-3.6479	-3.475	-3.1979	-3.7438	-3.0354	-3.575	-3.6854	-3.0167	-3.6229	-3.3354	-3.1396	131.384	162.326	-86.335	-0.818	118.473	-82.212	167.083	30.962	134.465	-36.023	-65.241	198.743	69.509	125.640	223.063	26.030	0.00027383	0.00020229	5.2067e-05	798.03	2.0093e-06	2.5014e-06	881.04	158.66	3.0317e-06	2.3069e-06	208.1	58.875	45.703	13.316	2.616e-06	18.962	0.0001952	0.00016285	1.8474e-05	799.74	1.9917e-06	1.1876e-06	882.08	160.76	1.6665e-06	1.2717e-06	209.2	60.067	46.447	13.692	1.5822e-06	19.551	70.288	-25.169	-15.296	-106.159	49.062	50.583	-105.676	-98.046	23.410	28.744	-98.347	-92.121	-91.938	-84.269	32.250	-84.933	-8191	255	
1059.605	1	1	0	0	0.1256	0.1408	0.048414	0.22706	0.05476	0.19878	0.086477	0.1595	0.10151	0.011192	0.23773	0.050978	0.19785	0.2533	0.14294	0.23717	-3.3688	-3.1542	-3.2896	-3.6521	-2.8375	-3.5479	-3.5771	-3.0354	-3.7083	-3.0938	-3.125	-3.6146	-2.9396	-3.625	-3.5083	-3.0146	-110.370	-89.630	127.090	-93.421	82.828	-66.232	-104.475	-8.503	-94.907	-104.851	139.039	-39.405	-56.877	-114.282	55.656	-31.378	0.00026335	0.00021659	6.9932e-05	798.18	2.2331e-06	2.3714e-06	877.71	158.81	2.7112e-06	2.2681e-06	207.27	58.282	45.399	13.364	1.8589e-06	19.07	0.00018806	0.00016052	2.7995e-05	800.22	1.7245e-06	1.2089e-06	882.95	160.6	1.6412e-06	1.0276e-06	209.05	59.925	46.151	13.672	1.2435e-06	19.52	69.437	-35.889	-21.190	-105.934	26.831	32.944	-105.675	-97.843	24.206	37.162	-98.490	-91.750	-91.301	-83.716	30.182	-84.165	-8191	255	
1059.701	1	1	0	0	0.1595	0.090004	0.22763	0.10705	0.24505	0.228	0.17091	0.12303	0.092527	0.14697	0.1677	0.23179	0.14484	0.10381	0.056208	0.14973	-3.3688	-2.9979	-3.0417	-3.525	-2.8063	-3.5667	-3.6604	-2.9854	-3.6833	-3.2917	-3.2708	-3.7938	-2.7521	-3.525	-3.5104	-3.0771	1.211	-11.090	45.380	172.814	212.547	-14.073	217.712	121.095	-50.129	-18.610	-80.848	198.982	148.637	109.215	210.579	127.933	0.00028668	0.00020535	4.8565e-05	802.57	2.1557e-06	2.6653e-06	879.5	159.23	2.9754e-06	1.8011e-06	205.47	59.125	45.338	13.288	3.0238e-06	18.959	0.00019647	0.00014784	2.9043e-05	800.9	1.8367e-06	1.1325e-06	882.3	160.79	1.5138e-06	7.2668e-07	208.71	60.123	46.409	13.65	1.515e-06	19.529	64.411	-25.702	-35.325	-105.676	8.067	24.288	-105.860	-97.924	-7.788	43.380	-98.434	-91.884	-91.545	-83.614	28.341	-84.453	-8191	255	
1059.822	1	1	0	0	0.20004	0.20551	0.011851	0.02222	0.078841	0.067438	0.18127	0.11041	0.26311	0.34824	0.22263	0.14792	0.091227	0.19985	0.18879	0.14027	-3.4271	-3.3083	-3.0458	-3.7833	-2.9688	-3.4771	-3.8167	-3.1583	-3.6333	-3.2812	-3.0521	-3.875	-3.0375	-3.2938	-3.6896	-3.1917	-52.164	7.974	-46.054	70.305	-22.965	153.930	212.743	138.240	165.887	39.881	190.281	2.075	195.859	-97.333	159.601	-114.164	0.00028171	0.00023447	6.2589e-05	793.94	2.2242e-06	2.2604e-06	877.57	158.57	3.6155e-06	2.2106e-06	206.38	58.871	45.325	13.365	2.5987e-06	18.909	0.0001907	0.00012232	3.6774e-05	799.63	1.6522e-06	9.0667e-07	882.13	160.67	1.5574e-06	1.0717e-06	209.02	60.081	46.286	13.694	1.0499e-06	19.513	62.133	-34.879	-18.644	-105.646	41.492	30.560	-105.760	-97.708	-6.888	40.519	-98.936	-91.634	-91.063	-83.893	40.426	-84.202	-8191	255	
1059.916	1	1	0	0	0.18819	0.12924	0.097558	0.12351	0.38315	0.014092	0.19157	0.042126	0.14224	0.090221	0.10168	0.1657	0.21134	0.028201	0.25306	0.11875	-3.1896	-3.3521	-3.1354	-3.75	-3.2188	-3.1979	-3.7583	-3.1937	-3.6312	-3.4146	-3.1354	-3.6813	-3.0938	-2.9979	-3.6146	-2.8667	55.070	15.839	164.472	121.880	-77.508	16.078	131.573	240.561	103.206	131.538	52.683	-90.231	241.603	213.525	-47.513	-69.920	0.00026983	0.00017295	6.0014e-05	803	2.4989e-06	1.6035e-06	878.38	157.77	3.4858e-06	2.7634e-06	205.82	58.619	45.092	13.405	2.9858e-06	18.902	0.00017818	7.8e-05	4.0399e-05	799.99	1.6123e-06	1.3316e-06	882.57	160.28	1.6849e-06	9.8175e-07	209.01	59.878	46.19	13.688	1.0149e-06	19.555	61.962	-36.387	-39.071	-106.160	30.823	41.532	-105.751	-98.012	-15.742	15.854	-100.126	-93.243	-93.049	-85.357	30.309	-86.377	-8191	255	
1060.013	1	1	0	0	0.11211	0.084585	0.14691	0.1858	0.14028	0.13951	0.02675	0.15576	0.10765	0.076711	0.051512	0.26101	0.24724	0.12755	0.23742	0.076044	-3.175	-3.4917	-2.8771	-3.8229	-3.3396	-3.0438	-3.8104	-3.0833	-3.3563	-3.5292	-3.1063	-3.85	-3.3667	-3.125	-3.7062	-3.0917	13.556	216.340	198.926	182.658	103.930	239.390	-26.006	-37.378	-20.680	104.564	-65.827	199.770	121.591	229.905	87.096	82.244	0.00027845	0.00025888	6.7031e-05	803.93	2.1914e-06	2.8554e-06	875.8	158.59	1.6356e-06	1.8331e-06	204.55	58.418	45.469	13.328	1.9623e-06	18.691	0.00019911	0.00010016	3.9394e-05	801.62	1.8219e-06	1.6551e-06	879.66	160.5	1.7607e-06	7.0649e-07	208.23	59.863	46.401	13.68	9.5981e-07	19.478	61.647	-20.457	-10.313	-107.273	38.521	32.587	-107.009	-99.637	39.049	55.796	-100.198	-93.182	-93.088	-85.405	26.894	-86.242	-8191	255	
1060.133	1	1	0	0	0.17236	0.17499	0.23517	0.11282	0.2226	0.16909	0.22639	0.36938	0.16196	0.3023	0.06492	0.22816	0.17088	0.10506	0.17204	0.091887	-2.9583	-3.4021	-2.9	-3.6771	-3.4167	-3.1271	-3.8312	-3.0521	-3.3917	-3.7271	-2.9708	-3.5646	-3.4083	-2.9562	-3.7917	-3.3021	16.589	220.121	51.357	93.261	210.279	145.142	-82.371	-35.759	-103.195	212.383	-31.709	134.987	41.500	226.672	2.421	209.796	0.00030225	0.00021262	6.6442e-05	794.13	1.7245e-06	2.2903e-06	877.76	157.91	4.1124e-06	2.3692e-06	206.2	58.54	45.378	13.412	1.5594e-06	18.989	0.00020248	0.00011343	3.2144e-05	799.37	1.444e-06	1.7458e-06	882.99	160.2	2.0237e-06	7.5971e-07	209.41	60.059	46.286	13.698	9.6519e-07	19.565	62.442	-22.641	-17.844	-107.280	10.324	48.407	-107.294	-99.143	19.690	42.211	-99.879	-93.095	-93.540	-85.330	45.887	-86.241	-8191	255	
1060.205	1	1	0	0	0.10171	0.1677	0.12883	0.12977	0.064287	0.21114	0.17049	0.12242	0.23849	0.084948	0.29885	0.10817	0.07071	0.14681	0.23973	0.18275	-2.8646	-3.6854	-2.8542	-3.6083	-3.6063	-2.9125	-4.0021	-3.2896	-3.1813	-3.7062	-3.0354	-3.4208	-3.4292	-2.8771	-3.7479	-3.2438	167.765	67.934	-112.873	-46.835	12.088	-14.444	213.750	-97.197	-31.117	207.092	105.933	218.094	43.529	-34.501	-10.669	200.108	0.00029004	0.00022374	6.598e-05	798.9	2.4291e-06	1.9334e-06	873.64	158.81	1.7325e-06	2.547e-06	206.25	58.495	45.425	13.234	1.5461e-06	18.912	0.00021138	0.0001092	3.5201e-05	800.82	1.3096e-06	1.8702e-06	880.17	160.59	1.7676e-06	8.4779e-07	208.55	60.049	46.35	13.632	8.7915e-07	19.487	63.658	-22.963	0.038	-106.910	23.203	40.617	-107.126	-99.510	10.904	34.715	-100.181	-93.393	-92.832	-85.372	22.136	-86.134	-8191	255	
1060.301	1	1	0	0	0.29866	0.21695	0.10226	0.1032	0.13955	0.1995	0.26425	0.1117	0.30892	0.10312	0.18956	0.28252	0.14745	0.10453	0.239	0.095293	-2.5938	-3.6063	-2.95	-3.4229	-3.5458	-2.9979	-3.7562	-3.2771	-2.9625	-3.8583	-3.0979	-3.3104	-3.6229	-2.8438	-3.7438	-3.4021	99.347	-98.714	219.893	185.222	32.197	42.816	170.645	203.841	12.422	236.622	197.625	-45.598	-16.191	-110.263	94.179	209.412	0.0002738	0.00018233	4.9758e-05	795.52	2.7551e-06	1.988e-06	874.32	158.28	3.5393e-06	1.7831e-06	206.85	58.542	45.639	13.294	2.2458e-06	18.92	0.00021759	4.9716e-05	3.5027e-05	798.65	1.4602e-06	1.4898e-06	880.97	160.39	1.8572e-06	4.0004e-07	208.97	60.011	46.476	13.678	1.1238e-06	19.531	63.019	-9.629	-27.647	-107.021	25.874	36.741	-106.971	-99.090	-9.211	38.067	-99.956	-93.054	-92.686	-85.324	26.014	-86.045	-8191	255	
1060.397	1	1	0	0	0.10084	0.11764	0.12873	0.14565	0.046821	0.10105	0.20195	0.24203	0.12258	0.22338	0.084071	0.11949	0.043279	0.17914	0.1536	0.01417	-2.7396	-3.7958	-3.0854	-3.3271	-3.7	-2.7438	-3.8438	-3.4396	-3	-3.925	-3.225	-3.1854	-3.7188	-2.9979	-3.5417	-3.4396	10.465	142.476	57.313	122.289	-32.081	184.529	124.768	205.571	151.509	211.925	-55.942	-18.483	217.998	-62.351	200.485	-117.139	0.00030393	0.00024734	8.6803e-05	795.87	1.9931e-06	2.4031e-06	883.2	158.83	4.3284e-06	1.7083e-06	205.77	58.532	45.03	13.361	2.5078e-06	18.842	0.00020024	0.00012699	3.3367e-05	799.75	1.4204e-06	1.3653e-06	884.23	160.69	2.0283e-06	9.5056e-07	208.8	59.906	46.179	13.697	1.5217e-06	19.53	67.655	-30.023	-30.950	-107.062	29.066	40.640	-107.147	-99.322	8.769	22.365	-100.089	-92.960	-93.271	-85.300	36.627	-85.695	-8191	255	
1060.518	1	1	0	0	0.20936	0.26147	0.16576	0.026653	0.17096	0.18182	0.31452	0.22853	0.1768	0.25817	0.040162	0.16654	0.21954	0.064699	0.16821	0.18197	-2.5542	-3.7	-3.1083	-3.1271	-3.7313	-3.1167	-3.5333	-3.5792	-3.0083	-3.6729	-3.275	-3.075	-3.8875	-3.0979	-3.3208	-3.7229	84.550	-24.582	125.468	-103.274	177.321	-84.466	203.577	124.758	4.252	-7.960	133.738	91.241	194.911	96.333	-32.984	217.154	0.00031497	0.00025671	4.6659e-05	802.67	2.0916e-06	3.0949e-06	875.13	158.59	2.2685e-06	2.0502e-06	205.01	58.663	45.466	13.241	2.1176e-06	18.983	0.0002173	8.2811e-05	3.4808e-05	800.56	1.3022e-06	1.5253e-06	882.09	160.64	2.2477e-06	8.7899e-07	209.2	60.013	46.394	13.676	1.5594e-06	19.555	55.360	-26.710	-12.015	-107.048	40.001	18.886	-107.008	-99.447	4.569	19.789	-100.112	-93.322	-92.940	-85.628	10.873	-85.801	-8191	255	
1060.614	1	1	0	0	0.11487	0.058754	0.098	0.20616	0.1825	0.11182	0.14872	0.14033	0.034103	0.13106	0.11419	0.23231	0.1038	0.14563	0.20233	0.071102	-2.5542	-3.7229	-3.3	-3.1125	-3.75	-3.0729	-3.4375	-3.6437	-2.7917	-3.4958	-3.4042	-2.9583	-3.65	-2.9458	-3.1792	-3.7062	-18.428	89.688	-1.024	-31.318	33.682	-18.287	33.859	181.573	69.045	152.106	-78.125	223.840	-111.595	141.565	124.059	178.446	0.00030023	0.00022985	5.442e-05	795.84	2.126e-06	1.7834e-06	879.06	158.2	3.475e-06	2.3025e-06	207.18	58.656	45.801	13.405	2.2151e-06	19.006	0.00022204	0.00011445	2.7471e-05	799.53	1.2417e-06	1.6231e-06	883.62	160.38	2.2614e-06	1.068e-06	209.1	60.097	46.457	13.746	1.4222e-06	19.556	63.351	-34.500	-20.082	-107.025	21.794	41.420	-106.925	-99.479	22.600	48.200	-99.748	-92.824	-92.561	-85.242	25.363	-85.931	-8191	255	
1060.710	1	1	0	0	0.14376	0.22566	0.10913	0.064931	0.32803	0.11852	0.436	0.048115	0.1593	0.05244	0.089545	0.23081	0.051181	0.16231	0.10759	0.12716	-2.5396	-3.6	-3.45	-2.9292	-3.6688	-3.2646	-3.3146	-3.7687	-2.9104	-3.3875	-3.7188	-3.0542	-3.5875	-3.3271	-3.1021	-3.8125	-58.555	124.731	46.488	182.214	-26.897	157.638	176.923	241.803	230.238	241.521	128.532	2.618	146.091	-82.063	19.835	68.005	0.00033919	0.00026069	6.6825e-05	800.48	2.0899e-06	2.1146e-06	876.31	158.57	4.101e-06	2.1464e-06	206.78	59.086	45.738	13.259	2.9853e-06	18.98	0.00020561	0.00013107	2.1881e-05	801.38	1.0424e-06	1.3067e-06	881.52	160.52	2.2098e-06	9.6707e-07	209.16	60.202	46.484	13.679	1.3779e-06	19.528	61.322	-28.379	-13.552	-107.162	18.527	34.553	-107.082	-99.225	-8.735	20.612	-99.869	-92.779	-92.812	-85.201	23.412	-86.253	-8191	255	
1060.806	1	1	0	0	0.13859	0.14106	0.23841	0.11197	0.051423	0.21838	0.19281	0.21283	0.1745	0.22316	0.07611	0.16388	0.080997	0.26502	0.079159	0.13505	-2.6854	-3.4062	-3.6854	-2.7	-3.6646	-3.1833	-3.0917	-3.8229	-3.0625	-3.4042	-3.6188	-3.0958	-3.725	-3.3771	-3.0854	-3.7854	-83.308	3.060	239.609	-42.707	207.120	-14.008	183.653	-75.651	-83.095	129.718	73.111	233.664	219.150	39.067	-29.004	162.487	0.0002906	0.0001715	5.315e-05	802.48	1.6112e-06	2.8981e-06	877.5	158.33	3.2897e-06	2.6228e-06	207.09	58.622	45.451	13.312	2.2607e-06	18.78	0.00021226	8.5144e-05	1.3452e-05	802.62	1.2166e-06	1.5253e-06	883.37	160.56	2.1018e-06	1.1157e-06	209.03	60.048	46.357	13.671	1.7623e-06	19.504	57.565	-24.924	-17.640	-106.701	40.063	16.074	-107.112	-99.444	-10.809	34.599	-99.982	-93.006	-93.134	-85.344	37.425	-86.483	-8191	255	
1060.902	1	1	0	0	0.15407	0.043163	0.20813	0.22793	0.18837	0.1797	0.13298	0.3712	0.010019	0.078382	0.079203	0.15972	0.16047	0.11253	0.29762	0.19939	-2.6167	-3.2708	-3.7208	-2.8896	-3.6958	-3.1604	-3.0333	-3.6583	-3.1083	-3.3854	-3.8354	-2.8438	-3.5312	-3.4979	-3.0187	-3.8708	17.709	214.136	-27.733	74.298	185.890	49.388	105.423	201.653	73.949	233.198	-116.988	-18.168	-62.395	88.725	-109.488	7.694	0.00029681	0.00021469	6.4635e-05	793.53	2.4679e-06	2.1842e-06	879.81	158.58	3.3628e-06	2.5112e-06	206.73	58.809	45.909	13.322	2.235e-06	18.865	0.00020547	0.00011809	2.3322e-05	799.24	1.8411e-06	1.0845e-06	883.03	160.57	1.887e-06	1.2845e-06	208.95	60.12	46.538	13.705	1.597e-06	19.544	62.977	-32.288	-13.604	-107.270	32.673	46.679	-107.190	-99.554	14.055	24.580	-100.334	-93.147	-92.802	-85.291	35.369	-86.085	-8191	255	
1060.997	1	1	0	0	0.08693	0.042098	0.28098	0.079727	0.25715	0.32351	0.21121	0.25495	0.061756	0.10633	0.074586	0.091847	0.3561	0.028701	0.16024	0.103	-2.6771	-3.2208	-3.7417	-3.0479	-3.3667	-3.5583	-3.2167	-3.8604	-3.2125	-3.2188	-3.8438	-3.0458	-3.4917	-3.6	-2.8063	-3.8583	-38.310	199.428	-75.346	202.106	58.421	-16.836	139.893	-115.403	6.869	102.110	146.040	190.056	49.480	73.794	38.703	167.942	0.00031746	0.00024575	4.5244e-05	797.1	2.1831e-06	2.0715e-06	876.58	158.27	3.1589e-06	2.0668e-06	207.16	59.135	45.376	13.411	2.2044e-06	18.993	0.00020894	0.00013355	1.5024e-05	800.03	1.3775e-06	8.6934e-07	883.21	160.69	1.9307e-06	1.6222e-06	209.47	60.237	46.305	13.693	1.8779e-06	19.573	61.064	-25.339	-33.461	-106.871	35.639	49.703	-107.167	-99.292	4.763	30.721	-99.999	-93.025	-92.907	-85.483	17.856	-85.928	-8191	255	
1061.095	1	1	0	0	0.1749	0.11676	0.04096	0.14027	0.097979	0.22463	0.15864	0.26881	0.085958	0.12927	0.1976	0.068974	0.046949	0.17641	0.21458	0.122	-3.0875	-3.05	-3.5812	-3.0875	-3.375	-3.6833	-3.0938	-3.9333	-3.3333	-3.1604	-3.775	-3.1583	-3.1688	-3.6208	-2.8688	-3.5146	52.563	152.844	-83.849	216.521	59.919	-103.842	97.995	228.874	-57.849	193.563	224.497	155.920	-89.606	-47.595	17.062	-11.444	0.00028346	0.00020049	6.5406e-05	799.92	1.9273e-06	1.8293e-06	878.45	158.82	3.5387e-06	2.265e-06	206.93	58.866	45.745	13.335	1.6963e-06	18.969	0.00019202	0.00013617	1.5155e-05	801.62	1.2919e-06	8.0178e-07	882.54	160.82	1.8032e-06	1.6938e-06	209.54	60.142	46.612	13.726	1.8296e-06	19.561	57.038	-22.781	-33.394	-106.729	20.778	8.806	-107.200	-99.278	-6.350	44.294	-100.159	-92.974	-92.809	-85.205	20.475	-85.791	-8191	255	
1061.214	1	1	0	0	0.094873	0.04853	0.11331	0.12254	0.11543	0.12986	0.25226	0.12065	0.24252	0.037554	0.3028	0.18507	0.38026	0.18832	0.21673	0.14724	-2.8708	-3.0062	-3.8104	-3.1458	-3.1688	-3.7062	-3.0583	-3.5104	-3.4813	-3.1063	-3.6771	-3.3271	-3.1708	-3.7708	-3.0187	-3.4417	76.544	226.276	-64.800	211.720	28.941	7.068	-110.930	102.411	131.546	166.098	-80.231	165.746	-79.612	139.932	-26.889	-81.292	0.00030004	0.00020846	6.6145e-05	795.17	2.325e-06	1.9905e-06	880.04	158.41	2.8648e-06	2.5532e-06	206.83	58.421	45.177	13.375	3.062e-06	18.986	0.00018928	0.00014754	2.437e-05	799.21	1.6979e-06	5.4223e-07	883.49	160.63	1.3265e-06	1.6736e-06	209.26	59.905	46.355	13.722	1.8107e-06	19.575	64.159	-40.372	-39.581	-106.778	14.093	19.931	-106.936	-99.430	1.839	36.582	-99.597	-93.193	-92.382	-85.113	18.702	-85.949	-8191	255	
1061.310	1	1	0	0	0.091518	0.04951	0.16709	0.24219	0.23233	0.25751	0.50501	0.058822	0.30951	0.1457	0.12408	0.022884	0.099922	0.1143	0.19516	0.14736	-3.2229	-2.975	-3.7083	-3.2229	-3.2083	-3.6458	-3.1417	-3.4354	-3.5229	-2.9	-3.7146	-3.4562	-2.9125	-3.7625	-3.2083	-3.2229	-115.118	14.994	169.351	155.903	136.524	-115.889	153.350	199.109	167.187	193.731	5.140	-65.801	-34.031	-63.630	27.595	-8.826	0.00029685	0.00028131	8.4246e-05	796.48	2.5454e-06	2.3276e-06	876.35	157.95	3.5593e-06	2.6284e-06	204.45	59.244	45.14	13.354	2.1436e-06	18.943	0.00018386	0.00017408	2.472e-05	800.3	2.0405e-06	7.8223e-07	882.16	160.68	1.2886e-06	1.8571e-06	209.03	60.3	46.324	13.689	1.4626e-06	19.564	60.546	-34.471	-17.596	-106.889	47.254	33.862	-106.879	-99.139	18.925	31.413	-99.677	-92.771	-92.688	-84.729	13.503	-85.865	-8191	255	
1061.406	1	1	0	0	0.31495	0.098146	0.12506	0.18794	0.20731	0.17896	0.19849	0.078551	0.23496	0.12266	0.30138	0.11225	0.041818	0.13696	0.047017	0.091295	-3.2271	-2.8375	-3.7375	-3.4542	-2.9958	-3.7833	-3.3521	-3.4875	-3.8333	-2.8604	-3.5958	-3.5625	-2.9188	-3.7479	-3.1917	-3.2979	135.149	143.559	-71.141	-110.061	108.981	-97.457	35.756	-26.136	80.139	69.781	220.227	74.396	169.562	159.307	45.551	26.547	0.00030061	0.0002294	7.5587e-05	795.54	2.1022e-06	2.3569e-06	877.89	158.87	2.6702e-06	1.7719e-06	206.72	58.825	45.45	13.402	2.6557e-06	18.82	0.00019965	0.00018939	2.603e-05	802.16	1.7688e-06	9.5289e-07	882.7	160.88	1.5907e-06	1.5892e-06	209.45	60.109	46.39	13.739	1.4948e-06	19.583	65.612	-8.845	-22.399	-107.213	1.698	34.332	-107.213	-98.907	2.745	26.502	-99.566	-93.429	-92.656	-85.163	16.567	-85.846	-8191	255	
1061.502	1	1	0	0	0.076874	0.21661	0.12701	0.10707	0.08247	0.24038	0.064345	0.055846	0.26871	0.091212	0.12428	0.072505	0.11928	0.10331	0.19188	0.18389	-3.4354	-2.6896	-3.4938	-3.4333	-2.8208	-3.6813	-3.3063	-3.1146	-3.6292	-2.85	-3.4188	-3.6063	-2.8875	-3.3375	-3.125	-3.0771	87.651	71.743	-12.000	-116.285	26.541	-45.259	164.386	144.855	-62.438	73.560	-88.939	229.338	63.685	217.964	-8.252	115.606	0.00034175	0.00020165	7.4528e-05	795.26	2.853e-06	2.5797e-06	879.72	158.43	2.992e-06	1.4585e-06	206.81	58.796	45.792	13.307	2.7058e-06	18.954	0.00019657	0.00014754	2.6641e-05	800.14	2.4465e-06	5.6889e-07	884.58	160.83	1.7239e-06	1.3231e-06	209.74	60.118	46.469	13.761	1.4774e-06	19.527	62.937	-10.527	-21.815	-106.884	38.525	19.650	-106.961	-99.180	30.511	43.046	-99.871	-93.112	-92.385	-85.014	39.707	-86.051	-8191	255	
1061.598	1	1	0	0	0.14196	0.27273	0.005034	0.2005	0.21589	0.17948	0.33742	0.32142	0.18196	0.11166	0.088611	0.071615	0.062389	0.093623	0.036941	0.23136	-3.3771	-2.9562	-3.3604	-3.6396	-3.025	-3.4917	-3.3917	-2.9208	-3.7396	-3.075	-3.3042	-3.6188	-2.7938	-3.6729	-3.3146	-2.9708	24.484	86.137	137.301	136.088	-28.750	35.337	220.047	225.399	12.181	165.256	35.456	-76.845	-110.525	112.238	-69.291	216.467	0.00031265	0.00023674	8.5407e-05	793.67	2.4427e-06	2.551e-06	874.64	157.97	3.3596e-06	2.0956e-06	206.17	58.835	45.317	13.333	2.1543e-06	18.926	0.00019476	0.00015629	3.7429e-05	799.82	2.0287e-06	9.2445e-07	882.02	160.5	1.6665e-06	1.1983e-06	209.47	60.139	46.458	13.684	1.2125e-06	19.608	57.408	-18.465	-18.751	-107.373	23.858	41.328	-107.062	-98.944	13.065	28.489	-99.515	-92.868	-92.498	-84.906	46.488	-85.549	-8191	255	
1061.694	1	1	0	0	0.12635	0.26242	0.28284	0.24155	0.1293	0.10267	0.1242	0.080638	0.026121	0.023803	0.1825	0.19284	0.1164	0.168	0.068893	0.21427	-3.1979	-3.0833	-3.1729	-3.5917	-2.8458	-3.4833	-3.4792	-3.0542	-3.6104	-3.2625	-3.2979	-3.7417	-2.9625	-3.3667	-3.4833	-2.9021	170.746	-67.577	-32.291	-44.717	-103.661	-78.279	217.518	224.031	78.899	123.635	215.061	231.825	140.290	172.007	239.212	143.756	0.0002936	0.00023378	7.3955e-05	799.46	2.2639e-06	2.8306e-06	879.6	158.95	2.5604e-06	2.0789e-06	208.14	58.882	45.301	13.275	1.7852e-06	19.128	0.00019559	0.00013369	4.0661e-05	803.14	1.9091e-06	1.0365e-06	883.62	160.45	1.4563e-06	1.3488e-06	209.53	60.088	46.363	13.679	1.1991e-06	19.594	61.074	-25.465	-28.198	-107.127	12.024	25.787	-106.604	-99.107	37.443	26.917	-99.748	-93.263	-92.822	-85.258	66.287	-85.775	-8191	255	
1061.813	1	1	0	0	0.27401	0.22338	0.25247	0.094134	0.18815	0.17696	0.14338	0.23076	0.056689	0.088841	0.15978	0.052096	0.24152	0.016986	0.13639	0.034945	-3.4854	-3.2062	-3.0958	-3.7125	-2.9625	-3.4979	-3.7875	-2.9646	-3.675	-3.2687	-3.1792	-3.8521	-3.0938	-3.3146	-3.5646	-2.8667	152.836	220.711	101.611	7.616	26.921	70.310	171.388	-111.560	129.691	8.766	-86.190	-54.193	218.550	63.086	140.541	-19.050	0.00030515	0.00021305	4.9506e-05	800.21	2.6293e-06	1.7853e-06	871.37	159.07	3.6783e-06	2.1561e-06	206.1	58.651	45.958	13.332	2.7954e-06	18.939	0.00018351	0.0001646	3.6948e-05	802.62	2.1527e-06	1.1413e-06	881.45	160.75	1.8962e-06	9.3955e-07	209.35	60.164	46.516	13.699	1.0902e-06	19.566	67.476	-34.105	-16.078	-106.844	43.059	58.216	-106.942	-99.380	0.025	39.154	-99.481	-92.938	-92.213	-85.034	35.812	-85.582	-8191	255	
#DATA ENDS
