BOXY.EXE: ISS Imagent and Oximeter Data Acquisition Program Version 0.80
Ascii Record File

#ACQ INFORMATION
2  Detector Channels 
16  External MUX Channels 
1  Auxiliary Channels 
5000  Waveform (CCF) Frequency (Hz)
1  Waveforms Skipped 
30  Waveforms Averaged 
1  Cycles Averaged 
16  Acquisitions per Waveform 
10.0806  Updata Rate (Hz) 

#FILE INFORMATION
TRUE -- External MUX Channel results are PARSED.
FALSE -- AC DC and Phase are NOT grouped.
TRUE -- Companion Program Settings File CREATED.
FALSE -- AC data not excluded
FALSE -- DC data not excluded
FALSE -- Phase data not excluded
FALSE -- Auxillary Chn. data not excluded
Tab delimiters

#CALIBRATION STATE
TRUE -- Waveform Calibration Values APPLIED.


#AUX CALIBRATION VALUES
Val Type	aux-1	

Term	1.0000e+00	
Factor	0.0000e+00	


#WF CALIBRATION VALUES
A = Detector Channel
Val Type	A-AC1	A-AC2	A-AC3	A-AC4	A-AC5	A-AC6	A-AC7	A-AC8	A-AC9	A-AC10	A-AC11	A-AC12	A-AC13	A-AC14	A-AC15	A-AC16	A-DC1	A-DC2	A-DC3	A-DC4	A-DC5	A-DC6	A-DC7	A-DC8	A-DC9	A-DC10	A-DC11	A-DC12	A-DC13	A-DC14	A-DC15	A-DC16	A-Ph1	A-Ph2	A-Ph3	A-Ph4	A-Ph5	A-Ph6	A-Ph7	A-Ph8	A-Ph9	A-Ph10	A-Ph11	A-Ph12	A-Ph13	A-Ph14	A-Ph15	A-Ph16	

Term	0.00000e+00	0.00000e+00	0.00000e+00	0.00000e+00	0.00000e+00	0.00000e+00	0.00000e+00	0.00000e+00	0.00000e+00	0.00000e+00	0.00000e+00	0.00000e+00	0.00000e+00	0.00000e+00	0.00000e+00	0.00000e+00	0.00000e+00	0.00000e+00	0.00000e+00	0.00000e+00	0.00000e+00	0.00000e+00	0.00000e+00	0.00000e+00	0.00000e+00	0.00000e+00	0.00000e+00	0.00000e+00	0.00000e+00	0.00000e+00	0.00000e+00	0.00000e+00	0.00000e+00	0.00000e+00	0.00000e+00	0.00000e+00	0.00000e+00	0.00000e+00	0.00000e+00	0.00000e+00	0.00000e+00	0.00000e+00	0.00000e+00	0.00000e+00	0.00000e+00	0.00000e+00	0.00000e+00	0.00000e+00	
Factor	1.00000e+00	1.00000e+00	1.00000e+00	1.00000e+00	1.00000e+00	1.00000e+00	1.00000e+00	1.00000e+00	1.00000e+00	1.00000e+00	1.00000e+00	1.00000e+00	1.00000e+00	1.00000e+00	1.00000e+00	1.00000e+00	1.00000e+00	1.00000e+00	1.00000e+00	1.00000e+00	1.00000e+00	1.00000e+00	1.00000e+00	1.00000e+00	1.00000e+00	1.00000e+00	1.00000e+00	1.00000e+00	1.00000e+00	1.00000e+00	1.00000e+00	1.00000e+00	X	X	X	X	X	X	X	X	X	X	X	X	X	X	X	X	

B = Detector Channel
Val Type	B-AC1	B-AC2	B-AC3	B-AC4	B-AC5	B-AC6	B-AC7	B-AC8	B-AC9	B-AC10	B-AC11	B-AC12	B-AC13	B-AC14	B-AC15	B-AC16	B-DC1	B-DC2	B-DC3	B-DC4	B-DC5	B-DC6	B-DC7	B-DC8	B-DC9	B-DC10	B-DC11	B-DC12	B-DC13	B-DC14	B-DC15	B-DC16	B-Ph1	B-Ph2	B-Ph3	B-Ph4	B-Ph5	B-Ph6	B-Ph7	B-Ph8	B-Ph9	B-Ph10	B-Ph11	B-Ph12	B-Ph13	B-Ph14	B-Ph15	B-Ph16	

Term	0.00000e+00	0.00000e+00	0.00000e+00	0.00000e+00	0.00000e+00	0.00000e+00	0.00000e+00	0.00000e+00	0.00000e+00	0.00000e+00	0.00000e+00	0.00000e+00	0.00000e+00	0.00000e+00	0.00000e+00	0.00000e+00	0.00000e+00	0.00000e+00	0.00000e+00	0.00000e+00	0.00000e+00	0.00000e+00	0.00000e+00	0.00000e+00	0.00000e+00	0.00000e+00	0.00000e+00	0.00000e+00	0.00000e+00	0.00000e+00	0.00000e+00	0.00000e+00	-2.67937e+02	-1.30297e+02	-1.24741e+02	-1.87822e+02	-6.96048e+01	-6.65855e+01	-1.56226e+02	-1.62015e+02	-6.64801e+01	-6.54146e+01	-1.71993e+02	-1.70449e+02	-1.82921e+02	-1.77447e+02	-7.06104e+01	-1.50185e+02	
Factor	5.08686e-05	1.23101e-04	3.70342e-05	3.47696e-01	1.44184e-06	1.36155e-06	1.51375e-01	4.06272e-02	2.33488e-06	1.39090e-06	7.25516e-02	2.05289e-02	3.17289e-02	6.81532e-03	1.55922e-06	9.51071e-03	2.34709e-05	6.99811e-05	2.09637e-05	1.86283e-01	7.08699e-07	8.53338e-07	7.64441e-02	2.19243e-02	5.51292e-07	8.80824e-07	3.79906e-02	1.07674e-02	1.72504e-02	3.72260e-03	6.45250e-07	5.03074e-03	X	X	X	X	X	X	X	X	X	X	X	X	X	X	X	X	



#DISTANCE SETTINGS
A = Detector Channel
A-1	A-2	A-3	A-4	A-5	A-6	A-7	A-8	A-9	A-10	A-11	A-12	A-13	A-14	A-15	A-16	

2.5000e+00	3.0000e+00	2.5000e+00	3.0000e+00	2.0000e+00	3.0000e+00	1.5000e+00	3.0000e+00	3.0000e+00	3.0000e+00	3.0000e+00	3.0000e+00	3.0000e+00	3.0000e+00	1.5000e+00	3.0000e+00	

B = Detector Channel
B-1	B-2	B-3	B-4	B-5	B-6	B-7	B-8	B-9	B-10	B-11	B-12	B-13	B-14	B-15	B-16	

1.0000e+01	1.0000e+01	1.0000e+01	1.4400e+00	1.0000e+01	1.0000e+01	1.5100e+00	1.9400e+00	1.0000e+01	1.0000e+01	1.9900e+00	2.4900e+00	2.4100e+00	2.9000e+00	1.0000e+01	2.9800e+00	




#DATA BEGINS
time	group	step	mark	flag	A-AC1	A-AC2	A-AC3	A-AC4	A-AC5	A-AC6	A-AC7	A-AC8	A-AC9	A-AC10	A-AC11	A-AC12	A-AC13	A-AC14	A-AC15	A-AC16	A-DC1	A-DC2	A-DC3	A-DC4	A-DC5	A-DC6	A-DC7	A-DC8	A-DC9	A-DC10	A-DC11	A-DC12	A-DC13	A-DC14	A-DC15	A-DC16	A-Ph1	A-Ph2	A-Ph3	A-Ph4	A-Ph5	A-Ph6	A-Ph7	A-Ph8	A-Ph9	A-Ph10	A-Ph11	A-Ph12	A-Ph13	A-Ph14	A-Ph15	A-Ph16	B-AC1	B-AC2	B-AC3	B-AC4	B-AC5	B-AC6	B-AC7	B-AC8	B-AC9	B-AC10	B-AC11	B-AC12	B-AC13	B-AC14	B-AC15	B-AC16	B-DC1	B-DC2	B-DC3	B-DC4	B-DC5	B-DC6	B-DC7	B-DC8	B-DC9	B-DC10	B-DC11	B-DC12	B-DC13	B-DC14	B-DC15	B-DC16	B-Ph1	B-Ph2	B-Ph3	B-Ph4	B-Ph5	B-Ph6	B-Ph7	B-Ph8	B-Ph9	B-Ph10	B-Ph11	B-Ph12	B-Ph13	B-Ph14	B-Ph15	B-Ph16	aux-1	digaux	

2410.221	1	1	0	256	0.11837	0.20371	0.13008	0.33929	0.26115	0.21107	0.025027	0.042751	0.28812	0.1481	0.14892	0.19108	0.17222	0.041895	0.080648	0.14876	-2.8937	-3.0167	-3.7104	-2.9229	-3.2167	-3.5896	-2.9042	-3.6146	-3.2417	-3.0958	-3.9042	-3.0479	-3.1708	-3.7	-3.0104	-3.6333	255.561	158.147	410.164	135.264	442.860	132.707	208.008	332.719	170.001	259.444	431.322	227.826	268.371	397.032	224.422	128.277	6.9654e-05	6.8131e-05	5.7889e-06	66.237	1.6634e-07	2.7403e-07	106.44	12.697	1.2523e-06	6.1951e-07	25.129	8.3361	4.0201	0.97997	8.3575e-07	2.0538	0.00011574	0.0002792	5.7475e-05	66.064	2.6074e-06	2.2382e-06	105.75	12.727	1.8606e-06	3.7398e-06	25.154	8.2326	3.9953	0.99138	2.5944e-06	2.1058	397.636	446.360	309.277	100.197	99.667	228.907	98.675	106.839	218.918	338.414	102.428	106.938	108.450	112.777	141.479	109.740	-8191	255	
2410.341	1	1	0	0	0.15811	0.16378	0.22316	0.058018	0.10323	0.13981	0.1333	0.18623	0.14199	0.23896	0.098017	0.23402	0.11576	0.28505	0.21019	0.13278	-3	-3.0792	-3.5917	-3.0479	-3.2146	-3.7958	-2.7958	-3.4833	-3.4729	-2.9104	-3.6813	-3.2167	-3.2646	-3.8646	-3.0021	-3.4021	164.236	426.823	87.776	266.167	381.686	274.835	260.948	121.209	393.825	349.367	299.422	106.324	317.941	350.232	249.289	248.816	5.866e-05	3.7708e-05	3.3745e-05	66.817	8.6168e-07	3.5669e-07	108.21	12.89	1.4224e-06	1.665e-06	24.965	8.2266	4.1254	0.97785	2.3428e-07	2.0428	0.00011002	0.0002808	6.1974e-05	67.318	2.9042e-06	2.8925e-06	107.78	12.602	1.8147e-06	3.4994e-06	25.382	8.2248	4.1485	0.98662	3.2034e-06	2.0617	408.427	410.851	257.998	101.639	218.234	224.965	98.732	105.732	248.757	168.343	102.330	105.890	109.293	113.159	304.225	109.218	-8191	255	
2410.437	1	1	0	0	0.13387	0.08319	0.2307	0.12677	0.30699	0.20484	0.11641	0.058325	0.23869	0.15147	0.038288	0.117	0.0656	0.14114	0.16717	0.24421	-3.325	-2.9125	-3.6396	-3.3667	-3.1896	-3.9271	-3.0354	-3.4083	-3.7729	-2.9646	-3.5583	-3.4146	-3.1208	-3.7854	-2.9375	-3.2687	238.843	133.846	204.695	396.388	97.106	153.740	124.349	396.490	264.802	220.202	354.710	133.950	152.870	231.341	333.943	105.580	7.3252e-05	3.6902e-05	1.0332e-05	68.653	1.1822e-06	6.4253e-07	106.85	12.456	9.2657e-07	6.409e-07	25.372	8.3017	4.2234	0.9694	1.2972e-06	2.0479	0.00011564	0.00030281	7.8876e-05	68.084	3.5952e-06	2.576e-06	107.26	12.402	1.57e-06	3.5563e-06	25.488	8.231	4.1532	0.97933	2.7947e-06	2.0788	408.897	365.581	211.073	100.616	291.870	262.616	98.234	106.286	310.491	285.852	102.072	107.506	106.653	113.482	208.318	109.582	-8191	255	
2410.509	1	1	0	0	0.25587	0.12608	0.1417	0.12812	0.08392	0.13997	0.20833	0.19061	0.18071	0.15459	0.072955	0.15796	0.098555	0.11703	0.30855	0.11808	-3.4146	-2.9083	-3.6354	-3.4479	-3.1583	-3.7229	-3.2979	-3.1333	-3.775	-2.8979	-3.4458	-3.5292	-2.9083	-3.6979	-3.3812	-3.2	117.465	96.835	298.854	407.566	291.183	335.724	303.480	227.041	267.538	330.649	430.291	223.270	274.017	358.131	253.171	198.698	6.444e-05	9.0812e-05	1.6623e-05	69.239	3.5094e-07	1.1553e-06	110.38	12.491	6.4412e-07	6.1899e-07	25.617	8.2625	4.2391	0.94539	2.5974e-07	2.071	0.0001151	0.00030004	7.9662e-05	69.624	3.0504e-06	2.7769e-06	109.42	12.442	2.1661e-06	3.6334e-06	25.761	8.3206	4.2471	0.97449	2.4829e-06	2.106	399.185	282.501	140.976	100.789	327.997	235.639	98.482	106.326	96.499	198.067	101.890	105.535	107.556	113.347	247.048	109.798	-8191	255	
2410.605	1	1	0	0	0.1001	0.12528	0.040133	0.058086	0.11986	0.20225	0.13211	0.086283	0.1173	0.1375	0.11096	0.22746	0.18351	0.13832	0.23877	0.16263	-3.4229	-2.8479	-3.4958	-3.6333	-2.9354	-3.6292	-3.3312	-3.075	-3.6917	-2.925	-3.4604	-3.5333	-2.925	-3.8063	-3.45	-3.1104	428.129	222.578	332.012	321.454	363.924	115.718	108.753	393.111	140.771	109.462	371.932	98.709	338.426	195.557	98.624	169.685	7.8105e-05	6.858e-05	5.7922e-06	70.343	9.3854e-07	3.0208e-07	113.52	12.432	2.4937e-06	8.4957e-07	26.075	8.4428	4.2634	0.957	7.722e-07	2.0878	0.00012224	0.00033445	8.6519e-05	70.922	3.3353e-06	2.8711e-06	112.32	12.479	1.9858e-06	3.5563e-06	26.225	8.4587	4.2705	0.98073	2.6401e-06	2.1272	387.743	245.566	343.566	100.995	226.809	379.048	98.065	106.052	281.774	249.640	102.619	106.776	107.276	113.782	271.818	108.690	-8191	255	
2410.701	1	1	0	0	0.11967	0.13535	0.1164	0.068651	0.23978	0.11821	0.11861	0.11123	0.22589	0.15828	0.22528	0.13153	0.073414	0.17446	0.13026	0.09283	-3.3979	-3.0375	-3.3333	-3.6	-2.8375	-3.7229	-3.3292	-3.0521	-3.8271	-3.0833	-3.1813	-3.7625	-2.9917	-3.6229	-3.4938	-3.0375	377.606	346.738	339.742	368.507	147.525	129.111	392.253	141.181	308.019	277.463	351.681	334.337	318.265	105.313	238.861	340.265	5.883e-05	7.2544e-05	3.7418e-05	72.7	4.1679e-07	1.6896e-06	112.93	12.553	2.0344e-06	6.0742e-07	26.216	8.3145	4.2639	0.95351	1.1968e-06	2.0383	0.00012488	0.0003069	9.5996e-05	72.142	3.3796e-06	3.2978e-06	112.5	12.571	1.7538e-06	3.4774e-06	26.103	8.3817	4.2492	0.97245	2.5017e-06	2.0942	386.539	388.360	122.273	99.361	371.714	146.643	98.010	107.286	254.730	205.656	100.984	105.972	107.851	112.566	216.787	110.241	-8191	255	
2410.822	1	1	0	0	0.056979	0.20542	0.11967	0.042059	0.18119	0.060794	0.074331	0.10051	0.18848	0.026189	0.17149	0.17115	0.26377	0.067517	0.21675	0.076388	-3.2021	-3.2479	-3.0667	-3.6958	-2.8354	-3.6063	-3.4625	-2.8688	-3.6771	-3.2583	-3.0917	-3.775	-2.9771	-3.4208	-3.5271	-2.7938	350.409	385.060	232.296	419.993	232.002	442.213	241.173	365.555	397.687	157.385	295.882	283.591	270.555	250.116	249.279	429.476	4.302e-05	4.3547e-05	4.9645e-06	70.931	1.2519e-07	1.2191e-06	113.6	12.498	2.4501e-06	5.0271e-07	25.955	8.4145	4.2891	0.93569	9.3894e-07	2.0977	0.00010557	0.00031433	9.8092e-05	71.312	2.8894e-06	3.2178e-06	112.08	12.553	2.0547e-06	3.226e-06	26.056	8.333	4.3364	0.97147	2.1871e-06	2.1126	379.791	208.443	410.224	99.105	199.884	203.138	97.673	107.153	289.745	114.643	101.536	104.720	107.237	111.700	286.546	110.083	-8191	255	
2410.918	1	1	0	0	0.12889	0.077024	0.056245	0.068686	0.052976	0.14346	0.15168	0.26539	0.2677	0.089925	0.40668	0.17222	0.083316	0.13555	0.15748	0.15023	-3.2833	-3.3	-3.1604	-3.7417	-2.8729	-3.4042	-3.6875	-2.8271	-3.4646	-3.2708	-2.9646	-3.8021	-2.9167	-3.3521	-3.6833	-2.9	291.251	260.366	335.137	351.145	375.592	162.572	218.857	267.551	196.893	165.714	413.765	368.627	238.915	130.294	95.183	207.048	8.6323e-05	1.8574e-05	2.358e-05	71.92	6.5376e-07	8.4143e-07	114.24	12.417	8.7334e-07	4.7244e-07	26.576	8.4497	4.3218	0.96375	5.8415e-07	2.1355	0.00012097	0.00023006	8.8746e-05	71.468	3.3767e-06	3.9022e-06	112.92	12.595	2.0788e-06	3.3912e-06	26.306	8.4406	4.2988	0.98493	2.3216e-06	2.1411	384.304	88.561	198.634	99.715	212.923	147.884	97.454	104.894	269.342	98.097	101.474	105.861	106.223	115.264	421.941	109.315	-8191	255	
2411.014	1	1	0	0	0.12676	0.12121	0.098611	0.12606	0.16305	0.15425	0.12552	0.12772	0.16861	0.36124	0.04434	0.22819	0.21005	0.10017	0.12035	0.16897	-3.3271	-3.2062	-3.0125	-3.75	-2.95	-3.2375	-3.7021	-2.8958	-3.5458	-3.3312	-3.0354	-3.6104	-3.1979	-3.0896	-3.6583	-2.8812	100.056	200.993	348.518	316.522	172.627	142.783	257.296	371.725	176.107	368.975	278.930	160.194	191.277	103.162	146.867	211.643	6.8474e-05	4.0745e-05	2.5176e-05	72.285	5.6003e-07	8.7769e-07	113.4	13.103	9.615e-07	1.101e-06	26.925	8.7701	4.3702	0.96638	3.7805e-07	2.0892	0.00011789	0.00026185	8.1453e-05	73.025	2.8569e-06	3.7191e-06	114.01	13.213	1.7549e-06	3.3031e-06	26.744	8.7205	4.4094	0.99938	2.2019e-06	2.1622	392.173	250.817	195.645	99.951	205.274	200.624	97.299	104.808	264.488	154.345	100.327	105.177	107.112	113.248	341.677	109.290	-8191	255	
2411.110	1	1	0	0	0.099418	0.097643	0.12134	0.13821	0.096138	0.043179	0.067604	0.13007	0.13211	0.11777	0.17963	0.060295	0.097772	0.13516	0.22254	0.066991	-3.2021	-3.4396	-2.95	-3.7542	-3.1458	-3.0729	-3.6562	-2.9188	-3.5521	-3.5979	-3.0583	-3.6312	-3.3792	-3.0312	-3.6604	-2.9958	278.098	291.080	287.387	171.356	397.256	169.324	380.133	322.918	108.898	431.145	347.521	291.470	417.927	339.989	89.510	195.097	7.5891e-05	9.7457e-05	1.5958e-05	75.202	1.0129e-06	1.3455e-06	116.18	13.062	1.3842e-06	1.1546e-06	26.705	8.7205	4.4501	0.96562	1.1323e-06	2.0854	0.00013021	0.00022467	8.8266e-05	74.45	3.0105e-06	3.4525e-06	115.55	13.226	1.9824e-06	3.1104e-06	26.644	8.7209	4.4662	0.98603	2.2275e-06	2.1294	412.898	333.296	107.312	99.448	222.210	247.130	97.897	105.292	308.981	278.559	103.220	105.391	108.121	112.126	180.224	108.910	-8191	255	
2411.205	1	1	0	0	0.048382	0.13707	0.028445	0.028367	0.039029	0.15348	0.29211	0.077279	0.3772	0.23507	0.17782	0.047471	0.17441	0.12038	0.097361	0.18311	-2.8917	-3.5625	-2.9625	-3.6083	-3.275	-3.0396	-3.9688	-3.0104	-3.2812	-3.7375	-2.7479	-3.5375	-3.2833	-2.8812	-3.7687	-3.1458	187.969	370.026	321.786	198.948	191.840	340.440	222.800	376.214	311.391	215.316	164.386	299.513	195.262	191.300	332.969	426.306	7.871e-05	4.7084e-05	1.2921e-05	74.42	1.1772e-06	4.1001e-07	117.68	13.355	2.0236e-06	1.3573e-06	26.713	8.86	4.5599	1.0077	1.5747e-07	2.1388	0.00011212	0.0002598	8.8047e-05	75.413	2.7418e-06	3.3885e-06	116.79	13.445	1.8664e-06	2.8425e-06	26.857	8.8899	4.5328	1.0194	2.218e-06	2.1682	393.909	124.483	220.113	99.721	207.737	254.633	97.890	105.645	147.363	258.361	101.841	106.190	108.695	111.414	292.812	109.550	-8191	255	
2411.303	1	1	0	0	0.27254	0.19758	0.14556	0.12648	0.16116	0.19659	0.17145	0.25619	0.23894	0.15555	0.085621	0.21104	0.21716	0.13417	0.13059	0.054308	-2.8104	-3.5812	-2.9	-3.5187	-3.3917	-2.9188	-3.6833	-3.0625	-2.9521	-3.7021	-3.1437	-3.4979	-3.4313	-2.8563	-3.6292	-3.2062	191.859	385.415	368.846	125.738	415.009	294.559	162.228	205.428	439.892	174.296	401.093	313.192	270.423	412.115	307.978	114.043	6.8614e-05	5.1528e-05	2.5819e-05	76.098	4.8945e-07	1.3359e-06	119.95	13.392	6.7055e-07	2.3418e-07	27.08	9.0001	4.5578	1.0108	6.3408e-07	2.1725	0.00012131	0.00024887	9.7961e-05	76.694	2.2324e-06	3.5076e-06	118.71	13.465	2.3947e-06	2.9783e-06	27.192	8.9755	4.6065	1.0303	1.9815e-06	2.19	366.645	179.462	145.600	99.738	298.579	244.191	97.887	105.048	384.814	407.444	102.606	105.562	107.417	112.596	389.132	107.545	-8191	255	
2411.422	1	1	0	0	0.0579	0.16321	0.069478	0.11697	0.11575	0.045593	0.17078	0.17843	0.072368	0.035168	0.086614	0.09399	0.077038	0.097965	0.2671	0.14681	-2.7438	-3.6292	-2.9708	-3.5167	-3.5271	-3.0542	-3.7	-3.2604	-3.0646	-3.8604	-3.0708	-3.4229	-3.4792	-3.0104	-3.5375	-3.4729	417.522	359.626	304.359	273.030	268.373	262.488	155.724	189.181	386.026	112.948	291.826	376.065	108.722	158.833	205.503	427.272	8.2747e-05	4.4788e-05	2.2225e-05	78.592	4.7181e-07	7.7278e-07	122.15	14.041	5.2441e-07	5.5147e-07	27.612	9.2368	4.7572	1.0248	4.9383e-07	2.1828	0.00011447	0.00022088	8.7611e-05	78.492	2.3771e-06	3.6907e-06	121.03	13.838	2.2075e-06	2.459e-06	27.721	9.3018	4.7195	1.0687	2.1777e-06	2.2273	377.579	99.193	214.272	99.953	230.048	251.663	97.623	105.415	312.850	211.773	101.460	105.888	108.381	113.136	407.106	109.192	-8191	255	
2411.518	1	1	0	0	0.11627	0.15192	0.178	0.12428	0.072068	0.20742	0.17723	0.038475	0.28286	0.22827	0.061756	0.047176	0.19095	0.029791	0.13806	0.20283	-2.6667	-3.7792	-3.0458	-3.2333	-3.6083	-3.0438	-3.6375	-3.3833	-2.9813	-3.6917	-3.1271	-3.2313	-3.6729	-2.8771	-3.4083	-3.4437	370.513	93.248	364.893	164.012	239.081	196.220	299.110	137.509	358.780	348.986	415.331	233.704	207.915	136.995	164.661	431.180	7.5217e-05	8.0594e-05	3.8344e-05	80.133	8.9302e-07	8.7097e-07	124.36	13.964	8.8286e-07	5.0452e-07	28.402	9.425	4.7633	1.0404	7.0727e-07	2.2808	0.00013506	0.00025047	9.7787e-05	79.92	2.1468e-06	3.7974e-06	123.03	13.924	2.2798e-06	2.9434e-06	28.244	9.3448	4.7745	1.0803	2.4331e-06	2.2795	374.992	441.091	169.076	100.610	383.803	169.325	97.776	105.285	375.296	296.998	101.015	106.060	108.652	113.265	350.303	108.917	-8191	255	
2411.614	1	1	0	0	0.22603	0.057405	0.12691	0.14756	0.23729	0.080637	0.037964	0.14945	0.077933	0.088288	0.10399	0.19592	0.023456	0.13131	0.16297	0.063262	-2.4083	-3.6729	-3.1708	-3.2146	-3.5458	-2.9688	-3.4062	-3.4938	-2.9792	-3.6479	-3.2958	-2.9521	-3.6521	-2.9	-3.3083	-3.6375	185.137	340.088	157.047	130.971	373.737	343.188	300.032	423.599	373.274	331.360	181.453	396.650	316.933	144.109	382.760	119.287	6.0523e-05	6.3785e-05	2.017e-05	83.63	7.6211e-07	3.2273e-07	130.94	14.621	9.2655e-07	3.2253e-07	29.651	9.8764	5.1114	1.1226	1.0618e-06	2.3739	0.00013364	0.00020528	8.0885e-05	83.123	2.3033e-06	3.2036e-06	129.99	14.604	2.2764e-06	2.5893e-06	29.693	9.9191	5.0962	1.1503	2.3726e-06	2.377	394.808	374.704	186.505	100.204	420.627	226.724	97.666	105.982	229.626	152.131	102.019	106.189	106.273	112.326	255.165	109.678	-8191	255	
2411.710	1	1	0	0	0.23919	0.16408	0.25216	0.14446	0.19768	0.11168	0.3744	0.044074	0.2125	0.0641	0.1078	0.1255	0.20186	0.37934	0.068569	0.14083	-2.5438	-3.6208	-3.3812	-3.0667	-3.7542	-2.9917	-3.2833	-3.5979	-2.9667	-3.4854	-3.3854	-3.0229	-3.7854	-2.8979	-3.3208	-3.6104	257.300	292.893	224.458	374.989	401.649	288.569	360.779	114.755	225.261	181.263	244.450	258.677	108.224	117.564	430.994	355.550	9.817e-05	6.0407e-05	3.2446e-05	86.782	8.9848e-07	6.482e-07	134.33	15.14	1.7428e-06	1.4357e-07	30.788	10.228	5.14	1.1782	5.546e-07	2.3791	0.00012043	0.00019843	7.4028e-05	85.866	1.9504e-06	3.5485e-06	134.51	15.3	2.2408e-06	2.7948e-06	30.894	10.18	5.1426	1.185	2.0823e-06	2.4204	386.853	182.440	195.923	99.867	287.171	146.292	97.622	105.634	298.483	172.028	101.699	105.496	108.241	114.388	135.225	107.770	-8191	255	
2411.806	1	1	0	0	0.063904	0.15236	0.20987	0.26973	0.14164	0.14429	0.14741	0.11393	0.088217	0.1041	0.097876	0.069942	0.12818	0.070185	0.19639	0.19687	-2.5563	-3.4708	-3.4125	-2.9021	-3.7646	-3.0521	-3.2562	-3.8958	-2.9125	-3.4667	-3.4813	-3.0792	-3.7125	-3.2458	-3.1625	-3.6792	106.516	223.500	311.001	411.714	391.316	254.060	103.726	286.391	290.592	99.384	378.003	140.451	112.604	300.031	93.639	114.825	9.8756e-05	5.0965e-05	1.7656e-05	85.474	5.6166e-07	5.3137e-07	138	15.786	8.6644e-07	8.5275e-07	32.43	10.525	5.2381	1.1297	6.4479e-07	2.396	0.00012821	0.00025645	7.4115e-05	85.923	1.8279e-06	3.1965e-06	137.7	15.691	2.32e-06	3.1049e-06	31.963	10.42	5.2038	1.1721	2.3646e-06	2.441	399.703	174.369	171.583	99.187	209.345	305.057	98.205	106.162	250.774	283.484	101.972	105.592	106.494	110.980	166.855	109.421	-8191	255	
2411.902	1	1	0	0	0.21615	0.14078	0.092377	0.27262	0.13421	0.13139	0.076348	0.22274	0.18802	0.20347	0.087893	0.14545	0.050833	0.095522	0.12125	0.08018	-2.6479	-3.5354	-3.6458	-2.8604	-3.7354	-3.3521	-3.1104	-3.7521	-3.2104	-3.3812	-3.6792	-2.9146	-3.6063	-3.3333	-3.2042	-3.6583	260.196	350.984	444.823	428.538	234.628	120.641	351.585	406.297	119.434	208.333	445.555	104.560	437.871	382.997	425.306	356.593	8.8069e-05	2.6966e-05	1.605e-05	78.764	5.1162e-07	5.0089e-07	138.56	15.344	1.4347e-06	8.4364e-07	31.257	10.161	5.1716	1.1214	1.4301e-06	2.3198	0.00013183	0.00024552	5.8261e-05	79.642	2.4022e-06	2.8498e-06	137.56	15.399	2.3671e-06	3.3728e-06	31.052	10.157	5.0607	1.1534	2.4103e-06	2.3408	401.100	410.263	443.781	100.198	207.901	236.855	97.887	104.485	272.702	164.821	101.127	105.247	105.613	113.558	164.979	109.826	-8191	255	
2411.999	1	1	0	0	0.1174	0.13722	0.1233	0.11632	0.13027	0.10461	0.095462	0.2123	0.22957	0.1054	0.34666	0.061263	0.10171	0.10375	0.13843	0.23206	-2.7646	-3.25	-3.5083	-2.7687	-3.6646	-3.3479	-3.0375	-3.775	-3.0333	-3.2271	-3.6708	-3.0104	-3.5917	-3.3542	-3.0125	-3.7292	248.689	293.350	253.748	317.589	227.203	115.729	403.618	111.268	430.979	297.971	371.957	327.084	131.344	295.885	337.480	91.658	6.7273e-05	8.1685e-06	8.6517e-06	73.469	8.0337e-07	8.9637e-07	138.31	15.256	8.7934e-07	6.5126e-07	30.598	9.8814	4.8458	1.1116	2.0135e-07	2.3251	0.00012127	0.00026185	7.6954e-05	75.349	2.166e-06	2.5849e-06	136.73	15.284	2.088e-06	3.5839e-06	30.404	9.9687	4.8546	1.133	2.4399e-06	2.3236	397.165	312.646	236.913	100.623	171.137	137.179	97.367	105.868	320.859	262.283	101.817	105.265	107.729	112.155	193.418	109.844	-8191	255	
2412.117	1	1	0	0	0.2258	0.099078	0.29046	0.18008	0.16342	0.078042	0.28285	0.14498	0.11313	0.10118	0.033932	0.12993	0.057479	0.22815	0.28905	0.13308	-2.775	-3.1292	-3.7292	-3.0563	-3.3667	-3.5667	-2.9354	-3.5604	-3.3125	-3.0187	-3.7479	-2.9417	-3.3708	-3.5729	-2.6896	-3.6188	331.171	306.025	426.511	195.053	282.236	292.668	274.822	175.242	237.832	316.260	430.562	407.126	408.593	104.969	89.901	93.209	6.7339e-05	3.9132e-05	1.2026e-05	72.554	5.1396e-07	5.8962e-07	135.74	15.307	1.4365e-06	1.1474e-06	30.238	9.9114	4.6859	1.1048	1.5667e-06	2.2864	0.00012894	0.00024566	5.9965e-05	73.947	2.4362e-06	3.0045e-06	134.21	15.239	1.8686e-06	3.6261e-06	30.193	9.9875	4.7062	1.1241	2.5783e-06	2.3201	387.524	230.070	107.756	100.906	230.076	185.236	97.524	105.352	308.163	192.652	101.727	105.297	108.651	112.712	268.334	109.026	-8191	255	
2412.214	1	1	0	0	0.048111	0.28363	0.29971	0.091743	0.19027	0.15191	0.078491	0.14309	0.33169	0.17629	0.2052	0.22695	0.04849	0.075917	0.061579	0.23996	-3.0083	-2.8375	-3.7042	-3.0917	-3.4125	-3.6521	-3.0042	-3.6979	-3.3729	-2.9875	-3.8042	-2.8667	-3.2854	-3.4604	-2.7792	-3.6937	158.612	250.033	294.136	93.030	341.272	317.656	226.347	235.529	261.104	344.941	216.111	129.784	182.145	100.336	197.987	331.444	8.7794e-05	4.3019e-05	1.0929e-05	73.061	6.5268e-07	5.2044e-07	131.66	14.795	1.992e-06	6.3016e-07	30.057	9.5515	4.6117	1.0513	5.2857e-07	2.2034	0.00012244	0.00025689	5.8786e-05	73.003	2.5735e-06	2.9227e-06	130.99	14.876	2.2442e-06	3.5398e-06	29.791	9.6239	4.6324	1.0775	2.5474e-06	2.2333	382.579	128.953	410.691	100.824	368.973	177.542	98.425	104.445	231.755	231.342	101.203	105.359	108.633	112.450	224.899	109.379	-8191	255	
2412.310	1	1	0	0	0.19815	0.14902	0.28918	0.12136	0.082522	0.11715	0.27051	0.22424	0.023497	0.26624	0.09809	0.20185	0.030047	0.10541	0.31638	0.14204	-3.0687	-2.9271	-3.7917	-3.0146	-3.0333	-3.8979	-3.0708	-3.525	-3.4646	-2.8729	-3.7208	-3.1271	-2.9979	-3.6875	-2.9833	-3.3812	375.954	432.363	248.192	384.646	263.163	152.556	334.963	309.751	154.345	379.863	271.522	135.117	286.398	346.971	309.593	283.010	3.2978e-05	4.2228e-05	1.7266e-05	69.8	1.0352e-06	6.217e-07	128.92	14.201	2.2009e-06	1.3773e-06	28.844	9.2355	4.4155	1.0061	6.4223e-07	2.0314	0.00011334	0.00029509	6.7695e-05	70.4	3.2556e-06	3.1574e-06	126.96	14.257	2.6278e-06	3.4426e-06	28.706	9.1611	4.4151	1.0107	3.0824e-06	2.0988	392.569	184.720	325.028	101.749	203.201	171.701	97.212	104.543	245.370	279.480	101.152	105.338	107.073	114.371	406.258	110.176	-8191	255	
2412.383	1	1	0	0	0.12712	0.26695	0.12631	0.30682	0.097737	0.074761	0.14695	0.069462	0.19944	0.27282	0.075208	0.14324	0.012293	0.098085	0.17288	0.23385	-3.3479	-2.8521	-3.7083	-3.2479	-3.1021	-3.7917	-3.075	-3.4542	-3.6896	-2.95	-3.6667	-3.3229	-3.025	-3.6646	-3.1417	-3.4729	87.384	406.978	127.059	303.416	118.367	397.053	279.587	429.339	179.146	408.386	229.353	122.582	235.093	339.175	341.359	123.893	7.3374e-05	8.5638e-05	2.8664e-05	63.31	9.7676e-07	1.2506e-06	116.47	13.759	1.082e-06	7.314e-07	28.598	8.3829	4.4434	0.96783	1.4659e-06	2.112	0.0001262	0.00033212	7.2281e-05	64.028	3.4431e-06	3.4969e-06	116.41	13.788	2.4739e-06	4.4738e-06	28.543	8.361	4.3933	0.97229	4.0073e-06	2.1612	410.580	198.395	209.070	99.815	259.518	310.665	97.285	104.438	341.911	261.166	101.122	105.491	106.483	113.219	260.066	109.038	-8191	255	
2412.502	1	1	0	0	0.33945	0.19908	0.32114	0.062304	0.32914	0.21741	0.16528	0.17268	0.022201	0.1764	0.24234	0.015651	0.049917	0.27824	0.26452	0.30408	-3.3521	-2.8375	-3.6479	-3.4562	-3.0333	-3.8812	-2.9646	-3.1979	-3.7521	-2.9521	-3.5125	-3.3229	-2.8958	-3.625	-3.0104	-3.075	179.085	202.506	195.484	300.702	434.530	268.494	94.304	417.913	190.334	394.185	313.998	309.730	310.371	309.998	105.912	334.881	0.00010559	5.8181e-05	2.1508e-05	70.205	6.2901e-07	1.1291e-06	115.25	15.925	1.8003e-06	1.1965e-06	27.968	8.1816	4.3547	1.0959	4.3585e-07	2.3484	0.00014493	0.00041508	9.8529e-05	70.297	4.5357e-06	4.4445e-06	114.97	15.833	2.9402e-06	5.384e-06	28.161	8.2747	4.4851	1.1037	4.0476e-06	2.3886	391.871	243.300	268.276	100.723	173.240	406.090	97.611	104.147	208.624	222.293	102.265	105.305	108.118	113.285	149.041	108.925	-8191	255	
2412.598	1	1	0	0	0.21561	0.25204	0.13826	0.070082	0.10792	0.095569	0.02834	0.15477	0.073374	0.17258	0.16739	0.11586	0.11008	0.089886	0.26575	0.082048	-3.2646	-2.8271	-3.4562	-3.4167	-3.1333	-3.7958	-3.2271	-3.0771	-3.7396	-2.9667	-3.4583	-3.5792	-2.95	-3.7042	-3.375	-3.0083	184.796	278.807	228.198	104.009	333.077	94.725	325.600	105.786	247.247	189.594	211.579	259.345	199.618	164.216	412.928	111.816	0.00011135	4.4993e-05	1.2373e-05	68.751	4.3272e-07	5.6197e-07	115.04	14.883	1.5348e-07	8.7616e-07	24.53	7.9705	4.3687	1.1997	1.2953e-06	2.5585	0.00017921	0.00049614	0.00012696	70.328	5.1528e-06	5.7689e-06	115.21	14.797	3.8855e-06	6.7438e-06	24.606	8.0645	4.4922	1.1965	4.9106e-06	2.6053	396.526	298.338	429.249	101.374	347.243	212.321	97.663	104.659	173.420	257.227	101.672	105.480	106.370	112.103	148.517	109.959	-8191	255	
2412.694	1	1	0	0	0.22544	0.13233	0.061531	0.29556	0.23619	0.051863	0.12165	0.032806	0.16622	0.089889	0.18753	0.25989	0.1764	0.14948	0.047665	0.088124	-3.275	-3.0146	-3.3667	-3.55	-3.0563	-3.5687	-3.2313	-2.9354	-3.6229	-3.0646	-3.1875	-3.5854	-3.0396	-3.6396	-3.4	-2.8979	358.264	252.474	348.698	341.330	331.037	252.183	372.238	124.144	352.715	258.990	418.228	412.167	292.669	367.987	102.977	214.845	6.4238e-05	7.1817e-05	1.1434e-05	64.369	2.4524e-07	9.1948e-07	101.4	10.998	1.2694e-06	6.9167e-08	18.753	5.0905	2.5524	1.0172	1.0666e-06	2.5531	0.00021305	0.00055431	0.00017981	65.943	5.8497e-06	7.0329e-06	101.76	11.055	3.9337e-06	6.9548e-06	19.045	5.1579	2.5507	1.0691	4.7802e-06	2.6402	408.328	446.152	196.668	98.465	281.762	342.858	97.557	104.712	285.872	432.944	100.714	107.969	109.329	114.091	154.525	110.957	-8191	255	
2412.790	1	1	0	0	0.15365	0.21726	0.005753	0.12233	0.18392	0.095367	0.048089	0.33204	0.12205	0.16151	0.057467	0.22391	0.13947	0.20268	0.24992	0.24029	-3.4167	-3.05	-3.2188	-3.7542	-2.8208	-3.55	-3.5771	-3.0354	-3.6688	-3.3042	-3.2229	-3.6	-2.9896	-3.5083	-3.4333	-2.8875	397.013	322.788	417.658	126.779	199.157	114.871	107.029	300.982	357.281	98.314	176.684	433.824	333.201	159.003	254.347	267.921	8.2462e-05	9.3802e-05	2.1281e-05	54.714	7.8033e-07	4.6758e-07	87.711	7.5405	1.2034e-06	5.4696e-07	14.83	4.7854	2.1108	0.86397	1.3865e-06	2.3614	0.00019202	0.00050022	0.00014129	54.038	5.2104e-06	5.9876e-06	87.902	7.6215	3.364e-06	6.3456e-06	14.915	4.8344	2.2516	0.88596	4.3729e-06	2.4268	399.837	177.692	188.070	98.106	432.472	286.199	96.856	103.978	96.944	305.261	100.177	108.262	107.450	114.271	411.568	112.400	-8191	255	
2412.911	1	1	0	0	0.038851	0.21951	0.23594	0.16588	0.18664	0.11677	0.16379	0.10247	0.15847	0.033054	0.10233	0.10468	0.32547	0.13332	0.13084	0.078675	-3.1188	-3.1312	-2.8937	-3.6229	-3.0333	-3.6375	-3.4875	-2.8083	-3.5583	-3.3604	-3.0667	-3.5271	-3.0083	-3.3396	-3.6021	-2.9792	142.033	335.466	210.575	292.583	423.967	399.767	144.267	139.977	237.250	253.038	318.990	120.944	394.804	288.866	103.087	137.179	9.5443e-05	8.0091e-05	8.3753e-06	53.885	8.6637e-07	6.9434e-07	79.724	7.6579	1.8736e-06	1.5269e-07	14.41	4.9403	2.1986	0.83631	6.1519e-07	2.341	0.00017618	0.00047748	0.00013853	54.18	5.1514e-06	5.44e-06	79.469	7.7367	3.356e-06	5.7565e-06	14.483	4.9794	2.2784	0.88157	3.725e-06	2.3951	394.616	299.125	306.365	99.638	132.426	253.905	97.072	103.147	92.856	328.892	102.262	107.506	109.335	114.389	320.985	110.913	-8191	255	
2412.983	1	1	0	0	0.078769	0.25293	0.25945	0.18602	0.060884	0.034635	0.12937	0.2857	0.29134	0.15925	0.10084	0.25003	0.15669	0.10106	0.24021	0.21275	-3.1771	-3.2417	-2.8167	-3.725	-3.0417	-3.1688	-3.7375	-2.9125	-3.5625	-3.375	-2.8875	-3.8021	-3.0312	-3.0167	-3.4479	-2.9771	181.177	186.903	169.842	254.405	220.349	99.452	266.907	373.152	416.008	239.614	133.135	128.429	215.486	440.228	438.591	389.320	7.2318e-05	3.6129e-05	6.6642e-06	50.652	6.7565e-07	9.238e-07	77.599	7.1866	4.9613e-07	4.398e-07	13.414	4.3958	2.0648	0.76508	2.6558e-07	2.2819	0.00018703	0.0004403	0.00013976	52.15	4.4855e-06	5.4543e-06	78.372	7.3017	3.1998e-06	5.4354e-06	13.693	4.4627	2.095	0.83195	3.5556e-06	2.3264	383.224	149.037	205.807	98.317	338.291	296.944	97.815	104.456	180.257	108.472	103.331	107.897	112.037	114.837	365.881	110.517	-8191	255	
2413.103	1	1	0	0	0.041224	0.061517	0.29635	0.022551	0.1823	0.023973	0.1073	0.1709	0.20024	0.064355	0.26122	0.13561	0.13251	0.10065	0.13259	0.17634	-3.0646	-3.4333	-2.9458	-3.5104	-3.0938	-3.1125	-3.8604	-3.0104	-3.5458	-3.4688	-2.9167	-3.6625	-3.1958	-3.0708	-3.7812	-3.0083	209.459	164.590	206.834	177.970	240.839	446.445	406.038	325.356	327.459	244.670	350.386	260.765	415.573	312.420	279.821	102.346	0.00010846	7.9511e-05	2.2529e-05	50.631	3.394e-07	9.2659e-07	76.317	6.4489	1.3212e-06	1.0122e-06	13.725	4.0483	1.8451	0.79144	8.3363e-07	2.1901	0.00017339	0.00042368	0.00014849	50.264	4.1946e-06	5.4703e-06	76.084	6.6087	3.2078e-06	5.1253e-06	13.786	4.1464	1.9076	0.82966	3.5946e-06	2.2326	394.044	196.596	237.660	97.887	226.639	126.574	97.176	104.962	166.047	244.473	102.013	107.121	111.652	115.521	207.765	111.423	-8191	255	
2413.198	1	1	0	0	0.14523	0.067617	0.25138	0.17288	0.20699	0.10268	0.29781	0.12581	0.1727	0.13376	0.10319	0.18194	0.032105	0.24065	0.14397	0.077254	-2.9292	-3.5542	-2.8792	-3.7	-3.175	-3.1	-3.7667	-2.8438	-3.3792	-3.6604	-2.7687	-3.7771	-3.3375	-2.9021	-3.6833	-3.0938	161.610	294.833	95.168	246.320	115.033	407.031	258.823	372.792	179.258	311.280	345.334	358.401	165.427	269.828	284.830	297.251	9.3574e-05	4.1197e-05	3.4261e-05	47.347	1.1634e-06	3.5455e-07	78.598	6.8277	1.4461e-06	8.6107e-07	14.774	4.0167	1.846	0.8239	6.9743e-07	2.1081	0.00018273	0.00037702	0.00013836	48.652	4.3113e-06	4.7591e-06	77.973	6.8902	2.8954e-06	4.8482e-06	14.804	4.0127	1.918	0.85011	2.8687e-06	2.1952	375.393	207.828	135.066	100.354	225.913	281.946	97.171	104.811	172.364	196.920	102.130	108.446	110.191	115.154	227.067	109.995	-8191	255	
2413.294	1	1	0	0	0.11195	0.071235	0.097036	0.15107	0.21165	0.15885	0.03662	0.24115	0.093023	0.14343	0.22759	0.076282	0.09989	0.23222	0.075329	0.085509	-3.0104	-3.6333	-2.9062	-3.4667	-3.3896	-2.9229	-3.825	-3.2083	-3.1875	-3.6083	-2.9562	-3.3312	-3.3542	-3.0521	-3.65	-3.1875	396.226	402.900	112.357	363.986	131.734	198.981	174.636	413.444	317.139	353.775	99.503	264.964	428.213	239.015	442.141	225.257	8.5911e-05	1.3259e-05	2.6756e-05	48.781	8.4578e-07	8.1294e-07	82.017	8.1628	2.282e-06	1.0591e-06	16.416	4.4966	2.2207	0.80739	4.7658e-07	2.0704	0.00017383	0.0003639	0.00012386	48.572	3.8211e-06	5.1805e-06	80.612	8.0368	2.9368e-06	4.0518e-06	16.402	4.5401	2.2666	0.82558	3.28e-06	2.0917	400.408	90.333	406.469	98.874	123.937	290.179	96.057	105.356	169.139	309.454	102.350	106.388	109.696	113.808	245.141	110.288	-8191	255	
2413.390	1	1	0	0	0.052858	0.12126	0.30051	0.06127	0.19623	0.091439	0.068853	0.081961	0.13313	0.053062	0.11329	0.12639	0.21274	0.16742	0.085991	0.046201	-2.8521	-3.6708	-3.0167	-3.3521	-3.6375	-2.9354	-3.7375	-3.2	-3.0917	-3.7354	-2.9521	-3.1688	-3.6208	-2.9437	-3.5354	-3.5292	320.325	253.541	268.342	165.985	253.723	123.746	320.692	310.621	142.737	294.814	414.697	400.939	144.483	105.988	412.192	154.265	0.00010946	7.5937e-05	1.4377e-05	54.944	2.0749e-07	4.057e-07	91.429	10.094	1.8424e-06	3.612e-07	20.957	5.6528	2.8545	0.84805	3.8754e-07	2.0463	0.00016982	0.00036405	0.00012949	55.425	3.4638e-06	5.0365e-06	90.41	10.206	3.2078e-06	4.2224e-06	21.084	5.672	2.9089	0.8749	3.5664e-06	2.083	390.768	246.338	435.886	98.737	337.277	105.169	97.254	103.387	168.588	306.446	102.519	107.793	107.309	113.462	146.322	109.694	-8191	255	
2413.511	1	1	0	0	0.25789	0.19274	0.10687	0.076922	0.13263	0.22877	0.23018	0.15424	0.36446	0.12626	0.2441	0.067613	0.096363	0.13469	0.099425	0.10703	-2.75	-3.6917	-3.1708	-3.2729	-3.6292	-3.0771	-3.5708	-3.4521	-2.9771	-3.7521	-3.0854	-3.1104	-3.8604	-2.8375	-3.6125	-3.3833	335.719	435.679	285.664	340.435	394.439	230.690	155.538	90.676	272.635	208.857	127.336	401.130	187.992	208.455	271.827	299.762	4.9154e-05	4.1584e-05	2.6759e-05	57.159	9.0647e-07	4.9015e-07	97.34	11.642	1.3419e-06	4.624e-07	24.941	6.7883	3.679	0.91547	9.0075e-07	2.1909	0.00016112	0.0003378	0.00011853	58.035	3.2925e-06	4.9938e-06	97.241	11.686	3.3525e-06	4.9473e-06	25.127	6.8093	3.6517	0.94697	3.3795e-06	2.2178	367.939	165.546	168.688	98.413	135.951	394.636	97.178	103.557	122.297	154.641	100.534	105.522	107.795	113.391	244.543	109.066	-8191	255	
2413.607	1	1	0	0	0.12117	0.24227	0.082847	0.10667	0.21635	0.13451	0.22658	0.15845	0.21097	0.26627	0.079326	0.19216	0.13768	0.20715	0.040394	0.18963	-2.5354	-3.8125	-3.0396	-3.0354	-3.7146	-2.9146	-3.4354	-3.5042	-2.7875	-3.5229	-3.1896	-3.0958	-3.5729	-2.7021	-3.3375	-3.6396	202.244	314.450	342.552	91.468	302.191	218.243	167.758	118.573	223.535	124.242	123.955	330.125	124.052	314.235	207.937	352.521	5.9789e-05	4.4807e-05	1.3284e-06	64.772	9.5078e-07	6.662e-07	113.32	14.216	8.1991e-07	2.8278e-07	29.407	8.4917	4.4738	1.009	4.5253e-07	2.3862	0.00015994	0.00041216	0.00012264	66.584	3.4874e-06	5.8987e-06	111.33	14.228	3.4019e-06	4.5766e-06	30.157	8.4824	4.5025	1.0543	3.8043e-06	2.453	385.476	261.549	169.135	98.923	210.326	250.880	97.738	103.156	125.955	118.838	101.411	105.226	107.093	113.127	406.523	109.260	-8191	255	
2413.679	1	1	0	0	0.19663	0.11292	0.066641	0.22397	0.14095	0.20438	0.073273	0.10151	0.21264	0.2762	0.10494	0.27443	0.33297	0.21956	0.22923	0.1696	-2.6813	-3.5979	-3.3375	-3.0104	-3.6562	-3.0729	-3.1583	-3.5312	-2.8333	-3.6104	-3.4813	-3.1521	-3.7542	-3.0021	-3.2687	-3.675	340.867	423.599	195.710	346.720	338.070	281.229	404.515	443.439	233.925	429.623	166.694	129.082	92.349	415.095	413.900	260.102	0.00013724	7.1966e-05	8.6278e-06	80.101	2.9511e-07	6.3732e-07	133.04	17.466	1.7938e-06	7.1398e-07	35.879	10.6	5.7009	1.1239	8.9724e-07	2.6119	0.00018938	0.00041172	0.00012836	80.37	3.8137e-06	4.9689e-06	132.83	17.497	3.5363e-06	4.7564e-06	35.786	10.5	5.6786	1.1669	3.8957e-06	2.6006	399.919	264.375	341.876	98.850	312.549	190.653	98.010	105.215	240.562	128.034	101.338	105.618	108.350	112.855	212.719	109.703	-8191	255	
2413.775	1	1	0	0	0.035973	0.2318	0.25578	0.10583	0.3251	0.071886	0.056287	0.053317	0.020415	0.034932	0.28186	0.025482	0.13162	0.23957	0.1427	0.075605	-2.5812	-3.4417	-3.4458	-2.9792	-3.7354	-3.0396	-3.1375	-3.7125	-2.9042	-3.5271	-3.4958	-2.7333	-3.6729	-3.1813	-3.2646	-3.8104	243.593	354.727	257.487	305.396	146.319	168.465	176.076	400.391	308.297	187.487	415.287	294.970	176.789	384.979	315.767	200.057	8.8551e-05	6.7306e-05	2.8343e-06	88.234	9.2985e-07	8.9858e-07	144.61	18.656	1.8415e-06	4.4886e-07	37.523	11.053	6.0575	1.2481	7.9901e-07	2.6715	0.00020072	0.00040443	0.00011312	89.383	4.0499e-06	4.7218e-06	143.48	18.555	3.3973e-06	4.3637e-06	37.544	11.058	6.0657	1.2579	3.5032e-06	2.7133	387.530	110.227	235.715	99.431	276.573	181.777	97.699	103.198	243.833	274.294	100.722	105.258	106.040	110.798	280.729	108.741	-8191	255	
2413.895	1	1	0	0	0.13542	0.15944	0.08717	0.17422	0.14538	0.17411	0.15478	0.1023	0.30229	0.20168	0.13348	0.053698	0.2665	0.2477	0.36416	0.07563	-2.5187	-3.4417	-3.55	-2.9188	-3.6333	-3.2146	-2.9917	-3.5917	-3.2146	-3.3208	-3.65	-2.8917	-3.775	-3.0396	-3.0479	-3.8271	325.305	311.794	151.077	217.730	86.807	414.741	187.797	309.169	264.557	139.173	301.858	261.344	266.154	294.557	320.409	276.736	0.00010865	2.6156e-05	1.1436e-05	89.318	1.0917e-06	3.8063e-07	145.14	18.572	5.6759e-07	5.8424e-07	36.559	10.998	6.0782	1.1843	6.347e-07	2.7239	0.00019256	0.00038869	0.00012268	90.538	3.9835e-06	5.2214e-06	144.13	18.679	3.5076e-06	5.006e-06	36.776	10.945	5.9124	1.2104	3.932e-06	2.7237	413.733	273.328	262.324	98.883	229.811	165.669	97.995	103.811	323.380	257.366	100.498	104.789	106.719	113.258	149.521	109.746	-8191	255	
2413.991	1	1	0	0	0.22454	0.063603	0.058714	0.27934	0.06377	0.17076	0.17536	0.1251	0.029723	0.17878	0.077454	0.24959	0.11753	0.24375	0.17552	0.14186	-2.6042	-3.2458	-3.5354	-2.8479	-3.5187	-3.3958	-3.0542	-3.5687	-3.2104	-3.2188	-3.6292	-2.9458	-3.5854	-3.3875	-2.9083	-3.7687	395.259	114.719	162.521	381.286	213.445	162.354	272.059	104.958	383.895	140.470	201.126	87.929	94.656	118.750	176.645	277.281	7.3576e-05	3.2e-05	1.5282e-05	91.448	8.6785e-07	8.1233e-07	146.35	18.141	7.636e-07	9.1696e-07	36.355	10.927	5.7628	1.1438	4.4358e-07	2.6054	0.00017178	0.00040093	0.0001115	91.6	4.4486e-06	4.7734e-06	145.71	18.052	3.449e-06	5.4061e-06	36.512	10.865	5.8747	1.1648	4.0543e-06	2.647	379.687	435.740	137.074	99.597	257.781	196.720	97.338	103.539	257.637	271.600	100.807	105.138	107.434	111.335	299.588	109.118	-8191	255	
2414.088	1	1	0	0	0.23635	0.10796	0.16255	0.12183	0.11468	0.1164	0.30817	0.084324	0.062387	0.14067	0.19349	0.10037	0.16708	0.047173	0.088217	0.32984	-2.6292	-3.0521	-3.6479	-2.9396	-3.3438	-3.4583	-3.0167	-3.7271	-3.15	-3.1562	-3.5354	-2.9833	-3.5479	-3.5146	-2.9938	-3.6333	152.432	380.881	376.682	203.535	96.225	437.682	418.287	117.599	419.260	407.620	364.624	144.970	109.989	349.128	328.147	230.631	0.00010864	1.9032e-05	4.5168e-06	89.937	1.93e-07	4.4725e-07	147.97	17.31	1.5318e-06	1.0992e-06	35.124	10.105	5.4561	1.0426	6.6048e-07	2.3617	0.00018796	0.0003986	0.00010932	92	4.3053e-06	5.0116e-06	145.5	17.614	3.2388e-06	5.0721e-06	35.211	10.088	5.444	1.0749	3.8056e-06	2.4335	400.178	318.642	187.403	97.806	426.934	211.165	97.318	104.637	257.445	191.225	101.084	105.221	108.954	112.179	343.687	109.304	-8191	255	
2414.207	1	1	0	0	0.041035	0.085231	0.0798	0.13321	0.083108	0.093282	0.042534	0.19486	0.17267	0.22079	0.18646	0.096275	0.21523	0.15489	0.24026	0.20428	-2.8479	-2.9521	-3.6771	-3.0667	-3.5292	-3.4958	-2.8979	-3.5729	-3.3771	-3.0875	-3.7604	-3.0646	-3.3333	-3.6583	-2.8563	-3.6625	338.039	432.349	243.161	395.286	402.192	96.092	175.035	185.066	210.995	120.247	318.688	172.076	120.970	337.752	395.325	255.767	0.00011705	0.00012527	4.0024e-05	87.71	4.8894e-07	4.1059e-07	140.97	16.592	1.0413e-06	5.1399e-08	33.642	9.345	4.9286	0.94601	1.3312e-06	2.2613	0.00018361	0.00044321	0.00011006	88.833	4.4308e-06	4.9494e-06	140.52	16.588	3.2388e-06	5.395e-06	33.37	9.2604	4.951	0.99328	3.928e-06	2.3101	394.896	134.714	228.002	97.843	163.913	217.015	97.256	104.084	240.748	119.887	100.817	105.354	107.656	111.740	283.759	109.088	-8191	255	
2414.278	1	1	0	0	0.061673	0.13469	0.14482	0.12101	0.22081	0.080128	0.19269	0.11111	0.25872	0.27283	0.16184	0.12686	0.20549	0.26384	0.094031	0.316	-2.9833	-2.9833	-3.6875	-3.1083	-3.2958	-3.6729	-2.8563	-3.5375	-3.4688	-2.9271	-3.6979	-3.0312	-3.2313	-3.7375	-2.8917	-3.3542	195.203	356.188	318.524	92.558	276.596	298.454	316.436	314.467	98.776	423.483	276.384	436.020	363.878	272.089	408.965	185.878	7.5819e-05	7.4624e-05	1.4703e-05	84.426	7.2794e-07	1.2879e-06	136.82	15.816	7.5461e-07	2.7075e-07	31.442	8.6775	4.5339	0.90827	4.0934e-07	2.1524	0.00016068	0.00043315	0.00012321	84.462	4.2551e-06	4.2311e-06	135.52	15.786	3.3066e-06	5.3418e-06	31.453	8.6435	4.5518	0.93243	4.3353e-06	2.2046	359.984	236.419	94.827	97.618	172.923	95.377	97.695	103.835	244.260	187.744	100.744	105.735	108.609	113.146	313.622	109.851	-8191	255	
2414.374	1	1	0	0	0.22721	0.11674	0.27399	0.069003	0.036319	0.1156	0.039493	0.093153	0.22606	0.15022	0.22766	0.15828	0.13787	0.28656	0.22406	0.044447	-2.9813	-2.9583	-3.6417	-3.2354	-3.0792	-3.6063	-3.0583	-3.4896	-3.625	-2.9688	-3.75	-3.3792	-3.05	-3.5646	-3.0417	-3.4458	341.580	92.422	410.025	124.487	304.213	352.267	384.671	261.377	139.632	443.259	413.398	432.676	250.805	274.254	278.365	435.502	9.1328e-05	5.8051e-05	6.2658e-06	82.835	1.0015e-06	4.5484e-07	132.64	14.917	1.2175e-06	6.8575e-07	30.458	8.197	4.1456	0.8815	8.6991e-07	2.1118	0.00016356	0.00041726	0.0001163	81.853	4.6686e-06	4.96e-06	131.35	15.309	3.0918e-06	5.529e-06	30.669	8.2136	4.2691	0.90726	4.2049e-06	2.1687	411.674	419.697	364.807	97.398	131.159	250.959	97.970	104.137	255.883	208.971	100.666	105.649	106.878	113.378	362.447	110.839	-8191	255	
2414.471	1	1	0	0	0.1064	0.15463	0.073292	0.054559	0.066257	0.13267	0.073175	0.067723	0.18703	0.08224	0.10656	0.048856	0.14211	0.12638	0.30497	0.057635	-3.3	-2.6521	-3.4688	-3.2396	-2.9229	-3.7625	-3.0563	-3.3542	-3.7667	-2.8688	-3.5521	-3.3937	-2.7792	-3.5833	-3.0417	-2.9979	166.352	102.762	128.146	414.328	316.524	369.150	345.393	276.640	212.634	225.069	118.436	153.511	358.672	338.203	353.567	407.384	8.968e-05	9.8229e-05	4.5632e-05	79.386	1.797e-06	2.6002e-07	131.4	15.109	7.6232e-07	1.2166e-06	30.601	8.1446	4.2812	0.86789	2.9043e-07	2.1503	0.00014992	0.00043957	0.00011547	80.531	4.9609e-06	4.8089e-06	130.62	15.216	3.24e-06	5.6336e-06	30.459	8.0934	4.3086	0.90248	4.0315e-06	2.1928	403.188	245.519	99.700	97.282	154.801	199.591	98.144	103.473	112.927	117.227	100.844	105.937	108.078	114.476	417.834	111.001	-8191	255	
2414.591	1	1	0	0	0.073415	0.28399	0.32432	0.064867	0.17267	0.35966	0.19269	0.18292	0.10217	0.022365	0.15444	0.22874	0.11552	0.31576	0.10497	0.28826	-3.3833	-2.9417	-3.4354	-3.5	-2.7396	-3.5375	-3.3271	-3.2833	-3.7875	-3.0458	-3.6396	-3.4833	-2.925	-3.5417	-3.3	-3.2396	253.250	371.825	134.037	373.285	249.012	349.168	268.931	187.768	181.107	170.023	242.504	130.393	156.438	175.554	433.660	423.893	7.4379e-05	0.00012453	1.9128e-05	81.458	8.1599e-07	1.0099e-06	132.31	14.725	1.3075e-06	1.3839e-06	30.343	8.1133	4.2892	0.86775	7.0069e-07	2.1834	0.00017554	0.00043447	0.00012875	82.069	5.1499e-06	4.8978e-06	131.49	14.949	3.2882e-06	5.573e-06	30.449	8.1285	4.3077	0.90612	3.6793e-06	2.1978	393.468	285.866	357.561	97.517	342.896	323.602	97.311	104.074	384.800	268.807	100.241	105.138	107.389	114.592	259.923	108.970	-8191	255	
2414.687	1	1	0	0	0.18221	0.057473	0.21585	0.25188	0.27032	0.044403	0.23125	0.18125	0.14265	0.16773	0.27126	0.19494	0.14529	0.032857	0.063588	0.12671	-3.4542	-2.9021	-3.3854	-3.6063	-3.0167	-3.6521	-3.3375	-3.1437	-3.7104	-2.9479	-3.2583	-3.6979	-2.775	-3.4271	-3.2521	-3.0708	126.805	127.681	218.636	373.242	248.536	166.904	366.177	180.995	216.545	337.597	387.074	321.016	393.623	369.600	205.522	276.660	7.4443e-05	5.0044e-05	3.3732e-05	79.909	7.832e-07	1.1768e-06	130.64	14.698	5.108e-07	7.499e-07	30.05	8.1203	4.1993	0.86697	1.3388e-06	2.1478	0.00015774	0.0004505	0.0001198	80.249	4.7291e-06	5.1805e-06	130.05	14.752	3.1056e-06	5.2317e-06	29.992	8.0153	4.1941	0.89465	3.6268e-06	2.1989	379.287	126.046	189.695	97.492	200.591	249.878	97.444	103.738	305.884	224.262	101.034	105.714	108.923	114.145	281.624	109.290	-8191	255	
2414.783	1	1	0	0	0.11757	0.15932	0.23724	0.078507	0.15644	0.15953	0.017716	0.13999	0.11361	0.15369	0.23297	0.043937	0.054367	0.03843	0.15926	0.16934	-3.3208	-2.925	-3.2125	-3.6479	-2.7271	-3.4167	-3.4271	-2.8521	-3.5792	-3.1708	-3.2083	-3.6542	-2.8625	-3.3521	-3.5479	-2.9437	119.418	270.967	375.557	203.384	91.689	189.866	201.276	378.837	406.149	306.736	134.818	273.941	123.956	182.381	428.083	363.451	9.7958e-05	3.5386e-05	6.6876e-06	78.53	9.5504e-07	1.2404e-06	130.84	14.661	3.0595e-06	8.8497e-07	30.806	8.0537	4.4445	0.86113	8.9415e-07	2.139	0.00016298	0.00042295	0.00012281	79.647	4.549e-06	5.3174e-06	131.17	14.806	3.2251e-06	5.2097e-06	30.704	8.188	4.3426	0.88593	3.5959e-06	2.1782	395.939	238.885	108.815	98.907	228.075	349.914	96.157	103.571	238.443	391.958	101.186	104.993	106.419	112.759	276.196	110.336	-8191	255	
2414.904	1	1	0	0	0.16177	0.18846	0.24668	0.19118	0.032516	0.064979	0.2774	0.3094	0.12999	0.089386	0.051829	0.096257	0.1275	0.025243	0.29294	0.32533	-3.3979	-3.1958	-3.1625	-3.6729	-3.025	-3.5292	-3.5062	-2.7333	-3.6271	-3.2646	-3.2021	-3.7562	-2.9458	-3.3312	-3.7	-3.0292	328.710	282.277	276.388	398.419	120.107	319.200	170.362	438.718	320.573	353.695	324.405	276.902	366.557	403.646	240.243	373.956	6.4932e-05	8.2796e-05	2.2813e-05	81.559	1.3264e-06	1.3899e-06	131.54	14.883	2.0963e-06	7.1401e-07	30.125	8.126	4.1506	0.8395	7.3487e-07	2.1976	0.00015633	0.00044146	0.00013369	81.318	4.7616e-06	5.0311e-06	131.91	15.1	2.9333e-06	5.1638e-06	30.279	8.1815	4.2101	0.8779	3.3029e-06	2.1989	392.378	382.673	192.906	98.244	314.964	215.365	97.322	103.455	263.423	137.683	100.395	105.539	106.818	114.551	225.866	109.347	-8191	255	
2414.976	1	1	0	0	0.35981	0.21805	0.20752	0.21223	0.26698	0.19315	0.056865	0.0666	0.14501	0.34161	0.027602	0.21955	0.18879	0.2868	0.24177	0.11581	-3.3792	-3.3125	-2.8312	-3.6813	-2.9021	-3.3542	-3.6479	-2.8438	-3.6208	-3.3312	-2.9875	-3.6396	-3.0104	-3.3396	-3.7146	-2.9542	178.656	354.914	206.119	90.965	326.639	358.968	430.900	93.477	331.654	204.013	128.214	408.569	259.489	203.419	337.889	187.292	4.8318e-05	5.7252e-05	2.5455e-05	81.024	1.2007e-06	1.441e-06	133.32	15.262	2.603e-07	6.6788e-07	30.655	8.2308	4.3204	0.8678	4.6435e-07	2.2334	0.00016346	0.00041347	0.00014168	82.531	4.5194e-06	5.1609e-06	133.48	15.386	3.2469e-06	4.8005e-06	30.851	8.3001	4.3511	0.8975	3.8312e-06	2.2533	386.027	207.779	358.269	97.968	352.683	263.864	97.516	104.329	117.735	342.934	100.539	105.269	108.014	112.979	275.050	109.737	-8191	255	
2415.072	1	1	0	0	0.088772	0.047147	0.21961	0.16816	0.12749	0.031129	0.12183	0.086639	0.11465	0.052721	0.1464	0.10858	0.12236	0.18353	0.1223	0.15619	-3.1688	-3.2542	-2.7292	-3.7125	-3.2167	-3.0958	-3.7313	-2.7604	-3.7521	-3.6021	-2.9083	-3.6292	-3.1583	-3.1271	-3.7167	-3.1875	281.421	114.434	105.555	402.819	111.615	291.688	199.290	96.328	369.458	111.007	401.235	268.380	118.079	400.680	138.808	277.262	0.00011789	0.00012788	1.4693e-05	84.578	3.4211e-07	6.1739e-07	139.06	15.913	1.3715e-06	5.3874e-07	31.953	8.6778	4.4751	0.90326	1.1352e-06	2.3157	0.00018117	0.00040225	0.0001384	84.674	4.5032e-06	5.4596e-06	138.52	15.992	3.4042e-06	5.2391e-06	32.072	8.5878	4.5412	0.93996	3.565e-06	2.3583	381.111	112.497	355.266	97.399	300.257	298.876	97.030	103.380	277.742	194.182	100.949	106.192	108.797	113.382	120.662	110.485	-8191	255	
2415.193	1	1	0	0	0.18777	0.099948	0.097768	0.17953	0.24607	0.13754	0.10671	0.2166	0.15353	0.020025	0.24289	0.076856	0.25192	0.18551	0.11986	0.22203	-3.1104	-3.5062	-2.8937	-3.5729	-3.3	-3.0229	-3.7583	-2.8625	-3.425	-3.4583	-2.9792	-3.5021	-3.2938	-3.0583	-3.7104	-3.1625	362.873	438.972	251.453	224.884	320.217	136.970	196.129	116.823	121.240	368.420	164.296	362.378	325.324	230.728	186.194	109.634	0.00013464	6.8078e-05	1.1546e-05	86.736	3.7025e-07	1.3642e-06	144.14	16.663	1.8826e-06	5.5883e-07	33.072	8.7366	4.6029	0.93845	1.1746e-06	2.2789	0.00018718	0.00041478	0.00012779	87.334	4.6686e-06	5.488e-06	144.33	16.654	3.5903e-06	4.9088e-06	33.322	8.7914	4.6259	0.97555	3.7129e-06	2.3537	401.159	97.868	150.984	98.949	154.699	184.623	97.064	103.871	183.944	424.564	101.504	105.488	108.181	112.622	124.483	110.206	-8191	255	
2415.287	1	1	0	0	0.098759	0.040863	0.20601	0.25206	0.16851	0.39794	0.17851	0.18235	0.07026	0.29223	0.20095	0.25389	0.13723	0.095415	0.14617	0.042633	-2.825	-3.525	-2.9167	-3.6063	-3.3354	-2.7854	-3.8104	-3	-3.075	-3.7292	-2.9625	-3.4125	-3.35	-2.9938	-3.7604	-3.1896	229.706	175.526	261.361	337.448	163.921	305.992	291.293	331.633	295.240	178.636	392.894	428.267	109.049	286.359	178.902	386.487	9.02e-05	4.2569e-05	9.7159e-06	91.039	1.0847e-06	4.9598e-07	150.34	17.015	1.5697e-06	2.8273e-07	34.059	9.1232	4.7701	0.97246	1.1612e-06	2.3751	0.00018527	0.00040618	0.00013718	91.259	4.608e-06	5.3529e-06	148.59	17.027	3.7511e-06	4.7253e-06	34.083	9.1946	4.8178	0.99928	3.4642e-06	2.4306	368.670	140.948	154.585	99.193	190.329	143.405	98.402	103.870	245.920	406.533	101.958	106.431	109.060	113.600	254.527	109.576	-8191	255	
2415.383	1	1	0	0	0.032867	0.068786	0.26576	0.1118	0.04792	0.032493	0.20063	0.041734	0.14141	0.17606	0.086374	0.13463	0.21029	0.16523	0.08833	0.21025	-2.6667	-3.7604	-2.9208	-3.3583	-3.5938	-2.9417	-3.8417	-3.3854	-3	-3.7708	-3	-3.5292	-3.7271	-2.7854	-3.6771	-3.3438	292.376	119.686	222.090	109.451	438.359	443.126	90.928	261.879	291.345	189.889	126.465	357.047	219.826	195.236	187.266	210.920	0.00011311	3.0977e-05	2.5179e-05	88.985	4.7381e-07	1.035e-06	145.57	16.522	8.9803e-07	4.1827e-07	33.676	8.962	4.5724	0.97252	5.0709e-07	2.3642	0.00019892	0.00038737	0.00014915	89.824	4.6051e-06	5.3351e-06	145.96	16.716	3.611e-06	4.9069e-06	33.481	8.9277	4.5808	0.9815	3.9011e-06	2.4198	383.511	253.881	195.334	98.281	322.080	243.979	97.467	104.192	249.074	347.348	100.866	106.461	106.858	113.064	418.061	110.233	-8191	255	
2415.479	1	1	0	0	0.20312	0.24647	0.16088	0.2125	0.10156	0.11184	0.04244	0.1976	0.097947	0.2192	0.091535	0.1751	0.13854	0.1966	0.19314	0.09085	-2.7021	-3.6583	-3.0146	-3.3167	-3.7104	-2.7854	-3.6104	-3.3542	-2.9083	-3.7667	-3.0292	-3.3563	-3.5938	-2.8271	-3.5229	-3.3083	213.203	365.906	190.133	168.049	398.458	120.210	405.176	118.153	353.590	362.658	181.016	309.074	369.034	377.060	310.982	419.591	0.00010728	1.7177e-05	2.0378e-05	85.206	3.2744e-07	1.2659e-06	143.91	15.987	1.0958e-06	9.7947e-07	31.847	8.6248	4.6229	0.93091	8.2329e-07	2.3612	0.00019662	0.00044817	0.00013775	85.611	4.3423e-06	5.9289e-06	141.69	16.044	3.7281e-06	5.3712e-06	32.199	8.7061	4.506	0.97419	4.1955e-06	2.4169	400.955	170.985	327.305	99.113	294.332	252.799	97.475	105.008	324.855	306.530	101.069	105.580	108.098	115.217	255.552	109.597	-8191	255	
2415.575	1	1	0	0	0.041077	0.24932	0.30263	0.1883	0.13976	0.031465	0.3321	0.28285	0.11792	0.16649	0.028694	0.21417	0.055116	0.098603	0.258	0.068276	-2.4708	-3.5833	-2.9729	-3.075	-3.7125	-2.9979	-3.6125	-3.4167	-3.0104	-3.7792	-3.1021	-3.1479	-3.6437	-2.9437	-3.3771	-3.4958	325.072	287.129	345.074	142.193	323.799	174.209	290.040	239.634	180.370	292.634	122.265	133.389	200.171	389.402	359.212	326.691	0.00011915	7.6063e-05	1.6143e-05	82.67	1.1411e-06	9.47e-07	137.71	15.629	2.8252e-07	3.4983e-07	31.038	8.3936	4.2245	0.89494	5.3652e-07	2.3205	0.00019026	0.00039918	0.0001391	83.036	4.36e-06	5.6445e-06	137.08	15.73	3.9429e-06	4.6537e-06	31.224	8.3738	4.2119	0.93185	3.9347e-06	2.361	401.410	256.273	302.031	98.185	241.965	216.414	97.453	103.489	381.038	173.699	100.584	105.871	107.800	113.597	193.121	110.020	-8191	255	
2415.672	1	1	0	0	0.09463	0.25828	0.177	0.17531	0.12887	0.13812	0.1013	0.39221	0.11543	0.02374	0.29104	0.087714	0.18934	0.11422	0.23398	0.14351	-2.4542	-3.6333	-3.3771	-3.0646	-3.6625	-3.0625	-3.5187	-3.6063	-2.7896	-3.5563	-3.3	-2.9979	-3.8292	-3.0708	-3.25	-3.6333	264.242	255.430	425.982	299.242	330.326	161.984	320.321	407.466	350.026	267.793	104.229	368.698	161.391	303.564	410.406	418.816	0.00010992	6.2111e-05	2.7669e-05	80.55	4.8001e-07	1.1778e-06	137.28	15.239	2.2474e-06	2.2633e-07	30.919	8.3009	4.2219	0.90089	3.4126e-07	2.3256	0.0001843	0.00039379	0.00013111	81.163	4.5563e-06	5.8205e-06	134.6	15.391	3.6156e-06	4.8042e-06	30.771	8.3079	4.2217	0.93247	4.0973e-06	2.4046	380.226	294.514	245.524	99.528	238.731	135.807	97.503	105.015	257.634	325.920	101.610	105.774	107.664	113.086	444.646	109.876	-8191	255	
2415.768	1	1	0	0	0.13886	0.028587	0.017716	0.14312	0.33967	0.11785	0.090574	0.11704	0.086933	0.17803	0.19409	0.097417	0.12594	0.13813	0.11101	0.15361	-2.5042	-3.6	-3.3479	-3.0542	-3.8229	-3.1104	-3.2229	-3.6937	-3.0354	-3.7458	-3.2604	-2.9437	-3.6729	-3.1708	-3.2812	-3.7083	345.830	233.683	163.555	210.916	190.539	190.883	208.215	419.021	435.351	369.216	270.724	428.847	273.029	438.275	222.004	324.207	7.6649e-05	6.4238e-05	1.6191e-05	82.179	9.425e-07	4.1467e-07	137.17	15.71	1.265e-06	7.5866e-07	32.353	8.5904	4.3883	0.94304	7.1962e-07	2.3808	0.00020615	0.00042747	0.00012875	82.259	4.1739e-06	6.1671e-06	136.89	15.801	4.3116e-06	4.9326e-06	32.093	8.6203	4.3779	0.96546	4.3958e-06	2.4135	371.555	105.708	433.596	98.890	197.532	186.116	97.455	103.583	196.356	211.451	100.744	105.737	108.184	114.885	194.957	109.582	-8191	255	
2415.864	1	1	0	0	0.07745	0.12429	0.24143	0.27567	0.080095	0.34937	0.092308	0.2826	0.17344	0.15439	0.15472	0.05686	0.14343	0.30012	0.041778	0.18657	-2.5771	-3.3667	-3.5375	-2.8833	-3.5708	-3.0875	-3.0917	-3.6958	-2.8875	-3.4125	-3.3521	-2.8667	-3.6688	-3.2479	-3.1021	-3.7604	344.195	116.214	432.152	148.309	352.005	361.786	235.037	168.677	378.779	331.139	409.236	230.537	243.172	412.812	203.546	114.257	8.4858e-05	8.1434e-05	2.4574e-05	83.302	8.0422e-07	1.3647e-06	142.14	15.943	1.0957e-06	4.0695e-07	32.474	8.7581	4.5224	0.94141	1.9205e-07	2.4224	0.00019451	0.00042455	0.00011482	83.809	3.9672e-06	5.4667e-06	141.07	16.068	3.7878e-06	5.4666e-06	32.475	8.8202	4.4625	0.96609	4.4576e-06	2.4338	405.279	166.017	334.488	99.362	224.990	304.330	97.284	104.102	241.611	284.732	101.496	105.507	109.005	112.227	247.988	110.025	-8191	255	
2415.984	1	1	0	0	0.28559	0.16595	0.16664	0.16232	0.074125	0.086825	0.19724	0.23422	0.17597	0.23187	0.084417	0.20223	0.052958	0.16884	0.14451	0.13047	-2.7021	-3.3292	-3.6729	-2.675	-3.6625	-3.3063	-2.8896	-3.6771	-3.0563	-3.4583	-3.8187	-2.8104	-3.5792	-3.3458	-3.0333	-3.8438	403.897	257.126	336.800	355.457	100.860	358.343	357.573	321.001	137.477	422.930	113.725	378.673	297.810	430.595	130.353	154.420	6.3886e-05	5.311e-05	1.8222e-05	83.775	9.0207e-07	8.0719e-08	141.91	16.351	1.5013e-06	7.3499e-07	32.4	8.7002	4.4183	0.93894	3.1159e-07	2.384	0.00018953	0.00041901	0.00012041	84.964	4.1902e-06	4.9209e-06	141.3	16.174	3.8223e-06	5.2611e-06	32.455	8.7625	4.4991	0.96728	4.0557e-06	2.4252	391.710	246.798	446.141	99.026	120.337	424.260	97.393	104.436	236.850	265.893	101.220	105.599	108.337	113.573	142.397	110.767	-8191	255	
2416.081	1	1	0	0	0.055343	0.087331	0.20059	0.023508	0.16102	0.13168	0.2072	0.15363	0.13624	0.10586	0.16901	0.2387	0.15846	0.10392	0.076519	0.21664	-2.7	-3.1542	-3.7354	-2.9875	-3.425	-3.5021	-2.9	-3.6937	-3.3312	-3.2104	-3.7458	-2.8708	-3.4229	-3.4917	-3.0687	-3.6708	381.134	329.523	422.455	380.743	307.587	320.259	119.283	162.326	104.136	265.761	249.862	298.127	177.192	336.250	94.368	99.956	6.5923e-05	0.00010333	1.4695e-05	86.068	4.982e-07	2.0662e-06	141.61	16.432	2.3893e-06	6.0836e-08	33.167	9.0286	4.6379	0.9544	3.8052e-07	2.4186	0.00018117	0.00046567	0.0001384	85.569	4.8797e-06	5.344e-06	141.89	16.303	3.4685e-06	5.3749e-06	32.986	8.9869	4.6355	0.97994	4.5154e-06	2.461	416.423	200.918	214.296	99.161	191.042	244.060	97.001	104.859	115.287	385.665	101.336	105.396	107.298	111.761	187.933	110.980	-8191	255	
2416.152	1	1	0	0	0.22291	0.078505	0.23007	0.10729	0.18251	0.08391	0.054399	0.28341	0.059862	0.14312	0.27509	0.15296	0.18446	0.18845	0.085327	0.14145	-2.7687	-3.1917	-3.7292	-2.8958	-3.3771	-3.5792	-3.0771	-3.65	-3.2	-2.8979	-3.725	-2.9854	-3.3563	-3.4917	-2.7896	-3.6979	239.714	104.037	194.269	445.834	264.725	127.249	111.811	394.988	427.352	169.191	106.541	143.807	415.074	354.056	290.081	278.535	6.7147e-05	1.5081e-05	2.4087e-05	85.256	6.2387e-07	1.4962e-06	144.36	16.392	1.0318e-06	3.654e-07	33.43	9.1484	4.4906	0.96507	1.0299e-07	2.4769	0.00018977	0.00046523	0.00012709	86.603	4.2463e-06	4.9067e-06	143.2	16.405	3.511e-06	5.4262e-06	33.413	9.1185	4.629	0.97743	4.4388e-06	2.4851	375.075	336.984	260.339	98.820	183.076	224.879	97.139	104.759	180.908	315.423	101.457	105.984	107.837	113.268	283.520	109.525	-8191	255	
2416.273	1	1	0	0	0.30517	0.16402	0.070525	0.030957	0.11062	0.16031	0.1129	0.028156	0.096028	0.14226	0.027108	0.18538	0.11178	0.15964	0.10775	0.18805	-2.8771	-2.9333	-3.5792	-2.9958	-3.2542	-3.55	-2.8354	-3.5417	-3.3292	-3.0271	-3.6375	-3.1437	-3.4875	-3.6542	-2.9375	-3.6208	191.937	165.017	345.304	384.426	445.758	184.180	256.145	166.749	96.277	176.214	270.783	190.502	150.961	322.047	92.037	368.659	8.8881e-05	4.0994e-05	1.4332e-05	86.261	7.7176e-07	2.9048e-07	145.47	16.378	5.9255e-07	1.2182e-06	32.491	8.9543	4.4524	0.96418	2.8445e-07	2.391	0.0001728	0.00044919	0.00012434	87.349	4.4855e-06	5.0223e-06	144.19	16.45	3.4938e-06	5.5345e-06	32.85	9.039	4.564	0.97306	3.8486e-06	2.4241	394.662	254.673	132.393	97.765	260.320	230.844	97.140	103.809	260.567	128.494	101.384	105.508	108.561	113.364	260.265	110.150	-8191	255	
2416.367	1	1	0	0	0.11279	0.18142	0.14041	0.18928	0.32547	0.018644	0.24911	0.040971	0.10119	0.11386	0.085261	0.070616	0.26235	0.097194	0.18017	0.11432	-3.0833	-2.7521	-3.7292	-2.9958	-3.0625	-3.6729	-3.0667	-3.3312	-3.3812	-3.1042	-3.6937	-3.125	-2.9813	-3.8	-2.8979	-3.3042	318.807	320.101	98.691	293.374	445.473	424.804	204.831	401.153	355.422	161.955	403.650	149.170	138.296	324.548	142.468	274.738	9.7422e-05	8.2156e-05	1.2869e-05	84.891	1.2473e-06	8.7264e-07	144.68	16.073	1.1585e-06	1.2925e-06	32.86	8.7671	4.3964	0.8841	1.3028e-06	2.311	0.00018097	0.00046042	0.00012993	85.656	4.5416e-06	4.9351e-06	142.71	16.194	3.3996e-06	6.1144e-06	32.586	8.734	4.4994	0.92279	4.3312e-06	2.3798	385.567	265.634	108.869	98.169	300.882	236.316	97.031	104.365	281.422	253.442	101.264	105.079	108.876	113.521	211.132	110.959	-8191	255	
2416.463	1	1	0	0	0.051079	0.19401	0.10672	0.16313	0.27338	0.17428	0.19562	0.10669	0.19692	0.082543	0.025392	0.09733	0.10716	0.20016	0.073211	0.062973	-3.2021	-2.8063	-3.675	-3.1729	-2.9479	-3.8604	-3.0375	-3.2125	-3.5812	-2.9583	-3.6604	-3.3979	-3.0271	-3.7083	-3.1375	-3.0896	138.755	423.386	319.257	109.965	334.048	429.855	218.693	174.671	182.351	127.573	97.689	290.402	161.472	311.692	105.578	311.881	4.815e-05	1.9759e-05	1.2975e-05	84.431	1.6328e-07	6.4757e-07	143.78	16.225	3.2117e-07	5.2219e-07	32.317	8.6711	4.3341	0.91569	1.0567e-06	2.3398	0.00017051	0.00044948	0.00012224	85.504	4.5209e-06	4.5476e-06	142.72	16.253	3.2963e-06	5.9327e-06	32.393	8.7038	4.4069	0.94553	4.1498e-06	2.4173	403.646	254.343	226.286	98.237	408.567	246.216	97.634	104.166	245.283	220.011	101.001	104.673	107.713	114.729	163.672	109.465	-8191	255	
2416.584	1	1	0	0	0.26921	0.044264	0.086967	0.092043	0.036007	0.21317	0.11849	0.24202	0.17975	0.25814	0.20954	0.10096	0.21274	0.14516	0.047624	0.23019	-3.2313	-2.8771	-3.5583	-3.3396	-3.0708	-3.6125	-3.0854	-3.2604	-3.6083	-3.0438	-3.4875	-3.5583	-2.9479	-3.8208	-3.25	-3.1083	373.345	286.526	280.058	127.008	213.055	177.824	318.840	443.914	333.801	92.932	302.721	372.010	225.681	397.821	433.625	332.857	0.00012165	8.2842e-05	3.1444e-05	82.22	1.1393e-06	1.0025e-06	144.08	16.36	1.1876e-06	9.3214e-07	32.929	8.7541	4.2787	0.9034	1.2299e-06	2.4672	0.00017354	0.00050022	0.00012417	85.002	4.9269e-06	5.0116e-06	143.7	16.374	3.0068e-06	5.6116e-06	33.002	8.7316	4.3937	0.93669	4.0731e-06	2.4427	377.203	340.011	88.603	98.500	279.239	91.253	97.219	104.096	94.867	168.093	101.256	106.237	109.281	113.695	211.472	108.869	-8191	255	
2416.680	1	1	0	0	0.10035	0.10861	0.028248	0.13448	0.18074	0.12967	0.046039	0.11789	0.23456	0.18833	0.16903	0.097864	0.23891	0.12748	0.2487	0.18085	-3.3479	-3.0292	-3.3583	-3.6083	-2.9062	-3.7542	-3.3458	-3.1083	-3.7625	-3.0396	-3.3458	-3.6896	-3.0146	-3.5854	-3.2333	-2.8833	306.534	412.891	332.065	241.154	209.831	251.460	143.812	205.383	415.674	425.236	138.072	346.771	248.603	260.152	359.259	401.245	9.3624e-05	7.0866e-05	2.5031e-05	83.151	8.1887e-07	7.1178e-07	145.75	16.241	6.9691e-07	7.3685e-07	32.887	8.6903	4.3204	0.88156	2.7927e-07	2.334	0.00017227	0.00047835	0.00012709	85.353	4.9771e-06	5.5005e-06	143.89	16.288	3.1481e-06	5.8703e-06	32.658	8.6443	4.3943	0.93305	4.0301e-06	2.3939	407.710	254.283	211.293	98.266	298.275	206.097	97.911	103.941	261.436	226.675	101.142	106.130	109.157	112.650	312.821	110.320	-8191	255	
2416.776	1	1	0	0	0.05697	0.2653	0.077165	0.13774	0.16841	0.19422	0.17629	0.11971	0.2133	0.099174	0.18574	0.26917	0.22155	0.057888	0.075015	0.16342	-3.2417	-2.9521	-3.2313	-3.5229	-2.8646	-3.6125	-3.2479	-2.9167	-3.7812	-3.1063	-3.1813	-3.5792	-2.9042	-3.3542	-3.3729	-2.825	369.695	381.157	169.204	439.612	216.974	149.519	187.785	140.404	433.127	417.295	243.391	136.152	395.443	420.022	146.773	186.123	0.00010798	5.6168e-05	2.9664e-06	85.348	4.4017e-07	4.431e-07	146.42	16.618	1.9263e-07	1.0783e-06	32.529	8.8464	4.4838	0.91576	6.5739e-07	2.3484	0.0001751	0.000482	0.00013277	86.943	5.1927e-06	5.3991e-06	144.53	16.7	3.4077e-06	5.5143e-06	33	8.7179	4.4755	0.93485	3.8661e-06	2.3992	392.604	131.178	390.439	98.356	283.877	181.333	97.616	104.737	160.049	173.008	101.973	106.583	108.058	113.189	379.943	111.112	-8191	255	
2416.873	1	1	0	0	0.14667	0.24592	0.12905	0.071212	0.21312	0.086745	0.23712	0.035301	0.16444	0.11368	0.12169	0.013418	0.1749	0.20266	0.21271	0.32983	-3.3271	-3.0042	-3.1021	-3.7417	-2.9917	-3.3583	-3.4667	-2.8604	-3.7625	-3.3292	-2.9542	-3.6896	-2.7604	-3.2562	-3.5938	-2.9042	127.972	302.328	302.205	322.673	209.977	328.538	339.878	101.969	168.522	164.045	162.841	93.408	344.006	348.572	163.493	105.653	0.00013394	1.869e-05	3.302e-05	86.742	5.8804e-07	1.092e-06	147.38	16.897	2.3838e-06	4.6687e-07	32.903	8.7813	4.5417	0.93222	1.0861e-06	2.3451	0.00017535	0.0004384	0.00012862	88.047	4.9136e-06	5.584e-06	146.46	16.797	3.5352e-06	5.7492e-06	33.481	8.8366	4.5389	0.96093	3.3795e-06	2.4282	410.177	345.274	168.457	98.823	177.771	225.504	98.373	104.634	253.927	276.983	101.552	105.481	108.207	114.134	157.599	108.948	-8191	255	
2416.969	1	1	0	0	0.13834	0.15144	0.16587	0.15861	0.19944	0.25569	0.031337	0.14421	0.24467	0.17199	0.24275	0.20169	0.060758	0.024318	0.072572	0.073247	-3.3708	-3.1896	-2.9	-3.6312	-2.9729	-3.2812	-3.6042	-2.7938	-3.625	-3.4146	-2.8917	-3.7687	-3.0271	-3.175	-3.6021	-2.8792	361.444	138.654	219.440	325.528	96.645	345.606	110.733	332.528	413.520	286.720	442.591	373.503	255.962	157.077	363.038	371.584	7.1984e-05	6.4852e-05	2.2983e-05	88.137	6.8301e-07	6.7809e-07	148.96	16.8	4.335e-07	1.7723e-07	34.033	8.854	4.5149	0.93878	8.092e-07	2.3755	0.00017427	0.00044773	0.00014679	88.566	4.5667e-06	5.1129e-06	148	16.794	3.4789e-06	5.8116e-06	33.848	8.8907	4.5071	0.97512	3.9548e-06	2.4412	387.161	337.098	442.975	98.717	113.587	199.734	97.718	104.216	401.919	430.254	101.280	106.621	107.899	113.639	221.936	110.230	-8191	255	
2417.065	1	1	0	0	0.098927	0.12606	0.099968	0.064715	0.10755	0.1007	0.099038	0.11833	0.1703	0.05711	0.090076	0.16396	0.10839	0.050023	0.26643	0.045033	-3.2833	-3.2854	-2.9042	-3.6021	-3.0812	-3.2062	-3.5646	-2.9562	-3.5771	-3.4583	-3.0583	-3.6521	-3.1708	-3.1083	-3.7979	-3.0021	377.146	323.032	227.161	393.914	368.300	145.134	344.782	434.024	151.970	436.932	392.007	90.190	337.900	172.360	182.590	216.611	5.8416e-05	8.8765e-05	2.4511e-05	87.633	1.7331e-06	7.8825e-07	147.63	16.794	7.1558e-07	1.6295e-06	33.721	8.7397	4.3902	0.92479	6.8428e-07	2.3751	0.00018337	0.00042849	0.00014875	88.143	4.5106e-06	5.7245e-06	146.09	16.705	3.279e-06	5.1326e-06	33.539	8.7678	4.5103	0.95057	4.0799e-06	2.412	386.573	210.415	443.957	98.138	251.653	235.131	97.547	104.981	211.664	277.099	101.556	106.386	109.769	113.248	283.632	110.384	-8191	255	
2417.184	1	1	0	0	0.077789	0.25152	0.092313	0.17118	0.21713	0.2097	0.30009	0.12482	0.079626	0.27191	0.19173	0.12657	0.17489	0.16261	0.031596	0.25352	-3.1271	-3.7521	-2.8875	-3.5896	-3.1479	-3.1708	-3.6729	-2.9896	-3.4792	-3.5687	-2.8583	-3.7146	-3.0979	-3.0896	-3.6958	-3.1542	170.668	164.927	125.466	207.894	400.145	332.897	391.863	444.977	283.252	388.461	173.888	429.653	383.067	164.264	259.667	147.295	6.8366e-05	6.3459e-05	2.1755e-05	90.462	1.4757e-06	4.4073e-07	146.51	16.788	2.887e-06	4.6371e-07	33.696	8.8552	4.491	0.91123	3.5275e-07	2.3791	0.00018395	0.00045007	0.00013373	89.308	4.4692e-06	5.4311e-06	146.19	16.652	3.6156e-06	5.173e-06	33.712	8.8	4.4991	0.95724	3.7048e-06	2.4344	393.167	215.925	205.048	98.965	243.194	246.930	97.307	104.657	179.791	294.954	101.222	105.788	106.994	116.069	199.633	110.299	-8191	255	
2417.280	1	1	0	0	0.21769	0.046172	0.18428	0.061938	0.24026	0.11195	0.1717	0.22857	0.27523	0.041258	0.23439	0.2373	0.19311	0.066635	0.20977	0.11052	-3.0771	-3.6646	-2.9104	-3.4917	-3.175	-2.9875	-3.7604	-2.9854	-3.1667	-3.6625	-2.8896	-3.4979	-3.1229	-2.9979	-3.7625	-3.1917	363.348	93.967	346.331	230.022	431.645	284.312	416.829	134.190	326.229	389.498	296.864	122.432	95.538	330.778	410.030	151.483	0.00011108	3.5568e-05	3.1454e-05	85.572	9.1308e-07	5.3888e-07	148.64	16.737	1.6499e-06	7.9902e-07	34.154	8.7905	4.4333	0.93593	1.409e-06	2.3516	0.00019407	0.00042878	0.00013788	87.6	4.4663e-06	6.112e-06	147.39	16.745	3.58e-06	5.7309e-06	33.625	8.8742	4.4996	0.95905	3.8433e-06	2.4445	395.302	361.406	247.997	99.715	158.271	180.544	97.608	103.213	217.437	183.961	101.349	106.599	107.168	114.269	208.289	109.583	-8191	255	
2417.376	1	1	0	0	0.097806	0.1939	0.17175	0.15409	0.090183	0.1696	0.078199	0.13561	0.027219	0.088717	0.043012	0.21502	0.11946	0.032053	0.14654	0.070158	-2.8354	-3.6542	-2.9271	-3.5667	-3.6	-2.9771	-3.7708	-3.0604	-3.2875	-3.6354	-3.0167	-3.3958	-3.4604	-3.0187	-3.7333	-3.2958	277.617	279.378	182.397	114.558	444.330	435.336	170.695	166.982	269.481	261.868	127.303	349.863	408.369	141.922	334.833	430.941	0.00012917	2.0069e-05	3.7683e-05	88.453	1.1702e-06	1.8524e-06	148.99	16.61	6.2803e-07	9.4692e-07	33.025	8.783	4.4498	0.89634	1.7844e-06	2.3615	0.00019823	0.0004559	0.00013294	89.502	4.5194e-06	5.8507e-06	147.47	16.715	3.6133e-06	4.951e-06	33.42	8.8487	4.5175	0.94385	3.8944e-06	2.4227	405.311	364.113	377.619	99.638	250.523	222.020	97.874	105.112	155.451	88.092	101.239	106.011	108.673	111.224	223.014	112.211	-8191	255	
2417.448	1	1	0	0	0.081044	0.037456	0.12918	0.18686	0.10646	0.057505	0.11309	0.058789	0.12735	0.22466	0.38004	0.14102	0.029983	0.2194	0.19628	0.25778	-2.6354	-3.6417	-3.0896	-3.35	-3.5521	-3.0521	-3.5938	-3.3375	-2.8646	-3.7771	-3.0479	-3.3438	-3.7229	-2.8896	-3.7458	-3.4979	201.878	388.567	329.186	198.674	252.902	388.596	397.536	272.330	277.062	306.562	89.466	90.833	362.097	158.290	328.501	420.999	0.00010968	2.1201e-05	1.9681e-05	86.672	1.7497e-06	4.8935e-07	146.12	16.335	1.6217e-06	1.0024e-06	32.883	8.7128	4.5554	0.95312	5.7235e-07	2.3123	0.00018786	0.00039014	0.00013897	88.022	4.3482e-06	5.7138e-06	144.7	16.413	3.6569e-06	5.4042e-06	33.133	8.6667	4.5365	0.94955	4.0826e-06	2.3672	401.890	305.913	337.190	97.368	151.838	240.921	97.227	103.986	239.931	169.661	100.631	106.134	108.180	111.007	438.541	109.959	-8191	255	
2417.544	1	1	0	0	0.27198	0.22255	0.12778	0.1719	0.15006	0.073715	0.072972	0.078748	0.10196	0.06718	0.073952	0.16763	0.18315	0.05924	0.019753	0.0926	-2.4521	-3.6958	-3.0667	-3.1937	-3.6813	-3.0833	-3.6167	-3.5563	-3.0354	-3.7521	-3.0771	-3.2687	-3.7417	-2.8958	-3.5896	-3.3438	90.470	421.066	386.607	141.776	407.884	396.873	371.286	408.805	290.318	266.194	431.770	327.519	359.927	168.126	443.807	269.269	7.2793e-05	5.085e-05	2.3425e-05	86.277	7.4579e-07	6.5176e-07	147.23	16.788	3.2688e-08	3.068e-07	33.036	8.9223	4.371	0.90937	3.8495e-07	2.3668	0.0001863	0.00040589	0.00013543	87.473	4.0086e-06	5.5965e-06	144.57	16.619	3.8257e-06	4.8005e-06	33.131	8.8285	4.492	0.94969	4.0987e-06	2.4098	408.906	272.266	208.937	98.657	221.352	179.803	97.616	104.034	278.864	314.971	101.342	105.279	108.717	112.381	261.411	111.723	-8191	255	
2417.664	1	1	0	0	0.12585	0.14479	0.24441	0.17241	0.11808	0.035116	0.24057	0.1257	0.28434	0.10175	0.15318	0.16847	0.1727	0.069523	0.17413	0.12783	-2.4979	-3.7167	-3.0104	-3.1708	-3.775	-2.8479	-3.4354	-3.5687	-3.0563	-3.6604	-3.2729	-3.2313	-3.7313	-2.95	-3.3646	-3.7958	233.794	345.479	136.777	392.653	359.326	95.517	197.437	360.362	185.877	119.056	371.390	209.991	288.337	181.224	352.480	356.864	7.812e-05	5.3557e-05	2.6173e-05	87.493	1.2012e-06	2.4589e-07	148.03	16.731	3.3735e-07	1.1955e-06	34.305	8.9884	4.6293	0.92685	1.4608e-06	2.411	0.00019936	0.00042441	0.00013792	88.309	4.639e-06	6e-06	147.06	16.72	3.6064e-06	4.5252e-06	33.989	8.9563	4.6091	0.96417	3.9858e-06	2.4609	374.050	316.105	179.693	98.149	308.723	202.449	98.244	104.173	277.785	270.388	100.938	105.655	108.484	113.735	261.707	110.937	-8191	255	
2417.761	1	1	0	0	0.18584	0.08322	0.023818	0.15261	0.1116	0.06048	0.032083	0.091029	0.27893	0.12354	0.059383	0.091108	0.038613	0.10486	0.2612	0.018212	-2.6333	-3.5208	-3.4146	-3.0125	-3.8396	-3.0958	-3.3792	-3.7417	-2.7417	-3.6875	-3.5417	-2.9354	-3.8167	-3.1063	-3.2125	-3.5521	444.398	108.874	292.195	348.267	207.159	228.446	88.820	410.392	385.143	384.723	375.407	179.627	370.495	257.772	165.850	433.347	0.00010227	9.0939e-05	5.4382e-06	89.072	1.9714e-06	5.7635e-07	150.68	16.854	2.3033e-06	6.3223e-07	34.13	9.0469	4.6447	0.91467	7.4094e-07	2.3917	0.00019383	0.00043461	0.00013019	90.012	3.9407e-06	5.9485e-06	149.04	17.023	3.441e-06	5.4244e-06	33.99	8.9311	4.5901	0.9651	3.8406e-06	2.4022	380.535	123.976	161.889	98.643	209.354	301.528	98.060	104.211	257.081	255.127	101.480	105.321	108.990	114.375	300.477	110.111	-8191	255	
2417.857	1	1	0	0	0.074449	0.22897	0.13273	0.33585	0.28263	0.095681	0.11961	0.097023	0.18512	0.1742	0.11619	0.041871	0.13669	0.27806	0.1812	0.054399	-2.4896	-3.5771	-3.5812	-3.0687	-3.7938	-3.1562	-3.1312	-3.6292	-2.8833	-3.35	-3.4979	-2.7729	-3.8271	-3.1604	-3.1479	-3.7646	418.162	135.966	225.919	315.272	328.806	386.898	321.331	167.064	345.786	310.970	312.106	127.201	301.063	137.691	352.289	264.195	9.2199e-05	0.00011483	1.2104e-05	88.205	4.0613e-07	1.0501e-06	149.91	16.764	1.0418e-06	1.6814e-06	33.344	8.8088	4.4516	0.93415	6.1315e-07	2.3475	0.00020063	0.00044117	0.00012303	89.748	4.639e-06	5.4098e-06	148.49	16.797	3.7626e-06	4.8629e-06	33.379	8.7745	4.508	0.94796	4.3675e-06	2.3988	378.811	413.011	87.558	98.931	425.685	238.177	97.810	105.383	256.978	293.853	100.778	106.122	108.847	113.498	351.384	109.991	-8191	255	
2417.953	1	1	0	0	0.10535	0.26898	0.24971	0.023705	0.12337	0.20639	0.31524	0.20175	0.25218	0.17917	0.26721	0.092907	0.10894	0.13739	0.23251	0.10332	-2.5833	-3.425	-3.6354	-2.9583	-3.5479	-3.3542	-3.0417	-3.7938	-3.0563	-3.375	-3.675	-2.9625	-3.7271	-3.5042	-2.9396	-3.825	288.044	314.121	350.283	274.762	351.510	341.389	409.063	410.781	169.077	426.039	395.443	241.200	443.997	201.414	252.775	115.208	7.7213e-05	6.5944e-05	1.9199e-05	88.632	1.4383e-06	9.196e-07	148.99	16.841	5.9086e-07	1.0197e-06	33.94	8.8296	4.5085	0.92949	7.4327e-07	2.388	0.00019139	0.00044176	0.00012775	90.061	4.3895e-06	5.12e-06	147.31	16.763	3.4605e-06	5.296e-06	33.899	8.8733	4.5308	0.95804	4.1162e-06	2.4189	396.966	322.762	203.358	97.686	186.564	167.506	97.670	104.205	172.661	207.582	101.505	105.196	108.453	113.730	342.590	111.073	-8191	255	
2418.072	1	1	0	0	0.16297	0.13587	0.12461	0.16492	0.22896	0.20749	0.1178	0.39	0.13961	0.14358	0.098409	0.28713	0.084459	0.086456	0.29143	0.1677	-2.7583	-3.2396	-3.7292	-2.9042	-3.5708	-3.5875	-3.0396	-3.7917	-3.2146	-3.3125	-3.925	-2.9	-3.4125	-3.5312	-2.9813	-3.8604	139.277	148.584	131.600	136.019	328.834	91.886	387.658	107.109	280.615	297.548	357.436	274.131	224.157	127.448	197.265	119.427	0.00010474	4.0465e-05	2.2428e-05	89.796	1.2649e-06	1.387e-06	150.17	17.045	1.3997e-06	9.0855e-07	33.954	9.0324	4.5895	0.94873	2.6195e-07	2.3901	0.00018943	0.000482	0.00011761	90.617	4.3733e-06	5.2605e-06	149.5	17.01	3.5627e-06	5.3914e-06	34.318	9.0824	4.6156	0.97472	4.7399e-06	2.4715	363.324	173.937	338.357	98.444	217.728	237.518	97.967	104.774	203.653	282.006	101.668	105.893	107.664	112.997	292.910	109.184	-8191	255	
2418.145	1	1	0	0	0.14148	0.18393	0.068154	0.17991	0.075201	0.087636	0.42278	0.080294	0.12914	0.18034	0.060334	0.048221	0.10179	0.22104	0.23033	0.27069	-2.7417	-3	-3.6896	-2.7479	-3.4583	-3.7583	-3.0292	-3.6375	-3.2667	-3.0833	-3.7896	-2.9667	-3.4833	-3.7812	-2.8771	-3.625	326.436	353.370	94.841	316.365	93.462	368.136	337.207	323.283	190.737	95.422	319.354	280.214	310.357	280.740	300.153	380.636	0.00014235	7.2879e-05	1.5455e-05	91.097	7.084e-07	1.472e-06	149.58	16.896	1.673e-06	4.609e-07	33.733	8.8984	4.6287	0.92196	1.3303e-06	2.3411	0.00017442	0.00047194	0.00011805	90.981	4.0794e-06	5.1609e-06	148.24	17.022	3.7178e-06	5.2354e-06	33.98	8.9119	4.6161	0.96375	4.264e-06	2.3874	395.871	391.735	211.537	98.570	145.569	259.850	97.730	103.239	250.401	257.990	101.524	106.590	109.458	114.567	258.294	109.855	-8191	255	
2418.264	1	1	0	0	0.11981	0.2338	0.059104	0.049306	0.17858	0.12014	0.20788	0.11877	0.194	0.34442	0.068266	0.1709	0.24237	0.22032	0.086275	0.22593	-2.9792	-3.1208	-3.6625	-3.0812	-3.2854	-3.8854	-2.8167	-3.775	-3.3896	-3.0458	-3.7896	-3.1271	-3.4292	-3.7167	-2.925	-3.5917	301.816	377.457	333.793	407.511	221.787	147.356	170.512	204.236	150.271	226.436	155.985	104.197	159.388	212.951	419.234	360.002	0.00010158	5.0448e-05	8.9591e-06	90.552	8.9981e-07	1.6841e-06	148.05	16.879	1.588e-06	4.4514e-07	33.778	8.8035	4.6096	0.94465	7.4901e-07	2.4072	0.00017828	0.00045517	0.0001298	90.277	4.5578e-06	5.4009e-06	146.87	16.861	3.294e-06	5.6593e-06	33.966	8.9437	4.7053	0.97211	4.2345e-06	2.4101	403.729	125.226	288.351	97.714	314.723	185.599	97.415	104.147	216.116	384.851	102.199	106.048	108.703	113.397	294.990	109.963	-8191	255	
2418.360	1	1	0	0	0.10678	0.28379	0.17168	0.14714	0.069894	0.19925	0.067657	0.058352	0.065064	0.057085	0.18816	0.21996	0.09146	0.1822	0.096821	0.10364	-3.2	-3.0167	-3.6437	-3.1063	-3.1354	-3.7708	-3.0042	-3.4646	-3.4458	-2.9688	-3.85	-3.2625	-2.9938	-3.8771	-2.9833	-3.375	382.577	375.888	278.164	401.947	324.435	117.447	292.880	377.351	361.488	261.216	325.163	434.016	316.496	313.065	119.286	274.253	0.00010292	5.5846e-05	3.0625e-05	92.401	8.4664e-07	1.1234e-06	149.74	17.059	1.389e-06	2.5707e-07	34.22	9.2131	4.714	0.95162	1.5064e-06	2.3574	0.00016977	0.00048681	0.00011368	91.377	4.5711e-06	5.12e-06	148.93	17.072	3.5041e-06	5.7822e-06	34.421	9.1784	4.7122	0.97515	3.9145e-06	2.4357	390.464	112.825	151.733	98.280	268.548	226.682	97.636	104.132	134.596	445.067	101.713	106.096	108.668	112.491	210.546	109.461	-8191	255	
2418.456	1	1	0	0	0.10662	0.16394	0.20987	0.17849	0.12972	0.27661	0.13406	0.121	0.21063	0.073989	0.061421	0.13759	0.20032	0.078052	0.18673	0.1733	-3.2083	-2.9396	-3.7104	-3.3417	-3.1	-3.8167	-2.9271	-3.3729	-3.5563	-2.8208	-3.6125	-3.2104	-2.9604	-3.85	-3.1208	-3.3021	95.611	410.100	405.310	124.376	309.453	273.330	375.463	432.702	205.448	296.145	414.025	214.972	182.670	400.329	120.186	119.532	9.28e-05	0.0001439	1.5051e-05	89.562	6.1752e-07	3.3741e-07	149.67	17.246	2.8616e-07	1.443e-06	35.113	9.0494	4.7079	0.96317	8.6881e-07	2.4425	0.00017911	0.00049147	0.00012281	90.828	4.5519e-06	4.5529e-06	148.73	17.17	3.4421e-06	5.5565e-06	34.65	9.2246	4.7324	0.99088	3.9226e-06	2.4754	381.283	234.320	257.283	98.224	397.605	209.884	98.103	104.099	392.130	116.847	101.447	106.846	107.672	113.928	190.249	109.368	-8191	255	
2418.553	1	1	0	0	0.12819	0.09147	0.05117	0.10302	0.34334	0.1196	0.052126	0.16083	0.085109	0.098412	0.16489	0.16607	0.19994	0.2941	0.16749	0.18267	-3.1917	-2.725	-3.4979	-3.1937	-2.9729	-3.625	-3.0917	-3.0646	-3.6271	-2.8458	-3.5312	-3.2979	-2.9104	-3.5229	-3.1063	-3.075	269.052	364.005	355.895	98.550	258.763	170.215	296.079	421.900	105.519	278.489	114.308	194.499	204.925	270.171	437.818	428.219	8.0292e-05	0.00016147	1.1346e-05	89.532	5.2853e-07	8.0671e-07	148.09	16.881	4.2225e-07	6.9017e-07	33.983	8.8894	4.6779	0.95449	9.7092e-07	2.3135	0.00016048	0.00046873	0.00011626	89.899	4.4028e-06	4.8587e-06	147.03	16.986	3.24e-06	5.7309e-06	34.072	8.9647	4.69	0.96854	4.1834e-06	2.3827	382.895	271.345	394.287	98.692	100.290	149.991	97.258	104.467	108.205	213.924	101.557	105.876	107.209	112.270	200.893	110.250	-8191	255	
2418.673	1	1	0	0	0.11551	0.18822	0.35869	0.21212	0.073769	0.088997	0.15163	0.11925	0.094096	0.069838	0.13865	0.048724	0.28984	0.14875	0.12402	0.1346	-3.3187	-2.9083	-3.4042	-3.45	-3.075	-3.7667	-3.1479	-3.0563	-3.6667	-2.9313	-3.4125	-3.5708	-2.9667	-3.6417	-3.3167	-3.0312	260.962	345.017	184.597	215.914	269.447	192.906	155.870	400.709	405.581	176.571	129.169	302.035	176.922	191.958	298.056	172.978	9.1047e-05	0.00014363	1.321e-05	88.489	1.3343e-06	2.1562e-06	145.01	16.745	3.5284e-07	5.203e-07	33.613	8.9469	4.5275	0.94846	7.6729e-07	2.3059	0.00016713	0.00048885	0.00013146	89.133	5.0081e-06	4.9351e-06	144.52	16.787	3.1297e-06	6.1401e-06	33.644	8.9068	4.5786	0.97174	3.897e-06	2.3831	385.508	151.706	265.286	98.338	219.847	191.587	97.490	104.288	184.878	195.172	100.707	105.781	107.590	113.849	140.019	110.028	-8191	255	
2418.745	1	1	0	0	0.11779	0.19346	0.10996	0.22421	0.30949	0.2909	0.18521	0.20787	0.053485	0.094468	0.34832	0.16482	0.19075	0.28009	0.2153	0.081125	-3.3271	-2.9313	-3.2208	-3.6354	-2.9813	-3.7354	-3.1958	-2.8854	-3.6937	-3.1521	-3.2458	-3.6958	-2.9083	-3.5479	-3.3354	-3.0417	284.807	132.443	425.396	292.742	226.094	357.998	182.244	434.984	215.585	413.030	263.022	143.139	188.989	435.781	89.316	314.474	9.8858e-05	0.00011007	3.372e-05	88.334	9.2411e-07	4.0047e-07	146.61	16.639	4.8448e-07	5.572e-07	34.068	9.056	4.7374	0.95275	3.2226e-07	2.3324	0.00016791	0.00043636	0.00014718	89.179	4.4781e-06	5.1094e-06	145.75	16.782	3.1079e-06	5.562e-06	34.094	9.0903	4.7026	0.97877	4.0422e-06	2.4355	389.080	151.525	165.962	97.720	324.831	318.452	97.123	104.883	140.065	213.535	101.216	104.945	105.175	111.973	272.977	109.890	-8191	255	
2418.841	1	1	0	0	0.096597	0.1347	0.19008	0.041787	0.13133	0.10185	0.088459	0.10033	0.11169	0.54936	0.19958	0.25156	0.078203	0.053766	0.08988	0.15659	-3.3792	-3.0958	-3.2167	-3.6542	-2.9979	-3.475	-3.6104	-2.8208	-3.6042	-2.9771	-3.0667	-3.7583	-2.8937	-3.3833	-3.4562	-2.7667	405.461	109.021	421.631	114.198	430.376	309.445	251.398	439.551	310.032	92.806	219.073	332.182	123.498	376.440	108.064	145.737	8.9476e-05	7.2932e-05	1.9735e-05	87.753	1.0129e-06	6.3331e-07	147.87	17.054	8.5522e-07	6.1896e-07	34.119	9.0785	4.7286	0.9471	7.0356e-07	2.4352	0.00016625	0.00047645	0.00013596	89.303	5.048e-06	5.1911e-06	147.19	17.093	3.4065e-06	5.3583e-06	34.091	9.1478	4.692	0.98378	3.889e-06	2.4377	388.020	440.407	336.577	97.440	229.267	264.901	96.920	104.054	250.257	209.822	100.769	105.384	106.772	113.261	152.263	110.332	-8191	255	
2418.962	1	1	0	0	0.11619	0.19668	0.20749	0.08352	0.09045	0.049724	0.13034	0.12051	0.13861	0.16609	0.12518	0.15404	0.1976	0.11055	0.15731	0.28278	-3.2917	-3.2104	-2.9792	-3.7729	-2.9208	-3.4292	-3.6021	-2.8458	-3.6792	-3.1688	-2.9417	-3.7375	-3.0896	-3.2417	-3.5833	-2.8083	263.370	106.984	237.533	375.397	430.536	440.480	440.610	127.658	278.219	265.314	162.783	411.237	109.247	240.158	325.694	128.380	7.9189e-05	2.3841e-05	2.1151e-05	88.768	1.9759e-06	8.7455e-07	145.29	16.559	6.4991e-07	4.6863e-07	33.709	8.7621	4.6113	0.93885	2.5864e-07	2.3406	0.00016845	0.00043724	0.00014356	89.615	4.6848e-06	5.1094e-06	145.8	16.79	3.1803e-06	5.6831e-06	33.474	8.7104	4.584	0.96242	3.6188e-06	2.3609	390.154	421.828	327.804	98.909	260.674	346.618	96.865	104.083	208.875	282.116	100.949	106.600	109.485	111.915	100.403	109.150	-8191	255	
2419.058	1	1	0	0	0.28604	0.11164	0.046194	0.31975	0.091651	0.10913	0.061259	0.14769	0.12271	0.34876	0.090976	0.22635	0.071474	0.11671	0.14975	0.19971	-3.0687	-3.3771	-3.0896	-3.6688	-3.0021	-3.0021	-3.6604	-2.8812	-3.3833	-3.5083	-3.0354	-3.7146	-3.1521	-3.0104	-3.7604	-3.0208	364.271	199.321	150.680	152.011	434.164	312.236	161.168	388.400	204.470	164.982	245.320	297.728	395.670	437.987	102.306	122.732	8.9727e-05	2.817e-05	1.0104e-05	89.28	3.6637e-07	7.2887e-07	147.92	16.788	3.3794e-06	8.2504e-07	33.194	8.7922	4.6521	0.93519	1.0898e-06	2.3255	0.0001665	0.00045065	0.000136	89.887	4.9594e-06	5.0436e-06	145.82	16.844	3.4203e-06	5.2427e-06	33.314	8.7785	4.6869	0.97411	3.9038e-06	2.3779	373.059	158.451	362.914	98.189	223.374	254.531	97.279	103.839	307.318	223.848	100.497	106.337	108.239	113.861	242.264	108.589	-8191	255	
2419.152	1	1	0	0	0.17704	0.046596	0.053241	0.02955	0.073827	0.19144	0.23138	0.13576	0.15959	0.39401	0.072502	0.091425	0.096221	0.11168	0.14737	0.066811	-3.1167	-3.5854	-3.0125	-3.5917	-3.3979	-3.0687	-3.8667	-3.1146	-3.3604	-3.3771	-2.9625	-3.8979	-3.2687	-3.0625	-3.7208	-3.0938	238.331	100.955	267.113	146.191	315.405	145.408	184.541	319.432	389.339	401.841	184.747	124.389	116.663	159.996	228.915	277.945	0.00012426	5.7194e-05	1.7059e-05	88.897	5.6365e-07	1.0352e-06	144.46	16.485	2.1992e-06	5.8197e-07	33.208	8.6676	4.5631	0.93147	1.0959e-06	2.4195	0.00018004	0.00043228	0.00014945	88.909	4.5519e-06	5.2587e-06	144.7	16.775	3.6087e-06	4.7876e-06	33.469	8.8605	4.6423	0.97749	3.8231e-06	2.4323	412.179	184.085	141.772	97.585	191.125	201.962	98.010	103.750	256.647	340.081	100.687	104.403	108.072	112.386	221.233	109.775	-8191	255	
2419.248	1	1	0	0	0.063473	0.16939	0.094039	0.151	0.061092	0.21173	0.28482	0.13433	0.21306	0.081846	0.24992	0.14083	0.095192	0.17341	0.041456	0.17461	-3.0187	-3.4625	-2.8208	-3.5167	-3.2792	-3.0125	-3.8208	-3.075	-3.2604	-3.7354	-2.8312	-3.3063	-3.3812	-2.9354	-3.7	-3.0958	402.730	152.498	431.810	311.696	308.582	247.898	294.916	236.734	91.117	298.118	175.656	390.817	284.873	108.508	201.492	357.661	7.3496e-05	9.3027e-05	2.1186e-05	86.209	3.2766e-07	4.4801e-07	143.69	16.545	5.6376e-07	6.8173e-07	33.257	8.7287	4.4629	0.91073	1.4534e-06	2.3331	0.00018791	0.00044803	0.00014164	87.373	4.518e-06	5.7085e-06	143.51	16.622	3.5857e-06	5.0409e-06	33.078	8.7442	4.5775	0.96568	3.5435e-06	2.3618	409.571	238.184	272.499	99.140	243.121	275.789	96.865	104.549	339.758	218.317	101.277	105.426	106.736	112.768	239.347	109.490	-8191	255	
2419.344	1	1	0	0	0.2414	0.061827	0.13946	0.072326	0.18595	0.18629	0.26285	0.057467	0.029997	0.1457	0.16687	0.25941	0.0060514	0.13272	0.20862	0.11489	-2.8021	-3.6271	-2.9375	-3.5708	-3.4667	-2.8792	-3.7	-3.1021	-3.0812	-3.7188	-2.8542	-3.4208	-3.4417	-2.8354	-3.6458	-3.1729	339.675	264.735	242.673	245.318	93.794	290.670	118.945	107.412	408.176	335.398	423.083	274.043	307.517	193.181	407.130	90.941	7.2991e-05	9.6138e-05	1.8479e-05	86.134	6.9265e-07	6.993e-07	142.62	16.565	1.9241e-06	8.1802e-07	33.023	8.5113	4.6326	0.9249	7.2707e-07	2.3047	0.0001906	0.00040429	0.00013508	87.644	4.8162e-06	5.9965e-06	142.14	16.44	3.6891e-06	5.4574e-06	32.835	8.5686	4.5682	0.96291	3.6927e-06	2.337	394.548	130.312	139.787	97.373	287.392	88.261	97.542	103.607	238.215	130.015	100.820	105.548	109.228	112.897	205.596	109.549	-8191	255	
2419.441	1	1	0	0	0.14993	0.16176	0.053005	0.33268	0.14784	0.23472	0.17534	0.15527	0.30992	0.11111	0.12081	0.17681	0.11146	0.2254	0.1015	0.11497	-2.8479	-3.4958	-2.9188	-3.4917	-3.4958	-2.8896	-3.7542	-3.2438	-3.0042	-3.7229	-3.1542	-3.2229	-3.5271	-2.7708	-3.6104	-3.2896	165.271	404.374	383.679	212.054	301.135	257.276	255.761	445.243	195.787	151.472	96.832	104.033	95.461	243.644	100.190	268.430	7.1048e-05	7.3544e-05	6.2141e-06	88.658	1.2502e-06	7.8897e-07	142.71	16.392	1.1897e-06	6.8073e-07	32.6	8.5658	4.4948	0.91353	1.6558e-06	2.3377	0.00019672	0.00040181	0.00013683	87.496	4.6021e-06	6.5494e-06	142.78	16.47	3.789e-06	5.2501e-06	32.806	8.6607	4.5125	0.96847	4.096e-06	2.3826	411.280	424.521	368.379	97.708	180.045	238.899	96.816	104.008	189.279	286.909	100.505	106.264	106.269	112.300	249.924	109.525	-8191	255	
2419.537	1	1	0	0	0.10035	0.029357	0.13212	0.13914	0.16895	0.23021	0.11565	0.13008	0.21816	0.11052	0.21537	0.21672	0.089138	0.10165	0.078872	0.060913	-2.6375	-3.675	-3.1521	-3.4417	-3.7146	-3.0771	-3.4875	-3.4313	-2.9062	-3.8	-3.1562	-3.1333	-3.6813	-2.8208	-3.5875	-3.4417	305.106	146.274	110.259	224.189	358.982	127.541	282.261	241.816	215.567	121.323	206.144	372.174	322.483	221.387	326.487	111.387	0.00010845	8.7078e-05	3.3248e-05	85.88	1.718e-06	1.6971e-06	143.87	16.636	5.6453e-07	6.7687e-07	32.943	8.7692	4.5676	0.96292	3.526e-07	2.2923	0.00017784	0.00044059	0.00013465	86.706	4.7512e-06	5.6907e-06	142.98	16.548	4.0198e-06	5.0409e-06	33.083	8.7676	4.6243	0.98247	4.4899e-06	2.3823	369.377	243.718	404.454	96.992	249.267	267.169	97.917	103.103	281.768	261.535	100.832	105.833	106.772	112.156	237.159	109.271	-8191	255	
2419.633	1	1	0	0	0.13716	0.36365	0.10995	0.144	0.09076	0.046864	0.23048	0.060251	0.021583	0.071496	0.11357	0.22888	0.15947	0.27881	0.23223	0.059114	-2.7479	-3.8083	-3.1083	-3.0563	-3.8021	-2.8125	-3.45	-3.475	-2.9875	-3.7771	-3.0667	-2.9667	-3.8187	-2.9042	-3.3042	-3.5833	404.412	105.365	369.051	352.558	110.583	341.126	337.176	94.655	414.521	429.731	407.504	277.631	314.011	434.519	251.021	167.482	8.2964e-05	7.1614e-05	1.4348e-05	85.493	1.3875e-06	1.049e-06	145.16	16.371	6.784e-07	1.0311e-06	32.738	8.5054	4.64	0.94819	7.5573e-07	2.3237	0.00020229	0.00042047	0.00013495	87.13	4.2094e-06	5.9787e-06	143.06	16.537	4.0118e-06	5.4684e-06	32.639	8.6482	4.6062	0.97452	3.9871e-06	2.3787	402.725	161.117	252.018	98.184	275.221	441.741	97.342	103.737	284.783	232.921	101.352	106.758	106.769	113.629	143.519	110.407	-8191	255	
2419.752	1	1	0	0	0.26502	0.10272	0.10801	0.36875	0.21622	0.049751	0.2349	0.2945	0.20694	0.1476	0.14616	0.077749	0.10474	0.19673	0.29801	0.258	-2.625	-3.6146	-3.1833	-3.1229	-3.6562	-2.8354	-3.525	-3.3708	-2.9146	-3.8854	-3.2854	-3.1833	-3.7729	-2.9354	-3.2354	-3.6833	102.812	169.774	250.867	312.925	351.874	369.204	221.371	146.047	423.089	207.352	181.143	302.880	322.312	269.962	248.955	328.070	0.00012405	4.7254e-05	1.2444e-05	87.488	1.5261e-06	9.5998e-07	142.99	16.199	1.256e-06	1.2671e-06	31.68	8.2826	4.5797	0.89765	7.3822e-07	2.261	0.00020058	0.00042426	0.00014024	87.555	4.0484e-06	5.7867e-06	142.09	16.392	3.7913e-06	5.4428e-06	32.028	8.3915	4.5237	0.94667	3.8581e-06	2.3017	399.140	179.794	152.315	98.377	274.422	149.713	97.612	103.391	314.184	182.455	101.725	105.375	107.839	113.210	225.588	109.164	-8191	255	
2419.848	1	1	0	0	0.26158	0.14869	0.30404	0.033397	0.036662	0.10675	0.13431	0.081255	0.16278	0.11369	0.041985	0.15241	0.1229	0.083151	0.054978	0.076032	-2.5187	-3.5271	-3.3937	-3.125	-3.8417	-3.2479	-3.2062	-3.7708	-3.025	-3.7542	-3.5333	-2.9729	-3.675	-3.1813	-3.1688	-3.6729	421.677	149.879	251.419	348.030	309.504	296.956	334.256	432.883	131.501	99.761	374.151	144.228	270.063	329.992	232.296	95.637	5.5136e-05	7.6557e-05	1.7864e-05	87.863	8.7917e-07	8.2636e-07	142.64	16.484	1.5386e-06	8.2965e-07	31.663	8.4536	4.5946	0.92756	2.1221e-07	2.3494	0.00020077	0.0004594	0.00012425	87.757	4.2168e-06	5.3743e-06	141.77	16.492	3.6201e-06	5.4171e-06	32.249	8.5121	4.5075	0.96439	4.3648e-06	2.3542	432.556	96.086	113.908	97.360	320.514	274.083	96.708	104.396	291.494	266.183	100.917	105.341	107.655	112.717	396.204	108.200	-8191	255	
2419.944	1	1	0	0	0.22624	0.077343	0.07804	0.3087	0.26922	0.19031	0.14822	0.15083	0.14577	0.081346	0.095542	0.12708	0.27491	0.043457	0.12592	0.20257	-2.3396	-3.5458	-3.5917	-2.9958	-3.6771	-3.2896	-2.9604	-3.8312	-3.0292	-3.4062	-3.8229	-2.8292	-3.5396	-3.2854	-2.9813	-3.675	229.821	395.309	140.535	289.605	162.935	311.545	225.740	374.098	366.785	371.925	437.787	103.442	347.707	144.230	236.137	289.622	9.4452e-05	5.6003e-05	2.184e-06	87.734	7.0112e-07	7.5078e-07	143.08	16.812	2.2995e-06	1.0775e-06	31.913	8.3958	4.5593	0.93062	1.2359e-06	2.3472	0.00019818	0.0004005	0.00012727	87.214	3.8521e-06	5.5111e-06	142.82	16.651	3.681e-06	5.307e-06	32.505	8.5065	4.6191	0.98264	4.6068e-06	2.3824	352.964	238.771	98.297	98.441	389.099	162.495	97.206	103.480	270.575	225.047	100.295	105.219	108.015	113.378	116.293	109.185	-8191	255	
2420.040	1	1	0	0	0.22978	0.18853	0.09474	0.14823	0.07945	0.12995	0.092812	0.15576	0.23911	0.11283	0.058386	0.074479	0.090934	0.056066	0.027621	0.21535	-2.6646	-3.2792	-3.6562	-2.8833	-3.6333	-3.4375	-2.9938	-3.75	-3.0021	-3.325	-3.7917	-2.9813	-3.5854	-3.5396	-2.9625	-3.7417	222.786	255.550	279.033	401.256	383.601	367.970	315.473	125.253	338.852	350.909	195.835	409.776	88.789	254.285	210.958	130.645	7.2817e-05	9.8075e-05	9.904e-06	89.905	1.4577e-06	3.5483e-07	146.37	16.648	2.1426e-06	8.8105e-07	31.769	8.1964	4.5624	0.93336	5.9055e-07	2.286	0.00018474	0.00046523	0.00012259	88.401	4.3718e-06	5.7298e-06	143.9	16.591	3.8613e-06	6.0153e-06	32.365	8.417	4.5501	0.97512	4.6888e-06	2.3202	401.240	124.809	148.203	98.586	211.580	396.536	98.027	103.652	203.728	347.381	101.208	105.190	107.897	113.634	148.066	108.542	-8191	255	
#DATA ENDS
