BOXY.EXE: ISS Imagent and Oximeter Data Acquisition Program Version 0.80
Ascii Record File

#ACQ INFORMATION
2  Detector Channels 
16  External MUX Channels 
1  Auxiliary Channels 
5000  Waveform (CCF) Frequency (Hz)
1  Waveforms Skipped 
30  Waveforms Averaged 
1  Cycles Averaged 
16  Acquisitions per Waveform 
10.0806  Updata Rate (Hz) 

#FILE INFORMATION
TRUE -- External MUX Channel results are PARSED.
FALSE -- AC DC and Phase are NOT grouped.
TRUE -- Companion Program Settings File CREATED.
FALSE -- AC data not excluded
FALSE -- DC data not excluded
FALSE -- Phase data not excluded
FALSE -- Auxillary Chn. data not excluded
Tab delimiters

#CALIBRATION STATE
TRUE -- Waveform Calibration Values APPLIED.


#AUX CALIBRATION VALUES
Val Type	aux-1	

Term	1.0000e+00	
Factor	0.0000e+00	


#WF CALIBRATION VALUES
A = Detector Channel
Val Type	A-AC1	A-AC2	A-AC3	A-AC4	A-AC5	A-AC6	A-AC7	A-AC8	A-AC9	A-AC10	A-AC11	A-AC12	A-AC13	A-AC14	A-AC15	A-AC16	A-DC1	A-DC2	A-DC3	A-DC4	A-DC5	A-DC6	A-DC7	A-DC8	A-DC9	A-DC10	A-DC11	A-DC12	A-DC13	A-DC14	A-DC15	A-DC16	A-Ph1	A-Ph2	A-Ph3	A-Ph4	A-Ph5	A-Ph6	A-Ph7	A-Ph8	A-Ph9	A-Ph10	A-Ph11	A-Ph12	A-Ph13	A-Ph14	A-Ph15	A-Ph16	

Term	0.00000e+00	0.00000e+00	0.00000e+00	0.00000e+00	0.00000e+00	0.00000e+00	0.00000e+00	0.00000e+00	0.00000e+00	0.00000e+00	0.00000e+00	0.00000e+00	0.00000e+00	0.00000e+00	0.00000e+00	0.00000e+00	0.00000e+00	0.00000e+00	0.00000e+00	0.00000e+00	0.00000e+00	0.00000e+00	0.00000e+00	0.00000e+00	0.00000e+00	0.00000e+00	0.00000e+00	0.00000e+00	0.00000e+00	0.00000e+00	0.00000e+00	0.00000e+00	0.00000e+00	0.00000e+00	0.00000e+00	0.00000e+00	0.00000e+00	0.00000e+00	0.00000e+00	0.00000e+00	0.00000e+00	0.00000e+00	0.00000e+00	0.00000e+00	0.00000e+00	0.00000e+00	0.00000e+00	0.00000e+00	
Factor	1.00000e+00	1.00000e+00	1.00000e+00	1.00000e+00	1.00000e+00	1.00000e+00	1.00000e+00	1.00000e+00	1.00000e+00	1.00000e+00	1.00000e+00	1.00000e+00	1.00000e+00	1.00000e+00	1.00000e+00	1.00000e+00	1.00000e+00	1.00000e+00	1.00000e+00	1.00000e+00	1.00000e+00	1.00000e+00	1.00000e+00	1.00000e+00	1.00000e+00	1.00000e+00	1.00000e+00	1.00000e+00	1.00000e+00	1.00000e+00	1.00000e+00	1.00000e+00	X	X	X	X	X	X	X	X	X	X	X	X	X	X	X	X	

B = Detector Channel
Val Type	B-AC1	B-AC2	B-AC3	B-AC4	B-AC5	B-AC6	B-AC7	B-AC8	B-AC9	B-AC10	B-AC11	B-AC12	B-AC13	B-AC14	B-AC15	B-AC16	B-DC1	B-DC2	B-DC3	B-DC4	B-DC5	B-DC6	B-DC7	B-DC8	B-DC9	B-DC10	B-DC11	B-DC12	B-DC13	B-DC14	B-DC15	B-DC16	B-Ph1	B-Ph2	B-Ph3	B-Ph4	B-Ph5	B-Ph6	B-Ph7	B-Ph8	B-Ph9	B-Ph10	B-Ph11	B-Ph12	B-Ph13	B-Ph14	B-Ph15	B-Ph16	

Term	0.00000e+00	0.00000e+00	0.00000e+00	0.00000e+00	0.00000e+00	0.00000e+00	0.00000e+00	0.00000e+00	0.00000e+00	0.00000e+00	0.00000e+00	0.00000e+00	0.00000e+00	0.00000e+00	0.00000e+00	0.00000e+00	0.00000e+00	0.00000e+00	0.00000e+00	0.00000e+00	0.00000e+00	0.00000e+00	0.00000e+00	0.00000e+00	0.00000e+00	0.00000e+00	0.00000e+00	0.00000e+00	0.00000e+00	0.00000e+00	0.00000e+00	0.00000e+00	-2.67937e+02	-1.30297e+02	-1.24741e+02	-1.87822e+02	-6.96048e+01	-6.65855e+01	-1.56226e+02	-1.62015e+02	-6.64801e+01	-6.54146e+01	-1.71993e+02	-1.70449e+02	-1.82921e+02	-1.77447e+02	-7.06104e+01	-1.50185e+02	
Factor	5.08686e-05	1.23101e-04	3.70342e-05	3.47696e-01	1.44184e-06	1.36155e-06	1.51375e-01	4.06272e-02	2.33488e-06	1.39090e-06	7.25516e-02	2.05289e-02	3.17289e-02	6.81532e-03	1.55922e-06	9.51071e-03	2.34709e-05	6.99811e-05	2.09637e-05	1.86283e-01	7.08699e-07	8.53338e-07	7.64441e-02	2.19243e-02	5.51292e-07	8.80824e-07	3.79906e-02	1.07674e-02	1.72504e-02	3.72260e-03	6.45250e-07	5.03074e-03	X	X	X	X	X	X	X	X	X	X	X	X	X	X	X	X	



#DISTANCE SETTINGS
A = Detector Channel
A-1	A-2	A-3	A-4	A-5	A-6	A-7	A-8	A-9	A-10	A-11	A-12	A-13	A-14	A-15	A-16	

2.5000e+00	3.0000e+00	2.5000e+00	3.0000e+00	2.0000e+00	3.0000e+00	1.5000e+00	3.0000e+00	3.0000e+00	3.0000e+00	3.0000e+00	3.0000e+00	3.0000e+00	3.0000e+00	1.5000e+00	3.0000e+00	

B = Detector Channel
B-1	B-2	B-3	B-4	B-5	B-6	B-7	B-8	B-9	B-10	B-11	B-12	B-13	B-14	B-15	B-16	

1.0000e+01	1.0000e+01	1.0000e+01	1.4400e+00	1.0000e+01	1.0000e+01	1.5100e+00	1.9400e+00	1.0000e+01	1.0000e+01	1.9900e+00	2.4900e+00	2.4100e+00	2.9000e+00	1.0000e+01	2.9800e+00	




#DATA BEGINS
time	group	step	mark	flag	A-AC1	A-AC2	A-AC3	A-AC4	A-AC5	A-AC6	A-AC7	A-AC8	A-AC9	A-AC10	A-AC11	A-AC12	A-AC13	A-AC14	A-AC15	A-AC16	A-DC1	A-DC2	A-DC3	A-DC4	A-DC5	A-DC6	A-DC7	A-DC8	A-DC9	A-DC10	A-DC11	A-DC12	A-DC13	A-DC14	A-DC15	A-DC16	A-Ph1	A-Ph2	A-Ph3	A-Ph4	A-Ph5	A-Ph6	A-Ph7	A-Ph8	A-Ph9	A-Ph10	A-Ph11	A-Ph12	A-Ph13	A-Ph14	A-Ph15	A-Ph16	B-AC1	B-AC2	B-AC3	B-AC4	B-AC5	B-AC6	B-AC7	B-AC8	B-AC9	B-AC10	B-AC11	B-AC12	B-AC13	B-AC14	B-AC15	B-AC16	B-DC1	B-DC2	B-DC3	B-DC4	B-DC5	B-DC6	B-DC7	B-DC8	B-DC9	B-DC10	B-DC11	B-DC12	B-DC13	B-DC14	B-DC15	B-DC16	B-Ph1	B-Ph2	B-Ph3	B-Ph4	B-Ph5	B-Ph6	B-Ph7	B-Ph8	B-Ph9	B-Ph10	B-Ph11	B-Ph12	B-Ph13	B-Ph14	B-Ph15	B-Ph16	aux-1	digaux	

926.154	1	1	0	256	0.12736	0.18029	0.092415	0.1162	0.031928	0.26753	0.060151	0.14182	0.17372	0.14766	0.13751	0.12694	0.20049	0.090234	0.15521	0.079144	-2.7479	-3.6521	-3.1354	-3.4479	-3.6646	-3.0208	-3.8479	-3.3583	-3.0771	-3.5812	-3.2	-3.3063	-3.8187	-2.9479	-3.8896	-3.5354	371.422	248.568	403.842	339.541	432.333	417.715	363.609	200.976	191.250	178.488	490.856	353.618	499.066	232.595	328.897	450.689	0.00083649	0.0002542	6.8617e-05	964.3	3.9836e-06	3.028e-06	1079.8	197.65	7.4829e-06	2.5781e-06	259.65	74.009	56.549	16.39	3.1079e-06	23.498	0.00037734	0.00021723	7.298e-05	943.53	3.3885e-06	4.1671e-06	1059.6	194.7	3.3916e-06	2.7324e-06	256.97	73.131	55.704	16.442	2.7221e-06	23.789	421.816	279.792	275.004	182.933	315.338	330.893	182.932	190.366	300.146	356.602	189.875	197.265	196.952	204.847	312.597	204.007	-8191	255	
926.250	1	1	0	0	0.096556	0.099658	0.037136	0.1066	0.11336	0.089669	0.31848	0.23974	0.17083	0.28642	0.31436	0.053619	0.23979	0.095439	0.010488	0.077151	-2.6229	-3.7708	-3.0417	-3.1708	-3.6188	-3.0104	-3.7708	-3.4708	-2.8187	-3.725	-3.2771	-3.3167	-3.7687	-2.8896	-3.4437	-3.5687	344.309	311.657	511.463	419.482	305.018	247.486	464.872	186.320	430.578	358.706	525.460	185.944	426.349	402.798	355.001	456.637	0.00087681	0.00023589	7.3332e-05	964.2	2.4886e-06	2.6987e-06	1078.6	196.61	6.503e-06	2.5848e-06	259.46	73.329	55.428	16.417	3.2816e-06	23.395	0.00039089	0.00024056	6.7302e-05	942.09	3.0932e-06	3.4845e-06	1059.5	193.99	3.4881e-06	2.7691e-06	256.69	73.055	55.143	16.459	2.9224e-06	23.723	420.610	280.945	281.518	182.815	308.414	313.611	182.884	190.485	304.727	309.834	190.378	196.971	196.850	204.960	307.111	204.628	-8191	255	
926.371	1	1	0	0	0.31679	0.13751	0.089089	0.18343	0.25221	0.27738	0.16081	0.036943	0.13366	0.1838	0.29116	0.16671	0.1131	0.12559	0.1181	0.058801	-2.7167	-3.7562	-2.9729	-3.3688	-3.625	-3.0917	-3.6958	-3.7375	-2.65	-3.6729	-3.3167	-3.1479	-3.6104	-3.0729	-3.4479	-3.6667	477.786	321.016	430.009	309.048	227.100	475.462	395.081	366.581	518.410	362.419	488.286	509.461	405.565	454.779	373.362	488.146	0.00082152	0.0002933	8.5692e-05	961.6	3.7724e-06	3.437e-06	1077.4	199	5.3002e-06	3.298e-06	260.48	73.676	56.237	16.487	3.6823e-06	23.498	0.00037377	0.00025616	7.5556e-05	942.84	2.95e-06	3.6747e-06	1058.4	194.83	3.449e-06	2.7232e-06	256.96	72.904	55.38	16.462	2.7235e-06	23.803	421.912	248.045	259.976	182.922	311.600	325.716	183.034	190.799	305.741	326.809	190.285	197.115	197.264	204.810	323.461	204.254	-8191	255	
926.465	1	1	0	0	0.16841	0.14302	0.087495	0.059402	0.18778	0.10752	0.14803	0.40603	0.092105	0.29987	0.17322	0.082075	0.079862	0.15561	0.20018	0.088315	-2.5729	-3.7417	-3.4021	-3.1562	-3.6104	-3.3083	-3.4313	-3.9146	-3.1292	-3.5938	-3.6688	-2.8729	-3.7146	-3.1792	-3.2188	-3.7042	255.520	347.933	414.026	181.640	364.065	308.275	188.416	453.122	244.206	288.632	460.798	193.391	273.018	435.103	290.629	398.645	0.00088975	0.00021605	5.7384e-05	958.96	2.857e-06	2.683e-06	1078.4	197.33	8.0472e-06	3.2205e-06	258.45	73.341	55.735	16.364	2.246e-06	23.537	0.00037011	0.00024508	6.4551e-05	941.73	2.4952e-06	2.7947e-06	1056.8	194.38	3.178e-06	2.7452e-06	256.12	72.924	55.312	16.45	2.8162e-06	23.668	420.079	259.496	280.544	183.278	298.178	313.453	183.470	190.984	307.280	319.871	190.728	197.180	197.184	205.061	294.119	204.301	-8191	255	
926.561	1	1	0	0	0.31919	0.098315	0.19423	0.068592	0.037971	0.35687	0.086144	0.16001	0.11088	0.16892	0.30844	0.13751	0.15151	0.18156	0.071218	0.32663	-2.5333	-3.6604	-3.5312	-3.0812	-3.7438	-3.2396	-3.5042	-3.8812	-3.0729	-3.7167	-3.6167	-3.1312	-3.7729	-3.2708	-3.3146	-3.9583	367.247	191.070	187.022	438.439	287.716	446.102	489.631	426.958	175.482	457.084	484.338	218.863	186.999	241.822	435.312	455.192	0.0008751	0.00024782	7.794e-05	959.01	3.0276e-06	2.5518e-06	1070.6	195.83	6.4063e-06	3.8025e-06	259.83	73.52	56.25	16.294	3.2972e-06	23.373	0.00037524	0.00022088	6.4376e-05	935.45	2.7639e-06	2.7538e-06	1054.1	194.05	3.4295e-06	3.0058e-06	256.46	72.824	55.27	16.334	2.9735e-06	23.645	419.681	271.966	263.668	182.934	326.311	328.727	183.335	190.842	306.646	313.151	190.666	197.179	197.277	204.739	305.407	204.495	-8191	255	
926.659	1	1	0	0	0.076753	0.16548	0.05101	0.043177	0.191	0.16134	0.25468	0.24857	0.18089	0.074637	0.15945	0.13307	0.12174	0.12159	0.19799	0.1779	-2.8875	-3.45	-3.7729	-2.9167	-3.6854	-3.4688	-3.2021	-3.9625	-3.2812	-3.5479	-3.7333	-3.0333	-3.7771	-3.6146	-3.1688	-4.0229	430.935	364.314	483.005	268.487	256.952	212.895	528.611	490.860	456.345	372.821	179.998	210.676	438.417	453.832	253.764	462.483	0.00083153	0.0002024	7.4156e-05	954.24	1.8364e-06	3.3269e-06	1074.6	197.27	6.0068e-06	3.0549e-06	260.91	73.355	55.801	16.217	4.5211e-06	23.497	0.00036967	0.00025266	7.1932e-05	939.09	2.6739e-06	3.1591e-06	1056.6	194.64	3.2538e-06	2.9746e-06	257	72.813	55.261	16.361	3.2236e-06	23.772	421.462	266.456	263.261	183.431	328.494	323.705	183.406	190.799	292.167	322.992	190.677	196.862	197.347	204.938	317.528	204.705	-8191	255	
926.754	1	1	0	0	0.134	0.23472	0.1812	0.2454	0.23803	0.15519	0.26065	0.39195	0.23111	0.15591	0.02316	0.083514	0.099181	0.19501	0.2907	0.090882	-2.7958	-3.4021	-3.6583	-3.0729	-3.8021	-3.5125	-3.1333	-4.0375	-3.1271	-3.3854	-3.9667	-3.0312	-3.5812	-3.5292	-2.9437	-4.0229	237.632	401.393	351.295	275.130	220.981	407.251	477.623	471.484	361.961	439.189	518.893	224.763	455.136	329.455	254.252	347.648	0.00085134	0.00027904	8.6296e-05	957.35	3.2045e-06	3.109e-06	1074.7	197.02	5.6617e-06	2.5722e-06	258.42	73.421	55.913	16.45	3.9718e-06	23.325	0.00038155	0.00025893	6.7389e-05	941.97	2.9485e-06	2.688e-06	1054.2	194.12	3.1217e-06	2.837e-06	256.1	72.817	55.373	16.423	3.1792e-06	23.754	421.321	293.673	256.991	183.669	311.798	336.503	183.150	190.856	305.656	325.433	190.261	197.546	197.340	205.640	321.557	204.975	-8191	255	
926.850	1	1	0	0	0.10577	0.046193	0.085109	0.079588	0.048754	0.1146	0.25866	0.10829	0.38699	0.13287	0.13838	0.21602	0.1153	0.25129	0.18777	0.1013	-2.925	-3.2562	-3.8417	-3.1667	-3.6083	-3.6833	-3.2979	-3.8729	-3.3104	-3.0687	-3.8875	-3.2021	-3.5979	-3.6833	-3.1104	-3.9813	226.937	507.420	185.392	513.349	193.857	388.564	417.596	514.762	396.558	372.327	194.552	501.543	187.082	187.293	252.736	479.197	0.00084528	0.00025456	6.2211e-05	959.85	3.6909e-06	2.8635e-06	1076	197.27	5.8777e-06	3.7338e-06	260.45	73.633	55.923	16.46	2.5754e-06	23.533	0.00037891	0.0002792	6.5555e-05	940.61	3.0666e-06	2.7093e-06	1054.6	193.98	3.0677e-06	3.3618e-06	256.74	72.746	55.209	16.459	2.6859e-06	23.708	421.298	278.624	272.726	183.379	326.939	318.199	183.208	191.299	311.759	323.957	190.696	197.044	197.492	205.396	301.134	204.382	-8191	255	
926.946	1	1	0	0	0.1854	0.30755	0.11177	0.1725	0.19825	0.05872	0.2594	0.035871	0.32343	0.24395	0.090353	0.22962	0.16218	0.10222	0.10537	0.20195	-3.1208	-3.0458	-3.7792	-3.0729	-3.4729	-3.7458	-3.2958	-3.8083	-3.5271	-3.2042	-3.9167	-3.3625	-3.5854	-3.775	-3.2104	-3.8396	185.159	269.777	524.502	176.452	500.688	254.940	342.410	207.382	241.945	354.446	490.865	385.590	420.826	310.491	350.784	176.642	0.00084416	0.00021878	9.2859e-05	956.87	3.5355e-06	2.3554e-06	1071.1	198.47	7.182e-06	3.5511e-06	258.18	73.085	55.92	16.432	3.402e-06	23.452	0.00035945	0.00029275	6.1886e-05	936.61	3.3634e-06	2.4071e-06	1053.8	194.73	3.3434e-06	3.4114e-06	255.72	72.757	55.071	16.398	3.2733e-06	23.656	418.942	274.649	273.355	183.453	318.187	332.123	183.040	191.233	291.886	313.555	190.382	196.965	197.466	204.898	322.109	204.360	-8191	255	
927.067	1	1	0	0	0.11902	0.061965	0.095413	0.31385	0.08049	0.23868	0.09517	0.18711	0.20459	0.020314	0.30947	0.14184	0.4534	0.25874	0.089763	0.043476	-3.1417	-3.0104	-3.9146	-3.3896	-3.3667	-3.7625	-3.1208	-3.7792	-3.6312	-3.05	-3.8833	-3.2854	-3.25	-3.7604	-3.1583	-3.7646	257.387	359.217	308.626	232.749	237.795	324.022	436.515	384.172	438.462	198.980	500.365	434.815	320.263	449.112	376.844	429.623	0.00083489	0.00025226	7.6999e-05	950.5	2.0713e-06	2.7938e-06	1077.2	197.12	7.6479e-06	2.8887e-06	259.63	73.56	55.905	16.246	4.2085e-06	23.718	0.0003661	0.00031681	5.7082e-05	936.56	3.2231e-06	2.384e-06	1054.1	194.62	3.1917e-06	2.9966e-06	256.71	72.784	55.235	16.342	3.3459e-06	23.739	421.813	270.435	265.002	182.814	307.671	324.582	183.013	191.212	300.024	322.324	190.457	196.862	197.810	205.364	300.982	204.688	-8191	255	
927.163	1	1	0	0	0.26408	0.21328	0.059565	0.087358	0.10165	0.074219	0.22608	0.35084	0.17831	0.091791	0.014281	0.12843	0.10635	0.030449	0.16388	0.14094	-3.3042	-3.2208	-3.9771	-3.4896	-3.2792	-3.8479	-3.3104	-3.5292	-3.6208	-3.0333	-3.8438	-3.3792	-3.0833	-3.9708	-3.2792	-3.4083	364.170	406.414	255.881	411.265	531.346	462.097	468.940	499.563	495.124	323.288	336.747	532.563	389.955	375.002	237.680	215.611	0.00074521	0.00027173	9.6644e-05	961.77	2.8268e-06	2.6242e-06	1073.9	196.68	6.1072e-06	2.5418e-06	259.73	73.162	56.274	16.294	3.4198e-06	23.317	0.00034277	0.00029173	6.4813e-05	941.03	3.2556e-06	2.5156e-06	1056.6	194.81	2.977e-06	3.0443e-06	256.26	72.739	55.277	16.385	2.9413e-06	23.665	421.033	270.488	266.622	183.123	296.289	316.919	182.804	190.818	295.667	325.553	190.682	197.158	197.395	204.982	301.141	204.424	-8191	255	
927.259	1	1	0	0	0.33164	0.27537	0.22425	0.071397	0.15846	0.17878	0.09349	0.23378	0.12034	0.11114	0.18511	0.097684	0.2652	0.16341	0.10682	0.16185	-3.4125	-3.0979	-3.7708	-3.4938	-3.1188	-3.9146	-3.3896	-3.5333	-3.9167	-3.1312	-3.6958	-3.5875	-2.8688	-4	-3.2125	-3.3396	188.522	236.984	421.164	352.174	314.333	288.879	220.261	523.721	253.773	476.294	370.837	465.077	201.504	233.571	315.532	528.367	0.0008409	0.00020723	8.1462e-05	957.11	3.0089e-06	2.6535e-06	1068.3	197.23	6.0504e-06	3.4016e-06	258.4	73.02	55.674	16.16	3.5641e-06	23.34	0.00035377	0.00030529	6.4376e-05	939.02	3.3146e-06	2.7378e-06	1052	194.43	2.8908e-06	3.4279e-06	256.34	72.47	55.066	16.265	2.9923e-06	23.693	422.714	255.944	267.874	183.129	306.239	323.232	183.142	190.981	309.502	309.033	190.732	197.382	197.550	205.296	308.639	204.203	-8191	255	
927.355	1	1	0	0	0.15684	0.22815	0.1007	0.1348	0.13824	0.057689	0.22816	0.18527	0.051005	0.3112	0.091353	0.056026	0.17437	0.10521	0.17274	0.091062	-3.2896	-3.1896	-3.5875	-3.6188	-3.2313	-4.0292	-3.5542	-3.3438	-3.9021	-3.2521	-3.7188	-3.7375	-3.1167	-3.7375	-3.2188	-3.2229	473.882	478.980	409.172	481.621	418.928	450.170	473.843	437.791	374.283	493.967	518.656	272.253	459.303	213.563	242.450	204.285	0.00082055	0.00024555	8.0675e-05	950.02	3.0001e-06	2.421e-06	1063.9	195.94	7.0079e-06	3.3525e-06	255.18	73.008	55.637	16.189	2.0697e-06	23.523	0.00035729	0.00030223	6.3721e-05	935.94	3.3132e-06	2.1973e-06	1052	193.98	2.8897e-06	3.1655e-06	255	72.597	55.013	16.339	2.6536e-06	23.736	422.502	263.361	257.342	182.788	318.408	330.739	183.206	190.857	305.292	336.325	190.431	197.410	197.325	205.258	305.150	204.583	-8191	255	
927.451	1	1	0	0	0.12165	0.12662	0.21641	0.13445	0.27532	0.11133	0.33648	0.21398	0.11013	0.10632	0.29491	0.21711	0.055399	0.21412	0.055649	0.049972	-3.4854	-3.1771	-3.3625	-3.8604	-2.9542	-3.7521	-3.6312	-3.125	-3.825	-3.2458	-3.5917	-3.9021	-3.1063	-3.6813	-3.6292	-3.05	237.661	357.529	473.671	472.521	442.381	294.629	471.915	377.081	222.610	395.968	521.176	473.363	522.890	420.678	310.776	473.427	0.00090379	0.00016966	8.4822e-05	949.79	2.534e-06	2.8875e-06	1072.2	196.05	7.6593e-06	2.7169e-06	257.03	72.731	55.538	16.232	4.0003e-06	23.41	0.00037172	0.00027438	6.9573e-05	933.93	3.4948e-06	2.6436e-06	1051.3	194.02	2.8139e-06	2.7893e-06	255.12	72.444	54.961	16.33	3.0421e-06	23.717	421.375	240.456	262.099	183.506	281.677	337.998	182.735	190.461	304.234	323.388	190.611	197.115	197.235	204.779	309.216	204.248	-8191	255	
927.547	1	1	0	0	0.092312	0.091383	0.08704	0.15762	0.19222	0.11643	0.090751	0.41336	0.14981	0.29893	0.20006	0.26317	0.034175	0.23678	0.11118	0.27197	-3.5438	-3.175	-3.2854	-3.8104	-3.0292	-3.675	-3.7062	-3.2375	-3.8312	-3.425	-3.3812	-3.9188	-3.2729	-3.6354	-3.5583	-3.025	388.813	391.141	444.042	426.048	366.423	341.334	485.442	455.033	241.171	189.775	419.714	474.636	451.562	215.362	222.038	444.448	0.00084813	0.0002897	8.9354e-05	955.04	2.8972e-06	2.693e-06	1067.9	196.68	7.0384e-06	2.5034e-06	257.79	72.352	55.448	16.171	4.3006e-06	23.362	0.000348	0.00028299	7.5469e-05	934.55	3.2792e-06	2.7591e-06	1052.3	194.37	2.8426e-06	3.4756e-06	255.38	72.527	54.913	16.332	2.6953e-06	23.661	419.848	262.608	269.943	183.035	302.771	328.954	182.828	190.600	310.333	322.082	190.569	196.821	197.251	205.217	319.946	204.548	-8191	255	
927.666	1	1	0	0	0.045643	0.11596	0.18765	0.096109	0.14304	0.055168	0.27318	0.25547	0.074912	0.15105	0.20333	0.2847	0.14206	0.079197	0.13524	0.04548	-3.4729	-3.3	-3.1479	-3.8875	-3.0604	-3.5042	-3.825	-3.1729	-3.8833	-3.25	-3.2125	-3.7979	-3.3104	-3.5292	-3.7125	-2.9229	402.718	335.744	255.683	387.982	267.985	519.654	443.699	191.840	522.445	377.679	491.968	174.367	314.676	504.467	217.187	210.386	0.00086594	0.00025819	0.00010829	947	3.5554e-06	3.4292e-06	1065.2	196.97	6.446e-06	2.1991e-06	256.96	72.73	55.281	16.207	3.5941e-06	23.252	0.00035407	0.00023254	8.3068e-05	930.47	3.384e-06	2.7147e-06	1050.3	194.17	2.7369e-06	2.9122e-06	255.28	72.513	54.957	16.362	2.8404e-06	23.604	420.868	267.915	261.708	183.121	314.996	331.546	182.854	190.792	294.655	343.150	190.324	196.856	197.551	205.054	306.704	204.063	-8191	255	
927.762	1	1	0	0	0.36309	0.20396	0.27393	0.18987	0.10905	0.1873	0.19126	0.069793	0.17534	0.16159	0.10943	0.052139	0.17037	0.030108	0.31172	0.11371	-3.2167	-3.4604	-3.1896	-3.8312	-3.0354	-3.5958	-3.9042	-3.0458	-3.5958	-3.5667	-3.0958	-3.7479	-3.1937	-3.5167	-3.9958	-3.1167	303.769	470.792	511.536	518.933	240.068	248.557	521.437	517.114	231.786	511.085	332.321	249.329	230.639	274.704	366.767	449.383	0.00083371	0.00021146	6.6353e-05	948.01	3.2262e-06	2.5124e-06	1064.6	196.06	7.6192e-06	2.5356e-06	256.06	72.674	55.009	16.229	3.7935e-06	23.28	0.00034776	0.00025966	7.5076e-05	933.33	2.7979e-06	2.5049e-06	1048.5	193.94	3.2251e-06	3.1453e-06	254.75	72.473	54.802	16.404	2.2611e-06	23.591	418.593	287.063	268.083	183.040	321.733	310.077	182.821	190.564	310.834	323.368	190.434	196.796	196.545	204.874	318.177	204.275	-8191	255	
927.859	1	1	0	0	0.235	0.13657	0.11308	0.15231	0.17533	0.024486	0.072621	0.24754	0.30242	0.13674	0.14457	0.32363	0.098055	0.075856	0.20786	0.37782	-3.35	-3.6083	-2.9125	-3.8563	-3.1792	-3.2792	-4.1188	-3.2333	-3.5521	-3.65	-3.3271	-3.8417	-3.3833	-3.3333	-3.8521	-3.2646	197.834	391.110	366.330	263.705	405.458	521.952	476.593	429.177	328.357	403.598	197.680	490.816	418.314	261.221	368.865	446.263	0.00085088	0.00029847	7.2378e-05	945.06	2.1123e-06	2.7164e-06	1060.8	195.58	6.4826e-06	2.8891e-06	256.22	72.773	55.097	16.138	3.3102e-06	23.471	0.00036238	0.00024785	8.5077e-05	933.76	2.9278e-06	3.3014e-06	1046.9	193.74	3.1653e-06	2.7856e-06	254.53	72.48	54.861	16.316	2.1159e-06	23.645	420.416	263.608	265.929	183.078	314.987	331.204	182.769	190.603	303.368	335.766	190.233	196.821	197.395	204.803	318.966	204.056	-8191	255	
927.955	1	1	0	0	0.087278	0.17833	0.12658	0.14419	0.12497	0.047877	0.10763	0.059016	0.085251	0.084631	0.16036	0.069289	0.10719	0.16896	0.098154	0.15073	-3.2042	-3.675	-3.0521	-4.0687	-3.3667	-3.1958	-4.075	-3.4083	-3.6188	-3.8312	-3.1125	-3.7167	-3.4271	-3.2271	-3.8958	-3.1417	285.234	243.964	374.548	528.874	441.322	463.457	463.094	199.215	287.589	287.931	417.762	176.342	531.956	303.997	526.033	473.799	0.00080582	0.00027014	6.2449e-05	939.99	3.2083e-06	2.7148e-06	1061.4	196.12	6.7408e-06	2.0434e-06	255.22	72.381	54.743	16.007	2.4941e-06	22.966	0.00036522	0.00023473	7.9225e-05	930.07	2.8186e-06	2.896e-06	1048.2	193.83	3.1619e-06	2.1287e-06	253.61	72.341	54.764	16.27	2.089e-06	23.521	422.071	281.514	268.242	183.149	313.653	324.644	182.751	190.565	298.526	326.725	190.887	196.977	196.984	204.785	331.460	203.774	-8191	255	
928.051	1	1	0	0	0.28296	0.1418	0.14972	0.1263	0.14939	0.092846	0.35944	0.22511	0.23705	0.11193	0.034705	0.15168	0.021058	0.18624	0.29383	0.19299	-3.0125	-3.5687	-2.9729	-3.8417	-3.6042	-3.0583	-3.9896	-3.3458	-3.55	-3.8	-3.2167	-3.7271	-3.7458	-3.2667	-4.0312	-3.3833	212.903	405.895	219.864	194.365	494.511	189.868	506.929	499.958	334.138	374.805	405.728	463.542	516.308	174.375	227.433	499.935	0.00084435	0.0002232	8.7232e-05	935.4	3.2108e-06	2.9011e-06	1050.9	193.11	6.8716e-06	2.1808e-06	252.77	71.672	54.432	16.025	3.8563e-06	22.977	0.00036717	0.00021578	8.5471e-05	928.66	2.8097e-06	2.8551e-06	1044.6	193.16	3.271e-06	2.3489e-06	253.54	72.065	54.6	16.229	2.4358e-06	23.557	422.397	275.071	275.373	182.814	338.302	318.487	182.745	190.514	311.084	337.471	190.098	196.630	196.488	204.597	314.712	203.415	-8191	255	
928.147	1	1	0	0	0.12396	0.027923	0.165	0.37126	0.093059	0.27318	0.30616	0.12055	0.12749	0.14633	0.21862	0.26752	0.055381	0.066613	0.14117	0.30278	-2.8542	-3.8312	-2.9292	-3.5833	-3.6063	-3.1917	-3.9958	-3.3708	-3.1646	-3.7938	-3.2104	-3.6542	-3.6833	-3.1854	-3.8312	-3.6125	286.191	444.433	469.861	478.380	483.462	302.117	469.001	483.298	281.276	531.566	486.707	181.828	524.837	488.332	329.655	527.977	0.0009202	0.00027312	7.7621e-05	943.44	3.2599e-06	2.8614e-06	1050	193.95	6.0086e-06	3.4626e-06	253.29	71.968	55.326	16.127	2.9621e-06	23.035	0.00038888	0.00019668	7.4989e-05	929.84	2.696e-06	2.8889e-06	1044.7	192.96	3.3181e-06	2.5287e-06	254	72.158	54.905	16.306	2.4587e-06	23.488	419.441	266.785	267.710	182.600	308.717	322.799	182.518	190.217	318.576	316.080	190.283	196.760	196.682	204.853	317.969	203.877	-8191	255	
928.243	1	1	0	0	0.18227	0.16631	0.16487	0.15065	0.24687	0.19741	0.29013	0.28959	0.056425	0.050942	0.1958	0.24345	0.020506	0.18308	0.15267	0.21383	-2.9104	-3.9271	-3.1708	-3.5021	-3.7792	-3.075	-4.0938	-3.5583	-3.2458	-3.9479	-3.3542	-3.4542	-3.8625	-3.1437	-3.6917	-3.7313	333.110	518.667	382.224	446.943	518.320	429.790	510.536	468.446	342.145	432.415	179.815	191.179	195.858	507.865	257.319	389.962	0.00089094	0.00030789	5.728e-05	934.98	2.7831e-06	2.9946e-06	1052.4	193.4	5.6261e-06	2.8288e-06	250.98	71.772	54.436	16.04	3.5542e-06	22.999	0.00037544	0.00022656	7.1407e-05	929	2.8171e-06	3.3422e-06	1044.8	192.95	3.5581e-06	2.3672e-06	252.95	72.092	54.591	16.288	2.7396e-06	23.522	419.371	260.466	282.041	182.668	323.245	326.821	182.789	190.145	309.616	342.395	189.568	196.556	196.988	204.965	304.103	204.025	-8191	255	
928.339	1	1	0	0	0.13308	0.077732	0.095825	0.11438	0.14514	0.17256	0.24353	0.26588	0.055166	0.13293	0.24429	0.039415	0.21086	0.12645	0.20764	0.13034	-2.75	-3.7938	-3.2396	-3.3667	-3.8375	-2.9667	-3.7896	-3.6229	-2.9	-3.7896	-3.5354	-3.3604	-3.8229	-3.1771	-3.6792	-3.7521	517.063	201.270	383.771	520.272	305.616	446.275	195.392	415.105	257.494	503.939	201.020	269.121	280.600	229.787	511.076	308.169	0.00076381	0.00021306	4.1626e-05	935.97	2.8816e-06	2.055e-06	1054.5	192.93	7.0077e-06	2.7022e-06	252.08	71.888	54.739	16.039	2.3805e-06	22.991	0.00035064	0.00022554	6.6865e-05	928.73	2.6886e-06	3.1076e-06	1047.4	193.11	3.4467e-06	2.369e-06	253.29	72.033	54.615	16.247	2.3861e-06	23.55	416.937	269.792	284.078	182.382	324.478	283.462	182.655	190.691	295.500	330.271	190.274	196.704	197.055	204.856	318.352	203.798	-8191	255	
928.458	1	1	0	0	0.062771	0.30351	0.13445	0.096909	0.062763	0.21485	0.38301	0.1544	0.093337	0.27932	0.24495	0.15006	0.07736	0.15438	0.086729	0.1468	-2.6583	-3.775	-3.475	-3.3125	-3.9688	-3.1875	-3.7458	-3.6958	-2.9625	-3.6854	-3.6688	-3.3667	-3.8667	-3.275	-3.3667	-3.8708	474.371	249.121	318.041	240.157	340.495	314.579	452.672	209.309	324.266	247.412	207.955	335.575	274.208	515.043	259.986	518.404	0.00081844	0.00028038	7.6927e-05	945.09	2.9926e-06	2.6011e-06	1051.6	193.42	6.2874e-06	2.0076e-06	251.86	71.782	55.294	15.955	3.9472e-06	22.978	0.00037157	0.00021286	7.2849e-05	932.74	2.3166e-06	3.1094e-06	1045.3	193.41	3.3755e-06	2.2259e-06	252.73	71.893	54.73	16.219	3.1389e-06	23.518	421.009	262.709	283.844	183.325	311.386	342.565	182.930	190.359	298.247	345.423	190.277	197.083	196.828	204.774	305.729	203.949	-8191	255	
928.554	1	1	0	0	0.10262	0.071799	0.071565	0.075831	0.15451	0.099256	0.31157	0.2213	0.23477	0.16073	0.28585	0.28999	0.045861	0.16621	0.1825	0.24918	-2.7292	-3.8583	-3.5125	-3.1479	-3.7979	-3.2229	-3.6104	-3.9375	-2.9708	-3.5625	-3.6667	-3.0271	-3.8792	-3.3688	-3.2042	-3.8021	519.132	321.710	327.842	382.751	401.971	222.113	523.866	500.493	275.036	503.869	517.116	197.060	430.125	412.575	181.823	531.310	0.00086423	0.00028407	7.4538e-05	942.84	3.2851e-06	2.6847e-06	1054.8	195.69	5.8634e-06	2.7277e-06	253.8	72.594	55.363	16.235	3.9183e-06	23.357	0.00037206	0.00026301	7.1582e-05	933.36	2.3107e-06	2.7645e-06	1046.2	193.51	3.0505e-06	2.7617e-06	253.78	72.26	54.802	16.323	3.0555e-06	23.657	419.549	267.204	273.013	183.072	309.191	347.653	183.026	190.649	297.786	315.879	190.458	197.151	197.033	204.878	313.575	204.404	-8191	255	
928.628	1	1	0	0	0.16185	0.21249	0.068725	0.34136	0.11918	0.035033	0.34358	0.13994	0.12926	0.21906	0.12527	0.1651	0.03525	0.14508	0.1329	0.048468	-2.7271	-3.7021	-3.5417	-3.3104	-3.8417	-3.4646	-3.5042	-4.0333	-3.0167	-3.8187	-3.8063	-3.1479	-3.7375	-3.3146	-3.2604	-3.9437	186.215	256.017	216.812	457.987	179.703	218.012	491.242	313.729	426.319	186.419	221.862	493.819	524.435	531.396	507.525	335.588	0.0008287	0.0002846	9.2607e-05	945.39	3.3759e-06	3.0898e-06	1063.2	194.12	8.5895e-06	2.9656e-06	255.04	72.621	55.323	16.07	4.4634e-06	23.26	0.00037441	0.00019653	7.1145e-05	930.92	2.6488e-06	2.7431e-06	1047	193.35	3.7224e-06	2.5654e-06	253.89	72.219	54.913	16.251	2.8687e-06	23.568	418.171	277.886	280.406	183.243	310.666	324.667	183.148	190.963	298.582	318.765	190.873	196.934	197.198	205.447	320.040	204.522	-8191	255	
928.747	1	1	0	0	0.28169	0.074013	0.16548	0.1905	0.17939	0.24072	0.22793	0.18918	0.10261	0.25047	0.1204	0.11795	0.16226	0.33128	0.019768	0.16051	-2.6188	-3.2917	-3.7333	-3.1	-3.8729	-3.5333	-3.3271	-4.0188	-3.2125	-3.3688	-3.9229	-3.2917	-3.7271	-3.4625	-3.2938	-4.1104	304.593	382.701	511.155	245.690	235.767	413.237	463.623	497.510	267.348	480.348	206.782	381.614	486.370	502.642	214.436	400.547	0.00088278	0.00031714	9.6652e-05	940.9	2.596e-06	2.4978e-06	1060.4	195.12	5.6889e-06	2.785e-06	255.02	72.433	55.35	16.108	2.9799e-06	23.462	0.00038008	0.00026812	5.5597e-05	930.61	2.7374e-06	2.7325e-06	1045.9	193.59	2.8277e-06	2.8939e-06	253.76	72.061	54.777	16.257	3.0044e-06	23.584	419.694	256.154	287.821	183.411	308.219	334.909	183.552	191.247	283.863	307.018	190.797	197.149	197.699	205.299	321.883	204.448	-8191	255	
928.843	1	1	0	0	0.060161	0.18217	0.090121	0.04892	0.24425	0.021542	0.21568	0.064271	0.21589	0.15496	0.08689	0.2428	0.096801	0.090045	0.19334	0.092138	-2.8438	-3.4188	-3.8292	-3.2521	-3.8937	-3.7646	-3.3208	-3.9562	-3.2938	-3.2938	-3.8375	-2.9688	-3.6188	-3.6917	-3.0021	-3.8875	256.861	494.936	385.382	532.290	228.013	374.820	450.112	274.543	313.332	192.398	526.557	499.664	228.136	401.988	505.034	429.185	0.00090519	0.00028409	7.9897e-05	929.39	3.0654e-06	2.642e-06	1048.8	193.39	7.3978e-06	1.5988e-06	252.32	71.241	54.861	15.936	4.3115e-06	23.076	0.00036683	0.00026724	6.2935e-05	925.69	2.6517e-06	2.3822e-06	1044.6	193.12	3.2021e-06	2.659e-06	253.69	71.914	54.812	16.205	2.9802e-06	23.513	422.524	270.646	266.798	183.111	327.087	344.813	183.047	190.540	309.386	314.226	190.592	197.125	197.739	205.040	329.641	204.120	-8191	255	
928.939	1	1	0	0	0.18849	0.061759	0.08661	0.17312	0.21491	0.039884	0.18853	0.12123	0.17352	0.13023	0.20467	0.12275	0.051426	0.18909	0.12308	0.0033252	-3.0542	-3.1729	-3.9667	-3.2521	-3.4979	-3.6063	-3.2375	-3.9437	-3.3229	-3.2542	-3.9208	-3.175	-3.5375	-3.6146	-2.9125	-3.7729	383.916	233.796	504.557	509.722	203.532	189.823	457.958	241.654	424.027	315.505	511.720	308.061	200.584	213.322	180.027	258.621	0.00085674	0.00031945	7.2349e-05	942.78	3.9508e-06	2.0326e-06	1057.1	192.85	5.7611e-06	3.1394e-06	253.31	71.839	54.739	16.001	3.6752e-06	22.983	0.00035847	0.0002824	5.9484e-05	930.79	3.0932e-06	2.3307e-06	1046.2	193.14	3.24e-06	3.0792e-06	253.49	72.129	54.746	16.29	3.151e-06	23.604	420.709	261.553	283.064	183.249	331.575	306.362	183.156	190.922	305.579	316.914	190.375	197.032	197.623	204.973	320.593	203.984	-8191	255	
929.060	1	1	0	0	0.1563	0.20654	0.14049	0.24003	0.11978	0.20669	0.26589	0.13575	0.2423	0.11893	0.14723	0.27192	0.19312	0.10572	0.059822	0.36884	-3.075	-3.1021	-3.8063	-3.2417	-3.5	-3.8	-3.2	-3.7292	-3.5875	-3.0229	-3.8458	-3.2687	-3.3229	-3.8583	-2.8896	-3.8479	257.420	211.031	512.832	205.960	491.653	523.911	492.507	496.009	443.872	216.595	456.507	429.965	207.801	353.149	316.812	499.562	0.00080436	0.0003336	9.4432e-05	934.84	2.9961e-06	2.6659e-06	1053.3	193.26	6.7353e-06	2.1169e-06	251.88	71.935	54.789	15.859	3.316e-06	22.967	0.0003549	0.00026782	5.0837e-05	928.25	3.1183e-06	2.0658e-06	1046.3	192.74	3.0298e-06	2.9434e-06	253.12	72.112	54.722	16.194	2.8956e-06	23.531	418.879	253.213	260.845	183.047	312.075	308.284	183.304	190.743	297.709	322.106	190.154	196.689	197.405	204.414	322.342	204.408	-8191	255	
929.156	1	1	0	0	0.20672	0.1391	0.16992	0.12274	0.14077	0.14233	0.12124	0.16922	0.10272	0.048581	0.081987	0.059478	0.13845	0.23375	0.31568	0.092735	-3.1792	-2.9958	-3.8167	-3.4062	-3.4729	-3.9146	-3.2167	-3.775	-3.6167	-3.1042	-3.875	-3.3812	-3.1229	-3.8417	-3.125	-3.6271	447.326	194.525	267.797	242.104	219.568	371.875	460.843	487.858	278.761	321.689	287.783	514.329	499.646	426.209	531.101	511.634	0.00087769	0.0002591	5.6697e-05	936.8	2.3011e-06	2.7709e-06	1041.9	193.62	5.5429e-06	2.3586e-06	255.71	72.556	55.442	16.186	3.5763e-06	23.261	0.0003636	0.00027818	5.4724e-05	927.43	3.1404e-06	2.3271e-06	1041.3	192.7	2.7209e-06	3.0003e-06	254.5	72.232	54.757	16.27	3.0609e-06	23.61	422.708	273.316	264.002	182.802	315.614	332.204	183.032	190.676	308.920	333.036	190.504	197.170	197.336	205.247	306.913	204.694	-8191	255	
929.227	1	1	0	0	0.092017	0.16221	0.22175	0.16417	0.094268	0.12901	0.11487	0.18358	0.08205	0.11942	0.36549	0.12597	0.25494	0.091924	0.073898	0.17367	-3.3542	-3.225	-3.7167	-3.5	-3.2021	-4.0521	-3.3812	-3.5833	-3.8312	-2.9479	-3.8354	-3.6542	-3.2917	-4.0208	-3.2104	-3.5583	214.234	318.061	427.481	199.738	298.088	477.492	464.891	517.731	269.880	435.551	456.342	533.035	339.781	415.746	186.055	360.476	0.00086122	0.00031159	8.2269e-05	939.21	2.5855e-06	2.0645e-06	1057.3	195.1	6.028e-06	2.2072e-06	255.61	72.217	55.585	16.175	3.486e-06	23.362	0.00036742	0.00029115	5.8087e-05	927.92	2.8584e-06	1.9253e-06	1043	193.46	2.7599e-06	2.6535e-06	253.59	72.09	54.846	16.279	2.7934e-06	23.607	421.209	271.145	283.589	183.136	315.424	310.203	183.404	191.240	312.645	334.394	190.719	197.404	197.390	205.045	317.333	205.010	-8191	255	
929.348	1	1	0	0	0.20533	0.17892	0.15557	0.14215	0.24037	0.032013	0.24264	0.09039	0.066184	0.18827	0.20473	0.1282	0.20603	0.049731	0.13963	0.10615	-3.4146	-2.9979	-3.8896	-3.5958	-3.1667	-3.9125	-3.4458	-3.4083	-3.7583	-3.1271	-3.8729	-3.6583	-2.9375	-3.9083	-3.4771	-3.4354	217.593	325.899	441.937	502.152	279.101	360.773	339.977	456.189	198.584	188.540	284.097	495.473	519.632	371.321	181.714	243.994	0.00086452	0.00025674	7.1366e-05	940.16	2.9625e-06	2.0957e-06	1052.9	195.08	5.7404e-06	3.7036e-06	255.2	72.274	55.57	16.238	3.3064e-06	23.324	0.00036082	0.0002945	5.6646e-05	927.26	3.1301e-06	1.9965e-06	1042.3	193.68	2.7059e-06	3.3435e-06	253.75	72.133	54.863	16.315	2.7598e-06	23.629	425.599	271.141	261.879	182.999	313.066	341.011	183.317	191.014	293.389	326.637	190.676	196.917	196.834	205.242	320.728	204.490	-8191	255	
929.444	1	1	0	0	0.10271	0.2964	0.19043	0.062343	0.089199	0.34217	0.22191	0.16637	0.12971	0.28287	0.12076	0.34391	0.14089	0.032417	0.21505	0.075211	-3.3646	-3.1667	-3.5563	-3.75	-3.0896	-3.7938	-3.7687	-3.1708	-3.7812	-3.1479	-3.6271	-3.8604	-3.15	-3.9688	-3.3125	-3.0729	461.353	368.678	423.897	175.846	391.356	306.120	451.973	456.301	328.887	512.380	422.779	179.090	526.650	353.550	211.145	344.240	0.00084034	0.00028803	6.3045e-05	940.28	2.9844e-06	3.0698e-06	1060.1	197.3	7.4887e-06	2.7443e-06	255.22	72.302	54.556	16.197	3.4623e-06	23.286	0.00033857	0.00025893	6.0838e-05	928.16	3.2364e-06	2.2649e-06	1045.1	194.24	2.7576e-06	2.9306e-06	253.94	72.049	54.518	16.278	2.8337e-06	23.634	421.451	251.000	269.374	183.341	307.594	328.344	183.328	191.383	294.694	315.274	190.654	197.319	197.542	205.245	292.602	204.457	-8191	255	
929.539	1	1	0	0	0.25376	0.19015	0.22728	0.24114	0.056712	0.2628	0.12285	0.14908	0.18422	0.16002	0.13608	0.059287	0.15369	0.12764	0.31326	0.11772	-3.5938	-3.2188	-3.5062	-3.9021	-2.8979	-3.7146	-3.7875	-3.1271	-3.9542	-3.2604	-3.3917	-3.9396	-3.0938	-3.8438	-3.5667	-3.2521	407.677	434.864	269.430	506.149	479.669	442.068	530.185	501.439	526.321	363.386	368.260	511.490	295.911	210.478	468.851	326.731	0.00084305	0.00024973	9.1182e-05	948.81	2.8903e-06	2.4901e-06	1061.7	195.16	6.7057e-06	2.3677e-06	255.57	72.689	55.236	16.111	2.8368e-06	23.107	0.00035602	0.00023866	6.2017e-05	933.94	3.1345e-06	2.144e-06	1045	193.19	2.8518e-06	3.1691e-06	253.63	72.154	54.898	16.235	2.1038e-06	23.501	421.001	248.425	269.198	183.480	314.221	336.911	183.417	191.178	311.467	320.432	191.250	197.137	197.836	205.183	303.783	204.429	-8191	255	
929.635	1	1	0	0	0.078643	0.13631	0.03275	0.13319	0.15149	0.025511	0.27673	0.018445	0.16015	0.23606	0.044482	0.26501	0.31257	0.10992	0.12605	0.19255	-3.55	-3.1875	-3.3896	-3.9604	-3.1167	-3.8354	-3.7875	-3.1458	-3.9167	-3.4104	-3.3937	-4.0375	-3.1333	-3.5167	-3.6854	-3.0583	293.015	529.181	498.351	500.226	523.220	413.451	509.721	299.329	334.181	200.472	203.929	341.222	468.192	199.198	314.801	313.615	0.00079057	0.00026947	9.5835e-05	949.86	2.7102e-06	2.7565e-06	1062.6	196.73	6.0749e-06	3.0083e-06	255.97	72.848	55.04	16.101	2.4938e-06	23.378	0.00035182	0.00028823	8.6431e-05	930.02	3.2526e-06	2.7182e-06	1044.4	193.71	2.8748e-06	2.7966e-06	253.86	72.244	54.765	16.284	2.3216e-06	23.571	420.264	282.498	274.091	183.558	297.190	317.274	183.547	190.936	312.467	329.148	190.800	197.042	197.361	204.960	322.350	204.862	-8191	255	
929.755	1	1	0	0	0.12431	0.15058	0.12489	0.17801	0.19665	0.062124	0.091185	0.20682	0.10226	0.23076	0.21749	0.048393	0.16566	0.073904	0.11486	0.033889	-3.5292	-3.3208	-3.2979	-3.9083	-3.1458	-3.55	-4.0979	-3.2396	-3.7729	-3.5958	-3.1458	-4.125	-3.5042	-3.6396	-3.9833	-3.2708	216.007	362.821	482.629	481.194	478.480	234.974	459.877	304.844	369.859	343.429	378.418	304.061	340.474	375.129	471.367	321.760	0.00082135	0.00024325	9.9652e-05	948.11	3.0536e-06	2.7002e-06	1057.2	195.79	6.9232e-06	3.5394e-06	253.83	72.486	55.407	16.195	3.4971e-06	23.365	0.00034815	0.00024129	6.8743e-05	928.14	3.0784e-06	2.2578e-06	1044.1	193.63	3.0413e-06	2.6994e-06	253.17	72.018	54.786	16.272	2.4546e-06	23.597	420.898	273.120	260.879	183.370	315.370	324.628	183.546	191.364	309.721	334.694	190.799	197.254	196.996	205.017	315.373	204.462	-8191	255	
929.851	1	1	0	0	0.16395	0.25403	0.11653	0.21116	0.093972	0.13602	0.084503	0.18188	0.13402	0.13331	0.29453	0.097445	0.12679	0.15074	0.19471	0.19714	-3.5417	-3.5354	-3.2333	-3.875	-3.2667	-3.4271	-4.0646	-3.1729	-3.6521	-3.5625	-3.2125	-3.8833	-3.3354	-3.3125	-3.6542	-3.2083	196.365	489.926	213.348	524.936	441.630	470.064	399.303	489.833	324.773	309.523	454.736	524.020	446.978	351.205	373.920	496.296	0.00081019	0.00035655	6.3732e-05	949.2	2.972e-06	2.2136e-06	1059.1	195.26	6.3358e-06	2.0225e-06	257.52	72.791	55.87	16.108	3.6964e-06	23.257	0.00034781	0.00023925	7.4596e-05	932.82	3.5184e-06	2.3413e-06	1042.7	193.04	2.7852e-06	2.6131e-06	254.25	72.233	54.966	16.258	2.1401e-06	23.617	423.078	267.500	268.957	183.651	313.152	288.551	183.241	191.272	301.425	339.368	190.713	197.207	197.816	205.600	316.212	204.854	-8191	255	
929.923	1	1	0	0	0.17458	0.087582	0.18394	0.27712	0.095535	0.2337	0.20574	0.048543	0.077664	0.17997	0.20721	0.1594	0.22002	0.17708	0.14198	0.26302	-3.2229	-3.775	-3.0458	-3.8125	-3.5687	-3.3187	-4.0583	-3.3479	-3.5708	-3.7979	-3.2875	-4.0125	-3.6417	-3.2875	-3.9167	-3.2292	212.662	335.760	200.502	443.744	184.203	450.658	207.762	220.145	363.164	380.885	434.977	485.330	467.893	504.809	308.921	181.151	0.00081676	0.00026702	9.68e-05	948.95	3.2414e-06	2.341e-06	1055.9	195.81	6.2593e-06	3.4625e-06	255.83	72.738	55.564	16.265	2.9954e-06	23.313	0.00036981	0.00021024	8.4946e-05	931.6	3.2083e-06	2.7876e-06	1043.8	193.53	3.0447e-06	2.1855e-06	254.31	72.266	54.804	16.356	1.921e-06	23.661	421.807	274.187	271.686	183.662	323.370	308.423	183.414	190.985	302.834	312.215	191.122	197.531	197.318	205.746	317.023	204.971	-8191	255	
930.019	1	1	0	0	0.062538	0.26928	0.22544	0.023811	0.20445	0.3303	0.29782	0.17672	0.2057	0.18251	0.27688	0.080343	0.16991	0.22898	0.069957	0.10153	-3.1937	-3.8354	-3.2021	-3.7667	-3.4792	-3.2625	-3.9938	-3.3083	-3.3187	-3.8104	-3.1333	-3.8917	-3.5583	-3.1625	-3.9958	-3.2396	370.447	466.232	487.485	323.545	430.219	459.125	175.736	424.801	315.622	410.931	443.562	329.279	530.891	324.725	229.677	241.269	0.00085978	0.00027328	7.7741e-05	940.51	3.5951e-06	1.779e-06	1059.8	195.49	5.6155e-06	2.0025e-06	256.09	72.725	55.069	16.18	3.0507e-06	23.345	0.00035666	0.00022248	7.8002e-05	927.36	2.9175e-06	2.6773e-06	1043.1	193.25	3.0355e-06	2.492e-06	253.43	72.232	54.7	16.333	2.4439e-06	23.667	424.803	259.082	247.289	184.067	311.176	325.010	183.437	191.033	290.936	303.650	190.639	197.824	197.111	205.444	312.736	204.709	-8191	255	
930.140	1	1	0	0	0.32403	0.095524	0.12434	0.17573	0.12333	0.15569	0.1073	0.11638	0.18252	0.08986	0.26855	0.0801	0.090856	0.20495	0.10626	0.068101	-2.9667	-3.8479	-3.0438	-3.7896	-3.6417	-3.2792	-4.0521	-3.3521	-3.4229	-3.9854	-3.2958	-3.5604	-3.7854	-3.2875	-3.9146	-3.35	174.642	179.052	264.915	338.919	316.210	181.448	198.658	443.206	319.691	502.475	484.942	213.924	189.041	447.266	417.927	373.693	0.00080952	0.00017356	6.6338e-05	937.89	3.3438e-06	3.2708e-06	1063	195.53	6.6409e-06	1.7118e-06	255.42	72.729	56.173	16.257	3.4393e-06	23.438	0.00035304	0.00022321	6.8525e-05	926.05	2.3269e-06	2.96e-06	1043.9	193.3	3.2354e-06	2.2993e-06	253.48	72.166	55.048	16.298	2.4439e-06	23.569	419.636	264.665	290.223	183.747	314.299	317.776	183.580	191.121	310.308	345.148	190.900	197.426	197.473	206.057	312.761	204.668	-8191	255	
930.236	1	1	0	0	0.11539	0.31138	0.16254	0.057894	0.01533	0.35946	0.16241	0.13749	0.28238	0.11567	0.28302	0.26024	0.020216	0.15652	0.15069	0.05352	-2.9729	-3.8375	-3.1437	-3.6688	-3.7	-3.0333	-3.9104	-3.4271	-3.3333	-3.9583	-3.1792	-3.4437	-3.7354	-3.1021	-3.8875	-3.6188	262.764	470.166	367.515	495.572	452.870	449.918	494.722	431.792	373.062	173.729	455.675	485.203	299.826	207.681	392.686	512.944	0.00088306	0.00029832	8.7394e-05	941.48	3.1972e-06	3.3365e-06	1058.5	195.36	6.5043e-06	2.299e-06	257.07	72.624	55.569	16.206	3.459e-06	23.373	0.00038145	0.00020513	7.5382e-05	928.14	2.8422e-06	3.2089e-06	1043	193.47	3.3169e-06	1.936e-06	254.01	72.259	54.858	16.303	2.3646e-06	23.588	417.634	269.425	261.274	184.013	309.570	323.616	183.528	191.181	290.232	315.959	190.684	197.572	197.443	205.335	302.130	204.560	-8191	255	
930.332	1	1	0	0	0.021721	0.19856	0.031086	0.094418	0.07695	0.13085	0.16892	0.097518	0.11631	0.17189	0.236	0.30195	0.077207	0.18816	0.11713	0.047387	-2.95	-3.8542	-3.1229	-3.55	-3.75	-3.0854	-3.8729	-3.6646	-3.2083	-3.8583	-3.4375	-3.3146	-3.7375	-3.1229	-3.7292	-3.6771	189.846	291.587	221.625	517.446	513.398	296.178	450.373	446.585	217.272	516.634	198.704	437.736	209.182	504.852	243.180	431.873	0.00082086	0.00029199	8.0743e-05	940.91	2.3117e-06	2.8052e-06	1059.5	195.89	7.5162e-06	2.3211e-06	254.83	72.496	55.767	16.132	3.2229e-06	23.489	0.00035324	0.00024246	6.918e-05	928.94	2.4686e-06	3.0311e-06	1042.7	193.37	3.0849e-06	1.8662e-06	252.23	72.129	54.864	16.251	2.46e-06	23.659	420.320	248.574	277.687	183.663	331.698	310.799	183.932	191.277	298.636	320.181	191.015	197.838	197.200	205.522	326.609	204.613	-8191	255	
930.428	1	1	0	0	0.34322	0.10968	0.18495	0.12087	0.090191	0.12817	0.29111	0.027192	0.031188	0.20062	0.23431	0.16058	0.25188	0.28193	0.11919	0.02415	-2.6271	-3.7375	-3.2687	-3.4479	-3.8354	-3.1354	-3.6667	-3.8667	-3.1917	-3.8479	-3.4792	-3.2375	-3.8458	-3.2729	-3.5396	-3.8875	197.868	228.346	362.423	489.973	346.995	302.237	174.060	499.356	293.393	331.184	219.625	415.372	486.289	524.072	494.500	409.622	0.00081155	0.00029483	8.1471e-05	945.52	2.5043e-06	1.5588e-06	1061.5	196.74	7.0966e-06	3.2798e-06	255.79	72.833	55.818	16.258	3.2188e-06	23.482	0.00037231	0.0002063	7.6561e-05	926.49	2.3239e-06	2.9529e-06	1042.3	192.94	3.0264e-06	2.5672e-06	253.26	72.166	55.065	16.348	2.6267e-06	23.641	421.370	271.942	246.007	183.715	325.031	338.053	183.439	191.202	311.487	320.138	190.895	197.550	197.848	205.727	324.423	204.474	-8191	255	
930.524	1	1	0	0	0.026537	0.18161	0.095385	0.16916	0.23546	0.087423	0.26529	0.2059	0.022733	0.19519	0.22869	0.094394	0.19914	0.21228	0.11651	0.05857	-2.8312	-3.8563	-3.3917	-3.15	-3.8375	-3.1042	-3.5771	-3.8604	-3.05	-3.925	-3.6396	-3.2021	-4.0083	-3.1771	-3.4062	-3.6688	421.656	427.593	426.080	178.084	232.967	360.744	504.751	478.949	377.797	344.821	524.944	256.483	213.480	495.416	387.843	290.177	0.00084607	0.00025491	7.1161e-05	941.66	3.3525e-06	3.0616e-06	1058	195.46	7.3525e-06	1.7588e-06	256.52	72.329	55.602	16.153	2.1918e-06	23.333	0.00037695	0.00023473	6.4594e-05	924.73	2.823e-06	2.8587e-06	1042.5	192.79	3.3836e-06	1.9672e-06	253.18	71.972	54.646	16.274	2.5286e-06	23.556	419.188	242.807	249.353	183.368	314.391	311.477	183.574	191.216	305.133	318.017	190.901	197.436	197.429	205.369	291.445	204.911	-8191	255	
930.621	1	1	0	0	0.16641	0.21614	0.087854	0.084157	0.18643	0.25337	0.23336	0.062186	0.17872	0.034374	0.18684	0.23417	0.11708	0.22497	0.038423	0.13802	-2.6083	-3.7208	-3.5375	-3.0854	-3.8771	-3.2604	-3.6646	-3.9458	-3.0854	-3.6458	-3.7521	-3.1583	-3.7562	-3.3125	-3.1917	-3.9437	517.633	253.615	197.135	428.826	309.704	314.769	473.462	179.839	252.958	362.880	395.036	210.733	216.595	483.038	260.317	228.762	0.00075287	0.0002877	7.6175e-05	945.75	2.5199e-06	2.3972e-06	1053.4	195.62	8.0884e-06	2.4591e-06	254.72	72.373	55.44	16.188	3.0717e-06	23.396	0.00036531	0.0002512	6.8918e-05	925.05	2.5129e-06	2.7787e-06	1040	192.87	3.4708e-06	2.4296e-06	253.11	72.023	54.793	16.283	2.8122e-06	23.633	419.406	256.481	257.788	183.893	319.040	320.141	183.357	190.853	295.493	321.377	190.559	197.680	197.694	205.813	328.716	204.710	-8191	255	
930.740	1	1	0	0	0.21637	0.14786	0.19327	0.21518	0.13993	0.2358	0.36644	0.21	0.052634	0.10589	0.23686	0.16025	0.16087	0.15159	0.097445	0.20333	-2.8	-3.6979	-3.7062	-3.0771	-3.8896	-3.525	-3.3854	-3.8063	-3.2229	-3.7146	-3.8896	-3.2625	-3.7479	-3.5833	-3.1646	-3.8583	250.400	217.674	508.659	502.929	255.811	414.802	402.365	477.719	492.720	296.321	496.990	500.194	493.433	492.307	428.227	440.720	0.00086173	0.00024393	7.5355e-05	936.29	2.8305e-06	2.8674e-06	1055.1	195.68	5.6662e-06	2.6446e-06	254.7	72.658	55.615	16.293	2.8943e-06	23.083	0.00036057	0.00023517	6.0139e-05	924	2.6443e-06	2.368e-06	1039.1	193.07	3.0241e-06	2.7783e-06	252.76	72.09	54.652	16.27	2.2745e-06	23.53	422.150	260.164	279.557	183.501	329.532	313.551	183.613	191.016	299.193	310.338	190.856	197.265	198.007	205.503	316.640	204.754	-8191	255	
930.836	1	1	0	0	0.14026	0.10694	0.12176	0.22697	0.09759	0.086831	0.085433	0.12295	0.16393	0.22004	0.10255	0.2305	0.05142	0.22513	0.10152	0.18099	-2.8542	-3.4813	-3.7833	-3.0021	-3.7292	-3.6604	-3.275	-3.9479	-3.3083	-3.2708	-3.95	-3.0583	-3.5833	-3.6229	-3.1937	-3.8875	428.643	414.055	367.877	531.234	427.357	230.520	343.650	235.825	371.289	263.798	223.282	330.217	204.756	484.773	526.303	370.611	0.00084854	0.00028466	7.7665e-05	946.26	2.6545e-06	3.2533e-06	1058.1	195.86	6.0226e-06	2.9382e-06	255.66	72.79	55.595	16.061	3.7414e-06	23.463	0.00037196	0.00024931	6.3197e-05	927.3	2.9441e-06	2.5565e-06	1038.5	192.68	2.9529e-06	2.7801e-06	253.28	72.113	54.551	16.242	3.1066e-06	23.661	421.801	258.751	260.018	183.331	305.760	330.098	183.467	191.077	282.495	338.981	190.584	197.335	197.294	205.338	301.692	204.645	-8191	255	
930.932	1	1	0	0	0.11947	0.18137	0.10086	0.13329	0.19053	0.11995	0.19628	0.2403	0.074908	0.024455	0.17586	0.11267	0.2083	0.17655	0.063261	0.22408	-2.8479	-3.4896	-3.7188	-3.1167	-3.8021	-3.55	-3.3792	-3.9708	-3.4062	-3.3479	-4.0271	-3.1854	-3.7167	-3.8042	-2.9188	-4	337.316	363.446	225.188	228.242	521.440	356.457	459.111	178.675	441.577	219.078	514.487	434.123	299.719	471.663	425.427	386.277	0.00079033	0.00021058	8.126e-05	943.92	2.9057e-06	3.0528e-06	1061.3	195.85	6.1706e-06	3.2541e-06	255.78	72.543	55.025	16.202	3.2008e-06	23.42	0.00035001	0.00023327	6.062e-05	923.42	2.7536e-06	2.5245e-06	1039.1	193.15	3.1688e-06	3.048e-06	253.15	72.141	54.602	16.284	2.6993e-06	23.593	422.185	249.769	266.500	183.687	334.185	333.712	183.673	191.266	294.047	323.453	190.991	197.206	198.202	205.534	315.595	205.037	-8191	255	
931.028	1	1	0	0	0.22516	0.16768	0.23906	0.21245	0.17626	0.085168	0.20278	0.097887	0.10509	0.14836	0.080853	0.15399	0.17744	0.11026	0.14216	0.2044	-3.1396	-3.2021	-3.8667	-3.3604	-3.3583	-3.825	-3.2771	-3.8167	-3.4292	-3.1917	-3.9167	-3.2	-3.4833	-3.9813	-3.1625	-3.8646	297.125	369.046	361.468	516.407	491.347	307.511	486.800	174.247	513.437	418.848	313.097	453.919	262.611	478.935	486.811	219.676	0.00086331	0.00025048	0.00011133	946.1	2.88e-06	2.3125e-06	1060.5	194.99	6.56e-06	2.239e-06	256.06	72.565	55.695	16.347	2.474e-06	23.605	0.0003549	0.00026884	6.9398e-05	926.68	3.0208e-06	2.832e-06	1040.7	192.54	2.7094e-06	3.0774e-06	253.19	71.884	54.78	16.334	2.8633e-06	23.641	420.159	282.726	272.205	184.041	319.159	305.116	183.541	191.414	294.692	313.161	190.796	197.330	197.415	205.758	298.495	205.087	-8191	255	
931.149	1	1	0	0	0.12124	0.1412	0.17473	0.26523	0.10558	0.23226	0.17488	0.091955	0.107	0.085387	0.21031	0.266	0.1064	0.24355	0.031658	0.19854	-3.1104	-3.0583	-3.8083	-3.4188	-3.3646	-3.8792	-3.3396	-3.7333	-3.5646	-3.1854	-3.9396	-3.4479	-3.4375	-3.875	-3.1188	-3.7062	430.363	432.053	254.324	473.636	485.514	424.047	407.299	523.079	219.469	230.965	433.496	420.229	433.211	402.131	321.061	439.777	0.00082531	0.00029336	9.2454e-05	940.39	3.0988e-06	2.0361e-06	1058.8	195.78	6.3876e-06	4.1618e-06	255.1	72.527	55.311	16.299	2.0801e-06	23.479	0.00035964	0.00026826	6.1493e-05	922.6	3.0149e-06	1.584e-06	1038.6	192.97	2.6267e-06	3.0113e-06	252.79	71.995	54.645	16.315	2.667e-06	23.645	421.486	268.780	271.173	183.639	314.237	318.153	183.517	191.077	295.942	326.670	190.774	197.414	197.420	205.499	312.832	204.841	-8191	255	
931.220	1	1	0	0	0.1594	0.061209	0.13228	0.079856	0.13516	0.11455	0.37724	0.15137	0.23987	0.25018	0.2777	0.12489	0.25619	0.27361	0.029724	0.3356	-3.2521	-2.8375	-3.7771	-3.3354	-3.2729	-3.9167	-3.3563	-3.4417	-3.6542	-3.2229	-3.9313	-3.625	-3.2146	-4.0521	-3.1271	-3.5104	400.642	319.367	177.431	297.629	305.552	278.350	475.221	344.930	465.322	250.684	206.786	443.783	380.917	235.883	486.925	217.196	0.00083932	0.00023694	8.9722e-05	941.02	2.5661e-06	2.5034e-06	1061.1	195.7	5.5823e-06	2.6455e-06	255.47	72.61	55.238	16.201	3.3741e-06	23.503	0.00035113	0.00025587	6.4856e-05	923.13	3.2763e-06	2.2578e-06	1039.8	193.07	2.7679e-06	3.0242e-06	253.13	71.964	54.681	16.236	3.0018e-06	23.578	421.844	269.357	266.935	183.112	340.667	325.758	183.377	191.172	289.577	337.115	191.324	197.387	197.358	205.602	324.954	204.870	-8191	255	
931.316	1	1	0	0	0.084231	0.14866	0.17953	0.17921	0.1705	0.21037	0.30358	0.26779	0.062279	0.040257	0.29445	0.087249	0.28893	0.12586	0.050151	0.043432	-3.2542	-3	-3.7729	-3.4625	-3.0687	-3.9792	-3.5438	-3.5812	-3.6771	-2.9917	-3.7958	-3.5396	-3.1312	-3.8417	-3.2313	-3.3292	529.562	282.073	270.988	391.163	199.615	397.393	450.859	486.099	409.205	279.839	418.043	203.160	449.897	383.773	412.325	289.629	0.00082813	0.00022081	6.902e-05	944.41	3.2787e-06	3.5226e-06	1056.6	195.79	5.457e-06	2.3513e-06	255.87	72.593	55.849	16.177	4.0594e-06	23.192	0.00035363	0.00025514	6.5031e-05	922.99	2.9647e-06	2.2667e-06	1038.7	192.54	2.6186e-06	2.9618e-06	253.49	71.923	54.938	16.237	2.827e-06	23.479	423.496	273.912	268.214	183.368	298.088	346.486	183.469	191.372	323.719	318.598	191.159	197.543	197.580	205.941	304.307	204.412	-8191	255	
931.413	1	1	0	0	0.1629	0.31562	0.043537	0.031698	0.061773	0.085565	0.11611	0.15978	0.16215	0.22229	0.07159	0.22617	0.14643	0.085848	0.18852	0.15141	-3.2062	-3.1437	-3.7354	-3.6271	-3.0708	-3.9125	-3.4667	-3.2792	-4.0396	-3.1125	-3.5833	-3.8542	-3.1417	-3.8729	-3.3104	-3.2083	331.901	235.734	388.768	234.921	327.573	455.114	501.626	180.230	300.645	302.264	344.185	527.505	330.218	531.326	424.816	448.381	0.00078245	0.00026721	8.7188e-05	939.74	2.3414e-06	2.8454e-06	1055.5	196.26	5.2142e-06	2.8775e-06	255.63	72.536	55.358	16.122	2.3634e-06	23.302	0.00032908	0.00028984	6.1362e-05	922.46	2.7595e-06	2.2258e-06	1038.8	193.61	2.3981e-06	3.2884e-06	253.04	72.076	54.706	16.253	2.7181e-06	23.531	421.078	261.929	263.961	183.609	294.995	306.035	183.786	191.657	298.544	322.761	190.890	197.303	197.508	205.525	292.559	204.812	-8191	255	
931.531	1	1	0	0	0.14725	0.252	0.15196	0.090411	0.1173	0.12231	0.40692	0.19109	0.11302	0.13742	0.39522	0.10317	0.11808	0.029034	0.168	0.19771	-3.6521	-3.0687	-3.5375	-3.8354	-3.1167	-3.85	-3.6063	-3.2812	-3.8479	-3.1375	-3.6063	-3.8979	-3.0708	-3.7292	-3.5292	-3.1625	212.553	446.911	366.533	443.263	429.202	225.521	474.749	476.308	411.677	400.500	519.091	219.492	456.190	505.205	278.274	389.038	0.0008147	0.0002882	8.2271e-05	943.38	3.2083e-06	2.7305e-06	1061.6	195.85	6.7617e-06	3.2074e-06	257.27	72.797	55.883	16.251	3.8776e-06	23.419	0.00034991	0.0002633	5.5947e-05	925.52	3.2571e-06	2.2951e-06	1041.7	193.01	2.8771e-06	3.1471e-06	253.17	72.087	54.843	16.277	2.5689e-06	23.512	420.153	262.285	268.030	183.865	309.431	322.243	183.539	191.358	321.759	349.197	190.868	197.318	197.724	205.707	329.528	204.836	-8191	255	
931.628	1	1	0	0	0.10963	0.13606	0.11425	0.13787	0.14661	0.12386	0.37179	0.12096	0.14615	0.11911	0.097855	0.23897	0.16954	0.27703	0.1211	0.11678	-3.4333	-3.2833	-3.4042	-3.8187	-3.1208	-3.85	-3.625	-3.1583	-4.0208	-3.3104	-3.3458	-3.8333	-3.1292	-3.7625	-3.5875	-3.2438	441.301	458.513	330.751	177.844	357.125	353.044	436.408	208.803	512.869	195.952	454.178	484.576	186.109	240.934	303.605	449.334	0.00082006	0.00028437	9.4464e-05	946.68	3.2192e-06	3.1914e-06	1061.5	195.92	7.8945e-06	2.2475e-06	256.8	73.03	55.469	16.252	3.0706e-06	23.201	0.00034536	0.00026258	7.6343e-05	925.89	3.3752e-06	2.4302e-06	1039.2	193.24	2.73e-06	3.349e-06	253.47	72.118	54.637	16.251	2.4022e-06	23.498	418.822	267.833	252.158	183.435	336.332	317.784	183.688	191.692	303.555	322.369	191.178	197.370	197.604	205.547	293.696	205.080	-8191	255	
931.724	1	1	0	0	0.19332	0.16384	0.12067	0.070987	0.11682	0.19049	0.23551	0.20155	0.01483	0.28105	0.14454	0.12647	0.2889	0.082354	0.11374	0.15893	-3.5125	-3.2667	-3.3458	-3.9854	-3.1	-3.7188	-3.7625	-3.2354	-3.8979	-3.5146	-3.2521	-3.9083	-3.1729	-3.6875	-3.8625	-3.2875	319.295	377.062	462.104	475.890	344.701	313.000	459.088	190.435	501.905	409.608	471.123	248.657	465.196	425.648	411.956	414.544	0.00086564	0.00021578	8.3917e-05	943.22	2.8412e-06	2.976e-06	1054.7	195.9	6.6518e-06	2.2289e-06	257.2	72.676	55.096	16.232	3.5538e-06	23.465	0.0003595	0.00026258	7.774e-05	925.07	3.164e-06	2.4071e-06	1039	193.01	2.714e-06	2.3929e-06	253.8	71.952	54.587	16.314	2.499e-06	23.561	421.929	272.323	257.259	183.632	317.414	316.468	183.542	191.357	308.639	353.619	190.548	197.609	197.831	205.672	306.727	204.551	-8191	255	
931.820	1	1	0	0	0.2404	0.3831	0.12254	0.17115	0.1147	0.22067	0.18823	0.10297	0.13213	0.18397	0.42198	0.070849	0.048984	0.2003	0.09998	0.28113	-3.4896	-3.2479	-3.1688	-3.9417	-3.1833	-3.5438	-4.0167	-3.0729	-3.8083	-3.5729	-3.0125	-3.9688	-3.1937	-3.5687	-3.7458	-3.0938	471.612	513.872	202.893	496.784	528.392	298.197	487.373	313.973	212.655	367.311	473.184	508.282	228.682	189.823	483.190	176.358	0.00085649	0.00021069	6.3183e-05	950.76	3.8675e-06	2.9075e-06	1056.5	195.29	8.1245e-06	3.0441e-06	256.82	72.025	55.606	16.251	4.145e-06	23.292	0.0003527	0.00022132	7.1014e-05	928.13	3.1552e-06	2.7485e-06	1039.3	192.82	3.0838e-06	2.3507e-06	253.77	71.999	54.767	16.306	2.5608e-06	23.59	420.186	288.142	261.310	183.959	304.066	314.656	183.663	191.216	306.919	337.435	190.988	197.524	197.699	205.463	317.778	204.496	-8191	255	
931.916	1	1	0	0	0.025276	0.077251	0.18345	0.21944	0.1904	0.070683	0.15707	0.14365	0.11072	0.21826	0.23965	0.27108	0.28244	0.16277	0.082403	0.37455	-3.5	-3.4083	-3.1354	-3.9375	-3.2458	-3.3187	-4.1979	-3.2417	-3.6979	-3.6333	-3.1042	-3.8833	-3.4313	-3.4271	-3.8667	-2.9542	401.829	376.866	386.327	174.135	233.989	309.942	464.188	531.778	350.315	486.706	380.733	197.330	412.785	376.937	362.162	408.932	0.00079524	0.00032082	8.2573e-05	952.12	3.6851e-06	3.3588e-06	1057.9	195.7	6.6599e-06	2.726e-06	255.79	72.65	55.427	16.145	3.4795e-06	23.252	0.00034419	0.00023998	7.7871e-05	927.96	3.1581e-06	2.4391e-06	1037.1	192.87	2.9919e-06	2.5507e-06	253.41	72.047	54.705	16.252	2.2638e-06	23.516	420.892	270.727	269.324	184.378	304.722	326.830	183.542	191.103	297.818	316.948	191.072	197.398	197.611	205.722	319.557	204.861	-8191	255	
932.012	1	1	0	0	0.11644	0.1242	0.07449	0.12178	0.10507	0.029337	0.49051	0.19162	0.07535	0.069036	0.18073	0.16261	0.043373	0.13203	0.15272	0.19893	-3.3604	-3.7479	-3.2479	-3.7854	-3.4458	-3.1813	-4.0854	-3.1771	-3.5146	-3.7604	-3.0083	-3.8208	-3.4021	-3.1292	-3.8292	-3.2979	325.459	429.670	197.279	369.825	177.851	325.988	478.635	507.821	357.750	221.909	525.060	455.068	188.600	524.652	315.447	247.998	0.00083526	0.00028167	7.9612e-05	951.39	3.6318e-06	2.4038e-06	1060.2	196.47	6.2624e-06	3.3879e-06	258.06	72.438	55.548	16.319	3.1099e-06	23.164	0.00034981	0.00018151	7.0403e-05	925.58	2.8038e-06	2.8356e-06	1039.5	193.02	2.977e-06	2.2883e-06	253.69	71.949	54.712	16.285	2.4802e-06	23.553	420.821	263.822	270.491	184.068	320.899	321.548	183.815	191.420	314.736	330.132	191.090	197.588	197.564	205.299	321.216	204.862	-8191	255	
932.108	1	1	0	0	0.01827	0.24159	0.20527	0.079442	0.086784	0.051154	0.036039	0.050426	0.24173	0.1309	0.054581	0.093881	0.12089	0.31726	0.076222	0.036834	-3.2125	-3.7104	-3.1542	-3.8833	-3.375	-3.0938	-3.9271	-3.0896	-3.4417	-3.7646	-3.1937	-3.7	-3.5667	-3.0021	-3.825	-3.3563	197.730	247.112	329.622	268.900	428.899	274.634	470.401	495.967	399.941	263.899	346.651	441.147	460.555	199.829	357.145	217.287	0.00081309	0.00026453	0.000107	945.57	2.746e-06	2.4383e-06	1054	194.14	5.8944e-06	2.4061e-06	255.54	72.222	54.806	16.081	2.4821e-06	23.329	0.00036067	0.00020411	7.9269e-05	924.25	2.8112e-06	2.3325e-06	1037.6	192.21	3.2538e-06	2.2002e-06	252.97	72.057	54.419	16.254	2.2355e-06	23.494	419.420	278.302	275.257	183.888	318.441	327.791	183.564	191.369	308.442	320.704	191.082	197.342	197.501	206.025	309.807	204.658	-8191	255	
932.229	1	1	0	0	0.27932	0.20671	0.09667	0.17541	0.13248	0.20531	0.10452	0.10287	0.19331	0.13459	0.15743	0.13938	0.067979	0.17121	0.0088452	0.17725	-2.9792	-3.9	-3.1271	-3.7125	-3.7354	-3.0625	-3.9979	-3.5417	-3.3417	-4	-3.3354	-3.8229	-3.6125	-3.0229	-3.8104	-3.4396	350.916	278.615	503.757	492.176	528.734	514.850	416.984	417.742	337.524	397.012	223.014	493.448	271.219	385.546	438.696	358.941	0.00083764	0.00028101	5.9585e-05	941.32	3.5e-06	3.5964e-06	1057.4	196.15	5.3831e-06	3.2553e-06	255.51	72.554	55.676	16.278	3.4171e-06	23.228	0.00035593	0.00016314	6.9704e-05	923.62	2.7728e-06	3.1022e-06	1036.7	192.93	2.985e-06	2.1066e-06	253.32	72.09	54.897	16.308	2.5111e-06	23.536	420.844	250.326	261.382	183.978	334.900	324.368	183.677	191.323	306.846	334.243	191.287	197.806	197.874	205.967	307.924	205.207	-8191	255	
932.325	1	1	0	0	0.061129	0.073237	0.26379	0.29256	0.073992	0.10546	0.055241	0.15724	0.13527	0.23796	0.10974	0.10597	0.12292	0.18353	0.061374	0.056937	-2.9479	-3.825	-3.1167	-3.5646	-3.7875	-3.1312	-3.9813	-3.375	-3.1479	-3.9833	-3.2208	-3.3187	-3.9896	-3.1896	-3.8208	-3.7583	272.054	211.901	391.809	407.728	248.143	530.100	174.534	272.238	457.362	411.877	217.764	340.663	509.228	230.977	359.404	368.268	0.00080599	0.00024476	8.2077e-05	948.57	3.1764e-06	2.0859e-06	1059.4	195.26	5.9591e-06	2.5818e-06	256.33	72.687	55.504	16.188	3.5004e-06	23.286	0.0003572	0.00017845	7.0403e-05	927.75	2.7019e-06	2.864e-06	1038.7	192.73	3.0872e-06	1.8974e-06	252.98	72.249	54.882	16.263	1.9855e-06	23.58	422.304	260.392	262.195	184.081	308.692	331.842	183.786	191.709	302.983	333.705	190.856	197.695	197.512	205.378	317.462	205.081	-8191	255	
932.421	1	1	0	0	0.16165	0.20856	0.084309	0.18161	0.13288	0.14959	0.10302	0.11589	0.2535	0.22834	0.19974	0.094195	0.15392	0.10995	0.10474	0.35958	-2.7125	-4.0146	-3.2375	-3.3729	-3.8812	-3.2917	-3.8229	-3.7188	-3.1896	-4.05	-3.5146	-3.3646	-3.9188	-3.0333	-3.7	-3.7792	375.854	390.758	482.923	225.978	434.293	236.023	174.511	490.528	339.225	184.884	431.734	249.169	244.772	361.608	287.990	501.771	0.00078825	0.00023695	9.0617e-05	945.08	2.1296e-06	2.5935e-06	1059.4	196.01	5.3465e-06	3.5668e-06	255.77	73.051	56.078	16.249	2.7082e-06	23.344	0.00036531	0.00021971	7.0403e-05	923.08	2.2693e-06	3.0098e-06	1039.9	192.88	2.8162e-06	2.3287e-06	253.21	72.262	55.113	16.329	2.4385e-06	23.563	419.420	266.488	261.085	184.051	339.273	324.750	183.788	191.466	318.841	326.302	191.236	197.883	197.841	205.697	322.338	205.390	-8191	255	
932.517	1	1	0	0	0.062824	0.062861	0.15521	0.095561	0.36514	0.13968	0.081438	0.11537	0.17424	0.048849	0.032617	0.24418	0.17531	0.32016	0.0494	0.12951	-2.8333	-3.9229	-3.3792	-3.4104	-4.1125	-3.1667	-3.7812	-3.7333	-2.8937	-3.9917	-3.6521	-3.2812	-3.875	-3.2313	-3.4729	-3.6813	425.992	217.671	358.141	206.448	446.779	319.889	448.436	315.136	293.328	254.175	437.725	259.075	408.962	473.892	325.601	183.526	0.0008644	0.00030722	7.9653e-05	943.46	1.7275e-06	2.9021e-06	1062.9	195.68	6.66e-06	2.8185e-06	254.25	73.09	55.953	16.28	3.8314e-06	23.409	0.00036839	0.00020411	7.0927e-05	922.45	2.1497e-06	2.5511e-06	1039.4	192.82	3.2859e-06	1.6864e-06	251.8	72.196	54.733	16.3	2.8001e-06	23.608	419.332	271.942	273.029	184.204	289.819	327.563	184.123	191.736	307.006	326.877	191.519	198.041	198.595	205.854	324.268	205.518	-8191	255	
932.612	1	1	0	0	0.044507	0.050347	0.1596	0.14255	0.096726	0.28373	0.044851	0.34511	0.1617	0.037941	0.13355	0.13994	0.17366	0.24362	0.21246	0.10914	-2.8604	-3.6854	-3.4708	-3.4	-3.9458	-3.4271	-3.5896	-3.8667	-3.2021	-3.6937	-3.4708	-3.1021	-3.9604	-3.2271	-3.4646	-4.0333	191.931	489.959	371.986	431.249	499.679	367.673	223.791	529.468	332.859	430.072	222.066	458.695	507.474	301.154	373.471	259.199	0.00086465	0.00020674	9.1199e-05	941.97	3.6777e-06	2.6227e-06	1061.8	195.84	7.4e-06	1.9262e-06	256.46	72.413	55.915	16.27	3.4035e-06	23.514	0.00037827	0.00023502	6.0926e-05	924.67	2.6694e-06	2.6578e-06	1039.5	192.61	3.4123e-06	2.281e-06	252.54	71.946	54.951	16.262	2.6872e-06	23.634	421.215	280.508	291.269	183.968	312.994	333.274	183.871	191.774	302.770	327.731	191.196	197.982	197.633	205.889	306.353	205.271	-8191	255	
932.708	1	1	0	0	0.27151	0.23736	0.1653	0.37759	0.14582	0.19698	0.17342	0.18094	0.31117	0.12133	0.1969	0.034444	0.10036	0.24939	0.089347	0.064938	-2.7333	-3.7812	-3.6833	-3.1792	-3.9354	-3.5333	-3.4083	-4.025	-2.9583	-3.7833	-3.9417	-2.9708	-3.9208	-3.5667	-3.1875	-3.9688	418.008	177.161	380.382	220.440	459.984	424.593	177.926	523.434	321.487	288.366	486.587	368.628	337.362	405.639	249.844	249.864	0.0008758	0.0002282	8.2782e-05	942.68	2.8706e-06	2.6905e-06	1055	195.8	6.5957e-06	3.5345e-06	256.48	72.305	54.894	16.273	3.6738e-06	23.422	0.00038057	0.00022102	5.0225e-05	922.91	2.3328e-06	2.7716e-06	1039.9	192.84	3.263e-06	2.5746e-06	252.93	72.086	54.672	16.309	2.823e-06	23.506	419.163	258.601	270.506	183.959	306.769	312.309	183.816	191.517	306.066	310.683	190.871	197.446	197.626	205.888	304.912	205.186	-8191	255	
932.829	1	1	0	0	0.22211	0.091942	0.038525	0.10945	0.087016	0.12555	0.15597	0.11108	0.26013	0.22015	0.15991	0.19469	0.13443	0.082768	0.16578	0.063753	-2.8229	-3.5187	-3.6479	-3.1708	-3.8604	-3.5708	-3.5708	-3.925	-3.1792	-3.5771	-3.9979	-3.125	-3.7729	-3.5938	-3.0354	-3.9042	476.937	248.703	180.412	241.723	273.250	188.027	435.807	362.605	428.169	453.629	453.661	276.735	532.315	388.162	337.354	360.377	0.00081421	0.00033272	5.6642e-05	944.55	3.396e-06	2.6405e-06	1059.4	195.86	5.5404e-06	2.1492e-06	256.41	72.67	55.275	16.178	2.7743e-06	23.463	0.00036218	0.0002636	5.4637e-05	926.5	2.6148e-06	2.3325e-06	1040.2	193.21	3.1309e-06	2.4828e-06	253.54	72.058	54.806	16.3	2.749e-06	23.639	423.138	258.042	248.879	183.611	314.625	322.026	183.970	191.297	307.496	348.166	190.704	197.559	197.985	205.965	302.785	205.142	-8191	255	
932.925	1	1	0	0	0.21869	0.10499	0.080786	0.22792	0.19977	0.13587	0.15643	0.17472	0.15564	0.12541	0.19521	0.27996	0.096676	0.07498	0.051967	0.099999	-2.8208	-3.4458	-3.6792	-3.1813	-3.7875	-3.5229	-3.1521	-3.7812	-3.1375	-3.3021	-3.8917	-3.1458	-3.5	-3.8812	-3.0458	-3.9292	287.059	282.743	369.373	231.407	238.331	385.574	445.097	475.995	291.436	279.395	431.979	428.523	372.592	394.294	469.031	271.383	0.00080263	0.00021277	8.9054e-05	948.1	2.5464e-06	3.0479e-06	1059.5	196.52	5.3431e-06	1.6961e-06	257.34	72.934	55.717	16.256	4.5984e-06	23.565	0.0003549	0.00024246	5.6864e-05	925.71	2.541e-06	2.4569e-06	1041.1	193.13	2.8598e-06	2.7195e-06	253.26	72.107	54.753	16.289	2.7168e-06	23.633	421.406	251.203	257.605	183.853	321.432	324.908	183.843	191.624	307.251	322.858	191.025	197.527	197.997	205.704	310.059	204.950	-8191	255	
933.021	1	1	0	0	0.25639	0.098672	0.13152	0.088601	0.19178	0.099594	0.32415	0.26908	0.02693	0.18382	0.22795	0.13418	0.26029	0.15244	0.1065	0.14555	-3.0479	-3.375	-3.9396	-3.1771	-3.6479	-3.6979	-3.2417	-3.8563	-3.4542	-3.2729	-4.0563	-3.3604	-3.6208	-3.8458	-3.2458	-3.8646	488.471	286.610	521.055	484.685	210.031	229.338	483.157	527.798	235.570	264.304	232.163	365.640	510.873	515.408	214.523	448.062	0.00084827	0.00026368	7.5204e-05	946.4	3.0718e-06	2.027e-06	1064.9	196.9	6.5233e-06	2.8314e-06	255.53	72.95	55.597	16.435	3.6524e-06	23.422	0.00037231	0.00025806	4.6906e-05	926.57	2.6547e-06	2.0996e-06	1042.4	193.34	3.2274e-06	2.7471e-06	252.77	72.441	55.006	16.382	2.7262e-06	23.688	423.724	287.399	263.688	184.180	314.630	311.396	184.030	191.584	315.468	327.977	191.484	197.644	198.455	205.635	324.960	205.027	-8191	255	
933.093	1	1	0	0	0.046994	0.15772	0.21045	0.037779	0.13888	0.13534	0.34715	0.061588	0.19391	0.029177	0.19871	0.19066	0.19866	0.30968	0.13799	0.14851	-3.2583	-3.2812	-3.8521	-3.3042	-3.375	-3.8937	-3.2104	-3.8458	-3.4792	-3.0854	-4.1792	-3.1667	-3.3125	-3.8396	-3.2083	-3.8917	193.896	330.173	513.746	411.904	335.613	405.381	433.370	411.864	247.799	221.793	471.590	268.955	226.398	228.757	313.524	236.420	0.00080689	0.00030197	7.5988e-05	954.78	4.0005e-06	3.5391e-06	1064	197.9	6.3413e-06	3.344e-06	256.65	72.465	56.274	16.314	2.496e-06	23.547	0.00034067	0.00026214	4.7125e-05	928.52	2.7329e-06	2.5618e-06	1042.7	193.87	2.8736e-06	3.3673e-06	253.45	72.002	55.057	16.345	2.585e-06	23.686	420.606	263.750	264.791	184.408	309.899	335.499	184.396	191.697	306.211	335.738	191.678	198.201	198.241	206.045	324.451	205.536	-8191	255	
933.213	1	1	0	0	0.26334	0.29209	0.13469	0.13961	0.1471	0.30367	0.25364	0.2103	0.16538	0.25268	0.1356	0.1823	0.18487	0.18126	0.33825	0.1198	-3.1833	-3.1854	-3.7625	-3.2438	-3.325	-3.8354	-3.3583	-3.5938	-3.4792	-2.9021	-4.0521	-3.375	-3.2958	-3.8104	-3.1896	-3.6833	310.138	509.149	313.685	326.826	332.144	206.624	487.267	496.110	227.379	317.778	524.536	488.911	242.888	510.224	303.262	352.045	0.0008269	0.00025484	0.00011392	949.15	2.8238e-06	3.6094e-06	1063.6	195.72	7.0778e-06	2.3507e-06	257.51	72.765	56.142	16.178	2.8588e-06	23.344	0.00035769	0.000291	6.6603e-05	924.97	3.1124e-06	2.5387e-06	1044	192.97	3.2388e-06	3.2334e-06	253.8	72.162	54.925	16.286	2.7221e-06	23.602	419.644	287.232	274.323	184.257	329.496	330.646	183.929	191.908	298.217	320.411	191.376	197.916	198.210	206.246	305.562	205.146	-8191	255	
933.309	1	1	0	0	0.27714	0.26292	0.12347	0.11923	0.26542	0.12631	0.25251	0.14697	0.068099	0.12308	0.11341	0.25274	0.13746	0.13335	0.16657	0.15327	-3.2167	-2.9958	-3.8146	-3.4375	-3.1271	-3.9667	-3.2583	-3.3583	-3.5021	-2.9542	-3.7292	-3.575	-3.2625	-3.8479	-3.1292	-3.6333	289.415	254.786	459.020	182.444	324.654	438.322	482.064	481.288	175.383	463.429	375.474	530.801	193.222	212.393	211.615	489.093	0.00082089	0.00017637	9.699e-05	952.73	1.9332e-06	1.8983e-06	1066.5	195.43	5.2108e-06	2.8486e-06	257.97	72.703	55.24	16.25	3.0751e-06	23.515	0.00034937	0.00023735	6.3109e-05	927.6	2.8141e-06	1.8009e-06	1043.9	193.06	2.6026e-06	3.3361e-06	253.98	72.148	54.726	16.212	3.1537e-06	23.54	422.707	275.005	277.515	184.493	336.194	320.600	184.032	191.744	282.227	323.251	191.565	197.783	198.531	206.211	309.778	205.423	-8191	255	
933.405	1	1	0	0	0.28515	0.20836	0.057263	0.078182	0.01605	0.11285	0.087434	0.013341	0.11157	0.24461	0.21763	0.1283	0.10301	0.058584	0.15092	0.13798	-3.2833	-3.1188	-3.7667	-3.4375	-3.1833	-4.0417	-3.3542	-3.4938	-3.85	-3.1646	-3.7417	-3.8063	-3.1188	-3.85	-3.1771	-3.4333	500.901	177.703	372.703	359.749	226.209	411.497	245.164	510.430	352.146	199.726	500.707	432.096	187.214	176.298	220.704	500.386	0.00085554	0.00022221	7.4323e-05	939.04	3.0012e-06	3.0821e-06	1067.2	197.36	5.7686e-06	2.6058e-06	257.01	72.616	55.504	16.304	3.6606e-06	23.326	0.0003528	0.00026564	6.0576e-05	925.35	3.167e-06	2.2738e-06	1042.6	193.95	2.6198e-06	2.9141e-06	253.98	72.156	54.864	16.244	2.8579e-06	23.542	421.299	285.050	261.804	184.008	332.727	321.670	184.004	191.638	318.289	326.664	191.394	198.299	198.330	206.080	299.836	205.624	-8191	255	
933.502	1	1	0	0	0.17348	0.050231	0.24174	0.26771	0.28869	0.034003	0.038867	0.26498	0.12809	0.25118	0.18324	0.21535	0.22268	0.31089	0.17414	0.13751	-3.3208	-3.125	-3.5417	-3.5354	-3.0521	-3.9875	-3.6833	-3.1646	-3.7833	-3.1229	-3.6458	-3.8479	-3.3	-3.7354	-3.45	-3.2458	308.994	245.779	443.044	491.921	333.390	353.352	349.570	509.705	512.784	188.942	220.540	502.302	271.748	256.362	482.777	331.352	0.00082003	0.00021198	8.2601e-05	946.26	3.023e-06	2.6632e-06	1066	196.53	5.954e-06	2.7838e-06	257.99	72.483	55.591	16.182	2.1503e-06	23.345	0.00032991	0.00027511	7.56e-05	925.36	2.9071e-06	1.7849e-06	1043.3	193	2.7909e-06	2.8352e-06	253.76	72.155	54.868	16.2	2.5407e-06	23.417	419.628	266.116	273.986	184.200	302.126	311.029	183.938	191.464	311.791	291.866	191.286	198.480	198.371	205.901	329.983	205.628	-8191	255	
933.621	1	1	0	0	0.19409	0.2768	0.12347	0.1231	0.15572	0.048712	0.27412	0.34393	0.12069	0.099937	0.20705	0.1833	0.053208	0.13404	0.088119	0.0094842	-3.4938	-2.9625	-3.7333	-3.8563	-3.0896	-3.8937	-3.8479	-3.3438	-3.9271	-3.1729	-3.6188	-3.7708	-3.1375	-3.7729	-3.5042	-3.0708	385.964	460.392	232.703	495.879	361.319	287.714	525.219	490.605	531.266	361.255	511.272	186.175	387.892	368.977	351.408	285.138	0.00079281	0.00022952	8.111e-05	949.34	3.0938e-06	2.3321e-06	1064.7	196.94	5.6197e-06	2.2882e-06	257.16	72.806	55.313	15.989	3.9602e-06	22.901	0.00035773	0.00026535	6.9529e-05	926.28	3.5258e-06	1.9556e-06	1042.5	193.6	2.8529e-06	2.7306e-06	253.85	72.243	54.697	16.037	2.6267e-06	23.072	420.049	262.892	282.634	184.095	327.239	345.143	183.788	191.827	289.298	327.316	191.426	197.776	198.476	206.470	304.730	205.105	-8191	255	
933.692	1	1	0	0	0.13974	0.17889	0.21148	0.17726	0.17965	0.11604	0.17961	0.19226	0.12941	0.15201	0.068222	0.068032	0.14287	0.2699	0.16885	0.30901	-3.4979	-3.3354	-3.2771	-3.8833	-3.0979	-3.7438	-3.85	-3.2229	-4.0125	-3.4396	-3.5938	-4.0312	-3.0333	-3.6146	-3.5646	-3.1083	477.348	322.926	293.683	500.926	434.877	332.084	182.281	252.467	378.197	280.661	317.355	195.751	201.190	190.682	204.329	206.620	0.00080877	0.00028943	0.00010833	955.17	3.4014e-06	2.2182e-06	1067.7	197.35	6.9871e-06	3.248e-06	257.06	72.767	56.032	15.858	4.9014e-06	22.702	0.0003528	0.00028036	7.9706e-05	930.52	3.6498e-06	2.1547e-06	1044.1	193.9	2.8564e-06	3.1104e-06	253.78	72.023	54.858	15.877	2.8028e-06	22.821	420.993	252.953	264.774	184.392	318.895	335.353	183.981	191.765	306.825	308.504	191.538	198.372	198.063	206.110	317.527	205.755	-8191	255	
933.790	1	1	0	0	0.027779	0.26022	0.019723	0.18894	0.18294	0.028423	0.066224	0.065466	0.11398	0.35991	0.12512	0.32786	0.16918	0.090596	0.066596	0.11159	-3.6667	-3.3771	-3.1146	-4.0312	-3.1396	-3.5625	-4.0125	-3.2896	-3.7062	-3.3625	-3.4083	-3.9646	-3.2417	-3.4208	-3.6479	-3.1896	224.244	202.996	246.859	462.970	412.574	276.489	251.588	475.525	419.281	191.666	487.811	513.804	300.772	224.721	396.310	271.505	0.00079245	0.00029468	0.00011237	950.42	2.8075e-06	2.8061e-06	1068	196.74	4.6338e-06	2.2435e-06	256.81	72.924	55.44	15.586	3.6805e-06	22.409	0.00033671	0.0002964	8.1758e-05	929.42	3.5981e-06	2.6969e-06	1045	193.39	2.8483e-06	3.1453e-06	253.53	71.94	54.589	15.638	2.585e-06	22.565	419.234	261.106	274.288	184.122	330.889	325.078	183.953	191.566	309.224	324.437	191.679	198.042	198.495	206.279	295.136	205.414	-8191	255	
933.909	1	1	0	0	0.13634	0.30502	0.076403	0.056337	0.12019	0.17997	0.15408	0.13038	0.11533	0.14988	0.24946	0.15571	0.35862	0.23415	0.11735	0.02782	-3.4083	-3.5875	-3.1896	-3.8312	-3.2687	-3.3896	-3.8854	-3.2313	-3.7271	-3.5042	-3.2375	-3.75	-3.2875	-3.3146	-3.9354	-3.2708	506.161	459.472	366.464	207.600	271.394	484.947	421.992	182.714	511.600	514.509	190.748	442.144	334.110	240.524	188.073	506.740	0.00077392	0.00019547	6.3778e-05	955.36	2.759e-06	2.8608e-06	1076.3	198.25	6.2826e-06	1.9806e-06	255.67	72.707	55.535	15.612	3.2721e-06	22.341	0.00033524	0.00027788	7.263e-05	934.46	3.2453e-06	3.3547e-06	1051.4	194.52	3.0735e-06	2.8407e-06	253.44	72.105	54.725	15.649	2.5259e-06	22.568	418.639	261.405	292.987	184.431	320.018	330.949	184.091	191.974	295.190	300.629	191.464	197.998	197.875	205.974	306.149	205.250	-8191	255	
934.005	1	1	0	0	0.2303	0.39153	0.29137	0.17298	0.16075	0.11094	0.16888	0.021186	0.12314	0.13824	0.19577	0.31662	0.25992	0.054931	0.082266	0.16954	-3.35	-3.5938	-3.1	-3.9271	-3.3521	-3.4104	-4.0563	-3.3396	-3.7	-3.6792	-3.2396	-3.9125	-3.3167	-3.2062	-3.8583	-3.2042	497.631	372.319	442.003	426.269	455.029	422.581	446.315	508.093	502.980	461.741	478.925	458.909	271.298	455.614	497.074	511.966	0.00084289	0.00024072	6.0647e-05	952.43	2.0489e-06	2.7377e-06	1071.8	196.54	6.9505e-06	2.3136e-06	256.01	72.834	55.374	15.566	3.3046e-06	22.358	0.00035294	0.00022948	7.1757e-05	930.96	2.9677e-06	2.6862e-06	1047.6	193.94	3.1343e-06	2.6682e-06	253.09	72.097	54.692	15.616	2.1293e-06	22.558	422.986	267.975	274.093	184.250	310.506	318.942	184.229	191.800	315.199	312.299	191.527	197.865	197.978	206.257	314.194	205.527	-8191	255	
934.101	1	1	0	0	0.19891	0.0071441	0.22091	0.25878	0.14917	0.1998	0.12345	0.35531	0.15	0.049005	0.068391	0.066707	0.1264	0.22787	0.17016	0.29606	-3.1542	-3.8896	-3.0042	-3.8979	-3.4	-3.4271	-4.05	-3.2792	-3.6	-3.7292	-3.2	-3.8604	-3.7542	-3.275	-3.95	-3.2854	344.490	436.370	315.731	397.008	306.332	426.754	449.500	496.944	501.531	200.444	308.599	460.481	451.483	410.312	484.891	395.560	0.00080166	0.00019981	4.8866e-05	953.26	3.1005e-06	2.8529e-06	1065	197.66	7.566e-06	2.1536e-06	256.23	72.709	56.145	15.603	4.7071e-06	22.383	0.00035578	0.00026637	8.665e-05	934.22	3.1079e-06	2.6151e-06	1047.9	194.12	3.0608e-06	2.492e-06	253.46	71.972	54.937	15.577	2.5743e-06	22.493	419.416	277.867	244.487	183.611	322.274	325.706	183.471	191.025	309.022	322.310	190.480	197.194	197.386	205.659	319.181	204.618	-8191	255	
934.222	1	1	0	0	0.142	0.086471	0.32208	0.11742	0.10588	0.19076	0.37389	0.098541	0.090823	0.10673	0.18553	0.17882	0.1104	0.249	0.12271	0.066561	-3.2292	-3.9458	-3.1354	-3.8917	-3.525	-3.1021	-4.15	-3.4646	-3.3583	-3.8729	-3.2375	-3.7417	-3.7896	-3.1667	-3.8229	-3.2646	513.709	197.630	493.350	455.767	317.815	416.959	465.925	389.965	519.784	426.149	514.415	207.054	473.961	513.522	185.411	399.134	0.00073471	0.00022561	6.6229e-05	947.89	3.8022e-06	3.1809e-06	1070.2	197.46	7.44e-06	2.2086e-06	256.5	72.7	55.456	15.61	2.6252e-06	22.239	0.00032791	0.00021709	8.582e-05	931.32	2.7743e-06	3.52e-06	1047.2	193.96	3.1699e-06	2.8517e-06	253.19	71.927	54.478	15.594	2.2691e-06	22.48	419.781	264.837	266.336	183.891	298.296	327.196	183.226	191.015	302.789	324.426	190.883	197.376	197.476	205.281	306.522	204.718	-8191	255	
934.318	1	1	0	0	0.18546	0.12421	0.14525	0.1583	0.19902	0.14904	0.19479	0.1445	0.074159	0.14273	0.14181	0.26508	0.034441	0.18402	0.12251	0.11639	-2.8417	-3.8583	-3.0875	-3.5729	-3.7125	-3.1271	-4	-3.3375	-3.2104	-3.9646	-3.1437	-3.6833	-3.7771	-3.1292	-3.8167	-3.525	345.887	331.243	293.451	196.407	409.349	371.399	439.371	434.752	314.664	214.543	505.770	516.410	265.447	449.477	230.465	494.324	0.00080382	0.0003206	0.0001065	955.15	3.1374e-06	2.3125e-06	1068.5	197.51	5.8437e-06	1.7932e-06	255.62	72.429	55.694	15.62	2.9465e-06	22.47	0.00037069	0.00023721	8.8178e-05	932.6	2.851e-06	2.7627e-06	1048.2	194.02	3.3204e-06	1.8204e-06	252.46	72.069	54.695	15.598	2.4036e-06	22.59	421.930	261.553	269.694	184.017	305.251	321.294	183.612	191.326	305.447	334.723	190.680	197.678	197.493	205.207	318.302	204.470	-8191	255	
934.390	1	1	0	0	0.33556	0.033138	0.08265	0.10632	0.071121	0.048677	0.36072	0.10263	0.024585	0.016517	0.18614	0.14207	0.19391	0.26452	0.071771	0.13852	-2.6958	-3.8375	-3.125	-3.5271	-3.7042	-3.1271	-3.8354	-3.6688	-3.1792	-3.85	-3.3625	-3.5146	-3.8438	-2.9833	-3.8208	-3.5667	481.048	278.111	251.448	525.612	175.600	228.067	461.444	477.031	504.275	486.026	476.057	449.221	358.990	257.182	444.409	379.728	0.00076955	0.00024372	8.2516e-05	954.43	4.3227e-06	2.3942e-06	1070.5	196.92	6.2184e-06	3.667e-06	255.61	72.944	55.824	15.512	2.8373e-06	22.453	0.00036126	0.00022656	7.6736e-05	931.43	3.0282e-06	2.9974e-06	1048.9	193.86	3.1745e-06	2.8462e-06	253.17	72.061	54.822	15.538	2.4896e-06	22.53	418.310	253.597	270.951	183.820	316.780	324.918	183.677	191.029	293.439	338.369	191.045	197.510	197.510	205.524	316.341	204.715	-8191	255	
934.510	1	1	0	0	0.1198	0.1567	0.055491	0.024512	0.063229	0.28644	0.28885	0.19993	0.16272	0.21423	0.1506	0.23147	0.13389	0.0050421	0.13795	0.16258	-2.7771	-3.9313	-3.2417	-3.3604	-3.8292	-3.1854	-3.9396	-3.7417	-3.1354	-3.8542	-3.4	-3.3896	-3.875	-3.2729	-3.6167	-3.8958	194.889	321.192	361.587	457.963	406.543	463.775	469.564	525.886	383.586	390.240	494.639	203.314	403.451	335.495	254.788	303.566	0.00086088	0.0003109	6.0291e-05	947.13	3.0591e-06	2.0508e-06	1069.5	197.42	5.6663e-06	2.833e-06	255.12	73.189	55.454	15.468	3.5269e-06	22.267	0.00036795	0.00019799	7.4377e-05	930.08	2.6414e-06	3.1787e-06	1047.9	193.81	3.5524e-06	2.5581e-06	253.01	72.335	54.524	15.557	2.8741e-06	22.469	420.613	261.206	260.654	183.620	336.718	354.911	183.580	191.184	299.729	313.102	191.138	197.357	197.326	204.986	299.862	204.434	-8191	255	
934.605	1	1	0	0	0.063864	0.20839	0.12563	0.015887	0.10749	0.12262	0.25868	0.085634	0.051618	0.30628	0.23055	0.25347	0.033762	0.14867	0.28351	0.17317	-2.6479	-3.8896	-3.2833	-3.4979	-3.7812	-3.2646	-3.8042	-3.8312	-3.075	-3.9229	-3.4125	-3.3312	-4.0229	-3.1937	-3.525	-3.9521	302.287	198.876	319.283	196.733	459.532	285.453	458.397	185.459	194.547	240.569	506.173	483.646	358.251	180.516	304.219	403.754	0.00081132	0.00027927	7.0215e-05	952.03	3.9337e-06	2.27e-06	1067.7	197.39	5.318e-06	2.1371e-06	256	72.838	55.823	15.508	2.7056e-06	22.439	0.00037451	0.00023502	6.4289e-05	929.45	2.6251e-06	3.1716e-06	1046	193.59	3.1481e-06	2.5764e-06	253.16	72.089	54.877	15.57	2.4251e-06	22.503	416.387	252.664	277.695	183.845	317.382	313.485	183.602	191.229	319.443	315.051	190.991	197.891	197.717	205.594	302.776	205.362	-8191	255	
934.701	1	1	0	0	0.14868	0.189	0.18817	0.1079	0.12586	0.18929	0.25937	0.29325	0.11393	0.11025	0.013401	0.035507	0.0847	0.25166	0.12322	0.20219	-2.75	-3.5167	-3.5	-3.1917	-3.7896	-3.4688	-3.5792	-4.0021	-3.0812	-3.7146	-3.5271	-3.2188	-3.8063	-3.4771	-3.3937	-4.0208	211.563	204.768	274.111	309.378	214.350	344.792	515.563	447.927	386.489	211.226	474.340	525.945	464.705	529.892	181.278	508.346	0.00078727	0.00025943	7.3706e-05	950.19	2.3928e-06	2.1407e-06	1063.2	197.22	7.984e-06	2.9488e-06	257.59	72.159	55.648	15.501	4.0003e-06	22.415	0.00035827	0.00025237	7.1669e-05	931.65	2.5011e-06	2.8125e-06	1042.8	193.53	3.4662e-06	2.9177e-06	253.58	71.96	54.726	15.547	2.7329e-06	22.541	420.782	270.082	277.265	184.081	338.312	336.778	183.822	191.369	308.471	315.747	190.727	197.919	197.835	205.434	312.554	204.759	-8191	255	
934.797	1	1	0	0	0.12309	0.035431	0.11337	0.082943	0.1208	0.11459	0.20369	0.19507	0.12613	0.12307	0.1192	0.099887	0.29692	0.21592	0.31891	0.26648	-2.8208	-3.6958	-3.575	-3.0583	-3.6917	-3.4417	-3.4	-3.9229	-3.2042	-3.3438	-3.9146	-2.9813	-3.8396	-3.3729	-3.1417	-3.8479	337.383	440.664	418.062	483.522	230.444	376.736	456.740	204.528	368.116	410.439	458.388	392.647	461.481	265.237	304.998	192.519	0.0008308	0.0002517	8.6534e-05	948.44	3.7888e-06	2.4422e-06	1063.7	196.12	5.9495e-06	2.8401e-06	256.38	72.478	55.535	15.558	4.2194e-06	22.334	0.00035148	0.00022438	7.2499e-05	929.1	2.9603e-06	2.7289e-06	1045.6	193.34	3.1998e-06	3.0499e-06	252.94	71.886	54.743	15.576	2.7275e-06	22.451	420.906	244.732	273.219	184.018	313.831	327.381	183.827	191.280	304.399	320.689	190.869	197.784	197.418	205.756	320.259	205.229	-8191	255	
934.918	1	1	0	0	0.27683	0.057202	0.11231	0.11168	0.2812	0.1561	0.30134	0.27251	0.17222	0.16991	0.035341	0.14366	0.086933	0.076443	0.1112	0.24646	-2.6375	-3.4062	-3.9042	-2.9708	-3.7	-3.5187	-3.3146	-4.0229	-3.2042	-3.4292	-3.8771	-3.1979	-3.7313	-3.5396	-3.1292	-3.9146	499.599	360.188	518.193	178.082	263.084	517.839	218.517	467.063	466.132	455.094	296.776	354.144	340.178	203.441	295.461	352.701	0.00079134	0.0002161	8.6405e-05	945.15	3.1311e-06	2.4944e-06	1063.8	196.41	7.3734e-06	2.4275e-06	255.5	71.989	55.828	15.457	2.943e-06	22.018	0.00036766	0.00028823	7.5076e-05	927.75	2.9677e-06	2.7076e-06	1043.6	193.16	3.5202e-06	2.881e-06	252.86	71.619	54.586	15.553	2.7679e-06	22.421	423.767	272.235	278.514	184.074	299.518	318.725	183.868	191.394	299.223	326.705	191.204	197.520	197.581	205.863	293.427	205.026	-8191	255	
934.989	1	1	0	0	0.084581	0.16772	0.014613	0.13362	0.11009	0.063095	0.32334	0.14027	0.050345	0.24406	0.04194	0.15934	0.20622	0.21232	0.042026	0.23854	-2.725	-3.2313	-3.7979	-3.125	-3.6479	-3.7125	-3.4437	-3.9688	-3.3271	-3.3771	-3.8292	-3.1854	-3.6521	-3.6312	-3.1521	-3.9625	311.431	412.965	258.674	214.319	439.319	524.596	492.152	279.949	188.553	438.553	364.986	530.170	259.077	356.690	487.148	478.934	0.00086985	0.0002469	9.0237e-05	946.65	3.4237e-06	2.664e-06	1059.8	196.16	6.5063e-06	2.2961e-06	255.49	72.542	54.896	15.44	3.4863e-06	22.252	0.00037231	0.00023138	6.3764e-05	927.56	2.8186e-06	2.4605e-06	1041	193.4	3.3434e-06	2.6333e-06	252.46	71.795	54.517	15.485	3.315e-06	22.471	421.245	249.403	267.474	183.872	316.721	301.293	183.984	191.450	295.129	327.029	191.141	197.798	197.966	205.610	315.203	205.392	-8191	255	
935.086	1	1	0	0	0.15774	0.13006	0.16645	0.12548	0.062338	0.090541	0.31193	0.066213	0.076062	0.14707	0.16022	0.12668	0.25442	0.16893	0.11585	0.18793	-3.025	-3.2542	-3.8396	-3.2021	-3.55	-3.7146	-3.425	-3.9125	-3.2271	-3.2479	-4.0458	-3.3	-3.5646	-3.7167	-3.0271	-3.8125	510.277	183.025	466.851	514.564	427.060	458.845	465.379	418.984	510.882	245.854	414.071	523.607	388.000	486.419	511.458	315.721	0.00080424	0.00030875	4.1988e-05	945.22	4.0024e-06	2.7338e-06	1059.5	195.03	6.1493e-06	2.992e-06	254.91	72.407	55.251	15.364	3.1164e-06	22.233	0.00035984	0.0002948	4.9832e-05	925.33	3.0297e-06	2.2151e-06	1041.7	192.64	2.9931e-06	3.048e-06	252.15	71.949	54.466	15.522	2.8633e-06	22.37	421.353	261.850	261.850	183.319	322.245	333.774	183.806	191.538	297.817	321.561	191.262	197.714	198.344	205.710	302.096	204.871	-8191	255	
935.182	1	1	0	0	0.095623	0.11787	0.16317	0.14668	0.18552	0.099834	0.33938	0.12785	0.20925	0.20899	0.039228	0.088934	0.068105	0.18625	0.07897	0.13731	-3.0125	-3.175	-3.9688	-3.2875	-3.3896	-3.8396	-3.0667	-3.7333	-3.4688	-3.1688	-3.9	-3.2687	-3.3312	-3.9229	-3.1708	-3.7646	370.553	203.778	476.520	434.153	300.757	389.487	498.313	355.351	225.819	271.828	481.327	418.648	236.300	230.889	497.715	479.178	0.00072834	0.00027884	9.3582e-05	947.91	1.6801e-06	1.9019e-06	1063	196.43	5.7191e-06	3.5925e-06	255.53	72.513	55.692	15.59	4.608e-06	22.26	0.00034121	0.00027992	5.9746e-05	926.59	2.6916e-06	2.1387e-06	1040.3	193.08	2.8633e-06	3.4939e-06	252.21	71.877	54.604	15.548	3.2021e-06	22.519	421.805	265.564	265.844	184.015	314.004	325.874	183.916	191.768	312.891	320.858	191.160	198.019	198.059	206.049	325.876	205.254	-8191	255	
935.302	1	1	0	0	0.16896	0.21085	0.037617	0.13306	0.094276	0.039001	0.30195	0.11969	0.052959	0.15285	0.24184	0.33393	0.15661	0.079699	0.17303	0.03091	-3.3896	-3.2562	-3.8583	-3.2771	-3.2083	-3.75	-3.2458	-3.6833	-3.6312	-3.1625	-3.9229	-3.4771	-3.0938	-3.9521	-3.0229	-3.7	311.597	407.885	432.194	199.685	400.560	231.328	199.914	423.383	446.029	212.786	275.305	416.333	289.679	239.341	361.300	477.317	0.00086684	0.00030372	7.7287e-05	942.12	2.811e-06	2.4655e-06	1061.5	195	8.111e-06	3.6902e-06	253.68	72.3	55.173	15.46	2.8318e-06	22.401	0.00036747	0.00028284	6.3808e-05	923.64	3.7517e-06	2.4089e-06	1039.6	193.07	3.2021e-06	3.9509e-06	251.8	71.715	54.492	15.483	2.4788e-06	22.442	421.642	278.045	273.654	184.251	299.025	330.126	183.913	191.630	292.142	318.090	191.169	197.701	197.611	205.766	302.736	205.550	-8191	255	
935.398	1	1	0	0	0.24615	0.23399	0.095235	0.080192	0.14335	0.055297	0.14887	0.097681	0.17076	0.079412	0.055541	0.20482	0.13234	0.11636	0.08387	0.25925	-3.3958	-2.9646	-3.9188	-3.6063	-3.1667	-3.9479	-3.3812	-3.5687	-3.8312	-3.1604	-3.9646	-3.7542	-2.9271	-3.8521	-3.2958	-3.4021	244.612	322.324	196.063	439.327	406.627	523.664	495.466	459.098	494.347	422.004	305.032	460.003	345.586	298.929	320.228	476.247	0.00076824	0.00018835	6.4969e-05	943.53	1.1823e-06	2.1382e-06	1054.2	195.75	6.61e-06	2.17e-06	254.12	72.164	55.119	15.46	3.82e-06	22.237	0.00033035	0.00028517	5.468e-05	924.7	2.9514e-06	1.92e-06	1039.1	193.05	2.9506e-06	2.8058e-06	251.82	71.679	54.479	15.516	3.1362e-06	22.455	418.415	257.637	261.339	184.098	290.307	328.326	183.981	191.716	301.674	309.637	191.564	197.990	197.942	205.680	296.930	205.169	-8191	255	
935.495	1	1	0	0	0.12787	0.13803	0.10415	0.097475	0.029772	0.10125	0.39161	0.086624	0.2366	0.077811	0.2929	0.37681	0.11585	0.076212	0.19436	0.12051	-3.5042	-3.2771	-3.7854	-3.6729	-3.0708	-3.7354	-3.3812	-3.4646	-3.8417	-3.1417	-3.875	-3.8625	-3.0604	-3.7771	-3.2562	-3.4229	248.714	256.654	512.849	380.958	365.666	293.507	462.997	530.632	429.003	376.694	292.039	405.997	462.810	447.586	479.931	263.759	0.00079073	0.00025662	8.5999e-05	947.1	3.1017e-06	3.0534e-06	1064	195.72	5.5767e-06	3.1077e-06	255.6	72.019	55.43	15.473	3.9996e-06	22.272	0.00035118	0.00029232	6.7127e-05	925.18	3.1478e-06	2.9831e-06	1040.4	192.8	2.815e-06	3.2462e-06	252	71.665	54.563	15.516	2.6576e-06	22.432	423.515	298.802	255.510	184.011	305.379	335.130	183.915	191.748	302.553	320.871	191.202	198.432	197.979	206.108	298.524	205.499	-8191	255	
935.591	1	1	0	0	0.12027	0.15539	0.093908	0.21874	0.12253	0.14306	0.32571	0.048723	0.037849	0.18452	0.26295	0.09347	0.22356	0.18036	0.11671	0.14488	-3.5542	-3.1042	-3.675	-3.7292	-3.0917	-3.7458	-3.5792	-3.3625	-3.9917	-3.2292	-3.6792	-3.6646	-3.0667	-3.7833	-3.3042	-3.0854	294.214	532.333	497.400	436.250	392.378	193.557	413.986	285.027	371.744	372.134	495.780	455.194	475.057	197.690	306.302	480.238	0.00083451	0.00022977	7.6637e-05	942.99	2.7153e-06	3.0363e-06	1058.1	196.06	5.6396e-06	3.1506e-06	253.33	72.721	55.163	15.62	3.0141e-06	22.189	0.00035607	0.00025689	6.2542e-05	925.38	3.452e-06	2.6045e-06	1040.1	192.87	2.7748e-06	3.4664e-06	251.25	71.902	54.395	15.508	2.4708e-06	22.41	421.997	268.563	267.459	183.537	314.517	313.258	184.000	191.712	307.639	345.044	191.447	197.994	197.965	206.462	309.876	205.364	-8191	255	
935.685	1	1	0	0	0.11495	0.091949	0.28414	0.088901	0.1768	0.16947	0.074012	0.08465	0.098152	0.10411	0.21467	0.10826	0.27441	0.30924	0.089078	0.20682	-3.5062	-3.2542	-3.4583	-3.7833	-3.0938	-3.7583	-3.7125	-3.3646	-3.9083	-3.2438	-3.425	-4.0229	-3.2479	-3.8312	-3.6292	-3.3063	182.821	469.611	217.790	510.990	223.734	380.677	223.671	215.203	455.577	202.044	444.832	392.116	199.113	258.076	418.052	244.227	0.00076124	0.00026343	7.2252e-05	947.1	3.2992e-06	2.4653e-06	1068.9	196.02	9.7936e-06	2.6456e-06	255.71	72.163	55.679	15.427	2.381e-06	22.283	0.00034575	0.00027234	7.5338e-05	923.84	3.3737e-06	2.2151e-06	1043	193.26	3.0608e-06	3.0554e-06	252.36	71.718	54.44	15.487	2.6173e-06	22.412	419.919	260.220	274.023	183.821	305.044	337.827	183.476	191.604	298.218	328.053	191.176	197.779	198.413	206.079	322.472	205.378	-8191	255	
935.783	1	1	0	0	0.18005	0.19104	0.26607	0.18709	0.32172	0.16167	0.16024	0.17961	0.066268	0.074438	0.19191	0.098626	0.1679	0.067021	0.19526	0.17353	-3.5771	-3.1729	-3.2917	-3.85	-3.1375	-3.6271	-3.8312	-3.2479	-3.7396	-3.2938	-3.3896	-3.9854	-3.1312	-3.5792	-3.6646	-3.1542	424.039	188.116	411.278	402.941	515.626	235.976	446.502	468.194	208.456	335.569	488.478	531.215	195.023	202.382	425.356	327.821	0.00078644	0.00036684	5.9691e-05	939.98	1.865e-06	3.5944e-06	1060.2	195.98	7.3344e-06	2.9965e-06	255.96	72.313	55.199	15.526	2.5297e-06	22.316	0.00032175	0.00026768	7.2281e-05	923.56	3.198e-06	2.6045e-06	1040.2	193.14	3.0447e-06	2.5874e-06	252.69	71.781	54.34	15.549	2.6186e-06	22.417	422.813	283.164	272.529	183.902	293.240	323.724	183.249	191.173	300.750	337.367	191.297	197.716	197.871	205.804	307.554	204.926	-8191	255	
935.902	1	1	0	0	0.15258	0.1104	0.060271	0.042608	0.25235	0.15387	0.1876	0.13146	0.054488	0.34123	0.32017	0.23564	0.18443	0.096	0.16397	0.1271	-3.5125	-3.2833	-3.325	-3.9667	-3.15	-3.65	-3.8167	-3.0729	-3.7021	-3.5438	-3.35	-4.0375	-3.1854	-3.4708	-3.7667	-3.0833	335.216	390.541	285.256	195.826	271.910	426.124	472.335	188.335	426.918	411.930	475.692	510.848	342.295	382.365	285.075	387.984	0.00081569	0.00031666	0.00010065	951.88	1.316e-06	2.9489e-06	1062.7	195.89	7.1331e-06	2.0251e-06	254.53	71.821	55.386	15.496	2.0608e-06	22.261	0.00034077	0.00027672	7.857e-05	928.63	2.9367e-06	3.0969e-06	1043	192.97	2.9954e-06	2.6608e-06	252.45	71.617	54.434	15.537	2.1011e-06	22.456	422.690	257.759	268.021	183.501	316.510	320.304	183.970	191.422	300.876	348.905	190.803	197.465	197.984	205.745	309.391	204.853	-8191	255	
935.998	1	1	0	0	0.101	0.14148	0.11254	0.19107	0.17514	0.071634	0.23722	0.21532	0.20168	0.23758	0.14893	0.083339	0.12673	0.17429	0.13199	0.14601	-3.4479	-3.5062	-3.0521	-3.9083	-3.2979	-3.4771	-4.0167	-3.0708	-3.825	-3.6271	-3.0646	-3.9979	-3.4042	-3.3125	-3.75	-3.1208	233.670	301.884	436.177	502.920	529.247	398.060	395.171	427.964	471.822	309.497	402.626	451.959	256.931	238.265	229.425	177.622	0.00077993	0.00022013	9.1735e-05	946.02	3.1497e-06	2.8563e-06	1065.6	195.61	5.9804e-06	2.2092e-06	255.73	72.461	54.881	15.415	2.9743e-06	22.242	0.00034316	0.00024406	8.3156e-05	927.19	2.9514e-06	3.4934e-06	1042.5	192.88	3.0643e-06	2.3379e-06	252.79	71.906	54.512	15.522	2.1656e-06	22.43	425.133	276.619	267.672	183.430	306.215	334.651	183.711	191.291	291.978	333.608	191.075	197.793	197.952	205.890	305.001	204.988	-8191	255	
#DATA ENDS
