BOXY.EXE: ISS Imagent and Oximeter Data Acquisition Program Version 0.80
Ascii Record File

#ACQ INFORMATION
2  Detector Channels 
16  External MUX Channels 
1  Auxiliary Channels 
5000  Waveform (CCF) Frequency (Hz)
1  Waveforms Skipped 
30  Waveforms Averaged 
1  Cycles Averaged 
16  Acquisitions per Waveform 
10.0806  Updata Rate (Hz) 

#FILE INFORMATION
TRUE -- External MUX Channel results are PARSED.
FALSE -- AC DC and Phase are NOT grouped.
TRUE -- Companion Program Settings File CREATED.
FALSE -- AC data not excluded
FALSE -- DC data not excluded
FALSE -- Phase data not excluded
FALSE -- Auxillary Chn. data not excluded
Tab delimiters

#CALIBRATION STATE
TRUE -- Waveform Calibration Values APPLIED.


#AUX CALIBRATION VALUES
Val Type	aux-1	

Term	1.0000e+00	
Factor	0.0000e+00	


#WF CALIBRATION VALUES
A = Detector Channel
Val Type	A-AC1	A-AC2	A-AC3	A-AC4	A-AC5	A-AC6	A-AC7	A-AC8	A-AC9	A-AC10	A-AC11	A-AC12	A-AC13	A-AC14	A-AC15	A-AC16	A-DC1	A-DC2	A-DC3	A-DC4	A-DC5	A-DC6	A-DC7	A-DC8	A-DC9	A-DC10	A-DC11	A-DC12	A-DC13	A-DC14	A-DC15	A-DC16	A-Ph1	A-Ph2	A-Ph3	A-Ph4	A-Ph5	A-Ph6	A-Ph7	A-Ph8	A-Ph9	A-Ph10	A-Ph11	A-Ph12	A-Ph13	A-Ph14	A-Ph15	A-Ph16	

Term	0.00000e+00	0.00000e+00	0.00000e+00	0.00000e+00	0.00000e+00	0.00000e+00	0.00000e+00	0.00000e+00	0.00000e+00	0.00000e+00	0.00000e+00	0.00000e+00	0.00000e+00	0.00000e+00	0.00000e+00	0.00000e+00	0.00000e+00	0.00000e+00	0.00000e+00	0.00000e+00	0.00000e+00	0.00000e+00	0.00000e+00	0.00000e+00	0.00000e+00	0.00000e+00	0.00000e+00	0.00000e+00	0.00000e+00	0.00000e+00	0.00000e+00	0.00000e+00	0.00000e+00	0.00000e+00	0.00000e+00	0.00000e+00	0.00000e+00	0.00000e+00	0.00000e+00	0.00000e+00	0.00000e+00	0.00000e+00	0.00000e+00	0.00000e+00	0.00000e+00	0.00000e+00	0.00000e+00	0.00000e+00	
Factor	1.00000e+00	1.00000e+00	1.00000e+00	1.00000e+00	1.00000e+00	1.00000e+00	1.00000e+00	1.00000e+00	1.00000e+00	1.00000e+00	1.00000e+00	1.00000e+00	1.00000e+00	1.00000e+00	1.00000e+00	1.00000e+00	1.00000e+00	1.00000e+00	1.00000e+00	1.00000e+00	1.00000e+00	1.00000e+00	1.00000e+00	1.00000e+00	1.00000e+00	1.00000e+00	1.00000e+00	1.00000e+00	1.00000e+00	1.00000e+00	1.00000e+00	1.00000e+00	X	X	X	X	X	X	X	X	X	X	X	X	X	X	X	X	

B = Detector Channel
Val Type	B-AC1	B-AC2	B-AC3	B-AC4	B-AC5	B-AC6	B-AC7	B-AC8	B-AC9	B-AC10	B-AC11	B-AC12	B-AC13	B-AC14	B-AC15	B-AC16	B-DC1	B-DC2	B-DC3	B-DC4	B-DC5	B-DC6	B-DC7	B-DC8	B-DC9	B-DC10	B-DC11	B-DC12	B-DC13	B-DC14	B-DC15	B-DC16	B-Ph1	B-Ph2	B-Ph3	B-Ph4	B-Ph5	B-Ph6	B-Ph7	B-Ph8	B-Ph9	B-Ph10	B-Ph11	B-Ph12	B-Ph13	B-Ph14	B-Ph15	B-Ph16	

Term	0.00000e+00	0.00000e+00	0.00000e+00	0.00000e+00	0.00000e+00	0.00000e+00	0.00000e+00	0.00000e+00	0.00000e+00	0.00000e+00	0.00000e+00	0.00000e+00	0.00000e+00	0.00000e+00	0.00000e+00	0.00000e+00	0.00000e+00	0.00000e+00	0.00000e+00	0.00000e+00	0.00000e+00	0.00000e+00	0.00000e+00	0.00000e+00	0.00000e+00	0.00000e+00	0.00000e+00	0.00000e+00	0.00000e+00	0.00000e+00	0.00000e+00	0.00000e+00	-1.27282e+02	-1.30498e+02	-1.26606e+02	-1.82720e+02	-7.04405e+01	-6.88341e+01	-1.60843e+02	-1.62015e+02	-7.31909e+01	-6.92541e+01	-1.72572e+02	-1.72955e+02	-1.82795e+02	-1.78089e+02	-7.17232e+01	-1.50939e+02	
Factor	1.93131e-05	1.69621e-04	4.86892e-05	1.65898e-01	1.33105e-06	1.92021e-06	1.95781e-01	6.11879e-02	1.30919e-06	1.87107e-06	9.62612e-02	3.22527e-02	2.98245e-02	9.98308e-03	1.50668e-06	1.45378e-02	1.28716e-05	2.34187e-05	6.58817e-06	8.38859e-02	2.30464e-07	2.64030e-07	9.33801e-02	3.11235e-02	2.35691e-07	2.61591e-07	4.74826e-02	1.59974e-02	1.53938e-02	5.11434e-03	2.44169e-07	7.23425e-03	X	X	X	X	X	X	X	X	X	X	X	X	X	X	X	X	



#DISTANCE SETTINGS
A = Detector Channel
A-1	A-2	A-3	A-4	A-5	A-6	A-7	A-8	A-9	A-10	A-11	A-12	A-13	A-14	A-15	A-16	

2.5000e+00	3.0000e+00	2.5000e+00	3.0000e+00	2.0000e+00	3.0000e+00	1.5000e+00	3.0000e+00	3.0000e+00	3.0000e+00	3.0000e+00	3.0000e+00	3.0000e+00	3.0000e+00	1.5000e+00	3.0000e+00	

B = Detector Channel
B-1	B-2	B-3	B-4	B-5	B-6	B-7	B-8	B-9	B-10	B-11	B-12	B-13	B-14	B-15	B-16	

1.0000e+01	1.0000e+01	1.0000e+01	1.4400e+00	1.0000e+01	1.0000e+01	1.5100e+00	1.9400e+00	1.0000e+01	1.0000e+01	1.9900e+00	2.4900e+00	2.4100e+00	2.9000e+00	1.0000e+01	2.9800e+00	




#DATA BEGINS
time	group	step	mark	flag	A-AC1	A-AC2	A-AC3	A-AC4	A-AC5	A-AC6	A-AC7	A-AC8	A-AC9	A-AC10	A-AC11	A-AC12	A-AC13	A-AC14	A-AC15	A-AC16	A-DC1	A-DC2	A-DC3	A-DC4	A-DC5	A-DC6	A-DC7	A-DC8	A-DC9	A-DC10	A-DC11	A-DC12	A-DC13	A-DC14	A-DC15	A-DC16	A-Ph1	A-Ph2	A-Ph3	A-Ph4	A-Ph5	A-Ph6	A-Ph7	A-Ph8	A-Ph9	A-Ph10	A-Ph11	A-Ph12	A-Ph13	A-Ph14	A-Ph15	A-Ph16	B-AC1	B-AC2	B-AC3	B-AC4	B-AC5	B-AC6	B-AC7	B-AC8	B-AC9	B-AC10	B-AC11	B-AC12	B-AC13	B-AC14	B-AC15	B-AC16	B-DC1	B-DC2	B-DC3	B-DC4	B-DC5	B-DC6	B-DC7	B-DC8	B-DC9	B-DC10	B-DC11	B-DC12	B-DC13	B-DC14	B-DC15	B-DC16	B-Ph1	B-Ph2	B-Ph3	B-Ph4	B-Ph5	B-Ph6	B-Ph7	B-Ph8	B-Ph9	B-Ph10	B-Ph11	B-Ph12	B-Ph13	B-Ph14	B-Ph15	B-Ph16	aux-1	digaux	

15361.009	1	1	0	256	0.22607	0.10924	0.18105	0.093803	0.10687	0.055084	0.088331	0.13965	0.15805	0.18154	0.19328	0.24867	0.16028	0.19241	0.080896	0.16625	-2.2313	-2.8333	-2.8854	-2.7	-2.7521	-2.9292	-2.7354	-3.2	-2.8729	-2.6729	-3.0687	-2.6479	-2.9229	-3.1167	-2.5062	-3.0271	147.209	86.910	-32.828	275.268	96.945	256.198	176.154	275.685	-14.379	198.705	236.614	-70.069	-10.270	176.570	260.285	52.744	0.00014821	0.00087033	0.00029836	795.74	5.5763e-06	3.6198e-06	786.4	198.97	5.0599e-06	1.4265e-06	245.21	97.553	75.619	30.819	1.8271e-06	42.185	0.0050692	0.0088816	0.0024715	804.48	8.5606e-05	9.7679e-05	797.22	206.68	8.555e-05	9.5614e-05	255.83	102.47	80.951	32.375	8.8715e-05	44.448	177.538	43.632	27.873	-58.851	-10.485	98.194	-59.978	-52.908	80.175	9.549	-54.707	-49.700	-47.592	-42.569	187.108	-45.198	-8191	255	
15361.105	1	1	0	0	0.030312	0.045689	0.064483	0.1279	0.22086	0.063855	0.11224	0.26024	0.17324	0.23591	0.081615	0.16511	0.15875	0.27047	0.092997	0.075858	-2.3979	-2.7687	-2.9688	-2.6688	-2.9396	-2.8271	-2.8438	-3.075	-2.9167	-2.7417	-3.0604	-2.7896	-2.8583	-3	-2.6625	-3.075	-12.164	12.998	-12.207	233.101	101.903	4.853	-46.068	9.722	18.029	-58.469	167.894	-44.250	212.256	269.158	149.195	107.832	0.00013257	0.0007375	9.5699e-05	794.66	2.3761e-06	1.0419e-05	778.97	198.96	2.3503e-06	2.6597e-06	244.28	97.558	75.865	30.884	7.1894e-07	42.479	0.0047827	0.0083052	0.0023538	800.99	8.2703e-05	9.2866e-05	794.35	206.26	8.3719e-05	9.2298e-05	254.91	102.72	80.897	32.286	8.581e-05	44.439	191.457	35.273	105.735	-58.694	114.727	111.543	-60.370	-52.749	-28.053	91.735	-54.476	-49.668	-47.441	-42.569	70.846	-45.093	-8191	255	
15361.225	1	1	0	0	0.13135	0.24404	0.2487	0.33244	0.1559	0.10933	0.10392	0.24298	0.1404	0.30564	0.089222	0.10802	0.094602	0.3213	0.32925	0.22125	-2.3083	-2.6771	-2.9417	-2.8396	-2.9583	-3.0771	-2.7313	-2.8812	-2.9646	-2.6208	-3.1729	-2.7604	-2.9333	-3.1208	-2.5729	-3.15	145.601	129.447	-43.489	-26.244	82.753	-25.611	-56.466	288.649	137.239	186.870	197.250	179.313	12.634	198.693	-49.408	179.905	0.00017362	0.00043176	0.00028297	793.17	2.4317e-06	4.0825e-06	781.23	198.6	8.1235e-07	5.5259e-06	245.29	97.88	76.055	30.694	4.0501e-07	42.782	0.0046242	0.0080409	0.0022964	799.78	7.9845e-05	9.1567e-05	795.52	206.02	8.1177e-05	9.0307e-05	254.66	102.77	80.917	32.086	8.2377e-05	44.5	176.143	-44.242	40.798	-58.848	124.537	176.986	-59.653	-52.562	3.313	-27.568	-54.637	-49.964	-47.826	-42.371	162.457	-45.275	-8191	255	
15361.322	1	1	0	0	0.048974	0.10036	0.30455	0.20057	0.23396	0.3324	0.10108	0.10616	0.11969	0.33188	0.12262	0.23677	0.1638	0.26655	0.022832	0.29566	-2.6042	-2.5396	-3.1646	-2.8438	-2.8083	-3.0896	-2.7687	-2.9083	-2.9792	-2.525	-3.0854	-2.7583	-2.7562	-2.9229	-2.6104	-2.9313	18.441	-36.386	113.696	70.726	28.578	-69.375	-56.954	216.920	-64.644	206.120	240.954	234.987	187.284	281.935	167.082	47.718	0.00012034	0.00089754	6.8771e-05	793.92	4.9174e-06	7.5206e-06	789.21	199.15	4.9475e-06	5.522e-06	244.34	98.529	76.431	30.69	2.245e-06	42.149	0.0044961	0.0078497	0.0022408	799.45	7.8391e-05	8.7786e-05	797.23	205.59	7.8488e-05	8.7238e-05	254.19	102.88	80.779	32.083	8.0936e-05	44.079	194.271	119.912	-58.608	-59.053	87.008	81.988	-59.807	-52.396	134.074	97.935	-54.689	-49.872	-47.653	-42.586	-37.559	-45.075	-8191	255	
15361.418	1	1	0	0	0.25943	0.23198	0.27744	0.23235	0.037804	0.33349	0.14681	0.11572	0.035236	0.15969	0.14246	0.31565	0.11935	0.21991	0.20847	0.098828	-2.6437	-2.65	-3.0958	-2.95	-2.6583	-3.0354	-2.8625	-2.6958	-2.9729	-2.7687	-3.0854	-2.9062	-2.7188	-3.0771	-2.6479	-2.8104	220.022	286.651	22.612	267.023	148.479	224.048	140.396	-43.131	25.662	149.520	189.989	258.819	111.326	-57.879	117.363	13.767	0.00014409	0.00054991	0.00019585	788.97	4.2075e-06	6.4672e-06	779.39	197.72	5.212e-06	4.1198e-06	241.43	97.861	76.158	30.38	5.4073e-06	42.154	0.004387	0.0077559	0.0022281	795.83	7.7926e-05	8.8011e-05	789.1	204.07	7.9506e-05	8.766e-05	252.18	102.25	80.575	31.79	8.2188e-05	43.882	146.917	172.848	-14.110	-58.686	110.004	215.066	-60.169	-53.121	178.956	210.733	-54.861	-49.907	-47.548	-42.087	75.122	-45.237	-8191	255	
15361.514	1	1	0	0	0.1898	0.15308	0.24413	0.2869	0.21951	0.037157	0.083626	0.26196	0.24076	0.16533	0.14056	0.24986	0.11262	0.059509	0.12208	0.047547	-2.4208	-2.5792	-2.8792	-2.9271	-2.7938	-3.1104	-2.8396	-2.8917	-2.9813	-2.7333	-3.0875	-2.8708	-2.5979	-3.125	-2.6729	-3.0146	113.223	35.500	216.277	247.844	16.938	110.471	-40.691	58.062	30.820	121.568	198.738	95.346	204.755	218.744	217.387	236.808	0.00014861	0.00028477	0.00020351	789.08	3.8171e-06	8.9218e-06	777.87	198.91	1.5785e-07	8.3334e-06	244.22	98.909	76.745	30.502	6.513e-06	42.191	0.0044035	0.00781	0.0022226	794	7.7875e-05	8.7791e-05	787.62	204.29	7.8002e-05	8.6432e-05	253.44	102.78	80.924	31.913	8.1481e-05	44.039	124.199	108.954	57.641	-58.726	91.230	170.091	-60.029	-52.724	138.734	26.597	-54.295	-49.904	-47.388	-42.567	-22.144	-45.107	-8191	255	
15361.608	1	1	0	0	0.19228	0.27966	0.061649	0.087031	0.16123	0.12323	0.22684	0.35253	0.18977	0.037859	0.035408	0.071623	0.3089	0.1771	0.12002	0.18855	-2.5958	-2.4875	-2.8792	-2.9979	-2.4479	-3.0062	-2.9208	-2.7646	-3.1063	-2.6729	-2.8667	-3.1188	-2.7167	-3.225	-2.8167	-2.8729	197.231	185.067	141.411	101.325	-21.194	107.449	97.248	283.965	184.751	-16.552	132.949	-53.744	175.664	262.497	76.101	36.977	6.982e-05	0.00078774	0.00014651	789.88	4.3235e-06	4.5809e-06	775.63	197.27	3.0206e-06	5.2948e-06	243.8	98.77	76.595	30.593	4.39e-06	42.51	0.0043119	0.0077687	0.0021863	792.67	7.491e-05	8.5611e-05	787.87	204.08	7.807e-05	8.7051e-05	254.51	103.3	81.293	32.046	8.1754e-05	44.289	167.118	13.569	59.818	-58.931	98.654	10.637	-60.118	-52.794	138.565	60.909	-54.470	-50.044	-47.823	-42.525	-40.605	-45.509	-8191	255	
15361.706	1	1	0	0	0.031129	0.073149	0.15709	0.087215	0.037631	0.22298	0.14504	0.094163	0.041911	0.055285	0.21122	0.20182	0.20832	0.061639	0.04971	0.035437	-2.6688	-2.6937	-2.8771	-3.0687	-2.5229	-3.0375	-2.8521	-2.6583	-3.0125	-2.6354	-2.8729	-3.1021	-2.6792	-3.1208	-2.8521	-2.7542	152.633	193.685	12.059	241.533	159.687	-40.251	148.145	153.715	217.277	129.037	266.405	230.314	126.863	193.429	-4.000	70.388	0.00013314	0.00031513	0.00021993	787.02	4.9503e-06	1.2115e-05	777.69	198.36	2.4399e-06	3.4786e-06	246.06	99.749	77.142	30.761	3.5427e-06	42.462	0.0043431	0.0078311	0.0022008	792.31	7.6054e-05	8.7353e-05	790.62	204.62	7.8434e-05	8.6488e-05	254.82	103.67	81.428	32.119	7.9314e-05	44.135	160.216	24.774	8.043	-58.992	39.392	92.646	-60.023	-52.414	89.420	263.354	-54.180	-49.303	-47.889	-42.206	120.151	-44.995	-8191	255	
15361.825	1	1	0	0	0.075658	0.020349	0.49069	0.072947	0.064369	0.28713	0.071951	0.21246	0.025198	0.083773	0.13694	0.083978	0.3554	0.16961	0.13741	0.26938	-2.6458	-2.7854	-2.7396	-3.0812	-2.6792	-2.9562	-3.1292	-2.7625	-2.9062	-2.9958	-2.8688	-3.1604	-2.6437	-2.8625	-3.1646	-2.7646	43.779	154.957	200.988	-18.460	37.844	232.763	173.603	-66.220	68.749	68.719	254.551	2.831	-15.685	14.109	82.244	254.656	0.00020038	0.00040984	0.00032379	782.88	2.8839e-06	5.8539e-06	767.78	198.11	1.2787e-06	5.1281e-06	242.42	99.396	76.475	30.524	3.5789e-06	42.129	0.0042821	0.0075885	0.0021359	788.94	7.5752e-05	8.7466e-05	781.26	203.6	7.7915e-05	8.6453e-05	252.38	103.18	81.194	31.902	7.9689e-05	43.973	169.389	-15.049	25.741	-59.126	215.794	173.297	-60.006	-52.629	134.211	49.139	-54.402	-49.907	-47.810	-42.157	46.132	-45.309	-8191	255	
15361.921	1	1	0	0	0.093378	0.11038	0.22682	0.36001	0.12448	0.1905	0.31897	0.56852	0.16641	0.014571	0.085636	0.16689	0.25378	0.094853	0.091835	0.22605	-2.5625	-2.8625	-2.7604	-3.1042	-2.7562	-2.9375	-3.0354	-2.6063	-3.0396	-2.9688	-2.7333	-3.1771	-2.5042	-2.8583	-3.0542	-2.6771	221.175	196.313	72.711	285.173	155.290	171.607	180.836	237.861	-54.271	287.809	17.134	88.836	264.150	106.648	-8.759	62.049	0.00013338	0.00036893	0.0001583	781.77	2.5499e-06	4.4177e-06	771.96	196.41	3.9967e-06	9.4512e-06	243.25	98.706	77.258	30.665	6.2634e-06	42.042	0.0043133	0.0077271	0.0021168	786.49	7.5702e-05	8.6216e-05	780.84	203.16	7.7992e-05	8.5475e-05	252.84	103.32	81.62	31.921	8.0929e-05	44.012	149.437	-18.380	-53.576	-58.839	60.366	5.608	-60.183	-52.630	166.301	75.117	-54.822	-49.695	-47.401	-42.596	37.401	-45.273	-8191	255	
15362.017	1	1	0	0	0.042363	0.18696	0.14782	0.25971	0.095084	0.10075	0.086137	0.086812	0.069113	0.068794	0.19353	0.17589	0.090438	0.09273	0.057962	0.08126	-2.5521	-2.7438	-2.5583	-3.0667	-2.825	-2.8625	-3.0271	-2.7542	-2.8354	-2.975	-2.6896	-3.0812	-2.7125	-2.9271	-2.875	-2.5792	283.126	79.292	263.172	-23.642	120.576	190.697	-65.819	-4.887	257.157	31.162	109.949	-65.426	-48.899	184.868	-5.589	228.412	0.00010972	0.00042489	7.001e-05	787.09	2.1199e-06	7.408e-06	769.42	196.78	3.2749e-06	3.6436e-06	243.64	98.662	77.047	30.424	7.8232e-06	42.315	0.0043836	0.0078259	0.0021601	787.79	7.6738e-05	8.8889e-05	779.45	203.47	7.937e-05	8.7694e-05	253.17	103.45	81.312	31.909	8.2964e-05	44.175	100.618	284.328	18.663	-58.894	-59.769	22.031	-60.074	-52.136	272.795	15.455	-54.531	-49.381	-47.750	-42.163	13.473	-44.946	-8191	255	
15362.114	1	1	0	0	0.081477	0.31752	0.053372	0.12055	0.20447	0.22135	0.10895	0.30959	0.067518	0.1494	0.32316	0.18829	0.14185	0.095703	0.05438	0.053322	-2.4958	-2.8271	-2.6146	-3.0292	-2.6937	-2.7792	-2.9833	-2.7021	-3.0563	-2.9042	-2.5833	-3.1854	-2.7938	-2.6437	-3.1271	-2.8333	223.965	77.897	143.018	-50.626	44.668	178.721	281.919	215.635	78.096	-40.274	247.183	21.005	249.447	280.060	38.772	246.499	9.6117e-05	0.00059523	0.00017141	780.96	3.8715e-06	6.7177e-06	771.01	196.6	7.0931e-06	1.4439e-06	242.32	98.74	76.243	30.429	6.6776e-07	41.859	0.0044965	0.0080196	0.0021981	786.78	7.7353e-05	8.8176e-05	780.19	203.37	7.9741e-05	8.8519e-05	252.44	103.36	81.24	31.845	8.5605e-05	43.854	151.236	-21.019	117.377	-58.583	137.219	152.776	-60.135	-52.683	61.951	111.884	-54.419	-49.852	-47.521	-42.431	208.749	-45.182	-8191	255	
15362.210	1	1	0	0	0.036429	0.048048	0.20379	0.043439	0.087372	0.11365	0.077321	0.19254	0.19397	0.18277	0.04997	0.10324	0.088345	0.072057	0.0027305	0.26818	-2.3812	-2.9875	-2.4708	-3.2646	-2.8063	-2.5479	-3.2354	-2.7021	-2.7667	-2.9292	-2.6813	-3.0104	-2.7917	-2.6104	-3.0833	-2.6958	139.304	197.853	64.636	-14.090	123.150	275.468	-30.329	254.061	40.492	70.157	262.831	172.904	174.346	24.174	173.351	102.159	9.5468e-05	0.00014743	0.00012519	775.86	5.4544e-06	2.889e-06	762.41	194.09	3.0579e-06	1.4849e-05	237.58	97.046	75.64	30.144	3.0191e-06	41.491	0.0047172	0.0082911	0.0023329	785.82	8.2959e-05	9.3753e-05	774.55	202.21	8.4447e-05	9.4451e-05	250.06	101.98	80.681	31.61	8.8081e-05	43.479	187.263	-48.832	47.162	-58.773	26.143	127.232	-60.053	-52.923	68.244	73.170	-54.408	-49.614	-47.522	-42.395	26.591	-45.324	-8191	255	
15362.306	1	1	0	0	0.079236	0.13781	0.061036	0.30589	0.1926	0.20571	0.18621	0.015433	0.10421	0.045228	0.24151	0.14914	0.19181	0.21119	0.12674	0.11912	-2.4188	-2.9125	-2.3958	-3.0896	-3.0229	-2.7458	-3.3271	-2.8333	-2.8021	-3.0812	-2.6437	-3.0229	-2.8896	-2.6417	-3.275	-2.8917	82.179	68.586	71.275	280.891	-40.963	160.911	252.624	18.573	109.845	-37.863	153.307	197.981	-34.458	275.648	165.140	217.538	0.00013343	0.00093373	4.379e-05	775.53	5.4928e-06	1.9074e-06	758.21	194.92	4.586e-06	4.9718e-06	238.26	97.14	75.064	30.245	1.5229e-06	41.507	0.0048608	0.0084225	0.0024154	782.72	8.5253e-05	9.6329e-05	771.31	202.18	8.5514e-05	9.6059e-05	249.83	102.13	80.616	31.656	9.116e-05	43.688	145.714	48.554	7.100	-58.737	-18.530	62.166	-59.977	-52.754	-56.993	252.103	-54.508	-49.655	-47.422	-42.259	51.528	-45.279	-8191	255	
15362.402	1	1	0	0	0.22295	0.068033	0.20359	0.19219	0.07543	0.2524	0.10244	0.20367	0.067168	0.25788	0.13204	0.054451	0.069505	0.31593	0.22425	0.55524	-2.4042	-3.1021	-2.5771	-2.9729	-2.9042	-2.5875	-3.1063	-2.7812	-2.6833	-2.9188	-2.8521	-2.9771	-3.0604	-2.6729	-3.0292	-2.9083	37.185	288.960	135.753	212.126	287.579	-32.745	199.756	205.670	-43.022	283.297	287.697	57.722	255.872	-12.034	206.203	241.126	0.00012456	0.00070521	9.0729e-05	773.99	1.0409e-05	7.5808e-06	754.64	193.79	3.7868e-06	7.0903e-06	239.58	97.834	75.917	30.101	6.3087e-06	41.663	0.0049796	0.0087128	0.0025211	783.43	8.7919e-05	0.00010151	773.2	202.79	9.1715e-05	0.00010254	251.83	103.2	81.225	31.815	9.7875e-05	43.953	178.274	44.131	13.953	-58.812	75.913	1.978	-60.014	-52.766	91.307	264.735	-54.446	-49.669	-47.680	-42.381	12.423	-45.237	-8191	255	
15362.521	1	1	0	0	0.048702	0.092231	0.079294	0.22205	0.098456	0.089012	0.24263	0.1154	0.29117	0.11808	0.20343	0.11357	0.096685	0.18237	0.089472	0.25531	-2.0854	-2.9437	-2.6021	-2.9396	-2.9958	-2.6521	-2.9354	-2.8208	-2.6646	-2.9792	-2.6458	-2.8563	-3.0458	-2.5875	-2.9625	-2.8979	239.807	140.657	181.123	280.342	20.065	85.354	202.935	253.543	-33.687	156.855	171.090	-30.131	289.041	7.594	218.138	269.515	0.00014078	0.00012674	0.00016486	770.94	1.6629e-06	1.1235e-05	752.14	194.42	2.433e-06	8.0923e-06	238.51	97.049	76.012	30.303	5.6964e-06	41.705	0.0052655	0.0092552	0.002637	782.46	9.11e-05	0.00010476	771.74	203.29	9.2918e-05	0.00010509	252.17	103.06	81.557	32.01	9.8079e-05	43.959	194.999	240.017	57.805	-58.741	25.127	42.446	-59.958	-52.751	125.148	113.376	-54.279	-49.690	-47.150	-42.293	276.137	-45.467	-8191	255	
15362.617	1	1	0	0	0.2819	0.22553	0.12734	0.18271	0.17738	0.04347	0.12547	0.27119	0.22133	0.18747	0.029343	0.25492	0.24684	0.21555	0.2777	0.038115	-2.1562	-2.9271	-2.725	-2.7083	-3.0958	-2.6958	-2.9333	-3.0062	-2.6646	-2.9292	-2.7229	-2.7188	-2.9896	-2.5125	-2.6771	-2.8625	-51.836	-51.265	80.075	-45.226	246.586	-32.980	147.840	-47.287	277.768	236.334	126.907	66.113	204.327	233.179	158.694	49.827	8.3158e-05	0.0004855	0.00011467	768.42	2.0262e-06	1.5785e-06	754.05	192.86	1.2903e-06	3.8311e-06	240.05	97.89	75.966	30.295	2.5762e-06	41.822	0.0052019	0.0091946	0.0026096	778.99	8.9563e-05	0.00010127	768.2	201.58	8.9585e-05	9.9046e-05	250.38	102.47	80.919	31.855	9.0506e-05	43.712	148.517	34.187	24.226	-58.668	-57.517	80.631	-60.017	-52.812	198.421	103.498	-54.643	-50.080	-47.426	-42.290	54.550	-45.139	-8191	255	
15362.713	1	1	0	0	0.26674	0.087269	0.14272	0.1744	0.088891	0.21694	0.33576	0.13447	0.089636	0.18272	0.35674	0.10566	0.15026	0.14073	0.2536	0.2419	-2.1562	-2.9354	-2.7687	-2.6833	-2.9354	-2.6667	-2.8458	-2.9688	-2.5396	-2.9333	-2.8812	-2.5167	-3.0292	-2.7	-2.8667	-3.0417	125.924	-32.343	206.557	96.204	69.367	55.092	192.948	236.093	-57.103	81.750	263.638	211.759	137.151	60.297	-27.852	-34.089	0.00013603	6.3276e-05	0.00013062	766.45	7.8436e-06	8.8737e-06	752.11	193.23	2.8113e-06	1.2422e-05	237.25	97.342	75.694	30.051	5.293e-07	41.722	0.0048136	0.0086608	0.0024804	773.48	8.5789e-05	9.8501e-05	764.36	200.81	8.6392e-05	9.6046e-05	248.83	102.06	80.681	31.74	8.7948e-05	43.699	165.135	172.511	288.614	-58.676	188.918	135.919	-60.142	-52.839	163.584	156.156	-54.460	-49.885	-47.797	-42.418	3.422	-45.035	-8191	255	
15362.787	1	1	0	0	0.085137	0.19584	0.206	0.21775	0.049083	0.33651	0.21154	0.23362	0.16642	0.12387	0.092995	0.29808	0.14569	0.17815	0.26246	0.021978	-2.0667	-2.9062	-2.6729	-2.6896	-3.3167	-2.8104	-2.9521	-3.0521	-2.6667	-3	-2.9208	-2.6854	-3.0083	-2.7188	-2.6667	-3.1208	85.603	48.753	38.866	224.667	-59.274	-19.136	201.393	237.522	209.757	261.350	-14.885	256.102	240.184	243.796	98.557	274.562	0.00013451	0.00052282	0.00028268	765.22	4.6659e-06	5.4395e-06	742.62	193.62	3.8838e-06	2.2688e-06	239.51	97.354	76.151	30.291	3.34e-06	41.809	0.0047511	0.008575	0.0024361	773.65	8.3425e-05	9.555e-05	762.09	200.7	8.4622e-05	9.4221e-05	249.58	102.19	80.574	31.834	8.5104e-05	43.857	170.245	10.169	1.380	-58.774	68.372	117.701	-60.124	-52.746	207.850	69.555	-54.098	-49.463	-47.654	-42.355	110.237	-45.305	-8191	255	
15362.905	1	1	0	0	0.14723	0.14979	0.051631	0.24409	0.13357	0.25379	0.038176	0.15909	0.08893	0.12843	0.029728	0.17157	0.071207	0.16042	0.063285	0.01424	-2.2583	-3.0646	-2.9042	-2.7792	-3.0625	-2.9417	-2.7667	-3.0687	-2.7604	-2.9417	-3.0833	-2.5333	-3.0021	-2.8792	-2.5708	-3.2667	-14.404	260.212	147.422	251.584	216.249	248.028	187.990	-66.444	12.421	14.498	142.281	210.390	60.164	214.616	220.011	279.156	7.777e-05	0.00044084	0.00016167	767.45	2.2392e-06	6.6445e-06	751.61	193.54	4.1683e-06	8.0635e-06	239.01	97.761	76.153	30.506	2.957e-06	42.1	0.0045913	0.0082526	0.0022833	772.32	7.9732e-05	9.093e-05	762.22	200.45	8.0331e-05	8.984e-05	249.94	102.35	80.626	31.919	8.3967e-05	43.934	205.161	70.299	-34.285	-58.703	211.704	104.916	-60.202	-52.868	100.080	110.354	-54.345	-49.691	-47.602	-42.572	73.567	-45.101	-8191	255	
15363.002	1	1	0	0	0.15342	0.11504	0.069987	0.1304	0.1697	0.10272	0.23394	0.2145	0.26972	0.057738	0.23792	0.1123	0.033378	0.11884	0.16056	0.34444	-2.1208	-2.7417	-2.9	-2.6479	-2.9083	-2.6729	-2.8208	-3.1146	-2.6063	-2.75	-3.0563	-2.6271	-2.8563	-2.7271	-2.7375	-3.0875	-21.554	112.929	2.811	262.615	-10.658	233.056	278.367	71.108	130.456	183.139	134.738	229.980	93.387	229.778	67.106	218.276	0.00012145	0.00038649	0.00011732	760.03	7.0337e-06	6.527e-06	739.37	192.66	4.3008e-07	2.1013e-06	236.57	96.848	76	30.189	2.643e-06	41.984	0.0046042	0.0083051	0.0022969	767.67	8.0362e-05	9.0823e-05	755.13	199.62	8.248e-05	9.0352e-05	247.33	101.31	80.432	31.711	8.579e-05	43.811	187.581	72.643	280.106	-58.371	133.779	72.231	-59.967	-52.598	-34.766	124.213	-54.488	-49.922	-47.564	-42.429	29.352	-45.337	-8191	255	
15363.098	1	1	0	0	0.17622	0.17409	0.17948	0.35674	0.043551	0.26616	0.22941	0.20972	0.35192	0.25734	0.18356	0.16677	0.093389	0.045987	0.13519	0.12096	-2.2521	-2.8542	-3.0083	-2.7875	-3.0438	-2.9729	-2.625	-2.925	-2.6437	-2.7479	-3.2	-2.7146	-2.9292	-3.0667	-2.6396	-2.9813	-65.849	204.962	38.083	240.382	88.023	-36.518	238.747	156.858	171.526	118.718	-69.203	-22.233	-54.279	232.490	43.145	241.788	0.00011344	0.00073287	0.00020436	755.11	3.74e-06	2.1393e-07	735.86	192.53	3.7819e-06	1.0565e-05	238.22	97.367	76.002	30.243	8.8096e-07	42.397	0.004735	0.0085299	0.0023923	764.8	8.5214e-05	9.5839e-05	753.35	200.09	8.6657e-05	9.6423e-05	249.55	102	81.046	32.038	9.1877e-05	44.485	118.942	-41.373	65.372	-58.813	266.311	229.276	-60.038	-52.798	116.577	36.272	-54.351	-50.082	-47.603	-42.821	98.603	-45.048	-8191	255	
15363.194	1	1	0	0	0.1224	0.12459	0.12755	0.067022	0.19299	0.040488	0.076867	0.1181	0.32183	0.30902	0.30245	0.13648	0.043083	0.02809	0.35511	0.12872	-2.4375	-2.6083	-2.975	-2.8271	-2.7562	-3.0312	-2.525	-3.1417	-2.8333	-2.8542	-3.0854	-2.7167	-2.8729	-3.1063	-2.5479	-3.0646	60.523	96.147	156.825	199.834	209.635	161.761	192.912	190.835	9.774	-48.939	238.927	19.313	217.951	21.515	161.468	181.384	8.9923e-05	0.00065877	8.6625e-05	755.67	1.0443e-05	1.1525e-05	741.99	194.59	3.7204e-06	9.9205e-07	238.97	97.918	76.518	30.552	2.9866e-06	42.341	0.0051033	0.0092281	0.0025882	768.71	9.2836e-05	0.00010565	759.77	202.89	9.6116e-05	0.00010385	251.87	103.26	82.048	32.367	9.9078e-05	44.659	156.286	-26.045	40.763	-58.739	128.037	47.477	-60.011	-52.485	40.538	-55.317	-54.250	-50.155	-47.334	-42.717	17.308	-45.371	-8191	255	
15363.315	1	1	0	0	0.16444	0.18854	0.18882	0.0692	0.20913	0.16292	0.25299	0.29994	0.16027	0.043411	0.0035659	0.23853	0.34817	0.16174	0.10624	0.23105	-2.5708	-2.5042	-3.0687	-2.6875	-2.7667	-3.1583	-2.775	-3.225	-2.8771	-2.8292	-3.0875	-2.9021	-2.9083	-3.1	-2.7167	-3.1292	44.324	1.445	172.745	264.276	106.821	162.713	233.779	246.516	266.777	195.877	220.555	255.252	223.013	216.256	-70.056	264.363	0.00012402	0.00072342	0.00013423	756.63	1.8646e-06	9.3324e-06	740.01	194.38	4.543e-06	1.3591e-05	239.62	98.162	76.161	30.603	3.983e-06	42.406	0.0054695	0.0096494	0.0027294	770.74	9.5517e-05	0.00010998	761.84	203.75	0.00010005	0.0001102	254.31	103.91	82.298	32.461	0.00010294	44.805	137.359	-2.223	29.952	-58.968	112.011	0.154	-59.864	-52.617	232.639	104.797	-54.392	-49.537	-47.650	-42.534	135.935	-45.228	-8191	255	
15363.386	1	1	0	0	0.31142	0.15257	0.19871	0.16319	0.077223	0.12822	0.17168	0.10939	0.2016	0.090942	0.12794	0.20564	0.13258	0.062344	0.10739	0.13901	-2.5333	-2.4917	-3.0354	-2.8958	-2.7646	-3.2396	-2.7875	-2.9062	-2.9458	-2.5104	-3.1188	-2.8438	-2.8333	-3.0917	-2.7	-2.9917	269.899	-7.569	276.800	268.391	203.663	119.219	181.542	242.325	258.512	169.778	253.903	280.452	23.945	148.158	121.347	23.378	0.0001309	0.0005532	0.00033761	755.16	4.1002e-06	5.1906e-07	735.5	193.28	3.2452e-06	1.1234e-06	236.6	96.854	75.369	30.488	1.9654e-06	41.666	0.0055408	0.009774	0.0027827	769	9.7701e-05	0.00011085	755.4	203.08	0.00010001	0.00011038	251.75	102.58	81.454	32.282	0.00010445	44.274	152.310	25.385	-59.253	-58.918	55.710	18.663	-59.856	-52.731	129.872	-28.235	-54.618	-50.038	-47.691	-42.359	71.883	-45.342	-8191	255	
15363.507	1	1	0	0	0.15331	0.12248	0.19926	0.22512	0.23488	0.23059	0.26508	0.18784	0.21158	0.20391	0.071092	0.095465	0.11859	0.23605	0.13563	0.20824	-2.6708	-2.55	-2.8375	-3.0229	-2.6104	-3.1875	-2.7146	-2.9833	-2.8417	-2.5646	-3.1708	-2.8625	-2.6146	-3.2125	-2.6688	-2.95	-34.311	232.804	169.872	271.757	-30.972	275.255	222.206	190.180	48.057	258.677	155.310	87.129	-40.234	-66.319	202.390	279.733	0.00010466	0.00054553	0.00012221	752.54	4.2027e-06	2.4945e-06	731.88	193.69	4.9107e-06	6.6e-06	237.88	97.302	76.191	30.603	2.2124e-06	42.709	0.0055767	0.0099201	0.0027825	764.88	9.6855e-05	0.0001121	754.03	203.45	0.00010231	0.00011347	253	103.52	82.154	32.573	0.00010829	44.973	153.784	23.550	-5.093	-58.894	128.570	96.145	-59.821	-52.675	73.649	-5.091	-54.262	-49.696	-47.695	-42.660	64.067	-45.395	-8191	255	
15363.601	1	1	0	0	0.15561	0.1621	0.083015	0.21023	0.11006	0.10246	0.24499	0.074424	0.17881	0.1522	0.17667	0.15271	0.20118	0.13353	0.074275	0.13185	-2.8042	-2.6542	-2.8333	-2.9021	-2.6229	-3.0667	-2.6667	-2.8812	-3.1792	-2.6375	-3.0146	-3.0042	-2.7229	-3.1646	-2.7687	-2.8396	136.268	95.464	-67.756	190.291	14.450	249.720	196.346	241.073	60.196	258.383	63.435	-18.875	28.784	274.804	21.719	279.475	0.00014662	0.00071799	0.00021285	748.99	2.5315e-06	4.3591e-06	734.88	193.87	1.649e-06	1.4941e-06	242.44	98.54	77.059	31.141	6.3732e-06	42.875	0.005679	0.010157	0.0028896	765.15	0.00010141	0.00011794	757.08	205.11	0.00010444	0.00011863	256.86	104.91	83.303	33.105	0.00011235	45.661	153.868	-47.211	-46.375	-58.767	110.573	166.704	-59.905	-52.639	91.074	284.540	-54.723	-50.035	-47.513	-42.525	19.726	-45.301	-8191	255	
15363.697	1	1	0	0	0.11156	0.16524	0.058899	0.10049	0.25793	0.14747	0.19232	0.24616	0.06632	0.1044	0.30458	0.10559	0.19166	0.025831	0.055847	0.038629	-2.5979	-2.7208	-2.7646	-3.0438	-2.7729	-3.1063	-2.975	-2.7375	-3.0854	-2.7333	-3.0646	-2.9604	-2.5479	-2.9813	-2.8104	-2.875	31.672	-14.288	30.168	277.548	-64.268	160.880	240.966	268.242	170.312	-18.491	-44.874	-0.555	182.027	73.599	119.369	278.534	0.00012776	0.00050338	9.823e-05	751.51	6.6076e-06	7.7094e-06	740	196.29	3.8962e-06	2.874e-06	243.66	99.766	77.062	31.209	5.2191e-06	43.077	0.0059004	0.010481	0.002999	766.17	0.00010249	0.00011847	760.61	206.19	0.0001047	0.00011816	258.43	105.54	83.224	33.193	0.00010942	45.701	186.085	272.364	-14.721	-58.711	178.278	111.931	-59.871	-52.519	238.565	55.466	-54.607	-50.047	-47.886	-42.769	41.664	-45.272	-8191	255	
15363.794	1	1	0	0	0.047885	0.10543	0.20847	0.026628	0.16022	0.23226	0.12167	0.43749	0.20769	0.13366	0.090978	0.28551	0.25497	0.27003	0.074484	0.09388	-2.7292	-2.5833	-2.8646	-2.9646	-2.4521	-3.1854	-2.9396	-2.7	-3.1229	-2.6854	-2.9083	-3.0667	-2.6854	-3.1875	-2.9813	-2.8396	221.176	-36.482	-31.593	188.557	15.185	13.175	-30.174	-67.559	149.362	66.858	-60.563	-0.539	-68.590	212.960	133.964	194.284	4.592e-05	0.00044551	5.0329e-05	744.75	5.1208e-06	2.0589e-06	726.14	195.38	5.5162e-06	1.7647e-06	237.85	97.938	76.245	30.994	7.5056e-06	42.636	0.005826	0.010396	0.0029404	759.99	9.997e-05	0.00011471	749.75	204.36	9.9236e-05	0.00011071	252.53	103.52	81.906	32.716	9.9369e-05	44.96	22.531	61.418	70.664	-58.630	15.299	142.764	-60.090	-52.590	40.177	109.602	-54.495	-49.603	-47.896	-42.698	148.793	-45.265	-8191	255	
15363.914	1	1	0	0	0.13824	0.057199	0.15797	0.1687	0.069681	0.16854	0.2398	0.053142	0.23312	0.14854	0.19086	0.13332	0.23645	0.18398	0.094569	0.19163	-2.4521	-2.7625	-2.8083	-2.9875	-2.6458	-2.9021	-2.9688	-2.65	-3.0125	-2.7438	-2.7896	-3.1771	-2.6833	-3.0021	-3.0417	-2.7104	168.378	234.895	223.022	288.487	80.844	277.699	212.470	193.705	252.794	14.809	268.981	192.347	-63.916	207.503	187.522	166.268	0.00013702	0.00089412	0.00026595	737.93	2.2935e-06	5.2326e-06	723.88	191.92	3.5987e-06	8.1898e-06	239.53	97.498	75.927	30.84	4.5922e-06	42.597	0.005343	0.0095947	0.0026836	748.74	9.3419e-05	0.00010606	741.59	201.07	9.4434e-05	0.00010424	251.39	102.87	81.277	32.594	9.4826e-05	44.908	174.212	66.777	-70.248	-58.367	123.379	33.970	-59.488	-52.612	188.578	161.403	-54.334	-50.029	-47.606	-42.639	135.840	-45.400	-8191	255	
15364.010	1	1	0	0	0.28087	0.061995	0.12557	0.18919	0.10044	0.13401	0.11618	0.17606	0.11379	0.16257	0.075545	0.20904	0.22669	0.22076	0.033671	0.18024	-2.5708	-2.75	-2.7812	-3.3521	-2.6708	-3.0042	-3.2458	-2.6583	-2.8646	-2.8042	-2.7083	-3.2333	-2.5896	-2.8729	-2.8375	-2.7438	222.638	63.181	-6.203	151.679	224.920	124.851	247.573	265.374	287.154	226.093	22.739	170.626	217.764	-40.223	265.236	196.814	0.00010325	0.00048186	0.00019541	729.64	9.0684e-06	2.1728e-06	717.22	192.37	3.958e-06	6.7e-06	237.25	97.565	75.278	30.861	1.3984e-06	43.036	0.0051156	0.0090543	0.0025618	742.73	9.0077e-05	0.00010203	735.4	200.32	9.1876e-05	0.00010202	249.78	102.42	80.823	32.545	9.2975e-05	45.027	169.726	122.329	-27.963	-59.098	63.209	139.399	-59.948	-52.336	-2.810	130.076	-54.345	-49.927	-47.511	-42.638	85.091	-45.558	-8191	255	
15364.082	1	1	0	0	0.1709	0.19053	0.19963	0.14319	0.096834	0.19234	0.066702	0.30879	0.034398	0.017158	0.17378	0.12335	0.1123	0.12319	0.11391	0.21675	-2.5646	-2.6958	-2.6417	-3.3	-2.8	-2.7854	-3.2396	-2.7292	-3.0187	-3.1146	-2.7104	-3.1521	-2.8438	-2.675	-2.8354	-2.4938	181.605	130.445	-10.641	-61.215	187.944	-55.351	139.187	227.496	141.683	125.891	181.086	130.243	241.146	-21.566	94.194	179.274	7.0667e-05	0.00012059	0.00015498	731.18	5.2481e-06	9.101e-06	721.2	192.27	5.4923e-06	8.808e-06	236.77	97.379	75.79	30.864	4.5851e-06	42.533	0.0050649	0.0090527	0.002518	742.81	8.9962e-05	0.00010126	738.26	200.55	9.1256e-05	0.00010118	250.05	102.52	80.979	32.513	9.4092e-05	44.825	161.926	-3.573	70.218	-58.670	178.828	97.915	-60.114	-52.733	-9.456	41.703	-54.443	-49.612	-47.754	-42.712	128.656	-45.376	-8191	255	
15364.178	1	1	0	0	0.12113	0.18253	0.045331	0.28849	0.17367	0.11279	0.071007	0.096061	0.23457	0.12783	0.33054	0.094653	0.17807	0.13124	0.17296	0.037871	-2.45	-2.8979	-2.4979	-3.0417	-2.7979	-2.8292	-3.1104	-2.8812	-3.0521	-3.1208	-2.5917	-3.0292	-2.8812	-2.8229	-3.0854	-2.7625	176.063	196.103	218.976	235.676	190.403	90.094	284.164	-29.715	275.304	183.496	222.682	175.795	127.553	120.406	273.947	135.623	0.00013424	0.00082119	0.00011869	726.03	5.139e-06	4.3415e-06	716.28	192.43	3.7842e-06	7.0916e-06	235.54	96.57	74.943	30.658	1.4826e-06	42.318	0.0051151	0.0091995	0.0025388	738.8	8.9824e-05	0.00010065	731.31	199.83	9.155e-05	9.9703e-05	248.07	101.49	80.314	32.372	9.2986e-05	44.588	184.527	68.629	113.183	-58.617	86.609	111.838	-60.025	-52.776	151.779	142.066	-54.449	-49.370	-47.696	-42.575	218.122	-45.349	-8191	255	
15364.299	1	1	0	0	0.30666	0.094339	0.064559	0.091856	0.030978	0.051538	0.076214	0.093712	0.063494	0.17147	0.042482	0.30137	0.13271	0.041941	0.10614	0.20052	-2.3854	-2.8354	-2.4521	-3.0563	-2.7458	-2.5833	-3.1854	-2.7292	-2.7646	-3.0771	-2.7083	-2.85	-2.8937	-2.8729	-3.0125	-2.8063	175.900	217.473	69.699	59.000	103.882	192.057	140.975	275.256	215.488	250.057	272.412	136.274	31.948	164.933	237.095	122.217	0.00023564	0.00040162	0.0001166	726.2	5.9232e-06	9.5133e-06	715.64	191.92	3.9806e-06	9.1868e-06	234.55	95.845	75.279	30.789	6.8782e-06	42.431	0.0051027	0.0091168	0.0025309	738.5	8.9987e-05	0.00010205	730.53	200.28	9.249e-05	0.00010044	248.51	101.59	80.712	32.483	9.5219e-05	44.79	140.331	259.796	29.338	-58.510	57.143	54.854	-59.921	-52.627	59.166	76.992	-54.484	-49.828	-47.766	-42.509	116.732	-45.392	-8191	255	
15364.395	1	1	0	0	0.07783	0.15983	0.36874	0.18164	0.16155	0.081861	0.23153	0.14661	0.30958	0.26177	0.20007	0.060293	0.038966	0.047785	0.21639	0.072051	-2.2833	-2.9229	-2.6458	-2.9917	-2.925	-2.7021	-3.275	-2.6396	-2.6813	-3.1083	-2.7646	-2.8104	-2.9562	-2.5833	-2.9917	-2.7875	-43.872	47.954	174.022	154.418	202.497	-13.086	126.602	265.354	-3.518	-43.413	-24.477	207.287	245.182	19.870	59.543	246.945	3.8811e-05	0.0010168	0.00029549	730.28	1.4019e-06	3.1554e-06	715.34	193.64	2.2756e-06	8.5118e-06	236.85	96.825	75.634	31.162	4.8839e-06	42.579	0.0052132	0.0092325	0.0025933	739.91	9.1654e-05	0.00010565	733.28	202	9.5056e-05	0.0001036	251.06	102.17	81.095	32.751	0.00010175	45.172	281.316	-13.890	28.399	-58.848	1.605	248.131	-60.254	-52.164	150.505	20.835	-54.734	-49.687	-47.843	-42.627	107.132	-45.297	-8191	255	
15364.489	1	1	0	0	0.21214	0.19161	0.24387	0.32877	0.15252	0.0883	0.2507	0.16023	0.074754	0.044011	0.13627	0.18451	0.054912	0.32862	0.022274	0.032021	-2.45	-3.1375	-2.6625	-2.9562	-3.0125	-2.6063	-3.1667	-2.7854	-2.6792	-3.0604	-2.625	-2.8958	-3.0958	-2.6042	-2.9167	-2.9646	78.342	131.401	248.648	-56.120	262.895	234.888	198.394	240.737	214.858	-39.951	-53.181	208.868	104.886	-19.994	286.926	-10.643	5.8211e-05	0.0019066	0.0001685	724.19	5.309e-06	4.2189e-06	716.13	193.3	3.1723e-06	2.0199e-06	238.27	96.894	75.529	31.021	4.6167e-06	42.791	0.0054663	0.0097041	0.0027235	740.93	9.3234e-05	0.0001097	735.17	202.56	9.7563e-05	0.00010635	252.57	102.81	81.355	32.828	0.00010191	45.262	118.540	17.849	-41.097	-58.672	47.994	178.425	-59.934	-52.498	77.319	20.716	-54.186	-49.521	-47.640	-42.676	143.084	-45.141	-8191	255	
15364.587	1	1	0	0	0.16425	0.3715	0.181	0.19264	0.1562	0.13415	0.17473	0.22124	0.17721	0.21404	0.13593	0.16313	0.12819	0.10222	0.1482	0.064233	-2.4188	-3.1063	-2.75	-2.8229	-2.9729	-2.6958	-3.1667	-3.0062	-2.7938	-3.025	-2.7875	-2.5812	-3.0625	-2.8083	-3.0542	-2.9771	278.933	114.479	223.139	223.699	287.415	27.656	253.512	254.463	25.825	89.682	3.869	-12.890	202.084	-70.344	218.883	3.215	0.00016073	0.000613	0.00019746	725.06	2.5783e-06	7.7215e-06	711.54	194.16	2.3096e-06	7.2445e-06	237.93	96.228	75.363	30.868	1.167e-06	42.486	0.0054445	0.009701	0.0027593	739.95	9.5382e-05	0.00010948	732.23	202.48	9.7621e-05	0.00010804	251.51	101.9	81.112	32.7	0.00010323	45.042	158.887	106.748	80.236	-58.484	270.484	-16.003	-59.805	-52.622	84.106	278.780	-54.425	-49.817	-48.043	-42.482	-48.005	-45.541	-8191	255	
15364.682	1	1	0	0	0.17246	0.070862	0.13746	0.16728	0.14654	0.12626	0.050545	0.1431	0.093119	0.12954	0.15046	0.10275	0.083974	0.38284	0.056285	0.29344	-2.1458	-3.0292	-2.8312	-2.8187	-3.0062	-2.675	-3.1521	-2.9604	-2.7208	-3.1479	-2.7812	-2.7771	-3.2438	-2.7375	-2.7979	-2.975	71.497	32.245	44.585	185.819	-36.112	-48.963	241.227	-70.167	32.151	6.289	206.783	286.695	142.092	274.348	109.935	67.815	9.3311e-05	1.072e-05	0.00015924	723.41	7.0161e-06	7.3301e-06	712.36	193.18	5.0758e-06	6.7004e-06	236.83	96.731	75.605	31.119	8.7754e-06	42.888	0.0054939	0.0097401	0.0027406	738.09	9.409e-05	0.00010873	731.91	202.48	9.6631e-05	0.00010912	251.8	102.36	81.175	32.894	0.00010416	45.307	179.977	284.847	264.303	-58.377	157.733	275.362	-59.628	-52.448	102.327	207.418	-54.298	-49.667	-47.988	-42.604	63.908	-45.531	-8191	255	
15364.778	1	1	0	0	0.16958	0.13545	0.17014	0.069914	0.10196	0.071793	0.15212	0.13861	0.12095	0.17252	0.097957	0.29748	0.25766	0.32825	0.08971	0.054861	-1.9917	-2.9729	-2.8917	-2.7375	-3.25	-2.6813	-3.1	-3.1583	-2.4813	-3.0167	-3.0021	-2.6292	-3.1583	-2.7313	-2.9313	-3.05	153.374	205.779	-25.725	-49.960	205.160	120.370	139.474	253.456	-68.006	-29.625	-48.630	216.532	223.036	242.959	-10.319	154.536	0.00017679	8.3447e-05	0.00019514	726.76	7.2247e-06	7.4141e-06	712.15	194.57	5.2304e-06	6.3682e-06	238.54	97.494	75.873	31.126	5.0441e-06	43.11	0.0055733	0.0099047	0.002807	739.33	9.5929e-05	0.00011048	733.08	203.75	9.7094e-05	0.00010981	253.47	102.9	81.549	32.945	0.00010149	45.626	158.276	189.129	105.067	-58.484	63.502	153.214	-59.882	-52.735	227.086	125.712	-54.636	-49.853	-47.773	-42.583	105.362	-45.325	-8191	255	
15364.874	1	1	0	0	0.095474	0.092115	0.093253	0.092419	0.20679	0.10786	0.18455	0.20807	0.10656	0.2088	0.16786	0.26622	0.26749	0.12951	0.22482	0.30131	-2.2271	-2.9562	-2.8875	-2.6896	-3.1479	-2.8438	-2.95	-3.1604	-2.6917	-2.8979	-2.9542	-2.6583	-3.0458	-2.7146	-2.5875	-2.9958	70.763	107.021	237.970	244.518	116.481	101.785	262.088	240.022	-47.745	131.002	74.220	-50.617	227.655	-54.230	272.484	-38.970	0.00021768	0.00079842	0.00019789	726.73	4.0878e-06	5.331e-06	715.64	195.36	3.8661e-06	7.8409e-06	241.05	97.722	75.87	31.161	4.1111e-06	43.214	0.0055196	0.0097955	0.0027641	740.87	9.6399e-05	0.00011254	738.97	204.72	9.8888e-05	0.00011088	255.01	103.36	81.593	33.073	0.00010331	45.669	179.223	85.232	-9.993	-58.607	-56.923	32.981	-59.821	-52.454	165.633	84.215	-54.278	-49.604	-47.554	-42.498	77.952	-45.254	-8191	255	
15364.995	1	1	0	0	0.037126	0.31559	0.25281	0.074034	0.21527	0.22107	0.36719	0.22983	0.23883	0.20888	0.051882	0.099733	0.21676	0.16496	0.11505	0.14289	-2.2146	-2.8771	-3.15	-2.6375	-2.8479	-2.9354	-2.7542	-3.0354	-2.725	-3.1188	-2.9125	-2.6292	-3.1458	-2.9229	-2.7625	-3.1708	85.961	258.084	196.347	209.089	-26.972	255.606	242.099	267.859	137.692	-2.460	185.140	225.990	116.600	180.409	90.717	9.508	0.00017491	0.00037372	0.00044134	724.83	6.3543e-06	6.7763e-06	707.74	194.94	3.9647e-06	9.7527e-06	238	96.717	75.984	31.208	5.8146e-06	43.039	0.0055579	0.0098702	0.0027669	739.12	9.7267e-05	0.00011119	731.42	203.82	9.7626e-05	0.00010878	252.42	102.48	81.45	32.933	9.8635e-05	45.313	175.221	223.447	21.723	-58.661	98.255	115.257	-60.028	-52.632	118.453	123.153	-54.288	-49.466	-47.720	-42.717	116.255	-45.511	-8191	255	
15365.091	1	1	0	0	0.21547	0.15707	0.24808	0.21561	0.075036	0.12841	0.1963	0.36827	0.17881	0.11693	0.048877	0.29201	0.1221	0.18734	0.048318	0.11012	-2.1771	-2.7375	-3.0521	-2.4917	-3.0104	-2.9396	-2.5792	-3.0771	-2.7167	-2.9062	-3.0167	-2.7208	-3.0687	-2.9896	-2.4688	-3.0792	140.902	-62.037	25.630	172.416	-26.263	140.697	250.859	269.287	241.277	-37.586	31.473	192.040	261.222	245.505	205.928	127.229	0.00013321	0.00047864	0.00022258	726.41	3.1629e-06	4.5772e-06	709.93	194.92	4.9613e-06	9.2045e-06	237.86	96.718	75.886	31.273	5.1368e-06	43.319	0.005389	0.0094649	0.00266	735.9	9.4499e-05	0.00010711	729.95	203.67	9.4959e-05	0.00010576	252.03	102.52	81.532	33.042	9.7555e-05	45.634	158.720	251.899	62.453	-58.387	86.680	44.677	-59.677	-52.611	109.224	120.476	-54.650	-50.005	-47.624	-42.165	-26.990	-45.521	-8191	255	
15365.187	1	1	0	0	0.070109	0.16729	0.14573	0.39664	0.32371	0.1988	0.10786	0.15564	0.22992	0.24422	0.19595	0.10872	0.21108	0.24014	0.16146	0.20448	-2.2021	-2.8021	-3.0667	-2.7354	-2.9708	-2.9792	-2.7188	-3.1875	-2.8	-2.7958	-3.0458	-2.4667	-2.9729	-2.9625	-2.525	-3.1042	152.691	133.423	238.799	203.029	61.251	132.710	191.935	159.316	216.006	70.840	252.582	212.318	20.998	217.824	101.034	186.939	0.00015018	0.00052982	0.00011667	723.38	3.2864e-06	6.9945e-06	714.4	195.79	2.4243e-06	3.9732e-06	241.69	97.972	75.857	31.367	4.4251e-06	43.653	0.0053411	0.009386	0.0026504	737.23	9.3351e-05	0.00010591	733.18	204.79	9.612e-05	0.00010695	254.41	103.57	81.823	33.24	9.8075e-05	45.996	99.636	30.782	271.873	-58.440	31.026	148.625	-59.740	-52.842	178.506	22.387	-54.740	-50.162	-47.931	-42.770	63.308	-45.379	-8191	255	
15365.283	1	1	0	0	0.08444	0.13862	0.14026	0.038426	0.20853	0.13715	0.22423	0.05495	0.097758	0.31729	0.29525	0.12286	0.12462	0.13228	0.039373	0.24607	-2.3458	-2.6937	-3.3083	-2.6521	-2.8688	-3.3021	-2.7562	-3.1437	-2.7562	-2.65	-3.1583	-2.7208	-2.9583	-2.9833	-2.4875	-2.9417	26.869	220.077	-16.234	39.999	169.676	69.963	-54.619	255.376	22.430	140.856	145.670	-3.502	105.755	2.982	265.252	-53.604	0.00018807	0.00069059	0.00011835	727.34	7.6265e-07	1.3752e-05	716.44	196.12	1.6093e-06	9.4402e-06	241.93	98.122	76.556	31.519	2.9781e-06	43.534	0.0053272	0.0093668	0.0026274	740.15	9.2723e-05	0.00010434	737.46	204.92	9.5423e-05	0.00010459	255	103.63	81.929	33.189	9.7164e-05	45.939	145.864	270.418	72.345	-58.437	276.733	76.189	-59.620	-52.466	-6.626	-50.466	-54.421	-49.775	-47.287	-42.521	28.941	-45.530	-8191	255	
15365.379	1	1	0	0	0.12101	0.0070342	0.22523	0.28325	0.32212	0.32196	0.12576	0.17369	0.099284	0.37223	0.090537	0.079724	0.13136	0.042005	0.090749	0.18911	-2.4833	-2.6958	-3.0375	-2.7583	-2.8125	-2.9625	-2.7396	-3.0312	-2.9083	-2.5667	-3.1104	-2.6792	-2.6688	-2.9708	-2.6208	-2.9396	61.038	94.485	92.920	248.654	175.606	-32.339	166.770	-29.511	175.827	52.604	257.990	71.444	202.279	140.759	-50.720	165.298	9.8056e-05	0.00082783	0.00026696	723.67	1.7719e-06	2.199e-06	718.66	194.58	6.8111e-06	6.7999e-06	239.78	97.339	75.722	31.075	5.5665e-06	43.243	0.0052901	0.0094332	0.002629	736.5	9.2868e-05	0.00010544	731.87	203.67	9.6419e-05	0.00010507	253.48	102.44	81.473	32.927	9.8877e-05	45.668	209.534	21.992	-7.920	-58.738	44.149	124.101	-59.708	-52.926	92.347	174.546	-54.351	-49.806	-47.610	-42.510	275.215	-45.450	-8191	255	
15365.475	1	1	0	0	0.21639	0.12328	0.15529	0.2723	0.2988	0.11247	0.25386	0.10214	0.16204	0.22765	0.10597	0.20999	0.12321	0.22542	0.13131	0.22567	-2.3708	-2.3458	-3.0833	-2.7083	-2.5812	-3.1292	-2.5292	-2.9333	-2.8729	-2.5979	-3.0979	-2.8625	-2.7292	-3.2708	-2.6688	-3.0958	73.574	-59.665	157.946	207.218	93.360	151.655	102.179	1.312	97.413	31.653	-55.448	233.321	63.879	-4.303	260.212	-60.466	0.00018086	0.00054498	0.0001897	720.6	1.7608e-06	8.1053e-06	710.04	194.87	5.3872e-06	7.9415e-06	239.8	96.644	75.729	31.161	1.0379e-05	43.553	0.0053587	0.0094623	0.0026468	735.36	9.1986e-05	0.000104	730.71	203.81	9.4587e-05	0.00010301	253.96	102.57	81.421	32.975	9.7159e-05	45.704	168.788	20.799	219.432	-58.586	56.827	3.198	-59.906	-52.646	-3.947	160.023	-54.308	-49.794	-47.748	-42.719	245.306	-45.354	-8191	255	
15365.594	1	1	0	0	0.051463	0.1359	0.042249	0.25677	0.11618	0.1426	0.10624	0.046261	0.17162	0.10503	0.074504	0.23773	0.12393	0.27745	0.32723	0.24271	-2.5479	-2.4188	-3.0208	-2.9313	-2.5687	-3.0687	-2.7083	-2.7438	-2.8604	-2.7333	-3.0687	-2.9042	-2.625	-2.9292	-2.6625	-2.9396	-14.444	149.937	229.664	-14.781	-0.169	217.441	263.051	184.868	236.753	91.167	225.856	261.195	228.667	2.735	196.381	276.242	0.00017388	0.0010526	0.00013515	722.32	3.9023e-06	8.3154e-06	710.66	197.12	2.7828e-06	6.0888e-06	242.45	98.128	76.303	31.35	6.3662e-06	43.658	0.0050544	0.0090023	0.0025393	734.46	8.7761e-05	0.00010049	730.6	204.44	9.0572e-05	0.00010062	254.82	103.13	81.46	33.064	9.4112e-05	46.065	165.653	105.433	276.334	-58.744	64.854	117.223	-59.887	-52.462	-31.793	-11.361	-54.362	-50.034	-47.918	-42.678	89.055	-45.235	-8191	255	
15365.690	1	1	0	0	0.18109	0.16704	0.11547	0.14836	0.11179	0.03772	0.12696	0.10211	0.030272	0.11719	0.19265	0.31762	0.21922	0.058242	0.11166	0.26225	-2.4771	-2.4917	-3.0521	-2.8708	-2.6729	-3.0479	-2.7417	-2.6542	-2.9646	-2.5583	-3.1396	-3.0125	-2.6896	-3.0292	-2.6937	-2.7812	119.370	63.385	78.645	-29.314	107.469	169.320	197.573	171.123	175.766	208.306	41.704	230.988	251.591	199.382	95.050	-66.003	0.00015882	0.00046644	0.00021831	720.95	1.8243e-06	8.2168e-06	719	196.5	4.6316e-06	2.0031e-06	243.67	97.971	76.417	31.483	1.2687e-05	43.517	0.0049154	0.008818	0.0024775	732.46	8.5179e-05	9.8588e-05	733.54	204.53	8.6642e-05	9.6487e-05	255.5	102.96	81.116	32.976	9.0139e-05	45.966	170.107	-4.899	56.144	-58.469	-49.756	179.622	-59.760	-52.427	220.732	155.638	-54.111	-49.734	-47.840	-42.741	66.357	-45.560	-8191	255	
15365.786	1	1	0	0	0.19912	0.16916	0.14748	0.020734	0.091305	0.14768	0.12178	0.027295	0.19385	0.13825	0.19556	0.082012	0.12411	0.26309	0.30563	0.063359	-2.5062	-2.6354	-2.8	-2.9479	-2.575	-3.0938	-2.8771	-2.7521	-3.0542	-2.7167	-3	-2.9167	-2.5708	-2.9437	-2.725	-2.7687	26.101	27.491	57.900	-33.773	197.309	75.162	124.179	125.841	35.670	279.729	127.096	-14.080	146.624	260.520	141.984	72.469	3.7084e-05	0.00093454	0.00014088	719.56	4.7421e-06	3.0391e-06	707.93	193.84	5.185e-06	5.0699e-06	239.33	96.728	75.545	31.014	2.5119e-06	43.112	0.0047813	0.0086044	0.0023894	726.84	8.292e-05	9.6528e-05	723.75	202.16	8.5219e-05	9.4415e-05	250.51	101.28	80.153	32.544	8.8877e-05	45.217	110.329	-39.190	7.644	-58.668	102.267	142.171	-60.011	-52.273	-50.411	23.495	-54.405	-49.831	-48.035	-42.825	207.796	-45.219	-8191	255	
15365.883	1	1	0	0	0.3062	0.16251	0.27921	0.1971	0.22361	0.077604	0.13971	0.088353	0.17898	0.081798	0.046364	0.076368	0.30884	0.26797	0.17341	0.12446	-2.5667	-2.4062	-2.7125	-2.9938	-2.4083	-3.1896	-2.9625	-2.6896	-2.95	-2.7458	-2.9313	-3.0271	-2.5667	-3.0646	-2.8104	-2.825	229.708	179.131	275.457	209.202	232.624	220.077	107.260	173.744	204.433	141.471	-54.618	206.895	67.644	263.604	95.302	-64.681	8.9328e-05	0.00035619	0.00019877	716.96	4.3368e-06	1.0843e-05	710.74	194.87	2.367e-06	8.1701e-06	240.62	97.171	75.444	31.178	1.7628e-06	43.517	0.0047068	0.008483	0.002372	724.88	8.1777e-05	9.4089e-05	722.59	202.12	8.2296e-05	9.0953e-05	251.52	101.68	80.105	32.614	8.5017e-05	45.371	127.037	-29.597	23.818	-58.749	128.109	75.317	-59.849	-52.577	221.029	38.286	-54.530	-49.707	-47.776	-42.823	-59.531	-45.425	-8191	255	
15365.979	1	1	0	0	0.097499	0.024578	0.081882	0.10743	0.2236	0.17168	0.070722	0.17877	0.21663	0.18629	0.056081	0.24922	0.25225	0.28222	0.1607	0.035233	-2.6021	-2.5479	-2.7625	-3.1458	-2.475	-2.9229	-2.8208	-2.5021	-3.0604	-2.575	-2.7104	-2.9271	-2.6188	-3.1042	-3.0646	-2.6271	138.420	129.310	49.354	68.970	89.496	159.550	256.410	213.917	64.209	6.823	-45.310	-45.467	-21.056	266.805	190.145	202.956	6.1572e-05	0.00019529	0.00024987	720.66	4.6957e-06	6.9445e-06	707.89	196.63	7.928e-06	1.0929e-05	241.52	97.15	75.332	31.151	2.5914e-06	43.783	0.0045655	0.0080492	0.0022884	725.12	7.8169e-05	9.1204e-05	724.02	202.59	7.9819e-05	8.9465e-05	251.09	101.82	80.179	32.607	8.2829e-05	45.507	192.436	272.515	43.657	-58.580	53.856	-3.244	-59.828	-52.513	94.170	136.459	-54.562	-49.803	-47.964	-42.579	92.242	-45.541	-8191	255	
15366.075	1	1	0	0	0.11555	0.076731	0.070498	0.11091	0.088167	0.24872	0.017039	0.32787	0.15409	0.13453	0.085631	0.053742	0.22707	0.2108	0.22502	0.19156	-2.4813	-2.7979	-2.8312	-3.1167	-2.5167	-2.7167	-2.8979	-2.7625	-3.0708	-2.7333	-2.6646	-3.0062	-2.6646	-2.7875	-2.9958	-2.65	153.465	212.716	-6.133	160.526	-3.679	135.444	133.865	182.536	194.604	-24.679	-68.391	167.557	217.256	271.396	186.645	201.161	0.00011677	0.00047656	4.5732e-05	717.39	3.7994e-06	5.6032e-06	712.05	195.39	3.5129e-06	6.4368e-06	242.08	97.161	74.621	30.871	2.2887e-06	43.382	0.0044971	0.007849	0.0022214	723.01	7.724e-05	8.9699e-05	725.08	202.05	7.9697e-05	8.9135e-05	251.39	101.56	79.521	32.393	8.1723e-05	45.184	198.113	8.775	233.983	-58.583	0.847	169.651	-59.823	-52.699	-40.268	99.592	-54.377	-50.362	-47.910	-42.597	-44.199	-45.300	-8191	255	
15366.171	1	1	0	0	0.057925	0.22553	0.17907	0.075604	0.22269	0.15873	0.16584	0.27644	0.070414	0.095032	0.017052	0.21623	0.1256	0.1827	0.047159	0.0723	-2.5479	-2.775	-2.5	-3.2125	-2.7292	-2.9292	-3.1188	-2.7583	-3.0125	-2.9562	-2.7687	-3.2604	-2.7583	-2.6625	-2.9917	-2.7354	228.584	257.504	-67.624	246.810	230.931	250.709	216.066	222.697	140.350	201.439	97.982	248.939	196.956	232.993	-47.216	254.806	0.00010454	0.00030649	0.00021487	710.88	3.5974e-06	3.8376e-06	701.73	192.15	2.0052e-06	3.7922e-06	238.17	96.416	74.542	30.941	3.9022e-06	43.114	0.0044532	0.0077842	0.0021971	720.98	7.8297e-05	8.9257e-05	718.06	200.44	8.0569e-05	8.9619e-05	249.07	100.74	79.198	32.228	8.1811e-05	44.975	160.733	2.465	3.041	-58.579	-41.591	-38.719	-59.773	-52.466	142.454	279.854	-54.470	-50.001	-47.902	-42.905	64.787	-45.723	-8191	255	
15366.267	1	1	0	0	0.13694	0.26461	0.17477	0.23248	0.3841	0.073716	0.34751	0.082938	0.2964	0.21034	0.18953	0.097821	0.11976	0.23861	0.088681	0.1006	-2.6646	-3.0021	-2.5542	-3.1021	-2.7333	-2.6625	-3.2729	-2.4417	-2.9896	-2.8979	-2.6021	-2.9417	-2.7854	-2.6937	-2.9958	-2.5833	158.137	178.423	-3.065	252.089	105.506	247.491	227.201	-59.583	281.330	154.971	198.804	238.941	-10.872	176.603	-19.106	93.245	0.00010238	0.00072987	0.00032901	713.46	7.1114e-07	7.7027e-06	707.98	194.82	1.1118e-06	1.8969e-06	239.48	96.995	75.248	31.014	1.6513e-06	43.393	0.0044857	0.0077783	0.0022151	719.93	7.8814e-05	8.9034e-05	719.84	201.59	7.9044e-05	8.5881e-05	250.01	101.34	79.579	32.459	8.0178e-05	45.426	141.444	34.168	29.164	-58.519	24.675	131.515	-59.958	-52.506	174.333	226.055	-54.292	-50.185	-47.943	-42.820	88.283	-45.176	-8191	255	
15366.388	1	1	0	0	0.1143	0.037974	0.25637	0.22566	0.090973	0.11459	0.045607	0.004378	0.38512	0.030811	0.12473	0.064098	0.16474	0.1268	0.19712	0.26664	-2.4938	-2.8292	-2.5896	-3.1771	-2.7417	-2.5667	-3.0979	-2.7958	-2.8521	-2.9104	-2.5333	-2.8187	-2.7521	-2.7333	-3.1188	-2.5438	194.762	240.728	-37.998	-58.821	205.024	1.752	123.840	78.431	233.506	4.650	-20.002	202.748	280.894	123.938	212.787	189.163	0.00017715	0.0005629	0.00011492	709.61	5.3026e-06	3.6338e-06	706.1	195.52	1.5694e-06	4.5813e-06	243.74	97.417	75.766	31.205	2.2112e-06	44.11	0.0044579	0.007783	0.0022381	720.29	7.9438e-05	8.942e-05	722.81	201.88	8.0235e-05	8.859e-05	252.79	101.99	80.012	32.577	8.3275e-05	45.875	178.958	-10.992	54.074	-58.653	88.058	11.057	-59.849	-52.691	34.959	50.961	-54.550	-50.023	-48.152	-42.671	144.721	-45.339	-8191	255	
15366.484	1	1	0	0	0.16385	0.1136	0.06938	0.26732	0.047201	0.15149	0.31326	0.073011	0.19157	0.1719	0.074898	0.22399	0.05243	0.22054	0.1472	0.12012	-2.3542	-2.8604	-2.4292	-3.0417	-2.8604	-2.5083	-2.9708	-2.8875	-2.7771	-3.1375	-2.7188	-2.9062	-2.9229	-2.5375	-3.0687	-2.6896	-8.494	211.447	212.489	-54.808	98.296	81.382	221.904	135.517	230.436	83.766	266.274	233.063	195.368	245.199	-34.832	-5.220	0.0001244	0.00071513	9.2666e-05	713.77	9.2408e-06	7.7939e-06	711.93	196.46	3.7122e-06	6.0257e-06	243.15	97.314	75.215	31.191	8.1237e-07	43.465	0.0046359	0.0079917	0.0022959	723.8	8.1426e-05	9.0575e-05	727.86	203.42	8.2275e-05	9.0559e-05	253.69	102.15	79.817	32.56	8.4961e-05	45.657	151.180	98.813	20.101	-58.762	51.878	133.046	-60.021	-52.650	238.688	8.810	-54.302	-50.033	-47.829	-43.131	263.822	-45.347	-8191	255	
15366.556	1	1	0	0	0.13078	0.062296	0.13244	0.19872	0.16531	0.17607	0.2466	0.16191	0.19844	0.24778	0.022476	0.16641	0.073297	0.1849	0.11924	0.19838	-2.4417	-2.9146	-2.55	-3.0729	-2.9333	-2.5875	-3.0354	-2.8625	-2.55	-3.0438	-2.7333	-2.8354	-2.9458	-2.7062	-2.7958	-2.9188	-49.949	273.916	31.222	277.512	278.736	186.709	236.698	-57.752	147.534	-20.494	172.340	202.646	-64.953	209.841	268.695	38.550	7.1127e-05	0.00038727	2.3547e-05	711.53	3.5453e-06	1.106e-05	708.74	194.17	4.1222e-06	4.224e-06	240.28	96.654	74.745	30.943	5.0942e-06	43.277	0.004599	0.0081686	0.002324	721.87	8.1681e-05	9.2581e-05	723.07	201.6	8.3342e-05	9.2907e-05	250.91	101.24	79.34	32.432	8.7773e-05	45.442	192.848	42.773	129.793	-58.481	127.134	-41.153	-59.712	-52.767	274.994	45.061	-54.320	-49.808	-47.879	-42.779	44.077	-45.476	-8191	255	
15366.676	1	1	0	0	0.1897	0.095712	0.081579	0.15615	0.036372	0.25055	0.10359	0.39521	0.053584	0.082653	0.23894	0.16636	0.064109	0.047134	0.11052	0.15154	-2.5083	-2.9938	-2.7021	-2.85	-3.0229	-2.5583	-3.0729	-3.025	-2.6396	-3.0938	-2.6167	-2.7542	-2.9896	-2.6146	-2.9813	-2.9021	-59.059	132.884	-61.129	279.138	171.321	282.033	181.867	245.012	-7.690	165.906	265.542	256.421	-31.945	243.792	-59.591	278.938	0.00017328	0.00013987	0.00016367	714.3	5.693e-06	2.6152e-06	708.83	195.9	4.1748e-06	5.5031e-06	241.11	97.195	75.043	31.084	7.2007e-06	43.982	0.0046974	0.0083522	0.0023834	721.67	8.3233e-05	9.4025e-05	723.72	202.75	8.3401e-05	9.2068e-05	252.34	102.03	79.584	32.557	8.7847e-05	45.871	150.117	-15.786	34.535	-58.611	13.893	11.107	-59.752	-52.558	149.016	80.452	-54.182	-49.639	-47.714	-43.004	127.596	-45.221	-8191	255	
15366.771	1	1	0	0	0.40907	0.31263	0.30749	0.12993	0.29924	0.14864	0.087235	0.24465	0.16472	0.22661	0.057748	0.15542	0.022003	0.21228	0.058616	0.24429	-2.0979	-3.2062	-2.8646	-2.9313	-2.9146	-2.7125	-2.9604	-2.9729	-2.675	-3.0896	-2.8521	-2.7708	-3.0438	-2.6917	-3.0167	-2.8063	-4.022	34.885	244.136	271.273	115.206	213.235	257.072	-6.955	-2.982	-43.284	-26.069	233.258	147.608	-17.072	-19.569	122.582	0.00015922	0.00047283	0.00013477	712.23	2.2594e-06	9.5019e-06	715.09	196.93	9.2874e-07	5.2348e-06	244.06	97.338	74.875	31.174	3.6059e-06	44.248	0.0046569	0.0084146	0.0023701	724.09	8.2997e-05	9.3723e-05	728.72	203.86	8.5253e-05	9.3285e-05	255.32	102.21	80.035	32.732	8.8287e-05	46.113	126.696	25.610	254.944	-58.228	151.053	82.137	-59.542	-52.559	231.184	35.839	-54.442	-49.896	-47.616	-42.556	42.107	-45.589	-8191	255	
15366.867	1	1	0	0	0.094194	0.05776	0.31986	0.16851	0.24431	0.063733	0.12293	0.078919	0.070852	0.055546	0.14427	0.11105	0.03522	0.12106	0.30688	0.089947	-2.25	-3.0312	-2.6688	-2.7833	-3.2271	-2.7208	-2.9333	-3.1021	-2.5187	-3.0417	-2.7854	-2.8708	-3.0583	-2.6396	-2.8375	-3.0625	243.462	93.241	-15.494	121.807	-24.815	250.190	70.199	-51.575	195.268	-63.417	43.679	163.188	150.505	240.403	80.020	170.723	0.00015158	0.00028162	7.2513e-05	716.17	3.2682e-06	5.7492e-06	718.37	198.02	3.347e-06	4.8068e-06	244.05	98.128	75.285	31.162	5.6531e-06	44.19	0.004664	0.0084321	0.0023547	726.57	8.2577e-05	9.467e-05	731.75	205.33	8.5106e-05	9.4398e-05	256.19	102.63	79.951	32.767	8.7053e-05	46.038	142.954	128.806	168.511	-58.714	85.405	175.872	-59.615	-52.731	208.628	87.291	-54.017	-49.787	-47.757	-42.865	138.456	-45.415	-8191	255	
15366.987	1	1	0	0	0.022635	0.18081	0.055971	0.29072	0.3887	0.19169	0.06853	0.059024	0.11996	0.12115	0.2003	0.15515	0.26025	0.43656	0.15342	0.096779	-2.1312	-3.0417	-2.7458	-2.5354	-3.1167	-2.8542	-3.0354	-3.0604	-2.5104	-3.1396	-2.675	-2.6729	-3.2	-2.9313	-2.7708	-3.1021	229.730	72.468	162.536	259.316	194.893	35.997	239.037	22.963	286.430	206.937	156.707	-12.315	215.961	273.184	199.643	135.083	0.00014704	0.00082987	7.8549e-05	714.67	7.9239e-06	6.1482e-07	712.01	197.54	8.677e-06	8.1e-06	242.5	97.238	74.673	31.119	5.0024e-06	43.866	0.0046424	0.0083414	0.0023426	723.98	8.1898e-05	9.5616e-05	726.76	204.5	8.5763e-05	9.5135e-05	254.46	102.03	79.687	32.668	8.816e-05	45.888	170.953	-3.891	71.427	-58.478	49.876	-33.454	-59.817	-52.373	224.830	65.292	-54.011	-49.768	-47.905	-42.793	27.455	-45.453	-8191	255	
15367.084	1	1	0	0	0.18055	0.04731	0.045299	0.23461	0.13697	0.11128	0.10233	0.076694	0.1063	0.085239	0.15432	0.21541	0.029958	0.037592	0.05398	0.17928	-2.1208	-2.7042	-2.85	-2.7604	-3.1396	-2.8396	-2.7292	-3.2375	-2.4875	-2.8521	-3.1417	-2.7958	-3.0229	-2.9021	-2.7896	-3.1458	-31.697	32.242	141.591	258.561	202.058	124.276	254.587	32.020	44.609	-14.954	166.571	-30.873	51.491	285.686	72.264	217.505	9.9235e-05	0.0004163	0.00033495	713.27	5.8211e-06	6.3813e-06	709.93	196.44	6.6935e-06	5.0286e-06	242.34	97.281	75.031	31.049	4.1465e-07	43.935	0.0047792	0.0085619	0.0023798	723.93	8.4495e-05	9.8187e-05	727.84	204.15	8.8282e-05	9.8652e-05	254.19	102.01	80.034	32.662	9.2113e-05	46.013	128.913	176.849	-24.298	-58.402	221.368	129.461	-59.701	-52.388	74.967	53.976	-54.717	-50.005	-47.813	-42.621	146.227	-45.454	-8191	255	
15367.180	1	1	0	0	0.13255	0.044808	0.17709	0.15016	0.16332	0.17489	0.32486	0.43038	0.049737	0.079572	0.23549	0.14132	0.19626	0.16099	0.32867	0.10268	-2.1354	-2.8083	-3.0187	-2.625	-2.9562	-2.825	-2.4646	-3.0854	-2.8042	-2.9354	-3.0021	-2.6979	-2.9417	-2.8375	-2.6458	-3.2062	-22.133	-38.818	74.614	216.826	-37.446	188.018	186.701	242.086	93.536	251.621	67.681	-14.674	-8.857	-41.760	229.093	82.828	0.00019147	0.00024015	8.9269e-05	715.73	7.6173e-06	4.8885e-06	712.16	196.81	6.2217e-06	1.7659e-06	244.04	98.481	75.021	31.342	4.3271e-06	44.13	0.0049378	0.0086911	0.0024086	725.03	8.5999e-05	9.9393e-05	728.33	204.05	8.9407e-05	9.9063e-05	255.77	102.61	80.16	32.849	9.2434e-05	46.275	167.728	43.562	131.216	-58.713	119.544	92.345	-59.690	-52.535	20.772	71.526	-54.317	-50.015	-47.518	-43.148	130.938	-45.632	-8191	255	
15367.276	1	1	0	0	0.06567	0.03335	0.11312	0.36754	0.13283	0.10558	0.057894	0.058831	0.14279	0.19942	0.25352	0.23816	0.21713	0.29008	0.0601	0.18758	-2.3229	-2.7958	-3.0708	-2.6542	-2.9708	-2.9229	-2.8271	-2.9708	-2.8229	-2.8125	-3.125	-2.8271	-2.9167	-2.9917	-2.7229	-3.1917	151.655	60.490	33.662	262.805	239.047	28.109	286.021	34.788	235.582	0.292	235.754	258.269	280.559	208.402	81.928	153.482	0.00017527	0.00047879	4.8879e-05	716.36	8.6209e-06	1.0682e-05	717.72	198.75	1.8294e-06	2.5273e-06	243.77	98.569	75.453	31.103	4.9079e-06	44.197	0.0049808	0.0087653	0.0024523	726.93	8.6862e-05	9.9938e-05	732.52	205.53	8.83e-05	9.8602e-05	256.19	103.14	80.455	32.782	9.0334e-05	46.16	157.738	41.900	25.021	-58.606	144.625	43.068	-59.740	-52.468	120.943	75.130	-54.647	-49.857	-47.790	-42.927	222.195	-45.789	-8191	255	
15367.372	1	1	0	0	0.28625	0.16861	0.23531	0.2012	0.20929	0.24006	0.12912	0.37061	0.072585	0.033446	0.2121	0.11773	0.13524	0.14972	0.26346	0.10585	-2.4417	-2.6813	-3.1167	-2.6625	-2.8812	-3.0062	-2.7021	-3.0687	-2.9229	-2.8937	-3.2	-2.75	-2.8917	-3.0771	-2.4646	-3.0812	100.158	68.996	17.478	224.113	43.824	267.063	-56.412	271.080	10.287	212.216	76.842	268.946	21.248	150.763	153.190	278.115	0.00015115	0.00046881	0.00013679	713.47	1.4675e-06	3.777e-07	708.41	194.79	3.589e-06	7.1838e-06	242.82	97.059	75.053	31.13	2.1455e-06	43.803	0.0048747	0.0086687	0.0024182	723.26	8.5439e-05	9.7657e-05	726.81	203.06	8.7551e-05	9.7315e-05	253.77	101.94	79.857	32.604	9.0555e-05	45.973	167.852	26.968	50.787	-58.560	66.476	217.164	-60.125	-52.666	67.978	110.476	-54.475	-49.979	-48.006	-42.805	18.683	-45.389	-8191	255	
15367.468	1	1	0	0	0.23324	0.28671	0.14662	0.14891	0.15446	0.20353	0.043264	0.20296	0.076737	0.067239	0.12172	0.095668	0.14256	0.21286	0.22256	0.15067	-2.5583	-2.5542	-3.3063	-2.7333	-2.8583	-2.9042	-2.7667	-3.0938	-2.9562	-2.6417	-3.1125	-2.8021	-2.7083	-3.2875	-2.5604	-3.0271	-1.838	177.971	35.831	187.090	44.332	-36.416	11.324	35.806	20.946	102.989	99.453	-10.469	198.912	235.176	276.265	153.829	0.00011675	0.00077575	0.00014023	709.98	2.5194e-06	3.7141e-06	709.91	195.64	6.4476e-06	9.3931e-06	242.5	97.134	74.474	31.087	4.6728e-06	44.13	0.004942	0.0087203	0.0024646	722.46	8.7487e-05	9.854e-05	727.66	202.94	8.7629e-05	9.6311e-05	254.4	102.2	79.766	32.702	9.1554e-05	46.129	186.156	0.227	-9.970	-58.545	59.036	164.329	-59.815	-52.544	52.925	168.540	-54.677	-49.790	-47.795	-42.884	104.568	-45.772	-8191	255	
15367.564	1	1	0	0	0.29864	0.15382	0.2072	0.0576	0.2495	0.17932	0.32909	0.10082	0.092389	0.059041	0.26576	0.11302	0.14478	0.1632	0.19365	0.13299	-2.425	-2.6417	-3.1271	-2.7396	-2.7812	-3.0104	-2.5708	-2.9021	-2.9083	-2.6562	-3.1625	-2.8083	-2.5625	-3.2271	-2.4583	-2.8542	137.228	229.735	271.272	-45.179	174.138	157.821	147.194	172.538	158.876	74.008	255.665	165.444	233.186	242.519	87.959	-4.652	9.3443e-05	0.00018548	0.00013867	709.9	3.1356e-06	1.9734e-06	713.61	195.07	4.4301e-06	6.1006e-06	244.23	97.468	75.408	31.062	4.8057e-06	44.14	0.0050191	0.0087897	0.0025127	724.55	8.8987e-05	0.00010015	729.92	203.79	8.8921e-05	9.8447e-05	255.66	102.72	80.269	32.779	9.2254e-05	46.345	99.953	-38.282	83.833	-58.712	103.659	176.892	-59.862	-52.193	-20.353	63.856	-54.732	-49.921	-47.555	-42.971	244.542	-45.637	-8191	255	
15367.683	1	1	0	0	0.1419	0.1887	0.15608	0.082174	0.028261	0.29216	0.18033	0.26623	0.12206	0.16344	0.1451	0.21083	0.29347	0.18375	0.19543	0.27508	-2.4875	-2.475	-2.975	-2.9354	-2.6958	-3.0167	-2.675	-2.8979	-2.9062	-2.2667	-2.9833	-2.8917	-2.6688	-3.0646	-2.6021	-2.7562	63.427	82.261	173.050	8.026	234.565	17.049	268.998	171.334	105.070	288.769	192.657	-66.951	270.832	215.501	35.301	268.296	0.00014453	0.0002299	0.00021054	716.34	6.8849e-06	1.5342e-06	713.99	196.66	3.5012e-06	1.5005e-06	244.53	98.156	75.226	31.106	1.2691e-06	44.354	0.0049915	0.0087426	0.0025318	726.49	8.9863e-05	0.00010114	732.04	204.78	9.0043e-05	0.00010061	257.08	103.13	80.314	32.808	9.1615e-05	46.365	171.212	253.373	7.471	-58.556	137.724	-32.524	-59.592	-52.632	205.005	58.612	-54.814	-49.637	-47.549	-42.494	37.995	-45.668	-8191	255	
15367.779	1	1	0	0	0.055536	0.17229	0.28601	0.18308	0.13618	0.13997	0.14611	0.17685	0.12951	0.12237	0.18895	0.1807	0.21409	0.06931	0.19075	0.087614	-2.6667	-2.45	-2.8375	-2.9167	-2.375	-3.1229	-2.6875	-2.7167	-3.0771	-2.6937	-2.9854	-2.8438	-2.6917	-3.0438	-2.7104	-2.8604	172.177	19.961	264.269	-33.824	73.105	222.603	132.246	269.871	84.838	-28.619	112.468	-69.580	161.440	199.687	217.647	121.751	0.00014981	0.00047567	7.4262e-05	712.04	7.0427e-06	7.793e-06	711.63	195.93	1.0021e-06	6.9454e-06	242.64	96.716	74.256	31.064	5.6039e-06	44.026	0.0049267	0.008761	0.0025038	723.31	8.7412e-05	9.8764e-05	727.4	203.54	8.7426e-05	9.7719e-05	254.28	101.79	79.621	32.736	9.0758e-05	45.977	153.826	109.948	209.167	-58.395	154.317	103.649	-59.679	-52.645	230.611	-1.129	-54.471	-50.141	-48.004	-42.833	162.250	-45.458	-8191	255	
15367.851	1	1	0	0	0.18714	0.23364	0.18439	0.14564	0.37813	0.21823	0.12467	0.21052	0.14339	0.17586	0.086928	0.10565	0.28125	0.098703	0.1587	0.1098	-2.6937	-2.4938	-3.0417	-3.0479	-2.5708	-3.0625	-2.7646	-2.8375	-2.9521	-2.6375	-2.7979	-2.8958	-2.6354	-3.0146	-2.8063	-2.8521	173.228	266.615	19.452	-48.038	50.408	222.024	75.739	-3.102	67.331	205.287	-23.936	9.931	22.612	68.740	140.644	175.586	0.00012316	0.00076583	0.00015122	707.76	1.344e-06	8.67e-06	710.83	195.33	2.5537e-06	1.1126e-05	241.8	97.416	75.455	31.389	5.4723e-06	44.211	0.0048508	0.00869	0.0024796	719.52	8.4961e-05	9.6598e-05	726.47	203.15	8.6894e-05	9.6209e-05	254.31	102.38	80.143	32.84	8.7952e-05	46.182	146.887	38.637	-44.535	-58.529	68.808	102.239	-60.087	-52.784	11.846	95.512	-54.217	-49.613	-47.859	-42.987	185.133	-45.340	-8191	255	
15367.947	1	1	0	0	0.13144	0.1821	0.070724	0.12103	0.10598	0.076294	0.29529	0.11504	0.223	0.038962	0.13244	0.074309	0.15213	0.21212	0.20189	0.16157	-2.5958	-2.5958	-2.7229	-3.0958	-2.5521	-2.9458	-2.8729	-2.7125	-3.125	-2.5187	-2.8792	-3.0583	-2.6979	-3.1167	-2.8875	-2.6271	259.246	-44.978	274.647	173.374	-38.419	59.866	170.645	-43.703	69.554	211.047	233.060	179.310	108.254	249.508	-16.367	245.167	0.00014836	0.00035283	0.00011467	710.67	4.4492e-06	1.4172e-05	715	196.59	2.24e-06	4.8171e-06	244.68	98.143	75.394	31.639	9.1616e-06	44.552	0.0046628	0.0082827	0.0023199	719.99	8.077e-05	9.184e-05	726.89	204.03	8.2823e-05	9.2578e-05	256	102.64	80.174	33.012	8.6791e-05	46.435	146.709	5.224	12.633	-58.608	173.222	14.208	-59.970	-52.705	31.967	200.779	-54.490	-49.593	-48.067	-43.157	42.594	-45.382	-8191	255	
15368.068	1	1	0	0	0.017834	0.22668	0.14242	0.22052	0.10879	0.38239	0.076747	0.20851	0.13115	0.15833	0.24256	0.033447	0.18483	0.089667	0.19815	0.22695	-2.3833	-2.725	-2.7042	-3.1521	-2.5	-2.9542	-2.8479	-2.5708	-3.0167	-2.85	-2.8625	-3.025	-2.4229	-2.8937	-2.9708	-2.475	39.766	151.962	157.752	222.874	222.184	234.569	118.163	262.886	2.657	69.540	-41.355	134.514	268.041	271.044	208.935	263.192	0.00026613	0.001044	0.00011828	711.17	1.8022e-06	7.7633e-06	716.83	197.02	3.9846e-06	6.5536e-06	245.74	98.735	75.642	31.552	1.193e-06	44.472	0.0046671	0.0084985	0.0023606	721.72	8.283e-05	9.4603e-05	731.97	204.34	8.4357e-05	9.3069e-05	256.63	103.22	80.334	32.998	8.5514e-05	46.466	160.121	0.912	154.765	-58.482	63.331	-11.029	-59.833	-52.837	104.651	90.882	-54.104	-49.869	-47.625	-42.461	114.448	-45.583	-8191	255	
15368.164	1	1	0	0	0.19321	0.089352	0.13319	0.3472	0.07032	0.17792	0.27153	0.088682	0.24874	0.11776	0.24097	0.050401	0.073318	0.088534	0.13691	0.15309	-2.4917	-2.7333	-2.5396	-3.1792	-2.6458	-3	-2.9354	-2.6375	-2.8625	-2.8271	-2.7062	-3.0979	-2.6042	-2.925	-3.1229	-2.6562	76.496	163.034	164.136	237.517	39.635	-68.440	-52.684	247.010	-9.227	289.198	270.440	201.056	150.642	59.169	-21.371	256.829	0.00019735	0.000603	0.00014846	708.96	7.1985e-06	4.8578e-06	710.1	195.37	4.4409e-06	1.0183e-05	244	97.68	74.819	31.316	4.2277e-06	43.904	0.0046732	0.0084485	0.0023427	719.35	8.2948e-05	9.3874e-05	726.16	203.14	8.4379e-05	9.1584e-05	254.15	102.03	79.697	32.812	8.4948e-05	46.051	195.959	-30.213	-35.073	-58.394	30.356	72.036	-59.685	-52.567	66.768	235.612	-54.145	-49.919	-47.873	-42.972	53.613	-45.580	-8191	255	
15368.260	1	1	0	0	0.25345	0.093918	0.11165	0.13984	0.15753	0.23028	0.16557	0.09131	0.21076	0.16589	0.2109	0.12623	0.085113	0.15106	0.14438	0.33774	-2.4271	-2.7479	-2.8021	-3.1292	-2.8021	-2.7458	-3.2562	-2.8125	-2.8917	-2.7625	-2.775	-2.975	-2.8208	-2.8271	-3.0563	-2.5187	-13.112	209.548	134.320	12.673	168.190	35.864	0.658	197.396	-40.639	191.410	243.355	247.774	213.851	-53.421	-46.145	192.211	9.4484e-05	0.00058884	0.00022747	705.99	5.8842e-07	9.1555e-06	713.44	196.88	2.722e-06	1.8558e-06	243.52	98.299	75.187	31.318	2.3794e-06	44.498	0.0046581	0.0083418	0.0023001	717.82	8.1988e-05	9.3119e-05	725.52	203.4	8.3202e-05	9.0689e-05	254.59	102.59	79.879	32.899	8.514e-05	46.454	127.399	39.741	169.433	-58.511	49.193	12.422	-59.683	-52.602	87.219	185.129	-54.276	-49.876	-48.161	-42.616	231.095	-45.678	-8191	255	
15368.356	1	1	0	0	0.18784	0.24022	0.094425	0.13071	0.19764	0.17493	0.10891	0.18439	0.069285	0.13612	0.10001	0.28301	0.29472	0.0525	0.16867	0.07594	-2.4479	-2.7562	-2.3229	-3.1146	-2.5938	-2.6729	-2.9896	-2.6229	-2.8104	-2.7687	-2.75	-2.9688	-2.8563	-2.6813	-2.9729	-2.6375	-33.864	97.260	40.476	-55.857	222.684	39.950	187.344	233.101	-66.573	31.484	195.170	221.641	190.078	-16.648	194.685	182.335	2.0278e-05	0.00049993	0.00019406	708.46	2.0623e-06	6.9688e-06	711.62	196.37	3.6473e-06	6.2852e-06	243.77	98.937	75.685	31.734	9.4167e-06	44.699	0.0046144	0.0082215	0.0022669	717.21	8.0963e-05	9.1736e-05	726.85	204.04	8.1761e-05	8.9435e-05	255.67	103.21	80.474	33.093	8.2505e-05	46.646	244.557	-1.902	34.277	-58.526	-21.486	29.260	-59.864	-52.625	58.714	139.757	-54.612	-50.089	-47.786	-42.676	122.068	-45.482	-8191	255	
15368.452	1	1	0	0	0.013329	0.059354	0.21978	0.18219	0.14102	0.080098	0.29151	0.40733	0.1398	0.13238	0.04998	0.19382	0.065715	0.067271	0.25938	0.18033	-2.4521	-2.9146	-2.6958	-2.9854	-2.8937	-2.725	-2.95	-2.7188	-2.8583	-2.8979	-2.5729	-2.9667	-2.8417	-2.7438	-2.9562	-2.6792	204.396	149.636	21.617	207.333	98.234	114.704	194.363	251.190	27.984	103.879	-60.082	254.088	151.400	205.140	210.369	151.825	0.00013701	0.0013527	0.00014285	714.07	2.5892e-06	1.2218e-05	715.72	199.22	2.4186e-06	8.023e-06	248.05	99.379	76.014	31.547	1.6008e-06	44.716	0.0045808	0.0079486	0.0022131	720.08	7.7645e-05	8.9185e-05	731.68	205.55	8.0667e-05	8.8776e-05	257.53	103.38	80.407	33.043	8.2173e-05	46.515	156.899	10.126	-20.109	-58.653	234.643	36.013	-59.715	-52.953	101.252	110.375	-54.444	-49.986	-47.762	-42.797	6.479	-45.627	-8191	255	
15368.549	1	1	0	0	0.17439	0.19197	0.12443	0.30894	0.35631	0.084968	0.16459	0.39897	0.1808	0.10274	0.054903	0.24965	0.26062	0.28529	0.19297	0.091821	-2.3667	-3.0458	-2.5417	-3.0146	-2.7708	-2.6312	-2.9833	-2.8896	-2.7833	-2.9958	-2.6188	-3.0771	-2.9688	-2.4062	-2.9917	-2.8187	19.854	257.503	115.014	215.122	154.590	171.102	143.988	247.613	85.712	273.613	-56.547	226.209	-47.650	279.064	247.970	169.272	0.00011199	0.00047601	0.00015042	706.93	3.7828e-06	3.5678e-06	711.8	196.94	3.9143e-06	3.703e-06	245.41	97.574	75.17	31.587	4.236e-06	44.284	0.0044342	0.0077297	0.002185	714.98	7.6034e-05	8.7666e-05	724.86	203.38	7.8634e-05	8.649e-05	254.9	102.15	79.589	32.795	8.1658e-05	46.221	147.447	24.519	-57.636	-58.527	28.040	63.834	-59.630	-52.714	144.917	-17.047	-54.185	-49.600	-47.688	-42.707	165.201	-45.527	-8191	255	
15368.668	1	1	0	0	0.057895	0.20613	0.26026	0.11501	0.1717	0.18564	0.17409	0.16985	0.13767	0.045355	0.10739	0.12731	0.26763	0.1063	0.12029	0.048754	-2.3083	-3.1375	-2.5625	-2.9167	-2.9854	-2.5625	-3.1167	-2.7438	-2.5667	-3.175	-2.7542	-2.8875	-2.9958	-2.7708	-3.0125	-2.7521	20.693	123.822	182.027	252.887	39.534	67.932	22.557	-48.554	-62.581	-49.192	178.756	189.632	73.084	-0.981	253.369	201.262	8.0185e-05	0.00079254	0.00022338	707.07	7.0124e-06	3.8742e-06	710.08	196.86	5.0347e-06	4.2053e-06	244.71	98.621	75.333	31.598	6.2484e-06	44.903	0.0043545	0.0076169	0.0021755	714.23	7.6032e-05	8.7386e-05	724.62	203.22	7.6858e-05	8.4495e-05	254.86	102.69	79.756	32.93	7.9176e-05	46.462	171.808	55.760	-2.255	-58.468	49.182	14.752	-59.688	-52.665	19.990	-54.635	-54.397	-49.833	-47.605	-42.562	232.438	-45.195	-8191	255	
15368.764	1	1	0	0	0.30198	0.19994	0.12699	0.2795	0.078012	0.13199	0.070513	0.24854	0.058561	0.11803	0.19764	0.18526	0.21454	0.099109	0.078669	0.32865	-1.9917	-3.0604	-2.6063	-2.925	-3.0687	-2.5375	-2.9896	-2.8542	-2.4854	-3.0333	-2.8063	-2.7229	-3.0208	-2.7687	-3.0583	-2.8667	159.006	67.102	236.122	-18.192	221.050	57.022	167.638	287.162	-19.815	79.297	-62.875	-68.960	96.842	152.206	-66.398	207.792	0.00014021	0.00022338	8.8099e-05	709.22	4.2512e-06	1.0137e-05	713.32	196.44	4.5476e-06	3.9659e-06	248.36	98.944	75.992	31.624	3.1938e-06	45.289	0.0043284	0.0075207	0.0021621	715.57	7.4204e-05	8.615e-05	727.7	203.84	7.5947e-05	8.3154e-05	256.44	103.24	80.333	33.019	7.8801e-05	46.921	176.210	106.689	-11.885	-58.361	85.980	49.881	-59.712	-52.659	113.144	56.813	-54.429	-49.489	-48.192	-42.615	12.685	-45.564	-8191	255	
15368.860	1	1	0	0	0.10594	0.21284	0.09593	0.19217	0.046771	0.17866	0.19855	0.075498	0.19281	0.060434	0.11967	0.26203	0.22634	0.15575	0.080111	0.089881	-2.0187	-3.0167	-2.5729	-2.8583	-3.0271	-2.5187	-2.8521	-3.1583	-2.6562	-3.1646	-2.8396	-2.8312	-3.0583	-2.6229	-3.1417	-2.9125	106.689	233.749	264.505	-16.099	37.753	138.556	135.330	46.772	64.857	0.564	114.886	-64.133	266.958	-40.673	15.718	57.850	0.00014558	0.00071142	0.00022391	708.72	3.6947e-06	3.57e-06	718.17	198.05	5.4187e-06	6.6e-06	246.83	99.506	75.269	31.542	4.2235e-06	45.03	0.0042342	0.0074349	0.0021462	717.34	7.3301e-05	8.5058e-05	730.44	204.21	7.5309e-05	8.5363e-05	257.32	103.69	79.891	33.056	7.825e-05	46.707	159.304	5.032	263.267	-58.656	20.826	169.247	-59.757	-52.338	59.755	35.405	-54.354	-49.945	-47.630	-42.521	148.383	-45.363	-8191	255	
15368.956	1	1	0	0	0.15593	0.17805	0.15785	0.34337	0.10287	0.14024	0.17761	0.33649	0.036902	0.15765	0.2727	0.12583	0.43697	0.21842	0.0080486	0.077701	-2.2021	-2.9688	-2.8729	-2.8042	-2.8854	-2.5958	-2.9958	-2.9375	-2.4854	-3.0292	-2.9021	-2.5563	-3.025	-2.7188	-2.8021	-3.0625	60.006	-4.249	160.792	271.479	247.151	259.371	209.668	188.549	-23.008	272.413	284.422	-12.128	185.468	22.135	105.229	-56.920	0.00012133	0.00027089	0.00015162	708.95	4.3241e-07	4.6066e-06	715.07	196.54	3.6163e-06	7.3885e-06	244.6	98.896	74.969	31.554	4.5678e-06	44.584	0.0042488	0.0074377	0.0021411	713.84	7.3516e-05	8.4261e-05	726.35	202.97	7.4989e-05	8.4336e-05	254.58	102.64	79.471	32.807	7.778e-05	46.388	172.403	-9.285	87.150	-58.590	209.831	51.622	-59.927	-52.853	178.933	31.618	-54.533	-49.817	-47.655	-43.027	28.983	-45.710	-8191	255	
15369.077	1	1	0	0	0.030195	0.24879	0.10678	0.06781	0.16819	0.15874	0.16668	0.17888	0.18031	0.41005	0.13655	0.29783	0.22221	0.24769	0.21267	0.13207	-2.2042	-2.8187	-2.9208	-2.6437	-3.1771	-2.7438	-2.9833	-3.025	-2.6854	-2.9542	-2.8917	-2.6375	-3.1625	-2.8312	-2.6771	-3.1792	102.478	257.834	114.123	-8.593	178.980	-46.889	253.487	250.592	265.998	182.001	259.143	244.158	169.156	283.827	168.291	178.833	0.00013052	0.00035283	2.4072e-05	709.2	5.1953e-06	4.7551e-06	717.4	197.75	6.0767e-06	7.2573e-06	247.57	98.9	75.81	31.786	5.1173e-06	45.369	0.0042276	0.0074041	0.002107	714.69	7.3276e-05	8.4345e-05	727.57	203.48	7.5509e-05	8.4469e-05	256.92	103.13	79.847	33.03	7.6179e-05	46.859	165.652	-38.061	12.042	-58.769	93.628	-19.222	-59.603	-52.633	97.389	28.822	-54.236	-50.103	-47.783	-42.963	8.504	-45.572	-8191	255	
15369.148	1	1	0	0	0.19565	0.083274	0.27436	0.126	0.19407	0.056541	0.25302	0.26623	0.18419	0.047009	0.091074	0.24374	0.092196	0.11614	0.21373	0.080283	-2.2896	-2.75	-2.9771	-2.6708	-3.1375	-2.8521	-2.9167	-3.1229	-2.5833	-2.8375	-2.8708	-2.6146	-3.0104	-2.7917	-2.475	-3.2521	80.510	21.297	0.189	220.969	226.769	-10.872	213.979	172.571	158.350	120.438	267.277	247.584	265.439	82.884	120.210	20.636	9.6103e-05	0.00064614	1.1403e-05	706.08	7.813e-06	7.979e-06	719.78	198.65	5.0299e-06	4.9692e-06	249.06	99.434	76.067	31.825	1.2336e-06	45.445	0.0042376	0.0075608	0.0020812	713.99	7.4315e-05	8.4167e-05	730.5	204.54	7.561e-05	8.4318e-05	257.96	103.95	80.469	33.206	7.7247e-05	47.191	189.645	79.739	283.614	-58.803	99.317	34.627	-59.799	-52.609	128.393	116.931	-54.210	-49.967	-47.767	-43.013	204.140	-45.513	-8191	255	
15369.244	1	1	0	0	0.1259	0.14898	0.30512	0.15563	0.11197	0.15509	0.16316	0.21944	0.016722	0.07678	0.090452	0.17218	0.217	0.28637	0.32362	0.064106	-2.1896	-2.7104	-3.0667	-2.5979	-3.0375	-2.8542	-2.6021	-3.0271	-2.7083	-2.8312	-2.9354	-2.675	-2.8771	-3.0375	-2.5229	-3.0917	278.747	188.996	-45.849	269.643	98.084	73.534	29.265	197.801	249.546	188.335	236.081	266.752	235.509	171.864	19.153	-0.982	0.00015779	0.00058109	0.0002354	708.21	4.6428e-06	5.4457e-06	722.04	199.27	1.5678e-06	4.587e-06	248.9	99.503	76.129	31.718	8.5046e-07	45.343	0.0042168	0.0075679	0.0020976	715.54	7.4997e-05	8.453e-05	733.53	205.69	7.6091e-05	8.4055e-05	258.38	103.94	80.311	33.103	7.7039e-05	47.04	152.387	161.016	6.741	-58.586	85.072	81.377	-59.654	-52.651	281.949	262.121	-54.463	-49.828	-47.736	-42.898	218.646	-45.681	-8191	255	
15369.365	1	1	0	0	0.019009	0.32174	0.13436	0.09594	0.37379	0.24567	0.26619	0.25175	0.042331	0.30218	0.11334	0.018961	0.12059	0.28665	0.35253	0.20821	-2.4271	-2.7	-2.8771	-2.6479	-3.0792	-2.9583	-2.625	-3.1104	-2.6021	-2.7562	-3.0375	-2.7313	-2.8333	-2.9083	-2.4833	-2.9646	287.824	13.775	254.657	143.586	22.022	-30.240	124.576	255.354	-17.551	121.820	65.890	100.723	238.370	-26.447	-15.199	167.476	0.000137	0.00020358	0.00015873	705.26	5.7695e-06	7.5598e-06	713.74	198.31	2.938e-06	4.1288e-06	248.66	98.667	75.79	31.669	2.2228e-06	45.092	0.0041838	0.0074483	0.0020267	711.88	7.2695e-05	8.2476e-05	726.11	203.72	7.3601e-05	8.0628e-05	256.37	102.87	79.894	32.925	7.5483e-05	46.784	202.998	-32.572	27.914	-58.595	79.803	105.109	-59.940	-52.740	-43.448	37.386	-54.692	-49.901	-47.768	-42.961	28.436	-45.521	-8191	255	
15369.459	1	1	0	0	0.14997	0.1047	0.19889	0.17052	0.087021	0.30497	0.16442	0.25867	0.31013	0.067518	0.10406	0.13399	0.021952	0.023426	0.065181	0.19408	-2.3479	-2.6437	-2.9729	-2.7458	-2.8833	-3.0687	-2.5854	-2.9833	-2.8167	-2.5646	-3.2354	-2.7229	-2.7333	-3.1021	-2.5229	-3.2771	194.995	286.389	-65.040	274.722	259.188	179.417	260.612	228.159	56.927	173.142	133.798	-65.989	278.382	265.869	217.464	218.351	0.00018533	0.00075075	0.00013505	703.84	4.6234e-06	6.1434e-06	712.68	197.91	3.9744e-06	6.1714e-06	248.28	99.641	76.102	31.778	2.7776e-06	45.227	0.0041375	0.0073061	0.0020131	711.4	7.2401e-05	8.1578e-05	727.1	203.82	7.3172e-05	8.0621e-05	257.35	103.57	80.242	33.056	7.6204e-05	46.982	174.516	0.353	26.909	-58.502	112.481	59.310	-59.499	-52.459	-3.993	79.841	-54.227	-49.885	-47.876	-42.628	58.280	-45.718	-8191	255	
15369.556	1	1	0	0	0.2194	0.044633	0.098662	0.29684	0.19218	0.10869	0.2337	0.12377	0.11737	0.14758	0.29565	0.23873	0.15386	0.17399	0.22751	0.017843	-2.4729	-2.6021	-2.9854	-2.7687	-2.8	-2.9604	-2.5875	-3.0125	-2.8646	-2.4958	-3.1583	-2.7292	-2.8458	-3.0417	-2.5333	-2.8604	193.429	-38.736	25.480	228.805	244.734	-32.232	-59.982	-41.798	44.380	64.847	259.219	286.427	87.654	-69.477	13.920	220.822	0.00017679	0.00046523	0.0002095	704.61	3.8907e-06	3.9359e-06	716.17	198.44	3.2945e-06	6.8255e-06	248.01	99.175	75.843	31.713	3.7356e-06	45.413	0.0041647	0.0074046	0.0020432	713.01	7.31e-05	8.3234e-05	728.93	204.27	7.5819e-05	8.2562e-05	258.19	103.73	80.087	33.07	7.7216e-05	47.176	121.474	-13.314	15.694	-58.574	64.060	116.752	-59.585	-52.378	101.166	125.115	-54.365	-49.854	-48.104	-42.735	-13.839	-45.559	-8191	255	
15369.652	1	1	0	0	0.12577	0.13845	0.12011	0.21877	0.16456	0.17222	0.20141	0.29479	0.23625	0.14473	0.34336	0.14651	0.085045	0.17006	0.15269	0.11944	-2.3896	-2.575	-3.0479	-2.6562	-2.8167	-3.1208	-2.6958	-2.9542	-2.8479	-2.5458	-3.0208	-2.9896	-2.5104	-3.1625	-2.9188	-2.9458	-9.138	259.088	140.635	247.906	226.515	71.864	-47.399	254.510	68.390	22.408	257.731	-8.351	-59.342	206.550	22.948	-46.571	0.00018104	0.00042112	0.00022083	709.04	1.8574e-06	4.636e-06	720.85	199.29	6.16e-06	9.1866e-06	250.14	100.21	76.416	31.862	4.0985e-06	45.508	0.0041384	0.0073772	0.0020713	714.29	7.2628e-05	8.2983e-05	731.15	205.16	7.5492e-05	8.2859e-05	259.56	104.22	80.443	33.188	7.7241e-05	47.267	158.931	90.621	16.160	-58.655	-17.671	53.517	-59.656	-52.640	129.323	68.409	-54.340	-50.061	-47.869	-42.900	66.460	-45.525	-8191	255	
15369.748	1	1	0	0	0.21238	0.15479	0.28619	0.080581	0.16511	0.19155	0.19088	0.11881	0.1639	0.10003	0.19825	0.095345	0.12171	0.20918	0.12494	0.30433	-2.6083	-2.6854	-3.0312	-2.8833	-2.6833	-3.0938	-2.9	-2.8625	-2.8312	-2.7062	-3	-2.8333	-2.6083	-3.1104	-2.7042	-2.9375	105.585	78.202	102.533	-37.120	115.685	182.242	225.597	120.803	16.612	237.648	220.358	18.848	281.716	0.586	282.764	255.773	0.00010671	0.0008394	0.00014231	709.13	1.5244e-06	6.4107e-06	716.91	199.86	2.58e-07	8.3459e-06	248.45	100.1	75.887	32.033	2.0503e-07	45.489	0.0041477	0.0074525	0.0020885	715.06	7.2852e-05	8.3199e-05	727.71	205.07	7.4298e-05	8.167e-05	257.92	103.62	80.008	33.1	7.8073e-05	46.999	227.891	-14.815	275.543	-58.533	12.244	69.630	-59.624	-52.541	279.567	116.971	-54.333	-49.964	-48.119	-42.908	124.332	-45.433	-8191	255	
15369.844	1	1	0	0	0.27807	0.092505	0.11827	0.19405	0.073455	0.049878	0.078449	0.20753	0.11659	0.20455	0.14808	0.25016	0.068317	0.13285	0.12752	0.13156	-2.5083	-2.4437	-2.9167	-2.9354	-2.6167	-3.1667	-2.7812	-2.9292	-3.0521	-2.4437	-3.0021	-2.8625	-2.6021	-2.9396	-2.6083	-2.7083	25.966	288.426	-38.634	183.973	145.312	134.442	55.876	196.172	103.488	35.428	196.895	284.702	200.785	-55.410	25.407	239.413	0.00015464	0.00057667	0.00014619	700.59	6.9645e-07	7.1738e-06	719.93	199.44	2.5526e-06	7.6386e-06	249.57	99.512	75.996	31.832	4.1828e-06	45.656	0.0041228	0.0072586	0.0020283	710.75	6.9804e-05	8.1335e-05	728.55	204.85	7.1865e-05	8.169e-05	258.73	103.63	80.227	33.163	7.7568e-05	47.192	148.370	5.555	17.202	-58.515	229.688	41.127	-59.642	-52.536	18.216	87.426	-54.229	-49.697	-47.992	-42.774	138.112	-45.410	-8191	255	
15369.940	1	1	0	0	0.11963	0.19965	0.064388	0.27096	0.3548	0.20893	0.11804	0.12932	0.26587	0.072373	0.099118	0.46777	0.16558	0.1601	0.30667	0.061308	-2.5958	-2.4979	-2.9229	-2.9437	-2.475	-3.0229	-2.9125	-2.8125	-3.1792	-2.5958	-3.1229	-2.9729	-2.7042	-3.0521	-2.7271	-2.7479	200.281	-45.439	80.624	-17.109	226.008	21.832	202.661	21.950	-35.757	66.097	206.329	235.502	265.875	185.934	173.508	287.088	0.00027481	0.00045708	0.00016014	707.96	8.8837e-07	7.2601e-06	719.02	200.19	3.7104e-06	9.5424e-06	250.98	100.07	76.06	32.024	6.0638e-06	45.589	0.0040702	0.0072148	0.0020643	713.23	7.0748e-05	8.1058e-05	729.55	205.42	7.1134e-05	8.0466e-05	259.57	104.07	80.253	33.214	7.6286e-05	47.364	181.186	29.823	139.615	-58.485	90.442	157.541	-60.010	-52.738	187.177	94.488	-54.123	-50.070	-47.633	-42.799	30.357	-45.652	-8191	255	
15370.036	1	1	0	0	0.28555	0.079872	0.088028	0.22565	0.1973	0.35567	0.16124	0.31242	0.09229	0.17238	0.10047	0.11768	0.079388	0.18596	0.16721	0.28599	-2.5792	-2.6104	-2.8625	-2.9396	-2.4333	-3.1021	-2.9188	-2.65	-3.0792	-2.6854	-2.7875	-2.9896	-2.5375	-2.8646	-2.9083	-2.5333	-42.177	179.330	-58.818	-63.182	27.992	238.705	-43.508	189.363	74.056	48.959	82.377	232.731	29.511	50.898	265.110	-61.376	6.0894e-05	0.00014454	0.00016123	705.71	2.9256e-06	5.6102e-06	721.99	199.22	2.8994e-06	1.9944e-06	250.93	100.82	76.215	31.847	4.8451e-06	45.543	0.0040702	0.0071309	0.0020479	712.12	7.1253e-05	8.1212e-05	732.87	204.72	7.1101e-05	7.9884e-05	259.22	104.23	80.143	33.158	7.3928e-05	47.148	140.379	151.676	2.336	-58.632	127.713	-13.201	-59.779	-52.600	120.345	97.222	-53.961	-50.050	-48.018	-42.731	-2.312	-45.573	-8191	255	
15370.157	1	1	0	0	0.042969	0.056317	0.24129	0.16133	0.15184	0.18054	0.23846	0.13485	0.1575	0.043043	0.2955	0.074289	0.21314	0.1273	0.1045	0.078588	-2.8083	-2.75	-2.7854	-3.0083	-2.5958	-2.9021	-3.0417	-2.6771	-2.9771	-2.5792	-2.8542	-3.0896	-2.5938	-2.9917	-3.0187	-2.5458	-53.963	-48.016	250.788	-41.791	104.288	185.314	123.013	-54.996	-36.970	-0.657	234.131	-6.758	105.177	69.172	-67.759	-48.052	0.00013609	0.00028557	0.00012967	707.29	3.0538e-06	7.4425e-06	715.87	198.51	4.8493e-06	3.7723e-06	248.61	99.03	75.571	31.8	6.5598e-06	45.358	0.0039215	0.0068973	0.0019266	709	6.6437e-05	7.5747e-05	725.17	203.16	6.6776e-05	7.6215e-05	256.67	102.99	79.408	32.921	6.9088e-05	46.697	177.059	127.230	10.380	-58.685	126.137	78.383	-59.534	-52.778	273.845	110.129	-54.724	-50.008	-47.641	-43.127	31.229	-45.965	-8191	255	
15370.253	1	1	0	0	0.13965	0.11069	0.082798	0.17749	0.19578	0.20771	0.17166	0.1152	0.15123	0.21242	0.16056	0.21142	0.069541	0.10121	0.20696	0.16299	-2.7292	-2.5521	-2.5417	-3.0542	-2.6625	-2.9542	-3.0625	-2.6271	-3.0708	-2.7479	-2.7833	-3.0771	-2.775	-2.8563	-2.9792	-2.5646	191.677	-36.625	277.655	-19.665	178.113	42.165	-69.933	-19.643	145.239	271.370	-0.206	-45.742	197.523	167.709	-2.962	-64.635	6.2941e-05	0.00026794	5.5226e-05	705.16	2.9586e-06	1.2676e-05	721.51	199.05	3.8271e-06	5.381e-06	249.2	99.325	75.975	31.653	1.9214e-06	45.455	0.0037847	0.0066389	0.0018518	706.64	6.473e-05	7.3124e-05	726.57	203.47	6.5332e-05	7.2711e-05	256.47	103.09	79.506	32.924	6.6842e-05	46.736	130.196	-70.457	95.248	-58.565	51.730	50.388	-59.806	-52.648	26.596	28.027	-54.144	-49.929	-47.907	-42.937	17.597	-45.436	-8191	255	
15370.349	1	1	0	0	0.24136	0.11941	0.36871	0.23009	0.15821	0.23452	0.19989	0.18287	0.11278	0.18161	0.37687	0.089677	0.056167	0.10111	0.12064	0.1077	-2.55	-2.7917	-2.5979	-3.1875	-2.7521	-2.7875	-3.025	-2.4875	-3.1729	-3.0438	-2.6833	-3.0854	-2.6375	-2.8833	-3.0563	-2.6604	64.783	103.518	217.373	-27.833	64.880	109.492	108.036	260.551	91.386	-14.968	236.320	246.154	234.036	206.698	-41.752	-19.338	0.0001199	0.00029003	0.00028106	706.36	1.2588e-06	3.3511e-06	717.84	199.61	2.0146e-06	3.4424e-06	248.89	99.217	75.303	31.742	2.9275e-06	45.146	0.0036945	0.006515	0.0018514	708.23	6.4872e-05	7.409e-05	725.75	203.69	6.6405e-05	7.2898e-05	255.26	102.83	79.019	32.859	6.6774e-05	46.783	169.134	-1.051	67.185	-58.506	119.984	141.953	-59.797	-52.568	50.954	177.880	-54.512	-49.786	-48.004	-42.679	-66.590	-45.803	-8191	255	
15370.445	1	1	0	0	0.19634	0.22023	0.16754	0.23082	0.17705	0.042355	0.073269	0.15403	0.17652	0.14192	0.16433	0.12754	0.086649	0.22878	0.10626	0.067168	-2.5167	-2.8375	-2.5521	-3.1375	-2.6792	-2.7417	-3.1417	-2.5729	-2.9583	-2.9062	-2.4854	-3.1021	-2.7229	-2.8104	-3.2396	-2.7	231.820	156.706	174.627	265.111	144.507	-60.010	237.145	115.400	-21.229	193.913	-29.244	17.748	259.866	270.716	12.654	287.897	0.00011444	0.00089727	0.00013681	704.82	4.0767e-06	4.9349e-06	716.67	198.58	4.7402e-06	4.1592e-06	248.7	98.57	75.559	31.753	8.0744e-06	45.207	0.0037492	0.0065896	0.0018332	707.32	6.584e-05	7.4364e-05	725.87	203.28	6.6649e-05	7.1713e-05	256.9	103.15	79.478	32.937	6.813e-05	46.775	173.041	-6.332	-16.250	-58.361	145.688	103.271	-59.872	-52.585	19.280	141.468	-54.244	-49.962	-48.092	-42.667	94.748	-45.933	-8191	255	
15370.540	1	1	0	0	0.1274	0.18592	0.15149	0.028171	0.083066	0.11932	0.19701	0.2793	0.165	0.1988	0.12632	0.28376	0.027176	0.084241	0.12243	0.061852	-2.575	-2.7729	-2.5854	-2.9625	-2.7687	-2.6333	-3.2938	-2.7167	-2.8646	-2.9437	-2.5521	-2.8125	-2.8917	-2.6646	-2.7875	-2.8271	18.885	-66.487	35.716	151.755	-43.087	250.167	276.398	178.153	104.151	107.703	-19.225	225.132	76.055	233.731	206.417	197.374	0.00015684	0.00042886	0.0001709	700.51	2.0324e-06	5.3775e-06	712.18	198.83	3.4915e-06	7.7995e-06	249.41	98.941	75.291	31.528	9.1524e-06	45.216	0.0038239	0.0065811	0.0018474	704.93	6.5932e-05	7.3098e-05	721.9	203.41	6.7529e-05	7.3049e-05	256.21	102.71	79.167	32.854	6.8891e-05	46.727	150.547	-2.693	46.300	-58.759	41.028	94.165	-59.858	-52.717	65.108	73.994	-54.010	-50.105	-47.752	-42.923	62.919	-45.596	-8191	255	
15370.636	1	1	0	0	0.033842	0.15819	0.19857	0.18986	0.063035	0.23388	0.2922	0.10194	0.1366	0.14692	0.17709	0.11166	0.23923	0.26022	0.1425	0.23176	-2.3	-2.9979	-2.475	-3.1521	-2.9313	-2.5479	-3.0312	-2.6417	-2.75	-3.0729	-2.5979	-2.8729	-2.8208	-2.5729	-3.2229	-2.8333	31.652	159.916	67.896	-53.695	156.728	152.577	151.200	8.318	133.649	96.954	78.469	-41.767	195.691	4.225	101.159	-54.924	8.035e-05	0.0006195	0.00020732	703.51	8.2318e-07	7.138e-06	712.78	199.04	4.5434e-06	4.985e-06	250.25	99.944	75.507	31.95	3.0421e-06	45.472	0.0038206	0.0067039	0.0018849	706.47	6.7383e-05	7.6291e-05	723.26	204.19	6.9099e-05	7.5064e-05	257.75	103.69	79.683	33.13	7.0832e-05	47.182	155.941	35.570	22.198	-58.619	-63.379	121.925	-60.056	-52.487	110.203	132.541	-54.545	-49.903	-48.255	-42.819	54.370	-45.612	-8191	255	
15370.757	1	1	0	0	0.25768	0.023457	0.40777	0.25862	0.15209	0.087617	0.098795	0.06911	0.14209	0.14344	0.16617	0.20982	0.20444	0.23346	0.21203	0.14303	-2.2292	-3.0917	-2.5438	-3.0771	-2.8417	-2.7812	-3.1354	-2.9167	-2.675	-3.1167	-2.7771	-2.9292	-3.0708	-2.7083	-3.1229	-2.6813	-23.569	145.053	8.493	173.746	197.497	77.834	-44.601	233.640	266.850	286.750	101.111	275.346	275.584	-0.011	-5.052	187.617	0.00016796	0.00093297	9.5253e-05	702.46	1.0467e-05	6.2065e-06	718.54	199.53	2.1638e-06	7.6539e-06	249.15	99.626	75.921	32.044	4.617e-06	45.74	0.0038318	0.0067882	0.0019033	708.52	6.731e-05	7.7342e-05	726.78	204.3	7.0352e-05	7.7405e-05	258.31	103.91	79.946	33.213	7.398e-05	47.405	138.116	33.966	48.028	-58.956	115.637	75.069	-59.506	-52.703	37.205	63.101	-54.418	-49.884	-47.899	-42.982	96.163	-45.557	-8191	255	
15370.853	1	1	0	0	0.17858	0.21666	0.21227	0.25902	0.042076	0.025015	0.20802	0.11747	0.29973	0.10631	0.065983	0.16047	0.19013	0.19237	0.33154	0.10525	-2.0708	-2.9229	-2.8479	-2.7521	-2.8479	-2.5333	-2.9708	-2.7083	-2.6312	-3.2625	-2.6937	-2.9437	-3.0354	-2.4375	-3.0625	-2.9229	88.113	67.506	74.030	240.985	-49.324	284.597	237.297	-67.527	71.461	19.147	229.699	178.800	157.384	207.152	-3.847	38.712	7.2084e-05	0.0011569	7.4503e-05	704.6	1.6501e-06	4.4281e-06	719.5	200.04	4.6355e-06	8.9859e-06	251.56	100.85	76.649	32.139	1.0465e-06	45.869	0.0039533	0.0070036	0.0019537	708.89	6.8549e-05	7.8925e-05	730.19	205.38	7.058e-05	7.828e-05	260.21	104.59	80.406	33.419	7.3706e-05	47.465	130.986	-2.625	135.898	-58.748	10.123	-12.488	-59.449	-52.491	10.939	127.151	-54.476	-50.139	-47.851	-42.920	218.737	-45.655	-8191	255	
#DATA ENDS
