BOXY.EXE: ISS Imagent and Oximeter Data Acquisition Program Version 0.80
Ascii Record File

#ACQ INFORMATION
2  Detector Channels 
16  External MUX Channels 
1  Auxiliary Channels 
5000  Waveform (CCF) Frequency (Hz)
1  Waveforms Skipped 
30  Waveforms Averaged 
1  Cycles Averaged 
16  Acquisitions per Waveform 
10.0806  Updata Rate (Hz) 

#FILE INFORMATION
TRUE -- External MUX Channel results are PARSED.
FALSE -- AC DC and Phase are NOT grouped.
TRUE -- Companion Program Settings File CREATED.
FALSE -- AC data not excluded
FALSE -- DC data not excluded
FALSE -- Phase data not excluded
FALSE -- Auxillary Chn. data not excluded
Tab delimiters

#CALIBRATION STATE
TRUE -- Waveform Calibration Values APPLIED.


#AUX CALIBRATION VALUES
Val Type	aux-1	

Term	1.0000e+00	
Factor	0.0000e+00	


#WF CALIBRATION VALUES
A = Detector Channel
Val Type	A-AC1	A-AC2	A-AC3	A-AC4	A-AC5	A-AC6	A-AC7	A-AC8	A-AC9	A-AC10	A-AC11	A-AC12	A-AC13	A-AC14	A-AC15	A-AC16	A-DC1	A-DC2	A-DC3	A-DC4	A-DC5	A-DC6	A-DC7	A-DC8	A-DC9	A-DC10	A-DC11	A-DC12	A-DC13	A-DC14	A-DC15	A-DC16	A-Ph1	A-Ph2	A-Ph3	A-Ph4	A-Ph5	A-Ph6	A-Ph7	A-Ph8	A-Ph9	A-Ph10	A-Ph11	A-Ph12	A-Ph13	A-Ph14	A-Ph15	A-Ph16	

Term	0.00000e+00	0.00000e+00	0.00000e+00	0.00000e+00	0.00000e+00	0.00000e+00	0.00000e+00	0.00000e+00	0.00000e+00	0.00000e+00	0.00000e+00	0.00000e+00	0.00000e+00	0.00000e+00	0.00000e+00	0.00000e+00	0.00000e+00	0.00000e+00	0.00000e+00	0.00000e+00	0.00000e+00	0.00000e+00	0.00000e+00	0.00000e+00	0.00000e+00	0.00000e+00	0.00000e+00	0.00000e+00	0.00000e+00	0.00000e+00	0.00000e+00	0.00000e+00	0.00000e+00	0.00000e+00	0.00000e+00	0.00000e+00	0.00000e+00	0.00000e+00	0.00000e+00	0.00000e+00	0.00000e+00	0.00000e+00	0.00000e+00	0.00000e+00	0.00000e+00	0.00000e+00	0.00000e+00	0.00000e+00	
Factor	1.00000e+00	1.00000e+00	1.00000e+00	1.00000e+00	1.00000e+00	1.00000e+00	1.00000e+00	1.00000e+00	1.00000e+00	1.00000e+00	1.00000e+00	1.00000e+00	1.00000e+00	1.00000e+00	1.00000e+00	1.00000e+00	1.00000e+00	1.00000e+00	1.00000e+00	1.00000e+00	1.00000e+00	1.00000e+00	1.00000e+00	1.00000e+00	1.00000e+00	1.00000e+00	1.00000e+00	1.00000e+00	1.00000e+00	1.00000e+00	1.00000e+00	1.00000e+00	X	X	X	X	X	X	X	X	X	X	X	X	X	X	X	X	

B = Detector Channel
Val Type	B-AC1	B-AC2	B-AC3	B-AC4	B-AC5	B-AC6	B-AC7	B-AC8	B-AC9	B-AC10	B-AC11	B-AC12	B-AC13	B-AC14	B-AC15	B-AC16	B-DC1	B-DC2	B-DC3	B-DC4	B-DC5	B-DC6	B-DC7	B-DC8	B-DC9	B-DC10	B-DC11	B-DC12	B-DC13	B-DC14	B-DC15	B-DC16	B-Ph1	B-Ph2	B-Ph3	B-Ph4	B-Ph5	B-Ph6	B-Ph7	B-Ph8	B-Ph9	B-Ph10	B-Ph11	B-Ph12	B-Ph13	B-Ph14	B-Ph15	B-Ph16	

Term	0.00000e+00	0.00000e+00	0.00000e+00	0.00000e+00	0.00000e+00	0.00000e+00	0.00000e+00	0.00000e+00	0.00000e+00	0.00000e+00	0.00000e+00	0.00000e+00	0.00000e+00	0.00000e+00	0.00000e+00	0.00000e+00	0.00000e+00	0.00000e+00	0.00000e+00	0.00000e+00	0.00000e+00	0.00000e+00	0.00000e+00	0.00000e+00	0.00000e+00	0.00000e+00	0.00000e+00	0.00000e+00	0.00000e+00	0.00000e+00	0.00000e+00	0.00000e+00	-1.27282e+02	-1.30498e+02	-1.26606e+02	-1.82720e+02	-7.04405e+01	-6.88341e+01	-1.60843e+02	-1.62015e+02	-7.31909e+01	-6.92541e+01	-1.72572e+02	-1.72955e+02	-1.82795e+02	-1.78089e+02	-7.17232e+01	-1.50939e+02	
Factor	1.93131e-05	1.69621e-04	4.86892e-05	1.65898e-01	1.33105e-06	1.92021e-06	1.95781e-01	6.11879e-02	1.30919e-06	1.87107e-06	9.62612e-02	3.22527e-02	2.98245e-02	9.98308e-03	1.50668e-06	1.45378e-02	1.28716e-05	2.34187e-05	6.58817e-06	8.38859e-02	2.30464e-07	2.64030e-07	9.33801e-02	3.11235e-02	2.35691e-07	2.61591e-07	4.74826e-02	1.59974e-02	1.53938e-02	5.11434e-03	2.44169e-07	7.23425e-03	X	X	X	X	X	X	X	X	X	X	X	X	X	X	X	X	



#DISTANCE SETTINGS
A = Detector Channel
A-1	A-2	A-3	A-4	A-5	A-6	A-7	A-8	A-9	A-10	A-11	A-12	A-13	A-14	A-15	A-16	

2.5000e+00	3.0000e+00	2.5000e+00	3.0000e+00	2.0000e+00	3.0000e+00	1.5000e+00	3.0000e+00	3.0000e+00	3.0000e+00	3.0000e+00	3.0000e+00	3.0000e+00	3.0000e+00	1.5000e+00	3.0000e+00	

B = Detector Channel
B-1	B-2	B-3	B-4	B-5	B-6	B-7	B-8	B-9	B-10	B-11	B-12	B-13	B-14	B-15	B-16	

1.0000e+01	1.0000e+01	1.0000e+01	1.4400e+00	1.0000e+01	1.0000e+01	1.5100e+00	1.9400e+00	1.0000e+01	1.0000e+01	1.9900e+00	2.4900e+00	2.4100e+00	2.9000e+00	1.0000e+01	2.9800e+00	




#DATA BEGINS
time	group	step	mark	flag	A-AC1	A-AC2	A-AC3	A-AC4	A-AC5	A-AC6	A-AC7	A-AC8	A-AC9	A-AC10	A-AC11	A-AC12	A-AC13	A-AC14	A-AC15	A-AC16	A-DC1	A-DC2	A-DC3	A-DC4	A-DC5	A-DC6	A-DC7	A-DC8	A-DC9	A-DC10	A-DC11	A-DC12	A-DC13	A-DC14	A-DC15	A-DC16	A-Ph1	A-Ph2	A-Ph3	A-Ph4	A-Ph5	A-Ph6	A-Ph7	A-Ph8	A-Ph9	A-Ph10	A-Ph11	A-Ph12	A-Ph13	A-Ph14	A-Ph15	A-Ph16	B-AC1	B-AC2	B-AC3	B-AC4	B-AC5	B-AC6	B-AC7	B-AC8	B-AC9	B-AC10	B-AC11	B-AC12	B-AC13	B-AC14	B-AC15	B-AC16	B-DC1	B-DC2	B-DC3	B-DC4	B-DC5	B-DC6	B-DC7	B-DC8	B-DC9	B-DC10	B-DC11	B-DC12	B-DC13	B-DC14	B-DC15	B-DC16	B-Ph1	B-Ph2	B-Ph3	B-Ph4	B-Ph5	B-Ph6	B-Ph7	B-Ph8	B-Ph9	B-Ph10	B-Ph11	B-Ph12	B-Ph13	B-Ph14	B-Ph15	B-Ph16	aux-1	digaux	

15195.711	1	1	0	256	0.05322	0.14445	0.093353	0.13459	0.21579	0.077419	0.20411	0.19744	0.13482	0.15541	0.21309	0.096834	0.086294	0.12594	0.12297	0.23833	-2.1792	-2.2708	-2.3854	-2.8646	-2.2083	-2.85	-2.5458	-2.1667	-2.7938	-2.3208	-2.65	-2.5708	-2.5083	-2.7896	-2.6521	-2.3104	217.533	7.771	207.624	210.002	120.331	262.823	163.442	-46.084	254.171	109.832	222.010	82.185	-53.325	272.471	53.375	-15.403	5.2036e-05	0.00014926	2.7881e-05	649.85	1.629e-06	1.054e-06	742.98	129.5	1.6081e-06	3.1508e-06	176.42	50.541	34.591	11.577	1.2616e-06	19.239	0.00045466	0.00073349	0.00020787	630.87	7.65e-06	8.1365e-06	726.16	127.46	7.5333e-06	8.2576e-06	172.75	50.35	34.431	11.51	7.2925e-06	19.228	137.749	25.709	4.599	-60.465	91.066	60.988	-60.882	-54.184	67.249	113.442	-55.592	-50.144	-47.948	-43.647	29.077	-46.304	-8191	255	
15195.782	1	1	0	0	0.21646	0.042064	0.095518	0.21591	0.12967	0.10762	0.11662	0.067883	0.13715	0.39893	0.20498	0.20873	0.23964	0.36472	0.084116	0.15531	-2.5938	-2.4458	-2.5458	-2.8187	-2.1875	-2.8792	-2.8688	-2.5125	-2.8167	-2.4854	-2.5708	-2.8021	-2.2792	-2.7083	-2.7208	-2.4542	-53.843	86.760	70.181	254.071	172.072	0.300	49.715	210.956	78.488	100.488	-70.593	269.953	21.186	227.619	133.477	246.205	5.9619e-05	0.00019845	5.2224e-05	650.7	1.3051e-06	3.1278e-06	740.89	129.16	1.2651e-06	2.217e-06	176.09	51.056	34.769	11.515	9.5504e-07	19.497	0.00045576	0.00072579	0.00019844	629.99	7.4157e-06	7.8709e-06	722.09	126.82	7.4046e-06	7.9622e-06	172.4	50.554	34.525	11.492	7.3215e-06	19.359	154.403	54.559	9.348	-60.464	78.565	90.571	-61.199	-54.510	114.783	87.217	-56.040	-49.504	-48.559	-44.251	-1.137	-45.804	-8191	255	
15195.879	1	1	0	0	0.19104	0.21331	0.18875	0.043542	0.33791	0.057588	0.096335	0.23553	0.15429	0.010226	0.20609	0.22605	0.20394	0.1033	0.037362	0.052397	-2.4854	-2.4479	-2.5187	-2.8438	-2.5583	-2.6917	-2.7375	-2.2625	-2.6604	-2.65	-2.4354	-2.8563	-2.6458	-2.5917	-2.9833	-2.2896	-67.822	99.059	124.462	248.773	253.460	254.511	272.293	151.330	137.991	68.022	52.177	150.143	151.410	162.112	203.726	105.215	3.9138e-05	0.00016012	6.3728e-05	642.56	1.6721e-06	2.4609e-06	736.08	128.75	1.3344e-06	1.874e-06	175.77	51.454	34.78	11.602	1.8306e-06	19.527	0.00045807	0.00072291	0.00020536	626.4	7.2856e-06	7.949e-06	719.97	127.11	7.3182e-06	7.7191e-06	172.6	51.076	34.57	11.518	7.5128e-06	19.484	144.261	0.829	-6.226	-60.373	14.863	50.969	-60.849	-54.287	-14.222	52.959	-55.574	-49.393	-48.486	-43.587	100.029	-46.095	-8191	255	
15195.999	1	1	0	0	0.045482	0.03997	0.21634	0.054863	0.088803	0.03218	0.1934	0.21494	0.29733	0.092645	0.22867	0.11698	0.21956	0.11234	0.15645	0.16729	-2.4354	-2.6854	-2.4813	-3.0271	-2.2833	-2.8542	-2.7958	-2.3979	-2.6354	-2.5729	-2.4708	-2.8958	-2.4604	-2.4854	-2.7562	-2.1	-57.476	13.728	178.899	168.233	80.788	204.823	-54.463	-57.821	-9.222	124.849	235.654	48.439	285.082	70.915	-71.278	-29.460	3.2896e-05	0.00015887	6.2102e-05	644.91	1.7584e-06	2.8093e-06	735.52	129.48	1.4549e-06	4.8247e-07	177.75	51.957	34.633	11.577	3.1587e-06	19.618	0.00044739	0.00070632	0.0001999	625.13	7.1972e-06	7.8065e-06	721.01	127.59	7.4832e-06	7.8505e-06	174.34	51.58	34.809	11.575	7.7173e-06	19.514	121.599	79.632	31.479	-60.396	52.483	71.244	-61.387	-54.158	108.113	55.757	-55.670	-49.507	-48.216	-43.735	94.495	-46.550	-8191	255	
15196.095	1	1	0	0	0.16506	0.10187	0.087327	0.064243	0.16923	0.12027	0.2498	0.25245	0.09561	0.3622	0.079179	0.21519	0.084191	0.18116	0.19083	0.07836	-2.3021	-2.6458	-2.3625	-3	-2.4667	-2.7167	-2.95	-2.3229	-2.7583	-2.5438	-2.4729	-2.8896	-2.4708	-2.475	-2.9583	-2.3271	2.394	191.141	267.554	272.160	50.326	219.351	-50.984	129.640	177.880	94.868	70.426	82.724	72.293	206.428	130.148	90.374	4.4916e-05	0.00032847	2.3699e-05	644.17	8.9217e-07	4.123e-06	742.85	129.44	2.2432e-06	1.7157e-06	179.14	52.156	34.823	11.652	2.6101e-06	19.494	0.00044796	0.00072271	0.00021395	624.74	7.3206e-06	7.9842e-06	723.47	127.81	7.3364e-06	7.9616e-06	175.54	51.99	34.754	11.553	7.583e-06	19.388	157.888	22.475	10.758	-60.293	258.171	55.487	-60.965	-54.319	34.792	104.104	-55.125	-50.139	-48.231	-43.750	53.496	-46.094	-8191	255	
15196.191	1	1	0	0	0.36842	0.23391	0.10424	0.24256	0.17193	0.10715	0.062236	0.15303	0.25362	0.26157	0.031599	0.17942	0.32773	0.14946	0.12815	0.19912	-2.0292	-2.5833	-2.2875	-2.8667	-2.4562	-2.7313	-2.7958	-2.3979	-2.5542	-2.6625	-2.4354	-2.8708	-2.6854	-2.3854	-2.8604	-2.3271	131.356	163.976	-71.021	228.365	120.518	253.579	70.799	233.920	208.705	83.295	-40.625	238.897	230.742	63.279	103.545	196.808	5.4274e-05	9.4175e-05	3.2853e-05	641.21	2.3449e-06	2.0512e-06	736.04	128.85	3.0234e-07	3.9152e-06	177.96	51.828	34.922	11.586	2.224e-06	19.658	0.00046464	0.00072291	0.00020694	622.09	7.4325e-06	8.235e-06	719.36	127.08	7.5171e-06	8.2123e-06	174.64	51.684	34.756	11.516	7.613e-06	19.372	149.144	-24.928	2.044	-60.420	81.367	131.168	-60.893	-54.139	-15.396	69.360	-55.973	-49.907	-48.567	-43.904	35.283	-46.340	-8191	255	
15196.288	1	1	0	0	0.13778	0.15568	0.080885	0.21715	0.21129	0.048899	0.18234	0.011486	0.15594	0.1629	0.074474	0.03295	0.099596	0.12457	0.13777	0.17199	-2.1146	-2.7562	-2.3375	-2.9625	-2.5208	-2.4562	-3.0458	-2.4167	-2.7854	-2.6875	-2.3479	-2.8312	-2.7542	-2.2167	-2.8396	-2.4521	-56.155	-48.276	-53.996	4.898	125.783	52.452	40.062	167.929	33.251	-0.295	118.836	-20.366	115.360	209.475	-24.871	161.514	7.4041e-05	0.00020519	3.4569e-05	635.25	1.2677e-06	4.6496e-06	734.86	129.42	1.589e-06	2.5607e-06	179.19	52.116	35.21	11.581	3.3615e-06	19.609	0.00044321	0.00072335	0.00020981	617.83	7.3292e-06	8.3621e-06	718.9	127.63	7.4439e-06	7.9611e-06	175.76	52.211	35.124	11.496	7.7539e-06	19.453	154.248	109.178	29.693	-60.452	251.665	98.382	-60.769	-54.195	70.555	117.452	-55.465	-49.861	-47.912	-43.509	80.880	-46.179	-8191	255	
15196.384	1	1	0	0	0.24265	0.0824	0.027656	0.26319	0.10339	0.21242	0.27642	0.13821	0.28906	0.2495	0.30141	0.19374	0.20584	0.076836	0.50233	0.04697	-2.0812	-2.4542	-2.1813	-2.7646	-2.65	-2.2979	-2.8896	-2.4688	-2.7229	-2.7854	-2.3729	-2.6021	-2.6271	-2.2958	-2.9188	-2.5354	285.278	44.765	-56.242	265.863	138.931	27.613	17.419	207.091	267.835	72.106	219.667	200.981	170.059	-42.576	29.120	-60.406	5.9292e-05	0.00032629	7.1409e-05	637.55	1.612e-06	3.6353e-06	734.87	129.65	2.1281e-06	1.5055e-06	179.32	52.862	34.88	11.662	3.0696e-06	19.701	0.00046432	0.00072559	0.00020621	619.41	7.288e-06	8.7801e-06	719.53	127.58	7.6177e-06	8.1486e-06	175.85	52.45	35.021	11.584	7.8317e-06	19.578	130.017	21.256	4.271	-60.534	104.399	137.516	-60.638	-54.503	14.880	46.473	-55.584	-49.754	-47.626	-43.577	138.577	-46.489	-8191	255	
15196.478	1	1	0	0	0.17665	0.064153	0.088337	0.096463	0.045809	0.19639	0.13447	0.15791	0.15576	0.046769	0.22341	0.18638	0.19204	0.17685	0.24484	0.15545	-2.1396	-2.825	-2.2833	-2.8208	-2.8771	-2.2167	-3.1354	-2.3104	-2.3896	-2.8229	-2.3021	-2.4938	-2.7292	-2.2417	-2.7479	-2.7458	-27.503	264.591	275.319	-28.616	105.216	-23.312	122.021	123.135	-6.685	94.306	153.203	152.136	80.824	230.329	157.610	198.579	6.1338e-05	0.00023613	1.6983e-05	633.77	1.7862e-06	2.6766e-06	738.82	129.01	4.0557e-07	1.7567e-06	179.63	52.994	34.945	11.678	1.1669e-06	19.935	0.00047113	0.0007069	0.0002103	617.2	7.2702e-06	8.0436e-06	720.85	127.59	7.3482e-06	8.0668e-06	176.46	52.778	35.023	11.646	7.4197e-06	19.7	160.267	-54.237	-37.815	-60.324	-21.467	21.217	-61.256	-54.129	97.716	40.159	-55.333	-50.101	-47.826	-44.456	137.097	-46.026	-8191	255	
15196.576	1	1	0	0	0.070009	0.060458	0.16734	0.17895	0.1437	0.13184	0.12297	0.24168	0.079752	0.13687	0.16071	0.3202	0.053691	0.10305	0.15384	0.50589	-1.8708	-2.8292	-2.5187	-2.6354	-2.7083	-2.3875	-2.9208	-2.4833	-2.3375	-2.7854	-2.6208	-2.5	-2.7708	-2.3646	-2.8208	-2.5208	262.742	-34.089	120.302	283.880	219.666	148.860	234.737	34.711	-27.510	284.818	239.150	-66.869	-60.611	161.361	-38.036	83.798	4.9199e-05	0.00045889	7.0622e-05	635.14	9.6101e-07	1.931e-06	737.59	129.8	1.0318e-06	5.5989e-07	178.31	52.647	35.176	11.728	1.2823e-06	19.595	0.00044707	0.00070271	0.00020191	616.77	7.5083e-06	8.0991e-06	719.18	127.68	7.4189e-06	7.7224e-06	175.47	52.66	35.147	11.661	7.5067e-06	19.612	160.303	-8.907	48.078	-60.461	90.536	62.807	-60.712	-54.473	117.613	143.435	-55.443	-49.733	-47.647	-44.246	205.106	-45.788	-8191	255	
15196.695	1	1	0	0	0.13089	0.016918	0.16984	0.032237	0.23254	0.17759	0.15579	0.28093	0.12255	0.17017	0.23199	0.1981	0.034983	0.093571	0.48976	0.33357	-1.8	-2.7896	-2.3271	-2.4958	-2.7833	-2.4479	-2.7125	-2.7042	-2.4313	-2.7792	-2.5438	-2.3833	-2.7562	-2.2417	-2.5771	-2.5333	11.445	103.871	95.524	-65.284	9.137	-23.822	-61.277	237.503	287.548	38.581	285.761	220.886	275.336	-37.694	122.571	185.807	5.0396e-05	0.00021509	9.5347e-05	633.94	2.2351e-06	4.3243e-06	729.72	129.45	2.2903e-06	2.099e-06	179.45	52.433	34.972	11.705	1.3185e-06	19.712	0.00046407	0.00072383	0.00020222	615.17	7.3749e-06	8.208e-06	716.4	126.98	7.7567e-06	7.9796e-06	175.69	52.43	35.064	11.629	7.6354e-06	19.653	167.769	15.691	60.854	-60.583	129.172	81.825	-60.930	-54.100	69.401	73.149	-55.505	-49.419	-47.885	-42.957	0.652	-46.288	-8191	255	
15196.791	1	1	0	0	0.16051	0.15778	0.21468	0.14017	0.32558	0.0783	0.31108	0.092689	0.065181	0.20654	0.43882	0.116	0.082835	0.044947	0.16409	0.07587	-1.9625	-2.7313	-2.5542	-2.5417	-2.8812	-2.4625	-2.7042	-2.7687	-2.1937	-2.7729	-2.7875	-2.5438	-2.8	-2.4562	-2.525	-2.8083	-9.293	-48.516	93.700	263.530	-15.637	70.735	252.732	176.800	17.673	79.402	218.020	5.111	228.697	15.427	-41.160	253.846	4.9065e-05	0.00031135	6.7264e-05	627.54	1.4415e-06	2.2229e-06	731.66	127.69	2.0057e-06	2.7058e-06	179.55	52.65	34.937	11.721	1.9804e-06	19.875	0.00046525	0.00072715	0.00020178	610.53	7.3528e-06	8.2664e-06	714.26	126.46	7.5603e-06	7.9856e-06	175.84	52.452	34.869	11.647	7.6023e-06	19.665	164.532	6.475	48.882	-60.012	38.686	104.464	-60.895	-54.013	39.352	43.116	-55.207	-49.618	-48.197	-43.710	6.515	-46.294	-8191	255	
15196.887	1	1	0	0	0.18581	0.043066	0.12255	0.1974	0.23187	0.16532	0.017144	0.096197	0.13957	0.15484	0.13273	0.10404	0.45631	0.0998	0.1727	0.088854	-2.0208	-2.7438	-2.5438	-2.3542	-2.8438	-2.5229	-2.6646	-2.8208	-2	-2.6917	-2.875	-2.2625	-2.9062	-2.5396	-2.4854	-2.8104	282.112	132.881	174.569	268.454	149.307	23.575	-28.383	-70.348	47.114	143.772	254.216	283.451	-66.011	107.484	275.277	40.322	5.9709e-05	0.00019369	4.3698e-05	629.92	4.9359e-07	2.6117e-06	736.42	128.92	1.715e-06	2.3065e-06	177.13	51.649	34.117	11.346	1.7186e-06	19.275	0.00045882	0.00072286	0.00019872	613.02	7.2265e-06	8.1151e-06	717.09	126.92	7.5416e-06	7.9437e-06	174.82	51.308	34.157	11.344	7.2416e-06	19.113	183.485	-11.962	62.587	-60.447	68.361	135.746	-60.809	-54.241	19.281	75.801	-55.499	-49.420	-48.412	-43.977	91.229	-46.211	-8191	255	
15196.983	1	1	0	0	0.26468	0.20833	0.073136	0.38826	0.21855	0.35171	0.17296	0.084985	0.16248	0.29849	0.23522	0.059203	0.10975	0.09753	0.18382	0.17162	-1.8625	-2.4375	-2.7167	-2.3229	-2.9042	-2.4896	-2.5479	-2.6625	-2.3563	-2.6042	-2.8979	-2.3271	-2.9333	-2.5271	-2.6979	-2.8917	-20.769	-9.776	180.212	181.439	-66.600	211.434	73.410	63.760	-44.238	211.114	-22.859	206.075	-62.706	183.248	214.669	200.453	4.2307e-05	0.00012376	2.393e-05	635.46	6.4295e-08	4.0055e-06	737.26	127.66	2.2957e-06	1.3591e-06	178.58	49.149	32.748	10.607	2.2977e-06	18.155	0.00044359	0.00069812	0.00018741	618.3	7.0628e-06	7.4501e-06	722.4	126.5	7.1572e-06	7.3676e-06	174.74	49.021	32.582	10.594	7.0875e-06	17.944	144.496	-3.150	195.556	-60.585	5.992	119.288	-61.061	-54.542	-7.850	28.047	-55.133	-49.898	-47.739	-42.748	69.271	-45.828	-8191	255	
15197.080	1	1	0	0	0.088996	0.22205	0.21243	0.051642	0.11638	0.15295	0.21038	0.15553	0.061129	0.18868	0.21976	0.14224	0.017245	0.40888	0.14195	0.044023	-2.1042	-2.6042	-2.7875	-2.4	-2.8125	-2.675	-2.5187	-2.8187	-2.4562	-2.5458	-2.775	-2.3625	-2.6896	-2.5083	-2.5875	-2.8563	14.094	221.337	129.267	180.576	285.929	47.555	-71.720	267.260	264.326	87.865	19.655	237.972	-6.156	-12.347	238.655	62.092	4.7236e-05	0.00032208	5.6196e-05	646.18	8.6357e-07	3.3978e-06	758.16	131.29	9.1411e-07	2.0246e-06	181.5	46.132	30.857	9.5693	1.0648e-06	16.4	0.00041441	0.0006506	0.00018855	629.71	6.5961e-06	7.1772e-06	737.94	129.15	6.8026e-06	7.0314e-06	177.65	46.308	30.796	9.5372	6.8367e-06	16.201	179.324	-28.588	49.874	-60.596	67.892	72.818	-61.221	-55.015	239.043	105.162	-56.359	-50.169	-48.828	-42.491	121.844	-45.384	-8191	255	
15197.176	1	1	0	0	0.38776	0.098632	0.12205	0.13787	0.37563	0.028485	0.19022	0.24902	0.075647	0.13213	0.23215	0.15353	0.14741	0.10891	0.23915	0.12973	-1.8937	-2.5187	-2.6417	-2.5792	-2.7125	-2.6688	-2.4188	-2.8583	-2.5958	-2.6479	-2.8542	-2.6271	-2.6208	-2.7333	-2.3354	-2.8	231.377	-55.386	132.148	275.523	137.216	148.884	196.320	14.096	8.011	-8.966	76.298	21.378	261.647	150.406	86.773	257.342	3.5876e-05	8.006e-05	0.00010895	652.14	1.4167e-06	4.1442e-06	754.51	134.05	6.5021e-07	3.012e-06	183.44	45.291	29.816	8.9156	1.271e-06	15.541	0.00040747	0.00063079	0.00018306	635.62	6.4909e-06	7.0337e-06	738.13	131.35	6.5665e-06	6.9218e-06	179.77	45.064	30.092	8.9232	6.4532e-06	15.48	130.359	29.081	19.063	-60.987	40.517	102.343	-61.635	-55.232	60.493	26.489	-56.421	-49.571	-48.538	-42.795	155.001	-45.213	-8191	255	
15197.296	1	1	0	0	0.11368	0.076947	0.20062	0.068385	0.018517	0.15394	0.24401	0.22269	0.16417	0.15479	0.068539	0.098056	0.05081	0.0078105	0.33352	0.14948	-2.0354	-2.3729	-2.7125	-2.35	-2.5521	-2.625	-2.2854	-3.0208	-2.3042	-2.2125	-2.8187	-2.3812	-2.5979	-2.9188	-2.2771	-2.8083	164.878	-51.383	-14.906	9.308	19.708	59.642	115.097	95.966	58.972	123.247	201.574	272.763	245.559	35.102	-69.227	83.401	3.5331e-05	0.00022967	8.1035e-05	650.22	1.6036e-06	2.9867e-06	748.85	133.99	8.89e-07	1.4047e-06	182.93	45.342	30.044	8.7944	2.67e-06	15.323	0.00037349	0.00061947	0.00017291	629.8	6.6465e-06	6.9721e-06	731.16	131.65	6.4339e-06	6.8951e-06	180.24	45.065	30.032	8.8282	6.97e-06	15.22	176.106	43.860	29.834	-60.808	102.350	81.506	-61.572	-55.087	22.017	29.058	-56.346	-50.221	-48.802	-42.815	81.392	-44.622	-8191	255	
15197.391	1	1	0	0	0.23715	0.33078	0.18856	0.18841	0.18716	0.078545	0.19006	0.10614	0.16488	0.36829	0.097584	0.063537	0.15262	0.078828	0.2499	0.1708	-2.0292	-2.5625	-2.775	-2.5729	-2.4292	-2.8146	-2.4104	-2.6896	-2.4521	-2.4646	-3.0042	-2.6021	-2.7146	-2.7792	-2.3729	-2.6646	2.289	58.486	243.098	185.697	-63.659	108.506	271.028	177.162	243.266	56.164	-28.187	80.016	178.447	68.830	213.707	-41.401	2.7969e-05	0.00013517	1.434e-05	636.29	1.131e-06	2.9158e-06	740.42	132.33	9.4312e-07	2.0169e-06	182.26	45.426	29.311	8.8366	1.1472e-06	15.508	0.00039494	0.00064748	0.00017718	621.86	6.7468e-06	7.3554e-06	722.58	130.47	7.0035e-06	7.6701e-06	178.77	44.966	29.672	8.8863	8.143e-06	15.42	144.057	-9.703	259.743	-60.945	29.596	97.132	-61.327	-54.822	132.331	98.623	-56.428	-49.896	-48.685	-43.125	134.587	-44.816	-8191	255	
15197.487	1	1	0	0	0.023934	0.15969	0.15954	0.096159	0.14333	0.12721	0.085219	0.090425	0.069005	0.063832	0.20251	0.27644	0.093229	0.36084	0.24625	0.13386	-2.1	-2.2521	-2.7958	-2.6521	-2.4938	-2.7042	-2.6083	-2.6542	-2.7333	-2.3375	-2.9292	-2.6604	-2.4833	-2.8187	-2.5229	-2.7708	244.180	250.204	242.930	226.322	19.708	1.823	156.231	240.475	196.696	45.983	263.501	-13.995	184.525	256.048	22.816	-9.008	4.7096e-05	0.00017123	5.1741e-05	628.25	1.0428e-06	2.2416e-06	725.73	129.24	2.0247e-06	1.5847e-06	178	44.782	29.528	9.2371	2.0605e-06	16.343	0.00046788	0.00079375	0.00021855	612.1	7.9169e-06	8.8307e-06	707.76	127.49	8.0602e-06	8.5916e-06	174.27	44.813	29.749	9.2687	8.2214e-06	16.247	152.508	-15.900	30.326	-60.589	171.673	-38.266	-61.451	-54.981	99.516	114.754	-56.346	-49.875	-48.224	-42.758	49.763	-44.573	-8191	255	
15197.583	1	1	0	0	0.10542	0.23316	0.2166	0.25648	0.24366	0.13161	0.16097	0.10353	0.28753	0.24968	0.27084	0.14959	0.24464	0.25119	0.26802	0.16702	-2.3917	-2.4313	-2.7625	-2.7313	-2.4479	-2.8833	-2.4167	-2.6583	-2.7208	-2.4437	-2.7521	-2.5375	-2.4833	-2.8521	-2.4646	-2.6208	-27.507	-11.888	-37.785	246.003	-28.745	178.064	-71.226	141.892	198.521	246.882	127.759	248.917	56.338	245.603	-46.950	263.122	1.4442e-05	6.864e-05	5.6243e-05	611.72	7.9979e-07	1.1588e-06	711.23	128.27	8.3376e-07	2.8723e-06	178.85	46.662	30.304	10.125	1.2846e-06	17.824	0.00046137	0.00074613	0.00020496	597.44	7.4296e-06	7.7982e-06	697.05	125.79	7.1739e-06	7.4134e-06	175.4	46.549	30.334	10.072	7.2854e-06	17.72	135.423	27.837	20.163	-61.025	-17.344	63.071	-61.652	-54.796	196.276	79.652	-56.188	-49.935	-48.772	-42.932	65.143	-44.786	-8191	255	
15197.679	1	1	0	0	0.23356	0.087486	0.095783	0.17888	0.13403	0.13375	0.15285	0.12165	0.21818	0.053696	0.13471	0.21969	0.13867	0.18909	0.087967	0.18841	-2.1646	-2.4437	-2.6437	-2.5896	-2.4958	-2.8146	-2.5771	-2.5125	-2.9708	-2.375	-2.7125	-2.7479	-2.1979	-3.0542	-2.4938	-2.5583	40.972	207.650	192.546	258.998	-50.916	254.886	267.419	80.292	205.582	82.856	160.399	210.030	-34.058	-47.277	225.082	169.784	7.384e-05	0.00044466	5.6749e-05	614.97	2.0834e-06	1.5432e-06	716.46	128.6	1.7686e-06	9.2527e-07	179.46	47.994	30.593	10.612	1.7364e-06	18.848	0.00041677	0.00067036	0.00018012	596.55	6.9043e-06	7.2806e-06	698.02	126.19	6.5434e-06	7.1894e-06	175.09	47.631	30.764	10.624	6.9308e-06	18.767	156.698	29.883	-35.977	-60.813	-6.014	41.602	-61.167	-54.878	37.146	133.102	-55.809	-49.736	-48.800	-42.738	188.241	-45.728	-8191	255	
15197.775	1	1	0	0	0.149	0.26838	0.1084	0.19943	0.2627	0.2951	0.18745	0.23128	0.073601	0.10416	0.16272	0.033228	0.11657	0.21237	0.028236	0.12277	-2.5896	-2.2771	-2.5438	-2.8771	-2.3958	-2.7771	-2.6146	-2.4708	-2.7292	-2.3896	-2.8333	-2.5979	-2.2375	-2.6396	-2.5	-2.4562	-46.159	174.202	18.415	43.144	129.077	22.426	212.459	149.514	257.360	-14.709	206.889	-50.917	142.928	-63.684	234.282	197.478	5.5706e-05	0.00026101	7.9325e-05	611.42	1.4064e-06	2.6025e-06	710.83	128.23	1.6541e-06	1.2612e-06	178.35	47.997	30.949	11.063	4.528e-07	19.682	0.0004164	0.00067212	0.00018517	596.71	7.1146e-06	7.9336e-06	696.06	125.82	7e-06	8.1578e-06	174.72	47.888	30.963	11.049	7.6008e-06	19.469	137.617	-8.770	10.142	-60.898	218.841	96.270	-61.447	-55.055	67.952	90.914	-56.050	-49.581	-48.424	-42.695	110.329	-45.097	-8191	255	
15197.871	1	1	0	0	0.098703	0.052129	0.064324	0.078904	0.1882	0.34671	0.17125	0.10446	0.080124	0.12065	0.041763	0.049237	0.11734	0.21067	0.10031	0.30325	-2.4292	-2.2687	-2.6708	-2.7396	-2.4167	-2.8458	-2.6813	-2.5583	-2.7979	-2.3875	-2.6542	-2.7771	-2.3104	-2.6125	-2.7146	-2.3812	111.686	-13.845	141.511	-47.520	228.210	236.220	-8.589	-71.291	181.805	44.730	228.778	103.100	71.138	188.080	32.035	195.445	4.4582e-05	0.00029207	6.1842e-05	616.86	2.3204e-06	2.5283e-06	713.44	128.28	6.9634e-07	1.9696e-06	179.14	47.661	30.732	11.322	1.3912e-06	19.963	0.00044804	0.00071881	0.00019829	598.8	7.4301e-06	8.0084e-06	697.85	126.49	7.3192e-06	8.1611e-06	175.31	47.671	30.955	11.192	7.0967e-06	19.891	174.042	2.771	-0.020	-60.855	167.137	75.535	-61.491	-54.752	30.783	67.866	-56.125	-50.075	-48.886	-42.659	82.989	-45.122	-8191	255	
15197.968	1	1	0	0	0.10469	0.095992	0.044136	0.24606	0.16371	0.072087	0.090203	0.30465	0.11737	0.10818	0.1647	0.11383	0.37998	0.18635	0.10237	0.15402	-2.5187	-2.4208	-2.6042	-2.85	-2.3	-2.75	-2.6229	-2.5062	-2.8333	-2.6271	-2.5667	-2.9625	-2.4896	-2.6208	-2.6917	-2.3625	208.814	235.676	-0.861	12.872	260.328	164.691	-5.684	268.622	19.505	73.777	271.096	258.595	167.068	-70.509	107.654	117.770	3.9942e-05	0.00033513	5.3602e-05	616.09	1.9658e-07	4.4665e-07	719.02	130.87	1.8781e-06	3.1848e-06	180.12	48.02	31.302	11.411	2.1067e-06	20.196	0.00043873	0.00068275	0.00018835	600.92	7.1021e-06	7.3153e-06	704.3	127.78	6.9981e-06	7.4684e-06	177	48.134	31.305	11.357	7.1552e-06	20.124	162.129	35.258	3.335	-60.800	78.982	-56.810	-61.656	-55.195	71.142	54.132	-56.335	-50.106	-48.574	-42.772	26.266	-44.929	-8191	255	
15198.088	1	1	0	0	0.36073	0.21834	0.2105	0.11664	0.12264	0.042846	0.21927	0.10777	0.10735	0.25443	0.30957	0.21224	0.11881	0.2156	0.13148	0.23086	-2.3833	-2.4771	-2.4604	-2.9625	-2.5125	-2.6292	-2.8708	-2.3625	-2.7458	-2.3771	-2.4542	-2.8521	-2.4313	-2.8729	-2.7667	-2.4229	45.912	191.846	102.145	-36.997	106.518	6.830	161.676	-40.295	233.435	13.137	186.187	92.501	276.496	217.929	163.522	-70.257	6.0618e-05	0.00022139	5.6951e-05	620.16	1.9322e-06	2.2501e-07	719.26	130.71	1.0016e-06	2.5852e-06	179.67	47.732	30.998	11.414	1.8614e-06	20.333	0.0004427	0.00066753	0.00019712	604.46	7.3288e-06	8.0766e-06	703.47	128.85	7.1567e-06	8.0063e-06	176.24	47.455	31.251	11.351	8.3633e-06	20.202	181.121	-20.744	28.860	-60.898	165.121	39.837	-61.282	-55.272	255.846	114.856	-56.007	-50.053	-48.158	-42.904	142.637	-44.748	-8191	255	
15198.184	1	1	0	0	0.1828	0.1807	0.24872	0.15305	0.18049	0.16396	0.29214	0.10113	0.24692	0.32903	0.29991	0.24029	0.13317	0.17753	0.32123	0.18012	-2.2979	-2.5438	-2.2458	-2.9833	-2.2896	-2.5979	-2.7167	-2.5021	-2.8354	-2.7771	-2.6208	-2.7292	-2.4708	-2.5479	-2.8875	-2.3458	-60.752	-17.746	189.823	-26.948	276.274	81.646	135.887	170.817	-54.404	237.010	-50.394	163.961	-15.971	-10.682	268.664	219.616	5.2301e-05	0.00030366	6.1248e-05	622.56	2.103e-06	2.2306e-06	721.55	131.65	1.0565e-06	1.4575e-06	181.5	47.53	30.975	11.316	1.9604e-06	20.259	0.00049054	0.00081468	0.00023041	606.14	8.4047e-06	8.9094e-06	705.73	129.5	8.5089e-06	9.2832e-06	177.54	47.25	31.202	11.336	8.0866e-06	20.082	156.681	-59.949	-17.755	-61.077	35.494	46.506	-61.670	-55.205	118.232	-56.172	-56.343	-49.786	-48.778	-43.133	103.409	-45.089	-8191	255	
15198.256	1	1	0	0	0.1376	0.13385	0.12973	0.089548	0.14289	0.092336	0.20703	0.066383	0.18389	0.11421	0.23951	0.0454	0.15467	0.1842	0.24928	0.2766	-2.2687	-2.5875	-2.3229	-2.7354	-2.3625	-2.5292	-2.6542	-2.2354	-2.7646	-2.7438	-2.2729	-2.8937	-2.4458	-2.5521	-2.6125	-2.1958	29.363	278.437	40.044	242.986	251.762	224.646	145.224	186.322	36.922	180.088	258.544	-58.757	202.928	171.730	222.822	-37.433	4.9048e-05	0.0004037	0.00011113	626.93	1.3653e-06	3.6293e-06	730.12	134.52	1.371e-06	8.595e-07	183.23	47.127	31.475	11.219	8.2806e-07	19.914	0.00045997	0.00071178	0.00020635	610.35	7.1583e-06	7.9325e-06	709.69	132.34	7.1866e-06	7.5175e-06	179.97	47.212	31.436	11.174	7.2132e-06	19.682	151.313	-10.926	10.786	-61.209	71.086	86.612	-61.590	-55.483	102.483	134.528	-56.797	-50.437	-48.993	-42.732	114.180	-45.022	-8191	255	
15198.377	1	1	0	0	0.030791	0.09334	0.11431	0.12648	0.019179	0.087447	0.11184	0.15682	0.19852	0.08022	0.1973	0.15993	0.161	0.18293	0.21227	0.17297	-2.2292	-2.6542	-2.1583	-2.8229	-2.6292	-2.2875	-3.0792	-2.6	-2.4854	-2.8958	-2.2375	-2.5917	-2.8479	-2.1979	-2.6646	-2.5417	50.159	62.437	104.224	-56.810	33.901	115.526	148.566	272.295	87.196	5.037	244.565	249.600	-63.584	202.448	246.118	72.165	4.4446e-05	0.00018655	6.7939e-05	637.58	1.4115e-06	1.1493e-06	732.6	137.39	4.787e-07	1.2211e-06	188.01	47.374	31.996	11.166	1.3563e-06	19.67	0.00042138	0.00066665	0.00019183	617.71	6.754e-06	7.4143e-06	714.75	135.28	7.0982e-06	7.3703e-06	183.84	47.539	32.026	11.173	7.9197e-06	19.5	160.911	38.819	30.009	-61.271	119.577	167.687	-61.732	-55.209	-23.169	66.560	-56.303	-50.044	-48.991	-43.580	110.879	-45.033	-8191	255	
15198.471	1	1	0	0	0.24581	0.2936	0.16822	0.32293	0.18372	0.16295	0.21564	0.20486	0.12054	0.20404	0.12795	0.24419	0.22213	0.10363	0.18694	0.14351	-2.1646	-2.6792	-2.1833	-2.8021	-2.5333	-2.5938	-2.9146	-2.5042	-2.55	-2.6917	-2.2292	-2.6958	-2.5271	-2.2583	-2.7438	-2.2896	-53.427	12.346	114.275	248.787	194.501	-66.000	239.553	72.387	226.410	258.981	254.834	216.526	234.739	219.209	33.734	147.274	4.1199e-05	0.00028622	9.0673e-05	649.8	4.9115e-07	2.8451e-06	744.84	141.33	1.1113e-06	1.8585e-06	189.77	47.345	32.086	10.967	5.9115e-07	19.137	0.00047239	0.00076974	0.00022002	632.8	8.0442e-06	9.0881e-06	727.2	139.37	9.0196e-06	9.8691e-06	186.58	47.306	32.349	10.957	1.075e-05	19.13	169.392	48.474	81.807	-61.138	106.366	113.131	-61.607	-55.255	176.884	67.172	-56.414	-50.330	-49.051	-42.558	208.816	-45.693	-8191	255	
15198.567	1	1	0	0	0.11832	0.08355	0.17471	0.10781	0.082971	0.19773	0.19399	0.16396	0.072086	0.090559	0.2578	0.28714	0.35332	0.064846	0.065811	0.16129	-2.0083	-2.7042	-2.3312	-2.5792	-2.6375	-2.4604	-2.7708	-2.3479	-2.4167	-2.9813	-2.4667	-2.6792	-2.8271	-2.1937	-2.7438	-2.5563	32.159	195.019	184.712	-42.323	-54.976	47.603	231.280	267.448	-8.870	201.277	-41.843	151.495	271.008	223.859	227.755	64.006	5.3407e-05	0.00014666	0.00010949	664.7	2.003e-06	4.8022e-06	758.39	145.52	2.2562e-06	2.1176e-06	194.87	47.162	32.499	10.601	1.5127e-06	18.816	0.00064331	0.0010705	0.00030303	647.36	1.086e-05	1.2197e-05	739.84	143.58	1.1352e-05	1.2355e-05	191.53	47.551	32.991	10.781	1.2584e-05	18.844	132.377	7.445	54.565	-61.120	93.447	111.459	-61.735	-55.655	40.874	18.509	-57.086	-50.441	-49.198	-42.927	124.296	-45.060	-8191	255	
15198.688	1	1	0	0	0.11129	0.15948	0.19803	0.15868	0.25576	0.33159	0.18881	0.023123	0.17903	0.052023	0.069161	0.25395	0.16239	0.11771	0.32189	0.16637	-1.9125	-2.8979	-2.3146	-2.5479	-2.6625	-2.2854	-2.7729	-2.6542	-2.3646	-2.8958	-2.4792	-2.5896	-2.8146	-2.4708	-2.6292	-2.5896	138.823	160.853	106.445	15.501	6.602	171.993	285.497	257.357	-22.052	5.545	-67.240	237.259	-46.172	-69.503	271.408	-37.098	5.7897e-05	0.00026936	4.9746e-05	676.34	1.1665e-06	3.8261e-06	760.75	148.94	1.6131e-06	5.0346e-06	196.5	47.161	32.971	10.749	9.9381e-07	19.089	0.00075229	0.0012829	0.00037212	660.98	1.3233e-05	1.5058e-05	748.09	147.08	1.3681e-05	1.5009e-05	192.89	47.649	33.242	10.942	1.4774e-05	19.195	167.629	28.132	25.012	-60.998	127.206	70.056	-61.551	-55.715	95.692	94.155	-56.973	-50.870	-49.515	-43.009	80.905	-45.284	-8191	255	
15198.784	1	1	0	0	0.45679	0.1919	0.095456	0.09833	0.12204	0.17606	0.11265	0.14237	0.10295	0.16535	0.12512	0.29345	0.087483	0.048724	0.20128	0.17151	-1.8646	-2.775	-2.5208	-2.6729	-2.7938	-2.1	-2.5042	-2.6937	-2.1104	-2.7208	-2.6063	-2.6667	-2.8104	-2.1667	-2.6708	-2.5521	245.244	184.273	-56.652	-26.510	2.138	275.195	177.208	95.470	-63.728	286.191	12.944	247.193	96.891	-35.170	139.842	64.446	5.0101e-05	0.00028618	0.00016694	673.58	2.2898e-06	3.0895e-06	766.03	146.77	6.9174e-07	7.6706e-07	195.07	48.051	32.707	11.131	7.7934e-07	19.495	0.00084481	0.0014176	0.00040304	658	1.4505e-05	1.6219e-05	748.03	145.1	1.4944e-05	1.6046e-05	192.19	48.165	33.282	11.298	1.417e-05	19.654	128.765	55.859	61.005	-60.979	257.383	106.189	-61.237	-55.665	258.401	202.848	-56.799	-49.969	-49.200	-42.616	-28.948	-45.532	-8191	255	
15198.880	1	1	0	0	0.11193	0.19859	0.13407	0.23492	0.038245	0.079693	0.22357	0.10063	0.061112	0.096436	0.27019	0.15	0.085703	0.046818	0.10989	0.37814	-1.9188	-2.8729	-2.4333	-2.5292	-2.9625	-2.3563	-2.6375	-2.6479	-2.425	-2.6917	-2.7979	-2.4104	-2.7604	-2.6375	-2.7083	-2.7458	164.075	271.268	33.596	226.059	200.388	22.201	272.381	252.463	110.871	106.990	144.052	260.212	133.725	40.781	256.395	253.119	4.5673e-05	0.0001799	4.0018e-05	668.66	1.5408e-06	5.0443e-07	756.78	145.79	1.4234e-06	7.5393e-07	191.68	47.682	33.029	11.36	2.6596e-06	19.994	0.00082134	0.0013464	0.00038091	653.98	1.408e-05	1.6211e-05	741.49	143.66	1.4588e-05	1.5925e-05	189.31	47.853	33.139	11.479	1.4693e-05	19.964	141.716	265.196	40.776	-61.097	250.692	260.391	-61.750	-55.519	149.486	73.819	-56.168	-50.822	-49.709	-42.503	156.346	-45.415	-8191	255	
15198.976	1	1	0	0	0.26025	0.1252	0.054833	0.14122	0.077443	0.25008	0.09247	0.078888	0.23955	0.33933	0.26001	0.25727	0.34686	0.19724	0.041272	0.028533	-1.7229	-2.8	-2.6	-2.4708	-2.9354	-2.3708	-2.5312	-2.8979	-2.3375	-2.7583	-2.6396	-2.3354	-2.8833	-2.475	-2.5625	-2.9354	-15.130	15.716	225.095	214.779	90.980	211.761	-47.211	221.107	228.586	129.322	275.564	208.134	-16.453	215.975	80.842	96.266	3.5333e-05	0.00024059	7.9588e-05	664.73	3.2894e-07	4.4876e-06	753.13	144.81	3.2101e-06	4.5287e-06	190.33	47.295	32.773	11.556	5.7644e-07	20.146	0.00086934	0.0014385	0.00041158	649.75	1.4846e-05	1.7654e-05	738.75	143	1.6774e-05	1.8602e-05	188.27	47.917	33.364	11.686	1.8659e-05	20.212	128.849	260.352	90.330	-61.201	89.133	8.950	-61.675	-55.625	2.170	24.189	-56.697	-50.856	-49.666	-42.918	58.816	-45.370	-8191	255	
15199.072	1	1	0	0	0.20483	0.29992	0.14608	0.14333	0.36532	0.24991	0.30979	0.060218	0.10813	0.29408	0.18253	0.050179	0.26081	0.12111	0.25899	0.16286	-1.8062	-2.55	-2.425	-2.5375	-2.8479	-2.45	-2.6521	-3.0208	-2.3604	-2.6958	-2.65	-2.4479	-2.7062	-2.6417	-2.4813	-2.7646	130.821	159.146	150.402	-72.896	97.024	68.397	193.355	81.104	108.288	163.616	247.091	-28.007	262.420	235.396	-65.102	123.075	4.11e-05	0.00019501	7.644e-05	665.88	1.1118e-06	6.0446e-06	751.49	144.05	2.3588e-06	8.2945e-06	188.68	47.112	32.99	11.48	3.4039e-06	20.319	0.0010528	0.0018136	0.00050537	653.34	1.7923e-05	2.0553e-05	739.1	143.17	1.8977e-05	2.1113e-05	188.43	48.038	33.621	11.802	2.1785e-05	20.447	138.589	-6.913	19.063	-61.128	110.239	43.424	-61.669	-55.395	172.275	39.646	-56.790	-50.364	-49.588	-42.979	128.313	-45.779	-8191	255	
15199.169	1	1	0	0	0.14389	0.10992	0.23036	0.091734	0.19575	0.096305	0.079995	0.16997	0.33355	0.053881	0.070803	0.16224	0.070459	0.1369	0.24418	0.20236	-1.9146	-2.5625	-2.6396	-2.1396	-2.8312	-2.4542	-2.6792	-2.7812	-2.675	-2.6042	-2.7917	-2.1937	-2.7417	-2.6521	-2.4458	-2.8063	275.373	259.630	-44.039	239.142	-35.168	260.457	-32.232	180.436	171.262	196.629	244.651	-11.274	79.962	-25.757	38.610	112.429	3.6842e-05	0.00027577	4.1855e-05	670.23	1.6076e-06	5.3926e-06	756.21	144.68	2.3561e-06	3.0453e-06	189.24	48.3	33.212	12.109	2.2295e-06	21.047	0.0012137	0.0020341	0.0005673	657.71	2.0909e-05	2.4055e-05	743.98	144.31	2.2084e-05	2.4142e-05	189.23	49.134	34.349	12.411	2.1817e-05	21.36	205.250	125.556	-11.646	-61.172	246.880	63.730	-61.413	-55.013	90.686	147.472	-56.900	-50.511	-48.742	-43.514	-2.538	-45.272	-8191	255	
15199.265	1	1	0	0	0.1719	0.12091	0.25605	0.061402	0.3679	0.13765	0.14528	0.28248	0.26446	0.27105	0.13234	0.16312	0.073666	0.31106	0.17163	0.12954	-2.0354	-2.4708	-2.8333	-2.4083	-2.6396	-2.7562	-2.3708	-2.8375	-2.5521	-2.4625	-2.8125	-2.5833	-2.8021	-2.5792	-2.2021	-2.7542	195.320	61.296	9.932	222.930	159.039	-0.451	-14.612	243.878	1.303	196.380	-28.512	254.756	274.545	50.010	175.452	238.545	6.7098e-05	0.00031483	5.487e-05	676.81	1.5012e-06	8.361e-07	767.91	145.9	4.2004e-06	2.1158e-06	191.37	49.268	34.611	12.98	2.8476e-06	22.131	0.0011925	0.0020681	0.0005811	664.8	2.0857e-05	2.4437e-05	752.27	145.49	2.2189e-05	2.4289e-05	190.23	50.505	35.648	13.244	2.3291e-05	22.504	166.284	11.448	25.174	-61.051	82.941	-24.118	-61.613	-55.298	141.776	49.187	-56.898	-50.753	-49.198	-43.174	143.243	-45.834	-8191	255	
15199.361	1	1	0	0	0.14739	0.094621	0.24353	0.34903	0.19172	0.23475	0.13373	0.13566	0.29815	0.16371	0.21387	0.15472	0.14104	0.31373	0.13414	0.095086	-2.2104	-2.2938	-2.8292	-2.4437	-2.6292	-2.5938	-2.4521	-2.7854	-2.6188	-2.5146	-3.0146	-2.45	-2.7146	-2.6188	-2.3271	-2.9521	247.491	93.155	144.937	276.523	284.438	161.432	231.324	-68.792	-48.487	40.419	-61.290	183.563	106.145	23.599	197.786	106.770	5.1924e-05	0.00030841	4.6463e-05	697.95	3.8558e-06	1.5455e-06	780.86	149.08	2.8694e-06	5.2912e-06	194.62	52.028	36.538	13.991	1.5562e-06	23.746	0.0012887	0.0022177	0.00061221	682.87	2.0926e-05	2.3459e-05	768.06	148.34	1.963e-05	2.1363e-05	192.33	52.899	37.14	14.187	1.7642e-05	23.851	179.869	55.509	82.294	-60.937	64.742	165.840	-61.684	-55.342	85.103	-19.107	-56.127	-50.120	-48.893	-44.087	23.627	-46.183	-8191	255	
15199.480	1	1	0	0	0.27741	0.072714	0.16908	0.081078	0.096762	0.15561	0.2188	0.1682	0.038314	0.31087	0.052709	0.2447	0.12368	0.37957	0.30203	0.14057	-2.2375	-2.5125	-2.9292	-2.5542	-2.6104	-2.7333	-2.4354	-2.7667	-2.6188	-2.4271	-2.7938	-2.4979	-2.6458	-2.7938	-2.3771	-2.65	30.623	70.200	34.967	158.165	251.397	80.209	236.862	214.169	261.715	39.328	204.430	-54.415	260.818	3.023	174.509	106.140	7.4823e-05	0.00022397	0.0001171	704.41	1.1066e-06	3.9345e-06	785.34	149.81	2.0896e-06	3.3244e-06	196.15	55.586	38.8	15.193	1.7983e-06	25.545	0.0009215	0.0015589	0.0004149	685.44	1.3846e-05	1.4972e-05	771.74	147.65	1.2643e-05	1.3296e-05	193.22	55.854	38.808	15.191	1.1028e-05	25.469	161.604	134.327	9.067	-61.110	23.748	77.303	-61.370	-55.189	39.381	88.776	-55.989	-49.940	-48.536	-43.655	46.492	-45.886	-8191	255	
15199.551	1	1	0	0	0.061332	0.16151	0.10919	0.061056	0.10943	0.30254	0.19776	0.31003	0.13363	0.17257	0.12437	0.25742	0.079193	0.017142	0.099231	0.20299	-2.1562	-2.5333	-2.9542	-2.5917	-2.8	-2.75	-2.4583	-2.7812	-2.5875	-2.3729	-2.5917	-2.5708	-2.475	-2.9062	-2.3458	-2.6042	130.251	33.807	60.662	218.557	-10.956	42.956	160.495	213.643	78.906	175.311	250.095	-18.960	223.522	200.477	244.502	-71.797	5.9515e-05	0.00031079	7.6603e-05	700.92	1.3614e-06	2.1441e-06	794.2	149.98	9.1602e-07	3.203e-06	200.12	58.848	40.677	15.704	3.0764e-06	25.805	0.00060134	0.00094914	0.00024286	681.51	8.5997e-06	9.3181e-06	776.37	148.42	8.6135e-06	9.7356e-06	196.84	58.835	40.457	15.634	9.8156e-06	25.699	148.100	7.435	15.385	-60.720	40.054	28.577	-61.292	-54.687	133.848	86.582	-55.986	-50.210	-47.986	-43.682	121.814	-46.379	-8191	255	
15199.649	1	1	0	0	0.14736	0.072426	0.20335	0.058453	0.11585	0.072138	0.16819	0.1645	0.14109	0.14647	0.10994	0.13938	0.19246	0.057025	0.21973	0.33584	-2.3271	-2.1583	-2.6083	-2.5896	-2.45	-2.8771	-2.4625	-2.6479	-2.9188	-2.3146	-3.0208	-2.75	-2.3292	-2.9562	-2.5958	-2.3896	83.671	232.332	172.107	-48.864	146.759	-67.912	250.449	46.759	-31.744	-49.741	252.107	6.490	239.169	63.902	116.230	4.818	4.1543e-05	0.00031183	6.9144e-05	733.05	6.7502e-07	1.1722e-06	819.27	157.43	1.4181e-06	3.4433e-06	200.62	58.447	41.104	15.289	1.0399e-06	24.351	0.00062084	0.0010065	0.00029072	717.85	1.073e-05	1.1184e-05	801.02	154.87	1.0879e-05	1.2126e-05	197.11	58.248	41.42	15.281	1.1387e-05	24.43	192.894	-38.045	51.072	-60.864	36.977	181.958	-61.728	-54.855	-70.381	86.484	-56.377	-49.972	-48.769	-44.180	47.647	-46.264	-8191	255	
15199.768	1	1	0	0	0.040672	0.27973	0.077088	0.19037	0.053456	0.33887	0.15146	0.082613	0.067117	0.044388	0.17546	0.072216	0.32174	0.22494	0.26267	0.10891	-2.2354	-2.3375	-2.7417	-2.5167	-2.4521	-2.95	-2.6562	-2.6937	-2.8917	-2.45	-2.6813	-2.8396	-2.3604	-2.725	-2.5458	-2.5375	-28.457	182.822	195.399	205.947	-58.835	8.679	-50.793	253.580	214.483	7.961	246.330	104.114	-42.771	-39.634	94.222	-39.406	5.4888e-05	0.00023737	4.5863e-05	727.33	2.0649e-06	2.2226e-07	792.75	156.71	1.6261e-06	2.5664e-06	199.32	57.441	41.958	15.132	2.7303e-06	23.673	0.00068421	0.0011149	0.00031778	709.49	1.1382e-05	1.2819e-05	775.23	155	1.2027e-05	1.3318e-05	195.56	57.623	42.209	15.094	1.2945e-05	23.591	153.887	-5.020	27.395	-60.761	170.534	155.044	-61.702	-54.716	71.841	-4.842	-55.878	-50.875	-48.985	-43.969	71.484	-46.571	-8191	255	
15199.864	1	1	0	0	0.10902	0.17391	0.2422	0.058689	0.21115	0.11907	0.20276	0.0513	0.093373	0.20604	0.18194	0.14344	0.11068	0.12769	0.029067	0.36331	-2.4062	-2.5229	-2.7021	-2.7438	-2.5167	-2.8417	-2.5375	-2.7188	-2.8354	-2.5	-2.8187	-2.6813	-2.5563	-2.9646	-2.6521	-2.1958	20.932	142.746	253.710	114.977	60.242	279.701	28.888	115.038	-0.109	224.524	-12.079	21.569	258.849	245.773	29.320	282.088	7.9638e-05	0.00021105	0.00014315	744.27	7.8265e-07	2.6122e-06	802.52	160.62	1.6909e-06	4.7973e-06	199.83	57.17	42.829	14.803	1.5698e-06	22.539	0.00072674	0.0012207	0.00032684	726.52	1.1846e-05	1.3014e-05	785.84	158.89	1.1922e-05	1.284e-05	196.82	57.46	42.941	14.741	1.1739e-05	22.625	182.476	-40.518	11.248	-60.822	170.727	26.559	-61.596	-54.995	201.911	57.580	-56.508	-50.483	-49.109	-44.510	33.222	-46.435	-8191	255	
15199.961	1	1	0	0	0.24585	0.10179	0.059299	0.21424	0.12538	0.33008	0.063169	0.1485	0.21915	0.053472	0.053352	0.06737	0.22617	0.063852	0.071548	0.27414	-2.3917	-2.5458	-2.6875	-2.7771	-2.3688	-2.8604	-2.6937	-2.4313	-3.0542	-2.3729	-2.6583	-2.7354	-2.3958	-2.6146	-2.5708	-2.2979	51.718	238.524	49.648	240.500	106.245	-2.448	227.496	250.472	-6.863	284.889	-13.722	-43.374	101.737	102.899	174.784	193.259	2.813e-05	0.00035319	1.2662e-05	770.94	2.3909e-06	2.9717e-06	823.55	166.13	2.134e-06	3.2379e-06	200.73	57.045	44.229	14.259	4.2632e-06	21.785	0.00067651	0.0011302	0.00029832	751.96	1.0558e-05	1.1925e-05	802.33	163.69	1.0706e-05	1.1277e-05	197.37	56.825	43.712	14.294	1.0846e-05	21.67	130.625	-8.053	268.081	-60.640	44.155	28.565	-61.731	-55.053	134.443	70.751	-56.260	-51.162	-49.282	-44.342	102.434	-46.219	-8191	255	
15200.057	1	1	0	0	0.19392	0.14734	0.082456	0.30556	0.095463	0.16214	0.25334	0.12975	0.18246	0.13226	0.059015	0.11159	0.032812	0.19992	0.1471	0.28161	-2.4146	-2.4167	-2.8458	-2.7521	-2.3854	-2.6792	-2.7979	-2.3396	-2.9896	-2.5208	-2.5042	-2.8458	-2.3812	-2.7167	-2.675	-2.4979	261.964	149.819	141.428	223.032	137.236	50.060	204.916	224.280	209.831	-49.676	191.749	281.584	-46.025	246.705	183.495	-0.682	4.1677e-05	0.00013846	3.645e-05	798.61	9.8978e-07	1.8183e-06	829.79	171.19	1.6041e-06	1.2599e-06	202.18	56.421	45.106	13.987	2.5085e-06	21.072	0.00063696	0.0010337	0.00028811	776.51	1.0949e-05	1.1617e-05	812.49	168.19	1.0152e-05	1.0927e-05	198.82	56.411	44.668	13.987	9.7927e-06	20.955	160.548	-1.188	28.821	-61.045	107.320	155.849	-61.886	-55.098	101.334	73.969	-56.763	-51.134	-49.558	-44.266	87.253	-46.257	-8191	255	
15200.153	1	1	0	0	0.16913	0.046398	0.074613	0.052282	0.096545	0.13818	0.19134	0.12852	0.080472	0.062793	0.12893	0.10066	0.21986	0.21481	0.071941	0.28266	-2.2667	-2.4521	-2.3625	-2.9167	-2.5271	-2.6375	-2.7417	-2.3083	-2.9708	-2.6542	-2.6125	-2.8458	-2.3417	-2.7479	-2.6312	-2.5	-43.919	250.299	107.662	46.753	221.853	233.072	214.034	-12.587	274.417	185.524	53.046	110.407	271.343	-52.090	123.178	223.333	4.9981e-05	0.00016206	7.0394e-05	813.61	1.1713e-06	2.8557e-06	843.62	174.99	2.3214e-06	2.8868e-06	206.17	57.269	45.719	13.962	2.9808e-06	20.814	0.00057962	0.00091758	0.00025797	792.09	9.3837e-06	9.9583e-06	821.94	171.42	8.8846e-06	9.7012e-06	201.98	57.157	45.82	13.945	8.8928e-06	20.729	129.656	50.015	28.223	-61.007	163.022	93.943	-61.629	-55.275	72.516	59.132	-56.634	-51.391	-49.572	-44.298	20.903	-46.288	-8191	255	
15200.249	1	1	0	0	0.17288	0.11053	0.19299	0.11811	0.19425	0.23474	0.1016	0.42641	0.21594	0.15685	0.2502	0.17124	0.092072	0.19501	0.11048	0.2806	-2.2417	-2.425	-2.3021	-2.9125	-2.3063	-2.5833	-2.6188	-2.5917	-2.6292	-2.6292	-2.4333	-2.8542	-2.5354	-2.4333	-2.7417	-2.425	59.638	250.251	-64.363	12.962	23.012	-17.333	-44.843	188.704	1.447	65.834	194.396	215.974	-7.385	227.423	265.521	65.459	5.2843e-05	0.00012745	0.00012599	830.07	1.0286e-06	2.5533e-06	856.61	178.79	1.1514e-06	4.698e-06	211.13	58.019	47.388	14.088	1.5162e-06	21.044	0.00052816	0.00083351	0.00024201	808.52	8.7231e-06	9.1646e-06	836.62	175.7	9.0442e-06	9.5492e-06	206.94	57.873	47.154	14.045	9.1192e-06	20.818	127.846	6.119	44.823	-61.057	77.827	81.700	-61.688	-55.207	251.352	82.299	-56.811	-51.321	-49.843	-44.438	44.814	-46.148	-8191	255	
15200.370	1	1	0	0	0.27062	0.086465	0.17055	0.3143	0.087552	0.013753	0.18292	0.38652	0.10553	0.19317	0.12112	0.21818	0.021625	0.19374	0.14936	0.14494	-2.1083	-2.6104	-2.3875	-2.9104	-2.5479	-2.5354	-3.0271	-2.4062	-2.6188	-2.6292	-2.45	-2.8396	-2.7062	-2.5479	-2.8063	-2.4979	-53.781	30.756	5.790	-46.596	120.009	188.751	176.125	229.125	194.877	-27.406	110.048	273.794	184.619	110.971	209.168	47.079	5.6018e-05	0.00023817	4.0999e-05	846.2	2.1125e-06	3.5595e-06	864.34	179.86	3.5036e-07	2.4806e-06	211.25	58.259	47.864	14.168	3.2772e-06	20.792	0.00053602	0.00088508	0.00024638	822.76	9.0765e-06	9.438e-06	843.21	178.04	8.8144e-06	9.7519e-06	207.24	58.235	47.506	14.024	8.8287e-06	20.59	181.452	-29.780	85.940	-60.850	46.643	126.168	-61.780	-55.106	14.362	71.843	-56.476	-51.003	-49.543	-44.567	1.758	-46.455	-8191	255	
15200.464	1	1	0	0	0.229	0.35789	0.27154	0.25434	0.067535	0.23954	0.060724	0.14758	0.23998	0.16331	0.12902	0.10037	0.094493	0.10642	0.12093	0.12554	-2.2438	-2.5083	-2.2687	-2.9958	-2.6021	-2.4938	-3.0396	-2.4167	-2.6979	-2.8312	-2.2271	-2.8708	-2.4271	-2.3333	-2.9958	-2.3646	97.897	204.033	-70.294	246.560	57.089	-38.962	213.672	219.954	-67.332	194.463	172.236	-52.980	67.113	208.986	183.063	121.903	6.6925e-05	0.00036796	6.0035e-05	854.67	2.0636e-06	1.5432e-06	862.8	181.12	2.2115e-06	2.9501e-06	211.81	58.44	48.084	14.054	1.0792e-06	20.492	0.00052623	0.00084039	0.00025003	828.92	8.93e-06	9.4996e-06	844.01	178.33	8.9042e-06	9.4522e-06	207.37	57.894	47.678	13.957	8.9992e-06	20.401	185.518	32.812	8.096	-60.820	116.610	65.402	-61.669	-55.450	-45.112	79.317	-56.886	-51.367	-49.517	-44.202	-5.703	-46.441	-8191	255	
15200.560	1	1	0	0	0.2349	0.20552	0.12731	0.09578	0.16073	0.15562	0.17957	0.21533	0.11503	0.023548	0.23053	0.20485	0.1931	0.19688	0.25064	0.078708	-2.125	-2.7938	-2.1042	-2.9437	-2.6167	-2.5062	-3.0021	-2.4875	-2.6042	-2.8333	-2.6125	-2.7917	-2.6083	-2.5604	-2.9437	-2.3167	-3.426	241.513	102.523	168.905	195.001	184.443	244.569	162.117	-72.976	-41.044	165.366	-73.327	143.928	18.097	231.378	-28.121	4.861e-05	0.00034335	5.6426e-05	860.23	1.2303e-06	2.9701e-06	870.57	182.12	1.8078e-06	4.8095e-06	211.63	57.788	47.962	13.929	2.3863e-06	20.345	0.00052934	0.00083815	0.00025079	836.68	8.7476e-06	9.8736e-06	847.84	179.43	8.6705e-06	9.3715e-06	206.3	57.678	47.681	13.902	8.6497e-06	20.251	146.400	-4.236	36.391	-60.892	145.068	146.439	-62.037	-55.423	60.107	86.578	-56.874	-51.112	-50.058	-44.304	138.148	-46.801	-8191	255	
15200.656	1	1	0	0	0.25686	0.11212	0.18886	0.03815	0.1894	0.10414	0.24141	0.189	0.23296	0.16093	0.17822	0.090793	0.14045	0.20023	0.054299	0.20576	-2.1354	-2.9979	-2.4521	-2.9396	-2.7896	-2.2938	-3.025	-2.4396	-2.5271	-2.8625	-2.3979	-2.7833	-2.6688	-2.2146	-2.925	-2.5167	242.862	-36.681	121.094	-21.609	63.009	152.320	194.651	196.913	-51.564	100.179	-67.445	60.334	156.359	255.944	-1.168	210.367	4.2553e-05	0.00022445	0.00010122	865.41	1.4364e-06	3.2006e-06	869.68	183.06	1.4276e-06	5.1712e-07	210.72	58.291	48.449	13.927	1.7857e-06	20.329	0.00052232	0.00082214	0.00023474	839.51	8.664e-06	9.092e-06	850.33	180.47	8.1888e-06	8.6521e-06	207.65	57.738	48.043	13.905	8.3012e-06	20.161	149.399	21.070	0.452	-60.872	204.885	18.105	-61.854	-55.248	75.014	208.493	-56.287	-51.142	-49.697	-44.524	69.904	-46.784	-8191	255	
15200.777	1	1	0	0	0.083398	0.10935	0.066324	0.21047	0.28914	0.28166	0.23412	0.17786	0.19491	0.081899	0.22265	0.25537	0.14873	0.15945	0.071541	0.16094	-2.0375	-2.8521	-2.3146	-2.8104	-2.7062	-2.4729	-3.0104	-2.7042	-2.3542	-2.9688	-2.3479	-2.7479	-2.8583	-2.2771	-2.8229	-2.4437	57.422	281.696	163.275	222.815	143.993	-25.629	-33.024	-25.423	-45.664	262.715	59.296	-39.205	-10.417	-35.755	140.723	12.146	4.4027e-05	0.00025374	7.0608e-05	860.82	2.0593e-06	1.5376e-06	867.46	181.61	2.8849e-06	4.3883e-06	207.94	56.796	48.032	13.722	2.3817e-06	19.837	0.00049472	0.00077179	0.00022241	839.99	7.9169e-06	8.5287e-06	845.45	179.09	7.8736e-06	8.3557e-06	204.93	56.88	47.532	13.548	7.7386e-06	19.628	172.722	3.108	-9.148	-60.937	105.336	65.589	-61.686	-55.376	105.143	47.444	-56.958	-51.622	-49.861	-44.956	102.023	-46.438	-8191	255	
15200.849	1	1	0	0	0.31962	0.20979	0.19622	0.21362	0.3661	0.033167	0.19475	0.095934	0.097749	0.078295	0.071675	0.15234	0.28616	0.14159	0.21373	0.25454	-1.7896	-2.8083	-2.3792	-2.5625	-2.6854	-2.2562	-2.7812	-2.4792	-2.4354	-2.8354	-2.5729	-2.3604	-2.6146	-2.1688	-2.6813	-2.6625	167.798	17.407	3.615	262.293	257.225	186.190	-63.888	165.038	-58.453	255.644	167.528	112.522	-7.229	218.879	178.990	220.044	6.036e-05	0.00021769	5.4102e-05	862.1	1.8644e-06	9.5671e-07	866.06	181.3	1.4274e-06	9.9921e-07	208.37	57.328	48.323	13.468	1.0096e-06	19.487	0.00046407	0.00074564	0.00021093	836.59	7.8439e-06	8.6943e-06	841.37	178.48	8.3224e-06	8.5895e-06	204.56	56.95	47.928	13.463	8.14e-06	19.279	172.649	24.398	23.582	-60.925	73.584	145.401	-61.635	-55.466	183.728	-28.590	-56.995	-51.955	-50.022	-44.705	-5.625	-46.817	-8191	255	
15200.945	1	1	0	0	0.1268	0.069839	0.10915	0.31977	0.18033	0.090593	0.17222	0.18903	0.14015	0.13168	0.26029	0.12191	0.071345	0.1378	0.12619	0.20032	-2.075	-2.8729	-2.5312	-2.55	-2.6542	-2.5083	-2.8187	-2.5958	-2.2625	-2.8208	-2.7021	-2.4229	-2.7562	-2.3063	-2.6917	-2.8063	183.909	107.601	169.106	248.938	-31.009	125.788	165.911	189.787	-56.280	29.916	235.444	256.458	-69.829	-40.006	193.631	16.486	4.1132e-05	0.00013292	8.7872e-05	859.98	2.7565e-06	2.3241e-06	860.1	182.26	1.23e-06	2.5954e-06	207.41	57.243	47.873	13.256	1.0744e-06	18.918	0.00048451	0.0007797	0.00022135	836.48	8.1099e-06	8.7174e-06	838.51	179.03	8.3808e-06	8.5235e-06	203.73	56.829	47.918	13.19	8.6649e-06	18.935	164.637	22.698	81.461	-61.054	137.876	120.017	-61.830	-55.461	66.249	38.181	-57.273	-51.998	-50.079	-44.496	59.512	-46.757	-8191	255	
15201.039	1	1	0	0	0.082763	0.027804	0.096808	0.20875	0.1502	0.35242	0.2117	0.14176	0.20115	0.19303	0.20634	0.2266	0.13117	0.15731	0.21953	0.12188	-1.9479	-2.775	-2.4604	-2.3396	-2.7896	-2.3167	-2.7188	-2.8104	-2.3187	-2.8187	-2.7313	-2.4875	-2.8042	-2.4562	-2.5792	-2.6292	96.512	244.576	230.509	179.381	208.919	-72.142	18.230	265.351	265.728	-37.282	257.108	187.929	247.522	233.365	263.122	15.573	4.6642e-05	4.7762e-05	5.5023e-05	863.05	1.0241e-06	3.7366e-06	857.83	181.93	8.8657e-07	1.5342e-06	207.1	57.103	48.368	13.118	3.4177e-06	18.971	0.00050207	0.00079741	0.00022464	839.66	8.5406e-06	8.845e-06	839.82	179.23	8.8104e-06	9.0647e-06	203.27	57.089	48.335	13.076	8.4101e-06	18.873	161.270	146.385	61.154	-61.070	107.559	98.058	-61.688	-55.387	93.206	69.298	-56.862	-51.915	-50.102	-44.551	94.025	-46.841	-8191	255	
15201.160	1	1	0	0	0.25278	0.017037	0.21159	0.22456	0.27137	0.12573	0.027391	0.19173	0.0092215	0.32404	0.025627	0.094976	0.12299	0.21233	0.34062	0.25108	-1.8667	-2.7833	-2.5167	-2.4521	-2.8208	-2.4625	-2.5208	-2.8	-2.3792	-2.6937	-2.7146	-2.3792	-2.8792	-2.6146	-2.4938	-2.7687	-33.367	250.339	2.931	222.619	-7.175	90.350	262.417	-34.980	21.916	-57.537	134.568	99.923	248.250	42.052	-66.453	-48.127	5.3438e-05	0.00027509	9.0258e-05	859.96	1.712e-07	8.159e-07	859.91	181.26	5.7486e-07	1.9838e-06	210.17	58.046	48.989	13.03	1.2054e-06	18.671	0.00052135	0.0008057	0.00022499	835.33	8.2439e-06	9.0771e-06	839.45	178.73	8.6671e-06	8.935e-06	205.26	57.862	48.723	13.05	8.5917e-06	18.644	160.760	86.644	89.296	-60.973	225.279	74.515	-61.737	-55.764	63.090	70.184	-56.970	-51.429	-49.503	-44.960	99.065	-46.956	-8191	255	
15201.256	1	1	0	0	0.23029	0.096483	0.2499	0.36387	0.074063	0.22278	0.15306	0.20399	0.10265	0.13013	0.26029	0.064758	0.075603	0.03972	0.088344	0.18497	-1.875	-2.5104	-2.6833	-2.4021	-2.8271	-2.5625	-2.5312	-2.9771	-2.5521	-2.6	-2.8125	-2.1854	-2.6063	-2.5521	-2.3438	-2.6229	238.287	267.505	237.800	214.459	21.513	-22.501	-67.992	180.537	240.584	92.033	170.138	176.292	0.355	266.206	-56.095	-73.098	5.9583e-05	0.00016787	9.1177e-05	877.59	1.1828e-06	1.4486e-06	879.49	184.66	7.2444e-07	1.8851e-06	209.82	56.791	48.407	12.723	1.9344e-06	18.111	0.00050041	0.00078545	0.00021675	856.17	8.2977e-06	9.0018e-06	857.04	182.37	8.3715e-06	9.1759e-06	205.32	56.374	47.979	12.732	8.9198e-06	18.064	174.407	35.842	36.693	-61.072	37.069	94.521	-62.086	-55.579	223.780	137.820	-57.271	-51.381	-50.134	-44.297	98.159	-46.699	-8191	255	
15201.352	1	1	0	0	0.092501	0.21877	0.15767	0.4069	0.10814	0.23885	0.29375	0.36821	0.11883	0.22362	0.32061	0.09364	0.17663	0.27258	0.08948	0.23575	-1.9917	-2.6292	-2.7833	-2.3125	-2.5729	-2.6958	-2.4813	-2.7521	-2.0687	-2.675	-2.8958	-2.2604	-2.7042	-2.7229	-2.4875	-2.8812	-69.319	-71.737	22.484	170.269	216.494	159.132	264.512	156.760	155.013	-43.598	243.394	-30.926	-24.046	94.097	64.357	50.678	4.5015e-05	0.00028308	7.3545e-05	876.58	1.9319e-06	4.8328e-06	873.35	185.04	2.1125e-06	1.6877e-06	209.28	55.475	46.967	12.423	3.4437e-06	17.685	0.00049413	0.00080029	0.00022875	855.43	8.3135e-06	9.0584e-06	853.11	181.42	8.4977e-06	8.9235e-06	203.89	55.267	46.751	12.459	8.9234e-06	17.667	139.786	4.914	60.874	-60.976	-60.283	69.318	-61.744	-55.243	11.179	97.389	-56.806	-51.350	-50.301	-44.760	129.897	-46.890	-8191	255	
15201.448	1	1	0	0	0.15395	0.1308	0.17467	0.094495	0.053847	0.29888	0.14613	0.073755	0.15388	0.06156	0.27822	0.11246	0.097903	0.033677	0.082505	0.38745	-2.1042	-2.45	-2.8187	-2.6937	-2.7438	-2.7354	-2.2896	-2.7583	-2.5104	-2.2229	-2.8271	-2.2458	-2.5021	-2.7333	-2.1917	-2.5854	197.154	76.769	273.009	-72.422	239.562	71.592	146.790	20.850	117.111	151.852	-29.621	216.727	138.333	144.046	98.011	-33.228	4.0863e-05	0.00025212	0.00012744	877.81	1.1587e-06	3.6533e-06	877.23	185.18	1.703e-06	1.8623e-06	211.38	55.592	46.749	12.534	2.1053e-06	17.804	0.00050245	0.0008379	0.00022566	851.05	8.339e-06	9.0029e-06	854.25	182.25	8.34e-06	9.1317e-06	207.14	55.269	46.551	12.487	8.784e-06	17.766	146.400	26.871	12.291	-61.049	74.245	63.701	-61.922	-55.650	89.332	19.589	-57.139	-51.814	-49.717	-44.284	81.508	-46.763	-8191	255	
15201.544	1	1	0	0	0.28417	0.098447	0.14161	0.12261	0.079634	0.30023	0.27465	0.25913	0.2233	0.12099	0.16661	0.16333	0.042619	0.093045	0.21504	0.14235	-2.2104	-2.3375	-2.6542	-2.4229	-2.4729	-2.725	-2.3125	-2.7938	-2.5771	-2.3917	-2.925	-2.5708	-2.65	-2.9313	-2.4667	-2.8729	-52.452	239.155	39.239	23.670	75.285	-60.095	-72.390	188.361	61.256	170.534	185.521	251.128	-31.758	-40.482	268.856	162.275	3.4458e-05	0.00032139	5.5257e-05	888.17	1.6265e-06	2.0892e-06	894.17	190.25	9.5485e-07	3.9591e-06	216.2	56.056	46.797	12.496	1.9526e-06	17.732	0.00050135	0.00080663	0.00023572	861.26	8.6808e-06	9.7988e-06	870.54	186.54	8.8448e-06	9.3541e-06	212.56	55.767	46.738	12.507	9.2942e-06	17.708	165.419	46.640	29.779	-61.049	138.582	57.464	-61.946	-55.833	109.435	79.119	-57.233	-51.529	-50.280	-44.830	88.728	-46.698	-8191	255	
15201.641	1	1	0	0	0.19427	0.22514	0.067773	0.12033	0.14463	0.25771	0.51747	0.14441	0.087018	0.23742	0.1726	0.14769	0.3653	0.21188	0.25643	0.11575	-2.2625	-2.4625	-2.725	-2.6312	-2.3625	-2.8	-2.35	-2.775	-2.7021	-2.3646	-2.8604	-2.3521	-2.5646	-2.7625	-2.3937	-2.9	59.476	173.098	14.749	0.744	74.571	-9.665	224.284	-30.110	91.495	109.849	269.498	226.182	3.220	-57.869	-51.830	226.781	5.0327e-05	0.0003494	5.0384e-05	893.2	1.6503e-06	4.5568e-06	907.47	193.49	2.2107e-06	1.5534e-06	223.59	57.289	47.599	12.61	2.9034e-06	18.176	0.00053283	0.00085947	0.0002384	867.56	8.8037e-06	9.7163e-06	886.09	189.83	8.7913e-06	9.82e-06	218.49	56.955	47.381	12.639	9.0012e-06	18.101	170.875	30.538	66.195	-60.886	101.263	59.818	-61.718	-55.695	77.984	92.372	-57.333	-51.536	-49.952	-44.144	35.390	-46.895	-8191	255	
15201.761	1	1	0	0	0.04132	0.18583	0.1528	0.12971	0.095978	0.087292	0.11025	0.049523	0.28974	0.052381	0.31133	0.26312	0.02528	0.20997	0.15849	0.41607	-2.2958	-2.2146	-2.9167	-2.5146	-2.5604	-2.8063	-2.5917	-2.725	-2.7625	-2.4167	-2.7958	-2.6458	-2.5917	-3.0187	-2.2271	-2.7812	16.247	14.489	-8.808	234.480	66.019	29.963	257.797	240.288	73.472	149.169	-57.356	87.172	-51.509	209.934	70.848	-15.449	3.9734e-05	0.00017993	6.6504e-05	913.85	1.013e-06	4.5263e-06	931.87	197.57	2.5931e-06	6.7572e-07	226.32	58.322	48.048	12.69	3.0106e-06	17.972	0.00053331	0.00088289	0.00024153	891.19	8.9007e-06	9.8093e-06	910.38	193.97	9.2003e-06	1.0143e-05	221.71	57.932	48.093	12.701	9.6167e-06	17.99	160.941	-39.997	-1.191	-61.025	33.763	91.296	-61.785	-55.697	102.640	104.278	-57.049	-51.294	-49.686	-44.837	52.566	-46.971	-8191	255	
15201.857	1	1	0	0	0.1944	0.07	0.16603	0.16281	0.046179	0.21561	0.085819	0.20365	0.039326	0.25919	0.15664	0.12875	0.16236	0.24296	0.12269	0.30736	-2.3771	-2.3708	-2.8021	-2.6688	-2.4604	-2.8479	-2.525	-2.5667	-2.6958	-2.275	-2.5792	-2.9167	-2.3333	-2.85	-2.3896	-2.5875	-62.352	158.478	144.757	-50.327	58.418	96.397	184.191	-65.732	-20.022	-33.939	-66.062	240.684	278.499	-53.040	-62.966	184.792	3.2277e-05	0.00047098	8.2734e-05	918.19	1.5818e-06	3.9326e-07	932.32	194.61	1.1035e-06	3.3803e-06	223.49	57.663	47.329	12.592	1.6903e-06	17.913	0.00057498	0.0009447	0.00025762	892.4	9.717e-06	1.0208e-05	909.71	191.32	9.4915e-06	9.8729e-06	220.08	57.51	47.153	12.511	9.223e-06	17.89	137.580	10.680	28.411	-60.929	127.422	185.477	-61.788	-55.776	48.532	87.400	-57.241	-51.410	-49.708	-44.141	101.377	-46.455	-8191	255	
15201.952	1	1	0	0	0.11204	0.43803	0.20799	0.17195	0.054222	0.3195	0.16702	0.11135	0.1212	0.12959	0.27344	0.15179	0.19786	0.20189	0.16133	0.23297	-2.2146	-2.425	-2.4729	-2.7333	-2.3583	-2.8667	-2.625	-2.5896	-2.8958	-2.2729	-2.6958	-2.6396	-2.4354	-2.8125	-2.5292	-2.4208	85.306	258.340	75.199	-70.113	201.136	45.835	200.644	212.990	120.054	225.107	220.346	153.118	238.695	26.578	220.398	171.717	2.7689e-05	0.00018522	6.669e-05	903.5	1.3644e-06	1.8439e-06	924.86	193.27	6.5491e-07	2.9506e-06	225.17	58.098	47.106	12.399	2.8431e-06	18.011	0.00052087	0.00087606	0.00024072	877.65	9.2143e-06	9.7587e-06	903.61	189.55	9.2082e-06	1.0169e-05	220.51	58.038	47.178	12.37	9.7729e-06	17.823	168.691	42.962	7.259	-61.012	-28.205	23.265	-61.733	-55.454	-25.783	4.018	-57.070	-51.450	-49.623	-44.709	41.233	-47.078	-8191	255	
15202.048	1	1	0	0	0.016703	0.19177	0.044273	0.083691	0.14423	0.16836	0.16278	0.22661	0.2107	0.099758	0.14871	0.2948	0.21416	0.11326	0.14354	0.10127	-2.3792	-2.2687	-2.6562	-2.8688	-2.0417	-2.7125	-2.6667	-2.3042	-2.8375	-2.3979	-2.6042	-2.6708	-2.3521	-2.7958	-2.6833	-2.3312	200.795	84.118	278.473	270.838	-64.016	183.892	216.755	262.048	6.762	228.384	7.850	95.819	111.478	-17.588	61.894	-19.760	6.6284e-05	0.00027881	8.8963e-05	887.83	1.5456e-06	3.8719e-06	917.83	189.59	2.0407e-06	2.9916e-06	222.74	58.905	47.172	12.352	8.481e-07	18.045	0.00058029	0.00098832	0.00026321	864.85	9.9157e-06	1.0468e-05	898.41	185.86	9.5396e-06	1.013e-05	218.65	58.739	47.205	12.348	1.0078e-05	17.928	182.232	22.313	31.614	-60.942	179.026	117.181	-61.874	-55.352	120.259	48.159	-57.026	-51.043	-49.511	-44.751	108.846	-47.062	-8191	255	
15202.144	1	1	0	0	0.19017	0.1291	0.1666	0.2667	0.14012	0.14854	0.34876	0.033073	0.11685	0.11021	0.12065	0.15547	0.24266	0.087418	0.17503	0.17765	-2.4979	-2.5146	-2.5375	-3.0125	-2.3479	-2.9917	-2.6146	-2.3875	-2.8979	-2.3646	-2.6479	-2.7708	-2.4396	-2.8167	-2.8625	-2.3812	-3.096	282.273	243.573	246.591	73.495	34.929	191.035	-30.010	214.191	207.477	151.379	-42.005	233.393	239.294	56.824	271.455	4.0977e-05	0.0002795	6.693e-05	878.38	1.2855e-06	2.8183e-06	922.65	186.09	9.3481e-07	4.5132e-06	222.81	59.575	47.621	12.323	2.454e-06	17.928	0.00057598	0.00094012	0.00026005	853.75	9.6958e-06	1.0772e-05	899.13	182.87	1.015e-05	1.0506e-05	218.14	59.304	47.327	12.339	9.9504e-06	17.977	150.756	-67.201	46.617	-60.767	209.339	106.350	-61.550	-55.213	104.327	65.165	-56.857	-50.894	-49.527	-44.589	75.763	-46.275	-8191	255	
15202.240	1	1	0	0	0.1335	0.13044	0.051516	0.43563	0.30285	0.064133	0.16083	0.061586	0.09407	0.26303	0.13912	0.26385	0.11587	0.20734	0.14306	0.17716	-2.4021	-2.7167	-2.4313	-2.8021	-2.2167	-2.675	-2.9375	-2.2125	-2.8896	-2.5542	-2.6333	-2.7292	-2.3542	-2.525	-2.775	-2.1646	206.371	115.021	64.617	268.684	45.183	217.977	176.658	172.003	163.079	-8.985	269.796	247.930	138.237	231.317	238.802	234.555	4.8677e-05	0.00028772	3.5843e-05	859.97	2.0637e-06	1.0447e-06	904.78	181.6	6.8747e-07	3.9388e-06	218.77	59.1	46.749	12.228	6.9015e-07	17.964	0.0005818	0.0009589	0.0002706	836.84	9.9152e-06	1.08e-05	883.6	178.51	9.8445e-06	1.0907e-05	214.58	59.11	46.691	12.15	1.0353e-05	17.928	148.682	49.856	-21.258	-60.847	130.128	-60.080	-61.446	-55.244	131.622	83.985	-56.561	-50.913	-49.347	-43.962	130.654	-45.762	-8191	255	
15202.336	1	1	0	0	0.22709	0.12073	0.1275	0.32607	0.24831	0.12372	0.054655	0.30507	0.15658	0.29857	0.18893	0.28582	0.20584	0.25963	0.34533	0.22991	-2.2667	-2.4313	-2.2125	-2.85	-2.2208	-2.5583	-2.7833	-2.4042	-2.5667	-2.5417	-2.5167	-2.95	-2.3708	-2.3125	-2.7771	-2.2792	59.885	282.339	240.742	-26.198	85.928	10.230	38.684	194.625	-38.949	2.170	-61.298	-58.784	24.586	189.383	127.090	145.250	4.0873e-05	0.00033769	1.2868e-05	848.71	4.7922e-07	8.8537e-07	905.43	178.87	2.1605e-06	3.7695e-06	218.84	58.361	46.01	12.133	2.2296e-06	17.745	0.00059427	0.00098681	0.00028188	826.44	1.0259e-05	1.1544e-05	881.9	176.97	1.0322e-05	1.1248e-05	214.75	58.593	45.833	12.114	1.0395e-05	17.83	127.508	-49.749	277.748	-60.689	54.067	50.075	-61.580	-55.052	43.614	35.080	-56.587	-50.957	-49.479	-44.491	36.921	-46.158	-8191	255	
15202.457	1	1	0	0	0.18658	0.13248	0.35287	0.27086	0.11279	0.082527	0.16977	0.27873	0.29964	0.26631	0.18708	0.15801	0.076619	0.2654	0.035556	0.20759	-2.2313	-2.5812	-2.3438	-2.8458	-2.4792	-2.5771	-3.0042	-2.1958	-2.7354	-2.6896	-2.1771	-2.9813	-2.3896	-2.3937	-2.8396	-2.2896	145.301	182.173	40.999	-67.396	16.078	6.427	169.739	18.090	134.579	31.790	147.664	274.684	166.136	80.395	192.540	234.157	5.7018e-05	0.00014116	6.3475e-05	856.09	9.8718e-07	1.3394e-06	906.36	180.98	2.4492e-06	3.396e-06	218.78	58.619	45.638	12.014	7.6305e-07	17.95	0.00060118	0.0010193	0.00028989	831.19	1.0422e-05	1.1632e-05	886.25	178.19	1.0637e-05	1.1061e-05	215.47	58.648	45.808	12.063	1.0839e-05	17.896	155.727	-19.829	44.564	-60.510	117.745	51.144	-61.411	-54.810	81.082	57.696	-56.596	-51.263	-49.107	-44.488	61.038	-46.040	-8191	255	
15202.553	1	1	0	0	0.20028	0.1463	0.26562	0.35753	0.074491	0.19198	0.12728	0.15482	0.22123	0.17333	0.28968	0.25016	0.28286	0.072503	0.23337	0.22671	-2.275	-2.5812	-2.3083	-2.9458	-2.1542	-2.4375	-3.1125	-2.4188	-2.6958	-2.7146	-2.375	-2.8104	-2.6479	-2.2417	-2.8187	-2.2896	104.436	-53.552	77.057	268.072	234.178	175.070	178.341	2.570	203.950	21.285	32.007	261.498	136.361	261.414	166.334	-64.220	2.365e-05	0.00014881	7.2604e-05	846.7	2.7408e-06	4.0422e-06	909.6	181.04	9.3971e-07	2.2781e-06	220.12	59.27	46.055	12.081	1.7292e-06	17.976	0.00062296	0.0010392	0.00029301	829.18	1.0211e-05	1.1445e-05	887.65	178.01	1.0612e-05	1.1021e-05	216.16	59.154	46.444	12.084	1.0674e-05	17.931	155.682	154.745	52.110	-60.774	132.855	80.776	-61.237	-55.047	96.585	117.201	-56.833	-51.148	-49.293	-44.614	42.291	-45.738	-8191	255	
15202.649	1	1	0	0	0.081135	0.22556	0.064279	0.087503	0.32006	0.2809	0.17097	0.11427	0.055337	0.12665	0.20052	0.23554	0.17017	0.1178	0.077994	0.29092	-2.0542	-2.6896	-2.1437	-2.8375	-2.5104	-2.4062	-2.8521	-2.275	-2.4188	-2.8104	-1.9979	-2.7104	-2.725	-2.2833	-2.8646	-2.4792	220.369	-11.212	188.863	-17.317	47.664	-5.110	-41.150	64.408	2.695	269.847	236.319	-15.250	256.477	-33.941	279.863	264.146	2.1298e-05	0.00034213	4.1947e-05	844.55	2.5786e-06	4.0273e-06	892.2	177.77	2.2849e-06	5.2559e-06	215.23	58.799	45.762	12.003	4.2203e-06	18.113	0.00060923	0.00098261	0.00028299	820.76	1.0405e-05	1.1371e-05	874.18	174.33	1.0339e-05	1.0864e-05	211.53	58.747	45.809	12.025	1.0224e-05	18.016	198.634	-4.439	241.627	-60.816	50.605	84.667	-61.484	-55.017	42.838	91.276	-56.288	-51.004	-49.196	-44.331	134.037	-46.129	-8191	255	
15202.721	1	1	0	0	0.19403	0.027376	0.10133	0.079425	0.075002	0.25175	0.32479	0.12604	0.17649	0.31969	0.14817	0.16088	0.19995	0.035096	0.27775	0.27048	-1.975	-2.8625	-2.3208	-2.7479	-2.7188	-2.2313	-2.7854	-2.525	-2.3187	-2.9458	-2.375	-2.6958	-2.7104	-2.25	-2.9688	-2.4854	55.890	87.261	190.687	247.073	187.905	43.785	-69.525	-54.008	187.983	-64.233	-3.992	171.035	-65.726	82.454	258.024	90.142	4.1321e-05	0.00025242	5.9335e-05	827.18	6.4781e-07	3.4749e-06	879.55	173.18	6.1506e-07	1.3581e-06	212.08	59.371	45.588	12.082	1.0441e-06	18.303	0.00059164	0.00096105	0.00026999	803.51	9.8605e-06	1.0892e-05	860.56	170.17	9.8205e-06	1.0863e-05	208.95	59.115	45.624	12.051	9.8802e-06	18.196	177.200	50.701	47.162	-60.697	164.211	84.633	-61.214	-54.800	-2.270	60.445	-56.362	-50.751	-49.237	-44.228	115.282	-46.804	-8191	255	
15202.840	1	1	0	0	0.12593	0.27039	0.045906	0.29628	0.17975	0.029342	0.23635	0.29119	0.19882	0.12561	0.10951	0.15341	0.089513	0.10856	0.17826	0.18379	-2.0042	-3.0208	-2.2708	-2.7562	-2.7292	-2.2042	-2.9375	-2.5583	-2.4417	-2.7417	-2.5417	-2.5396	-2.7062	-2.3229	-2.5833	-2.6458	49.972	-37.239	-19.990	229.389	269.101	194.686	255.819	220.855	171.430	-54.423	255.395	235.293	-5.009	9.176	-45.846	235.128	3.2472e-05	0.00033519	7.6108e-05	806.05	1.2074e-06	3.1503e-06	864.4	168.97	1.5468e-06	1.6533e-06	211.93	58.696	45.037	12.162	2.1213e-06	18.486	0.00056659	0.00091904	0.00025977	784.29	9.4658e-06	1.0131e-05	848.53	166.92	9.6064e-06	1.0024e-05	208.03	58.836	44.969	12.102	8.9569e-06	18.493	161.483	-36.198	-51.322	-60.573	58.037	181.569	-61.268	-54.989	81.110	26.490	-56.172	-50.789	-49.081	-43.967	50.909	-46.410	-8191	255	
15202.936	1	1	0	0	0.145	0.073925	0.10055	0.32297	0.14653	0.20132	0.29192	0.1965	0.17412	0.24628	0.18531	0.2264	0.1072	0.05249	0.34745	0.22497	-1.8542	-2.8542	-2.4583	-2.8396	-2.5958	-2.4646	-2.9292	-2.6604	-2.3271	-2.7542	-2.4229	-2.4062	-3.0292	-2.4229	-2.5604	-2.6813	-60.503	20.797	-69.216	283.892	283.937	-48.857	-12.919	-59.327	143.321	-37.834	267.395	255.521	38.268	-41.652	228.362	109.547	4.5404e-05	0.00034812	0.00011886	782.24	2.4013e-06	1.2747e-06	850.96	164.76	1.4148e-06	3.2204e-06	209.65	58.98	44.771	12.193	2.0238e-06	18.952	0.00055401	0.0008603	0.0002436	763.96	9.0342e-06	1.005e-05	833.1	162.59	8.8438e-06	9.8151e-06	205.86	59.306	44.597	12.183	8.725e-06	18.853	158.732	3.026	13.585	-60.652	114.462	91.265	-61.122	-54.726	107.891	62.448	-56.429	-50.432	-48.480	-44.745	65.120	-46.320	-8191	255	
15203.032	1	1	0	0	0.21509	0.20472	0.091158	0.22804	0.16411	0.11409	0.098693	0.23355	0.12403	0.27714	0.068193	0.12019	0.27902	0.070997	0.15152	0.13402	-1.8937	-2.8896	-2.5667	-2.6437	-2.8771	-2.5563	-2.85	-2.6479	-2.3625	-2.8812	-2.5667	-2.5104	-2.7021	-2.4583	-2.8063	-2.7104	-35.308	176.951	47.977	-68.212	109.934	178.600	-40.518	178.582	175.199	-20.144	184.220	105.616	-19.227	204.883	-23.339	-62.426	6.49e-05	0.00033709	4.8338e-06	760.9	3.366e-07	1.7039e-06	840.68	162.29	1.3917e-06	2.1274e-06	207.22	58.775	44.052	11.918	1.6506e-06	18.422	0.00051792	0.00084498	0.00024244	742.61	8.5718e-06	9.4495e-06	821.78	159.95	8.7594e-06	9.3519e-06	203.49	58.358	43.996	11.911	8.9752e-06	18.328	181.169	0.180	-49.291	-60.419	210.266	-2.270	-60.914	-54.586	90.379	55.770	-55.919	-50.518	-48.698	-44.078	107.813	-46.356	-8191	255	
15203.128	1	1	0	0	0.1796	0.17183	0.077063	0.1228	0.15988	0.053056	0.16321	0.044711	0.039166	0.14124	0.046024	0.16035	0.17013	0.11518	0.1408	0.24878	-1.9479	-2.6854	-2.6	-2.6625	-2.8042	-2.6646	-2.8438	-2.6479	-2.2979	-2.5292	-2.6708	-2.3167	-2.9	-2.4104	-2.4479	-2.7125	266.909	157.906	248.072	125.747	117.160	286.033	224.769	127.594	238.054	111.384	254.453	17.511	-20.991	5.765	45.035	146.121	4.6506e-05	0.00017148	0.00011185	775.55	1.5786e-06	4.2668e-06	850.22	163.8	1.0942e-06	2.263e-06	208.14	57.993	43.62	11.699	1.5788e-06	18.076	0.00053986	0.00085678	0.00024409	755.41	9.016e-06	9.6256e-06	830.8	161.3	9.1615e-06	9.7317e-06	204.06	57.729	43.453	11.705	9.2148e-06	18.015	144.574	27.139	9.459	-60.555	120.546	99.025	-61.039	-54.919	84.674	97.937	-56.191	-50.252	-49.408	-44.209	25.250	-46.256	-8191	255	
15203.249	1	1	0	0	0.11791	0.19181	0.1371	0.48289	0.089445	0.15445	0.069974	0.048181	0.20961	0.13801	0.037235	0.10846	0.22612	0.06712	0.17653	0.25539	-1.8771	-2.7708	-2.7458	-2.4625	-2.6771	-2.5708	-2.6063	-2.6583	-2.5292	-2.6271	-2.7708	-2.4562	-2.8708	-2.3333	-2.6167	-2.8458	238.544	154.797	279.322	241.505	164.260	4.297	285.839	122.058	159.311	214.828	6.162	215.226	127.980	225.733	-66.533	237.179	3.8147e-05	0.00014741	2.0084e-05	782.13	4.9876e-07	4.6041e-07	852.29	164.84	1.8475e-06	3.0595e-06	209.01	57.507	43.335	11.633	2.5496e-06	17.87	0.00052591	0.00086693	0.00023881	760.62	9.1677e-06	9.8956e-06	833.56	161.93	9.2327e-06	9.8811e-06	203.8	57.309	43.129	11.617	9.2835e-06	17.85	118.460	-50.543	10.122	-60.465	137.390	62.193	-61.545	-55.049	98.720	81.408	-56.432	-50.782	-49.298	-44.610	66.724	-46.679	-8191	255	
15203.321	1	1	0	0	0.30149	0.28534	0.05093	0.029744	0.14898	0.053701	0.1205	0.012611	0.21451	0.041709	0.16092	0.21894	0.26426	0.20663	0.065594	0.21421	-1.9937	-2.6646	-2.6583	-2.4375	-2.7917	-2.5312	-2.6208	-2.9313	-2.5438	-2.5729	-2.9437	-2.175	-3.0458	-2.6417	-2.4896	-2.7729	-70.321	212.698	154.059	121.919	237.589	174.498	256.070	83.944	-26.042	-2.144	-61.495	160.050	-69.909	-43.342	109.916	238.911	6.5134e-05	0.00017736	7.2821e-05	775.94	1.856e-06	2.928e-06	845.62	162.08	7.9046e-07	2.2029e-06	203.93	56.659	42.118	11.492	2.432e-06	17.661	0.00056477	0.00091509	0.0002622	756.4	9.5244e-06	1.0515e-05	828.65	159.41	9.6221e-06	1.018e-05	199.57	56.58	42.096	11.466	9.341e-06	17.688	156.757	2.862	40.779	-60.373	90.352	53.838	-61.422	-54.822	25.362	31.478	-56.564	-50.599	-48.643	-44.213	33.956	-46.796	-8191	255	
15203.441	1	1	0	0	0.28895	0.042284	0.3069	0.43345	0.12322	0.047476	0.12252	0.18	0.1521	0.099824	0.197	0.12014	0.109	0.08942	0.087971	0.11173	-1.9771	-2.5792	-2.6771	-2.2979	-2.7917	-2.6354	-2.4771	-2.9437	-2.3563	-2.6896	-2.9083	-2.2771	-2.5833	-2.5979	-2.2542	-2.8875	233.736	-72.541	176.336	267.222	-14.721	216.495	238.256	163.175	85.995	-57.292	210.047	-15.222	190.954	81.840	148.991	249.365	7.0788e-05	0.00015956	6.4356e-05	736.32	2.3074e-06	8.475e-07	814.08	152.75	2.2397e-06	3.8013e-07	196.17	54.823	40.155	11.45	1.4755e-06	18.244	0.00054801	0.00090582	0.00025662	718.57	9.1096e-06	1.0069e-05	794.71	150.03	9.4856e-06	9.923e-06	192.83	54.836	40.268	11.518	9.8436e-06	18.2	149.442	48.719	73.392	-60.476	117.800	167.092	-61.388	-54.728	17.067	279.424	-55.920	-50.259	-48.580	-44.001	28.654	-46.260	-8191	255	
15203.537	1	1	0	0	0.13724	0.21372	0.22613	0.12795	0.16233	0.28278	0.21552	0.11935	0.25511	0.13819	0.33202	0.18077	0.12147	0.12753	0.20456	0.11372	-1.9271	-2.45	-2.6521	-2.5771	-2.5542	-2.6854	-2.3542	-2.8958	-2.4146	-2.325	-2.9208	-2.3479	-2.6583	-2.8979	-2.2792	-3.0083	66.699	253.488	94.552	283.210	274.577	75.381	225.670	231.681	-59.844	228.356	-65.725	-56.710	-46.097	109.957	-33.575	265.626	6.986e-05	0.00036822	4.3797e-05	696.8	1.4392e-06	3.0204e-06	777.9	141.98	3.0795e-06	5.5693e-07	188.98	54.587	38.526	11.819	3.4714e-06	19.001	0.00056994	0.00094617	0.00027176	680.42	9.6958e-06	1.0608e-05	760.49	140.6	9.9118e-06	1.1138e-05	185.79	54.54	38.687	11.776	1.0456e-05	19.039	157.401	-31.381	45.057	-60.574	46.124	99.055	-61.112	-54.553	135.905	127.164	-55.248	-50.188	-48.617	-44.117	113.319	-45.772	-8191	255	
15203.633	1	1	0	0	0.14543	0.11192	0.14224	0.48702	0.21662	0.093662	0.18723	0.13452	0.2229	0.14879	0.20905	0.18574	0.37279	0.18849	0.047202	0.1715	-1.8875	-2.4021	-2.7958	-2.4604	-2.6625	-2.7917	-2.3875	-2.8333	-2.6625	-2.4333	-2.8854	-2.5917	-2.4667	-2.8271	-2.3083	-2.8583	86.941	101.543	78.587	-65.815	228.527	-30.351	265.058	279.352	218.572	26.519	-52.590	254.572	11.813	78.317	73.596	72.951	4.2335e-05	0.00019887	5.4664e-05	678.23	1.5405e-06	1.8789e-06	772.88	139.16	1.9045e-06	1.6909e-06	186.12	53.064	36.8	11.533	2.6068e-06	18.844	0.00059191	0.001012	0.00029039	663.71	1.0535e-05	1.1931e-05	755.72	138.01	1.0953e-05	1.224e-05	183.25	53.168	37.198	11.516	1.1582e-05	18.752	145.835	80.474	59.415	-60.783	55.215	94.602	-61.172	-54.643	63.598	154.787	-55.738	-50.267	-48.859	-44.026	76.161	-47.009	-8191	255	
15203.730	1	1	0	0	0.18284	0.21558	0.18153	0.23717	0.27032	0.25115	0.24959	0.23482	0.06744	0.12866	0.061047	0.020152	0.16976	0.14969	0.27991	0.043758	-2.2292	-2.2271	-2.8229	-2.4333	-2.4708	-2.9271	-2.4562	-2.6813	-2.7583	-2.3375	-2.9333	-2.4729	-2.4333	-2.775	-2.3	-2.6708	52.367	145.599	60.291	256.712	263.755	35.249	239.293	166.195	-37.615	275.094	75.401	-53.442	222.127	97.302	250.748	-2.230	5.2067e-05	0.0001135	0.00012877	669.49	1.4075e-06	1.6956e-06	761.94	136.74	1.8827e-06	3.0806e-06	182.4	51.932	35.641	11.221	2.3765e-06	18.564	0.00064766	0.0010948	0.00030382	652.24	1.111e-05	1.2199e-05	743.46	135.44	1.1277e-05	1.2161e-05	180.42	51.827	35.979	11.264	1.1363e-05	18.571	163.788	-41.290	58.630	-60.755	8.490	42.462	-61.347	-54.563	81.266	-28.339	-55.647	-50.303	-48.167	-44.278	50.162	-46.129	-8191	255	
15203.849	1	1	0	0	0.19889	0.19655	0.14026	0.056969	0.085468	0.29207	0.12414	0.20377	0.11884	0.28488	0.048132	0.11201	0.20511	0.075716	0.18571	0.053455	-2.1042	-2.1354	-2.8875	-2.5167	-2.5292	-2.7271	-2.4146	-2.7125	-2.7229	-2.2729	-2.7167	-2.3896	-2.475	-2.8187	-2.6063	-2.5771	26.038	96.262	273.367	181.638	155.698	-7.938	252.678	37.587	-38.248	-11.332	183.844	138.695	133.927	-54.366	-62.759	137.948	6.7008e-05	0.00032794	8.2219e-05	650.19	2.0177e-06	2.6232e-06	748.68	133.2	9.4601e-07	3.088e-06	179.85	51.363	35.529	11.154	2.3686e-06	18.715	0.00062363	0.0010645	0.00029497	636.92	1.0403e-05	1.1472e-05	731.13	131.75	1.0517e-05	1.1656e-05	177.98	51.586	35.684	11.247	1.0955e-05	18.76	164.463	35.653	-6.282	-60.679	60.097	60.630	-61.149	-54.262	-3.316	81.480	-56.287	-50.698	-48.847	-43.736	111.675	-46.122	-8191	255	
15203.945	1	1	0	0	0.15467	0.28267	0.07674	0.08423	0.080228	0.066114	0.029321	0.12644	0.011619	0.18703	0.095874	0.28292	0.12239	0.15142	0.086789	0.17989	-2.2687	-2.2438	-2.7958	-2.5354	-2.4271	-2.8146	-2.3063	-2.5187	-2.9479	-2.1229	-2.9	-2.6792	-2.3271	-2.8792	-2.3438	-2.5979	54.456	148.993	32.058	110.928	209.479	276.739	-0.928	256.517	-15.837	190.313	136.299	218.877	272.698	214.666	244.684	286.832	6.4575e-05	0.00028443	0.0001137	645.32	7.8728e-07	2.1157e-06	734.64	131.81	4.8733e-07	1.5348e-06	180.91	52.46	35.463	11.504	1.031e-06	19.208	0.00063092	0.0010232	0.00028693	630.07	1.0347e-05	1.1185e-05	721.41	130.33	1.0279e-05	1.1162e-05	177.2	52.265	35.815	11.485	1.053e-05	19.1	163.242	-22.164	31.780	-60.743	244.231	122.890	-61.164	-54.448	14.805	-32.732	-55.615	-50.103	-48.586	-44.404	172.627	-46.235	-8191	255	
15204.016	1	1	0	0	0.095328	0.30015	0.19295	0.083865	0.21019	0.14478	0.26255	0.17091	0.067434	0.13936	0.19994	0.10298	0.058041	0.12264	0.28746	0.23552	-2.4792	-2.175	-2.6104	-2.6188	-2.3833	-2.9646	-2.4958	-2.5875	-2.7979	-2.2833	-2.4979	-2.6458	-2.4875	-2.7708	-2.5021	-2.4208	98.719	49.160	-45.021	268.568	216.139	80.093	196.070	282.765	43.569	166.944	-29.434	177.463	142.744	-1.981	63.088	85.968	5.9163e-05	4.0795e-05	3.4711e-05	641.07	1.2996e-06	3.0975e-06	739.93	131.55	1.5518e-06	1.8654e-06	178.57	51.485	34.929	11.341	2.8204e-06	18.886	0.0006033	0.0010035	0.00027237	625.58	1.0145e-05	1.1066e-05	723.65	130.03	1.0112e-05	1.122e-05	176.94	51.654	35.354	11.352	1.0442e-05	18.939	165.418	13.661	9.011	-60.970	40.259	192.819	-61.125	-54.749	167.248	84.483	-55.749	-50.114	-48.626	-43.722	146.421	-46.033	-8191	255	
15204.137	1	1	0	0	0.28549	0.16055	0.090782	0.14091	0.1738	0.090674	0.082782	0.098159	0.12832	0.35838	0.17815	0.30607	0.12017	0.031875	0.091098	0.12903	-2.2229	-2.2708	-2.6896	-2.85	-2.2667	-3.0438	-2.4979	-2.525	-2.5812	-2.2583	-2.5438	-2.6437	-2.1271	-2.8333	-2.5187	-2.4208	208.226	-45.509	44.392	281.502	188.151	273.837	249.630	91.905	122.184	47.360	187.129	257.626	107.010	-29.985	-5.479	231.691	3.266e-05	0.00014162	6.9791e-05	639.43	5.2427e-07	3.4258e-06	731.51	129.02	3.879e-07	1.2994e-06	176.62	49.899	34.08	10.911	1.5093e-06	18.537	0.00060357	0.0010108	0.00028373	621.4	1.0208e-05	1.1453e-05	715.59	127.73	1.0244e-05	1.1341e-05	173.32	50.092	34.16	10.905	1.064e-05	18.399	195.076	-10.591	238.426	-60.713	-51.445	61.867	-61.221	-54.775	287.053	97.726	-56.121	-50.090	-48.579	-44.062	-18.349	-46.125	-8191	255	
15204.233	1	1	0	0	0.17808	0.098183	0.079611	0.059622	0.08032	0.32499	0.12555	0.12304	0.18555	0.22398	0.33373	0.10326	0.24578	0.13434	0.30053	0.19438	-2.45	-2.3208	-2.4417	-2.825	-2.3333	-2.8292	-2.6896	-2.3312	-2.8104	-2.3917	-2.7771	-2.7438	-2.2792	-2.4292	-2.5708	-2.3083	227.595	48.954	61.313	211.736	171.789	0.885	191.783	159.542	280.257	-36.690	81.129	150.350	228.059	200.733	45.271	253.737	4.096e-05	0.00012395	0.00013161	620.68	2.4282e-06	2.4675e-06	715.56	125.82	2.4202e-06	2.8011e-06	173.11	48.075	32.135	10.253	2.3517e-06	17.527	0.00060794	0.0010418	0.00028337	603.78	1.0583e-05	1.1548e-05	699.8	124.31	1.0799e-05	1.1851e-05	170.06	48.059	32.312	10.273	1.1845e-05	17.413	159.609	41.375	8.175	-60.928	90.021	131.153	-61.549	-54.697	31.692	123.662	-55.614	-50.195	-48.432	-43.794	55.771	-46.188	-8191	255	
15204.329	1	1	0	0	0.19519	0.19747	0.30492	0.018255	0.22051	0.33329	0.18403	0.15423	0.17415	0.138	0.18097	0.20289	0.17423	0.35148	0.15021	0.39204	-2.2354	-2.5708	-2.5625	-2.6479	-2.4021	-2.6646	-2.7938	-2.3979	-2.9583	-2.4396	-2.5563	-2.7771	-2.325	-2.5667	-2.7687	-2.2958	137.785	82.166	24.466	109.262	160.193	216.039	258.298	4.668	263.295	-62.000	211.603	17.822	87.567	241.605	192.472	270.068	4.9701e-05	0.00032074	8.7695e-05	615.1	1.3287e-06	8.2716e-07	709.95	124.97	1.7411e-06	3.0448e-06	171.27	44.067	29.706	8.9353	3.8831e-06	15.517	0.00069107	0.0011406	0.00033726	598.6	1.2513e-05	1.3946e-05	696.3	123.91	1.3006e-05	1.4167e-05	169.36	44.59	29.96	8.9986	1.2938e-05	15.596	147.355	-50.419	-26.203	-61.319	38.046	30.632	-61.858	-55.530	11.367	130.513	-56.616	-50.595	-49.012	-44.435	162.340	-46.068	-8191	255	
15204.425	1	1	0	0	0.15614	0.065521	0.14341	0.17518	0.085262	0.18257	0.054164	0.1014	0.16348	0.19881	0.16971	0.19119	0.15605	0.14912	0.084904	0.29877	-2.2604	-2.6167	-2.2604	-2.8812	-2.2458	-2.7167	-2.8396	-2.1646	-2.8396	-2.5521	-2.4729	-2.6688	-2.5542	-2.3542	-2.7583	-2.4104	29.761	-53.966	231.198	228.606	214.637	190.572	180.861	74.134	56.070	180.798	263.516	210.607	60.498	175.621	207.626	181.291	5.4118e-05	0.00027739	6.9453e-05	613.46	1.0467e-06	3.6319e-06	712.96	128.21	1.4664e-06	1.4208e-06	174.51	44.488	29.97	9.0478	2.8128e-06	16.431	0.00071877	0.0012333	0.00034659	600.13	1.232e-05	1.3589e-05	698.11	127.11	1.2724e-05	1.3729e-05	171.33	44.652	30.103	9.1803	1.2436e-05	16.397	206.202	65.700	65.335	-61.172	239.668	261.471	-61.589	-55.642	-39.194	25.578	-57.066	-50.487	-49.872	-43.323	124.611	-45.671	-8191	255	
15204.522	1	1	0	0	0.087576	0.09136	0.15877	0.041163	0.38138	0.2193	0.16831	0.3139	0.28279	0.21274	0.1639	0.11595	0.15731	0.20843	0.39942	0.184	-2.3208	-2.6167	-2.2833	-2.8292	-2.2625	-2.5708	-2.8125	-2.4271	-2.5354	-2.9146	-2.3187	-2.7083	-2.5333	-2.6917	-2.6104	-2.2354	155.790	223.590	184.305	274.680	181.956	143.454	168.430	-34.176	281.932	17.758	-59.724	129.597	122.002	79.611	158.197	-11.818	3.545e-05	0.00041184	2.523e-05	606.66	4.4409e-07	1.2616e-06	709.43	126.38	2.1987e-06	3.374e-06	174.68	46.474	30.701	9.9094	9.7122e-07	17.671	0.0007104	0.0012134	0.00034232	593.96	1.2006e-05	1.3167e-05	695.83	125.01	1.1699e-05	1.2513e-05	172.64	46.8	31.219	10.028	1.1277e-05	17.796	169.494	-13.202	-19.846	-61.452	168.178	119.476	-61.669	-55.498	250.786	118.086	-55.993	-50.348	-49.082	-43.617	260.430	-45.199	-8191	255	
15204.618	1	1	0	0	0.092175	0.15898	0.039816	0.15406	0.055409	0.2456	0.27982	0.013183	0.14174	0.17886	0.29453	0.081325	0.22369	0.16357	0.091461	0.3034	-2.175	-2.7854	-2.2313	-2.6458	-2.3937	-2.4729	-2.7917	-2.2208	-2.65	-2.5229	-2.2875	-2.7646	-2.6792	-2.425	-2.9083	-2.4313	189.699	103.465	-44.132	31.458	253.405	23.760	263.051	72.559	25.601	185.646	269.966	63.031	16.801	160.198	54.847	134.866	5.3103e-05	0.00026155	0.00014612	617.55	1.362e-06	1.1624e-06	719.09	128.24	1.2e-06	1.2217e-06	177.67	48.907	32.359	10.73	1.2596e-06	19.124	0.00064331	0.001072	0.00030702	601.58	1.0933e-05	1.2051e-05	703.77	126.82	1.0999e-05	1.2153e-05	175.84	48.924	32.594	10.748	1.1555e-05	19.041	147.153	5.719	3.261	-61.205	124.912	26.955	-61.784	-55.294	106.881	131.322	-56.345	-50.168	-49.773	-43.854	267.361	-45.864	-8191	255	
15204.714	1	1	0	0	0.30526	0.084044	0.099664	0.083287	0.056096	0.1581	0.078745	0.16446	0.11551	0.16144	0.12313	0.075028	0.17259	0.013817	0.3018	0.17062	-2.1083	-2.7188	-2.2812	-2.9375	-2.6479	-2.3146	-2.8792	-2.4167	-2.6813	-2.6917	-2.3229	-2.7979	-2.6167	-2.3542	-2.7104	-2.5292	242.782	272.113	234.610	-38.337	-23.459	223.829	-55.870	125.307	118.423	277.830	46.447	259.967	267.562	-26.251	213.412	-58.404	4.2371e-05	7.8846e-05	6.6478e-05	626.56	3.0794e-06	3.2354e-06	723.59	128.63	2.906e-06	4.9136e-06	179.33	50.081	33.021	11.201	1.7913e-06	19.633	0.0006752	0.0011432	0.00032716	610.88	1.2035e-05	1.3516e-05	710.69	127.64	1.2381e-05	1.3748e-05	177.08	50.431	33.523	11.266	1.3309e-05	19.843	179.092	-40.418	-14.441	-61.379	167.578	165.500	-61.735	-55.499	43.728	42.344	-56.734	-50.434	-48.953	-43.902	-11.734	-46.296	-8191	255	
15204.810	1	1	0	0	0.24178	0.11689	0.2298	0.1601	0.058376	0.13703	0.16081	0.082895	0.16658	0.068242	0.080785	0.27144	0.068896	0.073424	0.068643	0.14214	-1.95	-2.5542	-2.2792	-2.6625	-2.6562	-2.2562	-2.9938	-2.4667	-2.3417	-2.875	-2.0729	-2.6688	-2.7729	-2.2729	-2.9062	-2.4708	23.827	129.951	84.057	50.476	136.082	37.076	212.401	149.865	250.287	-19.603	-4.043	117.890	205.544	277.906	125.644	239.866	3.6882e-05	0.00014045	0.00014581	635.14	3.736e-07	2.2999e-06	740.51	132.25	2.1828e-06	4.4228e-06	182.48	52.186	34.778	11.752	1.829e-06	20.607	0.0007605	0.0012911	0.00035455	619.53	1.2874e-05	1.4227e-05	723.57	130.6	1.3014e-05	1.3904e-05	181.48	52.608	35.203	11.865	1.3427e-05	20.577	195.643	34.792	33.184	-61.302	208.232	65.313	-61.389	-55.305	184.599	60.167	-56.043	-50.295	-48.916	-43.891	146.012	-45.759	-8191	255	
15204.929	1	1	0	0	0.076198	0.20843	0.10628	0.13493	0.13154	0.070499	0.052	0.22652	0.076516	0.004373	0.20143	0.13727	0.15916	0.20912	0.14125	0.15156	-1.7958	-2.6188	-2.4333	-2.6479	-2.7667	-2.3812	-2.8854	-2.4521	-2.5104	-2.6771	-2.2729	-2.7021	-2.7396	-2.375	-2.8208	-2.6437	189.073	178.431	166.190	242.556	-20.169	236.532	-6.342	180.065	-12.577	131.266	-11.540	253.659	-28.557	141.921	-6.461	62.227	4.6214e-05	0.00047792	2.7194e-05	652.52	2.2508e-06	3.4645e-06	758.08	135.81	2.8404e-06	4.3236e-06	189.21	54.674	37.13	12.332	1.0585e-06	21.097	0.00075395	0.0012271	0.00034131	634.73	1.2048e-05	1.3448e-05	740.21	134.51	1.1837e-05	1.2187e-05	186.91	54.843	37.23	12.345	1.1213e-05	21.06	148.133	7.226	7.492	-61.034	86.079	94.451	-61.453	-54.789	-52.600	81.896	-55.985	-50.311	-49.210	-44.398	66.097	-46.248	-8191	255	
15205.025	1	1	0	0	0.1179	0.18859	0.19629	0.064823	0.15464	0.16514	0.1946	0.10429	0.24894	0.11172	0.1339	0.07586	0.079592	0.18424	0.043295	0.11391	-1.9562	-2.8646	-2.2438	-2.6042	-2.7042	-2.3375	-2.8229	-2.7104	-2.2354	-2.9292	-2.5187	-2.6625	-2.6708	-2.2188	-2.9688	-2.5312	157.848	172.983	-5.080	277.229	124.698	12.168	252.550	151.921	113.463	20.417	103.924	272.680	144.132	218.513	56.874	36.317	4.3002e-05	0.00033328	4.3523e-05	670.55	2.5173e-06	3.3954e-06	781.23	143.08	2.9576e-06	1.5355e-06	196.95	57.523	39.236	12.687	2.1859e-06	21.268	0.00066503	0.0010814	0.00029842	655.77	1.082e-05	1.1684e-05	764.93	141.34	1.0798e-05	1.1307e-05	194.25	57.209	39.413	12.607	1.0001e-05	21.223	154.618	23.580	35.315	-60.846	7.046	107.998	-61.285	-54.679	107.704	59.084	-55.954	-50.025	-48.653	-44.805	84.355	-46.372	-8191	255	
15205.121	1	1	0	0	0.092814	0.11264	0.28702	0.13947	0.13107	0.13343	0.20308	0.19223	0.30919	0.13768	0.1718	0.16134	0.15444	0.26377	0.28607	0.19934	-1.7188	-2.675	-2.4208	-2.2875	-2.9104	-2.2792	-2.7833	-2.7271	-2.2917	-2.7854	-2.6667	-2.3917	-2.7854	-2.3125	-2.6083	-2.55	277.136	265.702	118.201	-28.034	74.203	143.763	271.858	122.207	53.059	144.146	193.233	8.999	10.018	22.976	192.072	145.566	4.4852e-05	0.00014331	9.5172e-05	701.3	3.0373e-06	2.2153e-06	807.51	149.61	1.6269e-06	2.5515e-06	201.48	59.304	40.924	12.687	2.1313e-06	21.483	0.00058059	0.00093592	0.00025212	682.45	8.9084e-06	9.6745e-06	789.77	147.65	8.8247e-06	9.1432e-06	198.9	58.958	40.902	12.616	8.2967e-06	21.274	139.770	31.982	12.827	-60.750	99.956	82.180	-61.091	-54.921	36.684	58.787	-56.134	-50.394	-49.061	-44.868	49.855	-46.186	-8191	255	
15205.242	1	1	0	0	0.23342	0.10021	0.18466	0.2095	0.19499	0.18951	0.26243	0.080386	0.15322	0.27898	0.17173	0.085215	0.14486	0.16453	0.034976	0.12047	-1.8937	-2.7729	-2.4229	-2.6458	-2.6625	-2.3583	-2.6646	-2.6688	-2.5458	-2.7062	-2.5646	-2.6396	-2.6562	-2.4313	-2.6417	-2.7938	140.135	245.950	210.304	274.376	286.125	-43.404	240.327	-22.599	-12.582	-64.676	4.382	205.272	229.138	253.800	52.078	-6.685	6.2197e-05	0.00051442	7.0944e-05	710.88	1.379e-06	5.9414e-06	814.84	151.77	9.0952e-07	2.1183e-06	204.86	59.825	41.868	12.749	1.8756e-06	21.293	0.00050848	0.00078926	0.00021642	691.84	7.7921e-06	8.8384e-06	794.59	149.32	8.151e-06	8.1279e-06	201.5	59.927	41.593	12.702	7.8683e-06	21.083	162.205	24.672	67.959	-60.577	96.202	91.145	-60.875	-54.855	64.349	57.625	-56.059	-50.570	-48.510	-44.680	98.176	-46.192	-8191	255	
15205.314	1	1	0	0	0.076478	0.15151	0.24812	0.27161	0.14321	0.29722	0.033081	0.18113	0.21867	0.063552	0.095285	0.17377	0.2213	0.11292	0.074558	0.15062	-1.8	-2.7	-2.6875	-2.3042	-2.9333	-2.275	-2.8229	-2.7396	-2.2917	-2.5375	-2.5812	-2.45	-2.7792	-2.65	-2.3896	-2.7938	148.466	96.155	242.930	244.557	79.668	104.370	240.146	85.938	228.012	3.668	150.629	261.200	15.889	-0.827	-50.989	225.087	6.3849e-05	0.00032465	8.0894e-05	707.31	1.1654e-06	5.417e-07	807.08	149.8	1.4882e-06	5.9055e-07	204.79	60.155	41.519	12.661	1.5067e-06	21.14	0.00048644	0.00072749	0.00020216	689.23	7.5271e-06	7.8599e-06	789.67	148.03	7.4518e-06	8.1349e-06	200.25	59.892	41.427	12.567	7.9126e-06	21.026	169.566	52.207	-29.314	-60.373	65.776	279.654	-61.041	-54.800	38.178	198.179	-55.940	-50.473	-48.859	-44.930	110.305	-46.064	-8191	255	
15205.410	1	1	0	0	0.10235	0.12765	0.10112	0.49515	0.12284	0.17416	0.24173	0.26296	0.23777	0.25368	0.15294	0.15439	0.17355	0.1671	0.17924	0.26008	-2.0479	-2.5042	-2.5	-2.5396	-2.65	-2.5604	-2.5187	-2.7125	-2.2208	-2.6542	-2.5979	-2.2271	-2.7146	-2.5396	-2.4333	-2.9875	37.204	144.151	186.801	-56.722	52.191	66.746	112.792	42.679	258.186	121.263	236.748	-60.540	-29.059	145.767	150.634	249.220	5.8465e-05	0.00023372	0.00010068	708.89	2.9015e-06	2.8681e-06	809.85	151.11	2.2102e-06	2.926e-06	203.55	60.42	41.948	12.675	7.4298e-07	21.078	0.00046657	0.00073593	0.00020832	688.23	7.4325e-06	7.9281e-06	790.64	148.77	7.5127e-06	7.7747e-06	201.34	60.329	41.661	12.619	7.7371e-06	20.981	179.819	16.015	25.041	-60.626	109.228	70.086	-61.362	-54.402	75.634	100.880	-55.626	-50.368	-48.449	-44.319	270.191	-46.335	-8191	255	
15205.530	1	1	0	0	0.29075	0.19313	0.20068	0.16357	0.1711	0.10771	0.1986	0.27718	0.33415	0.18889	0.28483	0.13002	0.14241	0.11646	0.052038	0.24854	-1.8708	-2.575	-2.7125	-2.3167	-2.8229	-2.45	-2.5062	-2.9333	-2.5458	-2.5042	-2.7354	-2.3667	-2.7667	-2.5396	-2.3187	-2.9354	-2.246	240.461	65.191	212.232	128.671	25.828	260.450	197.228	186.763	8.694	182.065	116.960	-56.430	26.572	154.318	237.408	6.1603e-05	0.00016951	5.1605e-05	704.95	2.0354e-06	2.2467e-06	813.29	151.32	1.6406e-06	1.6568e-06	204.87	60.667	41.759	12.752	1.4856e-06	21.226	0.0004608	0.00071925	0.00020191	687.67	7.4541e-06	8.3676e-06	790.6	148.97	7.383e-06	8.1121e-06	201.13	60.466	41.698	12.656	7.8541e-06	21.1	178.015	77.122	32.953	-60.456	69.209	51.600	-61.294	-54.499	27.567	101.796	-55.857	-50.589	-48.781	-44.576	86.498	-46.142	-8191	255	
#DATA ENDS
