BOXY.EXE: ISS Imagent and Oximeter Data Acquisition Program Version 0.80
Ascii Record File

#ACQ INFORMATION
2  Detector Channels 
16  External MUX Channels 
1  Auxiliary Channels 
5000  Waveform (CCF) Frequency (Hz)
1  Waveforms Skipped 
30  Waveforms Averaged 
1  Cycles Averaged 
16  Acquisitions per Waveform 
10.0806  Updata Rate (Hz) 

#FILE INFORMATION
TRUE -- External MUX Channel results are PARSED.
FALSE -- AC DC and Phase are NOT grouped.
TRUE -- Companion Program Settings File CREATED.
FALSE -- AC data not excluded
FALSE -- DC data not excluded
FALSE -- Phase data not excluded
FALSE -- Auxillary Chn. data not excluded
Tab delimiters

#CALIBRATION STATE
TRUE -- Waveform Calibration Values APPLIED.


#AUX CALIBRATION VALUES
Val Type	aux-1	

Term	1.0000e+00	
Factor	0.0000e+00	


#WF CALIBRATION VALUES
A = Detector Channel
Val Type	A-AC1	A-AC2	A-AC3	A-AC4	A-AC5	A-AC6	A-AC7	A-AC8	A-AC9	A-AC10	A-AC11	A-AC12	A-AC13	A-AC14	A-AC15	A-AC16	A-DC1	A-DC2	A-DC3	A-DC4	A-DC5	A-DC6	A-DC7	A-DC8	A-DC9	A-DC10	A-DC11	A-DC12	A-DC13	A-DC14	A-DC15	A-DC16	A-Ph1	A-Ph2	A-Ph3	A-Ph4	A-Ph5	A-Ph6	A-Ph7	A-Ph8	A-Ph9	A-Ph10	A-Ph11	A-Ph12	A-Ph13	A-Ph14	A-Ph15	A-Ph16	

Term	0.00000e+00	0.00000e+00	0.00000e+00	0.00000e+00	0.00000e+00	0.00000e+00	0.00000e+00	0.00000e+00	0.00000e+00	0.00000e+00	0.00000e+00	0.00000e+00	0.00000e+00	0.00000e+00	0.00000e+00	0.00000e+00	0.00000e+00	0.00000e+00	0.00000e+00	0.00000e+00	0.00000e+00	0.00000e+00	0.00000e+00	0.00000e+00	0.00000e+00	0.00000e+00	0.00000e+00	0.00000e+00	0.00000e+00	0.00000e+00	0.00000e+00	0.00000e+00	0.00000e+00	0.00000e+00	0.00000e+00	0.00000e+00	0.00000e+00	0.00000e+00	0.00000e+00	0.00000e+00	0.00000e+00	0.00000e+00	0.00000e+00	0.00000e+00	0.00000e+00	0.00000e+00	0.00000e+00	0.00000e+00	
Factor	1.00000e+00	1.00000e+00	1.00000e+00	1.00000e+00	1.00000e+00	1.00000e+00	1.00000e+00	1.00000e+00	1.00000e+00	1.00000e+00	1.00000e+00	1.00000e+00	1.00000e+00	1.00000e+00	1.00000e+00	1.00000e+00	1.00000e+00	1.00000e+00	1.00000e+00	1.00000e+00	1.00000e+00	1.00000e+00	1.00000e+00	1.00000e+00	1.00000e+00	1.00000e+00	1.00000e+00	1.00000e+00	1.00000e+00	1.00000e+00	1.00000e+00	1.00000e+00	X	X	X	X	X	X	X	X	X	X	X	X	X	X	X	X	

B = Detector Channel
Val Type	B-AC1	B-AC2	B-AC3	B-AC4	B-AC5	B-AC6	B-AC7	B-AC8	B-AC9	B-AC10	B-AC11	B-AC12	B-AC13	B-AC14	B-AC15	B-AC16	B-DC1	B-DC2	B-DC3	B-DC4	B-DC5	B-DC6	B-DC7	B-DC8	B-DC9	B-DC10	B-DC11	B-DC12	B-DC13	B-DC14	B-DC15	B-DC16	B-Ph1	B-Ph2	B-Ph3	B-Ph4	B-Ph5	B-Ph6	B-Ph7	B-Ph8	B-Ph9	B-Ph10	B-Ph11	B-Ph12	B-Ph13	B-Ph14	B-Ph15	B-Ph16	

Term	0.00000e+00	0.00000e+00	0.00000e+00	0.00000e+00	0.00000e+00	0.00000e+00	0.00000e+00	0.00000e+00	0.00000e+00	0.00000e+00	0.00000e+00	0.00000e+00	0.00000e+00	0.00000e+00	0.00000e+00	0.00000e+00	0.00000e+00	0.00000e+00	0.00000e+00	0.00000e+00	0.00000e+00	0.00000e+00	0.00000e+00	0.00000e+00	0.00000e+00	0.00000e+00	0.00000e+00	0.00000e+00	0.00000e+00	0.00000e+00	0.00000e+00	0.00000e+00	-1.27282e+02	-1.30498e+02	-1.26606e+02	-1.82720e+02	-7.04405e+01	-6.88341e+01	-1.60843e+02	-1.62015e+02	-7.31909e+01	-6.92541e+01	-1.72572e+02	-1.72955e+02	-1.82795e+02	-1.78089e+02	-7.17232e+01	-1.50939e+02	
Factor	1.93131e-05	1.69621e-04	4.86892e-05	1.65898e-01	1.33105e-06	1.92021e-06	1.95781e-01	6.11879e-02	1.30919e-06	1.87107e-06	9.62612e-02	3.22527e-02	2.98245e-02	9.98308e-03	1.50668e-06	1.45378e-02	1.28716e-05	2.34187e-05	6.58817e-06	8.38859e-02	2.30464e-07	2.64030e-07	9.33801e-02	3.11235e-02	2.35691e-07	2.61591e-07	4.74826e-02	1.59974e-02	1.53938e-02	5.11434e-03	2.44169e-07	7.23425e-03	X	X	X	X	X	X	X	X	X	X	X	X	X	X	X	X	



#DISTANCE SETTINGS
A = Detector Channel
A-1	A-2	A-3	A-4	A-5	A-6	A-7	A-8	A-9	A-10	A-11	A-12	A-13	A-14	A-15	A-16	

2.5000e+00	3.0000e+00	2.5000e+00	3.0000e+00	2.0000e+00	3.0000e+00	1.5000e+00	3.0000e+00	3.0000e+00	3.0000e+00	3.0000e+00	3.0000e+00	3.0000e+00	3.0000e+00	1.5000e+00	3.0000e+00	

B = Detector Channel
B-1	B-2	B-3	B-4	B-5	B-6	B-7	B-8	B-9	B-10	B-11	B-12	B-13	B-14	B-15	B-16	

1.0000e+01	1.0000e+01	1.0000e+01	1.4400e+00	1.0000e+01	1.0000e+01	1.5100e+00	1.9400e+00	1.0000e+01	1.0000e+01	1.9900e+00	2.4900e+00	2.4100e+00	2.9000e+00	1.0000e+01	2.9800e+00	




#DATA BEGINS
time	group	step	mark	flag	A-AC1	A-AC2	A-AC3	A-AC4	A-AC5	A-AC6	A-AC7	A-AC8	A-AC9	A-AC10	A-AC11	A-AC12	A-AC13	A-AC14	A-AC15	A-AC16	A-DC1	A-DC2	A-DC3	A-DC4	A-DC5	A-DC6	A-DC7	A-DC8	A-DC9	A-DC10	A-DC11	A-DC12	A-DC13	A-DC14	A-DC15	A-DC16	A-Ph1	A-Ph2	A-Ph3	A-Ph4	A-Ph5	A-Ph6	A-Ph7	A-Ph8	A-Ph9	A-Ph10	A-Ph11	A-Ph12	A-Ph13	A-Ph14	A-Ph15	A-Ph16	B-AC1	B-AC2	B-AC3	B-AC4	B-AC5	B-AC6	B-AC7	B-AC8	B-AC9	B-AC10	B-AC11	B-AC12	B-AC13	B-AC14	B-AC15	B-AC16	B-DC1	B-DC2	B-DC3	B-DC4	B-DC5	B-DC6	B-DC7	B-DC8	B-DC9	B-DC10	B-DC11	B-DC12	B-DC13	B-DC14	B-DC15	B-DC16	B-Ph1	B-Ph2	B-Ph3	B-Ph4	B-Ph5	B-Ph6	B-Ph7	B-Ph8	B-Ph9	B-Ph10	B-Ph11	B-Ph12	B-Ph13	B-Ph14	B-Ph15	B-Ph16	aux-1	digaux	

15408.163	1	1	0	256	0.22657	0.13858	0.1397	0.098593	0.15654	0.12187	0.15616	0.32642	0.25986	0.17444	0.29937	0.25197	0.1759	0.048805	0.19724	0.11347	-2.4542	-2.9583	-2.375	-3.0667	-3.0479	-2.675	-2.9875	-2.7562	-2.8646	-2.9854	-2.4292	-2.9062	-2.7417	-2.5729	-2.9833	-2.7417	235.680	98.444	87.529	-61.674	177.417	-46.166	175.846	162.994	-20.011	54.906	281.593	205.308	244.834	221.408	1.680	-69.614	0.00011687	0.00034931	0.00016351	674.78	8.8656e-07	8.786e-06	667.86	199.58	4.3892e-06	2.8367e-06	241.08	93.821	73.643	31.707	7.5857e-06	43.916	0.0046599	0.0083026	0.0023192	689.51	8.2332e-05	9.4823e-05	685.19	207.3	8.4838e-05	9.3888e-05	252.44	98.568	78.931	33.112	8.5648e-05	45.947	190.556	63.592	-3.155	-58.379	-4.994	113.456	-59.520	-52.032	83.106	-20.599	-54.512	-49.902	-47.460	-42.500	147.288	-45.383	-8191	255	
15408.259	1	1	0	0	0.088051	0.016717	0.094414	0.12364	0.32649	0.072207	0.26909	0.37566	0.1074	0.14098	0.098108	0.075614	0.090493	0.36084	0.097607	0.072962	-2.2875	-2.8708	-2.6292	-2.8292	-2.9396	-2.5958	-3.1562	-2.5917	-2.7271	-3.1167	-2.65	-2.9104	-3	-2.5104	-2.8271	-2.7458	200.876	279.668	-17.494	245.107	167.210	266.555	-45.499	245.404	-31.783	255.285	282.389	-5.237	92.947	214.536	226.767	70.736	0.00012055	0.00034037	3.0946e-05	674.92	3.2539e-06	1.1485e-05	665.21	200.44	3.2853e-06	3.9908e-06	242.07	93.384	74.648	31.691	2.1686e-06	44.19	0.0046287	0.0082168	0.0023063	687.7	8.111e-05	9.3479e-05	684.48	207.97	8.2552e-05	9.2191e-05	253.02	98.48	79.167	33.076	8.59e-05	46.164	131.129	-61.560	31.283	-58.482	26.944	155.729	-59.422	-52.669	161.163	-55.929	-54.460	-50.087	-47.765	-42.706	11.221	-45.697	-8191	255	
15408.355	1	1	0	0	0.075824	0.24814	0.18724	0.27617	0.34788	0.28029	0.14088	0.19178	0.35803	0.1141	0.16185	0.23164	0.31262	0.24363	0.08267	0.16369	-2.3333	-2.9854	-2.5583	-2.9021	-2.8063	-2.6083	-3.0729	-2.6875	-2.3729	-3.05	-2.7083	-2.8042	-3.0958	-2.7062	-2.7604	-3.0208	275.727	189.061	-12.628	-4.107	-17.100	155.687	136.371	103.219	71.360	212.060	259.564	20.990	219.108	251.543	169.193	270.329	0.00011574	0.00047309	7.1071e-05	682.08	4.1065e-06	1.0713e-05	671.19	201.11	6.9493e-06	9.9184e-06	243.77	94.254	74.749	31.712	4.6306e-06	44.448	0.0045849	0.0081357	0.0023003	692.46	8.0409e-05	9.3498e-05	688.34	208.65	8.4229e-05	9.3997e-05	255.51	98.946	79.355	33.248	8.6758e-05	46.437	135.611	-64.285	277.018	-58.582	-26.218	74.817	-59.785	-52.416	160.189	69.875	-54.186	-49.555	-47.734	-42.632	50.797	-45.671	-8191	255	
15408.475	1	1	0	0	0.12325	0.14017	0.047081	0.19964	0.088715	0.33389	0.081219	0.073668	0.073107	0.034599	0.12714	0.044056	0.31156	0.1012	0.14807	0.073788	-2.1792	-2.9896	-2.4708	-2.7938	-2.9646	-2.4271	-2.9938	-2.9521	-2.4646	-2.9708	-2.6167	-2.8688	-2.9792	-2.55	-2.8229	-2.9146	228.070	267.905	4.856	170.998	110.548	51.967	37.008	200.531	216.635	175.965	276.842	-7.405	-56.153	8.086	169.888	106.721	0.00018492	0.00039905	0.00013967	683.88	2.6136e-06	1.1697e-05	673.78	201.58	4.0413e-06	4.3846e-06	242.67	94.704	74.394	31.559	2.7891e-06	44.128	0.0046163	0.008164	0.0023097	694.81	8.121e-05	9.2897e-05	690.95	209.24	8.3578e-05	9.2722e-05	254.68	98.884	79.287	33.13	8.679e-05	46.116	154.508	36.866	-22.250	-58.570	58.870	136.272	-59.529	-52.485	241.007	-10.577	-54.146	-49.693	-47.957	-42.519	14.815	-45.440	-8191	255	
15408.547	1	1	0	0	0.25746	0.10409	0.14582	0.14954	0.030401	0.12348	0.11362	0.14878	0.39652	0.12679	0.11016	0.22766	0.2573	0.098528	0.17041	0.24634	-2.2	-2.8187	-2.5979	-2.8167	-2.9917	-2.6813	-2.9604	-2.9688	-2.4958	-2.9833	-2.9333	-2.6229	-3.1021	-2.7542	-2.7396	-3.0125	270.340	187.092	262.321	-18.418	106.174	-11.293	159.404	42.745	186.611	23.508	220.245	287.921	263.731	164.430	127.403	192.852	0.00022072	0.00072339	0.00017337	678.28	1.4083e-06	8.9691e-06	669.88	201	6.697e-06	9.5066e-06	241.89	93.695	74.166	31.302	6.4677e-06	44.218	0.004603	0.0081082	0.0023601	690.57	8.0824e-05	9.4058e-05	685.86	208.26	8.2363e-05	9.2932e-05	252.87	98.37	78.935	32.959	8.7594e-05	45.976	174.998	50.175	12.199	-58.049	261.890	132.892	-59.276	-52.338	205.767	37.577	-54.250	-49.155	-47.742	-42.861	97.235	-45.609	-8191	255	
15408.643	1	1	0	0	0.10273	0.15395	0.1979	0.04814	0.047933	0.051909	0.15437	0.13678	0.079687	0.1305	0.14686	0.17043	0.075524	0.13426	0.4114	0.22102	-2.2375	-2.8646	-2.7479	-2.8396	-3.225	-2.7021	-2.7333	-3.0812	-2.4271	-3.0083	-2.9542	-2.5104	-2.9583	-2.7396	-2.7396	-3.0104	119.439	53.708	33.209	-39.214	-0.869	264.883	168.279	147.214	82.098	101.581	232.707	91.578	238.803	88.463	202.533	217.985	0.00015581	0.00016779	0.00020746	680.86	3.7083e-06	5.6478e-06	671.55	201.7	9.8517e-07	5.8543e-06	242.19	93.214	74.594	31.466	7.3747e-06	44.267	0.0046652	0.00822	0.0023084	690.45	8.1056e-05	9.2832e-05	685.75	208.29	8.2445e-05	9.1183e-05	253.63	98.268	79.055	32.911	8.5423e-05	46.127	129.790	-48.859	37.935	-58.497	49.933	1.839	-59.865	-52.364	115.884	10.083	-54.501	-49.653	-47.388	-42.649	56.611	-45.383	-8191	255	
15408.762	1	1	0	0	0.22174	0.021533	0.16676	0.10078	0.21007	0.092892	0.12517	0.10389	0.15925	0.15202	0.22431	0.28775	0.10842	0.11132	0.022741	0.10773	-2.1083	-2.9562	-2.8042	-2.5542	-3.0229	-2.7833	-2.7729	-2.9729	-2.7771	-2.8292	-2.8958	-2.7646	-3.2583	-2.8729	-2.8292	-3.0271	68.534	20.092	155.396	174.599	155.766	198.460	88.467	246.974	39.262	90.456	-1.735	230.079	277.168	171.549	120.255	44.260	9.3254e-05	0.00053096	0.00019719	680.97	6.0557e-06	8.1415e-06	679.34	201.64	6.9478e-06	3.2562e-06	242.66	94.158	74.805	31.577	4.369e-06	44.162	0.0046528	0.0081188	0.0022774	691.38	7.9617e-05	9.1466e-05	689.36	208.62	8.1477e-05	9.0724e-05	254.54	98.844	79.222	33.029	8.4661e-05	46.206	171.235	94.214	29.778	-58.347	-67.241	94.240	-59.629	-52.675	89.915	108.623	-54.366	-50.113	-47.716	-42.825	104.574	-45.338	-8191	255	
15408.858	1	1	0	0	0.47959	0.25149	0.25458	0.10379	0.164	0.12222	0.16426	0.021018	0.10899	0.063198	0.3333	0.27823	0.071766	0.14126	0.16012	0.090675	-2.15	-2.9688	-2.9542	-2.5187	-2.8625	-2.9167	-2.6167	-2.9667	-2.6521	-2.9021	-2.9333	-2.4083	-3.0292	-3.0229	-2.6917	-3.2188	272.471	114.128	-61.477	-43.715	-35.998	11.200	188.976	63.497	99.801	56.643	238.701	14.531	-40.581	-66.090	37.847	116.183	8.5779e-06	0.00074084	0.00010509	686.03	3.2488e-06	7.0802e-06	677.23	202.19	2.9232e-06	6.0396e-06	244.12	94.274	73.857	31.655	2.6687e-06	44.272	0.0046147	0.0081249	0.0022758	695.77	8.051e-05	9.1571e-05	692.02	209.8	8.1715e-05	8.9911e-05	255.13	98.563	79.041	33.038	8.3241e-05	46.123	193.072	41.733	58.452	-58.500	90.747	86.762	-59.558	-52.613	72.547	23.462	-54.510	-49.724	-47.513	-42.469	91.768	-45.855	-8191	255	
15408.954	1	1	0	0	0.1386	0.03461	0.16454	0.15754	0.070937	0.11135	0.02944	0.19807	0.32542	0.19392	0.10403	0.10367	0.1164	0.26906	0.23702	0.33948	-2.0062	-2.8146	-2.9604	-2.7104	-2.8583	-2.7958	-2.6354	-3.0146	-2.5458	-2.8875	-2.9979	-2.6229	-2.9688	-2.8937	-2.4771	-3.0917	95.504	39.473	57.910	252.993	110.512	208.673	22.675	288.767	139.543	28.127	53.503	112.564	242.509	227.794	234.687	30.968	4.298e-05	0.00045318	4.6072e-05	680.7	1.7512e-06	1.1219e-05	675.8	202.76	4.1814e-06	8.2502e-06	242.99	93.227	74.039	31.511	6.9107e-06	44.18	0.0045231	0.0079611	0.002234	690.8	7.9255e-05	9.0302e-05	687.29	209.26	8.0819e-05	8.8064e-05	253.24	98.174	78.873	32.927	8.1134e-05	46.008	186.281	127.299	137.483	-58.542	173.475	69.209	-59.336	-52.352	91.616	82.748	-54.313	-49.545	-47.838	-42.502	50.000	-45.437	-8191	255	
15409.051	1	1	0	0	0.24454	0.12189	0.20653	0.14488	0.1696	0.11058	0.051152	0.058715	0.062401	0.20701	0.13119	0.23896	0.06179	0.16723	0.2001	0.37492	-2.3042	-2.6896	-2.9833	-2.5896	-2.9354	-2.9083	-2.6625	-3.0354	-2.5625	-2.6667	-2.9938	-2.8312	-2.9875	-2.9104	-2.6479	-2.9479	-55.207	105.275	159.278	159.092	49.424	97.445	117.432	103.486	184.402	74.073	200.978	254.092	-27.242	-26.139	258.211	230.098	8.1664e-05	0.00082203	0.00022562	685.83	2.2249e-06	1.0687e-05	676.67	203.8	1.9124e-06	3.2834e-06	247.02	94.528	74.479	31.803	1.4036e-06	44.33	0.0044515	0.0079299	0.0022183	695.57	7.8979e-05	8.6793e-05	691.46	210.21	7.9864e-05	8.6605e-05	255.69	98.84	79.007	33.106	8.1572e-05	46.218	161.354	59.473	117.547	-58.717	92.825	41.073	-59.383	-52.283	8.453	-20.947	-54.475	-49.723	-47.422	-42.804	-3.100	-45.347	-8191	255	
15409.147	1	1	0	0	0.04142	0.098794	0.21126	0.12293	0.18721	0.30106	0.11629	0.17995	0.1973	0.22204	0.19191	0.059462	0.11108	0.19556	0.17382	0.077482	-2.2917	-2.6875	-2.9771	-2.6771	-2.8042	-2.9938	-2.7542	-3.075	-2.9208	-2.6354	-3.0687	-2.7	-2.8187	-2.7833	-2.5708	-2.95	72.771	-13.956	216.463	268.691	-51.682	82.014	126.911	280.670	-55.140	96.389	2.258	164.280	106.902	-60.752	60.790	141.347	9.6919e-05	0.0003786	8.2456e-05	690.91	9.5097e-06	6.5364e-06	680.12	206.13	3.2661e-06	1.0397e-05	245.45	94.946	74.619	31.629	1.7405e-06	44.445	0.004475	0.0079081	0.002226	697.1	7.9685e-05	8.8587e-05	693.3	211.5	8.0623e-05	8.7773e-05	256.4	99.267	79.611	33.127	8.2485e-05	46.408	179.173	81.712	32.623	-58.387	-0.743	168.928	-59.473	-52.494	19.542	46.768	-54.392	-49.876	-47.346	-42.595	-23.550	-45.456	-8191	255	
15409.243	1	1	0	0	0.24528	0.35298	0.13852	0.095177	0.25854	0.21353	0.2255	0.16874	0.038665	0.10507	0.16814	0.057665	0.04029	0.24273	0.15506	0.15564	-2.4396	-2.4354	-2.8667	-2.7875	-2.75	-3.0667	-2.6125	-2.9125	-2.8979	-2.7687	-2.9729	-2.8625	-2.6958	-3.0896	-2.45	-2.9396	63.990	-39.695	6.856	121.618	-3.526	-8.557	6.454	23.050	83.923	92.370	-12.326	12.816	264.595	265.310	274.611	148.759	0.00014604	0.00035738	0.0003374	684.04	8.8592e-06	9.4944e-06	681.25	204.52	2.4484e-06	2.2699e-06	245.51	94.096	74.554	31.556	2.4371e-06	43.952	0.0044492	0.0078654	0.0022084	696.1	7.7824e-05	8.7912e-05	694.3	211.13	8.034e-05	8.7304e-05	255.27	98.968	79.192	33.038	8.2284e-05	46.106	174.592	239.263	-36.994	-58.651	48.332	90.575	-59.238	-52.697	27.563	99.161	-54.247	-50.122	-47.436	-42.628	153.772	-45.231	-8191	255	
15409.339	1	1	0	0	0.0919	0.13765	0.15114	0.14529	0.076255	0.19854	0.20013	0.23317	0.21427	0.066906	0.16249	0.35494	0.17204	0.11269	0.24703	0.17537	-2.4188	-2.3812	-2.9833	-2.6104	-2.4667	-3.0917	-2.6188	-2.8312	-3.0125	-2.5625	-3.0125	-2.8625	-2.6333	-3.0687	-2.7167	-2.9292	201.039	85.072	85.322	19.655	-33.340	226.143	197.231	251.791	31.645	113.359	241.422	-22.801	277.555	14.918	96.208	157.348	0.00019575	0.00088305	6.6754e-05	686.41	8.9445e-07	9.959e-06	673.17	203.99	2.7256e-06	9.054e-06	242.09	94.008	74.386	31.631	4.781e-06	44.003	0.0044889	0.008011	0.0022504	695.14	7.8937e-05	8.9812e-05	689.28	210.58	8.0317e-05	8.9246e-05	253.77	98.34	79.014	32.956	8.2679e-05	45.931	150.856	38.248	37.712	-58.358	112.442	89.776	-59.929	-52.679	159.951	39.768	-54.252	-49.907	-47.671	-42.729	76.631	-45.693	-8191	255	
15409.435	1	1	0	0	0.32503	0.16598	0.1349	0.16834	0.40623	0.15997	0.10898	0.13106	0.099903	0.16844	0.16038	0.18373	0.076868	0.10908	0.19523	0.16689	-2.6458	-2.6021	-2.7208	-2.8417	-2.6396	-2.9604	-2.7417	-2.7229	-2.8167	-2.6333	-2.9688	-2.8333	-2.6271	-2.9479	-2.6375	-2.75	172.832	27.006	-7.078	254.484	95.782	236.935	-45.888	168.312	-67.973	150.615	178.529	25.104	-20.167	28.443	-36.720	18.211	7.7701e-05	0.0011322	0.00010185	683.84	1.9385e-06	5.3915e-06	674.08	203.13	1.824e-06	4.4542e-06	245.72	94.046	74.245	31.52	4.8336e-06	44.097	0.0045089	0.0079395	0.0022565	694.08	7.7581e-05	9.0424e-05	689.58	210.29	8.015e-05	8.9007e-05	256	98.495	78.996	32.992	8.4289e-05	46.054	190.336	79.232	43.486	-58.526	283.771	124.291	-59.433	-52.416	237.851	105.845	-54.376	-49.854	-47.605	-42.987	19.840	-45.377	-8191	255	
15409.554	1	1	0	0	0.13528	0.1612	0.12322	0.30939	0.13284	0.032048	0.38414	0.10879	0.23254	0.16483	0.17936	0.25988	0.35979	0.072057	0.2157	0.16442	-2.2396	-2.4583	-2.7396	-2.8688	-2.3979	-3.0708	-2.6708	-2.8	-2.9792	-2.5208	-2.9208	-2.9396	-2.6437	-3.0667	-2.5521	-2.5354	260.695	251.264	-41.729	242.060	102.045	78.180	280.587	287.976	270.497	11.919	-48.387	283.345	-61.689	63.421	179.106	259.324	0.00019297	0.0004208	0.00014862	684.45	3.9252e-06	6.0688e-06	680.5	204.71	2.5139e-06	8.6053e-06	245.94	93.811	75.157	31.597	5.3092e-06	43.979	0.0045635	0.0080235	0.0022636	696.51	7.8696e-05	9.0807e-05	694.88	211.57	8.1137e-05	9.0627e-05	257.46	98.653	79.499	33.047	8.4582e-05	46.172	164.827	43.049	120.175	-58.597	165.494	210.130	-59.367	-52.300	31.042	4.688	-54.521	-49.717	-47.692	-43.037	80.063	-45.328	-8191	255	
15409.652	1	1	0	0	0.14943	0.033587	0.30158	0.20094	0.24452	0.20411	0.10113	0.12851	0.23525	0.19868	0.30366	0.21669	0.16471	0.13101	0.15569	0.089394	-2.6646	-2.4188	-2.5854	-3	-2.175	-2.8604	-2.7646	-2.8521	-3.1021	-2.5917	-2.8	-2.9	-2.4604	-2.9667	-2.8583	-2.5208	12.307	15.520	61.741	-45.530	-52.475	163.667	188.506	272.541	61.100	-43.392	191.673	228.650	113.133	181.021	189.483	-33.934	0.00019727	0.00024546	0.00035242	688.96	2.5507e-06	6.6908e-06	680.49	205.3	1.5033e-06	6.5677e-06	245.3	93.976	74.323	31.59	2.4126e-06	44.102	0.0045401	0.0081236	0.0022654	700.1	7.8888e-05	9.2755e-05	697.42	212.87	8.1936e-05	9.1633e-05	257.58	98.887	79.277	33.011	8.5221e-05	46.002	150.559	-54.056	32.803	-58.518	136.456	94.793	-59.837	-52.509	78.752	39.495	-54.623	-49.799	-47.609	-42.727	-53.660	-45.403	-8191	255	
15409.724	1	1	0	0	0.23056	0.12967	0.089319	0.19402	0.046658	0.084103	0.21482	0.11907	0.14057	0.11587	0.27884	0.21101	0.18095	0.15401	0.096753	0.042737	-2.6521	-2.7396	-2.6542	-2.9771	-2.4938	-2.8604	-2.9	-2.6312	-3.0875	-2.6833	-2.7875	-2.9062	-2.65	-2.9333	-2.8458	-2.5333	271.929	0.546	213.339	-23.657	56.078	155.195	126.104	56.708	247.136	150.801	-54.250	266.549	-46.868	263.924	101.733	213.959	5.1401e-05	0.00053072	6.8691e-05	687.01	2.6623e-06	5.8562e-06	676.83	205.51	5.7005e-06	5.3993e-06	246.21	94.441	74.773	31.541	4.4754e-06	44.206	0.0045908	0.0080496	0.0022637	697.17	7.7828e-05	9.094e-05	692.76	212.3	8.012e-05	8.9232e-05	257.44	98.511	79.245	33.012	8.4166e-05	45.924	162.516	246.916	-23.024	-58.492	147.229	75.878	-59.569	-52.865	-28.291	35.180	-54.233	-49.701	-47.960	-42.639	19.047	-45.183	-8191	255	
15409.843	1	1	0	0	0.03878	0.22967	0.34552	0.14334	0.34966	0.094969	0.081254	0.27584	0.084773	0.041153	0.20094	0.13275	0.038271	0.14441	0.1714	0.14617	-2.5542	-2.5646	-2.6104	-3.1125	-2.5208	-2.8833	-3.0521	-2.6667	-2.8708	-2.7812	-2.6542	-2.9271	-2.5729	-2.8312	-2.9354	-2.6396	254.517	167.638	10.273	237.623	-45.024	84.600	278.292	243.766	241.261	-27.537	197.191	176.796	-25.571	-21.682	168.384	175.425	0.00012038	0.00064732	8.7582e-05	691.4	1.2627e-06	4.4713e-06	681.35	206.22	2.2293e-06	8.6902e-06	247.11	93.828	74.876	31.556	5.975e-06	44.072	0.0045817	0.0081345	0.0022899	700.36	8.0652e-05	9.1412e-05	694.5	212.84	8.1818e-05	9.066e-05	257.12	98.58	79.464	33.022	8.4194e-05	46.008	179.327	-8.502	35.254	-58.552	261.603	164.378	-59.558	-52.257	-35.144	70.392	-54.686	-49.651	-47.224	-42.625	118.174	-45.468	-8191	255	
15409.939	1	1	0	0	0.11909	0.095131	0.12137	0.23382	0.20548	0.15256	0.15293	0.13688	0.14537	0.10416	0.075664	0.24875	0.069485	0.074498	0.044763	0.17786	-2.4667	-2.7625	-2.625	-3.1083	-2.6167	-2.8187	-2.8292	-2.4875	-2.8812	-2.825	-2.625	-2.9938	-2.4833	-2.8271	-2.8354	-2.6292	-65.466	10.376	75.777	-31.316	95.498	-55.459	4.090	218.428	194.528	216.029	-7.819	263.323	-59.371	189.774	94.887	61.051	6.0715e-05	0.00069633	0.00013323	688.02	5.4211e-06	5.2205e-06	677.74	205.96	4.3256e-06	4.0057e-06	247.7	94.411	74.848	31.437	9.8809e-06	44.345	0.0045977	0.0080428	0.0022645	698.59	7.9704e-05	9.1738e-05	694.65	212.5	8.1605e-05	9.1022e-05	257.18	98.764	79.447	33.046	8.2144e-05	46.125	133.786	279.072	192.198	-58.497	246.104	31.561	-59.759	-52.360	31.784	120.428	-54.517	-49.671	-47.575	-42.710	17.627	-45.213	-8191	255	
15410.035	1	1	0	0	0.13332	0.26447	0.3312	0.19482	0.22044	0.23887	0.04305	0.30237	0.10751	0.085107	0.1926	0.1947	0.28091	0.1505	0.20656	0.22931	-2.4875	-2.8438	-2.5062	-3.1646	-2.6042	-2.7146	-2.9333	-2.5604	-2.7146	-2.8021	-2.4083	-2.9396	-2.7354	-2.6125	-3.0667	-2.7333	-63.924	198.960	208.074	258.566	96.044	56.539	-50.441	168.094	126.850	-21.152	36.249	275.595	0.071	37.189	78.797	288.256	0.00018639	0.00052376	0.00013012	691.68	2.3647e-06	2.7287e-06	684.2	206.67	2.3012e-06	6.7966e-06	248.01	94.243	74.885	31.432	3.9897e-06	43.888	0.0045254	0.0079875	0.0022459	700	7.8516e-05	8.8422e-05	696.23	212.94	7.888e-05	8.5863e-05	258.06	98.621	79.056	32.861	7.8684e-05	45.776	197.251	55.237	71.486	-58.584	-47.411	157.259	-59.905	-52.808	17.112	48.427	-54.420	-49.671	-47.627	-42.678	60.831	-45.481	-8191	255	
15410.155	1	1	0	0	0.18675	0.053454	0.058915	0.17341	0.27357	0.065847	0.094226	0.16506	0.29444	0.11567	0.2565	0.075138	0.18305	0.27074	0.18375	0.11506	-2.3583	-2.6354	-2.5979	-2.9417	-2.5104	-2.6104	-3.0417	-2.5771	-2.7687	-2.9688	-2.4458	-2.9896	-2.9188	-2.6833	-3.1167	-2.6833	170.761	25.976	-49.436	-65.914	149.991	17.020	150.710	235.344	5.985	-53.228	16.826	-61.088	288.130	247.234	15.446	199.807	0.00015054	0.00061696	0.00027204	693.16	2.4341e-06	5.8849e-06	681.23	206.83	1.1479e-06	3.831e-06	248.18	93.898	74.439	31.348	5.4743e-06	43.783	0.0042811	0.0074155	0.0021214	697.98	7.3945e-05	8.319e-05	693.78	212.36	7.381e-05	8.1584e-05	256.28	97.932	78.71	32.662	7.4463e-05	45.525	137.055	30.354	37.821	-58.363	65.340	278.648	-59.569	-52.575	-11.629	266.513	-54.407	-49.762	-47.543	-42.564	104.321	-45.334	-8191	255	
15410.252	1	1	0	0	0.052054	0.040986	0.2615	0.18647	0.05638	0.1549	0.20933	0.20167	0.066989	0.19622	0.17618	0.035896	0.42344	0.14709	0.11295	0.17415	-2.2958	-2.9313	-2.5542	-2.9125	-2.9833	-2.2396	-3.1167	-2.7729	-2.7396	-2.9396	-2.4333	-2.8438	-2.7271	-2.5292	-3.0875	-2.7479	22.716	1.714	155.509	288.603	46.966	73.537	8.566	230.854	185.785	200.906	217.071	244.943	-66.728	217.648	208.176	211.312	5.9298e-05	0.00083664	0.00019267	694.53	3.1368e-06	1.4135e-05	686.49	207.36	2.5748e-06	8.3716e-06	249.71	93.787	75.344	31.572	6.5443e-06	44.136	0.0040713	0.0071039	0.0020076	699.87	7.1157e-05	8.0739e-05	695.86	213	7.2192e-05	7.8595e-05	257.52	97.91	78.847	32.759	7.161e-05	45.521	201.385	0.769	-31.381	-58.571	135.716	88.759	-59.625	-52.771	37.269	65.682	-54.304	-49.622	-47.853	-42.832	122.025	-45.609	-8191	255	
15410.348	1	1	0	0	0.041376	0.30565	0.14999	0.059254	0.21124	0.046899	0.21621	0.068992	0.10337	0.13217	0.27108	0.17353	0.11411	0.28373	0.25564	0.26769	-2.0625	-2.9833	-2.6708	-2.9167	-2.8167	-2.4979	-2.9979	-2.5979	-2.625	-2.9625	-2.6354	-2.9667	-2.8167	-2.5396	-2.8417	-2.8042	77.010	109.791	119.373	-36.726	196.904	-34.524	-53.891	149.256	127.437	107.441	218.941	250.753	-29.610	245.537	-54.310	17.588	0.00010694	0.00021964	0.00016105	695.28	9.3076e-07	3.9085e-06	691.18	208.04	4.595e-06	1.0128e-05	251.67	93.707	75.063	31.24	8.4112e-07	44.036	0.0038894	0.0068548	0.0019475	699.85	6.8137e-05	7.8096e-05	698.86	213.78	7.129e-05	7.7437e-05	258.65	98.136	78.925	32.643	7.163e-05	45.62	209.563	66.891	159.719	-58.609	160.313	115.890	-59.476	-52.611	69.847	116.464	-54.347	-49.826	-47.572	-42.648	212.793	-45.412	-8191	255	
15410.444	1	1	0	0	0.25896	0.090888	0.05384	0.14716	0.14968	0.089565	0.22011	0.10682	0.080462	0.15908	0.16875	0.26467	0.21957	0.26774	0.18239	0.24927	-2.1625	-3.15	-2.4354	-2.9958	-2.9375	-2.3604	-3.0938	-2.9562	-2.3708	-3.0542	-2.7479	-2.7979	-2.825	-2.6792	-3.0979	-2.8896	-64.276	123.456	17.324	-59.974	207.702	236.046	200.356	187.042	41.727	125.392	222.641	202.862	59.143	214.324	-53.341	37.098	0.00013115	0.00019264	0.00020112	697.98	3.2293e-06	7.8814e-06	690.21	209.13	4.816e-06	6.3071e-06	250.92	94.388	74.911	31.699	4.1426e-06	44.079	0.0038813	0.0068843	0.0019718	702.69	6.8574e-05	7.7882e-05	698.7	214.62	6.9329e-05	7.7633e-05	259.37	98.234	78.998	32.78	7.3232e-05	45.579	158.550	118.773	71.992	-58.507	158.641	66.971	-59.796	-52.745	128.932	108.571	-54.387	-49.668	-47.740	-42.772	93.809	-45.298	-8191	255	
15410.540	1	1	0	0	0.33068	0.10379	0.090272	0.24062	0.11379	0.020753	0.12052	0.20997	0.037199	0.21976	0.13588	0.3017	0.30499	0.10071	0.2166	0.20344	-2.0125	-2.7542	-2.4125	-2.6146	-3.0458	-2.7917	-2.925	-2.7812	-2.6625	-3.1167	-2.7229	-2.6937	-2.9104	-2.5708	-2.8271	-3.0104	33.857	140.869	116.014	66.465	-51.941	247.648	236.006	54.324	2.670	225.981	50.079	229.800	-62.306	157.870	-49.360	240.741	0.00016831	0.0010249	9.0354e-05	692.95	1.1781e-06	3.2227e-06	683.03	208.02	8.8489e-06	4.0813e-06	247.91	93.922	74.772	31.411	6.0777e-06	43.562	0.0039223	0.0070026	0.0019666	699.7	6.8677e-05	7.8438e-05	694.35	213.71	7.0083e-05	7.6876e-05	257.12	97.546	78.709	32.689	7.3262e-05	45.404	151.623	7.512	128.450	-58.448	148.803	161.885	-59.722	-52.666	43.605	68.335	-54.458	-49.629	-47.488	-42.866	88.240	-45.540	-8191	255	
15410.634	1	1	0	0	0.2037	0.16202	0.25306	0.17187	0.054205	0.21617	0.061855	0.17869	0.10374	0.23335	0.14052	0.17683	0.29569	0.061951	0.12307	0.13969	-1.9562	-2.925	-2.5687	-2.5542	-3.0854	-2.5604	-2.8667	-2.9042	-2.5563	-2.9729	-2.7396	-2.4313	-3.1229	-2.6083	-2.8417	-2.9208	278.296	134.909	77.930	276.433	-23.347	245.142	255.441	268.412	121.985	-12.706	96.296	1.670	145.159	266.531	-44.948	287.404	8.6244e-05	0.00048388	4.6129e-05	692.66	6.0808e-06	8.1761e-06	677.85	207.44	3.6936e-07	6.7187e-06	249.31	94.118	74.941	31.566	2.8192e-07	43.964	0.0039578	0.0070884	0.0019988	699.51	7.0157e-05	8.0176e-05	693.52	213.08	7.1387e-05	7.7965e-05	257.02	97.922	79.024	32.936	7.509e-05	45.546	176.408	285.735	48.486	-58.484	66.493	75.431	-59.797	-52.594	-7.240	42.447	-54.465	-49.592	-47.628	-42.736	-18.123	-45.424	-8191	255	
15410.731	1	1	0	0	0.17165	0.06055	0.0092483	0.1306	0.19073	0.30666	0.19995	0.37326	0.11516	0.028838	0.075555	0.37114	0.086243	0.2563	0.061059	0.21979	-2.1146	-2.8917	-2.7458	-2.5771	-3.0875	-2.6188	-2.825	-3.0479	-2.5417	-2.9208	-2.925	-2.5062	-3.0812	-2.6688	-2.6562	-3.1229	263.290	245.799	73.431	121.802	66.146	75.939	249.052	253.136	8.745	-40.376	182.663	-25.103	214.035	196.156	-49.324	281.669	0.00016964	0.00057745	6.1284e-05	690.87	5.0667e-06	4.233e-06	684.09	206.97	4.8738e-07	8.3856e-06	247.67	94.202	75.21	31.698	1.4703e-06	44.128	0.0040734	0.0072264	0.002012	699.25	7.0993e-05	8.2778e-05	695.47	213.78	7.5118e-05	8.284e-05	258.04	98.35	79.641	32.99	7.8094e-05	45.832	197.082	-29.481	30.907	-58.514	62.783	116.812	-59.560	-52.765	79.128	129.681	-54.531	-49.867	-47.894	-42.852	143.684	-45.539	-8191	255	
15410.851	1	1	0	0	0.17381	0.0082615	0.17344	0.27413	0.16953	0.094112	0.12452	0.099251	0.17268	0.0775	0.087203	0.07238	0.17677	0.33251	0.098472	0.27477	-2.125	-2.8042	-2.8271	-2.6104	-2.8896	-2.75	-2.8167	-2.9667	-2.5875	-2.6688	-2.9979	-2.5854	-3.1625	-2.7458	-2.7229	-3.0354	165.569	220.481	-42.695	206.327	164.456	236.756	188.772	133.650	271.078	74.077	257.242	9.825	220.251	276.572	113.534	271.516	0.00018562	8.3018e-05	0.00018965	692.32	2.4388e-06	5.1685e-06	687.59	209.45	1.7388e-06	6.4069e-06	251.06	94.828	75.794	31.736	7.9957e-07	44.77	0.0041549	0.0074141	0.0020679	701.99	7.2889e-05	8.4112e-05	697.89	215.17	7.5066e-05	8.3129e-05	259.56	98.971	79.896	33.178	7.8442e-05	46.105	182.333	24.175	9.404	-58.550	56.152	-30.735	-59.277	-52.518	236.637	11.115	-54.404	-49.784	-47.591	-42.532	162.777	-45.407	-8191	255	
15410.946	1	1	0	0	0.171	0.20033	0.088638	0.028926	0.053953	0.15068	0.39658	0.10422	0.26676	0.30559	0.18233	0.065159	0.18772	0.20954	0.090634	0.056863	-2.0458	-2.8125	-2.8458	-2.5146	-2.9042	-2.7208	-2.5312	-3.0833	-2.5667	-2.6937	-3.0354	-2.6021	-2.8417	-2.6083	-2.2354	-3.1479	145.251	176.863	197.948	238.654	21.742	-23.737	130.982	143.751	245.268	-19.707	25.459	167.982	110.452	-38.153	54.963	226.596	0.0001026	0.00056347	0.00020401	691.18	2.9974e-06	4.6357e-06	680.76	205.46	3.5909e-06	8.3446e-06	246.7	93.877	74.992	31.784	4.9965e-06	44.173	0.0042587	0.0075387	0.0020758	701.01	7.2749e-05	8.4816e-05	693.03	212.93	7.642e-05	8.3175e-05	256.24	98.344	79.317	33.069	7.8257e-05	45.758	125.556	96.511	-7.729	-58.524	101.694	220.033	-59.668	-52.312	270.736	87.783	-54.159	-49.835	-47.610	-42.558	57.671	-45.483	-8191	255	
15411.019	1	1	0	0	0.073669	0.10052	0.094388	0.16774	0.096746	0.13042	0.17431	0.18759	0.26671	0.16096	0.024493	0.17511	0.093413	0.16444	0.089812	0.26918	-2.2812	-2.5833	-3.0583	-2.5187	-2.775	-2.9354	-2.6063	-3.0979	-2.8604	-2.7313	-3.0708	-2.5875	-2.7896	-3.1396	-2.3875	-3.05	220.315	69.026	55.497	-67.863	221.043	-31.563	248.478	-43.194	145.171	242.477	46.964	-36.486	287.483	282.097	90.393	248.966	0.00016129	0.00069522	0.00013438	690.38	4.6788e-06	2.9493e-06	678.38	207.02	6.6431e-06	7.5287e-06	247.61	94.491	75.721	31.856	4.6472e-06	44.218	0.0042127	0.0074655	0.0021014	699.96	7.3502e-05	8.4649e-05	691.01	213.47	7.665e-05	8.449e-05	256.92	98.394	79.68	33.171	7.9001e-05	45.974	174.685	55.231	-16.064	-58.228	-32.170	93.891	-59.759	-52.906	82.402	116.154	-54.378	-49.703	-47.927	-42.642	80.796	-45.424	-8191	255	
15411.115	1	1	0	0	0.3979	0.056492	0.15863	0.20221	0.39557	0.047979	0.19751	0.3978	0.11577	0.045266	0.22609	0.18709	0.23427	0.2474	0.29701	0.1626	-2.2229	-2.6354	-2.8937	-2.6083	-2.825	-3.0979	-2.65	-3.0042	-2.8438	-2.5729	-3.1479	-2.7667	-2.7229	-3.0375	-2.4042	-2.8042	114.014	222.823	234.368	163.014	43.579	240.630	129.603	269.755	91.795	278.341	157.372	197.338	271.068	-11.862	197.755	172.230	7.8567e-05	0.0004098	6.8653e-05	695.43	9.5917e-07	7.1642e-06	682.78	208.37	2.8726e-06	2.6656e-06	247.54	94.381	75.614	32.01	3.4836e-06	44.681	0.0043207	0.0074529	0.0020901	701.8	7.3313e-05	8.3722e-05	693.49	213.65	7.5248e-05	8.3306e-05	256.42	98.995	80.116	33.419	7.7185e-05	46.445	187.677	1.942	19.682	-58.354	-40.594	165.476	-59.621	-52.516	-50.879	-11.412	-54.411	-49.507	-47.624	-42.924	189.641	-45.407	-8191	255	
15411.234	1	1	0	0	0.11388	0.15924	0.17447	0.25506	0.099857	0.027957	0.20061	0.05305	0.09972	0.13644	0.067965	0.16858	0.14352	0.15722	0.26749	0.07298	-2.2104	-2.5146	-2.9625	-2.6146	-2.7271	-2.7958	-2.6792	-2.8208	-2.8063	-2.5104	-3.0917	-2.6542	-2.6396	-3.0021	-2.5583	-2.9521	162.473	9.703	285.850	266.859	56.790	222.722	117.875	62.742	286.549	9.990	197.416	221.649	273.259	212.533	-48.232	177.954	0.00014591	0.00032686	0.0002545	693.3	3.4703e-06	1.2036e-05	684.47	207.45	4.5172e-06	5.8183e-06	246.61	96.121	75.375	32.254	1.3913e-06	44.885	0.0042455	0.0073268	0.0020759	699.68	7.3633e-05	8.2759e-05	693.05	212.64	7.3425e-05	8.2673e-05	256.28	99.863	80.195	33.615	7.8085e-05	46.509	167.879	-3.853	38.033	-58.373	158.610	114.513	-59.510	-52.477	152.735	4.083	-54.759	-49.646	-47.363	-42.268	60.754	-45.435	-8191	255	
15411.330	1	1	0	0	0.13899	0.20994	0.24792	0.17238	0.14825	0.17078	0.027598	0.11307	0.28563	0.033393	0.1979	0.087707	0.10607	0.17302	0.13153	0.26076	-2.3979	-2.4646	-3.0292	-2.7687	-2.6813	-3.0396	-2.6146	-2.8563	-2.9146	-2.5208	-3.0667	-2.8792	-2.6583	-2.9875	-2.4917	-2.7458	153.040	182.309	198.707	2.037	161.503	16.295	10.931	158.435	150.694	281.909	178.320	27.417	100.620	263.324	55.120	231.701	9.7683e-05	0.0005739	3.4176e-05	691.09	3.818e-06	9.0801e-06	674.03	206.32	3.0738e-06	1.4028e-06	244.27	94.299	75.923	31.975	3.8346e-06	44.813	0.0042366	0.007386	0.0020736	696.83	7.3074e-05	8.1354e-05	689.13	211.41	7.3664e-05	8.25e-05	253.55	98.644	79.911	33.351	7.7804e-05	46.2	100.380	23.698	139.478	-58.615	94.504	49.867	-59.546	-52.512	156.022	8.988	-54.421	-49.734	-47.297	-42.777	-25.507	-45.218	-8191	255	
15411.426	1	1	0	0	0.047215	0.21085	0.10009	0.20741	0.23149	0.035323	0.25386	0.13771	0.13024	0.33069	0.12153	0.13178	0.19486	0.12514	0.095355	0.09749	-2.5396	-2.625	-2.8875	-2.6188	-2.6833	-2.9458	-2.6688	-2.95	-2.7542	-2.3688	-2.9271	-2.7792	-2.4646	-3.0479	-2.65	-2.8854	29.256	24.931	102.348	-18.812	-57.523	41.271	-41.885	154.195	-22.338	79.751	189.621	5.330	271.451	244.207	-38.582	173.032	0.00016592	0.00058682	0.00016729	685.95	3.8387e-06	1.0357e-05	673.61	203.95	2.6488e-06	8.3536e-06	243.77	95.28	75.861	32.177	1.5588e-06	44.425	0.0041781	0.0074185	0.0020983	693.53	7.208e-05	8.0443e-05	685.45	209.88	7.2002e-05	8.0673e-05	251.7	99.07	80.042	33.482	7.6138e-05	46.288	148.485	-35.017	3.065	-58.297	128.853	127.354	-59.406	-52.478	5.540	87.494	-54.552	-49.697	-47.714	-42.568	199.031	-45.185	-8191	255	
15411.547	1	1	0	0	0.10981	0.14935	0.13286	0.27337	0.18457	0.077498	0.14017	0.33986	0.061126	0.12545	0.3253	0.15221	0.2063	0.023443	0.26678	0.20288	-2.3875	-2.4667	-2.8063	-2.8438	-2.5438	-2.95	-2.6896	-2.7021	-2.9354	-2.4167	-2.8833	-2.7625	-2.4771	-2.8854	-2.7687	-2.5687	217.295	173.367	-12.717	253.263	137.692	116.260	85.331	100.423	32.612	112.157	-68.625	192.982	144.962	200.208	20.417	-11.958	0.00013611	0.0011159	2.1414e-05	687.37	7.2339e-06	3.7923e-06	670.54	202.98	1.576e-06	3.2847e-06	243.56	95.538	75.856	32.238	6.0096e-06	44.851	0.0041262	0.0073457	0.0021031	694.23	7.2965e-05	8.167e-05	684.56	209.41	7.3866e-05	8.2613e-05	252.97	99.692	80.421	33.512	7.8158e-05	46.612	155.101	41.916	-19.656	-58.576	54.465	68.257	-59.541	-52.416	77.152	107.451	-54.135	-49.704	-47.373	-42.603	50.571	-45.246	-8191	255	
15411.643	1	1	0	0	0.13004	0.18392	0.3224	0.42716	0.21302	0.074211	0.10962	0.084911	0.042156	0.20985	0.34179	0.17439	0.079217	0.25965	0.13672	0.24623	-2.6083	-2.5229	-2.825	-3.0083	-2.3229	-3.05	-2.6937	-2.6625	-2.9208	-2.3896	-2.7438	-2.9188	-2.525	-2.925	-2.7729	-2.6458	-61.278	-2.585	-21.567	-35.472	266.819	-11.984	181.057	21.537	14.715	273.648	199.747	156.453	-36.047	283.233	-37.732	231.095	0.00024845	0.00078326	0.00015779	686.25	4.6677e-06	2.2629e-06	673.13	202.99	2.2137e-06	5.1135e-06	243.53	95.766	76.18	32.262	9.5376e-07	44.666	0.0042291	0.0075447	0.0021184	695.59	7.3854e-05	8.4399e-05	685.42	209.73	7.5967e-05	8.3446e-05	253.27	99.69	80.537	33.588	7.7645e-05	46.438	156.246	54.505	37.062	-58.477	47.721	182.515	-59.408	-52.465	-12.952	-14.738	-54.423	-49.425	-47.621	-42.294	-8.035	-45.065	-8191	255	
15411.715	1	1	0	0	0.40699	0.10249	0.029547	0.2101	0.047288	0.12963	0.11153	0.082306	0.11508	0.15898	0.11813	0.20892	0.18024	0.1091	0.16734	0.26009	-2.3187	-2.5833	-2.75	-3.0458	-2.5687	-2.8187	-2.8854	-2.4896	-3.075	-2.6833	-2.8812	-2.9688	-2.4604	-2.9646	-2.7146	-2.5458	-24.543	7.754	175.368	256.539	130.942	70.639	164.751	-26.567	7.651	243.132	152.002	233.525	229.609	-50.035	171.798	259.368	0.00015949	0.00075032	0.00024117	687.73	5.1852e-06	5.9232e-06	671.3	203.31	4.2576e-06	3.5066e-06	242.3	94.508	75.538	32.075	2.2159e-06	44.687	0.0041681	0.0074829	0.0020872	692.84	7.2635e-05	8.3326e-05	682.11	209.04	7.4645e-05	8.2026e-05	252.23	98.636	79.847	33.463	7.6042e-05	46.141	140.252	146.262	16.937	-58.592	88.533	58.494	-59.641	-52.722	253.396	98.611	-54.398	-49.802	-47.535	-42.507	166.229	-45.051	-8191	255	
15411.835	1	1	0	0	0.19986	0.3939	0.046243	0.070727	0.19553	0.076278	0.086366	0.25248	0.19589	0.032729	0.19447	0.098108	0.093249	0.1746	0.08488	0.16687	-2.5438	-2.5563	-2.6271	-3.0938	-2.7417	-2.7917	-2.9833	-2.4854	-3.0917	-2.7229	-2.6854	-3.0208	-2.5396	-2.6708	-2.7896	-2.7021	269.034	-49.102	-16.456	266.883	61.247	235.633	212.710	273.698	151.148	263.410	153.225	199.545	105.246	273.626	-34.092	262.891	0.00011086	0.00040833	5.3918e-05	688.93	2.4448e-06	2.9593e-06	673.31	204.65	1.1072e-06	5.8413e-06	244.49	93.493	75.415	32.208	5.3604e-07	44.492	0.0040808	0.0073214	0.0020415	694.46	7.2356e-05	8.2815e-05	685.1	210.26	7.4094e-05	8.0425e-05	253.63	98.297	79.656	33.499	7.5836e-05	46.162	168.139	-28.744	-9.839	-58.463	103.668	79.257	-59.989	-52.605	21.619	80.369	-54.371	-49.501	-47.480	-42.924	-23.472	-45.339	-8191	255	
15411.932	1	1	0	0	0.018551	0.1783	0.12412	0.24104	0.23756	0.24382	0.23746	0.16728	0.1223	0.055759	0.23738	0.196	0.26334	0.093848	0.25586	0.097007	-2.725	-2.5479	-2.6896	-2.9896	-2.5146	-2.7125	-2.8521	-2.6771	-2.9375	-2.8125	-2.675	-3.0958	-2.7646	-2.8937	-2.8958	-2.5125	56.450	25.495	191.388	221.524	233.745	230.454	269.109	76.886	156.287	-12.868	27.027	52.445	182.242	31.718	106.091	254.866	9.5773e-05	0.0003066	0.00017688	690.13	7.4955e-06	7.0441e-06	673.83	205.4	5.871e-06	9.5379e-06	246.26	95.127	76.192	32.125	7.3355e-07	44.698	0.0041147	0.0074245	0.0020308	694.83	7.1782e-05	8.206e-05	685.82	210.01	7.3972e-05	8.1319e-05	253.42	99.023	80.013	33.513	7.6636e-05	46.318	129.625	31.423	-52.054	-58.450	99.317	67.475	-59.654	-52.270	52.924	81.182	-54.318	-49.523	-47.847	-42.584	145.951	-45.178	-8191	255	
15412.026	1	1	0	0	0.1645	0.35616	0.23275	0.16195	0.27138	0.051324	0.25989	0.059966	0.14895	0.15303	0.21795	0.11395	0.14109	0.31439	0.21217	0.18768	-2.4792	-2.7396	-2.5083	-3.2167	-2.8187	-2.6625	-3.0521	-2.6667	-2.8167	-2.8354	-2.5875	-3.0417	-2.9313	-2.6979	-3.0104	-2.5812	-6.266	229.947	-16.146	233.341	76.272	60.280	212.774	-15.469	117.294	155.913	154.094	52.875	25.009	272.870	248.683	220.581	7.4466e-05	0.0007484	0.00027228	688.7	3.6064e-06	6.1247e-06	676.97	205.96	4.6995e-06	3.8728e-06	247.23	95.335	75.993	32.244	1.512e-06	44.555	0.004145	0.0073181	0.0020307	696.83	7.2307e-05	8.2364e-05	688.12	211.23	7.4534e-05	8.0913e-05	254.93	99.267	80.103	33.531	7.5761e-05	46.356	166.550	-8.778	91.306	-58.524	-14.366	252.433	-59.622	-52.336	120.224	26.007	-54.759	-49.586	-47.748	-42.585	98.199	-45.255	-8191	255	
15412.124	1	1	0	0	0.15125	0.15139	0.040549	0.21169	0.16763	0.23329	0.21687	0.12086	0.17378	0.086304	0.063201	0.16096	0.16183	0.33419	0.13407	0.38308	-2.6708	-2.8375	-2.6271	-2.9125	-2.6708	-2.6917	-3.0542	-2.6542	-2.8063	-2.8458	-2.4062	-2.9667	-2.8417	-2.6604	-3.0396	-2.7021	132.301	-69.767	-66.431	-64.914	211.139	212.403	229.662	286.355	-58.822	155.862	165.854	236.961	188.767	3.066	49.703	244.447	0.00011618	0.00039579	9.6147e-05	690.34	3.6991e-06	1.055e-05	673.57	204.23	6.7131e-06	4.5943e-06	243.38	94.049	75.72	32.262	3.8894e-06	44.432	0.0041271	0.007294	0.0020296	695.86	7.1256e-05	8.2135e-05	685.33	210.25	7.513e-05	8.2813e-05	252.71	98.423	79.829	33.472	7.7547e-05	46.081	186.769	-5.382	18.290	-58.593	142.697	57.405	-59.720	-52.243	105.940	13.751	-54.008	-49.718	-47.767	-42.402	64.865	-45.620	-8191	255	
15412.243	1	1	0	0	0.37413	0.11082	0.10936	0.18859	0.29158	0.19077	0.12115	0.18304	0.054953	0.034856	0.21361	0.20122	0.21817	0.12804	0.028213	0.31027	-2.5563	-3.0292	-2.5021	-2.8729	-2.8375	-2.6688	-3.1458	-2.7417	-2.8604	-3.0521	-2.5812	-2.8479	-2.7521	-2.5979	-3.0625	-2.7375	100.584	239.926	-29.290	-61.284	207.517	24.292	12.508	-39.910	99.657	168.960	159.303	225.940	207.457	44.611	141.884	91.794	0.00013973	9.1153e-05	9.9848e-05	687.76	8.5252e-06	9.8639e-06	671.63	203.15	2.5236e-06	4.543e-06	242.92	94.859	75.818	32.168	2.5049e-06	44.561	0.0042575	0.0074746	0.0020913	693.97	7.2764e-05	8.3803e-05	683.63	209.66	7.3573e-05	8.2201e-05	251.57	98.496	79.826	33.55	7.6453e-05	46.145	144.101	106.105	243.184	-58.444	58.741	90.261	-59.472	-52.626	78.410	140.938	-54.382	-49.831	-47.643	-42.985	138.953	-45.570	-8191	255	
15412.314	1	1	0	0	0.22561	0.25938	0.11592	0.13467	0.32307	0.12377	0.19493	0.2041	0.17988	0.077361	0.17111	0.080897	0.22967	0.066432	0.10957	0.10077	-2.3125	-2.9271	-2.5708	-2.9854	-2.8021	-2.6792	-3.0646	-2.6958	-2.6917	-3.1188	-2.6354	-2.7083	-2.7979	-2.6875	-2.8625	-2.7708	28.676	207.955	238.859	234.458	-47.422	206.307	-60.606	232.051	51.730	171.964	259.037	-22.011	194.609	269.557	185.406	19.394	9.3555e-05	0.00021716	0.00019714	688.2	4.4622e-06	5.9867e-06	670.6	204.18	3.2433e-06	4.6743e-06	243.4	94.411	75.776	32.386	7.4804e-06	44.462	0.004182	0.0073281	0.0020845	695.36	7.2596e-05	8.3688e-05	685	210.13	7.4715e-05	8.282e-05	253.08	98.724	80.001	33.563	7.8707e-05	46.264	173.972	-54.058	-12.783	-58.588	172.794	133.502	-59.814	-52.743	66.113	53.270	-54.362	-49.789	-47.662	-42.745	127.773	-45.464	-8191	255	
15412.411	1	1	0	0	0.33384	0.17938	0.28639	0.18381	0.30595	0.12729	0.19737	0.36461	0.057191	0.08509	0.24738	0.26832	0.070528	0.21609	0.14674	0.16506	-2.0521	-3.0521	-2.5625	-2.9208	-2.8187	-2.4896	-3.0542	-2.7354	-2.6958	-2.9583	-2.5563	-2.8417	-2.9688	-2.6458	-2.8625	-2.8	148.415	-53.724	196.500	277.967	-15.620	77.737	204.926	211.924	42.008	58.266	206.887	221.913	-32.646	-48.815	-21.687	102.841	0.00010388	0.00037008	4.0658e-05	692.09	1.4466e-06	8.3016e-06	671.66	205.68	4.7706e-06	5.0565e-06	243.24	94.806	76.348	32.409	3.8881e-06	44.845	0.0042677	0.0074353	0.0021048	697.77	7.2761e-05	8.2869e-05	686.31	211.25	7.394e-05	8.1982e-05	254.54	99.086	80.164	33.6	7.8083e-05	46.353	160.960	-35.051	-28.844	-58.421	-67.655	127.028	-59.794	-52.665	47.951	111.014	-54.626	-49.550	-47.395	-42.666	25.250	-45.561	-8191	255	
15412.507	1	1	0	0	0.13704	0.060586	0.10434	0.12235	0.22792	0.054042	0.14605	0.1877	0.074452	0.25529	0.23503	0.074133	0.29283	0.22159	0.058681	0.13852	-2.1625	-2.9729	-2.5417	-2.8	-2.775	-2.6875	-2.9354	-2.9125	-2.5896	-2.9583	-2.6125	-2.6458	-3.0479	-2.5375	-2.8812	-2.8125	175.252	168.846	225.115	-69.502	208.396	155.752	240.251	273.918	260.840	153.004	123.016	173.288	147.340	-59.637	156.835	-4.139	0.00013957	0.00041193	6.2706e-05	690.44	3.6139e-06	6.4e-06	673.22	203.82	3.4208e-06	2.8313e-06	243.88	93.37	74.907	32.075	9.3906e-06	44.178	0.004159	0.0073944	0.0020958	695.93	7.2345e-05	8.1924e-05	685.39	210.62	7.3042e-05	8.201e-05	253.39	98.017	79.346	33.4	7.7012e-05	45.895	188.231	-11.582	58.858	-58.519	85.391	209.736	-59.658	-52.641	177.757	87.897	-54.583	-49.492	-47.574	-42.610	22.723	-45.816	-8191	255	
15412.627	1	1	0	0	0.30817	0.12382	0.089671	0.12123	0.098625	0.22711	0.095888	0.30492	0.36405	0.17642	0.051416	0.14689	0.057385	0.31109	0.14522	0.11838	-1.9521	-2.7604	-2.6167	-2.6562	-2.975	-2.4208	-2.9146	-3	-2.4333	-3.0812	-2.7125	-2.7396	-2.9271	-2.525	-2.7583	-3.0333	136.619	264.985	73.174	258.208	81.640	183.121	251.498	246.455	199.242	200.797	-28.126	250.589	7.428	288.505	185.929	186.623	1.3087e-05	0.00045001	0.00026131	687.34	3.1621e-06	3.0748e-06	670.84	205.88	8.2807e-06	6.3716e-07	244.35	93.698	75.196	32.326	8.2708e-06	44.19	0.0041577	0.007338	0.0020919	695.45	7.1986e-05	8.2306e-05	685.79	211.21	7.4559e-05	8.3348e-05	252.92	98.115	79.571	33.474	7.6954e-05	45.901	118.729	86.477	77.370	-58.419	111.159	-8.594	-59.266	-52.673	131.361	253.577	-54.255	-49.534	-47.753	-42.669	69.449	-45.354	-8191	255	
15412.724	1	1	0	0	0.14688	0.082084	0.26089	0.1328	0.16446	0.070191	0.099573	0.25918	0.10865	0.17742	0.18182	0.12619	0.13232	0.079985	0.16858	0.098924	-2.0854	-2.9437	-2.5146	-2.6583	-3.0104	-2.5604	-2.9979	-3.0312	-2.4625	-2.9188	-2.8042	-2.4771	-2.8688	-2.6917	-2.7896	-3.1604	77.433	-60.988	98.185	270.543	219.008	80.507	-63.776	267.830	104.119	200.571	235.005	-65.298	239.653	217.567	-54.015	208.740	0.00014881	0.00053331	3.5946e-05	690.76	2.7939e-07	4.6502e-06	674.5	205.15	1.6017e-06	8.2864e-06	246.03	94.717	75.921	32.304	5.0973e-06	44.435	0.0041284	0.0072851	0.0020412	695.72	7.1648e-05	8.2648e-05	687.29	211.58	7.4733e-05	8.3473e-05	254.93	98.615	79.88	33.598	7.7053e-05	46.128	141.232	-19.599	-29.057	-58.537	73.269	27.451	-59.605	-52.311	115.605	99.346	-54.645	-49.616	-47.397	-42.783	105.905	-45.477	-8191	255	
15412.820	1	1	0	0	0.17687	0.15394	0.30425	0.56237	0.11252	0.054258	0.28124	0.31992	0.15422	0.23909	0.29189	0.21575	0.09401	0.09295	0.057412	0.12658	-2.0625	-2.9521	-2.7687	-2.5812	-3.1208	-2.8271	-2.75	-2.9	-2.5729	-2.8771	-2.9042	-2.6229	-3.1813	-2.7375	-2.6646	-2.9479	46.695	204.447	-28.240	239.863	-21.495	38.987	224.950	214.669	167.914	214.059	162.377	224.186	12.593	80.605	-3.202	202.010	7.2527e-05	0.00068477	8.3524e-05	691.57	1.0054e-05	6.367e-06	676.62	208.04	5.4909e-06	5.4795e-06	245.61	94.831	75.7	32.333	4.0324e-06	44.522	0.0041216	0.0072957	0.0020368	698.77	7.1944e-05	8.0912e-05	691.03	213	7.4122e-05	8.3255e-05	255.68	99.158	80.072	33.763	7.6894e-05	46.419	159.013	38.496	61.254	-58.623	84.738	284.698	-59.679	-52.694	147.426	174.680	-53.982	-49.704	-47.348	-42.392	65.278	-45.320	-8191	255	
15412.916	1	1	0	0	0.1396	0.27217	0.067828	0.13115	0.24057	0.14169	0.25188	0.14692	0.059426	0.30638	0.19865	0.086729	0.17948	0.30105	0.040937	0.058034	-2.1125	-2.8	-2.6896	-2.5438	-2.8146	-2.7375	-2.5958	-3	-2.4437	-2.8438	-2.85	-2.3479	-3.0271	-2.6646	-2.5417	-3.0104	-21.260	210.959	284.269	174.199	100.481	-48.125	226.717	254.016	-39.716	129.912	262.766	170.631	222.403	270.975	-42.517	240.345	0.00016749	0.00040745	7.2118e-05	691.52	5.2137e-06	9.4557e-06	677.3	206.07	2.9744e-06	7.6043e-06	244.09	93.771	75.371	32.017	7.1661e-06	44.537	0.0041685	0.007424	0.0020777	698.4	7.3138e-05	8.2458e-05	688.41	212.02	7.5434e-05	8.2948e-05	254.07	98.115	79.68	33.405	7.5852e-05	45.987	145.444	42.606	58.638	-58.346	165.672	-32.356	-59.458	-52.740	21.517	50.240	-54.661	-49.590	-47.602	-42.749	106.798	-45.681	-8191	255	
15413.012	1	1	0	0	0.25404	0.053361	0.14669	0.21677	0.13123	0.081196	0.35499	0.092313	0.042875	0.13069	0.13969	0.28367	0.11443	0.13376	0.077323	0.23022	-2.125	-2.6042	-2.9604	-2.5917	-2.8042	-2.7479	-2.6625	-3.0521	-2.6667	-2.7833	-3.0854	-2.2396	-3.0271	-2.7812	-2.6312	-2.9875	143.230	190.033	126.930	163.652	39.288	233.060	221.191	228.794	117.652	84.087	207.865	163.943	152.939	-38.857	259.681	239.836	0.00014129	0.00088691	9.8316e-05	689.29	3.4932e-06	2.7844e-06	674.88	208.35	3.1725e-06	4.6507e-06	245.47	94.461	76.175	32.167	3.8539e-06	44.272	0.0040598	0.0073571	0.0020227	696.18	7.1285e-05	8.0903e-05	687.28	212.99	7.4427e-05	8.1328e-05	255.27	98.427	80.167	33.526	7.6229e-05	46.033	180.393	18.914	-17.354	-58.746	28.774	116.689	-59.667	-52.648	130.669	70.413	-54.206	-49.796	-47.244	-42.577	99.704	-45.224	-8191	255	
15413.108	1	1	0	0	0.14748	0.13865	0.28331	0.18139	0.076603	0.21655	0.088314	0.23313	0.10803	0.052234	0.16535	0.19263	0.012573	0.10392	0.10647	0.21688	-2.3542	-2.7313	-2.9479	-2.6437	-2.8875	-2.8979	-2.7208	-3.0229	-2.775	-2.7917	-3.1146	-2.6875	-2.7229	-3.0208	-2.4521	-3.1083	72.072	102.035	78.567	282.398	127.294	-28.732	160.812	228.429	198.338	-10.373	-49.612	261.620	-62.622	197.300	94.059	115.252	0.00017635	0.00046535	0.00011086	693.93	5.3647e-06	6.386e-06	680.77	207.38	2.4106e-06	8.2212e-06	245.07	94.35	76.042	32.287	5.6191e-06	44.505	0.0041682	0.007414	0.0020504	700.17	7.3126e-05	8.2991e-05	690.35	212.76	7.5118e-05	8.2569e-05	255.29	98.767	80.239	33.621	7.7422e-05	46.356	175.853	278.745	34.537	-58.596	47.279	5.077	-59.619	-52.621	68.938	-57.902	-54.259	-49.588	-47.536	-42.711	115.508	-45.449	-8191	255	
15413.227	1	1	0	0	0.057964	0.13268	0.2849	0.23282	0.26309	0.14377	0.15746	0.086891	0.092673	0.12585	0.12173	0.30271	0.24194	0.061157	0.081117	0.2831	-2.3917	-2.3792	-3.1229	-2.7104	-2.7875	-3.1125	-2.6229	-3.1854	-2.9229	-2.6	-2.9917	-2.7354	-2.7896	-2.9229	-2.4896	-3.0396	223.620	283.808	144.718	253.675	-14.287	90.902	-68.271	159.983	230.707	133.980	-38.199	269.813	2.623	-52.200	-65.590	-43.898	0.00024134	0.00066997	0.00018163	692.54	6.3582e-06	3.2365e-06	680.21	207.95	6.9608e-06	7.3135e-06	246.83	95.261	76.265	32.43	3.5074e-06	44.944	0.0041851	0.0073683	0.0020468	700.33	7.299e-05	8.316e-05	690.98	213.26	7.6546e-05	8.2741e-05	256.13	99.251	80.482	33.784	7.7841e-05	46.55	207.491	85.137	-39.095	-58.479	51.768	31.954	-59.517	-52.800	0.300	278.995	-54.275	-49.508	-47.422	-42.442	79.253	-45.521	-8191	255	
15413.323	1	1	0	0	0.022206	0.2458	0.084096	0.059097	0.18139	0.1862	0.26149	0.31203	0.15466	0.17847	0.13071	0.15775	0.27292	0.044703	0.081354	0.13903	-2.2854	-2.5896	-3.0479	-2.9083	-2.7146	-2.9833	-2.6792	-3.0354	-3	-2.5917	-3.0458	-2.7542	-2.8208	-3.1667	-2.7396	-2.6583	-41.168	44.256	239.422	111.019	-56.975	157.630	185.397	257.084	257.002	201.344	255.490	-19.262	-70.128	95.360	-5.470	-43.191	8.2325e-05	0.00063597	0.00013316	693.61	3.276e-06	4.4088e-06	677.18	208.18	6.1343e-06	4.9105e-06	245.52	94.173	75.608	32.088	1.0653e-05	44.274	0.0041721	0.0074077	0.002086	700.25	7.3134e-05	8.3551e-05	691.05	213.5	7.5242e-05	8.136e-05	255.2	98.465	79.895	33.452	7.8436e-05	46.021	161.700	-7.177	69.884	-58.482	18.760	21.513	-59.723	-52.624	178.934	54.649	-54.515	-49.713	-47.346	-42.694	100.893	-45.393	-8191	255	
15413.419	1	1	0	0	0.27074	0.15841	0.096319	0.20861	0.097711	0.14707	0.23202	0.34512	0.14238	0.12129	0.31673	0.13952	0.10163	0.30823	0.24861	0.19532	-2.4437	-2.5417	-2.8646	-2.6729	-2.6521	-3.0646	-2.5875	-2.9333	-2.9188	-2.3521	-3.0187	-2.8	-2.8	-3.1271	-2.5479	-2.7333	-18.296	-39.428	132.391	281.630	184.241	284.464	40.394	256.441	286.097	-14.268	250.343	244.787	250.130	-49.889	14.581	249.108	8.9808e-05	0.00013841	0.00016688	690.56	3.4835e-06	5.8769e-06	675.07	207.69	4.1403e-06	9.5964e-06	247.96	94.525	75.911	32.35	5.2446e-06	44.332	0.0041533	0.0073827	0.0020685	697.85	7.1841e-05	8.2872e-05	688.71	213.2	7.4199e-05	8.0704e-05	256.47	98.601	80.139	33.594	7.6532e-05	46.108	115.411	238.792	47.524	-58.658	139.197	70.010	-59.693	-52.537	74.508	50.779	-54.526	-49.747	-47.775	-42.508	86.731	-45.353	-8191	255	
15413.515	1	1	0	0	0.045928	0.07853	0.097908	0.23341	0.16572	0.12848	0.25849	0.1604	0.1463	0.078508	0.12628	0.1568	0.20311	0.1046	0.16912	0.27519	-2.5854	-2.2583	-3.0417	-2.925	-2.5292	-3.125	-2.8625	-2.8104	-2.8937	-2.5604	-2.9729	-2.7979	-2.6292	-2.9062	-2.7125	-2.8708	80.624	197.945	-32.541	29.261	12.443	143.885	-51.529	-50.969	-57.636	261.517	245.894	233.512	211.759	225.980	183.337	-66.871	0.00012821	0.00043559	0.00015694	694.95	6.3025e-06	1.5192e-06	680.18	208.27	6.7976e-06	8.3782e-06	249.45	95.803	76.265	32.401	3.945e-06	44.617	0.0041057	0.007205	0.0020461	700.68	7.0341e-05	8.155e-05	692.04	214.63	7.2371e-05	8.0501e-05	258.05	99.622	80.55	33.772	7.7346e-05	46.454	164.473	-51.520	42.169	-58.064	-5.956	115.451	-59.686	-52.610	61.460	6.344	-54.460	-49.816	-47.855	-42.771	-15.920	-45.115	-8191	255	
15413.612	1	1	0	0	0.16792	0.065173	0.19046	0.081663	0.1741	0.25686	0.12826	0.045205	0.37099	0.16827	0.095333	0.30085	0.032939	0.073441	0.12455	0.24403	-2.4854	-2.4583	-2.9125	-2.9271	-2.5104	-2.9833	-2.7479	-2.8958	-3.0333	-2.3854	-2.8875	-2.8563	-2.55	-2.7708	-2.7583	-2.5646	265.824	141.549	91.536	264.772	16.188	-68.134	114.369	-49.455	193.175	-11.826	-49.046	110.932	125.712	138.142	32.803	185.310	0.00015586	0.00077548	4.8636e-05	694.96	3.6064e-06	1.0471e-05	682.54	210.15	3.2115e-07	4.3311e-06	248.9	95.263	76.196	32.67	8.273e-06	44.74	0.0041315	0.0072683	0.0020468	702.13	7.2252e-05	8.3467e-05	695.94	216.07	7.3937e-05	8.3425e-05	258.95	99.797	80.604	33.885	7.7052e-05	46.523	161.101	38.977	264.027	-58.550	-27.705	88.222	-59.704	-52.661	-58.228	93.958	-54.686	-49.609	-47.260	-42.690	90.874	-45.553	-8191	255	
15413.708	1	1	0	0	0.22652	0.094778	0.1764	0.063595	0.42661	0.13398	0.168	0.28994	0.12111	0.11353	0.21239	0.16852	0.127	0.11781	0.10722	0.17641	-2.4958	-2.5583	-2.8875	-3.1292	-2.4729	-2.9896	-2.9583	-2.5604	-2.9417	-2.6417	-2.8792	-2.9167	-2.45	-3.0938	-2.8937	-2.6417	-30.105	14.772	59.594	-60.448	287.277	263.459	-58.677	279.546	283.152	127.990	244.104	264.494	-58.433	75.585	193.233	103.776	8.5346e-05	0.00083471	0.00023084	692.1	7.7947e-06	4.5e-06	680.97	207.06	5.7719e-06	8.4427e-06	247.97	94.845	75.393	32.407	3.0403e-06	44.376	0.0041449	0.0072884	0.0020528	699.58	7.1121e-05	8.2845e-05	691.15	213.73	7.3427e-05	8.2406e-05	255.87	98.905	80.032	33.626	7.8015e-05	46.13	196.292	60.530	49.999	-58.432	94.465	10.489	-59.818	-52.652	273.905	79.145	-54.679	-49.996	-47.666	-43.013	131.252	-45.589	-8191	255	
15413.804	1	1	0	0	0.090652	0.17633	0.028696	0.30821	0.24035	0.2651	0.14427	0.14086	0.22747	0.23664	0.31574	0.16019	0.1666	0.2446	0.26187	0.17922	-2.7313	-2.5438	-2.6771	-2.9771	-2.5167	-2.8604	-2.9646	-2.6396	-3.0312	-2.7792	-2.7687	-2.9104	-2.5292	-2.8208	-2.9229	-2.5896	-7.554	70.513	171.151	282.913	54.008	-27.345	140.402	259.792	152.745	198.788	248.676	97.468	273.459	206.102	102.220	264.495	0.00013786	0.00034955	9.7123e-05	691.24	3.9477e-06	8.3669e-06	677.87	209.62	4.9281e-06	8.5354e-06	246.63	94.828	75.803	32.141	3.4097e-06	44.503	0.0041646	0.0073162	0.0020706	697.95	7.1801e-05	8.2942e-05	690.69	213.92	7.4286e-05	8.3818e-05	255.7	98.76	80.282	33.617	7.7171e-05	46.235	153.343	-45.920	-44.141	-58.643	105.457	85.449	-59.734	-52.717	114.577	25.906	-54.643	-49.959	-47.541	-42.780	53.355	-45.270	-8191	255	
15413.925	1	1	0	0	0.12742	0.19593	0.12188	0.17634	0.15863	0.14508	0.38109	0.034302	0.1283	0.17314	0.058281	0.13334	0.13976	0.14191	0.084087	0.13418	-2.5896	-2.5875	-2.5812	-3.1729	-2.6896	-2.9854	-2.9542	-2.6083	-2.8354	-2.7583	-2.7062	-2.9437	-2.4938	-2.9813	-2.9521	-2.525	144.812	73.240	8.150	200.500	240.700	118.630	264.734	217.751	-14.812	174.206	-4.732	-48.778	287.122	180.768	287.516	-14.131	0.00015074	0.00019112	8.5816e-05	692.29	7.3664e-06	5.6077e-06	680.61	208.63	4.1802e-06	6.6369e-06	248.09	95.132	76.18	32.308	3.9184e-06	44.723	0.0041831	0.0073055	0.0020645	699.42	7.2165e-05	8.3027e-05	690.9	213.58	7.3718e-05	8.1734e-05	256.37	98.908	80.291	33.588	7.6665e-05	46.37	130.679	162.085	205.936	-58.544	-0.863	76.465	-59.803	-52.599	45.624	139.076	-54.581	-49.580	-47.323	-42.844	0.058	-45.149	-8191	255	
15414.019	1	1	0	0	0.26468	0.24155	0.1009	0.1694	0.01558	0.10653	0.12639	0.17529	0.16128	0.10565	0.024071	0.096445	0.10059	0.26633	0.073197	0.075056	-2.5604	-2.8396	-2.5042	-3.1521	-2.6083	-2.7208	-2.8854	-2.3292	-2.9042	-2.7771	-2.6771	-3.0854	-2.6958	-2.85	-2.9813	-2.5771	-1.921	111.639	133.042	209.654	7.422	14.119	-58.854	204.527	90.819	246.360	150.303	144.562	-39.625	231.676	2.381	177.846	0.00013917	0.00031012	0.00014137	695.67	4.2209e-06	6.9743e-06	681.85	208.37	6.1925e-06	1.764e-06	249.27	95.51	75.842	32.41	1.3157e-06	44.792	0.0041535	0.0073089	0.002065	700.95	7.2457e-05	8.25e-05	693.75	214.51	7.4186e-05	8.2109e-05	258.33	99.266	80.281	33.704	7.5778e-05	46.548	158.134	-37.592	75.820	-58.408	79.546	-55.458	-59.705	-52.810	93.298	-5.121	-54.374	-49.699	-47.450	-42.619	229.091	-45.624	-8191	255	
15414.115	1	1	0	0	0.13308	0.048823	0.22715	0.021528	0.033432	0.13958	0.12906	0.12198	0.17151	0.13013	0.19136	0.18461	0.2445	0.09748	0.28079	0.009645	-2.3542	-2.8771	-2.5687	-3.1229	-2.6583	-2.6688	-3.0604	-2.5229	-2.9417	-2.9396	-2.4042	-2.8729	-2.6625	-2.7313	-2.8187	-2.6542	287.702	46.635	166.479	-48.982	26.294	25.201	167.276	245.968	243.876	202.854	165.772	139.969	-35.461	284.224	24.574	207.376	9.2574e-05	0.00012618	8.2749e-05	697.25	1.2982e-06	6.0071e-06	683.59	210.02	5.4609e-06	4.5099e-06	246.75	94.481	75.896	32.333	2.9159e-06	44.392	0.0041523	0.0072961	0.0020492	702.92	7.2848e-05	8.1233e-05	693.3	215.25	7.3974e-05	8.1476e-05	256.34	98.857	80.139	33.652	7.6011e-05	46.252	169.873	255.504	-40.167	-58.561	243.135	120.860	-59.600	-52.509	86.118	167.994	-54.196	-49.830	-47.787	-42.356	76.091	-45.530	-8191	255	
15414.189	1	1	0	0	0.20195	0.22496	0.18513	0.18869	0.22736	0.10387	0.23921	0.18758	0.051449	0.1591	0.17981	0.20147	0.17924	0.033376	0.086111	0.17471	-2.3583	-2.925	-2.6063	-3.0292	-2.6208	-2.5771	-3.0354	-2.6	-2.8063	-2.8375	-2.5604	-3.0583	-2.7938	-2.6146	-3.0896	-2.6083	-15.283	8.064	213.422	-62.863	269.523	-29.968	172.345	261.665	-50.649	108.737	-65.143	124.294	241.716	77.259	37.987	248.806	0.00011495	0.00078012	0.00019423	692.89	9.5471e-06	2.0837e-06	679.08	208.26	3.7143e-06	5.3613e-06	247.39	94.092	75.599	32.202	6.1243e-06	44.679	0.0041193	0.0072953	0.0020753	700.03	7.3513e-05	8.2604e-05	691.11	214.04	7.4479e-05	8.1058e-05	256.6	98.628	80.138	33.66	7.6187e-05	46.283	121.088	6.350	20.285	-58.398	73.039	0.794	-59.456	-52.613	127.208	85.935	-54.419	-49.770	-47.702	-42.577	77.124	-45.574	-8191	255	
15414.307	1	1	0	0	0.13083	0.16081	0.33205	0.32765	0.01548	0.13451	0.15222	0.31356	0.19248	0.19796	0.23368	0.0078775	0.30209	0.23492	0.41305	0.16366	-2.3333	-2.8542	-2.5062	-2.9792	-2.8646	-2.4417	-2.9979	-2.7208	-2.8	-2.9521	-2.5292	-2.9146	-2.7167	-2.6479	-2.9479	-2.7271	166.872	135.061	148.606	172.225	98.645	191.926	268.324	274.167	-30.603	104.896	89.573	49.102	-61.188	14.952	107.837	-62.063	0.00017729	0.00044345	7.0761e-05	694.35	1.1168e-06	6.3426e-06	680.3	207.7	2.1035e-06	5.3701e-06	248.1	95.159	76.076	32.359	7.4389e-06	44.485	0.0041367	0.0073055	0.0020709	700.5	7.2089e-05	8.1598e-05	692.57	214.72	7.4787e-05	8.076e-05	258.29	99.025	80.372	33.735	7.6146e-05	46.434	147.894	-39.154	-35.838	-58.067	122.342	-23.403	-59.567	-52.724	128.309	88.686	-54.691	-49.924	-47.948	-42.768	113.558	-45.313	-8191	255	
15414.404	1	1	0	0	0.17034	0.066212	0.1742	0.3256	0.10493	0.27878	0.17894	0.2065	0.088652	0.058623	0.095162	0.37988	0.047233	0.24064	0.16179	0.29197	-2.2292	-2.9771	-2.3333	-2.9083	-2.8708	-2.5479	-2.8854	-2.6771	-2.6417	-3.0521	-2.7208	-2.8771	-2.6771	-2.6646	-3.0083	-2.9083	16.492	259.821	241.779	235.593	197.840	51.222	209.979	231.695	48.794	148.736	227.710	-69.124	252.724	-68.119	-50.477	197.272	0.00015631	0.00053055	0.00017105	693.9	1.5404e-06	6.8458e-06	682.56	209.34	4.9687e-06	2.0902e-06	249.9	95.55	76.368	32.767	3.8712e-06	44.849	0.0041183	0.0073063	0.0020563	702.86	7.1406e-05	8.1371e-05	696.17	215.56	7.3485e-05	8.044e-05	259.06	99.688	80.584	33.964	7.6892e-05	46.679	135.338	1.073	-23.648	-58.683	-64.284	147.322	-59.480	-52.686	70.977	253.463	-54.445	-49.530	-47.754	-42.529	63.191	-45.232	-8191	255	
15414.500	1	1	0	0	0.43955	0.099312	0.19427	0.32684	0.39095	0.08645	0.19491	0.031569	0.13563	0.11661	0.10334	0.084287	0.10452	0.27738	0.08135	0.079307	-2.1854	-2.9583	-2.5479	-2.8771	-2.8312	-2.5021	-3.0021	-2.825	-2.6771	-3.0542	-2.7583	-2.8937	-2.9979	-2.5479	-2.8146	-2.8042	156.753	199.997	57.177	-66.131	-50.665	121.709	261.027	188.371	279.647	112.098	-66.528	256.805	131.954	284.484	92.102	245.704	9.4601e-05	0.00040796	0.00014295	694.38	9.0759e-06	3.6927e-06	683.24	208.97	5.0759e-06	7.0258e-06	248.97	95.2	76.111	32.457	4.5783e-06	44.757	0.0041264	0.0073171	0.0020458	702.97	7.1136e-05	8.2079e-05	695.85	215.16	7.3149e-05	8.1422e-05	257.2	99.181	80.309	33.72	7.6301e-05	46.365	157.349	195.783	146.635	-58.313	34.820	81.675	-59.615	-52.857	135.958	48.924	-54.534	-49.912	-47.542	-42.636	7.694	-45.629	-8191	255	
15414.596	1	1	0	0	0.21263	0.26242	0.16687	0.32	0.090394	0.11843	0.059397	0.13214	0.13973	0.042893	0.19442	0.12333	0.19294	0.15008	0.23989	0.18555	-2.3312	-3.0833	-2.6396	-2.7104	-2.9271	-2.6042	-2.9854	-2.8521	-2.425	-2.8958	-2.6042	-2.8438	-3.0667	-2.5667	-2.8458	-2.8625	111.458	83.310	174.908	281.679	28.112	-41.904	270.311	224.164	134.385	287.489	248.570	254.677	-4.482	216.486	6.035	192.659	0.00016172	0.0004594	0.00014983	693.17	2.378e-06	7.9645e-06	679.99	209.47	4.6596e-06	6.4045e-06	247.74	94.912	76.276	32.292	4.8245e-06	44.363	0.0041025	0.0073251	0.0020746	701.73	7.1196e-05	8.2569e-05	692.87	215.16	7.2894e-05	8.0579e-05	258.12	99.05	80.339	33.731	7.648e-05	46.194	170.817	100.302	60.706	-58.496	117.391	73.505	-59.419	-52.611	75.122	37.747	-54.566	-49.640	-47.520	-42.599	145.009	-45.284	-8191	255	
15414.716	1	1	0	0	0.1053	0.13726	0.089706	0.073362	0.23006	0.076219	0.1132	0.22409	0.20811	0.32948	0.2102	0.20934	0.11737	0.067806	0.05068	0.086242	-2.0979	-2.9583	-2.8396	-2.8104	-3.1271	-2.6104	-2.8896	-2.9646	-2.6271	-3.0646	-2.7271	-2.7479	-3.2	-2.6896	-2.5833	-2.9417	127.776	-42.830	150.903	137.479	87.026	249.267	-46.240	102.049	186.645	189.447	177.313	275.672	-36.867	255.658	257.156	233.619	0.00016294	0.00075525	0.00017894	698.46	4.4641e-07	1.1296e-05	680.63	211.23	1.1163e-06	7.7842e-06	249.67	95.454	76.63	32.541	3.7203e-06	44.991	0.0041298	0.0072915	0.002034	703.35	7.0822e-05	8.1506e-05	691.75	215.57	7.0801e-05	7.8854e-05	258.53	99.257	80.467	33.81	7.2969e-05	46.529	142.847	-1.568	25.962	-58.511	21.854	33.999	-59.639	-52.693	-23.298	101.933	-54.000	-50.036	-47.504	-42.478	62.766	-45.431	-8191	255	
15414.813	1	1	0	0	0.16166	0.080192	0.37027	0.30235	0.19904	0.064121	0.20553	0.16332	0.12805	0.23329	0.12577	0.2326	0.29226	0.20812	0.15929	0.13397	-2.1208	-2.9042	-2.8333	-2.6542	-2.9396	-2.4667	-2.7896	-3.1312	-2.6833	-2.9375	-2.9458	-2.5417	-3.0667	-2.7208	-2.8187	-3.0583	-33.957	288.500	117.817	-2.790	-64.299	53.074	184.767	191.908	224.152	263.379	233.857	220.095	-55.736	-7.531	230.605	136.412	0.00014596	0.00029998	0.00020741	700.1	3.4275e-06	5.4415e-06	685.43	211.8	5.0942e-06	1.0783e-05	252.19	95.578	77.251	32.384	2.773e-06	45.094	0.0039452	0.0069914	0.0019834	703.97	6.9346e-05	7.9267e-05	696.71	217.1	7.0233e-05	7.8001e-05	259.98	99.513	80.918	33.857	7.3431e-05	46.612	156.666	89.906	-31.161	-58.619	99.223	-64.458	-59.477	-52.716	47.278	70.743	-54.434	-49.718	-47.591	-42.516	16.996	-45.542	-8191	255	
15414.909	1	1	0	0	0.19037	0.18541	0.13202	0.18366	0.16232	0.13081	0.23304	0.11897	0.065264	0.23423	0.08389	0.3048	0.06437	0.26905	0.15623	0.20859	-1.9083	-2.7479	-2.8292	-2.4813	-2.975	-2.8021	-2.7938	-3.0396	-2.5667	-2.7729	-2.9583	-2.3563	-2.9458	-2.6604	-2.5375	-3.1937	216.104	191.911	-61.281	245.303	-2.481	240.791	186.464	244.945	108.108	31.283	-37.602	-60.319	168.987	130.240	87.346	-45.458	9.4092e-05	0.00064646	2.1683e-05	700.75	5.5751e-06	1.1576e-05	685.56	210.9	9.5133e-06	4.3363e-06	249.1	95.425	75.902	32.558	3.2688e-06	44.754	0.0039782	0.0070021	0.00197	705.46	6.9407e-05	8.0283e-05	696.72	216.13	6.996e-05	7.9239e-05	257.83	99.107	80.187	33.739	7.2304e-05	46.312	148.099	39.443	271.042	-58.318	120.166	70.662	-59.678	-52.685	73.443	245.435	-54.484	-49.750	-47.567	-42.587	69.773	-45.649	-8191	255	
15415.005	1	1	0	0	0.079008	0.16947	0.19321	0.1387	0.29589	0.090322	0.19414	0.097582	0.18622	0.21402	0.14816	0.31597	0.29956	0.025743	0.21336	0.12685	-2.2042	-2.7062	-2.8729	-2.5083	-2.8438	-2.8021	-2.7104	-2.9375	-2.6292	-2.8042	-3.0083	-2.5292	-2.9208	-2.8583	-2.6625	-2.9833	-24.156	108.289	279.788	203.188	48.594	249.998	216.400	247.154	272.278	77.935	164.060	158.047	276.931	227.898	133.094	274.558	0.00012874	0.00045213	8.3408e-05	698.2	1.6333e-06	2.2493e-06	681.18	210.31	2.2466e-06	5.6347e-06	248.51	94.597	76.763	32.441	4.3272e-06	44.536	0.0039927	0.0070568	0.0019653	703.06	6.8919e-05	8.0497e-05	692.49	215.28	7.1123e-05	7.8576e-05	256.45	98.669	80.434	33.688	7.1997e-05	46.148	182.246	-12.920	-12.097	-58.657	74.518	8.879	-59.746	-52.260	93.936	89.810	-54.440	-49.307	-47.493	-42.762	42.959	-45.485	-8191	255	
15415.099	1	1	0	0	0.13681	0.041978	0.11138	0.20047	0.10095	0.19593	0.20146	0.19965	0.20973	0.048769	0.10031	0.22465	0.16703	0.1614	0.29981	0.23376	-2.1229	-2.6354	-2.9417	-2.6792	-2.7562	-2.9708	-2.7125	-3.1104	-2.6604	-2.5875	-3.0187	-2.6708	-2.9813	-2.9229	-2.6417	-3.1312	152.744	263.444	113.357	188.360	116.478	262.293	206.710	81.615	-18.453	-43.794	115.802	58.779	259.579	273.364	-7.962	-3.941	0.00012442	0.00062284	0.00011656	697.84	4.4658e-06	1.1889e-05	681.24	208.67	1.5973e-06	5.2935e-06	247.33	95.086	76.127	32.317	8.42e-06	44.347	0.0039413	0.0068811	0.0019082	702.21	6.7774e-05	7.6859e-05	690.81	213.71	6.8546e-05	7.614e-05	254.73	98.581	79.968	33.548	6.9272e-05	45.966	168.861	-39.337	107.254	-58.527	144.843	19.714	-59.550	-52.395	64.805	288.842	-54.878	-49.536	-47.641	-42.813	96.508	-44.966	-8191	255	
15415.197	1	1	0	0	0.11382	0.37906	0.19854	0.16358	0.28206	0.14271	0.10107	0.24067	0.11303	0.12037	0.33778	0.15839	0.27237	0.23273	0.039475	0.10511	-2.2646	-2.6833	-2.9437	-2.5667	-2.9938	-3.0563	-2.5708	-3.0687	-2.6604	-2.7042	-3.0187	-2.6896	-2.9208	-3.2104	-2.4625	-2.9208	170.577	211.982	154.927	185.744	7.142	-60.607	-61.705	-19.498	-11.305	40.155	-62.814	-51.923	146.303	166.586	141.222	215.562	9.7794e-05	0.00074495	7.9683e-05	697.8	1.2785e-06	7.4313e-06	679.35	207.43	1.0412e-06	1.6782e-06	246.78	94.728	75.416	32.405	6.8071e-06	44.562	0.0038314	0.0066546	0.0018784	700.96	6.6964e-05	7.5086e-05	689.99	212.93	6.7539e-05	7.4575e-05	254.34	98.175	79.441	33.513	6.9494e-05	46.021	184.721	23.227	261.905	-58.635	142.931	72.172	-59.563	-52.318	64.422	151.876	-54.547	-49.935	-47.398	-42.582	141.203	-45.500	-8191	255	
15415.316	1	1	0	0	0.1564	0.14994	0.34536	0.20784	0.13922	0.10558	0.13574	0.064354	0.061437	0.044752	0.16698	0.28597	0.059411	0.12598	0.072688	0.17425	-2.125	-2.6562	-3.0417	-2.6521	-2.7938	-2.8146	-2.4958	-3.0021	-2.9021	-2.5438	-3.0771	-2.6604	-2.8792	-2.9917	-2.4417	-2.8542	122.295	33.388	55.188	268.760	88.632	-43.212	287.297	202.701	131.906	228.914	234.039	42.641	207.876	283.341	-37.900	232.176	8.6402e-05	0.00025287	0.00024515	692.16	4.402e-06	4.6711e-06	676.46	207.47	2.6417e-06	8.5835e-06	247	94.303	75.855	32.071	3.844e-06	44.143	0.0037944	0.0065775	0.0018578	698.65	6.5921e-05	7.3252e-05	687.43	212.66	6.6636e-05	7.3915e-05	254.26	97.789	79.38	33.355	6.8855e-05	45.614	196.185	262.823	44.790	-58.634	105.733	141.668	-59.530	-52.611	97.932	101.073	-54.295	-49.707	-47.298	-42.683	28.759	-45.633	-8191	255	
15415.412	1	1	0	0	0.11435	0.20398	0.14121	0.19238	0.26578	0.12524	0.17242	0.1431	0.020374	0.022733	0.08449	0.20943	0.13992	0.29906	0.058772	0.072677	-2.3583	-2.5292	-3.1271	-2.7708	-2.6646	-3	-2.5396	-2.9083	-2.7687	-2.6979	-3.0687	-2.6958	-2.9437	-2.9708	-2.3917	-2.8271	198.050	26.324	89.112	37.294	-48.925	180.650	236.678	193.368	168.893	138.277	101.178	182.597	-37.945	128.710	56.540	63.467	0.00011266	0.00055753	9.7392e-05	695.74	4.9985e-06	7.266e-06	678.45	206.9	3.1968e-06	3.406e-06	245.24	93.295	76.137	32.152	4.6942e-06	43.927	0.0036995	0.0064627	0.001828	697.81	6.3977e-05	7.2058e-05	685.93	211.9	6.5702e-05	7.1931e-05	252.58	97.052	79.271	33.303	6.696e-05	45.388	182.543	-9.876	63.312	-58.541	68.272	61.117	-59.351	-52.497	109.718	186.547	-54.536	-49.687	-47.414	-42.640	47.933	-45.192	-8191	255	
15415.484	1	1	0	0	0.37102	0.12352	0.08785	0.17044	0.13381	0.16679	0.14326	0.19592	0.24132	0.29971	0.11405	0.060351	0.096378	0.1347	0.1163	0.16542	-2.4146	-2.4188	-2.7687	-2.625	-2.425	-2.9625	-2.625	-2.7021	-2.9813	-2.4333	-3.0354	-2.6583	-2.6521	-3.0521	-2.6917	-2.7833	24.664	254.784	255.383	-2.968	102.164	119.268	218.188	-53.974	122.165	173.207	208.090	30.052	-16.427	-42.722	197.503	53.817	8.197e-05	0.00071313	8.6975e-05	689.84	1.8803e-06	3.2264e-06	676.63	206.58	4.5279e-06	6.6974e-06	244.95	94.528	75.397	32.187	4.3145e-06	44.258	0.0036224	0.0063975	0.0017979	695.25	6.2871e-05	7.1201e-05	683.98	210.98	6.506e-05	7.2178e-05	251.38	97.904	79.465	33.361	6.7782e-05	45.637	138.879	-16.774	-33.674	-58.565	5.486	73.445	-59.470	-52.657	141.080	17.581	-54.957	-49.901	-47.759	-42.852	14.287	-45.579	-8191	255	
15415.605	1	1	0	0	0.19288	0.061148	0.093772	0.078242	0.16991	0.1171	0.086571	0.13441	0.055319	0.20694	0.081203	0.19883	0.23522	0.18724	0.14085	0.14904	-2.4521	-2.5042	-2.9417	-2.7958	-2.5812	-3.0062	-2.6042	-2.8542	-3.0021	-2.6479	-2.9562	-2.9479	-2.5583	-2.9542	-2.5938	-2.8375	177.664	-19.234	114.540	-10.838	128.179	17.844	2.712	109.340	285.626	259.844	237.884	-26.719	29.556	135.199	257.570	120.635	9.649e-05	0.00012062	0.00010355	693.16	3.1254e-06	2.9192e-06	669.66	206	6.5045e-06	1.5012e-06	243.03	93.9	75.747	32.175	3.5701e-06	44.279	0.0036999	0.0066039	0.0018491	695.58	6.5337e-05	7.4048e-05	682.39	210.72	6.7685e-05	7.5454e-05	251.81	97.511	79.437	33.342	7.2007e-05	45.765	161.324	-29.571	211.410	-58.539	146.934	21.063	-59.448	-52.721	25.865	177.702	-54.117	-49.588	-47.444	-42.437	125.152	-45.059	-8191	255	
15415.701	1	1	0	0	0.11431	0.11961	0.41041	0.043452	0.32486	0.078455	0.15259	0.22187	0.18883	0.1648	0.076548	0.19252	0.10807	0.12947	0.15621	0.33728	-2.475	-2.4188	-2.8333	-3.0938	-2.6333	-2.9708	-2.8187	-2.8042	-3.0542	-2.4854	-2.8812	-3.0062	-2.5917	-3.0229	-2.6437	-2.6958	161.211	13.760	154.139	131.904	56.994	276.311	267.050	-26.555	151.175	31.898	113.907	256.967	21.490	-21.489	260.370	-60.484	0.00013324	0.0004622	0.00010573	691.62	2.1609e-06	6.2314e-06	676.93	206.89	5.0152e-06	2.4829e-06	243.61	94.368	75.923	32.356	1.3555e-06	44.27	0.0037788	0.0068055	0.0019247	697.54	6.6799e-05	7.6574e-05	685.88	211.69	6.8528e-05	7.605e-05	252.53	97.684	79.486	33.476	7.1285e-05	45.658	164.355	46.368	124.564	-58.707	164.306	134.428	-59.473	-52.628	230.605	52.956	-54.295	-49.926	-47.693	-42.276	103.684	-45.255	-8191	255	
15415.797	1	1	0	0	0.24915	0.20332	0.25201	0.23411	0.32284	0.22604	0.29202	0.048288	0.15269	0.056034	0.055285	0.08769	0.14394	0.13629	0.15052	0.29299	-2.7021	-2.5521	-2.8354	-2.9958	-2.6021	-2.9583	-2.7833	-2.6104	-3.2333	-2.6125	-2.8292	-3.0083	-2.6583	-2.8812	-2.9062	-2.6229	148.411	243.027	-17.930	285.314	126.315	53.624	144.324	255.488	139.858	88.458	-43.776	108.469	221.439	-68.508	277.160	-54.488	0.00021056	0.00045279	6.903e-05	692.71	1.9038e-06	4.3769e-06	674.52	207.46	1.8678e-06	8.498e-06	244.38	93.47	76.044	32.24	5.8056e-06	44.041	0.0038132	0.0068041	0.0018864	696.82	6.6374e-05	7.6508e-05	683.92	212.11	6.894e-05	7.6106e-05	253.09	97.373	79.585	33.404	7.1665e-05	45.556	173.088	53.131	98.339	-58.343	125.735	54.991	-59.590	-52.466	124.036	52.261	-54.539	-49.966	-47.914	-42.710	63.356	-45.256	-8191	255	
15415.893	1	1	0	0	0.085322	0.19142	0.14331	0.23683	0.38168	0.32355	0.35735	0.25232	0.084318	0.19072	0.079963	0.042173	0.15025	0.25284	0.15296	0.11462	-2.6646	-2.4396	-2.8271	-3.0375	-2.5458	-2.9042	-2.8625	-2.6375	-2.8833	-2.7771	-2.8646	-3.1292	-2.6146	-2.8812	-2.7708	-2.5458	-53.534	251.014	183.882	264.602	178.107	-4.588	241.663	259.778	-44.961	150.436	67.886	-36.559	263.205	281.919	-22.760	267.822	0.00012353	0.00032743	0.00013277	691.65	2.3162e-06	2.9572e-06	677.11	208.48	5.0514e-06	3.8181e-06	246.19	93.936	75.418	32.298	2.348e-06	44.258	0.0038616	0.006855	0.0019028	697.78	6.6914e-05	7.697e-05	687.25	212.83	6.8651e-05	7.6179e-05	254.18	97.805	79.515	33.525	7.1292e-05	45.857	162.063	22.569	8.128	-58.525	184.078	-7.611	-59.569	-52.451	147.184	-6.146	-54.312	-49.685	-47.493	-42.777	164.604	-45.753	-8191	255	
15416.012	1	1	0	0	0.052248	0.12273	0.34394	0.036123	0.30602	0.20268	0.21705	0.17818	0.12881	0.082423	0.21947	0.18644	0.1626	0.19554	0.03763	0.057714	-2.5812	-2.7229	-2.6708	-3.2729	-2.5563	-2.7125	-2.9437	-2.4479	-3.075	-2.7812	-2.5542	-3.1	-2.6417	-2.9875	-3.2188	-2.7125	15.588	45.136	281.922	-1.174	246.525	258.585	-21.526	184.489	-58.601	160.468	109.963	278.152	-14.814	235.992	224.681	-52.467	5.4652e-05	0.00058146	0.00011349	692.98	6.656e-06	8.0445e-06	680.36	208.67	9.3729e-07	7.3565e-06	248.07	94.715	76.387	32.471	1.1022e-05	44.921	0.0038501	0.006817	0.001897	699.32	6.6627e-05	7.7594e-05	689.71	213.97	6.9196e-05	7.6886e-05	255.32	98.521	80.341	33.726	7.2003e-05	46.21	151.543	196.337	1.339	-58.703	92.238	4.958	-59.609	-52.667	-3.112	87.235	-54.339	-49.696	-47.599	-42.661	103.925	-45.513	-8191	255	
15416.085	1	1	0	0	0.1264	0.031466	0.14668	0.22405	0.17087	0.14321	0.23876	0.13442	0.18821	0.11757	0.24354	0.11155	0.07892	0.35155	0.32148	0.14432	-2.5646	-2.775	-2.4125	-3.0979	-2.5312	-2.7271	-2.9917	-2.6625	-3.0104	-3.0312	-2.5187	-3.1896	-2.6979	-2.8438	-3.1646	-2.6792	86.829	248.764	289.045	244.819	74.874	282.942	234.714	234.785	172.390	-41.332	-63.816	2.129	-51.637	261.364	274.657	75.054	0.00010452	0.0005753	0.000159	697.82	8.0998e-06	5.0983e-06	684.41	210.07	3.2848e-06	7.3517e-06	248.44	95.12	76.547	32.609	1.4202e-06	44.495	0.003905	0.0067668	0.0019097	702.96	6.7333e-05	7.703e-05	693.58	214.99	7.0101e-05	7.6924e-05	256.4	98.826	80.397	33.841	7.1374e-05	46.092	142.708	162.650	-33.101	-58.400	157.375	65.637	-59.669	-52.508	178.892	110.829	-54.711	-49.707	-47.663	-42.657	147.330	-45.349	-8191	255	
15416.180	1	1	0	0	0.20185	0.094156	0.17417	0.25824	0.14117	0.20892	0.094098	0.17389	0.25377	0.37683	0.28949	0.15488	0.21695	0.29954	0.11327	0.12288	-2.3187	-3.0146	-2.6688	-3.1042	-2.6583	-2.8083	-3.1937	-2.7687	-2.9354	-2.9979	-2.5354	-3.0875	-2.7521	-2.7125	-3.1979	-2.7708	71.285	231.645	72.970	-68.973	73.450	-68.186	280.234	176.688	96.307	80.660	-15.963	272.354	222.151	-35.926	168.237	227.186	0.00012953	0.00041091	0.00023611	696.27	5.4905e-06	7.7289e-06	674.2	208.55	4.7925e-06	7.2461e-06	246.28	94.127	75.821	32.688	4.5386e-06	44.497	0.0039362	0.0069192	0.001949	701.92	6.9379e-05	7.8824e-05	687.66	213.76	7.0839e-05	7.8187e-05	254.53	98.277	80.39	33.846	7.3383e-05	46.114	133.609	-18.907	38.559	-58.546	44.718	104.777	-59.707	-52.502	203.087	132.701	-54.327	-49.501	-47.422	-42.567	143.240	-45.450	-8191	255	
15416.278	1	1	0	0	0.047827	0.068556	0.21501	0.26526	0.12435	0.27606	0.084312	0.16279	0.095731	0.051686	0.081337	0.16663	0.25801	0.15944	0.032983	0.028187	-2.5375	-2.8979	-2.5417	-2.9958	-2.7083	-2.7188	-3.1896	-2.5979	-2.8979	-2.925	-2.6208	-2.975	-2.6896	-2.6813	-3.1354	-2.7021	126.445	271.092	99.210	-56.541	267.907	0.674	229.488	262.182	110.141	190.743	286.711	71.896	245.362	7.300	-14.718	107.102	0.00014046	0.00030625	0.0001423	694.15	3.3167e-07	5.7153e-06	677.38	208.7	2.1364e-06	4.5995e-06	245	93.86	76.49	32.703	2.4466e-06	44.421	0.0040302	0.0070009	0.0019705	700.8	6.9524e-05	8.0375e-05	688.83	214.22	7.1366e-05	7.9594e-05	254.91	98.255	80.516	33.919	7.4719e-05	46.153	173.944	79.107	176.983	-58.554	135.510	85.070	-59.139	-52.577	125.038	25.680	-54.264	-49.765	-47.590	-42.723	194.668	-45.403	-8191	255	
15416.396	1	1	0	0	0.40322	0.12862	0.060754	0.03315	0.1217	0.066521	0.14827	0.14552	0.0041737	0.2239	0.20704	0.15786	0.18433	0.034755	0.029658	0.27244	-2.2917	-3.1167	-2.7104	-3.0292	-2.9562	-2.5875	-3.0604	-2.7625	-2.8812	-2.9354	-2.6896	-3.2521	-2.9833	-2.5271	-3.1937	-2.8688	213.603	-8.603	-16.015	128.671	25.443	244.028	84.363	122.234	150.490	94.850	281.858	282.808	162.981	240.126	203.787	226.860	0.00013933	0.00055793	0.00012972	696.99	6.3253e-06	9.2843e-06	683.63	208.9	4.7266e-06	5.1204e-06	249.01	95.076	76.861	32.742	7.0603e-06	45.11	0.0040596	0.0071178	0.0020333	703.57	7.1588e-05	8.1229e-05	694.28	214.78	7.3837e-05	8.1322e-05	256.52	99.323	81.056	34.123	7.5209e-05	46.564	163.496	87.344	45.270	-58.348	104.604	93.192	-59.432	-52.656	180.535	130.116	-54.345	-49.571	-47.660	-42.591	92.422	-45.289	-8191	255	
15416.493	1	1	0	0	0.23778	0.27158	0.18819	0.35976	0.1221	0.057747	0.16733	0.07939	0.15843	0.046729	0.23147	0.084106	0.28502	0.10177	0.20302	0.39742	-2.1708	-3.0042	-2.4604	-2.7729	-3.1208	-2.4146	-3.0875	-2.9437	-2.7146	-3.2188	-2.7875	-2.8875	-3.0625	-2.4062	-2.9833	-2.9146	24.888	-10.239	95.645	281.978	153.788	248.347	255.610	275.470	287.211	2.446	196.676	9.596	-55.683	97.707	75.741	269.751	0.00018528	0.00050932	0.00010675	699.33	2.6594e-06	1.0419e-05	681.01	209.88	1.7814e-06	4.4401e-06	248.41	95.305	76.539	32.799	8.434e-06	44.921	0.0041429	0.0071907	0.0020575	705.9	7.2043e-05	8.1311e-05	694.94	215.92	7.2406e-05	8.0596e-05	257.48	99.279	80.861	34.132	7.5305e-05	46.487	132.078	62.777	286.103	-58.500	17.769	54.785	-59.547	-52.660	27.943	116.327	-54.532	-49.910	-47.520	-42.818	148.192	-45.698	-8191	255	
15416.589	1	1	0	0	0.28983	0.23916	0.2282	0.18697	0.045692	0.17892	0.11562	0.14812	0.2042	0.24158	0.07718	0.20599	0.22243	0.18067	0.14818	0.21294	-2.3937	-2.9667	-2.7562	-2.8771	-3.0208	-2.5062	-3.0229	-2.9542	-2.5146	-3.1917	-2.8208	-2.8479	-3.1188	-2.7167	-2.775	-2.9583	8.826	-57.395	40.913	196.513	47.405	123.679	-31.471	4.228	49.247	-32.124	261.566	-67.450	286.797	-67.880	146.997	200.629	0.00011115	0.0013828	0.00011937	696.69	7.4951e-07	8.8854e-06	677.69	209.52	2.0446e-06	8.3582e-06	248.38	94.923	76.778	32.856	3.1215e-06	44.727	0.0040537	0.0071639	0.002038	701.11	7.0775e-05	8.0244e-05	689.83	215.03	7.2017e-05	8.0428e-05	256.71	98.968	80.891	34.178	7.5643e-05	46.435	147.403	-6.751	135.620	-58.360	205.304	44.068	-59.481	-52.241	-15.023	39.371	-54.243	-49.831	-47.539	-42.683	-57.451	-45.190	-8191	255	
15416.709	1	1	0	0	0.15451	0.061469	0.17417	0.12404	0.094843	0.044752	0.12826	0.1218	0.1991	0.18854	0.25222	0.19237	0.13771	0.14728	0.036636	0.087171	-2.05	-2.9958	-2.8229	-2.8354	-2.9333	-2.5542	-2.9583	-2.9583	-2.5208	-3.1271	-2.8438	-2.6937	-3.2458	-2.6854	-2.7458	-3.0479	-58.709	254.144	228.593	236.230	181.846	-57.187	16.638	161.287	-27.775	247.744	196.331	36.009	286.537	35.003	-28.378	221.746	0.00015747	0.00080868	2.1406e-05	695.48	4.2017e-06	7.2594e-06	681.61	210.18	1.2407e-06	1.7868e-06	247.68	95.196	76.704	32.877	4.88e-06	45.175	0.0041172	0.0072976	0.0020554	703.28	7.123e-05	8.127e-05	692.05	215.35	7.2788e-05	8.1148e-05	256.18	99.226	81.13	34.215	7.6209e-05	46.517	178.958	41.888	-67.663	-58.594	155.815	27.298	-59.452	-52.582	124.159	52.565	-54.159	-49.839	-47.811	-42.753	81.239	-45.574	-8191	255	
15416.781	1	1	0	0	0.35143	0.12354	0.097966	0.099005	0.18295	0.13031	0.032192	0.27836	0.14931	0.21822	0.21086	0.26311	0.10684	0.27927	0.17989	0.26914	-1.8396	-2.9875	-2.5667	-2.6708	-3.0667	-2.5771	-3.0083	-3.0354	-2.6042	-2.9667	-2.7729	-2.5625	-3.1896	-2.7875	-2.7396	-3.1354	-57.985	214.354	-22.586	159.078	-18.480	-17.973	201.113	234.875	-5.471	77.196	218.975	-67.772	250.121	145.173	122.826	107.856	0.0001752	0.00053444	0.00013689	694.81	8.5315e-06	4.4189e-06	680.33	208.95	4.1727e-06	1.2344e-05	247.75	95.523	76.808	33.02	1.1853e-05	45.044	0.0041232	0.0073973	0.0020943	702.76	7.2533e-05	8.2042e-05	691.11	214.77	7.4246e-05	8.14e-05	256.86	99.512	81.21	34.343	7.6133e-05	46.685	145.758	287.637	28.060	-58.430	115.687	104.570	-59.607	-52.536	35.491	76.776	-54.300	-49.479	-47.469	-42.837	60.341	-45.625	-8191	255	
15416.877	1	1	0	0	0.15024	0.066675	0.11148	0.07236	0.18869	0.13685	0.33139	0.10089	0.23696	0.1488	0.24797	0.15007	0.085052	0.092153	0.0076917	0.08649	-2.0646	-2.9146	-2.8646	-2.6958	-3.1083	-2.8521	-2.7208	-3.15	-2.6583	-2.9292	-2.9542	-2.7313	-3.175	-2.7917	-2.6646	-2.9479	201.627	216.331	8.712	68.929	163.948	-27.075	183.434	259.535	272.670	148.326	208.930	271.157	124.453	210.965	-69.167	248.314	0.00016634	0.00027068	0.00022007	695.73	4.4449e-06	5.2751e-06	680.81	210.16	6.646e-06	2.0459e-06	248.6	95.308	77.32	32.765	4.9782e-07	45.317	0.0041547	0.0073766	0.0020522	702.79	7.2021e-05	8.2958e-05	692.86	215.36	7.3714e-05	8.0757e-05	256.7	99.506	81.428	34.274	7.4071e-05	46.556	153.259	58.206	14.208	-58.455	133.837	16.106	-59.432	-52.754	118.453	46.898	-54.515	-49.786	-47.571	-42.529	276.422	-45.499	-8191	255	
15416.998	1	1	0	0	0.12321	0.15644	0.09776	0.036062	0.091194	0.29198	0.1706	0.33576	0.23399	0.30365	0.15549	0.19755	0.13542	0.18173	0.24649	0.027948	-2.1437	-2.8604	-2.7979	-2.6188	-2.8812	-2.8604	-2.7646	-3.1333	-2.4604	-2.775	-3.0917	-2.6437	-3.0167	-2.9354	-2.5646	-3.0875	-26.985	128.484	278.964	196.035	146.470	204.305	40.221	256.042	210.040	34.293	-66.688	99.876	203.466	144.660	62.009	196.294	0.00014799	0.00057566	0.00024395	696.34	2.7461e-06	4.2808e-06	679.87	208.28	1.6879e-06	5.7486e-06	249.15	94.856	76.828	32.78	1.7907e-06	44.666	0.0039896	0.0071402	0.0019721	701.82	6.9829e-05	7.9871e-05	689.27	214.38	7.1088e-05	7.7848e-05	256.1	98.698	80.798	34.074	7.1846e-05	46.305	183.920	15.478	12.304	-58.571	173.406	93.936	-59.463	-52.838	95.894	119.746	-54.174	-49.995	-47.015	-43.020	-14.538	-45.642	-8191	255	
15417.092	1	1	0	0	0.1911	0.10005	0.23903	0.103	0.11591	0.26534	0.21739	0.17965	0.28575	0.070397	0.16008	0.3791	0.053803	0.21071	0.17626	0.30359	-2.1625	-2.9396	-3.0104	-2.6021	-2.9313	-2.8688	-2.5375	-3.2188	-2.6729	-2.7	-3.0563	-2.5521	-3.0187	-2.8875	-2.5917	-3.2333	154.712	276.070	203.913	268.182	197.773	58.001	228.860	237.649	201.448	66.141	283.460	287.464	214.257	282.555	186.256	236.242	9.994e-05	0.00019433	8.769e-05	699.54	2.7951e-06	5.1064e-06	681.09	211.72	1.3494e-06	8.3281e-06	248.78	94.733	77.069	32.967	9.3242e-06	44.855	0.0039165	0.0070133	0.0019026	702.35	6.6745e-05	7.7212e-05	690.15	215.67	6.8859e-05	7.5828e-05	256.62	98.913	81.004	34.193	7.0971e-05	46.39	167.818	33.874	-16.604	-58.706	126.668	11.620	-59.368	-52.681	79.432	134.400	-54.186	-49.729	-47.431	-42.562	31.696	-45.695	-8191	255	
15417.188	1	1	0	0	0.24518	0.26016	0.33348	0.15888	0.17601	0.078012	0.10285	0.24636	0.13483	0.32699	0.32288	0.047834	0.13995	0.14826	0.23805	0.080414	-2.1875	-2.6146	-3.0917	-2.6833	-2.7333	-2.9271	-2.6354	-3.2104	-2.8729	-2.775	-3.0271	-2.5167	-2.8125	-2.8292	-2.525	-3.1875	87.775	-42.387	167.910	114.277	231.980	4.704	233.146	150.043	80.488	125.372	195.867	-28.741	171.902	276.467	-12.457	-44.677	6.205e-05	0.00026959	0.00023481	697.35	7.4148e-07	8.6979e-06	683.8	212.21	2.5943e-06	3.4537e-06	249.01	95.494	77.116	33.206	7.208e-06	45.057	0.0039042	0.0069594	0.0019263	704.71	6.8243e-05	7.7692e-05	693.4	216.42	7.0666e-05	7.6341e-05	257.52	99.197	81.337	34.317	7.2596e-05	46.669	132.745	-13.267	44.809	-58.425	27.445	131.530	-59.100	-52.391	284.281	183.648	-54.284	-49.746	-47.434	-42.582	26.702	-45.765	-8191	255	
15417.309	1	1	0	0	0.10362	0.22578	0.10005	0.15824	0.24009	0.069652	0.29459	0.42204	0.072228	0.1673	0.29458	0.30342	0.18371	0.37501	0.17077	0.16473	-2.2958	-2.4813	-3.2667	-2.6333	-2.9208	-3.1667	-2.4771	-3.1479	-2.7896	-2.6	-2.8667	-2.6312	-2.9354	-3.0312	-2.5917	-2.9854	206.220	56.265	216.622	38.414	8.508	64.425	211.879	227.288	262.488	206.607	-64.194	257.388	142.812	238.721	119.779	38.538	0.00019259	0.00048609	0.00015336	701.87	3.628e-06	1.162e-05	689.29	212.61	4.5447e-06	1.0832e-06	249.53	96.156	77.268	33.161	9.3953e-07	44.572	0.0039612	0.0069576	0.0019176	707	6.8628e-05	7.7784e-05	695.08	217.39	6.9338e-05	7.5519e-05	258.45	99.562	81.306	34.198	7.0721e-05	46.396	152.049	40.975	71.378	-58.458	169.284	51.993	-59.328	-52.395	-31.993	61.130	-54.569	-49.671	-47.754	-42.646	220.198	-45.201	-8191	255	
15417.381	1	1	0	0	0.15067	0.27974	0.092444	0.12188	0.19771	0.049561	0.31424	0.06938	0.30005	0.26914	0.22648	0.05038	0.24007	0.044745	0.053595	0.23098	-2.3354	-2.5417	-2.95	-2.7062	-2.9125	-2.9354	-2.5458	-3.1229	-2.8854	-2.5042	-3.1375	-2.7354	-2.8083	-3.0646	-2.6167	-3	110.707	-53.150	208.773	92.119	273.987	16.534	226.585	235.300	73.080	-11.380	-46.656	191.370	-26.457	69.804	25.898	190.015	0.00020956	0.00048941	0.00010929	700.61	2.9879e-06	1.5564e-06	680.77	211.42	3.1003e-06	1.1768e-05	249.71	95.335	76.666	32.918	2.9285e-06	44.77	0.0038748	0.0068607	0.0019081	705.31	6.7002e-05	7.6952e-05	693.01	216.71	6.922e-05	7.5458e-05	257.28	98.799	80.866	34.041	7.1622e-05	46.258	178.784	57.677	91.634	-58.362	107.489	-2.282	-59.485	-52.573	-37.960	119.267	-54.329	-49.768	-47.517	-42.429	-44.933	-45.549	-8191	255	
15417.477	1	1	0	0	0.11197	0.041838	0.16334	0.11629	0.20312	0.17342	0.26531	0.43352	0.14438	0.01282	0.091459	0.11155	0.17088	0.25157	0.20348	0.17255	-2.475	-2.5604	-2.9083	-2.8812	-2.6896	-3.1021	-2.5687	-2.7708	-3.0354	-2.7979	-3.0187	-2.875	-2.9938	-3.1063	-2.7	-3.0917	132.489	265.324	189.738	35.438	203.537	41.816	199.203	141.089	56.511	35.444	174.703	-65.709	237.660	211.798	-59.311	177.531	0.00015683	0.00097343	0.00013207	702.14	7.6122e-06	6.6528e-07	685.05	212.37	6.8792e-06	3.1498e-06	248.97	95.633	77.391	33.015	4.4131e-06	44.893	0.0038584	0.0067511	0.0019125	705.7	6.6633e-05	7.6036e-05	695.38	217.13	6.7245e-05	7.5018e-05	258.52	99.433	81.255	34.319	7.1728e-05	46.515	178.025	-11.638	36.384	-58.638	124.491	59.091	-59.629	-52.483	70.194	35.444	-54.368	-49.371	-47.563	-42.585	88.363	-45.468	-8191	255	
15417.573	1	1	0	0	0.24258	0.086498	0.19467	0.21839	0.14304	0.19806	0.098603	0.26342	0.20671	0.054811	0.10646	0.31953	0.044613	0.092852	0.1708	0.19768	-2.4062	-2.5167	-3.1042	-2.9479	-2.6458	-2.9562	-2.7	-2.8583	-3.0333	-2.6354	-2.9417	-2.8042	-2.6271	-2.925	-2.8187	-3.0542	40.305	175.298	31.525	232.701	257.145	147.356	268.479	218.269	187.410	32.745	135.844	203.265	-23.299	-4.046	265.820	-22.640	0.00016515	0.00010795	0.00012097	700.15	5.3133e-06	4.5726e-06	691.95	214.65	2.1303e-06	2.4942e-06	251.98	95.887	77.389	33.189	4.6733e-06	45.194	0.0038765	0.0068253	0.0019281	705.18	6.7235e-05	7.699e-05	697.4	218.42	6.7597e-05	7.6187e-05	259.84	99.728	81.46	34.403	7.2011e-05	46.731	159.896	185.612	248.947	-58.680	155.505	37.074	-59.467	-52.510	107.955	262.541	-54.177	-49.990	-47.311	-42.240	70.377	-45.086	-8191	255	
15417.669	1	1	0	0	0.11885	0.21212	0.066063	0.27101	0.24928	0.19505	0.054266	0.098649	0.19516	0.27274	0.15167	0.052234	0.19715	0.10283	0.16303	0.33602	-2.3688	-2.5875	-2.7979	-3.1104	-2.6437	-3.075	-2.8187	-2.7896	-3.0812	-2.6063	-3.0625	-2.8979	-2.6833	-3.0271	-2.7708	-2.7896	143.310	-40.931	23.697	218.146	14.995	-5.523	152.862	-26.112	267.091	131.982	-58.749	-47.561	-29.922	-1.301	136.470	-11.214	0.0001695	0.00067821	0.00016087	701.9	1.6276e-06	4.8939e-06	687.5	211.93	1.051e-06	4.0533e-06	253.47	96.36	77.486	33.048	3.8524e-06	45.086	0.0038648	0.0067624	0.0019401	706.35	6.7263e-05	7.6677e-05	699.21	217.99	6.7292e-05	7.5633e-05	260.74	99.83	81.473	34.34	7.1459e-05	46.498	163.896	76.612	40.413	-58.590	203.736	176.937	-59.584	-52.606	76.487	-8.883	-54.160	-49.832	-47.323	-42.453	37.262	-45.504	-8191	255	
15417.790	1	1	0	0	0.10735	0.13927	0.19369	0.074715	0.21631	0.090136	0.087811	0.21464	0.15531	0.12241	0.12079	0.2699	0.079955	0.28709	0.19177	0.13258	-2.5771	-2.5438	-2.8833	-2.9854	-2.4562	-2.9979	-2.6479	-2.6646	-3.1917	-2.7479	-3.0312	-2.9479	-2.7979	-3.3021	-2.8583	-2.7208	255.271	224.414	-27.523	-56.860	-60.125	232.286	182.982	231.842	184.734	200.371	252.495	280.337	161.670	162.959	127.149	203.061	0.00017304	0.00061037	0.00014326	702.24	1.4597e-06	1.1477e-06	686.9	211.58	1.5842e-06	2.7494e-06	249.52	95.57	77.243	33.124	7.7658e-06	44.698	0.0038456	0.0068068	0.0019348	707.06	6.7621e-05	7.6422e-05	695.99	217.25	6.7398e-05	7.617e-05	258.25	99.009	80.975	34.315	7.1039e-05	46.188	162.011	18.007	-10.315	-58.406	40.651	198.954	-59.775	-52.350	281.588	133.945	-54.429	-49.832	-47.426	-42.806	84.626	-45.382	-8191	255	
15417.886	1	1	0	0	0.10903	0.23894	0.19573	0.11086	0.15337	0.097596	0.20095	0.12358	0.35574	0.2482	0.047086	0.10129	0.18247	0.13677	0.1918	0.13546	-2.6729	-2.5729	-2.7104	-2.8563	-2.5479	-2.8625	-2.8625	-2.6042	-2.9833	-2.6542	-2.6937	-2.9437	-2.3792	-2.9104	-2.8958	-2.6813	11.353	224.637	276.484	193.250	116.794	118.368	266.332	189.524	-20.672	39.523	163.633	168.245	109.153	93.936	-26.488	-9.067	0.00013889	0.00045708	0.0001731	700.52	1.6628e-06	1.0473e-05	687.63	212.03	2.8886e-06	7.4362e-06	250.23	95.16	77.089	32.902	5.6856e-06	44.795	0.0038285	0.0068167	0.0019051	705.19	6.6291e-05	7.6281e-05	695.72	216.8	6.7654e-05	7.6168e-05	257.44	98.807	81.058	34.226	7.0158e-05	46.42	172.519	67.969	-37.987	-58.504	287.392	32.621	-59.827	-52.421	47.842	67.149	-54.568	-49.740	-47.434	-42.651	116.754	-45.375	-8191	255	
15417.982	1	1	0	0	0.19497	0.049632	0.22414	0.089153	0.15411	0.10907	0.25685	0.29876	0.19287	0.12913	0.14865	0.090789	0.24527	0.054671	0.2034	0.24523	-2.4646	-2.7104	-2.7438	-3.075	-2.6437	-2.8521	-2.8708	-2.5729	-2.9896	-2.7583	-2.5896	-3.0229	-2.7479	-2.9333	-3.0167	-2.5312	-50.136	75.766	222.016	255.794	157.702	-30.974	220.769	244.756	148.252	105.650	214.980	187.971	206.369	167.151	184.903	75.963	0.0001753	0.00042392	9.6867e-05	700.34	9.6845e-07	1.1953e-05	685.16	213.43	3.6944e-06	1.1156e-06	253.22	95.934	77.796	33.509	4.1897e-06	45.094	0.0037651	0.0067141	0.0018917	704.29	6.6612e-05	7.5411e-05	697.18	218.34	6.7591e-05	7.6187e-05	259.89	99.772	81.63	34.476	6.9711e-05	46.632	175.552	-37.686	-41.957	-58.567	178.167	108.057	-59.720	-52.535	-46.762	284.179	-54.657	-49.699	-47.313	-42.632	174.187	-45.348	-8191	255	
#DATA ENDS
