BOXY.EXE: ISS Imagent and Oximeter Data Acquisition Program Version 0.80
Ascii Record File

#ACQ INFORMATION
2  Detector Channels 
16  External MUX Channels 
1  Auxiliary Channels 
5000  Waveform (CCF) Frequency (Hz)
1  Waveforms Skipped 
30  Waveforms Averaged 
1  Cycles Averaged 
16  Acquisitions per Waveform 
10.0806  Updata Rate (Hz) 

#FILE INFORMATION
TRUE -- External MUX Channel results are PARSED.
FALSE -- AC DC and Phase are NOT grouped.
TRUE -- Companion Program Settings File CREATED.
FALSE -- AC data not excluded
FALSE -- DC data not excluded
FALSE -- Phase data not excluded
FALSE -- Auxillary Chn. data not excluded
Tab delimiters

#CALIBRATION STATE
TRUE -- Waveform Calibration Values APPLIED.


#AUX CALIBRATION VALUES
Val Type	aux-1	

Term	1.0000e+00	
Factor	0.0000e+00	


#WF CALIBRATION VALUES
A = Detector Channel
Val Type	A-AC1	A-AC2	A-AC3	A-AC4	A-AC5	A-AC6	A-AC7	A-AC8	A-AC9	A-AC10	A-AC11	A-AC12	A-AC13	A-AC14	A-AC15	A-AC16	A-DC1	A-DC2	A-DC3	A-DC4	A-DC5	A-DC6	A-DC7	A-DC8	A-DC9	A-DC10	A-DC11	A-DC12	A-DC13	A-DC14	A-DC15	A-DC16	A-Ph1	A-Ph2	A-Ph3	A-Ph4	A-Ph5	A-Ph6	A-Ph7	A-Ph8	A-Ph9	A-Ph10	A-Ph11	A-Ph12	A-Ph13	A-Ph14	A-Ph15	A-Ph16	

Term	0.00000e+00	0.00000e+00	0.00000e+00	0.00000e+00	0.00000e+00	0.00000e+00	0.00000e+00	0.00000e+00	0.00000e+00	0.00000e+00	0.00000e+00	0.00000e+00	0.00000e+00	0.00000e+00	0.00000e+00	0.00000e+00	0.00000e+00	0.00000e+00	0.00000e+00	0.00000e+00	0.00000e+00	0.00000e+00	0.00000e+00	0.00000e+00	0.00000e+00	0.00000e+00	0.00000e+00	0.00000e+00	0.00000e+00	0.00000e+00	0.00000e+00	0.00000e+00	0.00000e+00	0.00000e+00	0.00000e+00	0.00000e+00	0.00000e+00	0.00000e+00	0.00000e+00	0.00000e+00	0.00000e+00	0.00000e+00	0.00000e+00	0.00000e+00	0.00000e+00	0.00000e+00	0.00000e+00	0.00000e+00	
Factor	1.00000e+00	1.00000e+00	1.00000e+00	1.00000e+00	1.00000e+00	1.00000e+00	1.00000e+00	1.00000e+00	1.00000e+00	1.00000e+00	1.00000e+00	1.00000e+00	1.00000e+00	1.00000e+00	1.00000e+00	1.00000e+00	1.00000e+00	1.00000e+00	1.00000e+00	1.00000e+00	1.00000e+00	1.00000e+00	1.00000e+00	1.00000e+00	1.00000e+00	1.00000e+00	1.00000e+00	1.00000e+00	1.00000e+00	1.00000e+00	1.00000e+00	1.00000e+00	X	X	X	X	X	X	X	X	X	X	X	X	X	X	X	X	

B = Detector Channel
Val Type	B-AC1	B-AC2	B-AC3	B-AC4	B-AC5	B-AC6	B-AC7	B-AC8	B-AC9	B-AC10	B-AC11	B-AC12	B-AC13	B-AC14	B-AC15	B-AC16	B-DC1	B-DC2	B-DC3	B-DC4	B-DC5	B-DC6	B-DC7	B-DC8	B-DC9	B-DC10	B-DC11	B-DC12	B-DC13	B-DC14	B-DC15	B-DC16	B-Ph1	B-Ph2	B-Ph3	B-Ph4	B-Ph5	B-Ph6	B-Ph7	B-Ph8	B-Ph9	B-Ph10	B-Ph11	B-Ph12	B-Ph13	B-Ph14	B-Ph15	B-Ph16	

Term	0.00000e+00	0.00000e+00	0.00000e+00	0.00000e+00	0.00000e+00	0.00000e+00	0.00000e+00	0.00000e+00	0.00000e+00	0.00000e+00	0.00000e+00	0.00000e+00	0.00000e+00	0.00000e+00	0.00000e+00	0.00000e+00	0.00000e+00	0.00000e+00	0.00000e+00	0.00000e+00	0.00000e+00	0.00000e+00	0.00000e+00	0.00000e+00	0.00000e+00	0.00000e+00	0.00000e+00	0.00000e+00	0.00000e+00	0.00000e+00	0.00000e+00	0.00000e+00	-1.27282e+02	-1.30498e+02	-1.26606e+02	-1.82720e+02	-7.04405e+01	-6.88341e+01	-1.60843e+02	-1.62015e+02	-7.31909e+01	-6.92541e+01	-1.72572e+02	-1.72955e+02	-1.82795e+02	-1.78089e+02	-7.17232e+01	-1.50939e+02	
Factor	1.93131e-05	1.69621e-04	4.86892e-05	1.65898e-01	1.33105e-06	1.92021e-06	1.95781e-01	6.11879e-02	1.30919e-06	1.87107e-06	9.62612e-02	3.22527e-02	2.98245e-02	9.98308e-03	1.50668e-06	1.45378e-02	1.28716e-05	2.34187e-05	6.58817e-06	8.38859e-02	2.30464e-07	2.64030e-07	9.33801e-02	3.11235e-02	2.35691e-07	2.61591e-07	4.74826e-02	1.59974e-02	1.53938e-02	5.11434e-03	2.44169e-07	7.23425e-03	X	X	X	X	X	X	X	X	X	X	X	X	X	X	X	X	



#DISTANCE SETTINGS
A = Detector Channel
A-1	A-2	A-3	A-4	A-5	A-6	A-7	A-8	A-9	A-10	A-11	A-12	A-13	A-14	A-15	A-16	

2.5000e+00	3.0000e+00	2.5000e+00	3.0000e+00	2.0000e+00	3.0000e+00	1.5000e+00	3.0000e+00	3.0000e+00	3.0000e+00	3.0000e+00	3.0000e+00	3.0000e+00	3.0000e+00	1.5000e+00	3.0000e+00	

B = Detector Channel
B-1	B-2	B-3	B-4	B-5	B-6	B-7	B-8	B-9	B-10	B-11	B-12	B-13	B-14	B-15	B-16	

1.0000e+01	1.0000e+01	1.0000e+01	1.4400e+00	1.0000e+01	1.0000e+01	1.5100e+00	1.9400e+00	1.0000e+01	1.0000e+01	1.9900e+00	2.4900e+00	2.4100e+00	2.9000e+00	1.0000e+01	2.9800e+00	




#DATA BEGINS
time	group	step	mark	flag	A-AC1	A-AC2	A-AC3	A-AC4	A-AC5	A-AC6	A-AC7	A-AC8	A-AC9	A-AC10	A-AC11	A-AC12	A-AC13	A-AC14	A-AC15	A-AC16	A-DC1	A-DC2	A-DC3	A-DC4	A-DC5	A-DC6	A-DC7	A-DC8	A-DC9	A-DC10	A-DC11	A-DC12	A-DC13	A-DC14	A-DC15	A-DC16	A-Ph1	A-Ph2	A-Ph3	A-Ph4	A-Ph5	A-Ph6	A-Ph7	A-Ph8	A-Ph9	A-Ph10	A-Ph11	A-Ph12	A-Ph13	A-Ph14	A-Ph15	A-Ph16	B-AC1	B-AC2	B-AC3	B-AC4	B-AC5	B-AC6	B-AC7	B-AC8	B-AC9	B-AC10	B-AC11	B-AC12	B-AC13	B-AC14	B-AC15	B-AC16	B-DC1	B-DC2	B-DC3	B-DC4	B-DC5	B-DC6	B-DC7	B-DC8	B-DC9	B-DC10	B-DC11	B-DC12	B-DC13	B-DC14	B-DC15	B-DC16	B-Ph1	B-Ph2	B-Ph3	B-Ph4	B-Ph5	B-Ph6	B-Ph7	B-Ph8	B-Ph9	B-Ph10	B-Ph11	B-Ph12	B-Ph13	B-Ph14	B-Ph15	B-Ph16	aux-1	digaux	

15392.485	1	1	0	256	0.21323	0.18661	0.16102	0.27181	0.17846	0.31703	0.24709	0.13009	0.10889	0.021441	0.20687	0.16394	0.099741	0.09163	0.048914	0.18732	-2.3479	-2.7062	-3.0896	-2.6375	-2.6979	-3.0583	-2.5958	-3.1937	-2.8688	-2.5542	-3.1271	-2.5396	-2.7875	-2.9542	-2.4542	-2.9479	190.077	-47.687	286.561	210.667	149.015	189.025	186.594	8.525	214.839	156.175	-41.997	143.554	15.505	175.059	12.650	228.374	0.00016572	0.00064196	0.00011775	744.4	2.6568e-06	8.0255e-06	740.88	226.7	3.8232e-06	5.8026e-06	280	106.9	82.354	32.957	3.9879e-06	45.802	0.0033677	0.0058811	0.0016379	742.32	5.8433e-05	6.4554e-05	747.47	229.37	5.9722e-05	6.5041e-05	284.83	109.88	85.677	34.016	6.1818e-05	47.059	163.106	89.194	47.571	-58.547	83.669	111.449	-59.469	-52.534	16.413	99.081	-54.689	-50.186	-47.876	-42.793	94.426	-45.320	-8191	255	
15392.581	1	1	0	0	0.24576	0.082248	0.085245	0.031861	0.24156	0.018555	0.014983	0.26202	0.1382	0.30056	0.16343	0.20809	0.16011	0.31589	0.2094	0.20331	-2.2646	-2.4938	-2.9688	-2.8312	-2.6771	-3.125	-2.4833	-2.9667	-2.8167	-2.6167	-3.1583	-2.7729	-2.7333	-3.0187	-2.6417	-2.9437	-8.488	107.222	195.512	279.160	-42.234	111.366	288.705	244.751	10.419	17.501	177.773	245.298	-67.585	130.606	283.711	-66.060	0.00013222	0.00077534	0.00014002	735.51	8.0274e-06	1.0482e-05	737.69	224.6	4.6291e-06	7.2001e-06	279.47	107.27	82.094	33.178	2.1778e-06	45.992	0.0033279	0.0058955	0.0016435	737.2	5.8266e-05	6.6088e-05	743.07	228.48	5.9551e-05	6.4819e-05	283.87	109.74	85.471	34.046	6.1076e-05	47.186	165.154	-50.760	-14.166	-58.596	46.882	21.173	-59.662	-52.976	111.795	56.975	-54.523	-50.058	-47.973	-42.723	282.798	-45.394	-8191	255	
15392.677	1	1	0	0	0.081525	0.15518	0.24971	0.12459	0.12982	0.19779	0.23604	0.1254	0.10762	0.01005	0.15364	0.21444	0.11427	0.21814	0.31523	0.42828	-2.3167	-2.3771	-2.9333	-2.8104	-2.5625	-2.9625	-2.7917	-2.85	-2.9625	-2.4042	-3	-2.7125	-2.675	-3.0958	-2.5583	-2.8646	139.156	238.995	-14.931	161.610	200.444	136.449	190.317	21.674	-64.970	273.881	259.911	186.774	49.462	5.277	20.108	236.229	0.000144	0.00026877	0.00036734	735.91	4.2112e-06	3.1621e-06	741.64	224.37	6.4222e-06	6.3627e-06	278.82	106.84	82.617	33.13	6.7227e-06	45.775	0.0033178	0.0058633	0.0016382	736.69	5.7848e-05	6.5442e-05	745.37	228.9	5.9005e-05	6.4101e-05	284.1	110.04	85.7	34.076	6.1225e-05	47.208	178.696	6.807	29.162	-58.709	20.704	76.303	-59.224	-52.892	-45.879	47.705	-54.495	-49.867	-47.750	-42.916	112.770	-46.058	-8191	255	
15392.773	1	1	0	0	0.43412	0.033669	0.092673	0.16522	0.1093	0.06814	0.16299	0.34283	0.21658	0.090102	0.13318	0.3429	0.22609	0.24262	0.071177	0.34549	-2.6042	-2.4813	-3.0646	-2.8792	-2.4854	-3.1042	-2.7583	-2.9854	-2.8333	-2.7458	-3.0563	-2.8771	-2.6063	-2.9167	-2.6188	-2.8896	63.752	-1.602	238.319	221.149	109.375	154.907	167.816	242.029	280.301	251.911	191.849	248.097	262.295	-56.755	87.946	-51.357	0.00011192	0.0011034	0.00010926	737.84	2.1312e-06	2.9007e-06	743.21	226.31	5.0087e-06	4.8888e-06	281.14	107.03	82.847	33.171	7.9446e-07	46.328	0.0033766	0.0059142	0.0016427	738.96	5.7227e-05	6.5684e-05	747.35	229.94	5.9042e-05	6.4947e-05	286.42	110.35	86.051	34.216	6.2274e-05	47.648	175.133	45.289	115.164	-58.516	60.211	127.467	-59.837	-52.790	48.376	12.774	-54.751	-49.783	-48.001	-42.998	65.686	-45.479	-8191	255	
15392.869	1	1	0	0	0.2676	0.053542	0.055578	0.097957	0.30226	0.20044	0.21873	0.13925	0.092795	0.056409	0.12639	0.24607	0.17523	0.20246	0.097527	0.18477	-2.475	-2.4875	-2.65	-2.9021	-2.4917	-2.9729	-2.7479	-2.8646	-3.0563	-2.4708	-3.0042	-2.9146	-2.5917	-3.0167	-2.7562	-2.6	255.888	184.936	75.422	97.743	63.110	73.318	29.962	210.842	-38.154	29.858	203.333	255.499	17.033	55.374	-46.558	281.979	0.00011389	0.00045211	5.3804e-05	740.14	2.9138e-06	8.5143e-06	743.52	226.19	4.6532e-06	5.7125e-06	280.68	107.18	82.227	33.133	4.5999e-06	45.866	0.003348	0.0058791	0.0016442	741.06	5.717e-05	6.57e-05	747.39	229.84	5.8808e-05	6.5199e-05	285.31	110.2	85.689	34.03	6.1685e-05	47.109	177.744	20.090	28.295	-58.480	8.438	60.589	-59.500	-52.975	158.575	82.618	-54.540	-49.735	-47.593	-42.614	274.800	-45.357	-8191	255	
15392.990	1	1	0	0	0.25373	0.090518	0.095836	0.076849	0.070088	0.19405	0.05402	0.068185	0.17444	0.058399	0.10998	0.11154	0.077968	0.12959	0.17069	0.14318	-2.5375	-2.5521	-3.0458	-2.8604	-2.5042	-3.075	-2.6562	-2.5271	-3.0563	-2.5167	-2.9	-3.0563	-2.5854	-2.8708	-2.775	-2.7562	284.812	-41.059	231.493	228.565	45.042	-4.479	-22.529	129.685	108.308	286.885	-61.722	49.579	174.385	246.506	122.298	-2.091	0.0001817	0.0007731	0.00015425	737.42	4.2649e-06	7.2196e-06	738.15	225.23	1.2969e-06	1.2388e-06	278.98	107.45	82.889	33.17	4.3243e-06	45.829	0.0033819	0.0059267	0.0016477	737.47	5.7183e-05	6.645e-05	744.56	228.63	5.9017e-05	6.6474e-05	284.67	110.27	85.978	34.116	6.2389e-05	47.162	161.157	69.337	-9.435	-58.686	195.905	122.416	-59.409	-52.886	99.710	209.159	-54.807	-50.113	-47.760	-42.649	31.036	-45.194	-8191	255	
15393.086	1	1	0	0	0.23482	0.15765	0.075605	0.32889	0.20331	0.24484	0.0228	0.25495	0.20984	0.29845	0.24542	0.16173	0.38634	0.13811	0.075294	0.080983	-2.7708	-2.6792	-2.8333	-3.0062	-2.5938	-2.7854	-2.8792	-2.7125	-2.675	-2.6625	-2.8667	-3.0354	-2.575	-2.9813	-2.8708	-2.6625	-44.009	184.621	40.448	213.192	198.498	162.718	167.801	-0.661	62.837	102.541	286.440	9.341	265.466	-54.343	-24.610	-41.838	0.00016195	0.00071761	0.00024307	738.64	4.2499e-06	3.3536e-06	742.91	227.11	3.0928e-06	4.6522e-06	280.34	106.85	82.297	33.171	7.5762e-06	46.313	0.0034	0.0059173	0.0016782	737.66	5.9217e-05	6.8096e-05	747.05	229.39	6.0105e-05	6.7856e-05	285.39	110.36	85.844	34.094	6.2616e-05	47.428	162.299	18.004	153.670	-58.466	125.938	106.780	-59.514	-52.785	92.743	157.350	-54.534	-50.337	-47.523	-42.878	121.375	-45.516	-8191	255	
15393.181	1	1	0	0	0.24478	0.39088	0.164	0.051564	0.14159	0.063807	0.051765	0.17697	0.082509	0.18248	0.085947	0.3365	0.22511	0.14474	0.13491	0.052019	-2.7021	-2.6042	-2.5875	-3.1104	-2.6021	-2.8187	-3.0083	-2.6312	-2.8521	-2.7604	-2.7042	-3.0625	-2.6	-2.8292	-2.8438	-2.6146	189.222	51.200	287.391	32.452	3.470	245.194	215.901	13.043	-43.463	185.296	229.255	-50.660	145.297	-22.477	247.171	244.729	0.00013511	0.00075864	0.0001223	737.74	1.1271e-06	1.1949e-05	743.73	225.06	1.7273e-06	7.5431e-06	280.43	107.94	82.973	33.176	2.4371e-06	46.394	0.0033873	0.0059207	0.0016816	738.17	5.8325e-05	6.7753e-05	747.88	229.42	5.968e-05	6.8185e-05	286.24	110.85	86.205	34.139	6.354e-05	47.533	168.465	1.546	-28.461	-58.622	107.920	46.194	-59.753	-52.726	101.466	33.393	-54.676	-50.135	-47.506	-42.600	195.040	-45.224	-8191	255	
15393.252	1	1	0	0	0.080649	0.05337	0.11775	0.085648	0.19073	0.080638	0.12835	0.063449	0.084383	0.46165	0.013449	0.080756	0.39126	0.11146	0.20415	0.29751	-2.5687	-2.7687	-2.6125	-3.2229	-2.6875	-2.8125	-2.9042	-2.575	-2.7521	-2.7125	-2.6437	-3.1188	-2.5708	-2.8187	-2.9625	-2.525	3.670	61.375	48.622	213.539	-14.193	147.506	289.486	95.306	223.173	166.552	-46.594	-39.910	-69.358	182.384	-49.802	134.827	0.00017394	0.00036469	0.00015397	737.14	1.8304e-06	7.6152e-06	743.41	225.8	1.3567e-06	2.0695e-06	279	106.64	81.994	33.044	2.9008e-06	46.032	0.0035117	0.0060703	0.0017022	738.52	6.018e-05	6.8155e-05	748.7	229.41	6.1091e-05	6.8283e-05	284.41	110.03	85.463	33.953	6.2495e-05	47.087	169.150	37.558	20.355	-58.603	20.641	108.663	-59.621	-52.487	80.233	40.716	-54.829	-50.088	-47.695	-42.901	286.038	-45.663	-8191	255	
15393.373	1	1	0	0	0.10369	0.20979	0.11385	0.18117	0.15057	0.29664	0.08248	0.27803	0.25932	0.047053	0.14691	0.2727	0.22975	0.11897	0.091322	0.21179	-2.3979	-2.7125	-2.5	-3.1958	-2.5438	-2.5833	-3.0396	-2.5812	-2.8187	-2.8354	-2.525	-3.0479	-2.6688	-2.6146	-3.175	-2.5417	-19.232	98.154	284.459	289.056	283.064	258.665	274.942	189.070	175.113	124.860	237.227	288.541	249.192	88.003	4.152	252.298	0.00010569	0.00040661	0.00014099	734.56	2.2925e-06	6.0323e-06	739.18	224.56	4.2187e-06	9.789e-06	276.22	106.13	82.333	32.657	7.3824e-06	45.933	0.0034544	0.0059121	0.0016617	735.23	5.9032e-05	6.6221e-05	742.47	227.76	5.96e-05	6.5884e-05	281.97	109.61	85.232	33.843	6.0365e-05	47.138	150.756	4.079	-17.325	-58.571	52.676	11.543	-59.729	-52.845	249.207	157.152	-54.551	-49.830	-47.968	-42.735	56.221	-45.497	-8191	255	
15393.469	1	1	0	0	0.23558	0.13684	0.16946	0.29378	0.13725	0.23724	0.22851	0.1503	0.35527	0.094951	0.097601	0.14457	0.15048	0.12443	0.14014	0.35606	-2.4104	-2.7583	-2.5062	-3.2	-2.8458	-2.7083	-3.2458	-2.7458	-2.775	-2.8875	-2.5375	-3.0146	-2.7208	-2.5958	-3.0146	-2.4813	30.714	-48.080	146.734	283.444	283.743	253.731	274.488	257.496	57.164	263.590	145.240	281.682	285.621	272.226	-53.045	199.002	0.00015631	0.00041464	0.00016058	738.05	3.3714e-06	8.3836e-06	737.75	225.19	2.7691e-06	7.4433e-06	278.15	106.76	81.979	32.916	2.482e-06	45.953	0.0033358	0.0058625	0.0016456	736.43	5.8848e-05	6.6046e-05	744.26	228.19	5.9862e-05	6.5955e-05	283.92	110.17	85.465	33.892	6.0772e-05	47.255	135.057	-29.637	55.430	-58.681	89.321	106.260	-59.701	-52.998	70.795	116.745	-54.917	-49.973	-47.686	-43.068	-49.800	-45.377	-8191	255	
15393.563	1	1	0	0	0.083109	0.13017	0.14409	0.11848	0.12686	0.31347	0.423	0.16683	0.2578	0.17027	0.18774	0.14989	0.037461	0.2397	0.18115	0.13656	-2.2854	-2.7729	-2.4188	-2.8958	-2.8958	-2.6229	-3.1437	-2.6292	-2.5583	-2.9625	-2.5333	-3.025	-2.825	-2.6125	-3.0083	-2.5875	276.053	93.114	272.686	225.064	16.709	172.645	192.240	-7.431	212.843	-3.978	287.397	5.011	146.132	155.182	138.814	204.351	0.00019763	0.00035241	0.0002131	738.19	4.2664e-06	5.0382e-06	742.57	226.15	2.8263e-06	6.2622e-06	281.38	108.46	83.237	33.158	5.1279e-06	46.079	0.0033959	0.0059664	0.0016794	738.27	5.945e-05	6.6227e-05	748.46	229.53	6.0618e-05	6.5706e-05	286.26	111.44	86.168	34.098	6.1716e-05	47.613	162.034	49.735	-58.141	-58.552	165.862	113.350	-59.446	-52.667	194.754	100.852	-54.894	-49.926	-47.835	-42.548	100.370	-45.365	-8191	255	
15393.660	1	1	0	0	0.1388	0.1639	0.068308	0.16578	0.23751	0.11727	0.22301	0.15519	0.42786	0.18632	0.11807	0.30215	0.23993	0.38895	0.064609	0.094018	-2.2729	-3.0208	-2.3229	-2.9188	-2.8083	-2.3854	-3.1271	-2.6604	-2.6958	-2.9021	-2.5833	-2.9188	-2.9458	-2.5438	-2.9292	-2.7313	-36.480	-26.102	120.049	186.375	24.233	84.900	258.382	152.297	116.640	105.290	196.761	254.918	49.807	258.015	19.183	243.443	9.4397e-05	0.00028905	0.00019386	742.51	6.4234e-06	5.3667e-06	745.49	227.47	3.273e-06	5.3e-06	281.01	107.99	83.132	32.897	2.2412e-06	45.928	0.0033916	0.0059149	0.0016617	740.11	5.8889e-05	6.6211e-05	750.29	230.21	5.8941e-05	6.4544e-05	285.28	111.1	86.024	34.04	6.1007e-05	47.272	144.780	126.620	-2.079	-58.520	66.383	114.836	-59.761	-52.921	116.966	65.245	-54.395	-49.706	-48.093	-42.794	283.299	-45.379	-8191	255	
15393.780	1	1	0	0	0.086779	0.12499	0.094679	0.14034	0.095253	0.30133	0.22847	0.21889	0.50288	0.06583	0.22229	0.10334	0.11283	0.12917	0.27049	0.23341	-2.2062	-2.9437	-2.5312	-2.7646	-2.9208	-2.4083	-3.1354	-2.9167	-2.6583	-2.8875	-2.5792	-2.8292	-2.9188	-2.5229	-2.8354	-2.9042	-67.106	230.190	208.595	235.007	91.131	247.965	256.077	105.646	87.017	230.369	260.469	148.500	214.713	196.540	258.036	247.348	8.6532e-05	0.00018066	0.00021843	735.23	2.566e-06	6.025e-06	740.5	224.15	1.4645e-06	6.4045e-06	277.85	107.37	82.35	32.991	3.4167e-06	45.91	0.0033983	0.0060168	0.0016788	736.82	5.9151e-05	6.7403e-05	744.8	228.54	6.0262e-05	6.6218e-05	284.61	110.51	85.679	33.899	6.3014e-05	47.209	116.298	-3.055	1.388	-58.403	280.503	12.740	-59.917	-52.747	10.747	117.146	-54.576	-50.086	-47.951	-42.732	153.918	-45.741	-8191	255	
15393.852	1	1	0	0	0.07905	0.034439	0.13722	0.11932	0.082541	0.020909	0.084677	0.24294	0.29509	0.023833	0.10675	0.098947	0.25993	0.19308	0.081956	0.075426	-2.0583	-2.9188	-2.5438	-2.9313	-2.9542	-2.4542	-3.0604	-2.8083	-2.4479	-3.3104	-2.7438	-2.8167	-2.8375	-2.6354	-2.8479	-2.9229	271.925	-6.578	80.886	-35.560	146.853	60.569	268.335	118.721	237.816	-9.091	-63.754	202.486	233.233	264.834	219.051	-46.138	0.00014668	0.00085659	0.00015501	733.87	2.9577e-06	3.2902e-06	737.44	225	3.0361e-06	1.2684e-06	278.94	107.16	81.94	32.94	2.2187e-06	46.199	0.0033969	0.0059688	0.001689	734.98	5.7602e-05	6.674e-05	744.63	228.65	6.0418e-05	6.61e-05	285.13	110.37	85.587	33.98	6.4861e-05	47.5	162.108	57.467	-17.177	-58.731	115.527	201.850	-59.645	-52.892	-43.604	64.456	-54.615	-50.136	-48.105	-42.771	53.102	-45.657	-8191	255	
15393.948	1	1	0	0	0.40295	0.19004	0.10023	0.23363	0.12887	0.09353	0.068352	0.27083	0.037788	0.45981	0.12802	0.255	0.08926	0.11383	0.05831	0.13818	-2.075	-2.9417	-2.7042	-2.6708	-3.0271	-2.5687	-2.9688	-2.9396	-2.5	-3.0354	-2.7021	-2.6917	-3.2188	-2.6604	-2.8292	-3.0271	-44.197	237.638	245.843	-33.334	264.803	132.033	-49.866	264.512	-47.724	-62.481	204.331	-37.944	273.866	146.028	48.944	258.752	0.00013273	0.00081135	0.0003374	736.98	3.0423e-06	2.2066e-06	740.54	224.63	2.9252e-06	1.258e-06	277.82	107.09	82.303	33.024	2.0752e-06	46.782	0.0034967	0.0061113	0.0017303	735.72	6.0021e-05	6.9627e-05	746.31	228.67	6.136e-05	6.7161e-05	285.11	110.14	85.582	34.079	6.3788e-05	47.918	163.462	-2.855	-4.118	-58.494	44.674	110.534	-59.721	-52.600	188.911	-1.835	-54.442	-49.803	-47.817	-42.971	115.322	-45.357	-8191	255	
15394.069	1	1	0	0	0.21503	0.04474	0.21131	0.15886	0.14426	0.24813	0.04439	0.069216	0.31131	0.20693	0.11286	0.11337	0.067282	0.28853	0.2581	0.079872	-2.0438	-2.9917	-2.7	-2.6479	-3.0271	-2.6521	-2.8729	-2.9146	-2.4396	-3.0583	-2.9979	-2.3688	-3.0854	-2.5854	-3.0333	-3.1292	272.540	171.662	175.838	248.315	67.162	84.426	230.482	62.134	-66.714	105.076	-46.183	-54.376	-37.672	253.061	257.140	218.304	5.6017e-05	0.0009023	7.4665e-05	735.84	2.4134e-06	5.022e-06	741.02	224.66	1.137e-06	1.0391e-05	277.92	106.65	81.886	33.07	1.9841e-06	46.304	0.0034532	0.0061539	0.0017078	735.5	5.9294e-05	6.9745e-05	746.74	228.43	6.1236e-05	6.7474e-05	284.1	109.85	85.008	33.994	6.4168e-05	47.525	145.527	16.386	-7.065	-58.625	-3.757	84.249	-59.433	-52.960	176.920	9.822	-54.413	-49.815	-47.688	-42.852	43.342	-45.263	-8191	255	
15394.165	1	1	0	0	0.26111	0.17101	0.38454	0.17242	0.16084	0.14717	0.14632	0.15408	0.19833	0.059214	0.10043	0.2721	0.0068289	0.12569	0.051888	0.010245	-2.2292	-2.8125	-2.825	-2.7521	-3.1229	-2.7313	-2.7979	-3.1229	-2.5771	-2.8479	-2.9688	-2.5354	-3.0458	-2.7417	-2.5958	-3.1417	130.556	206.132	-42.037	31.286	273.771	258.041	259.048	17.065	-63.847	255.290	-29.133	255.513	40.710	-22.941	181.404	218.772	9.7955e-05	0.00063976	0.00012936	731.95	3.3589e-06	1.1865e-05	734.52	224.1	4.7869e-06	9.7202e-07	277.92	105.81	82.064	32.91	3.3246e-06	46.305	0.0034527	0.0061143	0.0017023	733.46	5.9773e-05	6.9174e-05	740.77	227.99	6.1936e-05	6.9226e-05	283.78	109.69	85.283	33.967	6.4659e-05	47.448	219.353	60.435	-1.466	-58.357	135.726	52.983	-59.538	-52.816	60.828	88.675	-54.496	-49.798	-48.015	-42.978	197.045	-45.392	-8191	255	
15394.261	1	1	0	0	0.14353	0.27319	0.01526	0.041845	0.17007	0.16742	0.091554	0.27117	0.23652	0.16786	0.23541	0.060855	0.13957	0.08	0.3422	0.1192	-2.2521	-2.8542	-2.8771	-2.7229	-3.0417	-2.8063	-2.6604	-2.9	-2.4875	-2.8208	-3.0146	-2.7729	-2.9792	-2.9333	-2.6542	-2.9	122.757	213.136	273.608	227.092	249.503	109.700	158.506	110.773	232.817	119.631	91.008	235.256	171.985	252.991	8.428	155.453	0.00022129	0.0004463	0.00015938	732.51	4.1642e-06	8.3174e-06	737.69	223.5	2.4314e-06	5.1689e-06	278.29	106.09	82.062	33.038	3.7805e-06	46.212	0.0035269	0.006122	0.0017281	733.05	6.0713e-05	7.0207e-05	742.61	227.77	6.2083e-05	6.957e-05	283.33	109.63	85.26	33.982	6.4952e-05	47.588	162.632	6.086	52.815	-58.431	7.057	20.534	-59.623	-52.759	163.341	83.175	-54.592	-49.618	-47.784	-42.740	214.530	-45.730	-8191	255	
15394.357	1	1	0	0	0.15745	0.097555	0.1713	0.17685	0.063717	0.19791	0.13715	0.19194	0.080909	0.1809	0.03783	0.14739	0.06575	0.15999	0.18479	0.26973	-2.1917	-2.6917	-2.8875	-2.5625	-2.8563	-2.8542	-2.6167	-3.1583	-2.6917	-2.7354	-3.2313	-2.6979	-2.925	-2.8917	-2.3396	-2.9938	93.698	23.666	115.403	251.059	50.727	14.543	242.807	223.051	213.322	207.860	164.494	78.961	251.428	198.804	108.683	-43.030	8.6749e-05	0.00050637	5.4517e-05	733.71	5.25e-06	6.952e-06	741.52	224.24	5.4236e-06	3.653e-06	278.43	107.78	82.568	33.233	3.815e-06	46.492	0.0035625	0.0061761	0.0017392	733.67	6.1352e-05	7.1056e-05	745.91	228.47	6.2393e-05	6.9468e-05	285.23	110.86	85.888	34.205	6.4457e-05	47.931	172.056	-57.914	57.590	-58.482	112.656	134.488	-59.548	-53.133	123.542	254.303	-54.607	-50.131	-48.071	-43.013	99.052	-45.571	-8191	255	
15394.478	1	1	0	0	0.23329	0.15905	0.060243	0.24587	0.15532	0.092676	0.12646	0.045129	0.2696	0.050843	0.16141	0.093047	0.10226	0.11853	0.1578	0.24429	-2.2812	-2.625	-2.85	-2.6875	-2.8417	-3.0438	-2.6479	-3.0187	-2.6896	-2.625	-3.1708	-2.5438	-2.675	-2.8458	-2.4667	-3.1021	36.610	40.384	83.125	284.770	-37.092	-66.655	178.405	278.919	151.064	221.762	-53.452	55.658	-37.250	260.957	268.709	271.369	0.00013593	0.00087507	0.0002967	734.32	4.2809e-06	3.2594e-06	742.37	225.45	2.2901e-06	2.4084e-06	278.59	107.46	82.331	32.819	6.7822e-06	46.082	0.0035214	0.0061024	0.0017199	735.58	6.1887e-05	6.9854e-05	747.3	229.35	6.2547e-05	6.8872e-05	284.37	110.62	85.465	33.987	6.4936e-05	47.576	128.202	22.875	21.580	-58.642	75.578	31.760	-59.481	-52.370	153.886	-37.676	-54.626	-49.995	-47.905	-43.043	40.242	-45.753	-8191	255	
15394.549	1	1	0	0	0.24309	0.035698	0.11318	0.28202	0.27949	0.18149	0.095495	0.21765	0.037964	0.17977	0.044248	0.42956	0.064335	0.12877	0.36111	0.16086	-2.2417	-2.3917	-2.9708	-2.7479	-2.6917	-2.9188	-2.5771	-2.8292	-2.9125	-2.6604	-3.2146	-2.6542	-2.8542	-3.0854	-2.4229	-2.8583	57.555	38.286	112.281	273.909	25.721	36.103	195.559	257.547	189.823	15.471	229.330	283.269	-23.404	280.991	14.484	27.180	0.00011731	0.00049462	7.2974e-05	732.75	4.92e-06	2.8625e-06	734.34	223.84	2.2607e-06	6.6278e-06	276.31	106.3	81.104	32.747	4.478e-06	46.162	0.0035666	0.0061951	0.0017714	732.42	6.1826e-05	7.02e-05	740.74	227.86	6.1603e-05	6.9402e-05	282.22	109.35	84.865	33.85	6.5719e-05	47.458	174.883	55.349	43.900	-58.922	100.003	162.679	-59.681	-52.553	14.941	88.910	-54.633	-49.637	-48.038	-42.732	143.336	-45.275	-8191	255	
15394.668	1	1	0	0	0.082395	0.02315	0.15808	0.26388	0.018836	0.18617	0.28648	0.041729	0.070195	0.32037	0.066386	0.14588	0.50023	0.084309	0.10465	0.12363	-2.2854	-2.5208	-3.0938	-2.5812	-2.7313	-2.9729	-2.4313	-2.9083	-2.75	-2.625	-3.1271	-2.6271	-2.6875	-3.1688	-2.5708	-3.0938	22.950	110.371	53.784	229.045	-49.241	153.190	238.576	258.537	245.557	-61.392	149.794	-64.583	261.779	-32.981	137.007	131.620	0.00016276	0.00067711	0.00015019	729.72	4.363e-06	5.9232e-06	734.01	221.83	8.0196e-07	3.2173e-06	276.88	106.61	81.88	32.796	1.5765e-06	45.861	0.0035921	0.0062421	0.0018	729.88	6.2833e-05	7.0114e-05	740.17	226.93	6.3503e-05	6.975e-05	282.64	109.57	84.931	33.886	6.6469e-05	47.465	134.270	50.009	-25.858	-58.333	172.584	55.739	-59.598	-52.683	232.400	155.487	-54.708	-50.006	-47.596	-42.660	113.295	-45.141	-8191	255	
15394.764	1	1	0	0	0.086664	0.08215	0.20714	0.16938	0.080321	0.27285	0.17463	0.090034	0.29587	0.096631	0.046145	0.16349	0.23797	0.2744	0.15561	0.21359	-2.5104	-2.5229	-2.7896	-2.8063	-2.75	-3.0646	-2.7354	-2.6458	-2.8208	-2.5479	-2.9583	-2.7604	-2.6958	-3.0708	-2.6417	-2.8083	81.941	6.706	138.707	247.277	99.486	197.386	221.460	263.176	17.805	90.144	251.325	254.444	190.640	172.736	221.493	185.222	0.00016245	0.0012066	8.789e-05	729.54	4.3793e-06	6.3107e-06	733.54	223.31	2.1188e-06	6.6922e-06	277.3	107.11	81.634	33.023	6.0089e-06	46.267	0.0035763	0.0062715	0.0018117	731.23	6.4443e-05	7.2448e-05	742.32	227.26	6.558e-05	7.1395e-05	283.78	110.01	85.073	33.955	6.7079e-05	47.736	151.242	54.142	20.308	-58.557	115.478	107.487	-59.725	-52.392	111.918	72.677	-54.473	-50.011	-47.978	-42.961	118.387	-45.367	-8191	255	
15394.861	1	1	0	0	0.13521	0.19195	0.081594	0.18544	0.15913	0.26031	0.29272	0.1241	0.28706	0.030344	0.22954	0.1443	0.11157	0.19996	0.18317	0.26856	-2.425	-2.4	-3.0312	-2.8271	-2.4	-3.1521	-2.7146	-2.9104	-3.0354	-2.425	-2.95	-2.8	-2.5729	-3.1146	-2.6458	-2.8833	-49.225	158.402	251.252	205.913	-11.740	71.885	271.817	-13.058	265.905	57.086	266.189	279.689	207.866	178.708	-13.047	201.802	0.00015229	0.00081752	0.00022286	726.54	5.8766e-06	5.5235e-06	737.15	224.2	1.2174e-06	4.3312e-06	279	106.07	81.396	32.791	1.6956e-06	46.06	0.0036231	0.0064386	0.0018252	732.01	6.3272e-05	7.1733e-05	744.42	227.98	6.5274e-05	7.1073e-05	284.26	109.71	84.835	33.796	6.6395e-05	47.378	150.794	56.396	23.086	-58.373	73.746	-16.638	-59.737	-52.780	35.549	207.466	-54.649	-49.606	-47.870	-42.841	276.642	-45.260	-8191	255	
15394.957	1	1	0	0	0.13885	0.071047	0.1949	0.084977	0.24234	0.26004	0.10337	0.1456	0.077989	0.010862	0.086479	0.19843	0.17754	0.14076	0.23913	0.27885	-2.575	-2.3458	-2.7375	-2.9396	-2.5771	-2.9271	-2.5771	-2.7729	-2.8333	-2.5417	-2.9229	-3.0083	-2.4229	-3.0167	-2.7479	-2.6604	163.394	-35.177	169.914	136.625	244.846	75.762	179.020	183.713	146.838	157.873	63.068	180.610	34.875	65.279	184.263	-66.912	0.00010345	0.000395	0.00018271	728.36	5.5218e-06	5.0462e-06	729.42	221.95	2.2364e-06	2.5746e-06	275.27	106.25	81.39	32.85	6.8447e-06	45.743	0.0035786	0.0063008	0.0017917	729.66	6.2254e-05	7.0952e-05	737.59	226.27	6.2709e-05	6.8314e-05	281.46	109.39	84.763	33.743	6.4562e-05	47.155	142.913	28.388	5.309	-58.676	108.559	63.170	-59.910	-52.656	78.447	245.986	-54.477	-49.814	-47.415	-42.902	59.133	-45.167	-8191	255	
15395.077	1	1	0	0	0.059189	0.2172	0.19314	0.11343	0.29238	0.17675	0.098248	0.099854	0.11857	0.076869	0.14891	0.18504	0.29244	0.21308	0.22408	0.15215	-2.5667	-2.575	-2.7646	-3.0979	-2.6708	-2.925	-2.9208	-2.6146	-3.0354	-2.5187	-2.9375	-2.9521	-2.5583	-3.025	-2.8563	-2.6771	201.995	105.516	121.365	-51.003	230.435	226.320	281.850	198.375	271.712	159.694	253.541	177.466	90.468	198.879	121.856	229.719	8.5566e-05	0.00047209	8.1133e-05	724.91	1.0571e-06	6.5419e-06	730.41	224.02	5.7749e-06	3.1153e-06	275.42	106.52	81.993	32.598	3.2713e-06	45.829	0.0034423	0.0061498	0.0017035	727.64	5.9474e-05	6.761e-05	737.57	226.43	6.0455e-05	6.6435e-05	281.75	109.42	84.768	33.706	6.2373e-05	47.208	148.307	39.596	3.945	-58.739	163.534	141.386	-59.555	-52.768	207.802	137.916	-54.737	-50.265	-47.787	-42.632	26.597	-45.570	-8191	255	
15395.149	1	1	0	0	0.13511	0.018848	0.12843	0.24771	0.24029	0.098006	0.37625	0.21461	0.18752	0.17167	0.19021	0.21067	0.10704	0.38662	0.15458	0.037814	-2.7104	-2.5417	-2.7104	-3.1312	-2.5542	-2.8208	-2.8021	-2.6063	-3.1333	-2.7646	-2.7208	-3.0667	-2.6604	-2.9646	-3.0083	-2.4854	106.207	6.428	272.815	198.960	154.726	172.471	232.569	171.737	149.310	106.991	223.080	278.282	144.813	97.560	-18.183	17.919	8.7005e-05	0.00052773	0.00024474	725.05	3.4039e-06	7.4173e-07	734.1	222.49	1.7174e-06	3.4964e-06	275.89	106.5	81.311	32.64	5.4768e-06	46.136	0.0033632	0.0060409	0.0016812	728.4	5.9182e-05	6.78e-05	739.68	226.33	6.0318e-05	6.591e-05	282.16	109.86	84.8	33.608	6.118e-05	47.282	222.333	7.183	17.223	-58.628	100.139	263.204	-59.504	-52.830	230.973	77.445	-54.443	-50.038	-48.170	-42.639	128.443	-45.535	-8191	255	
15395.245	1	1	0	0	0.27463	0.06189	0.089226	0.067009	0.23593	0.11607	0.091123	0.21907	0.072544	0.38463	0.077066	0.29664	0.17014	0.25246	0.10991	0.17375	-2.6437	-2.6937	-2.7188	-3.0625	-2.5542	-2.7896	-2.9313	-2.6396	-2.9979	-2.7833	-2.4813	-2.9958	-2.5104	-3.0333	-2.875	-2.6188	31.435	-12.671	251.988	195.787	170.054	170.468	288.205	186.972	110.148	275.672	151.202	150.913	40.486	280.276	-28.773	55.017	0.00010392	0.00035086	0.00020701	728.36	2.8954e-06	2.8676e-06	733.32	223.18	4.6867e-06	8.6644e-06	275.98	106.52	81.391	32.603	4.4669e-06	46.127	0.0033374	0.0059572	0.0016386	729.03	5.7674e-05	6.6063e-05	740.18	226.43	5.8984e-05	6.4653e-05	282.09	109.52	84.508	33.573	5.9655e-05	47.065	160.603	66.129	36.668	-58.883	-21.928	126.848	-59.464	-52.937	164.852	100.157	-54.644	-49.727	-47.830	-43.086	61.061	-45.825	-8191	255	
15395.341	1	1	0	0	0.16117	0.05033	0.015786	0.22923	0.32046	0.31647	0.1491	0.28011	0.32137	0.016789	0.31907	0.16395	0.056613	0.047631	0.23353	0.13106	-2.4875	-2.725	-2.4917	-3.0833	-2.6354	-2.7021	-3.1354	-2.5604	-2.7792	-2.6542	-2.5625	-3.0292	-2.5938	-2.95	-2.8833	-2.5521	54.462	-49.454	15.444	244.745	25.631	22.630	202.487	245.924	24.363	201.729	155.612	243.810	249.978	143.742	148.255	19.331	0.00014456	0.0004977	4.577e-05	723.09	4.2273e-06	6.9218e-06	729.53	221.27	4.8425e-06	2.1055e-06	275.77	106.33	81.296	32.445	1.8553e-06	45.752	0.0032972	0.0057136	0.0016027	725.77	5.6506e-05	6.4999e-05	733.9	224.53	5.7202e-05	6.2107e-05	279.57	109.01	84.526	33.467	5.8657e-05	46.873	166.602	-3.001	117.572	-58.594	110.028	209.246	-59.723	-52.777	61.935	91.971	-54.637	-50.090	-47.632	-42.991	150.718	-45.618	-8191	255	
15395.437	1	1	0	0	0.15276	0.1397	0.10809	0.27064	0.21765	0.33964	0.11888	0.12147	0.091351	0.16949	0.13533	0.12304	0.26743	0.35006	0.15146	0.082222	-2.4646	-2.7229	-2.725	-3.1958	-2.775	-2.8271	-2.9958	-2.5875	-2.7062	-2.8708	-2.5729	-3.1375	-2.725	-2.7208	-3.0833	-2.6271	-64.202	120.967	187.550	236.154	271.767	64.769	2.320	-49.014	-66.960	234.415	249.029	-55.453	191.383	219.624	160.583	231.031	0.000142	0.0003421	3.6763e-05	723.47	1.0767e-06	3.3583e-06	735.21	221.5	5.8455e-06	3.1254e-06	275.55	106.93	82.178	32.592	1.0447e-06	46.004	0.0031846	0.0056148	0.0015592	724.53	5.3741e-05	6.1334e-05	734.31	224.9	5.3993e-05	5.9276e-05	279.67	109.46	84.728	33.484	5.5554e-05	46.964	183.259	-31.808	8.663	-58.525	176.106	-0.574	-59.645	-52.825	107.503	47.530	-54.828	-50.077	-47.971	-42.940	151.156	-45.561	-8191	255	
15395.556	1	1	0	0	0.06592	0.27204	0.19532	0.049491	0.18998	0.084499	0.27056	0.17216	0.10621	0.11914	0.08038	0.12999	0.1802	0.1022	0.16254	0.049683	-2.4833	-2.9625	-2.5875	-3.0187	-2.6583	-2.5979	-3.0625	-2.4958	-2.7896	-2.9479	-2.4813	-3.0646	-2.6208	-2.6375	-2.9979	-2.5687	287.427	20.904	154.716	119.154	57.531	151.776	221.929	243.077	83.960	222.135	110.876	224.093	-11.372	67.906	194.407	256.488	0.00014247	0.00092529	6.1494e-05	726.38	3.7343e-06	9.464e-06	735.62	223.36	4.1655e-06	6.3583e-06	277.21	107.27	82.112	32.715	8.015e-06	46.289	0.0030925	0.0054024	0.0015376	726.1	5.3201e-05	6.2041e-05	737.19	225.71	5.6123e-05	6.2319e-05	282.5	110.24	85.186	33.649	5.737e-05	47.262	134.409	21.531	2.047	-58.869	47.202	139.507	-59.630	-52.970	76.728	112.531	-54.787	-50.131	-47.731	-42.884	121.140	-45.445	-8191	255	
15395.653	1	1	0	0	0.34272	0.17693	0.067496	0.17615	0.091956	0.21654	0.15346	0.31878	0.063554	0.093393	0.20917	0.23208	0.14234	0.29046	0.057626	0.22413	-2.4542	-2.875	-2.5875	-2.8771	-2.8208	-2.575	-3.0187	-2.4417	-2.6562	-3.0417	-2.5938	-3.0062	-2.8417	-2.6	-3.0792	-2.7833	162.201	116.140	223.701	251.428	167.133	136.544	195.206	237.216	-45.685	270.158	168.401	-41.058	39.239	171.994	55.956	283.456	0.00012621	0.0003917	0.00020073	730.65	3.5227e-06	1.3028e-05	740.41	223.88	1.2113e-06	5.3531e-06	277.01	107.29	82.241	32.661	3.1506e-06	45.827	0.0032177	0.0054951	0.0015714	729.32	5.563e-05	6.3742e-05	742.38	226.97	5.6718e-05	6.3331e-05	282.62	110.41	85.087	33.673	5.905e-05	46.98	176.707	-0.365	27.798	-58.517	141.131	99.433	-59.594	-52.850	49.979	227.070	-54.446	-49.656	-48.097	-42.906	-70.350	-45.504	-8191	255	
15395.749	1	1	0	0	0.19416	0.11377	0.18949	0.023974	0.068489	0.25479	0.090271	0.21878	0.14086	0.17583	0.13831	0.32119	0.01438	0.088677	0.20224	0.065406	-2.3396	-2.9792	-2.4083	-2.8458	-2.8937	-2.4979	-2.9833	-2.7604	-2.6771	-3.1042	-2.6083	-2.9146	-2.8688	-2.5854	-2.9083	-2.6792	110.722	35.563	35.183	62.051	12.173	231.361	1.508	198.557	279.551	225.907	221.051	23.378	-59.572	260.379	199.878	-54.656	0.00013349	0.00064813	0.00019577	726.94	4.2135e-06	7.7609e-06	733.29	223.49	5.6856e-06	5.7258e-06	278.18	106.75	81.44	32.581	6.5931e-07	46.095	0.003238	0.0056444	0.0015743	727.2	5.6189e-05	6.3088e-05	736.47	226.22	5.6436e-05	6.2859e-05	281.76	109.96	84.893	33.567	5.9279e-05	47.152	197.091	88.087	32.677	-58.540	52.573	282.694	-59.342	-52.923	71.915	136.831	-54.495	-50.137	-48.251	-42.668	161.379	-45.213	-8191	255	
15395.845	1	1	0	0	0.1508	0.32746	0.16143	0.044013	0.092579	0.20388	0.22766	0.075834	0.062907	0.13129	0.12069	0.18012	0.12827	0.19092	0.059837	0.1048	-2.1875	-2.9813	-2.4417	-2.9437	-2.7729	-2.4	-3.0875	-2.6854	-2.7146	-3.0542	-2.7729	-2.8063	-2.9146	-2.4104	-2.8292	-2.7792	-40.932	48.661	178.232	188.160	227.962	87.846	-60.390	157.981	-28.241	131.882	182.950	-68.233	-63.624	-2.986	61.688	33.111	0.00014817	0.00064841	0.00019291	727	4.9724e-06	8.2286e-06	734.42	223.94	2.5739e-06	5.0888e-06	275.89	107.52	82.145	32.963	5.9215e-06	46.215	0.0032385	0.0055862	0.0016259	727.3	5.773e-05	6.4928e-05	738.7	227.08	5.8659e-05	6.5029e-05	282.35	110.67	85.491	33.822	6.0919e-05	47.302	162.502	46.223	57.900	-58.777	30.796	50.872	-59.722	-52.695	-2.658	8.380	-54.408	-49.981	-47.854	-42.653	56.493	-45.231	-8191	255	
15395.941	1	1	0	0	0.1382	0.29264	0.19653	0.14738	0.31062	0.15412	0.20326	0.19615	0.075376	0.14493	0.22669	0.1506	0.063681	0.37182	0.29171	0.32966	-1.9562	-2.9396	-2.6271	-2.8438	-3.0187	-2.6792	-2.9188	-3.0021	-2.6188	-3.0583	-2.7229	-2.6229	-3.0125	-2.3063	-2.7896	-2.8646	155.382	-53.632	20.786	271.648	223.670	156.181	125.248	229.811	32.182	-65.010	-63.980	70.723	30.604	211.417	55.636	228.962	0.00011457	0.00094958	0.00010462	729.06	1.6474e-06	3.3535e-06	734.98	223.23	7.522e-06	1.0154e-05	279.65	108.07	82.394	32.795	9.8856e-07	46.365	0.0033384	0.0058132	0.0016674	728.56	5.8211e-05	6.5968e-05	741.51	227.31	5.8991e-05	6.5289e-05	284.36	111.04	85.647	33.842	6.2049e-05	47.435	167.015	-7.679	30.191	-58.746	-36.415	14.883	-59.340	-52.833	146.430	83.317	-54.503	-49.786	-48.030	-42.432	130.089	-45.497	-8191	255	
15396.037	1	1	0	0	0.1323	0.25664	0.15719	0.20539	0.12111	0.070701	0.080218	0.082466	0.036589	0.20094	0.23745	0.077612	0.26411	0.063492	0.070163	0.0082585	-2.1708	-3.0438	-2.7313	-2.7333	-2.9042	-2.7375	-2.7979	-2.8292	-2.6708	-3.0187	-2.6833	-2.6937	-3.0312	-2.4479	-2.7542	-3.0646	-44.883	266.006	112.465	164.344	-22.779	45.456	172.911	-9.125	285.263	-4.638	-68.836	167.538	222.335	201.638	188.074	-61.447	0.00015998	0.00087295	4.9049e-05	732.27	5.7332e-06	6.8257e-06	740.61	223.12	6.4365e-06	1.6877e-06	280.77	108.51	82.704	32.783	4.8032e-06	45.91	0.0033786	0.0060024	0.0016948	730.68	5.8396e-05	6.6863e-05	744.47	227.56	5.916e-05	6.5614e-05	285.37	111.49	85.946	33.882	6.1947e-05	47.252	162.120	4.531	238.055	-58.601	30.378	59.704	-59.434	-52.538	113.684	50.466	-54.480	-49.749	-47.747	-42.925	60.239	-45.309	-8191	255	
15396.158	1	1	0	0	0.0739	0.18513	0.022955	0.11327	0.11721	0.17032	0.21019	0.24084	0.17342	0.29171	0.26324	0.26652	0.24675	0.1323	0.043322	0.3635	-1.9417	-2.8479	-2.6771	-2.8312	-3.0167	-2.5583	-2.8521	-2.9229	-2.4583	-2.8271	-2.9292	-2.5875	-2.8312	-2.7	-2.7438	-2.8917	268.137	76.516	189.165	49.663	174.478	-55.897	270.445	-55.477	81.582	230.843	257.424	-63.119	279.625	265.163	190.974	222.103	0.00014714	0.0012011	5.3918e-05	728.42	4.778e-06	2.9295e-06	734.16	223.56	4.0254e-06	5.2845e-06	276.2	107.45	82.483	32.758	3.6186e-06	45.889	0.0033767	0.0060131	0.0016934	728.92	5.9307e-05	6.7086e-05	740.3	227.13	6.0003e-05	6.6203e-05	282.2	110.51	85.276	33.732	6.137e-05	47.092	169.175	30.996	9.739	-58.722	67.853	136.885	-59.940	-52.540	83.836	-25.721	-54.512	-49.824	-47.904	-42.840	107.917	-45.471	-8191	255	
15396.254	1	1	0	0	0.13457	0.14327	0.2534	0.050723	0.22302	0.12551	0.14361	0.10943	0.10933	0.17852	0.12425	0.25849	0.29751	0.1803	0.29219	0.10041	-1.9896	-2.8396	-2.6833	-2.6896	-3.0812	-2.7771	-2.8063	-2.9813	-2.45	-2.9896	-2.8333	-2.5646	-2.8146	-2.6792	-2.6958	-3.0333	51.827	142.503	-29.099	260.070	154.455	175.874	274.882	283.527	128.694	256.192	93.397	264.972	228.088	-4.043	13.488	264.493	0.000101	0.00037705	0.0003255	724.18	9.9771e-06	3.6422e-06	733.71	223.74	1.3452e-06	5.1312e-06	277	108.01	82.966	33.003	2.6514e-06	45.952	0.0033909	0.0060285	0.0016718	727.07	5.9003e-05	6.6736e-05	739.59	226.92	6.0613e-05	6.6346e-05	283.06	110.82	85.612	33.902	6.1065e-05	47.25	143.652	29.145	86.609	-58.602	97.703	214.110	-59.370	-52.782	-61.124	126.616	-54.396	-49.811	-47.797	-43.141	214.951	-45.219	-8191	255	
15396.350	1	1	0	0	0.068753	0.17999	0.23648	0.24255	0.085074	0.16198	0.079716	0.16564	0.06148	0.099048	0.18783	0.2916	0.34779	0.37863	0.081006	0.10218	-1.9583	-2.6958	-2.6229	-2.5292	-3.0062	-2.6104	-2.7833	-3.0417	-2.5875	-3	-2.8417	-2.5938	-2.95	-2.8312	-2.7292	-3.1375	123.309	63.727	57.097	285.375	186.384	-12.278	-5.009	286.141	37.161	145.521	-13.788	286.529	239.222	257.180	-3.973	243.988	0.00011406	0.00015754	0.00011457	727.35	3.4018e-06	1.233e-05	734.95	223.62	2.9563e-06	5.2107e-06	278.88	108.14	82.594	32.954	5.3096e-06	46.364	0.0034043	0.0060224	0.0016888	728.59	5.9244e-05	6.7926e-05	741.89	227.71	6.1124e-05	6.7063e-05	284.57	111.34	85.813	33.885	6.2417e-05	47.567	156.071	141.926	27.878	-58.625	37.421	109.561	-59.736	-53.213	216.438	137.471	-54.423	-49.879	-48.407	-42.978	-8.917	-45.616	-8191	255	
15396.446	1	1	0	0	0.12655	0.15578	0.018447	0.18464	0.23911	0.096243	0.29629	0.12489	0.18641	0.059487	0.049019	0.080064	0.26675	0.28597	0.13975	0.11288	-1.95	-2.5687	-2.8292	-2.5604	-2.825	-2.6688	-2.5208	-3.0479	-2.4625	-2.6083	-2.9708	-2.525	-2.7396	-2.7333	-2.5417	-2.975	138.475	244.674	80.094	270.892	-56.928	35.913	246.196	211.576	54.135	72.398	264.392	-49.102	283.294	282.827	247.153	129.375	0.00013973	0.0002066	0.00021826	729.42	3.879e-06	6.6916e-06	740.15	223.81	3.6421e-07	7.1843e-07	278.77	108.82	82.767	33.003	1.6312e-06	46.007	0.0033969	0.0060092	0.0016557	729.54	5.9069e-05	6.8522e-05	743.83	228.07	6.0981e-05	6.6249e-05	285.19	111.77	86.125	33.916	6.191e-05	47.346	142.922	71.376	87.227	-58.311	82.057	7.607	-59.552	-52.904	83.336	169.506	-54.590	-50.024	-48.005	-42.824	196.851	-45.359	-8191	255	
15396.541	1	1	0	0	0.13012	0.24259	0.35426	0.22612	0.24581	0.30576	0.089792	0.037006	0.11276	0.24435	0.26284	0.098491	0.24591	0.16138	0.10155	0.065519	-2.0625	-2.7042	-2.7562	-2.6021	-2.8667	-2.8312	-2.6562	-3.0687	-2.7625	-2.7979	-2.9896	-2.6229	-2.8063	-2.8	-2.5417	-2.9062	72.400	132.076	258.811	185.178	272.428	164.583	102.724	156.666	28.921	76.003	181.833	219.605	252.627	195.258	-17.176	260.265	0.00015012	0.00057152	9.7889e-05	728.76	2.0561e-06	5.0437e-06	732.73	223.61	5.0011e-06	3.9776e-06	278.55	108.14	82.582	32.657	1.0706e-06	46.021	0.0034387	0.0059704	0.0016535	727.86	5.9069e-05	6.7826e-05	737.68	227.09	6.0702e-05	6.68e-05	283.2	110.95	85.823	33.762	6.2314e-05	47.229	147.809	28.062	-22.541	-58.561	39.687	109.557	-59.452	-52.430	96.195	39.724	-54.445	-49.831	-47.943	-42.801	200.456	-45.315	-8191	255	
15396.637	1	1	0	0	0.27063	0.18061	0.093221	0.30333	0.055653	0.10594	0.2455	0.038583	0.32701	0.27718	0.25873	0.11836	0.28884	0.1665	0.22378	0.22306	-2.2062	-2.5667	-2.8563	-2.6229	-2.9458	-2.9021	-2.5625	-3.1208	-2.6583	-2.6229	-3.1083	-2.65	-2.8521	-3.0187	-2.5417	-2.9062	-51.880	-51.212	87.425	263.024	-0.125	67.412	260.663	231.984	38.415	124.335	250.761	116.728	210.294	234.140	-62.222	178.965	8.8441e-05	0.00045469	0.000185	726.36	6.0059e-06	9.2815e-06	734.13	223.44	3.5341e-06	4.2683e-06	276.36	107.54	82.533	32.95	3.4343e-06	45.915	0.0033975	0.0059505	0.0016823	727.32	5.967e-05	6.7964e-05	738.59	227.49	6.1337e-05	6.7074e-05	283.06	110.79	85.819	33.907	6.4203e-05	47.231	151.533	64.331	38.620	-58.793	83.054	99.297	-59.515	-52.892	45.410	174.562	-54.446	-49.998	-47.972	-42.787	26.525	-45.587	-8191	255	
15396.757	1	1	0	0	0.2141	0.2059	0.08412	0.15328	0.11607	0.18635	0.24326	0.018759	0.022489	0.55041	0.11859	0.2553	0.172	0.14129	0.09569	0.26759	-2.4417	-2.3917	-3.0958	-2.7021	-2.7917	-2.85	-2.6333	-2.9146	-2.8646	-2.4375	-3.1354	-2.775	-2.6917	-2.9333	-2.6708	-2.9	47.073	-55.330	0.274	65.913	-49.279	-35.452	242.886	-10.410	14.844	91.487	240.379	224.160	-32.121	157.512	-63.979	146.895	9.4674e-05	0.00034346	0.00024078	726.79	3.0258e-06	5.0278e-06	735.59	224.93	3.8406e-06	5.0336e-06	279.61	108.33	82.74	32.849	6.2503e-06	46.443	0.0035208	0.0061184	0.001733	728.07	6.0666e-05	6.9013e-05	740.42	227.95	6.243e-05	6.9225e-05	284.55	111.29	86.041	33.966	6.5915e-05	47.596	182.568	69.608	77.141	-58.712	195.001	-7.244	-59.817	-52.572	143.753	226.362	-54.751	-49.882	-48.102	-42.625	38.551	-45.582	-8191	255	
15396.854	1	1	0	0	0.10558	0.12846	0.067921	0.051531	0.095379	0.15392	0.17174	0.07288	0.22238	0.12697	0.22376	0.13436	0.32283	0.2954	0.42637	0.071204	-2.4083	-2.4771	-3.0979	-2.6667	-2.675	-3.1479	-2.6083	-2.9	-2.9188	-2.5625	-3.2646	-2.8042	-2.6146	-3.0312	-2.4292	-2.8208	263.226	-52.083	-62.300	245.768	218.322	173.695	243.077	95.642	74.865	198.382	32.611	36.038	267.974	-57.219	235.127	176.718	0.00011576	0.00076174	9.1823e-05	729.35	1.2929e-06	3.4794e-06	736.89	224.29	1.7799e-06	1.7174e-06	279.24	108.22	82.848	33.07	2.5333e-06	46.179	0.0035916	0.0061864	0.0017522	729.91	6.1756e-05	7.0022e-05	744.38	228.36	6.2734e-05	6.9982e-05	284.93	111.74	86.301	34.016	6.544e-05	47.456	141.981	22.676	-1.289	-58.499	-41.013	125.914	-59.716	-52.888	55.465	-7.957	-54.880	-49.712	-47.755	-42.612	87.851	-45.623	-8191	255	
15396.950	1	1	0	0	0.14852	0.1163	0.16851	0.084748	0.04573	0.16208	0.04768	0.27391	0.15905	0.14041	0.056034	0.058851	0.090087	0.047481	0.32952	0.19045	-2.3063	-2.4167	-2.9333	-2.8312	-2.6396	-3	-2.6125	-2.8479	-2.8208	-2.5083	-3.0208	-2.7729	-2.6229	-3.2458	-2.5167	-2.7938	-63.719	267.808	174.711	7.303	131.955	209.378	182.490	43.855	131.964	36.286	215.047	123.036	215.237	-24.527	232.228	229.838	0.00012103	0.00032077	0.00012825	725.04	1.8545e-06	1.3867e-05	734.21	223.04	9.2637e-07	1.1843e-05	277.34	107.79	82.614	32.888	5.221e-06	46.167	0.0034567	0.0060852	0.0017373	726.22	5.9979e-05	6.9658e-05	739.23	227.64	6.2064e-05	6.9692e-05	283.55	111.05	86.017	33.943	6.4574e-05	47.371	170.924	12.129	-13.050	-58.633	168.212	70.985	-59.516	-52.815	137.495	83.737	-54.603	-49.702	-47.530	-42.894	63.720	-45.448	-8191	255	
15397.021	1	1	0	0	0.080301	0.11483	0.15887	0.18037	0.10723	0.080433	0.16596	0.16605	0.07412	0.19114	0.2406	0.11548	0.19386	0.28522	0.051871	0.11441	-2.5375	-2.5333	-2.7104	-2.9083	-2.5917	-3.0208	-2.8375	-2.7146	-2.9437	-2.3937	-3.0417	-2.7333	-2.525	-3.0354	-2.6375	-2.9188	110.023	161.323	42.990	27.210	175.750	210.252	93.533	203.185	99.217	226.876	130.208	242.550	241.505	255.230	3.952	232.360	0.00013991	0.00052055	0.00019991	728.56	2.7035e-06	4.3531e-06	729.84	222.82	2.7397e-06	2.26e-06	277.59	107.95	82.52	32.804	5.5145e-06	45.863	0.003505	0.0061325	0.0017413	727.76	6.028e-05	6.9518e-05	738.54	227.33	6.2887e-05	6.994e-05	283.77	110.91	85.832	33.874	6.6217e-05	47.299	176.220	26.025	59.009	-58.565	83.551	-21.843	-59.668	-52.414	85.936	5.873	-55.000	-50.296	-47.777	-42.952	61.402	-45.272	-8191	255	
15397.142	1	1	0	0	0.13421	0.13511	0.12551	0.34431	0.1286	0.19969	0.1939	0.28247	0.14348	0.11473	0.22296	0.12146	0.083999	0.34484	0.16252	0.15482	-2.5354	-2.4521	-2.8708	-3.0583	-2.6083	-3.1542	-2.8854	-2.6875	-3.0083	-2.7375	-2.9771	-2.9	-2.6854	-3.0375	-2.7396	-2.5917	236.927	24.824	229.583	244.277	21.430	163.635	241.811	245.386	69.951	-4.095	278.159	249.230	-53.390	235.927	12.986	178.858	6.8106e-05	0.00041828	7.942e-05	728.46	3.4504e-06	2.0174e-06	730.14	223.83	3.9842e-06	7.2743e-06	278.05	108.14	82.842	32.87	3.5917e-06	46.085	0.0035886	0.0062569	0.0017661	726.47	6.1196e-05	7.0526e-05	738.06	227.44	6.1709e-05	6.8942e-05	284.53	111.08	85.874	33.94	6.4552e-05	47.46	145.778	83.604	-18.247	-58.556	163.416	-57.375	-59.503	-52.592	139.487	-0.415	-54.593	-50.059	-47.946	-42.660	86.757	-45.459	-8191	255	
15397.238	1	1	0	0	0.10374	0.11197	0.073678	0.17943	0.1178	0.33152	0.19618	0.15755	0.32603	0.09341	0.1674	0.18354	0.044377	0.20702	0.3572	0.33032	-2.5687	-2.6229	-2.7792	-3.0667	-2.6875	-3.0417	-2.9479	-2.6833	-3.1792	-2.5542	-2.675	-3.0083	-2.4146	-3.1146	-2.6604	-2.7042	243.456	-12.647	153.321	-20.272	93.841	-33.669	244.186	-0.671	67.685	51.778	216.474	152.733	-1.352	-70.420	165.889	204.757	0.00011456	0.00090053	0.0002233	727.55	3.6002e-06	5.2111e-06	737.54	223.52	6.5933e-06	7.8392e-06	278.38	107.3	82.627	32.838	2.5474e-06	46.142	0.0035478	0.0062713	0.0017491	727.96	6.1168e-05	6.9719e-05	741.19	227.75	6.1768e-05	7.0504e-05	284.2	110.91	85.656	33.822	6.5337e-05	47.341	149.383	11.959	-5.918	-58.509	59.776	83.217	-59.618	-53.162	94.205	95.895	-54.474	-49.936	-48.139	-42.732	68.762	-45.143	-8191	255	
15397.334	1	1	0	0	0.13407	0.02834	0.22387	0.14696	0.14422	0.27485	0.25514	0.25617	0.34777	0.23039	0.079143	0.14525	0.19728	0.10019	0.29222	0.028383	-2.5417	-2.6646	-2.5687	-2.9875	-2.7104	-2.8875	-2.9437	-2.6375	-3.0021	-2.7917	-2.8146	-3.1833	-2.6125	-2.9271	-2.7167	-2.6146	286.113	31.673	136.781	25.618	61.852	54.211	172.321	252.732	12.153	242.054	2.770	-48.440	285.707	-40.492	35.741	273.880	0.00014293	0.00015662	0.00014874	724.11	4.902e-06	5.8909e-06	728.36	224.1	2.3352e-06	3.9556e-06	276.28	106.91	81.524	32.527	3.3993e-06	45.764	0.0035307	0.0062853	0.0017719	724.93	6.1884e-05	6.9855e-05	734.98	226.62	6.3223e-05	6.968e-05	281.96	110.05	84.913	33.725	6.3377e-05	47.089	173.256	183.832	1.806	-58.477	30.860	86.094	-59.210	-52.707	209.218	-17.587	-54.805	-50.238	-47.794	-42.715	163.208	-45.576	-8191	255	
15397.430	1	1	0	0	0.077667	0.058517	0.0542	0.18155	0.30741	0.1689	0.17923	0.081519	0.14315	0.049843	0.10571	0.08324	0.053356	0.19691	0.39209	0.048201	-2.525	-2.8458	-2.4979	-3.1771	-2.3271	-2.7521	-2.9542	-2.6354	-2.9437	-2.8708	-2.7188	-2.9854	-2.5583	-2.7938	-2.7812	-2.5229	149.574	278.654	-3.560	203.373	113.471	54.983	201.934	144.049	8.909	68.836	-2.303	209.931	-63.781	6.539	90.278	199.737	0.00016342	0.00021889	0.00012425	722.04	3.0109e-06	4.0782e-06	725.37	223.13	2.9045e-06	4.3259e-06	276.22	107.13	82.421	32.707	4.3149e-06	46.08	0.0034548	0.0061404	0.0017094	723.7	6.0766e-05	6.9553e-05	735.26	226.75	6.2357e-05	6.874e-05	282.36	110.61	85.536	33.843	6.3319e-05	47.383	163.571	-44.702	79.363	-58.482	35.748	159.206	-59.942	-52.770	23.681	55.378	-54.852	-49.629	-48.015	-42.628	131.453	-45.372	-8191	255	
15397.551	1	1	0	0	0.18422	0.069508	0.14063	0.10721	0.11108	0.32104	0.23517	0.15363	0.19839	0.12131	0.19985	0.069047	0.10371	0.057933	0.032011	0.10451	-2.425	-2.6229	-2.4042	-3.1771	-2.6312	-2.9375	-3.05	-2.5708	-2.8854	-2.8667	-2.6083	-3.0062	-2.6604	-2.7104	-3.0125	-2.6833	43.197	67.823	258.255	237.787	283.633	37.178	183.420	246.313	38.602	114.941	222.913	-61.124	-59.595	186.373	275.950	216.034	0.00010934	0.0004186	0.00016085	725.34	3.9432e-06	6.2794e-06	731.34	222.02	2.9302e-06	5.2643e-06	278.04	107.49	82.183	33.001	1.5193e-06	46.379	0.0034619	0.0061413	0.001718	726.25	5.9869e-05	6.8201e-05	738.73	227	6.2111e-05	6.7584e-05	283.58	110.81	85.688	34.025	6.4026e-05	47.621	179.483	41.499	-25.965	-58.554	132.951	9.265	-59.774	-52.864	183.788	99.834	-54.709	-49.731	-47.655	-42.999	35.702	-45.723	-8191	255	
15397.647	1	1	0	0	0.28185	0.060979	0.047377	0.20618	0.051329	0.19029	0.23538	0.078754	0.082846	0.12674	0.13945	0.050736	0.26362	0.091313	0.10264	0.25843	-2.2333	-2.7854	-2.4	-3.1646	-2.6979	-2.7062	-3.1667	-2.5417	-2.8146	-3.0583	-2.5312	-2.9167	-2.5833	-2.7667	-3.0958	-2.6625	135.068	60.188	-65.879	229.748	65.693	274.625	217.157	218.688	-16.252	62.064	-19.795	57.258	62.678	242.397	184.263	229.364	0.00015787	0.0010584	0.00021263	726.7	3.3751e-06	7.2166e-06	732.93	223.13	2.5736e-06	3.7471e-06	277.84	107.89	82.288	32.993	4.8855e-06	46.269	0.0035027	0.0061925	0.0016965	726.73	6.0772e-05	6.7727e-05	740.01	227.57	6.1964e-05	6.7943e-05	284.3	111.12	85.556	33.975	6.3803e-05	47.338	166.107	31.043	-3.188	-58.453	83.402	78.558	-59.670	-52.753	143.154	117.763	-54.681	-50.295	-47.929	-43.059	153.734	-45.123	-8191	255	
15397.719	1	1	0	0	0.2324	0.1428	0.053198	0.35187	0.14854	0.30722	0.090211	0.22361	0.084811	0.13167	0.25749	0.27007	0.20187	0.1379	0.21759	0.34346	-2.425	-3.0167	-2.5458	-3.2458	-2.7104	-2.6188	-3.0146	-2.625	-2.6771	-2.8792	-2.4313	-3.0417	-2.8875	-2.6875	-3.05	-2.8229	-36.255	231.548	-3.222	-68.328	126.808	173.311	-53.992	277.014	136.812	49.986	242.905	259.967	-47.824	-62.972	225.837	139.525	0.0001257	0.00039344	0.00017516	720.37	2.8284e-06	1.0043e-05	726.37	222.15	6.1181e-06	6.9227e-06	275.42	106.69	81.588	32.773	3.6263e-06	45.887	0.003416	0.0061139	0.0016948	723.45	5.9507e-05	6.8327e-05	735.43	226.22	6.15e-05	6.677e-05	281.43	109.79	84.972	33.706	6.2853e-05	46.986	155.003	62.173	-29.770	-58.562	140.909	60.570	-59.679	-52.644	43.052	101.811	-54.488	-49.949	-47.523	-42.684	57.688	-45.557	-8191	255	
15397.838	1	1	0	0	0.17547	0.21845	0.26042	0.33146	0.17284	0.14907	0.24625	0.18069	0.12414	0.16709	0.37699	0.1539	0.36842	0.35902	0.21753	0.22619	-2.3354	-2.9333	-2.5563	-2.8417	-2.7708	-2.5958	-3.2438	-2.8	-2.7458	-2.9313	-2.5479	-2.9229	-2.9667	-2.3438	-3.0208	-2.5667	76.443	-62.324	276.911	-64.727	123.529	261.384	-65.244	263.720	113.235	216.999	265.251	255.836	285.096	-43.398	48.762	168.752	0.00013361	0.00040075	0.00021831	722.75	5.2236e-06	4.1687e-06	729.68	221.44	2.0271e-06	6.4631e-06	275.87	106.89	82.335	32.733	1.4566e-06	46.085	0.0034109	0.0060117	0.0016711	722.86	5.7783e-05	6.7574e-05	734.95	225.94	6.0649e-05	6.5386e-05	281.76	110.08	85.299	33.772	6.2406e-05	47.317	151.392	6.719	37.306	-58.647	130.197	57.737	-59.591	-52.971	137.320	187.398	-54.534	-49.808	-47.839	-42.927	204.255	-45.688	-8191	255	
15397.934	1	1	0	0	0.12646	0.34502	0.20177	0.056975	0.1656	0.13496	0.11726	0.25861	0.078104	0.20857	0.18966	0.082604	0.19826	0.11408	0.0387	0.17894	-2.3646	-2.9938	-2.6208	-2.9979	-2.9458	-2.5833	-3.2292	-2.6562	-2.5917	-2.9688	-2.6437	-2.9417	-3.0687	-2.4604	-2.9354	-2.7625	173.167	-30.832	280.138	225.244	12.069	128.542	107.159	5.087	104.129	223.257	129.316	140.645	241.233	-69.119	-31.550	246.727	0.00013431	0.00076579	0.00014071	726.31	5.6157e-06	1.2021e-06	735	225.01	3.7523e-06	1.9167e-06	278.76	107.81	82.642	33.194	2.4587e-06	46.647	0.0033735	0.0058717	0.0016387	724.86	5.774e-05	6.5842e-05	738.74	227.42	5.9658e-05	6.597e-05	284.24	111.17	85.666	34.032	6.1309e-05	47.591	176.143	-26.221	90.615	-58.548	140.981	-0.254	-59.588	-52.778	31.351	110.952	-54.463	-49.884	-47.630	-42.839	192.445	-45.332	-8191	255	
15398.030	1	1	0	0	0.21434	0.20837	0.029079	0.07224	0.21143	0.12746	0.11196	0.22501	0.058568	0.15308	0.21344	0.30515	0.11924	0.13037	0.10717	0.08234	-2.2146	-3	-2.45	-2.8146	-2.9479	-2.3396	-2.8042	-2.9146	-2.6167	-3.0354	-2.7021	-2.7771	-3.2104	-2.5625	-2.7208	-2.7625	-8.487	252.887	223.481	186.175	219.326	-50.985	-50.174	208.549	272.270	-44.981	-5.960	269.860	-1.322	273.920	146.514	195.106	0.00013258	5.7746e-05	0.00019511	723.7	5.2531e-06	5.4279e-06	734.03	225.12	4.9471e-06	7.6741e-06	279.74	109.47	82.202	33.195	3.5623e-06	46.483	0.0033373	0.0057744	0.0016287	726.28	5.6543e-05	6.5326e-05	739.86	228.14	5.7466e-05	6.3056e-05	285.56	111.85	85.645	34.059	6.1046e-05	47.58	146.220	177.065	17.725	-58.490	73.045	122.028	-59.787	-52.768	132.024	98.360	-54.274	-49.639	-47.761	-42.683	91.971	-45.442	-8191	255	
15398.151	1	1	0	0	0.11195	0.23591	0.14429	0.033867	0.14291	0.063481	0.077911	0.049304	0.22258	0.096654	0.24798	0.15046	0.28256	0.055914	0.040514	0.13327	-2.1604	-3.0646	-2.5875	-2.8063	-2.9917	-2.5146	-2.975	-3.0021	-2.4333	-2.8458	-2.7042	-2.7208	-2.9313	-2.55	-2.7021	-3.075	263.505	161.054	59.773	173.183	3.883	204.431	127.702	163.415	195.940	161.100	245.747	170.868	235.634	-19.993	15.370	202.928	0.00012904	0.00021187	0.00014224	722.21	1.9291e-06	6.4385e-06	735.31	225.26	3.8613e-06	7.6976e-06	278.02	108.03	82.714	33.15	6.7398e-06	46.467	0.0032449	0.0056532	0.0016144	723.88	5.543e-05	6.3781e-05	736.42	226.88	5.4868e-05	6.1104e-05	283.23	110.86	85.544	34.004	5.6942e-05	47.525	159.655	-17.456	-5.047	-58.475	138.851	75.552	-59.582	-52.808	91.847	162.454	-54.709	-50.041	-47.993	-42.695	67.495	-45.489	-8191	255	
15398.247	1	1	0	0	0.19838	0.22951	0.13877	0.096721	0.14881	0.25975	0.24172	0.15226	0.098935	0.22048	0.19498	0.19849	0.37691	0.19906	0.028151	0.016576	-1.9688	-3.0687	-2.8	-2.6937	-3.1479	-2.6729	-2.9375	-3.0521	-2.5625	-2.9375	-2.8125	-2.6562	-3.0979	-2.6083	-2.7521	-3.0354	271.122	282.985	266.629	193.517	1.350	202.139	283.708	216.269	32.883	-45.794	190.297	-68.719	-34.571	121.674	63.784	174.580	0.00015649	0.00030284	0.00016148	723.57	6.7234e-06	8.9932e-06	733.07	223.65	1.4783e-06	4.2962e-06	280.37	108.96	83.353	33.346	3.6812e-06	46.677	0.003142	0.0054435	0.001534	722.77	5.3208e-05	6.1957e-05	737.3	227.23	5.4547e-05	6.0377e-05	284.23	111.55	86.019	34.152	5.6211e-05	47.755	161.341	19.505	13.918	-58.682	87.248	-40.683	-59.364	-52.619	251.161	86.618	-54.689	-49.970	-47.822	-43.016	93.876	-45.448	-8191	255	
15398.318	1	1	0	0	0.13407	0.19366	0.10857	0.21414	0.099862	0.022914	0.38253	0.061035	0.13203	0.24017	0.15124	0.11147	0.24924	0.20632	0.095735	0.30407	-2.1271	-2.9646	-2.7354	-2.7229	-3.0854	-2.6437	-2.9188	-2.9604	-2.5271	-2.9708	-2.825	-2.5521	-3.1562	-2.9146	-2.6562	-3.1896	6.439	35.817	182.956	226.823	134.208	-52.799	180.127	-33.078	-64.147	-1.282	61.040	184.048	247.931	284.051	0.622	22.485	0.00016897	0.0002368	0.00027719	725.99	1.9527e-06	1.0159e-05	736.05	224.11	5.627e-06	6.8315e-06	281.15	109.21	83.547	33.572	3.0919e-06	47.203	0.0031032	0.0053345	0.0015244	723.49	5.2952e-05	6.0224e-05	739.33	227.61	5.3115e-05	5.9604e-05	285.76	111.98	86.274	34.262	5.5919e-05	48.153	165.887	-35.013	18.805	-58.448	239.435	66.541	-59.371	-52.881	-39.437	149.959	-54.499	-49.586	-47.604	-42.738	216.541	-45.409	-8191	255	
15398.415	1	1	0	0	0.15539	0.086102	0.11887	0.47256	0.14009	0.44857	0.23259	0.20756	0.21108	0.25966	0.15709	0.16207	0.069905	0.1332	0.23323	0.2251	-2.1917	-2.8854	-2.8937	-2.5646	-2.8104	-2.6667	-2.6667	-3.1188	-2.5229	-2.7625	-2.9625	-2.4896	-2.9938	-2.9375	-2.5646	-3.1188	147.730	240.714	262.844	263.242	128.022	214.594	258.189	-47.766	4.831	264.858	208.668	-12.996	-5.855	-54.082	-7.300	246.138	0.00010483	0.001063	0.00020095	728.2	7.4292e-06	1.105e-05	744.53	225.94	8.4085e-07	6.1945e-06	281.47	109.86	83.666	33.53	2.5659e-06	47.251	0.0030519	0.0052738	0.0014877	726.46	5.2478e-05	5.9393e-05	744.8	228.51	5.3132e-05	5.9061e-05	287.1	112.44	86.337	34.372	5.477e-05	48.25	194.282	-1.329	34.321	-58.691	108.525	53.565	-59.513	-52.753	126.321	145.568	-54.528	-50.050	-47.941	-42.844	-11.756	-45.630	-8191	255	
15398.534	1	1	0	0	0.12743	0.049779	0.098889	0.24305	0.33334	0.15917	0.19614	0.27392	0.27944	0.079393	0.087221	0.034896	0.13233	0.026047	0.063285	0.05687	-2.0167	-2.7	-2.9313	-2.5563	-3.0021	-3.0354	-2.6146	-3.0229	-2.4771	-2.75	-2.9437	-2.5104	-2.9625	-2.9292	-2.5042	-3.0458	243.864	240.016	136.708	238.015	232.457	2.843	221.623	248.132	-64.736	229.315	162.289	159.514	169.096	260.254	69.607	183.538	0.00011929	0.00022598	0.00017378	724.08	2.7091e-06	5.4141e-06	736.19	225.54	5.7319e-06	5.3128e-06	281.2	109.26	83.299	33.536	5.4222e-06	47.012	0.0031028	0.0053031	0.0014855	725.1	5.3226e-05	5.9027e-05	738.22	227.62	5.268e-05	5.8774e-05	284.32	111.63	85.699	34.147	5.4484e-05	47.965	170.425	11.335	288.596	-58.541	177.603	110.164	-59.623	-52.722	-2.546	57.347	-54.487	-49.926	-47.564	-42.712	94.142	-45.539	-8191	255	
15398.630	1	1	0	0	0.01269	0.30857	0.082527	0.28755	0.14269	0.18581	0.31358	0.17162	0.29898	0.11837	0.20524	0.1295	0.24067	0.24246	0.14969	0.19604	-2.2	-2.6083	-2.9729	-2.5604	-2.8479	-2.6854	-2.5625	-2.9875	-2.4396	-2.4792	-3.1312	-2.5229	-2.8958	-2.8646	-2.5563	-2.9938	117.434	284.793	-30.688	-40.521	22.600	35.587	210.759	-49.684	52.302	176.005	-45.516	78.571	251.559	-50.742	163.761	198.769	0.00013021	0.00012374	5.7619e-05	724.76	4.7261e-06	7.1782e-06	734.22	225.1	4.2725e-06	7.1837e-06	282.38	109.37	83.013	33.281	6.9736e-06	47.095	0.0029723	0.005183	0.0014728	722.55	5.1764e-05	5.8445e-05	738.75	227.49	5.2132e-05	5.7297e-05	285.6	111.98	85.871	34.221	5.3186e-05	48.244	172.765	96.629	207.698	-58.669	115.844	112.471	-59.500	-52.814	128.686	63.737	-54.291	-50.068	-47.655	-42.712	69.249	-45.583	-8191	255	
15398.726	1	1	0	0	0.33757	0.054393	0.18758	0.21557	0.28344	0.15733	0.33077	0.16066	0.1888	0.2693	0.14989	0.37834	0.15623	0.25087	0.017964	0.12252	-2.4188	-2.6063	-2.9542	-2.5938	-2.6479	-2.8729	-2.6354	-2.9354	-2.8187	-2.6312	-2.9771	-2.6979	-2.6312	-2.9771	-2.6125	-3.0187	219.649	267.007	83.035	142.625	129.964	148.384	288.843	143.928	230.993	27.215	61.877	-44.985	168.916	-33.296	227.697	74.049	0.00013118	0.00063036	0.00020181	725.77	3.1658e-07	8.3477e-06	736.49	225.21	9.9019e-07	5.3835e-06	282.23	109.67	83.246	33.191	3.6581e-06	47.178	0.0029936	0.0052359	0.0014599	725.56	5.1893e-05	5.816e-05	739.47	228.04	5.3424e-05	5.8584e-05	286.39	112.11	86.144	34.185	5.5272e-05	48.217	181.809	-37.330	24.492	-58.473	119.286	69.570	-59.726	-52.645	174.329	177.647	-54.304	-49.885	-47.844	-42.766	80.841	-45.434	-8191	255	
15398.846	1	1	0	0	0.10772	0.13305	0.15156	0.22465	0.17604	0.054057	0.23415	0.088757	0.12308	0.19902	0.12897	0.11393	0.15399	0.19934	0.23665	0.22499	-2.3167	-2.5583	-2.9104	-2.7333	-2.6875	-3.0521	-2.6292	-3.1396	-2.9688	-2.525	-3.1063	-2.6937	-2.6708	-3.0479	-2.5125	-2.7458	169.350	50.382	188.199	129.425	13.604	174.859	196.190	117.008	28.616	243.927	-6.817	80.854	-10.414	242.191	81.460	242.167	0.00018963	0.00010864	0.00023196	728.74	3.2944e-06	1.4508e-05	738.78	225.64	6.833e-06	3.4359e-06	284.15	109.43	84.42	33.53	1.1719e-06	47.597	0.0030401	0.0053008	0.001495	726.17	5.2684e-05	5.9463e-05	743.52	228.6	5.3483e-05	5.876e-05	287.46	112.64	86.417	34.377	5.4894e-05	48.455	164.149	211.117	24.251	-58.498	133.852	49.585	-59.522	-52.897	14.843	-48.493	-54.403	-49.647	-47.857	-42.710	216.658	-45.746	-8191	255	
15398.943	1	1	0	0	0.2348	0.24014	0.10551	0.099081	0.17244	0.23377	0.31032	0.091019	0.18418	0.11555	0.18035	0.11376	0.19178	0.10511	0.29712	0.087519	-2.4521	-2.4188	-3.0771	-2.8417	-2.6375	-2.9437	-2.6542	-3.0771	-2.9313	-2.7583	-3.0812	-2.9021	-2.6729	-3.0125	-2.5375	-2.8438	183.759	49.323	-30.180	175.906	242.103	62.754	239.969	229.933	270.109	83.956	103.686	-38.226	-59.673	-29.423	183.387	265.107	9.1292e-05	0.0010695	0.00028103	728.32	2.7437e-06	1.5245e-06	740.73	224.89	3.7976e-06	1.3e-06	281.5	108.89	83.213	33.182	3.2655e-06	47.233	0.002976	0.0052558	0.0014525	725.65	5.193e-05	5.8197e-05	740.46	227.94	5.2799e-05	5.7038e-05	284.89	111.87	86.092	34.068	5.3738e-05	48.028	173.073	1.508	-25.739	-58.885	43.532	27.245	-59.523	-52.764	-48.198	113.704	-54.567	-49.884	-47.817	-42.956	70.907	-45.854	-8191	255	
15399.014	1	1	0	0	0.16204	0.12298	0.13394	0.084078	0.11055	0.030262	0.11106	0.13686	0.13775	0.16177	0.044912	0.11343	0.26126	0.17056	0.14758	0.10371	-2.5083	-2.4375	-3.0563	-2.8937	-2.5167	-3.0083	-2.5958	-2.65	-2.8937	-2.5458	-3.0333	-2.9458	-2.5729	-3.0979	-2.6396	-2.8917	195.847	-27.290	106.323	277.456	-18.555	227.992	256.412	173.563	45.126	-31.135	-27.166	-16.389	-60.330	-57.687	218.782	254.646	0.00017266	0.00085368	0.0002645	725.47	1.7473e-06	3.3252e-06	737.72	225.58	1.6157e-06	7.9613e-06	280.88	109.05	83.932	33.303	6.2025e-06	47.032	0.0029019	0.0051767	0.0014528	723.01	5.0674e-05	5.8113e-05	740.5	227.84	5.1679e-05	5.6944e-05	285.39	111.51	85.963	34.145	5.4067e-05	48.089	153.415	-8.278	94.638	-58.581	25.050	111.637	-59.744	-52.662	123.028	76.543	-54.428	-49.807	-47.943	-42.793	64.834	-45.495	-8191	255	
15399.110	1	1	0	0	0.11868	0.27556	0.15668	0.18817	0.10973	0.26962	0.14868	0.11281	0.12892	0.22251	0.094361	0.24132	0.24373	0.11524	0.2603	0.13508	-2.4646	-2.4667	-2.8125	-2.8479	-2.5604	-3.1646	-2.5729	-2.6625	-2.8312	-2.4604	-2.8417	-2.7479	-2.5708	-2.9896	-2.5792	-2.6083	172.681	-62.896	237.412	-46.412	48.057	-26.494	-61.740	206.565	152.955	210.808	-61.984	-54.967	-62.796	169.103	75.461	195.829	0.00017539	0.00043204	0.00021533	729.64	3.8689e-06	2.6855e-06	742.46	225.98	4.5936e-06	8.2239e-06	281.54	110.14	83.326	33.399	2.9292e-06	47.345	0.0029067	0.0051917	0.0014359	725.84	5.0173e-05	5.9494e-05	741.95	228.24	5.2473e-05	5.7809e-05	286.48	112.39	85.974	34.234	5.5531e-05	48.272	159.893	71.442	16.952	-58.552	99.700	150.505	-59.485	-52.628	43.757	138.694	-54.645	-50.112	-48.020	-42.909	89.674	-45.456	-8191	255	
15399.231	1	1	0	0	0.26458	0.20224	0.25198	0.11096	0.24716	0.2191	0.26978	0.17458	0.17764	0.14844	0.14646	0.12676	0.081401	0.12404	0.057819	0.11515	-2.5271	-2.4437	-2.7167	-2.9667	-2.5417	-3.0021	-2.8729	-2.775	-3.0042	-2.6562	-2.8438	-2.8979	-2.4875	-2.9417	-2.6729	-2.6937	-47.197	-23.767	274.054	-64.247	155.121	-18.867	246.518	190.154	-32.852	50.358	192.643	72.266	283.635	-64.340	256.683	197.375	9.8553e-05	0.00014201	0.00019817	727.4	2.006e-06	3.995e-06	739.81	225.34	3.1354e-06	9.7473e-06	283.79	110.02	83.607	33.586	1.9554e-06	47.817	0.0029715	0.0052414	0.0014667	725.96	5.1291e-05	5.8869e-05	743.01	228.13	5.2099e-05	5.7924e-05	287.48	112.58	86.344	34.338	5.346e-05	48.62	141.435	-4.761	78.716	-58.790	97.895	94.914	-59.922	-52.795	-19.800	97.750	-54.574	-49.778	-48.215	-42.800	-64.589	-45.327	-8191	255	
15399.327	1	1	0	0	0.18849	0.17761	0.10908	0.1778	0.13343	0.27903	0.14022	0.11749	0.13498	0.15411	0.27977	0.16691	0.36694	0.12899	0.084632	0.18323	-2.4375	-2.7229	-2.6167	-2.9958	-2.5542	-2.8875	-2.9146	-2.5812	-3.0563	-2.6208	-2.9396	-2.925	-2.4479	-2.8042	-2.8542	-2.6917	-13.509	284.275	263.539	-39.404	20.984	179.749	250.895	23.737	260.828	38.463	248.833	285.475	235.831	197.854	-40.453	105.031	0.00014864	0.00084083	0.0001607	726.74	6.51e-07	5.7603e-06	740.25	225.8	4.4915e-06	2.3362e-06	282.2	109.71	83.139	33.468	3.2669e-06	46.915	0.0028551	0.0050624	0.0014354	724.04	4.934e-05	5.6727e-05	741.11	227.53	5.0785e-05	5.5837e-05	285.8	112.1	86.003	34.195	5.3096e-05	48.02	166.823	-20.975	36.421	-58.781	114.705	45.122	-59.559	-52.857	-1.712	107.448	-54.382	-49.662	-47.880	-42.890	57.212	-45.776	-8191	255	
15399.423	1	1	0	0	0.066645	0.090175	0.20301	0.15587	0.19729	0.22401	0.10964	0.10036	0.12722	0.30129	0.21108	0.13907	0.26967	0.067868	0.37334	0.27247	-2.5083	-2.6437	-2.5854	-3.0396	-2.6063	-2.8771	-3.0271	-2.4938	-2.9375	-2.7854	-2.7708	-3.0458	-2.5729	-3.0458	-2.625	-2.5396	-57.386	218.643	141.899	253.248	180.779	136.846	168.631	272.892	16.385	-8.983	-9.419	-66.409	212.431	163.635	146.170	213.037	0.00013305	0.0004953	7.4008e-05	725.32	2.8379e-06	5.7222e-06	735.16	225.99	2.4276e-07	2.3377e-06	282.59	109.94	83.564	33.497	5.9138e-06	47.482	0.0029141	0.0050384	0.0014309	724.14	4.9263e-05	5.7401e-05	739.91	228.26	5.0898e-05	5.6166e-05	286.71	112.35	86.317	34.242	5.2852e-05	48.406	144.611	60.385	5.025	-58.574	75.995	77.751	-59.684	-52.854	-36.526	49.615	-54.375	-49.933	-47.835	-42.972	105.734	-45.466	-8191	255	
15399.519	1	1	0	0	0.071598	0.11751	0.14562	0.18121	0.2384	0.030738	0.18119	0.24444	0.30228	0.079757	0.12297	0.062932	0.22403	0.049694	0.29336	0.19211	-2.4771	-2.7479	-2.6813	-3.0729	-2.5563	-2.6771	-3.0771	-2.5542	-2.7917	-2.7313	-2.4854	-3.0979	-2.7042	-2.6562	-2.8375	-2.55	-35.219	204.227	182.982	209.428	91.141	68.790	199.133	202.931	170.449	-34.863	225.206	224.961	-53.665	112.230	-2.057	252.751	0.00015964	0.0010633	0.00024198	723.49	4.0638e-06	9.1906e-06	740.58	226.17	4.1261e-06	1.1419e-05	283.9	109.8	83.739	33.565	6.3217e-06	47.374	0.0029354	0.0050503	0.0014345	723.7	5.0429e-05	5.7766e-05	742.35	228.34	5.1109e-05	5.62e-05	287.49	112.72	86.29	34.395	5.2186e-05	48.528	166.377	29.955	41.865	-58.564	97.301	75.610	-59.422	-52.926	3.539	92.720	-54.437	-49.833	-47.798	-42.717	189.442	-45.645	-8191	255	
15399.616	1	1	0	0	0.079619	0.10918	0.051604	0.14192	0.15881	0.36774	0.24925	0.28174	0.15275	0.18675	0.077072	0.24681	0.19733	0.2407	0.12423	0.30315	-2.3792	-2.6771	-2.5125	-2.9062	-2.7792	-2.575	-2.8917	-2.6167	-2.8667	-2.7104	-2.7667	-3.125	-2.6229	-2.8396	-2.9479	-2.5958	267.698	-61.311	19.534	269.736	-66.951	288.856	198.793	-70.209	138.438	160.090	214.064	-28.749	87.843	276.681	-38.707	-59.564	0.00013038	0.00044979	0.00020572	728.42	5.0349e-06	7.9159e-06	743.24	226.63	5.6841e-06	2.5482e-06	285.51	111	83.968	33.814	2.8113e-06	47.829	0.0029626	0.0050568	0.001426	726.71	5.0538e-05	5.7586e-05	745.63	229.54	5.0823e-05	5.6904e-05	289.23	113.55	86.819	34.544	5.3472e-05	48.82	139.659	67.696	-27.893	-58.586	154.199	62.676	-59.561	-52.978	109.071	137.007	-54.527	-49.795	-48.061	-42.775	83.948	-45.406	-8191	255	
15399.710	1	1	0	0	0.1214	0.11192	0.22835	0.055017	0.12501	0.034258	0.13813	0.055908	0.053582	0.098119	0.24511	0.34296	0.041751	0.18433	0.24148	0.13453	-2.2562	-2.9938	-2.4896	-3.0812	-2.5146	-2.6625	-2.9917	-2.3979	-2.7292	-2.8563	-2.5333	-2.9521	-2.6958	-2.5771	-2.975	-2.4792	98.208	-4.651	228.003	264.258	276.349	130.676	227.410	-10.052	-50.262	159.773	194.648	-69.599	115.198	274.612	24.713	231.760	0.00017569	0.00023514	5.3995e-05	731.1	3.2429e-06	6.9425e-06	738.46	227.27	2.8411e-06	6.7624e-06	281.36	109.72	83.609	33.628	3.4444e-06	47.441	0.0029602	0.0050151	0.0014427	727.62	5.0403e-05	5.6654e-05	743.02	228.94	5.0871e-05	5.6815e-05	285.77	112.08	86.285	34.353	5.3366e-05	48.316	162.523	-61.225	-42.941	-58.832	136.111	96.318	-59.626	-52.872	110.810	124.394	-54.597	-49.894	-47.663	-42.833	115.018	-45.613	-8191	255	
15399.831	1	1	0	0	0.23557	0.31899	0.070267	0.29563	0.074871	0.21081	0.20932	0.21117	0.31836	0.059223	0.12924	0.10881	0.23755	0.35693	0.086715	0.11272	-2.2917	-2.9229	-2.6771	-3.0979	-2.7375	-2.7104	-3.0104	-2.6229	-2.7667	-2.9625	-2.6063	-2.8833	-2.7917	-2.8625	-2.9938	-2.6875	55.142	96.555	95.171	115.196	-46.880	-37.248	166.521	-50.675	134.218	94.475	169.035	3.738	270.887	271.072	-1.019	106.422	7.549e-05	0.00067709	0.00014321	726.79	5.8182e-06	2.7877e-06	734.46	226.25	5.3071e-07	2.3797e-06	281.49	110.04	83.619	33.456	3.5847e-06	47.306	0.0029771	0.0050889	0.0014447	724.2	5.1344e-05	5.7692e-05	739.45	228.26	5.2409e-05	5.7488e-05	286	112.13	86.24	34.245	5.383e-05	48.366	121.119	17.313	1.914	-58.388	121.218	95.885	-59.509	-52.766	210.800	92.465	-54.566	-49.636	-47.905	-43.024	112.393	-45.673	-8191	255	
15399.927	1	1	0	0	0.3464	0.30077	0.095869	0.10994	0.057248	0.076102	0.3437	0.21709	0.21164	0.27049	0.12402	0.53525	0.10931	0.18619	0.21935	0.12734	-2.3167	-3.0021	-2.4542	-3.0167	-2.9146	-2.7292	-3.0563	-2.6625	-2.4854	-2.9271	-2.7708	-2.9917	-2.8792	-2.5833	-3.0417	-2.775	217.584	100.511	188.643	186.373	132.212	216.164	141.690	-34.105	0.302	-12.301	233.796	-51.934	241.249	277.024	239.297	257.587	0.00016331	0.00017251	0.00014857	730.11	2.9095e-06	3.995e-06	740.3	225.48	2.7368e-06	4.8582e-06	281.94	109.7	83.26	33.419	2.7048e-06	47.565	0.0029992	0.0051243	0.00147	726.11	5.1497e-05	5.8706e-05	740.84	227.68	5.2323e-05	5.7696e-05	286.37	111.82	85.906	34.249	5.432e-05	48.464	168.332	-21.685	45.311	-58.493	55.346	41.207	-59.278	-52.824	146.927	88.114	-54.745	-49.742	-47.986	-43.001	171.274	-45.438	-8191	255	
15400.023	1	1	0	0	0.16241	0.20453	0.15488	0.065843	0.059794	0.052067	0.077681	0.24916	0.26141	0.20801	0.091659	0.06615	0.16538	0.31563	0.18881	0.26297	-2.2542	-3.0083	-2.5875	-2.8771	-3.0354	-2.6312	-3.1312	-2.7604	-2.6896	-3.0521	-2.8292	-2.7771	-2.9042	-2.5854	-2.8708	-2.9729	-15.860	27.924	109.379	18.279	150.117	21.936	263.101	191.169	79.190	82.680	265.487	71.043	11.840	233.177	166.214	127.847	0.00018575	0.00075195	9.2255e-05	726.9	4.7851e-06	1.1066e-05	741.2	225.47	3.3847e-06	4.1069e-06	283.19	110.04	82.491	33.489	1.4779e-06	47.241	0.0030203	0.0052188	0.001483	726.66	5.1279e-05	5.8591e-05	742.81	228.2	5.2974e-05	5.7992e-05	286.85	112.07	85.519	34.27	5.4197e-05	48.44	175.585	34.671	112.806	-58.466	13.019	104.991	-59.570	-52.801	58.010	37.279	-54.260	-49.628	-47.969	-42.750	59.419	-45.720	-8191	255	
15400.119	1	1	0	0	0.3173	0.12388	0.1134	0.1783	0.036166	0.23117	0.33332	0.079877	0.099876	0.088526	0.16466	0.092496	0.11222	0.028333	0.19554	0.10388	-2.025	-2.9437	-2.5438	-2.7583	-2.8917	-2.6354	-2.9271	-2.8396	-2.55	-3.1104	-2.7875	-2.7333	-3.0563	-2.5479	-2.7687	-2.9938	36.419	12.308	78.735	241.244	79.666	154.742	212.536	-44.183	45.895	185.704	-55.868	145.631	-25.605	-59.279	92.947	33.054	0.0001843	0.00055156	0.0002961	726.31	6.9452e-07	5.4006e-06	739.06	224.49	4.623e-06	9.3304e-06	278.36	107.33	81.803	32.945	6.0582e-06	46.797	0.0029622	0.0052261	0.0014612	723.45	5.1143e-05	5.819e-05	738.67	226.58	5.27e-05	5.7632e-05	282.82	110.04	84.598	33.871	5.4686e-05	47.705	157.347	253.982	16.362	-58.804	111.167	42.488	-59.528	-52.677	114.001	12.988	-54.207	-49.982	-48.206	-42.910	96.761	-45.732	-8191	255	
15400.215	1	1	0	0	0.18241	0.079065	0.23834	0.19944	0.20275	0.14928	0.31128	0.30853	0.086788	0.18001	0.20266	0.15281	0.14602	0.32669	0.042832	0.038846	-2.0625	-3.0833	-2.6333	-2.6542	-2.9833	-2.6104	-2.875	-2.9583	-2.5708	-2.9208	-2.7208	-2.7396	-2.7938	-2.4396	-2.8	-3.0271	-39.130	144.765	280.881	196.689	174.060	194.803	208.585	263.938	6.097	-44.499	126.569	222.807	257.584	269.171	147.393	67.553	0.00010595	0.00030102	0.00023101	722.69	8.6216e-07	4.7053e-06	733.58	223.81	2.5697e-06	5.7656e-06	277.48	106.53	81.26	32.946	3.632e-06	46.474	0.0029718	0.0052501	0.0014543	720.32	5.0845e-05	5.8402e-05	733.47	225.37	5.1804e-05	5.7118e-05	281.01	109.08	84.176	33.696	5.3232e-05	47.496	173.510	87.111	10.582	-58.876	194.647	72.954	-59.554	-53.064	214.663	155.023	-54.587	-50.171	-48.044	-42.648	233.668	-45.712	-8191	255	
15400.311	1	1	0	0	0.32209	0.02974	0.17121	0.35261	0.15323	0.26452	0.091256	0.07871	0.21116	0.12261	0.12201	0.24288	0.17496	0.093529	0.17793	0.19859	-1.9625	-2.7292	-2.5312	-2.7521	-2.9437	-2.5708	-2.7875	-3.0042	-2.4229	-2.7687	-2.9271	-2.5792	-3.0333	-2.7188	-2.6396	-2.9313	224.895	223.141	206.267	-9.822	-42.560	149.742	250.239	-9.287	115.833	193.428	256.174	228.778	194.187	288.609	38.084	257.348	0.0001459	0.00052907	0.00012045	719.93	6.9652e-06	8.0361e-06	728.84	222.31	3.2926e-07	8.5729e-06	276.96	106.8	81.115	32.829	4.7822e-06	46.757	0.0029252	0.0051449	0.0014478	718.1	5.0548e-05	5.8406e-05	732.21	224.56	5.2295e-05	5.7043e-05	281.26	109.61	84.22	33.676	5.2597e-05	47.561	174.473	60.148	67.666	-58.689	135.942	61.051	-59.445	-52.855	12.455	100.963	-54.832	-49.962	-47.635	-42.779	-5.125	-45.265	-8191	255	
15400.408	1	1	0	0	0.16444	0.13993	0.19879	0.11738	0.28909	0.1651	0.20527	0.16756	0.22731	0.1539	0.097244	0.39093	0.28305	0.15643	0.1317	0.31082	-1.9438	-2.7333	-2.7479	-2.7042	-2.9271	-2.6312	-2.8083	-3.1146	-2.5771	-2.9521	-2.9333	-2.4021	-3.0312	-2.7125	-2.6854	-2.9437	66.330	-47.625	214.935	268.724	93.099	127.487	214.744	244.972	115.960	69.018	275.981	10.440	248.318	143.749	-65.666	263.708	0.0001505	0.0007506	4.1218e-05	723.31	2.0724e-06	2.5734e-06	730.41	223.46	1.5978e-06	1.0887e-05	278.93	107.49	82.023	33.089	3.1352e-06	46.998	0.0028704	0.0050622	0.0014183	719.4	4.9124e-05	5.6775e-05	733.73	224.95	5.0905e-05	5.5886e-05	282.35	109.79	84.56	33.834	5.2345e-05	47.699	169.897	111.716	16.312	-58.583	113.689	74.922	-59.633	-53.027	132.441	70.002	-54.416	-50.001	-47.922	-42.855	13.225	-45.349	-8191	255	
15400.504	1	1	0	0	0.27985	0.064289	0.20602	0.10576	0.11923	0.16694	0.084906	0.043283	0.17334	0.13369	0.12314	0.14379	0.28291	0.10982	0.049256	0.23401	-2.0917	-2.8958	-2.8458	-2.6646	-2.9062	-2.9792	-2.6625	-3.0521	-2.6104	-2.8312	-2.8208	-2.5729	-3.1792	-3.0646	-2.3979	-3.2125	195.436	284.830	37.273	-56.579	255.844	55.646	59.318	52.023	68.329	94.499	273.318	261.044	286.781	213.804	23.289	96.616	9.1427e-05	0.00085708	0.00023741	722.97	4.9837e-06	2.4276e-06	730.48	221.02	4.2491e-06	5.4161e-06	276.42	107.14	81.128	32.814	8.2149e-06	46.465	0.00286	0.0050196	0.0013821	719.53	4.8838e-05	5.7143e-05	732.44	224.27	5.0175e-05	5.49e-05	280.36	109.07	84.071	33.562	5.2578e-05	47.225	182.086	40.172	-22.733	-58.496	51.574	19.268	-59.772	-52.970	4.946	132.334	-54.519	-50.103	-48.095	-43.022	79.177	-45.495	-8191	255	
15400.623	1	1	0	0	0.40913	0.26625	0.1468	0.18407	0.077212	0.053925	0.15501	0.18346	0.29799	0.1182	0.039449	0.054213	0.042295	0.13635	0.044312	0.21643	-2.3167	-2.8167	-2.9896	-2.4354	-2.9125	-2.8542	-2.5458	-3.1021	-2.6688	-2.5771	-3.0021	-2.4896	-2.7875	-2.7729	-2.7125	-3.1083	-41.370	272.515	232.628	-54.155	29.374	132.124	145.467	182.683	48.147	168.641	222.919	128.410	246.329	269.845	157.108	193.512	0.00020146	0.00051393	0.00024578	720.36	5.8461e-06	8.9864e-06	727.98	221.49	3.8637e-06	2.899e-06	275.28	106.32	81.267	32.89	5.1933e-06	46.383	0.0028913	0.0050453	0.0014079	717.38	4.9945e-05	5.6795e-05	729.69	223.73	5.1106e-05	5.6838e-05	279.97	109.04	84.129	33.636	5.3013e-05	47.412	165.756	33.384	23.519	-58.634	87.681	28.096	-59.582	-52.965	89.292	62.795	-54.576	-49.957	-47.739	-42.622	70.043	-45.439	-8191	255	
15400.719	1	1	0	0	0.067769	0.059963	0.22211	0.16908	0.2026	0.038832	0.10755	0.38685	0.25748	0.046307	0.20048	0.18938	0.30491	0.10227	0.097458	0.18216	-2.2375	-2.6604	-2.9042	-2.6021	-2.8083	-3.125	-2.5917	-3.0208	-2.7271	-2.725	-2.9437	-2.5687	-2.8708	-2.9354	-2.5958	-3.1458	-44.820	-17.188	185.255	272.245	-58.105	148.654	241.005	231.310	39.027	121.722	198.131	-36.416	-59.848	-2.756	56.660	38.719	0.00012533	0.0002364	0.00015224	721.61	2.6191e-06	6.6178e-06	729.95	221.85	5.413e-06	2.3874e-06	278.29	107.61	82.02	32.981	7.563e-06	47.014	0.0029164	0.0050311	0.0014133	717.68	5.0025e-05	5.6707e-05	732.47	225.1	5.1628e-05	5.7451e-05	282.43	109.94	84.628	33.871	5.3865e-05	47.842	164.786	17.729	67.229	-58.461	124.064	101.139	-59.655	-53.023	192.128	116.330	-54.453	-49.749	-48.034	-42.567	122.326	-45.436	-8191	255	
15400.815	1	1	0	0	0.28068	0.062299	0.13125	0.26855	0.11727	0.099614	0.16046	0.015518	0.17208	0.13414	0.20854	0.098268	0.26734	0.18037	0.13163	0.13916	-2.3583	-2.6792	-2.8354	-2.7188	-2.9458	-2.8833	-2.6292	-3.1562	-2.6771	-2.6021	-3.1292	-2.8604	-2.9208	-2.9125	-2.6958	-3.0292	172.004	82.531	162.945	-59.205	27.035	279.636	189.360	279.134	59.389	169.433	241.800	137.499	39.158	276.937	93.615	202.948	0.00011847	0.00087307	7.3561e-05	723.7	5.1107e-06	5.1559e-06	734.85	222.98	2.1027e-06	2.5685e-06	278.86	107.89	81.778	33.217	7.138e-06	46.962	0.0030209	0.0051848	0.00148	721.19	5.172e-05	5.908e-05	736.51	226.57	5.2755e-05	5.8745e-05	283.59	110.37	84.789	34.037	5.5113e-05	48.03	160.207	8.591	-55.013	-58.655	45.029	281.554	-59.380	-52.688	115.436	191.866	-54.587	-50.118	-48.095	-42.724	87.438	-45.671	-8191	255	
15400.911	1	1	0	0	0.10179	0.098302	0.15474	0.14196	0.05333	0.15672	0.23737	0.088333	0.051799	0.12793	0.14344	0.15879	0.080195	0.10344	0.2601	0.037237	-2.3417	-2.6792	-2.8667	-2.65	-2.8375	-2.95	-2.6604	-2.8312	-2.8667	-2.5875	-3.1688	-2.8083	-2.6562	-3.0167	-2.5187	-2.8104	174.632	240.631	-32.852	266.478	-61.902	94.912	266.714	220.761	277.536	47.729	226.562	186.572	-26.134	203.281	60.160	279.434	0.00010117	0.00012521	0.00019894	721.82	2.1864e-06	8.8064e-06	731.31	224.01	3.236e-06	2.4101e-06	276.88	106.98	81.877	33.019	6.5206e-06	46.595	0.0030009	0.0052641	0.0014654	721.83	5.1709e-05	5.8776e-05	734.95	226.09	5.2504e-05	5.8911e-05	281.72	109.75	84.613	33.817	5.5041e-05	47.536	155.681	148.339	-37.931	-58.486	201.574	77.244	-59.684	-53.090	127.806	203.762	-54.533	-50.339	-47.995	-42.795	244.983	-45.320	-8191	255	
15401.007	1	1	0	0	0.30722	0.22704	0.074352	0.16223	0.058057	0.18001	0.033748	0.20948	0.10439	0.074818	0.13735	0.22869	0.32745	0.30684	0.13153	0.35466	-2.4271	-2.5938	-2.8563	-2.8396	-2.7208	-2.9458	-2.6312	-2.8604	-2.8083	-2.5333	-3.0146	-2.8958	-2.8479	-3.0625	-2.55	-2.8458	207.276	-48.895	46.159	86.492	-27.757	-53.687	283.805	231.619	-43.976	-58.838	181.436	244.335	247.995	-66.145	129.852	242.738	0.00012146	0.0011298	0.00017968	721.03	5.8645e-06	9.0845e-07	729.93	223.84	5.117e-06	6.9203e-06	277.57	107.38	81.67	33.133	2.5949e-06	47.112	0.0030031	0.0052183	0.0014812	719.39	5.182e-05	5.86e-05	733.62	225.69	5.2532e-05	5.9238e-05	282.07	109.95	84.663	33.922	5.545e-05	47.9	163.460	14.552	77.223	-58.814	132.268	235.747	-59.301	-52.618	77.550	269.712	-54.236	-49.965	-47.858	-42.819	191.313	-45.451	-8191	255	
15401.103	1	1	0	0	0.13876	0.25272	0.062592	0.16321	0.093965	0.14346	0.42184	0.21689	0.2567	0.11546	0.090369	0.1592	0.15658	0.26499	0.030763	0.27774	-2.5083	-2.55	-2.825	-2.7854	-2.6708	-3.1312	-2.6917	-2.9229	-2.7062	-2.5312	-2.8812	-2.7229	-2.5604	-2.9979	-2.7479	-2.8563	229.221	243.261	86.348	207.280	26.072	189.295	233.064	219.738	166.229	-50.900	90.275	222.899	131.396	286.966	-46.174	203.389	0.00012817	0.00038805	0.00021673	721.36	3.3598e-06	2.5835e-06	733.13	223.31	2.3469e-06	8.9969e-06	277.02	107.41	81.757	32.866	4.8001e-06	46.871	0.0030163	0.0052276	0.0015051	719.31	5.218e-05	5.8554e-05	734.66	225.85	5.2924e-05	5.9107e-05	282.07	109.82	84.772	33.881	5.6615e-05	47.909	151.705	-50.167	62.724	-58.670	103.228	14.562	-59.459	-52.654	18.042	22.950	-54.561	-49.979	-47.940	-42.758	128.355	-45.361	-8191	255	
15401.200	1	1	0	0	0.069339	0.082996	0.17298	0.26697	0.1762	0.053321	0.18074	0.24875	0.11984	0.1985	0.27597	0.13316	0.45904	0.044299	0.0096496	0.15461	-2.4646	-2.4188	-3.0229	-2.8875	-2.475	-3.0062	-2.6333	-2.7062	-2.9083	-2.6958	-3.0833	-2.8646	-2.5187	-3.0292	-2.6875	-2.8042	185.670	136.817	149.023	205.465	180.301	56.940	58.547	160.666	268.885	228.790	123.686	261.071	241.622	31.971	207.722	188.897	0.00015329	0.00054296	0.00014962	723.57	4.8561e-06	7.5536e-06	731.84	222.46	5.8533e-06	8.6687e-06	278.5	107.54	81.975	32.998	3.227e-06	46.935	0.0031004	0.0053863	0.0015433	721.8	5.3418e-05	6.0069e-05	736.19	226.12	5.3899e-05	6.0415e-05	282.43	110.43	84.693	33.919	5.7057e-05	47.988	161.335	-34.798	35.080	-58.654	120.274	38.037	-59.536	-52.255	57.495	42.213	-54.496	-49.819	-47.936	-42.987	72.032	-45.686	-8191	255	
15401.320	1	1	0	0	0.26939	0.093201	0.33992	0.25182	0.15386	0.078663	0.10171	0.088225	0.092222	0.14651	0.11122	0.35734	0.091224	0.091785	0.066224	0.2373	-2.5771	-2.5875	-2.8667	-2.9021	-2.4979	-3.0958	-2.8521	-2.5938	-2.9792	-2.7229	-2.9354	-2.9104	-2.5563	-3.0104	-2.8229	-2.7542	131.759	3.798	274.608	289.036	121.202	39.989	243.882	184.997	143.875	227.699	226.865	230.350	279.978	212.817	-24.741	-44.090	0.00015967	0.00020321	0.00018666	723.42	2.0002e-06	4.6478e-06	732.9	223.72	2.1968e-06	6.5122e-06	277.52	106.85	81.461	33.001	1.4941e-06	46.534	0.0031141	0.0055545	0.0015498	721.17	5.3896e-05	6.0821e-05	736.7	225.71	5.4219e-05	6.0238e-05	280.8	109.36	84.38	33.836	5.5738e-05	47.542	187.564	-15.851	8.444	-58.580	86.213	151.709	-59.857	-52.691	-1.334	36.360	-54.539	-49.851	-48.024	-42.831	30.963	-45.347	-8191	255	
15401.416	1	1	0	0	0.015674	0.07595	0.31263	0.29366	0.24818	0.25745	0.085623	0.12089	0.13726	0.13415	0.17978	0.1841	0.10912	0.14553	0.11722	0.13197	-2.6083	-2.5312	-2.6312	-3.1063	-2.5104	-3.1167	-3.0375	-2.6271	-3.0667	-2.8646	-2.8	-3.1	-2.6458	-3.0687	-2.7146	-2.6583	2.837	135.042	55.787	-64.308	-30.241	53.443	247.065	3.189	119.440	283.385	240.724	15.330	41.094	14.548	-49.146	121.897	0.00012554	0.00018784	0.00011233	725.83	2.6466e-06	3.7166e-06	727.58	222.04	3.3032e-06	6.3095e-06	277.45	106.52	81.371	32.905	5.2971e-06	46.62	0.0030533	0.0054513	0.0015119	719.91	5.3002e-05	6.0566e-05	732.39	224.65	5.4004e-05	5.8704e-05	281.09	109.17	84.272	33.815	5.5432e-05	47.625	139.207	27.789	45.016	-58.653	115.607	218.039	-59.398	-52.863	41.562	141.979	-54.577	-50.186	-48.215	-42.620	102.479	-45.526	-8191	255	
15401.512	1	1	0	0	0.19372	0.11336	0.085923	0.12378	0.041944	0.074201	0.082834	0.14959	0.14383	0.052373	0.16326	0.12815	0.20165	0.32198	0.21011	0.18189	-2.575	-2.6792	-2.625	-3.0021	-2.5104	-2.9792	-3.1396	-2.5417	-3.0854	-2.7	-2.725	-3.1042	-2.6292	-2.7292	-3.0438	-2.5833	-47.483	199.789	74.288	226.463	-43.474	253.605	153.755	242.810	262.752	111.122	270.320	46.174	251.910	264.452	11.897	273.692	0.00016805	0.00063224	0.00011532	718.68	6.1791e-06	7.4963e-06	732.24	221.26	2.206e-06	4.941e-06	277.41	106.57	81.404	33.271	3.3461e-06	46.761	0.0030387	0.0053873	0.0015025	718.05	5.3156e-05	6.107e-05	735.62	225.38	5.4427e-05	6.0127e-05	281.74	109.8	84.577	34.033	5.6089e-05	47.771	169.932	8.072	209.093	-58.405	-67.142	91.154	-59.551	-52.653	69.150	216.690	-54.731	-49.996	-47.615	-42.623	264.671	-45.202	-8191	255	
15401.607	1	1	0	0	0.034211	0.15992	0.27519	0.11265	0.15994	0.067239	0.22228	0.076494	0.14742	0.25529	0.22576	0.19366	0.14797	0.10616	0.23081	0.19932	-2.5625	-2.5729	-2.6125	-3.1917	-2.5458	-2.9062	-3.0375	-2.5021	-2.9021	-2.9521	-2.6	-3.1729	-2.7333	-2.9021	-2.9104	-2.575	180.918	283.556	103.520	-51.964	10.016	126.123	247.395	-59.341	157.310	270.496	265.349	206.816	-66.014	277.595	256.299	71.219	0.00014975	0.0006225	0.00026952	723	2.0526e-06	3.5293e-06	732.72	223.17	3.078e-06	4.2004e-06	275.79	107.61	81.621	33.101	3.5944e-06	46.696	0.003115	0.0055055	0.0015184	720.81	5.4259e-05	6.1801e-05	736.79	226.11	5.4661e-05	6.0597e-05	281.15	109.89	84.649	33.859	5.6571e-05	47.515	171.798	-31.603	-42.477	-58.725	113.790	73.402	-59.733	-52.872	57.140	152.984	-54.383	-50.092	-47.713	-43.008	56.847	-45.572	-8191	255	
15401.703	1	1	0	0	0.30191	0.13574	0.33787	0.15985	0.27062	0.25556	0.092319	0.17293	0.086509	0.25391	0.19908	0.12819	0.095978	0.16574	0.1762	0.47165	-2.5563	-2.7938	-2.5625	-3.1083	-2.6417	-2.6562	-3.0021	-2.7792	-3.0438	-2.9021	-2.6688	-3.0979	-2.7729	-2.7167	-3.0646	-2.5604	151.533	2.225	173.184	249.060	201.501	168.171	-56.897	285.520	119.783	269.092	27.613	278.010	207.585	-39.479	186.992	227.663	0.00013464	0.00073447	0.00020566	718.49	6.1048e-06	3.5804e-06	731.24	223.2	7.8511e-07	1.3015e-06	276.92	106.77	82.019	33.001	4.7024e-06	46.785	0.0030874	0.0055141	0.0015212	720.24	5.4049e-05	6.1134e-05	732.18	225.22	5.6014e-05	6.0315e-05	281.22	109.5	84.689	33.839	5.6804e-05	47.594	152.514	36.591	-37.597	-58.504	113.881	-11.646	-59.706	-52.493	135.158	12.526	-54.352	-50.110	-47.788	-42.948	161.237	-45.456	-8191	255	
15401.799	1	1	0	0	0.29286	0.051889	0.10357	0.20196	0.36345	0.29445	0.19325	0.22328	0.1791	0.014984	0.34707	0.2189	0.1385	0.28224	0.070117	0.072634	-2.3917	-2.9833	-2.3688	-2.9104	-2.5583	-2.6146	-3.1063	-2.5021	-2.7667	-2.9417	-2.5667	-3.1417	-2.7292	-2.8688	-3.1646	-2.9167	239.579	86.976	63.399	232.318	42.275	234.124	152.316	233.868	-33.038	281.756	225.490	-47.435	236.930	-21.502	255.836	67.481	0.00011227	0.00067723	0.00015209	723.99	5.2785e-06	1.6918e-06	727.42	222.87	5.1817e-06	6.7582e-06	277.17	106.89	81.938	32.984	2.6542e-06	46.647	0.0031522	0.0054659	0.001526	720.58	5.3472e-05	6.1629e-05	733.99	225.29	5.5558e-05	6.0636e-05	281.22	109.57	84.801	33.932	5.6481e-05	47.736	153.939	7.445	80.904	-58.477	69.812	-30.156	-59.668	-52.847	39.343	99.203	-54.423	-50.009	-47.541	-42.922	139.836	-45.465	-8191	255	
15401.920	1	1	0	0	0.055836	0.11126	0.039107	0.13835	0.080723	0.13058	0.10583	0.33019	0.042279	0.14857	0.21831	0.23753	0.18439	0.26244	0.41035	0.068384	-2.3667	-2.8583	-2.5354	-3.2	-2.75	-2.5375	-3.2229	-2.7396	-2.7687	-2.9125	-2.5271	-3.1167	-2.9417	-2.5833	-2.8479	-2.5229	77.867	-40.333	254.327	188.835	-64.656	282.009	188.780	270.491	266.050	28.728	-3.586	-43.745	70.055	244.577	-5.963	-61.014	0.00012671	0.00040425	0.00017857	720.26	5.391e-07	4.9924e-06	735.22	222.24	4.1476e-06	1.4785e-06	278.87	108.13	82.162	33.093	3.3082e-06	46.965	0.0031146	0.0054361	0.0015439	721.29	5.4554e-05	6.2545e-05	737.08	226.16	5.5792e-05	6.141e-05	283.52	110.61	85.187	34.087	5.8138e-05	47.984	192.260	248.260	93.691	-58.573	2.460	49.758	-59.588	-52.556	25.123	65.580	-54.203	-50.073	-47.629	-43.048	6.550	-45.692	-8191	255	
15402.016	1	1	0	0	0.19981	0.23763	0.098206	0.062452	0.17137	0.11612	0.15631	0.26756	0.26234	0.21766	0.30011	0.14611	0.14132	0.087893	0.18161	0.10767	-2.1375	-2.8979	-2.4104	-2.9479	-2.8063	-2.5146	-2.9958	-2.6875	-2.7729	-3.1188	-2.6208	-3.1354	-2.9104	-2.5042	-2.9917	-2.7708	203.965	66.780	175.559	172.126	100.931	89.016	-66.949	171.620	277.033	236.075	280.237	137.102	105.597	256.403	212.924	21.491	7.5539e-05	0.0005209	0.0001746	723.22	2.575e-06	1.7662e-06	737.72	222.93	5.2212e-06	1.0064e-06	278.39	107.77	81.863	33.298	6.8139e-06	46.915	0.0031915	0.0055268	0.0015797	723.47	5.4932e-05	6.3412e-05	741.22	226.65	5.5811e-05	6.1784e-05	283.55	110.85	85.242	34.107	5.7958e-05	48.146	152.573	-10.408	17.537	-58.295	90.065	36.529	-59.695	-52.783	68.447	58.378	-54.370	-49.720	-48.006	-42.991	70.113	-45.437	-8191	255	
15402.112	1	1	0	0	0.047707	0.14187	0.11839	0.19029	0.084489	0.085661	0.11853	0.16545	0.2093	0.15906	0.023398	0.079948	0.11773	0.20717	0.072924	0.11028	-2.0271	-3.0104	-2.4188	-2.8	-3.0521	-2.4625	-3.0271	-2.7875	-2.5083	-3.0979	-2.7687	-2.8688	-2.9417	-2.4604	-3.1125	-2.9208	272.170	-47.762	169.818	190.098	245.453	11.125	66.123	-53.101	278.791	283.003	208.585	-16.697	153.895	158.951	202.064	103.438	0.0001275	0.00035189	0.00019105	724.94	3.7444e-06	4.2334e-06	736.84	222.91	1.6994e-06	9.3487e-06	276.68	107.35	81.523	33.224	3.1568e-06	46.706	0.0032104	0.0055244	0.0015536	722.82	5.4894e-05	6.3553e-05	739.17	225.9	5.5909e-05	6.2384e-05	282.26	109.96	84.74	33.994	5.8995e-05	47.772	159.880	50.360	11.369	-58.578	116.853	200.920	-59.584	-52.950	67.867	86.908	-54.839	-49.674	-48.314	-43.031	6.448	-45.660	-8191	255	
15402.184	1	1	0	0	0.11933	0.20321	0.026461	0.077485	0.091119	0.27054	0.3987	0.15849	0.24792	0.11316	0.27232	0.15907	0.2577	0.19952	0.084993	0.17989	-1.9833	-3.0062	-2.525	-2.8896	-3.0229	-2.3812	-2.9875	-3.0375	-2.4375	-3.05	-2.6042	-2.7354	-2.8417	-2.5396	-2.7958	-2.8792	-26.012	151.192	2.473	-62.854	49.811	41.045	289.030	263.912	86.230	-23.404	-19.208	274.101	214.976	215.570	-62.137	144.824	9.5043e-05	0.00056438	3.9729e-05	718.68	1.0404e-06	5.8437e-06	733.15	221.66	6.9348e-06	5.2778e-06	276.18	107.14	81.207	33.124	4.4715e-06	46.447	0.0032397	0.0055779	0.0016027	719.49	5.522e-05	6.2933e-05	735.37	225.38	5.6669e-05	6.3364e-05	281.29	109.7	84.723	33.96	5.9336e-05	47.637	173.659	18.749	79.094	-58.328	-0.403	36.151	-59.358	-52.922	66.472	74.349	-54.373	-49.607	-47.796	-42.976	179.581	-45.534	-8191	255	
15402.304	1	1	0	0	0.24114	0.17057	0.098853	0.18231	0.19074	0.13085	0.25813	0.10742	0.11458	0.14782	0.065723	0.055892	0.053323	0.13562	0.0074864	0.17969	-2.1875	-3.0583	-2.825	-2.6083	-3.0354	-2.5771	-2.925	-3.0542	-2.5438	-3.0438	-2.7771	-2.7292	-3.2208	-2.6125	-2.7771	-2.9875	162.543	268.597	229.238	264.598	108.159	114.156	244.578	-47.469	167.419	148.208	274.254	276.830	168.842	206.211	46.379	237.938	0.00014028	0.00068409	0.000271	720.11	3.4467e-06	3.992e-06	727.81	221.73	1.6343e-06	1.1471e-06	278.28	106.83	81.687	33.042	4.0569e-06	46.649	0.003248	0.0056145	0.0016173	719.99	5.6535e-05	6.4223e-05	734.09	225.77	5.7725e-05	6.4962e-05	282.93	109.79	84.701	33.943	6.0775e-05	47.803	174.581	-11.446	-6.640	-58.562	77.479	259.637	-59.638	-52.717	277.499	114.345	-54.521	-49.730	-47.917	-42.555	73.893	-45.727	-8191	255	
#DATA ENDS
