BOXY.EXE: ISS Imagent and Oximeter Data Acquisition Program Version 0.80
Ascii Record File

#ACQ INFORMATION
2  Detector Channels 
16  External MUX Channels 
1  Auxiliary Channels 
5000  Waveform (CCF) Frequency (Hz)
1  Waveforms Skipped 
30  Waveforms Averaged 
1  Cycles Averaged 
16  Acquisitions per Waveform 
10.0806  Updata Rate (Hz) 

#FILE INFORMATION
TRUE -- External MUX Channel results are PARSED.
FALSE -- AC DC and Phase are NOT grouped.
TRUE -- Companion Program Settings File CREATED.
FALSE -- AC data not excluded
FALSE -- DC data not excluded
FALSE -- Phase data not excluded
FALSE -- Auxillary Chn. data not excluded
Tab delimiters

#CALIBRATION STATE
TRUE -- Waveform Calibration Values APPLIED.


#AUX CALIBRATION VALUES
Val Type	aux-1	

Term	1.0000e+00	
Factor	0.0000e+00	


#WF CALIBRATION VALUES
A = Detector Channel
Val Type	A-AC1	A-AC2	A-AC3	A-AC4	A-AC5	A-AC6	A-AC7	A-AC8	A-AC9	A-AC10	A-AC11	A-AC12	A-AC13	A-AC14	A-AC15	A-AC16	A-DC1	A-DC2	A-DC3	A-DC4	A-DC5	A-DC6	A-DC7	A-DC8	A-DC9	A-DC10	A-DC11	A-DC12	A-DC13	A-DC14	A-DC15	A-DC16	A-Ph1	A-Ph2	A-Ph3	A-Ph4	A-Ph5	A-Ph6	A-Ph7	A-Ph8	A-Ph9	A-Ph10	A-Ph11	A-Ph12	A-Ph13	A-Ph14	A-Ph15	A-Ph16	

Term	0.00000e+00	0.00000e+00	0.00000e+00	0.00000e+00	0.00000e+00	0.00000e+00	0.00000e+00	0.00000e+00	0.00000e+00	0.00000e+00	0.00000e+00	0.00000e+00	0.00000e+00	0.00000e+00	0.00000e+00	0.00000e+00	0.00000e+00	0.00000e+00	0.00000e+00	0.00000e+00	0.00000e+00	0.00000e+00	0.00000e+00	0.00000e+00	0.00000e+00	0.00000e+00	0.00000e+00	0.00000e+00	0.00000e+00	0.00000e+00	0.00000e+00	0.00000e+00	0.00000e+00	0.00000e+00	0.00000e+00	0.00000e+00	0.00000e+00	0.00000e+00	0.00000e+00	0.00000e+00	0.00000e+00	0.00000e+00	0.00000e+00	0.00000e+00	0.00000e+00	0.00000e+00	0.00000e+00	0.00000e+00	
Factor	1.00000e+00	1.00000e+00	1.00000e+00	1.00000e+00	1.00000e+00	1.00000e+00	1.00000e+00	1.00000e+00	1.00000e+00	1.00000e+00	1.00000e+00	1.00000e+00	1.00000e+00	1.00000e+00	1.00000e+00	1.00000e+00	1.00000e+00	1.00000e+00	1.00000e+00	1.00000e+00	1.00000e+00	1.00000e+00	1.00000e+00	1.00000e+00	1.00000e+00	1.00000e+00	1.00000e+00	1.00000e+00	1.00000e+00	1.00000e+00	1.00000e+00	1.00000e+00	X	X	X	X	X	X	X	X	X	X	X	X	X	X	X	X	

B = Detector Channel
Val Type	B-AC1	B-AC2	B-AC3	B-AC4	B-AC5	B-AC6	B-AC7	B-AC8	B-AC9	B-AC10	B-AC11	B-AC12	B-AC13	B-AC14	B-AC15	B-AC16	B-DC1	B-DC2	B-DC3	B-DC4	B-DC5	B-DC6	B-DC7	B-DC8	B-DC9	B-DC10	B-DC11	B-DC12	B-DC13	B-DC14	B-DC15	B-DC16	B-Ph1	B-Ph2	B-Ph3	B-Ph4	B-Ph5	B-Ph6	B-Ph7	B-Ph8	B-Ph9	B-Ph10	B-Ph11	B-Ph12	B-Ph13	B-Ph14	B-Ph15	B-Ph16	

Term	0.00000e+00	0.00000e+00	0.00000e+00	0.00000e+00	0.00000e+00	0.00000e+00	0.00000e+00	0.00000e+00	0.00000e+00	0.00000e+00	0.00000e+00	0.00000e+00	0.00000e+00	0.00000e+00	0.00000e+00	0.00000e+00	0.00000e+00	0.00000e+00	0.00000e+00	0.00000e+00	0.00000e+00	0.00000e+00	0.00000e+00	0.00000e+00	0.00000e+00	0.00000e+00	0.00000e+00	0.00000e+00	0.00000e+00	0.00000e+00	0.00000e+00	0.00000e+00	-1.27282e+02	-1.30498e+02	-1.26606e+02	-1.82720e+02	-7.04405e+01	-6.88341e+01	-1.60843e+02	-1.62015e+02	-7.31909e+01	-6.92541e+01	-1.72572e+02	-1.72955e+02	-1.82795e+02	-1.78089e+02	-7.17232e+01	-1.50939e+02	
Factor	1.93131e-05	1.69621e-04	4.86892e-05	1.65898e-01	1.33105e-06	1.92021e-06	1.95781e-01	6.11879e-02	1.30919e-06	1.87107e-06	9.62612e-02	3.22527e-02	2.98245e-02	9.98308e-03	1.50668e-06	1.45378e-02	1.28716e-05	2.34187e-05	6.58817e-06	8.38859e-02	2.30464e-07	2.64030e-07	9.33801e-02	3.11235e-02	2.35691e-07	2.61591e-07	4.74826e-02	1.59974e-02	1.53938e-02	5.11434e-03	2.44169e-07	7.23425e-03	X	X	X	X	X	X	X	X	X	X	X	X	X	X	X	X	



#DISTANCE SETTINGS
A = Detector Channel
A-1	A-2	A-3	A-4	A-5	A-6	A-7	A-8	A-9	A-10	A-11	A-12	A-13	A-14	A-15	A-16	

2.5000e+00	3.0000e+00	2.5000e+00	3.0000e+00	2.0000e+00	3.0000e+00	1.5000e+00	3.0000e+00	3.0000e+00	3.0000e+00	3.0000e+00	3.0000e+00	3.0000e+00	3.0000e+00	1.5000e+00	3.0000e+00	

B = Detector Channel
B-1	B-2	B-3	B-4	B-5	B-6	B-7	B-8	B-9	B-10	B-11	B-12	B-13	B-14	B-15	B-16	

1.0000e+01	1.0000e+01	1.0000e+01	1.4400e+00	1.0000e+01	1.0000e+01	1.5100e+00	1.9400e+00	1.0000e+01	1.0000e+01	1.9900e+00	2.4900e+00	2.4100e+00	2.9000e+00	1.0000e+01	2.9800e+00	




#DATA BEGINS
time	group	step	mark	flag	A-AC1	A-AC2	A-AC3	A-AC4	A-AC5	A-AC6	A-AC7	A-AC8	A-AC9	A-AC10	A-AC11	A-AC12	A-AC13	A-AC14	A-AC15	A-AC16	A-DC1	A-DC2	A-DC3	A-DC4	A-DC5	A-DC6	A-DC7	A-DC8	A-DC9	A-DC10	A-DC11	A-DC12	A-DC13	A-DC14	A-DC15	A-DC16	A-Ph1	A-Ph2	A-Ph3	A-Ph4	A-Ph5	A-Ph6	A-Ph7	A-Ph8	A-Ph9	A-Ph10	A-Ph11	A-Ph12	A-Ph13	A-Ph14	A-Ph15	A-Ph16	B-AC1	B-AC2	B-AC3	B-AC4	B-AC5	B-AC6	B-AC7	B-AC8	B-AC9	B-AC10	B-AC11	B-AC12	B-AC13	B-AC14	B-AC15	B-AC16	B-DC1	B-DC2	B-DC3	B-DC4	B-DC5	B-DC6	B-DC7	B-DC8	B-DC9	B-DC10	B-DC11	B-DC12	B-DC13	B-DC14	B-DC15	B-DC16	B-Ph1	B-Ph2	B-Ph3	B-Ph4	B-Ph5	B-Ph6	B-Ph7	B-Ph8	B-Ph9	B-Ph10	B-Ph11	B-Ph12	B-Ph13	B-Ph14	B-Ph15	B-Ph16	aux-1	digaux	

14764.229	1	1	0	768	0.17831	0.23045	0.25916	0.34564	0.11652	0.30044	0.28102	0.31143	0.18328	0.081368	0.062361	0.10583	0.11553	0.20031	0.25024	0.12564	-2.4062	-2.5042	-2.9292	-2.8438	-2.8271	-3.0417	-2.8042	-3.2042	-3.0208	-2.65	-3.1125	-2.8479	-2.6896	-3.1792	-2.6896	-3.1958	264.718	97.543	112.057	243.652	-41.485	-19.564	226.826	267.931	22.184	266.036	60.438	268.893	219.137	225.847	12.247	168.944	0.00011845	0.0004282	0.00010959	1274.1	2.398e-06	4.8487e-06	1268.1	350.73	1.2472e-06	5.3731e-06	403.9	134.21	115.75	39.912	5.087e-06	49.801	0.00095944	0.0015416	0.00042185	1283.6	1.5347e-05	1.6795e-05	1285.5	356.38	1.5927e-05	1.6957e-05	410.48	137.88	119.02	40.864	1.6167e-05	51.109	173.448	33.890	19.500	-59.201	87.416	79.024	-59.210	-54.721	18.857	80.282	-55.285	-51.035	-50.300	-45.721	106.317	-46.278	-8191	255	
14764.325	1	1	0	0	0.42368	0.20182	0.23635	0.19688	0.12458	0.098167	0.082258	0.1481	0.37333	0.073071	0.18822	0.1819	0.17883	0.18951	0.14197	0.22637	-2.5563	-2.5958	-2.8167	-2.9229	-2.5375	-3.2854	-2.7354	-3.0708	-2.9917	-2.7062	-2.9583	-2.8021	-2.7604	-2.9813	-2.9375	-2.7917	277.525	118.408	150.541	258.987	88.999	236.190	233.740	185.301	-50.285	272.747	-65.470	-68.633	239.765	278.668	228.262	-6.084	0.00012695	0.00051527	0.0001652	1275.8	4.6231e-06	4.3988e-06	1270.3	349.32	1.0757e-06	4.8376e-06	404.03	133.51	115.78	39.791	4.7912e-06	49.784	0.00096867	0.0014625	0.00041527	1283.1	1.5299e-05	1.6469e-05	1286.2	356.18	1.5451e-05	1.6654e-05	410.52	137.78	118.81	40.818	1.5882e-05	51.057	169.844	5.849	34.094	-59.270	96.899	74.359	-59.348	-54.746	90.843	86.140	-55.106	-50.914	-50.275	-45.556	94.376	-46.230	-8191	255	
14764.421	1	1	0	0	0.30125	0.15889	0.23642	0.14276	0.13524	0.18795	0.33157	0.13921	0.080445	0.29588	0.12296	0.15461	0.19096	0.14792	0.34298	0.12816	-2.5438	-2.6896	-2.9375	-3.2313	-2.6083	-2.8354	-2.8146	-2.8937	-2.8146	-2.7229	-3	-3.0479	-2.525	-2.9688	-2.5875	-2.6063	184.094	104.568	48.104	253.460	274.156	152.148	185.258	-72.639	88.673	-37.217	240.726	259.636	-39.089	10.095	238.203	190.427	0.00011951	0.00082252	0.00010001	1268.6	3.4519e-06	4.8124e-06	1269.5	348.79	3.0186e-06	5.9748e-06	404.44	133.65	115.88	39.851	2.4169e-06	49.596	0.00095982	0.0014819	0.00042183	1280.9	1.5148e-05	1.6409e-05	1283.9	356.23	1.5272e-05	1.6487e-05	410.83	137.55	118.78	40.788	1.5902e-05	50.97	165.828	4.258	25.867	-59.248	73.578	93.109	-59.123	-54.870	49.612	63.014	-55.071	-51.096	-50.245	-45.619	86.792	-46.205	-8191	255	
14764.517	1	1	0	0	0.20435	0.12935	0.091452	0.14354	0.15515	0.10282	0.20347	0.063833	0.13492	0.072336	0.18823	0.12215	0.2409	0.23998	0.17417	0.13257	-2.5292	-2.5021	-2.875	-3.1021	-2.4917	-3.0062	-2.9854	-2.7604	-3.0854	-2.7146	-2.8083	-2.9104	-2.4396	-2.9729	-2.7771	-2.4646	148.521	271.047	220.694	188.946	196.860	60.637	193.008	41.843	199.533	210.556	-64.238	250.386	-48.336	264.162	237.876	276.116	0.00013515	0.00047759	0.00015728	1266.9	2.702e-06	6.4939e-06	1267.1	349.35	1.5693e-06	3.7444e-06	403.43	133.55	115.68	39.774	4.0143e-06	49.634	0.00094915	0.0015117	0.00041602	1279.1	1.5188e-05	1.6614e-05	1281.1	355.55	1.5404e-05	1.6878e-05	410.34	137.24	118.53	40.754	1.571e-05	50.959	175.723	-0.776	55.696	-59.157	102.721	90.300	-59.298	-54.556	78.563	86.958	-54.957	-50.730	-50.087	-45.583	76.045	-46.299	-8191	255	
14764.613	1	1	0	0	0.058871	0.21457	0.28207	0.18832	0.11371	0.080846	0.11786	0.18299	0.12009	0.093347	0.076617	0.17512	0.07968	0.21137	0.21997	0.22188	-2.6854	-2.5187	-2.4958	-3.2292	-2.5375	-2.9042	-2.9813	-2.7313	-3.2333	-2.5083	-2.8479	-3.0729	-2.6813	-3.125	-2.7083	-2.6854	-55.194	164.707	259.358	237.388	230.932	10.318	-3.392	178.430	-36.982	83.476	-70.378	208.023	233.925	-18.748	197.340	161.672	0.00014623	0.00038926	0.00017315	1272.2	1.8105e-06	6.1742e-06	1265.4	349.34	1.7455e-06	8.8147e-07	402.12	133.74	114.92	39.807	2.9886e-06	49.991	0.0009566	0.0014839	0.00041499	1279.1	1.5242e-05	1.6495e-05	1279.5	355.58	1.518e-05	1.6514e-05	409.79	137.52	118.51	40.761	1.5749e-05	51.088	163.403	24.917	16.497	-59.228	82.869	86.662	-59.293	-54.780	60.681	11.840	-55.082	-50.904	-50.256	-45.642	72.394	-46.460	-8191	255	
14764.709	1	1	0	0	0.21422	0.09974	0.22389	0.37312	0.077775	0.17162	0.10094	0.23525	0.060397	0.19513	0.093889	0.19337	0.19434	0.016626	0.10829	0.17994	-2.7542	-2.6792	-2.8417	-3.0833	-2.7687	-2.6937	-2.8812	-2.7646	-2.9062	-2.9375	-2.825	-3.1625	-2.8917	-2.8479	-2.8438	-2.7604	65.812	-67.096	51.202	229.319	212.098	59.020	73.451	249.119	12.489	271.493	164.264	-68.858	247.466	175.054	175.223	101.138	0.00015947	0.0005869	0.00015883	1274.8	3.7719e-06	7.8572e-06	1264.1	350.38	1.909e-06	4.2172e-06	402.82	133.52	115.59	39.865	2.2858e-06	49.519	0.0009706	0.0014939	0.00042632	1281.8	1.5346e-05	1.6922e-05	1279.5	355.83	1.5643e-05	1.6704e-05	410.3	137.53	118.45	40.738	1.5733e-05	50.944	160.971	4.651	53.570	-59.075	88.636	99.744	-59.284	-54.587	74.082	37.078	-55.151	-50.885	-50.291	-45.593	59.927	-45.941	-8191	255	
14764.828	1	1	0	0	0.23375	0.093575	0.32654	0.28084	0.071304	0.14559	0.40823	0.20102	0.18707	0.069005	0.26353	0.21865	0.42961	0.18148	0.11558	0.16339	-2.5417	-2.725	-2.5646	-3.1333	-2.8354	-2.6854	-3.1021	-2.6042	-2.8729	-2.8333	-2.5354	-3.2896	-2.6813	-2.7917	-2.9604	-2.7146	53.291	-43.043	36.268	247.683	166.028	-27.976	264.624	3.109	176.756	-39.258	194.437	249.441	244.751	-55.939	274.395	-25.250	0.00012483	0.00058956	0.00015542	1266.5	2.2575e-06	7.5668e-06	1264.8	348.64	1.1015e-06	6.8617e-06	403.43	133.32	115.45	39.602	4.0909e-06	49.711	0.00095636	0.0014964	0.00041897	1278.3	1.5091e-05	1.6696e-05	1279.7	355.14	1.5547e-05	1.6335e-05	409.56	137.23	118.48	40.67	1.5778e-05	50.912	168.597	32.947	-3.827	-59.218	62.157	66.878	-58.868	-54.603	133.769	62.677	-55.246	-50.733	-50.267	-45.527	78.701	-46.223	-8191	255	
14764.924	1	1	0	0	0.24675	0.12167	0.16098	0.1674	0.028459	0.2018	0.13509	0.17455	0.10661	0.12997	0.092243	0.2208	0.23297	0.27027	0.058655	0.2228	-2.5292	-3.0083	-2.5854	-3.3167	-2.8708	-2.6375	-3.3521	-2.6917	-3.0312	-2.9	-2.8042	-2.9813	-2.825	-2.8292	-2.975	-2.6417	239.824	274.774	45.634	197.198	59.564	89.154	278.444	173.400	210.918	117.281	105.396	279.943	-54.803	183.449	167.349	132.085	0.00011571	0.00042689	0.00010521	1265.8	2.3286e-06	4.2556e-06	1259.6	349.21	1.7611e-06	5.6994e-06	404.01	133.43	115.34	39.804	3.2238e-06	49.617	0.00097765	0.0015142	0.0004181	1277.8	1.5263e-05	1.6675e-05	1278.9	355.97	1.5683e-05	1.6575e-05	409.82	137.31	118.49	40.72	1.5927e-05	51.009	158.055	3.811	16.307	-58.995	73.434	49.734	-59.206	-54.589	94.844	76.605	-55.083	-50.619	-50.227	-45.513	82.049	-46.064	-8191	255	
14765.021	1	1	0	0	0.21777	0.016519	0.21231	0.27962	0.1605	0.21949	0.20175	0.14876	0.2215	0.26256	0.074796	0.20401	0.46883	0.37385	0.059459	0.26473	-2.575	-2.8479	-2.6167	-3.0354	-2.9125	-2.6312	-3.2875	-2.8896	-2.8604	-2.9938	-2.5917	-3.1979	-2.9167	-2.7125	-3.0771	-2.9146	78.358	49.928	239.002	203.418	123.798	-50.678	233.414	-64.807	223.407	230.475	-27.522	-50.041	29.624	-51.836	100.333	121.093	0.0001271	0.00047813	0.0001082	1268.8	4.2516e-06	2.6928e-06	1262.7	349.62	6.7421e-07	5.1063e-06	403.68	133.67	115.07	39.638	5.062e-06	49.715	0.00096835	0.0014935	0.00041389	1279	1.5171e-05	1.6848e-05	1278.8	355.13	1.5662e-05	1.6401e-05	410.17	137.39	118.66	40.71	1.538e-05	51.004	166.860	25.905	42.926	-59.334	82.723	77.452	-59.352	-54.725	221.230	88.164	-55.067	-50.743	-50.099	-45.561	84.666	-46.215	-8191	255	
14765.117	1	1	0	0	0.14519	0.17068	0.061991	0.20168	0.15725	0.040692	0.24078	0.38943	0.3577	0.083	0.14371	0.086698	0.20162	0.18195	0.17421	0.15162	-2.3917	-3.2583	-2.4417	-3.0646	-2.8667	-2.7292	-3.3292	-3.0208	-2.8438	-3.1646	-2.6688	-3.1813	-2.9042	-3.0125	-2.8854	-2.9292	116.065	266.192	254.954	209.983	181.187	270.424	230.293	224.574	-40.271	-69.846	-34.497	-71.724	-62.787	233.972	277.263	116.677	0.00012823	0.00035284	0.00019618	1265.6	3.8906e-06	3.7253e-06	1264.8	349.73	3.4043e-06	4.15e-06	403.93	133.27	115.12	39.696	3.6132e-06	49.789	0.00096789	0.0014789	0.0004209	1277.5	1.525e-05	1.6965e-05	1279.8	355.4	1.5897e-05	1.6446e-05	410.28	137.39	118.46	40.643	1.5849e-05	50.9	152.668	13.100	19.605	-59.036	93.153	75.721	-59.058	-54.558	3.264	65.121	-55.014	-50.712	-50.361	-45.703	46.043	-46.460	-8191	255	
14765.213	1	1	0	0	0.16976	0.19973	0.1539	0.11814	0.10254	0.20254	0.095631	0.18307	0.040316	0.26207	0.23139	0.1557	0.27666	0.26009	0.097939	0.17888	-2.2292	-2.9958	-2.6042	-2.875	-2.9958	-2.6271	-3.1583	-2.8917	-2.5833	-3.1958	-2.7	-2.8917	-3.0292	-2.6396	-2.9542	-2.8333	189.033	282.326	186.144	204.044	246.372	-16.735	255.960	235.436	200.587	23.184	16.414	203.518	-12.777	216.859	151.157	6.221	0.00015473	0.00055308	0.00015029	1266.2	4.5448e-07	6.7787e-06	1264	348.96	1.767e-06	8.1502e-06	405.4	132.7	114.81	39.474	3.4354e-06	49.705	0.00095403	0.0014964	0.00042967	1275.5	1.5308e-05	1.6884e-05	1277.8	355.15	1.5798e-05	1.6468e-05	409.68	137.03	118.3	40.606	1.6036e-05	50.875	159.298	12.693	6.075	-59.140	62.014	89.188	-59.109	-54.510	16.546	71.827	-55.005	-50.840	-50.455	-45.443	96.576	-46.132	-8191	255	
14765.309	1	1	0	0	0.062601	0.10454	0.24372	0.21542	0.30701	0.13398	0.12103	0.2334	0.22002	0.31464	0.24203	0.17655	0.25936	0.14724	0.050286	0.21204	-2.2979	-3.1042	-2.6083	-3.0833	-2.7792	-2.5854	-3.1708	-2.7521	-2.7417	-3.1208	-2.7125	-2.7729	-3.0563	-2.5563	-3.0167	-3.1188	227.099	103.656	243.435	226.646	255.228	106.005	48.255	187.375	181.173	-8.577	12.187	209.533	-49.316	-66.719	77.635	159.157	0.00013121	0.00035412	0.00021035	1262.5	2.9703e-06	5.2014e-06	1261.7	349.29	2.6175e-06	4.1145e-06	401.85	132.94	115	39.662	4.2269e-06	49.9	0.00097996	0.0015136	0.00043048	1275.5	1.5364e-05	1.6998e-05	1277.4	354.97	1.5642e-05	1.6588e-05	408.62	136.94	118.11	40.611	1.6e-05	50.897	169.511	19.898	22.321	-58.963	104.532	63.834	-59.421	-54.577	53.748	108.994	-55.092	-50.740	-50.528	-45.643	72.697	-46.066	-8191	255	
14765.430	1	1	0	0	0.030698	0.10945	0.24331	0.47676	0.17589	0.15782	0.055838	0.17993	0.2694	0.23576	0.34113	0.27595	0.24712	0.23617	0.038062	0.24617	-2.2188	-3.0479	-2.7167	-2.7812	-3.0396	-2.4708	-3.0354	-3.0979	-2.3458	-3.0729	-2.7917	-2.6875	-3.15	-2.6604	-2.8958	-2.8708	72.165	181.007	-69.667	265.357	85.944	146.788	213.948	213.602	21.458	224.019	261.386	205.161	223.616	215.617	-57.970	253.854	0.00013352	0.00051898	3.5194e-05	1260.8	1.0512e-06	5.9175e-06	1260.2	349.36	6.5012e-07	3.9073e-06	401.88	132.81	114.44	39.463	1.5015e-06	49.555	0.00096526	0.0014958	0.00041593	1272.9	1.4913e-05	1.6873e-05	1276.8	354.99	1.5641e-05	1.6499e-05	408.47	136.87	117.87	40.556	1.6061e-05	50.871	169.386	27.537	49.926	-59.044	64.384	60.944	-59.260	-54.674	173.676	53.349	-55.124	-50.871	-50.205	-45.627	34.219	-46.213	-8191	255	
14765.526	1	1	0	0	0.28315	0.13662	0.26868	0.090989	0.16415	0.15325	0.19033	0.20154	0.063836	0.18584	0.058969	0.12446	0.2296	0.28973	0.15341	0.028979	-2.0833	-3.05	-2.5333	-2.6479	-2.9062	-2.5125	-2.9604	-3.1021	-2.6688	-2.9062	-2.7562	-2.7042	-2.9604	-2.8104	-2.6146	-3.1813	141.708	-41.653	-12.495	220.261	227.351	-48.904	160.204	269.090	36.264	19.833	156.042	245.581	-23.403	-59.113	-44.318	-70.809	0.00013243	0.00029176	6.9084e-05	1260.5	1.6397e-06	6.1784e-06	1259.2	349.51	3.0777e-06	5.9167e-06	402.8	132.99	114.82	39.485	5.6986e-06	49.415	0.00098419	0.001498	0.00042453	1272.3	1.5329e-05	1.6924e-05	1276.5	354.96	1.5669e-05	1.668e-05	408.62	136.77	118.05	40.509	1.6023e-05	50.752	143.454	11.725	75.610	-59.252	72.986	85.506	-59.351	-54.681	50.307	68.285	-54.947	-50.789	-50.341	-45.506	69.792	-46.198	-8191	255	
14765.622	1	1	0	0	0.23882	0.13035	0.18796	0.049913	0.14148	0.17652	0.16521	0.27738	0.029325	0.10349	0.17883	0.2469	0.040641	0.1551	0.097617	0.20093	-2.1021	-2.7833	-2.7854	-2.5438	-3.2313	-2.65	-2.7375	-3.2333	-2.5	-3.0229	-3.0271	-2.7104	-3.2188	-2.7812	-2.7417	-3.1271	-23.882	225.827	-42.946	-58.881	254.045	51.874	268.062	232.732	-19.270	144.988	-37.933	241.449	67.063	-29.298	-68.536	-35.913	0.00011125	0.00035578	0.00011679	1261.6	4.3141e-06	7.6379e-06	1259.3	348.06	2.0602e-06	6.0535e-06	402.59	133.15	115.07	39.295	4.6811e-06	49.411	0.00097862	0.0015029	0.00042138	1270.9	1.5316e-05	1.7362e-05	1274.7	354.48	1.5786e-05	1.6885e-05	408.96	136.8	118.02	40.408	1.6107e-05	50.758	168.291	-13.581	31.390	-59.139	85.517	72.325	-59.350	-54.689	16.696	80.497	-55.260	-50.664	-50.500	-45.627	74.969	-46.096	-8191	255	
14765.716	1	1	0	0	0.18759	0.21231	0.31296	0.13566	0.11762	0.1522	0.31573	0.27433	0.15031	0.19411	0.24474	0.15337	0.25448	0.21432	0.071233	0.14511	-2.1271	-2.925	-2.7354	-2.8729	-2.8646	-2.8187	-2.9667	-3.0687	-2.5083	-2.7125	-3.0521	-2.7521	-2.9646	-2.9625	-2.7292	-3.0687	41.317	103.042	-30.323	286.568	82.399	180.806	192.817	255.484	261.383	177.584	240.473	118.347	249.137	253.727	57.566	243.380	0.00012691	0.00045432	0.00010776	1258.6	4.0207e-06	4.1128e-06	1257.8	348.76	2.879e-06	5.1028e-06	404.79	132.36	114.41	39.364	1.9727e-06	49.638	0.0009809	0.0015008	0.00042779	1270.6	1.5464e-05	1.6695e-05	1273	354.01	1.5877e-05	1.6994e-05	409.05	136.49	117.79	40.394	1.6057e-05	50.82	161.603	21.665	6.907	-59.084	77.759	80.752	-59.156	-54.717	40.910	96.838	-55.302	-50.939	-50.102	-45.770	104.365	-45.897	-8191	255	
14765.790	1	1	0	0	0.13447	0.20892	0.16784	0.21835	0.13293	0.17923	0.091736	0.159	0.13435	0.25908	0.12391	0.21023	0.10615	0.14769	0.11541	0.084769	-2.1542	-2.6958	-3.0375	-2.7458	-3.0604	-2.8479	-2.9208	-3.3688	-2.6063	-2.9917	-3.0854	-2.8563	-2.9229	-2.8312	-2.5917	-3.0687	143.425	231.018	-26.456	-70.072	282.658	-50.283	45.504	-38.434	235.568	20.966	211.677	275.408	105.896	249.133	58.714	-48.188	0.00017074	0.00083921	0.00018314	1264.7	1.93e-06	6.891e-06	1254.9	348.22	1.0124e-06	5.9395e-06	404.05	132.17	115.03	39.602	5.2209e-06	49.486	0.0009717	0.0015373	0.00042627	1270.9	1.54e-05	1.7127e-05	1274.4	354.27	1.5727e-05	1.678e-05	409.06	136.58	118.17	40.534	1.6184e-05	50.784	173.648	-0.201	9.201	-59.136	110.704	45.763	-59.061	-54.721	29.792	76.830	-55.133	-51.095	-50.311	-45.438	68.893	-46.132	-8191	255	
14765.909	1	1	0	0	0.26436	0.1079	0.15365	0.38176	0.15898	0.19715	0.2706	0.20267	0.05504	0.10281	0.21468	0.052807	0.14907	0.19673	0.15728	0.11364	-2.3958	-2.6979	-3.1708	-2.85	-2.8688	-3.1229	-2.4833	-3.2833	-2.8875	-2.6292	-3.3979	-2.7979	-2.7854	-2.9854	-2.4646	-2.9729	35.196	161.204	46.251	268.657	86.468	-45.931	240.496	52.543	-19.325	172.545	187.359	137.112	-38.748	259.977	-26.660	240.220	0.00013439	0.0005228	0.00010738	1264.6	2.691e-06	5.3412e-06	1259.6	348.76	2.6658e-06	7.766e-06	401.86	132.86	115.22	39.618	2.0367e-06	49.76	0.0009714	0.0015195	0.00042407	1273.8	1.5367e-05	1.6694e-05	1277.3	355.33	1.5611e-05	1.6571e-05	409.08	137.1	118.41	40.661	1.5629e-05	50.979	170.870	17.585	35.956	-59.295	91.530	74.495	-59.224	-54.735	101.428	88.077	-54.967	-50.969	-50.283	-45.576	61.060	-46.469	-8191	255	
14766.005	1	1	0	0	0.20615	0.17748	0.12709	0.071248	0.13804	0.10411	0.082762	0.17271	0.048323	0.23372	0.2234	0.19232	0.2485	0.15621	0.099564	0.067008	-2.2604	-2.6437	-3.0062	-2.7417	-2.9938	-2.7938	-2.9854	-3.2125	-2.875	-2.7167	-3.125	-2.8458	-3.0729	-3.1771	-2.55	-2.7896	28.310	76.393	89.615	-51.545	256.788	212.844	182.279	275.186	46.047	207.381	193.758	248.794	223.029	-18.779	200.625	60.719	0.00012453	0.00044086	0.00019103	1267.1	6.564e-07	4.6823e-06	1263.1	349.27	1.5448e-06	4.8497e-06	405.04	133.3	114.96	39.697	2.7005e-06	49.553	0.00097063	0.0014743	0.00041764	1277.6	1.5161e-05	1.6586e-05	1279.6	355.16	1.5315e-05	1.6633e-05	409.61	137.25	118.39	40.69	1.5504e-05	50.927	165.447	2.790	30.455	-59.160	45.690	125.655	-59.387	-54.760	70.087	66.468	-55.399	-50.731	-50.410	-45.616	63.061	-46.031	-8191	255	
14766.101	1	1	0	0	0.23398	0.35854	0.10833	0.17986	0.079671	0.17569	0.16859	0.16076	0.24292	0.10502	0.075193	0.15162	0.076803	0.11977	0.20681	0.065795	-2.4854	-2.5729	-3.125	-2.8312	-2.8354	-3.0208	-2.8021	-2.8708	-2.7625	-2.4792	-3.0604	-2.9729	-2.6167	-3.25	-2.5729	-3	140.216	274.940	50.127	271.027	65.086	127.821	226.034	217.363	103.688	99.593	128.374	207.021	232.738	-20.926	73.070	-9.835	0.000107	0.00044504	0.00013744	1266.2	4.3195e-06	5.9228e-06	1264.3	349.17	3.3218e-06	4.3048e-06	402.26	133.25	115.5	39.624	2.274e-06	49.928	0.00098267	0.0015064	0.00040762	1278.1	1.5032e-05	1.6479e-05	1280.4	355.5	1.5284e-05	1.6788e-05	409.67	137.31	118.59	40.705	1.5896e-05	51.045	161.198	15.080	40.171	-59.243	70.881	68.834	-59.366	-54.540	88.324	99.570	-55.309	-50.749	-50.334	-45.696	95.003	-46.318	-8191	255	
14766.197	1	1	0	0	0.10647	0.058854	0.15687	0.19066	0.096365	0.14883	0.2161	0.090826	0.10104	0.19953	0.028347	0.092876	0.17121	0.27998	0.072126	0.35613	-2.2333	-2.5354	-3.0229	-2.9146	-2.7292	-3.0375	-2.6979	-2.9354	-3.0062	-2.5208	-2.9229	-2.8333	-2.6688	-3.075	-2.7708	-2.8375	88.464	242.018	-43.288	234.978	-9.122	193.978	136.416	285.884	-52.089	85.763	255.652	242.906	278.501	249.223	4.472	272.448	0.00013561	0.00047988	0.00012687	1273	3.7999e-06	4.1302e-06	1261.9	348.95	1.6698e-06	5.4662e-06	400.91	133.18	115.77	39.78	2.4826e-06	49.684	0.00094955	0.0014637	0.00040945	1278.9	1.5292e-05	1.6613e-05	1281.4	355.49	1.5306e-05	1.6624e-05	409.08	137.31	118.83	40.737	1.5958e-05	50.982	170.581	0.396	-5.829	-59.165	137.198	100.932	-59.176	-54.601	65.484	64.946	-55.136	-50.756	-50.204	-45.512	138.269	-46.110	-8191	255	
14766.318	1	1	0	0	0.28945	0.33177	0.25131	0.12103	0.064196	0.02767	0.18668	0.13119	0.071675	0.16469	0.23991	0.21213	0.20217	0.031672	0.072688	0.22153	-2.5896	-2.6208	-2.8937	-3.1125	-2.5896	-3.0583	-3.0646	-2.8667	-3.1146	-2.4979	-2.9708	-2.7708	-2.7562	-3.1104	-2.8021	-2.7062	19.393	245.653	11.342	256.685	142.402	61.900	-48.042	240.367	216.124	281.284	275.424	230.576	251.119	-60.750	164.712	275.469	0.00013501	0.00034817	0.00014156	1268.2	2.3104e-06	4.261e-06	1264.6	350.04	2.3884e-06	2.8293e-06	404.39	133.59	115.43	39.645	4.4726e-06	49.743	0.00094373	0.0014753	0.00041766	1276.9	1.4993e-05	1.6212e-05	1280.1	355.55	1.4964e-05	1.6482e-05	410.34	137.38	118.66	40.676	1.5888e-05	50.932	170.612	14.395	-3.075	-59.246	111.974	100.417	-59.184	-54.474	92.934	101.925	-54.969	-50.752	-50.308	-45.548	98.291	-46.184	-8191	255	
14766.389	1	1	0	0	0.13326	0.39421	0.30508	0.36396	0.12182	0.2254	0.25447	0.17333	0.034788	0.20927	0.07939	0.097824	0.29538	0.13483	0.13344	0.19124	-2.6312	-2.3812	-3.0438	-3.1083	-2.4458	-3.1521	-2.9437	-2.7604	-2.8854	-2.5354	-2.975	-2.9625	-2.8021	-2.9417	-2.9625	-2.7854	183.093	209.807	238.949	223.975	-3.420	193.286	229.156	-0.848	18.446	174.765	284.730	268.782	233.572	214.868	136.163	241.583	0.00012858	0.00070656	0.00019767	1266.9	9.2286e-07	2.9476e-06	1266.1	349.8	2.5825e-06	4.5007e-06	403.44	133.47	115.09	39.603	4.4496e-06	49.736	0.00093952	0.0014733	0.00042081	1277.1	1.5046e-05	1.6194e-05	1280.2	355.44	1.5267e-05	1.6821e-05	409.84	137.44	118.6	40.711	1.5801e-05	51.017	164.751	-14.356	40.201	-59.286	12.899	99.700	-59.162	-54.557	70.094	80.302	-54.859	-50.913	-50.270	-45.355	61.689	-45.990	-8191	255	
14766.510	1	1	0	0	0.13763	0.25086	0.075877	0.40086	0.26604	0.26153	0.24399	0.26766	0.1887	0.24288	0.082383	0.1537	0.2459	0.26629	0.038116	0.31507	-2.5292	-2.6208	-2.8187	-3.1833	-2.4708	-3.0292	-2.9208	-2.8271	-3.1167	-2.7687	-3.0687	-2.9458	-2.8542	-2.9604	-2.8771	-2.8604	-64.539	70.136	131.876	253.483	-46.003	-9.957	209.789	271.935	75.779	56.720	232.503	172.533	261.246	241.452	239.953	272.687	0.00014851	0.00030558	0.00020389	1266	2.3928e-06	4.9696e-06	1266.1	350.02	2.5762e-06	7.5558e-06	403.94	133.35	115.66	39.904	3.7522e-06	49.857	0.00096406	0.0015036	0.00042118	1279.4	1.5068e-05	1.6371e-05	1282.2	356.05	1.5278e-05	1.6638e-05	410.43	137.53	118.64	40.785	1.5774e-05	51.083	170.940	-13.620	21.690	-59.126	86.957	95.984	-59.259	-54.775	61.916	89.080	-55.451	-50.808	-50.339	-45.456	90.751	-45.950	-8191	255	
14766.606	1	1	0	0	0.10278	0.14335	0.29655	0.37675	0.049934	0.18114	0.038345	0.20423	0.20655	0.12616	0.089004	0.11439	0.2306	0.30203	0.32819	0.10065	-2.5958	-2.9229	-2.7687	-3.2479	-2.4813	-2.9042	-3.0958	-2.8125	-3.1771	-2.9042	-2.7812	-3.1354	-2.6708	-2.8104	-2.9625	-2.7833	190.319	6.123	88.261	270.669	-43.534	49.985	26.517	237.102	151.791	250.041	8.419	259.825	210.382	-66.892	48.393	184.292	0.00012825	0.00047306	0.00016545	1273.1	1.0996e-06	8.2855e-06	1266.3	349.8	1.4566e-06	6.3114e-06	405.15	133.58	115.56	39.805	4.4137e-06	49.917	0.00094582	0.0014546	0.00041365	1280.8	1.5185e-05	1.6325e-05	1282.6	356.57	1.5476e-05	1.6754e-05	410.65	137.63	118.65	40.742	1.5669e-05	51.065	163.844	15.251	23.217	-59.232	96.707	46.358	-59.298	-54.495	-4.432	91.474	-54.989	-50.935	-50.322	-45.572	81.243	-46.235	-8191	255	
14766.702	1	1	0	0	0.29823	0.29907	0.16042	0.21738	0.20425	0.15666	0.064843	0.079857	0.10995	0.16295	0.22144	0.33646	0.19627	0.2427	0.10523	0.10143	-2.55	-2.9479	-2.7125	-3.0833	-2.8583	-2.8625	-3.0958	-2.6458	-2.9562	-2.9458	-2.5604	-3.2271	-2.6188	-3.0729	-2.7229	-2.5771	-23.029	193.496	-36.077	172.419	232.518	147.584	190.188	135.563	107.272	13.473	180.599	251.371	-30.344	-47.401	61.705	146.936	0.00014207	0.00068217	9.2027e-05	1270.8	2.4517e-06	5.0626e-06	1269.5	351.42	1.3725e-06	1.9555e-06	404.6	132.91	115.42	39.812	2.6484e-06	49.916	0.0009566	0.0015041	0.0004174	1280.6	1.4981e-05	1.6864e-05	1283.5	356.38	1.5529e-05	1.6161e-05	410.48	137.44	118.96	40.792	1.5174e-05	51.162	162.032	22.527	44.195	-59.021	92.834	57.624	-59.186	-54.521	17.057	76.404	-55.109	-50.959	-50.181	-45.536	170.220	-46.318	-8191	255	
14766.799	1	1	0	0	0.30746	0.25319	0.11309	0.25618	0.20371	0.15799	0.18195	0.23995	0.16014	0.17934	0.19519	0.13131	0.17302	0.19991	0.21789	0.049653	-2.3208	-2.95	-2.4604	-3.1188	-2.7333	-2.6896	-3.2479	-2.5938	-2.9167	-2.8292	-2.6167	-3.2313	-2.6604	-2.7438	-2.9667	-2.7521	167.037	190.040	258.431	-44.367	25.616	261.007	220.751	269.952	282.675	231.327	205.678	45.845	248.323	-57.983	203.321	143.149	0.00013629	0.00078086	0.00010112	1271.6	3.8964e-06	4.2375e-06	1269	351.29	1.5381e-06	5.2902e-06	403.21	133.66	115.29	39.821	4.4032e-06	49.775	0.00095531	0.0014837	0.00041284	1281.9	1.5255e-05	1.6701e-05	1285.3	356.87	1.5507e-05	1.6424e-05	410.16	137.52	118.67	40.805	1.5595e-05	51.126	165.737	11.856	11.928	-59.273	107.368	88.615	-59.237	-54.620	57.965	66.028	-55.169	-50.935	-50.173	-45.822	102.546	-46.504	-8191	255	
14766.917	1	1	0	0	0.36456	0.25092	0.13837	0.21682	0.060151	0.10241	0.16184	0.082075	0.043454	0.16549	0.29206	0.24006	0.2401	0.089581	0.11824	0.17498	-2.5146	-2.7646	-2.5771	-3.0354	-2.7854	-2.4875	-3.1688	-2.6063	-2.8896	-2.9938	-2.7729	-3.1521	-3.0875	-2.5604	-3.1104	-2.6688	-24.125	41.347	247.001	276.691	136.692	53.395	168.847	-35.241	-63.192	34.928	69.591	232.173	239.978	224.692	268.005	221.472	0.00013894	0.00060962	0.00010287	1268.5	2.9594e-06	4.2929e-06	1268.4	350.11	7.757e-07	5.2097e-06	405.02	133.76	115.87	39.787	4.295e-06	49.888	0.00095381	0.0014925	0.00041685	1281.7	1.5221e-05	1.6395e-05	1285.6	356.21	1.5329e-05	1.5875e-05	410.55	137.72	118.89	40.843	1.5649e-05	51.037	157.099	-0.625	42.411	-59.375	112.109	59.925	-59.172	-54.520	19.146	110.417	-55.078	-50.797	-50.218	-45.597	54.514	-45.931	-8191	255	
14767.014	1	1	0	0	0.077182	0.10563	0.15627	0.19862	0.15375	0.1284	0.19908	0.11353	0.05912	0.055576	0.25828	0.10429	0.35254	0.19924	0.20608	0.18578	-2.3125	-3.0396	-2.5417	-2.9792	-2.7521	-2.6042	-3.1042	-2.9021	-2.7812	-3.1833	-2.6354	-3.0292	-2.9667	-2.5021	-3.1104	-2.8875	30.495	85.780	-67.188	239.169	-37.176	50.923	266.943	217.809	96.921	-14.943	252.632	95.512	263.084	264.656	225.179	37.114	0.00012159	0.00044739	9.6895e-05	1271.2	3.4379e-06	4.6986e-06	1268.6	351.38	3.9891e-06	5.95e-06	403.46	133.69	114.84	39.894	2.4732e-06	49.594	0.00095051	0.0014649	0.00040793	1281.7	1.5066e-05	1.6253e-05	1284.6	356.45	1.5426e-05	1.6181e-05	410.42	137.7	118.48	40.819	1.545e-05	51.037	152.272	66.970	55.039	-59.128	73.281	101.463	-59.263	-54.581	79.839	72.780	-55.157	-51.134	-50.234	-45.705	129.756	-46.127	-8191	255	
14767.110	1	1	0	0	0.06464	0.067957	0.1089	0.28589	0.096598	0.11666	0.038432	0.22402	0.14359	0.20668	0.12145	0.20632	0.10098	0.29703	0.053557	0.19487	-2.2583	-2.6792	-2.6354	-3.0396	-3.0104	-2.4562	-3.1146	-3.0021	-2.5812	-3.1167	-2.7958	-2.9542	-3.1646	-2.35	-3.0104	-3.0396	230.245	117.130	45.681	239.006	117.741	88.850	172.911	-62.588	157.851	-17.154	172.074	192.441	-64.149	258.714	222.692	18.969	0.00012688	0.00066534	0.00016185	1271.6	2.8305e-06	7.0082e-06	1263.5	349.92	2.8466e-06	6.361e-06	404.43	133.61	115.89	39.913	3.5799e-06	49.626	0.00096467	0.0014629	0.00040711	1281.5	1.4809e-05	1.6055e-05	1283.1	355.99	1.5403e-05	1.5758e-05	411.01	137.52	118.77	40.852	1.5382e-05	51.02	171.193	-6.589	39.857	-59.198	99.337	92.167	-59.182	-54.671	98.379	93.288	-55.161	-50.604	-50.243	-45.485	75.243	-45.979	-8191	255	
14767.206	1	1	0	0	0.17706	0.04787	0.03635	0.12653	0.17976	0.23741	0.18672	0.38241	0.21787	0.045122	0.14334	0.19264	0.11195	0.070683	0.27085	0.21052	-2.0938	-2.9479	-2.4062	-2.9729	-3.0292	-2.6708	-3.0792	-2.8958	-2.3417	-3.0729	-2.5187	-3.0167	-2.9479	-2.5417	-2.9562	-2.8146	223.587	111.480	150.856	185.581	132.841	196.764	210.572	234.878	199.049	-64.476	231.623	270.230	155.843	-20.547	221.304	162.682	0.00013225	0.00069794	0.00014663	1273.2	4.0867e-06	4.2799e-06	1266.1	349.78	1.5661e-06	5.2234e-06	404.53	133.54	115.15	39.668	4.3401e-06	49.685	0.0009588	0.00146	0.00041221	1280.7	1.4574e-05	1.6186e-05	1282.2	355.81	1.5171e-05	1.635e-05	410.38	137.44	118.59	40.753	1.5379e-05	51.018	164.951	25.514	53.850	-59.145	71.938	90.008	-59.191	-54.759	51.801	63.958	-55.275	-50.809	-50.112	-45.495	110.934	-46.089	-8191	255	
14767.302	1	1	0	0	0.048042	0.1945	0.1613	0.35919	0.04178	0.22394	0.17563	0.10206	0.10738	0.2519	0.13042	0.30742	0.14131	0.23255	0.19577	0.10663	-2.1104	-2.9229	-2.6813	-2.875	-3.1	-2.6625	-3.0646	-2.9146	-2.7083	-2.9604	-3.0563	-2.7521	-3.0229	-2.4375	-2.8917	-2.8104	265.067	-58.479	139.233	227.431	100.976	9.416	201.656	101.411	88.958	30.854	1.930	177.717	271.215	97.825	220.988	205.173	0.00013973	0.00025365	0.00011021	1265.1	3.9248e-06	3.3362e-06	1264.5	350.3	2.3738e-06	3.4698e-06	404.73	133.74	115.17	40.004	2.8057e-06	49.805	0.00093257	0.0014591	0.00041094	1277.2	1.4661e-05	1.6292e-05	1281.6	355.65	1.4964e-05	1.6013e-05	410.64	137.46	118.56	40.815	1.5529e-05	51.036	153.173	46.445	12.417	-59.204	85.526	56.021	-59.302	-54.555	78.537	89.117	-54.904	-50.844	-50.374	-45.424	48.854	-46.343	-8191	255	
14767.398	1	1	0	0	0.29713	0.35436	0.094051	0.38478	0.13804	0.20247	0.25004	0.027271	0.16902	0.14122	0.22054	0.129	0.052876	0.11453	0.2189	0.29528	-2.1146	-2.9938	-2.7604	-2.775	-3.3021	-2.5146	-2.8458	-3.0312	-2.5583	-2.7875	-2.9417	-2.6479	-2.9396	-2.5667	-2.9271	-2.8688	45.186	226.817	131.417	236.294	78.281	286.228	218.577	137.957	18.313	155.086	-51.484	275.716	-58.165	224.168	101.562	147.751	0.00010742	0.0003389	0.0001355	1268.9	7.4684e-07	6.3157e-06	1264.5	350.54	2.8233e-06	5.8086e-06	404.26	133.64	115.26	39.754	4.8467e-06	49.74	0.00094046	0.0014427	0.00041442	1279	1.4497e-05	1.6438e-05	1281.9	355.48	1.5272e-05	1.6198e-05	409.74	137.38	118.76	40.752	1.5719e-05	51.012	172.013	70.027	2.177	-59.229	119.224	96.496	-59.305	-54.699	27.209	84.590	-54.967	-50.755	-50.399	-45.565	87.736	-46.171	-8191	255	
14767.494	1	1	0	0	0.095333	0.060442	0.16996	0.1651	0.03148	0.14392	0.37288	0.25702	0.19627	0.18212	0.31537	0.1308	0.041744	0.069511	0.083078	0.21551	-2.1021	-2.8875	-2.8292	-2.7958	-2.8875	-2.5667	-2.8187	-3.1521	-2.6813	-2.8688	-2.9042	-2.6396	-3.0563	-2.4417	-2.5104	-2.9083	137.202	249.697	249.055	240.420	48.760	38.600	90.978	239.649	271.631	32.330	243.821	98.707	129.462	212.426	213.316	184.878	0.0001007	0.00034177	0.00015226	1270.6	5.1186e-06	4.059e-06	1262.5	348.88	3.5418e-06	3.9008e-06	404.89	133.35	115.06	39.757	3.7535e-06	49.767	0.000954	0.0014682	0.00040178	1279.7	1.4735e-05	1.6445e-05	1279.3	355.4	1.5304e-05	1.6399e-05	409.82	137.18	118.36	40.717	1.5577e-05	50.974	158.944	44.465	-0.844	-59.127	82.127	65.161	-59.317	-54.424	77.390	32.764	-55.049	-50.910	-50.287	-45.438	111.373	-46.001	-8191	255	
14767.613	1	1	0	0	0.28245	0.14093	0.12552	0.27712	0.097922	0.13929	0.14325	0.16947	0.18762	0.22214	0.14963	0.38454	0.2522	0.13454	0.11509	0.069347	-1.8854	-2.7812	-2.6604	-2.675	-3.0792	-2.4125	-2.5062	-3.0167	-2.5438	-2.6521	-2.9542	-2.4833	-2.9229	-2.7271	-2.5479	-2.9542	-2.035	277.644	106.791	-69.954	-69.173	219.896	157.204	227.239	143.347	-50.703	264.866	269.275	190.876	-71.772	187.518	61.715	0.00014824	0.00040677	9.853e-05	1263.2	1.3874e-06	4.879e-06	1265.4	349.24	1.2689e-06	4.7541e-06	404.62	133.08	115.35	39.794	4.5248e-06	49.503	0.00096022	0.0014531	0.00041165	1277.1	1.4757e-05	1.6481e-05	1279.6	355.44	1.5156e-05	1.5992e-05	409.57	137.46	118.54	40.7	1.5341e-05	50.968	172.567	25.799	57.347	-59.259	72.503	77.176	-59.187	-54.585	122.120	109.993	-54.881	-50.796	-50.261	-45.684	86.774	-46.438	-8191	255	
14767.687	1	1	0	0	0.067267	0.11403	0.12587	0.29876	0.25507	0.23197	0.16744	0.14071	0.2265	0.075121	0.24907	0.096749	0.032582	0.056949	0.17798	0.23912	-2.1688	-2.6625	-2.8521	-2.7646	-2.8833	-2.7	-2.6083	-2.8729	-2.7188	-2.8375	-3.1417	-2.6146	-2.85	-3.0875	-2.475	-3.0833	215.716	158.049	-7.828	264.037	234.391	-21.233	254.014	232.977	89.814	-31.297	107.745	135.285	277.329	188.026	247.371	259.245	0.00016364	0.00037807	0.00022039	1266.2	2.0403e-06	3.4145e-06	1263.1	350.04	2.4773e-06	4.4818e-06	405.7	133.37	115.51	39.709	2.7131e-06	49.851	0.00093652	0.0014458	0.00041149	1275.9	1.4769e-05	1.6058e-05	1279	355.74	1.5104e-05	1.6177e-05	410.08	137.28	118.69	40.681	1.5282e-05	51.082	165.922	-22.084	28.256	-59.367	84.176	110.322	-59.110	-54.650	80.550	74.007	-55.142	-50.818	-50.092	-45.654	53.030	-46.091	-8191	255	
14767.783	1	1	0	0	0.13903	0.084977	0.1654	0.18326	0.16804	0.092595	0.14108	0.22962	0.18562	0.26311	0.036884	0.074686	0.2663	0.086795	0.20182	0.086096	-2.3833	-2.4667	-3.1375	-2.575	-2.8896	-2.9208	-2.7438	-3.0125	-2.725	-2.4396	-3.1083	-2.625	-2.9625	-2.9375	-2.3646	-3.0875	250.385	106.538	167.659	268.824	14.658	134.700	216.839	-69.985	271.000	126.846	254.284	44.706	275.662	113.396	238.630	-61.608	0.00012646	0.00069633	0.00011944	1260.1	3.1092e-06	1.5623e-06	1258.2	349.82	2.0058e-06	2.6341e-06	403.55	133.89	114.95	39.503	4.4378e-06	49.766	0.00094333	0.0014677	0.00041003	1275	1.4682e-05	1.605e-05	1277.4	355.29	1.5024e-05	1.5713e-05	409.43	137.41	118.4	40.662	1.539e-05	50.951	172.606	14.217	38.497	-59.078	100.197	93.055	-59.213	-54.775	99.962	58.818	-55.197	-50.936	-50.317	-45.295	92.044	-46.034	-8191	255	
14767.879	1	1	0	0	0.069518	0.12387	0.12395	0.19105	0.16063	0.042781	0.23738	0.072746	0.187	0.14882	0.13263	0.080289	0.42596	0.1073	0.24643	0.12175	-2.3042	-2.3396	-2.9813	-2.6333	-2.7875	-2.9271	-2.5062	-2.8792	-2.8438	-2.4646	-3.0625	-2.7646	-2.7958	-2.8354	-2.3187	-3.0062	76.963	100.834	195.516	-70.176	-25.764	56.587	227.022	-26.006	38.330	56.417	205.903	215.018	237.003	-65.069	89.760	198.023	0.000154	0.00032062	0.00011797	1260.4	2.0587e-06	6.3841e-06	1260.9	348.89	1.438e-06	5.0571e-06	402.11	133.46	115.21	39.827	2.379e-06	49.828	0.0009352	0.0014312	0.00039986	1273.6	1.4571e-05	1.6346e-05	1276.6	355.26	1.5069e-05	1.6316e-05	408.66	137.23	118.6	40.731	1.5531e-05	51.053	161.609	7.327	-6.429	-59.124	141.146	81.743	-59.178	-54.690	86.004	83.918	-55.196	-50.739	-50.292	-45.610	54.795	-46.022	-8191	255	
14767.998	1	1	0	0	0.047408	0.26916	0.23115	0.40175	0.22024	0.024689	0.17733	0.29008	0.24844	0.39275	0.073965	0.10809	0.042094	0.23869	0.31123	0.098795	-2.4292	-2.5625	-3.1417	-2.6437	-2.8146	-3.0208	-2.6542	-3.0438	-2.8187	-2.5104	-2.9354	-2.7042	-2.6875	-2.8208	-2.6396	-2.8	2.234	177.820	243.557	237.416	253.770	192.188	218.276	-69.507	201.015	233.234	241.360	230.855	128.529	-3.323	-37.353	-47.790	0.00014296	0.00058608	0.00014605	1261.3	2.0029e-06	5.6174e-06	1264.1	349.16	2.2905e-06	7.0086e-06	404.72	133.15	114.94	39.647	3.2975e-06	49.704	0.00092761	0.0014751	0.00040204	1272.7	1.4604e-05	1.6088e-05	1277.3	355.39	1.4911e-05	1.6031e-05	409.71	137.3	118.39	40.625	1.538e-05	51.008	156.470	25.354	-6.837	-59.116	107.804	64.625	-59.157	-54.649	44.491	39.627	-55.057	-50.593	-50.119	-45.448	73.764	-46.239	-8191	255	
14768.094	1	1	0	0	0.17548	0.18213	0.087202	0.25948	0.14015	0.26123	0.19906	0.20028	0.17449	0.18849	0.29255	0.029053	0.37003	0.1754	0.17289	0.11192	-2.4313	-2.5833	-2.7729	-3	-2.75	-3	-2.7479	-2.7771	-2.9062	-2.6896	-2.8875	-2.8312	-2.5708	-3.0229	-2.375	-2.9479	243.417	36.503	233.572	286.169	219.482	77.439	227.056	237.332	14.161	58.938	245.967	-1.916	-32.705	-53.552	140.652	63.916	0.00014346	0.00033024	0.00010028	1266.8	1.4004e-06	4.9452e-06	1262.1	349.56	1.6115e-06	5.4125e-06	404.15	132.93	115.27	39.62	3.9377e-06	49.778	0.00095057	0.0014454	0.00039942	1274.8	1.476e-05	1.5873e-05	1278	355.23	1.4968e-05	1.5745e-05	409.51	137.1	118.22	40.666	1.5378e-05	50.956	179.720	17.449	28.604	-59.292	124.613	72.010	-59.307	-54.501	2.988	66.175	-55.106	-51.151	-50.225	-45.607	103.966	-46.220	-8191	255	
14768.190	1	1	0	0	0.11083	0.23417	0.18419	0.20603	0.32978	0.073517	0.15538	0.088573	0.11732	0.17237	0.2824	0.19021	0.20891	0.25843	0.1097	0.10626	-2.4896	-2.5917	-2.9062	-3.0583	-2.3667	-3.1229	-2.5542	-2.9062	-3.0563	-2.3438	-3.15	-2.7375	-2.6604	-3.025	-2.65	-2.7625	-22.423	219.736	248.407	250.528	-50.505	135.351	191.692	212.696	101.929	31.206	241.945	13.879	227.967	-59.548	123.336	47.456	0.00013125	0.0004697	0.00011288	1264.3	2.8943e-06	6.3347e-06	1260.4	349.01	1.8767e-06	6.1385e-06	402.16	133.21	115.06	39.682	4.124e-06	49.806	0.00092024	0.0014379	0.00040243	1273.3	1.4837e-05	1.6044e-05	1276.5	354.73	1.4784e-05	1.581e-05	409.42	137.29	118.45	40.657	1.5429e-05	50.978	167.763	20.875	-3.913	-59.225	33.379	86.536	-59.397	-54.665	111.051	72.752	-55.204	-50.926	-50.301	-45.401	44.779	-46.096	-8191	255	
14768.286	1	1	0	0	0.21053	0.16133	0.15585	0.14094	0.10971	0.21002	0.096595	0.15099	0.2719	0.12158	0.15404	0.057353	0.22036	0.30702	0.16783	0.11583	-2.5417	-2.4125	-2.8292	-2.9458	-2.5646	-3.1292	-3.1271	-2.7938	-2.9375	-2.5187	-2.9125	-2.9	-2.6667	-3.0125	-2.5938	-2.6562	164.130	17.010	254.083	243.861	-25.135	124.999	276.335	260.360	240.546	186.411	275.876	241.149	258.668	271.628	243.669	-59.640	0.00014708	0.00043146	0.00014371	1260.7	3.0991e-06	6.7718e-06	1261.7	349.3	2.3369e-06	2.9762e-06	403.23	133.65	115.16	39.668	3.1026e-06	49.829	0.00091174	0.0014269	0.00040147	1272.6	1.4519e-05	1.6203e-05	1276.8	354.72	1.4736e-05	1.6123e-05	408.87	137.34	118.4	40.693	1.5357e-05	50.84	159.168	16.200	-6.434	-59.098	72.512	99.058	-59.275	-54.728	84.677	55.622	-55.067	-50.857	-50.564	-45.554	83.233	-46.321	-8191	255	
14768.382	1	1	0	0	0.11673	0.19843	0.17963	0.19819	0.17126	0.15021	0.10247	0.088322	0.058521	0.21257	0.097882	0.11081	0.46975	0.10544	0.026998	0.29471	-2.6042	-2.4958	-2.7771	-2.8875	-2.525	-2.7562	-3.0146	-2.7354	-3.1583	-2.6167	-2.95	-3.0292	-2.6229	-2.8771	-2.9896	-2.4042	-0.979	259.994	120.495	250.688	126.899	42.890	-26.111	188.332	57.621	122.370	21.183	164.050	233.822	275.725	210.433	-69.193	0.00011976	0.00041852	0.00011478	1261.8	2.1018e-06	5.0636e-06	1258.3	349.82	1.0617e-06	4.0798e-06	402.03	133.23	115.22	39.704	4.2882e-06	49.605	0.00092633	0.0014499	0.00040502	1272.6	1.4515e-05	1.5451e-05	1276	355.3	1.4945e-05	1.6148e-05	408.99	136.95	118.32	40.689	1.5305e-05	50.892	168.785	14.747	28.818	-59.121	38.885	72.683	-59.213	-54.643	61.813	93.016	-55.276	-50.624	-50.055	-45.727	94.376	-46.065	-8191	255	
14768.479	1	1	0	0	0.29565	0.0052844	0.087124	0.45735	0.068231	0.098865	0.13651	0.37856	0.17521	0.17332	0.064706	0.25409	0.26839	0.059043	0.22669	0.34345	-2.4938	-2.6333	-2.6167	-3.1167	-2.625	-2.8812	-3.0979	-2.5042	-3.0417	-2.6458	-2.6125	-2.975	-2.7771	-2.9979	-2.7979	-2.7313	99.249	-6.277	-68.061	249.781	-47.255	10.532	-37.956	274.729	-54.068	9.515	-68.142	216.073	122.956	207.861	182.193	221.812	0.00011258	0.0006131	8.6555e-05	1264.9	1.0082e-06	4.2342e-06	1261.3	349.09	3.4382e-06	6.8204e-06	402.41	133.56	114.88	39.724	3.9204e-06	49.995	0.00092061	0.0014686	0.00040197	1272.6	1.4617e-05	1.6204e-05	1276.1	354.76	1.4851e-05	1.6037e-05	408.98	137.22	118.25	40.708	1.5691e-05	50.927	152.671	17.793	16.350	-59.116	47.682	58.390	-59.192	-54.703	120.426	51.162	-55.220	-50.885	-50.260	-45.506	85.757	-46.100	-8191	255	
14768.599	1	1	0	0	0.053087	0.037786	0.15513	0.25042	0.16453	0.11857	0.2161	0.2175	0.050793	0.085852	0.18847	0.22331	0.2619	0.10061	0.10163	0.31	-2.3312	-2.8271	-2.5604	-3.3812	-2.4	-2.65	-3.0687	-2.4583	-2.8896	-2.7021	-2.5563	-2.9708	-2.4583	-2.8021	-2.9542	-2.6521	45.931	93.784	137.149	273.297	58.608	148.414	265.801	242.983	225.797	79.106	206.387	-21.556	241.326	258.712	219.379	233.565	0.00011972	0.00050331	0.00016148	1259.5	1.3278e-06	5.9627e-06	1257.9	348.39	5.2833e-07	5.3075e-06	400.57	133.06	115.04	39.563	2.6408e-06	49.805	0.00092659	0.0014427	0.00040627	1271.6	1.4764e-05	1.6147e-05	1274.3	354.92	1.4645e-05	1.5991e-05	408.57	137.04	118.34	40.651	1.5482e-05	50.981	169.239	18.938	5.945	-59.217	67.077	89.462	-59.287	-54.732	65.590	105.394	-55.221	-50.826	-50.394	-45.497	70.372	-46.222	-8191	255	
14768.694	1	1	0	0	0.10235	0.19912	0.20135	0.15831	0.20918	0.17761	0.16414	0.28944	0.14338	0.17675	0.16287	0.1142	0.25094	0.20984	0.10449	0.15534	-2.5958	-2.7229	-2.5167	-2.9854	-2.6729	-2.5271	-3.1688	-2.5812	-2.9792	-2.8146	-2.4604	-3.2042	-2.6229	-2.9313	-2.8708	-2.4833	48.985	-20.203	115.249	236.894	212.506	34.669	284.871	197.876	21.980	78.356	231.191	244.492	205.757	-16.201	212.271	88.609	0.00010528	0.00058188	0.00022316	1261.4	1.6221e-06	2.8773e-06	1258.9	348.81	2.9017e-06	3.4954e-06	402.3	133.53	115.33	39.677	3.2894e-06	50.008	0.00092461	0.0014328	0.00040891	1272.5	1.4772e-05	1.6062e-05	1275.6	354.54	1.5358e-05	1.6066e-05	408.99	137.2	118.37	40.638	1.5132e-05	50.971	151.928	30.001	29.163	-59.183	93.778	118.276	-59.195	-54.846	46.487	50.256	-55.153	-51.095	-50.394	-45.487	107.291	-46.192	-8191	255	
14768.790	1	1	0	0	0.10709	0.26446	0.2223	0.47774	0.39383	0.19036	0.35454	0.31788	0.070491	0.14903	0.082869	0.38963	0.24642	0.30949	0.08823	0.23367	-2.4354	-2.7583	-2.5563	-3.0062	-2.6833	-2.7167	-3.1625	-2.7417	-2.8958	-2.7396	-2.7687	-2.9562	-2.85	-2.7354	-3.0958	-2.8104	167.029	268.525	122.718	-55.139	171.298	166.133	263.271	-39.771	-62.316	-27.972	188.129	238.473	206.922	211.879	138.755	262.987	0.00013797	0.00055452	0.00012219	1259.6	2.7806e-06	5.2676e-06	1257.6	348.36	2.3674e-06	4.9571e-06	403.93	132.97	114.54	39.609	3.4896e-06	49.505	0.00094459	0.0014279	0.00041088	1270.4	1.4597e-05	1.6079e-05	1275.2	354.58	1.514e-05	1.6172e-05	408.98	136.91	118.19	40.591	1.5035e-05	50.893	176.174	-7.812	35.387	-59.161	57.370	86.921	-59.186	-54.648	99.551	68.746	-55.106	-50.977	-50.231	-45.381	75.056	-45.836	-8191	255	
14768.910	1	1	0	0	0.069689	0.18167	0.13358	0.071478	0.16277	0.1305	0.301	0.25314	0.15931	0.19377	0.15146	0.10728	0.13892	0.14876	0.19155	0.26286	-2.2646	-3.1146	-2.3375	-3.2979	-2.9521	-2.55	-3.0208	-2.8542	-2.7833	-2.9625	-2.7271	-2.8854	-2.675	-2.8292	-2.9	-2.9125	60.370	120.496	147.432	250.850	135.882	-41.576	166.564	161.489	200.458	286.435	129.660	-59.718	-11.825	265.550	151.752	211.288	0.00015403	0.00039206	8.1221e-05	1262.7	1.4235e-06	5.385e-06	1260.6	348.51	1.516e-06	3.6702e-06	401.18	133.04	114.38	39.738	1.0767e-06	49.727	0.00094132	0.0014329	0.00040615	1271.9	1.4644e-05	1.6078e-05	1275.7	354.47	1.5137e-05	1.6149e-05	408.27	136.95	117.99	40.619	1.5082e-05	50.95	162.772	28.511	7.701	-59.252	121.688	111.546	-59.022	-54.642	51.660	66.390	-55.197	-50.728	-50.272	-45.355	28.593	-46.004	-8191	255	
14768.982	1	1	0	0	0.081791	0.1365	0.17778	0.14921	0.19641	0.24138	0.18299	0.30159	0.098066	0.12004	0.319	0.26446	0.14213	0.27826	0.0039926	0.21155	-2.3167	-2.8771	-2.4375	-3	-2.9333	-2.5333	-3.0938	-2.9208	-2.4188	-3.0938	-2.9333	-2.8583	-3.0271	-2.8312	-3.0896	-2.8833	-26.062	75.879	221.197	-33.071	206.923	252.082	-68.002	-69.361	35.997	-71.436	16.664	265.750	74.449	-50.367	195.783	232.078	0.00013806	0.00027663	9.5855e-05	1264.9	2.268e-06	5.2965e-06	1263.2	348.59	1.1274e-06	2.9529e-06	401.47	133.31	114.91	39.73	4.7226e-06	49.525	0.00095944	0.0014413	0.00039901	1272.7	1.4579e-05	1.6159e-05	1275.4	354.53	1.4976e-05	1.5603e-05	408.78	137.18	118.34	40.655	1.5168e-05	50.856	169.725	9.817	37.684	-59.162	104.617	78.108	-59.333	-54.477	41.009	18.370	-55.141	-50.955	-50.380	-45.512	82.031	-46.206	-8191	255	
14769.078	1	1	0	0	0.2422	0.26654	0.30877	0.26351	0.26284	0.12894	0.20719	0.30294	0.054497	0.05842	0.19917	0.32978	0.37089	0.2856	0.096799	0.26022	-2.1292	-2.8875	-2.5062	-2.8125	-2.9583	-2.6229	-3.2875	-2.9958	-2.7313	-2.9813	-2.7292	-2.8917	-3.0312	-2.7396	-2.7021	-2.8792	120.486	286.336	-28.355	249.686	-10.120	287.149	243.255	154.415	-34.094	255.488	173.426	237.625	-63.712	-68.736	252.851	152.253	0.00013638	0.00043832	0.000118	1263.1	2.1187e-06	3.9234e-06	1256.7	348	1.277e-06	4.6717e-06	403.65	132.93	114.68	39.667	4.4084e-06	49.709	0.00092866	0.0014347	0.00040115	1272.1	1.4721e-05	1.5829e-05	1274.7	354.5	1.481e-05	1.5586e-05	409.21	137.16	118.16	40.7	1.4997e-05	50.925	171.955	21.489	-18.348	-59.147	94.279	23.000	-59.060	-54.509	96.151	84.917	-55.471	-50.805	-50.370	-45.577	91.362	-46.278	-8191	255	
14769.174	1	1	0	0	0.069212	0.10318	0.17755	0.15264	0.12317	0.19691	0.17843	0.33111	0.02227	0.17608	0.18459	0.22231	0.12442	0.14321	0.068477	0.22437	-2.0062	-3.0521	-2.8563	-2.7646	-3.1312	-2.6312	-3.0833	-2.9979	-2.4688	-3.0708	-2.7812	-2.7396	-3.0333	-2.6813	-2.7042	-2.9396	28.018	199.692	37.828	-56.332	32.626	236.620	-70.468	181.794	36.653	-31.188	285.977	-64.760	-8.332	233.882	239.553	165.898	0.00015022	0.00051546	0.000173	1262.9	1.627e-06	2.9239e-06	1259.6	349.24	2.2174e-06	5.2843e-06	402.44	132.9	115.07	39.687	5.0127e-06	49.717	0.00094295	0.0014471	0.00040715	1271.8	1.4698e-05	1.5933e-05	1277.4	354.52	1.4832e-05	1.59e-05	408.46	137.04	118.47	40.653	1.5481e-05	50.971	155.951	28.400	32.547	-58.987	60.162	17.725	-59.171	-54.816	57.231	109.520	-55.078	-50.998	-50.282	-45.432	16.423	-46.443	-8191	255	
14769.295	1	1	0	0	0.10149	0.29081	0.29339	0.039103	0.14851	0.24395	0.14303	0.11641	0.068401	0.15242	0.19875	0.31912	0.16516	0.023711	0.11407	0.02934	-2.0375	-2.9458	-2.5854	-2.7958	-3.0167	-2.575	-3.0667	-3.1333	-2.3146	-2.9083	-2.9437	-2.7375	-2.9417	-2.6813	-2.8354	-3.0354	185.600	241.342	232.031	259.215	12.878	80.140	-23.974	145.236	-21.207	282.427	286.161	217.708	103.926	93.032	177.464	205.487	0.00013769	0.00051553	0.00014402	1264	3.3917e-06	3.3126e-06	1264.5	348.72	3.2959e-06	5.3021e-06	404.25	134.11	115.13	39.785	1.9868e-06	50.021	0.00092697	0.0014353	0.00040388	1274.1	1.4729e-05	1.6238e-05	1277.5	354.82	1.4931e-05	1.591e-05	409.17	137.49	118.3	40.733	1.5368e-05	50.999	161.512	-6.768	8.295	-59.210	68.338	108.802	-59.150	-54.703	15.706	72.537	-55.237	-50.882	-50.394	-45.588	123.133	-46.041	-8191	255	
14769.391	1	1	0	0	0.049532	0.14962	0.38196	0.10422	0.026018	0.062647	0.1273	0.30884	0.15128	0.024248	0.037495	0.31257	0.16175	0.19427	0.32416	0.29896	-2.25	-2.8208	-2.7896	-2.8	-2.9354	-2.4688	-2.7917	-3.2188	-2.6146	-2.925	-2.9562	-2.7896	-3.0563	-2.8146	-2.6646	-3.1958	40.485	245.664	137.410	267.768	116.534	264.573	277.362	-71.465	139.882	-12.465	69.757	261.393	-68.774	262.234	61.547	263.860	0.0001493	0.00070426	0.00019434	1262.5	3.2408e-06	6.1359e-06	1263.5	348.95	1.9911e-06	7.7819e-06	402.45	133.35	115.67	39.862	2.743e-06	49.593	0.0009322	0.0014097	0.00041026	1274.7	1.4396e-05	1.6112e-05	1279	355.12	1.4895e-05	1.6115e-05	408.98	137.18	118.69	40.796	1.5135e-05	50.921	156.479	17.093	7.218	-59.255	94.695	77.599	-59.286	-54.522	166.823	69.443	-55.152	-50.886	-50.281	-45.576	91.412	-46.201	-8191	255	
14769.487	1	1	0	0	0.11265	0.032767	0.10785	0.14403	0.068499	0.13722	0.33847	0.03128	0.12469	0.091909	0.2321	0.22888	0.12551	0.24645	0.15428	0.17593	-2.0563	-2.7542	-2.8438	-2.6458	-3.1292	-2.6813	-2.8187	-3.1979	-2.7396	-2.5625	-3.0354	-2.6937	-2.8479	-2.8917	-2.6104	-3.1688	155.408	117.479	-35.568	260.517	-15.545	-48.158	243.326	157.917	260.760	-10.851	208.168	286.155	263.406	-14.129	179.883	176.026	0.00011391	0.00042445	0.00013588	1266.3	4.0768e-06	3.6596e-06	1263.1	349.5	2.1119e-06	3.5341e-06	404.14	133.93	115.5	39.652	3.7386e-06	49.729	0.00093888	0.0014376	0.00039294	1277	1.4244e-05	1.6017e-05	1279.1	355.37	1.474e-05	1.6002e-05	409.31	137.37	118.55	40.646	1.502e-05	50.995	171.024	20.553	-4.147	-59.224	84.413	67.011	-59.118	-54.763	40.363	92.526	-55.185	-51.025	-50.577	-45.643	70.947	-46.125	-8191	255	
14769.559	1	1	0	0	0.21141	0.13142	0.13056	0.20502	0.17686	0.13837	0.11447	0.057958	0.051082	0.33453	0.16727	0.07367	0.18446	0.21093	0.17335	0.2699	-2.2208	-2.9292	-2.8667	-2.6542	-2.9	-2.8854	-2.4958	-2.7979	-2.6688	-2.7354	-2.9417	-2.4833	-2.9104	-2.9875	-2.4167	-3.0812	222.473	-60.870	40.115	196.051	187.336	56.775	272.236	165.968	212.508	160.353	-59.141	-60.473	224.156	104.818	69.189	203.404	0.0001474	0.00067702	0.00014941	1266	2.7643e-06	3.4084e-06	1260.7	349.2	2.2131e-06	4.4084e-06	402.33	133.37	115.56	39.767	1.14e-06	49.691	0.00093901	0.0014414	0.00040686	1274.1	1.4833e-05	1.6007e-05	1279.2	355.17	1.511e-05	1.5989e-05	409.3	137.2	118.48	40.713	1.5232e-05	50.954	161.031	0.423	44.563	-59.275	71.883	68.616	-59.076	-54.610	110.527	82.617	-55.196	-50.925	-50.238	-45.449	119.524	-46.036	-8191	255	
14769.680	1	1	0	0	0.14114	0.11831	0.37968	0.31487	0.23819	0.13225	0.24381	0.18596	0.27532	0.27145	0.2141	0.20116	0.2809	0.058114	0.28001	0.22976	-2.2958	-2.575	-2.8333	-2.8438	-2.6979	-3.0354	-2.6896	-3.1333	-2.7812	-2.6729	-2.9208	-2.4313	-2.9521	-3.0729	-2.3792	-2.9083	219.505	128.181	120.451	264.799	14.153	150.906	227.865	196.604	149.421	225.200	246.499	280.194	19.209	27.501	76.061	181.972	0.0001317	0.00041696	0.00012879	1263.1	2.0445e-06	5.4976e-06	1261.7	350.72	2.6847e-06	2.2299e-06	402.42	133.19	115.59	39.648	4.3219e-06	49.881	0.00092678	0.0014378	0.00039723	1274.7	1.4618e-05	1.6412e-05	1279.2	355.49	1.4931e-05	1.6283e-05	408.74	137.15	118.54	40.669	1.5505e-05	50.925	174.748	54.148	39.577	-59.221	31.089	68.725	-59.273	-54.561	77.461	123.256	-55.255	-50.727	-50.423	-45.938	65.429	-46.403	-8191	255	
14769.774	1	1	0	0	0.057714	0.13433	0.33529	0.031654	0.12995	0.19691	0.28965	0.25413	0.12253	0.20382	0.1165	0.099156	0.042234	0.08768	0.077551	0.1172	-2.3292	-2.5604	-2.8187	-2.6125	-2.9292	-2.8417	-2.3979	-3.1146	-2.7958	-2.3396	-3.3104	-2.6396	-2.9188	-3.175	-2.4333	-3	126.649	42.860	-24.467	251.489	18.816	53.333	222.638	211.262	251.857	51.250	168.554	274.174	98.564	238.295	253.365	59.435	0.00013122	0.00050014	0.00012704	1258.5	3.0643e-06	2.9154e-06	1262.3	349.07	5.7209e-06	3.612e-06	402.96	133.1	114.86	39.427	3.9677e-06	49.612	0.00094622	0.0014578	0.00039712	1272	1.507e-05	1.6422e-05	1276.6	355.33	1.5303e-05	1.6296e-05	408.66	137.03	118.24	40.588	1.5494e-05	50.992	156.825	13.951	15.300	-59.080	51.568	48.190	-59.109	-54.527	83.821	75.918	-55.183	-50.496	-50.413	-45.738	87.877	-45.917	-8191	255	
14769.872	1	1	0	0	0.17661	0.20326	0.13131	0.20659	0.066796	0.13463	0.34788	0.30355	0.074019	0.12724	0.17204	0.12718	0.23896	0.1825	0.27142	0.21961	-2.3708	-2.425	-3.0604	-2.7875	-2.625	-2.8604	-2.6937	-2.9833	-2.7062	-2.7708	-2.9833	-2.6729	-2.6188	-3.1188	-2.65	-2.7938	-49.758	248.745	112.801	260.345	100.137	24.567	273.106	-51.507	-32.210	111.525	219.191	287.179	-60.349	37.586	53.288	230.814	0.00013207	0.00042473	0.0001072	1265.5	1.9764e-06	7.2279e-06	1259.5	350.15	1.4938e-06	4.9334e-06	402.28	133.34	115.28	39.657	3.0061e-06	49.797	0.00093649	0.0014486	0.00041206	1275.1	1.516e-05	1.5993e-05	1277.9	355.63	1.4766e-05	1.6089e-05	408.71	137.22	118.44	40.676	1.5297e-05	51.027	155.594	7.826	22.474	-59.117	95.461	84.720	-59.180	-54.630	62.375	83.027	-55.167	-50.788	-50.118	-45.561	97.726	-46.248	-8191	255	
14769.991	1	1	0	0	0.21372	0.063271	0.1153	0.036182	0.28961	0.14142	0.51361	0.14132	0.16079	0.14419	0.042206	0.22971	0.25549	0.13655	0.14291	0.058794	-2.6229	-2.5104	-2.8917	-2.8854	-2.7167	-2.9833	-2.7854	-2.8792	-2.925	-2.6562	-3.075	-2.9562	-2.7229	-3.1292	-2.575	-2.8292	181.807	-5.121	68.409	190.352	-60.687	38.254	240.699	243.757	55.812	-1.259	69.766	260.695	225.575	231.414	67.255	-16.648	0.00015045	0.00063197	8.5718e-05	1265.3	8.5919e-07	4.3031e-06	1270.3	348.84	1.3105e-06	2.4876e-06	403.26	133.31	115.55	39.801	3.3591e-06	50.034	0.0009392	0.0014443	0.00040468	1276.4	1.4518e-05	1.5971e-05	1281.1	355.37	1.4924e-05	1.5972e-05	409.71	137.43	118.84	40.732	1.5217e-05	51.116	173.255	-0.531	58.220	-59.084	94.453	124.266	-59.076	-54.544	136.783	57.512	-55.050	-50.959	-50.321	-45.583	89.063	-46.294	-8191	255	
14770.087	1	1	0	0	0.065651	0.10696	0.27428	0.072478	0.15004	0.1046	0.15068	0.348	0.097008	0.25378	0.16913	0.2946	0.093274	0.15081	0.23139	0.11245	-2.4708	-2.6146	-2.8438	-3.0271	-2.4354	-3.1271	-2.7771	-2.8812	-2.9771	-2.2792	-2.8229	-2.8688	-2.6167	-3.0771	-2.6896	-2.8646	20.113	-39.265	226.791	216.361	17.817	34.094	254.761	-42.776	154.361	199.520	184.907	272.129	266.640	-46.533	171.526	97.481	0.00011638	0.00082127	0.00013747	1268.7	3.6232e-06	5.9551e-06	1261.6	349.6	2.2363e-06	6.4737e-06	402.36	133.64	115.43	39.757	2.9916e-06	49.684	0.00093115	0.0014594	0.00040462	1277.5	1.4884e-05	1.5802e-05	1279.7	355.54	1.5089e-05	1.5973e-05	408.97	137.44	118.51	40.762	1.5361e-05	51.034	151.719	24.347	20.457	-59.245	95.804	95.783	-59.271	-54.617	56.146	102.362	-55.164	-50.752	-50.088	-45.469	78.008	-46.224	-8191	255	
14770.183	1	1	0	0	0.097056	0.22604	0.1891	0.073811	0.22256	0.13006	0.09713	0.20745	0.17025	0.083247	0.2508	0.028523	0.18161	0.10165	0.12796	0.053572	-2.475	-2.6063	-2.9354	-3.1104	-2.5812	-2.8875	-2.8563	-2.7833	-3.0104	-2.5938	-2.9875	-2.95	-2.5854	-3.1896	-2.725	-2.5	278.746	75.954	50.172	242.729	-18.899	262.938	60.469	196.977	205.300	98.576	247.941	229.714	-62.208	195.831	211.849	-62.356	0.0001435	0.00042027	0.00016569	1265.5	4.0819e-06	3.9705e-06	1260.1	349.93	2.3142e-06	6.1074e-06	403.16	133.77	115.3	39.415	3.3575e-06	49.678	0.00093879	0.0014538	0.00041155	1276.2	1.4569e-05	1.6012e-05	1278.8	355.08	1.5232e-05	1.6098e-05	408.86	137.51	118.47	40.629	1.5484e-05	50.986	160.943	27.709	18.412	-59.101	85.850	83.822	-59.298	-54.521	54.540	99.317	-55.131	-50.784	-50.276	-45.581	80.526	-46.095	-8191	255	
14770.279	1	1	0	0	0.1352	0.19996	0.089853	0.24711	0.19597	0.12783	0.25212	0.17074	0.0046489	0.19545	0.057708	0.044946	0.04146	0.13474	0.17444	0.089096	-2.5708	-2.5583	-2.7896	-2.9333	-2.3771	-3.0563	-2.8292	-2.6021	-3.0271	-2.7854	-2.8333	-3.1479	-2.5208	-2.8125	-2.9	-2.5792	249.954	247.641	-68.044	232.859	253.266	226.974	275.783	160.098	236.041	19.092	26.087	-44.427	226.346	-30.749	24.514	138.603	0.00013527	0.00049573	0.00014128	1263.6	3.5509e-06	4.4644e-06	1266.9	349.43	1.1885e-06	2.468e-06	405	133.74	115.15	39.764	4.0343e-06	49.758	0.00093635	0.0014716	0.00041736	1276.1	1.4797e-05	1.6427e-05	1282.4	355.64	1.5181e-05	1.586e-05	410.28	137.51	118.47	40.787	1.5416e-05	50.954	159.817	38.295	-0.866	-59.289	76.894	75.090	-59.300	-54.628	31.177	46.726	-55.156	-50.812	-49.906	-45.551	60.844	-46.478	-8191	255	
14770.375	1	1	0	0	0.16032	0.17243	0.089979	0.15528	0.059647	0.061842	0.2757	0.18327	0.22144	0.17301	0.10589	0.13374	0.18834	0.25045	0.17392	0.10369	-2.5646	-2.5208	-2.7062	-3.1375	-2.5208	-2.75	-3.1792	-2.6271	-2.8708	-2.8667	-2.6292	-3.0354	-2.5729	-3.0125	-2.8146	-2.4646	-53.021	-1.465	274.344	216.477	281.248	82.020	281.524	216.217	-58.180	98.317	255.068	268.830	36.713	97.856	159.693	24.374	0.00015462	0.00064014	0.00015333	1266.4	1.791e-06	5.8662e-06	1262.6	350.05	9.0646e-07	6.8101e-06	404.07	133.67	114.73	39.655	4.1057e-06	49.775	0.00092812	0.001441	0.00041769	1276.7	1.4743e-05	1.6279e-05	1280.9	355.46	1.5232e-05	1.6278e-05	409.95	137.31	118.22	40.707	1.5332e-05	50.982	155.242	15.663	28.952	-59.130	61.903	58.438	-59.204	-54.623	85.658	83.818	-55.431	-50.651	-50.153	-45.491	84.308	-46.190	-8191	255	
14770.471	1	1	0	0	0.23314	0.16445	0.066604	0.31956	0.18663	0.11354	0.0925	0.095627	0.35204	0.041654	0.30312	0.19326	0.27981	0.14103	0.15482	0.22655	-2.3625	-2.7083	-2.55	-3.2208	-2.5021	-2.7208	-3.0792	-2.5646	-2.8833	-2.7542	-2.575	-3.0729	-2.4458	-2.6979	-2.8917	-2.6896	214.702	122.159	241.003	262.503	271.760	144.602	172.840	156.386	164.482	233.540	195.950	-51.928	-61.047	248.376	133.954	237.353	0.00015985	0.00052373	0.00019024	1265.6	2.58e-06	7.582e-06	1267.5	348.32	3.4874e-06	4.2069e-06	403.4	133.18	115.69	39.786	2.4839e-06	49.883	0.00094456	0.001464	0.0004111	1276.5	1.4888e-05	1.6334e-05	1279	355.42	1.5382e-05	1.6369e-05	409.58	137.05	118.57	40.752	1.5428e-05	51.051	176.501	-3.062	9.751	-59.144	68.244	64.921	-59.285	-54.581	51.622	90.937	-54.964	-51.060	-50.109	-45.806	81.654	-46.093	-8191	255	
14770.592	1	1	0	0	0.094567	0.13561	0.10327	0.26145	0.28567	0.11949	0.24284	0.078526	0.212	0.11683	0.077306	0.35614	0.018399	0.12056	0.085431	0.18299	-2.5187	-2.8146	-2.6917	-3.0458	-2.7792	-2.5708	-3.1417	-2.5417	-2.9271	-2.8771	-2.875	-2.9188	-2.7958	-2.9979	-2.9542	-2.5687	-35.734	53.019	-25.825	-61.467	137.185	-10.540	187.627	159.020	246.840	286.226	264.652	265.033	34.250	3.926	12.551	243.228	0.00011911	0.00062661	0.00012523	1266.8	3.5196e-06	6.2092e-06	1263.7	349.39	5.356e-07	3.5178e-06	403.63	133.52	115.44	39.654	2.7867e-06	49.864	0.00095601	0.0014864	0.00041128	1275.7	1.4696e-05	1.638e-05	1280.3	355.25	1.5073e-05	1.6358e-05	410.02	137.49	118.75	40.771	1.5266e-05	51.12	162.611	9.287	43.865	-58.986	98.778	88.336	-59.137	-54.592	154.802	80.709	-55.064	-50.812	-50.491	-45.503	69.230	-45.958	-8191	255	
14770.686	1	1	0	0	0.087761	0.23748	0.10669	0.2813	0.2663	0.067209	0.25041	0.0904	0.19575	0.12212	0.26905	0.26219	0.19526	0.098091	0.20378	0.2835	-2.5625	-2.7062	-2.5521	-3.0479	-2.7792	-2.4646	-3.1292	-2.9188	-2.825	-2.9938	-2.6583	-2.9729	-2.8	-2.7229	-2.8438	-2.5896	-11.285	44.838	221.158	254.137	-1.083	167.202	274.004	85.709	266.738	117.544	256.675	-50.271	50.948	280.577	3.718	144.296	0.0001145	0.00058111	0.00010983	1267.2	2.1779e-06	4.5545e-06	1267.1	349.54	3.842e-06	3.1529e-06	404.4	133.57	115.08	39.692	3.4701e-06	49.865	0.00095303	0.0014581	0.00040532	1277.7	1.4706e-05	1.6554e-05	1281.8	355.27	1.52e-05	1.6545e-05	409.74	137.5	118.54	40.786	1.534e-05	51.052	168.533	25.869	25.497	-59.130	57.429	63.236	-59.247	-54.534	104.881	97.944	-55.187	-50.802	-50.415	-45.546	73.144	-46.129	-8191	255	
14770.783	1	1	0	0	0.079486	0.14674	0.064172	0.074585	0.036321	0.1704	0.21723	0.15221	0.20386	0.2219	0.24305	0.081945	0.20137	0.13623	0.034276	0.18163	-2.4083	-2.8604	-2.3312	-3.2	-2.7458	-2.6354	-3.1813	-2.55	-2.7667	-2.85	-2.4479	-2.9375	-2.9542	-2.5104	-3.0042	-2.7354	-60.452	199.967	-48.048	151.609	-43.851	26.256	-68.361	248.899	-72.369	57.585	243.941	283.877	228.414	277.262	273.534	-67.453	0.00013526	0.00045713	0.00017398	1266	1.7109e-06	5.8456e-06	1265	348.45	2.0914e-06	4.424e-06	403.57	133.93	115.03	39.821	3.0581e-06	49.637	0.00094461	0.001431	0.00040126	1276.1	1.4714e-05	1.6073e-05	1279.2	355.38	1.4936e-05	1.5677e-05	409.72	137.59	118.44	40.755	1.5398e-05	50.881	168.330	23.615	15.075	-59.232	124.386	55.833	-59.197	-54.551	43.063	70.066	-55.148	-50.909	-50.359	-45.644	56.843	-46.286	-8191	255	
14770.856	1	1	0	0	0.20862	0.13297	0.20984	0.18571	0.11894	0.19868	0.35841	0.071247	0.15432	0.1724	0.17614	0.32776	0.3146	0.16929	0.17148	0.24426	-2.1479	-2.7125	-2.6625	-2.9375	-3.0146	-2.4208	-3.1188	-2.6917	-2.75	-3.0354	-2.5979	-2.7604	-2.9479	-2.3792	-3.0917	-2.7396	-62.473	211.323	125.416	205.144	56.832	159.435	255.132	233.747	-19.594	-47.970	-64.154	-51.397	275.340	62.018	256.288	193.135	0.00014294	0.00039002	0.00019212	1265.6	3.5013e-06	4.3095e-06	1261.3	349.26	2.5291e-06	3.7094e-06	405.27	133.28	115.24	39.716	3.0029e-06	49.623	0.00094402	0.0014293	0.0004034	1272.6	1.4733e-05	1.6211e-05	1277.2	355	1.5122e-05	1.5942e-05	409.24	136.94	118.41	40.68	1.525e-05	50.895	171.223	39.729	57.866	-59.275	83.378	100.932	-59.121	-54.674	102.223	82.679	-55.125	-50.937	-50.412	-45.566	107.143	-46.148	-8191	255	
14770.975	1	1	0	0	0.23885	0.072888	0.15386	0.18394	0.11215	0.24592	0.066494	0.30165	0.11497	0.209	0.076527	0.2874	0.24619	0.17113	0.18687	0.063898	-2.2125	-2.7542	-2.6708	-2.8083	-2.9875	-2.3354	-3.2562	-2.6458	-2.4938	-3.0458	-2.6083	-2.8854	-2.9562	-2.5771	-2.9625	-2.8646	78.876	154.560	-21.667	256.484	-69.523	266.808	281.529	-30.683	55.694	23.827	-6.061	230.949	216.214	-23.353	41.223	-25.713	0.00014915	0.00052326	0.00012008	1265.1	3.0265e-06	6.3223e-06	1260.8	349.12	5.9553e-07	6.6461e-06	402.84	132.57	115.33	39.713	3.3763e-06	49.547	0.00094397	0.0014257	0.00040829	1274	1.4622e-05	1.5843e-05	1277.2	355.12	1.4998e-05	1.5535e-05	408.87	136.91	118.28	40.702	1.5388e-05	50.849	168.114	25.134	53.752	-59.179	55.687	57.739	-59.142	-54.847	63.118	48.313	-55.076	-51.000	-50.132	-45.567	82.062	-46.358	-8191	255	
14771.071	1	1	0	0	0.12356	0.049916	0.14764	0.3232	0.18035	0.073565	0.22743	0.085835	0.16284	0.14301	0.17623	0.22351	0.12263	0.11798	0.19506	0.19229	-1.9312	-3.1708	-2.3937	-2.7958	-2.9979	-2.5792	-2.8208	-2.9271	-2.2958	-3.1063	-2.7854	-2.7729	-3.1521	-2.4604	-2.9208	-2.7958	85.577	117.859	194.719	244.412	269.670	-34.167	178.416	205.642	15.693	283.584	-36.784	174.488	286.078	-66.270	42.916	135.955	0.00014162	0.00037182	0.00014542	1265.2	2.1012e-06	4.0038e-06	1261.6	347.71	3.6432e-06	4.2934e-06	403.48	133.33	114.76	39.817	2.8895e-06	49.597	0.00094019	0.0014137	0.00040391	1273	1.477e-05	1.629e-05	1276.4	354.62	1.5016e-05	1.5541e-05	409.66	136.94	118.23	40.718	1.5175e-05	50.925	151.560	14.858	4.735	-59.103	107.397	67.829	-59.292	-54.488	48.982	77.900	-55.081	-50.948	-50.176	-45.798	60.402	-46.396	-8191	255	
14771.167	1	1	0	0	0.20552	0.036333	0.15527	0.21259	0.23284	0.079112	0.060573	0.14853	0.16997	0.13764	0.062023	0.1065	0.24092	0.064778	0.08448	0.20602	-2.175	-2.9292	-2.625	-2.6292	-3.025	-2.7062	-3.0104	-2.9313	-2.4437	-3.0417	-2.8917	-2.8083	-3.0583	-2.6437	-2.7292	-3.1833	40.696	140.779	221.784	218.836	142.059	4.307	-52.732	205.017	251.600	134.498	-4.514	234.950	-10.234	55.798	158.248	240.387	0.00013741	0.00055867	0.00013279	1263.7	2.8322e-06	5.4424e-06	1259.2	348.94	3.7301e-06	4.106e-06	403.57	133.42	114.72	39.576	2.1497e-06	49.642	0.00096392	0.0014232	0.00040756	1273.2	1.4837e-05	1.624e-05	1277.1	354.95	1.4972e-05	1.6345e-05	409.2	137.07	118.07	40.577	1.5897e-05	50.931	159.881	16.968	47.947	-59.209	104.107	82.347	-59.393	-54.774	74.841	35.275	-55.225	-50.850	-50.357	-45.760	95.834	-46.214	-8191	255	
14771.263	1	1	0	0	0.15103	0.22011	0.054983	0.18313	0.30695	0.13822	0.3057	0.13366	0.13577	0.045229	0.14802	0.26411	0.22963	0.13226	0.17326	0.25988	-2.0563	-3.0625	-2.6042	-2.8	-3.0396	-2.7438	-2.775	-3.1604	-2.675	-2.8792	-2.9792	-2.7208	-3.0875	-2.7292	-2.6625	-2.9625	194.716	165.774	54.051	247.731	220.612	123.536	215.883	204.349	-32.051	216.529	283.584	-44.357	-26.235	207.538	16.962	231.773	0.00014786	0.00050649	0.00014218	1263.1	3.9196e-06	6.6342e-06	1255.4	348.76	1.8831e-06	1.9401e-06	402.09	133.48	114.78	39.617	3.6377e-06	49.739	0.0009463	0.0014226	0.00040889	1273.1	1.4947e-05	1.6449e-05	1273.4	354.03	1.5043e-05	1.6049e-05	408.28	136.82	118.14	40.629	1.5537e-05	50.805	155.708	18.111	-5.966	-59.278	104.137	70.418	-59.127	-54.749	56.605	92.032	-55.257	-50.904	-50.340	-45.556	104.049	-46.175	-8191	255	
14771.360	1	1	0	0	0.14243	0.32981	0.34075	0.38763	0.13843	0.15659	0.19037	0.15434	0.26182	0.074406	0.20134	0.2563	0.066425	0.27307	0.17391	0.24114	-2.2458	-2.8875	-2.9125	-2.8	-3.0125	-2.7812	-2.8979	-3.0938	-2.35	-2.7771	-2.9042	-2.8417	-2.9792	-2.775	-2.6729	-3.1375	-58.239	258.931	132.303	217.687	155.545	9.735	-68.516	-56.364	248.603	209.321	23.911	262.350	71.215	213.368	55.957	277.229	0.00014607	0.00048234	0.00012841	1263.6	2.0283e-06	3.8695e-06	1257.3	348.68	1.7247e-06	2.9401e-06	402.84	132.6	114.96	39.615	3.215e-06	49.614	0.00093716	0.0014811	0.00041578	1271.8	1.4765e-05	1.64e-05	1274.1	354.34	1.5461e-05	1.639e-05	408.9	136.9	118.08	40.589	1.5387e-05	50.855	170.232	13.437	44.522	-59.256	30.691	70.566	-59.200	-54.593	67.622	77.876	-55.089	-50.827	-50.346	-45.670	39.627	-46.112	-8191	255	
14771.456	1	1	0	0	0.15839	0.18209	0.25914	0.22168	0.22845	0.15789	0.15301	0.10516	0.1261	0.069614	0.16268	0.23054	0.13706	0.18654	0.080837	0.19087	-2.2646	-2.7562	-2.925	-2.7479	-2.8979	-2.7875	-2.5687	-3.2646	-2.575	-2.8167	-2.9896	-2.6063	-3.0896	-2.8438	-2.6312	-3.1417	56.822	-62.710	23.800	222.223	127.762	-5.544	193.460	-53.099	135.056	-0.779	245.499	262.626	-28.825	129.083	55.539	261.375	0.00015793	0.00073851	0.00012292	1260.8	2.2298e-06	5.6494e-06	1260.5	347.63	2.0449e-06	3.9568e-06	403.28	132.87	115.36	39.618	2.4674e-06	49.765	0.00095156	0.0014821	0.00040742	1271.3	1.4859e-05	1.6549e-05	1275.6	354.1	1.5317e-05	1.6364e-05	408.93	136.87	118.17	40.565	1.5534e-05	50.836	171.142	8.721	15.444	-59.221	60.506	102.321	-59.105	-54.801	99.427	86.233	-55.139	-50.875	-50.122	-45.768	109.775	-46.215	-8191	255	
14771.552	1	1	0	0	0.28388	0.12563	0.23187	0.12267	0.15538	0.18131	0.14378	0.088742	0.15705	0.20726	0.24468	0.13704	0.17038	0.092497	0.31143	0.19077	-2.3542	-2.5229	-3.0521	-2.5646	-2.7229	-2.7521	-2.9854	-3.2375	-2.7771	-2.6958	-3.1125	-2.8083	-2.8979	-3.0312	-2.6104	-3.0021	26.899	96.037	123.861	258.827	49.722	82.683	214.513	217.660	155.001	234.937	256.770	231.511	-55.255	101.261	59.666	26.227	0.00013079	0.00042417	0.00014067	1259.2	2.3218e-06	4.9472e-06	1262.7	348.42	1.9934e-06	6.4231e-06	403.3	133.4	114.32	39.639	3.491e-06	49.565	0.00095126	0.0015052	0.00040998	1270.5	1.5004e-05	1.6084e-05	1276.8	354.44	1.5211e-05	1.6625e-05	409.31	137.02	117.98	40.559	1.5479e-05	50.896	173.058	16.718	25.815	-59.265	107.843	57.293	-59.152	-54.592	44.902	80.677	-55.080	-50.915	-50.476	-45.722	42.257	-46.320	-8191	255	
14771.672	1	1	0	0	0.12895	0.19542	0.11281	0.44862	0.26557	0.12895	0.1711	0.3458	0.23226	0.093827	0.12649	0.18327	0.27241	0.092281	0.16343	0.09085	-2.3	-2.6375	-2.8521	-2.6875	-2.8563	-3.1021	-2.5812	-2.9458	-2.8083	-2.6562	-3.05	-2.8812	-2.7458	-3.0812	-2.5354	-3.0229	124.771	91.659	84.819	237.714	246.070	104.156	282.141	-70.474	38.156	273.739	185.483	253.463	-68.597	228.578	-1.931	-67.583	0.00013733	0.00035568	7.1171e-05	1261.6	3.2903e-06	4.0917e-06	1260.4	349.19	1.6621e-06	3.6262e-06	402.36	132.77	114.69	39.772	2.9393e-06	49.799	0.00096692	0.0014613	0.00040221	1272.3	1.482e-05	1.6258e-05	1277.2	354.71	1.53e-05	1.6435e-05	408.13	136.82	118.09	40.571	1.5453e-05	50.939	171.380	16.461	43.122	-59.153	23.587	93.049	-59.226	-54.750	55.794	101.069	-55.156	-51.060	-50.435	-45.579	63.667	-46.251	-8191	255	
14771.769	1	1	0	0	0.12402	0.24112	0.18875	0.086781	0.15192	0.081792	0.56264	0.16495	0.099863	0.21591	0.22014	0.048463	0.28279	0.20574	0.073222	0.17426	-2.4625	-2.4271	-2.9833	-2.8042	-2.7062	-2.95	-2.6396	-2.9708	-2.7938	-2.55	-3.0438	-2.8729	-2.9146	-2.95	-2.5958	-2.9437	122.661	58.106	204.513	227.631	113.592	167.308	267.179	-54.308	208.613	12.182	-67.388	196.680	-71.272	203.358	210.462	-21.538	0.00015366	0.00062196	0.00013522	1259.6	3.8776e-06	4.8024e-06	1256.9	347.76	2.2152e-06	6.8118e-06	402.34	132.86	114.85	39.44	2.8225e-06	49.371	0.00097172	0.001492	0.00041488	1270.6	1.5064e-05	1.6119e-05	1274.7	354.25	1.576e-05	1.6711e-05	408.55	136.79	118.15	40.549	1.5995e-05	50.881	162.423	39.584	50.165	-59.178	36.632	52.799	-59.059	-54.623	102.001	104.558	-54.997	-50.873	-50.219	-45.745	99.793	-46.228	-8191	255	
14771.863	1	1	0	0	0.28542	0.077643	0.31471	0.29327	0.077157	0.35081	0.37735	0.37081	0.24096	0.16989	0.11402	0.21658	0.072049	0.26933	0.012594	0.28686	-2.2646	-2.3875	-2.8354	-2.6458	-2.8063	-2.8583	-2.5875	-2.9146	-2.8104	-2.3417	-3.0458	-2.8708	-2.5917	-3.0312	-2.4938	-2.8333	203.337	185.752	172.031	-27.227	83.955	272.263	238.275	239.907	-14.027	58.799	232.046	-39.942	-52.395	-10.611	178.876	273.702	0.00014415	0.00064657	5.8899e-05	1263.8	3.2003e-06	5.7075e-06	1264.8	348.86	3.7261e-06	4.921e-06	402.21	133.02	115.32	39.566	3.1934e-06	49.706	0.00096829	0.0015294	0.00041611	1274.9	1.525e-05	1.6359e-05	1276.8	355.15	1.5315e-05	1.6541e-05	408.43	137.23	118.42	40.676	1.5592e-05	50.918	166.273	15.557	-21.736	-59.302	62.857	93.865	-59.076	-54.604	68.011	81.411	-55.225	-50.835	-50.019	-45.701	96.118	-46.180	-8191	255	
14771.959	1	1	0	0	0.10665	0.19279	0.063197	0.34774	0.12266	0.23268	0.12222	0.37123	0.30751	0.16904	0.21093	0.068682	0.11631	0.18799	0.072153	0.16819	-2.5083	-2.3979	-3.0625	-2.7521	-2.4896	-3.0271	-2.7313	-3.0667	-2.9083	-2.6042	-3.0667	-2.925	-2.5792	-3.3083	-2.5458	-2.6333	-29.962	150.109	-25.935	-45.276	126.438	78.504	236.649	218.861	164.203	-30.041	271.194	181.568	79.606	-39.862	13.796	-72.355	0.00012514	0.00030913	0.00011907	1263.4	2.6271e-06	3.5781e-06	1262.5	349.52	2.9837e-06	7.4602e-06	401.91	132.63	115.06	39.657	2.5976e-06	49.608	0.00094738	0.0014917	0.0004121	1273	1.5084e-05	1.64e-05	1276.8	355.37	1.5755e-05	1.684e-05	409.18	136.66	118.44	40.553	1.611e-05	50.798	155.514	31.735	40.856	-59.243	134.344	87.192	-59.342	-54.498	46.185	48.968	-55.175	-50.703	-50.283	-45.465	66.591	-46.247	-8191	255	
14772.080	1	1	0	0	0.16532	0.42574	0.089055	0.19672	0.046478	0.24055	0.3943	0.344	0.091035	0.26485	0.25507	0.17852	0.095631	0.26473	0.12636	0.15958	-2.7208	-2.4917	-2.875	-2.9167	-2.6562	-3.0125	-2.8812	-2.7917	-3.0271	-2.6542	-2.8312	-3.0729	-2.525	-3.1208	-2.4375	-2.7729	182.417	159.287	181.162	-60.543	96.859	227.889	254.208	230.333	229.634	100.853	196.259	205.305	232.685	277.316	87.218	252.366	0.00012069	0.00027896	0.00012018	1259.9	3.7965e-06	3.9799e-06	1259.3	347.94	1.5218e-06	4.7537e-06	402.85	132.98	115	39.519	3.2732e-06	49.756	0.00097422	0.0015032	0.00041615	1272.7	1.5479e-05	1.7209e-05	1277	354.73	1.5433e-05	1.6875e-05	408.96	136.93	118.09	40.53	1.6404e-05	50.855	162.388	36.649	35.771	-59.169	94.666	98.229	-59.179	-54.741	29.940	72.491	-55.051	-51.026	-50.194	-45.682	80.833	-46.149	-8191	255	
14772.151	1	1	0	0	0.27539	0.17452	0.2107	0.13244	0.014824	0.17409	0.22566	0.21803	0.13997	0.24502	0.087231	0.16338	0.11201	0.18253	0.15887	0.13274	-2.575	-2.5083	-2.7958	-3	-2.6292	-2.8729	-2.7604	-2.5979	-3.1083	-2.6729	-2.9375	-3.0708	-2.6229	-3.2313	-2.7542	-2.6333	222.694	43.932	59.501	98.151	240.645	64.484	258.034	161.114	266.517	34.704	105.062	113.182	79.999	-52.881	237.792	225.848	0.00013659	0.00026939	0.00012325	1264.3	2.4159e-06	7.029e-06	1257.7	349.71	2.6577e-06	3.6279e-06	401.28	132.72	114.4	39.401	2.8192e-06	49.527	0.00098508	0.0014987	0.00043125	1273.3	1.5536e-05	1.7075e-05	1275.1	354.8	1.552e-05	1.6684e-05	408.46	136.8	117.91	40.515	1.6111e-05	50.773	158.036	23.044	29.894	-59.239	109.356	94.089	-59.191	-54.596	96.424	109.160	-55.035	-50.987	-50.246	-45.475	53.943	-46.355	-8191	255	
14772.272	1	1	0	0	0.12791	0.13579	0.20381	0.057895	0.2638	0.12138	0.20866	0.29845	0.17755	0.22018	0.37708	0.18816	0.10545	0.25216	0.12432	0.068918	-2.6146	-2.6271	-2.7125	-3.1104	-2.5563	-2.9604	-3.0604	-2.8479	-2.8604	-2.8563	-2.8292	-3.1271	-2.7854	-2.85	-2.925	-2.6937	92.448	35.283	181.846	190.942	158.497	218.327	-28.049	-63.539	259.123	-17.449	-69.498	236.034	141.121	-62.933	160.636	187.330	0.00013045	0.00029667	0.00012833	1263	3.3089e-06	7.4744e-06	1257.9	347.86	1.7178e-06	4.6853e-06	402.28	132.22	114.94	39.47	3.2933e-06	49.734	0.00098232	0.0015312	0.00043007	1272.1	1.57e-05	1.7436e-05	1276.1	354.41	1.5629e-05	1.6973e-05	408.8	136.86	118.1	40.609	1.6234e-05	50.854	165.728	14.704	4.248	-59.071	76.704	84.212	-59.094	-54.570	51.427	88.605	-55.015	-50.772	-50.253	-45.561	66.241	-46.265	-8191	255	
14772.368	1	1	0	0	0.066708	0.040145	0.18535	0.28937	0.19383	0.18527	0.1961	0.25333	0.080458	0.27401	0.14373	0.11377	0.1788	0.10903	0.22993	0.37071	-2.4417	-2.7062	-2.8083	-3.0687	-2.5229	-2.8312	-2.9604	-2.5875	-3.0896	-2.8104	-2.7979	-2.9354	-2.4562	-2.9271	-2.8979	-2.5646	210.156	96.651	-43.981	281.796	79.541	-50.202	283.788	-7.780	200.259	117.966	223.860	251.663	280.143	215.002	-26.288	214.423	0.00016329	0.00053147	0.00010764	1266.7	2.8828e-06	4.7176e-06	1262.1	349.6	2.739e-06	4.8696e-06	404.15	133.47	114.88	39.594	3.9236e-06	49.679	0.00097239	0.0015076	0.00042598	1274.5	1.5492e-05	1.7531e-05	1279	355.29	1.5464e-05	1.7056e-05	409.59	137.27	118.53	40.641	1.5871e-05	50.895	175.032	27.128	-6.160	-59.268	111.246	93.914	-59.297	-54.572	89.788	73.598	-55.222	-50.881	-50.248	-45.595	93.228	-46.314	-8191	255	
14772.464	1	1	0	0	0.20845	0.1928	0.13641	0.21602	0.05636	0.035369	0.2467	0.076463	0.11053	0.24547	0.054101	0.18484	0.18485	0.30789	0.23917	0.25762	-2.35	-3.0563	-2.7375	-2.9979	-2.6312	-2.6208	-3.2917	-2.5604	-3.0125	-2.6417	-2.5917	-2.9729	-2.7667	-2.6708	-3.1063	-2.675	141.361	58.443	160.820	155.783	184.359	-24.709	243.353	219.822	279.816	225.617	230.802	265.834	279.107	144.460	231.178	248.788	0.00014131	0.00047716	0.0001193	1267.7	2.0943e-06	5.436e-06	1265.2	348.58	1.8961e-06	7.1088e-06	402.21	133.63	114.76	39.511	2.7076e-06	49.632	0.00096966	0.0015059	0.0004249	1275.8	1.5549e-05	1.6971e-05	1277.9	355.22	1.5578e-05	1.6473e-05	409.66	137.37	118.25	40.644	1.5699e-05	50.917	157.881	11.094	2.034	-59.308	137.413	72.972	-59.170	-54.795	31.958	84.483	-55.053	-50.686	-50.333	-45.493	75.115	-46.246	-8191	255	
14772.561	1	1	0	0	0.15011	0.063719	0.065962	0.19429	0.12546	0.063954	0.16548	0.098685	0.080832	0.10533	0.2915	0.16884	0.16314	0.1568	0.028663	0.15712	-2.2958	-2.8583	-2.6479	-3.0938	-2.5896	-2.7562	-2.9917	-2.7438	-2.6958	-3.0812	-2.5708	-3.1521	-2.5812	-2.5542	-3.0563	-2.6708	-19.050	273.255	-47.524	208.665	108.683	31.999	237.076	110.191	45.498	35.287	245.533	150.490	12.159	134.665	6.614	-27.262	0.00015386	0.00031912	0.00015147	1265.8	3.0674e-06	3.9089e-06	1263	348.41	4.3684e-06	8.1947e-06	403.86	133.2	115.24	39.812	4.1121e-06	49.661	0.00097655	0.0015055	0.00041871	1278.1	1.5597e-05	1.6886e-05	1280.5	354.95	1.5819e-05	1.6473e-05	410.17	137.22	118.52	40.774	1.603e-05	50.936	155.730	16.295	34.765	-59.336	49.217	52.807	-59.107	-54.612	83.331	91.482	-55.057	-50.746	-50.413	-45.511	52.306	-45.911	-8191	255	
14772.681	1	1	0	0	0.27033	0.10064	0.16062	0.45385	0.15278	0.18485	0.26289	0.18983	0.28419	0.13299	0.12002	0.11057	0.18833	0.23116	0.089579	0.20542	-2.2833	-2.9417	-2.5563	-3.1292	-2.7896	-2.4583	-3.1188	-2.5062	-2.4771	-2.9729	-2.6	-3.1229	-2.7021	-2.7896	-2.9646	-2.7083	82.757	202.759	18.566	247.831	263.999	49.588	136.580	159.975	-32.575	42.691	248.519	61.134	108.139	-34.737	-16.087	150.688	0.00014966	0.00060171	0.00013697	1269.8	2.632e-06	4.7091e-06	1259.9	349.71	1.9464e-06	3.0301e-06	403.81	133.49	115.75	39.693	4.1896e-06	49.695	0.00098108	0.0015008	0.00042253	1279.8	1.5227e-05	1.6802e-05	1280	355.37	1.5571e-05	1.6693e-05	409.86	137.25	118.52	40.736	1.5549e-05	51.006	174.722	16.090	4.098	-59.142	50.384	98.642	-59.206	-54.473	116.415	65.017	-55.206	-50.857	-50.463	-45.535	64.048	-46.158	-8191	255	
14772.753	1	1	0	0	0.29137	0.29209	0.072389	0.25953	0.26386	0.28569	0.13712	0.14874	0.31462	0.066937	0.20385	0.072226	0.20644	0.23337	0.16987	0.13407	-2.1437	-2.9125	-2.4542	-3.0708	-2.7479	-2.4958	-3.0187	-2.95	-2.6292	-2.9875	-2.7938	-2.9625	-2.8375	-2.6667	-2.7188	-2.6854	170.982	161.605	104.995	269.510	9.612	210.071	212.819	-22.659	47.922	-2.605	235.790	257.941	-47.367	255.939	185.525	72.934	0.00014352	0.00071003	0.00014034	1267.9	1.2944e-06	3.0115e-06	1266	349.38	2.248e-06	3.0913e-06	403.99	133.61	114.64	39.741	4.0071e-06	49.927	0.00096856	0.001496	0.00041694	1278.5	1.5074e-05	1.6781e-05	1282.2	355.82	1.5606e-05	1.6124e-05	409.99	137.53	118.27	40.751	1.554e-05	51.051	164.189	9.244	21.110	-59.316	68.950	101.745	-59.359	-54.643	72.894	99.233	-55.161	-50.857	-50.481	-45.641	39.298	-46.276	-8191	255	
14772.849	1	1	0	0	0.037524	0.20521	0.24215	0.058051	0.16742	0.24384	0.13324	0.21995	0.34524	0.22202	0.16859	0.27905	0.36638	0.2108	0.018864	0.18907	-2.0896	-2.975	-2.5104	-2.9604	-2.7854	-2.5812	-3.1292	-3.0646	-2.5417	-3.1146	-2.6396	-2.8854	-2.9062	-2.5271	-2.9854	-2.6813	-31.855	64.070	214.046	236.369	206.606	105.701	148.304	246.026	279.400	170.554	213.765	260.532	-40.416	-49.140	-5.467	128.164	0.00012432	0.00036544	0.00012969	1270	3.9317e-06	5.2974e-06	1267.2	349.53	2.6598e-06	5.6747e-06	402.4	133.48	115.73	39.842	2.7538e-06	49.836	0.00095968	0.0014657	0.00041545	1277.1	1.4954e-05	1.6588e-05	1280.9	355.25	1.5566e-05	1.6255e-05	409.17	137.33	118.6	40.724	1.5921e-05	50.983	159.406	27.399	1.401	-59.076	99.896	67.673	-59.192	-54.660	121.877	74.588	-55.212	-51.033	-50.523	-45.681	73.814	-46.376	-8191	255	
14772.943	1	1	0	0	0.22392	0.14736	0.2798	0.44451	0.064101	0.27522	0.089881	0.22576	0.20856	0.11873	0.2714	0.044317	0.16508	0.06368	0.22425	0.16718	-2.025	-2.9292	-2.5271	-2.9396	-2.7271	-2.5021	-3.1	-2.9562	-2.3688	-3.2021	-2.7125	-2.8937	-3.025	-2.6646	-2.8688	-2.6917	182.091	-55.581	174.434	234.277	199.041	165.770	221.184	150.823	150.023	-37.138	-64.878	171.797	264.096	51.670	10.249	277.584	0.00013027	0.00055172	0.00019845	1264.3	3.7634e-06	5.9093e-06	1263	349.71	1.8734e-06	3.4033e-06	402.21	133.64	115.04	39.868	2.8171e-06	49.737	0.0009777	0.0014753	0.00041407	1276.3	1.5234e-05	1.6504e-05	1280.4	355.38	1.5652e-05	1.6275e-05	409.84	137.43	118.58	40.736	1.5795e-05	50.947	153.666	1.465	28.852	-59.221	86.498	88.537	-59.056	-54.705	77.373	105.343	-55.097	-50.960	-50.553	-45.636	60.161	-46.187	-8191	255	
14773.041	1	1	0	0	0.25657	0.15216	0.048551	0.26968	0.077271	0.18104	0.25699	0.16085	0.20684	0.35147	0.31441	0.18324	0.092612	0.13325	0.11037	0.24359	-2.2812	-2.9208	-2.6917	-2.7062	-3.0833	-2.4688	-3.05	-3.0771	-2.5979	-2.9813	-2.8563	-2.7125	-3.1458	-2.6562	-2.8792	-2.9688	39.649	7.159	61.963	196.952	153.939	145.494	209.745	-55.752	111.612	101.305	242.633	-64.814	257.084	214.940	-14.823	177.525	0.00016652	0.00018945	0.00010326	1264.5	2.826e-06	7.0995e-06	1268.9	350.86	1.7419e-06	5.4306e-06	403.7	133.28	115.03	39.72	2.8811e-06	49.653	0.00095891	0.001478	0.00042244	1277.1	1.4852e-05	1.64e-05	1281.1	355.97	1.5668e-05	1.6484e-05	410.12	137.4	118.5	40.76	1.5873e-05	50.919	170.462	28.504	71.370	-59.317	105.619	70.620	-59.273	-54.696	29.533	80.689	-55.138	-50.883	-50.272	-45.566	83.087	-46.164	-8191	255	
14773.160	1	1	0	0	0.2285	0.30189	0.031043	0.24584	0.20664	0.19508	0.14445	0.077276	0.20598	0.24952	0.26283	0.030542	0.1103	0.2192	0.091611	0.17178	-2.0708	-2.8208	-2.4896	-2.9083	-2.9688	-2.6396	-2.9854	-3.0438	-2.6396	-2.8063	-3.0187	-2.6604	-3.175	-2.7938	-2.7979	-2.8563	276.182	-53.760	31.416	265.858	70.519	-50.963	159.813	154.035	-61.613	177.421	262.901	226.669	280.580	245.917	154.314	230.036	0.00011177	0.00039556	0.00014556	1270.4	4.8469e-06	7.0899e-06	1256	349.66	3.5042e-06	2.7486e-06	402.81	133.08	114.8	39.652	7.5994e-07	49.734	0.00096435	0.0014762	0.00041448	1277.4	1.5055e-05	1.6489e-05	1277.9	355.23	1.5462e-05	1.641e-05	409.69	137.1	118.31	40.654	1.5711e-05	50.987	161.924	17.806	52.367	-59.143	74.367	56.059	-59.392	-54.765	40.987	67.566	-55.104	-50.871	-50.198	-45.629	-32.734	-46.159	-8191	255	
14773.256	1	1	0	0	0.1826	0.24218	0.084411	0.08877	0.17156	0.23212	0.19208	0.17283	0.025224	0.18247	0.2272	0.19491	0.057298	0.18605	0.19513	0.20554	-2.2188	-2.7208	-2.9396	-2.6792	-3.0021	-2.8	-2.5354	-3.1583	-2.6917	-2.9354	-3.0438	-2.6	-2.7771	-2.8625	-2.6437	-2.9146	277.075	103.496	-31.074	197.635	-27.853	286.328	210.761	282.958	13.107	8.121	-7.307	259.130	-7.807	-44.284	30.477	263.985	0.00015896	0.00048857	0.00013468	1266.6	2.5398e-06	5.532e-06	1267.1	348.91	3.5865e-07	4.7665e-06	403.99	133.25	115.32	39.791	5.0145e-06	49.692	0.00095652	0.0015205	0.00042094	1277.5	1.4913e-05	1.6494e-05	1280.3	355.62	1.5352e-05	1.6362e-05	409.92	137.32	118.49	40.775	1.5799e-05	50.99	177.251	7.940	24.289	-59.268	98.215	102.022	-59.231	-54.723	120.395	77.964	-55.046	-50.613	-50.083	-45.372	87.951	-46.127	-8191	255	
14773.352	1	1	0	0	0.17283	0.073444	0.069403	0.25425	0.21394	0.059232	0.13702	0.32367	0.20106	0.26374	0.24932	0.15417	0.067243	0.23462	0.099325	0.14606	-2.1083	-2.4917	-2.9333	-2.5917	-2.8146	-2.8187	-2.7875	-2.8833	-2.4875	-2.9042	-3.0729	-2.6333	-2.7979	-3.0021	-2.3125	-3.0792	140.695	196.354	163.143	-62.978	282.995	179.424	-63.989	208.081	150.153	147.308	202.068	120.766	-26.422	280.168	104.890	-32.767	0.00013898	0.00034196	0.00012999	1265.2	2.3316e-06	5.9923e-06	1264.2	351.27	2.2261e-06	2.8752e-06	404.61	133.7	115.09	39.775	3.4099e-06	49.724	0.00098047	0.0015147	0.00041112	1278.2	1.5008e-05	1.6493e-05	1281.8	356.09	1.5575e-05	1.6263e-05	410.43	137.39	118.66	40.829	1.566e-05	51.088	175.075	8.283	-17.779	-59.125	86.954	69.106	-59.200	-54.458	55.959	77.600	-55.391	-50.882	-50.293	-45.681	50.694	-46.323	-8191	255	
14773.449	1	1	0	0	0.1218	0.19546	0.14785	0.3164	0.0089816	0.08723	0.27253	0.18482	0.058801	0.11213	0.17526	0.044867	0.099525	0.31334	0.33485	0.24426	-2.1396	-2.6375	-2.975	-2.7188	-2.9958	-2.7729	-2.6542	-3.2062	-2.4688	-2.5896	-3.0729	-2.5375	-2.9729	-2.8583	-2.4458	-3.025	114.656	161.520	70.765	164.254	239.883	167.271	265.542	243.174	176.873	-47.184	165.953	63.755	154.432	-72.558	245.754	225.942	0.00013947	0.00075841	0.0001805	1266	3.1442e-06	4.8693e-06	1263.7	350.29	2.686e-06	1.8643e-06	404.64	133.25	115.12	39.648	2.7131e-06	49.844	0.00094595	0.0014773	0.00041272	1278.4	1.5216e-05	1.6722e-05	1282.3	356.05	1.5814e-05	1.6607e-05	410.02	137.43	118.55	40.699	1.5677e-05	51.051	165.451	9.291	36.467	-59.222	68.804	90.496	-59.264	-54.656	14.828	153.822	-55.257	-50.855	-50.273	-45.623	91.361	-46.134	-8191	255	
14773.545	1	1	0	0	0.17437	0.2512	0.096247	0.14829	0.19134	0.11345	0.32765	0.26399	0.15233	0.28835	0.17008	0.24269	0.14837	0.458	0.18963	0.21438	-2.1417	-2.625	-2.7125	-2.6375	-2.7938	-2.9562	-2.8604	-2.8958	-2.7188	-2.4896	-3.0479	-2.7875	-2.7854	-2.9896	-2.5729	-3.0146	-18.369	-33.481	39.638	228.688	93.317	107.875	261.678	8.047	137.012	240.423	-38.506	185.576	226.176	253.253	172.417	158.807	0.00015269	0.0005252	0.00011582	1268.5	3.1983e-06	6.3981e-06	1264	349.51	2.12e-06	4.058e-06	404.81	132.99	115.43	39.743	3.0569e-06	49.929	0.0009654	0.0015189	0.00041963	1279	1.5702e-05	1.665e-05	1282.8	355.67	1.5495e-05	1.6518e-05	411.03	137.51	118.93	40.754	1.5854e-05	51.093	180.591	3.591	31.272	-59.186	85.704	79.873	-59.157	-54.588	100.948	77.036	-55.040	-50.922	-50.280	-45.350	84.746	-46.209	-8191	255	
14773.641	1	1	0	0	0.10196	0.19661	0.13806	0.15901	0.2266	0.061243	0.1774	0.34551	0.26861	0.078511	0.20164	0.060296	0.22277	0.079745	0.063668	0.13126	-2.2833	-2.5417	-3.0271	-2.9417	-2.7146	-2.9979	-2.5375	-3.0167	-2.6771	-2.6625	-2.9604	-2.7687	-2.7229	-3.0417	-2.5812	-2.7646	36.315	123.906	27.697	-27.390	197.127	223.146	195.155	202.811	222.170	157.207	-55.972	160.000	197.351	274.914	5.915	277.304	0.00013229	0.00048547	0.00018033	1269.8	4.6455e-06	4.1961e-06	1266.6	350.5	2.407e-06	4.8186e-06	405.52	133.35	115.2	39.79	4.0884e-06	49.682	0.00096435	0.001476	0.00041473	1279.9	1.4794e-05	1.6043e-05	1282.9	356.54	1.5468e-05	1.6235e-05	410.69	137.57	118.82	40.768	1.5587e-05	51.09	160.392	58.310	20.900	-59.172	65.747	66.917	-59.532	-54.530	114.900	83.931	-55.190	-50.927	-50.127	-45.843	51.532	-46.181	-8191	255	
14773.762	1	1	0	0	0.10124	0.24423	0.2162	0.24667	0.023497	0.1265	0.24292	0.16852	0.12161	0.082256	0.1207	0.17994	0.14485	0.072367	0.15837	0.35359	-2.3375	-2.5125	-3.0187	-2.75	-2.6312	-3.0125	-2.8375	-2.9604	-2.9625	-2.5083	-3.0208	-2.8063	-2.7042	-3.2438	-2.5812	-2.9583	235.060	125.222	139.825	226.965	-6.542	-7.902	166.360	187.855	172.967	253.139	-35.749	227.884	266.965	216.940	278.658	-60.360	0.00015151	0.00019894	9.285e-05	1271	3.2577e-06	5.629e-06	1267.3	350.04	2.8671e-06	4.1055e-06	404.64	133.85	115.4	39.831	6.9671e-06	49.832	0.00093871	0.0014677	0.00041018	1280.8	1.5017e-05	1.6279e-05	1284	356.18	1.5412e-05	1.622e-05	410.73	137.84	118.79	40.804	1.5475e-05	51.129	162.655	14.363	26.991	-59.285	49.152	60.565	-59.047	-54.532	16.561	50.101	-55.452	-50.855	-50.595	-45.754	101.218	-46.285	-8191	255	
14773.856	1	1	0	0	0.1715	0.13592	0.042551	0.29957	0.070273	0.23157	0.052105	0.55034	0.18164	0.2174	0.12405	0.084306	0.12203	0.16955	0.13704	0.13346	-2.3708	-2.5854	-2.9375	-2.9437	-2.5917	-2.8958	-2.8292	-2.7875	-3.1271	-2.6229	-2.9313	-2.8792	-2.6646	-2.9917	-2.625	-2.9896	192.702	263.111	65.471	206.088	92.859	244.009	34.677	221.270	-13.110	-25.903	196.942	221.757	224.048	209.031	104.697	199.754	0.00011912	0.00047134	0.00012391	1271.6	3.5315e-06	5.6754e-06	1265.7	349.42	3.0445e-06	2.0186e-06	403.93	134.08	115.66	39.756	4.0258e-06	49.876	0.00096167	0.0014522	0.00041477	1280.3	1.5124e-05	1.6396e-05	1284	355.65	1.5141e-05	1.6306e-05	410.53	137.79	118.83	40.836	1.5594e-05	51.171	164.244	39.975	-4.563	-59.067	116.578	96.956	-59.320	-54.611	86.030	102.221	-55.305	-50.808	-50.257	-45.748	84.343	-46.167	-8191	255	
14773.952	1	1	0	0	0.12957	0.19304	0.0862	0.19025	0.22133	0.32634	0.22281	0.14017	0.12095	0.22604	0.17064	0.26746	0.15874	0.12877	0.32841	0.063045	-2.4083	-2.5458	-2.8958	-3.0792	-2.6542	-2.9875	-2.8063	-2.8833	-2.8833	-2.6625	-2.9437	-3.0833	-2.4708	-3.0417	-2.8688	-2.7292	27.685	244.987	196.103	260.978	33.002	30.449	209.535	224.042	1.415	212.083	267.266	192.234	-48.316	-4.836	283.519	214.731	0.00014172	0.00050078	0.00012477	1272.9	1.3875e-06	7.002e-06	1268.5	348.99	2.5995e-06	4.4171e-06	404.6	133.61	115.54	39.84	5.0119e-06	49.622	0.00095746	0.0014539	0.00041836	1282.7	1.4843e-05	1.644e-05	1284.4	356.15	1.5451e-05	1.6307e-05	410.34	137.65	118.86	40.814	1.561e-05	51.074	165.830	13.164	-5.106	-59.232	29.373	69.956	-59.254	-54.539	47.310	60.137	-55.131	-50.791	-50.269	-45.786	73.973	-46.298	-8191	255	
14774.048	1	1	0	0	0.308	0.14158	0.18511	0.045098	0.090218	0.10395	0.16325	0.05181	0.15466	0.14257	0.24902	0.23526	0.15981	0.39676	0.18791	0.082224	-2.5917	-2.3042	-2.9542	-3.0354	-2.3396	-3.0833	-2.55	-2.7021	-2.9729	-2.6292	-2.8937	-3.1937	-2.5979	-2.8396	-2.7625	-2.6917	190.412	259.620	224.483	70.599	215.012	55.246	192.514	-71.010	225.440	121.466	210.401	266.527	61.680	-40.571	-16.378	188.196	0.00012152	0.00057985	0.00011974	1269.6	1.8597e-06	7.919e-06	1265.5	349.67	3.2301e-06	4.0645e-06	406.65	133.21	115.49	39.905	2.5366e-06	49.761	0.00095636	0.0014751	0.00041132	1277.5	1.5012e-05	1.6354e-05	1281.1	355.43	1.5504e-05	1.633e-05	410.51	137.34	118.68	40.798	1.5592e-05	51.026	161.736	26.133	45.060	-59.141	73.858	78.435	-59.329	-54.672	53.875	53.936	-54.929	-50.920	-50.342	-45.500	138.687	-46.318	-8191	255	
#DATA ENDS
