BOXY.EXE: ISS Imagent and Oximeter Data Acquisition Program Version 0.80
Ascii Record File

#ACQ INFORMATION
2  Detector Channels 
16  External MUX Channels 
1  Auxiliary Channels 
5000  Waveform (CCF) Frequency (Hz)
1  Waveforms Skipped 
30  Waveforms Averaged 
1  Cycles Averaged 
16  Acquisitions per Waveform 
10.0806  Updata Rate (Hz) 

#FILE INFORMATION
TRUE -- External MUX Channel results are PARSED.
FALSE -- AC DC and Phase are NOT grouped.
TRUE -- Companion Program Settings File CREATED.
FALSE -- AC data not excluded
FALSE -- DC data not excluded
FALSE -- Phase data not excluded
FALSE -- Auxillary Chn. data not excluded
Tab delimiters

#CALIBRATION STATE
TRUE -- Waveform Calibration Values APPLIED.


#AUX CALIBRATION VALUES
Val Type	aux-1	

Term	1.0000e+00	
Factor	0.0000e+00	


#WF CALIBRATION VALUES
A = Detector Channel
Val Type	A-AC1	A-AC2	A-AC3	A-AC4	A-AC5	A-AC6	A-AC7	A-AC8	A-AC9	A-AC10	A-AC11	A-AC12	A-AC13	A-AC14	A-AC15	A-AC16	A-DC1	A-DC2	A-DC3	A-DC4	A-DC5	A-DC6	A-DC7	A-DC8	A-DC9	A-DC10	A-DC11	A-DC12	A-DC13	A-DC14	A-DC15	A-DC16	A-Ph1	A-Ph2	A-Ph3	A-Ph4	A-Ph5	A-Ph6	A-Ph7	A-Ph8	A-Ph9	A-Ph10	A-Ph11	A-Ph12	A-Ph13	A-Ph14	A-Ph15	A-Ph16	

Term	0.00000e+00	0.00000e+00	0.00000e+00	0.00000e+00	0.00000e+00	0.00000e+00	0.00000e+00	0.00000e+00	0.00000e+00	0.00000e+00	0.00000e+00	0.00000e+00	0.00000e+00	0.00000e+00	0.00000e+00	0.00000e+00	0.00000e+00	0.00000e+00	0.00000e+00	0.00000e+00	0.00000e+00	0.00000e+00	0.00000e+00	0.00000e+00	0.00000e+00	0.00000e+00	0.00000e+00	0.00000e+00	0.00000e+00	0.00000e+00	0.00000e+00	0.00000e+00	0.00000e+00	0.00000e+00	0.00000e+00	0.00000e+00	0.00000e+00	0.00000e+00	0.00000e+00	0.00000e+00	0.00000e+00	0.00000e+00	0.00000e+00	0.00000e+00	0.00000e+00	0.00000e+00	0.00000e+00	0.00000e+00	
Factor	1.00000e+00	1.00000e+00	1.00000e+00	1.00000e+00	1.00000e+00	1.00000e+00	1.00000e+00	1.00000e+00	1.00000e+00	1.00000e+00	1.00000e+00	1.00000e+00	1.00000e+00	1.00000e+00	1.00000e+00	1.00000e+00	1.00000e+00	1.00000e+00	1.00000e+00	1.00000e+00	1.00000e+00	1.00000e+00	1.00000e+00	1.00000e+00	1.00000e+00	1.00000e+00	1.00000e+00	1.00000e+00	1.00000e+00	1.00000e+00	1.00000e+00	1.00000e+00	X	X	X	X	X	X	X	X	X	X	X	X	X	X	X	X	

B = Detector Channel
Val Type	B-AC1	B-AC2	B-AC3	B-AC4	B-AC5	B-AC6	B-AC7	B-AC8	B-AC9	B-AC10	B-AC11	B-AC12	B-AC13	B-AC14	B-AC15	B-AC16	B-DC1	B-DC2	B-DC3	B-DC4	B-DC5	B-DC6	B-DC7	B-DC8	B-DC9	B-DC10	B-DC11	B-DC12	B-DC13	B-DC14	B-DC15	B-DC16	B-Ph1	B-Ph2	B-Ph3	B-Ph4	B-Ph5	B-Ph6	B-Ph7	B-Ph8	B-Ph9	B-Ph10	B-Ph11	B-Ph12	B-Ph13	B-Ph14	B-Ph15	B-Ph16	

Term	0.00000e+00	0.00000e+00	0.00000e+00	0.00000e+00	0.00000e+00	0.00000e+00	0.00000e+00	0.00000e+00	0.00000e+00	0.00000e+00	0.00000e+00	0.00000e+00	0.00000e+00	0.00000e+00	0.00000e+00	0.00000e+00	0.00000e+00	0.00000e+00	0.00000e+00	0.00000e+00	0.00000e+00	0.00000e+00	0.00000e+00	0.00000e+00	0.00000e+00	0.00000e+00	0.00000e+00	0.00000e+00	0.00000e+00	0.00000e+00	0.00000e+00	0.00000e+00	-1.50286e+02	-1.28179e+02	-1.21349e+02	-1.82838e+02	-7.38202e+01	-6.86517e+01	-1.55822e+02	-1.62015e+02	-7.29113e+01	-6.79823e+01	-1.70826e+02	-1.70724e+02	-1.80370e+02	-1.76266e+02	-6.49426e+01	-1.48473e+02	
Factor	2.23038e-05	1.70172e-04	3.80664e-05	2.18512e-01	1.33480e-06	1.47544e-06	1.70849e-01	6.06101e-02	1.17230e-06	1.44139e-06	8.98913e-02	2.97864e-02	2.76328e-02	9.32721e-03	1.30128e-06	1.34466e-02	3.00195e-06	3.32187e-06	9.25624e-07	1.11221e-01	3.61816e-08	3.65802e-08	8.21001e-02	3.10359e-02	3.62532e-08	3.66873e-08	4.44963e-02	1.48016e-02	1.42663e-02	4.80361e-03	3.65987e-08	6.70235e-03	X	X	X	X	X	X	X	X	X	X	X	X	X	X	X	X	



#DISTANCE SETTINGS
A = Detector Channel
A-1	A-2	A-3	A-4	A-5	A-6	A-7	A-8	A-9	A-10	A-11	A-12	A-13	A-14	A-15	A-16	

2.5000e+00	3.0000e+00	2.5000e+00	3.0000e+00	2.0000e+00	3.0000e+00	1.5000e+00	3.0000e+00	3.0000e+00	3.0000e+00	3.0000e+00	3.0000e+00	3.0000e+00	3.0000e+00	1.5000e+00	3.0000e+00	

B = Detector Channel
B-1	B-2	B-3	B-4	B-5	B-6	B-7	B-8	B-9	B-10	B-11	B-12	B-13	B-14	B-15	B-16	

1.0000e+01	1.0000e+01	1.0000e+01	1.4400e+00	1.0000e+01	1.0000e+01	1.5100e+00	1.9400e+00	1.0000e+01	1.0000e+01	1.9900e+00	2.4900e+00	2.4100e+00	2.9000e+00	1.0000e+01	2.9800e+00	




#DATA BEGINS
time	group	step	mark	flag	A-AC1	A-AC2	A-AC3	A-AC4	A-AC5	A-AC6	A-AC7	A-AC8	A-AC9	A-AC10	A-AC11	A-AC12	A-AC13	A-AC14	A-AC15	A-AC16	A-DC1	A-DC2	A-DC3	A-DC4	A-DC5	A-DC6	A-DC7	A-DC8	A-DC9	A-DC10	A-DC11	A-DC12	A-DC13	A-DC14	A-DC15	A-DC16	A-Ph1	A-Ph2	A-Ph3	A-Ph4	A-Ph5	A-Ph6	A-Ph7	A-Ph8	A-Ph9	A-Ph10	A-Ph11	A-Ph12	A-Ph13	A-Ph14	A-Ph15	A-Ph16	B-AC1	B-AC2	B-AC3	B-AC4	B-AC5	B-AC6	B-AC7	B-AC8	B-AC9	B-AC10	B-AC11	B-AC12	B-AC13	B-AC14	B-AC15	B-AC16	B-DC1	B-DC2	B-DC3	B-DC4	B-DC5	B-DC6	B-DC7	B-DC8	B-DC9	B-DC10	B-DC11	B-DC12	B-DC13	B-DC14	B-DC15	B-DC16	B-Ph1	B-Ph2	B-Ph3	B-Ph4	B-Ph5	B-Ph6	B-Ph7	B-Ph8	B-Ph9	B-Ph10	B-Ph11	B-Ph12	B-Ph13	B-Ph14	B-Ph15	B-Ph16	aux-1	digaux	

1779.907	1	1	0	256	0.089311	0.13982	0.17517	0.09543	0.053789	0.056501	0.17065	0.15289	0.080856	0.15908	0.17662	0.2267	0.18387	0.23586	0.19206	0.26883	-4.2708	-4.4604	-5.0708	-4.4729	-4.4604	-4.9417	-4.2937	-5.2292	-4.5083	-4.3479	-5.1438	-4.3	-4.7542	-5.1229	-4.3146	-5.2625	37.499	212.320	272.641	181.470	-42.686	122.187	232.272	195.345	291.978	145.970	165.221	205.846	226.366	275.677	111.276	241.068	0.00038557	0.00061525	0.00022615	860.1	3.626e-06	6.3996e-06	1033.4	319.74	3.7698e-06	4.852e-06	445.61	206.18	138.38	69.599	6.709e-06	116.3	0.0003383	0.00029913	8.3929e-05	821.41	3.3157e-06	3.2275e-06	987.65	307.83	3.2354e-06	3.368e-06	424.75	198.15	133.22	67.289	3.4072e-06	112.05	130.402	22.820	57.737	-41.595	100.006	77.630	-42.270	-37.112	51.767	80.464	-38.390	-34.463	-33.276	-28.128	103.648	-30.208	-8191	255	
1780.003	1	1	0	0	0.035206	0.12244	0.34068	0.14362	0.17948	0.073176	0.15469	0.014783	0.1286	0.10708	0.066854	0.12411	0.20589	0.3167	0.12278	0.12924	-4.5333	-4.2271	-5.1604	-4.4229	-4.5729	-5.0292	-4.2896	-4.9396	-4.8458	-4.2479	-5.1687	-4.5312	-4.4729	-5.1542	-4.0854	-5.0271	74.859	-32.194	301.630	-23.951	-43.179	-3.281	11.024	83.719	87.292	-50.918	-15.782	195.883	302.684	-30.038	-6.117	223.368	0.00033106	0.0011793	0.00020946	858.64	6.0532e-06	4.5606e-06	1030.5	323.32	5.945e-06	9.8087e-06	445.63	205.76	138.1	69.74	6.7431e-06	116.86	0.00034533	0.00030541	8.2687e-05	820.19	3.26e-06	3.3145e-06	987.06	308.48	3.2671e-06	3.332e-06	424.98	198.42	133.44	67.355	3.3691e-06	112.25	130.752	46.047	78.680	-41.503	101.234	91.166	-42.099	-37.048	77.178	75.575	-38.382	-34.308	-33.466	-28.370	102.637	-30.145	-8191	255	
1780.124	1	1	0	0	0.18137	0.12814	0.065042	0.099619	0.1931	0.095154	0.14642	0.14158	0.17807	0.10411	0.26935	0.10051	0.30049	0.3981	0.21579	0.28886	-4.5	-4.1583	-5.0563	-4.5979	-4.5667	-5.0854	-4.3396	-4.7771	-5.0396	-4.1729	-5.0167	-4.7729	-4.4583	-5.2875	-4.3333	-4.8833	-50.772	85.360	234.385	1.111	6.978	89.163	-39.529	199.691	177.551	-14.963	-51.896	-22.503	-29.857	294.786	5.884	249.116	0.00042248	0.00090356	0.00020625	857.49	5.6231e-06	8.1366e-06	1037	322.03	7.5514e-06	1.0286e-05	445.24	207.69	137.85	69.597	7.4401e-06	116.72	0.00033615	0.00029718	8.0755e-05	819.96	3.3096e-06	3.2077e-06	988.01	308.1	3.2715e-06	3.2706e-06	424.92	198.9	133.22	67.326	3.3394e-06	112.38	129.019	31.087	24.853	-41.768	78.182	88.057	-42.315	-37.081	88.977	125.059	-38.345	-34.043	-33.393	-28.262	78.088	-30.209	-8191	255	
1780.218	1	1	0	0	0.15768	0.1917	0.2539	0.075929	0.21521	0.10827	0.14667	0.23033	0.12794	0.17368	0.15567	0.24011	0.12439	0.11453	0.20854	0.15271	-4.6292	-4.0479	-5.0292	-4.6646	-3.9979	-5.0542	-4.525	-4.8292	-4.9271	-4.0354	-5.1438	-4.7979	-4.4437	-5.1771	-4.3396	-4.7188	15.605	106.169	162.618	196.307	273.524	286.620	219.656	279.828	89.177	48.524	266.177	267.173	225.386	287.905	-43.307	201.872	0.00035922	0.0011583	0.00020546	857.37	5.2533e-06	1.0163e-05	1033.6	320.13	3.5651e-06	3.021e-06	446.31	205.81	137.63	69.5	6.3354e-06	116.89	0.00034828	0.00030039	8.2897e-05	819.48	3.3404e-06	3.2505e-06	988.93	307.54	3.2691e-06	3.2684e-06	425.48	198.19	132.78	67.118	3.2334e-06	112.3	134.872	42.878	53.987	-41.633	98.090	87.692	-42.097	-36.964	57.866	81.334	-38.308	-34.144	-33.498	-28.301	110.860	-30.083	-8191	255	
1780.290	1	1	0	0	0.1296	0.26058	0.32578	0.071685	0.031179	0.098076	0.13953	0.0056209	0.13188	0.13837	0.10928	0.23328	0.17653	0.10056	0.042833	0.13534	-4.8479	-4.2354	-4.9271	-4.925	-4.0104	-5.0333	-4.8042	-4.5146	-5.0458	-4.2667	-4.85	-4.95	-4.3208	-5.2438	-4.4958	-4.5708	87.245	12.211	157.350	29.227	160.166	272.500	181.758	-50.260	69.907	67.160	192.184	300.414	248.342	295.597	-30.894	266.036	0.00039441	0.0011465	0.00021054	855.69	3.3919e-06	9.9212e-06	1033.6	319.71	2.4025e-06	7.3781e-06	441.95	205.5	137.59	69.078	3.6735e-06	116.72	0.00033921	0.00029971	8.3345e-05	818.24	3.3197e-06	3.255e-06	986.84	307.48	3.2025e-06	3.2278e-06	422.89	198.05	132.91	67.003	3.3126e-06	112.16	139.738	17.342	46.972	-41.565	116.550	97.384	-41.823	-37.198	116.549	85.202	-38.191	-34.315	-33.235	-27.950	100.543	-30.415	-8191	255	
1780.386	1	1	0	0	0.1276	0.18017	0.12443	0.078526	0.054037	0.10583	0.22938	0.13672	0.115	0.1844	0.11066	0.34908	0.12539	0.30172	0.024178	0.23042	-4.775	-4.2604	-4.65	-5.0167	-3.9917	-5.0625	-4.9917	-4.3187	-5.0292	-4.2812	-4.8187	-5.15	-4.0563	-5.0417	-4.5958	-4.3458	4.570	83.849	33.325	5.344	75.592	264.074	-33.112	274.471	304.555	34.452	231.245	244.093	293.113	266.396	2.168	273.870	0.0004118	0.0010937	0.00014634	855.97	4.3436e-06	8.6027e-06	1030.5	319.29	2.0474e-06	8.9452e-06	440.92	206.78	137.58	69.441	1.7551e-06	116.76	0.00033607	0.00029268	8.368e-05	817.37	3.3551e-06	3.2863e-06	984.44	307.02	3.2679e-06	3.1836e-06	423.49	198.67	132.86	67.242	3.2263e-06	112.3	133.341	6.620	56.588	-41.417	93.305	82.282	-41.861	-37.014	106.606	100.406	-38.343	-34.218	-33.432	-28.333	78.059	-30.277	-8191	255	
1780.507	1	1	0	0	0.071674	0.065923	0.14314	0.040799	0.16599	0.19889	0.24196	0.23594	0.055756	0.25299	0.14755	0.30635	0.11407	0.15854	0.13128	0.31756	-4.8812	-4.2562	-4.5479	-5.1667	-4.1562	-4.9812	-4.9187	-4.2875	-5.1521	-4.3479	-4.5687	-5.2812	-4.2583	-4.8771	-4.8146	-4.2875	-47.095	36.492	148.108	251.352	-18.106	-1.201	283.083	207.788	153.487	114.888	255.024	295.565	-24.797	288.111	131.550	274.759	0.00039227	0.00091405	0.00014732	857.45	4.6143e-06	8.8684e-06	1029.4	320.44	3.1786e-06	7.417e-06	444.76	206.03	138.12	69.443	5.0768e-06	116.91	0.00033656	0.00028766	8.6274e-05	818.49	3.2892e-06	3.2061e-06	985.49	307.31	3.3067e-06	3.1859e-06	424.47	198.45	133.02	67.172	3.2736e-06	112.39	135.612	22.704	27.773	-41.644	106.793	108.051	-42.018	-37.075	101.000	86.952	-38.205	-33.838	-33.299	-28.477	95.152	-30.146	-8191	255	
1780.603	1	1	0	0	0.14838	0.19399	0.16227	0.091164	0.077097	0.15152	0.24985	0.19268	0.050288	0.29733	0.11731	0.10173	0.099736	0.22112	0.31559	0.18659	-4.7312	-4.5146	-4.4187	-5.2104	-4.2063	-4.7729	-5.1438	-4.2188	-5.0417	-4.6604	-4.5167	-5.3646	-4.45	-4.7958	-5.0229	-4.3396	39.225	-21.608	299.685	119.752	141.229	263.424	-51.650	278.038	117.566	-39.152	178.541	227.840	228.201	292.931	145.289	208.413	0.00042892	0.00069855	0.00010168	857.03	3.6472e-06	1.2327e-05	1034.1	318.22	7.1269e-06	5.9016e-06	445.2	206.48	137.09	69.574	4.5774e-06	117.31	0.00034241	0.00029203	8.2305e-05	817.62	3.2563e-06	3.193e-06	987.73	306.61	3.2807e-06	3.2498e-06	424.6	198.93	132.91	67.167	3.3079e-06	112.34	134.890	39.250	58.738	-41.299	64.239	95.793	-42.000	-36.918	91.186	52.488	-38.199	-34.168	-33.113	-28.386	97.896	-30.232	-8191	255	
1780.699	1	1	0	0	0.28392	0.13614	0.11869	0.099993	0.096805	0.094903	0.079384	0.28255	0.18082	0.060491	0.032698	0.13474	0.019847	0.074349	0.10266	0.24438	-4.7042	-4.7771	-4.1562	-5.2604	-4.2792	-4.6937	-4.9729	-4.4313	-4.8729	-4.9021	-4.4958	-5.1875	-4.6	-4.7958	-5.0833	-4.2188	271.875	169.523	3.592	11.401	224.371	-48.558	278.114	292.754	97.959	255.758	152.742	-50.005	238.177	275.598	266.341	297.938	0.00042661	0.00085331	0.00025471	852	6.847e-06	6.677e-06	1024.4	320.4	4.9493e-06	6.5542e-06	443.63	205.8	137.38	69.205	4.0984e-06	116.47	0.0003335	0.00029162	8.3424e-05	815.17	3.2202e-06	3.263e-06	981.47	306.88	3.2478e-06	3.1821e-06	423.97	198.24	132.49	67.115	3.2604e-06	112.09	133.045	27.319	55.984	-41.790	100.134	114.194	-41.676	-36.985	84.004	78.358	-38.089	-34.102	-33.021	-28.245	81.708	-30.195	-8191	255	
1780.795	1	1	0	0	0.22012	0.17751	0.1217	0.049918	0.21146	0.060351	0.089578	0.31153	0.25059	0.022118	0.11711	0.066098	0.098334	0.10421	0.28988	0.082327	-4.7271	-4.6396	-4.2688	-5.3771	-4.3854	-4.4688	-5.3021	-4.2979	-4.8375	-4.8583	-4.3729	-5.2917	-4.6458	-4.5687	-5	-4.4375	55.610	64.052	215.550	48.459	210.469	-43.767	246.947	268.827	1.976	72.024	174.062	43.362	268.743	-19.382	48.205	234.359	0.00040772	0.00090327	0.00014898	851.77	6.7442e-06	9.3314e-06	1025.7	318.46	1.7387e-06	1.1633e-05	441.83	206.42	137.24	69.376	7.161e-06	116	0.0003423	0.00029307	8.3979e-05	815.52	3.1887e-06	3.2785e-06	983.15	306.16	3.2579e-06	3.2098e-06	422.96	198.48	132.56	67.073	3.3155e-06	111.99	136.195	57.430	39.450	-41.542	108.400	93.161	-42.142	-36.904	140.081	108.886	-38.139	-34.172	-33.338	-28.430	103.916	-30.240	-8191	255	
1780.891	1	1	0	0	0.14657	0.11602	0.11456	0.095864	0.066015	0.19582	0.15589	0.080413	0.31335	0.13911	0.17298	0.095126	0.2115	0.02138	0.099006	0.010645	-4.4042	-4.8646	-4.25	-5.3063	-4.5729	-4.5146	-5.3479	-4.4208	-4.6271	-4.9708	-4.3208	-5.0708	-4.7167	-4.4458	-5.0792	-4.4083	298.193	175.919	41.744	282.940	39.755	3.555	224.254	296.620	166.709	87.122	270.364	231.308	271.945	104.982	46.545	121.482	0.000432	0.00081116	0.00018946	859.47	9.0545e-06	8.2596e-06	1029.9	319.9	1.1763e-06	2.6861e-06	447.5	206.23	136.87	69.335	7.4714e-06	116.93	0.00034489	0.00029163	8.1966e-05	817.77	3.2526e-06	3.2391e-06	984.5	306.89	3.2157e-06	3.214e-06	425.22	198.94	132.6	67.035	3.315e-06	112.45	133.538	50.770	34.575	-41.567	95.516	90.664	-42.069	-37.167	131.631	67.555	-38.371	-34.124	-33.334	-28.205	129.461	-30.189	-8191	255	
1780.987	1	1	0	0	0.23234	0.19037	0.23737	0.19522	0.20757	0.17325	0.31413	0.13664	0.11148	0.17815	0.12753	0.072793	0.19112	0.17503	0.086068	0.32671	-4.2229	-5.0604	-4.1375	-5.1417	-4.65	-4.225	-5.1167	-4.525	-4.5062	-5.0042	-4.175	-4.9917	-4.8625	-4.4208	-5.125	-4.4875	209.349	235.781	244.358	-42.443	245.790	262.602	256.962	-14.511	206.360	229.834	112.277	-34.464	54.183	-44.536	-20.201	246.727	0.00043741	0.0010252	0.00018659	854.14	6.3602e-06	7.9646e-06	1029.9	321.34	4.8112e-06	6.111e-06	445.82	206.75	137.95	69.721	6.1857e-06	117.13	0.00034593	0.00029295	8.2631e-05	814.48	3.2051e-06	3.2956e-06	983.74	307.62	3.3479e-06	3.1786e-06	425.49	199.06	133.22	67.327	3.4047e-06	112.48	137.547	41.207	51.471	-41.662	69.928	109.836	-41.872	-36.839	118.638	76.406	-38.311	-33.974	-33.396	-28.485	87.404	-30.053	-8191	255	
1781.083	1	1	0	0	0.15567	0.30568	0.088405	0.12916	0.075331	0.079542	0.21457	0.043	0.16099	0.19073	0.22394	0.055952	0.09796	0.15426	0.092601	0.17894	-4.0813	-5.2042	-4.1292	-4.9979	-4.8542	-4.275	-5.125	-4.8021	-4.3583	-4.9979	-4.3979	-4.875	-4.9354	-4.1292	-5.0708	-4.7958	119.107	32.870	174.386	255.874	29.687	244.444	206.536	301.467	257.213	49.774	282.188	-21.637	53.463	286.466	110.543	251.227	0.00041189	0.00069749	0.00028522	849	6.7796e-06	4.813e-06	1027.7	319.49	2.4687e-06	9.429e-06	446.29	206.01	137.24	69.342	5.3088e-06	117.18	0.00034743	0.0002926	8.3904e-05	812.24	3.1946e-06	3.2995e-06	980.78	306.96	3.3059e-06	3.2223e-06	424.89	198.88	133.06	67.189	3.2268e-06	112.27	135.034	0.514	54.017	-41.722	78.605	105.896	-42.320	-36.950	140.409	73.054	-38.078	-34.037	-33.142	-28.082	74.750	-30.154	-8191	255	
1781.204	1	1	0	0	0.094746	0.14085	0.033878	0.17635	0.040802	0.15638	0.096031	0.164	0.14191	0.044576	0.14231	0.090266	0.111	0.10503	0.16433	0.27733	-3.8458	-5.175	-4.2542	-4.7208	-4.9688	-4.2688	-5.2042	-4.7208	-4.3458	-5.1458	-4.6521	-4.8688	-5.1479	-4.4208	-4.9875	-4.8396	283.836	113.658	-0.064	283.425	258.403	294.653	222.084	239.737	58.968	221.511	261.167	262.266	35.689	238.149	207.434	221.640	0.00039228	0.00087736	0.00012359	848.03	8.1511e-06	5.3791e-06	1025	319.39	3.962e-06	5.8749e-06	443.97	206.41	137.84	69.334	4.1462e-06	117.32	0.00034863	0.00029837	8.1463e-05	812.16	3.2344e-06	3.2789e-06	981.37	306.88	3.3553e-06	3.1748e-06	423.95	199.06	133.2	67.124	3.2658e-06	112.31	139.939	56.336	85.546	-41.828	101.052	113.604	-42.031	-36.978	98.393	84.541	-38.046	-34.216	-33.014	-28.181	96.103	-30.170	-8191	255	
1781.298	1	1	0	0	0.061176	0.18982	0.075182	0.27871	0.35313	0.14041	0.30963	0.16559	0.16594	0.059717	0.20625	0.36271	0.12188	0.21689	0.25292	0.27425	-3.9062	-5.0813	-4.4938	-4.6458	-5.0375	-4.1292	-5.1125	-4.9229	-4.1646	-5.2625	-4.6104	-4.35	-4.9771	-4.2812	-4.8187	-5.0167	9.334	282.789	118.169	251.815	283.742	300.708	245.036	-30.402	114.157	0.652	-10.021	303.214	293.483	253.322	273.140	295.324	0.00042126	0.00069854	0.00021266	853.21	6.7684e-06	7.0117e-06	1022.5	319.53	6.2723e-06	3.3912e-06	443.96	206.87	137.8	69.374	6.708e-06	116.74	0.00034751	0.00028882	8.0151e-05	814.74	3.2562e-06	3.2031e-06	981.09	307.34	3.3809e-06	3.2162e-06	424.49	199.24	133	67.044	3.3139e-06	112.58	138.667	15.695	55.144	-41.520	102.206	94.098	-42.175	-36.961	92.807	82.257	-38.121	-34.165	-33.170	-28.270	133.551	-30.037	-8191	255	
1781.395	1	1	0	0	0.1514	0.17077	0.17426	0.28724	0.18801	0.18977	0.079639	0.19864	0.15261	0.09826	0.21798	0.11214	0.10219	0.29207	0.16007	0.21337	-3.9604	-4.9437	-4.3854	-4.325	-4.9583	-4.2771	-4.9042	-5.0292	-4.2208	-5.175	-4.7833	-4.625	-5.3667	-4.3333	-4.6542	-5.1375	194.299	-0.578	67.997	277.866	246.735	108.227	171.547	260.209	10.325	295.932	100.519	-25.355	234.046	-47.768	272.489	233.548	0.00038313	0.0010983	8.6471e-05	849.41	5.5685e-06	7.8863e-06	1026.9	321.43	4.2319e-06	1.7486e-06	445.05	206.63	137.58	69.173	5.6661e-06	116.62	0.00035025	0.00029046	8.0888e-05	811.19	3.2237e-06	3.2172e-06	983.1	307.58	3.2734e-06	3.1922e-06	424.17	198.99	132.83	66.903	3.2323e-06	112.21	129.392	33.930	-1.199	-41.715	105.170	114.012	-42.206	-37.088	81.250	72.741	-38.124	-34.516	-33.068	-28.188	98.292	-30.117	-8191	255	
1781.515	1	1	0	0	0.29362	0.015086	0.14695	0.18167	0.064805	0.14696	0.26015	0.21785	0.19084	0.20326	0.11537	0.31074	0.097348	0.10018	0.22575	0.30606	-3.7458	-5.0667	-4.6875	-4.3854	-5.15	-4.4542	-4.5396	-5.0542	-4.0875	-5.1375	-4.7375	-4.3063	-5.2312	-4.5875	-4.3646	-5.1562	275.737	60.357	-22.602	301.750	159.418	231.845	297.221	-3.346	126.148	298.975	-48.556	255.912	-33.290	277.613	154.680	-43.923	0.0003931	0.0012087	0.00019563	850.33	4.6158e-06	7.4326e-06	1028.7	318.29	5.5601e-06	6.4537e-06	443.12	205.4	137.96	68.554	3.1779e-06	117.07	0.00033936	0.00029142	7.9889e-05	815.25	3.2234e-06	3.1321e-06	981.86	306.05	3.3246e-06	3.1682e-06	423.11	198	132.46	66.52	3.241e-06	112.18	133.058	31.747	53.867	-41.433	90.599	108.764	-42.323	-36.781	83.865	102.956	-37.985	-34.074	-33.278	-28.232	73.967	-29.988	-8191	255	
1781.587	1	1	0	0	0.15415	0.16528	0.21925	0.10183	0.13849	0.14675	0.062554	0.15156	0.026765	0.062505	0.3353	0.42676	0.03188	0.18248	0.16314	0.24628	-3.9979	-4.8583	-4.8458	-4.3479	-5.05	-4.5771	-4.5062	-5.2312	-4.3187	-4.7167	-5.05	-4.2562	-5.0083	-4.6062	-4.4688	-5.1708	66.390	-20.854	214.076	-41.569	100.126	136.013	36.807	73.908	245.555	50.246	233.422	284.180	143.225	303.679	20.977	241.819	0.00039756	0.00049318	0.00015477	852.17	4.5224e-06	6.4521e-06	1028.5	317.86	4.2756e-06	5.0621e-06	443.94	205.91	136.54	68.766	5.6996e-06	117.03	0.00034013	0.00029383	8.1179e-05	812.9	3.241e-06	3.1329e-06	980.61	305.61	3.2577e-06	3.22e-06	423.08	198.71	132.21	66.567	3.2801e-06	112.41	141.079	37.976	68.249	-41.289	89.406	88.575	-42.338	-36.999	77.638	71.128	-38.028	-34.056	-33.249	-28.130	107.924	-29.949	-8191	255	
1781.683	1	1	0	0	0.031663	0.14696	0.16418	0.15878	0.063123	0.3159	0.06439	0.16161	0.19486	0.062992	0.18339	0.15256	0.20876	0.14553	0.11661	0.23951	-3.9875	-4.6771	-4.9479	-4.2583	-5.0604	-4.6479	-4.4917	-5.2083	-4.4146	-4.5312	-5.2333	-4.3	-4.8729	-4.7604	-4.1417	-5.3646	214.545	255.050	46.918	143.529	57.119	2.576	198.193	-47.056	49.824	104.456	28.830	228.152	-9.664	-54.195	-43.553	260.706	0.00036109	0.00070106	0.00016371	850.56	4.1723e-06	4.6403e-06	1028.8	319.65	3.194e-06	7.9106e-06	443.66	206.13	136.74	68.695	5.9773e-06	117.52	0.00033457	0.0002925	8.2541e-05	814.86	3.1641e-06	3.0858e-06	984.16	306.23	3.1903e-06	3.2377e-06	423.56	199.02	132.18	66.489	3.3354e-06	112.78	135.628	25.074	62.876	-41.491	118.803	97.432	-41.969	-36.992	67.945	45.145	-38.252	-34.224	-32.878	-28.131	118.061	-29.867	-8191	255	
1781.804	1	1	0	0	0.18815	0.1246	0.21829	0.11461	0.13548	0.24733	0.12912	0.33929	0.043243	0.10211	0.20056	0.23802	0.12437	0.24439	0.058018	0.2308	-4.05	-4.5917	-5.0958	-4.0667	-4.7083	-4.7542	-4.3833	-5.0229	-4.4917	-4.4333	-5.2083	-4.3729	-4.8063	-4.9229	-4.1021	-5.3	84.878	113.542	96.573	158.439	144.215	279.504	269.739	295.652	-27.468	244.051	-35.450	291.153	50.058	283.241	292.360	218.877	0.00041698	0.00083451	8.4568e-05	851.92	7.2838e-06	5.754e-06	1027.9	318.36	3.653e-06	5.3493e-06	443.07	206.12	136.57	68.745	3.6133e-06	117.06	0.00033631	0.00030147	8.0844e-05	814.6	3.1838e-06	3.1528e-06	983.32	305.91	3.2361e-06	3.2069e-06	422.9	198.38	131.76	66.383	3.3336e-06	112.21	143.839	27.078	77.803	-41.659	77.457	86.846	-42.128	-37.006	70.016	75.912	-37.979	-33.862	-33.220	-28.102	89.530	-30.156	-8191	255	
1781.900	1	1	0	0	0.32232	0.085137	0.14109	0.19736	0.09246	0.11704	0.30655	0.10251	0.21046	0.11426	0.14166	0.11802	0.13892	0.12901	0.087235	0.22979	-4.0854	-4.4042	-5.0208	-4.3146	-4.7667	-4.7708	-4.3979	-5.3187	-4.7271	-4.3	-5.2604	-4.3063	-4.6521	-5.1229	-4.1542	-5.1854	293.163	122.091	63.775	130.846	229.251	148.972	245.448	169.975	210.341	123.363	201.631	164.545	-5.245	236.913	36.563	217.072	0.00037311	0.0014474	0.00021018	854.73	6.4446e-06	4.6764e-06	1023.5	318.68	3.3677e-06	7.5715e-06	442.86	205.95	136.13	68.309	2.1867e-06	116.78	0.00033868	0.00029867	7.9671e-05	817.18	3.2329e-06	3.15e-06	981.3	305.38	3.1965e-06	3.2755e-06	422.39	197.94	131.41	66.094	3.2839e-06	112.19	131.519	39.788	34.863	-41.465	82.800	108.867	-42.212	-36.989	84.829	95.655	-38.275	-33.993	-33.149	-28.312	155.923	-30.018	-8191	255	
1781.996	1	1	0	0	0.17803	0.22022	0.1188	0.22524	0.13915	0.14863	0.15353	0.17279	0.069581	0.15981	0.18734	0.12547	0.19509	0.29655	0.076938	0.2445	-4.4875	-4.3625	-5.1021	-4.3833	-4.4771	-5.0875	-4.4146	-4.9729	-4.7146	-4.2042	-5.3604	-4.6083	-4.6521	-5.3521	-4.1917	-5.1021	192.042	143.217	-36.231	225.784	149.017	83.329	-39.200	203.863	277.139	46.088	-38.709	223.787	258.292	279.992	53.722	251.813	0.00039563	0.00099157	0.00015485	851.91	5.3503e-06	8.1332e-06	1027	318.98	3.2906e-06	3.821e-06	440.24	206.09	135.65	68.532	6.2922e-06	116.89	0.00033836	0.00029731	8.0026e-05	813.65	3.1795e-06	3.1812e-06	983.03	304.95	3.1826e-06	3.2578e-06	421.78	198.01	131.26	66.07	3.2827e-06	112.17	138.936	22.604	37.942	-41.305	72.388	109.667	-41.994	-36.640	98.609	85.411	-38.052	-34.174	-33.466	-28.001	95.553	-30.065	-8191	255	
1782.092	1	1	0	0	0.31459	0.0075917	0.19915	0.11593	0.057625	0.038924	0.11648	0.32055	0.13324	0.25828	0.22528	0.33729	0.097776	0.29057	0.17515	0.18643	-4.5	-4.2583	-5.075	-4.5437	-4.5813	-5.2542	-4.4229	-5.0146	-4.8	-4.2542	-5.2667	-4.6937	-4.4354	-5.3458	-4.2708	-4.9437	96.017	20.331	191.042	239.150	58.759	90.004	223.551	243.444	210.546	-20.720	54.141	270.134	159.584	226.376	13.271	245.634	0.00040356	0.00072513	0.00026849	854.74	6.6557e-06	5.9923e-06	1028.3	318.05	5.4018e-06	1.2993e-05	443.01	205.8	135	68.161	1.4774e-06	116.74	0.00033943	0.00029582	8.1241e-05	815.34	3.2625e-06	3.14e-06	984.79	305.12	3.2972e-06	3.2847e-06	423.08	197.78	130.97	65.99	3.2914e-06	112.27	140.683	53.900	52.239	-41.443	90.427	94.658	-41.968	-36.825	72.729	74.851	-38.204	-33.919	-33.063	-28.277	99.075	-30.110	-8191	255	
1782.187	1	1	0	0	0.13694	0.24402	0.12075	0.1399	0.08172	0.041761	0.22991	0.20293	0.24662	0.12031	0.21759	0.022655	0.07297	0.18327	0.17263	0.070326	-4.6583	-4.1104	-5.1562	-4.6854	-4.4187	-5.1375	-4.4875	-4.7312	-5.0375	-4.1521	-5.0167	-4.7312	-4.3604	-5.2021	-4.2042	-4.7458	144.417	123.954	195.774	-15.162	104.499	152.911	228.835	-35.813	53.347	242.815	222.809	224.539	173.048	116.599	39.211	184.295	0.00037871	0.00084219	0.0001347	852.54	5.8703e-06	1.0433e-05	1032.5	318.78	7.0908e-06	4.6246e-06	443.95	205.09	135.95	68.126	4.9833e-06	116.39	0.0003351	0.00029882	8.1972e-05	815.37	3.2548e-06	3.1906e-06	985.05	305.13	3.2186e-06	3.2125e-06	422.29	197.52	131.08	65.932	3.2741e-06	111.86	126.838	26.209	26.975	-41.688	90.164	83.980	-42.010	-37.101	93.501	88.483	-37.989	-33.841	-33.542	-28.133	146.659	-29.917	-8191	255	
1782.283	1	1	0	0	0.15916	0.33136	0.33846	0.080764	0.31671	0.23839	0.081208	0.041915	0.11099	0.16831	0.24362	0.17225	0.17488	0.23278	0.14549	0.09375	-4.6875	-4.1562	-4.9313	-4.8	-4.2021	-5.0792	-4.6708	-4.4708	-5.0938	-4.3	-4.8583	-5.075	-4.2562	-5.2	-4.5479	-4.5896	81.127	278.047	105.955	56.754	14.694	40.118	270.599	293.793	75.800	-28.564	-45.446	175.662	264.689	256.993	136.352	-47.210	0.00041888	0.00109	0.00022558	853.02	4.116e-06	6.9814e-06	1028.3	316.2	2.7246e-06	5.144e-06	443.09	206.09	135.72	68.153	1.2826e-06	116.49	0.00033564	0.00029911	8.1634e-05	814.74	3.298e-06	3.2671e-06	983.2	304.11	3.1953e-06	3.2341e-06	422.26	197.92	131.34	66.064	3.3224e-06	111.94	136.033	55.992	41.915	-41.332	107.550	90.175	-41.912	-36.629	62.691	81.894	-38.299	-34.053	-33.342	-28.319	96.543	-30.245	-8191	255	
1782.379	1	1	0	0	0.045095	0.22974	0.16937	0.16754	0.10299	0.047738	0.13953	0.067388	0.11372	0.16342	0.15618	0.088049	0.34666	0.12483	0.21667	0.17789	-4.7583	-4.125	-4.7792	-4.8667	-4.15	-5.0125	-4.6458	-4.4771	-5.1792	-4.2125	-4.8625	-5.0167	-4.0917	-5.0563	-4.6333	-4.5687	239.656	123.102	225.257	27.095	-49.867	163.403	253.955	256.540	14.492	-22.646	-41.155	113.950	230.348	246.919	47.016	170.510	0.00044296	0.0009409	0.00021746	844.44	5.6903e-06	9.8295e-06	1028.3	317.42	2.9714e-06	1.1619e-05	441.31	205.57	135.8	68.376	5.2998e-06	116.51	0.00034738	0.00029722	8.1632e-05	812.05	3.2974e-06	3.3267e-06	981.65	304.19	3.2984e-06	3.2221e-06	422.26	197.8	131	66.142	3.301e-06	112.38	127.421	35.503	21.751	-41.488	106.602	97.274	-41.990	-37.083	121.238	96.929	-37.902	-33.789	-33.125	-28.407	116.521	-30.003	-8191	255	
1782.475	1	1	0	0	0.018688	0.027736	0.22147	0.12487	0.15635	0.10799	0.24597	0.25683	0.080495	0.2844	0.10834	0.15574	0.16044	0.12514	0.044304	0.44431	-4.9875	-4.4604	-4.6188	-5.1104	-4.2729	-4.7729	-4.7729	-4.3896	-5.1729	-4.4062	-4.7063	-5.3396	-4.2146	-4.9812	-4.8	-4.2979	274.452	158.643	18.208	282.066	167.484	64.054	290.876	226.142	178.736	102.387	-23.775	221.328	9.930	242.668	207.400	277.729	0.00036848	0.00115	0.00013147	850.28	6.6072e-06	9.4297e-06	1030.1	318.33	5.7968e-06	4.4772e-06	442.67	205.25	136.13	68.523	1.8874e-06	117.35	0.0003414	0.00029918	8.3736e-05	812.36	3.2325e-06	3.2572e-06	982.91	304.59	3.1945e-06	3.2126e-06	422.97	198.6	131.46	66.335	3.2513e-06	112.69	141.788	26.187	31.672	-41.560	91.462	93.491	-41.939	-36.883	115.802	116.031	-38.170	-34.102	-33.288	-28.276	143.297	-30.100	-8191	255	
1782.596	1	1	0	0	0.14485	0.12088	0.07079	0.10269	0.18088	0.24267	0.27412	0.2287	0.097185	0.11211	0.081361	0.11312	0.15071	0.46256	0.10874	0.2148	-4.9125	-4.4104	-4.2625	-5.1896	-4.2875	-4.8438	-4.9313	-4.1604	-4.9083	-4.5229	-4.6042	-5.1667	-4.3458	-4.8562	-4.8458	-4.2562	103.087	35.337	235.326	56.709	58.439	185.587	299.962	282.424	209.328	182.903	70.218	209.276	45.106	263.130	146.366	277.764	0.00040241	0.00081087	0.00017543	853.31	4.5929e-06	6.1747e-06	1025.8	317.39	8.3057e-07	5.5e-06	442.5	204.69	135.79	68.639	2.1459e-06	116.41	0.00034451	0.00029343	8.6179e-05	812.9	3.2112e-06	3.2947e-06	978.47	304.36	3.2253e-06	3.2795e-06	421.57	197.5	131.03	66.181	3.3596e-06	111.96	134.655	3.817	66.709	-41.459	96.874	93.615	-42.001	-36.937	149.336	117.245	-37.948	-33.933	-33.153	-28.191	191.657	-30.148	-8191	255	
1782.692	1	1	0	0	0.15869	0.052323	0.15189	0.031904	0.13108	0.19345	0.017855	0.12408	0.39006	0.11554	0.090305	0.098119	0.066758	0.27763	0.11519	0.29633	-4.6687	-4.5792	-4.3604	-5.25	-4.2417	-4.6396	-5.0646	-4.2771	-4.9083	-4.7521	-4.3562	-5.275	-4.4521	-4.8083	-5.0708	-4.375	-3.219	70.417	231.433	-16.214	105.190	-40.245	-18.243	292.271	23.345	104.640	251.260	296.002	126.387	-23.160	29.648	285.503	0.00039791	0.00057059	0.00022278	850.1	6.0051e-06	4.7391e-06	1023.6	317.04	3.6272e-06	8.0568e-06	441.08	205.2	135.46	68.527	5.4646e-06	116.59	0.00034474	0.00029091	8.4338e-05	811.13	3.2293e-06	3.3004e-06	978.85	303.57	3.2737e-06	3.238e-06	421.54	197.41	131.16	66.152	3.3085e-06	111.92	129.546	33.534	31.793	-41.410	71.194	108.570	-41.668	-36.727	109.614	112.066	-38.189	-33.994	-33.092	-28.496	107.467	-30.142	-8191	255	
1782.788	1	1	0	0	0.070895	0.16264	0.28606	0.052318	0.12101	0.22896	0.12732	0.081994	0.1948	0.19376	0.24434	0.31326	0.20575	0.094006	0.083328	0.20968	-4.6312	-4.8833	-4.2458	-5.2854	-4.3292	-4.5958	-5.1333	-4.2479	-4.8542	-4.8417	-4.4708	-5.2896	-4.4667	-4.4938	-5.0917	-4.6042	-45.853	185.571	268.424	-24.228	301.915	-30.981	198.595	0.105	59.167	-31.129	283.908	-42.888	-54.115	200.742	279.608	194.785	0.00038153	0.00073569	0.00017932	848.05	5.496e-06	6.8277e-06	1023.9	315.92	2.933e-06	6.0747e-06	442.49	206.28	136.11	68.459	5.6265e-06	117.02	0.00034001	0.00030005	8.3576e-05	810.3	3.238e-06	3.3043e-06	978.03	303.18	3.2854e-06	3.2344e-06	422.46	197.97	131.3	66.252	3.2573e-06	112.24	136.577	42.052	33.914	-41.482	112.547	71.310	-42.101	-37.022	62.317	99.322	-38.032	-34.099	-33.382	-28.128	118.376	-30.006	-8191	255	
1782.884	1	1	0	0	0.21737	0.097342	0.23279	0.12125	0.13501	0.15192	0.19007	0.19227	0.25625	0.1028	0.12954	0.20111	0.16695	0.10639	0.076321	0.28209	-4.3938	-4.8729	-4.1792	-5.1667	-4.4771	-4.2854	-5.2729	-4.6417	-4.7375	-5.0437	-4.3854	-5.0583	-4.7542	-4.3729	-5.2917	-4.3688	-29.648	156.338	-26.336	205.846	-7.097	103.379	169.662	269.751	66.823	36.105	194.414	277.748	197.379	233.589	20.931	277.734	0.00041004	0.00099606	0.00021983	851.41	6.5956e-06	3.4871e-06	1020.9	315.48	4.6227e-06	7.6257e-06	442.64	205.97	136.31	68.709	7.2535e-06	116.81	0.00033986	0.0002976	8.6212e-05	810.88	3.1829e-06	3.2873e-06	977.62	303.87	3.3555e-06	3.2866e-06	422.94	198.26	131.68	66.383	3.3784e-06	112.43	143.030	39.475	42.772	-41.567	118.736	89.243	-41.875	-36.825	124.351	88.199	-37.760	-33.813	-33.065	-28.287	110.320	-30.017	-8191	255	
1782.980	1	1	0	0	0.11667	0.14687	0.235	0.25448	0.15111	0.08381	0.16488	0.26298	0.075168	0.080427	0.24299	0.17151	0.24626	0.24306	0.084213	0.14435	-4.2688	-4.9688	-4.0604	-5.0146	-4.7667	-4.3104	-5.1917	-4.5667	-4.5417	-5.15	-4.3646	-5.0021	-4.7063	-4.3292	-5.1896	-4.6354	184.607	101.814	50.729	256.908	284.630	70.492	239.801	219.111	298.410	119.085	-46.690	105.750	263.888	259.399	283.152	266.922	0.0004032	0.00087896	0.00018712	841.61	5.3127e-06	4.3196e-06	1021.5	317.84	2.2016e-06	6.9095e-06	438.99	205.1	135.53	68.315	3.8905e-06	116.22	0.0003418	0.00030129	8.5481e-05	808.69	3.2393e-06	3.394e-06	977.32	304.37	3.3067e-06	3.2701e-06	420.79	197.52	131.25	66.15	3.3136e-06	111.64	131.887	61.358	39.935	-41.392	75.321	85.980	-41.771	-36.888	98.654	93.645	-37.971	-34.235	-33.035	-28.303	91.619	-29.973	-8191	255	
1783.076	1	1	0	0	0.13461	0.12666	0.17048	0.090391	0.12285	0.1938	0.21123	0.23384	0.26487	0.29448	0.26699	0.21849	0.081914	0.23104	0.094637	0.14245	-4.1875	-5.0708	-4.2521	-4.8271	-4.675	-4.275	-5.2771	-4.5104	-4.3542	-5.1583	-4.2104	-4.7812	-5.1354	-4.4042	-5.0708	-4.8396	104.716	57.465	219.580	208.094	37.524	71.139	303.021	-52.521	-0.851	109.738	285.793	233.081	154.219	300.646	142.522	292.393	0.00035333	0.00085915	0.00020986	843.88	6.308e-06	2.0965e-06	1019.2	317.65	5.5879e-06	6.2263e-06	441.29	205.47	136.18	68.399	5.194e-06	116.6	0.00034507	0.00029887	8.2571e-05	805.94	3.2723e-06	3.3439e-06	974.52	304.22	3.3802e-06	3.2114e-06	421.24	197.51	131.73	66.171	3.2825e-06	111.84	127.105	-5.649	41.472	-41.353	132.137	122.190	-41.897	-36.838	58.881	72.310	-38.042	-34.007	-33.247	-28.363	94.405	-29.976	-8191	255	
1783.195	1	1	0	0	0.14688	0.1207	0.13464	0.36777	0.10561	0.17235	0.091186	0.15774	0.15112	0.19406	0.11841	0.3684	0.24087	0.33527	0.10077	0.20904	-4.0042	-5.1354	-4.3187	-4.7458	-4.8417	-4.1021	-5.0563	-4.7479	-4.2937	-5.1167	-4.4792	-4.6792	-5.1583	-4.1583	-4.8417	-4.9167	-37.939	141.432	-53.259	287.154	3.175	-1.160	-43.783	179.031	304.691	-31.491	270.539	303.823	113.395	-18.869	85.577	292.856	0.0004062	0.0010013	0.00013703	845.33	4.6319e-06	5.6664e-06	1023.3	316.93	5.0213e-06	8.9925e-06	441.61	206.42	136.93	68.621	8.7386e-08	116.75	0.00034938	0.00029272	8.2656e-05	806.69	3.2309e-06	3.2819e-06	976.69	303.98	3.4019e-06	3.2289e-06	422.37	198.18	131.95	66.305	3.3795e-06	112.27	131.608	17.211	53.955	-41.718	92.276	120.871	-42.153	-36.976	108.490	114.158	-37.801	-33.896	-32.989	-28.186	89.939	-30.191	-8191	255	
1783.291	1	1	0	0	0.11615	0.097095	0.16733	0.037627	0.067198	0.078607	0.20191	0.080841	0.012498	0.015839	0.15715	0.19724	0.069464	0.21677	0.14945	0.19988	-3.9437	-5.075	-4.1458	-4.6125	-5.0687	-4.2188	-4.9958	-4.9	-4.1417	-5.0604	-4.4667	-4.5	-5.0896	-4.3229	-4.7042	-5.1562	213.942	277.169	276.649	17.771	-18.024	94.166	225.310	248.871	-47.022	287.642	-14.882	-41.598	-30.677	275.904	296.588	254.560	0.00040063	0.0008734	0.0002183	844.88	3.8636e-06	7.088e-06	1021.3	316.76	4.8339e-06	3.7602e-06	444.05	205.77	135.64	68.648	5.0352e-06	116.67	0.00035536	0.00029619	8.2967e-05	805.21	3.2355e-06	3.2663e-06	977.98	304.15	3.3057e-06	3.2664e-06	422.7	198.16	131.4	66.323	3.3223e-06	112.13	130.609	-1.696	44.299	-41.587	65.865	112.310	-41.913	-36.895	65.230	49.411	-38.078	-34.157	-32.928	-28.163	96.255	-29.746	-8191	255	
1783.388	1	1	0	0	0.083026	0.059693	0.053006	0.1511	0.24013	0.28236	0.21482	0.045532	0.19048	0.31481	0.2511	0.19099	0.17581	0.18808	0.11734	0.25345	-4.1146	-5.1292	-4.5479	-4.3896	-5.05	-4.1917	-4.9	-4.9875	-4.1021	-5.1083	-4.6604	-4.3646	-5.3083	-4.4333	-4.5458	-5.1729	167.646	101.600	118.763	89.124	-11.477	51.554	258.973	141.466	12.710	96.191	293.273	294.498	203.273	287.905	264.300	249.616	0.00041933	0.00068213	0.00019594	844.25	5.4339e-06	5.6318e-06	1015.1	316.75	1.9596e-06	7.4954e-06	440.25	205.4	136.31	68.395	3.4979e-06	115.79	0.00035015	0.00029926	8.0525e-05	807.01	3.1881e-06	3.3165e-06	973.99	303.96	3.3715e-06	3.2507e-06	420.47	197.52	131.58	66.02	3.3962e-06	111.57	132.932	58.886	72.428	-41.344	91.171	77.725	-41.870	-36.840	89.091	118.157	-38.040	-34.173	-33.040	-28.207	144.027	-30.054	-8191	255	
1783.484	1	1	0	0	0.31583	0.048514	0.16304	0.19358	0.12842	0.053752	0.28114	0.1428	0.23702	0.096935	0.027676	0.1064	0.13289	0.122	0.25514	0.21116	-3.8833	-4.9708	-4.4938	-4.3646	-5.0875	-4.4083	-4.6333	-5.1146	-4.0833	-4.8792	-4.8208	-4.4042	-5.15	-4.2354	-4.4958	-5.2562	115.665	-16.031	-8.645	194.088	21.295	272.557	215.991	210.429	-53.563	160.046	0.545	23.570	-11.545	294.237	246.377	246.542	0.00040267	0.00092138	0.00012442	847	6.5327e-06	9.3706e-06	1016.9	316.47	1.9018e-06	6.1282e-06	441.15	205.82	136.29	68.802	7.5816e-06	116.17	0.00034376	0.00029386	8.1353e-05	806.57	3.216e-06	3.2918e-06	972.4	303.42	3.2659e-06	3.1919e-06	421.17	197.99	131.79	66.368	3.3834e-06	111.92	119.695	69.114	61.054	-41.888	86.900	87.628	-41.868	-36.726	99.400	100.246	-37.929	-33.774	-33.228	-28.120	96.674	-30.093	-8191	255	
1783.580	1	1	0	0	0.15771	0.059511	0.29223	0.10227	0.092467	0.16237	0.22277	0.19824	0.1853	0.18811	0.20745	0.10383	0.094866	0.12237	0.21303	0.12021	-3.7792	-4.7604	-4.9062	-4.3167	-5.0729	-4.4521	-4.7271	-5.2	-4.2583	-4.8063	-5.1083	-4.4146	-5.2396	-4.5479	-4.3542	-5.2979	-26.631	295.404	151.511	190.896	3.911	136.090	242.603	204.661	163.614	247.436	294.756	232.755	256.082	-20.383	129.137	273.268	0.0004082	0.00092076	0.00016756	837.39	7.811e-06	6.8823e-06	1015.8	317.71	6.0265e-06	5.7792e-06	442.03	205.19	136.52	68.503	2.9972e-06	116.64	0.00035212	0.00029774	8.3541e-05	801.43	3.2232e-06	3.3127e-06	973.74	304.17	3.3558e-06	3.343e-06	422.53	197.74	131.78	66.282	3.4041e-06	112.24	137.014	73.383	86.238	-41.720	94.472	91.801	-42.065	-36.674	90.742	68.319	-37.680	-33.965	-33.422	-28.146	95.401	-29.796	-8191	255	
1783.676	1	1	0	0	0.14792	0.16982	0.13758	0.27152	0.12733	0.037505	0.23132	0.20598	0.11662	0.075803	0.14288	0.094809	0.26688	0.34064	0.18509	0.034326	-3.9	-4.6687	-5.0333	-4.3812	-5.0646	-4.5646	-4.5042	-5.1479	-4.3979	-4.6792	-5.0417	-4.2729	-5.225	-4.8708	-4.1813	-5.2604	215.558	-28.290	32.092	290.746	83.958	175.273	295.515	163.613	290.934	78.573	217.444	-47.804	190.195	246.296	302.085	-28.297	0.00032041	0.00055458	0.00019109	844.21	2.7345e-06	6.7371e-06	1024.9	315.5	5.8322e-06	6.0521e-06	443.22	205.62	136.53	68.235	5.3978e-06	116.5	0.00034449	0.00030548	8.3433e-05	803.99	3.2422e-06	3.2422e-06	974.86	303.48	3.299e-06	3.3065e-06	423.28	198.13	131.77	66.071	3.4156e-06	112.06	135.346	60.123	15.139	-41.486	86.307	80.628	-41.998	-36.954	72.270	89.729	-37.908	-34.038	-33.111	-27.993	107.273	-29.935	-8191	255	
1783.772	1	1	0	0	0.14094	0.23164	0.21791	0.25059	0.14519	0.22516	0.11219	0.088241	0.057767	0.055157	0.26876	0.18177	0.13288	0.14152	0.090127	0.26368	-4.0646	-4.7396	-5.0437	-4.3167	-4.8792	-4.7542	-4.2979	-5.2375	-4.1229	-4.4854	-5.0813	-4.4083	-4.8167	-4.9396	-4.1542	-5.2208	137.719	98.741	143.808	200.815	292.184	75.495	197.083	264.291	-46.948	-43.503	274.243	264.679	291.549	27.333	208.327	243.628	0.0003683	0.00062142	0.00013912	839.42	4.9766e-06	6.4143e-06	1014.4	314.79	5.1207e-06	6.8158e-06	440.15	205.31	135.61	68.231	7.7152e-06	115.73	0.00034863	0.00030082	8.1509e-05	803.7	3.2624e-06	3.2258e-06	970.91	303.12	3.3058e-06	3.2509e-06	420.41	197.41	131.06	66.046	3.442e-06	111.65	127.200	13.959	49.117	-41.378	82.385	79.313	-41.829	-36.789	76.123	71.125	-37.969	-34.076	-33.127	-28.167	103.221	-30.005	-8191	255	
1783.893	1	1	0	0	0.082869	0.10128	0.077334	0.2101	0.051335	0.11334	0.21164	0.10386	0.076906	0.085679	0.18231	0.50226	0.18726	0.083527	0.048772	0.23315	-4.1708	-4.4313	-5.0729	-4.25	-4.7063	-4.8854	-4.2896	-5.2271	-4.5479	-4.3125	-5.2312	-4.3917	-4.7458	-5.0521	-4.2167	-5.1687	153.796	97.004	94.801	235.853	254.890	242.404	242.160	38.107	118.372	47.533	-47.837	261.310	264.262	239.197	259.500	251.584	0.00037062	0.00091429	0.00017988	842.99	5.3479e-06	4.9469e-06	1017.2	315.4	4.599e-06	6.3937e-06	439.67	204.9	135.24	68.401	3.1601e-06	116.24	0.00034183	0.00030268	8.2589e-05	803.5	3.352e-06	3.1412e-06	971.8	302.71	3.2961e-06	3.3129e-06	421.83	197.59	131.12	66.102	3.3707e-06	111.73	132.576	30.253	41.027	-41.339	92.244	105.670	-41.940	-36.934	75.999	96.361	-38.107	-33.830	-33.055	-27.898	89.847	-30.022	-8191	255	
1783.989	1	1	0	0	0.089672	0.26213	0.15726	0.10087	0.19959	0.30899	0.20161	0.27392	0.086268	0.35246	0.19968	0.29537	0.14222	0.21749	0.21969	0.1611	-4.3708	-4.2812	-5.1125	-4.5437	-4.5188	-4.9437	-4.4042	-5.0542	-4.6729	-4.2104	-5.3417	-4.3896	-4.575	-5.2604	-4.2833	-5.1333	70.025	-35.344	270.001	19.903	177.909	9.719	253.985	254.419	-25.393	69.145	192.280	291.158	63.576	233.348	265.428	228.388	0.0004226	0.00077288	0.0002403	836.23	8.4802e-06	6.7305e-06	1020.6	317.2	1.4032e-06	9.1461e-06	441.79	204.67	136.03	68.444	3.8911e-06	116.78	0.00034551	0.00030487	8.353e-05	801.91	3.327e-06	3.2537e-06	973.42	303.58	3.3041e-06	3.3602e-06	422.04	197.47	131.16	65.916	3.3926e-06	112.13	142.262	21.537	78.947	-41.447	102.020	101.643	-42.036	-36.963	116.009	75.191	-37.951	-33.710	-33.161	-28.134	121.523	-30.198	-8191	255	
1784.061	1	1	0	0	0.16324	0.19493	0.10175	0.19789	0.047057	0.16954	0.14656	0.04	0.099449	0.12557	0.17368	0.12623	0.058156	0.043189	0.10584	0.2084	-4.525	-4.1333	-4.8979	-4.525	-4.5437	-4.95	-4.4	-4.8688	-4.85	-4.0833	-5.1979	-4.5625	-4.4583	-5.1146	-4.1917	-4.8479	53.231	185.632	213.463	179.044	301.210	-22.295	247.424	236.086	35.351	-35.472	236.355	264.164	147.119	283.048	75.347	-14.528	0.00041149	0.0008498	0.00024075	842.66	6.8232e-06	7.829e-06	1019.1	315.8	6.1876e-06	1.0392e-05	444.54	206.75	135.9	68.225	4.4864e-06	116.45	0.00034206	0.00030053	8.3428e-05	804.65	3.3929e-06	3.2777e-06	973.81	303.7	3.3021e-06	3.3392e-06	423.51	198.39	131.19	65.944	3.3687e-06	111.89	132.273	46.496	69.759	-41.548	89.566	98.624	-41.743	-36.814	82.621	86.536	-38.104	-33.870	-32.863	-28.073	99.269	-29.922	-8191	255	
1784.157	1	1	0	0	0.26483	0.1701	0.08622	0.23129	0.045939	0.071963	0.037743	0.05596	0.17124	0.055363	0.067769	0.20688	0.052304	0.25777	0.11234	0.18693	-4.4958	-4.1396	-5.1937	-4.6271	-4.2625	-4.9812	-4.5083	-4.6417	-4.9375	-3.9458	-5.1188	-4.7625	-4.3021	-5.3125	-4.3479	-4.7458	192.121	-6.812	252.557	176.194	11.294	193.464	161.562	231.809	220.930	-47.112	259.891	2.335	248.796	263.138	191.271	241.523	0.00038762	0.0013075	0.00015142	842.27	7.3206e-06	4.2883e-06	1016.9	316.38	5.6656e-06	8.1931e-06	438.87	205.8	136.03	68.038	5.3174e-06	116.05	0.00034465	0.00030487	8.4126e-05	805.28	3.2765e-06	3.1931e-06	971.61	303.26	3.3151e-06	3.3151e-06	422.27	197.51	131.3	65.829	3.3035e-06	111.86	136.691	29.222	82.150	-41.279	81.808	73.691	-41.554	-37.011	112.857	125.393	-38.200	-33.929	-33.128	-28.278	94.446	-29.913	-8191	255	
1784.276	1	1	0	0	0.072137	0.092624	0.16516	0.20678	0.13531	0.084563	0.19683	0.024295	0.074809	0.19883	0.19062	0.13797	0.30732	0.12712	0.14738	0.40197	-4.8583	-4.3083	-4.875	-4.7854	-4.0729	-5.1208	-4.675	-4.4792	-5.0542	-4.1312	-4.9833	-4.8812	-4.2729	-5.1896	-4.4229	-4.6208	219.611	47.201	204.434	205.917	269.500	149.654	255.833	268.437	137.288	9.922	-15.338	274.638	289.730	-4.845	66.770	211.901	0.00042201	0.00032785	0.00012797	838.23	7.2087e-06	5.6903e-06	1013.2	316.64	2.9294e-06	6.1544e-06	443.49	205.84	136.28	67.963	3.823e-06	116.1	0.00034679	0.00030078	8.3246e-05	803.21	3.2897e-06	3.1299e-06	973.14	304.06	3.307e-06	3.2625e-06	423.54	197.79	131.37	65.753	3.2943e-06	111.7	135.169	-2.488	45.257	-41.456	102.524	121.485	-42.162	-37.004	67.383	94.346	-37.985	-33.876	-33.347	-28.255	91.401	-30.408	-8191	255	
1784.372	1	1	0	0	0.079638	0.098207	0.060163	0.19436	0.21727	0.20439	0.034892	0.19547	0.11816	0.091249	0.33291	0.2697	0.12468	0.26696	0.31612	0.14569	-4.8354	-4.1521	-4.7562	-4.85	-4.2188	-5.0479	-4.7438	-4.5625	-5.0625	-4.1937	-4.6479	-5.0312	-4.3042	-5.1188	-4.5854	-4.3667	121.034	290.902	274.237	-26.260	296.592	208.380	-47.325	-23.992	267.669	85.541	230.284	279.314	185.876	280.016	261.113	275.768	0.00039294	0.0011593	0.00025581	841.98	8.8079e-06	1.0323e-05	1019.2	315.91	3.7602e-06	6.6275e-06	442	206.72	135.35	68.258	3.416e-06	117.12	0.00034275	0.00029968	8.4203e-05	805.24	3.3073e-06	3.2783e-06	974.97	304.34	3.2372e-06	3.2899e-06	423.73	198.67	130.98	65.951	3.3287e-06	112.48	131.251	16.650	44.401	-41.298	50.104	104.826	-42.011	-36.874	140.562	118.365	-38.086	-34.033	-33.138	-28.277	89.086	-29.879	-8191	255	
1784.468	1	1	0	0	0.07077	0.10458	0.054738	0.24055	0.11512	0.074766	0.22425	0.22605	0.26374	0.065412	0.16633	0.17418	0.17195	0.061248	0.071115	0.4275	-4.75	-4.3313	-4.5583	-4.9458	-4.0208	-4.8438	-4.7917	-4.3458	-5.05	-4.2604	-4.7021	-5.0792	-4.2417	-5.0875	-4.7354	-4.4667	64.990	198.675	84.265	284.628	195.299	22.420	207.270	223.669	59.471	301.725	234.374	253.173	164.380	300.615	16.405	229.393	0.00038813	0.00080125	0.0002124	843.69	3.4132e-06	4.2471e-06	1026.3	316.88	2.5959e-06	6.9857e-06	445.39	207.41	136.36	68.419	6.6313e-06	117.18	0.00033809	0.00029639	8.4573e-05	806.15	3.2117e-06	3.2613e-06	978.67	305.2	3.2602e-06	3.2647e-06	425.17	199.34	131.89	66.088	3.2797e-06	112.46	129.627	33.058	53.155	-41.146	70.713	89.612	-41.591	-36.817	57.656	96.972	-37.810	-33.790	-33.154	-27.971	98.099	-30.000	-8191	255	
1784.564	1	1	0	0	0.17048	0.14842	0.1505	0.092293	0.11548	0.096843	0.13284	0.097021	0.034231	0.11773	0.17473	0.17118	0.15932	0.16366	0.13929	0.33056	-4.9021	-4.3438	-4.4375	-5.1083	-4.3271	-4.8875	-4.8958	-4.3521	-4.9854	-4.5813	-4.4938	-5.2604	-4.2562	-4.9542	-4.8063	-4.3354	-23.709	260.309	73.088	110.034	81.775	264.761	274.432	197.632	62.685	155.729	256.614	266.401	272.945	-12.768	124.095	205.277	0.00043088	0.00065046	0.00014636	844.22	5.8538e-06	3.821e-06	1022.9	317.63	6.0138e-06	9.0737e-06	443.4	205.6	136.35	68.262	5.6637e-06	116.96	0.00033941	0.00029628	8.4241e-05	805.65	3.2707e-06	3.2229e-06	977.97	304.83	3.3089e-06	3.311e-06	423.78	198.85	131.83	66.015	3.2521e-06	112.27	127.286	34.066	33.061	-41.220	78.208	100.053	-41.835	-36.830	62.631	81.630	-38.132	-33.791	-33.123	-28.181	82.103	-30.008	-8191	255	
1784.685	1	1	0	0	0.1242	0.06117	0.098587	0.12825	0.15149	0.021747	0.24456	0.13317	0.19353	0.048194	0.063189	0.063486	0.12899	0.36327	0.1443	0.19474	-4.8417	-4.5417	-4.375	-5.2854	-4.1104	-4.6479	-5.2167	-4.2354	-4.7937	-4.7542	-4.4187	-5.1229	-4.4625	-4.6771	-5.0062	-4.3292	-5.096	-5.462	119.946	276.565	3.248	6.698	169.636	230.225	251.460	255.008	188.154	245.385	296.765	267.341	216.010	255.017	0.00043821	0.00092779	0.0001427	845.73	1.7799e-06	5.2077e-06	1021.1	318.18	6.9112e-06	8.3493e-06	446.16	206.63	136.33	68.211	6.1405e-06	116.63	0.00034398	0.00029558	8.411e-05	807.71	3.2202e-06	3.1932e-06	974.73	304.77	3.2867e-06	3.1194e-06	424.44	199.28	131.61	65.951	3.2948e-06	112.35	133.094	12.586	9.548	-41.331	77.195	82.776	-41.710	-36.838	73.269	83.627	-38.177	-34.043	-33.061	-28.134	104.527	-30.063	-8191	255	
1784.756	1	1	0	0	0.28538	0.14874	0.088694	0.13357	0.081989	0.028849	0.20065	0.27487	0.25175	0.037313	0.11813	0.31822	0.1241	0.054611	0.15441	0.2217	-4.7125	-4.6646	-4.2521	-5.1854	-4.3187	-4.5062	-5.2125	-4.1438	-4.75	-4.7375	-4.3104	-5.2333	-4.4542	-4.6104	-5.1167	-4.4792	199.265	93.052	105.673	118.448	236.922	123.718	271.465	240.619	275.570	222.790	240.982	-47.920	111.104	251.862	2.442	267.869	0.00037343	0.00089059	0.00023129	844.84	5.0512e-06	4.4382e-06	1018.4	317.31	3.7749e-06	6.4808e-06	443.84	207.74	136.2	68.561	3.5524e-06	117.18	0.00034088	0.00028754	8.386e-05	807.2	3.211e-06	3.2238e-06	973.22	304.47	3.2645e-06	3.1825e-06	423.81	199.94	131.44	66.094	3.3229e-06	112.74	129.154	54.656	28.257	-41.261	97.080	109.147	-42.081	-36.674	92.743	81.337	-38.318	-33.924	-33.047	-28.107	109.346	-29.921	-8191	255	
1784.877	1	1	0	0	0.035663	0.054541	0.21662	0.054019	0.094427	0.20766	0.12353	0.15981	0.28775	0.12031	0.13666	0.19051	0.1653	0.24951	0.2235	0.053161	-4.4646	-4.8625	-4.0521	-5.1125	-4.5167	-4.3562	-5.1521	-4.3833	-4.6375	-4.9542	-4.3063	-5.3063	-4.6896	-4.425	-5.1521	-4.6396	7.115	-0.465	-21.112	38.465	14.371	190.155	176.213	16.106	97.252	256.861	279.614	282.780	282.221	253.096	267.181	-25.144	0.00039978	0.00089699	0.00023382	841.64	2.2793e-06	5.6224e-06	1024.4	315.91	6.8691e-06	5.7574e-06	442.6	207.24	135.23	67.647	8.3947e-06	117.16	0.00034208	0.00029034	8.2843e-05	804.94	3.2003e-06	3.319e-06	978.11	303.8	3.3271e-06	3.201e-06	423.35	199.68	131.1	65.749	3.3026e-06	112.44	131.221	41.679	33.320	-41.620	129.005	86.312	-41.728	-36.926	101.006	69.797	-38.010	-33.943	-32.752	-28.214	106.429	-29.692	-8191	255	
1784.973	1	1	0	0	0.05395	0.17724	0.12706	0.09561	0.13867	0.10747	0.18703	0.219	0.17296	0.07725	0.11077	0.12228	0.12822	0.31034	0.094829	0.26033	-4.4292	-5.0271	-4.2458	-4.9167	-4.6625	-4.3396	-5.1333	-4.4458	-4.5104	-5.0729	-4.3354	-5.1417	-4.7979	-4.5687	-5.0479	-4.6625	303.032	60.722	205.562	192.409	159.993	12.492	-48.579	280.738	-2.669	178.154	216.918	264.412	209.138	-37.765	153.578	189.889	0.00037679	0.00075339	0.00017382	843.24	8.4355e-06	7.1835e-06	1017.5	315.55	1.8286e-06	5.5444e-06	443.29	206.94	135.7	67.987	9.1306e-06	116.64	0.00034302	0.00029587	8.2315e-05	805.4	3.2132e-06	3.2277e-06	974.07	302.77	3.2945e-06	3.1715e-06	423.34	198.96	130.75	65.679	3.2947e-06	112.42	129.012	28.682	34.125	-41.500	91.734	84.044	-41.572	-36.713	105.186	115.683	-37.913	-33.984	-32.701	-28.274	99.549	-30.029	-8191	255	
1785.069	1	1	0	0	0.17605	0.10506	0.072554	0.20687	0.022691	0.26287	0.21309	0.12804	0.040427	0.031749	0.18793	0.23506	0.13083	0.1813	0.1494	0.0913	-4.2208	-5.0312	-4.0104	-4.9437	-4.6104	-4.2583	-5.0375	-4.6375	-4.3771	-5.1312	-4.3146	-4.8792	-4.95	-4.3146	-4.9917	-4.6458	298.636	120.434	67.013	8.525	279.478	-16.095	294.201	246.096	121.515	-27.813	301.259	257.357	244.164	-46.324	234.767	82.751	0.00040136	0.00090072	0.00010225	845.07	4.76e-06	7.8451e-06	1015.3	315.01	2.0303e-06	5.743e-06	443.49	206.72	135.34	67.934	7.6502e-06	117.38	0.00034038	0.00028408	8.1704e-05	803.97	3.1769e-06	3.2649e-06	971.39	303.01	3.3048e-06	3.1825e-06	423.1	199.19	130.93	65.705	3.3288e-06	112.63	139.405	31.522	31.999	-41.171	104.694	60.958	-42.042	-37.031	109.015	68.735	-37.897	-34.083	-33.141	-28.294	108.122	-30.063	-8191	255	
1785.165	1	1	0	0	0.14015	0.025768	0.36459	0.37696	0.020224	0.11317	0.14188	0.30356	0.27623	0.10511	0.1753	0.27234	0.16	0.27314	0.11214	0.19393	-4.1146	-4.9938	-3.9833	-4.7562	-4.8583	-4.1062	-5.2271	-4.6708	-4.2854	-5.1521	-4.3812	-4.7146	-5.0958	-4.2729	-4.9917	-4.8458	-18.168	172.805	136.075	304.240	2.530	195.735	-53.921	-12.956	-14.486	284.931	-11.639	297.161	239.745	257.791	-4.255	203.028	0.00039501	0.0012522	0.00016609	845.2	2.4317e-06	6.7702e-06	1022.1	315.24	3.1989e-06	5.5044e-06	442.82	207.9	135.33	67.934	5.8994e-06	117.45	0.00033877	0.00029851	8.1723e-05	803.56	3.1946e-06	3.2182e-06	976.07	302.34	3.3359e-06	3.1624e-06	422.59	199.52	130.68	65.548	3.2367e-06	112.98	135.836	30.945	25.859	-41.712	110.044	101.660	-42.116	-36.875	116.999	99.101	-37.832	-34.139	-33.290	-28.260	105.778	-30.074	-8191	255	
1785.284	1	1	0	0	0.13046	0.068717	0.075899	0.099754	0.12897	0.093656	0.11871	0.10479	0.26308	0.19419	0.20784	0.18462	0.1612	0.22104	0.065254	0.30374	-4.0833	-5.1208	-4.4563	-4.7042	-4.9354	-4.1667	-5.1271	-4.825	-4.2229	-5.1854	-4.5208	-4.5771	-5.1854	-4.2937	-4.7854	-5.0979	-13.798	110.099	190.516	12.103	267.793	81.326	-41.230	121.499	105.410	53.619	283.378	231.075	258.082	239.493	-43.885	-49.188	0.00042186	0.00040958	0.00012894	844.21	3.496e-06	4.6337e-06	1019.3	313.48	6.0154e-06	4.0276e-06	442.26	206.02	134.48	67.526	7.7133e-06	116.37	0.0003462	0.00029623	8.1451e-05	803.4	3.2e-06	3.2176e-06	974.22	301.74	3.2646e-06	3.2517e-06	421.1	198.36	129.96	65.334	3.3359e-06	111.83	136.209	26.236	78.189	-41.568	97.681	86.285	-42.133	-36.800	118.926	89.366	-38.290	-34.122	-33.202	-28.215	104.683	-29.791	-8191	255	
1785.356	1	1	0	0	0.22953	0.07849	0.13267	0.19279	0.088069	0.20417	0.15188	0.092645	0.19788	0.091651	0.10032	0.10821	0.097259	0.28884	0.070997	0.033986	-3.9667	-5.1562	-4.5771	-4.5396	-5.0958	-4.2083	-4.6917	-4.9375	-4.1146	-4.8521	-4.5604	-4.5354	-5.2771	-4.4167	-4.5708	-5.3042	17.867	-21.353	81.316	68.364	-3.117	163.083	237.668	93.964	132.031	1.142	195.049	22.225	77.950	-14.917	163.137	188.461	0.00040708	0.0010052	0.00018331	832.33	5.7264e-06	4.6504e-06	1015	313.74	4.3624e-06	7.171e-06	437.92	205.08	134.16	67.393	4.8062e-06	116.48	0.00035147	0.00029513	8.1571e-05	799.91	3.2511e-06	3.2694e-06	969.58	301.39	3.3384e-06	3.2678e-06	419.29	197.46	129.64	65.313	3.3857e-06	111.87	130.465	13.991	45.427	-41.674	100.121	81.724	-41.954	-36.708	81.342	104.426	-38.252	-34.043	-32.872	-27.895	123.325	-30.009	-8191	255	
1785.452	1	1	0	0	0.1643	0.16438	0.11848	0.10012	0.19181	0.11153	0.22223	0.23984	0.039652	0.046156	0.17447	0.28899	0.2962	0.13345	0.16361	0.17575	-3.8354	-5.0417	-4.7125	-4.3146	-5.1542	-4.2833	-4.8646	-5.1875	-4.0417	-4.8562	-4.8604	-4.4417	-5.1667	-4.6917	-4.3438	-5.3542	174.962	200.493	191.598	82.155	45.596	79.393	199.256	-17.173	71.917	168.378	258.663	-14.101	300.585	212.169	125.851	220.045	0.00041341	0.00099914	0.00013954	840.28	4.4844e-06	5.1056e-06	1017.3	314.64	5.3874e-06	7.1609e-06	438.65	205.42	134.53	67.39	8.2885e-06	116.43	0.0003422	0.00029618	8.0477e-05	801.46	3.1729e-06	3.277e-06	970.3	301.45	3.3388e-06	3.2561e-06	419.78	197.55	129.88	65.192	3.3778e-06	111.92	128.655	34.332	48.623	-41.508	51.589	103.433	-42.116	-36.761	114.257	91.742	-38.079	-34.175	-33.105	-28.248	96.442	-29.966	-8191	255	
1785.548	1	1	0	0	0.01061	0.15758	0.054363	0.087772	0.17099	0.11111	0.25028	0.097954	0.1637	0.047607	0.13976	0.11193	0.16154	0.1974	0.053544	0.14634	-3.8208	-4.7896	-4.7562	-4.3229	-4.9354	-4.5021	-4.6042	-5.2312	-4.1729	-4.675	-5.0146	-4.4104	-5.1229	-4.5729	-4.3021	-5.0687	162.583	-0.893	167.301	9.878	11.749	142.532	287.897	12.632	127.319	105.062	287.727	-49.173	258.978	-46.245	284.910	218.428	0.00038644	0.0015318	0.00016606	836.6	2.7454e-06	4.1514e-06	1013.4	314.65	5.7676e-06	6.9925e-06	439.86	204.59	134.06	67.479	3.2138e-06	116.34	0.00034434	0.00029858	8.1602e-05	798.21	3.2459e-06	3.2491e-06	968.7	301.33	3.3457e-06	3.2929e-06	420.89	197.62	129.49	65.204	3.39e-06	112.1	130.807	47.170	54.459	-41.502	117.400	35.655	-41.820	-37.134	46.437	107.960	-37.816	-34.063	-33.098	-28.313	53.517	-29.871	-8191	255	
1785.669	1	1	0	0	0.0020432	0.25956	0.21882	0.20396	0.21366	0.19677	0.03547	0.21451	0.13954	0.087329	0.17343	0.22201	0.017081	0.16509	0.081945	0.039531	-4.0917	-4.5229	-4.8375	-4.0458	-5.1458	-4.6583	-4.5708	-5.3083	-4.2396	-4.7396	-5.1833	-4.2771	-5.0896	-5.0188	-4.2625	-5.4542	180.000	35.489	29.358	18.087	201.886	47.531	-2.531	-16.905	255.631	-24.333	291.662	269.265	284.344	222.513	170.906	175.535	0.00043286	0.00069235	0.00017878	841.41	3.9773e-06	5.4141e-06	1012.4	313.54	4.0192e-06	5.888e-07	439.49	204.65	133.97	67.153	5.3846e-06	115.85	0.00034338	0.00030667	8.2064e-05	800.3	3.2438e-06	3.3126e-06	969.76	300.58	3.3552e-06	3.3651e-06	420.11	197.11	129.35	64.893	3.4458e-06	111.58	131.863	49.692	51.504	-41.512	63.823	87.045	-41.992	-36.780	62.635	-53.209	-38.100	-33.753	-33.242	-28.147	79.764	-29.903	-8191	255	
1785.765	1	1	0	0	0.073153	0.066548	0.25882	0.086266	0.30478	0.16824	0.25104	0.18543	0.24397	0.12812	0.11889	0.18922	0.10342	0.22283	0.30887	0.13887	-4.0375	-4.5333	-4.9187	-4.2333	-4.8729	-4.7958	-4.3479	-5.1583	-4.4417	-4.5583	-4.9583	-4.2417	-5.0708	-4.9271	-4.1167	-5.2458	-12.929	230.815	80.002	208.928	-32.394	75.475	152.133	-39.662	-16.562	253.005	298.337	289.908	286.401	273.612	3.478	233.953	0.00037991	0.00054179	0.00023481	837.62	4.7329e-06	5.8322e-06	1013.6	312.58	4.4138e-06	6.6204e-06	439.74	203.74	133.99	66.719	8.5257e-06	115.55	0.00034262	0.00030017	8.1418e-05	800.79	3.2573e-06	3.2379e-06	969.54	300.01	3.2721e-06	3.305e-06	419.61	196.38	129.52	64.791	3.3643e-06	111.42	130.289	62.995	37.896	-41.128	101.109	129.142	-42.096	-37.128	57.990	91.183	-38.061	-34.154	-33.478	-27.978	77.377	-29.732	-8191	255	
1785.861	1	1	0	0	0.22809	0.15785	0.10386	0.20125	0.13255	0.10936	0.10918	0.15657	0.19155	0.12842	0.067318	0.20907	0.12114	0.16299	0.099159	0.087578	-4.0667	-4.425	-5.1021	-4.2438	-5.0396	-4.8271	-4.4417	-5.0354	-4.5104	-4.1917	-5.15	-4.4417	-4.8104	-5.175	-4.0813	-5.2125	261.538	-49.749	144.865	274.210	191.205	-19.925	275.286	120.734	160.477	302.073	233.999	262.717	14.756	195.568	214.281	5.603	0.00044687	0.00094965	0.00019843	836.9	7.0097e-06	6.6307e-06	1008.3	313.71	4.0088e-06	6.1957e-06	440.78	204.02	133.59	66.823	5.1811e-06	115.76	0.00035197	0.0003067	8.4882e-05	798.15	3.3227e-06	3.2494e-06	969.88	300.76	3.2774e-06	3.2741e-06	420.33	196.71	129.27	64.681	3.4389e-06	111.3	134.175	39.322	67.016	-41.785	94.484	109.366	-41.746	-36.857	89.490	77.058	-37.926	-33.861	-33.307	-27.940	139.491	-29.972	-8191	255	
1785.957	1	1	0	0	0.16293	0.32344	0.033862	0.066147	0.17876	0.09875	0.056714	0.057816	0.066306	0.17808	0.24404	0.03951	0.094619	0.048726	0.081197	0.28357	-4.3	-4.3729	-4.9792	-4.3958	-4.675	-4.8604	-4.2542	-5.2354	-4.5521	-4.325	-5.2521	-4.5479	-4.8167	-5.1354	-4.1083	-4.8792	16.355	113.629	-29.962	213.799	140.569	27.914	154.519	28.181	281.125	168.556	279.280	7.925	28.546	106.057	105.746	228.691	0.00035257	0.00068498	0.00021924	839.22	5.4122e-06	4.2781e-06	1017.1	312.47	2.9078e-06	7.4721e-06	443.17	204.21	133.73	67.197	1.543e-06	116.33	0.00034254	0.00030137	8.1835e-05	800.36	3.3301e-06	3.2337e-06	971.79	300.4	3.2662e-06	3.31e-06	421.76	197.1	129.41	64.92	3.382e-06	111.78	131.067	61.946	63.295	-41.584	78.603	102.654	-41.805	-36.482	104.009	139.099	-37.867	-34.142	-33.148	-28.273	64.510	-30.034	-8191	255	
1786.052	1	1	0	0	0.23705	0.19781	0.22734	0.099654	0.14666	0.22226	0.18427	0.23898	0.11545	0.12997	0.27546	0.13696	0.25503	0.17796	0.12129	0.1253	-4.5896	-4.2625	-5.2583	-4.5813	-4.4958	-4.9917	-4.4167	-4.9625	-4.7542	-4.2958	-5.2292	-4.5146	-4.6	-5.1438	-4.0646	-4.9437	40.899	72.302	107.214	150.503	173.840	246.856	190.124	228.353	75.777	31.801	221.223	18.726	-41.036	-12.930	88.801	219.425	0.00038501	0.0010787	9.2522e-05	840.02	7.8465e-06	6.8448e-06	1017.4	313.91	1.4177e-06	5.1018e-06	441.7	205.11	134.66	67.196	5.1595e-06	116.22	0.00035093	0.0003096	8.4139e-05	801	3.2803e-06	3.2431e-06	972.33	301.1	3.3069e-06	3.3075e-06	421.75	197.65	129.77	65.003	3.3177e-06	111.48	132.916	6.924	26.055	-41.214	87.722	76.264	-41.935	-37.026	96.296	90.121	-37.948	-33.703	-33.448	-28.007	87.567	-30.277	-8191	255	
1786.148	1	1	0	0	0.22701	0.19852	0.17171	0.024594	0.12087	0.1184	0.22402	0.1032	0.047121	0.10133	0.15442	0.12024	0.11397	0.098601	0.22212	0.034043	-4.5375	-4.0167	-5.025	-4.6	-4.3479	-5.1208	-4.3521	-4.7125	-4.75	-4.1917	-5.0729	-4.5958	-4.1521	-5.3187	-4.1979	-4.7792	186.694	101.046	216.156	278.956	290.272	-10.983	266.892	16.937	-23.260	129.583	285.964	194.217	-33.166	212.964	152.505	133.431	0.00041608	0.00098052	0.00010845	841.95	6.3878e-06	5.4868e-06	1012.7	314.2	3.4228e-06	7.0654e-06	442.41	204.45	134.58	66.855	5.581e-06	116.06	0.00034005	0.00030874	8.5481e-05	801.99	3.4036e-06	3.2085e-06	969.31	301.48	3.2487e-06	3.335e-06	421.74	197.09	129.99	64.919	3.3907e-06	111.44	138.707	19.751	59.791	-41.499	74.413	94.650	-41.545	-36.785	78.473	129.652	-37.834	-33.852	-33.282	-28.114	45.085	-30.089	-8191	255	
1786.269	1	1	0	0	0.13575	0.15608	0.16648	0.21041	0.094301	0.062468	0.19209	0.22916	0.20826	0.21143	0.10347	0.26092	0.17782	0.34374	0.097747	0.27222	-4.6854	-4.15	-4.8583	-4.7708	-4.0896	-5.1646	-4.4521	-4.6604	-5.075	-4.1667	-5.0042	-5.0167	-4.2583	-5.175	-4.4938	-4.5917	208.517	93.453	83.625	104.409	-45.162	51.949	167.064	264.885	-37.585	55.076	92.866	259.304	-51.975	-54.781	-24.051	254.618	0.00035488	0.00073695	0.00024972	837.21	7.9322e-06	3.4098e-06	1011.7	314.42	3.4594e-06	7.7604e-06	441.83	205.99	134.64	67.146	4.2119e-06	116.72	0.00034496	0.0003033	8.4218e-05	798.52	3.3463e-06	3.2436e-06	968.92	301.18	3.2962e-06	3.2624e-06	422.53	197.77	130.06	65.116	3.4221e-06	111.92	127.193	33.344	54.597	-41.496	88.665	100.902	-42.026	-36.972	85.536	77.259	-37.867	-33.660	-33.329	-28.395	102.735	-30.045	-8191	255	
1786.365	1	1	0	0	0.10582	0.052697	0.20618	0.13729	0.13553	0.070248	0.2022	0.22762	0.11325	0.19737	0.33185	0.16143	0.33359	0.061328	0.15208	0.23793	-4.7896	-4.2708	-4.9167	-4.9938	-4.0854	-5.0917	-4.7063	-4.5375	-5.0958	-4.1917	-5.0083	-5.0875	-4.375	-5.1813	-4.6396	-4.4729	151.323	293.115	251.942	224.946	199.088	41.314	-33.419	-6.677	280.958	209.278	219.714	242.875	302.705	239.930	220.762	270.688	0.00042969	0.00061598	0.0001478	834.57	5.2231e-06	4.5704e-06	1015.1	314.16	2.2563e-06	7.1396e-06	445.03	205.82	135	67.719	3.5122e-06	116.65	0.00034678	0.00030855	8.4824e-05	797.7	3.3848e-06	3.2771e-06	968.98	301.8	3.2762e-06	3.2868e-06	424.31	198.54	130.26	65.492	3.3024e-06	112.29	132.387	54.813	41.487	-41.449	70.722	111.977	-41.816	-36.909	44.888	48.884	-38.098	-34.219	-32.979	-28.364	128.566	-30.054	-8191	255	
1786.461	1	1	0	0	0.055951	0.10424	0.079089	0.22067	0.098075	0.22854	0.19034	0.31826	0.2307	0.20418	0.2478	0.32323	0.083806	0.042496	0.087138	0.15698	-4.7875	-4.2542	-4.7375	-4.9896	-4.2479	-4.975	-4.8438	-4.3688	-5.1792	-4.4375	-4.6375	-5.3562	-4.2688	-4.9646	-4.7688	-4.4375	89.470	231.353	-50.775	249.571	28.388	58.074	222.916	243.914	161.433	74.936	287.241	-46.657	95.916	28.831	57.175	141.878	0.00043874	0.00042958	0.00017347	836.53	9.0217e-06	4.1579e-06	1018.1	313.53	3.8817e-06	8.3794e-06	441.34	205.59	135.31	67.312	7.2285e-06	116.31	0.00034019	0.00029989	8.3931e-05	797.53	3.3016e-06	3.2442e-06	969.43	300.96	3.3021e-06	3.2694e-06	422.32	197.96	130.48	65.244	3.3469e-06	111.6	136.211	47.833	43.607	-41.403	101.775	121.999	-41.684	-36.875	112.841	115.456	-38.126	-33.707	-33.165	-28.129	115.009	-30.020	-8191	255	
1786.557	1	1	0	0	0.19446	0.10841	0.13326	0.11864	0.10328	0.15491	0.1686	0.078027	0.13137	0.22579	0.12197	0.12847	0.088322	0.39727	0.22689	0.16892	-4.8812	-4.3979	-4.3333	-5.2146	-4.1625	-4.6937	-5.0979	-4.3313	-5.0354	-4.4313	-4.4875	-5.2396	-4.2292	-4.6875	-4.8708	-4.4292	231.530	248.797	304.271	-25.289	-19.712	269.414	243.467	282.464	-34.531	125.420	100.538	258.203	283.689	295.916	190.269	223.427	0.00041952	0.00094064	0.00012708	829.96	3.2574e-06	7.7017e-06	1009.8	314.49	5.1765e-06	9.2215e-06	440.9	204.55	133.7	67.415	3.6189e-06	116.26	0.00034524	0.00029485	8.2965e-05	796.75	3.3145e-06	3.2582e-06	964.73	301.31	3.2549e-06	3.2616e-06	421.94	197.32	129.96	65.221	3.2886e-06	111.58	136.436	38.351	41.433	-41.152	80.487	106.190	-41.589	-37.338	106.190	91.341	-38.246	-33.832	-33.319	-28.201	113.415	-30.217	-8191	255	
1786.651	1	1	0	0	0.26057	0.18999	0.25162	0.042243	0.18522	0.085837	0.35834	0.020096	0.178	0.098037	0.15188	0.042525	0.19889	0.12664	0.08786	0.22897	-4.6833	-4.5125	-4.4187	-5.0125	-4.225	-4.7521	-5.0417	-4.1396	-4.975	-4.7812	-4.4375	-5.3146	-4.3167	-4.7917	-4.9313	-4.3229	108.371	96.885	106.155	262.738	224.275	229.126	241.225	-54.665	10.040	252.860	231.212	-46.420	248.340	300.297	39.669	250.631	0.00045626	0.0008386	0.00018463	830.51	4.7522e-06	6.7518e-06	1011.4	313.92	4.5863e-06	6.7336e-06	441.68	206.04	134.99	67.404	2.7111e-06	116.66	0.00034041	0.00029996	8.2672e-05	797.17	3.2188e-06	3.2691e-06	966.79	301.06	3.3206e-06	3.2254e-06	422.68	198.3	130.24	65.283	3.3322e-06	111.97	134.755	51.375	92.350	-41.747	51.611	94.774	-41.816	-37.059	80.216	115.344	-38.049	-34.089	-33.390	-28.234	53.578	-30.027	-8191	255	
1786.748	1	1	0	0	0.044728	0.11895	0.097221	0.076211	0.2185	0.098322	0.26102	0.12379	0.24514	0.1649	0.10853	0.16337	0.18021	0.12525	0.041804	0.11832	-4.825	-4.6417	-4.1479	-5.0625	-4.1125	-4.3667	-5.1604	-4.2917	-4.8625	-4.7312	-4.4563	-5.2063	-4.4875	-4.7583	-5.1604	-4.3604	250.110	116.722	87.337	281.521	-9.085	74.874	-49.720	253.504	48.563	96.485	295.001	273.586	-39.675	292.873	247.807	-20.008	0.00043148	0.00086975	0.00014711	829.94	3.0967e-06	7.2048e-06	1011.5	313.18	4.1619e-06	3.9843e-06	441.25	205.43	135.09	67.783	4.0205e-06	116.35	0.00034576	0.00029261	8.4515e-05	795.6	3.2878e-06	3.2681e-06	968.17	301.25	3.2549e-06	3.1826e-06	422.33	198.03	130.03	65.169	3.3139e-06	112.06	131.500	58.438	30.049	-41.458	51.364	90.847	-41.793	-37.149	94.908	105.429	-38.044	-34.117	-33.402	-28.408	99.167	-30.116	-8191	255	
1786.844	1	1	0	0	0.19914	0.039817	0.2534	0.12326	0.13844	0.36498	0.080829	0.19683	0.33726	0.15286	0.14155	0.3872	0.11384	0.17124	0.2333	0.25384	-4.6708	-4.9292	-4.375	-5.2188	-4.5833	-4.4229	-5.3979	-4.1854	-4.75	-4.8917	-4.4458	-5.2729	-4.6083	-4.425	-5.1167	-4.3083	248.115	200.540	104.663	137.398	-3.597	14.636	125.805	293.694	-1.077	260.026	-21.803	285.006	32.661	267.470	303.813	271.620	0.00036428	0.00045629	0.00011416	830.18	5.8835e-06	9.2381e-06	1010.2	314.64	5.5143e-06	5.1978e-06	442.77	204.94	134.09	67.265	6.0575e-06	115.9	0.00034073	0.00029489	8.3441e-05	794.32	3.2547e-06	3.2492e-06	966.85	301.22	3.2554e-06	3.2185e-06	421.99	197.16	129.75	64.871	3.309e-06	111.36	133.678	10.127	70.598	-41.362	72.729	67.010	-41.618	-37.009	92.437	106.622	-37.996	-33.907	-33.069	-28.186	122.889	-29.954	-8191	255	
1786.964	1	1	0	0	0.079546	0.078657	0.21856	0.063656	0.11532	0.17752	0.11208	0.20154	0.12069	0.075833	0.19347	0.1894	0.13017	0.10275	0.11735	0.053615	-4.4812	-4.8938	-3.9917	-5.1229	-4.5896	-4.3729	-5.2979	-4.4979	-4.9083	-5.0146	-4.4792	-5.2146	-4.8458	-4.4854	-5.1667	-4.5083	46.470	274.263	190.956	29.829	99.267	-35.944	201.890	193.006	221.551	-16.925	-48.371	298.248	218.047	64.744	193.168	227.560	0.00035951	0.00061206	0.00022551	832.32	8.1384e-06	9.6015e-06	1008.7	312.67	3.8798e-06	6.6535e-06	442.36	204.55	134.4	67.549	4.853e-06	116.4	0.00034245	0.00029816	8.3009e-05	795.94	3.1873e-06	3.309e-06	967.1	300.35	3.323e-06	3.2632e-06	421.84	197.31	129.77	65.044	3.3207e-06	111.7	126.838	37.991	48.594	-41.380	132.796	104.399	-41.959	-36.867	96.135	92.576	-38.233	-33.902	-32.944	-28.256	101.645	-30.019	-8191	255	
1787.060	1	1	0	0	0.16562	0.1313	0.10812	0.10194	0.1372	0.071528	0.095884	0.085927	0.066794	0.038233	0.17	0.29422	0.23142	0.094063	0.17327	0.082035	-4.2	-5.0563	-4.1229	-5	-4.8146	-4.3854	-5.3562	-4.4542	-4.45	-5.0875	-4.4187	-4.9896	-4.8896	-4.3646	-5.1312	-4.8333	96.966	31.119	60.334	89.719	157.809	220.846	205.199	84.963	-37.580	79.010	34.431	249.973	223.003	-44.210	161.558	-54.591	0.0004131	0.00052204	7.1198e-05	830.42	2.7924e-06	1.0967e-05	1012.1	314.6	4.2543e-06	5.137e-06	442.47	204.35	134.12	66.809	7.1678e-06	115.98	0.00034589	0.00029486	8.2728e-05	796.56	3.2352e-06	3.1985e-06	967.99	301.56	3.3369e-06	3.2461e-06	422.48	197.08	129.61	64.747	3.3672e-06	111.5	132.795	64.660	82.993	-41.469	112.987	95.530	-41.657	-36.979	115.984	129.367	-37.998	-33.883	-33.075	-28.239	81.642	-30.087	-8191	255	
1787.157	1	1	0	0	0.20491	0.047716	0.020149	0.31756	0.070272	0.091184	0.18242	0.16071	0.18043	0.12748	0.026416	0.25681	0.35386	0.13948	0.17953	0.20286	-4.0104	-5.0312	-4.1458	-4.8271	-4.9292	-4.2333	-5.2729	-4.7167	-4.3021	-5.175	-4.4229	-5.0021	-5.0687	-4.1813	-4.925	-4.7854	130.499	127.398	84.115	273.926	198.842	111.259	56.960	130.147	141.940	132.053	66.308	249.545	-46.017	-33.323	217.232	290.349	0.00043463	0.00086409	0.00017324	834.61	6.7918e-06	4.3834e-06	1014.3	312.81	3.5541e-06	3.8679e-06	445.08	206.07	133.65	67.009	3.5855e-06	116.39	0.00035046	0.00029751	8.2049e-05	796.58	3.1639e-06	3.3229e-06	970.68	301.26	3.3722e-06	3.2335e-06	423.42	197.81	129.49	64.833	3.3509e-06	111.71	136.068	22.823	14.023	-41.424	111.326	100.850	-41.711	-36.942	116.638	115.604	-37.814	-33.856	-33.065	-28.145	34.946	-29.816	-8191	255	
1787.228	1	1	0	0	0.16953	0.18793	0.048916	0.32802	0.33436	0.11524	0.093898	0.049532	0.17049	0.2322	0.098768	0.18288	0.26659	0.17007	0.19045	0.23574	-3.8396	-5.0729	-4.2396	-4.5458	-4.8542	-4.2354	-5.0021	-4.9354	-4.3688	-5.1021	-4.4625	-4.7646	-5.2396	-4.3896	-4.7354	-5.0208	141.123	82.534	149.064	-49.014	258.558	62.864	223.962	244.904	166.867	-37.797	64.809	-1.171	228.539	288.153	116.053	294.192	0.00039283	0.00093614	0.00013565	837.17	5.3925e-06	5.736e-06	1011.8	314.02	3.7695e-06	7.397e-06	442.74	206.24	134.16	67.176	2.1626e-06	116.37	0.00034714	0.00029089	8.3011e-05	798.07	3.2103e-06	3.2459e-06	967.65	301.31	3.3541e-06	3.2594e-06	422.63	198.31	129.65	64.869	3.2934e-06	111.74	134.587	24.882	33.044	-41.358	70.120	78.997	-41.879	-36.695	82.134	121.833	-37.923	-34.324	-32.727	-28.071	82.090	-29.805	-8191	255	
1787.349	1	1	0	0	0.22115	0.178	0.26391	0.11701	0.19923	0.039414	0.31772	0.21532	0.099007	0.1555	0.13972	0.36223	0.097411	0.14273	0.085371	0.17493	-3.9354	-5.0271	-4.4938	-4.5042	-4.8313	-4.1083	-4.6958	-4.95	-4.0625	-5.1625	-4.6771	-4.6354	-5.1188	-4.2479	-4.7729	-5.1854	50.645	231.724	-40.508	161.761	286.886	-23.885	258.604	-4.586	55.311	26.352	50.636	298.169	267.034	-31.954	85.058	279.567	0.00041794	0.001042	0.0002076	836.06	5.4015e-06	6.491e-06	1010.3	315.01	5.5736e-06	4.2216e-06	441.97	205.41	135.39	67.535	2.922e-06	115.64	0.00035179	0.0002983	8.2622e-05	796.84	3.152e-06	3.2863e-06	966.8	301.8	3.408e-06	3.224e-06	422.78	198.3	130.33	65.05	3.418e-06	111.64	128.853	74.620	26.065	-41.443	111.542	87.615	-41.954	-37.019	87.671	69.350	-38.056	-34.107	-33.136	-28.066	121.264	-29.837	-8191	255	
1787.445	1	1	0	0	0.13518	0.075105	0.21491	0.16721	0.095687	0.016808	0.18395	0.14564	0.20542	0.12071	0.11043	0.25814	0.021341	0.1873	0.16831	0.33683	-3.9479	-5.075	-4.6896	-4.3479	-5.1271	-4.1917	-4.7667	-5.1125	-4.1937	-4.9146	-4.8521	-4.3958	-5.2042	-4.4604	-4.5062	-5.2396	113.816	160.735	100.143	271.532	9.326	47.742	-15.775	287.969	160.036	81.208	296.435	266.637	148.588	-35.283	107.708	209.591	0.00038847	0.00080045	0.00023305	831.47	2.4651e-06	3.6507e-06	1013.8	315.27	5.0023e-06	9.5103e-06	444.28	206.23	135.26	67.608	7.0437e-06	116.74	0.00034408	0.00029787	7.9507e-05	794.69	3.2229e-06	3.2096e-06	968.41	302.1	3.3054e-06	3.2575e-06	424.41	198.63	130.56	65.244	3.3157e-06	112.11	137.284	47.370	19.593	-41.306	104.646	66.840	-41.922	-36.680	73.107	79.316	-37.861	-33.899	-32.753	-27.948	133.684	-29.815	-8191	255	
1787.541	1	1	0	0	0.10817	0.19959	0.21972	0.13403	0.064947	0.11299	0.17886	0.16603	0.092261	0.15602	0.12097	0.28601	0.19924	0.28022	0.12978	0.09124	-3.8521	-4.7583	-4.8313	-4.2667	-4.9896	-4.4625	-4.6021	-5.0979	-4.2458	-4.9563	-5.025	-4.3521	-5.3438	-4.8167	-4.4938	-5.2562	252.432	82.259	92.213	188.043	226.923	224.540	-20.104	294.357	-23.599	77.398	275.876	-50.110	226.358	233.625	42.142	250.735	0.0004118	0.00065015	0.00017089	829.62	7.2426e-06	7.2381e-06	1015.5	315.31	3.9306e-06	6.2097e-06	445.02	208.06	135.69	67.695	5.7024e-06	116.49	0.00034592	0.0002936	7.9224e-05	793.17	3.2484e-06	3.2559e-06	970.34	302.03	3.3443e-06	3.2316e-06	425.5	199.83	131.22	65.404	3.4193e-06	112.2	137.948	62.363	37.354	-41.278	97.715	64.283	-41.851	-36.625	70.690	89.125	-37.493	-33.590	-32.824	-27.896	92.829	-29.376	-8191	255	
1787.637	1	1	0	0	0.12342	0.017001	0.17671	0.3151	0.040817	0.073737	0.15402	0.076315	0.046373	0.1262	0.33041	0.11126	0.10482	0.087829	0.13399	0.21643	-4.0229	-4.8	-4.8333	-4.3167	-5.0125	-4.5375	-4.5229	-5.2458	-4.1833	-4.6458	-4.8854	-4.2979	-5.2021	-4.7125	-4.1021	-5.2083	136.800	7.478	72.975	-22.515	156.251	248.697	209.055	222.895	194.872	288.965	283.698	-47.884	-7.489	268.751	141.748	-28.326	0.00036926	0.00070181	0.00023542	828.47	5.6282e-06	7.5278e-06	1014.5	315.55	7.0676e-06	1.0338e-05	442.62	206.37	134.67	67.305	4.8012e-06	116.34	0.00034762	0.00029735	8.1087e-05	793.94	3.2262e-06	3.1079e-06	968.71	302.11	3.2177e-06	3.2587e-06	424.16	198.9	130.41	65.116	3.2574e-06	111.78	134.568	36.853	66.377	-41.310	88.013	97.550	-41.619	-36.687	79.837	87.279	-37.324	-33.793	-32.841	-28.043	64.101	-29.737	-8191	255	
1787.756	1	1	0	0	0.24606	0.11882	0.097218	0.16195	0.035675	0.090282	0.19753	0.29211	0.062136	0.11221	0.051999	0.10192	0.11107	0.31667	0.088241	0.32567	-3.8833	-4.5917	-4.9583	-4.2646	-4.7896	-4.6646	-4.4187	-5.3771	-4.3875	-4.4917	-5.1604	-4.3125	-4.9667	-4.9896	-4.2042	-5.3083	-45.244	9.964	-1.218	-36.587	2.133	276.650	192.231	220.308	134.107	290.978	180.405	-27.861	256.233	203.070	182.863	230.213	0.00042008	0.00088798	0.00022569	831.27	5.3568e-06	5.0115e-06	1012.6	313.99	4.5935e-06	5.76e-06	442.51	206.87	134.91	67.683	2.7322e-06	117.15	0.00034208	0.00029657	8.0217e-05	794.17	3.1515e-06	3.1661e-06	965.29	300.96	3.1987e-06	3.2431e-06	423.45	199.14	130.78	65.355	3.3796e-06	112.37	124.036	32.956	37.987	-41.182	81.077	88.074	-41.588	-36.584	94.849	86.924	-37.810	-33.614	-32.820	-27.846	120.078	-29.663	-8191	255	
1787.852	1	1	0	0	0.15621	0.105	0.24277	0.15435	0.042502	0.11819	0.14203	0.13109	0.11973	0.058131	0.024219	0.21999	0.1363	0.16174	0.29392	0.14259	-4.025	-4.525	-5.0229	-4.3875	-4.7104	-4.8104	-4.3812	-5.1667	-4.4708	-4.3417	-5.1354	-4.4333	-4.6792	-4.9708	-4.3063	-5.2417	100.027	-44.406	21.214	289.246	90.621	-9.094	265.500	182.701	-28.623	296.489	95.989	257.094	238.319	290.289	83.789	-50.328	0.00037942	0.00054703	0.00012447	827.71	7.1706e-06	6.8338e-06	1011.9	314.95	4.8702e-06	6.1303e-06	443.71	207.44	135.72	67.717	7.6382e-06	117.51	0.00033132	0.00029409	8.0942e-05	793.43	3.2246e-06	3.1034e-06	966.31	302.23	3.2725e-06	3.2679e-06	424.62	199.71	130.89	65.391	3.3191e-06	112.78	134.179	-41.289	37.686	-40.968	95.898	81.454	-41.497	-36.711	92.635	126.753	-37.422	-33.514	-32.926	-27.742	125.887	-29.502	-8191	255	
1787.949	1	1	0	0	0.2718	0.092989	0.075575	0.17271	0.26179	0.22822	0.10574	0.20084	0.096051	0.019377	0.22182	0.13867	0.087382	0.16724	0.13907	0.3036	-4.3708	-4.275	-4.9833	-4.3771	-4.8208	-5.0708	-4.2583	-5.1583	-4.7229	-4.1438	-5.2562	-4.4458	-4.8146	-5.175	-4.175	-5.1646	-41.958	106.840	75.628	-32.531	253.625	1.234	277.841	260.721	18.172	30.476	251.640	-34.399	14.274	-16.647	281.546	257.906	0.00039482	0.00011549	0.00021542	829.74	4.291e-06	6.9735e-06	1010.9	313.93	2.6743e-06	4.5226e-06	444.97	206.49	134.4	67.125	3.33e-06	116.76	0.00034273	0.00029682	8.0038e-05	792.54	3.225e-06	3.1262e-06	967.15	301.14	3.2437e-06	3.2527e-06	423.93	198.95	129.72	64.882	3.4099e-06	112.01	130.939	129.584	39.236	-41.225	95.569	88.217	-41.464	-36.472	47.474	53.236	-37.505	-33.448	-32.680	-27.832	120.557	-29.570	-8191	255	
1788.045	1	1	0	0	0.14619	0.18089	0.23927	0.14167	0.19551	0.040437	0.24242	0.17663	0.18997	0.097131	0.05891	0.16483	0.075373	0.23688	0.017901	0.25423	-4.3521	-4.2	-5.1708	-4.5667	-4.4417	-5.1458	-4.375	-4.8458	-4.8333	-4.2208	-5.1604	-4.4625	-4.575	-5.2583	-4.2875	-4.9354	43.673	231.919	220.129	-37.947	228.629	168.904	219.920	2.631	159.996	31.801	226.925	-43.607	295.940	-15.585	242.708	266.992	0.00040397	0.00037066	0.00015423	835.42	8.1776e-06	7.3054e-06	1011.1	313.7	2.904e-06	5.2807e-06	440.15	205.37	133.7	66.555	6.7347e-06	115.87	0.00034374	0.00030273	8.2882e-05	793.07	3.2735e-06	3.1955e-06	965.42	300.23	3.3021e-06	3.3071e-06	420.1	197.83	129.09	64.42	3.3094e-06	111.43	128.362	64.512	45.553	-41.160	107.538	78.940	-41.425	-36.528	103.686	96.886	-37.716	-33.478	-33.061	-27.637	106.276	-29.614	-8191	255	
1788.141	1	1	0	0	0.10717	0.16618	0.1904	0.19649	0.29952	0.12937	0.18426	0.22619	0.078847	0.14802	0.26539	0.12505	0.42678	0.20809	0.12131	0.1323	-4.4979	-4.2917	-5.0062	-4.6771	-4.4833	-5.0938	-4.3104	-4.6104	-4.8417	-4.1333	-5.2146	-4.7167	-4.4437	-5.3333	-4.2083	-4.7688	25.548	-21.172	175.143	234.032	110.033	163.212	210.505	212.035	22.943	224.051	-42.860	133.486	263.330	242.578	197.455	185.385	0.0003764	0.00085302	0.00015534	826.28	6.0903e-06	6.3381e-06	1010.2	312.36	5.8618e-06	5.5623e-06	439.15	205.71	133.27	66.581	7.9946e-06	116.13	0.00033754	0.00030313	8.0919e-05	792.17	3.3089e-06	3.2304e-06	965.49	299.39	3.2222e-06	3.2993e-06	420.54	197.75	128.83	64.349	3.3821e-06	111.58	129.787	30.151	-8.091	-40.743	108.778	101.668	-41.253	-36.583	152.231	86.726	-37.654	-33.411	-32.642	-28.084	119.248	-29.682	-8191	255	
1788.237	1	1	0	0	0.25245	0.083751	0.3609	0.059594	0.21521	0.16114	0.082476	0.088259	0.098109	0.27188	0.29131	0.053664	0.098919	0.035508	0.12194	0.1435	-4.6188	-4.1937	-4.8063	-4.9375	-4.2542	-5.2562	-4.5417	-4.625	-5.1479	-3.8958	-4.8917	-4.9271	-4.3792	-5.2729	-4.5042	-4.7146	49.371	0.367	289.848	253.286	74.974	151.175	27.451	135.835	37.826	-7.078	-52.573	20.763	250.794	-12.286	197.386	257.776	0.00036076	0.00094815	0.00021655	831.5	6.2772e-06	5.5489e-06	1012.2	311.56	5.2995e-06	4.8801e-06	441.69	205.86	132.07	66.385	4.7859e-06	116.7	0.00034132	0.00029786	8.3815e-05	794.43	3.2732e-06	3.2079e-06	965.15	298.86	3.2387e-06	3.2691e-06	420.21	198	128.16	64.127	3.2735e-06	111.9	121.853	43.054	38.777	-40.827	111.083	118.071	-41.181	-36.611	88.008	80.214	-37.560	-33.572	-32.861	-27.648	105.581	-29.717	-8191	255	
1788.358	1	1	0	0	0.12413	0.11094	0.017487	0.13728	0.1806	0.11908	0.24682	0.12075	0.20279	0.1707	0.24272	0.17926	0.17205	0.41368	0.35975	0.34544	-4.7083	-4.2729	-4.8979	-4.9021	-4.2479	-5.0875	-4.7354	-4.4479	-5.1729	-4.3063	-5.1333	-5.0188	-4.3604	-5.1354	-4.4604	-4.5125	268.717	144.722	117.467	121.742	164.186	63.450	240.417	227.690	223.490	219.545	301.969	208.601	286.119	277.450	89.774	254.001	0.0004332	0.00092649	0.00025465	834.26	7.0879e-06	4.7235e-06	1018.3	311.35	5.1289e-06	7.0887e-06	439.66	204.67	132.81	66.096	5.7002e-06	116.02	0.00034195	0.00029868	8.3003e-05	793.67	3.2818e-06	3.2339e-06	969.28	298.4	3.3385e-06	3.3192e-06	419.21	196.97	128.01	63.903	3.3244e-06	111.29	125.480	20.201	22.248	-41.042	83.597	83.927	-41.404	-36.549	73.433	121.847	-37.565	-33.199	-32.605	-27.409	61.824	-29.368	-8191	255	
1788.452	1	1	0	0	0.056457	0.045046	0.14126	0.14615	0.16233	0.19232	0.31181	0.07377	0.054344	0.075105	0.022876	0.25722	0.069896	0.26864	0.10992	0.16689	-4.8979	-4.2417	-4.7917	-5.1125	-4.1062	-5.1521	-4.8979	-4.1792	-5.275	-4.2979	-4.6604	-5.2292	-4.3146	-5.0604	-4.6562	-4.3979	62.172	120.129	-17.559	257.267	271.899	226.944	188.053	-18.231	53.295	-39.680	178.744	-50.071	260.316	301.631	202.675	300.459	0.0004199	0.0009118	0.00012657	830.95	3.637e-06	9.0141e-06	1010.3	309.39	4.7233e-06	3.0048e-06	436.81	204.01	132.36	66.116	6.7587e-06	116.1	0.00034033	0.00029306	8.2059e-05	794.68	3.3504e-06	3.2566e-06	964.42	297.47	3.2491e-06	3.2237e-06	418.23	196.39	127.53	63.827	3.2586e-06	111.29	129.127	38.250	62.507	-40.666	117.162	114.578	-41.358	-36.466	88.684	56.236	-37.539	-33.443	-32.839	-27.347	124.726	-29.837	-8191	255	
1788.525	1	1	0	0	0.13871	0.071621	0.10159	0.02083	0.075676	0.16546	0.26357	0.2598	0.18473	0.096493	0.17395	0.27304	0.21598	0.085573	0.25147	0.29255	-4.8771	-4.4646	-4.6	-5.1021	-4.1229	-5.1021	-5.0062	-4.2979	-5.0208	-4.4146	-4.6646	-5.1479	-4.3292	-4.9688	-4.8875	-4.3979	124.106	-36.581	18.591	285.291	43.064	275.824	222.883	231.068	10.531	111.313	217.715	237.366	138.697	-9.383	62.455	254.603	0.00044931	0.00089171	0.00019691	829.13	7.6308e-06	7.214e-06	1003	310.77	7.7013e-06	6.1663e-06	438.28	205.47	132.91	66.86	4.5944e-06	116.02	0.0003438	0.00029783	8.2876e-05	790.77	3.2259e-06	3.2819e-06	962.06	297.68	3.3383e-06	3.2143e-06	418.52	197.68	127.89	64.261	3.2654e-06	111.63	120.467	49.329	51.258	-40.830	109.588	81.000	-41.260	-36.281	79.419	82.656	-37.807	-33.341	-32.532	-27.739	102.849	-29.457	-8191	255	
1788.646	1	1	0	0	0.18894	0.095113	0.087601	0.30168	0.25256	0.036689	0.26315	0.19547	0.058059	0.12349	0.21957	0.16069	0.070726	0.21411	0.19173	0.15387	-4.7083	-4.5062	-4.2396	-5.2063	-4.0729	-4.7562	-5.0396	-4.3208	-5.2229	-4.6542	-4.5542	-5.15	-4.4625	-4.9021	-5.0375	-4.4125	75.533	186.656	156.001	264.702	193.759	180.031	173.715	287.807	-45.057	-39.678	204.726	-16.320	-3.798	-21.500	204.829	255.144	0.00041033	0.00068559	8.6423e-05	826.58	5.3421e-06	6.8554e-06	1011	309.95	4.6081e-06	6.0122e-06	438.77	204.56	132.36	66.109	5.6204e-06	115.76	0.00034676	0.00029043	8.2759e-05	790.86	3.3087e-06	3.189e-06	964.04	297.29	3.2551e-06	3.2321e-06	419.85	197.17	127.56	63.881	3.258e-06	111.5	130.809	34.781	9.280	-40.545	108.908	93.896	-41.476	-36.479	63.531	109.859	-37.248	-33.027	-32.559	-27.681	114.497	-29.475	-8191	255	
1788.741	1	1	0	0	0.10243	0.023173	0.062911	0.071473	0.14792	0.21192	0.25917	0.23168	0.20603	0.073099	0.10179	0.31623	0.18987	0.23362	0.1158	0.11017	-4.7812	-4.7375	-4.2229	-5.0271	-4.2521	-4.6229	-5.2708	-4.2458	-4.8271	-4.8208	-4.5062	-5.3167	-4.3875	-4.7021	-5.0813	-4.5208	212.098	201.437	168.029	23.622	95.403	-28.260	266.407	259.131	232.600	80.017	-10.125	297.268	80.258	148.832	139.052	7.071	0.0003992	0.00076826	0.00015506	826.24	6.9164e-06	5.8594e-06	1004.5	308.21	5.596e-06	6.0284e-06	440.16	204.13	131.48	66.081	4.5822e-06	115.41	0.00034563	0.00028812	8.467e-05	789.61	3.2349e-06	3.3231e-06	962.08	296.56	3.2857e-06	3.2013e-06	418.26	196.77	127.11	63.7	3.2455e-06	110.92	126.320	24.065	30.307	-40.620	69.854	87.444	-41.111	-36.196	91.518	116.143	-37.237	-33.186	-32.244	-27.557	127.576	-29.233	-8191	255	
1788.837	1	1	0	0	0.076377	0.089542	0.21424	0.20386	0.13068	0.15451	0.096839	0.25302	0.083848	0.1469	0.21387	0.25014	0.022342	0.15992	0.1888	0.2146	-4.5375	-4.6979	-4.3562	-5.1937	-4.4313	-4.3625	-5.1667	-4.4646	-4.7104	-4.8458	-4.2312	-5.3375	-4.7146	-4.3917	-5.0354	-4.4313	39.766	85.171	189.531	-26.412	105.110	-11.193	-7.288	260.536	237.846	139.894	-49.761	62.109	61.576	-22.263	-52.385	300.186	0.0004492	0.00099351	0.00019554	827.66	3.405e-06	7.8642e-06	1007.9	308.46	4.1515e-06	9.265e-06	435.97	203.95	132.53	66.223	3.8158e-06	116.4	0.00033607	0.00027983	8.3266e-05	788.7	3.1578e-06	3.2246e-06	960.12	295.96	3.2418e-06	3.1329e-06	417.81	196.69	127.48	63.896	3.2187e-06	111.33	134.757	33.642	33.520	-40.609	117.550	110.701	-41.182	-36.332	76.552	108.121	-37.343	-33.313	-32.388	-27.753	141.710	-29.294	-8191	255	
1788.933	1	1	0	0	0.11283	0.067348	0.14923	0.23977	0.1653	0.15291	0.22688	0.12212	0.28666	0.032764	0.32166	0.095008	0.1685	0.21737	0.095416	0.03312	-4.5437	-5.0042	-4.1542	-5.2562	-4.7583	-4.3479	-5.3187	-4.3833	-4.4437	-5.0271	-4.4167	-5.0375	-4.8083	-4.4688	-5.0021	-4.5687	172.110	84.238	128.473	299.010	2.680	108.650	229.431	175.309	-6.362	129.362	-48.111	274.748	242.294	211.573	207.054	231.614	0.00045231	0.00068223	0.00014518	827.16	7.1538e-06	4.8365e-06	1001	309.6	4.3119e-06	6.7498e-06	438.92	204.9	132.93	66.137	5.5169e-06	116.42	0.00034095	0.00029316	8.2822e-05	789.36	3.155e-06	3.2348e-06	960.58	296.86	3.2143e-06	3.2029e-06	418.26	197.52	127.87	64.015	3.3737e-06	111.49	130.852	50.963	29.769	-40.552	73.170	66.796	-41.142	-36.316	86.407	94.520	-37.313	-33.317	-32.151	-27.468	115.152	-29.136	-8191	255	
1789.053	1	1	0	0	0.20134	0.18085	0.16961	0.16785	0.0088186	0.21541	0.18749	0.19317	0.17666	0.25503	0.14306	0.25679	0.34041	0.34015	0.059038	0.055426	-4.1708	-4.9333	-4.0792	-5.0646	-4.6229	-4.2833	-5.0875	-4.5604	-4.4542	-5.0437	-4.2937	-4.95	-4.8938	-4.3833	-5.1562	-4.5021	219.743	111.209	201.119	268.592	294.535	56.883	285.818	61.133	-49.400	19.959	268.828	298.153	295.837	-41.693	-45.148	272.801	0.00040616	0.00044387	0.00017053	827.55	2.979e-06	5.5713e-06	1010.6	310.22	4.1322e-06	6.6941e-06	440.11	205.51	132.42	66.092	4.8185e-06	116.38	0.00034454	0.00029127	8.3217e-05	791.48	3.1814e-06	3.2587e-06	964.67	297.15	3.2877e-06	3.1937e-06	419.57	197.07	127.51	63.746	3.3352e-06	111.67	129.344	38.629	41.176	-40.620	78.008	60.207	-40.847	-35.987	108.217	94.175	-37.202	-33.084	-32.405	-27.422	103.268	-29.165	-8191	255	
1789.150	1	1	0	0	0.18687	0.12003	0.082461	0.2439	0.25166	0.20077	0.2197	0.12317	0.091814	0.39976	0.20723	0.36978	0.20597	0.21895	0.21114	0.26048	-4.1021	-5.1583	-4.0729	-4.775	-4.8625	-4.1479	-5.1917	-4.7625	-4.2979	-5.0854	-4.4104	-4.7146	-4.9646	-4.5563	-5.0396	-4.6667	269.526	184.684	278.903	-42.726	98.197	215.902	289.165	160.638	131.143	290.019	-14.249	266.538	287.256	-53.363	230.006	255.495	0.00045027	0.00080365	0.00013021	825.82	7.9931e-06	7.8358e-06	1011.3	311.06	6.0132e-06	6.7776e-06	436.3	205.7	132.75	66.302	8.4021e-06	115.76	0.00034556	0.00029649	8.2633e-05	789.24	3.2325e-06	3.3013e-06	964.48	297.85	3.2577e-06	3.1728e-06	418.58	197.78	127.82	63.839	3.3007e-06	111.34	135.548	42.990	22.089	-40.612	102.012	130.803	-41.143	-35.982	84.941	112.103	-36.837	-33.536	-32.141	-27.598	92.032	-29.164	-8191	255	
1789.221	1	1	0	0	0.12914	0.18988	0.12627	0.17133	0.18114	0.086801	0.2302	0.2645	0.09005	0.042928	0.17176	0.19651	0.20739	0.34463	0.091587	0.26282	-3.9062	-5.0021	-4.2521	-4.6625	-4.8354	-4.0542	-5.125	-4.7229	-4.4021	-5.2396	-4.4062	-4.6062	-5.0771	-4.3792	-4.7146	-4.9062	-33.625	191.092	-53.065	183.119	66.798	-17.527	225.695	243.751	240.030	-32.249	-51.595	286.578	287.225	279.587	84.215	188.997	0.00035363	0.00079605	0.00012059	827.07	7.8449e-06	6.5018e-06	1003.5	309.64	4.0605e-06	7.2557e-06	438.45	205.66	132.31	66	2.7726e-06	116.03	0.00034694	0.00029373	7.9179e-05	787.62	3.1138e-06	3.2045e-06	961.43	297.2	3.3127e-06	3.2129e-06	419	197.72	127.85	63.841	3.3444e-06	111.45	132.878	39.236	34.716	-40.741	97.799	91.457	-41.200	-36.053	100.482	93.052	-37.209	-33.360	-32.408	-27.631	156.578	-29.054	-8191	255	
1789.317	1	1	0	0	0.09392	0.042106	0.091998	0.38438	0.11997	0.13104	0.32194	0.23774	0.18283	0.13445	0.30148	0.1538	0.075686	0.22305	0.024832	0.12581	-4.0458	-5.2625	-4.4542	-4.4708	-4.9354	-4.2458	-5.0833	-5.0687	-4.0646	-5.1125	-4.6479	-4.4458	-5.2063	-4.4688	-4.8042	-5.0188	146.837	185.572	158.077	260.096	26.978	246.878	239.526	298.491	68.343	265.998	254.382	-24.092	290.629	290.937	22.663	196.449	0.00036603	0.0010827	0.00011782	829.38	5.6873e-06	4.8276e-06	1007.4	309.82	4.8853e-06	6.7757e-06	439.96	204.31	132.04	65.683	6.4119e-06	115.89	0.00034385	0.00029167	8.0821e-05	789.68	3.1878e-06	3.1628e-06	963.77	297.07	3.3546e-06	3.1735e-06	419.26	196.48	127.29	63.599	3.3195e-06	111.18	140.098	58.675	30.319	-40.622	101.731	130.163	-40.901	-36.261	78.666	84.311	-37.469	-33.069	-32.375	-27.515	60.324	-29.234	-8191	255	
1789.438	1	1	0	0	0.064518	0.060636	0.1269	0.13164	0.12886	0.18618	0.16613	0.19592	0.14385	0.15414	0.12738	0.14842	0.35704	0.30371	0.14036	0.10774	-3.8896	-5.1354	-4.675	-4.375	-5.0292	-4.2708	-4.8583	-5.1896	-4.1833	-4.9208	-4.8729	-4.4708	-5.2021	-4.4479	-4.5729	-5.2312	148.116	77.809	221.290	203.385	110.344	27.475	222.077	147.766	302.661	14.406	-40.839	239.948	258.340	223.220	46.864	33.819	0.00042159	0.00093693	0.00016224	828.04	4.676e-06	8.7388e-06	1008.2	310.76	2.4858e-06	5.7085e-06	438.28	205.28	132.79	65.816	6.3534e-06	116.44	0.00034375	0.00029889	8.1127e-05	790.97	3.2275e-06	3.2453e-06	962.48	297.49	3.2729e-06	3.2153e-06	420.22	197.62	127.87	63.701	3.3745e-06	111.88	127.219	44.618	63.698	-40.475	103.856	88.142	-40.801	-36.001	150.295	102.523	-37.058	-33.269	-32.357	-27.752	92.762	-29.188	-8191	255	
1789.534	1	1	0	0	0.20904	0.3467	0.086018	0.30987	0.20352	0.30832	0.38941	0.14162	0.1918	0.27772	0.20338	0.085281	0.23228	0.18056	0.1165	0.2685	-3.7875	-4.9542	-4.6312	-4.3417	-4.9896	-4.4042	-4.5292	-5.0521	-4.0167	-4.8104	-4.8771	-4.4271	-5.2896	-4.5687	-4.4083	-5.1083	206.638	205.250	170.644	14.082	139.242	117.644	222.143	-21.836	264.247	-17.823	13.652	245.916	-31.263	265.254	-29.607	216.033	0.00040227	0.00094035	0.0001941	826.66	3.5597e-06	5.3364e-06	1007.4	309.9	7.8314e-06	7.7237e-06	440.74	203.84	133.14	66.112	3.2343e-06	115.5	0.00034335	0.00029574	8.0626e-05	787.81	3.1828e-06	3.2035e-06	961.55	297.33	3.2716e-06	3.1965e-06	420.47	197.03	128.05	63.882	3.3603e-06	111.28	131.026	50.264	63.798	-41.120	124.750	119.457	-40.996	-36.057	98.109	108.385	-37.410	-33.166	-32.088	-27.514	119.305	-29.136	-8191	255	
1789.630	1	1	0	0	0.038593	0.052457	0.076793	0.087243	0.22794	0.039681	0.14959	0.13237	0.169	0.20938	0.043817	0.11442	0.075847	0.28318	0.27367	0.26704	-3.9729	-4.7125	-5.1146	-4.3146	-4.9479	-4.5687	-4.4771	-5.15	-4.0958	-4.7958	-5.0813	-4.3042	-5.1479	-4.7833	-4.3083	-5.2917	249.095	-47.703	285.891	263.408	-5.935	75.999	252.107	110.898	72.690	167.706	122.709	291.596	270.940	278.714	136.662	215.550	0.00042205	0.00095642	0.00019316	826.4	4.6461e-06	5.6828e-06	1007.6	309.36	3.7253e-06	8.4639e-06	437.66	205.2	132.63	66.487	3.0856e-06	115.55	0.00034442	0.00028841	8.175e-05	786.75	3.1424e-06	3.1012e-06	960.86	297.07	3.3045e-06	3.2781e-06	419.37	196.99	127.97	63.897	3.3442e-06	111.13	134.845	41.634	35.757	-40.894	92.656	86.547	-41.127	-36.073	99.818	83.473	-36.997	-33.126	-32.230	-27.516	85.758	-29.041	-8191	255	
1789.749	1	1	0	0	0.12349	0.16615	0.15846	0.1236	0.08487	0.18146	0.17667	0.24093	0.15166	0.17843	0.072873	0.2862	0.18317	0.24979	0.13168	0.34699	-3.9562	-4.6687	-4.8	-4.2542	-4.9354	-4.4167	-4.2937	-5.3104	-4.3646	-4.5625	-5.2271	-4.2875	-5.0813	-4.9542	-4.2146	-5.3917	251.859	271.651	140.588	214.755	87.781	5.727	149.091	261.170	-45.425	161.886	-22.306	-50.537	190.522	261.756	63.167	248.655	0.00036245	0.00063787	0.00014034	819	2.6439e-06	6.014e-06	1004.2	309.76	4.5173e-06	8.3504e-06	440.07	204.66	132.23	66.285	6.6161e-06	115.81	0.00034128	0.00029976	8.1391e-05	786.72	3.1474e-06	3.1435e-06	958.28	296.58	3.2357e-06	3.2393e-06	419.83	197.2	127.65	63.907	3.4261e-06	111.46	140.014	17.610	26.156	-40.475	116.860	85.676	-41.013	-36.176	91.757	93.492	-36.863	-33.196	-32.428	-27.367	99.542	-28.977	-8191	255	
#DATA ENDS
