BOXY.EXE: ISS Imagent and Oximeter Data Acquisition Program Version 0.80
Ascii Record File

#ACQ INFORMATION
2  Detector Channels 
16  External MUX Channels 
1  Auxiliary Channels 
5000  Waveform (CCF) Frequency (Hz)
1  Waveforms Skipped 
30  Waveforms Averaged 
1  Cycles Averaged 
16  Acquisitions per Waveform 
10.0806  Updata Rate (Hz) 

#FILE INFORMATION
TRUE -- External MUX Channel results are PARSED.
FALSE -- AC DC and Phase are NOT grouped.
TRUE -- Companion Program Settings File CREATED.
FALSE -- AC data not excluded
FALSE -- DC data not excluded
FALSE -- Phase data not excluded
FALSE -- Auxillary Chn. data not excluded
Tab delimiters

#CALIBRATION STATE
TRUE -- Waveform Calibration Values APPLIED.


#AUX CALIBRATION VALUES
Val Type	aux-1	

Term	1.0000e+00	
Factor	0.0000e+00	


#WF CALIBRATION VALUES
A = Detector Channel
Val Type	A-AC1	A-AC2	A-AC3	A-AC4	A-AC5	A-AC6	A-AC7	A-AC8	A-AC9	A-AC10	A-AC11	A-AC12	A-AC13	A-AC14	A-AC15	A-AC16	A-DC1	A-DC2	A-DC3	A-DC4	A-DC5	A-DC6	A-DC7	A-DC8	A-DC9	A-DC10	A-DC11	A-DC12	A-DC13	A-DC14	A-DC15	A-DC16	A-Ph1	A-Ph2	A-Ph3	A-Ph4	A-Ph5	A-Ph6	A-Ph7	A-Ph8	A-Ph9	A-Ph10	A-Ph11	A-Ph12	A-Ph13	A-Ph14	A-Ph15	A-Ph16	

Term	0.00000e+00	0.00000e+00	0.00000e+00	0.00000e+00	0.00000e+00	0.00000e+00	0.00000e+00	0.00000e+00	0.00000e+00	0.00000e+00	0.00000e+00	0.00000e+00	0.00000e+00	0.00000e+00	0.00000e+00	0.00000e+00	0.00000e+00	0.00000e+00	0.00000e+00	0.00000e+00	0.00000e+00	0.00000e+00	0.00000e+00	0.00000e+00	0.00000e+00	0.00000e+00	0.00000e+00	0.00000e+00	0.00000e+00	0.00000e+00	0.00000e+00	0.00000e+00	0.00000e+00	0.00000e+00	0.00000e+00	0.00000e+00	0.00000e+00	0.00000e+00	0.00000e+00	0.00000e+00	0.00000e+00	0.00000e+00	0.00000e+00	0.00000e+00	0.00000e+00	0.00000e+00	0.00000e+00	0.00000e+00	
Factor	1.00000e+00	1.00000e+00	1.00000e+00	1.00000e+00	1.00000e+00	1.00000e+00	1.00000e+00	1.00000e+00	1.00000e+00	1.00000e+00	1.00000e+00	1.00000e+00	1.00000e+00	1.00000e+00	1.00000e+00	1.00000e+00	1.00000e+00	1.00000e+00	1.00000e+00	1.00000e+00	1.00000e+00	1.00000e+00	1.00000e+00	1.00000e+00	1.00000e+00	1.00000e+00	1.00000e+00	1.00000e+00	1.00000e+00	1.00000e+00	1.00000e+00	1.00000e+00	X	X	X	X	X	X	X	X	X	X	X	X	X	X	X	X	

B = Detector Channel
Val Type	B-AC1	B-AC2	B-AC3	B-AC4	B-AC5	B-AC6	B-AC7	B-AC8	B-AC9	B-AC10	B-AC11	B-AC12	B-AC13	B-AC14	B-AC15	B-AC16	B-DC1	B-DC2	B-DC3	B-DC4	B-DC5	B-DC6	B-DC7	B-DC8	B-DC9	B-DC10	B-DC11	B-DC12	B-DC13	B-DC14	B-DC15	B-DC16	B-Ph1	B-Ph2	B-Ph3	B-Ph4	B-Ph5	B-Ph6	B-Ph7	B-Ph8	B-Ph9	B-Ph10	B-Ph11	B-Ph12	B-Ph13	B-Ph14	B-Ph15	B-Ph16	

Term	0.00000e+00	0.00000e+00	0.00000e+00	0.00000e+00	0.00000e+00	0.00000e+00	0.00000e+00	0.00000e+00	0.00000e+00	0.00000e+00	0.00000e+00	0.00000e+00	0.00000e+00	0.00000e+00	0.00000e+00	0.00000e+00	0.00000e+00	0.00000e+00	0.00000e+00	0.00000e+00	0.00000e+00	0.00000e+00	0.00000e+00	0.00000e+00	0.00000e+00	0.00000e+00	0.00000e+00	0.00000e+00	0.00000e+00	0.00000e+00	0.00000e+00	0.00000e+00	-1.50286e+02	-1.28179e+02	-1.21349e+02	-1.82838e+02	-7.38202e+01	-6.86517e+01	-1.55822e+02	-1.62015e+02	-7.29113e+01	-6.79823e+01	-1.70826e+02	-1.70724e+02	-1.80370e+02	-1.76266e+02	-6.49426e+01	-1.48473e+02	
Factor	2.23038e-05	1.70172e-04	3.80664e-05	2.18512e-01	1.33480e-06	1.47544e-06	1.70849e-01	6.06101e-02	1.17230e-06	1.44139e-06	8.98913e-02	2.97864e-02	2.76328e-02	9.32721e-03	1.30128e-06	1.34466e-02	3.00195e-06	3.32187e-06	9.25624e-07	1.11221e-01	3.61816e-08	3.65802e-08	8.21001e-02	3.10359e-02	3.62532e-08	3.66873e-08	4.44963e-02	1.48016e-02	1.42663e-02	4.80361e-03	3.65987e-08	6.70235e-03	X	X	X	X	X	X	X	X	X	X	X	X	X	X	X	X	



#DISTANCE SETTINGS
A = Detector Channel
A-1	A-2	A-3	A-4	A-5	A-6	A-7	A-8	A-9	A-10	A-11	A-12	A-13	A-14	A-15	A-16	

2.5000e+00	3.0000e+00	2.5000e+00	3.0000e+00	2.0000e+00	3.0000e+00	1.5000e+00	3.0000e+00	3.0000e+00	3.0000e+00	3.0000e+00	3.0000e+00	3.0000e+00	3.0000e+00	1.5000e+00	3.0000e+00	

B = Detector Channel
B-1	B-2	B-3	B-4	B-5	B-6	B-7	B-8	B-9	B-10	B-11	B-12	B-13	B-14	B-15	B-16	

1.0000e+01	1.0000e+01	1.0000e+01	1.4400e+00	1.0000e+01	1.0000e+01	1.5100e+00	1.9400e+00	1.0000e+01	1.0000e+01	1.9900e+00	2.4900e+00	2.4100e+00	2.9000e+00	1.0000e+01	2.9800e+00	




#DATA BEGINS
time	group	step	mark	flag	A-AC1	A-AC2	A-AC3	A-AC4	A-AC5	A-AC6	A-AC7	A-AC8	A-AC9	A-AC10	A-AC11	A-AC12	A-AC13	A-AC14	A-AC15	A-AC16	A-DC1	A-DC2	A-DC3	A-DC4	A-DC5	A-DC6	A-DC7	A-DC8	A-DC9	A-DC10	A-DC11	A-DC12	A-DC13	A-DC14	A-DC15	A-DC16	A-Ph1	A-Ph2	A-Ph3	A-Ph4	A-Ph5	A-Ph6	A-Ph7	A-Ph8	A-Ph9	A-Ph10	A-Ph11	A-Ph12	A-Ph13	A-Ph14	A-Ph15	A-Ph16	B-AC1	B-AC2	B-AC3	B-AC4	B-AC5	B-AC6	B-AC7	B-AC8	B-AC9	B-AC10	B-AC11	B-AC12	B-AC13	B-AC14	B-AC15	B-AC16	B-DC1	B-DC2	B-DC3	B-DC4	B-DC5	B-DC6	B-DC7	B-DC8	B-DC9	B-DC10	B-DC11	B-DC12	B-DC13	B-DC14	B-DC15	B-DC16	B-Ph1	B-Ph2	B-Ph3	B-Ph4	B-Ph5	B-Ph6	B-Ph7	B-Ph8	B-Ph9	B-Ph10	B-Ph11	B-Ph12	B-Ph13	B-Ph14	B-Ph15	B-Ph16	aux-1	digaux	

944.681	1	1	0	512	0.071983	0.28425	0.063299	0.28785	0.1037	0.12671	0.11501	0.13779	0.077094	0.048895	0.10807	0.11244	0.21735	0.12403	0.13924	0.12302	-3.7979	-4.1	-4.8896	-4.0062	-4.5396	-4.5354	-4.1958	-4.8271	-4.2188	-4.1208	-4.9271	-4.0125	-4.5271	-4.5021	-3.9083	-4.9354	-23.603	154.460	-15.089	193.753	-120.955	224.399	-109.990	23.607	33.297	53.842	181.265	159.917	-110.523	202.990	206.356	160.740	0.00030333	0.00051132	0.00012288	1245.8	7.2383e-06	3.8081e-06	1246.6	333.31	1.8169e-06	5.7202e-06	386.07	130.27	112.2	39.459	1.5777e-06	49.405	0.00036832	0.0003661	0.00010223	1250.4	4.0637e-06	4.0807e-06	1256.7	336.98	4.1287e-06	4.1224e-06	389.2	132.2	114.12	40.254	4.2442e-06	50.178	176.943	8.008	-31.611	-114.644	5.405	-49.410	-114.791	-109.949	-23.678	2.084	-110.293	-106.649	-106.125	-100.867	38.109	-101.367	-8191	255	
944.755	1	1	0	0	0.21727	0.15929	0.056363	0.13532	0.13444	0.021701	0.094161	0.17316	0.049882	0.19265	0.12749	0.28621	0.08066	0.20091	0.099511	0.17256	-4.0729	-4.1083	-4.6979	-4.0958	-4.5542	-4.675	-3.9708	-4.775	-4.2958	-4.0437	-4.7833	-4.0729	-4.3875	-4.5938	-4.0437	-4.8438	-75.905	182.612	73.682	161.155	85.465	195.140	107.879	214.017	5.753	157.114	148.565	-122.679	12.554	123.823	-82.166	149.741	0.00033456	0.0004994	7.8496e-05	1246.9	4.253e-06	5.3175e-06	1245.1	332.94	1.2559e-06	5.9669e-06	386.46	129.87	112.15	39.692	4.2423e-06	49.127	0.00037945	0.00036693	0.00010343	1253.5	4.1286e-06	4.0298e-06	1258.2	337.19	4.1239e-06	4.1946e-06	389.73	132.23	114.03	40.266	4.223e-06	50.228	183.396	-75.776	-39.854	-114.682	-1.549	-0.507	-114.839	-109.904	-30.060	19.335	-110.252	-106.496	-106.125	-100.848	0.745	-101.467	-8191	255	
944.874	1	1	0	0	0.17352	0.091077	0.049353	0.10955	0.050994	0.22136	0.1097	0.27805	0.30309	0.055226	0.15912	0.080276	0.060805	0.11324	0.27546	0.23055	-4.0771	-4.1042	-4.8875	-4.1542	-4.2604	-4.7583	-3.8854	-4.7854	-4.3479	-3.8979	-4.9604	-4.1229	-4.3042	-4.8833	-3.8604	-4.5687	-54.791	222.460	-36.370	81.816	-2.931	-124.929	149.490	-52.537	78.752	228.552	88.208	181.537	-61.364	-127.361	60.142	120.682	0.00032926	0.0010631	0.00010353	1248.9	3.9495e-06	4.7364e-06	1248.7	334.8	1.7977e-06	2.8267e-06	385.99	130.32	112.56	39.655	3.1624e-06	49.169	0.0003799	0.00037989	0.00010342	1253.7	4.1871e-06	4.0874e-06	1257.9	337.46	4.1165e-06	4.163e-06	389.38	132.37	114.21	40.284	4.1714e-06	50.135	184.809	-38.396	-55.088	-114.567	19.013	16.383	-114.720	-109.774	48.170	18.407	-110.006	-106.367	-106.002	-100.842	76.923	-101.232	-8191	255	
944.970	1	1	0	0	0.20879	0.14771	0.19779	0.15406	0.17945	0.15822	0.083094	0.42126	0.04279	0.17888	0.16525	0.1548	0.27821	0.28556	0.13753	0.16249	-4.2438	-4.0104	-4.8042	-4.3271	-4.1562	-4.7146	-4.2229	-4.7167	-4.6042	-4.0333	-4.8313	-4.2208	-4.1292	-4.825	-3.7979	-4.5521	2.169	129.532	-33.119	171.531	-36.642	182.540	110.758	133.049	23.357	-122.631	-88.473	162.227	147.103	-96.303	-96.657	104.306	0.00031573	0.00051339	0.00019062	1244.9	4.9465e-06	5.0333e-06	1243.6	333.33	2.3861e-06	3.6349e-06	385.2	130.1	112.19	39.758	2.5226e-06	49.423	0.00038474	0.00038012	0.00010399	1252.2	4.0918e-06	4.1112e-06	1259.2	337.36	4.1121e-06	4.1389e-06	389.03	132.37	114.08	40.282	4.1847e-06	50.262	184.222	-56.879	-42.457	-114.621	-2.681	60.864	-114.641	-109.994	-24.008	4.411	-110.307	-106.473	-105.881	-101.026	36.266	-101.470	-8191	255	
945.066	1	1	0	0	0.059835	0.12016	0.25408	0.15691	0.21328	0.16415	0.30186	0.14385	0.11274	0.23421	0.19723	0.12433	0.2687	0.20028	0.12218	0.19059	-4.2604	-3.8521	-4.6854	-4.4187	-3.9979	-4.7542	-4.4229	-4.5104	-4.5021	-3.8937	-4.8083	-4.2375	-4.1083	-4.9688	-3.9667	-4.5146	12.199	75.847	40.142	-49.691	57.766	108.732	180.594	119.147	217.385	108.954	-98.003	-111.223	-64.219	-115.242	-87.140	-21.846	0.00033771	0.00049465	0.00015818	1247.1	4.588e-06	3.7142e-06	1248.5	334.08	3.0372e-06	5.5812e-06	385.62	130.59	112.29	39.814	4.2825e-06	49.042	0.00037923	0.00037602	0.00010504	1254.1	4.1932e-06	4.1117e-06	1260.2	337.72	4.1299e-06	4.1536e-06	389.76	132.31	114.16	40.31	4.1883e-06	50.093	180.317	-64.748	-60.169	-114.464	-15.163	42.021	-114.571	-109.854	-19.883	20.069	-110.403	-106.517	-105.751	-100.613	11.606	-101.594	-8191	255	
945.162	1	1	0	0	0.24077	0.12712	0.10218	0.11067	0.15396	0.1647	0.077477	0.25129	0.175	0.2548	0.17943	0.18083	0.04681	0.35927	0.095106	0.12997	-4.3729	-3.725	-4.6583	-4.4792	-3.7042	-4.7438	-4.3313	-4.2479	-4.8562	-3.9646	-4.6646	-4.6667	-4.0625	-4.7688	-4.1167	-4.1875	73.459	-40.656	-13.286	219.937	-3.128	148.870	182.078	202.192	86.268	47.195	193.483	143.486	-24.138	198.852	208.557	132.999	0.00028868	0.00093086	0.00014652	1245.8	5.7632e-06	1.5852e-06	1248.4	334.6	3.4758e-06	3.9614e-06	386.01	130.03	111.46	39.632	7.6512e-06	49.556	0.00038008	0.00037856	0.00010471	1254.1	4.1529e-06	4.1205e-06	1259.2	337.39	4.1426e-06	4.1703e-06	389.28	132.19	113.85	40.266	4.0751e-06	50.208	175.628	-20.843	-6.015	-114.297	-34.209	2.714	-114.672	-109.985	-3.844	65.001	-110.328	-106.616	-105.927	-100.542	13.665	-101.674	-8191	255	
945.283	1	1	0	0	0.2377	0.39228	0.13557	0.20007	0.076908	0.16153	0.023891	0.15417	0.18994	0.10186	0.1323	0.047103	0.2848	0.22645	0.10356	0.035492	-4.3875	-3.8021	-4.5583	-4.5625	-3.8563	-4.9187	-4.3313	-4.0854	-4.8063	-3.9333	-4.5667	-4.7917	-3.8563	-4.8292	-4.3542	-4.15	221.970	-79.406	-107.617	-125.069	-66.551	74.261	56.892	193.726	20.401	91.153	188.268	-26.336	-113.390	-8.930	110.093	138.233	0.00034523	0.00041207	0.00017774	1246.7	3.5098e-06	5.427e-06	1249.2	332.79	2.4783e-06	3.619e-06	385.05	129.82	112.32	39.666	4.1447e-06	49.252	0.00037858	0.00038035	0.0001055	1252.8	4.2508e-06	4.1922e-06	1259.4	336.97	4.1916e-06	4.1298e-06	388.88	132.38	114.07	40.262	4.1928e-06	50.172	185.213	-13.348	-39.986	-114.771	42.790	-16.775	-114.579	-109.915	19.319	39.427	-110.208	-106.472	-105.931	-100.712	6.570	-101.713	-8191	255	
945.379	1	1	0	0	0.16997	0.17049	0.14419	0.24757	0.08792	0.12174	0.24451	0.061679	0.13506	0.083788	0.1813	0.13724	0.19298	0.10788	0.21159	0.11331	-4.7583	-3.9188	-4.2312	-5.0458	-3.7083	-4.7854	-4.4854	-4.2521	-4.8063	-4.1542	-4.5958	-4.7208	-4.0292	-4.7542	-4.3667	-4.05	137.554	-53.626	-83.134	-39.134	-71.134	40.871	128.458	207.706	119.434	147.541	228.842	175.838	137.479	126.195	-39.744	-98.960	0.00034521	0.0010368	6.3707e-05	1246.1	4.5669e-06	3.3714e-06	1250.3	332.63	4.4061e-06	4.5519e-06	385.4	129.83	111.89	39.753	2.9198e-06	49.341	0.00037878	0.00038142	0.00010773	1255.3	4.1889e-06	4.1233e-06	1259.6	337.08	4.1856e-06	4.1974e-06	389.17	132.26	114.11	40.369	4.2363e-06	50.201	176.828	-24.934	-23.853	-114.500	0.837	0.595	-114.692	-109.964	-21.992	-19.919	-110.080	-106.436	-105.902	-101.250	12.386	-101.659	-8191	255	
945.451	1	1	0	0	0.13861	0.086259	0.10899	0.23851	0.15117	0.15995	0.20905	0.12048	0.092505	0.07129	0.41759	0.070279	0.2342	0.27747	0.041027	0.21821	-4.4792	-4.0062	-4.2396	-4.7542	-3.8292	-4.5479	-4.5792	-3.95	-4.8917	-4.0875	-4.2979	-4.8917	-4.0521	-4.4833	-4.5563	-4.0188	193.159	76.967	153.959	138.759	40.800	10.926	130.667	-93.348	116.993	117.958	203.966	193.062	207.781	175.618	142.380	107.393	0.00035975	0.0010932	0.00011412	1251	3.5699e-06	7.8172e-06	1249.7	334.96	5.5373e-06	2.7823e-06	385.78	129.7	112.44	39.57	4.0932e-06	49.064	0.00038499	0.00037806	0.00010623	1256.5	4.1551e-06	4.1104e-06	1261.2	337.85	4.2067e-06	4.1606e-06	389.69	132.23	114.27	40.372	4.1938e-06	50.136	190.956	-43.193	-22.585	-114.386	68.402	-15.614	-114.698	-109.813	-11.309	47.050	-110.552	-106.298	-105.874	-100.778	-20.222	-101.440	-8191	255	
945.569	1	1	0	0	0.18682	0.082456	0.20833	0.085825	0.22845	0.13668	0.2995	0.14555	0.06579	0.09746	0.12102	0.1094	0.23992	0.1544	0.096439	0.16994	-4.4104	-4.1875	-4.1583	-5.0083	-4.0354	-4.4417	-4.9521	-3.7729	-4.5875	-4.2917	-4.0062	-4.8146	-4.1438	-4.2667	-4.6917	-3.9958	61.213	-54.160	125.446	-13.551	48.042	-12.048	151.858	69.692	-20.138	-79.939	198.243	166.994	-113.021	-112.057	103.512	229.908	0.0003621	0.0002295	0.00016071	1245.7	5.7092e-06	3.7329e-06	1247.9	335.17	4.4549e-06	4.8187e-06	385.43	130.57	112.1	39.686	3.5179e-06	49.275	0.00038441	0.00037112	0.00010509	1254.4	4.1881e-06	4.1734e-06	1260.1	337.66	4.1351e-06	4.0449e-06	389.44	132.29	114.13	40.295	4.0706e-06	50.159	179.733	-63.683	-0.257	-114.406	17.287	-32.632	-114.635	-109.759	-59.330	-10.783	-110.413	-106.404	-105.672	-101.070	-3.666	-101.528	-8191	255	
945.666	1	1	0	0	0.23128	0.059351	0.066702	0.09489	0.13212	0.2094	0.18814	0.33193	0.046077	0.08726	0.15652	0.13743	0.21051	0.23533	0.091726	0.040268	-4.3083	-4.5208	-3.9229	-4.7146	-3.9917	-4.2083	-4.7479	-3.9896	-4.4646	-4.5083	-4.0167	-5	-4.275	-4.2292	-4.7562	-4.0396	44.926	29.965	73.575	85.062	161.598	132.044	187.745	199.977	-47.006	104.464	188.314	206.447	-90.594	211.520	34.470	-117.508	0.0003047	0.00079682	0.00010048	1247.1	8.4992e-07	4.0815e-06	1250.7	332.62	5.1913e-06	5.3954e-06	386.03	130.57	112.28	39.565	3.318e-06	49.272	0.00037796	0.00036987	0.00010616	1252.6	4.0661e-06	4.1275e-06	1260.5	336.49	4.1714e-06	4.0514e-06	389.22	132.5	114.18	40.303	4.1136e-06	50.205	178.050	-39.175	-32.587	-114.465	47.193	15.420	-114.514	-109.796	22.307	9.083	-110.655	-106.689	-105.806	-100.801	20.526	-101.350	-8191	255	
945.762	1	1	0	0	0.17105	0.28991	0.075564	0.087974	0.050173	0.0087506	0.043979	0.081594	0.14603	0.16577	0.098428	0.22453	0.21547	0.058891	0.15327	0.12801	-4.1521	-4.5188	-4.0563	-4.9792	-4.175	-4.1667	-5.0188	-3.85	-4.4062	-4.625	-4.1104	-4.8562	-4.4333	-4.0646	-4.9604	-4.1271	-94.577	118.627	230.995	166.351	122.416	74.074	205.392	131.095	-12.467	132.075	113.323	-33.739	-98.921	-116.027	137.698	145.353	0.00037989	7.0512e-05	1.3625e-05	1253.6	1.8827e-06	6.482e-06	1249.7	334.29	2.4863e-06	6.6079e-06	385.68	130.38	113.13	39.85	4.6366e-06	49.287	0.00038646	0.00037368	0.0001062	1254.5	4.1347e-06	4.2005e-06	1259.5	337.46	4.1459e-06	4.0938e-06	390.07	132.56	114.53	40.359	4.2161e-06	50.133	175.116	-34.254	-54.307	-114.442	-41.647	24.530	-114.682	-109.751	-22.885	31.668	-110.280	-106.517	-105.796	-100.673	10.415	-101.577	-8191	255	
945.858	1	1	0	0	0.33569	0.18664	0.11354	0.17857	0.19807	0.068438	0.24609	0.2444	0.29161	0.079099	0.25986	0.3707	0.15891	0.091873	0.23666	0.068512	-4.0896	-4.8125	-3.7062	-4.6312	-4.4604	-3.9688	-5.0167	-4.0437	-4.2146	-4.7792	-3.9417	-4.6188	-4.6937	-4.0958	-4.7083	-4.2333	-80.708	191.222	77.954	38.213	-27.026	198.310	121.981	219.863	132.721	-63.235	225.355	113.024	-54.104	-49.055	14.490	8.158	0.00029621	0.0005718	9.9256e-05	1257.8	4.3945e-06	6.5839e-06	1249.6	335.16	3.3617e-06	3.6933e-06	385.89	130.44	112.2	39.661	1.2883e-06	49.511	0.00039038	0.00038132	0.00010713	1259.9	4.2019e-06	4.2178e-06	1262.7	338.3	4.3276e-06	4.2664e-06	389.61	132.76	114.4	40.39	4.3973e-06	50.391	183.328	-45.407	-2.643	-114.395	19.546	51.171	-114.439	-109.717	-44.986	-29.222	-110.417	-106.373	-106.093	-100.949	25.808	-101.267	-8191	255	
945.978	1	1	0	0	0.23253	0.073979	0.074035	0.21229	0.13415	0.10937	0.075231	0.23437	0.25044	0.061226	0.33657	0.33556	0.30583	0.17298	0.032659	0.09923	-3.8396	-4.7042	-3.6896	-4.7063	-4.6333	-3.9354	-4.9437	-4.1333	-4.0687	-4.8896	-4.0083	-4.6271	-4.6542	-3.8229	-4.6396	-4.3708	143.085	119.534	189.144	226.500	23.512	-108.751	63.128	211.658	205.989	52.737	135.019	230.296	-102.421	215.873	163.484	73.680	0.00037694	0.0004964	0.00011751	1260	5.6648e-06	3.071e-06	1253.9	336.71	6.4851e-06	6.8497e-06	389.27	130.67	112.47	39.75	4.4854e-06	49.534	0.00041261	0.00041108	0.00011569	1265	4.4992e-06	4.4854e-06	1269.7	340.02	4.6711e-06	4.5835e-06	392.11	133.38	114.82	40.513	4.6011e-06	50.407	186.095	-40.100	-24.901	-114.457	8.143	16.618	-114.661	-109.852	-1.357	20.343	-110.285	-106.131	-105.887	-100.643	16.132	-101.667	-8191	255	
946.050	1	1	0	0	0.036592	0.070384	0.1332	0.093023	0.2076	0.10657	0.24155	0.38069	0.075659	0.15042	0.029839	0.13218	0.22157	0.089433	0.16507	0.22875	-3.8563	-4.8208	-4.05	-4.3667	-4.6687	-4.0792	-4.8729	-4.1896	-4.0771	-4.7083	-4.1521	-4.4083	-4.6521	-4.1271	-4.6625	-4.4833	190.576	-33.418	-60.788	-19.143	-27.134	72.436	106.138	197.118	137.512	125.631	82.837	-90.017	124.636	202.867	-44.621	156.472	0.00032825	0.00011925	0.00011448	1261.2	1.0521e-06	2.0314e-06	1257.7	336.08	2.9931e-06	2.8928e-06	389.15	130.86	113.57	39.987	4.1157e-06	49.489	0.0004144	0.00041116	0.0001167	1269	4.5376e-06	4.6649e-06	1273.1	340.21	4.5989e-06	4.6069e-06	392.72	133.33	115.2	40.506	4.6538e-06	50.415	178.458	26.218	-21.279	-114.567	-8.224	61.292	-114.900	-109.832	-36.525	-2.533	-110.302	-106.517	-105.946	-100.763	-12.976	-101.592	-8191	255	
946.146	1	1	0	0	0.084977	0.24035	0.080618	0.18766	0.29521	0.1838	0.1587	0.22255	0.10588	0.11193	0.18488	0.049817	0.23131	0.18001	0.15322	0.19432	-3.6562	-5.0437	-3.9917	-4.3896	-4.6958	-3.8542	-4.95	-4.3792	-3.8063	-4.8646	-4.1667	-4.3167	-4.9375	-3.9	-4.5021	-4.6062	133.263	57.778	149.137	-118.306	-120.159	126.263	182.934	-73.268	-65.314	-83.407	155.511	-77.215	-3.088	-98.512	-58.246	182.675	0.00034274	0.00076955	3.2729e-05	1262.2	1.1772e-06	1.2127e-06	1263.1	337.27	1.6728e-06	6.0545e-06	388.61	130.37	113.22	39.823	2.5594e-06	49.283	0.00042885	0.0004167	0.00011546	1270.5	4.5394e-06	4.6569e-06	1275.4	340.51	4.6318e-06	4.6012e-06	392.1	133.36	115.14	40.504	4.5962e-06	50.346	184.415	-33.928	-70.069	-114.609	-77.693	-32.062	-114.725	-110.116	-23.354	26.906	-110.047	-106.610	-106.073	-100.819	35.634	-101.452	-8191	255	
946.242	1	1	0	0	0.22219	0.096074	0.16982	0.17595	0.088043	0.073517	0.19915	0.20207	0.15557	0.056972	0.1394	0.13859	0.17374	0.24246	0.064381	0.17593	-3.4437	-4.85	-4.1375	-4.3292	-4.8313	-3.8042	-4.7104	-4.8187	-3.7687	-4.6854	-4.2646	-4.1583	-4.9833	-4.0104	-4.3542	-4.7312	-13.876	44.828	43.169	-91.878	206.111	14.890	175.352	121.330	148.124	-54.706	107.571	185.735	155.296	2.636	19.793	-74.527	0.00034019	0.00019311	3.3956e-05	1263.3	3.0677e-06	3.2782e-06	1258.9	335.33	3.9358e-06	1.4348e-06	388.07	130.26	113.3	39.887	2.8431e-06	49.427	0.00041964	0.00041478	0.00011436	1272.1	4.546e-06	4.5459e-06	1275.6	339.94	4.6607e-06	4.543e-06	392.36	133.05	115	40.455	4.5524e-06	50.345	182.526	18.181	-11.240	-114.755	16.886	64.231	-114.742	-109.826	-14.615	98.815	-110.491	-106.807	-105.878	-100.881	3.702	-101.407	-8191	255	
946.363	1	1	0	0	0.082313	0.030658	0.098214	0.1804	0.13153	0.097886	0.099957	0.10731	0.15018	0.18131	0.18396	0.033709	0.10224	0.26228	0.21395	0.32057	-3.6104	-4.5042	-4.3292	-4.0104	-4.8438	-4.0062	-4.4833	-4.8854	-3.7646	-4.9083	-4.3875	-4.05	-5.0854	-4.1438	-4.3812	-4.9667	2.246	138.086	-36.638	167.804	-10.164	-106.901	53.230	-127.204	-10.365	-39.715	63.635	188.197	135.041	157.806	126.625	174.792	0.00030727	0.00026783	0.00015926	1264.5	3.0354e-06	1.8287e-06	1260.6	336.19	4.3868e-06	6.0837e-06	387.38	130.18	112.47	39.665	4.6739e-06	49.223	0.00042623	0.00040913	0.00011392	1271.3	4.5159e-06	4.4703e-06	1272.9	340.15	4.595e-06	4.5224e-06	392.18	132.92	114.73	40.404	4.5821e-06	50.198	187.866	-79.042	-21.139	-114.555	-24.851	-15.237	-114.806	-109.817	-28.689	-5.137	-110.269	-106.432	-105.852	-100.747	26.062	-101.409	-8191	255	
946.459	1	1	0	0	0.035371	0.12869	0.17059	0.076276	0.14319	0.086236	0.013734	0.059309	0.18734	0.33339	0.34489	0.17871	0.18355	0.12615	0.0958	0.26939	-3.6125	-4.6104	-4.4646	-3.9167	-4.7708	-4.1687	-4.1771	-4.7604	-3.8688	-4.3604	-4.5375	-4.0375	-4.7542	-4.2396	-4.2	-4.9167	-100.818	88.107	-94.791	-16.782	-66.740	-20.872	203.037	156.436	88.233	-27.110	-53.095	-84.948	117.560	-106.529	-83.913	31.012	0.00031846	0.00040733	6.4324e-05	1267	4.9255e-06	3.7941e-06	1261.9	335.3	2.2016e-06	3.5141e-06	389.8	130.12	112.13	39.494	1.45e-06	49.275	0.00042007	0.00041184	0.00011165	1270.4	4.4891e-06	4.4286e-06	1272.6	339.93	4.5549e-06	4.6059e-06	392.61	133.04	114.56	40.356	4.534e-06	50.272	187.389	-40.402	0.558	-114.584	41.848	21.389	-114.729	-109.808	-20.700	17.407	-110.190	-106.407	-106.148	-100.926	-45.282	-101.209	-8191	255	
946.555	1	1	0	0	0.15788	0.15672	0.12306	0.082654	0.24434	0.12062	0.18299	0.24986	0.21065	0.077532	0.20337	0.22907	0.26977	0.12663	0.089339	0.13738	-3.5375	-4.3604	-4.4771	-3.9771	-4.7625	-4.0979	-4.0854	-4.9917	-4.0583	-4.4625	-4.7125	-3.8542	-4.8146	-4.2667	-3.9958	-5.0042	33.505	15.553	202.485	226.880	165.990	73.808	159.352	-126.996	94.787	206.034	142.310	162.016	221.452	-102.317	143.427	175.173	0.00037042	0.00051058	0.00012037	1262.2	5.8828e-06	3.8754e-06	1257.9	336.46	3.9346e-06	1.235e-06	386.77	130.11	113.15	39.67	2.4755e-06	49.353	0.00041285	0.00041	0.00011381	1267.6	4.5131e-06	4.5286e-06	1269.7	339.95	4.593e-06	4.5628e-06	391.39	133.05	114.85	40.36	4.6104e-06	50.254	179.900	2.884	-15.301	-114.486	-7.820	2.242	-114.774	-109.934	27.582	89.836	-110.322	-106.569	-105.772	-100.679	10.294	-101.561	-8191	255	
946.650	1	1	0	0	0.15334	0.12579	0.16312	0.3216	0.066945	0.12061	0.019643	0.21814	0.071076	0.094743	0.093896	0.12692	0.10925	0.092347	0.070631	0.2036	-3.7458	-4.3375	-4.6958	-4.0333	-4.6354	-4.3958	-4.1833	-4.9958	-3.8937	-4.1479	-4.8271	-3.9083	-4.6146	-4.5625	-4.0646	-4.7771	147.707	101.633	-17.549	-112.963	-22.408	189.374	224.675	206.351	-30.956	21.968	189.621	78.063	224.223	173.597	119.375	117.320	0.00037326	0.00044248	0.00012276	1258	6.2901e-06	6.5174e-06	1254	337.31	1.5239e-06	3.052e-06	387.38	129.67	112.45	39.584	4.5446e-06	49.031	0.00041995	0.00040633	0.00011505	1266.4	4.5993e-06	4.5022e-06	1269.3	340.05	4.5722e-06	4.6137e-06	390.97	132.57	114.56	40.263	4.6363e-06	50.205	178.355	-41.408	5.338	-114.600	-20.711	14.539	-114.551	-109.759	65.543	12.164	-110.349	-106.401	-105.779	-100.822	-21.535	-101.252	-8191	255	
946.746	1	1	0	0	0.010032	0.13561	0.13185	0.19947	0.13193	0.19286	0.28702	0.15286	0.12712	0.16434	0.10534	0.02929	0.19044	0.20416	0.28331	0.16545	-3.8292	-4.2188	-4.6417	-4.0479	-4.7125	-4.6667	-3.9646	-4.8667	-4.2188	-4.0312	-4.8938	-3.9583	-4.6104	-4.7354	-3.7521	-4.8521	220.936	-87.091	-9.146	-119.320	69.451	106.597	182.203	223.630	102.999	-43.251	-126.951	-114.240	123.087	88.963	105.924	-109.339	0.00027208	0.00068341	0.00010737	1258.2	2.1729e-06	2.9669e-06	1252.5	336.72	4.3083e-06	3.2638e-06	388.63	129.86	112.53	39.56	4.6995e-06	49.398	0.00041948	0.00042303	0.00011393	1265.3	4.5947e-06	4.5745e-06	1268.5	340.14	4.565e-06	4.6124e-06	391.65	132.53	114.6	40.298	4.6858e-06	50.302	173.350	-13.479	-7.168	-114.323	-50.382	40.228	-114.750	-110.009	-48.613	46.995	-110.221	-106.280	-106.078	-101.098	39.701	-101.709	-8191	255	
946.844	1	1	0	0	0.077873	0.32246	0.17003	0.13958	0.090776	0.081954	0.34307	0.078281	0.12006	0.078238	0.17196	0.18852	0.20214	0.043626	0.061489	0.13102	-4.0792	-3.7083	-4.8125	-3.8625	-4.4021	-4.6792	-3.9479	-4.6479	-4.4292	-3.8563	-4.825	-4.0542	-4.4333	-4.6062	-3.8125	-4.7479	217.991	102.279	55.745	81.609	161.478	21.901	214.512	-76.168	78.318	103.090	203.925	217.956	201.704	97.516	131.955	117.168	0.00039625	0.00055662	0.00014228	1254.9	4.2993e-06	5.5438e-06	1253.7	335	2.4324e-06	1.8851e-06	386.6	130.45	112.88	39.644	3.4204e-06	49.198	0.00041496	0.00042179	0.00011538	1263.2	4.5962e-06	4.4837e-06	1268.8	339.15	4.5533e-06	4.6484e-06	391.32	132.71	114.62	40.328	4.5963e-06	50.281	175.025	-42.887	-45.455	-114.485	-14.703	6.058	-114.829	-110.048	-7.903	-25.150	-110.393	-106.552	-105.879	-101.116	-5.399	-101.656	-8191	255	
946.963	1	1	0	0	0.20661	0.18063	0.1177	0.21332	0.077319	0.35358	0.14699	0.12086	0.15178	0.13693	0.15443	0.078906	0.27415	0.068134	0.072287	0.15542	-4.0333	-3.8688	-4.7417	-4.025	-4.1375	-4.8229	-4.0979	-4.4729	-4.3896	-3.9042	-4.9583	-4.1771	-4.0458	-4.7375	-3.9792	-4.6396	59.709	105.306	133.928	159.282	-35.085	83.567	181.970	189.466	127.244	131.977	153.248	-115.064	203.612	24.175	-116.809	-55.729	0.00031202	0.00068639	0.0001107	1259.2	6.1286e-06	3.6187e-06	1248.7	335.39	3.0259e-06	6.5244e-06	389.33	129.99	112.65	39.705	2.5891e-06	49.153	0.00041288	0.00041683	0.00011647	1263.2	4.5513e-06	4.5225e-06	1267.5	339.41	4.5202e-06	4.5478e-06	391.66	132.57	114.7	40.299	4.6415e-06	50.195	180.579	-24.178	-30.420	-114.586	-7.645	32.259	-114.538	-109.970	-62.042	-29.620	-110.521	-106.528	-106.247	-100.867	30.923	-101.679	-8191	255	
947.059	1	1	0	0	0.10994	0.073168	0.068773	0.29904	0.24476	0.14978	0.16362	0.14195	0.24608	0.1949	0.094656	0.41089	0.1555	0.30968	0.065864	0.087353	-4.1729	-3.9542	-4.6875	-4.3021	-4.0125	-4.7438	-4.0021	-4.3562	-4.7146	-3.9396	-4.8667	-4.5104	-3.95	-4.8729	-3.9896	-4.4542	-117.552	-82.964	135.036	200.416	210.644	11.113	143.177	21.129	101.692	146.602	207.917	-44.045	191.513	199.810	-16.699	-109.685	0.00031732	0.00028244	0.00012059	1259.9	5.3394e-06	7.4289e-06	1259.1	335.63	3.5912e-06	3.1058e-06	388.28	130.44	112.25	39.44	3.4376e-06	49.045	0.00040652	0.00041791	0.00011355	1263.9	4.5567e-06	4.5039e-06	1271.2	339.93	4.5526e-06	4.5009e-06	391.75	132.58	114.48	40.275	4.5695e-06	50.169	183.007	-47.219	-35.693	-114.563	46.937	8.398	-114.909	-109.972	-38.547	58.671	-110.163	-106.480	-106.263	-100.811	30.641	-101.728	-8191	255	
947.155	1	1	0	0	0.26976	0.091836	0.16328	0.12563	0.15976	0.12096	0.12348	0.095642	0.043559	0.093397	0.26103	0.16532	0.096526	0.31715	0.20401	0.24585	-4.2708	-3.7354	-4.5875	-4.4375	-4.0354	-4.7562	-4.175	-4.3562	-4.6438	-3.8	-4.6562	-4.4292	-4.0333	-4.9979	-4.2396	-4.3438	-112.354	-80.323	227.751	-119.663	-58.919	67.490	113.408	199.888	-66.721	-69.685	163.438	78.358	-61.969	195.375	-79.856	206.414	0.00038131	0.00062786	0.00010366	1259.2	3.2887e-06	3.235e-06	1255.1	336.58	3.0261e-06	3.9177e-06	388.18	130.78	112.45	39.769	5.6787e-06	49	0.00041266	0.00041887	0.00011464	1264	4.5993e-06	4.5227e-06	1268.7	339.57	4.5772e-06	4.4999e-06	391.29	132.67	114.55	40.355	4.4999e-06	50.173	180.617	-28.977	-9.168	-114.366	71.247	13.245	-114.800	-110.196	-48.716	68.003	-110.278	-106.708	-105.905	-100.946	1.584	-101.663	-8191	255	
947.276	1	1	0	0	0.22979	0.07317	0.1298	0.22475	0.27516	0.011288	0.21687	0.048002	0.090709	0.23655	0.11197	0.1459	0.26152	0.085127	0.1573	0.082491	-4.4771	-3.7875	-4.6312	-4.6354	-3.6125	-4.8271	-4.4437	-4.2562	-4.725	-3.7292	-4.4479	-4.7292	-3.8375	-4.7438	-4.2583	-4.075	173.292	-119.109	94.323	223.867	158.424	-80.375	197.340	142.106	114.868	95.855	160.035	174.734	175.064	-117.556	-118.230	-15.697	0.00031971	0.00050524	5.3571e-05	1257.6	3.1048e-06	6.4498e-06	1255.6	336.16	2.7056e-06	3.0355e-06	386.56	130.21	112.52	39.681	4.8597e-06	49.142	0.00042045	0.00041185	0.00011487	1266.2	4.6873e-06	4.5639e-06	1270.1	339.69	4.6015e-06	4.5381e-06	391	132.68	114.53	40.3	4.6224e-06	50.142	172.634	-76.727	-19.155	-114.484	-34.077	22.207	-114.601	-110.183	0.185	29.793	-110.549	-106.329	-105.903	-101.117	-67.153	-101.759	-8191	255	
947.347	1	1	0	0	0.071498	0.08678	0.071301	0.25624	0.088981	0.088414	0.27752	0.25071	0.13043	0.034349	0.077859	0.23618	0.38921	0.079648	0.18967	0.067466	-4.4667	-3.8917	-4.325	-4.5563	-3.9813	-4.8521	-4.5021	-4.1458	-4.9667	-3.8708	-4.2958	-4.8833	-3.9896	-4.6958	-4.4667	-3.9021	175.240	143.028	-39.817	203.585	16.128	76.285	203.707	203.739	181.829	-35.285	-123.574	132.953	205.938	190.977	108.114	159.201	0.00038637	0.0007745	4.2985e-05	1259.3	3.1856e-06	6.541e-06	1257.5	336.97	1.5601e-06	6.7064e-06	387.58	130.28	112.76	39.568	3.1847e-06	49.286	0.00041758	0.00041547	0.00011742	1267	4.6739e-06	4.5772e-06	1270.5	340.18	4.6908e-06	4.617e-06	391.38	132.85	114.54	40.325	4.5954e-06	50.286	179.179	-51.930	-46.911	-114.525	8.278	22.840	-114.810	-109.927	27.919	13.740	-110.620	-106.420	-106.258	-100.863	64.199	-101.753	-8191	255	
947.443	1	1	0	0	0.072033	0.018279	0.11473	0.04968	0.16987	0.010951	0.17791	0.24551	0.090186	0.050251	0.2088	0.077548	0.25721	0.11109	0.14389	0.22731	-4.4667	-4.0729	-4.1208	-4.8083	-3.95	-4.4771	-4.5687	-4.0896	-4.8833	-4.1771	-4.2271	-4.6771	-4.2458	-4.3646	-4.5687	-4.1604	52.363	-64.546	219.258	201.345	230.150	21.588	207.701	116.121	-68.325	220.391	125.115	-113.752	216.213	99.510	51.014	100.116	0.00034094	0.0003862	0.00011996	1260.8	3.5306e-06	6.9392e-06	1256.7	335.59	3.9997e-06	5.8272e-06	386.39	130.1	112.04	39.742	2.7223e-06	49.122	0.00043082	0.00042345	0.00011744	1267.9	4.7513e-06	4.6628e-06	1272	340.03	4.656e-06	4.6717e-06	391.97	132.7	114.56	40.368	4.6421e-06	50.187	183.441	-33.791	-30.726	-114.541	16.415	56.925	-114.837	-110.127	-47.000	38.344	-110.594	-106.599	-106.163	-100.963	-19.030	-101.506	-8191	255	
947.540	1	1	0	0	0.35897	0.15545	0.18287	0.11911	0.20875	0.18099	0.15357	0.050342	0.22122	0.24115	0.17258	0.1536	0.12161	0.094307	0.11577	0.061782	-4.5458	-4.1312	-4.2354	-4.8854	-3.8479	-4.4458	-4.6562	-4.15	-4.7562	-4.175	-4.2625	-4.7542	-3.8896	-4.6875	-4.3938	-3.9333	-98.119	-42.177	-7.319	10.112	113.098	15.199	164.590	73.550	-42.076	31.139	173.616	-98.418	-96.514	5.951	-39.216	-87.807	0.00035314	0.00067814	0.00013965	1260.9	4.3001e-06	6.52e-06	1259.3	335.95	2.355e-06	5.9862e-06	387.6	130.38	112.87	39.768	3.0362e-06	49.31	0.00042718	0.00042634	0.0001194	1267.5	4.6587e-06	4.6634e-06	1272.1	340.02	4.6698e-06	4.673e-06	391.33	133.04	114.75	40.385	4.7236e-06	50.285	186.467	-46.055	-23.753	-114.541	25.304	40.264	-114.740	-110.244	-49.235	-7.629	-110.514	-106.704	-106.145	-100.907	11.164	-101.676	-8191	255	
947.658	1	1	0	0	0.31774	0.13337	0.085824	0.11827	0.11381	0.15578	0.20326	0.15129	0.11826	0.12944	0.11057	0.12945	0.20147	0.11165	0.18236	0.11114	-4.45	-4.2583	-3.775	-4.9729	-3.9813	-4.1813	-4.9542	-3.8312	-4.5771	-4.6146	-4.0583	-5.0604	-4.1208	-4.4042	-4.7937	-4.0604	170.735	168.820	191.217	108.317	209.746	203.241	-127.517	-124.174	203.308	-71.233	162.208	180.566	230.443	-107.060	136.425	-109.901	0.00036026	0.00073059	0.00017532	1259.3	5.3083e-06	1.231e-06	1260.4	336.36	4.2042e-06	3.3641e-06	387.42	130.13	111.99	39.721	3.6667e-06	49.257	0.00043392	0.000424	0.00011999	1268.6	4.6867e-06	4.7066e-06	1270.9	340.57	4.666e-06	4.6621e-06	391.99	132.79	114.47	40.388	4.7006e-06	50.304	181.402	-77.845	-19.362	-114.661	-6.001	-7.956	-114.776	-110.070	-0.888	5.737	-110.437	-106.641	-106.186	-100.908	13.893	-101.646	-8191	255	
947.755	1	1	0	0	0.090703	0.045353	0.10169	0.19985	0.052411	0.16401	0.20337	0.12274	0.10935	0.053454	0.12055	0.17852	0.069755	0.037779	0.14769	0.055705	-4.3875	-4.5125	-4.2312	-4.9167	-4.3479	-4.2646	-4.8542	-4.2125	-4.4375	-4.5854	-4.0437	-4.8917	-4.3958	-4.1792	-4.7083	-4.1062	120.213	104.799	87.317	-124.486	-61.962	180.758	129.364	222.099	203.014	61.991	230.893	-78.014	14.988	-125.370	148.851	113.922	0.00036958	0.00063542	0.00011497	1259.5	5.2518e-06	4.3792e-06	1260.8	336.63	4.0548e-06	5.3173e-06	388.19	131.17	112.45	39.703	5.0345e-06	49.196	0.00042358	0.00041527	0.00011727	1266.8	4.5089e-06	4.5373e-06	1271.3	340.34	4.5954e-06	4.5102e-06	391.17	133.13	114.62	40.336	4.6694e-06	50.239	183.665	-45.689	-65.908	-114.573	-13.274	18.732	-114.868	-109.973	-23.020	37.166	-110.721	-106.420	-106.155	-100.892	9.753	-101.631	-8191	255	
947.851	1	1	0	0	0.18918	0.21641	0.2359	0.24078	0.13324	0.27206	0.085335	0.056734	0.12388	0.17483	0.19316	0.39662	0.12463	0.102	0.073128	0.016789	-4.15	-4.7104	-3.8729	-4.7896	-4.2937	-4.0375	-4.9958	-4.0396	-4.2604	-4.6354	-4.0333	-4.6583	-4.4104	-4.1854	-4.8125	-3.9167	50.316	98.119	-101.304	202.299	146.976	64.793	145.474	191.290	-83.406	14.435	-124.981	222.902	-12.011	227.934	200.130	-116.798	0.00026544	0.00040506	0.00015707	1260.4	6.0874e-06	6.4217e-06	1260.9	334.73	2.3243e-06	2.0534e-06	388.04	130.88	113.2	39.672	3.0506e-06	49.138	0.00042091	0.00041266	0.00011731	1266.8	4.4854e-06	4.577e-06	1271.3	339.45	4.5551e-06	4.5151e-06	392.29	132.98	114.67	40.419	4.6132e-06	50.287	187.357	-74.460	-47.093	-114.494	-44.444	23.791	-114.774	-109.989	-62.108	-4.478	-110.509	-106.599	-106.294	-100.811	0.868	-101.460	-8191	255	
947.924	1	1	0	0	0.26691	0.15767	0.0414	0.19412	0.18212	0.18281	0.059022	0.25912	0.17011	0.1606	0.14397	0.24097	0.074753	0.032237	0.16383	0.14656	-4.0667	-4.6896	-3.7708	-4.675	-4.5354	-3.8375	-4.9437	-4.2937	-4.1937	-4.6208	-3.9208	-4.7833	-4.8375	-3.9042	-4.8313	-4.4479	129.487	-84.699	160.729	202.189	-65.064	-77.657	210.847	126.162	-6.471	110.479	-37.128	-107.269	189.860	48.286	66.553	-123.899	0.00029883	0.00056915	5.5064e-05	1257.6	3.0419e-06	4.8173e-06	1256.8	335.57	3.696e-06	3.5317e-06	386.81	130.24	112.76	39.68	4.9059e-06	49.24	0.00041546	0.00040699	0.00011515	1266.4	4.4698e-06	4.5931e-06	1268.9	339.71	4.5739e-06	4.5067e-06	391.25	132.69	114.75	40.358	4.5675e-06	50.119	179.547	-57.512	-66.370	-114.617	-66.773	17.058	-114.710	-109.768	-40.463	45.048	-110.040	-106.566	-105.831	-101.074	13.008	-101.407	-8191	255	
948.043	1	1	0	0	0.088231	0.18828	0.12925	0.26624	0.23579	0.19997	0.16867	0.09841	0.18181	0.1277	0.13097	0.056007	0.10423	0.036751	0.12804	0.11406	-3.7229	-4.7375	-4.0667	-4.5938	-4.4104	-3.8875	-5.0437	-4.4	-4.0646	-4.875	-4.0396	-4.4708	-4.6667	-4.0938	-4.5458	-4.2979	87.894	25.308	219.800	211.613	79.356	12.013	82.105	-121.366	-0.586	19.283	167.071	38.677	-69.505	203.683	171.983	200.718	0.00031207	0.00077547	0.00011411	1260.4	5.5794e-06	4.2256e-06	1255.8	335.38	4.0736e-06	5.2474e-06	387.18	130.35	112.12	39.727	5.9799e-06	49.329	0.00041912	0.00041044	0.00011499	1268.6	4.462e-06	4.547e-06	1269.3	340.11	4.5848e-06	4.5099e-06	391.65	132.77	114.49	40.387	4.5128e-06	50.256	179.861	-78.613	-48.781	-114.711	-26.133	16.764	-114.796	-109.920	-2.498	38.009	-110.436	-106.533	-106.067	-100.944	52.224	-101.483	-8191	255	
948.139	1	1	0	0	0.10527	0.2621	0.15633	0.04213	0.13658	0.032837	0.18674	0.21495	0.19095	0.29284	0.11054	0.17689	0.26498	0.085152	0.14338	0.085097	-3.8833	-4.8688	-3.9333	-4.4479	-4.7125	-3.8208	-4.6937	-4.5208	-3.9458	-4.6854	-4.2438	-4.4187	-4.7208	-3.8729	-4.5333	-4.625	223.126	-13.043	-100.469	210.467	165.413	15.875	-83.201	184.740	168.363	-104.146	148.347	-55.804	-114.698	-6.051	-54.080	123.709	0.00033332	0.00059682	0.00013478	1258.2	2.8351e-06	4.6545e-06	1256.1	335.92	3.0529e-06	3.6532e-06	387.16	130.21	113.02	39.589	3.61e-06	49.383	0.00041681	0.00040739	0.00011282	1266.2	4.4641e-06	4.53e-06	1269.5	339.73	4.5736e-06	4.4403e-06	390.91	132.63	114.73	40.307	4.4934e-06	50.231	176.047	-6.908	-18.808	-114.787	-0.272	26.291	-114.724	-110.020	-20.425	-42.078	-110.199	-106.318	-105.896	-101.055	43.224	-101.656	-8191	255	
948.235	1	1	0	0	0.16069	0.09829	0.14904	0.085178	0.16569	0.10414	0.093326	0.15941	0.08206	0.13761	0.25068	0.050618	0.20707	0.13436	0.1366	0.078912	-3.5917	-4.6958	-4.2271	-4.2979	-4.5938	-3.8875	-4.775	-4.5292	-3.8187	-4.7708	-4.2937	-4.1271	-5.0292	-3.9771	-4.2167	-4.7312	225.794	47.531	218.052	-125.445	-87.690	-40.840	133.718	135.708	-18.579	-19.821	206.640	150.559	79.407	221.113	79.577	148.303	0.00031256	0.00045454	3.194e-05	1260.2	3.8046e-06	6.4321e-06	1258.8	336.19	1.8292e-06	4.5399e-06	388.26	130.53	112.59	39.446	3.4726e-06	49.234	0.00041484	0.00040833	0.00011168	1266.8	4.431e-06	4.4664e-06	1271.9	339.32	4.5747e-06	4.4025e-06	391.22	132.81	114.54	40.26	4.5677e-06	50.151	180.223	-14.260	-21.541	-114.638	-7.014	-7.174	-114.883	-109.869	-14.849	16.167	-110.353	-106.745	-106.023	-100.735	-2.790	-101.408	-8191	255	
948.356	1	1	0	0	0.20743	0.069488	0.16907	0.074296	0.25391	0.13369	0.028606	0.25052	0.36507	0.25122	0.13313	0.31535	0.10149	0.088333	0.14893	0.11106	-3.7042	-4.6958	-4.3521	-4.2125	-4.6396	-4.0625	-4.6771	-4.9542	-3.7021	-4.725	-4.4396	-4.0021	-4.8208	-4.1438	-4.2833	-4.8625	168.892	-91.929	-110.651	181.684	33.244	-57.142	-43.448	156.927	12.629	17.963	-93.256	219.138	-112.326	96.468	165.451	136.028	0.00032623	0.00048025	0.00015714	1257.8	4.2896e-06	2.5666e-06	1264.4	335.96	1.7491e-06	4.766e-06	388.03	129.94	112.47	39.479	4.7844e-06	49.344	0.00041441	0.00040729	0.0001121	1267	4.5311e-06	4.4392e-06	1273	339.81	4.5548e-06	4.4773e-06	391.57	132.74	114.67	40.233	4.5612e-06	50.305	180.913	-83.200	-12.677	-114.439	19.272	38.708	-114.847	-109.997	-26.187	70.740	-110.323	-106.660	-106.032	-100.930	18.770	-101.587	-8191	255	
948.452	1	1	0	0	0.11847	0.1602	0.068806	0.045051	0.11323	0.11227	0.17583	0.10552	0.079939	0.16294	0.055282	0.0633	0.13512	0.1061	0.073664	0.063076	-3.6208	-4.6583	-4.4333	-4.1292	-4.9313	-3.9979	-4.5062	-4.8187	-3.9396	-4.4771	-4.5521	-4.05	-4.7646	-4.2792	-4.1604	-4.7167	-60.503	-2.269	110.567	226.471	40.946	137.106	132.999	-108.861	221.078	-62.930	136.537	128.480	189.922	207.896	119.515	171.263	0.00034866	0.00062916	0.00011613	1259.3	2.521e-06	6.3742e-06	1252.3	334.73	3.6068e-06	5.7565e-06	389.2	130.47	112.56	39.652	3.5648e-06	49.383	0.00041568	0.00040515	0.00011546	1264.8	4.5634e-06	4.5011e-06	1268.5	339.39	4.6372e-06	4.5174e-06	391.78	132.83	114.52	40.356	4.5677e-06	50.274	176.848	-25.790	-37.959	-114.755	-32.142	70.696	-115.115	-110.028	11.198	27.543	-110.404	-106.448	-106.022	-101.005	50.811	-101.631	-8191	255	
948.547	1	1	0	0	0.2304	0.18996	0.12304	0.35406	0.13308	0.17876	0.17215	0.14772	0.14822	0.14727	0.26074	0.17046	0.18015	0.088559	0.069162	0.25296	-3.5729	-4.3729	-4.5771	-4	-4.675	-4.1729	-4.2271	-4.7521	-3.9104	-4.3979	-4.7458	-3.8667	-5.0521	-4.3271	-3.9813	-4.775	-59.356	201.814	-118.929	145.134	-35.258	-77.980	-112.346	216.310	45.822	168.029	-108.523	72.649	-66.190	123.550	227.774	-56.932	0.00038519	0.00042085	9.9663e-05	1255	3.4277e-06	4.185e-06	1252.2	335.45	2.3325e-06	4.4267e-06	388.01	130.26	112.43	39.718	9.3788e-07	49.134	0.00041864	0.00040948	0.00011502	1266.1	4.5643e-06	4.5199e-06	1269	340	4.5864e-06	4.5125e-06	391.86	132.77	114.54	40.317	4.5841e-06	50.182	173.530	-5.844	-46.666	-114.509	74.813	17.284	-115.161	-109.749	205.736	2.018	-110.132	-106.601	-105.921	-100.733	-2.969	-101.697	-8191	255	
948.644	1	1	0	0	0.45548	0.14788	0.17744	0.15399	0.1724	0.19847	0.16933	0.091764	0.14949	0.14958	0.27449	0.15124	0.099757	0.35851	0.11853	0.026009	-3.8167	-4.3438	-4.5687	-4.0771	-4.6417	-4.3	-4.1125	-4.8625	-4.0125	-4.45	-4.7896	-3.8563	-4.7125	-4.5042	-3.6813	-4.9229	-68.036	-91.970	-116.534	104.813	-71.824	13.100	124.110	153.603	18.754	118.876	157.660	-12.919	228.205	-79.315	114.661	25.197	0.0003452	0.00044203	0.00011858	1262.5	6.3536e-06	5.6898e-06	1258	336.42	2.6515e-06	3.4501e-06	388.15	129.95	112.72	39.726	1.8866e-06	49.157	0.00041362	0.00041428	0.00011428	1266.8	4.5165e-06	4.5677e-06	1269.9	339.91	4.5387e-06	4.6071e-06	391.23	132.64	114.56	40.323	4.6289e-06	50.206	186.822	-24.216	-42.591	-114.589	-21.342	-33.969	-114.907	-109.943	-75.316	47.959	-110.101	-106.395	-105.665	-100.841	-9.110	-101.484	-8191	255	
948.739	1	1	0	0	0.17537	0.065307	0.11821	0.2209	0.10702	0.18445	0.29496	0.27328	0.056975	0.076967	0.21846	0.22682	0.26388	0.060627	0.21683	0.25538	-3.8312	-4.0958	-4.75	-4.1021	-4.4542	-4.4417	-4.1958	-4.7854	-4.1646	-4.2937	-4.8646	-3.8792	-4.4896	-4.5542	-3.9833	-4.9958	120.056	57.467	-18.840	140.801	186.197	97.810	210.686	142.473	-55.964	217.174	-2.613	140.140	218.219	-84.273	37.352	145.164	0.0003031	6.488e-05	0.00010758	1256.4	3.6106e-06	2.8995e-06	1265.3	336.51	3.3261e-06	3.0493e-06	387.7	130.72	112.59	39.745	2.4786e-06	49.355	0.00041332	0.00041122	0.00011492	1263.9	4.4888e-06	4.5458e-06	1273.3	340.21	4.5396e-06	4.5861e-06	391.74	132.88	114.63	40.367	4.55e-06	50.335	182.743	4.204	-87.522	-114.604	18.375	35.049	-114.915	-109.889	-0.159	-0.151	-110.382	-106.465	-106.126	-100.884	-0.753	-101.760	-8191	255	
948.835	1	1	0	0	0.073477	0.040328	0.031154	0.29687	0.019461	0.095917	0.23204	0.090041	0.21661	0.12659	0.087346	0.14135	0.24003	0.046228	0.24761	0.12724	-3.9437	-3.9229	-4.8354	-4.1479	-4.4583	-4.5458	-4.0875	-4.9708	-4.1625	-3.9188	-4.9625	-4.1	-4.5479	-4.7438	-3.7958	-4.8812	-95.692	-125.543	-38.705	150.668	31.076	3.563	182.093	-57.824	139.262	131.793	-2.141	218.821	204.461	208.351	218.082	-26.327	0.00032248	0.00033532	0.00011613	1259.3	7.3106e-06	1.5538e-06	1257.9	337.33	3.395e-06	5.3678e-06	386.71	130.26	112.56	39.732	1.9221e-06	49.058	0.00040688	0.00041711	0.0001141	1264.3	4.4746e-06	4.4419e-06	1270.2	340.06	4.4586e-06	4.4957e-06	391.6	132.68	114.59	40.411	4.5649e-06	50.174	174.224	-91.254	-44.604	-114.452	25.361	152.922	-114.706	-109.919	-9.496	66.324	-110.433	-106.518	-106.003	-100.808	-23.123	-101.605	-8191	255	
948.956	1	1	0	0	0.079211	0.21615	0.086884	0.061931	0.24464	0.16961	0.1999	0.11041	0.10104	0.18489	0.22809	0.33181	0.1318	0.090391	0.060874	0.050645	-4.075	-3.8021	-4.8313	-4.3125	-4.3542	-4.75	-4.1042	-4.6937	-4.2812	-3.8396	-5	-4.2896	-4.1875	-4.7688	-3.9125	-4.6937	38.288	45.736	-39.988	-100.157	-71.717	48.868	-116.053	-29.479	102.536	172.079	-82.177	149.129	-35.206	-123.628	52.004	-19.106	0.00033412	0.00025414	0.00010512	1257.3	4.7896e-06	6.4996e-06	1261.3	336.19	2.0824e-06	4.4994e-06	387.56	130.86	112.96	39.549	1.8634e-06	49.225	0.00040596	0.00041384	0.00011476	1266.9	4.4373e-06	4.436e-06	1271.6	339.78	4.5164e-06	4.4958e-06	391.01	132.72	114.81	40.358	4.5228e-06	50.235	176.232	-14.403	5.835	-114.235	31.005	37.227	-114.752	-109.760	-1.784	14.404	-110.060	-106.370	-105.982	-100.770	52.165	-101.525	-8191	255	
949.052	1	1	0	0	0.31859	0.18095	0.054151	0.27387	0.093169	0.18858	0.19782	0.17305	0.16628	0.15876	0.26029	0.12174	0.13312	0.18932	0.23492	0.2518	-4.3458	-3.8563	-4.6813	-4.2875	-4.0687	-4.7792	-4.2688	-4.5896	-4.5125	-4.1375	-5.0604	-4.4667	-4.0292	-4.8438	-3.8563	-4.5104	178.387	116.100	134.234	211.931	173.567	67.542	113.888	-80.765	-111.856	30.872	114.107	85.087	-79.391	183.209	-42.269	-63.975	0.0003752	0.00031566	8.6088e-05	1264.7	3.8104e-06	4.0079e-06	1256.4	336.95	2.9303e-06	2.8827e-06	387.38	129.65	112.4	39.778	3.1083e-06	49.236	0.0004083	0.00041212	0.00011351	1267.3	4.5332e-06	4.4659e-06	1269.2	340.25	4.4678e-06	4.4613e-06	391.64	132.38	114.53	40.369	4.4971e-06	50.157	180.073	-12.478	-27.433	-114.436	23.650	7.967	-114.751	-110.077	-63.413	56.631	-110.095	-106.150	-105.893	-101.022	1.585	-101.758	-8191	255	
949.148	1	1	0	0	0.11853	0.032276	0.157	0.19799	0.22664	0.087286	0.31756	0.34293	0.11947	0.034138	0.34916	0.2726	0.15346	0.099928	0.23756	0.12718	-4.6375	-3.9333	-4.5083	-4.5062	-3.9667	-4.85	-3.9062	-4.3792	-4.5917	-4.0208	-4.5583	-4.3458	-3.9375	-4.9604	-4.1896	-4.3729	-16.741	129.485	-114.564	190.561	-101.326	25.134	218.705	112.766	30.216	85.805	184.244	221.405	160.241	-121.675	131.137	201.758	0.00033547	0.00057042	0.00014184	1260.1	3.8049e-06	5.7261e-06	1254.9	336.26	4.8564e-06	3.7207e-06	388.21	130.89	112.36	39.703	3.5295e-06	49.101	0.00040881	0.00041085	0.00011202	1265.8	4.4814e-06	4.4249e-06	1270.6	339.84	4.4547e-06	4.4747e-06	391.22	132.88	114.66	40.4	4.4838e-06	50.175	180.886	-53.547	-42.006	-114.512	22.291	6.005	-114.694	-109.903	-68.054	-14.105	-110.423	-106.313	-105.929	-100.782	-7.471	-101.678	-8191	255	
949.220	1	1	0	0	0.030055	0.074097	0.10506	0.1401	0.11526	0.029749	0.20783	0.18836	0.14308	0.22487	0.072336	0.069905	0.25647	0.21849	0.022716	0.16031	-4.4271	-3.9792	-4.3708	-4.7021	-3.9833	-4.7854	-4.3125	-4.3396	-4.8146	-3.8271	-4.7312	-4.7917	-3.9479	-4.9333	-4.1208	-4.0979	106.644	113.934	124.132	222.492	-43.600	29.084	202.066	147.864	-105.088	-115.105	67.742	144.265	176.673	-95.359	-33.876	178.795	0.00027942	0.00015547	0.00018173	1261.3	4.9627e-06	5.0158e-06	1251.3	336.61	3.8346e-06	2.796e-06	387.26	130.3	112.23	39.664	3.8632e-06	49.334	0.00041046	0.00040419	0.00011046	1265.8	4.4768e-06	4.4081e-06	1267.4	339.88	4.461e-06	4.4221e-06	391.24	132.51	114.54	40.3	4.4845e-06	50.285	183.958	-23.930	-44.654	-114.319	11.232	42.279	-114.862	-109.959	20.794	63.744	-110.435	-106.397	-106.019	-100.794	63.436	-101.795	-8191	255	
949.340	1	1	0	0	0.072344	0.02401	0.098869	0.30985	0.053564	0.18879	0.074106	0.24766	0.036519	0.083132	0.010748	0.22848	0.21393	0.24014	0.045145	0.13652	-4.5896	-3.9854	-4.5417	-4.6375	-3.8542	-4.6875	-4.5896	-4.3604	-4.8271	-4.0625	-4.6917	-4.85	-3.8229	-4.85	-4.5417	-3.9	75.466	5.694	145.222	198.267	58.648	56.701	-66.283	56.202	82.334	213.750	222.726	135.502	-106.795	135.177	189.085	-111.985	0.000312	0.00037185	0.00011047	1256.2	6.5141e-06	6.2783e-06	1257.6	335.88	3.5669e-06	4.294e-06	385.63	130.53	112.27	39.502	2.1916e-06	49.133	0.00040903	0.00040354	0.00011201	1264.7	4.4901e-06	4.4311e-06	1271.1	339.86	4.4496e-06	4.4568e-06	390.63	132.69	114.44	40.324	4.4303e-06	50.223	184.922	-54.456	-62.006	-114.595	30.008	17.147	-114.523	-110.175	-13.057	0.051	-110.298	-106.512	-105.771	-101.062	-54.563	-101.485	-8191	255	
949.436	1	1	0	0	0.0939	0.2438	0.19969	0.14104	0.19188	0.065057	0.13942	0.15688	0.064211	0.12397	0.075218	0.13606	0.44679	0.17942	0.27723	0.23844	-4.6354	-4.1833	-4.275	-4.6729	-3.875	-4.6333	-4.7312	-4.1312	-4.7583	-4.1917	-4.3187	-4.9875	-3.9458	-4.625	-4.6167	-4.0792	222.912	116.112	-25.930	177.389	-68.391	88.960	-119.822	188.960	65.973	-61.993	179.036	215.973	125.306	207.195	18.718	209.415	0.00029608	0.00050559	0.00018451	1257.7	3.4069e-06	4.2199e-06	1260.8	335.39	2.4218e-06	2.0575e-06	386.8	130.47	112.56	39.529	3.4545e-06	49.216	0.00041728	0.00040008	0.00011346	1266.7	4.5507e-06	4.4714e-06	1270.1	339.6	4.4884e-06	4.4929e-06	391.15	132.75	114.37	40.274	4.4916e-06	50.16	171.123	-7.825	-36.386	-114.469	27.386	14.818	-114.607	-109.954	-7.098	81.960	-110.529	-106.357	-105.606	-100.789	-24.896	-101.667	-8191	255	
949.533	1	1	0	0	0.029404	0.20366	0.10732	0.11637	0.16533	0.034885	0.12315	0.19606	0.20955	0.01689	0.18915	0.13007	0.19458	0.31036	0.14936	0.11693	-4.3979	-4.1896	-4.0958	-4.7792	-3.8708	-4.4896	-4.6937	-3.8917	-4.6813	-4.3396	-4.1188	-4.8375	-4.0021	-4.5646	-4.725	-3.8688	-55.705	99.885	-50.085	106.820	165.676	131.853	157.090	-97.599	4.307	58.321	-117.822	131.965	217.577	-92.177	130.797	179.191	0.0003413	0.00049063	0.00016131	1258.7	5.6915e-06	3.4443e-06	1258.8	336.88	4.1897e-06	7.5201e-06	389.12	130.1	112.69	39.547	1.742e-06	49.225	0.00041431	0.00040701	0.00011441	1266.6	4.5145e-06	4.5491e-06	1269.1	339.93	4.5228e-06	4.4282e-06	391.53	132.62	114.68	40.322	4.541e-06	50.202	174.510	-33.122	-60.286	-114.464	-6.410	67.715	-114.653	-109.805	-40.041	8.040	-110.058	-106.240	-105.789	-100.715	43.059	-101.418	-8191	255	
949.629	1	1	0	0	0.082903	0.023044	0.1135	0.043891	0.16632	0.079412	0.15224	0.19026	0.062508	0.14425	0.24889	0.18547	0.39494	0.094925	0.11486	0.041662	-4.3646	-4.3938	-3.9417	-4.9271	-3.9479	-4.4417	-4.85	-3.7854	-4.6062	-4.3562	-4.0771	-4.8104	-4.0083	-4.3688	-4.5687	-3.9167	-56.826	-79.678	104.903	183.872	76.145	49.725	-88.490	196.770	-25.912	-88.405	-29.890	206.723	137.497	78.754	131.580	6.668	0.00039313	0.00020522	6.7698e-06	1256.3	5.3647e-06	1.3904e-06	1257.2	334.69	4.691e-06	3.2622e-06	386.81	130.48	112.18	39.558	3.5018e-06	49.086	0.00041498	0.00041241	0.00011456	1266.2	4.5073e-06	4.5452e-06	1269.1	339.36	4.5509e-06	4.5595e-06	391.54	132.75	114.32	40.287	4.6984e-06	50.11	178.129	128.321	-14.810	-114.337	18.232	78.447	-114.709	-109.893	-41.689	64.114	-110.484	-106.517	-106.241	-100.848	61.923	-101.431	-8191	255	
949.748	1	1	0	0	0.01511	0.11309	0.066747	0.16569	0.037621	0.20308	0.081974	0.12783	0.12264	0.20839	0.048739	0.15874	0.075578	0.13046	0.13165	0.10071	-4.4333	-4.3979	-3.9333	-4.8583	-4.0271	-4.3104	-4.7708	-3.8333	-4.5354	-4.7021	-3.8292	-4.9437	-4.2771	-4.0854	-4.9313	-3.9854	-65.074	99.656	-49.898	157.520	199.433	29.800	-14.108	179.736	127.515	140.281	-5.722	153.950	151.603	196.195	193.580	167.825	0.00034161	0.00050647	5.7582e-05	1263.5	3.7342e-06	1.5705e-06	1259.2	334.53	4.6268e-06	5.5926e-06	387.71	130.72	112.24	39.502	5.3521e-06	49.253	0.00041902	0.00041163	0.00011527	1267.8	4.5446e-06	4.5552e-06	1271	339.07	4.5665e-06	4.5222e-06	391.68	132.97	114.42	40.213	4.6211e-06	50.138	178.883	-32.778	8.390	-114.415	-14.783	45.694	-114.495	-109.773	-9.942	11.461	-110.385	-106.275	-106.041	-100.787	35.564	-101.488	-8191	255	
949.819	1	1	0	0	0.15516	0.11535	0.046088	0.23766	0.25377	0.20746	0.27128	0.021233	0.10139	0.18489	0.1962	0.099465	0.065932	0.11263	0.19444	0.083691	-4.1937	-4.3958	-3.8438	-4.9146	-4.2646	-4.0563	-5.1021	-4.1979	-4.2083	-4.6125	-3.975	-4.775	-4.3292	-4.0625	-4.7354	-4.1687	64.935	-109.627	-77.629	201.339	-63.695	-38.245	139.444	230.934	133.848	92.668	164.618	83.502	-38.334	200.440	-121.341	-116.220	0.00031833	0.00032278	0.0001445	1259.5	3.0266e-06	5.0377e-06	1259.2	335.59	3.1202e-06	3.1658e-06	389.49	130.12	112.94	39.557	5.709e-06	49.117	0.00041745	0.00041671	0.00011601	1266.6	4.5918e-06	4.5865e-06	1272.7	339.62	4.5936e-06	4.5213e-06	391.69	132.5	114.68	40.287	4.5913e-06	50.147	182.540	-68.094	-55.499	-114.605	43.226	10.503	-114.607	-109.927	0.146	25.554	-110.344	-106.339	-105.935	-100.848	-64.759	-101.584	-8191	255	
949.917	1	1	0	0	0.099744	0.22096	0.11089	0.13231	0.086983	0.040874	0.11498	0.15807	0.14849	0.054818	0.058313	0.23645	0.13708	0.13777	0.12638	0.11937	-4.2021	-4.7375	-4.0042	-4.65	-4.225	-3.875	-4.7896	-3.9646	-3.9792	-4.7708	-3.9167	-4.625	-4.5521	-3.8958	-4.9021	-4.3146	148.622	56.778	188.926	122.680	69.200	-11.766	153.131	190.158	124.989	-12.239	175.872	49.607	171.043	-115.845	116.676	-104.391	0.00033253	0.0003863	0.00013599	1255.5	5.0518e-06	2.9786e-06	1260.3	335.79	2.9052e-06	2.5105e-06	387.21	130.04	113.15	39.596	3.9832e-06	49.122	0.00041554	0.00041004	0.00011732	1264.8	4.5458e-06	4.5664e-06	1270.9	339.88	4.5843e-06	4.5336e-06	391.21	132.71	114.67	40.302	4.4829e-06	50.128	183.850	-10.921	-79.732	-114.448	24.366	21.270	-114.656	-109.778	-7.147	42.580	-110.356	-106.317	-105.820	-100.770	12.659	-101.644	-8191	255	
950.036	1	1	0	0	0.21893	0.17366	0.1428	0.11082	0.096686	0.13121	0.34561	0.25043	0.19706	0.15718	0.16032	0.042513	0.1638	0.031623	0.088131	0.3031	-4.0583	-4.6792	-3.7708	-4.6062	-4.5167	-4.0979	-5.0938	-4.2146	-3.9938	-4.6417	-3.9562	-4.5938	-4.8042	-3.9042	-4.8042	-4.4042	-98.067	11.594	-30.893	-106.930	-28.652	36.696	178.515	190.771	-29.919	-119.408	-115.445	-17.368	212.819	-113.639	41.773	151.683	0.0003564	0.0003097	0.00010328	1256.4	2.9966e-06	1.6914e-06	1258	336.4	2.015e-06	2.2511e-06	387.4	130.31	112.47	39.674	5.9233e-06	49.194	0.00042089	0.0004086	0.00011497	1266.7	4.5004e-06	4.5895e-06	1268.7	339.53	4.6025e-06	4.4912e-06	391.42	133.02	114.62	40.324	4.5119e-06	50.218	183.251	59.121	-49.851	-114.525	4.591	216.616	-114.856	-110.012	-10.789	59.281	-110.460	-106.438	-105.927	-101.041	35.555	-101.608	-8191	255	
950.132	1	1	0	0	0.18285	0.16452	0.090058	0.11907	0.046304	0.034471	0.1566	0.069122	0.18649	0.20738	0.069877	0.22387	0.15993	0.1022	0.29136	0.15319	-3.6521	-4.7208	-3.9938	-4.4333	-4.6479	-3.7396	-4.7083	-4.4375	-4.0396	-4.8292	-4.0896	-4.3646	-4.7042	-4.0396	-4.5708	-4.8833	120.687	-52.934	89.572	184.924	31.870	38.024	95.345	50.468	185.690	144.555	124.440	-113.237	200.119	104.726	-57.247	100.314	0.00032263	0.00058343	0.00011283	1258	2.4325e-06	8.904e-06	1259.6	336.73	3.101e-06	5.6643e-06	387.86	129.66	112.23	39.797	3.9526e-06	49.4	0.00041722	0.00041209	0.00011384	1266.6	4.4599e-06	4.5166e-06	1269.9	339.84	4.5525e-06	4.4911e-06	390.84	132.46	114.5	40.306	4.4663e-06	50.22	183.639	-49.312	-62.292	-114.528	-53.849	12.419	-114.902	-109.985	25.553	51.589	-110.399	-106.710	-106.159	-100.995	16.547	-101.734	-8191	255	
950.228	1	1	0	0	0.20574	0.041022	0.27612	0.086743	0.09506	0.066599	0.15808	0.13993	0.18739	0.21752	0.14717	0.24755	0.26908	0.19551	0.038293	0.30736	-3.8208	-4.8542	-4.025	-4.3146	-4.7625	-3.8167	-4.725	-4.5354	-3.9	-4.7833	-4.1729	-4.2833	-4.8021	-3.9938	-4.4917	-4.7625	-40.356	11.390	99.128	-62.909	220.819	-11.843	207.853	-24.191	-126.031	-74.486	213.545	177.292	-112.627	173.603	3.867	155.019	0.00031696	0.00027123	5.99e-05	1258.6	2.9543e-06	3.245e-06	1251.2	336.14	3.7447e-06	3.0899e-06	389.93	130.09	112.42	39.545	3.1458e-06	49.497	0.00041461	0.00040604	0.00011237	1264.2	4.4591e-06	4.4677e-06	1267.8	339.57	4.5548e-06	4.4421e-06	391.58	132.47	114.51	40.261	4.458e-06	50.259	181.996	24.076	-5.879	-114.757	-28.845	8.547	-115.061	-110.125	-39.599	50.006	-110.488	-106.772	-106.077	-101.025	-17.668	-101.685	-8191	255	
950.324	1	1	0	0	0.086825	0.24467	0.062616	0.20848	0.11994	0.10496	0.16011	0.18488	0.15112	0.29003	0.044729	0.23984	0.14444	0.17435	0.091092	0.1369	-3.5604	-4.6396	-4.225	-4.2396	-4.7771	-3.8958	-4.6021	-4.7146	-4.0125	-4.7417	-4.4208	-4.0563	-4.9896	-4.0938	-4.1917	-4.7396	-73.291	226.826	-49.448	196.185	-121.192	-46.789	138.475	111.040	-34.103	165.447	229.761	-82.612	193.030	210.973	133.107	141.489	0.00033135	0.00037814	0.00021046	1257	1.7383e-06	4.1852e-06	1257.1	336.93	1.8128e-06	6.7006e-06	388.33	130.6	112.72	39.727	4.1854e-06	49.164	0.00041144	0.00040148	0.00011225	1266.4	4.439e-06	4.4771e-06	1269.8	339.85	4.4985e-06	4.4091e-06	391.48	132.53	114.53	40.295	4.4817e-06	50.122	181.078	-58.974	-37.125	-114.658	32.327	24.635	-114.928	-109.642	-63.520	-7.149	-110.293	-106.553	-105.951	-100.715	-6.449	-101.472	-8191	255	
950.445	1	1	0	0	0.024271	0.12039	0.2655	0.071426	0.15251	0.029576	0.25228	0.12136	0.38808	0.22569	0.29857	0.24954	0.035814	0.26618	0.17591	0.22688	-3.7146	-4.6292	-4.2479	-4.0229	-4.7812	-4.0375	-4.5375	-4.8167	-3.825	-4.7083	-4.5042	-3.9833	-4.7188	-3.9813	-4.1604	-4.8	-34.482	221.181	79.148	150.370	214.949	24.886	-104.972	-78.841	115.642	53.410	-120.410	211.745	-86.333	-80.159	76.056	-115.989	0.00032825	0.00037285	8.0489e-05	1255.5	3.7955e-06	3.1493e-06	1252	335.83	2.9055e-06	4.8097e-06	388.32	130.57	112.27	39.499	5.9998e-06	49.084	0.00041334	0.00040105	0.00011309	1265.3	4.4439e-06	4.4427e-06	1266.9	339.52	4.4357e-06	4.3756e-06	391.04	132.73	114.62	40.25	4.5984e-06	50.158	176.631	-49.155	-35.345	-114.529	-27.785	6.673	-114.866	-110.222	1.140	31.455	-110.362	-106.593	-106.134	-100.812	45.488	-101.720	-8191	255	
950.517	1	1	0	0	0.17121	0.059616	0.14784	0.20829	0.030067	0.24112	0.23647	0.13673	0.13724	0.17092	0.22288	0.12156	0.11972	0.063274	0.020327	0.23831	-3.7854	-4.7438	-4.3521	-3.875	-4.7021	-4.225	-4.3229	-4.9667	-3.6833	-4.4729	-4.8021	-4.0062	-4.9313	-4.2458	-4.0021	-4.9729	194.203	-125.503	198.865	224.763	192.289	-96.384	-105.768	-60.018	-57.485	-89.292	156.769	113.009	195.818	-126.878	-84.057	198.634	0.00034273	0.00043496	0.00013705	1254.8	5.2812e-06	2.3207e-06	1256.8	336.15	4.5751e-06	2.5165e-06	386.93	130.08	112.64	39.631	2.1819e-06	49.125	0.00041357	0.00041119	0.00011309	1263.2	4.4196e-06	4.3649e-06	1270.2	339.29	4.4705e-06	4.472e-06	390.98	132.71	114.6	40.304	4.5488e-06	50.141	188.562	-27.046	-7.887	-114.613	24.114	-38.271	-114.823	-109.747	-121.728	18.596	-110.216	-106.499	-106.036	-100.947	-16.524	-101.295	-8191	255	
950.613	1	1	0	0	0.11539	0.10719	0.25538	0.14823	0.11451	0.17826	0.2396	0.15711	0.17636	0.02612	0.015216	0.25734	0.22939	0.24142	0.24287	0.044567	-3.7208	-4.6146	-4.6542	-3.9646	-4.8458	-4.2333	-4.1375	-4.875	-3.9083	-4.4313	-4.7771	-4.0292	-4.9146	-4.5458	-4.0292	-4.8875	-78.076	87.597	143.147	-82.177	198.115	177.710	111.731	213.209	219.959	146.588	-23.503	184.844	227.378	-105.925	65.040	185.277	0.00031811	0.00076973	0.00019763	1256.8	3.905e-06	4.4345e-06	1255.6	335.55	2.9433e-06	7.0877e-06	387.16	129.93	112.91	39.635	2.4867e-06	49.424	0.00040608	0.0004045	0.0001115	1265.2	4.3722e-06	4.4754e-06	1268.9	339.71	4.4905e-06	4.49e-06	391.11	132.63	114.56	40.282	4.6147e-06	50.266	180.841	-45.224	-23.578	-114.480	15.837	-3.389	-114.742	-110.074	17.847	8.710	-110.542	-106.528	-106.292	-101.135	25.799	-101.830	-8191	255	
950.732	1	1	0	0	0.056073	0.2373	0.085091	0.1884	0.048065	0.15205	0.13569	0.091435	0.1375	0.065962	0.21492	0.048461	0.086867	0.094705	0.13836	0.22016	-3.6458	-4.1	-4.7625	-4.1354	-4.6937	-4.6625	-4.1771	-4.9812	-4.025	-4.4625	-5.0792	-4.0979	-4.5708	-4.5729	-3.8083	-4.8208	17.508	-72.207	36.695	216.937	-125.064	77.680	-104.120	-85.032	-85.022	84.433	150.416	-115.487	117.625	-117.745	-14.473	-98.203	0.00033492	0.0002228	0.00017781	1253	3.123e-06	5.0879e-06	1257.5	336.94	3.6336e-06	2.822e-06	387.87	129.88	112.24	39.574	4.7493e-06	49.261	0.00040935	0.00041354	0.00011379	1264.2	4.5103e-06	4.5399e-06	1269.6	339.81	4.5592e-06	4.5404e-06	390.96	132.51	114.43	40.323	4.6278e-06	50.144	173.090	43.490	-33.575	-114.548	19.599	10.797	-114.878	-109.815	-4.500	28.516	-110.224	-106.623	-106.261	-100.894	17.689	-101.585	-8191	255	
950.828	1	1	0	0	0.2189	0.10404	0.039817	0.20152	0.12546	0.19459	0.083446	0.22164	0.11374	0.14194	0.20448	0.30148	0.2445	0.22284	0.12087	0.19254	-4.1979	-4.1958	-4.7333	-3.925	-4.3708	-4.7021	-4.3313	-5.0833	-4.2542	-4.0896	-4.9563	-4.0021	-4.3208	-4.7375	-3.9125	-4.9083	213.354	151.575	-32.600	-114.557	-106.801	171.460	144.258	-118.509	73.432	154.326	132.589	198.359	-89.842	152.088	26.930	185.409	0.0003172	0.0010021	8.9736e-05	1257.2	2.6191e-06	3.2897e-06	1255.5	335.05	2.9648e-06	4.9733e-06	387.73	130.67	113.02	39.667	3.1057e-06	48.941	0.0004174	0.0004184	0.00011502	1264.4	4.6289e-06	4.5671e-06	1268.2	339.84	4.5272e-06	4.6509e-06	391.89	132.49	114.75	40.384	4.5968e-06	50.104	174.388	-54.221	6.568	-114.548	-8.269	27.070	-114.697	-109.910	-22.894	20.314	-110.134	-106.499	-106.062	-100.789	46.277	-101.509	-8191	255	
950.924	1	1	0	0	0.017596	0.1525	0.21124	0.31305	0.19794	0.037299	0.19374	0.068087	0.09704	0.18066	0.20182	0.18453	0.31375	0.13941	0.1445	0.098623	-4.0958	-4.0792	-4.8021	-4.1604	-4.3208	-4.7875	-3.9771	-4.5312	-4.4667	-3.9458	-5.1917	-4.1042	-4.225	-4.7917	-3.8917	-4.6562	85.703	32.244	84.113	142.918	39.005	-36.586	148.564	110.752	-92.588	35.353	143.706	-34.947	203.218	199.491	177.424	153.913	0.00038012	0.00041369	3.2425e-05	1259.8	4.7748e-06	6.2962e-06	1254.5	336.47	3.593e-06	2.3099e-06	388.92	130.04	112.48	39.681	4.611e-06	49.181	0.00042191	0.00041662	0.00011525	1265.2	4.6918e-06	4.5779e-06	1270.3	339.87	4.6039e-06	4.5706e-06	391	132.5	114.56	40.313	4.6869e-06	50.134	195.329	-77.814	32.122	-114.636	-9.086	8.620	-114.752	-109.886	-76.003	-0.412	-110.259	-106.427	-106.089	-100.915	24.643	-101.428	-8191	255	
951.020	1	1	0	0	0.21581	0.21506	0.083145	0.13432	0.12278	0.1089	0.21329	0.25914	0.036602	0.28217	0.09583	0.12522	0.24728	0.12699	0.12226	0.12542	-4.0354	-3.8917	-4.8812	-4.1146	-4.1125	-4.85	-4.1438	-4.4458	-4.5646	-3.7625	-4.8979	-4.0625	-4.2208	-4.9792	-4.1521	-4.4417	-72.525	-12.999	209.386	153.137	-7.395	19.686	101.120	167.714	52.101	-34.979	-100.184	176.439	-9.593	173.978	62.839	-3.927	0.00035245	0.00064366	0.00023744	1258.3	3.8351e-06	1.2985e-06	1262.2	335.62	1.2631e-06	1.8327e-06	386.6	129.73	111.98	39.832	2.3906e-06	49.025	0.00041842	0.00042249	0.00011426	1266.5	4.6045e-06	4.5437e-06	1271.3	339.33	4.5604e-06	4.6114e-06	390.99	132.4	114.41	40.319	4.6288e-06	50.233	179.405	-36.378	-25.468	-114.358	-27.351	59.448	-114.801	-109.964	-31.638	-14.377	-110.480	-106.229	-106.132	-101.066	78.578	-101.605	-8191	255	
951.116	1	1	0	0	0.21682	0.20044	0.19589	0.17123	0.098485	0.053726	0.19513	0.18039	0.044771	0.1614	0.28885	0.18599	0.24182	0.12445	0.30194	0.15729	-4.225	-3.7396	-4.8833	-4.45	-3.9708	-4.6687	-4.1229	-4.4833	-4.7979	-3.9562	-4.6813	-4.3896	-4.1417	-4.9792	-3.9604	-4.4333	-95.525	-59.268	-99.689	-122.783	-108.386	138.868	188.420	193.980	-29.511	-48.034	182.614	-111.506	212.375	172.708	141.422	191.559	0.00035464	0.0002376	0.00015775	1259.8	4.3437e-06	6.4245e-06	1257.1	334.37	2.9131e-06	5.3234e-06	386.72	129.5	112.54	39.607	4.5197e-06	49.005	0.00042102	0.00042096	0.00011668	1266.3	4.6759e-06	4.6099e-06	1270.4	339.56	4.5272e-06	4.5854e-06	391.04	132.45	114.43	40.255	4.6395e-06	50.115	180.164	-6.480	-37.453	-114.596	8.361	-10.231	-114.646	-109.718	-63.000	51.732	-110.421	-106.420	-106.105	-101.171	9.701	-101.395	-8191	255	
951.213	1	1	0	0	0.14537	0.15996	0.13832	0.31571	0.057687	0.1333	0.082799	0.22467	0.34196	0.16809	0.13592	0.12381	0.14297	0.203	0.052137	0.12786	-4.5625	-3.6208	-4.5083	-4.6042	-4.0375	-4.7083	-3.9854	-4.4396	-4.7167	-3.9167	-4.55	-4.6312	-4.0208	-4.9167	-4.0312	-4.0333	99.865	-122.293	-44.842	217.500	43.982	-11.775	176.457	-59.347	199.440	99.440	108.118	93.451	207.607	80.837	-51.987	58.619	0.000338	0.00083979	4.2472e-05	1260.5	2.5022e-06	6.5497e-06	1254.9	335.67	4.8016e-06	3.9588e-06	387.92	130.37	112.97	39.601	2.1753e-06	49.177	0.00041736	0.00041549	0.0001174	1267.5	4.6895e-06	4.5941e-06	1270.7	339.77	4.6587e-06	4.6411e-06	391.3	132.69	114.82	40.296	4.6471e-06	50.214	186.124	-59.624	21.135	-114.343	-14.456	25.002	-114.693	-109.765	-39.232	19.644	-110.575	-106.401	-106.097	-100.834	152.340	-101.695	-8191	255	
951.309	1	1	0	0	0.12321	0.15429	0.07141	0.16031	0.14392	0.13267	0.16322	0.066294	0.26394	0.19045	0.18817	0.059581	0.17794	0.2118	0.051852	0.3741	-4.3479	-3.975	-4.5521	-4.7604	-3.8958	-4.7167	-4.5271	-4.1583	-4.7896	-3.9437	-4.3875	-4.7	-4.0021	-4.8271	-4.2479	-4.0563	-103.352	80.448	216.254	217.571	-121.822	108.346	195.317	20.168	-27.671	19.952	229.707	117.195	219.507	-118.229	220.435	-121.281	0.0003094	0.00033842	9.6079e-05	1260.4	4.1974e-06	7.1446e-06	1258.6	335.38	2.9454e-06	1.9588e-06	387.37	130.51	112.42	39.716	3.5317e-06	49.133	0.00041155	0.00041949	0.00011711	1266.3	4.6467e-06	4.5416e-06	1269.6	339.53	4.62e-06	4.6494e-06	391.31	132.81	114.41	40.291	4.6172e-06	50.191	188.503	-22.607	-72.167	-114.398	54.944	-11.557	-114.633	-109.948	2.178	29.791	-110.423	-106.291	-106.039	-101.053	59.731	-101.595	-8191	255	
951.405	1	1	0	0	0.1708	0.25999	0.042893	0.13316	0.096375	0.1171	0.15742	0.24774	0.36433	0.12966	0.074385	0.039451	0.16071	0.048126	0.26256	0.11809	-4.4646	-3.9062	-4.2333	-4.8208	-3.7833	-4.6917	-4.3708	-4.2208	-4.8938	-4.0417	-4.4667	-4.7396	-4.0333	-4.7812	-4.3771	-3.85	1.516	-71.679	-85.861	-114.723	137.595	65.417	154.963	128.432	63.100	120.354	-121.090	177.699	150.121	35.971	229.567	-118.997	0.00039477	0.0004291	0.00017589	1261.2	3.347e-06	2.9555e-06	1255	336.6	4.7529e-06	8.2329e-06	387.69	130.53	112.61	39.527	4.4394e-06	49.159	0.00042014	0.00041482	0.00011888	1266.4	4.6524e-06	4.497e-06	1270.3	340.15	4.5644e-06	4.5463e-06	391.39	132.69	114.69	40.27	4.5957e-06	50.29	181.077	-8.865	-3.449	-114.654	-20.359	32.699	-114.748	-110.017	-33.012	43.119	-110.323	-106.518	-106.077	-100.811	2.100	-101.910	-8191	255	
951.525	1	1	0	0	0.2032	0.0047018	0.14807	0.20943	0.24242	0.082092	0.11639	0.17734	0.092777	0.256	0.22637	0.15158	0.040966	0.044063	0.4151	0.27766	-4.6583	-4.0771	-4.2479	-4.7417	-3.8854	-4.3208	-4.5437	-4.0479	-4.9479	-4.3042	-4.1583	-4.8896	-3.9729	-4.6854	-4.4854	-4.0167	89.126	197.181	60.534	205.905	101.268	167.003	51.020	160.756	127.449	112.106	168.388	179.572	-51.210	-12.191	-3.209	190.065	0.00031796	0.00034384	0.00015239	1259.3	3.8182e-06	6.6106e-06	1256.9	335.46	3.7015e-06	3.951e-06	387.75	130.18	112.65	39.793	3.6172e-06	49.297	0.00041059	0.00041204	0.00011383	1266.4	4.5425e-06	4.4503e-06	1268.8	339.41	4.5921e-06	4.5205e-06	391.53	132.75	114.63	40.334	4.4939e-06	50.125	181.598	22.683	0.566	-114.613	-2.904	1.570	-114.493	-110.033	47.903	-0.332	-110.425	-106.683	-106.028	-101.066	-19.719	-101.784	-8191	255	
951.620	1	1	0	0	0.18119	0.0069109	0.18957	0.20307	0.041295	0.042655	0.10031	0.097491	0.085293	0.21323	0.080165	0.1786	0.092453	0.16649	0.084586	0.1394	-4.3958	-4.2312	-4.0854	-5.0938	-3.8729	-4.3187	-4.8292	-4.0958	-4.6833	-4.3479	-3.8896	-4.9479	-4.0792	-4.5417	-4.6917	-3.9062	37.266	-1.439	-32.773	167.032	59.809	153.040	214.714	114.303	186.612	-80.733	-69.997	212.216	116.581	174.756	-55.920	-101.855	0.0003509	0.00048257	0.00012368	1263.7	3.9942e-06	4.8273e-06	1257	335.79	3.57e-06	5.4517e-06	388.29	129.9	112.34	39.58	3.2058e-06	49.138	0.00041201	0.00040579	0.00011602	1267	4.5535e-06	4.5024e-06	1268.4	339.23	4.6029e-06	4.5748e-06	391.28	132.38	114.48	40.23	4.569e-06	50.169	179.565	-18.184	-35.820	-114.686	-44.658	-19.986	-114.791	-110.004	-42.567	-22.621	-110.532	-106.589	-106.063	-100.858	-2.817	-101.600	-8191	255	
951.718	1	1	0	0	0.089499	0.015031	0.23274	0.030873	0.29134	0.12575	0.12689	0.2394	0.13647	0.12978	0.10454	0.11139	0.15876	0.1186	0.20881	0.19315	-4.4625	-4.3708	-4.1625	-4.8187	-3.9229	-4.325	-4.9125	-3.9833	-4.5542	-4.5271	-4.0188	-4.8438	-4.2417	-4.4479	-4.7292	-3.975	98.644	18.237	-91.521	-17.128	47.017	105.883	223.155	177.380	-36.182	0.918	160.982	118.959	163.716	98.979	168.705	-90.868	0.00030997	0.00034384	7.9391e-05	1257.2	2.1358e-06	3.8185e-06	1262.8	335.98	5.5489e-06	3.0658e-06	385.99	130.08	112.33	39.504	3.6829e-06	49.26	0.000414	0.00040919	0.00011647	1266.1	4.5335e-06	4.5039e-06	1272.6	339.51	4.5683e-06	4.4434e-06	390.94	132.64	114.34	40.3	4.5164e-06	50.174	174.829	-29.461	-43.522	-114.713	69.639	42.248	-114.525	-110.067	4.886	-24.154	-110.356	-106.653	-105.990	-100.915	11.693	-101.446	-8191	255	
951.812	1	1	0	0	0.16866	0.26655	0.14416	0.12578	0.1913	0.12716	0.020917	0.11466	0.13287	0.14986	0.26473	0.063218	0.19093	0.1681	0.12413	0.088049	-4.2646	-4.5958	-3.9625	-4.7104	-4.1125	-4.0687	-4.9729	-3.9333	-4.6021	-4.7833	-3.9583	-4.7604	-4.2937	-3.9729	-4.5792	-4.0583	-8.182	132.116	181.673	203.988	85.152	139.674	-8.807	207.041	211.620	93.770	228.030	-61.025	217.483	163.689	-126.052	177.316	0.00034614	0.00035857	0.00011909	1259.3	6.6943e-06	5.9525e-06	1257.2	336.4	4.0828e-06	4.7821e-06	388.4	130.18	112.28	39.606	4.9846e-06	49.155	0.00040977	0.00040684	0.00011678	1265.9	4.5007e-06	4.6245e-06	1269.5	339.71	4.6032e-06	4.4653e-06	391.38	132.9	114.47	40.287	4.5668e-06	50.159	181.990	-43.362	-18.513	-114.409	8.113	-7.363	-114.977	-110.031	-5.123	16.845	-110.202	-106.283	-106.195	-101.095	-27.716	-101.622	-8191	255	
951.908	1	1	0	0	0.15296	0.27762	0.27768	0.050213	0.11049	0.045039	0.30912	0.12692	0.24597	0.21874	0.036583	0.090237	0.20198	0.14929	0.15049	0.24075	-4.1062	-4.5708	-3.8854	-4.9042	-4.3688	-3.9604	-4.9979	-4.1208	-4.4104	-4.5917	-3.9188	-4.8521	-4.5208	-4.15	-4.825	-4.1458	50.089	82.714	92.672	229.718	32.178	-35.829	180.292	129.096	192.750	198.925	-84.652	-117.174	-46.154	-48.357	68.327	169.872	0.00033116	0.00062189	0.00016361	1257.8	7.6787e-07	2.4904e-06	1258.7	335.85	4.5088e-06	4.3339e-06	386.3	130.27	112.5	39.664	3.511e-06	49.081	0.00041494	0.00041252	0.00011687	1267.4	4.517e-06	4.6311e-06	1271.5	339.08	4.5961e-06	4.519e-06	390.78	132.54	114.29	40.247	4.5432e-06	50.058	182.247	-61.461	-11.429	-114.531	45.280	49.436	-114.631	-109.933	36.975	25.941	-110.377	-106.445	-106.118	-101.228	-46.234	-101.586	-8191	255	
952.004	1	1	0	0	0.10468	0.29036	0.092258	0.14895	0.18951	0.042287	0.040592	0.17014	0.23847	0.078939	0.10485	0.040861	0.097838	0.11191	0.17088	0.094528	-4.1271	-4.7729	-3.7687	-4.7146	-4.4333	-3.9146	-4.9854	-4.1771	-4.1292	-4.9104	-3.9229	-4.5542	-4.7979	-4.0521	-4.5896	-4.2792	195.279	65.954	215.171	224.514	102.943	-75.714	132.130	188.622	-118.888	51.333	203.552	-111.500	192.864	102.366	170.092	143.639	0.00031794	0.00074502	9.6566e-05	1254.3	6.1392e-06	4.0902e-06	1258.3	335.32	3.3237e-06	5.168e-06	387.2	130.03	112.39	39.656	7.0285e-06	49.09	0.0004216	0.00040981	0.0001157	1265.1	4.5298e-06	4.574e-06	1271.3	339.25	4.6863e-06	4.5062e-06	391.3	132.64	114.56	40.329	4.6371e-06	50.177	184.325	-46.172	-46.373	-114.510	1.471	31.460	-114.704	-109.875	-30.039	56.267	-110.484	-106.881	-105.856	-100.929	42.789	-101.610	-8191	255	
952.125	1	1	0	0	0.085702	0.098471	0.098892	0.099054	0.20612	0.079678	0.14444	0.020755	0.25333	0.17117	0.23607	0.030144	0.12088	0.16069	0.084238	0.18097	-3.8	-4.8896	-3.9688	-4.5	-4.7646	-3.9792	-4.8354	-4.2896	-3.925	-4.8208	-4.0354	-4.35	-4.7333	-3.8937	-4.6083	-4.6438	158.432	-26.173	-66.287	208.583	-87.399	39.536	85.600	211.692	-44.120	83.288	138.213	2.478	-76.069	191.125	-72.046	221.407	0.00035419	0.00048566	2.2267e-05	1260	4.3638e-06	3.9327e-06	1260.9	336.77	2.1411e-06	5.0372e-06	387.66	130.14	112.27	39.547	3.318e-06	49.268	0.00042175	0.00042177	0.00011702	1266.5	4.5402e-06	4.5584e-06	1270.8	339.59	4.6785e-06	4.6124e-06	391.07	132.74	114.42	40.317	4.5829e-06	50.204	174.413	39.721	48.274	-114.708	14.474	41.963	-114.597	-110.051	-115.031	37.121	-110.292	-106.471	-106.075	-101.195	6.628	-101.633	-8191	255	
952.221	1	1	0	0	0.1305	0.068313	0.19033	0.37575	0.099209	0.018215	0.46687	0.066632	0.10385	0.069772	0.26321	0.058592	0.082817	0.36761	0.12648	0.024573	-3.7812	-4.8583	-3.9062	-4.4271	-4.7854	-3.8146	-4.95	-4.4792	-3.8458	-4.7292	-4.2979	-4.3104	-4.8417	-3.9479	-4.5396	-4.4125	84.110	107.120	-10.642	169.267	-17.048	69.122	191.710	183.225	131.179	227.920	204.711	31.725	-124.894	171.449	50.799	32.584	0.0003447	0.00024912	0.00012094	1258.9	1.9788e-06	5.2857e-06	1256.3	336.71	2.869e-06	2.9075e-06	387.23	129.98	111.86	39.506	7.2983e-07	48.955	0.00042454	0.00041437	0.00011644	1266.2	4.5796e-06	4.5758e-06	1271.2	340.06	4.584e-06	4.5556e-06	390.88	132.57	114.27	40.223	4.5709e-06	50.179	174.824	-14.762	-51.848	-114.827	77.968	30.037	-114.985	-109.882	24.049	24.203	-110.537	-106.234	-106.078	-101.072	-90.935	-101.447	-8191	255	
952.317	1	1	0	0	0.081883	0.1047	0.26684	0.21529	0.025634	0.16501	0.088414	0.081607	0.13502	0.070519	0.20636	0.058561	0.16159	0.40528	0.16086	0.24177	-3.6375	-4.6896	-4.2	-4.275	-4.7833	-4.1396	-4.6604	-4.9167	-3.8083	-4.8479	-4.2417	-4.0625	-4.8063	-4.1125	-4.5083	-4.9062	224.797	120.764	127.649	203.394	67.253	149.243	199.563	222.432	-5.672	-103.957	56.974	216.612	186.681	123.959	197.700	127.482	0.00037394	0.00042932	8.0659e-05	1258.6	2.6184e-06	4.4772e-06	1258.3	336.76	5.5893e-06	5.5193e-06	385.31	129.58	111.96	39.692	1.1228e-06	49.27	0.0004127	0.00041173	0.00011513	1266.9	4.5226e-06	4.5234e-06	1271.6	339.73	4.6437e-06	4.6124e-06	390.47	132.57	114.39	40.34	4.6323e-06	50.089	176.751	-100.863	-37.017	-114.466	23.903	50.936	-114.789	-109.751	-22.570	-11.033	-110.220	-106.744	-105.867	-101.032	-50.870	-101.476	-8191	255	
952.414	1	1	0	0	0.017799	0.14552	0.13909	0.16542	0.090305	0.10401	0.23305	0.16001	0.18693	0.07011	0.26018	0.1702	0.063501	0.15633	0.041726	0.18821	-3.6604	-4.675	-4.1729	-4.2083	-4.8896	-4.0292	-4.4208	-4.8938	-3.8958	-4.7458	-4.3771	-3.8625	-4.9854	-4.1896	-4.2646	-4.8125	-22.040	-7.089	190.011	-121.238	105.116	192.574	205.872	222.705	183.481	-104.686	189.234	-74.448	196.343	-92.775	109.800	122.635	0.00036325	0.00069458	0.00015699	1258.4	4.9766e-06	3.3659e-06	1256.1	334.41	4.0439e-06	6.005e-06	388.1	130.6	112.33	39.588	1.3785e-06	49.11	0.00041962	0.00041406	0.00011506	1266.5	4.5202e-06	4.4909e-06	1268.7	338.88	4.5286e-06	4.4875e-06	391.39	132.8	114.34	40.317	4.5877e-06	50.167	178.902	-39.232	-27.486	-114.610	-9.230	-40.428	-114.885	-109.784	-7.678	27.571	-110.541	-106.554	-105.809	-100.820	-54.379	-101.588	-8191	255	
952.510	1	1	0	0	0.16449	0.14098	0.21378	0.044604	0.25897	0.028219	0.074338	0.2229	0.1888	0.12391	0.090658	0.15483	0.2236	0.1414	0.23331	0.18995	-3.4188	-4.6333	-4.3521	-3.925	-4.775	-4.2083	-4.475	-4.9146	-4.0312	-4.4646	-4.6146	-3.9708	-4.7458	-4.3562	-4.1729	-4.7208	151.501	-17.282	-24.696	134.810	-12.678	-90.514	129.483	129.978	116.020	42.726	149.751	151.662	42.263	24.399	-78.180	163.455	0.00029088	0.00037481	0.0001182	1256.8	1.0907e-06	2.6395e-06	1255.2	335.65	2.7953e-06	3.7305e-06	386.78	129.94	112.74	39.606	5.7579e-06	49.19	0.00041768	0.00040795	0.00011382	1265.6	4.583e-06	4.4872e-06	1269.9	339.47	4.5235e-06	4.5189e-06	390.72	132.35	114.45	40.268	4.6328e-06	50.142	184.603	-51.088	-25.460	-114.743	-26.428	-55.362	-114.876	-109.985	-29.757	20.468	-110.309	-106.555	-106.041	-100.921	-1.649	-101.813	-8191	255	
952.606	1	1	0	0	0.08032	0.080401	0.10497	0.25539	0.20618	0.2812	0.25185	0.32458	0.050098	0.041507	0.16327	0.067953	0.33437	0.10108	0.12164	0.031324	-3.375	-4.4125	-4.4333	-3.8583	-4.7521	-3.9792	-4.1813	-4.9437	-3.9854	-4.3187	-4.7042	-3.9062	-4.8229	-4.4521	-3.9021	-4.8917	170.079	-38.137	-71.666	131.452	23.386	153.216	191.789	209.384	-9.168	87.782	84.372	-126.268	203.259	135.823	173.894	63.462	0.0003495	0.00040291	8.8822e-05	1263.9	3.0067e-06	3.1836e-06	1251	334.23	2.6027e-06	4.3183e-06	387.7	129.63	112.36	39.466	4.9807e-06	49.325	0.00041828	0.00040833	0.00011316	1266.3	4.5097e-06	4.4936e-06	1266.5	339.29	4.5147e-06	4.495e-06	391.02	132.38	114.35	40.236	4.623e-06	50.174	179.820	-15.326	-51.995	-114.687	39.219	71.429	-115.225	-110.111	14.707	9.118	-110.394	-106.497	-106.096	-100.893	12.428	-101.528	-8191	255	
952.700	1	1	0	0	0.14236	0.065388	0.092945	0.22503	0.13195	0.1931	0.080989	0.057814	0.13438	0.19803	0.082849	0.029527	0.32505	0.3047	0.18083	0.14579	-3.5292	-4.3167	-4.5292	-4.075	-4.8313	-4.5396	-3.9458	-4.7937	-4.1229	-4.2458	-4.95	-4.0354	-4.6625	-4.4583	-3.9292	-4.7229	-16.337	-96.523	9.422	222.374	172.537	-64.934	33.001	189.962	96.076	22.457	180.013	207.953	209.397	-34.623	-64.166	114.242	0.00031457	0.00028823	7.0537e-05	1255	2.5886e-06	4.78e-06	1253.3	336.46	5.767e-06	5.2812e-06	387.81	130.27	112.19	39.658	3.1057e-06	48.934	0.00041498	0.00041345	0.00011442	1263.9	4.531e-06	4.5498e-06	1267.7	339.76	4.6383e-06	4.5573e-06	390.78	132.69	114.37	40.206	4.6778e-06	50.1	174.319	-17.350	-62.514	-114.693	-0.956	32.461	-114.801	-109.935	-20.652	45.995	-110.063	-106.494	-106.010	-100.780	28.093	-101.504	-8191	255	
952.821	1	1	0	0	0.027393	0.034115	0.1491	0.019903	0.072542	0.091574	0.21019	0.037368	0.10882	0.11265	0.1259	0.22845	0.4468	0.25454	0.17636	0.25593	-3.775	-4.0625	-4.7479	-3.9542	-4.525	-4.4792	-4.1104	-4.8625	-4.1708	-4.1687	-5.0604	-4.0021	-4.3708	-4.6958	-3.7708	-4.9042	-44.421	191.470	-117.728	18.187	31.497	-104.539	128.822	-10.957	-73.129	-125.349	147.934	192.495	188.772	193.447	223.723	124.120	0.00035192	0.00045721	0.00010646	1260.9	5.5917e-06	4.6991e-06	1256.2	334.88	2.0646e-06	6.5759e-06	385.97	130.06	112.74	39.619	3.8916e-06	49.212	0.00041688	0.00042294	0.00011585	1266	4.6548e-06	4.4633e-06	1270	338.98	4.6091e-06	4.6385e-06	390.36	132.5	114.75	40.281	4.6535e-06	50.154	169.265	-37.187	-37.014	-114.628	6.931	3.234	-114.598	-109.935	10.605	17.845	-110.295	-106.670	-105.996	-100.967	7.886	-101.840	-8191	255	
952.917	1	1	0	0	0.15296	0.070526	0.11442	0.11738	0.1255	0.049069	0.19163	0.24872	0.16074	0.13658	0.11585	0.11091	0.097397	0.21296	0.1729	0.16815	-3.8896	-3.8438	-4.8271	-4.0458	-4.4646	-4.7792	-3.9562	-4.6146	-4.1687	-3.8333	-5.0479	-4.0729	-4.475	-4.7854	-3.725	-4.7625	109.272	149.661	72.380	199.869	4.144	92.649	119.870	193.246	177.582	128.937	168.648	180.345	-123.703	214.740	231.491	-97.688	0.00037478	0.00050698	0.00010879	1253.1	6.0582e-06	3.3173e-06	1258.8	335.46	2.5855e-06	3.8856e-06	387.96	129.91	112.4	39.647	5.5676e-06	49.214	0.00042095	0.00042501	0.00011784	1262.8	4.7097e-06	4.6154e-06	1269.6	339.38	4.639e-06	4.7043e-06	391.19	132.38	114.44	40.269	4.6759e-06	50.183	173.875	-51.038	-17.599	-114.442	23.954	9.335	-114.760	-110.006	-59.699	54.038	-110.328	-106.432	-106.007	-100.819	43.777	-101.686	-8191	255	
952.989	1	1	0	0	0.13435	0.11015	0.077289	0.13749	0.084207	0.1485	0.032524	0.13902	0.36044	0.15485	0.16411	0.19215	0.1964	0.032097	0.094692	0.068071	-4.1646	-4.0708	-4.7458	-4.1312	-4.0396	-4.8333	-4.1229	-4.6562	-4.4292	-3.9896	-4.7	-4.3	-4.2396	-4.9292	-3.85	-4.5437	27.789	-69.175	153.899	-127.243	214.653	72.612	24.665	141.782	98.584	165.881	171.797	211.765	218.100	222.145	-84.525	207.545	0.00033765	0.00059932	0.00017915	1264.1	5.2089e-06	3.7354e-06	1255	335.73	3.8936e-06	6.6921e-06	385.14	130.39	112.24	39.619	2.2728e-06	49.136	0.00041736	0.00042281	0.00011526	1266.7	4.6998e-06	4.6147e-06	1268.7	339.39	4.6776e-06	4.6458e-06	390.29	132.55	114.44	40.292	4.615e-06	50.049	185.079	-60.199	-52.375	-114.701	-25.457	27.567	-114.872	-110.119	-51.794	22.619	-110.326	-106.587	-106.211	-100.947	-5.432	-101.648	-8191	255	
953.085	1	1	0	0	0.047771	0.094338	0.28468	0.14832	0.1739	0.35046	0.19539	0.1149	0.25981	0.13655	0.066156	0.051651	0.070154	0.22248	0.32216	0.346	-4.0521	-3.7	-4.6833	-4.2479	-4.0521	-4.7396	-4.1167	-4.4458	-4.5292	-3.9062	-4.7854	-4.2438	-4.2021	-4.7854	-3.8333	-4.5229	82.673	-83.646	-37.387	177.405	212.894	8.272	151.456	178.646	-52.136	38.183	224.921	-77.660	31.160	215.576	-111.770	186.903	0.00037432	0.00061727	8.4661e-05	1256.7	1.4804e-06	4.7197e-06	1256	336.07	2.9725e-06	4.33e-06	387.02	129.83	112.37	39.599	5.3895e-06	49.148	0.00041864	0.00041514	0.00011578	1265.2	4.6527e-06	4.5159e-06	1268.5	339.53	4.6533e-06	4.6499e-06	391.2	132.4	114.53	40.304	4.5836e-06	50.111	183.670	-1.769	-9.644	-114.526	-17.729	-5.125	-114.761	-110.042	4.552	15.194	-110.414	-106.617	-106.017	-100.787	47.336	-101.593	-8191	255	
953.205	1	1	0	0	0.094825	0.17918	0.070704	0.18619	0.06932	0.18088	0.11105	0.15261	0.073378	0.18228	0.26595	0.09631	0.1902	0.055734	0.031537	0.15641	-4.3688	-3.7083	-4.6083	-4.4688	-3.9729	-4.8792	-4.2312	-4.4292	-4.4625	-3.7167	-4.5729	-4.5958	-4.0146	-4.9604	-4.2625	-4.3396	93.951	-7.851	136.766	198.789	-55.321	-45.719	200.640	212.686	-17.433	72.339	-25.716	-126.524	129.872	-76.688	48.736	96.885	0.00035984	0.00080709	0.00016001	1253.1	4.1674e-06	4.5185e-06	1256.6	334.86	3.8665e-06	1.7681e-06	386.87	130.04	112.46	39.686	1.5141e-06	49.139	0.00041575	0.00041497	0.00011603	1263.3	4.6268e-06	4.4584e-06	1267.7	339.27	4.6121e-06	4.5906e-06	391.1	132.38	114.3	40.349	4.6041e-06	50.174	180.108	-31.418	-57.439	-114.439	5.929	64.596	-114.661	-110.055	-20.107	-19.818	-110.720	-106.688	-106.314	-100.967	-3.196	-101.792	-8191	255	
953.302	1	1	0	0	0.22733	0.15363	0.11776	0.17849	0.30938	0.13903	0.085692	0.32788	0.084975	0.10772	0.14476	0.2079	0.072674	0.06801	0.12003	0.087948	-4.4979	-3.8333	-4.4313	-4.6062	-3.8833	-4.9375	-4.2896	-4.1229	-4.7917	-3.7	-4.2896	-4.6167	-3.9229	-4.9875	-4.2438	-4.0021	222.282	37.777	-126.441	180.026	138.348	-45.486	172.829	186.155	128.941	124.270	116.014	201.455	-19.926	-85.756	-0.545	-44.296	0.00035374	0.00065708	5.7381e-05	1255.5	1.9873e-06	2.2457e-06	1252.6	334.84	4.9185e-06	4.9682e-06	386.32	129.64	112.3	39.595	4.2978e-06	48.936	0.00041514	0.00042437	0.00011735	1265.2	4.6417e-06	4.5337e-06	1267.7	339.29	4.5384e-06	4.5488e-06	390.88	132.49	114.41	40.273	4.6069e-06	50.106	186.171	-72.996	-84.783	-114.740	22.912	30.109	-114.807	-110.066	-38.536	34.735	-110.325	-106.483	-106.413	-100.847	42.023	-101.733	-8191	255	
953.398	1	1	0	0	0.30896	0.14055	0.12934	0.011123	0.052353	0.14409	0.1228	0.21951	0.11568	0.012644	0.1067	0.11781	0.069099	0.11896	0.28371	0.19005	-4.2417	-3.9062	-4.2521	-4.6708	-3.8708	-4.6	-4.3229	-3.9646	-4.6646	-3.9417	-4.3083	-4.5271	-3.7604	-4.8167	-4.3917	-4.0312	196.233	-119.812	41.173	88.300	-25.940	217.803	134.646	231.291	-66.261	171.991	-63.892	225.219	36.958	161.451	77.482	-72.026	0.00032727	0.00042559	0.0001076	1261.3	3.6103e-06	7.4387e-06	1258.4	334.04	1.1926e-06	2.106e-06	387.44	129.66	111.77	39.648	3.5778e-06	48.78	0.00041845	0.00042002	0.0001163	1266.6	4.6504e-06	4.5923e-06	1268.7	339.32	4.6249e-06	4.6721e-06	391.17	132.46	114.38	40.275	4.6184e-06	50.013	174.448	-83.104	-29.674	-114.487	67.209	20.672	-114.892	-110.007	39.367	64.409	-110.617	-106.568	-106.244	-101.160	26.021	-101.644	-8191	255	
953.518	1	1	0	0	0.028168	0.13452	0.042421	0.035402	0.17888	0.33583	0.16416	0.077497	0.12986	0.16271	0.23701	0.041833	0.18175	0.2061	0.20397	0.056589	-4.3354	-3.8146	-4.1625	-4.8583	-3.8833	-4.5188	-4.4771	-3.9625	-4.6146	-3.9896	-4.3938	-4.9333	-3.8917	-4.6083	-4.5458	-4.0958	-77.913	93.387	-95.342	190.501	141.392	2.029	124.909	38.051	-95.573	135.411	189.585	-0.880	-98.332	227.504	-101.777	106.515	0.00031028	0.00026562	0.00018565	1257.6	4.1751e-06	4.2404e-06	1260.1	335.21	5.8659e-06	2.2351e-06	386.78	130.04	112.54	39.378	1.8811e-06	49.192	0.00042129	0.00041716	0.00011769	1264.7	4.6674e-06	4.5577e-06	1269.3	339.26	4.6443e-06	4.5995e-06	390.8	132.48	114.46	40.173	4.6833e-06	50.143	176.386	-36.457	-10.603	-114.446	-12.834	17.912	-114.929	-110.287	1.699	-0.201	-110.662	-106.642	-106.243	-101.040	-19.929	-101.768	-8191	255	
953.613	1	1	0	0	0.12123	0.13274	0.16555	0.096725	0.14526	0.017293	0.15507	0.07372	0.193	0.26397	0.10244	0.25429	0.11907	0.24775	0.095099	0.20503	-4.4542	-4.1312	-4.1062	-4.9292	-3.9125	-4.25	-4.6875	-3.9229	-4.7625	-3.9542	-4.0854	-4.9521	-4.0729	-4.3938	-4.3646	-3.8438	3.190	124.463	75.321	217.795	174.680	31.790	119.028	86.866	11.361	-113.208	39.167	171.352	-27.427	217.422	179.230	113.434	0.00034443	0.000573	9.4663e-05	1260.2	3.9867e-06	4.7349e-06	1257.7	335.01	2.8386e-06	5.715e-06	385.99	129.83	112.36	39.754	5.5119e-06	48.898	0.00042331	0.00041727	0.00011945	1265.6	4.6115e-06	4.6397e-06	1270.4	339.24	4.6989e-06	4.5738e-06	390.36	132.47	114.5	40.301	4.6284e-06	50.082	184.127	-22.120	-29.908	-114.506	-23.931	30.178	-114.776	-109.949	-25.998	21.116	-110.588	-106.212	-106.348	-101.191	11.847	-101.720	-8191	255	
953.686	1	1	0	0	0.082993	0.23009	0.11838	0.12793	0.1901	0.074148	0.25826	0.080458	0.18403	0.07591	0.2434	0.050833	0.036652	0.1383	0.065433	0.11297	-4.6104	-4.4979	-3.9729	-4.8771	-3.9375	-4.4479	-4.8792	-3.7521	-4.5208	-4.4979	-4.0875	-4.8438	-4.1417	-4.2729	-4.7917	-4.0354	122.981	105.246	25.601	-113.712	-55.646	-44.166	194.361	176.568	-127.035	201.351	-106.084	131.373	-45.486	7.568	54.400	192.486	0.00034321	0.00060861	0.00012527	1256.1	3.8288e-06	4.58e-06	1259.5	336.08	3.3366e-06	4.8577e-06	385.79	129.87	111.73	39.545	2.4596e-06	49.076	0.00042015	0.00041333	0.00011712	1263.4	4.5902e-06	4.6404e-06	1269.3	339.23	4.6458e-06	4.6101e-06	389.99	132.5	114.2	40.262	4.6188e-06	50.103	185.586	-48.503	-35.595	-114.702	-5.775	28.571	-114.954	-110.064	-33.989	24.546	-110.718	-106.541	-106.331	-101.119	68.344	-101.929	-8191	255	
953.805	1	1	0	0	0.092657	0.12672	0.25092	0.042827	0.14842	0.25369	0.20602	0.095973	0.14851	0.1306	0.061446	0.15047	0.24427	0.04428	0.078669	0.029124	-4.2417	-4.5125	-3.7687	-4.6208	-3.9813	-4.0854	-5.1813	-3.9083	-4.2583	-4.4229	-3.875	-4.65	-4.1312	-4.1604	-4.75	-3.8917	-29.300	163.165	-94.826	203.614	53.852	167.745	201.489	42.916	-78.765	-28.764	1.595	-96.463	-107.646	214.370	40.582	59.872	0.00041062	0.00061231	0.00019335	1255.1	4.1212e-06	1.6755e-06	1256	336.66	3.6052e-06	5.0873e-06	385.12	130.29	112.78	39.637	4.8614e-06	49.1	0.00042217	0.00041249	0.00011875	1263.4	4.5722e-06	4.5639e-06	1269.5	339.42	4.6444e-06	4.5462e-06	390.33	132.66	114.28	40.253	4.6026e-06	50.053	181.634	-50.213	8.392	-114.581	13.878	37.445	-114.720	-110.061	-53.690	-31.971	-110.198	-106.445	-106.124	-101.186	43.422	-101.879	-8191	255	
953.901	1	1	0	0	0.20903	0.078312	0.18222	0.21373	0.22133	0.073961	0.15941	0.071462	0.25088	0.090308	0.28163	0.30765	0.22353	0.14541	0.061348	0.15947	-3.9229	-4.5833	-3.8333	-4.9521	-4.3771	-4.0167	-4.7688	-3.9375	-4.2542	-4.7646	-4.0479	-4.7542	-4.3271	-4.0146	-4.7292	-4.05	82.900	-91.683	-110.956	8.606	-79.934	88.066	120.000	185.194	14.302	-65.074	221.667	-103.786	-69.731	192.600	-108.434	13.738	0.00033446	0.00074589	0.00013876	1252.9	2.2823e-06	3.4877e-06	1258.2	334.38	4.1119e-06	1.7603e-06	387.25	129.99	112.41	39.506	3.4598e-06	48.916	0.00041755	0.00041923	0.00011798	1263.6	4.585e-06	4.6535e-06	1267.5	338.63	4.675e-06	4.5829e-06	390.37	132.69	114.38	40.181	4.6486e-06	50.006	181.483	-23.474	-29.636	-114.459	113.116	98.221	-114.788	-109.918	-37.542	74.971	-110.804	-106.426	-106.116	-101.172	60.327	-101.408	-8191	255	
953.997	1	1	0	0	0.1847	0.069296	0.012263	0.093738	0.28428	0.091891	0.41445	0.037271	0.19769	0.093295	0.15018	0.26655	0.18016	0.44122	0.12395	0.20072	-3.8854	-4.7292	-3.8479	-4.5646	-4.3708	-3.9896	-5.0271	-4.225	-4.0646	-4.7	-3.9104	-4.6229	-4.4208	-3.9646	-4.6333	-4.1708	37.916	56.810	-3.671	212.183	-33.941	35.502	119.505	96.645	-114.844	-6.870	206.558	-102.747	220.526	-101.233	203.789	206.718	0.00032494	0.00029857	9.5681e-05	1256.7	4.081e-06	5.5901e-06	1257.1	334.6	3.549e-06	3.2056e-06	386.86	130.27	112.06	39.543	4.4045e-06	49.141	0.00042941	0.00042142	0.00011648	1264.3	4.6987e-06	4.6861e-06	1268.7	338.87	4.7638e-06	4.6655e-06	390.71	132.52	114.22	40.212	4.7069e-06	50.188	186.493	-60.167	13.954	-114.761	9.067	8.840	-114.937	-109.942	-39.041	-17.951	-110.383	-106.623	-106.035	-101.066	-18.265	-101.519	-8191	255	
954.118	1	1	0	0	0.054742	0.17221	0.1361	0.30002	0.23233	0.16017	0.21614	0.1752	0.13168	0.11548	0.11132	0.20195	0.086436	0.15207	0.005699	0.22256	-3.8646	-4.5333	-3.775	-4.5125	-4.6146	-3.7146	-4.8375	-4.1062	-4.1208	-4.7688	-4.1438	-4.3208	-4.5479	-3.9354	-4.7375	-4.3021	-70.189	167.834	103.888	153.235	17.640	62.406	146.668	177.905	-17.106	-4.995	-87.293	163.037	223.150	11.351	37.324	126.654	0.0003361	0.00027592	0.00015662	1254.3	5.0028e-06	5.7963e-06	1254.7	334.85	4.133e-06	4.7016e-06	387.17	129.59	112.42	39.528	4.0765e-06	49.001	0.00043222	0.0004335	0.00012189	1264.1	4.7343e-06	4.7236e-06	1269.3	338.97	4.865e-06	4.7576e-06	391.14	132.46	114.46	40.222	4.8277e-06	50.119	184.687	-10.404	-12.876	-114.656	4.048	17.905	-115.014	-109.886	-40.491	50.281	-110.279	-106.539	-105.841	-100.825	37.364	-101.650	-8191	255	
954.214	1	1	0	0	0.20839	0.11166	0.091835	0.26719	0.1185	0.086624	0.25244	0.22588	0.10498	0.10313	0.15887	0.12859	0.22354	0.14539	0.17112	0.17054	-3.8187	-4.7146	-4.0375	-4.4125	-4.7	-3.8729	-4.8313	-4.3646	-3.9417	-4.7958	-3.9417	-4.2688	-4.7438	-3.9479	-4.4187	-4.5312	91.171	189.330	87.343	220.807	-48.851	33.492	182.711	182.588	204.573	62.114	188.219	31.235	166.978	158.579	164.378	214.872	0.00038241	0.00081941	0.00013123	1252.3	2.9528e-06	3.416e-06	1254.3	336.56	4.7182e-06	1.6016e-06	385.24	130.24	111.89	39.438	4.9891e-06	49.083	0.00044736	0.00044186	0.00012261	1263.1	4.8434e-06	4.8228e-06	1267.6	339.42	4.9535e-06	4.9151e-06	390.66	132.7	114.33	40.31	4.9208e-06	50.123	186.902	-67.851	-9.083	-114.854	-63.903	18.392	-114.944	-110.004	-90.986	36.141	-110.317	-106.440	-106.171	-100.760	58.905	-101.724	-8191	255	
954.286	1	1	0	0	0.048701	0.1415	0.12981	0.17213	0.05875	0.065393	0.21156	0.34064	0.14365	0.194	0.20684	0.13476	0.067544	0.16255	0.15631	0.077534	-3.5542	-4.8104	-3.9875	-4.3542	-4.6687	-3.8167	-4.6667	-4.5312	-3.7583	-4.8021	-4.25	-4.1125	-4.8479	-3.8833	-4.3583	-4.8729	203.531	177.103	149.740	111.698	123.054	-10.504	224.620	192.386	200.387	172.864	183.521	176.619	-1.006	180.089	39.428	-72.796	0.00032626	0.00027592	0.00012208	1260.7	3.5939e-06	3.7127e-06	1259.4	335.62	3.3669e-06	6.583e-06	386.64	130.24	112.17	39.557	1.6249e-06	49.327	0.00045503	0.00044701	0.00012223	1266	4.8596e-06	4.9152e-06	1270.3	339.51	4.9265e-06	4.8814e-06	391.18	132.56	114.34	40.284	4.9892e-06	50.171	179.302	-26.471	-65.676	-114.723	-21.609	-0.593	-114.889	-109.955	7.609	35.819	-110.183	-107.048	-106.099	-100.755	78.266	-101.529	-8191	255	
954.382	1	1	0	0	0.043837	0.17809	0.30426	0.25676	0.094234	0.1866	0.16075	0.19181	0.2092	0.18677	0.1571	0.16572	0.2261	0.13617	0.37131	0.16983	-3.6146	-4.7167	-4.0437	-4.2042	-4.8021	-3.9854	-4.3896	-4.6562	-3.9417	-4.8604	-4.4146	-3.975	-4.7354	-3.775	-4.2146	-4.65	-80.667	0.137	-107.929	210.903	166.974	88.818	-92.063	148.210	231.949	-35.902	123.576	163.524	159.510	-83.114	-114.746	221.361	0.00032607	0.00055732	0.0001573	1258.8	3.3509e-06	6.0116e-06	1257	335.55	3.4654e-06	2.0243e-06	386.42	130.05	112.44	39.43	3.4745e-06	48.764	0.00045558	0.00045559	0.00012712	1266.9	5.0031e-06	4.9424e-06	1269.4	339.61	5.1288e-06	5.0082e-06	391.23	132.29	114.67	40.249	5.0749e-06	50.098	177.276	-13.227	-32.926	-114.722	-19.767	-0.867	-114.866	-109.792	-5.311	-31.759	-110.358	-106.626	-105.702	-100.789	48.287	-101.642	-8191	255	
954.503	1	1	0	0	0.086868	0.15335	0.1378	0.14752	0.19813	0.042331	0.15848	0.053554	0.049491	0.079051	0.070194	0.21447	0.16269	0.069287	0.19711	0.22213	-3.65	-4.4938	-4.2792	-4.2646	-4.7896	-4.0167	-4.2562	-4.8292	-3.7667	-4.5646	-4.6021	-3.975	-4.9125	-4.3458	-4.0813	-4.8125	-6.440	112.384	30.532	231.417	-94.649	139.817	47.076	-95.097	18.972	91.409	201.118	226.528	-25.790	33.860	191.673	150.886	0.00032863	0.00083124	0.00017344	1263.3	3.987e-06	4.0391e-06	1253.8	336.09	1.7636e-07	5.0045e-06	385.57	130.01	112.06	39.478	6.0231e-06	49.054	0.00046189	0.00045765	0.00012629	1267.3	5.0308e-06	4.973e-06	1270.5	339.91	5.0567e-06	4.9903e-06	391.39	132.59	114.51	40.307	5.0333e-06	50.116	183.014	-70.831	-15.403	-114.703	3.859	31.104	-114.624	-109.899	217.777	83.532	-110.551	-106.664	-106.239	-100.733	-15.765	-101.309	-8191	255	
#DATA ENDS
