BOXY.EXE: ISS Imagent and Oximeter Data Acquisition Program Version 0.80
Ascii Record File

#ACQ INFORMATION
2  Detector Channels 
16  External MUX Channels 
1  Auxiliary Channels 
5000  Waveform (CCF) Frequency (Hz)
1  Waveforms Skipped 
30  Waveforms Averaged 
1  Cycles Averaged 
16  Acquisitions per Waveform 
10.0806  Updata Rate (Hz) 

#FILE INFORMATION
TRUE -- External MUX Channel results are PARSED.
FALSE -- AC DC and Phase are NOT grouped.
TRUE -- Companion Program Settings File CREATED.
FALSE -- AC data not excluded
FALSE -- DC data not excluded
FALSE -- Phase data not excluded
FALSE -- Auxillary Chn. data not excluded
Tab delimiters

#CALIBRATION STATE
TRUE -- Waveform Calibration Values APPLIED.


#AUX CALIBRATION VALUES
Val Type	aux-1	

Term	1.0000e+00	
Factor	0.0000e+00	


#WF CALIBRATION VALUES
A = Detector Channel
Val Type	A-AC1	A-AC2	A-AC3	A-AC4	A-AC5	A-AC6	A-AC7	A-AC8	A-AC9	A-AC10	A-AC11	A-AC12	A-AC13	A-AC14	A-AC15	A-AC16	A-DC1	A-DC2	A-DC3	A-DC4	A-DC5	A-DC6	A-DC7	A-DC8	A-DC9	A-DC10	A-DC11	A-DC12	A-DC13	A-DC14	A-DC15	A-DC16	A-Ph1	A-Ph2	A-Ph3	A-Ph4	A-Ph5	A-Ph6	A-Ph7	A-Ph8	A-Ph9	A-Ph10	A-Ph11	A-Ph12	A-Ph13	A-Ph14	A-Ph15	A-Ph16	

Term	0.00000e+00	0.00000e+00	0.00000e+00	0.00000e+00	0.00000e+00	0.00000e+00	0.00000e+00	0.00000e+00	0.00000e+00	0.00000e+00	0.00000e+00	0.00000e+00	0.00000e+00	0.00000e+00	0.00000e+00	0.00000e+00	0.00000e+00	0.00000e+00	0.00000e+00	0.00000e+00	0.00000e+00	0.00000e+00	0.00000e+00	0.00000e+00	0.00000e+00	0.00000e+00	0.00000e+00	0.00000e+00	0.00000e+00	0.00000e+00	0.00000e+00	0.00000e+00	0.00000e+00	0.00000e+00	0.00000e+00	0.00000e+00	0.00000e+00	0.00000e+00	0.00000e+00	0.00000e+00	0.00000e+00	0.00000e+00	0.00000e+00	0.00000e+00	0.00000e+00	0.00000e+00	0.00000e+00	0.00000e+00	
Factor	1.00000e+00	1.00000e+00	1.00000e+00	1.00000e+00	1.00000e+00	1.00000e+00	1.00000e+00	1.00000e+00	1.00000e+00	1.00000e+00	1.00000e+00	1.00000e+00	1.00000e+00	1.00000e+00	1.00000e+00	1.00000e+00	1.00000e+00	1.00000e+00	1.00000e+00	1.00000e+00	1.00000e+00	1.00000e+00	1.00000e+00	1.00000e+00	1.00000e+00	1.00000e+00	1.00000e+00	1.00000e+00	1.00000e+00	1.00000e+00	1.00000e+00	1.00000e+00	X	X	X	X	X	X	X	X	X	X	X	X	X	X	X	X	

B = Detector Channel
Val Type	B-AC1	B-AC2	B-AC3	B-AC4	B-AC5	B-AC6	B-AC7	B-AC8	B-AC9	B-AC10	B-AC11	B-AC12	B-AC13	B-AC14	B-AC15	B-AC16	B-DC1	B-DC2	B-DC3	B-DC4	B-DC5	B-DC6	B-DC7	B-DC8	B-DC9	B-DC10	B-DC11	B-DC12	B-DC13	B-DC14	B-DC15	B-DC16	B-Ph1	B-Ph2	B-Ph3	B-Ph4	B-Ph5	B-Ph6	B-Ph7	B-Ph8	B-Ph9	B-Ph10	B-Ph11	B-Ph12	B-Ph13	B-Ph14	B-Ph15	B-Ph16	

Term	0.00000e+00	0.00000e+00	0.00000e+00	0.00000e+00	0.00000e+00	0.00000e+00	0.00000e+00	0.00000e+00	0.00000e+00	0.00000e+00	0.00000e+00	0.00000e+00	0.00000e+00	0.00000e+00	0.00000e+00	0.00000e+00	0.00000e+00	0.00000e+00	0.00000e+00	0.00000e+00	0.00000e+00	0.00000e+00	0.00000e+00	0.00000e+00	0.00000e+00	0.00000e+00	0.00000e+00	0.00000e+00	0.00000e+00	0.00000e+00	0.00000e+00	0.00000e+00	-1.50286e+02	-1.28179e+02	-1.21349e+02	-1.82838e+02	-7.38202e+01	-6.86517e+01	-1.55822e+02	-1.62015e+02	-7.29113e+01	-6.79823e+01	-1.70826e+02	-1.70724e+02	-1.80370e+02	-1.76266e+02	-6.49426e+01	-1.48473e+02	
Factor	2.23038e-05	1.70172e-04	3.80664e-05	2.18512e-01	1.33480e-06	1.47544e-06	1.70849e-01	6.06101e-02	1.17230e-06	1.44139e-06	8.98913e-02	2.97864e-02	2.76328e-02	9.32721e-03	1.30128e-06	1.34466e-02	3.00195e-06	3.32187e-06	9.25624e-07	1.11221e-01	3.61816e-08	3.65802e-08	8.21001e-02	3.10359e-02	3.62532e-08	3.66873e-08	4.44963e-02	1.48016e-02	1.42663e-02	4.80361e-03	3.65987e-08	6.70235e-03	X	X	X	X	X	X	X	X	X	X	X	X	X	X	X	X	



#DISTANCE SETTINGS
A = Detector Channel
A-1	A-2	A-3	A-4	A-5	A-6	A-7	A-8	A-9	A-10	A-11	A-12	A-13	A-14	A-15	A-16	

2.5000e+00	3.0000e+00	2.5000e+00	3.0000e+00	2.0000e+00	3.0000e+00	1.5000e+00	3.0000e+00	3.0000e+00	3.0000e+00	3.0000e+00	3.0000e+00	3.0000e+00	3.0000e+00	1.5000e+00	3.0000e+00	

B = Detector Channel
B-1	B-2	B-3	B-4	B-5	B-6	B-7	B-8	B-9	B-10	B-11	B-12	B-13	B-14	B-15	B-16	

1.0000e+01	1.0000e+01	1.0000e+01	1.4400e+00	1.0000e+01	1.0000e+01	1.5100e+00	1.9400e+00	1.0000e+01	1.0000e+01	1.9900e+00	2.4900e+00	2.4100e+00	2.9000e+00	1.0000e+01	2.9800e+00	




#DATA BEGINS
time	group	step	mark	flag	A-AC1	A-AC2	A-AC3	A-AC4	A-AC5	A-AC6	A-AC7	A-AC8	A-AC9	A-AC10	A-AC11	A-AC12	A-AC13	A-AC14	A-AC15	A-AC16	A-DC1	A-DC2	A-DC3	A-DC4	A-DC5	A-DC6	A-DC7	A-DC8	A-DC9	A-DC10	A-DC11	A-DC12	A-DC13	A-DC14	A-DC15	A-DC16	A-Ph1	A-Ph2	A-Ph3	A-Ph4	A-Ph5	A-Ph6	A-Ph7	A-Ph8	A-Ph9	A-Ph10	A-Ph11	A-Ph12	A-Ph13	A-Ph14	A-Ph15	A-Ph16	B-AC1	B-AC2	B-AC3	B-AC4	B-AC5	B-AC6	B-AC7	B-AC8	B-AC9	B-AC10	B-AC11	B-AC12	B-AC13	B-AC14	B-AC15	B-AC16	B-DC1	B-DC2	B-DC3	B-DC4	B-DC5	B-DC6	B-DC7	B-DC8	B-DC9	B-DC10	B-DC11	B-DC12	B-DC13	B-DC14	B-DC15	B-DC16	B-Ph1	B-Ph2	B-Ph3	B-Ph4	B-Ph5	B-Ph6	B-Ph7	B-Ph8	B-Ph9	B-Ph10	B-Ph11	B-Ph12	B-Ph13	B-Ph14	B-Ph15	B-Ph16	aux-1	digaux	

886.119	1	1	0	256	0.1607	0.36767	0.16934	0.47114	0.10841	0.19848	0.23628	0.14389	0.14564	0.085196	0.20131	0.13231	0.26377	0.11714	0.095148	0.11382	-4.2521	-3.9208	-4.5875	-4.5458	-4.0292	-4.6562	-4.3292	-4.2833	-4.6708	-3.8729	-4.5125	-4.6458	-4.0854	-4.8271	-4.2583	-4.1396	-110.712	-24.071	-44.742	120.063	-122.937	136.127	140.427	185.059	-9.669	-86.324	134.729	-139.449	183.417	187.450	188.820	201.186	0.00045295	0.00058013	9.8618e-05	1274.3	3.0677e-06	4.7124e-06	1277.9	340.84	3.1326e-06	2.8501e-06	394.28	132.39	115.05	40.404	6.1656e-06	49.948	0.00054415	0.00055001	0.00015207	1289	6.1057e-06	5.9931e-06	1294.9	346.76	6.0175e-06	5.9245e-06	399.92	135.78	117.45	41.309	5.8557e-06	51.523	190.766	-55.366	-126.125	-137.455	-8.340	-25.624	-137.572	-132.734	-14.269	1.730	-133.083	-129.191	-128.585	-123.287	-25.807	-124.553	-8191	255	
886.239	1	1	0	0	0.11134	0.16284	0.055412	0.13639	0.18904	0.073631	0.29321	0.13807	0.1338	0.10861	0.16492	0.059886	0.053501	0.32079	0.16057	0.073977	-4.5729	-3.9771	-4.2708	-4.8354	-3.8187	-4.8979	-4.525	-4.1312	-4.7375	-4.0271	-4.5771	-4.7833	-3.9417	-4.6625	-4.3792	-4.0854	190.527	108.082	162.725	154.013	113.439	52.739	100.152	-72.453	75.254	-136.412	-122.318	160.660	-103.190	138.313	196.371	77.414	0.00045999	0.00015152	2.0441e-05	1277.9	5.2276e-06	5.5664e-06	1276.5	341.78	3.7383e-06	4.5817e-06	392.55	132.14	114.81	40.309	1.586e-06	50.038	0.00053195	0.0005334	0.0001499	1291.3	5.9545e-06	5.7872e-06	1294.8	346.4	5.7945e-06	5.8275e-06	399.19	135.65	117.45	41.259	5.884e-06	51.403	184.260	-78.712	75.410	-137.344	-6.362	-9.533	-137.636	-132.680	-37.334	-22.681	-133.332	-129.214	-128.470	-123.636	42.882	-124.410	-8191	255	
886.336	1	1	0	0	0.18567	0.12741	0.15664	0.17069	0.10765	0.11363	0.077133	0.36233	0.13486	0.11497	0.21031	0.11604	0.095671	0.25337	0.16474	0.13134	-4.65	-4.0979	-4.2562	-4.9521	-3.8312	-4.7146	-4.5458	-4.1333	-4.8688	-4.0771	-4.4458	-4.7875	-4.0604	-4.7854	-4.4417	-4.0312	-145.408	-148.981	-7.597	202.027	-5.576	-77.961	-148.653	122.355	113.637	-142.039	-88.267	59.965	-76.558	188.687	-3.071	140.732	0.00045716	0.00047915	0.00020676	1277.6	2.8618e-06	8.6558e-06	1277.9	342.4	4.0083e-06	3.9339e-06	392.28	132.4	114.79	40.373	2.9142e-06	50.04	0.00053393	0.00053435	0.00015112	1288.5	5.9599e-06	5.876e-06	1295.3	346.69	5.9019e-06	5.8337e-06	399.74	135.81	117.58	41.261	5.7917e-06	51.459	179.455	-40.165	-0.678	-137.357	-23.905	-13.556	-137.489	-132.910	-15.032	-64.564	-132.818	-129.400	-128.978	-123.481	-2.002	-124.435	-8191	255	
886.432	1	1	0	0	0.21033	0.087253	0.14139	0.15125	0.19326	0.10699	0.20799	0.1787	0.24368	0.19364	0.052537	0.08161	0.14708	0.19759	0.038873	0.13874	-4.6125	-4.0188	-4.1708	-4.9792	-3.9583	-4.4417	-4.5958	-4.0854	-4.7646	-4.2167	-4.1333	-4.8646	-3.9729	-4.5271	-4.5833	-4.1479	26.703	82.491	-129.247	137.982	198.268	-147.767	140.656	123.860	60.059	43.237	165.984	61.756	199.966	171.969	148.598	82.746	0.00043396	0.00017604	9.6032e-05	1278.3	5.0365e-06	1.7835e-06	1276	340.17	2.5821e-06	2.2712e-06	393.79	132.9	115.04	40.469	4.1575e-06	49.959	0.00053131	0.00052346	0.00014725	1289.8	5.8825e-06	5.7817e-06	1295.2	345.66	5.7601e-06	5.7575e-06	399.37	135.77	117.39	41.243	5.7744e-06	51.428	182.830	-104.713	-58.040	-137.022	0.409	-8.169	-137.623	-132.677	-17.400	25.678	-133.328	-129.568	-128.842	-123.522	37.240	-124.373	-8191	255	
886.528	1	1	0	0	0.092689	0.062504	0.21462	0.23239	0.052812	0.076022	0.071099	0.14736	0.30199	0.18487	0.127	0.14517	0.19802	0.11541	0.014608	0.23463	-4.4062	-4.5646	-3.9771	-4.8521	-3.8812	-4.2917	-4.9146	-3.8458	-4.6458	-4.425	-3.9333	-4.8896	-4.1312	-4.3	-4.5729	-3.8604	54.519	-30.616	-30.340	184.911	-20.665	-12.846	84.805	205.763	86.524	-147.170	-134.229	122.623	207.049	159.973	-149.679	145.515	0.0004016	0.00047937	0.00013984	1279.5	3.5128e-06	6.7332e-06	1276.9	341.29	3.0215e-06	8.8166e-06	393.4	133.22	115.15	40.392	3.8703e-06	49.956	0.00052432	0.00052636	0.00015134	1293.1	5.8753e-06	5.8662e-06	1295.7	346.38	5.944e-06	5.9542e-06	399.71	135.59	117.47	41.197	5.9194e-06	51.374	181.076	-65.592	-80.110	-136.983	-66.316	-23.190	-137.470	-132.658	-66.242	16.659	-132.953	-129.338	-128.708	-123.819	22.943	-124.412	-8191	255	
886.624	1	1	0	0	0.092416	0.24813	0.1726	0.033066	0.14749	0.13237	0.082235	0.19223	0.2066	0.14161	0.25887	0.15312	0.2681	0.13923	0.09786	0.30985	-4.3208	-4.4812	-3.75	-5.0042	-4.0062	-4.2396	-4.9583	-4.0938	-4.4917	-4.5813	-3.7354	-5.1083	-4.1542	-4.3854	-4.7188	-3.9688	-12.738	133.942	1.014	87.423	163.932	9.923	174.503	149.657	-45.266	-145.975	167.752	4.926	146.218	-92.929	110.672	-150.598	0.00043063	0.00025124	0.00012221	1281.5	5.0288e-06	2.5336e-06	1275.9	340.53	3.7459e-06	5.4042e-06	392.39	132.45	114.97	40.366	7.0579e-06	50.082	0.00053521	0.0005385	0.00015387	1292.2	5.8742e-06	5.9068e-06	1294.5	345.76	5.9908e-06	5.8896e-06	399.07	135.91	117.44	41.274	6.0009e-06	51.45	183.311	-60.324	-56.170	-137.169	-42.991	141.821	-137.585	-132.629	-68.412	28.140	-133.282	-129.325	-128.789	-123.596	10.866	-124.413	-8191	255	
886.720	1	1	0	0	0.14641	0.054873	0.032697	0.14251	0.31935	0.13991	0.40808	0.21916	0.10622	0.037575	0.16523	0.15649	0.059339	0.2206	0.060954	0.28226	-4.1042	-4.5333	-3.8229	-4.8375	-4.35	-4.1188	-5.0208	-3.9813	-4.5708	-4.6458	-3.9417	-4.8479	-4.1833	-3.9896	-4.7792	-4.0396	14.071	36.237	-2.083	181.191	159.485	-61.736	169.578	176.293	-110.973	-66.461	-106.023	205.886	-19.070	205.048	-141.308	112.225	0.00047282	0.00074019	0.00013873	1276.6	5.2667e-06	5.1875e-06	1274.1	340.68	3.1226e-06	1.8523e-06	393.21	133.28	115.19	40.135	5.168e-06	49.873	0.00054497	0.00053942	0.00015345	1290.2	5.9581e-06	6.0942e-06	1294.9	345.87	6.0337e-06	6.038e-06	399.28	135.77	117.5	41.179	6.2063e-06	51.369	185.101	-56.688	-51.069	-137.177	15.176	-31.841	-137.593	-132.886	-75.491	62.326	-133.060	-129.559	-128.473	-123.492	0.099	-124.367	-8191	255	
886.816	1	1	0	0	0.22133	0.075359	0.25243	0.058262	0.10193	0.34967	0.049509	0.090151	0.15933	0.10581	0.37914	0.035422	0.37044	0.20053	0.12916	0.37018	-4.1125	-4.625	-3.9	-4.7438	-4.5271	-4.0958	-4.9771	-4.1667	-4.2042	-4.6104	-4.0792	-4.6667	-4.5188	-3.9688	-4.9146	-4.1062	18.241	-25.157	178.493	-73.693	-46.281	149.143	181.656	107.200	47.060	91.017	-145.663	-148.172	119.435	-88.345	64.498	111.096	0.00044321	0.0001116	0.00016021	1276	4.4343e-06	6.0174e-06	1280.7	339.74	2.3488e-06	3.7742e-06	393.3	133.11	115.02	40.243	1.5868e-06	50.137	0.00056532	0.00056335	0.00015777	1292.6	6.2167e-06	6.4181e-06	1298.4	346.16	6.4074e-06	6.3815e-06	400.32	136.13	117.83	41.265	6.5138e-06	51.632	176.638	-91.236	-63.972	-137.318	-44.101	10.878	-137.520	-132.716	-56.796	54.310	-133.029	-129.393	-128.640	-123.780	-54.736	-124.334	-8191	255	
886.912	1	1	0	0	0.054272	0.079689	0.13588	0.1403	0.12631	0.20669	0.25312	0.17842	0.11612	0.076503	0.12734	0.23402	0.17305	0.24326	0.086343	0.1316	-4.0146	-4.6271	-4.1146	-4.75	-4.55	-3.9375	-4.9417	-4.2042	-4.1562	-4.7396	-4.0958	-4.5312	-4.6667	-4.0917	-4.8812	-4.1937	124.389	108.269	111.993	92.091	-129.656	64.725	42.890	156.500	-84.433	76.055	169.595	-43.556	38.787	-108.589	207.458	-5.131	0.00047628	0.00091548	0.00010451	1286	3.7991e-06	5.0775e-06	1283.4	342.55	2.5268e-06	6.1703e-06	394.4	133.77	115.62	40.395	6.4465e-06	50.197	0.00059647	0.00060084	0.00016715	1301.9	6.5368e-06	6.6494e-06	1305.1	348.35	6.6166e-06	6.6729e-06	401.44	136.75	118.23	41.464	6.4796e-06	51.663	183.849	-32.547	-35.561	-137.277	-30.116	-36.758	-137.620	-132.586	-33.867	7.801	-133.327	-129.240	-128.698	-123.639	-12.704	-124.142	-8191	255	
887.031	1	1	0	0	0.057684	0.12838	0.038581	0.17848	0.14403	0.19348	0.15317	0.2392	0.073307	0.08967	0.07644	0.093021	0.21908	0.11007	0.17263	0.20849	-3.8771	-4.8083	-4.0104	-4.4854	-4.575	-3.9479	-4.9	-4.3958	-3.9625	-4.7521	-3.9625	-4.3917	-4.7937	-4.0146	-4.7729	-4.2708	-18.296	-54.419	19.283	154.942	168.288	-42.736	-12.966	-126.926	-117.992	46.067	185.840	178.034	-150.149	14.191	207.730	-146.416	0.00047173	0.00031793	9.2789e-05	1295	3.4097e-06	6.8593e-06	1292.2	344.79	2.3141e-06	5.2726e-06	397.8	133.54	115.97	40.378	4.6416e-06	50.398	0.00059038	0.00059901	0.00016694	1307.3	6.5152e-06	6.5951e-06	1311.3	349.91	6.6054e-06	6.5046e-06	404.21	137.26	118.59	41.565	6.4734e-06	51.84	177.177	-33.715	-55.482	-137.337	-31.064	-24.794	-137.709	-132.807	27.016	-62.447	-133.090	-129.451	-128.587	-123.518	-18.214	-124.185	-8191	255	
887.128	1	1	0	0	0.087062	0.034439	0.1795	0.12326	0.13265	0.068187	0.22279	0.34466	0.053359	0.055499	0.18132	0.11596	0.25446	0.17135	0.071764	0.22562	-3.8604	-4.7625	-4.1438	-4.3542	-4.7271	-3.8854	-4.8	-4.5583	-3.7271	-4.7271	-4.0375	-4.3479	-4.7812	-4.0021	-4.5104	-4.45	97.355	-60.047	137.628	163.963	-67.664	93.813	152.240	56.332	16.438	-2.102	169.966	128.329	173.625	-117.618	75.466	-119.486	0.00046834	0.0011381	0.00012943	1298.5	5.0235e-06	7.4791e-06	1297.7	344.74	2.4548e-06	6.9498e-06	396.79	134.39	115.92	40.545	3.8081e-06	50.531	0.0005909	0.00058736	0.00016249	1313	6.3852e-06	6.5101e-06	1318.1	350.23	6.4456e-06	6.3095e-06	403.63	137.63	118.72	41.679	6.3554e-06	51.967	182.439	-40.441	-73.076	-137.214	32.354	2.794	-137.553	-132.693	-53.843	-27.469	-133.040	-129.383	-128.851	-123.639	50.765	-124.504	-8191	255	
887.224	1	1	0	0	0.066853	0.14875	0.063586	0.20383	0.20504	0.17356	0.11791	0.10896	0.087498	0.12152	0.28145	0.14478	0.19689	0.1757	0.17169	0.049368	-3.5604	-4.7854	-4.0271	-4.2562	-4.6458	-3.9375	-4.5396	-4.8417	-3.8292	-4.8854	-4.3042	-4.2312	-5.0208	-3.9708	-4.5333	-4.7042	-89.578	-146.339	-134.917	104.728	107.056	-89.694	97.875	152.997	-29.704	185.092	192.655	160.168	149.280	150.924	22.499	99.485	0.00046835	0.00055629	0.00012722	1300.4	5.5036e-06	8.3498e-06	1296.1	345.08	3.0598e-06	3.7065e-06	396.15	133.97	116.43	40.741	4.8863e-06	50.425	0.0005746	0.00056829	0.00015966	1314	6.2437e-06	6.2365e-06	1315.3	349.59	6.3133e-06	6.1137e-06	403.1	137.19	118.64	41.606	6.1621e-06	51.893	183.531	-67.882	-79.367	-137.352	5.834	-4.524	-137.660	-132.833	-78.078	-5.144	-133.364	-129.516	-128.848	-123.679	37.606	-124.131	-8191	255	
887.320	1	1	0	0	0.0055711	0.040843	0.15632	0.15799	0.10584	0.13191	0.25931	0.075158	0.098673	0.14979	0.15462	0.20957	0.086381	0.16779	0.2689	0.075594	-3.5271	-4.8021	-4.3396	-4.0708	-4.9688	-3.9979	-4.5396	-4.8083	-3.9062	-4.5708	-4.4625	-4.2083	-4.7854	-3.9646	-4.2708	-4.8396	118.391	-109.329	114.660	198.940	-118.083	-124.611	106.284	143.900	201.779	194.330	-145.068	151.391	9.290	-142.964	-100.972	92.264	0.00045955	0.00079718	0.00011851	1297.8	6.5085e-06	6.6798e-06	1298.2	343.15	5.1166e-06	3.8994e-06	395.94	134.18	116.58	40.561	4.9709e-06	50.596	0.00055972	0.00056974	0.00015723	1311.2	6.1982e-06	6.1865e-06	1316	349.47	6.363e-06	6.3166e-06	403.15	137.17	118.81	41.549	6.3702e-06	51.836	182.858	-29.050	7.267	-137.493	3.360	1.461	-137.547	-132.730	-39.576	-14.183	-132.906	-129.488	-128.691	-123.627	-31.605	-124.327	-8191	255	
887.416	1	1	0	0	0.12621	0.10607	0.1577	0.11983	0.25947	0.19524	0.23208	0.069761	0.19945	0.16661	0.18235	0.15596	0.27141	0.28936	0.069173	0.28141	-3.3875	-4.5312	-4.3354	-4.05	-4.7208	-4.0062	-4.4938	-4.7354	-3.9958	-4.5708	-4.3292	-3.8896	-4.9437	-4.2042	-4.2021	-4.8542	-78.539	-55.261	167.191	88.002	98.221	-21.824	143.301	-14.478	155.387	31.336	141.771	-134.109	-63.502	-16.024	81.334	192.260	0.00047263	0.0002764	1.0923e-05	1297.6	4.6396e-06	3.2538e-06	1296.2	344.33	6.6917e-06	3.7418e-06	396.66	133.59	116.24	40.485	4.5985e-06	50.417	0.00056654	0.00057073	0.000158	1311	6.2545e-06	6.1731e-06	1315	349.89	6.2201e-06	6.1608e-06	403.18	136.92	118.5	41.452	6.2701e-06	51.75	182.944	-58.864	-8.656	-137.240	10.578	20.309	-137.764	-132.799	-67.422	15.513	-132.898	-129.419	-128.778	-123.547	8.091	-124.270	-8191	255	
887.512	1	1	0	0	0.19409	0.22975	0.20637	0.086671	0.090397	0.20879	0.35341	0.12245	0.047464	0.073617	0.32104	0.1661	0.24492	0.032575	0.18091	0.18178	-3.5854	-4.4833	-4.4083	-4.0563	-4.8854	-4.15	-4.2042	-4.9146	-3.9938	-4.3708	-4.7937	-4	-4.8208	-4.3833	-4.0667	-4.8854	182.164	174.902	41.439	197.641	79.004	149.598	151.331	147.487	-80.191	-134.987	-147.805	-125.680	118.422	50.806	149.275	185.738	0.00046507	0.00061086	6.769e-05	1291.7	7.4052e-06	4.9165e-06	1290.8	344.51	5.7385e-06	4.2479e-06	397.02	133.33	116.29	40.519	2.4694e-06	50.644	0.00056137	0.00055941	0.00015321	1306.3	6.0728e-06	6.0164e-06	1308.1	349	6.0789e-06	6.0835e-06	402.45	136.5	118.44	41.393	6.0951e-06	51.667	177.109	-77.669	-36.705	-137.169	-17.046	-4.698	-137.431	-132.659	-64.226	56.844	-133.234	-129.240	-128.680	-123.602	-66.841	-124.423	-8191	255	
887.633	1	1	0	0	0.053211	0.13885	0.10672	0.25202	0.12937	0.11463	0.21546	0.088596	0.1224	0.16598	0.11688	0.21071	0.174	0.15095	0.067861	0.21469	-3.6771	-4.4292	-4.5104	-4.1083	-4.5646	-4.3917	-4.0604	-4.9667	-3.9417	-4.2146	-4.525	-3.9729	-4.7854	-4.3729	-3.7875	-4.9792	14.319	54.769	-27.204	-141.082	-87.980	-103.385	189.981	-58.606	53.912	185.152	135.909	155.122	-80.130	88.094	-80.154	104.717	0.00054241	0.00062021	0.0001707	1290.2	6.1118e-06	1.2774e-06	1286.4	344.12	2.5704e-06	4.3306e-06	394.9	133.15	115.28	40.401	2.8375e-06	50.155	0.00054565	0.00054652	0.00014999	1303	5.9134e-06	5.8509e-06	1307.1	349.18	5.9187e-06	5.8575e-06	401.55	136.22	118.13	41.376	6.1002e-06	51.595	175.753	-76.859	-51.908	-137.269	-32.038	-31.796	-137.484	-132.633	-77.669	-27.267	-133.241	-129.124	-128.529	-123.733	-5.647	-123.890	-8191	255	
887.729	1	1	0	0	0.090644	0.11778	0.079823	0.087119	0.11995	0.16664	0.19295	0.22293	0.15378	0.14638	0.10053	0.26738	0.10736	0.14474	0.17951	0.24661	-3.6708	-4.0917	-4.7188	-3.8021	-4.6167	-4.4	-4.1625	-4.7063	-4.1542	-4.2542	-4.7625	-4.0938	-4.6458	-4.4521	-3.7104	-4.8729	33.861	-99.048	-144.358	-33.500	-90.310	24.403	105.042	99.332	-75.005	-92.123	193.869	-136.499	-122.717	-142.523	94.468	175.573	0.00040006	0.00037095	0.00011023	1291.3	2.2225e-06	6.0792e-06	1287.5	342.69	2.888e-06	9.6405e-06	397.14	133.44	115.64	40.408	3.8139e-06	50.164	0.00053766	0.00054885	0.00015478	1305.4	6.1225e-06	6.1189e-06	1309.6	348.45	6.0248e-06	6.2559e-06	402.79	136.59	118.57	41.411	6.2876e-06	51.665	177.731	-23.609	-49.231	-137.463	-29.666	-4.490	-137.570	-132.840	-41.575	24.367	-132.791	-129.192	-129.021	-123.262	2.823	-124.333	-8191	255	
887.825	1	1	0	0	0.039706	0.15074	0.16726	0.24526	0.14014	0.23856	0.18142	0.11415	0.13764	0.20065	0.087223	0.15098	0.10863	0.27525	0.10491	0.23988	-3.8312	-4.0417	-4.9	-4.1	-4.3042	-4.7542	-3.7979	-4.8917	-4.3396	-4.1396	-4.8417	-4.075	-4.3771	-4.8812	-3.875	-4.8083	-97.250	137.538	152.458	-121.406	-96.124	-142.748	137.999	108.726	-7.030	147.286	-91.742	-101.823	88.040	-129.736	142.921	138.604	0.00045243	0.00083541	0.00017348	1290	8.12e-06	5.1605e-06	1295.2	343.92	4.2749e-06	3.5168e-06	397.23	133.16	115.86	40.579	6.551e-06	50.377	0.00055042	0.00057241	0.00015432	1306.7	6.1173e-06	6.117e-06	1311	349.42	6.1099e-06	6.1743e-06	403.14	136.76	118.62	41.531	6.1993e-06	51.704	177.110	-42.384	-48.201	-137.191	-63.488	-2.686	-137.690	-132.513	-44.925	-16.074	-133.082	-129.468	-129.001	-123.362	-40.089	-124.287	-8191	255	
887.921	1	1	0	0	0.21059	0.12927	0.2055	0.1294	0.27571	0.19415	0.16513	0.056461	0.17381	0.067246	0.19786	0.18047	0.1224	0.21909	0.23912	0.24851	-4.1417	-3.9479	-4.8979	-4.0021	-4.3854	-4.6729	-4.1896	-4.7875	-4.3729	-3.9875	-4.9083	-4.1062	-4.3979	-4.6479	-3.725	-4.6646	-139.256	97.837	164.601	170.621	-30.956	85.109	141.585	133.530	161.537	-107.451	-107.625	152.738	-132.359	199.523	42.032	185.045	0.00044208	0.00055042	0.00019384	1297	1.3837e-06	7.8895e-06	1293.6	344.69	6.8585e-06	2.1688e-06	396.25	133.94	115.34	40.459	4.6872e-06	50.486	0.00054769	0.00056523	0.00015436	1308.1	6.1675e-06	6.0586e-06	1310.8	349.46	6.1652e-06	6.1565e-06	402.68	136.89	118.32	41.506	6.2596e-06	51.875	189.491	-59.473	-36.584	-137.385	14.998	-1.313	-137.366	-132.650	-10.530	180.863	-132.977	-129.116	-128.991	-123.361	-38.073	-124.213	-8191	255	
888.016	1	1	0	0	0.28968	0.10611	0.12038	0.19605	0.23843	0.08798	0.23008	0.24914	0.29981	0.32625	0.17733	0.14944	0.045701	0.20602	0.12386	0.15342	-4.1958	-3.9437	-4.6604	-4.3396	-4.0396	-4.8646	-4.0375	-4.6937	-4.4729	-3.9188	-4.9688	-4.1333	-4.2146	-4.8917	-3.775	-4.6396	107.586	-1.509	-32.307	197.127	-12.100	-126.212	129.974	113.918	76.149	27.888	155.351	122.016	62.427	152.366	86.593	149.641	0.00045809	0.00039267	2.5703e-05	1297.7	5.4332e-06	5.3551e-06	1296.1	344.99	4.3432e-06	6.414e-06	397.52	133.8	116.09	40.493	5.1043e-06	50.487	0.00055909	0.00057466	0.00015939	1309.4	6.2792e-06	6.2441e-06	1312.8	350.04	6.3046e-06	6.3412e-06	403.97	136.64	118.71	41.584	6.403e-06	51.816	184.691	-58.763	-48.057	-136.993	2.759	22.134	-137.466	-132.702	54.679	15.110	-133.074	-129.217	-128.673	-123.291	5.835	-124.251	-8191	255	
888.112	1	1	0	0	0.15609	0.25145	0.17647	0.13207	0.16492	0.17779	0.0835	0.054097	0.015212	0.13169	0.18638	0.13544	0.15041	0.074298	0.26627	0.13203	-4.2979	-3.7771	-4.7937	-4.5521	-4.0229	-4.7312	-4.0542	-4.4062	-4.5625	-3.9	-4.8	-4.4104	-4.1646	-4.9812	-3.9083	-4.5625	-80.479	-109.575	-26.987	190.503	-42.913	99.492	150.304	-64.793	19.447	-4.425	-114.861	176.991	154.614	-134.006	21.264	194.481	0.00049859	0.00059303	5.6607e-05	1296.7	5.5222e-06	4.9438e-06	1294.6	343.65	5.3126e-06	4.9683e-06	397.94	133.86	115.93	40.537	4.0675e-06	50.357	0.0005681	0.00057694	0.00015994	1311	6.4504e-06	6.3209e-06	1314	349.88	6.3358e-06	6.3107e-06	403.99	136.9	118.64	41.522	6.3796e-06	51.829	189.611	-53.894	-54.441	-137.004	-24.990	2.683	-137.473	-132.717	-51.403	20.200	-132.975	-129.394	-128.650	-123.548	20.056	-124.065	-8191	255	
888.208	1	1	0	0	0.16403	0.40155	0.05821	0.35853	0.25855	0.10728	0.20334	0.011649	0.088371	0.099641	0.22004	0.21877	0.2658	0.061159	0.086314	0.16261	-4.375	-3.9125	-4.6271	-4.5	-3.8812	-4.8271	-4.1021	-4.4062	-4.7646	-3.8375	-4.7312	-4.7104	-3.9542	-4.7771	-4.1438	-4.4313	-90.408	155.690	-100.328	-143.167	65.802	-51.284	121.084	42.761	75.985	90.247	124.921	134.324	-92.226	-63.924	-49.152	169.685	0.00045854	0.00085526	0.00011776	1304.1	3.5688e-06	2.3907e-06	1298.5	343.67	7.5439e-06	5.2029e-06	396.92	133.62	116.16	40.563	5.8341e-06	50.373	0.00056623	0.00057775	0.00016152	1313.4	6.2902e-06	6.2727e-06	1316.6	350.24	6.2713e-06	6.3429e-06	403.87	136.92	118.72	41.504	6.3319e-06	51.82	177.982	-66.534	-48.294	-137.309	-24.732	-49.964	-137.511	-132.789	-87.697	11.883	-133.044	-129.202	-128.571	-123.466	-45.620	-124.160	-8191	255	
888.329	1	1	0	0	0.082509	0.18174	0.088573	0.02188	0.42255	0.021452	0.32195	0.18705	0.11708	0.10641	0.22858	0.24139	0.1736	0.17685	0.069702	0.11984	-4.4646	-4.0792	-4.3812	-4.6146	-3.6833	-4.8021	-4.1521	-4.2167	-4.8979	-4.0271	-4.6979	-4.6104	-4.025	-4.7896	-4.2083	-4.1104	-122.454	-51.774	75.695	-96.192	127.853	-116.042	82.539	109.919	-59.523	110.214	-147.151	-99.870	140.778	-139.445	-102.222	192.650	0.00040352	0.00031819	0.0002125	1300.4	2.668e-06	3.6003e-06	1300.5	344.41	1.3104e-06	7.7819e-06	397.88	134.01	116.13	40.517	3.3219e-06	50.25	0.00056432	0.00056953	0.00015899	1312.4	6.2641e-06	6.2026e-06	1315.6	350.3	6.244e-06	6.1966e-06	403.45	136.93	118.54	41.481	6.2384e-06	51.808	180.467	-99.288	-49.557	-137.023	50.568	25.511	-137.386	-132.555	-16.745	21.700	-132.905	-129.203	-128.756	-123.388	-22.807	-124.559	-8191	255	
888.425	1	1	0	0	0.032198	0.16486	0.11684	0.30325	0.24142	0.075869	0.14422	0.1433	0.094985	0.12915	0.11134	0.13659	0.28817	0.090006	0.27947	0.21098	-4.4333	-3.8083	-4.5021	-4.6229	-3.7396	-4.625	-4.4333	-4.0625	-4.9771	-4.0062	-4.4604	-4.7375	-4.0833	-5.0271	-4.2771	-4.1583	55.173	46.794	6.230	-141.563	24.296	-137.193	169.262	-148.485	92.425	-5.895	13.078	-140.498	15.277	110.062	186.242	115.698	0.00044131	0.00096162	8.0641e-05	1300.3	2.1915e-06	5.2282e-06	1297.8	343.72	6.2877e-06	3.4957e-06	396.84	134.1	115.87	40.512	2.9272e-06	50.325	0.00055744	0.00056108	0.00015779	1312.2	6.2113e-06	6.1148e-06	1315.9	349.36	6.0696e-06	6.1048e-06	403	137.07	118.53	41.439	6.11e-06	51.817	177.353	-78.483	-108.998	-137.080	-42.014	-11.842	-137.512	-132.606	-23.844	15.975	-133.145	-129.333	-128.395	-123.631	-8.594	-123.890	-8191	255	
888.496	1	1	0	0	0.047518	0.088153	0.22414	0.059428	0.057622	0.072	0.23535	0.020643	0.14504	0.049638	0.15181	0.08537	0.17197	0.22787	0.092079	0.090473	-4.5125	-4.1208	-4.3625	-4.9021	-4.0729	-4.4875	-4.4729	-4.1604	-4.7021	-4.1104	-4.2875	-4.8646	-4.0437	-4.5833	-4.4604	-4.0687	-0.090	96.078	-73.177	-149.855	107.645	167.299	105.454	-119.563	196.366	73.100	-72.236	77.233	-128.356	-120.944	83.637	-112.792	0.00040732	0.00019894	0.00010832	1295.8	6.907e-06	6.8088e-06	1293.3	344.43	3.7227e-06	4.65e-06	397.05	134.14	115.9	40.548	2.6936e-06	50.443	0.0005495	0.00055571	0.00015589	1309.5	6.0864e-06	6.0492e-06	1313.3	349.48	6.0504e-06	5.9944e-06	403.54	136.95	118.64	41.473	6.0502e-06	51.758	181.943	199.082	-48.498	-137.081	40.853	-21.066	-137.376	-132.757	-18.087	31.161	-132.864	-129.114	-128.645	-123.649	-67.636	-124.023	-8191	255	
888.592	1	1	0	0	0.11716	0.16969	0.20899	0.22735	0.082037	0.098128	0.20137	0.054012	0.14502	0.15885	0.2411	0.21718	0.016087	0.15224	0.078268	0.074471	-4.6021	-4.2479	-4.0417	-4.9646	-3.7938	-4.35	-4.8125	-3.8833	-4.775	-4.3625	-4.1813	-5.0042	-3.9479	-4.5729	-4.6208	-3.9979	-64.762	19.296	-120.449	106.792	-63.011	98.011	141.334	-144.953	-88.163	32.944	134.672	188.590	80.808	57.169	-140.942	19.346	0.00048152	0.00063714	5.9325e-05	1295	3.4761e-06	5.642e-06	1300.2	344.28	3.783e-06	1.7196e-06	398.24	133.4	116.17	40.526	3.4718e-06	50.231	0.00054638	0.00055692	0.00015804	1310.5	6.1234e-06	6.1154e-06	1314.9	350.06	6.1464e-06	6.153e-06	403.97	137	118.65	41.526	6.0868e-06	51.719	184.487	-67.513	-57.094	-137.216	21.364	41.826	-137.418	-132.667	-9.566	-21.136	-132.947	-129.180	-128.592	-123.409	-34.033	-124.113	-8191	255	
888.713	1	1	0	0	0.35269	0.17909	0.23717	0.098439	0.05099	0.34952	0.12823	0.10447	0.16699	0.12283	0.060995	0.14553	0.23301	0.090406	0.23895	0.06212	-4.6542	-4.2708	-3.8625	-4.8958	-3.8958	-4.3187	-4.8104	-3.9521	-4.6479	-4.2583	-4.0229	-4.9062	-4.1479	-4.2708	-4.8729	-3.9521	104.000	-57.562	116.889	106.522	-20.389	-24.309	93.650	26.826	184.123	-60.891	-75.724	143.150	142.483	-64.050	28.026	194.699	0.00042781	0.00035676	0.00017238	1302.6	5.224e-06	2.7991e-06	1303.9	343.85	3.8842e-06	4.0284e-07	397.8	134.12	115.42	40.343	5.6292e-06	50.226	0.00056119	0.00056076	0.00015858	1313.9	6.2413e-06	6.2272e-06	1318.7	350.35	6.3254e-06	6.2377e-06	403.54	137.16	118.46	41.508	6.329e-06	51.775	186.540	-59.821	-64.039	-136.942	5.072	-33.744	-137.312	-132.780	-62.240	8.872	-132.845	-129.267	-128.522	-123.381	4.638	-124.292	-8191	255	
888.809	1	1	0	0	0.045629	0.12835	0.12856	0.14608	0.0941	0.18147	0.057769	0.13845	0.12503	0.24573	0.13141	0.24382	0.15564	0.21804	0.12766	0.1058	-4.2083	-4.3688	-3.9479	-4.9437	-4.1417	-3.9229	-4.8896	-3.9708	-4.7083	-4.5333	-3.9417	-4.8396	-4.2125	-4.2792	-4.6708	-3.9437	-68.496	-81.112	-143.544	127.446	143.332	29.783	123.735	142.310	188.522	127.872	158.979	184.634	-116.191	134.986	135.384	33.171	0.00045621	0.00037724	0.00015342	1301.8	4.4291e-06	7.5609e-06	1293.8	344.16	4.0306e-06	6.4845e-06	395.44	134.19	115.95	40.644	1.6076e-06	50.375	0.00056226	0.00056607	0.00016074	1313	6.2244e-06	6.1828e-06	1314.4	349.89	6.2312e-06	6.1741e-06	403.16	137.11	118.7	41.567	6.1583e-06	51.687	183.064	-36.589	-35.310	-136.958	23.194	31.891	-137.492	-132.634	-64.104	11.282	-133.048	-129.195	-128.430	-123.538	4.933	-124.210	-8191	255	
888.905	1	1	0	0	0.081872	0.12943	0.11339	0.27806	0.11743	0.18241	0.15117	0.3281	0.22835	0.14044	0.18802	0.10176	0.25337	0.23561	0.10851	0.24679	-4.1271	-4.575	-4.0167	-4.7854	-4.2896	-4.1271	-4.8271	-3.9458	-4.275	-4.5104	-3.9104	-4.7479	-4.3729	-4.275	-4.7896	-4.1396	116.951	161.987	-81.045	-129.181	158.102	45.740	174.281	170.600	-77.251	-3.005	-106.765	156.280	-149.050	192.471	-94.040	135.316	0.00047733	0.00059943	0.00017411	1296.8	5.2611e-06	4.0155e-06	1299.4	344.88	2.1342e-06	4.9152e-06	396.54	133.78	116.14	40.52	4.954e-06	50.364	0.0005506	0.00054566	0.00015547	1311.2	6.0079e-06	6.1316e-06	1314.6	350.1	6.0648e-06	5.9829e-06	402.67	136.86	118.59	41.492	5.9666e-06	51.673	182.610	-68.028	-41.758	-137.136	4.063	53.834	-137.384	-132.822	-26.119	-14.992	-132.774	-129.120	-128.627	-123.455	-22.122	-123.982	-8191	255	
889.024	1	1	0	0	0.21431	0.42845	0.16772	0.11363	0.05222	0.040308	0.35372	0.20395	0.10311	0.063282	0.16661	0.070524	0.15752	0.039498	0.075927	0.16911	-3.9542	-4.5729	-3.9104	-4.9875	-4.2375	-3.8604	-5	-4.3354	-4.1021	-4.7	-3.8937	-4.7188	-4.4833	-3.875	-4.8	-4.2333	162.401	-44.066	199.029	-132.553	-86.091	-19.447	145.173	154.960	-140.179	0.416	-46.376	-87.077	111.332	150.864	-39.874	171.461	0.00050094	0.00043926	0.00011256	1296.6	1.115e-06	5.3743e-06	1293.8	342.88	5.428e-06	3.4352e-06	396.64	133.78	115.7	40.608	4.6456e-07	50.46	0.00054658	0.00054303	0.00015108	1310	5.927e-06	5.9042e-06	1312.8	349.01	5.9273e-06	5.8137e-06	402.77	136.73	118.35	41.492	5.9473e-06	51.689	181.409	2.715	-32.365	-137.424	36.689	-23.625	-137.475	-132.439	-0.073	-1.904	-133.093	-129.474	-128.545	-123.581	-74.849	-124.301	-8191	255	
889.120	1	1	0	0	0.19173	0.12672	0.13493	0.29757	0.13553	0.13141	0.18216	0.18134	0.081073	0.11165	0.2813	0.18388	0.16343	0.063866	0.30073	0.12936	-3.9562	-4.8333	-3.9333	-4.675	-4.3292	-3.9833	-4.8604	-4.2542	-4.0333	-4.7	-4.1729	-4.4146	-4.7708	-3.8229	-4.8625	-4.4771	-49.032	162.673	56.453	161.882	183.134	-52.823	85.151	170.879	207.355	155.110	172.098	143.695	34.478	167.627	79.731	-148.198	0.0004581	0.0010242	0.00015234	1298.4	4.4063e-06	8.4654e-06	1292.5	343.94	5.7818e-06	4.9832e-06	396.36	133.85	115.4	40.535	5.0463e-06	50.239	0.00053686	0.00053245	0.00014807	1309.6	5.8519e-06	5.8601e-06	1311.5	349.14	5.958e-06	5.8367e-06	402.99	136.73	118.28	41.433	5.8052e-06	51.627	186.272	-92.502	-31.564	-137.201	-4.408	16.187	-137.273	-132.528	-33.352	22.383	-133.116	-129.315	-128.626	-123.581	-6.180	-124.023	-8191	255	
889.194	1	1	0	0	0.064648	0.21516	0.10653	0.20508	0.14713	0.043662	0.29461	0.066088	0.17321	0.10371	0.11227	0.11066	0.2159	0.22013	0.27004	0.056465	-3.9354	-4.9604	-4.0625	-4.5083	-4.6208	-3.9542	-4.8167	-4.425	-4.0292	-4.7979	-3.8396	-4.4333	-4.7812	-3.8917	-4.6354	-4.3313	163.423	198.798	36.454	193.393	79.399	12.160	151.497	115.470	-35.126	130.904	188.212	152.955	170.969	134.246	-11.254	40.730	0.0004463	0.00041549	6.4544e-05	1289.9	4.2986e-06	3.8505e-06	1296.8	344.54	6.0614e-06	6.592e-06	397.2	133.27	116.64	40.431	4.0872e-06	50.431	0.00053502	0.00053897	0.00014618	1305.6	5.8503e-06	5.9178e-06	1314.8	349.69	5.9043e-06	5.8651e-06	402.5	136.73	118.79	41.441	5.8264e-06	51.686	175.940	-82.951	-32.844	-137.274	-16.137	-29.132	-137.134	-132.362	-28.698	5.686	-133.016	-129.014	-128.575	-123.451	-4.894	-124.044	-8191	255	
889.313	1	1	0	0	0.15141	0.13188	0.10466	0.16164	0.047471	0.090748	0.10282	0.218	0.13773	0.14434	0.044739	0.041006	0.079246	0.073799	0.27551	0.13695	-3.7625	-4.7875	-4.175	-4.3792	-4.6979	-3.8937	-4.8917	-4.3646	-4.0958	-4.7583	-4.2583	-4.2104	-4.8979	-4.1292	-4.6438	-4.425	-95.104	-110.758	83.168	196.991	180.089	12.909	79.473	172.769	-66.777	174.590	135.966	107.816	-58.940	14.793	75.412	160.703	0.00048679	0.00062513	0.00014393	1298.2	3.729e-06	3.8904e-06	1295	343.63	4.2569e-06	4.9706e-06	396.7	133.88	116.01	40.553	2.5455e-06	50.549	0.00053193	0.00053102	0.00014702	1310.7	5.8578e-06	5.9346e-06	1314.2	349.62	5.8745e-06	5.8499e-06	403.28	136.68	118.39	41.44	5.8172e-06	51.756	177.662	-37.322	-70.508	-137.100	-33.013	-22.166	-137.357	-132.450	-28.668	-47.566	-133.034	-129.540	-128.493	-123.554	-8.761	-124.112	-8191	255	
889.409	1	1	0	0	0.039416	0.10309	0.17201	0.11246	0.16653	0.11016	0.21824	0.34356	0.16349	0.12003	0.26303	0.05809	0.14528	0.22941	0.073746	0.14487	-3.5958	-4.8354	-4.2667	-4.2083	-4.8875	-3.9562	-4.6188	-4.6542	-3.9688	-4.7396	-4.3771	-4.0646	-4.9437	-4.0292	-4.4417	-4.7792	51.066	143.573	-126.345	149.495	37.341	-97.782	-105.537	154.621	-78.475	158.685	110.747	164.843	86.041	154.444	-83.958	96.562	0.00048891	0.00030863	0.00013021	1296.2	2.8407e-06	6.2494e-06	1292.5	342.26	3.2542e-06	4.6332e-06	397.13	134.08	116.04	40.719	4.5987e-06	50.621	0.00052341	0.00052855	0.00014537	1310	5.7504e-06	5.7707e-06	1313.4	349.04	5.7974e-06	5.7713e-06	402.82	136.71	118.53	41.52	5.811e-06	51.757	183.547	-99.372	-35.857	-137.075	-44.404	32.718	-137.356	-132.578	28.608	-3.282	-132.974	-129.294	-128.627	-123.204	7.803	-124.094	-8191	255	
889.505	1	1	0	0	0.15123	0.034984	0.061321	0.12731	0.1259	0.20662	0.24039	0.17522	0.023418	0.19406	0.10165	0.1834	0.26017	0.063356	0.12581	0.15913	-3.575	-4.7292	-4.3333	-4.0542	-4.6583	-3.9958	-4.3938	-4.8375	-3.8729	-4.7188	-4.5271	-4.1042	-4.8333	-4.1188	-4.2375	-4.8583	81.573	52.445	-78.066	155.910	96.354	-66.481	148.373	158.771	-121.207	-18.034	67.796	102.742	145.684	167.238	199.562	76.156	0.0004976	0.00080401	0.00020082	1294.7	5.8484e-06	2.7191e-06	1292.2	344.43	5.2046e-06	2.7965e-06	396.93	133.66	116.38	40.578	2.9885e-06	50.241	0.00052089	0.00052881	0.0001467	1308.8	5.733e-06	5.7038e-06	1312.9	349.71	5.827e-06	5.7822e-06	402.65	136.71	118.63	41.468	5.819e-06	51.63	184.157	-46.179	-84.586	-137.273	-10.581	23.391	-137.485	-132.247	-46.302	3.056	-132.666	-128.977	-128.676	-123.490	-74.796	-124.091	-8191	255	
889.626	1	1	0	0	0.14455	0.20981	0.13673	0.18973	0.13337	0.13737	0.058718	0.20073	0.085636	0.025253	0.20844	0.35835	0.22931	0.10635	0.017552	0.039362	-3.5625	-4.7333	-4.5563	-4.0813	-4.7875	-4.0563	-4.3729	-4.7854	-3.8688	-4.3875	-4.6979	-3.9167	-5.0458	-4.2479	-4.1375	-5.0083	-37.102	-34.131	146.352	186.408	193.198	54.560	125.667	-143.076	-117.164	57.700	90.761	143.379	155.460	169.722	-139.831	-52.606	0.00048775	7.3259e-05	0.00021453	1292	4.4922e-06	2.9223e-06	1296.8	344.03	2.2203e-06	6.6568e-06	396.32	134.12	116.04	40.589	6.2912e-06	50.362	0.00052363	0.00052632	0.0001462	1309	5.8505e-06	5.7859e-06	1314.7	349.7	5.8538e-06	5.7873e-06	402.46	136.9	118.6	41.485	5.8323e-06	51.737	184.501	-100.234	-75.306	-136.699	-16.236	-28.872	-137.430	-132.632	-69.729	16.504	-133.008	-129.206	-128.281	-123.474	15.493	-123.962	-8191	255	
889.722	1	1	0	0	0.13249	0.11899	0.021197	0.07115	0.3253	0.23667	0.25221	0.17208	0.1739	0.044432	0.077555	0.16605	0.10561	0.24458	0.050654	0.24305	-3.525	-4.4625	-4.5958	-3.9958	-4.9313	-4.2583	-4.3167	-5.05	-3.7417	-4.3313	-4.7625	-3.8708	-4.8979	-4.3688	-3.8583	-4.9229	11.086	155.670	201.395	20.716	62.477	34.433	191.645	118.022	9.530	50.016	-78.583	120.427	92.654	172.944	-11.451	-45.256	0.00053709	0.00069363	0.00013747	1296.2	3.31e-06	5.0479e-07	1293.1	344.68	8.2761e-07	2.5885e-06	396.39	133.82	116.87	40.681	3.5118e-06	50.497	0.00052936	0.00052247	0.00014518	1309.4	5.802e-06	5.6825e-06	1312.8	349.87	5.8683e-06	5.8634e-06	402.38	136.6	118.92	41.449	5.9773e-06	51.722	181.795	-58.091	-56.099	-137.143	-54.912	48.767	-137.539	-132.262	-75.674	8.596	-132.614	-129.061	-128.346	-123.363	-22.802	-124.417	-8191	255	
889.794	1	1	0	0	0.16915	0.11454	0.22236	0.18291	0.098239	0.067543	0.14631	0.12466	0.26696	0.17243	0.20678	0.23682	0.070787	0.20901	0.087186	0.026009	-3.7562	-4.3583	-4.6125	-4.0625	-4.5604	-4.5062	-4.1896	-4.8958	-4.0437	-4.2063	-4.7083	-4.1125	-4.5833	-4.4979	-3.8979	-5.0708	28.484	152.456	-109.440	204.483	132.245	61.564	133.059	162.364	132.606	128.404	-37.393	205.081	21.343	-130.069	94.913	-41.255	0.00052332	0.0011834	0.00014029	1295.9	5.8671e-06	2.4778e-06	1294.2	343.29	5.6722e-06	5.8074e-06	397.59	133.84	116.07	40.459	3.3644e-06	50.063	0.00053355	0.00052778	0.00014692	1309	5.8142e-06	5.8149e-06	1313.5	349.43	5.8586e-06	5.8476e-06	403.28	136.93	118.54	41.44	6.0039e-06	51.719	183.547	-34.864	-72.857	-137.505	-20.815	42.808	-137.807	-132.762	-50.159	-75.070	-133.017	-129.537	-128.767	-123.627	-107.900	-124.469	-8191	255	
889.890	1	1	0	0	0.073551	0.24162	0.22459	0.14232	0.054487	0.21209	0.046488	0.28864	0.15055	0.10108	0.1915	0.22482	0.17763	0.18154	0.20454	0.13784	-3.6792	-4.3229	-4.6833	-4.0062	-4.6354	-4.4062	-4.0958	-4.9667	-4.1958	-4.0437	-4.9479	-3.9979	-4.6625	-4.4167	-3.8375	-4.8604	33.945	140.873	100.913	161.242	71.629	-143.652	83.752	147.398	208.983	145.370	103.581	189.486	-139.982	-40.925	-45.862	6.992	0.00048878	0.00070768	0.00011639	1292.7	4.0156e-06	5.1127e-06	1300.2	344.25	4.5292e-06	2.7498e-06	396.33	133.84	116.03	40.564	1.7164e-06	50.557	0.00052455	0.00053433	0.00014478	1308.3	5.7928e-06	5.7645e-06	1314.4	349.67	5.8936e-06	5.7942e-06	402.82	136.91	118.67	41.452	5.8939e-06	51.646	182.646	-62.584	-33.695	-137.265	-27.916	49.007	-137.782	-132.995	-75.833	42.158	-133.131	-129.554	-128.950	-123.629	-88.038	-124.443	-8191	255	
890.009	1	1	0	0	0.14677	0.18272	0.095156	0.2087	0.26404	0.15448	0.21521	0.15438	0.2854	0.15572	0.25091	0.083068	0.074804	0.18563	0.20404	0.18322	-3.6437	-4.1292	-4.7625	-3.9375	-4.2979	-4.5563	-3.825	-5.0125	-4.0708	-3.7896	-4.8854	-3.8771	-4.4354	-4.8042	-3.8521	-4.8938	-116.601	151.616	189.045	-74.161	-8.494	81.591	157.910	202.764	104.122	72.424	163.424	-130.962	-126.967	-116.805	57.209	142.586	0.00049855	0.00062423	0.00012054	1293.6	2.4398e-06	4.9233e-06	1295.4	344.06	2.268e-06	3.8901e-06	395.72	133.77	115.5	40.608	5.8717e-06	50.533	0.00052336	0.00053371	0.00014797	1308.9	5.8589e-06	5.7906e-06	1315.3	349.84	5.7813e-06	5.8565e-06	402.45	136.99	118.38	41.432	5.9056e-06	51.692	179.338	-89.700	-53.355	-137.575	-7.833	51.058	-137.867	-132.787	-20.119	-22.370	-133.218	-129.766	-128.847	-123.653	-30.653	-124.515	-8191	255	
890.105	1	1	0	0	0.11357	0.3363	0.081874	0.18883	0.27664	0.18732	0.28933	0.20117	0.20449	0.14239	0.098861	0.017701	0.15625	0.14566	0.057818	0.080842	-4.0604	-3.9042	-4.8479	-4.1792	-4.0396	-4.675	-4.0479	-4.8583	-4.4229	-4.0375	-4.9021	-4.1813	-4.1042	-4.9187	-3.875	-4.7479	111.394	-40.313	-89.443	-77.430	71.687	100.444	85.218	151.531	-48.850	44.556	161.560	55.614	-59.783	129.539	127.516	-140.381	0.00042147	0.00065279	9.623e-05	1298.1	8.8555e-06	6.0437e-06	1296.1	345.34	4.0674e-06	6.7963e-06	397.21	133.81	115.97	40.591	4.5072e-06	50.657	0.00052642	0.00053317	0.00014615	1309.2	5.8249e-06	5.7469e-06	1315.1	350.26	5.7633e-06	5.8768e-06	403.51	136.99	118.45	41.479	5.9208e-06	51.822	183.465	-102.789	-71.238	-137.440	-30.606	-9.288	-137.754	-133.116	-35.970	-12.814	-133.190	-129.491	-128.917	-123.633	-17.485	-124.429	-8191	255	
890.201	1	1	0	0	0.17339	0.25163	0.22233	0.13085	0.21888	0.16843	0.16642	0.20806	0.14147	0.059924	0.059036	0.18757	0.18192	0.17093	0.16767	0.043758	-4.3	-3.8	-4.9167	-4.4167	-3.9375	-4.8771	-4.0792	-4.7688	-4.5729	-3.9813	-4.8354	-4.35	-4.0938	-4.9875	-3.925	-4.55	154.250	125.259	45.991	163.600	34.318	147.451	122.922	197.293	-29.592	41.940	-61.002	188.336	-144.163	94.359	198.407	101.884	0.00045729	0.00067439	7.4583e-05	1299.5	2.406e-06	3.9886e-06	1288.9	344.39	1.8198e-06	6.9306e-06	397.35	134.46	115.54	40.447	3.6233e-06	50.197	0.00053162	0.00053568	0.00014557	1310.1	5.849e-06	5.7693e-06	1311.8	349.81	5.8082e-06	5.8776e-06	403.25	136.93	118.45	41.485	5.7668e-06	51.719	187.918	-71.308	-32.227	-137.294	-45.720	-27.625	-137.748	-133.025	-55.454	-19.192	-133.504	-129.493	-128.899	-123.860	-14.671	-124.588	-8191	255	
890.297	1	1	0	0	0.31624	0.23768	0.01977	0.33264	0.23515	0.22608	0.18121	0.14896	0.18828	0.097897	0.19168	0.18349	0.18689	0.1159	0.14126	0.10732	-4.4042	-3.8937	-4.6583	-4.2833	-4.0521	-4.8438	-4.1042	-4.5458	-4.525	-3.7896	-4.7667	-4.4521	-4.0375	-5.0146	-3.9958	-4.5375	-147.713	100.609	-74.150	105.381	-113.935	-1.827	-144.794	101.895	85.930	-145.791	208.839	109.903	-122.641	-59.816	73.233	162.086	0.00047757	0.00013019	0.00013645	1295.8	6.1989e-06	6.5804e-06	1295.6	344.09	3.5545e-06	7.0559e-06	396.81	134.26	116.18	40.537	6.6838e-06	50.091	0.00052565	0.00052503	0.00014603	1311.1	5.9363e-06	5.7461e-06	1313.2	349.76	5.7916e-06	5.8781e-06	403.48	136.79	118.58	41.478	5.8484e-06	51.65	176.191	-14.453	-43.746	-137.255	0.107	-8.767	-137.783	-132.992	-26.642	14.621	-133.248	-129.268	-129.220	-123.699	-9.841	-124.838	-8191	255	
890.393	1	1	0	0	0.11115	0.039798	0.029755	0.18312	0.15773	0.14695	0.080119	0.1409	0.24792	0.0619	0.1175	0.20244	0.27823	0.2171	0.076283	0.21734	-4.1604	-3.9313	-4.6792	-4.5333	-3.9229	-4.7354	-4.2792	-4.3688	-4.8979	-3.8208	-4.7208	-4.7396	-3.8937	-5.0417	-4.1708	-4.3083	-142.540	90.173	-145.702	188.182	-24.429	-95.409	-55.939	190.776	55.767	28.764	2.631	-73.764	-140.312	200.413	198.752	101.996	0.0004082	0.00065231	0.00010061	1296.1	5.8511e-06	4.3975e-06	1298	344.84	5.1263e-06	2.9599e-06	395.89	134.56	116.07	40.533	5.3793e-06	50.251	0.00052939	0.00053326	0.00014507	1311.9	5.8595e-06	5.7384e-06	1315.8	349.98	5.856e-06	5.795e-06	403.1	136.99	118.71	41.446	5.8352e-06	51.701	186.556	-52.870	-16.026	-137.586	-38.832	-42.677	-137.650	-132.757	9.410	-37.279	-133.313	-129.716	-129.253	-123.781	-4.792	-124.533	-8191	255	
890.489	1	1	0	0	0.16371	0.096607	0.079223	0.29925	0.17985	0.27201	0.23127	0.11997	0.13943	0.073104	0.21335	0.071211	0.17013	0.091104	0.1021	0.034013	-4.5104	-3.9229	-4.4729	-4.4604	-4.0854	-4.7729	-4.4729	-4.1917	-4.7292	-3.9313	-4.5396	-4.6896	-4.0208	-4.7354	-4.2458	-4.1271	-91.097	201.616	140.865	140.764	-91.684	193.974	152.004	105.251	-79.596	191.489	-140.766	-137.271	-71.220	-30.554	84.905	13.527	0.00044557	0.00059724	7.5503e-05	1298.1	4.3193e-06	5.9933e-06	1294.8	343.61	3.7116e-06	5.7033e-06	397.95	134.48	115.75	40.647	1.2983e-06	50.356	0.00052772	0.0005298	0.00014824	1310.2	5.8819e-06	5.8496e-06	1315.2	349.99	5.8822e-06	5.8256e-06	403.39	137.11	118.4	41.468	5.8214e-06	51.701	182.188	-56.643	-55.774	-137.415	-32.101	-32.985	-137.587	-133.107	-34.544	-5.205	-133.217	-129.724	-129.133	-123.541	28.516	-124.678	-8191	255	
890.585	1	1	0	0	0.10216	0.23645	0.19128	0.18723	0.29334	0.098985	0.13193	0.12888	0.072748	0.086699	0.10222	0.15352	0.048955	0.11855	0.087195	0.027653	-4.45	-3.9333	-4.2771	-4.8063	-3.7542	-4.6687	-4.7146	-3.9708	-4.85	-3.9625	-4.3208	-4.8917	-3.9854	-4.9062	-4.35	-4.0792	76.257	166.387	113.010	158.740	168.602	-5.012	-3.660	-127.000	-57.816	195.140	123.613	90.717	36.536	178.076	-33.755	-14.760	0.0004745	0.0005965	7.274e-05	1298	3.7934e-06	2.2814e-06	1296	344.05	5.7276e-06	4.8018e-06	396.28	133.75	116.02	40.664	7.6517e-06	50.347	0.0005347	0.00053117	0.00014717	1311.8	5.8742e-06	5.8535e-06	1314.4	349.91	5.8217e-06	5.7809e-06	403.45	136.94	118.41	41.471	5.8748e-06	51.666	173.156	-83.668	-108.809	-137.241	-46.539	132.191	-137.575	-132.932	-17.327	4.033	-133.234	-129.314	-128.839	-123.746	-22.762	-124.581	-8191	255	
890.706	1	1	0	0	0.085415	0.087038	0.021307	0.18797	0.09287	0.11555	0.16538	0.17757	0.11131	0.20046	0.099445	0.28583	0.029245	0.12097	0.29882	0.19342	-4.5479	-3.9625	-4.1333	-4.8646	-3.8979	-4.4271	-4.6062	-4.025	-4.625	-4.2479	-4.2833	-4.9604	-3.9708	-4.6583	-4.4563	-4.1833	-66.151	41.299	192.986	94.700	15.967	48.583	-106.486	143.059	-150.578	-120.842	135.135	199.712	-14.174	122.480	196.490	198.300	0.00044202	0.00051264	0.00010199	1300.9	4.3799e-06	3.6913e-06	1298.8	344.21	6.3812e-06	4.8201e-06	396.85	133.46	115.93	40.461	2.7444e-06	50.285	0.00053216	0.00052748	0.0001486	1313.8	5.8443e-06	5.8467e-06	1314.3	349.89	5.806e-06	5.8062e-06	403.36	136.84	118.61	41.489	5.8108e-06	51.637	180.333	-62.313	-12.928	-137.155	-57.397	-5.413	-137.612	-133.054	-46.131	-54.752	-133.357	-129.165	-128.930	-123.754	-20.413	-124.591	-8191	255	
890.800	1	1	0	0	0.31166	0.14728	0.087654	0.33019	0.31564	0.18686	0.12358	0.1269	0.24639	0.077793	0.19532	0.19973	0.038399	0.21591	0.11457	0.28435	-4.4854	-4.3271	-3.9437	-4.9167	-3.8125	-4.5271	-4.7708	-3.925	-4.6417	-4.325	-4.0646	-4.9479	-3.8333	-4.5083	-4.6458	-3.9375	0.582	-119.020	36.687	193.641	-122.133	-13.380	-149.546	69.722	6.110	-10.022	92.034	159.356	194.265	-18.995	200.717	140.666	0.00054704	0.00059609	0.00018698	1298.2	6.523e-06	6.812e-06	1299.1	345.05	4.4352e-06	6.7498e-06	397.28	133.6	115.75	40.58	3.8219e-06	50.173	0.0005293	0.00052108	0.00014952	1311.4	5.8145e-06	5.8618e-06	1315.1	349.68	5.8362e-06	5.755e-06	403.26	136.78	118.46	41.463	5.7565e-06	51.685	181.533	-41.286	-55.021	-137.480	-36.071	6.871	-137.408	-132.888	-14.610	-37.356	-133.182	-129.139	-128.861	-123.784	-25.019	-124.441	-8191	255	
890.897	1	1	0	0	0.13319	0.10891	0.11827	0.22032	0.24728	0.15389	0.26944	0.19905	0.044384	0.079495	0.055548	0.20357	0.14389	0.13695	0.10149	0.20757	-4.3896	-4.4083	-3.9104	-4.9125	-3.9896	-4.1687	-4.8729	-3.8979	-4.6479	-4.4167	-4.1312	-4.8708	-4.3854	-4.2917	-4.7167	-4.0792	-104.875	61.633	77.933	161.113	94.478	191.155	183.926	200.615	43.783	8.222	12.072	-112.845	186.377	-79.265	138.994	97.305	0.00050876	0.00053401	7.9572e-05	1301.1	4.8508e-06	4.6221e-06	1298.3	343.97	4.0783e-06	9.5288e-07	397.66	134.26	116.02	40.607	1.8687e-06	50.43	0.00051855	0.00051639	0.00014765	1312.4	5.6985e-06	5.8637e-06	1315.5	349.75	5.8297e-06	5.7841e-06	403.23	136.91	118.65	41.503	5.8236e-06	51.746	180.965	-78.737	-138.407	-137.191	2.194	-35.535	-137.470	-132.703	-34.659	-17.244	-133.244	-129.431	-128.950	-123.872	-4.788	-124.543	-8191	255	
890.993	1	1	0	0	0.11012	0.11491	0.18954	0.22867	0.25619	0.26144	0.17553	0.032424	0.060624	0.090414	0.20628	0.14292	0.24735	0.20334	0.10559	0.30496	-4.2396	-4.4167	-3.9917	-4.8125	-4.0938	-3.9417	-5.1354	-3.85	-4.3375	-4.6729	-3.9938	-4.8438	-4.3479	-4.1729	-4.9042	-3.9479	-142.777	98.599	95.455	51.493	-142.819	136.376	-67.492	119.960	142.352	-4.651	100.709	-98.664	-120.200	176.333	-86.229	187.943	0.00052776	0.00060112	9.8761e-05	1300.2	2.6645e-06	5.6553e-06	1298.2	344.7	3.0232e-06	2.4655e-06	395.81	133.64	115.99	40.446	3.1862e-06	50.465	0.0005249	0.00052091	0.00014963	1311.6	5.764e-06	5.8545e-06	1317.1	350.21	5.7248e-06	5.7418e-06	402.44	136.87	118.65	41.422	5.8831e-06	51.723	180.523	-55.516	-37.453	-137.274	-75.497	0.336	-137.646	-132.606	-42.948	26.286	-133.274	-129.397	-128.917	-123.735	35.035	-124.502	-8191	255	
891.089	1	1	0	0	0.17686	0.29707	0.13834	0.19058	0.18585	0.02763	0.2283	0.21782	0.27341	0.16062	0.052722	0.31912	0.20028	0.1867	0.22268	0.22472	-4.0792	-4.5271	-3.8146	-4.7792	-4.2542	-4.0979	-4.9563	-4.0604	-4.475	-4.7	-3.9417	-4.8792	-4.425	-4.0083	-4.825	-4.0146	-91.222	-66.744	15.678	-136.340	-48.063	-76.258	129.686	199.640	156.099	-48.128	70.685	179.165	198.142	157.651	-134.036	-140.054	0.00046991	0.00097818	0.00016486	1301.4	4.7639e-06	6.4119e-06	1296.2	343.8	5.0359e-06	5.8525e-06	396.07	133.57	115.72	40.619	3.8172e-06	50.332	0.00052345	0.00052883	0.00014827	1312.9	5.7461e-06	5.8429e-06	1315.7	350.01	5.8596e-06	5.7948e-06	403.74	136.77	118.45	41.408	5.8154e-06	51.738	180.950	-61.998	-21.222	-137.394	-21.498	-28.648	-137.631	-132.892	-19.926	-32.802	-133.357	-129.562	-128.801	-123.837	45.407	-124.477	-8191	255	
891.185	1	1	0	0	0.088809	0.14316	0.27165	0.1764	0.061436	0.27544	0.15008	0.096978	0.069517	0.041389	0.11655	0.13456	0.12784	0.12288	0.16027	0.15631	-3.9125	-4.8417	-3.7875	-4.7	-4.4625	-3.8708	-4.9625	-4.0771	-4.2083	-4.8833	-3.8771	-4.5042	-4.4875	-4.0167	-4.8042	-4.225	91.915	141.796	199.924	182.143	4.404	-86.721	168.451	182.590	2.319	207.404	24.889	-139.605	128.376	83.384	44.444	130.057	0.00050617	0.00059758	0.00013166	1304.9	4.6857e-06	3.0001e-06	1298.4	344.75	4.8915e-06	2.3026e-06	395.92	134.38	115.88	40.509	4.6658e-06	50.205	0.00052104	0.00052306	0.0001474	1314	5.7767e-06	5.9229e-06	1317.1	350.08	5.8586e-06	5.8035e-06	403.18	136.8	118.64	41.437	5.8524e-06	51.639	176.618	7.252	-88.288	-137.303	-90.489	-51.737	-137.523	-132.658	-47.817	13.283	-133.402	-129.669	-128.995	-123.991	-6.629	-124.457	-8191	255	
891.306	1	1	0	0	0.057005	0.06827	0.11142	0.26123	0.073429	0.11807	0.11128	0.086607	0.23697	0.016329	0.25309	0.12755	0.067587	0.11622	0.15534	0.19509	-3.875	-4.7854	-3.9708	-4.5375	-4.5708	-3.9667	-4.95	-4.1417	-4.1729	-4.6458	-4.0354	-4.4979	-4.8083	-3.8417	-4.7729	-4.2375	142.435	-24.366	38.641	162.228	70.547	35.608	121.755	-14.756	110.457	-87.969	141.598	115.585	62.681	144.646	-88.259	3.772	0.00044665	0.0006765	0.00013946	1292.2	2.5534e-06	3.8499e-06	1293.1	344.84	3.0695e-06	4.3382e-06	396.92	134.25	116.26	40.601	4.3336e-06	50.242	0.00053235	0.0005197	0.00014841	1310.3	5.7949e-06	5.881e-06	1315.6	349.6	5.9016e-06	5.7753e-06	403.15	136.98	118.75	41.48	5.8137e-06	51.644	187.041	-65.889	-41.355	-137.517	16.050	-6.612	-137.661	-132.909	-41.212	14.962	-133.443	-129.604	-128.847	-123.808	-18.187	-124.319	-8191	255	
891.400	1	1	0	0	0.2903	0.14907	0.15739	0.15008	0.031704	0.21245	0.24897	0.11835	0.23272	0.1629	0.23661	0.089387	0.3628	0.056994	0.17708	0.30884	-3.7667	-4.7229	-4.0479	-4.5229	-4.5458	-3.9229	-4.75	-4.3917	-3.9146	-4.6646	-4.1438	-4.4833	-4.8625	-3.8208	-4.6979	-4.2833	133.466	32.162	65.795	-83.049	16.029	-123.751	109.639	181.267	207.022	2.701	50.062	-142.688	208.322	129.819	-105.585	162.774	0.00048115	0.00052466	0.00018047	1298.2	3.5e-06	5.5013e-06	1299.6	344.95	1.7562e-06	6.747e-06	396.03	133.88	115.67	40.562	5.7982e-06	50.333	0.00053263	0.0005332	0.00014731	1312.7	5.8615e-06	5.7689e-06	1316.4	349.93	5.9546e-06	5.8418e-06	402.66	136.94	118.32	41.471	5.9399e-06	51.628	177.905	-73.045	-30.348	-137.476	-21.988	4.664	-137.763	-132.729	-62.145	40.552	-133.485	-129.529	-128.864	-123.857	1.801	-124.297	-8191	255	
891.496	1	1	0	0	0.15147	0.12931	0.17522	0.16443	0.17574	0.26374	0.21553	0.24055	0.099529	0.017146	0.17412	0.082052	0.043726	0.31258	0.035795	0.13094	-3.8	-4.7292	-4.1229	-4.425	-4.7229	-3.8063	-4.7438	-4.5021	-3.9417	-4.8646	-4.2104	-4.2063	-4.8104	-3.9958	-4.325	-4.75	86.447	194.150	57.331	154.943	-126.340	-64.951	144.111	161.128	-79.791	-146.831	-76.312	133.912	-102.691	207.255	-64.951	125.863	0.00046966	0.00054143	0.00013319	1299.4	2.709e-06	3.4086e-06	1302	343.86	4.4657e-06	1.4184e-06	396.37	133.37	115.76	40.429	5.9251e-06	50.268	0.00054153	0.00052838	0.00014719	1312.7	5.8643e-06	5.9512e-06	1315.4	349.96	5.9095e-06	5.8155e-06	402.73	136.71	118.44	41.384	5.8482e-06	51.718	187.527	-104.480	-78.468	-137.529	-109.390	-61.559	-137.678	-132.740	-55.923	-87.210	-133.229	-129.518	-128.867	-123.504	3.031	-124.613	-8191	255	
891.592	1	1	0	0	0.08696	0.080757	0.093579	0.29544	0.16948	0.24709	0.10286	0.13038	0.14284	0.036352	0.21009	0.078368	0.11599	0.15888	0.044444	0.21081	-3.5667	-4.7812	-4.1729	-4.2146	-4.7854	-3.8375	-4.4604	-4.9208	-3.8208	-4.7604	-4.3375	-4.0771	-4.7354	-4.2646	-4.2646	-4.8292	3.370	-111.167	140.705	200.265	72.469	6.210	-148.082	-132.782	-74.458	-150.064	157.692	24.729	172.582	-133.749	-83.421	11.079	0.00046232	0.0007492	8.2364e-05	1298.9	4.5507e-06	7.0221e-06	1293.1	344.78	4.7061e-06	6.2037e-06	395.84	133.3	116.41	40.384	3.4525e-06	50.32	0.00054293	0.00053654	0.0001462	1310.4	5.772e-06	5.8105e-06	1314.4	349.75	5.8976e-06	5.7742e-06	402.63	136.62	118.74	41.405	5.7933e-06	51.653	176.577	-64.974	-42.176	-137.453	-32.931	13.564	-137.676	-132.750	3.053	8.561	-133.159	-129.370	-128.653	-123.759	32.571	-124.385	-8191	255	
891.666	1	1	0	0	0.29172	0.26491	0.051202	0.21715	0.1354	0.14962	0.063625	0.11518	0.20862	0.053038	0.28812	0.13328	0.2275	0.099634	0.12221	0.25029	-3.5271	-4.7604	-4.4021	-4.0896	-4.8583	-4.0875	-4.4208	-4.7875	-3.8	-4.6646	-4.4542	-4.0875	-4.9917	-4.2458	-4.0729	-4.9062	186.674	90.035	-15.272	160.708	-116.821	-108.561	-122.023	111.872	-128.392	54.485	194.353	112.743	208.898	-124.682	146.504	-68.118	0.00045693	0.00070084	0.00011994	1293.5	3.532e-06	3.4208e-06	1298.5	344.55	2.1918e-06	5.4885e-06	397.69	133.14	115.99	40.572	6.6385e-06	50.35	0.00053198	0.00052528	0.00014592	1306.4	5.7155e-06	5.7641e-06	1312.1	349.53	5.7202e-06	5.6341e-06	402.56	136.36	118.44	41.399	5.8823e-06	51.495	186.481	-30.647	-67.438	-137.498	-37.053	64.057	-137.724	-132.756	-51.034	41.054	-133.039	-129.452	-128.585	-123.573	-3.776	-124.232	-8191	255	
891.785	1	1	0	0	0.23227	0.11218	0.19983	0.24061	0.19993	0.15661	0.13782	0.1558	0.37339	0.047141	0.15446	0.12721	0.30161	0.022424	0.11465	0.11167	-3.5854	-4.6583	-4.4625	-3.9271	-4.6479	-4.1792	-4.4542	-4.9313	-3.9417	-4.5542	-4.5167	-3.9542	-4.9042	-4.1729	-3.9729	-4.9229	-85.295	180.375	50.745	130.547	-111.026	-38.349	104.898	130.406	39.737	-107.201	138.730	183.600	99.582	142.771	-89.476	143.833	0.00046279	0.00047108	0.00015036	1293.7	5.0419e-06	4.3709e-06	1292.4	344.12	3.3713e-06	4.8107e-07	396.61	134.04	115.52	40.319	2.6811e-06	50.085	0.00051245	0.00052071	0.00014572	1309.7	5.7319e-06	5.6981e-06	1311.4	349.68	5.737e-06	5.7191e-06	402.34	136.42	118.14	41.325	5.7851e-06	51.557	189.426	-7.661	-90.054	-137.455	-37.538	-8.598	-137.734	-132.953	-12.727	31.166	-132.993	-129.652	-129.141	-123.727	22.564	-124.399	-8191	255	
891.881	1	1	0	0	0.15098	0.15952	0.11647	0.3394	0.15161	0.10902	0.2951	0.18839	0.058279	0.07514	0.21366	0.091782	0.073776	0.15287	0.13989	0.22009	-3.5812	-4.3875	-4.5813	-4.1042	-4.7583	-4.1625	-4.5479	-5.0125	-4.0625	-4.4021	-4.7875	-4.1208	-4.8875	-4.475	-3.9083	-4.8729	106.902	188.499	202.897	-142.677	-13.004	18.261	150.383	68.311	133.347	-45.314	165.464	10.152	42.078	-138.545	94.973	208.412	0.00044019	0.00061477	8.3204e-05	1291.4	6.4762e-06	4.3881e-06	1290.5	343.27	2.8612e-07	4.2314e-06	396.55	133.38	115.25	40.614	4.5349e-06	50.094	0.00051856	0.00052294	0.00014608	1306.5	5.6255e-06	5.6239e-06	1310.2	349.07	5.5898e-06	5.729e-06	401.93	136.34	118.08	41.31	5.8155e-06	51.512	181.653	-105.377	-60.786	-137.109	15.826	10.165	-137.901	-132.745	2.901	-31.977	-132.999	-129.440	-128.807	-123.734	-42.049	-124.520	-8191	255	
891.977	1	1	0	0	0.26234	0.20717	0.13882	0.25399	0.11797	0.22069	0.15158	0.11892	0.08477	0.18995	0.23637	0.29615	0.1549	0.25434	0.088079	0.078311	-3.9083	-4.2792	-4.7146	-4.0437	-4.6792	-4.3833	-3.9646	-4.9313	-4.0646	-4.0896	-4.9708	-3.7167	-4.7125	-4.5729	-3.9396	-4.8833	27.074	-146.346	175.724	169.596	-108.038	122.841	74.998	184.002	-139.501	-96.525	145.834	86.698	193.742	112.602	-58.928	199.252	0.00041907	0.00051438	0.00014112	1294.5	2.4701e-06	2.0142e-06	1295.1	344.67	2.8288e-06	6.3614e-06	396.09	133.34	115.7	40.287	4.9265e-06	50.055	0.00051338	0.00051969	0.00014296	1306.8	5.5762e-06	5.5601e-06	1310.5	349.02	5.6213e-06	5.6323e-06	401.34	136.07	118.07	41.335	5.5435e-06	51.465	182.726	-61.099	-103.632	-137.344	17.035	0.059	-137.788	-132.933	-32.210	0.881	-133.024	-129.501	-128.703	-123.605	17.260	-124.141	-8191	255	
892.073	1	1	0	0	0.044239	0.14429	0.098086	0.28411	0.078161	0.086202	0.1571	0.16885	0.12179	0.19014	0.056183	0.22583	0.073885	0.05634	0.05646	0.034042	-3.7458	-4.2083	-4.7604	-4	-4.4292	-4.5021	-4.1	-4.8021	-4.2125	-4.0396	-5.1042	-3.9292	-4.5375	-4.6125	-3.7667	-4.8729	139.330	115.437	-51.749	204.191	166.967	78.281	98.648	-130.558	-106.447	173.817	139.503	88.011	-115.001	82.127	133.182	208.417	0.00047358	0.00015928	9.5991e-05	1288	5.3241e-06	2.9396e-06	1288.2	344	9.5648e-07	4.5958e-06	394.65	133.86	115.46	40.195	3.2046e-06	50.036	0.00049877	0.00050867	0.00013979	1301.4	5.4938e-06	5.4784e-06	1305.2	348.67	5.5038e-06	5.4991e-06	400.84	136.1	117.9	41.16	5.5315e-06	51.311	179.818	52.622	-72.726	-137.336	-57.165	-14.897	-137.920	-132.712	-59.056	-14.003	-132.871	-129.416	-128.751	-123.515	20.714	-124.258	-8191	255	
892.194	1	1	0	0	0.13916	0.20129	0.13505	0.21776	0.22881	0.053246	0.20638	0.15167	0.078389	0.14341	0.13708	0.16938	0.026498	0.18657	0.19889	0.066644	-3.9229	-4.0458	-4.6833	-4.0833	-4.2542	-4.7146	-4.0125	-4.6042	-4.3104	-4.0104	-4.9979	-3.9208	-4.4354	-4.8083	-3.725	-4.7625	115.298	46.302	195.636	141.425	-97.006	-71.206	-124.167	-139.611	89.903	67.281	130.772	114.949	-95.879	-28.615	-91.244	74.571	0.00044218	0.00044564	0.00011616	1287.4	3.6597e-06	6.158e-06	1282.2	342.09	3.5217e-06	2.2543e-06	394.41	133.43	115.21	40.126	5.9613e-06	49.991	0.00049532	0.00049665	0.00013775	1297.6	5.5405e-06	5.3505e-06	1300.1	347.22	5.4626e-06	5.5291e-06	399.94	136.05	117.85	41.177	5.6205e-06	51.346	182.561	-7.965	-29.634	-137.531	3.258	-2.444	-137.760	-132.820	30.421	-24.011	-133.216	-129.318	-128.890	-123.525	-45.285	-124.367	-8191	255	
892.290	1	1	0	0	0.16391	0.11969	0.058581	0.070539	0.19662	0.048064	0.23165	0.10594	0.17099	0.12727	0.07624	0.23445	0.1422	0.13008	0.093853	0.14185	-4.1375	-4.0354	-4.6979	-4.1813	-4.1583	-4.7521	-3.9562	-4.6771	-4.3438	-3.8917	-4.9604	-4.1667	-4.2583	-4.9667	-3.8917	-4.7458	73.725	107.502	-60.871	-49.033	36.869	46.829	17.959	40.672	-19.253	-129.620	-80.627	-117.878	105.827	190.166	191.635	181.896	0.00050427	0.00073454	0.00018799	1285.7	6.0123e-06	3.5828e-06	1287.3	343.17	2.7388e-06	3.0089e-06	395.49	133.85	115.61	40.329	3.9151e-06	50.034	0.00050626	0.00051324	0.00014103	1299.3	5.6128e-06	5.5429e-06	1304.5	347.97	5.5944e-06	5.7344e-06	401.21	136.22	117.95	41.301	5.6835e-06	51.378	186.917	-54.947	-72.025	-137.401	-58.819	-6.771	-137.643	-132.798	-92.636	-20.223	-133.187	-129.282	-129.167	-123.667	-33.320	-124.357	-8191	255	
892.386	1	1	0	0	0.26153	0.0066228	0.18626	0.038183	0.093705	0.21114	0.063759	0.19077	0.052682	0.29511	0.16962	0.19249	0.070315	0.19484	0.21586	0.20501	-4.2833	-3.7792	-4.8938	-4.3042	-4.0333	-4.8729	-3.9854	-4.5396	-4.6854	-3.8625	-4.8333	-4.3187	-4.1708	-4.8625	-3.9083	-4.45	76.295	32.148	-12.846	-118.142	184.620	106.822	-124.125	165.133	174.000	1.479	-120.432	51.994	-76.509	-146.988	20.672	-142.884	0.0004823	0.00035304	0.00016526	1289.8	3.7869e-06	3.4571e-06	1284.6	341.35	5.3961e-06	3.1494e-06	393.47	132.85	115.04	40.275	4.0241e-06	49.757	0.0005185	0.00052011	0.00014279	1301.8	5.6394e-06	5.6133e-06	1304.3	347.59	5.6602e-06	5.6718e-06	400.66	135.98	117.68	41.231	5.6295e-06	51.298	185.863	204.535	-63.153	-137.209	7.654	-33.098	-137.696	-132.965	-27.162	5.541	-133.169	-129.336	-128.807	-123.651	-40.175	-124.412	-8191	255	
892.480	1	1	0	0	0.15711	0.1471	0.21492	0.17777	0.15686	0.14365	0.21077	0.3178	0.10955	0.18883	0.065836	0.14033	0.073241	0.06428	0.25544	0.051578	-4.4354	-3.8312	-4.7333	-4.5729	-3.8312	-4.8375	-4.0938	-4.4896	-4.725	-3.8958	-4.6896	-4.4771	-4.0229	-4.9167	-4.0792	-4.45	198.555	-129.504	-146.492	-143.091	-80.629	109.591	145.347	153.206	110.797	16.526	34.169	205.551	190.260	-52.570	179.438	151.727	0.00046942	0.00071292	0.0001795	1286.1	6.1476e-06	3.969e-06	1283.7	342.43	3.063e-06	4.95e-06	393.78	133.05	114.99	40.386	7.1134e-06	50.032	0.00051136	0.0005198	0.00014304	1299.2	5.6725e-06	5.6277e-06	1302.6	347.48	5.6365e-06	5.5655e-06	400.25	135.85	117.86	41.191	5.5421e-06	51.38	179.977	-38.689	-53.745	-137.342	-50.395	-69.630	-137.491	-132.904	-2.540	-26.566	-133.220	-129.564	-128.788	-123.703	-38.830	-124.500	-8191	255	
892.577	1	1	0	0	0.2388	0.23136	0.20474	0.16378	0.045045	0.1676	0.13679	0.34782	0.10574	0.051525	0.21187	0.22546	0.22268	0.036101	0.093597	0.083297	-4.3688	-3.9	-4.5375	-4.6687	-3.85	-4.7979	-4.3333	-4.2479	-4.725	-4.0083	-4.4854	-4.6021	-4.0125	-4.7167	-4.3833	-4.1875	171.880	161.877	63.315	181.721	36.436	194.540	78.542	175.082	-34.755	83.527	178.512	-6.772	169.660	-125.017	37.632	140.925	0.00041161	0.00077004	0.00018466	1288.3	4.4581e-06	7.5238e-06	1281.4	342.22	5.1953e-06	5.5043e-06	394.72	133.34	115.18	40.389	1.0619e-06	49.948	0.00050686	0.00050735	0.00013992	1299	5.5836e-06	5.5589e-06	1301	347.6	5.6769e-06	5.5858e-06	400.42	136.21	117.72	41.258	5.65e-06	51.363	187.287	-69.750	-24.322	-137.202	-41.243	-7.132	-137.756	-132.785	-45.893	-23.502	-132.930	-129.337	-128.778	-123.612	7.490	-124.666	-8191	255	
892.675	1	1	0	0	0.15562	0.044059	0.18667	0.082161	0.29599	0.14072	0.17312	0.09983	0.21841	0.19479	0.13344	0.14131	0.11668	0.098735	0.15629	0.17367	-4.5583	-3.925	-4.4792	-4.6104	-3.9813	-4.6083	-4.3229	-4.2479	-4.6562	-3.9771	-4.5146	-4.9292	-4.0792	-4.8063	-4.2917	-4.0896	206.017	163.001	-4.318	140.402	-106.994	-141.719	151.765	101.701	195.697	86.594	131.844	117.897	166.296	-109.810	161.099	-95.644	0.00044294	0.00037797	0.00018798	1292.5	5.1996e-06	3.5545e-06	1291	343.83	4.049e-06	2.4103e-06	394.41	133.45	115.64	40.45	4.284e-06	50.147	0.00052686	0.0005206	0.00014812	1303.2	5.8076e-06	5.6077e-06	1307.9	348.84	5.7455e-06	5.6408e-06	401.37	136.13	117.92	41.318	5.5499e-06	51.416	188.400	-71.242	-7.105	-137.376	-35.680	-17.341	-137.524	-132.891	-28.418	-7.811	-133.426	-129.158	-128.827	-123.801	-1.509	-124.609	-8191	255	
892.793	1	1	0	0	0.091113	0.14523	0.093157	0.085052	0.047681	0.061886	0.061947	0.14163	0.17476	0.1488	0.075855	0.14282	0.22688	0.28301	0.054665	0.26414	-4.5667	-3.9375	-4.3917	-4.7875	-3.9	-4.5979	-4.6396	-4.0437	-4.8979	-3.9271	-4.4479	-4.7812	-4.0125	-4.6062	-4.4062	-4.2042	137.750	-38.843	-64.844	76.843	110.311	-62.895	208.691	114.491	-23.768	-51.575	154.260	181.617	97.727	186.195	-60.373	133.443	0.00046233	0.00053414	0.00011592	1285	6.0295e-06	5.3971e-06	1286.9	342.27	3.1978e-06	4.9034e-06	392.7	133.23	114.71	40.302	4.0851e-06	49.947	0.00049705	0.00049707	0.00014033	1298.9	5.5506e-06	5.4854e-06	1303.1	347.5	5.5506e-06	5.5809e-06	399.62	135.94	117.53	41.236	5.5616e-06	51.326	187.472	0.320	-45.874	-137.432	-32.922	-28.461	-137.539	-132.855	-45.074	5.399	-133.285	-129.347	-128.928	-123.603	-30.036	-124.355	-8191	255	
892.890	1	1	0	0	0.064686	0.32607	0.13067	0.065489	0.15885	0.14617	0.37339	0.20487	0.13561	0.1725	0.1943	0.30676	0.18866	0.30037	0.20767	0.29723	-4.6396	-4.2042	-4.1417	-4.9771	-3.8375	-4.4708	-4.7646	-3.9625	-4.9354	-4.1687	-4.1917	-4.9812	-3.9479	-4.6375	-4.5938	-4.0958	-107.771	136.423	175.434	157.126	-24.025	-96.899	106.722	189.382	185.889	-101.554	46.473	-111.009	164.677	137.010	142.733	34.055	0.00054419	0.00052539	0.00014892	1286.6	5.592e-06	4.5467e-06	1282.7	343.05	5.3347e-06	3.7947e-06	395.39	133.3	115.43	40.384	2.2597e-06	49.926	0.00051381	0.00051018	0.00014407	1299.6	5.6064e-06	5.4879e-06	1303.2	348.12	5.558e-06	5.5035e-06	401.07	136.14	117.71	41.199	5.5016e-06	51.309	179.903	-44.695	-48.367	-137.227	-26.340	26.471	-137.537	-132.882	-42.603	-17.826	-133.416	-129.471	-128.853	-123.686	17.550	-124.853	-8191	255	
892.986	1	1	0	0	0.20222	0.03823	0.26639	0.12939	0.13014	0.069924	0.30436	0.28559	0.18137	0.16389	0.39662	0.086401	0.23597	0.27835	0.22129	0.15991	-4.5354	-4.4167	-4.1292	-4.8979	-3.9375	-4.3104	-4.8958	-3.9562	-4.7562	-4.3458	-4.05	-5.0104	-4.1458	-4.3313	-4.7021	-3.975	-145.635	169.420	106.249	-126.223	71.358	192.971	121.266	160.794	-0.735	20.228	161.196	107.856	-123.442	-117.034	148.215	-46.657	0.00047348	0.0010807	0.00019875	1289.5	1.5257e-06	8.7819e-06	1286.2	342.33	3.7934e-06	3.2352e-06	393.83	133.56	116.03	40.383	5.4722e-06	50.275	0.00050602	0.00051146	0.00014286	1302.5	5.6413e-06	5.7503e-06	1303.3	348.15	5.7243e-06	5.6981e-06	401.43	136.54	118.26	41.335	5.7959e-06	51.501	188.265	-64.098	-100.593	-137.297	-8.533	-28.409	-137.685	-132.877	-9.083	-8.433	-133.400	-129.255	-129.163	-123.735	-44.387	-124.612	-8191	255	
893.082	1	1	0	0	0.12869	0.082852	0.36898	0.20801	0.14925	0.20123	0.081882	0.16825	0.091541	0.12269	0.33907	0.24599	0.13152	0.20517	0.23086	0.17486	-4.3875	-4.3208	-3.925	-4.8646	-4.1125	-4.175	-4.9667	-3.9542	-4.5854	-4.5229	-3.9833	-4.6562	-4.3354	-4.2646	-4.7458	-4.0479	-139.636	-118.526	22.338	-144.384	107.826	26.737	-86.862	-118.967	-132.659	108.267	113.358	112.005	144.754	103.556	67.766	156.533	0.00048873	0.00032204	0.0001415	1291.9	3.3064e-06	7.531e-06	1287.4	343.53	5.5212e-06	2.2219e-06	395.24	132.86	115.18	40.308	4.4365e-06	49.76	0.00051737	0.00051437	0.00014396	1305.3	5.4342e-06	5.5043e-06	1306.5	347.75	5.3852e-06	5.3531e-06	400.1	135.82	117.54	41.161	5.4402e-06	51.219	181.819	-105.930	-80.890	-137.105	0.911	-20.675	-137.616	-132.831	-30.595	17.601	-133.230	-129.209	-129.022	-123.699	-30.428	-124.490	-8191	255	
893.178	1	1	0	0	0.20111	0.026301	0.071634	0.10535	0.16182	0.084947	0.13122	0.2889	0.1762	0.10599	0.20947	0.042459	0.33288	0.24929	0.24904	0.24941	-4.1604	-4.6292	-3.6854	-4.8625	-4.0542	-4.0521	-5.0042	-4.0208	-4.2667	-4.6792	-3.9771	-4.8542	-4.4292	-4.0188	-4.6604	-4.0167	-57.504	60.552	-59.570	129.518	103.143	-20.643	207.791	149.479	108.564	122.507	55.331	-33.930	163.965	-28.731	27.634	76.478	0.00043838	0.00071883	0.00014993	1288	4.0277e-06	5.0349e-06	1285.8	342.73	3.0097e-06	4.5495e-06	392.91	133.87	115.06	40.269	1.5165e-06	50.063	0.00050081	0.00049991	0.00014101	1299.5	5.5268e-06	5.617e-06	1304.5	347.87	5.4945e-06	5.5446e-06	400.05	136.4	117.84	41.206	5.4323e-06	51.374	175.769	-83.441	-85.691	-137.331	14.358	-7.881	-137.622	-133.133	-67.221	-13.490	-133.329	-129.275	-129.098	-123.808	-2.116	-124.029	-8191	255	
893.274	1	1	0	0	0.13348	0.10632	0.23024	0.14438	0.17252	0.033026	0.16431	0.0741	0.1594	0.036755	0.056098	0.14462	0.12775	0.13936	0.14878	0.0968	-4.0146	-4.7042	-3.8354	-4.8125	-4.3812	-3.8604	-5.0104	-4.0604	-4.2583	-4.6875	-3.9896	-4.7438	-4.4729	-3.9917	-4.6833	-4.2854	-34.111	83.979	178.850	-127.393	170.128	-47.808	160.184	108.567	34.685	163.044	47.107	153.532	40.199	-148.938	-100.085	131.461	0.00049273	0.00074576	0.00021823	1289.7	3.9376e-06	5.487e-06	1289	343.13	1.9255e-06	7.7638e-07	392.42	132.83	115.37	40.371	3.7556e-06	49.782	0.00049204	0.00048744	0.00013635	1301.8	5.3767e-06	5.436e-06	1303.8	347.32	5.5472e-06	5.5021e-06	399.9	136.05	117.79	41.192	5.5213e-06	51.307	177.857	-75.350	-75.437	-137.576	10.683	37.919	-137.676	-132.778	-27.927	-101.639	-133.237	-129.589	-128.586	-123.627	-35.872	-124.560	-8191	255	
893.370	1	1	0	0	0.13435	0.13777	0.17614	0.10468	0.1929	0.081722	0.14488	0.074724	0.089971	0.071066	0.2199	0.29037	0.17707	0.21403	0.065201	0.16156	-3.9875	-5.0167	-3.9417	-4.5958	-4.5312	-3.9188	-4.9563	-4.2312	-4.0458	-5.075	-3.9979	-4.5437	-4.7417	-3.9729	-4.7708	-4.1729	-19.140	112.355	189.034	174.125	207.889	-7.907	100.918	95.242	101.592	-57.247	186.550	-143.205	197.701	-137.020	-28.897	-24.307	0.00045223	0.0004911	0.00010802	1288.8	3.9751e-06	6.0345e-06	1284.6	343.57	3.0619e-06	3.8577e-06	395.51	133.84	114.89	40.254	2.0387e-06	50.121	0.00051119	0.0005058	0.00014113	1301.3	5.5877e-06	5.5196e-06	1304.4	348.01	5.5911e-06	5.4053e-06	400.41	136.13	117.67	41.186	5.4954e-06	51.347	181.350	-98.873	-94.372	-137.569	-63.631	8.856	-137.705	-133.042	-20.596	62.591	-133.274	-129.748	-128.803	-124.080	-74.060	-124.528	-8191	255	
893.489	1	1	0	0	0.15946	0.22035	0.071398	0.077271	0.15598	0.068925	0.27879	0.22752	0.27225	0.068699	0.020543	0.13921	0.053862	0.03691	0.38243	0.2112	-3.7771	-4.8438	-4.0208	-4.5333	-4.7792	-3.9646	-4.9083	-4.2771	-4.1729	-4.8854	-3.95	-4.4667	-4.7104	-3.9542	-4.9	-4.2292	85.166	-73.154	-77.478	-90.976	27.956	-70.414	115.967	183.395	38.453	-59.025	71.494	100.678	-77.098	99.217	-62.391	127.287	0.00047245	0.00017357	0.0001411	1290.5	4.3856e-06	4.767e-06	1287.4	343.52	5.1276e-06	5.7847e-06	394.48	133.1	116.25	40.2	4.6581e-06	49.901	0.00050794	0.00050321	0.00013897	1300.8	5.4733e-06	5.5189e-06	1305.2	348.12	5.6444e-06	5.4747e-06	401.13	136.07	118.11	41.155	5.5596e-06	51.302	180.602	120.360	-17.648	-137.416	-8.922	-23.344	-137.540	-132.672	-28.630	14.555	-133.541	-129.497	-128.947	-123.891	-6.840	-124.602	-8191	255	
893.561	1	1	0	0	0.10404	0.1993	0.13339	0.28479	0.14717	0.20401	0.085473	0.14007	0.16711	0.12208	0.1909	0.084678	0.19538	0.19216	0.16742	0.12354	-3.5563	-4.6646	-4.0437	-4.3917	-4.6833	-3.9083	-4.7396	-4.4521	-4.1146	-4.5917	-4.2562	-4.3792	-4.9375	-4.1208	-4.5458	-4.6667	-1.775	68.118	-64.608	192.948	87.314	123.022	-79.393	118.882	-69.907	63.760	171.388	206.011	-66.260	206.845	47.699	94.643	0.00048654	0.00068614	0.00018746	1288.9	6.1013e-06	2.5116e-06	1290.1	342.2	8.2808e-06	7.5179e-06	395.86	132.76	115.27	40.327	6.5465e-06	50.075	0.00051119	0.00050483	0.00013863	1301.2	5.4459e-06	5.4393e-06	1304.3	347.11	5.527e-06	5.4483e-06	400.49	135.67	117.78	41.23	5.6358e-06	51.32	186.273	-72.338	-40.251	-137.409	-8.355	59.576	-137.845	-132.833	-18.020	-52.653	-133.375	-129.459	-128.777	-123.630	-30.909	-124.430	-8191	255	
893.657	1	1	0	0	0.07977	0.057171	0.17832	0.31517	0.27339	0.0059504	0.0975	0.026534	0.14116	0.13279	0.18372	0.12801	0.14546	0.20349	0.083513	0.071724	-3.4333	-4.6937	-4.0417	-4.3417	-4.7083	-3.9938	-4.5854	-4.6604	-4.0292	-4.7771	-4.3354	-4.2417	-4.8167	-3.9833	-4.3208	-4.6687	-10.061	204.225	-59.226	181.029	180.592	91.843	163.241	-93.881	133.439	205.099	207.519	-25.065	-69.636	159.779	104.271	171.643	0.00044903	0.00043701	0.00020118	1283.5	4.1109e-06	3.4693e-06	1284.2	342.34	2.9459e-06	6.1831e-06	394.38	133.21	115.47	40.141	3.5168e-06	50.161	0.00051285	0.00050365	0.00014051	1299.5	5.4637e-06	5.5339e-06	1304.3	347.75	5.6164e-06	5.5544e-06	400.29	136.15	117.97	41.127	5.6498e-06	51.39	179.443	-57.538	-61.183	-137.637	-1.906	1.925	-137.749	-133.017	-17.183	-36.547	-133.220	-129.680	-128.652	-123.823	43.555	-124.242	-8191	255	
893.755	1	1	0	0	0.082582	0.18587	0.04273	0.23	0.010609	0.27996	0.20056	0.051027	0.08709	0.17329	0.082067	0.1267	0.13089	0.21602	0.22191	0.33986	-3.4646	-4.6604	-4.2396	-4.1771	-5.0979	-3.9354	-4.3521	-4.8688	-3.6813	-4.825	-4.4313	-4.0833	-4.8917	-4.1583	-4.2792	-4.8479	177.093	-114.231	135.980	194.119	44.794	89.593	146.920	151.565	162.998	-140.243	195.224	206.394	143.614	-113.974	-75.134	165.147	0.00045978	0.00057104	0.00015936	1288.3	3.1147e-06	1.3362e-06	1285.6	343.2	3.9604e-06	3.4819e-06	393.84	133.39	116.03	40.398	3.6841e-06	50.047	0.00051292	0.00049868	0.00013821	1301.7	5.477e-06	5.4677e-06	1304.1	347.96	5.6032e-06	5.5107e-06	400.43	136.38	118.14	41.246	5.6309e-06	51.354	182.679	-56.559	-33.954	-137.535	-21.409	-12.898	-137.724	-132.780	-45.670	18.389	-133.189	-129.683	-129.059	-123.765	43.861	-124.615	-8191	255	
893.874	1	1	0	0	0.23893	0.1427	0.15841	0.24645	0.12097	0.21016	0.15713	0.06278	0.14056	0.18166	0.10299	0.19688	0.23744	0.2721	0.069561	0.2123	-3.5208	-4.5854	-4.4646	-4.2	-4.8125	-4.1021	-4.2833	-4.9271	-3.7979	-4.5917	-4.9062	-4.0271	-4.9938	-4.3542	-4.05	-4.9354	-116.396	3.694	119.780	153.485	43.763	-22.760	128.444	-5.180	-102.144	-25.071	-32.959	166.874	186.688	-142.436	-9.781	-137.377	0.00044059	0.00039371	0.0001165	1287.4	2.6392e-06	1.0165e-05	1289	342.16	2.9706e-06	5.3566e-06	395.32	133.88	115.7	40.39	6.9272e-06	50.06	0.00051098	0.00050246	0.00014038	1300.2	5.4995e-06	5.5194e-06	1304.7	347.92	5.5849e-06	5.5296e-06	400.78	136.29	118.09	41.208	5.6296e-06	51.376	187.390	-124.963	-57.913	-137.611	-11.325	6.013	-137.747	-132.848	-38.380	12.490	-133.295	-129.540	-128.906	-123.565	-6.149	-124.679	-8191	255	
893.970	1	1	0	0	0.30063	0.36358	0.085289	0.26903	0.19964	0.082506	0.26634	0.1332	0.18792	0.17658	0.16809	0.094734	0.27433	0.14545	0.068684	0.026258	-3.6167	-4.5333	-4.5125	-4.0792	-4.8354	-4.1687	-4.2312	-4.9271	-3.8208	-4.2667	-4.8625	-3.8125	-4.8583	-4.3417	-4.05	-5.0479	92.214	-7.440	-15.313	134.467	133.593	183.084	168.289	-23.224	103.766	187.914	137.781	-115.888	124.854	69.807	110.816	141.545	0.00053156	0.00031373	0.0001393	1291.2	8.4561e-06	4.7483e-06	1291.1	344.26	7.6779e-07	4.7492e-06	395.45	132.74	115.69	40.317	3.7246e-06	50.317	0.00050746	0.00049944	0.00013915	1302.8	5.5445e-06	5.5566e-06	1307.2	348.87	5.6273e-06	5.5988e-06	400.9	136.15	117.95	41.235	5.6452e-06	51.364	175.703	-40.438	-52.156	-137.654	-60.456	47.901	-137.805	-132.880	5.223	-50.425	-133.039	-129.619	-128.766	-123.707	-46.176	-124.230	-8191	255	
894.066	1	1	0	0	0.16177	0.18695	0.36337	0.034985	0.19609	0.13726	0.048746	0.10755	0.16755	0.076599	0.11837	0.032748	0.0632	0.30427	0.22265	0.10957	-3.5917	-4.4396	-4.5354	-4.1854	-4.5792	-4.4333	-4.2458	-5.0354	-4.125	-4.3229	-4.8292	-3.9479	-4.7917	-4.55	-4.0583	-4.975	206.843	-28.669	50.773	-140.992	186.525	129.963	184.475	132.143	41.473	-81.189	146.530	143.221	11.559	-101.598	33.664	159.100	0.00046386	0.00065944	9.6871e-05	1289.7	4.2688e-06	4.6611e-06	1291.2	342.57	4.6661e-06	5.0598e-06	396.21	133.28	115.84	40.259	1.6413e-06	49.933	0.00050604	0.00051174	0.0001392	1303	5.6081e-06	5.4951e-06	1307.2	348.03	5.5759e-06	5.6518e-06	401.74	136.36	118.12	41.172	5.6426e-06	51.331	183.562	-69.749	-69.033	-137.276	-33.049	-36.575	-137.628	-132.782	-41.179	27.091	-133.233	-129.450	-128.505	-123.724	-48.224	-124.360	-8191	255	
894.187	1	1	0	0	0.089566	0.26815	0.10061	0.37273	0.1215	0.1627	0.14756	0.39856	0.26333	0.03987	0.19049	0.23027	0.20012	0.39886	0.0641	0.02269	-3.8708	-4.1042	-4.6917	-4.1188	-4.4542	-4.4375	-4.1458	-4.9521	-4.2271	-4.1583	-5.0938	-4.2312	-4.5875	-4.7188	-3.9521	-4.9354	-25.024	36.158	-44.465	186.903	-123.712	105.137	137.230	-127.249	170.073	207.445	148.761	179.445	175.189	123.374	-65.586	-40.388	0.00045583	0.00052324	0.00014453	1289.2	4.5048e-06	3.9593e-06	1289.7	344.09	4.1454e-06	8.7019e-06	395.69	132.92	116.01	40.351	5.8011e-06	50.058	0.00050578	0.0005054	0.0001427	1301.4	5.5916e-06	5.4486e-06	1307.9	348.47	5.5393e-06	5.6852e-06	401.44	136.15	118.05	41.279	5.7261e-06	51.43	178.145	-39.314	-45.001	-137.538	-63.051	-22.679	-137.917	-132.757	-24.357	-4.719	-133.100	-129.364	-128.779	-123.516	-4.603	-124.761	-8191	255	
894.258	1	1	0	0	0.091299	0.031597	0.12141	0.28554	0.10052	0.09083	0.11963	0.02498	0.13761	0.16511	0.24081	0.15585	0.2044	0.26035	0.16684	0.06372	-3.9667	-4.0354	-4.9021	-4.0417	-4.3458	-4.6917	-3.75	-4.8625	-4.3313	-4.0229	-4.8875	-4.1396	-4.5771	-4.8042	-3.8292	-5.0021	-92.457	-58.841	-5.296	-97.291	149.682	191.422	-42.523	58.288	-12.290	-23.298	-89.897	104.730	-68.190	-139.090	-137.627	72.833	0.00045198	0.000398	0.00021382	1287.8	6.6934e-06	7.2755e-06	1289.2	344.56	4.3194e-06	1.907e-06	394.74	132.7	115.05	40.514	5.2225e-06	50.11	0.00050234	0.00050807	0.00014099	1301.1	5.57e-06	5.5471e-06	1307.4	348.72	5.5962e-06	5.6437e-06	401.24	135.95	117.79	41.288	5.6033e-06	51.462	182.624	-76.261	-5.422	-137.493	-0.796	8.538	-137.791	-132.967	-30.312	-19.807	-133.319	-129.462	-128.914	-123.594	15.155	-124.577	-8191	255	
894.355	1	1	0	0	0.055659	0.2894	0.024668	0.18954	0.24915	0.10793	0.19125	0.11156	0.19575	0.1192	0.34015	0.13423	0.073401	0.27535	0.086305	0.046048	-4.1667	-4.0125	-5.0042	-4.0708	-4.0458	-4.7375	-4.1125	-4.7979	-4.5417	-3.9688	-4.9688	-4.3333	-4.3	-4.9646	-3.7667	-4.6542	199.145	-39.807	-15.908	-138.849	17.531	-82.590	87.422	30.664	-69.923	-68.322	88.258	36.957	-32.626	80.754	176.425	89.039	0.00040585	0.0003191	0.00010703	1291.1	3.2037e-06	5.993e-06	1290.8	343.05	1.7692e-06	3.4605e-06	395.15	133.77	115.5	40.507	5.0487e-06	50.308	0.00050704	0.00051989	0.00014126	1303.1	5.6421e-06	5.5634e-06	1309.8	348.5	5.5745e-06	5.6286e-06	401.55	136.59	118.11	41.296	5.7016e-06	51.514	178.796	-34.482	-48.148	-137.191	12.247	-7.835	-137.503	-132.919	-34.518	66.679	-133.337	-129.500	-128.822	-123.638	-6.012	-124.663	-8191	255	
894.475	1	1	0	0	0.15559	0.14809	0.12587	0.29525	0.24326	0.26621	0.21477	0.12685	0.37148	0.09366	0.13086	0.072226	0.1477	0.13622	0.073596	0.13569	-4.475	-3.8812	-4.9833	-4.2104	-4.1958	-4.8604	-3.975	-4.7375	-4.5	-3.9521	-5.1521	-4.325	-4.1958	-4.9875	-3.9646	-4.7312	148.690	-87.416	-67.028	-97.052	-64.431	86.438	131.468	182.256	207.383	160.145	134.953	168.810	-137.666	182.538	78.081	-101.912	0.00050865	0.00047275	0.00011631	1296.4	2.7208e-06	2.9648e-06	1286.9	343.38	3.9342e-06	3.4927e-06	396.72	133.63	115.73	40.248	4.5759e-06	49.985	0.00050279	0.00051146	0.00014066	1306.8	5.6075e-06	5.5958e-06	1308.5	348.12	5.6171e-06	5.6716e-06	402.14	136.66	118.08	41.233	5.6509e-06	51.373	180.550	-34.438	-31.820	-137.131	8.222	-6.667	-137.747	-132.856	-7.031	-66.595	-133.282	-129.356	-128.868	-123.523	27.760	-124.620	-8191	255	
894.570	1	1	0	0	0.34721	0.083644	0.068303	0.017634	0.13556	0.27114	0.14058	0.29895	0.13668	0.16578	0.2309	0.19105	0.28973	0.046621	0.084689	0.16743	-4.3792	-3.7917	-4.85	-4.5042	-4.0729	-4.8771	-4.225	-4.3812	-4.625	-3.8042	-4.7521	-4.5646	-3.9062	-4.7979	-4.0792	-4.2625	60.474	58.602	97.499	-18.959	84.608	69.577	164.972	202.421	-126.358	-10.488	-129.501	-68.403	169.055	109.100	189.791	110.782	0.00047284	0.00055509	0.0001459	1293.1	2.5526e-06	3.8817e-06	1292.3	343.52	5.7007e-06	2.6542e-06	396.21	133.27	115.72	40.468	4.1263e-06	50.121	0.00050695	0.00051524	0.00013972	1304.2	5.5942e-06	5.5296e-06	1308.1	348.72	5.5492e-06	5.5436e-06	401.45	136.29	118.2	41.262	5.5373e-06	51.408	180.364	-46.115	-86.888	-137.443	-32.504	-3.011	-137.761	-132.945	-40.363	32.988	-133.329	-129.170	-128.946	-123.547	-13.019	-124.670	-8191	255	
894.666	1	1	0	0	0.075985	0.031645	0.2464	0.17631	0.15896	0.10785	0.29724	0.20185	0.021834	0.17156	0.32662	0.035453	0.15584	0.1824	0.13963	0.26549	-4.4667	-4.0896	-4.7354	-4.6208	-4.0375	-4.8	-4.2688	-4.3854	-4.4479	-4.0083	-4.7854	-4.6312	-3.9958	-5.0708	-4.2708	-4.3896	130.602	63.757	3.626	149.365	-78.869	84.873	128.837	-121.731	2.893	142.468	194.814	166.685	-118.529	-99.117	23.334	206.707	0.0004868	0.00086263	0.00017589	1288.2	2.6993e-06	5.5318e-06	1291	342.53	4.4775e-06	6.9154e-06	394.67	133.9	115.54	40.375	2.081e-06	50.123	0.00049927	0.00050863	0.00014024	1303.5	5.6161e-06	5.5288e-06	1309.7	348.52	5.4725e-06	5.6041e-06	401.43	136.67	118.09	41.233	5.5233e-06	51.428	177.943	-62.354	-29.929	-137.174	-48.562	-53.437	-137.653	-133.055	-26.962	9.075	-133.299	-129.499	-128.878	-123.689	-24.082	-124.646	-8191	255	
894.786	1	1	0	0	0.052957	0.05582	0.084433	0.21833	0.20127	0.24372	0.48391	0.084251	0.21667	0.17549	0.074756	0.29318	0.21421	0.26095	0.11486	0.072768	-4.5396	-3.9042	-4.4771	-4.4604	-4.0042	-4.7417	-4.2708	-4.1729	-4.8708	-3.8396	-4.3479	-4.6833	-3.7042	-4.7688	-4.1979	-4.3875	-144.705	141.500	-108.273	69.448	8.262	-23.663	158.565	-9.487	185.042	-5.313	-129.328	145.251	-96.681	-122.064	155.424	-129.540	0.00044288	0.0005364	0.00011578	1289.9	2.6794e-06	6.2231e-06	1290.5	344.23	3.3883e-06	5.292e-06	396.33	133.24	115.77	40.62	5.7507e-06	49.934	0.00050313	0.00050529	0.00013853	1305.3	5.5448e-06	5.4798e-06	1309.5	348.76	5.5512e-06	5.6002e-06	401.85	136.37	117.98	41.338	5.5348e-06	51.396	179.513	-30.576	-88.678	-137.303	27.077	-2.307	-137.620	-132.833	16.129	-8.838	-133.153	-129.403	-128.865	-123.678	-10.418	-124.299	-8191	255	
894.858	1	1	0	0	0.1744	0.06371	0.16369	0.1373	0.12316	0.16688	0.14331	0.19636	0.20479	0.038935	0.14133	0.21343	0.18836	0.15646	0.09856	0.15662	-4.3896	-3.9562	-4.3125	-4.8063	-3.8625	-4.6875	-4.4854	-4.0208	-4.8	-4.1479	-4.2188	-4.9083	-3.9583	-4.625	-4.4875	-3.9583	127.592	116.024	35.367	193.137	179.365	118.216	141.819	-145.204	200.271	9.342	-80.453	94.192	126.675	-68.102	-107.997	197.996	0.00046315	0.00030213	0.00017815	1290.6	6.3185e-06	4.9779e-06	1289.4	342.8	4.7442e-06	3.6824e-06	396.24	133.05	115.69	40.381	5.1419e-06	50.16	0.0004956	0.00049728	0.00014051	1305.2	5.5582e-06	5.4719e-06	1309.1	348.49	5.5773e-06	5.539e-06	401.86	136.15	117.92	41.341	5.5519e-06	51.461	181.053	-59.884	-21.098	-137.386	-24.580	-36.707	-137.456	-132.947	-51.484	4.951	-133.348	-129.360	-128.918	-123.727	22.178	-124.490	-8191	255	
894.954	1	1	0	0	0.093869	0.047308	0.0080342	0.23291	0.16392	0.094201	0.10635	0.071693	0.090996	0.13975	0.21346	0.13908	0.15502	0.065489	0.27676	0.1225	-4.5042	-4.0687	-4.3604	-4.9812	-3.8667	-4.5583	-4.7521	-3.9896	-4.8646	-4.0917	-4.3	-4.975	-4.0146	-4.6604	-4.5271	-4.0417	145.853	150.149	-147.038	124.271	-69.965	-82.057	199.446	122.669	-27.949	117.490	180.606	193.392	-93.722	42.666	-77.058	-22.145	0.00051426	0.00044682	5.8944e-05	1291.8	1.7627e-06	2.4272e-06	1294.8	343.69	3.3065e-06	3.9389e-06	395.43	133.81	115.7	40.521	3.5055e-06	50.155	0.00050679	0.00051077	0.00014115	1306.1	5.61e-06	5.5552e-06	1311.1	348.86	5.6139e-06	5.5704e-06	402.11	136.52	118.11	41.294	5.5179e-06	51.464	189.222	-68.537	-33.766	-137.409	-54.759	-12.972	-137.591	-133.005	-57.433	40.902	-133.365	-129.435	-128.912	-123.374	13.921	-124.281	-8191	255	
895.050	1	1	0	0	0.15634	0.28659	0.20277	0.041298	0.11986	0.22145	0.24223	0.22392	0.13295	0.21321	0.066059	0.29673	0.23533	0.12341	0.16139	0.14003	-4.5583	-4.2958	-3.8917	-4.9729	-4.0667	-4.4542	-4.8729	-3.8625	-4.7021	-4.1562	-4.1813	-4.9083	-4.2042	-4.6021	-4.825	-3.8542	105.841	173.278	-116.286	178.153	27.635	-105.907	194.993	165.279	-17.879	-1.509	159.646	172.115	171.876	14.076	-89.051	137.902	0.00045026	0.00048037	0.00020565	1293	3.515e-06	4.4e-06	1291.6	343.94	6.0807e-06	8.1913e-06	396.09	133.73	115.65	40.449	9.9626e-07	49.959	0.0005039	0.00050324	0.00014021	1306.5	5.5668e-06	5.5129e-06	1310.5	348.75	5.5661e-06	5.5141e-06	401.82	136.53	118.14	41.278	5.5739e-06	51.456	182.107	-43.008	-33.776	-137.286	-14.701	-40.200	-137.681	-133.082	-22.323	-33.938	-133.294	-129.321	-128.803	-123.867	-27.589	-124.657	-8191	255	
895.171	1	1	0	0	0.13216	0.10653	0.19357	0.1405	0.066679	0.18292	0.16654	0.1227	0.23099	0.13841	0.3249	0.13965	0.11399	0.26289	0.23178	0.1156	-4.3854	-4.2896	-3.9583	-4.9812	-3.9646	-4.4812	-5.0083	-3.9729	-4.6021	-4.4958	-3.9354	-4.9104	-4.1604	-4.3146	-4.7146	-3.9833	-115.489	182.488	46.706	-106.272	142.808	-101.034	174.254	-30.968	-48.384	181.704	99.020	87.445	-63.052	202.740	18.074	175.922	0.00040933	0.00065237	0.00015633	1296.7	2.6736e-06	5.8234e-06	1293.9	344.41	3.1631e-06	6.4936e-06	396.06	134.03	115.91	40.343	4.7199e-06	50.143	0.00050706	0.00049936	0.00013967	1308.7	5.5404e-06	5.5715e-06	1312.6	349.2	5.6032e-06	5.4546e-06	402.38	136.77	118.42	41.277	5.578e-06	51.362	178.957	-59.424	-36.807	-137.251	-45.921	20.034	-137.481	-132.816	-20.622	55.498	-133.164	-129.434	-129.009	-123.803	25.693	-124.569	-8191	255	
895.267	1	1	0	0	0.16487	0.20496	0.25669	0.27076	0.07995	0.15114	0.31711	0.10168	0.13029	0.25623	0.16154	0.061159	0.16824	0.096288	0.19391	0.089159	-4.2854	-4.5125	-3.9167	-4.6792	-4.1958	-4.2021	-5.0958	-4.0875	-4.2917	-4.6021	-3.8958	-4.9563	-4.2875	-4.1021	-4.8229	-4.0229	156.769	-25.879	-3.323	-129.632	-130.907	186.731	142.169	183.028	-140.026	102.250	171.426	-4.231	-137.127	142.293	157.289	142.550	0.00048627	0.00048368	0.0001986	1296	4.4348e-06	3.9617e-06	1286.9	344.29	2.3434e-06	4.548e-06	395.1	133.32	115.6	40.314	3.3702e-06	50.076	0.00049982	0.0004929	0.00014259	1308.4	5.4863e-06	5.5415e-06	1307.4	348.72	5.5629e-06	5.4553e-06	400.9	136.33	118.19	41.259	5.6145e-06	51.451	182.405	-54.397	-82.920	-137.379	-2.437	9.488	-137.596	-132.799	-43.612	49.673	-133.368	-129.271	-128.819	-123.714	-4.069	-124.284	-8191	255	
895.363	1	1	0	0	0.10088	0.074297	0.11716	0.089855	0.02165	0.2208	0.056928	0.12123	0.10606	0.10068	0.28938	0.24391	0.050643	0.23941	0.070879	0.11559	-4.1458	-4.7042	-3.8333	-4.8958	-4.1937	-4.2521	-5.0542	-4.1438	-4.3292	-4.675	-3.8875	-4.8938	-4.4417	-4.0625	-4.825	-4.1042	180.947	90.653	-86.298	-84.243	-105.995	-138.517	171.423	183.900	94.351	83.631	204.542	201.266	-73.160	-113.642	-107.573	109.796	0.00050204	0.00071606	0.00010384	1299.2	5.1347e-06	3.7294e-06	1293.4	343.95	2.9416e-06	1.1377e-06	396.21	134.11	116.48	40.436	2.3151e-06	50.263	0.0005124	0.00051492	0.00014325	1311.5	5.5671e-06	5.547e-06	1314.7	348.96	5.5495e-06	5.3962e-06	402.22	136.79	118.38	41.279	5.4856e-06	51.432	178.610	-76.171	-50.062	-137.487	10.544	42.425	-137.603	-132.752	-71.743	13.386	-133.204	-129.389	-128.977	-123.724	49.348	-124.386	-8191	255	
895.458	1	1	0	0	0.13573	0.12164	0.073204	0.15655	0.18121	0.15052	0.46735	0.022542	0.20252	0.15127	0.14155	0.10418	0.058912	0.097284	0.054208	0.31876	-3.9146	-4.6333	-3.9271	-4.6583	-4.3771	-3.9896	-4.9792	-4.2229	-4.2625	-4.6521	-4.0417	-4.5396	-4.6208	-3.7812	-4.8438	-4.175	-85.456	197.995	184.907	109.264	168.356	-43.901	139.365	91.701	200.354	-54.619	-48.841	181.004	22.188	25.914	-115.972	182.465	0.00047512	0.00079102	0.00016995	1300.5	5.6233e-06	2.4718e-06	1294	343.14	3.8465e-06	3.8425e-06	396.03	133.61	115.49	40.395	3.1289e-06	50.084	0.00049424	0.00049815	0.00013729	1309.4	5.4076e-06	5.5221e-06	1311.2	348.07	5.6674e-06	5.6492e-06	401.71	136.62	118.32	41.285	5.8024e-06	51.429	183.963	-88.942	-86.421	-137.458	-42.255	-12.876	-137.646	-132.934	-12.261	-22.345	-133.040	-129.424	-128.488	-123.940	19.342	-124.384	-8191	255	
895.554	1	1	0	0	0.22469	0.10949	0.28955	0.18059	0.33192	0.14452	0.29204	0.19699	0.18982	0.06712	0.19925	0.16576	0.077364	0.085044	0.18863	0.10326	-3.7792	-4.7188	-3.9729	-4.6	-4.3104	-3.9667	-4.8604	-4.2229	-3.9896	-4.8354	-4.1667	-4.4479	-4.5771	-3.8771	-4.7396	-4.4229	-143.973	24.674	-44.111	181.992	2.571	-82.446	-150.125	41.758	-95.159	166.132	180.124	142.858	105.844	-106.209	-48.240	-57.580	0.00045438	0.00064894	0.00013283	1300	3.9141e-06	6.31e-06	1294.3	344.37	2.7993e-06	4.0172e-06	397.22	133.68	115.77	40.655	5.0921e-06	50.234	0.00052849	0.00051717	0.00014536	1311.2	5.6123e-06	5.6874e-06	1314.3	349.44	5.6511e-06	5.5369e-06	402.45	136.79	118.34	41.441	5.6454e-06	51.458	176.408	-55.289	-27.095	-137.363	-22.706	-8.708	-137.589	-133.064	-5.734	-30.836	-133.363	-129.319	-128.909	-123.659	-41.369	-124.505	-8191	255	
895.650	1	1	0	0	0.064173	0.042444	0.23928	0.1641	0.098783	0.38126	0.15566	0.094458	0.19259	0.17685	0.12061	0.13727	0.11459	0.13883	0.12868	0.22279	-3.4188	-4.8438	-3.9833	-4.4938	-4.6188	-4.0542	-4.8625	-4.6188	-3.7938	-4.8229	-3.9708	-4.3354	-5.0062	-3.8812	-4.5917	-4.4458	-20.686	105.313	-121.900	-141.127	178.243	-133.525	108.317	-135.926	-24.638	43.866	105.716	-141.528	-146.310	157.283	-7.527	199.711	0.00044649	0.000481	0.00016472	1301.8	3.8468e-06	5.2035e-06	1300.5	344.32	6.0308e-06	8.9497e-07	397.01	133.74	115.87	40.426	3.699e-06	49.917	0.00052048	0.00052708	0.00014787	1312.7	5.9801e-06	6.0975e-06	1319.2	350.03	6.1711e-06	6.135e-06	404.12	136.91	118.67	41.425	5.9313e-06	51.568	183.033	-54.078	-111.538	-137.247	-48.168	13.978	-137.725	-132.689	-50.975	-40.632	-133.045	-129.633	-129.028	-123.789	-7.408	-124.388	-8191	255	
895.746	1	1	0	0	0.029035	0.28936	0.056998	0.16521	0.10731	0.11071	0.053079	0.16147	0.029451	0.21376	0.2136	0.051607	0.15659	0.092619	0.25324	0.11201	-3.7333	-4.6062	-4.1458	-4.1833	-4.6667	-3.725	-4.6375	-4.8229	-3.7708	-4.9542	-4.1854	-4.2646	-4.9271	-4.0292	-4.5271	-4.6354	134.656	189.282	88.323	165.749	175.463	-43.334	194.818	144.938	-22.300	16.899	139.064	78.011	-130.916	-120.270	35.978	203.835	0.00045877	0.00094937	8.1838e-05	1302.7	3.183e-06	1.0409e-06	1299.8	345.55	4.8452e-06	4.7772e-06	396.36	133.68	116.47	40.439	1.2042e-06	50.11	0.00053625	0.00052814	0.00014472	1314.8	5.6902e-06	5.7439e-06	1318.3	350.39	5.8365e-06	5.7127e-06	402.7	136.72	118.79	41.347	5.7962e-06	51.548	180.833	-62.737	-70.574	-137.288	-40.258	-34.753	-137.641	-132.761	-41.514	-19.138	-133.281	-129.349	-128.485	-123.769	-49.154	-124.590	-8191	255	
895.867	1	1	0	0	0.18687	0.14693	0.39757	0.060787	0.12282	0.073237	0.24148	0.25051	0.025636	0.36696	0.2201	0.18522	0.093592	0.10438	0.18217	0.18961	-3.5917	-4.7896	-4.0729	-4.2396	-4.6937	-3.8521	-4.7083	-4.8187	-3.7687	-4.8125	-4.4792	-4.0292	-5.0208	-3.8854	-4.5062	-4.675	-58.303	-109.201	-132.438	148.229	-74.705	-42.419	101.655	115.656	-143.941	106.752	173.718	17.495	208.795	-110.366	-84.553	137.507	0.00053063	0.00050972	0.00020139	1302.1	8.5679e-06	3.7228e-06	1301.3	344.93	2.0786e-06	6.1398e-06	397.47	134.23	116.08	40.411	4.0757e-06	50.161	0.00052698	0.00052541	0.00014612	1312.9	5.6948e-06	5.7008e-06	1318.1	350.25	5.7555e-06	5.5571e-06	402.68	136.94	118.55	41.287	5.4956e-06	51.418	180.508	-96.628	-89.806	-137.371	-6.788	-26.673	-137.622	-132.904	-19.909	-54.408	-133.296	-129.406	-128.813	-123.695	-20.209	-124.178	-8191	255	
895.963	1	1	0	0	0.089321	0.30472	0.13136	0.18029	0.10148	0.12339	0.25278	0.11262	0.16196	0.16198	0.21879	0.090856	0.15433	0.14749	0.060312	0.14852	-3.4917	-4.5271	-4.2792	-4.0687	-4.6646	-4.0875	-4.3833	-4.8896	-3.7104	-4.775	-4.6417	-4.1062	-4.875	-4.1292	-4.3021	-4.8729	201.180	-123.081	104.316	142.763	-11.574	81.805	148.934	185.508	75.690	165.928	-144.388	130.877	194.986	29.600	162.177	123.590	0.00049497	0.00062151	0.00013565	1295.3	3.3859e-06	6.9648e-06	1294.6	345.07	3.5884e-06	4.8117e-06	395.32	133.97	115.64	40.521	3.295e-06	50.071	0.00049748	0.00048525	0.00013383	1308.5	5.3315e-06	5.3124e-06	1312.9	349.42	5.5479e-06	5.462e-06	401.96	136.49	118.23	41.31	5.6175e-06	51.495	178.596	-59.214	-41.170	-137.463	-4.521	28.931	-137.522	-132.799	-12.437	-19.111	-133.078	-129.682	-128.679	-123.697	-2.548	-124.274	-8191	255	
#DATA ENDS
