BOXY.EXE: ISS Imagent and Oximeter Data Acquisition Program Version 0.80
Ascii Record File

#ACQ INFORMATION
2  Detector Channels 
16  External MUX Channels 
1  Auxiliary Channels 
5000  Waveform (CCF) Frequency (Hz)
1  Waveforms Skipped 
30  Waveforms Averaged 
1  Cycles Averaged 
16  Acquisitions per Waveform 
10.0806  Updata Rate (Hz) 

#FILE INFORMATION
TRUE -- External MUX Channel results are PARSED.
FALSE -- AC DC and Phase are NOT grouped.
TRUE -- Companion Program Settings File CREATED.
FALSE -- AC data not excluded
FALSE -- DC data not excluded
FALSE -- Phase data not excluded
FALSE -- Auxillary Chn. data not excluded
Tab delimiters

#CALIBRATION STATE
TRUE -- Waveform Calibration Values APPLIED.


#AUX CALIBRATION VALUES
Val Type	aux-1	

Term	1.0000e+00	
Factor	0.0000e+00	


#WF CALIBRATION VALUES
A = Detector Channel
Val Type	A-AC1	A-AC2	A-AC3	A-AC4	A-AC5	A-AC6	A-AC7	A-AC8	A-AC9	A-AC10	A-AC11	A-AC12	A-AC13	A-AC14	A-AC15	A-AC16	A-DC1	A-DC2	A-DC3	A-DC4	A-DC5	A-DC6	A-DC7	A-DC8	A-DC9	A-DC10	A-DC11	A-DC12	A-DC13	A-DC14	A-DC15	A-DC16	A-Ph1	A-Ph2	A-Ph3	A-Ph4	A-Ph5	A-Ph6	A-Ph7	A-Ph8	A-Ph9	A-Ph10	A-Ph11	A-Ph12	A-Ph13	A-Ph14	A-Ph15	A-Ph16	

Term	0.00000e+00	0.00000e+00	0.00000e+00	0.00000e+00	0.00000e+00	0.00000e+00	0.00000e+00	0.00000e+00	0.00000e+00	0.00000e+00	0.00000e+00	0.00000e+00	0.00000e+00	0.00000e+00	0.00000e+00	0.00000e+00	0.00000e+00	0.00000e+00	0.00000e+00	0.00000e+00	0.00000e+00	0.00000e+00	0.00000e+00	0.00000e+00	0.00000e+00	0.00000e+00	0.00000e+00	0.00000e+00	0.00000e+00	0.00000e+00	0.00000e+00	0.00000e+00	0.00000e+00	0.00000e+00	0.00000e+00	0.00000e+00	0.00000e+00	0.00000e+00	0.00000e+00	0.00000e+00	0.00000e+00	0.00000e+00	0.00000e+00	0.00000e+00	0.00000e+00	0.00000e+00	0.00000e+00	0.00000e+00	
Factor	1.00000e+00	1.00000e+00	1.00000e+00	1.00000e+00	1.00000e+00	1.00000e+00	1.00000e+00	1.00000e+00	1.00000e+00	1.00000e+00	1.00000e+00	1.00000e+00	1.00000e+00	1.00000e+00	1.00000e+00	1.00000e+00	1.00000e+00	1.00000e+00	1.00000e+00	1.00000e+00	1.00000e+00	1.00000e+00	1.00000e+00	1.00000e+00	1.00000e+00	1.00000e+00	1.00000e+00	1.00000e+00	1.00000e+00	1.00000e+00	1.00000e+00	1.00000e+00	X	X	X	X	X	X	X	X	X	X	X	X	X	X	X	X	

B = Detector Channel
Val Type	B-AC1	B-AC2	B-AC3	B-AC4	B-AC5	B-AC6	B-AC7	B-AC8	B-AC9	B-AC10	B-AC11	B-AC12	B-AC13	B-AC14	B-AC15	B-AC16	B-DC1	B-DC2	B-DC3	B-DC4	B-DC5	B-DC6	B-DC7	B-DC8	B-DC9	B-DC10	B-DC11	B-DC12	B-DC13	B-DC14	B-DC15	B-DC16	B-Ph1	B-Ph2	B-Ph3	B-Ph4	B-Ph5	B-Ph6	B-Ph7	B-Ph8	B-Ph9	B-Ph10	B-Ph11	B-Ph12	B-Ph13	B-Ph14	B-Ph15	B-Ph16	

Term	0.00000e+00	0.00000e+00	0.00000e+00	0.00000e+00	0.00000e+00	0.00000e+00	0.00000e+00	0.00000e+00	0.00000e+00	0.00000e+00	0.00000e+00	0.00000e+00	0.00000e+00	0.00000e+00	0.00000e+00	0.00000e+00	0.00000e+00	0.00000e+00	0.00000e+00	0.00000e+00	0.00000e+00	0.00000e+00	0.00000e+00	0.00000e+00	0.00000e+00	0.00000e+00	0.00000e+00	0.00000e+00	0.00000e+00	0.00000e+00	0.00000e+00	0.00000e+00	-1.50286e+02	-1.28179e+02	-1.21349e+02	-1.82838e+02	-7.38202e+01	-6.86517e+01	-1.55822e+02	-1.62015e+02	-7.29113e+01	-6.79823e+01	-1.70826e+02	-1.70724e+02	-1.80370e+02	-1.76266e+02	-6.49426e+01	-1.48473e+02	
Factor	2.23038e-05	1.70172e-04	3.80664e-05	2.18512e-01	1.33480e-06	1.47544e-06	1.70849e-01	6.06101e-02	1.17230e-06	1.44139e-06	8.98913e-02	2.97864e-02	2.76328e-02	9.32721e-03	1.30128e-06	1.34466e-02	3.00195e-06	3.32187e-06	9.25624e-07	1.11221e-01	3.61816e-08	3.65802e-08	8.21001e-02	3.10359e-02	3.62532e-08	3.66873e-08	4.44963e-02	1.48016e-02	1.42663e-02	4.80361e-03	3.65987e-08	6.70235e-03	X	X	X	X	X	X	X	X	X	X	X	X	X	X	X	X	



#DISTANCE SETTINGS
A = Detector Channel
A-1	A-2	A-3	A-4	A-5	A-6	A-7	A-8	A-9	A-10	A-11	A-12	A-13	A-14	A-15	A-16	

2.5000e+00	3.0000e+00	2.5000e+00	3.0000e+00	2.0000e+00	3.0000e+00	1.5000e+00	3.0000e+00	3.0000e+00	3.0000e+00	3.0000e+00	3.0000e+00	3.0000e+00	3.0000e+00	1.5000e+00	3.0000e+00	

B = Detector Channel
B-1	B-2	B-3	B-4	B-5	B-6	B-7	B-8	B-9	B-10	B-11	B-12	B-13	B-14	B-15	B-16	

1.0000e+01	1.0000e+01	1.0000e+01	1.4400e+00	1.0000e+01	1.0000e+01	1.5100e+00	1.9400e+00	1.0000e+01	1.0000e+01	1.9900e+00	2.4900e+00	2.4100e+00	2.9000e+00	1.0000e+01	2.9800e+00	




#DATA BEGINS
time	group	step	mark	flag	A-AC1	A-AC2	A-AC3	A-AC4	A-AC5	A-AC6	A-AC7	A-AC8	A-AC9	A-AC10	A-AC11	A-AC12	A-AC13	A-AC14	A-AC15	A-AC16	A-DC1	A-DC2	A-DC3	A-DC4	A-DC5	A-DC6	A-DC7	A-DC8	A-DC9	A-DC10	A-DC11	A-DC12	A-DC13	A-DC14	A-DC15	A-DC16	A-Ph1	A-Ph2	A-Ph3	A-Ph4	A-Ph5	A-Ph6	A-Ph7	A-Ph8	A-Ph9	A-Ph10	A-Ph11	A-Ph12	A-Ph13	A-Ph14	A-Ph15	A-Ph16	B-AC1	B-AC2	B-AC3	B-AC4	B-AC5	B-AC6	B-AC7	B-AC8	B-AC9	B-AC10	B-AC11	B-AC12	B-AC13	B-AC14	B-AC15	B-AC16	B-DC1	B-DC2	B-DC3	B-DC4	B-DC5	B-DC6	B-DC7	B-DC8	B-DC9	B-DC10	B-DC11	B-DC12	B-DC13	B-DC14	B-DC15	B-DC16	B-Ph1	B-Ph2	B-Ph3	B-Ph4	B-Ph5	B-Ph6	B-Ph7	B-Ph8	B-Ph9	B-Ph10	B-Ph11	B-Ph12	B-Ph13	B-Ph14	B-Ph15	B-Ph16	aux-1	digaux	

862.903	1	1	0	256	0.1586	0.1665	0.013078	0.098458	0.075203	0.13178	0.12448	0.21969	0.1983	0.12712	0.1282	0.18657	0.18939	0.23452	0.16846	0.14353	-4.5271	-4.2083	-4.0458	-5.1229	-3.7854	-4.7229	-4.7729	-3.9958	-4.7937	-4.2375	-4.2792	-4.7542	-3.9458	-4.6438	-4.6292	-3.9	-11.415	-131.784	103.285	194.108	-5.872	-60.173	110.395	190.786	-123.709	108.318	36.872	-121.704	-140.105	187.131	-90.760	74.807	0.0002194	0.00059481	5.9488e-05	1071.6	2.1918e-06	2.6651e-06	1159.7	216.53	1.5881e-06	6.94e-06	276.65	78.937	61.07	18.285	1.8515e-06	25.56	0.0006825	0.00071029	0.00020146	1062.4	7.6685e-06	7.6394e-06	1154.8	218.12	7.2626e-06	7.0451e-06	278.6	80.217	62.592	18.879	6.4052e-06	26.529	192.296	-107.819	-60.530	-135.163	-3.098	-7.297	-135.167	-128.147	45.270	51.137	-128.115	-121.720	-121.191	-113.250	-94.261	-114.401	-8191	255	
863.024	1	1	0	0	0.15487	0.18561	0.22955	0.23454	0.15712	0.18359	0.28404	0.091906	0.075722	0.07316	0.20023	0.08839	0.12958	0.20541	0.096651	0.20059	-4.7104	-4.15	-4	-4.825	-3.9771	-4.3688	-4.7896	-3.9396	-4.8729	-4.3875	-4.1	-4.9938	-3.9437	-4.2458	-4.6146	-3.9354	-5.515	-91.985	-3.356	163.434	202.430	109.829	140.188	171.077	49.812	-46.276	144.731	-134.399	119.208	52.157	186.957	67.110	0.00024036	0.00043048	0.00011459	1071.1	2.3626e-06	4.9713e-06	1157.4	216.13	4.322e-06	2.3722e-06	272.63	77.251	60.032	17.969	5.2976e-06	24.637	0.00052737	0.00055476	0.00015445	1055.7	5.9087e-06	5.9376e-06	1145	216.18	5.4686e-06	5.1591e-06	272.9	78.093	60.815	18.301	4.309e-06	25.394	185.392	-108.154	-49.308	-135.411	18.973	20.247	-135.241	-128.139	-75.564	-107.175	-127.872	-121.446	-121.234	-113.846	25.356	-114.342	-8191	255	
863.095	1	1	0	0	0.14884	0.17398	0.12565	0.15596	0.078394	0.2384	0.34986	0.12499	0.15194	0.14973	0.11999	0.11285	0.082259	0.26536	0.13705	0.1307	-4.4667	-4.6042	-3.9896	-4.925	-3.9333	-4.3875	-4.9062	-3.9854	-4.5667	-4.3875	-4.0208	-4.8167	-4.0604	-4.2396	-4.9	-3.9813	131.264	-63.290	-100.181	140.501	196.678	75.666	172.980	85.828	55.269	-0.418	24.184	-18.712	-73.741	138.517	74.436	94.023	0.00020935	0.00017043	4.4612e-05	1030.9	1.6863e-06	2.6635e-06	1117.7	210.51	1.4509e-06	2.3993e-06	265.22	76.471	59.036	17.695	4.1102e-06	24.674	0.0003697	0.00037925	0.00010709	1011.9	4.19e-06	4.26e-06	1105.6	209.5	4.5259e-06	4.618e-06	265.73	77.287	60.13	18.148	5.3304e-06	25.507	195.279	45.592	46.452	-134.952	-47.142	-27.960	-135.287	-127.738	12.834	49.590	-128.072	-121.578	-121.365	-113.399	3.927	-113.949	-8191	255	
863.191	1	1	0	0	0.13907	0.10772	0.06893	0.14834	0.21648	0.036677	0.11367	0.091931	0.34917	0.14816	0.15655	0.059414	0.15239	0.25004	0.043112	0.092837	-4.2708	-4.5458	-4.0687	-4.8979	-4.1833	-4.1438	-4.9896	-4.0083	-4.4479	-4.5646	-3.8333	-4.8771	-4.3521	-4.1646	-4.85	-3.9854	154.847	13.753	-59.092	197.708	204.570	99.741	103.413	37.510	-141.602	10.792	100.420	182.675	129.332	-25.879	151.365	100.345	0.00020067	0.0004578	8.8376e-05	1046.2	1.3629e-06	9.7052e-07	1140.8	214.95	1.769e-06	1.0803e-06	271.03	77.533	59.784	17.851	1.4193e-06	24.839	0.00048558	0.00052982	0.00015621	1034	6.0763e-06	6.0795e-06	1128.2	214.2	5.4659e-06	5.1524e-06	270.92	78.296	60.839	18.255	4.4509e-06	25.42	192.160	-16.763	-3.776	-135.422	161.155	-27.795	-135.180	-127.968	-28.607	62.576	-127.859	-121.923	-121.156	-113.334	54.545	-114.313	-8191	255	
863.312	1	1	0	0	0.083559	0.24474	0.039568	0.25248	0.049089	0.32	0.23659	0.090893	0.21693	0.15161	0.14427	0.076162	0.084107	0.21391	0.17404	0.12666	-4.1104	-4.4667	-3.7875	-4.8021	-4.2667	-3.9604	-4.9646	-4.0062	-4.4	-4.5729	-3.95	-4.7292	-4.4354	-4.0542	-4.7521	-4.1687	-75.112	82.898	84.003	99.876	-113.777	21.903	189.213	-60.753	179.792	177.546	141.865	-34.225	-98.166	-131.263	-52.019	-109.438	0.00025645	0.00016124	8.3478e-05	1048.9	3.7147e-06	5.6113e-06	1136.6	212.01	2.0768e-06	1.928e-06	270.76	76.411	59.306	17.94	1.9018e-06	24.818	0.00037606	0.00037401	0.00010599	1026.6	4.0141e-06	3.9584e-06	1120	211.11	3.8993e-06	3.8551e-06	268.26	77.539	60.326	18.244	4.4373e-06	25.627	184.082	-20.388	-29.485	-135.044	45.037	57.759	-135.229	-127.490	11.509	66.087	-128.043	-121.837	-120.980	-113.812	-87.180	-114.108	-8191	255	
863.406	1	1	0	0	0.12369	0.075785	0.046783	0.20195	0.10049	0.11421	0.055336	0.2279	0.14849	0.11895	0.15892	0.13616	0.2102	0.251	0.07376	0.161	-4.0917	-4.7063	-3.8458	-4.8562	-4.4667	-3.8625	-5.0208	-4.3208	-4.2937	-4.8083	-3.95	-4.6083	-4.5583	-3.9792	-4.8354	-4.2625	-9.249	-109.305	-35.352	209.573	-78.735	211.168	134.197	114.171	-142.061	48.003	-19.818	102.992	105.725	-98.002	177.855	-124.545	0.0002074	0.00068029	0.00012246	1045.3	2.7144e-06	4.9189e-06	1137.5	212.8	5.3773e-06	5.231e-06	271.06	77.414	59.848	18.274	5.3003e-06	25.247	0.000397	0.00041908	0.00011709	1025.7	4.5564e-06	4.6269e-06	1122.8	212.27	4.5523e-06	4.5772e-06	270.3	78.078	60.719	18.538	4.2344e-06	25.911	168.794	195.047	-51.611	-135.286	152.537	-7.313	-135.178	-127.555	-74.871	-3.773	-128.317	-121.891	-121.539	-113.193	-55.911	-113.973	-8191	255	
863.504	1	1	0	0	0.19361	0.097392	0.34403	0.053452	0.068627	0.25793	0.090653	0.22891	0.057776	0.2418	0.18275	0.09469	0.064446	0.075971	0.11048	0.097631	-3.9625	-4.8521	-3.9354	-4.7792	-4.6042	-3.9979	-4.9104	-4.3271	-4.0896	-4.7771	-4.1208	-4.3479	-4.7604	-3.7792	-4.8146	-4.3667	100.145	-105.535	157.062	-18.996	-138.865	-7.456	-145.063	130.699	-58.012	37.343	-102.527	3.729	-128.689	-101.815	-84.908	133.385	0.00024736	0.0003242	3.8598e-05	1024.6	2.0937e-06	4.8215e-06	1112.5	209.48	3.6744e-06	3.9226e-06	267.17	76.243	59.167	17.931	1.678e-06	25.034	0.0003626	0.00036392	9.7457e-05	1009	3.8316e-06	3.8601e-06	1098.4	208.15	3.9043e-06	3.7983e-06	265.43	76.625	59.711	18.29	3.7569e-06	25.674	187.145	-80.793	-108.952	-135.189	82.587	74.540	-135.123	-127.927	-36.584	-80.258	-127.643	-121.441	-120.711	-113.304	-134.014	-113.741	-8191	255	
863.623	1	1	0	0	0.21773	0.22762	0.097781	0.2712	0.15807	0.094623	0.25312	0.21364	0.19819	0.15365	0.08528	0.13533	0.20917	0.079196	0.28198	0.17216	-3.625	-4.6958	-4.1771	-4.3625	-4.7958	-3.7708	-4.8958	-4.6375	-4.0521	-4.8896	-3.9208	-4.2042	-4.825	-3.9708	-4.7542	-4.3917	-132.959	-12.431	13.589	212.572	130.151	-53.501	116.606	-54.135	-13.045	60.373	-72.623	16.172	-53.080	3.759	103.400	85.943	0.00020114	0.0003207	0.00012511	1025.7	2.1896e-06	3.6738e-06	1121.6	211.65	3.6603e-06	2.1125e-06	267.8	76.545	59.842	18.113	2.3105e-06	25.216	0.00033356	0.00033933	9.5353e-05	1006.4	3.6408e-06	3.6731e-06	1100.9	209.18	3.4462e-06	3.2779e-06	265.35	76.751	59.967	18.312	2.7429e-06	25.628	196.673	-62.732	-91.974	-134.872	-9.958	4.568	-135.300	-127.660	-24.915	4.086	-127.530	-121.786	-120.871	-113.517	48.589	-114.360	-8191	255	
863.719	1	1	0	0	0.20805	0.041419	0.085324	0.16642	0.12208	0.056957	0.055542	0.091012	0.034284	0.096351	0.087443	0.24218	0.10334	0.03631	0.027249	0.049951	-3.8646	-4.7875	-4.2042	-4.1687	-4.7521	-3.8479	-4.7875	-4.6208	-3.8438	-4.8688	-4.1583	-4.1604	-4.675	-4.0146	-4.3333	-4.5771	-80.552	124.743	-125.038	188.695	-72.606	108.736	25.386	-16.696	-54.526	29.894	156.931	145.193	160.472	83.662	29.732	-126.652	0.00015516	0.00037475	1.0506e-05	1031	2.5625e-06	2.9047e-06	1121.6	209.9	4.1672e-06	9.2207e-07	269.46	77.329	59.563	18.2	7.4049e-07	25.203	0.00024032	0.00023758	6.2964e-05	1007.8	2.4068e-06	2.337e-06	1101.1	207.11	2.288e-06	2.0956e-06	264.84	77.006	59.333	18.206	2.0428e-06	25.49	162.068	-74.068	-8.425	-135.371	26.786	-5.362	-135.448	-127.593	-24.335	116.843	-127.668	-121.885	-121.091	-113.357	-54.505	-113.397	-8191	255	
863.791	1	1	0	0	0.080936	0.1535	0.1131	0.21951	0.14982	0.14722	0.13249	0.1828	0.11912	0.058185	0.061458	0.092791	0.049735	0.14318	0.21778	0.14523	-3.55	-4.7458	-4.175	-4.0188	-4.7354	-3.9188	-4.4979	-4.7375	-3.7	-4.8583	-4.3438	-4.2083	-4.925	-3.8958	-4.525	-4.6312	-11.066	-141.451	79.399	199.296	51.909	-5.891	212.353	-128.616	165.746	199.237	186.152	151.131	117.696	0.287	13.074	138.827	0.00022086	0.00036968	4.0757e-05	1015.3	2.3138e-06	1.8617e-06	1100.6	208.02	1.7367e-06	1.3334e-06	266.21	75.83	59.254	17.991	4.684e-06	24.865	0.00019393	0.0001802	5.2489e-05	989.52	2.032e-06	2.0984e-06	1083	204.83	2.1175e-06	1.949e-06	262.68	76.043	59.022	17.992	1.8902e-06	25.167	183.724	-76.286	-74.479	-135.277	1.674	74.267	-134.975	-127.334	-62.411	38.986	-127.538	-121.794	-120.938	-113.317	27.501	-113.742	-8191	255	
863.912	1	1	0	0	0.012443	0.3015	0.25045	0.26436	0.108	0.2461	0.1735	0.13988	0.18047	0.19048	0.049778	0.063132	0.06074	0.14377	0.0603	0.23002	-3.8167	-4.6354	-4.4938	-3.975	-4.7063	-3.9708	-4.5792	-4.7083	-3.7458	-4.5375	-4.5167	-4.0021	-4.6937	-4.2042	-4.3229	-4.7771	120.853	-56.671	90.124	169.298	39.262	206.259	169.743	75.556	130.114	200.452	105.069	91.578	-141.323	176.063	189.328	134.297	0.00019262	0.00040366	4.3435e-05	1004.1	2.0868e-06	1.5444e-06	1086.8	205.32	9.7124e-07	3.0555e-06	262.85	75.007	58.421	17.804	2.3584e-06	24.956	0.00017909	0.00016329	4.5562e-05	978.72	1.8138e-06	1.8343e-06	1070.1	202.74	1.9639e-06	1.8737e-06	259.18	75.191	58.136	17.817	1.9923e-06	25.014	179.112	-14.018	-52.006	-135.300	-55.227	7.928	-135.116	-127.921	-89.688	27.898	-127.931	-121.616	-121.136	-112.997	-50.661	-113.612	-8191	255	
864.008	1	1	0	0	0.087862	0.18579	0.10269	0.045503	0.13437	0.051046	0.24602	0.10625	0.16784	0.045128	0.095741	0.081559	0.078616	0.25803	0.21861	0.22936	-3.5854	-4.6208	-4.4771	-4.0979	-4.6854	-4.1625	-4.3521	-4.8729	-3.9771	-4.4563	-4.6583	-3.9271	-4.8	-4.1646	-4.0854	-4.9479	-58.573	-71.975	107.443	211.613	-47.005	-82.601	-25.701	179.635	-86.344	183.491	161.835	106.052	188.282	151.993	-139.949	193.704	0.00018497	0.00045942	7.014e-05	999.59	2.8187e-06	1.3209e-06	1082.4	205.81	1.2181e-06	3.2603e-06	262.85	74.943	58.397	17.707	2.3719e-06	24.933	0.00018807	0.00017319	5.0952e-05	972.77	1.9351e-06	1.8842e-06	1065.6	201.91	1.9296e-06	1.8905e-06	259.55	75.077	58.209	17.769	1.8997e-06	24.99	187.749	-67.499	-19.821	-134.868	6.380	25.376	-135.155	-127.281	-128.496	2.020	-127.501	-121.389	-120.544	-113.073	-0.999	-113.721	-8191	255	
864.104	1	1	0	0	0.17099	0.10995	0.10897	0.15262	0.18807	0.12784	0.26855	0.18803	0.14813	0.22955	0.1824	0.096317	0.28706	0.1238	0.056274	0.23458	-3.5854	-4.45	-4.3917	-4.0188	-4.6312	-4.3792	-4.2	-4.8688	-3.9854	-4.1542	-4.8646	-3.8146	-4.8396	-4.225	-3.825	-4.8958	-54.558	-66.267	26.466	181.135	37.267	-143.499	173.013	138.033	47.754	158.763	186.261	12.264	-54.544	-78.729	-93.766	-64.259	0.00020323	0.00022558	3.6091e-05	992.95	2.646e-06	4.6224e-06	1085	204.47	2.6732e-06	3.0305e-06	259.56	74.49	57.768	17.487	3.3017e-06	24.766	0.0001707	0.00016832	4.712e-05	967.91	1.8948e-06	1.868e-06	1063.3	200.8	1.9478e-06	1.9702e-06	257.52	74.569	57.75	17.685	2.243e-06	24.909	187.998	-63.889	6.859	-134.727	-49.579	17.177	-135.164	-127.331	-55.045	-15.789	-127.185	-121.745	-121.439	-113.028	-5.082	-113.524	-8191	255	
864.200	1	1	0	0	0.025465	0.22477	0.053146	0.24234	0.23163	0.037893	0.095348	0.17653	0.16247	0.19753	0.11008	0.075613	0.086783	0.022105	0.21951	0.043372	-3.7812	-4.1167	-4.7875	-3.8104	-4.6667	-4.3938	-4.1854	-4.8604	-4.175	-4.1917	-4.975	-3.8771	-4.65	-4.4854	-3.95	-4.7937	-46.510	168.941	37.144	92.350	-140.774	-126.710	171.626	160.500	42.227	-2.908	179.343	-133.542	98.295	-49.377	-111.567	-65.471	0.00019887	0.00033068	4.7954e-05	1000.9	2.7609e-06	2.8079e-06	1087.1	204.8	4.1508e-06	3.3185e-06	262.1	74.795	58.089	17.645	4.6153e-06	24.643	0.00021309	0.00020546	5.8075e-05	973.86	2.359e-06	2.2992e-06	1068.8	202.24	2.296e-06	2.3133e-06	258.94	74.824	57.898	17.695	2.2082e-06	24.813	175.157	-98.109	-38.731	-134.898	-19.646	36.260	-135.050	-127.347	-28.526	26.806	-127.875	-121.425	-120.947	-112.981	5.559	-113.790	-8191	255	
864.319	1	1	0	0	0.24991	0.27385	0.081078	0.094587	0.1872	0.13178	0.12167	0.097172	0.043585	0.11459	0.13405	0.13959	0.027796	0.16391	0.28311	0.045442	-3.9625	-4.0729	-4.6646	-3.9083	-4.6125	-4.5729	-4.0042	-4.7479	-4.1917	-3.9354	-4.8625	-4.0583	-4.5979	-4.5583	-3.8896	-4.7438	81.054	-122.789	-115.917	-24.964	47.991	-40.056	72.921	166.316	124.879	111.060	68.045	214.083	149.429	8.405	114.344	35.334	0.00020273	0.00032224	2.8791e-05	980.87	8.1128e-07	4.2649e-06	1076	202.43	4.0126e-06	2.1583e-06	259.28	74.034	57.696	17.35	1.5228e-06	24.412	0.00021026	0.00020771	5.6941e-05	963.46	2.2808e-06	2.2314e-06	1057.3	200.35	2.2478e-06	2.2496e-06	255.79	74.207	57.462	17.478	2.2637e-06	24.68	182.722	-50.104	-64.049	-134.918	17.505	-9.465	-135.166	-127.270	-67.474	-113.600	-127.616	-121.293	-121.025	-113.111	28.478	-114.053	-8191	255	
864.392	1	1	0	0	0.23857	0.09258	0.14498	0.23405	0.083939	0.21453	0.2043	0.23743	0.067795	0.10303	0.03821	0.28503	0.079855	0.14695	0.15457	0.090287	-4.1458	-3.9813	-4.8271	-4.0917	-4.4563	-4.5563	-4.0437	-4.8042	-4.5125	-4.075	-5.0312	-4.0188	-4.4708	-4.9	-3.8854	-4.75	4.608	-39.566	101.625	-143.595	-43.486	148.775	82.836	-77.255	58.444	144.117	-137.350	-104.386	-104.548	150.441	62.489	47.082	0.00020908	0.00031788	3.1189e-05	986.01	1.6546e-06	2.0985e-06	1069	203.5	8.8755e-07	1.5208e-06	255.02	73.195	57.097	17.363	3.0708e-06	24.317	0.00020111	0.00020636	5.6135e-05	960.95	2.2624e-06	2.2069e-06	1050.2	200.32	2.2228e-06	2.171e-06	253.62	73.419	56.986	17.414	2.2081e-06	24.57	184.955	-103.686	-22.273	-134.765	-90.382	-13.985	-135.044	-127.111	-92.607	140.631	-127.487	-121.291	-121.140	-112.608	13.867	-113.588	-8191	255	
864.489	1	1	0	0	0.19121	0.044835	0.078818	0.10327	0.11203	0.029705	0.057189	0.15542	0.37789	0.12672	0.17389	0.14138	0.12399	0.020625	0.30154	0.13045	-4.1625	-3.9354	-4.9125	-4.0979	-4.2271	-4.5229	-4.1833	-4.6625	-4.4667	-4.0958	-4.8604	-4.2979	-4.1833	-4.6625	-3.8521	-4.5729	-143.440	-130.363	-115.845	101.329	165.606	163.082	-100.659	108.536	151.124	43.654	-55.848	137.488	199.944	59.211	-29.149	-21.431	0.00019726	0.000284	5.728e-05	975.34	3.4107e-06	3.718e-06	1059.9	201.65	8.9743e-07	2.7736e-06	256.05	72.867	57.112	17.409	2.7658e-06	24.373	0.00020635	0.00020841	5.6203e-05	953.57	2.3676e-06	2.2937e-06	1045.1	199.54	2.3356e-06	2.3238e-06	252.82	73.322	56.997	17.44	2.272e-06	24.549	185.350	-95.367	-35.967	-134.889	-41.774	-39.904	-134.923	-127.269	-104.308	9.194	-127.523	-121.349	-121.136	-112.651	7.938	-113.501	-8191	255	
864.585	1	1	0	0	0.083799	0.22856	0.10287	0.17914	0.28932	0.06268	0.40673	0.34313	0.24676	0.23522	0.13973	0.26279	0.15845	0.23619	0.1176	0.1849	-4.3125	-3.8312	-4.7875	-4.4229	-4.0687	-4.6687	-4.075	-4.4833	-4.6208	-3.9938	-4.9271	-4.3	-4.0667	-4.9854	-3.9979	-4.4875	7.672	-125.936	-124.297	-24.897	-114.303	-72.925	169.033	-76.798	17.587	18.810	-79.681	149.864	-127.642	23.610	3.145	148.613	0.00019116	0.00025219	0.00010122	976.62	2.6423e-06	2.9557e-06	1056.7	200.66	6.8295e-07	1.1791e-06	254.32	73.334	56.805	17.194	1.9019e-06	24.071	0.00020294	0.00020355	5.4024e-05	951.37	2.2243e-06	2.0537e-06	1040.7	198.77	2.0821e-06	2.0886e-06	251.58	73.151	56.734	17.283	2.0206e-06	24.403	178.054	-88.112	1.749	-134.622	-19.754	-24.209	-135.093	-127.343	-131.735	12.896	-127.565	-121.392	-121.119	-113.293	24.983	-113.629	-8191	255	
864.704	1	1	0	0	0.13712	0.36265	0.14309	0.10135	0.18137	0.23666	0.31769	0.29137	0.17322	0.15041	0.10559	0.068717	0.26023	0.15708	0.013417	0.37544	-4.5	-4.0417	-4.7271	-4.4958	-3.9479	-4.8646	-4.2667	-4.5479	-4.7667	-3.9896	-4.7458	-4.6646	-3.9729	-4.9479	-4.0521	-4.3271	-8.289	172.646	-42.595	-144.025	165.034	-64.994	98.206	126.616	-72.952	-25.402	-103.171	-51.810	83.935	-23.133	-122.155	190.061	0.00021337	0.0002786	0.00013219	963.42	3.6747e-06	4.5779e-06	1056.9	200.55	3.1381e-06	3.3623e-06	254.41	72.995	56.485	17.235	2.0682e-06	24.05	0.00018424	0.00018465	5.17e-05	943.95	2.1279e-06	2.0998e-06	1035.4	198.3	2.3037e-06	2.3286e-06	251.54	73.108	56.616	17.382	2.5904e-06	24.511	185.275	-54.026	-73.687	-134.978	-44.337	-1.312	-135.012	-127.335	-59.046	-8.743	-127.416	-121.533	-121.128	-113.278	-76.297	-113.583	-8191	255	
864.800	1	1	0	0	0.16217	0.090957	0.079642	0.29102	0.044984	0.19072	0.25715	0.18375	0.057287	0.27252	0.080022	0.015923	0.14049	0.044958	0.20835	0.06288	-4.4417	-3.7271	-4.6687	-4.6354	-3.9792	-4.7958	-4.1208	-4.2479	-4.7854	-3.9208	-4.5333	-4.8104	-3.8583	-4.8479	-4.375	-4.2125	175.203	189.943	29.190	169.629	179.157	-73.871	110.790	14.162	-87.690	144.001	-89.032	198.576	-120.828	13.509	184.632	-87.365	0.00017114	2.2493e-05	0.00010476	970.67	1.83e-06	3.0971e-06	1061	201.4	1.4073e-06	2.7082e-06	257.73	73.52	57.434	17.327	5.2869e-06	24.334	0.00024727	0.00025461	7.0045e-05	951.78	2.9976e-06	2.9645e-06	1046.7	199.71	3.0264e-06	3.0022e-06	254.81	73.785	57.487	17.494	2.9634e-06	24.671	179.344	128.858	-87.918	-134.791	13.571	-51.813	-135.114	-127.644	9.558	42.301	-127.777	-121.273	-120.925	-112.961	-16.521	-113.876	-8191	255	
864.896	1	1	0	0	0.13462	0.13531	0.13474	0.14485	0.056164	0.19957	0.24652	0.1664	0.18791	0.012434	0.0077365	0.19366	0.21158	0.21518	0.24059	0.23178	-4.6458	-3.8542	-4.4437	-4.7292	-3.8875	-4.6896	-4.5958	-4.1458	-4.8021	-4.0062	-4.4187	-4.8917	-3.9229	-4.5271	-4.4396	-4.1292	-87.415	-118.651	-130.108	124.315	56.802	6.483	138.908	-117.321	85.610	182.260	56.924	161.493	117.193	134.130	79.642	-105.317	0.00022245	0.00051719	5.5673e-05	972.3	2.3748e-06	2.1006e-06	1068.4	203.87	4.8166e-06	1.9324e-06	256.83	73.661	57.401	17.342	1.3778e-06	24.28	0.00026046	0.00026573	7.1981e-05	954.04	2.7833e-06	2.8081e-06	1048.1	201.13	2.7652e-06	2.7833e-06	254.39	73.817	57.309	17.515	2.7683e-06	24.703	185.710	-45.111	56.334	-134.449	8.566	32.191	-134.787	-127.546	-42.386	34.892	-127.612	-121.561	-121.204	-113.333	62.729	-113.673	-8191	255	
864.992	1	1	0	0	0.15968	0.17085	0.057973	0.074913	0.20191	0.17606	0.052171	0.032724	0.057621	0.23115	0.12755	0.046709	0.11194	0.19722	0.20697	0.1732	-4.5896	-4.0833	-4.2604	-4.9625	-3.9062	-4.6312	-4.6271	-3.9458	-4.8708	-4.1104	-4.3688	-4.7271	-4.0938	-4.6292	-4.5333	-4.0542	102.685	-43.873	22.520	120.118	-125.655	9.905	64.877	-129.419	199.327	-54.621	189.856	-2.824	107.949	-133.028	16.591	110.395	0.00024055	0.00049171	2.0271e-05	979.41	2.7018e-06	3.3614e-06	1069.5	202.17	2.7395e-06	4.6664e-06	257.54	73.156	57.178	17.469	1.5716e-06	24.398	0.00024171	0.00024347	6.8371e-05	959.47	2.7351e-06	2.7117e-06	1051.2	200.59	2.7487e-06	2.7859e-06	255.1	73.768	57.289	17.586	2.8752e-06	24.724	174.785	-66.034	52.182	-134.583	-30.062	24.618	-134.996	-127.396	-47.708	-27.324	-127.538	-121.447	-120.897	-113.242	-46.976	-113.880	-8191	255	
865.088	1	1	0	0	0.098679	0.15716	0.10118	0.1426	0.25604	0.086113	0.065532	0.14912	0.12485	0.21311	0.28435	0.20536	0.21562	0.19968	0.090456	0.17098	-4.6333	-4.2021	-4.1708	-4.7292	-4.0583	-4.5229	-4.6417	-3.8438	-4.7083	-4.2271	-4.1188	-4.6396	-3.9167	-4.3521	-4.4792	-3.9667	-41.157	125.760	-8.031	178.742	-80.680	123.944	128.586	-59.885	-121.400	59.288	155.103	-89.543	-101.509	-12.030	29.897	-31.142	0.00021654	0.00020672	7.7148e-05	981.08	4.401e-06	3.8681e-06	1068.3	201.45	1.6716e-06	1.3376e-06	256.87	73.794	56.928	17.293	2.6861e-06	24.264	0.00024797	0.00025223	7.054e-05	957.95	2.6941e-06	2.5378e-06	1050.4	199.99	2.5246e-06	2.4143e-06	253.58	73.72	56.932	17.395	2.2192e-06	24.482	173.197	-66.525	-47.016	-134.961	-11.999	21.679	-135.124	-127.600	-23.902	9.586	-128.122	-121.501	-121.099	-113.468	48.315	-113.914	-8191	255	
865.184	1	1	0	0	0.096393	0.034324	0.20658	0.15557	0.10768	0.21017	0.094931	0.11856	0.18281	0.15767	0.023064	0.10997	0.13534	0.21023	0.15282	0.28777	-4.5375	-4.4417	-4.0938	-5.0229	-3.9875	-4.1771	-5.0062	-3.9229	-4.5021	-4.4729	-4.1	-4.9104	-3.9646	-4.3688	-4.625	-3.8271	29.777	-13.534	73.390	197.077	133.179	36.551	61.580	185.206	5.021	44.007	174.883	177.213	182.670	-63.160	-108.058	66.347	0.00024291	0.00045093	0.0001042	969.65	2.29e-06	2.4814e-06	1056.2	201.1	2.8222e-06	2.164e-06	254.45	72.968	57.216	17.173	3.2324e-06	24.085	0.00020403	0.00019577	5.5429e-05	948.46	2.075e-06	2.1061e-06	1038.8	198.64	2.0476e-06	2.077e-06	251.81	73.111	56.724	17.29	2.0527e-06	24.403	179.521	-89.626	-59.827	-134.746	-50.730	26.875	-135.042	-127.591	-45.073	-7.446	-127.591	-121.247	-120.754	-112.970	8.390	-113.945	-8191	255	
865.305	1	1	0	0	0.12751	0.073197	0.28174	0.16536	0.10732	0.0088074	0.21179	0.1039	0.10109	0.062093	0.20228	0.20262	0.23019	0.12917	0.10659	0.3409	-4.4187	-4.4896	-4.0708	-4.7917	-3.9896	-4.0021	-5.0292	-3.9708	-4.4896	-4.4146	-4.0104	-4.7875	-4.3063	-4.2354	-4.8354	-4.0896	-50.499	-144.056	-109.136	202.486	-65.616	130.512	-31.373	103.883	195.569	98.080	20.761	192.371	177.365	98.784	-62.671	-72.263	0.00015017	0.00018447	9.2603e-05	964.17	1.9109e-06	4.7095e-06	1054.6	199.88	4.4172e-07	2.3231e-06	254.01	73.492	56.788	17.164	3.8077e-06	24.073	0.00018967	0.00019254	5.4456e-05	944.22	2.1988e-06	2.1774e-06	1037	198.08	2.2099e-06	2.2111e-06	250.85	73.132	56.771	17.319	2.4351e-06	24.353	182.550	-31.461	-7.633	-134.964	0.169	-36.834	-134.822	-127.392	-26.055	-5.226	-127.573	-121.433	-120.181	-112.904	47.036	-113.540	-8191	255	
865.399	1	1	0	0	0.22597	0.15208	0.094405	0.16569	0.30309	0.024078	0.11017	0.10114	0.17478	0.34929	0.0089199	0.20937	0.26694	0.26052	0.19346	0.045213	-4.2	-4.5312	-3.9437	-4.8313	-4.3896	-4.0771	-4.9396	-4.1646	-4.4437	-4.6813	-4.1	-4.7792	-4.5958	-4.0271	-4.8292	-3.8958	40.776	43.861	-136.802	197.804	39.500	-32.202	156.156	-49.618	86.447	153.705	-27.302	-137.070	183.439	-122.447	126.141	69.125	0.00018575	0.00039519	3.7846e-05	966.21	4.2662e-06	1.3339e-06	1056.6	201.15	1.5588e-06	3.2556e-06	254.56	72.736	56.432	17.086	2.4418e-06	24.072	0.00022845	0.0002238	6.5395e-05	946.5	2.5901e-06	2.6444e-06	1039.5	198.95	2.6036e-06	2.615e-06	252.33	73.31	56.672	17.253	2.6269e-06	24.305	185.589	-35.809	-125.727	-134.625	-60.167	-70.575	-134.903	-127.148	-30.704	-10.258	-127.630	-121.430	-120.919	-113.291	-55.023	-113.666	-8191	255	
865.495	1	1	0	0	0.14224	0.1687	0.17943	0.099822	0.15448	0.24782	0.098474	0.10748	0.14866	0.045498	0.08966	0.21859	0.24428	0.17814	0.12668	0.17474	-4.1604	-4.6562	-3.9542	-4.7812	-4.3313	-3.8083	-5.0208	-4.1979	-4.1583	-4.8021	-4.1146	-4.7104	-4.65	-3.9813	-4.8187	-4.1312	209.070	3.517	-93.180	167.380	-99.754	126.732	188.465	163.315	100.905	-88.627	191.235	181.390	174.032	-111.047	-109.218	126.356	0.00019399	0.00031944	6.0423e-05	966.65	4.8387e-06	1.7621e-06	1052.2	201.5	3.5011e-06	9.193e-07	252.91	72.659	56.35	17	1.8065e-06	23.849	0.00023811	0.00023699	6.4774e-05	948.09	2.6407e-06	2.611e-06	1037.2	198.99	2.6355e-06	2.5365e-06	251.55	72.733	56.568	17.033	2.7013e-06	24.009	196.425	-28.567	2.813	-134.977	-11.117	-11.783	-134.867	-127.088	-11.957	40.143	-127.575	-121.356	-120.663	-113.302	14.791	-113.996	-8191	255	
865.592	1	1	0	0	0.19412	0.022732	0.14068	0.046056	0.14073	0.18462	0.19015	0.22253	0.067152	0.042024	0.11448	0.018575	0.10649	0.09076	0.19373	0.087586	-3.7917	-4.8167	-3.9813	-4.5687	-4.6375	-3.9062	-4.875	-4.1333	-4.0021	-4.6813	-4	-4.5563	-4.7854	-3.8167	-4.8354	-4.3729	79.759	-114.091	184.618	-132.286	-78.682	-42.711	-108.360	110.125	-34.099	-52.980	38.080	-77.976	79.668	54.005	-5.391	156.300	0.00026769	0.00056973	7.4566e-05	963.79	3.0759e-06	3.1493e-06	1043.9	199.75	1.98e-06	3.3938e-06	250.96	72.468	56.57	16.523	3.056e-07	23.419	0.00024767	0.00024781	6.9458e-05	940.27	2.7767e-06	2.7917e-06	1027.8	197.63	2.9352e-06	2.904e-06	249.97	72.665	56.44	16.881	3.0198e-06	23.868	168.877	-22.036	-64.931	-134.906	19.662	6.358	-134.896	-127.318	-8.401	11.826	-127.569	-121.215	-120.805	-112.561	15.488	-113.375	-8191	255	
865.688	1	1	0	0	0.21209	0.1493	0.030477	0.177	0.23813	0.17491	0.14759	0.041254	0.24405	0.033961	0.1288	0.14446	0.11794	0.10446	0.089149	0.11839	-3.8563	-4.8583	-3.9313	-4.4146	-4.5437	-3.9333	-4.8812	-4.4646	-4.0021	-4.7979	-4.0437	-4.3833	-4.7438	-3.9583	-4.5875	-4.4396	-101.941	-125.964	87.261	172.789	138.734	-73.046	62.269	212.167	-43.160	124.264	118.597	164.976	-114.472	2.860	-7.777	28.177	0.00022343	0.00059326	0.00013494	963.08	3.1473e-06	4.3064e-06	1049.3	199.6	8.1984e-07	3.5531e-06	253.9	72.667	56.442	16.622	1.8059e-06	23.325	0.00027867	0.00028018	7.9758e-05	943	3.233e-06	3.2354e-06	1034.1	198.25	3.2939e-06	3.3299e-06	251.72	73.236	56.896	16.955	3.3163e-06	23.853	184.566	-60.286	-58.358	-134.917	-53.016	43.430	-134.991	-127.111	-57.072	-26.374	-127.352	-121.561	-120.369	-113.145	44.386	-113.438	-8191	255	
865.784	1	1	0	0	0.10575	0.078252	0.12495	0.13595	0.075408	0.011046	0.23453	0.02404	0.21437	0.068254	0.17255	0.34248	0.14877	0.047401	0.10247	0.18928	-3.6688	-4.8917	-4.0271	-4.1937	-4.7104	-4.0896	-4.5792	-4.5188	-3.8583	-4.65	-4.1729	-4.1708	-4.8979	-3.9896	-4.4062	-4.6729	-57.551	160.192	-107.357	153.657	98.372	32.603	196.307	51.176	214.277	-73.340	18.937	153.982	34.830	119.201	-40.459	116.698	0.00021869	0.00030745	3.042e-05	964.09	4.1943e-06	5.4971e-06	1053.4	200.09	3.3729e-06	1.7871e-06	254.33	72.453	56.526	16.604	3.7918e-06	23.212	0.00030074	0.00030314	8.5235e-05	947.74	3.3455e-06	3.418e-06	1038.7	199	3.3905e-06	3.2908e-06	252.4	73.257	56.902	16.84	3.3918e-06	23.698	176.594	-51.678	30.090	-134.710	-42.295	-4.670	-134.659	-127.276	-73.652	46.852	-127.320	-121.248	-120.489	-112.768	70.312	-113.545	-8191	255	
865.880	1	1	0	0	0.13069	0.21781	0.14698	0.11009	0.109	0.17278	0.1153	0.23816	0.15127	0.21075	0.26586	0.23112	0.12482	0.17391	0.1768	0.13302	-3.5458	-4.7875	-4.0729	-4.375	-4.7271	-4.0375	-4.6083	-4.825	-3.8312	-4.775	-4.3417	-4.2167	-4.9	-3.9729	-4.3438	-4.7958	-123.989	-98.043	46.454	115.274	-138.721	193.050	100.245	183.496	211.039	67.022	56.557	156.256	-32.001	-111.491	-45.366	36.539	0.00011529	0.00054774	7.175e-05	971.51	1.5939e-06	3.2093e-06	1055.6	200.74	2.2553e-06	4.4032e-06	252.52	73.147	56.631	16.575	5.9484e-07	23.338	0.00031297	0.00031911	8.7182e-05	951.6	3.4864e-06	3.5725e-06	1041.2	199.97	3.7781e-06	3.7698e-06	252.67	73.612	57.216	16.924	4.0407e-06	23.876	173.314	-70.745	-94.270	-135.024	163.696	-139.424	-134.902	-126.940	6.439	24.142	-127.356	-121.475	-120.749	-113.344	-42.290	-113.508	-8191	255	
865.976	1	1	0	0	0.079345	0.11839	0.29225	0.099266	0.17629	0.17401	0.081271	0.24455	0.12098	0.17708	0.24349	0.17838	0.36012	0.15428	0.038898	0.19848	-3.4958	-4.4688	-4.2104	-4.0479	-4.7	-4.0938	-4.5312	-4.7646	-3.9292	-4.5354	-4.4646	-4.0312	-4.8271	-4.1583	-4.3375	-4.6896	27.241	164.888	105.917	202.583	173.340	163.837	-119.602	28.577	-85.001	-119.412	137.164	167.823	132.830	81.998	-134.815	-115.239	0.00024855	0.00047592	3.755e-05	975.65	1.7524e-06	1.6496e-07	1061.3	203.42	3.8935e-06	1.2357e-06	255.61	73.349	57.012	16.761	1.0485e-06	23.223	0.00035851	0.00037184	0.00010774	958	4.2586e-06	4.2919e-06	1049.1	201.86	4.3724e-06	4.3896e-06	255.72	74.213	57.796	17.079	4.4952e-06	23.999	186.284	-98.169	-38.632	-134.749	-41.954	149.336	-135.022	-127.189	15.296	43.554	-127.491	-121.737	-121.050	-113.072	-144.595	-113.273	-8191	255	
866.097	1	1	0	0	0.056647	0.11617	0.13001	0.17842	0.021178	0.22931	0.18221	0.14249	0.038108	0.17357	0.14089	0.19788	0.22889	0.072179	0.20432	0.20865	-3.5354	-4.4542	-4.3229	-4.0042	-4.8292	-3.9813	-4.4458	-4.9521	-3.9229	-4.5188	-4.7146	-3.9271	-4.8396	-4.2167	-4.0542	-4.9396	134.155	-128.908	134.287	154.204	109.068	152.614	-16.159	87.468	-30.095	27.258	73.149	189.875	-116.194	124.861	-5.177	152.828	0.0002205	0.00031663	7.6128e-05	985.46	3.3315e-06	3.3866e-06	1081.3	204.6	2.0873e-06	1.5085e-06	259.65	74.077	57.634	16.933	4.6761e-06	23.617	0.0003946	0.00041584	0.00011462	970.74	4.6487e-06	4.6122e-06	1067.9	204.1	4.7826e-06	4.8663e-06	259.58	75.531	58.849	17.352	5.1164e-06	24.363	188.381	-65.637	-13.277	-134.947	1.271	-52.697	-135.185	-127.425	-77.592	-42.796	-127.340	-121.394	-120.968	-113.231	-3.379	-113.856	-8191	255	
866.193	1	1	0	0	0.3207	0.11146	0.12165	0.093208	0.16302	0.11714	0.18027	0.057849	0.050818	0.10159	0.21136	0.12231	0.13444	0.13311	0.20313	0.10845	-3.6146	-4.7688	-4.7875	-4.0708	-4.7312	-4.3625	-4.2833	-4.9437	-4.0792	-4.4229	-4.8458	-3.9583	-4.8229	-4.275	-4.0083	-4.9812	-52.302	74.110	-131.433	-6.300	190.333	153.819	144.599	-85.340	23.113	53.384	104.762	158.926	-2.824	201.091	121.098	12.208	0.00023193	0.00021033	9.5308e-05	1004.4	3.1427e-06	1.2697e-06	1099.8	207.22	3.2327e-06	1.8603e-06	262.96	74.474	58.292	16.834	3.1759e-06	23.946	0.00043551	0.00046038	0.00012821	990.6	4.9965e-06	4.9716e-06	1085.3	206.93	4.905e-06	4.9439e-06	262.58	76.012	59.499	17.379	5.0149e-06	24.494	165.129	-95.994	-123.782	-135.233	-20.204	3.527	-135.085	-127.468	-4.845	48.566	-127.484	-121.964	-121.300	-113.109	2.366	-113.358	-8191	255	
866.265	1	1	0	0	0.2139	0.13477	0.20248	0.13228	0.08848	0.14641	0.21748	0.14727	0.10832	0.085358	0.072462	0.060628	0.062379	0.19304	0.12945	0.30244	-3.7458	-4.4688	-4.6229	-4.0062	-4.5167	-4.5542	-4.1771	-4.9938	-4.0229	-4.2875	-4.8292	-3.9917	-4.5333	-4.5875	-4.0604	-4.7729	106.968	168.924	28.118	-60.939	-44.252	-40.973	117.857	207.350	-6.299	15.867	91.622	197.512	106.873	113.668	33.108	70.298	0.0001901	0.0002494	6.6136e-05	1010.6	4.2325e-06	5.2787e-06	1096.8	208.44	9.8364e-07	5.0724e-06	262.37	75.664	58.457	17.144	1.9633e-06	23.984	0.00043442	0.00045036	0.00012658	998.38	5.0498e-06	5.0678e-06	1090.8	208.14	5.1663e-06	5.2736e-06	264.34	76.484	59.798	17.611	5.4357e-06	24.74	195.720	-135.196	17.900	-135.044	-25.345	-17.607	-135.090	-127.452	81.456	-48.399	-127.628	-121.245	-121.066	-113.104	159.507	-113.732	-8191	255	
866.385	1	1	0	0	0.098426	0.17103	0.078403	0.1474	0.090933	0.14024	0.19411	0.026455	0.14312	0.10893	0.041491	0.13143	0.30514	0.18984	0.14404	0.21014	-3.8083	-4.0062	-4.8146	-3.9083	-4.4583	-4.5417	-4.2479	-4.8271	-4.1958	-4.0896	-4.9625	-4.1354	-4.6229	-4.6979	-4.0521	-4.9146	57.080	-85.828	-83.849	56.237	110.870	88.864	-128.714	-127.266	178.964	-80.693	-83.172	171.602	-131.755	166.632	188.121	168.868	0.00024133	0.00022184	0.00016228	1021.1	1.2958e-06	6.7238e-07	1118.6	210.07	2.0415e-06	1.2112e-06	266.31	75.832	58.668	17.262	1.3682e-06	23.894	0.00046937	0.00050704	0.00013819	1007.3	5.6259e-06	5.5658e-06	1103.9	209.89	5.7232e-06	5.7453e-06	267.17	77.28	60.188	17.755	5.577e-06	24.818	168.744	-66.157	-75.052	-134.814	-56.019	166.250	-135.107	-127.680	-79.901	117.113	-127.781	-121.655	-120.977	-113.398	178.149	-113.993	-8191	255	
866.481	1	1	0	0	0.10962	0.053517	0.094952	0.14786	0.35118	0.031593	0.35396	0.069831	0.22421	0.13705	0.22791	0.12296	0.040991	0.14196	0.079821	0.056733	-4.0229	-4.2604	-4.8854	-4.0375	-4.5083	-4.6979	-4.0312	-4.7958	-4.3812	-3.9583	-5.0771	-4.0604	-4.3708	-4.7542	-4.05	-4.7375	-11.112	16.774	204.217	37.308	-22.063	-22.761	122.413	-111.291	84.105	-26.489	64.701	-120.886	-145.219	-27.377	196.458	40.295	0.0001178	0.00021927	8.2256e-05	1022.8	4.5382e-06	4.5646e-06	1118.2	209.61	3.645e-06	6.537e-06	267.42	76.328	59.097	17.116	8.4162e-07	24.037	0.00046727	0.00049254	0.00013401	1012.3	5.2897e-06	5.1911e-06	1104.9	210.72	5.1247e-06	5.289e-06	267.27	77.241	60.438	17.692	5.5128e-06	24.779	184.977	68.695	28.043	-135.099	-46.505	48.923	-134.977	-127.560	-11.714	88.272	-127.750	-121.693	-121.023	-113.094	36.828	-114.271	-8191	255	
866.576	1	1	0	0	0.057825	0.21668	0.065073	0.067247	0.12131	0.21258	0.19303	0.23959	0.1542	0.061599	0.22495	0.21853	0.14439	0.078146	0.075648	0.068815	-4.1521	-4.0375	-4.7312	-4.3625	-4.2208	-4.7708	-4.075	-4.7604	-4.5354	-4.1208	-4.875	-4.1917	-4.0896	-4.8854	-3.8896	-4.5687	3.191	55.959	72.219	174.201	196.371	189.745	174.499	-140.572	103.390	181.672	206.457	123.129	90.174	157.846	45.799	-43.456	0.00018203	0.00046014	5.4529e-05	1027.8	9.7699e-07	4.4397e-06	1122.6	212	2.3301e-06	2.3011e-06	266.34	75.96	59.222	17.225	2.3818e-06	24.056	0.00047042	0.00050469	0.00013985	1013.9	5.6217e-06	5.4315e-06	1108.4	211.39	5.4086e-06	5.4715e-06	267.57	77.292	60.545	17.692	5.1452e-06	24.815	187.874	-55.532	-70.359	-134.899	158.371	37.455	-135.051	-127.888	14.207	42.860	-127.488	-121.595	-121.008	-113.431	31.154	-113.783	-8191	255	
866.674	1	1	0	0	0.086642	0.14543	0.13402	0.312	0.11757	0.045621	0.1258	0.19319	0.16691	0.15326	0.073755	0.086492	0.090605	0.13873	0.11484	0.25843	-4.3708	-3.8417	-4.7521	-4.2521	-4.1354	-4.8583	-4.1521	-4.5312	-4.5458	-3.9854	-4.7854	-4.2583	-4.0563	-4.7604	-4.0771	-4.3708	-20.266	50.749	78.610	-124.764	-34.008	180.123	174.271	-127.455	30.927	83.722	196.685	9.017	-45.719	88.464	179.114	-112.259	0.00019921	0.00043354	8.8882e-05	1031.5	2.4638e-06	3.4067e-06	1126	209.48	3.3189e-06	3.3102e-06	266.78	75.894	59.481	17.275	4.5869e-06	24.089	0.000433	0.00045766	0.00012323	1015.5	4.9183e-06	4.8996e-06	1109.1	210.21	5.079e-06	5.2116e-06	267.2	77.255	60.311	17.733	5.4929e-06	24.784	173.284	-41.851	-40.391	-134.808	-20.117	83.967	-135.011	-127.505	-51.913	27.131	-127.697	-121.630	-121.173	-113.261	25.123	-113.590	-8191	255	
866.793	1	1	0	0	0.18126	0.15014	0.30634	0.32819	0.2301	0.094678	0.093646	0.104	0.24321	0.13717	0.12999	0.21761	0.04759	0.13819	0.28863	0.08881	-4.3229	-3.8958	-4.8271	-4.3667	-4.1438	-4.7646	-4.2854	-4.4563	-4.7	-3.9125	-4.6937	-4.4563	-4.0479	-5.1021	-4.0687	-4.2333	200.016	-124.197	196.220	162.604	-134.587	26.800	81.855	-63.828	180.087	122.805	171.941	-106.167	49.722	-36.779	-100.240	182.144	0.00014545	0.001052	5.1886e-05	1035.8	3.419e-06	1.9978e-06	1121.9	210.74	2.9881e-06	6.9217e-06	267.6	76.054	59.423	17.041	4.8123e-06	24.08	0.00046781	0.00049603	0.00013739	1019.8	5.4685e-06	5.4314e-06	1109.9	210.95	5.3828e-06	5.4214e-06	267.46	77.323	60.459	17.671	5.0504e-06	24.783	172.234	-61.009	-85.619	-134.847	-0.572	29.623	-135.299	-127.389	39.371	70.082	-127.857	-121.605	-121.372	-113.535	-21.018	-113.820	-8191	255	
866.889	1	1	0	0	0.1823	0.093488	0.021916	0.066621	0.11215	0.13326	0.3708	0.2116	0.1326	0.16201	0.12451	0.12979	0.02865	0.10156	0.35346	0.05534	-4.4292	-3.9958	-4.6646	-4.6396	-3.8583	-4.8313	-4.3792	-4.3	-4.8187	-3.9729	-4.6167	-4.675	-3.8417	-4.8146	-4.2125	-4.3229	-142.952	43.117	6.600	-60.787	210.483	86.013	156.706	-133.822	-39.698	134.521	193.108	76.089	-46.197	-123.961	9.922	-23.945	0.00014317	0.00023564	0.00010977	1036.7	7.7641e-06	6.0098e-06	1125.7	210.42	1.7657e-06	4.0751e-06	267.23	76.093	59.381	17.186	3.3597e-06	23.98	0.0004296	0.00044456	0.00012022	1022.5	4.7428e-06	4.5657e-06	1110.9	210.06	4.4196e-06	4.2949e-06	266.19	76.874	60.017	17.557	4.2978e-06	24.547	205.628	191.950	-22.995	-134.941	3.336	-19.345	-135.198	-127.818	-36.257	52.552	-127.718	-121.508	-121.125	-112.844	36.650	-113.964	-8191	255	
866.985	1	1	0	0	0.14397	0.10617	0.12246	0.078994	0.33349	0.041946	0.056457	0.15348	0.051159	0.034559	0.25698	0.19322	0.07418	0.14852	0.15531	0.10091	-4.5813	-3.9521	-4.4146	-4.8	-3.8542	-4.7271	-4.6479	-4.1937	-4.8812	-3.9833	-4.5354	-4.8646	-3.8958	-4.8	-4.1937	-4.0354	46.180	-111.699	-130.802	27.639	27.819	111.422	127.391	-11.199	-112.762	87.290	-130.978	206.585	-93.679	-92.206	191.969	173.802	0.00023042	0.00014601	6.284e-05	1028	8.6246e-07	2.5809e-06	1124.3	210.86	4.7528e-06	4.7444e-06	265.01	76.043	58.933	17.107	4.0853e-06	23.907	0.000372	0.00038642	0.0001071	1015.5	4.244e-06	4.2309e-06	1106.4	209.61	4.145e-06	4.0779e-06	264.73	76.689	59.703	17.476	3.9925e-06	24.49	187.636	-9.715	10.179	-134.827	-32.148	11.342	-135.031	-127.504	-62.697	-13.170	-128.062	-121.304	-121.137	-113.593	-18.144	-113.675	-8191	255	
867.081	1	1	0	0	0.094427	0.014264	0.16953	0.054757	0.1435	0.24092	0.18016	0.12825	0.31447	0.22044	0.076671	0.13591	0.18984	0.14388	0.14552	0.082581	-4.5312	-4.1312	-4.3812	-4.8354	-4.1021	-4.7104	-4.425	-4.1792	-4.725	-3.9729	-4.2104	-4.7812	-3.8438	-4.7167	-4.4417	-3.9979	83.434	-54.561	162.000	78.091	-43.748	-112.264	94.637	168.518	-115.421	116.021	-92.670	3.250	155.528	183.400	144.779	-124.295	0.00017291	0.00069633	5.4195e-05	1033.7	2.3282e-06	1.6273e-06	1115.1	208.25	3.7579e-06	1.2806e-06	266.13	75.103	58.542	16.85	3.4977e-06	23.555	0.00034779	0.0003528	9.5399e-05	1012.6	3.6109e-06	3.5143e-06	1100	207.32	3.2981e-06	3.3201e-06	262.5	75.785	59.108	17.215	3.5315e-06	24.145	188.754	-53.302	-96.706	-134.725	-94.868	-44.766	-134.849	-127.448	-3.526	48.877	-127.989	-121.704	-121.168	-113.262	10.398	-114.510	-8191	255	
867.177	1	1	0	0	0.17112	0.2557	0.14003	0.32625	0.20215	0.11124	0.21434	0.14798	0.049622	0.092894	0.15785	0.086179	0.10141	0.084909	0.22456	0.17519	-4.5292	-4.1396	-4.2146	-4.8771	-4.0062	-4.6208	-4.6229	-3.9604	-4.8583	-4.0813	-4.3063	-4.925	-3.9562	-4.3604	-4.6188	-3.9583	87.265	-98.590	-98.678	156.112	-20.688	35.460	135.021	154.210	84.468	-86.406	-125.430	-20.683	-36.776	-98.916	114.584	-72.191	0.00019518	0.00040446	7.2668e-05	1025.5	3.319e-06	3.0439e-06	1116.9	210.15	1.9128e-06	4.9922e-06	264.62	76.366	58.747	17.065	4.0602e-06	23.81	0.00031019	0.00033571	9.3945e-05	1008.9	3.9424e-06	4.0086e-06	1104.7	209.01	4.1655e-06	4.0456e-06	264.43	76.663	59.713	17.391	3.7514e-06	24.334	180.671	28.246	-51.470	-135.060	-21.586	-5.476	-135.137	-127.380	-23.005	47.558	-127.815	-121.626	-121.297	-113.329	-28.253	-114.298	-8191	255	
867.273	1	1	0	0	0.11467	0.07349	0.19851	0.15118	0.084109	0.15031	0.22731	0.11594	0.27304	0.20479	0.046187	0.21983	0.11431	0.18003	0.15064	0.17405	-4.4896	-4.3667	-4.025	-4.9042	-3.9208	-4.5167	-4.8083	-3.9479	-4.8979	-4.4187	-4.1937	-4.9	-4.0104	-4.3979	-4.6438	-3.9021	-74.129	93.194	-110.632	126.518	50.232	-84.507	141.282	55.685	-116.116	-93.618	130.059	-26.913	-141.361	-7.971	153.594	176.153	0.00022523	0.00044108	0.00016215	1031	1.0001e-06	4.1167e-06	1117.6	211.63	3.8921e-06	3.5436e-06	263.34	74.887	58.805	17.086	3.0715e-06	23.814	0.00031931	0.00031805	8.7824e-05	1012.6	3.3476e-06	3.2881e-06	1101	208.24	3.2356e-06	3.2226e-06	262.54	75.788	59.084	17.268	3.2447e-06	24.303	189.047	-100.830	9.654	-134.846	18.156	60.548	-134.949	-127.845	-56.098	-4.763	-127.770	-121.429	-121.068	-113.370	116.322	-113.749	-8191	255	
867.394	1	1	0	0	0.087188	0.070666	0.057863	0.17298	0.12701	0.20348	0.093	0.22281	0.17008	0.23367	0.24751	0.072763	0.16998	0.29378	0.10379	0.033842	-4.4021	-4.4083	-3.9708	-4.975	-4.0729	-4.1604	-4.9771	-3.8292	-4.5354	-4.55	-3.9333	-4.8917	-4.1958	-4.1167	-4.7917	-3.8083	9.398	137.939	-81.556	125.552	42.775	-25.394	-125.768	87.628	201.655	147.161	-118.942	-32.887	72.798	-136.777	137.204	-12.141	0.00015791	9.3191e-05	7.1794e-05	1023.7	4.8424e-06	1.4949e-06	1112.2	209.39	2.7938e-06	2.3111e-06	263.3	75.11	58.496	16.956	2.9022e-06	23.823	0.00027921	0.00028494	7.9631e-05	1002.6	3.1021e-06	2.9981e-06	1095.3	206.34	2.9534e-06	2.8246e-06	261.36	75.377	58.773	17.161	2.8869e-06	24.183	188.851	-76.183	6.615	-135.274	13.903	-23.095	-135.047	-127.804	-20.272	-19.261	-127.842	-121.450	-121.295	-113.380	29.204	-113.695	-8191	255	
867.488	1	1	0	0	0.383	0.15666	0.11721	0.12088	0.012543	0.1889	0.29538	0.081767	0.16332	0.28762	0.22652	0.18845	0.037118	0.11624	0.11458	0.088697	-4.25	-4.5375	-4.0354	-4.7688	-4.1271	-4.25	-4.8708	-3.9875	-4.4833	-4.675	-4.0625	-4.6813	-4.0833	-4.0437	-4.9667	-3.8187	101.956	-112.004	173.159	110.362	184.112	-85.890	145.542	16.574	-23.666	80.676	126.994	-87.136	32.544	-29.501	51.783	-116.152	0.00016215	3.8482e-05	0.00010327	1017.3	4.4893e-07	6.3105e-07	1107.3	208.43	3.513e-06	3.6205e-06	261.86	75.307	58.507	16.856	9.6894e-07	23.991	0.00025517	0.0002597	7.3595e-05	998.12	2.9475e-06	2.9366e-06	1090.1	206.04	3.0766e-06	3.0419e-06	260.62	75.845	58.884	17.202	3.2179e-06	24.316	175.369	6.617	-72.716	-135.171	47.327	76.770	-134.928	-127.517	-15.199	-0.973	-127.655	-121.080	-120.667	-113.111	-117.448	-114.101	-8191	255	
867.560	1	1	0	0	0.044933	0.022969	0.18903	0.26859	0.1823	0.1508	0.16214	0.1076	0.43961	0.1946	0.23853	0.11419	0.068071	0.22145	0.17028	0.13017	-4.2542	-4.6146	-3.8229	-4.8042	-4.4792	-4.0958	-4.9	-4.2125	-4.1208	-4.7438	-3.9	-4.6646	-4.6542	-3.9958	-4.8167	-4.2562	-13.902	70.683	32.835	152.380	-17.745	204.398	157.039	126.749	75.340	71.890	43.626	-61.577	5.201	132.942	101.600	192.825	0.00019785	0.00027225	6.2744e-05	1018.8	3.2105e-06	5.6609e-06	1109.1	207.41	2.2732e-06	3.0567e-06	264.57	75.51	58.917	16.977	3.2865e-06	23.868	0.0002973	0.00030529	8.6982e-05	1001.1	3.4048e-06	3.482e-06	1095.4	206.32	3.3367e-06	3.166e-06	261.8	75.711	58.994	17.192	3.0808e-06	24.335	167.951	-25.027	-138.746	-135.008	-5.918	21.604	-135.002	-127.627	-60.341	-76.003	-127.603	-121.623	-121.182	-112.628	-20.166	-113.881	-8191	255	
867.656	1	1	0	0	0.1746	0.14859	0.035362	0.027793	0.084379	0.060804	0.075777	0.18753	0.23936	0.27361	0.043726	0.2039	0.089288	0.13077	0.17512	0.14045	-3.8625	-4.8146	-3.9188	-4.7667	-4.3562	-3.9542	-5.0229	-4.1937	-4.0479	-4.7812	-4.0125	-4.6958	-4.3604	-3.95	-4.8208	-4.3646	151.125	160.902	31.000	-95.814	38.157	-108.205	150.701	179.298	67.398	57.805	23.170	199.963	183.175	-83.050	85.665	-68.540	0.00017716	0.0006607	2.9366e-05	1022.4	4.36e-06	5.1147e-06	1111.3	206.56	2.58e-06	4.6836e-06	263.01	75.459	58.713	17.024	4.3738e-06	23.996	0.00027515	0.00027648	7.8873e-05	1001	3.1526e-06	3.2111e-06	1094.3	205.78	3.3724e-06	3.3934e-06	261.61	75.852	58.985	17.257	3.4029e-06	24.337	180.319	-71.325	5.556	-135.093	-26.148	-57.307	-135.137	-127.601	20.564	23.438	-127.404	-121.945	-121.072	-112.991	47.086	-113.587	-8191	255	
867.777	1	1	0	0	0.30736	0.12249	0.23718	0.060531	0.28992	0.19631	0.25188	0.23258	0.2301	0.095909	0.19407	0.2404	0.074316	0.14467	0.24004	0.098071	-3.8146	-4.8	-3.8417	-4.5667	-4.6667	-3.8625	-5.0375	-4.1625	-4.2562	-4.8375	-4.1292	-4.3688	-4.7771	-3.925	-4.6687	-4.7271	26.801	41.945	-4.904	91.274	9.651	178.010	119.135	213.006	40.798	-102.148	84.354	94.899	80.383	-108.872	-66.611	48.647	0.0001784	0.00058341	5.7747e-05	1016.8	5.5371e-07	4.7772e-06	1112.5	207.92	1.5046e-06	3.1011e-06	264.06	75.44	58.807	17.038	3.3012e-06	23.968	0.00029428	0.0002987	8.359e-05	998.03	3.2391e-06	3.2763e-06	1092.9	206.23	3.3243e-06	3.3561e-06	261.82	75.688	59.034	17.308	3.4182e-06	24.324	196.518	-79.990	-66.778	-134.983	-125.341	23.022	-135.132	-127.570	-113.761	59.051	-127.661	-121.833	-121.171	-112.928	49.324	-113.516	-8191	255	
867.873	1	1	0	0	0.12727	0.13643	0.058715	0.13398	0.1306	0.060433	0.36296	0.049669	0.18051	0.084608	0.11943	0.18227	0.21011	0.11175	0.055764	0.11391	-3.8417	-4.7521	-3.9854	-4.3646	-4.8229	-3.9896	-4.925	-4.5042	-3.9854	-4.6292	-4.1229	-4.2729	-4.8896	-3.9229	-4.6062	-4.5563	85.414	214.289	-145.432	-126.033	-98.189	125.937	123.028	-76.242	35.109	-50.674	156.270	200.977	-85.251	-122.925	-135.814	-114.502	0.0001928	0.00040024	5.7785e-05	1023.2	3.1033e-06	3.4844e-06	1103.8	207.8	3.8052e-06	1.9528e-06	263.88	75.014	58.742	17.054	2.3742e-06	23.945	0.00031811	0.00031797	8.9047e-05	1002.7	3.4783e-06	3.5181e-06	1093.2	206.6	3.704e-06	3.6348e-06	262.49	75.721	59.271	17.343	3.6775e-06	24.397	191.372	-60.005	-46.746	-135.165	35.655	27.438	-134.995	-127.604	-50.000	7.458	-127.756	-121.418	-121.001	-113.319	-4.670	-113.579	-8191	255	
867.969	1	1	0	0	0.14843	0.16391	0.11455	0.17257	0.2232	0.031743	0.18488	0.12548	0.19962	0.097963	0.098677	0.10645	0.10351	0.22249	0.10177	0.15229	-3.6896	-4.8896	-4.1813	-4.1792	-4.8083	-3.9125	-4.7771	-4.6979	-3.9896	-4.7937	-4.2979	-4.1188	-4.7937	-3.9958	-4.5813	-4.7104	-38.775	-106.010	65.312	118.589	-48.161	-15.679	182.731	93.539	-14.826	-84.771	184.319	167.189	-122.104	-39.677	7.019	68.555	0.00016076	0.00029223	0.00014547	1024.8	6.5323e-07	7.1431e-06	1115.9	209.6	1.8858e-06	1.9124e-06	264.21	75.44	58.619	17.047	3.3037e-06	23.94	0.00033335	0.00033288	9.4325e-05	1006.4	3.6974e-06	3.681e-06	1098.7	208.02	3.5306e-06	3.5583e-06	263.76	75.989	59.199	17.303	3.4521e-06	24.333	186.584	-73.528	-32.007	-134.819	-3.411	13.050	-135.142	-127.387	-28.263	11.188	-127.691	-122.145	-120.973	-113.109	-43.193	-114.279	-8191	255	
868.065	1	1	0	0	0.12114	0.10016	0.078127	0.033464	0.13717	0.057502	0.069417	0.34313	0.23983	0.0551	0.17055	0.089975	0.20272	0.10428	0.055529	0.25129	-3.65	-4.7771	-4.2375	-4.0583	-4.7542	-3.9958	-4.55	-4.6979	-3.7812	-4.825	-4.1979	-4.1438	-4.9938	-4.0417	-4.3104	-4.7312	205.845	65.388	187.022	-26.136	151.612	167.041	51.817	209.410	-119.804	52.535	-88.779	-125.703	-0.323	165.766	18.678	-19.488	0.00018697	0.00039806	3.9934e-05	1029.4	7.2399e-06	4.6301e-06	1116.2	210.15	4.8554e-06	1.483e-06	265.2	75.548	58.808	17	6.1991e-06	24.019	0.00030028	0.00030921	8.8226e-05	1007	3.5741e-06	3.5688e-06	1100.6	207.94	3.72e-06	3.7001e-06	263.52	76.067	59.323	17.338	3.8724e-06	24.406	174.474	-35.957	-88.366	-134.930	3.021	64.413	-135.125	-127.615	-5.325	-1.747	-128.176	-121.566	-121.042	-113.286	29.290	-113.665	-8191	255	
868.161	1	1	0	0	0.1049	0.0713	0.12288	0.029718	0.34556	0.23424	0.12881	0.13688	0.1621	0.10882	0.064642	0.30725	0.09939	0.18096	0.18714	0.2033	-3.625	-4.725	-4.3833	-4.2479	-4.8146	-4.1146	-4.2646	-4.9229	-3.9062	-4.5354	-4.7417	-3.8979	-5.0354	-4.1604	-4.1979	-4.85	119.413	186.449	19.440	-113.665	-24.889	51.126	115.031	67.642	-90.073	-89.434	186.033	-132.051	-129.453	-26.054	69.062	197.157	0.00020357	0.00027452	6.1763e-05	1028.2	2.827e-06	3.0157e-06	1120.5	209.47	3.91e-06	2.6336e-06	264.84	75.525	58.883	17.09	2.1161e-06	23.65	0.00034014	0.00035023	9.6842e-05	1011.7	3.8141e-06	3.7058e-06	1101.6	208.13	3.7598e-06	3.7104e-06	263.02	76.153	59.39	17.341	3.8271e-06	24.382	185.755	-13.876	79.364	-135.217	54.715	-32.982	-135.225	-127.161	-28.279	-70.553	-127.804	-121.408	-120.659	-113.791	-82.883	-113.434	-8191	255	
868.258	1	1	0	0	0.1569	0.14344	0.13385	0.1015	0.088255	0.059907	0.13008	0.26699	0.028398	0.12003	0.22293	0.058037	0.17865	0.11408	0.22588	0.07063	-3.5625	-4.4604	-4.6312	-4.0479	-4.8854	-4.475	-4.1479	-4.9396	-3.8937	-4.6042	-4.6021	-4.0417	-4.7438	-4.3042	-4.0708	-4.8354	23.593	-54.439	-66.426	-23.280	156.671	-121.646	211.732	-90.085	132.562	61.541	161.520	142.126	181.995	-33.527	110.529	-48.036	0.00013768	0.00036445	3.5648e-05	1025.5	4.7071e-06	4.3083e-06	1116.6	210.46	1.0088e-06	2.5278e-06	265.7	75.513	59.129	17.076	1.288e-06	23.895	0.00033174	0.00034324	9.3991e-05	1007.2	3.9589e-06	3.8379e-06	1102.5	208.9	3.9843e-06	3.9916e-06	264.34	76.436	59.596	17.401	4.1395e-06	24.466	190.816	-43.761	16.003	-135.343	-15.492	3.959	-135.092	-127.254	12.624	-111.498	-127.502	-121.808	-121.550	-113.087	198.531	-113.650	-8191	255	
868.354	1	1	0	0	0.21275	0.21611	0.22616	0.19387	0.06701	0.18342	0.13892	0.33612	0.15193	0.064123	0.11591	0.11493	0.21629	0.12231	0.21009	0.29741	-3.7521	-4.5646	-4.6542	-3.9521	-4.7375	-4.3896	-4.1792	-4.8208	-4.1354	-4.2417	-4.8646	-3.8187	-4.3833	-4.4708	-3.8625	-4.9583	51.833	-80.751	-48.542	-143.391	-86.912	-26.526	186.337	133.683	-119.282	147.806	202.274	149.512	203.373	52.544	91.105	160.320	0.00016712	0.00026178	9.492e-05	1028.9	1.4225e-06	2.7623e-06	1123.3	209.6	3.6585e-06	2.6806e-07	266.96	75.755	59.184	17.193	3.2284e-06	23.736	0.00035364	0.00037085	0.00010558	1011.3	4.0606e-06	4.093e-06	1106.1	208.49	4.0255e-06	4.0878e-06	265.67	76.306	59.648	17.397	4.117e-06	24.402	187.372	-123.523	-115.887	-134.923	41.164	175.944	-135.155	-127.661	10.601	165.146	-127.380	-121.672	-120.992	-113.445	-11.083	-113.314	-8191	255	
868.474	1	1	0	0	0.19929	0.16912	0.058557	0.10123	0.069905	0.029625	0.067692	0.14738	0.049133	0.07533	0.16038	0.20999	0.245	0.015229	0.11114	0.19295	-3.7604	-4.2021	-4.8979	-4.0292	-4.7042	-4.5062	-4.0167	-5.0833	-4.1	-4.3396	-4.9167	-4.0875	-4.6979	-4.7625	-3.9729	-4.8229	-18.132	-28.583	115.401	130.234	133.689	66.622	183.120	180.941	-54.465	-8.096	-63.145	-51.001	188.373	-91.052	-24.414	145.928	0.0001712	0.00024154	1.6758e-05	1034.6	4.5594e-07	3.844e-06	1117.7	209.6	2.281e-06	3.343e-06	266.69	75.637	59.548	17.036	1.8719e-06	23.649	0.00034997	0.00036294	0.00010084	1013.7	3.9431e-06	4.015e-06	1106.7	209.04	3.978e-06	3.9719e-06	265.02	76.392	59.894	17.363	4.0991e-06	24.372	178.243	-21.974	-81.264	-134.917	-97.697	-26.499	-135.191	-127.597	27.804	46.219	-127.660	-121.441	-121.274	-113.102	169.054	-114.130	-8191	255	
868.569	1	1	0	0	0.15575	0.11728	0.22332	0.2457	0.17359	0.059974	0.2129	0.013003	0.31775	0.22499	0.2285	0.19322	0.25632	0.22855	0.07471	0.21576	-4.0229	-3.9979	-4.8562	-4.1479	-4.425	-4.675	-3.9313	-4.9708	-4.3042	-4.0708	-4.9792	-3.8792	-4.4167	-4.6438	-3.8271	-4.5625	73.389	-111.625	212.686	156.577	183.505	8.855	171.643	-86.472	80.603	70.885	213.139	-39.239	-89.282	27.149	16.417	160.825	0.0002106	0.0002864	7.4179e-05	1028.2	6.0892e-06	9.5135e-07	1122.5	209.45	5.1907e-06	4.1377e-06	267.49	75.912	59.229	17.04	4.8981e-06	23.867	0.00035098	0.00037036	0.00010412	1013.1	4.0808e-06	4.0554e-06	1107.8	208.69	4.0407e-06	4.0648e-06	265.86	76.485	59.754	17.409	4.1464e-06	24.407	185.768	-11.499	-22.405	-134.694	-9.845	76.235	-135.265	-127.484	-28.794	-9.072	-127.676	-121.186	-121.113	-112.767	-41.040	-113.285	-8191	255	
868.665	1	1	0	0	0.21885	0.19233	0.087535	0.18163	0.25907	0.096561	0.30179	0.15111	0.15701	0.15778	0.16373	0.084218	0.093043	0.20082	0.062222	0.064577	-4.1917	-4.0396	-4.8854	-4.1792	-4.225	-4.7708	-4.1333	-4.7	-4.5167	-3.9375	-4.9458	-4.15	-4.3729	-4.675	-3.9979	-4.6042	145.351	142.972	179.267	186.598	76.868	-25.854	172.127	-38.417	-117.720	40.150	147.082	172.301	110.023	200.928	-74.297	128.111	0.00022032	0.0007324	0.00012023	1030.2	3.6836e-06	3.004e-06	1121.7	210.65	6.3737e-06	2.4481e-06	266.16	75.907	58.814	17.165	3.5971e-06	23.732	0.00035567	0.00037195	0.00010289	1012.4	4.0545e-06	4.0526e-06	1107.4	209.09	4.1003e-06	4.1612e-06	265.57	76.486	59.576	17.423	4.1661e-06	24.396	183.018	-31.172	6.013	-134.961	-50.252	-11.677	-135.220	-127.349	-57.993	-52.035	-127.708	-121.105	-120.792	-113.447	-60.851	-113.526	-8191	255	
868.786	1	1	0	0	0.049366	0.1279	0.059373	0.14879	0.12322	0.14048	0.18343	0.11222	0.09478	0.13001	0.20179	0.17165	0.015653	0.0077423	0.31894	0.12282	-4.2208	-3.9188	-4.6771	-4.2625	-4.0708	-4.6937	-4.0062	-4.6333	-4.4771	-3.8646	-4.8479	-4.2125	-4.3146	-4.8792	-4.0312	-4.4875	-133.687	211.535	186.828	179.220	-96.255	113.122	-16.705	192.920	76.963	-24.291	60.110	-109.568	149.071	147.453	-37.475	102.108	0.00016097	0.00015831	6.9189e-05	1030.6	3.6777e-06	3.5119e-06	1123.6	210.76	5.2694e-07	2.9096e-06	265.41	76.091	59.159	17.104	1.1847e-06	23.847	0.0003699	0.00038784	0.0001052	1013.1	4.3072e-06	4.2869e-06	1107.6	209.7	4.3379e-06	4.4041e-06	265.7	76.692	59.81	17.465	4.3376e-06	24.503	187.347	41.103	7.215	-134.619	-12.364	19.044	-135.051	-127.325	94.953	62.481	-127.063	-121.451	-121.393	-113.185	-72.806	-113.597	-8191	255	
868.857	1	1	0	0	0.13687	0.21294	0.095025	0.046096	0.063014	0.17232	0.080291	0.19295	0.11415	0.044084	0.08876	0.16549	0.18283	0.11808	0.16166	0.13233	-4.2625	-3.85	-4.8938	-4.4021	-4.0417	-4.7	-4.1	-4.4042	-4.8625	-3.7917	-4.6875	-4.4437	-4.1021	-4.8313	-4.0604	-4.4375	16.007	53.223	-112.490	-41.705	81.992	-117.083	193.850	180.449	-62.381	191.671	129.569	207.870	-69.334	-2.679	145.871	-10.303	0.00019941	0.00050985	0.00012033	1032.9	2.5236e-06	3.9996e-06	1126.2	210.57	2.3837e-06	4.1959e-06	267.71	75.987	58.363	17.035	4.5612e-06	23.837	0.00037628	0.00039729	0.00010753	1016.5	4.371e-06	4.2685e-06	1109.8	209.6	4.1948e-06	4.251e-06	265.93	76.548	59.618	17.432	4.2095e-06	24.535	175.891	-21.738	-37.981	-134.924	-36.697	36.983	-134.899	-127.534	2.573	31.524	-127.568	-121.784	-120.689	-112.654	20.989	-113.323	-8191	255	
868.953	1	1	0	0	0.081539	0.18167	0.30893	0.14089	0.11101	0.35475	0.066539	0.11289	0.19008	0.094458	0.17191	0.20212	0.10987	0.10365	0.22111	0.094819	-4.3708	-4.0479	-4.7229	-4.5062	-4.0708	-4.7688	-4.3271	-4.3708	-4.7063	-3.8208	-4.8125	-4.6625	-3.9458	-4.9354	-4.1208	-4.3063	135.086	155.607	24.508	160.708	42.130	-27.208	-74.410	96.140	35.125	81.652	159.073	128.034	169.777	36.772	-142.261	104.013	0.00022421	0.00061382	0.00015635	1031.5	9.6685e-07	5.1207e-06	1125.3	210.89	4.7067e-06	2.51e-06	267.5	75.957	59.165	16.939	8.9671e-07	23.717	0.00037214	0.00039579	0.00010922	1015.3	4.3686e-06	4.1812e-06	1109.4	209.74	4.3003e-06	4.2793e-06	266.43	76.725	59.882	17.44	4.2673e-06	24.492	187.147	-54.381	-61.676	-135.003	-62.195	71.019	-135.039	-127.570	-31.542	19.245	-127.803	-121.440	-120.945	-112.925	82.083	-113.793	-8191	255	
869.074	1	1	0	0	0.15804	0.14	0.10817	0.068097	0.11196	0.15981	0.14875	0.054499	0.16186	0.073739	0.061692	0.069031	0.1401	0.098103	0.069434	0.066417	-4.5458	-3.9688	-4.5875	-4.7375	-3.9417	-4.9437	-4.4812	-4.1687	-4.9104	-3.9062	-4.8	-4.8313	-4.0792	-4.8083	-4.3396	-4.15	82.045	-63.681	13.883	66.748	152.186	49.459	-134.093	-110.255	-18.799	77.089	-91.604	200.570	-59.295	193.106	-35.022	93.029	0.00022463	0.00013418	0.00010529	1037	2.9229e-06	3.5947e-06	1127.9	210.51	2.1533e-06	1.203e-06	267.54	75.712	58.707	17.108	1.6653e-06	24.035	0.00037074	0.0003877	0.0001084	1017.2	4.3918e-06	4.2579e-06	1110.7	209.64	4.2567e-06	4.3302e-06	266.25	76.684	59.825	17.489	4.3812e-06	24.572	178.180	-61.576	-65.000	-134.837	-55.563	9.747	-134.853	-127.432	24.558	-120.643	-127.668	-121.610	-120.989	-113.193	-85.416	-114.036	-8191	255	
869.170	1	1	0	0	0.23147	0.12273	0.18125	0.039404	0.065257	0.10765	0.17581	0.23432	0.13955	0.11188	0.085856	0.27338	0.25723	0.050229	0.14751	0.21573	-4.5333	-4.0729	-4.4062	-4.9208	-3.8	-4.8229	-4.5771	-4.1542	-4.9625	-4.0062	-4.4792	-4.6396	-4.0792	-4.6729	-4.3583	-4.1396	8.857	13.646	-128.668	-31.740	154.025	76.965	119.142	142.026	104.960	52.622	-92.414	51.474	186.199	-47.562	108.077	-20.554	0.00022314	0.00024872	0.00011248	1035.6	1.7429e-06	1.4264e-07	1126.8	211.21	2.3558e-06	3.4441e-06	268.23	76.272	58.88	16.994	2.1077e-06	23.884	0.00038792	0.00040139	0.00011342	1018.5	4.4557e-06	4.3675e-06	1111	210.04	4.461e-06	4.3542e-06	267.1	76.777	59.903	17.454	4.4832e-06	24.521	176.307	-21.820	-64.192	-134.783	5.850	-83.363	-134.951	-127.176	-29.191	-0.962	-127.574	-121.348	-120.603	-112.794	-135.642	-113.648	-8191	255	
869.266	1	1	0	0	0.077242	0.10879	0.20053	0.04452	0.10758	0.14457	0.03857	0.17347	0.082943	0.29	0.027265	0.23711	0.19188	0.18226	0.16828	0.12882	-4.6042	-4.1521	-4.375	-4.9646	-3.9729	-4.5333	-4.6417	-4.1583	-4.9437	-4.1229	-4.3271	-4.8	-4.1333	-4.6083	-4.6687	-4.1417	123.078	125.399	-95.648	-129.591	29.902	17.529	-127.483	-16.785	159.223	-103.091	-65.337	-135.482	130.874	-103.929	117.275	-134.802	0.00019719	0.0003959	5.5369e-05	1038.2	1.0121e-05	2.6536e-06	1125.8	210.73	5.9068e-06	4.8605e-06	267.06	76.802	59.793	17.083	6.2474e-06	24.1	0.00040423	0.00042285	0.00011969	1020.8	5.0669e-06	5.0241e-06	1116.2	210.89	5.2026e-06	5.2677e-06	267.9	77.609	60.845	17.641	5.3703e-06	24.838	176.719	205.237	27.613	-134.848	171.955	-135.237	-134.898	-127.392	-55.426	-1.278	-128.025	-121.713	-121.344	-113.290	1.564	-113.271	-8191	255	
869.362	1	1	0	0	0.11804	0.077895	0.32048	0.20196	0.020718	0.13956	0.35819	0.17735	0.17453	0.045528	0.22161	0.27588	0.029251	0.14114	0.32666	0.17028	-4.4875	-4.3021	-4.1521	-5.1875	-4.0354	-4.4688	-4.9187	-3.9938	-4.7979	-4.5188	-4.2417	-4.7604	-3.9458	-4.4125	-4.7104	-3.8917	36.764	-117.391	175.250	3.851	-91.313	-43.825	128.677	-116.968	-126.759	51.864	-120.591	0.351	194.997	77.847	0.702	16.840	0.00020861	0.00015686	0.00010103	1043	5.7824e-06	3.0766e-06	1137.7	212.84	1.1226e-06	4.6672e-06	270.27	77.024	59.669	17.196	5.1728e-06	24.122	0.00046588	0.0004871	0.00013701	1030.5	5.3586e-06	5.3451e-06	1125	212.4	5.3637e-06	5.4596e-06	270.22	77.953	60.763	17.726	5.4431e-06	24.833	177.383	-59.200	-26.776	-134.856	-79.613	49.200	-134.908	-127.502	-79.145	79.188	-127.928	-121.416	-121.379	-113.425	-26.260	-113.555	-8191	255	
869.457	1	1	0	0	0.018693	0.025486	0.12773	0.21526	0.045011	0.17689	0.18267	0.25911	0.19716	0.12239	0.24916	0.12455	0.062513	0.11675	0.18749	0.12927	-4.4167	-4.3125	-4.1396	-5.0833	-4.15	-4.4208	-4.8104	-3.7521	-4.7729	-4.4604	-4.2917	-4.9458	-4.2521	-4.2917	-4.8604	-4.0875	-54.443	90.613	-79.061	-48.597	74.368	-16.248	164.272	113.762	75.265	213.981	182.514	122.137	-34.007	148.366	23.992	20.491	0.00017468	0.00062649	4.4216e-05	1044.3	2.7307e-06	5.1807e-06	1136.5	214.15	3.0378e-06	3.2592e-06	271.25	76.673	60.078	17.089	1.8344e-06	24.18	0.00046367	0.00049375	0.00013654	1033.4	5.3225e-06	5.4116e-06	1127.3	213.41	5.2834e-06	5.2217e-06	270.46	77.77	60.981	17.719	5.2002e-06	24.871	190.129	-82.650	2.007	-134.906	-56.538	-68.746	-134.908	-127.663	-61.167	27.014	-127.736	-121.466	-121.114	-113.301	-23.439	-113.749	-8191	255	
869.553	1	1	0	0	0.15387	0.16034	0.23977	0.093805	0.098907	0.19998	0.23851	0.040904	0.1389	0.10083	0.067255	0.095007	0.38403	0.20187	0.26149	0.24443	-4.2812	-4.4354	-3.9104	-5.0521	-4.0208	-4.15	-5.0354	-4.2667	-4.4854	-4.7542	-4.0188	-5.0604	-4.2979	-4.2042	-4.7875	-4.1708	143.273	-92.547	-94.622	75.842	103.810	-82.563	196.488	90.522	68.122	29.635	-4.887	-129.519	204.282	205.161	185.503	115.046	0.00023154	0.00021805	8.5021e-05	1048.3	4.1198e-06	4.6696e-06	1140.7	212.36	2.7062e-06	5.3002e-06	269.68	76.394	60.055	17.257	1.3193e-06	24.044	0.00043885	0.00046194	0.00013238	1033.7	5.0513e-06	5.2427e-06	1126.1	212.62	5.0159e-06	5.0887e-06	269.36	77.635	60.902	17.686	4.9649e-06	24.718	182.585	-48.639	41.211	-134.802	-3.988	117.117	-134.980	-127.749	-0.190	59.873	-127.547	-121.494	-120.678	-113.651	185.736	-113.221	-8191	255	
869.649	1	1	0	0	0.10241	0.10414	0.17484	0.065239	0.058095	0.17963	0.23749	0.12698	0.15707	0.0286	0.24463	0.11218	0.10012	0.11491	0.17896	0.014993	-4.3208	-4.6875	-3.7979	-4.8708	-4.2771	-4.0646	-5.1438	-4.0729	-4.4979	-4.8625	-4.15	-4.8812	-4.3729	-4.2354	-4.7604	-4.2	169.683	-100.333	32.377	158.306	-113.878	-138.697	136.380	-129.995	-124.580	17.800	-109.477	31.611	-88.144	-55.619	-74.694	0.133	0.00019532	0.00019451	0.00014777	1048.9	4.9503e-06	2.8038e-06	1135.5	212.64	3.2786e-07	2.437e-06	270.62	76.243	59.531	17.198	2.9142e-06	23.749	0.00042778	0.00044904	0.00012499	1030.2	4.892e-06	4.8825e-06	1122.1	212.05	4.9495e-06	4.8381e-06	270.03	77.434	60.56	17.635	4.6423e-06	24.624	178.367	-57.866	-37.271	-134.945	-80.273	131.876	-134.695	-127.581	86.888	-5.871	-127.654	-121.422	-120.749	-113.209	-52.745	-113.564	-8191	255	
869.747	1	1	0	0	0.085864	0.055112	0.034769	0.062386	0.36646	0.14621	0.12308	0.19882	0.21149	0.10622	0.13324	0.10327	0.12678	0.28973	0.13548	0.25204	-4.0708	-4.8167	-3.9708	-4.8083	-4.5	-4.1438	-5.0708	-4.2542	-4.1667	-4.8625	-4.0958	-4.6229	-4.6188	-4.0854	-4.7229	-4.4542	38.013	51.965	-117.839	-110.410	-50.170	-23.807	147.653	-94.511	-67.720	-133.189	-86.436	142.047	97.190	175.099	114.254	51.675	0.00019864	0.00012172	0.00017165	1046.6	2.7281e-06	1.3108e-06	1138.2	211.32	3.0399e-06	6.3951e-06	270.32	76.329	59.911	17.288	3.2892e-06	24.099	0.00040765	0.00041934	0.00011754	1029.3	4.5612e-06	4.6096e-06	1124.6	211.6	4.5971e-06	4.5832e-06	269.58	77.505	60.586	17.674	4.6288e-06	24.685	180.025	-107.132	-20.741	-134.692	-9.595	78.610	-134.623	-127.135	-12.639	41.083	-127.491	-121.398	-120.376	-113.180	-7.457	-113.577	-8191	255	
869.866	1	1	0	0	0.10381	0.17001	0.2823	0.091998	0.19275	0.12044	0.088115	0.10666	0.21227	0.1038	0.14868	0.16493	0.14688	0.2156	0.21279	0.1493	-3.8167	-4.9208	-3.9917	-4.6979	-4.6083	-4.0542	-4.85	-4.3708	-4.2104	-4.7417	-4.0896	-4.4458	-4.5854	-4.0563	-4.9979	-4.4167	89.389	-27.955	26.177	-40.378	-2.585	-91.185	-37.238	-134.966	56.247	201.878	75.918	-52.029	-77.970	181.033	59.053	-13.959	0.00019596	0.00011965	4.1896e-05	1049.5	2.0612e-06	2.4519e-06	1138.5	213.39	3.0509e-06	3.3341e-06	268.02	76.296	60.182	17.15	1.8111e-06	23.837	0.00040599	0.00041582	0.00011405	1029.6	4.5202e-06	4.5604e-06	1122.1	211.67	4.5429e-06	4.4184e-06	268.1	77.408	60.677	17.598	4.4624e-06	24.586	189.102	203.597	171.735	-134.766	-81.200	138.321	-135.013	-127.521	-24.736	-37.033	-127.264	-121.397	-120.648	-112.684	-25.149	-113.539	-8191	255	
869.962	1	1	0	0	0.11729	0.14323	0.090528	0.18346	0.13821	0.14339	0.15733	0.1335	0.085538	0.14551	0.21228	0.13678	0.12686	0.16037	0.21308	0.19533	-3.7396	-4.875	-4.0708	-4.45	-4.6271	-4.0375	-4.7875	-4.6	-4.1417	-4.8688	-4.3375	-4.3958	-4.8583	-4.0938	-4.7146	-4.5604	214.529	-140.355	161.424	198.174	22.453	-134.351	184.652	198.960	-139.750	206.059	196.981	101.583	-124.064	-127.679	31.893	62.210	0.00024717	0.0008112	0.00010686	1045.1	2.8281e-06	4.5494e-06	1136.1	212.69	1.5279e-06	1.2793e-06	269.5	76.45	59.535	17.212	1.6099e-06	23.846	0.00039234	0.00041203	0.00011583	1029.5	4.5963e-06	4.6146e-06	1122.4	211.94	4.7067e-06	4.5284e-06	269.01	77.389	60.573	17.581	4.7009e-06	24.595	179.569	-80.664	-49.158	-134.819	-109.030	-49.863	-134.693	-126.894	49.750	53.724	-127.278	-121.465	-119.773	-112.909	30.206	-113.511	-8191	255	
870.058	1	1	0	0	0.054285	0.22041	0.099557	0.090869	0.21669	0.28614	0.11697	0.038198	0.069756	0.1275	0.1348	0.20758	0.11448	0.070401	0.16985	0.027633	-3.5292	-4.8125	-4.0958	-4.3938	-4.7458	-3.8667	-4.8292	-4.6021	-3.9938	-4.9979	-4.1229	-4.3146	-4.8208	-4.0729	-4.3083	-4.6604	-31.110	-136.029	53.568	105.773	0.423	4.616	117.396	89.129	48.057	34.491	197.860	-125.398	66.132	72.064	175.539	164.892	0.00012715	0.00027611	8.7666e-05	1050.5	2.3439e-06	4.247e-06	1136.8	212.99	1.0409e-06	4.0517e-06	269.13	76.576	59.785	17.317	5.843e-06	24.117	0.00041162	0.00041729	0.00012014	1029.8	4.6653e-06	4.7111e-06	1124.6	212.02	4.643e-06	4.6069e-06	268.87	77.412	60.595	17.658	4.8348e-06	24.676	194.330	-84.977	26.229	-134.675	-73.061	32.321	-134.311	-127.210	23.339	-9.459	-127.501	-121.580	-121.041	-113.040	-68.862	-113.701	-8191	255	
870.154	1	1	0	0	0.23148	0.2159	0.15415	0.2632	0.041133	0.1951	0.23429	0.24782	0.22387	0.012742	0.17234	0.15484	0.1441	0.11548	0.21824	0.10247	-3.8292	-4.7646	-4.2875	-4.2562	-4.9313	-4.1667	-4.55	-4.8438	-3.7021	-4.8458	-4.4563	-4.0125	-4.9437	-3.9313	-4.3667	-4.8708	-61.371	-124.599	55.037	193.898	65.601	-63.753	-55.955	71.327	72.510	97.650	-59.073	-112.374	192.722	140.249	-9.954	140.842	0.00021858	0.0004538	3.7185e-05	1048.6	3.5712e-06	2.7965e-06	1138.7	212.01	1.8777e-06	3.1358e-06	270.14	76.491	59.86	17.2	3.5161e-06	24.015	0.0004167	0.00042728	0.00012136	1030.8	4.8076e-06	4.8348e-06	1122	212	4.8692e-06	4.8826e-06	269.46	77.658	60.79	17.684	4.943e-06	24.735	180.003	-75.857	-37.996	-134.781	2.132	42.838	-135.118	-127.621	-112.992	2.464	-127.359	-121.817	-121.011	-113.428	208.838	-113.391	-8191	255	
870.251	1	1	0	0	0.046131	0.2014	0.039658	0.17589	0.31609	0.11404	0.13441	0.078243	0.135	0.11046	0.055319	0.075457	0.065317	0.23552	0.079483	0.24385	-3.7313	-4.6104	-4.5271	-4.2521	-4.8042	-4.1312	-4.4542	-4.8896	-4.0375	-4.5896	-4.5437	-4.025	-4.9583	-4.3479	-4.15	-4.8854	157.968	-2.852	134.000	174.821	13.313	94.178	196.322	167.536	113.315	123.451	-87.336	98.602	18.698	-66.169	-26.630	-55.867	0.0001796	0.00036172	0.0001023	1045.6	4.7856e-06	2.6924e-06	1130.2	212.6	4.7683e-06	4.8054e-06	270.79	76.501	59.59	17.247	2.2831e-06	24.085	0.00043055	0.0004441	0.00012291	1029.5	4.9091e-06	4.9177e-06	1121.6	212.59	5.0002e-06	4.9397e-06	269.9	77.649	60.605	17.682	4.7915e-06	24.728	182.750	-45.073	7.977	-135.086	15.303	86.452	-134.796	-127.349	-0.004	-60.522	-127.490	-121.398	-120.890	-112.771	36.276	-113.267	-8191	255	
870.347	1	1	0	0	0.087633	0.13304	0.0065588	0.14007	0.11639	0.1352	0.2644	0.29483	0.2227	0.14975	0.16236	0.1896	0.086606	0.07492	0.11409	0.15854	-3.7708	-4.5646	-4.4729	-4.1042	-4.9021	-4.1833	-4.2979	-5.0271	-3.8688	-4.5979	-4.9	-3.9854	-4.6792	-4.2521	-3.9792	-4.9771	-9.444	46.846	-0.946	111.505	-30.005	-31.345	184.411	132.948	-9.224	-91.962	-111.928	-35.090	176.386	212.950	123.915	118.452	0.00020108	0.00074594	3.6905e-05	1047.4	3.7709e-06	3.9782e-06	1135.9	212.23	5.5913e-06	2.2512e-06	269.44	76.512	59.53	17.195	3.5361e-06	24.044	0.00041463	0.00043826	0.00011846	1031.2	4.636e-06	4.6617e-06	1123.2	212.29	4.7842e-06	4.6623e-06	269.85	77.649	60.678	17.616	4.7418e-06	24.654	178.180	-66.072	-124.367	-135.013	-11.925	-13.811	-134.709	-127.217	-24.768	-10.946	-127.064	-121.553	-120.883	-112.459	67.527	-113.295	-8191	255	
870.467	1	1	0	0	0.024852	0.08566	0.18273	0.16065	0.19618	0.13533	0.14446	0.14359	0.070063	0.10171	0.2101	0.14028	0.11859	0.031087	0.25928	0.097952	-3.7	-4.2979	-4.6875	-3.9917	-4.9708	-4.3854	-4.2292	-4.9313	-4.1271	-4.3562	-4.9125	-4.0708	-4.7646	-4.3979	-4.1937	-4.8729	74.383	-47.077	34.544	-122.225	165.310	-100.693	-143.078	-106.946	108.167	-81.997	202.716	-34.798	88.123	-3.365	-99.133	69.380	0.00021084	0.00029567	8.6075e-05	1048.3	2.1039e-06	1.1426e-06	1139.1	212.95	9.61e-07	5.1103e-06	268.15	76.952	60.148	17.19	2.8356e-06	24.115	0.00041266	0.0004313	0.00011877	1030.2	4.7452e-06	4.7607e-06	1125.4	212.33	4.816e-06	4.7677e-06	269.38	77.711	60.952	17.649	4.8236e-06	24.754	192.700	-5.903	-64.083	-134.731	-29.010	43.817	-134.850	-127.461	203.340	7.594	-127.275	-121.325	-120.767	-113.265	-21.920	-113.721	-8191	255	
870.562	1	1	0	0	0.083774	0.21413	0.051988	0.24179	0.071671	0.25892	0.092363	0.21091	0.17392	0.088721	0.085006	0.18073	0.22303	0.22099	0.11404	0.12332	-3.7188	-4.5125	-4.8167	-4.1125	-4.6396	-4.5708	-4.2354	-4.9917	-4.1396	-4.3438	-5.0729	-3.9625	-4.725	-4.5729	-3.9062	-4.9292	-84.709	-72.616	19.943	143.283	3.498	0.331	167.502	62.568	-76.154	158.321	-20.372	-134.521	-130.035	-62.962	-49.680	-74.157	0.0002184	0.00035843	8.7411e-05	1047.2	2.3745e-06	3.3873e-06	1137.5	213.31	1.7197e-06	3.6666e-06	268.12	76.817	60.286	17.412	1.0903e-06	23.925	0.0004197	0.00043823	0.00012471	1031.4	4.8371e-06	4.8864e-06	1125.8	212.71	4.796e-06	4.9591e-06	269.54	77.663	60.905	17.744	4.8463e-06	24.768	180.266	-35.128	-35.356	-134.612	-21.263	-6.625	-134.803	-127.371	45.319	1.044	-127.416	-121.404	-120.787	-112.773	58.863	-113.286	-8191	255	
870.658	1	1	0	0	0.22114	0.14696	0.19144	0.24588	0.10854	0.17951	0.097554	0.16672	0.23817	0.077294	0.11681	0.30025	0.13654	0.070133	0.15792	0.081409	-3.9729	-4.3438	-4.8375	-4.0625	-4.6	-4.6229	-4.3958	-4.7542	-4.2125	-4.1312	-4.9417	-4.1146	-4.4375	-4.8083	-3.8354	-4.8562	44.532	197.095	-88.340	155.269	67.130	90.061	126.994	-2.948	-139.735	53.820	-54.780	181.115	-106.924	157.298	-52.968	209.317	0.00023182	0.0006764	0.00012286	1053.1	6.1347e-06	4.8258e-06	1134.2	213.51	1.6194e-06	3.135e-06	271.85	76.915	59.96	17.329	1.6674e-06	23.992	0.00041736	0.00044705	0.00012163	1033.1	4.8013e-06	4.7281e-06	1125.5	212.99	4.7652e-06	4.8842e-06	270.32	77.821	60.889	17.712	4.9623e-06	24.799	177.379	-41.736	0.899	-134.812	-21.922	1.317	-134.713	-127.107	-37.806	-12.429	-127.765	-120.883	-120.648	-112.703	-5.078	-113.407	-8191	255	
870.754	1	1	0	0	0.15743	0.13747	0.222	0.065549	0.24676	0.041538	0.25868	0.10056	0.13751	0.18232	0.080759	0.19054	0.1301	0.16445	0.1202	0.063022	-4.0604	-3.9458	-4.9187	-4.0521	-4.3771	-4.7479	-4.0229	-4.8646	-4.3688	-4.15	-5.025	-4.3583	-4.4521	-4.8187	-3.8417	-4.6104	154.234	-31.571	-36.795	134.993	-125.915	-105.740	162.024	33.705	-20.061	-16.179	-116.773	155.274	-19.446	209.037	-87.185	67.232	0.00016992	0.00032904	1.8695e-05	1044.9	1.6254e-06	6.4977e-06	1142	213.18	1.6801e-06	1.9419e-06	270.25	76.946	59.47	17.379	4.7598e-06	24.22	0.00042111	0.00044236	0.00012134	1031	4.7506e-06	4.8151e-06	1127.1	212.75	4.7707e-06	4.8258e-06	269.97	77.699	60.785	17.722	4.9016e-06	24.838	167.554	-58.769	-70.091	-134.651	147.406	20.319	-135.016	-127.125	-12.358	-120.426	-127.448	-121.716	-120.816	-112.895	-26.570	-113.507	-8191	255	
870.850	1	1	0	0	0.10257	0.20303	0.063998	0.02676	0.15201	0.086565	0.34314	0.093408	0.076694	0.15537	0.11249	0.36359	0.10867	0.095587	0.083606	0.086115	-4.2604	-4.0521	-4.8833	-4.25	-4.3792	-4.6417	-4.1521	-4.6771	-4.6	-3.9521	-4.8979	-4.3938	-4.2458	-4.8	-3.9542	-4.5521	95.358	100.571	-133.880	-24.008	88.980	69.973	156.722	212.909	1.246	-43.781	-124.516	156.215	-117.890	-110.607	36.340	167.025	0.00018351	0.00024974	3.9888e-05	1050.5	4.6396e-06	2.8387e-06	1141.3	213.05	2.4231e-06	4.6436e-06	270.54	76.876	60.331	17.27	3.8147e-06	24.054	0.00042516	0.00044696	0.00012172	1033.8	4.8978e-06	4.8324e-06	1128.1	212.56	4.844e-06	4.8504e-06	270.64	77.719	60.975	17.654	4.8775e-06	24.81	175.596	-63.261	95.689	-134.792	-10.452	106.486	-134.941	-127.738	-15.237	-46.545	-127.413	-121.608	-121.178	-113.054	59.102	-113.064	-8191	255	
870.946	1	1	0	0	0.15128	0.16645	0.16952	0.19191	0.13377	0.06957	0.071371	0.25627	0.13193	0.16084	0.12106	0.26846	0.01586	0.19998	0.0075092	0.20394	-4.45	-3.9833	-4.9062	-4.3271	-4.1042	-5.0792	-3.9917	-4.6646	-4.8375	-4.0563	-4.9354	-4.4437	-4.1875	-5.0604	-4.2292	-4.4042	35.513	112.642	-15.561	163.187	-108.451	154.877	-87.609	-133.006	2.774	47.458	-89.196	189.906	-66.768	-52.916	-54.164	140.860	0.00019881	0.00025464	6.1722e-05	1049.6	2.9663e-06	2.2617e-06	1139.3	212.65	3.7923e-06	3.5647e-06	269.88	76.272	60.052	17.369	1.1649e-06	23.8	0.00040792	0.00043012	0.00011823	1034.3	4.7144e-06	4.5822e-06	1127	212.38	4.6446e-06	4.663e-06	269.58	77.532	60.785	17.642	4.7369e-06	24.665	188.244	138.839	48.243	-134.743	-3.824	-16.629	-134.957	-127.245	-25.818	-143.989	-127.499	-121.495	-120.946	-112.829	30.833	-113.364	-8191	255	
871.042	1	1	0	0	0.15286	0.14428	0.14806	0.15433	0.13679	0.13253	0.20602	0.28365	0.18571	0.13826	0.20884	0.19898	0.14976	0.07284	0.14618	0.071435	-4.65	-3.8958	-4.7438	-4.6875	-3.9729	-4.9792	-4.3354	-4.3667	-4.7812	-4	-4.8542	-4.6687	-3.9938	-5.1354	-4.2479	-4.1417	184.573	-25.462	68.844	-115.560	203.204	-45.175	85.966	174.103	-91.280	176.002	132.728	-142.649	-126.330	-32.938	49.635	80.868	0.00021889	0.00029558	9.1158e-05	1052.5	1.693e-06	6.0528e-06	1140.3	213.04	6.6904e-06	2.1085e-06	270.48	76.61	59.883	17.272	2.1922e-06	24.108	0.00041851	0.00043476	0.00012107	1033.2	4.8879e-06	4.6677e-06	1128	212.92	4.8072e-06	4.8425e-06	270.28	77.843	60.843	17.66	4.9854e-06	24.771	187.434	132.200	-123.526	-134.494	46.439	37.699	-134.865	-127.309	-7.733	89.829	-127.479	-121.285	-120.976	-113.430	-53.949	-113.624	-8191	255	
871.163	1	1	0	0	0.36618	0.062897	0.11723	0.2279	0.094485	0.14601	0.28791	0.060261	0.059528	0.11287	0.072452	0.17157	0.093056	0.2575	0.205	0.40678	-4.7312	-3.9479	-4.5687	-4.8771	-4.0333	-4.9583	-4.4479	-4.2688	-4.8125	-4.0833	-4.5167	-4.7688	-3.9354	-4.8812	-4.1604	-4.35	130.479	121.864	-89.248	-140.570	-128.621	-82.336	109.092	16.871	149.052	86.406	33.619	-82.333	0.394	19.366	130.109	28.492	0.00019949	0.00037284	0.0001211	1048.6	1.521e-06	2.2424e-06	1141.9	213.49	2.6852e-06	5.55e-06	269.97	76.478	59.928	17.285	4.273e-06	24.079	0.00042763	0.00045478	0.00012688	1033.9	5.0543e-06	5.0461e-06	1128.4	212.7	5.0939e-06	5.0675e-06	270.4	77.852	60.896	17.77	5.098e-06	24.781	188.759	-76.704	-89.011	-134.445	-23.799	-51.468	-134.787	-127.361	-9.297	-3.903	-127.147	-121.255	-120.522	-113.047	193.891	-113.760	-8191	255	
871.259	1	1	0	0	0.10266	0.07484	0.054569	0.35445	0.14247	0.26682	0.19876	0.10147	0.040188	0.12197	0.21254	0.14107	0.33482	0.14794	0.16474	0.18077	-4.5417	-4.0479	-4.4104	-4.8667	-3.8812	-4.9104	-4.5167	-4.1937	-4.7396	-3.9875	-4.4271	-4.8	-4.1521	-4.7896	-4.3542	-4.325	-67.121	-75.922	-78.260	195.882	185.060	-36.002	182.871	162.192	66.929	97.428	-91.869	-74.496	200.916	209.480	-108.939	-87.642	0.0001705	0.00022607	0.00010081	1060.5	5.1103e-06	7.1282e-07	1138.9	212.89	4.7136e-06	1.7609e-06	268.91	76.984	60.034	17.285	2.673e-06	24.113	0.00044358	0.00046073	0.00012887	1039.4	5.1751e-06	5.026e-06	1127.7	213.23	4.9256e-06	4.9219e-06	270.59	77.81	60.825	17.687	4.915e-06	24.791	164.455	-68.947	-94.440	-134.335	8.169	-74.180	-134.510	-127.177	55.320	-2.346	-127.411	-121.002	-120.791	-112.800	12.672	-113.662	-8191	255	
871.331	1	1	0	0	0.2185	0.19563	0.083774	0.052409	0.23002	0.23452	0.11919	0.19572	0.072965	0.077145	0.061258	0.22419	0.15719	0.083764	0.14104	0.084766	-4.5458	-4.1104	-4.3688	-5.0188	-3.7979	-4.7083	-4.5229	-4.1792	-4.9292	-4.1792	-4.2104	-4.8479	-3.9146	-4.7812	-4.6208	-3.9833	-105.867	9.963	57.945	67.873	-64.320	-88.719	170.331	-81.519	168.803	111.208	121.140	212.038	180.009	-52.477	-21.163	22.557	0.00018831	0.00048016	1.5301e-05	1053.5	3.1534e-06	7.1301e-07	1146.3	214.2	1.3581e-06	2.8972e-06	270.51	77.289	59.926	17.144	2.5453e-06	24.029	0.00042449	0.00043716	0.00012315	1035.2	4.854e-06	4.9078e-06	1130.3	213.14	4.7656e-06	4.819e-06	270.62	78.034	60.853	17.689	4.8724e-06	24.767	173.728	-120.133	63.048	-134.896	38.872	6.988	-134.680	-127.394	-46.202	70.359	-127.570	-121.482	-121.263	-112.854	80.257	-113.802	-8191	255	
871.427	1	1	0	0	0.07199	0.113	0.10541	0.33757	0.15464	0.075499	0.23026	0.11514	0.31101	0.10555	0.13131	0.087343	0.20717	0.20558	0.21257	0.2434	-4.4479	-4.3562	-4.1062	-4.7875	-4.1708	-4.3521	-5.0854	-4.0083	-4.8708	-4.3792	-4.0938	-5.0521	-4.2438	-4.4021	-4.6729	-3.9562	-129.688	-97.836	181.879	131.925	-141.676	89.310	127.536	43.129	-68.856	73.374	-130.006	194.038	202.295	-34.836	-45.776	-117.000	0.0002009	0.00015711	0.00015128	1051.7	3.5632e-06	2.32e-06	1143	212.02	2.4292e-06	2.6257e-06	270.35	77.296	59.935	17.141	5.6158e-06	24.008	0.00042401	0.00044184	0.00012354	1036	4.7629e-06	4.8021e-06	1129.4	212.56	4.7869e-06	4.754e-06	270.46	77.925	60.737	17.669	4.849e-06	24.691	185.291	-65.768	-10.888	-134.380	-14.523	26.624	-134.861	-127.366	-90.233	-27.755	-127.624	-121.228	-120.575	-112.898	63.419	-113.213	-8191	255	
871.548	1	1	0	0	0.085492	0.076053	0.11499	0.12159	0.089699	0.14144	0.15936	0.21388	0.17883	0.20543	0.1601	0.34419	0.04987	0.033279	0.2025	0.14896	-4.5542	-4.1375	-4.0938	-5.1	-4.1417	-4.4083	-4.9646	-4.1854	-4.6125	-4.575	-4.1792	-5.0146	-4.225	-4.2562	-4.7396	-3.8896	194.092	111.035	13.744	-141.568	141.980	22.893	172.621	-114.855	10.150	-122.478	175.458	183.057	26.333	25.224	-80.917	205.340	0.0001909	7.1571e-05	0.0001667	1052.6	4.4333e-06	2.8544e-06	1141.1	211.9	3.7673e-07	1.6458e-06	270.84	76.561	60.013	17.128	1.9557e-06	24.027	0.00041791	0.00043604	0.0001216	1034.7	4.766e-06	4.7675e-06	1127.8	212.44	4.6973e-06	4.6802e-06	269.95	77.691	60.721	17.668	4.9618e-06	24.823	166.068	-77.226	-20.151	-134.549	-8.047	60.064	-134.956	-127.282	-84.718	138.540	-127.189	-121.130	-120.940	-112.583	193.302	-113.599	-8191	255	
871.642	1	1	0	0	0.065486	0.064421	0.14887	0.15208	0.18811	0.24571	0.070787	0.21472	0.21471	0.21122	0.20079	0.15585	0.14245	0.18886	0.23816	0.20924	-4.3812	-4.6104	-4.0458	-4.9875	-4.2646	-4.4375	-5.2354	-3.9917	-4.4688	-4.5375	-4.0833	-4.9875	-4.2146	-4.1562	-4.9458	-4.2229	89.110	-61.091	81.749	200.370	-45.958	-135.813	155.543	-34.761	-25.448	154.660	-105.677	103.397	-98.108	-13.899	25.618	64.884	0.00016622	0.00035642	5.7137e-05	1052.3	1.3569e-06	5.1464e-06	1142.8	213.34	3.7242e-06	3.6731e-06	270.2	76.378	59.756	17.132	5.2926e-06	24.116	0.00043297	0.00046036	0.00012991	1035.6	5.1612e-06	5.2988e-06	1131.5	213.42	5.1543e-06	5.1526e-06	270.37	77.763	60.795	17.665	4.9664e-06	24.807	186.058	-67.646	-127.266	-134.423	-49.557	11.655	-134.614	-127.153	23.173	80.866	-127.627	-121.163	-120.641	-112.764	27.442	-113.600	-8191	255	
871.738	1	1	0	0	0.073419	0.21887	0.15361	0.16995	0.15907	0.19779	0.19605	0.17069	0.14053	0.14352	0.26278	0.11102	0.20882	0.0975	0.19731	0.29851	-4.1771	-4.7146	-3.975	-4.8812	-4.1583	-4.2917	-4.9375	-3.9604	-4.5521	-4.7104	-3.9771	-4.7604	-4.425	-4.1146	-4.8729	-4.2167	-54.404	145.738	-140.904	-61.181	33.558	-56.578	136.866	191.255	77.435	10.856	163.123	213.294	153.707	95.511	138.442	131.316	0.00019368	0.00030294	7.6125e-05	1055.8	2.1484e-06	3.4048e-06	1143.2	213.06	4.2487e-06	3.1897e-06	271.27	76.651	59.531	17.255	3.0597e-06	24.085	0.0004181	0.00043124	0.00012154	1035.3	4.5861e-06	4.645e-06	1127.5	212.18	4.6804e-06	4.6866e-06	270.04	77.738	60.878	17.702	4.9719e-06	24.807	182.866	191.165	197.816	-134.761	-85.776	-69.875	-134.688	-127.327	-26.820	22.481	-127.904	-121.536	-120.760	-113.004	-12.532	-113.696	-8191	255	
871.834	1	1	0	0	0.21645	0.079869	0.13956	0.15219	0.057932	0.1122	0.15837	0.088295	0.059151	0.15685	0.19174	0.058899	0.1236	0.08592	0.20707	0.099815	-4.1062	-4.6042	-3.9104	-4.6958	-4.2958	-4.0521	-4.9458	-4.2479	-4.2646	-4.8042	-4.225	-4.7146	-4.6	-4.0958	-4.8812	-4.2458	196.890	199.312	180.018	-130.310	194.437	-118.986	160.175	111.449	-44.943	-14.062	211.576	181.483	0.222	-98.011	-10.604	-49.937	0.00024215	0.00027837	4.0384e-05	1048.4	2.3902e-06	1.7046e-06	1149.8	212.67	4.848e-06	2.3727e-06	271.15	76.247	60.292	17.243	1.4987e-06	23.992	0.0004403	0.00046261	0.00013217	1034.7	5.2499e-06	5.2836e-06	1131.9	212.93	5.3359e-06	5.3207e-06	271.22	78	61.265	17.729	5.354e-06	24.89	187.175	25.328	81.101	-134.519	-24.896	7.391	-134.715	-126.949	-34.924	-74.889	-127.531	-121.049	-120.617	-112.817	89.148	-113.204	-8191	255	
871.955	1	1	0	0	0.060364	0.055962	0.2181	0.037716	0.11779	0.082998	0.14895	0.11946	0.18523	0.22469	0.081452	0.041627	0.095969	0.16007	0.16901	0.15304	-4.0542	-4.7417	-4.025	-4.55	-4.5583	-3.9375	-4.8729	-4.3542	-4.2271	-4.8583	-4.1042	-4.6271	-4.5938	-3.9625	-4.725	-4.3604	-44.732	-80.860	-99.028	100.625	128.757	132.879	152.789	-141.009	-66.990	135.745	82.717	170.942	155.737	-123.342	-38.055	-135.022	0.00022151	4.1834e-05	0.00011253	1054.9	5.1152e-06	4.047e-06	1151	213.63	3.7385e-06	2.8652e-06	271.84	76.952	60.245	17.218	5.558e-06	24.144	0.00045857	0.00048007	0.0001313	1042.8	5.1889e-06	5.2922e-06	1134.9	213.61	5.4683e-06	5.5021e-06	272.24	78.265	61.373	17.841	5.6108e-06	24.952	190.670	100.988	-72.850	-134.904	-21.772	164.533	-134.946	-127.162	-2.998	-29.536	-127.335	-120.929	-120.834	-112.472	-50.795	-113.621	-8191	255	
872.027	1	1	0	0	0.22802	0.055924	0.17183	0.042675	0.075656	0.098991	0.24704	0.22707	0.22116	0.015427	0.25844	0.16203	0.064925	0.16277	0.20639	0.16891	-3.8896	-4.9	-4.05	-4.475	-4.6312	-3.8771	-5.0708	-4.3021	-4.0437	-4.7937	-4.1333	-4.5	-4.9375	-3.8708	-4.65	-4.4208	-31.321	-19.661	-131.055	-48.273	29.720	63.412	186.016	79.431	130.763	-64.998	75.773	-66.152	-104.076	-85.734	-4.172	68.593	0.00025906	0.00052262	6.4667e-05	1057.9	4.0212e-06	8.2723e-07	1154	214.21	1.3794e-06	4.1914e-06	272.99	77.169	60.305	17.293	3.141e-06	24.12	0.00048157	0.00050001	0.00013927	1043.4	5.2585e-06	5.2858e-06	1138.6	214.41	5.125e-06	5.023e-06	271.88	78.188	61.3	17.802	5.0356e-06	24.842	192.204	27.370	66.466	-134.617	-116.651	-139.495	-134.630	-127.195	-20.617	4.336	-127.202	-121.190	-120.473	-112.951	6.020	-113.236	-8191	255	
872.147	1	1	0	0	0.057079	0.17883	0.13023	0.11882	0.19332	0.14728	0.26241	0.16708	0.11634	0.1097	0.1739	0.20398	0.23181	0.062663	0.23351	0.069576	-3.6583	-4.8396	-4.0062	-4.4542	-4.7229	-4.0833	-4.6875	-4.5583	-3.9188	-4.7021	-4.2917	-4.3438	-4.8375	-3.8146	-4.6042	-4.5979	149.906	-129.523	119.298	158.977	30.707	125.856	154.513	-65.012	-27.995	-14.786	154.218	-91.823	144.840	58.871	53.472	195.147	0.00021376	0.00045539	6.8514e-05	1065.3	2.529e-06	3.3106e-06	1151	214.82	7.1854e-07	1.8044e-06	272.95	76.812	60.584	17.32	2.7392e-06	24.271	0.00043351	0.00045029	0.00012616	1044.8	4.9597e-06	4.999e-06	1137	213.87	5.1599e-06	5.0015e-06	271.34	78.056	61.372	17.802	5.1202e-06	24.876	174.995	-6.205	6.394	-135.094	-99.984	16.249	-134.608	-127.461	0.382	-39.528	-127.242	-121.459	-121.000	-112.992	-21.280	-113.304	-8191	255	
872.243	1	1	0	0	0.12121	0.19214	0.074503	0.028039	0.13299	0.43951	0.061846	0.043616	0.1482	0.049227	0.35912	0.15467	0.32985	0.040554	0.11333	0.16852	-3.8563	-4.7958	-4.0875	-4.3438	-4.8	-3.9313	-4.6792	-4.6188	-4.1229	-4.9917	-4.2583	-4.2354	-4.8083	-4.1062	-4.4375	-4.8417	207.598	13.012	51.998	-43.466	41.482	-87.169	-104.333	-127.859	-10.356	-87.447	173.237	174.794	-86.503	-16.596	-111.579	90.524	0.00022014	0.00025101	0.00011598	1059.3	1.5984e-06	3.9357e-06	1151.3	214.68	4.5884e-06	1.807e-06	272.99	77.722	60.351	17.356	2.8553e-06	24.127	0.00045184	0.00047176	0.00013141	1044.2	5.0877e-06	5.1954e-06	1138.3	214	5.29e-06	5.3028e-06	272.08	78.469	61.514	17.855	5.5153e-06	24.924	173.919	-45.713	-19.536	-134.493	7.749	16.134	-134.814	-126.819	-80.711	66.266	-127.482	-121.635	-121.305	-112.849	16.613	-113.464	-8191	255	
872.340	1	1	0	0	0.056194	0.2265	0.077833	0.049582	0.016503	0.24019	0.13181	0.17733	0.19965	0.059083	0.13953	0.20684	0.18286	0.10404	0.15632	0.12773	-3.475	-4.7208	-4.3063	-4.1708	-5.0104	-3.9917	-4.5667	-4.6833	-4.0437	-4.6729	-4.5542	-4.2271	-5.0604	-4.0458	-4.2583	-4.9625	27.391	92.596	-143.708	-90.992	71.214	66.828	203.365	140.105	-37.826	161.306	144.518	206.355	111.738	-135.783	67.312	-31.869	0.0001599	0.00088188	3.7927e-05	1065.7	4.2952e-06	1.9402e-06	1146.8	214.26	2.364e-06	4.8309e-06	272.98	76.98	60.607	17.305	3.1708e-06	23.988	0.00047608	0.00050308	0.00013783	1046.2	5.4408e-06	5.4466e-06	1137.7	214.26	5.5181e-06	5.4224e-06	272.4	78.35	61.367	17.828	5.6326e-06	24.95	194.433	202.693	-81.652	-134.586	-19.134	-128.543	-134.478	-127.009	23.568	12.324	-126.947	-121.056	-121.039	-112.452	-33.107	-113.560	-8191	255	
872.436	1	1	0	0	0.13362	0.079526	0.14468	0.21216	0.1486	0.28777	0.14017	0.19897	0.016558	0.20172	0.16419	0.27629	0.085627	0.17684	0.21706	0.064674	-3.6937	-4.5833	-4.5042	-3.9625	-4.9062	-4.1104	-4.4583	-4.9792	-3.8417	-4.5083	-4.7667	-3.9542	-4.9854	-4.4958	-4.0833	-5.0125	-2.153	150.053	78.765	91.812	89.292	129.313	109.195	129.511	144.819	-63.618	168.022	205.386	-23.059	-87.099	-133.534	170.768	0.00013749	0.00057297	2.983e-05	1060.9	1.0369e-06	4.3991e-06	1149.6	213.47	3.0013e-06	1.7116e-06	271.63	76.34	60.482	17.317	8.9878e-07	24.068	0.00049328	0.00052117	0.00014318	1045.9	5.7337e-06	5.7704e-06	1137.5	214.51	5.9698e-06	5.9408e-06	272.61	78.251	61.663	17.949	6.036e-06	25.005	186.195	-76.164	208.606	-134.586	-18.093	47.515	-134.628	-127.207	183.445	-9.401	-127.123	-121.063	-120.649	-112.951	-89.596	-113.228	-8191	255	
872.555	1	1	0	0	0.042734	0.25688	0.14609	0.23014	0.11813	0.12769	0.11679	0.22593	0.14243	0.15268	0.10105	0.046593	0.12621	0.21245	0.22057	0.052337	-3.7583	-4.5521	-4.6271	-3.9833	-4.7354	-4.3104	-4.1792	-5.0771	-4.1042	-4.3917	-4.9042	-3.8417	-4.8833	-4.4729	-3.9875	-4.8021	-26.550	208.346	75.365	160.208	66.136	198.695	169.766	-130.468	-97.546	-107.852	203.665	192.277	-34.610	-12.168	90.776	133.864	0.00018752	0.00051123	6.513e-05	1057	6.3367e-06	3.0317e-06	1158.8	214.61	2.0707e-06	2.8408e-06	275.1	76.785	60.759	17.316	4.6809e-06	24.137	0.00052023	0.00055493	0.00015268	1048.6	6.1005e-06	5.9891e-06	1144.5	215.07	6.047e-06	5.9774e-06	273.8	78.582	61.89	17.964	6.0118e-06	25.046	173.599	-48.402	-48.730	-134.888	-14.994	74.820	-134.791	-127.385	-27.303	5.704	-127.338	-121.218	-120.288	-112.652	-39.821	-113.551	-8191	255	
872.626	1	1	0	0	0.084372	0.10291	0.18662	0.16543	0.09392	0.27626	0.14652	0.35746	0.075438	0.17345	0.13209	0.23954	0.13305	0.2367	0.026343	0.20465	-3.7583	-4.3792	-4.6479	-4.1521	-4.6896	-4.4896	-4.1083	-4.9375	-4.15	-4.1813	-4.8146	-3.9167	-4.7271	-4.5521	-4.0271	-4.8833	48.471	-33.973	83.368	139.612	-27.107	86.347	-119.500	137.769	210.515	-1.296	213.538	120.972	132.761	-68.606	-22.197	-131.338	0.00022905	0.00085838	0.00018612	1062.4	7.7371e-06	5.5041e-06	1156.6	214.87	3.6122e-06	2.6394e-06	274.04	77.278	60.579	17.066	3.1967e-06	24.151	0.00050907	0.00053378	0.00014857	1049.3	5.8549e-06	5.7467e-06	1141.4	214.8	5.5463e-06	5.648e-06	273.43	78.394	61.59	17.8	5.4853e-06	24.905	176.185	-73.135	-56.610	-134.549	-9.883	10.975	-134.679	-126.889	-125.798	-15.665	-127.574	-121.158	-120.374	-112.651	55.705	-113.447	-8191	255	
872.722	1	1	0	0	0.20858	0.14803	0.09257	0.15878	0.12266	0.081611	0.12866	0.075496	0.13137	0.042856	0.15108	0.18544	0.16147	0.2652	0.1792	0.11878	-3.8812	-4.2375	-4.7937	-3.9229	-4.7125	-4.6188	-4.1479	-5.0604	-4.3125	-4.1104	-4.9458	-4.0479	-4.5708	-4.7104	-3.9917	-4.8375	185.843	5.523	-21.446	-80.636	208.366	126.273	182.371	-76.579	48.295	153.395	-64.790	-115.157	-130.735	99.695	-144.559	157.127	0.00016677	0.00033708	0.00013747	1059	2.6133e-06	3.2928e-06	1151.9	214.52	9.5535e-07	1.2012e-06	273.96	76.928	60.243	17.241	2.3228e-06	23.991	0.00045503	0.00047862	0.00013304	1042.8	5.149e-06	5.1545e-06	1136.4	214.07	5.1799e-06	5.2117e-06	272.7	78.203	61.284	17.796	5.4858e-06	24.897	195.093	211.336	-55.494	-134.432	-94.256	77.561	-134.630	-126.639	-33.323	-21.982	-127.115	-121.209	-120.579	-112.900	12.678	-113.623	-8191	255	
#DATA ENDS
