BOXY.EXE: ISS Imagent and Oximeter Data Acquisition Program Version 0.80
Ascii Record File

#ACQ INFORMATION
2  Detector Channels 
16  External MUX Channels 
1  Auxiliary Channels 
5000  Waveform (CCF) Frequency (Hz)
1  Waveforms Skipped 
30  Waveforms Averaged 
1  Cycles Averaged 
16  Acquisitions per Waveform 
10.0806  Updata Rate (Hz) 

#FILE INFORMATION
TRUE -- External MUX Channel results are PARSED.
FALSE -- AC DC and Phase are NOT grouped.
TRUE -- Companion Program Settings File CREATED.
FALSE -- AC data not excluded
FALSE -- DC data not excluded
FALSE -- Phase data not excluded
FALSE -- Auxillary Chn. data not excluded
Tab delimiters

#CALIBRATION STATE
TRUE -- Waveform Calibration Values APPLIED.


#AUX CALIBRATION VALUES
Val Type	aux-1	

Term	1.0000e+00	
Factor	0.0000e+00	


#WF CALIBRATION VALUES
A = Detector Channel
Val Type	A-AC1	A-AC2	A-AC3	A-AC4	A-AC5	A-AC6	A-AC7	A-AC8	A-AC9	A-AC10	A-AC11	A-AC12	A-AC13	A-AC14	A-AC15	A-AC16	A-DC1	A-DC2	A-DC3	A-DC4	A-DC5	A-DC6	A-DC7	A-DC8	A-DC9	A-DC10	A-DC11	A-DC12	A-DC13	A-DC14	A-DC15	A-DC16	A-Ph1	A-Ph2	A-Ph3	A-Ph4	A-Ph5	A-Ph6	A-Ph7	A-Ph8	A-Ph9	A-Ph10	A-Ph11	A-Ph12	A-Ph13	A-Ph14	A-Ph15	A-Ph16	

Term	0.00000e+00	0.00000e+00	0.00000e+00	0.00000e+00	0.00000e+00	0.00000e+00	0.00000e+00	0.00000e+00	0.00000e+00	0.00000e+00	0.00000e+00	0.00000e+00	0.00000e+00	0.00000e+00	0.00000e+00	0.00000e+00	0.00000e+00	0.00000e+00	0.00000e+00	0.00000e+00	0.00000e+00	0.00000e+00	0.00000e+00	0.00000e+00	0.00000e+00	0.00000e+00	0.00000e+00	0.00000e+00	0.00000e+00	0.00000e+00	0.00000e+00	0.00000e+00	0.00000e+00	0.00000e+00	0.00000e+00	0.00000e+00	0.00000e+00	0.00000e+00	0.00000e+00	0.00000e+00	0.00000e+00	0.00000e+00	0.00000e+00	0.00000e+00	0.00000e+00	0.00000e+00	0.00000e+00	0.00000e+00	
Factor	1.00000e+00	1.00000e+00	1.00000e+00	1.00000e+00	1.00000e+00	1.00000e+00	1.00000e+00	1.00000e+00	1.00000e+00	1.00000e+00	1.00000e+00	1.00000e+00	1.00000e+00	1.00000e+00	1.00000e+00	1.00000e+00	1.00000e+00	1.00000e+00	1.00000e+00	1.00000e+00	1.00000e+00	1.00000e+00	1.00000e+00	1.00000e+00	1.00000e+00	1.00000e+00	1.00000e+00	1.00000e+00	1.00000e+00	1.00000e+00	1.00000e+00	1.00000e+00	X	X	X	X	X	X	X	X	X	X	X	X	X	X	X	X	

B = Detector Channel
Val Type	B-AC1	B-AC2	B-AC3	B-AC4	B-AC5	B-AC6	B-AC7	B-AC8	B-AC9	B-AC10	B-AC11	B-AC12	B-AC13	B-AC14	B-AC15	B-AC16	B-DC1	B-DC2	B-DC3	B-DC4	B-DC5	B-DC6	B-DC7	B-DC8	B-DC9	B-DC10	B-DC11	B-DC12	B-DC13	B-DC14	B-DC15	B-DC16	B-Ph1	B-Ph2	B-Ph3	B-Ph4	B-Ph5	B-Ph6	B-Ph7	B-Ph8	B-Ph9	B-Ph10	B-Ph11	B-Ph12	B-Ph13	B-Ph14	B-Ph15	B-Ph16	

Term	0.00000e+00	0.00000e+00	0.00000e+00	0.00000e+00	0.00000e+00	0.00000e+00	0.00000e+00	0.00000e+00	0.00000e+00	0.00000e+00	0.00000e+00	0.00000e+00	0.00000e+00	0.00000e+00	0.00000e+00	0.00000e+00	0.00000e+00	0.00000e+00	0.00000e+00	0.00000e+00	0.00000e+00	0.00000e+00	0.00000e+00	0.00000e+00	0.00000e+00	0.00000e+00	0.00000e+00	0.00000e+00	0.00000e+00	0.00000e+00	0.00000e+00	0.00000e+00	-1.50286e+02	-1.28179e+02	-1.21349e+02	-1.82838e+02	-7.38202e+01	-6.86517e+01	-1.55822e+02	-1.62015e+02	-7.29113e+01	-6.79823e+01	-1.70826e+02	-1.70724e+02	-1.80370e+02	-1.76266e+02	-6.49426e+01	-1.48473e+02	
Factor	2.23038e-05	1.70172e-04	3.80664e-05	2.18512e-01	1.33480e-06	1.47544e-06	1.70849e-01	6.06101e-02	1.17230e-06	1.44139e-06	8.98913e-02	2.97864e-02	2.76328e-02	9.32721e-03	1.30128e-06	1.34466e-02	3.00195e-06	3.32187e-06	9.25624e-07	1.11221e-01	3.61816e-08	3.65802e-08	8.21001e-02	3.10359e-02	3.62532e-08	3.66873e-08	4.44963e-02	1.48016e-02	1.42663e-02	4.80361e-03	3.65987e-08	6.70235e-03	X	X	X	X	X	X	X	X	X	X	X	X	X	X	X	X	



#DISTANCE SETTINGS
A = Detector Channel
A-1	A-2	A-3	A-4	A-5	A-6	A-7	A-8	A-9	A-10	A-11	A-12	A-13	A-14	A-15	A-16	

2.5000e+00	3.0000e+00	2.5000e+00	3.0000e+00	2.0000e+00	3.0000e+00	1.5000e+00	3.0000e+00	3.0000e+00	3.0000e+00	3.0000e+00	3.0000e+00	3.0000e+00	3.0000e+00	1.5000e+00	3.0000e+00	

B = Detector Channel
B-1	B-2	B-3	B-4	B-5	B-6	B-7	B-8	B-9	B-10	B-11	B-12	B-13	B-14	B-15	B-16	

1.0000e+01	1.0000e+01	1.0000e+01	1.4400e+00	1.0000e+01	1.0000e+01	1.5100e+00	1.9400e+00	1.0000e+01	1.0000e+01	1.9900e+00	2.4900e+00	2.4100e+00	2.9000e+00	1.0000e+01	2.9800e+00	




#DATA BEGINS
time	group	step	mark	flag	A-AC1	A-AC2	A-AC3	A-AC4	A-AC5	A-AC6	A-AC7	A-AC8	A-AC9	A-AC10	A-AC11	A-AC12	A-AC13	A-AC14	A-AC15	A-AC16	A-DC1	A-DC2	A-DC3	A-DC4	A-DC5	A-DC6	A-DC7	A-DC8	A-DC9	A-DC10	A-DC11	A-DC12	A-DC13	A-DC14	A-DC15	A-DC16	A-Ph1	A-Ph2	A-Ph3	A-Ph4	A-Ph5	A-Ph6	A-Ph7	A-Ph8	A-Ph9	A-Ph10	A-Ph11	A-Ph12	A-Ph13	A-Ph14	A-Ph15	A-Ph16	B-AC1	B-AC2	B-AC3	B-AC4	B-AC5	B-AC6	B-AC7	B-AC8	B-AC9	B-AC10	B-AC11	B-AC12	B-AC13	B-AC14	B-AC15	B-AC16	B-DC1	B-DC2	B-DC3	B-DC4	B-DC5	B-DC6	B-DC7	B-DC8	B-DC9	B-DC10	B-DC11	B-DC12	B-DC13	B-DC14	B-DC15	B-DC16	B-Ph1	B-Ph2	B-Ph3	B-Ph4	B-Ph5	B-Ph6	B-Ph7	B-Ph8	B-Ph9	B-Ph10	B-Ph11	B-Ph12	B-Ph13	B-Ph14	B-Ph15	B-Ph16	aux-1	digaux	

1625.822	1	1	0	256	0.22681	0.13304	0.14909	0.026782	0.12608	0.15417	0.14291	0.081811	0.11717	0.059636	0.046064	0.14832	0.075197	0.064149	0.05305	0.23596	-4.3583	-4.4292	-3.9271	-4.9646	-4.1062	-4.2333	-4.8917	-4.0208	-4.6562	-4.6125	-3.9875	-4.9042	-4.3021	-4.2979	-4.6771	-4.0917	-1.313	331.377	-6.139	253.860	-1.231	309.193	246.915	33.488	259.608	77.489	303.927	15.473	258.516	16.360	126.346	194.274	0.00025922	0.0003657	8.7299e-05	689.52	2.6285e-06	2.7487e-06	736.05	213.92	1.766e-06	3.3647e-06	257.93	102.07	74.721	34.123	2.1357e-06	52.604	7.1997e-05	3.5364e-05	1.0267e-05	693.45	4.1202e-07	3.8813e-07	745.81	217.19	4.1774e-07	3.6672e-07	261.59	104.15	76.666	35.074	4.0937e-07	53.599	123.839	60.825	52.858	-15.883	97.338	108.793	-16.811	-10.372	127.453	145.880	-11.926	-6.629	-5.164	0.070	131.151	-2.440	-8191	255	
1625.918	1	1	0	0	0.16933	0.16399	0.075241	0.2193	0.093567	0.24025	0.077711	0.031619	0.13762	0.16369	0.065357	0.10987	0.079792	0.25379	0.065429	0.10493	-4.1021	-4.5229	-4.0854	-4.7625	-4.2562	-4.2188	-4.9542	-4.05	-4.4854	-4.6854	-4.1562	-4.8146	-4.3708	-4.1104	-4.8042	-4.1917	231.866	132.215	183.278	-8.848	27.874	262.919	167.976	327.469	299.691	326.936	118.043	250.711	268.271	-27.780	63.699	293.199	0.00025955	0.00038281	8.5767e-05	693.8	1.4998e-06	2.8876e-06	739.96	214.44	2.4284e-06	2.6941e-06	260.41	102.52	75.164	34.338	3.3749e-06	52.932	7.2497e-05	3.3433e-05	9.667e-06	695.56	3.9724e-07	3.6268e-07	747.36	217.91	4.2862e-07	3.4348e-07	263.01	104.73	76.917	35.173	4.0739e-07	53.96	123.277	57.201	64.660	-16.032	119.484	100.452	-16.959	-10.567	130.428	114.969	-12.267	-7.073	-5.468	0.296	124.882	-2.380	-8191	255	
1626.014	1	1	0	0	0.19545	0.067838	0.13222	0.15593	0.15116	0.15393	0.13352	0.084733	0.1404	0.035324	0.059252	0.093773	0.076922	0.24754	0.17377	0.12002	-3.9333	-4.7583	-3.825	-4.6521	-4.3688	-4.1396	-4.9042	-4.0229	-4.2854	-4.7	-3.9667	-4.7521	-4.7333	-4.0208	-4.7625	-4.4104	72.238	47.813	237.412	309.559	60.200	186.337	236.325	202.835	68.931	206.370	71.926	307.375	11.750	309.711	206.075	275.283	0.00026718	0.00043164	5.8601e-05	691.23	2.2124e-06	3.967e-06	738.28	213.92	1.4602e-06	3.9136e-06	261.68	102.9	75.355	34.046	3.3912e-06	53.205	7.488e-05	3.344e-05	9.7731e-06	695.7	4.1187e-07	3.8722e-07	749.37	217.86	4.2409e-07	3.5946e-07	264.16	105.13	77.013	35.141	4.0281e-07	54.202	112.944	60.219	67.486	-15.881	113.674	106.321	-17.040	-10.620	125.781	111.728	-12.082	-7.240	-5.263	0.429	113.589	-2.773	-8191	255	
1626.110	1	1	0	0	0.056464	0.17001	0.095826	0.080016	0.076949	0.15233	0.12598	0.23553	0.23198	0.14352	0.11362	0.027131	0.19386	0.16528	0.045701	0.095551	-3.9396	-4.8792	-3.8812	-4.5583	-4.6292	-3.9396	-5.0229	-4.2438	-4.0917	-4.7771	-4.0646	-4.4708	-4.8146	-3.9292	-4.9083	-4.4417	240.042	164.220	77.086	-25.218	39.542	25.468	177.924	306.370	4.668	184.615	7.932	203.543	311.170	286.016	181.182	281.003	0.00024593	0.00040755	8.8145e-05	687.23	3.2501e-06	2.7508e-06	740.82	214.83	1.7932e-06	3.9833e-06	260.47	102.11	74.912	34.235	2.9719e-06	52.617	7.199e-05	3.3073e-05	1.012e-05	696.31	3.7003e-07	4.1572e-07	750.11	218.29	4.3995e-07	3.7115e-07	263.62	104.49	76.975	35.155	3.9641e-07	53.678	122.142	60.691	61.487	-16.222	137.682	129.389	-17.173	-10.754	119.354	118.523	-12.120	-6.892	-5.353	0.189	140.089	-2.467	-8191	255	
1626.231	1	1	0	0	0.051367	0.051315	0.10606	0.11481	0.04292	0.20517	0.14879	0.15536	0.090244	0.067338	0.22542	0.078053	0.24335	0.042539	0.20852	0.12948	-3.6625	-4.8958	-4.0375	-4.425	-4.7604	-4.025	-4.7354	-4.4417	-4.0875	-4.8792	-4.2375	-4.4083	-4.6833	-3.9896	-4.7312	-4.5	-6.798	268.031	295.426	318.232	149.563	174.150	326.308	266.836	231.640	-0.482	55.695	12.752	302.205	38.223	45.717	310.387	0.00026996	0.00045207	9.5541e-05	685.9	2.7988e-06	4.0516e-06	738.68	213.99	2.7724e-06	2.6229e-06	258.54	101.37	75.321	34.073	2.8293e-06	52.262	7.3041e-05	3.3343e-05	9.9485e-06	693.93	3.7734e-07	3.7746e-07	747.01	217.88	4.2824e-07	3.1521e-07	261.91	103.91	76.713	35.005	4.1395e-07	53.433	119.143	72.246	76.981	-16.217	117.064	111.735	-16.904	-10.431	112.905	138.677	-11.970	-6.592	-5.225	0.620	133.709	-2.262	-8191	255	
1626.325	1	1	0	0	0.036417	0.10926	0.13529	0.15523	0.20838	0.22686	0.17356	0.069811	0.2812	0.12797	0.028955	0.10336	0.16342	0.10831	0.13428	0.26984	-3.7771	-4.9042	-4.1667	-4.2625	-4.7854	-3.9021	-4.7833	-4.6354	-3.8625	-4.9917	-4.3625	-4.35	-5.075	-4.0042	-4.6042	-4.8938	102.533	-26.531	1.696	210.338	-7.476	170.507	1.284	-6.027	146.086	48.906	182.842	174.573	76.238	152.724	56.963	244.535	0.00027878	0.00044025	8.4392e-05	688.02	1.9406e-06	2.8966e-06	736.4	213.44	2.1528e-06	2.8084e-06	257.42	101.14	74.543	33.981	2.7308e-06	52.023	7.4067e-05	3.252e-05	1.018e-05	694.47	3.7267e-07	3.7281e-07	746.49	216.82	4.2477e-07	3.3661e-07	260.61	103.38	76.153	34.695	3.9946e-07	53.156	120.542	55.798	62.554	-16.212	147.307	113.960	-16.504	-10.081	135.805	129.474	-11.867	-6.586	-4.936	1.130	134.693	-2.177	-8191	255	
1626.421	1	1	0	0	0.18689	0.18949	0.058824	0.24638	0.093059	0.20833	0.22043	0.035215	0.093036	0.090464	0.15486	0.12512	0.04126	0.071031	0.13084	0.096178	-3.8083	-4.7396	-4.1854	-4.2708	-4.8438	-4.0521	-4.6625	-4.7583	-3.8208	-4.625	-4.4375	-4.0771	-4.7729	-4.1208	-4.4208	-4.6583	93.391	308.687	317.120	252.855	34.520	55.951	195.648	207.371	50.074	75.756	85.481	-0.030	71.894	172.425	145.067	264.996	0.00026081	0.00043214	9.2609e-05	689.38	3.3669e-06	3.6786e-06	738.03	213.37	1.642e-06	3.1608e-06	257.51	101.09	74.428	33.791	2.8367e-06	51.978	7.1071e-05	3.2561e-05	9.2215e-06	694.27	3.7674e-07	3.562e-07	747.7	216.28	4.2885e-07	3.3042e-07	261.16	103.38	76.064	34.615	3.9717e-07	53.084	123.648	67.905	70.990	-15.691	133.011	134.031	-16.624	-10.246	137.942	116.387	-11.996	-6.871	-5.132	0.708	156.470	-2.215	-8191	255	
1626.542	1	1	0	0	0.10601	0.1159	0.12644	0.21542	0.26071	0.23539	0.25198	0.1368	0.11706	0.39156	0.25319	0.13108	0.031679	0.19192	0.11856	0.21817	-3.6667	-4.6292	-4.2312	-4.2042	-4.7104	-4.15	-4.4958	-4.8667	-3.9854	-4.6	-4.6479	-4.1229	-4.9417	-4.2458	-4.075	-4.8292	150.110	28.207	65.406	282.245	66.865	117.669	282.307	4.624	238.238	4.382	222.828	146.855	308.551	327.801	73.587	298.601	0.00026083	0.0004573	0.00010367	690.68	3.0249e-06	4.2122e-06	738.64	213.47	2.0476e-06	3.2108e-06	256.85	99.814	73.158	33.313	2.5435e-06	51.156	7.0577e-05	3.3952e-05	9.048e-06	696.72	3.8579e-07	3.5231e-07	749.85	216.42	4.1782e-07	3.535e-07	259.26	101.92	75.228	34.141	4.1524e-07	52.133	118.742	48.559	65.486	-15.974	134.373	113.520	-16.821	-10.585	140.431	122.908	-11.948	-6.954	-5.381	0.604	151.239	-2.140	-8191	255	
1626.614	1	1	0	0	0.073818	0.1445	0.08718	0.093935	0.015832	0.24018	0.31518	0.16021	0.14229	0.24371	0.060671	0.093267	0.085422	0.12526	0.039408	0.16611	-3.5271	-4.7375	-4.3083	-3.9792	-4.7729	-4.1083	-4.2854	-4.9167	-3.9292	-4.5062	-4.6813	-4.0458	-4.8542	-4.2458	-4.2604	-4.9542	215.376	69.197	315.621	266.297	-3.678	30.381	18.209	252.840	228.834	275.615	218.396	272.287	110.903	8.844	95.300	-5.718	0.0002613	0.00038758	9.845e-05	690.4	2.1909e-06	3.4161e-06	736.25	211.97	2.1127e-06	3.2431e-06	255.11	99.017	73.023	33.044	3.4162e-06	50.907	7.0039e-05	3.1918e-05	9.1213e-06	696.43	3.7003e-07	3.6573e-07	745.54	215.24	4.1638e-07	3.6703e-07	257.59	101.32	74.782	33.932	4.0586e-07	51.944	119.816	55.740	79.735	-15.640	127.641	118.194	-16.841	-10.212	131.683	114.387	-11.786	-6.580	-5.169	0.666	127.942	-2.516	-8191	255	
1626.710	1	1	0	0	0.041033	0.08632	0.11376	0.066808	0.065224	0.13271	0.27259	0.23913	0.23421	0.22884	0.22252	0.10555	0.11413	0.088801	0.050055	0.12378	-3.7458	-4.5104	-4.7396	-3.8646	-4.8875	-4.3187	-4.0375	-4.9	-3.9146	-4.5312	-4.8042	-3.9792	-4.9271	-4.4292	-3.7854	-5.0229	158.699	128.924	312.496	232.474	78.072	98.796	288.446	-19.018	210.934	226.127	275.315	171.285	12.075	186.996	84.446	118.648	0.00024864	0.0003702	7.9175e-05	688.3	2.1267e-06	3.2512e-06	737.21	211.21	2.1137e-06	3.0972e-06	256.32	99.735	73.393	33.089	2.8163e-06	51.358	6.8757e-05	3.2111e-05	8.7163e-06	693.39	3.8895e-07	3.5125e-07	746.3	215.07	4.1578e-07	3.4708e-07	258.54	101.55	74.992	33.986	4.1822e-07	52.177	119.972	54.853	67.630	-15.951	149.849	120.629	-16.760	-10.362	134.533	135.968	-12.159	-6.886	-5.185	0.247	109.354	-2.744	-8191	255	
1626.806	1	1	0	0	0.19452	0.13153	0.14699	0.26393	0.13368	0.039532	0.28523	0.083189	0.11218	0.096954	0.084449	0.1703	0.15608	0.063365	0.15809	0.12306	-3.6271	-4.3271	-4.8562	-3.85	-4.7333	-4.4313	-4.0125	-4.7562	-4.0604	-4.275	-4.8125	-3.9104	-4.5667	-4.5271	-3.9375	-4.9792	236.360	96.745	141.400	-5.433	192.631	225.203	267.110	74.610	273.036	247.067	65.081	249.414	46.822	16.251	-17.308	272.400	0.00027228	0.00044272	7.7686e-05	687.76	2.6403e-06	2.9602e-06	739.86	211.99	2.6766e-06	3.4378e-06	257.44	99.814	73.533	33.566	2.9015e-06	51.811	6.9908e-05	3.3579e-05	8.6835e-06	694.6	3.7169e-07	3.3966e-07	748.97	215.59	4.0037e-07	3.4838e-07	260.22	102.19	75.163	34.318	4.2332e-07	52.905	116.346	61.551	81.928	-16.046	117.763	109.154	-17.247	-10.809	123.781	128.534	-12.517	-7.075	-5.501	0.414	119.026	-2.864	-8191	255	
1626.902	1	1	0	0	0.11893	0.080832	0.17972	0.061822	0.073542	0.057364	0.091106	0.18123	0.25003	0.11662	0.24586	0.18738	0.16174	0.084902	0.087276	0.18447	-3.8042	-4.1708	-4.8292	-4.0583	-4.4708	-4.6146	-3.7896	-4.8229	-4.2021	-4.1021	-4.9229	-4.0958	-4.6062	-4.6125	-3.9313	-5.0354	288.264	37.883	116.194	40.960	266.566	19.795	216.679	328.443	113.255	13.365	235.938	236.066	132.969	164.375	170.503	324.921	0.00027159	0.0003912	0.00010141	691.08	3.1248e-06	2.828e-06	740.86	213.09	2.031e-06	2.4272e-06	255.28	100.01	73.999	33.325	3.2016e-06	51.345	6.987e-05	3.4589e-05	8.7491e-06	698.2	3.7199e-07	3.213e-07	750.52	216.24	3.9146e-07	3.6817e-07	259.89	102.48	75.472	34.233	4.1151e-07	52.499	124.618	59.972	64.729	-16.299	122.257	123.774	-17.142	-10.785	124.486	118.070	-12.294	-7.123	-5.468	0.077	131.437	-2.803	-8191	255	
1627.021	1	1	0	0	0.054356	0.048568	0.066038	0.24834	0.20915	0.056055	0.089447	0.22349	0.23759	0.12406	0.052132	0.21376	0.20155	0.26212	0.18359	0.19571	-4.1521	-4.1021	-4.8438	-4.0396	-4.4771	-4.6687	-4.0708	-4.8792	-4.3896	-4.0708	-4.8521	-4.2562	-4.4021	-4.8167	-3.8458	-4.7979	65.751	39.545	329.526	-25.209	9.983	175.660	271.195	284.999	-12.323	240.824	318.218	269.679	111.657	328.201	120.204	170.406	0.00025311	0.00031738	7.0797e-05	693.26	3.2623e-06	2.0643e-06	738.55	213.26	2.2379e-06	3.4556e-06	255.96	100.95	73.947	33.496	2.3885e-06	51.774	6.6012e-05	3.3392e-05	8.2959e-06	697.37	3.7998e-07	3.1817e-07	747.29	216.45	4.0996e-07	3.5778e-07	259.86	102.63	75.83	34.427	3.961e-07	52.661	120.283	74.734	61.727	-16.257	128.783	110.671	-17.104	-10.816	123.029	123.711	-12.140	-7.281	-5.612	0.081	132.805	-2.935	-8191	255	
1627.117	1	1	0	0	0.20956	0.054678	0.055801	0.10726	0.11009	0.092917	0.22256	0.098295	0.20087	0.31386	0.15724	0.21723	0.24841	0.19487	0.19043	0.33853	-4.2333	-4.1833	-4.7646	-4.275	-4.1292	-4.8938	-4.2417	-4.6188	-4.6896	-4.0208	-4.8521	-4.3104	-4.1958	-4.7896	-4.0396	-4.5354	88.521	293.371	200.493	1.779	70.556	324.036	273.928	316.892	65.934	280.092	30.869	169.774	249.396	307.596	16.374	300.102	0.00027939	0.00037133	9.2163e-05	690.88	3.3559e-06	2.9267e-06	735.76	212.79	2.1702e-06	3.268e-06	256.73	100.47	74.236	33.644	2.4946e-06	51.803	6.9095e-05	3.4672e-05	8.0144e-06	695.89	4.0101e-07	3.3059e-07	747.08	216.44	3.9327e-07	3.684e-07	259.97	102.57	75.672	34.507	4.186e-07	52.913	121.819	48.536	67.842	-16.216	120.426	119.991	-16.995	-10.733	126.951	103.155	-12.023	-7.036	-5.619	0.070	133.413	-2.535	-8191	255	
1627.189	1	1	0	0	0.053674	0.13727	0.12825	0.13708	0.16547	0.25773	0.12414	0.20006	0.11821	0.14326	0.10798	0.17253	0.17971	0.19253	0.1778	0.039035	-4.2063	-3.7854	-4.8354	-4.2833	-4.0687	-4.9771	-4.0938	-4.4979	-4.6083	-3.7833	-4.7937	-4.2792	-4.2021	-5.0042	-4.1333	-4.3833	290.571	95.794	293.786	150.045	141.676	-14.314	240.776	327.199	230.395	238.036	61.971	-6.751	-16.340	316.554	326.771	191.747	0.00024838	0.00033513	8.8995e-05	687.86	3.8681e-06	3.1238e-06	738.97	212.97	2.6119e-06	2.3199e-06	257.91	100.8	74.075	33.921	2.544e-06	52.083	6.8194e-05	3.4388e-05	9.0557e-06	694.85	3.8089e-07	3.3715e-07	748.82	216.67	3.8466e-07	3.7589e-07	261.07	103.19	75.756	34.768	4.1936e-07	53.221	122.575	67.878	55.542	-16.121	140.280	132.043	-16.935	-11.055	120.227	105.967	-12.446	-7.066	-5.558	0.314	120.847	-2.408	-8191	255	
1627.310	1	1	0	0	0.027008	0.013769	0.034951	0.10333	0.12495	0.22122	0.081484	0.07687	0.12387	0.19328	0.057361	0.26122	0.071963	0.10488	0.15004	0.34569	-4.5292	-3.8625	-4.7708	-4.4417	-4.025	-5.0208	-4.1708	-4.3604	-4.625	-3.9708	-4.6917	-4.5083	-4.1771	-4.8167	-4.0271	-4.3958	155.304	131.066	268.971	249.968	12.229	11.492	-11.793	208.855	27.300	60.364	75.577	298.418	302.722	180.578	53.464	275.270	0.00024449	0.00038209	8.22e-05	691.37	2.1747e-06	2.5444e-06	738.33	214.71	3.5149e-06	3.3439e-06	257.32	101.17	74.306	33.956	2.8375e-06	52.066	6.6043e-05	3.3426e-05	8.4e-06	697.35	4.1044e-07	3.2534e-07	749.33	217.57	3.793e-07	3.5747e-07	260.78	103.22	76.154	34.77	3.8604e-07	53.042	120.693	69.336	66.882	-16.108	121.077	123.391	-17.065	-10.804	117.676	127.641	-12.337	-6.935	-5.427	0.374	134.366	-2.746	-8191	255	
1627.406	1	1	0	0	0.066042	0.14007	0.20587	0.081037	0.17431	0.053963	0.21568	0.23122	0.28824	0.10818	0.058793	0.12209	0.2079	0.13003	0.14339	0.043113	-4.4938	-3.8208	-4.55	-4.5979	-4.0333	-4.8521	-4.2458	-4.35	-4.6937	-4.0375	-4.4708	-4.7521	-3.8729	-4.8208	-4.2667	-4.1979	221.958	325.281	150.193	290.023	90.015	240.970	315.181	254.787	214.801	54.623	119.685	169.369	-10.739	-20.249	322.766	16.202	0.0002529	0.00044583	9.7745e-05	690.16	2.4559e-06	1.6927e-06	739.42	212.93	1.8536e-06	4.347e-06	257.65	101.08	74.728	33.879	2.3877e-06	52.033	6.7563e-05	3.5053e-05	9.3488e-06	698.21	4.09e-07	3.1375e-07	748.35	217	3.8413e-07	3.5464e-07	260.62	103.18	76.345	34.843	3.8543e-07	53.113	121.988	61.972	69.340	-16.092	128.438	95.327	-17.147	-10.934	109.464	132.237	-12.210	-7.023	-5.920	0.027	146.074	-2.997	-8191	255	
1627.502	1	1	0	0	0.19264	0.073764	0.10656	0.073056	0.11767	0.061545	0.18522	0.151	0.074418	0.30597	0.17875	0.15345	0.15424	0.11681	0.31124	0.27494	-4.6188	-3.9625	-4.3958	-4.9125	-3.9208	-4.7208	-4.6146	-4.1396	-5.0375	-3.9271	-4.6125	-4.8208	-4.0083	-4.8771	-4.2167	-3.9562	147.391	222.820	116.975	177.433	304.045	3.752	225.491	185.701	77.684	54.532	308.863	241.860	-13.985	148.721	100.743	240.660	0.00025408	0.0003444	8.0962e-05	691.03	2.6195e-06	2.9868e-06	738.79	213	3.3401e-06	2.0335e-06	258.11	100.75	74.315	34.06	2.3665e-06	52.201	6.7175e-05	3.4063e-05	9.3739e-06	696.64	4.0373e-07	3.1451e-07	747.92	217.01	4.0498e-07	3.5747e-07	260.46	103.12	76.093	34.901	3.7254e-07	53.277	122.622	64.903	78.539	-16.316	106.622	110.541	-16.940	-10.910	127.925	133.752	-12.517	-7.181	-5.754	0.055	139.474	-2.701	-8191	255	
1627.622	1	1	0	0	0.088871	0.16945	0.11891	0.060424	0.096497	0.16298	0.20686	0.13566	0.25256	0.23474	0.085155	0.13695	0.1369	0.2102	0.15768	0.049984	-4.6687	-4.05	-4.2063	-4.8208	-3.9813	-4.6813	-4.6229	-4.1438	-4.9	-4.3708	-4.2833	-5.0125	-3.8854	-4.6896	-4.6167	-4.0208	83.868	311.530	19.985	263.372	23.515	58.568	264.603	-26.374	115.995	116.617	171.533	117.270	310.778	3.159	76.074	211.728	0.00026376	0.00046261	9.3036e-05	688.6	2.3576e-06	2.8994e-06	734.82	213.45	2.4961e-06	3.3713e-06	258.68	101.36	74.62	34.068	2.0559e-06	52.401	6.8557e-05	3.3765e-05	9.3083e-06	696.73	4.0825e-07	3.4035e-07	747.69	217.35	3.8972e-07	3.5487e-07	261.36	103.67	76.386	34.917	3.9847e-07	53.444	126.017	63.227	70.896	-16.336	124.153	111.906	-17.363	-10.753	120.637	118.765	-12.674	-7.258	-5.873	-0.128	148.818	-2.788	-8191	255	
1627.719	1	1	0	0	0.10913	0.087995	0.071614	0.30058	0.089644	0.056368	0.050789	0.15653	0.12018	0.12927	0.38076	0.073981	0.10148	0.072626	0.14716	0.17551	-4.5771	-4.0833	-4.2458	-4.9437	-3.9479	-4.6188	-4.7562	-4.0917	-4.725	-4.425	-4.2688	-4.85	-3.9562	-4.6271	-4.6125	-4.1271	264.374	240.116	176.296	-21.826	267.943	247.189	325.033	171.880	102.560	268.347	328.349	231.151	4.268	-26.741	57.974	260.396	0.00023549	0.00040028	8.5444e-05	690.72	3.0999e-06	2.2886e-06	741.61	213.69	1.8634e-06	3.6621e-06	257.93	100.81	74.347	33.821	1.7003e-06	51.817	6.7412e-05	3.3281e-05	9.5166e-06	698.33	4.0885e-07	3.3471e-07	750.61	216.9	3.8089e-07	3.3049e-07	260.17	102.78	75.972	34.682	3.7514e-07	52.762	121.609	53.971	54.934	-16.128	125.334	153.824	-17.072	-11.008	144.892	122.135	-12.680	-6.998	-5.700	0.002	127.068	-2.978	-8191	255	
1627.813	1	1	0	0	0.266	0.074001	0.36424	0.17911	0.14114	0.16285	0.15398	0.057667	0.038097	0.044774	0.1204	0.16817	0.1766	0.2251	0.14153	0.11031	-4.4875	-4.3042	-3.8937	-5.0354	-3.8667	-4.5062	-4.8708	-3.9208	-4.5563	-4.3896	-4.2479	-4.8562	-4.1292	-4.2333	-4.7896	-4.0396	25.699	28.407	-1.712	216.455	260.134	287.703	203.040	286.871	113.888	11.885	276.771	300.364	199.050	236.199	75.080	228.021	0.00026355	0.00028555	0.00012134	692.35	2.7651e-06	2.5904e-06	735.9	212.01	1.9073e-06	3.209e-06	255.14	100.08	74.255	33.728	3.3322e-06	51.552	6.7982e-05	3.3302e-05	9.4722e-06	697.45	3.8021e-07	3.4766e-07	746.62	215.65	3.9206e-07	3.3668e-07	258.27	102.13	75.821	34.548	3.9023e-07	52.534	120.194	54.703	62.033	-16.210	126.044	115.216	-17.229	-10.812	120.643	100.208	-12.498	-7.032	-5.651	-0.009	132.975	-2.630	-8191	255	
1627.911	1	1	0	0	0.1636	0.33136	0.22394	0.095184	0.094248	0.024742	0.11694	0.11775	0.06953	0.070229	0.14527	0.06484	0.22949	0.22015	0.17073	0.094032	-4.2729	-4.3958	-3.9688	-4.7979	-4.1562	-4.2875	-4.7271	-4.0479	-4.475	-4.7833	-4.0792	-4.9729	-4.2875	-4.2792	-4.7854	-4.1292	79.154	326.495	158.622	-11.557	43.287	105.319	236.325	258.492	87.616	202.846	290.459	21.605	39.981	298.656	318.527	157.164	0.000253	0.00042725	6.466e-05	688.62	2.8062e-06	3.7835e-06	734.81	212.44	2.4353e-06	3.1553e-06	255.59	100.26	73.906	33.877	2.4471e-06	51.711	6.8138e-05	3.0776e-05	9.0229e-06	696.43	4.0086e-07	3.5026e-07	745.09	215.7	4.0256e-07	3.5365e-07	258.43	102.19	75.87	34.603	3.9252e-07	52.728	113.708	72.858	70.115	-16.234	108.998	137.007	-17.120	-10.716	115.559	121.738	-12.461	-7.399	-5.817	-0.312	134.852	-2.563	-8191	255	
1628.005	1	1	0	0	0.11388	0.074032	0.08994	0.087711	0.19508	0.065841	0.15047	0.18903	0.14151	0.18984	0.1808	0.10274	0.1693	0.20426	0.2188	0.2123	-4.0479	-4.7646	-4.0458	-4.8229	-4.1896	-4.2208	-4.8479	-4.2146	-4.3354	-4.8438	-3.9896	-4.8917	-4.4958	-4.1792	-4.9708	-4.1292	213.575	-19.989	28.120	319.709	38.338	320.570	324.205	127.094	4.035	145.716	274.534	322.711	-1.163	-4.284	209.706	-16.838	0.000232	0.0003107	9.0593e-05	689.71	3.4527e-06	2.7305e-06	736.88	212.27	3.5353e-06	2.8972e-06	255.17	100.12	73.855	33.694	2.0572e-06	51.701	6.7875e-05	3.2146e-05	9.8135e-06	696.55	3.8315e-07	3.5193e-07	746.71	215.48	4.046e-07	3.3431e-07	258.42	102.5	75.815	34.543	3.8253e-07	52.802	120.441	53.945	76.107	-16.437	118.072	120.055	-17.243	-10.670	125.617	116.834	-12.594	-7.193	-5.261	-0.080	140.024	-2.757	-8191	255	
1628.101	1	1	0	0	0.14017	0.13511	0.08622	0.099134	0.23377	0.075288	0.17675	0.19235	0.16019	0.007344	0.16524	0.058728	0.12711	0.16846	0.17883	0.064449	-4.1417	-4.6354	-3.9021	-4.6958	-4.4271	-3.9604	-5.0167	-4.2688	-4.2875	-4.8396	-3.7833	-4.6562	-4.5125	-3.9521	-4.8938	-4.3229	312.580	241.196	237.558	244.879	132.694	23.398	305.864	311.230	5.125	126.719	220.572	186.428	107.536	37.001	62.014	160.476	0.00025143	0.00043489	9.0454e-05	693.16	3.0969e-06	2.6501e-06	736.5	212.66	1.6487e-06	3.8856e-06	255.92	99.712	74.259	33.642	2.3553e-06	51.414	6.7781e-05	3.2201e-05	9.8405e-06	698.98	3.8511e-07	3.6603e-07	747.6	215.78	4.154e-07	3.3492e-07	258.58	102.06	75.762	34.578	3.8871e-07	52.535	125.693	64.547	85.479	-16.317	122.622	129.711	-17.154	-10.814	97.044	121.422	-12.350	-7.017	-5.656	0.022	136.396	-2.632	-8191	255	
1628.222	1	1	0	0	0.18244	0.19714	0.093073	0.15424	0.13633	0.097477	0.26315	0.25958	0.042454	0.084221	0.044035	0.16611	0.10371	0.16679	0.045886	0.13732	-3.7542	-4.8688	-3.6792	-4.4958	-4.4521	-4	-4.9021	-4.1771	-4.0375	-4.8396	-4.0292	-4.5833	-4.5396	-3.9562	-4.6979	-4.2479	320.875	63.856	265.948	312.533	302.166	122.461	282.842	42.840	253.214	254.095	-17.837	324.762	84.691	63.365	137.893	242.176	0.00026092	0.00037123	9.5781e-05	692.34	2.513e-06	3.3218e-06	734.13	212.36	1.9019e-06	2.9968e-06	256	100.05	74.331	33.611	2.3607e-06	51.721	6.9495e-05	3.126e-05	9.4221e-06	697.57	3.7071e-07	3.4896e-07	744.66	215.77	4.2258e-07	3.081e-07	257.84	102.3	75.826	34.638	3.9763e-07	52.786	116.026	48.532	63.474	-16.139	127.095	118.422	-17.228	-10.717	129.973	114.353	-12.182	-7.071	-5.541	0.214	122.725	-2.661	-8191	255	
1628.318	1	1	0	0	0.15871	0.057382	0.14044	0.060776	0.13542	0.14643	0.067931	0.065275	0.11865	0.079572	0.096913	0.17986	0.11637	0.24674	0.0548	0.035109	-3.8312	-4.9042	-3.9458	-4.4437	-4.8042	-4.0792	-4.8792	-4.4479	-4.0958	-4.7729	-4.2271	-4.2771	-4.7542	-3.8229	-4.8104	-4.5646	-7.021	21.456	215.087	239.793	-8.777	166.325	276.115	186.867	196.425	296.573	242.776	330.868	69.905	277.903	12.400	136.034	0.00025564	0.00038327	8.4637e-05	692.71	3.2294e-06	2.681e-06	733.18	211.87	2.1659e-06	2.6492e-06	255.8	100.99	74.234	33.845	2.7402e-06	52.014	7.0865e-05	3.0637e-05	9.0981e-06	698.37	3.8398e-07	3.5468e-07	744.96	216.03	4.2084e-07	3.4685e-07	258.87	102.8	76.123	34.785	3.5219e-07	52.964	116.022	51.263	70.858	-16.511	126.173	112.347	-17.050	-10.561	129.187	118.506	-12.376	-7.075	-5.920	0.122	147.052	-2.801	-8191	255	
1628.414	1	1	0	0	0.18605	0.26983	0.12315	0.096361	0.17165	0.12934	0.12016	0.20295	0.14357	0.11285	0.050364	0.076408	0.13581	0.024227	0.16254	0.14032	-3.7333	-4.9333	-4.1312	-4.4375	-4.7562	-3.9062	-4.7896	-4.5771	-3.8958	-4.9313	-4.0729	-4.0188	-4.7625	-3.8958	-4.3292	-4.8458	287.227	298.537	200.159	41.857	278.712	80.028	122.857	318.628	144.872	155.872	57.497	321.560	70.447	24.822	75.349	282.348	0.00026131	0.00035323	0.00010467	691.97	2.1977e-06	3.5742e-06	736.12	213.26	1.9842e-06	3.1896e-06	256.71	100.95	74.619	34.157	2.8312e-06	52.327	7.1553e-05	2.9848e-05	8.8339e-06	697.1	3.6061e-07	3.8066e-07	746.71	216.25	4.336e-07	3.2927e-07	259.21	103.24	76.367	35.002	3.9313e-07	53.509	116.541	70.224	85.985	-16.394	111.023	128.407	-17.190	-10.849	121.297	124.359	-12.353	-7.117	-5.590	-0.028	144.787	-2.657	-8191	255	
1628.486	1	1	0	0	0.048186	0.092685	0.17581	0.11786	0.06409	0.085166	0.19766	0.38844	0.14742	0.15168	0.1824	0.30015	0.089829	0.054567	0.22672	0.12882	-3.6	-4.6687	-4.425	-4.35	-4.8208	-4.0896	-4.6729	-4.6937	-4.1083	-4.8938	-4.3479	-4.2167	-4.8812	-3.9396	-4.3187	-4.8792	97.613	21.572	287.223	255.197	-0.641	40.085	313.414	144.609	287.708	91.341	286.613	262.770	265.693	123.873	95.092	268.392	0.00024822	0.00045323	9.4588e-05	692.59	2.0892e-06	2.1388e-06	738.3	213.67	1.9652e-06	1.9858e-06	257.48	101.46	75.13	34.405	2.8167e-06	52.658	7.2141e-05	3.0914e-05	8.7067e-06	698.34	3.6151e-07	3.642e-07	746.65	216.87	3.904e-07	3.2086e-07	260.19	103.59	76.884	35.217	3.9527e-07	53.612	119.903	64.422	53.470	-16.373	117.308	128.233	-17.042	-10.761	132.131	121.592	-12.274	-7.317	-5.452	0.280	148.423	-2.851	-8191	255	
1628.582	1	1	0	0	0.064916	0.16484	0.21321	0.14024	0.04973	0.15181	0.15085	0.16918	0.049173	0.06277	0.10531	0.21673	0.057148	0.10638	0.13561	0.071829	-3.5687	-4.7021	-4.5521	-4.0312	-4.8417	-4.2458	-4.4979	-4.6646	-3.9521	-4.6917	-4.4854	-3.9188	-4.9396	-4.0854	-4.2208	-4.7812	328.426	6.773	224.144	10.694	327.137	77.563	237.723	278.976	93.953	41.139	219.053	177.263	43.157	328.834	144.682	212.872	0.00026578	0.00042921	7.5696e-05	692.29	2.9236e-06	4.0648e-06	736.6	214.16	3.2427e-06	2.5442e-06	257.1	101.89	75.679	34.546	2.323e-06	52.782	7.1759e-05	3.3821e-05	9.1598e-06	698.38	3.4749e-07	3.5254e-07	745.54	218.06	4.1903e-07	3.3538e-07	260.88	104.13	77.422	35.462	4.083e-07	53.841	117.036	64.675	67.952	-16.246	138.934	118.206	-17.156	-10.461	132.662	101.751	-12.213	-7.208	-5.681	0.149	110.341	-2.620	-8191	255	
1628.703	1	1	0	0	0.070328	0.22249	0.094188	0.14788	0.16478	0.14176	0.14231	0.048235	0.20862	0.28025	0.26716	0.10675	0.088256	0.22917	0.087614	0.16832	-3.5187	-4.7438	-4.4229	-3.8854	-4.9104	-4.2146	-4.2333	-4.8167	-3.9542	-4.3104	-4.5771	-3.9771	-5.0354	-4.2625	-4.1229	-5.1083	87.412	244.405	-21.226	219.492	64.514	265.430	294.527	70.401	189.755	-4.395	328.538	118.926	320.143	279.862	249.720	278.828	0.00025737	0.00045413	9.1864e-05	688.48	2.692e-06	3.158e-06	733.65	213.61	1.9774e-06	2.9111e-06	258.39	102.08	75.793	34.578	3.7795e-06	52.975	6.9589e-05	3.0596e-05	8.7375e-06	697.2	3.9099e-07	3.5208e-07	744.87	217.51	4.2401e-07	3.5052e-07	260.29	104.13	77.324	35.429	4.1837e-07	54.029	120.805	68.928	57.414	-16.458	120.679	108.272	-17.230	-10.751	124.733	112.588	-12.030	-7.106	-5.477	0.363	140.447	-2.799	-8191	255	
1628.797	1	1	0	0	0.22661	0.094649	0.25244	0.24262	0.1852	0.17663	0.23426	0.089413	0.063938	0.14884	0.077029	0.06218	0.061785	0.13223	0.016387	0.022029	-3.7417	-4.5083	-4.6521	-3.9146	-4.8667	-4.175	-4.1708	-4.7417	-4.0833	-4.6833	-4.8271	-3.8688	-4.8479	-4.4917	-4.1083	-4.9708	61.213	198.321	316.707	-20.097	175.911	85.031	266.722	175.742	9.476	54.228	158.415	81.223	48.186	4.790	73.816	83.008	0.00024553	0.00034468	0.00010742	690.13	3.3174e-06	2.6528e-06	738.12	214.02	1.7991e-06	2.688e-06	260.28	101.67	75.208	34.425	2.6416e-06	52.493	7.0633e-05	3.2049e-05	9.1965e-06	696.53	3.7584e-07	3.3867e-07	747.62	217.4	3.9712e-07	3.5258e-07	261.63	104.06	76.86	35.269	4.4688e-07	53.777	116.959	52.140	63.861	-16.372	129.849	120.288	-17.286	-10.457	140.193	111.994	-12.115	-7.514	-5.889	0.349	127.829	-2.557	-8191	255	
1628.893	1	1	0	0	0.17567	0.19143	0.11964	0.25377	0.073512	0.086288	0.25091	0.11749	0.12576	0.09901	0.2093	0.17307	0.10792	0.17081	0.14017	0.14764	-3.6813	-4.375	-4.5417	-4.0917	-4.7417	-4.4833	-4.1583	-4.85	-4.0604	-4.3313	-4.8167	-3.9375	-4.7375	-4.55	-3.9833	-4.9521	249.721	248.746	-25.305	272.910	129.725	272.715	325.137	292.764	154.566	165.206	-1.310	56.443	276.403	6.604	33.272	296.166	0.00024707	0.00050867	8.4247e-05	690.06	1.9906e-06	2.9667e-06	737.38	214.65	2.0871e-06	2.6101e-06	258.6	101.23	75.29	34.218	1.8946e-06	52.261	6.9289e-05	3.2354e-05	8.7491e-06	697.82	3.7915e-07	3.4881e-07	749.08	217.63	3.9871e-07	3.5938e-07	261.15	103.79	76.727	35.193	4.1844e-07	53.417	126.727	59.094	66.302	-16.267	134.901	124.172	-17.274	-10.606	126.409	111.759	-12.303	-7.192	-5.746	0.211	119.432	-2.620	-8191	255	
1628.991	1	1	0	0	0.1909	0.32598	0.036069	0.075047	0.074247	0.042085	0.11328	0.11786	0.11382	0.14749	0.18724	0.11517	0.14936	0.06767	0.049072	0.30306	-3.8708	-4.2021	-4.9833	-4.1312	-4.5667	-4.6833	-4.125	-4.7917	-4.375	-4.175	-5.0188	-4.0104	-4.3521	-4.6687	-3.7979	-4.9979	107.105	294.432	55.454	254.876	250.617	88.443	192.107	308.325	94.416	25.204	191.871	299.008	275.480	64.127	83.667	283.236	0.00024225	0.00043636	8.7073e-05	693.11	3.1225e-06	2.6795e-06	737.73	213.32	2.0239e-06	3.8596e-06	257.48	101.03	74.918	34.151	2.9756e-06	52.169	7.0621e-05	3.4015e-05	8.6411e-06	698.48	3.9317e-07	3.1535e-07	747.77	217.19	4.0143e-07	3.5717e-07	260.14	103.44	76.573	35.079	4.2485e-07	53.159	116.959	55.333	72.034	-16.354	110.509	124.846	-17.338	-10.910	134.234	130.389	-12.233	-6.960	-5.989	0.228	147.004	-2.649	-8191	255	
1629.086	1	1	0	0	0.048253	0.19882	0.12052	0.12379	0.21987	0.076514	0.1173	0.094846	0.26397	0.25456	0.16155	0.25293	0.14008	0.19248	0.080102	0.23083	-3.9958	-4.0208	-4.8021	-4.1583	-4.5604	-4.6771	-4.0979	-4.7896	-4.3792	-3.9979	-4.925	-4.1208	-4.3229	-4.9896	-3.8896	-4.725	269.212	324.456	6.797	304.919	171.538	24.467	287.236	206.380	118.982	-23.279	311.780	-26.267	-21.277	15.636	279.869	-24.176	0.00026168	0.0003834	0.00010066	688.68	3.463e-06	3.6505e-06	741.16	213.8	1.858e-06	3.7588e-06	255.6	100.86	75.047	34.041	2.1983e-06	52.043	6.598e-05	3.3239e-05	8.4926e-06	696.26	3.8202e-07	3.1268e-07	749.93	216.53	3.978e-07	3.6726e-07	259.79	103.04	76.456	34.963	4.0419e-07	53.209	123.743	60.112	64.771	-16.362	122.893	111.618	-17.184	-10.810	150.906	123.639	-12.514	-6.952	-5.711	0.241	150.501	-2.556	-8191	255	
1629.182	1	1	0	0	0.12599	0.099735	0.089346	0.10227	0.15413	0.08131	0.159	0.20919	0.11361	0.091665	0.098017	0.058482	0.11751	0.1076	0.086716	0.097146	-4.2646	-3.9667	-4.9542	-4.2146	-4.2604	-4.9479	-4.0458	-4.6937	-4.5917	-4.0521	-4.9646	-4.2	-4.2854	-4.9083	-3.9354	-4.55	172.562	58.394	291.804	53.875	85.413	75.913	292.488	-12.853	21.908	297.674	327.229	92.069	145.168	-14.389	21.526	20.487	0.00024679	0.00037824	7.7688e-05	691.56	2.4167e-06	3.7522e-06	738.97	212.84	3.0264e-06	4.3018e-06	258.26	100.97	74.633	34.037	2.869e-06	52.581	6.9726e-05	3.3911e-05	7.8408e-06	697.82	3.9762e-07	3.1383e-07	750.53	217.03	3.7839e-07	3.6794e-07	261.09	103.41	76.373	34.94	4.1349e-07	53.58	120.284	56.584	74.922	-16.323	111.934	129.589	-17.074	-10.763	132.979	120.756	-12.081	-7.157	-5.599	0.360	145.725	-2.723	-8191	255	
1629.302	1	1	0	0	0.078943	0.28884	0.12049	0.062406	0.17836	0.17113	0.16063	0.03641	0.13877	0.10948	0.36582	0.27586	0.097606	0.03806	0.085616	0.28311	-4.175	-4.0583	-4.875	-4.4625	-4.1125	-4.8729	-4.2438	-4.3354	-5.0146	-4.0104	-4.8938	-4.3812	-3.8604	-4.975	-3.9979	-4.4771	147.093	225.265	182.335	238.986	230.219	226.055	166.864	-10.117	118.032	44.395	308.515	252.837	171.634	88.738	171.095	304.031	0.00025419	0.000436	8.2607e-05	697.87	2.654e-06	3.7288e-06	744.16	213.6	2.1703e-06	2.8282e-06	257.55	101.21	74.121	34.044	2.9061e-06	52.225	6.8263e-05	3.5184e-05	8.2786e-06	700.99	3.9355e-07	3.4484e-07	754.18	217.54	3.6034e-07	3.7604e-07	260.86	103.32	76.296	34.945	3.9999e-07	53.401	116.872	45.333	63.499	-16.177	116.521	119.417	-17.075	-10.652	109.551	113.249	-12.212	-6.983	-5.479	0.105	142.015	-2.572	-8191	255	
1629.399	1	1	0	0	0.079862	0.1418	0.11221	0.16622	0.034949	0.045452	0.055604	0.12477	0.084104	0.064291	0.18039	0.20324	0.33184	0.17445	0.18504	0.12103	-4.5938	-3.8333	-4.9646	-4.4646	-3.975	-4.9271	-4.125	-4.3938	-4.7438	-3.9313	-4.7125	-4.4417	-3.8771	-5	-4.025	-4.4292	14.389	195.187	277.810	276.090	31.645	204.050	241.042	26.306	225.282	286.444	-27.376	273.217	20.007	297.351	49.295	324.344	0.00025843	0.00039878	0.0001005	690.87	2.881e-06	3.4996e-06	742.79	213.52	1.8226e-06	2.2844e-06	259.65	101.66	74.968	34.228	2.9534e-06	52.505	6.8269e-05	3.5371e-05	8.5119e-06	698.92	4.0554e-07	3.2579e-07	752.08	217.67	3.87e-07	3.6405e-07	262.06	103.9	76.772	35.211	3.8917e-07	53.608	120.883	61.229	64.267	-16.225	111.715	122.283	-16.880	-10.624	134.853	118.428	-12.632	-7.176	-5.354	0.328	133.273	-2.702	-8191	255	
1629.495	1	1	0	0	0.23767	0.25807	0.26186	0.15351	0.22552	0.12319	0.18954	0.26928	0.084863	0.078474	0.19629	0.18312	0.19773	0.24708	0.21237	0.23428	-4.7188	-3.9417	-4.5396	-4.4	-3.9729	-4.6917	-4.3271	-4.1125	-4.8125	-3.9062	-4.5958	-4.7896	-3.8917	-4.9938	-4.2667	-4.0917	148.318	21.552	288.584	201.422	-11.025	299.241	302.611	261.405	241.009	264.163	28.147	215.132	136.189	291.027	61.482	-16.298	0.00024362	0.00038809	0.00010536	691.39	2.8842e-06	3.0956e-06	742.67	213.75	1.3629e-06	3.3647e-06	259.09	102.27	75.302	34.485	2.9936e-06	52.776	6.7169e-05	3.4575e-05	9.0769e-06	699.48	4.0599e-07	3.1649e-07	751.71	217.97	3.7431e-07	3.5281e-07	262.25	104.49	77.17	35.395	3.9138e-07	53.979	121.540	85.234	67.754	-16.300	123.620	108.686	-16.946	-10.379	131.281	144.041	-12.473	-6.744	-5.431	0.165	136.400	-2.654	-8191	255	
1629.591	1	1	0	0	0.18437	0.035819	0.18201	0.17955	0.093191	0.14717	0.10762	0.065927	0.25342	0.17744	0.064946	0.16302	0.18343	0.065682	0.20371	0.28089	-4.5896	-3.925	-4.4042	-4.5875	-3.8729	-4.8229	-4.4271	-4.1687	-4.8292	-4.1604	-4.3896	-4.7667	-3.9	-4.7646	-4.4729	-3.9938	25.797	133.961	-14.051	286.758	185.355	139.912	206.763	5.587	194.225	312.236	174.516	-17.022	319.027	136.348	181.702	-7.755	0.00023596	0.00037086	0.00011581	692.78	3.1424e-06	3.9386e-06	741.65	215.04	2.1584e-06	3.7766e-06	259.91	102.87	75.466	34.615	3.0727e-06	53.188	6.5749e-05	3.4631e-05	9.4259e-06	700.97	3.9363e-07	3.3303e-07	754.1	218.61	3.6012e-07	3.4647e-07	263.44	105.07	77.172	35.49	3.8497e-07	54.251	123.712	72.288	78.515	-16.257	112.148	125.071	-17.047	-10.731	119.385	121.348	-12.697	-6.906	-5.754	0.347	113.666	-2.677	-8191	255	
1629.712	1	1	0	0	0.16736	0.23502	0.15419	0.20868	0.15271	0.13788	0.17608	0.16902	0.11512	0.34153	0.19173	0.29897	0.085942	0.3006	0.13701	0.29486	-4.6375	-3.9521	-4.3729	-4.6667	-3.9938	-4.5229	-4.4375	-4.0667	-4.8229	-4.25	-4.1104	-4.8208	-4.0667	-4.5979	-4.5854	-3.9833	-17.762	55.228	-12.482	292.739	239.090	149.604	200.320	210.485	186.495	168.535	289.037	304.858	20.203	10.458	-5.154	280.280	0.00026807	0.00039844	7.6998e-05	693.14	3.1218e-06	3.1958e-06	743.06	215.96	2.3334e-06	3.3457e-06	260.47	102.71	75.661	34.468	2.3414e-06	52.823	6.815e-05	3.2672e-05	9.264e-06	700.17	3.8797e-07	3.3806e-07	754.07	218.89	3.8504e-07	3.3424e-07	264.04	104.81	77.304	35.402	3.8955e-07	53.925	121.359	59.938	77.555	-16.126	137.128	104.255	-16.882	-10.716	130.589	112.162	-12.272	-7.040	-5.530	0.410	137.238	-2.636	-8191	255	
1629.783	1	1	0	0	0.084434	0.059769	0.1191	0.13864	0.038524	0.24544	0.25547	0.092069	0.15677	0.21826	0.30751	0.16873	0.11572	0.19775	0.27898	0.10484	-4.3583	-4.2667	-4.1854	-4.7042	-3.8896	-4.4062	-4.6375	-4.1375	-4.7708	-4.3125	-4.0708	-4.8438	-4.025	-4.5229	-4.725	-3.8875	61.340	150.504	318.133	104.463	-12.555	116.279	257.260	151.313	274.323	108.821	-26.828	300.991	283.141	4.188	237.996	295.007	0.0002699	0.00027714	9.4906e-05	695.26	2.7984e-06	2.9709e-06	744.19	215.15	1.8211e-06	2.8176e-06	259.59	102.05	75.333	34.546	3.2143e-06	52.937	6.8263e-05	3.371e-05	9.2505e-06	700.48	3.885e-07	3.5673e-07	753.11	218.73	3.9357e-07	3.3882e-07	263.06	104.46	77.3	35.415	3.9389e-07	53.887	120.774	67.355	53.908	-16.621	136.748	108.905	-16.720	-10.910	143.219	131.279	-12.559	-7.065	-5.651	0.101	145.462	-2.828	-8191	255	
1629.879	1	1	0	0	0.18701	0.17471	0.23233	0.14291	0.24318	0.14282	0.1264	0.20969	0.13589	0.19454	0.11426	0.050436	0.036399	0.15515	0.27681	0.30101	-4.3104	-4.4187	-4.0625	-4.5563	-4.0854	-4.3771	-4.7708	-3.9292	-4.7	-4.1625	-4.1479	-4.7688	-3.9583	-4.3187	-4.5771	-3.9396	88.388	250.102	164.927	292.715	125.582	144.698	179.269	-2.931	117.881	106.755	102.689	85.925	99.104	21.275	130.438	-0.004	0.00027498	0.00047346	0.00010649	691.6	2.7139e-06	2.8095e-06	741.02	214.2	2.7417e-06	3.4914e-06	259.9	102.26	75.316	34.274	2.354e-06	52.742	7.0558e-05	3.2464e-05	9.9119e-06	699.02	3.793e-07	3.6649e-07	751.88	218.15	3.9803e-07	3.4089e-07	262.56	104.36	77.028	35.341	3.7765e-07	53.825	119.147	66.104	60.613	-16.134	119.981	115.194	-16.798	-10.503	115.599	125.966	-12.391	-6.994	-5.396	-0.051	144.980	-2.541	-8191	255	
1629.998	1	1	0	0	0.2274	0.10051	0.11102	0.20333	0.1417	0.095615	0.14673	0.046203	0.11612	0.30393	0.096445	0.1168	0.08177	0.099627	0.090048	0.11178	-4.2854	-4.2833	-4.0396	-4.7125	-4.1708	-4.3313	-4.7604	-3.925	-4.4021	-4.5312	-3.7979	-5.0354	-4.1354	-4.2542	-4.7604	-4.1417	292.558	146.988	109.901	-7.328	218.029	260.268	303.104	16.692	162.774	277.776	245.838	207.505	-28.735	173.459	8.291	79.445	0.00026037	0.00028987	0.00010535	694.23	3.1091e-06	2.9737e-06	747	213.41	2.6989e-06	3.2972e-06	260.27	102.18	75.086	34.331	1.8639e-06	52.801	6.7062e-05	3.2084e-05	9.4202e-06	700.17	3.8028e-07	3.5201e-07	754.93	217.97	4.0098e-07	3.3103e-07	263.13	104.57	76.924	35.264	3.6843e-07	53.91	126.200	63.185	64.438	-15.844	127.734	110.413	-16.921	-10.782	132.954	138.811	-12.400	-6.923	-5.610	0.012	132.928	-2.635	-8191	255	
1630.094	1	1	0	0	0.089197	0.12228	0.042553	0.13713	0.14815	0.16517	0.072352	0.13118	0.19232	0.066689	0.30939	0.12977	0.034578	0.15858	0.14933	0.16424	-4.1521	-4.6604	-3.8271	-4.8792	-4.1625	-4.2167	-4.8479	-4.0396	-4.3875	-4.5792	-3.9333	-4.7937	-4.3562	-3.9542	-4.8771	-4.0021	9.140	122.683	-26.947	44.829	98.893	128.309	87.613	273.236	194.796	74.018	231.882	87.621	3.483	204.379	-17.702	218.893	0.00023107	0.00040419	8.7713e-05	690.69	2.2378e-06	3.3744e-06	745.6	214.41	2.2069e-06	2.6945e-06	260.19	102.05	75.457	34.335	3.0379e-06	52.603	6.8476e-05	3.2194e-05	9.6284e-06	700.24	3.8594e-07	3.4103e-07	758.33	218.39	3.9833e-07	3.1138e-07	263.72	104.54	77.147	35.235	3.7338e-07	53.674	120.775	73.765	59.870	-16.381	106.580	118.442	-17.090	-10.677	129.865	126.273	-12.519	-7.003	-5.604	0.258	121.216	-2.625	-8191	255	
1630.191	1	1	0	0	0.30895	0.051579	0.070407	0.26752	0.11704	0.12753	0.11177	0.06191	0.083908	0.090422	0.082418	0.26432	0.096031	0.18647	0.12018	0.13547	-3.8771	-4.5938	-4.0083	-4.8646	-4.4104	-3.9833	-5.0292	-4.1146	-4.2979	-4.9021	-3.7792	-4.7312	-4.4521	-4.0479	-4.7708	-4.3417	237.221	95.812	171.849	-28.851	279.840	325.368	235.733	-22.663	149.694	250.974	317.400	-22.499	43.397	-4.183	139.182	291.175	0.00024654	0.00050852	7.4713e-05	696.97	2.3353e-06	2.2523e-06	747.58	215.09	2.6251e-06	3.7816e-06	259.67	101.6	75.089	34.08	2.8417e-06	52.336	7.0496e-05	3.1343e-05	9.3835e-06	704.1	3.6837e-07	3.6031e-07	757.38	218.38	3.9999e-07	3.2361e-07	262.74	103.82	76.619	35.034	3.6385e-07	53.424	116.738	56.241	62.032	-15.932	118.836	114.407	-17.044	-10.916	131.927	126.569	-12.288	-7.084	-5.346	0.322	142.772	-2.724	-8191	255	
1630.287	1	1	0	0	0.17984	0.27755	0.21099	0.082852	0.034626	0.15534	0.051808	0.059454	0.017608	0.10656	0.10664	0.11791	0.27464	0.031402	0.11932	0.14107	-3.9792	-4.7708	-3.9604	-4.5875	-4.5333	-3.9271	-4.8187	-4.4292	-4.2958	-4.8688	-4.0604	-4.7271	-4.5646	-4.1333	-4.8	-4.2667	278.321	140.724	153.443	307.370	321.326	185.088	188.208	273.290	220.290	253.998	1.970	236.617	318.482	243.506	248.771	-2.369	0.00025632	0.00038132	7.5051e-05	695.79	2.3702e-06	3.8797e-06	748.37	213.72	1.5844e-06	2.6551e-06	258.78	101.05	74.384	34.027	3.183e-06	52.118	7.0858e-05	3.0374e-05	9.4009e-06	703.99	3.527e-07	3.6847e-07	756.03	217.68	3.9146e-07	3.1987e-07	262.16	103.68	76.294	34.986	3.788e-07	53.335	121.378	54.683	66.168	-16.093	97.866	121.326	-16.951	-10.711	113.154	124.261	-12.353	-6.939	-5.248	0.379	134.286	-2.658	-8191	255	
1630.383	1	1	0	0	0.1023	0.076756	0.13085	0.012477	0.1551	0.21596	0.24216	0.06976	0.10112	0.20925	0.091793	0.043857	0.11679	0.1734	0.14575	0.27536	-3.8771	-4.8583	-3.7708	-4.4187	-4.6354	-3.9854	-4.8187	-4.425	-3.9958	-4.9167	-3.8083	-4.45	-4.6875	-3.9958	-4.5896	-4.5146	260.090	112.802	115.704	59.318	50.125	244.196	302.296	304.308	192.010	164.759	63.030	252.137	233.580	197.473	69.045	312.487	0.00025671	0.00042729	8.1488e-05	696.07	3.1227e-06	2.873e-06	748.27	213.92	2.3679e-06	3.4876e-06	260.09	101.69	74.85	34.078	2.2289e-06	52.531	7.0089e-05	3.0305e-05	9.1791e-06	703.05	3.775e-07	3.5285e-07	757.27	217.88	4.3262e-07	3.1811e-07	262.93	103.92	76.514	35.096	3.7071e-07	53.724	120.505	59.367	62.761	-15.934	108.575	123.469	-16.887	-10.544	127.985	116.777	-12.308	-6.863	-5.664	-0.050	129.143	-2.711	-8191	255	
1630.479	1	1	0	0	0.098634	0.091102	0.18822	0.21324	0.19521	0.19282	0.21481	0.1244	0.071068	0.18516	0.081035	0.21802	0.18267	0.22377	0.10322	0.01848	-3.6271	-4.9125	-4.1062	-4.4833	-4.575	-4.0396	-4.6	-4.5583	-3.9437	-4.9563	-4.2625	-4.2833	-4.7604	-4.0417	-4.6542	-4.5729	175.387	229.191	21.232	32.477	35.130	34.123	328.159	233.728	327.622	285.510	221.769	328.206	326.058	-12.578	239.338	52.329	0.00025096	0.00050032	0.00010532	699.71	3.2352e-06	4.2162e-06	751.17	214.66	2.5767e-06	3.1957e-06	263.51	102.45	75.124	34.414	2.365e-06	52.748	6.9082e-05	3.0914e-05	9.1e-06	703.89	3.8707e-07	3.7777e-07	760.84	218.63	4.2401e-07	3.3294e-07	264.87	104.72	76.923	35.251	3.7796e-07	53.797	118.629	67.124	53.870	-15.974	119.994	109.929	-17.094	-10.359	116.649	119.611	-11.975	-7.079	-5.419	0.262	148.105	-2.465	-8191	255	
1630.575	1	1	0	0	0.13114	0.10457	0.017445	0.10102	0.31839	0.27049	0.21552	0.2232	0.15255	0.26237	0.077436	0.18723	0.13807	0.095845	0.053023	0.083694	-3.775	-4.7688	-4.0917	-4.0687	-4.8375	-3.8854	-4.5437	-4.4917	-4.0208	-4.9	-4.3604	-4.0229	-4.8458	-3.9292	-4.5167	-4.7562	310.935	220.820	165.836	207.601	231.786	92.881	270.520	316.373	125.818	-25.402	86.900	258.590	191.665	233.681	1.056	67.159	0.00025818	0.00045956	0.00010674	699.03	3.4565e-06	3.5538e-06	747.2	214.92	2.3042e-06	2.9816e-06	261.69	101.94	75.137	34.312	3.2838e-06	52.555	7.1509e-05	3.1468e-05	8.8108e-06	704.11	3.64e-07	3.5711e-07	756.47	218.63	4.1298e-07	3.295e-07	263.36	104.22	76.814	35.24	3.7941e-07	53.74	124.560	55.660	71.112	-16.113	110.598	133.529	-17.257	-10.569	129.780	128.124	-12.296	-7.193	-5.561	0.130	138.562	-2.486	-8191	255	
1630.671	1	1	0	0	0.070047	0.24335	0.10874	0.053959	0.054247	0.098206	0.21568	0.024701	0.16056	0.13017	0.13173	0.2902	0.15711	0.15842	0.13076	0.078614	-3.6583	-4.6708	-4.4062	-4.15	-4.9479	-3.9146	-4.5125	-4.775	-3.8833	-4.6771	-4.9667	-4.3104	-5.2063	-4.2729	-4.5021	-4.9812	40.916	212.455	62.084	187.479	148.663	229.591	227.224	20.663	85.098	266.105	148.320	284.389	36.043	224.384	5.937	64.207	0.00025413	0.00041767	8.7531e-05	700.67	3.289e-06	3.0773e-06	742.85	215.31	1.6603e-06	3.6321e-06	260.72	102.39	75.32	34.327	3.0979e-06	52.812	7.0946e-05	3.2603e-05	8.6681e-06	705.52	3.8413e-07	3.5391e-07	756.97	219.1	4.08e-07	3.5243e-07	263.51	104.56	76.993	35.293	3.9725e-07	53.908	121.133	59.534	47.911	-16.262	137.718	115.219	-17.001	-10.536	110.505	110.844	-12.127	-6.762	-5.510	0.343	149.889	-2.537	-8191	255	
1630.790	1	1	0	0	0.19171	0.2186	0.16255	0.11949	0.079557	0.090872	0.12004	0.13455	0.21392	0.13365	0.2743	0.020082	0.1486	0.26567	0.046478	0.38691	-3.9792	-4.9104	-4.7104	-4.3021	-5.075	-4.4854	-4.6083	-5.1625	-4.0333	-4.8333	-4.9104	-4.2125	-5.1729	-4.3146	-4.35	-5.1479	276.795	18.623	210.975	124.828	190.777	211.422	266.748	283.520	310.734	128.285	255.574	312.735	10.967	-26.269	219.291	280.015	0.00024016	0.00043148	6.1492e-05	695.84	3.0039e-06	4.5335e-06	748.39	215.3	2.646e-06	3.0819e-06	262.22	102.2	75.749	34.498	3.0842e-06	53.188	7.0808e-05	3.1039e-05	8.3981e-06	703.25	3.5172e-07	3.3509e-07	758.08	218.91	4.123e-07	3.3042e-07	264.75	104.84	77.264	35.418	4.1402e-07	54.252	120.993	52.759	44.189	-15.861	118.776	119.748	-16.848	-10.603	141.996	118.429	-11.759	-7.010	-5.094	0.418	129.856	-2.277	-8191	255	
1630.886	1	1	0	0	0.15409	0.10839	0.045423	0.24138	0.18028	0.11901	0.16561	0.18086	0.13576	0.28571	0.10537	0.18604	0.30233	0.098169	0.33681	0.3321	-3.8417	-4.6917	-4.9771	-4.1292	-5.0396	-4.5521	-4.325	-5.1542	-4.1583	-4.6896	-4.9125	-4.1042	-5.0083	-4.4708	-4.2312	-5.1354	165.412	285.358	169.498	228.683	167.357	160.670	38.557	265.131	21.024	282.390	314.372	264.140	29.525	218.945	301.353	291.170	0.00026639	0.00046219	8.7745e-05	698.42	2.6949e-06	2.6295e-06	753.85	214.95	3.0283e-06	2.1316e-06	261.96	102.57	76.073	34.269	3.1968e-06	53.06	6.9014e-05	3.0208e-05	8.4193e-06	703.9	3.5767e-07	3.2534e-07	761.03	218.89	4.0762e-07	3.3003e-07	264.66	104.71	77.234	35.264	4.1852e-07	53.983	128.714	45.853	60.385	-16.093	122.334	123.481	-16.676	-10.177	132.795	109.072	-11.888	-7.013	-5.434	0.483	127.879	-2.396	-8191	255	
1630.982	1	1	0	0	0.088355	0.091027	0.14167	0.23184	0.17994	0.059551	0.27865	0.097134	0.039864	0.1959	0.11745	0.34003	0.13125	0.29058	0.20681	0.070277	-4.1104	-4.5354	-4.9958	-4.2958	-4.9771	-4.5667	-4.4021	-5.2167	-4.3125	-4.4833	-5.0125	-4.2812	-5.0021	-4.7021	-4.0979	-5.1687	-4.403	306.166	-19.055	236.335	74.829	246.982	269.936	47.739	42.335	255.875	77.056	18.687	73.164	4.129	304.026	208.854	0.00025918	0.00057691	9.6897e-05	698.07	2.8957e-06	3.3661e-06	746.27	215.01	1.9563e-06	3.5924e-06	260.28	101.95	74.582	34.29	2.4111e-06	52.317	7.0095e-05	3.4451e-05	8.6874e-06	704.98	3.5043e-07	3.0651e-07	756.16	218.88	4.0135e-07	3.4081e-07	263.21	103.85	76.707	35.069	4.1242e-07	53.422	121.803	46.255	72.895	-16.127	118.792	105.520	-16.954	-10.456	141.116	108.363	-12.119	-7.173	-5.514	0.306	145.058	-2.460	-8191	255	
1631.079	1	1	0	0	0.21574	0.24945	0.12593	0.025147	0.21925	0.076868	0.19168	0.23168	0.017272	0.14718	0.074069	0.14295	0.12383	0.15871	0.25127	0.039382	-4.1729	-4.325	-5.1292	-4.1167	-5.0042	-4.625	-4.1979	-4.9958	-4.4062	-4.3	-5.1438	-4.0896	-4.7292	-4.95	-4.15	-5.1042	254.277	62.040	177.954	222.548	-17.672	163.372	-17.365	326.452	57.743	184.990	-28.408	289.281	268.122	-24.334	100.514	205.871	0.00024406	0.00046471	8.4167e-05	695.46	2.0503e-06	4.1591e-06	749.33	214.92	2.5452e-06	3.1988e-06	259.54	101.24	74.73	34.164	2.6395e-06	52.346	6.8738e-05	3.2748e-05	7.7868e-06	702.82	3.6732e-07	3.1307e-07	756.6	218.33	3.8277e-07	3.6206e-07	262.79	103.78	76.488	35.002	3.9725e-07	53.42	121.755	69.941	77.984	-16.041	130.703	121.834	-16.928	-10.524	115.543	131.669	-12.242	-6.604	-5.340	0.412	160.335	-2.367	-8191	255	
1631.175	1	1	0	0	0.23866	0.10452	0.14897	0.14596	0.06698	0.053705	0.14916	0.12282	0.046559	0.17255	0.12676	0.27111	0.17421	0.12232	0.12684	0.20995	-4.1833	-4.3521	-5.0208	-4.0958	-4.5458	-4.9583	-4.3021	-5.1417	-4.8562	-4.325	-5.0208	-4.4917	-4.825	-5.1146	-4.0667	-5.0833	254.727	10.083	53.425	237.305	152.054	200.818	-23.469	283.541	211.664	61.153	30.635	289.534	247.276	326.222	195.003	231.216	0.0002526	0.00041168	8.7595e-05	697.28	2.4111e-06	3.2304e-06	749.49	214.27	1.9522e-06	3.7018e-06	259.64	101.48	74.694	33.925	2.5651e-06	52.483	6.7237e-05	3.2893e-05	8.1937e-06	702.29	3.6913e-07	3.1764e-07	758.23	218	4.0823e-07	3.5403e-07	263.25	103.86	76.305	34.841	4.1181e-07	53.527	118.571	80.619	67.053	-16.058	129.042	130.640	-17.039	-10.253	122.773	116.025	-12.220	-6.949	-5.271	0.635	118.897	-2.280	-8191	255	
1631.271	1	1	0	0	0.19204	0.16211	0.23793	0.22926	0.30124	0.11045	0.1108	0.068251	0.067058	0.19678	0.11628	0.18256	0.18616	0.078623	0.18734	0.1144	-4.4417	-4.2562	-5.1146	-4.475	-4.6979	-4.8708	-4.3313	-4.9792	-4.7333	-4.0896	-5.1917	-4.4542	-4.5167	-5.0417	-4.2083	-4.8292	206.025	266.344	7.486	330.268	245.555	171.809	27.969	287.030	331.013	18.565	55.860	37.950	31.910	46.248	69.799	320.384	0.0002585	0.00041194	0.00010157	697.13	2.0734e-06	3.0841e-06	751.05	214.78	2.0613e-06	3.4236e-06	259.82	101.51	74.76	33.823	1.8086e-06	52.361	6.7237e-05	3.3004e-05	8.3943e-06	702.76	3.7162e-07	3.2846e-07	761.54	218.05	3.8156e-07	3.6909e-07	263.54	103.74	76.212	34.836	3.8962e-07	53.382	119.135	48.093	57.062	-16.118	105.574	135.070	-16.812	-10.107	114.687	118.706	-11.787	-6.608	-5.707	0.634	143.244	-2.340	-8191	255	
1631.392	1	1	0	0	0.087981	0.083707	0.088635	0.23691	0.24146	0.18886	0.12201	0.15764	0.19927	0.083064	0.3355	0.09452	0.36488	0.11363	0.074182	0.20934	-4.5687	-4.0979	-5.1667	-4.3646	-4.4667	-5.1104	-4.4292	-4.7812	-4.8979	-4.2021	-5.1958	-4.6771	-4.4083	-5.2229	-4.1438	-4.6458	124.689	235.050	71.754	313.910	236.753	325.118	187.346	315.523	259.559	323.673	220.048	232.362	250.190	319.143	101.931	73.991	0.0002585	0.0003896	7.2117e-05	695.99	2.4409e-06	3.5054e-06	752.01	214.19	2.4298e-06	3.1367e-06	259.92	100.76	74.861	33.976	2.56e-06	52.26	6.7807e-05	3.2188e-05	8.078e-06	705.13	3.9046e-07	3.0377e-07	760.54	218.05	3.9365e-07	3.5044e-07	262.68	103.17	76.247	34.753	4.003e-07	53.095	117.070	57.366	73.559	-15.760	145.992	128.112	-16.780	-10.476	120.250	115.059	-11.896	-6.674	-5.245	0.474	140.700	-2.329	-8191	255	
1631.488	1	1	0	0	0.19546	0.17738	0.12251	0.26684	0.086921	0.031285	0.055138	0.26179	0.090537	0.1065	0.077143	0.087178	0.092774	0.11719	0.044607	0.25011	-4.5542	-4.1792	-4.9646	-4.3375	-4.1896	-4.9729	-4.1729	-4.7521	-4.7312	-4.225	-4.8354	-4.6438	-4.2229	-5.1	-4.2625	-4.6062	-11.775	191.035	247.990	278.856	324.085	110.278	224.703	314.584	329.630	67.794	262.285	296.842	86.376	224.145	184.732	280.076	0.00024799	0.00039074	7.9243e-05	698.59	2.7823e-06	3.6543e-06	751.29	213.86	2.546e-06	4.5068e-06	258.67	101.29	74.447	34.17	2.3272e-06	52.091	6.7531e-05	3.3018e-05	8.562e-06	705.04	3.9257e-07	2.9843e-07	758.69	217.54	3.6669e-07	3.3034e-07	262.13	103.38	76.182	34.975	3.7491e-07	53.354	118.134	57.663	76.558	-15.871	149.446	111.783	-16.681	-10.703	137.250	131.356	-11.739	-6.652	-5.118	0.535	139.683	-2.218	-8191	255	
1631.584	1	1	0	0	0.14194	0.099012	0.11465	0.13001	0.10775	0.21339	0.20087	0.20554	0.10215	0.029817	0.17448	0.062643	0.21407	0.047569	0.13115	0.064868	-4.6604	-4.0479	-4.9917	-4.625	-4.0896	-5.1375	-4.3896	-4.4083	-5.175	-4.0312	-4.7896	-4.8958	-4.0563	-5.0396	-4.5021	-4.4708	34.840	-7.070	265.957	-15.624	157.547	326.813	263.197	-22.991	187.308	115.463	222.383	185.109	294.999	102.925	136.993	225.675	0.00024164	0.00038993	7.7343e-05	695.25	2.7311e-06	3.4281e-06	753.13	213.95	2.7476e-06	1.8615e-06	260.28	101.78	74.728	34.163	3.4304e-06	52.755	6.5618e-05	3.2499e-05	8.9959e-06	701.83	3.79e-07	3.0697e-07	761.23	218	3.5679e-07	3.4165e-07	263.51	104.19	76.404	35.086	3.7857e-07	53.735	119.747	56.011	85.460	-15.779	127.345	106.634	-16.693	-10.381	162.511	127.508	-11.820	-6.813	-4.973	0.656	126.173	-2.199	-8191	255	
1631.680	1	1	0	0	0.15514	0.14181	0.17394	0.21808	0.078795	0.25322	0.11276	0.051791	0.29129	0.17481	0.21655	0.066233	0.081894	0.17442	0.069134	0.17956	-4.7875	-4.1292	-4.6542	-4.9979	-4.1021	-5.0729	-4.525	-4.45	-5.0292	-4.0958	-4.7458	-4.9854	-4.0854	-5.1375	-4.6042	-4.3542	157.824	118.714	67.036	206.817	9.191	328.670	156.347	208.887	89.897	41.601	264.115	220.505	251.037	315.405	223.193	24.160	0.00027531	0.00041057	6.8882e-05	697.09	3.0523e-06	3.4892e-06	750.39	214.41	2.6485e-06	3.2656e-06	261.16	102.29	75.056	34.31	3.259e-06	52.999	6.6574e-05	3.3226e-05	8.7047e-06	704.43	4.0734e-07	3.2976e-07	762.05	218.27	3.685e-07	3.3959e-07	264.4	104.44	76.67	35.179	3.8177e-07	54.011	119.700	53.497	44.432	-15.726	134.346	103.070	-16.639	-10.358	126.388	118.110	-11.872	-6.480	-5.177	0.679	127.298	-2.135	-8191	255	
1631.776	1	1	0	0	0.20561	0.30634	0.18973	0.12152	0.10928	0.23928	0.17366	0.050891	0.14915	0.043321	0.20856	0.094265	0.093682	0.32667	0.12319	0.14609	-4.8146	-4.1917	-4.6312	-5.0458	-4.1104	-4.9271	-4.7021	-4.3625	-5.1188	-4.2271	-4.5917	-4.8896	-4.1083	-4.7354	-4.6521	-4.1937	32.051	65.705	212.913	317.496	198.748	103.329	191.609	295.178	181.950	227.530	262.921	-4.066	143.033	279.664	24.632	257.268	0.00025303	0.00028855	8.6242e-05	701.95	3.2145e-06	2.7794e-06	751.63	215.06	2.2002e-06	2.7952e-06	262.68	102.23	75.431	34.521	2.0969e-06	52.666	6.8932e-05	3.2679e-05	8.7221e-06	706.2	3.9468e-07	3.2389e-07	761.81	218.88	3.4962e-07	3.3745e-07	264.53	104.43	76.98	35.301	3.9107e-07	53.787	119.371	59.217	80.115	-15.462	120.520	133.019	-16.604	-10.332	131.890	125.793	-11.956	-6.568	-5.051	0.412	135.288	-2.367	-8191	255	
1631.871	1	1	0	0	0.1639	0.14245	0.14987	0.066499	0.20862	0.067032	0.02766	0.28095	0.06912	0.075935	0.12802	0.11281	0.12431	0.077873	0.18749	0.19564	-4.8583	-4.3583	-4.3438	-5.1333	-4.1583	-4.7542	-4.9146	-4.1417	-4.9625	-4.3771	-4.3938	-5.0333	-4.1958	-4.8708	-4.8354	-4.2521	316.231	238.090	207.242	285.831	284.829	316.010	22.171	314.788	301.753	295.394	221.317	296.403	267.153	4.868	-3.272	266.298	0.00025619	0.00047981	7.4581e-05	698.14	2.9408e-06	3.6095e-06	752.8	214.7	3.1457e-06	3.783e-06	263.45	102.9	75.379	34.816	1.7732e-06	53.133	6.5267e-05	3.0803e-05	8.5119e-06	705.31	3.8767e-07	3.3829e-07	760.66	219.14	3.682e-07	3.2858e-07	265.33	105.21	77.303	35.554	3.6187e-07	54.362	122.727	47.960	59.615	-15.739	105.773	119.726	-16.350	-10.130	141.181	125.675	-11.726	-6.471	-5.301	0.241	133.498	-2.306	-8191	255	
1631.967	1	1	0	0	0.35702	0.10671	0.36691	0.26896	0.20535	0.26967	0.139	0.056422	0.091976	0.072814	0.15617	0.20405	0.27511	0.22251	0.060492	0.078268	-4.8625	-4.4396	-4.3833	-5.1521	-4.0917	-4.675	-5.1021	-4.2229	-5.0333	-4.7	-4.2708	-5.1542	-4.2979	-4.7937	-4.9729	-4.3646	309.085	32.179	29.172	8.069	16.380	294.280	279.999	242.127	291.153	-2.740	-19.430	149.581	290.108	285.749	196.347	71.387	0.00026183	0.00043356	8.9253e-05	701.55	2.8458e-06	4.2144e-06	753.56	215.46	1.5574e-06	2.9755e-06	262.54	104	75.54	34.772	2.472e-06	53.421	6.7125e-05	3.3053e-05	9.0808e-06	705.46	4.124e-07	3.7045e-07	761.9	219.81	3.7802e-07	3.428e-07	265.94	105.94	77.62	35.675	3.8619e-07	54.541	118.698	63.993	68.449	-15.959	107.863	112.608	-16.596	-10.247	119.192	103.058	-11.970	-6.284	-4.929	0.733	136.990	-2.267	-8191	255	
1632.087	1	1	0	0	0.22737	0.15488	0.095122	0.028165	0.12467	0.12505	0.099413	0.17917	0.11724	0.17881	0.31113	0.058531	0.038481	0.062224	0.032586	0.11217	-4.7438	-4.7146	-4.2375	-5.2063	-4.3417	-4.6188	-5.1542	-4.2063	-4.8562	-4.7021	-4.1958	-5.1083	-4.3938	-4.3854	-5.0417	-4.2438	63.633	149.329	111.214	212.317	147.040	82.854	-26.954	305.532	114.674	230.672	-24.797	-19.810	311.058	214.611	274.551	59.192	0.00025134	0.00037467	0.00010389	698.34	3.4727e-06	3.0247e-06	753.22	216.64	2.2444e-06	2.7051e-06	264.63	103.73	75.931	34.666	2.5864e-06	53.51	6.9214e-05	3.0471e-05	9.3334e-06	705.81	3.943e-07	3.4736e-07	764.1	219.84	3.793e-07	3.2468e-07	266.71	105.77	77.55	35.618	3.8352e-07	54.544	122.040	59.452	66.401	-15.532	120.021	129.365	-16.457	-9.968	132.793	91.126	-11.690	-6.671	-5.021	0.508	129.093	-1.878	-8191	255	
1632.183	1	1	0	0	0.14708	0.18658	0.27659	0.17077	0.049508	0.089388	0.049103	0.19952	0.042923	0.16577	0.05842	0.14216	0.12619	0.2747	0.20553	0.098032	-4.4708	-4.7125	-4.1646	-5.0875	-4.5437	-4.3688	-5.1146	-4.2771	-4.7021	-4.8187	-4.1875	-5.0104	-4.7063	-4.1146	-5.0979	-4.3625	237.437	40.955	92.617	197.770	107.543	122.335	280.499	-6.727	-21.241	243.450	330.905	295.375	255.597	40.279	10.552	-2.660	0.00026193	0.00044564	9.0265e-05	702.61	2.1054e-06	4.1369e-06	752.39	215.55	3.1924e-06	3.3434e-06	262.09	102.88	75.518	34.577	3.4988e-06	53.092	6.8363e-05	3.0035e-05	8.8031e-06	706.99	3.5956e-07	3.4271e-07	761.42	219.13	3.8829e-07	3.2644e-07	264.47	105.04	77.375	35.495	3.7247e-07	54.025	118.929	67.492	58.074	-15.699	134.668	125.563	-16.521	-10.224	122.230	121.905	-11.599	-6.501	-5.054	0.738	117.330	-2.014	-8191	255	
1632.255	1	1	0	0	0.20961	0.06672	0.27691	0.10146	0.087324	0.064573	0.077206	0.19295	0.0068978	0.064527	0.26933	0.11199	0.10445	0.24309	0.094787	0.17523	-4.2188	-4.8375	-4.1125	-5.1146	-4.5542	-4.4021	-5.1917	-4.3063	-4.5042	-4.8458	-4.3042	-5.0979	-4.7354	-4.4042	-5.2188	-4.5563	218.529	35.286	312.263	266.256	86.752	83.910	9.608	-2.544	169.442	23.720	241.369	221.270	80.784	9.404	325.362	263.298	0.00027203	0.00030195	8.7678e-05	701.92	3.5865e-06	3.8274e-06	750.35	215.14	2.3148e-06	3.9413e-06	259.77	102.27	74.918	34.246	2.6829e-06	52.467	6.9076e-05	2.9883e-05	8.8397e-06	706.01	3.6664e-07	3.6656e-07	760.01	219.51	4.0045e-07	3.0756e-07	263.74	104.65	76.85	35.207	3.6683e-07	53.645	120.902	70.796	71.291	-15.777	117.776	116.580	-16.789	-10.217	129.991	131.870	-11.953	-6.518	-5.093	0.855	130.005	-1.862	-8191	255	
1632.351	1	1	0	0	0.18	0.27972	0.19712	0.041624	0.11456	0.19625	0.18236	0.10745	0.17511	0.11101	0.22903	0.21526	0.22316	0.067356	0.10286	0.38575	-4.225	-5.15	-4.1521	-4.7771	-4.8646	-4.1438	-5.2688	-4.5188	-4.4563	-4.9771	-4.1833	-4.7708	-4.95	-4.4	-5.1229	-4.65	210.406	2.221	232.381	248.483	139.117	309.859	-26.679	316.826	304.627	284.218	46.890	86.339	313.245	89.725	57.004	-17.626	0.00028292	0.0003419	9.4647e-05	696.76	3.193e-06	2.6668e-06	750.29	214.78	2.2638e-06	2.5123e-06	259.03	102.12	74.873	34.295	2.8205e-06	52.753	6.8094e-05	2.8859e-05	9.1444e-06	703.74	3.4606e-07	3.3235e-07	759.46	217.99	3.8889e-07	3.1895e-07	263.06	104.26	76.639	35.126	3.6355e-07	53.917	120.878	55.149	66.522	-15.497	131.223	105.302	-16.448	-10.086	133.845	134.361	-11.650	-6.600	-5.020	0.521	135.613	-1.989	-8191	255	
1632.472	1	1	0	0	0.099521	0.1459	0.085647	0.07192	0.18279	0.20063	0.077759	0.095654	0.25256	0.21763	0.20159	0.022995	0.23273	0.10581	0.2045	0.15491	-4.0333	-5.0563	-4.3771	-4.7292	-4.8333	-4.1792	-4.8625	-4.6354	-4.2146	-5.0542	-4.2021	-4.8583	-5.1979	-4.1104	-4.9271	-4.6396	204.466	289.653	230.014	179.006	35.502	105.850	316.839	269.471	240.433	298.965	-13.827	222.917	53.534	69.604	-27.388	236.151	0.00025539	0.00037644	8.8789e-05	697.5	3.6499e-06	3.2569e-06	753.13	215.24	2.3287e-06	2.7585e-06	261.44	102.03	75.013	34.254	3.1912e-06	52.643	6.982e-05	3.043e-05	8.9921e-06	704.08	3.5074e-07	3.5087e-07	762.68	218.56	4.0566e-07	3.1345e-07	264.21	104.27	76.573	35.111	3.6805e-07	53.757	119.304	51.337	75.646	-15.795	121.579	119.693	-16.177	-9.662	119.205	128.050	-11.543	-6.492	-4.622	0.900	124.330	-2.087	-8191	255	
1632.568	1	1	0	0	0.19601	0.086393	0.02129	0.1221	0.19992	0.084665	0.1896	0.063236	0.31008	0.1495	0.17378	0.22971	0.20519	0.24449	0.13399	0.2723	-3.8438	-5.1625	-4.2812	-4.7021	-4.8583	-4.1813	-5.0354	-4.7833	-4.2542	-5.1333	-4.5521	-4.625	-4.85	-4.1979	-4.8271	-4.8708	214.001	-12.951	262.138	318.414	295.765	161.197	282.443	-14.836	2.045	260.594	116.611	302.725	10.823	280.526	90.476	-14.849	0.0002602	0.00053149	0.0001025	705.02	2.9434e-06	3.726e-06	751.6	214.73	2.4304e-06	2.6372e-06	260.48	101.47	74.642	33.987	2.1947e-06	52.081	7.3366e-05	3.0305e-05	9.318e-06	707.65	3.4667e-07	3.4629e-07	761.89	218.8	4.006e-07	3.0366e-07	263.05	103.61	76.452	34.849	3.73e-07	53.256	119.847	52.436	77.302	-15.817	122.926	115.535	-17.010	-10.677	122.794	126.514	-12.167	-7.233	-5.800	-0.094	129.467	-2.518	-8191	255	
1632.664	1	1	0	0	0.20891	0.05839	0.16501	0.14988	0.16659	0.10299	0.099028	0.13795	0.089711	0.19456	0.18271	0.078954	0.115	0.01822	0.20238	0.16818	-3.8146	-4.8854	-4.4062	-4.4896	-5.0333	-4.2375	-4.775	-4.9854	-4.2604	-4.9875	-4.5292	-4.3958	-5.2521	-4.2333	-4.7375	-4.9271	308.103	209.102	58.128	47.257	133.305	124.788	132.163	191.598	326.743	319.153	18.596	84.387	173.510	15.813	3.399	12.006	0.0002588	0.00036616	0.00011132	696.8	1.8649e-06	4.6047e-06	749.51	214.49	2.0946e-06	2.9109e-06	259.05	100.62	74.384	33.989	2.2443e-06	51.922	6.9351e-05	3.0028e-05	8.5273e-06	705	3.533e-07	3.3722e-07	760.1	218.34	3.9214e-07	3.0099e-07	262.22	103.35	76.127	34.793	3.5973e-07	53.173	123.909	61.953	74.082	-16.461	139.075	115.395	-17.147	-10.845	124.171	116.243	-12.518	-6.970	-5.918	0.015	110.413	-2.668	-8191	255	
1632.785	1	1	0	0	0.10894	0.10006	0.24811	0.12708	0.2077	0.22793	0.14051	0.092404	0.12171	0.15567	0.049006	0.068465	0.081996	0.073608	0.19236	0.21784	-3.9	-4.9271	-4.4313	-4.2562	-4.9771	-4.2104	-4.7458	-5.0271	-4.1167	-5.0458	-4.5437	-4.2812	-5.3458	-4.2792	-4.5292	-5.1396	309.931	54.510	135.799	280.391	226.992	269.081	254.350	161.102	265.112	27.576	130.397	312.621	188.280	34.954	279.401	207.614	0.00027209	0.00043	0.0001008	697.05	2.8583e-06	2.2355e-06	750.63	214.83	2.5922e-06	3.5558e-06	259.46	101.24	73.962	33.835	3.1064e-06	52.408	7.2485e-05	2.8907e-05	8.6893e-06	704.19	3.6521e-07	3.2084e-07	761.1	218.03	4.0543e-07	3.4486e-07	262.55	103.31	75.91	34.765	3.8901e-07	53.39	120.875	63.451	75.961	-16.711	134.118	123.131	-17.179	-10.685	136.763	130.589	-12.273	-7.122	-5.554	0.432	134.298	-2.618	-8191	255	
1632.881	1	1	0	0	0.10116	0.12614	0.14285	0.14931	0.20409	0.14478	0.22632	0.29268	0.29567	0.28418	0.13062	0.3034	0.015834	0.14381	0.11961	0.34252	-3.7375	-4.9563	-4.6417	-4.3646	-5.0875	-4.3417	-4.6208	-5.1188	-4.0854	-4.9333	-4.6354	-4.3187	-5.0542	-4.5042	-4.3604	-5.2479	186.695	64.448	-0.217	309.065	309.591	154.547	251.930	244.305	15.294	221.546	-13.958	194.596	195.363	154.386	101.319	276.237	0.00024976	0.00039249	9.7082e-05	702.84	2.6223e-06	3.6383e-06	753.01	214.87	2.7343e-06	3.7146e-06	259.1	101.38	74.665	34.081	3.6784e-06	52.598	6.7556e-05	2.9461e-05	8.4135e-06	707.2	3.3875e-07	3.4294e-07	763.07	218.02	4.0717e-07	3.1788e-07	263.02	103.76	76.192	34.89	4.202e-07	53.56	117.218	58.257	60.640	-16.391	113.425	119.016	-16.991	-10.487	138.610	124.539	-12.334	-7.227	-5.681	0.766	124.069	-2.176	-8191	255	
1632.953	1	1	0	0	0.1055	0.089966	0.08856	0.038526	0.089004	0.11542	0.091925	0.31083	0.18006	0.018708	0.28432	0.15289	0.28049	0.30304	0.17945	0.097441	-3.7792	-4.5958	-4.7958	-4.3167	-5.0687	-4.55	-4.4604	-5.15	-4.0479	-4.7875	-4.9833	-4.1417	-4.9917	-4.7729	-4.3396	-5.2375	47.132	293.719	254.976	162.785	-20.389	132.229	207.811	320.681	248.825	184.380	295.767	326.650	302.982	2.727	304.299	329.229	0.00025216	0.00043566	8.9396e-05	701.78	2.2774e-06	3.1123e-06	752.23	214.44	1.7349e-06	3.9043e-06	261.05	101.36	74.287	33.911	2.5493e-06	52.28	7.0258e-05	3.063e-05	7.6538e-06	707.17	3.5616e-07	3.3745e-07	762.23	218.01	3.9191e-07	3.376e-07	262.91	103.48	76.225	34.826	3.9534e-07	53.245	118.498	66.415	82.296	-15.647	122.285	135.752	-16.460	-9.996	113.624	120.436	-11.089	-6.009	-4.776	0.707	151.084	-2.608	-8191	255	
1633.072	1	1	0	0	0.11162	0.078485	0.073729	0.11243	0.14878	0.15474	0.22389	0.19622	0.14175	0.20698	0.11545	0.16242	0.055042	0.061971	0.050301	0.18495	-3.9208	-4.575	-4.9604	-4.1917	-4.9479	-4.5875	-4.2979	-4.9938	-4.1062	-4.4625	-5.0479	-4.15	-4.9958	-4.7875	-4.1396	-5.1271	219.470	261.069	52.220	282.840	198.643	100.550	282.743	-15.603	175.957	49.391	245.861	282.842	190.328	104.678	42.275	5.176	0.00025787	0.00035737	0.00010028	699.72	2.6819e-06	3.1083e-06	752.86	214.43	1.9702e-06	2.9534e-06	261.41	101.74	74.551	34.041	2.8228e-06	52.785	7.0177e-05	3.0672e-05	8.4097e-06	706.52	3.6777e-07	3.1878e-07	760.85	217.94	3.8602e-07	3.2613e-07	262.87	103.68	76.35	34.953	4.0007e-07	53.614	117.479	54.271	70.350	-16.130	103.286	123.884	-17.022	-10.375	102.945	119.238	-11.570	-6.187	-5.027	1.035	124.180	-1.927	-8191	255	
1633.168	1	1	0	0	0.026462	0.030951	0.11348	0.21533	0.17147	0.11473	0.10114	0.028199	0.19759	0.13322	0.26351	0.41471	0.23235	0.084283	0.15238	0.14533	-4.0333	-4.6771	-5.0875	-4.2458	-4.775	-4.6479	-4.3125	-5.1562	-4.2625	-4.4833	-5.3208	-4.1625	-4.8958	-5.05	-4.2833	-5.1208	152.393	228.550	-20.425	276.927	329.655	157.537	202.441	315.576	237.993	330.625	278.576	276.207	293.606	36.373	118.908	273.532	0.00026585	0.00040185	6.7897e-05	699.07	2.9282e-06	2.7428e-06	754.78	214.85	1.9233e-06	2.9e-06	261.46	101.9	74.878	34.413	1.9574e-06	53.056	7.0827e-05	3.254e-05	8.7626e-06	703.93	3.7674e-07	3.1596e-07	761.78	218.21	3.8474e-07	3.4005e-07	264.03	104.11	76.628	35.116	3.9786e-07	53.975	116.708	47.640	49.838	-15.233	129.957	117.583	-16.293	-9.540	128.837	126.621	-11.692	-6.182	-4.700	1.043	133.518	-1.508	-8191	255	
1633.264	1	1	0	0	0.17014	0.154	0.19765	0.12791	0.089277	0.1508	0.088345	0.021431	0.40585	0.21347	0.085429	0.096058	0.080816	0.12192	0.10853	0.28753	-4.2896	-4.375	-4.9625	-4.1438	-4.6708	-4.9271	-4.4729	-5.0813	-4.7271	-4.2229	-5.2417	-4.2458	-4.7979	-4.9417	-4.1583	-5.075	32.866	227.544	69.007	251.875	-22.783	216.033	-17.638	129.775	130.357	113.154	165.510	126.860	276.720	297.588	189.711	299.475	0.00025225	0.00038944	9.5913e-05	698.69	2.6854e-06	2.8294e-06	750.41	214.64	2.0458e-06	3.97e-06	262.13	102.7	74.78	34.354	2.8123e-06	53.101	6.7344e-05	3.3586e-05	8.3538e-06	704.58	3.7501e-07	3.2526e-07	760.94	218.46	3.9803e-07	3.6068e-07	264.66	104.7	76.652	35.228	4.0137e-07	54.181	120.075	56.610	70.705	-15.239	119.396	117.264	-16.198	-10.047	142.426	112.537	-11.291	-6.220	-4.725	1.029	135.529	-1.639	-8191	255	
1633.384	1	1	0	0	0.28602	0.14228	0.16866	0.22256	0.2932	0.17056	0.31214	0.16344	0.1196	0.19936	0.16226	0.21404	0.087168	0.10321	0.24167	0.1208	-4.4542	-4.2188	-5.0062	-4.3458	-4.3729	-5.0354	-4.2396	-4.95	-4.5896	-4.2542	-4.9812	-4.4625	-4.4167	-5.1062	-4.1875	-4.7479	0.377	199.725	7.941	-10.150	172.635	177.308	257.374	287.799	171.822	94.663	288.009	269.387	29.580	298.837	233.737	169.676	0.00027406	0.00041728	0.00013352	700.27	3.2426e-06	3.4692e-06	750.55	214.37	1.7903e-06	3.2296e-06	260.46	101.73	74.766	34.366	3.2821e-06	52.753	6.8182e-05	3.4631e-05	8.5717e-06	705.28	3.8013e-07	2.9676e-07	760.43	218.32	3.7243e-07	3.5266e-07	264.08	104.06	76.626	35.198	4.0411e-07	53.796	116.967	65.450	70.113	-15.599	127.303	123.275	-16.110	-9.837	126.669	133.279	-11.665	-6.563	-5.150	0.575	145.194	-2.380	-8191	255	
1633.481	1	1	0	0	0.27227	0.162	0.15274	0.069379	0.22384	0.097566	0.21083	0.25719	0.21533	0.24057	0.23851	0.10574	0.068675	0.19588	0.067497	0.14847	-4.3792	-4.2937	-5.0813	-4.3292	-4.4437	-5.0687	-4.2729	-4.6771	-4.8854	-4.0333	-5.125	-4.6208	-4.325	-4.9917	-4.15	-4.7896	15.930	298.301	88.109	317.086	268.100	189.414	294.023	276.756	135.947	297.702	199.989	273.827	57.112	-10.615	227.657	263.625	0.0002648	0.0004133	0.00010265	697.77	2.7776e-06	3.0752e-06	753.79	214.03	2.2562e-06	2.9388e-06	261.39	101.75	74.95	34.264	2.8343e-06	52.824	6.8457e-05	3.3378e-05	8.3576e-06	703.07	4.0365e-07	3.0285e-07	759.44	217.71	3.6472e-07	3.5013e-07	263.22	103.96	76.523	35.121	3.8612e-07	53.823	123.808	74.142	56.629	-15.850	115.637	109.236	-16.100	-9.954	122.325	124.829	-11.731	-5.938	-4.851	1.284	118.694	-1.451	-8191	255	
1633.552	1	1	0	0	0.20487	0.33468	0.1201	0.18508	0.033301	0.16995	0.43008	0.11051	0.19071	0.14467	0.21589	0.044489	0.29637	0.21574	0.028879	0.16281	-4.4896	-4.1167	-4.9083	-4.4938	-4.3313	-5.1125	-4.2667	-4.8375	-4.9	-4.1104	-5.1104	-4.7146	-4.1937	-5.1375	-4.1917	-4.5771	58.272	-10.099	133.406	255.541	95.398	265.887	275.635	266.532	50.899	84.770	-24.996	243.740	175.001	-10.287	130.976	11.807	0.00025541	0.00043647	9.2054e-05	697.04	2.7425e-06	3.2559e-06	752.62	213.85	2.1431e-06	2.3974e-06	261.7	102.07	74.881	34.012	3.6069e-06	52.63	6.8895e-05	3.2672e-05	8.2651e-06	704.34	3.9265e-07	3.2305e-07	760.13	217.82	3.5808e-07	3.3164e-07	263.82	104.18	76.41	34.978	3.7826e-07	53.8	116.985	82.269	69.841	-15.258	122.101	121.898	-15.955	-9.672	104.520	131.084	-11.491	-6.516	-5.315	0.896	161.579	-1.930	-8191	255	
1633.648	1	1	0	0	0.12997	0.20332	0.049731	0.16186	0.19659	0.12938	0.29972	0.15271	0.18463	0.16487	0.11439	0.10047	0.027038	0.092578	0.2543	0.21748	-4.8021	-4.2208	-4.7146	-4.7333	-4.2188	-5.0021	-4.2646	-4.5792	-4.9292	-4.175	-5.0833	-4.8854	-4.1854	-5.2979	-4.3646	-4.3958	-22.595	296.287	174.460	279.111	277.113	173.469	254.237	236.448	8.850	65.048	100.038	313.659	320.510	72.247	144.264	315.030	0.00024759	0.00057802	0.00010205	699.59	2.6193e-06	4.0991e-06	752.67	213.85	2.017e-06	2.9155e-06	260.91	101.31	74.135	34.048	2.8686e-06	52.432	6.69e-05	3.3406e-05	8.3268e-06	704.2	4.0282e-07	3.2267e-07	763.25	217.84	3.8089e-07	3.4433e-07	264.04	103.83	75.991	34.824	3.7887e-07	53.653	119.472	62.722	57.734	-15.234	121.602	109.972	-16.436	-10.474	119.903	130.219	-11.047	-5.928	-4.417	1.411	133.456	-1.683	-8191	255	
1633.745	1	1	0	0	0.33692	0.12716	0.16619	0.050003	0.13045	0.19285	0.14729	0.15173	0.18807	0.20171	0.24827	0.16764	0.024672	0.09154	0.11278	0.05243	-4.7167	-4.2542	-4.6667	-4.8917	-4.1937	-5.0604	-4.6375	-4.3271	-5.025	-4.175	-4.7	-4.9375	-4.2229	-4.9229	-4.5583	-4.4292	148.238	309.839	3.673	327.592	306.930	60.822	254.086	310.894	177.029	162.427	238.157	256.281	320.067	289.856	221.419	20.701	0.0002599	0.00043326	0.00010126	701.97	2.948e-06	3.61e-06	754.82	214.98	2.729e-06	3.044e-06	259.36	101.25	74.448	34.015	2.634e-06	52.344	6.5937e-05	3.1966e-05	8.7722e-06	707.66	4.0523e-07	3.1649e-07	763.42	218.1	3.8428e-07	3.4257e-07	262.64	103.39	76.118	34.941	3.7849e-07	53.388	120.691	50.632	69.240	-15.143	134.619	133.311	-15.970	-9.693	129.124	126.160	-11.650	-5.997	-4.740	0.870	118.832	-2.361	-8191	255	
1633.863	1	1	0	0	0.19004	0.087372	0.065942	0.27398	0.15365	0.22037	0.16128	0.18904	0.1964	0.10656	0.11588	0.2154	0.18781	0.12983	0.23105	0.14322	-4.8063	-4.0896	-4.55	-4.8917	-4.1667	-4.7854	-4.8604	-4.3333	-4.9792	-4.3792	-4.8083	-5.0646	-4.0646	-4.9167	-4.7	-4.3604	160.083	33.833	161.988	40.314	48.707	152.608	254.914	331.508	287.055	-7.987	156.881	291.888	120.825	299.305	196.720	163.573	0.00027508	0.0004634	9.4527e-05	699.39	2.1505e-06	2.9804e-06	753.6	214.29	2.6552e-06	2.1024e-06	260.32	102.28	75.054	34.322	2.8981e-06	52.7	6.6087e-05	3.2873e-05	8.5196e-06	706.08	3.8842e-07	3.0133e-07	762.5	217.95	3.7258e-07	3.4532e-07	263.38	104.22	76.623	35.074	3.5516e-07	53.799	116.062	71.152	63.786	-15.834	110.662	118.557	-16.607	-10.490	120.109	93.094	-12.193	-6.895	-5.639	0.162	138.423	-2.569	-8191	255	
1633.960	1	1	0	0	0.15604	0.2455	0.099107	0.14965	0.12518	0.2275	0.25656	0.075427	0.15273	0.1125	0.08474	0.10234	0.28838	0.20238	0.020392	0.065311	-4.7125	-4.2562	-4.4083	-5.1312	-3.9938	-5.0458	-4.75	-4.1854	-5.0479	-4.4729	-4.4979	-5.2354	-4.275	-4.85	-4.8688	-4.2292	323.733	161.614	132.605	17.272	191.352	4.277	-3.583	280.116	142.820	248.862	104.256	283.128	54.723	-2.673	-23.615	311.508	0.0002609	0.00037833	0.00010237	696.16	2.0777e-06	3.1275e-06	753.99	214.35	2.0286e-06	3.5613e-06	260.51	102.3	74.946	34.323	2.0924e-06	53.142	6.5905e-05	3.1433e-05	8.7896e-06	704.33	3.6325e-07	3.2579e-07	762.34	217.95	3.682e-07	3.3164e-07	263.94	104.62	76.653	35.211	3.56e-07	54.168	119.984	56.821	75.953	-16.007	134.305	104.065	-16.848	-10.667	154.267	124.770	-12.454	-6.826	-5.187	-0.053	137.245	-2.451	-8191	255	
1634.056	1	1	0	0	0.10974	0.074364	0.14948	0.05276	0.15592	0.011869	0.13737	0.15563	0.034136	0.14005	0.22377	0.23192	0.1123	0.13828	0.14153	0.25608	-4.8063	-4.4688	-4.4542	-5.0104	-4.3083	-4.8604	-4.7438	-4.4542	-4.95	-4.4313	-4.4688	-5.1042	-4.2292	-4.65	-4.8833	-4.1958	7.313	193.105	278.582	119.296	237.272	205.898	212.443	-9.441	107.241	130.997	223.377	21.696	10.625	41.910	19.326	54.522	0.00023567	0.00050244	0.00012679	698.71	2.6954e-06	2.7068e-06	752.55	213.9	2.3234e-06	3.6014e-06	261.38	102.86	74.961	34.454	3.2557e-06	52.915	6.7094e-05	3.2596e-05	9.6149e-06	705.07	3.8466e-07	3.1253e-07	763.08	218.09	3.6873e-07	3.3179e-07	264.72	104.94	76.747	35.269	3.836e-07	54.19	121.601	57.501	58.182	-16.026	126.477	132.130	-17.085	-10.977	133.211	125.069	-12.368	-6.959	-5.751	0.320	120.490	-2.636	-8191	255	
1634.152	1	1	0	0	0.10701	0.11195	0.1852	0.10166	0.12872	0.15825	0.23018	0.086013	0.1749	0.023568	0.25181	0.036482	0.14137	0.31677	0.19359	0.20929	-4.7792	-4.4375	-4.4	-5.1583	-4.1104	-4.6896	-5.0813	-4.2458	-4.8729	-4.6687	-4.3833	-5.1833	-4.3979	-4.3	-4.8938	-4.1417	70.550	139.321	95.462	232.976	201.113	130.318	153.136	224.142	244.580	311.560	296.122	124.623	3.457	-22.741	249.910	28.798	0.00025512	0.00037477	7.5942e-05	697.45	2.2357e-06	2.9584e-06	753.09	214.13	2.3427e-06	3.8863e-06	260.9	102.11	75.173	34.314	4.5035e-06	52.819	6.6306e-05	2.9772e-05	8.9728e-06	705.1	3.8541e-07	3.2069e-07	761.81	217.96	3.8164e-07	3.1062e-07	263.98	104.42	76.752	35.239	3.7308e-07	53.965	113.653	56.702	68.662	-16.075	123.831	122.416	-16.993	-11.006	104.448	123.235	-12.424	-7.202	-5.515	-0.267	135.273	-2.797	-8191	255	
1634.248	1	1	0	0	0.20579	0.13488	0.052558	0.061889	0.036194	0.12908	0.30519	0.064798	0.24013	0.037961	0.058637	0.13099	0.028681	0.034023	0.14918	0.10773	-4.4896	-4.9021	-4.2	-5.1917	-4.5	-4.3146	-5.2562	-4.1667	-4.7479	-4.7833	-4.2562	-5.1625	-4.6208	-4.4083	-4.9688	-4.225	201.292	210.910	118.901	-10.454	37.209	276.617	287.135	-6.720	246.220	315.169	1.745	-24.909	199.715	114.433	4.755	30.026	0.00026611	0.0002504	6.2801e-05	698.19	2.8015e-06	3.6531e-06	751.94	214.1	2.4906e-06	3.5828e-06	260.1	102.53	75.001	34.307	2.3181e-06	52.728	6.5912e-05	2.9011e-05	8.9458e-06	704.65	3.5586e-07	3.3547e-07	761.11	218.21	3.7869e-07	3.2514e-07	263.51	104.49	76.657	35.203	3.4502e-07	53.852	120.491	70.414	74.566	-16.341	112.609	122.382	-17.061	-11.071	117.403	119.211	-12.559	-7.266	-6.153	-0.149	130.984	-3.058	-8191	255	
1634.344	1	1	0	0	0.11498	0.1196	0.046003	0.086142	0.10619	0.072145	0.0389	0.073631	0.18513	0.22938	0.10476	0.13907	0.25838	0.13353	0.1947	0.18261	-4.3875	-4.9563	-4.0979	-5.1583	-4.5271	-4.2792	-5.1896	-4.4042	-4.5104	-4.8833	-4.3896	-4.8854	-4.7875	-4.2979	-5.1104	-4.225	95.285	69.036	38.195	266.248	1.348	-16.351	128.831	-14.637	112.506	168.220	40.837	45.159	148.225	321.135	120.646	249.748	0.0002464	0.00044705	9.852e-05	695.84	3.159e-06	3.0414e-06	751.83	213.73	1.7231e-06	2.2012e-06	262.5	101.42	74.356	33.992	2.7415e-06	52.339	6.8201e-05	3.0803e-05	9.1695e-06	704.23	3.6988e-07	3.2236e-07	761.61	217.72	3.8376e-07	3.0435e-07	263.78	103.83	76.081	34.859	3.576e-07	53.652	125.393	75.128	77.897	-16.740	119.414	123.710	-17.224	-10.727	106.003	105.875	-12.560	-6.979	-5.787	-0.465	144.433	-2.966	-8191	255	
1634.465	1	1	0	0	0.1434	0.024382	0.14404	0.34307	0.070492	0.096137	0.087653	0.16341	0.24783	0.044099	0.19889	0.18929	0.067073	0.24158	0.16138	0.24741	-4.2771	-5.0229	-4.0354	-5.0417	-4.6146	-4.3688	-5.1708	-4.3021	-4.4187	-5.0854	-4.2417	-4.8833	-4.9896	-4.1021	-5.1292	-4.6667	289.492	161.589	235.759	289.860	4.418	270.716	296.767	6.471	158.531	59.186	278.911	43.219	292.815	-6.624	192.250	257.139	0.00025895	0.00038432	8.4381e-05	699.76	3.7871e-06	3.2481e-06	751.5	213.53	2.1209e-06	3.9921e-06	259.77	101.98	74.146	33.922	3.987e-06	52.767	6.7606e-05	3.1309e-05	8.7761e-06	706.77	3.6868e-07	3.3128e-07	761.97	217.07	3.8972e-07	3.1612e-07	262.85	103.91	76.071	34.881	3.4959e-07	53.748	120.965	71.010	52.399	-16.479	117.336	121.935	-17.418	-11.008	101.101	125.860	-12.648	-7.087	-5.750	-0.229	140.669	-2.846	-8191	255	
1634.561	1	1	0	0	0.1034	0.12085	0.081813	0.11401	0.12025	0.077073	0.30105	0.043527	0.15684	0.1105	0.18269	0.22965	0.10673	0.18032	0.04514	0.04783	-3.9646	-5.0979	-4.0292	-4.6667	-4.8792	-4.175	-5.2562	-4.5563	-4.2937	-4.9667	-4.2229	-4.6625	-5	-4.1521	-4.8521	-4.6708	132.210	191.725	212.115	265.520	223.551	170.607	44.782	193.602	42.016	131.044	281.578	329.639	175.810	4.460	221.323	189.061	0.00024953	0.00046632	9.0186e-05	700.03	3.0447e-06	3.2815e-06	754.56	213.96	2.5626e-06	4.3163e-06	260.1	101.55	74.049	33.82	3.8829e-06	51.826	7.0483e-05	2.8423e-05	9.1483e-06	707.52	3.576e-07	3.5513e-07	763.54	217.63	3.8934e-07	2.9977e-07	262.84	103.57	75.792	34.688	3.8451e-07	53.094	118.328	61.410	81.908	-16.284	118.179	112.451	-17.336	-11.011	127.528	111.779	-12.558	-7.464	-5.747	-0.269	127.281	-2.721	-8191	255	
1634.657	1	1	0	0	0.07662	0.18104	0.14696	0.35596	0.094563	0.15956	0.15605	0.094949	0.13017	0.18276	0.17021	0.080909	0.074711	0.045142	0.1014	0.14389	-3.9542	-5.0271	-4.1542	-4.5917	-4.7167	-4.1958	-4.9979	-4.7375	-4.1687	-4.9771	-4.5188	-4.6708	-4.9396	-4.1937	-4.8562	-4.7708	49.126	200.645	313.935	254.983	76.975	116.565	8.289	205.532	144.508	99.491	52.407	230.427	289.675	60.211	162.127	249.373	0.00027862	0.00055599	0.00011052	699.58	2.4565e-06	1.9804e-06	754.52	212.73	3.0793e-06	3.5153e-06	259.42	100.57	73.827	33.786	2.4626e-06	52.066	6.9614e-05	3.0326e-05	8.3422e-06	706.86	3.3792e-07	3.4309e-07	764.49	217.13	3.867e-07	2.9969e-07	262.33	103.17	75.65	34.59	3.5455e-07	53.101	118.950	59.329	75.796	-16.757	109.930	138.083	-17.345	-10.653	114.622	131.509	-12.641	-7.290	-6.032	0.009	115.650	-2.987	-8191	255	
1634.753	1	1	0	0	0.066566	0.20029	0.20804	0.20909	0.31693	0.21438	0.11952	0.15959	0.20936	0.1131	0.17998	0.076872	0.19128	0.074866	0.064742	0.13397	-4.0458	-4.9604	-4.2833	-4.5479	-4.8562	-4.1125	-5.1021	-4.9896	-4.0833	-5.1125	-4.4875	-4.2958	-5.2188	-4.325	-4.775	-4.8979	30.431	-3.387	-10.690	-28.822	106.944	89.159	53.496	196.217	190.733	264.991	267.086	254.349	31.107	78.200	83.396	287.354	0.00026863	0.00038209	0.00010586	699.21	2.5408e-06	3.2877e-06	754.32	213.78	2.4522e-06	2.5027e-06	260.84	101.42	74.279	33.777	2.6336e-06	52.417	6.9458e-05	3.0783e-05	8.4656e-06	705.01	3.5662e-07	3.4103e-07	765	217.16	3.9946e-07	3.058e-07	263.3	103.62	76.053	34.723	3.7453e-07	53.51	123.673	63.530	50.312	-16.774	103.742	119.397	-17.419	-11.058	140.483	122.430	-12.722	-7.456	-5.716	-0.142	124.696	-2.882	-8191	255	
1634.848	1	1	0	0	0.17414	0.017737	0.17575	0.15391	0.1267	0.27012	0.19829	0.33591	0.079425	0.09467	0.24565	0.27465	0.16148	0.14946	0.16191	0.18971	-3.8021	-4.9208	-4.5833	-4.2875	-5.2167	-4.1208	-4.7042	-4.9833	-4.0938	-4.9437	-4.5271	-4.2854	-5.0875	-4.1854	-4.6083	-5.0417	175.670	100.433	304.021	125.263	6.872	105.725	234.622	296.642	-24.740	41.221	32.455	292.930	284.321	117.748	189.887	-21.779	0.00023862	0.00041719	9.4068e-05	701.75	2.113e-06	3.2331e-06	756.51	214.13	2.3666e-06	3.4514e-06	261.52	102.26	74.804	34.186	2.3102e-06	52.803	6.7062e-05	3.1246e-05	8.3518e-06	707.42	3.4584e-07	3.2366e-07	766.86	217.69	3.8474e-07	3.1773e-07	264.54	104.5	76.5	35.062	3.7803e-07	53.851	117.917	49.045	63.388	-16.874	126.850	136.497	-17.453	-11.079	119.872	121.254	-12.591	-7.572	-5.883	-0.135	138.494	-2.677	-8191	255	
1634.944	1	1	0	0	0.25651	0.13263	0.03347	0.16942	0.1137	0.17164	0.21025	0.11081	0.18641	0.21627	0.10624	0.17969	0.18143	0.079873	0.2068	0.14115	-3.8479	-4.8792	-4.6229	-4.3375	-5.1146	-4.2729	-4.4812	-5.0792	-4.1354	-4.8979	-4.825	-4.2937	-5.2979	-4.5479	-4.3958	-5.0979	117.042	234.192	70.199	186.109	194.520	111.345	219.121	137.832	107.770	12.296	216.055	294.282	-19.559	253.186	224.980	284.980	0.00026896	0.00040852	9.4899e-05	702.89	2.8647e-06	4.1075e-06	755.61	215.08	2.3428e-06	3.7145e-06	261	101.98	74.236	34.263	2.9828e-06	52.523	7.0158e-05	3.1938e-05	8.2091e-06	707.7	3.4749e-07	3.2915e-07	766.17	218.44	3.944e-07	3.2736e-07	264.15	104.2	76.292	35.042	3.8246e-07	53.576	117.963	63.002	70.706	-16.910	130.693	134.610	-17.496	-11.058	116.974	114.026	-12.703	-7.264	-5.741	-0.397	149.627	-2.652	-8191	255	
1635.064	1	1	0	0	0.10606	0.041022	0.1024	0.14628	0.027342	0.081581	0.23422	0.070187	0.1702	0.28389	0.033022	0.2579	0.20889	0.1153	0.081311	0.20075	-3.9437	-4.8625	-4.8542	-4.2958	-5.1271	-4.3583	-4.5563	-5.1521	-4.2854	-4.8583	-4.9708	-4.3146	-4.8854	-4.5604	-4.3167	-5.1896	284.251	73.924	285.862	263.035	87.670	74.419	329.268	263.671	198.937	228.650	97.067	232.691	303.892	281.071	249.096	273.426	0.00025518	0.00043199	9.8666e-05	695.67	2.8632e-06	3.3616e-06	757.59	213.96	1.8233e-06	2.7357e-06	261.49	101.82	74.753	34.348	2.1232e-06	52.612	7.1428e-05	3.0091e-05	8.1802e-06	706.16	3.6498e-07	3.2175e-07	765.12	218.22	3.8708e-07	3.1773e-07	264.3	104.41	76.586	35.154	3.8345e-07	53.959	117.502	56.907	67.420	-16.823	144.620	120.770	-17.430	-11.233	131.897	128.012	-12.298	-7.589	-6.198	-0.126	120.933	-2.889	-8191	255	
1635.161	1	1	0	0	0.12724	0.24527	0.095961	0.14143	0.15056	0.20088	0.28165	0.2587	0.12101	0.1183	0.13307	0.24384	0.044787	0.20608	0.046047	0.083168	-4.0292	-4.6354	-4.7312	-4.1146	-5.1583	-4.4563	-4.4042	-5.0333	-4.4229	-4.4542	-4.8396	-4.1562	-5.0479	-4.6	-4.2	-5.1917	242.508	31.260	195.299	50.594	152.751	-23.914	288.735	264.812	128.106	242.138	208.968	-21.190	10.016	155.203	150.039	227.823	0.00024956	0.00034988	8.7261e-05	700.97	2.7932e-06	2.652e-06	757.1	213.76	1.8035e-06	3.0069e-06	262.92	102.99	75.095	34.327	3.0707e-06	53.26	6.9802e-05	3.1032e-05	8.0221e-06	706.95	3.5254e-07	3.4545e-07	765.67	218.1	3.8496e-07	3.3684e-07	265.48	105.08	76.687	35.185	3.9847e-07	54.279	116.836	60.668	66.443	-16.781	125.502	125.569	-17.526	-11.016	130.009	113.864	-12.680	-7.442	-5.901	-0.281	146.823	-2.658	-8191	255	
1635.257	1	1	0	0	0.13599	0.24912	0.13059	0.344	0.22256	0.14018	0.16161	0.070121	0.083427	0.020776	0.056491	0.080054	0.042428	0.14552	0.21782	0.076957	-4.0938	-4.3542	-4.9979	-4.1104	-4.8375	-4.6792	-4.3187	-5.2417	-4.2729	-4.5021	-5.0375	-3.9854	-4.9104	-4.7875	-4.1896	-5.1125	184.509	90.233	324.437	329.455	195.597	188.897	158.722	8.543	221.198	44.824	143.197	1.507	260.264	34.839	330.865	248.144	0.00024898	0.00040674	9.8862e-05	702.01	3.0866e-06	3.6223e-06	757.1	215.35	2.3734e-06	2.9143e-06	262.46	102.93	74.629	34.183	2.9193e-06	53.272	6.8276e-05	3.2132e-05	8.319e-06	708.28	3.8066e-07	3.309e-07	767.88	218.53	4.0014e-07	3.3171e-07	266.25	105.02	76.504	35.1	4.0663e-07	54.185	122.799	66.672	73.748	-16.776	111.880	102.051	-17.269	-11.127	145.021	107.341	-12.533	-7.361	-6.013	-0.206	137.869	-2.802	-8191	255	
1635.353	1	1	0	0	0.12153	0.11584	0.16109	0.12771	0.15754	0.17146	0.28335	0.09828	0.10439	0.10148	0.028576	0.11494	0.083005	0.16851	0.14405	0.095213	-4.2271	-4.4667	-5.1896	-4.1979	-4.5458	-4.8146	-4.2646	-5.1958	-4.4062	-4.3854	-5.3354	-4.2604	-4.8458	-4.9583	-3.8958	-5.1687	71.988	94.894	72.833	285.623	181.781	88.024	329.485	12.322	154.353	287.596	31.610	51.779	48.509	300.711	214.467	161.628	0.00025945	0.00047688	8.7372e-05	699.97	2.0242e-06	3.6055e-06	757.24	214.82	2.2407e-06	2.109e-06	261.78	102.22	74.987	34.058	2.8595e-06	52.73	6.7037e-05	3.2201e-05	8.1397e-06	706.56	3.5368e-07	3.0971e-07	767.62	218.28	3.8277e-07	3.3768e-07	264.72	104.34	76.403	34.901	4.0098e-07	53.752	123.508	70.974	61.304	-16.687	125.916	126.983	-17.446	-11.119	115.798	116.315	-12.602	-7.399	-5.921	-0.016	135.216	-2.792	-8191	255	
1635.425	1	1	0	0	0.14148	0.14038	0.19932	0.09397	0.15181	0.057956	0.18831	0.17923	0.25587	0.038673	0.18683	0.13197	0.2781	0.096819	0.10798	0.14781	-4.3542	-4.2792	-5.2562	-4.2771	-4.6167	-5.1521	-4.2	-5.1125	-4.7063	-4.2792	-5.1625	-4.4354	-4.5333	-4.9792	-4.25	-4.7979	50.744	308.051	258.449	135.702	263.516	260.978	209.120	260.553	132.337	158.501	-3.767	148.506	15.637	235.865	219.157	116.634	0.00026899	0.00037493	6.3897e-05	699.46	3.5545e-06	3.2645e-06	761.02	215.1	2.4755e-06	2.9207e-06	263.42	102.39	74.718	34.271	2.69e-06	52.78	6.8857e-05	3.281e-05	7.6229e-06	706.94	3.6807e-07	3.0339e-07	769.12	218.24	3.7016e-07	3.4654e-07	265.57	104.64	76.366	35.066	3.9405e-07	53.978	121.435	69.198	74.519	-16.740	135.332	116.381	-17.501	-11.107	116.664	119.787	-12.593	-7.421	-6.022	-0.027	126.944	-2.962	-8191	255	
1635.545	1	1	0	0	0.13296	0.19415	0.046225	0.061436	0.13229	0.13094	0.23927	0.080289	0.13612	0.19987	0.058877	0.18762	0.32704	0.062982	0.13663	0.14426	-4.4958	-4.35	-5.0104	-4.3688	-4.2583	-5.1562	-4.3229	-4.8104	-4.6125	-4.2688	-5.3187	-4.425	-4.3792	-5.2312	-4.2854	-4.8729	124.020	316.794	170.914	103.021	268.989	156.729	308.489	-11.925	5.742	135.369	227.582	312.675	253.613	242.303	251.458	328.736	0.00027348	0.00031961	0.0001152	702.53	2.1167e-06	2.8674e-06	757.42	214.31	2.3039e-06	3.8298e-06	263.7	102.28	74.358	34.014	3.0105e-06	52.804	6.9332e-05	3.1399e-05	8.3808e-06	707.6	3.7599e-07	3.1207e-07	769.51	218.07	3.6661e-07	3.4929e-07	265.89	104.49	76.084	34.89	3.9023e-07	53.989	120.173	55.720	65.626	-16.386	108.834	120.318	-17.227	-11.119	139.424	134.757	-12.687	-7.032	-5.993	0.176	123.536	-2.648	-8191	255	
1635.641	1	1	0	0	0.11524	0.21908	0.098957	0.024796	0.11898	0.031471	0.19194	0.26821	0.1626	0.1744	0.15265	0.1098	0.134	0.16921	0.13564	0.10046	-4.6312	-4.0563	-4.8208	-4.5458	-4.2896	-5.025	-4.3688	-4.7688	-4.9604	-4.1625	-5.2125	-4.5542	-4.3667	-5.1562	-4.1625	-4.6417	106.743	-23.708	144.081	326.861	122.530	85.851	219.231	271.069	123.835	-24.615	122.132	-26.640	54.315	288.151	152.522	244.450	0.00027537	0.00041038	8.3291e-05	702.71	2.5966e-06	2.175e-06	760.38	214.37	2.9205e-06	2.5273e-06	263.38	102.4	74.721	33.972	2.2015e-06	53.213	6.8351e-05	3.4326e-05	8.1667e-06	709.35	3.6363e-07	2.9965e-07	771.86	218.11	3.7688e-07	3.4983e-07	265.88	104.62	76.191	34.963	3.7575e-07	54.197	123.411	63.619	60.576	-16.499	145.532	125.119	-17.389	-11.141	125.716	131.334	-12.612	-7.447	-5.992	-0.037	126.567	-2.972	-8191	255	
#DATA ENDS
