BOXY.EXE: ISS Imagent and Oximeter Data Acquisition Program Version 0.80
Ascii Record File

#ACQ INFORMATION
2  Detector Channels 
16  External MUX Channels 
1  Auxiliary Channels 
5000  Waveform (CCF) Frequency (Hz)
1  Waveforms Skipped 
30  Waveforms Averaged 
1  Cycles Averaged 
16  Acquisitions per Waveform 
10.0806  Updata Rate (Hz) 

#FILE INFORMATION
TRUE -- External MUX Channel results are PARSED.
FALSE -- AC DC and Phase are NOT grouped.
TRUE -- Companion Program Settings File CREATED.
FALSE -- AC data not excluded
FALSE -- DC data not excluded
FALSE -- Phase data not excluded
FALSE -- Auxillary Chn. data not excluded
Tab delimiters

#CALIBRATION STATE
TRUE -- Waveform Calibration Values APPLIED.


#AUX CALIBRATION VALUES
Val Type	aux-1	

Term	1.0000e+00	
Factor	0.0000e+00	


#WF CALIBRATION VALUES
A = Detector Channel
Val Type	A-AC1	A-AC2	A-AC3	A-AC4	A-AC5	A-AC6	A-AC7	A-AC8	A-AC9	A-AC10	A-AC11	A-AC12	A-AC13	A-AC14	A-AC15	A-AC16	A-DC1	A-DC2	A-DC3	A-DC4	A-DC5	A-DC6	A-DC7	A-DC8	A-DC9	A-DC10	A-DC11	A-DC12	A-DC13	A-DC14	A-DC15	A-DC16	A-Ph1	A-Ph2	A-Ph3	A-Ph4	A-Ph5	A-Ph6	A-Ph7	A-Ph8	A-Ph9	A-Ph10	A-Ph11	A-Ph12	A-Ph13	A-Ph14	A-Ph15	A-Ph16	

Term	0.00000e+00	0.00000e+00	0.00000e+00	0.00000e+00	0.00000e+00	0.00000e+00	0.00000e+00	0.00000e+00	0.00000e+00	0.00000e+00	0.00000e+00	0.00000e+00	0.00000e+00	0.00000e+00	0.00000e+00	0.00000e+00	0.00000e+00	0.00000e+00	0.00000e+00	0.00000e+00	0.00000e+00	0.00000e+00	0.00000e+00	0.00000e+00	0.00000e+00	0.00000e+00	0.00000e+00	0.00000e+00	0.00000e+00	0.00000e+00	0.00000e+00	0.00000e+00	0.00000e+00	0.00000e+00	0.00000e+00	0.00000e+00	0.00000e+00	0.00000e+00	0.00000e+00	0.00000e+00	0.00000e+00	0.00000e+00	0.00000e+00	0.00000e+00	0.00000e+00	0.00000e+00	0.00000e+00	0.00000e+00	
Factor	1.00000e+00	1.00000e+00	1.00000e+00	1.00000e+00	1.00000e+00	1.00000e+00	1.00000e+00	1.00000e+00	1.00000e+00	1.00000e+00	1.00000e+00	1.00000e+00	1.00000e+00	1.00000e+00	1.00000e+00	1.00000e+00	1.00000e+00	1.00000e+00	1.00000e+00	1.00000e+00	1.00000e+00	1.00000e+00	1.00000e+00	1.00000e+00	1.00000e+00	1.00000e+00	1.00000e+00	1.00000e+00	1.00000e+00	1.00000e+00	1.00000e+00	1.00000e+00	X	X	X	X	X	X	X	X	X	X	X	X	X	X	X	X	

B = Detector Channel
Val Type	B-AC1	B-AC2	B-AC3	B-AC4	B-AC5	B-AC6	B-AC7	B-AC8	B-AC9	B-AC10	B-AC11	B-AC12	B-AC13	B-AC14	B-AC15	B-AC16	B-DC1	B-DC2	B-DC3	B-DC4	B-DC5	B-DC6	B-DC7	B-DC8	B-DC9	B-DC10	B-DC11	B-DC12	B-DC13	B-DC14	B-DC15	B-DC16	B-Ph1	B-Ph2	B-Ph3	B-Ph4	B-Ph5	B-Ph6	B-Ph7	B-Ph8	B-Ph9	B-Ph10	B-Ph11	B-Ph12	B-Ph13	B-Ph14	B-Ph15	B-Ph16	

Term	0.00000e+00	0.00000e+00	0.00000e+00	0.00000e+00	0.00000e+00	0.00000e+00	0.00000e+00	0.00000e+00	0.00000e+00	0.00000e+00	0.00000e+00	0.00000e+00	0.00000e+00	0.00000e+00	0.00000e+00	0.00000e+00	0.00000e+00	0.00000e+00	0.00000e+00	0.00000e+00	0.00000e+00	0.00000e+00	0.00000e+00	0.00000e+00	0.00000e+00	0.00000e+00	0.00000e+00	0.00000e+00	0.00000e+00	0.00000e+00	0.00000e+00	0.00000e+00	-1.50286e+02	-1.28179e+02	-1.21349e+02	-1.82838e+02	-7.38202e+01	-6.86517e+01	-1.55822e+02	-1.62015e+02	-7.29113e+01	-6.79823e+01	-1.70826e+02	-1.70724e+02	-1.80370e+02	-1.76266e+02	-6.49426e+01	-1.48473e+02	
Factor	2.23038e-05	1.70172e-04	3.80664e-05	2.18512e-01	1.33480e-06	1.47544e-06	1.70849e-01	6.06101e-02	1.17230e-06	1.44139e-06	8.98913e-02	2.97864e-02	2.76328e-02	9.32721e-03	1.30128e-06	1.34466e-02	3.00195e-06	3.32187e-06	9.25624e-07	1.11221e-01	3.61816e-08	3.65802e-08	8.21001e-02	3.10359e-02	3.62532e-08	3.66873e-08	4.44963e-02	1.48016e-02	1.42663e-02	4.80361e-03	3.65987e-08	6.70235e-03	X	X	X	X	X	X	X	X	X	X	X	X	X	X	X	X	



#DISTANCE SETTINGS
A = Detector Channel
A-1	A-2	A-3	A-4	A-5	A-6	A-7	A-8	A-9	A-10	A-11	A-12	A-13	A-14	A-15	A-16	

2.5000e+00	3.0000e+00	2.5000e+00	3.0000e+00	2.0000e+00	3.0000e+00	1.5000e+00	3.0000e+00	3.0000e+00	3.0000e+00	3.0000e+00	3.0000e+00	3.0000e+00	3.0000e+00	1.5000e+00	3.0000e+00	

B = Detector Channel
B-1	B-2	B-3	B-4	B-5	B-6	B-7	B-8	B-9	B-10	B-11	B-12	B-13	B-14	B-15	B-16	

1.0000e+01	1.0000e+01	1.0000e+01	1.4400e+00	1.0000e+01	1.0000e+01	1.5100e+00	1.9400e+00	1.0000e+01	1.0000e+01	1.9900e+00	2.4900e+00	2.4100e+00	2.9000e+00	1.0000e+01	2.9800e+00	




#DATA BEGINS
time	group	step	mark	flag	A-AC1	A-AC2	A-AC3	A-AC4	A-AC5	A-AC6	A-AC7	A-AC8	A-AC9	A-AC10	A-AC11	A-AC12	A-AC13	A-AC14	A-AC15	A-AC16	A-DC1	A-DC2	A-DC3	A-DC4	A-DC5	A-DC6	A-DC7	A-DC8	A-DC9	A-DC10	A-DC11	A-DC12	A-DC13	A-DC14	A-DC15	A-DC16	A-Ph1	A-Ph2	A-Ph3	A-Ph4	A-Ph5	A-Ph6	A-Ph7	A-Ph8	A-Ph9	A-Ph10	A-Ph11	A-Ph12	A-Ph13	A-Ph14	A-Ph15	A-Ph16	B-AC1	B-AC2	B-AC3	B-AC4	B-AC5	B-AC6	B-AC7	B-AC8	B-AC9	B-AC10	B-AC11	B-AC12	B-AC13	B-AC14	B-AC15	B-AC16	B-DC1	B-DC2	B-DC3	B-DC4	B-DC5	B-DC6	B-DC7	B-DC8	B-DC9	B-DC10	B-DC11	B-DC12	B-DC13	B-DC14	B-DC15	B-DC16	B-Ph1	B-Ph2	B-Ph3	B-Ph4	B-Ph5	B-Ph6	B-Ph7	B-Ph8	B-Ph9	B-Ph10	B-Ph11	B-Ph12	B-Ph13	B-Ph14	B-Ph15	B-Ph16	aux-1	digaux	

1706.586	1	1	0	256	0.2431	0.044963	0.23549	0.26761	0.080379	0.063046	0.060063	0.31503	0.14435	0.028632	0.092593	0.15242	0.091717	0.15465	0.10766	0.09216	-4.0792	-5.1583	-4.2458	-4.8104	-4.8417	-4.2729	-5.0813	-4.5792	-4.4708	-5.0167	-4.1896	-4.6917	-5.0813	-4.1417	-4.8854	-4.6875	4.177	323.044	180.761	276.312	35.261	28.230	301.975	51.686	151.264	295.755	10.252	197.441	246.274	83.266	166.619	40.479	0.00028302	0.00054663	8.3903e-05	490.75	4.0501e-06	5.6105e-06	529.44	189.62	2.3452e-06	2.0127e-06	228.84	100.75	73.202	34.646	3.0927e-06	56.051	0.00013999	0.00010113	2.8627e-05	495.69	1.1015e-06	1.1483e-06	537.64	192.27	1.168e-06	1.1131e-06	232.25	103.18	75.17	35.617	1.186e-06	57.265	120.717	79.184	77.267	-15.516	98.212	136.312	-16.763	-10.519	104.442	127.973	-12.858	-8.501	-6.981	-1.975	139.167	-4.813	-8191	255	
1706.682	1	1	0	0	0.19841	0.12627	0.1765	0.10712	0.18106	0.22069	0.077035	0.085799	0.17883	0.28498	0.267	0.20669	0.15723	0.15739	0.34518	0.096489	-3.9313	-4.9958	-4.2417	-4.5979	-4.9104	-3.9396	-5.1229	-4.6833	-4.2042	-5.1354	-4.3208	-4.5896	-5.1	-4.1292	-4.7979	-4.6813	-10.671	205.065	103.560	9.300	-11.674	265.424	87.693	-26.709	90.401	81.439	225.473	-25.603	275.377	25.863	320.581	-22.189	0.00027403	0.00026798	0.00012711	490.54	2.7888e-06	2.6776e-06	530.17	189.55	3.5127e-06	3.2712e-06	230.36	101.52	73.779	34.78	2.9941e-06	56.113	0.00013551	0.00010448	2.8527e-05	497	1.1594e-06	1.1738e-06	538.93	192.87	1.219e-06	1.1171e-06	233.36	103.76	75.532	35.771	1.2116e-06	57.442	124.335	30.012	62.422	-15.548	82.570	115.988	-16.533	-10.610	142.382	150.325	-12.735	-8.604	-6.806	-1.842	141.493	-4.779	-8191	255	
1706.803	1	1	0	0	0.065821	0.041414	0.070645	0.12702	0.059233	0.21911	0.19459	0.14247	0.10657	0.11674	0.058673	0.10993	0.11956	0.10379	0.054339	0.10271	-3.8771	-4.8333	-4.2688	-4.4396	-4.8771	-4.0312	-4.9479	-4.9354	-4.15	-5.0312	-4.4583	-4.6333	-5.1104	-4.2083	-4.7292	-4.8938	272.229	58.594	237.586	8.278	33.909	263.872	230.202	47.108	210.179	154.071	239.564	26.850	16.945	9.940	117.773	136.195	0.00025143	0.00034842	8.2573e-05	491.64	2.8233e-06	1.8217e-06	527.8	189.39	3.6914e-06	3.2653e-06	229.62	101.21	73.965	34.628	2.7853e-06	55.6	0.00013712	0.00010139	2.9009e-05	496.67	1.144e-06	1.1619e-06	537.55	192.69	1.2094e-06	1.1323e-06	232.71	103.25	75.578	35.635	1.1728e-06	56.908	121.543	49.323	80.270	-15.597	95.295	131.268	-16.746	-10.804	86.626	119.026	-12.370	-8.621	-6.551	-1.633	138.341	-4.747	-8191	255	
1706.897	1	1	0	0	0.18623	0.23491	0.11035	0.088304	0.1331	0.021397	0.044663	0.086853	0.066693	0.33979	0.053906	0.18816	0.11977	0.034899	0.09384	0.13257	-3.8167	-4.9521	-4.4688	-4.2125	-4.9958	-4.3646	-4.7042	-4.9896	-4.2167	-4.95	-4.5042	-4.3875	-5.1625	-4.1937	-4.4437	-4.9	90.457	330.405	175.710	137.488	105.565	67.359	208.209	-10.049	244.152	214.990	296.217	209.754	-26.976	39.447	162.684	-23.381	0.00027964	0.00058128	9.6164e-05	487.71	2.2069e-06	3.8021e-06	528	188.08	3.2152e-06	3.6906e-06	229.46	101.07	74.084	34.812	2.5629e-06	55.911	0.0001372	0.00010617	2.8515e-05	496.29	1.124e-06	1.1453e-06	536.5	192.5	1.2295e-06	1.1273e-06	232.56	103.29	75.517	35.761	1.2144e-06	57.15	121.779	55.455	43.733	-15.541	139.127	125.679	-16.602	-10.395	129.661	105.955	-12.596	-8.333	-6.802	-1.941	161.808	-4.491	-8191	255	
1706.995	1	1	0	0	0.17014	0.12767	0.04018	0.12345	0.16177	0.19197	0.25584	0.17316	0.16096	0.071836	0.18806	0.21436	0.17302	0.032436	0.19919	0.20392	-3.7875	-4.8438	-4.5292	-4.2312	-5.0417	-4.3812	-4.5896	-4.925	-4.0729	-4.8125	-4.775	-4.2438	-5.0792	-4.5375	-4.4333	-5.1062	69.206	-3.756	238.924	183.331	107.736	201.525	15.395	16.034	209.618	57.672	83.589	208.470	58.560	-22.059	285.848	256.069	0.00027352	0.00046767	9.4547e-05	488.93	3.3388e-06	4.1853e-06	527.81	189.32	3.2074e-06	3.1653e-06	227.99	101.4	73.501	34.827	2.3644e-06	56.065	0.00013746	0.0001047	2.8584e-05	497.04	1.1317e-06	1.1414e-06	536.93	193.26	1.1924e-06	1.1159e-06	232.3	103.64	75.609	35.792	1.182e-06	57.397	123.426	58.271	77.467	-15.786	122.917	121.771	-16.730	-10.641	128.888	126.536	-12.466	-8.395	-6.650	-1.881	124.895	-4.532	-8191	255	
1707.114	1	1	0	0	0.068044	0.041477	0.12059	0.16228	0.07517	0.1114	0.13887	0.1675	0.064078	0.10536	0.12232	0.26793	0.22049	0.204	0.15847	0.15221	-3.7875	-4.6792	-4.6417	-4.4563	-4.9375	-4.4688	-4.3979	-5.0375	-4.1438	-4.6229	-4.7792	-4.025	-5.0521	-4.4354	-4.3354	-5.1208	237.136	71.007	246.087	326.874	146.361	184.586	68.029	-20.177	-1.460	314.317	224.972	278.451	-5.128	318.601	10.006	17.943	0.00028424	0.00035896	8.4741e-05	491.47	2.3406e-06	3.2932e-06	530.37	189.06	1.7629e-06	2.5495e-06	231.82	101.75	74.103	34.957	2.8708e-06	56.455	0.00013817	0.00010279	2.7879e-05	498.42	1.097e-06	1.1254e-06	540.21	193.46	1.1926e-06	1.1242e-06	234.75	104.36	76.031	35.984	1.1999e-06	57.559	120.673	74.784	58.964	-15.410	140.095	101.572	-16.407	-10.408	131.760	133.038	-12.802	-8.449	-6.845	-1.677	153.479	-4.665	-8191	255	
1707.210	1	1	0	0	0.13304	0.13352	0.20715	0.17852	0.1464	0.27558	0.11824	0.050675	0.12735	0.14496	0.13963	0.31236	0.18655	0.11565	0.060299	0.10977	-3.8833	-4.6417	-4.8292	-4.1583	-4.9271	-4.6417	-4.1979	-5.0646	-4.3146	-4.6188	-4.8896	-4.2479	-4.7771	-4.8458	-4.1333	-5.15	55.998	166.959	311.869	27.703	200.003	176.161	276.399	227.121	70.295	214.262	191.143	51.819	0.265	188.189	231.094	152.430	0.0002895	0.00052546	8.5561e-05	492.84	2.0825e-06	1.538e-06	531.28	190.4	2.8527e-06	4.103e-06	230.48	101.41	74.442	35.126	2.0389e-06	56.06	0.0001386	0.00010507	2.8698e-05	498.97	1.1427e-06	1.1266e-06	539.47	194.24	1.2023e-06	1.1606e-06	234.38	103.92	76.202	35.983	1.2042e-06	57.366	117.082	72.196	60.995	-15.336	147.075	116.009	-16.688	-10.350	148.352	148.583	-12.582	-8.376	-6.701	-1.757	108.303	-4.613	-8191	255	
1707.282	1	1	0	0	0.11564	0.23461	0.23804	0.11671	0.21354	0.10829	0.024444	0.032913	0.048394	0.12784	0.10992	0.27566	0.12776	0.27198	0.1441	0.036024	-3.9542	-4.7396	-4.9938	-4.0771	-4.9229	-4.6937	-4.2271	-5.1521	-4.2812	-4.275	-5.1604	-4.0771	-4.8438	-5.0458	-4.0625	-5.175	95.195	286.983	130.890	-20.122	265.287	115.106	251.833	293.909	18.552	198.633	262.258	258.100	18.425	1.941	-27.800	-0.225	0.00026302	0.00033941	9.3424e-05	492.37	3.1597e-06	3.5933e-06	530.77	190.65	2.1913e-06	2.7345e-06	231.99	101.39	74.423	34.986	3.3466e-06	56.074	0.00013464	0.00010602	2.8484e-05	498.47	1.1172e-06	1.1162e-06	538.69	194.37	1.163e-06	1.1597e-06	234.52	103.83	76.095	35.859	1.2061e-06	57.354	122.725	61.514	64.639	-15.339	136.112	128.391	-16.597	-10.653	135.224	109.270	-12.590	-8.246	-6.589	-1.502	145.271	-4.450	-8191	255	
1707.403	1	1	0	0	0.056836	0.16355	0.17776	0.12072	0.19847	0.068808	0.08934	0.087999	0.2394	0.070873	0.075011	0.34675	0.11283	0.1028	0.055452	0.066291	-4.1125	-4.2229	-5.1458	-4.1	-4.6667	-4.7854	-4.2229	-5.0813	-4.5271	-4.2	-5.175	-4.3854	-4.7083	-4.9688	-4.0792	-4.9604	317.422	3.212	150.627	321.852	118.004	278.732	295.824	-13.653	147.802	-9.929	44.860	30.482	-10.925	63.577	6.460	199.310	0.00031482	0.00028981	8.6294e-05	490.24	2.3572e-06	3.8641e-06	529.66	190.75	3.2103e-06	1.9607e-06	230.19	101.37	73.79	34.812	1.9423e-06	56.055	0.00013733	0.00010558	2.8957e-05	498.36	1.1796e-06	1.1228e-06	539.31	194.17	1.1834e-06	1.1425e-06	233.91	103.86	75.783	35.777	1.2221e-06	57.313	123.610	60.593	84.478	-15.394	120.440	115.813	-16.374	-10.492	137.760	91.027	-12.394	-8.384	-6.633	-1.526	116.614	-4.447	-8191	255	
1707.499	1	1	0	0	0.29387	0.19627	0.15987	0.30442	0.079454	0.20842	0.1432	0.069363	0.14122	0.096374	0.085726	0.063702	0.21956	0.31442	0.16784	0.18476	-4.4229	-4.1687	-5.1229	-4.1208	-4.6062	-4.9375	-4.1208	-5.0396	-4.5208	-4.25	-5.1917	-4.2896	-4.625	-4.9354	-4.0021	-4.9729	216.897	247.952	45.256	3.491	237.250	118.990	264.248	-5.219	42.866	1.992	136.540	206.557	303.317	-3.880	208.634	-22.804	0.00027225	0.00040833	0.00010146	490.33	2.6046e-06	2.9983e-06	532.42	190	1.799e-06	2.3466e-06	229.59	101.16	74.068	34.962	2.3409e-06	56.216	0.00013676	0.00010825	2.8972e-05	496.95	1.162e-06	1.1405e-06	538.78	193.25	1.1655e-06	1.1922e-06	233.7	103.81	75.778	35.826	1.2139e-06	57.521	116.774	76.939	40.234	-15.480	112.402	126.929	-16.542	-10.664	116.463	125.658	-12.503	-8.269	-6.719	-1.634	119.548	-4.275	-8191	255	
1707.595	1	1	0	0	0.16063	0.1642	0.22971	0.11144	0.25023	0.044195	0.11094	0.34006	0.05262	0.093256	0.24761	0.12311	0.21241	0.18281	0.15436	0.09433	-4.4417	-4.1708	-5.1083	-4.2958	-4.3854	-5.0625	-4.1125	-4.7271	-4.7271	-4.1375	-5.125	-4.4062	-4.4625	-5.0833	-4.1542	-4.7438	179.436	171.645	300.029	218.304	12.916	11.559	170.824	-2.429	307.985	178.828	275.313	99.593	94.696	290.089	249.260	88.319	0.00027003	0.00046294	9.6319e-05	489.35	3.467e-06	3.0922e-06	529.81	189.08	2.7181e-06	3.6059e-06	229.99	100.91	73.207	34.671	1.1231e-06	55.588	0.00013605	0.0001089	2.9391e-05	496.08	1.2186e-06	1.1419e-06	537.62	192.79	1.2048e-06	1.1909e-06	232.64	103.02	75.324	35.647	1.2086e-06	57.014	118.937	68.161	65.143	-15.138	117.952	101.492	-16.455	-10.722	140.539	113.040	-12.406	-8.219	-6.678	-1.459	135.532	-4.649	-8191	255	
1707.691	1	1	0	0	0.25115	0.15157	0.098197	0.21168	0.10318	0.048501	0.12253	0.029943	0.24182	0.13765	0.12951	0.12278	0.10378	0.24496	0.072052	0.13995	-4.6396	-4.15	-5.075	-4.5021	-4.3604	-5.0667	-4.3042	-4.6583	-4.9229	-4.2021	-4.8417	-4.7146	-4.3438	-5.1	-4.3187	-4.6854	25.143	15.663	-15.356	151.207	-9.858	33.422	119.046	9.571	44.891	216.520	294.770	50.287	93.662	-26.916	197.229	-20.663	0.00028563	0.00034994	5.9687e-05	488.27	4.1722e-06	4.6412e-06	527.21	188.43	1.2184e-06	3.3575e-06	228.53	100.22	73.317	34.784	1.1089e-06	55.802	0.00013459	0.00010812	2.9562e-05	495.06	1.2038e-06	1.1649e-06	535.16	191.97	1.1742e-06	1.1764e-06	232.02	102.63	75.228	35.706	1.2344e-06	57.096	120.096	83.170	45.296	-15.286	110.651	137.610	-16.499	-10.516	125.062	114.144	-12.709	-8.518	-6.492	-1.663	142.279	-4.534	-8191	255	
1707.787	1	1	0	0	0.12088	0.18338	0.1941	0.072868	0.16859	0.091651	0.13931	0.21141	0.17783	0.07847	0.017657	0.12132	0.03468	0.33915	0.33669	0.035715	-4.7104	-4.1562	-4.9187	-4.8	-4.3021	-5.0104	-4.4042	-4.4625	-5.0542	-4.05	-4.8375	-4.7312	-4.1958	-5.1625	-4.3771	-4.4854	267.158	35.944	256.422	231.516	277.029	142.248	188.938	204.074	55.839	185.413	154.236	68.487	-22.414	8.180	100.747	-12.524	0.0003088	0.00046257	4.9781e-05	487.43	3.2647e-06	2.1292e-06	524.21	188.67	2.7636e-06	3.8426e-06	227.14	100.54	73.516	34.84	2.2979e-06	56.074	0.00013811	0.00011227	3.0133e-05	494.15	1.1901e-06	1.1687e-06	535.85	191.89	1.1829e-06	1.1788e-06	231.78	103.03	75.064	35.694	1.2225e-06	57.307	121.431	65.977	34.614	-15.197	115.798	94.812	-16.483	-10.620	125.283	122.984	-12.432	-8.199	-6.541	-1.605	149.776	-4.419	-8191	255	
1707.883	1	1	0	0	0.2262	0.165	0.22122	0.045009	0.17406	0.088287	0.037105	0.16577	0.071585	0.20309	0.19169	0.10553	0.045885	0.20893	0.032232	0.30938	-4.8125	-4.2438	-4.8771	-5.05	-4.3104	-5.1438	-4.4625	-4.5083	-4.8396	-4.2125	-4.5979	-4.9021	-4.0813	-5.0125	-4.4896	-4.2646	159.571	-19.819	224.823	325.179	24.150	-21.141	317.085	325.784	16.699	62.909	-11.718	166.059	28.194	311.088	133.331	293.237	0.0002611	0.00052455	5.7456e-05	487.02	2.568e-06	6.4161e-07	527.46	189.02	2.4192e-06	4.0191e-06	228.26	100.77	73.746	34.794	2.3232e-06	56.043	0.00013708	0.00010977	3.0137e-05	493.9	1.1973e-06	1.1389e-06	537.11	191.87	1.2089e-06	1.1784e-06	232.19	103.3	75.289	35.8	1.2029e-06	57.352	120.409	52.816	77.057	-15.439	127.895	90.712	-16.369	-10.287	117.142	122.991	-12.650	-8.036	-6.554	-1.569	136.743	-4.508	-8191	255	
1707.980	1	1	0	0	0.11687	0.093844	0.1758	0.069677	0.12288	0.084238	0.17017	0.14522	0.14041	0.14277	0.18374	0.056566	0.10086	0.048235	0.049916	0.2168	-4.6104	-4.2104	-4.7188	-4.9625	-4.1062	-5.0188	-4.7167	-4.45	-5.0042	-4.3292	-4.8229	-5.1458	-4.0354	-5.0979	-4.6	-4.4187	327.053	103.272	23.696	30.836	83.791	270.368	174.544	-0.130	311.903	8.146	43.865	49.604	224.694	101.434	281.848	239.664	0.00027633	0.0003574	9.6752e-05	486.9	3.2721e-06	4.1381e-06	528.61	188.98	2.3675e-06	3.6391e-06	228.54	101.26	73.179	34.784	2.7392e-06	55.802	0.000137	0.00011056	2.9686e-05	494.04	1.2132e-06	1.1122e-06	536.59	192.32	1.172e-06	1.1642e-06	231.71	103.16	75.281	35.812	1.1665e-06	57.061	123.118	73.518	92.249	-15.347	96.680	97.568	-16.517	-10.673	142.120	128.291	-12.975	-8.427	-6.522	-1.630	148.130	-4.432	-8191	255	
1708.076	1	1	0	0	0.15676	0.11499	0.15942	0.05336	0.21979	0.16279	0.022981	0.1901	0.095872	0.040421	0.087596	0.046224	0.24357	0.20589	0.067664	0.15263	-4.7458	-4.4396	-4.4917	-5.0042	-3.9958	-5.0458	-4.7937	-4.175	-5.1146	-4.3646	-4.4917	-5.0667	-4.2646	-4.825	-4.8354	-4.1333	106.919	13.758	328.592	216.142	233.089	10.344	174.398	276.072	280.958	-3.216	74.731	320.586	-27.884	276.185	104.301	237.811	0.00028061	0.00034352	4.9291e-05	483.75	2.7722e-06	2.4366e-06	528.33	188.62	1.6767e-06	3.104e-06	229.42	100.72	73.47	35.01	3.3335e-06	55.97	0.00013521	0.00010566	2.9229e-05	493.62	1.1929e-06	1.1405e-06	535.92	191.93	1.1606e-06	1.1354e-06	232.38	103.17	75.312	35.818	1.1573e-06	57.08	123.425	61.334	89.955	-15.062	144.083	84.001	-16.665	-10.753	81.822	124.037	-12.721	-8.459	-6.487	-1.579	124.143	-4.499	-8191	255	
1708.195	1	1	0	0	0.22772	0.078557	0.090139	0.22103	0.089439	0.089043	0.071554	0.12053	0.016913	0.060261	0.33392	0.10746	0.095987	0.25867	0.19181	0.089686	-4.8604	-4.3396	-4.4604	-5.0333	-4.0396	-4.7896	-4.9125	-4.1417	-5.0417	-4.4625	-4.4417	-4.9854	-4.2104	-4.6021	-4.7729	-4.2188	318.813	285.493	311.944	291.425	163.789	180.993	300.226	218.596	13.936	215.330	-0.532	270.347	135.864	-8.067	51.591	113.279	0.00028141	0.00031784	7.0297e-05	488.68	3.8691e-06	2.7603e-06	530.09	188.44	2.2475e-06	3.2039e-06	227.96	101.11	73.689	34.806	3.1704e-06	55.981	0.00013386	0.00010424	2.9558e-05	494.95	1.1717e-06	1.1263e-06	538.17	192.44	1.1873e-06	1.1501e-06	232.56	103.54	75.542	35.813	1.1769e-06	57.31	119.014	38.924	53.566	-15.503	80.511	98.516	-16.376	-10.503	133.375	133.355	-12.601	-8.159	-6.782	-1.769	144.171	-4.827	-8191	255	
1708.291	1	1	0	0	0.12653	0.24873	0.14895	0.046329	0.10943	0.20095	0.14593	0.084886	0.16883	0.2499	0.1204	0.25358	0.23014	0.027599	0.028767	0.11109	-4.5958	-4.8187	-4.2396	-5.025	-4.2396	-4.5833	-5.1958	-4.0583	-4.9542	-4.7146	-4.4604	-5.2521	-4.6292	-4.5062	-4.8562	-4.2833	272.309	32.999	289.802	220.875	99.259	220.955	290.279	68.590	123.978	88.491	91.608	288.289	-11.656	134.290	202.779	207.438	0.00023593	0.00023261	4.6396e-05	490.54	3.0678e-06	2.7947e-06	531.76	189.97	2.643e-06	2.3378e-06	232.09	101.53	74.083	34.948	2.4999e-06	56.411	0.00013732	0.00010882	3.0056e-05	497.17	1.158e-06	1.1524e-06	540.14	193.42	1.1865e-06	1.1305e-06	234.13	104	75.833	35.958	1.1754e-06	57.636	124.636	42.981	42.237	-15.515	127.059	111.668	-16.530	-10.645	95.372	115.042	-12.958	-8.310	-6.411	-1.865	132.118	-4.524	-8191	255	
1708.387	1	1	0	0	0.061379	0.12667	0.1507	0.34265	0.16409	0.16052	0.26786	0.13112	0.12611	0.18911	0.025097	0.2451	0.2075	0.3791	0.092888	0.32074	-4.4792	-4.8521	-4.1312	-5.0667	-4.2812	-4.4083	-5.0771	-4.3458	-4.75	-4.7708	-4.2521	-4.9208	-4.4125	-4.275	-5.1375	-4.2521	-26.649	113.001	9.745	214.603	-6.145	71.239	285.464	95.341	257.359	238.153	226.444	-26.784	316.749	30.696	94.770	126.669	0.00026042	0.00043774	0.0001041	491.09	3.0151e-06	2.4775e-06	529.11	190.58	2.2216e-06	3.8407e-06	230.64	101.31	74.03	35.188	2.4862e-06	55.896	0.00013698	0.00010265	2.9865e-05	498.07	1.1551e-06	1.1453e-06	539.2	193.83	1.1979e-06	1.1158e-06	233.89	103.72	75.966	36.025	1.1697e-06	57.254	122.817	63.751	92.993	-15.627	90.740	79.928	-16.646	-10.746	123.160	119.655	-12.540	-8.297	-6.340	-1.696	133.978	-4.401	-8191	255	
1708.483	1	1	0	0	0.25204	0.040121	0.17931	0.2564	0.15656	0.017819	0.068255	0.14702	0.16792	0.14878	0.10364	0.2425	0.077634	0.1536	0.078199	0.13911	-4.4479	-4.8562	-4.2958	-4.9604	-4.5	-4.2771	-5.225	-4.3	-4.7583	-4.7833	-4.3771	-5.2083	-4.6854	-4.4458	-5.1958	-4.4938	28.829	324.857	125.777	-3.182	115.926	7.670	282.919	262.329	179.026	232.986	151.726	271.334	16.065	216.727	285.129	140.867	0.00028193	0.00021498	7.2783e-05	491.7	1.716e-06	2.212e-06	530.99	190.09	1.8706e-06	2.898e-06	230.01	101.24	74.207	35.153	1.7128e-06	56.136	0.00013781	0.00010132	2.9132e-05	498.08	1.1292e-06	1.1116e-06	538.71	194.03	1.1699e-06	1.1136e-06	233.39	103.6	75.961	36.031	1.1802e-06	57.347	123.312	41.543	64.537	-15.567	105.625	99.071	-16.397	-10.441	124.181	99.289	-12.596	-8.434	-6.694	-1.479	130.610	-4.858	-8191	255	
1708.579	1	1	0	0	0.14535	0.10892	0.050493	0.32158	0.18797	0.10368	0.079641	0.29136	0.2115	0.14635	0.095791	0.25808	0.34597	0.18987	0.24544	0.061912	-4.3042	-4.9938	-4.1604	-4.875	-4.6833	-4.2771	-5.2229	-4.4854	-4.4125	-4.9146	-4.1125	-4.9625	-4.7875	-4.2229	-4.9917	-4.5083	69.182	72.558	323.557	294.116	320.733	-21.509	218.297	290.983	190.535	65.380	291.154	321.700	20.921	-8.193	179.567	326.570	0.00026228	0.00059035	7.0506e-05	488.66	2.5885e-06	2.8703e-06	529.7	189.85	2.7566e-06	3.159e-06	230.57	101.43	74.181	34.998	2.3823e-06	56.225	0.00013763	0.00010518	2.9859e-05	497.56	1.1567e-06	1.1611e-06	539.26	193.82	1.2325e-06	1.0995e-06	234.01	104.04	76.082	35.975	1.1837e-06	57.472	122.684	48.612	59.748	-15.524	133.542	134.019	-16.647	-10.644	122.958	106.347	-12.768	-8.383	-6.297	-1.954	111.503	-4.301	-8191	255	
1708.675	1	1	0	0	0.072793	0.20188	0.044367	0.18588	0.058111	0.033975	0.24005	0.1338	0.27389	0.059917	0.047582	0.16428	0.098158	0.21895	0.28428	0.13384	-4.0458	-5.1083	-4.1062	-4.8833	-5.0083	-4.1979	-5.0792	-4.4458	-4.4125	-5.0542	-4.2479	-4.8187	-5.0271	-4.2562	-5.0687	-4.5958	146.449	13.474	318.615	322.419	112.826	215.331	271.340	325.337	195.906	233.695	147.317	158.986	321.906	292.589	221.165	242.159	0.00024775	0.00045786	8.7624e-05	489.85	3.51e-06	2.2827e-06	535.8	190.11	2.4347e-06	4.7521e-06	231.82	102.17	74.873	35.09	3.2122e-06	56.646	0.0001399	0.00010603	2.8627e-05	497.99	1.1433e-06	1.179e-06	542	194.1	1.1822e-06	1.1226e-06	234.96	104.52	76.363	36.075	1.2011e-06	57.865	125.124	51.457	89.947	-15.438	90.426	133.192	-16.426	-10.574	107.919	126.797	-12.857	-8.341	-6.440	-2.010	140.655	-4.433	-8191	255	
1708.796	1	1	0	0	0.1662	0.131	0.070006	0.16216	0.032207	0.31991	0.13588	0.11164	0.24558	0.14396	0.22202	0.050261	0.12208	0.1322	0.17191	0.21817	-4.0521	-5.2562	-4.0979	-4.6062	-4.7875	-4.3042	-5.0833	-4.8667	-4.1479	-5.1271	-4.2833	-4.5813	-5.1021	-4.2583	-4.7917	-4.7917	191.602	330.846	199.315	162.923	171.322	299.771	28.159	304.777	164.090	5.635	323.766	135.188	278.022	304.984	303.784	240.137	0.00027894	0.00047558	0.00010187	492.18	3.353e-06	3.4328e-06	531.15	190.1	2.4462e-06	3.7134e-06	230.59	101.76	74.245	35.069	2.4174e-06	56.222	0.00014165	0.00010233	2.9551e-05	497.96	1.1378e-06	1.1673e-06	539.98	193.83	1.2337e-06	1.1139e-06	234.59	104.2	76.031	36.022	1.1492e-06	57.388	118.811	60.462	69.307	-15.547	111.032	130.173	-16.482	-10.343	97.978	126.371	-12.566	-8.647	-6.644	-1.732	122.010	-4.422	-8191	255	
1708.892	1	1	0	0	0.19318	0.17681	0.22209	0.14646	0.1924	0.10255	0.13985	0.090368	0.14021	0.075428	0.10919	0.090471	0.1447	0.2007	0.093415	0.06309	-3.8958	-5.125	-4.4146	-4.5104	-4.9437	-4.1771	-4.825	-4.8938	-4.075	-5.0396	-4.4396	-4.5687	-5.0979	-4.3313	-4.85	-4.8063	68.330	126.250	190.358	4.148	3.362	237.369	123.853	28.161	112.454	43.546	283.240	-27.363	-11.485	264.367	201.952	-11.328	0.00026455	0.00044088	7.5474e-05	489.01	3.6274e-06	4.2808e-06	527.4	190.23	2.2884e-06	3.5081e-06	229.61	101.2	73.643	35.02	3.1652e-06	56.033	0.00013874	0.00010353	2.8864e-05	496.77	1.1369e-06	1.1862e-06	538.94	193.17	1.2316e-06	1.1629e-06	233.22	103.39	75.608	35.91	1.1926e-06	57.337	120.731	58.655	53.113	-15.611	117.957	120.193	-16.730	-10.235	143.999	121.345	-12.501	-8.409	-6.819	-1.608	137.023	-4.428	-8191	255	
1708.987	1	1	0	0	0.17543	0.11732	0.061235	0.11125	0.12457	0.01319	0.20761	0.19895	0.12548	0.16229	0.05232	0.055703	0.017482	0.21673	0.12219	0.15191	-3.8458	-4.8479	-4.3958	-4.4146	-5.0312	-4.2812	-4.7083	-4.8375	-4.3208	-5.0604	-4.7063	-4.4542	-4.9729	-4.3583	-4.5896	-5.0271	199.398	108.752	224.069	42.934	324.778	1.546	315.189	256.221	93.432	23.102	141.975	196.140	-6.572	306.442	171.300	302.720	0.00026302	0.00056173	0.00011595	488.86	2.8222e-06	1.4229e-06	528.79	188.64	1.7909e-06	4.994e-06	230.43	101.26	73.665	34.915	3.8067e-06	56.078	0.00013998	0.00010362	2.8852e-05	495.61	1.0913e-06	1.1464e-06	537.87	192.18	1.2079e-06	1.1615e-06	232.56	103.5	75.44	35.806	1.2036e-06	57.36	117.438	80.706	60.505	-15.401	102.086	117.582	-16.682	-10.590	147.784	117.719	-12.894	-8.480	-6.588	-1.687	85.306	-4.283	-8191	255	
1709.083	1	1	0	0	0.14077	0.21401	0.24876	0.28514	0.18791	0.069399	0.064043	0.27458	0.091972	0.2879	0.094532	0.10657	0.29957	0.18912	0.076395	0.091768	-3.9458	-4.9917	-4.6625	-4.3896	-5.1062	-4.2604	-4.5708	-5.0938	-4.0542	-4.8854	-4.9083	-4.2479	-5.0813	-4.6042	-4.4417	-5.1417	9.345	132.051	218.572	294.806	320.867	172.729	-9.976	200.387	317.339	160.261	180.871	193.252	-23.867	-19.996	249.199	112.818	0.00028345	0.00026277	9.8802e-05	489.32	3.4155e-06	3.2366e-06	527.88	188.53	2.5941e-06	3.7323e-06	229.5	101.17	73.224	34.858	3.9871e-06	56.28	0.0001387	0.0001026	2.8257e-05	495.11	1.1485e-06	1.1114e-06	537.96	192.13	1.2131e-06	1.1177e-06	232.6	103.51	75.156	35.861	1.2139e-06	57.529	120.387	60.601	72.938	-15.212	98.913	111.939	-16.366	-10.369	113.931	124.010	-12.589	-8.182	-6.362	-1.426	113.364	-4.226	-8191	255	
1709.179	1	1	0	0	0.25462	0.2464	0.054454	0.30234	0.35321	0.12779	0.16485	0.1358	0.10504	0.11916	0.10529	0.17739	0.080886	0.057589	0.33441	0.20038	-3.9521	-4.6833	-4.7833	-4.3354	-5.0312	-4.3958	-4.4604	-5.1021	-4.0354	-4.6979	-5.0333	-4.3708	-5.075	-4.7063	-4.3104	-5.2417	86.689	3.639	267.682	275.166	310.911	85.165	142.524	40.390	-22.063	307.202	289.364	149.957	225.109	270.591	294.481	284.762	0.00024048	0.0004809	5.095e-05	484.69	1.1716e-06	2.7362e-06	528.26	188.13	2.1024e-06	3.6665e-06	228.09	100.73	73.087	34.789	3.9964e-06	55.757	0.0001398	0.00010298	2.8176e-05	494.75	1.1405e-06	1.1098e-06	536.97	191.74	1.1907e-06	1.1249e-06	231.79	103.02	75.09	35.705	1.1851e-06	57.053	122.546	53.647	59.361	-15.339	167.103	149.510	-16.620	-10.445	145.131	110.625	-12.483	-8.440	-6.577	-1.602	117.990	-4.570	-8191	255	
1709.275	1	1	0	0	0.35196	0.12181	0.16588	0.21212	0.048084	0.26119	0.12612	0.0388	0.13043	0.40249	0.078074	0.046859	0.1682	0.15479	0.10367	0.32394	-3.9667	-4.6604	-4.7937	-4.1062	-4.9354	-4.6708	-4.5917	-5.1229	-4.2479	-4.5771	-5.1312	-4.2042	-5.0208	-4.6771	-4.2104	-5.1021	62.078	318.706	123.792	121.680	96.722	264.087	296.162	318.401	322.438	309.915	-19.135	7.378	274.316	324.207	18.745	264.486	0.00025823	0.00025217	8.5509e-05	484.83	2.8365e-06	2.2909e-06	526.21	187.68	3.4199e-06	2.8131e-06	227.59	99.642	73.184	34.712	3.539e-06	56.094	0.00013549	0.00010615	2.7694e-05	494.58	1.1266e-06	1.0865e-06	535.46	191.63	1.1829e-06	1.0898e-06	231.35	102.56	75.014	35.73	1.2223e-06	57.17	122.615	57.418	60.670	-15.586	99.326	131.252	-16.549	-10.486	113.014	131.684	-12.275	-8.326	-6.751	-1.556	122.879	-4.303	-8191	255	
1709.371	1	1	0	0	0.11333	0.20358	0.37931	0.11277	0.016166	0.09758	0.1294	0.25662	0.10193	0.15376	0.12124	0.06139	0.11994	0.13518	0.055728	0.026163	-4.2208	-4.3917	-5.1312	-4.2333	-4.7188	-4.4875	-4.2979	-5.1104	-4.3583	-4.4458	-5.1792	-4.1146	-4.8375	-4.8667	-4.1708	-5.0854	40.220	178.780	87.413	169.272	237.000	101.937	120.119	211.658	82.664	182.817	135.360	275.440	148.178	118.081	217.104	-9.860	0.00025806	0.00046854	0.00012174	484.22	4.633e-06	4.3104e-06	526.93	188.18	2.7225e-06	2.8364e-06	228.45	100.22	73.408	34.82	2.8407e-06	56.161	0.00013662	0.00010781	2.8538e-05	492.55	1.139e-06	1.1115e-06	536.8	191.59	1.167e-06	1.1625e-06	232.01	102.89	75.213	35.75	1.1713e-06	57.317	117.787	66.015	56.574	-15.548	149.462	100.162	-16.451	-10.678	120.213	97.888	-12.642	-8.130	-6.236	-1.470	132.830	-4.396	-8191	255	
1709.467	1	1	0	0	0.083275	0.051298	0.14727	0.095354	0.18306	0.098012	0.19629	0.1071	0.10273	0.21782	0.09643	0.14106	0.13352	0.046938	0.2392	0.29874	-4.1521	-4.375	-4.9667	-4.1875	-4.6667	-4.825	-4.2562	-5.1583	-4.5542	-4.3812	-5.1625	-4.3146	-4.7229	-5.0333	-3.9813	-5.0958	289.911	16.748	102.831	265.337	198.198	162.342	61.456	265.997	115.611	102.758	207.989	262.801	-13.773	38.399	47.570	254.484	0.00027562	0.00014644	6.2002e-05	488.03	3.1463e-06	3.2171e-06	529.81	188.57	2.2365e-06	3.4704e-06	231.59	101.48	73.997	34.859	2.2421e-06	56.596	0.00013598	0.00010181	2.8081e-05	495.51	1.1006e-06	1.1179e-06	537.98	192.61	1.1884e-06	1.1451e-06	233.88	103.76	75.782	35.922	1.1592e-06	57.706	123.427	66.831	74.385	-15.352	110.670	120.224	-16.740	-10.517	129.818	108.391	-12.535	-8.471	-6.743	-1.679	111.317	-4.556	-8191	255	
1709.588	1	1	0	0	0.15823	0.18684	0.12731	0.03313	0.27973	0.18598	0.11982	0.10523	0.14188	0.10192	0.078468	0.031077	0.18354	0.23583	0.14045	0.11435	-4.2333	-4.1479	-5.1542	-4.4583	-4.4792	-4.8354	-4.0854	-4.9688	-4.5979	-4.1479	-5.2583	-4.2542	-4.5125	-5.0333	-4.0563	-4.9938	167.868	275.373	253.075	44.990	69.778	68.341	157.632	36.107	11.717	298.101	188.278	150.156	279.451	292.061	12.514	227.075	0.00027876	0.00045908	0.00013175	488.31	3.1567e-06	4.562e-06	527.29	188.42	3.0913e-06	3.7087e-06	228.39	101.27	73.959	34.913	2.9429e-06	55.972	0.00013229	0.00010408	2.8415e-05	494.53	1.1476e-06	1.0946e-06	537.77	192.54	1.1525e-06	1.1775e-06	232.68	103.47	75.604	35.909	1.1828e-06	57.199	128.567	69.565	62.920	-15.439	156.092	113.903	-16.196	-10.508	113.894	96.702	-12.594	-8.076	-6.751	-1.689	126.801	-4.489	-8191	255	
1709.684	1	1	0	0	0.25267	0.13888	0.24892	0.077293	0.087827	0.13416	0.14362	0.040863	0.038146	0.092919	0.14031	0.15436	0.35218	0.13498	0.18466	0.067134	-4.6708	-4.1729	-5.2854	-4.2792	-4.5354	-4.9958	-4.0333	-4.7667	-4.7479	-4.0875	-5.025	-4.3979	-4.4271	-5.0021	-4.0583	-5.0167	64.787	-19.350	309.228	35.673	194.193	100.360	238.213	248.088	42.358	113.709	290.650	176.633	289.152	287.922	187.205	69.995	0.00026855	0.00047306	0.00012736	490.59	1.8623e-06	4.9613e-06	528.21	189.32	2.8824e-06	3.7568e-06	228.84	100.68	73.96	34.916	2.9282e-06	55.826	0.00013521	0.00010712	2.7962e-05	496.36	1.1437e-06	1.1208e-06	536.03	193.1	1.1939e-06	1.1665e-06	232.34	103.05	75.703	35.9	1.2233e-06	57.107	121.677	55.960	64.632	-15.310	123.397	120.018	-16.608	-10.435	141.845	121.059	-12.542	-8.274	-6.728	-1.534	116.235	-4.419	-8191	255	
1709.756	1	1	0	0	0.17049	0.14986	0.16402	0.046977	0.15231	0.27432	0.16287	0.020329	0.10202	0.32324	0.070707	0.15172	0.085335	0.20738	0.095723	0.1055	-4.4479	-4.0333	-4.9521	-4.4563	-4.3271	-5.1604	-4.1104	-4.6792	-4.8208	-4.0729	-4.8542	-4.5354	-4.2396	-5.1	-4.2583	-4.5188	85.112	156.707	159.211	214.870	106.320	74.301	293.099	190.333	188.867	154.116	254.265	30.893	187.401	258.888	318.931	328.485	0.00027575	0.00042091	9.1831e-05	486.05	2.5236e-06	4.0711e-06	526.51	190.5	2.4508e-06	2.4904e-06	228.35	100.7	73.92	35.114	2.7333e-06	56.329	0.00013412	0.00011085	2.903e-05	493.46	1.2119e-06	1.1309e-06	536.23	193.09	1.1883e-06	1.2092e-06	232.39	103.33	75.738	36.089	1.1982e-06	57.423	127.070	86.614	49.704	-15.090	117.146	92.341	-16.514	-10.711	102.227	91.594	-12.249	-7.854	-6.462	-1.715	96.976	-4.555	-8191	255	
1709.876	1	1	0	0	0.094539	0.26473	0.1266	0.28307	0.20624	0.2666	0.20019	0.23772	0.079578	0.06321	0.20295	0.052509	0.18142	0.084553	0.21177	0.17767	-4.6708	-3.9292	-4.7146	-4.6167	-4.0292	-5.1708	-4.4021	-4.5417	-4.9167	-4.1417	-5.0833	-4.7625	-4.2771	-5.0062	-4.4229	-4.6333	325.931	205.464	-1.351	287.493	111.397	257.487	320.034	-21.666	77.901	206.139	239.407	128.189	314.222	20.126	98.625	229.681	0.00024363	0.00041856	9.4947e-05	488.45	3.6199e-06	2.1158e-06	528.12	188.71	2.5815e-06	3.2031e-06	230.9	101.76	73.817	35.025	1.5845e-06	56.421	0.00013789	0.00010946	3.0416e-05	494.83	1.2303e-06	1.1421e-06	538.35	193.23	1.1784e-06	1.2046e-06	233.68	104.04	76.077	36.12	1.1958e-06	57.795	114.063	60.811	52.440	-15.426	135.671	111.402	-16.450	-10.340	119.338	99.023	-12.787	-8.070	-6.470	-1.476	129.730	-4.368	-8191	255	
1709.971	1	1	0	0	0.17085	0.23966	0.28646	0.062622	0.039163	0.0067541	0.152	0.19898	0.072062	0.13002	0.34489	0.12457	0.062651	0.044105	0.2048	0.24714	-4.8104	-4.1167	-4.6542	-5	-4.0646	-5.025	-4.5104	-4.2792	-5.1208	-4.0875	-4.7875	-4.7042	-4.2875	-5.025	-4.6167	-4.4646	87.820	13.231	302.971	-16.566	32.128	313.629	308.097	230.873	178.251	-4.742	-17.858	317.763	-27.189	259.669	277.553	225.973	0.00026725	0.00046591	8.5886e-05	490.99	2.8928e-06	3.4386e-06	526.82	189.73	3.0026e-06	1.6964e-06	228.77	101.42	74.048	35.167	1.9131e-06	56.199	0.00013898	0.00011177	2.9524e-05	496.86	1.2086e-06	1.1367e-06	537.75	193.7	1.2059e-06	1.1603e-06	233.21	103.81	76.003	36.199	1.2207e-06	57.412	119.435	59.617	79.886	-15.458	103.776	127.838	-16.359	-10.340	113.759	138.199	-12.372	-8.522	-6.646	-1.684	142.469	-4.494	-8191	255	
1710.067	1	1	0	0	0.019014	0.087408	0.13622	0.13118	0.27221	0.03792	0.13517	0.1093	0.082806	0.094093	0.1758	0.071119	0.10998	0.22222	0.21339	0.15	-4.8063	-4.3375	-4.5875	-4.8583	-4.0458	-4.9354	-4.675	-4.4375	-4.9583	-4.0479	-4.75	-4.9646	-4.0708	-4.9688	-4.5521	-4.2833	194.482	97.222	175.913	245.909	327.929	143.635	205.540	154.674	109.475	271.027	167.316	25.109	178.783	303.328	135.096	298.376	0.00027221	0.00034061	6.375e-05	486.93	3.8006e-06	3.1729e-06	531.65	190.1	2.8941e-06	2.9554e-06	229.21	101.17	74.679	35.056	2.8735e-06	56.109	0.00014054	0.00010883	2.9994e-05	495.57	1.2352e-06	1.1309e-06	538.13	193.67	1.2057e-06	1.1738e-06	232.47	103.59	76.193	36.075	1.1662e-06	57.387	125.930	30.630	89.029	-15.325	103.879	136.102	-16.434	-10.401	150.268	126.135	-12.757	-8.356	-6.717	-1.616	128.371	-4.588	-8191	255	
1710.165	1	1	0	0	0.18791	0.0787	0.12928	0.029548	0.0064415	0.12052	0.16663	0.12293	0.19634	0.09017	0.065463	0.024865	0.35913	0.24785	0.097507	0.28909	-4.6917	-4.1354	-4.4104	-5.1542	-3.9792	-4.8542	-4.6229	-4.3875	-4.8667	-4.3771	-4.2875	-5.1083	-4.1188	-4.775	-4.7438	-4.4271	242.252	184.397	257.303	95.866	161.460	7.024	6.355	87.000	139.315	190.691	292.214	283.705	231.188	290.310	198.133	-21.906	0.00027477	0.00043026	8.4856e-05	486.13	3.9675e-06	2.2291e-06	526.71	189.78	2.8298e-06	2.5564e-06	228.53	100.98	74.062	35.062	3.6564e-06	56.461	0.00013902	0.00010865	3.0922e-05	494.49	1.2306e-06	1.1776e-06	536.4	193.42	1.2266e-06	1.2023e-06	232.59	103.73	75.897	36.078	1.2757e-06	57.61	123.316	46.738	29.311	-15.255	123.802	86.262	-16.409	-10.505	101.524	140.865	-12.760	-8.386	-6.703	-1.709	127.968	-4.652	-8191	255	
1710.284	1	1	0	0	0.052702	0.089285	0.22883	0.24214	0.058146	0.084368	0.18446	0.018772	0.14153	0.22853	0.12275	0.19947	0.18748	0.21555	0.12781	0.06912	-4.5125	-4.4083	-4.1271	-5.0229	-4.1125	-4.5917	-4.8792	-4.0813	-4.9896	-4.4104	-4.3688	-5.0604	-4.3438	-4.4667	-4.8125	-4.2417	139.902	230.944	-17.982	21.631	179.437	204.954	290.022	292.481	78.577	156.374	63.001	276.738	254.356	53.512	324.290	278.459	0.00026118	0.00029624	0.00014348	485.98	4.0048e-07	2.5677e-06	527.8	188.54	2.4681e-06	2.5864e-06	229.71	101.78	73.989	35.113	4.0228e-06	56.708	0.00014319	0.0001113	3.1411e-05	494.34	1.2211e-06	1.2256e-06	538.18	193.1	1.2454e-06	1.2227e-06	233.9	104.1	76.031	36.184	1.2344e-06	57.856	133.032	37.056	36.897	-15.072	140.974	93.165	-16.223	-10.506	125.237	123.431	-12.446	-8.102	-6.340	-1.509	110.897	-4.532	-8191	255	
1710.380	1	1	0	0	0.14238	0.057126	0.064066	0.03578	0.022202	0.18759	0.23814	0.061905	0.13855	0.28048	0.12752	0.12969	0.14598	0.11626	0.064498	0.10172	-4.4708	-4.5375	-4.1479	-5.1188	-4.0833	-4.5938	-4.8646	-4.1229	-4.8583	-4.6	-4.2188	-5.0833	-4.2792	-4.4938	-5.0583	-4.1292	183.021	62.729	70.832	323.776	315.634	-15.136	248.890	25.605	-7.138	6.970	128.721	283.146	321.202	300.612	-24.609	240.513	0.00028127	0.00057642	9.1765e-05	488.54	1.8514e-06	4.2581e-06	529.16	188.94	2.9898e-06	3.3525e-06	228.57	100.7	73.466	35.024	4.1545e-06	56.15	0.00014384	0.00010606	3.2119e-05	495.18	1.214e-06	1.2184e-06	537.73	192.75	1.255e-06	1.1806e-06	232.49	103.42	75.616	36.071	1.2241e-06	57.393	117.651	80.264	81.661	-15.182	112.236	139.097	-16.224	-10.362	95.516	108.794	-12.760	-8.156	-6.390	-1.605	116.275	-4.515	-8191	255	
1710.476	1	1	0	0	0.15802	0.040069	0.16006	0.29126	0.16931	0.052668	0.28547	0.10911	0.054796	0.20194	0.06979	0.050454	0.064429	0.1358	0.11655	0.39791	-4.4667	-4.5083	-4.3042	-4.8896	-4.3938	-4.3562	-5.1	-4.225	-4.7042	-4.6875	-4.1229	-5.1167	-4.5229	-4.2063	-5.025	-4.3063	151.883	99.426	312.453	28.910	101.341	212.475	265.913	253.523	299.159	323.001	-16.701	35.904	48.084	263.641	318.625	280.702	0.00027289	0.00046198	0.00013439	485.95	1.441e-06	3.5789e-06	527.31	189.34	9.8453e-07	1.7067e-06	226.93	100.73	73.639	34.778	2.0971e-06	55.655	0.00014037	0.00010757	3.1427e-05	493.85	1.1941e-06	1.2253e-06	536.26	192.46	1.235e-06	1.1767e-06	231.4	102.98	75.521	35.902	1.2205e-06	57.144	124.705	43.196	60.169	-15.156	102.941	139.105	-16.238	-10.577	164.810	147.284	-12.335	-8.204	-6.361	-2.005	165.519	-4.914	-8191	255	
1710.572	1	1	0	0	0.067261	0.081393	0.17848	0.18915	0.20428	0.065881	0.077886	0.18034	0.23898	0.025122	0.22527	0.20017	0.20608	0.036568	0.15282	0.33026	-4.4271	-4.7958	-3.95	-4.8208	-4.475	-4.125	-5.2417	-4.2458	-4.5917	-4.9042	-4.2792	-5.0417	-4.7125	-4.2521	-5.0354	-4.2208	-17.768	306.696	82.496	301.054	45.649	308.434	287.118	238.415	260.663	150.238	-2.044	269.147	13.559	304.486	-16.584	307.730	0.00024744	0.00072165	9.2048e-05	483.36	3.7642e-06	3.7415e-06	526.67	187.44	1.9795e-06	1.9417e-06	228.19	100.43	73.771	35.082	3.2474e-06	56.093	0.00014234	0.00011005	3.114e-05	492.34	1.1911e-06	1.2318e-06	536.27	191.79	1.2626e-06	1.1904e-06	231.74	103.04	75.487	35.994	1.2519e-06	57.393	123.588	55.365	34.718	-15.819	105.171	96.784	-16.943	-10.919	161.819	162.299	-13.025	-8.783	-6.764	-1.979	165.910	-5.009	-8191	255	
1710.668	1	1	0	0	0.090103	0.20569	0.27662	0.10438	0.12188	0.05091	0.25298	0.11708	0.095285	0.084291	0.15765	0.20393	0.12074	0.12985	0.12692	0.12967	-4.2083	-4.8208	-3.9979	-4.8229	-4.6708	-4.1104	-5.1479	-4.3021	-4.4729	-4.9187	-4.1312	-4.6937	-4.6792	-4.0875	-4.9229	-4.4	133.792	178.288	82.447	69.490	166.989	2.365	269.027	68.717	254.902	35.458	68.764	248.568	210.927	238.440	142.955	232.245	0.00028519	0.00018419	9.6175e-05	487.14	2.7514e-06	3.4596e-06	528.04	187.98	1.5969e-06	3.1143e-06	228.52	101.26	73.689	34.903	2.4127e-06	56.446	0.0001431	0.00010981	3.0715e-05	493.63	1.21e-06	1.2337e-06	537.11	192.03	1.2544e-06	1.1704e-06	232.2	103.47	75.5	36.002	1.2224e-06	57.635	122.966	76.048	60.501	-16.053	114.266	107.186	-16.787	-10.769	114.917	116.069	-12.672	-8.683	-6.972	-1.913	132.254	-4.655	-8191	255	
1710.764	1	1	0	0	0.14902	0.1662	0.30406	0.17344	0.10209	0.060704	0.18838	0.32737	0.14612	0.18581	0.069558	0.14352	0.10221	0.16108	0.06134	0.14312	-4.3125	-4.9229	-4.1896	-4.6083	-4.8458	-4.0042	-5.2333	-4.5854	-4.3833	-4.8792	-4.3833	-4.7625	-4.7708	-4.0813	-4.8187	-4.5292	55.657	-13.163	-0.724	229.498	258.177	86.565	254.149	273.296	246.024	244.700	113.488	243.849	78.245	-16.854	216.271	244.739	0.00025974	0.0001543	7.3867e-05	483.73	1.3521e-06	3.4252e-06	528.88	186.76	2.8489e-06	2.9493e-06	227.28	100.21	73.437	34.898	3.6842e-06	55.607	0.00014307	0.0001103	2.9849e-05	492.76	1.1548e-06	1.1796e-06	536.57	191.56	1.2353e-06	1.1589e-06	231.13	102.76	75.392	35.949	1.2488e-06	57.034	120.344	122.221	73.539	-15.841	78.641	106.442	-16.883	-10.768	102.680	118.209	-13.109	-8.640	-6.565	-2.096	147.229	-4.929	-8191	255	
1710.885	1	1	0	0	0.057222	0.13571	0.21512	0.18978	0.11167	0.20082	0.38268	0.10095	0.18452	0.12906	0.041883	0.21248	0.0509	0.30813	0.12574	0.10141	-4.0583	-5.0271	-4.1271	-4.5979	-4.9271	-4.1208	-4.8708	-4.8208	-4.1229	-5.175	-4.1833	-4.5875	-4.8438	-4.0813	-4.7979	-4.7771	195.102	55.240	22.333	181.706	237.216	92.788	246.136	296.289	22.252	185.441	150.878	311.598	164.887	41.322	22.388	178.045	0.00025883	0.00053556	9.3398e-05	484.76	2.563e-06	2.4927e-06	525.34	187.55	2.9642e-06	2.1833e-06	228.81	100.28	73.359	35.017	3.4971e-06	55.841	0.00014272	0.00010556	2.9929e-05	493.39	1.1696e-06	1.206e-06	534.78	191.51	1.2557e-06	1.166e-06	231.17	102.87	75.413	35.956	1.2295e-06	57.141	121.206	49.044	62.657	-15.798	142.298	130.135	-16.861	-10.657	112.567	127.737	-12.701	-8.670	-6.906	-2.127	160.146	-4.921	-8191	255	
1710.979	1	1	0	0	0.18207	0.094697	0.038777	0.26592	0.18332	0.14383	0.12997	0.1205	0.23467	0.15608	0.28158	0.14836	0.038894	0.32545	0.20775	0.15312	-3.7875	-5.0042	-4.1937	-4.4396	-4.9292	-4.0917	-4.9667	-4.8146	-4.0979	-4.9708	-4.5312	-4.3333	-5.0021	-4.1229	-4.7188	-4.7896	233.140	183.705	115.439	297.255	214.980	-9.158	37.105	54.256	56.987	202.047	272.025	324.366	1.615	-3.138	112.185	263.846	0.00024664	0.00036545	7.8816e-05	485.55	3.3535e-06	1.9401e-06	529	188.05	1.614e-06	3.2907e-06	227.6	101.03	73.83	35.064	2.4677e-06	56.267	0.00014079	0.00010736	2.9932e-05	494.14	1.1647e-06	1.1882e-06	536.99	192.21	1.2607e-06	1.1832e-06	231.87	103.24	75.72	36.072	1.1973e-06	57.493	115.533	49.426	49.542	-15.590	118.522	98.717	-16.567	-10.752	118.189	92.840	-13.126	-8.807	-6.590	-2.026	137.998	-4.781	-8191	255	
1711.051	1	1	0	0	0.066349	0.15297	0.1283	0.20303	0.030098	0.038491	0.16463	0.086375	0.12761	0.13817	0.14641	0.12463	0.15526	0.22684	0.1384	0.2773	-3.975	-4.9604	-4.4417	-4.175	-5.1042	-4.1521	-4.6083	-4.8521	-4.0854	-5.0188	-4.6708	-4.1708	-4.9938	-4.3021	-4.5479	-4.9812	291.690	277.792	320.639	280.619	129.086	193.556	303.116	309.731	227.695	288.575	292.003	257.757	283.750	220.335	57.204	308.914	0.00024559	0.00041907	9.8856e-05	488.54	4.5395e-06	3.1418e-06	532.53	190.42	2.2501e-06	3.0914e-06	229.13	101.18	74.23	35.139	2.7593e-06	56.544	0.00014268	0.00010817	2.9707e-05	495.23	1.1693e-06	1.2289e-06	539.73	193.51	1.2292e-06	1.1645e-06	233.55	103.85	76.069	36.195	1.1972e-06	57.756	121.095	73.152	75.254	-15.872	100.502	118.343	-16.617	-10.895	159.673	95.622	-12.898	-8.827	-6.618	-1.794	156.448	-4.676	-8191	255	
1711.147	1	1	0	0	0.05197	0.15137	0.1367	0.19535	0.032383	0.14714	0.12563	0.30027	0.081612	0.11121	0.17798	0.16384	0.24027	0.088644	0.13027	0.1449	-3.7562	-4.8479	-4.4146	-4.2833	-4.7375	-4.4271	-4.4688	-5.0417	-4.0312	-4.8521	-4.7479	-4.0917	-5.2937	-4.3917	-4.3854	-5.2167	-20.411	73.802	268.596	293.766	248.675	131.212	315.507	267.025	210.198	40.783	214.607	-18.652	279.513	15.623	320.615	164.936	0.00029049	0.00024859	0.00010303	490.26	2.3787e-06	3.0771e-06	531.05	191.29	2.4902e-06	2.8765e-06	230.53	101.16	74.374	35.206	2.2023e-06	56.023	0.00014172	0.00010374	2.9846e-05	495.96	1.1862e-06	1.1628e-06	539.92	194.24	1.223e-06	1.1503e-06	233.82	103.77	76.322	36.268	1.2643e-06	57.278	120.514	83.327	76.253	-15.943	106.147	115.419	-16.800	-10.486	138.131	110.902	-12.822	-8.495	-6.959	-1.823	138.719	-4.874	-8191	255	
1711.245	1	1	0	0	0.23757	0.26652	0.10784	0.18958	0.30903	0.035345	0.19743	0.048625	0.14091	0.13546	0.12702	0.10883	0.1429	0.15313	0.32539	0.14378	-3.8438	-4.7	-4.7625	-4.4437	-4.9292	-4.5042	-4.4896	-5.0396	-4.1625	-4.6167	-5.075	-4.35	-4.9229	-4.5813	-4.1542	-5.0563	243.121	-7.228	315.284	322.497	9.017	148.478	80.371	193.538	117.767	167.263	257.627	201.030	134.059	14.476	9.400	168.818	0.00025832	0.00038865	0.00010142	488.31	1.7953e-06	2.3088e-06	528.16	190.82	1.9121e-06	4.7472e-06	230.24	101.09	74.33	35.229	1.9556e-06	56.064	0.00014344	0.00010824	3.0198e-05	496.84	1.1898e-06	1.1561e-06	538.97	194.01	1.2248e-06	1.1737e-06	233.4	103.68	76.342	36.221	1.2438e-06	57.306	120.713	53.554	48.846	-15.672	129.994	104.459	-16.961	-10.984	118.338	114.531	-12.712	-8.778	-6.836	-2.146	103.825	-4.836	-8191	255	
1711.364	1	1	0	0	0.27231	0.09436	0.12074	0.099413	0.079395	0.11805	0.1727	0.19024	0.22413	0.13704	0.043282	0.12103	0.070685	0.14225	0.25527	0.11517	-4.0958	-4.5396	-4.9333	-4.1937	-5.0563	-4.4896	-4.4292	-5.1687	-4.175	-4.7604	-4.8854	-4.2479	-5.0604	-4.8542	-4.2458	-5.1	-17.165	70.518	283.498	174.095	270.421	-16.122	256.534	250.910	252.855	39.839	328.214	193.647	123.676	-24.269	274.668	-14.782	0.00025372	0.0002562	7.3114e-05	488.6	2.8462e-06	3.1683e-06	530.51	189.72	1.4747e-06	2.615e-06	230.51	101.53	74.466	35.196	1.6111e-06	56.462	0.00014067	0.00010458	2.9653e-05	496.9	1.1948e-06	1.1646e-06	538.93	193.89	1.1979e-06	1.1891e-06	234.12	103.88	76.503	36.29	1.2553e-06	57.76	126.662	41.709	93.197	-15.779	122.497	128.494	-16.895	-10.745	151.845	110.871	-13.003	-8.583	-7.074	-1.638	145.936	-4.647	-8191	255	
1711.460	1	1	0	0	0.033281	0.1363	0.07978	0.085279	0.15026	0.25703	0.12186	0.082609	0.16219	0.14896	0.27464	0.02779	0.21652	0.28705	0.12297	0.10564	-4.1562	-4.4396	-5	-4.1771	-4.7917	-4.9229	-4.125	-5.2021	-4.4667	-4.3771	-5.0521	-4.1771	-4.8812	-4.7125	-4.2604	-4.9854	-8.961	278.554	214.414	144.521	181.201	47.997	148.294	276.317	148.510	291.931	51.591	182.491	154.267	167.982	97.742	308.796	0.00026404	0.00024717	9.9344e-05	488.74	3.7299e-06	3.3074e-06	533.37	191.08	2.6828e-06	2.9707e-06	233.64	102.49	74.865	35.473	3.9832e-06	56.637	0.00014115	0.00011352	3.0108e-05	498.91	1.1858e-06	1.1512e-06	542.45	195.02	1.2273e-06	1.239e-06	236.09	104.49	76.822	36.472	1.2485e-06	57.847	121.498	59.387	79.253	-15.690	112.801	133.119	-16.762	-10.895	147.788	137.870	-12.655	-8.496	-6.774	-1.901	125.274	-4.530	-8191	255	
1711.556	1	1	0	0	0.086145	0.17225	0.10666	0.18563	0.1923	0.083504	0.42441	0.10513	0.14266	0.028015	0.33132	0.14565	0.1423	0.074958	0.13877	0.16861	-4.0875	-4.3646	-5.1542	-4.1708	-4.4604	-4.9021	-4.1979	-5.0333	-4.5625	-4.3833	-5.2854	-4.2625	-4.6854	-5.0458	-4.1083	-5.0479	168.523	147.035	189.918	307.730	-15.372	253.152	302.817	284.170	196.283	95.132	329.291	188.970	101.351	308.712	136.993	297.641	0.00028227	0.00052743	6.8678e-05	491.67	2.954e-06	4.5329e-06	529.22	190.23	3.4101e-06	4.0368e-06	230.63	101.27	74.645	35.247	1.2057e-06	56.199	0.00013816	0.00011257	2.9261e-05	498.19	1.2088e-06	1.1722e-06	540.2	194.27	1.234e-06	1.2516e-06	233.43	103.8	76.598	36.325	1.2652e-06	57.498	122.361	50.899	74.676	-15.772	120.310	129.656	-16.527	-10.500	120.360	101.094	-12.774	-8.443	-6.906	-1.575	130.900	-4.457	-8191	255	
1711.652	1	1	0	0	0.22501	0.099061	0.02483	0.11854	0.11883	0.14046	0.15842	0.097987	0.15047	0.096606	0.096768	0.072812	0.16079	0.020898	0.14472	0.10439	-4.2792	-4.2604	-4.8958	-4.3771	-4.5188	-4.9333	-4.2208	-4.9875	-4.4604	-4.1958	-5.1125	-4.2229	-4.5958	-4.9646	-4.2271	-4.9375	265.837	174.939	182.119	143.794	127.613	135.337	267.532	290.463	179.248	69.505	177.016	145.421	273.587	325.708	42.602	318.871	0.00025355	0.00036609	0.00013048	487.75	3.6675e-06	2.9287e-06	528.03	190.55	2.4595e-06	4.1129e-06	230.89	100.86	74.149	35.234	1.8724e-06	56.23	0.00014129	0.00010913	2.9122e-05	496.68	1.214e-06	1.1581e-06	537.65	194	1.1578e-06	1.2005e-06	233.34	103.54	76.135	36.2	1.2358e-06	57.375	114.323	54.035	83.984	-15.318	118.312	119.742	-16.247	-10.271	110.230	114.973	-12.503	-8.001	-6.411	-1.691	144.328	-4.580	-8191	255	
1711.749	1	1	0	0	0.19001	0.1775	0.1701	0.22926	0.1476	0.19135	0.30551	0.1166	0.084996	0.27506	0.11498	0.1843	0.10347	0.070236	0.18284	0.10685	-4.5917	-4.2708	-5.0437	-4.4563	-4.3625	-5.0604	-4.0958	-4.8521	-4.7604	-4.0375	-5.1625	-4.4854	-4.4375	-5.0229	-4.2042	-4.8313	163.761	209.920	16.552	-8.208	72.843	279.983	304.774	95.791	136.273	15.721	85.927	-11.663	-8.325	328.495	-19.368	311.529	0.00027341	0.00031926	0.00010233	487.53	1.7351e-06	4.7126e-06	530.72	190.42	3.9668e-06	3.7582e-06	230.54	101.43	74.277	35.324	3.1979e-06	56.47	0.00014267	0.00011065	2.9036e-05	494.86	1.1827e-06	1.1732e-06	538.18	193.88	1.2285e-06	1.2098e-06	233.96	103.96	76.302	36.218	1.2473e-06	57.581	120.353	35.301	98.770	-15.361	134.498	107.696	-16.780	-10.573	102.667	129.973	-12.482	-8.177	-6.537	-1.720	147.644	-4.410	-8191	255	
1711.845	1	1	0	0	0.1497	0.1221	0.20442	0.11694	0.16251	0.1293	0.22017	0.12265	0.14484	0.031175	0.19763	0.33885	0.16003	0.094994	0.17749	0.085917	-4.5333	-4.1646	-4.8375	-4.4896	-4.35	-5.0333	-4.2229	-4.7167	-4.85	-4.0521	-4.9667	-4.6792	-4.3083	-5.2021	-4.3438	-4.5625	152.686	304.425	104.440	34.082	58.896	127.753	202.411	323.323	236.447	98.215	190.324	328.467	61.276	323.771	83.102	315.548	0.00027169	0.00044384	9.3004e-05	488.59	1.111e-06	2.7393e-06	531.91	190.57	3.4282e-06	3.052e-06	230.97	102.27	74.545	35.385	2.6497e-06	56.537	0.00014176	0.00011258	2.9049e-05	495.29	1.2237e-06	1.1642e-06	540.3	194.2	1.2152e-06	1.1829e-06	234.78	104.39	76.707	36.389	1.2363e-06	57.756	124.084	42.255	90.901	-15.232	101.156	87.263	-16.515	-10.493	178.812	137.122	-12.661	-8.509	-6.490	-1.692	135.515	-4.382	-8191	255	
1711.965	1	1	0	0	0.22658	0.15217	0.10551	0.07231	0.14206	0.21522	0.058523	0.098646	0.08436	0.11276	0.13783	0.19728	0.33656	0.16874	0.12894	0.18383	-4.7771	-4.05	-4.8958	-4.6167	-4.15	-5.1375	-4.4688	-4.4437	-5.0062	-4.1229	-4.875	-4.825	-4.325	-5.0917	-4.2917	-4.4729	297.663	255.995	329.075	-11.350	206.853	168.861	38.620	115.814	111.840	98.898	223.409	0.932	285.509	-4.997	108.986	185.110	0.00029315	0.00042808	9.937e-05	492.8	2.8122e-06	3.3384e-06	528.91	191.53	2.7746e-06	4.3075e-06	230.04	101.42	74.865	35.376	3.0623e-06	56.005	0.00013968	0.00011272	3.004e-05	498.16	1.2513e-06	1.2103e-06	539.65	195.04	1.2061e-06	1.1633e-06	234.28	103.82	76.903	36.408	1.2107e-06	57.364	120.640	82.784	55.481	-15.158	128.455	99.933	-16.753	-10.460	127.022	117.375	-12.455	-8.246	-6.594	-1.777	147.667	-4.313	-8191	255	
1712.060	1	1	0	0	0.063535	0.065543	0.19553	0.20452	0.21332	0.10691	0.039616	0.065755	0.24398	0.16049	0.097307	0.13946	0.27747	0.25764	0.12958	0.1345	-4.7875	-4.0687	-4.8	-4.7771	-4.2	-5.0938	-4.4437	-4.3667	-5.0042	-4.1562	-4.7604	-4.8958	-3.9083	-4.9729	-4.2646	-4.4354	284.544	-7.788	311.061	270.416	330.866	94.118	306.768	177.747	176.915	2.994	32.412	-24.912	120.167	270.201	223.618	223.431	0.00026443	0.00042042	6.7929e-05	489.84	3.0664e-06	3.9874e-06	529.85	191.65	2.7174e-06	3.3282e-06	231.35	101.87	74.629	35.507	2.6951e-06	56.153	0.0001376	0.00010642	2.9774e-05	497.35	1.21e-06	1.1686e-06	539.57	195.32	1.1427e-06	1.1601e-06	234.42	104.12	76.742	36.468	1.1702e-06	57.385	119.249	68.039	46.484	-15.018	110.879	96.211	-16.456	-10.438	155.720	97.157	-12.085	-8.015	-6.406	-1.552	137.034	-4.530	-8191	255	
1712.156	1	1	0	0	0.20524	0.15952	0.1316	0.18074	0.24183	0.06647	0.11268	0.058978	0.083861	0.30948	0.10576	0.019228	0.18222	0.12947	0.16799	0.19761	-4.8292	-4.3083	-4.5021	-5.0687	-4.0375	-4.975	-4.55	-4.3396	-5.1396	-4.3375	-4.7	-4.9354	-4.1854	-4.775	-4.8354	-4.2688	52.941	316.286	-16.186	-21.576	-26.128	239.837	19.444	151.734	1.869	211.535	116.245	137.832	7.332	8.241	240.366	178.662	0.0002538	0.00051098	9.4267e-05	488.9	2.7717e-06	3.5893e-06	532.22	191.95	2.9649e-06	4.7011e-06	231.48	102.01	74.868	35.341	3.7356e-06	56.081	0.00013569	0.00010497	2.9655e-05	497.29	1.1835e-06	1.1383e-06	540.71	195.45	1.1803e-06	1.1352e-06	234.51	104.15	76.789	36.375	1.204e-06	57.352	119.844	47.934	45.173	-15.141	105.478	87.253	-16.166	-10.553	107.269	106.359	-12.404	-8.157	-6.389	-1.048	151.637	-4.240	-8191	255	
1712.277	1	1	0	0	0.051802	0.15655	0.075486	0.12282	0.29992	0.12938	0.084986	0.23602	0.20201	0.092136	0.35738	0.098461	0.20581	0.172	0.32024	0.18822	-4.7896	-4.2896	-4.3542	-4.9667	-4.0146	-4.7292	-4.8208	-4.3187	-4.9062	-4.4187	-4.5437	-5.0854	-4.075	-4.8729	-4.5708	-4.2812	187.468	123.240	49.816	314.121	330.605	224.972	300.457	46.425	83.003	20.421	49.818	240.771	287.008	159.745	224.209	264.433	0.0002897	0.00053519	9.1992e-05	491.65	2.7805e-06	1.7063e-06	531.53	189.55	3.6521e-06	3.8873e-06	229.1	100.93	74.196	34.965	3.1407e-06	55.364	0.00013625	0.00010645	3.0225e-05	496.88	1.2108e-06	1.1743e-06	539.22	193.63	1.2122e-06	1.224e-06	232.94	103.33	76.023	35.95	1.2046e-06	56.526	123.285	66.633	45.011	-14.844	106.105	117.667	-15.850	-9.961	115.112	121.263	-12.368	-8.192	-6.490	-1.430	129.031	-3.955	-8191	255	
1712.348	1	1	0	0	0.014445	0.23516	0.18536	0.22881	0.056453	0.1866	0.11239	0.052042	0.15502	0.091746	0.11306	0.12294	0.12193	0.19358	0.076733	0.14793	-4.5708	-4.1958	-4.3375	-5.0396	-4.2438	-4.6583	-4.9333	-4.2104	-4.95	-4.6104	-4.3125	-5.0687	-4.2688	-4.7479	-4.8542	-4.2417	147.158	120.084	98.162	23.267	217.746	206.367	255.440	276.518	298.470	269.005	275.818	267.514	142.886	21.587	230.377	248.218	0.00029007	0.00020443	0.00010142	482.57	1.7957e-06	2.2338e-06	522.7	187.93	2.6728e-06	2.8614e-06	226.22	98.4	72.186	34.345	2.3701e-06	54.126	0.00014171	0.00010946	3.2063e-05	490.31	1.2692e-06	1.2299e-06	529.49	190.51	1.248e-06	1.2111e-06	228.2	100.79	74.249	35.269	1.2523e-06	55.355	118.298	84.904	62.258	-14.665	127.139	143.287	-15.993	-9.909	108.873	118.161	-12.266	-7.860	-6.052	-0.724	131.668	-3.940	-8191	255	
1712.444	1	1	0	0	0.26234	0.10474	0.16502	0.2406	0.067872	0.093043	0.059543	0.18184	0.099547	0.24456	0.025591	0.16381	0.014661	0.15502	0.092447	0.056097	-4.6083	-4.6958	-4.2	-5.1542	-4.1979	-4.4292	-5.1667	-4.1167	-4.8104	-4.6542	-4.0875	-5.3417	-4.5021	-4.6	-4.8625	-4.3354	211.936	241.547	169.094	-4.570	6.482	80.268	102.685	278.445	30.514	63.204	102.390	-5.973	132.012	315.384	119.391	301.695	0.00028351	0.00055775	7.5206e-05	476.87	3.1389e-06	2.5575e-06	516.62	184.02	2.7275e-06	1.8076e-06	221.55	97.199	71.287	33.948	7.8758e-07	53.913	0.00014095	0.00011312	3.2617e-05	485.97	1.3042e-06	1.3048e-06	523.59	187.11	1.3306e-06	1.2927e-06	224.74	99.564	73.24	34.927	1.3647e-06	54.91	123.906	71.979	68.515	-14.749	114.508	111.764	-15.843	-9.900	126.919	146.836	-12.029	-7.572	-6.071	-0.914	57.085	-3.675	-8191	255	
1712.565	1	1	0	0	0.28368	0.16973	0.17111	0.17907	0.11259	0.41929	0.24041	0.10929	0.16741	0.090923	0.16038	0.15974	0.11587	0.34737	0.053784	0.091102	-4.4708	-4.7438	-4.2688	-4.9708	-4.2875	-4.5042	-4.9104	-4.1229	-4.6646	-4.6271	-4.2438	-4.9771	-4.4729	-4.3292	-5.0062	-4.3562	314.725	-17.955	-5.823	151.297	-17.115	62.760	122.030	11.644	158.017	140.296	248.975	269.668	314.349	173.969	112.799	57.091	0.00027165	0.00049055	0.00012638	473.24	1.932e-06	4.2084e-06	507.21	178.98	3.5259e-06	3.547e-06	216.16	95.21	69.267	33.212	5.5157e-06	53.091	0.00015109	0.00012736	3.7156e-05	480.2	1.4132e-06	1.449e-06	517.55	182.88	1.4944e-06	1.4472e-06	219.68	97.498	71.213	34.157	1.5134e-06	54.22	127.296	55.506	54.797	-14.804	59.784	126.171	-15.576	-9.716	108.190	137.105	-11.495	-7.195	-5.885	-0.934	119.933	-3.906	-8191	255	
1712.661	1	1	0	0	0.12039	0.095787	0.085689	0.1501	0.15451	0.045772	0.1961	0.039139	0.083256	0.083678	0.01348	0.065738	0.16353	0.21806	0.10546	0.13849	-4.2479	-4.9083	-4.0125	-4.95	-4.6875	-4.2542	-5.1312	-4.2188	-4.7417	-4.8021	-3.9771	-4.9021	-4.6062	-4.2917	-5.0167	-4.3583	269.950	21.769	-9.239	223.693	87.469	248.018	228.785	267.030	-12.973	24.288	82.203	134.067	-17.751	194.495	163.641	40.083	0.00026993	0.00038677	8.2843e-05	465.74	3.1729e-06	1.8831e-06	502.49	176.45	2.0277e-06	4.2227e-06	214.98	94.168	68.649	33.001	1.7325e-06	52.714	0.0001666	0.00013538	3.8469e-05	473.87	1.5e-06	1.5324e-06	511.48	180.55	1.5327e-06	1.4819e-06	217.98	96.363	70.738	34.008	1.5233e-06	53.942	116.920	39.798	49.593	-14.800	96.438	149.231	-15.289	-9.505	183.163	150.756	-11.710	-7.195	-5.165	-0.392	133.126	-3.354	-8191	255	
1712.757	1	1	0	0	0.21047	0.15458	0.24021	0.25137	0.16429	0.049606	0.23969	0.12691	0.15324	0.091058	0.18979	0.24429	0.12816	0.081459	0.017913	0.05603	-4.2646	-5.0208	-4.2458	-4.8646	-4.7792	-4.2833	-5.1667	-4.4208	-4.3958	-4.9458	-4.3708	-4.7917	-4.8958	-4.2312	-5.0354	-4.5354	82.216	149.433	227.621	314.795	67.694	91.869	233.424	144.303	34.566	244.409	218.301	169.379	156.770	56.052	304.696	294.446	0.00025415	0.00038643	9.8765e-05	464.55	4.481e-06	1.9588e-06	501.29	176.21	2.3048e-06	4.388e-06	212.84	94.724	68.751	32.917	4.4069e-06	52.345	0.00016364	0.00013623	3.915e-05	473.9	1.4743e-06	1.5292e-06	509.58	179.76	1.5232e-06	1.5033e-06	217.08	96.328	70.712	33.972	1.4955e-06	53.634	119.906	75.276	57.944	-14.520	113.840	107.452	-15.893	-9.526	106.845	171.752	-11.525	-7.159	-5.678	-0.594	155.495	-2.863	-8191	255	
1712.853	1	1	0	0	0.033383	0.053539	0.16901	0.11022	0.077907	0.015963	0.1406	0.10337	0.16643	0.032815	0.17069	0.036497	0.097116	0.21815	0.18311	0.14489	-4.2396	-5.0667	-4.175	-4.8063	-4.8375	-4.1458	-5.0813	-4.5667	-4.4667	-5.0938	-4.3	-4.6875	-4.8208	-4.2438	-4.9896	-4.5292	196.641	324.932	111.567	218.705	247.761	102.042	283.657	143.945	-20.913	328.299	319.542	172.225	147.650	61.377	137.069	316.722	0.00026184	0.00030372	8.9164e-05	467.63	2.4454e-06	3.0282e-06	503.02	177.69	3.4461e-06	3.4967e-06	215.15	95.032	69.467	33.292	3.5626e-07	52.695	0.00016424	0.00013441	3.8766e-05	475.49	1.4938e-06	1.5347e-06	511.64	181.58	1.5824e-06	1.4717e-06	219.05	97.118	71.429	34.12	1.5567e-06	53.846	118.811	61.360	58.898	-14.942	94.408	139.199	-15.409	-9.426	127.790	160.354	-12.015	-7.441	-5.759	-0.650	282.703	-3.290	-8191	255	
1712.925	1	1	0	0	0.018711	0.11969	0.23158	0.11643	0.080959	0.13211	0.14981	0.15121	0.21613	0.088184	0.12174	0.074926	0.11178	0.1186	0.17923	0.1301	-3.9188	-4.95	-4.0833	-4.6312	-4.9062	-3.9542	-5.0458	-4.6396	-4.1667	-5.0938	-4.3604	-4.6146	-5.0771	-4.2083	-4.7896	-4.775	31.991	107.482	316.258	263.548	58.148	35.035	14.890	196.651	19.976	-21.089	317.891	275.869	208.610	318.251	248.082	312.297	0.00024878	0.00055989	0.00012659	469.3	1.719e-06	3.1808e-06	505.76	178.95	1.8819e-06	1.9269e-06	217.19	95.195	69.423	33.231	2.9198e-06	53.004	0.0001707	0.00014049	3.9054e-05	477.14	1.56e-06	1.5457e-06	515.48	182.63	1.634e-06	1.5724e-06	221.01	97.465	71.541	34.335	1.6628e-06	54.272	122.383	60.592	69.677	-14.654	124.820	112.229	-15.960	-9.192	99.801	122.124	-11.130	-7.221	-5.656	-0.706	144.266	-3.487	-8191	255	
1713.044	1	1	0	0	0.19502	0.13027	0.14483	0.15735	0.03507	0.12612	0.22448	0.21619	0.059925	0.23722	0.11917	0.19524	0.057444	0.41818	0.023723	0.1547	-3.8229	-5.075	-4.225	-4.4729	-4.8625	-4.15	-4.8875	-4.8417	-4.2333	-4.9938	-4.5104	-4.3646	-5.0458	-4.1	-4.6188	-4.8625	54.419	286.485	245.711	302.939	144.117	228.320	257.392	275.423	204.702	5.290	72.668	222.146	168.667	307.881	141.279	21.185	0.00025812	0.00037188	8.3296e-05	469.21	2.9537e-06	2.7352e-06	507.64	180.7	3.2123e-06	2.71e-06	218.18	95.827	70.399	33.593	2.4604e-06	53.031	0.00017325	0.00015021	4.1331e-05	479.06	1.571e-06	1.5934e-06	517.34	183.87	1.6304e-06	1.5786e-06	221.94	98.199	72.301	34.582	1.6305e-06	54.333	119.324	47.572	62.375	-14.988	87.526	108.366	-16.065	-9.331	144.066	136.184	-11.946	-7.984	-5.934	-1.077	162.436	-3.943	-8191	255	
1713.140	1	1	0	0	0.2169	0.022701	0.080745	0.025354	0.14827	0.2332	0.18917	0.04367	0.11656	0.079883	0.064004	0.11579	0.21466	0.15209	0.14551	0.11054	-3.8792	-5.05	-4.4583	-4.3625	-5.0667	-4.1917	-4.7854	-4.8938	-4.325	-4.9708	-4.7229	-4.3708	-5.0583	-4.1354	-4.5167	-5.0042	175.666	301.663	145.413	13.270	71.959	175.246	302.503	289.935	109.651	-0.386	265.002	295.718	293.772	8.292	188.650	298.270	0.00023805	0.00024878	6.3635e-05	471.36	2.183e-06	3.1719e-06	504.05	180.09	2.2413e-06	4.2102e-06	217.92	95.653	70.37	33.85	2.7493e-06	53.026	0.00017252	0.00014757	4.0215e-05	478.73	1.6054e-06	1.5946e-06	515.23	184	1.6248e-06	1.6234e-06	222.05	98.161	72.538	34.795	1.6443e-06	54.368	118.602	31.664	112.664	-15.355	115.625	191.307	-16.640	-10.401	117.023	145.755	-12.669	-8.416	-6.496	-1.529	144.448	-4.695	-8191	255	
1713.238	1	1	0	0	0.20648	0.10326	0.32349	0.24774	0.14826	0.1658	0.091862	0.022829	0.16695	0.07519	0.20613	0.086485	0.04012	0.053065	0.059581	0.33096	-3.7667	-4.7958	-4.5542	-4.2312	-4.9458	-4.3187	-4.4792	-5.075	-4.1458	-4.9938	-4.7521	-4.2792	-5.0958	-4.3292	-4.5167	-5.1375	108.587	150.916	-28.218	230.710	24.840	16.232	156.852	131.934	38.737	90.438	-20.667	35.866	238.650	64.181	274.791	256.922	0.00023947	0.00040513	9.5701e-05	472.09	3.1627e-06	3.7309e-06	504.1	180.82	1.0367e-06	3.8081e-06	219.07	95.698	70.984	33.691	8.6402e-07	53.246	0.00017108	0.0001422	4.1179e-05	480.06	1.5737e-06	1.5823e-06	515.37	184.62	1.6428e-06	1.58e-06	222.59	98.488	72.84	34.761	1.6642e-06	54.456	119.128	57.889	73.877	-15.584	124.948	117.892	-16.694	-10.421	184.737	106.311	-12.708	-8.364	-6.718	-1.677	78.768	-4.622	-8191	255	
1713.357	1	1	0	0	0.013401	0.21255	0.094824	0.13862	0.12704	0.13314	0.104	0.15068	0.04505	0.24062	0.098377	0.15279	0.067004	0.067505	0.27383	0.053065	-3.8646	-4.7063	-4.6396	-4.3021	-5.0104	-4.4646	-4.4896	-4.9854	-4.1479	-4.8646	-5.0062	-4.2958	-4.9333	-4.7979	-4.1729	-5.0896	129.642	32.819	53.989	282.266	56.450	-25.035	96.195	214.085	58.400	150.036	148.261	185.689	107.030	254.103	208.488	4.214	0.00023746	0.00039033	7.9885e-05	471.17	9.8553e-07	3.3372e-06	508.09	180.35	4.4285e-06	4.2103e-06	218.85	95.973	70.857	33.939	3.5104e-06	53.597	0.00017348	0.0001465	4.1757e-05	480.3	1.6024e-06	1.5596e-06	518.01	184.54	1.6677e-06	1.6156e-06	222.92	98.744	72.835	34.908	1.6434e-06	54.861	116.883	67.758	31.841	-15.585	95.846	131.358	-16.565	-10.631	109.968	96.759	-12.780	-8.685	-6.646	-1.471	147.959	-4.261	-8191	255	
1713.453	1	1	0	0	0.10329	0.27402	0.018901	0.12746	0.070787	0.15307	0.19203	0.12278	0.19111	0.109	0.071696	0.15538	0.33255	0.086158	0.10192	0.17256	-3.8729	-4.5062	-4.7667	-4.1521	-4.9812	-4.5667	-4.3688	-5.1875	-4.1687	-4.5229	-5.0521	-4.3438	-4.9729	-4.7604	-4.1521	-5.1875	23.403	239.252	208.096	305.153	107.244	29.788	12.703	73.143	219.914	271.487	-27.007	243.335	229.614	113.788	302.745	296.739	0.000257	0.00053476	7.6507e-05	470.96	2.6527e-06	3.8449e-06	507.14	180.75	1.6951e-06	3.506e-06	219.26	96.236	70.772	33.877	3.0047e-06	53.33	0.00017089	0.00014581	3.9973e-05	480.38	1.5874e-06	1.5528e-06	517.84	185.08	1.6384e-06	1.6196e-06	223.34	98.812	72.851	34.926	1.6465e-06	54.661	118.755	43.853	96.780	-15.652	125.506	111.501	-16.700	-10.599	162.506	135.845	-12.858	-8.180	-6.651	-1.414	103.140	-4.506	-8191	255	
1713.549	1	1	0	0	0.083896	0.1448	0.21939	0.12815	0.040942	0.15512	0.18196	0.15739	0.064589	0.11163	0.21061	0.1207	0.19276	0.13738	0.14318	0.13805	-3.9188	-4.5708	-5.0021	-4.1833	-4.9479	-4.6125	-4.3313	-5.1021	-4.2542	-4.4271	-5.0896	-4.1896	-4.8458	-4.9625	-4.1562	-5.0292	143.195	44.679	-0.129	220.762	161.047	232.220	176.548	5.388	80.185	153.491	107.820	157.911	-16.284	69.950	-27.087	229.435	0.00025795	0.00044546	7.3076e-05	468.44	4.3683e-06	3.8757e-06	505.4	180.44	3.3447e-06	2.6575e-06	218.01	95.855	70.465	33.864	2.4263e-06	53.198	0.00016967	0.00014684	3.9702e-05	478.1	1.6328e-06	1.5999e-06	515.84	184.68	1.644e-06	1.6176e-06	221.79	98.453	72.598	34.959	1.6725e-06	54.513	119.183	40.093	66.325	-15.566	97.835	122.415	-16.627	-10.699	112.289	136.400	-13.023	-8.574	-6.756	-1.487	174.467	-4.381	-8191	255	
1713.645	1	1	0	0	0.10452	0.051258	0.078049	0.23836	0.12267	0.13178	0.047837	0.28297	0.19858	0.1695	0.14721	0.1084	0.21574	0.072634	0.12222	0.2139	-4.2042	-4.3708	-5.1208	-4.1396	-4.6687	-4.9458	-4.2979	-5.1417	-4.4812	-4.4542	-5.0104	-4.4688	-4.6667	-4.8875	-4.1417	-4.9667	227.132	128.713	250.425	-9.096	265.643	9.776	295.099	-5.669	153.479	19.596	104.533	316.631	32.242	301.692	-28.217	212.039	0.00026143	0.00048835	8.4794e-05	471.51	3.6372e-06	1.6952e-06	505.6	180.4	2.129e-06	1.9514e-06	218.68	95.937	70.366	34.017	2.85e-06	53.502	0.0001745	0.00014518	4.0022e-05	478.53	1.6506e-06	1.5806e-06	516.62	184.52	1.6233e-06	1.6505e-06	222.8	98.561	72.681	35.087	1.6536e-06	54.831	114.382	37.756	28.409	-15.829	132.569	115.616	-16.605	-10.509	137.246	130.127	-12.653	-8.291	-6.722	-1.550	140.502	-4.502	-8191	255	
1713.742	1	1	0	0	0.052328	0.099173	0.13659	0.18111	0.1588	0.13723	0.11003	0.19798	0.12817	0.10653	0.13817	0.1637	0.039691	0.17221	0.16461	0.022179	-4.5167	-4.3479	-5.1104	-4.2917	-4.5354	-4.9354	-4.3771	-4.9896	-4.7125	-4.2104	-5.0917	-4.2979	-4.5229	-4.9313	-4.175	-4.9187	50.839	81.112	130.321	317.195	264.926	286.542	15.689	34.429	94.192	25.478	-5.156	-0.890	301.008	119.525	127.022	235.349	0.0002492	0.00075131	0.00011412	467.41	9.987e-07	2.3894e-06	508.56	180.97	2.2333e-06	4.522e-06	220.04	97.158	71.056	34.108	2.5363e-06	53.71	0.00017125	0.00014691	3.9329e-05	477.99	1.6256e-06	1.5537e-06	517.75	185.04	1.6539e-06	1.6418e-06	224.08	99.437	73.143	35.256	1.6694e-06	55.227	122.967	87.375	46.497	-15.536	190.472	129.539	-16.780	-10.416	142.252	118.594	-12.377	-8.656	-6.457	-1.319	100.316	-4.438	-8191	255	
1713.836	1	1	0	0	0.2358	0.26685	0.071599	0.2507	0.27398	0.28745	0.34747	0.22855	0.044415	0.20889	0.058343	0.12968	0.10848	0.23034	0.16098	0.13511	-4.5979	-4.2417	-5.1396	-4.425	-4.3896	-5	-4.2917	-4.7167	-4.7208	-4.1333	-5.2229	-4.6542	-4.5396	-5.0854	-4.3	-4.7438	66.726	77.296	316.077	-26.481	32.518	321.909	241.931	295.027	60.206	102.995	23.804	285.385	227.708	245.853	42.544	213.381	0.00026469	0.00046624	6.6283e-05	473.22	2.3371e-06	1.2066e-06	510.79	180.9	1.2855e-06	2.0766e-06	220.47	97.085	71.408	34.366	1.9914e-06	53.748	0.00017144	0.00014959	4.1414e-05	480.94	1.6374e-06	1.5848e-06	519.46	185.35	1.655e-06	1.63e-06	224.72	99.701	73.421	35.43	1.6508e-06	55.048	119.783	62.935	84.269	-15.931	109.387	143.308	-16.412	-10.745	143.069	107.462	-12.821	-8.434	-6.685	-1.276	131.549	-4.444	-8191	255	
1713.957	1	1	0	0	0.12422	0.23398	0.14552	0.10044	0.136	0.11429	0.14094	0.082919	0.29072	0.092154	0.098046	0.11236	0.21198	0.13989	0.33046	0.21902	-4.4875	-4.25	-4.9167	-4.5771	-4.3125	-5.15	-4.3521	-4.7333	-5.0062	-4.3417	-5.0667	-4.6687	-4.2875	-5.1958	-4.2521	-4.7646	228.201	126.579	222.751	224.797	239.672	315.261	268.378	322.656	91.831	230.112	137.694	-16.939	281.008	-23.722	199.338	310.786	0.00026571	0.00042453	0.00012646	468.64	4.1271e-06	2.2724e-06	507.39	182	3.3853e-06	2.9406e-06	219.9	96.744	71.508	34.478	8.3552e-07	53.7	0.00016965	0.0001502	3.9466e-05	479.07	1.6336e-06	1.5613e-06	518.14	186.06	1.6363e-06	1.6097e-06	224.12	99.509	73.409	35.527	1.7068e-06	55.081	121.709	67.087	54.077	-15.331	128.678	127.771	-16.704	-10.523	118.965	118.528	-12.847	-8.381	-6.846	-1.511	106.588	-4.456	-8191	255	
1714.053	1	1	0	0	0.10648	0.42412	0.036734	0.29425	0.17386	0.15769	0.073107	0.098085	0.10514	0.07321	0.15604	0.15528	0.22526	0.1598	0.13626	0.041933	-4.6833	-4.2771	-4.8167	-4.6896	-4.0521	-5.0833	-4.3917	-4.6312	-5.0917	-3.9667	-4.9604	-4.7146	-4.2354	-5.1687	-4.4083	-4.4625	-12.294	106.035	-21.316	105.882	28.117	209.057	163.067	142.228	51.360	217.124	295.377	328.950	98.991	316.958	267.255	257.767	0.00026769	0.00027338	6.9614e-05	472.6	2.6586e-06	2.3277e-06	506.34	182.06	1.3218e-06	2.9291e-06	219.9	97.145	71.769	34.53	2.6394e-06	54.195	0.00017115	0.00015085	4.1146e-05	480.3	1.6393e-06	1.5784e-06	517.44	186.31	1.5907e-06	1.6459e-06	225.11	99.941	73.822	35.675	1.6502e-06	55.429	121.375	60.902	81.393	-15.349	119.624	143.959	-16.853	-10.401	49.741	113.693	-12.918	-8.306	-6.546	-1.376	128.388	-4.494	-8191	255	
1714.149	1	1	0	0	0.16796	0.25258	0.3283	0.051676	0.10687	0.07674	0.16925	0.064527	0.16369	0.18163	0.14901	0.1115	0.090521	0.27656	0.11201	0.14026	-4.7417	-4.2833	-4.6042	-4.9437	-4.0729	-5.1146	-4.5333	-4.5083	-4.9417	-4.2438	-4.6042	-4.8562	-4.1979	-5.0354	-4.6438	-4.2896	-5.051	313.482	216.870	-25.020	99.585	237.080	23.452	50.497	71.498	169.731	56.815	186.773	248.769	223.364	68.336	162.190	0.00025805	0.00047155	9.9139e-05	473.09	2.5242e-06	2.9999e-06	510.3	182.37	2.3958e-06	2.5738e-06	222.37	97.733	71.447	34.686	1.8733e-06	54.369	0.00017261	0.00014694	4.0681e-05	481.44	1.6509e-06	1.6293e-06	519.7	186.68	1.6476e-06	1.6191e-06	225.36	100.31	73.824	35.85	1.6517e-06	55.685	119.507	84.605	87.098	-15.262	90.527	133.598	-16.603	-10.452	111.610	132.823	-12.837	-8.256	-6.510	-1.206	95.044	-4.564	-8191	255	
1714.221	1	1	0	0	0.056861	0.096537	0.135	0.1199	0.10781	0.073031	0.05891	0.13009	0.012813	0.13601	0.19752	0.16499	0.10294	0.061005	0.077457	0.14137	-4.9146	-4.1438	-4.5271	-4.9479	-4.0958	-4.6979	-4.7354	-4.2125	-5.0354	-4.0833	-4.65	-5.1021	-4.1229	-4.9625	-4.6917	-4.3396	52.444	282.338	277.538	193.275	48.856	159.807	190.246	205.277	287.146	194.342	295.495	317.219	324.787	47.215	312.091	295.324	0.00024511	0.00053999	0.00010333	471.84	2.8017e-06	2.0439e-07	510.07	181.83	1.9005e-06	2.1028e-06	219.45	97.05	71.269	34.7	3.1872e-06	53.971	0.00017241	0.00014618	4.0996e-05	480.74	1.6674e-06	1.6314e-06	519.24	186.16	1.63e-06	1.6525e-06	224.1	99.688	73.589	35.787	1.6299e-06	55.271	121.244	41.313	63.268	-15.537	110.046	82.369	-16.857	-10.745	91.512	101.158	-12.977	-8.569	-6.211	-1.563	136.572	-4.376	-8191	255	
1714.339	1	1	0	0	0.21728	0.27721	0.27296	0.10337	0.053101	0.13377	0.23666	0.1692	0.13986	0.11977	0.036418	0.1443	0.078683	0.058216	0.13469	0.11995	-4.7667	-4.3313	-4.4583	-4.8771	-4.2896	-4.9271	-4.9563	-4.4083	-5.0188	-4.4729	-4.275	-5.1542	-4.1125	-4.7833	-4.9396	-4.2167	56.051	187.275	-21.602	47.028	107.697	234.995	236.262	19.469	324.133	290.885	250.103	-10.908	12.533	156.045	248.875	253.264	0.00028654	0.00029505	8.9998e-05	470.35	1.956e-06	3.4838e-06	506.35	182.18	2.9565e-06	3.4312e-06	218.15	96.723	71.029	34.723	3.6862e-06	54.017	0.0001711	0.00014366	4.0673e-05	479.3	1.6226e-06	1.5614e-06	516.9	185.7	1.6246e-06	1.6119e-06	223.27	99.679	73.353	35.803	1.6275e-06	55.503	126.918	80.463	70.335	-15.608	122.783	118.743	-16.658	-10.352	127.354	110.415	-12.526	-8.482	-6.759	-1.158	152.833	-4.343	-8191	255	
1714.436	1	1	0	0	0.070233	0.18274	0.15937	0.098209	0.035615	0.10915	0.10794	0.15666	0.16907	0.30611	0.10565	0.16326	0.16517	0.27399	0.09778	0.11264	-4.6625	-4.5333	-4.2792	-5.175	-4.1833	-4.625	-5.075	-4.0604	-4.925	-4.5417	-4.3729	-5.0771	-4.2958	-4.6021	-4.9208	-4.1562	83.423	174.841	212.669	111.622	90.193	227.402	171.122	292.694	204.897	222.790	9.932	232.927	91.113	256.883	219.405	78.108	0.00026044	0.00036344	7.1467e-05	471.6	3.0578e-06	2.1206e-06	509.18	180.56	2.6467e-06	4.6717e-06	218.98	97.186	71.051	34.946	3.2704e-06	54.435	0.00017056	0.00014564	4.1553e-05	478.79	1.628e-06	1.5905e-06	517.59	184.63	1.6751e-06	1.6111e-06	223.31	99.803	73.37	35.957	1.618e-06	55.815	124.363	19.902	45.680	-15.572	100.571	112.264	-16.473	-10.496	88.095	98.777	-12.943	-8.351	-6.363	-1.162	124.043	-4.559	-8191	255	
1714.532	1	1	0	0	0.20595	0.01333	0.049052	0.14131	0.14251	0.15275	0.082021	0.035587	0.1569	0.16596	0.10364	0.060483	0.14224	0.22774	0.026455	0.18614	-4.6562	-4.575	-4.225	-5.1042	-4.2708	-4.6	-5.15	-4.2083	-4.7604	-4.6896	-4.15	-5.1458	-4.1583	-4.6292	-4.925	-4.1979	186.739	203.738	288.384	314.672	173.931	-28.021	327.387	110.712	122.031	114.697	308.624	252.948	58.023	-2.890	148.746	159.616	0.00025274	0.00030634	0.00013039	470.01	1.9734e-06	3.1698e-06	509.76	182.37	3.2177e-06	3.7488e-06	220.29	98.097	71.884	34.972	3.2083e-06	54.841	0.00017519	0.00014705	4.1944e-05	478.89	1.6379e-06	1.6033e-06	519.28	185.88	1.62e-06	1.5825e-06	225.04	100.5	73.858	36.114	1.637e-06	56.153	123.792	60.221	71.585	-15.448	124.064	107.082	-16.858	-10.552	158.083	139.724	-12.736	-8.475	-6.362	-1.573	133.109	-4.414	-8191	255	
1714.628	1	1	0	0	0.022622	0.069761	0.089283	0.064677	0.21283	0.17673	0.1285	0.18747	0.31838	0.029101	0.072326	0.11217	0.12848	0.13863	0.085096	0.040596	-4.5104	-4.8667	-3.9833	-4.9229	-4.4292	-4.4396	-5.1479	-4.0771	-4.8187	-4.7917	-4.0229	-5.1958	-4.5167	-4.4167	-4.9208	-4.475	223.845	326.122	76.675	308.195	-24.875	285.554	219.025	224.622	245.846	152.833	200.272	33.523	177.666	10.981	97.454	4.877	0.00027404	0.00060728	0.00012461	472.3	3.7541e-06	4.7206e-06	510.71	181.86	3.5323e-06	3.407e-06	219.85	97.562	72.143	35.023	1.774e-06	54.443	0.00017442	0.0001428	4.1379e-05	481.05	1.5757e-06	1.6031e-06	520.3	186.3	1.5832e-06	1.5549e-06	224.02	100.25	73.97	36.142	1.6421e-06	55.8	124.148	82.279	45.572	-15.549	111.397	114.287	-16.783	-10.042	104.207	140.758	-12.725	-8.377	-6.253	-1.469	181.330	-4.304	-8191	255	
1714.749	1	1	0	0	0.15079	0.016485	0.013242	0.2841	0.23849	0.22306	0.19592	0.08305	0.10319	0.15225	0.21195	0.081439	0.079482	0.16579	0.1772	0.29741	-4.3021	-4.9042	-4.0792	-5.15	-4.3938	-4.2542	-4.9333	-4.2208	-4.6396	-4.9625	-4.2188	-4.9292	-4.5958	-4.2583	-5.1271	-4.1792	194.359	280.486	214.922	329.628	174.936	111.026	328.764	-23.577	238.195	-26.594	1.245	220.301	261.388	275.217	-1.663	281.310	0.0002829	0.00037604	0.00010321	472.5	3.6195e-06	3.1128e-06	508.77	181.92	3.3418e-06	1.8211e-06	219.84	97.122	71.908	35.06	3.5216e-06	54.556	0.00017331	0.00014575	4.1023e-05	481.85	1.6164e-06	1.6056e-06	517.16	185.7	1.6638e-06	1.5948e-06	223.86	99.867	73.927	36.238	1.6542e-06	55.947	117.643	110.501	62.303	-15.171	96.103	121.221	-16.662	-10.679	131.130	139.538	-12.533	-8.355	-6.467	-1.290	119.800	-4.470	-8191	255	
1714.820	1	1	0	0	0.15812	0.082824	0.22975	0.11381	0.13148	0.16931	0.10554	0.098088	0.2325	0.17208	0.092749	0.06085	0.17835	0.05255	0.14603	0.11756	-4.0604	-4.8875	-4.0979	-4.9083	-4.475	-4.1	-5.1458	-4.2833	-4.4146	-4.8979	-4.1937	-4.7271	-4.8021	-4.2854	-4.8521	-4.5583	241.260	272.155	208.022	-19.196	26.170	284.401	223.380	83.924	99.867	153.746	121.063	62.640	134.574	322.475	265.721	278.328	0.00025703	0.00042317	2.7618e-05	469.26	2.8162e-06	2.6002e-06	506.72	180.02	3.6435e-06	3.0419e-06	218.91	96.95	71.183	35.249	3.3565e-06	54.691	0.00017503	0.00014888	4.1574e-05	478.05	1.6225e-06	1.5918e-06	514.89	184.56	1.6343e-06	1.5212e-06	222.5	99.675	73.639	36.314	1.6428e-06	55.997	114.513	56.720	73.706	-15.490	144.173	94.616	-16.307	-10.303	119.500	127.167	-12.406	-8.143	-6.023	-1.250	126.001	-4.051	-8191	255	
1714.916	1	1	0	0	0.14086	0.078607	0.15287	0.13503	0.034926	0.029425	0.18709	0.13222	0.016681	0.25195	0.1213	0.10768	0.19029	0.26702	0.20548	0.078774	-3.9313	-4.9625	-4.0563	-4.6687	-4.8396	-4.1104	-5.0354	-4.4167	-4.1854	-5.0833	-4.3833	-4.6208	-4.7917	-4.2854	-4.7771	-4.8021	76.269	71.076	11.249	16.610	230.152	6.353	275.878	296.884	69.854	-10.637	98.463	296.173	128.052	295.394	121.439	317.416	0.00025386	0.00023877	8.7447e-05	469.37	1.8275e-06	3.9221e-06	504.65	179.7	3.1145e-06	4.1469e-06	218.52	97.238	71.37	35.298	1.987e-06	55.031	0.00017067	0.00014283	4.0091e-05	476.7	1.5682e-06	1.604e-06	513.56	183.73	1.6017e-06	1.5092e-06	221.83	99.665	73.566	36.489	1.5423e-06	56.351	122.380	47.858	42.039	-15.751	66.309	98.188	-16.787	-10.589	114.465	113.408	-12.834	-7.990	-6.556	-1.284	137.538	-4.405	-8191	255	
1715.037	1	1	0	0	0.095704	0.14914	0.080813	0.11538	0.067966	0.23041	0.13285	0.15703	0.27155	0.088192	0.12776	0.2806	0.095329	0.056181	0.16432	0.17696	-3.9188	-5.0458	-4.4167	-4.4792	-5.0167	-4.2583	-5.075	-4.6271	-4.1542	-5.0125	-4.3292	-4.6375	-4.9979	-4.1562	-4.7937	-4.7896	290.936	190.998	63.562	-20.097	172.359	174.586	15.485	124.837	182.554	200.759	209.619	-12.741	219.274	215.472	65.858	89.449	0.00027114	0.00036193	4.7352e-05	467.38	4.2006e-06	3.0893e-06	502.47	179.13	1.4838e-06	2.6788e-06	215.12	95.435	71.233	34.897	2.0882e-06	53.796	0.00017029	0.00013276	3.7582e-05	475.62	1.4055e-06	1.4468e-06	511.3	183.6	1.4191e-06	1.3396e-06	218.62	98.071	72.953	36.083	1.4481e-06	55.094	120.941	45.649	74.343	-15.730	115.022	110.177	-16.827	-10.350	129.969	66.907	-12.625	-8.759	-6.337	-1.533	132.938	-4.424	-8191	255	
1715.133	1	1	0	0	0.26503	0.13989	0.16477	0.082969	0.077948	0.091055	0.087063	0.17985	0.058127	0.12925	0.11375	0.17923	0.06812	0.065231	0.25858	0.062365	-3.7833	-4.9958	-4.5042	-4.6229	-4.9896	-4.2354	-4.7875	-4.7333	-4.1583	-5.0625	-4.4625	-4.2229	-5.2208	-4.2458	-4.6854	-4.7937	-4.824	280.950	231.905	83.811	296.380	200.157	210.200	64.732	84.771	74.521	331.221	328.387	251.960	-23.492	212.455	261.697	0.00023844	0.00033384	2.6868e-05	460.98	3.0579e-06	2.1412e-06	494.48	176.07	1.6379e-06	3.5157e-06	211.54	93.858	69.983	34.563	4.3663e-06	53.066	0.00016118	0.00013202	3.78e-05	469.55	1.4969e-06	1.5125e-06	502.52	180.22	1.557e-06	1.4553e-06	215.03	96.286	72.014	35.621	1.5882e-06	54.485	121.198	63.801	81.017	-15.478	116.013	127.537	-16.749	-10.402	83.832	100.743	-12.507	-8.229	-6.433	-1.461	130.598	-4.342	-8191	255	
1715.229	1	1	0	0	0.1517	0.12091	0.22048	0.14007	0.19376	0.039938	0.056875	0.13701	0.10277	0.13459	0.22682	0.074182	0.068894	0.18059	0.050098	0.17862	-3.8688	-4.9646	-4.5646	-4.2771	-4.9604	-4.2021	-4.6333	-5.0354	-4.1854	-4.7792	-4.7604	-4.1917	-5.0604	-4.1979	-4.3104	-5.0208	-27.488	259.073	173.582	298.302	148.177	146.911	322.740	-14.738	23.231	242.845	142.098	167.188	-25.647	225.075	137.792	-28.705	0.00024176	0.00044165	7.5533e-05	455.97	2.9945e-06	2.0258e-06	489.44	175.58	2.8517e-06	1.6977e-06	210.99	94.364	70.324	34.648	2.45e-06	53.593	0.00017035	0.00014252	3.9549e-05	465.91	1.5413e-06	1.5397e-06	500.26	179.16	1.6989e-06	1.5938e-06	215	96.623	72.221	35.81	1.6329e-06	54.869	120.945	67.077	84.295	-15.721	146.373	70.778	-16.692	-10.734	164.962	154.354	-12.480	-8.396	-6.237	-1.511	178.413	-4.184	-8191	255	
1715.325	1	1	0	0	0.33199	0.15835	0.023174	0.22003	0.14727	0.25652	0.014272	0.071409	0.23379	0.11251	0.17948	0.14757	0.10965	0.13258	0.12963	0.062874	-3.8104	-4.8917	-4.6062	-4.1937	-5.0458	-4.3167	-4.5687	-5.0354	-4.1167	-4.9146	-4.8063	-4.425	-5.1062	-4.4771	-4.3625	-5.0687	75.864	275.675	119.159	-9.011	142.559	324.345	105.086	109.872	272.605	237.991	44.109	309.737	-21.150	169.211	234.924	313.852	0.00027329	0.00040253	0.00010265	463.12	2.6626e-06	2.7346e-06	495.12	177.32	2.9907e-06	4.6639e-06	213.31	95.13	70.964	35.124	2.6801e-06	54.004	0.00017509	0.0001432	3.9299e-05	472.07	1.6098e-06	1.6096e-06	505.47	181.34	1.6886e-06	1.6298e-06	217.81	97.828	73.05	36.185	1.6925e-06	55.361	120.877	84.281	81.917	-15.607	100.503	122.859	-16.645	-10.351	132.558	104.339	-12.564	-7.997	-6.379	-0.996	124.035	-4.270	-8191	255	
1715.444	1	1	0	0	0.18973	0.21514	0.13	0.22235	0.21596	0.070722	0.061209	0.20967	0.19297	0.16224	0.17932	0.17884	0.21025	0.18294	0.047058	0.11705	-3.8604	-4.6833	-4.75	-4.1562	-4.9667	-4.6125	-4.475	-5.0437	-4.1542	-4.4646	-5.0708	-3.9646	-5.0375	-4.5833	-4.4292	-5.0833	92.688	110.380	37.969	274.169	2.896	142.534	104.915	290.066	151.395	193.989	25.090	228.178	266.965	4.176	32.808	263.341	0.0002728	0.00049757	6.8386e-05	463.39	3.3503e-06	3.4801e-06	499.01	178.73	1.7017e-06	2.6249e-06	213.12	95.192	71.74	35.089	3.8862e-06	53.929	0.00018061	0.00015065	4.0197e-05	473.88	1.6312e-06	1.63e-06	507.21	182.89	1.6918e-06	1.6654e-06	217.71	97.831	73.567	36.221	1.7307e-06	55.109	116.039	53.536	54.795	-15.834	136.846	128.339	-16.614	-10.409	110.645	112.000	-12.210	-7.843	-6.335	-1.322	133.218	-4.230	-8191	255	
1715.516	1	1	0	0	0.075963	0.10025	0.13945	0.45077	0.20129	0.13617	0.16595	0.054661	0.051807	0.18509	0.086413	0.021422	0.30462	0.21654	0.23532	0.24921	-4.0083	-4.6208	-4.9875	-4.125	-4.9313	-4.5354	-4.2833	-4.9563	-4.325	-4.3979	-5.0521	-4.1542	-5.0458	-4.8354	-4.15	-5.0583	267.579	6.387	128.876	310.417	-17.513	249.438	290.031	66.125	118.923	85.802	-10.180	282.339	279.395	1.368	306.821	297.647	0.0002446	0.0003344	0.00010176	462.19	3.408e-06	3.5537e-06	496.15	178.83	1.3245e-06	3.7658e-06	213.69	94.951	71.144	35.086	2.8195e-06	53.896	0.00017872	0.00015589	4.1657e-05	472.26	1.6543e-06	1.6412e-06	505.81	182.76	1.6873e-06	1.6363e-06	217.46	97.606	73.222	36.187	1.7374e-06	55.122	123.951	52.455	69.676	-15.168	108.391	131.458	-16.687	-10.182	233.137	131.344	-12.658	-7.879	-6.341	-1.201	148.822	-4.201	-8191	255	
1715.637	1	1	0	0	0.082785	0.1702	0.15071	0.22979	0.14046	0.25097	0.07522	0.19198	0.16594	0.2641	0.23066	0.13891	0.040777	0.037905	0.13701	0.26907	-3.9146	-4.3354	-4.9583	-4.0958	-4.7937	-4.8438	-4.2896	-5.1104	-4.3896	-4.5771	-5.0208	-4.1896	-4.7083	-4.725	-4.2125	-5.1021	16.237	20.389	272.488	304.355	200.383	139.504	316.329	248.233	90.498	183.354	258.606	323.111	191.085	-16.845	-8.377	7.469	0.00024501	0.00052118	9.6125e-05	463.34	2.3271e-06	3.9348e-06	492.1	178.43	3.2059e-06	4.8404e-06	213.78	95.378	71.094	35.018	3.3489e-06	53.834	0.00017711	0.00014887	4.1713e-05	471.05	1.6521e-06	1.6062e-06	503.47	182.02	1.6257e-06	1.6405e-06	218.08	97.985	73.397	36.131	1.7233e-06	55.259	119.938	56.251	54.253	-15.513	130.468	134.781	-16.680	-10.078	114.129	92.696	-12.452	-7.914	-6.256	-1.184	122.088	-4.137	-8191	255	
1715.733	1	1	0	0	0.11197	0.13872	0.096101	0.10954	0.14178	0.039155	0.12845	0.1728	0.10798	0.16105	0.1939	0.17633	0.048476	0.13461	0.29481	0.15593	-4.2208	-4.3792	-5.0542	-4.2708	-4.5021	-5.0667	-4.25	-4.9458	-4.5979	-4.2	-5.1312	-4.2875	-4.5667	-5.0417	-4.0521	-4.9688	61.311	322.597	213.345	-25.326	3.671	255.067	176.199	10.734	94.294	155.198	237.174	299.903	317.787	95.467	195.396	188.999	0.00024139	0.00024961	0.00012026	461.6	3.6916e-06	3.4602e-06	494.36	177.52	1.3061e-06	2.1776e-06	214.23	95.818	71.51	35.094	2.9989e-06	53.504	0.0001713	0.00015013	4.0367e-05	470.98	1.6196e-06	1.5505e-06	503.17	181.88	1.6025e-06	1.6541e-06	218.39	98.36	73.354	36.12	1.6403e-06	55.138	124.206	54.321	64.660	-15.219	157.874	121.039	-16.391	-10.113	141.012	119.510	-12.157	-7.924	-6.315	-0.970	145.041	-4.205	-8191	255	
1715.829	1	1	0	0	0.25479	0.1087	0.12659	0.1273	0.2151	0.13983	0.10263	0.099069	0.11383	0.089216	0.04683	0.10791	0.17569	0.13717	0.10544	0.12271	-4.3292	-4.2396	-5.1062	-4.4521	-4.5417	-4.9708	-4.175	-4.9417	-4.7479	-4.1833	-5.2021	-4.3979	-4.5813	-4.8979	-4.2229	-4.6979	103.076	67.663	188.573	281.965	55.130	288.995	52.338	220.426	94.865	206.964	179.939	-18.473	-19.518	36.069	102.428	248.993	0.00029396	0.00043078	0.00010547	458.87	1.4855e-06	2.613e-06	493.17	177.14	2.1218e-06	2.1068e-06	212.69	95.215	71.381	34.962	2.8319e-06	53.437	0.0001697	0.00014719	4.0286e-05	469.45	1.5804e-06	1.5286e-06	502.46	181.95	1.6152e-06	1.6158e-06	217.27	97.681	73.111	36.033	1.6418e-06	54.852	124.552	76.254	53.089	-15.367	82.882	81.318	-16.429	-10.249	112.336	124.492	-12.595	-8.273	-6.413	-1.029	132.930	-4.025	-8191	255	
1715.925	1	1	0	0	0.27155	0.074715	0.10548	0.029795	0.22157	0.20517	0.078981	0.21326	0.10793	0.13954	0.17957	0.22108	0.13553	0.049179	0.08071	0.15936	-4.4271	-4.2042	-5.0292	-4.325	-4.2458	-5.0896	-4.125	-4.85	-4.8271	-4.1333	-4.9	-4.4083	-4.3438	-5.1708	-4.1937	-4.7937	-4.238	292.768	281.143	220.991	120.426	322.448	299.653	281.006	156.550	325.179	219.720	29.083	330.177	229.648	-15.994	318.779	0.0002904	0.00027337	8.133e-05	462	1.9028e-06	2.8699e-06	490.15	176.65	1.0721e-06	1.9949e-06	212.19	94.573	70.833	34.872	1.8736e-06	53.98	0.00017043	0.00014238	3.921e-05	467.85	1.6007e-06	1.5731e-06	500.42	180.89	1.5785e-06	1.6031e-06	216.78	97.386	72.914	35.989	1.6398e-06	55.039	123.081	104.236	53.228	-15.407	85.890	124.341	-16.572	-10.002	168.738	108.529	-12.572	-7.821	-6.012	-0.904	125.606	-4.277	-8191	255	
1716.046	1	1	0	0	0.031613	0.1575	0.17892	0.15459	0.23996	0.16731	0.088284	0.33281	0.072563	0.041369	0.22514	0.093918	0.028364	0.10977	0.19248	0.052359	-4.5917	-3.9417	-5.0604	-4.4167	-4.2	-5.0292	-4.3354	-4.7646	-4.9521	-4.1667	-4.9625	-4.5521	-4.3667	-4.9979	-4.3438	-4.5792	259.322	318.330	246.377	86.520	-27.750	94.285	232.423	229.091	113.333	220.422	230.294	303.237	292.419	102.123	305.826	72.345	0.00021931	0.00034014	9.9745e-05	456.09	4.288e-06	2.3159e-06	491.41	175.94	3.9276e-06	3.7836e-06	213.43	95.227	70.395	34.827	2.9649e-06	54.102	0.00016865	0.00014679	3.9183e-05	465.5	1.5545e-06	1.5068e-06	499.78	180.37	1.5728e-06	1.5944e-06	216.75	97.703	72.725	36.014	1.614e-06	55.296	122.190	18.021	62.621	-15.330	126.798	121.627	-16.373	-10.249	128.144	131.382	-12.414	-8.091	-6.086	-1.325	129.473	-3.821	-8191	255	
1716.117	1	1	0	0	0.11367	0.090083	0.21016	0.2012	0.058875	0.27322	0.1893	0.15486	0.054894	0.079503	0.055207	0.053211	0.031936	0.13757	0.15206	0.028511	-4.8104	-3.9813	-4.8875	-4.6	-4.2438	-5.0375	-4.4104	-4.5813	-5.1729	-4.1521	-4.8958	-4.6604	-4.2271	-5.1146	-4.4021	-4.3458	11.269	15.017	250.590	302.979	39.019	10.961	33.203	32.107	220.787	109.572	295.776	319.148	315.844	211.831	115.811	169.499	0.00024024	0.00029109	7.5886e-05	456.94	2.7022e-06	2.3449e-06	490.6	176.37	2.5663e-06	3.1798e-06	212.93	95.464	70.791	34.917	4.2806e-06	53.979	0.0001658	0.00014353	3.8626e-05	466.1	1.5417e-06	1.5073e-06	502.15	180.34	1.5516e-06	1.5494e-06	216.98	97.741	72.629	36.046	1.5487e-06	55.184	121.643	78.054	55.354	-15.299	124.350	49.446	-16.538	-9.959	133.385	145.640	-12.322	-7.979	-6.202	-1.065	133.100	-4.132	-8191	255	
1716.214	1	1	0	0	0.20772	0.078845	0.27269	0.21148	0.29409	0.064246	0.22009	0.17302	0.029304	0.16449	0.11959	0.10149	0.25856	0.10217	0.28478	0.19894	-4.7333	-4.2042	-4.6229	-4.85	-4.0437	-5.0417	-4.5271	-4.2875	-5.0771	-4.2438	-4.7667	-5.0771	-4.0375	-5.1438	-4.4604	-4.4333	215.917	57.143	39.675	-26.501	301.600	153.814	154.630	27.820	64.459	252.010	44.346	11.678	58.097	250.787	34.577	5.617	0.00026372	0.00035725	9.1413e-05	457.61	1.2561e-06	2.4747e-06	492.57	175.95	1.4794e-06	3.3432e-06	212.18	94.694	70.145	34.887	2.8465e-06	53.784	0.00016676	0.00014618	3.9939e-05	466.52	1.5544e-06	1.5429e-06	501.51	179.95	1.5337e-06	1.5439e-06	216.35	97.13	72.229	35.994	1.5551e-06	54.948	116.097	90.898	58.353	-15.389	160.222	138.076	-16.560	-10.343	76.283	133.987	-11.958	-7.876	-6.426	-0.978	152.120	-4.093	-8191	255	
1716.310	1	1	0	0	0.043036	0.13349	0.19694	0.16563	0.11526	0.06132	0.043404	0.2122	0.23359	0.14019	0.078418	0.076886	0.11943	0.16072	0.1472	0.059551	-4.8354	-4.3292	-4.6167	-4.9104	-4.0708	-4.8542	-4.8354	-4.1875	-5.0021	-4.2958	-4.6104	-5.1062	-4.1937	-4.95	-4.8	-4.2104	30.590	84.864	74.602	-18.674	329.069	103.480	255.785	153.132	28.480	79.965	234.714	155.078	-5.394	4.433	68.934	270.546	0.00025504	0.00046911	7.5694e-05	454.79	3.3851e-06	2.4506e-06	490.11	176.2	1.7233e-06	2.6655e-06	211.98	94.407	69.819	34.676	2.2312e-06	53.457	0.00016639	0.00014265	3.8863e-05	464.55	1.6038e-06	1.4956e-06	499.01	179.41	1.5244e-06	1.4829e-06	215.63	96.928	71.987	35.818	1.5098e-06	54.782	123.067	35.853	68.503	-15.371	135.936	99.447	-16.252	-10.409	85.388	116.272	-12.457	-7.952	-6.241	-0.925	141.818	-4.164	-8191	255	
1716.429	1	1	0	0	0.14012	0.11694	0.039598	0.057708	0.19445	0.29053	0.30852	0.21214	0.20266	0.07024	0.14214	0.10508	0.18353	0.091588	0.16914	0.17985	-4.75	-4.3021	-4.4125	-5.0521	-4.0875	-4.8396	-4.8604	-4.2208	-4.9958	-4.4521	-4.4292	-5.2271	-4.1	-4.8479	-4.8729	-4.1458	171.889	271.595	83.467	70.762	177.222	75.843	175.464	318.693	212.836	145.413	-10.589	96.202	-11.161	233.274	112.261	288.881	0.00027446	0.00030669	5.4279e-05	453.97	1.9041e-06	4.4336e-06	490.58	174.66	9.2089e-07	4.2514e-06	212.22	94.579	70.072	34.746	2.5315e-06	53.577	0.0001609	0.00013323	3.6934e-05	462.69	1.5392e-06	1.4567e-06	499.47	178.29	1.4244e-06	1.4368e-06	215.54	97.352	72.071	35.844	1.521e-06	55.092	120.080	64.021	52.242	-15.374	78.437	134.618	-16.433	-10.246	123.037	117.691	-12.216	-8.008	-5.975	-1.158	156.679	-4.084	-8191	255	
#DATA ENDS
