BOXY.EXE: ISS Imagent and Oximeter Data Acquisition Program Version 0.80
Ascii Record File

#ACQ INFORMATION
2  Detector Channels 
16  External MUX Channels 
1  Auxiliary Channels 
5000  Waveform (CCF) Frequency (Hz)
1  Waveforms Skipped 
30  Waveforms Averaged 
1  Cycles Averaged 
16  Acquisitions per Waveform 
10.0806  Updata Rate (Hz) 

#FILE INFORMATION
TRUE -- External MUX Channel results are PARSED.
FALSE -- AC DC and Phase are NOT grouped.
TRUE -- Companion Program Settings File CREATED.
FALSE -- AC data not excluded
FALSE -- DC data not excluded
FALSE -- Phase data not excluded
FALSE -- Auxillary Chn. data not excluded
Tab delimiters

#CALIBRATION STATE
TRUE -- Waveform Calibration Values APPLIED.


#AUX CALIBRATION VALUES
Val Type	aux-1	

Term	1.0000e+00	
Factor	0.0000e+00	


#WF CALIBRATION VALUES
A = Detector Channel
Val Type	A-AC1	A-AC2	A-AC3	A-AC4	A-AC5	A-AC6	A-AC7	A-AC8	A-AC9	A-AC10	A-AC11	A-AC12	A-AC13	A-AC14	A-AC15	A-AC16	A-DC1	A-DC2	A-DC3	A-DC4	A-DC5	A-DC6	A-DC7	A-DC8	A-DC9	A-DC10	A-DC11	A-DC12	A-DC13	A-DC14	A-DC15	A-DC16	A-Ph1	A-Ph2	A-Ph3	A-Ph4	A-Ph5	A-Ph6	A-Ph7	A-Ph8	A-Ph9	A-Ph10	A-Ph11	A-Ph12	A-Ph13	A-Ph14	A-Ph15	A-Ph16	

Term	0.00000e+00	0.00000e+00	0.00000e+00	0.00000e+00	0.00000e+00	0.00000e+00	0.00000e+00	0.00000e+00	0.00000e+00	0.00000e+00	0.00000e+00	0.00000e+00	0.00000e+00	0.00000e+00	0.00000e+00	0.00000e+00	0.00000e+00	0.00000e+00	0.00000e+00	0.00000e+00	0.00000e+00	0.00000e+00	0.00000e+00	0.00000e+00	0.00000e+00	0.00000e+00	0.00000e+00	0.00000e+00	0.00000e+00	0.00000e+00	0.00000e+00	0.00000e+00	0.00000e+00	0.00000e+00	0.00000e+00	0.00000e+00	0.00000e+00	0.00000e+00	0.00000e+00	0.00000e+00	0.00000e+00	0.00000e+00	0.00000e+00	0.00000e+00	0.00000e+00	0.00000e+00	0.00000e+00	0.00000e+00	
Factor	1.00000e+00	1.00000e+00	1.00000e+00	1.00000e+00	1.00000e+00	1.00000e+00	1.00000e+00	1.00000e+00	1.00000e+00	1.00000e+00	1.00000e+00	1.00000e+00	1.00000e+00	1.00000e+00	1.00000e+00	1.00000e+00	1.00000e+00	1.00000e+00	1.00000e+00	1.00000e+00	1.00000e+00	1.00000e+00	1.00000e+00	1.00000e+00	1.00000e+00	1.00000e+00	1.00000e+00	1.00000e+00	1.00000e+00	1.00000e+00	1.00000e+00	1.00000e+00	X	X	X	X	X	X	X	X	X	X	X	X	X	X	X	X	

B = Detector Channel
Val Type	B-AC1	B-AC2	B-AC3	B-AC4	B-AC5	B-AC6	B-AC7	B-AC8	B-AC9	B-AC10	B-AC11	B-AC12	B-AC13	B-AC14	B-AC15	B-AC16	B-DC1	B-DC2	B-DC3	B-DC4	B-DC5	B-DC6	B-DC7	B-DC8	B-DC9	B-DC10	B-DC11	B-DC12	B-DC13	B-DC14	B-DC15	B-DC16	B-Ph1	B-Ph2	B-Ph3	B-Ph4	B-Ph5	B-Ph6	B-Ph7	B-Ph8	B-Ph9	B-Ph10	B-Ph11	B-Ph12	B-Ph13	B-Ph14	B-Ph15	B-Ph16	

Term	0.00000e+00	0.00000e+00	0.00000e+00	0.00000e+00	0.00000e+00	0.00000e+00	0.00000e+00	0.00000e+00	0.00000e+00	0.00000e+00	0.00000e+00	0.00000e+00	0.00000e+00	0.00000e+00	0.00000e+00	0.00000e+00	0.00000e+00	0.00000e+00	0.00000e+00	0.00000e+00	0.00000e+00	0.00000e+00	0.00000e+00	0.00000e+00	0.00000e+00	0.00000e+00	0.00000e+00	0.00000e+00	0.00000e+00	0.00000e+00	0.00000e+00	0.00000e+00	-1.50286e+02	-1.28179e+02	-1.21349e+02	-1.82838e+02	-7.38202e+01	-6.86517e+01	-1.55822e+02	-1.62015e+02	-7.29113e+01	-6.79823e+01	-1.70826e+02	-1.70724e+02	-1.80370e+02	-1.76266e+02	-6.49426e+01	-1.48473e+02	
Factor	2.23038e-05	1.70172e-04	3.80664e-05	2.18512e-01	1.33480e-06	1.47544e-06	1.70849e-01	6.06101e-02	1.17230e-06	1.44139e-06	8.98913e-02	2.97864e-02	2.76328e-02	9.32721e-03	1.30128e-06	1.34466e-02	3.00195e-06	3.32187e-06	9.25624e-07	1.11221e-01	3.61816e-08	3.65802e-08	8.21001e-02	3.10359e-02	3.62532e-08	3.66873e-08	4.44963e-02	1.48016e-02	1.42663e-02	4.80361e-03	3.65987e-08	6.70235e-03	X	X	X	X	X	X	X	X	X	X	X	X	X	X	X	X	



#DISTANCE SETTINGS
A = Detector Channel
A-1	A-2	A-3	A-4	A-5	A-6	A-7	A-8	A-9	A-10	A-11	A-12	A-13	A-14	A-15	A-16	

2.5000e+00	3.0000e+00	2.5000e+00	3.0000e+00	2.0000e+00	3.0000e+00	1.5000e+00	3.0000e+00	3.0000e+00	3.0000e+00	3.0000e+00	3.0000e+00	3.0000e+00	3.0000e+00	1.5000e+00	3.0000e+00	

B = Detector Channel
B-1	B-2	B-3	B-4	B-5	B-6	B-7	B-8	B-9	B-10	B-11	B-12	B-13	B-14	B-15	B-16	

1.0000e+01	1.0000e+01	1.0000e+01	1.4400e+00	1.0000e+01	1.0000e+01	1.5100e+00	1.9400e+00	1.0000e+01	1.0000e+01	1.9900e+00	2.4900e+00	2.4100e+00	2.9000e+00	1.0000e+01	2.9800e+00	




#DATA BEGINS
time	group	step	mark	flag	A-AC1	A-AC2	A-AC3	A-AC4	A-AC5	A-AC6	A-AC7	A-AC8	A-AC9	A-AC10	A-AC11	A-AC12	A-AC13	A-AC14	A-AC15	A-AC16	A-DC1	A-DC2	A-DC3	A-DC4	A-DC5	A-DC6	A-DC7	A-DC8	A-DC9	A-DC10	A-DC11	A-DC12	A-DC13	A-DC14	A-DC15	A-DC16	A-Ph1	A-Ph2	A-Ph3	A-Ph4	A-Ph5	A-Ph6	A-Ph7	A-Ph8	A-Ph9	A-Ph10	A-Ph11	A-Ph12	A-Ph13	A-Ph14	A-Ph15	A-Ph16	B-AC1	B-AC2	B-AC3	B-AC4	B-AC5	B-AC6	B-AC7	B-AC8	B-AC9	B-AC10	B-AC11	B-AC12	B-AC13	B-AC14	B-AC15	B-AC16	B-DC1	B-DC2	B-DC3	B-DC4	B-DC5	B-DC6	B-DC7	B-DC8	B-DC9	B-DC10	B-DC11	B-DC12	B-DC13	B-DC14	B-DC15	B-DC16	B-Ph1	B-Ph2	B-Ph3	B-Ph4	B-Ph5	B-Ph6	B-Ph7	B-Ph8	B-Ph9	B-Ph10	B-Ph11	B-Ph12	B-Ph13	B-Ph14	B-Ph15	B-Ph16	aux-1	digaux	

838.703	1	1	0	768	0.29293	0.15864	0.10218	0.08384	0.10595	0.23767	0.12419	0.21155	0.1748	0.079753	0.32264	0.12523	0.06597	0.17651	0.22121	0.16735	-3.7188	-4.4271	-4.7667	-4.0042	-4.6521	-4.5021	-4.2271	-5.1583	-4.1417	-4.2375	-5.0437	-4.2188	-4.6521	-4.6188	-4.0458	-5.1271	-74.735	-5.715	199.677	32.642	-47.668	162.431	171.908	197.867	-106.067	-34.652	-138.985	137.178	166.701	186.380	-104.399	124.999	0.00044541	0.0010483	0.00011137	1351.7	6.2605e-06	2.6307e-06	1342.6	367.38	2.3569e-06	3.6264e-06	418.18	139.32	120.81	41.823	2.7496e-06	51.41	0.00046005	0.0004609	0.00012993	1362.2	5.1021e-06	5.0412e-06	1360.8	371.2	5.0585e-06	5.1234e-06	423.48	142.02	122.94	42.614	5.1523e-06	52.682	185.511	-85.443	-68.568	-138.047	-13.427	14.382	-138.128	-133.463	-44.937	10.173	-133.660	-129.907	-129.492	-124.166	-26.132	-124.953	-8191	255	
838.799	1	1	0	0	0.07184	0.13663	0.26252	0.10998	0.094239	0.18607	0.23583	0.22735	0.17371	0.11712	0.38726	0.15617	0.17152	0.038934	0.10826	0.17654	-3.9354	-4.2417	-4.8479	-4.2396	-4.5479	-4.6042	-4.0979	-4.8562	-4.1375	-4.1833	-4.9771	-4.0708	-4.5833	-4.8104	-3.8708	-4.8187	102.915	143.970	-51.887	-132.114	202.896	16.302	-144.401	177.595	30.133	-121.047	112.663	-59.015	206.980	62.223	69.162	-85.368	0.00046339	0.00060099	0.00019377	1351.4	3.4152e-06	8.9868e-06	1351.7	365.02	4.8206e-06	6.0791e-06	418.74	139.79	120.54	41.679	5.3762e-06	51.404	0.00046304	0.00046653	0.00012814	1364.2	5.1591e-06	5.047e-06	1364.3	370.72	5.1173e-06	5.1394e-06	423.03	141.82	123.23	42.576	5.1812e-06	52.556	180.677	-114.589	-37.270	-137.913	29.783	60.709	-138.079	-133.522	-31.388	-25.269	-134.063	-129.955	-129.507	-124.197	-6.427	-124.789	-8191	255	
838.895	1	1	0	0	0.30605	0.13637	0.23502	0.24844	0.018066	0.13775	0.34983	0.21345	0.2166	0.074238	0.14778	0.015345	0.14278	0.24992	0.10235	0.11746	-4.0458	-3.9708	-4.9521	-4.3146	-4.3729	-4.6396	-4.1604	-4.7812	-4.4167	-4.2229	-5.0146	-4.2875	-4.5271	-4.9083	-3.9729	-4.8771	-21.791	25.743	-116.626	198.364	67.552	120.312	141.397	52.578	140.514	123.053	122.630	201.919	37.727	168.487	186.168	166.197	0.00046279	0.00069485	9.6839e-05	1355.9	4.4781e-06	6.4521e-06	1341.7	366.44	5.665e-06	4.998e-06	418.35	138.9	121.19	41.846	3.7196e-06	51.376	0.00046897	0.00047007	0.00012823	1361.4	5.1243e-06	5.0898e-06	1359.8	370.86	5.1314e-06	5.1121e-06	423.31	141.81	123.22	42.614	5.2055e-06	52.667	185.332	-78.899	-28.225	-137.992	2.279	-26.035	-138.165	-133.320	-30.517	-16.204	-133.903	-130.009	-129.536	-124.077	-14.748	-125.030	-8191	255	
838.991	1	1	0	0	0.1096	0.17235	0.093147	0.048351	0.093272	0.035677	0.26814	0.19776	0.24122	0.12728	0.30013	0.14503	0.094934	0.16336	0.12719	0.33678	-4.1208	-3.9292	-4.9729	-4.3438	-4.1729	-4.7833	-4.1562	-4.8604	-4.6312	-4.1271	-4.9646	-4.4583	-4.3688	-5.0479	-3.95	-4.8104	-52.863	32.816	105.733	49.720	166.851	-90.098	129.261	-80.203	-106.706	-104.525	153.822	108.523	185.599	200.585	161.196	119.741	0.00049792	0.0010719	0.00019508	1350.8	5.1341e-06	8.0766e-06	1341.2	365.67	2.963e-06	9.5674e-06	419.3	138.98	120.78	41.775	3.3646e-06	51.459	0.00046688	0.00046762	0.00012804	1362	5.0685e-06	5.0548e-06	1359.7	370.42	5.1302e-06	5.172e-06	423.46	141.73	123.32	42.582	5.1171e-06	52.627	181.617	-70.238	-49.909	-137.944	-20.714	11.359	-138.100	-133.545	-10.262	18.159	-133.705	-130.242	-129.384	-123.982	-62.888	-125.019	-8191	255	
839.086	1	1	0	0	0.12694	0.15863	0.17751	0.18251	0.22585	0.16565	0.23445	0.084803	0.1942	0.10574	0.22817	0.16714	0.028555	0.13049	0.075842	0.057862	-4.3667	-3.9125	-4.8771	-4.2562	-4.2708	-4.8854	-4.3021	-4.7875	-4.625	-4.05	-5.125	-4.4354	-4.2083	-5.0729	-4.0687	-4.7417	-111.560	196.377	43.216	-106.410	185.314	-126.679	172.006	-63.142	146.177	32.679	-131.395	170.799	21.496	109.638	117.050	169.016	0.00053996	0.00042616	0.00016795	1352.1	6.6605e-06	6.2422e-06	1345.7	367.19	1.797e-06	6.2503e-06	418.38	139.99	120.89	41.648	1.7366e-06	51.509	0.00046923	0.00046516	0.00012951	1362.5	5.2001e-06	5.0807e-06	1360.2	370.73	5.131e-06	5.1313e-06	423.56	142.16	123.14	42.54	5.0627e-06	52.719	176.646	-105.042	-78.589	-137.812	3.044	14.684	-138.144	-133.413	-33.555	-15.192	-134.118	-129.926	-129.513	-124.237	-7.489	-124.891	-8191	255	
839.182	1	1	0	0	0.34515	0.19754	0.1435	0.28778	0.35072	0.051617	0.209	0.14068	0.14715	0.06314	0.14334	0.26722	0.18304	0.28774	0.15677	0.062496	-4.525	-4.0708	-4.7396	-4.5333	-4.1687	-5.0417	-4.3125	-4.5167	-4.8083	-4.0646	-4.8021	-4.5979	-4.2333	-5.0979	-4.1333	-4.3125	-109.165	153.635	-89.344	207.443	-30.818	131.386	145.042	104.944	-129.384	-97.194	203.794	-116.653	159.562	199.954	150.535	39.551	0.00050937	0.00044325	0.00015232	1349	3.1963e-06	5.3578e-06	1341.4	364.36	4.56e-06	2.6027e-06	417.61	139.45	120.36	41.78	5.7101e-06	51.452	0.0004674	0.00046989	0.00012737	1361.9	5.0748e-06	5.0257e-06	1358.9	370.27	4.9816e-06	5.1394e-06	423.28	141.93	122.84	42.608	5.0124e-06	52.626	174.176	-93.868	-32.983	-137.779	47.542	42.603	-138.216	-133.572	-70.861	-51.174	-134.028	-130.069	-129.445	-124.285	-8.640	-124.963	-8191	255	
839.302	1	1	0	0	0.10912	0.22562	0.18031	0.17577	0.17248	0.027747	0.061627	0.22027	0.11214	0.28396	0.076752	0.17813	0.094451	0.20034	0.22037	0.12594	-4.6771	-4.0104	-4.6833	-4.7396	-4.025	-5.0687	-4.5021	-4.4458	-4.8562	-4.0083	-4.7542	-4.7583	-4.0792	-4.9625	-4.3042	-4.3187	123.742	53.259	134.392	206.168	37.449	195.323	108.184	164.873	-35.991	33.137	173.007	-124.516	-75.898	198.980	68.310	193.628	0.0004956	0.00016887	0.00016434	1350.1	1.6189e-06	4.6532e-06	1338.9	365.4	3.7883e-06	1.4664e-06	416.33	138.65	120.32	41.718	3.9821e-06	51.486	0.00045809	0.00046088	0.00012634	1361.5	5.1295e-06	4.9062e-06	1359.2	370.39	5.0788e-06	5.0701e-06	423.19	141.64	123.07	42.57	5.0242e-06	52.61	177.152	-123.096	-45.244	-137.637	-22.876	12.443	-138.239	-133.534	-35.113	44.809	-134.045	-129.916	-129.897	-124.546	-51.117	-125.181	-8191	255	
839.399	1	1	0	0	0.043927	0.055332	0.16203	0.19113	0.11284	0.16875	0.34825	0.18887	0.095763	0.023961	0.11719	0.17809	0.027945	0.24721	0.080419	0.28792	-4.625	-4.0396	-4.5875	-4.8562	-4.0146	-4.8854	-4.6521	-4.2562	-4.9667	-4.1417	-4.7521	-4.9104	-4.0104	-5.0292	-4.4104	-4.1021	194.471	-102.205	-114.271	116.220	35.732	18.542	119.569	118.399	-96.989	161.744	193.085	70.086	157.822	-36.255	108.074	54.885	0.00046976	0.00057197	5.177e-05	1349.3	6.1902e-06	2.6605e-06	1342.5	365.68	2.8489e-06	6.1742e-06	418.72	139.23	120.87	41.72	3.937e-06	51.214	0.00046713	0.0004571	0.0001283	1359.8	5.0522e-06	4.9901e-06	1360.6	370.1	5.1109e-06	4.9514e-06	422.92	141.8	122.95	42.519	5.0969e-06	52.582	172.977	-95.744	-89.286	-138.126	-29.550	-49.513	-138.206	-133.595	-92.216	0.966	-133.845	-130.025	-129.341	-124.410	-11.740	-125.045	-8191	255	
839.495	1	1	0	0	0.052389	0.05133	0.1882	0.1532	0.1924	0.063622	0.13918	0.14313	0.12315	0.17696	0.39539	0.036334	0.24257	0.19987	0.15296	0.3105	-4.5583	-4.1792	-4.2833	-5.0979	-3.9354	-4.6896	-4.7438	-4.1354	-4.9979	-4.1542	-4.4896	-4.9688	-4.0396	-4.675	-4.5729	-4.3688	-85.790	118.872	-96.056	-60.552	-72.068	162.938	161.584	104.160	100.970	-1.869	160.712	41.695	163.376	-2.969	25.377	86.534	0.00047987	0.00063667	0.00010358	1353.6	3.6377e-06	3.6652e-06	1343.7	365.18	1.9235e-06	3.8975e-06	418.28	139.33	120.79	41.696	2.729e-06	51.609	0.00046416	0.00046234	0.00012824	1361.5	5.0801e-06	5.0183e-06	1359.6	370.28	5.1103e-06	4.9689e-06	423.54	141.82	123.25	42.53	5.0383e-06	52.618	179.302	-56.539	-107.755	-137.914	-40.755	27.273	-138.057	-133.509	-44.668	-25.676	-133.868	-130.071	-129.383	-124.274	-61.660	-125.052	-8191	255	
839.591	1	1	0	0	0.24014	0.056155	0.29018	0.26933	0.30295	0.11911	0.10761	0.20079	0.15361	0.23804	0.22804	0.27366	0.09373	0.20318	0.21071	0.099567	-4.625	-4.025	-4.2812	-4.9083	-3.8375	-4.6562	-4.8708	-4.0813	-4.9375	-4.2875	-4.3896	-4.9563	-4.075	-4.5896	-4.7042	-4.1062	-115.412	-6.145	162.273	-112.424	24.401	132.696	72.533	130.776	123.913	8.582	104.271	176.697	159.060	102.440	199.671	161.388	0.00051571	0.00055487	8.8459e-05	1346.4	4.798e-06	5.1797e-06	1338.9	364.55	4.4038e-06	2.6191e-06	416.67	139.11	120.74	41.779	7.3019e-06	51.538	0.00045802	0.00045377	0.00012727	1359.5	5.0108e-06	4.9259e-06	1357.9	369.55	4.9827e-06	4.9751e-06	423.2	141.64	122.83	42.534	4.9149e-06	52.609	180.990	-83.389	-18.155	-137.940	-27.527	-25.262	-138.060	-133.575	-30.207	43.163	-133.778	-129.666	-129.511	-124.190	-36.404	-125.275	-8191	255	
839.687	1	1	0	0	0.076314	0.17136	0.14828	0.072323	0.16307	0.074017	0.14408	0.091399	0.085237	0.17035	0.065039	0.19112	0.069124	0.091022	0.11137	0.032541	-4.6604	-4.2833	-4.1833	-5.1188	-3.9833	-4.5104	-4.85	-4.2625	-4.7229	-4.4229	-4.1896	-4.975	-4.1958	-4.6271	-4.8354	-4.0458	-31.752	166.843	149.163	-110.634	148.447	-138.946	181.183	-38.499	-120.336	160.939	102.754	-93.712	-73.773	-145.433	44.419	33.852	0.00043424	0.00035184	0.00011919	1349.1	4.6822e-06	3.9038e-06	1349.4	365.44	4.3758e-06	4.8696e-06	417.81	139.83	120.94	41.594	1.6407e-06	51.259	0.00045102	0.00044723	0.00012711	1362	4.9418e-06	4.9891e-06	1359.5	370.21	5.0208e-06	4.9993e-06	422.88	141.95	123.19	42.542	5.1379e-06	52.619	181.893	-28.216	-35.071	-137.629	-75.379	19.793	-138.155	-133.338	-2.767	14.065	-133.695	-129.963	-129.580	-124.334	34.928	-125.080	-8191	255	
839.783	1	1	0	0	0.07554	0.09662	0.12744	0.079169	0.31652	0.1001	0.23952	0.16011	0.2701	0.17604	0.16152	0.13263	0.25125	0.13088	0.1147	0.10394	-4.4208	-4.5813	-3.9083	-5.025	-4.2625	-4.3542	-5.0771	-4.0896	-4.5917	-4.6188	-4.2063	-4.975	-4.3646	-4.3542	-4.8313	-4.1667	20.644	-135.756	-131.188	-66.710	-105.202	-65.757	177.736	142.028	-151.359	170.252	138.108	130.623	140.134	173.918	166.005	-88.841	0.00047813	0.00035951	0.00013593	1352.6	4.8451e-06	7.0785e-06	1344.2	366.95	4.3732e-06	4.099e-06	417.73	138.98	121.09	41.741	3.8011e-06	51.395	0.00047687	0.0004641	0.00013192	1362.9	5.2074e-06	5.1868e-06	1360.4	371.13	5.2412e-06	5.2668e-06	423.86	141.95	123.28	42.578	5.3251e-06	52.664	176.526	-70.691	-88.206	-137.784	-2.734	-21.683	-138.004	-133.469	-57.954	29.565	-133.958	-130.036	-129.282	-124.372	48.289	-125.092	-8191	255	
839.904	1	1	0	0	0.055901	0.13449	0.12815	0.18849	0.12278	0.22086	0.1144	0.21254	0.25501	0.064371	0.065767	0.11111	0.085487	0.21318	0.052743	0.11788	-4.2583	-4.5042	-3.9	-4.8542	-4.3167	-4.3479	-4.9	-3.9396	-4.4938	-4.825	-4.275	-4.7562	-4.4667	-4.2271	-4.8542	-4.1458	-22.328	-45.979	185.521	-140.809	3.907	108.839	127.430	81.797	203.717	-60.375	153.576	86.774	-135.532	-118.286	136.434	-103.282	0.00049464	0.00067066	0.00013415	1350.8	6.5916e-06	6.1118e-06	1345	365.68	3.5249e-06	7.5243e-06	417.44	139.26	121.3	41.685	5.3597e-06	51.496	0.00048458	0.00047766	0.00013391	1363.3	5.2812e-06	5.3076e-06	1360.8	370.49	5.3181e-06	5.2046e-06	423.53	141.93	123.36	42.581	5.1769e-06	52.698	185.514	-61.257	-33.222	-137.617	-61.786	-2.547	-138.240	-133.551	-100.650	-10.698	-133.956	-130.089	-129.439	-124.265	5.397	-124.868	-8191	255	
839.998	1	1	0	0	0.20217	0.24	0.13378	0.036571	0.13529	0.1959	0.32146	0.12024	0.14085	0.069707	0.092925	0.27412	0.073067	0.1231	0.17951	0.1228	-4.2562	-4.7292	-3.975	-5.0125	-4.5583	-4.1042	-5.0458	-4.2979	-4.3333	-4.7146	-3.9708	-4.7438	-4.4667	-4.1771	-4.8417	-4.4062	-14.402	42.827	43.961	-149.559	-78.324	21.180	117.354	176.992	93.411	118.484	95.034	147.764	163.630	81.869	157.582	-149.045	0.00044718	0.00052908	0.00020869	1353.9	1.6152e-06	6.062e-06	1346.9	366.18	2.49e-06	6.3459e-06	416.42	138.8	120.74	41.58	3.812e-06	51.418	0.00047536	0.00046546	0.00013066	1363.5	5.1054e-06	5.1283e-06	1361.6	370.63	5.2065e-06	5.0922e-06	422.93	141.69	123.13	42.495	5.037e-06	52.623	183.777	-50.192	-46.867	-137.832	-125.688	-2.072	-138.135	-133.469	-28.993	-32.446	-133.859	-130.124	-129.154	-124.573	-26.983	-125.227	-8191	255	
840.094	1	1	0	0	0.30619	0.029568	0.1028	0.059503	0.29526	0.099796	0.21499	0.13246	0.3235	0.19775	0.093253	0.22035	0.10336	0.13049	0.060128	0.091631	-4.0813	-4.8354	-3.9646	-4.8292	-4.6375	-3.9792	-4.8792	-4.2688	-4.4792	-4.7979	-4.0938	-4.7021	-4.8125	-4.1125	-4.725	-4.3229	-70.416	54.031	-137.819	168.319	-93.143	76.113	162.307	32.680	-44.280	43.113	160.617	159.413	179.821	187.004	-134.935	-137.089	0.00045333	0.00055118	0.00013341	1348	1.9407e-06	9.5228e-07	1341.4	365.63	5.98e-06	5.7209e-06	417.26	139.28	120.69	41.643	5.1736e-06	51.473	0.00047041	0.00045581	0.00012631	1359.5	4.968e-06	5.0039e-06	1359.7	370.33	5.1395e-06	5.0502e-06	423.15	141.76	123.1	42.449	5.0444e-06	52.685	179.548	-45.371	-72.001	-137.849	-1.602	-118.932	-137.942	-133.555	-45.974	3.828	-133.865	-129.883	-129.634	-124.482	-8.343	-124.840	-8191	255	
840.190	1	1	0	0	0.30275	0.094054	0.10067	0.069664	0.28273	0.095021	0.22376	0.28158	0.20701	0.18903	0.048664	0.20441	0.30274	0.020623	0.080158	0.16266	-4.0188	-4.9146	-4.125	-4.6146	-4.6687	-3.9396	-4.9146	-4.6583	-4.1083	-4.9167	-4.2854	-4.7312	-5.0604	-4.2604	-4.6833	-4.575	-64.727	77.548	117.618	-133.869	-129.429	135.354	-145.458	-141.223	-59.764	-42.587	122.675	163.452	-91.995	-111.935	194.419	159.643	0.00046574	0.0007184	0.00010751	1347.5	1.671e-06	2.8016e-06	1336.7	364.62	6.7457e-06	6.9077e-06	418.87	138.39	120.49	41.707	2.5237e-06	51.329	0.00046883	0.00045128	0.00012613	1360.9	4.9522e-06	5.0553e-06	1358.1	369.8	5.0358e-06	4.9917e-06	422.66	141.52	123.03	42.491	5.0299e-06	52.575	180.627	-72.106	-62.738	-137.823	-30.267	-38.509	-138.014	-133.518	-31.620	10.758	-133.726	-129.857	-129.522	-124.447	-60.886	-124.963	-8191	255	
840.262	1	1	0	0	0.21149	0.14766	0.12192	0.21486	0.28409	0.026619	0.24335	0.17506	0.070127	0.061746	0.19833	0.17177	0.031663	0.031286	0.022302	0.10455	-3.9146	-4.8167	-4.1833	-4.4667	-4.9187	-4.0563	-4.8479	-4.7292	-4.2083	-4.9187	-4.1729	-4.4021	-4.8354	-4.0563	-4.8313	-4.7458	71.939	10.905	-123.775	204.144	80.542	151.319	156.250	129.999	-41.205	139.020	161.542	208.183	136.335	38.079	122.360	202.909	0.0004887	0.00052942	0.00017472	1349.2	2.2975e-06	3.5894e-06	1344.7	365.47	2.6236e-06	2.495e-06	418.41	139.31	120.73	41.907	4.0616e-06	51.446	0.00046258	0.00044869	0.00012599	1358	4.9736e-06	4.8963e-06	1358.8	369.78	5.0026e-06	4.9171e-06	423.42	141.79	122.86	42.54	4.9725e-06	52.52	182.326	-59.350	-35.955	-137.734	-42.078	-40.045	-138.382	-133.474	-25.724	35.019	-133.779	-130.132	-129.486	-124.415	6.352	-125.105	-8191	255	
840.383	1	1	0	0	0.055957	0.13178	0.14518	0.23793	0.072543	0.016067	0.12593	0.1154	0.11404	0.18383	0.32028	0.32272	0.069669	0.13014	0.14489	0.38288	-3.6188	-4.9479	-4.2562	-4.4021	-4.8083	-4.0229	-4.7104	-4.7167	-3.8625	-5.0104	-4.3458	-4.4479	-5.0437	-4.3063	-4.5021	-4.7937	-131.038	207.742	67.624	181.662	136.331	99.225	140.713	190.160	30.225	123.896	170.158	-107.079	-142.964	170.472	-16.525	114.066	0.00047868	0.00087805	0.00011862	1350.1	3.79e-06	4.7796e-06	1336.8	365.15	3.9393e-06	3.8636e-06	418.71	139.24	120.7	41.806	7.9563e-06	51.134	0.00045972	0.00045366	0.00012514	1357.5	4.9024e-06	4.9707e-06	1357.1	369.83	5.0872e-06	4.9352e-06	422.61	141.42	122.76	42.525	5.0226e-06	52.416	183.897	-47.295	-31.914	-137.843	33.873	-20.641	-138.087	-133.499	-51.108	34.525	-133.975	-129.960	-129.331	-124.468	-29.367	-124.924	-8191	255	
840.479	1	1	0	0	0.19696	0.069313	0.087793	0.28218	0.13026	0.11256	0.068177	0.15817	0.18743	0.37879	0.058969	0.0756	0.20433	0.14689	0.25126	0.16105	-3.6979	-4.5958	-4.4042	-3.9979	-4.9187	-4.0417	-4.8187	-4.875	-3.8312	-4.6813	-4.5146	-4.0938	-5.0271	-4.1271	-4.2562	-4.8417	138.633	43.686	-67.346	-149.198	6.481	59.026	169.815	198.215	-79.290	175.731	-21.146	-139.011	189.290	152.343	5.744	-126.631	0.00044956	0.00037493	8.364e-05	1355	4.4315e-06	8.9932e-06	1336.2	364.15	6.82e-06	5.1634e-06	413.89	138.44	120.56	41.612	4.7832e-06	51.256	0.00046394	0.00045267	0.00012433	1359.5	5.0066e-06	5.0152e-06	1354.1	369.46	5.0153e-06	4.9435e-06	421.4	141.38	122.99	42.42	5.1079e-06	52.516	182.440	-88.248	-71.884	-137.861	13.824	-25.299	-138.133	-133.492	-25.743	26.710	-133.761	-129.978	-129.217	-124.172	-48.238	-124.978	-8191	255	
840.575	1	1	0	0	0.11828	0.12321	0.18203	0.15637	0.14312	0.1966	0.25552	0.2375	0.20434	0.12701	0.17644	0.075284	0.091464	0.093075	0.062346	0.18789	-3.6979	-4.6854	-4.6146	-4.0625	-4.7729	-4.2875	-4.4292	-4.8542	-3.8917	-4.5542	-4.6354	-4.1062	-4.9854	-4.1646	-4.2833	-4.9167	59.413	180.118	-20.673	-21.379	27.973	-52.294	162.010	129.941	182.658	-49.774	156.010	-12.191	169.396	-108.650	51.419	198.550	0.00045709	0.00044926	0.00014421	1345.2	5.061e-06	4.6142e-06	1339.1	365.69	3.2576e-06	2.3027e-06	415.46	139.3	120.46	41.483	7.7001e-06	51.398	0.00046045	0.00045294	0.00012689	1357.3	4.9916e-06	4.9311e-06	1355.9	370.26	5.0345e-06	4.9436e-06	421.88	141.76	122.86	42.403	5.083e-06	52.499	177.068	-73.466	-18.856	-138.046	-10.101	-14.576	-138.099	-133.385	-83.444	-77.991	-133.665	-130.191	-129.478	-124.195	-20.230	-124.825	-8191	255	
840.696	1	1	0	0	0.10475	0.066032	0.11468	0.16287	0.075085	0.011972	0.091339	0.13095	0.026174	0.19896	0.18361	0.21699	0.18152	0.066186	0.039706	0.083745	-3.6979	-4.5958	-4.6646	-4.0833	-4.8771	-4.3667	-4.2354	-5.225	-3.8979	-4.5437	-4.8438	-4.2792	-4.8688	-4.5604	-4.2167	-5.1792	139.281	64.866	-82.205	204.877	196.986	-151.363	93.268	61.302	-46.845	-67.020	-93.780	142.785	3.329	-117.199	162.632	-70.146	0.00042273	0.00062767	0.00016525	1345.9	5.3466e-06	1.3427e-06	1341.1	364.51	6.2067e-06	4.4695e-06	416.29	138.74	120.52	41.594	5.1779e-06	51.259	0.00046623	0.00045953	0.00012653	1357	4.9999e-06	5.0024e-06	1355.5	369.51	5.0361e-06	5.0291e-06	422.07	141.37	122.86	42.413	5.1269e-06	52.547	183.025	-26.841	-51.469	-137.690	-16.522	76.845	-138.194	-133.482	-50.000	11.187	-133.932	-129.996	-129.496	-124.386	10.238	-125.021	-8191	255	
840.790	1	1	0	0	0.086268	0.11931	0.07132	0.12064	0.46199	0.11809	0.12231	0.12897	0.19086	0.19925	0.25534	0.028257	0.21692	0.22335	0.19626	0.020613	-3.675	-4.3229	-4.6854	-4.2125	-4.9646	-4.4	-4.4938	-5.1312	-4.1792	-4.4667	-4.7167	-4.0333	-4.8938	-4.5917	-4.0979	-5.0521	6.554	177.729	10.467	151.245	87.123	58.507	151.071	199.978	-54.862	151.724	-123.732	-26.117	-125.733	-146.633	-55.530	80.560	0.00045168	0.00025381	0.00012994	1345.9	2.6898e-06	2.875e-06	1343.2	364.4	2.1631e-06	3.5857e-06	416.36	138.7	120.74	41.524	3.48e-06	51.292	0.00046222	0.00045848	0.0001276	1358.6	5.0819e-06	5.0013e-06	1357	369.51	5.0341e-06	5.12e-06	422.91	141.47	122.84	42.469	5.0835e-06	52.572	181.524	-50.070	-96.530	-137.688	39.895	-24.114	-138.268	-133.493	-22.251	10.440	-133.591	-130.124	-129.419	-124.235	13.581	-124.984	-8191	255	
840.864	1	1	0	0	0.046219	0.27817	0.071548	0.19059	0.14159	0.17066	0.20119	0.10742	0.065539	0.24666	0.20159	0.077216	0.172	0.16129	0.081841	0.070446	-3.8917	-4.2	-4.8375	-4.0458	-4.6333	-4.5458	-4.2625	-4.9437	-4.2083	-4.2646	-5.0896	-4.0854	-4.7625	-4.7021	-4.1583	-5.025	152.137	11.921	180.213	148.423	-89.725	138.153	179.227	149.232	-12.635	2.102	144.485	44.233	70.487	143.367	-132.934	40.375	0.00052456	0.00078228	0.00022757	1347.8	2.4938e-06	4.2442e-06	1339.7	364.88	1.1185e-06	5.7343e-06	417.85	139.13	120.54	41.731	3.1958e-06	51.335	0.00046023	0.00045962	0.00012645	1357.6	4.968e-06	4.9801e-06	1356.6	369.98	5.0702e-06	5.0525e-06	423.03	141.67	122.85	42.455	5.1359e-06	52.524	184.293	-82.235	-62.676	-137.976	28.296	-65.594	-138.222	-133.464	-149.867	-0.853	-133.791	-130.148	-129.368	-124.052	-5.325	-124.855	-8191	255	
840.984	1	1	0	0	0.20741	0.27489	0.12153	0.38647	0.076504	0.049561	0.28399	0.11571	0.20892	0.134	0.074863	0.28378	0.13	0.32895	0.080598	0.071171	-4.1583	-4.3042	-5	-4.325	-4.4208	-4.6646	-4.1271	-4.8562	-4.3833	-3.9813	-5.0792	-4.2542	-4.5938	-4.9375	-4.0062	-4.8979	111.968	-43.358	141.013	182.488	127.177	-145.390	194.996	115.608	-116.203	184.869	-2.706	169.865	-77.123	-141.179	0.404	184.284	0.0004576	0.00066789	0.00018669	1347.8	4.1249e-06	5.1389e-06	1342.7	366.17	4.5118e-06	5.8337e-06	416.62	139.1	120.63	41.553	2.7538e-06	51.307	0.00046309	0.00046657	0.0001268	1361.2	5.0397e-06	5.0035e-06	1358.2	370.33	5.1027e-06	5.1734e-06	422.85	141.69	122.88	42.472	5.1925e-06	52.556	185.416	-38.193	-21.099	-137.929	-52.481	-1.863	-137.926	-133.435	-53.724	-7.721	-133.639	-129.798	-129.359	-124.265	-9.648	-124.867	-8191	255	
841.079	1	1	0	0	0.079774	0.16372	0.071002	0.1132	0.047951	0.19163	0.21316	0.19616	0.12703	0.1288	0.24877	0.12765	0.13478	0.12653	0.22057	0.16564	-3.9688	-4.0875	-4.975	-4.2167	-4.3458	-4.8604	-4.1708	-4.8438	-4.5646	-4.2438	-5.0042	-4.3938	-4.3833	-4.9792	-3.9896	-4.7604	31.765	-76.953	-64.266	74.512	52.917	-18.618	-136.918	79.442	56.947	196.921	-133.421	190.495	-84.478	-44.577	117.302	72.339	0.00049873	0.00058617	7.4095e-05	1349.1	7.0341e-06	3.4032e-06	1341.5	366.34	3.2935e-06	6.643e-06	418.03	139.32	120.54	41.842	4.0561e-06	51.356	0.00047104	0.00047573	0.00013079	1360.4	5.1384e-06	5.0416e-06	1360.2	370.44	5.1782e-06	5.1922e-06	422.7	141.48	122.86	42.505	5.2282e-06	52.651	183.026	-70.343	-32.916	-137.905	-14.426	24.454	-138.069	-133.134	-17.208	12.662	-133.759	-129.809	-129.531	-124.133	6.446	-124.796	-8191	255	
841.175	1	1	0	0	0.11709	0.073655	0.1401	0.15695	0.30185	0.13705	0.23206	0.17834	0.018664	0.011624	0.10617	0.20318	0.28942	0.13039	0.065392	0.032162	-4.3313	-4.1188	-5.0854	-4.3833	-4.3979	-5.0188	-4.2958	-4.6687	-4.6271	-4.0854	-4.9021	-4.3521	-4.175	-4.9542	-4.1188	-4.65	-85.466	78.761	183.818	119.965	-9.659	-4.388	138.335	142.596	113.474	141.780	97.251	173.628	179.791	203.227	81.877	-134.227	0.00048065	0.00089372	0.00010446	1352.4	4.3145e-06	2.3983e-06	1343.1	366.69	3.3259e-06	1.3999e-06	417.33	139.22	120.61	41.803	8.4376e-06	51.404	0.00047079	0.00047095	0.00012964	1361.9	5.2513e-06	5.0587e-06	1358.4	370.53	5.2038e-06	5.2578e-06	422.67	141.63	122.93	42.5	5.198e-06	52.636	178.728	-56.296	-17.831	-137.742	25.784	36.678	-138.211	-133.417	-34.803	39.786	-133.584	-129.853	-129.271	-124.115	11.510	-124.919	-8191	255	
841.295	1	1	0	0	0.19128	0.024115	0.18263	0.18663	0.07549	0.22427	0.17444	0.051819	0.12848	0.17832	0.1093	0.27031	0.11952	0.067522	0.11566	0.16543	-4.3	-3.975	-4.8583	-4.4187	-4.1271	-4.8792	-4.2333	-4.4604	-4.6833	-3.9938	-4.8708	-4.2	-4.1562	-5.0875	-4.1312	-4.4229	206.570	-144.647	-108.727	195.896	-55.442	-150.781	182.239	-134.577	58.992	-63.909	-133.174	-147.495	146.999	-60.146	-47.349	178.271	0.00047799	0.00062921	0.00010901	1349.8	5.6345e-06	1.9146e-06	1340.8	363.35	1.2051e-06	4.4659e-06	416.65	138.22	120.93	41.714	2.0399e-06	51.205	0.00047732	0.00047006	0.00013127	1360.2	5.2346e-06	5.1404e-06	1360.4	369.58	5.1866e-06	5.2065e-06	422.64	141.26	123.02	42.537	5.2551e-06	52.617	183.158	-39.637	-58.212	-137.706	7.163	38.004	-138.068	-133.431	-21.422	1.453	-133.941	-129.864	-129.377	-123.966	-49.455	-124.875	-8191	255	
841.391	1	1	0	0	0.3114	0.14138	0.095001	0.23016	0.079275	0.13181	0.23446	0.099568	0.15729	0.19687	0.081819	0.082374	0.27757	0.20848	0.1178	0.24694	-4.6146	-3.95	-4.7104	-4.5458	-4.0604	-5.075	-4.2438	-4.3438	-4.8354	-4.0146	-4.7521	-4.6833	-4.0396	-4.9125	-4.3104	-4.4812	67.140	-139.977	65.635	182.373	83.741	-117.881	145.080	-106.386	157.743	-8.298	46.990	70.714	-140.342	163.091	167.177	190.852	0.00042025	0.00033698	0.00025358	1343.6	6.6884e-06	5.1063e-06	1342.5	364.97	3.1383e-06	4.5613e-06	417.21	138.64	121.14	41.569	2.957e-06	51.304	0.00047508	0.00047344	0.00013232	1358.7	5.2343e-06	5.1687e-06	1360.4	370.53	5.2277e-06	5.2209e-06	422.52	141.45	122.99	42.474	5.1617e-06	52.569	180.920	-39.387	-48.589	-137.715	20.059	-20.020	-137.998	-133.512	-41.444	-40.743	-133.729	-129.887	-129.510	-124.186	7.717	-124.959	-8191	255	
841.488	1	1	0	0	0.17307	0.23651	0.10552	0.10471	0.22756	0.17062	0.43182	0.32926	0.16972	0.32986	0.086741	0.090823	0.1217	0.19705	0.27153	0.070424	-4.5229	-4.0042	-4.4187	-4.6958	-4	-4.9333	-4.4604	-4.2854	-4.775	-3.9479	-4.5687	-4.8083	-4.0125	-4.8688	-4.3063	-4.2479	-114.060	-25.710	155.735	198.189	-26.837	30.279	107.421	93.462	140.754	34.963	-144.962	207.071	83.438	203.904	-42.401	200.755	0.00049133	0.00044834	0.00013325	1347.8	4.2337e-06	5.3119e-06	1341.8	366.37	4.9069e-06	4.7189e-06	417.07	139.24	120.84	41.628	3.4106e-06	51.551	0.00046975	0.00047588	0.00013156	1360.4	5.2079e-06	5.1124e-06	1359.3	370.03	5.1294e-06	5.1327e-06	423.02	141.86	123.05	42.432	5.2103e-06	52.647	186.799	-70.834	-70.584	-137.753	-18.455	-22.862	-138.039	-133.494	-24.645	11.864	-133.805	-129.815	-129.298	-124.042	-9.660	-125.030	-8191	255	
841.559	1	1	0	0	0.10347	0.13439	0.15868	0.20276	0.25725	0.055123	0.14924	0.29986	0.2095	0.15964	0.22909	0.03993	0.062087	0.26532	0.024722	0.12872	-4.6729	-4.0083	-4.4458	-4.7188	-4.0958	-4.5646	-4.5625	-4.15	-4.7875	-4.2812	-4.4042	-4.7542	-4.1208	-4.8812	-4.3854	-4.2125	3.256	-9.256	-108.556	172.482	160.911	-50.885	116.835	159.962	-138.991	87.592	83.374	-114.695	-106.316	-141.051	9.854	160.672	0.00045707	0.00070764	7.0077e-05	1345.5	4.5443e-06	3.7869e-06	1341.7	365.06	2.4282e-06	3.7563e-06	416.69	139.27	121.05	41.53	6.0747e-06	51.191	0.00047794	0.00046425	0.00012983	1359.1	5.1453e-06	5.1723e-06	1358.6	370.15	5.1298e-06	5.1174e-06	422.77	141.62	123.07	42.549	5.2322e-06	52.449	179.801	-27.465	-130.250	-137.520	-58.202	-39.490	-137.994	-133.377	-41.143	-1.219	-133.919	-129.915	-129.370	-124.369	-3.238	-124.879	-8191	255	
841.680	1	1	0	0	0.1372	0.1019	0.14802	0.15102	0.1716	0.12635	0.30665	0.23575	0.06559	0.13348	0.10921	0.10899	0.29182	0.078375	0.23428	0.22491	-4.4979	-4.1333	-4.3313	-4.8812	-4.0042	-4.7604	-4.8583	-4.1813	-4.8625	-4.3542	-4.4563	-5.0021	-4.0396	-4.7	-4.6188	-4.1979	117.809	-133.414	24.985	-145.582	-141.868	113.659	93.350	-150.372	151.155	75.181	-57.119	45.528	24.754	25.134	10.214	-101.872	0.0004804	0.00035445	0.00011878	1352.1	4.692e-06	6.2176e-06	1344.8	366.43	1.9265e-06	4.5587e-06	417.32	138.97	120.27	41.635	5.8177e-06	51.409	0.00047738	0.00047909	0.00013258	1362	5.2608e-06	5.2864e-06	1360.6	371.04	5.3475e-06	5.2466e-06	423.41	141.87	122.98	42.535	5.3953e-06	52.605	176.336	2.225	-41.404	-137.651	-15.898	20.766	-138.164	-133.373	-49.688	-1.287	-133.892	-129.936	-129.353	-124.196	-1.615	-125.158	-8191	255	
841.776	1	1	0	0	0.075992	0.14183	0.16545	0.18974	0.11703	0.18187	0.34736	0.017761	0.253	0.13611	0.21509	0.099225	0.094285	0.25028	0.012826	0.017143	-4.6583	-4.3396	-4.225	-4.9646	-4.1021	-4.6687	-4.9125	-4.1604	-4.9479	-4.3417	-4.2958	-5.0792	-4.1583	-4.5625	-4.6708	-3.9583	58.530	-13.587	-106.248	-105.456	131.909	-11.854	121.256	-58.274	-136.068	76.921	174.994	-66.119	-110.921	-137.713	-68.405	71.560	0.00046482	0.00056098	6.4624e-05	1353	3.6637e-06	3.5254e-06	1348.9	366.85	4.9041e-06	2.0863e-06	416.91	139.34	120.06	41.647	5.4387e-06	51.198	0.0004887	0.00049128	0.00013613	1365.1	5.4251e-06	5.3226e-06	1362.8	370.8	5.38e-06	5.3524e-06	422.86	142.12	122.9	42.586	5.3846e-06	52.591	172.282	-81.857	-47.471	-137.801	30.413	-11.337	-138.196	-133.479	-44.000	-15.577	-133.733	-129.924	-129.163	-124.233	-6.150	-125.047	-8191	255	
841.872	1	1	0	0	0.1166	0.43046	0.22016	0.09961	0.080861	0.065913	0.19864	0.10477	0.079195	0.18749	0.19386	0.044797	0.08523	0.30055	0.1379	0.13372	-4.3833	-4.425	-4.1958	-5.0958	-4.1229	-4.4313	-4.9917	-4.0771	-4.6958	-4.7625	-4.1604	-5	-4.2375	-4.4979	-4.8688	-4	87.888	-20.158	169.733	-97.244	-118.377	176.339	72.031	98.397	-147.741	10.139	73.540	116.322	-138.755	198.775	85.642	-146.504	0.00047419	0.00078945	0.00011491	1353.5	4.8263e-06	9.0699e-06	1342.3	365.72	5.9112e-06	4.7943e-06	418.58	139.24	121.31	41.634	3.9251e-06	51.354	0.00049019	0.00048727	0.00013732	1367.2	5.3469e-06	5.3532e-06	1361	370.25	5.3649e-06	5.2988e-06	423.99	142.23	123.23	42.605	5.4255e-06	52.591	175.783	-71.593	-51.885	-137.689	-40.037	36.708	-138.030	-133.492	-48.688	-25.696	-133.829	-129.833	-129.502	-124.239	39.750	-124.987	-8191	255	
841.967	1	1	0	0	0.22965	0.15278	0.14785	0.19482	0.31915	0.10126	0.17584	0.22047	0.10254	0.18194	0.11313	0.24885	0.12992	0.094056	0.14606	0.060862	-4.2063	-4.6208	-4.1875	-4.9833	-4.15	-4.3375	-4.9521	-4.0354	-4.6	-4.5563	-4.1562	-4.6771	-4.3667	-4.2104	-4.9167	-4.1687	164.171	58.009	-40.473	21.971	-10.120	-5.346	-141.854	5.244	-135.894	-51.411	191.841	114.848	172.957	-96.623	169.856	132.831	0.00053106	0.00051491	0.00012193	1355.1	4.5572e-06	7.5337e-06	1340.8	365.41	5.6146e-06	3.6662e-06	419.51	139.52	120.45	41.676	3.9e-06	51.443	0.00049382	0.00048618	0.00013626	1364.9	5.3753e-06	5.2832e-06	1359.1	370.7	5.4483e-06	5.2961e-06	423.58	141.98	122.94	42.593	5.3587e-06	52.649	182.109	-31.458	-21.251	-137.680	-40.857	-36.032	-138.006	-133.445	-37.298	5.907	-133.947	-129.953	-129.228	-124.343	50.505	-125.273	-8191	255	
842.087	1	1	0	0	0.20842	0.24375	0.10234	0.23951	0.069834	0.18357	0.39078	0.13515	0.058582	0.13116	0.29952	0.094973	0.18542	0.036907	0.066761	0.10843	-4.2188	-4.7812	-3.9146	-5.0563	-4.2771	-4.3146	-5.075	-4.2396	-4.2979	-4.8021	-4.0729	-4.9167	-4.6042	-4.1021	-4.9917	-4.4167	-58.790	21.614	169.205	178.988	160.504	-81.906	149.039	130.256	-143.039	-141.993	140.363	186.959	-85.954	-108.954	109.157	177.594	0.00045725	0.00032113	7.4555e-05	1354.1	2.9767e-06	7.1082e-06	1348.4	364.51	3.4872e-06	4.1161e-06	418.04	139.12	120.54	41.615	2.9058e-06	51.494	0.00049247	0.00048117	0.00013438	1364.4	5.2998e-06	5.3862e-06	1363.3	370.12	5.4883e-06	5.3361e-06	423.82	141.99	123.3	42.549	5.4319e-06	52.735	177.407	-70.037	-125.343	-137.885	14.317	26.749	-137.848	-133.438	-48.729	-16.187	-133.722	-130.027	-129.279	-124.330	-18.182	-124.809	-8191	255	
842.159	1	1	0	0	0.15594	0.22713	0.14599	0.19467	0.08023	0.092259	0.23937	0.10145	0.17667	0.069273	0.096104	0.19644	0.23558	0.12401	0.15722	0.26537	-4.0708	-4.5771	-4.0646	-4.7417	-4.5604	-4.1396	-5.1021	-4.3979	-4.2688	-4.8271	-4.1854	-4.625	-4.6646	-4.1229	-4.7583	-4.3708	-65.327	86.300	208.708	144.636	-148.758	68.371	186.410	193.273	189.503	-16.522	94.929	149.239	26.073	-120.593	178.681	89.182	0.00051429	0.00067603	6.7477e-05	1357.6	2.298e-06	3.6013e-06	1347.5	367.9	5.4548e-06	2.7675e-06	417.83	139.28	120.4	41.585	5.8575e-06	51.147	0.0004973	0.00049041	0.00013925	1365.1	5.3744e-06	5.4776e-06	1363.5	371.4	5.5151e-06	5.447e-06	423.07	141.89	123.23	42.616	5.5422e-06	52.662	181.589	-69.159	-41.682	-137.680	-43.560	23.777	-138.130	-133.240	-23.136	-87.229	-133.547	-130.078	-129.347	-124.159	14.850	-124.796	-8191	255	
842.255	1	1	0	0	0.15464	0.064473	0.081795	0.07177	0.20955	0.12079	0.30545	0.053652	0.3401	0.19941	0.096403	0.14897	0.17228	0.14102	0.24664	0.19813	-3.925	-4.8646	-4.0813	-4.6354	-4.6646	-4.1104	-5.1271	-4.4812	-4.1979	-4.9104	-4.2562	-4.7583	-4.7208	-3.9333	-4.9	-4.4458	-70.278	190.934	113.504	-113.584	189.567	135.220	188.209	-56.809	-85.378	149.874	-146.481	-124.940	77.065	202.060	-26.605	-87.976	0.0004937	0.00060097	5.5544e-05	1353.5	2.1919e-06	3.8879e-06	1349.7	365.66	1.9737e-06	7.5064e-06	417.92	138.54	120.75	41.766	3.5525e-06	51.77	0.00050611	0.00050074	0.00014195	1364.7	5.5206e-06	5.4186e-06	1365.6	371.12	5.4498e-06	5.4013e-06	423.26	141.89	123.23	42.55	5.3015e-06	52.77	184.582	-58.750	28.668	-137.782	2.082	-43.655	-138.059	-133.223	10.406	1.213	-133.669	-129.951	-129.226	-124.319	-20.594	-124.796	-8191	255	
842.376	1	1	0	0	0.14968	0.17041	0.28972	0.099001	0.089088	0.13999	0.064025	0.19366	0.093778	0.16126	0.17413	0.19109	0.12657	0.10372	0.013954	0.17788	-3.9333	-4.9104	-4.0417	-4.6167	-4.7208	-3.9979	-5.025	-4.5813	-3.9667	-4.9979	-4.1625	-4.5167	-5.0563	-4.1083	-4.65	-4.6542	-46.829	-88.750	91.949	117.948	110.706	127.958	-119.226	203.906	-147.666	-92.653	99.886	-144.535	153.497	51.518	-22.955	126.363	0.00046077	0.00062777	0.00012117	1352.7	5.4022e-06	4.3425e-06	1345.8	365.66	2.3467e-06	3.4976e-06	417.63	138.69	121.03	41.713	4.6747e-06	51.623	0.00048197	0.00047443	0.00013034	1365.6	5.078e-06	5.1405e-06	1362	370.28	5.0718e-06	4.9584e-06	423.03	141.69	123	42.551	5.0181e-06	52.656	177.750	-83.319	-62.331	-137.803	-3.578	-20.747	-138.419	-133.266	-47.626	-38.461	-134.067	-130.044	-129.596	-124.278	-23.736	-125.056	-8191	255	
842.472	1	1	0	0	0.10552	0.01712	0.063527	0.16469	0.19739	0.13712	0.051289	0.046326	0.16948	0.15395	0.23434	0.092258	0.083447	0.18766	0.048131	0.072712	-3.8458	-4.9104	-4.2479	-4.4417	-4.7917	-4.0625	-4.9604	-4.9667	-4.1625	-4.85	-4.3958	-4.3104	-5.0083	-3.9979	-4.7146	-4.5958	155.827	-2.585	-103.911	182.928	-139.196	-112.460	182.051	-124.070	103.149	150.860	195.260	-20.872	199.671	193.901	80.626	-128.364	0.00046239	0.0004093	8.3997e-05	1347.3	6.0196e-06	3.6243e-06	1342.8	365.41	6.7784e-06	6.5635e-06	416.19	138.59	120.61	41.817	1.6471e-06	51.388	0.00046218	0.00044892	0.00012569	1360.1	4.9704e-06	4.9527e-06	1360	369.79	5.0361e-06	4.7952e-06	422.16	141.41	122.7	42.506	4.8485e-06	52.537	184.026	-118.841	-46.283	-137.745	-21.046	-12.978	-138.253	-133.238	-53.357	-5.156	-133.700	-129.899	-129.308	-124.351	10.017	-124.860	-8191	255	
842.568	1	1	0	0	0.13245	0.22384	0.10376	0.098584	0.14194	0.12135	0.23395	0.042182	0.089615	0.14916	0.097827	0.15201	0.32078	0.19897	0.23317	0.029336	-3.6771	-4.8083	-4.4542	-4.2021	-4.7208	-4.1333	-4.625	-5.0125	-4.0458	-4.8729	-4.5354	-4.1937	-5.0646	-4.0958	-4.5104	-4.8896	-126.394	199.917	148.731	201.759	82.313	-78.808	125.291	64.567	129.823	-132.444	140.975	121.842	207.484	167.432	-0.717	-135.970	0.00049124	0.00089883	0.00013945	1348.5	4.8093e-06	3.9575e-06	1342	363.74	4.4763e-06	5.0052e-06	415.45	138.45	120.42	41.568	4.0296e-06	51.36	0.00044249	0.00042968	0.00012159	1358.4	4.7506e-06	4.6858e-06	1355.5	368.58	4.641e-06	4.6069e-06	421.31	140.95	122.55	42.347	4.529e-06	52.354	183.057	-46.559	-65.086	-137.918	-18.847	-60.008	-137.987	-133.219	-5.363	43.819	-133.760	-129.982	-129.195	-124.334	-12.084	-124.648	-8191	255	
842.664	1	1	0	0	0.16972	0.080121	0.30199	0.065184	0.25301	0.24812	0.23673	0.10905	0.063744	0.14387	0.14868	0.29159	0.074076	0.01862	0.16515	0.046792	-3.7792	-4.8604	-4.4729	-4.1687	-4.9021	-4.2396	-4.5333	-4.9187	-3.9688	-4.7792	-4.45	-4.0146	-5.0271	-4.1375	-4.2896	-4.95	-28.088	-47.048	157.420	171.188	-91.776	9.908	115.107	58.562	103.106	-104.318	177.740	173.793	207.219	-40.386	151.531	128.068	0.00046502	0.00073146	5.0326e-05	1338.5	1.8251e-06	2.0167e-06	1327.9	364.21	5.0183e-06	3.9445e-06	414.86	138.98	120	41.481	3.5523e-06	51.261	0.0004171	0.00039642	0.00011058	1347.8	4.359e-06	4.2782e-06	1343.1	367.09	4.2562e-06	4.2206e-06	419.31	140.69	121.99	42.272	4.342e-06	52.271	182.750	-76.002	-76.171	-137.881	-6.237	23.047	-138.140	-133.169	-34.745	-25.533	-133.718	-130.007	-129.220	-124.125	31.684	-124.730	-8191	255	
842.760	1	1	0	0	0.20082	0.057439	0.21736	0.19414	0.041586	0.10173	0.20777	0.11383	0.48614	0.11019	0.23474	0.22653	0.21218	0.12239	0.13823	0.13431	-3.7333	-4.6792	-4.6417	-4.2708	-4.8354	-4.5104	-4.3542	-5.0312	-4.0979	-4.4375	-4.9062	-3.8667	-4.9729	-4.4292	-4.0708	-5.0062	28.809	-129.527	-113.800	-103.835	97.162	136.499	149.965	-27.125	-29.235	-121.385	140.470	184.932	93.878	152.176	160.083	22.453	0.00046515	0.00054409	0.00010082	1336	4.1138e-06	5.5723e-06	1328	363.59	4.1881e-06	6.1537e-06	415.78	138.34	119.54	41.557	3.6027e-06	51.223	0.00039599	0.00038723	0.0001076	1342.4	4.3618e-06	4.2053e-06	1343.8	367.02	4.4072e-06	4.3709e-06	419.48	140.88	121.94	42.334	4.5894e-06	52.397	183.521	-47.168	-76.670	-137.825	-19.579	21.050	-138.076	-133.411	-47.795	-13.986	-133.490	-130.015	-129.395	-124.115	-6.879	-125.005	-8191	255	
842.856	1	1	0	0	0.16361	0.073231	0.21566	0.071387	0.024325	0.045966	0.1914	0.24693	0.074523	0.16851	0.12503	0.13548	0.19136	0.24966	0.11219	0.2831	-3.6833	-4.4917	-4.5708	-3.9875	-4.8604	-4.3854	-4.2833	-5.0792	-4.1104	-4.4938	-5.0146	-4.0104	-4.8	-4.575	-3.9938	-5.0521	61.104	197.428	61.452	-44.520	-18.292	157.131	130.287	116.953	88.354	84.707	-121.749	-121.880	112.997	195.433	-126.904	200.310	0.00055412	0.00052248	0.0001443	1339.1	3.4336e-06	5.3345e-06	1339.1	364.23	4.0941e-06	6.7055e-06	415.06	138.27	120.27	41.404	2.1765e-06	51.113	0.00042075	0.00041391	0.0001157	1350.1	4.6252e-06	4.5417e-06	1352.4	368.38	4.6301e-06	4.5598e-06	419.54	141.26	122.47	42.275	4.7173e-06	52.343	181.027	-59.416	-59.554	-137.624	22.231	-26.659	-138.298	-133.537	-61.759	-0.122	-133.831	-129.754	-129.049	-124.178	-15.047	-124.534	-8191	255	
842.975	1	1	0	0	0.2182	0.05017	0.16811	0.24855	0.14366	0.1477	0.052099	0.28686	0.10429	0.13495	0.15464	0.32751	0.2509	0.10464	0.19276	0.16309	-3.7938	-4.4958	-4.8458	-4.0625	-4.75	-4.5792	-4.1646	-5.1125	-4.1021	-4.4437	-5.0312	-4.1896	-5.0729	-4.6979	-3.9271	-4.9208	54.384	-106.180	15.357	125.918	112.412	99.167	132.811	171.084	100.500	22.737	158.371	-148.110	-81.275	-75.309	-59.522	182.557	0.0004294	0.0007537	2.9567e-05	1335	3.3097e-06	3.135e-06	1330.9	363.93	5.4547e-06	1.0835e-06	416.49	138.04	120.52	41.432	6.1946e-06	51.343	0.00043088	0.00042107	0.00011697	1348.1	4.6239e-06	4.5988e-06	1348	368.51	4.6464e-06	4.6285e-06	420.38	140.77	122.41	42.286	4.6724e-06	52.438	182.277	-62.150	7.920	-137.934	-4.462	6.232	-138.104	-133.322	-5.896	-62.713	-133.814	-130.050	-129.477	-123.846	4.720	-124.789	-8191	255	
843.071	1	1	0	0	0.04006	0.33172	0.0074579	0.085219	0.29465	0.17765	0.13416	0.0521	0.064171	0.23778	0.075246	0.077656	0.025927	0.093893	0.11355	0.184	-4.1167	-4.1979	-4.9604	-4.1729	-4.5083	-4.6854	-4.0042	-5.0979	-4.1896	-4.1625	-5.0333	-4.1229	-4.5542	-4.8562	-3.8292	-4.9229	187.516	106.593	-5.199	-96.122	-62.428	-129.147	131.256	127.678	-105.135	-121.467	-123.532	19.119	-129.495	203.197	193.251	83.846	0.00049088	0.00043132	0.00013991	1336.3	4.0386e-06	4.9345e-06	1326.5	363.97	4.395e-06	4.9507e-06	415.11	138.14	120.19	41.566	1.2721e-06	51.403	0.00042976	0.00042014	0.00011622	1348.7	4.6068e-06	4.5631e-06	1344.3	368.29	4.5826e-06	4.5949e-06	420.65	140.62	122.23	42.272	4.5809e-06	52.389	181.738	-62.762	-89.003	-137.856	-25.721	-61.954	-138.024	-133.141	-49.614	-9.750	-133.700	-129.749	-129.161	-124.304	-116.802	-124.953	-8191	255	
843.168	1	1	0	0	0.0066208	0.034308	0.26371	0.23936	0.073689	0.10928	0.087372	0.22414	0.38406	0.17157	0.24872	0.26083	0.10109	0.14713	0.14226	0.13537	-4.1167	-3.975	-4.9104	-4.0854	-4.5312	-4.8354	-4.2021	-4.8521	-4.4271	-4.1396	-4.9292	-4.3271	-4.4854	-4.9208	-3.9229	-4.8583	17.479	-54.940	65.831	85.488	-95.366	177.328	163.878	-144.987	87.064	103.985	33.153	161.321	188.458	-54.003	101.572	-105.347	0.00049531	0.00044951	0.00011699	1332.2	7.9026e-06	2.715e-06	1330.8	364.21	6.1772e-06	2.2391e-06	413.51	138.17	119.9	41.688	3.9281e-06	51.218	0.00042087	0.00041363	0.00011521	1343.4	4.5769e-06	4.4663e-06	1343.9	367.86	4.5159e-06	4.6224e-06	419.42	140.95	122.16	42.317	4.6284e-06	52.28	179.266	-70.511	-34.552	-137.511	-46.837	4.314	-138.112	-133.463	-35.277	40.963	-133.657	-129.908	-129.225	-124.318	-2.197	-124.968	-8191	255	
843.264	1	1	0	0	0.20465	0.11747	0.16673	0.11392	0.18703	0.064368	0.14279	0.054009	0.042442	0.18069	0.19162	0.11038	0.26698	0.17163	0.27182	0.12078	-4.2021	-4.0896	-4.7792	-4.3479	-4.3771	-4.8187	-4.025	-4.8146	-4.5917	-4.1042	-5.0417	-4.3771	-4.3708	-4.8771	-3.9708	-4.8063	-38.367	33.719	59.315	157.358	109.633	-62.276	190.015	-94.281	205.908	-136.657	136.147	52.292	-141.904	-120.849	54.882	61.504	0.00046969	0.00027893	9.5084e-05	1343.2	5.0384e-06	5.6539e-06	1331.9	361.75	1.7926e-06	5.5674e-06	415.85	137.8	120.11	41.419	4.3157e-06	51.079	0.0004171	0.00042092	0.00011368	1345	4.5653e-06	4.5651e-06	1345.9	367.08	4.5798e-06	4.5742e-06	419.48	140.48	122.07	42.226	4.6748e-06	52.315	184.913	-136.349	-114.013	-137.663	-33.481	-11.693	-138.149	-133.500	15.786	5.132	-133.668	-129.768	-129.474	-124.223	-28.285	-124.578	-8191	255	
843.384	1	1	0	0	0.025892	0.18931	0.11566	0.3566	0.12997	0.036634	0.18545	0.2101	0.026274	0.13803	0.065639	0.2558	0.24316	0.15121	0.023163	0.079127	-4.3229	-3.9292	-4.8	-4.4708	-4.0938	-4.7583	-4.1833	-4.525	-4.8021	-3.9729	-4.8667	-4.4125	-4.2438	-4.9292	-3.9875	-4.5167	185.321	42.763	201.348	205.653	155.632	-140.581	123.361	143.421	-61.474	65.714	-78.126	171.986	192.932	-107.966	135.132	-44.742	0.00044624	0.00071166	0.00014213	1338.3	2.1171e-06	4.7197e-06	1331	363.61	3.1938e-06	6.853e-06	414.78	137.89	120	41.619	2.552e-06	50.806	0.00043232	0.00043214	0.00011907	1346.9	4.8379e-06	4.7781e-06	1347	368.1	4.8508e-06	4.8998e-06	420.76	140.96	122.18	42.314	5.0939e-06	52.342	177.071	-55.682	-61.159	-137.617	-86.289	31.373	-137.988	-133.223	-48.397	6.717	-133.720	-129.801	-129.568	-124.221	74.265	-125.110	-8191	255	
843.456	1	1	0	0	0.10828	0.1713	0.083662	0.13729	0.21873	0.26927	0.16586	0.23142	0.21756	0.1299	0.20785	0.21871	0.11176	0.20347	0.028049	0.14167	-4.4833	-3.9042	-4.6479	-4.5708	-3.8208	-4.9104	-4.2271	-4.3771	-4.7521	-3.9875	-4.8104	-4.7083	-4.1896	-4.8187	-4.0938	-4.3792	-126.178	193.094	-105.014	-91.351	202.320	2.913	175.931	181.804	188.787	129.001	53.195	109.410	197.349	133.798	14.760	-130.750	0.00044001	0.0007325	0.00011155	1344.5	3.8554e-06	2.1368e-06	1342.3	365.02	3.6296e-06	2.5215e-06	417.92	138.57	120.66	41.654	3.5482e-06	51.402	0.00046327	0.0004736	0.00012993	1351.8	5.2616e-06	5.1589e-06	1354.3	369.62	5.4023e-06	5.3535e-06	422.44	141.49	122.89	42.487	5.3378e-06	52.485	176.247	-47.421	-45.786	-137.817	-20.100	-9.048	-138.115	-133.444	-2.326	-43.110	-133.895	-130.115	-129.443	-124.117	-80.215	-125.189	-8191	255	
843.552	1	1	0	0	0.098809	0.092304	0.14456	0.22171	0.1667	0.082332	0.21116	0.26614	0.096401	0.090632	0.0325	0.1048	0.1138	0.091604	0.23874	0.047185	-4.525	-3.9062	-4.5875	-4.8292	-4.1062	-4.8146	-4.4771	-4.4	-4.9521	-4.1271	-4.65	-4.8063	-4.025	-4.9146	-4.3771	-4.2875	110.504	185.917	-37.569	181.247	49.302	-26.631	184.042	37.741	144.746	54.628	135.937	26.429	164.346	167.887	-18.602	168.126	0.00047754	0.00031408	3.7333e-05	1346.8	3.3099e-06	4.7258e-06	1341.6	363.86	3.4784e-06	1.8861e-06	417.06	138.81	120.59	41.518	3.8608e-06	51.364	0.00048781	0.00048503	0.00013354	1358.7	5.374e-06	5.1894e-06	1357.9	369.44	5.2946e-06	5.2933e-06	423.54	141.73	122.85	42.519	5.1924e-06	52.668	173.990	-68.206	101.588	-137.796	11.267	-24.539	-138.125	-133.458	-50.612	5.155	-133.707	-129.930	-129.650	-124.453	6.684	-125.240	-8191	255	
843.648	1	1	0	0	0.16475	0.09992	0.17944	0.05135	0.16708	0.052705	0.11581	0.052512	0.16478	0.11666	0.10216	0.076763	0.22366	0.19122	0.18241	0.17336	-4.6458	-4.0521	-4.6188	-4.7	-4.0604	-4.8125	-4.6229	-4.2271	-4.8667	-4.0708	-4.4938	-4.9625	-3.9854	-4.8187	-4.6	-4.35	121.876	-105.950	-116.207	-114.178	-83.968	-109.771	149.504	-116.389	72.402	148.304	140.649	192.414	93.292	187.161	116.628	-147.528	0.00046985	0.0010478	0.00011151	1353.5	7.7979e-06	5.3754e-06	1342.3	365.45	4.9489e-06	6.4233e-06	418.04	138.18	121.22	42.004	4.6842e-06	51.39	0.00048416	0.00047762	0.00012964	1361.3	5.2445e-06	5.1375e-06	1360.3	370.09	5.1399e-06	4.9923e-06	423.08	141.51	123.09	42.601	4.9994e-06	52.651	182.864	-40.574	-8.270	-137.892	-33.463	-1.998	-137.903	-133.330	-17.555	-25.177	-134.007	-130.068	-129.208	-124.198	-0.820	-124.666	-8191	255	
843.767	1	1	0	0	0.23824	0.11925	0.069179	0.069546	0.15306	0.041921	0.23804	0.14177	0.17709	0.038243	0.26086	0.22193	0.056825	0.23483	0.084248	0.040865	-4.65	-4.0833	-4.4917	-4.7771	-3.8333	-4.8	-4.6729	-4.125	-4.9896	-4.0542	-4.4375	-4.7646	-4.0062	-4.6917	-4.7729	-4.1875	115.259	143.725	0.209	113.429	109.677	120.714	128.923	165.243	160.024	87.677	138.653	-35.840	128.517	-113.968	79.797	181.940	0.00047235	0.00065561	7.1412e-05	1351.2	2.5417e-06	4.0429e-06	1347.5	365.95	2.878e-06	3.1605e-06	419.09	139.42	120.86	41.672	6.3385e-06	51.482	0.00046029	0.00045834	0.0001276	1363	5.0553e-06	5.0548e-06	1362.8	370.51	5.0585e-06	5.0174e-06	423.9	142.04	122.97	42.595	5.2241e-06	52.8	185.463	-87.756	3.866	-137.804	-17.610	-40.329	-137.866	-133.733	-40.848	-39.880	-133.821	-129.874	-129.556	-124.291	-2.860	-124.934	-8191	255	
843.863	1	1	0	0	0.044565	0.18237	0.093795	0.17454	0.21872	0.086078	0.12718	0.051917	0.14577	0.1174	0.2032	0.0769	0.25408	0.21223	0.066356	0.045802	-4.7083	-4.1833	-4.1604	-5.0542	-4.1042	-4.5979	-4.9667	-4.0333	-4.9333	-4.2312	-4.4313	-5.0833	-4.0042	-4.5708	-4.7063	-4.1021	-74.944	203.877	90.263	124.184	-84.792	194.881	106.289	109.045	200.266	-16.217	-8.087	116.873	-150.529	174.079	60.551	112.683	0.00044378	0.00057344	9.5913e-05	1351.2	4.0414e-06	5.1358e-06	1354.1	363.95	2.1337e-06	4.8125e-06	418.96	139.25	120.84	41.759	3.7209e-06	51.416	0.00048358	0.00047837	0.00013448	1365.1	5.3091e-06	5.3225e-06	1364.8	370.36	5.3147e-06	5.2984e-06	423.69	141.88	123.14	42.651	5.3309e-06	52.704	184.902	-99.363	-116.267	-137.892	-54.257	-23.166	-138.177	-133.410	-53.054	-6.485	-133.928	-130.069	-129.575	-124.477	-22.439	-125.153	-8191	255	
843.960	1	1	0	0	0.17467	0.21116	0.18338	0.0925	0.24775	0.23439	0.13487	0.22862	0.13571	0.11466	0.10463	0.23604	0.1139	0.15824	0.11394	0.17945	-4.5104	-4.3979	-3.9833	-4.8521	-4.0375	-4.5208	-4.9542	-4.2083	-4.7708	-4.425	-4.3292	-5.025	-4.2583	-4.3521	-4.8021	-4.0208	49.938	-91.767	-106.573	177.902	87.094	49.903	-19.555	-67.873	102.860	130.128	47.827	18.271	102.013	-121.608	127.175	17.785	0.00043134	0.00063307	8.2143e-05	1354.6	2.7751e-06	2.2938e-06	1349.7	367.17	4.9782e-06	4.3856e-06	421.03	139.05	120.87	41.896	7.0914e-07	51.441	0.00049484	0.00048086	0.00013885	1366.9	5.4199e-06	5.4006e-06	1365.7	370.96	5.3672e-06	5.4293e-06	424.72	141.88	123.19	42.7	5.3776e-06	52.756	178.487	-51.040	-86.316	-137.914	39.313	-34.351	-138.178	-133.643	-30.900	-24.102	-133.888	-129.993	-129.787	-124.491	29.908	-125.068	-8191	255	
844.056	1	1	0	0	0.14721	0.11625	0.16837	0.07333	0.097161	0.17168	0.15921	0.115	0.28111	0.14101	0.23742	0.41706	0.14242	0.2274	0.14291	0.26147	-4.4042	-4.5042	-4.0083	-5.0958	-4.2604	-4.2896	-5.1604	-3.9375	-4.6542	-4.5437	-4.1479	-4.9521	-4.3896	-4.3646	-4.7021	-4.0521	19.376	55.709	-139.193	36.539	3.516	-3.430	37.961	98.977	26.868	-123.518	110.376	-146.876	-133.878	-131.785	153.031	127.277	0.00048519	0.00082841	8.3527e-05	1358.8	6.2539e-06	4.3455e-06	1349.5	365.88	4.7443e-06	2.2894e-06	420.54	138.96	120.88	41.914	2.1637e-06	51.361	0.00048647	0.00047472	0.00013432	1368.8	5.2816e-06	5.3264e-06	1367	370.74	5.3628e-06	5.2614e-06	424.23	142.08	123.31	42.693	5.2527e-06	52.713	171.153	-68.946	-11.453	-137.747	-6.746	9.809	-138.091	-133.445	-32.997	73.750	-133.906	-130.190	-129.439	-124.401	81.192	-125.068	-8191	255	
844.152	1	1	0	0	0.29481	0.067391	0.14936	0.26265	0.068602	0.17571	0.0827	0.031609	0.087886	0.16769	0.10809	0.17493	0.15341	0.19998	0.27822	0.054287	-4.3583	-4.6208	-3.9896	-4.9875	-4.2854	-4.3042	-5.0625	-4.2333	-4.5583	-4.5896	-4.1667	-4.9375	-4.55	-4.2896	-5.0146	-4.2854	7.726	125.640	-139.561	-106.426	166.492	80.156	179.821	203.247	164.499	69.224	-135.306	-66.234	187.992	-122.146	185.489	94.572	0.00045506	0.00079267	0.00010828	1352.9	4.7036e-06	2.9627e-06	1347.6	366.16	3.8692e-06	5.947e-06	419.37	138.51	120.79	41.611	4.9351e-06	51.573	0.00047328	0.00046718	0.00012953	1364.3	5.0467e-06	5.012e-06	1362.2	370.56	4.9406e-06	4.8845e-06	423.8	141.67	122.91	42.572	4.7232e-06	52.591	178.010	-54.628	-21.752	-137.874	47.494	-27.245	-138.087	-133.411	-37.162	-6.098	-133.871	-129.756	-129.333	-124.211	3.489	-125.157	-8191	255	
844.248	1	1	0	0	0.18793	0.079269	0.2691	0.25388	0.13553	0.030916	0.28156	0.22664	0.048611	0.15763	0.11717	0.086983	0.12458	0.2582	0.31468	0.097273	-4.1438	-4.6625	-3.9562	-4.7875	-4.4917	-3.9792	-5.0375	-4.2354	-4.4437	-4.8479	-3.9437	-4.8833	-4.7	-4.2792	-4.7625	-4.1583	81.816	-86.573	-25.337	-60.475	63.958	88.750	152.875	198.779	138.498	196.380	-144.551	-139.774	134.986	138.674	98.951	6.518	0.00050877	0.00079448	8.312e-05	1351.8	1.5895e-06	6.0404e-06	1342.8	366.86	3.8e-06	8.1962e-06	418.78	138.8	120.68	41.636	2.139e-06	51.36	0.00043351	0.00041723	0.0001186	1358.7	4.6143e-06	4.6868e-06	1358.2	370.39	4.7487e-06	4.7234e-06	421.9	141.77	122.96	42.531	4.7857e-06	52.589	182.172	-74.147	-19.338	-138.024	1.090	-13.594	-138.001	-133.314	-28.319	-25.880	-133.627	-129.934	-129.436	-124.296	-10.825	-124.947	-8191	255	
844.344	1	1	0	0	0.065614	0.081372	0.18344	0.25818	0.12417	0.25068	0.20463	0.1336	0.13538	0.22226	0.095061	0.1903	0.08973	0.1713	0.24635	0.098118	-3.9021	-4.8875	-3.9208	-4.6271	-4.4479	-3.9042	-5.0437	-4.4792	-4.1375	-4.825	-4.0292	-4.7667	-4.7896	-3.85	-4.9375	-4.4167	-143.665	14.523	144.180	-113.302	113.330	148.795	150.395	60.495	93.291	147.586	150.253	130.866	140.698	-84.632	53.578	131.082	0.00050916	0.00040986	2.7063e-05	1350.5	3.9552e-06	7.0767e-06	1343.3	366.13	1.8887e-06	1.9969e-06	418.6	139.25	120.61	41.844	4.8224e-06	51.559	0.00045179	0.0004245	0.00012031	1360.9	4.7716e-06	4.8524e-06	1362.2	370.47	4.9392e-06	4.8018e-06	422.6	141.7	123.04	42.639	4.9735e-06	52.696	184.150	-41.277	17.476	-137.911	17.188	29.966	-138.096	-133.528	-81.092	29.884	-133.772	-130.000	-129.226	-124.147	23.357	-125.000	-8191	255	
844.465	1	1	0	0	0.13848	0.025884	0.20132	0.098407	0.13958	0.1286	0.15102	0.050327	0.10944	0.16506	0.11087	0.29115	0.043195	0.13071	0.085889	0.22114	-3.9771	-5.0708	-3.9396	-4.625	-4.8021	-3.8083	-5.0188	-4.4812	-4.0479	-4.9688	-4.2896	-4.3792	-4.9375	-4.2042	-4.7729	-4.5563	-38.541	166.383	-54.926	-146.293	121.912	116.336	-143.784	-135.910	170.126	-138.319	-130.515	-142.983	-101.846	182.005	-124.918	167.657	0.00049343	0.00076747	0.00010629	1355.9	1.9244e-06	4.8725e-06	1344.1	366.55	3.8273e-06	1.6382e-06	419.09	139.16	121.07	41.652	3.4701e-06	51.489	0.00045758	0.00044842	0.00012368	1363.6	4.8453e-06	4.9297e-06	1362.2	370.18	4.9813e-06	4.8205e-06	423.5	141.78	123.21	42.575	4.8347e-06	52.697	177.056	-40.955	-71.177	-137.979	-47.464	39.847	-138.110	-133.268	10.749	-0.465	-133.766	-129.886	-129.273	-124.285	-8.666	-124.983	-8191	255	
844.561	1	1	0	0	0.22303	0.25366	0.13833	0.30016	0.094444	0.096	0.20036	0.24917	0.094197	0.21474	0.30481	0.23463	0.21099	0.24907	0.051865	0.055338	-3.8104	-4.8521	-4.1083	-4.3438	-4.9354	-3.8542	-4.8979	-4.5625	-3.8521	-4.7958	-4.1813	-4.1917	-4.9958	-3.9667	-4.6646	-4.7167	14.436	122.432	157.929	93.914	174.214	20.917	138.800	112.992	70.451	13.232	181.142	201.057	143.471	152.121	205.185	150.412	0.0004565	0.0005586	5.2128e-05	1356.1	6.2771e-06	6.2652e-06	1340.7	367.73	2.9673e-06	4.8038e-06	417.47	139	120.47	41.754	9.2036e-07	51.452	0.0004454	0.00044519	0.00012273	1361.2	4.8075e-06	4.8818e-06	1359.8	370.34	4.8528e-06	4.8144e-06	423.04	141.87	123.01	42.597	4.8053e-06	52.658	180.441	-45.379	-54.164	-137.943	-18.173	49.534	-138.201	-133.588	-26.884	-4.556	-133.790	-130.015	-129.152	-124.076	-47.668	-124.988	-8191	255	
844.657	1	1	0	0	0.16427	0.11192	0.18261	0.30154	0.04062	0.18635	0.13392	0.23224	0.097119	0.031367	0.16429	0.20222	0.28385	0.19575	0.23058	0.21734	-3.4938	-4.9271	-4.2021	-4.2375	-4.8625	-4.0646	-4.6687	-4.7208	-3.9521	-4.7917	-4.3938	-4.2542	-4.9646	-4.1708	-4.4229	-4.8292	130.125	179.716	126.072	199.856	-100.039	112.225	-100.493	168.294	-6.157	-92.937	179.543	199.895	120.258	-145.179	172.678	107.834	0.00045915	0.00078337	0.00016496	1350.5	7.2015e-06	6.8746e-06	1343.1	365.46	2.9906e-06	2.5682e-06	418.17	139.48	121.2	41.878	4.5815e-06	51.548	0.00045361	0.0004357	0.0001201	1362.8	4.814e-06	4.8319e-06	1360.9	369.92	4.9019e-06	4.8184e-06	422.29	141.77	123.17	42.566	4.9243e-06	52.62	177.244	-21.757	-70.829	-137.815	-4.312	23.446	-138.050	-133.272	-9.857	-0.487	-133.908	-130.048	-129.313	-124.454	-43.832	-124.969	-8191	255	
844.753	1	1	0	0	0.16494	0.21781	0.042945	0.16651	0.072892	0.07326	0.097238	0.21502	0.12923	0.16723	0.13847	0.17656	0.062818	0.11821	0.18751	0.11292	-3.6333	-4.8313	-4.3875	-4.2396	-4.9958	-4.0229	-4.4292	-4.6937	-3.9333	-4.7562	-4.6667	-4.0917	-4.85	-4.1937	-4.2146	-4.8562	-100.620	115.582	48.777	106.190	171.888	40.312	50.123	131.612	153.523	86.992	138.842	-123.068	-141.060	-29.565	-31.047	124.823	0.0004592	0.00045519	8.7361e-05	1351.8	3.6671e-06	8.2103e-06	1347.1	366.25	3.7296e-06	3.7837e-06	417.8	138.99	120.87	41.794	5.4375e-06	51.419	0.00044735	0.00043876	0.00012272	1361.2	4.8575e-06	4.7537e-06	1360.9	369.75	4.9119e-06	4.8058e-06	422.81	141.77	123.09	42.566	4.8349e-06	52.634	182.025	-52.030	-31.273	-137.804	-17.784	7.926	-138.289	-133.362	-62.383	-3.829	-133.927	-130.102	-129.319	-124.225	-57.971	-124.892	-8191	255	
844.849	1	1	0	0	0.11722	0.091017	0.18817	0.18037	0.13635	0.13925	0.047474	0.23052	0.15889	0.17754	0.13528	0.19259	0.15245	0.16009	0.38291	0.21437	-3.6458	-4.7958	-4.4292	-4.2396	-4.7854	-4.2146	-4.4229	-5.0625	-4.0521	-4.6625	-4.7917	-4.2125	-4.9812	-4.4958	-4.1125	-5.1667	205.209	141.653	-112.598	129.594	-33.899	179.480	146.851	126.928	164.810	-101.561	134.462	-40.698	60.028	204.658	136.813	193.505	0.00044411	0.00056379	0.00012965	1353.1	4.6373e-06	3.506e-06	1339.7	366.1	4.0498e-06	4.276e-06	419.67	139.03	121.02	41.711	3.7714e-06	51.278	0.00044566	0.00043025	0.00012154	1361.1	4.7572e-06	4.6758e-06	1358.9	370.31	4.8292e-06	4.6552e-06	422.67	141.72	123.11	42.512	4.8794e-06	52.562	180.958	-86.313	-37.245	-137.911	-32.545	-40.022	-138.248	-133.483	-47.552	-2.028	-133.606	-129.965	-129.403	-124.124	-6.654	-124.667	-8191	255	
844.944	1	1	0	0	0.20046	0.055961	0.070679	0.3257	0.098998	0.26884	0.20529	0.075709	0.14245	0.060827	0.25426	0.050374	0.18571	0.15924	0.25711	0.21672	-3.5896	-4.6	-4.6188	-4.0979	-4.8083	-4.4	-4.4229	-5.0792	-4.1667	-4.5188	-4.7146	-4.1167	-4.8792	-4.3187	-4.0917	-4.9417	-48.522	151.864	140.338	178.917	45.487	92.172	126.811	-26.022	-119.464	119.791	126.922	-61.425	117.260	184.832	147.581	-150.794	0.00043046	0.00057896	4.2753e-05	1352.3	2.9735e-06	4.9186e-06	1338.8	365.96	4.5509e-06	5.7028e-06	416.39	139.03	121.07	41.678	4.7999e-06	51.471	0.00043635	0.0004264	0.00011888	1359.4	4.7571e-06	4.6909e-06	1357.7	369.58	4.8239e-06	4.7346e-06	422.12	141.88	122.95	42.474	4.8955e-06	52.689	179.383	-95.778	-70.704	-137.764	-42.139	-4.005	-138.043	-133.431	-47.470	-7.572	-133.879	-130.030	-129.395	-124.434	1.269	-124.868	-8191	255	
845.040	1	1	0	0	0.1184	0.14261	0.14049	0.22018	0.18158	0.2289	0.18929	0.17462	0.16415	0.095593	0.30978	0.23685	0.040817	0.10953	0.24329	0.14827	-3.7313	-4.4167	-4.6708	-4.1833	-4.575	-4.4208	-4.1729	-5.0583	-4.2542	-4.2625	-4.9271	-4.1854	-4.7562	-4.7042	-4.0292	-5.0062	14.090	83.215	172.710	123.417	-81.916	-128.909	188.659	116.796	-27.278	111.226	159.271	156.775	-114.902	-114.694	201.655	140.647	0.00043136	0.00079027	4.9693e-05	1350.4	7.149e-06	2.3908e-06	1345.9	365.1	2.9978e-06	6.4802e-06	417.93	139.09	121.12	41.89	6.9732e-06	51.501	0.00043799	0.00043374	0.00012084	1357.8	4.7622e-06	4.723e-06	1359.7	370.04	4.7425e-06	4.8475e-06	422.79	141.68	122.98	42.527	4.899e-06	52.665	192.671	-66.761	-51.804	-137.833	-55.069	-13.588	-138.153	-133.273	-77.276	-7.615	-133.829	-129.856	-129.446	-124.455	-29.953	-125.094	-8191	255	
845.161	1	1	0	0	0.13796	0.11639	0.32364	0.14344	0.29571	0.15791	0.20258	0.068326	0.12064	0.16468	0.11245	0.19975	0.16938	0.0061571	0.18535	0.04189	-3.7833	-4.2542	-4.9146	-4.175	-4.675	-4.7021	-4.1229	-5.0479	-4.2354	-4.2729	-4.9229	-4.1042	-4.5938	-4.6542	-4.0167	-4.8208	-149.398	85.830	-33.180	129.204	6.754	29.459	146.635	-136.562	142.738	96.622	117.949	198.965	152.192	-51.974	128.751	203.181	0.0004942	0.00063351	0.00013083	1349.5	4.1579e-06	1.5883e-06	1341.1	365.51	2.5967e-06	6.0884e-06	418.3	139.03	120.92	41.944	5.2273e-06	51.655	0.00043771	0.00044031	0.00012112	1357.1	4.7508e-06	4.7893e-06	1356.7	369.93	4.7488e-06	4.8878e-06	422.78	141.62	123.07	42.59	4.9392e-06	52.659	177.605	-61.256	-79.388	-137.603	-8.324	10.039	-138.032	-133.358	-97.722	4.612	-133.547	-130.327	-129.079	-124.238	1.687	-124.928	-8191	255	
845.257	1	1	0	0	0.085127	0.0578	0.11278	0.090287	0.21725	0.064681	0.062478	0.32144	0.12372	0.14297	0.24279	0.1006	0.13039	0.33157	0.14766	0.079805	-3.9104	-4.2792	-4.9313	-4.0917	-4.5229	-4.8167	-4.0854	-4.9271	-4.3333	-4.1062	-5.1312	-4.2042	-4.6312	-5.0042	-3.9396	-4.7875	143.951	152.720	-27.033	-82.823	165.035	179.521	135.731	-132.416	-16.554	148.956	188.957	132.328	-111.516	-86.066	131.154	121.094	0.00048676	0.00079827	9.8846e-05	1350.6	5.8526e-06	8.0504e-06	1344	364.78	3.6008e-06	4.7968e-06	417.21	138.99	120.51	41.746	1.5588e-06	51.389	0.00044708	0.00043842	0.0001222	1361.4	4.7944e-06	4.6899e-06	1360.4	370.09	4.7224e-06	4.8018e-06	422.02	141.47	122.9	42.547	4.6968e-06	52.547	176.129	-65.197	-44.326	-137.918	-28.134	9.059	-138.197	-133.274	-50.646	72.052	-133.765	-129.909	-129.575	-124.284	-18.963	-124.754	-8191	255	
845.328	1	1	0	0	0.040926	0.078914	0.25242	0.23052	0.2024	0.035224	0.22088	0.2227	0.1811	0.27734	0.1687	0.24517	0.18848	0.16602	0.11057	0.13104	-4.2958	-4.0563	-4.8688	-4.1833	-4.2438	-4.8375	-3.9833	-4.7688	-4.3917	-3.9771	-5.0646	-4.4417	-4.4729	-4.9812	-4.05	-4.7646	-132.283	53.457	-46.449	171.416	-7.687	207.753	187.686	111.497	48.055	163.639	-75.400	-118.534	-57.476	139.252	186.234	30.963	0.00051383	0.00055594	0.00011239	1345.2	6.0082e-06	1.5499e-06	1342.9	365.8	8.7743e-07	3.8196e-06	418.26	139.37	120.77	41.743	5.6971e-06	51.502	0.00043404	0.00043081	0.00011963	1355.1	4.7801e-06	4.7389e-06	1357.6	369.68	4.8445e-06	4.8632e-06	422.9	141.71	123.05	42.498	4.8971e-06	52.589	177.450	-119.471	-62.257	-137.719	-11.565	10.950	-138.249	-133.608	-33.258	-3.906	-133.540	-129.883	-129.799	-124.184	-17.744	-125.057	-8191	255	
845.449	1	1	0	0	0.30613	0.1154	0.091108	0.2771	0.19731	0.069779	0.25137	0.047786	0.040147	0.063268	0.16129	0.044124	0.086796	0.10532	0.11588	0.14784	-4.4104	-4.1271	-4.9167	-4.5417	-4.2917	-5.0104	-4.2812	-4.5896	-4.7083	-3.9979	-5.1312	-4.6667	-4.1854	-5.05	-3.9896	-4.7271	28.914	-148.790	196.306	194.968	66.449	200.553	118.703	134.151	143.887	-34.087	-146.372	-110.963	93.412	153.294	9.044	191.660	0.00053022	0.00052134	0.00013931	1349.6	6.2839e-06	5.5029e-06	1342.8	364.52	3.5524e-06	4.2427e-06	419.13	138.44	120.52	41.633	2.7781e-06	51.379	0.00044506	0.00044119	0.00011987	1361.9	4.8458e-06	4.7444e-06	1359.9	369.66	4.785e-06	4.8124e-06	422.88	141.58	122.97	42.504	4.8374e-06	52.616	184.531	-36.748	-86.895	-137.843	-26.418	6.731	-138.211	-133.507	-41.612	37.193	-133.659	-129.689	-129.477	-124.290	-22.837	-125.041	-8191	255	
845.545	1	1	0	0	0.2989	0.13311	0.10169	0.15271	0.30349	0.31603	0.12711	0.092049	0.17492	0.16202	0.18208	0.26198	0.16209	0.044384	0.056084	0.07611	-4.2583	-3.9437	-4.8583	-4.5292	-3.9854	-4.825	-4.225	-4.6479	-4.7208	-4.0104	-5.0083	-4.5875	-4.3771	-4.9792	-4.0583	-4.6396	-131.685	69.267	101.185	60.662	-35.441	73.975	133.605	114.339	-129.294	-83.175	177.058	144.470	207.473	175.171	202.202	-147.527	0.00047162	0.00050614	0.00017018	1352	3.4753e-06	3.2392e-06	1341	366.06	5.1188e-06	3.4152e-06	418.98	138.37	120.75	41.789	3.6977e-06	51.617	0.00044277	0.00043177	0.00011993	1360.6	4.8233e-06	4.6538e-06	1355.7	369.54	4.7386e-06	4.6667e-06	422.1	141.49	122.84	42.504	4.6942e-06	52.69	182.003	-58.933	-53.419	-137.714	32.272	-71.784	-138.229	-133.511	-36.430	52.635	-134.061	-129.974	-129.501	-124.136	-29.212	-124.945	-8191	255	
845.641	1	1	0	0	0.23961	0.16905	0.024737	0.11998	0.085884	0.16941	0.13522	0.12384	0.11982	0.2235	0.065908	0.1062	0.29564	0.17785	0.091415	0.016386	-4.6979	-3.8646	-4.6167	-4.6562	-3.9708	-4.8792	-4.4083	-4.3479	-4.8438	-3.9604	-4.6875	-4.6312	-4.1333	-4.9313	-4.4313	-4.3708	-132.497	109.495	130.642	-126.805	93.965	-85.886	105.915	-150.265	162.926	2.554	90.253	85.412	-106.104	-135.162	204.089	128.983	0.00044981	0.00050662	0.00011542	1354.3	2.6404e-06	2.6732e-06	1341.6	365.16	2.0761e-06	3.0816e-06	417.05	139.68	121	41.865	2.8304e-06	51.597	0.00043964	0.00043556	0.00011893	1361.6	4.8063e-06	4.7358e-06	1358.1	369.76	4.7912e-06	4.7904e-06	422.26	141.89	123.01	42.576	4.7898e-06	52.621	188.876	-106.806	-32.004	-137.686	-28.455	-39.832	-138.075	-133.528	-71.024	-27.285	-133.958	-129.838	-129.308	-124.440	-15.133	-125.010	-8191	255	
845.737	1	1	0	0	0.1514	0.070164	0.21203	0.16159	0.19772	0.20382	0.18001	0.098763	0.062553	0.22078	0.14584	0.15919	0.25567	0.14744	0.15242	0.1397	-4.6354	-3.9458	-4.7375	-4.7104	-3.8604	-5.0563	-4.6292	-4.4146	-4.8313	-3.9833	-4.5396	-4.8938	-4.1667	-4.9521	-4.4	-4.4042	144.830	152.909	16.176	-112.830	109.444	93.433	86.969	208.393	17.074	70.149	-104.277	161.640	129.520	85.750	-47.034	99.680	0.00046737	0.00077802	0.00013636	1351.6	3.934e-06	6.9114e-06	1341.5	365.03	6.4339e-06	4.0602e-06	417.41	138.82	121.01	41.962	3.749e-06	51.215	0.00044174	0.00042589	0.00011851	1359.4	4.7932e-06	4.6263e-06	1357.2	369.16	4.7616e-06	4.7293e-06	422.53	141.32	122.98	42.6	4.7258e-06	52.595	181.393	-74.801	-56.417	-137.742	-8.564	-45.043	-138.229	-133.487	-21.541	25.578	-133.819	-129.900	-129.467	-124.237	-19.320	-125.242	-8191	255	
845.856	1	1	0	0	0.2503	0.20677	0.078392	0.36065	0.18422	0.23031	0.035962	0.16624	0.20214	0.14496	0.10307	0.17008	0.16092	0.20118	0.129	0.23369	-4.8938	-4.0021	-4.3438	-5.0208	-3.9292	-4.8708	-4.6792	-4.2875	-4.925	-4.3042	-4.5563	-5.0083	-4.1229	-4.8	-4.5792	-4.2083	-100.471	58.666	-134.202	135.298	-127.035	-28.837	43.752	186.690	-137.340	-16.350	129.978	-98.502	-16.069	145.483	-120.498	-97.303	0.00052379	0.00039287	0.00018526	1347	4.473e-06	7.3236e-06	1338.2	366.27	2.5826e-06	4.7438e-06	417.11	138.84	120.76	41.792	4.1219e-06	51.018	0.00043477	0.00042646	0.0001189	1355.1	4.6746e-06	4.6103e-06	1355.7	369.72	4.6024e-06	4.592e-06	422.35	141.46	122.87	42.489	4.5743e-06	52.409	178.819	-46.994	-82.311	-137.581	-43.527	6.490	-137.912	-133.459	-47.196	20.195	-133.899	-130.139	-129.520	-124.462	-40.559	-125.155	-8191	255	
845.930	1	1	0	0	0.10064	0.17134	0.27684	0.042881	0.29476	0.039953	0.18047	0.38605	0.057177	0.06733	0.11849	0.14599	0.12199	0.25121	0.10238	0.23951	-4.6646	-4.1	-4.2875	-5.0542	-3.8667	-4.6354	-4.7937	-4.3438	-4.9417	-4.2167	-4.3771	-5.0312	-4.1667	-4.5896	-4.7854	-3.975	133.052	200.206	147.380	-4.828	139.422	-76.045	99.641	112.314	-12.384	-28.554	200.830	190.352	160.056	178.544	158.271	139.403	0.00046985	0.00061399	7.7564e-05	1341.4	7.2281e-06	1.8207e-06	1338.9	365.52	7.8276e-06	2.9143e-06	418.37	138.6	120.22	41.7	6.342e-06	51.583	0.00042102	0.00041839	0.0001181	1355.9	4.5972e-06	4.5667e-06	1353.8	369.33	4.5878e-06	4.6105e-06	422.34	141.24	122.59	42.471	4.6404e-06	52.601	179.460	-87.376	-24.747	-137.733	-28.640	32.417	-138.100	-133.205	-18.777	6.462	-133.940	-129.652	-129.393	-124.175	24.941	-124.913	-8191	255	
846.026	1	1	0	0	0.088351	0.18498	0.12822	0.094907	0.068371	0.0363	0.20713	0.16191	0.085627	0.12125	0.30491	0.036114	0.25353	0.10099	0.22917	0.1167	-4.6625	-4.3167	-4.1208	-4.9104	-4.0687	-4.4729	-4.9583	-4.1542	-4.7479	-4.3958	-4.2188	-5.0729	-4.2125	-4.3958	-4.8417	-4.0563	-58.546	-8.805	-133.753	99.829	-91.102	72.112	145.042	172.354	-55.650	69.675	179.599	203.213	142.359	-79.897	64.358	127.925	0.00046153	0.00025756	0.0001546	1344.1	3.5848e-06	6.4233e-06	1340.9	365.12	2.7962e-06	5.0335e-06	416.06	138.77	120.41	41.636	2.8711e-06	51.521	0.00042468	0.00041656	0.00011683	1356.1	4.6346e-06	4.5435e-06	1354.9	369.58	4.6014e-06	4.527e-06	421.61	141.4	122.58	42.468	4.6961e-06	52.556	180.254	-55.563	-45.791	-137.819	-21.065	6.676	-138.077	-133.633	-15.398	29.136	-133.858	-130.184	-129.612	-124.496	86.186	-125.157	-8191	255	
846.145	1	1	0	0	0.046	0.14255	0.099583	0.10943	0.30995	0.22325	0.10938	0.13312	0.17675	0.17818	0.11907	0.13855	0.024848	0.090464	0.21366	0.087529	-4.4354	-4.4021	-4.1	-5.1042	-4.1292	-4.5042	-4.9896	-4.2042	-4.725	-4.5333	-4.225	-4.9563	-4.4708	-4.2583	-4.9812	-4.125	-99.250	-50.695	66.265	203.506	56.851	-43.304	151.258	-120.851	-116.431	31.208	-22.111	58.835	-16.508	-76.473	34.701	-112.855	0.00045785	0.00087048	0.00013261	1343.6	2.7735e-06	6.1002e-06	1339.6	364.33	2.3727e-06	4.1887e-06	414.79	138.34	120.58	41.774	3.1261e-06	51.282	0.00042247	0.00041755	0.00011766	1353.6	4.5786e-06	4.5263e-06	1353.5	368.79	4.6569e-06	4.5796e-06	421.73	141.3	122.67	42.506	4.6483e-06	52.533	179.516	-100.510	-63.900	-137.879	28.785	10.202	-138.050	-133.702	-31.816	-19.317	-133.822	-130.022	-129.086	-124.010	24.196	-125.051	-8191	255	
846.241	1	1	0	0	0.062007	0.078687	0.080291	0.3018	0.18254	0.066544	0.21495	0.24862	0.13799	0.18422	0.094873	0.14693	0.10207	0.3048	0.12324	0.048338	-4.3562	-4.5625	-4.075	-4.9208	-4.2521	-4.3	-4.9313	-4.0896	-4.4896	-4.7375	-4.3083	-4.9229	-4.5958	-4.2708	-4.8417	-4.1021	168.309	17.119	53.018	197.361	71.138	-134.294	138.622	130.065	-143.992	147.624	-138.192	-143.410	45.135	198.675	159.219	77.886	0.00044917	0.00016806	0.00013697	1348.5	2.908e-06	4.5125e-06	1343.3	364.66	5.1259e-06	4.1047e-06	418.4	138.93	120.33	41.745	1.9798e-06	51.358	0.00042999	0.00041905	0.00011776	1358.2	4.7166e-06	4.7057e-06	1358.9	369.04	4.8448e-06	4.707e-06	423.08	141.32	122.86	42.57	4.8566e-06	52.578	172.551	-54.666	-90.661	-137.754	-95.308	0.851	-137.955	-133.536	-67.296	-22.315	-133.848	-129.802	-129.255	-124.459	-2.170	-124.959	-8191	255	
846.337	1	1	0	0	0.050073	0.1214	0.076464	0.20617	0.10509	0.22898	0.085516	0.28598	0.17438	0.075556	0.062967	0.052715	0.16426	0.22696	0.052959	0.18805	-4.1438	-4.8875	-3.9938	-5.1292	-4.4583	-4.1188	-5.0333	-4.2375	-4.2875	-4.775	-4.2	-4.7646	-4.5813	-4.0917	-4.7521	-4.3417	-37.292	-16.087	60.194	88.836	-79.861	120.347	133.361	101.346	61.721	135.986	161.336	10.456	135.715	106.068	-45.997	150.257	0.00049868	0.00069007	0.00015792	1352.6	1.4691e-06	5.3266e-06	1341	364.88	2.3941e-06	4.737e-06	418.24	139.21	120.45	41.588	4.8202e-06	51.449	0.00044867	0.00043755	0.00012045	1360.3	4.7466e-06	4.8224e-06	1357.5	369.64	4.7559e-06	4.6885e-06	422.31	141.55	122.68	42.49	4.7061e-06	52.59	182.900	-101.581	-66.827	-137.761	-69.148	-19.834	-138.108	-133.366	-33.424	7.407	-133.870	-129.936	-129.259	-124.424	-12.130	-125.220	-8191	255	
846.458	1	1	0	0	0.10569	0.053351	0.051474	0.22	0.030432	0.097017	0.12413	0.31211	0.11964	0.22371	0.24612	0.15087	0.092304	0.10554	0.045532	0.14544	-4.2	-4.7604	-3.9354	-4.8208	-4.5708	-3.9896	-5.0146	-4.3292	-4.2812	-4.8042	-4.225	-4.6937	-4.8167	-4.2021	-4.7438	-4.3479	-47.329	-96.965	144.820	-148.700	97.521	-78.499	-150.804	-149.925	-147.086	180.361	94.379	162.722	26.076	170.445	1.656	33.824	0.0004469	0.0008245	0.00017288	1344.3	2.1195e-06	6.7949e-06	1336.6	365.26	5.3773e-06	4.2175e-06	417.06	139.54	120.68	41.573	6.6867e-06	51.461	0.00043963	0.00042369	0.00011694	1356.2	4.5676e-06	4.6218e-06	1355.6	369.13	4.6863e-06	4.6166e-06	421.87	141.64	122.87	42.456	4.6259e-06	52.514	181.331	-91.938	-70.619	-137.722	-52.184	-33.353	-137.749	-133.372	-29.133	5.530	-133.780	-130.359	-129.344	-124.108	-33.029	-125.014	-8191	255	
846.554	1	1	0	0	0.16238	0.094	0.2675	0.055873	0.14194	0.14299	0.1005	0.12956	0.17026	0.068764	0.35453	0.14872	0.19347	0.2111	0.10391	0.18201	-3.9188	-4.8083	-3.8937	-4.5354	-4.675	-4.0458	-5.0042	-4.4104	-4.1042	-5.0083	-4.125	-4.4854	-4.6625	-3.9542	-4.6917	-4.7479	-126.385	52.464	83.788	192.301	-97.243	109.729	164.374	78.370	30.588	-138.655	143.832	131.091	206.744	147.565	184.209	168.185	0.00049537	0.00055698	0.00011213	1348.8	5.7227e-06	2.1749e-06	1339.9	364.73	4.7539e-06	4.7504e-06	418.02	139.3	121.14	41.851	3.3917e-06	51.498	0.00043414	0.00040961	0.00011688	1356.3	4.5604e-06	4.5789e-06	1356	368.86	4.6932e-06	4.5509e-06	421.87	141.62	122.87	42.532	4.6191e-06	52.584	185.203	-21.014	-43.552	-137.741	-12.642	61.312	-138.135	-133.428	-24.596	-33.465	-133.978	-130.392	-129.360	-124.427	-9.881	-124.903	-8191	255	
846.626	1	1	0	0	0.051394	0.17851	0.064128	0.15381	0.33771	0.14585	0.14432	0.1283	0.1034	0.18966	0.26936	0.25331	0.21941	0.053626	0.12952	0.0907	-3.8208	-4.8438	-4.0479	-4.5104	-4.8688	-3.8458	-4.9208	-4.5583	-4.1958	-4.9479	-4.3875	-4.3896	-4.875	-4.1042	-4.7583	-4.6833	164.280	-34.915	73.132	-121.786	125.731	-54.665	155.638	170.639	-15.769	-99.336	130.674	138.545	143.292	40.377	111.215	-113.089	0.00050117	0.00073031	0.00010963	1354.2	3.9884e-06	2.0464e-06	1340.2	365.79	5.06e-06	3.5033e-06	416.44	139.75	120.28	41.64	3.5842e-06	51.361	0.00043666	0.00042249	0.00011729	1360.3	4.6326e-06	4.6195e-06	1356.5	369.06	4.6863e-06	4.5715e-06	421.8	141.77	122.62	42.422	4.6493e-06	52.553	181.465	-43.510	-16.867	-137.952	7.033	8.607	-138.050	-133.284	-71.749	-35.603	-133.809	-129.877	-129.560	-124.262	-44.718	-125.072	-8191	255	
846.722	1	1	0	0	0.15613	0.12276	0.028862	0.044705	0.10155	0.22844	0.10176	0.21957	0.31604	0.14001	0.28284	0.039999	0.097977	0.13444	0.12025	0.042324	-3.7646	-4.8333	-4.2354	-4.2021	-4.8292	-3.9646	-4.8604	-4.8396	-4.0208	-4.7333	-4.3375	-4.4542	-5.0479	-4.0229	-4.4708	-4.7521	-95.187	146.054	139.171	-82.720	193.366	61.722	82.705	-95.995	-23.254	-84.490	142.086	129.775	174.212	190.690	74.623	171.139	0.00045404	0.00059683	0.00013877	1344.6	2.2518e-06	1.4051e-06	1343.6	364.4	3.7546e-06	3.8636e-06	415.24	139.32	120.98	41.809	1.0522e-06	51.529	0.0004313	0.00042373	0.00011561	1355.6	4.6018e-06	4.6238e-06	1356.9	369.17	4.6368e-06	4.5176e-06	421.47	141.44	122.74	42.531	4.6535e-06	52.515	175.352	-18.069	-47.768	-137.640	-33.422	66.444	-138.256	-133.420	-19.440	64.953	-133.993	-130.014	-129.218	-124.486	60.647	-124.815	-8191	255	
846.841	1	1	0	0	0.18433	0.090672	0.17196	0.079074	0.15657	0.075619	0.41503	0.12141	0.068223	0.045844	0.10286	0.30923	0.091749	0.12369	0.37057	0.14158	-3.6625	-4.8313	-4.375	-4.3938	-5.0917	-4.1562	-4.6354	-4.8479	-3.8604	-4.8417	-4.6708	-4.3417	-5.0125	-4.2583	-4.2833	-4.8292	-90.807	-83.736	203.002	15.256	-117.887	-30.046	200.315	68.682	192.361	48.610	79.541	-127.378	182.694	-70.261	54.713	124.577	0.0004504	0.00040295	1.378e-05	1343.8	2.3723e-06	5.4343e-06	1340	364.59	5.8521e-06	1.8483e-06	417.45	139	120.22	41.833	6.4039e-06	51.534	0.00043459	0.00041882	0.00011684	1356	4.5716e-06	4.6064e-06	1356.2	369.18	4.6839e-06	4.6435e-06	422.1	141.46	122.68	42.553	4.6453e-06	52.587	185.018	-70.553	-26.543	-137.829	58.108	4.323	-138.148	-133.542	-46.025	41.065	-133.660	-130.268	-129.423	-124.095	-2.789	-124.859	-8191	255	
846.937	1	1	0	0	0.3017	0.089801	0.055202	0.054873	0.090654	0.15424	0.099897	0.31115	0.16805	0.017593	0.15969	0.08661	0.11915	0.18012	0.17976	0.15171	-3.6333	-4.8458	-4.5938	-4.2333	-4.9708	-4.2771	-4.4	-4.8708	-3.9333	-4.7604	-4.6083	-4.1396	-5.0479	-4.3458	-4.0938	-4.8625	184.860	-91.509	-16.430	-2.027	-83.063	154.718	133.910	-117.166	136.814	-116.984	180.791	103.307	59.263	-33.290	67.008	39.616	0.00049958	0.00073158	0.00013672	1349.5	1.8332e-06	5.95e-06	1337.3	365.72	4.1612e-06	5.0237e-06	417.64	139	120.93	41.505	4.0755e-06	51.556	0.00043561	0.00042214	0.00011603	1357.5	4.6311e-06	4.6104e-06	1355.4	369.19	4.652e-06	4.6305e-06	421.78	141.6	122.8	42.4	4.8389e-06	52.633	187.305	-37.902	-72.712	-138.022	-6.035	-8.612	-138.221	-133.411	-19.680	45.378	-133.607	-129.878	-129.472	-124.426	-27.982	-124.980	-8191	255	
847.033	1	1	0	0	0.2801	0.20721	0.11546	0.10632	0.14256	0.16798	0.10047	0.14911	0.10384	0.15346	0.20855	0.051946	0.12223	0.044119	0.10358	0.12354	-3.7021	-4.5917	-4.7104	-4.1479	-4.9854	-4.1896	-4.375	-4.9667	-4.0833	-4.6188	-4.825	-4.1208	-4.7479	-4.4958	-4.0854	-4.9021	-102.436	-4.471	33.421	185.011	-98.853	104.852	-128.185	-132.782	9.494	10.348	-130.376	58.955	-97.575	191.700	-39.842	151.949	0.00049072	0.0010004	0.00012907	1343.3	3.558e-06	2.2499e-06	1342.8	365.02	2.9967e-06	2.5908e-06	417.15	138.82	120.76	41.738	3.8932e-06	51.563	0.0004354	0.00042959	0.00011785	1356.4	4.6727e-06	4.6305e-06	1357.2	369.31	4.7534e-06	4.6412e-06	421.32	141.35	122.8	42.464	4.8104e-06	52.634	181.268	-63.354	-85.905	-137.775	-19.689	-74.895	-138.328	-133.478	-20.246	27.214	-133.681	-129.848	-129.553	-124.298	-6.175	-124.871	-8191	255	
847.129	1	1	0	0	0.028859	0.21119	0.15139	0.17686	0.12085	0.2106	0.16406	0.20933	0.11911	0.23982	0.30013	0.21408	0.19666	0.1077	0.16052	0.17311	-3.925	-4.2625	-4.7708	-4.2333	-4.7771	-4.5125	-4.3083	-4.9333	-4.1417	-4.4271	-4.9938	-4.0354	-4.8021	-4.7	-4.0479	-4.9208	17.123	-29.159	-23.582	179.340	-79.059	106.463	133.840	68.630	-36.064	-17.014	121.329	71.315	180.370	26.944	-77.080	202.218	0.00054617	0.00099206	0.00014743	1346	1.2485e-06	4.0554e-06	1340	364.63	9.6842e-07	5.156e-06	416.4	138.64	120.84	41.893	4.1346e-06	51.457	0.00043234	0.00042709	0.00011663	1357.4	4.6067e-06	4.5638e-06	1357.1	369.3	4.633e-06	4.6406e-06	421.8	141.46	122.91	42.567	4.7672e-06	52.596	174.819	-95.268	-63.512	-138.108	-77.100	-4.541	-138.250	-133.383	-19.651	-14.263	-133.772	-130.172	-129.465	-123.980	-34.482	-125.057	-8191	255	
847.225	1	1	0	0	0.039659	0.17191	0.20478	0.24156	0.13096	0.068426	0.26056	0.096124	0.082061	0.0050241	0.21061	0.10168	0.013757	0.058773	0.031576	0.28299	-3.8833	-4.2083	-4.9396	-4.0458	-4.6229	-4.4375	-4.1479	-5.0583	-4.1542	-4.325	-4.8562	-4.2188	-4.7792	-4.6646	-3.9062	-5.0208	26.991	10.608	-5.158	104.553	103.831	-66.311	145.242	73.787	-37.914	-41.575	-97.874	174.869	-94.708	121.099	7.013	207.594	0.00043481	0.00056375	0.00015565	1348	4.3737e-06	2.7444e-06	1338.6	364.74	2.8044e-06	5.0053e-06	417.54	138.51	120.78	41.597	3.5838e-06	51.392	0.00044194	0.00042734	0.00011676	1356.4	4.6067e-06	4.5926e-06	1355.1	369.36	4.6355e-06	4.6226e-06	422.11	141.41	122.93	42.47	4.7241e-06	52.503	178.803	-18.321	-65.005	-137.821	-26.694	-17.282	-138.253	-133.402	-69.548	8.018	-133.851	-129.929	-129.575	-124.351	10.568	-124.939	-8191	255	
847.321	1	1	0	0	0.17652	0.12216	0.24457	0.13987	0.29393	0.16141	0.18301	0.040806	0.27458	0.082918	0.11063	0.08862	0.36381	0.023358	0.078288	0.1427	-3.8771	-4.1208	-4.8562	-4.3187	-4.6542	-4.5333	-4.2021	-4.9542	-4.3875	-4.2521	-5.0458	-4.2479	-4.5563	-4.8646	-3.875	-4.9021	89.017	195.623	167.255	16.782	133.478	110.386	181.000	-94.990	8.327	16.816	132.130	22.300	145.864	-8.577	131.146	-24.911	0.00043568	0.00035117	0.0001812	1348.1	2.8457e-06	3.9546e-06	1342.7	365.24	3.3645e-06	3.6734e-06	417.14	138.62	120.55	41.831	1.6044e-06	51.347	0.00043182	0.00042417	0.00011736	1357.2	4.6514e-06	4.5608e-06	1356.8	369.22	4.6462e-06	4.6481e-06	421.66	141.43	122.86	42.514	4.7192e-06	52.483	178.518	-48.139	-29.804	-137.804	-32.301	5.291	-138.218	-133.456	-63.418	-52.885	-133.727	-129.951	-129.775	-124.405	163.594	-125.147	-8191	255	
847.417	1	1	0	0	0.11214	0.092113	0.13332	0.18073	0.10362	0.1599	0.0063696	0.044015	0.15478	0.11563	0.2219	0.1148	0.21285	0.25174	0.13981	0.078064	-4.1167	-4.1875	-4.9604	-4.2542	-4.4167	-5.0146	-4.1396	-5.0312	-4.5917	-4.2125	-5.1542	-4.2271	-4.5271	-4.9583	-3.8937	-4.9604	124.307	17.022	165.842	126.133	-44.184	201.049	100.886	-71.108	93.697	-45.610	179.431	38.695	-52.627	-102.239	110.116	162.932	0.0004849	0.00052835	0.00014826	1351.1	3.0001e-06	3.0417e-06	1342.6	364.25	5.2466e-06	2.7242e-06	418.26	138.96	120.59	41.804	1.0789e-06	51.384	0.00043087	0.0004175	0.00011468	1357.9	4.6221e-06	4.4755e-06	1355.9	369.21	4.6082e-06	4.5333e-06	422.15	141.14	122.72	42.511	4.6167e-06	52.52	181.757	-84.641	-27.612	-137.775	-26.720	7.612	-138.085	-133.611	-33.665	-24.621	-133.790	-129.837	-129.295	-124.512	-30.601	-125.149	-8191	255	
847.538	1	1	0	0	0.032251	0.26801	0.18683	0.12959	0.18462	0.041768	0.25601	0.13024	0.1472	0.17013	0.14138	0.16511	0.041906	0.10955	0.059919	0.10547	-4.3229	-3.9562	-4.9563	-4.3792	-4.2104	-4.9083	-4.1646	-4.8208	-4.7583	-4	-5.1104	-4.3271	-4.3292	-4.9812	-3.9938	-4.5813	179.967	-111.549	-54.966	174.377	29.530	-26.853	-137.715	185.073	83.994	59.061	-150.217	23.585	-96.363	201.952	-36.803	-94.749	0.00049233	0.00065742	0.00015859	1352.3	5.9234e-06	3.5823e-06	1342.8	363.75	3.7291e-06	7.3746e-06	417.78	138.88	120.46	41.724	2.9531e-06	51.656	0.00041685	0.00041993	0.00011536	1359.1	4.6038e-06	4.5162e-06	1358.2	369.27	4.6242e-06	4.6419e-06	422.22	141.34	122.75	42.469	4.709e-06	52.599	184.967	-37.353	-18.161	-137.899	2.945	-39.871	-138.247	-133.418	-48.108	-10.989	-133.736	-129.959	-129.428	-124.521	-32.546	-125.036	-8191	255	
847.634	1	1	0	0	0.29003	0.038915	0.066413	0.091961	0.22094	0.10512	0.19777	0.24729	0.094608	0.068391	0.12482	0.35517	0.21283	0.16895	0.084495	0.25819	-4.2729	-4.1125	-4.725	-4.6583	-4.1292	-4.9521	-4.3146	-4.6167	-4.65	-3.8854	-4.9146	-4.4958	-4.1917	-4.9771	-3.9188	-4.425	-112.846	21.076	139.165	206.817	45.372	117.429	173.752	180.799	-77.536	153.209	200.286	-147.920	40.097	-120.332	0.657	190.345	0.00045642	0.00041923	0.00011824	1349.3	2.8788e-06	6.3558e-06	1344.8	365.24	1.7463e-06	3.1171e-06	416.17	138.9	121.04	41.757	3.2518e-06	51.408	0.00043322	0.00042076	0.00011764	1358.8	4.6735e-06	4.5835e-06	1358.8	369.53	4.6107e-06	4.6036e-06	422.04	141.49	122.89	42.475	4.7218e-06	52.611	177.470	-34.361	-32.442	-137.920	-88.251	-8.991	-138.227	-133.524	-36.119	-9.755	-133.780	-129.905	-129.517	-124.281	-14.595	-125.446	-8191	255	
847.730	1	1	0	0	0.11679	0.25626	0.23891	0.2431	0.13625	0.21487	0.23672	0.24478	0.044936	0.17081	0.098339	0.071171	0.09174	0.2491	0.262	0.055116	-4.5083	-3.9604	-4.8187	-4.5125	-3.9854	-4.8604	-4.3042	-4.3521	-4.9208	-3.9583	-4.7146	-4.6667	-4.0396	-5.0771	-4.1687	-4.4437	122.111	12.684	101.875	37.875	119.030	175.777	99.348	127.960	58.958	-9.655	158.735	126.385	-59.861	30.871	-100.166	94.661	0.00044506	0.00047664	0.0001436	1352.6	4.5172e-06	2.404e-06	1341.4	366.28	4.7072e-06	4.7123e-06	416.79	138.85	120.61	41.88	1.4056e-06	51.44	0.00043054	0.0004276	0.00011797	1359.3	4.7155e-06	4.7283e-06	1359.8	370.63	4.7097e-06	4.7352e-06	422.97	141.44	122.9	42.588	4.7528e-06	52.668	179.648	-18.191	-36.240	-137.678	-10.671	-81.505	-138.180	-133.604	-26.884	-12.017	-133.914	-130.022	-129.439	-124.400	-48.013	-125.220	-8191	255	
847.827	1	1	0	0	0.14156	0.24354	0.11612	0.1321	0.31239	0.044818	0.3311	0.12348	0.13337	0.29838	0.13854	0.17237	0.23046	0.29002	0.14102	0.085918	-4.7896	-3.8792	-4.5292	-4.8917	-3.9521	-4.7646	-4.3562	-4.2354	-4.9	-3.9896	-4.5833	-4.8646	-4.0146	-4.9229	-4.4396	-4.2125	-43.068	54.184	173.607	170.032	-111.341	44.576	122.831	86.905	168.638	131.048	-19.030	115.691	151.576	-133.081	-23.972	103.584	0.00043483	0.00045563	0.00010298	1352.7	3.2029e-06	4.9545e-06	1342.5	365.14	5.6458e-06	1.3003e-06	417.58	138.71	120.4	41.862	3.0732e-06	51.493	0.00043599	0.00043252	0.0001192	1361.7	4.7922e-06	4.8133e-06	1360.3	369.35	4.7807e-06	4.8306e-06	422.98	141.58	122.83	42.556	4.7793e-06	52.615	186.293	-66.738	-2.137	-137.905	-10.999	28.786	-138.081	-133.579	-51.975	83.533	-133.904	-130.046	-129.306	-124.345	-36.701	-124.971	-8191	255	
847.923	1	1	0	0	0.22594	0.2019	0.060594	0.14994	0.30189	0.15551	0.10476	0.074849	0.14207	0.078537	0.029506	0.094958	0.22487	0.19709	0.082107	0.13837	-4.6021	-3.9813	-4.4021	-4.9458	-3.9583	-4.8083	-4.6125	-4.2208	-4.9979	-4.0458	-4.7417	-5.0271	-4.1896	-4.8667	-4.5396	-4.2292	118.015	8.500	-46.549	181.289	184.644	22.367	134.737	19.643	93.735	8.165	151.977	204.166	-52.709	-66.694	152.289	69.940	0.00045389	0.00055805	0.00011626	1354.2	3.9104e-06	6.0535e-06	1342.1	365.93	6.7521e-06	5.6979e-06	420.21	139.41	120.71	41.798	3.9626e-06	51.305	0.00044037	0.00043376	0.0001204	1362.7	4.8352e-06	4.7605e-06	1359.7	370.3	4.8228e-06	4.6922e-06	423.38	141.58	122.94	42.595	4.7888e-06	52.695	179.430	-19.128	-49.260	-137.906	-36.770	0.526	-138.050	-133.664	-45.237	-11.673	-133.884	-130.015	-129.586	-124.452	-4.423	-125.241	-8191	255	
848.017	1	1	0	0	0.1279	0.1497	0.081993	0.34876	0.22689	0.12173	0.2418	0.38378	0.041677	0.053425	0.1483	0.23798	0.066654	0.21367	0.19203	0.20208	-4.7083	-4.0062	-4.2521	-5.1146	-4.1292	-4.6583	-4.7833	-4.0854	-4.9458	-4.3125	-4.3292	-5.0354	-4.1438	-4.8375	-4.6687	-4.1792	10.735	192.067	112.964	175.252	-47.430	-58.743	142.885	130.197	-93.892	53.381	-121.617	152.268	-53.278	-133.262	130.885	128.374	0.00043767	0.00075352	9.6553e-05	1353.3	4.2845e-06	4.2184e-06	1343.9	363.62	2.2674e-06	2.9543e-06	416.93	138.87	120.94	41.862	3.2422e-06	51.609	0.00044575	0.00043346	0.00012036	1362.2	4.8657e-06	4.8029e-06	1360.1	369.29	4.8275e-06	4.7743e-06	422.62	141.53	123.01	42.545	4.7726e-06	52.635	175.760	-60.139	-78.230	-137.791	8.017	-32.594	-138.211	-133.562	-56.860	-82.530	-133.808	-130.057	-129.360	-124.542	-30.562	-124.821	-8191	255	
848.138	1	1	0	0	0.099323	0.085404	0.04338	0.13637	0.079897	0.056376	0.092417	0.12447	0.13473	0.13185	0.23752	0.040222	0.04055	0.24423	0.13789	0.27559	-4.7479	-4.3063	-4.1042	-4.9458	-4.0979	-4.6521	-4.9	-4.1396	-4.9104	-4.3604	-4.2792	-5.125	-4.3417	-4.6479	-4.7729	-4.1354	-50.968	-52.686	34.614	172.971	27.904	-151.211	170.263	173.556	-95.531	60.974	191.615	50.050	25.725	-146.212	-74.103	192.391	0.00046175	0.00051639	0.00012298	1350	5.0893e-06	5.2715e-06	1346.3	366.14	2.3622e-06	3.0332e-06	415.56	138.89	120.13	41.767	5.5968e-06	51.396	0.00043719	0.00043346	0.00012185	1360.9	4.7718e-06	4.7216e-06	1358.8	369.9	4.7595e-06	4.6712e-06	421.93	141.68	122.76	42.544	4.7671e-06	52.471	182.530	-96.180	-60.551	-137.744	16.523	-12.024	-138.112	-133.333	-50.725	-10.480	-133.835	-129.978	-129.257	-124.342	15.356	-125.304	-8191	255	
848.234	1	1	0	0	0.14735	0.14917	0.13573	0.089173	0.12639	0.15599	0.084215	0.14103	0.10568	0.25605	0.18996	0.30056	0.1333	0.10193	0.15697	0.11697	-4.6229	-4.5458	-4.0083	-5.0687	-4.175	-4.5125	-5.0083	-4.1396	-4.7167	-4.65	-4.0833	-5.0625	-4.4208	-4.35	-4.8521	-4.0542	-1.323	119.102	-124.742	112.649	194.505	93.961	131.016	-147.010	43.399	136.769	-145.149	164.417	165.440	113.421	43.301	-0.328	0.00041707	0.00038351	0.00011721	1355.5	3.5179e-06	4.2066e-06	1347	364.21	5.1895e-06	3.4952e-06	417.62	139.12	120.39	41.756	3.4285e-06	51.267	0.00043623	0.00043039	0.00012113	1362.8	4.6875e-06	4.7316e-06	1361	369.89	4.7535e-06	4.6438e-06	422.82	141.54	122.63	42.51	4.7382e-06	52.515	174.421	-25.001	37.089	-137.771	-17.543	-19.096	-138.287	-133.470	-25.587	51.795	-133.774	-130.010	-129.100	-124.246	-63.628	-124.998	-8191	255	
848.330	1	1	0	0	0.34153	0.19642	0.13273	0.19058	0.18931	0.12709	0.14345	0.1417	0.25419	0.16205	0.12656	0.38431	0.10657	0.088175	0.18691	0.078482	-4.525	-4.6375	-3.9917	-5.2021	-4.2458	-4.1896	-5.1083	-4.0625	-4.5667	-4.7354	-4.1083	-4.9396	-4.4563	-4.3375	-4.8521	-4.3063	-40.161	181.200	-49.792	162.140	137.773	76.878	36.199	111.990	-45.480	63.512	111.995	144.645	-149.104	-112.134	-87.597	164.817	0.00051123	0.00050548	0.00010755	1354.6	2.5473e-06	5.0523e-06	1346.4	364.39	4.4976e-06	3.4964e-06	417.81	139.31	120.57	41.597	4.7426e-06	51.434	0.00043512	0.00042709	0.00011881	1362.5	4.7718e-06	4.7538e-06	1360.5	369.59	4.7176e-06	4.6795e-06	422.93	141.59	122.71	42.482	4.7629e-06	52.608	178.197	-90.144	-47.672	-137.888	-73.979	-7.483	-138.235	-133.532	-19.961	-35.953	-133.846	-130.029	-129.379	-124.436	-7.609	-124.950	-8191	255	
848.426	1	1	0	0	0.21181	0.040177	0.19802	0.10416	0.1805	0.072052	0.20876	0.13743	0.11657	0.24415	0.16687	0.17132	0.15061	0.21556	0.1207	0.12163	-4.3396	-4.6604	-4.0375	-5.0354	-4.2979	-4.1083	-5.3021	-4.2479	-4.5333	-4.8812	-4.0375	-4.7833	-4.5458	-4.2708	-4.9229	-4.2646	81.580	96.179	-54.954	201.074	25.530	-23.724	70.493	165.920	121.335	-88.049	176.705	180.754	169.463	109.402	-137.404	90.096	0.00041844	0.00058172	0.00010472	1346.1	3.3245e-06	6.4234e-06	1346.7	363.4	4.9398e-06	7.7368e-06	419.02	138.54	120.74	41.687	3.4868e-06	51.29	0.00043489	0.0004226	0.00011865	1358.4	4.6679e-06	4.6295e-06	1361.5	369.02	4.7197e-06	4.6134e-06	422.67	141.6	122.78	42.454	4.674e-06	52.529	180.603	-20.117	-70.954	-137.677	-32.160	-0.111	-138.198	-133.522	-53.857	6.796	-134.079	-130.163	-129.555	-124.440	-5.180	-125.002	-8191	255	
848.522	1	1	0	0	0.039943	0.033296	0.12278	0.16737	0.15908	0.1197	0.052443	0.14925	0.32527	0.1159	0.2676	0.27663	0.094034	0.34538	0.071058	0.046328	-4.1896	-4.9563	-3.9417	-4.8104	-4.5917	-3.9729	-5.0104	-4.2875	-4.3146	-4.8354	-4.1354	-4.7021	-4.55	-4.225	-4.8583	-4.4292	31.966	-70.663	134.609	151.105	122.846	86.605	-142.442	-24.779	-124.046	-35.639	171.369	-144.516	139.528	-95.187	195.869	206.780	0.00047938	0.00051357	0.00014026	1352.6	5.0175e-06	2.0014e-06	1345.9	365.69	5.8971e-06	7.7008e-06	418.69	138.98	120.74	41.749	3.0245e-06	51.086	0.00043917	0.00042447	0.00011868	1360.7	4.6724e-06	4.73e-06	1360.4	369.68	4.7395e-06	4.5945e-06	422.5	141.48	122.84	42.495	4.7231e-06	52.482	177.772	-18.500	-64.384	-137.868	-24.025	18.958	-138.109	-133.490	-34.383	-12.393	-133.851	-130.033	-129.315	-124.246	5.986	-125.115	-8191	255	
#DATA ENDS
