BOXY.EXE: ISS Imagent and Oximeter Data Acquisition Program Version 0.80
Ascii Record File

#ACQ INFORMATION
2  Detector Channels 
16  External MUX Channels 
1  Auxiliary Channels 
5000  Waveform (CCF) Frequency (Hz)
1  Waveforms Skipped 
30  Waveforms Averaged 
1  Cycles Averaged 
16  Acquisitions per Waveform 
10.0806  Updata Rate (Hz) 

#FILE INFORMATION
TRUE -- External MUX Channel results are PARSED.
FALSE -- AC DC and Phase are NOT grouped.
TRUE -- Companion Program Settings File CREATED.
FALSE -- AC data not excluded
FALSE -- DC data not excluded
FALSE -- Phase data not excluded
FALSE -- Auxillary Chn. data not excluded
Tab delimiters

#CALIBRATION STATE
TRUE -- Waveform Calibration Values APPLIED.


#AUX CALIBRATION VALUES
Val Type	aux-1	

Term	1.0000e+00	
Factor	0.0000e+00	


#WF CALIBRATION VALUES
A = Detector Channel
Val Type	A-AC1	A-AC2	A-AC3	A-AC4	A-AC5	A-AC6	A-AC7	A-AC8	A-AC9	A-AC10	A-AC11	A-AC12	A-AC13	A-AC14	A-AC15	A-AC16	A-DC1	A-DC2	A-DC3	A-DC4	A-DC5	A-DC6	A-DC7	A-DC8	A-DC9	A-DC10	A-DC11	A-DC12	A-DC13	A-DC14	A-DC15	A-DC16	A-Ph1	A-Ph2	A-Ph3	A-Ph4	A-Ph5	A-Ph6	A-Ph7	A-Ph8	A-Ph9	A-Ph10	A-Ph11	A-Ph12	A-Ph13	A-Ph14	A-Ph15	A-Ph16	

Term	0.00000e+00	0.00000e+00	0.00000e+00	0.00000e+00	0.00000e+00	0.00000e+00	0.00000e+00	0.00000e+00	0.00000e+00	0.00000e+00	0.00000e+00	0.00000e+00	0.00000e+00	0.00000e+00	0.00000e+00	0.00000e+00	0.00000e+00	0.00000e+00	0.00000e+00	0.00000e+00	0.00000e+00	0.00000e+00	0.00000e+00	0.00000e+00	0.00000e+00	0.00000e+00	0.00000e+00	0.00000e+00	0.00000e+00	0.00000e+00	0.00000e+00	0.00000e+00	0.00000e+00	0.00000e+00	0.00000e+00	0.00000e+00	0.00000e+00	0.00000e+00	0.00000e+00	0.00000e+00	0.00000e+00	0.00000e+00	0.00000e+00	0.00000e+00	0.00000e+00	0.00000e+00	0.00000e+00	0.00000e+00	
Factor	1.00000e+00	1.00000e+00	1.00000e+00	1.00000e+00	1.00000e+00	1.00000e+00	1.00000e+00	1.00000e+00	1.00000e+00	1.00000e+00	1.00000e+00	1.00000e+00	1.00000e+00	1.00000e+00	1.00000e+00	1.00000e+00	1.00000e+00	1.00000e+00	1.00000e+00	1.00000e+00	1.00000e+00	1.00000e+00	1.00000e+00	1.00000e+00	1.00000e+00	1.00000e+00	1.00000e+00	1.00000e+00	1.00000e+00	1.00000e+00	1.00000e+00	1.00000e+00	X	X	X	X	X	X	X	X	X	X	X	X	X	X	X	X	

B = Detector Channel
Val Type	B-AC1	B-AC2	B-AC3	B-AC4	B-AC5	B-AC6	B-AC7	B-AC8	B-AC9	B-AC10	B-AC11	B-AC12	B-AC13	B-AC14	B-AC15	B-AC16	B-DC1	B-DC2	B-DC3	B-DC4	B-DC5	B-DC6	B-DC7	B-DC8	B-DC9	B-DC10	B-DC11	B-DC12	B-DC13	B-DC14	B-DC15	B-DC16	B-Ph1	B-Ph2	B-Ph3	B-Ph4	B-Ph5	B-Ph6	B-Ph7	B-Ph8	B-Ph9	B-Ph10	B-Ph11	B-Ph12	B-Ph13	B-Ph14	B-Ph15	B-Ph16	

Term	0.00000e+00	0.00000e+00	0.00000e+00	0.00000e+00	0.00000e+00	0.00000e+00	0.00000e+00	0.00000e+00	0.00000e+00	0.00000e+00	0.00000e+00	0.00000e+00	0.00000e+00	0.00000e+00	0.00000e+00	0.00000e+00	0.00000e+00	0.00000e+00	0.00000e+00	0.00000e+00	0.00000e+00	0.00000e+00	0.00000e+00	0.00000e+00	0.00000e+00	0.00000e+00	0.00000e+00	0.00000e+00	0.00000e+00	0.00000e+00	0.00000e+00	0.00000e+00	-1.50286e+02	-1.28179e+02	-1.21349e+02	-1.82838e+02	-7.38202e+01	-6.86517e+01	-1.55822e+02	-1.62015e+02	-7.29113e+01	-6.79823e+01	-1.70826e+02	-1.70724e+02	-1.80370e+02	-1.76266e+02	-6.49426e+01	-1.48473e+02	
Factor	2.23038e-05	1.70172e-04	3.80664e-05	2.18512e-01	1.33480e-06	1.47544e-06	1.70849e-01	6.06101e-02	1.17230e-06	1.44139e-06	8.98913e-02	2.97864e-02	2.76328e-02	9.32721e-03	1.30128e-06	1.34466e-02	3.00195e-06	3.32187e-06	9.25624e-07	1.11221e-01	3.61816e-08	3.65802e-08	8.21001e-02	3.10359e-02	3.62532e-08	3.66873e-08	4.44963e-02	1.48016e-02	1.42663e-02	4.80361e-03	3.65987e-08	6.70235e-03	X	X	X	X	X	X	X	X	X	X	X	X	X	X	X	X	



#DISTANCE SETTINGS
A = Detector Channel
A-1	A-2	A-3	A-4	A-5	A-6	A-7	A-8	A-9	A-10	A-11	A-12	A-13	A-14	A-15	A-16	

2.5000e+00	3.0000e+00	2.5000e+00	3.0000e+00	2.0000e+00	3.0000e+00	1.5000e+00	3.0000e+00	3.0000e+00	3.0000e+00	3.0000e+00	3.0000e+00	3.0000e+00	3.0000e+00	1.5000e+00	3.0000e+00	

B = Detector Channel
B-1	B-2	B-3	B-4	B-5	B-6	B-7	B-8	B-9	B-10	B-11	B-12	B-13	B-14	B-15	B-16	

1.0000e+01	1.0000e+01	1.0000e+01	1.4400e+00	1.0000e+01	1.0000e+01	1.5100e+00	1.9400e+00	1.0000e+01	1.0000e+01	1.9900e+00	2.4900e+00	2.4100e+00	2.9000e+00	1.0000e+01	2.9800e+00	




#DATA BEGINS
time	group	step	mark	flag	A-AC1	A-AC2	A-AC3	A-AC4	A-AC5	A-AC6	A-AC7	A-AC8	A-AC9	A-AC10	A-AC11	A-AC12	A-AC13	A-AC14	A-AC15	A-AC16	A-DC1	A-DC2	A-DC3	A-DC4	A-DC5	A-DC6	A-DC7	A-DC8	A-DC9	A-DC10	A-DC11	A-DC12	A-DC13	A-DC14	A-DC15	A-DC16	A-Ph1	A-Ph2	A-Ph3	A-Ph4	A-Ph5	A-Ph6	A-Ph7	A-Ph8	A-Ph9	A-Ph10	A-Ph11	A-Ph12	A-Ph13	A-Ph14	A-Ph15	A-Ph16	B-AC1	B-AC2	B-AC3	B-AC4	B-AC5	B-AC6	B-AC7	B-AC8	B-AC9	B-AC10	B-AC11	B-AC12	B-AC13	B-AC14	B-AC15	B-AC16	B-DC1	B-DC2	B-DC3	B-DC4	B-DC5	B-DC6	B-DC7	B-DC8	B-DC9	B-DC10	B-DC11	B-DC12	B-DC13	B-DC14	B-DC15	B-DC16	B-Ph1	B-Ph2	B-Ph3	B-Ph4	B-Ph5	B-Ph6	B-Ph7	B-Ph8	B-Ph9	B-Ph10	B-Ph11	B-Ph12	B-Ph13	B-Ph14	B-Ph15	B-Ph16	aux-1	digaux	

908.663	1	1	0	256	0.145	0.14764	0.076242	0.20867	0.085119	0.11049	0.29139	0.32793	0.11469	0.043598	0.12198	0.13848	0.071376	0.16977	0.13606	0.18543	-3.7708	-4.5521	-4.625	-3.9479	-4.8104	-4.2688	-4.3063	-4.8375	-3.9354	-4.3917	-4.7229	-3.7854	-4.6958	-4.3333	-3.9688	-4.8354	-32.166	9.723	24.990	-100.906	46.394	187.545	124.214	93.595	-17.859	181.375	-104.485	-143.425	135.119	-92.009	120.978	172.679	0.00021321	0.00038784	7.2942e-05	990.68	2.1514e-06	5.6964e-06	1083.1	203.88	1.7585e-06	3.128e-06	260.94	74.344	57.787	17.386	1.6875e-06	24.389	0.00010125	8.1663e-05	2.2327e-05	963.21	9.5836e-07	8.969e-07	1063.9	199.92	9.9855e-07	9.5479e-07	256.25	73.808	57.164	17.283	1.1265e-06	24.4	195.046	-41.070	-66.950	-134.501	-7.287	8.346	-134.504	-126.767	-24.707	-17.897	-127.216	-121.094	-120.535	-112.605	10.370	-112.691	-8191	255	
908.760	1	1	0	0	0.059985	0.023463	0.21491	0.1326	0.19214	0.13415	0.11834	0.04165	0.1625	0.33105	0.17105	0.3161	0.15612	0.052785	0.096959	0.15892	-3.7708	-4.2979	-4.6792	-3.9792	-4.5708	-4.2937	-4.1042	-4.9833	-4.0708	-4.2917	-4.6875	-3.75	-4.6	-4.5563	-3.8688	-4.8063	-120.143	91.026	0.705	141.697	-51.864	-60.863	-100.930	-128.392	40.970	28.225	15.537	163.397	109.304	-76.935	-120.142	-70.308	0.00020123	0.00027531	5.1463e-05	993.11	4.8776e-06	1.912e-06	1085.6	203.51	2.2787e-06	1.0604e-06	263.33	74.905	58.132	17.505	2.2963e-06	24.512	0.00011215	9.9449e-05	2.7755e-05	966.65	1.1626e-06	1.1053e-06	1067.7	200.09	1.209e-06	1.1174e-06	257.98	74.356	57.547	17.346	1.185e-06	24.537	184.102	-44.131	-43.762	-134.389	-4.469	9.745	-134.602	-126.865	-68.459	-4.995	-127.256	-121.172	-120.645	-112.101	-1.358	-112.429	-8191	255	
908.856	1	1	0	0	0.084721	0.16632	0.10937	0.3114	0.191	0.14532	0.24734	0.11781	0.22959	0.092286	0.14278	0.14452	0.075974	0.15513	0.047618	0.26291	-3.7188	-4.2854	-4.6937	-3.9875	-4.4958	-4.5708	-4.0292	-4.7312	-4.2229	-4.2083	-4.6646	-3.9938	-4.3583	-4.5875	-4.0062	-4.7458	-17.738	80.481	101.351	104.353	-9.735	-14.875	93.593	-100.653	-94.861	-98.897	-135.130	-121.033	47.957	-102.662	-37.741	155.429	0.00021737	0.00038741	6.331e-05	1002.4	1.0343e-06	1.0725e-06	1093.9	205.39	1.4157e-06	2.9441e-06	263.22	74.728	58.119	17.394	9.9321e-07	24.435	0.00011873	0.00010296	2.8523e-05	973.28	1.1552e-06	1.1127e-06	1074.3	201.32	1.1873e-06	1.1659e-06	258.42	74.348	57.575	17.386	1.1702e-06	24.484	178.328	-49.837	-103.261	-134.294	32.320	-13.981	-134.246	-126.810	-105.823	-15.859	-127.228	-121.063	-120.149	-111.949	-38.144	-113.100	-8191	255	
908.952	1	1	0	0	0.11338	0.27884	0.10052	0.24002	0.041967	0.30813	0.35384	0.23754	0.24669	0.24986	0.12035	0.1775	0.073329	0.16818	0.062139	0.023751	-3.9	-4.1083	-4.7188	-4.1271	-4.45	-4.5146	-4.1271	-4.8729	-4.25	-4.2271	-4.9792	-4.0042	-4.1458	-4.8292	-3.8729	-4.6896	119.475	-106.562	-67.357	118.029	94.303	-8.793	169.723	-100.154	187.783	72.648	47.157	104.474	162.326	-114.645	124.761	-55.900	0.00017624	0.0002257	3.4503e-05	999.58	3.0331e-06	2.1913e-06	1095.6	204.74	1.2556e-06	1.8525e-06	264.52	75.063	58.415	17.347	1.5569e-06	24.538	0.00011569	0.00010503	2.8318e-05	974.4	1.1987e-06	1.1017e-06	1074	201.22	1.1095e-06	1.1278e-06	259.21	74.483	57.659	17.35	1.2205e-06	24.503	182.483	-67.867	11.891	-134.370	-43.870	-2.255	-134.308	-126.453	-20.453	9.530	-126.824	-120.783	-119.882	-112.289	8.983	-113.020	-8191	255	
909.046	1	1	0	0	0.039159	0.14589	0.09732	0.1697	0.23519	0.1686	0.25658	0.075433	0.049091	0.017077	0.19992	0.1197	0.14659	0.042823	0.19617	0.19638	-4.1271	-3.975	-4.6958	-4.1375	-4.1875	-4.7042	-4.0062	-4.6229	-4.2854	-4.0833	-4.9854	-4.0958	-4.3104	-4.925	-3.9437	-4.6208	-66.885	47.508	151.782	159.109	-83.904	34.021	195.068	-113.917	133.779	-117.339	196.560	-12.650	195.142	-28.615	30.728	140.508	0.00018538	0.00034879	2.5202e-05	996.45	2.5915e-06	2.191e-06	1097.5	205.19	1.0114e-06	4.3026e-06	263.94	75.151	58.42	17.4	1.7323e-06	24.313	0.00011348	0.00011013	3.0268e-05	972.35	1.2085e-06	1.1559e-06	1074.3	201.41	1.1643e-06	1.1878e-06	258.99	74.554	57.715	17.35	1.1499e-06	24.43	182.209	-38.576	-108.585	-134.045	-39.557	-12.698	-134.198	-126.846	-35.077	19.385	-126.798	-120.878	-120.541	-112.421	-12.122	-113.150	-8191	255	
909.144	1	1	0	0	0.087553	0.27227	0.0026354	0.14684	0.085877	0.050983	0.17818	0.13622	0.1615	0.13697	0.22491	0.14533	0.18569	0.06543	0.13137	0.099494	-4.2688	-4.0708	-4.7646	-4.3167	-4.1562	-4.7479	-4.1729	-4.6396	-4.375	-3.9813	-4.8792	-4.2375	-4.0917	-4.7229	-3.9875	-4.4375	133.065	1.791	174.689	73.363	-84.943	169.910	126.802	38.419	163.261	-137.413	139.701	3.815	210.436	-126.643	112.906	79.863	0.00021452	0.00055956	8.829e-05	1006.4	3.6939e-06	3.815e-06	1094.6	206.28	2.9576e-06	1.5968e-06	264.83	75.062	57.871	17.444	2.7021e-06	24.752	0.00011349	0.00010504	2.8295e-05	976.23	1.1702e-06	1.0733e-06	1073.7	201.61	1.1145e-06	1.113e-06	259.44	74.486	57.533	17.388	1.1572e-06	24.595	175.883	-57.931	-39.127	-134.436	-6.505	10.794	-134.374	-127.116	-28.893	47.057	-126.975	-120.987	-120.745	-112.323	-8.393	-113.178	-8191	255	
909.263	1	1	0	0	0.24093	0.029504	0.221	0.038701	0.12718	0.1703	0.11351	0.063586	0.1119	0.19576	0.21129	0.1278	0.2377	0.15753	0.11442	0.17691	-4.3	-3.8958	-4.4938	-4.2792	-3.7979	-4.7104	-4.2396	-4.4354	-4.8896	-3.6271	-4.8542	-4.4771	-4.0042	-5.05	-3.9396	-4.2271	-32.207	-63.194	12.960	-33.934	55.257	208.004	118.332	178.620	112.775	66.674	-141.646	-106.389	172.299	-140.768	78.361	159.180	0.00019257	0.00029265	0.00011134	1004.6	3.9275e-06	2.6645e-06	1100.7	205.47	3.3534e-06	2.229e-06	265.22	74.77	58.419	17.481	2.2638e-06	24.614	0.00011621	0.00010579	2.8719e-05	977.04	1.233e-06	1.1364e-06	1077.3	201.84	1.2549e-06	1.329e-06	260.03	74.487	57.939	17.424	1.3588e-06	24.659	187.486	-56.604	-51.759	-134.131	-18.356	20.314	-134.236	-126.238	-21.915	51.230	-126.898	-120.957	-120.250	-112.559	-0.528	-112.519	-8191	255	
909.359	1	1	0	0	0.16591	0.033503	0.07841	0.14943	0.14514	0.082121	0.059633	0.2598	0.13388	0.17318	0.12573	0.17467	0.022917	0.19625	0.037956	0.16092	-4.4521	-3.8833	-4.6146	-4.55	-4.0104	-4.8333	-4.2667	-4.1833	-4.9625	-3.8458	-4.5833	-4.7583	-4.075	-4.8771	-4.0667	-4.1917	-10.566	213.202	-62.804	153.348	-51.552	177.714	92.246	-122.311	-51.060	12.017	192.573	3.442	-62.755	-117.317	-47.990	120.001	0.0001774	0.000593	6.7215e-05	1013.6	2.4072e-06	2.3499e-06	1107.1	207.85	2.2599e-06	3.0221e-06	266.24	75.454	58.675	17.513	3.2062e-06	24.649	0.00013339	0.00012429	3.4555e-05	985.38	1.454e-06	1.3549e-06	1087.5	203.95	1.3869e-06	1.3531e-06	261.21	75.102	58.259	17.559	1.4322e-06	24.697	184.687	-57.002	-83.131	-134.232	-1.905	23.680	-134.132	-126.972	0.459	48.466	-126.977	-120.782	-120.516	-112.348	-46.185	-113.314	-8191	255	
909.431	1	1	0	0	0.13997	0.055777	0.10009	0.10013	0.18402	0.087898	0.26513	0.076899	0.12369	0.11869	0.18821	0.1264	0.15908	0.23386	0.11494	0.17301	-4.4625	-3.6917	-4.4104	-4.7729	-3.9167	-4.5479	-4.3688	-4.2896	-4.5667	-4.0583	-4.5792	-4.6438	-3.8021	-4.9125	-4.2208	-3.9437	193.916	175.549	-73.820	-0.651	-67.338	-88.995	133.549	187.143	-23.172	-121.716	-46.361	110.226	129.421	-122.017	177.418	83.152	0.00022151	0.00038128	7.3349e-05	1017.9	2.4291e-06	2.4043e-06	1118.4	207.61	1.7905e-06	3.396e-06	266.09	76.412	58.965	17.835	2.3514e-06	24.863	0.00014284	0.0001342	3.7073e-05	993.39	1.6132e-06	1.5815e-06	1096	204.72	1.6664e-06	1.6083e-06	263.26	75.879	58.767	17.749	1.6905e-06	25.019	187.792	-35.752	-84.664	-134.367	-13.176	11.509	-134.327	-126.941	-30.970	-39.851	-127.056	-120.926	-120.461	-112.589	41.684	-113.181	-8191	255	
909.552	1	1	0	0	0.10005	0.3598	0.091324	0.19627	0.12047	0.171	0.14619	0.1341	0.16404	0.086545	0.028408	0.10083	0.19517	0.080208	0.11318	0.25778	-4.5875	-4.1375	-4.4125	-4.725	-3.7938	-4.75	-4.5646	-4.1646	-4.9521	-4.1375	-4.4396	-4.7125	-3.9542	-4.5062	-4.4396	-4.0021	-2.795	111.925	95.412	192.597	-30.298	30.242	185.686	205.628	112.709	-67.487	-88.543	-21.725	-123.595	-64.373	62.368	-142.408	0.00020315	0.00036896	7.1315e-05	1027.1	3.2854e-06	1.1688e-06	1123.5	209.35	1.6005e-06	2.0906e-06	268.82	76.677	59.11	17.632	2.9557e-06	24.634	0.0001566	0.00015046	4.2235e-05	1002.3	1.7266e-06	1.6127e-06	1104	206.25	1.7463e-06	1.7316e-06	264.87	76.023	58.936	17.729	1.7427e-06	24.966	177.719	-84.825	-106.497	-134.155	-3.169	53.370	-134.625	-127.197	169.992	-132.669	-127.275	-120.473	-120.543	-112.908	31.920	-113.458	-8191	255	
909.648	1	1	0	0	0.10978	0.091663	0.14854	0.24538	0.047774	0.25902	0.16342	0.048807	0.22292	0.13694	0.16226	0.066079	0.052098	0.078295	0.15616	0.13827	-4.4396	-4.4292	-4.1208	-4.7625	-3.7542	-4.3958	-4.8271	-4.2	-4.6875	-4.2292	-4.2833	-5.0229	-3.9354	-4.4479	-4.4938	-3.9333	26.789	-107.736	24.004	199.237	81.478	-47.902	130.559	-18.193	130.652	-20.890	-137.662	-97.423	182.436	-45.001	29.246	-142.455	0.00020683	0.00052269	1.5476e-05	1035.7	2.4243e-06	2.8196e-06	1124.5	208.74	3.0509e-06	1.4239e-06	270.2	75.755	59.089	17.723	3.6071e-06	24.978	0.00016331	0.00015643	4.2937e-05	1005.4	1.803e-06	1.6153e-06	1102.9	205.99	1.6911e-06	1.6729e-06	265.06	75.827	58.93	17.742	1.678e-06	24.998	179.538	-49.193	-15.673	-134.254	-25.152	44.625	-134.493	-126.787	-54.082	-14.384	-127.011	-121.351	-120.407	-112.330	-5.587	-113.115	-8191	255	
909.744	1	1	0	0	0.16629	0.18141	0.066078	0.11831	0.2045	0.042776	0.19366	0.24756	0.10202	0.055798	0.049318	0.048559	0.11114	0.053857	0.10739	0.17859	-4.4958	-4.1271	-4.2042	-4.8354	-3.85	-4.4292	-4.7937	-3.8375	-4.6021	-4.2937	-4.0563	-4.9125	-4.0375	-4.2688	-4.875	-3.9208	57.846	-32.839	188.843	178.741	-45.485	-111.878	145.738	-9.971	103.016	-99.119	126.265	-102.932	32.609	76.675	78.161	-123.220	0.00020307	0.00022614	3.4881e-05	1028.7	2.3328e-06	6.0565e-06	1121.5	210.31	2.284e-06	3.7958e-06	266.55	76.022	58.738	17.744	2.0059e-06	24.801	0.0001595	0.00014907	4.2579e-05	1001.4	1.6654e-06	1.6322e-06	1101.3	206.59	1.6841e-06	1.6177e-06	263.45	75.557	58.664	17.687	1.6655e-06	24.88	181.502	-83.587	53.143	-134.337	4.035	30.126	-134.339	-126.853	-10.078	-21.764	-127.038	-120.671	-120.641	-112.424	12.536	-112.745	-8191	255	
909.864	1	1	0	0	0.21779	0.15096	0.24144	0.11862	0.051657	0.10742	0.076352	0.19359	0.061255	0.10364	0.031225	0.10251	0.095404	0.21026	0.26384	0.14855	-4.2688	-4.3688	-4.1208	-4.8812	-4.225	-4.1542	-4.8438	-3.9042	-4.5292	-4.5188	-4.0479	-4.7708	-3.9917	-4.3292	-4.7417	-4.0146	115.791	204.082	-10.527	128.612	-131.298	196.521	143.134	9.376	31.943	35.139	210.105	-20.255	-45.119	-26.302	-82.705	0.255	0.00021482	0.00039795	0.00017374	1029.8	2.9343e-06	4.51e-06	1124.3	208.54	1.4913e-06	4.4174e-06	269.46	75.851	58.78	17.688	3.5518e-06	24.885	0.00015843	0.00015434	4.4517e-05	1000.5	1.7266e-06	1.718e-06	1101.1	205.73	1.7624e-06	1.7206e-06	264.53	75.726	58.687	17.79	1.8034e-06	24.948	185.611	-47.683	-35.628	-134.234	-47.431	-48.562	-134.300	-127.036	-44.966	48.633	-127.466	-120.988	-120.935	-112.858	-28.516	-112.832	-8191	255	
909.961	1	1	0	0	0.05907	0.13579	0.13622	0.084696	0.15781	0.17446	0.24085	0.33731	0.11318	0.21041	0.29498	0.041958	0.13313	0.35874	0.010301	0.083589	-4.2646	-4.5687	-3.8125	-4.9187	-4.2646	-4.2833	-5.0687	-3.9458	-4.6021	-4.5771	-4.0604	-4.9104	-4.3833	-4.2375	-4.8875	-3.9625	29.939	210.461	206.459	113.447	42.924	188.955	189.432	-67.702	118.116	61.062	-18.793	17.887	172.130	135.710	90.876	112.745	0.00020351	0.00043127	4.3993e-05	1025.7	1.5042e-06	2.9753e-06	1129.4	209.18	2.0333e-06	2.3852e-06	270.67	75.827	59.286	17.636	5.3396e-07	24.823	0.00016949	0.00016211	4.5977e-05	1002	1.7952e-06	1.8251e-06	1104.3	205.81	1.8234e-06	1.774e-06	265.21	75.993	59.01	17.771	1.8877e-06	24.94	187.012	-92.568	-95.096	-134.545	-17.637	74.177	-134.422	-126.889	-18.639	59.413	-127.016	-121.095	-120.441	-113.195	-30.909	-113.166	-8191	255	
910.055	1	1	0	0	0.246	0.21656	0.21595	0.094125	0.22531	0.2249	0.19557	0.13009	0.037228	0.036326	0.097186	0.11576	0.23839	0.2174	0.13032	0.13388	-4.1167	-4.6687	-4.0188	-4.8854	-4.475	-4.1125	-5.1583	-3.9292	-4.1521	-4.7583	-3.9292	-4.6021	-4.4979	-4.0312	-4.7375	-4.1708	191.835	200.114	140.916	105.084	28.259	-117.819	203.476	-143.198	-94.857	-32.645	-89.577	-24.405	92.017	-58.545	84.145	154.447	0.00017157	0.0001938	6.3717e-05	1030.2	3.553e-06	2.6373e-06	1125	209.95	1.8712e-06	3.0755e-06	269.25	76.048	59.291	17.772	3.4146e-06	24.734	0.00017835	0.00016667	4.8509e-05	1005.3	1.9491e-06	1.9509e-06	1106.1	207.04	2.0168e-06	1.9369e-06	265.87	76.29	59.207	17.836	1.9536e-06	25.078	196.791	23.891	-22.178	-134.608	-37.053	-18.992	-134.520	-127.142	-2.771	-0.549	-127.124	-121.155	-120.133	-112.840	37.028	-112.776	-8191	255	
910.151	1	1	0	0	0.13517	0.058656	0.095679	0.26914	0.32409	0.099962	0.16764	0.1746	0.1134	0.11446	0.076591	0.20459	0.16847	0.066056	0.18859	0.23919	-3.9729	-4.8104	-3.8646	-4.6771	-4.5687	-3.9083	-4.9354	-4.0729	-4.1604	-4.7958	-4.0146	-4.5312	-4.6271	-3.9583	-4.7917	-4.5083	-117.521	189.603	128.802	-132.573	67.911	-9.074	-120.277	210.157	170.688	11.529	209.189	-127.535	-99.742	-87.323	39.600	154.554	0.000188	0.00013633	6.1353e-05	1031.4	2.5816e-06	2.1317e-06	1133.5	210.46	2.2992e-06	4.0689e-06	270.8	76.873	59.394	17.864	1.0234e-06	25.108	0.00018479	0.00017598	4.9885e-05	1008	1.9666e-06	1.9011e-06	1112.8	207.32	1.9399e-06	1.898e-06	266.74	76.361	59.177	17.812	1.861e-06	25.157	186.642	-26.943	-12.173	-134.372	-17.865	11.252	-134.293	-126.848	-34.578	-8.662	-126.769	-120.955	-120.979	-112.953	52.739	-113.524	-8191	255	
910.247	1	1	0	0	0.20051	0.15012	0.14239	0.19765	0.12731	0.26704	0.12595	0.039561	0.21046	0.063459	0.028048	0.27896	0.11555	0.3174	0.012516	0.13761	-3.85	-4.7688	-4.0083	-4.575	-4.5146	-4.025	-4.9875	-4.2229	-4.1562	-4.9062	-4.0312	-4.3375	-4.7562	-3.9062	-4.6458	-4.5375	106.846	-74.857	172.344	-114.923	-38.024	-28.743	197.717	151.096	-61.374	54.742	-4.076	198.316	-127.729	164.768	81.195	57.350	0.00020791	0.00035824	9.8538e-06	1038.4	3.4403e-06	1.0853e-06	1135.5	211.67	2.007e-06	4.0148e-06	270.23	76.509	59.797	17.739	2.1684e-06	24.92	0.00018211	0.00017324	4.8341e-05	1012.5	1.9245e-06	1.943e-06	1114.6	208.02	2.0105e-06	1.9191e-06	266.1	76.361	59.401	17.824	2.0045e-06	25.148	186.697	-70.992	-61.679	-134.593	1.576	208.630	-134.575	-126.906	-52.585	-17.829	-127.374	-121.130	-120.331	-112.122	-2.071	-112.964	-8191	255	
910.343	1	1	0	0	0.059129	0.15966	0.17325	0.17485	0.059896	0.17713	0.1081	0.08959	0.082996	0.08681	0.17205	0.29374	0.083537	0.040619	0.2129	0.091486	-3.7729	-4.6958	-4.0792	-4.3833	-4.5104	-4.0104	-4.9042	-4.4187	-4.0042	-4.9104	-3.9792	-4.4625	-4.6667	-3.9708	-4.6479	-4.4979	31.037	-96.813	151.174	170.728	163.982	-139.024	157.510	66.133	138.185	9.471	187.571	184.053	-67.075	143.969	0.601	145.436	0.00020582	0.00019027	3.6714e-05	1042.9	1.8851e-06	1.9707e-06	1136	211.81	1.2712e-06	1.0739e-06	271.58	76.43	59.973	17.925	2.6482e-06	24.981	0.00018777	0.00017637	5.116e-05	1016.2	2.0189e-06	2.0412e-06	1115.4	208.58	2.085e-06	2.0232e-06	267.28	76.568	59.531	17.926	2.0435e-06	25.133	184.933	-90.771	-49.394	-134.514	31.990	-15.370	-134.706	-126.886	50.150	7.533	-127.104	-120.579	-120.629	-112.814	28.877	-113.237	-8191	255	
910.440	1	1	0	0	0.16972	0.16807	0.10996	0.25679	0.11437	0.089423	0.20332	0.22282	0.12524	0.18052	0.12084	0.029355	0.087157	0.13598	0.22667	0.14506	-3.6729	-4.8688	-4.0104	-4.2542	-4.8667	-3.7458	-4.7	-4.6104	-3.7271	-4.8333	-4.4104	-4.1854	-4.8146	-4.0458	-4.1583	-4.5896	214.024	100.428	-4.096	111.292	88.856	-59.679	182.570	64.785	-68.466	-3.119	130.067	8.194	71.780	-56.343	-31.964	179.041	0.00021868	0.00030615	0.00013474	1040.6	2.9092e-06	2.1901e-06	1142	212.01	2.4615e-06	1.5836e-06	271.71	76.808	60.153	17.883	5.4281e-06	24.88	0.00019788	0.00018541	5.3279e-05	1015.4	2.0972e-06	2.142e-06	1118.9	208.75	2.1735e-06	2.071e-06	267.86	76.637	59.771	17.941	2.1252e-06	25.213	192.186	-77.507	-29.964	-134.401	-9.588	-22.889	-134.856	-126.847	-43.621	-15.168	-127.158	-121.111	-120.619	-112.411	-15.546	-113.008	-8191	255	
910.560	1	1	0	0	0.20783	0.044858	0.081215	0.31843	0.09125	0.18072	0.11294	0.05037	0.15601	0.12835	0.31663	0.10115	0.10129	0.20478	0.027814	0.071222	-3.5667	-4.675	-4.2875	-4.2167	-4.8333	-3.9604	-4.4354	-4.7104	-3.7646	-4.6438	-4.6167	-3.7896	-4.7604	-4.0083	-4.2104	-4.8063	-1.982	-48.370	212.726	-105.568	-16.520	5.175	133.317	-100.363	-78.292	51.316	205.449	154.462	-82.426	-36.391	12.772	-61.003	0.00020535	0.00046528	5.8733e-05	1048.9	3.1438e-06	3.0336e-06	1141.2	213.46	2.8026e-06	2.875e-06	272.29	76.67	60.12	17.916	4.967e-06	25.048	0.0001997	0.00019292	5.3231e-05	1020.3	2.1606e-06	2.1271e-06	1121.1	209.23	2.2112e-06	2.1279e-06	268.1	76.756	59.902	17.956	2.1952e-06	25.221	182.797	-108.907	-13.419	-134.190	45.897	7.394	-134.518	-126.977	-23.331	-8.383	-127.033	-120.752	-120.520	-112.633	-15.970	-112.952	-8191	255	
910.656	1	1	0	0	0.37799	0.30262	0.059748	0.26718	0.080325	0.20847	0.04772	0.14463	0.16426	0.13865	0.095627	0.25078	0.034574	0.22841	0.095544	0.094097	-3.6333	-4.5542	-4.2875	-4.05	-4.8167	-4.0625	-4.4375	-4.9167	-3.7875	-4.6792	-4.6083	-3.9062	-4.8812	-4.0354	-4.2271	-4.7188	-11.946	-108.920	52.263	77.657	-48.113	61.855	119.683	-106.675	30.814	-23.366	184.703	62.796	-33.778	137.445	-36.907	178.444	0.00020813	9.093e-05	9.5522e-05	1047.2	2.7644e-06	5.4161e-06	1140.9	212.77	1.6465e-06	1.0075e-06	272.16	76.872	59.831	17.751	3.6444e-06	25.138	0.00020564	0.00019444	5.6679e-05	1021.3	2.2187e-06	2.1418e-06	1121.1	209.49	2.1935e-06	2.1545e-06	268.49	76.982	59.834	17.897	2.1858e-06	25.267	182.920	-93.522	-64.305	-134.457	-79.500	-25.719	-134.347	-126.960	-91.088	-36.688	-127.138	-121.232	-120.524	-112.813	-5.714	-113.104	-8191	255	
910.728	1	1	0	0	0.096186	0.095074	0.18232	0.2846	0.033542	0.09881	0.10243	0.078137	0.065478	0.080084	0.073869	0.15027	0.04694	0.073684	0.12578	0.060029	-3.5083	-4.3604	-4.5625	-3.8021	-4.6979	-4.2271	-4.0458	-4.7583	-3.9479	-4.5188	-4.7312	-3.8167	-4.7188	-4.3854	-3.9792	-4.8854	188.814	-21.894	-4.202	174.251	-13.555	124.457	-134.340	123.748	144.848	-108.527	184.496	0.991	-120.756	90.144	-68.428	202.196	0.00024417	0.00049567	0.00012122	1051.1	4.1403e-06	2.8178e-06	1151.2	213.23	1.9137e-06	5.3876e-06	273.12	77.153	60.474	17.92	3.45e-06	24.942	0.00019929	0.00019473	5.3669e-05	1022.1	2.0907e-06	2.0198e-06	1123.8	209.74	2.0872e-06	2.1258e-06	269.02	77.001	59.997	17.961	2.1003e-06	25.235	178.824	-19.218	-46.628	-134.192	-56.256	-6.310	-134.515	-126.648	-36.576	3.205	-127.025	-120.587	-120.265	-112.101	-21.501	-112.810	-8191	255	
910.824	1	1	0	0	0.19303	0.15006	0.17177	0.23741	0.085951	0.17617	0.26037	0.12588	0.10604	0.057427	0.21681	0.096686	0.20072	0.099055	0.086725	0.1105	-3.6437	-4.2625	-4.6708	-4.0021	-4.5813	-4.4417	-4.1167	-4.8708	-4.1833	-4.2562	-4.8167	-3.8604	-4.4771	-4.5375	-3.8812	-4.8729	-35.953	21.220	-42.462	-106.747	-106.683	26.190	-108.815	149.519	82.952	57.069	100.287	74.701	-96.452	75.973	-55.870	-10.891	0.00015957	0.00018941	3.6098e-05	1051.8	4.3805e-06	3.4867e-06	1144.3	213.19	4.3464e-06	1.566e-06	273.18	77.246	60.381	17.724	1.801e-06	25.263	0.0001989	0.00019134	5.5688e-05	1023	2.2539e-06	2.245e-06	1122.2	210.25	2.4208e-06	2.4684e-06	269.3	77.175	60.182	17.985	2.6333e-06	25.509	185.712	-132.089	-58.812	-133.959	-38.958	-17.096	-134.435	-126.499	-15.199	-30.702	-126.881	-120.842	-120.307	-112.477	-17.766	-113.203	-8191	255	
910.943	1	1	0	0	0.29559	0.088246	0.205	0.087197	0.28438	0.23429	0.085628	0.19595	0.064179	0.078087	0.1538	0.2517	0.037381	0.32556	0.21884	0.050766	-3.8187	-4.1167	-4.8521	-3.9437	-4.6333	-4.5062	-4.1875	-4.9333	-4.0792	-4.2188	-4.8229	-4.0458	-4.5667	-4.55	-4.0542	-4.6625	-136.347	192.581	-7.487	-102.081	-9.696	30.652	132.788	-126.064	178.725	-37.843	213.387	-76.819	-128.910	173.625	-28.725	-28.428	0.00021325	0.00034721	2.7073e-05	1052.1	1.6053e-06	6.3197e-06	1148.1	212.24	1.4337e-06	1.2264e-06	273.14	77.5	59.806	17.893	1.6569e-06	25.031	0.00023191	0.00023162	6.1614e-05	1028.6	2.4646e-06	2.3e-06	1129.3	210.22	2.2261e-06	2.1482e-06	269.39	77.001	59.915	17.984	1.9825e-06	25.26	185.255	-63.137	19.289	-134.037	-28.162	-0.155	-134.317	-127.000	14.616	-25.871	-127.232	-121.055	-120.228	-112.017	28.699	-112.801	-8191	255	
911.039	1	1	0	0	0.26271	0.2631	0.17893	0.016083	0.1651	0.05799	0.13975	0.051367	0.1771	0.16784	0.10797	0.15331	0.06799	0.11309	0.12208	0.085345	-3.8771	-4.1979	-4.9042	-3.9917	-4.3917	-4.8063	-3.9854	-4.925	-4.4354	-4.0646	-4.925	-4.0917	-4.2937	-4.7937	-3.9083	-4.5417	67.337	17.687	2.137	107.459	79.674	145.917	141.344	-99.842	-69.471	76.120	14.018	-47.971	183.944	92.021	-69.875	-15.832	0.00018215	0.00059192	9.2235e-05	1046.6	1.2874e-06	3.3068e-06	1140.6	211.68	2.7551e-06	8.8079e-07	272.95	76.833	60.063	17.965	2.8953e-06	25.108	0.00018158	0.00017717	4.8088e-05	1020.4	1.9164e-06	1.8502e-06	1122.6	209.22	1.971e-06	1.9328e-06	268.25	76.71	59.798	18.014	2.0658e-06	25.29	190.251	-47.814	-93.028	-133.979	-79.333	-14.000	-134.238	-126.459	9.769	49.868	-126.535	-120.700	-120.660	-112.907	1.228	-112.777	-8191	255	
911.135	1	1	0	0	0.12169	0.012292	0.082158	0.07437	0.059281	0.17289	0.14603	0.25845	0.14014	0.20855	0.088842	0.24636	0.17472	0.07026	0.29086	0.17556	-3.9813	-3.8479	-4.9667	-4.1854	-4.1271	-4.7438	-3.9896	-4.7083	-4.4	-3.8958	-4.8479	-4.2229	-4.1125	-4.4875	-3.8896	-4.575	36.794	113.926	-50.582	186.774	-3.800	-31.542	185.927	141.072	-4.882	201.719	1.597	150.405	-6.522	163.114	23.114	-35.598	0.00015537	0.00075057	2.66e-05	1051.4	8.3302e-07	2.6327e-06	1145	213.2	2.8315e-06	4.8855e-06	272.82	76.857	60.327	17.799	3.9137e-06	25.152	0.00018719	0.00018796	5.1037e-05	1024	2.1398e-06	2.0745e-06	1122.7	209.44	2.1322e-06	2.0965e-06	268.75	76.852	60.016	17.948	2.0918e-06	25.269	177.629	-83.344	55.998	-134.163	-21.133	-45.399	-134.487	-126.822	-37.710	56.172	-127.124	-120.307	-120.412	-112.243	14.332	-112.804	-8191	255	
911.232	1	1	0	0	0.048881	0.12987	0.20125	0.15548	0.11635	0.081079	0.088924	0.164	0.030297	0.11939	0.12203	0.21349	0.19104	0.041578	0.044595	0.30891	-4.2854	-3.9167	-4.9083	-4.1083	-4.1562	-4.8021	-4.0708	-4.5333	-4.5167	-4.0771	-4.8438	-4.25	-4.0792	-4.8771	-3.9833	-4.4083	8.103	-27.884	119.262	-132.799	-73.888	-64.516	117.995	174.072	-104.450	32.745	136.323	125.566	-118.379	197.370	190.394	-57.210	0.00019873	0.00032413	3.7381e-05	1053.9	2.1462e-06	1.961e-06	1138.5	213.58	1.564e-06	3.5249e-06	273.25	76.67	60.439	17.875	2.2747e-06	24.853	0.00018559	0.00017539	4.7916e-05	1023.2	1.9195e-06	1.835e-06	1119.7	209.66	1.7605e-06	1.8014e-06	268.23	76.518	59.617	17.853	1.813e-06	25.142	182.156	2.439	-76.180	-134.247	-38.609	45.907	-134.166	-126.845	-85.184	3.515	-126.698	-120.572	-119.840	-112.377	-18.302	-113.456	-8191	255	
911.352	1	1	0	0	0.05505	0.061954	0.053163	0.05428	0.1052	0.043141	0.37099	0.054463	0.14847	0.16049	0.30536	0.031319	0.10568	0.13419	0.20117	0.12695	-4.425	-3.8917	-4.6792	-4.3646	-4.0375	-4.9313	-4.1958	-4.2417	-4.65	-3.8646	-4.7583	-4.4437	-3.8833	-4.9542	-4.2042	-4.1479	-115.184	58.340	31.668	-121.332	133.897	-49.311	134.807	55.078	117.613	5.937	-81.329	56.810	147.515	108.888	121.015	141.373	0.00021663	0.00035308	3.7004e-05	1043.5	1.92e-06	6.4933e-06	1142.5	211.9	1.2613e-06	3.9024e-06	271.21	77.063	59.636	17.853	3.5393e-06	24.978	0.00017216	0.00016153	4.6133e-05	1015.5	1.8588e-06	1.8151e-06	1119.2	209.26	1.8707e-06	1.8647e-06	267.43	76.678	59.47	17.911	1.8524e-06	25.233	185.321	-136.643	-30.108	-134.474	-48.522	41.059	-133.816	-126.547	-41.623	43.226	-126.590	-120.299	-120.329	-112.597	32.730	-112.852	-8191	255	
911.424	1	1	0	0	0.23257	0.23023	0.16376	0.29202	0.16791	0.18012	0.13627	0.068828	0.1385	0.075493	0.15814	0.060052	0.15012	0.18406	0.16176	0.097436	-4.55	-3.8792	-4.625	-4.6083	-3.9208	-4.7688	-4.3063	-4.2458	-4.7312	-3.8958	-4.5146	-4.8229	-4.1042	-4.7042	-4.3542	-4.1917	-10.088	59.576	-121.779	156.501	-9.621	-107.949	109.448	-120.167	-50.474	108.626	-4.940	184.785	21.898	-128.691	-130.872	61.066	0.00022808	0.00051316	4.6422e-05	1042.5	2.236e-06	3.501e-06	1138.4	211.65	2.7836e-06	3.5281e-06	273.85	76.874	59.792	18.031	8.6692e-07	25.065	0.00017556	0.00017902	4.9376e-05	1017.6	2.034e-06	1.9785e-06	1118.5	208.94	2.1296e-06	2.1582e-06	268.4	76.72	59.805	18.034	2.2831e-06	25.354	182.183	-38.563	-47.444	-134.169	-23.275	-46.652	-133.928	-126.605	-54.520	-16.790	-126.840	-120.648	-120.241	-112.364	-60.679	-113.235	-8191	255	
911.544	1	1	0	0	0.13463	0.21931	0.28332	0.33775	0.13027	0.18852	0.094519	0.34191	0.08464	0.2591	0.15653	0.056835	0.031685	0.10191	0.073455	0.33505	-4.5771	-3.8312	-4.3979	-4.5708	-3.9333	-4.8146	-4.3896	-4.1979	-4.8542	-4.1646	-4.3333	-4.7104	-3.7458	-4.7646	-4.4812	-4.2063	207.832	38.989	69.171	177.104	-54.720	-121.478	125.238	117.571	104.071	51.540	-126.708	203.181	204.733	44.733	157.302	53.356	0.00019396	0.00014437	9.6587e-05	1049.7	1.7578e-06	5.4403e-06	1151.5	212.37	3.2936e-06	1.0979e-06	274.2	77.043	59.959	17.978	5.3376e-06	25.099	0.0002159	0.00021188	5.9138e-05	1025.4	2.304e-06	2.1432e-06	1128.1	209.53	2.1088e-06	2.0706e-06	269.44	76.771	59.68	17.957	1.9872e-06	25.219	191.519	-102.818	-8.745	-133.946	-13.606	12.992	-133.762	-126.608	-30.506	45.252	-126.882	-120.242	-120.016	-111.959	-16.787	-112.504	-8191	255	
911.641	1	1	0	0	0.066659	0.10856	0.21933	0.15496	0.084007	0.10811	0.17879	0.019356	0.20433	0.21041	0.063934	0.13322	0.015466	0.31552	0.22208	0.10819	-4.525	-3.9938	-4.3021	-4.7312	-3.9062	-4.6	-4.6292	-4.0979	-4.6146	-4.1583	-4.3562	-4.8854	-3.9625	-4.7188	-4.5125	-3.9896	-59.881	114.407	-140.668	120.844	-15.771	-139.812	168.115	20.025	-122.587	-124.521	196.558	-74.282	-135.419	148.901	188.841	-14.838	0.00019968	0.00058003	9.4386e-05	1047.5	2.2486e-06	3.2807e-06	1147.2	213.19	4.099e-06	2.9163e-06	271.63	77.415	60.08	17.852	6.2351e-07	25.167	0.00018951	0.00018337	5.2628e-05	1023	2.1885e-06	2.112e-06	1125.9	210.11	2.2539e-06	2.2934e-06	268.66	77.143	59.955	18.025	2.4627e-06	25.486	172.399	-60.550	-50.680	-133.935	-32.858	15.134	-134.583	-126.916	-14.512	50.820	-127.085	-120.672	-120.323	-112.733	-40.064	-112.810	-8191	255	
911.737	1	1	0	0	0.23874	0.22057	0.15297	0.070517	0.089634	0.15396	0.20687	0.062406	0.22222	0.080247	0.24232	0.11536	0.065517	0.30552	0.22414	0.11542	-4.3771	-4.1167	-4.1021	-4.8521	-3.7646	-4.5729	-4.7562	-4.1062	-4.6354	-4.2833	-4.1813	-4.7167	-4.0333	-4.55	-4.8063	-3.8625	28.159	-141.814	90.448	-102.773	30.774	-17.331	167.122	187.492	119.771	-9.894	92.157	157.043	84.110	-97.200	167.208	-11.671	0.00015095	0.00048885	4.2792e-05	1055.6	2.6435e-06	2.3238e-06	1155.7	213.46	4.2483e-06	5.473e-06	273.86	76.853	60.006	18.099	3.5737e-06	25.077	0.0002308	0.0002192	6.4342e-05	1027.4	2.4216e-06	2.3056e-06	1132.7	210.48	2.32e-06	2.281e-06	270.18	76.986	59.956	18.089	2.1883e-06	25.278	214.221	-53.094	15.021	-134.008	-47.006	-31.565	-134.176	-126.551	-28.023	-22.394	-126.535	-120.476	-119.819	-112.511	20.325	-112.557	-8191	255	
911.833	1	1	0	0	0.26213	0.077425	0.26579	0.033575	0.13501	0.11133	0.084685	0.12697	0.11401	0.23752	0.18682	0.33478	0.2435	0.10186	0.21462	0.1022	-4.7667	-4.3542	-4.1542	-4.925	-3.8583	-4.4771	-4.7583	-4.0271	-4.5167	-4.4104	-3.9833	-4.8313	-4.0146	-4.4229	-4.7833	-4.0375	-38.728	-50.515	-16.414	81.273	32.683	-122.381	-101.643	192.310	165.320	5.778	116.318	-139.061	80.403	188.727	74.714	48.926	0.00017826	0.00022848	6.7374e-05	1056.4	2.5236e-06	3.3277e-06	1144.5	213.27	4.2477e-07	1.8604e-06	272.54	77.197	60.463	17.955	4.3641e-06	25.137	0.0001999	0.00019427	5.5364e-05	1028.4	2.1487e-06	2.0726e-06	1126.9	210.2	2.1414e-06	2.0482e-06	268.92	76.959	59.938	17.977	2.1419e-06	25.254	179.882	-50.322	-80.182	-134.337	-1.729	-1.068	-134.415	-127.080	209.672	-53.089	-127.162	-121.193	-120.514	-112.406	-14.014	-113.822	-8191	255	
911.952	1	1	0	0	0.19385	0.036889	0.096987	0.11976	0.063343	0.22087	0.30252	0.14197	0.1089	0.067741	0.10166	0.11822	0.11336	0.14608	0.29867	0.11134	-4.2625	-4.3667	-3.9771	-4.875	-3.9208	-4.2667	-4.9375	-3.8417	-4.5792	-4.3562	-4.1417	-4.8708	-4.1729	-4.2146	-4.7104	-4.0229	50.041	114.593	40.213	-125.162	41.812	10.307	138.156	84.146	143.359	111.060	114.174	195.233	33.784	-72.609	140.861	70.666	0.00018847	0.00013784	0.00012785	1054.5	9.7498e-07	3.3318e-06	1151.3	212.52	3.3998e-06	5.5294e-07	273.07	77.013	59.661	17.993	3.736e-06	25.003	0.00019939	0.00018818	5.5213e-05	1027.5	2.1305e-06	2.0736e-06	1127.5	209.85	2.0742e-06	1.9433e-06	268.91	76.86	59.688	17.952	1.852e-06	25.131	182.415	11.881	-31.602	-134.541	-123.030	-3.225	-134.397	-127.099	-69.494	168.969	-127.574	-120.723	-120.223	-112.500	9.914	-113.544	-8191	255	
912.023	1	1	0	0	0.031747	0.1701	0.12854	0.13717	0.069298	0.20845	0.090751	0.19335	0.28589	0.24221	0.20898	0.063859	0.086135	0.32248	0.034665	0.13424	-4.1417	-4.6062	-3.8958	-4.9896	-4.1979	-4.2667	-4.9521	-4.0417	-4.3063	-4.6833	-3.9625	-4.675	-4.1188	-4.1271	-4.9208	-3.7188	57.980	137.341	-57.422	75.945	-8.356	-45.242	67.958	90.078	-112.970	118.855	189.156	84.909	172.427	-124.126	168.387	163.331	0.00021157	8.9046e-05	8.5875e-05	1044.6	2.4344e-06	2.7107e-06	1137	212.5	1.0739e-06	2.4397e-06	270.78	76.947	59.722	17.887	2.6889e-06	24.883	0.00017797	0.00016947	4.8267e-05	1020.1	1.899e-06	1.8948e-06	1120	209.34	2.0197e-06	1.934e-06	267.77	76.806	59.674	17.972	2.0668e-06	25.179	169.649	-102.632	-9.904	-134.319	-24.532	10.300	-134.671	-127.170	-2.734	-25.978	-127.351	-121.335	-121.203	-112.865	5.817	-113.403	-8191	255	
912.120	1	1	0	0	0.031953	0.078616	0.076927	0.10261	0.17839	0.21138	0.16651	0.17171	0.18392	0.18925	0.18334	0.10994	0.11271	0.12381	0.079095	0.11904	-4.0583	-4.6833	-3.8937	-4.8187	-4.2229	-4.0583	-4.9833	-4.1271	-4.1833	-4.6562	-3.9583	-4.4667	-4.4313	-3.8875	-5.0333	-3.9938	196.397	101.963	135.145	136.763	181.652	-39.988	129.141	94.265	-114.943	156.609	-119.739	201.578	198.165	39.031	92.906	-54.348	0.0002252	0.00030693	8.154e-05	1046.5	3.9247e-06	4.1393e-06	1143.1	212.26	1.9293e-06	4.7039e-06	270.89	76.485	59.9	17.817	2.7051e-06	25.048	0.00018949	0.00018749	5.1463e-05	1021.7	1.9647e-06	1.9778e-06	1122	208.85	1.8449e-06	1.7755e-06	267.12	76.363	59.537	17.86	1.7914e-06	25.139	186.174	-42.104	-39.840	-134.797	-28.256	-21.944	-134.795	-127.218	-19.539	16.155	-127.593	-121.730	-121.071	-112.881	1.491	-113.500	-8191	255	
912.240	1	1	0	0	0.062957	0.18015	0.17143	0.10827	0.017178	0.090904	0.19159	0.22512	0.097513	0.19385	0.14536	0.20428	0.2458	0.16321	0.17837	0.065149	-3.9583	-4.7125	-3.9104	-4.6833	-4.3938	-3.8104	-4.9688	-4.2229	-4.1354	-4.6583	-4.0292	-4.5583	-4.5208	-3.85	-4.7812	-4.2604	213.662	139.224	131.916	119.943	70.208	-97.402	133.972	198.436	136.356	-96.184	139.103	69.880	-24.640	132.695	99.455	-112.816	0.0002572	0.00038357	0.00012881	1041.8	1.8413e-06	2.5105e-06	1139.5	211.6	3.3154e-06	2.0227e-06	271.96	76.449	59.887	17.82	2.9785e-06	25.046	0.00017775	0.00016539	4.6964e-05	1016.3	1.9197e-06	1.9962e-06	1118.6	208.81	2.0737e-06	2.0584e-06	267.69	76.516	59.619	17.876	2.0072e-06	25.182	183.284	-45.475	-9.132	-134.670	-17.807	26.094	-134.874	-127.466	-11.072	0.157	-127.861	-121.882	-120.691	-113.272	-21.933	-113.586	-8191	255	
912.336	1	1	0	0	0.069181	0.11904	0.16587	0.22824	0.34319	0.10146	0.074129	0.15554	0.12034	0.20359	0.048138	0.16649	0.098561	0.034877	0.1322	0.4335	-3.7167	-4.7979	-4	-4.4375	-4.7438	-3.6542	-4.9625	-4.0833	-4.0833	-4.85	-4.1542	-4.2583	-4.7708	-3.8854	-4.6854	-4.2688	-81.972	134.744	-87.740	162.249	43.925	73.394	-41.125	130.897	31.058	-94.600	92.470	-24.857	5.178	-122.955	-58.900	44.068	0.00019505	0.00022552	9.0157e-05	1041.9	2.7707e-06	4.1647e-06	1137.6	212.4	2.7401e-06	1.6007e-06	271.39	76.862	59.983	17.818	1.3244e-06	24.791	0.00018634	0.00017729	4.9783e-05	1017.2	1.8851e-06	1.8097e-06	1117.6	209.02	1.8383e-06	1.7734e-06	266.94	76.362	59.528	17.854	1.9443e-06	25.069	185.180	-114.607	-56.456	-134.907	-34.801	43.188	-134.996	-127.511	-57.425	7.469	-127.545	-121.423	-120.939	-112.905	115.080	-113.389	-8191	255	
912.433	1	1	0	0	0.0084033	0.11711	0.28612	0.10984	0.066552	0.19048	0.10814	0.1548	0.1149	0.18531	0.05955	0.1377	0.072025	0.068313	0.15721	0.15997	-3.7938	-4.6958	-3.9042	-4.3125	-4.6792	-3.8854	-4.9875	-4.4313	-4.0854	-4.8167	-4.0521	-4.1813	-4.8667	-4.0625	-4.7542	-4.4521	-52.954	95.709	100.116	34.131	-33.093	203.273	154.169	144.240	-40.305	206.556	48.636	53.470	183.870	43.867	108.968	161.434	0.00019472	0.00032247	2.7723e-05	1045.2	2.7525e-06	3.4055e-06	1141.7	211.99	1.7187e-06	1.7143e-06	271.7	77.135	59.646	17.822	1.8077e-06	24.897	0.00018383	0.0001738	5.0651e-05	1017.2	2.1349e-06	2.0631e-06	1119.7	208.94	2.1009e-06	2.0552e-06	267.46	76.74	59.465	17.904	2.0598e-06	25.134	183.408	-48.465	-32.771	-135.022	51.737	13.888	-135.117	-127.147	-9.150	0.881	-127.691	-121.615	-120.704	-113.365	9.910	-114.023	-8191	255	
912.529	1	1	0	0	0.15434	0.067191	0.20686	0.17766	0.20924	0.14795	0.17237	0.10851	0.2014	0.17826	0.11923	0.25178	0.25727	0.12584	0.22165	0.17582	-3.6708	-4.7521	-4.125	-4.0938	-4.7125	-3.8083	-4.6833	-4.5333	-3.8708	-4.8042	-4.425	-4.1521	-4.7979	-3.9562	-4.3792	-4.6188	200.450	32.096	94.820	1.044	49.124	45.066	-28.307	113.248	-129.355	-49.656	153.256	-15.074	177.406	41.741	-15.179	110.917	0.00020781	0.00024273	2.1112e-05	1049.4	1.4751e-06	2.5159e-06	1144.5	212.89	1.0703e-06	6.3924e-06	272.86	76.778	59.966	17.906	1.3357e-06	24.847	0.00019692	0.00019155	5.3484e-05	1020.6	2.1497e-06	2.1659e-06	1123.1	209.8	2.2163e-06	2.1032e-06	268.25	76.717	59.707	17.914	2.2077e-06	25.096	188.665	24.812	179.527	-135.087	-107.003	-77.228	-134.969	-127.227	-85.981	-15.165	-127.763	-121.810	-120.870	-112.961	-9.518	-113.561	-8191	255	
912.625	1	1	0	0	0.22272	0.098229	0.17321	0.14239	0.11344	0.12147	0.37216	0.20762	0.1431	0.14709	0.073125	0.30505	0.072874	0.069686	0.061243	0.19487	-3.7208	-4.7562	-4.1813	-4.1021	-4.7021	-4.1229	-4.3854	-4.8479	-3.7438	-4.7438	-4.4479	-4.0958	-4.7729	-3.875	-4.2458	-4.6208	56.957	-42.979	105.518	45.854	142.159	44.528	190.382	105.790	208.096	-80.603	129.296	172.968	145.823	-99.741	59.613	-90.616	0.00018208	0.00045929	0.00013652	1045	1.2315e-06	4.6643e-06	1144.9	212.01	1.6764e-06	2.1552e-06	272.79	76.597	60.017	17.946	1.9219e-06	24.873	0.00020177	0.00019856	5.5856e-05	1021	2.2381e-06	2.2164e-06	1125.5	209.48	2.395e-06	2.3018e-06	269.43	76.792	59.879	17.988	2.3233e-06	25.176	183.433	-64.664	-75.800	-135.186	37.001	47.129	-135.138	-127.673	47.967	-23.582	-127.531	-121.636	-120.869	-112.854	41.533	-114.152	-8191	255	
912.721	1	1	0	0	0.23771	0.14708	0.089973	0.10777	0.12289	0.28066	0.15515	0.18007	0.04599	0.15623	0.064931	0.04289	0.35281	0.053821	0.079257	0.058126	-3.5229	-4.6125	-4.4792	-3.925	-4.7312	-4.1771	-4.2604	-4.9208	-3.8104	-4.6937	-4.3438	-3.9896	-4.8646	-4.0958	-4.2021	-5.0354	25.671	169.232	173.645	176.449	-38.643	-3.220	213.569	101.133	-136.529	-3.517	78.862	-132.623	-137.942	178.077	-75.832	12.777	0.0001953	0.00033863	0.00010476	1045.9	2.472e-06	1.1148e-06	1144.2	211.54	3.1381e-06	1.5524e-06	271.27	76.714	60.061	17.731	2.2348e-06	24.832	0.00020683	0.00019682	5.4301e-05	1023	2.0905e-06	2.0802e-06	1124.9	209.29	2.0247e-06	2.0246e-06	268.12	76.814	59.719	17.853	2.0936e-06	25.032	186.615	-104.290	-35.032	-134.897	-17.294	-47.169	-135.073	-127.216	-93.480	4.406	-127.542	-121.702	-120.618	-113.318	22.640	-114.070	-8191	255	
912.817	1	1	0	0	0.090646	0.16137	0.09088	0.06556	0.08603	0.1463	0.072575	0.22904	0.2181	0.1462	0.19921	0.13764	0.17943	0.063877	0.1808	0.048118	-3.6	-4.325	-4.5458	-4.0979	-4.6729	-4.1458	-4.3292	-4.9146	-3.9437	-4.3479	-4.5854	-4.05	-4.9083	-4.5271	-3.7896	-4.8333	128.828	89.173	-0.905	44.102	-64.525	176.087	132.008	-90.372	-107.431	171.437	32.769	-76.654	170.810	-4.870	75.493	-109.344	0.00014064	0.00038822	1.2067e-05	1046.6	2.2353e-06	3.1135e-06	1141.8	212.54	1.2029e-06	2.6298e-06	273.06	76.039	59.953	17.652	2.4216e-06	24.669	0.00019129	0.00018809	5.2221e-05	1020.7	2.1017e-06	2.0449e-06	1122.2	209.42	2.2138e-06	2.155e-06	268.87	76.47	59.8	17.779	2.2674e-06	25.025	175.452	-88.058	-55.566	-135.159	-59.862	-7.164	-135.027	-127.630	-51.595	-19.008	-127.627	-121.559	-121.169	-113.210	-12.112	-113.899	-8191	255	
912.913	1	1	0	0	0.17702	0.12932	0.25807	0.31308	0.21021	0.12006	0.070586	0.098383	0.16152	0.072837	0.083737	0.11948	0.18502	0.1805	0.17775	0.30325	-3.7	-4.3958	-4.6188	-3.9854	-4.5667	-4.3521	-4.1208	-4.8146	-3.9854	-4.1042	-4.8729	-3.9375	-4.7167	-4.5167	-3.9729	-4.7208	138.172	24.084	64.234	186.963	37.188	213.567	-11.366	4.108	3.405	-77.891	130.462	161.279	-128.346	106.071	-68.465	-136.766	0.00016797	0.00022031	8.8015e-05	1044.3	2.7167e-06	3.7143e-06	1144.1	211.15	3.455e-06	2.1723e-06	272.67	76.654	59.726	17.778	1.6695e-06	24.628	0.00021498	0.00021182	5.783e-05	1021.3	2.3194e-06	2.2149e-06	1123.4	209.39	2.254e-06	2.1171e-06	268.59	76.59	59.619	17.787	1.8973e-06	24.947	177.482	-2.066	26.764	-134.781	-39.031	34.030	-134.743	-127.451	-18.451	4.514	-127.561	-121.850	-121.182	-112.753	-35.638	-113.662	-8191	255	
913.034	1	1	0	0	0.083504	0.098626	0.28008	0.26656	0.087169	0.20982	0.19111	0.13053	0.18141	0.034989	0.11059	0.015735	0.041183	0.11267	0.20612	0.15609	-4.0021	-3.9833	-4.8	-3.8104	-4.4792	-4.4479	-4.0479	-4.525	-4.15	-4.0167	-4.9521	-3.9146	-4.5813	-4.5229	-3.8729	-4.7833	67.438	-16.511	20.122	169.980	-71.119	-58.799	123.138	12.567	66.758	194.272	-47.662	-48.996	182.689	-65.054	-37.902	70.813	0.00020827	3.9113e-05	5.3924e-05	1041.4	1.3602e-06	4.4161e-06	1131.4	210.81	2.1413e-06	1.2226e-06	268.48	76.19	59.341	17.582	3.1246e-06	24.677	0.00017485	0.00015697	4.2272e-05	1013.5	1.689e-06	1.5316e-06	1108.2	207.25	1.6646e-06	1.6668e-06	264.44	75.707	58.954	17.547	1.9342e-06	24.737	180.923	-15.577	-78.433	-134.774	-71.253	-33.723	-135.143	-127.577	-37.734	-5.094	-127.617	-121.535	-121.082	-113.141	-0.303	-113.705	-8191	255	
913.128	1	1	0	0	0.13548	0.09729	0.071542	0.11721	0.09712	0.25135	0.22275	0.18154	0.26155	0.11193	0.075643	0.16666	0.0084855	0.10639	0.070909	0.24361	-3.9292	-4.0437	-4.725	-3.9521	-4.4917	-4.6292	-3.9562	-4.6375	-4.2229	-3.9333	-4.9229	-3.9458	-4.3542	-4.7146	-3.8312	-4.5875	134.045	-26.079	-16.407	-121.618	44.183	81.888	-13.200	195.170	49.783	186.798	110.322	-48.729	196.077	27.184	-101.268	-43.981	0.0001977	0.00023249	8.3287e-05	1040.6	2.813e-06	1.6946e-06	1140.5	211.97	2.6034e-06	4.3742e-06	271.95	76.473	59.542	17.79	1.4702e-06	24.673	0.00018465	0.0001829	5.322e-05	1014.6	2.2526e-06	2.2063e-06	1120.3	209.24	2.3445e-06	2.3537e-06	267.76	76.522	59.696	17.826	2.2483e-06	24.983	180.849	-57.765	-68.075	-135.131	-53.540	13.815	-135.105	-127.452	-61.968	19.726	-127.698	-121.780	-121.117	-112.841	-68.227	-113.931	-8191	255	
913.224	1	1	0	0	0.17105	0.12357	0.1518	0.19185	0.14062	0.066586	0.18928	0.071308	0.089098	0.23424	0.13025	0.068264	0.083895	0.080137	0.21455	0.085001	-3.9437	-3.9313	-4.8208	-4.1125	-4.35	-4.5938	-3.9625	-4.7125	-4.4021	-3.7875	-4.9229	-4.1729	-4.2	-4.925	-3.8063	-4.5229	99.137	-92.656	204.462	-133.690	192.382	-80.327	124.795	189.263	-98.614	29.014	-116.891	108.346	76.506	-108.745	135.041	-66.264	0.00017627	0.00033802	0.00010413	1048.5	1.8139e-06	3.1862e-06	1134.9	210.42	2.3637e-06	4.3406e-07	268.55	76.147	59.138	17.408	3.684e-06	24.531	0.00019516	0.00018373	4.851e-05	1020.6	1.8193e-06	1.6625e-06	1115	207.56	1.6013e-06	1.6205e-06	264.77	75.8	58.861	17.441	1.6905e-06	24.54	177.759	-93.275	-76.317	-134.951	-21.414	-10.582	-135.089	-127.551	-48.570	-74.138	-127.378	-121.803	-121.516	-113.118	-46.160	-113.629	-8191	255	
913.321	1	1	0	0	0.040042	0.15002	0.11723	0.13543	0.085406	0.098864	0.11918	0.1135	0.16093	0.29411	0.12286	0.022696	0.38119	0.12306	0.030706	0.10564	-4.3521	-3.8	-4.925	-4.4521	-4.125	-4.7229	-4.0708	-4.55	-4.4354	-3.9542	-4.7958	-4.4271	-4.0604	-4.8354	-3.8937	-4.3313	133.107	-0.343	111.360	-95.709	-55.081	-29.111	187.220	176.953	-68.736	-115.921	162.750	-115.777	-27.597	50.249	184.414	209.697	0.00022655	0.00012697	0.00015099	1035.5	3.9258e-06	1.471e-06	1135	210.03	1.5219e-06	2.8509e-06	269.28	76.166	59.091	17.437	4.4419e-06	24.474	0.00016479	0.00016526	4.6077e-05	1009.4	1.9341e-06	1.9442e-06	1112.8	207.58	2.0167e-06	2.0929e-06	266.27	76.024	59.229	17.475	2.1101e-06	24.579	177.360	-41.472	-6.369	-134.846	35.969	-34.165	-134.935	-127.572	17.740	7.743	-127.724	-121.394	-121.049	-113.053	-4.387	-113.873	-8191	255	
913.417	1	1	0	0	0.061307	0.14308	0.074256	0.10845	0.16148	0.10974	0.12951	0.081931	0.0812	0.17221	0.21704	0.23243	0.11205	0.061042	0.04783	0.16824	-4.4771	-3.8271	-4.7562	-4.3812	-3.9938	-4.8	-4.05	-4.5167	-4.6813	-4.0417	-4.6562	-4.3396	-4.0771	-4.9187	-3.9854	-4.1813	209.488	145.048	15.206	146.302	-116.316	-41.907	119.536	208.542	9.514	180.304	167.994	82.416	213.969	192.405	-117.489	-132.235	0.00016471	0.00046318	4.9401e-05	1043.4	2.6315e-06	2.7151e-06	1140.1	212.17	1.0075e-06	3.6477e-06	271.52	76.234	59.342	17.394	1.9821e-06	24.334	0.00019152	0.0001902	5.1532e-05	1018.2	2.1202e-06	2.0302e-06	1119.1	208.93	1.9914e-06	2.0159e-06	266.53	76.002	59.232	17.505	1.9911e-06	24.521	194.157	-25.170	-60.491	-134.998	-8.152	36.837	-135.118	-127.855	-44.466	-34.836	-127.406	-121.695	-121.369	-113.275	43.306	-113.672	-8191	255	
913.513	1	1	0	0	0.17847	0.066671	0.076906	0.18326	0.20664	0.098876	0.15878	0.13323	0.20807	0.083209	0.20143	0.12214	0.1864	0.3006	0.24057	0.082967	-4.6104	-3.9354	-4.5833	-4.6146	-3.8021	-4.7792	-4.2625	-4.3104	-4.7063	-4.0396	-4.4167	-4.6167	-3.7375	-4.725	-4.1042	-4.1854	-66.881	4.532	21.846	134.007	161.786	17.668	193.399	-143.379	133.026	26.923	-1.926	113.501	197.766	161.524	-110.270	-25.435	0.00017438	0.00018171	6.9711e-05	1040.6	1.9238e-06	4.6065e-06	1138	211.53	2.8174e-07	3.5407e-06	269.62	76.425	59.444	17.411	4.9498e-07	24.293	0.00018543	0.00017879	4.8605e-05	1015.4	1.9668e-06	1.8744e-06	1115.3	208.49	1.8506e-06	1.7789e-06	265.95	75.759	58.992	17.377	1.7461e-06	24.411	182.085	-103.684	6.159	-134.766	-23.101	13.344	-135.163	-127.485	-106.217	15.459	-127.848	-121.095	-121.109	-113.111	10.043	-113.545	-8191	255	
913.634	1	1	0	0	0.04256	0.14148	0.14394	0.15551	0.086911	0.2475	0.0044042	0.13291	0.26676	0.19903	0.10423	0.12747	0.31865	0.18233	0.069513	0.10133	-4.5375	-3.8625	-4.5875	-4.6229	-4.0375	-4.7625	-4.3875	-4.1583	-4.8208	-4.0687	-4.6583	-4.6729	-3.9792	-4.7312	-4.3562	-4.1771	-56.123	87.733	154.901	153.618	106.601	-141.765	11.126	105.055	87.959	123.680	203.427	147.810	200.679	158.420	80.653	-126.910	0.00020946	0.00018617	2.2102e-05	1034.3	3.3263e-06	1.9778e-06	1128.4	210.84	2.5863e-06	1.8865e-06	268.04	75.439	59.157	17.358	3.4813e-07	24.144	0.00016359	0.00015993	4.2386e-05	1009.5	1.7609e-06	1.6152e-06	1109.8	207	1.6642e-06	1.7157e-06	264.75	75.42	58.915	17.366	1.8494e-06	24.429	181.446	-40.896	-7.366	-135.138	-23.599	-22.520	-135.094	-127.527	-13.094	10.865	-127.849	-121.696	-121.065	-113.375	-77.358	-113.734	-8191	255	
913.730	1	1	0	0	0.14869	0.14985	0.14012	0.18246	0.10932	0.086381	0.20539	0.083019	0.30743	0.09424	0.13845	0.40952	0.10913	0.13845	0.25146	0.071479	-4.4583	-3.9604	-4.425	-4.6396	-3.8667	-4.5479	-4.4563	-4.0896	-4.7021	-4.0271	-4.3729	-4.6771	-4.0021	-4.6083	-4.5167	-3.9229	-40.427	21.784	140.675	143.421	-113.236	3.231	175.670	160.764	134.222	147.368	142.823	-124.946	-61.401	-109.887	-16.733	67.042	0.00018804	0.00021194	5.9379e-05	1039.4	2.3998e-06	2.6553e-06	1134.1	210.65	2.9974e-06	2.4259e-06	269.48	76.197	59.121	17.46	3.3279e-06	24.155	0.00017406	0.00017618	5.0522e-05	1012.8	1.9748e-06	1.9245e-06	1113.9	207.87	1.9494e-06	1.885e-06	265.38	75.882	59.043	17.449	1.9369e-06	24.452	194.579	-69.482	-24.586	-135.062	-51.553	29.287	-134.922	-127.583	-57.842	32.362	-127.930	-121.721	-121.366	-112.942	-32.204	-113.755	-8191	255	
913.826	1	1	0	0	0.20906	0.16736	0.08498	0.2178	0.18134	0.055762	0.084403	0.18154	0.091394	0.14446	0.19174	0.1081	0.16186	0.16109	0.032548	0.344	-4.5417	-3.9458	-4.1188	-4.675	-3.8812	-4.5417	-4.6021	-3.9625	-4.75	-4.3063	-4.125	-4.7458	-4.025	-4.4229	-4.65	-3.7833	120.382	151.326	-63.965	-140.255	-143.554	208.675	166.251	-132.925	-103.010	52.740	-53.828	-80.903	-100.864	144.183	-84.713	-122.900	0.00021065	0.00039872	9.107e-05	1043.1	1.8682e-06	2.7429e-06	1139.4	211.85	2.5291e-06	1.9804e-06	269.47	76.023	59.51	17.508	2.903e-06	24.26	0.00018408	0.00018134	5.2413e-05	1016.2	2.1453e-06	2.1067e-06	1118.1	208.5	2.2422e-06	2.1785e-06	267.19	76.218	59.55	17.547	2.3544e-06	24.664	185.193	-66.889	-48.139	-134.838	24.674	-27.959	-134.958	-127.752	-42.082	34.508	-127.765	-121.187	-120.843	-113.350	6.101	-113.755	-8191	255	
913.897	1	1	0	0	0.11877	0.12031	0.14427	0.2531	0.056102	0.080076	0.34148	0.22177	0.13885	0.40246	0.076803	0.12751	0.10626	0.046521	0.14114	0.11359	-4.3708	-4.2125	-3.8979	-4.9917	-3.9417	-4.4167	-4.8479	-3.8979	-4.7604	-4.3604	-3.9917	-4.8979	-4.1	-4.2979	-4.5979	-3.8812	-68.706	3.338	-120.255	-121.647	126.927	-47.378	118.905	212.506	149.353	84.115	29.213	-130.775	-16.915	176.561	-77.997	188.153	0.00018428	0.00010309	8.216e-05	1045.7	2.7955e-06	2.106e-06	1145.8	212.82	1.4096e-06	1.5495e-06	271.71	76.57	59.879	17.492	2.7535e-06	24.665	0.0002212	0.00021784	6.3392e-05	1023.3	2.4897e-06	2.4768e-06	1127.8	210.57	2.5346e-06	2.5095e-06	268.74	76.664	59.871	17.697	2.595e-06	24.866	191.758	-63.052	-8.451	-134.649	-14.204	35.925	-134.869	-127.481	11.672	-32.147	-128.090	-121.690	-121.314	-113.298	83.800	-113.650	-8191	255	
914.016	1	1	0	0	0.25996	0.10924	0.24554	0.081701	0.081575	0.15141	0.38469	0.06632	0.20114	0.1597	0.1082	0.091686	0.12479	0.06891	0.11337	0.0050113	-4.2396	-4.4313	-3.9208	-4.9583	-3.9021	-4.5333	-4.7417	-3.9292	-4.4604	-4.4604	-3.9833	-4.8	-4.2396	-4.2042	-4.6625	-4.0375	-79.578	166.059	-105.575	-32.108	-19.669	50.893	163.796	-0.531	169.056	208.141	-120.688	77.539	-68.088	-134.126	140.054	-120.003	0.00020934	0.00040108	1.7547e-05	1056.7	9.6185e-07	2.1216e-06	1149.3	213.9	3.1132e-06	1.795e-06	273.53	77.215	59.947	17.567	3.157e-06	24.594	0.00023635	0.00023457	6.5795e-05	1031.5	2.5864e-06	2.57e-06	1131.2	210.8	2.5833e-06	2.5338e-06	269.69	77.059	60.076	17.677	2.478e-06	24.851	189.126	-39.788	55.660	-135.104	-43.869	-98.196	-135.163	-127.658	-24.353	26.306	-127.867	-121.381	-121.319	-113.420	-17.193	-113.604	-8191	255	
914.113	1	1	0	0	0.20833	0.13334	0.16116	0.072076	0.053383	0.28742	0.24951	0.29575	0.20169	0.093986	0.078473	0.2704	0.23396	0.15395	0.14529	0.25929	-4.2542	-4.575	-3.875	-4.9229	-3.9708	-3.9792	-4.9292	-4.1271	-4.3104	-4.6417	-3.8292	-4.7583	-4.4146	-4.0792	-4.5708	-4.05	35.300	-92.183	-31.866	85.957	-116.289	188.335	143.932	-143.902	88.183	178.460	172.052	-41.006	213.664	123.069	210.350	-118.165	0.00016881	0.00043951	9.4894e-05	1052.3	3.3457e-06	2.7179e-06	1151.6	214.89	4.8763e-07	3.202e-06	272.08	76.75	60.213	17.577	1.3091e-06	24.693	0.00022473	0.00020671	6.0775e-05	1029	2.4089e-06	2.3587e-06	1131.9	211.06	2.4505e-06	2.4019e-06	269.11	76.79	60.004	17.681	2.3008e-06	24.856	184.737	-8.253	-48.525	-134.883	-9.170	12.745	-134.859	-127.604	72.430	-38.662	-127.807	-121.151	-121.147	-113.285	4.523	-113.859	-8191	255	
914.209	1	1	0	0	0.15408	0.16425	0.052002	0.22582	0.026948	0.089779	0.24023	0.21968	0.2614	0.19937	0.15762	0.18368	0.063851	0.12153	0.14534	0.23558	-4.0792	-4.7667	-3.8167	-4.8146	-4.4667	-4.0146	-5	-4.0917	-4.4146	-4.7312	-3.8125	-4.7333	-4.4271	-4.0437	-4.8187	-4.0792	-123.490	-52.213	112.781	-96.069	78.282	-2.891	197.559	133.616	18.782	-77.364	147.729	200.086	155.525	-34.550	112.426	186.661	0.00022866	0.00022996	2.7991e-05	1055.2	2.6636e-06	3.1683e-06	1149.2	213.3	2.6287e-06	1.6284e-06	273.11	76.634	59.984	17.597	4.3577e-06	24.525	0.00021352	0.00020667	5.9647e-05	1028.6	2.2691e-06	2.2725e-06	1131.1	210.62	2.293e-06	2.1812e-06	269.49	76.821	59.864	17.659	2.2655e-06	24.756	182.266	-80.131	12.138	-135.086	4.081	45.348	-135.203	-127.568	-27.871	144.177	-127.798	-121.415	-121.021	-113.481	-3.150	-113.270	-8191	255	
914.305	1	1	0	0	0.02808	0.29507	0.13768	0.21212	0.25202	0.20516	0.12216	0.13491	0.19541	0.20584	0.14074	0.2839	0.16932	0.33375	0.10272	0.14319	-3.8438	-4.6333	-3.7354	-4.5917	-4.5563	-3.6729	-4.9396	-4.1958	-4.1375	-4.8583	-3.775	-4.4354	-4.7375	-3.9062	-4.8208	-4.2312	-13.504	121.466	-60.119	-129.441	-91.481	161.957	213.530	117.327	-79.358	211.186	112.820	-126.143	144.225	-109.843	-73.224	139.971	0.00017813	0.00030425	1.907e-05	1051.1	8.7305e-07	5.5942e-07	1151.2	213.63	3.6082e-06	3.7994e-06	274	76.456	60.216	17.515	1.8759e-06	24.762	0.00021177	0.00020425	5.7319e-05	1027.3	2.2387e-06	2.2684e-06	1131.4	210.94	2.2865e-06	2.1886e-06	269.49	76.722	60.022	17.645	2.188e-06	24.862	188.669	38.596	52.656	-134.786	29.368	136.289	-135.090	-127.681	16.632	46.910	-127.889	-121.334	-120.938	-113.207	-50.219	-114.005	-8191	255	
914.425	1	1	0	0	0.054217	0.2687	0.092681	0.1626	0.20458	0.34163	0.15297	0.14743	0.29769	0.12704	0.12291	0.19208	0.073025	0.21859	0.19588	0.25607	-3.5208	-4.8229	-3.75	-4.5292	-4.5292	-3.8479	-4.9083	-4.2542	-3.8646	-5.0479	-4.075	-4.2625	-4.7562	-3.8708	-4.6604	-4.275	25.831	93.100	-71.832	160.460	18.751	36.007	196.615	116.577	165.656	-24.896	-72.885	156.869	160.396	-55.267	138.266	81.542	0.00019841	0.00018987	0.00014464	1049.8	1.9459e-06	1.0206e-06	1151.2	214.42	2.6324e-06	2.0374e-06	273.83	77.023	59.869	17.582	3.0676e-06	24.668	0.00020346	0.00019733	5.6209e-05	1028.9	2.2354e-06	2.1998e-06	1132.3	211.01	2.2833e-06	2.2777e-06	269.3	76.949	59.976	17.715	2.4272e-06	24.928	193.025	-132.749	14.520	-135.076	-27.870	10.482	-135.071	-127.437	-22.821	74.680	-127.668	-121.412	-121.056	-113.296	41.555	-113.774	-8191	255	
914.522	1	1	0	0	0.034576	0.013831	0.27592	0.10323	0.18024	0.17847	0.10119	0.22594	0.064649	0.10441	0.044989	0.13382	0.050957	0.024419	0.079216	0.085595	-3.7062	-4.8229	-4.0271	-4.3729	-4.4979	-3.875	-4.5938	-4.5792	-3.8771	-4.8333	-4.1708	-4.3667	-4.7688	-3.9979	-4.6062	-4.4208	180.298	131.902	189.315	47.946	126.714	83.670	-85.810	-35.355	52.776	-46.034	108.197	-107.090	-138.294	8.014	41.970	148.941	0.00018164	0.00020989	6.976e-05	1057.2	4.7641e-06	8.8795e-07	1155.7	213.96	3.8677e-06	2.0813e-07	273.52	77.092	59.883	17.599	3.6659e-06	24.42	0.00022715	0.00022284	6.2482e-05	1031.9	2.5494e-06	2.4996e-06	1134.3	211.31	2.5895e-06	2.5577e-06	269.74	76.986	60.19	17.751	2.6054e-06	24.905	191.386	-82.920	-12.665	-135.015	-50.135	-31.309	-135.012	-127.500	-46.160	34.228	-127.612	-121.778	-121.031	-112.948	33.857	-113.478	-8191	255	
914.593	1	1	0	0	0.050698	0.048416	0.16821	0.29623	0.22576	0.16944	0.059637	0.32131	0.095867	0.075923	0.17369	0.27709	0.11296	0.086445	0.10207	0.044378	-3.6146	-4.7854	-4.1646	-4.2271	-4.6771	-3.9625	-4.4667	-4.7104	-4	-4.675	-4.2917	-4.0583	-4.7083	-3.8646	-4.3458	-4.8396	-91.517	56.207	-137.602	-120.446	-113.835	89.667	-58.044	176.178	-86.809	-22.182	73.754	178.280	86.649	-96.743	-54.673	85.441	0.00022011	0.00018762	6.13e-05	1057.5	1.871e-06	4.3653e-06	1152.8	214.21	1.3491e-06	3.0578e-06	273.85	76.514	59.888	17.623	1.5694e-06	24.577	0.00023681	0.00024038	6.6917e-05	1034.7	2.5903e-06	2.6083e-06	1136.1	211.36	2.6608e-06	2.5456e-06	270.51	77.016	60.272	17.78	2.605e-06	24.949	184.659	-8.286	-68.666	-134.963	-17.960	-14.731	-134.941	-127.820	-87.121	-12.639	-127.250	-121.394	-121.225	-113.165	-0.378	-113.545	-8191	255	
914.714	1	1	0	0	0.23324	0.052844	0.13452	0.0086985	0.21359	0.053405	0.25054	0.1008	0.24333	0.12607	0.35322	0.29632	0.38287	0.15545	0.040084	0.20918	-3.4146	-4.7375	-4.35	-4.1188	-4.8542	-3.9729	-4.5625	-4.5979	-3.8854	-4.6813	-4.4688	-3.9104	-4.7958	-4.0396	-4.1729	-4.7729	28.215	145.680	-85.504	7.973	15.557	-27.149	159.464	-140.665	158.332	14.866	112.433	139.589	114.616	-22.920	9.047	-87.911	0.0002129	0.00031443	0.00010444	1060.2	2.7681e-06	2.4875e-06	1158	215.08	1.1787e-06	5.5734e-06	271.65	76.385	60.331	17.676	4.1273e-06	24.582	0.00023212	0.00023405	6.5984e-05	1034.2	2.69e-06	2.6563e-06	1137.9	211.82	2.672e-06	2.6033e-06	270.54	77.113	60.384	17.824	2.6304e-06	24.931	168.620	-41.724	-51.733	-134.998	-48.624	-31.685	-135.210	-127.368	-94.898	41.261	-127.571	-121.601	-121.096	-113.579	8.047	-113.695	-8191	255	
914.810	1	1	0	0	0.21174	0.069461	0.18334	0.29728	0.17207	0.21984	0.12253	0.13814	0.12137	0.17893	0.088403	0.40636	0.13058	0.17689	0.063073	0.35436	-3.5958	-4.6438	-4.4313	-4.0125	-4.8667	-4.0875	-4.2562	-4.8083	-3.6937	-4.3896	-4.4583	-3.7958	-4.9646	-4.0062	-4.2521	-4.7521	88.854	-91.102	42.767	-145.302	198.593	207.532	162.641	191.412	80.310	123.117	131.611	-139.122	-130.026	101.195	149.072	150.699	0.0001766	0.00055966	0.0001346	1054.5	1.9817e-06	1.1824e-06	1163.3	214.7	6.7726e-07	2.2011e-06	274.06	77.283	60.373	17.624	4.2473e-06	24.618	0.00024346	0.0002327	6.5544e-05	1036	2.6425e-06	2.6366e-06	1140.5	212.5	2.6553e-06	2.594e-06	270.73	77.397	60.525	17.787	2.5972e-06	24.973	178.893	-81.382	-14.363	-134.951	-4.526	-7.670	-135.209	-127.454	78.025	-43.100	-127.497	-121.937	-121.419	-113.129	-38.517	-114.069	-8191	255	
914.906	1	1	0	0	0.25564	0.10552	0.025159	0.25608	0.19401	0.29582	0.06147	0.14435	0.060326	0.11265	0.073806	0.24528	0.21144	0.0845	0.033003	0.20092	-3.6646	-4.4333	-4.5188	-3.9271	-4.6042	-4.1667	-4.0583	-4.7208	-4.0813	-4.3896	-4.7021	-4.025	-4.8479	-4.3063	-3.9125	-4.8375	53.029	204.574	-44.670	208.863	99.817	119.728	159.381	141.265	176.448	28.104	-142.196	130.793	-14.782	-113.351	-17.255	-98.825	0.00020223	0.00047276	0.00014682	1069.3	4.5128e-06	4.4371e-06	1155	214.91	3.1664e-06	4.0339e-06	275.33	77.707	60.334	17.684	1.8622e-06	24.722	0.00023252	0.00022614	6.4339e-05	1038.3	2.4698e-06	2.4756e-06	1137.1	212.02	2.5784e-06	2.5394e-06	271.15	77.396	60.549	17.821	2.5649e-06	25.048	178.428	18.261	-16.212	-134.935	-18.677	-9.744	-134.881	-127.457	3.918	12.555	-127.864	-121.398	-121.607	-113.366	-43.125	-113.520	-8191	255	
915.025	1	1	0	0	0.036994	0.25667	0.067904	0.1519	0.084524	0.0072325	0.088286	0.21422	0.14651	0.080877	0.050604	0.087941	0.12081	0.083301	0.0749	0.17827	-3.7313	-4.25	-4.725	-4.0542	-4.8104	-4.4542	-4.1792	-4.8625	-3.9208	-4.2479	-4.7562	-3.9333	-4.575	-4.5125	-3.7333	-4.7688	57.442	0.369	124.128	-123.603	109.266	-82.626	197.696	131.990	41.426	196.763	106.946	161.796	139.146	151.310	69.851	78.598	0.00026174	0.00029216	0.00016247	1067.7	6.0772e-07	3.9055e-06	1159.4	214.41	1.3373e-06	4.2713e-06	276.07	76.771	60.407	17.507	2.3229e-06	24.581	0.00023072	0.00022658	6.1774e-05	1039.5	2.4224e-06	2.2735e-06	1139.2	211.79	2.2234e-06	2.1966e-06	270.62	76.754	60.149	17.684	2.177e-06	24.78	181.848	-41.714	-19.196	-135.077	203.690	21.808	-135.095	-127.720	-10.561	-40.682	-127.802	-121.752	-121.311	-113.030	-28.682	-113.584	-8191	255	
915.121	1	1	0	0	0.053794	0.26433	0.10932	0.12358	0.045345	0.11126	0.20622	0.24584	0.21949	0.083592	0.10546	0.30984	0.20666	0.21576	0.06212	0.018852	-3.8833	-4.0833	-4.9563	-3.8688	-4.4208	-4.5167	-3.9188	-5.0188	-4.05	-4.1625	-4.9	-3.9729	-4.5	-4.7292	-3.6292	-4.9229	-136.862	-112.789	184.778	183.480	-117.425	-59.579	150.228	181.286	-82.819	23.191	137.772	-133.454	180.902	207.487	-84.353	176.642	0.00021323	0.00026765	7.5365e-05	1063.6	2.4991e-06	2.8892e-06	1153.3	214.16	1.3325e-06	3.5305e-06	272.78	76.879	60.093	17.672	3.9023e-06	24.433	0.00019187	0.00019326	5.4974e-05	1033.2	2.2191e-06	2.2418e-06	1134.3	210.9	2.3518e-06	2.3961e-06	269.76	77.032	60.211	17.792	2.6233e-06	24.936	191.882	-25.567	-48.826	-134.969	-56.049	-27.517	-135.042	-127.592	-62.128	29.083	-127.414	-121.516	-120.812	-113.518	-14.657	-113.437	-8191	255	
915.193	1	1	0	0	0.088442	0.13075	0.23518	0.1618	0.26953	0.11577	0.1524	0.21403	0.15378	0.13091	0.049278	0.16408	0.22395	0.26699	0.19748	0.15788	-3.9354	-3.8792	-4.7667	-3.9562	-4.3187	-4.7167	-3.8979	-4.8396	-4.2958	-4.0792	-5.0729	-4.2104	-4.4083	-4.7958	-4.0188	-4.6708	187.568	140.748	-58.386	136.772	-119.695	155.711	100.854	-32.698	150.024	-49.151	-113.514	-142.225	-78.770	205.237	-42.586	178.042	0.00025446	0.00013757	7.2109e-05	1059.7	2.8389e-06	1.9773e-06	1158.9	214.48	1.0202e-06	3.6454e-06	274	77.44	60.324	17.774	3.9761e-06	24.721	0.00024457	0.00025069	7.1034e-05	1038.2	2.8239e-06	2.8327e-06	1142.8	212.77	2.7865e-06	2.7954e-06	271.66	77.54	60.495	17.895	2.6604e-06	25.067	185.307	8.593	57.891	-134.806	-56.166	88.110	-135.202	-127.740	57.692	-28.005	-127.741	-122.128	-121.600	-113.629	-18.614	-113.895	-8191	255	
915.314	1	1	0	0	0.14979	0.13381	0.069933	0.20259	0.010666	0.17993	0.17251	0.089523	0.24222	0.050603	0.15817	0.035329	0.17672	0.052916	0.080868	0.10645	-4.3187	-3.8729	-4.8938	-4.2875	-4.0396	-4.7417	-3.9896	-4.7292	-4.6021	-3.7188	-4.8625	-4.1958	-4.2104	-4.9604	-3.8229	-4.5521	-78.529	-99.244	71.497	144.714	144.778	189.483	68.807	189.304	-79.555	128.641	-58.820	163.277	180.193	140.785	-117.571	-83.260	0.0001918	0.00037361	5.1471e-05	1071.8	3.7613e-06	1.88e-06	1166.2	214.54	2.4386e-06	2.8011e-06	274.33	77.793	60.399	17.81	2.1422e-06	24.599	0.00023582	0.00023907	6.613e-05	1044.1	2.6404e-06	2.6166e-06	1144.3	212.61	2.7375e-06	2.6891e-06	272.12	77.765	60.5	17.892	2.6372e-06	25.011	170.773	-85.870	-58.360	-135.020	-5.789	23.384	-135.188	-127.758	-30.348	5.479	-127.847	-121.922	-121.011	-113.604	13.458	-113.435	-8191	255	
915.410	1	1	0	0	0.11273	0.18747	0.19491	0.19532	0.040217	0.19122	0.17897	0.068758	0.12858	0.16596	0.12983	0.23363	0.16603	0.055729	0.11943	0.17684	-4.3229	-3.8208	-4.7167	-4.2854	-4.1562	-4.7812	-4.1417	-4.4729	-4.6417	-4.0771	-4.9	-4.3042	-4.1354	-4.9375	-4.0021	-4.5417	-89.424	-57.665	-77.041	120.257	86.970	83.289	166.658	160.224	-41.791	50.447	58.606	76.445	-105.357	213.802	108.971	71.257	0.00023305	0.00044858	6.9098e-05	1066.1	2.1869e-06	1.4081e-06	1162.4	214.97	2.8814e-06	3.8658e-06	274.31	77.585	60.617	17.6	2.9065e-06	24.777	0.00023253	0.0002346	6.523e-05	1042.3	2.4845e-06	2.3988e-06	1140.4	212.54	2.4078e-06	2.3376e-06	271.22	77.413	60.491	17.786	2.4538e-06	25.062	172.917	-36.280	-65.545	-134.940	207.238	13.730	-134.953	-127.694	-29.607	-0.346	-127.851	-121.572	-120.871	-113.166	-16.394	-113.832	-8191	255	
915.506	1	1	0	0	0.076949	0.16058	0.19549	0.14593	0.16771	0.021011	0.095169	0.10073	0.13738	0.10956	0.18233	0.16846	0.076166	0.11436	0.027165	0.12123	-4.4167	-3.8146	-4.5667	-4.4208	-4.0292	-4.9187	-4.3542	-4.4938	-4.5792	-3.975	-4.6458	-4.5292	-4.0167	-4.9521	-4.0625	-4.2625	19.958	-54.193	-1.472	213.239	59.094	-143.779	113.934	-65.638	-30.200	-140.582	136.130	55.819	150.221	118.606	108.168	159.127	0.00020601	0.00037561	6.4597e-05	1068	1.7799e-06	4.7531e-06	1160.7	215.86	1.3327e-06	1.9351e-06	275.28	77.586	60.538	17.712	2.9441e-06	24.629	0.00022972	0.00023309	6.569e-05	1041.8	2.6605e-06	2.6726e-06	1142.3	213.01	2.8167e-06	2.8095e-06	272.24	77.844	60.611	17.919	2.8543e-06	25.181	198.090	24.161	-118.587	-135.007	35.549	-38.192	-135.151	-127.725	-53.612	-67.156	-127.992	-121.619	-120.925	-113.617	22.294	-113.794	-8191	255	
915.602	1	1	0	0	0.14367	0.10729	0.070034	0.19828	0.10639	0.18566	0.090459	0.11336	0.055751	0.15541	0.1346	0.0075713	0.16057	0.15189	0.14203	0.10619	-4.4604	-3.6688	-4.5542	-4.5646	-3.7854	-4.9708	-4.3292	-4.3958	-4.7521	-3.9417	-4.7125	-4.7479	-3.925	-4.7625	-4.2083	-4.0563	-65.823	-37.112	-8.235	197.351	48.469	2.885	189.994	42.034	192.270	60.086	-131.929	-32.607	144.076	-81.149	28.222	52.997	0.00024174	0.00065687	8.8606e-05	1065.6	3.9652e-06	1.8129e-06	1165.7	215.74	1.5365e-06	1.4733e-06	275.72	77.71	60.974	17.92	1.081e-06	24.856	0.00025615	0.00026634	7.2727e-05	1042.2	2.9767e-06	2.8935e-06	1146	213.42	2.9393e-06	3.0109e-06	272.93	77.942	61.01	17.988	2.9058e-06	25.139	184.620	12.112	-37.117	-134.879	-26.018	-58.691	-135.220	-127.575	-91.275	211.187	-127.715	-121.902	-121.274	-113.783	-88.711	-113.826	-8191	255	
915.723	1	1	0	0	0.30173	0.16514	0.086179	0.067009	0.30557	0.15432	0.17474	0.21992	0.19667	0.15131	0.096989	0.098557	0.16316	0.13297	0.11016	0.05855	-4.4667	-3.8458	-4.5437	-4.7167	-3.8125	-4.8833	-4.3146	-4.2083	-4.8313	-4.1188	-4.3646	-4.7229	-3.8417	-4.5854	-4.3375	-3.9167	-11.221	-46.866	79.504	-115.553	22.972	32.599	-138.540	170.429	-34.778	-11.287	47.020	-99.067	98.651	-45.940	168.102	97.129	0.00019266	5.6245e-05	8.7645e-05	1069.3	3.2211e-06	2.6839e-06	1163.1	216.23	1.2398e-06	2.7464e-06	275.93	77.874	60.84	17.908	2.762e-06	24.696	0.00025566	0.00026192	7.1863e-05	1045	2.808e-06	2.7434e-06	1147	213.23	2.8057e-06	2.7634e-06	273.1	77.845	60.872	17.997	2.8197e-06	25.12	180.727	-107.298	-125.597	-134.940	-9.748	36.587	-135.057	-127.759	-29.920	39.785	-127.767	-121.767	-121.459	-112.950	35.229	-113.818	-8191	255	
915.794	1	1	0	0	0.067862	0.27796	0.20239	0.23025	0.13937	0.05415	0.23188	0.2218	0.11316	0.090525	0.15638	0.17046	0.053879	0.051428	0.27555	0.044006	-4.7042	-4.025	-4.125	-4.8125	-3.65	-4.6146	-4.4563	-4.025	-4.8125	-3.9562	-4.2271	-4.6896	-4.0833	-4.5375	-4.4458	-3.9188	-59.701	75.412	-104.217	209.776	12.091	20.650	113.543	141.757	-46.327	29.139	142.696	-82.763	187.591	57.121	94.920	168.079	0.00022877	0.00017284	4.978e-05	1068.3	1.8677e-06	4.1692e-06	1170.8	214.49	7.6835e-07	3.5269e-06	276.52	77.536	60.622	17.799	5.0041e-06	24.758	0.00025156	0.00025375	7.0164e-05	1046.9	2.764e-06	2.7838e-06	1147.3	212.41	2.8034e-06	2.8196e-06	273.37	77.841	60.726	17.973	2.8163e-06	25.137	180.186	-98.893	-42.576	-134.725	24.557	35.836	-134.996	-127.525	-6.996	11.615	-127.545	-121.577	-121.004	-113.362	85.451	-114.265	-8191	255	
915.890	1	1	0	0	0.12312	0.044424	0.19236	0.13912	0.12979	0.2337	0.22266	0.24937	0.053557	0.23777	0.17794	0.1845	0.097068	0.084196	0.035075	0.28596	-4.5521	-4.1583	-3.9167	-4.7271	-3.8625	-4.5312	-4.7708	-3.9062	-4.7229	-4.1917	-4.325	-4.7208	-4.1521	-4.4854	-4.6937	-4.0938	-2.993	-111.296	89.905	157.663	45.450	144.987	194.895	-117.589	81.120	-81.339	170.684	80.686	65.252	123.021	21.748	6.801	0.00018672	0.00032747	5.3236e-05	1075.7	1.7548e-06	2.735e-06	1165.6	215.91	5.1604e-06	5.0653e-07	276.37	77.412	60.758	17.903	8.1531e-07	24.917	0.00024608	0.00024824	6.8427e-05	1050.5	2.7115e-06	2.6204e-06	1147.8	213.03	2.5741e-06	2.5309e-06	272.67	77.761	60.684	17.982	2.5662e-06	25.151	202.224	-87.036	0.609	-135.053	4.196	25.780	-135.090	-127.649	-24.598	186.404	-128.248	-121.422	-121.389	-113.283	114.667	-113.827	-8191	255	
915.987	1	1	0	0	0.16873	0.069752	0.14726	0.091159	0.13461	0.10201	0.19598	0.30665	0.17787	0.16468	0.045211	0.10773	0.171	0.21121	0.23243	0.11603	-4.5417	-4.3313	-4.0229	-4.9229	-4.1562	-4.3229	-4.9938	-3.9625	-4.7792	-4.4187	-4.0417	-4.9313	-4.1813	-4.6292	-4.7396	-4.0208	-139.020	-127.161	173.340	105.053	-124.742	-14.780	158.640	156.912	160.780	157.228	150.179	132.915	162.373	-92.149	193.979	-58.004	0.00017701	0.00046133	7.5493e-05	1070.7	3.5678e-06	5.2176e-06	1165.6	216.4	2.0017e-06	2.6028e-06	275.75	77.408	60.474	17.794	2.1055e-06	24.844	0.00023309	0.00023174	6.7139e-05	1042.7	2.5636e-06	2.5305e-06	1147	213.29	2.4922e-06	2.3581e-06	273.04	77.427	60.574	17.856	2.3714e-06	25.086	184.529	-54.944	-10.502	-134.884	-22.870	10.113	-135.295	-127.699	-81.678	28.711	-127.772	-121.507	-120.891	-113.488	9.578	-114.062	-8191	255	
916.105	1	1	0	0	0.18983	0.17486	0.081982	0.16333	0.12775	0.16989	0.10938	0.09004	0.18009	0.092979	0.068658	0.07374	0.15495	0.18612	0.043281	0.22932	-4.5917	-4.4	-4.1396	-4.9354	-4.2354	-4.1896	-4.9271	-3.9792	-4.6521	-4.4187	-4.1625	-4.7833	-4.0875	-4.25	-4.6583	-3.9188	153.931	113.068	-29.747	198.009	-34.719	-128.543	207.216	123.584	149.395	123.429	209.213	-2.970	-109.098	-91.757	35.854	115.634	0.00017274	0.00026193	7.4018e-05	1070.4	2.5728e-06	3.9425e-06	1161.3	215.63	5.0233e-06	1.6271e-06	275.23	77.149	60.895	17.816	2.4101e-06	24.887	0.00021577	0.00021293	6.0121e-05	1042.7	2.3922e-06	2.3738e-06	1142.6	212.64	2.475e-06	2.4616e-06	272.26	77.5	60.69	17.928	2.5682e-06	25.128	180.093	-96.991	212.872	-134.887	-33.205	-9.866	-134.902	-127.506	-35.201	0.827	-128.023	-121.405	-121.342	-113.590	-102.305	-113.825	-8191	255	
916.202	1	1	0	0	0.06664	0.10695	0.0092765	0.091771	0.08591	0.093205	0.12786	0.34719	0.033961	0.091237	0.24575	0.17981	0.17564	0.071246	0.20207	0.12225	-4.3042	-4.6438	-4.0188	-4.8792	-4.3854	-4.0583	-5.1062	-4.0563	-4.5229	-4.5354	-4.1646	-5.0021	-4.3667	-4.0437	-4.9104	-4.1708	166.181	181.314	-133.175	124.464	-133.072	57.986	-109.818	147.140	134.700	-72.176	-124.533	130.021	197.794	-87.394	-69.295	213.015	0.00020382	0.00018297	0.00016878	1067	1.9023e-06	3.3771e-06	1168.2	215.7	8.1861e-07	2.336e-06	275.94	77.801	60.834	17.759	1.5429e-06	24.794	0.00023785	0.00024091	6.6697e-05	1045.3	2.684e-06	2.6136e-06	1148.4	213.13	2.5333e-06	2.5228e-06	272.22	77.808	60.739	17.861	2.3609e-06	25.123	173.045	-40.758	9.241	-134.874	19.949	-33.320	-134.919	-127.792	-39.625	102.225	-127.920	-122.068	-121.126	-113.704	61.198	-113.626	-8191	255	
916.298	1	1	0	0	0.16523	0.078482	0.20882	0.25305	0.27777	0.052137	0.11835	0.2007	0.12766	0.21398	0.12003	0.14615	0.062406	0.24206	0.24334	0.29169	-4.1042	-4.8375	-3.9021	-4.8438	-4.3958	-4.1333	-5.0271	-4.1083	-4.3313	-4.9417	-3.9583	-4.5813	-4.5958	-3.8563	-5.0042	-4.2271	173.493	-20.684	112.361	-130.235	-17.359	-44.742	63.934	-78.053	-101.327	92.360	82.461	180.454	45.770	149.892	0.860	6.682	0.00018895	0.00032509	6.7143e-05	1068.7	1.3168e-06	4.8188e-06	1165.3	214	3.5418e-06	1.9088e-06	275.79	77.47	60.308	17.822	4.268e-06	24.766	0.00021465	0.00020726	5.8228e-05	1043.5	2.2075e-06	2.2268e-06	1144	212.15	2.2212e-06	2.1946e-06	271.7	77.376	60.444	17.917	2.3913e-06	25.117	182.574	-39.385	-43.848	-135.188	-54.388	34.794	-135.201	-127.593	-50.268	-49.674	-127.975	-121.426	-121.247	-113.351	-48.539	-114.103	-8191	255	
916.394	1	1	0	0	0.16841	0.21984	0.09676	0.16382	0.21748	0.050554	0.31911	0.15672	0.12137	0.26858	0.13122	0.20839	0.22088	0.088117	0.36943	0.11535	-4.0542	-4.7229	-4.075	-4.5646	-4.6667	-3.7479	-5.1583	-4.2188	-3.9875	-4.6833	-3.9854	-4.6542	-4.6104	-3.9479	-4.7896	-4.3625	50.462	-40.527	-82.733	201.111	-57.834	-1.369	127.083	103.365	-1.804	124.698	41.768	-75.316	-143.460	128.913	109.066	-85.299	0.0001662	0.00048052	6.2345e-05	1068.7	2.5434e-06	4.9782e-06	1164.1	215.15	2.0127e-06	4.4313e-06	274.32	77.838	60.564	17.709	1.7626e-06	24.845	0.00022578	0.00022157	6.3752e-05	1043.7	2.5309e-06	2.4843e-06	1145.7	212.64	2.4102e-06	2.3606e-06	272.45	77.672	60.439	17.888	2.3671e-06	25.117	187.135	-54.960	-63.560	-135.138	-4.756	-24.524	-135.110	-127.976	-39.453	-0.118	-127.827	-121.501	-121.177	-113.405	25.608	-113.710	-8191	255	
916.490	1	1	0	0	0.22458	0.16159	0.2641	0.10305	0.14979	0.1715	0.15958	0.21953	0.036257	0.069083	0.11045	0.12062	0.05134	0.3131	0.26911	0.13046	-3.8208	-4.7146	-4.0625	-4.4563	-4.7792	-3.9667	-4.8854	-4.3875	-4.0167	-4.8125	-4.0687	-4.4437	-4.4062	-3.9667	-4.7354	-4.3917	119.091	86.378	169.805	62.927	187.144	-119.748	-138.371	139.517	-130.616	-84.336	181.589	-28.899	208.328	203.176	107.461	126.419	0.00021461	0.00026874	0.00013326	1068.5	3.5668e-06	1.8898e-06	1167.1	214.56	2.8638e-06	9.9648e-07	276.79	77.151	61.158	17.876	2.0941e-06	24.838	0.0002112	0.00020313	5.8661e-05	1042.3	2.3153e-06	2.3766e-06	1146.4	212.36	2.4216e-06	2.369e-06	272.75	77.483	60.738	17.935	2.4985e-06	25.164	189.829	-40.361	-56.852	-134.955	-20.727	-23.001	-135.135	-127.421	-70.398	30.159	-127.539	-121.761	-121.363	-113.489	11.402	-113.777	-8191	255	
916.586	1	1	0	0	0.15548	0.043214	0.12191	0.10677	0.035046	0.031464	0.218	0.16059	0.16893	0.10391	0.043021	0.18153	0.11818	0.16821	0.21031	0.17094	-3.7417	-4.7083	-3.8917	-4.4979	-4.5917	-3.9083	-4.9979	-4.3958	-3.9854	-4.8229	-4.1083	-4.1667	-4.9354	-3.8354	-4.4729	-4.4792	61.706	13.900	80.815	-43.315	151.759	-98.424	202.108	-90.006	151.513	-60.491	163.639	118.637	42.298	160.722	-74.198	-109.953	0.00024542	0.00062119	0.00011869	1070.2	1.8375e-06	1.305e-06	1167.2	215.88	3.0779e-06	1.6701e-06	273.89	77.115	60.795	17.779	1.2319e-06	24.788	0.00023176	0.00022551	6.1352e-05	1044	2.4081e-06	2.3607e-06	1147.5	212.62	2.3954e-06	2.1912e-06	271.34	77.622	60.51	17.839	2.2447e-06	25.061	193.067	-13.223	-41.486	-135.067	-104.534	-14.244	-135.068	-127.226	-27.812	-32.829	-127.565	-121.473	-121.254	-113.093	-37.760	-113.769	-8191	255	
916.707	1	1	0	0	0.28794	0.18504	0.072915	0.077821	0.10914	0.11806	0.07769	0.076805	0.20427	0.061632	0.047996	0.18142	0.20678	0.20206	0.070278	0.21105	-3.7646	-4.8833	-4.1479	-4.2146	-4.8	-4.0646	-4.5396	-4.8375	-3.9146	-4.8688	-4.2042	-4.2479	-4.8667	-4.0979	-4.4917	-4.6208	-79.429	-125.847	24.314	194.848	37.970	-27.055	107.894	172.345	208.593	139.244	119.599	28.395	166.275	-43.798	52.177	176.288	0.00022902	7.5461e-05	0.00011243	1066.2	2.9834e-06	1.2813e-06	1163.3	215.68	2.4959e-06	7.7559e-07	276.33	77.326	60.823	17.823	2.1948e-06	24.71	0.00020599	0.00020043	5.6168e-05	1040.4	2.2032e-06	2.212e-06	1143.7	212.26	2.318e-06	2.2263e-06	271.8	77.313	60.524	17.93	2.2273e-06	25.077	186.182	20.265	-66.117	-135.298	-66.872	-64.149	-135.153	-127.542	-87.308	-95.766	-127.775	-121.360	-121.184	-113.177	3.213	-113.819	-8191	255	
916.803	1	1	0	0	0.15296	0.11067	0.055674	0.14546	0.12496	0.12519	0.093503	0.27972	0.32862	0.077498	0.28698	0.12644	0.19008	0.10771	0.12467	0.15663	-3.5833	-4.8646	-4.3542	-4.2146	-4.9187	-4.0417	-4.4667	-4.7812	-3.925	-4.7875	-4.4042	-4.0625	-4.7521	-4.1062	-4.4104	-4.8125	14.696	57.692	-97.447	-116.213	-89.636	-45.178	97.102	-86.992	-32.888	109.825	134.533	77.548	188.633	176.539	-72.359	186.433	0.00020771	0.00052212	0.00017515	1066.8	1.7573e-06	2.7193e-07	1156.3	215.34	2.039e-06	4.1359e-06	274.13	77.526	60.572	17.769	1.8268e-06	24.89	0.00021211	0.00019924	5.8887e-05	1040.1	2.3642e-06	2.3042e-06	1140.6	212.56	2.3661e-06	2.2366e-06	271.7	77.587	60.551	17.891	2.2408e-06	25.217	186.566	-30.837	-44.713	-134.872	-16.867	23.897	-135.289	-127.588	-37.143	38.795	-127.600	-122.098	-121.002	-113.538	-4.040	-113.601	-8191	255	
916.899	1	1	0	0	0.14105	0.16231	0.11349	0.1515	0.17057	0.25929	0.072307	0.11632	0.13941	0.058746	0.34418	0.011341	0.13414	0.20113	0.069453	0.20727	-3.8104	-4.7896	-4.3438	-4.0354	-4.8875	-4.1	-4.4146	-4.8417	-3.9417	-4.5708	-4.7083	-4.0833	-4.7562	-4.3688	-4.1937	-4.9	65.362	-29.320	190.500	-85.845	18.605	-86.469	102.871	-102.271	-23.838	133.282	132.129	-17.842	63.668	-143.511	-20.929	22.798	0.0002406	0.00046552	3.9002e-05	1066	3.9811e-06	2.3166e-06	1162.9	214.77	3.1315e-06	3.1489e-06	276.15	77.307	60.428	17.734	5.289e-07	24.973	0.00020547	0.00020162	5.6658e-05	1040.9	2.2174e-06	2.1985e-06	1140.3	212.41	2.163e-06	2.1639e-06	271.76	77.244	60.363	17.873	2.1293e-06	25.128	174.650	-12.528	-121.495	-135.122	-30.808	39.185	-135.074	-127.408	-7.079	-47.722	-127.646	-121.705	-120.823	-113.145	134.353	-113.544	-8191	255	
916.995	1	1	0	0	0.096354	0.13374	0.18362	0.34289	0.17731	0.097735	0.089615	0.2003	0.20666	0.16636	0.13597	0.12113	0.077597	0.22016	0.31493	0.055904	-3.6375	-4.4083	-4.6312	-4.0792	-4.7688	-4.5271	-4.1958	-5.0958	-4.0813	-4.4354	-4.7542	-3.9062	-4.8146	-4.45	-3.8896	-4.8958	-117.358	112.560	139.067	194.494	19.808	-71.799	125.329	131.912	-96.816	-107.952	-104.322	-113.384	-105.585	67.763	-93.573	111.179	0.00019013	0.0005904	0.00010563	1064.1	4.7806e-06	5.2923e-06	1158.6	215.65	3.8211e-06	4.4078e-06	275.2	77.016	60.563	17.767	3.0714e-06	24.928	0.00019796	0.00019964	5.4367e-05	1039.1	2.2655e-06	2.2153e-06	1140.2	212.26	2.2087e-06	2.2128e-06	271.33	77.278	60.296	17.881	2.1852e-06	25.076	188.442	-82.813	-74.975	-135.189	-25.850	15.311	-135.298	-127.678	-55.273	-22.223	-127.563	-121.642	-121.135	-113.132	-4.156	-113.734	-8191	255	
917.090	1	1	0	0	0.068596	0.080629	0.047134	0.073004	0.14787	0.16799	0.12683	0.13789	0.15273	0.16701	0.19396	0.16822	0.12075	0.0051761	0.39776	0.053166	-3.9271	-4.2979	-4.6604	-3.9896	-4.725	-4.4812	-4.2396	-4.925	-4.2083	-4.2458	-4.875	-4.1229	-4.6875	-4.4771	-3.8354	-4.9354	67.936	-104.664	36.859	-114.649	-19.716	124.811	207.497	101.705	121.063	-6.808	74.891	213.243	211.240	-127.680	93.919	-56.989	0.00020743	0.00041642	3.8924e-05	1062.6	6.0825e-07	3.9889e-06	1154.8	215.26	1.2786e-06	1.5258e-06	275.1	77.326	60.355	17.852	3.5264e-06	24.822	0.00020538	0.00019795	5.4783e-05	1038	2.1616e-06	2.0928e-06	1137.2	212.03	2.174e-06	2.1206e-06	271.08	77.113	60.173	17.826	2.0784e-06	25.016	185.493	-58.374	3.492	-135.267	7.207	-23.574	-135.395	-127.587	-23.458	-2.150	-128.223	-121.672	-121.285	-113.433	43.098	-113.782	-8191	255	
917.186	1	1	0	0	0.13077	0.089821	0.13539	0.19933	0.013747	0.1281	0.035895	0.34026	0.14551	0.11908	0.04083	0.19296	0.09942	0.091496	0.17533	0.15952	-3.75	-4.2063	-4.9521	-3.9521	-4.5146	-4.7792	-4.0104	-4.85	-4.3521	-4.0208	-4.9583	-3.9917	-4.35	-4.725	-4.1583	-4.8583	73.224	131.876	159.648	-34.093	132.219	178.205	61.340	-127.704	203.931	39.571	-111.441	-122.370	-9.232	157.776	-45.017	27.415	0.00017577	0.00028001	9.0321e-05	1055.9	1.1883e-06	1.0762e-06	1156	214.47	1.2362e-06	1.453e-06	275.88	77.017	60.237	17.652	1.1624e-06	24.935	0.00019113	0.00019312	5.2583e-05	1032.1	2.0532e-06	2.0832e-06	1136.6	211.52	2.1647e-06	2.1426e-06	271.2	77.028	60.222	17.858	2.1928e-06	25.081	172.615	-94.188	-43.147	-134.899	-55.831	-50.081	-135.039	-127.515	-41.715	3.549	-127.612	-121.310	-120.866	-113.243	-115.100	-114.038	-8191	255	
917.282	1	1	0	0	0.047915	0.29138	0.095832	0.11525	0.25146	0.21273	0.2795	0.064062	0.092533	0.19797	0.15908	0.14761	0.14968	0.17111	0.17345	0.21496	-4.0896	-4.1833	-4.8104	-4.1188	-4.3792	-4.7083	-4.0417	-4.6646	-4.3292	-4.1521	-4.8917	-4.175	-4.4208	-4.8125	-3.8354	-4.6292	-9.054	-89.566	143.489	-105.337	80.613	89.851	-140.168	-98.659	199.446	192.348	132.036	-126.822	121.766	-24.492	-37.429	-119.792	0.00016339	0.00067549	0.00016474	1063.3	1.9591e-06	3.159e-06	1160	214.61	2.1581e-06	6.1997e-06	275.24	77.136	60.533	17.885	1.4935e-06	25.091	0.00020958	0.00020086	5.7755e-05	1035.9	2.3321e-06	2.2991e-06	1137.9	211.52	2.3701e-06	2.3684e-06	271.59	77.356	60.337	17.938	2.3701e-06	25.181	184.305	-74.344	-55.531	-134.923	-14.589	-8.712	-135.026	-127.711	-49.483	22.328	-127.629	-121.397	-121.444	-113.447	73.591	-113.853	-8191	255	
917.403	1	1	0	0	0.15644	0.17372	0.22081	0.087119	0.28501	0.10017	0.048201	0.16284	0.21793	0.037556	0.18682	0.2891	0.0088301	0.11114	0.1625	0.069325	-4.2146	-4.0521	-4.7229	-4.4125	-4.2562	-4.9812	-4.0146	-4.6417	-4.5667	-3.9604	-4.9583	-4.0917	-4.1125	-5.1062	-3.9354	-4.6396	195.517	-103.748	59.414	24.573	-143.785	186.491	-127.355	203.071	100.958	203.951	-120.421	101.862	39.517	136.530	85.163	199.451	0.000186	0.00017918	5.5667e-05	1061.6	4.8508e-06	4.053e-06	1162.4	214.41	3.5382e-06	8.5403e-07	276.23	77.363	60.289	17.881	2.9693e-06	24.909	0.00021263	0.00021701	5.9516e-05	1037.5	2.4217e-06	2.2969e-06	1139.6	212.07	2.3522e-06	2.3356e-06	271.81	77.162	60.334	17.914	2.3159e-06	25.104	180.623	-81.344	-3.345	-134.978	-56.150	-0.391	-135.104	-127.746	-9.003	92.166	-127.407	-121.797	-121.052	-113.125	19.054	-114.218	-8191	255	
917.499	1	1	0	0	0.18685	0.13969	0.21197	0.11584	0.069045	0.19203	0.054677	0.10275	0.1042	0.13091	0.099269	0.073298	0.18266	0.098096	0.20197	0.21872	-4.425	-3.8771	-5.0042	-4.3708	-4.2146	-4.725	-4.0146	-4.7688	-4.775	-3.8917	-4.9375	-4.2188	-4.0792	-4.9333	-3.8958	-4.5958	122.795	189.773	196.634	121.185	-74.990	-108.995	116.076	-121.302	164.667	80.871	-69.524	125.679	19.792	-79.891	-69.708	-135.960	0.00020774	0.00024335	3.2394e-06	1064.4	4.8436e-06	1.6454e-06	1154.9	215.21	3.4698e-06	3.2648e-06	274.15	77.253	60.844	17.933	7.9172e-07	24.839	0.00021123	0.00020918	5.7626e-05	1037	2.2868e-06	2.204e-06	1136.2	211.7	2.2351e-06	2.1933e-06	270.66	77.259	60.362	17.932	2.211e-06	25.114	190.402	-55.615	102.489	-135.096	2.157	-50.199	-135.086	-127.805	-55.248	4.484	-127.683	-121.577	-120.955	-113.250	-121.374	-113.390	-8191	255	
917.595	1	1	0	0	0.09901	0.18026	0.17866	0.090934	0.23058	0.13375	0.2356	0.048043	0.094778	0.079436	0.24848	0.09225	0.11488	0.12816	0.2181	0.12563	-4.3688	-4.0042	-4.7896	-4.6604	-4.2979	-4.8167	-4.2146	-4.3438	-4.6562	-3.825	-4.8792	-4.5938	-4.0542	-4.8875	-3.9896	-4.3333	141.988	85.496	161.039	-29.555	-86.430	-115.483	124.601	199.535	-133.948	-23.350	188.544	-97.409	178.400	198.544	64.656	211.071	0.00020686	0.00011522	5.473e-05	1055.7	2.598e-06	1.9809e-06	1152.3	214.58	4.3932e-06	2.301e-06	275.75	76.758	59.932	17.84	1.7475e-06	24.82	0.00019919	0.00019346	5.3482e-05	1031.7	2.1804e-06	2.0658e-06	1134.7	211.68	2.1851e-06	2.0896e-06	270.51	77.087	60.09	17.891	2.1573e-06	25.08	189.467	32.847	-35.988	-134.704	-15.505	-42.641	-135.141	-127.667	-73.622	63.164	-127.748	-121.537	-121.121	-113.057	-74.025	-114.139	-8191	255	
917.691	1	1	0	0	0.11667	0.12011	0.19081	0.10236	0.24764	0.23653	0.079764	0.15379	0.13894	0.20263	0.0040008	0.049263	0.1834	0.089926	0.2443	0.16934	-4.4667	-3.8312	-4.6438	-4.6146	-3.9521	-4.7354	-4.3313	-4.3	-4.7021	-4.0813	-4.4917	-4.6917	-4.0604	-4.7583	-4.3438	-4.1729	-49.343	-135.741	-145.182	139.443	-106.351	46.033	167.461	136.616	-19.735	-92.249	26.261	30.184	-130.072	-105.559	135.292	-130.268	0.00017578	0.0002882	4.2276e-05	1057.7	6.1224e-07	1.2908e-06	1156.3	214.31	4.8749e-06	1.5602e-06	275.01	77.074	60.366	17.84	4.0716e-06	24.802	0.00019644	0.00019885	5.3792e-05	1034.3	2.2075e-06	2.0858e-06	1134.2	211.52	2.2074e-06	2.1202e-06	270.92	76.917	60.193	17.863	2.2207e-06	25.117	189.009	-81.679	-6.517	-135.056	101.781	51.446	-135.056	-127.645	-37.556	-35.890	-127.806	-121.783	-121.215	-113.296	-48.277	-113.612	-8191	255	
917.787	1	1	0	0	0.20013	0.11334	0.10407	0.23977	0.1584	0.12909	0.26025	0.10371	0.21711	0.10505	0.1545	0.15183	0.1798	0.067533	0.13544	0.34574	-4.3729	-3.9542	-4.4375	-4.675	-4.0375	-4.85	-4.4271	-3.9729	-4.8688	-3.8375	-4.3896	-4.8333	-3.8896	-4.6354	-4.3292	-4.1062	61.186	-115.098	-144.875	111.625	5.694	-90.921	160.472	-130.330	187.424	177.044	-46.542	-119.614	-76.882	-75.354	187.183	170.397	0.0001946	0.00065946	9.1369e-06	1060.3	3.0275e-06	1.7442e-06	1157.3	213.59	1.9866e-06	2.1468e-06	276.87	77.394	60.554	17.764	2.7344e-06	24.732	0.00020704	0.0001982	5.7601e-05	1033.1	2.3152e-06	2.245e-06	1136	211.6	2.3841e-06	2.3342e-06	270.94	77.447	60.336	17.937	2.4309e-06	25.137	176.886	-58.660	27.030	-134.883	-17.722	21.723	-134.903	-127.577	-11.516	-40.418	-127.281	-121.498	-121.601	-113.299	-4.506	-113.794	-8191	255	
917.883	1	1	0	0	0.094544	0.17454	0.08203	0.15692	0.069882	0.22212	0.3	0.18233	0.20494	0.17218	0.32007	0.22576	0.072283	0.24964	0.085363	0.17802	-4.4125	-4.2042	-4.2479	-4.7875	-4.0208	-4.425	-4.7104	-4.1083	-4.7271	-4.1208	-4.5042	-4.8167	-4.0833	-4.8104	-4.6729	-3.7958	161.588	-5.164	11.639	71.976	53.901	134.249	39.791	154.231	213.866	-40.251	189.497	-46.219	211.094	132.466	34.791	-86.123	0.00023688	0.00035941	9.5549e-05	1061.3	7.1807e-07	2.0295e-06	1159.6	215.14	2.0481e-06	4.4109e-06	275.59	77.222	60.058	17.886	2.2612e-06	24.847	0.00022436	0.00022122	5.9639e-05	1036.8	2.4731e-06	2.4524e-06	1138.9	212.04	2.406e-06	2.3627e-06	271.07	77.432	60.243	17.94	2.2456e-06	25.085	186.931	20.592	-83.317	-134.851	33.846	30.093	-134.928	-127.630	-81.380	8.871	-127.708	-121.526	-121.061	-113.504	-28.712	-113.820	-8191	255	
917.980	1	1	0	0	0.035872	0.027719	0.061639	0.14924	0.11211	0.095969	0.2438	0.22132	0.19971	0.044674	0.1171	0.11169	0.10908	0.13623	0.085377	0.090053	-4.625	-4.0958	-4.1917	-4.9625	-3.9396	-4.6625	-4.9125	-3.9958	-4.8458	-4.3292	-4.1625	-5.0687	-3.9417	-4.5229	-4.7312	-3.8021	-5.715	86.597	-65.531	137.388	45.914	-65.485	161.395	129.286	194.916	-72.370	-144.467	-136.778	35.771	-77.005	133.193	-51.333	0.00020263	0.00021796	4.8312e-05	1059.2	3.3609e-06	5.3838e-06	1158.7	213.8	2.8016e-06	2.328e-06	273.96	77.541	60.7	17.821	1.7691e-06	24.884	0.00021044	0.00020682	5.751e-05	1036.5	2.3171e-06	2.287e-06	1139.9	211.41	2.2978e-06	2.3118e-06	270.9	77.306	60.522	17.939	2.4029e-06	25.13	183.593	-119.832	-51.338	-134.974	-14.191	-22.256	-134.978	-127.628	-39.361	20.444	-128.134	-121.507	-121.434	-113.254	41.816	-113.675	-8191	255	
918.076	1	1	0	0	0.28727	0.043374	0.030244	0.20156	0.14901	0.20055	0.12288	0.07377	0.025966	0.03991	0.15399	0.34131	0.087474	0.059268	0.18328	0.16958	-4.4938	-4.3375	-4.0271	-5.1375	-3.9708	-4.4437	-4.9875	-3.8083	-4.8521	-4.3896	-4.0729	-5.0167	-4.0333	-4.3688	-4.825	-4.0042	112.321	163.438	-47.718	-127.781	200.675	-121.396	163.052	60.524	-88.207	34.086	87.121	-93.921	17.647	165.397	-122.851	-129.069	0.00015043	0.00022345	5.0102e-05	1062.4	1.3735e-06	3.7913e-06	1163.3	216.01	2.9443e-06	2.6393e-06	274.87	76.792	60.794	17.744	4.3538e-06	24.754	0.00021791	0.00021346	6.085e-05	1036.6	2.3703e-06	2.3395e-06	1139.2	212.3	2.3686e-06	2.3623e-06	271.36	77.234	60.433	17.919	2.441e-06	25.125	195.787	-83.058	-32.604	-135.046	20.668	12.407	-135.072	-127.520	-51.794	3.261	-127.480	-121.273	-121.394	-113.905	44.666	-113.227	-8191	255	
918.195	1	1	0	0	0.21669	0.062114	0.1396	0.32619	0.057477	0.21535	0.15702	0.19929	0.093169	0.1191	0.29873	0.029423	0.19574	0.17187	0.096556	0.14605	-4.45	-4.5833	-3.8458	-4.9146	-4.1125	-4.1604	-5.0458	-3.9604	-4.5958	-4.5417	-4.2042	-4.9146	-4.4104	-4.1292	-4.9125	-4.1354	34.586	-114.094	136.490	167.518	95.381	-70.176	182.028	17.001	14.835	-73.130	-144.784	132.456	118.208	172.240	-49.370	67.018	0.00017637	0.00052524	3.652e-05	1061.3	2.2352e-06	1.39e-06	1157.4	214.76	1.8085e-06	1.6435e-06	273.73	77.463	60.3	17.738	1.0013e-06	24.74	0.0002253	0.00021531	6.2192e-05	1037	2.3554e-06	2.4137e-06	1138	211.93	2.4043e-06	2.3141e-06	271.15	77.347	60.306	17.919	2.4541e-06	25.086	197.195	-21.080	-53.017	-134.707	53.033	-88.299	-134.942	-127.288	-46.551	120.336	-127.060	-121.518	-121.065	-113.312	1.990	-114.187	-8191	255	
918.291	1	1	0	0	0.064541	0.10143	0.059094	0.24376	0.17498	0.089598	0.092054	0.19368	0.19467	0.2942	0.14733	0.1493	0.23857	0.20356	0.14592	0.15371	-4.0958	-4.5729	-3.9292	-4.9333	-4.2333	-4.0417	-4.9646	-4.0771	-4.3979	-4.6792	-3.9729	-4.8083	-4.2646	-4.05	-4.9771	-4.1625	104.044	69.208	-4.383	162.616	-50.292	190.679	24.743	121.561	189.618	60.579	-17.959	80.743	-113.486	33.524	72.417	-121.619	0.00012643	0.00050229	6.4982e-05	1061.8	4.2696e-06	1.8545e-07	1161.6	215.04	9.4473e-07	4.0722e-06	274.01	76.862	60.436	17.843	2.7223e-06	24.738	0.00022425	0.00022182	6.2636e-05	1038.7	2.4634e-06	2.3534e-06	1139.8	211.75	2.3672e-06	2.3598e-06	270.82	77.204	60.383	17.89	2.3442e-06	25.029	172.895	-32.154	-65.208	-135.032	-0.387	-74.875	-135.032	-127.474	-38.607	-21.530	-127.631	-121.467	-121.227	-113.369	41.109	-113.911	-8191	255	
918.387	1	1	0	0	0.061183	0.036304	0.12149	0.075437	0.1818	0.055313	0.037535	0.25102	0.15537	0.099452	0.17617	0.12933	0.19457	0.040539	0.11463	0.14715	-4.0854	-4.7917	-3.6896	-4.7208	-4.5062	-4.0646	-5.0188	-4.2021	-4.2521	-4.85	-4.1438	-4.5333	-4.7771	-4	-4.7604	-4.4104	-107.146	86.592	-131.249	-105.579	93.595	-75.149	-91.698	-0.648	159.362	156.529	212.130	-16.521	-76.929	-72.063	-43.115	187.428	0.00016311	0.00014446	1.0984e-05	1059.5	3.4402e-06	3.3043e-06	1155.4	214.72	4.2056e-06	4.2726e-06	273.2	76.778	60.102	17.896	1.9384e-06	24.987	0.00022188	0.00021122	5.9464e-05	1035.9	2.3804e-06	2.3063e-06	1136.6	211.92	2.3415e-06	2.2995e-06	271.17	77.092	60.235	17.952	2.283e-06	25.109	172.523	-105.096	125.955	-135.039	-40.993	17.917	-135.134	-127.613	-58.609	0.369	-127.933	-121.631	-120.685	-113.559	-18.047	-113.595	-8191	255	
918.483	1	1	0	0	0.30198	0.053515	0.30874	0.17107	0.23981	0.086758	0.1526	0.16873	0.21036	0.22193	0.21746	0.099561	0.22234	0.072832	0.038721	0.21879	-3.8125	-4.8042	-3.9958	-4.6042	-4.5604	-3.8354	-4.9625	-4.2625	-4.1937	-4.7688	-4.0646	-4.4875	-4.6208	-3.8542	-4.9187	-4.3938	86.996	-48.497	-44.983	-133.215	-14.189	-102.099	211.494	189.067	-45.476	77.442	132.783	202.196	144.041	30.445	5.283	-114.078	0.00017772	0.00018867	6.4183e-05	1060	1.3664e-06	1.8965e-06	1157.7	213.28	9.9737e-07	1.6722e-06	275.36	76.972	60.352	17.782	3.2985e-06	24.893	0.00021073	0.00020271	5.6635e-05	1034.6	2.312e-06	2.2942e-06	1137.8	211.24	2.3043e-06	2.2972e-06	270.86	77.078	60.133	17.893	2.3248e-06	25.113	188.692	-42.150	95.114	-134.961	-42.516	-3.071	-135.046	-127.647	56.137	-51.948	-127.673	-121.583	-121.428	-113.084	-4.832	-113.862	-8191	255	
#DATA ENDS
