BOXY.EXE: ISS Imagent and Oximeter Data Acquisition Program Version 0.80
Ascii Record File

#ACQ INFORMATION
2  Detector Channels 
16  External MUX Channels 
1  Auxiliary Channels 
5000  Waveform (CCF) Frequency (Hz)
1  Waveforms Skipped 
30  Waveforms Averaged 
1  Cycles Averaged 
16  Acquisitions per Waveform 
10.0806  Updata Rate (Hz) 

#FILE INFORMATION
TRUE -- External MUX Channel results are PARSED.
FALSE -- AC DC and Phase are NOT grouped.
TRUE -- Companion Program Settings File CREATED.
FALSE -- AC data not excluded
FALSE -- DC data not excluded
FALSE -- Phase data not excluded
FALSE -- Auxillary Chn. data not excluded
Tab delimiters

#CALIBRATION STATE
TRUE -- Waveform Calibration Values APPLIED.


#AUX CALIBRATION VALUES
Val Type	aux-1	

Term	1.0000e+00	
Factor	0.0000e+00	


#WF CALIBRATION VALUES
A = Detector Channel
Val Type	A-AC1	A-AC2	A-AC3	A-AC4	A-AC5	A-AC6	A-AC7	A-AC8	A-AC9	A-AC10	A-AC11	A-AC12	A-AC13	A-AC14	A-AC15	A-AC16	A-DC1	A-DC2	A-DC3	A-DC4	A-DC5	A-DC6	A-DC7	A-DC8	A-DC9	A-DC10	A-DC11	A-DC12	A-DC13	A-DC14	A-DC15	A-DC16	A-Ph1	A-Ph2	A-Ph3	A-Ph4	A-Ph5	A-Ph6	A-Ph7	A-Ph8	A-Ph9	A-Ph10	A-Ph11	A-Ph12	A-Ph13	A-Ph14	A-Ph15	A-Ph16	

Term	0.00000e+00	0.00000e+00	0.00000e+00	0.00000e+00	0.00000e+00	0.00000e+00	0.00000e+00	0.00000e+00	0.00000e+00	0.00000e+00	0.00000e+00	0.00000e+00	0.00000e+00	0.00000e+00	0.00000e+00	0.00000e+00	0.00000e+00	0.00000e+00	0.00000e+00	0.00000e+00	0.00000e+00	0.00000e+00	0.00000e+00	0.00000e+00	0.00000e+00	0.00000e+00	0.00000e+00	0.00000e+00	0.00000e+00	0.00000e+00	0.00000e+00	0.00000e+00	0.00000e+00	0.00000e+00	0.00000e+00	0.00000e+00	0.00000e+00	0.00000e+00	0.00000e+00	0.00000e+00	0.00000e+00	0.00000e+00	0.00000e+00	0.00000e+00	0.00000e+00	0.00000e+00	0.00000e+00	0.00000e+00	
Factor	1.00000e+00	1.00000e+00	1.00000e+00	1.00000e+00	1.00000e+00	1.00000e+00	1.00000e+00	1.00000e+00	1.00000e+00	1.00000e+00	1.00000e+00	1.00000e+00	1.00000e+00	1.00000e+00	1.00000e+00	1.00000e+00	1.00000e+00	1.00000e+00	1.00000e+00	1.00000e+00	1.00000e+00	1.00000e+00	1.00000e+00	1.00000e+00	1.00000e+00	1.00000e+00	1.00000e+00	1.00000e+00	1.00000e+00	1.00000e+00	1.00000e+00	1.00000e+00	X	X	X	X	X	X	X	X	X	X	X	X	X	X	X	X	

B = Detector Channel
Val Type	B-AC1	B-AC2	B-AC3	B-AC4	B-AC5	B-AC6	B-AC7	B-AC8	B-AC9	B-AC10	B-AC11	B-AC12	B-AC13	B-AC14	B-AC15	B-AC16	B-DC1	B-DC2	B-DC3	B-DC4	B-DC5	B-DC6	B-DC7	B-DC8	B-DC9	B-DC10	B-DC11	B-DC12	B-DC13	B-DC14	B-DC15	B-DC16	B-Ph1	B-Ph2	B-Ph3	B-Ph4	B-Ph5	B-Ph6	B-Ph7	B-Ph8	B-Ph9	B-Ph10	B-Ph11	B-Ph12	B-Ph13	B-Ph14	B-Ph15	B-Ph16	

Term	0.00000e+00	0.00000e+00	0.00000e+00	0.00000e+00	0.00000e+00	0.00000e+00	0.00000e+00	0.00000e+00	0.00000e+00	0.00000e+00	0.00000e+00	0.00000e+00	0.00000e+00	0.00000e+00	0.00000e+00	0.00000e+00	0.00000e+00	0.00000e+00	0.00000e+00	0.00000e+00	0.00000e+00	0.00000e+00	0.00000e+00	0.00000e+00	0.00000e+00	0.00000e+00	0.00000e+00	0.00000e+00	0.00000e+00	0.00000e+00	0.00000e+00	0.00000e+00	-1.50286e+02	-1.28179e+02	-1.21349e+02	-1.82838e+02	-7.38202e+01	-6.86517e+01	-1.55822e+02	-1.62015e+02	-7.29113e+01	-6.79823e+01	-1.70826e+02	-1.70724e+02	-1.80370e+02	-1.76266e+02	-6.49426e+01	-1.48473e+02	
Factor	2.23038e-05	1.70172e-04	3.80664e-05	2.18512e-01	1.33480e-06	1.47544e-06	1.70849e-01	6.06101e-02	1.17230e-06	1.44139e-06	8.98913e-02	2.97864e-02	2.76328e-02	9.32721e-03	1.30128e-06	1.34466e-02	3.00195e-06	3.32187e-06	9.25624e-07	1.11221e-01	3.61816e-08	3.65802e-08	8.21001e-02	3.10359e-02	3.62532e-08	3.66873e-08	4.44963e-02	1.48016e-02	1.42663e-02	4.80361e-03	3.65987e-08	6.70235e-03	X	X	X	X	X	X	X	X	X	X	X	X	X	X	X	X	



#DISTANCE SETTINGS
A = Detector Channel
A-1	A-2	A-3	A-4	A-5	A-6	A-7	A-8	A-9	A-10	A-11	A-12	A-13	A-14	A-15	A-16	

2.5000e+00	3.0000e+00	2.5000e+00	3.0000e+00	2.0000e+00	3.0000e+00	1.5000e+00	3.0000e+00	3.0000e+00	3.0000e+00	3.0000e+00	3.0000e+00	3.0000e+00	3.0000e+00	1.5000e+00	3.0000e+00	

B = Detector Channel
B-1	B-2	B-3	B-4	B-5	B-6	B-7	B-8	B-9	B-10	B-11	B-12	B-13	B-14	B-15	B-16	

1.0000e+01	1.0000e+01	1.0000e+01	1.4400e+00	1.0000e+01	1.0000e+01	1.5100e+00	1.9400e+00	1.0000e+01	1.0000e+01	1.9900e+00	2.4900e+00	2.4100e+00	2.9000e+00	1.0000e+01	2.9800e+00	




#DATA BEGINS
time	group	step	mark	flag	A-AC1	A-AC2	A-AC3	A-AC4	A-AC5	A-AC6	A-AC7	A-AC8	A-AC9	A-AC10	A-AC11	A-AC12	A-AC13	A-AC14	A-AC15	A-AC16	A-DC1	A-DC2	A-DC3	A-DC4	A-DC5	A-DC6	A-DC7	A-DC8	A-DC9	A-DC10	A-DC11	A-DC12	A-DC13	A-DC14	A-DC15	A-DC16	A-Ph1	A-Ph2	A-Ph3	A-Ph4	A-Ph5	A-Ph6	A-Ph7	A-Ph8	A-Ph9	A-Ph10	A-Ph11	A-Ph12	A-Ph13	A-Ph14	A-Ph15	A-Ph16	B-AC1	B-AC2	B-AC3	B-AC4	B-AC5	B-AC6	B-AC7	B-AC8	B-AC9	B-AC10	B-AC11	B-AC12	B-AC13	B-AC14	B-AC15	B-AC16	B-DC1	B-DC2	B-DC3	B-DC4	B-DC5	B-DC6	B-DC7	B-DC8	B-DC9	B-DC10	B-DC11	B-DC12	B-DC13	B-DC14	B-DC15	B-DC16	B-Ph1	B-Ph2	B-Ph3	B-Ph4	B-Ph5	B-Ph6	B-Ph7	B-Ph8	B-Ph9	B-Ph10	B-Ph11	B-Ph12	B-Ph13	B-Ph14	B-Ph15	B-Ph16	aux-1	digaux	

966.217	1	1	0	256	0.31949	0.20466	0.12176	0.19584	0.1051	0.24304	0.08935	0.22475	0.15021	0.11852	0.23872	0.027859	0.096109	0.06536	0.0087974	0.17569	-4.0854	-4.4792	-3.7833	-4.5854	-4.2292	-4.0083	-4.9542	-4.1271	-4.6021	-4.5813	-3.9146	-4.6562	-4.275	-3.85	-4.7854	-4.1438	-23.180	-27.074	-23.576	218.040	74.187	183.862	34.294	139.357	40.293	27.414	188.730	195.544	225.154	174.035	165.430	41.189	0.00012453	0.00057944	9.5304e-05	1044.5	1.7445e-06	1.4718e-06	1151.5	213.55	2.5391e-06	1.3228e-06	275.16	76.744	60.767	17.44	2.8307e-06	24.321	0.00033302	0.00033708	9.7302e-05	1023.3	3.8356e-06	3.916e-06	1132	211.62	4.0072e-06	3.9719e-06	272.62	77.924	61.089	17.715	4.3136e-06	24.893	188.056	0.826	-21.276	-111.984	131.508	52.385	-112.142	-104.871	-2.588	-4.437	-105.105	-99.051	-98.236	-91.226	43.629	-91.036	-8191	255	
966.313	1	1	0	0	0.11808	0.12967	0.055191	0.13361	0.33255	0.18386	0.13325	0.15901	0.1856	0.13319	0.056804	0.10041	0.14023	0.12359	0.1078	0.22166	-4.0583	-4.4729	-3.7104	-4.9437	-4.2667	-3.9396	-5.0417	-4.1729	-4.1396	-4.6333	-3.9021	-4.6625	-4.4688	-3.6937	-4.5312	-4.1229	-41.789	69.168	-79.095	103.560	164.624	-67.532	-103.578	-57.934	-99.467	45.146	44.384	231.920	232.673	5.490	141.420	25.775	0.00014544	0.00013065	9.9972e-05	1060.2	3.1235e-06	2.9641e-06	1158.3	214.63	5.9209e-07	1.4104e-06	275.77	77.05	60.773	17.462	4.0261e-06	24.594	0.00038699	0.00040224	0.00011251	1036.1	4.432e-06	4.4323e-06	1140.1	213.21	4.2984e-06	4.327e-06	273.45	78.147	61.145	17.754	4.1493e-06	25.047	195.818	130.822	-0.972	-112.167	-86.408	-34.158	-112.200	-104.505	222.079	-79.643	-104.958	-98.675	-98.482	-90.247	-5.588	-91.419	-8191	255	
966.385	1	1	0	0	0.22864	0.16639	0.20586	0.085278	0.23018	0.33139	0.30297	0.16457	0.062009	0.22182	0.097667	0.14869	0.177	0.20405	0.31457	0.26937	-3.8146	-4.7146	-3.8812	-4.6562	-4.3125	-3.8292	-4.8438	-4.0375	-3.9062	-4.7083	-4.0875	-4.6542	-4.625	-3.7896	-4.4729	-4.3187	34.738	-91.215	-52.752	-64.137	26.993	68.100	138.572	112.302	-85.274	111.928	136.862	-106.292	-67.891	141.380	139.215	-57.599	0.00011871	0.00016183	4.3805e-05	1058.5	4.656e-06	3.6108e-06	1152.7	214.48	1.2351e-06	6.1589e-06	275.03	77.482	60.256	17.326	2.9366e-06	24.466	0.00035327	0.00036417	9.9674e-05	1031.5	3.9136e-06	3.8402e-06	1134.6	212.56	3.7492e-06	3.6523e-06	272.89	77.912	60.739	17.652	3.5999e-06	24.85	169.777	-4.357	-74.180	-111.995	53.450	66.365	-112.174	-104.702	28.409	65.841	-105.001	-98.825	-98.360	-90.873	65.505	-90.993	-8191	255	
966.506	1	1	0	0	0.050401	0.13939	0.13564	0.12809	0.36163	0.23032	0.019112	0.090924	0.24574	0.056101	0.1706	0.097204	0.088408	0.18154	0.22984	0.049747	-3.7521	-4.7125	-3.7938	-4.525	-4.4708	-3.775	-5.0208	-4.3417	-3.9938	-4.8313	-3.9479	-4.35	-4.7	-3.8417	-4.6396	-4.4625	154.204	196.675	163.468	104.382	121.207	39.603	174.380	15.633	47.039	76.540	216.301	224.759	-41.855	116.322	-92.192	23.986	0.0001444	0.00044018	8.3614e-05	1043.6	1.5194e-06	4.3999e-06	1156.9	215	1.846e-06	3.6834e-06	274.99	76.984	60.498	17.424	3.8107e-06	24.58	0.00032292	0.00033489	9.4703e-05	1024.8	3.8458e-06	3.8597e-06	1134.2	212.94	4.0712e-06	3.9423e-06	272.33	77.962	60.978	17.706	3.9592e-06	24.921	174.026	-26.634	-66.144	-112.280	17.854	19.390	-112.193	-104.665	183.971	-0.345	-105.106	-98.651	-97.743	-90.178	-24.038	-90.720	-8191	255	
966.602	1	1	0	0	0.12296	0.032121	0.14269	0.23117	0.046566	0.088322	0.21266	0.098289	0.092225	0.10285	0.15684	0.28229	0.12675	0.085561	0.16907	0.28346	-3.6875	-4.7708	-4.0167	-4.2917	-4.7854	-3.7854	-4.8125	-4.5208	-3.9958	-4.8688	-4.1188	-4.2167	-4.7667	-3.9875	-4.3917	-4.55	-21.326	45.948	101.669	208.892	41.963	-61.043	188.153	189.439	69.741	1.638	188.726	57.842	184.543	11.763	159.539	28.923	0.00015235	0.00044568	0.00010499	1055.5	2.7815e-06	4.9978e-06	1158	214.97	3.0948e-06	4.5519e-06	274.62	77.336	60.483	17.563	2.6117e-06	24.457	0.00034864	0.00034589	9.5993e-05	1031.1	3.6399e-06	3.5647e-06	1136.6	212.52	3.3084e-06	3.1644e-06	271.37	77.451	60.538	17.602	2.8885e-06	24.625	191.772	-15.948	59.517	-112.077	-4.780	61.183	-112.212	-104.536	-0.634	63.061	-105.024	-98.617	-98.468	-90.795	74.272	-90.669	-8191	255	
966.698	1	1	0	0	0.17963	0.0137	0.1103	0.16311	0.15013	0.18909	0.28733	0.0404	0.18116	0.067198	0.22177	0.15753	0.2696	0.13195	0.14541	0.10893	-3.6667	-4.8271	-4.1188	-4.2875	-4.7562	-3.8312	-4.5625	-4.6062	-3.8708	-4.8458	-4.3146	-3.8729	-4.9146	-3.8917	-4.4625	-4.65	-108.282	146.057	62.114	196.281	-92.516	191.171	-116.324	79.447	30.961	-51.039	227.091	55.573	27.238	168.129	-95.141	34.932	0.00011242	0.00015356	8.9683e-05	1049	4.6693e-06	1.5456e-06	1151.4	213.06	2.5682e-07	1.9441e-06	272.25	76.794	60.544	17.276	1.4127e-06	24.141	0.0002526	0.00025591	7.0992e-05	1022.7	2.8042e-06	2.7975e-06	1127.7	210.92	2.846e-06	2.8347e-06	269.76	77.264	60.427	17.546	2.983e-06	24.622	189.454	-7.862	-64.752	-112.354	12.174	-30.336	-112.085	-104.344	84.686	64.033	-105.065	-98.462	-97.948	-90.228	34.778	-91.224	-8191	255	
966.794	1	1	0	0	0.065437	0.334	0.30485	0.17683	0.1026	0.073631	0.28978	0.24263	0.12108	0.21181	0.064929	0.24762	0.13841	0.11185	0.231	0.081215	-3.5062	-4.7688	-4.3083	-4.025	-4.8688	-3.9479	-4.25	-4.7792	-3.7229	-4.6167	-4.3708	-3.8208	-4.775	-4.2312	-4.1271	-4.8854	-6.145	-67.985	79.200	133.616	-28.818	0.656	149.803	168.504	43.351	-112.313	135.760	-62.430	173.599	228.782	-35.794	70.701	0.00010665	0.00017857	5.9014e-05	1045.2	2.1983e-06	3.5049e-06	1151.6	213.93	1.4915e-06	3.7274e-06	272.85	77.161	60.104	17.377	4.3018e-06	24.377	0.00027507	0.00027926	8.1241e-05	1023.6	3.3724e-06	3.3157e-06	1133.7	212.54	3.444e-06	3.2995e-06	270.56	77.407	60.252	17.479	2.9389e-06	24.567	181.157	-62.669	-17.738	-112.104	-25.405	61.647	-112.304	-104.445	-3.905	73.504	-105.084	-98.562	-98.177	-90.691	6.982	-90.854	-8191	255	
966.915	1	1	0	0	0.35014	0.019773	0.087313	0.079896	0.1255	0.045488	0.16626	0.2109	0.18207	0.022397	0.18261	0.16424	0.15771	0.07839	0.06207	0.12804	-3.5687	-4.5417	-4.4771	-4.1042	-4.6521	-4.0729	-4.2937	-4.7667	-3.725	-4.5146	-4.8333	-3.9375	-4.8208	-4.2562	-4.1854	-4.7083	-54.097	205.868	-10.823	-21.042	-41.272	-101.081	-13.687	97.955	-85.274	-47.060	200.910	-15.762	166.279	206.004	216.719	3.723	0.00010865	9.7529e-05	5.3302e-05	1042.3	2.1819e-06	4.5936e-07	1145.5	211.83	5.8764e-07	3.3416e-06	271.53	76.462	60.102	17.194	3.9793e-06	24.378	0.00024772	0.00025158	6.7688e-05	1017.5	2.7396e-06	2.6862e-06	1121.6	209.32	2.7909e-06	2.6003e-06	268.25	76.828	59.89	17.372	2.6459e-06	24.421	179.098	24.508	-57.493	-111.925	33.878	-95.234	-112.009	-104.350	216.815	47.869	-104.575	-98.388	-97.759	-90.260	18.950	-91.264	-8191	255	
966.986	1	1	0	0	0.12641	0.11991	0.11702	0.14534	0.017523	0.098406	0.093617	0.042138	0.11916	0.081802	0.32127	0.048048	0.19218	0.060978	0.27366	0.20544	-3.5875	-4.3729	-4.5958	-3.6458	-4.7979	-4.2937	-4.1917	-4.8417	-4.0208	-4.2354	-4.6292	-3.8417	-4.7542	-4.2833	-4.1354	-4.8167	-67.798	50.665	48.946	-53.981	-13.825	-37.770	152.352	22.513	205.794	-81.556	185.409	39.493	169.587	-81.231	-83.873	47.365	0.00012465	0.00019679	0.00012746	1041.1	1.0474e-06	2.8059e-06	1147.1	212.49	2.237e-06	1.7448e-06	275.14	76.542	60.143	17.224	2.7517e-06	24.248	0.00024599	0.00024525	6.8514e-05	1017.1	2.8666e-06	2.8444e-06	1123.8	209.96	3.0126e-06	2.9868e-06	269.12	76.991	60.05	17.371	2.8905e-06	24.457	192.102	20.107	-56.229	-112.085	-68.612	-32.374	-112.082	-104.602	-56.074	206.853	-105.181	-98.338	-97.981	-89.971	27.457	-90.789	-8191	255	
967.083	1	1	0	0	0.11449	0.22689	0.23644	0.43557	0.17122	0.17329	0.13444	0.15689	0.083578	0.15553	0.042208	0.14814	0.17822	0.075685	0.18156	0.15537	-3.6562	-4.1521	-4.7604	-4.075	-4.6229	-4.3	-4.1687	-4.7937	-3.9146	-4.3042	-4.8021	-3.7542	-4.55	-4.4667	-3.7229	-4.8729	56.540	-37.320	-2.644	183.220	-57.948	109.645	154.646	197.235	102.899	-102.575	-9.284	176.791	-37.292	198.032	120.350	-92.191	8.7628e-05	0.00046416	9.3122e-05	1048.3	2.483e-06	2.1161e-06	1144.4	212.93	2.3319e-06	2.7361e-06	271.35	76.533	60.021	17.344	2.8824e-06	24.202	0.00025043	0.00026383	7.2233e-05	1018.2	2.7931e-06	2.7516e-06	1121.5	209.81	2.874e-06	2.9377e-06	267.77	76.822	60.067	17.414	3.5444e-06	24.646	202.377	-60.903	-10.746	-112.143	81.367	94.809	-112.312	-104.689	-73.815	-12.998	-104.765	-98.484	-97.995	-90.430	43.016	-90.250	-8191	255	
967.203	1	1	0	0	0.14334	0.12047	0.17024	0.048697	0.19304	0.15363	0.12388	0.075603	0.082252	0.099624	0.15617	0.071696	0.17362	0.18149	0.024802	0.17652	-3.9896	-4.1708	-4.7083	-3.9021	-4.5292	-4.5583	-4.1083	-4.8583	-4.1833	-4.2438	-5.0146	-3.8187	-4.5062	-4.6479	-3.8292	-4.7458	176.652	0.443	29.901	175.884	-53.954	180.964	227.454	204.475	-89.458	-103.798	-106.255	194.181	-60.729	41.524	-93.066	116.359	0.00015594	0.00035119	3.1432e-05	1059.4	2.9569e-06	2.4923e-06	1168.1	216.75	2.6503e-06	4.2885e-06	280.85	78.566	61.703	17.842	3.5995e-06	25.009	0.00034497	0.00038586	0.00011411	1037	5.1925e-06	5.482e-06	1155.3	217.28	6.3236e-06	6.5186e-06	280.69	80.193	63.317	18.449	6.6637e-06	25.863	193.740	-24.567	37.052	-112.472	-7.089	39.064	-112.403	-104.681	24.499	-13.336	-105.107	-99.312	-98.594	-90.831	-68.852	-90.997	-8191	255	
967.298	1	1	0	0	0.12393	0.01812	0.18617	0.04595	0.1839	0.14071	0.17592	0.1669	0.070463	0.16805	0.32286	0.28936	0.17428	0.32009	0.14616	0.077342	-3.8583	-3.9833	-4.8187	-3.9146	-4.3792	-4.6396	-4.0604	-4.9062	-4.2458	-3.9896	-4.6813	-4.0729	-4.3583	-4.7167	-3.875	-4.6521	179.494	128.226	-7.889	17.758	115.076	217.001	75.186	-92.052	-75.535	99.937	-111.398	201.634	197.740	174.759	157.713	77.726	9.35e-05	0.00013136	3.6771e-05	1076.3	3.3081e-06	4.4948e-07	1185.1	219.6	3.7185e-06	5.8897e-06	281.07	78.38	61.643	17.795	3.9929e-06	24.638	0.00056744	0.0005863	0.00016033	1063.5	6.0484e-06	5.8739e-06	1168.7	219.08	5.3332e-06	5.2245e-06	279.77	79.744	62.293	18.146	4.7204e-06	25.304	192.989	-31.309	-98.084	-112.373	95.951	221.540	-112.293	-105.247	-57.286	57.217	-104.865	-98.492	-98.684	-90.393	23.705	-91.022	-8191	255	
967.394	1	1	0	0	0.25209	0.076368	0.069336	0.21405	0.13203	0.14422	0.18264	0.097731	0.004726	0.075862	0.17608	0.062568	0.18078	0.24597	0.12409	0.21535	-4.1021	-3.9188	-4.7729	-4.0542	-4.1667	-4.7729	-4.0167	-4.5479	-4.5104	-4.0563	-4.8896	-4.0375	-4.0667	-4.8146	-3.9604	-4.4583	-0.748	230.867	235.253	174.006	61.396	-20.789	170.423	163.005	-79.186	-30.252	-90.551	71.126	-64.851	72.957	218.525	208.354	3.5004e-05	0.00068321	1.3401e-05	1075.4	3.4479e-06	3.1313e-06	1174.6	217.78	3.0699e-06	4.0264e-06	279.52	78.147	61.319	17.647	1.8096e-06	24.73	0.00040658	0.00042775	0.00011859	1054.4	4.8381e-06	4.6894e-06	1159.1	216.82	4.8687e-06	4.9974e-06	278.16	79.399	62.248	18.085	5.0463e-06	25.38	187.367	-25.195	-30.670	-112.148	7.048	93.257	-112.422	-104.624	-16.998	48.991	-105.211	-98.882	-98.076	-90.762	28.576	-90.975	-8191	255	
967.514	1	1	0	0	0.046347	0.39281	0.1815	0.20587	0.28131	0.092722	0.041979	0.063488	0.07924	0.1134	0.12884	0.1537	0.10619	0.22781	0.18328	0.19607	-4.2208	-3.8979	-4.6896	-4.4708	-4.0375	-4.6792	-4.2229	-4.5375	-4.5417	-3.5104	-4.7271	-4.2937	-4.0833	-5.0104	-3.9583	-4.4187	143.677	-23.498	227.154	233.571	-116.043	219.618	124.992	134.027	145.252	27.580	54.644	94.763	-71.824	218.713	-92.588	-85.790	0.00018084	0.00051049	2.219e-05	1072.6	1.2217e-06	3.1359e-06	1176.4	218.98	2.8269e-06	3.4357e-06	278.37	78.042	61.29	17.553	4.2087e-06	24.635	0.0004304	0.0004561	0.00012465	1052.6	4.8508e-06	4.7229e-06	1157.1	216.79	4.747e-06	4.914e-06	277.72	79.163	62.115	18.058	5.158e-06	25.404	182.135	-72.742	73.356	-112.093	-28.891	73.747	-112.354	-104.754	-56.814	46.292	-105.018	-98.775	-98.218	-90.466	-73.363	-90.636	-8191	255	
967.611	1	1	0	0	0.040867	0.14847	0.21533	0.13728	0.15398	0.19523	0.084903	0.085697	0.084635	0.2784	0.21076	0.16637	0.16364	0.28718	0.13809	0.15142	-4.3229	-3.9167	-4.8313	-4.4292	-3.9354	-4.6	-4.2833	-4.4354	-4.7917	-3.8875	-4.5833	-4.4146	-4.0521	-4.9792	-4.2604	-4.5042	134.140	78.127	145.691	113.788	-41.833	34.810	231.351	228.362	-37.722	132.197	-101.690	80.892	3.541	52.806	-121.345	-93.905	0.00015701	7.7666e-05	7.1184e-05	1072.8	2.3399e-06	5.2035e-06	1179.2	217.35	3.5332e-06	1.7871e-06	279.62	78.925	61.759	17.642	7.2283e-06	24.698	0.00045097	0.00048562	0.00013668	1053.5	5.5371e-06	5.5384e-06	1159	217.46	5.6652e-06	5.7744e-06	278.96	79.838	62.677	18.228	5.8034e-06	25.565	173.901	-32.722	-59.924	-112.211	-91.112	73.166	-112.247	-104.589	-53.676	20.918	-104.437	-98.904	-98.574	-90.760	-62.787	-90.703	-8191	255	
967.682	1	1	0	0	0.12642	0.10622	0.14461	0.2226	0.22976	0.099723	0.043086	0.18222	0.095662	0.069936	0.041183	0.016523	0.21658	0.1512	0.20243	0.11138	-4.425	-3.6854	-4.4167	-4.7604	-3.7792	-4.9	-4.2396	-4.0417	-4.6083	-3.9021	-4.6875	-4.5667	-3.75	-4.9208	-4.2625	-4.0875	192.691	222.475	13.001	215.052	2.987	-77.731	169.192	169.587	164.014	92.680	-70.543	-81.750	-113.476	-66.996	5.537	186.206	0.00013297	0.00036792	0.0002473	1074.7	5.3917e-06	3.1199e-06	1174.7	219.34	9.6569e-07	4.6596e-06	278.86	78.796	61.547	17.52	2.8786e-06	24.747	0.00048342	0.00050526	0.00014291	1054.8	5.4795e-06	5.3808e-06	1157.6	217.58	5.2989e-06	5.4224e-06	278.33	79.548	62.382	18.117	5.152e-06	25.423	159.030	-47.777	-42.487	-112.080	56.270	-32.852	-112.080	-105.162	-45.867	-37.031	-104.802	-98.645	-98.135	-90.308	43.006	-90.974	-8191	255	
967.803	1	1	0	0	0.17225	0.097766	0.17599	0.087123	0.17844	0.018121	0.21181	0.10176	0.17603	0.062237	0.24853	0.19662	0.21693	0.17362	0.13193	0.22053	-4.5229	-3.7938	-4.3021	-4.7604	-3.6021	-4.8125	-4.4354	-4.0792	-4.6083	-3.9583	-4.3896	-4.6937	-3.7958	-4.6896	-4.3146	-3.8396	-100.779	26.045	108.183	-93.935	-14.525	36.503	-120.267	-79.892	160.423	13.193	-110.506	-31.171	227.385	228.312	18.914	-66.802	0.00013689	0.00022915	9.3463e-05	1075.7	6.3005e-06	2.7645e-06	1172.8	217.38	2.9126e-06	4.1579e-06	279.84	77.764	61.477	17.6	2.1601e-06	24.738	0.00044536	0.00047555	0.00013058	1052.8	5.1652e-06	5.0974e-06	1157.1	217.08	5.0968e-06	5.052e-06	278.06	79.312	62.203	18.047	4.9978e-06	25.391	187.268	29.652	64.061	-112.106	14.415	80.291	-112.329	-104.722	-10.093	72.861	-104.818	-98.440	-98.094	-90.517	100.816	-91.148	-8191	255	
967.899	1	1	0	0	0.035326	0.2017	0.14854	0.11518	0.35469	0.14829	0.11721	0.18464	0.12423	0.1065	0.12985	0.036478	0.0758	0.18208	0.094705	0.186	-4.3875	-3.9188	-4.2125	-4.8521	-3.7396	-4.5687	-4.4104	-4.0437	-4.9083	-3.9292	-4.2937	-4.6667	-3.9333	-4.4771	-4.5708	-3.9833	-84.578	152.827	-86.986	220.059	113.227	-40.052	-61.541	138.353	-83.283	28.903	-31.438	80.288	143.927	71.185	181.488	-95.638	0.0001763	0.00064177	8.0488e-05	1074.6	2.756e-06	4.1283e-06	1176.6	217.49	2.1206e-06	4.4743e-06	279.3	78.526	61.245	17.619	7.7305e-07	24.652	0.00042654	0.0004531	0.00012977	1051.9	5.1517e-06	5.2149e-06	1157.7	217.23	5.3171e-06	5.2871e-06	278.42	79.637	62.31	18.132	5.4339e-06	25.392	167.245	-34.549	-81.148	-112.332	30.236	-13.841	-112.174	-104.950	-9.669	57.899	-104.731	-98.573	-98.247	-90.363	48.817	-90.933	-8191	255	
967.995	1	1	0	0	0.086757	0.014367	0.1422	0.21413	0.038108	0.12315	0.091289	0.12972	0.119	0.294	0.074338	0.2906	0.12859	0.095429	0.037722	0.16678	-4.325	-3.9792	-3.9813	-4.775	-4.0062	-4.4146	-4.7	-3.9229	-4.4313	-4.1083	-4.0583	-4.7792	-4.0167	-4.4771	-4.6125	-3.8917	218.024	160.410	-30.812	23.986	147.172	84.768	25.076	46.080	-15.714	183.216	36.944	225.155	56.776	-76.080	34.292	196.335	0.00013113	0.00076761	0.00014351	1079.9	2.7482e-06	2.1414e-06	1174.9	218.72	4.0968e-06	2.6049e-07	278.36	78.699	60.775	17.784	6.0926e-06	24.626	0.00047445	0.00049166	0.00013815	1055.2	5.6002e-06	5.4697e-06	1160.8	217.61	5.3893e-06	5.3499e-06	278.57	79.626	62.32	18.167	5.4714e-06	25.457	194.194	7.353	11.112	-112.385	48.185	141.412	-112.168	-104.783	-29.001	-96.393	-104.885	-98.428	-98.273	-90.639	-48.155	-90.862	-8191	255	
968.091	1	1	0	0	0.10745	0.16175	0.22414	0.1187	0.14337	0.019362	0.24124	0.18546	0.078196	0.21668	0.058104	0.32631	0.0238	0.079672	0.22438	0.35967	-4.4792	-4.3208	-3.8729	-4.7896	-3.9604	-4.2937	-4.9229	-3.9729	-4.6042	-4.325	-4.0333	-4.825	-3.9542	-4.125	-4.6	-3.7333	190.489	-59.129	-52.957	-46.906	132.048	100.955	189.229	171.520	-75.954	26.892	-43.540	131.263	233.629	197.575	43.333	119.555	0.00018395	0.00055528	5.1032e-05	1072.8	2.116e-06	1.8724e-06	1178.1	217.77	2.3078e-06	2.7505e-06	279.02	78.522	60.944	17.577	4.2051e-06	24.716	0.00046184	0.00047877	0.0001375	1055.5	5.3238e-06	5.2977e-06	1158.3	217.12	5.1959e-06	5.1075e-06	278.32	79.535	62.138	18.066	5.1051e-06	25.409	161.274	-11.940	-93.111	-112.190	128.958	-89.525	-112.112	-104.875	6.797	33.105	-104.908	-98.812	-98.217	-90.096	40.649	-90.485	-8191	255	
968.210	1	1	0	0	0.21577	0.20296	0.20701	0.17476	0.083856	0.15489	0.15199	0.077994	0.24553	0.17691	0.15172	0.17694	0.084093	0.048208	0.18298	0.049671	-4.2125	-4.4	-3.9375	-5.0625	-4.2979	-4.1021	-4.9271	-3.8917	-4.3583	-4.3625	-4.0125	-4.7688	-4.2125	-4.3292	-4.7458	-3.9854	31.189	112.521	113.913	236.327	223.547	-23.673	120.998	-14.178	168.499	178.416	227.939	-118.921	101.590	225.546	68.324	-27.326	0.00018648	0.00022056	4.3751e-05	1075.8	3.1925e-06	3.6751e-06	1181.9	217.75	1.4406e-06	2.4474e-06	278.71	78.573	61.376	17.769	4.7175e-06	24.533	0.00044644	0.00046258	0.00013088	1054.5	5.0963e-06	5.0808e-06	1160	216.9	5.1687e-06	5.0715e-06	278.21	79.572	62.36	18.134	5.2645e-06	25.363	179.433	55.114	-68.066	-112.168	38.234	-38.317	-111.951	-104.859	55.779	21.615	-104.915	-98.559	-98.636	-90.787	9.248	-91.148	-8191	255	
968.282	1	1	0	0	0.13479	0.012407	0.33208	0.32799	0.030883	0.087694	0.12454	0.13209	0.39108	0.32669	0.13224	0.1729	0.33021	0.094075	0.22584	0.027475	-4.0896	-4.5208	-3.7958	-4.85	-4.2042	-3.9833	-4.8771	-3.9958	-4.3063	-4.5354	-3.8708	-4.5604	-4.3812	-4.1583	-4.6458	-4.0188	-33.422	47.999	-88.480	166.901	117.289	-6.955	15.008	145.651	106.314	32.537	-60.224	69.896	193.750	-109.496	-83.998	95.421	0.00015417	0.00037779	6.4844e-05	1074.1	4.8101e-06	2.9391e-06	1174.8	217.04	4.9622e-06	3.0295e-06	278.96	78.602	61.247	17.764	1.4277e-06	24.684	0.00045931	0.00047968	0.00013813	1055.8	5.4542e-06	5.5997e-06	1160.5	217.5	5.6358e-06	5.6276e-06	278.53	79.817	62.56	18.202	5.6294e-06	25.455	193.672	1.299	-63.531	-112.256	13.868	-54.439	-111.926	-104.900	51.138	19.690	-104.529	-98.250	-98.219	-90.614	-24.995	-90.885	-8191	255	
968.378	1	1	0	0	0.12894	0.19805	0.17014	0.19973	0.21007	0.10287	0.19595	0.19331	0.12667	0.12805	0.12975	0.23129	0.0863	0.13094	0.033035	0.1749	-3.9271	-4.6896	-3.9354	-4.6833	-4.2312	-3.8812	-4.8375	-3.9292	-4.2271	-4.7354	-3.875	-4.6125	-4.3125	-3.8104	-4.825	-4.2479	-29.907	-38.561	-11.507	223.653	185.852	-102.656	133.527	174.377	-93.983	218.773	27.009	210.508	-48.243	64.315	-93.285	132.137	0.00014945	0.00012059	0.0001274	1072.1	2.9767e-06	3.6051e-06	1178.4	218.51	1.0354e-06	4.7982e-06	280.45	78.599	61.723	17.636	3.2043e-06	24.673	0.00048282	0.00051115	0.00014377	1056.2	5.6448e-06	5.6673e-06	1160.8	217.47	5.6071e-06	5.582e-06	279.16	79.681	62.559	18.189	5.6176e-06	25.503	174.383	-7.664	-52.227	-112.174	49.548	-7.586	-112.182	-104.794	39.677	52.742	-104.702	-98.399	-98.196	-90.781	77.517	-91.078	-8191	255	
968.474	1	1	0	0	0.11759	0.23208	0.20589	0.12821	0.087225	0.05019	0.24513	0.23699	0.14528	0.081132	0.045012	0.033928	0.037448	0.019493	0.10656	0.19371	-3.8312	-4.6583	-3.7313	-4.5729	-4.5604	-3.8667	-4.9875	-4.1854	-4.0687	-4.8146	-3.8271	-4.3854	-4.5813	-3.9979	-4.6229	-4.3479	46.137	-84.583	19.326	163.313	-54.324	215.084	135.323	162.040	153.260	-46.279	-105.674	115.115	116.522	-9.823	233.842	-56.055	0.00017023	0.00041437	6.5035e-05	1074.4	2.4791e-06	3.8022e-06	1181.6	219.95	2.6753e-06	3.0091e-07	279.56	78.606	61.148	17.796	5.162e-06	24.812	0.00048369	0.00051504	0.00014425	1058.3	5.7939e-06	5.7708e-06	1162.5	217.95	5.7659e-06	5.7776e-06	279.21	79.841	62.496	18.261	5.7105e-06	25.585	188.782	-102.523	61.146	-111.794	79.041	-64.320	-112.112	-104.417	-122.225	-47.858	-104.620	-98.246	-98.271	-90.654	-45.350	-90.614	-8191	255	
968.595	1	1	0	0	0.11434	0.19461	0.4517	0.10354	0.18232	0.23269	0.10708	0.38095	0.1351	0.22526	0.098992	0.18081	0.15421	0.24197	0.24529	0.054797	-3.65	-4.8854	-3.9271	-4.4521	-4.4896	-3.8458	-4.8729	-4.3542	-3.9375	-4.7833	-4.1104	-4.3229	-4.6062	-3.7896	-4.6542	-4.5875	185.961	107.573	-31.742	200.914	-103.924	-86.057	-81.637	111.654	159.672	36.554	5.264	-59.993	-40.214	-74.187	-111.653	-108.443	0.00017226	0.00049397	7.6484e-05	1079.2	1.858e-06	2.9655e-06	1175.1	218.32	7.115e-07	2.7007e-06	282.41	77.864	62.1	17.767	2.4392e-06	24.85	0.00048822	0.00052313	0.00014782	1059.7	5.8225e-06	5.9187e-06	1163.8	218.36	5.9599e-06	5.9513e-06	280.57	79.835	62.908	18.272	5.6944e-06	25.596	181.089	221.237	86.639	-112.053	45.662	33.431	-112.072	-104.819	-70.242	-19.265	-104.580	-99.027	-97.897	-90.108	104.071	-90.434	-8191	255	
968.691	1	1	0	0	0.19508	0.066632	0.17777	0.2476	0.14478	0.10801	0.20749	0.093089	0.15257	0.076586	0.18664	0.15652	0.048461	0.14028	0.10362	0.060082	-3.5229	-4.7583	-4.0292	-4.4167	-4.6813	-3.7562	-4.6937	-4.5312	-3.8729	-4.65	-4.3125	-4.1438	-4.6062	-3.6646	-4.5854	-4.5958	120.763	10.642	96.136	213.160	235.396	45.186	193.578	171.843	0.861	28.279	95.926	209.692	220.399	108.649	124.899	-95.960	6.9236e-05	0.00059766	0.00013309	1079.9	3.3903e-06	2.954e-06	1182	217.74	6.3426e-06	1.9879e-06	281.71	79	61.396	17.651	1.6571e-06	24.749	0.00048698	0.00050622	0.00014202	1060	5.5103e-06	5.405e-06	1165.1	217.46	5.4626e-06	5.3375e-06	279.42	79.901	62.664	18.192	5.5454e-06	25.465	160.127	-24.825	14.856	-111.933	-27.556	39.271	-111.949	-104.382	66.188	-78.967	-104.864	-97.966	-98.078	-90.545	-27.082	-91.320	-8191	255	
968.787	1	1	0	0	0.02529	0.28559	0.14876	0.16857	0.055786	0.13332	0.26489	0.081111	0.16193	0.18073	0.18835	0.11822	0.25224	0.16096	0.013303	0.15328	-3.6896	-4.7812	-4.2479	-3.9833	-4.6188	-3.7313	-4.7083	-4.7188	-3.9792	-4.6917	-4.2625	-4.1146	-4.8896	-4.0458	-4.325	-4.5437	8.465	-55.344	-109.383	-44.731	206.233	-118.370	151.392	-121.701	56.045	-37.810	17.806	-116.231	-98.533	-64.973	101.113	-22.139	0.00015073	0.00024491	5.1636e-05	1078.6	2.0472e-06	3.9347e-06	1182.9	218.21	4.5852e-06	5.0215e-06	280.52	78.866	61.477	17.714	3.0327e-07	24.707	0.00048498	0.000506	0.00014104	1059.1	5.5841e-06	5.6123e-06	1164.4	218.1	5.731e-06	5.8606e-06	279.77	80.127	62.769	18.265	6.0266e-06	25.575	151.821	-66.711	46.285	-111.942	-44.505	23.260	-112.030	-104.261	14.357	-45.828	-104.785	-98.377	-97.768	-89.870	224.977	-91.043	-8191	255	
968.883	1	1	0	0	0.099996	0.19791	0.035268	0.22163	0.1407	0.19394	0.22725	0.042052	0.053887	0.11232	0.19352	0.085445	0.15639	0.25606	0.13268	0.16231	-3.4458	-4.6	-4.4833	-4.2937	-4.7021	-4.1687	-4.4875	-4.8438	-3.9625	-4.7312	-4.375	-3.9083	-4.9646	-4.0938	-4.2292	-4.8604	198.557	91.104	208.463	139.414	111.769	11.336	176.306	195.607	-56.721	204.468	227.964	-105.869	-89.392	53.299	113.720	91.752	0.00011578	0.00024366	8.491e-05	1078.8	3.3146e-06	3.0811e-06	1177	218.43	2.9071e-06	3.122e-06	278.92	78.409	61.878	17.782	4.6909e-06	24.882	0.00051817	0.00054591	0.00015099	1059.9	5.9125e-06	5.93e-06	1164.6	218.04	5.8208e-06	5.7936e-06	279.58	80.013	62.805	18.187	5.6021e-06	25.608	135.884	-5.262	-13.205	-112.013	-27.597	109.221	-111.650	-104.456	-51.664	210.212	-104.429	-98.487	-98.048	-90.436	63.400	-90.633	-8191	255	
968.979	1	1	0	0	0.27451	0.038658	0.052281	0.30036	0.11784	0.15447	0.18155	0.086399	0.065574	0.07911	0.089397	0.15886	0.013577	0.21784	0.19994	0.090526	-3.5438	-4.5083	-4.4271	-4.0125	-4.7458	-4.0875	-4.3063	-4.6438	-3.7854	-4.5188	-4.6292	-3.9729	-4.5896	-4.1125	-4.0625	-5.0354	121.621	163.056	-86.121	218.026	49.750	41.809	182.291	147.465	-67.752	14.683	219.871	37.546	26.032	216.755	225.119	-51.741	0.00015503	0.00021839	7.8077e-05	1076.2	2.0106e-06	4.2645e-06	1186.3	217.97	3.8728e-06	4.3127e-06	279.36	78.661	61.701	17.665	2.6643e-06	24.548	0.00047123	0.0005006	0.00014193	1059.9	5.6614e-06	5.6354e-06	1167.8	218.07	5.9762e-06	5.9357e-06	280.61	80.324	63.135	18.315	6.3178e-06	25.666	196.036	44.994	-45.198	-112.022	28.525	-37.341	-111.786	-104.312	-6.736	30.646	-104.471	-98.368	-98.251	-90.426	-7.824	-90.852	-8191	255	
969.075	1	1	0	0	0.39832	0.091425	0.15551	0.075052	0.039124	0.20136	0.18847	0.15651	0.074432	0.013913	0.076016	0.09093	0.092654	0.16801	0.12019	0.22512	-3.7646	-4.3521	-4.5708	-3.8104	-4.6417	-4.2604	-4.2479	-4.9187	-3.925	-4.3521	-4.675	-3.9938	-4.7667	-4.1188	-3.7958	-4.9187	2.819	90.966	215.224	128.343	133.302	211.306	180.752	-110.272	140.218	-64.218	230.007	94.319	78.028	-4.660	-56.466	234.586	0.00019297	4.1612e-05	0.00013165	1083.9	3.9325e-06	1.4521e-06	1185.9	218.69	2.5674e-06	5.3467e-06	280.72	78.591	61.724	17.758	3.3825e-06	24.801	0.00053044	0.00057718	0.00015743	1065.4	6.2205e-06	6.076e-06	1169.1	219.18	6.0507e-06	6.0175e-06	280.84	80.232	63.072	18.271	5.8813e-06	25.641	168.908	93.400	16.732	-112.007	55.844	68.015	-112.041	-104.410	-45.905	34.091	-104.543	-98.345	-97.946	-90.345	7.371	-90.627	-8191	255	
969.194	1	1	0	0	0.08394	0.12802	0.056774	0.12145	0.066945	0.037386	0.23585	0.10449	0.10435	0.18653	0.22746	0.075122	0.11462	0.17571	0.090621	0.15596	-3.8812	-4.2229	-4.7396	-3.9938	-4.5792	-4.2125	-4.0875	-4.9437	-4.075	-3.9292	-4.8104	-4.0958	-4.3438	-4.3083	-3.9833	-4.8375	75.638	70.274	176.381	180.720	136.032	184.444	169.967	-54.140	220.072	90.067	61.251	232.808	171.075	214.225	-104.252	181.160	0.00013588	0.0006739	7.4848e-05	1087.4	2.6008e-06	1.9151e-06	1179.8	219.36	2.4356e-06	3.3321e-06	280.07	78.885	61.453	17.757	1.5394e-06	24.838	0.00050049	0.00053418	0.00014755	1064.9	5.8462e-06	5.7135e-06	1166.3	218.93	5.736e-06	5.6401e-06	280.04	80.057	62.666	18.236	5.5413e-06	25.543	169.637	110.239	-41.032	-111.683	147.363	2.867	-112.075	-104.293	44.859	-28.387	-104.409	-98.263	-97.773	-90.072	164.613	-90.617	-8191	255	
969.291	1	1	0	0	0.13135	0.26967	0.10043	0.12526	0.025558	0.07569	0.30958	0.22296	0.10565	0.12014	0.18187	0.039467	0.24599	0.14593	0.17673	0.26861	-3.8812	-3.8271	-4.7354	-4.0542	-4.4437	-4.5625	-4.0167	-4.8438	-4.2354	-3.9979	-4.6292	-3.9833	-4.4271	-4.6771	-3.7583	-4.5333	14.581	-79.631	132.678	169.924	142.582	200.390	176.517	148.943	-69.998	113.140	-106.654	195.094	237.057	57.623	72.505	-107.302	0.00018239	0.00059968	4.8836e-05	1077.9	3.2041e-07	2.0481e-06	1180.6	219.02	3.4498e-06	1.5388e-06	279.75	78.893	61.5	17.853	6.7885e-06	24.775	0.0004678	0.00049895	0.00014105	1058.7	5.4373e-06	5.3648e-06	1164.7	218.16	5.2915e-06	5.3471e-06	279.29	79.751	62.511	18.175	5.2069e-06	25.4	185.260	-92.136	-83.615	-111.636	-45.931	-51.567	-111.668	-104.420	-14.311	92.477	-104.404	-97.886	-97.660	-90.071	-28.914	-90.380	-8191	255	
969.387	1	1	0	0	0.21905	0.067022	0.35144	0.13366	0.035547	0.023243	0.11422	0.073429	0.10104	0.12321	0.22099	0.061855	0.10973	0.23068	0.10716	0.1483	-4.0729	-3.9375	-4.8458	-4.0958	-4.1875	-4.5167	-3.9271	-4.7229	-4.2271	-3.9458	-4.9708	-4.0625	-4.2312	-4.6958	-3.8354	-4.45	153.062	95.389	96.499	211.174	101.241	62.660	-101.109	214.772	-11.008	67.717	117.889	-106.233	-56.527	-97.759	219.164	196.048	0.00014647	0.00036401	2.747e-05	1077.5	5.3576e-06	3.1614e-06	1180.7	218.34	3.3838e-06	2.9676e-06	278.98	78.647	61.382	17.743	1.1374e-06	24.581	0.00043376	0.00045834	0.00012543	1055.2	4.9821e-06	4.9585e-06	1163.4	217.58	5.0686e-06	5.1445e-06	278.82	79.836	62.565	18.148	5.1224e-06	25.4	157.427	-98.523	-55.237	-111.716	-5.789	-1.368	-111.745	-104.170	-86.043	15.009	-104.447	-97.978	-98.023	-89.906	124.743	-90.510	-8191	255	
969.483	1	1	0	0	0.18082	0.1144	0.32784	0.20688	0.21978	0.15433	0.20927	0.13067	0.16628	0.086472	0.29492	0.37687	0.084848	0.21938	0.23642	0.29503	-4.175	-4.0188	-4.9375	-4.0979	-4.2896	-4.8417	-4.0167	-4.5917	-4.6917	-4.0333	-4.7542	-4.2333	-4.2063	-4.825	-3.7792	-4.5333	59.119	138.299	-22.787	-89.018	-22.056	-48.636	118.153	91.558	-92.315	46.796	-75.457	40.573	-112.393	8.677	-12.545	212.300	0.00018153	0.00027305	7.0432e-05	1074.9	4.8605e-06	9.0605e-06	1182.3	219.11	1.2171e-06	5.6115e-06	281.53	78.83	61.545	17.814	2.5896e-06	24.692	0.0004399	0.00047122	0.00012906	1057.1	5.1488e-06	5.1657e-06	1162.4	217.86	5.1453e-06	5.2524e-06	279.8	79.779	62.524	18.258	5.2871e-06	25.442	168.967	-3.713	-106.473	-111.601	35.608	62.463	-111.816	-104.714	-42.060	2.234	-104.220	-98.258	-97.369	-90.322	-14.868	-90.360	-8191	255	
969.579	1	1	0	0	0.063278	0.15292	0.066813	0.15695	0.043692	0.083523	0.29877	0.1099	0.09245	0.11804	0.25258	0.024986	0.098701	0.18256	0.17015	0.097994	-4.3792	-3.9542	-4.6271	-4.3604	-4.05	-4.8667	-4.0625	-4.5479	-4.5417	-3.8667	-4.7188	-4.3792	-4.0312	-4.7063	-3.9604	-4.3625	-84.986	200.804	69.443	182.070	167.209	116.863	170.148	203.412	-120.982	-92.391	167.404	217.754	218.271	67.012	202.806	114.288	0.00015032	0.00044316	9.0614e-05	1078.5	4.1622e-06	6.516e-07	1178.2	219.6	2.9092e-06	3.6135e-06	280.42	78.675	61.834	17.73	5.6144e-06	24.795	0.00044792	0.00047658	0.00013211	1058.5	5.3479e-06	5.1842e-06	1163.2	217.85	5.2789e-06	5.2974e-06	279.54	79.709	62.527	18.202	5.4692e-06	25.53	145.930	-34.128	72.470	-111.552	11.422	-42.242	-111.758	-104.170	-8.224	-36.104	-104.305	-98.315	-97.569	-89.660	45.197	-90.481	-8191	255	
969.675	1	1	0	0	0.1681	0.13148	0.17546	0.20956	0.12121	0.017984	0.19831	0.15703	0.037202	0.19263	0.056505	0.14257	0.32365	0.17371	0.10278	0.12549	-4.3063	-3.7979	-4.8688	-4.3417	-3.85	-4.7667	-4.25	-4.5208	-4.6021	-3.7812	-4.8729	-4.4563	-3.9062	-4.725	-4.1396	-4.4021	137.700	-3.747	-69.721	125.754	139.312	142.494	102.334	-64.092	-38.702	38.991	99.264	55.412	-114.419	-52.014	73.608	180.587	0.00013271	0.00030949	6.3669e-05	1075.8	1.9692e-06	3.4818e-06	1180.2	218.8	7.6865e-07	3.4229e-06	280.72	78.874	61.36	17.75	2.7517e-06	24.653	0.00047151	0.0005173	0.00014391	1059	5.7346e-06	5.659e-06	1163.9	218.37	5.7134e-06	5.6851e-06	280.39	79.814	62.671	18.19	5.5782e-06	25.472	185.583	13.357	7.289	-111.699	8.436	-60.579	-111.930	-104.286	109.330	67.055	-104.257	-97.889	-97.714	-90.010	76.153	-90.616	-8191	255	
969.771	1	1	0	0	0.22097	0.14587	0.24651	0.15993	0.093464	0.24808	0.1737	0.19177	0.13601	0.16703	0.19173	0.060952	0.055476	0.31727	0.082335	0.15578	-4.3688	-3.8396	-4.5396	-4.6833	-3.7854	-4.8688	-4.2208	-4.2021	-4.9354	-3.9521	-4.4313	-4.5396	-3.9688	-4.6708	-4.125	-4.2854	27.076	-90.862	69.024	151.731	46.885	-36.577	203.167	-69.922	200.898	-88.792	148.519	-45.666	-116.819	-32.447	-89.489	111.024	0.00015216	0.00040586	8.7765e-05	1078.6	4.4594e-06	3.5161e-06	1185.6	219.9	9.8396e-07	5.1026e-06	281.67	78.841	61.186	17.736	2.7765e-06	24.712	0.00047843	0.00050457	0.00013895	1059.6	5.6294e-06	5.4892e-06	1165.6	218.59	5.4821e-06	5.5069e-06	280.31	79.968	62.636	18.185	5.4957e-06	25.468	173.700	-79.104	-62.107	-111.475	-90.104	18.497	-111.413	-104.134	-28.581	64.933	-104.802	-98.242	-98.192	-90.172	81.473	-90.661	-8191	255	
969.867	1	1	0	0	0.028208	0.26949	0.31931	0.021971	0.1255	0.32044	0.26192	0.36624	0.23624	0.17531	0.21142	0.099728	0.12459	0.073608	0.083509	0.2206	-4.4708	-3.7438	-4.4187	-4.7063	-3.9125	-4.6708	-4.4625	-3.8542	-4.5958	-4	-4.3688	-4.9229	-3.9083	-4.5542	-4.2167	-3.8833	-3.797	-119.556	-26.316	31.960	119.287	-16.034	164.527	187.564	89.367	113.347	209.426	-108.070	-22.609	116.492	67.034	215.689	0.00012627	0.000299	2.8931e-05	1077.1	1.6802e-06	4.2281e-06	1183	219.93	2.6976e-06	2.9062e-06	280.15	78.58	62.04	17.818	6.2621e-06	24.757	0.0004674	0.00049801	0.00013997	1058.5	5.5959e-06	5.4393e-06	1165.8	218.64	5.5368e-06	5.4867e-06	279.97	79.861	62.78	18.229	5.4765e-06	25.551	172.216	29.736	158.637	-111.846	-18.247	45.177	-111.989	-104.591	-45.048	167.451	-104.632	-98.394	-97.803	-90.154	-12.750	-90.503	-8191	255	
969.988	1	1	0	0	0.10598	0.062295	0.14974	0.26996	0.098747	0.22141	0.21813	0.018216	0.18412	0.042255	0.11067	0.20633	0.084298	0.074905	0.27796	0.086572	-4.5583	-4.0938	-4.2729	-4.6562	-3.7875	-4.4958	-4.6458	-4.0271	-4.8	-4.3583	-4.3125	-4.8063	-3.7938	-4.4604	-4.4042	-3.9042	80.300	227.405	64.172	209.159	173.886	-18.376	195.690	-121.011	-104.935	107.926	186.779	-53.930	190.275	52.593	37.477	173.125	0.00015358	0.00050559	8.0184e-05	1087.3	4.0304e-06	1.2948e-06	1181	219.06	5.2707e-06	3.9372e-06	280.62	78.771	61.646	17.773	2.9195e-06	24.663	0.00047087	0.00050125	0.00013996	1063.4	5.4474e-06	5.5137e-06	1165.7	218.59	5.4459e-06	5.4082e-06	280.13	80.09	62.709	18.249	5.3447e-06	25.459	198.632	-86.578	-16.382	-111.461	129.921	-116.218	-111.707	-104.441	-19.674	46.620	-104.379	-98.058	-97.547	-90.283	64.840	-90.869	-8191	255	
970.082	1	1	0	0	0.16565	0.045756	0.1016	0.15703	0.14803	0.20479	0.14239	0.3383	0.18972	0.17968	0.107	0.19954	0.092844	0.15211	0.12868	0.051287	-4.4812	-4.2104	-3.9896	-4.9021	-4.0563	-4.5437	-4.5833	-3.9271	-4.7271	-4.4062	-4.2854	-4.8854	-4.1229	-4.3958	-4.5542	-3.9667	-50.254	27.260	14.592	204.758	-41.338	67.522	144.793	-119.945	-26.817	75.168	163.690	78.269	44.245	187.278	-31.375	129.722	0.00016237	0.00058282	6.1476e-05	1076.4	3.7807e-06	1.3071e-06	1180.3	219.35	1.7125e-06	2.2558e-06	280.75	78.923	61.541	17.845	2.8367e-06	24.639	0.00045205	0.00047288	0.00013136	1056.7	5.1628e-06	5.0211e-06	1161.8	217.91	4.9909e-06	4.9745e-06	279.24	79.798	62.549	18.106	5.092e-06	25.416	165.267	-31.304	-35.922	-111.648	10.027	21.210	-111.344	-104.126	-54.074	204.621	-104.069	-97.762	-97.200	-89.983	25.161	-90.708	-8191	255	
970.156	1	1	0	0	0.1519	0.17467	0.12627	0.19868	0.14849	0.24355	0.18986	0.12718	0.26672	0.16398	0.13876	0.077584	0.15343	0.37096	0.11822	0.20665	-4.3812	-4.2146	-3.8688	-4.6937	-3.9042	-4.2833	-4.6333	-3.9833	-4.6312	-4.3521	-4.0417	-4.8333	-4.2958	-4.2771	-4.8167	-4.0292	230.257	-22.808	90.365	-112.271	-70.354	-10.462	163.304	43.491	-22.136	-62.454	149.810	-85.477	-22.871	-116.284	191.749	79.933	0.00011945	6.0389e-05	9.4454e-05	1076.6	9.198e-07	6.9661e-06	1181.8	218.51	5.0564e-06	1.0268e-06	281.36	78.605	60.962	17.767	5.6419e-06	24.654	0.00042921	0.00045587	0.00012852	1056.7	5.059e-06	4.9596e-06	1162.1	217.77	4.889e-06	4.844e-06	279.08	79.84	62.225	18.184	4.9343e-06	25.371	177.070	-87.699	106.827	-111.608	17.653	-6.028	-111.777	-104.222	65.040	60.528	-104.483	-98.115	-97.684	-90.289	0.389	-90.656	-8191	255	
970.276	1	1	0	0	0.14699	0.15322	0.24331	0.18414	0.18929	0.11769	0.13052	0.16749	0.18102	0.051412	0.22109	0.069323	0.012755	0.19883	0.18253	0.07793	-4.3688	-4.475	-3.9313	-4.7417	-3.9813	-4.2438	-4.8771	-4.0125	-4.6667	-4.5979	-4.1396	-4.7167	-4.2229	-4.0312	-4.6917	-3.8438	216.866	139.089	117.470	181.296	178.546	-55.750	201.451	73.277	-105.208	-90.986	158.826	-28.376	-0.875	-85.934	185.032	163.426	0.00017221	0.0003682	0.00017407	1079.2	4.4616e-06	4.2665e-06	1181.2	220.02	2.7998e-06	2.5251e-06	279.91	78.805	61.348	17.661	1.614e-06	24.881	0.00043124	0.00044706	0.00012909	1058.2	4.9722e-06	4.9581e-06	1162.3	217.74	5.0422e-06	4.9913e-06	279.14	79.743	62.415	18.127	5.0672e-06	25.385	181.940	-23.780	5.113	-111.649	-30.829	34.236	-111.595	-104.182	-45.783	107.414	-104.882	-98.555	-97.960	-89.819	210.285	-90.685	-8191	255	
970.371	1	1	0	0	0.11279	0.21294	0.078996	0.080224	0.10993	0.089692	0.28593	0.16547	0.054903	0.0088425	0.16915	0.057601	0.12097	0.23619	0.12399	0.18706	-4.0875	-4.575	-3.7417	-4.7375	-4.2812	-3.7729	-4.9083	-4.0188	-4.5083	-4.7375	-3.9813	-4.7063	-4.3792	-3.9125	-4.5854	-4.0333	181.047	-59.665	-84.391	177.948	88.248	-48.904	130.596	156.572	-2.226	128.684	97.792	182.409	21.457	-98.262	25.254	121.675	9.1086e-05	0.00023016	0.0001216	1079.2	1.3053e-06	3.3535e-06	1179.8	219.52	6.3035e-06	5.2903e-06	281.08	79.464	61.102	17.712	1.7644e-06	24.694	0.00043942	0.00046852	0.00013189	1058.7	5.1939e-06	5.2116e-06	1165.7	217.99	5.2193e-06	5.2053e-06	279.71	80.084	62.4	18.154	5.3834e-06	25.464	172.097	-30.184	-31.148	-111.905	-12.115	68.251	-111.899	-104.698	9.020	20.050	-104.922	-98.826	-98.578	-90.451	35.698	-91.050	-8191	255	
970.467	1	1	0	0	0.11672	0.10819	0.088094	0.29793	0.081115	0.12515	0.28687	0.075612	0.015168	0.070872	0.27519	0.23406	0.16041	0.1375	0.073117	0.15521	-4.275	-4.7958	-3.9313	-4.7625	-4.2583	-3.8021	-4.8896	-4.1271	-4.2229	-4.7833	-3.8771	-4.7583	-4.4708	-3.8396	-4.7375	-4.1813	224.360	18.587	-12.181	228.807	187.024	146.898	178.328	36.009	-14.958	93.816	120.829	97.640	94.636	-112.648	120.657	-39.381	0.00019068	0.00029142	5.487e-05	1082.8	2.7906e-06	2.3264e-06	1181.8	218.73	1.143e-06	1.9341e-06	281.88	78.408	61.656	17.787	4.2848e-06	24.679	0.00047122	0.0004913	0.00014065	1063.1	5.5959e-06	5.6084e-06	1167.1	218.09	5.5202e-06	5.4433e-06	279.91	79.774	62.755	18.239	5.3662e-06	25.389	188.989	-72.824	-20.851	-112.108	41.725	37.185	-112.207	-105.015	43.908	5.479	-105.026	-98.837	-98.090	-90.497	-18.784	-90.900	-8191	255	
970.563	1	1	0	0	0.13022	0.13996	0.1298	0.21749	0.063487	0.027971	0.33624	0.11259	0.14072	0.047611	0.22159	0.10609	0.32449	0.16221	0.10647	0.21688	-4.0229	-4.7937	-4.0729	-4.6667	-4.4521	-3.9042	-5.0458	-4.4021	-4.0813	-4.7562	-4.0167	-4.6354	-4.5938	-3.7958	-4.7875	-4.2708	-70.450	157.596	16.270	-16.481	-83.517	223.099	176.637	70.078	-71.858	55.104	-98.942	87.307	164.472	-117.369	13.817	60.245	0.00017797	0.00071272	9.0629e-05	1074.6	4.4368e-06	2.1507e-06	1184.4	217.83	2.0344e-06	2.2511e-06	279.78	78.821	61.27	17.753	3.0721e-06	24.631	0.00045465	0.00048016	0.0001331	1056	5.3011e-06	5.3601e-06	1164.1	217.58	5.4405e-06	5.3731e-06	279.26	79.896	62.493	18.2	5.3093e-06	25.391	184.920	-12.038	14.513	-112.045	85.321	170.818	-112.131	-104.675	205.326	88.988	-105.094	-98.649	-98.451	-90.823	-14.883	-91.046	-8191	255	
970.684	1	1	0	0	0.046227	0.056368	0.16997	0.13667	0.092739	0.25016	0.24685	0.14957	0.088406	0.18228	0.18433	0.074362	0.14257	0.18659	0.097316	0.072134	-3.7562	-4.7438	-3.8875	-4.4354	-4.6833	-3.85	-4.8771	-4.3854	-3.9396	-4.8875	-4.0938	-4.0271	-4.6292	-3.9062	-4.6354	-4.4479	127.818	124.889	94.125	-44.354	231.583	140.196	229.917	121.583	119.111	224.313	193.558	110.883	-1.938	93.731	-106.860	-45.445	0.00011973	0.00048676	7.938e-05	1081.1	2.8265e-06	1.2797e-06	1179.6	217.96	2.1982e-06	6.1168e-06	281.01	78.55	61.506	17.569	4.9827e-06	24.984	0.0004552	0.00046993	0.00013179	1057.5	5.0488e-06	5.0504e-06	1163	217.37	4.9705e-06	4.9227e-06	279.28	79.709	62.39	18.03	4.8746e-06	25.344	185.660	-46.549	-31.342	-112.196	-31.072	31.274	-112.352	-104.721	-111.613	64.166	-104.593	-99.095	-98.279	-90.978	-20.540	-90.715	-8191	255	
970.780	1	1	0	0	0.11489	0.16582	0.17246	0.17785	0.051026	0.091002	0.11004	0.11908	0.087313	0.26434	0.11766	0.10717	0.12146	0.22255	0.2872	0.18334	-3.7021	-4.9	-3.9021	-4.2937	-4.6771	-3.8375	-4.7458	-4.6521	-3.9396	-4.7688	-4.2021	-4.0854	-4.8333	-3.9313	-4.575	-4.4792	198.030	184.041	153.640	-39.905	-66.774	3.586	210.780	122.361	-105.387	7.121	51.558	226.929	127.155	-4.197	105.954	191.340	6.3196e-05	0.00035722	8.2048e-05	1076.9	3.8871e-06	5.9687e-06	1176	217.37	1.9392e-06	3.8069e-06	279.89	78.899	61.374	17.703	5.5268e-06	24.813	0.0004182	0.00043777	0.00012091	1054.9	4.794e-06	4.9327e-06	1161.9	217.42	4.8488e-06	4.7489e-06	278.69	79.695	62.233	18.086	4.8715e-06	25.36	193.799	-92.987	28.863	-112.391	65.573	60.122	-112.156	-104.834	6.597	60.676	-105.058	-98.736	-98.571	-90.590	6.313	-90.568	-8191	255	
970.876	1	1	0	0	0.032925	0.13908	0.1208	0.14672	0.052799	0.064207	0.1336	0.11878	0.22114	0.18992	0.04771	0.19066	0.11962	0.10072	0.1089	0.093871	-3.5479	-4.5771	-4.1479	-4.1833	-4.9333	-3.8688	-4.4896	-4.625	-3.8187	-4.8083	-4.4042	-4.0208	-4.6979	-4.1521	-4.3146	-4.5958	-18.449	34.208	-27.352	-120.831	224.096	143.193	-69.664	168.526	-41.581	-95.991	-4.630	226.067	-39.399	186.203	-82.110	20.475	0.000162	0.00011711	8.1826e-05	1075.7	3.6675e-06	2.1575e-06	1182.2	217.71	2.3835e-06	2.0339e-06	280.17	78.553	61.422	17.701	3.6326e-06	24.803	0.00042154	0.00044383	0.00012522	1054.3	4.9354e-06	5.0404e-06	1162.8	217.61	5.192e-06	5.2082e-06	278.93	79.725	62.632	18.126	5.21e-06	25.452	188.130	11.064	37.929	-112.206	-9.969	3.366	-112.231	-104.876	31.187	139.722	-104.969	-98.758	-97.939	-90.804	29.262	-90.843	-8191	255	
970.972	1	1	0	0	0.12719	0.09874	0.1517	0.18089	0.06506	0.11235	0.085952	0.077612	0.17691	0.072875	0.049995	0.053922	0.26168	0.077379	0.087216	0.042132	-3.4542	-4.6438	-4.3083	-4.1062	-4.5875	-3.8625	-4.3917	-4.9042	-3.8646	-4.5021	-4.4104	-4.1417	-4.9688	-4.0167	-4.0958	-4.7812	114.599	4.521	12.558	140.968	-18.600	199.981	194.865	93.379	7.367	1.202	114.273	-13.565	211.460	155.635	20.896	-118.422	0.00011605	0.00055898	8.8887e-05	1079.2	4.3705e-06	2.725e-06	1180.4	218.86	4.3428e-06	2.021e-06	279.79	78.306	61.348	17.734	2.0754e-06	24.631	0.0004497	0.00047148	0.00013022	1056	5.0843e-06	5.027e-06	1162.9	217.59	5.0414e-06	4.8145e-06	278.5	79.374	62.33	18.05	4.9014e-06	25.262	184.884	-61.760	-26.519	-112.224	-53.056	22.765	-112.395	-104.909	-64.817	-32.695	-104.595	-98.914	-98.414	-90.485	30.522	-91.022	-8191	255	
971.068	1	1	0	0	0.23257	0.078545	0.13808	0.22355	0.13889	0.14981	0.09587	0.031747	0.18305	0.10716	0.23638	0.24946	0.080911	0.014321	0.23073	0.05937	-3.6667	-4.6979	-4.5667	-4.1083	-4.7792	-4.1271	-4.3167	-4.8833	-3.975	-4.4229	-4.5125	-3.8063	-4.8	-4.3438	-4.0354	-4.875	95.224	-82.392	78.556	209.639	3.027	146.127	-117.888	-88.144	221.138	26.503	174.108	178.832	202.857	40.877	115.220	81.349	0.00018529	4.1892e-05	9.663e-05	1076	3.2783e-06	5.8201e-06	1181.4	219.88	1.9524e-06	7.4705e-06	280.69	79.106	61.396	17.609	2.3721e-06	24.681	0.00041601	0.00044449	0.00012165	1053.5	4.7675e-06	4.8361e-06	1162.5	217.67	4.8427e-06	4.8997e-06	278.45	79.658	62.301	18.058	4.9944e-06	25.322	203.852	42.047	-76.440	-112.482	-42.921	85.020	-112.208	-104.504	-40.074	58.218	-105.345	-98.813	-98.646	-90.449	53.328	-90.909	-8191	255	
971.165	1	1	0	0	0.16889	0.022382	0.072847	0.16586	0.080966	0.2337	0.097806	0.12327	0.25293	0.10611	0.10588	0.19115	0.019763	0.13959	0.063522	0.12236	-3.7333	-4.3542	-4.525	-3.9146	-4.7333	-4.3354	-4.1958	-4.9271	-3.9375	-4.2958	-4.6396	-3.975	-4.6521	-4.4146	-3.8667	-4.775	21.887	-46.825	201.126	-62.250	203.030	42.858	158.770	-72.867	81.732	-33.788	29.761	124.060	98.365	-86.150	134.141	48.929	0.00013269	0.00038942	0.00022604	1073.9	2.7643e-06	1.2537e-06	1175.2	219.02	2.0439e-06	3.3981e-06	280.69	78.696	61.191	17.78	3.5922e-06	24.801	0.00042973	0.0004552	0.00012915	1055.3	5.163e-06	5.2849e-06	1162	217.87	5.2817e-06	5.4009e-06	279.03	79.912	62.583	18.152	5.4488e-06	25.464	185.284	-79.517	-39.679	-112.084	-20.894	8.419	-112.453	-104.859	131.382	49.870	-104.811	-98.482	-98.242	-90.498	-27.760	-90.775	-8191	255	
971.283	1	1	0	0	0.090164	0.29653	0.082843	0.18102	0.21542	0.043657	0.18714	0.027975	0.11331	0.14611	0.074312	0.11884	0.32016	0.028332	0.060062	0.12421	-3.6833	-4.2292	-4.6604	-3.95	-4.5146	-4.3354	-4.0667	-4.8	-4.1229	-4.2708	-4.7458	-3.7062	-4.4271	-4.4021	-3.8792	-4.8271	227.768	137.196	66.328	226.289	29.570	-78.751	234.060	123.107	-25.611	228.741	27.012	175.003	-89.373	68.684	-40.834	234.317	8.6601e-05	0.00057921	7.9976e-05	1073	2.0345e-06	1.0387e-06	1183.5	217.74	2.9091e-06	3.1747e-06	281.15	78.553	61.786	17.519	5.0779e-06	24.414	0.00046248	0.00049463	0.00013648	1057.5	5.4027e-06	5.3836e-06	1163.7	217.75	5.3099e-06	5.2998e-06	279.73	79.804	62.678	18.101	5.2554e-06	25.31	142.717	-18.798	38.024	-112.121	162.316	82.498	-112.382	-104.565	-45.084	51.509	-104.781	-98.745	-98.454	-90.449	34.427	-90.794	-8191	255	
971.380	1	1	0	0	0.097179	0.055902	0.13593	0.1681	0.078987	0.078189	0.43562	0.12913	0.19637	0.062691	0.21658	0.19152	0.04675	0.28144	0.28027	0.11445	-3.7667	-4.2375	-4.8688	-3.9646	-4.4062	-4.6438	-3.8771	-4.8875	-4.2271	-4.0896	-4.7417	-3.9896	-4.5104	-4.6687	-3.7417	-4.9	77.595	-52.143	-49.422	-113.580	-49.206	-83.558	181.604	168.503	-50.135	33.936	-68.967	226.926	104.184	-92.895	207.546	176.761	0.00015809	0.00027341	6.1219e-05	1079.1	6.818e-06	4.1523e-06	1177.3	219.82	3.9384e-06	3.0167e-06	280.99	78.696	61.438	17.674	1.0087e-06	24.529	0.00044974	0.00049386	0.00013352	1058.3	5.4234e-06	5.438e-06	1164.5	218.86	5.5622e-06	5.6938e-06	280.39	79.769	62.819	18.23	5.7468e-06	25.432	175.790	-116.104	7.704	-112.176	1.209	63.134	-112.386	-104.765	68.322	-38.517	-104.528	-98.757	-98.582	-90.579	-57.305	-90.663	-8191	255	
971.451	1	1	0	0	0.23272	0.19901	0.046293	0.15949	0.24172	0.24361	0.17167	0.043962	0.093785	0.14703	0.20463	0.017887	0.10795	0.07709	0.17465	0.21855	-3.9042	-3.8979	-4.8271	-4.1875	-4.1271	-4.7708	-4.1521	-4.5917	-4.4	-4.0042	-4.8708	-3.9979	-4.1896	-4.8396	-3.7479	-4.7229	-30.085	83.405	-105.138	140.040	47.131	101.316	109.814	140.308	60.820	88.963	167.167	82.305	-75.022	183.106	-51.758	-37.115	0.00017228	0.00028724	5.9213e-05	1076.7	4.7984e-06	3.8472e-06	1185.3	218.88	4.268e-06	4.9714e-06	281.77	78.616	61.754	17.784	5.157e-06	24.618	0.00049117	0.00053014	0.00014447	1060.8	5.678e-06	5.6939e-06	1164.6	218.4	5.5587e-06	5.6509e-06	280.14	79.957	62.734	18.197	5.5559e-06	25.479	186.706	235.975	130.291	-112.284	30.771	11.428	-112.190	-105.125	-107.527	72.558	-104.968	-98.871	-98.572	-90.549	-24.429	-91.152	-8191	255	
971.547	1	1	0	0	0.1154	0.23149	0.12162	0.082059	0.22288	0.17668	0.20706	0.2183	0.17167	0.16111	0.22276	0.2168	0.094494	0.15425	0.090755	0.3256	-4.2479	-3.8187	-4.6813	-4.2729	-4.2604	-4.8417	-3.8896	-4.6625	-4.6104	-3.9771	-4.8229	-4.3	-4.1854	-4.6813	-3.825	-4.5	68.048	-117.323	184.859	229.026	-11.388	182.227	93.488	170.153	-67.342	50.155	197.874	201.614	175.389	105.110	209.694	215.423	0.00019563	0.00041589	0.00013827	1077.4	3.9902e-06	1.7857e-06	1177.4	218.31	3.0728e-06	3.6382e-06	281.84	78.647	61.66	17.689	3.7024e-06	24.694	0.00046555	0.00048685	0.00013307	1059.8	5.2378e-06	5.2096e-06	1163	217.84	5.157e-06	5.1848e-06	279.61	79.697	62.59	18.13	5.018e-06	25.367	175.024	-60.493	17.371	-112.108	34.430	110.531	-112.138	-104.653	-5.861	35.819	-104.958	-98.561	-98.852	-90.416	-17.248	-90.835	-8191	255	
971.668	1	1	0	0	0.075242	0.088352	0.072511	0.11447	0.088564	0.1218	0.19922	0.22573	0.17697	0.19436	0.010156	0.082317	0.17115	0.21112	0.074853	0.056376	-4.4042	-3.7542	-4.7438	-4.4125	-4.2438	-4.9271	-3.9417	-4.5083	-4.6333	-3.7833	-4.7063	-4.5083	-4.2063	-4.9042	-4.0792	-4.4208	130.702	134.839	173.015	211.997	99.962	74.862	210.715	115.608	-12.322	99.351	-6.501	43.208	-53.085	-105.724	175.889	-59.930	8.7745e-05	0.00049334	8.7985e-05	1078.8	2.9407e-06	5.8689e-06	1173.9	219.13	3.3202e-06	5.2879e-06	281.17	78.88	61.553	17.741	4.7836e-06	24.58	0.00044182	0.00046946	0.00012786	1057	5.125e-06	4.9591e-06	1163.1	217.6	5.0942e-06	5.1215e-06	279.74	79.878	62.443	18.168	5.1503e-06	25.354	169.014	65.828	16.441	-112.301	-9.742	29.596	-112.152	-104.608	70.462	24.535	-105.098	-98.731	-98.373	-90.551	22.030	-90.751	-8191	255	
971.764	1	1	0	0	0.25438	0.11045	0.062845	0.077734	0.128	0.173	0.12317	0.15912	0.15362	0.13303	0.071438	0.11948	0.18058	0.14124	0.056857	0.22365	-4.5646	-3.9	-4.4938	-4.6312	-3.9688	-4.6146	-4.2208	-4.2792	-4.8771	-3.6729	-4.5479	-4.4917	-3.925	-4.7708	-4.25	-4.1958	85.983	-76.284	192.516	162.298	124.440	216.152	38.376	-47.033	12.244	87.877	-19.672	91.112	202.110	-56.588	-24.954	4.177	0.00015466	0.00011685	0.00015513	1071.9	5.2242e-07	5.9541e-06	1183.9	218.68	3.0541e-06	4.0799e-06	282.72	79.044	62.014	17.718	3.4285e-06	24.671	0.00044825	0.00047847	0.00013553	1056.2	5.4222e-06	5.5017e-06	1165.3	218.15	5.4352e-06	5.5952e-06	280.44	80.146	62.891	18.212	5.707e-06	25.502	200.161	-2.223	-37.493	-111.903	133.743	12.584	-112.329	-104.839	-76.322	48.489	-105.021	-98.395	-97.912	-90.655	43.861	-90.883	-8191	255	
971.860	1	1	0	0	0.055545	0.16965	0.18942	0.091705	0.15678	0.11392	0.12361	0.070714	0.19593	0.02135	0.065914	0.14319	0.32851	0.22457	0.10973	0.028105	-4.2229	-3.7979	-4.5792	-4.6854	-3.9354	-4.7	-4.4688	-4.1917	-4.7271	-3.9396	-4.5896	-4.7063	-3.7771	-4.7667	-4.2708	-4.1604	-33.885	109.508	-44.074	-76.807	-63.990	69.049	110.113	-101.836	35.585	87.285	98.398	191.259	171.158	-112.553	166.470	116.614	0.0001949	0.00068689	0.00012411	1083.5	1.1375e-06	1.0712e-06	1179	218.87	1.8979e-06	4.2788e-06	281.75	78.675	61.696	17.711	8.8895e-07	24.853	0.00048279	0.00051713	0.00014274	1062.8	5.5602e-06	5.3339e-06	1165.4	218.12	5.1801e-06	5.1699e-06	279.8	79.682	62.534	18.12	4.7428e-06	25.32	181.451	29.655	-73.222	-112.149	222.698	-22.813	-112.204	-104.859	-23.380	50.861	-105.183	-98.393	-97.888	-90.966	-55.102	-90.749	-8191	255	
971.956	1	1	0	0	0.17453	0.12147	0.03861	0.054671	0.12954	0.042453	0.17134	0.10069	0.026744	0.15962	0.20648	0.098304	0.25269	0.15674	0.058556	0.25184	-4.4729	-3.95	-4.4187	-4.7479	-3.6958	-4.6417	-4.5583	-3.975	-4.7542	-3.9688	-4.3625	-4.5083	-3.8292	-4.6792	-4.3792	-4.0292	179.063	77.139	-117.983	-89.659	201.403	4.296	-34.308	222.305	215.491	24.659	202.395	131.129	213.310	49.377	118.772	5.890	0.00018423	0.00017662	0.00015069	1076.8	3.4822e-06	3.8529e-06	1171.4	217.62	3.6e-06	3.615e-06	280.26	77.757	60.952	17.602	3.3651e-06	24.471	0.00040501	0.00042116	0.00011761	1052.8	4.516e-06	4.4075e-06	1155.8	216.49	4.3373e-06	4.2998e-06	277.46	78.757	61.588	17.844	4.0738e-06	24.98	164.938	0.553	-104.631	-112.257	13.088	19.844	-112.290	-104.789	-11.445	2.852	-105.071	-98.364	-98.467	-90.505	-1.703	-90.866	-8191	255	
972.053	1	1	0	0	0.10058	0.05564	0.14532	0.13894	0.21502	0.11432	0.35904	0.10854	0.32986	0.095433	0.2017	0.16486	0.072704	0.11137	0.13412	0.082531	-4.5521	-4.0792	-4.1542	-4.7729	-3.7687	-4.4688	-4.7354	-3.9396	-4.7375	-4.1	-4.2854	-4.9104	-3.8833	-4.5167	-4.3833	-3.8458	51.305	55.491	142.730	176.996	103.174	-47.936	143.786	114.739	-2.730	127.832	51.081	224.154	35.486	218.025	-85.224	180.558	0.0001176	0.00016518	5.9427e-05	1067.1	2.2909e-06	6.1542e-06	1166	217.69	2.8897e-06	5.9002e-06	277.71	77.879	60.722	17.445	3.1514e-06	24.619	0.0003438	0.00035597	0.00010214	1044.5	4.0433e-06	3.9718e-06	1150.3	215.73	4.0064e-06	4.0797e-06	275.42	78.683	61.582	17.847	4.144e-06	25.019	176.702	225.994	-26.482	-111.864	38.485	5.833	-112.302	-104.906	91.232	99.325	-104.933	-98.732	-98.324	-90.236	-49.362	-91.169	-8191	255	
972.149	1	1	0	0	0.070747	0.21251	0.21507	0.12182	0.14614	0.14823	0.029481	0.087978	0.29256	0.055059	0.19387	0.21153	0.069347	0.12869	0.069854	0.040458	-4.5188	-4.0958	-3.9479	-4.9979	-3.9979	-4.2271	-4.8792	-3.8979	-4.7458	-4.2792	-4.1833	-4.875	-4.075	-4.3833	-4.6521	-3.8958	23.321	191.748	211.349	160.764	-27.992	-39.341	-53.085	202.635	11.212	49.346	10.517	184.142	95.831	-104.991	192.369	174.062	0.00010633	0.00048321	2.375e-05	1070.2	3.8187e-06	3.8587e-06	1171.4	216.43	2.664e-06	4.7931e-06	278.16	77.799	61.215	17.653	3.0099e-06	24.572	0.00036224	0.00038125	0.00010765	1045.4	4.3632e-06	4.2608e-06	1151.1	215.44	4.3245e-06	4.3226e-06	276.24	78.93	61.919	17.924	4.4947e-06	25.173	203.379	-22.615	236.562	-112.037	87.299	21.047	-112.158	-104.744	-22.980	67.989	-105.130	-98.519	-98.385	-90.918	109.208	-91.633	-8191	255	
972.245	1	1	0	0	0.099559	0.10289	0.11546	0.11105	0.10419	0.047221	0.16371	0.18465	0.13828	0.11407	0.23931	0.086597	0.20151	0.20198	0.14675	0.13215	-4.3562	-4.3667	-4.1813	-4.9479	-3.9083	-4.2396	-4.8542	-3.7354	-4.6813	-4.5729	-4.0792	-4.7083	-3.9167	-4.3708	-4.8	-3.9458	-67.379	-88.090	155.637	216.880	78.321	156.731	187.811	-72.109	-92.687	167.454	200.121	150.642	216.894	13.545	229.120	-39.820	0.00013395	0.00026372	0.00011315	1066.8	4.0434e-06	2.5969e-06	1173.7	217.13	1.3209e-06	6.0728e-07	276.96	77.949	60.961	17.504	3.8944e-06	24.534	0.00038367	0.00041033	0.0001136	1047.3	4.3944e-06	4.4114e-06	1154	215.47	4.2778e-06	4.3174e-06	276.29	78.882	61.736	17.84	4.2997e-06	25.078	172.405	-81.218	3.094	-112.064	34.324	-81.565	-112.086	-104.617	192.054	-110.736	-104.973	-98.642	-98.180	-90.397	-0.050	-90.647	-8191	255	
972.364	1	1	0	0	0.085975	0.076388	0.10039	0.1773	0.070614	0.16408	0.39895	0.035501	0.18587	0.18317	0.20844	0.059195	0.14738	0.061392	0.38278	0.046553	-4.1687	-4.2854	-3.9042	-5.0042	-4.1375	-3.975	-5.0583	-3.9708	-4.4854	-4.5417	-4.0312	-4.8479	-4.05	-4.1438	-4.8313	-3.775	15.078	-6.896	154.923	206.765	19.677	67.301	128.275	223.212	-93.767	102.781	-84.421	-52.511	156.534	221.479	191.392	71.749	0.00012609	0.00033427	8.7972e-05	1071.9	1.3692e-06	6.348e-06	1172.8	216.71	2.5582e-06	5.2561e-06	277.9	78.434	60.767	17.674	2.1569e-06	24.426	0.00036794	0.00038318	0.00010671	1046.9	4.1806e-06	4.1439e-06	1151.3	215.17	4.1424e-06	4.1695e-06	275.71	78.889	61.626	17.92	4.2227e-06	25.039	185.174	-70.662	-70.586	-112.247	-41.921	69.054	-112.313	-105.073	0.247	-79.044	-104.850	-98.650	-98.409	-90.482	10.720	-91.067	-8191	255	
972.460	1	1	0	0	0.25436	0.1018	0.22813	0.044487	0.2175	0.12261	0.27306	0.13752	0.012696	0.094311	0.21565	0.22111	0.16999	0.408	0.090955	0.21093	-4.0646	-4.7042	-3.7479	-4.85	-4.2354	-4.1438	-5.0146	-4.0104	-4.4542	-4.6438	-3.9396	-4.5104	-4.4125	-3.975	-4.8875	-4.1833	-26.320	-23.036	151.495	32.415	32.231	-37.824	154.589	194.104	-83.794	150.977	155.315	175.753	-15.765	200.211	-24.449	109.940	0.00014397	8.0502e-05	9.045e-05	1068	8.431e-07	1.4926e-06	1173	217.42	2.1697e-06	1.683e-06	278.27	78.119	60.863	17.546	1.4624e-06	24.371	0.00037417	0.00039922	0.00011161	1047.9	4.4303e-06	4.4973e-06	1154.2	216.19	4.6613e-06	4.5113e-06	276.79	79.046	61.925	17.942	4.6228e-06	25.104	170.631	167.538	208.795	-112.156	102.280	102.656	-112.229	-104.857	64.570	24.489	-104.862	-98.482	-98.082	-90.487	9.605	-90.936	-8191	255	
972.556	1	1	0	0	0.1768	0.067715	0.042665	0.055869	0.10556	0.20161	0.031845	0.15855	0.081477	0.1492	0.32772	0.042715	0.21558	0.23493	0.20694	0.097245	-4.0979	-4.6333	-3.8396	-4.7729	-4.4125	-3.9667	-5.0104	-4.25	-4.0875	-4.6771	-3.8292	-4.5813	-4.5625	-3.8271	-4.7958	-4.3354	81.007	44.528	60.632	223.610	-61.005	-51.132	185.523	157.917	134.248	-22.728	103.396	-57.252	49.705	178.475	-99.154	199.682	0.00010215	0.00029171	9.5413e-05	1066.4	1.4359e-06	2.3759e-06	1175.7	218.56	2.6982e-06	2.7293e-06	278.8	78.177	61.858	17.654	2.7575e-06	24.684	0.00041015	0.00042673	0.00011974	1050.1	4.6539e-06	4.6446e-06	1158	216.64	4.7326e-06	4.687e-06	277.71	79.13	62.357	17.99	4.6881e-06	25.148	173.564	-102.910	-62.728	-112.241	30.632	-18.719	-112.095	-104.793	-47.380	81.851	-105.105	-98.696	-98.386	-90.600	69.783	-91.249	-8191	255	
972.677	1	1	0	0	0.046	0.17004	0.086628	0.11251	0.046809	0.24397	0.14791	0.10926	0.069553	0.11736	0.23068	0.16876	0.373	0.15779	0.14756	0.22731	-3.8167	-4.6542	-3.8312	-4.6083	-4.6521	-3.775	-4.9042	-4.3729	-3.9688	-4.7667	-4.0521	-4.2979	-4.5979	-4.0417	-4.8042	-4.2833	133.294	153.165	90.254	221.606	-107.116	19.496	151.052	124.731	218.763	23.646	61.972	50.830	28.172	-91.377	51.900	187.013	0.00013059	0.00040247	0.00014548	1072.2	2.0418e-06	2.9694e-06	1174.2	216.99	4.6304e-07	1.8282e-06	279.27	77.248	61.339	17.514	3.3764e-06	24.49	0.00041129	0.00043254	0.00012033	1054.2	4.7904e-06	4.8593e-06	1156.8	216.74	4.7798e-06	4.7008e-06	277.83	78.907	62.18	17.959	4.8038e-06	25.196	184.709	-65.732	-34.886	-112.087	-71.976	110.607	-112.405	-104.828	16.786	-64.011	-104.963	-98.778	-98.202	-90.779	-84.484	-90.850	-8191	255	
972.748	1	1	0	0	0.26115	0.034762	0.099811	0.18248	0.25448	0.10346	0.1358	0.074613	0.16207	0.090219	0.08484	0.12523	0.066855	0.12075	0.23769	0.043244	-3.6458	-4.7937	-3.9479	-4.4271	-4.7146	-3.7854	-4.7792	-4.3604	-4.1417	-4.8	-4.0083	-4.1875	-4.9083	-3.8375	-4.4604	-4.3958	173.673	152.692	32.629	-64.326	104.361	215.305	195.956	196.083	-67.332	-11.032	-15.091	-4.873	-44.580	1.411	-29.834	233.808	0.00010853	0.00023887	0.000186	1074.4	1.0434e-06	6.337e-06	1179.1	218.26	5.7128e-06	1.231e-06	280.19	78.564	61.535	17.538	3.616e-06	24.29	0.00041023	0.00043002	0.00012267	1053.3	4.763e-06	4.7717e-06	1160.1	216.51	4.769e-06	4.701e-06	278.18	79.377	62.034	17.971	4.6988e-06	25.107	185.480	10.550	-38.223	-112.193	106.763	69.905	-112.529	-104.660	-35.945	-10.007	-104.974	-98.755	-98.400	-90.735	1.588	-91.294	-8191	255	
972.845	1	1	0	0	0.29445	0.077238	0.13741	0.22144	0.21778	0.063579	0.1449	0.19805	0.078963	0.19457	0.075317	0.017325	0.16162	0.15574	0.1294	0.18596	-3.6375	-4.6979	-3.9688	-4.3187	-4.7937	-3.8604	-4.6125	-4.45	-3.8021	-4.8938	-4.3146	-4.3271	-4.6542	-4.1396	-4.3958	-4.6104	120.539	-83.931	18.373	218.075	150.072	146.541	190.021	86.583	-85.021	190.876	-92.941	63.957	-50.487	-118.196	10.095	56.336	0.00016142	0.00042182	0.00013682	1072.5	4.2914e-06	7.4223e-07	1178.2	218.64	9.3902e-07	3.7484e-06	279.68	77.962	61.46	17.434	1.8508e-06	24.419	0.00040863	0.00042849	0.00011777	1052.2	4.6738e-06	4.6921e-06	1159.4	216.8	4.7561e-06	4.5819e-06	277.75	79.155	62.084	17.953	4.6458e-06	25.13	185.067	226.467	73.222	-112.315	62.731	231.414	-112.261	-104.575	63.892	89.834	-105.054	-98.786	-98.338	-90.444	7.050	-91.001	-8191	255	
972.965	1	1	0	0	0.15345	0.097662	0.28418	0.097017	0.19529	0.057927	0.081967	0.27932	0.161	0.19752	0.13746	0.079593	0.075247	0.23717	0.18183	0.27366	-3.3812	-4.7125	-4.2	-4.2	-4.8208	-3.8354	-4.3604	-4.7708	-3.9604	-4.5979	-4.1896	-4.0708	-4.6792	-4.0833	-4.4167	-4.6125	-102.471	16.420	-40.573	211.158	-92.761	43.660	-20.760	145.267	191.497	183.548	232.175	-76.858	142.692	123.373	109.696	-79.492	0.00017766	7.6206e-05	0.00011306	1076.4	7.4274e-06	5.3274e-06	1173.1	217.04	4.4784e-06	2.3302e-06	277.78	78.079	61.348	17.477	3.725e-06	24.543	0.00040391	0.00041954	0.00011904	1053.3	4.7164e-06	4.6522e-06	1157.1	216.32	4.7032e-06	4.6902e-06	277.5	79.201	62.041	17.928	4.6282e-06	25.179	174.150	-103.012	-5.350	-112.280	-13.300	24.662	-112.170	-105.037	-33.868	-79.700	-104.889	-98.799	-98.108	-90.709	58.228	-90.818	-8191	255	
973.061	1	1	0	0	0.077249	0.080719	0.032882	0.11191	0.17871	0.11687	0.079915	0.070433	0.2875	0.16723	0.10754	0.058696	0.031376	0.22718	0.13632	0.31282	-3.5271	-4.6396	-4.2771	-4.075	-4.7604	-3.95	-4.3792	-4.8938	-3.9688	-4.5396	-4.4729	-4.0458	-4.8708	-4.0625	-4.1188	-4.7083	64.286	116.547	-10.162	180.683	5.222	32.921	72.772	-98.077	120.977	58.429	35.927	-107.604	18.471	-103.309	-20.757	85.390	0.00013826	0.00032258	0.00012069	1072.6	3.3749e-06	2.9133e-06	1179.9	218.43	1.93e-06	1.0878e-06	279.19	78.6	61.14	17.677	1.2487e-06	24.584	0.00040843	0.00041924	0.00012023	1053.5	4.7839e-06	4.7946e-06	1161.2	216.57	4.9375e-06	4.9822e-06	277.97	79.337	62.142	18.033	4.9505e-06	25.211	198.854	-9.904	36.493	-112.116	-74.731	-1.975	-112.378	-104.918	-55.403	218.997	-105.329	-98.626	-98.312	-90.518	222.433	-90.597	-8191	255	
973.156	1	1	0	0	0.070912	0.11701	0.23783	0.14469	0.1714	0.21171	0.27449	0.16254	0.22432	0.14414	0.12812	0.12202	0.030381	0.04691	0.052704	0.13699	-3.6625	-4.6042	-4.5042	-3.9479	-4.7708	-4.2583	-4.1958	-4.6875	-3.8083	-4.3938	-4.7937	-3.8521	-4.8104	-4.2021	-3.8021	-4.775	148.927	-49.025	230.439	195.532	196.834	123.073	194.649	162.814	137.681	-58.007	184.115	138.590	91.731	188.653	98.484	145.021	0.00015393	0.00035499	7.7673e-05	1070.5	2.6463e-06	4.1718e-06	1175.9	217.55	4.1953e-06	3.0216e-06	280.53	78.294	61.197	17.612	2.606e-06	24.662	0.00042155	0.00044301	0.00012236	1051.6	4.8113e-06	4.8774e-06	1160	216.72	4.9466e-06	4.9203e-06	278.6	79.284	62.304	18.063	5.0598e-06	25.247	190.784	26.409	2.289	-112.270	54.616	15.099	-112.260	-104.781	-30.883	18.365	-105.020	-98.511	-98.591	-90.425	36.425	-91.083	-8191	255	
973.252	1	1	0	0	0.12816	0.076243	0.077747	0.32848	0.18222	0.14572	0.13301	0.41798	0.14326	0.061393	0.1766	0.24271	0.17987	0.096063	0.066186	0.21944	-3.6792	-4.2688	-4.6312	-3.9167	-4.65	-4.4167	-4.1188	-4.7	-4.0104	-4.4521	-4.75	-3.8292	-4.6479	-4.4146	-3.9	-4.8271	-6.618	222.894	147.042	190.880	191.948	81.768	139.603	1.035	-97.832	215.704	-6.991	222.741	70.058	53.811	-108.915	-80.672	0.00022115	0.00032469	0.00015751	1072.1	2.6405e-06	3.912e-06	1173.6	218.44	2.6381e-06	3.293e-07	279.95	78.49	61.615	17.618	1.9851e-06	24.514	0.00042755	0.00044902	0.00012525	1052.6	4.8302e-06	4.778e-06	1157.5	217.03	4.7866e-06	4.8553e-06	278.24	79.307	62.255	17.989	4.8537e-06	25.135	171.564	57.146	-32.610	-112.351	76.865	-45.554	-112.441	-104.711	-14.163	128.536	-104.632	-98.956	-98.486	-90.677	114.865	-91.252	-8191	255	
973.348	1	1	0	0	0.13587	0.27149	0.17944	0.004665	0.052159	0.075039	0.11554	0.12139	0.097227	0.1098	0.26399	0.17111	0.23192	0.15672	0.17428	0.22679	-3.7542	-3.9917	-4.5708	-3.9729	-4.6854	-4.1833	-3.7938	-4.8562	-4.325	-4.0458	-4.8333	-3.8729	-4.5188	-4.4854	-3.9146	-4.8	-76.343	164.369	-30.336	227.380	121.683	87.755	67.999	49.856	82.024	-45.175	-120.867	-40.103	207.937	114.790	-92.295	204.210	0.00015322	0.00061277	0.00018742	1073.7	5.0014e-06	3.7074e-06	1174.3	218.94	2.5923e-06	1.6081e-06	282.07	78.171	61.141	17.657	4.7653e-06	24.446	0.00041776	0.00043553	0.00012056	1052.6	4.7802e-06	4.7489e-06	1159.1	216.63	4.7049e-06	4.8529e-06	278.44	79.048	62.047	17.982	4.8809e-06	25.126	187.442	-38.656	-36.338	-112.180	22.492	3.141	-112.239	-105.033	168.555	-103.738	-104.767	-98.830	-98.408	-90.549	59.283	-90.966	-8191	255	
973.444	1	1	0	0	0.18174	0.13605	0.14066	0.2228	0.15755	0.11179	0.1561	0.22622	0.09647	0.06622	0.02226	0.094327	0.099562	0.11174	0.26478	0.12519	-4.0271	-4.1333	-4.5583	-3.8521	-4.2542	-4.6708	-4.0583	-4.6792	-4.2771	-3.9417	-4.9062	-3.9562	-4.3583	-4.4375	-3.775	-4.8854	226.541	129.804	158.845	206.699	42.138	9.805	-103.478	-76.043	-78.420	34.755	130.606	139.682	-40.200	170.288	223.777	-96.752	0.00013294	0.00051477	0.00011287	1075.7	1.3835e-06	3.4214e-06	1176.9	218.28	5.1711e-07	1.6463e-06	279.62	78.575	61.679	17.678	5.7588e-06	24.511	0.000402	0.00042933	0.00012029	1053.7	4.714e-06	4.5661e-06	1158.2	216.73	4.6633e-06	4.6889e-06	277.78	79.166	62.109	17.967	4.6611e-06	25.159	179.449	-25.870	31.306	-112.177	137.407	108.293	-112.125	-104.735	206.839	63.055	-104.840	-98.779	-98.550	-90.511	68.786	-91.035	-8191	255	
973.540	1	1	0	0	0.19027	0.19092	0.22621	0.31876	0.086225	0.095851	0.19153	0.17357	0.11087	0.20879	0.034555	0.11578	0.20273	0.055803	0.16125	0.11978	-4.2312	-3.9125	-4.6625	-4.1062	-4.3146	-4.6708	-4.0083	-4.7792	-4.3354	-3.9771	-4.8854	-4.0125	-4.2667	-4.7271	-3.7687	-4.5792	203.076	-54.471	-79.085	-119.701	123.426	90.141	147.655	205.926	-104.561	224.447	-70.685	174.898	-22.234	89.981	235.933	-76.031	0.00012638	0.00027056	0.00010477	1079.4	3.4657e-06	8.3678e-07	1173.7	217.36	4.5265e-06	4.061e-06	280.13	78.595	61.135	17.508	5.2887e-06	24.502	0.00039381	0.00041321	0.00011568	1053.5	4.5397e-06	4.4357e-06	1157.5	216.42	4.3115e-06	4.4382e-06	277.24	79.182	61.924	17.889	4.4809e-06	25.073	183.930	206.321	5.463	-112.283	-60.377	13.618	-112.551	-104.927	-28.400	112.196	-105.003	-98.513	-98.284	-90.557	52.910	-91.074	-8191	255	
973.637	1	1	0	0	0.21902	0.1896	0.2286	0.19913	0.24788	0.18939	0.3556	0.042579	0.1401	0.29299	0.14945	0.14252	0.16733	0.10949	0.14056	0.10609	-4.0521	-3.8917	-4.8208	-4.2458	-3.7938	-4.8542	-4.1562	-4.5021	-4.5208	-3.7396	-4.6562	-4.3458	-4.1604	-4.7688	-3.8292	-4.4292	93.477	56.718	135.859	144.696	165.109	196.206	121.049	-96.306	-93.112	26.011	226.376	-27.696	168.468	-70.543	112.401	208.796	0.00016974	0.00039587	6.2804e-05	1074.9	2.523e-06	6.4186e-06	1178.7	217.25	3.2919e-06	2.2945e-06	279.4	77.95	61.168	17.565	5.8429e-07	24.573	0.00036866	0.00039745	0.00010961	1050.8	4.3227e-06	4.3017e-06	1157.4	216.07	4.318e-06	4.2542e-06	276.85	79.126	61.875	17.898	4.4464e-06	25.08	182.430	-47.722	19.973	-112.237	-16.393	72.928	-112.317	-104.730	-20.609	58.736	-105.061	-98.511	-98.162	-90.553	49.279	-91.122	-8191	255	
973.757	1	1	0	0	0.22635	0.12082	0.15535	0.29577	0.16196	0.11844	0.29466	0.034862	0.052625	0.25061	0.13246	0.14033	0.046126	0.041995	0.17748	0.084128	-4.3812	-3.8042	-4.825	-4.3604	-3.9729	-4.7458	-3.9813	-4.3917	-4.6562	-3.7854	-4.7417	-4.4187	-3.9938	-4.9125	-4.0458	-4.2479	65.212	-49.697	147.330	193.974	4.989	48.899	230.889	55.901	64.632	-45.536	191.519	211.148	118.246	187.334	118.543	120.897	0.00016072	0.00064254	8.7711e-05	1072.6	5.6902e-07	2.2471e-06	1175	217.48	2.3796e-06	1.5652e-06	279.38	78.34	61.22	17.616	1.6449e-06	24.392	0.00038479	0.0004126	0.0001137	1051.7	4.5801e-06	4.5218e-06	1158.8	216.17	4.6244e-06	4.6498e-06	277.55	79.187	62.045	17.98	4.6493e-06	25.118	174.164	33.868	-57.373	-112.234	131.287	-98.696	-112.198	-104.883	45.049	-34.129	-104.745	-98.559	-98.338	-90.610	-110.447	-90.969	-8191	255	
973.853	1	1	0	0	0.16351	0.078055	0.18747	0.032758	0.13289	0.13752	0.15647	0.32404	0.1094	0.11501	0.079109	0.057706	0.12554	0.25342	0.21228	0.21126	-4.3771	-3.6625	-4.6458	-4.4583	-3.7625	-4.6667	-4.3542	-4.3083	-4.5021	-3.7833	-4.6792	-4.425	-3.9146	-4.9354	-3.9333	-4.1917	0.134	151.009	200.989	221.932	99.442	148.424	207.474	159.287	128.452	104.622	180.942	210.271	106.336	227.218	-87.217	210.980	0.00014296	0.00015655	7.6358e-05	1072.8	2.532e-06	4.4216e-06	1176.4	217.76	2.4043e-06	3.3355e-06	279.53	78.648	61.329	17.55	1.6398e-06	24.492	0.0003995	0.00041877	0.00011697	1052.6	4.7108e-06	4.6361e-06	1157.5	216.34	4.6297e-06	4.6941e-06	277.94	79.257	62.321	17.961	4.7228e-06	25.161	204.134	-37.596	62.183	-112.004	32.761	29.582	-112.133	-104.981	153.267	5.807	-105.014	-98.680	-98.218	-90.164	-1.050	-90.988	-8191	255	
973.949	1	1	0	0	0.14332	0.18966	0.097805	0.20397	0.30677	0.08856	0.10904	0.30326	0.2464	0.17688	0.15495	0.19097	0.1886	0.031452	0.11108	0.11388	-4.5563	-3.8167	-4.3521	-4.4313	-3.8833	-4.7375	-4.2625	-4.2917	-4.8313	-3.7771	-4.6479	-4.6396	-3.9062	-4.8	-4.225	-3.8417	78.271	125.989	154.592	-117.704	100.815	61.408	166.750	111.110	213.233	191.200	-108.720	-93.391	-19.004	165.044	-22.468	62.382	0.00015145	0.00041705	6.1934e-05	1076.4	6.6471e-07	7.2905e-07	1175.2	218.94	2.5271e-06	3.4201e-06	278.09	77.98	60.714	17.664	4.6001e-06	24.58	0.00040817	0.00043851	0.00012101	1052.7	4.7903e-06	4.7111e-06	1158.8	216.83	4.6668e-06	4.632e-06	277.2	79.041	62.029	17.989	4.5686e-06	25.154	177.355	-65.035	203.335	-112.143	162.001	216.253	-112.227	-104.579	-82.516	101.334	-104.983	-98.574	-98.452	-90.412	12.060	-91.003	-8191	255	
974.046	1	1	0	0	0.079068	0.1238	0.19186	0.073528	0.18864	0.13149	0.11713	0.18049	0.20363	0.13647	0.255	0.029788	0.30496	0.17444	0.1102	0.21732	-4.5042	-4.075	-4.3208	-4.7896	-3.9104	-4.7146	-4.3875	-4.1229	-4.7792	-4.0354	-4.6125	-4.7667	-3.9146	-4.5896	-4.425	-4.0958	88.587	185.517	-84.930	-119.883	65.507	128.190	162.501	225.869	138.055	6.744	137.642	2.734	-94.381	-88.869	162.080	66.707	0.00013944	0.00056733	0.00012618	1073.2	2.8855e-06	1.8988e-06	1179.2	217.8	4.1239e-06	3.8209e-06	279	78.033	61.126	17.474	2.5518e-06	24.424	0.00039182	0.00040869	0.00011584	1051.4	4.511e-06	4.5315e-06	1159.4	215.97	4.4905e-06	4.5125e-06	277.63	79.096	62.016	17.963	4.6242e-06	25.099	217.522	217.116	-4.452	-112.172	25.950	-16.319	-111.957	-104.949	-58.388	106.469	-104.889	-98.674	-98.224	-90.551	-9.408	-90.838	-8191	255	
974.142	1	1	0	0	0.064957	0.11106	0.042368	0.078316	0.09124	0.051693	0.29916	0.053151	0.13107	0.16919	0.079968	0.28637	0.05216	0.18847	0.10815	0.097936	-4.4062	-4.0083	-4.3479	-4.8833	-3.8583	-4.625	-4.6625	-3.8812	-4.8083	-4.2417	-4.175	-4.9417	-3.8688	-4.2042	-4.5813	-3.8542	190.048	5.461	-109.375	173.850	201.876	178.495	211.418	118.452	231.821	20.079	188.795	216.622	84.839	198.674	41.619	47.639	0.0001462	0.00059284	0.00012659	1073.4	3.4351e-06	3.6508e-06	1176.4	217.02	2.0301e-06	4.4638e-06	279.8	78.603	61.728	17.741	1.7777e-06	24.605	0.00040877	0.00043112	0.00012101	1052.2	4.8148e-06	4.8717e-06	1158.4	217.03	4.8561e-06	4.8215e-06	278.72	79.238	62.207	18.028	4.8497e-06	25.239	206.641	7.844	50.641	-112.031	65.831	53.602	-112.362	-104.654	-15.735	59.580	-104.945	-98.553	-98.735	-90.911	-23.631	-90.767	-8191	255	
974.238	1	1	0	0	0.32982	0.19458	0.21135	0.097108	0.15806	0.12825	0.12834	0.11354	0.091085	0.067888	0.13573	0.2576	0.22578	0.3168	0.22457	0.22858	-4.3854	-4.25	-4.0354	-4.6312	-3.9667	-4.3625	-4.7375	-3.7542	-4.7229	-4.3313	-4.1417	-4.8958	-3.9708	-4.2979	-4.7604	-3.9646	161.069	-17.807	-66.144	115.617	-17.674	-98.950	140.496	-42.499	58.100	35.273	225.828	165.895	-71.452	183.773	39.491	206.190	0.00016059	0.00052294	1.4668e-05	1071.2	2.5887e-06	4.0362e-06	1174.9	216.41	5.7005e-06	3.3959e-06	279.94	78.38	61.414	17.565	2.1472e-06	24.422	0.00042105	0.00044332	0.00012615	1054	4.9767e-06	5.019e-06	1159.5	216.66	4.9816e-06	4.8854e-06	278.65	79.212	62.25	17.998	4.9504e-06	25.237	173.977	-36.387	74.630	-112.069	62.305	-54.567	-112.077	-104.617	-40.157	-22.743	-104.910	-98.679	-98.204	-90.506	-5.601	-90.967	-8191	255	
974.357	1	1	0	0	0.10918	0.055657	0.10074	0.058093	0.31986	0.19032	0.20686	0.089076	0.059372	0.1407	0.093551	0.035142	0.13069	0.099774	0.22494	0.29475	-4.2167	-4.3646	-4.0667	-4.8562	-4.0417	-4.3167	-4.8625	-4.0479	-4.4625	-4.3625	-4.1083	-4.9833	-4.0354	-4.4271	-4.7229	-3.8563	84.610	227.067	126.920	-113.007	199.250	105.472	203.255	74.711	41.567	166.832	-83.176	-89.386	123.612	14.089	76.789	197.188	0.00014135	0.0004915	0.00012958	1073.1	4.6541e-06	4.2911e-06	1176.8	216.23	2.9372e-06	1.2901e-06	280.68	78.455	61.172	17.559	8.4877e-07	24.645	0.00042214	0.00044236	0.00012454	1053.2	4.9552e-06	4.8502e-06	1159.8	216.3	4.8403e-06	4.8642e-06	278.54	79.428	62.239	17.984	4.903e-06	25.197	180.167	-76.174	6.345	-112.119	55.735	-1.890	-112.275	-104.892	18.134	145.715	-104.711	-98.616	-98.418	-90.482	51.088	-90.943	-8191	255	
974.453	1	1	0	0	0.21242	0.15464	0.15825	0.10466	0.077981	0.28046	0.073166	0.084319	0.24509	0.17081	0.23134	0.055573	0.20437	0.17773	0.10527	0.27857	-4.2188	-4.3667	-3.9833	-4.7229	-4.0042	-4.1813	-4.9688	-4.025	-4.6937	-4.5021	-3.8958	-4.9646	-4.3667	-4.1937	-4.7958	-4.1937	178.880	13.232	93.913	232.847	220.779	-86.657	131.932	189.079	-81.029	-4.491	206.039	-97.958	-32.154	128.593	5.967	45.155	0.00019942	0.00065465	0.00012117	1075	1.4445e-06	3.4231e-06	1173.4	216.81	1.1126e-06	2.5115e-06	279.82	78.139	61.346	17.61	2.9514e-07	24.483	0.00042175	0.00044381	0.00012662	1055.5	4.9989e-06	4.9876e-06	1159.8	217.08	5.0297e-06	4.977e-06	277.83	79.423	62.292	17.947	4.9172e-06	25.159	189.959	-2.779	-62.477	-112.048	1.039	14.713	-112.007	-104.705	88.544	65.937	-104.826	-99.046	-98.371	-90.567	84.647	-90.677	-8191	255	
974.549	1	1	0	0	0.11811	0.23552	0.18212	0.15472	0.093873	0.1815	0.2631	0.23519	0.045658	0.11435	0.11627	0.15316	0.084722	0.13462	0.0083272	0.20204	-4.1271	-4.6625	-3.9771	-4.8896	-4.2312	-4.0604	-5.1417	-4	-4.3542	-4.6854	-3.9271	-4.7562	-4.5604	-3.9646	-4.6021	-4.0542	-83.075	79.330	191.248	148.967	185.496	231.068	196.545	201.327	46.680	-26.924	112.922	190.157	217.377	-87.714	-4.021	206.250	0.00011458	0.00022108	5.0625e-05	1075.4	3.3846e-06	3.8129e-06	1181	218.2	1.7784e-06	2.1986e-06	277.65	78.897	61.341	17.619	1.7857e-06	24.457	0.00042298	0.00043689	0.0001257	1054.7	4.8835e-06	4.9302e-06	1161.7	217.08	4.9452e-06	4.8716e-06	277.42	79.617	62.136	17.974	4.8363e-06	25.162	161.334	82.290	73.467	-112.121	12.705	29.777	-111.932	-104.810	-61.497	91.198	-104.855	-98.874	-97.901	-90.460	211.991	-90.943	-8191	255	
974.645	1	1	0	0	0.10162	0.12496	0.12548	0.029081	0.16314	0.14847	0.062297	0.25343	0.097576	0.088492	0.25862	0.020678	0.12947	0.031693	0.1275	0.25803	-4.0396	-4.7104	-3.8125	-4.6208	-4.4667	-3.8958	-5.0312	-4.2312	-4.1667	-4.8396	-4.0854	-4.4333	-4.5479	-4.075	-4.8917	-4.3042	111.258	-109.491	101.795	-116.144	-88.869	157.970	-98.510	141.855	151.970	136.862	135.904	7.940	224.849	86.249	9.145	57.772	0.00011089	9.6112e-05	3.8841e-05	1071.3	3.1771e-06	2.5469e-06	1180.5	216.92	4.719e-06	1.047e-06	280.66	78.313	61.689	17.612	3.4843e-06	24.57	0.00041744	0.0004326	0.00012319	1052.5	4.9253e-06	4.9176e-06	1161.2	216.43	5.0842e-06	5.128e-06	278.66	79.31	62.475	18.094	5.1757e-06	25.305	192.610	-73.875	26.478	-112.141	46.142	12.763	-112.111	-104.765	62.417	-39.908	-105.052	-98.531	-98.193	-90.390	-63.945	-91.359	-8191	255	
974.741	1	1	0	0	0.04889	0.12691	0.14565	0.20465	0.15661	0.049049	0.062396	0.33533	0.034112	0.096906	0.20329	0.27686	0.018693	0.039712	0.076065	0.09453	-3.6562	-4.7229	-3.8896	-4.6104	-4.6042	-3.6792	-4.8021	-4.3521	-4.0667	-4.75	-4.0833	-4.4625	-4.5479	-3.8854	-4.7917	-4.3812	71.328	209.983	-75.838	169.943	198.377	-102.574	-111.082	131.631	119.157	226.736	219.419	185.768	110.385	-63.533	116.092	212.812	0.00012816	0.00060828	0.00010336	1077.4	3.1952e-06	1.613e-06	1184.4	217.55	1.3021e-06	9.8759e-07	278.71	78.959	61.776	17.607	1.893e-06	24.531	0.00045127	0.00048314	0.00013435	1057.1	5.1959e-06	5.2386e-06	1164.2	217.27	5.3538e-06	5.2944e-06	278.86	79.738	62.473	18.083	5.2198e-06	25.284	188.073	-60.194	-37.860	-112.013	-29.696	-105.055	-112.147	-104.430	-26.621	216.839	-104.889	-98.876	-98.475	-90.624	-11.343	-90.805	-8191	255	
974.838	1	1	0	0	0.11269	0.051903	0.1362	0.24785	0.12153	0.12162	0.19571	0.17276	0.19834	0.25756	0.16647	0.02016	0.1809	0.075808	0.25896	0.3609	-3.6646	-4.7812	-4.3125	-4.3438	-4.7833	-3.9542	-4.9042	-4.4187	-4.075	-4.7875	-4.1271	-4.2833	-4.7333	-3.8937	-4.4667	-4.4542	220.957	43.532	28.243	186.299	139.089	153.695	126.005	236.009	166.819	-102.825	156.605	-3.837	-107.039	143.082	-67.506	106.085	0.00015447	0.000664	5.4691e-05	1082.7	9.0872e-07	2.2313e-06	1178.1	218.31	5.1811e-06	4.164e-06	278.97	78.284	61.596	17.61	7.2887e-07	24.683	0.00044943	0.00046997	0.00013061	1060.6	5.1789e-06	5.1312e-06	1163.4	217.32	5.1799e-06	5.0191e-06	278.07	79.493	62.361	18.042	5.0525e-06	25.248	182.158	-15.445	-102.021	-112.180	209.872	-94.078	-112.034	-104.464	5.429	37.872	-105.081	-98.473	-98.248	-90.624	35.004	-90.686	-8191	255	
974.934	1	1	0	0	0.049174	0.1343	0.052863	0.20179	0.070886	0.1507	0.073945	0.048514	0.1035	0.14701	0.092387	0.10669	0.11989	0.1395	0.082301	0.06611	-3.5896	-4.8625	-3.9875	-4.3688	-4.7937	-3.7458	-4.5354	-4.7354	-3.6729	-4.675	-4.2833	-4.0188	-4.7458	-4.0125	-4.3333	-4.5292	-44.241	-24.392	128.156	206.546	-78.588	69.519	-112.946	170.606	191.370	-7.545	192.678	-1.371	20.534	-87.504	128.094	164.607	0.00015759	0.00041873	6.4887e-05	1078	6.5505e-06	3.0586e-06	1185.4	218.72	3.3144e-06	1.9866e-06	279.7	78.081	61.346	17.593	1.4459e-06	24.652	0.00043453	0.00044996	0.00013036	1059.2	5.1056e-06	5.1103e-06	1165	217.5	5.1874e-06	5.1605e-06	279.63	79.656	62.295	18.046	5.2284e-06	25.281	186.519	11.968	20.837	-112.238	47.322	-21.602	-112.302	-104.787	-1.932	124.642	-104.818	-98.618	-98.018	-90.286	215.784	-91.126	-8191	255	
975.054	1	1	0	0	0.25795	0.066765	0.22208	0.33542	0.16081	0.18399	0.043264	0.047457	0.13508	0.031071	0.10803	0.16868	0.091282	0.11013	0.072346	0.082051	-3.4458	-4.7521	-4.2104	-4.0646	-4.8313	-3.975	-4.4896	-4.7937	-3.8917	-4.4938	-4.2479	-4.0896	-4.8229	-3.9042	-4.3229	-4.7417	221.785	-83.570	-24.811	189.527	-26.012	54.806	204.762	-74.853	-117.671	-43.156	195.524	232.011	-30.245	-108.019	-52.340	-121.204	0.00017102	0.00028207	1.2255e-05	1079.6	3.8523e-06	9.5783e-07	1184	218.97	1.7675e-06	5.4854e-06	280.84	78.631	61.611	17.593	4.5273e-06	24.783	0.00045515	0.00048067	0.00013258	1060	5.2743e-06	5.3267e-06	1165	217.95	5.3887e-06	5.4633e-06	279.83	79.884	62.596	18.191	5.8027e-06	25.512	177.504	-23.628	-110.753	-112.239	5.410	85.657	-112.091	-104.680	29.824	45.844	-104.884	-98.463	-98.383	-90.221	-13.837	-91.295	-8191	255	
975.149	1	1	0	0	0.075348	0.28667	0.073855	0.050186	0.1351	0.21141	0.29835	0.19068	0.10728	0.029401	0.06773	0.061636	0.053808	0.23924	0.21008	0.078902	-3.5771	-4.4646	-4.5896	-4.0771	-4.675	-4.0437	-4.4854	-4.6792	-3.7562	-4.6292	-4.5687	-3.7667	-4.7646	-4.0958	-3.8708	-4.7896	-97.108	212.644	189.873	213.997	171.088	69.059	205.443	183.913	213.085	-50.457	140.906	157.027	131.396	132.427	102.090	91.584	0.00020928	0.00029568	0.00011951	1073.7	4.104e-06	2.5186e-06	1176.4	218.75	5.1217e-06	1.8008e-06	280.34	78.274	61.026	17.667	4.7128e-06	24.485	0.00050514	0.00052249	0.00014377	1059.3	5.4604e-06	5.3486e-06	1164.2	217.93	4.8516e-06	4.568e-06	277.49	79.068	61.553	17.775	3.5501e-06	24.689	181.733	84.920	-100.239	-112.117	-49.503	27.205	-112.240	-104.731	-12.020	22.705	-104.737	-98.797	-97.839	-90.501	5.580	-90.612	-8191	255	
975.222	1	1	0	0	0.15834	0.059884	0.24042	0.18223	0.033938	0.13177	0.29975	0.044334	0.13491	0.19452	0.38418	0.19806	0.036212	0.20647	0.1072	0.11729	-3.4958	-4.6125	-4.7229	-3.9458	-4.6292	-4.1333	-4.125	-4.8271	-3.9938	-4.4604	-4.6854	-3.8271	-4.9313	-4.3125	-3.8812	-4.9792	-105.784	33.949	192.542	181.577	-22.021	129.406	207.259	-6.367	-26.263	-85.504	-113.293	-72.492	64.089	-47.131	150.573	136.826	0.00014645	0.00032242	3.0501e-05	1059.7	1.6134e-06	6.0994e-06	1160.3	215.81	3.54e-06	6.8871e-06	277.91	78.029	60.853	17.393	4.3978e-06	24.496	0.00030261	0.0003048	8.5208e-05	1036.9	3.5614e-06	3.5504e-06	1142.9	214.04	4.098e-06	4.1921e-06	275.49	78.759	61.669	17.821	4.9454e-06	25.091	171.903	25.518	0.277	-112.323	95.654	28.817	-112.053	-104.358	-46.594	52.839	-104.950	-98.743	-98.553	-90.462	-26.158	-91.208	-8191	255	
975.318	1	1	0	0	0.16193	0.17026	0.061144	0.14947	0.14773	0.047864	0.068037	0.18516	0.18531	0.075647	0.14976	0.30167	0.13008	0.20933	0.084554	0.30927	-3.7	-4.4208	-4.5854	-4.0958	-4.6958	-4.1062	-4.3542	-4.8792	-3.8187	-4.2375	-4.7833	-3.825	-4.5854	-4.3167	-3.8875	-4.8562	214.105	-10.531	-82.872	88.109	-72.263	43.328	234.182	181.457	212.672	-80.107	172.004	-101.543	44.745	157.853	87.781	70.073	8.0534e-05	0.00078027	2.9303e-05	1067.6	4.5812e-06	5.1559e-06	1175.4	218.03	2.2181e-06	4.2405e-06	279.27	78.588	61.783	17.391	3.552e-06	24.559	0.0004206	0.00044647	0.00012352	1048.8	4.7794e-06	4.6168e-06	1157	216.33	4.4542e-06	4.2863e-06	276.16	78.979	61.726	17.749	3.9883e-06	24.942	173.985	-24.209	13.848	-112.288	14.663	-22.841	-112.258	-104.476	-41.702	25.151	-105.108	-98.556	-98.577	-90.560	-101.770	-91.040	-8191	255	
975.437	1	1	0	0	0.26865	0.16128	0.053104	0.30603	0.13055	0.24358	0.17146	0.25451	0.084836	0.20593	0.1862	0.16171	0.27043	0.19902	0.11689	0.043055	-3.7458	-4.2812	-4.7312	-3.9208	-4.4667	-4.4896	-4.2208	-5.0146	-4.0188	-4.0708	-4.9646	-3.8583	-4.4042	-4.6417	-3.8271	-4.7396	-44.550	174.434	-118.582	190.765	-120.548	12.630	-28.347	-48.034	62.809	160.100	97.808	167.992	233.530	14.264	130.806	78.205	0.00012921	0.0002388	4.6952e-05	1066.2	3.2916e-06	2.9621e-06	1174.3	217.14	3.8411e-06	3.0354e-06	278.17	78.41	60.438	17.456	4.3346e-06	24.348	0.00033646	0.00036097	9.9373e-05	1044.5	3.9746e-06	3.9728e-06	1151.9	215.02	4.0965e-06	4.2161e-06	276.18	78.84	61.647	17.824	4.3796e-06	25.016	170.802	8.374	114.736	-112.124	-2.417	-9.631	-112.128	-104.500	60.684	0.731	-105.013	-98.688	-98.143	-90.371	-12.912	-90.759	-8191	255	
975.533	1	1	0	0	0.032779	0.15	0.095343	0.19438	0.41173	0.099812	0.21102	0.068212	0.16821	0.033109	0.096821	0.24213	0.020497	0.083952	0.24185	0.11093	-3.9875	-4.0312	-4.7583	-4.0854	-4.2937	-4.6021	-3.9208	-4.7917	-4.1958	-4.0208	-4.7021	-4.0437	-4.5146	-4.5854	-3.6813	-4.7271	79.523	-18.470	68.577	-71.823	-95.916	-104.348	226.290	193.049	38.145	-16.843	-63.495	196.525	50.909	-80.977	107.493	10.912	0.00016869	9.6171e-05	4.2559e-05	1064.9	3.3845e-06	2.8622e-06	1175.8	217.84	1.1787e-06	2.3299e-06	280.76	78.239	61.327	17.641	1.7128e-06	24.593	0.0003812	0.00040376	0.00011175	1046.4	4.4368e-06	4.4615e-06	1153.1	216.12	4.5462e-06	4.5738e-06	277.74	79.043	61.997	17.895	4.3848e-06	25.047	163.066	20.888	65.377	-112.151	-87.522	-4.066	-112.152	-104.541	27.226	101.855	-104.766	-98.782	-98.272	-90.543	-60.505	-90.872	-8191	255	
975.629	1	1	0	0	0.086803	0.17646	0.29072	0.08273	0.34242	0.10426	0.29594	0.081662	0.075195	0.25982	0.058803	0.078552	0.16279	0.21238	0.099818	0.1311	-4.0813	-3.8271	-4.8604	-4.0833	-4.1854	-4.6708	-3.9646	-4.6813	-4.3521	-4.125	-4.8167	-4.2562	-4.1458	-4.7125	-3.8708	-4.5188	47.261	56.951	214.518	27.338	-114.043	-36.765	189.456	179.402	-8.898	-90.567	52.388	136.019	-102.761	206.241	-116.137	224.311	0.00014565	0.00049333	0.00015789	1071.5	1.9086e-06	3.2727e-06	1172.9	217.31	1.4983e-06	1.8826e-06	280.51	77.935	61.259	17.532	3.7452e-06	24.419	0.00038474	0.00039726	0.00011344	1048.7	4.4721e-06	4.4205e-06	1153.7	216	4.3903e-06	4.4697e-06	277.6	78.894	61.932	17.846	4.4296e-06	25.075	199.089	-53.908	-9.313	-112.011	95.420	78.585	-112.314	-104.427	109.125	-40.878	-104.380	-98.556	-97.933	-90.432	-36.257	-90.835	-8191	255	
975.726	1	1	0	0	0.015423	0.22041	0.14977	0.35296	0.096425	0.21645	0.158	0.2758	0.081711	0.095404	0.042229	0.18152	0.16298	0.048163	0.074253	0.01582	-4.3063	-3.8729	-4.7708	-4.2583	-3.9958	-4.5292	-3.925	-4.6	-4.625	-3.7188	-4.8417	-4.3771	-4.1333	-4.8271	-3.9354	-4.4542	126.710	203.114	194.044	-62.634	100.472	-70.249	132.145	205.480	9.622	147.796	-36.179	-56.983	102.798	-38.383	27.926	-54.818	0.00012511	0.00063282	2.3702e-05	1070.5	2.7759e-06	5.3511e-06	1171.3	217.4	1.7229e-06	4.1977e-06	279.44	78.216	61.035	17.475	4.2273e-06	24.359	0.00037882	0.00040135	0.0001107	1046.8	4.4436e-06	4.414e-06	1153.3	215.72	4.5313e-06	4.5608e-06	277.32	79.041	61.798	17.906	4.6342e-06	25.06	165.996	-41.256	-9.091	-111.997	84.340	68.739	-112.058	-104.733	22.316	117.430	-104.603	-99.042	-98.313	-90.559	-3.996	-90.945	-8191	255	
975.846	1	1	0	0	0.16314	0.22462	0.21185	0.079447	0.16452	0.18035	0.11057	0.17625	0.15991	0.10689	0.23911	0.26638	0.25949	0.084423	0.21614	0.084683	-4.3271	-4.0333	-4.6583	-4.3604	-3.9167	-4.7229	-4.0729	-4.2833	-4.5271	-3.8292	-4.8708	-4.3812	-3.8229	-4.8729	-4.0729	-4.2292	149.383	83.907	224.904	219.254	-9.924	206.256	-97.854	154.789	-111.535	-13.397	210.767	93.546	233.853	-35.979	20.722	16.206	0.00013707	0.00054461	5.3626e-05	1071.2	4.6543e-06	4.9447e-06	1175.3	217.27	1.2072e-06	5.3075e-07	281.57	78.31	60.873	17.604	1.6406e-06	24.673	0.00040151	0.00042083	0.00011517	1049.3	4.7365e-06	4.6174e-06	1156.6	216.37	4.5793e-06	4.6053e-06	277.52	79.101	61.963	17.922	4.668e-06	25.15	167.234	21.016	-78.222	-112.005	46.708	20.505	-112.322	-104.897	-93.458	144.730	-104.965	-98.743	-98.332	-90.566	-16.321	-90.975	-8191	255	
975.918	1	1	0	0	0.047601	0.18619	0.24129	0.13643	0.057063	0.12936	0.26374	0.12138	0.18175	0.14061	0.093233	0.13101	0.23236	0.16668	0.065094	0.11531	-4.4187	-3.8354	-4.6	-4.5938	-3.8167	-4.6729	-4.3542	-4.4667	-4.7208	-3.7896	-4.65	-4.4688	-3.9625	-4.875	-3.9521	-4.0687	-52.964	21.300	-112.072	-68.473	148.042	-23.178	187.459	-48.559	22.383	206.515	138.672	207.731	203.720	-107.586	1.791	126.861	0.00015139	0.00025138	0.00012128	1072.4	5.2259e-06	2.3102e-06	1176.2	216.93	3.8294e-06	9.4251e-07	280.18	78.219	61.595	17.668	3.576e-06	24.639	0.0003966	0.00042978	0.00011927	1050.4	4.6896e-06	4.6806e-06	1156.5	216.28	4.776e-06	4.7626e-06	277.59	79.25	62.082	17.945	4.7048e-06	25.206	178.382	-14.005	-59.666	-112.006	54.363	-24.337	-112.200	-105.008	-47.374	89.687	-104.871	-98.268	-98.304	-90.648	-19.542	-90.755	-8191	255	
976.039	1	1	0	0	0.097094	0.14852	0.12756	0.15337	0.16505	0.11396	0.30295	0.26322	0.21211	0.14618	0.14605	0.15149	0.26624	0.14546	0.14731	0.23422	-4.525	-3.9146	-4.5188	-4.6292	-3.7125	-4.6542	-4.3583	-4.1271	-4.8021	-4.15	-4.4104	-4.6312	-3.7229	-4.7042	-4.3083	-3.9792	-101.249	-116.017	53.986	104.343	194.135	33.312	112.641	114.830	-15.288	-120.013	-25.980	-10.091	156.934	-114.275	234.613	-118.135	0.0001392	0.00048207	8.2759e-05	1073.5	4.8787e-06	4.2825e-06	1173.3	218.36	4.2903e-06	3.0747e-06	280.19	78.031	61.129	17.585	2.6636e-06	24.563	0.00041513	0.00043402	0.00012286	1051.2	4.7957e-06	4.7378e-06	1156.8	217.23	4.846e-06	4.8498e-06	277.85	79.341	62.05	17.966	4.9036e-06	25.203	182.891	-39.416	17.664	-112.231	6.985	-44.304	-112.317	-104.757	-38.415	-1.316	-104.646	-98.287	-98.041	-90.605	-68.014	-90.644	-8191	255	
#DATA ENDS
