BOXY.EXE: ISS Imagent and Oximeter Data Acquisition Program Version 0.80
Ascii Record File

#ACQ INFORMATION
2  Detector Channels 
16  External MUX Channels 
1  Auxiliary Channels 
5000  Waveform (CCF) Frequency (Hz)
1  Waveforms Skipped 
30  Waveforms Averaged 
1  Cycles Averaged 
16  Acquisitions per Waveform 
10.0806  Updata Rate (Hz) 

#FILE INFORMATION
TRUE -- External MUX Channel results are PARSED.
FALSE -- AC DC and Phase are NOT grouped.
TRUE -- Companion Program Settings File CREATED.
FALSE -- AC data not excluded
FALSE -- DC data not excluded
FALSE -- Phase data not excluded
FALSE -- Auxillary Chn. data not excluded
Tab delimiters

#CALIBRATION STATE
TRUE -- Waveform Calibration Values APPLIED.


#AUX CALIBRATION VALUES
Val Type	aux-1	

Term	1.0000e+00	
Factor	0.0000e+00	


#WF CALIBRATION VALUES
A = Detector Channel
Val Type	A-AC1	A-AC2	A-AC3	A-AC4	A-AC5	A-AC6	A-AC7	A-AC8	A-AC9	A-AC10	A-AC11	A-AC12	A-AC13	A-AC14	A-AC15	A-AC16	A-DC1	A-DC2	A-DC3	A-DC4	A-DC5	A-DC6	A-DC7	A-DC8	A-DC9	A-DC10	A-DC11	A-DC12	A-DC13	A-DC14	A-DC15	A-DC16	A-Ph1	A-Ph2	A-Ph3	A-Ph4	A-Ph5	A-Ph6	A-Ph7	A-Ph8	A-Ph9	A-Ph10	A-Ph11	A-Ph12	A-Ph13	A-Ph14	A-Ph15	A-Ph16	

Term	0.00000e+00	0.00000e+00	0.00000e+00	0.00000e+00	0.00000e+00	0.00000e+00	0.00000e+00	0.00000e+00	0.00000e+00	0.00000e+00	0.00000e+00	0.00000e+00	0.00000e+00	0.00000e+00	0.00000e+00	0.00000e+00	0.00000e+00	0.00000e+00	0.00000e+00	0.00000e+00	0.00000e+00	0.00000e+00	0.00000e+00	0.00000e+00	0.00000e+00	0.00000e+00	0.00000e+00	0.00000e+00	0.00000e+00	0.00000e+00	0.00000e+00	0.00000e+00	0.00000e+00	0.00000e+00	0.00000e+00	0.00000e+00	0.00000e+00	0.00000e+00	0.00000e+00	0.00000e+00	0.00000e+00	0.00000e+00	0.00000e+00	0.00000e+00	0.00000e+00	0.00000e+00	0.00000e+00	0.00000e+00	
Factor	1.00000e+00	1.00000e+00	1.00000e+00	1.00000e+00	1.00000e+00	1.00000e+00	1.00000e+00	1.00000e+00	1.00000e+00	1.00000e+00	1.00000e+00	1.00000e+00	1.00000e+00	1.00000e+00	1.00000e+00	1.00000e+00	1.00000e+00	1.00000e+00	1.00000e+00	1.00000e+00	1.00000e+00	1.00000e+00	1.00000e+00	1.00000e+00	1.00000e+00	1.00000e+00	1.00000e+00	1.00000e+00	1.00000e+00	1.00000e+00	1.00000e+00	1.00000e+00	X	X	X	X	X	X	X	X	X	X	X	X	X	X	X	X	

B = Detector Channel
Val Type	B-AC1	B-AC2	B-AC3	B-AC4	B-AC5	B-AC6	B-AC7	B-AC8	B-AC9	B-AC10	B-AC11	B-AC12	B-AC13	B-AC14	B-AC15	B-AC16	B-DC1	B-DC2	B-DC3	B-DC4	B-DC5	B-DC6	B-DC7	B-DC8	B-DC9	B-DC10	B-DC11	B-DC12	B-DC13	B-DC14	B-DC15	B-DC16	B-Ph1	B-Ph2	B-Ph3	B-Ph4	B-Ph5	B-Ph6	B-Ph7	B-Ph8	B-Ph9	B-Ph10	B-Ph11	B-Ph12	B-Ph13	B-Ph14	B-Ph15	B-Ph16	

Term	0.00000e+00	0.00000e+00	0.00000e+00	0.00000e+00	0.00000e+00	0.00000e+00	0.00000e+00	0.00000e+00	0.00000e+00	0.00000e+00	0.00000e+00	0.00000e+00	0.00000e+00	0.00000e+00	0.00000e+00	0.00000e+00	0.00000e+00	0.00000e+00	0.00000e+00	0.00000e+00	0.00000e+00	0.00000e+00	0.00000e+00	0.00000e+00	0.00000e+00	0.00000e+00	0.00000e+00	0.00000e+00	0.00000e+00	0.00000e+00	0.00000e+00	0.00000e+00	-1.37308e+02	-1.32093e+02	-1.25276e+02	-1.80606e+02	-7.46473e+01	-6.62903e+01	-1.55240e+02	-1.62015e+02	-7.54288e+01	-6.48959e+01	-1.69314e+02	-1.70749e+02	-1.81622e+02	-1.75737e+02	-7.07794e+01	-1.48410e+02	
Factor	1.75292e-05	1.53293e-04	4.06206e-05	1.56892e-01	1.32222e-06	1.87784e-06	1.61840e-01	5.54760e-02	1.15008e-06	1.46862e-06	8.06353e-02	2.62720e-02	4.32279e-02	8.04646e-03	1.24294e-06	1.17146e-02	9.36824e-06	1.50392e-05	4.22255e-06	8.13185e-02	1.54133e-07	1.67094e-07	7.90684e-02	2.89093e-02	1.54150e-07	1.67212e-07	4.08060e-02	1.33353e-02	2.28337e-02	4.23026e-03	1.58850e-07	5.96540e-03	X	X	X	X	X	X	X	X	X	X	X	X	X	X	X	X	



#DISTANCE SETTINGS
A = Detector Channel
A-1	A-2	A-3	A-4	A-5	A-6	A-7	A-8	A-9	A-10	A-11	A-12	A-13	A-14	A-15	A-16	

2.5000e+00	3.0000e+00	2.5000e+00	3.0000e+00	2.0000e+00	3.0000e+00	1.5000e+00	3.0000e+00	3.0000e+00	3.0000e+00	3.0000e+00	3.0000e+00	3.0000e+00	3.0000e+00	1.5000e+00	3.0000e+00	

B = Detector Channel
B-1	B-2	B-3	B-4	B-5	B-6	B-7	B-8	B-9	B-10	B-11	B-12	B-13	B-14	B-15	B-16	

1.0000e+01	1.0000e+01	1.0000e+01	1.4400e+00	1.0000e+01	1.0000e+01	1.5100e+00	1.9400e+00	1.0000e+01	1.0000e+01	1.9900e+00	2.4900e+00	2.4100e+00	2.9000e+00	1.0000e+01	2.9800e+00	




#DATA BEGINS
time	group	step	mark	flag	A-AC1	A-AC2	A-AC3	A-AC4	A-AC5	A-AC6	A-AC7	A-AC8	A-AC9	A-AC10	A-AC11	A-AC12	A-AC13	A-AC14	A-AC15	A-AC16	A-DC1	A-DC2	A-DC3	A-DC4	A-DC5	A-DC6	A-DC7	A-DC8	A-DC9	A-DC10	A-DC11	A-DC12	A-DC13	A-DC14	A-DC15	A-DC16	A-Ph1	A-Ph2	A-Ph3	A-Ph4	A-Ph5	A-Ph6	A-Ph7	A-Ph8	A-Ph9	A-Ph10	A-Ph11	A-Ph12	A-Ph13	A-Ph14	A-Ph15	A-Ph16	B-AC1	B-AC2	B-AC3	B-AC4	B-AC5	B-AC6	B-AC7	B-AC8	B-AC9	B-AC10	B-AC11	B-AC12	B-AC13	B-AC14	B-AC15	B-AC16	B-DC1	B-DC2	B-DC3	B-DC4	B-DC5	B-DC6	B-DC7	B-DC8	B-DC9	B-DC10	B-DC11	B-DC12	B-DC13	B-DC14	B-DC15	B-DC16	B-Ph1	B-Ph2	B-Ph3	B-Ph4	B-Ph5	B-Ph6	B-Ph7	B-Ph8	B-Ph9	B-Ph10	B-Ph11	B-Ph12	B-Ph13	B-Ph14	B-Ph15	B-Ph16	aux-1	digaux	

1092.059	1	1	0	768	0.09506	0.16544	0.18358	0.24385	0.29714	0.02993	0.12594	0.18628	0.15429	0.1958	0.16634	0.12651	0.26295	0.064738	0.2752	0.063074	-2.7375	-3.5229	-3.4458	-3.3021	-3.7542	-3.325	-3.5958	-3.6188	-3.2729	-3.7188	-3.7083	-3.2604	-3.6167	-3.6417	-3.1979	-3.7854	161.844	-53.908	109.808	217.585	28.886	147.538	151.977	189.442	-10.454	9.116	-25.032	-68.381	-23.255	198.455	-81.916	-38.537	0.00032527	0.0008222	0.00044467	800.6	5.0508e-06	2.7091e-05	637.05	302.19	1.4552e-05	1.6448e-05	287.69	124.67	135.57	68.319	8.6156e-06	60.425	0.038622	0.061756	0.017412	1118	0.00063599	0.00069133	951.35	417.27	0.00063502	0.00068989	449.08	179.03	229.56	85.564	0.00064962	84.346	169.418	35.533	-27.990	-74.503	6.966	125.873	-75.794	-68.707	254.032	-84.607	-71.090	-68.220	-65.073	-60.630	138.139	-63.829	-8191	255	
1092.155	1	1	0	0	0.13484	0.27093	0.13667	0.32991	0.12674	0.034379	0.095769	0.056966	0.33977	0.030034	0.294	0.10864	0.13348	0.26796	0.21584	0.14005	-2.9667	-3.5542	-3.6167	-3.3354	-3.6437	-3.4896	-3.3063	-3.7792	-3.3792	-3.4833	-3.7062	-3.3167	-3.6479	-3.6417	-3.3396	-3.7833	48.443	-73.461	-79.149	267.735	224.386	-54.628	215.927	176.684	54.934	144.987	247.890	239.615	251.664	208.026	-23.575	40.369	0.00036857	0.0021439	0.00014663	798.74	1.172e-05	3.069e-05	630.79	301.32	1.4047e-06	5.0236e-06	284.79	125.1	135.73	68.275	5.1872e-06	60.656	0.038383	0.061751	0.017339	1114.3	0.00063298	0.0006878	946.75	416.12	0.00063385	0.00068661	447.13	178.6	229.2	85.397	0.00064724	84.299	196.972	17.706	-38.418	-74.348	-31.529	83.863	-75.335	-69.010	-45.352	-48.138	-71.989	-67.799	-65.130	-60.577	-23.827	-64.053	-8191	255	
1092.251	1	1	0	0	0.17738	0.36835	0.3656	0.15895	0.079803	0.22668	0.19272	0.050014	0.46147	0.10287	0.085145	0.12606	0.20404	0.12154	0.16692	0.080494	-2.8583	-3.2146	-3.6437	-3.3771	-3.4729	-3.4208	-3.4354	-3.7104	-3.5729	-3.4854	-3.775	-3.4208	-3.7	-3.6	-3.1146	-3.7708	54.079	211.796	265.733	150.499	-20.560	134.788	243.371	246.968	-22.593	53.265	123.825	215.849	272.658	228.525	250.890	76.623	0.00010161	0.00046628	0.00059213	801.55	8.5994e-06	4.5844e-05	631.96	302.73	4.8435e-06	1.6609e-05	286.44	126.27	136.39	68.662	1.7338e-05	61.351	0.038301	0.061269	0.017198	1114.4	0.00062756	0.00068039	945.07	415.06	0.00062332	0.00067509	445.77	178.85	228.11	85.612	0.00063946	84.734	147.287	102.219	16.482	-74.644	-10.137	255.131	-75.360	-69.010	188.049	21.396	-71.840	-68.216	-64.785	-60.552	106.756	-64.209	-8191	255	
1092.347	1	1	0	0	0.15671	0.12722	0.14316	0.068714	0.21144	0.11571	0.1457	0.23941	0.28908	0.043905	0.20743	0.072489	0.10648	0.23767	0.22208	0.10308	-3.0312	-3.4667	-3.7854	-3.5083	-3.5854	-3.6729	-3.3875	-3.6542	-3.4333	-3.4479	-3.8417	-3.3896	-3.4979	-3.7271	-3.1708	-3.5229	240.406	144.249	53.674	251.956	23.203	207.438	208.153	14.570	-59.660	159.192	254.287	212.856	25.752	232.713	0.988	244.582	0.00032158	0.0020129	0.00023913	804.04	1.2809e-05	8.8612e-06	640.27	303.15	8.7508e-06	1.6522e-05	290.34	127.41	137.38	68.935	3.6071e-06	61.29	0.038111	0.060849	0.017181	1116.7	0.00062648	0.00067983	949.86	417.58	0.00062771	0.00068019	451.07	180.73	230.26	86.09	0.00065091	85.429	138.938	228.000	21.409	-74.357	109.145	-28.387	-75.816	-68.573	135.637	143.272	-71.575	-67.813	-64.704	-60.651	-61.021	-64.288	-8191	255	
1092.443	1	1	0	0	0.048495	0.023682	0.17062	0.18059	0.0411	0.17068	0.16614	0.33273	0.037504	0.076056	0.16413	0.14139	0.22488	0.17072	0.071206	0.061436	-2.8771	-3.3604	-3.6625	-3.2375	-3.3979	-3.5958	-3.2062	-3.5979	-3.5729	-3.1625	-3.6229	-3.5375	-3.4042	-3.7958	-3.1375	-3.8	-14.360	27.655	145.981	-84.790	260.881	123.845	240.472	225.586	230.121	90.722	171.669	-71.549	196.581	175.133	75.076	67.999	0.00052366	0.00053497	0.00048874	796.9	1.6587e-05	2.1603e-05	636.43	300.64	6.3956e-06	2.7647e-05	283.96	124.09	134.42	67.309	9.5322e-06	59.25	0.038747	0.062123	0.017473	1119.9	0.00063496	0.0006918	953.36	416.75	0.00063631	0.00069239	447.29	178.3	228.49	84.625	0.00065411	83.676	177.016	230.605	-35.776	-74.248	6.436	164.746	-75.747	-68.861	68.428	-7.884	-71.800	-68.186	-64.610	-60.736	-0.065	-64.307	-8191	255	
1092.539	1	1	0	0	0.20309	0.13533	0.11024	0.36187	0.094929	0.20463	0.32133	0.12021	0.21856	0.18916	0.22119	0.039751	0.1056	0.29555	0.3438	0.24824	-2.7917	-3.1208	-3.4229	-3.5146	-3.3646	-3.6354	-3.4313	-3.6729	-3.5521	-3.3979	-3.8625	-3.3979	-3.2646	-3.7896	-3.2167	-3.7333	69.125	269.106	39.668	248.110	-77.305	-36.744	223.876	-10.677	266.646	240.538	125.963	229.648	244.064	-49.488	93.435	147.161	0.00026191	0.0014933	0.00016727	793.68	2.8742e-05	2.371e-05	633.32	301.55	5.7376e-06	9.4682e-06	280.47	122.58	136.87	67.721	1.5726e-05	59.481	0.038661	0.062352	0.017471	1116.4	0.00063643	0.00069124	946.19	415.72	0.00063429	0.00068785	444.68	177.2	228.86	84.929	0.00064933	83.491	175.586	129.329	112.289	-74.654	118.745	245.348	-75.337	-68.688	68.250	223.903	-71.876	-68.089	-64.798	-60.317	254.786	-64.177	-8191	255	
1092.658	1	1	0	0	0.16771	0.073255	0.089411	0.32548	0.18251	0.10133	0.45532	0.1677	0.26639	0.077748	0.20289	0.24116	0.11262	0.078365	0.040096	0.27335	-3.1	-3.1417	-3.6437	-3.4583	-3.3979	-3.5354	-3.4938	-3.6208	-3.6125	-3.2771	-3.6646	-3.5438	-3.1792	-3.9021	-3.3333	-3.5854	70.350	235.087	-22.011	-62.925	-15.779	-41.637	242.140	249.320	186.767	-54.776	233.068	-37.022	106.344	-45.494	9.452	253.123	1.1973e-05	0.0012711	0.00083843	797.62	1.8844e-05	2.2362e-05	629.73	299.94	6.0887e-06	9.1113e-06	281.39	122.92	134.92	67.782	1.6068e-05	59.259	0.038437	0.061762	0.017338	1114.6	0.00063254	0.00068659	942.56	415.27	0.00063355	0.00068909	444.2	176.9	228.95	85.088	0.00065597	83.754	58.687	-84.033	-12.590	-74.360	73.382	115.001	-75.590	-68.887	256.749	-68.470	-71.628	-68.152	-64.461	-60.627	78.548	-64.118	-8191	255	
1092.754	1	1	0	0	0.055153	0.26209	0.093692	0.29553	0.12584	0.023326	0.24357	0.061314	0.066336	0.11936	0.15911	0.16946	0.14233	0.20341	0.15052	0.10664	-3.1375	-3.1833	-3.7	-3.5292	-3.2896	-3.6542	-3.5854	-3.6104	-3.5187	-3.1833	-3.7667	-3.5854	-3.425	-3.8125	-3.2458	-3.5229	179.613	8.267	244.356	156.048	-17.467	-41.611	177.353	173.652	-42.163	-83.545	53.372	152.995	165.142	216.710	-50.694	244.988	0.00048088	0.00069311	0.00053582	801.38	1.6298e-05	1.4418e-05	634.5	300.91	1.1537e-05	1.5246e-05	287.52	125.24	135.47	68.318	3.4228e-06	61.101	0.038694	0.062123	0.017445	1117.5	0.00063228	0.00068634	945.94	415.8	0.00063009	0.0006863	447.98	178.48	229.76	85.608	0.00065237	85.103	146.559	52.307	-23.850	-74.710	99.391	114.243	-75.511	-68.901	108.007	97.608	-71.471	-68.537	-64.849	-60.582	8.726	-63.954	-8191	255	
1092.851	1	1	0	0	0.1362	0.066458	0.28255	0.15008	0.072282	0.16412	0.0051817	0.1377	0.26195	0.25104	0.19073	0.24235	0.076326	0.35322	0.18985	0.10909	-3.2354	-3.275	-3.5583	-3.5208	-3.3292	-3.8125	-3.3708	-3.4854	-3.65	-3.1917	-3.5771	-3.7042	-3.2375	-3.7208	-3.3917	-3.425	11.174	48.087	254.578	203.546	27.613	217.784	209.419	193.784	208.596	-62.242	211.451	246.426	-77.976	225.159	93.942	81.356	0.0001619	0.00063285	0.00066053	806.9	1.0967e-05	1.8999e-05	637.98	302.54	1.0824e-05	1.2936e-05	284.74	125.41	135.91	68.676	1.3661e-05	61.006	0.038672	0.062064	0.017386	1122.4	0.00063471	0.0006893	953.03	417.51	0.00063023	0.0006867	448.46	179	229.51	85.812	0.0006454	84.979	142.369	85.536	31.288	-74.561	57.272	176.753	-75.333	-68.953	262.424	-62.402	-71.718	-67.844	-64.597	-60.481	174.907	-64.204	-8191	255	
1092.947	1	1	0	0	0.085025	0.22359	0.093493	0.10783	0.32875	0.17008	0.053621	0.139	0.24179	0.13123	0.039115	0.23054	0.07593	0.1359	0.22523	0.28719	-3.3208	-3.3042	-3.4604	-3.5563	-3.2354	-3.6896	-3.4604	-3.5125	-3.6937	-3.3208	-3.625	-3.5333	-3.3417	-3.8854	-3.5208	-3.5708	-0.117	40.532	168.163	246.330	122.842	-19.567	73.452	179.336	-18.675	211.549	269.226	-80.556	-59.517	239.904	26.512	186.859	0.00031101	0.0010036	0.00067093	807.66	1.484e-05	3.2019e-05	639.18	302.41	1.0221e-05	9.0307e-06	285.25	124.51	136.73	67.989	2.0132e-05	60.077	0.038357	0.061458	0.017217	1118.5	0.00062578	0.00068015	947.9	416.34	0.00062668	0.0006808	446.52	178.63	229.39	85.181	0.00064494	84.027	155.071	15.727	-17.656	-74.698	99.547	104.728	-75.606	-69.198	252.381	263.893	-71.730	-67.909	-64.819	-60.626	127.094	-63.863	-8191	255	
1093.043	1	1	0	0	0.26056	0.19569	0.1447	0.22304	0.063746	0.090136	0.10203	0.096764	0.010593	0.2647	0.13199	0.51674	0.14725	0.1976	0.19414	0.13209	-3.2625	-3.3167	-3.4042	-3.65	-3.2333	-3.6667	-3.5979	-3.3229	-3.4375	-3.4292	-3.4042	-3.725	-3.1917	-3.7917	-3.5563	-3.325	121.188	240.896	-31.947	-72.711	18.928	96.331	119.577	-49.905	5.421	229.759	144.403	160.994	169.512	172.892	46.274	255.577	0.00030921	0.0019209	0.00058272	806.78	2.5025e-05	2.5787e-05	632.74	302.19	3.054e-06	2.7104e-05	284.17	123.59	135.69	67.658	4.0105e-06	59.909	0.038445	0.06144	0.017277	1121.3	0.0006274	0.00068056	944.77	416.89	0.00062582	0.00067782	444.89	177.32	228.05	84.783	0.00064603	83.715	202.082	65.167	-4.212	-74.243	206.873	29.676	-75.397	-69.077	210.822	254.687	-71.747	-67.907	-65.171	-60.752	218.749	-63.942	-8191	255	
1093.139	1	1	0	0	0.071552	0.11933	0.20757	0.087327	0.1274	0.22316	0.17027	0.15951	0.24488	0.092235	0.21927	0.099576	0.22243	0.48948	0.059427	0.19421	-3.2229	-3.3167	-3.3729	-3.5833	-3.2562	-3.6333	-3.5958	-3.2521	-3.5208	-3.4125	-3.4437	-3.6063	-3.3729	-3.5438	-3.4958	-3.2313	262.983	119.116	128.083	71.867	254.477	186.500	166.925	233.134	53.601	241.348	-83.087	269.014	-59.924	196.192	-46.461	-59.072	6.5752e-05	0.0021081	0.00045793	802.11	1.1818e-05	4.0063e-05	628.81	301.65	8.6926e-06	2.4349e-05	283.54	124.36	135.5	67.95	1.7124e-05	60.369	0.038246	0.061691	0.017357	1118	0.00063095	0.00068446	943.66	415.53	0.0006287	0.00068316	444.94	177.64	228.74	85.163	0.00064776	84.342	156.791	18.376	35.820	-74.539	260.473	45.408	-75.449	-69.073	-14.927	100.508	-71.588	-68.252	-64.622	-60.505	151.738	-63.818	-8191	255	
1093.260	1	1	0	0	0.15995	0.061403	0.067051	0.22026	0.06822	0.05594	0.051409	0.26575	0.12289	0.13829	0.18	0.12861	0.068598	0.29817	0.082774	0.066827	-3.1562	-3.3937	-3.2979	-3.7771	-3.2062	-3.4458	-3.5854	-3.4771	-3.6417	-3.5167	-3.3625	-3.6521	-3.3438	-3.5354	-3.5958	-3.4604	221.271	210.563	186.566	263.070	245.333	73.603	246.942	208.805	119.546	138.443	-28.435	-81.847	217.132	261.277	124.676	68.186	0.00031508	0.00041459	0.00036526	801.46	1.3852e-05	7.2483e-06	636.8	304.01	1.3483e-05	1.3992e-05	286.02	124.74	135.83	68.158	2.3506e-05	60.934	0.038474	0.061371	0.017343	1118.7	0.00062979	0.00068589	950.09	417.52	0.0006333	0.00068714	448.26	178.94	230.07	85.62	0.00065669	85.306	154.753	34.773	32.804	-74.401	-54.064	105.004	-75.524	-69.171	238.694	96.076	-71.604	-68.041	-64.871	-60.618	71.132	-64.295	-8191	255	
1093.354	1	1	0	0	0.068801	0.40343	0.18946	0.088791	0.078827	0.14157	0.16076	0.18478	0.1415	0.13345	0.076614	0.16698	0.31386	0.29324	0.10085	0.0452	-3.2458	-3.375	-3.3208	-3.8688	-3.4562	-3.3	-3.8875	-3.325	-3.65	-3.5771	-3.2083	-3.7687	-3.4417	-3.4667	-3.5542	-3.4958	180.281	82.563	65.070	261.887	-18.508	21.725	248.413	76.530	-61.623	135.427	174.683	170.514	246.083	184.211	211.176	61.130	0.0002484	0.0010266	0.00031757	800.13	9.4652e-06	3.2889e-05	634.86	302.38	1.7674e-05	3.608e-05	282.91	123.81	135	67.188	9.3137e-06	59.835	0.039017	0.062503	0.017606	1122.5	0.00064155	0.00069508	951.67	418.27	0.00064102	0.00069497	447.2	177.99	229.88	84.966	0.00066182	84.008	149.729	-38.901	-68.136	-74.079	179.026	190.043	-75.377	-69.145	62.641	81.212	-71.617	-67.880	-64.431	-60.337	-27.156	-64.066	-8191	255	
1093.450	1	1	0	0	0.21439	0.087899	0.19845	0.26668	0.11545	0.16415	0.29935	0.22336	0.28743	0.3108	0.18112	0.15162	0.15578	0.29297	0.15929	0.22392	-3.0375	-3.5875	-3.1521	-3.7917	-3.2979	-3.3875	-3.7333	-3.3021	-3.3833	-3.6583	-3.3146	-3.8042	-3.5333	-3.3604	-3.6604	-3.3958	107.464	-79.075	177.578	36.678	45.110	-13.546	224.683	67.918	244.178	-6.240	234.845	198.552	181.778	262.310	190.578	180.255	0.00035324	0.0027524	0.00049805	803.63	9.5743e-06	1.6479e-05	628.29	301.84	1.1558e-05	5.8474e-06	281.38	122.51	135.2	67.395	9.7016e-06	59.315	0.039238	0.062933	0.017749	1126.4	0.0006449	0.00070329	949.55	418.67	0.00064695	0.00070551	448.72	178.22	231.06	85.269	0.00066713	84.012	188.030	118.938	-44.753	-74.253	269.229	58.366	-75.581	-68.926	270.013	29.270	-71.743	-67.745	-65.178	-60.452	81.347	-64.059	-8191	255	
1093.546	1	1	0	0	0.13359	0.25563	0.37895	0.097595	0.048102	0.13469	0.28596	0.12213	0.04407	0.015457	0.32164	0.20874	0.15721	0.0060301	0.069184	0.12613	-2.9708	-3.55	-3.2	-3.4604	-3.4167	-3.3417	-3.7375	-3.3021	-3.5375	-3.5729	-3.2125	-3.7729	-3.2583	-3.3646	-3.7208	-3.4125	164.404	34.622	158.968	197.128	-81.868	39.653	175.502	262.848	208.490	108.670	181.600	171.851	179.533	-40.760	64.813	-7.855	0.00016717	0.0013662	0.00045864	807.99	1.4002e-05	1.3891e-05	632.39	300.95	9.8432e-06	1.0768e-05	282.87	124.53	135.17	67.761	4.6218e-06	59.959	0.039461	0.063286	0.017778	1128.2	0.00064589	0.00070132	953.03	418.7	0.00064715	0.00070131	449.37	178.93	230.76	85.63	0.0006625	84.655	126.810	35.612	80.230	-74.851	-36.106	82.011	-75.623	-69.189	98.734	214.625	-71.320	-68.118	-64.878	-60.682	268.394	-64.189	-8191	255	
1093.620	1	1	0	0	0.055518	0.068393	0.10987	0.078506	0.1026	0.26542	0.054138	0.1995	0.28666	0.22811	0.10414	0.20713	0.15357	0.12575	0.011727	0.22546	-2.9313	-3.625	-3.2938	-3.75	-3.4708	-3.4562	-3.7771	-3.4333	-3.4604	-3.5417	-3.2125	-3.4958	-3.6125	-3.5646	-3.7354	-3.6083	78.870	172.414	98.799	156.310	246.841	125.220	-24.580	238.455	-30.160	190.831	-41.779	-71.729	268.162	242.716	7.418	246.050	0.00032433	0.0015136	0.00065057	805.62	8.9683e-06	1.2152e-05	642.56	304.2	8.388e-06	1.2832e-05	285.5	125.63	137.32	68.859	1.7869e-05	61.511	0.039129	0.062693	0.017616	1127.7	0.00064104	0.00069704	957.65	421.07	0.00064623	0.00070387	455.41	181.46	233.48	86.622	0.00067081	86.168	127.989	-49.607	234.872	-74.595	260.927	50.484	-75.158	-68.736	-31.996	54.323	-71.904	-67.993	-64.898	-60.470	198.664	-64.158	-8191	255	
1093.739	1	1	0	0	0.20823	0.14472	0.090832	0.14336	0.094833	0.13404	0.25752	0.39915	0.17924	0.14783	0.073521	0.19299	0.052758	0.16109	0.16788	0.19515	-2.8646	-3.6979	-3.1042	-3.5375	-3.5625	-3.2083	-3.7	-3.5979	-3.3354	-3.8063	-3.3917	-3.5917	-3.6833	-3.4562	-3.5583	-3.6	18.645	239.742	-27.109	126.731	146.157	60.416	191.793	231.445	143.161	-71.182	175.382	241.994	-75.132	189.962	86.610	140.095	0.00019394	0.0023084	0.00082203	812.28	1.0347e-05	1.7028e-05	637.47	303.23	1.4344e-05	1.0421e-05	285.4	125.53	135.77	67.352	1.4047e-05	59.643	0.039849	0.063698	0.017906	1137.3	0.00065241	0.00070773	964.49	420.61	0.00065086	0.00070792	454.09	180.67	232.55	85.542	0.00068021	84.79	43.819	139.906	-58.122	-74.444	55.362	89.609	-75.780	-69.464	71.327	-38.637	-71.724	-67.790	-64.985	-60.601	71.285	-64.170	-8191	255	
1093.835	1	1	0	0	0.058487	0.083071	0.12159	0.24824	0.21271	0.29518	0.2046	0.18261	0.13307	0.081923	0.079835	0.2737	0.085329	0.33846	0.17111	0.12791	-3.025	-3.7229	-3.3792	-3.6229	-3.5729	-3.1646	-3.8	-3.5479	-3.3125	-3.7104	-3.4188	-3.5625	-3.725	-3.4604	-3.5542	-3.5417	267.669	123.547	256.686	239.272	21.218	56.156	232.903	-35.640	239.495	169.230	238.438	241.405	244.696	254.726	224.737	128.453	0.00039742	0.0014696	0.00061097	802.18	1.6359e-05	7.4833e-06	629.71	299.71	4.1016e-06	1.2951e-05	281.66	122.21	134.84	67.649	1.5072e-05	59.215	0.040392	0.065186	0.018294	1134.7	0.0006654	0.00072077	958.93	420.34	0.00066313	0.00072102	453.02	179.49	233.44	85.686	0.00068871	84.595	190.091	3.348	98.883	-74.287	107.901	-5.068	-75.563	-68.966	22.424	125.380	-71.282	-67.974	-65.446	-60.330	60.399	-64.136	-8191	255	
1093.931	1	1	0	0	0.14504	0.071892	0.28455	0.035892	0.088219	0.14423	0.098903	0.16442	0.21404	0.20181	0.26071	0.04833	0.13718	0.17864	0.047357	0.1354	-2.6458	-3.625	-3.3271	-3.3479	-3.7208	-3.25	-3.6417	-3.5604	-3.2229	-3.9125	-3.3917	-3.3604	-3.6375	-3.3625	-3.3833	-3.6083	60.141	232.775	-42.165	130.165	21.984	3.590	25.956	267.854	95.054	95.712	134.139	35.391	-26.115	208.015	-60.764	198.329	0.00021202	0.00096769	0.00031029	807.41	1.2292e-05	2.6159e-05	629.34	299.33	2.7481e-05	1.0745e-05	280.2	122.4	134.69	67.356	1.1318e-05	59.193	0.041081	0.065816	0.018519	1142.5	0.00067729	0.00073701	965.42	423.75	0.00067866	0.00073488	455.13	180.23	234.64	85.856	0.00069666	85.096	181.665	75.447	126.386	-74.377	140.738	108.600	-75.545	-69.182	-0.545	232.591	-72.519	-67.800	-64.500	-60.386	-74.302	-64.298	-8191	255	
1094.052	1	1	0	0	0.18813	0.10615	0.11256	0.1191	0.012619	0.24795	0.050568	0.23566	0.15482	0.10592	0.053695	0.29717	0.29129	0.14331	0.11651	0.21371	-2.7229	-3.6333	-3.5312	-3.3458	-3.6937	-3.2854	-3.6208	-3.6604	-3.1021	-3.6208	-3.6688	-3.3521	-3.7583	-3.5354	-3.4062	-3.925	169.761	160.107	211.177	240.061	66.823	96.226	-50.974	222.106	229.364	169.179	-48.962	245.194	234.745	261.932	214.393	208.720	1.3985e-05	0.0015251	0.00089047	804.75	4.4739e-06	3.0355e-05	631.88	300.98	9.4674e-06	1.2953e-05	282.52	124.24	135.65	68.054	1.8898e-05	60.136	0.040925	0.0659	0.018463	1139.4	0.00067119	0.00072981	963.31	423.5	0.00067372	0.00072962	456.05	181.25	235.25	86.389	0.0007	85.981	169.638	198.057	86.927	-74.210	145.591	123.224	-75.571	-68.911	-11.332	223.546	-71.533	-67.985	-65.432	-60.612	146.452	-64.147	-8191	255	
1094.148	1	1	0	0	0.21975	0.18165	0.17099	0.2632	0.14649	0.28123	0.10082	0.1249	0.11214	0.083387	0.053315	0.12632	0.1256	0.11566	0.16201	0.37003	-2.95	-3.6063	-3.3688	-3.4417	-3.6479	-3.3312	-3.6042	-3.7521	-3.35	-3.3979	-3.6333	-3.2521	-3.6229	-3.5021	-3.4417	-3.8167	-27.101	145.442	132.375	227.475	-5.048	100.294	186.752	259.494	245.951	36.670	-57.528	-84.475	-45.499	240.849	74.507	223.277	4.6257e-05	0.0016227	0.00039261	805.38	1.0804e-06	9.4096e-06	636.36	303.92	1.3915e-05	1.9677e-05	283.12	123.99	134.98	68.287	8.4029e-06	60.96	0.041406	0.066397	0.018614	1148.9	0.00067889	0.00073821	973.37	425.94	0.00068031	0.0007364	459.33	182.32	235.96	86.884	0.000697	87.021	63.604	84.250	261.115	-74.361	139.028	-47.436	-75.217	-68.856	20.262	39.911	-71.502	-68.076	-64.759	-60.585	47.868	-63.976	-8191	255	
1094.219	1	1	0	0	0.24054	0.18179	0.23763	0.24984	0.24029	0.16337	0.18252	0.14439	0.31623	0.062831	0.082732	0.063751	0.13317	0.18824	0.21919	0.20744	-2.9375	-3.3167	-3.4896	-3.3771	-3.6542	-3.375	-3.3896	-3.9417	-3.2167	-3.4854	-3.7271	-3.3667	-3.675	-3.4729	-3.3021	-3.8063	33.568	225.556	-33.645	233.087	0.190	4.991	171.406	162.285	122.800	-30.076	-71.751	201.180	191.278	-72.906	20.491	-79.567	0.00032916	0.0017452	0.00013053	810.89	6.9517e-06	2.1756e-05	635.16	302.08	3.7636e-06	2.603e-05	283.03	123.81	136.88	67.662	5.7391e-06	59.854	0.041315	0.066565	0.018626	1151.2	0.00067856	0.00073656	974.45	425.72	0.00067781	0.00073422	457.95	181.56	236.15	86.211	0.00069729	85.598	180.421	-25.800	-79.720	-74.792	223.632	-28.854	-75.584	-68.781	-69.205	62.619	-71.793	-67.729	-65.205	-60.744	149.201	-64.177	-8191	255	
1094.340	1	1	0	0	0.047051	0.23234	0.099033	0.065796	0.26722	0.065146	0.17282	0.037973	0.13745	0.19313	0.25805	0.060324	0.10539	0.2554	0.091291	0.10801	-2.7604	-3.4625	-3.5563	-3.3458	-3.7958	-3.5208	-3.4688	-3.9021	-3.4604	-3.3667	-3.9396	-3.375	-3.6188	-3.5938	-3.0292	-3.6813	-26.098	87.701	52.005	215.382	48.087	169.764	-13.222	13.848	52.623	-28.504	266.707	92.001	124.742	245.761	178.786	104.540	0.00017698	0.002141	0.00045669	812.13	6.9493e-06	1.4846e-05	628.57	303.61	2.4066e-05	1.3259e-05	280	122.68	135.55	67.664	1.206e-05	59.043	0.041502	0.066526	0.018761	1153.7	0.00068625	0.00074181	972.25	426.73	0.00068244	0.00073951	456.64	180.45	235.53	85.976	0.00069829	84.879	216.209	-45.143	-7.259	-74.613	165.176	120.047	-75.512	-68.864	102.611	179.769	-71.535	-68.158	-64.499	-60.478	144.477	-64.654	-8191	255	
1094.436	1	1	0	0	0.037564	0.071745	0.10649	0.14068	0.22334	0.17501	0.17333	0.085546	0.22165	0.073229	0.10177	0.091153	0.33893	0.12083	0.10216	0.019503	-3.1271	-3.3937	-3.7833	-3.4417	-3.6125	-3.5	-3.2062	-3.7604	-3.3125	-3.3125	-3.7687	-3.3458	-3.6583	-3.5583	-3.1646	-3.6104	172.249	-82.178	150.485	226.810	-54.873	-46.246	231.981	213.219	82.508	208.093	-50.300	211.275	-49.993	-28.351	263.083	138.687	0.00062646	0.00092464	0.00053683	801.35	1.6418e-05	8.2982e-06	627.49	298.94	2.4501e-06	2.033e-05	280.16	122.29	134.2	67.408	2.0072e-05	59.61	0.041396	0.06646	0.018736	1148	0.00068683	0.00074398	968.43	425.27	0.00068857	0.00074496	455.35	180.26	235.37	85.782	0.0006952	85.151	189.111	157.611	11.483	-74.203	155.740	111.971	-75.639	-68.718	138.126	-61.558	-71.629	-68.216	-65.050	-60.420	-3.567	-64.233	-8191	255	
1094.531	1	1	0	0	0.14647	0.038105	0.22531	0.091895	0.12202	0.12902	0.36068	0.188	0.17363	0.19905	0.12037	0.088883	0.21853	0.14376	0.29705	0.2402	-2.9375	-3.275	-3.7438	-3.2917	-3.4771	-3.6333	-3.3187	-3.7313	-3.4917	-3.3646	-3.8646	-3.3125	-3.6375	-3.7021	-3.3063	-3.5812	129.459	197.817	146.473	7.829	265.236	170.274	161.276	-42.215	139.974	-31.942	131.357	227.029	-85.832	234.124	252.706	239.038	0.00010509	0.0013989	0.00061057	806.03	8.3746e-06	3.2133e-05	628.39	302.86	2.1435e-05	1.3174e-06	282.72	123.83	136.47	67.456	1.7623e-05	60.336	0.04104	0.065886	0.018598	1145.2	0.00067526	0.00073503	967.43	424.83	0.0006772	0.00073619	457.92	181.73	236.31	86.324	0.00070111	86.199	249.415	6.975	-14.256	-74.239	134.526	121.798	-75.604	-68.998	-41.128	218.571	-71.564	-68.118	-64.968	-60.566	81.869	-64.219	-8191	255	
1094.651	1	1	0	0	0.19844	0.16172	0.16354	0.038882	0.22742	0.13459	0.14507	0.46426	0.032375	0.043388	0.12772	0.11644	0.24034	0.22666	0.19302	0.13499	-2.9979	-3.2792	-3.5896	-3.3	-3.4417	-3.6646	-3.1604	-3.5458	-3.4125	-3.2771	-3.7854	-3.3063	-3.4375	-3.7479	-3.2417	-3.6458	171.041	186.383	62.615	149.495	-8.715	239.950	-30.385	221.813	257.406	85.214	242.918	150.427	-9.815	191.438	7.047	120.579	0.00012201	0.00083397	0.00026133	807.04	2.1284e-05	9.8838e-06	637.3	300.66	5.9666e-06	1.8515e-05	282.15	121.94	134.04	66.807	2.3033e-05	58.866	0.041412	0.066461	0.01865	1149.4	0.00067748	0.00073823	973.57	424.72	0.00067928	0.00074095	457.7	180.79	235.19	85.773	0.00070516	85.069	221.761	171.947	-63.286	-74.610	194.307	-36.855	-75.820	-68.972	58.312	53.021	-71.749	-68.093	-65.009	-60.704	243.181	-64.224	-8191	255	
1094.747	1	1	0	0	0.065385	0.11037	0.12131	0.21734	0.1097	0.17472	0.24941	0.092612	0.19784	0.13049	0.17723	0.079454	0.10717	0.40466	0.19197	0.087363	-3.2604	-3.1458	-3.7104	-3.4188	-3.4688	-3.6521	-3.4104	-3.6562	-3.5333	-3.225	-3.6063	-3.5812	-3.3083	-3.85	-3.4062	-3.5708	151.989	186.901	231.395	140.685	154.162	215.212	-80.888	-65.890	198.738	191.290	210.192	102.117	234.383	-47.457	89.582	217.138	0.0002227	0.0018741	0.00071046	801.38	1.5205e-05	1.0847e-05	625.51	300.71	1.0827e-05	1.5983e-05	280.63	121.48	134.9	66.909	1.5507e-05	58.815	0.041687	0.066634	0.018782	1148	0.00068238	0.00074121	967.82	424.44	0.00068193	0.00073942	455.66	179.91	235.36	85.573	0.00070368	84.385	172.277	-12.201	-27.228	-74.362	207.053	-64.816	-75.753	-69.275	-66.199	115.898	-72.097	-68.181	-64.851	-60.691	23.152	-64.261	-8191	255	
1094.843	1	1	0	0	0.22823	0.26442	0.19987	0.17127	0.32755	0.16863	0.22717	0.24647	0.19338	0.36034	0.19502	0.17653	0.2306	0.18362	0.22242	0.085045	-3.1354	-3.2104	-3.5438	-3.575	-3.2833	-3.5938	-3.2958	-3.5542	-3.5604	-3.2708	-3.9354	-3.5375	-3.225	-3.7229	-3.2958	-3.6417	174.057	25.430	160.988	256.744	-38.886	56.240	186.621	-44.895	113.264	143.130	150.868	235.283	-58.626	257.637	31.665	-50.698	0.00033605	0.0010843	0.0007814	806.35	7.1448e-06	2.1777e-05	626.87	300.91	2.2858e-05	4.8057e-06	281.01	122.82	135.12	67.493	1.0391e-05	59.245	0.041389	0.066372	0.018617	1145.1	0.00067587	0.00073107	962.1	423.14	0.00066909	0.00073085	454.3	179.59	233.78	85.792	0.00069371	84.721	200.335	-43.360	-0.984	-74.492	107.523	208.202	-75.212	-68.842	43.884	148.107	-71.100	-68.216	-64.353	-60.566	-48.637	-63.884	-8191	255	
1094.915	1	1	0	0	0.050068	0.10694	0.27139	0.29931	0.079324	0.22809	0.13557	0.20059	0.15028	0.24281	0.095947	0.11336	0.20977	0.25785	0.12134	0.17554	-3.2604	-3.1833	-3.5875	-3.6083	-3.2708	-3.6188	-3.4021	-3.4521	-3.4813	-3.325	-3.6667	-3.6646	-3.3521	-3.7896	-3.4125	-3.4688	16.825	177.398	142.459	188.285	-34.588	249.673	50.743	217.985	166.209	74.793	145.480	226.672	202.486	265.715	71.141	197.500	0.00016923	0.001243	0.00049547	806.92	1.9133e-05	3.2273e-06	634.49	303.27	2.3004e-05	1.3554e-05	283.14	123.19	136.26	67.908	8.1494e-06	60.406	0.040947	0.065663	0.018479	1142.8	0.00067272	0.0007313	967.43	424.56	0.00066987	0.00073109	457.14	181.61	236	86.508	0.00069574	86.019	233.507	174.794	-31.217	-74.507	146.040	150.311	-75.707	-69.048	-33.726	121.699	-71.723	-67.855	-64.952	-60.214	12.226	-63.974	-8191	255	
1095.036	1	1	0	0	0.16647	0.17345	0.12183	0.27953	0.30878	0.2045	0.12961	0.31744	0.075676	0.098301	0.039716	0.15213	0.25067	0.61872	0.25666	0.22285	-3.1667	-3.2646	-3.4437	-3.6312	-3.2083	-3.5896	-3.4708	-3.4833	-3.7021	-3.2854	-3.575	-3.7292	-3.2146	-3.9396	-3.4354	-3.5167	9.161	-25.034	174.403	-82.739	133.724	216.469	75.307	-55.785	59.259	209.553	-37.318	218.023	240.734	244.513	54.908	163.697	0.00041129	0.0028808	0.00056058	810.39	6.2985e-06	2.5525e-05	640.09	302.68	1.3709e-05	1.2189e-05	283.02	122.71	134.01	67.376	2.5321e-05	59.713	0.041203	0.066225	0.018622	1153.2	0.00068244	0.00074057	976.97	426.86	0.00068383	0.00073917	458.25	180.84	234.78	85.891	0.00069247	85.306	133.687	17.905	-78.036	-74.145	106.894	45.314	-75.663	-68.823	80.114	-35.858	-71.776	-67.948	-65.125	-60.760	-42.589	-64.056	-8191	255	
1095.132	1	1	0	0	0.15364	0.22608	0.1202	0.051611	0.2118	0.12863	0.1279	0.32692	0.089865	0.14094	0.17204	0.07976	0.12145	0.35257	0.22538	0.043963	-3.1104	-3.3563	-3.4146	-3.5583	-3.2875	-3.6708	-3.5458	-3.3563	-3.5896	-3.3937	-3.4938	-3.6667	-3.2167	-3.8312	-3.4542	-3.4583	126.590	66.833	211.052	32.444	47.171	28.681	8.750	183.956	159.669	66.912	198.032	-12.895	172.954	-85.168	123.118	-28.540	0.00047004	0.0010873	0.00023759	803.67	8.291e-06	3.2718e-05	628.39	298.57	1.6113e-05	5.4337e-06	278.29	121.33	133.53	66.72	3.6466e-06	58.429	0.041297	0.066299	0.018714	1145.4	0.00068287	0.00074102	968.74	423.7	0.00068289	0.00074098	454.21	179.04	234.22	85.196	0.00069656	84.319	139.958	19.478	119.632	-74.423	-79.916	114.943	-75.801	-69.066	-17.898	259.588	-71.400	-67.934	-65.151	-60.594	156.289	-64.138	-8191	255	
1095.228	1	1	0	0	0.13548	0.052982	0.046884	0.13126	0.17332	0.19913	0.23838	0.14699	0.29438	0.15725	0.2108	0.075147	0.063004	0.065418	0.085117	0.059832	-3.2812	-3.3083	-3.3354	-3.7146	-3.2083	-3.6521	-3.5396	-3.3542	-3.6542	-3.3979	-3.4208	-3.5771	-3.3875	-3.6104	-3.6646	-3.4479	198.919	66.203	56.860	268.793	218.478	251.427	110.988	148.648	243.272	129.486	264.434	266.967	17.103	199.306	173.237	188.635	0.00011589	0.002507	0.00050592	804.72	3.2566e-05	2.9507e-05	630.18	299.52	1.7397e-05	1.6877e-05	278.87	121.03	133.89	66.755	7.9927e-06	58.183	0.041508	0.066688	0.018783	1149.4	0.00068826	0.00074771	968.09	426.01	0.00069234	0.00075303	456.72	179.78	235.95	85.677	0.00070677	84.604	99.073	-6.695	17.478	-74.489	192.255	114.215	-75.795	-68.814	201.140	109.487	-71.673	-67.951	-64.625	-60.474	164.982	-64.105	-8191	255	
1095.324	1	1	0	0	0.13937	0.091968	0.296	0.23378	0.11069	0.055469	0.11475	0.28986	0.19611	0.15513	0.10328	0.12463	0.1901	0.30107	0.044915	0.11205	-3.2375	-3.475	-3.3604	-3.6979	-3.3042	-3.6042	-3.6583	-3.4583	-3.6	-3.3583	-3.4562	-3.7875	-3.2854	-3.5792	-3.6042	-3.3167	119.312	-47.535	215.931	191.191	-53.695	-22.334	203.806	260.372	67.843	64.462	-54.429	37.187	119.670	271.564	208.432	200.815	0.0001875	0.0016885	0.00087705	799.73	1.537e-05	1.9002e-05	622.42	299.08	1.6279e-05	1.2186e-05	276.58	121.29	134.46	67.105	2.2852e-05	59.157	0.041758	0.067134	0.018826	1149.7	0.00068811	0.00075009	969.13	425.65	0.00069342	0.00075081	456.4	180.1	236.23	86.006	0.00070907	85.307	188.649	96.252	-11.447	-74.368	243.394	-15.051	-75.734	-69.089	32.703	10.276	-71.902	-68.417	-64.338	-60.396	-52.040	-64.001	-8191	255	
1095.443	1	1	0	0	0.19526	0.010843	0.15322	0.08543	0.080719	0.3651	0.14317	0.22185	0.018858	0.081091	0.082778	0.065876	0.060892	0.22623	0.14376	0.2179	-3.25	-3.5146	-3.3125	-3.8146	-3.3146	-3.4313	-3.7271	-3.2604	-3.6771	-3.5292	-3.3833	-3.9042	-3.2875	-3.6792	-3.5208	-3.3083	36.622	-11.750	-40.859	65.736	183.639	-6.377	175.561	222.784	157.171	214.295	242.156	-29.753	157.826	-47.810	265.116	-47.555	0.00030379	0.0011965	4.1725e-05	805.73	1.0839e-05	6.46e-06	631.4	300.91	1.8814e-05	1.3128e-05	283.67	122.32	135.55	67.705	1.3488e-05	60.21	0.0419	0.067216	0.018855	1153.4	0.00068594	0.00074651	971.84	427.08	0.00068841	0.0007468	459.69	181.38	236.44	86.458	0.0007101	86.287	232.358	-13.976	71.610	-74.228	182.650	17.808	-75.756	-68.770	124.444	-33.160	-71.649	-68.073	-64.902	-60.659	224.739	-63.844	-8191	255	
1095.517	1	1	0	0	0.28067	0.21346	0.14255	0.17821	0.21045	0.1764	0.11034	0.15811	0.047005	0.15707	0.26518	0.070455	0.071088	0.20619	0.19214	0.18927	-3.1167	-3.5333	-3.2667	-3.7687	-3.2687	-3.5479	-3.8042	-3.2396	-3.4958	-3.5292	-3.4375	-3.6813	-3.3646	-3.5104	-3.7583	-3.4333	-64.386	123.252	160.504	-50.709	149.772	81.100	203.517	200.100	128.570	63.303	266.798	51.180	62.534	236.135	201.700	204.649	0.00014559	0.0017114	0.00037068	808.77	1.6988e-05	2.7689e-05	635.08	302.34	1.6261e-05	1.9985e-05	282.44	122.59	135.58	67.372	7.898e-06	59.272	0.041868	0.067006	0.018804	1153.1	0.00068191	0.00073846	974.81	425.69	0.00067982	0.00074137	459.35	181.02	236.26	86.184	0.00070446	85.458	144.782	5.452	212.312	-74.472	155.716	-18.099	-75.399	-69.140	188.864	268.599	-71.786	-67.532	-65.072	-60.518	-80.145	-63.875	-8191	255	
1095.613	1	1	0	0	0.37174	0.1388	0.13006	0.034012	0.12167	0.12348	0.35117	0.18537	0.067061	0.062111	0.14474	0.31599	0.21295	0.19911	0.063729	0.3236	-3.175	-3.5333	-3.2542	-3.7833	-3.3917	-3.375	-3.7875	-3.3729	-3.5354	-3.6854	-3.2604	-3.5958	-3.6688	-3.4479	-3.5812	-3.5146	180.533	140.780	104.656	264.542	155.704	129.366	226.436	193.122	134.413	49.615	198.147	221.702	169.381	-23.178	206.285	269.781	0.00016209	0.00053505	0.00057283	806.03	2.1312e-05	1.3222e-05	629.83	301	2.1116e-05	1.3598e-05	278.86	120.54	135.19	66.985	2.0601e-05	58.073	0.041838	0.066863	0.018847	1154.4	0.00068369	0.00074637	973.33	426.76	0.00068793	0.00074911	458.61	180.45	237.32	85.993	0.00071387	84.766	166.147	251.650	35.799	-74.295	-29.251	-1.901	-75.746	-68.827	65.942	212.675	-71.301	-67.997	-64.700	-60.246	184.663	-64.327	-8191	255	
1095.732	1	1	0	0	0.24805	0.33318	0.054104	0.18508	0.15469	0.090458	0.14984	0.32364	0.098335	0.11315	0.24692	0.058891	0.02543	0.3496	0.1075	0.14301	-3.1271	-3.5958	-3.1104	-3.6104	-3.5354	-3.2687	-3.7	-3.4854	-3.275	-3.5583	-3.4396	-3.5729	-3.4813	-3.425	-3.6063	-3.5208	138.737	74.073	91.584	238.086	-48.200	128.537	241.669	216.324	96.786	-85.105	188.163	205.899	-16.231	243.387	197.499	222.664	0.00039506	0.0002215	0.00034171	804.33	1.7469e-05	2.151e-05	626.51	299.33	3.7247e-06	9.96e-06	276.98	120.25	132.28	66.426	3.0877e-05	57.906	0.042078	0.067839	0.019026	1152.7	0.00068984	0.00074909	968.31	425.05	0.00069036	0.00074873	455.73	179.45	235.95	85.61	0.00071632	84.804	124.489	129.520	-24.794	-74.404	-58.610	123.251	-75.259	-68.755	49.176	37.249	-72.190	-68.026	-64.787	-60.379	-77.460	-64.068	-8191	255	
1095.828	1	1	0	0	0.16071	0.095769	0.16591	0.4103	0.06969	0.20486	0.181	0.22517	0.21053	0.14141	0.030697	0.035819	0.096174	0.249	0.13864	0.22073	-3.0229	-3.6396	-3.2208	-3.5646	-3.55	-3.3271	-3.7229	-3.4104	-3.2438	-3.675	-3.3375	-3.7417	-3.6333	-3.4562	-3.5917	-3.4854	-14.696	-44.376	233.019	169.716	213.064	146.364	254.814	145.494	28.336	24.763	221.945	178.109	110.416	-71.264	36.215	218.748	0.00033866	0.0010709	0.00023905	804.71	4.1585e-06	7.9525e-06	623.54	301.63	9.2961e-06	7.9362e-06	278.36	121.76	134.22	67.325	8.7556e-06	58.95	0.042431	0.068006	0.019102	1152.8	0.00069029	0.00074997	969.23	425.12	0.00068835	0.00074963	456.53	180.06	235.83	86.258	0.00071512	85.574	168.624	37.058	183.997	-74.430	78.696	178.550	-75.685	-68.812	74.506	-77.765	-71.652	-68.161	-64.457	-60.716	182.631	-64.113	-8191	255	
1095.924	1	1	0	0	0.11291	0.19361	0.2794	0.081887	0.13007	0.27511	0.37207	0.1195	0.06346	0.18078	0.11333	0.29015	0.11936	0.11358	0.19695	0.025368	-2.8771	-3.6479	-3.2938	-3.6104	-3.5375	-3.15	-3.7104	-3.4458	-3.3917	-3.575	-3.2021	-3.5167	-3.5583	-3.3583	-3.6188	-3.6937	-83.528	243.306	28.890	228.290	82.708	238.635	-58.377	198.757	108.520	220.410	118.046	104.227	147.105	36.913	56.041	235.696	0.0001757	0.0021058	0.00028984	808.18	1.5494e-05	2.8416e-05	631.87	299.44	1.1213e-05	1.6657e-05	277.7	120.92	133.82	66.967	7.0344e-06	58.652	0.042666	0.068521	0.019297	1158.7	0.00070591	0.00076774	980.15	428.29	0.00070316	0.00076521	458.22	180.43	237.25	86.144	0.0007207	85.059	154.789	75.916	9.047	-74.663	210.664	42.590	-75.520	-68.744	-70.429	3.683	-71.778	-68.082	-65.114	-60.611	105.608	-63.886	-8191	255	
1096.020	1	1	0	0	0.05196	0.048246	0.17751	0.1268	0.051302	0.057225	0.070013	0.15734	0.031752	0.13003	0.091444	0.2091	0.17051	0.12079	0.11749	0.090594	-2.9708	-3.6292	-3.3375	-3.2708	-3.6188	-3.2625	-3.425	-3.6792	-3.2729	-3.6937	-3.4771	-3.4521	-3.7146	-3.4146	-3.5979	-3.525	59.167	19.225	-7.245	224.007	-29.275	235.084	-40.586	259.622	-27.517	264.971	-73.889	-36.593	224.920	-83.000	110.512	210.482	0.00015574	0.00065035	0.000348	799.37	1.5931e-05	1.7791e-05	617.79	297.61	2.9471e-06	3.0769e-05	271.38	118.04	132.6	66.154	2.2182e-05	57.01	0.042967	0.068791	0.019395	1157.8	0.00070873	0.00077029	973.07	426.02	0.0007068	0.00076912	456.47	178.9	236.63	85.62	0.00072249	84.277	144.189	-85.081	4.774	-74.287	153.445	-71.317	-75.581	-68.890	199.904	104.009	-71.998	-68.346	-65.025	-60.443	0.030	-64.142	-8191	255	
1096.116	1	1	0	0	0.22283	0.1703	0.13688	0.13637	0.10343	0.097757	0.20523	0.10811	0.13135	0.10389	0.13369	0.068554	0.1288	0.1444	0.10122	0.070205	-2.7812	-3.6292	-3.2938	-3.4437	-3.7083	-3.2229	-3.5354	-3.3708	-3.0375	-3.5417	-3.5167	-3.2958	-3.6083	-3.3458	-3.5833	-3.7687	119.356	58.539	199.391	-62.958	109.676	-60.787	265.043	206.127	129.296	122.564	233.386	222.117	255.227	28.378	234.611	128.642	0.00039842	0.0035228	0.0010775	796.41	1.3235e-05	5.116e-06	619.83	297.48	2.8821e-06	2.0464e-05	274.65	119.31	133.29	66.472	2.8563e-06	57.745	0.042889	0.068495	0.019272	1154.5	0.00070202	0.00076308	968.09	425.68	0.00070398	0.00076373	455.52	179.14	236.58	85.795	0.00072264	84.678	162.023	32.214	56.992	-74.424	252.036	55.476	-75.537	-68.862	112.010	161.290	-71.850	-68.028	-64.825	-60.407	-51.348	-63.717	-8191	255	
1096.212	1	1	0	0	0.36913	0.091462	0.23799	0.13406	0.10603	0.10224	0.092547	0.23285	0.060217	0.21857	0.084289	0.10115	0.079917	0.2404	0.3259	0.20362	-2.7146	-3.4417	-3.4896	-3.4104	-3.65	-3.4167	-3.6	-3.575	-3.1417	-3.6333	-3.5333	-3.4625	-3.7438	-3.5229	-3.5208	-3.7333	117.995	128.832	-77.963	235.713	71.774	90.939	192.703	182.141	-62.519	140.244	160.698	238.461	60.986	253.282	134.198	228.177	0.00031754	0.0016313	0.00078331	803.81	9.1096e-06	3.4009e-05	621.96	297.38	2.1807e-05	2.98e-05	276.98	120.25	133.69	67.141	1.264e-05	58.608	0.042857	0.068684	0.019269	1155.5	0.00070192	0.00076096	968.67	425.78	0.00070121	0.00075987	456.3	179.8	237.2	86.362	0.00072262	85.451	177.083	107.464	43.536	-74.949	254.691	106.931	-75.643	-69.219	-5.863	-20.774	-71.866	-67.934	-64.782	-60.605	-43.110	-64.453	-8191	255	
1096.333	1	1	0	0	0.37609	0.12145	0.072358	0.14767	0.22698	0.16139	0.017424	0.05746	0.19755	0.12168	0.27279	0.22828	0.10933	0.21507	0.078303	0.12784	-2.7917	-3.4792	-3.4229	-3.3688	-3.6167	-3.3167	-3.4354	-3.8771	-3.275	-3.75	-3.6396	-3.3583	-3.5	-3.5229	-3.2313	-3.675	5.444	-84.629	119.267	-39.467	229.255	102.255	-53.880	70.875	122.881	211.068	229.242	214.411	149.524	-83.418	25.526	148.903	0.00010089	0.001559	0.0011292	807.86	1.4985e-05	1.9686e-05	625.46	299.58	1.5554e-05	5.7721e-06	277.16	120.13	133.58	67.174	8.1901e-06	58.738	0.04298	0.068922	0.01943	1163.6	0.00071158	0.00077411	980.91	429.4	0.00071626	0.00077526	460.3	181.41	238.43	86.465	0.00072921	85.777	238.047	187.321	254.006	-74.455	-53.282	86.041	-75.452	-68.797	260.792	63.232	-71.640	-67.951	-64.793	-60.713	150.030	-63.861	-8191	255	
1096.429	1	1	0	0	0.13907	0.14224	0.13142	0.24355	0.21307	0.19309	0.060963	0.081558	0.17309	0.052783	0.12871	0.081825	0.086291	0.23726	0.25437	0.20722	-2.7208	-3.5083	-3.5	-3.3563	-3.6437	-3.2271	-3.3854	-3.8208	-3.1604	-3.5271	-3.7687	-3.2875	-3.6625	-3.5333	-3.2375	-3.7146	182.423	80.638	238.730	147.600	-43.518	191.561	-20.636	217.411	55.204	154.631	-26.806	246.947	-8.640	231.468	4.564	213.301	0.00038902	0.0011425	0.00030041	798.57	1.6453e-05	2.1068e-05	619.26	293.36	6.5837e-06	1.4569e-05	268.95	117.66	131.8	65.778	4.6373e-06	57.171	0.043333	0.069593	0.019571	1158.7	0.00071606	0.00077546	976.25	426.67	0.00071568	0.00078044	455.95	179.11	237.39	85.373	0.0007365	84.332	200.651	-38.222	232.777	-74.597	-71.868	21.718	-75.651	-69.193	207.264	103.454	-71.833	-68.219	-65.222	-60.452	51.021	-63.982	-8191	255	
1096.523	1	1	0	0	0.15652	0.23497	0.10728	0.090165	0.17519	0.044741	0.34132	0.19982	0.17308	0.14685	0.22755	0.078865	0.11951	0.04173	0.015579	0.20174	-2.7708	-3.4792	-3.5229	-3.4167	-3.7062	-3.4437	-3.3792	-3.8667	-3.2646	-3.5417	-3.6479	-3.1646	-3.6583	-3.6146	-3.3312	-3.6792	26.510	189.224	19.258	185.257	184.821	106.963	177.615	221.895	264.057	235.681	269.975	112.627	118.257	230.105	153.897	-70.871	0.00014	0.0012861	0.00052607	793.72	1.3756e-05	2.9934e-05	614.61	297.07	1.5715e-05	7.1749e-06	268.77	117.47	132.23	66.161	2.9218e-06	57.273	0.043641	0.069873	0.019661	1158.3	0.00071571	0.00077646	971.12	428.28	0.00071833	0.00078123	456.87	179.13	238.52	85.917	0.00073801	84.499	215.341	270.051	46.338	-74.114	61.053	-22.441	-75.420	-69.041	-60.389	-71.512	-71.802	-68.217	-64.874	-60.434	30.992	-63.859	-8191	255	
1096.620	1	1	0	0	0.088939	0.09485	0.26373	0.22767	0.19831	0.22967	0.20387	0.25364	0.12741	0.17188	0.069234	0.048807	0.18882	0.068156	0.048209	0.18613	-2.7812	-3.4125	-3.6896	-3.4333	-3.6229	-3.4917	-3.2917	-3.7562	-3.4042	-3.2562	-3.7104	-3.4062	-3.5292	-3.7271	-3.2542	-3.6542	185.303	-24.370	51.101	197.635	193.465	79.084	273.040	252.185	-58.480	54.708	163.579	268.152	185.701	228.203	-82.940	239.080	0.00017362	0.0024543	0.00049318	797.45	1.094e-05	1.3196e-05	617.39	296.44	2.1292e-05	9.4341e-06	271.25	117.69	132	66.61	3.847e-06	57.888	0.04357	0.0695	0.019504	1157.9	0.00070998	0.00077172	972.12	427.39	0.00071437	0.00077625	457.17	179.54	237.98	86.101	0.00073317	85.154	145.259	-19.827	-42.699	-74.340	161.669	-7.611	-75.879	-68.820	141.680	21.946	-71.457	-68.186	-64.633	-60.479	14.944	-64.267	-8191	255	
1096.740	1	1	0	0	0.17718	0.097037	0.11377	0.22127	0.12245	0.10032	0.35926	0.23362	0.19049	0.080563	0.18643	0.16197	0.16374	0.25845	0.18258	0.25759	-2.9479	-3.4479	-3.5229	-3.3021	-3.3458	-3.5083	-3.2687	-3.5396	-3.4292	-3.4208	-3.9167	-3.2396	-3.4313	-3.7021	-3.0062	-4.0021	152.347	35.183	-64.287	244.665	159.059	-63.300	188.877	188.134	32.638	203.910	256.620	243.300	168.111	242.930	221.827	-67.869	0.00019358	0.0017705	0.0003384	801.17	1.2995e-05	2.4386e-05	615.46	299.48	1.458e-05	5.5546e-06	277.99	121.4	133.31	67.478	3.7525e-06	59.604	0.043252	0.069137	0.019468	1159.2	0.00070553	0.00076498	972.54	427.95	0.00070308	0.00076283	459.47	180.72	237.22	86.685	0.00071669	86.323	219.427	1.943	-34.730	-74.356	186.367	213.529	-75.611	-68.893	5.059	133.073	-71.502	-68.137	-64.739	-60.498	201.772	-63.988	-8191	255	
1096.812	1	1	0	0	0.18885	0.12453	0.10597	0.23487	0.12041	0.11561	0.15226	0.14736	0.14497	0.16872	0.23753	0.096452	0.089835	0.21926	0.11855	0.31725	-2.9292	-3.2208	-3.7104	-3.425	-3.3125	-3.7146	-3.2854	-3.5875	-3.3646	-3.0375	-3.6583	-3.4208	-3.4542	-3.7896	-3.2562	-3.6271	-22.378	189.850	42.079	259.029	250.864	-67.454	241.586	-40.349	137.520	36.708	-68.708	71.945	-11.442	237.927	-35.850	265.617	0.00031268	0.00089747	0.000674	810.26	2.4042e-05	6.4202e-06	633.72	301.38	1.6772e-05	2.9024e-05	280.55	121.75	134	67.315	1.5064e-05	58.871	0.042554	0.068351	0.019099	1158.3	0.00069781	0.00075622	978.48	428.85	0.0006975	0.00075898	460.28	181.39	238.12	86.502	0.00072188	85.48	-83.538	-38.585	106.677	-74.059	56.049	-70.945	-75.565	-69.040	131.900	-37.130	-71.469	-68.252	-64.666	-60.435	69.630	-64.237	-8191	255	
1096.908	1	1	0	0	0.048445	0.078223	0.13923	0.086633	0.10748	0.11464	0.20276	0.19367	0.031376	0.078049	0.2337	0.077707	0.2948	0.11233	0.060943	0.11088	-3.1104	-3.1083	-3.5375	-3.4917	-3.3312	-3.5333	-3.3667	-3.7083	-3.4542	-3.2479	-3.5396	-3.3604	-3.3604	-3.7625	-3.1688	-3.5542	116.883	36.451	137.568	-82.659	-26.655	42.726	181.540	-79.292	49.828	195.540	269.376	-8.922	-82.917	174.906	239.661	-43.530	0.0002164	0.00256	0.00066578	809.06	1.4128e-05	6.2817e-06	623.03	299.57	3.5275e-06	2.5813e-06	274.01	118.78	132.82	66.559	1.0734e-05	57.434	0.042629	0.068477	0.019251	1160.8	0.00070345	0.00076588	977.33	428.62	0.00070923	0.00076945	459.25	180.24	238.49	86.083	0.00073318	84.68	191.169	54.682	-11.015	-74.262	-62.402	33.668	-75.446	-68.918	109.519	-20.853	-71.131	-68.120	-64.871	-60.535	206.110	-64.097	-8191	255	
1097.004	1	1	0	0	0.12806	0.18688	0.22102	0.073913	0.2014	0.14888	0.1823	0.37667	0.1073	0.26792	0.019698	0.061964	0.19137	0.37592	0.24811	0.26346	-3.1667	-3.0354	-3.6	-3.3521	-3.1604	-3.6813	-3.4562	-3.4188	-3.4688	-3.2438	-3.6854	-3.4771	-3.4208	-3.7396	-3.2167	-3.4125	-84.509	56.214	109.256	190.862	-76.949	187.266	-84.588	245.394	210.926	249.974	-51.206	5.450	189.630	215.461	233.646	193.850	0.00017391	0.0019806	0.00052862	797.55	1.4236e-05	2.439e-05	619.08	300.09	7.0317e-06	1.2823e-05	273.02	118.06	132.68	66.394	1.4185e-05	57.828	0.043435	0.070077	0.019643	1163.1	0.00071473	0.00077937	976.15	429.31	0.00071577	0.00078067	458.97	179.95	239.23	86.144	0.0007383	85.132	190.894	87.015	147.181	-74.254	270.023	214.915	-75.487	-68.809	142.679	265.351	-71.202	-68.068	-64.514	-60.447	233.653	-64.124	-8191	255	
1097.125	1	1	0	0	0.062907	0.1209	0.20554	0.1577	0.18217	0.21827	0.17832	0.1875	0.26092	0.10854	0.21748	0.2828	0.11183	0.18671	0.19475	0.2269	-2.9146	-3.025	-3.5354	-3.525	-3.35	-3.6188	-3.2354	-3.3979	-3.8167	-3.2188	-3.7583	-3.6229	-3.2042	-3.7896	-3.1771	-3.4188	237.109	-33.730	157.817	-74.894	-12.783	-25.195	132.394	237.757	112.887	145.176	-43.942	254.154	-53.295	271.257	18.568	243.064	0.00028238	0.002268	0.00052848	801.95	5.3414e-06	3.0064e-05	618.51	299.65	1.0417e-06	3.0273e-05	277.75	119.72	133.61	66.881	1.2833e-05	58.925	0.043529	0.069777	0.019647	1161.2	0.00071082	0.00077111	975.96	428.85	0.00070948	0.00077024	460.1	180.56	238.77	86.485	0.00073291	85.918	174.184	20.556	-30.003	-74.076	265.540	145.637	-75.642	-68.946	112.816	-11.879	-71.923	-67.632	-64.449	-60.606	43.490	-64.491	-8191	255	
1097.221	1	1	0	0	0.15376	0.11881	0.079763	0.2779	0.12597	0.1352	0.18373	0.083174	0.36787	0.11619	0.11995	0.35747	0.32888	0.43035	0.1833	0.1622	-3.4583	-3.2562	-3.4938	-3.5875	-3.1875	-3.6146	-3.4771	-3.4292	-3.4917	-3.2583	-3.6437	-3.6083	-3.0896	-3.8083	-3.5396	-3.3146	-2.477	-43.571	45.882	-51.103	-35.286	17.968	146.671	250.741	15.630	30.239	58.096	240.292	-72.936	232.363	107.913	-58.370	0.00030561	0.0018883	0.00051431	800.28	1.1987e-05	5.4394e-06	623.6	300.65	2.1438e-06	2.3668e-05	280.85	121.28	134.06	67.844	1.5081e-05	59.64	0.043264	0.069772	0.019545	1161.3	0.00071013	0.0007715	980.63	429.56	0.00070839	0.00076999	463.1	182.24	239.22	87.294	0.00073011	86.829	224.942	99.536	35.057	-74.320	-8.170	-70.874	-75.155	-68.747	194.888	0.685	-71.369	-68.208	-64.576	-60.528	95.577	-64.072	-8191	255	
1097.317	1	1	0	0	0.098626	0.1354	0.16815	0.24591	0.24998	0.28752	0.15938	0.13978	0.16575	0.25103	0.20354	0.16426	0.093739	0.24854	0.24966	0.21207	-3.225	-3.3271	-3.2875	-3.6312	-3.1813	-3.6	-3.5979	-3.4229	-3.7562	-3.3458	-3.4708	-3.5687	-3.1958	-3.7313	-3.3187	-3.1854	273.046	242.578	46.136	180.386	47.502	153.670	-33.725	218.316	68.254	150.039	177.785	220.028	236.541	271.397	-76.804	170.375	0.00025255	0.0016583	0.00071476	806.85	9.4802e-06	4.3415e-05	631.11	300.4	3.0053e-06	1.5077e-05	277.63	120.97	134.17	67.175	1.8418e-05	58.458	0.043205	0.069459	0.019508	1166.4	0.00071404	0.00077658	984.23	431.96	0.00072221	0.00078737	465.3	183.11	242.29	87.135	0.00074929	86.195	174.460	-66.302	41.091	-74.165	156.565	95.684	-75.465	-68.946	99.591	209.451	-71.460	-68.058	-64.768	-60.323	121.666	-64.092	-8191	255	
1097.413	1	1	0	0	0.13794	0.023534	0.16246	0.21977	0.10298	0.068586	0.11266	0.25349	0.011687	0.11871	0.26085	0.31702	0.050216	0.15192	0.16193	0.25061	-3.1708	-3.2917	-3.2188	-3.6479	-3.1729	-3.4875	-3.5229	-3.2958	-3.7167	-3.4208	-3.2687	-3.8854	-3.3854	-3.5958	-3.6104	-3.325	105.740	-43.715	256.765	240.542	207.465	207.380	91.417	169.608	-51.709	59.069	-38.577	195.342	-70.697	200.592	-49.161	137.722	0.00048528	0.00136	0.00063268	803.47	6.6058e-06	2.6293e-05	620.84	300.06	1.9215e-06	1.2982e-05	277.66	119.96	133.99	66.972	7.3725e-06	57.79	0.044534	0.071308	0.020068	1173.6	0.00073083	0.00079468	984.97	434.01	0.00073827	0.00080267	467.56	183.42	244.42	87.354	0.00076925	86.38	178.308	15.172	-1.368	-74.227	168.796	80.479	-75.613	-68.833	9.150	130.274	-71.809	-67.837	-64.756	-60.592	194.132	-64.041	-8191	255	
1097.509	1	1	0	0	0.34916	0.13826	0.12045	0.078643	0.054867	0.042294	0.1719	0.18402	0.13898	0.12513	0.083304	0.19789	0.087482	0.37744	0.033458	0.29476	-3.2208	-3.325	-3.2687	-3.7375	-3.2167	-3.5292	-3.5062	-3.3229	-3.6667	-3.4125	-3.3438	-3.7583	-3.2687	-3.4333	-3.6583	-3.35	85.588	257.437	-22.911	259.197	-15.974	12.560	192.690	-79.631	208.711	-12.410	-51.632	205.971	245.375	261.901	10.797	169.189	0.00050568	0.0016639	0.00051305	793.73	1.5024e-05	1.6662e-05	611.52	295.47	2.3638e-05	1.0677e-05	269.96	119.09	132.39	66.785	1.1315e-05	58.003	0.045862	0.073367	0.020664	1176.3	0.00075247	0.00081648	988.25	434.16	0.00075255	0.00081841	466.97	183.6	244.84	87.468	0.00078354	87.026	162.263	227.671	-14.744	-74.446	11.667	12.766	-75.270	-68.768	201.432	194.320	-71.782	-68.230	-64.466	-60.540	37.620	-64.337	-8191	255	
1097.604	1	1	0	0	0.12135	0.15762	0.071192	0.14716	0.04053	0.2179	0.16067	0.2627	0.10036	0.30594	0.14208	0.12156	0.019815	0.23707	0.20291	0.067931	-3.05	-3.3937	-3.1458	-3.7	-3.4396	-3.5438	-3.6292	-3.3042	-3.45	-3.4875	-3.3187	-3.6792	-3.3396	-3.525	-3.6542	-3.2875	193.590	80.693	14.730	158.380	163.380	267.917	-27.552	146.348	227.188	184.552	247.652	220.007	245.425	-36.972	160.196	223.165	0.00024916	0.001859	0.00085472	796.84	8.8531e-06	2.6106e-05	620.77	297.9	2.5523e-05	5.4416e-06	272.63	118.86	132.87	66.946	1.6845e-05	58.619	0.046634	0.074625	0.021057	1181.8	0.00076726	0.00083155	998.43	437.75	0.00075994	0.00082601	470.58	184.7	245.99	87.947	0.00078404	87.735	161.508	80.357	3.221	-74.564	128.159	-14.070	-75.541	-68.905	-2.012	33.776	-71.750	-68.045	-64.851	-60.454	8.042	-63.724	-8191	255	
1097.702	1	1	0	0	0.15261	0.10117	0.2154	0.19648	0.11376	0.094853	0.10058	0.2944	0.036923	0.13754	0.39965	0.15728	0.17136	0.14125	0.10255	0.20611	-3.1333	-3.4667	-3.2729	-3.6792	-3.2292	-3.3688	-3.8521	-3.1521	-3.5604	-3.5583	-3.0812	-3.9208	-3.4646	-3.3812	-3.6063	-3.45	188.442	209.414	-26.549	184.431	172.761	108.987	143.312	254.253	59.924	135.025	262.993	225.180	-71.569	-62.200	40.244	188.588	0.00035161	0.0013518	0.00040725	797.96	3.7287e-05	2.7812e-05	617.35	297.65	1.1639e-05	2.039e-05	273.66	118.77	132.9	66.444	2.1279e-05	57.475	0.046689	0.074611	0.021043	1185.7	0.00076652	0.00083278	997.58	437.3	0.00076354	0.0008295	469.67	183.85	245.5	87.423	0.00078203	86.495	25.462	113.803	45.644	-74.325	114.964	8.037	-75.772	-68.965	-64.573	-18.296	-71.726	-68.178	-64.467	-60.490	156.732	-64.408	-8191	255	
1097.821	1	1	0	0	0.26824	0.14764	0.22124	0.29482	0.17404	0.19515	0.21365	0.072524	0.13967	0.31678	0.066485	0.21542	0.13376	0.16355	0.24151	0.11095	-3.0521	-3.5	-3.1292	-3.7687	-3.5333	-3.3229	-3.8583	-3.4042	-3.55	-3.6667	-3.2438	-3.7042	-3.5021	-3.4146	-3.7292	-3.3479	-86.197	50.090	267.600	239.252	151.566	239.610	184.579	225.502	117.029	-14.396	-78.819	-81.568	7.011	88.897	79.504	136.415	0.00016165	0.0018217	0.00097946	793.43	2.1411e-05	2.7017e-05	613.07	297.91	7.6082e-06	2.2005e-05	273.24	118.09	133.03	66.541	5.7975e-06	57.507	0.046437	0.074185	0.020772	1177.5	0.00075668	0.00082109	988.1	434.62	0.00074963	0.00081431	466.26	182.35	243.38	87.01	0.00076459	85.887	192.602	-14.284	202.841	-74.356	80.945	197.649	-75.366	-68.828	-47.443	100.510	-71.230	-67.985	-64.503	-60.588	102.317	-64.111	-8191	255	
1097.917	1	1	0	0	0.21587	0.093508	0.088646	0.2455	0.30661	0.2495	0.040791	0.29985	0.043905	0.15281	0.070498	0.042421	0.054688	0.12436	0.25099	0.24331	-3.0458	-3.5792	-3.25	-3.6813	-3.325	-3.2417	-3.8063	-3.2958	-3.3792	-3.5042	-3.3937	-3.4042	-3.5667	-3.425	-3.6208	-3.4125	243.973	-21.289	208.141	206.686	181.585	103.774	211.785	-36.701	28.211	37.916	156.240	259.405	15.813	267.894	173.228	180.095	0.0002954	0.0023914	0.00084034	795.32	2.1e-05	1.348e-05	610.91	297.75	8.7518e-06	1.643e-05	269.44	117.8	133.74	66.805	5.9127e-06	57.882	0.04534	0.072654	0.02038	1169.5	0.00074161	0.00080894	984.25	433.94	0.00074459	0.00081029	465.46	182.61	242.74	87.177	0.00076218	85.913	98.114	-17.207	55.461	-74.527	272.287	267.224	-75.632	-69.041	194.394	105.043	-72.054	-68.156	-64.603	-60.682	112.557	-63.991	-8191	255	
1098.013	1	1	0	0	0.28527	0.14103	0.28457	0.21934	0.26341	0.12521	0.041432	0.086936	0.24796	0.073573	0.22566	0.11253	0.25448	0.11175	0.12506	0.21122	-2.8896	-3.5833	-3.2083	-3.6396	-3.3667	-3.1729	-3.7521	-3.4021	-3.3729	-3.6729	-3.3667	-3.575	-3.5563	-3.2917	-3.7146	-3.35	28.632	163.472	156.150	146.966	260.520	188.896	47.054	-55.549	104.198	-11.568	148.263	88.225	227.436	209.499	-31.052	-63.082	0.00017767	0.0008908	0.00026016	796.49	2.1947e-05	7.3618e-06	616.29	296.71	1.6975e-05	9.7936e-06	273.3	118.88	133.36	67.251	1.6669e-05	58.561	0.044941	0.072085	0.020219	1168.6	0.00073938	0.0008027	985.56	433.46	0.00074447	0.00081014	467.68	183.63	244.18	87.861	0.00076957	87.179	-26.503	25.919	132.019	-74.014	-19.399	29.449	-75.410	-69.074	-4.889	26.699	-71.536	-67.932	-64.856	-60.369	-59.413	-63.890	-8191	255	
1098.109	1	1	0	0	0.064491	0.16911	0.16026	0.12468	0.06496	0.13434	0.079513	0.16887	0.20671	0.25048	0.18237	0.1693	0.15651	0.1245	0.21513	0.08617	-2.8625	-3.6375	-3.1604	-3.4958	-3.6458	-3.3792	-3.6708	-3.5729	-3.2208	-3.6271	-3.425	-3.6208	-3.5979	-3.4708	-3.6292	-3.5062	72.731	149.536	264.926	-54.108	147.176	247.725	147.420	75.941	205.094	29.600	-67.264	214.270	244.541	204.075	-82.707	190.910	0.00030353	0.0004603	0.0003048	793.96	1.7407e-05	3.6007e-05	614.84	297.85	7.615e-06	1.2631e-05	274.66	119.72	131.88	66.876	1.2838e-05	57.812	0.045718	0.073172	0.020634	1179.5	0.00075432	0.00082073	993.22	435.25	0.00075497	0.00081782	468.63	183.91	244.3	87.409	0.00077219	86.644	199.747	61.247	-74.329	-74.304	-9.456	-52.012	-75.705	-68.910	-16.882	47.473	-71.719	-68.106	-64.963	-60.681	144.893	-63.714	-8191	255	
1098.205	1	1	0	0	0.057447	0.25522	0.18701	0.14626	0.31269	0.19442	0.29212	0.34031	0.13381	0.27884	0.1546	0.27768	0.2909	0.21035	0.026975	0.27268	-2.9146	-3.6604	-3.3083	-3.5021	-3.5604	-3.2604	-3.5271	-3.6021	-3.3542	-3.6917	-3.3063	-3.2771	-3.7021	-3.4792	-3.3771	-3.7083	45.648	192.776	-6.116	219.086	-0.557	238.508	-57.146	206.570	179.411	-81.488	176.736	254.919	-65.915	202.165	39.323	216.263	4.2764e-05	0.00083478	7.7085e-05	789.57	3.1973e-05	3.4138e-05	606.65	296.61	2.7923e-06	7.62e-06	271.42	118.64	131.95	66.444	1.6234e-05	57.192	0.045779	0.073569	0.020677	1173.7	0.00075677	0.00082395	988.66	434.44	0.00075631	0.00082148	466.82	182.6	244.39	87.195	0.00077261	85.923	92.281	-49.350	6.517	-74.486	-50.028	140.673	-75.556	-69.152	37.131	-3.486	-72.080	-68.120	-64.790	-60.446	271.759	-64.064	-8191	255	
1098.301	1	1	0	0	0.027866	0.25778	0.34567	0.046364	0.088136	0.11772	0.081589	0.064616	0.046606	0.17762	0.1736	0.18302	0.13547	0.21134	0.12768	0.25627	-2.7729	-3.5333	-3.2542	-3.4458	-3.6292	-3.4042	-3.5771	-3.6271	-3.2188	-3.6146	-3.4229	-3.4792	-3.6896	-3.5312	-3.3875	-3.6458	114.445	189.303	267.079	-63.104	-14.524	37.881	135.371	134.372	-21.290	161.064	272.691	129.460	-82.967	209.217	-36.353	166.470	0.00010957	0.0031276	0.0003355	794.25	1.0379e-05	2.5985e-05	611.95	296.11	1.8147e-05	5.6673e-06	271.7	117.77	132.76	66.874	1.1558e-05	57.348	0.04574	0.073473	0.020613	1175.5	0.00075012	0.00081606	986.44	434.74	0.00075201	0.00081388	466.24	182.52	244.17	87.27	0.00077508	86.098	24.589	16.277	77.037	-74.203	-21.234	-10.066	-75.179	-68.921	177.456	-57.456	-71.970	-68.002	-64.833	-60.806	47.332	-64.138	-8191	255	
1098.398	1	1	0	0	0.10764	0.035511	0.1146	0.23084	0.05378	0.32759	0.031008	0.054033	0.080679	0.27462	0.016568	0.086962	0.20042	0.32395	0.10817	0.20933	-2.8667	-3.6083	-3.2271	-3.2812	-3.6604	-3.3167	-3.6333	-3.5687	-3.2021	-3.5646	-3.625	-3.1646	-3.6312	-3.5604	-3.475	-3.75	-30.758	95.087	122.228	6.563	-21.329	171.205	-67.402	211.041	-35.588	156.757	151.983	207.840	-55.981	270.739	98.865	230.401	0.00025276	0.0016564	0.00030104	798.59	1.1272e-05	1.3998e-05	615.18	297.25	1.3508e-05	1.7005e-05	273.99	119.07	132.69	67.22	1.8126e-05	58.432	0.04567	0.073485	0.020602	1177.2	0.00075192	0.00081624	985.69	433.93	0.00074449	0.0008075	465.46	182.65	243.45	87.397	0.00076335	86.545	109.922	62.545	265.384	-74.369	72.454	126.676	-75.831	-68.750	216.423	-57.594	-71.635	-67.930	-65.065	-60.522	246.189	-64.239	-8191	255	
1098.516	1	1	0	0	0.17179	0.095599	0.075091	0.22757	0.19334	0.37459	0.17556	0.2487	0.11789	0.21274	0.17642	0.19354	0.11289	0.1353	0.10126	0.036988	-2.9083	-3.6208	-3.4875	-3.175	-3.8021	-3.4	-3.5521	-3.7562	-3.2625	-3.5563	-3.7	-3.4271	-3.7792	-3.5687	-3.4521	-3.9229	240.869	-38.737	193.831	170.104	31.363	166.059	136.075	266.772	37.563	210.429	183.841	197.291	-76.267	215.557	19.953	-46.512	0.00025724	0.0010005	0.00031381	797.35	1.3041e-05	3.1412e-05	624.15	298.62	3.1232e-05	1.6109e-05	274.9	120.69	134.67	67.593	2.1405e-05	59.076	0.045061	0.072339	0.020379	1172.6	0.00074101	0.00080475	988.62	434.59	0.00073881	0.00080333	467.24	183.77	244.12	87.816	0.00075923	87.211	215.391	19.113	244.195	-74.372	260.872	28.321	-75.506	-68.819	15.922	-50.822	-71.586	-67.910	-65.017	-60.536	179.450	-63.966	-8191	255	
1098.613	1	1	0	0	0.35833	0.11038	0.075143	0.049127	0.14681	0.21674	0.041745	0.079642	0.018446	0.113	0.12396	0.101	0.25808	0.12899	0.1632	0.075906	-2.7542	-3.4188	-3.5667	-3.3083	-3.7375	-3.3396	-3.5062	-3.7979	-3.2854	-3.525	-3.8375	-3.2375	-3.5187	-3.5771	-3.3021	-3.5812	-22.703	127.911	41.925	-29.955	41.039	140.515	24.597	144.302	-33.583	8.127	234.246	255.973	-50.700	-63.866	142.955	-31.971	0.00034074	0.0024762	0.00051929	804.56	3.2707e-06	8.9736e-06	619.26	299.44	6.5906e-06	9.5571e-06	276.15	119.54	134.29	66.875	1.5995e-05	57.922	0.044922	0.071991	0.020278	1175.5	0.00073709	0.00080112	990.1	434.66	0.0007384	0.00080043	466.35	183.01	243.43	87.287	0.00075972	86.172	156.226	-15.571	79.039	-74.203	210.012	136.479	-75.564	-68.600	225.271	71.377	-71.831	-68.268	-64.974	-60.674	89.186	-64.331	-8191	255	
1098.684	1	1	0	0	0.1535	0.080557	0.091524	0.086362	0.23558	0.1671	0.22731	0.067578	0.15818	0.1548	0.097243	0.17631	0.10133	0.040097	0.057003	0.25005	-2.7938	-3.4125	-3.5583	-3.15	-3.4729	-3.5563	-3.4479	-3.6479	-3.25	-3.2375	-3.7875	-3.2729	-3.6417	-3.5646	-3.2313	-3.65	116.290	247.223	194.599	49.136	93.424	111.120	207.742	-65.205	202.248	238.584	66.248	259.532	-56.262	234.262	270.628	214.820	0.00030489	0.0021496	0.00081564	801.08	1.4417e-05	1.6753e-05	617.4	300.22	9.7213e-06	4.7273e-06	273.39	119.18	134.33	66.716	6.58e-06	57.854	0.044822	0.071812	0.020196	1172	0.0007371	0.00080191	984.86	434	0.00074002	0.0008085	466.38	182.84	243.98	87.275	0.0007657	86.122	123.241	79.381	-50.101	-74.215	113.204	239.650	-75.273	-69.228	263.793	264.632	-71.966	-67.822	-64.771	-60.336	117.956	-63.776	-8191	255	
1098.805	1	1	0	0	0.19543	0.10262	0.07115	0.39168	0.092787	0.083587	0.076653	0.12322	0.10623	0.14985	0.19215	0.12047	0.2033	0.070691	0.14262	0.13771	-2.95	-3.5354	-3.5938	-3.3667	-3.6354	-3.6354	-3.3937	-3.6437	-3.2458	-3.3458	-3.6771	-3.3646	-3.5417	-3.6125	-3.2604	-3.8042	108.753	214.821	255.184	212.528	247.690	224.201	165.921	-24.712	-81.611	30.790	210.096	66.320	-81.369	246.226	217.295	-84.446	0.0003081	0.00044698	0.00057984	796.42	8.761e-06	9.2144e-06	609.92	298.2	1.4011e-05	1.5447e-05	272.57	118.52	133.4	66.429	2.0327e-05	57.519	0.045385	0.072743	0.020357	1173.8	0.000743	0.00080574	983.18	433.59	0.00074413	0.00081212	465.45	182.26	243.54	86.954	0.00077342	86.195	160.182	7.135	-2.206	-74.357	54.991	22.783	-75.588	-68.932	118.225	-54.563	-71.893	-68.361	-65.135	-60.568	-23.507	-64.113	-8191	255	
1098.901	1	1	0	0	0.29705	0.26222	0.40339	0.08184	0.11843	0.12099	0.10669	0.22789	0.10123	0.2376	0.16082	0.35033	0.39568	0.15462	0.18752	0.089923	-2.9542	-3.2854	-3.6229	-3.325	-3.5479	-3.6292	-3.4417	-3.6604	-3.3792	-3.3104	-3.7562	-3.3458	-3.5208	-3.6479	-3.1875	-3.6188	236.252	29.192	-48.474	125.566	-18.749	128.503	-61.178	160.761	178.938	176.086	102.731	269.320	261.494	-66.531	-53.324	104.971	0.00048321	0.0015486	6.5078e-05	798.18	1.408e-05	1.8229e-05	610.19	298.08	1.8768e-05	4.45e-05	272.01	118.63	133.04	66.613	5.3535e-06	58.587	0.045725	0.073183	0.020592	1176.2	0.00075381	0.00081731	990.7	436.21	0.00075713	0.000827	470.39	183.59	245.77	87.712	0.00078425	87.369	229.591	-53.693	69.340	-74.021	55.408	42.581	-75.603	-68.824	230.274	35.332	-71.917	-67.801	-64.791	-60.612	122.927	-64.034	-8191	255	
1098.997	1	1	0	0	0.11856	0.15861	0.21668	0.11496	0.1169	0.16536	0.1331	0.075666	0.10798	0.11486	0.073278	0.15878	0.18809	0.2899	0.12431	0.21833	-2.9875	-3.0771	-3.5479	-3.3333	-3.2979	-3.5729	-3.1208	-3.6104	-3.3771	-3.2708	-3.8458	-3.2958	-3.4667	-3.7708	-3.0958	-3.7521	-22.437	156.405	77.592	190.829	203.456	169.144	200.061	130.475	158.524	-74.034	81.742	-64.406	93.802	234.987	131.250	201.383	0.00022993	0.0021397	0.00071919	792.58	1.6803e-05	3.5389e-05	614.71	296.9	8.8534e-06	1.0777e-05	273.17	118.52	132.3	66.421	3.9527e-06	57.391	0.046261	0.074323	0.020907	1180.5	0.00076258	0.00082652	993.29	435.52	0.0007608	0.00082647	469.6	183.87	245.74	87.548	0.00078753	86.564	154.903	37.818	224.160	-74.072	160.855	58.911	-75.661	-69.059	162.009	124.509	-71.718	-67.800	-64.435	-60.441	91.714	-64.107	-8191	255	
1099.093	1	1	0	0	0.12634	0.16683	0.19391	0.0708	0.22541	0.15577	0.16219	0.18447	0.12708	0.095268	0.15382	0.1027	0.14471	0.16626	0.10265	0.24794	-3.0875	-3.2062	-3.5896	-3.5479	-3.2417	-3.5292	-3.3646	-3.5917	-3.55	-3.15	-3.5687	-3.4083	-3.4792	-3.7438	-3.225	-3.5187	24.356	120.251	20.361	209.961	163.165	113.823	-18.041	236.417	38.129	-22.142	150.692	114.490	262.565	249.066	-60.668	213.757	0.00049067	0.0011154	0.00076584	793.52	1.3549e-05	1.3934e-05	609.82	295.94	2.2698e-05	2.5009e-05	269.31	117.01	132.75	66.368	3.0711e-05	56.707	0.046503	0.074767	0.021002	1182.2	0.0007605	0.00082742	987.88	435.38	0.00075873	0.00082498	466.64	182.29	245.09	87.13	0.00077658	85.699	167.023	171.524	14.083	-74.647	249.559	26.201	-75.554	-69.031	-10.086	49.092	-72.063	-68.065	-64.531	-60.310	57.128	-64.168	-8191	255	
1099.214	1	1	0	0	0.2003	0.064602	0.21701	0.058045	0.083248	0.18297	0.25184	0.33746	0.16243	0.1096	0.051499	0.11434	0.20001	0.33433	0.11546	0.063644	-3.1312	-3.025	-3.5458	-3.5396	-3.0417	-3.6458	-3.2875	-3.4229	-3.6167	-3.1646	-3.6708	-3.4104	-3.3625	-3.8146	-3.2229	-3.5271	51.033	140.288	34.295	91.232	52.971	-17.275	158.573	270.329	-82.182	63.565	161.529	127.474	-60.087	-85.376	190.749	116.559	0.00033124	0.0012548	0.00059294	794.63	3.2151e-05	8.9634e-06	610.83	298.23	1.757e-05	1.9771e-05	271.16	118.35	133.51	66.461	6.6263e-06	56.849	0.045956	0.07372	0.02076	1175.9	0.00075185	0.00081269	982.2	433.8	0.00074738	0.00081294	464.72	182.14	244.13	87.254	0.00077361	86.091	78.377	71.811	-9.085	-74.305	225.594	236.129	-75.751	-69.093	184.347	-40.897	-72.088	-67.985	-64.744	-60.700	172.951	-64.305	-8191	255	
1099.286	1	1	0	0	0.094368	0.081322	0.1175	0.11517	0.12555	0.056867	0.21633	0.089949	0.21015	0.14615	0.33488	0.16054	0.24571	0.22316	0.23922	0.11701	-3.3396	-3.15	-3.5708	-3.55	-3.0083	-3.5292	-3.4188	-3.4813	-3.3917	-3.1375	-3.5917	-3.5625	-3.1958	-3.7875	-3.1125	-3.4667	66.374	-82.603	-70.212	-79.344	22.417	-20.083	100.237	233.013	178.123	120.246	198.279	-16.656	195.200	-78.846	59.976	63.437	0.0003016	0.0025303	0.0007317	799.34	1.3185e-05	6.6094e-06	610.85	298.43	2.1366e-05	2.2967e-05	272.87	118.55	133.65	67.22	9.2612e-06	57.817	0.045917	0.073739	0.020677	1176.9	0.00075255	0.00081563	986	435.69	0.00075111	0.00081484	467.52	183.02	244.71	87.682	0.00077125	86.761	202.080	-46.086	-54.301	-74.169	255.433	185.267	-75.502	-69.190	182.808	76.424	-71.553	-68.060	-64.813	-60.403	-54.635	-64.062	-8191	255	
1099.382	1	1	0	0	0.17163	0.11111	0.32309	0.2511	0.15964	0.067288	0.1901	0.14481	0.089361	0.23778	0.16746	0.2796	0.32635	0.038147	0.092225	0.051045	-3.1354	-3.2062	-3.3021	-3.4875	-3.2021	-3.5604	-3.4896	-3.4	-3.4917	-3.0979	-3.6771	-3.6688	-3.1979	-3.6937	-3.35	-3.3417	-53.141	126.826	-42.000	252.265	242.122	182.659	17.450	217.537	4.028	-30.091	249.739	-45.554	-17.153	256.300	108.523	178.603	0.00042698	0.0036763	0.00061747	800.36	1.6862e-05	1.6334e-05	618.97	298.54	9.6374e-06	1.5243e-05	274.96	118.95	134.47	67.15	2.132e-05	58.389	0.045628	0.073314	0.020595	1182.2	0.00075419	0.00082012	993.78	436.65	0.00075409	0.00081881	469.4	183.87	244.9	87.889	0.00077091	87.406	168.046	-44.988	-32.796	-74.073	256.619	187.569	-75.800	-68.846	230.899	182.510	-71.666	-67.803	-65.110	-60.506	-46.714	-63.922	-8191	255	
1099.502	1	1	0	0	0.071789	0.045658	0.151	0.12286	0.058745	0.30034	0.219	0.2703	0.027636	0.11115	0.13984	0.27493	0.2222	0.1809	0.26126	0.087924	-3.1833	-3.2583	-3.3292	-3.6896	-3.2208	-3.5938	-3.4958	-3.3208	-3.4521	-3.1875	-3.2812	-3.7104	-3.1917	-3.6229	-3.4188	-3.1583	128.719	247.064	-60.651	260.563	-15.669	105.765	252.093	238.466	95.829	-53.795	179.611	241.914	13.363	-44.656	64.209	191.371	0.00019068	0.0014835	0.00030219	799.75	1.6048e-05	3.2466e-05	615.49	298.39	3.074e-06	1.0934e-05	273.2	118.95	133.59	66.546	1.7577e-06	57.155	0.045744	0.073346	0.020684	1180.7	0.00075569	0.00082062	993.68	436.55	0.00075865	0.00082415	469.98	184.05	246.68	87.597	0.00078551	86.417	181.667	35.925	141.048	-74.525	28.790	194.899	-75.213	-68.544	-61.002	273.199	-71.744	-67.998	-64.635	-60.524	95.386	-64.483	-8191	255	
1099.597	1	1	0	0	0.10639	0.059903	0.080098	0.098894	0.1147	0.022235	0.19388	0.17914	0.13856	0.15272	0.099663	0.16266	0.15918	0.32071	0.081511	0.066031	-3.1188	-3.1958	-3.225	-3.6958	-3.1979	-3.4938	-3.5979	-3.2562	-3.4354	-3.4375	-3.4	-3.4583	-3.2125	-3.6854	-3.3771	-3.2875	-45.901	54.635	188.803	203.687	-14.037	24.291	138.645	270.898	137.824	135.130	112.010	-39.444	67.767	257.831	230.223	264.063	0.00033175	0.0031663	0.00048032	794.94	2.5285e-06	1.6568e-05	608.1	295.77	4.7945e-06	1.649e-05	268.06	116.3	132.54	66.32	8.8433e-06	56.851	0.046704	0.074781	0.021039	1188.1	0.00077224	0.00083654	994.47	437.77	0.00077716	0.00084637	471.09	183.86	248.76	87.772	0.00080491	86.793	166.563	7.417	105.816	-74.667	-6.198	159.994	-75.821	-69.010	0.170	-5.653	-72.094	-67.998	-64.799	-60.465	137.658	-64.185	-8191	255	
1099.693	1	1	0	0	0.020028	0.095097	0.14018	0.073217	0.097504	0.26933	0.21746	0.36868	0.14658	0.20138	0.11195	0.12821	0.1975	0.047698	0.16718	0.30589	-3.2562	-3.2542	-3.3	-3.5896	-3.3625	-3.4104	-3.7333	-3.3063	-3.5854	-3.3667	-3.3104	-3.6229	-3.1917	-3.5667	-3.4	-3.2729	91.233	271.968	-13.103	248.555	246.144	140.397	-69.255	164.786	175.319	192.595	-41.574	197.807	-54.785	231.476	249.090	229.219	0.00035899	0.0021247	0.00071466	793.1	7.3532e-06	2.1188e-05	605.93	295.09	1.706e-05	7.5424e-06	267.62	116.22	132.63	66.189	1.1863e-05	56.89	0.047826	0.076412	0.021498	1191.2	0.00078335	0.00085048	996.12	439.17	0.00078528	0.00085351	471.9	184.22	249.35	87.923	0.00081174	87.179	141.145	-2.598	42.140	-74.470	-65.210	-58.419	-75.214	-68.747	192.706	172.555	-71.892	-68.171	-64.663	-60.335	-22.124	-64.277	-8191	255	
1099.814	1	1	0	0	0.13322	0.01446	0.20905	0.3032	0.04323	0.11847	0.094086	0.28068	0.13976	0.15631	0.24947	0.23256	0.072716	0.10141	0.18176	0.060414	-3.1688	-3.2396	-3.3937	-3.7479	-3.2958	-3.4333	-3.6708	-3.2083	-3.4104	-3.4958	-3.1646	-3.7938	-3.3833	-3.6667	-3.6875	-3.1333	-0.263	226.491	26.282	186.287	89.366	-29.586	231.514	234.939	120.074	14.719	241.705	247.594	-32.260	210.645	90.091	200.017	0.00037675	0.0017688	0.00054938	793.86	9.131e-06	2.2496e-05	605.15	294.76	1.6964e-05	1.4767e-05	270.72	117.57	133.95	67.282	1.4051e-05	57.588	0.047933	0.076636	0.02153	1192.5	0.00078633	0.00085533	1001.2	440.92	0.00078986	0.00085576	474.33	185.17	249.42	88.486	0.00080627	87.992	189.790	67.334	91.244	-74.350	71.102	79.966	-75.376	-69.013	42.547	28.500	-71.724	-67.747	-64.739	-60.603	38.899	-64.109	-8191	255	
1099.910	1	1	0	0	0.11917	0.12539	0.20147	0.079756	0.066628	0.11271	0.24863	0.15498	0.10934	0.13599	0.21532	0.097594	0.34963	0.30017	0.16571	0.26113	-3.05	-3.475	-3.0083	-3.8063	-3.2667	-3.3104	-3.7188	-3.4667	-3.45	-3.4729	-3.3729	-3.6021	-3.4542	-3.4	-3.6833	-3.3917	164.607	-56.729	170.748	111.983	269.376	8.905	270.927	224.066	87.730	-78.652	265.168	166.375	228.980	-83.091	-41.283	268.133	0.00027575	0.0015366	0.00037177	793.67	1.2053e-05	2.8207e-05	609.38	296.73	2.5149e-05	3.4664e-05	268.66	117.8	132.12	66.497	1.5162e-05	57.514	0.047619	0.076337	0.021423	1192.9	0.00078189	0.00085334	1001.7	440.43	0.00078411	0.00085495	474.74	185.53	249.85	88.226	0.00081606	87.522	186.070	182.755	17.590	-74.332	-32.394	77.023	-75.750	-69.163	35.312	59.259	-71.893	-68.249	-65.024	-60.589	130.245	-64.308	-8191	255	
1099.981	1	1	0	0	0.20898	0.28108	0.1573	0.14136	0.25662	0.14853	0.069781	0.18573	0.17589	0.19815	0.10513	0.13064	0.029315	0.13063	0.15618	0.21531	-3.1833	-3.3521	-3.1208	-3.9104	-3.5271	-3.2729	-3.6333	-3.2646	-3.3979	-3.65	-3.3063	-3.6437	-3.5229	-3.3771	-3.7938	-3.3104	91.964	142.009	198.913	256.144	256.922	195.583	212.748	78.397	87.697	216.215	109.276	-33.474	91.214	-75.837	-16.906	-76.774	0.00032217	0.0016824	0.00048285	800.67	1.5326e-05	2.0544e-05	606.45	296.79	2.5574e-05	1.9046e-05	267.32	116.59	133.14	66.303	1.1995e-05	56.752	0.048328	0.077181	0.021693	1199.8	0.00079158	0.00085991	1002.4	441.32	0.0007937	0.00086245	473.8	184.94	250.31	88.127	0.00081463	86.842	-42.820	52.585	-51.646	-74.702	257.726	100.557	-75.570	-69.000	70.210	49.565	-71.398	-68.298	-65.420	-60.488	40.499	-64.370	-8191	255	
1100.078	1	1	0	0	0.014387	0.10985	0.20135	0.1743	0.038368	0.068469	0.031474	0.32351	0.10415	0.2784	0.063044	0.07038	0.10693	0.4009	0.011628	0.16267	-3	-3.5604	-3.0229	-3.7646	-3.6083	-3.2021	-3.6833	-3.2854	-3.3708	-3.5375	-3.4333	-3.7167	-3.5312	-3.275	-3.7	-3.5208	12.663	-41.510	12.768	270.098	184.703	80.707	30.731	249.495	-57.194	95.755	224.326	210.707	-81.204	-68.943	-32.487	-85.833	0.00024116	0.00047188	0.0009913	794.33	8.105e-06	2.2396e-05	600.08	295.62	2.6915e-05	8.4575e-06	267.95	117.06	132.25	66.09	1.5979e-05	56.634	0.048274	0.076903	0.021631	1194.4	0.0007852	0.00084954	993.43	438.57	0.00077656	0.00084884	469.77	183.91	248.27	87.879	0.00080484	86.981	152.353	58.911	-45.743	-74.325	236.791	92.620	-75.155	-69.235	118.478	168.162	-71.934	-68.308	-64.405	-60.637	224.296	-64.295	-8191	255	
1100.198	1	1	0	0	0.068719	0.032776	0.077856	0.056677	0.065745	0.27917	0.1309	0.24099	0.37066	0.14172	0.1692	0.01441	0.031058	0.16069	0.11109	0.1858	-2.9188	-3.6354	-3.3333	-3.6562	-3.5875	-3.25	-3.7333	-3.5687	-3.2833	-3.6146	-3.3688	-3.5604	-3.6021	-3.5	-3.5104	-3.5625	90.312	30.374	-7.397	-64.769	211.639	145.187	-4.076	187.877	-74.430	254.585	64.732	249.177	211.240	247.904	132.802	194.897	7.4617e-05	0.002722	0.00020259	793.52	1.4417e-05	2.2138e-05	605.65	296.88	1.072e-05	8.889e-06	271.14	117.75	133.57	66.753	1.1308e-05	57.61	0.047515	0.075977	0.021347	1190.2	0.00077445	0.00084624	997.4	439.77	0.00078149	0.0008515	474.22	185.35	250.77	88.576	0.00081293	87.816	131.494	245.711	267.583	-74.410	-17.128	-31.851	-75.100	-69.090	87.964	-38.583	-71.598	-68.022	-65.049	-60.725	205.112	-63.954	-8191	255	
1100.294	1	1	0	0	0.15626	0.2176	0.20143	0.13198	0.1376	0.091182	0.15638	0.083209	0.16167	0.27802	0.083654	0.12832	0.059344	0.18191	0.16161	0.16499	-2.8563	-3.5312	-3.2062	-3.5812	-3.7562	-3.3458	-3.8417	-3.4458	-3.3604	-3.8625	-3.2062	-3.4021	-3.4813	-3.4437	-3.6354	-3.7521	70.223	-17.628	260.173	160.580	36.711	-31.370	133.919	220.440	255.824	-82.195	-80.855	142.232	206.376	154.966	16.495	241.751	0.00019747	0.0028266	0.0010676	795.45	1.5792e-05	1.0449e-05	606.01	297.11	3.255e-05	8.9282e-06	267.16	116.45	132.01	66.349	3.6923e-05	56.768	0.048469	0.077452	0.021837	1200.9	0.00079442	0.00086463	1005.7	441.56	0.00079831	0.00086873	475.32	185.69	250.47	88.251	0.00082752	87.541	108.959	-18.973	28.473	-74.666	231.350	122.040	-75.707	-68.930	72.129	76.119	-71.836	-67.967	-64.644	-60.491	121.183	-64.093	-8191	255	
1100.390	1	1	0	0	0.21473	0.16467	0.16839	0.34318	0.12977	0.45226	0.19259	0.12867	0.046904	0.11901	0.1963	0.16549	0.11281	0.33341	0.10631	0.17276	-2.7271	-3.6875	-3.2917	-3.5042	-3.6979	-3.1458	-3.7167	-3.5896	-3.1104	-3.6229	-3.4229	-3.2646	-3.6146	-3.3812	-3.4437	-3.7771	268.646	-83.968	190.166	251.876	187.419	170.970	29.198	160.485	-12.268	103.094	-7.467	-8.667	236.493	-84.905	-45.701	-44.386	0.00042513	0.00055576	9.7385e-05	784.97	3.3198e-06	1.9344e-05	597.45	293.98	5.7532e-06	2.6213e-05	263.47	115.12	130.58	65.534	1.758e-05	55.671	0.04903	0.078813	0.022155	1199.6	0.00080796	0.00087896	1003.2	441.7	0.00081083	0.00088095	474.07	184.61	251.25	88.063	0.00083396	86.96	218.081	244.933	242.921	-74.429	256.048	203.742	-75.682	-68.721	-29.000	8.064	-71.761	-68.079	-64.569	-60.705	214.447	-64.234	-8191	255	
1100.487	1	1	0	0	0.14871	0.18672	0.11537	0.1099	0.24368	0.40193	0.064303	0.10504	0.083161	0.057593	0.087365	0.15078	0.089718	0.069895	0.15419	0.23578	-2.9333	-3.5938	-3.3167	-3.1688	-3.7229	-3.4042	-3.5708	-3.6625	-3.2146	-3.6417	-3.4208	-3.4125	-3.6979	-3.4188	-3.3625	-3.8875	-62.791	-30.867	196.668	207.092	250.125	89.253	231.037	234.612	201.056	91.024	74.783	156.897	245.333	-26.248	-21.815	210.452	0.00010156	0.0027742	0.00094622	789.87	1.5638e-05	2.5787e-05	594.47	292.87	2.2071e-05	8.4892e-06	261.76	114.52	132.2	66.333	1.6089e-05	56.484	0.049592	0.079685	0.022414	1203.9	0.00081502	0.00088426	1003.1	442.43	0.00080903	0.00087859	473.06	184.35	250.63	88.206	0.00082908	86.922	144.497	13.818	64.751	-74.209	36.107	-65.598	-75.934	-68.726	89.634	13.142	-71.539	-68.187	-64.698	-60.548	81.349	-64.005	-8191	255	
1100.583	1	1	0	0	0.22837	0.17604	0.24857	0.14574	0.28832	0.097567	0.022373	0.20517	0.23105	0.020911	0.16555	0.24963	0.025271	0.18755	0.034769	0.10842	-2.8333	-3.475	-3.3833	-3.3708	-3.5146	-3.2354	-3.3792	-3.7479	-3.3146	-3.5375	-3.4313	-3.4208	-3.6583	-3.7042	-3.3063	-3.5729	-21.184	135.447	30.466	49.198	138.180	220.594	137.060	102.132	-74.665	249.496	251.082	218.146	-5.278	-55.202	-67.847	262.820	0.0002955	0.0014992	0.00049133	790.96	2.2316e-05	1.5983e-05	596.91	294.29	1.3637e-05	1.6331e-05	264.48	116.02	132.17	66.483	1.4056e-05	56.87	0.049055	0.078901	0.022063	1199.7	0.00080436	0.00087195	1000.6	441.05	0.00079988	0.00086994	472.35	184.65	250.35	88.338	0.00082085	87.699	173.164	167.971	38.118	-74.560	-52.515	80.157	-75.734	-68.869	-73.792	-6.305	-71.668	-67.994	-64.489	-60.797	73.805	-64.459	-8191	255	
1100.677	1	1	0	0	0.031328	0.0875	0.083865	0.078293	0.10057	0.22799	0.14552	0.11565	0.17256	0.13826	0.19336	0.28133	0.12232	0.30632	0.2019	0.11483	-2.9375	-3.4833	-3.4938	-3.4146	-3.6625	-3.4354	-3.5458	-3.6562	-3.2854	-3.4938	-3.5687	-3.3896	-3.6375	-3.4271	-3.3438	-3.6854	188.451	210.213	34.830	-31.966	235.896	-4.561	-65.417	260.943	36.090	104.771	218.764	254.171	-86.419	222.260	71.866	96.101	0.00049721	0.0022148	0.000759	797.24	1.8027e-05	7.5937e-06	607.38	294.6	1.2967e-05	8.7475e-06	268.89	117.09	133.82	66.983	5.4791e-06	57.681	0.04863	0.077878	0.021929	1201.2	0.0007994	0.00086619	1003.9	441.8	0.00079826	0.00086804	474.48	185.7	251.61	88.911	0.00081787	88.216	164.595	-30.790	-42.060	-74.233	182.120	78.428	-75.454	-68.721	-46.751	194.811	-71.513	-67.791	-64.853	-60.722	200.395	-64.167	-8191	255	
1100.775	1	1	0	0	0.12515	0.20068	0.14561	0.32067	0.24044	0.073372	0.1065	0.12573	0.11041	0.064453	0.08288	0.14723	0.23129	0.26207	0.2218	0.043901	-2.8146	-3.4188	-3.5167	-3.3479	-3.5812	-3.3771	-3.375	-3.7979	-3.1604	-3.4667	-3.6146	-3.0062	-3.6083	-3.5125	-3.3792	-3.7583	-23.836	174.196	247.955	214.044	-34.868	-51.839	174.162	270.121	101.960	-39.459	249.789	271.058	221.947	244.491	213.473	-73.578	0.00030519	0.0025399	0.00016113	795.29	2.5173e-05	3.373e-05	609.88	295.37	3.3628e-06	1.0384e-05	268.05	116.91	132.97	66.056	2.2344e-05	56.403	0.048403	0.077623	0.02189	1200.3	0.00079452	0.00086289	1005	441.57	0.00079598	0.00086698	474.59	185.24	251.24	88.278	0.00082277	87.142	135.024	88.340	-19.157	-74.344	88.536	25.596	-75.436	-68.698	195.652	-77.557	-71.489	-68.031	-64.704	-60.692	244.608	-64.276	-8191	255	
1100.894	1	1	0	0	0.31712	0.30192	0.24452	0.33882	0.078874	0.13873	0.013356	0.081281	0.15727	0.25448	0.12794	0.18277	0.32268	0.28954	0.30546	0.071304	-3.0521	-3.4833	-3.5646	-3.2812	-3.4958	-3.4938	-3.4062	-3.8438	-3.2812	-3.425	-3.8167	-3.2917	-3.5062	-3.5938	-3.1625	-3.7021	209.045	218.297	67.389	268.374	70.311	182.730	91.539	225.862	-52.715	194.696	258.110	234.010	27.419	222.637	57.518	25.317	0.00031897	0.0013882	0.00063333	795.3	4.288e-05	3.1892e-05	605.15	295.98	1.3528e-05	3.0523e-05	264.21	115.65	131.57	65.836	2.0885e-05	56.111	0.048732	0.078359	0.022	1203.5	0.00080283	0.0008684	1002.4	443.01	0.00080016	0.00087152	473.58	184.74	251.33	88.144	0.0008308	87.178	197.237	16.590	172.975	-74.384	65.121	6.412	-75.475	-69.162	9.155	37.224	-71.561	-68.190	-64.421	-60.644	164.813	-64.274	-8191	255	
1100.990	1	1	0	0	0.24316	0.092633	0.36089	0.17474	0.21709	0.22239	0.1065	0.29873	0.26035	0.13934	0.091394	0.21347	0.38525	0.070588	0.1396	0.32617	-2.9167	-3.3729	-3.6354	-3.1875	-3.6021	-3.5479	-3.3583	-3.6208	-3.4146	-3.275	-3.6208	-3.1813	-3.5938	-3.8312	-3.2354	-3.6813	167.317	215.277	100.803	270.912	-33.889	141.851	-20.881	202.452	226.910	256.970	61.720	229.968	186.717	3.645	96.779	269.770	0.00020711	0.0010755	0.00020786	795.76	1.1416e-05	3.3358e-05	598.89	294.69	1.5641e-05	8.7015e-06	262.86	115.31	131.62	66.176	3.0695e-05	56.168	0.049498	0.079502	0.022419	1209.6	0.00081454	0.00088741	1007	443.57	0.00081337	0.0008846	475.51	185.16	252.21	88.366	0.000836	87.527	162.579	114.527	55.797	-74.780	177.388	86.049	-75.884	-68.851	-36.531	11.802	-71.967	-67.919	-64.659	-60.839	9.200	-64.354	-8191	255	
1101.086	1	1	0	0	0.069928	0.046409	0.18053	0.17399	0.24141	0.026501	0.12562	0.042497	0.35767	0.027555	0.11649	0.35492	0.24474	0.19345	0.15028	0.11974	-3.0396	-3.3542	-3.6937	-3.4104	-3.5271	-3.5375	-3.2854	-3.65	-3.3208	-3.2125	-3.7417	-3.2938	-3.4458	-3.7125	-3.2687	-3.5667	249.624	-71.471	-36.437	269.827	-78.674	58.515	211.951	235.402	63.218	69.802	74.611	168.301	153.259	155.172	203.740	231.333	0.00030892	0.0043455	0.00059469	796.27	2.1448e-05	1.9495e-05	600.54	297.04	1.943e-05	1.5824e-05	265.28	115.8	131.8	66.419	1.1863e-05	57.209	0.049331	0.079467	0.022369	1208.1	0.00081394	0.00088503	1008.9	444.75	0.00081378	0.00088413	476.57	185.36	252.6	88.843	0.00082886	88.242	178.943	40.049	36.538	-74.206	66.587	133.767	-75.302	-68.865	172.739	-60.248	-71.804	-68.123	-65.193	-60.722	-65.163	-64.266	-8191	255	
1101.182	1	1	0	0	0.065257	0.20395	0.19362	0.29332	0.12048	0.1039	0.078106	0.1051	0.18414	0.12982	0.28527	0.13003	0.18015	0.13264	0.16803	0.14046	-3.0271	-3.2271	-3.6104	-3.3604	-3.4917	-3.5271	-3.2271	-3.5896	-3.5667	-3.2542	-3.7083	-3.1521	-3.4188	-3.7646	-3.0375	-3.5312	89.203	159.478	100.742	217.139	-44.945	-21.250	218.442	211.026	53.334	-15.639	235.809	232.046	86.460	258.954	180.356	253.929	0.00040064	0.0024556	0.00080476	799.79	1.082e-05	5.4781e-06	611.3	297.59	1.0762e-05	1.6709e-05	267.43	117.67	133.46	66.651	1.1373e-05	57.063	0.048886	0.078418	0.021976	1203.7	0.00079788	0.00086806	1008.6	442.66	0.00079601	0.00086922	477.11	186.27	252.21	88.831	0.00082564	88.006	158.015	-10.281	18.289	-74.496	127.513	195.752	-75.621	-68.819	17.996	273.173	-71.504	-67.977	-64.815	-60.630	52.765	-64.354	-8191	255	
1101.279	1	1	0	0	0.17294	0.043175	0.092751	0.042589	0.19338	0.022661	0.13496	0.12328	0.14586	0.17987	0.17415	0.15618	0.08306	0.04625	0.1222	0.10718	-3.0062	-3.1896	-3.6292	-3.4437	-3.3208	-3.6896	-3.2729	-3.425	-3.4813	-3.2354	-3.325	-3.4292	-3.2062	-3.6667	-3.45	-3.6937	222.232	42.625	90.628	32.358	222.839	50.682	185.005	208.748	123.044	-29.191	202.773	236.050	197.205	77.805	-86.638	262.406	0.00022009	0.0019408	0.00057533	797.51	8.1202e-06	2.604e-05	603.27	295.89	1.6996e-05	3.4549e-05	265.38	117.12	132.68	66.729	5.557e-06	56.611	0.049028	0.078808	0.02219	1206.6	0.00080577	0.00087311	1007.6	443.27	0.00080531	0.0008756	476.1	185.56	252.18	88.723	0.00083025	87.452	-72.359	132.977	114.718	-74.464	174.010	16.733	-75.791	-68.774	-43.722	72.925	-71.773	-68.134	-64.973	-60.689	-25.885	-64.015	-8191	255	
1101.375	1	1	0	0	0.23029	0.08775	0.31243	0.065033	0.057574	0.24145	0.30056	0.17777	0.076391	0.11094	0.042275	0.348	0.056192	0.12922	0.07324	0.32044	-3.0625	-3.1937	-3.4833	-3.5604	-3.2396	-3.6312	-3.225	-3.4521	-3.5667	-3.2812	-3.6625	-3.4625	-3.2708	-3.7479	-3.3063	-3.3958	240.606	61.961	78.898	-32.764	253.141	241.218	175.512	-44.292	108.666	-60.811	32.567	212.886	3.288	240.357	163.590	244.050	0.00052974	0.0019437	0.00064936	791.75	2.1984e-05	2.0667e-05	600.28	296.13	1.0057e-05	2.0926e-05	263.33	114.66	130.72	66.04	3.4032e-06	55.883	0.049334	0.07929	0.02229	1207.4	0.00081046	0.00088579	1006.7	444.83	0.00081207	0.00088459	475.49	184.43	252.34	88.317	0.00083393	86.899	157.917	63.192	120.460	-74.546	49.172	54.280	-75.544	-68.857	-80.644	-86.767	-72.417	-68.226	-64.694	-60.646	83.422	-64.355	-8191	255	
1101.495	1	1	0	0	0.0079385	0.12381	0.19966	0.26319	0.080246	0.27244	0.21274	0.097898	0.084201	0.30684	0.049917	0.13795	0.11908	0.36805	0.15338	0.17112	-3.1396	-3.1542	-3.5708	-3.6604	-3.1937	-3.5583	-3.3292	-3.4042	-3.4625	-3.2104	-3.5417	-3.4562	-3.3125	-3.8937	-3.4625	-3.3229	202.729	200.092	87.538	208.020	165.724	89.448	240.017	172.700	23.041	10.264	-20.347	-35.565	-81.347	-84.349	200.666	127.131	0.0001626	0.00060544	0.00024268	792.81	2.8667e-05	2.6983e-05	595.34	292.83	9.02e-06	3.3202e-05	262.27	114.32	131.16	65.602	1.7456e-05	55.942	0.04945	0.079538	0.022339	1206.1	0.00081604	0.0008867	1004.7	443.38	0.00081974	0.00089284	475.31	185.11	253.49	88.52	0.00084817	87.723	192.814	221.140	126.380	-74.471	90.456	128.177	-75.748	-68.896	1.549	66.105	-71.676	-68.079	-65.152	-60.559	-11.586	-64.262	-8191	255	
1101.591	1	1	0	0	0.33928	0.25302	0.057215	0.12665	0.20883	0.020443	0.2491	0.037394	0.063884	0.096089	0.26986	0.25723	0.1185	0.28958	0.086715	0.25159	-3.1583	-3.1104	-3.3354	-3.5625	-3.2396	-3.6125	-3.2625	-3.4833	-3.7229	-3.1437	-3.4021	-3.7062	-3.2875	-3.7313	-3.3854	-3.5917	69.691	-86.406	38.897	188.352	150.324	189.806	199.604	-83.744	-42.422	192.163	254.074	-49.408	78.550	218.642	96.752	162.120	0.00022376	0.0031565	0.00041234	793.8	1.1189e-05	2.5561e-05	597.82	294.04	1.3397e-05	1.9511e-05	264.01	115.02	131.42	66	1.0385e-06	56.43	0.050412	0.081113	0.02273	1213.2	0.00082385	0.00089523	1009.7	445.15	0.00081984	0.0008899	477.38	185.02	253.45	88.738	0.00084584	88.035	187.714	29.332	106.347	-74.670	237.097	-29.686	-75.887	-68.829	1.267	145.508	-71.521	-67.921	-64.572	-60.465	265.623	-64.005	-8191	255	
1101.686	1	1	0	0	0.14355	0.018041	0.03286	0.23564	0.25417	0.26458	0.085449	0.21146	0.18827	0.058434	0.17124	0.082259	0.15996	0.029097	0.25536	0.11327	-3.1854	-3.2917	-3.4688	-3.7417	-3.0729	-3.5771	-3.5521	-3.3625	-3.7958	-3.1583	-3.35	-3.6979	-3.2062	-3.5917	-3.4208	-3.2667	116.565	193.195	168.420	257.372	-17.749	95.791	95.954	-80.863	226.957	-29.210	204.324	231.554	248.293	271.280	-81.885	87.515	0.00027014	0.0012973	0.00050303	792.63	9.5608e-06	2.8523e-06	597.82	294.39	3.5132e-06	2.8469e-05	261.75	114.44	130.75	65.659	8.1364e-06	55.873	0.050247	0.080547	0.022668	1212.7	0.00082175	0.00089296	1006.5	443.6	0.00082145	0.00089435	474.94	184.74	252.98	88.398	0.00084828	87.158	148.127	47.982	-22.520	-74.250	-46.483	-42.561	-75.602	-69.246	257.344	143.098	-71.611	-68.285	-65.105	-60.522	-67.319	-64.232	-8191	255	
1101.782	1	1	0	0	0.12013	0.20596	0.22206	0.10058	0.1721	0.21652	0.076126	0.12295	0.066094	0.25	0.11496	0.31809	0.21707	0.23868	0.15171	0.18057	-3.1271	-3.2667	-3.2729	-3.7458	-3.2854	-3.575	-3.5625	-3.1979	-3.5917	-3.3896	-3.3458	-3.5771	-3.3937	-3.4604	-3.5812	-3.3917	82.320	109.992	59.425	222.908	-52.063	159.642	2.701	-50.826	-17.414	132.910	179.366	198.353	260.560	-60.844	106.694	212.093	0.00014876	0.0022079	0.00029837	791	1.2042e-05	2.5328e-05	595.64	293.13	1.5903e-05	2.5445e-06	260.65	113.54	131.44	65.712	2.5347e-05	55.62	0.050253	0.080624	0.022701	1214.6	0.00082828	0.00089955	1006.4	444.9	0.00082785	0.00089705	475.17	184.19	252.58	88.325	0.0008435	87.012	129.178	-70.411	-43.869	-74.770	151.180	195.961	-75.731	-69.010	189.646	124.585	-71.569	-68.251	-64.598	-60.624	103.159	-64.320	-8191	255	
1101.878	1	1	0	0	0.18947	0.21905	0.26758	0.1002	0.086823	0.092565	0.16563	0.48915	0.18715	0.14793	0.14282	0.22754	0.072044	0.43433	0.22636	0.17569	-3.0792	-3.3146	-3.2229	-3.7042	-3.3979	-3.5417	-3.4729	-3.2125	-3.6	-3.4562	-3.4042	-3.7292	-3.3167	-3.6896	-3.5417	-3.2042	-43.921	185.204	247.036	271.480	-7.780	108.797	-34.574	205.370	35.463	105.910	266.845	218.163	-49.868	258.478	122.532	262.599	0.00040828	0.0039254	0.00082091	790.21	2.3106e-05	2.5694e-05	590.33	294.88	3.192e-05	1.5104e-05	261.64	113.31	130.81	65.656	8.1563e-06	55.655	0.050045	0.08012	0.022631	1211.1	0.00082392	0.00089679	1005.3	444.72	0.00083019	0.00089894	475.91	184.43	253.16	88.42	0.00085161	87.669	201.605	139.920	-69.824	-74.464	59.934	222.284	-75.568	-68.917	-10.841	194.302	-71.628	-67.982	-65.306	-60.497	105.304	-64.342	-8191	255	
#DATA ENDS
