BOXY.EXE: ISS Imagent and Oximeter Data Acquisition Program Version 0.80
Ascii Record File

#ACQ INFORMATION
2  Detector Channels 
16  External MUX Channels 
1  Auxiliary Channels 
5000  Waveform (CCF) Frequency (Hz)
1  Waveforms Skipped 
30  Waveforms Averaged 
1  Cycles Averaged 
16  Acquisitions per Waveform 
10.0806  Updata Rate (Hz) 

#FILE INFORMATION
TRUE -- External MUX Channel results are PARSED.
FALSE -- AC DC and Phase are NOT grouped.
TRUE -- Companion Program Settings File CREATED.
FALSE -- AC data not excluded
FALSE -- DC data not excluded
FALSE -- Phase data not excluded
FALSE -- Auxillary Chn. data not excluded
Tab delimiters

#CALIBRATION STATE
TRUE -- Waveform Calibration Values APPLIED.


#AUX CALIBRATION VALUES
Val Type	aux-1	

Term	1.0000e+00	
Factor	0.0000e+00	


#WF CALIBRATION VALUES
A = Detector Channel
Val Type	A-AC1	A-AC2	A-AC3	A-AC4	A-AC5	A-AC6	A-AC7	A-AC8	A-AC9	A-AC10	A-AC11	A-AC12	A-AC13	A-AC14	A-AC15	A-AC16	A-DC1	A-DC2	A-DC3	A-DC4	A-DC5	A-DC6	A-DC7	A-DC8	A-DC9	A-DC10	A-DC11	A-DC12	A-DC13	A-DC14	A-DC15	A-DC16	A-Ph1	A-Ph2	A-Ph3	A-Ph4	A-Ph5	A-Ph6	A-Ph7	A-Ph8	A-Ph9	A-Ph10	A-Ph11	A-Ph12	A-Ph13	A-Ph14	A-Ph15	A-Ph16	

Term	0.00000e+00	0.00000e+00	0.00000e+00	0.00000e+00	0.00000e+00	0.00000e+00	0.00000e+00	0.00000e+00	0.00000e+00	0.00000e+00	0.00000e+00	0.00000e+00	0.00000e+00	0.00000e+00	0.00000e+00	0.00000e+00	0.00000e+00	0.00000e+00	0.00000e+00	0.00000e+00	0.00000e+00	0.00000e+00	0.00000e+00	0.00000e+00	0.00000e+00	0.00000e+00	0.00000e+00	0.00000e+00	0.00000e+00	0.00000e+00	0.00000e+00	0.00000e+00	0.00000e+00	0.00000e+00	0.00000e+00	0.00000e+00	0.00000e+00	0.00000e+00	0.00000e+00	0.00000e+00	0.00000e+00	0.00000e+00	0.00000e+00	0.00000e+00	0.00000e+00	0.00000e+00	0.00000e+00	0.00000e+00	
Factor	1.00000e+00	1.00000e+00	1.00000e+00	1.00000e+00	1.00000e+00	1.00000e+00	1.00000e+00	1.00000e+00	1.00000e+00	1.00000e+00	1.00000e+00	1.00000e+00	1.00000e+00	1.00000e+00	1.00000e+00	1.00000e+00	1.00000e+00	1.00000e+00	1.00000e+00	1.00000e+00	1.00000e+00	1.00000e+00	1.00000e+00	1.00000e+00	1.00000e+00	1.00000e+00	1.00000e+00	1.00000e+00	1.00000e+00	1.00000e+00	1.00000e+00	1.00000e+00	X	X	X	X	X	X	X	X	X	X	X	X	X	X	X	X	

B = Detector Channel
Val Type	B-AC1	B-AC2	B-AC3	B-AC4	B-AC5	B-AC6	B-AC7	B-AC8	B-AC9	B-AC10	B-AC11	B-AC12	B-AC13	B-AC14	B-AC15	B-AC16	B-DC1	B-DC2	B-DC3	B-DC4	B-DC5	B-DC6	B-DC7	B-DC8	B-DC9	B-DC10	B-DC11	B-DC12	B-DC13	B-DC14	B-DC15	B-DC16	B-Ph1	B-Ph2	B-Ph3	B-Ph4	B-Ph5	B-Ph6	B-Ph7	B-Ph8	B-Ph9	B-Ph10	B-Ph11	B-Ph12	B-Ph13	B-Ph14	B-Ph15	B-Ph16	

Term	0.00000e+00	0.00000e+00	0.00000e+00	0.00000e+00	0.00000e+00	0.00000e+00	0.00000e+00	0.00000e+00	0.00000e+00	0.00000e+00	0.00000e+00	0.00000e+00	0.00000e+00	0.00000e+00	0.00000e+00	0.00000e+00	0.00000e+00	0.00000e+00	0.00000e+00	0.00000e+00	0.00000e+00	0.00000e+00	0.00000e+00	0.00000e+00	0.00000e+00	0.00000e+00	0.00000e+00	0.00000e+00	0.00000e+00	0.00000e+00	0.00000e+00	0.00000e+00	-1.37308e+02	-1.32093e+02	-1.25276e+02	-1.80606e+02	-7.46473e+01	-6.62903e+01	-1.55240e+02	-1.62015e+02	-7.54288e+01	-6.48959e+01	-1.69314e+02	-1.70749e+02	-1.81622e+02	-1.75737e+02	-7.07794e+01	-1.48410e+02	
Factor	1.75292e-05	1.53293e-04	4.06206e-05	1.56892e-01	1.32222e-06	1.87784e-06	1.61840e-01	5.54760e-02	1.15008e-06	1.46862e-06	8.06353e-02	2.62720e-02	4.32279e-02	8.04646e-03	1.24294e-06	1.17146e-02	9.36824e-06	1.50392e-05	4.22255e-06	8.13185e-02	1.54133e-07	1.67094e-07	7.90684e-02	2.89093e-02	1.54150e-07	1.67212e-07	4.08060e-02	1.33353e-02	2.28337e-02	4.23026e-03	1.58850e-07	5.96540e-03	X	X	X	X	X	X	X	X	X	X	X	X	X	X	X	X	



#DISTANCE SETTINGS
A = Detector Channel
A-1	A-2	A-3	A-4	A-5	A-6	A-7	A-8	A-9	A-10	A-11	A-12	A-13	A-14	A-15	A-16	

2.5000e+00	3.0000e+00	2.5000e+00	3.0000e+00	2.0000e+00	3.0000e+00	1.5000e+00	3.0000e+00	3.0000e+00	3.0000e+00	3.0000e+00	3.0000e+00	3.0000e+00	3.0000e+00	1.5000e+00	3.0000e+00	

B = Detector Channel
B-1	B-2	B-3	B-4	B-5	B-6	B-7	B-8	B-9	B-10	B-11	B-12	B-13	B-14	B-15	B-16	

1.0000e+01	1.0000e+01	1.0000e+01	1.4400e+00	1.0000e+01	1.0000e+01	1.5100e+00	1.9400e+00	1.0000e+01	1.0000e+01	1.9900e+00	2.4900e+00	2.4100e+00	2.9000e+00	1.0000e+01	2.9800e+00	




#DATA BEGINS
time	group	step	mark	flag	A-AC1	A-AC2	A-AC3	A-AC4	A-AC5	A-AC6	A-AC7	A-AC8	A-AC9	A-AC10	A-AC11	A-AC12	A-AC13	A-AC14	A-AC15	A-AC16	A-DC1	A-DC2	A-DC3	A-DC4	A-DC5	A-DC6	A-DC7	A-DC8	A-DC9	A-DC10	A-DC11	A-DC12	A-DC13	A-DC14	A-DC15	A-DC16	A-Ph1	A-Ph2	A-Ph3	A-Ph4	A-Ph5	A-Ph6	A-Ph7	A-Ph8	A-Ph9	A-Ph10	A-Ph11	A-Ph12	A-Ph13	A-Ph14	A-Ph15	A-Ph16	B-AC1	B-AC2	B-AC3	B-AC4	B-AC5	B-AC6	B-AC7	B-AC8	B-AC9	B-AC10	B-AC11	B-AC12	B-AC13	B-AC14	B-AC15	B-AC16	B-DC1	B-DC2	B-DC3	B-DC4	B-DC5	B-DC6	B-DC7	B-DC8	B-DC9	B-DC10	B-DC11	B-DC12	B-DC13	B-DC14	B-DC15	B-DC16	B-Ph1	B-Ph2	B-Ph3	B-Ph4	B-Ph5	B-Ph6	B-Ph7	B-Ph8	B-Ph9	B-Ph10	B-Ph11	B-Ph12	B-Ph13	B-Ph14	B-Ph15	B-Ph16	aux-1	digaux	

997.566	1	1	0	768	0.18463	0.11327	0.26952	0.092822	0.10422	0.19417	0.24989	0.34428	0.19023	0.19545	0.11355	0.3397	0.11245	0.15538	0.17623	0.10999	-2.8646	-3.725	-3.3083	-3.6583	-3.6	-3.2521	-3.8604	-3.5542	-3.4625	-3.7708	-3.2729	-3.5625	-3.6083	-3.4646	-3.7583	-3.475	196.834	238.772	271.498	215.262	405.867	309.260	442.574	497.445	385.917	337.813	212.954	495.582	396.650	183.115	189.093	518.014	0.00051734	0.00071353	7.2881e-05	637.86	6.9996e-06	8.8103e-06	574.61	248.41	3.1166e-06	1.5466e-05	245.33	104.52	110.67	59.164	3.1915e-06	53.991	0.015414	0.024583	0.0069052	756.57	0.00025053	0.00027412	690.95	291.56	0.00024823	0.00027056	307.32	124.56	145.93	65.802	0.0002528	63.155	189.347	187.700	392.643	190.823	342.212	384.489	188.806	196.089	237.714	320.345	193.209	196.472	200.058	205.047	447.983	200.601	-8191	255	
997.662	1	1	0	0	0.045239	0.1021	0.02795	0.35313	0.13832	0.082414	0.29486	0.37413	0.2239	0.11483	0.31824	0.14571	0.060794	0.23584	0.15912	0.23573	-2.9062	-3.5625	-3.3667	-3.7146	-3.6208	-3.075	-3.7792	-3.4479	-3.2188	-3.5708	-3.5062	-3.6271	-3.6396	-3.2938	-3.5896	-3.7188	280.734	246.155	532.259	474.307	506.151	437.853	506.795	501.809	210.398	232.457	416.051	460.027	288.659	190.105	373.032	503.398	0.00038676	0.00023542	0.00014869	635.87	8.0186e-06	2.3024e-05	576.44	252.82	5.7501e-06	1.1004e-05	250.76	105.39	111.71	60.356	1.8092e-05	55.198	0.01506	0.023528	0.0065513	748.24	0.00023634	0.00025817	689.31	292.82	0.00024002	0.00026273	310.54	125.5	146.61	67.047	0.00024918	64.359	210.847	213.730	246.677	190.835	304.445	324.110	189.011	195.958	351.961	461.971	193.398	196.963	200.039	204.949	355.179	200.325	-8191	255	
997.758	1	1	0	0	0.084093	0.098361	0.14475	0.065823	0.12383	0.28188	0.097432	0.2014	0.23509	0.35496	0.11181	0.056493	0.10969	0.050056	0.13033	0.15443	-2.8583	-3.6	-3.1271	-3.3708	-3.5729	-3.2875	-3.7812	-3.6208	-3.1188	-3.7771	-3.4667	-3.4896	-3.6813	-3.3625	-3.5792	-3.6979	436.721	351.920	423.341	416.330	224.878	317.156	493.309	410.424	316.105	506.165	464.835	178.127	218.169	217.963	454.165	494.237	0.0006989	0.00079786	0.0002114	642.73	3.9094e-06	8.4699e-06	582.46	251.6	2.1021e-06	8.6071e-06	249.13	104.14	110.27	59.932	7.6543e-06	54.96	0.014809	0.023394	0.0065491	755.41	0.0002372	0.00025766	693.4	291.55	0.00023298	0.0002531	306.61	123.28	143.55	66.281	0.00024014	63.656	180.954	380.863	277.222	191.135	223.248	361.838	188.940	195.944	428.018	447.366	193.267	196.965	200.023	204.603	362.078	200.728	-8191	255	
997.854	1	1	0	0	0.086066	0.1087	0.39599	0.27844	0.062909	0.33301	0.20388	0.095177	0.10029	0.10025	0.10351	0.23231	0.23254	0.28227	0.10836	0.20617	-2.9479	-3.4896	-3.4333	-3.5271	-3.7979	-3.1792	-3.5375	-3.5667	-3.2604	-3.6979	-3.4167	-3.3	-3.675	-3.3542	-3.4688	-3.6021	445.749	237.500	462.999	195.152	387.042	371.822	404.117	332.482	292.334	308.665	483.938	405.075	215.041	300.502	388.545	234.069	0.00043919	0.00050018	0.00059691	640.19	5.5848e-06	1.5265e-05	579.72	245.26	1.48e-05	7.4657e-06	239.72	98.182	104	57.401	1.4126e-05	52.308	0.014461	0.022853	0.0064729	751.06	0.00023215	0.00025153	686.3	284.88	0.00022696	0.00024372	294.14	116.28	136.07	63.375	0.00022581	60.479	205.763	362.215	307.953	190.985	315.992	348.870	189.153	195.854	461.143	392.476	193.060	196.766	200.180	204.789	296.078	200.502	-8191	255	
997.950	1	1	0	0	0.23666	0.092986	0.087514	0.15921	0.057577	0.0633	0.14092	0.060734	0.15449	0.13121	0.087278	0.19127	0.21962	0.19822	0.12328	0.15969	-2.825	-3.6833	-3.4729	-3.3292	-3.5333	-3.3479	-3.4604	-3.6542	-3.1688	-3.7146	-3.5521	-3.3729	-3.6396	-3.4271	-3.4792	-3.7146	354.229	178.940	522.072	205.854	447.407	428.331	338.597	396.700	536.052	466.627	440.324	245.246	385.692	525.563	534.972	191.727	0.00057123	0.00094473	0.000545	650.64	9.8038e-06	6.1948e-06	584.1	240.42	1.5524e-06	6.9994e-06	236.31	95.384	103.05	56.961	1.3751e-05	51.808	0.013499	0.021057	0.0059102	748.61	0.00021191	0.00022985	680.78	276.46	0.00020754	0.00022258	285.62	111.32	131.93	62.401	0.00020358	58.989	200.639	194.470	260.561	190.725	340.742	523.525	188.574	195.975	457.467	421.591	193.288	197.059	199.844	204.744	307.725	200.367	-8191	255	
998.046	1	1	0	0	0.065397	0.27281	0.13106	0.079367	0.024682	0.11257	0.13007	0.12699	0.082793	0.18883	0.17886	0.098528	0.16803	0.3256	0.24525	0.087086	-2.8125	-3.6312	-3.5167	-3.3146	-3.6354	-3.3583	-3.6083	-3.5312	-3.2396	-3.5333	-3.5667	-3.2958	-3.5	-3.4167	-3.1562	-3.6083	305.463	239.157	281.051	467.487	201.981	309.680	312.555	496.144	466.103	361.351	515.146	455.027	458.021	455.880	242.630	356.296	0.00060353	0.0017092	0.00043854	646.96	1.1945e-05	1.1903e-05	589	242.98	3.1053e-06	8.2817e-06	239.04	96.357	105.18	58.514	2.3591e-06	53.051	0.012242	0.01915	0.005368	735.82	0.0001951	0.00021221	676.6	275.86	0.00019487	0.00021087	285.68	111.69	132.36	63.54	0.00019651	60.235	196.560	300.548	184.430	191.010	223.771	414.562	189.063	196.407	421.148	224.014	193.144	196.842	200.050	205.039	314.446	200.443	-8191	255	
998.165	1	1	0	0	0.13434	0.18611	0.14055	0.16859	0.064843	0.095077	0.092265	0.12621	0.23968	0.086289	0.086597	0.10816	0.17517	0.15286	0.10544	0.05965	-2.8667	-3.4958	-3.5687	-3.3333	-3.8167	-3.4083	-3.3937	-3.7292	-3.1604	-3.6479	-3.6354	-3.3917	-3.7875	-3.5271	-3.2687	-3.7625	252.801	265.440	388.270	498.265	340.437	308.068	532.208	537.286	246.931	505.900	538.182	444.754	245.562	225.909	308.914	459.869	0.0005	0.00084717	0.00012905	645.6	7.5864e-06	4.6768e-06	587.5	246.62	3.679e-06	1.1662e-05	241.93	99.267	107.98	59.357	8.2485e-06	54.778	0.011853	0.018564	0.0051967	732.19	0.00018942	0.00020427	671.86	278.04	0.00018909	0.00020575	289.26	114.95	135.22	64.529	0.00020282	61.965	529.388	212.884	258.183	190.975	193.915	416.684	188.995	196.323	329.012	224.081	193.266	197.223	199.812	205.075	260.730	200.576	-8191	255	
998.261	1	1	0	0	0.035232	0.20671	0.16567	0.11611	0.18246	0.14118	0.21865	0.21942	0.045957	0.23526	0.063683	0.08839	0.055232	0.13015	0.073893	0.35828	-2.9083	-3.4333	-3.5854	-3.2396	-3.4583	-3.4229	-3.4125	-3.7854	-3.4104	-3.4792	-3.725	-3.2833	-3.6208	-3.575	-3.2604	-3.7687	405.850	206.932	306.160	500.150	352.128	403.079	516.559	522.020	347.232	429.714	498.220	454.451	325.337	404.066	441.719	473.229	0.00042903	0.0016988	8.2343e-05	636.3	1.1785e-06	1.5644e-05	579.02	245.18	6.634e-06	2.9233e-06	244.2	103.99	109.76	58.77	1.1076e-05	54.888	0.012131	0.018743	0.0051981	723.88	0.00018532	0.00019643	656.85	274.29	0.00017421	0.00018633	285.07	117.55	133.07	63.241	0.00016619	60.401	182.097	531.510	474.055	190.728	288.104	303.275	189.045	196.387	300.713	316.090	193.231	196.557	199.776	204.716	363.680	200.362	-8191	255	
998.358	1	1	0	0	0.12166	0.18078	0.084675	0.2789	0.14746	0.070378	0.3565	0.21692	0.23168	0.10939	0.098331	0.1212	0.17776	0.22518	0.17343	0.092439	-2.8792	-3.3521	-3.6583	-3.4125	-3.6437	-3.5792	-3.2438	-3.6917	-3.3479	-3.55	-3.6708	-3.4854	-3.5	-3.7	-3.4188	-3.8292	233.825	197.279	243.192	486.015	511.799	197.948	466.185	184.873	496.107	518.652	423.070	197.807	500.699	244.671	468.409	365.527	0.00057408	0.00085937	0.00018588	648.25	4.9216e-06	2.1065e-06	590.14	253.75	1.4845e-05	2.7533e-06	252.01	106.64	112.11	61.162	1.0575e-05	56.053	0.0095757	0.014454	0.0039002	706.43	0.00013206	0.00013849	642.45	273.46	0.00011881	0.00012907	278.87	115.26	129.07	64.359	0.00012352	60.288	197.821	469.750	324.946	190.705	317.537	478.374	188.881	196.222	335.883	261.349	193.126	196.599	200.120	204.497	294.906	200.428	-8191	255	
998.454	1	1	0	0	0.19886	0.075877	0.089581	0.19997	0.1548	0.18375	0.16763	0.030614	0.12811	0.16213	0.077321	0.22322	0.23597	0.25123	0.16676	0.12413	-3.0062	-3.1375	-3.6562	-3.5125	-3.5	-3.5292	-3.4167	-3.7083	-3.2833	-3.2375	-3.7458	-3.3917	-3.7625	-3.6833	-3.2562	-3.725	468.452	188.838	490.350	488.495	442.191	493.707	447.872	472.968	382.796	319.401	518.696	462.139	376.716	216.599	296.015	526.405	0.00064951	0.00049947	0.00011698	663.42	8.1855e-06	8.3563e-06	597.14	257.53	8.6575e-06	2.272e-06	255.14	106.99	113.81	62.002	8.7409e-06	56.968	0.0075132	0.011831	0.003266	709.81	0.00011629	0.00012406	644.02	274.48	0.00010916	0.00011733	278.12	115.33	128.8	64.972	0.00011309	60.698	194.677	294.979	282.944	190.795	327.211	418.775	188.889	196.299	272.700	211.291	193.137	196.630	199.908	204.462	360.126	200.166	-8191	255	
998.550	1	1	0	0	0.10929	0.12407	0.24228	0.15289	0.0489	0.15615	0.045503	0.27672	0.17687	0.093162	0.08248	0.1525	0.097495	0.031818	0.09325	0.27547	-3.1229	-3.3688	-3.6688	-3.4792	-3.3688	-3.7104	-3.2854	-3.6813	-3.4354	-3.2812	-3.8646	-3.3479	-3.4146	-3.9	-3.3271	-3.7542	497.676	450.351	394.346	221.718	405.720	268.544	537.623	465.871	269.666	493.788	465.690	275.318	205.220	483.519	501.205	522.441	0.0006196	0.0008232	0.00024219	664.72	9.7019e-06	9.5329e-06	602.51	258.75	6.3234e-06	3.2339e-06	256.87	106.65	113.93	62.061	4.4418e-06	57.178	0.0070419	0.011202	0.0031279	711.6	0.00011458	0.00012368	649	277.04	0.00011424	0.0001244	282.1	115.1	129.66	65.183	0.00011426	61.009	179.783	265.983	367.202	190.605	352.798	271.293	188.943	195.911	260.204	426.525	192.995	196.603	199.703	204.618	295.343	200.501	-8191	255	
998.646	1	1	0	0	0.21326	0.20557	0.24651	0.15026	0.33727	0.063505	0.078093	0.1722	0.27559	0.078934	0.2504	0.13765	0.064321	0.15671	0.17012	0.02974	-2.9667	-3.3417	-3.5104	-3.5646	-3.3583	-3.6271	-3.3979	-3.725	-3.6271	-3.4104	-3.7979	-3.5625	-3.4437	-3.9229	-3.3438	-3.6729	381.802	338.628	227.234	519.901	449.159	373.618	244.858	458.847	220.437	325.256	511.264	434.989	180.176	179.771	411.340	513.903	0.00059744	0.00093191	0.00017765	668.97	8.1673e-06	1.7207e-06	603.85	261.27	8.565e-06	4.0669e-06	257.61	107.55	113.36	61.918	4.9592e-06	56.843	0.0069189	0.01099	0.0030161	711.27	0.00011172	0.00012181	648.45	277.97	0.0001137	0.00012479	282.96	115.89	129.83	64.8	0.0001153	60.59	198.769	200.752	315.534	190.438	439.184	356.544	189.223	195.743	231.764	220.086	193.046	196.652	199.588	204.807	495.241	200.416	-8191	255	
998.742	1	1	0	0	0.10433	0.22996	0.17755	0.27721	0.089242	0.10641	0.054546	0.20937	0.17231	0.11231	0.18428	0.26703	0.22043	0.1711	0.20715	0.15771	-3.3187	-3.1667	-3.7167	-3.6437	-3.3083	-3.65	-3.3104	-3.5542	-3.5917	-3.2333	-3.7375	-3.6833	-3.4854	-3.8021	-3.3958	-3.7042	313.627	417.936	332.665	457.846	420.318	482.447	194.310	521.964	300.072	457.908	518.317	502.668	189.696	489.001	492.392	481.578	0.00057668	0.00052817	0.00046343	668.09	1.325e-05	2.4183e-06	603.56	262.35	5.5714e-06	3.28e-06	259.86	109.46	116.54	62.667	7.8711e-06	57.201	0.006801	0.010621	0.0029013	707.29	0.00010272	0.00011008	642.93	277.45	0.00010091	0.00010972	281.9	116.52	130.28	65.069	0.0001037	60.445	193.756	515.956	262.403	190.712	311.733	201.987	188.839	196.011	355.841	305.648	192.595	196.557	199.767	204.654	338.142	200.457	-8191	255	
998.861	1	1	0	0	0.21596	0.1711	0.16459	0.33434	0.19085	0.064294	0.24921	0.082438	0.2896	0.26043	0.12937	0.3359	0.094529	0.34019	0.032816	0.15981	-3.2396	-3.3917	-3.6167	-3.6583	-3.2687	-3.7062	-3.425	-3.5146	-3.6896	-3.3521	-3.5208	-3.4604	-3.1208	-3.8583	-3.3458	-3.6021	383.477	249.377	200.725	489.488	263.283	415.362	492.534	495.011	345.761	281.906	251.250	519.302	189.922	372.055	249.486	221.685	0.00067456	0.0004499	9.734e-05	676.64	3.4977e-06	1.8567e-05	606.33	265.18	2.6029e-06	1.6895e-05	261.57	110.22	117.11	63.004	4.9179e-06	57.341	0.0062554	0.0097693	0.0026963	709.34	9.5733e-05	0.00010277	642.9	278.79	9.1998e-05	0.00010022	280.97	116.9	129.58	65.256	9.3997e-05	60.458	198.056	335.655	310.662	190.691	443.752	353.780	189.195	195.647	318.770	361.510	193.527	196.626	199.580	204.614	314.740	200.165	-8191	255	
998.957	1	1	0	0	0.03533	0.1781	0.17168	0.35714	0.15873	0.17511	0.085688	0.10513	0.17422	0.16419	0.20534	0.22635	0.36434	0.29572	0.26888	0.16095	-3.1875	-3.2021	-3.3979	-3.6771	-3.3312	-3.8896	-3.2583	-3.5687	-3.7146	-3.3417	-3.4854	-3.8333	-3.0958	-3.8146	-3.4292	-3.5938	356.399	503.996	272.478	515.110	256.397	475.312	422.375	472.810	255.746	272.710	236.355	454.515	234.144	507.295	457.442	334.703	0.00069727	0.00071614	0.00034913	677.17	6.408e-06	7.4698e-06	612.56	268.01	6.8869e-06	1.0624e-05	265.01	111.71	117.94	62.818	1.0083e-05	57.947	0.0057386	0.0089943	0.002447	708.5	8.7877e-05	9.4839e-05	643.21	279.48	8.4829e-05	9.1199e-05	281.56	117.25	129.24	65.07	8.4763e-05	60.713	191.579	199.445	201.514	190.915	355.469	371.009	189.125	195.914	303.492	372.587	192.953	196.633	199.672	204.811	318.238	200.574	-8191	255	
999.053	1	1	0	0	0.23014	0.069262	0.10997	0.24538	0.098317	0.20741	0.084089	0.14593	0.21822	0.20828	0.18169	0.12277	0.23461	0.037984	0.031663	0.19706	-3.2625	-3.175	-3.5396	-3.7458	-3.2229	-3.6312	-3.4771	-3.5396	-3.6583	-3.4437	-3.4396	-3.7167	-3.1167	-3.8229	-3.5896	-3.425	527.430	390.319	298.328	249.826	282.096	181.031	288.252	224.060	193.699	404.736	447.153	459.229	435.960	362.951	463.726	521.515	0.0005854	0.00066853	0.00021672	683.46	8.8436e-06	1.2275e-05	617.71	269.21	3.5117e-06	2.1763e-06	269.21	114.16	118.9	63.705	1.3669e-06	59.082	0.0052268	0.0081653	0.00224	709.07	8.1084e-05	8.6655e-05	645.87	281.29	7.96e-05	8.6558e-05	285.76	119.56	130.27	65.774	8.3193e-05	61.703	198.041	530.487	325.526	190.734	409.863	402.875	189.061	196.019	198.076	403.650	192.978	196.704	199.826	204.705	373.657	200.903	-8191	255	
999.127	1	1	0	0	0.21045	0.10635	0.12991	0.28333	0.11003	0.23756	0.065156	0.22125	0.080834	0.21937	0.14367	0.34483	0.171	0.22182	0.02263	0.076393	-3.0938	-3.4083	-3.4062	-3.7583	-3.0812	-3.6354	-3.6479	-3.5375	-3.6375	-3.3854	-3.5292	-3.8646	-3.3604	-3.6479	-3.525	-3.3958	443.083	277.389	465.220	510.438	450.677	304.216	200.919	483.095	190.287	346.334	258.528	510.693	526.636	224.511	265.559	509.010	0.00060946	0.00089779	2.2374e-05	681.55	6.9681e-06	6.7866e-06	622.14	272.71	7.5855e-06	9.0362e-06	272.56	115.49	120.73	64.445	1.852e-06	58.839	0.0051557	0.0080479	0.002247	709.62	8.2458e-05	8.9444e-05	650.62	284.58	8.4644e-05	9.2867e-05	290.86	121.68	132.79	66.601	8.9391e-05	61.779	195.945	263.685	447.582	190.495	338.301	181.478	188.901	196.109	300.534	327.653	193.167	196.800	199.951	204.751	403.068	200.737	-8191	255	
999.246	1	1	0	0	0.049859	0.25301	0.037189	0.16258	0.29486	0.2455	0.16275	0.063528	0.13589	0.13661	0.13578	0.17324	0.24407	0.20785	0.05842	0.28145	-3.1833	-3.4167	-3.1354	-3.5958	-3.2042	-3.6667	-3.7021	-3.3604	-3.6437	-3.4	-3.5271	-3.7917	-3.425	-3.5438	-3.6771	-3.3396	291.525	482.493	417.127	472.099	531.804	530.620	388.233	357.706	235.388	456.946	461.777	179.765	208.206	508.979	380.997	483.737	0.00056827	0.001164	0.00030205	682.16	7.3787e-06	5.0108e-06	619.82	273.3	1.091e-05	4.2977e-06	271.28	115.41	120.83	64.228	2.6734e-06	58.691	0.0055531	0.0085249	0.0024744	714.36	8.8768e-05	9.6153e-05	652.03	285.78	8.9441e-05	9.7457e-05	290.41	121.47	132.87	66.361	9.2402e-05	61.56	189.890	234.022	219.147	191.041	246.212	204.557	188.738	196.018	335.686	522.551	193.410	196.713	199.885	204.792	408.537	200.481	-8191	255	
999.342	1	1	0	0	0.14473	0.29634	0.11826	0.18784	0.081533	0.070145	0.24105	0.12445	0.21138	0.2079	0.15644	0.15762	0.15644	0.12935	0.1639	0.35875	-3.1583	-3.3458	-3.3083	-3.7833	-3.15	-3.5229	-3.6958	-3.2188	-3.5708	-3.4917	-3.3125	-3.7958	-3.2333	-3.5812	-3.5875	-3.2562	281.209	276.687	372.336	522.153	246.323	525.304	465.738	461.830	319.243	535.334	515.334	508.887	428.943	532.376	184.175	485.969	0.00062867	0.00096416	0.00026532	679.18	4.9302e-06	2.9747e-07	622.44	273.75	4.0543e-06	7.5004e-06	273.97	117.4	122.45	64.969	4.5521e-06	60.094	0.0057026	0.0086557	0.0024983	710.62	8.7906e-05	9.5345e-05	652.57	285.66	8.8488e-05	9.5925e-05	293.03	123.05	134.07	67.317	9.1538e-05	63.242	179.865	259.645	239.925	190.994	413.454	283.254	188.742	195.845	323.939	294.596	193.016	196.738	200.059	204.712	277.099	200.634	-8191	255	
999.438	1	1	0	0	0.093578	0.045676	0.070445	0.15174	0.23549	0.23458	0.040994	0.26223	0.20283	0.28092	0.35967	0.13275	0.074992	0.38386	0.062736	0.026601	-3.3667	-3.4833	-3.1104	-3.7396	-3.2896	-3.2208	-3.7687	-3.3146	-3.5771	-3.4938	-3.2375	-3.6833	-3.2146	-3.5062	-3.6021	-3.3604	254.983	191.799	282.498	187.935	309.141	538.189	200.751	329.596	198.064	525.115	525.577	537.948	410.115	481.896	378.803	235.614	0.00073328	0.00086943	0.00024287	691.55	2.9929e-06	1.1935e-05	633.9	281.56	2.2103e-06	3.926e-06	284.08	120.19	125.3	66.311	8.503e-06	61.16	0.0056373	0.0086614	0.0024857	720.86	8.9276e-05	9.7057e-05	665.27	293.99	9.0826e-05	9.8247e-05	302.45	126.65	137.22	68.615	9.5809e-05	64.201	184.760	229.940	443.379	190.815	250.100	359.272	189.360	196.194	536.861	315.008	192.896	196.426	200.075	204.751	289.941	200.537	-8191	255	
999.559	1	1	0	0	0.10289	0.29991	0.11789	0.11869	0.17887	0.093107	0.27343	0.29075	0.15404	0.25044	0.31321	0.10131	0.1523	0.19241	0.083856	0.31237	-3.1813	-3.5583	-3.0875	-3.7333	-3.2854	-3.4417	-3.7083	-3.3896	-3.5563	-3.6625	-3.2417	-3.6792	-3.3792	-3.2708	-3.6604	-3.3958	182.726	432.868	449.175	205.604	390.940	393.897	393.769	497.736	383.395	298.174	466.878	200.132	194.680	475.210	183.388	492.453	0.00075927	0.00056395	0.00021065	679.06	4.6623e-06	8.6717e-06	628.15	276.21	2.8034e-06	7.9957e-06	278.13	117.36	120.76	64.3	1.3744e-05	59.334	0.0059466	0.009176	0.0026488	717.39	9.4481e-05	0.00010207	664.04	290.07	9.4909e-05	0.00010292	297.48	124.29	133.92	66.839	9.7186e-05	62.59	193.658	485.633	249.754	190.766	364.427	358.257	188.887	196.047	349.110	402.516	193.218	196.873	199.987	204.658	313.076	200.445	-8191	255	
999.655	1	1	0	0	0.29841	0.12986	0.14229	0.33249	0.11109	0.15992	0.28926	0.20613	0.095442	0.11639	0.15437	0.09989	0.055474	0.20616	0.053892	0.10017	-3.025	-3.3521	-3.1417	-3.6688	-3.4125	-3.3333	-3.7625	-3.4354	-3.4667	-3.6979	-3.1188	-3.55	-3.4229	-3.3167	-3.5896	-3.4	496.428	503.303	477.620	502.990	280.509	463.243	462.163	465.073	513.673	525.156	188.011	482.313	197.561	492.277	347.580	515.741	0.00064029	0.00082269	0.00015992	687.97	1.1138e-05	1.8929e-05	636.47	281.81	3.6831e-06	9.8615e-06	286.51	120.95	126.2	67.276	6.3238e-06	61.325	0.006036	0.0093758	0.002703	724.2	9.6223e-05	0.00010523	672.29	296.1	9.8566e-05	0.00010537	306.58	128.15	139.96	69.798	0.00010172	64.65	184.621	283.389	216.165	190.828	333.641	361.872	188.984	196.069	241.740	340.524	193.005	196.570	200.050	204.721	267.687	200.514	-8191	255	
999.726	1	1	0	0	0.26477	0.10698	0.048136	0.38075	0.12576	0.17064	0.14874	0.14802	0.097402	0.083688	0.17701	0.13639	0.11671	0.082869	0.15589	0.31811	-2.9292	-3.7229	-3.1688	-3.6333	-3.4229	-3.3771	-3.8833	-3.4062	-3.4437	-3.7313	-3.2333	-3.4917	-3.6125	-3.3312	-3.6708	-3.4729	460.619	464.906	193.420	510.066	384.356	191.374	490.021	466.858	356.220	418.595	510.626	280.576	188.439	486.913	367.501	190.011	0.00072521	0.0012816	0.00010934	699.99	7.262e-06	7.0926e-06	646.33	288.95	4.9544e-06	1.4644e-05	293.8	123.34	129.36	67.981	3.4101e-06	62.655	0.006215	0.0096148	0.0027266	734.24	9.7955e-05	0.00010497	682.23	302.97	9.9246e-05	0.000106	313.8	130.38	142.01	70.624	0.00010116	65.753	178.330	323.915	305.943	190.949	311.760	355.125	188.992	195.646	294.060	307.225	192.796	196.528	200.002	204.639	402.693	200.518	-8191	255	
999.847	1	1	0	0	0.024439	0.13423	0.15698	0.10809	0.26607	0.090309	0.2175	0.095364	0.019084	0.15903	0.052807	0.16429	0.32691	0.053838	0.21149	0.28205	-2.8937	-3.7146	-3.3708	-3.5812	-3.6854	-3.1167	-3.7833	-3.4667	-3.3937	-3.825	-3.4958	-3.6396	-3.6354	-3.4729	-3.6063	-3.6271	400.479	400.338	394.550	473.140	422.464	394.126	357.608	206.972	203.904	494.824	178.339	518.813	234.034	460.308	402.149	494.901	0.00069539	0.00036438	0.00016213	703.11	2.3438e-06	1.0362e-05	652.02	292.14	1.0322e-05	8.2652e-06	295.63	126.12	129.6	68.602	1.2016e-05	64.118	0.0062686	0.0096721	0.0027701	739.32	0.00010005	0.00010834	690.25	306	0.00010267	0.00010881	316.79	133.21	143.83	71.507	0.00010329	67.232	184.749	279.227	314.469	190.724	286.578	317.432	189.281	196.002	323.631	313.035	193.167	196.694	200.432	204.697	280.809	200.528	-8191	255	
999.941	1	1	0	0	0.048952	0.1772	0.3153	0.18837	0.18457	0.028464	0.22471	0.14757	0.13324	0.15873	0.20121	0.11163	0.21957	0.16364	0.051722	0.14231	-2.8896	-3.7771	-3.3646	-3.5146	-3.5729	-3.2438	-3.6771	-3.6396	-3.2687	-3.7396	-3.4646	-3.4167	-3.6646	-3.4792	-3.5708	-3.65	536.150	240.666	421.737	230.906	380.742	497.861	429.999	430.962	403.165	312.212	178.786	526.923	516.562	205.947	178.407	393.322	0.00068094	0.00042242	0.00017346	704.39	2.7169e-06	4.2604e-06	660.55	294.72	8.695e-06	1.334e-05	300.37	128.88	131.39	69.527	5.0424e-06	64.819	0.0064	0.010003	0.0028233	743.95	0.00010247	0.00011183	697.04	308.14	0.0001063	0.00011183	322.5	136.35	145.95	72.482	0.00010752	68.652	180.743	278.442	238.284	191.205	321.533	227.672	189.143	196.225	326.116	304.618	193.272	196.768	200.482	204.725	291.896	200.627	-8191	255	
1000.038	1	1	0	0	0.28976	0.022787	0.2396	0.2547	0.10083	0.14748	0.02243	0.16328	0.29149	0.30996	0.15643	0.16384	0.174	0.18089	0.11919	0.14439	-2.7396	-3.6083	-3.3208	-3.5417	-3.7313	-3.2062	-3.6958	-3.5875	-3.2083	-3.6208	-3.5167	-3.2188	-3.8333	-3.4208	-3.5542	-3.5479	363.415	212.835	527.675	483.243	459.636	454.445	323.463	507.499	506.138	485.125	462.200	311.752	446.544	442.531	313.083	206.391	0.0007315	0.00012598	0.00022592	708.38	6.6505e-06	1.6305e-05	659.3	294.73	9.3064e-06	7.7463e-06	300.12	129.04	132.26	69.741	3.3842e-06	64.387	0.0067247	0.010434	0.0029677	750.47	0.00010985	0.00012095	703.08	311.22	0.00011711	0.00012515	326.11	137.87	148.28	72.682	0.00012117	68.308	186.820	492.313	268.382	191.003	316.363	290.649	189.068	196.118	350.779	330.970	193.071	196.594	199.909	204.726	428.469	200.500	-8191	255	
1000.158	1	1	0	0	0.051524	0.10141	0.085978	0.16142	0.11049	0.21057	0.13739	0.22344	0.19881	0.23039	0.21096	0.48701	0.28036	0.45954	0.19065	0.28618	-2.7646	-3.7	-3.4021	-3.5062	-3.5958	-3.25	-3.5375	-3.6604	-3.3292	-3.6396	-3.7042	-3.3208	-3.6708	-3.5	-3.5125	-3.6646	206.352	304.733	181.191	462.307	183.764	225.518	454.555	447.934	511.785	193.174	466.789	489.908	319.521	497.591	184.306	244.986	0.00068952	0.00089796	0.00011149	709.35	5.7317e-06	1.5937e-05	659.79	293.85	1.4677e-05	1.8252e-06	298.51	127.72	130.9	68.911	1.1826e-05	63.853	0.0074731	0.011492	0.0032629	756.84	0.00012125	0.00013208	707.8	311.65	0.00012737	0.00013546	325.76	137.59	148.39	72.255	0.0001319	68.272	180.480	367.107	359.084	190.713	281.430	320.767	188.929	196.284	356.919	263.064	193.497	196.643	200.287	204.976	295.802	200.608	-8191	255	
1000.254	1	1	0	0	0.21553	0.19718	0.023672	0.16948	0.08179	0.15691	0.27251	0.21076	0.14799	0.095522	0.055861	0.13403	0.12034	0.16216	0.086782	0.25305	-2.6729	-3.4313	-3.4292	-3.3604	-3.6021	-3.3958	-3.4979	-3.5833	-3.125	-3.5771	-3.5583	-3.3896	-3.7021	-3.5146	-3.525	-3.85	421.900	508.043	508.482	513.781	459.858	282.290	422.954	460.962	376.154	337.834	446.611	316.130	259.307	483.651	343.713	478.681	0.00067217	0.0016042	0.00010085	701.47	9.649e-06	9.2043e-06	653.23	290.21	1.0154e-05	1.1014e-05	300.06	130.69	132.75	69.965	1.6559e-05	65.718	0.0079641	0.012416	0.0034797	754.16	0.00012602	0.0001364	706.46	310.31	0.00012871	0.00013695	328.31	139.46	150.1	73.32	0.00013528	70.243	190.433	230.874	198.957	190.979	295.598	406.701	189.244	195.932	315.710	333.533	193.432	197.018	199.923	204.681	259.374	200.545	-8191	255	
1000.351	1	1	0	0	0.13717	0.13601	0.10002	0.021444	0.16294	0.098462	0.2933	0.14912	0.092768	0.11421	0.13744	0.28273	0.13363	0.20268	0.098667	0.26016	-2.8729	-3.5333	-3.5771	-3.2479	-3.6396	-3.3167	-3.4771	-3.7875	-3.2354	-3.4813	-3.7104	-3.2417	-3.55	-3.5854	-3.4062	-3.6625	465.810	243.367	180.156	287.423	243.022	294.431	521.758	427.901	369.161	487.461	178.781	499.809	426.565	208.800	324.220	482.142	0.00069751	0.00076014	7.9601e-05	707.86	1.0046e-05	8.7199e-06	662.28	292.18	1.825e-06	7.7712e-06	300.08	129.91	131.06	69.175	8.4026e-06	64.835	0.0081543	0.012724	0.0035758	761.82	0.00013027	0.00014182	715.02	312.91	0.00013366	0.00014367	329.59	139.57	149.48	72.878	0.00013967	69.808	535.475	272.385	440.474	190.800	380.627	332.839	188.968	196.185	249.606	315.693	193.283	196.587	199.833	204.837	323.402	200.616	-8191	255	
1000.422	1	1	0	0	0.043414	0.1177	0.14373	0.24341	0.011554	0.315	0.12023	0.086318	0.18267	0.09749	0.078242	0.39202	0.32285	0.19226	0.072611	0.17107	-2.7875	-3.5	-3.4375	-3.2313	-3.5479	-3.4667	-3.3104	-3.8792	-3.4396	-3.4917	-3.475	-3.4229	-3.4688	-3.55	-3.2062	-3.6375	327.920	180.753	195.526	185.261	291.308	226.876	443.758	315.491	372.438	314.343	200.607	502.474	482.198	517.909	465.831	392.719	0.00081331	0.0010158	3.3055e-05	695.72	9.3402e-06	3.9867e-06	649.66	285.42	3.7477e-06	3.7106e-06	296.76	127.88	129.94	68.448	6.1753e-06	63.484	0.0084001	0.013138	0.0036953	755.09	0.0001357	0.00014636	708.45	307.41	0.00013603	0.00014817	325.68	137.76	148.43	72.079	0.00014397	68.56	191.738	248.191	536.707	190.454	381.750	258.581	189.128	195.896	476.655	289.382	193.169	196.879	200.021	204.910	284.949	200.322	-8191	255	
1000.543	1	1	0	0	0.12092	0.23078	0.14783	0.23169	0.094702	0.16879	0.12987	0.31033	0.077865	0.1692	0.13764	0.083671	0.11965	0.20956	0.052359	0.29091	-2.8333	-3.3771	-3.5521	-3.2708	-3.6042	-3.4	-3.2792	-3.7188	-3.4875	-3.3	-3.6667	-3.1604	-3.3479	-3.6208	-3.2188	-3.7021	286.355	333.743	413.558	534.417	386.121	252.503	464.241	522.157	511.139	269.322	482.489	446.389	493.528	526.745	396.322	501.346	0.00065234	0.0014101	0.00021319	700.81	8.9635e-06	1.529e-05	655.72	290.12	8.6712e-06	9.0237e-06	300	128.54	131.18	69.325	5.0714e-06	64.457	0.0086881	0.013617	0.0038475	759.69	0.00014101	0.00015252	713.4	311.94	0.00014089	0.00015478	329.82	139.12	150.32	72.957	0.00014646	69.468	178.200	319.896	315.619	190.808	267.335	334.354	189.172	195.754	277.592	392.173	192.966	196.695	200.075	204.681	268.263	200.465	-8191	255	
1000.639	1	1	0	0	0.27575	0.063402	0.16578	0.23269	0.067144	0.15227	0.30378	0.19364	0.081208	0.088529	0.18377	0.12633	0.14659	0.31674	0.056919	0.47216	-2.9896	-3.2292	-3.4854	-3.1958	-3.5708	-3.6417	-3.3625	-3.5021	-3.4396	-3.1813	-3.8438	-3.3896	-3.5458	-3.6667	-3.2917	-3.5375	196.691	284.753	359.766	516.737	483.223	468.686	503.229	523.861	416.873	389.202	478.626	183.192	412.386	513.593	361.666	509.313	0.00058008	0.0012489	0.00026471	696.72	8.5625e-06	7.1721e-06	651.66	288.05	5.5365e-06	6.8199e-06	298.44	128.36	131.17	69.411	5.8691e-06	65.016	0.0088001	0.013948	0.0038997	760.29	0.0001428	0.00015581	712.42	311.49	0.00014347	0.00015712	329.38	139.8	150.34	73.186	0.00014837	70.137	182.068	259.150	295.967	190.861	226.374	314.471	189.119	196.165	281.158	322.413	193.103	196.427	199.876	204.822	506.720	200.558	-8191	255	
1000.735	1	1	0	0	0.16254	0.27334	0.22854	0.040717	0.34903	0.23606	0.26055	0.36712	0.22295	0.25746	0.18053	0.16644	0.30706	0.17328	0.18636	0.34226	-2.8521	-3.3146	-3.5187	-3.2854	-3.3021	-3.5	-3.2021	-3.6375	-3.5792	-3.325	-3.6312	-3.4542	-3.4271	-3.7021	-3.2438	-3.6958	501.233	261.366	355.573	436.679	277.722	500.863	213.791	484.380	196.374	179.658	509.508	456.487	179.949	479.349	481.688	188.467	0.00061314	0.00071155	0.00021609	699.8	4.6252e-06	1.8128e-06	654.92	288.98	1.2506e-05	1.043e-05	296.96	129.35	131.04	69.748	7.1604e-06	65.739	0.0089848	0.014124	0.0039975	759.89	0.00014799	0.00015929	715.57	312.72	0.00014896	0.0001641	331.93	140.98	151.28	73.736	0.00015222	71.109	185.274	193.637	430.995	191.019	300.796	469.628	188.976	196.131	328.725	343.818	193.144	196.761	200.156	204.798	328.187	200.878	-8191	255	
1000.831	1	1	0	0	0.060428	0.020923	0.27436	0.039917	0.059475	0.036184	0.091042	0.22494	0.12018	0.15106	0.30915	0.30465	0.11901	0.10208	0.34921	0.35969	-3.1417	-3.1083	-3.4188	-3.4271	-3.3979	-3.7042	-3.3396	-3.6375	-3.5646	-3.0187	-3.7542	-3.3396	-3.3646	-3.7458	-3.2083	-3.5062	421.936	283.258	214.141	218.010	484.301	286.825	437.973	436.419	494.815	187.694	235.806	496.127	365.581	383.914	271.403	516.214	0.00064016	0.0014218	0.00022779	696.99	2.1822e-06	7.3469e-06	651.51	288.3	1.1418e-05	6.0979e-06	296.45	128.48	129.39	68.91	3.9312e-06	64.753	0.0091303	0.014237	0.0040272	758.8	0.00014949	0.00016257	715.58	311.71	0.00015162	0.00016731	332.23	140.5	150.98	73.174	0.00016147	70.373	186.959	246.802	229.710	191.119	274.379	323.698	189.098	195.846	335.507	297.084	193.496	196.804	199.888	204.804	242.930	200.572	-8191	255	
1000.952	1	1	0	0	0.07508	0.029459	0.11702	0.24839	0.2637	0.21167	0.39941	0.34466	0.12983	0.043374	0.15313	0.28394	0.32408	0.31997	0.099548	0.20385	-3.1937	-3.1083	-3.5229	-3.4458	-3.2792	-3.5167	-3.1562	-3.5979	-3.5792	-3.1958	-3.7062	-3.4313	-3.1292	-3.7146	-3.1437	-3.5479	202.859	536.152	387.477	526.096	434.166	494.266	464.347	448.500	363.872	510.467	217.240	181.057	472.695	475.939	514.392	434.961	0.00069173	0.00089969	0.00042017	691.52	8.5148e-06	8.1038e-06	647.27	285.74	6.3641e-06	1.7251e-06	293.31	128.54	129.29	69.214	2.5591e-06	64.447	0.0095445	0.01498	0.004196	758.16	0.00015635	0.00016672	714.15	310.8	0.00015626	0.00017119	330.55	140.7	151.74	73.322	0.00016243	70.147	182.838	282.382	247.963	191.082	378.796	289.331	189.340	196.035	333.657	199.993	193.247	196.705	199.920	204.604	306.935	200.922	-8191	255	
1001.024	1	1	0	0	0.0074183	0.20455	0.12623	0.10365	0.3316	0.11347	0.065694	0.20566	0.17785	0.36651	0.24025	0.19624	0.21537	0.31714	0.12225	0.1184	-3.2354	-3.2042	-3.5292	-3.5167	-3.1521	-3.7062	-3.3396	-3.5104	-3.7188	-3.1708	-3.5229	-3.4813	-3.2354	-3.8187	-3.4042	-3.3979	532.402	234.250	387.601	256.863	495.985	407.506	481.460	474.890	260.183	411.140	461.640	203.201	200.193	515.791	239.183	262.087	0.00074171	0.0024085	0.0002965	698.71	1.6517e-05	1.2848e-05	649.42	286.32	8.7758e-06	6.6346e-06	295.78	129.51	129.74	69.885	1.6937e-06	65.228	0.0097148	0.01524	0.0042682	761.94	0.00015691	0.00016729	714.82	311.54	0.00015242	0.00016828	331.42	141.17	151.62	74.008	0.00015871	71.171	187.298	220.374	524.602	191.089	512.757	508.622	189.214	195.943	347.074	280.858	193.263	196.914	199.927	204.571	323.985	200.691	-8191	255	
1001.120	1	1	0	0	0.27607	0.14429	0.19553	0.3374	0.1712	0.029029	0.20595	0.40418	0.098183	0.10023	0.18332	0.24184	0.10272	0.37726	0.068021	0.064529	-3.2521	-3.2458	-3.4771	-3.4792	-3.2812	-3.7167	-3.2958	-3.35	-3.6271	-3.1125	-3.6	-3.5208	-3.175	-3.7208	-3.3479	-3.5062	386.933	363.665	515.936	464.582	528.858	420.285	424.674	194.702	366.375	526.801	447.004	517.602	208.055	513.522	253.450	216.712	0.00071248	0.0012813	0.00048081	691.65	5.8057e-06	8.5307e-06	648.78	287.11	6.542e-06	4.1833e-06	298	131.07	131.04	70.838	1.1591e-05	67.416	0.0096315	0.014912	0.004205	759.4	0.00015659	0.00016646	715.85	311.23	0.00015304	0.00016759	333.2	142.59	152.58	74.955	0.00015789	73.094	199.559	237.385	275.881	190.979	301.233	297.406	189.265	196.146	201.489	405.797	193.247	196.721	199.741	204.590	255.125	200.525	-8191	255	
1001.239	1	1	0	0	0.078218	0.22539	0.094804	0.22646	0.024049	0.059493	0.15872	0.13545	0.21324	0.18603	0.30196	0.30212	0.085727	0.10987	0.12887	0.26615	-3.0083	-3.2104	-3.4188	-3.4375	-3.1667	-3.5271	-3.6104	-3.3458	-3.5375	-3.35	-3.3354	-3.575	-3.2188	-3.7604	-3.3771	-3.4375	359.698	452.087	298.890	451.915	477.832	517.511	512.613	501.305	228.147	336.644	460.434	497.933	299.393	499.740	468.319	455.772	0.00067529	0.000847	0.00024408	693.6	1.0274e-05	1.7664e-05	651.31	286.23	5.5016e-06	5.1775e-06	299.93	132.19	130.52	71.19	5.9182e-06	68.531	0.0095806	0.015032	0.0042303	760.36	0.00015703	0.00016762	719.34	312.16	0.00015642	0.00016928	336.07	144.11	152.76	75.441	0.00016276	74.245	194.901	218.688	233.980	190.828	319.013	288.526	189.342	195.993	445.628	486.328	193.416	196.567	200.023	204.579	262.355	200.592	-8191	255	
1001.335	1	1	0	0	0.21288	0.023731	0.15689	0.30048	0.042846	0.15042	0.44466	0.087313	0.24939	0.13569	0.1293	0.085878	0.23858	0.14215	0.026474	0.053848	-3.2667	-3.2812	-3.5062	-3.8167	-3.1458	-3.5021	-3.6917	-3.2938	-3.6604	-3.3417	-3.4146	-3.6625	-3.1667	-3.5187	-3.4271	-3.1646	424.822	248.273	259.446	402.110	310.968	469.972	394.750	492.907	269.184	259.752	485.501	286.014	184.589	257.607	278.287	382.715	0.00080396	0.00091788	0.0002615	690.52	1.3789e-05	1.5745e-05	651.8	283.68	5.4138e-06	7.5873e-06	296.66	131.67	130.88	71.236	7.3678e-06	67.233	0.0098967	0.015553	0.0043325	760.33	0.00016137	0.00017217	719.3	309.39	0.00015821	0.00017146	334.47	143.75	153.07	75.497	0.00016555	73.27	182.335	232.140	495.616	190.721	332.067	358.839	189.188	196.118	286.624	277.415	193.639	196.476	199.929	204.397	431.548	200.355	-8191	255	
1001.431	1	1	0	0	0.079467	0.08048	0.16737	0.27017	0.25169	0.17555	0.25811	0.19808	0.14311	0.16061	0.039708	0.17512	0.15403	0.19087	0.082178	0.14367	-3.3688	-3.1667	-3.2771	-3.5979	-3.3292	-3.5479	-3.5312	-3.1771	-3.6917	-3.2938	-3.5104	-3.7146	-3.2708	-3.7792	-3.5479	-3.3542	404.803	473.776	296.660	430.734	295.659	250.433	456.957	520.246	317.973	237.909	239.699	182.458	477.216	533.479	313.565	432.817	0.00060519	0.0018046	9.4123e-05	691.48	1.1328e-05	1.5333e-05	651.83	283.06	4.601e-06	1.283e-05	295.81	131.58	129.72	71.04	4.3466e-06	67.558	0.010125	0.016007	0.004479	764.07	0.00016639	0.00018011	722.26	310.46	0.00016635	0.00018008	334.98	144.02	152.86	75.459	0.00016994	73.525	190.582	318.198	506.848	190.973	209.273	478.745	189.023	195.949	424.832	372.071	193.262	196.600	200.176	204.550	304.860	200.287	-8191	255	
1001.527	1	1	0	0	0.0503	0.30817	0.090788	0.27723	0.066788	0.05364	0.11861	0.41485	0.18143	0.27448	0.13244	0.077749	0.03105	0.28613	0.21643	0.12714	-3.1979	-3.4604	-3.2917	-3.7229	-3.1333	-3.5396	-3.5667	-3.1167	-3.6042	-3.3833	-3.3146	-3.6583	-3.2208	-3.5771	-3.6208	-3.2917	189.103	494.312	520.028	498.743	535.695	451.546	245.027	530.224	326.014	277.157	502.569	480.468	358.826	480.266	266.803	250.778	0.00074007	0.00090887	0.0002904	690.42	4.7957e-06	1.19e-05	653.1	283.59	1.1552e-05	5.8313e-06	299.06	132.09	130.54	71.756	5.034e-06	68.706	0.010222	0.016043	0.0045323	762.78	0.00016497	0.00018258	725.34	311.18	0.00016744	0.00018238	338.39	145.56	154.43	76.321	0.00017262	74.887	185.363	281.225	518.829	190.975	237.544	372.926	189.243	195.873	274.793	375.824	193.353	196.478	200.057	204.344	299.591	200.624	-8191	255	
1001.623	1	1	0	0	0.026887	0.25111	0.04429	0.21581	0.13177	0.24206	0.2348	0.13425	0.096648	0.21659	0.037593	0.22288	0.12006	0.29986	0.18932	0.30666	-3.2229	-3.4333	-3.1833	-3.75	-3.3958	-3.4062	-3.6063	-3.3063	-3.4562	-3.5625	-3.2479	-3.6063	-3.3854	-3.4875	-3.6167	-3.3833	308.884	233.237	358.888	259.636	229.966	516.863	433.199	504.611	516.725	296.495	490.569	434.502	278.350	503.719	377.490	515.811	0.00078565	0.00048973	0.00021489	691.88	8.0739e-06	4.1836e-06	652.87	285.3	7.4344e-06	6.0787e-06	298.8	133.55	131.56	72.087	7.9145e-06	69.328	0.010429	0.016416	0.004578	765.25	0.00016905	0.00018555	729.77	313.08	0.00017128	0.0001859	340.09	146.93	155.4	76.695	0.00017812	75.833	190.052	285.937	179.402	190.911	351.055	333.830	189.119	195.983	423.151	433.022	193.069	196.650	199.677	204.548	228.234	200.579	-8191	255	
1001.719	1	1	0	0	0.045	0.10841	0.092321	0.21671	0.16365	0.12701	0.24494	0.15127	0.16948	0.036049	0.016893	0.10899	0.21507	0.27608	0.023496	0.30108	-3.1896	-3.4333	-3.0771	-3.6458	-3.4917	-3.4437	-3.5812	-3.4146	-3.3542	-3.4854	-3.1396	-3.8187	-3.3625	-3.3083	-3.5833	-3.4333	501.381	236.953	338.050	486.095	255.042	260.515	520.089	514.008	282.774	297.776	202.335	503.275	180.064	485.974	248.670	430.886	0.00071103	0.0013195	0.00038351	689.75	7.6182e-06	1.6209e-05	654.24	283.41	1.17e-05	7.2783e-06	297.16	132.58	130.6	70.957	1.0564e-05	67.241	0.010826	0.016912	0.0047576	766.21	0.00017283	0.0001896	729.61	311.62	0.00017364	0.000188	338.56	146.05	154.42	75.723	0.00018197	73.94	182.785	415.486	284.847	191.050	306.933	346.003	189.203	196.056	257.497	293.412	192.805	196.894	199.971	204.473	353.588	200.686	-8191	255	
1001.840	1	1	0	0	0.20744	0.10066	0.16732	0.19398	0.16949	0.11597	0.11431	0.063838	0.083999	0.28703	0.073028	0.256	0.17297	0.42771	0.071416	0.11553	-3.0583	-3.5312	-3.0542	-3.6562	-3.2583	-3.2854	-3.7062	-3.4104	-3.4562	-3.3042	-3.1188	-3.7479	-3.3604	-3.4	-3.65	-3.5312	460.855	212.649	268.598	481.400	416.119	479.700	196.128	473.958	450.412	183.096	295.152	492.794	458.157	521.453	511.660	216.089	0.00067143	0.0016506	0.00018687	687.18	4.5484e-06	1.0856e-05	649.35	283	3.1193e-06	6.2406e-06	296.51	131.28	129.8	71.13	6.9299e-06	66.923	0.011225	0.017427	0.0049069	769.02	0.00017929	0.00019775	729.61	312.67	0.0001806	0.00019637	339.96	145.76	155.76	76.023	0.00018882	73.774	195.497	316.584	208.930	190.753	408.636	359.496	189.038	195.957	276.565	373.261	193.236	196.918	199.777	204.661	223.250	200.626	-8191	255	
1001.936	1	1	0	0	0.11243	0.07431	0.24757	0.16021	0.2348	0.11416	0.19423	0.025559	0.18729	0.19908	0.11227	0.35864	0.19317	0.24122	0.19138	0.12244	-2.75	-3.6917	-3.1937	-3.625	-3.5625	-3.3104	-3.7938	-3.525	-3.2917	-3.6604	-3.1792	-3.5917	-3.4604	-3.4167	-3.4792	-3.5021	213.689	392.525	384.250	237.001	493.474	493.834	342.997	216.691	423.038	466.888	243.489	476.488	219.432	512.388	516.457	519.461	0.00083819	0.0014179	0.00031413	686.95	2.1466e-05	2.0235e-05	646.94	282.2	9.6967e-06	5.3192e-06	294.3	131.03	129.64	71.116	1.3798e-05	67.023	0.01167	0.017993	0.0050898	770.95	0.00018463	0.00020182	728.89	313.06	0.00018421	0.00019933	339.14	145.8	155.96	75.983	0.00019125	74.098	188.360	310.594	258.521	190.921	277.806	271.656	188.891	195.897	259.583	414.508	193.210	196.639	199.822	204.670	205.557	200.508	-8191	255	
1002.031	1	1	0	0	0.091705	0.10558	0.12296	0.048673	0.091981	0.2617	0.29603	0.14847	0.094623	0.25517	0.32514	0.23922	0.083131	0.17651	0.18196	0.17823	-2.825	-3.6729	-3.3292	-3.55	-3.3646	-3.2229	-3.5563	-3.2979	-3.125	-3.675	-3.3021	-3.6229	-3.5021	-3.4562	-3.6854	-3.6104	331.491	180.248	233.807	298.318	202.717	368.375	506.967	501.909	247.933	492.431	481.846	492.513	277.237	485.738	406.628	529.274	0.00065647	0.00062726	0.00035259	689.78	5.1865e-06	1.5872e-05	647.17	283.4	6.8213e-06	1.3233e-05	296.35	132.66	130.18	71.446	7.1129e-06	68.989	0.011684	0.018174	0.005082	770.78	0.00018655	0.00020358	730.71	313.57	0.00018697	0.00020251	340.6	146.93	156.65	76.462	0.00019145	75.772	533.252	265.307	218.431	191.143	531.175	315.843	189.293	196.144	363.692	398.150	193.460	196.883	199.929	204.590	291.497	200.353	-8191	255	
1002.127	1	1	0	0	0.12061	0.089249	0.19076	0.086671	0.19969	0.14488	0.088675	0.13025	0.21305	0.087223	0.13496	0.12158	0.16959	0.17458	0.17053	0.18999	-2.7083	-3.5938	-3.1917	-3.5187	-3.5125	-3.1667	-3.7667	-3.4542	-3.3604	-3.7271	-3.325	-3.3438	-3.6708	-3.2917	-3.5417	-3.4208	267.094	186.094	209.854	467.774	528.974	528.422	374.299	484.936	242.173	514.922	383.524	442.744	319.171	485.178	472.401	451.506	0.00076222	0.00065795	8.2599e-05	688.05	5.078e-06	7.1977e-06	647.12	281.93	4.4157e-06	1.5808e-05	296.85	131.83	130.64	71.054	7.1682e-06	68.298	0.011719	0.018331	0.0051033	770.03	0.00018636	0.0002056	732.16	312.94	0.00018664	0.00020204	341.32	146.81	155.94	76.105	0.00018998	75.288	536.640	497.341	444.099	191.001	509.659	229.535	189.101	196.279	416.569	294.352	193.104	197.174	199.977	204.503	249.230	200.733	-8191	255	
1002.247	1	1	0	0	0.14776	0.083782	0.22096	0.31224	0.12513	0.13906	0.1041	0.024684	0.075012	0.13443	0.34163	0.057301	0.16952	0.065683	0.056175	0.22765	-2.8042	-3.4729	-3.3333	-3.3563	-3.7188	-3.3167	-3.6437	-3.5312	-3.0729	-3.6667	-3.3729	-3.5917	-3.7458	-3.5146	-3.5667	-3.7458	354.028	401.194	386.942	494.426	463.520	233.418	369.440	412.642	278.954	437.221	227.937	429.435	508.518	522.214	404.974	535.027	0.00069467	0.0015874	0.00026374	687.13	4.6591e-06	2.6138e-05	644.15	279.52	1.0896e-05	8.1109e-06	294.08	130.69	129.07	70.158	7.3078e-06	66.438	0.011691	0.018125	0.0051254	769.29	0.0001857	0.00020355	729.77	311.79	0.00018915	0.00020491	339.54	145.91	155.75	75.372	0.00019729	73.764	183.704	327.521	489.423	191.005	300.622	366.643	189.143	195.957	334.467	341.764	192.869	196.864	199.830	204.479	266.622	200.607	-8191	255	
1002.319	1	1	0	0	0.082773	0.14197	0.09426	0.27543	0.27328	0.099331	0.16468	0.042401	0.10842	0.14843	0.24442	0.17314	0.16642	0.46001	0.14819	0.13943	-2.6937	-3.6521	-3.3021	-3.3438	-3.6021	-3.2062	-3.6792	-3.6562	-3.2667	-3.6792	-3.4729	-3.3146	-3.7	-3.375	-3.4437	-3.5729	524.032	276.153	406.833	535.292	272.773	484.831	315.968	406.503	492.389	239.198	410.881	222.897	194.047	464.318	394.338	452.214	0.00074347	0.00033424	0.00016964	682.45	3.2642e-06	3.144e-06	645.34	280.71	5.5099e-06	2.9344e-06	293.02	130.11	127.94	69.957	1.5195e-05	66.142	0.012027	0.018731	0.0052159	769.13	0.00018871	0.000204	729.49	311.28	0.00018746	0.00020406	337.9	145	154.3	74.808	0.00019381	73.336	535.900	483.380	273.753	191.077	368.393	358.932	188.834	196.010	313.322	421.582	193.204	196.791	199.525	204.500	302.315	200.305	-8191	255	
1002.415	1	1	0	0	0.14945	0.18207	0.058534	0.22941	0.17576	0.065693	0.25066	0.12658	0.03169	0.38069	0.39132	0.30772	0.0057918	0.20681	0.15724	0.15323	-2.6396	-3.4833	-3.2438	-3.425	-3.7167	-3.3604	-3.6271	-3.7521	-3.2375	-3.5521	-3.4458	-3.3479	-3.7021	-3.6625	-3.4375	-3.5771	449.578	482.581	427.962	437.523	198.983	179.552	524.453	400.408	313.190	325.653	446.948	479.491	198.495	201.919	236.319	485.690	0.00074721	0.00069215	0.0003911	677.71	1.396e-05	3.1753e-06	641.84	278.96	5.7691e-06	8.4865e-06	292.69	129.5	126.84	70.06	1.108e-05	67.231	0.011963	0.018641	0.0052451	764.1	0.00019053	0.00020656	727.44	309.52	0.00018991	0.00020507	337.47	144.92	154.61	75.125	0.00019548	74.173	530.114	208.386	272.068	190.947	234.387	516.016	189.118	195.963	287.016	305.597	193.542	196.737	199.909	204.627	327.580	200.683	-8191	255	
1002.511	1	1	0	0	0.17349	0.16	0.090085	0.22586	0.29228	0.10771	0.14432	0.19682	0.1834	0.10284	0.112	0.21589	0.078735	0.19004	0.063879	0.10819	-2.7313	-3.5021	-3.5708	-3.2667	-3.5417	-3.4229	-3.6208	-3.6271	-3.3521	-3.4708	-3.5458	-3.2208	-3.6583	-3.5896	-3.2479	-3.6771	474.258	288.132	350.383	190.407	477.650	384.885	462.233	192.262	304.912	193.742	522.776	511.921	285.302	515.925	323.345	396.230	0.00072612	0.0012023	0.00049879	683.71	5.6142e-06	9.6425e-06	641.88	279.81	1.0098e-05	8.0672e-06	293.68	129.93	127.72	70.089	8.219e-06	67.548	0.011923	0.018719	0.005269	769.15	0.00019347	0.00020812	730.87	312.21	0.00019347	0.00020764	340.7	145.91	155.32	75.228	0.00019561	74.639	194.230	255.780	287.038	190.769	274.596	438.243	189.376	196.097	237.679	337.633	193.123	196.916	199.844	204.474	309.921	200.517	-8191	255	
1002.607	1	1	0	0	0.30657	0.062899	0.31103	0.3092	0.23883	0.17615	0.26351	0.14965	0.14316	0.1207	0.14723	0.37508	0.11198	0.16259	0.25568	0.16434	-2.7875	-3.4375	-3.4146	-3.2646	-3.4958	-3.2833	-3.3646	-3.5979	-3.2917	-3.6667	-3.5667	-3.2979	-3.5458	-3.5438	-3.4583	-3.7104	360.217	191.139	285.593	445.240	517.998	480.781	384.455	471.051	248.919	184.411	475.581	483.220	180.013	535.168	328.600	248.088	0.00089557	0.00079489	0.00028846	677.17	1.5607e-05	4.2685e-06	642.24	277.28	7.1216e-06	9.3321e-06	293.43	129.28	127.26	69.02	8.301e-06	65.511	0.011748	0.018888	0.00519	765.62	0.00019071	0.00020581	729.2	309.29	0.00018962	0.00020694	337.55	144.33	154.3	74.188	0.00019758	72.736	537.836	243.393	518.652	190.859	340.364	422.081	189.114	196.236	293.888	334.790	193.188	196.845	199.965	204.617	289.297	200.498	-8191	255	
1002.728	1	1	0	0	0.071091	0.05529	0.17095	0.25014	0.14331	0.13641	0.16738	0.24526	0.12753	0.063888	0.021093	0.20806	0.1701	0.2139	0.14147	0.15492	-2.7958	-3.2229	-3.6646	-3.1917	-3.6167	-3.3688	-3.2208	-3.7208	-3.2417	-3.3479	-3.4938	-3.375	-3.525	-3.6562	-3.2562	-3.8354	344.455	404.771	443.552	488.283	361.125	226.465	309.976	492.101	532.592	511.044	248.335	501.298	455.963	516.044	192.728	463.385	0.00056248	0.00050271	0.00011902	679.88	8.4245e-06	1.3403e-05	641.63	279.12	9.3887e-06	6.424e-06	292.46	129.09	127.02	69.175	3.2004e-06	65.749	0.011829	0.018862	0.0052432	766.03	0.00019108	0.00020564	727.87	310.89	0.00018848	0.00020288	337.27	144.06	154.22	74.313	0.00019294	72.639	189.060	250.203	251.803	191.215	252.555	247.403	189.048	196.206	302.829	529.012	193.238	197.060	200.073	204.606	474.594	200.442	-8191	255	
1002.824	1	1	0	0	0.080304	0.25413	0.076249	0.08224	0.065371	0.11244	0.35844	0.18171	0.13686	0.060575	0.11543	0.22585	0.18254	0.24623	0.080075	0.2429	-2.9292	-3.1813	-3.6271	-3.1104	-3.5208	-3.6396	-3.2938	-3.6417	-3.4188	-3.2542	-3.5812	-3.3229	-3.4167	-3.5354	-3.1208	-3.9271	350.241	351.246	527.892	526.900	360.247	501.560	189.015	392.275	181.891	186.463	506.073	448.840	427.850	472.046	494.976	447.898	0.00068703	0.0016457	0.00037987	674.46	9.1519e-06	1.2303e-05	640.68	278.32	4.2697e-06	1.4913e-05	291.7	129.13	127.59	68.792	6.9561e-06	66.14	0.011772	0.018769	0.0051844	763.87	0.00019066	0.00020641	726.95	310.47	0.00018941	0.00020482	336.91	143.85	154.48	74.064	0.0001934	73.002	189.398	195.034	488.010	190.733	388.046	315.468	189.137	196.150	184.367	384.720	193.470	197.080	199.919	204.399	338.272	200.578	-8191	255	
1002.920	1	1	0	0	0.017153	0.26417	0.17365	0.099888	0.15639	0.21847	0.25411	0.18726	0.16112	0.16897	0.23949	0.22695	0.049959	0.19828	0.18252	0.41255	-2.8833	-3.1229	-3.6875	-3.3542	-3.4271	-3.45	-3.3958	-3.5854	-3.4562	-3.2167	-3.6417	-3.2396	-3.4271	-3.8708	-3.3063	-3.5917	367.245	199.681	442.428	470.156	465.028	345.335	454.026	485.035	206.385	462.927	456.561	468.485	371.030	524.610	318.602	483.180	0.00064437	0.0021031	0.00037754	677.38	8.503e-06	1.1282e-05	639.64	278.13	9.5334e-06	1.1141e-05	294.05	128.96	125.41	69.255	5.8515e-06	66.551	0.011617	0.018474	0.0051426	762.93	0.00018775	0.00020289	725.99	309.4	0.00018988	0.00020568	338.01	144.35	153.8	74.167	0.00019577	73.594	186.938	214.516	449.611	190.867	362.850	372.317	189.066	196.081	325.855	315.208	193.372	196.901	199.972	204.654	363.830	200.752	-8191	255	
1003.017	1	1	0	0	0.14491	0.079502	0.17115	0.20321	0.13036	0.13076	0.038021	0.072223	0.10145	0.18834	0.067674	0.009183	0.13978	0.1569	0.13926	0.17933	-2.9729	-2.9729	-3.5208	-3.2292	-3.3833	-3.5271	-3.3625	-3.6813	-3.5083	-3.2042	-3.7125	-3.4833	-3.5146	-3.7062	-3.35	-3.7417	442.548	522.631	287.501	260.993	232.799	524.839	438.619	299.651	494.862	538.113	195.881	519.129	234.845	498.913	314.667	408.981	0.00069919	0.00036834	3.8646e-05	676.9	4.5017e-06	1.8763e-05	637.78	277.06	9.5882e-06	4.9166e-06	292.16	128.68	125.49	68.451	1.8236e-06	65.806	0.011759	0.018809	0.005213	762.73	0.00019019	0.00020592	723.75	308.22	0.00018958	0.0002045	336.22	143.53	152.9	73.529	0.00019503	72.782	186.208	213.968	374.480	190.793	243.448	334.060	189.255	196.169	286.541	430.515	193.213	197.117	199.569	204.757	455.419	200.689	-8191	255	
1003.111	1	1	0	0	0.16708	0.14992	0.035125	0.24491	0.18072	0.13947	0.16415	0.12167	0.092994	0.13148	0.26607	0.2302	0.38122	0.22928	0.17402	0.085183	-3.2167	-2.9833	-3.6562	-3.2479	-3.2021	-3.6542	-3.2917	-3.5563	-3.5583	-3.2479	-3.7062	-3.5125	-3.4771	-3.7104	-3.3854	-3.65	494.675	367.740	335.628	417.595	489.842	415.574	182.196	402.274	491.534	378.254	387.146	515.267	469.597	214.429	333.503	480.281	0.0006722	0.001261	0.00056475	675.16	4.7689e-06	6.027e-06	637.76	276	4.3652e-06	1.2191e-05	289.69	127.14	125.86	68.347	1.2298e-05	65.059	0.011794	0.018637	0.0051963	760.9	0.00018853	0.0002069	721.81	308.41	0.00018888	0.00020522	335.11	142.5	153.22	73.207	0.00019656	71.859	205.978	188.112	287.235	191.340	258.259	340.470	189.130	195.974	244.730	492.543	193.374	196.753	199.591	204.598	288.105	200.640	-8191	255	
1003.209	1	1	0	0	0.081199	0.39055	0.1032	0.20023	0.41254	0.29315	0.20338	0.14014	0.21247	0.15269	0.10864	0.17406	0.27909	0.010852	0.21805	0.14737	-3.2021	-3.1292	-3.5479	-3.4688	-3.1813	-3.5979	-3.3583	-3.5667	-3.7292	-3.3521	-3.6417	-3.5729	-3.3563	-3.7208	-3.4333	-3.2896	371.935	337.914	194.516	224.022	230.652	206.311	180.469	253.846	422.391	501.132	452.372	519.495	219.524	291.022	446.754	500.605	0.00067023	0.0011759	0.00017878	672.87	1.3244e-05	6.2324e-06	633.61	273.82	1.1509e-05	1.1998e-05	287.03	126.11	123.62	66.887	7.0879e-06	64.251	0.011817	0.018877	0.0052164	757.51	0.00019145	0.00020692	718.57	306.26	0.00019048	0.00020732	332.98	141.27	151.46	72.247	0.00019643	71.558	190.555	260.283	339.591	191.235	316.260	346.188	188.966	195.988	254.943	381.485	193.268	196.897	199.781	204.615	228.987	200.642	-8191	255	
1003.328	1	1	0	0	0.084239	0.20244	0.13134	0.14541	0.074378	0.059181	0.029755	0.11992	0.12241	0.24904	0.097256	0.25226	0.29472	0.2896	0.081359	0.13153	-3.3083	-3.2146	-3.5667	-3.5833	-3.2229	-3.7896	-3.3646	-3.4813	-3.5146	-3.2625	-3.6542	-3.65	-3.2979	-3.6188	-3.25	-3.2792	504.300	351.107	374.006	450.884	349.569	250.512	521.424	354.608	446.058	259.116	314.538	415.811	501.850	496.328	204.838	421.537	0.00078166	0.0013328	0.00039029	667.59	4.6545e-06	3.1053e-06	636.28	274.96	6.4699e-06	8.7176e-06	289.6	127.74	125.53	68.204	6.8421e-06	65.736	0.01186	0.018858	0.0052587	756.82	0.0001899	0.00020525	719.67	306.65	0.00019019	0.00020682	334.48	142.98	152.88	73.177	0.00019914	72.734	182.115	298.956	504.354	191.125	372.200	462.303	189.258	195.859	411.245	255.033	192.871	196.841	199.692	204.623	209.705	200.763	-8191	255	
1003.424	1	1	0	0	0.058158	0.066788	0.18646	0.080916	0.24797	0.19603	0.23238	0.25495	0.07447	0.05408	0.10219	0.23769	0.15076	0.14235	0.11496	0.10504	-3.1458	-3.2104	-3.5208	-3.5729	-3.1979	-3.6458	-3.5792	-3.2771	-3.475	-3.1625	-3.5958	-3.7375	-3.0271	-3.6625	-3.5146	-3.4375	342.232	340.137	190.719	260.724	395.981	185.987	495.675	409.265	537.108	338.271	453.893	501.985	253.090	467.795	419.186	509.141	0.00082147	0.0011429	0.00031407	670.56	7.8018e-06	1.6801e-05	636.17	273.01	6.3618e-06	4.9193e-06	287.21	125.99	123.68	66.474	2.1483e-06	64.481	0.012	0.018836	0.0053944	760.33	0.00019389	0.00021054	724.57	306.13	0.00019496	0.00021103	333.94	141.62	151.42	71.889	0.00019709	71.554	186.912	204.034	279.686	190.854	475.946	312.520	189.127	196.125	490.314	384.032	193.315	196.855	200.122	204.622	520.739	200.834	-8191	255	
1003.520	1	1	0	0	0.17335	0.17634	0.085796	0.15515	0.25231	0.22362	0.16639	0.31995	0.16086	0.24307	0.16811	0.22259	0.19605	0.16678	0.15098	0.21602	-3.2646	-3.1917	-3.2375	-3.6958	-3.2562	-3.5896	-3.3438	-3.4521	-3.5667	-3.475	-3.5312	-3.7	-3.3312	-3.5167	-3.4208	-3.4562	190.037	183.584	311.850	420.241	446.142	381.342	506.087	467.993	214.369	372.216	502.202	207.978	277.551	521.291	293.942	406.833	0.00071738	0.00096546	0.00016478	663.64	1.7868e-05	1.7937e-05	627.86	271.08	4.6092e-06	1.1928e-05	286.82	124.96	123.81	66.846	8.3605e-06	63.742	0.011856	0.018476	0.0052357	749.18	0.00019038	0.00020459	712.5	302.59	0.00018873	0.00020519	331.65	140.46	150.55	71.878	0.00019421	70.859	180.422	268.346	234.626	190.588	315.668	256.236	189.306	195.888	229.864	340.534	193.141	196.699	200.132	204.565	227.525	200.920	-8191	255	
1003.616	1	1	0	0	0.16832	0.062272	0.1507	0.24924	0.066134	0.25507	0.16873	0.24493	0.15834	0.12823	0.062298	0.058379	0.18608	0.2963	0.18541	0.21147	-3.1813	-3.0875	-3.4875	-3.8208	-3.2833	-3.4979	-3.7917	-3.4125	-3.5792	-3.3896	-3.275	-3.7729	-3.2083	-3.6125	-3.7125	-3.3208	468.371	219.548	348.687	485.760	484.523	357.747	531.169	477.104	388.090	474.591	190.326	469.001	518.695	412.467	397.328	504.958	0.00083214	0.00037756	7.2465e-05	669.42	7.7078e-06	4.3998e-06	632.22	274.5	9.6262e-06	5.5104e-06	288.73	126.04	124.31	66.994	1.3867e-05	64.158	0.011815	0.018568	0.0052825	756.85	0.00019031	0.00020493	718.94	306.85	0.00018911	0.00020531	333.57	141.29	151.12	72.236	0.00019368	71.021	181.453	371.066	203.814	190.988	378.060	433.350	188.991	195.912	205.852	321.453	193.352	196.693	199.940	204.487	268.556	200.729	-8191	255	
1003.712	1	1	0	0	0.21367	0.11026	0.18759	0.18759	0.12887	0.27222	0.20306	0.14917	0.37638	0.13259	0.26939	0.23196	0.067182	0.23717	0.18609	0.12328	-3.3417	-3.4958	-3.2354	-3.7	-3.4	-3.4333	-3.6604	-3.1458	-3.4792	-3.3792	-3.1146	-3.6562	-3.3542	-3.5917	-3.7021	-3.1333	435.489	295.631	400.150	503.488	522.608	490.423	455.251	417.857	296.564	364.734	242.377	506.361	339.403	536.459	245.284	504.144	0.00072195	0.0014517	0.00033363	672.28	7.6964e-06	7.4474e-06	634.74	273.7	6.6842e-06	4.389e-06	286.88	126.27	124.56	66.91	5.9845e-06	64.515	0.011633	0.018443	0.0052166	756.58	0.00018904	0.00020344	719.22	305.58	0.00018918	0.00020462	333.15	141.3	150.85	72.172	0.00019284	71.558	529.734	246.027	279.433	191.009	291.043	370.823	188.963	195.912	311.925	198.527	193.256	196.729	200.128	204.787	348.242	200.564	-8191	255	
1003.808	1	1	0	0	0.28559	0.25608	0.079174	0.16421	0.11327	0.056329	0.013531	0.29267	0.041277	0.004451	0.03092	0.12704	0.094955	0.28913	0.025599	0.10073	-3.1813	-3.3479	-3.1	-3.7062	-3.2958	-3.3833	-3.7604	-3.1729	-3.5646	-3.475	-3.4083	-3.6167	-3.2875	-3.4938	-3.65	-3.2979	249.009	402.165	313.696	289.331	393.559	196.526	270.528	185.696	387.390	294.224	435.478	464.294	392.094	190.681	300.743	510.808	0.00071109	0.00038797	0.00043713	670.94	7.1277e-06	9.974e-06	636.82	275.04	5.6462e-06	2.6269e-06	291.04	127.65	125.33	67.205	9.1954e-06	65.497	0.011609	0.018222	0.0051742	754.02	0.00018535	0.0002009	719.24	305.42	0.00018585	0.0002	334.43	142.21	151.14	72.436	0.00019095	72.523	187.030	270.645	338.190	190.882	298.017	511.204	189.108	196.102	426.288	222.466	193.042	196.730	199.857	204.525	327.560	200.932	-8191	255	
1003.905	1	1	0	0	0.038251	0.18924	0.043751	0.14845	0.054086	0.14492	0.075374	0.21741	0.12371	0.085089	0.040062	0.312	0.15696	0.2334	0.084365	0.072396	-3.2854	-3.4146	-3.0458	-3.7562	-3.2521	-3.1917	-3.7687	-3.2958	-3.3312	-3.5042	-3.3354	-3.6875	-3.5104	-3.3354	-3.6833	-3.3771	388.295	390.999	381.506	533.663	334.286	206.460	405.610	332.475	482.326	401.097	280.987	462.649	404.182	537.091	482.901	440.081	0.0006313	0.00064139	0.00019174	669.05	4.2251e-06	7.7479e-06	639.13	273.94	2.3456e-06	4.376e-06	289.73	126.57	124.56	67.07	7.2809e-06	64.831	0.011506	0.018124	0.0051454	752.54	0.00018736	0.00020167	720.69	304.35	0.00018772	0.00020111	333.93	141.87	150.6	72.065	0.00019024	71.572	193.932	242.603	265.358	190.741	323.093	475.352	189.306	196.020	290.977	499.595	193.044	196.858	199.714	204.755	252.837	200.702	-8191	255	
1004.023	1	1	0	0	0.12418	0.070744	0.13394	0.24013	0.069903	0.18952	0.24486	0.414	0.12	0.07415	0.1413	0.096032	0.12317	0.24329	0.10051	0.13187	-3.2646	-3.4771	-3.1792	-3.7229	-3.4646	-3.3271	-3.6854	-3.3708	-3.5208	-3.8229	-3.4313	-3.7521	-3.5896	-3.4417	-3.6125	-3.5396	441.431	500.774	462.904	508.245	306.842	449.699	484.606	437.775	441.648	198.663	469.884	389.789	454.529	189.731	508.152	370.239	0.00068786	0.00095609	0.00024003	671.48	1.5373e-05	8.7281e-06	634.21	274.31	6.1568e-06	6.788e-07	289.8	127.53	124.69	66.718	3.5365e-06	64.136	0.011424	0.01786	0.005064	752.46	0.00018148	0.00019792	716.6	304.68	0.00018381	0.00019722	332.84	141.63	150.3	71.734	0.00018589	70.712	190.337	271.173	269.426	191.136	323.090	213.984	188.862	195.842	229.190	400.141	193.024	196.833	200.152	204.666	391.714	200.671	-8191	255	
1004.120	1	1	0	0	0.27199	0.084611	0.0073314	0.084128	0.21875	0.23339	0.083025	0.15941	0.13118	0.018942	0.32831	0.19217	0.17571	0.17713	0.32574	0.13107	-2.9896	-3.4688	-3.1146	-3.5521	-3.2292	-3.1083	-3.6583	-3.425	-3.4229	-3.7812	-3.25	-3.6604	-3.4813	-3.3354	-3.675	-3.3604	231.778	367.187	314.056	456.596	507.940	195.514	454.635	435.533	386.441	292.229	236.765	522.211	215.076	520.850	241.178	482.374	0.00076821	0.00038917	0.00048705	674.23	4.5313e-06	1.3052e-05	636.79	274.38	6.7811e-06	9.7309e-06	290.41	127.19	124.63	66.909	1.2691e-05	64.681	0.011201	0.017518	0.0048981	752.15	0.00017765	0.00019305	717.05	304.26	0.00017888	0.00019251	332.28	141.29	149.31	71.609	0.00018152	70.886	178.482	197.779	320.659	190.948	182.436	361.813	189.351	195.945	346.452	360.674	193.128	196.835	200.101	204.727	272.462	200.581	-8191	255	
1004.191	1	1	0	0	0.025788	0.30659	0.14709	0.032097	0.052139	0.229	0.18724	0.35442	0.1972	0.16716	0.097823	0.1322	0.16849	0.28499	0.1127	0.28888	-2.8125	-3.7313	-3.2479	-3.6146	-3.5354	-3.2583	-3.7792	-3.5167	-3.2687	-3.7229	-3.325	-3.7208	-3.5979	-3.4104	-3.4646	-3.4229	423.927	253.226	384.800	250.006	520.056	195.409	483.606	460.235	188.703	485.268	385.424	523.510	204.995	512.251	358.776	504.171	0.00060053	0.0012689	0.00014066	671.23	8.122e-06	9.6934e-06	642.34	275.5	8.0176e-06	7.1593e-06	292.56	128.62	125.72	67.333	6.6259e-06	65.775	0.010956	0.017209	0.0048492	749.82	0.00017746	0.00019175	718.18	304.37	0.00017978	0.00019382	334.67	142.78	150.64	72.268	0.00018598	72.565	180.946	189.416	227.502	191.158	362.563	396.113	188.875	196.116	271.188	339.391	193.290	196.902	199.710	204.768	321.104	200.558	-8191	255	
1004.289	1	1	0	0	0.11629	0.20818	0.14274	0.15097	0.11577	0.11951	0.23992	0.175	0.086944	0.20477	0.31416	0.18725	0.31691	0.45933	0.034139	0.04873	-2.8	-3.5563	-3.1604	-3.4813	-3.6104	-3.1958	-3.5604	-3.5333	-3.2354	-3.6104	-3.4104	-3.4938	-3.6292	-3.4125	-3.6896	-3.5187	518.263	409.750	180.185	199.746	347.446	349.073	465.810	455.588	445.601	425.285	474.551	419.842	395.576	472.439	422.258	481.797	0.00070445	0.00065697	0.00022347	674.15	8.1766e-06	1.2216e-05	642.19	277.69	6.2691e-06	7.387e-06	294.89	128.86	124.93	67.106	8.4282e-06	65.091	0.011195	0.017536	0.0049419	755.87	0.00018086	0.00019554	724.96	306.38	0.00018312	0.00019588	337.28	143.24	150.99	72	0.00018813	71.93	188.381	387.916	307.017	191.384	286.541	314.574	189.469	195.981	473.736	330.007	193.520	196.800	200.544	204.743	261.333	200.705	-8191	255	
1004.408	1	1	0	0	0.19956	0.19584	0.1943	0.41363	0.041929	0.33067	0.17432	0.17423	0.12747	0.032942	0.18888	0.12761	0.26021	0.064134	0.2046	0.44525	-2.8292	-3.6542	-3.2229	-3.4917	-3.5312	-3.1188	-3.5979	-3.7604	-3.125	-3.5542	-3.6	-3.3771	-3.6312	-3.3479	-3.5104	-3.6708	381.113	349.313	416.336	467.233	271.827	360.897	521.351	473.656	413.829	508.096	488.512	530.380	489.640	489.829	296.379	432.676	0.00079962	0.00069564	0.00016227	672.16	7.1333e-06	2.9241e-05	644.03	275.67	1.0333e-05	9.8602e-06	293.41	128.4	124.44	67.114	1.8724e-05	64.659	0.011212	0.017525	0.0049446	754.11	0.00018044	0.000195	722.47	305.6	0.00018131	0.00019488	335.08	142.61	150.66	71.852	0.00018764	71.38	192.645	364.010	455.446	190.655	322.407	353.671	189.099	196.187	453.822	466.044	193.076	196.940	200.416	204.692	291.368	200.720	-8191	255	
1004.504	1	1	0	0	0.10883	0.074156	0.066896	0.15227	0.19274	0.167	0.051627	0.16244	0.19417	0.18151	0.070004	0.13389	0.22331	0.12083	0.22586	0.32311	-2.7625	-3.6833	-3.4708	-3.2854	-3.5875	-3.2479	-3.575	-3.5792	-3.1521	-3.6437	-3.5667	-3.3208	-3.575	-3.4771	-3.5042	-3.6958	296.895	316.162	342.628	456.911	347.075	298.975	522.892	254.862	244.212	431.386	401.017	494.028	495.546	192.491	405.640	429.346	0.00076812	0.00057427	0.00032654	673.38	1.0784e-05	9.4719e-06	639.69	276.97	1.026e-05	4.4277e-06	293.38	128.21	124.67	67.072	4.2889e-06	65.185	0.011306	0.017905	0.0050516	757.19	0.00018551	0.00020228	724.63	307.81	0.00018767	0.00020351	336.93	143.48	151.87	72.195	0.00019933	72.184	204.437	215.858	224.041	191.146	327.850	326.378	189.369	196.186	261.863	393.926	193.347	196.871	199.746	204.729	340.963	200.480	-8191	255	
1004.600	1	1	0	0	0.24439	0.03403	0.032798	0.19759	0.054874	0.092257	0.41472	0.13012	0.063634	0.22936	0.13306	0.13948	0.20119	0.19684	0.19344	0.11653	-2.7958	-3.5417	-3.2188	-3.2271	-3.5375	-3.4562	-3.4688	-3.6688	-3.3104	-3.5938	-3.2958	-3.4146	-3.5271	-3.3646	-3.3646	-3.8271	403.491	374.949	479.707	455.977	211.536	519.965	196.588	475.147	251.990	385.067	463.660	203.691	228.748	510.427	493.394	515.069	0.00077686	0.00098241	0.00026959	674.74	8.6412e-06	8.7613e-06	640.06	272.93	1.2976e-05	1.2042e-05	289.9	128.03	124.02	67.211	1.0239e-05	65.839	0.011965	0.018871	0.0053394	762.85	0.00019698	0.00021267	727.34	306.87	0.00019708	0.00021689	337.7	143.79	152.16	72.455	0.00020366	73.129	192.520	205.375	285.186	190.788	262.318	266.426	189.129	195.928	382.964	290.232	193.205	196.849	199.960	204.678	302.614	200.566	-8191	255	
1004.721	1	1	0	0	0.28305	0.048692	0.28323	0.26236	0.18426	0.50591	0.3433	0.11739	0.16546	0.14711	0.13757	0.04054	0.078895	0.31582	0.019079	0.18469	-2.8958	-3.5625	-3.3438	-3.2854	-3.5708	-3.4417	-3.4667	-3.7229	-3.3146	-3.4396	-3.4875	-3.2292	-3.6458	-3.4354	-3.3792	-3.8563	218.464	252.508	426.761	463.633	415.092	237.263	427.460	438.806	205.409	393.400	380.718	222.071	489.071	535.823	212.609	468.791	0.00073994	0.002254	0.00013608	670.96	1.5931e-05	1.318e-05	637.01	271.88	2.479e-06	4.6128e-06	290.44	127.99	124.31	67.349	1.808e-05	66.257	0.012181	0.019059	0.0053762	760.72	0.00019705	0.00021364	726.24	306.75	0.00019626	0.00021618	338.37	144.12	152.1	72.536	0.00020369	73.721	185.906	308.635	450.691	191.208	269.536	288.888	189.093	195.963	299.209	398.863	193.258	197.099	200.062	204.624	319.759	200.868	-8191	255	
1004.793	1	1	0	0	0.10216	0.26077	0.03368	0.19578	0.27955	0.15519	0.12798	0.1277	0.05162	0.068555	0.1857	0.145	0.060862	0.12763	0.1992	0.14802	-2.8979	-3.4792	-3.6479	-3.2208	-3.5854	-3.6813	-3.4104	-3.7646	-3.2229	-3.4854	-3.7354	-3.4188	-3.4854	-3.6437	-3.2708	-3.4042	278.760	197.229	341.259	483.694	456.149	288.566	389.150	501.364	387.648	357.854	180.503	190.131	216.321	207.485	466.697	498.397	0.00062222	0.00040318	0.00012969	669.11	4.3361e-06	8.9334e-06	636.35	272.49	1.5783e-05	1.3933e-05	290.16	127.59	122.74	66.412	2.3295e-05	64.959	0.012014	0.018795	0.0053075	755.94	0.00019245	0.0002092	724.98	304.11	0.00019236	0.00021027	336.4	142.92	150.81	71.68	0.00020185	72.183	181.771	314.408	512.345	190.794	431.201	241.996	188.985	196.179	315.734	219.528	192.858	197.054	200.601	204.752	295.960	200.639	-8191	255	
1004.889	1	1	0	0	0.2455	0.093844	0.073693	0.2916	0.21769	0.28207	0.23552	0.16297	0.13188	0.2057	0.171	0.22026	0.17678	0.1541	0.11124	0.15332	-2.9042	-3.2833	-3.5417	-3.1521	-3.475	-3.4521	-3.3604	-3.6042	-3.3167	-3.2729	-3.6646	-3.3479	-3.6167	-3.6167	-3.3229	-3.6042	482.890	479.976	511.695	408.417	533.111	261.125	498.407	444.375	245.623	245.695	434.039	479.911	205.958	261.556	278.383	356.438	0.00080959	0.00016977	0.00019967	669.36	1.574e-05	1.1886e-05	638.77	271.14	9.3382e-06	1.1886e-05	288.85	127.1	122.55	66.386	6.2784e-06	64.626	0.012009	0.018799	0.0053072	755.46	0.00019422	0.00020874	724.57	304.67	0.00019197	0.00021168	335.88	142.59	150.89	71.685	0.00020031	71.951	187.352	460.388	205.670	190.959	280.185	312.204	189.204	196.147	289.184	275.415	193.120	196.782	200.182	204.790	408.848	200.861	-8191	255	
1005.009	1	1	0	0	0.17072	0.053716	0.19054	0.18676	0.18954	0.13244	0.10404	0.014772	0.17084	0.092684	0.22731	0.15567	0.065243	0.24041	0.40882	0.28678	-2.8083	-3.3896	-3.5146	-3.0646	-3.5687	-3.5521	-3.1042	-3.7083	-3.2042	-3.2188	-3.6854	-3.3146	-3.4271	-3.7583	-3.1688	-3.7396	255.818	451.396	194.474	178.720	250.761	294.820	213.991	519.060	252.907	439.538	187.796	454.554	491.960	526.596	282.681	290.397	0.00061894	0.00080326	0.00033913	664.2	1.7032e-05	1.0334e-05	632.48	269.66	8.8604e-06	5.4568e-06	287.96	127.54	123.47	66.621	3.4208e-06	65.133	0.011997	0.018811	0.0052831	751.19	0.00019563	0.00020839	719.12	302.39	0.00019142	0.00020827	333.78	142.36	149.79	71.634	0.00019501	72.296	183.176	251.267	285.861	190.992	345.477	227.865	189.354	195.960	349.787	315.179	193.501	196.969	200.045	204.592	206.938	200.574	-8191	255	
1005.104	1	1	0	0	0.17684	0.082672	0.18255	0.11637	0.30307	0.11933	0.40643	0.060289	0.12854	0.18677	0.090661	0.28565	0.25503	0.16651	0.1633	0.30311	-3.0729	-3.3979	-3.7104	-3.325	-3.2771	-3.5938	-3.2542	-3.575	-3.4437	-3.3458	-3.7917	-3.5312	-3.3458	-3.7021	-3.1604	-3.5833	335.656	531.544	298.314	400.618	343.808	293.542	462.687	398.730	416.239	391.372	215.961	497.584	467.486	514.825	395.804	465.676	0.0005693	0.00025518	0.00045294	663.09	8.4992e-06	4.1658e-06	633.88	272.7	8.6489e-06	1.6004e-05	291.44	129.59	123.73	66.958	5.6392e-06	65.931	0.011653	0.018305	0.0051605	750.16	0.00019184	0.00020276	720.04	304.42	0.00018845	0.00020682	336.55	143.88	151	71.969	0.00019371	73.097	191.291	483.248	336.921	190.820	360.186	456.479	189.264	196.020	214.478	234.623	193.041	196.789	200.089	204.631	300.851	200.596	-8191	255	
1005.200	1	1	0	0	0.16342	0.20721	0.16523	0.25567	0.3123	0.21477	0.054618	0.21572	0.1046	0.17605	0.31437	0.28608	0.31653	0.29256	0.23641	0.2205	-2.9938	-3.2042	-3.4667	-3.3104	-3.2917	-3.5875	-3.3333	-3.4292	-3.4021	-3.2583	-3.6375	-3.45	-3.4313	-3.8063	-3.1875	-3.4833	534.630	388.806	247.674	507.496	364.095	281.999	446.648	510.110	493.154	522.126	326.186	507.197	190.597	495.784	262.821	266.403	0.00074497	0.0012746	0.00026999	666.57	4.2592e-06	1.702e-05	642.65	273.12	7.1011e-06	2.4748e-06	291.71	127.41	123.39	65.993	3.8629e-06	64.6	0.011645	0.018427	0.0051564	750.62	0.00019012	0.00020322	723.56	303.65	0.0001869	0.00020563	335.64	143	149.67	71.071	0.00019318	71.597	188.864	373.175	350.338	191.008	531.723	431.999	189.144	195.898	299.718	525.722	193.302	196.829	200.415	204.726	395.066	200.907	-8191	255	
1005.321	1	1	0	0	0.19806	0.098076	0.095671	0.041426	0.13938	0.17536	0.33955	0.018234	0.14804	0.21313	0.1242	0.34108	0.15983	0.33874	0.14971	0.40357	-2.9979	-3.2062	-3.4917	-3.4771	-3.3604	-3.5	-3.1271	-3.3625	-3.4125	-3.1521	-3.5729	-3.4083	-3.2271	-3.5438	-3.15	-3.4917	487.137	350.644	334.075	456.023	272.664	529.833	522.909	500.292	398.434	415.327	202.212	516.591	197.644	463.835	268.210	509.964	0.00063435	0.00025566	0.00020138	659.41	1.2384e-05	5.7235e-06	636.13	272.89	6.4404e-06	1.3595e-05	290.3	127.53	123.45	66.162	8.4045e-06	64.195	0.011654	0.018351	0.0051447	747.01	0.00018979	0.00020284	719.73	303.69	0.00018716	0.00020397	335.46	142.3	149.95	71.207	0.0001929	71.215	191.289	183.231	249.872	190.795	333.975	337.907	189.023	196.037	356.157	385.429	192.835	197.219	200.047	204.565	339.295	200.712	-8191	255	
1005.417	1	1	0	0	0.10143	0.18613	0.10976	0.16784	0.14747	0.12725	0.18332	0.081981	0.09946	0.24674	0.15752	0.17392	0.029649	0.28456	0.18618	0.23245	-3.0563	-3.1333	-3.7188	-3.5604	-3.3479	-3.575	-3.2542	-3.5062	-3.625	-3.1937	-3.5312	-3.4208	-3.3854	-3.6708	-3.3688	-3.4813	185.160	531.216	480.853	495.860	415.346	191.558	517.465	377.704	391.712	516.265	406.068	255.794	205.475	199.053	210.035	480.588	0.0007503	0.0010464	0.00010847	667.45	2.6646e-06	3.9727e-06	639.17	274.6	6.1225e-06	2.6903e-06	288.86	128.23	122.46	66.059	1.3618e-06	64.867	0.01164	0.018313	0.0051225	751.93	0.00018929	0.00020406	721.76	305.03	0.00018976	0.00020457	335.72	142.66	150.11	71.338	0.00019719	71.925	185.052	392.186	387.246	190.994	208.218	322.375	189.390	195.990	387.271	194.097	193.241	196.822	199.604	204.605	191.159	200.837	-8191	255	
1005.488	1	1	0	0	0.16269	0.15903	0.1462	0.17717	0.13245	0.22163	0.13661	0.24282	0.23454	0.18339	0.22618	0.2889	0.25844	0.23739	0.1518	0.2636	-3.1354	-3.0375	-3.4437	-3.725	-3.2521	-3.6437	-3.3979	-3.3042	-3.5292	-3.2771	-3.6292	-3.6396	-3.0938	-3.7479	-3.3812	-3.4896	201.162	428.787	410.100	438.637	399.590	342.625	386.115	465.663	487.024	422.834	462.979	192.285	479.405	532.974	256.518	515.125	0.0006373	0.0011165	0.00020869	659.23	1.1257e-05	9.0738e-06	633.48	273.64	1.257e-05	9.3335e-06	293.15	127.89	123.43	66.529	1.6464e-05	65.913	0.011949	0.018893	0.005327	753.33	0.00019631	0.00021087	724.23	305.53	0.0001931	0.00021167	338.65	143.5	150.99	71.728	0.00019887	72.905	536.861	315.283	270.922	190.993	324.109	350.963	189.399	196.229	281.774	447.582	193.439	197.200	200.119	204.714	307.488	200.734	-8191	255	
1005.585	1	1	0	0	0.1153	0.18194	0.18759	0.12322	0.19522	0.097334	0.19542	0.085628	0.13672	0.17124	0.23688	0.20587	0.36134	0.20243	0.25395	0.26071	-3.2208	-3.2208	-3.3542	-3.5729	-3.1562	-3.6292	-3.3875	-3.4479	-3.7	-3.4021	-3.6	-3.5333	-3.1646	-3.7208	-3.5104	-3.4292	321.134	260.114	241.558	515.900	495.546	492.808	300.229	406.599	506.841	388.954	239.939	215.824	204.517	220.815	243.129	510.181	0.00066668	0.001401	0.00050927	663.15	1.3253e-05	1.6838e-05	638.73	274.26	8.9136e-06	1.1911e-05	291.05	128.5	123.34	66.455	1.289e-05	66.178	0.011947	0.018728	0.0052861	753.58	0.00019384	0.00020968	725.68	305.69	0.00019161	0.00020681	338.64	143.63	150.34	71.563	0.00019474	73.044	536.727	294.856	307.536	190.775	291.462	509.184	189.106	196.261	304.018	450.773	193.388	196.874	199.977	204.669	398.069	200.648	-8191	255	
1005.705	1	1	0	0	0.094976	0.22652	0.1702	0.14246	0.17062	0.2556	0.083522	0.21143	0.13107	0.27033	0.075482	0.1597	0.16665	0.32731	0.083495	0.11234	-3.3167	-3.2708	-3.2188	-3.5375	-3.0792	-3.5854	-3.5771	-3.2354	-3.6979	-3.2625	-3.2313	-3.6875	-3.2313	-3.7479	-3.4208	-2.9542	443.578	213.311	219.200	192.128	290.985	482.368	379.950	490.418	382.517	478.644	179.511	198.900	206.159	525.772	462.502	457.697	0.00078785	0.0013878	0.00016928	662.92	1.4984e-05	2.1485e-05	639.35	273.06	8.3907e-06	1.3494e-05	292.1	127.29	123.07	66.105	3.0304e-06	64.636	0.011612	0.018329	0.0051298	748.8	0.00018755	0.00020422	722.77	303.66	0.00018808	0.00020478	337.37	142.45	149.95	71.208	0.00019684	71.757	192.993	272.300	403.545	190.962	532.383	339.300	189.640	196.035	277.484	338.473	193.335	197.025	199.771	204.822	528.060	200.667	-8191	255	
1005.801	1	1	0	0	0.093563	0.075635	0.12915	0.043432	0.17077	0.057263	0.071686	0.18425	0.13193	0.17422	0.10583	0.23581	0.33097	0.22599	0.15664	0.27478	-3.2104	-3.3042	-3.175	-3.6562	-3.0875	-3.5938	-3.7375	-3.2167	-3.6021	-3.3854	-3.3417	-3.8021	-3.1646	-3.6604	-3.6167	-3.1583	446.550	411.568	338.499	536.001	452.898	461.621	519.580	201.602	184.979	453.925	441.374	185.816	503.958	432.637	426.799	446.510	0.00081587	0.0011109	9.2757e-05	668.82	2.8971e-06	6.1062e-06	638.46	272.8	4.4852e-06	1.192e-05	290.87	127.56	122.07	65.649	1.2431e-05	64.12	0.011784	0.018553	0.0051865	753.62	0.00018896	0.00020526	721.67	303.93	0.00018682	0.00020168	335.65	141.94	149.18	70.797	0.00019642	71.287	193.613	360.894	520.151	191.150	295.259	345.989	188.930	196.058	234.091	370.727	193.210	196.838	200.119	204.752	347.382	200.930	-8191	255	
1005.898	1	1	0	0	0.094629	0.15172	0.24162	0.10942	0.073952	0.19881	0.14025	0.17905	0.077591	0.3175	0.34925	0.13035	0.15943	0.28717	0.1809	0.15053	-3.2625	-3.2958	-3.2417	-3.6542	-3.2562	-3.5208	-3.5938	-3.1646	-3.6437	-3.4521	-3.2021	-3.6729	-3.2542	-3.7562	-3.5812	-3.3979	283.552	298.707	460.691	521.512	236.618	448.372	445.888	221.655	319.088	343.988	422.029	196.489	204.339	517.572	392.082	420.826	0.00065454	0.0019934	0.00045121	664.66	6.0263e-06	1.2182e-05	635.04	270.23	9.9123e-06	3.5021e-06	289.47	127.45	122.71	65.861	7.748e-06	64.935	0.01194	0.018779	0.0052312	750.32	0.00019032	0.00020748	722.05	302.57	0.00018808	0.00020259	335.96	142.32	149.29	71.094	0.00019329	72.04	183.575	282.147	360.103	190.786	265.805	197.137	189.073	196.005	200.763	234.729	193.286	196.844	200.010	204.912	297.231	200.540	-8191	255	
1005.994	1	1	0	0	0.18949	0.1259	0.073032	0.040582	0.20756	0.22379	0.11082	0.24521	0.16981	0.10401	0.098782	0.13898	0.11211	0.28546	0.23031	0.26108	-3.1104	-3.3458	-3.2479	-3.7333	-3.2729	-3.3146	-3.6583	-3.2792	-3.5479	-3.3958	-3.25	-3.7583	-3.4458	-3.4646	-3.6437	-3.3667	442.007	405.054	505.248	381.410	221.510	256.546	317.899	514.580	464.711	442.458	414.896	503.725	416.354	480.245	415.129	196.349	0.00058487	0.00083298	0.00031711	666.01	3.2245e-06	1.2987e-05	643.97	272.23	8.5708e-06	1.0675e-05	292.93	128.64	124.32	66.333	9.9328e-06	65.208	0.011823	0.018487	0.0051402	751.43	0.00018941	0.00020717	726.01	304.37	0.0001882	0.00020416	338.34	143.17	150.13	71.48	0.0001925	72.489	190.506	231.294	183.883	191.159	350.892	298.902	189.203	196.193	252.496	281.614	193.146	196.842	199.784	204.877	271.453	200.607	-8191	255	
1006.088	1	1	0	0	0.15708	0.17434	0.18378	0.31024	0.20465	0.21985	0.10912	0.2623	0.14372	0.089734	0.077079	0.18329	0.1268	0.40998	0.1796	0.27826	-3.0271	-3.3125	-3.2375	-3.6583	-3.3042	-3.225	-3.7292	-3.2354	-3.4042	-3.4875	-3.4083	-3.7083	-3.475	-3.2875	-3.7687	-3.4042	373.053	297.000	190.391	514.396	459.702	333.853	369.115	476.456	224.774	238.020	306.819	486.571	250.342	472.343	184.312	523.026	0.00065237	0.00099785	0.00035861	666.1	1.2775e-05	1.2388e-05	638.12	272.73	2.9927e-06	6.925e-06	290.01	127.17	121.88	65.529	4.1981e-06	64.107	0.011766	0.018231	0.0051293	749.94	0.00018752	0.00020526	722.82	302.8	0.00018811	0.00020362	335.57	141.96	148.62	70.389	0.00019318	71.022	201.341	291.552	314.139	190.764	361.904	317.177	189.349	196.265	243.538	478.400	193.488	197.266	200.255	204.695	248.991	200.745	-8191	255	
1006.184	1	1	0	0	0.10443	0.27226	0.11091	0.053899	0.24565	0.28467	0.2117	0.25464	0.058332	0.19817	0.047358	0.17231	0.1885	0.19234	0.18514	0.15486	-3.1042	-3.6729	-3.075	-3.5708	-3.3792	-3.2979	-3.6292	-3.2292	-3.4813	-3.5979	-3.2875	-3.6167	-3.4021	-3.4708	-3.6667	-3.6417	328.339	287.107	415.430	403.157	249.026	263.096	424.630	508.488	412.470	327.454	224.721	398.967	218.984	444.927	417.799	445.429	0.00077561	0.00037045	0.00025716	667.05	5.434e-06	7.7842e-06	638.34	271.66	6.6056e-06	6.4337e-06	289.09	126.87	122.2	65.855	1.4748e-05	63.829	0.01184	0.018379	0.0051474	751.25	0.00018966	0.0002088	721.91	303.4	0.00019121	0.00020832	335.64	142	149.95	70.853	0.00019976	71.176	204.987	418.864	510.999	191.020	179.771	502.921	188.997	195.927	295.503	249.801	193.453	196.862	199.842	204.752	312.001	200.723	-8191	255	
1006.282	1	1	0	0	0.14434	0.10166	0.15047	0.34253	0.074173	0.093187	0.26345	0.054026	0.031693	0.075418	0.037215	0.35745	0.22241	0.29033	0.10762	0.048677	-2.8958	-3.5854	-3.1521	-3.4	-3.4437	-3.2604	-3.675	-3.5708	-3.4083	-3.7438	-3.2354	-3.5958	-3.5667	-3.25	-3.7083	-3.3958	486.454	526.690	413.737	228.705	290.737	449.030	392.169	311.114	381.388	354.350	180.454	500.957	205.481	178.574	371.191	252.949	0.00056676	0.00035173	0.00069186	667.77	9.1689e-06	7.2384e-06	637.09	272.3	1.2831e-05	4.3739e-06	289.24	125.92	121.96	65.257	7.3646e-06	64.36	0.012073	0.018695	0.0052531	751.62	0.00019217	0.0002111	723.4	303.54	0.00019299	0.0002122	336.02	141.81	149.59	70.639	0.00020119	71.565	186.956	275.459	313.552	191.107	316.909	383.226	189.248	196.035	354.246	292.737	193.247	196.958	199.773	204.816	241.799	200.923	-8191	255	
1006.401	1	1	0	0	0.053918	0.10841	0.12226	0.13807	0.17883	0.16626	0.12104	0.14511	0.25638	0.13536	0.14652	0.3397	0.13994	0.12215	0.1156	0.14325	-2.9833	-3.6646	-3.0729	-3.4833	-3.5667	-3.2375	-3.7562	-3.5729	-3.4021	-3.5521	-3.3125	-3.8063	-3.6417	-3.4104	-3.5333	-3.3688	214.169	310.080	223.387	497.361	253.944	316.661	310.713	475.176	337.815	204.891	489.550	520.087	338.050	483.946	314.481	227.749	0.0006653	0.0014977	0.00018069	660.64	7.7315e-06	1.1928e-05	635.55	268.3	7.3672e-07	1.3052e-05	290.49	127.91	122.17	66.175	6.5754e-06	65.964	0.012126	0.019074	0.005339	749.87	0.00019416	0.00021084	722.92	302.57	0.0001949	0.00021157	337.19	143.54	150.13	71.401	0.00020049	72.912	183.239	328.568	451.952	190.888	232.102	387.871	189.425	196.106	277.637	335.373	192.972	196.965	200.220	204.831	427.754	200.863	-8191	255	
1006.497	1	1	0	0	0.050341	0.2486	0.26891	0.19507	0.20267	0.004553	0.038988	0.31747	0.26298	0.068804	0.14328	0.254	0.25442	0.31214	0.18882	0.076234	-2.7604	-3.5958	-3.2354	-3.5417	-3.5938	-3.2604	-3.65	-3.5438	-3.3021	-3.6813	-3.4813	-3.6167	-3.6437	-3.4833	-3.5604	-3.6604	257.635	382.437	305.231	507.445	374.707	422.683	222.024	488.219	506.216	399.940	196.102	246.827	508.154	494.216	260.262	208.857	0.00051397	0.00071267	0.00026494	663.24	7.6594e-06	7.8628e-06	636.7	269.6	9.4608e-06	1.3264e-05	291.02	127.57	121.52	65.415	7.6959e-06	64.781	0.01222	0.019122	0.0053828	753.06	0.00019552	0.00021069	725.86	302.71	0.00019446	0.00020964	336.28	143.09	149.17	70.686	0.00019866	71.938	184.020	250.795	316.357	191.040	313.898	489.104	189.441	196.217	315.356	327.880	193.396	197.099	200.255	204.663	369.883	200.995	-8191	255	
1006.593	1	1	0	0	0.30227	0.047697	0.062122	0.18494	0.01817	0.23277	0.16091	0.10727	0.15635	0.087684	0.11195	0.22943	0.2625	0.33286	0.21519	0.22075	-2.7271	-3.5	-3.3417	-3.3229	-3.6521	-3.225	-3.7104	-3.7021	-3.1375	-3.6063	-3.4604	-3.5396	-3.675	-3.4208	-3.5875	-3.5708	214.599	227.828	217.664	402.827	250.600	477.476	491.668	241.879	338.382	338.722	464.990	244.915	428.278	466.390	342.042	483.020	0.00074086	0.0011897	0.00023175	657.48	7.693e-06	4.5832e-06	631.27	264.9	7.8517e-06	1.0427e-06	286.35	125.39	120.16	64.796	4.2339e-06	63.873	0.01213	0.018889	0.0053085	745.23	0.00019282	0.00021002	718.73	298.2	0.00019338	0.000209	331.57	140.64	147.58	69.938	0.00019254	70.858	193.721	384.295	243.137	191.038	271.104	356.433	189.170	195.882	481.194	399.420	193.691	196.774	199.938	204.447	338.810	200.606	-8191	255	
1006.689	1	1	0	0	0.1769	0.12334	0.057039	0.34675	0.07849	0.16362	0.061583	0.068441	0.13607	0.066213	0.15836	0.174	0.12098	0.3365	0.17326	0.41546	-2.7292	-3.5396	-3.425	-3.3104	-3.725	-3.0125	-3.4917	-3.575	-3.1063	-3.6208	-3.7875	-3.3063	-3.6521	-3.6417	-3.4562	-3.9271	347.751	494.066	499.479	490.572	458.578	426.957	461.915	233.187	486.559	527.991	289.233	437.233	478.441	515.072	195.824	470.222	0.00062966	0.00031139	0.00066573	658.58	9.8578e-06	1.3243e-05	636.94	271.3	3.1573e-06	7.8901e-06	292.27	128.44	122.62	66.331	1.067e-05	65.252	0.011683	0.018274	0.0050725	746.37	0.0001852	0.00020113	720.9	301.63	0.00018313	0.00019641	334.07	142.39	148.14	71.049	0.0001824	71.774	183.615	506.381	209.604	190.902	276.344	365.942	188.891	195.800	426.527	386.325	193.412	196.838	200.172	204.596	221.201	200.688	-8191	255	
1006.786	1	1	0	0	0.064206	0.20325	0.28456	0.16669	0.1397	0.2498	0.10524	0.15321	0.2022	0.037401	0.19378	0.28357	0.27431	0.072624	0.16513	0.18148	-2.7646	-3.5396	-3.4458	-3.2812	-3.575	-3.4167	-3.6104	-3.7896	-3.1604	-3.4667	-3.4625	-3.3812	-3.7708	-3.5604	-3.4583	-3.8625	316.472	359.424	314.470	451.533	294.782	214.173	234.890	389.798	196.034	408.560	518.034	514.019	223.736	532.221	530.299	400.222	0.00068249	0.0007739	0.00032302	664.56	9.7673e-06	6.9014e-06	644.58	272.75	4.8062e-06	7.3005e-06	294.03	128.83	123.34	66.806	9.2258e-06	66.151	0.010907	0.017252	0.0047882	742.35	0.00017265	0.00018696	718.19	300.78	0.00017086	0.00018561	333.18	142.59	147.36	71.411	0.00017352	72.441	196.656	302.689	228.433	190.966	300.073	211.402	189.308	195.983	331.064	314.249	193.613	196.706	199.618	204.642	499.944	200.956	-8191	255	
1006.882	1	1	0	0	0.26601	0.12585	0.18317	0.069136	0.10464	0.10782	0.032131	0.085115	0.21799	0.19517	0.10323	0.30434	0.099891	0.41047	0.12599	0.014361	-2.8479	-3.5125	-3.5042	-3.2771	-3.5563	-3.4146	-3.5042	-3.5833	-3.2729	-3.7125	-3.5375	-3.3854	-3.6396	-3.6771	-3.3438	-3.8625	518.973	344.782	399.129	269.032	480.092	274.026	337.921	406.441	523.943	510.192	264.887	464.489	346.386	516.281	472.480	217.034	0.00070915	0.0010907	0.00045311	669	4.3999e-06	6.8007e-06	642.4	274.16	6.6669e-06	2.4319e-06	294.88	130.01	124.29	66.931	6.3713e-06	67.508	0.010463	0.016614	0.0045927	741.69	0.00016716	0.00018129	717.26	301.41	0.0001674	0.00018073	334.42	143.19	147.78	71.468	0.00016963	73.321	189.805	302.686	341.057	190.814	295.588	384.401	189.399	195.929	267.319	324.153	193.344	196.949	199.756	204.644	374.251	200.740	-8191	255	
1007.002	1	1	0	0	0.041554	0.070795	0.21306	0.1761	0.053687	0.30199	0.19884	0.17527	0.06573	0.22663	0.079077	0.12776	0.14222	0.14442	0.082728	0.068315	-3.0021	-3.3187	-3.5125	-3.3146	-3.6417	-3.4562	-3.4229	-3.7917	-3.2167	-3.4625	-3.6917	-3.2771	-3.5917	-3.5687	-3.4333	-3.5687	348.150	466.795	188.500	502.331	271.547	440.417	457.539	189.034	486.426	270.348	304.890	390.516	454.893	185.512	351.887	447.334	0.00071998	0.00051363	0.00015874	670.16	5.0816e-06	3.7793e-06	645.88	274.29	7.9213e-06	5.8547e-06	296.4	130.5	124.21	66.931	7.3571e-06	66.13	0.010213	0.016155	0.0044716	741.24	0.00016229	0.00017611	718.45	300.37	0.00016391	0.00017784	334.25	142.69	147.51	71.093	0.00016717	71.947	182.568	298.287	222.690	191.213	255.536	188.514	189.320	195.766	263.513	369.957	193.057	196.768	199.932	204.735	312.877	200.710	-8191	255	
1007.097	1	1	0	0	0.061317	0.029683	0.12901	0.0982	0.07861	0.13048	0.081555	0.17659	0.15381	0.15327	0.30348	0.42225	0.12536	0.35687	0.11195	0.074943	-2.8354	-3.3708	-3.425	-3.3812	-3.6063	-3.3312	-3.2938	-3.7604	-3.3958	-3.2667	-3.7729	-3.4521	-3.6042	-3.5979	-3.2875	-3.8542	353.034	227.696	480.165	458.399	480.705	360.042	526.527	288.893	352.614	506.967	528.795	493.975	517.202	534.266	352.416	186.604	0.0006808	0.0013195	0.00010837	670.73	9.8317e-06	4.7644e-06	647.51	274.52	8.1845e-06	1.6352e-05	295.26	129.38	124.1	66.717	2.9157e-06	65.621	0.010116	0.016137	0.0044608	739.72	0.0001621	0.00017537	717.98	300.94	0.00016204	0.0001754	333.39	142.29	147.14	70.983	0.00016443	71.493	185.170	260.244	468.542	190.741	299.807	252.593	189.165	196.203	252.651	279.558	193.199	196.814	200.233	204.735	266.111	200.910	-8191	255	
1007.193	1	1	0	0	0.10615	0.30832	0.37401	0.19481	0.090028	0.15486	0.13239	0.096995	0.17252	0.12944	0.14978	0.26174	0.1951	0.23853	0.19968	0.08283	-2.7562	-3.4792	-3.6063	-3.3292	-3.5104	-3.4437	-3.325	-3.5667	-3.2958	-3.2208	-3.6979	-3.3542	-3.4125	-3.6708	-3.2979	-3.7687	274.853	479.662	314.422	437.587	463.940	453.755	206.436	308.931	215.080	482.891	183.753	409.646	213.030	516.399	415.971	489.225	0.00051186	0.0018078	0.00044083	668.44	8.9548e-06	8.595e-06	644.03	272.99	4.9724e-06	6.4852e-06	294.88	128.18	123.66	66.016	1.3257e-06	65.685	0.0099576	0.015749	0.0043396	736.86	0.00015773	0.00016991	713.8	298.49	0.00015511	0.00016973	330.23	140.72	145.61	70.388	0.00016182	71.291	182.088	317.279	251.433	190.921	283.494	361.335	189.595	195.913	294.973	359.257	193.258	196.837	199.900	204.536	280.546	200.630	-8191	255	
1007.289	1	1	0	0	0.13614	0.23336	0.10231	0.16689	0.10576	0.086332	0.091889	0.15282	0.073165	0.14374	0.033807	0.089537	0.18126	0.18162	0.27897	0.26996	-3.0271	-3.2375	-3.6708	-3.3771	-3.3812	-3.5604	-3.2021	-3.675	-3.3583	-3.2854	-3.7396	-3.3438	-3.4813	-3.7083	-3.2229	-3.6729	225.974	184.238	211.297	445.918	442.566	345.190	357.347	467.382	351.930	387.275	376.852	468.371	478.981	505.686	291.935	500.661	0.00067396	0.00057096	0.00022573	667.17	7.7639e-06	7.0806e-06	644.71	274.34	6.5328e-06	1.5493e-05	297.46	130.03	123.92	67.057	1.0292e-05	66.723	0.009749	0.015474	0.0043182	736.93	0.00015601	0.00016961	713.46	300.07	0.00015657	0.00016794	333.09	142.24	146.53	71.305	0.00015986	72.516	535.259	496.754	503.095	190.826	315.049	457.177	189.346	195.638	244.620	352.329	193.334	196.983	200.070	204.662	320.958	200.901	-8191	255	
1007.385	1	1	0	0	0.22148	0.052083	0.18389	0.039345	0.097222	0.10694	0.29694	0.32915	0.14915	0.2266	0.20905	0.28524	0.3024	0.25115	0.33331	0.21381	-2.9958	-3.1333	-3.6437	-3.3083	-3.3375	-3.6688	-3.3021	-3.5646	-3.5271	-3.3125	-3.5229	-3.5958	-3.2938	-3.8229	-3.1375	-3.5396	283.623	240.841	344.195	231.162	454.081	381.703	452.972	428.950	329.824	487.246	226.585	468.134	521.589	479.724	285.704	458.325	0.00072693	0.00062492	0.00014015	668.55	1.2821e-06	1.1697e-05	649.12	276.09	9.0789e-06	5.1649e-06	297.16	130.29	123.69	66.436	1.3493e-05	65.943	0.0097287	0.015364	0.0042503	737.18	0.00015554	0.0001692	715.87	300.38	0.00015618	0.00016866	332.68	141.95	145.97	70.626	0.0001602	71.331	184.093	343.634	198.754	191.062	177.992	485.356	189.060	195.842	352.671	281.196	193.536	196.787	199.526	204.595	305.083	200.836	-8191	255	
#DATA ENDS
