BOXY.EXE: ISS Imagent and Oximeter Data Acquisition Program Version 0.80
Ascii Record File

#ACQ INFORMATION
2  Detector Channels 
16  External MUX Channels 
1  Auxiliary Channels 
5000  Waveform (CCF) Frequency (Hz)
1  Waveforms Skipped 
30  Waveforms Averaged 
1  Cycles Averaged 
16  Acquisitions per Waveform 
10.0806  Updata Rate (Hz) 

#FILE INFORMATION
TRUE -- External MUX Channel results are PARSED.
FALSE -- AC DC and Phase are NOT grouped.
TRUE -- Companion Program Settings File CREATED.
FALSE -- AC data not excluded
FALSE -- DC data not excluded
FALSE -- Phase data not excluded
FALSE -- Auxillary Chn. data not excluded
Tab delimiters

#CALIBRATION STATE
TRUE -- Waveform Calibration Values APPLIED.


#AUX CALIBRATION VALUES
Val Type	aux-1	

Term	1.0000e+00	
Factor	0.0000e+00	


#WF CALIBRATION VALUES
A = Detector Channel
Val Type	A-AC1	A-AC2	A-AC3	A-AC4	A-AC5	A-AC6	A-AC7	A-AC8	A-AC9	A-AC10	A-AC11	A-AC12	A-AC13	A-AC14	A-AC15	A-AC16	A-DC1	A-DC2	A-DC3	A-DC4	A-DC5	A-DC6	A-DC7	A-DC8	A-DC9	A-DC10	A-DC11	A-DC12	A-DC13	A-DC14	A-DC15	A-DC16	A-Ph1	A-Ph2	A-Ph3	A-Ph4	A-Ph5	A-Ph6	A-Ph7	A-Ph8	A-Ph9	A-Ph10	A-Ph11	A-Ph12	A-Ph13	A-Ph14	A-Ph15	A-Ph16	

Term	0.00000e+00	0.00000e+00	0.00000e+00	0.00000e+00	0.00000e+00	0.00000e+00	0.00000e+00	0.00000e+00	0.00000e+00	0.00000e+00	0.00000e+00	0.00000e+00	0.00000e+00	0.00000e+00	0.00000e+00	0.00000e+00	0.00000e+00	0.00000e+00	0.00000e+00	0.00000e+00	0.00000e+00	0.00000e+00	0.00000e+00	0.00000e+00	0.00000e+00	0.00000e+00	0.00000e+00	0.00000e+00	0.00000e+00	0.00000e+00	0.00000e+00	0.00000e+00	0.00000e+00	0.00000e+00	0.00000e+00	0.00000e+00	0.00000e+00	0.00000e+00	0.00000e+00	0.00000e+00	0.00000e+00	0.00000e+00	0.00000e+00	0.00000e+00	0.00000e+00	0.00000e+00	0.00000e+00	0.00000e+00	
Factor	1.00000e+00	1.00000e+00	1.00000e+00	1.00000e+00	1.00000e+00	1.00000e+00	1.00000e+00	1.00000e+00	1.00000e+00	1.00000e+00	1.00000e+00	1.00000e+00	1.00000e+00	1.00000e+00	1.00000e+00	1.00000e+00	1.00000e+00	1.00000e+00	1.00000e+00	1.00000e+00	1.00000e+00	1.00000e+00	1.00000e+00	1.00000e+00	1.00000e+00	1.00000e+00	1.00000e+00	1.00000e+00	1.00000e+00	1.00000e+00	1.00000e+00	1.00000e+00	X	X	X	X	X	X	X	X	X	X	X	X	X	X	X	X	

B = Detector Channel
Val Type	B-AC1	B-AC2	B-AC3	B-AC4	B-AC5	B-AC6	B-AC7	B-AC8	B-AC9	B-AC10	B-AC11	B-AC12	B-AC13	B-AC14	B-AC15	B-AC16	B-DC1	B-DC2	B-DC3	B-DC4	B-DC5	B-DC6	B-DC7	B-DC8	B-DC9	B-DC10	B-DC11	B-DC12	B-DC13	B-DC14	B-DC15	B-DC16	B-Ph1	B-Ph2	B-Ph3	B-Ph4	B-Ph5	B-Ph6	B-Ph7	B-Ph8	B-Ph9	B-Ph10	B-Ph11	B-Ph12	B-Ph13	B-Ph14	B-Ph15	B-Ph16	

Term	0.00000e+00	0.00000e+00	0.00000e+00	0.00000e+00	0.00000e+00	0.00000e+00	0.00000e+00	0.00000e+00	0.00000e+00	0.00000e+00	0.00000e+00	0.00000e+00	0.00000e+00	0.00000e+00	0.00000e+00	0.00000e+00	0.00000e+00	0.00000e+00	0.00000e+00	0.00000e+00	0.00000e+00	0.00000e+00	0.00000e+00	0.00000e+00	0.00000e+00	0.00000e+00	0.00000e+00	0.00000e+00	0.00000e+00	0.00000e+00	0.00000e+00	0.00000e+00	7.91608e+01	-1.57426e+02	-1.25790e+02	-1.81071e+02	-1.33254e+02	-4.33174e+01	-1.58384e+02	-1.62015e+02	-9.85754e+01	-5.35677e+01	-1.74335e+02	-1.74194e+02	-1.80052e+02	-1.76373e+02	-8.84111e+01	-1.49596e+02	
Factor	7.28416e-05	1.18705e-04	3.43277e-05	1.55421e-01	1.40958e-06	1.37877e-06	1.77198e-01	4.90421e-02	1.73132e-06	1.35496e-06	9.21222e-02	3.70337e-02	2.12366e-02	8.91378e-03	1.18770e-06	1.32070e-02	1.01932e-06	1.04090e-06	2.89617e-07	7.87538e-02	1.13864e-08	1.14252e-08	8.37802e-02	2.48126e-02	1.13964e-08	1.14369e-08	4.41850e-02	1.75058e-02	1.07770e-02	4.46422e-03	1.14014e-08	6.34155e-03	X	X	X	X	X	X	X	X	X	X	X	X	X	X	X	X	



#DISTANCE SETTINGS
A = Detector Channel
A-1	A-2	A-3	A-4	A-5	A-6	A-7	A-8	A-9	A-10	A-11	A-12	A-13	A-14	A-15	A-16	

2.5000e+00	3.0000e+00	2.5000e+00	3.0000e+00	2.0000e+00	3.0000e+00	1.5000e+00	3.0000e+00	3.0000e+00	3.0000e+00	3.0000e+00	3.0000e+00	3.0000e+00	3.0000e+00	1.5000e+00	3.0000e+00	

B = Detector Channel
B-1	B-2	B-3	B-4	B-5	B-6	B-7	B-8	B-9	B-10	B-11	B-12	B-13	B-14	B-15	B-16	

1.0000e+01	1.0000e+01	1.0000e+01	1.4400e+00	1.0000e+01	1.0000e+01	1.5100e+00	1.9400e+00	1.0000e+01	1.0000e+01	1.9900e+00	2.4900e+00	2.4100e+00	2.9000e+00	1.0000e+01	2.9800e+00	




#DATA BEGINS
time	group	step	mark	flag	A-AC1	A-AC2	A-AC3	A-AC4	A-AC5	A-AC6	A-AC7	A-AC8	A-AC9	A-AC10	A-AC11	A-AC12	A-AC13	A-AC14	A-AC15	A-AC16	A-DC1	A-DC2	A-DC3	A-DC4	A-DC5	A-DC6	A-DC7	A-DC8	A-DC9	A-DC10	A-DC11	A-DC12	A-DC13	A-DC14	A-DC15	A-DC16	A-Ph1	A-Ph2	A-Ph3	A-Ph4	A-Ph5	A-Ph6	A-Ph7	A-Ph8	A-Ph9	A-Ph10	A-Ph11	A-Ph12	A-Ph13	A-Ph14	A-Ph15	A-Ph16	B-AC1	B-AC2	B-AC3	B-AC4	B-AC5	B-AC6	B-AC7	B-AC8	B-AC9	B-AC10	B-AC11	B-AC12	B-AC13	B-AC14	B-AC15	B-AC16	B-DC1	B-DC2	B-DC3	B-DC4	B-DC5	B-DC6	B-DC7	B-DC8	B-DC9	B-DC10	B-DC11	B-DC12	B-DC13	B-DC14	B-DC15	B-DC16	B-Ph1	B-Ph2	B-Ph3	B-Ph4	B-Ph5	B-Ph6	B-Ph7	B-Ph8	B-Ph9	B-Ph10	B-Ph11	B-Ph12	B-Ph13	B-Ph14	B-Ph15	B-Ph16	aux-1	digaux	

589.854	1	1	0	256	0.217	0.044455	0.13673	0.083922	0.054667	0.053685	0.44775	0.12941	0.044946	0.18084	0.29719	0.092248	0.20552	0.25814	0.16791	0.097609	-2.85	-3.1083	-2.9854	-3.5375	-2.9708	-3.1521	-3.3771	-2.9479	-3.3312	-3.1562	-3.0021	-3.4771	-3.0042	-3.2333	-3.4083	-2.9688	8.392	85.664	219.950	275.413	242.626	275.341	314.309	307.554	158.335	23.910	212.031	169.264	212.101	29.728	323.555	204.497	0.0010828	0.00050601	0.00025216	1443.4	1.6451e-05	6.4097e-06	1437.2	378.14	5.0143e-06	3.7884e-06	434.91	143.03	125.18	42.665	4.2578e-06	52.693	0.00074796	0.00075197	0.00020809	1494	8.2005e-06	8.2715e-06	1487.1	394.34	8.2468e-06	8.2097e-06	455.59	150.72	131.07	45.199	8.214e-06	55.963	333.968	298.058	61.646	-8.460	104.265	170.972	-8.592	-3.808	59.502	102.846	-4.269	0.291	0.662	5.269	90.898	4.146	-8191	255	
589.973	1	1	0	0	0.11664	0.082831	0.24715	0.57762	0.20479	0.082195	0.31205	0.2592	0.19301	0.061932	0.090523	0.24141	0.26392	0.078858	0.16334	0.16857	-2.8417	-3.1646	-2.8875	-3.5354	-2.9313	-3.0479	-3.5021	-2.8542	-3.1354	-3.0208	-2.8083	-3.3042	-3.0958	-3.2521	-3.3521	-2.8979	302.597	301.886	268.863	313.328	274.209	300.644	197.692	277.272	301.998	46.238	279.291	326.212	311.235	246.713	-3.414	160.083	0.0010975	0.00076339	3.807e-05	1436.5	4.8742e-06	9.2725e-06	1430.6	378.2	3.9753e-06	3.6954e-06	435.06	142.5	125.3	42.527	6.5541e-06	52.57	0.00074782	0.00074947	0.00020832	1489.4	8.1591e-06	8.2448e-06	1487.2	394.14	8.1551e-06	8.1988e-06	456.15	150.47	131.15	45.175	8.1252e-06	55.811	337.660	9.677	79.128	-8.323	79.603	185.992	-8.567	-3.650	188.277	251.483	-4.300	0.489	0.904	5.290	175.147	4.171	-8191	255	
590.069	1	1	0	0	0.16447	0.12281	0.10577	0.3672	0.11153	0.10695	0.18928	0.21947	0.13183	0.091724	0.2438	0.16581	0.047361	0.26249	0.17363	0.13135	-2.8271	-3.2167	-2.8042	-3.5312	-2.925	-3.0958	-3.6604	-3.0479	-3.2729	-3.2521	-3.0042	-3.2146	-3.1188	-3.1146	-3.4792	-3.1	39.371	157.025	221.181	295.789	6.100	267.368	280.456	283.879	284.413	296.775	241.770	230.098	11.448	2.855	297.571	186.275	0.0009757	0.00047176	0.00016075	1439.6	2.8379e-06	2.6346e-06	1438.5	377.36	1.797e-05	2.9269e-06	434.51	142.38	124.5	42.548	7.9552e-06	52.791	0.00073674	0.00074049	0.00020477	1489.9	8.0696e-06	8.0441e-06	1485	393.38	8.1004e-06	8.127e-06	455.04	150.52	130.8	45.106	8.1315e-06	55.954	-17.836	69.331	81.022	-8.419	120.363	174.240	-8.619	-3.683	104.902	-17.249	-3.913	0.409	0.901	5.213	110.899	4.340	-8191	255	
590.165	1	1	0	0	0.020697	0.19901	0.14124	0.095572	0.16107	0.17742	0.2401	0.34691	0.13627	0.059061	0.18444	0.12737	0.3805	0.29481	0.16261	0.034651	-2.9083	-3.1562	-2.6521	-3.4792	-3.0062	-2.7917	-3.575	-3.1875	-3.2896	-3.1188	-2.9562	-3.2687	-3.3021	-3.0229	-3.4437	-3.2417	-7.085	2.142	294.644	316.752	121.328	109.153	309.656	317.670	1.605	221.376	310.853	308.379	325.491	33.175	93.382	26.384	0.0007035	0.00025061	0.00022051	1443.9	3.8582e-06	6.1667e-07	1433.5	377.98	2.8021e-06	6.8711e-06	433.92	143.49	124.57	42.721	5.0257e-06	52.644	0.00073474	0.00073971	0.00020565	1491	8.0221e-06	8.0642e-06	1485.2	393.64	8.0182e-06	8.0459e-06	455.08	150.48	130.81	45.1	7.9963e-06	55.895	335.955	10.555	123.663	-8.402	64.989	74.805	-8.242	-3.651	169.235	30.869	-4.150	0.564	0.704	5.011	82.468	4.478	-8191	255	
590.286	1	1	0	0	0.11053	0.065797	0.093599	0.16167	0.045076	0.22578	0.31911	0.15059	0.13287	0.22998	0.21039	0.23913	0.19432	0.28741	0.17516	0.33262	-2.7125	-3.3104	-2.7708	-3.5021	-3.2	-3.0521	-3.4542	-3.0958	-3.0583	-3.2938	-2.9688	-3.3396	-3.4062	-2.8417	-3.4354	-3.1	88.310	72.581	148.747	241.514	131.303	100.833	300.864	219.769	49.685	264.030	20.713	273.633	260.793	325.731	166.868	328.667	0.0013948	0.00040125	9.2151e-05	1437.1	8.8679e-06	9.0256e-06	1432.1	378.55	7.6544e-06	6.737e-06	434.28	141.33	124.82	42.749	1.0812e-05	52.477	0.0007301	0.00073633	0.00020248	1487.5	8.0173e-06	7.9599e-06	1481.8	393.29	8.0282e-06	7.9835e-06	454.68	149.86	130.7	45.092	8.0204e-06	55.69	334.197	9.512	28.032	-8.491	69.725	119.816	-8.583	-3.646	112.265	152.200	-4.137	0.563	0.793	5.319	130.712	4.118	-8191	255	
590.382	1	1	0	0	0.30228	0.11727	0.25776	0.3293	0.2073	0.13608	0.14955	0.36028	0.18684	0.27692	0.3157	0.14691	0.22754	0.077485	0.14409	0.10649	-2.6979	-3.1625	-3.0104	-3.4292	-3.1271	-2.8542	-3.6667	-3.2479	-2.9146	-3.4188	-3.3688	-3.3479	-3.4792	-2.9562	-3.3583	-3.1021	165.568	294.829	-9.573	290.523	287.371	142.627	221.487	306.124	49.420	35.773	207.003	334.823	-20.932	3.502	250.083	286.742	0.0010561	0.00074132	0.00020531	1439.2	8.5412e-06	5.2743e-06	1436.2	379.49	7.3947e-06	1.3678e-06	435.52	142.53	124.44	42.677	5.2861e-06	52.434	0.00073163	0.00072482	0.00020222	1487	7.9635e-06	7.9602e-06	1482.9	393.94	7.9149e-06	7.9719e-06	454.64	150.28	130.66	45.07	7.985e-06	55.7	334.686	284.019	96.124	-8.319	115.218	106.431	-8.535	-3.698	78.674	134.830	-4.169	0.401	0.869	5.135	123.511	4.422	-8191	255	
590.478	1	1	0	0	0.10373	0.23503	0.14233	0.18649	0.059262	0.18218	0.294	0.22733	0.099522	0.078175	0.033113	0.10066	0.19178	0.15506	0.2036	0.098772	-2.5938	-3.3896	-2.9562	-3.1562	-3.4708	-2.8167	-3.4125	-3.3458	-2.9396	-3.3271	-3.3229	-3.3271	-3.4354	-3.025	-3.2854	-3.3375	241.556	61.453	23.594	12.770	189.299	326.405	265.049	285.326	154.314	305.219	320.642	254.983	293.477	275.019	265.372	185.705	0.00091627	0.00088446	0.00023869	1434.8	4.7348e-06	7.1651e-06	1432	377.7	1.48e-05	7.8183e-06	431.99	141.88	124.28	42.539	3.749e-06	52.302	0.00073233	0.00073381	0.00020539	1486.8	8.0352e-06	8.013e-06	1483.4	393.09	8.0459e-06	8.054e-06	453.68	150.22	130.28	44.992	8.0433e-06	55.605	-14.519	2.071	17.879	-8.375	83.340	157.433	-8.545	-3.657	106.332	121.112	-4.045	0.588	0.782	5.303	220.859	4.309	-8191	255	
590.574	1	1	0	0	0.065682	0.18266	0.096356	0.29642	0.043301	0.28763	0.19789	0.33993	0.087421	0.23279	0.1988	0.16609	0.15369	0.15712	0.075555	0.11953	-2.3688	-3.3354	-2.9479	-3.3542	-3.4188	-2.8	-3.3771	-3.3333	-2.7438	-3.3	-3.2042	-3.0875	-3.45	-3.1104	-3.2083	-3.3208	108.066	73.713	227.212	289.780	188.441	205.356	299.683	334.492	47.328	243.525	-13.049	314.949	259.754	261.978	315.195	263.525	0.0011193	0.00066316	0.00015417	1433.4	5.6624e-06	3.7848e-06	1433.1	377.82	2.3522e-06	4.3158e-06	434.94	142.26	124.06	42.601	2.0499e-06	52.393	0.00073471	0.00073463	0.00020425	1485.5	8.0088e-06	7.9774e-06	1482	393.24	8.0277e-06	8.0693e-06	454.65	150.05	130.47	45.061	8.0769e-06	55.711	-16.268	11.124	93.321	-8.327	88.280	294.342	-8.473	-3.639	299.068	119.324	-4.254	0.369	0.906	5.037	319.080	4.477	-8191	255	
590.670	1	1	0	0	0.33007	0.18699	0.11278	0.26155	0.067637	0.17068	0.30213	0.024983	0.10924	0.31113	0.33489	0.11349	0.32896	0.048763	0.13388	0.20554	-2.5354	-3.2229	-3.1979	-3.3042	-3.4729	-2.8812	-3.1979	-3.3771	-2.9042	-3.3521	-3.1646	-3.0104	-3.4437	-3.1917	-3.0062	-3.4	49.576	269.067	82.729	-21.415	299.498	137.411	284.667	120.273	142.274	59.613	276.191	100.311	293.516	-9.483	-16.713	-15.854	0.00085715	0.00034884	7.1645e-05	1435.5	6.6061e-06	7.8828e-06	1430.1	377.58	2.2253e-05	5.0302e-07	434.01	143.17	123.87	42.567	3.4109e-06	52.604	0.00073825	0.00073842	0.00020573	1485.2	8.0581e-06	8.0722e-06	1483	393.36	8.0104e-06	8.0863e-06	454.95	150.56	130.44	45.039	8.091e-06	55.748	319.196	-19.702	96.596	-8.284	224.370	138.741	-8.617	-3.836	129.498	132.350	-4.286	0.563	1.086	5.272	105.675	4.402	-8191	255	
590.765	1	1	0	0	0.27704	0.17326	0.022817	0.23675	0.21515	0.07969	0.15509	0.28103	0.083611	0.043441	0.071796	0.1703	0.16713	0.23692	0.15327	0.18994	-2.4708	-3.0958	-2.9437	-3.0958	-3.3688	-2.8792	-3.3396	-3.3063	-2.9021	-3.2646	-3.3979	-3.0104	-3.4208	-3.0083	-2.9646	-3.5229	126.126	334.262	132.816	228.715	71.359	167.368	194.247	249.680	21.160	201.989	135.308	259.756	77.444	13.726	153.209	282.597	0.00088321	0.00070733	0.00011613	1434.3	9.4842e-06	4.7426e-06	1435.3	376.94	5.0526e-06	2.5747e-06	437.25	142.44	124.73	42.656	4.4132e-06	52.731	0.00073797	0.00073629	0.00020617	1487.3	8.0815e-06	8.0929e-06	1485.5	393.39	8.0519e-06	8.1549e-06	455.27	150.48	130.77	45.135	8.1395e-06	55.746	-14.782	331.743	295.658	-8.182	74.205	241.958	-8.225	-3.653	94.271	237.918	-3.972	0.608	0.828	5.088	45.789	4.419	-8191	255	
590.861	1	1	0	0	0.30767	0.15967	0.20993	0.037095	0.23349	0.12357	0.22869	0.18166	0.27474	0.26445	0.10266	0.27413	0.17799	0.17758	0.16212	0.11656	-2.3458	-3.3812	-3.1562	-3.1208	-3.25	-3.1208	-3.3438	-3.5979	-2.8396	-3.1896	-3.45	-2.9646	-3.5833	-3.2146	-3.05	-3.4958	13.966	248.919	37.423	112.847	169.838	130.316	301.663	230.705	1.639	122.122	262.848	49.582	-19.726	202.239	248.939	227.833	0.0011314	0.0012528	2.092e-05	1435	1.2316e-05	8.6205e-06	1431.8	378.11	9.8472e-06	7.634e-06	435.6	142.41	125.03	42.717	6.6124e-06	52.587	0.00073462	0.00074204	0.00020504	1488.8	8.0957e-06	8.1042e-06	1486.3	393.95	8.0559e-06	8.1071e-06	455.09	150.79	130.89	45.158	8.1164e-06	55.908	-3.519	22.164	219.272	-8.255	60.178	154.571	-8.473	-3.734	100.740	131.094	-4.096	0.472	0.929	5.117	201.691	4.264	-8191	255	
590.981	1	1	0	0	0.12812	0.29082	0.16961	0.38335	0.43046	0.14304	0.33187	0.33883	0.11522	0.19926	0.10902	0.26337	0.28531	0.22978	0.14491	0.17161	-2.6229	-3.2604	-3.1167	-3.1021	-3.3292	-3.1146	-3.1708	-3.6167	-2.8417	-2.9875	-3.4542	-2.8229	-3.2562	-3.0479	-3.0042	-3.3896	40.559	161.206	324.042	277.358	131.792	140.043	11.496	3.095	176.191	192.199	299.331	327.407	269.365	319.096	108.895	259.585	0.00094537	0.00069942	0.00020326	1440.9	5.6055e-06	6.618e-06	1432.1	378.8	6.0995e-06	1.0581e-06	433.65	143.51	124.53	42.831	2.4919e-06	52.607	0.00073812	0.00074317	0.00020732	1490.6	8.0751e-06	8.128e-06	1485.9	394.02	8.0659e-06	8.1541e-06	454.85	150.74	130.73	45.156	8.2211e-06	55.913	-2.234	54.535	37.437	-8.472	26.855	99.424	-8.514	-3.608	244.869	228.268	-4.151	0.672	0.924	5.192	197.980	4.521	-8191	255	
591.077	1	1	0	0	0.14378	0.070554	0.22265	0.46198	0.24719	0.18944	0.38623	0.2815	0.21814	0.15375	0.18439	0.21404	0.16773	0.093149	0.22178	0.2955	-2.6146	-3.1125	-3.2646	-3.0333	-3.1312	-3.1562	-2.8354	-3.4958	-3.0604	-3.125	-3.3208	-2.8729	-3.2354	-3.3146	-2.9458	-3.3417	204.036	135.704	26.018	311.773	160.072	79.859	284.312	267.026	127.193	224.190	-17.715	-21.263	-1.298	289.889	157.900	177.520	0.0010419	0.00029881	6.3784e-05	1437	1.1858e-05	7.2573e-06	1436.8	376.24	5.8105e-06	5.548e-06	434.5	142.74	125.11	42.835	9.2951e-06	52.824	0.00075351	0.00075181	0.00020774	1489.3	8.2177e-06	8.2294e-06	1488	393.99	8.1533e-06	8.1707e-06	455.95	150.82	131.26	45.308	8.1015e-06	56.008	-7.891	-5.347	194.369	-8.349	76.237	168.238	-8.502	-3.744	182.936	85.494	-4.044	0.525	0.907	5.205	171.693	4.314	-8191	255	
591.149	1	1	0	0	0.068631	0.19074	0.14259	0.29891	0.12691	0.13076	0.4023	0.33029	0.27109	0.12868	0.21307	0.10134	0.38365	0.16594	0.2255	0.1347	-2.5	-2.7188	-3.0938	-3.1625	-3.3063	-3.1917	-2.9167	-3.2562	-2.9729	-2.9229	-3.4354	-2.8604	-3.2208	-3.2979	-2.7396	-3.3458	54.160	228.877	-2.587	291.673	138.624	162.289	260.493	308.571	22.716	76.391	292.562	-8.459	278.680	209.642	94.565	228.064	0.00090289	0.00012818	0.0002396	1441.3	5.0765e-06	5.1678e-06	1433.5	379.34	7.2108e-06	5.4706e-06	434.49	143.43	125.1	42.886	1.8842e-06	52.912	0.0007502	0.00075005	0.00020699	1494.1	8.2364e-06	8.2631e-06	1491	395.68	8.2677e-06	8.2553e-06	455.9	151.39	131.52	45.4	8.2352e-06	56.043	323.371	242.009	108.446	-8.218	180.193	109.710	-8.440	-3.750	109.043	69.280	-4.294	0.503	0.843	5.337	185.967	4.612	-8191	255	
591.245	1	1	0	0	0.12921	0.013855	0.1597	0.1803	0.23007	0.10779	0.25727	0.23498	0.11335	0.23277	0.22255	0.12467	0.14493	0.413	0.090553	0.28878	-2.8396	-2.8063	-3.2562	-3.1625	-3.1875	-3.2625	-3.0625	-3.5333	-3.0479	-3.0604	-3.6437	-2.9167	-3.2583	-3.2333	-2.8208	-3.2417	237.138	273.429	136.690	-7.139	310.040	16.448	255.061	248.042	337.300	281.728	280.230	137.084	141.977	311.203	49.858	248.525	0.00079648	0.00091678	9.0919e-05	1445	5.4157e-06	6.4173e-06	1447.2	380.03	2.0043e-05	8.2447e-06	434.46	144.18	125.31	43.043	4.9274e-06	53.146	0.00075378	0.00075807	0.00020849	1498.9	8.3239e-06	8.351e-06	1496.3	396.6	8.3901e-06	8.4217e-06	457.61	152.09	132.07	45.585	8.372e-06	56.397	337.547	53.825	96.421	-8.276	53.373	63.460	-8.427	-3.669	163.061	64.605	-4.156	0.328	0.803	5.378	141.648	4.501	-8191	255	
591.366	1	1	0	0	0.15509	0.20214	0.16946	0.18643	0.10898	0.25972	0.16416	0.13356	0.14841	0.13945	0.34617	0.15701	0.21533	0.12926	0.15837	0.19816	-2.6792	-2.8771	-3.4396	-3.1188	-3.0292	-3.2604	-2.9604	-3.2167	-2.9542	-2.9104	-3.4229	-3.1042	-3.0458	-3.4771	-2.9437	-3.2271	-16.365	265.874	199.540	269.846	277.184	59.979	257.526	183.796	108.066	84.067	-11.526	222.320	277.359	277.460	57.920	302.669	0.0010941	0.00052644	0.00028803	1444.6	1.2273e-05	8.4947e-06	1444	381.54	3.8403e-06	6.522e-06	436.3	144.26	125.85	43.003	7.1736e-06	52.925	0.00076625	0.00076792	0.00021515	1501.9	8.581e-06	8.5687e-06	1501.3	398.13	8.5845e-06	8.5899e-06	459.86	152.68	132.66	45.697	8.5813e-06	56.511	338.217	324.326	67.459	-8.319	108.878	143.882	-8.295	-3.726	98.173	52.817	-4.400	0.586	0.891	5.280	125.472	4.098	-8191	255	
591.462	1	1	0	0	0.11076	0.086849	0.25506	0.1907	0.23077	0.1579	0.22051	0.13444	0.18102	0.19777	0.22129	0.1637	0.22679	0.21844	0.17047	0.071061	-2.8187	-2.7396	-3.2271	-3.3438	-2.85	-3.3937	-3.1708	-3.2083	-3.1792	-2.9688	-3.4646	-3.2021	-2.9521	-3.4208	-2.8771	-3.1667	9.701	-8.801	325.964	275.959	120.459	266.835	219.163	282.783	54.478	3.567	287.895	120.934	318.652	323.392	223.780	-0.195	0.00062092	0.0001975	0.00037848	1451.8	7.6823e-06	5.612e-06	1449.6	381.23	2.5601e-06	7.1197e-06	437.52	144.4	126.13	43.169	7.2526e-06	53.084	0.0007858	0.00078603	0.00021964	1508	8.6383e-06	8.6332e-06	1505.4	398.8	8.6806e-06	8.6797e-06	460.47	153.03	132.9	45.773	8.7964e-06	56.739	338.203	73.329	76.473	-8.198	72.059	197.318	-8.510	-3.563	172.027	147.508	-4.198	0.360	0.604	5.058	159.402	4.360	-8191	255	
591.558	1	1	0	0	0.21949	0.092591	0.14789	0.15666	0.13198	0.13714	0.25705	0.19955	0.05688	0.13591	0.35869	0.13845	0.17938	0.092892	0.11328	0.23239	-2.8521	-2.7542	-3.2354	-3.1958	-2.8583	-3.2771	-3.1688	-3.1937	-3.4854	-2.8479	-3.2708	-3.1875	-3.025	-3.4833	-2.8583	-3.1333	188.596	335.291	259.311	272.579	60.358	258.201	289.655	265.586	283.773	-7.279	325.412	104.773	271.549	315.839	305.570	295.279	0.00086482	0.0002677	0.00014662	1456.2	5.8894e-06	5.2566e-06	1455.7	383.14	1.0641e-05	6.5073e-06	439.52	144.51	126.11	42.906	2.9432e-06	53.175	0.00079115	0.00079464	0.00022169	1511.4	8.7394e-06	8.7508e-06	1510.2	399.89	8.7826e-06	8.7383e-06	462.32	153.55	133.2	45.852	8.7976e-06	56.833	-15.583	75.797	25.488	-8.338	95.688	218.868	-8.539	-3.809	151.424	184.823	-4.038	0.406	0.596	5.134	234.404	4.431	-8191	255	
591.654	1	1	0	0	0.13551	0.17315	0.27009	0.1304	0.34386	0.14633	0.2309	0.17268	0.034406	0.16764	0.098703	0.093931	0.13244	0.12918	0.099894	0.072024	-2.9271	-2.7292	-3.075	-3.3458	-2.875	-3.3021	-3.3292	-3.2	-3.4479	-2.9875	-3.3604	-3.3979	-3.0375	-3.4271	-3.2646	-3.1708	76.325	283.154	202.981	174.480	13.424	258.170	310.280	283.237	324.992	77.694	231.542	186.696	265.812	330.757	125.045	262.259	0.00085149	0.00098336	0.00015146	1457.2	3.0989e-07	2.1238e-06	1457.1	383.05	7.242e-06	9.868e-06	439.9	144.33	126.31	43.194	1.1971e-05	53.283	0.00079866	0.00079683	0.00022375	1512.8	8.7433e-06	8.8257e-06	1512.6	400.09	8.7901e-06	8.8402e-06	462.96	153.51	133.26	45.912	8.774e-06	56.846	-16.292	51.780	20.741	-8.255	1.706	66.821	-8.340	-3.881	158.565	109.823	-4.222	0.462	0.860	5.124	124.948	4.272	-8191	255	
591.773	1	1	0	0	0.17576	0.082417	0.042217	0.33581	0.12116	0.2125	0.25176	0.2701	0.25626	0.20857	0.11789	0.24179	0.27612	0.022621	0.21175	0.1706	-2.7729	-2.9271	-3.1312	-3.3729	-2.7875	-3.2833	-3.0917	-3.1312	-3.3896	-3.0042	-3.3396	-3.15	-3.0083	-3.3667	-3.0687	-3.0979	267.737	108.934	329.728	309.723	147.688	34.924	306.611	314.215	162.942	205.786	200.584	312.943	235.878	241.018	280.751	-21.818	0.0011512	0.00011059	0.00028256	1457.2	1.0398e-05	6.8514e-06	1456.4	382.07	2.272e-06	4.7887e-06	441.2	144.94	126.52	43.101	2.5042e-06	53.23	0.00080533	0.00080695	0.00022325	1514.4	8.7777e-06	8.7729e-06	1512.7	400.15	8.6406e-06	8.7323e-06	463.04	153.64	133.43	46.004	8.7769e-06	56.817	0.309	34.586	69.348	-8.393	201.197	85.984	-8.573	-3.875	122.242	180.301	-4.144	0.494	0.888	5.059	16.544	4.387	-8191	255	
591.847	1	1	0	0	0.083027	0.10767	0.095772	0.27191	0.17189	0.080653	0.40554	0.24988	0.23115	0.14957	0.24458	0.18651	0.19503	0.13689	0.050927	0.12902	-2.6979	-3.0062	-2.8625	-3.4708	-2.9167	-3.3542	-3.3	-3.0625	-3.3979	-3.05	-3.1771	-3.2708	-3.1063	-3.45	-3.1146	-2.9104	186.642	209.151	73.106	316.496	73.147	129.505	252.943	150.014	121.276	129.637	304.148	45.243	39.732	292.803	15.013	223.674	0.0015124	0.00095706	0.00021278	1459.6	8.4172e-06	1.0793e-05	1453.6	384.04	2.8401e-06	3.6201e-06	441.18	144.49	127.12	43.144	2.8819e-06	53.457	0.00079886	0.00080165	0.00022364	1515.5	8.7494e-06	8.7497e-06	1510.6	401.14	8.7464e-06	8.7574e-06	463.35	153.37	133.61	45.952	8.6226e-06	56.907	4.836	10.785	130.765	-8.415	33.904	135.373	-8.459	-3.894	237.792	39.517	-4.205	0.340	0.790	5.240	101.312	4.213	-8191	255	
591.966	1	1	0	0	0.2	0.25917	0.16892	0.24047	0.35753	0.14895	0.28101	0.23801	0.070553	0.16273	0.24046	0.11822	0.24902	0.11361	0.073222	0.085063	-2.9146	-2.9688	-3.1146	-3.4542	-2.7771	-3.3333	-3.4354	-3.1542	-3.4292	-3.1875	-3.0375	-3.2083	-3.0938	-3.2125	-3.3021	-2.8354	249.565	47.218	70.869	336.555	200.713	116.561	294.057	274.490	122.146	65.629	334.137	246.596	273.009	199.372	68.503	119.018	0.0011477	0.00077667	0.00023028	1455.1	5.8156e-06	9.2238e-06	1460.8	383.78	5.0483e-06	6.7209e-06	439.06	145.41	126.99	43.231	5.9438e-06	53.334	0.00079186	0.00079051	0.00022046	1514.5	8.6195e-06	8.6695e-06	1513.7	400.82	8.6246e-06	8.579e-06	462.58	153.69	133.57	45.997	8.5532e-06	56.839	-20.588	49.305	37.541	-8.475	37.909	163.217	-8.374	-3.679	46.738	221.094	-4.250	0.233	0.794	5.324	54.278	4.343	-8191	255	
592.062	1	1	0	0	0.21948	0.21261	0.077556	0.18343	0.3024	0.013396	0.21361	0.36813	0.05484	0.11016	0.02335	0.34177	0.15167	0.17568	0.10423	0.28415	-2.8167	-3.025	-2.8875	-3.5438	-2.9688	-3.1417	-3.4458	-2.9375	-3.1208	-3.1625	-2.9083	-3.3688	-3.2896	-3.1854	-3.3063	-2.9271	277.199	39.893	169.052	291.822	238.421	117.273	309.549	319.254	14.642	170.217	314.226	260.502	303.520	40.043	42.712	237.270	0.0007476	0.00091364	0.00015274	1458.9	5.0965e-06	2.3602e-06	1456.4	383.34	1.4757e-05	4.3605e-06	440.7	145.25	126.62	43.022	1.268e-05	53.343	0.00077828	0.00078547	0.00021795	1515.4	8.6434e-06	8.6113e-06	1512.8	400.76	8.5888e-06	8.6479e-06	463.09	153.59	133.39	45.956	8.5904e-06	56.823	8.795	29.543	85.063	-8.392	116.019	95.615	-8.457	-3.622	156.561	141.245	-4.030	0.484	0.974	5.021	112.031	4.361	-8191	255	
592.158	1	1	0	0	0.29396	0.046709	0.16827	0.19868	0.098544	0.033441	0.11673	0.082286	0.10285	0.10297	0.18934	0.22948	0.10394	0.40989	0.097061	0.05451	-2.85	-3.2042	-2.7896	-3.4979	-3.0125	-3.0604	-3.6604	-3.1375	-3.1562	-3.1979	-3.1208	-3.4167	-3.3667	-2.9667	-3.3167	-2.9833	254.034	311.665	151.016	263.931	175.323	-16.056	52.006	-16.848	171.535	135.119	298.003	280.690	224.858	308.769	32.424	251.309	0.00067337	0.00057967	0.00020919	1452.8	7.6971e-06	6.004e-06	1451.2	383	1.1568e-05	3.4188e-06	438.66	145.58	126.78	43.244	7.5568e-06	53.477	0.00078422	0.00079289	0.00022014	1513.6	8.7147e-06	8.6966e-06	1510.2	400.59	8.6154e-06	8.706e-06	461.93	153.84	133.47	45.985	8.6197e-06	56.851	-10.081	-7.632	99.017	-8.353	111.670	178.206	-8.432	-3.793	92.152	119.008	-4.093	0.243	0.717	5.098	100.019	4.319	-8191	255	
592.254	1	1	0	0	0.12727	0.21227	0.23136	0.1164	0.15359	0.1301	0.26335	0.14362	0.10799	0.26067	0.21049	0.11729	0.1267	0.20832	0.097112	0.021279	-2.6958	-3.2604	-2.7979	-3.5396	-3.2771	-2.9688	-3.5042	-3.0896	-3.2021	-3.3417	-2.9479	-3.4396	-3.3042	-3.0021	-3.3583	-3.1188	53.670	0.982	103.725	240.392	76.699	78.912	254.536	134.415	-21.249	139.776	22.043	-7.687	320.660	327.929	313.709	330.825	0.00075474	0.00040242	8.7661e-05	1463.7	5.7561e-06	4.0628e-06	1458.3	384.67	4.145e-06	2.7379e-06	439.13	145.58	126.74	42.996	5.4392e-06	53.536	0.00078605	0.00079481	0.00021795	1516.4	8.6379e-06	8.6512e-06	1512.3	400.91	8.6668e-06	8.641e-06	461.96	153.99	133.49	45.903	8.6082e-06	56.876	-4.589	1.363	37.673	-8.469	155.095	180.890	-8.388	-3.677	180.656	118.689	-4.208	0.189	0.870	5.229	91.387	4.087	-8191	255	
592.375	1	1	0	0	0.10245	0.085275	0.094091	0.26292	0.084642	0.29926	0.44161	0.26623	0.22273	0.22658	0.16415	0.40093	0.2285	0.14548	0.30959	0.057053	-2.6521	-3.2083	-2.8021	-3.5396	-3.05	-2.8125	-3.4458	-3.0396	-2.9917	-3.1833	-3.0146	-3.1542	-3.1813	-2.8354	-3.4458	-3.1083	192.983	162.934	92.787	263.871	201.454	66.198	262.017	282.863	127.920	137.131	-15.144	110.611	297.497	333.985	328.193	292.515	0.00086093	0.00074078	0.00010741	1460.7	6.3632e-06	9.0908e-06	1455.9	384.36	2.8471e-06	8.1108e-06	438.11	145.21	127.06	43.292	5.8445e-06	53.378	0.0007842	0.00078388	0.00021867	1515.5	8.6474e-06	8.5797e-06	1511.5	400.99	8.6471e-06	8.6178e-06	462.06	153.9	133.55	45.953	8.6156e-06	56.847	336.634	96.997	157.910	-8.346	2.209	186.805	-8.320	-3.633	307.371	114.319	-4.052	0.552	0.868	4.887	147.353	4.363	-8191	255	
592.446	1	1	0	0	0.079925	0.26953	0.16879	0.26004	0.18845	0.12644	0.11554	0.23856	0.22824	0.27197	0.195	0.32069	0.09247	0.30385	0.30053	0.23125	-2.6437	-3.1937	-2.7792	-3.3667	-3.1917	-2.9521	-3.4188	-3.2875	-2.7958	-3.3583	-2.8979	-3.3146	-3.1604	-2.9583	-3.2604	-3.0833	43.597	78.831	188.215	-20.097	99.211	286.535	305.045	288.133	52.150	23.136	-12.944	219.503	310.868	17.239	183.619	270.944	0.00040113	0.00082681	0.00018502	1461.8	5.6149e-06	3.6772e-06	1457.8	382.89	1.445e-05	6.8103e-06	438.91	145.63	127.02	43.289	3.8917e-06	53.271	0.00078605	0.00078129	0.00021892	1516	8.5966e-06	8.604e-06	1511.2	401.01	8.6409e-06	8.6105e-06	461.78	154.08	133.6	45.923	8.627e-06	56.81	321.003	89.609	64.031	-8.414	171.340	104.034	-8.450	-3.733	121.783	148.102	-3.924	0.372	0.882	5.084	107.151	4.489	-8191	255	
592.542	1	1	0	0	0.1072	0.1535	0.1474	0.12576	0.062455	0.013172	0.2218	0.13033	0.29388	0.034809	0.2015	0.24568	0.1593	0.28796	0.14326	0.023014	-2.5354	-3.0854	-2.7771	-3.3896	-3.0667	-2.9042	-3.6417	-3.3167	-2.9813	-3.375	-2.9729	-3.2125	-3.4688	-2.8063	-3.3187	-3.3375	76.214	320.831	57.858	224.691	-5.169	238.593	266.009	314.665	83.777	33.456	306.623	285.289	6.039	282.356	96.868	135.053	0.00098385	0.00014312	0.00023754	1459.7	6.2728e-06	3.1573e-06	1457.4	383.69	7.9141e-06	5.0873e-06	440.3	145.12	126.31	43.269	5.4869e-06	53.415	0.00078509	0.00078913	0.00021901	1515.4	8.5965e-06	8.6266e-06	1510.2	400.74	8.6006e-06	8.6351e-06	462.24	153.82	133.34	46.037	8.5523e-06	56.851	327.487	74.042	71.410	-8.549	55.368	110.394	-8.553	-3.732	234.072	141.265	-4.062	0.279	0.763	5.180	135.577	4.458	-8191	255	
592.663	1	1	0	0	0.25272	0.16487	0.29663	0.22326	0.1399	0.055634	0.37848	0.37967	0.26718	0.098539	0.11561	0.20427	0.33821	0.26953	0.15485	0.11094	-2.6625	-3.3312	-3.0125	-3.1667	-3.3312	-2.8917	-3.4167	-3.2354	-2.9646	-3.2229	-3.2292	-3.1396	-3.5208	-3.1271	-3.2354	-3.1813	68.662	263.592	128.756	292.446	66.904	33.198	280.184	320.292	153.968	316.294	224.704	-3.335	291.140	225.488	168.795	196.212	0.00061456	0.00078732	9.4613e-05	1456.8	4.6834e-06	3.3174e-07	1456	384.66	1.1824e-05	8.0586e-06	438.18	145.11	126.64	43.097	7.5168e-06	53.455	0.00077641	0.00078053	0.00021676	1515	8.5026e-06	8.5549e-06	1511.8	400.99	8.5255e-06	8.5228e-06	461.53	153.52	133.39	45.942	8.506e-06	56.827	324.861	314.323	7.540	-8.364	94.248	212.780	-8.409	-3.702	258.983	163.726	-4.168	0.409	0.821	4.888	98.630	4.274	-8191	255	
592.757	1	1	0	0	0.24161	0.064562	0.19998	0.13694	0.074871	0.13752	0.27464	0.1101	0.17892	0.19894	0.13376	0.18844	0.15137	0.1791	0.12855	0.023777	-2.5729	-3.1813	-3.1479	-3.1854	-3.2812	-3.1292	-3.4	-3.3708	-2.7896	-3.3542	-3.1979	-2.9521	-3.5563	-3.0042	-3.275	-3.2292	221.198	65.639	202.946	308.956	-17.454	165.657	317.737	256.206	204.250	57.945	267.675	-11.036	47.882	39.797	288.233	319.566	0.0011388	0.00028438	0.00019211	1460.1	5.7715e-06	6.1796e-06	1461.1	383.49	4.6883e-06	1.6804e-06	436.85	145.07	126.63	43.469	8.8862e-06	53.661	0.00077739	0.00077827	0.00021714	1513.7	8.475e-06	8.501e-06	1512.1	400.33	8.5055e-06	8.5776e-06	461.18	153.83	133.46	46.075	8.4969e-06	56.906	332.536	26.421	8.102	-8.136	52.227	159.534	-8.596	-3.866	169.997	190.444	-4.075	0.270	0.577	5.136	52.228	4.479	-8191	255	
592.854	1	1	0	0	0.35986	0.051678	0.034049	0.23293	0.14041	0.15784	0.23969	0.24373	0.15673	0.24426	0.1325	0.13342	0.20315	0.21276	0.097024	0.24453	-2.4646	-3.2562	-3.1646	-3.1417	-3.4125	-2.8896	-3.2979	-3.5125	-2.7938	-3.1729	-3.3292	-3.0563	-3.5125	-2.9167	-2.9729	-3.3479	-0.338	8.069	53.850	290.368	-6.202	69.077	228.300	-4.009	173.033	15.597	267.204	275.925	323.079	334.810	154.850	311.269	0.0013415	0.0010386	0.00019579	1461.3	7.9367e-06	1.0311e-05	1458.2	383.5	1.8249e-06	6.5503e-06	440.02	145.57	127.57	43.394	6.017e-06	53.393	0.00077536	0.00077546	0.00021717	1514.8	8.4345e-06	8.454e-06	1512.3	399.88	8.374e-06	8.4157e-06	461.5	153.95	133.65	46.075	8.3786e-06	56.787	335.055	79.225	267.630	-8.332	68.367	217.246	-8.519	-3.659	133.614	82.913	-4.145	0.620	0.832	5.392	145.657	4.231	-8191	255	
592.950	1	1	0	0	0.017453	0.14789	0.10332	0.37952	0.15938	0.24869	0.21977	0.22424	0.1732	0.05835	0.22493	0.015967	0.067479	0.24926	0.10373	0.12002	-2.4188	-3.2979	-3.1271	-2.9979	-3.3792	-3.125	-3.2542	-3.4104	-2.9208	-3.3	-3.3042	-2.9417	-3.3958	-2.8917	-3.0687	-3.3646	140.933	12.358	90.323	286.050	81.093	316.182	281.774	-14.379	231.225	258.224	-12.633	65.658	94.461	271.471	194.769	41.471	0.0012135	0.0004928	0.00017916	1459	1.9919e-06	8.3268e-06	1465	382.98	6.3485e-06	4.1307e-06	439.13	145.33	127.13	43.354	3.9812e-06	53.464	0.00076356	0.0007701	0.00021284	1512.5	8.3844e-06	8.3428e-06	1512.6	400.46	8.3405e-06	8.4588e-06	461.31	153.81	133.66	46.031	8.3591e-06	56.874	-20.633	97.298	296.511	-8.356	101.593	147.808	-8.450	-3.777	161.417	171.465	-4.065	0.332	0.746	5.535	119.959	4.462	-8191	255	
593.046	1	1	0	0	0.2322	0.044139	0.16621	0.32103	0.21566	0.20835	0.040917	0.11139	0.21657	0.088753	0.068166	0.32422	0.2329	0.27216	0.020145	0.29861	-2.4896	-3.2104	-3.2812	-2.9833	-3.3896	-2.9708	-3.0979	-3.5125	-2.9667	-3.0646	-3.4396	-2.9104	-3.3771	-3.1354	-2.9917	-3.5187	247.182	45.443	177.721	288.823	313.458	160.065	216.086	-17.058	3.460	46.658	179.686	90.367	-7.828	332.180	297.515	294.996	0.0010481	0.00060786	0.00016761	1458.7	5.1513e-06	4.7795e-06	1458.5	382.17	3.5196e-06	1.0075e-05	437.09	145.2	126.81	43.278	5.4477e-06	53.214	0.00076489	0.00076836	0.00021281	1513.4	8.4349e-06	8.4489e-06	1510.8	399.88	8.4577e-06	8.4882e-06	459.78	153.62	133.57	45.954	8.4962e-06	56.759	-20.323	11.753	29.693	-8.274	130.169	169.856	-8.422	-3.566	304.917	90.332	-4.090	0.313	1.051	5.265	60.861	4.457	-8191	255	
593.142	1	1	0	0	0.092453	0.085387	0.088038	0.21683	0.14065	0.063326	0.12244	0.052569	0.19211	0.19205	0.30873	0.28935	0.13732	0.096493	0.18378	0.37681	-2.7333	-3.1146	-3.1479	-3	-3.3688	-3.15	-3.1875	-3.4646	-2.9729	-3.1542	-3.5229	-3.0896	-3.3521	-3.3646	-2.9458	-3.5208	272.689	294.214	259.156	300.682	200.981	319.524	326.829	230.214	296.525	0.080	72.317	266.669	320.803	145.121	38.237	301.878	0.0007116	0.00139	0.00017247	1455.8	1.295e-05	3.9325e-06	1461.6	380.81	6.3409e-06	1.5958e-06	438.14	145.31	126.91	43.384	5.6115e-06	53.184	0.00076932	0.00077487	0.00021441	1512	8.4604e-06	8.5014e-06	1513.3	398.98	8.4104e-06	8.4278e-06	459.96	153.64	133.55	45.984	8.389e-06	56.792	309.037	33.200	161.034	-8.203	130.736	231.919	-8.475	-3.609	190.281	143.400	-3.846	0.448	0.767	5.379	29.076	4.331	-8191	255	
593.238	1	1	0	0	0.040918	0.24609	0.081782	0.27828	0.12283	0.11653	0.23576	0.17227	0.065399	0.10265	0.058102	0.17933	0.27445	0.23513	0.21833	0.17415	-2.6583	-2.9729	-3.2667	-3.25	-3.2208	-3.3125	-3.1292	-3.5896	-3.05	-3.0563	-3.4104	-3.1125	-3.35	-3.2812	-2.975	-3.4104	232.406	30.267	207.748	320.044	259.641	-7.231	296.278	236.221	253.177	158.425	122.907	290.344	306.961	315.191	10.555	238.248	0.00071465	0.00070265	0.00011325	1463.6	2.6517e-06	9.4713e-06	1457.7	382.77	1.0486e-05	3.9409e-06	438.46	145.07	126.48	43.541	6.1845e-06	53.029	0.00076158	0.00076579	0.00021274	1514.3	8.3971e-06	8.3713e-06	1510.8	399.54	8.3726e-06	8.4193e-06	460.21	153.57	133.38	45.979	8.4523e-06	56.72	332.754	46.345	151.947	-8.387	49.127	201.434	-8.338	-3.752	144.392	174.297	-4.156	0.138	0.817	5.193	187.702	4.448	-8191	255	
593.334	1	1	0	0	0.10675	0.28445	0.24364	0.36069	0.22901	0.29552	0.37004	0.2511	0.05283	0.28399	0.20082	0.090525	0.21533	0.32737	0.21353	0.26589	-2.7438	-2.9938	-3.2375	-3.2104	-3.2292	-3.2208	-3.2021	-3.4437	-3.2417	-3.0563	-3.5229	-3.0896	-3.1437	-3.4417	-2.9979	-3.2812	2.778	177.988	40.545	328.911	323.276	217.290	228.014	281.852	215.063	250.460	-11.840	319.695	307.980	-5.335	57.751	247.948	0.00075475	0.00038115	0.00027304	1459.1	2.7991e-06	6.9435e-06	1457.4	381.92	6.2639e-06	8.3006e-06	439.77	145.25	126.95	43.338	1.689e-06	53.242	0.00076571	0.00076855	0.00021408	1513.2	8.4616e-06	8.4632e-06	1511.4	399.24	8.474e-06	8.4893e-06	460.82	153.67	133.49	45.964	8.5529e-06	56.808	335.935	322.718	89.185	-8.307	130.824	111.676	-8.450	-3.730	99.707	66.162	-4.177	0.580	0.690	5.291	59.682	4.574	-8191	255	
593.455	1	1	0	0	0.12763	0.085197	0.13607	0.035595	0.11025	0.088387	0.13014	0.15811	0.15779	0.2989	0.10421	0.061236	0.29482	0.2147	0.095824	0.097894	-2.9688	-2.8125	-3.4125	-3.3292	-3.2229	-3.3542	-3.1312	-3.2875	-3.1292	-2.9708	-3.6125	-3.1521	-3.0646	-3.4313	-3.0396	-3.2333	188.548	229.503	11.352	30.579	89.022	75.447	-6.538	298.431	337.046	9.577	248.029	260.044	288.010	317.762	17.944	277.177	0.0010317	0.00030452	0.00022274	1458.6	7.6165e-06	4.5719e-06	1456.6	382.77	1.0845e-06	6.0195e-06	436.84	145.06	126.97	43.258	1.0642e-05	53.366	0.00077716	0.00078177	0.0002173	1513.3	8.5563e-06	8.5763e-06	1509.4	399.43	8.5795e-06	8.5595e-06	459.93	153.66	133.58	45.902	8.5889e-06	56.919	-14.086	112.991	55.323	-8.437	142.887	177.519	-8.486	-3.634	150.243	170.730	-4.151	0.500	0.900	5.122	102.430	4.508	-8191	255	
593.551	1	1	0	0	0.057888	0.022147	0.033856	0.27093	0.2959	0.078195	0.13488	0.27219	0.10351	0.14414	0.14406	0.18837	0.13732	0.20549	0.16543	0.15868	-2.7812	-2.8458	-3.3375	-3.3021	-3.0062	-3.3271	-3.1354	-3.5229	-3.3646	-2.9229	-3.5	-3.3208	-3.0458	-3.4062	-2.8063	-3.3458	262.831	198.913	8.304	314.716	196.771	35.758	76.560	18.785	84.056	199.180	17.572	32.235	332.954	-14.061	67.444	263.874	0.00082352	0.0011605	6.7456e-05	1458.2	6.6503e-06	6.6217e-06	1450.7	381.89	1.2703e-06	7.384e-06	435.19	145.54	127.34	43.39	5.927e-06	53.301	0.00078281	0.00078375	0.00021709	1512.2	8.5655e-06	8.5835e-06	1509.1	399.17	8.5129e-06	8.5377e-06	460.1	154.04	133.6	45.995	8.4739e-06	56.783	-7.163	24.613	120.897	-8.136	97.514	145.666	-8.321	-3.677	66.213	187.268	-4.345	0.366	0.767	5.435	185.846	4.503	-8191	255	
593.647	1	1	0	0	0.22757	0.11856	0.19283	0.16373	0.064638	0.049974	0.16495	0.16331	0.18719	0.29995	0.11846	0.14129	0.23758	0.32054	0.49336	0.1254	-2.9521	-2.8604	-3.1208	-3.2354	-2.95	-3.4313	-3.1042	-3.2396	-3.2729	-2.9458	-3.4604	-3.3771	-3.0271	-3.4167	-2.9729	-3.3083	325.616	193.780	198.943	309.613	337.311	163.004	280.946	270.206	143.037	52.047	322.251	154.003	207.907	275.953	156.858	203.589	0.00094827	0.00023623	0.00016698	1457.5	1.4501e-05	5.6829e-06	1458.8	382.8	8.7073e-06	1.4558e-06	437.96	145.42	126.79	43.334	5.5399e-06	53.364	0.00076915	0.00077807	0.00021664	1513.3	8.5526e-06	8.573e-06	1511.9	399.29	8.5922e-06	8.5542e-06	460.69	153.81	133.58	45.972	8.4868e-06	56.839	327.431	14.231	92.424	-8.422	111.872	108.993	-8.492	-3.431	55.293	169.884	-4.472	0.312	1.028	5.136	112.515	4.403	-8191	255	
593.743	1	1	0	0	0.091774	0.23824	0.10471	0.12495	0.054283	0.13037	0.17656	0.30849	0.057195	0.28035	0.26882	0.16615	0.18483	0.3538	0.1294	0.26939	-2.8729	-3.0938	-3.2167	-3.3292	-2.9625	-3.3021	-3.1542	-3.0396	-3.3271	-2.8375	-3.275	-3.3875	-3.0042	-3.4167	-3.0938	-3.1229	78.899	-8.583	74.879	210.134	171.128	227.622	194.066	264.144	283.625	-18.656	252.459	197.964	299.221	324.553	233.589	132.968	0.00099857	0.00046048	0.00023949	1457	7.061e-06	4.3492e-06	1455.9	381.77	1.6406e-05	6.9227e-06	438.87	145.36	126.91	43.298	8.1883e-06	53.368	0.00078146	0.00077501	0.0002172	1512.8	8.5587e-06	8.574e-06	1511	399.64	8.5197e-06	8.5774e-06	460.64	153.86	133.51	45.977	8.5837e-06	56.845	-8.581	138.022	74.061	-8.330	97.458	183.040	-8.265	-3.488	73.703	107.629	-4.247	0.285	0.953	5.228	162.448	4.440	-8191	255	
593.840	1	1	0	0	0.15251	0.066365	0.19199	0.23829	0.16902	0.033224	0.3012	0.32141	0.13646	0.15582	0.095367	0.20754	0.35098	0.081428	0.039719	0.062098	-2.8542	-2.8792	-3.0583	-3.375	-2.8125	-3.4083	-3.3458	-3.075	-3.25	-2.9854	-3.2896	-3.4	-2.9062	-3.4729	-3.2604	-3.0187	256.232	199.513	99.945	-14.642	274.159	191.768	304.973	290.745	110.047	186.336	-3.624	-8.788	312.593	337.344	244.210	308.793	0.0013692	0.00019897	0.00012653	1458.3	6.918e-06	5.9544e-06	1460.1	382.46	1.4857e-06	1.0068e-05	440.09	145.34	127.01	43.193	3.2541e-06	53.361	0.0007784	0.00078051	0.00021744	1512	8.5016e-06	8.563e-06	1511.4	399.31	8.5143e-06	8.5126e-06	460.62	153.69	133.51	45.957	8.4264e-06	56.784	-1.714	196.835	67.788	-8.219	121.666	197.336	-8.546	-3.659	205.692	133.394	-4.031	0.549	0.750	5.225	107.253	4.479	-8191	255	
593.936	1	1	0	0	0.10581	0.13111	0.14013	0.096845	0.049083	0.22712	0.28173	0.21127	0.16096	0.052209	0.29471	0.23813	0.10674	0.35119	0.096837	0.23556	-2.9667	-3.075	-3.2917	-3.5479	-3.0958	-3.3167	-3.3438	-3.0167	-3.5208	-3.1479	-3.125	-3.6188	-2.9979	-3.4417	-3.3542	-3.0854	46.192	82.681	264.553	-11.773	93.937	255.434	285.604	2.763	284.344	192.408	3.815	-2.633	292.581	12.800	38.553	19.461	0.0010568	0.00038075	0.00015521	1458	9.5283e-06	5.9798e-06	1463.6	384.33	1.2685e-05	8.3658e-06	438.67	145.6	126.5	43.448	7.179e-06	53.388	0.00076962	0.00077383	0.00021565	1514.7	8.4738e-06	8.5558e-06	1514.2	399.74	8.4728e-06	8.5154e-06	460.33	153.89	133.45	46.019	8.4778e-06	56.773	0.824	75.132	-12.512	-8.404	73.736	207.716	-8.297	-3.650	70.694	182.081	-4.025	0.308	0.889	4.955	142.508	4.409	-8191	255	
594.055	1	1	0	0	0.1879	0.10912	0.16169	0.24976	0.15563	0.17298	0.10558	0.12445	0.045187	0.14726	0.21259	0.084029	0.45476	0.096914	0.1378	0.41677	-2.9021	-3.1042	-2.9396	-3.6542	-2.9646	-3.1875	-3.5646	-2.9688	-3.2708	-3.1042	-3.1479	-3.6271	-2.9313	-3.2125	-3.2896	-2.9	177.477	54.485	323.935	311.259	291.824	194.837	266.018	10.378	283.903	142.604	282.639	258.711	286.715	330.909	150.737	297.219	0.00099991	0.00087198	2.1494e-05	1457.8	8.6325e-06	3.8843e-06	1458.2	383.05	6.9565e-06	3.3208e-06	437.27	145.52	126.87	43.503	6.1546e-06	53.38	0.00076547	0.00077322	0.0002143	1512.1	8.4067e-06	8.4123e-06	1512.5	399.18	8.4132e-06	8.4296e-06	460.61	153.83	133.53	46.092	8.3963e-06	56.857	323.681	68.217	176.759	-8.172	95.472	169.167	-8.299	-3.811	153.980	158.385	-3.877	0.592	0.988	5.090	231.673	4.016	-8191	255	
594.151	1	1	0	0	0.18972	0.06091	0.090414	0.21693	0.017547	0.26635	0.36047	0.30633	0.10745	0.20457	0.066178	0.10436	0.06323	0.10915	0.099387	0.29443	-2.9292	-3.1396	-2.6917	-3.6604	-2.8563	-3.2	-3.45	-3.1229	-3.2188	-3.2771	-2.8771	-3.4688	-3.0729	-3.1688	-3.2687	-2.9688	40.522	321.524	73.098	284.009	290.797	322.356	263.686	262.424	311.322	12.964	226.944	-12.211	222.248	270.238	-5.791	262.322	0.00075172	0.00037689	0.0003088	1458.4	4.4226e-06	1.7033e-06	1456.5	383.28	1.7548e-05	2.362e-06	438.54	145.77	126.81	43.258	5.4117e-06	53.355	0.0007671	0.00077199	0.00021527	1513.9	8.49e-06	8.5189e-06	1509.7	399.32	8.4677e-06	8.4943e-06	460.25	153.89	133.45	45.964	8.522e-06	56.814	332.295	52.821	99.585	-8.300	47.262	34.428	-8.435	-3.641	116.654	198.488	-4.273	0.466	0.971	5.038	111.996	4.202	-8191	255	
594.247	1	1	0	0	0.10927	0.2587	0.26548	0.29539	0.21843	0.1398	0.12447	0.081414	0.14971	0.023538	0.28584	0.20034	0.058699	0.16823	0.16712	0.050539	-2.8646	-3.1271	-2.8729	-3.5438	-3.0292	-3.0229	-3.3917	-2.8771	-3.2146	-3.3563	-3.0479	-3.4292	-3.375	-3.2208	-3.4521	-3.0854	316.208	274.007	263.863	324.104	-21.113	105.502	-2.545	232.605	79.690	63.734	-21.466	325.858	82.417	-14.702	218.852	58.770	0.00096252	0.00031561	0.00010275	1457.9	5.8708e-06	6.06e-06	1456.8	381.17	8.5937e-06	7.4888e-07	438.24	145.4	126.86	43.289	1.0612e-05	53.268	0.00077952	0.00077715	0.00021714	1512.8	8.4647e-06	8.5047e-06	1509.2	398.83	8.5277e-06	8.5366e-06	460.2	154.01	133.38	46.02	8.5831e-06	56.789	338.036	55.148	99.802	-8.408	43.119	187.117	-8.495	-3.673	55.426	258.920	-4.013	0.566	1.003	5.081	62.560	4.690	-8191	255	
594.319	1	1	0	0	0.1943	0.15145	0.3566	0.19879	0.26828	0.20347	0.073991	0.47827	0.16182	0.14723	0.20598	0.068446	0.29479	0.17385	0.2747	0.20299	-2.9104	-3.4062	-2.8854	-3.5375	-3.1375	-2.9021	-3.275	-3.1229	-3.2917	-3.25	-3.1271	-3.4917	-3.3	-3.1417	-3.3375	-2.9979	147.968	76.895	76.493	260.621	167.851	236.707	10.418	285.557	14.438	-13.594	244.503	249.383	17.996	48.747	191.960	-3.526	0.0010578	0.00013768	0.00033697	1457	8.2711e-06	1.101e-06	1454.7	381.42	5.162e-06	2.4442e-06	438.96	145.42	126.94	43.325	4.5695e-06	53.278	0.00077491	0.00077876	0.00021571	1511.4	8.503e-06	8.5278e-06	1510.9	399.34	8.5553e-06	8.581e-06	460.29	153.92	133.55	45.921	8.5278e-06	56.845	329.288	69.738	59.382	-8.227	206.586	58.880	-8.372	-3.733	67.213	106.983	-4.157	0.389	0.771	5.307	158.787	4.566	-8191	255	
594.439	1	1	0	0	0.1051	0.067499	0.08814	0.23806	0.25381	0.18137	0.14837	0.23895	0.030172	0.044923	0.1152	0.092637	0.095787	0.15797	0.073289	0.12177	-2.7229	-3.3667	-2.8187	-3.4896	-3.1	-2.9104	-3.7625	-3.3125	-3.2083	-3.375	-3.1208	-3.3563	-3.1792	-2.8312	-3.3271	-3.0479	147.999	115.971	86.411	213.712	241.669	260.110	34.457	276.156	163.483	162.639	274.593	40.578	310.803	-5.187	302.376	315.231	0.0012681	0.00050569	0.00019704	1455.4	7.926e-06	8.1787e-06	1458.3	380.91	6.4062e-06	7.9838e-06	436.52	145.31	126.32	43.307	3.4757e-06	53.247	0.0007761	0.00077742	0.00021711	1511.8	8.4885e-06	8.5074e-06	1510.2	398.64	8.5274e-06	8.5705e-06	460.36	153.87	133.39	45.945	8.5873e-06	56.812	324.452	36.524	58.358	-8.346	152.110	249.791	-8.325	-3.776	146.899	94.596	-4.196	0.341	0.956	5.174	90.735	4.288	-8191	255	
594.535	1	1	0	0	0.27369	0.058734	0.078421	0.12163	0.27782	0.25249	0.12743	0.28165	0.26929	0.17481	0.30956	0.308	0.13206	0.14515	0.16247	0.060185	-2.8208	-3.4042	-2.9875	-3.4813	-3.0833	-3.0708	-3.6188	-3.2625	-3.0479	-3.5229	-3.0292	-3.2396	-3.3896	-2.85	-3.1979	-3.125	79.173	204.212	1.711	178.020	-12.345	136.819	262.009	285.515	28.788	208.986	233.153	298.083	65.114	131.884	254.191	269.179	0.0011736	0.00057707	0.00030004	1457.5	7.8924e-07	7.6762e-06	1457.4	381.13	9.7905e-06	8.192e-06	434.73	145.54	126.46	43.26	5.0081e-06	53.139	0.00078585	0.00078626	0.00021988	1512.3	8.6764e-06	8.637e-06	1509.3	398.98	8.6102e-06	8.6745e-06	459.67	153.74	133.37	45.915	8.616e-06	56.732	336.146	87.867	86.033	-8.338	88.052	186.243	-8.438	-3.872	-18.104	153.190	-4.015	0.359	0.958	5.284	94.398	4.428	-8191	255	
594.632	1	1	0	0	0.13107	0.20427	0.16841	0.30167	0.19683	0.069253	0.24022	0.35527	0.084689	0.023662	0.34008	0.23077	0.25285	0.20564	0.1544	0.075724	-2.5083	-3.2667	-3.0792	-3.1646	-3.1979	-2.8	-3.4667	-3.0771	-3.0042	-3.4646	-3.1958	-3.2458	-3.4062	-2.8875	-3.275	-3.3208	309.550	7.658	53.436	235.224	38.841	36.335	-0.524	230.623	63.228	254.706	159.407	273.277	-11.373	-13.283	131.549	134.467	0.0010858	0.0010792	9.0486e-05	1457.9	1.3572e-05	4.234e-06	1460.6	381.05	7.0271e-06	2.7698e-06	438.69	144.58	126.36	43.195	5.1851e-06	53.428	0.00078596	0.00078573	0.00021868	1514	8.6186e-06	8.6284e-06	1512.5	399.25	8.5982e-06	8.6389e-06	461.12	153.87	133.46	45.979	8.6601e-06	56.827	327.856	74.852	23.528	-8.201	48.723	283.281	-8.377	-3.587	246.724	293.814	-4.043	0.231	0.861	5.115	133.924	4.493	-8191	255	
594.728	1	1	0	0	0.28587	0.10857	0.29712	0.24736	0.077699	0.2311	0.044639	0.14086	0.15679	0.093905	0.075229	0.092302	0.42449	0.023059	0.27383	0.1939	-2.6146	-3.3333	-3.0521	-3.3375	-3.3583	-2.9667	-3.3937	-3.4562	-2.9271	-3.4771	-3.2104	-3.1896	-3.5792	-3.0875	-3.2479	-3.3354	141.731	126.816	298.814	280.962	81.430	305.710	288.872	243.622	310.464	114.902	30.137	101.613	291.974	326.053	274.235	-16.078	0.00083849	0.00118	0.00019995	1461.5	5.1854e-06	4.9776e-06	1461.3	381.11	8.0116e-06	1.086e-05	436.05	145.24	126.14	42.875	2.0192e-06	53.029	0.00079463	0.00079473	0.00022126	1514.4	8.7311e-06	8.7178e-06	1511.3	398.71	8.739e-06	8.7666e-06	460.18	153.41	133.4	45.9	8.7916e-06	56.849	333.612	26.705	65.312	-8.164	74.925	173.320	-8.544	-3.722	45.437	100.223	-3.966	0.596	1.256	5.336	140.769	4.424	-8191	255	
594.847	1	1	0	0	0.04759	0.22905	0.22328	0.32707	0.083444	0.089587	0.23703	0.10693	0.24558	0.23601	0.43071	0.25503	0.069707	0.14492	0.23514	0.028058	-2.5042	-3.3604	-3.2271	-3.2771	-3.4271	-2.9667	-3.4833	-3.425	-2.8063	-3.275	-3.1792	-3.0521	-3.4875	-3.1208	-3.0812	-3.4583	95.641	235.686	201.889	297.143	325.034	161.541	300.585	116.840	246.296	-3.015	296.991	294.571	239.262	295.561	9.677	140.204	0.00094085	0.00044913	0.00021896	1456	4.5829e-06	1.0087e-05	1455.3	380.66	7.261e-06	4.7663e-06	437.12	145.17	126	42.978	9.4893e-06	53.169	0.000802	0.00080061	0.00022324	1512.5	8.7767e-06	8.7881e-06	1511.9	398.99	8.7372e-06	8.7814e-06	460.37	153.79	133.21	45.876	8.7943e-06	56.753	329.705	-13.386	41.090	-8.398	168.124	174.439	-8.501	-3.615	120.351	232.543	-4.349	0.412	0.789	5.217	174.829	4.524	-8191	255	
594.943	1	1	0	0	0.058607	0.1335	0.26011	0.26262	0.1027	0.094923	0.16767	0.12255	0.21452	0.27677	0.12025	0.12207	0.15403	0.10049	0.19018	0.24937	-2.2854	-3.1771	-3.1521	-3.1813	-3.5563	-2.7792	-3.4604	-3.4771	-3.0125	-3.3125	-3.2562	-2.9625	-3.4979	-3.0375	-2.9646	-3.3708	306.365	12.213	323.187	-8.927	306.132	113.332	267.734	-19.929	100.124	-10.557	324.839	172.519	322.928	258.335	176.237	212.980	0.00096798	0.00037004	0.00016186	1454.4	1.0139e-06	1.075e-05	1457.3	380.35	2.3305e-06	4.7675e-06	434.68	144.04	125.86	43.182	9.2052e-06	53.115	0.00079796	0.00080616	0.00022421	1513.4	8.8378e-06	8.8033e-06	1512.9	398.54	8.7592e-06	8.8126e-06	460.53	153.41	133.09	45.906	8.8234e-06	56.748	325.236	6.416	3.971	-8.363	286.466	160.141	-8.302	-3.637	245.212	2.745	-4.152	0.593	0.983	5.457	126.291	4.270	-8191	255	
595.016	1	1	0	0	0.10194	0.14115	0.087954	0.3485	0.37647	0.20485	0.20376	0.083549	0.094988	0.17651	0.19695	0.21217	0.17379	0.15459	0.11383	0.045979	-2.4396	-3.3896	-3.1771	-3.1229	-3.3229	-3.1063	-3.4	-3.4375	-2.8896	-3.1771	-3.5229	-2.85	-3.45	-3.2479	-3.0479	-3.3583	171.244	126.266	319.102	323.262	242.296	189.565	331.162	264.205	195.226	-20.546	216.038	279.447	299.437	273.776	296.362	320.348	0.0011231	0.00073407	0.00024861	1458.9	5.9993e-06	4.8327e-06	1456.3	381.06	4.6822e-06	1.1472e-05	438.6	144.97	126.39	43.03	1.0744e-05	53.065	0.00079916	0.00080278	0.00022323	1513.8	8.804e-06	8.8307e-06	1511.3	398.86	8.8415e-06	8.8414e-06	461.64	153.54	133.19	45.921	8.7903e-06	56.686	-12.706	63.361	97.344	-8.310	147.579	83.484	-8.576	-3.417	316.701	155.862	-3.877	0.583	0.809	5.393	151.331	4.203	-8191	255	
595.135	1	1	0	0	0.17766	0.16266	0.14951	0.18172	0.22165	0.1789	0.28988	0.16648	0.18037	0.17991	0.29199	0.23351	0.27761	0.19367	0.32354	0.037092	-2.4896	-3.2354	-3.2521	-3.0729	-3.2938	-3.1125	-3.1167	-3.6354	-2.8667	-3.1771	-3.3604	-2.9	-3.3042	-3.0375	-2.9896	-3.5062	131.704	217.189	128.202	-10.383	54.915	137.467	284.393	54.114	323.714	332.078	52.326	-18.152	2.634	259.321	216.012	291.967	0.00083724	0.00025555	6.1124e-05	1457.7	2.2628e-06	8.378e-06	1452.2	381.15	5.3575e-06	4.5441e-06	435.23	145.48	126.31	43.035	4.0613e-06	53.189	0.00080058	0.00080557	0.0002248	1514.2	8.7831e-06	8.8172e-06	1512	399.38	8.7598e-06	8.7847e-06	460.34	153.56	133.36	45.899	8.7511e-06	56.798	5.218	121.467	103.730	-8.372	102.128	141.652	-8.294	-3.582	256.082	247.044	-3.800	0.459	0.877	5.404	99.007	4.302	-8191	255	
595.231	1	1	0	0	0.047108	0.11109	0.16974	0.2784	0.095967	0.20449	0.19059	0.16011	0.11667	0.048133	0.18716	0.11535	0.34396	0.27761	0.076255	0.28763	-2.5479	-3.1625	-3.0458	-2.9625	-3.1521	-3.1583	-2.9583	-3.575	-2.9729	-3.2792	-3.3458	-2.9875	-3.3542	-3.4083	-2.9667	-3.3625	276.823	259.029	279.139	308.625	136.621	323.340	291.031	287.705	138.491	275.161	-14.036	95.472	337.852	271.438	298.751	258.356	0.00064202	0.00079329	0.00011898	1460.6	7.3433e-06	2.2395e-06	1457.5	381.33	7.6098e-06	3.5936e-06	437.18	144.63	126.65	43.19	3.894e-06	53.453	0.00079356	0.0007994	0.00022229	1514	8.6908e-06	8.8008e-06	1512.3	398.99	8.7368e-06	8.8501e-06	460.94	153.71	133.47	45.956	8.8381e-06	56.974	13.295	56.492	104.469	-8.189	31.364	-11.064	-8.222	-3.666	75.374	143.276	-4.152	0.748	0.984	5.377	140.906	4.357	-8191	255	
595.327	1	1	0	0	0.31091	0.16762	0.11507	0.18781	0.12439	0.26395	0.05291	0.20565	0.19701	0.19246	0.16903	0.13008	0.14	0.33454	0.13081	0.1029	-2.7167	-2.8458	-3.3229	-3.2687	-3.4333	-3.0646	-3.0563	-3.5875	-3.1208	-2.825	-3.3604	-2.8729	-3.2438	-3.3271	-2.85	-3.3958	261.653	161.661	132.272	262.775	235.551	317.544	25.921	315.135	312.548	91.946	309.189	335.395	320.873	333.933	19.918	221.897	0.0010208	0.00059598	3.7517e-05	1451.7	4.0332e-06	4.0244e-06	1457.6	380.01	1.1556e-05	5.8339e-06	436.02	144.98	126.52	43.004	5.0331e-06	53.161	0.00080486	0.00081096	0.00022417	1513	8.7986e-06	8.8356e-06	1513.7	398.72	8.8109e-06	8.7927e-06	460.52	153.89	133.44	45.955	8.8452e-06	56.963	327.976	248.119	86.968	-8.192	54.529	34.953	-8.304	-3.581	163.047	100.924	-3.869	0.491	0.767	5.262	64.323	4.234	-8191	255	
595.448	1	1	0	0	0.18962	0.16364	0.054715	0.19883	0.056928	0.044729	0.32796	0.20621	0.33391	0.16552	0.23835	0.11005	0.21822	0.21022	0.32256	0.18095	-2.7021	-2.9188	-3.3667	-3.1354	-3.0229	-3.3125	-3.0271	-3.3396	-2.9625	-3.0125	-3.5375	-2.975	-3.2188	-3.4229	-2.9958	-3.3083	207.303	167.521	80.235	322.317	205.610	242.402	241.784	-21.345	184.107	281.644	318.546	220.662	-12.081	308.247	36.677	316.145	0.0012588	0.00069982	0.00010888	1458.9	1.2395e-05	6.5072e-06	1456.5	382.06	6.4747e-06	3.8606e-06	437.12	145.37	126.46	43.388	9.039e-06	53.339	0.0008017	0.00080796	0.00022442	1515.2	8.8753e-06	8.8904e-06	1513	399.7	8.8749e-06	8.8966e-06	461.39	154.17	133.49	46.087	8.9173e-06	56.976	-6.557	51.033	129.250	-8.351	32.194	207.787	-8.395	-3.536	150.969	209.704	-4.020	0.502	0.844	5.461	112.719	4.572	-8191	255	
595.544	1	1	0	0	0.11629	0.17028	0.038437	0.15804	0.17389	0.10235	0.111	0.082307	0.10642	0.29048	0.26837	0.17097	0.19999	0.054913	0.11885	0.037405	-2.8854	-2.9104	-3.2958	-3.0729	-3.0604	-3.2375	-2.8104	-3.4271	-3.1729	-3.1354	-3.4062	-3.0458	-3.0896	-3.5021	-2.8792	-3.125	254.605	154.640	102.731	287.629	26.150	53.036	281.172	-10.748	123.632	296.561	298.845	132.854	299.970	230.589	112.577	268.277	0.0011203	0.0012061	0.00019413	1455.5	4.4746e-06	1.8412e-06	1458.1	380.55	1.012e-05	3.8814e-06	437.69	144.8	126.52	43.119	4.7007e-06	53.177	0.00081238	0.00081367	0.00022722	1514.5	8.9196e-06	8.9315e-06	1514	399.54	8.8611e-06	8.9484e-06	461.12	154.13	133.49	45.962	8.8931e-06	56.971	321.092	325.575	59.071	-8.328	52.887	269.932	-8.378	-3.702	76.431	144.696	-4.030	0.704	0.920	5.360	58.393	4.348	-8191	255	
595.616	1	1	0	0	0.2194	0.23668	0.12361	0.22852	0.1912	0.13846	0.27018	0.17953	0.27114	0.13643	0.18961	0.33568	0.20396	0.14395	0.072567	0.3734	-2.8187	-2.9021	-3.3292	-3.3375	-3.1125	-3.4354	-3.0771	-3.4229	-3.3396	-2.925	-3.4292	-3.1479	-3.0979	-3.3896	-3.1604	-3.2	270.667	238.979	180.904	209.815	127.843	257.296	244.123	277.825	192.654	33.099	292.980	317.689	303.655	242.541	254.113	270.648	0.0010452	0.00037846	0.0001217	1461.9	1.44e-05	1.2967e-05	1460.1	380.36	1.0218e-05	1.1635e-05	435.12	145.66	126.87	43.016	7.0373e-06	53.166	0.00080671	0.00081877	0.00022598	1516.8	8.9471e-06	8.9278e-06	1516.3	399.18	8.9906e-06	8.9978e-06	461.21	154.35	133.73	45.982	8.8909e-06	56.976	-9.731	48.819	104.089	-8.333	120.288	161.543	-8.367	-3.494	109.050	155.692	-3.790	0.373	1.042	5.226	53.831	4.524	-8191	255	
595.736	1	1	0	0	0.31874	0.17713	0.17231	0.12579	0.092802	0.073306	0.43008	0.25467	0.099197	0.10564	0.2325	0.12884	0.10728	0.12109	0.046522	0.18407	-2.8167	-2.7938	-3.4646	-3.3583	-3.0042	-3.3292	-3.2812	-3.3583	-3.3021	-2.9313	-3.4125	-3.2333	-2.975	-3.3604	-3.1354	-3.1208	317.606	60.754	17.000	217.219	293.855	157.594	306.735	270.791	6.523	294.629	118.087	250.633	83.524	73.291	36.686	-0.308	0.00080212	0.00095414	8.6889e-05	1456.5	8.225e-07	6.8924e-06	1450.9	381.54	3.1258e-06	5.4102e-06	436.26	145.75	126.73	43.163	1.2026e-05	52.99	0.0008128	0.00081154	0.00022592	1515.2	8.8768e-06	8.8778e-06	1510.9	399.2	8.9173e-06	8.9041e-06	461.05	154.1	133.51	45.982	8.8901e-06	56.857	-2.935	30.631	56.707	-8.330	230.472	171.750	-8.354	-3.546	114.720	188.199	-3.924	0.583	0.797	5.322	87.137	4.810	-8191	255	
595.831	1	1	0	0	0.14456	0.034185	0.28149	0.12076	0.10136	0.23007	0.27579	0.38719	0.17712	0.13577	0.21212	0.066765	0.29045	0.14518	0.29056	0.20331	-3.1667	-2.8146	-3.1167	-3.3604	-2.7896	-3.2583	-3.0896	-3.3146	-3.4437	-2.9333	-3.3063	-3.4229	-3.1292	-3.3229	-3.0229	-3.1479	274.615	48.313	12.549	30.707	315.818	248.963	315.949	311.468	262.778	110.965	336.255	223.353	318.815	285.286	118.919	220.107	0.0010894	0.00047146	8.7577e-05	1459.4	4.585e-06	6.2886e-06	1458.2	381.75	5.2973e-06	5.0246e-06	434.77	145.09	126.01	43.174	3.9958e-06	53.175	0.00080922	0.00081869	0.000227	1515.8	8.8476e-06	8.9395e-06	1515.6	399.61	8.8763e-06	8.8974e-06	461.03	154.07	133.42	46.025	8.9159e-06	56.902	-10.703	18.918	274.210	-8.208	186.357	176.231	-8.555	-3.578	43.440	53.813	-3.954	0.546	0.727	5.266	173.782	4.598	-8191	255	
595.927	1	1	0	0	0.25173	0.12173	0.30882	0.12638	0.17003	0.12603	0.17318	0.32575	0.069068	0.099509	0.16647	0.096023	0.052538	0.17846	0.16058	0.16793	-3.0792	-3.0187	-3.1646	-3.4188	-2.8312	-3.375	-3.1396	-3.0771	-3.4625	-2.7229	-3.3458	-3.4917	-2.9771	-3.2125	-3.2875	-2.9771	115.227	281.158	337.435	254.193	307.150	93.960	269.197	-10.516	187.032	251.146	319.252	197.712	90.992	261.907	278.078	184.881	0.00076334	0.00050585	0.00019338	1461.9	3.2901e-06	4.905e-06	1456.6	381.17	8.4586e-06	6.9858e-06	436.2	145.11	125.86	42.852	4.1941e-06	53.21	0.00080487	0.0008102	0.00022549	1517.6	8.8441e-06	8.8686e-06	1513	399.25	8.8185e-06	8.8831e-06	460.75	154.17	133.39	45.88	8.8189e-06	56.935	9.230	76.362	22.558	-8.339	164.663	151.603	-8.278	-3.517	134.479	196.310	-3.992	0.664	0.896	5.315	168.692	4.617	-8191	255	
596.023	1	1	0	0	0.10032	0.16311	0.075946	0.33455	0.16447	0.15793	0.28564	0.17148	0.16493	0.19311	0.16991	0.16582	0.32241	0.11696	0.15737	0.28671	-2.9667	-2.8729	-3.0542	-3.5854	-2.8854	-3.2083	-3.15	-3.1479	-3.2083	-3.0938	-3.2729	-3.5042	-3.0187	-3.3458	-3.1063	-2.9083	138.002	62.682	304.561	336.304	46.196	78.696	251.045	182.211	74.582	199.141	262.089	259.330	-15.080	165.622	92.256	301.989	0.0013176	0.00022243	0.00022292	1457.4	1.219e-05	5.5472e-06	1458.7	381.02	8.0933e-06	8.1938e-06	436.09	145.34	126.66	43.239	4.9653e-06	53.258	0.00080618	0.00080765	0.00022483	1515.9	8.8097e-06	8.8316e-06	1515.2	399.71	8.8385e-06	8.8854e-06	460.29	154.18	133.46	46.077	8.8441e-06	56.965	7.556	58.112	32.703	-8.243	71.647	76.109	-8.495	-3.616	61.074	178.564	-3.983	0.696	0.741	5.269	128.654	4.522	-8191	255	
596.144	1	1	0	0	0.19661	0.16405	0.12607	0.31707	0.058253	0.090968	0.29508	0.2773	0.12045	0.065326	0.17535	0.021049	0.18405	0.4035	0.10439	0.37862	-2.9979	-2.9458	-3.0333	-3.4542	-2.8646	-3.1646	-3.2313	-2.9625	-3.2104	-2.975	-3.1229	-3.4208	-3.0021	-3.2479	-3.3187	-2.9167	94.833	254.578	306.476	332.530	162.393	147.225	253.991	258.718	33.574	239.743	259.311	62.830	284.191	285.669	283.091	296.965	0.00091009	0.00070042	0.00019484	1455.3	3.3417e-06	1.6455e-06	1455.6	382.05	4.5234e-06	9.5493e-06	436.06	145.28	126.31	43.261	6.5078e-06	53.149	0.00080278	0.00080579	0.00022534	1513.5	8.7578e-06	8.8466e-06	1513	399.32	8.8577e-06	8.8604e-06	460.65	154.02	133.67	46.061	8.7948e-06	56.907	327.033	20.733	19.427	-8.143	75.872	40.768	-8.491	-3.603	104.290	141.318	-3.884	0.848	0.793	5.191	60.300	4.271	-8191	255	
596.215	1	1	0	0	0.15526	0.10321	0.1926	0.40045	0.13178	0.13584	0.11768	0.17298	0.088211	0.078224	0.19692	0.36222	0.057161	0.15817	0.093903	0.2257	-2.875	-3.0375	-2.9625	-3.4854	-2.8271	-3.1958	-3.5	-3.0396	-3.2938	-3.1542	-3.1354	-3.3937	-2.9854	-3.0979	-3.1667	-3.0104	88.368	179.157	230.357	-12.865	268.400	287.766	262.682	-16.577	84.998	336.284	269.573	323.495	131.465	283.757	14.752	194.056	0.00085091	0.000364	0.00013137	1460.1	4.5594e-06	5.5794e-06	1455.3	382.34	9.228e-06	1.9951e-06	435.14	145.06	126.37	43.021	5.3191e-06	53.223	0.00079576	0.00080311	0.00022279	1517.8	8.7954e-06	8.7752e-06	1514.8	399.26	8.7861e-06	8.8476e-06	461.05	154.1	133.65	46.009	8.9079e-06	56.933	329.334	46.896	113.978	-8.228	321.388	226.139	-8.447	-3.646	130.139	101.315	-4.096	0.763	0.900	5.235	183.070	4.530	-8191	255	
596.312	1	1	0	0	0.25123	0.12777	0.32504	0.3431	0.070444	0.080079	0.25128	0.34192	0.086582	0.2201	0.25286	0.076013	0.15708	0.1014	0.39442	0.21641	-2.8312	-2.9771	-2.7313	-3.5	-2.9354	-3.1854	-3.4542	-3.1208	-3.4146	-3.1292	-3.0958	-3.5333	-3.1375	-3.3583	-3.3417	-3.0583	334.356	251.791	264.963	282.889	319.952	127.178	303.959	223.521	129.861	215.572	298.418	80.937	291.064	273.355	104.759	10.002	0.00079041	0.00020654	0.00022375	1456.6	1.1339e-05	1.6399e-05	1459.9	381.7	1.0166e-05	3.7308e-06	433.99	145.06	126.39	43.284	2.1075e-06	53.429	0.0008089	0.00081486	0.00022716	1516.4	8.8945e-06	8.9277e-06	1514.4	399.47	8.8954e-06	8.9255e-06	460.31	154.3	133.61	46.11	8.8941e-06	56.994	323.379	263.983	83.526	-8.486	73.718	168.734	-8.327	-3.585	101.267	91.794	-4.011	0.665	0.801	5.323	128.198	4.379	-8191	255	
596.408	1	1	0	0	0.12936	0.28185	0.26564	0.049299	0.15231	0.059148	0.026039	0.16366	0.12548	0.12409	0.13507	0.17407	0.11204	0.11245	0.18402	0.19204	-2.8312	-3.3083	-3.0521	-3.5271	-3.0687	-2.8604	-3.5104	-3.1708	-3.2271	-3.2062	-2.9562	-3.2854	-3.0479	-2.9583	-3.3937	-3.0875	242.674	42.652	279.630	-21.262	150.863	273.338	334.692	249.407	183.784	175.614	296.800	-20.827	3.758	247.169	127.137	226.007	0.0011421	0.00024503	7.2025e-05	1459.2	9.0557e-07	1.3737e-05	1459.7	381.11	6.3238e-06	1.1303e-05	437.15	145.65	126.96	43.262	3.7437e-06	53.114	0.00081191	0.00081505	0.00022682	1517.9	8.9142e-06	8.9335e-06	1513.9	399.51	8.8368e-06	8.9026e-06	461.02	154.24	133.63	46.004	8.8088e-06	56.978	10.570	337.770	159.818	-8.235	106.951	150.432	-8.530	-3.553	142.615	123.935	-4.229	0.492	0.928	5.264	170.822	4.459	-8191	255	
596.528	1	1	0	0	0.025865	0.20334	0.19604	0.09047	0.33283	0.11194	0.13396	0.39391	0.29976	0.12018	0.1386	0.29882	0.13301	0.22835	0.31916	0.14995	-2.7833	-3.2771	-2.6958	-3.5083	-3.1229	-3.1229	-3.5125	-3.1125	-3.2271	-3.4229	-2.9938	-3.3792	-3.3854	-2.9146	-3.4292	-3.0479	162.675	314.103	25.608	30.560	-13.661	59.223	322.233	269.685	188.692	177.302	295.409	0.310	-12.841	-0.669	170.280	269.324	0.0012904	0.00064995	0.00026254	1461.8	1.1944e-05	3.0882e-06	1457.5	381.81	8.6677e-06	9.6959e-06	434.7	145.27	127.2	43.15	5.4001e-06	53.474	0.00079925	0.00080251	0.00022411	1517.5	8.7529e-06	8.8484e-06	1512.3	398.99	8.7864e-06	8.8319e-06	460.42	154.22	133.82	46.051	8.7697e-06	57.03	330.426	337.013	70.034	-8.340	93.690	320.973	-8.278	-3.399	156.944	149.976	-3.855	0.579	0.875	5.310	175.205	4.723	-8191	255	
596.624	1	1	0	0	0.037772	0.037829	0.28837	0.40777	0.044518	0.28265	0.21114	0.209	0.25679	0.2588	0.19434	0.19579	0.16304	0.17227	0.20391	0.13514	-2.8063	-3.2979	-3.0146	-3.3312	-3.2042	-2.825	-3.5187	-3.2167	-3.1188	-3.4792	-3.1333	-3.3438	-3.4396	-3.0312	-3.4437	-2.9833	125.645	1.203	42.037	319.686	30.705	194.866	276.578	300.081	265.123	96.850	214.783	320.461	292.966	281.017	147.166	272.016	0.00095679	0.0003827	3.6128e-05	1458.7	1.4257e-05	8.9117e-06	1455.4	382.62	6.9631e-06	8.1388e-06	437.49	144.45	126.63	43.257	2.6917e-06	53.051	0.00080717	0.00080817	0.00022459	1515.8	8.8697e-06	8.872e-06	1515	399.62	8.8795e-06	8.8474e-06	461.37	154.08	133.49	46.003	8.8925e-06	56.863	335.262	184.486	78.709	-8.253	96.475	245.998	-8.490	-3.410	143.809	169.350	-3.972	0.575	0.821	5.212	332.177	4.535	-8191	255	
596.721	1	1	0	0	0.25649	0.18304	0.15814	0.28263	0.18131	0.19864	0.029656	0.20145	0.060388	0.17671	0.17285	0.18324	0.21627	0.33425	0.073678	0.32135	-2.7042	-3.3958	-2.8917	-3.2313	-3.2313	-2.9042	-3.5083	-3.2333	-2.9562	-3.3833	-3.0542	-3.3354	-3.2833	-3.0563	-3.2667	-3.1979	89.999	213.575	158.793	315.224	6.795	78.575	23.083	255.473	228.493	232.432	239.832	-14.554	321.782	243.672	232.858	275.166	0.00074482	0.00031432	0.00013492	1456.2	6.9596e-06	7.3201e-06	1456.5	380.81	1.0185e-05	5.6826e-06	435.69	144.27	126.25	43.269	4.813e-06	53.062	0.00081174	0.00081169	0.00022701	1516.2	8.867e-06	8.9064e-06	1513.4	399.3	8.9049e-06	8.9522e-06	460.38	153.91	133.39	45.953	8.8993e-06	56.894	302.440	307.042	153.644	-8.427	77.423	224.237	-8.389	-3.465	108.619	20.155	-3.918	0.538	1.111	5.296	57.766	4.351	-8191	255	
596.817	1	1	0	0	0.038443	0.11304	0.12774	0.31568	0.19544	0.11776	0.15094	0.36805	0.13998	0.12195	0.21037	0.097851	0.040156	0.056287	0.12633	0.28253	-2.5771	-3.4521	-2.8083	-3.1375	-3.2042	-3.0896	-3.5167	-3.2313	-2.9229	-3.3979	-3.2313	-3.0729	-3.5104	-2.8458	-3.3458	-3.4104	-17.122	216.363	324.260	329.699	51.269	241.600	249.445	238.017	60.640	151.307	207.757	75.101	312.604	251.706	-17.818	265.118	0.00097587	0.00029903	7.276e-05	1451.7	6.3037e-06	1.2194e-05	1457.5	380.94	2.2885e-06	1.7282e-06	437.55	144.73	125.78	42.917	6.9972e-06	52.88	0.00081477	0.00081514	0.00022587	1513.7	8.9017e-06	8.957e-06	1513.1	398.75	8.8621e-06	8.9576e-06	461.74	153.83	133.02	45.889	9.0123e-06	56.878	333.787	133.698	156.375	-8.404	133.872	233.516	-8.304	-3.566	77.609	81.025	-3.899	0.554	1.043	5.435	64.146	4.523	-8191	255	
596.911	1	1	0	0	0.17087	0.12139	0.062943	0.26018	0.15196	0.099799	0.17307	0.36264	0.11446	0.16288	0.21497	0.2539	0.099544	0.1353	0.17052	0.53273	-2.3937	-3.2625	-3.0958	-3.1521	-3.2208	-2.9417	-3.2687	-3.3458	-2.9521	-3.5458	-3.1813	-3.0062	-3.6354	-3.2604	-3.1729	-3.1896	71.432	91.855	327.234	283.587	120.109	96.240	17.682	262.256	326.007	2.560	288.002	8.397	320.920	291.766	211.175	28.780	0.0010404	0.00057352	7.1846e-05	1460.2	2.2679e-06	2.5403e-07	1461.1	380.55	8.5693e-07	2.9422e-06	437.31	144.85	125.82	42.824	7.0098e-06	52.83	0.00081831	0.00082061	0.00022819	1516.6	8.9606e-06	8.9661e-06	1514.1	399.13	8.9653e-06	9.0266e-06	461.44	153.84	133.23	45.84	9.1047e-06	56.715	-18.858	308.861	155.441	-8.267	70.179	275.042	-8.366	-3.501	264.108	81.576	-3.846	0.701	0.954	5.318	19.411	4.357	-8191	255	
597.009	1	1	0	0	0.060544	0.20788	0.075203	0.23945	0.011315	0.1755	0.33673	0.35307	0.076415	0.26871	0.2202	0.093735	0.16723	0.20874	0.37924	0.17188	-2.5938	-3.1458	-3.075	-3.1521	-3.2958	-3.1	-3.2396	-3.3271	-2.8583	-3.2208	-3.2083	-2.9167	-3.4979	-3.0604	-3.0958	-3.4604	-0.829	-9.281	232.345	254.604	79.596	108.664	261.596	294.692	79.212	42.560	255.477	125.850	193.775	5.179	309.547	272.480	0.0011116	0.00019916	0.00014668	1456.9	6.7628e-06	4.579e-06	1455.4	379.49	6.5013e-06	5.5029e-06	434.61	144.58	125.97	43.045	5.8984e-06	52.927	0.00082114	0.00083284	0.0002327	1515	9.1073e-06	9.1634e-06	1514.3	398.5	9.125e-06	9.1834e-06	460.73	153.75	133.2	45.877	9.187e-06	56.804	3.706	251.314	193.572	-8.230	102.292	152.053	-8.414	-3.588	257.199	122.843	-3.890	0.695	0.746	5.107	161.557	4.334	-8191	255	
597.128	1	1	0	0	0.033132	0.021901	0.080701	0.30641	0.18201	0.15237	0.057949	0.12939	0.04843	0.16815	0.088603	0.26403	0.082304	0.092411	0.14555	0.21759	-2.5146	-3.3979	-3.0312	-2.9375	-3.4375	-2.9333	-3.3063	-3.5146	-2.8125	-3.1458	-3.2583	-3.0208	-3.5375	-3.1562	-3.1	-3.4688	83.952	179.850	194.623	307.590	17.460	282.542	266.945	294.029	7.504	203.365	245.100	280.258	49.476	310.905	243.889	260.247	0.00065107	0.00034362	0.00012237	1449.5	7.2453e-06	4.918e-06	1449.8	379.53	1.8286e-05	6.6654e-06	436.24	143.86	125.91	43.113	6.0999e-06	52.84	0.00084059	0.000839	0.00023446	1514.3	9.154e-06	9.2016e-06	1511.7	398.43	9.1457e-06	9.1956e-06	460.66	153.43	133.18	45.957	9.2103e-06	56.812	336.561	15.764	48.522	-8.128	194.133	88.348	-8.386	-3.512	104.113	149.986	-3.918	0.489	0.830	5.280	133.519	4.603	-8191	255	
597.224	1	1	0	0	0.15254	0.15005	0.16685	0.38031	0.055524	0.22976	0.27745	0.045209	0.28248	0.022339	0.060352	0.26641	0.2367	0.33428	0.079702	0.22394	-2.575	-3.3438	-3.3042	-3.2146	-3.1937	-3.0083	-3.3354	-3.5604	-2.925	-3.2333	-3.3146	-3.1125	-3.4375	-3.1521	-2.8396	-3.4	-1.462	75.057	213.574	314.944	120.941	61.397	244.220	-8.118	61.721	206.086	178.239	31.481	322.342	335.932	148.773	253.220	0.0010972	0.00078174	0.00027711	1459.2	1.3264e-05	3.7456e-06	1458.6	380.4	4.5078e-06	3.7956e-06	434.26	144.62	126.02	42.903	5.2031e-06	52.611	0.000839	0.00084001	0.0002347	1517	9.175e-06	9.1939e-06	1515.3	398.73	9.0848e-06	9.1989e-06	460.16	153.8	133.22	45.887	9.127e-06	56.813	-16.121	35.859	172.406	-8.200	62.597	95.551	-8.498	-3.511	189.135	131.229	-3.952	0.659	0.803	5.602	109.392	4.323	-8191	255	
597.320	1	1	0	0	0.045509	0.22336	0.22863	0.28839	0.14617	0.10752	0.26499	0.29951	0.11842	0.11123	0.22834	0.24126	0.12202	0.24766	0.16686	0.21761	-2.6813	-3.275	-3.3354	-3.1063	-3.4854	-3.1708	-3.225	-3.6417	-3.0563	-3.1688	-3.5375	-2.9958	-3.3187	-3.2896	-2.8979	-3.4667	152.437	42.987	165.578	-20.393	202.974	5.634	284.917	291.309	6.213	104.218	319.009	295.422	14.900	304.328	-5.468	179.434	0.001043	0.00023861	5.5011e-05	1459.2	3.1519e-06	3.0446e-06	1453.4	379.44	1.0034e-05	2.1207e-06	433.77	143.73	126.02	42.938	5.1255e-06	52.917	0.00083657	0.00084301	0.0002351	1516.3	9.2314e-06	9.2342e-06	1514.7	398.57	9.198e-06	9.2894e-06	461.07	153.73	133.37	45.866	9.2271e-06	56.869	-3.741	155.557	141.397	-8.170	204.703	318.815	-8.377	-3.632	42.286	112.748	-3.836	0.733	0.849	5.214	120.773	4.444	-8191	255	
597.416	1	1	0	0	0.085564	0.18795	0.045951	0.16787	0.030661	0.28915	0.40415	0.20062	0.23695	0.15343	0.23047	0.2076	0.052052	0.078972	0.16294	0.15587	-2.6688	-3.1604	-3.4042	-2.9792	-3.25	-3.3875	-3.1125	-3.5146	-3.0708	-2.9771	-3.7104	-2.9062	-3.2958	-3.4229	-2.8583	-3.4604	10.070	145.483	159.277	280.076	78.006	136.012	297.540	-6.067	130.068	108.240	301.301	288.375	284.269	99.145	288.659	147.456	0.0012452	0.00050584	0.00019557	1457.5	7.0746e-06	4.5398e-06	1458	379.98	5.5706e-06	5.9075e-06	433.58	144.58	125.66	42.945	4.9205e-06	53.129	0.00083442	0.0008362	0.00023325	1517.6	9.1681e-06	9.16e-06	1516.1	398.97	9.1603e-06	9.1375e-06	460.29	153.68	133.32	45.872	9.1196e-06	56.883	331.989	62.419	76.802	-8.133	57.879	111.953	-8.412	-3.463	91.568	-19.753	-3.767	0.421	1.169	5.185	114.787	4.595	-8191	255	
597.513	1	1	0	0	0.28812	0.20659	0.018376	0.16629	0.22872	0.069975	0.15356	0.31984	0.0096753	0.10321	0.024735	0.1273	0.064905	0.23293	0.34509	0.34256	-2.7958	-2.9562	-3.275	-3.2292	-3.2542	-3.3208	-3.0979	-3.7188	-3.1354	-2.8458	-3.4375	-3.1188	-3.3042	-3.3354	-3.0938	-3.275	83.149	-12.722	206.704	256.491	90.788	-6.293	55.820	274.847	175.959	260.724	109.532	291.339	-10.040	267.333	326.025	222.106	0.0012955	0.00093499	0.00022874	1459.1	1.3716e-05	1.84e-06	1456.9	380.56	1.4089e-05	4.5535e-06	434.61	144.97	126.3	43.136	3.5915e-06	52.903	0.00083338	0.00083136	0.00023273	1517.7	9.1441e-06	9.1617e-06	1513.9	398.84	9.1102e-06	9.0815e-06	460.49	153.89	133.46	45.919	9.1058e-06	56.881	-10.269	37.307	85.434	-8.179	74.143	232.063	-8.311	-3.512	132.228	208.621	-3.957	0.222	1.101	5.127	333.655	4.482	-8191	255	
597.609	1	1	0	0	0.12598	0.16334	0.092882	0.34615	0.23775	0.14716	0.1295	0.1497	0.034738	0.19822	0.006522	0.068439	0.18048	0.11782	0.25422	0.26346	-2.975	-3.0875	-3.4854	-3.2438	-3.0333	-3.35	-2.9646	-3.4146	-3.0938	-2.8812	-3.3958	-2.9958	-3.2646	-3.4875	-2.8917	-3.2687	297.393	47.068	24.959	280.782	183.663	291.663	313.590	-16.453	321.442	15.187	-16.112	267.175	274.547	289.196	97.211	245.028	0.00074703	0.00027725	0.00014964	1456.3	6.7634e-06	9.2747e-06	1454.2	381.25	7.8294e-06	3.3776e-06	435.42	144.96	126.17	43.226	1.1159e-06	52.956	0.00082497	0.00083144	0.00023167	1516.9	9.0899e-06	9.1058e-06	1514.5	399.61	9.1292e-06	9.0818e-06	460.8	154.19	133.43	46.041	9.0554e-06	56.934	-21.337	75.840	152.899	-8.286	41.029	164.963	-8.332	-3.538	143.066	203.266	-3.917	0.600	1.001	5.331	42.966	4.583	-8191	255	
597.705	1	1	0	0	0.10472	0.1898	0.14325	0.15237	0.22557	0.16054	0.29116	0.15875	0.10792	0.081248	0.15355	0.23982	0.33522	0.27555	0.15114	0.3286	-2.7729	-2.8875	-3.3396	-3.1167	-2.8646	-3.3958	-3.0583	-3.3333	-3.2604	-2.8083	-3.4958	-3.1292	-3.1542	-3.5083	-2.8979	-3.1583	306.498	46.359	-11.970	332.245	304.370	170.343	274.391	278.132	202.265	62.781	329.755	328.257	331.048	299.620	238.551	315.364	0.0011102	0.00040152	0.00018664	1455.8	2.736e-06	1.0731e-05	1453	379.77	6.3156e-06	4.7037e-06	436.76	144.48	126.09	42.967	5.1551e-06	53.184	0.00082114	0.00082646	0.00023144	1518.9	9.0527e-06	9.0497e-06	1515.6	398.77	9.0106e-06	9.0937e-06	460.53	153.88	133.56	45.999	9.0045e-06	56.863	-5.782	29.096	119.104	-8.254	257.894	108.301	-8.395	-3.485	101.501	170.732	-3.996	0.452	1.181	5.324	102.153	4.452	-8191	255	
597.825	1	1	0	0	0.23828	0.18448	0.10894	0.32945	0.12664	0.029059	0.31772	0.40165	0.13181	0.11143	0.24383	0.097544	0.23613	0.22564	0.086603	0.13108	-2.8208	-3.0333	-3.4104	-3.3354	-3.1479	-3.3563	-2.9667	-3.2854	-3.0208	-3.0833	-3.45	-3.2583	-3.0979	-3.4125	-3.1625	-3.3417	326.610	326.934	197.168	290.371	309.970	162.409	279.470	263.654	285.622	18.625	316.655	126.334	287.735	255.969	119.995	254.543	0.0010295	0.00070545	4.9038e-05	1458.9	7.8975e-06	2.5828e-06	1457.7	381.06	3.8992e-06	5.6333e-06	435.39	145.36	126.4	43.091	6.3059e-06	53.292	0.00082163	0.00082513	0.00023045	1516	9.0742e-06	9.0396e-06	1516.1	399.54	9.0799e-06	9.0867e-06	460.53	154.53	133.65	46.052	9.0721e-06	56.999	-11.770	40.958	216.325	-8.218	39.258	216.341	-8.304	-3.604	101.695	132.530	-4.186	0.576	0.690	5.496	94.807	4.653	-8191	255	
597.920	1	1	0	0	0.13312	0.12994	0.10059	0.39023	0.21991	0.22172	0.25446	0.14222	0.22916	0.094279	0.2311	0.30801	0.074672	0.049854	0.15853	0.048092	-3.0021	-2.7458	-3.1688	-3.3125	-2.9479	-3.3521	-3.35	-3.3312	-3.1604	-2.8125	-3.2875	-3.4667	-3.0896	-3.4188	-2.9917	-3.25	119.831	62.516	4.668	327.071	184.708	212.071	301.293	293.404	89.842	39.431	247.053	286.811	168.645	155.878	277.484	221.841	0.00096555	0.00061225	8.2271e-05	1458.9	5.0539e-06	8.4578e-06	1454.5	381.04	4.6093e-06	1.0955e-05	436.48	145.01	126.07	42.991	4.462e-06	52.939	0.00082645	0.00082541	0.00023119	1518.2	9.0915e-06	9.0522e-06	1514.6	399.24	9.0346e-06	9.0925e-06	461.39	154.27	133.49	46.045	9.1287e-06	56.9	331.970	53.664	16.385	-8.200	88.793	207.392	-8.377	-3.561	138.479	145.804	-3.970	0.578	1.087	5.377	215.638	4.407	-8191	255	
598.016	1	1	0	0	0.13219	0.22407	0.14767	0.19317	0.20769	0.076701	0.25057	0.14626	0.060951	0.11168	0.2404	0.26524	0.043888	0.11909	0.10559	0.10555	-2.9292	-2.9542	-3.1167	-3.4729	-2.9625	-3.3438	-3.2625	-3.1937	-3.4521	-3	-3.2146	-3.375	-3.0833	-3.3937	-3.0771	-3.0208	95.224	92.903	145.329	326.041	158.706	246.764	282.110	257.781	200.048	27.202	293.216	308.845	161.295	255.853	84.198	211.373	0.0012897	0.00065005	0.00013497	1461.5	3.0456e-06	5.9735e-06	1455.6	379.91	1.1414e-05	1.1073e-05	433.76	144.59	126.27	43.191	6.0405e-06	53.258	0.00082587	0.00083392	0.00023201	1518.3	9.1156e-06	9.1662e-06	1515.4	399.03	9.1285e-06	9.2174e-06	461.21	153.83	133.55	46.028	9.2348e-06	57.091	-18.799	43.831	103.286	-8.264	23.545	187.239	-8.094	-3.457	184.600	156.357	-4.072	0.513	0.925	5.269	68.815	4.748	-8191	255	
598.112	1	1	0	0	0.13778	0.15138	0.019797	0.22487	0.26705	0.065492	0.19729	0.23604	0.15434	0.20744	0.13898	0.30495	0.081818	0.19413	0.18357	0.16267	-3.0875	-2.9896	-3.0854	-3.4729	-2.8063	-3.3667	-3.4229	-3.2229	-3.3708	-2.8937	-3.0938	-3.1604	-2.9083	-3.3771	-3.2	-2.9646	68.663	285.638	50.450	263.094	7.063	175.330	308.882	264.839	163.074	153.179	-7.397	299.795	249.967	7.229	325.953	267.372	0.0010132	0.00036189	0.00019093	1455	3.2997e-06	7.2775e-06	1455.1	380.92	4.2906e-06	9.3783e-06	435.01	145.33	125.62	43.089	3.9544e-06	53.27	0.00083406	0.00083545	0.00023226	1517.3	9.1467e-06	9.1776e-06	1517.5	400.16	9.1447e-06	9.2149e-06	462.09	154.41	133.48	45.999	9.22e-06	56.939	-14.191	111.838	9.997	-8.375	135.238	210.254	-8.181	-3.540	158.100	111.304	-3.848	0.874	0.817	5.258	179.563	4.472	-8191	255	
598.208	1	1	0	0	0.16145	0.1968	0.12111	0.15437	0.1986	0.10108	0.14971	0.20426	0.17538	0.127	0.14938	0.21485	0.45583	0.17176	0.24676	0.20159	-2.8	-3	-3.1771	-3.5	-2.9042	-3.3667	-3.2687	-2.9229	-3.3021	-3.0896	-3.1521	-3.4292	-3.0833	-3.3292	-3.1	-2.9792	-2.200	150.398	72.627	-1.417	134.928	67.013	237.547	273.173	28.242	126.629	287.244	16.938	299.961	278.083	250.152	285.996	0.000655	0.00047992	0.00020292	1454.2	7.7244e-06	1.002e-05	1449.8	379.2	9.8503e-06	1.0074e-05	434.75	144.37	125.71	43.15	4.5895e-06	53.089	0.00084006	0.00084609	0.00023671	1517.2	9.3059e-06	9.277e-06	1512.9	399.08	9.2658e-06	9.3904e-06	461.14	153.98	133.51	46.093	9.2899e-06	56.902	0.642	295.552	82.188	-8.293	20.301	182.165	-8.425	-3.340	63.232	190.849	-3.951	0.472	1.029	5.405	246.607	4.500	-8191	255	
598.304	1	1	0	0	0.22146	0.20145	0.23853	0.15283	0.071212	0.27046	0.056858	0.1038	0.13082	0.13522	0.11046	0.1426	0.21318	0.22383	0.12979	0.18931	-2.7854	-3.1708	-2.9292	-3.4479	-2.9333	-3.1146	-3.5187	-2.9833	-3.3292	-3.0812	-3.0167	-3.5667	-3.0521	-3.3063	-3.15	-3.1271	1.802	269.623	316.610	246.833	-4.179	238.441	200.429	184.068	84.742	333.222	91.012	284.144	325.459	295.607	82.684	317.935	0.00072205	0.00063384	0.00012611	1457.3	2.7802e-06	4.9841e-06	1451.3	381.32	5.5688e-06	7.408e-06	433.76	144.33	126.18	43.189	1.0876e-05	53.033	0.00084554	0.00084611	0.00023633	1517.5	9.2305e-06	9.2845e-06	1515.5	399.62	9.2533e-06	9.2803e-06	461.64	154.03	133.62	46.06	9.254e-06	56.942	-14.689	73.854	56.996	-8.292	108.572	95.097	-8.216	-3.521	148.135	157.431	-3.845	0.545	1.309	5.422	152.442	4.295	-8191	255	
598.401	1	1	0	0	0.10296	0.4247	0.063433	0.070881	0.11835	0.26909	0.30162	0.44393	0.11209	0.096551	0.15462	0.13384	0.27365	0.22987	0.30107	0.18176	-2.9104	-3.3187	-2.9854	-3.5854	-3.0208	-3.0833	-3.5687	-3.0625	-3.2375	-3.1208	-2.9771	-3.4313	-3.1479	-3.1167	-3.3937	-3.0875	204.801	216.589	92.068	231.987	204.840	69.911	332.918	295.529	163.919	95.365	-16.540	216.983	314.939	290.424	206.072	311.419	0.0011759	0.00070748	0.00011801	1460.3	4.2883e-06	5.0435e-06	1451.9	379.15	1.5479e-05	7.2834e-06	437.11	143.87	125.77	43.042	5.7667e-06	52.843	0.00084531	0.00084916	0.00023569	1519.7	9.3037e-06	9.3363e-06	1515	398.85	9.2811e-06	9.2964e-06	461.72	153.96	133.43	46.05	9.2985e-06	56.974	316.689	133.075	63.660	-8.332	99.792	98.217	-8.373	-3.558	178.703	107.132	-4.033	0.681	1.145	5.504	75.372	4.614	-8191	255	
598.497	1	1	0	0	0.17184	0.15751	0.38766	0.26442	0.26047	0.17448	0.35684	0.13284	0.058795	0.19731	0.15688	0.039331	0.062623	0.20121	0.045503	0.13377	-2.8812	-3.2104	-2.9271	-3.3521	-3.0854	-3.1854	-3.5687	-3.1729	-3.2854	-3.2375	-3.0812	-3.4646	-3.0521	-3.1646	-3.4104	-3.0187	177.985	14.028	-0.309	261.162	254.497	274.538	270.051	311.229	319.591	321.663	322.624	304.880	337.834	-8.653	235.392	7.826	0.0011468	0.00027586	0.00045718	1454.2	1.1184e-06	5.6531e-06	1460.1	379.46	1.0804e-05	5.6137e-06	436.78	145.29	125.66	43.025	5.8032e-06	52.909	0.00084641	0.00085174	0.00023571	1517.9	9.2172e-06	9.2718e-06	1517.3	399.38	9.2836e-06	9.2601e-06	461.98	154.42	133.47	46	9.2656e-06	56.933	319.882	322.044	91.227	-8.252	182.955	158.017	-8.458	-3.554	179.800	209.044	-3.996	0.691	1.095	5.131	138.202	4.661	-8191	255	
598.617	1	1	0	0	0.21632	0.27691	0.060746	0.14609	0.2144	0.1538	0.22004	0.32878	0.18605	0.20366	0.37653	0.15151	0.27935	0.24505	0.09156	0.14292	-2.6083	-3.2958	-3.0583	-3.5083	-2.9708	-2.8	-3.5875	-3.1667	-3.2208	-3.3208	-3.1708	-3.4625	-3.1125	-2.9792	-3.4125	-3.1813	110.655	110.558	143.178	326.542	269.046	166.548	246.830	288.236	179.314	325.810	265.348	279.605	328.080	270.587	159.852	136.561	0.0014668	0.00022324	0.00018708	1459	6.3805e-06	5.0533e-06	1453.1	379.05	3.7905e-06	3.8673e-06	435.37	144.31	126.48	43.12	1.2672e-06	52.757	0.00084224	0.00083783	0.00023428	1519.5	9.2464e-06	9.2504e-06	1516.8	398.96	9.2492e-06	9.1917e-06	460.97	154.42	133.68	46.015	9.1799e-06	56.947	-7.902	153.573	104.394	-8.246	250.243	237.170	-8.325	-3.470	162.740	231.852	-4.039	0.426	1.036	5.344	185.863	4.156	-8191	255	
598.714	1	1	0	0	0.30201	0.26624	0.20116	0.39399	0.14412	0.10412	0.060406	0.2878	0.069209	0.22383	0.067856	0.22852	0.14443	0.14797	0.16969	0.15439	-2.6583	-3.4229	-2.9104	-3.3625	-3.2188	-2.8896	-3.5479	-3.1312	-3.0958	-3.3792	-3.0104	-3.4854	-3.2458	-3.0521	-3.3646	-3.0979	155.173	22.824	277.599	279.394	98.198	34.651	337.456	299.757	255.171	313.378	255.337	316.490	55.472	332.537	157.595	279.826	0.00091099	0.0006705	0.00013409	1456	5.104e-06	1.2155e-05	1455.4	379.86	4.3515e-06	4.4344e-06	435.26	144.84	125.64	43.009	2.96e-06	53.155	0.00083651	0.00084008	0.00023395	1518.1	9.193e-06	9.2307e-06	1515.8	399.55	9.1957e-06	9.2023e-06	461.72	154.24	133.49	46.051	9.1745e-06	57.016	328.249	-12.225	180.332	-8.197	82.238	218.494	-8.167	-3.421	243.326	70.860	-4.034	0.563	0.845	5.178	269.442	4.397	-8191	255	
598.810	1	1	0	0	0.21189	0.022908	0.064724	0.12669	0.34717	0.16691	0.14933	0.30045	0.13651	0.022031	0.18569	0.16775	0.41724	0.1348	0.049711	0.15392	-2.6896	-3.2833	-2.9042	-3.4917	-3.2958	-2.9167	-3.6354	-3.0479	-3.1271	-3.4313	-3.0187	-3.2875	-3.45	-2.875	-3.2229	-3.2604	42.562	326.137	39.421	-6.241	108.885	194.591	316.600	269.592	-2.127	177.083	14.732	336.002	-8.161	320.267	272.258	300.176	0.00093321	0.00049427	0.00010108	1456.9	6.8787e-06	7.957e-06	1459.5	381.21	7.9013e-06	5.2674e-06	434.52	145.15	125.96	42.816	4.0091e-06	53.077	0.00083896	0.00083586	0.00023322	1517.2	9.1732e-06	9.139e-06	1517.2	399.66	9.1198e-06	9.1114e-06	461.74	154.33	133.62	45.936	9.1398e-06	56.965	-0.890	87.986	73.720	-8.045	29.667	258.275	-8.409	-3.254	226.429	206.660	-3.840	0.710	0.761	5.501	119.791	4.543	-8191	255	
598.906	1	1	0	0	0.093485	0.10751	0.1531	0.40726	0.22167	0.19096	0.16985	0.25127	0.063851	0.15744	0.094413	0.28531	0.30812	0.3011	0.18624	0.082882	-2.6417	-3.3187	-2.9	-3.4417	-3.4021	-3.1146	-3.3625	-3.325	-3.1292	-3.3583	-3.1292	-3.2083	-3.5187	-3.0729	-3.2875	-3.3771	182.631	70.979	248.780	302.786	191.798	55.670	231.801	267.249	321.223	298.096	257.320	337.203	307.466	7.418	329.014	236.330	0.00085812	0.00040024	0.00018147	1455.5	5.9594e-06	1.1045e-05	1456.8	379.93	8.6847e-06	1.161e-05	436.55	144.69	126.65	43.045	6.2004e-06	53.04	0.00083274	0.00083522	0.0002321	1516.8	9.1521e-06	9.1168e-06	1516.3	399.35	9.1287e-06	9.1607e-06	461.71	154.22	133.45	46.011	9.154e-06	56.935	323.432	288.386	118.340	-8.076	234.899	144.214	-8.105	-3.439	106.151	130.360	-4.070	0.402	1.040	5.360	311.064	4.544	-8191	255	
599.000	1	1	0	0	0.16784	0.32535	0.27111	0.091821	0.07597	0.10271	0.1991	0.21085	0.2119	0.03456	0.24444	0.17796	0.1481	0.21009	0.10253	0.20157	-2.6396	-3.5042	-2.8396	-3.3708	-3.2417	-2.9437	-3.525	-3.4792	-2.8229	-3.2896	-3.2958	-3.2625	-3.4562	-3.0604	-3.2729	-3.3917	51.331	13.768	255.324	-3.045	35.295	55.599	266.130	317.704	14.759	41.923	293.160	24.334	229.954	324.243	282.988	9.873	0.00080853	0.0011763	0.00010688	1458.9	7.3053e-07	2.833e-06	1460.4	381.28	6.4061e-06	8.8361e-06	435.92	144.96	126.09	43.02	3.7049e-06	52.881	0.00083204	0.00084256	0.00023336	1519.2	9.1054e-06	9.0801e-06	1518.9	400	9.0802e-06	9.1549e-06	462.23	154.3	133.72	45.995	9.1354e-06	56.851	-17.060	51.340	115.200	-8.047	304.739	128.254	-8.241	-3.572	52.584	195.204	-3.934	0.841	0.957	5.308	77.502	4.393	-8191	255	
599.096	1	1	0	0	0.12945	0.13735	0.16735	0.11147	0.11615	0.14659	0.32397	0.29578	0.24158	0.20862	0.030619	0.20651	0.10091	0.19954	0.17487	0.082406	-2.3292	-3.3354	-3.275	-3.2979	-3.5167	-3.2375	-3.3167	-3.3979	-2.7521	-3.3771	-3.2667	-3.0542	-3.5187	-3.0354	-3.1813	-3.4104	184.702	27.509	328.102	277.902	61.374	30.297	329.315	276.095	257.438	165.119	-2.238	283.739	281.681	329.467	102.227	35.030	0.0010911	0.0003871	0.00019982	1459	9.2585e-06	8.2661e-06	1457.6	379.94	2.505e-06	1.239e-05	436.76	145.48	125.64	43.04	9.0321e-06	53.068	0.00083004	0.00083899	0.00023401	1520.5	9.1695e-06	9.2189e-06	1517.3	399.45	9.24e-06	9.2697e-06	462.12	154.13	133.43	46.009	9.2733e-06	57.022	-15.456	125.132	55.401	-8.285	126.888	150.294	-8.383	-3.559	142.821	55.995	-4.132	0.533	1.043	5.370	62.200	4.674	-8191	255	
599.217	1	1	0	0	0.086794	0.15812	0.21147	0.35089	0.32513	0.10351	0.16085	0.10284	0.13822	0.11556	0.10828	0.24011	0.11483	0.18434	0.21321	0.2809	-2.5792	-3.1937	-3.1771	-3.3208	-3.4688	-2.8229	-3.2333	-3.3604	-2.9437	-3.2542	-3.4375	-3.1771	-3.4854	-3.1917	-2.9896	-3.4583	112.783	164.055	-15.066	308.358	330.818	162.455	299.730	138.642	54.707	21.936	19.471	219.812	310.532	246.795	282.386	311.078	0.0015176	0.00022858	0.00039954	1457.7	4.3372e-06	1.1366e-05	1457.3	380.62	7.7412e-06	5.0608e-06	434.71	145.05	125.67	42.992	1.2501e-05	52.976	0.00084491	0.00084773	0.00023575	1520.1	9.2161e-06	9.2935e-06	1518.5	399.84	9.2208e-06	9.2365e-06	461.25	154.29	133.45	46.002	9.2801e-06	56.97	337.250	293.368	89.760	-8.214	117.752	171.228	-8.250	-3.527	185.859	176.182	-3.937	0.521	0.872	5.549	164.864	4.664	-8191	255	
599.313	1	1	0	0	0.20559	0.039444	0.079566	0.34378	0.18421	0.073196	0.20355	0.063554	0.24518	0.20305	0.20693	0.27124	0.21668	0.15248	0.063687	0.065176	-2.5042	-3.1979	-3.2188	-3.025	-3.3167	-3.0458	-3.2771	-3.4875	-3.0062	-3.2917	-3.4604	-3.0729	-3.3354	-3.2396	-2.9958	-3.5375	113.495	12.172	204.000	306.844	291.971	263.981	298.673	269.942	236.976	176.412	280.330	307.663	287.964	324.031	107.024	262.416	0.0010929	0.0006438	0.00027953	1457.5	1.1536e-05	4.1517e-06	1453.4	380.11	1.204e-05	2.5605e-06	433.55	144.27	126.3	43.094	6.0181e-06	52.888	0.00084277	0.00084827	0.00023569	1518.1	9.3444e-06	9.3601e-06	1515.8	399.4	9.292e-06	9.344e-06	461.17	154.26	133.42	46.024	9.2746e-06	56.875	335.312	310.910	75.679	-8.488	27.289	331.535	-8.237	-3.511	175.786	169.651	-3.847	0.609	1.307	5.456	209.595	4.619	-8191	255	
599.385	1	1	0	0	0.2009	0.26787	0.10648	0.051447	0.090172	0.07471	0.22664	0.26125	0.10269	0.36958	0.13613	0.38832	0.34702	0.34254	0.03512	0.090999	-2.4854	-3.2042	-3.3333	-3.0625	-3.4104	-3.1917	-3.1375	-3.5458	-2.9813	-3.1479	-3.4083	-3.0104	-3.3646	-3.2042	-3.0083	-3.3229	269.542	163.485	274.510	306.218	101.008	85.437	281.577	285.302	92.883	261.628	118.850	-8.241	255.217	313.994	159.455	3.968	0.00093856	0.00052921	0.00017094	1455.1	4.3408e-06	7.8918e-06	1454.8	379.72	8.4704e-06	4.1956e-06	432.74	144.23	125.8	43.091	3.2689e-06	53.12	0.00084331	0.00084991	0.00023551	1519.5	9.3105e-06	9.3204e-06	1515.1	399.32	9.3549e-06	9.3603e-06	461.06	154.1	133.43	46.003	9.3298e-06	56.917	-7.593	24.294	143.128	-8.169	117.328	184.159	-8.213	-3.473	121.302	91.358	-3.984	0.774	1.172	5.194	-2.452	4.656	-8191	255	
599.481	1	1	0	0	0.17671	0.14256	0.10573	0.11482	0.19729	0.21938	0.23559	0.12345	0.12474	0.077939	0.21576	0.15581	0.14098	0.19913	0.27178	0.2098	-2.5083	-3.1688	-3.2229	-2.9896	-3.1125	-3.3958	-3.225	-3.3625	-3.0229	-3.0979	-3.3792	-2.9854	-3.3	-3.3271	-2.8312	-3.3604	160.215	301.840	310.904	7.242	304.060	123.390	305.032	214.793	141.512	123.708	283.586	330.508	-12.093	325.566	286.869	285.581	0.00093089	0.00065579	0.00014042	1458	2.68e-06	1.0129e-05	1455.6	380.39	5.1069e-06	8.621e-06	436.68	143.74	126.07	42.769	9.5409e-06	52.888	0.00084866	0.00085164	0.00023767	1518.2	9.3247e-06	9.3809e-06	1518.2	398.73	9.3547e-06	9.3653e-06	461.71	154	133.43	45.97	9.3331e-06	56.888	-6.845	50.786	138.887	-8.184	170.041	188.401	-8.195	-3.527	181.087	232.940	-3.610	0.472	1.078	5.385	86.490	4.455	-8191	255	
599.602	1	1	0	0	0.085194	0.14471	0.28978	0.039793	0.034786	0.13898	0.43822	0.32875	0.1639	0.049743	0.13124	0.073254	0.092345	0.10717	0.22719	0.06422	-2.8729	-3.0167	-3.2542	-3.0625	-3.2333	-3.1771	-3.0812	-3.525	-2.8958	-3.1208	-3.4917	-2.9813	-3.3167	-3.5042	-2.9125	-3.3729	193.375	279.033	121.395	64.678	129.736	261.367	281.204	293.324	59.250	271.687	333.167	244.067	97.133	338.415	202.947	240.291	0.00060195	0.00025628	0.00018197	1459.3	6.2645e-06	8.7183e-06	1453.8	380.55	1.6773e-05	2.1554e-06	436.18	144.55	125.21	42.938	4.075e-06	52.82	0.00084669	0.00084785	0.00023603	1519.3	9.3125e-06	9.3341e-06	1517.4	398.84	9.2517e-06	9.2913e-06	461.31	153.9	133.11	45.826	9.2891e-06	56.804	331.517	61.241	55.062	-8.070	27.472	167.799	-8.324	-3.499	86.425	329.691	-3.762	0.706	0.936	5.399	116.916	4.600	-8191	255	
599.698	1	1	0	0	0.15635	0.096551	0.21821	0.070178	0.056302	0.068267	0.28156	0.17063	0.071704	0.17218	0.25627	0.079459	0.17171	0.070721	0.09369	0.15856	-2.8208	-3.0187	-3.3438	-3.175	-3.1708	-3.2792	-3.1917	-3.5833	-3.125	-2.9708	-3.5604	-3.1625	-3.2375	-3.4062	-3.0104	-3.3729	231.900	195.655	17.247	1.541	322.554	-11.041	292.551	256.020	279.914	22.898	291.912	14.354	11.876	235.965	277.782	248.755	0.00098218	0.00049376	6.4114e-05	1452.6	5.1369e-06	7.691e-06	1452.7	378.71	1.134e-05	7.5618e-06	433.59	144.52	125.38	42.759	5.847e-06	52.867	0.00084812	0.00084858	0.00023763	1516.3	9.2919e-06	9.3238e-06	1516.2	398.49	9.3987e-06	9.4053e-06	461.63	154.11	132.86	45.906	9.3466e-06	56.777	-4.139	81.396	113.741	-8.024	180.446	164.747	-8.214	-3.548	79.329	104.086	-3.688	0.666	1.044	5.404	172.179	4.679	-8191	255	
#DATA ENDS
